BOXY.EXE: ISS Imagent and Oximeter Data Acquisition Program Version 0.80
Ascii Record File

#ACQ INFORMATION
2  Detector Channels 
16  External MUX Channels 
1  Auxiliary Channels 
5000  Waveform (CCF) Frequency (Hz)
1  Waveforms Skipped 
30  Waveforms Averaged 
1  Cycles Averaged 
16  Acquisitions per Waveform 
10.0806  Updata Rate (Hz) 

#FILE INFORMATION
TRUE -- External MUX Channel results are PARSED.
FALSE -- AC DC and Phase are NOT grouped.
TRUE -- Companion Program Settings File CREATED.
FALSE -- AC data not excluded
FALSE -- DC data not excluded
FALSE -- Phase data not excluded
FALSE -- Auxillary Chn. data not excluded
Tab delimiters

#CALIBRATION STATE
TRUE -- Waveform Calibration Values APPLIED.


#AUX CALIBRATION VALUES
Val Type	aux-1	

Term	1.0000e+00	
Factor	0.0000e+00	


#WF CALIBRATION VALUES
A = Detector Channel
Val Type	A-AC1	A-AC2	A-AC3	A-AC4	A-AC5	A-AC6	A-AC7	A-AC8	A-AC9	A-AC10	A-AC11	A-AC12	A-AC13	A-AC14	A-AC15	A-AC16	A-DC1	A-DC2	A-DC3	A-DC4	A-DC5	A-DC6	A-DC7	A-DC8	A-DC9	A-DC10	A-DC11	A-DC12	A-DC13	A-DC14	A-DC15	A-DC16	A-Ph1	A-Ph2	A-Ph3	A-Ph4	A-Ph5	A-Ph6	A-Ph7	A-Ph8	A-Ph9	A-Ph10	A-Ph11	A-Ph12	A-Ph13	A-Ph14	A-Ph15	A-Ph16	

Term	0.00000e+00	0.00000e+00	0.00000e+00	0.00000e+00	0.00000e+00	0.00000e+00	0.00000e+00	0.00000e+00	0.00000e+00	0.00000e+00	0.00000e+00	0.00000e+00	0.00000e+00	0.00000e+00	0.00000e+00	0.00000e+00	0.00000e+00	0.00000e+00	0.00000e+00	0.00000e+00	0.00000e+00	0.00000e+00	0.00000e+00	0.00000e+00	0.00000e+00	0.00000e+00	0.00000e+00	0.00000e+00	0.00000e+00	0.00000e+00	0.00000e+00	0.00000e+00	0.00000e+00	0.00000e+00	0.00000e+00	0.00000e+00	0.00000e+00	0.00000e+00	0.00000e+00	0.00000e+00	0.00000e+00	0.00000e+00	0.00000e+00	0.00000e+00	0.00000e+00	0.00000e+00	0.00000e+00	0.00000e+00	
Factor	1.00000e+00	1.00000e+00	1.00000e+00	1.00000e+00	1.00000e+00	1.00000e+00	1.00000e+00	1.00000e+00	1.00000e+00	1.00000e+00	1.00000e+00	1.00000e+00	1.00000e+00	1.00000e+00	1.00000e+00	1.00000e+00	1.00000e+00	1.00000e+00	1.00000e+00	1.00000e+00	1.00000e+00	1.00000e+00	1.00000e+00	1.00000e+00	1.00000e+00	1.00000e+00	1.00000e+00	1.00000e+00	1.00000e+00	1.00000e+00	1.00000e+00	1.00000e+00	X	X	X	X	X	X	X	X	X	X	X	X	X	X	X	X	

B = Detector Channel
Val Type	B-AC1	B-AC2	B-AC3	B-AC4	B-AC5	B-AC6	B-AC7	B-AC8	B-AC9	B-AC10	B-AC11	B-AC12	B-AC13	B-AC14	B-AC15	B-AC16	B-DC1	B-DC2	B-DC3	B-DC4	B-DC5	B-DC6	B-DC7	B-DC8	B-DC9	B-DC10	B-DC11	B-DC12	B-DC13	B-DC14	B-DC15	B-DC16	B-Ph1	B-Ph2	B-Ph3	B-Ph4	B-Ph5	B-Ph6	B-Ph7	B-Ph8	B-Ph9	B-Ph10	B-Ph11	B-Ph12	B-Ph13	B-Ph14	B-Ph15	B-Ph16	

Term	0.00000e+00	0.00000e+00	0.00000e+00	0.00000e+00	0.00000e+00	0.00000e+00	0.00000e+00	0.00000e+00	0.00000e+00	0.00000e+00	0.00000e+00	0.00000e+00	0.00000e+00	0.00000e+00	0.00000e+00	0.00000e+00	0.00000e+00	0.00000e+00	0.00000e+00	0.00000e+00	0.00000e+00	0.00000e+00	0.00000e+00	0.00000e+00	0.00000e+00	0.00000e+00	0.00000e+00	0.00000e+00	0.00000e+00	0.00000e+00	0.00000e+00	0.00000e+00	-8.38749e+01	-1.27561e+02	-1.29383e+02	-1.82058e+02	-6.19891e+01	-7.14628e+01	-1.55747e+02	-1.62015e+02	-5.82974e+01	-6.86231e+01	-1.71238e+02	-1.71237e+02	-1.82061e+02	-1.77401e+02	-5.37240e+01	-1.50384e+02	
Factor	1.42709e-05	1.38839e-04	3.86687e-05	4.05436e-01	1.18614e-06	1.51150e-06	1.47071e-01	4.85511e-02	1.02166e-06	1.47325e-06	7.65610e-02	2.53067e-02	2.09732e-02	7.51348e-03	1.33112e-06	1.08675e-02	6.93059e-06	9.99898e-06	2.78233e-06	2.11537e-01	1.08082e-07	1.11375e-07	7.28781e-02	2.56159e-02	1.03966e-07	1.10888e-07	3.90711e-02	1.30328e-02	1.12180e-02	3.99480e-03	1.06624e-07	5.59534e-03	X	X	X	X	X	X	X	X	X	X	X	X	X	X	X	X	



#DISTANCE SETTINGS
A = Detector Channel
A-1	A-2	A-3	A-4	A-5	A-6	A-7	A-8	A-9	A-10	A-11	A-12	A-13	A-14	A-15	A-16	

2.5000e+00	3.0000e+00	2.5000e+00	3.0000e+00	2.0000e+00	3.0000e+00	1.5000e+00	3.0000e+00	3.0000e+00	3.0000e+00	3.0000e+00	3.0000e+00	3.0000e+00	3.0000e+00	1.5000e+00	3.0000e+00	

B = Detector Channel
B-1	B-2	B-3	B-4	B-5	B-6	B-7	B-8	B-9	B-10	B-11	B-12	B-13	B-14	B-15	B-16	

1.0000e+01	1.0000e+01	1.0000e+01	1.4400e+00	1.0000e+01	1.0000e+01	1.5100e+00	1.9400e+00	1.0000e+01	1.0000e+01	1.9900e+00	2.4900e+00	2.4100e+00	2.9000e+00	1.0000e+01	2.9800e+00	




#DATA BEGINS
time	group	step	mark	flag	A-AC1	A-AC2	A-AC3	A-AC4	A-AC5	A-AC6	A-AC7	A-AC8	A-AC9	A-AC10	A-AC11	A-AC12	A-AC13	A-AC14	A-AC15	A-AC16	A-DC1	A-DC2	A-DC3	A-DC4	A-DC5	A-DC6	A-DC7	A-DC8	A-DC9	A-DC10	A-DC11	A-DC12	A-DC13	A-DC14	A-DC15	A-DC16	A-Ph1	A-Ph2	A-Ph3	A-Ph4	A-Ph5	A-Ph6	A-Ph7	A-Ph8	A-Ph9	A-Ph10	A-Ph11	A-Ph12	A-Ph13	A-Ph14	A-Ph15	A-Ph16	B-AC1	B-AC2	B-AC3	B-AC4	B-AC5	B-AC6	B-AC7	B-AC8	B-AC9	B-AC10	B-AC11	B-AC12	B-AC13	B-AC14	B-AC15	B-AC16	B-DC1	B-DC2	B-DC3	B-DC4	B-DC5	B-DC6	B-DC7	B-DC8	B-DC9	B-DC10	B-DC11	B-DC12	B-DC13	B-DC14	B-DC15	B-DC16	B-Ph1	B-Ph2	B-Ph3	B-Ph4	B-Ph5	B-Ph6	B-Ph7	B-Ph8	B-Ph9	B-Ph10	B-Ph11	B-Ph12	B-Ph13	B-Ph14	B-Ph15	B-Ph16	aux-1	digaux	

26278.637	1	1	0	768	0.28338	0.040256	0.13887	0.084847	0.11827	0.044983	0.30323	0.34566	0.016544	0.2064	0.082485	0.13957	0.13866	0.20124	0.074082	0.28588	-2.2875	-2.8937	-2.7938	-2.6375	-2.8354	-3.0354	-2.9583	-3.1208	-2.875	-3.0646	-3.0458	-2.7938	-2.9479	-2.7812	-2.9188	-3.2125	211.859	233.920	-20.724	31.727	265.134	14.539	256.842	302.504	49.596	73.804	23.712	283.053	318.946	113.156	118.503	143.184	0.00046497	0.0010277	0.0002997	586.54	1.4412e-05	1.289e-05	1059.9	190.25	1.0423e-05	4.995e-06	423.6	163.23	60.971	28.119	1.1017e-05	84.456	0.023917	0.034461	0.009535	1262.4	0.0003723	0.00038096	1237.4	265.47	0.00035518	0.000386	531.33	198.81	95.97	39.956	0.00036716	98.96	222.789	157.744	200.698	-24.251	-12.109	113.759	-23.242	-19.085	102.172	176.896	-18.759	-14.374	-14.197	-10.816	40.204	-10.480	-8191	255	
26278.732	1	1	0	0	0.16312	0.034615	0.17554	0.19999	0.23331	0.17997	0.12725	0.22379	0.18965	0.3054	0.078824	0.24552	0.050852	0.15926	0.19518	0.13604	-2.2604	-2.7333	-3.1708	-2.8104	-2.9813	-2.9437	-2.7812	-3.1688	-2.8063	-3.1	-3.1417	-2.8833	-2.9417	-3.0479	-2.9188	-3.3354	5.770	-27.603	104.792	-11.319	135.432	186.235	229.171	270.116	34.719	229.741	138.017	250.676	134.036	-25.642	307.667	233.152	0.00051266	0.00054255	0.00056638	577.24	2.3542e-05	1.5315e-05	1061.7	192.09	1.6292e-05	8.6492e-06	427.93	164.3	62.205	28.448	3.2265e-05	85.456	0.023817	0.034326	0.0095349	1268.4	0.00037102	0.00037903	1238.7	265.91	0.00035047	0.00037818	532.54	199.93	96.413	40.189	0.00036592	99.554	230.688	75.673	-8.956	-24.036	277.732	209.142	-22.899	-18.565	87.200	52.161	-18.752	-14.438	-14.396	-10.532	189.035	-10.183	-8191	255	
26278.828	1	1	0	0	0.17096	0.065422	0.28158	0.12057	0.089157	0.19076	0.20127	0.16778	0.16195	0.10649	0.33635	0.078813	0.036192	0.3179	0.07618	0.47489	-2.4708	-2.7333	-3.0687	-2.9854	-3.0229	-2.9688	-2.9604	-3.1146	-2.8917	-2.9229	-3.1271	-2.8792	-3.0104	-3.0458	-2.7958	-3.2417	220.413	253.678	8.261	101.077	90.243	67.761	222.013	15.730	123.728	71.870	289.371	257.095	233.149	258.953	-24.736	235.066	0.00020633	0.0037573	0.00068004	591.2	1.5238e-05	5.287e-05	1064.2	192.05	6.3833e-06	2.1976e-05	425.87	163.6	61.539	27.956	3.6458e-05	84.132	0.023593	0.033684	0.009383	1253.6	0.000366	0.00037616	1239.6	265.56	0.00034948	0.00037858	531.09	198.87	95.41	39.833	0.00035866	98.442	234.706	314.470	39.671	-23.981	149.672	74.826	-23.133	-18.316	27.342	283.974	-18.746	-14.061	-14.103	-10.751	238.897	-10.293	-8191	255	
26278.926	1	1	0	0	0.19545	0.13846	0.085092	0.059883	0.12935	0.22004	0.58096	0.1512	0.2585	0.092373	0.098509	0.21018	0.091051	0.22844	0.1713	0.20723	-2.3917	-2.8667	-3.0708	-2.8625	-2.9604	-2.9	-2.8042	-3.1917	-2.9	-2.9917	-3.0375	-3.0521	-2.9083	-3.0854	-2.7646	-3.0312	107.714	202.406	145.017	-9.181	52.799	44.422	269.489	244.549	277.453	130.711	237.700	-9.364	35.865	321.147	263.499	281.115	0.00018746	0.00069446	0.00062829	572.67	1.8234e-05	1.8693e-05	1055.2	188.61	5.5074e-06	1.9076e-05	422.66	161.94	61.34	27.948	1.6386e-05	83.996	0.023313	0.03354	0.0093466	1244.1	0.00036817	0.00037182	1226.5	261.5	0.00034577	0.00037214	525.79	197.14	95.304	39.769	0.00036203	98.322	169.839	157.215	110.774	-23.157	4.421	255.302	-23.305	-18.800	59.602	11.411	-18.695	-14.328	-14.110	-10.507	108.583	-10.107	-8191	255	
26279.021	1	1	0	0	0.27343	0.30926	0.099333	0.11756	0.096359	0.17562	0.28691	0.11461	0.14	0.10154	0.24412	0.18732	0.35117	0.083419	0.16912	0.14439	-2.4708	-2.7229	-3.1271	-2.6625	-2.8271	-2.9271	-2.9125	-3.0187	-2.9021	-2.7646	-3.1562	-2.7938	-2.8187	-3.0958	-2.9396	-3.1042	-5.235	32.024	-24.677	96.288	237.017	201.222	220.630	295.447	6.795	204.848	288.076	179.389	274.602	151.210	273.423	266.318	0.00021683	0.00161	0.00063662	589.55	1.5701e-05	2.4565e-06	1054.5	189.5	1.4294e-05	1.0219e-05	424.69	162.35	61.122	28.096	5.0236e-06	83.602	0.023439	0.033879	0.0094955	1256.8	0.00037053	0.00037932	1233.7	264.61	0.00035246	0.00038029	530.99	198.44	95.999	39.828	0.00036105	98.398	185.926	151.623	41.900	-23.783	-8.159	-28.475	-23.249	-18.824	215.557	65.419	-18.414	-14.479	-14.203	-10.675	180.440	-9.991	-8191	255	
26279.117	1	1	0	0	0.12698	0.17279	0.051538	0.1376	0.25347	0.12926	0.44099	0.45754	0.17497	0.33335	0.10475	0.17112	0.21044	0.29678	0.10057	0.23265	-2.5417	-2.7479	-3.0667	-2.825	-2.9854	-3.0146	-2.8771	-3.0604	-3.0479	-2.7062	-3.2021	-3.1979	-2.8229	-3.0729	-2.6792	-3.1625	75.622	124.871	257.986	88.196	215.765	212.891	263.783	292.432	100.481	226.540	103.774	255.064	242.016	73.798	80.458	244.730	0.00044022	0.0022146	0.00068003	587.82	1.4352e-06	8.588e-06	1059.4	189.17	1.7533e-05	2.7251e-05	425.4	162.73	60.883	27.767	1.3554e-05	83.718	0.023646	0.034118	0.0095903	1262.7	0.00037571	0.0003837	1240	265.76	0.00035803	0.00038558	533.39	198.52	96.401	40.004	0.00036796	98.86	174.489	77.767	-24.658	-23.820	0.758	26.563	-23.114	-18.577	316.042	71.260	-19.017	-14.537	-14.129	-10.228	187.803	-10.225	-8191	255	
26279.236	1	1	0	0	0.24211	0.15032	0.13785	0.08443	0.16492	0.1351	0.28668	0.043274	0.091051	0.065244	0.18477	0.23572	0.24047	0.12199	0.14619	0.10403	-2.6083	-2.7229	-2.9729	-2.7687	-2.9833	-3.0396	-3.0521	-2.9396	-3.1375	-2.7062	-3.1875	-2.9542	-2.7687	-3.2333	-2.7812	-3.0292	72.303	62.535	218.805	203.425	118.687	313.898	227.070	57.058	266.363	67.939	321.719	317.177	-29.792	81.049	35.673	246.345	0.00022891	0.0016658	0.00027767	593.55	1.7655e-05	1.4454e-05	1066.5	190.31	1.9663e-05	9.378e-06	429.11	163.24	61.579	28.156	3.1134e-05	84.155	0.024066	0.034682	0.009686	1282.9	0.00037694	0.00038731	1249.7	267.6	0.00036264	0.00039058	538.81	199.94	97.251	40.54	0.00037601	99.396	191.832	129.181	45.169	-22.518	94.098	221.985	-23.129	-18.438	2.151	46.708	-18.605	-14.268	-13.845	-10.346	120.990	-10.285	-8191	255	
26279.332	1	1	0	0	0.079115	0.12582	0.2701	0.16394	0.14941	0.19264	0.29016	0.18019	0.24687	0.17916	0.041959	0.44919	0.20409	0.19448	0.20564	0.20587	-2.5646	-2.6292	-3	-3	-2.7292	-3.1437	-2.8729	-2.7979	-2.925	-2.7583	-3.0875	-2.9521	-2.8417	-3.0687	-2.6292	-2.9917	215.762	-13.762	-20.107	315.437	71.869	322.586	252.714	204.635	262.217	-24.160	63.707	272.489	291.566	309.937	196.519	321.801	9.0387e-05	0.002382	0.00059896	587.65	6.9155e-06	6.4693e-06	1062.2	190.2	1.834e-05	2.2699e-05	420.88	159.29	60.647	27.195	2.1525e-06	81.77	0.024739	0.0354	0.0099797	1297.8	0.00039399	0.00040072	1251.3	268.64	0.00037201	0.00039779	536.71	198.17	97.02	40.127	0.00038217	98.015	161.667	78.890	182.553	-23.834	65.500	79.149	-23.339	-18.890	94.670	93.668	-19.007	-14.004	-14.057	-10.181	131.165	-10.278	-8191	255	
26279.430	1	1	0	0	0.13133	0.28233	0.15595	0.10982	0.15406	0.14521	0.18439	0.061492	0.1475	0.22564	0.18118	0.22473	0.20115	0.073175	0.01989	0.21643	-2.6229	-2.7188	-3.0396	-2.9042	-2.6833	-3.0417	-2.8396	-2.9313	-2.9417	-2.7438	-2.9313	-3.0479	-2.6958	-3.1229	-2.7875	-3.025	60.332	19.551	70.342	308.052	212.174	2.658	293.819	302.287	-10.510	161.695	247.042	306.538	318.553	235.146	78.911	197.608	0.00041581	0.0013379	0.00030618	575.56	2.2232e-05	2.4361e-05	1056	187.86	4.3303e-07	1.7669e-05	424.71	161.03	59.883	27.326	7.2841e-06	82.207	0.024909	0.035702	0.0099909	1298.6	0.00038926	0.00040118	1249	268.19	0.0003744	0.00039924	539.21	199.25	97.069	40.06	0.00038275	97.919	192.464	-34.081	-35.366	-24.157	112.097	257.185	-23.542	-18.955	255.811	14.003	-18.718	-14.467	-14.161	-10.576	188.652	-10.115	-8191	255	
26279.525	1	1	0	0	0.13348	0.17934	0.083864	0.20075	0.080798	0.012365	0.11365	0.058965	0.0084864	0.29051	0.34355	0.25256	0.15653	0.12408	0.22759	0.016439	-2.5854	-2.85	-2.7687	-2.9479	-2.6937	-3.1875	-3.0479	-2.9875	-2.9792	-2.7188	-2.975	-3.0521	-2.7521	-3.0542	-3.0417	-2.8812	184.423	283.068	190.047	41.053	-31.269	317.263	266.794	292.828	133.284	243.520	-16.977	237.874	35.195	20.537	245.602	162.459	0.00042195	0.0022866	0.00041934	582.77	8.3047e-06	1.883e-05	1062.1	187.79	2.0801e-06	1.2277e-05	422.12	160.06	60.528	27.639	2.6564e-05	82.397	0.025041	0.03584	0.0099569	1300.2	0.00039006	0.00040222	1251.1	268.15	0.00037316	0.00039936	537.01	199.43	97.751	40.552	0.00039049	98.901	174.142	304.620	-10.955	-23.464	277.859	215.099	-22.966	-18.582	283.725	202.934	-18.690	-14.536	-13.581	-10.090	111.860	-10.426	-8191	255	
26279.621	1	1	0	0	0.13409	0.14034	0.31004	0.16131	0.098718	0.1363	0.24322	0.25256	0.37211	0.11765	0.09082	0.15469	0.1863	0.050748	0.2301	0.43597	-2.6958	-2.8583	-2.8979	-2.8771	-2.7562	-3.0917	-3.1646	-2.8729	-3.1562	-2.9813	-3.0438	-3.3521	-2.6583	-2.9708	-3.0375	-2.8646	9.146	319.071	200.273	155.088	116.282	8.116	311.239	-28.742	114.252	275.248	321.222	200.716	0.306	-17.486	110.039	268.391	0.0003841	0.0004838	0.00072505	588.62	1.3802e-05	1.5244e-05	1070.2	187.52	1.1149e-05	1.0163e-05	425.11	158.62	59.973	27.56	1.9994e-05	83.037	0.025765	0.036776	0.010218	1320.6	0.0003967	0.00041417	1263.2	269.63	0.00038464	0.0004086	542.61	199.41	97.754	40.658	0.00039184	98.928	155.489	-23.576	170.408	-23.337	153.969	213.798	-23.312	-18.394	312.860	91.491	-18.532	-13.800	-13.959	-10.550	215.979	-10.138	-8191	255	
26279.717	1	1	0	0	0.16513	0.2063	0.093712	0.071875	0.1954	0.10392	0.425	0.10413	0.3532	0.25478	0.31032	0.32264	0.12977	0.22144	0.092803	0.23386	-2.7771	-2.9229	-3.0354	-3.0687	-2.8	-3.0938	-3.1562	-2.8896	-2.9042	-2.8958	-2.7667	-3.0646	-2.6708	-2.8375	-3.0062	-2.8354	306.111	-5.678	296.278	252.344	4.710	76.351	235.653	-28.861	215.236	302.817	290.088	315.098	183.078	174.616	101.874	272.685	0.000185	0.001754	0.00049106	580.68	3.0215e-05	1.8856e-05	1063.4	188.18	1.4944e-06	1.5699e-05	419.34	158.45	59.294	27.174	9.1211e-06	81.857	0.025695	0.037119	0.01026	1324.4	0.00039908	0.00041958	1262.5	270.62	0.00038437	0.00040984	537.44	198.68	97.6	40.362	0.00039227	97.787	146.775	303.969	75.654	-24.043	244.015	254.752	-23.097	-19.092	-31.527	321.393	-18.798	-14.190	-14.738	-10.462	112.071	-10.201	-8191	255	
26279.838	1	1	0	0	0.060703	0.1386	0.32593	0.16463	0.049313	0.091405	0.17368	0.24025	0.11691	0.12203	0.29483	0.18192	0.033679	0.056923	0.21494	0.10842	-2.5646	-2.7104	-2.7375	-2.9896	-2.6354	-2.975	-3.2458	-2.8417	-3.0104	-2.9062	-2.9521	-3.1479	-2.7875	-3.05	-3.2062	-2.725	2.097	212.052	167.331	237.056	129.064	197.205	249.879	264.140	229.755	32.819	293.645	233.415	218.634	313.026	100.380	300.569	0.00044676	0.0035263	0.0002578	571.29	9.2672e-06	3.4923e-05	1049.6	187.73	2.0565e-05	1.0423e-05	413.98	158.24	59.389	27.161	2.4882e-05	81.562	0.025739	0.03677	0.010203	1311.2	0.00039572	0.00041097	1248.1	267.72	0.00038002	0.0004059	534.41	197.28	96.917	40.038	0.0003884	97.526	159.668	71.494	111.335	-23.400	179.229	-15.429	-23.357	-18.627	154.793	135.347	-18.735	-14.139	-13.822	-10.384	130.319	-10.222	-8191	255	
26279.934	1	1	0	0	0.18251	0.085623	0.14013	0.26134	0.1115	0.10916	0.22362	0.051329	0.079067	0.17303	0.27518	0.2715	0.040302	0.22942	0.17675	0.23038	-2.4854	-2.9958	-2.7125	-3.0438	-2.8563	-2.8063	-3.125	-2.7667	-3.0187	-3.0875	-2.7854	-3.2271	-2.9854	-2.7667	-3.1437	-3.0604	289.810	-11.382	9.735	-9.139	35.465	163.205	278.253	13.474	264.619	105.459	253.887	311.639	-16.031	322.019	143.464	234.960	0.0004019	0.002061	0.00030588	582.64	1.8232e-05	7.7727e-06	1050.1	187.5	6.2844e-06	5.9641e-06	421.07	160.53	60.071	27.243	3.0681e-06	82.846	0.025533	0.036142	0.010074	1301.5	0.00038928	0.00040763	1247.2	267.1	0.00037488	0.00039937	535.75	199.12	97.173	40.198	0.00038523	98.323	224.877	58.465	17.306	-24.001	-27.338	48.294	-23.211	-18.803	-7.950	178.090	-18.735	-13.962	-14.084	-10.748	82.213	-10.091	-8191	255	
26280.029	1	1	0	0	0.25112	0.18733	0.24498	0.30427	0.20016	0.082886	0.34062	0.45385	0.17096	0.1188	0.26442	0.08486	0.1854	0.11755	0.17818	0.2524	-2.4167	-2.9104	-2.7375	-2.8979	-2.8063	-2.7687	-3.3833	-2.6229	-2.9667	-3.0479	-2.9	-3.1896	-2.975	-2.8521	-2.9854	-3.025	97.243	76.582	212.662	230.874	274.405	38.730	309.155	228.761	221.229	318.602	218.483	0.257	171.347	214.588	153.153	287.100	0.00033229	0.0025147	0.00042372	584	6.4891e-06	1.3886e-05	1062.4	187.78	8.2162e-06	1.1553e-05	423.06	160.26	59.67	27.643	1.2156e-05	83.669	0.025434	0.035903	0.010038	1303.1	0.00038743	0.00040089	1252.5	267.73	0.00036938	0.0003946	535.93	199.12	96.599	40.125	0.00038125	98.675	158.666	93.589	27.831	-23.767	186.982	263.447	-23.042	-18.763	-9.799	80.676	-19.144	-14.130	-14.803	-10.016	248.020	-9.859	-8191	255	
26280.125	1	1	0	0	0.23934	0.24117	0.151	0.18621	0.25184	0.30028	0.33516	0.17545	0.1475	0.037107	0.18214	0.062747	0.061211	0.072002	0.16388	0.40928	-2.3292	-2.9667	-2.5208	-2.9	-2.7958	-2.5771	-3.0146	-2.8333	-2.875	-3.0271	-2.7729	-3.0021	-3.0354	-2.8021	-3.1021	-2.9458	40.883	43.546	310.612	-30.893	76.372	183.915	-26.965	61.809	64.982	34.637	318.857	292.781	234.647	187.055	227.250	232.368	9.4683e-05	0.0038406	0.00020156	586.16	2.2244e-05	2.2932e-05	1065.9	189.92	9.3838e-06	1.5975e-05	424.21	161.15	60.595	27.967	3.6131e-05	83.941	0.024842	0.035561	0.0098833	1294.5	0.0003832	0.00040305	1254.6	267.92	0.00036849	0.00039569	536.73	200.1	97.374	40.551	0.00038299	99.336	224.520	52.774	-29.834	-23.818	107.358	135.904	-23.169	-19.122	8.973	277.623	-18.198	-14.139	-14.413	-10.194	210.692	-10.032	-8191	255	
26280.197	1	1	0	0	0.12632	0.041345	0.087747	0.19808	0.19089	0.11651	0.23087	0.12268	0.21176	0.19868	0.15327	0.28307	0.064443	0.24385	0.2931	0.22532	-2.325	-3.0479	-2.7646	-2.725	-2.9083	-2.6479	-3.1125	-2.8937	-2.7292	-3.0563	-2.9854	-2.9146	-2.9583	-2.9062	-2.9938	-3.0187	146.748	164.100	129.870	237.561	178.661	299.420	297.979	186.023	256.565	143.856	34.358	256.985	201.581	276.319	313.919	-25.594	0.00022474	0.0019014	0.00043388	591.49	9.7748e-06	2.7284e-05	1066.5	188.54	1.5054e-05	1.0459e-05	419.67	159.16	60.359	27.384	1.1765e-05	82.468	0.025295	0.035955	0.0099616	1301.7	0.0003853	0.00040061	1252.2	267.32	0.00037169	0.00039873	532.78	199.1	96.929	40.204	0.000384	98.094	246.281	67.292	44.671	-23.506	201.766	-23.916	-23.173	-18.875	322.727	-20.543	-19.041	-14.255	-13.486	-10.000	235.693	-10.057	-8191	255	
26280.316	1	1	0	0	0.17482	0.093204	0.11663	0.19154	0.17426	0.17373	0.22019	0.20597	0.26151	0.30324	0.24439	0.28286	0.18218	0.17611	0.14463	0.12728	-2.3604	-3.0083	-2.7208	-2.7938	-2.8979	-2.6562	-3.2333	-2.9458	-2.7229	-3	-2.9458	-3.0438	-2.9896	-2.6396	-2.8917	-3.0604	185.073	33.662	51.931	171.981	-11.416	311.599	300.423	149.372	311.387	306.985	80.782	299.261	284.609	304.304	315.431	210.331	0.00038799	0.0022352	0.00069382	585.22	3.7709e-06	1.1385e-05	1058.9	188.73	4.6867e-06	3.9094e-05	421.03	159.39	61.008	27.632	2.16e-05	83.096	0.025099	0.036186	0.010038	1304.7	0.00039324	0.00040655	1257.1	269.45	0.0003771	0.00040625	538.08	200.35	98.306	40.739	0.00039086	99.137	192.449	-13.091	271.112	-23.274	88.983	98.188	-23.002	-18.903	272.966	72.641	-18.760	-14.242	-14.089	-10.574	217.658	-10.150	-8191	255	
26280.412	1	1	0	0	0.051247	0.27432	0.28349	0.05729	0.11132	0.078385	0.092011	0.14998	0.23919	0.19127	0.13318	0.18414	0.13351	0.30451	0.15883	0.47147	-2.3292	-3.0854	-2.7438	-2.9437	-3.0563	-2.7438	-2.9562	-3.1458	-2.7375	-3.0687	-3.0083	-2.7792	-3.0979	-2.75	-2.8083	-3.0687	286.520	74.771	228.132	125.039	190.368	0.542	286.679	271.129	125.043	128.932	101.822	249.492	151.482	-10.814	25.655	275.894	0.00023299	0.0026319	0.00099325	583.31	8.2726e-06	2.3451e-05	1064.9	190.89	1.2241e-05	2.0267e-05	423.18	161.57	60.609	27.89	8.0618e-06	83.818	0.025712	0.036477	0.010112	1314.3	0.00039447	0.00040722	1262.9	270.33	0.00037883	0.00040647	539.87	201.62	98.767	40.968	0.00039123	99.93	182.041	-30.271	74.749	-23.321	-36.426	28.821	-23.006	-18.779	168.792	302.078	-18.601	-14.307	-13.820	-10.293	68.308	-10.368	-8191	255	
26280.510	1	1	0	0	0.14188	0.22825	0.14391	0.24484	0.093823	0.17082	0.19966	0.29909	0.29223	0.035103	0.22862	0.30617	0.038927	0.14799	0.15698	0.16983	-2.3312	-2.8583	-2.8229	-2.9292	-3.1021	-2.95	-2.975	-2.9688	-2.6354	-3.0646	-2.9417	-2.7938	-2.9062	-2.8063	-2.9875	-2.9646	310.354	27.334	27.061	52.210	192.162	70.795	264.354	319.617	177.904	239.666	273.197	225.855	99.169	40.237	47.072	200.934	0.00028655	0.0030005	0.00064073	591.33	2.3831e-05	8.4859e-06	1074.7	190.94	2.1388e-05	1.677e-05	427.11	163.05	60.819	28.228	6.0547e-06	84.615	0.025583	0.036797	0.0102	1323.1	0.00039729	0.0004079	1272	272.96	0.00038003	0.00040857	544.64	202.6	99.089	41.349	0.00039222	100.55	150.740	91.719	283.132	-24.103	26.964	53.969	-23.337	-19.031	13.381	171.987	-18.495	-14.395	-14.688	-10.080	231.865	-10.187	-8191	255	
26280.631	1	1	0	0	0.38596	0.29438	0.11468	0.21958	0.18184	0.14079	0.26699	0.11396	0.11489	0.17473	0.089365	0.15746	0.179	0.20746	0.36764	0.29343	-2.4167	-2.9208	-2.8583	-2.8021	-2.9771	-2.7958	-2.9354	-2.8875	-2.7646	-3.1375	-3.0187	-2.7604	-2.9854	-2.9208	-2.7417	-3.1188	242.056	187.303	247.571	214.653	282.418	169.093	253.710	0.295	314.078	199.778	185.862	146.267	140.161	-23.566	315.776	266.181	0.00035174	0.00083547	0.00099169	591.8	3.5009e-05	2.0435e-05	1064.9	191.64	1.5663e-05	2.363e-05	426.1	161.45	61.12	27.691	6.2569e-06	82.903	0.025585	0.037163	0.010272	1331	0.00040239	0.00041405	1274.9	275.76	0.00038958	0.00041548	545.63	203.52	100.25	41.339	0.00040198	99.928	196.067	58.545	91.577	-23.622	270.224	298.692	-22.918	-18.679	200.178	273.214	-18.810	-14.232	-14.074	-10.381	228.435	-10.131	-8191	255	
26280.727	1	1	0	0	0.26892	0.14585	0.19618	0.19299	0.13428	0.28309	0.28238	0.1977	0.2693	0.26161	0.29343	0.17675	0.14332	0.18855	0.19853	0.37914	-2.1688	-2.8042	-2.8292	-2.7125	-2.9208	-2.8104	-2.9042	-2.9958	-2.7667	-2.9708	-3.0438	-2.7188	-3.0167	-2.8375	-2.7854	-3.1167	122.393	298.156	-5.891	-27.472	238.137	118.882	285.054	276.264	152.591	238.067	286.324	197.494	308.417	312.842	237.904	275.601	0.00017855	0.001801	0.00076609	593.77	1.9422e-05	1.7056e-05	1058.5	189.54	1.83e-05	1.7638e-05	419.06	159.79	60.126	27.288	7.6502e-06	81.742	0.026307	0.038248	0.010627	1351.1	0.00041528	0.00042563	1272.7	276.08	0.00040125	0.00043125	544.89	202.26	100.75	41.291	0.00041615	99.335	206.999	214.429	111.797	-23.367	138.444	103.375	-23.191	-18.640	143.402	72.682	-18.803	-14.386	-14.239	-9.931	158.804	-10.417	-8191	255	
26280.799	1	1	0	0	0.20455	0.16515	0.0271	0.064942	0.15815	0.15945	0.29064	0.03556	0.11414	0.16437	0.31007	0.34914	0.132	0.22682	0.23878	0.24062	-2.3375	-2.7646	-2.8312	-2.5938	-3.1688	-2.9667	-2.975	-3.1375	-2.6979	-2.7521	-3.0271	-2.7812	-2.9958	-2.9271	-2.5875	-3.0396	-8.462	293.498	293.483	31.587	-4.236	41.156	226.236	256.997	11.293	-25.943	254.487	253.308	308.928	240.548	142.556	267.644	0.00011811	0.0018584	0.00033117	589.94	2.1611e-06	1.0927e-05	1062.6	191.02	1.1948e-05	3.697e-05	419.59	160.1	60.496	27.408	6.8042e-06	82.47	0.027174	0.039733	0.010827	1364.6	0.00042044	0.00042896	1274.1	276.7	0.00040025	0.00043035	546.27	202.62	101.58	41.37	0.00041535	99.769	-15.351	118.745	322.739	-23.158	126.195	168.425	-23.214	-18.797	210.982	56.807	-18.875	-14.321	-14.186	-10.190	252.266	-10.303	-8191	255	
26280.918	1	1	0	0	0.069174	0.15518	0.082622	0.21791	0.054898	0.15133	0.069588	0.07341	0.32352	0.11792	0.20463	0.30512	0.17578	0.15472	0.19148	0.14407	-2.2833	-2.7396	-2.9333	-2.7771	-2.9625	-2.8458	-2.7458	-3.2188	-3.0062	-2.7313	-3.0354	-2.8521	-2.8	-2.9771	-2.7062	-3.1458	77.262	301.850	11.510	30.114	231.399	292.721	105.881	252.088	183.616	-9.042	14.428	299.290	-16.202	270.397	-10.457	204.903	0.0003114	0.0012839	0.00039306	589.37	2.2512e-05	5.8189e-06	1068.4	191.43	4.4658e-06	2.7006e-05	421.97	159.87	60.443	27.69	2.1871e-05	82.662	0.02724	0.039488	0.011	1379.2	0.00042631	0.0004395	1284.9	279.86	0.00040671	0.00043549	550.28	203.53	101.81	41.635	0.00041923	100.06	187.244	267.904	119.824	-24.257	-0.022	244.998	-23.415	-19.164	109.961	75.526	-18.721	-14.245	-13.445	-10.431	232.395	-10.253	-8191	255	
26281.016	1	1	0	0	0.074308	0.15309	0.083731	0.096682	0.17201	0.13426	0.23813	0.060103	0.10075	0.26919	0.28708	0.41634	0.12411	0.37893	0.070437	0.29989	-2.45	-2.7583	-3.1125	-2.8042	-2.9604	-2.7917	-2.7833	-3.0354	-2.7208	-2.6708	-3.1021	-2.9562	-3.0542	-2.8937	-2.45	-3.3021	194.100	101.149	96.035	296.089	-31.973	306.667	282.314	70.531	65.257	55.087	-27.639	255.603	261.793	282.866	146.714	227.091	0.00016627	0.0021374	0.00057323	587.21	7.7718e-06	3.3466e-05	1068.3	188.06	1.5256e-05	2.2664e-05	421.33	159.49	60.305	27.541	1.9801e-05	82.196	0.027394	0.039832	0.010969	1375.4	0.000424	0.00043574	1282.6	277.61	0.00040558	0.00043245	548.22	202.6	101.04	41.361	0.00041507	99.463	257.899	142.228	140.569	-23.265	62.298	66.865	-23.238	-18.485	138.376	103.362	-18.581	-14.202	-13.531	-10.379	87.126	-10.218	-8191	255	
26281.111	1	1	0	0	0.023876	0.11244	0.17413	0.074303	0.196	0.093292	0.26568	0.11132	0.047741	0.31806	0.1126	0.20775	0.21617	0.28054	0.077565	0.12416	-2.4104	-2.725	-2.9896	-2.6542	-2.7583	-3.1	-2.9542	-3.15	-2.8375	-2.7396	-3.3312	-2.9375	-2.8792	-3.0563	-2.7771	-3.1271	199.995	106.089	94.080	196.492	23.597	241.225	267.801	-28.938	41.557	277.863	84.749	-13.014	228.232	288.661	292.548	305.774	0.00037444	0.002999	0.00088879	595.53	1.7486e-05	3.1613e-05	1054.4	187.51	1.5137e-05	1.0369e-05	415.12	158.06	59.672	26.863	4.795e-05	80.922	0.027065	0.039086	0.010915	1376.5	0.00042464	0.00043629	1272	277.04	0.0004076	0.00043739	544.98	201.3	100.73	41.251	0.00042301	98.766	160.867	291.206	49.707	-23.670	61.625	226.331	-23.213	-18.454	211.906	104.338	-18.734	-14.321	-13.790	-10.798	52.344	-10.197	-8191	255	
26281.230	1	1	0	0	0.17307	0.25226	0.19954	0.09382	0.088373	0.1171	0.13935	0.14679	0.23177	0.047362	0.35815	0.066116	0.24726	0.20505	0.089176	0.34198	-2.3042	-2.7292	-3.1146	-2.7583	-3.0708	-2.9875	-2.9938	-3.1229	-2.9104	-2.7583	-3.0396	-2.85	-2.8688	-2.9813	-2.6104	-3.0271	254.175	148.392	74.685	296.107	43.411	65.502	8.011	270.423	38.026	218.551	314.855	32.584	309.514	4.746	80.988	291.591	0.00026377	0.0024313	0.00055838	579.67	1.0852e-05	1.019e-05	1056.1	188.81	1.4935e-05	9.2146e-06	421.85	159.39	60.259	27.241	1.187e-05	81.526	0.0274	0.040072	0.01107	1377.5	0.00042597	0.00044101	1273.5	278.32	0.00041091	0.00043906	549.71	202.57	101.89	41.622	0.00042288	99.474	180.554	179.453	91.265	-23.155	173.030	247.512	-23.220	-18.379	307.185	7.310	-18.851	-14.316	-13.977	-10.336	177.545	-10.041	-8191	255	
26281.326	1	1	0	0	0.12428	0.21208	0.081639	0.23636	0.060951	0.097761	0.34787	0.13421	0.37466	0.038036	0.25142	0.074906	0.19019	0.10858	0.13012	0.22975	-2.5563	-2.6083	-3.1104	-2.9354	-2.7104	-3.3083	-2.8729	-3.0062	-2.7646	-2.7604	-3.1625	-2.9646	-2.7396	-3.1458	-2.7521	-3.0083	104.131	2.126	260.817	214.912	266.563	9.200	207.214	233.367	66.894	18.617	-13.816	82.309	16.345	-24.234	-0.723	281.152	0.00044488	0.00063344	0.0007974	582.07	6.6841e-06	1.988e-05	1057.9	188.86	1.3654e-05	1.2836e-05	419.95	159.66	60.596	27.345	2.1206e-05	81.337	0.027693	0.040017	0.011148	1383.9	0.00042877	0.00044375	1275.2	279.17	0.00041017	0.00043969	549.64	202.73	101.22	41.411	0.00041994	99.607	175.833	16.219	252.797	-24.476	-16.855	38.663	-22.967	-19.097	215.310	72.294	-18.867	-14.206	-14.391	-10.139	-5.919	-10.273	-8191	255	
26281.422	1	1	0	0	0.10879	0.14662	0.17721	0.1044	0.052964	0.18124	0.032413	0.27894	0.07764	0.18769	0.24591	0.26983	0.23527	0.067325	0.099453	0.27439	-2.5458	-2.7521	-2.7875	-2.9604	-2.6562	-3.1417	-2.9167	-2.9333	-2.9562	-2.6708	-3.0708	-3.0604	-2.6479	-3.0833	-2.7562	-2.9	212.602	47.285	177.344	9.726	19.586	85.928	226.844	209.607	49.974	306.582	-11.845	258.502	4.461	8.066	189.161	220.139	0.00023083	0.0016723	0.00060865	576.34	2.0069e-05	1.74e-05	1062	189.29	1.8386e-05	3.2309e-05	421.07	161.05	60.007	27.645	2.2716e-05	82.615	0.027542	0.03989	0.011153	1376.5	0.00042734	0.00044229	1278.1	278.65	0.00041248	0.00043802	549.69	203.72	101.5	41.731	0.0004179	100.54	208.447	-2.519	84.241	-22.743	225.779	248.913	-23.123	-18.980	128.407	295.240	-18.714	-14.634	-14.038	-10.523	-9.551	-10.277	-8191	255	
26281.494	1	1	0	0	0.22509	0.08976	0.047563	0.15557	0.17267	0.075301	0.12438	0.058479	0.18294	0.093286	0.10265	0.16889	0.10543	0.28621	0.13916	0.24947	-2.5687	-2.7104	-2.7562	-2.9625	-2.6063	-2.9729	-2.8729	-2.7875	-2.8688	-2.8875	-2.975	-2.9833	-2.6813	-3.2188	-2.8896	-2.7542	287.307	309.533	288.377	179.305	151.978	148.925	264.099	155.065	104.255	133.535	-32.235	61.185	231.787	319.879	216.174	258.417	0.00028722	0.0015237	0.00029603	581.37	6.4229e-06	1.5367e-05	1066.5	191.89	2.0255e-05	6.4424e-06	423.11	161.11	60.471	27.829	1.0281e-05	83.203	0.027411	0.039463	0.011115	1382.6	0.00042797	0.00044358	1284.4	281.45	0.0004126	0.00043889	552.24	204.16	101.73	41.803	0.0004164	100.35	179.328	96.157	321.218	-23.185	-5.702	44.136	-23.015	-18.955	58.334	48.853	-18.496	-14.266	-14.435	-10.484	79.950	-10.220	-8191	255	
26281.613	1	1	0	0	0.19323	0.2918	0.28857	0.10826	0.22238	0.066534	0.18382	0.16799	0.073155	0.10657	0.35804	0.38394	0.091181	0.26959	0.21027	0.20097	-2.7833	-2.5521	-2.9188	-3.0292	-2.7333	-3.0146	-3.1437	-2.8833	-3.0146	-2.8104	-2.9625	-3.3125	-2.8417	-3.0792	-2.9771	-2.8563	277.324	-17.476	224.810	27.647	256.147	306.667	311.545	57.182	313.127	-11.535	271.823	232.239	59.557	280.526	-17.738	216.452	0.00030199	0.00010572	0.00082641	587.56	1.0093e-05	1.2259e-05	1061.5	190.42	2.3349e-05	1.6684e-05	423.45	160.73	60.519	27.505	9.1651e-06	83.654	0.02707	0.039046	0.010963	1362.6	0.00041852	0.00043161	1269.1	276.17	0.00039973	0.00042472	545.05	202.68	100.1	41.512	0.00040536	100.01	185.607	274.239	18.302	-22.352	130.085	236.132	-23.196	-18.356	71.523	149.318	-18.894	-14.237	-14.669	-10.301	107.714	-10.086	-8191	255	
26281.711	1	1	0	0	0.17306	0.10669	0.14655	0.011858	0.21135	0.15194	0.24693	0.2219	0.10842	0.25859	0.20053	0.12883	0.089609	0.096331	0.053353	0.060108	-2.6125	-2.7958	-2.7646	-2.9729	-2.7833	-3.0458	-3.0958	-2.7375	-3.1375	-2.8875	-2.8792	-3.2417	-2.6333	-3.2396	-3.1	-2.875	228.416	-35.582	-18.069	61.407	288.930	140.279	267.128	169.137	206.839	115.703	252.338	181.697	66.840	266.588	64.857	22.140	0.00032094	0.0011497	0.00043955	582.03	3.2374e-05	3.2559e-05	1061.4	190.26	8.2905e-06	3.1759e-05	425.17	161.57	61.535	28.041	2.4647e-06	83.43	0.026574	0.038172	0.010702	1353.5	0.00041353	0.00042751	1269.9	277.89	0.00039983	0.00042402	547.71	203.09	100.46	41.734	0.0004067	100.48	160.644	155.681	12.233	-22.974	96.137	20.055	-23.009	-18.647	223.020	166.663	-19.083	-14.769	-13.962	-10.537	-18.991	-10.172	-8191	255	
26281.807	1	1	0	0	0.14248	0.10298	0.051972	0.2463	0.30758	0.13888	0.16465	0.065181	0.28214	0.10843	0.29229	0.23208	0.056689	0.22037	0.051555	0.21969	-2.5375	-2.8333	-2.8625	-3.025	-2.8417	-2.9646	-3.0167	-2.6354	-2.8854	-3.0167	-3.0417	-3.0833	-2.775	-2.9688	-2.9208	-2.7438	77.364	75.441	319.508	98.621	138.825	134.762	289.357	296.196	172.433	220.987	286.224	314.178	178.121	130.743	101.476	259.503	0.00019128	0.004363	0.00063215	583.78	7.4197e-06	9.8785e-06	1061.3	191.95	8.4852e-06	5.629e-06	427.21	163.36	61.688	28.361	1.7206e-05	85.505	0.026594	0.037957	0.010771	1351.4	0.00040927	0.00042424	1269.7	277.21	0.00039539	0.00042071	547.71	204.4	101	42.177	0.00040523	102.11	236.322	153.860	257.481	-23.929	264.541	24.680	-23.130	-18.863	127.997	224.409	-18.811	-14.207	-14.565	-10.283	223.408	-10.345	-8191	255	
26281.902	1	1	0	0	0.12557	0.050976	0.21003	0.32977	0.068981	0.12729	0.2984	0.22652	0.1407	0.077034	0.065029	0.12631	0.13463	0.18173	0.011969	0.29516	-2.5312	-2.7125	-2.7	-2.9396	-2.8292	-2.875	-3.3646	-2.85	-3.0438	-2.9021	-2.7875	-3.2229	-2.9646	-2.8271	-2.9542	-2.9396	1.275	39.164	-26.733	248.932	41.593	245.979	263.420	247.709	71.980	35.301	-29.358	-34.455	277.517	286.054	86.570	256.869	0.00053863	0.001469	0.00024825	596.99	2.1645e-05	1.934e-05	1075.6	196.37	1.947e-06	6.1325e-05	434.91	166.54	63.591	29.131	1.7304e-05	87.395	0.026565	0.038182	0.010688	1364.4	0.0004146	0.00042947	1282.9	281.37	0.00040831	0.00043184	558.84	209.22	103.65	43.292	0.00042313	104.3	203.982	120.421	-32.419	-22.753	147.252	208.576	-22.914	-18.656	161.695	93.537	-18.630	-14.390	-14.214	-10.692	86.021	-10.219	-8191	255	
26282.021	1	1	0	0	0.094961	0.22463	0.078125	0.15179	0.14298	0.15401	0.2728	0.21132	0.17634	0.033573	0.15045	0.096946	0.090185	0.1472	0.15442	0.37794	-2.4271	-2.9542	-2.5229	-3.1458	-2.8458	-2.7458	-3.3167	-2.9229	-3.0667	-2.9771	-2.7354	-3.1708	-2.9354	-2.8417	-3.0771	-2.9333	42.593	16.201	54.196	209.366	72.780	212.585	261.467	179.916	180.628	223.792	295.424	263.085	243.039	-0.947	269.837	260.210	0.00035361	0.0019762	0.00078488	596.5	2.8776e-05	7.978e-06	1069.6	192.06	1.3097e-05	2.4475e-05	424.6	160.21	60.411	27.842	4.1361e-06	82.185	0.027673	0.039857	0.01126	1400.7	0.0004348	0.00044876	1289.9	283.53	0.00041996	0.0004453	554.78	205.35	102.52	42.537	0.00043448	100.33	196.090	303.392	100.058	-24.010	119.104	7.120	-23.224	-18.972	171.965	84.739	-18.633	-14.241	-13.939	-10.115	260.927	-9.892	-8191	255	
26282.096	1	1	0	0	0.14869	0.13903	0.053926	0.13352	0.19251	0.093087	0.12218	0.10364	0.16199	0.26981	0.1796	0.2729	0.10939	0.25782	0.084649	0.25185	-2.5062	-2.8646	-2.6	-2.9875	-2.7229	-2.8208	-3.2833	-2.8375	-3.0021	-3.1729	-2.8021	-3.0979	-2.8688	-2.8167	-2.9729	-3.0062	-35.465	218.094	19.340	18.937	91.133	-30.249	270.965	-35.922	158.316	161.432	-0.935	243.016	245.760	310.805	207.443	268.114	0.00054368	0.0011001	0.00078709	584.27	1.9138e-05	3.575e-05	1062.8	187.89	1.2497e-05	1.1228e-05	417.97	157.77	59.579	26.956	2.237e-05	80.913	0.028259	0.040892	0.011439	1420.5	0.00044221	0.0004574	1293.3	282.41	0.00043479	0.00045762	554.3	204.57	103.15	42.081	0.00044323	100.01	188.518	-4.764	160.568	-22.647	175.617	37.685	-23.248	-18.172	42.495	-15.963	-18.551	-14.086	-13.865	-10.545	38.752	-10.315	-8191	255	
26282.191	1	1	0	0	0.029529	0.18677	0.02099	0.10461	0.21547	0.34459	0.26097	0.31468	0.18025	0.18776	0.19722	0.15531	0.26028	0.21237	0.040348	0.22809	-2.5396	-3.0833	-2.7083	-3.0812	-3.0292	-2.8292	-3.1292	-3.0146	-2.9104	-2.9813	-2.9229	-3.0729	-2.8583	-2.775	-3.1875	-2.9688	55.458	86.528	64.842	156.381	124.359	237.306	280.796	231.230	163.353	156.298	246.673	-5.910	43.608	284.580	185.883	318.738	0.00040207	0.0033052	0.00046878	598.85	1.8752e-05	2.3967e-05	1061.7	189.78	1.5935e-05	2.0837e-05	418.06	158.67	59.338	27.128	1.1941e-05	81.673	0.029066	0.041878	0.011671	1448.1	0.00045274	0.00046716	1301.2	284.53	0.00043957	0.00046768	556.61	205.36	103.61	42.687	0.00044887	100.7	175.041	23.332	309.805	-24.092	140.440	156.382	-22.957	-19.037	5.508	94.850	-18.698	-14.263	-14.193	-9.621	0.873	-10.014	-8191	255	
26282.311	1	1	0	0	0.17341	0.077086	0.20316	0.18511	0.17756	0.20751	0.10587	0.18614	0.20211	0.057944	0.313	0.18439	0.38813	0.13315	0.23674	0.17972	-2.4104	-2.9958	-2.6833	-3.0479	-2.9792	-2.6708	-3.1646	-2.9917	-2.7438	-3.1813	-2.8937	-3.0271	-2.925	-2.6229	-2.8438	-3.225	13.869	286.717	112.429	237.323	-9.295	67.526	269.588	320.268	190.838	142.303	300.668	190.784	234.457	11.601	12.131	168.480	0.00017451	0.0029707	0.0010129	598.66	2.12e-05	2.0262e-05	1063.8	189.41	1.8189e-05	3.0014e-05	421.94	159.28	59.757	27.251	1.4914e-05	82.566	0.029182	0.041987	0.011622	1438.8	0.00045119	0.00046242	1300.6	283.34	0.00043781	0.00046228	555.63	205.29	103.44	42.386	0.00044218	101.23	137.715	-7.661	33.500	-24.714	76.506	48.633	-23.071	-19.231	58.986	111.731	-18.605	-14.623	-14.052	-10.439	278.014	-10.174	-8191	255	
26282.406	1	1	0	0	0.08827	0.074388	0.21715	0.078698	0.021075	0.39259	0.21327	0.08442	0.056487	0.12166	0.14837	0.22054	0.29394	0.17129	0.16955	0.042236	-2.4583	-3.0521	-2.6063	-2.8917	-2.8375	-2.7854	-3.0146	-2.8292	-2.6875	-2.9604	-2.8563	-3.0708	-3.1396	-2.7479	-2.9208	-2.8875	288.328	144.835	231.872	177.525	-32.439	16.572	-35.121	10.798	128.910	-15.299	263.281	254.413	300.693	205.669	-15.003	222.746	0.00029288	0.0009382	0.00086424	595.77	3.5015e-05	2.7548e-05	1077.5	190.77	1.5579e-05	2.1474e-05	423.69	159.24	59.827	27.189	2.642e-05	81.354	0.028711	0.041407	0.011489	1438	0.0004461	0.00045657	1300.3	282.57	0.0004241	0.00045386	554.17	203.86	102.01	41.736	0.00043905	99.756	161.460	279.930	174.359	-23.617	210.205	126.422	-22.969	-18.538	73.288	202.585	-18.961	-14.043	-14.159	-10.205	190.582	-10.036	-8191	255	
26282.502	1	1	0	0	0.1324	0.13015	0.15053	0.15403	0.22609	0.355	0.13299	0.078637	0.14514	0.14796	0.13197	0.11817	0.083485	0.26549	0.20748	0.36016	-2.3125	-2.9062	-2.6188	-2.8146	-2.9417	-2.6792	-3.1417	-2.9667	-2.5479	-3.1604	-2.9667	-2.9167	-3.1813	-2.6688	-2.9604	-3.1479	106.981	272.143	117.125	-7.653	280.929	-26.705	73.090	-32.297	5.037	16.661	293.724	33.615	83.410	227.487	49.243	250.339	0.00028604	0.0018636	0.00038334	589.48	1.5304e-05	2.1727e-06	1064.1	187.92	8.6563e-06	2.3876e-05	417.59	156.47	59.66	26.875	1.5095e-05	80.69	0.028257	0.040703	0.011286	1414.5	0.000442	0.00045687	1293.2	281.79	0.00043303	0.00046121	553.68	203.37	102.74	41.789	0.00044296	99.534	149.014	257.323	55.130	-23.458	143.719	38.681	-22.902	-18.611	68.626	124.394	-18.633	-14.184	-13.842	-10.004	9.001	-10.360	-8191	255	
26282.598	1	1	0	0	0.073999	0.2497	0.082796	0.1407	0.09796	0.14174	0.16158	0.046272	0.34974	0.12637	0.22879	0.14997	0.10959	0.2179	0.27832	0.10126	-2.2792	-2.9542	-2.8458	-2.8292	-2.9979	-2.8292	-3.2479	-3.0896	-2.675	-3.0958	-3.1063	-2.8104	-3.1646	-2.8771	-3	-3.1188	182.092	235.725	75.761	264.161	108.116	195.812	220.652	309.041	-2.458	3.203	241.510	-32.872	174.760	311.705	22.597	-30.952	0.0003092	0.0009874	8.8618e-05	594.09	5.8579e-06	9.2235e-06	1069.8	188.95	8.2672e-06	1.7259e-05	419.65	157.37	58.676	26.743	2.8753e-05	80.079	0.028727	0.041389	0.011427	1433.1	0.00044455	0.00045727	1293.8	282.08	0.00042639	0.00045678	552.33	202.9	101.79	41.439	0.00044404	98.864	141.874	157.331	311.806	-22.866	207.363	196.572	-22.961	-18.766	64.970	227.934	-18.713	-14.244	-14.326	-10.162	228.055	-9.960	-8191	255	
26282.695	1	1	0	0	0.23218	0.035654	0.098831	0.17182	0.10765	0.093646	0.065693	0.051172	0.11182	0.11219	0.19701	0.17434	0.22334	0.065836	0.25693	0.16215	-2.275	-2.9604	-3.0604	-2.8271	-3.1437	-2.9458	-3.1021	-3.0625	-2.8021	-2.9958	-2.9625	-2.8917	-2.8625	-2.7646	-2.9271	-3.225	52.377	206.921	312.855	-16.248	245.314	110.249	183.763	155.471	130.840	264.368	189.675	-10.308	26.046	287.509	39.401	318.541	0.00073468	0.0021488	0.00085268	593.03	9.4164e-06	8.8869e-06	1062.7	187.52	1.5355e-05	3.0857e-05	415.18	155.89	58.898	26.46	1.6542e-05	80.419	0.028515	0.041332	0.011487	1423.2	0.00044913	0.00046172	1300.4	281.97	0.00042968	0.0004649	550.62	201.67	102.14	41.488	0.00044253	99.003	200.817	210.989	-34.068	-22.684	274.484	11.869	-23.037	-18.598	112.965	118.980	-18.501	-14.157	-14.059	-10.270	217.514	-10.058	-8191	255	
26282.791	1	1	0	0	0.038928	0.17442	0.21135	0.3028	0.20227	0.15145	0.23243	0.28632	0.11794	0.19453	0.13453	0.20688	0.29191	0.1253	0.15022	0.18072	-2.3833	-2.8063	-2.9313	-2.7917	-2.8604	-2.8625	-2.9458	-3.2083	-2.5979	-2.925	-3.1375	-2.7604	-3.1604	-2.8646	-2.8708	-3.1688	-30.589	205.523	2.093	223.061	238.513	226.784	208.425	280.062	266.578	71.329	210.409	310.483	249.241	311.107	161.426	235.205	9.3904e-05	0.0026722	0.00044999	587.49	1.0525e-05	2.3299e-05	1064.9	189.42	1.2747e-05	3.1765e-05	419.7	158.73	60.044	27.326	1.468e-05	81.375	0.028521	0.041259	0.011458	1433.8	0.00044464	0.00045504	1296.5	282.17	0.00042604	0.00046075	555.59	204.25	102.86	42.057	0.00044429	100.24	140.133	82.941	266.993	-24.100	52.524	170.614	-22.823	-18.934	319.178	147.163	-18.692	-14.119	-14.058	-10.446	191.962	-10.076	-8191	255	
26282.910	1	1	0	0	0.0053005	0.097009	0.020878	0.1071	0.11874	0.086166	0.10004	0.17879	0.19436	0.059059	0.18995	0.31128	0.29827	0.20332	0.15701	0.13539	-2.3812	-3.0792	-2.7375	-2.7771	-2.8229	-2.9292	-2.9188	-2.9875	-2.6146	-2.8708	-3.0938	-2.8396	-2.9938	-2.9146	-2.6771	-3.2104	-29.708	60.202	165.096	287.224	195.642	196.973	161.147	46.974	-5.831	-3.003	259.250	238.718	-24.567	263.895	-23.639	212.063	0.00030188	0.0016544	0.00075552	592.46	1.5798e-05	3.3544e-05	1063.8	188.52	2.1129e-05	3.4078e-05	417.59	157	59.618	26.933	2.743e-05	80.05	0.028387	0.040915	0.011405	1415.1	0.00044481	0.0004557	1291.2	281.51	0.00042263	0.00046032	551.2	202.67	102.1	41.597	0.00043864	99.034	200.543	210.946	152.335	-23.213	113.681	33.080	-22.905	-18.687	141.080	151.075	-18.355	-13.918	-13.741	-10.185	192.193	-10.320	-8191	255	
26283.008	1	1	0	0	0.19471	0.027116	0.097753	0.14894	0.19837	0.093118	0.41013	0.038877	0.096796	0.13498	0.053215	0.060135	0.16017	0.17024	0.27216	0.21809	-2.4083	-2.7562	-2.9354	-2.8104	-3.2188	-2.7333	-2.8125	-3.2354	-2.7854	-2.8438	-3.1521	-2.8667	-3.0083	-2.9688	-2.7125	-3.1104	14.379	119.737	183.522	-9.493	112.535	206.764	223.638	127.624	193.970	318.167	291.373	227.614	260.986	298.245	311.327	278.561	0.0002485	0.002951	0.00050597	594.18	9.6311e-06	1.5533e-05	1068	188.77	1.2622e-05	1.3842e-05	420.71	158.49	58.999	27.085	3.1871e-05	80.946	0.028462	0.04115	0.011467	1421.7	0.00045141	0.00045654	1292.4	281.13	0.00042217	0.00045442	553.91	203.47	102.04	41.681	0.0004401	99.495	125.301	130.393	-32.302	-23.754	18.565	305.484	-23.241	-18.498	145.830	228.059	-18.827	-14.161	-14.120	-10.460	261.407	-10.068	-8191	255	
26283.104	1	1	0	0	0.2671	0.076309	0.094805	0.048443	0.13224	0.13224	0.21682	0.43518	0.07855	0.30063	0.26279	0.21868	0.24192	0.14244	0.18583	0.13704	-2.3083	-2.7896	-2.9854	-2.5812	-2.8937	-2.8979	-2.9437	-2.9813	-2.9646	-2.7625	-3.3021	-2.725	-2.9375	-3.0687	-2.7125	-3.3271	205.726	73.486	142.255	107.403	255.675	309.832	-32.873	299.023	58.339	210.061	-4.006	296.239	-27.083	274.048	8.661	275.706	0.0005722	0.0010891	0.00030468	601.9	1.2965e-05	2.8509e-05	1069.6	189.77	4.0474e-06	3.6376e-05	422.42	158.67	59.903	27.007	1.8361e-05	81.186	0.028038	0.040494	0.011309	1402.3	0.00043889	0.00044988	1287.4	280.46	0.00041622	0.00045278	551.95	202.73	101.7	41.461	0.00042841	99.253	200.791	132.164	283.940	-23.538	257.739	92.800	-22.976	-18.634	64.561	90.033	-18.691	-14.059	-14.554	-10.193	121.004	-9.884	-8191	255	
26283.197	1	1	0	0	0.077294	0.048445	0.1665	0.15585	0.33301	0.19541	0.16045	0.024403	0.16071	0.033134	0.35307	0.1504	0.27662	0.2176	0.26711	0.27961	-2.4771	-2.7188	-3.1125	-2.8458	-3.0542	-2.9708	-2.9625	-2.9354	-2.9688	-2.6833	-3.0687	-2.9188	-3.0104	-2.85	-2.8146	-3.1292	174.645	282.351	254.846	294.198	163.261	202.183	230.042	174.728	246.252	291.276	-28.933	284.254	-22.719	17.864	13.014	252.098	0.00020132	0.0026821	0.00056735	591	1.5507e-05	2.4009e-05	1063.2	192.51	1.454e-05	3.5761e-05	423.24	158.47	59.401	27.496	1.925e-05	81.955	0.027803	0.039943	0.011226	1393.6	0.00044173	0.0004478	1289.6	280.63	0.00041711	0.00044776	553.94	202.79	101.61	41.831	0.00042585	100.27	102.126	211.293	220.087	-23.328	-30.977	125.125	-22.934	-18.925	120.506	105.623	-18.550	-14.020	-13.580	-10.157	50.777	-9.849	-8191	255	
26283.318	1	1	0	0	0.13571	0.049862	0.10491	0.13865	0.12401	0.23947	0.28563	0.1055	0.14727	0.21201	0.15175	0.24784	0.36373	0.16604	0.16411	0.17253	-2.4646	-2.8625	-3.0917	-2.8438	-2.9146	-3.0312	-2.7188	-3.1354	-2.9688	-2.9208	-3.1937	-2.9208	-2.8875	-3.2687	-2.8146	-3.2021	206.512	79.512	6.626	265.663	302.455	179.413	224.621	193.834	249.079	106.750	170.878	30.287	-13.174	264.473	318.266	194.631	0.00038431	0.0020953	0.00062334	599.24	2.4504e-05	6.4472e-05	1074.6	191.03	1.8852e-05	1.5519e-05	423.59	160.72	60.883	27.462	3.1629e-05	81.733	0.027927	0.040075	0.011239	1406.2	0.00044138	0.00045254	1300.4	285.04	0.00042608	0.00046571	561.03	206.51	104.24	42.625	0.00044469	101.17	181.559	155.199	48.507	-24.025	265.416	125.463	-22.952	-19.404	162.415	120.828	-18.437	-14.438	-13.663	-10.350	88.225	-10.140	-8191	255	
26283.391	1	1	0	0	0.11092	0.099739	0.21036	0.085308	0.2023	0.047576	0.10642	0.10073	0.32017	0.17757	0.15542	0.14406	0.1909	0.13369	0.37452	0.1855	-2.4958	-2.5271	-3.0438	-2.7833	-2.7729	-3.0583	-2.9521	-2.9667	-3	-2.6708	-3.0896	-2.9479	-2.7542	-3.1646	-2.9896	-3.0708	259.451	205.561	289.570	202.203	218.323	299.765	180.871	304.779	218.568	135.182	-10.781	244.801	39.436	295.301	-33.414	264.889	0.00020696	0.0014895	0.00050592	591.26	5.3844e-06	2.7274e-05	1067.3	190.81	1.8087e-05	1.1177e-05	427.54	160.69	61.519	27.189	8.4756e-06	82.165	0.029098	0.041901	0.011726	1440.4	0.00046349	0.00047126	1306.1	287.97	0.00044157	0.00047036	566.13	207.7	105.39	42.912	0.00045432	101.94	178.824	-4.926	73.065	-23.968	302.212	144.146	-22.962	-18.586	81.489	19.980	-19.027	-14.444	-13.909	-10.391	320.883	-10.150	-8191	255	
26283.486	1	1	0	0	0.32959	0.10156	0.078535	0.33902	0.10381	0.046578	0.268	0.17736	0.14916	0.40322	0.15549	0.20258	0.066823	0.11942	0.13365	0.27314	-2.7042	-2.7604	-2.925	-2.875	-2.7687	-3.0042	-2.925	-2.7958	-3.0375	-2.8208	-3.0646	-2.9771	-2.8583	-2.9271	-2.75	-2.8625	178.215	180.223	96.263	286.301	25.710	100.939	259.071	250.129	101.126	116.159	286.929	279.961	283.558	29.664	152.639	286.279	0.00022462	0.00093431	0.00036719	596.73	9.1073e-06	2.3732e-05	1067.2	191.49	7.039e-06	1.6524e-05	424.65	159.55	60.692	27.24	1.5382e-05	81.682	0.029699	0.042798	0.011944	1454.7	0.00046496	0.00047867	1310	289.27	0.00044456	0.00047443	567.66	207.25	104.87	42.765	0.0004539	101.26	184.953	111.588	123.125	-23.035	35.818	8.012	-23.010	-18.876	246.731	70.861	-18.524	-14.168	-14.577	-10.259	297.297	-9.878	-8191	255	
26283.582	1	1	0	0	0.045613	0.1179	0.041752	0.22752	0.19955	0.086208	0.068613	0.17031	0.060182	0.25936	0.32038	0.22883	0.45262	0.049448	0.094253	0.30074	-2.7313	-2.6792	-2.9437	-2.7792	-2.675	-3.2792	-2.9542	-2.9708	-3.0354	-2.7583	-3.0875	-3.0479	-2.8417	-3.2042	-2.825	-2.9437	310.296	312.938	-33.600	-33.783	-16.859	-8.073	278.783	290.480	282.827	150.934	281.566	135.658	-32.540	312.752	283.570	263.338	0.00036336	0.0017535	0.00097767	595.24	3.1964e-05	1.0709e-05	1071.1	191.11	1.7762e-05	6.2648e-06	423.17	159.55	61.074	27.433	2.2441e-05	82.151	0.029683	0.042566	0.011959	1462.3	0.00047141	0.00048314	1316.5	290.03	0.00045233	0.00048367	568.98	209.5	106.64	43.51	0.00047407	103.25	169.291	85.965	64.437	-23.180	65.328	165.080	-23.243	-18.300	308.249	22.543	-18.172	-14.114	-14.118	-10.073	171.367	-10.022	-8191	255	
26283.703	1	1	0	0	0.25209	0.080691	0.0070081	0.27135	0.1509	0.26422	0.25428	0.40954	0.2584	0.28766	0.23886	0.12772	0.19203	0.037867	0.080774	0.17506	-2.5187	-2.6646	-3.0125	-3.0708	-2.7125	-3.1312	-3.0812	-2.9833	-3.0938	-2.7188	-3.1167	-3.3063	-2.7979	-3.0042	-2.9208	-2.975	215.439	284.968	112.160	75.476	310.443	27.873	266.128	288.650	120.433	81.811	295.341	250.863	101.246	307.799	274.326	-11.462	0.00025201	0.0029803	0.00047193	605.19	2.0493e-05	3.7681e-05	1077.8	195	1.1425e-05	2.4867e-05	429.65	163.08	61.819	27.869	9.6943e-06	83.415	0.031233	0.044975	0.012613	1518.4	0.00049319	0.00051121	1340.8	298.33	0.00047647	0.00050474	584.78	213.89	109.38	44.619	0.00048488	104.56	166.113	95.355	314.005	-23.616	42.470	52.255	-23.082	-18.420	63.408	155.318	-18.598	-14.082	-14.040	-10.183	136.736	-10.110	-8191	255	
26283.799	1	1	0	0	0.20388	0.333	0.085019	0.049431	0.029214	0.15903	0.082422	0.070125	0.18717	0.041673	0.16204	0.063246	0.18921	0.1751	0.07137	0.085265	-2.6375	-2.9146	-3.0083	-3.0875	-2.7687	-3.0417	-3.0438	-2.9542	-3.1063	-2.9542	-2.9833	-3.2438	-2.8	-3.1	-3.1708	-3.025	88.721	184.279	201.729	206.137	-3.961	53.485	212.184	19.088	274.460	268.561	-15.986	54.426	-30.376	40.866	-37.060	173.072	0.00059186	0.0022208	0.00036985	600.06	2.8123e-05	2.704e-05	1072	193.81	1.482e-05	1.4895e-05	425.48	161.92	61.663	27.887	2.0531e-05	82.265	0.03148	0.044802	0.01249	1499.3	0.00047895	0.00050062	1322.7	293.26	0.00045377	0.00048176	570.72	209.83	106.22	43.386	0.00046193	102.51	207.371	271.094	154.978	-23.443	52.768	156.677	-23.162	-19.103	55.799	91.648	-18.817	-14.243	-13.594	-10.847	63.105	-10.340	-8191	255	
26283.896	1	1	0	0	0.2323	0.18408	0.022799	0.17303	0.070176	0.059132	0.13844	0.31112	0.069929	0.19991	0.20179	0.044496	0.16715	0.28451	0.069699	0.20942	-2.525	-2.7542	-2.8271	-3.1375	-2.7938	-3.0563	-3.1104	-2.6958	-2.9271	-2.9354	-3.0479	-3.3083	-2.6667	-2.8937	-2.9979	-3.0563	147.214	173.823	314.853	165.055	163.480	314.540	7.842	216.492	64.618	224.902	322.743	30.845	55.419	239.661	-34.031	174.809	0.00031988	0.0008218	0.00047758	592.56	5.0219e-05	2.8495e-05	1068.2	192.79	1.1469e-05	1.5396e-05	424.95	160.81	60.187	27.484	4.8688e-05	82.254	0.030086	0.043292	0.012041	1464.5	0.00046617	0.00048292	1312.4	289.37	0.00044626	0.00047388	568.73	208.49	105.29	42.911	0.00045435	101.4	223.003	241.939	21.763	-23.211	153.020	110.374	-22.837	-18.583	196.542	7.335	-18.280	-14.237	-14.313	-10.906	216.155	-10.719	-8191	255	
26283.992	1	1	0	0	0.13635	0.20542	0.14298	0.063176	0.14319	0.22154	0.053325	0.28998	0.30187	0.2751	0.42944	0.1774	0.11013	0.075146	0.1865	0.31444	-2.7562	-2.9021	-2.6917	-3.1188	-2.8021	-2.7792	-3.2438	-2.8625	-3.1271	-3.0187	-2.8146	-3.0021	-2.8812	-2.8958	-2.9896	-3.0146	286.162	115.561	137.858	59.387	168.973	-0.515	-19.477	289.397	302.999	183.522	240.013	225.205	214.094	261.400	44.997	254.446	0.00031813	0.0030333	0.00048994	588.57	7.232e-06	1.572e-05	1065.9	191.28	1.3976e-05	2.7072e-05	420.87	160.18	60.795	27.504	1.6627e-05	81.834	0.029859	0.04261	0.01187	1451.9	0.00045916	0.0004799	1306.8	287.58	0.00044268	0.000475	564.81	207.74	105.29	42.811	0.00045888	101.13	183.843	23.653	68.886	-22.726	-32.803	116.675	-23.011	-18.287	16.975	249.997	-18.721	-14.194	-14.069	-10.174	156.869	-10.293	-8191	255	
26284.088	1	1	0	0	0.093789	0.30794	0.26568	0.15079	0.15529	0.20142	0.11917	0.3234	0.14297	0.13271	0.050265	0.19707	0.27338	0.10648	0.0641	0.21265	-2.4854	-2.9917	-2.8208	-3.0875	-2.7979	-2.9375	-3.1625	-2.6312	-2.9938	-3.0854	-2.8604	-3.2375	-2.9042	-2.8312	-3.1937	-2.9625	37.025	252.156	259.546	7.452	97.586	-32.516	288.913	-28.273	198.469	322.795	182.523	278.205	287.281	246.752	138.416	250.131	9.6731e-05	0.0032705	0.00038359	598.85	1.6532e-05	1.5185e-05	1068	190.07	3.0018e-05	2.7854e-05	422.09	160.09	59.913	27.329	9.519e-06	82.075	0.030223	0.042874	0.01196	1455.8	0.00046355	0.00047898	1310.5	287.65	0.00044474	0.00047459	564.55	207.78	104.73	42.779	0.00045695	101.45	204.850	149.631	202.171	-23.090	142.304	272.787	-22.909	-18.659	75.324	293.706	-18.467	-14.107	-14.072	-10.166	195.548	-9.956	-8191	255	
26284.184	1	1	0	0	0.26177	0.028242	0.1006	0.070691	0.072923	0.026088	0.15422	0.41325	0.12955	0.20887	0.11794	0.26899	0.156	0.20634	0.047384	0.15025	-2.5583	-2.7875	-2.7125	-2.975	-2.8896	-2.6875	-3.2542	-2.8125	-2.8479	-3.0292	-2.8167	-3.3292	-3.0563	-2.7625	-2.9437	-2.9625	307.201	71.812	148.224	220.389	204.266	34.331	263.512	294.192	278.599	189.172	198.664	305.471	235.781	281.889	16.273	269.081	0.00016537	0.0038032	0.00025321	585.2	1.2554e-05	3.408e-05	1067.7	190.51	9.3827e-06	1.9213e-05	425.45	159.77	60.245	27.233	2.8948e-05	80.814	0.030016	0.043073	0.012005	1467.2	0.00046702	0.00048723	1314.5	289.03	0.00045077	0.00048169	565.94	208.51	105.39	42.917	0.00046675	101.33	214.071	116.771	318.809	-22.413	121.017	52.895	-23.143	-18.786	221.827	83.390	-18.950	-14.686	-15.035	-10.187	205.006	-10.355	-8191	255	
26284.279	1	1	0	0	0.051891	0.15756	0.053397	0.17499	0.24004	0.15201	0.084572	0.19546	0.16463	0.2086	0.1906	0.089572	0.17007	0.096591	0.05697	0.20788	-2.5104	-2.9542	-2.6875	-3.0271	-3.0104	-2.6583	-3.1396	-2.7646	-2.6688	-3.05	-2.9583	-3.3083	-3.0521	-2.7771	-2.9813	-2.9854	291.369	-28.339	313.986	275.576	38.941	246.539	-29.058	308.225	-32.415	204.861	-0.105	104.368	221.779	93.591	114.510	284.542	0.0002876	0.003656	0.00092711	592.16	1.8619e-06	2.0292e-05	1055.8	189.99	7.7909e-06	1.4188e-05	420.4	158.39	59.734	26.999	1.3244e-05	81.323	0.030617	0.043621	0.012107	1468	0.00047201	0.00048802	1304.7	287.89	0.00045156	0.00047998	562.43	207.52	104.47	42.471	0.00045826	100.69	265.696	149.841	150.011	-24.115	256.121	258.461	-23.071	-18.843	54.571	210.881	-18.532	-14.232	-14.558	-10.268	97.700	-10.358	-8191	255	
26284.398	1	1	0	0	0.066589	0.2719	0.16301	0.094039	0.060546	0.1758	0.34397	0.17856	0.13161	0.1841	0.17293	0.15701	0.17674	0.10358	0.086348	0.18464	-2.4854	-3.0812	-2.7458	-2.9354	-2.9583	-2.75	-3.2229	-2.9	-2.8417	-3.1729	-3.0271	-2.9125	-3.0125	-2.7729	-3.0333	-2.8771	-35.602	319.084	148.774	222.361	160.993	124.430	248.718	22.368	281.843	193.727	-31.919	251.263	-29.585	315.972	150.052	88.860	0.00012024	0.0011558	0.00021192	592.39	1.0866e-05	2.7543e-05	1063.9	190.68	2.1904e-05	2.1889e-05	420.05	158.92	60.122	26.748	7.8656e-06	81.596	0.029899	0.043073	0.011972	1463.1	0.00046709	0.00048781	1309	289.09	0.00045235	0.0004855	565.35	208.25	105.67	42.84	0.00046468	101.62	165.600	269.511	72.808	-23.762	203.501	52.761	-22.802	-18.863	101.832	175.543	-18.620	-14.311	-13.801	-10.602	67.003	-10.203	-8191	255	
26284.494	1	1	0	0	0.094318	0.0085576	0.10257	0.31909	0.19372	0.20585	0.21329	0.083942	0.11625	0.082361	0.23243	0.20271	0.34026	0.18845	0.078732	0.3345	-2.3604	-3.2062	-2.6312	-2.8583	-2.9146	-2.7958	-3.1208	-2.925	-2.6833	-2.9854	-2.8063	-2.8438	-2.9646	-2.7208	-3.0187	-2.9958	226.888	250.566	276.168	308.417	69.494	1.224	269.212	310.805	309.274	100.975	288.858	282.184	-30.092	199.703	-20.396	1.288	0.00037335	0.0022529	0.00010635	593.64	1.8719e-05	1.909e-05	1063.5	189.15	2.4685e-05	1.5526e-05	420.98	159.69	59.693	27.188	1.7508e-05	82.153	0.030661	0.04357	0.012096	1469.6	0.00047283	0.00048743	1314.1	288.84	0.00045195	0.00048223	566.12	209.05	105.49	42.927	0.00046473	101.79	202.211	309.801	47.187	-23.937	74.908	76.060	-23.064	-18.645	157.666	127.051	-18.640	-14.531	-13.801	-10.220	302.478	-9.989	-8191	255	
26284.592	1	1	0	0	0.13736	0.23368	0.20504	0.097945	0.25173	0.14228	0.28389	0.091708	0.11257	0.18169	0.21381	0.13341	0.21191	0.093086	0.17886	0.23616	-2.1229	-2.975	-2.8167	-2.7354	-2.9729	-2.8083	-2.9854	-3	-2.5625	-2.8729	-2.775	-2.9771	-2.9333	-2.6542	-2.9042	-3.1042	20.506	259.590	203.568	308.429	-14.512	320.856	316.596	64.507	84.027	105.211	281.541	4.298	283.102	105.519	35.051	293.896	0.00017049	0.00054868	0.00066229	598.54	1.273e-05	1.8953e-05	1063	190.12	5.8703e-06	6.2484e-06	425.57	159.88	59.964	27.079	1.0468e-05	82.501	0.03022	0.043587	0.012122	1470.2	0.00047288	0.00048755	1322.5	290.28	0.00045665	0.00049033	571.35	210.58	106.9	43.486	0.00047322	102.85	228.600	287.559	-26.848	-23.215	276.454	140.666	-23.115	-18.959	281.019	87.219	-18.920	-14.369	-13.727	-10.423	218.519	-10.230	-8191	255	
26284.688	1	1	0	0	0.18928	0.16378	0.23695	0.019086	0.084024	0.094946	0.28787	0.20328	0.029853	0.21859	0.1942	0.05541	0.29615	0.043898	0.18931	0.096271	-2.2979	-3.0229	-2.6646	-2.7292	-3.0271	-2.6792	-3.0521	-3.0375	-2.6771	-2.9917	-3.0333	-2.6562	-3.1146	-2.6521	-3.0625	-3.1083	106.992	294.475	177.569	265.326	91.062	266.114	277.195	3.784	186.423	233.508	252.252	131.789	-17.033	-30.397	223.745	233.095	0.00018626	0.0025825	0.00024326	587.12	1.5458e-05	3.4878e-05	1063.3	189.73	1.7913e-05	1.0525e-05	419.74	158.07	59.729	27.112	1.91e-05	80.354	0.031117	0.044649	0.012467	1492.3	0.00048553	0.00049744	1323.2	292.45	0.00046465	0.00050045	568.07	209.8	106.73	43.204	0.00048044	101.45	214.446	175.373	150.617	-23.345	3.053	186.394	-22.998	-18.697	177.469	-2.963	-18.587	-14.481	-13.749	-10.120	73.157	-10.467	-8191	255	
26284.783	1	1	0	0	0.24314	0.089799	0.30023	0.24735	0.10446	0.13013	0.011908	0.071114	0.039581	0.20899	0.075908	0.1857	0.1614	0.20904	0.11033	0.11733	-2.2604	-2.7917	-2.7958	-2.825	-3.1521	-2.7792	-3.0563	-3.0917	-2.6833	-2.9875	-3.1937	-2.7458	-3.0104	-2.7729	-2.6417	-3.2667	9.964	33.667	27.010	156.352	-23.199	109.628	265.651	247.545	187.388	23.426	252.210	305.158	170.204	-28.546	67.988	305.739	0.0005283	0.0021219	0.00035648	597.41	9.0786e-06	2.4681e-05	1058.7	189.23	2.2789e-05	2.087e-05	419.69	158.24	59.036	26.717	5.2955e-06	80.673	0.031106	0.045302	0.012549	1502.6	0.00048869	0.00050085	1324.5	291.67	0.00046571	0.00050134	568.04	208.82	106.78	43.117	0.00048112	101.45	176.532	128.038	100.479	-24.831	135.830	231.906	-22.926	-18.329	107.383	175.190	-18.702	-14.370	-13.377	-9.789	-8.952	-9.967	-8191	255	
26284.881	1	1	0	0	0.11123	0.12453	0.27106	0.29821	0.10343	0.085737	0.21495	0.15589	0.26078	0.16821	0.06243	0.22562	0.48341	0.13287	0.1298	0.13289	-2.2271	-2.7833	-2.8021	-2.6417	-3.1604	-2.7521	-2.8542	-2.9604	-2.7521	-2.9771	-3.1167	-2.9083	-3.025	-2.8083	-2.7375	-3.3271	316.150	256.993	59.680	34.633	-2.081	254.894	-16.394	297.609	145.989	88.876	222.992	207.464	304.709	145.059	313.013	130.074	0.00010872	0.0014675	0.0011055	599.8	1.7719e-05	3.689e-05	1061.1	187.8	9.103e-06	3.8681e-05	416.14	157.27	59.213	26.541	2.2136e-05	80.419	0.031254	0.04598	0.012553	1502.4	0.0004901	0.00050345	1325.9	292.3	0.00046543	0.00050524	567.58	208.61	106.82	43.137	0.00048162	101.35	210.713	42.796	35.635	-23.406	99.645	116.324	-23.057	-19.014	293.346	155.907	-18.551	-14.292	-14.140	-10.357	71.369	-10.462	-8191	255	
26285.000	1	1	0	0	0.18116	0.30085	0.15194	0.10496	0.044174	0.09421	0.1896	0.12064	0.16518	0.20247	0.11658	0.18092	0.26179	0.10032	0.025381	0.10514	-2.4375	-2.775	-2.7583	-2.7958	-3.0042	-2.8937	-2.8937	-3.1979	-2.6937	-2.9333	-3.1917	-2.9104	-3.0563	-3.0104	-2.8187	-3.1979	204.546	69.238	-21.620	95.570	217.980	218.981	284.566	-8.853	241.239	263.795	-5.557	225.163	-34.514	128.205	-7.552	228.575	0.00024703	0.0021704	0.00085673	580.46	2.1339e-05	3.8005e-05	1062.6	187	3.0034e-05	1.3315e-05	413.62	157.26	58.832	26.421	2.0423e-05	79.97	0.031491	0.04552	0.012603	1498.5	0.0004915	0.00050219	1326.8	291.15	0.00046633	0.00049764	565.67	207.02	106.27	42.874	0.0004794	100.7	204.331	273.230	-19.111	-24.093	307.515	69.102	-23.054	-18.431	122.739	-12.595	-18.496	-14.205	-14.341	-9.750	220.933	-9.993	-8191	255	
26285.096	1	1	0	0	0.12852	0.12487	0.18155	0.069478	0.15159	0.14797	0.1327	0.20117	0.035942	0.14785	0.11587	0.24596	0.13091	0.29773	0.27451	0.34247	-2.4313	-2.9938	-2.9875	-2.8312	-2.9646	-2.8646	-2.9562	-3.0812	-2.8	-2.7375	-3.275	-2.7313	-3.0979	-3.0896	-2.6417	-3.2313	304.436	46.682	69.206	-29.690	189.137	15.062	157.872	152.873	-4.044	145.889	-33.310	13.505	277.748	19.315	298.861	232.567	0.00025444	0.00043608	0.00015945	607.32	2.2363e-05	1.6785e-05	1068.2	189.05	2.4732e-05	3.6088e-05	415.77	154.69	57.93	26.244	1.9803e-05	78.707	0.031305	0.045891	0.012583	1501	0.00048928	0.00050493	1323.5	291.27	0.00046707	0.00049803	563.24	205.3	105.88	42.429	0.00047217	99.613	191.707	144.245	273.444	-23.166	105.038	293.238	-23.079	-18.072	-32.734	59.663	-18.704	-14.043	-13.475	-10.536	106.703	-10.216	-8191	255	
26285.191	1	1	0	0	0.34781	0.049137	0.11719	0.12161	0.10828	0.15603	0.29715	0.13335	0.10483	0.13177	0.29565	0.21394	0.098209	0.1044	0.30677	0.30145	-2.4271	-2.6896	-2.8458	-2.7354	-2.9042	-3.0729	-2.8688	-2.9917	-2.8	-2.8458	-3.1542	-2.7812	-2.9542	-3.0667	-2.6688	-3.1271	76.382	35.538	60.243	209.635	76.728	156.260	238.663	92.766	185.382	310.252	298.740	286.225	55.388	296.147	-13.806	253.473	0.0003979	0.0026986	0.00051601	576.86	1.5209e-05	1.9536e-05	1056.2	186.61	8.3271e-06	2.0697e-05	414.75	154.93	58.469	26.106	7.3955e-06	79.062	0.030597	0.044465	0.012397	1477.2	0.0004803	0.00049683	1313.6	290.06	0.00046481	0.00050034	563.81	205.83	106.16	42.601	0.00047651	100.12	152.835	288.384	83.992	-23.514	149.036	18.819	-23.513	-18.405	134.852	77.597	-18.469	-14.389	-13.609	-10.176	214.809	-10.210	-8191	255	
26285.264	1	1	0	0	0.17768	0.14875	0.28655	0.29056	0.14703	0.17142	0.11293	0.16437	0.33332	0.15742	0.24852	0.2775	0.21127	0.20293	0.42095	0.25126	-2.3542	-2.7792	-2.9375	-2.6979	-3.0896	-2.8979	-2.8396	-3.1104	-2.9375	-2.8125	-3.2771	-2.8583	-2.9	-2.975	-2.7396	-3.2417	97.736	181.474	44.264	316.447	239.149	42.169	-26.726	199.457	105.381	90.104	303.704	261.406	287.162	53.533	189.843	260.117	0.00028763	0.001761	0.00080968	591.92	1.4089e-05	2.3484e-05	1059.4	188.37	2.4876e-05	2.5923e-05	416.68	155.49	58.745	26.348	1.4658e-05	79.442	0.031132	0.045265	0.0125	1491.3	0.0004842	0.00049908	1314.5	290.31	0.00046425	0.00049605	564.26	206.36	106.19	42.651	0.00047233	100.2	172.683	190.333	9.773	-23.354	114.501	41.188	-22.917	-18.799	112.054	82.044	-18.490	-14.014	-13.835	-10.179	154.150	-10.053	-8191	255	
26285.383	1	1	0	0	0.37884	0.085621	0.17384	0.18636	0.19028	0.033323	0.30381	0.15458	0.16633	0.098951	0.042172	0.29728	0.24212	0.20851	0.097776	0.31171	-2.6021	-2.7229	-2.9875	-2.8333	-2.8125	-3.0708	-2.8688	-3.0875	-3.0104	-2.8063	-3.3167	-2.875	-2.8646	-3.1271	-2.9	-3.0708	279.394	-17.285	107.553	198.055	30.703	199.012	239.543	302.271	130.924	66.169	7.257	282.711	298.216	-19.769	221.850	265.377	0.00019308	0.0013703	0.0010146	588.69	9.66e-06	7.7132e-06	1059.1	187.32	1.8296e-05	1.3148e-05	415.29	156.16	59.612	26.681	2.5589e-05	80.13	0.030774	0.044484	0.012412	1489.9	0.00048285	0.00049506	1315.3	291.51	0.00046324	0.0004924	568.27	207.21	106.61	43.01	0.00047886	101.3	109.225	71.311	-15.690	-23.984	44.488	238.033	-22.908	-18.997	131.541	97.065	-18.533	-14.366	-14.039	-10.670	215.844	-10.014	-8191	255	
26285.479	1	1	0	0	0.15949	0.15082	0.22086	0.201	0.15536	0.19827	0.38793	0.20763	0.049021	0.17816	0.36117	0.23987	0.095209	0.17602	0.065604	0.29711	-2.6437	-2.6333	-3.0167	-2.9229	-2.8771	-3.0354	-2.925	-3.0687	-3.0167	-2.7562	-3.0729	-2.9	-2.7396	-3.0667	-2.7958	-3.0042	196.380	96.955	305.439	126.866	23.157	300.661	297.261	232.807	105.988	-15.600	251.267	-36.316	93.011	160.981	300.333	233.055	0.00047454	0.0025559	0.00093789	599.93	1.1336e-05	1.1825e-05	1067.6	190.77	3.0733e-05	1.3653e-05	421.39	159.27	60.125	26.846	1.6797e-05	80.955	0.031297	0.045481	0.012622	1503.7	0.00048673	0.00050282	1328.1	294.6	0.00047332	0.00050595	574.68	210.59	109.03	43.839	0.00049064	102.65	177.719	10.581	261.173	-24.601	167.338	24.516	-22.916	-18.666	136.848	246.198	-18.538	-14.074	-14.681	-10.530	106.079	-10.334	-8191	255	
26285.576	1	1	0	0	0.044359	0.15518	0.1713	0.11743	0.029601	0.18042	0.079623	0.25176	0.11185	0.093683	0.038483	0.15392	0.080784	0.069321	0.12086	0.28843	-2.725	-2.7271	-3.0854	-2.6583	-2.6896	-2.975	-2.9437	-2.8979	-2.7542	-2.5354	-2.9979	-3.1229	-2.9437	-3.0271	-2.8604	-2.9167	164.420	104.792	198.431	250.710	298.048	296.853	156.515	276.489	312.370	320.182	251.060	258.833	272.127	10.308	234.732	267.909	0.00051755	0.0012601	0.00037749	596.75	8.2601e-06	1.6171e-05	1060.3	188.59	6.0611e-06	1.3254e-05	413.36	155.92	58.889	26.047	8.1605e-06	79.085	0.03224	0.046411	0.013077	1537.9	0.00050652	0.000525	1332	297.41	0.00048678	0.00051786	572.38	208.83	107.88	43.318	0.00049438	100.79	171.581	288.523	239.547	-24.420	109.133	-22.105	-23.302	-18.544	13.041	-8.550	-18.888	-14.133	-13.752	-10.504	132.400	-10.184	-8191	255	
26285.672	1	1	0	0	0.06761	0.12619	0.13942	0.078951	0.10773	0.23924	0.26695	0.11584	0.14326	0.040202	0.070534	0.30869	0.24286	0.2743	0.18962	0.33049	-2.5042	-2.7917	-3.0021	-2.8042	-2.8771	-3.1063	-3.0667	-2.9938	-3.0792	-2.8104	-2.8854	-3.2208	-2.7771	-3.1188	-2.8729	-2.7667	23.582	210.398	208.263	232.610	280.488	236.021	298.450	-27.601	229.188	256.365	320.087	253.785	222.126	289.860	17.395	260.204	0.00022453	0.0035207	8.0022e-05	585.89	1.8935e-05	2.8544e-05	1063.9	186.06	4.0308e-06	9.8322e-06	412.54	154.11	58.055	25.816	1.1222e-05	78.292	0.032312	0.046702	0.013214	1534.7	0.00050543	0.00052311	1330.5	294.67	0.00048577	0.00051965	570.25	206.93	107.67	43.245	0.00050027	100.11	201.845	-24.879	56.253	-22.662	-20.447	80.924	-23.037	-18.460	223.514	154.560	-18.417	-14.090	-14.319	-10.798	144.527	-10.054	-8191	255	
26285.793	1	1	0	0	0.028074	0.13725	0.18769	0.019327	0.1389	0.15121	0.41294	0.22168	0.05041	0.22859	0.29181	0.078951	0.072282	0.2151	0.14313	0.29518	-2.6813	-2.6896	-2.775	-2.9083	-2.6479	-3.0708	-2.9375	-2.7667	-3.1354	-2.8625	-3.1063	-3.15	-2.6417	-3.1125	-2.9083	-2.8042	1.014	-8.831	120.674	179.136	231.251	-16.873	227.104	222.129	141.118	19.820	17.299	95.422	-28.475	37.841	49.791	229.338	0.00039909	0.0020961	0.00050237	585.52	2.6249e-05	2.006e-05	1055.4	185.8	1.6438e-05	1.0946e-05	408.82	153.24	57.81	26.008	4.0125e-05	78.893	0.032567	0.046779	0.013156	1539	0.00050661	0.00052568	1327.2	295.58	0.00048915	0.00052305	569.89	207.62	107.81	43.363	0.00050441	100.74	203.005	-14.085	157.581	-23.058	55.037	67.244	-23.298	-18.663	277.106	319.276	-19.105	-14.354	-14.309	-10.361	111.484	-9.994	-8191	255	
26285.863	1	1	0	0	0.18339	0.21624	0.067414	0.10445	0.13854	0.054228	0.069464	0.17772	0.066683	0.09369	0.099057	0.29935	0.28507	0.098039	0.11274	0.074115	-2.5917	-2.7521	-2.7792	-2.925	-2.8167	-3.0104	-3.25	-2.7188	-3.1375	-2.9083	-3.0667	-3.15	-2.5146	-2.9021	-2.9896	-2.7562	135.802	81.859	113.097	217.978	77.486	252.278	191.310	280.771	186.132	71.026	299.634	308.308	-6.805	245.978	85.780	-1.096	0.00042642	0.002218	0.00099794	602.02	6.7428e-06	2.0697e-05	1057.1	185.75	2.7079e-06	1.0869e-05	413.92	154.2	57.948	25.956	1.6516e-06	78.475	0.033054	0.047265	0.013443	1551.8	0.00051426	0.00053087	1337.9	295.47	0.00049343	0.00052622	572.25	208.36	108.01	43.778	0.00050847	101.34	214.413	-10.799	-5.351	-23.003	139.490	36.019	-22.936	-19.025	195.629	-0.733	-18.858	-14.320	-13.990	-10.224	309.457	-10.234	-8191	255	
26285.961	1	1	0	0	0.28221	0.11426	0.17708	0.27245	0.27223	0.09321	0.37744	0.30389	0.13033	0.16476	0.21859	0.17541	0.17637	0.35127	0.13836	0.28222	-2.5208	-2.6792	-2.7292	-2.9479	-2.6854	-2.9667	-2.9958	-2.6208	-3.1437	-2.8563	-2.8187	-3.1125	-2.6271	-2.9354	-3.0438	-2.9958	76.515	122.953	284.024	0.749	224.824	88.288	306.313	264.593	110.511	203.840	262.537	307.172	52.787	47.703	303.533	239.156	0.00064908	0.00088405	0.0011238	588.6	1.8954e-05	2.6273e-05	1064.2	186.66	1.7768e-05	4.2278e-06	412.19	152.86	57.804	25.413	1.4464e-05	76.825	0.033552	0.048344	0.013634	1591.9	0.00053504	0.00055508	1356.7	304.13	0.00052298	0.00055864	581.35	211.09	110.83	44.305	0.00053104	100.73	158.424	95.389	11.836	-24.421	121.034	18.258	-23.067	-18.509	210.346	280.149	-18.910	-14.182	-13.637	-10.086	201.983	-9.745	-8191	255	
26286.080	1	1	0	0	0.10144	0.17332	0.19884	0.16893	0.22873	0.2659	0.12384	0.16842	0.16863	0.19092	0.29099	0.14178	0.075433	0.085494	0.20781	0.2546	-2.6604	-2.7875	-2.625	-2.9521	-2.9042	-2.8104	-3.2354	-2.7479	-2.8708	-2.9125	-2.9396	-3.0375	-2.9396	-2.9437	-2.975	-2.9521	238.909	176.363	140.837	311.855	317.187	261.645	252.825	233.641	227.317	69.546	307.041	296.690	287.575	70.809	13.002	284.983	0.00041724	0.0030244	0.00039863	584.62	6.6722e-06	3.1896e-05	1046.2	181.79	2.1243e-05	7.1297e-06	404.62	150.52	55.818	24.984	1.5267e-05	76.096	0.03451	0.049766	0.01398	1592.2	0.00053317	0.00055184	1338.9	296.8	0.00051825	0.00054966	573.69	208.33	109.21	43.937	0.00053826	100.17	176.530	292.770	293.898	-24.240	-18.049	152.107	-23.126	-18.802	227.564	129.760	-18.680	-14.292	-13.694	-10.540	19.933	-10.414	-8191	255	
26286.176	1	1	0	0	0.23509	0.33094	0.18152	0.057211	0.15325	0.13386	0.14744	0.05948	0.13765	0.19511	0.28069	0.15099	0.10777	0.16047	0.055878	0.17479	-2.4479	-2.8229	-2.7333	-3.0229	-2.8479	-2.925	-3.1729	-2.9292	-2.9917	-2.9583	-2.7396	-3.025	-2.8021	-2.9938	-3.1146	-2.8479	207.039	149.885	77.631	107.086	149.829	169.368	290.808	230.468	254.958	101.628	-5.730	284.958	61.868	186.672	13.185	-34.342	0.00055236	0.0024114	0.0010605	588.32	7.1298e-06	1.2775e-05	1047.7	180.23	2.1347e-05	2.9365e-05	400.43	148.81	54.963	24.911	1.9777e-05	75.686	0.035228	0.050464	0.014128	1613.3	0.00054516	0.00056229	1343.8	298.37	0.00052947	0.00055848	573.13	207.26	108.53	43.337	0.00053205	99.356	165.701	-27.360	72.732	-24.180	274.473	191.361	-22.985	-19.115	288.124	139.967	-18.686	-13.985	-14.014	-10.093	86.090	-9.892	-8191	255	
26286.273	1	1	0	0	0.19795	0.030638	0.076271	0.15795	0.18983	0.19323	0.12655	0.04845	0.17434	0.13756	0.14772	0.12445	0.17583	0.073692	0.080029	0.036723	-2.5021	-2.8125	-2.6979	-3.0354	-2.8458	-2.85	-3.2271	-2.9458	-2.8646	-3.0396	-3.0333	-2.9396	-3.0958	-2.8208	-3.1229	-2.9104	300.521	177.175	69.312	227.129	264.977	64.349	301.244	218.752	-25.272	221.967	302.203	35.769	259.930	214.264	-17.081	7.796	0.0004999	0.0015297	0.00082463	584.37	2.8873e-05	2.5393e-05	1045.5	180.48	8.288e-06	1.1798e-05	403.67	150.31	56.294	24.87	1.4552e-05	76.378	0.034698	0.050056	0.013975	1602.3	0.00054039	0.00055668	1339.4	297.34	0.00052025	0.00055132	574.28	207.93	109.1	43.815	0.0005338	100.13	169.306	113.285	-12.656	-23.402	50.672	27.667	-23.245	-18.502	105.639	22.816	-18.609	-14.187	-14.352	-10.473	-24.588	-10.034	-8191	255	
26286.393	1	1	0	0	0.26664	0.2515	0.063664	0.14396	0.16995	0.046316	0.42967	0.081367	0.29793	0.21159	0.20518	0.22372	0.086567	0.065192	0.13489	0.18055	-2.6208	-2.6958	-2.6813	-3.0375	-2.8771	-2.7833	-3.1771	-2.95	-2.9521	-2.9708	-2.8937	-3.0563	-3.0542	-2.6792	-3.0458	-3.0833	137.618	53.813	69.864	99.986	317.996	231.660	-25.359	220.418	315.292	237.233	218.333	276.151	90.377	204.942	210.798	257.140	0.00036495	0.0035231	0.00054934	593.4	2.4019e-05	1.6084e-05	1053.1	183.32	4.2067e-06	1.5964e-05	410.58	151.84	56.458	25.714	8.7402e-06	76.965	0.034655	0.049956	0.01386	1604.2	0.00054006	0.0005544	1348.3	298.72	0.00052399	0.00055231	578	209.69	109.35	43.746	0.00053108	100.44	240.536	-26.355	31.172	-23.591	129.189	48.678	-22.958	-18.760	28.202	116.109	-18.772	-14.266	-13.678	-9.854	75.318	-10.116	-8191	255	
26286.488	1	1	0	0	0.25594	0.14612	0.16126	0.099761	0.032397	0.068768	0.18657	0.33903	0.068409	0.096011	0.091491	0.19783	0.098292	0.15367	0.094149	0.24184	-2.3292	-2.9458	-2.7313	-2.8875	-2.9292	-2.8146	-3.0062	-2.8708	-2.6333	-3.0021	-2.8146	-3.0104	-3.0208	-2.7562	-3.0563	-2.9708	220.621	289.704	304.607	136.892	154.221	184.173	254.456	269.925	199.573	277.759	67.855	157.964	158.324	301.935	215.071	307.126	0.00034974	0.0031391	0.00035107	577.85	2.2529e-05	1.8811e-05	1044.4	181.03	1.1039e-06	1.6477e-05	405.65	149.73	56.309	24.962	4.187e-06	75.991	0.034432	0.049667	0.013793	1604	0.00053786	0.00055542	1341.6	297.89	0.00051999	0.00055639	574.83	207.98	109.28	43.675	0.00054025	99.775	146.771	74.434	299.081	-23.008	-32.172	138.741	-23.086	-18.435	2.416	154.985	-18.828	-14.374	-14.042	-10.230	82.840	-10.206	-8191	255	
26286.561	1	1	0	0	0.15866	0.12661	0.3447	0.15874	0.011219	0.19054	0.22913	0.047298	0.09832	0.24353	0.074863	0.17462	0.11467	0.032081	0.12064	0.19951	-2.4125	-2.9688	-2.6042	-2.9	-3.0167	-2.7042	-3.2458	-2.7667	-2.8438	-3.0583	-2.8646	-3.0146	-2.9708	-2.4521	-2.9458	-3	-13.332	-18.654	248.333	101.471	43.205	75.986	178.111	207.868	177.511	167.054	68.703	-22.137	75.884	311.352	195.588	245.227	0.00034403	0.0011901	0.00072375	583.95	2.597e-06	1.1921e-05	1048.6	180.58	9.866e-06	2.9049e-05	404.94	150.13	56.131	25.105	4.7068e-05	76.517	0.034926	0.050288	0.013984	1607.3	0.00054427	0.00055734	1345.1	297.89	0.00052547	0.00055949	574.61	207.89	109.36	43.598	0.00053636	100.12	163.998	233.976	95.614	-24.042	313.177	310.430	-23.035	-18.663	129.160	76.601	-18.720	-14.225	-13.410	-10.105	59.255	-10.077	-8191	255	
26286.656	1	1	0	0	0.1144	0.10777	0.049426	0.20995	0.082831	0.03136	0.37311	0.18563	0.13568	0.20583	0.17284	0.091861	0.1773	0.34845	0.088238	0.32143	-2.2958	-3.0417	-2.8521	-2.8625	-3.0146	-2.6583	-3.1229	-2.8438	-2.6146	-3.0687	-2.8187	-2.8208	-3.1312	-2.9313	-2.8521	-3.0312	41.760	292.465	172.979	-30.441	185.401	163.386	253.803	266.931	283.473	113.785	-1.373	167.768	18.108	-2.719	53.935	307.250	0.00038233	0.0020776	0.00024925	580.82	2.5745e-06	2.1268e-05	1054.7	182.53	1.2964e-05	4.7137e-05	408.54	151.03	56.633	25.172	3.904e-05	76.548	0.034647	0.050132	0.013864	1609.3	0.00054069	0.00055498	1347.7	298.99	0.00052096	0.00055958	579.82	209.68	110.08	43.915	0.00054542	100.92	209.336	-15.008	69.250	-23.461	86.488	7.465	-23.465	-18.333	210.278	157.472	-19.127	-14.002	-13.596	-10.092	311.127	-10.038	-8191	255	
26286.777	1	1	0	0	0.19453	0.089861	0.25074	0.1306	0.082108	0.26602	0.30654	0.047453	0.14117	0.041443	0.19902	0.22082	0.12614	0.21716	0.01894	0.24454	-2.4771	-2.9354	-3.025	-2.8625	-3.1188	-2.8625	-3.0563	-3.0833	-2.875	-2.9917	-3.0104	-3.075	-3.1625	-2.925	-2.9708	-3.3771	291.272	224.175	87.214	265.934	252.279	298.259	272.178	307.843	264.389	-23.635	261.702	108.112	18.591	-31.245	28.548	273.047	0.00015833	0.002079	0.00022908	584.75	2.964e-05	5.9447e-06	1053.8	183.97	2.7426e-05	1.7707e-05	408.93	152.69	56.918	25.321	1.4416e-05	77.165	0.035075	0.050537	0.014032	1613	0.0005485	0.00056338	1354.5	300.76	0.00052541	0.00056202	579.68	210.57	110.25	43.826	0.0005345	101.14	278.359	-32.461	190.008	-23.655	94.547	278.165	-23.171	-19.279	309.571	191.039	-19.010	-14.190	-13.932	-10.557	182.546	-10.141	-8191	255	
26286.873	1	1	0	0	0.2178	0.14724	0.083095	0.20391	0.1396	0.22672	0.054995	0.25327	0.14246	0.052777	0.12915	0.20376	0.1902	0.056135	0.24661	0.34263	-2.4021	-3	-2.8979	-2.7729	-2.9979	-2.6958	-2.9646	-3.2229	-2.6542	-3.0917	-2.925	-2.95	-3.0708	-2.8708	-2.9062	-3.3292	0.404	30.521	-12.204	49.722	304.567	284.844	-36.712	179.584	213.198	73.297	265.940	-23.015	139.357	51.939	154.346	292.268	0.00036963	0.0020252	0.00077124	586.89	6.9912e-06	3.4823e-05	1048.4	185.36	1.3905e-05	2.7717e-06	409.22	151.23	55.631	25.038	1.4936e-05	76.123	0.03467	0.050207	0.013939	1618.3	0.0005433	0.00055933	1349.4	299.63	0.00052	0.00056271	578.84	209.16	110.05	43.751	0.0005462	100.58	214.856	72.499	295.299	-23.147	-17.535	-16.520	-23.203	-18.856	209.695	111.548	-18.776	-14.049	-14.690	-10.334	250.490	-9.948	-8191	255	
26286.969	1	1	0	0	0.14069	0.22545	0.1551	0.13123	0.21489	0.18524	0.07552	0.20531	0.11592	0.10765	0.022002	0.03771	0.066007	0.15322	0.22175	0.36202	-2.3396	-2.9479	-2.8688	-2.7188	-2.9875	-2.7292	-3.0021	-3.1792	-2.6896	-3.0187	-3.0542	-2.8292	-3.0542	-3.0833	-2.7938	-3.2396	230.888	47.700	-5.424	36.667	310.192	20.491	-33.181	182.736	179.086	48.009	267.925	272.878	-33.863	-29.739	106.945	184.905	0.00039714	0.0027724	0.00050728	584.61	2.2485e-05	2.5447e-05	1035.8	182.72	2.1079e-05	2.5989e-05	407.9	150.25	56.564	24.968	1.8658e-05	76.272	0.03551	0.051394	0.014323	1641.9	0.00056172	0.00058223	1356.1	305.74	0.00054562	0.00059218	588.43	211.53	112.99	44.783	0.00056582	101.79	140.736	214.887	163.356	-23.651	157.649	172.314	-23.079	-18.387	138.695	147.254	-18.948	-14.518	-14.384	-9.947	96.578	-9.967	-8191	255	
26287.090	1	1	0	0	0.084647	0.02592	0.12544	0.12398	0.12756	0.039079	0.13576	0.089333	0.19121	0.31588	0.07818	0.26753	0.25471	0.10888	0.10517	0.23951	-2.2792	-2.8354	-3.0479	-2.6354	-3.1229	-2.9167	-2.7958	-3.0604	-2.7771	-2.7188	-3.25	-2.9188	-2.9646	-2.8208	-2.75	-3.0521	317.226	273.666	194.300	188.999	61.997	212.589	272.157	13.931	320.431	-1.739	199.577	-15.155	10.017	140.022	261.339	281.823	0.00027985	0.00121	0.00052028	582.54	2.3716e-05	2.9388e-05	1044.7	181.84	1.5734e-05	1.6427e-05	408.6	150.38	56.969	25.191	2.7196e-05	76.076	0.036673	0.052918	0.014688	1654.8	0.00057281	0.00058573	1355.6	305.56	0.00054584	0.00058481	587.8	211.88	112.87	44.651	0.00056899	102.03	169.200	194.462	-36.434	-23.916	72.549	15.046	-23.162	-18.676	225.851	194.455	-18.840	-14.392	-14.125	-10.329	291.251	-10.254	-8191	255	
26287.160	1	1	0	0	0.32106	0.13042	0.1006	0.035236	0.11742	0.39741	0.28628	0.25366	0.058854	0.084148	0.24022	0.23716	0.16065	0.26392	0.14464	0.28019	-2.525	-2.8833	-3	-2.8292	-3.1479	-2.8438	-2.8063	-2.9375	-2.9	-3.025	-3.1479	-2.8542	-2.9104	-3.0042	-2.7062	-3.1583	198.170	144.027	90.295	-31.353	160.577	245.153	265.915	303.211	195.118	278.658	281.159	33.459	22.979	10.513	313.503	290.525	0.00055228	0.0013361	0.00065866	582.37	3.439e-05	3.2087e-05	1037.3	182.93	6.0039e-06	1.7471e-05	406.47	151.96	56.753	25.14	8.8942e-06	76.889	0.036774	0.053262	0.01485	1658.4	0.00057496	0.00059085	1355	307.6	0.00054835	0.00059102	589.41	212.74	112.78	44.787	0.00056321	102.44	177.634	31.573	90.696	-23.778	151.150	61.579	-23.042	-18.621	254.607	63.123	-18.959	-14.359	-14.471	-10.442	125.556	-9.858	-8191	255	
26287.258	1	1	0	0	0.10566	0.074652	0.11263	0.11444	0.072599	0.13035	0.27027	0.21193	0.18113	0.30477	0.23056	0.27485	0.19821	0.1839	0.20748	0.082567	-2.2625	-2.8021	-2.9313	-2.6396	-2.9208	-2.7542	-2.8396	-2.8958	-2.6896	-3.0042	-3.2167	-2.7375	-3.0979	-2.9104	-2.7833	-3.0667	38.273	94.457	49.560	209.218	205.764	78.496	274.718	-21.194	318.732	263.332	5.267	258.530	100.785	313.469	232.525	211.233	0.00011501	0.00060968	0.00090544	580.45	6.551e-06	4.5744e-05	1040	185.06	1.7868e-05	2.511e-05	414	152.81	56.571	25.346	3.2753e-05	76.289	0.036431	0.052812	0.014767	1657.4	0.00058163	0.00059153	1363.1	309.76	0.00055291	0.0005973	595.74	214.41	113.59	45.147	0.00057049	102.39	143.973	285.801	12.905	-23.619	158.410	219.718	-23.327	-18.768	83.988	33.853	-18.858	-14.067	-14.359	-10.743	306.750	-10.464	-8191	255	
26287.354	1	1	0	0	0.20731	0.043078	0.18469	0.10083	0.085287	0.15181	0.185	0.19456	0.2789	0.30991	0.057194	0.073461	0.19267	0.15277	0.056894	0.24438	-2.6583	-2.8625	-2.9646	-2.7083	-2.9437	-3.0125	-2.7729	-2.8625	-2.8937	-2.6229	-3.1104	-2.7875	-2.9229	-3.0792	-2.8438	-3.1396	131.110	229.402	124.083	149.268	200.703	42.872	295.985	277.024	254.426	281.152	268.174	161.160	41.207	207.681	292.307	217.730	0.00031217	0.0022075	0.00048926	577.79	1.2727e-05	1.4366e-05	1027.3	181.2	3.7621e-06	2.4562e-05	401.74	150.02	55.698	24.791	2.4096e-05	75.33	0.036973	0.053433	0.014926	1667.2	0.00058016	0.00059724	1352.1	308.28	0.00055473	0.00059955	589.63	212.48	112.82	44.908	0.00057155	101.64	191.051	-12.661	223.476	-23.738	81.278	19.123	-23.197	-19.221	291.340	302.011	-18.795	-14.273	-14.048	-10.208	161.773	-10.375	-8191	255	
26287.473	1	1	0	0	0.29487	0.18438	0.064036	0.11502	0.19682	0.25052	0.22442	0.25884	0.053442	0.06023	0.13065	0.074366	0.20829	0.219	0.15498	0.13291	-2.5146	-2.7125	-3.0687	-2.7125	-2.7938	-3.0729	-2.9771	-3.0208	-2.7271	-2.8187	-3.1875	-2.8333	-2.9771	-3.0229	-2.7604	-3.2188	175.884	36.981	84.745	250.820	8.656	-12.607	253.789	279.512	108.931	40.801	-12.983	228.141	295.064	-25.367	212.687	198.283	0.00010728	0.0045621	0.00044224	581.9	2.4419e-05	1.03e-05	1032.7	182.33	1.61e-05	2.2514e-05	404.01	150.55	56.128	24.837	2.5414e-05	76.301	0.037275	0.053622	0.014958	1661.3	0.00058543	0.00059712	1353.4	306.98	0.00055227	0.00059223	588.6	212.23	112.79	44.712	0.00056724	102.04	147.324	143.818	48.368	-23.106	113.331	169.267	-23.281	-18.922	241.126	113.970	-18.572	-14.324	-14.292	-10.734	139.292	-10.318	-8191	255	
26287.568	1	1	0	0	0.067964	0.16156	0.085761	0.11162	0.21858	0.047289	0.24292	0.20329	0.042736	0.12602	0.1628	0.11917	0.1891	0.11134	0.098747	0.191	-2.5938	-2.8	-3.1	-2.8604	-2.7771	-2.925	-3	-2.9271	-3.075	-2.875	-3.1562	-3.0563	-2.8229	-3.1063	-2.7958	-3.1083	47.489	3.750	218.133	107.165	-18.205	280.936	293.383	37.548	301.409	139.116	-4.411	87.465	0.665	240.644	152.074	310.381	0.00041999	0.0013356	0.00017285	582.29	3.4241e-05	2.7237e-05	1038.9	182.97	3.0411e-05	8.5389e-06	410.37	150.47	56.741	24.902	7.6816e-06	76.448	0.036727	0.05289	0.014797	1651.4	0.00057454	0.00059091	1355.6	305.65	0.00054656	0.00058582	589.66	211.81	112.33	44.671	0.00055837	101.98	168.293	165.953	42.854	-23.833	70.193	313.456	-22.642	-18.801	21.326	243.029	-18.716	-14.339	-13.981	-10.100	139.849	-10.029	-8191	255	
26287.664	1	1	0	0	0.076809	0.089874	0.11659	0.18872	0.093369	0.11859	0.23797	0.29094	0.28171	0.16042	0.48745	0.12241	0.14653	0.27592	0.28678	0.26562	-2.6771	-2.7542	-2.8396	-3.0583	-2.725	-2.9417	-3.0146	-2.9354	-3.0938	-2.65	-3.0604	-2.95	-2.7708	-3.1937	-2.7583	-3.0583	240.058	39.875	96.227	213.343	244.596	36.258	208.813	275.258	138.593	16.031	-11.682	-9.523	-15.607	261.110	-33.382	313.194	0.00041704	0.0021554	0.00051825	579.62	1.2937e-05	1.4352e-05	1043.4	183.22	1.9364e-05	2.759e-06	410.47	151.68	56.812	25.506	1.6207e-05	77.734	0.036462	0.052605	0.014698	1654.8	0.00057429	0.00058587	1360.8	305.85	0.00054294	0.00057837	589.82	212.05	111.57	44.631	0.00055019	102.6	230.169	-6.037	108.282	-23.613	299.267	20.162	-23.108	-18.334	177.657	37.078	-19.322	-14.354	-13.830	-10.309	120.646	-10.316	-8191	255	
26287.762	1	1	0	0	0.27778	0.11658	0.11872	0.34544	0.061509	0.028856	0.22041	0.077226	0.13164	0.1166	0.18387	0.10225	0.27906	0.46391	0.16867	0.031734	-2.5521	-2.6521	-3.075	-3.0021	-2.7729	-3.0333	-2.9792	-2.7021	-3.2375	-2.875	-3.0229	-3.2104	-2.7458	-2.9458	-2.8833	-2.9188	147.483	-9.386	304.496	-18.424	44.129	186.378	299.852	13.614	278.416	225.989	212.995	-24.391	270.504	274.116	262.589	192.008	0.00048299	0.0027493	0.00099075	579.78	1.5727e-05	3.5643e-05	1051.7	185.4	1.9553e-05	2.4629e-05	413.1	153.07	57.372	25.523	1.8268e-05	78.021	0.035924	0.05143	0.014377	1628.6	0.00056131	0.00057711	1360.3	305.33	0.00053938	0.00057469	591.27	213.05	112.27	44.811	0.00054806	102.52	189.886	69.851	60.018	-23.344	318.754	118.935	-23.088	-19.003	126.407	130.794	-18.990	-14.222	-13.879	-10.568	-3.001	-10.310	-8191	255	
26287.857	1	1	0	0	0.21837	0.21375	0.089765	0.25957	0.053705	0.022207	0.37965	0.074638	0.29201	0.13156	0.091014	0.11431	0.30103	0.28169	0.21822	0.24984	-2.6417	-2.6833	-2.9854	-2.8896	-2.8896	-2.9333	-2.9625	-2.7396	-3.0521	-2.8979	-2.9813	-3.1	-2.9167	-3.175	-2.9833	-3.0271	208.756	69.374	273.275	-34.679	-19.395	138.043	276.845	206.903	315.533	309.544	318.934	-2.978	283.098	-13.968	160.912	199.069	0.00038079	0.0023458	0.00041974	590.48	2.603e-06	3.5654e-05	1049.3	186.02	1.2623e-05	1.1608e-05	411.57	153.94	57.875	25.582	1.3247e-05	77.733	0.035822	0.051086	0.014307	1619.7	0.00055017	0.00057147	1346.5	302.94	0.00052625	0.00055798	583.27	211.47	110.35	44.168	0.00053222	102.22	233.645	84.329	310.968	-22.847	-26.624	147.349	-22.838	-19.012	96.780	106.452	-18.672	-14.450	-14.032	-10.614	203.062	-10.315	-8191	255	
26287.953	1	1	0	0	0.09684	0.11841	0.05582	0.16127	0.18633	0.10257	0.24023	0.19435	0.15142	0.11381	0.13459	0.28045	0.086816	0.28394	0.088045	0.18848	-2.7625	-2.725	-2.8146	-3.1063	-2.675	-3.0354	-3.2062	-2.7958	-3.0187	-2.8396	-2.9542	-3.1354	-2.9313	-3.0021	-3.0646	-2.9313	171.025	138.003	242.948	2.117	77.217	131.290	267.667	84.381	103.578	-36.142	219.132	282.536	131.937	289.599	-31.886	219.326	0.00029335	0.0010182	0.00042435	583.12	1.8193e-05	1.982e-06	1048.4	182.63	8.6933e-06	1.3983e-05	410.94	154.28	57.853	26.026	1.0464e-05	78.756	0.034666	0.049802	0.013779	1586.4	0.0005325	0.00055269	1336.8	297.79	0.00050811	0.00054121	579.28	210.6	108.71	43.864	0.00051482	101.83	138.698	275.118	201.698	-23.806	194.977	74.297	-23.252	-19.184	-22.905	15.004	-18.749	-14.380	-14.492	-10.544	278.077	-9.964	-8191	255	
26288.074	1	1	0	0	0.27231	0.17036	0.042046	0.10233	0.13901	0.16528	0.26476	0.07406	0.23763	0.082462	0.1951	0.21638	0.12051	0.098451	0.24636	0.088895	-2.6271	-2.8937	-2.8146	-3.0563	-2.6667	-3.0896	-3.2396	-2.7125	-3.1271	-2.7729	-2.8063	-3.1396	-2.7625	-2.8125	-2.9167	-2.9208	245.799	292.352	203.429	26.603	-24.105	5.680	291.517	312.994	37.987	314.509	318.326	-18.425	219.181	68.295	17.253	207.080	0.00018815	0.0017696	0.00028357	586.01	2.3032e-05	5.8734e-05	1056.7	186.61	2.0626e-05	1.6287e-05	417.72	157.94	59.041	26.928	2.2642e-05	81.203	0.033414	0.047988	0.013385	1554.8	0.00051484	0.00053812	1334.9	296.81	0.00049451	0.0005282	579.56	212.09	109.27	44.253	0.00051522	103.77	193.423	143.003	49.891	-24.413	178.635	213.203	-23.154	-18.788	315.440	-15.583	-18.844	-14.171	-14.016	-10.719	203.626	-10.348	-8191	255	
26288.170	1	1	0	0	0.18558	0.2331	0.11157	0.1894	0.10159	0.085638	0.18802	0.1032	0.096338	0.20559	0.28676	0.2704	0.23719	0.39337	0.095138	0.23306	-2.5833	-2.9042	-2.7792	-2.9979	-2.9729	-2.9167	-3.1271	-2.9521	-2.8896	-2.9771	-2.875	-3.2125	-2.5458	-2.8792	-3.0146	-2.8187	227.339	134.369	95.701	-6.770	319.613	130.176	252.259	252.243	144.297	174.634	290.421	305.546	281.899	269.964	283.947	154.914	0.00024456	0.0031828	0.00024488	590.8	1.6998e-05	1.8001e-05	1056.7	185.43	2.0451e-05	2.9033e-05	410.07	152.37	56.315	25.265	2.5903e-05	76.595	0.033781	0.048271	0.013523	1588.4	0.00053012	0.00054825	1348.4	298.38	0.00050516	0.00053849	577.38	207.64	107.07	42.88	0.00050844	98.704	113.485	76.308	173.817	-23.584	302.595	-27.631	-22.893	-18.662	167.998	18.774	-18.956	-14.440	-14.387	-9.805	300.087	-10.025	-8191	255	
26288.264	1	1	0	0	0.15678	0.087886	0.082761	0.23559	0.18187	0.22719	0.17453	0.31211	0.12733	0.27408	0.12903	0.20535	0.21895	0.37241	0.18523	0.21463	-2.5667	-2.9437	-2.7417	-2.9625	-2.7896	-2.8521	-3.1479	-2.9917	-2.9708	-3.0771	-2.9396	-3.0062	-2.9667	-2.7792	-3.0667	-3.0333	-34.271	72.530	292.006	299.336	34.241	63.654	-26.506	244.750	140.412	265.265	109.974	291.121	-7.303	317.911	119.552	287.289	0.00055746	0.00027507	0.00082712	585.69	8.3207e-06	1.5862e-05	1042.9	174.64	2.1521e-05	2.5433e-05	387.65	143.15	52.007	23.336	1.1357e-05	72.407	0.032915	0.046916	0.013016	1531.4	0.0005027	0.0005209	1311.4	281.35	0.00047326	0.00050318	542.06	194.62	99.896	39.947	0.00047552	93.334	179.219	277.530	106.708	-23.741	103.592	-14.309	-23.078	-18.590	93.264	225.419	-18.567	-13.939	-14.135	-9.967	80.868	-9.703	-8191	255	
26288.361	1	1	0	0	0.13409	0.099588	0.10371	0.27549	0.18732	0.16334	0.42306	0.28474	0.10608	0.18022	0.14863	0.16552	0.12231	0.084651	0.2657	0.098405	-2.5479	-2.9208	-2.7375	-3.0771	-2.8729	-2.9	-3.2958	-2.8292	-2.9583	-2.9333	-2.9083	-3.0563	-2.9271	-2.9708	-3.0708	-3.0604	294.405	-10.459	297.467	56.159	268.459	16.886	256.402	164.631	263.772	248.973	-7.400	303.791	2.808	186.257	193.742	280.129	0.00019952	0.0031538	0.00056593	574.69	6.1924e-06	2.2638e-06	1039.3	174.74	2.2749e-05	2.6102e-05	385.88	143.3	52.652	23.558	3.2243e-05	72.239	0.031091	0.044326	0.012376	1485.2	0.00048268	0.00049956	1295.8	278.82	0.00046998	0.00050357	541.88	195.5	100.64	40.19	0.00048281	93.684	28.017	17.307	-18.191	-23.525	75.932	109.125	-23.528	-19.076	119.503	129.657	-18.792	-14.069	-13.732	-10.574	123.300	-9.956	-8191	255	
26288.457	1	1	0	0	0.081781	0.22942	0.11262	0.22825	0.10484	0.29283	0.08723	0.16211	0.1275	0.083377	0.18631	0.31675	0.25194	0.092507	0.14562	0.24089	-2.5417	-3.0062	-2.6125	-3.1104	-2.8042	-2.5896	-3.3812	-2.7938	-2.8958	-3.1229	-2.8292	-3.0708	-3.0271	-2.9583	-3.0687	-2.9792	171.718	66.957	250.124	7.888	119.369	2.552	260.127	187.134	136.238	244.532	298.743	-34.912	-16.455	288.593	67.511	281.426	0.00041356	0.00059846	0.00039811	584.47	1.4831e-05	3.217e-05	1035.5	174.68	6.3896e-06	2.8806e-05	389.56	142.02	52.495	23.559	2.0258e-05	72.368	0.031538	0.045265	0.012518	1494.5	0.00048642	0.00050956	1297.1	277.98	0.00046883	0.00050106	540.47	194.01	99.879	39.896	0.00047759	93.253	189.432	-32.799	94.247	-24.223	26.868	134.124	-23.307	-18.284	-34.793	309.591	-18.753	-14.135	-13.746	-9.964	138.613	-9.773	-8191	255	
#DATA ENDS
