BOXY.EXE: ISS Imagent and Oximeter Data Acquisition Program Version 0.80
Ascii Record File

#ACQ INFORMATION
2  Detector Channels 
16  External MUX Channels 
1  Auxiliary Channels 
5000  Waveform (CCF) Frequency (Hz)
1  Waveforms Skipped 
30  Waveforms Averaged 
1  Cycles Averaged 
16  Acquisitions per Waveform 
10.0806  Updata Rate (Hz) 

#FILE INFORMATION
TRUE -- External MUX Channel results are PARSED.
FALSE -- AC DC and Phase are NOT grouped.
TRUE -- Companion Program Settings File CREATED.
FALSE -- AC data not excluded
FALSE -- DC data not excluded
FALSE -- Phase data not excluded
FALSE -- Auxillary Chn. data not excluded
Tab delimiters

#CALIBRATION STATE
TRUE -- Waveform Calibration Values APPLIED.


#AUX CALIBRATION VALUES
Val Type	aux-1	

Term	1.0000e+00	
Factor	0.0000e+00	


#WF CALIBRATION VALUES
A = Detector Channel
Val Type	A-AC1	A-AC2	A-AC3	A-AC4	A-AC5	A-AC6	A-AC7	A-AC8	A-AC9	A-AC10	A-AC11	A-AC12	A-AC13	A-AC14	A-AC15	A-AC16	A-DC1	A-DC2	A-DC3	A-DC4	A-DC5	A-DC6	A-DC7	A-DC8	A-DC9	A-DC10	A-DC11	A-DC12	A-DC13	A-DC14	A-DC15	A-DC16	A-Ph1	A-Ph2	A-Ph3	A-Ph4	A-Ph5	A-Ph6	A-Ph7	A-Ph8	A-Ph9	A-Ph10	A-Ph11	A-Ph12	A-Ph13	A-Ph14	A-Ph15	A-Ph16	

Term	0.00000e+00	0.00000e+00	0.00000e+00	0.00000e+00	0.00000e+00	0.00000e+00	0.00000e+00	0.00000e+00	0.00000e+00	0.00000e+00	0.00000e+00	0.00000e+00	0.00000e+00	0.00000e+00	0.00000e+00	0.00000e+00	0.00000e+00	0.00000e+00	0.00000e+00	0.00000e+00	0.00000e+00	0.00000e+00	0.00000e+00	0.00000e+00	0.00000e+00	0.00000e+00	0.00000e+00	0.00000e+00	0.00000e+00	0.00000e+00	0.00000e+00	0.00000e+00	0.00000e+00	0.00000e+00	0.00000e+00	0.00000e+00	0.00000e+00	0.00000e+00	0.00000e+00	0.00000e+00	0.00000e+00	0.00000e+00	0.00000e+00	0.00000e+00	0.00000e+00	0.00000e+00	0.00000e+00	0.00000e+00	
Factor	1.00000e+00	1.00000e+00	1.00000e+00	1.00000e+00	1.00000e+00	1.00000e+00	1.00000e+00	1.00000e+00	1.00000e+00	1.00000e+00	1.00000e+00	1.00000e+00	1.00000e+00	1.00000e+00	1.00000e+00	1.00000e+00	1.00000e+00	1.00000e+00	1.00000e+00	1.00000e+00	1.00000e+00	1.00000e+00	1.00000e+00	1.00000e+00	1.00000e+00	1.00000e+00	1.00000e+00	1.00000e+00	1.00000e+00	1.00000e+00	1.00000e+00	1.00000e+00	X	X	X	X	X	X	X	X	X	X	X	X	X	X	X	X	

B = Detector Channel
Val Type	B-AC1	B-AC2	B-AC3	B-AC4	B-AC5	B-AC6	B-AC7	B-AC8	B-AC9	B-AC10	B-AC11	B-AC12	B-AC13	B-AC14	B-AC15	B-AC16	B-DC1	B-DC2	B-DC3	B-DC4	B-DC5	B-DC6	B-DC7	B-DC8	B-DC9	B-DC10	B-DC11	B-DC12	B-DC13	B-DC14	B-DC15	B-DC16	B-Ph1	B-Ph2	B-Ph3	B-Ph4	B-Ph5	B-Ph6	B-Ph7	B-Ph8	B-Ph9	B-Ph10	B-Ph11	B-Ph12	B-Ph13	B-Ph14	B-Ph15	B-Ph16	

Term	0.00000e+00	0.00000e+00	0.00000e+00	0.00000e+00	0.00000e+00	0.00000e+00	0.00000e+00	0.00000e+00	0.00000e+00	0.00000e+00	0.00000e+00	0.00000e+00	0.00000e+00	0.00000e+00	0.00000e+00	0.00000e+00	0.00000e+00	0.00000e+00	0.00000e+00	0.00000e+00	0.00000e+00	0.00000e+00	0.00000e+00	0.00000e+00	0.00000e+00	0.00000e+00	0.00000e+00	0.00000e+00	0.00000e+00	0.00000e+00	0.00000e+00	0.00000e+00	-2.28318e+02	-1.28261e+02	-1.22557e+02	-1.79784e+02	-6.98370e+01	-5.69121e+01	-1.58204e+02	-1.62015e+02	-8.96925e+01	-7.94603e+01	-1.70039e+02	-1.72048e+02	-1.82281e+02	-1.76085e+02	-7.57894e+01	-1.48903e+02	
Factor	4.44743e-05	1.16669e-04	3.11420e-05	1.50107e-01	1.44705e-06	1.30124e-06	1.55391e-01	5.73555e-02	1.61794e-06	1.31520e-06	7.33951e-02	2.70137e-02	2.41607e-02	7.75268e-03	1.42893e-06	1.11630e-02	1.56745e-06	1.64600e-06	4.64896e-07	7.58927e-02	1.78137e-08	1.80026e-08	7.42071e-02	2.88859e-02	1.77144e-08	1.80151e-08	3.60562e-02	1.31780e-02	1.21309e-02	3.93631e-03	1.80715e-08	5.48598e-03	X	X	X	X	X	X	X	X	X	X	X	X	X	X	X	X	



#DISTANCE SETTINGS
A = Detector Channel
A-1	A-2	A-3	A-4	A-5	A-6	A-7	A-8	A-9	A-10	A-11	A-12	A-13	A-14	A-15	A-16	

2.5000e+00	3.0000e+00	2.5000e+00	3.0000e+00	2.0000e+00	3.0000e+00	1.5000e+00	3.0000e+00	3.0000e+00	3.0000e+00	3.0000e+00	3.0000e+00	3.0000e+00	3.0000e+00	1.5000e+00	3.0000e+00	

B = Detector Channel
B-1	B-2	B-3	B-4	B-5	B-6	B-7	B-8	B-9	B-10	B-11	B-12	B-13	B-14	B-15	B-16	

1.0000e+01	1.0000e+01	1.0000e+01	1.4400e+00	1.0000e+01	1.0000e+01	1.5100e+00	1.9400e+00	1.0000e+01	1.0000e+01	1.9900e+00	2.4900e+00	2.4100e+00	2.9000e+00	1.0000e+01	2.9800e+00	




#DATA BEGINS
time	group	step	mark	flag	A-AC1	A-AC2	A-AC3	A-AC4	A-AC5	A-AC6	A-AC7	A-AC8	A-AC9	A-AC10	A-AC11	A-AC12	A-AC13	A-AC14	A-AC15	A-AC16	A-DC1	A-DC2	A-DC3	A-DC4	A-DC5	A-DC6	A-DC7	A-DC8	A-DC9	A-DC10	A-DC11	A-DC12	A-DC13	A-DC14	A-DC15	A-DC16	A-Ph1	A-Ph2	A-Ph3	A-Ph4	A-Ph5	A-Ph6	A-Ph7	A-Ph8	A-Ph9	A-Ph10	A-Ph11	A-Ph12	A-Ph13	A-Ph14	A-Ph15	A-Ph16	B-AC1	B-AC2	B-AC3	B-AC4	B-AC5	B-AC6	B-AC7	B-AC8	B-AC9	B-AC10	B-AC11	B-AC12	B-AC13	B-AC14	B-AC15	B-AC16	B-DC1	B-DC2	B-DC3	B-DC4	B-DC5	B-DC6	B-DC7	B-DC8	B-DC9	B-DC10	B-DC11	B-DC12	B-DC13	B-DC14	B-DC15	B-DC16	B-Ph1	B-Ph2	B-Ph3	B-Ph4	B-Ph5	B-Ph6	B-Ph7	B-Ph8	B-Ph9	B-Ph10	B-Ph11	B-Ph12	B-Ph13	B-Ph14	B-Ph15	B-Ph16	aux-1	digaux	

6626.043	1	1	0	256	0.31008	0.15932	0.13143	0.21924	0.075383	0.085185	0.29963	0.18161	0.29782	0.047699	0.16116	0.21019	0.14446	0.099363	0.22222	0.15709	-2.3292	-2.9333	-2.8979	-2.9583	-3.2812	-2.8646	-2.9771	-3.1562	-2.9188	-3.0062	-2.8917	-2.8875	-3.1667	-3.0083	-2.9042	-3.0917	199.431	397.806	205.463	364.380	390.039	128.681	403.876	146.222	386.619	264.051	449.725	434.954	269.715	412.980	247.067	121.105	0.00097153	0.00062441	5.3526e-05	1273.6	6.86e-06	5.703e-06	1347.5	274.95	1.1536e-05	5.575e-06	335.41	92.603	73.49	20.992	2.9285e-06	29.267	0.00081096	0.00091818	0.00026372	1282.7	8.56e-06	1.0012e-05	1353	280.72	8.4166e-06	9.56e-06	345.2	96.163	76.529	22.736	8.9534e-06	31.193	423.693	181.814	415.129	106.396	201.321	231.596	106.459	113.657	223.669	195.657	113.167	119.711	119.841	126.628	234.277	126.061	-8191	255	
6626.164	1	1	0	0	0.21311	0.092673	0.12029	0.11282	0.063693	0.16622	0.2158	0.19938	0.20156	0.19851	0.40477	0.12276	0.13164	0.21003	0.25662	0.36825	-2.2229	-2.9771	-2.9188	-3.0229	-3.2042	-2.8354	-3.1333	-3.2687	-2.8479	-3.0958	-3.0458	-2.6646	-3.2917	-2.8646	-2.7333	-3.1875	425.719	138.927	216.969	366.971	99.528	425.636	385.846	113.744	274.509	244.445	444.824	314.148	165.848	391.584	191.783	139.865	0.00098098	0.00067443	8.0932e-05	1270.5	6.1216e-06	1.0923e-06	1339.3	273.15	1.2466e-05	9.9204e-06	335.86	92.692	73.415	20.962	4.0595e-06	29.245	0.00073314	0.00085264	0.00022408	1271.4	8.0166e-06	9.4656e-06	1341.5	278.22	8.5501e-06	9.9366e-06	344.22	96.127	76.976	22.897	9.5414e-06	31.445	428.134	188.095	145.881	106.508	231.322	359.009	106.426	113.361	189.136	260.773	113.233	119.877	119.768	126.366	104.310	125.986	-8191	255	
6626.260	1	1	0	0	0.1365	0.048461	0.17612	0.25061	0.10585	0.11896	0.3172	0.19474	0.19478	0.04067	0.36501	0.15837	0.10603	0.14967	0.15121	0.066713	-2.2917	-2.8792	-3.0417	-2.6625	-3.1396	-2.9688	-3.1146	-3.1667	-2.6063	-3.1437	-3.3229	-2.6813	-2.7271	-2.9667	-2.7958	-3.0312	165.599	112.267	140.729	427.906	437.192	333.954	362.392	422.092	363.611	345.992	418.047	415.062	285.246	159.861	177.299	346.769	0.00082785	0.00019622	0.00014822	1267.8	1.5683e-05	6.0475e-06	1348.9	274.15	8.8031e-06	9.0148e-06	336.6	93.361	74.536	21.284	1.2253e-06	29.354	0.00086404	0.00096529	0.00024596	1275.1	9.6861e-06	1.0777e-05	1350.7	280.96	1.0295e-05	1.1178e-05	348.38	97.615	79.241	23.501	1.0932e-05	32.151	434.427	221.344	108.756	106.680	245.072	237.933	106.557	113.544	195.379	363.128	113.077	119.639	119.504	126.392	359.306	126.064	-8191	255	
6626.354	1	1	0	0	0.11349	0.2935	0.26729	0.52932	0.33225	0.15622	0.28475	0.079613	0.09273	0.015571	0.034185	0.10137	0.15428	0.24609	0.10734	0.062305	-2.5458	-2.8688	-2.9292	-2.8083	-3.0521	-2.8083	-2.9042	-3.1083	-2.8792	-2.9479	-2.9813	-2.6479	-3.125	-2.9	-2.7979	-3.2354	322.190	303.794	340.008	401.307	171.959	342.737	400.262	404.894	347.995	260.405	243.220	100.806	372.597	198.125	304.987	337.910	0.0010709	0.00043591	8.5486e-05	1282.7	2.5285e-06	8.1938e-06	1363.8	277.1	4.6702e-06	6.6673e-06	337.83	94.459	75.439	21.422	5.6275e-06	29.541	0.0010599	0.0011046	0.00028523	1297.5	1.2241e-05	1.2178e-05	1373.7	286.83	1.2526e-05	1.2296e-05	352.69	99.324	81.101	23.756	1.1165e-05	32.498	434.170	436.742	211.128	106.376	249.339	317.346	106.370	113.384	264.277	372.569	112.869	119.587	119.454	126.214	424.085	126.133	-8191	255	
6626.452	1	1	0	0	0.19971	0.13124	0.097309	0.31492	0.13755	0.30666	0.25097	0.099559	0.19818	0.34359	0.19716	0.13372	0.17812	0.057923	0.22384	0.2775	-2.5125	-2.9896	-2.8458	-2.9333	-2.9979	-2.9125	-3.0208	-3.4313	-2.6813	-3.0312	-3.0854	-2.8708	-3.1479	-2.925	-2.775	-3.0271	218.406	430.262	451.820	455.337	316.300	223.242	416.518	113.695	239.964	176.127	218.037	360.276	403.098	141.389	345.971	124.501	0.00084351	0.00088081	7.6834e-05	1289.7	7.1858e-06	2.1697e-06	1359.7	278.61	5.098e-06	6.9449e-06	339.01	94.079	75.068	21.6	4.214e-06	29.794	0.0011084	0.0010698	0.00027531	1303.2	1.2377e-05	1.134e-05	1371.3	287.39	1.2436e-05	1.1778e-05	352.36	99.827	81.274	23.811	1.1332e-05	32.938	429.279	331.539	251.944	106.410	308.444	373.404	106.137	113.456	203.670	344.059	113.270	119.760	119.711	126.209	295.510	125.506	-8191	255	
6626.547	1	1	0	0	0.083318	0.12875	0.20707	0.18441	0.22862	0.22727	0.11938	0.083677	0.083317	0.23137	0.12205	0.20468	0.15813	0.27266	0.18501	0.32533	-2.3375	-2.8417	-3.1688	-2.9729	-2.8854	-3.0771	-2.9021	-3.2	-2.8042	-2.8167	-3.45	-2.675	-3.0708	-3.2333	-2.6437	-3.3229	211.694	138.968	341.539	444.260	154.892	225.341	409.382	201.631	317.241	173.518	428.342	402.035	364.515	296.512	105.839	392.919	0.00075605	0.00027262	9.557e-05	1299.2	4.0343e-06	7.6874e-06	1370.5	280.58	3.129e-06	1.6388e-06	339.84	94.798	75.375	21.499	5.2725e-06	30.009	0.001149	0.0010869	0.00028398	1317.9	1.2973e-05	1.1726e-05	1383.5	291.81	1.2595e-05	1.1682e-05	353.18	100.62	81.047	23.596	1.0329e-05	32.833	446.746	435.741	253.150	106.360	195.895	256.466	106.572	113.412	183.155	365.914	113.116	119.430	119.504	126.380	228.637	125.887	-8191	255	
6626.644	1	1	0	0	0.12464	0.23029	0.23536	0.35751	0.08724	0.046165	0.29632	0.31457	0.11945	0.18989	0.2828	0.23902	0.014442	0.16241	0.12927	0.22696	-2.5917	-2.7896	-3.1896	-2.9688	-2.9646	-3.0875	-2.8979	-3.2562	-2.8208	-2.9938	-3.3396	-2.775	-2.825	-3.1104	-2.6667	-3.0333	269.242	370.873	148.781	100.728	334.510	312.667	407.205	425.792	378.731	310.040	262.038	138.698	411.050	387.482	212.355	208.485	0.00093521	0.00052548	4.8091e-05	1295.4	1.0129e-06	3.4903e-06	1367.7	277.7	3.9245e-06	7.2142e-06	337.73	93.891	74.142	21.133	2.5949e-06	29.227	0.00098869	0.00092335	0.0002398	1307.2	1.0188e-05	9.0779e-06	1368.4	284.94	9.2043e-06	8.6267e-06	345.19	97.475	77.65	22.597	8.3019e-06	31.705	448.384	242.029	434.926	106.438	277.602	196.410	106.327	113.292	253.292	272.169	113.056	119.782	119.788	126.393	231.386	125.975	-8191	255	
6626.763	1	1	0	0	0.089353	0.15197	0.12798	0.40841	0.031451	0.075934	0.20919	0.090025	0.0688	0.27359	0.25797	0.047516	0.20086	0.13696	0.19624	0.060216	-2.7146	-2.7542	-2.9792	-3.0563	-2.7125	-3.1688	-3.0458	-3.0854	-3.0646	-2.9	-3.0438	-2.9542	-2.9979	-2.9979	-2.7583	-3.1771	390.129	165.821	274.300	370.942	431.853	335.199	128.119	179.527	334.226	325.647	101.568	445.660	138.218	143.399	289.753	130.378	0.00073348	0.00031608	5.3321e-05	1278.8	1.7267e-05	5.2495e-06	1352.7	274.91	3.6863e-06	7.4715e-06	335.45	92.484	73.789	20.735	9.5848e-06	29.05	0.00076953	0.00073994	0.00020845	1284	8.4916e-06	7.806e-06	1349.9	281.07	8.3443e-06	8.0976e-06	342.56	96.417	76.828	22.263	8.5613e-06	31.424	435.645	202.220	165.033	106.422	283.735	248.218	106.371	113.586	306.137	155.810	113.260	119.447	120.063	126.627	208.050	125.921	-8191	255	
6626.858	1	1	0	0	0.16212	0.13126	0.34296	0.073414	0.19153	0.13622	0.34942	0.14098	0.17164	0.052835	0.066843	0.09737	0.053659	0.24861	0.077741	0.068701	-2.475	-2.7854	-3.1167	-2.9813	-2.5812	-3.2833	-3.0167	-2.8479	-2.9958	-2.7604	-3.3563	-3.0292	-2.9229	-3.25	-2.8083	-2.9271	330.775	209.993	96.322	133.586	327.486	329.495	357.395	375.446	309.784	113.318	335.346	129.178	179.240	130.031	381.062	340.784	0.00082473	0.00057285	7.1582e-05	1268.5	3.7123e-06	4.5809e-06	1343.2	272.2	4.9816e-06	5.0751e-06	331.82	92.111	73.051	20.762	4.7163e-06	28.942	0.00072872	0.00071252	0.00021666	1274.1	8.1403e-06	7.4233e-06	1341.7	278.02	7.6886e-06	7.4731e-06	340.51	95.299	75.709	22.108	8.4623e-06	31.091	439.324	191.179	185.730	106.520	184.018	174.869	106.481	113.456	408.302	216.102	113.135	119.979	119.872	126.505	199.575	126.414	-8191	255	
6626.954	1	1	0	0	0.35079	0.19576	0.12898	0.2134	0.084391	0.016242	0.072063	0.076236	0.067165	0.41137	0.18175	0.10525	0.28954	0.059228	0.12593	0.1312	-2.5979	-2.55	-2.8604	-3.325	-2.6833	-3.25	-3.1937	-3.0125	-3.1396	-2.8729	-3.0333	-3.0812	-2.9229	-3.1479	-3	-2.9646	104.674	177.769	222.678	99.182	367.505	158.481	100.541	368.045	148.373	426.975	123.717	439.215	428.955	319.682	134.746	121.981	0.00085834	0.00062818	7.9161e-05	1266.2	1.126e-05	8.5874e-06	1335.9	270.94	5.0191e-06	1.4267e-05	332.79	92.188	72.895	20.666	2.2684e-06	28.836	0.00066968	0.00068151	0.00021844	1266	7.7511e-06	7.4592e-06	1338.6	276.78	7.5993e-06	7.7883e-06	341.21	95.017	75.71	22.065	8.8184e-06	30.982	437.303	208.033	185.406	106.505	251.845	203.316	106.374	113.370	331.978	225.149	113.020	119.569	120.056	126.611	150.481	126.401	-8191	255	
6627.075	1	1	0	0	0.028912	0.10462	0.1577	0.18636	0.014974	0.40691	0.22688	0.17887	0.19045	0.12472	0.12855	0.31067	0.20502	0.29874	0.081972	0.041815	-2.7708	-2.725	-2.8396	-3.2	-2.7417	-3.0729	-2.9417	-3.0208	-3.0354	-2.7208	-3.2146	-3.1833	-2.5667	-3.1833	-3.1437	-2.8	442.713	252.902	291.885	428.399	408.643	373.504	391.211	321.215	324.905	372.954	453.605	450.014	273.419	401.100	251.386	174.009	0.00091283	0.0010056	0.00014332	1259.1	9.0522e-06	8.0623e-06	1328.3	268.46	2.8663e-06	7.1985e-06	328.71	91.351	72.062	20.611	7.6376e-06	28.591	0.00066368	0.00069882	0.00021822	1259.2	7.1398e-06	7.3432e-06	1329.1	272.96	6.6685e-06	7.3842e-06	336.28	93.474	74.242	21.821	7.986e-06	30.397	439.105	134.247	239.877	106.439	217.586	216.492	106.456	113.913	147.375	265.125	113.296	119.535	120.372	126.884	229.130	126.266	-8191	255	
6627.146	1	1	0	0	0.14963	0.0061041	0.027256	0.35363	0.19471	0.19517	0.44152	0.062582	0.035562	0.28825	0.12028	0.083501	0.24742	0.11209	0.20991	0.15858	-2.7146	-2.7729	-3.0729	-3.0438	-2.9458	-3.1292	-3.1312	-2.7562	-3.3625	-2.8625	-3.0292	-3.0958	-2.9458	-2.975	-3	-2.9708	437.330	218.451	199.453	109.164	138.592	104.297	385.480	150.824	267.133	331.531	344.563	153.464	445.174	220.784	162.121	338.155	0.00073986	0.00062104	7.7784e-05	1246.3	4.0818e-06	1.0721e-05	1323.6	267.62	1.1214e-05	7.6174e-06	328.75	91.229	71.583	20.295	1.351e-06	28.461	0.00060315	0.00069339	0.00020322	1247.6	6.8104e-06	7.4791e-06	1318.5	270.19	6.4699e-06	7.6409e-06	334.5	92.726	73.765	21.741	7.6313e-06	30.24	424.898	170.705	192.178	106.569	254.200	252.926	106.514	113.610	261.818	182.660	113.194	119.672	119.646	126.836	249.061	126.268	-8191	255	
6627.242	1	1	0	0	0.098934	0.04936	0.14786	0.44217	0.32477	0.074365	0.097155	0.11785	0.0934	0.20336	0.11493	0.15721	0.24677	0.074321	0.20556	0.12254	-2.7104	-2.8563	-2.8937	-3.2292	-2.6354	-3.0354	-3.1813	-2.7667	-3.1375	-2.8521	-2.7667	-2.9938	-2.8708	-3.0604	-2.9333	-2.7917	338.823	228.383	204.582	450.336	226.371	329.747	417.581	351.120	174.530	296.065	290.287	109.040	133.010	200.743	258.538	319.253	0.00098287	0.00028419	0.00011496	1242.8	8.1182e-06	7.0908e-06	1311.7	264.38	5.9832e-06	6.696e-06	325.29	89.983	70.838	20.198	7.9545e-06	28.17	0.00060354	0.00072372	0.00019727	1238.6	6.7922e-06	7.7728e-06	1307.3	267.31	6.4073e-06	7.5559e-06	330.05	91.447	72.879	21.37	6.578e-06	29.576	429.046	205.298	216.904	106.612	260.185	217.667	106.468	113.942	207.274	285.301	113.676	119.998	119.840	126.993	223.187	126.172	-8191	255	
6627.338	1	1	0	0	0.32622	0.070417	0.095936	0.14202	0.1552	0.042583	0.19649	0.26306	0.29156	0.25533	0.30167	0.3077	0.098778	0.16364	0.15119	0.20322	-2.9292	-2.6688	-2.7479	-3.3708	-2.8042	-2.9	-3.1729	-2.8771	-2.9875	-3.0292	-3.0208	-3.1604	-2.7583	-3.1333	-2.8917	-2.8542	289.075	232.582	274.890	449.158	158.835	374.707	326.128	387.792	149.925	320.114	382.731	111.721	325.690	436.792	194.128	134.625	0.0010627	0.00076479	7.691e-05	1219.9	7.5902e-06	3.2207e-06	1285.7	259.53	8.4939e-06	2.297e-06	316.57	87.803	69.321	19.724	5.9633e-06	27.779	0.00055982	0.00063111	0.00016222	1214.1	6.0049e-06	6.6211e-06	1278.6	260.17	5.709e-06	6.1815e-06	320.18	88.838	70.782	20.719	5.3435e-06	28.854	434.276	158.846	264.947	106.684	226.526	320.832	106.605	113.678	272.448	422.572	113.391	119.926	120.087	127.113	227.434	126.596	-8191	255	
6627.435	1	1	0	0	0.24079	0.30343	0.13195	0.1526	0.1625	0.076507	0.22219	0.074449	0.17143	0.096823	0.19834	0.31106	0.28509	0.089678	0.13266	0.23223	-2.6396	-3.0771	-2.6208	-3.2104	-2.925	-3.0438	-3.2	-2.8333	-3.1208	-2.8271	-2.8792	-2.9938	-2.8729	-3.0417	-3.0979	-2.8688	206.876	147.777	164.448	221.609	140.741	280.288	323.493	421.436	335.619	453.045	120.258	201.326	354.943	179.690	352.221	414.819	0.0010495	0.00029071	5.8667e-05	1205.2	9.6305e-06	5.1502e-06	1273.2	255.66	7.8619e-06	2.0792e-06	315.9	87.4	68.677	19.466	4.4439e-06	27.638	0.00051301	0.0005336	0.00013947	1193.6	5.698e-06	5.8292e-06	1262.1	256.16	5.6198e-06	5.5769e-06	316.99	88.197	70.388	20.478	5.0142e-06	28.608	430.580	224.971	226.784	106.688	215.936	312.979	106.539	114.162	216.135	331.765	113.619	119.917	120.308	127.373	359.190	126.763	-8191	255	
6627.555	1	1	0	0	0.17103	0.14188	0.10215	0.082608	0.19346	0.12026	0.47262	0.006189	0.31631	0.16396	0.27049	0.065607	0.23982	0.20763	0.11424	0.22574	-2.5042	-2.9021	-2.6229	-3.6083	-2.8625	-2.8833	-3.35	-2.7938	-3.1083	-3.0979	-2.8937	-3.1625	-3.0625	-3.0062	-2.9354	-2.5667	206.748	118.412	170.720	450.060	165.236	247.473	416.684	411.406	199.805	277.590	382.436	430.589	449.594	145.244	209.410	414.782	0.0010333	0.00019094	0.00010298	1198.3	4.792e-06	3.0683e-06	1270.1	255.06	1.2928e-05	5.2429e-06	313.76	87.967	68.898	19.533	6.3907e-06	27.557	0.00051445	0.00049516	0.00012995	1189.1	5.7735e-06	5.2811e-06	1257.6	255.54	5.6376e-06	5.1268e-06	315.72	88.199	70.245	20.374	4.7247e-06	28.633	432.465	233.802	204.492	106.672	246.808	246.357	106.601	113.788	174.721	220.417	113.487	119.911	120.367	127.349	268.379	126.743	-8191	255	
6627.651	1	1	0	0	0.04782	0.26187	0.044697	0.3584	0.089415	0.10507	0.3779	0.37381	0.011925	0.07383	0.19174	0.12899	0.33208	0.1357	0.20844	0.032071	-2.8042	-3.1458	-2.5458	-3.3063	-3.0021	-2.7458	-3.4271	-2.9062	-3.0333	-3.0354	-2.8583	-3.25	-2.9354	-2.8812	-3.1375	-2.6813	334.521	426.695	395.057	411.300	407.560	149.250	401.645	388.940	455.421	404.375	104.942	131.173	102.420	123.455	302.474	209.822	0.00078493	6.5068e-05	9.8779e-05	1199.7	2.7176e-06	4.6399e-06	1268.5	254.6	7.2734e-06	1.4717e-06	313.05	86.908	68.721	19.485	2.1219e-06	27.55	0.000505	0.00045831	0.00012242	1188.1	5.43e-06	4.9955e-06	1253.4	255.36	5.3197e-06	4.8476e-06	314.83	87.808	69.832	20.296	4.5146e-06	28.63	433.171	265.221	181.906	106.813	251.657	228.292	106.583	113.814	210.387	218.930	113.237	119.758	119.985	127.265	165.414	126.491	-8191	255	
6627.723	1	1	0	0	0.19167	0.11025	0.10334	0.21637	0.047433	0.16047	0.457	0.18235	0.15564	0.15272	0.2215	0.13409	0.02891	0.16604	0.24762	0.22203	-2.6937	-3.0542	-2.6271	-3.2687	-2.8396	-2.7146	-3.2438	-2.8063	-2.7313	-3.2271	-2.8979	-3.0583	-2.9562	-2.9042	-3.1042	-2.9229	151.426	331.078	395.825	413.608	196.161	259.636	406.862	445.166	240.911	336.549	404.334	433.427	156.917	397.781	310.987	330.520	0.00084946	0.00033709	0.0001305	1195.6	6.3856e-07	4.9626e-06	1261.2	253.84	6.9076e-06	1.7222e-06	311.57	87.35	68.009	19.424	2.8537e-06	27.414	0.00048128	0.0004281	0.00011945	1185.2	5.1006e-06	4.7006e-06	1248.7	253.92	4.9949e-06	4.4658e-06	313.05	87.95	69.165	20.095	4.4149e-06	28.467	442.430	143.293	176.848	106.619	351.340	247.246	106.724	113.918	177.791	208.619	113.495	119.760	120.355	127.373	175.201	126.526	-8191	255	
6627.844	1	1	0	0	0.10614	0.09858	0.16968	0.072806	0.21211	0.19123	0.19708	0.048828	0.072255	0.032291	0.25729	0.051567	0.17053	0.14803	0.12008	0.27573	-2.4708	-2.95	-2.8	-3.2333	-3.0896	-2.6729	-3.4083	-2.9625	-2.7792	-3.1792	-2.7667	-3.1146	-3.0604	-2.7479	-3.0583	-2.9125	252.651	341.544	368.042	398.834	356.724	360.544	301.372	336.838	376.094	364.071	433.496	359.013	341.173	112.832	280.328	337.754	0.0009492	0.00010248	5.9121e-05	1182.9	6.0228e-06	3.433e-06	1257.1	252.09	7.3415e-06	4.3066e-06	310.96	86.095	68.129	19.297	4.1724e-06	27.371	0.00043721	0.00039196	0.00011513	1176.3	4.6396e-06	4.4636e-06	1241	252.68	4.7549e-06	4.3788e-06	311.73	87.515	68.877	20.065	4.6367e-06	28.475	440.906	444.731	164.927	106.739	188.906	228.828	106.575	114.072	170.157	298.604	113.550	119.891	120.097	127.578	243.928	126.432	-8191	255	
6627.938	1	1	0	0	0.2783	0.049593	0.12428	0.16366	0.29205	0.23608	0.44384	0.17457	0.13518	0.10439	0.10336	0.12076	0.10965	0.22197	0.20968	0.19594	-2.3187	-3.0625	-2.6188	-3.2354	-3.0146	-2.7333	-3.2542	-2.875	-2.7729	-3.0896	-2.8563	-3.0438	-3.0479	-2.8917	-3.1562	-2.9417	355.183	122.845	409.146	371.979	103.478	336.865	425.735	382.167	331.737	108.573	397.224	378.881	243.544	129.952	111.769	110.275	0.00078929	0.0006479	0.00018309	1185.3	4.0659e-06	1.4647e-06	1255.8	252.02	6.0117e-06	1.1683e-06	309.9	86.824	67.898	19.183	5.0491e-06	27.186	0.00044147	0.0004007	0.00012528	1174.6	4.6431e-06	4.494e-06	1241.4	252.4	4.6934e-06	4.3892e-06	312.35	87.527	68.702	19.972	4.956e-06	28.366	432.662	161.426	163.187	106.686	262.731	205.437	106.670	114.056	257.356	207.272	113.399	119.993	120.253	127.303	206.434	126.668	-8191	255	
6628.034	1	1	0	0	0.12269	0.40954	0.22071	0.25733	0.16299	0.067177	0.19799	0.29718	0.13764	0.031863	0.40977	0.15332	0.21591	0.14325	0.32362	0.21549	-2.4437	-3.0521	-2.7729	-3.0771	-2.9271	-2.5896	-3.1083	-3.1667	-2.7604	-3.075	-3.0396	-2.9542	-3.3542	-2.6229	-2.9917	-2.8292	187.001	231.972	260.167	430.628	205.419	454.757	382.635	378.677	279.986	130.853	393.089	318.740	111.725	254.619	247.071	413.634	0.00083014	0.00041668	6.6529e-05	1173.5	3.8307e-06	2.1942e-06	1248.3	250.48	5.871e-06	2.1612e-06	311.55	85.418	68.129	19.225	7.152e-06	27.226	0.00042304	0.00038877	0.00012806	1167.8	4.3417e-06	4.3573e-06	1237.2	250.74	4.4027e-06	4.2034e-06	311.59	86.624	68.447	19.918	4.8859e-06	28.145	426.923	154.179	254.708	106.622	257.105	226.518	106.583	113.937	207.335	224.435	113.282	119.946	120.546	127.037	206.411	126.996	-8191	255	
6628.155	1	1	0	0	0.096603	0.30135	0.14313	0.37042	0.12167	0.12099	0.20351	0.28203	0.10493	0.13312	0.38785	0.06714	0.33772	0.16024	0.23141	0.11841	-2.1417	-2.9646	-2.7771	-2.7292	-3.2229	-2.9375	-3.0938	-3.1646	-2.6625	-3.0146	-2.8979	-2.6646	-3.15	-2.8354	-2.95	-2.9813	259.130	175.456	328.197	379.601	125.875	341.163	368.417	428.548	312.026	153.843	442.690	375.759	454.091	110.859	173.209	425.531	0.00080824	0.00046624	8.4505e-05	1174.1	7.2534e-06	1.6415e-06	1241.1	249.7	4.8688e-06	5.8534e-06	308.9	85.883	67.478	19.131	5.9586e-06	27.196	0.00039561	0.00038661	0.00012644	1161.1	4.1423e-06	4.3218e-06	1229.8	249.37	4.1941e-06	4.2872e-06	310.45	86.327	67.964	19.866	4.8973e-06	28.047	436.439	151.866	188.539	106.795	256.634	244.672	106.825	114.082	224.064	200.152	113.422	120.287	120.300	127.382	230.232	126.507	-8191	255	
6628.251	1	1	0	0	0.24262	0.19069	0.093667	0.4278	0.25556	0.17294	0.28328	0.35335	0.21058	0.11843	0.076214	0.24066	0.11248	0.060741	0.38841	0.13395	-2.3354	-3.0812	-2.7521	-2.7625	-3.175	-2.7792	-3.1937	-3.1813	-2.6375	-3.2333	-3.1104	-2.7083	-3.3146	-2.9333	-2.7562	-3.1167	241.057	190.514	191.391	433.377	382.067	241.855	340.037	414.830	403.505	344.679	322.620	316.262	190.272	445.199	157.063	257.053	0.00073067	0.00062988	9.1558e-05	1172.8	3.5991e-06	6.5528e-06	1244.8	250.94	8.6701e-06	4.0145e-06	307.34	85.589	67.656	19.196	2.4575e-06	27.225	0.00038339	0.00040195	0.00012347	1159.8	3.9685e-06	4.4776e-06	1230.7	248.77	4.0684e-06	4.4728e-06	309.64	86.269	67.967	19.986	4.7325e-06	28.075	433.510	159.505	232.043	106.728	199.978	246.823	106.785	114.016	191.866	166.875	113.632	120.081	120.319	127.540	294.743	126.892	-8191	255	
6628.347	1	1	0	0	0.15522	0.36229	0.24958	0.1533	0.18014	0.22518	0.12772	0.11916	0.2288	0.23837	0.19509	0.23419	0.19742	0.10733	0.13835	0.13968	-2.3021	-2.7542	-2.9688	-2.9042	-3.1125	-2.8208	-3.0521	-3.1417	-2.8417	-3.1396	-2.9167	-2.7708	-3.2792	-2.9292	-2.8063	-3.1688	99.361	140.671	105.776	385.960	420.300	300.115	390.597	317.953	347.161	133.177	115.205	141.737	413.316	377.070	171.475	194.536	0.00093447	0.00048311	5.8214e-05	1167.9	4.3303e-06	4.435e-06	1241.7	248.22	2.7262e-06	3.3621e-06	307.68	85.925	67.31	19.259	1.8078e-06	27.234	0.00038379	0.00043299	0.0001193	1158	4.07e-06	4.8113e-06	1228.9	248.01	4.2305e-06	4.8788e-06	308.8	86.254	67.884	19.989	4.6114e-06	28.03	439.904	185.711	168.877	106.810	271.786	277.522	106.851	114.166	200.760	228.247	113.442	120.245	120.584	127.397	311.628	126.594	-8191	255	
6628.443	1	1	0	0	0.15567	0.3079	0.20008	0.16274	0.1218	0.25947	0.071407	0.14433	0.12398	0.057857	0.26592	0.34134	0.20595	0.19957	0.077044	0.39899	-2.45	-2.8292	-2.9854	-2.9562	-3.0729	-2.8708	-3.0979	-3.1937	-2.7354	-3.0104	-3.0771	-2.7583	-3.4125	-2.8958	-2.8604	-3.2271	319.378	280.080	212.497	107.334	104.377	238.851	173.870	347.107	263.802	379.552	393.766	388.391	411.411	312.278	396.771	97.169	0.00086514	0.00043481	9.2603e-05	1170.3	5.2566e-06	2.5793e-06	1238.7	248.73	5.9746e-06	2.5112e-06	308.41	85.733	67.273	19.151	4.3472e-06	26.921	0.00040202	0.00045225	0.00011533	1157.8	4.3189e-06	4.9427e-06	1227	248.34	4.3416e-06	4.8163e-06	308.94	86.277	68.161	19.97	4.3483e-06	27.904	436.055	135.369	238.845	106.890	251.004	189.954	106.960	114.162	226.819	121.758	113.270	120.188	120.548	127.521	111.644	126.717	-8191	255	
6628.539	1	1	0	0	0.37438	0.19133	0.11129	0.35234	0.11111	0.059147	0.34633	0.2166	0.21009	0.19072	0.30881	0.21615	0.20201	0.23404	0.2399	0.30078	-2.3083	-2.8708	-3.1333	-2.8125	-2.9417	-3	-3.0771	-3.1792	-2.7708	-3.0687	-3.0062	-2.7854	-3.2167	-2.9396	-2.8708	-3.1979	438.859	207.010	151.765	406.831	263.245	325.507	417.856	129.427	142.638	287.062	353.387	100.523	325.511	131.072	358.096	431.075	0.00093687	0.00034558	5.5491e-05	1167	1.0108e-05	3.1949e-06	1242.6	249.18	4.8948e-06	3.7521e-06	305.42	85.511	67.175	19.106	3.3801e-06	26.913	0.00041175	0.00043533	0.00010849	1154.5	4.4013e-06	4.6035e-06	1226.8	247.67	4.4575e-06	4.5901e-06	306.84	85.948	68.059	19.85	4.0987e-06	27.818	429.781	194.147	270.448	106.636	208.804	294.963	106.751	113.970	180.700	199.350	113.576	119.879	120.415	127.262	241.860	126.500	-8191	255	
6628.636	1	1	0	0	0.20225	0.060585	0.11474	0.32733	0.089092	0.092831	0.054984	0.16568	0.26514	0.18772	0.19638	0.062489	0.030059	0.12544	0.20073	0.11301	-2.3521	-2.8729	-3.0542	-2.9188	-3.0729	-3.0312	-2.6625	-3.0729	-2.8458	-2.7146	-3.2562	-2.7812	-2.9646	-2.8375	-2.8292	-3.2583	167.499	450.923	363.937	438.402	122.170	141.553	378.990	394.319	164.348	349.794	446.954	263.745	396.966	394.529	371.225	375.981	0.00078768	0.00018945	7.0279e-05	1166.2	5.8501e-06	1.7831e-06	1233.9	248.22	4.2484e-06	2.7954e-06	306.75	85.588	67.49	19.217	4.0424e-06	27.185	0.00041921	0.00040516	0.00010195	1152.7	4.5048e-06	4.262e-06	1219	246.98	4.5337e-06	4.3606e-06	306.43	85.814	68.147	19.797	4.0427e-06	27.858	428.882	329.732	160.422	106.773	247.341	190.913	106.758	114.031	220.867	338.547	113.573	119.992	120.399	127.583	241.513	126.648	-8191	255	
6628.732	1	1	0	0	0.26708	0.087484	0.073557	0.4832	0.20223	0.0036033	0.37249	0.05239	0.24541	0.23349	0.17434	0.18732	0.26747	0.096384	0.23863	0.083758	-2.4938	-2.8125	-3.0312	-2.7708	-2.9542	-3.0833	-2.9208	-3.1271	-2.9521	-2.9938	-3.1667	-2.8167	-3.2521	-3.0896	-2.5208	-3.3542	344.071	158.628	244.904	136.075	220.040	339.698	355.236	328.758	145.749	431.577	307.210	427.961	108.971	449.084	283.175	407.489	0.00086401	0.00050759	2.5101e-05	1164.9	8.0299e-06	5.8064e-06	1239.6	248.59	3.3334e-06	2.6207e-06	306.18	85.943	67.484	19.092	4.6724e-06	27.043	0.0004223	0.00038702	9.9663e-05	1151.6	4.6395e-06	4.1695e-06	1221.3	247.66	4.6094e-06	4.2314e-06	306.74	86.205	68.168	19.762	4.0435e-06	27.974	437.280	263.028	398.394	106.842	245.310	325.027	106.821	113.879	220.301	261.219	113.437	120.037	120.328	127.508	293.478	126.500	-8191	255	
6628.851	1	1	0	0	0.1901	0.11603	0.22422	0.23461	0.1625	0.27016	0.28436	0.2883	0.098624	0.048635	0.22773	0.16214	0.15185	0.35157	0.21246	0.050215	-2.5479	-2.7104	-3.1562	-2.8438	-3.1229	-2.9729	-2.8771	-3.2854	-2.8937	-2.8146	-3.4437	-2.9583	-2.9521	-2.9896	-2.7083	-3.1542	149.493	396.491	332.714	446.351	291.698	160.329	406.773	429.899	384.221	186.488	385.596	443.621	439.145	431.508	126.705	126.105	0.00078104	0.00031713	3.7792e-06	1166.7	4.7788e-06	6.6628e-07	1236.2	248.52	4.064e-06	2.0624e-06	307.72	85.957	67.174	19.112	4.1217e-06	27.093	0.00042676	0.00039109	0.00010124	1154.6	4.6341e-06	4.1644e-06	1219.6	248.13	4.5447e-06	4.2791e-06	307.34	86.569	68.305	19.849	4.1642e-06	28.178	431.489	170.483	118.206	106.778	230.111	347.599	106.757	113.917	250.917	330.093	113.304	120.221	120.162	127.575	181.848	126.781	-8191	255	
6628.947	1	1	0	0	0.14654	0.11106	0.12791	0.072891	0.11751	0.31564	0.14357	0.27759	0.0067142	0.11727	0.029374	0.26012	0.046962	0.31777	0.21999	0.20227	-2.6583	-2.75	-3.0792	-3.1188	-2.8312	-2.9021	-3.1458	-3.1542	-2.9688	-2.9104	-3.2354	-3	-3.0187	-3.1312	-2.6625	-3.1458	440.800	358.393	322.124	148.430	368.438	200.234	387.278	440.156	298.899	216.084	147.095	199.650	118.688	224.444	437.743	409.717	0.00072388	0.00010569	0.0002349	1173.2	3.6957e-06	1.9026e-06	1246.5	250.37	6.7495e-06	3.5899e-06	311.87	86.176	67.963	19.375	3.555e-06	27.357	0.00043004	0.00040254	0.00010672	1161.1	4.7971e-06	4.3304e-06	1230.5	250.94	4.7341e-06	4.5895e-06	311.09	87.373	68.995	20.079	4.7965e-06	28.546	443.344	126.063	200.131	106.715	246.028	270.619	106.676	114.125	137.801	367.127	113.484	120.352	120.103	126.988	248.965	126.725	-8191	255	
6629.018	1	1	0	0	0.028011	0.13329	0.066554	0.16105	0.30233	0.34571	0.17381	0.067596	0.11913	0.15996	0.13936	0.26502	0.20837	0.36695	0.15772	0.11259	-2.5146	-2.8333	-3.2792	-2.9875	-3.0687	-3.1375	-2.9167	-3.2917	-2.9188	-2.6583	-3.4188	-2.9458	-2.7792	-3.1312	-2.7812	-2.8917	454.046	301.837	425.813	411.398	395.916	152.601	399.399	147.767	281.205	231.096	326.198	404.443	378.928	139.508	149.848	129.679	0.00081141	0.0004554	2.5482e-05	1180.2	4.9775e-06	2.4146e-06	1251.4	252.58	1.9661e-06	2.6921e-06	310.57	87.276	68.171	19.445	4.9587e-06	27.284	0.000443	0.00042562	0.00012275	1170.4	4.9365e-06	4.4665e-06	1240.4	253.11	4.8152e-06	4.603e-06	312.34	87.973	69.27	20.117	5.099e-06	28.544	442.296	193.019	181.493	106.804	203.696	188.523	106.635	114.039	188.690	360.379	113.360	120.099	120.181	127.205	225.113	126.644	-8191	255	
6629.116	1	1	0	0	0.29928	0.14063	0.10691	0.089119	0.23534	0.11524	0.16064	0.064472	0.11826	0.19629	0.092795	0.15921	0.24777	0.29794	0.22984	0.25171	-2.5979	-2.8604	-3.1521	-3.0479	-2.5583	-3.1479	-3.05	-2.9646	-2.9813	-2.9604	-3.1021	-3.0417	-2.8	-3.2667	-2.8208	-2.8979	126.758	360.851	104.592	282.168	402.561	284.741	365.217	187.970	309.631	293.584	429.994	299.017	404.525	397.322	415.616	143.621	0.00079166	0.00045108	0.00018278	1182	6.0413e-06	6.7426e-07	1254.3	252.49	3.7143e-06	7.6164e-06	310.84	86.284	68.255	19.471	5.7571e-06	27.316	0.00043626	0.00042237	0.00013203	1174.8	4.8399e-06	4.4539e-06	1243	253.01	4.6496e-06	4.6338e-06	313.48	87.583	69.085	20.104	5.3539e-06	28.545	437.540	176.786	152.281	106.710	227.308	416.124	106.656	113.998	280.373	189.863	113.428	119.781	120.302	127.253	226.608	126.605	-8191	255	
6629.235	1	1	0	0	0.10297	0.1679	0.052743	0.14269	0.1063	0.19982	0.25165	0.27032	0.10029	0.24049	0.26991	0.10914	0.24945	0.03061	0.023713	0.21621	-2.575	-2.85	-3.2042	-3.4292	-2.8375	-3.2083	-3.3146	-3.1167	-3.3167	-2.9208	-3.1729	-3.0729	-2.8333	-3.2708	-2.925	-2.8979	364.543	177.428	128.503	358.947	314.843	274.070	407.530	399.738	177.459	160.506	111.502	417.796	351.455	187.757	169.737	399.503	0.0007397	0.00030208	0.00014356	1179.7	3.3835e-06	4.3843e-06	1253.2	252.85	3.8426e-06	6.1357e-06	312.5	86.83	67.893	19.259	4.2637e-06	27.464	0.00042328	0.00042563	0.00013644	1172.5	4.6525e-06	4.5305e-06	1242.6	252.55	4.4019e-06	4.6625e-06	313.9	87.476	68.853	20.02	5.2302e-06	28.394	429.781	209.258	124.933	106.710	397.826	255.129	106.364	113.958	235.611	225.963	113.639	120.039	120.177	127.474	265.945	126.508	-8191	255	
6629.331	1	1	0	0	0.12921	0.078569	0.098869	0.25537	0.13574	0.020031	0.16597	0.29563	0.27162	0.13632	0.10951	0.27658	0.12006	0.20426	0.053832	0.19001	-2.8333	-2.5375	-3.0521	-3.2479	-2.7604	-3.2792	-2.9313	-2.7604	-3.1479	-2.8542	-2.9792	-3.1021	-2.8063	-2.9792	-2.9188	-2.9854	119.060	316.418	340.188	388.881	350.044	172.420	371.651	102.524	218.755	308.468	447.643	103.241	394.494	358.810	453.117	454.991	0.00081203	0.00040786	0.00010406	1182.2	4.7676e-06	6.9517e-06	1247.4	251.36	5.9903e-06	6.5802e-06	310.94	86.465	68.008	19.39	1.6828e-06	27.493	0.00040404	0.00043455	0.00013376	1169.3	4.4612e-06	4.6611e-06	1239.2	251.77	4.1923e-06	4.7519e-06	312.61	87.037	68.8	20.093	4.9121e-06	28.325	436.137	225.813	305.515	106.761	297.125	237.230	106.576	113.939	246.995	198.809	113.293	119.712	120.411	127.325	287.913	126.736	-8191	255	
6629.428	1	1	0	0	0.18714	0.18244	0.3245	0.39122	0.015571	0.10843	0.065599	0.094648	0.16391	0.28031	0.20327	0.12452	0.086325	0.4118	0.095496	0.29274	-2.6708	-2.6583	-2.9021	-3.1021	-2.7354	-3.1375	-3.175	-2.9125	-3.2708	-2.7771	-3.1583	-3.2354	-2.6312	-3.1792	-2.8667	-2.7396	349.385	345.672	156.128	415.130	257.004	370.656	417.205	166.860	448.153	421.524	96.640	218.699	412.563	378.955	306.594	178.207	0.000774	0.00036928	9.7303e-05	1177.4	3.1993e-06	7.5987e-06	1244.3	252.05	8.4967e-06	4.0793e-06	309.94	86.631	68.132	19.289	3.1822e-06	27.371	0.00037814	0.00043922	0.00012431	1166	4.2125e-06	4.727e-06	1235.2	250.97	4.022e-06	4.7817e-06	311.27	86.67	68.48	20.095	4.6032e-06	28.168	441.156	192.821	170.021	106.667	320.625	238.174	106.488	114.016	195.730	192.054	113.784	119.900	120.259	127.235	208.217	126.473	-8191	255	
6629.524	1	1	0	0	0.30901	0.19546	0.20384	0.067555	0.38888	0.20075	0.24635	0.20208	0.037181	0.10443	0.089759	0.21467	0.16667	0.014596	0.13517	0.087143	-2.6813	-2.7708	-2.9479	-3.0875	-2.975	-3.0708	-3.0812	-2.9625	-3.1813	-2.9104	-2.9396	-3.3771	-2.95	-3.0917	-2.8917	-2.8396	447.687	374.016	342.924	437.685	122.637	272.806	379.031	396.063	142.956	254.251	253.810	327.608	353.793	425.427	332.857	130.817	0.00084869	0.00020894	9.4132e-05	1170.4	7.745e-06	3.3488e-06	1243.8	250.28	7.0872e-06	1.8373e-06	308.31	86.485	67.841	19.283	5.6434e-06	27.299	0.00037942	0.00043895	0.00011664	1159.1	4.2646e-06	4.8355e-06	1232	249.61	4.1213e-06	4.8079e-06	310.17	86.446	68.472	20.021	4.3404e-06	28.129	434.541	160.348	166.497	106.754	258.186	189.719	106.784	113.985	257.135	171.536	113.291	119.871	120.419	127.357	292.776	126.167	-8191	255	
6629.620	1	1	0	0	0.11666	0.18424	0.054154	0.1409	0.20063	0.36229	0.24563	0.29782	0.20705	0.14688	0.14457	0.012393	0.066289	0.1875	0.33634	0.18118	-2.9208	-2.9333	-2.6229	-3.3708	-2.7958	-2.9833	-3.4333	-2.9396	-3.1396	-2.9833	-3.0125	-3.225	-2.925	-2.9292	-2.9437	-2.8812	413.255	435.888	384.807	450.527	164.311	222.204	420.673	442.084	415.410	138.798	147.405	136.972	158.012	297.235	148.443	445.047	0.00078788	0.00042675	0.0001575	1174.4	1.1116e-05	5.8847e-06	1242.8	249.49	4.9093e-06	5.5405e-06	308.59	86.279	67.426	19.272	4.9822e-06	27.045	0.00039701	0.00043576	0.00011285	1159.4	4.3751e-06	4.72e-06	1227.6	248.85	4.3452e-06	4.6483e-06	308.87	86.225	68.426	20	4.167e-06	28.004	419.424	121.257	214.643	106.851	240.228	238.998	106.863	114.084	245.285	217.279	113.398	120.170	120.599	127.148	211.179	126.703	-8191	255	
6629.716	1	1	0	0	0.18875	0.20396	0.023434	0.19735	0.083636	0.053528	0.40411	0.044663	0.15595	0.094138	0.07328	0.2655	0.28881	0.25733	0.065392	0.17735	-2.6583	-2.8063	-2.9688	-3.4042	-3	-3.1458	-3.2604	-2.8646	-3.2313	-2.9875	-2.8167	-3.1354	-2.8396	-3.0917	-3.0771	-2.7979	323.081	222.279	289.674	446.902	219.761	421.485	386.547	242.913	125.191	379.606	408.328	409.165	388.923	114.041	129.865	413.946	0.000924	0.00033373	0.00010687	1168.5	6.4083e-06	4.1861e-06	1242.3	250.5	6.8122e-06	6.6237e-06	308.51	86.248	67.417	19.214	1.0863e-06	27.214	0.0004184	0.00041994	0.00011107	1156.4	4.6493e-06	4.6034e-06	1227.2	249.26	4.521e-06	4.4376e-06	308.76	86.334	68.49	19.913	4.0067e-06	28.058	432.610	145.740	407.048	106.770	240.091	270.245	106.586	113.881	211.602	258.039	113.507	120.259	120.529	127.696	260.666	126.356	-8191	255	
6629.837	1	1	0	0	0.30911	0.15439	0.074961	0.36124	0.13672	0.13157	0.37861	0.13065	0.27199	0.029833	0.21341	0.099848	0.14883	0.27893	0.077957	0.17631	-2.8583	-2.9208	-2.7125	-3.3417	-2.7625	-3.0542	-3.1625	-2.775	-2.9667	-3.0458	-2.9292	-3.2	-2.8438	-2.8771	-3.0479	-2.6542	355.319	135.600	419.711	377.035	382.671	361.157	409.397	270.736	179.013	182.743	383.904	97.354	240.312	99.099	415.437	383.653	0.00092051	0.00026305	0.00017691	1169.5	7.4065e-06	1.8624e-06	1240.6	249.89	5.3699e-06	2.6e-07	309.18	85.82	67.278	19.228	4.8172e-06	27.048	0.00042299	0.00039098	0.00010455	1154.8	4.5834e-06	4.2264e-06	1224.1	248.83	4.4796e-06	4.071e-06	308.24	85.954	68.17	19.822	3.7537e-06	27.968	434.318	150.243	266.581	106.666	253.798	263.431	106.829	114.168	215.989	245.508	113.700	119.992	120.482	127.760	203.978	126.649	-8191	255	
6629.933	1	1	0	0	0.14426	0.12146	0.24769	0.12581	0.10285	0.19934	0.2824	0.12811	0.21334	0.11303	0.17941	0.13038	0.17915	0.14981	0.23541	0.1429	-2.6312	-3.0833	-2.725	-3.35	-3.0875	-2.9542	-3.175	-2.8604	-3.0396	-2.9521	-2.9042	-3.1396	-3.1208	-3.0021	-3.1854	-2.9729	187.715	401.111	268.907	319.621	388.737	340.086	437.786	335.851	340.798	353.374	413.272	421.339	336.460	412.759	150.089	353.262	0.00091341	0.00049863	0.00010964	1164.9	2.7838e-06	1.6526e-07	1236.5	249.63	4.7141e-06	1.5503e-06	307.48	85.277	67.399	19.088	5.5411e-06	26.88	0.00040928	0.00036397	9.8349e-05	1151.5	4.3661e-06	4.0107e-06	1219.9	248.42	4.3506e-06	3.8828e-06	307.42	86.08	67.964	19.734	3.6948e-06	27.967	439.492	158.278	203.461	107.044	153.412	271.326	106.656	114.258	194.148	182.760	113.447	120.510	120.333	127.544	268.775	126.632	-8191	255	
6630.027	1	1	0	0	0.19933	0.25635	0.032821	0.20611	0.094217	0.072398	0.050379	0.18517	0.0903	0.10862	0.23582	0.16773	0.25259	0.22381	0.1576	0.060498	-2.5208	-3.0292	-2.7083	-3.2667	-2.8854	-2.7667	-3.1958	-2.9354	-3.1229	-3.0896	-2.9458	-3.0792	-3.1083	-2.7188	-3.0542	-2.8958	326.029	157.524	196.289	442.534	197.883	456.047	308.685	388.369	265.161	296.249	205.996	449.532	389.426	143.046	130.002	352.153	0.00079135	0.00039226	2.405e-05	1160.8	2.0815e-06	5.9272e-07	1235.5	247.39	4.7521e-06	1.6824e-06	305.69	85.358	67.181	19.271	5.9503e-06	27.407	0.000395	0.00034935	9.5833e-05	1153.1	4.1636e-06	3.941e-06	1218.2	248.04	4.21e-06	3.8071e-06	306.34	86.114	67.89	19.755	3.8509e-06	28.122	438.680	164.126	196.669	106.802	193.783	220.471	106.961	114.179	273.782	219.152	113.482	120.203	120.312	127.434	243.297	126.837	-8191	255	
6630.123	1	1	0	0	0.17044	0.14558	0.22611	0.40569	0.1049	0.12452	0.13039	0.26817	0.23941	0.1392	0.25017	0.17237	0.23545	0.30161	0.18186	0.076364	-2.3937	-3.2479	-2.8646	-3.0146	-3.1688	-2.7125	-3.3167	-3.0042	-3.025	-2.9292	-2.9437	-3.1667	-2.8146	-2.7917	-3.1896	-2.9104	251.259	237.157	214.431	427.424	365.802	257.959	366.381	108.777	449.397	256.041	113.297	310.675	97.048	395.794	111.403	120.529	0.0010036	0.00027306	8.8763e-05	1166.5	2.2064e-06	1.7225e-06	1234.5	247.79	2.045e-06	2.3359e-06	307.8	86.199	67.057	19.182	8.732e-06	27.167	0.00039263	0.00035004	0.000104	1152.8	4.0652e-06	3.9891e-06	1220.2	248.05	4.2286e-06	3.8773e-06	307.64	86.404	67.77	19.722	4.208e-06	28.114	435.780	130.308	138.011	106.870	240.715	111.490	106.808	114.089	265.165	212.399	113.441	119.908	120.655	127.248	229.142	126.530	-8191	255	
6630.244	1	1	0	0	0.2222	0.34748	0.15608	0.13491	0.33233	0.19203	0.39187	0.037061	0.27619	0.13954	0.18215	0.1065	0.25833	0.36213	0.13057	0.11915	-2.3812	-3.1937	-2.7562	-3.2625	-3.0396	-2.6917	-3.3604	-3.0146	-2.7542	-3.2354	-2.7542	-2.9583	-3.2208	-2.6937	-3.1646	-2.9021	266.326	313.493	396.503	310.022	183.500	278.384	411.776	268.775	214.240	375.876	334.399	373.171	194.395	415.585	143.282	385.843	0.00077781	0.00042366	0.00014322	1162.4	6.3824e-06	8.4157e-06	1235.5	249.46	5.6106e-06	2.6201e-06	306.22	85.365	67.339	19.204	2.8971e-06	26.981	0.00038654	0.00034783	0.00011297	1153.3	4.1117e-06	3.9687e-06	1222.5	248.53	4.1419e-06	3.8218e-06	308.08	86.23	67.83	19.773	4.5135e-06	27.978	423.057	267.741	188.057	106.748	258.473	237.619	106.771	114.048	252.171	298.545	113.516	119.959	120.014	127.280	208.019	126.612	-8191	255	
6630.316	1	1	0	0	0.32258	0.26295	0.20306	0.055879	0.15459	0.086786	0.24197	0.24361	0.06638	0.062443	0.12793	0.019646	0.018725	0.36971	0.24604	0.16001	-2.4292	-3.1771	-2.6667	-3.1688	-3.2292	-2.7292	-3.3438	-2.8875	-2.775	-3.2104	-2.8	-2.8792	-3.2979	-2.9167	-3.125	-3.0854	115.774	134.218	230.785	398.034	325.564	210.529	407.050	381.276	316.720	145.685	330.371	379.014	282.864	390.405	294.619	449.667	0.00065583	0.00010082	0.00012528	1161.5	1.3864e-06	4.2627e-06	1233.1	248.12	3.8693e-06	1.1533e-06	307.75	85.103	67.218	19.272	8.6448e-06	27.122	0.00038136	0.00035042	0.00011753	1152	3.9444e-06	4.0495e-06	1222.1	247.54	3.9977e-06	3.9214e-06	308.31	86.104	67.67	19.792	4.7021e-06	27.967	426.066	174.777	266.541	106.751	346.858	212.862	107.033	113.931	298.087	245.473	113.387	120.463	120.670	127.104	216.497	127.168	-8191	255	
6630.412	1	1	0	0	0.11264	0.16265	0.25317	0.025909	0.12264	0.31135	0.24099	0.25721	0.2093	0.088656	0.14452	0.18989	0.20062	0.22434	0.11293	0.052601	-2.3792	-3.1437	-2.9625	-3.0896	-3.3292	-2.8292	-3.2646	-3.3	-2.6229	-3.1833	-3.0875	-2.9125	-3.2604	-2.8708	-2.9542	-3.0875	199.358	231.698	234.010	108.469	371.929	289.844	376.240	397.181	125.033	245.637	412.675	384.144	304.891	303.661	318.751	375.220	0.0008044	0.00058253	1.5978e-05	1166	2.1753e-06	4.7418e-06	1237.8	249.22	6.1265e-06	5.5154e-06	306.07	85.451	67.421	19.008	2.93e-06	27.109	0.00037518	0.00037464	0.000119	1153.4	3.8541e-06	4.1839e-06	1226.3	247.95	3.9419e-06	4.1029e-06	308.38	86.012	67.504	19.77	4.5175e-06	27.86	436.749	164.287	437.612	106.746	173.557	227.286	106.730	114.144	204.400	197.430	113.415	120.287	120.476	127.220	277.791	126.539	-8191	255	
6630.532	1	1	0	0	0.13191	0.12097	0.26953	0.24784	0.11566	0.12857	0.21675	0.10244	0.061211	0.18408	0.055576	0.11611	0.17462	0.13519	0.081796	0.35803	-2.2375	-3.15	-2.9208	-3.1646	-3.2917	-2.7896	-3.1271	-3.3042	-2.7729	-2.9771	-2.925	-2.9	-3.175	-2.725	-3.0396	-3.2521	279.349	195.130	261.268	384.605	307.729	425.395	340.149	402.560	403.905	292.258	376.037	270.318	296.115	188.347	178.485	372.560	0.00072552	0.00055854	0.00018874	1162.1	6.1243e-06	4.6709e-06	1240.3	248.36	3.1004e-06	8.0197e-06	306.67	85.628	67.003	19.156	3.1948e-06	27.176	0.000359	0.00037912	0.00011276	1150.9	3.6888e-06	4.3104e-06	1223.1	247.2	3.8134e-06	4.306e-06	307.81	85.911	67.385	19.826	4.3358e-06	27.848	443.828	226.961	106.430	106.787	241.345	241.230	106.765	113.896	177.017	200.412	113.698	120.010	120.464	127.567	268.527	126.490	-8191	255	
6630.629	1	1	0	0	0.13059	0.0089864	0.14258	0.23322	0.14685	0.033381	0.41503	0.16631	0.15512	0.041811	0.11281	0.10969	0.1646	0.073693	0.23891	0.1601	-2.2667	-2.9958	-2.9792	-2.8771	-3.325	-2.65	-3.0062	-3.1542	-2.8563	-3.0375	-3.0333	-2.9792	-3.0792	-2.7833	-2.6875	-3.0833	348.711	376.273	184.586	153.422	394.482	162.851	401.795	128.723	424.913	325.903	175.121	233.611	173.023	379.595	187.276	387.988	0.0008243	0.00049198	5.8268e-05	1160.3	8.0072e-06	3.9749e-06	1232.5	248.12	6.767e-06	7.282e-06	305.55	85.103	67.05	19.144	5.1625e-06	27.06	0.00035241	0.00039843	0.00010864	1147.6	3.6687e-06	4.36e-06	1218.9	246.52	3.7893e-06	4.3628e-06	306.08	85.537	67.305	19.821	4.0181e-06	27.731	429.421	167.967	185.178	106.900	287.393	273.909	106.820	113.877	206.495	230.039	113.178	120.027	120.553	127.294	329.952	126.757	-8191	255	
6630.725	1	1	0	0	0.17105	0.1191	0.066354	0.4191	0.15428	0.16538	0.13773	0.080612	0.13707	0.066997	0.12155	0.10544	0.1495	0.090456	0.1243	0.19618	-2.4437	-2.8063	-3.1271	-2.7542	-3.0333	-2.875	-3.0729	-3.2188	-2.5417	-3.0312	-2.8583	-2.7083	-3.2792	-2.8729	-2.9313	-3.1479	399.879	444.702	277.062	394.473	275.266	177.507	390.448	284.690	387.799	318.379	397.276	432.602	175.191	327.157	334.755	389.802	0.0010137	0.00034847	0.00011384	1156	2.6028e-06	3.1084e-06	1228.3	247.25	3.1676e-06	3.4443e-06	306.63	85.251	67.152	19.063	4.6958e-06	27.126	0.00036443	0.00039481	9.984e-05	1144.3	3.8236e-06	4.2484e-06	1215.3	245.99	3.9258e-06	4.2687e-06	305.96	85.461	67.587	19.772	3.9478e-06	27.789	433.085	433.969	254.943	107.026	232.443	277.170	106.673	114.048	161.521	330.985	113.381	119.867	120.540	127.575	238.781	126.780	-8191	255	
6630.821	1	1	0	0	0.15546	0.13176	0.17923	0.085728	0.16855	0.22542	0.20984	0.073546	0.10934	0.10251	0.22578	0.17343	0.11782	0.1548	0.31829	0.15815	-2.2208	-2.9875	-2.8521	-2.9208	-2.8104	-3.0104	-3.0417	-3.275	-2.7687	-2.8	-3.1229	-2.7354	-3.2021	-2.7396	-2.6146	-3.2562	403.516	356.869	244.814	349.631	354.417	267.931	339.239	275.924	141.278	104.275	431.325	365.765	168.863	345.219	331.113	162.632	0.000974	0.0001496	7.2298e-05	1159	5.3599e-06	3.504e-06	1228.5	248.92	4.147e-06	9.0659e-07	307.6	85.508	67.247	19.134	1.4105e-06	27.067	0.00038428	0.00039854	9.8748e-05	1143.1	4.1322e-06	4.1533e-06	1213.2	246.24	4.1669e-06	4.2086e-06	305.23	85.394	67.622	19.704	3.8348e-06	27.727	434.684	351.348	236.682	106.744	305.686	245.200	106.712	113.966	244.457	216.259	113.384	120.193	120.269	127.234	142.795	126.338	-8191	255	
6630.915	1	1	0	0	0.2078	0.10443	0.22609	0.30224	0.093148	0.17923	0.31267	0.18659	0.13238	0.13251	0.29849	0.33841	0.22319	0.068508	0.047251	0.223	-2.3833	-2.7917	-3.0417	-2.9958	-2.9667	-3.0354	-2.9458	-3.2875	-2.9146	-2.8063	-3.3104	-2.8771	-3.05	-3.2208	-2.7292	-3.2479	186.750	440.817	280.482	429.271	284.948	150.485	350.882	435.147	293.888	170.999	432.916	389.224	215.535	427.455	225.034	136.071	0.00078079	0.00064661	2.0466e-05	1156.7	1.6961e-07	4.0936e-06	1228.4	248.03	7.7782e-06	3.1092e-06	305.84	85.612	66.741	19.058	1.6037e-06	27.14	0.00039022	0.00037344	9.4583e-05	1144.1	4.2265e-06	3.912e-06	1212.6	245.99	4.2588e-06	3.9867e-06	305.7	85.519	67.603	19.657	3.7219e-06	27.809	433.771	157.107	275.284	106.893	212.105	279.413	106.519	114.025	222.290	166.106	113.647	120.008	120.209	126.978	101.932	126.693	-8191	255	
6631.011	1	1	0	0	0.066756	0.15468	0.14845	0.2767	0.13971	0.073506	0.22383	0.15087	0.12239	0.24164	0.34515	0.097075	0.21492	0.14118	0.12793	0.085078	-2.5062	-2.8792	-3.0854	-2.6208	-3.2208	-3.0542	-2.9104	-3.1	-2.7875	-2.8021	-3.25	-2.7542	-3.0354	-3.2208	-2.7562	-3.1896	96.333	213.087	204.916	392.576	389.974	161.639	420.340	116.261	110.694	410.012	394.098	439.123	136.339	271.008	304.302	153.994	0.00080582	0.00027232	3.0906e-05	1156.8	6.9899e-06	3.2715e-06	1230.7	247.87	5.2198e-07	3.9242e-06	305.68	85.746	67.209	18.991	7.6805e-06	27.139	0.00039099	0.00036023	9.2024e-05	1142.6	4.197e-06	3.7897e-06	1212.5	246	4.1613e-06	3.8055e-06	305.41	85.583	67.666	19.633	3.6426e-06	27.873	433.503	122.425	197.555	106.722	284.971	105.562	106.724	113.845	199.863	240.165	113.550	120.442	120.592	127.271	200.623	126.711	-8191	255	
6631.108	1	1	0	0	0.24085	0.034071	0.084722	0.53353	0.12104	0.2413	0.20179	0.26626	0.16353	0.15122	0.12423	0.20171	0.22701	0.17125	0.11672	0.092815	-2.6271	-2.85	-3.2333	-2.9729	-3.0375	-3.1333	-2.9271	-3.1375	-3	-2.8937	-3.1583	-2.8979	-3.0146	-3.1312	-2.7458	-3.1104	199.848	183.668	399.168	400.159	124.060	269.733	391.256	445.706	327.783	453.175	451.588	130.900	109.336	410.491	399.114	227.643	0.00087466	0.00016342	0.00015743	1152.5	1.1301e-05	4.5496e-06	1226.9	247.3	1.8875e-06	3.1609e-06	306.38	85.178	67.007	19.038	5.6845e-06	27.041	0.00037813	0.00034764	8.9882e-05	1141.7	4.0783e-06	3.6648e-06	1210.2	246.15	3.9871e-06	3.7829e-06	304.75	85.693	67.522	19.573	3.7347e-06	27.917	432.914	210.979	172.016	106.857	252.166	310.911	106.823	114.049	207.241	217.915	113.528	120.149	120.308	127.785	251.752	126.481	-8191	255	
6631.204	1	1	0	0	0.049339	0.47335	0.25998	0.33566	0.2112	0.26663	0.10327	0.15254	0.030843	0.25754	0.29744	0.095607	0.12399	0.10426	0.18176	0.23518	-2.5604	-2.7271	-3.0312	-2.8583	-3.1354	-3.2667	-2.9542	-2.9729	-3.075	-2.7708	-3.2417	-3.0875	-2.9271	-3.1125	-2.7396	-2.9646	279.529	293.015	430.955	392.596	386.508	324.649	359.064	455.093	190.736	424.576	409.146	239.677	293.750	121.408	303.805	125.167	0.00076489	0.00034144	0.00011297	1152.9	5.5184e-06	2.4628e-06	1231.7	247.5	5.5164e-06	1.2421e-06	305.49	85.393	66.986	19.142	4.4204e-06	26.903	0.00036907	0.00034566	9.3967e-05	1143.2	4.0345e-06	3.662e-06	1212.3	246.92	3.8658e-06	3.7667e-06	305.29	85.932	67.422	19.645	3.9702e-06	27.915	437.440	192.211	231.997	106.877	238.945	294.651	106.563	114.084	186.821	220.494	113.682	119.847	120.276	127.257	271.172	126.924	-8191	255	
6631.324	1	1	0	0	0.24201	0.076369	0.20455	0.26796	0.017499	0.16086	0.17187	0.050404	0.11958	0.13308	0.053438	0.28349	0.097018	0.1481	0.082138	0.17812	-2.5875	-2.8896	-3.15	-2.9646	-2.9813	-2.9813	-2.9625	-3.0687	-3.0167	-2.5979	-3.3354	-3.1917	-2.9813	-3.1583	-2.8125	-2.9396	259.285	280.368	150.824	368.703	335.510	208.798	398.109	398.481	308.617	432.395	263.787	441.053	253.000	99.247	248.168	441.803	0.00094417	9.8912e-05	0.00019397	1159.3	2.3173e-06	2.8758e-06	1224.8	246.91	8.3468e-06	4.6687e-07	304.83	85.728	66.91	19.207	7.4196e-06	27.118	0.00035927	0.00033762	0.00010142	1143.8	3.9157e-06	3.5858e-06	1212.6	246.97	3.7753e-06	3.7299e-06	306.01	85.902	67.362	19.665	4.2259e-06	27.936	428.184	289.176	145.792	106.716	281.594	296.774	106.671	113.984	197.330	225.344	113.393	120.335	120.709	127.462	179.147	126.765	-8191	255	
6631.421	1	1	0	0	0.12155	0.066933	0.16224	0.12405	0.072643	0.24497	0.44729	0.09748	0.12274	0.093976	0.097294	0.10283	0.22857	0.21364	0.12342	0.24529	-2.5292	-2.8458	-3.025	-3.3208	-2.8583	-3.3396	-3.0667	-3.1333	-3.1604	-2.9062	-3.2021	-2.9667	-2.775	-3.2458	-2.7667	-3.1437	311.720	134.295	400.063	442.356	113.852	201.370	381.174	305.463	411.842	233.371	383.427	118.507	424.633	309.045	164.140	441.208	0.00096659	0.00019227	8.6529e-05	1154.8	3.0644e-06	1.8818e-06	1233	248.26	1.4911e-06	7.7391e-06	305.31	85.646	66.946	19.088	5.5037e-06	26.992	0.00035227	0.00034243	0.00010764	1143.9	3.8417e-06	3.6564e-06	1216.9	247.25	3.7392e-06	3.7571e-06	306.64	85.852	67.529	19.686	4.4337e-06	27.909	436.811	177.311	147.416	106.816	323.533	261.396	106.887	114.025	251.119	182.771	113.589	119.991	120.306	127.586	291.551	126.772	-8191	255	
6631.517	1	1	0	0	0.095944	0.28816	0.16832	0.2308	0.057974	0.27598	0.37238	0.19483	0.31956	0.27326	0.10354	0.077401	0.18116	0.013601	0.080609	0.20874	-2.7646	-2.7208	-3.0812	-3.3167	-2.6125	-3.3063	-3.1458	-2.7271	-3.1583	-2.8125	-3.1458	-2.9188	-2.7562	-3.25	-2.7687	-2.9938	451.082	212.398	114.297	300.113	152.706	283.768	378.350	410.536	104.042	343.672	380.760	335.196	413.016	118.545	158.551	399.467	0.00074042	0.000469	9.661e-05	1158.8	1.3016e-06	4.9346e-06	1232.2	247.51	3.6429e-06	2.599e-06	306.4	85.244	67.076	19.243	3.8625e-06	27.136	0.00034721	0.00035311	0.00011403	1147.7	3.8344e-06	3.8933e-06	1217.6	247.39	3.6484e-06	4.0164e-06	307.1	85.7	67.559	19.801	4.4301e-06	27.886	439.350	130.848	154.481	106.576	190.189	229.524	106.631	113.810	178.944	210.453	113.576	119.767	120.240	127.229	266.091	126.845	-8191	255	
6631.613	1	1	0	0	0.10298	0.072345	0.14782	0.24577	0.09099	0.047392	0.30627	0.081598	0.10709	0.064085	0.15792	0.10636	0.20335	0.096363	0.088534	0.5472	-2.9542	-2.4437	-2.9625	-3.275	-2.7146	-3.2417	-3.0417	-2.8771	-3.2188	-2.9	-2.8896	-2.9437	-2.7979	-3.2042	-2.9125	-2.9062	269.486	320.868	397.716	377.805	376.119	330.259	421.891	368.431	214.060	100.532	388.579	252.513	187.661	225.300	368.410	450.101	0.00075162	0.00026864	9.2481e-05	1156.9	3.8087e-06	3.4267e-06	1234.2	249.52	3.6063e-06	3.6057e-06	306.74	85.961	67.563	19.307	4.3716e-06	27.126	0.00033789	0.00037194	0.0001116	1144.9	3.7126e-06	4.0497e-06	1218.5	247.55	3.5837e-06	4.1405e-06	307.18	85.68	67.659	19.825	4.2185e-06	27.837	432.464	170.136	158.643	107.075	292.976	295.000	106.786	114.269	298.042	162.479	113.326	119.986	120.294	127.364	253.847	126.625	-8191	255	
6631.709	1	1	0	0	0.051444	0.13267	0.39087	0.25005	0.18721	0.081443	0.074781	0.063185	0.28875	0.097457	0.15823	0.086483	0.2064	0.22043	0.092499	0.15658	-2.6958	-2.5896	-3.0312	-3.3646	-2.5042	-3.025	-3.35	-2.7	-3.0083	-3.1	-2.8229	-3.2354	-2.8104	-3.2562	-3.0312	-2.7687	196.197	148.171	267.598	447.494	216.203	367.191	364.630	161.792	368.140	163.353	418.634	392.251	446.572	445.869	314.825	392.470	0.00075022	0.00018111	6.5202e-05	1156.8	2.5676e-06	7.3974e-06	1227.2	247.5	4.1219e-06	3.1151e-06	306.62	85.588	66.979	19.234	5.9455e-06	27.257	0.000335	0.00038597	0.00010834	1142.6	3.7347e-06	4.2415e-06	1214	246.78	3.6075e-06	4.3099e-06	306.64	85.656	67.607	19.897	4.0325e-06	27.911	435.852	213.525	297.474	106.948	323.631	291.297	106.699	113.938	211.074	103.838	113.781	120.228	120.559	127.503	277.547	126.426	-8191	255	
6631.805	1	1	0	0	0.077031	0.23246	0.051003	0.10889	0.14934	0.09246	0.18875	0.28862	0.22982	0.14072	0.2518	0.12626	0.21746	0.18517	0.097294	0.23305	-2.925	-2.75	-2.8125	-3.5062	-2.9917	-2.9854	-3.1458	-3.0125	-3.2854	-2.95	-2.825	-3.1583	-2.9292	-2.8354	-3.1521	-2.825	213.339	332.757	138.502	405.946	437.275	313.319	395.861	337.379	300.828	212.630	453.429	329.520	423.362	448.453	272.024	253.016	0.0010247	0.00018419	0.00010962	1156.3	5.7249e-06	2.7233e-06	1229.8	248.85	2.105e-06	5.6088e-07	308.18	85.504	67.453	19.241	1.7357e-06	27.164	0.00035189	0.0004039	0.00010429	1146	3.8795e-06	4.3539e-06	1214.8	246.8	3.8763e-06	4.3792e-06	307.3	85.572	67.799	19.876	3.8526e-06	27.808	438.990	226.370	124.350	106.724	233.016	208.720	106.900	113.805	260.855	408.531	113.535	119.966	119.968	127.179	236.328	126.762	-8191	255	
6631.924	1	1	0	0	0.14727	0.17655	0.042096	0.25351	0.13271	0.14018	0.076969	0.15566	0.15633	0.18858	0.026321	0.099413	0.090043	0.31237	0.20404	0.15336	-2.7917	-2.8833	-2.9625	-3.4583	-2.8396	-2.9417	-3.0208	-2.8146	-3.1042	-2.9333	-2.9562	-3.2917	-2.6937	-2.9792	-3.2354	-2.875	416.943	274.670	167.887	424.473	282.615	102.955	293.268	112.517	288.673	438.665	267.946	154.645	132.710	324.062	159.216	429.448	0.00089647	5.9264e-05	4.0553e-06	1152.6	8.2074e-06	3.6238e-06	1227.5	249.73	5.5834e-06	1.6254e-06	306.45	85.724	67.342	19.299	6.5364e-07	27.217	0.00036552	0.00038919	0.0001004	1142.5	4.0681e-06	4.2411e-06	1215.1	246.89	4.0645e-06	4.1596e-06	306.38	85.601	67.857	19.834	3.8132e-06	27.87	441.156	271.123	202.398	106.918	245.964	290.724	106.776	113.850	245.955	339.038	113.558	119.988	120.381	127.348	395.653	126.797	-8191	255	
6632.020	1	1	0	0	0.10951	0.23084	0.32838	0.42474	0.11529	0.080135	0.13071	0.14251	0.077978	0.13707	0.069328	0.047739	0.11173	0.20646	0.34802	0.14264	-2.5021	-2.9125	-2.6771	-3.3458	-2.95	-3.15	-3.3063	-3.0854	-3.0646	-2.9979	-2.8667	-3.0979	-2.8833	-2.9083	-3.1479	-2.9771	306.644	296.474	287.274	405.642	339.669	234.136	365.938	339.204	322.595	268.082	157.292	163.563	243.851	388.862	198.526	216.476	0.0009207	0.00019069	4.3375e-05	1156.8	7.8842e-06	2.6673e-06	1231.9	248.25	2.6925e-06	4.9748e-06	306.16	85.742	67.216	19.25	3.1178e-06	27.321	0.00039082	0.00037532	9.9848e-05	1143.5	4.3645e-06	4.1501e-06	1213.7	247.22	4.2619e-06	4.0386e-06	306.64	85.697	68.014	19.8	3.6826e-06	27.88	433.190	259.123	275.062	106.642	184.159	200.554	106.669	113.941	202.654	290.971	113.534	120.054	120.477	127.039	231.593	126.385	-8191	255	
6632.116	1	1	0	0	0.057798	0.15348	0.38242	0.094139	0.047793	0.19133	0.20597	0.28618	0.062934	0.13166	0.34349	0.21906	0.29788	0.17605	0.12282	0.069094	-2.7771	-3.0104	-2.75	-3.3458	-2.9396	-3.0125	-3.5083	-2.6729	-2.9437	-3.2375	-3.0292	-3.0917	-2.8104	-2.9333	-3.2146	-2.8625	350.862	446.746	133.988	381.089	131.169	450.283	404.939	452.053	384.264	123.808	196.426	441.488	134.033	107.940	144.789	402.735	0.00093407	0.00031468	4.1974e-05	1157.4	1.401e-05	3.8267e-06	1229	249.58	3.676e-06	1.3645e-06	307.16	85.545	66.899	19.068	4.6286e-06	27.287	0.00040101	0.00035796	9.8252e-05	1144.9	4.3646e-06	3.9843e-06	1212.7	247.25	4.2816e-06	3.8558e-06	306.62	85.756	67.806	19.773	3.6195e-06	27.933	435.897	158.738	137.596	106.984	250.660	310.159	106.661	113.818	265.160	328.309	113.332	120.353	120.366	127.573	233.935	126.647	-8191	255	
6632.212	1	1	0	0	0.19294	0.056644	0.23256	0.26283	0.23288	0.20424	0.31344	0.25226	0.10381	0.06091	0.28694	0.37069	0.13076	0.35102	0.20398	0.26384	-2.5812	-3.1375	-2.7167	-3.2583	-2.95	-2.9333	-3.3521	-2.65	-3.1875	-3.1771	-2.9208	-3.0958	-3.0104	-2.9354	-3.3021	-2.7083	428.489	188.077	309.748	386.633	136.094	301.645	411.932	415.120	190.974	340.301	130.432	399.617	183.026	382.953	106.909	420.858	0.00085087	0.00020989	9.1818e-05	1159.2	5.0424e-06	3.5766e-06	1229	247.69	5.1342e-06	1.2657e-06	306.3	85.867	67.227	19.178	5.3921e-06	27.138	0.00039667	0.00035128	9.8057e-05	1146.1	4.2717e-06	3.9352e-06	1212.8	247.56	4.1766e-06	3.7633e-06	306.15	85.828	67.814	19.752	3.6599e-06	28.035	436.788	442.534	202.402	106.736	220.887	232.862	106.764	114.135	239.292	392.151	113.406	120.160	120.244	127.689	230.938	126.699	-8191	255	
6632.309	1	1	0	0	0.13269	0.20145	0.146	0.27998	0.29907	0.1832	0.27097	0.18834	0.25106	0.13544	0.39423	0.090745	0.07667	0.17705	0.29156	0.22579	-2.5271	-3.1646	-2.8104	-3.3833	-3.0271	-2.7521	-3.4979	-2.9813	-2.8354	-3.3625	-2.9813	-2.8917	-3.2	-2.8458	-3.1167	-3.0646	382.452	400.326	142.731	392.934	410.793	329.914	449.474	109.418	406.110	198.228	423.642	115.861	109.760	189.816	238.414	342.638	0.00075958	0.00039357	6.1498e-05	1160.6	1.867e-06	1.5431e-06	1232.1	247.99	1.0593e-05	2.4227e-06	307.53	85.756	66.652	19.149	2.7931e-06	26.949	0.00038636	0.00034597	9.8326e-05	1147	4.0589e-06	3.9183e-06	1214.1	247.6	4.1272e-06	3.7367e-06	306.47	86.049	67.621	19.724	3.8856e-06	27.971	441.501	259.387	143.575	106.742	190.353	334.781	106.468	113.809	244.748	285.535	113.545	120.211	120.718	127.103	226.920	126.548	-8191	255	
6632.405	1	1	0	0	0.20429	0.08083	0.3332	0.20231	0.27406	0.092301	0.38223	0.12822	0.027907	0.15759	0.10044	0.058411	0.18927	0.16938	0.094249	0.22213	-2.5146	-3.2125	-2.7313	-3.2979	-2.9625	-2.7438	-3.2458	-2.8542	-2.8083	-3.3958	-2.8146	-3.2604	-2.9729	-2.9333	-3.125	-2.7604	449.910	164.323	114.989	440.537	440.134	221.299	389.041	435.511	275.887	150.185	423.541	182.964	153.215	142.656	200.016	187.949	0.00060334	4.1576e-05	8.4959e-05	1153.5	8.2025e-06	2.082e-06	1231.1	248.66	4.4561e-06	2.8734e-06	306.96	86.112	67.274	19.205	2.8295e-06	27.109	0.00036917	0.00033264	0.00010194	1145	3.8685e-06	3.7678e-06	1214.4	247.86	3.9057e-06	3.5865e-06	306.98	86.156	67.744	19.708	4.0758e-06	27.99	448.982	131.801	127.875	106.812	264.039	299.548	106.787	113.762	183.313	199.304	113.327	120.233	120.306	127.511	257.245	126.611	-8191	255	
6632.501	1	1	0	0	0.23797	0.12372	0.29105	0.29255	0.072079	0.03851	0.094473	0.35684	0.064908	0.12058	0.25575	0.24658	0.16941	0.1792	0.15704	0.27032	-2.4125	-3.2375	-2.5938	-3.0229	-3.0854	-2.675	-3.3104	-2.9833	-2.7542	-3.2521	-3.0042	-2.9792	-3.2188	-2.8521	-3.0563	-2.8854	271.568	372.446	440.762	419.120	419.900	285.344	113.989	350.076	116.321	172.324	342.936	123.848	325.446	362.498	118.709	447.761	0.00082105	0.00038782	0.00015193	1162.8	7.5521e-06	2.5759e-06	1226.7	248.52	2.7226e-06	4.0584e-06	307.96	85.449	67.603	19.187	9.491e-06	27.036	0.00036098	0.00033026	0.00010934	1148.1	3.8043e-06	3.7241e-06	1213.6	248	3.873e-06	3.6408e-06	307.97	85.915	67.71	19.687	4.2957e-06	27.898	436.286	272.588	268.373	106.820	267.444	259.106	106.818	113.864	297.758	216.531	113.373	120.080	120.350	127.502	208.528	126.950	-8191	255	
6632.622	1	1	0	0	0.21546	0.044987	0.29543	0.17705	0.10753	0.14806	0.087165	0.31329	0.22491	0.126	0.11085	0.10025	0.0741	0.25942	0.38771	0.27206	-2.4062	-3.1208	-2.7708	-3.2021	-3.2396	-2.5604	-3.2542	-3.125	-2.8042	-3.0083	-3.1437	-3.0771	-3.0729	-2.8312	-2.9667	-2.7938	384.890	262.482	434.013	376.907	111.937	405.168	389.216	435.257	186.828	114.656	228.630	367.445	221.795	395.325	145.934	403.914	0.00094043	0.00047531	8.1449e-05	1155.6	3.4982e-06	6.2467e-06	1230.4	247.63	9.4171e-06	5.3315e-06	306.6	85.882	67.222	19.283	4.6092e-06	27.142	0.00035611	0.00033635	0.00011189	1143.9	3.7006e-06	3.7566e-06	1216.5	247.01	3.7881e-06	3.7456e-06	307.55	86.034	67.332	19.765	4.3778e-06	27.883	435.334	203.154	181.101	106.883	249.625	226.090	106.835	113.993	224.028	223.921	113.430	120.038	120.432	127.081	271.041	126.398	-8191	255	
6632.716	1	1	0	0	0.051951	0.13748	0.065417	0.54689	0.094475	0.10537	0.067482	0.10276	0.1722	0.12404	0.029287	0.069166	0.099394	0.20002	0.4177	0.16528	-2.2354	-3.2375	-2.9125	-3.025	-3.0208	-2.775	-3.2896	-2.9375	-2.5854	-3.1583	-2.9583	-2.8646	-3.3854	-2.825	-3.0604	-3.2021	265.580	173.080	440.186	397.822	206.953	449.507	194.769	386.959	151.734	179.382	181.702	232.566	327.433	406.793	268.721	157.151	0.00073501	0.00040075	4.3552e-05	1156	5.7036e-06	2.9642e-06	1226	246.99	4.6958e-06	2.7636e-06	306.58	85.179	67.203	19.193	3.4451e-06	26.927	0.00035106	0.00035595	0.00011227	1142.4	3.6095e-06	4.066e-06	1212.7	246.35	3.7603e-06	4.0352e-06	307.09	85.591	67.405	19.757	4.3292e-06	27.775	440.620	224.101	158.993	106.948	259.690	276.153	106.857	114.292	217.661	219.903	113.185	120.392	120.353	127.133	244.897	126.526	-8191	255	
6632.789	1	1	0	0	0.037196	0.033373	0.1131	0.10585	0.060375	0.20377	0.29199	0.037453	0.052243	0.050049	0.10612	0.15299	0.12829	0.073207	0.14152	0.16437	-2.3333	-3.0146	-2.6229	-2.9	-3.35	-2.8479	-2.8646	-3.1937	-2.8896	-3.0021	-3.05	-2.7667	-3.2062	-2.9688	-2.9313	-3.1	109.325	455.645	158.155	410.349	211.552	389.642	350.011	276.952	132.339	407.466	135.895	387.539	314.381	271.849	187.485	340.716	0.00090934	0.0005021	6.3265e-05	1152.1	1.6289e-06	4.4813e-06	1229	247.81	6.544e-06	3.6251e-06	307.06	85.603	67.027	19.134	7.7833e-06	27.323	0.00034595	0.00038496	0.00010932	1140.9	3.6815e-06	4.3141e-06	1211.9	246.67	3.794e-06	4.3202e-06	307	85.705	67.37	19.802	4.1089e-06	27.822	434.736	225.257	192.741	106.838	306.730	316.941	106.920	114.057	213.655	139.707	113.577	120.105	120.064	127.355	149.214	126.925	-8191	255	
6632.885	1	1	0	0	0.15003	0.16672	0.086641	0.10264	0.2091	0.094137	0.10184	0.26865	0.054075	0.17667	0.22125	0.064556	0.085141	0.076402	0.11446	0.37727	-2.2771	-3.0479	-2.8875	-2.9188	-3.1875	-2.8521	-3.0708	-3.2271	-2.8729	-3.0812	-3.0229	-2.8292	-3.2146	-2.8729	-2.8396	-3.2146	435.298	316.606	438.223	416.174	165.641	113.565	338.786	273.278	428.478	245.579	357.726	288.889	96.318	386.021	165.674	411.890	0.0010429	0.00051023	0.00011271	1153.7	1.1114e-05	4.6685e-06	1225.4	246.1	6.8224e-06	2.2626e-06	308.09	85.821	67.579	19.114	3.513e-06	27.198	0.0003524	0.00040032	0.00010512	1142.1	3.781e-06	4.3741e-06	1212.3	246.38	3.8998e-06	4.4199e-06	307.02	85.797	67.738	19.828	4.0856e-06	27.838	430.221	172.877	260.342	106.808	218.930	234.966	106.888	113.768	253.575	314.734	113.348	120.146	120.557	127.142	282.897	126.558	-8191	255	
6633.004	1	1	0	0	0.22204	0.14595	0.26481	0.12291	0.073913	0.13518	0.19841	0.22314	0.088018	0.036113	0.22411	0.32464	0.20346	0.15202	0.16599	0.0865	-2.5375	-3.0458	-2.9854	-2.8625	-3.2854	-2.7958	-2.9917	-3.2979	-2.8812	-3.0229	-3.0521	-2.675	-2.9979	-2.95	-2.7083	-3.1792	108.034	170.474	158.264	411.021	419.031	237.903	301.901	435.230	208.394	426.068	112.597	393.679	391.363	202.932	398.867	234.477	0.00092393	0.00070997	6.0105e-05	1157.2	4.4466e-06	8.6158e-06	1227.7	249.67	6.5901e-06	7.4284e-06	308.3	85.344	67.306	19.212	4.9749e-06	26.984	0.00038192	0.0004088	0.00010282	1144.1	4.1289e-06	4.4898e-06	1213.2	247.43	4.236e-06	4.4886e-06	307	85.554	67.87	19.837	4.0578e-06	27.8	436.781	138.386	212.061	106.580	238.194	276.050	106.695	114.045	227.323	265.376	113.343	120.451	120.169	127.397	187.319	126.876	-8191	255	
6633.101	1	1	0	0	0.37577	0.14954	0.15017	0.26846	0.13775	0.13651	0.33218	0.10523	0.1027	0.13336	0.03325	0.13588	0.15113	0.26286	0.19161	0.079008	-2.2125	-2.9229	-3.0917	-2.9083	-3.1104	-3.0563	-3.0042	-3.0938	-2.6917	-3.0542	-3.0812	-2.7708	-2.8771	-3.0125	-2.8167	-3.2625	338.885	193.070	236.296	395.395	418.698	404.001	381.010	297.014	169.090	124.638	335.161	451.634	147.760	383.774	180.989	249.866	0.00089296	0.00016637	6.1162e-05	1155.7	5.6448e-06	6.0214e-06	1230.2	249.17	9.5385e-06	8.9498e-06	308.23	86.051	67.178	19.125	2.723e-06	27.055	0.00040658	0.00040135	0.00010178	1143.1	4.4179e-06	4.4125e-06	1214.6	247.19	4.5364e-06	4.3766e-06	307.24	86.035	68.138	19.799	4.0622e-06	27.873	441.352	226.991	163.440	106.758	189.296	245.236	106.843	113.887	229.312	250.324	113.290	119.843	120.691	127.473	257.377	126.577	-8191	255	
6633.197	1	1	0	0	0.18715	0.16336	0.18953	0.24579	0.21688	0.11991	0.33711	0.15856	0.098747	0.25828	0.21095	0.26579	0.1557	0.088896	0.10533	0.1447	-2.4229	-2.7188	-3.2438	-2.9521	-3.0729	-3.1146	-2.8792	-3.1979	-2.8396	-3.0792	-3.1375	-2.7292	-3.0438	-2.9375	-2.8792	-3.0042	438.077	345.935	111.530	446.741	236.706	350.341	399.000	113.683	371.193	276.699	425.946	401.569	140.900	454.501	201.886	365.664	0.00098011	0.00016932	9.6928e-05	1157.8	7.7353e-06	2.0915e-06	1231.4	247.47	3.1227e-06	3.1059e-06	307.56	85.402	67.261	19.041	2.4171e-06	27.009	0.00041924	0.00038309	9.9126e-05	1144.7	4.5374e-06	4.0859e-06	1214.4	247.19	4.4429e-06	4.1402e-06	306.77	85.897	68.121	19.693	3.8762e-06	27.897	434.353	308.928	226.478	106.798	237.953	407.301	106.583	113.797	273.305	179.039	113.430	119.659	120.298	127.741	278.421	126.574	-8191	255	
6633.317	1	1	0	0	0.16374	0.040533	0.19417	0.26164	0.07327	0.34408	0.19021	0.24125	0.10382	0.13348	0.4102	0.096972	0.071144	0.21923	0.13077	0.1349	-2.6646	-2.9271	-3.1896	-2.9604	-2.7917	-3.1854	-3.05	-3.2521	-2.8896	-2.8792	-3.3875	-2.95	-3.1604	-3.25	-2.9	-3.0854	425.883	205.952	163.414	425.862	395.348	302.325	355.529	194.024	224.091	103.626	386.485	416.808	151.600	343.044	452.929	410.293	0.00091517	0.0006201	0.00014945	1156.4	3.2165e-06	1.4816e-06	1225.8	247.44	6.1457e-06	3.0235e-06	307.07	85.753	67.103	19.048	3.433e-07	27.152	0.00040793	0.00037613	9.4733e-05	1144.7	4.4403e-06	3.9373e-06	1211.7	247.73	4.2779e-06	4.0211e-06	306.6	86.055	67.853	19.692	3.8296e-06	28.001	438.682	191.631	223.029	106.859	234.609	196.518	106.770	114.131	283.934	144.969	113.468	119.899	120.797	127.354	256.292	126.649	-8191	255	
6633.413	1	1	0	0	0.18748	0.058581	0.1447	0.20615	0.084047	0.22054	0.12369	0.28512	0.21944	0.41554	0.16412	0.062558	0.32958	0.34486	0.13675	0.10157	-2.6375	-2.7812	-3.175	-3.0417	-2.9667	-3.0771	-2.9979	-3.4146	-2.7833	-2.8958	-3.3375	-2.85	-3.075	-3.0979	-2.6208	-3.1479	334.266	381.430	285.259	389.489	96.969	307.724	420.728	400.806	256.589	189.477	361.409	148.575	440.517	444.434	192.306	335.538	0.000754	0.00033809	3.8325e-05	1158	7.8165e-06	2.8119e-06	1227.9	248.09	5.6078e-06	5.1839e-06	308.29	85.912	67.022	19.069	2.7281e-06	27.112	0.0003918	0.00035968	9.6124e-05	1146.2	4.2609e-06	3.8356e-06	1213	247.87	4.1798e-06	3.9401e-06	306.89	86.282	67.795	19.699	3.9691e-06	28.028	438.518	170.898	188.220	106.799	301.432	278.095	106.794	114.011	173.605	237.193	113.436	120.332	120.615	127.616	234.976	126.467	-8191	255	
6633.485	1	1	0	0	0.24225	0.061091	0.11833	0.36544	0.11175	0.078727	0.27604	0.1717	0.23177	0.12725	0.07328	0.1594	0.38109	0.20261	0.14569	0.19911	-2.4813	-2.5979	-3.1146	-3.3021	-2.6937	-3.125	-2.9583	-3.0625	-2.8312	-2.8604	-3.1667	-3.0375	-3.0333	-2.875	-2.75	-2.9042	288.345	181.572	399.679	426.647	428.560	213.945	118.823	446.438	442.009	352.175	314.404	373.141	173.188	356.459	139.444	247.699	0.00068487	0.00052057	0.0001045	1159.2	4.4976e-06	1.3338e-06	1231.3	248.16	4.2474e-06	1.424e-06	309.38	85.4	67.535	19.13	4.2423e-06	27.114	0.00038653	0.0003621	0.00010321	1148.2	4.1912e-06	3.8865e-06	1216.1	248.76	4.0701e-06	3.9776e-06	307.54	86.146	67.888	19.731	4.335e-06	28.113	429.843	171.831	183.102	106.815	203.052	296.281	106.712	114.193	250.759	369.501	113.541	120.050	120.550	127.440	286.386	126.700	-8191	255	
6633.606	1	1	0	0	0.21568	0.10222	0.12718	0.24485	0.28818	0.21988	0.26531	0.17449	0.18619	0.081944	0.06897	0.18063	0.15	0.25306	0.23635	0.1041	-2.5417	-2.8896	-2.8812	-2.9938	-2.8104	-2.9417	-2.9708	-2.9688	-3.0917	-2.7354	-3.3125	-3.0458	-2.8917	-3.2396	-2.8292	-2.9562	249.030	286.982	192.262	96.855	441.861	248.345	419.280	411.241	197.692	350.899	264.943	306.670	436.425	373.418	317.771	300.700	0.00085576	0.00035323	6.7105e-05	1161.1	3.3328e-06	3.1693e-06	1233.2	249.55	4.6644e-06	5.7996e-06	307.42	85.898	67.34	19.271	8.6827e-06	27.096	0.0003808	0.00036709	0.00011103	1151	4.1724e-06	3.8228e-06	1219	249.21	4.0521e-06	3.9639e-06	308.63	86.463	67.912	19.802	4.5759e-06	28.077	442.679	133.386	108.340	106.730	224.337	322.206	106.665	114.047	250.506	206.188	113.210	120.141	120.498	127.440	254.173	126.787	-8191	255	
6633.702	1	1	0	0	0.15288	0.25899	0.21088	0.28986	0.1009	0.15028	0.28029	0.1218	0.071156	0.24606	0.09721	0.20392	0.22334	0.33491	0.16219	0.10007	-2.7812	-2.6625	-3.0104	-3.1542	-2.9021	-3.1125	-2.9562	-3.0312	-3.0479	-2.7167	-3.0604	-3.0792	-2.8042	-3.0375	-2.8521	-3.1417	230.176	400.210	222.950	410.320	189.829	423.670	384.804	268.647	321.213	189.394	228.628	450.613	299.051	393.304	274.036	373.553	0.00101	0.0004353	0.00021503	1160.5	4.2693e-06	2.0102e-06	1232.1	249.21	4.5233e-06	6.2397e-06	308.56	85.367	67.549	19.111	6.6065e-06	27.25	0.00037245	0.00036522	0.00011623	1148.9	4.0444e-06	3.9512e-06	1221	248.87	3.8537e-06	3.9922e-06	309.54	86.069	68.008	19.788	4.6296e-06	28.091	434.358	209.915	170.789	106.737	292.423	184.309	106.781	113.990	272.168	222.943	113.433	120.341	120.428	127.495	244.113	126.473	-8191	255	
6633.796	1	1	0	0	0.1034	0.17441	0.14255	0.027925	0.31725	0.18379	0.32149	0.24958	0.204	0.10603	0.18478	0.10027	0.1547	0.12839	0.22257	0.2106	-2.7375	-2.8396	-2.9062	-3.2229	-2.5521	-3.1104	-3.1104	-3.0979	-3.1188	-2.8875	-3.2229	-3.0833	-2.9875	-3.0729	-3.0042	-2.9875	443.393	287.006	204.764	416.190	327.308	406.080	427.770	288.095	107.633	209.682	391.184	179.756	412.980	169.213	453.992	389.307	0.0010567	0.00039453	0.00010173	1166.5	7.4421e-06	5.5831e-06	1239.6	250.13	7.5782e-06	7.7536e-06	310.54	86.153	67.653	19.22	4.0755e-06	27.407	0.00036018	0.00037875	0.00012046	1153.3	3.9927e-06	4.161e-06	1226.1	248.99	3.8824e-06	4.3183e-06	309.78	86.364	67.963	19.905	4.6618e-06	28.101	438.714	138.962	181.994	106.701	323.824	190.469	106.626	113.776	226.357	275.362	113.440	120.001	120.374	127.600	280.498	126.677	-8191	255	
6633.917	1	1	0	0	0.18027	0.23294	0.09285	0.29771	0.23417	0.15152	0.3884	0.26873	0.082985	0.24904	0.15593	0.25256	0.10558	0.25242	0.10466	0.12493	-2.7396	-2.7583	-3.2125	-3.0708	-2.8458	-3.2812	-3.075	-2.9583	-3.2854	-2.8042	-3.2417	-3.0729	-2.8167	-3.2188	-3.1104	-2.6063	303.093	138.223	411.319	435.645	286.400	240.729	396.653	384.880	246.512	416.535	396.213	447.652	420.968	342.022	182.477	306.839	0.00074048	0.00067681	2.3721e-05	1164.3	2.9511e-06	3.5579e-06	1237.5	249.98	3.0496e-06	7.1866e-06	308.32	86.298	67.518	19.206	1.8715e-06	27.137	0.00035701	0.00040908	0.00011965	1153.7	3.9997e-06	4.4262e-06	1223.2	249.25	3.9073e-06	4.5695e-06	308.92	86.304	68.012	19.925	4.5096e-06	28.089	432.923	133.316	197.342	106.854	313.033	215.213	106.640	114.067	185.799	199.024	113.546	119.749	120.496	127.741	393.649	126.466	-8191	255	
6634.013	1	1	0	0	0.098839	0.12195	0.21001	0.25046	0.21052	0.016628	0.23331	0.13225	0.19172	0.1882	0.1358	0.13411	0.091273	0.18187	0.065863	0.13482	-2.6729	-2.9188	-2.8021	-3.1375	-2.8438	-3.0187	-2.8604	-2.9437	-3.2125	-2.8375	-2.9688	-3.1646	-2.8833	-3.0542	-3.0333	-2.9292	406.819	256.596	249.542	358.293	312.308	288.867	372.463	397.434	408.391	120.741	334.218	104.486	452.566	236.003	319.657	147.529	0.00087885	0.00026735	7.9457e-05	1163.3	5.9421e-06	6.3631e-06	1230.9	248.75	7.9116e-06	7.9014e-06	308.27	85.674	67.543	19.268	7.0769e-06	27.099	0.00036879	0.00043444	0.0001173	1151.8	4.1613e-06	4.7122e-06	1221.7	248.47	4.0476e-06	4.7416e-06	309.5	86.17	68.273	19.985	4.2906e-06	27.998	425.227	155.524	244.859	106.874	253.535	239.110	106.693	113.603	204.907	177.154	113.552	119.953	120.633	127.322	203.709	126.618	-8191	255	
6634.085	1	1	0	0	0.16349	0.3008	0.14433	0.12294	0.22034	0.14733	0.11492	0.27508	0.11114	0.069369	0.22808	0.16637	0.19404	0.15836	0.1257	0.068603	-2.8021	-2.7771	-3.075	-3.325	-2.6583	-3.1979	-3.3042	-2.7854	-3.3917	-3.1375	-2.8833	-3.3812	-2.7687	-2.9396	-3.0875	-2.8312	284.428	301.767	414.983	390.059	257.769	249.338	367.318	394.613	333.579	421.342	451.658	390.271	242.821	442.504	189.572	438.511	0.00084113	0.00042162	2.0789e-05	1168.8	7.0536e-06	2.3967e-06	1241	250.1	1.1606e-05	5.0801e-06	308.36	86.216	67.637	19.173	3.9615e-06	27.243	0.00039029	0.00042847	0.00011224	1154.6	4.3117e-06	4.6442e-06	1224.8	249.21	4.2204e-06	4.7014e-06	308.58	86.208	68.425	20.017	4.3043e-06	27.981	445.271	140.824	453.239	106.657	234.828	298.627	106.704	113.773	221.962	162.752	113.523	120.025	120.352	127.042	297.097	126.589	-8191	255	
6634.181	1	1	0	0	0.26333	0.2542	0.16751	0.34237	0.10315	0.33028	0.159	0.10642	0.25608	0.17579	0.074545	0.09863	0.3654	0.12034	0.11738	0.058461	-2.6625	-3.0208	-2.7729	-3.0687	-2.7188	-3.15	-3.1542	-2.775	-3.2062	-2.7833	-2.8833	-3.3396	-2.8187	-2.9875	-3.1271	-2.8333	136.414	353.072	126.042	430.674	303.257	422.505	394.849	149.618	285.136	281.806	113.881	361.616	377.911	126.546	306.551	280.738	0.00082693	0.00031752	5.6343e-05	1166.7	4.7327e-06	7.2696e-07	1238.8	250.22	8.5519e-06	4.4087e-06	308.95	85.953	67.618	19.357	3.8026e-06	27.328	0.00042276	0.00043476	0.00011401	1154.3	4.6813e-06	4.7053e-06	1224.5	249.47	4.6547e-06	4.6524e-06	309.44	86.532	68.524	20.032	4.1872e-06	28.1	428.462	258.317	259.514	106.758	253.667	99.040	106.830	113.895	187.754	176.391	113.634	120.162	120.560	127.454	272.547	126.751	-8191	255	
6634.302	1	1	0	0	0.11712	0.38594	0.30621	0.24379	0.046321	0.17991	0.20081	0.42699	0.20756	0.18506	0.13731	0.12883	0.40438	0.28039	0.21963	0.30509	-2.7583	-2.9021	-2.6833	-3.2646	-2.9313	-3.1813	-3.2125	-2.6979	-3.0771	-2.9146	-2.9813	-3.1729	-2.7708	-2.8771	-3.2521	-2.7229	163.907	379.566	188.474	404.986	328.498	242.219	407.866	385.413	341.292	181.427	419.998	145.904	451.949	403.649	281.294	230.376	0.00096335	0.00035128	5.3399e-05	1168.6	4.3827e-06	2.0049e-06	1240.2	249.49	6.7556e-06	2.3348e-06	309.2	86.663	67.764	19.337	2.0594e-06	27.211	0.00043862	0.00041324	0.0001103	1156.3	4.8763e-06	4.5536e-06	1224.7	249.55	4.8014e-06	4.4926e-06	309.62	86.73	68.755	20.003	4.13e-06	28.21	430.296	238.127	212.322	106.708	294.804	295.264	106.709	113.923	282.840	290.068	113.393	120.175	120.368	127.202	400.396	126.936	-8191	255	
6634.398	1	1	0	0	0.097499	0.29279	0.19876	0.14432	0.12622	0.22453	0.28561	0.17552	0.23709	0.0035405	0.29192	0.13686	0.36004	0.17627	0.065325	0.21938	-2.5271	-3.0104	-2.7042	-3.0375	-2.9813	-2.9979	-3.3208	-2.8229	-3.1188	-3.1875	-2.6646	-3.0583	-3.0271	-2.8688	-3.0833	-2.9625	247.675	427.617	361.402	360.161	214.796	377.920	438.319	443.170	112.886	309.658	404.177	435.707	415.641	396.087	313.935	403.390	0.00096959	0.00026666	0.00021784	1170.9	6.33e-07	4.6549e-06	1240.6	250.88	4.6165e-06	4.5653e-06	308.51	86.081	67.488	19.311	1.5792e-06	27.182	0.00044767	0.00040087	0.00010737	1158.8	4.8868e-06	4.382e-06	1225.4	250.59	4.7879e-06	4.3119e-06	308.99	86.724	68.655	20.017	4.0536e-06	28.247	429.914	229.352	176.255	106.763	100.278	297.051	106.754	113.918	240.137	298.007	113.337	120.021	120.596	127.506	287.322	126.376	-8191	255	
6634.494	1	1	0	0	0.33107	0.17002	0.18807	0.3508	0.18041	0.038467	0.30256	0.17109	0.15929	0.10399	0.18606	0.096439	0.21465	0.4211	0.11557	0.26197	-2.6188	-3.0563	-2.5771	-3.3104	-3.0708	-2.625	-3.3896	-2.9708	-3.15	-3.0604	-2.9479	-3.2229	-3.1604	-2.6688	-3.1771	-2.9792	290.091	357.356	289.494	429.514	119.676	140.204	364.508	262.054	146.938	290.218	433.148	106.965	360.423	134.899	409.995	452.080	0.00089818	0.00018503	0.00013269	1169.5	2.6447e-06	6.9318e-06	1247.1	249.71	2.0229e-06	2.5916e-06	310.79	86.004	67.868	19.311	6.3598e-06	27.326	0.00043683	0.00039172	0.0001085	1160.5	4.6991e-06	4.3627e-06	1229.9	251.4	4.6748e-06	4.2705e-06	310.41	87.087	68.715	19.953	4.1266e-06	28.329	431.088	257.206	218.085	106.871	194.856	240.886	106.803	114.000	136.989	305.788	113.418	120.028	120.598	127.307	236.767	126.353	-8191	255	
6634.590	1	1	0	0	0.22635	0.14791	0.11464	0.45985	0.063979	0.17985	0.19031	0.35065	0.22552	0.11324	0.27639	0.053169	0.10581	0.15882	0.1678	0.28292	-2.3729	-3.0687	-2.8563	-3.2708	-2.9062	-2.8646	-3.3646	-2.8375	-2.7521	-3.2125	-3.0292	-3.25	-3.2042	-2.6875	-2.9625	-2.9833	108.116	240.576	187.559	403.864	334.498	410.833	452.483	403.567	331.094	179.185	361.538	413.037	362.361	406.645	250.276	393.732	0.00087732	0.00010807	0.00012175	1170.2	5.8762e-06	1.6647e-06	1246.3	250.8	4.6249e-06	3.6796e-06	308.47	86.658	68.51	19.217	5.9488e-06	27.298	0.00042139	0.00038161	0.00011065	1162.6	4.519e-06	4.2227e-06	1229.2	251.46	4.4446e-06	4.103e-06	310.74	87.355	68.823	19.975	4.424e-06	28.386	439.196	182.086	215.347	106.741	226.919	277.114	106.754	113.864	288.051	243.461	113.618	120.144	120.410	127.595	195.533	126.214	-8191	255	
6634.686	1	1	0	0	0.13891	0.015306	0.34112	0.1284	0.1254	0.10557	0.18577	0.091495	0.37082	0.098997	0.12694	0.26833	0.26575	0.047398	0.097948	0.22992	-2.5667	-3.2313	-2.7792	-2.9229	-2.9083	-2.6437	-3.1271	-2.975	-2.925	-3.1125	-2.9562	-3.1021	-3.0542	-2.6417	-2.9625	-3.0833	412.770	129.285	267.887	102.158	139.092	347.868	400.817	319.712	276.694	415.590	132.825	142.822	110.417	300.134	403.012	373.284	0.00073481	0.00025291	7.5498e-05	1173.1	2.4332e-06	4.4042e-06	1240.6	251.91	9.5195e-06	2.3514e-06	311.72	86.495	67.978	19.459	9.3272e-06	27.381	0.00040431	0.00037244	0.00011773	1163.9	4.3712e-06	4.21e-06	1229.4	251.93	4.4016e-06	4.0934e-06	311.83	87.387	68.655	20.015	4.687e-06	28.324	437.335	414.641	189.876	106.843	216.084	234.269	106.856	113.836	233.235	215.270	113.372	120.147	120.147	127.194	241.098	126.207	-8191	255	
6634.782	1	1	0	0	0.20484	0.2211	0.25963	0.19997	0.33816	0.094841	0.26203	0.07522	0.059856	0.20984	0.3378	0.071846	0.07758	0.086843	0.032546	0.094601	-2.5104	-3.1771	-2.6417	-3.0625	-3.1875	-2.8583	-3.3771	-3.0104	-2.7812	-3.1604	-2.8979	-2.9146	-3.1792	-2.6125	-3.1125	-3.1312	165.471	420.046	380.393	359.784	400.317	364.084	321.265	411.927	363.472	199.638	116.749	286.537	178.416	348.530	332.382	454.722	0.00071229	0.00032222	0.00016127	1174.4	5.0769e-06	4.2767e-06	1249.7	252.17	5.4967e-06	4.3228e-06	309.76	86.454	68.471	19.357	8.1487e-06	27.203	0.00040154	0.00036599	0.00012178	1164.3	4.1889e-06	4.112e-06	1233.8	251.48	4.1824e-06	3.9757e-06	312.08	86.913	68.599	19.998	4.6866e-06	28.222	438.519	232.179	184.062	106.738	323.969	241.794	106.634	113.994	260.093	271.519	113.569	119.650	120.454	127.044	235.125	126.708	-8191	255	
6634.878	1	1	0	0	0.1511	0.031897	0.23975	0.38734	0.23176	0.2144	0.35955	0.21382	0.2162	0.12654	0.21492	0.082846	0.15323	0.1081	0.23904	0.159	-2.2479	-3.1208	-2.8271	-3.1104	-3.2042	-2.9	-3.0271	-3.2167	-2.8292	-3.0229	-3.1562	-2.8708	-3.1896	-3.0104	-3.1562	-3.0271	209.311	278.836	285.368	403.589	201.090	388.918	403.158	115.844	275.383	337.221	317.726	343.563	447.623	232.154	105.258	344.811	0.0008401	0.00024919	4.4497e-05	1171.8	3.8936e-06	8.0854e-06	1248.7	251.79	8.6709e-06	7.3807e-06	310.84	86.489	67.907	19.411	1.7861e-06	27.321	0.00038545	0.00037207	0.00012292	1162.9	4.0074e-06	4.1968e-06	1233.6	251.14	4.0432e-06	4.2166e-06	312.06	86.869	68.539	20.076	4.7801e-06	28.238	435.269	139.095	220.596	106.649	187.925	201.037	106.679	113.926	224.694	241.462	113.374	120.367	120.467	127.063	299.663	126.495	-8191	255	
6634.997	1	1	0	0	0.11717	0.16196	0.18717	0.19302	0.2272	0.12942	0.30829	0.32877	0.19487	0.023167	0.16125	0.33349	0.29498	0.24454	0.11795	0.2389	-2.3042	-3.2188	-2.9854	-2.8854	-3.2583	-2.8583	-3.0646	-2.9292	-2.7979	-3.1271	-2.8958	-2.875	-3.2146	-2.9104	-3.0354	-3.2646	388.946	380.234	199.383	439.557	248.121	399.412	364.993	436.566	348.134	254.533	399.753	432.358	315.865	276.919	280.348	389.440	0.00087564	0.00034765	2.7316e-05	1175.9	3.2098e-06	4.0122e-06	1244.5	252.4	6.9716e-06	3.6682e-06	309.93	87.187	68.006	19.388	5.4989e-06	27.313	0.00037148	0.00039994	0.00012206	1162.6	3.9572e-06	4.5074e-06	1232.1	251.02	4.0104e-06	4.4981e-06	311.54	87.083	68.348	20.102	4.6871e-06	28.191	436.337	187.824	447.824	106.704	273.398	204.611	106.670	113.962	276.163	310.659	113.446	120.032	120.224	127.051	295.370	126.552	-8191	255	
6635.093	1	1	0	0	0.083292	0.15569	0.1157	0.29138	0.14646	0.048672	0.35563	0.11072	0.1236	0.055118	0.12037	0.10302	0.099206	0.057472	0.17074	0.12603	-2.4333	-2.95	-2.8875	-3.1021	-3.1458	-2.6437	-3.1979	-2.9396	-2.7562	-2.9854	-3.0854	-2.9167	-3.2229	-2.975	-2.8729	-3.2562	232.951	282.224	255.834	406.747	209.503	291.051	400.878	297.428	333.375	190.945	407.046	438.802	411.185	417.164	181.435	325.275	0.00086547	0.00059908	4.2576e-05	1176.2	7.951e-06	2.8787e-06	1245.9	252.42	5.3957e-06	6.3985e-06	310.72	87.19	67.865	19.506	5.2558e-06	27.361	0.0003824	0.00043187	0.00011806	1163.2	4.0267e-06	4.6783e-06	1231.5	251.02	3.9995e-06	4.6848e-06	311.14	86.914	68.434	20.15	4.3693e-06	28.109	437.661	169.696	444.349	106.892	239.086	227.132	106.542	113.951	214.581	239.216	113.397	120.195	120.367	127.105	236.685	126.327	-8191	255	
6635.190	1	1	0	0	0.11999	0.18179	0.24745	0.1536	0.033685	0.067322	0.09487	0.13717	0.15449	0.2143	0.25675	0.19145	0.12159	0.42383	0.39164	0.078063	-2.4271	-3.0292	-2.9	-2.9813	-2.9062	-2.9083	-2.9979	-3.1792	-2.7583	-3.2896	-2.9083	-2.7979	-2.9958	-2.8042	-2.8	-3.325	358.343	380.088	123.762	110.950	248.154	356.367	159.390	295.002	221.290	309.513	389.209	124.378	124.708	386.367	289.279	153.462	0.00098751	0.00020525	9.811e-05	1172.5	1.0764e-05	1.7151e-06	1247	250.7	8.7205e-06	2.7952e-06	309.63	86.267	68.139	19.34	3.117e-06	27.277	0.00038522	0.00042946	0.00010868	1159.9	4.12e-06	4.7019e-06	1230.7	250.49	4.1982e-06	4.6397e-06	309.97	86.706	68.621	20.088	4.2616e-06	28.049	429.435	154.623	301.976	106.628	245.536	232.567	106.794	114.099	234.235	276.446	113.611	119.988	119.896	127.120	412.719	126.573	-8191	255	
6635.286	1	1	0	0	0.23551	0.073552	0.027075	0.12589	0.11187	0.072765	0.21455	0.1241	0.25394	0.17295	0.20494	0.045394	0.22973	0.11213	0.048572	0.047014	-2.3708	-3.0667	-3.0812	-2.8729	-3.15	-2.9542	-3.1021	-3.2396	-2.6042	-3.0271	-3.5146	-2.6625	-3.1521	-3.0229	-2.6958	-3.3146	377.992	173.838	114.889	414.368	181.393	181.661	325.142	325.468	210.139	422.354	290.180	434.828	146.842	306.342	321.845	182.256	0.00088612	0.00034478	0.00011882	1170.6	6.6164e-06	2.2883e-06	1243.6	253.09	2.6613e-06	2.1633e-06	309.93	86.603	68.713	19.323	3.6563e-06	27.372	0.00040221	0.0004161	0.00010498	1157.3	4.3494e-06	4.4966e-06	1228.7	250.42	4.4014e-06	4.4686e-06	310.42	86.805	68.839	20.03	4.054e-06	28.041	433.083	185.190	304.887	106.739	204.560	426.608	106.617	114.038	136.857	186.359	113.405	119.963	120.254	127.181	235.414	126.567	-8191	255	
6635.382	1	1	0	0	0.22914	0.093067	0.17884	0.29553	0.064378	0.075849	0.25513	0.1938	0.19794	0.099714	0.1295	0.23302	0.29098	0.015144	0.14775	0.34945	-2.3604	-2.9604	-3.1813	-2.8688	-2.9625	-3.1437	-2.9375	-3.2292	-3.0104	-2.9396	-3.1521	-2.9229	-2.9646	-2.9833	-2.8104	-3.15	432.684	116.282	441.040	432.279	129.037	323.248	407.005	419.242	117.079	123.820	446.563	122.501	112.635	217.387	259.236	344.299	0.00076366	0.00031189	4.6524e-05	1172.8	9.5394e-06	3.304e-06	1244.3	252.91	4.8966e-06	3.8504e-06	308.42	86.382	67.593	19.435	3.1789e-06	27.345	0.00041132	0.00039024	0.00010063	1158.5	4.4368e-06	4.2455e-06	1228.5	250.63	4.5147e-06	4.2774e-06	309.29	86.784	68.798	20.026	3.9945e-06	28.101	423.366	129.653	416.777	106.828	234.034	279.880	106.626	113.595	241.347	260.284	113.412	120.065	120.425	127.152	207.020	126.403	-8191	255	
6635.478	1	1	0	0	0.19528	0.14825	0.071109	0.2858	0.14157	0.15481	0.40222	0.23951	0.19147	0.14763	0.073042	0.20932	0.1952	0.1558	0.18795	0.20671	-2.4938	-3.0771	-3.1542	-2.7271	-3.0583	-3.0542	-3.0771	-2.9792	-3.0792	-2.9104	-3.2687	-2.7771	-2.9854	-3.1271	-2.7958	-3.3604	319.660	210.788	185.230	125.087	138.230	314.842	417.426	368.759	444.693	210.242	294.891	221.453	101.794	401.631	255.208	228.722	0.001067	9.643e-05	0.00014853	1170.8	6.3014e-06	1.1189e-06	1242.1	252.35	4.9068e-06	3.0111e-06	311.09	86.297	67.846	19.346	5.1134e-06	27.298	0.00042223	0.00038068	9.8303e-05	1160	4.6043e-06	4.1331e-06	1225.6	251.15	4.5106e-06	4.1491e-06	309.93	86.914	68.862	19.994	4.1044e-06	28.28	444.574	295.920	176.983	106.663	266.084	216.476	106.662	113.577	210.711	250.612	113.556	120.198	120.377	127.616	249.861	126.689	-8191	255	
6635.599	1	1	0	0	0.15784	0.17585	0.17369	0.25496	0.15445	0.070777	0.24123	0.063022	0.07896	0.21981	0.048091	0.16391	0.076234	0.080763	0.058482	0.33793	-2.3917	-2.7188	-2.9979	-3.0333	-3.0583	-2.9729	-3.1458	-3.2083	-2.9771	-2.9271	-3.3146	-2.9062	-3.0208	-3.1667	-2.5062	-3.0729	179.938	105.170	381.313	352.696	218.325	422.937	386.705	146.419	388.703	139.274	430.514	213.202	384.617	105.336	382.900	346.086	0.00084593	0.0003215	9.1123e-05	1171.3	3.0553e-06	3.6778e-06	1242.9	250.2	4.1221e-06	4.0451e-06	310.15	86.627	67.994	19.405	8.8035e-06	27.198	0.00042927	0.00040026	0.00010463	1161.2	4.8455e-06	4.2689e-06	1227	251.46	4.7249e-06	4.4568e-06	310.11	87.325	68.947	20.011	4.3844e-06	28.383	446.397	161.476	184.548	106.758	361.721	341.774	106.621	113.854	197.545	300.374	113.690	120.183	120.566	127.148	241.815	126.427	-8191	255	
6635.695	1	1	0	0	0.1758	0.21891	0.065935	0.16562	0.17983	0.29566	0.31264	0.16066	0.18013	0.24231	0.11036	0.15866	0.18481	0.26301	0.042475	0.11562	-2.6667	-2.6937	-3.1021	-3.1375	-3.25	-3.1396	-3.0438	-3.2354	-2.7979	-2.8771	-3.2771	-2.9375	-2.8438	-3.2188	-2.7625	-3.0208	173.081	302.216	276.136	422.846	285.727	286.623	380.137	358.366	136.500	415.524	408.056	121.782	411.345	314.025	370.994	322.753	0.00088299	0.00063706	3.2829e-05	1165.8	4.2712e-06	3.577e-06	1239.4	251.1	5.0725e-06	4.3286e-06	309.13	86.454	68.003	19.344	1.0098e-05	27.248	0.00043277	0.00041044	0.00010903	1161	4.6997e-06	4.2365e-06	1227.8	251.64	4.5479e-06	4.3611e-06	310.61	87.374	68.691	19.979	4.4715e-06	28.402	430.471	181.012	216.147	106.463	192.072	177.992	106.699	114.024	163.551	251.170	113.453	119.952	120.431	127.091	199.946	126.090	-8191	255	
6635.789	1	1	0	0	0.095177	0.14815	0.23404	0.33641	0.16846	0.082394	0.16835	0.093175	0.18426	0.087432	0.060191	0.10647	0.023084	0.1794	0.14755	0.2013	-2.6188	-2.7583	-3.05	-2.9938	-2.8458	-3.3896	-3.0458	-3.1063	-3.0563	-2.8042	-3.3146	-2.975	-2.8396	-3.5417	-2.9313	-2.9771	381.768	260.729	132.340	377.220	245.168	248.747	405.050	451.977	126.417	441.043	292.468	454.174	346.773	156.658	262.220	352.994	0.0010338	0.00050383	4.3106e-05	1173.9	6.9756e-06	1.9421e-06	1243.9	252.1	6.4709e-06	1.0713e-06	311.63	86.622	68.525	19.338	6.2803e-06	27.359	0.00041519	0.00039758	0.00011539	1164	4.6692e-06	4.2612e-06	1230.1	252.52	4.5146e-06	4.4026e-06	312.64	87.502	69.04	20.026	4.9977e-06	28.486	438.923	134.643	118.812	106.624	227.510	182.916	106.607	113.803	213.630	241.735	113.345	119.851	120.393	127.202	244.891	126.615	-8191	255	
6635.885	1	1	0	0	0.10558	0.24374	0.3668	0.19581	0.23251	0.25019	0.23777	0.25805	0.082163	0.21231	0.13601	0.13654	0.35061	0.21996	0.26112	0.072897	-2.8167	-2.8604	-3.0875	-2.9604	-2.8875	-3.3063	-3.0833	-3.1437	-3.1854	-2.7604	-3.3292	-2.8646	-2.8625	-3.3854	-3.0104	-2.9292	232.363	246.429	203.265	101.934	436.529	117.431	348.712	377.436	96.261	342.414	455.407	329.916	334.539	413.205	317.619	247.787	0.0010197	0.00076628	3.0287e-05	1174.1	1.6276e-06	7.5415e-06	1239.9	252.15	3.6633e-06	7.1115e-06	310.08	86.449	68.344	19.352	6.0674e-06	27.443	0.00041949	0.00040865	0.00012798	1165.2	4.6657e-06	4.3631e-06	1233.1	252.62	4.5719e-06	4.5105e-06	312.74	87.389	68.989	20.078	5.3191e-06	28.487	428.144	177.087	343.623	106.737	210.340	174.589	106.914	114.007	246.121	178.087	113.521	119.747	120.451	127.210	238.501	126.669	-8191	255	
#DATA ENDS
