BOXY.EXE: ISS Imagent and Oximeter Data Acquisition Program Version 0.80
Ascii Record File

#ACQ INFORMATION
2  Detector Channels 
16  External MUX Channels 
1  Auxiliary Channels 
5000  Waveform (CCF) Frequency (Hz)
1  Waveforms Skipped 
30  Waveforms Averaged 
1  Cycles Averaged 
16  Acquisitions per Waveform 
10.0806  Updata Rate (Hz) 

#FILE INFORMATION
TRUE -- External MUX Channel results are PARSED.
FALSE -- AC DC and Phase are NOT grouped.
TRUE -- Companion Program Settings File CREATED.
FALSE -- AC data not excluded
FALSE -- DC data not excluded
FALSE -- Phase data not excluded
FALSE -- Auxillary Chn. data not excluded
Tab delimiters

#CALIBRATION STATE
TRUE -- Waveform Calibration Values APPLIED.


#AUX CALIBRATION VALUES
Val Type	aux-1	

Term	1.0000e+00	
Factor	0.0000e+00	


#WF CALIBRATION VALUES
A = Detector Channel
Val Type	A-AC1	A-AC2	A-AC3	A-AC4	A-AC5	A-AC6	A-AC7	A-AC8	A-AC9	A-AC10	A-AC11	A-AC12	A-AC13	A-AC14	A-AC15	A-AC16	A-DC1	A-DC2	A-DC3	A-DC4	A-DC5	A-DC6	A-DC7	A-DC8	A-DC9	A-DC10	A-DC11	A-DC12	A-DC13	A-DC14	A-DC15	A-DC16	A-Ph1	A-Ph2	A-Ph3	A-Ph4	A-Ph5	A-Ph6	A-Ph7	A-Ph8	A-Ph9	A-Ph10	A-Ph11	A-Ph12	A-Ph13	A-Ph14	A-Ph15	A-Ph16	

Term	0.00000e+00	0.00000e+00	0.00000e+00	0.00000e+00	0.00000e+00	0.00000e+00	0.00000e+00	0.00000e+00	0.00000e+00	0.00000e+00	0.00000e+00	0.00000e+00	0.00000e+00	0.00000e+00	0.00000e+00	0.00000e+00	0.00000e+00	0.00000e+00	0.00000e+00	0.00000e+00	0.00000e+00	0.00000e+00	0.00000e+00	0.00000e+00	0.00000e+00	0.00000e+00	0.00000e+00	0.00000e+00	0.00000e+00	0.00000e+00	0.00000e+00	0.00000e+00	0.00000e+00	0.00000e+00	0.00000e+00	0.00000e+00	0.00000e+00	0.00000e+00	0.00000e+00	0.00000e+00	0.00000e+00	0.00000e+00	0.00000e+00	0.00000e+00	0.00000e+00	0.00000e+00	0.00000e+00	0.00000e+00	
Factor	1.00000e+00	1.00000e+00	1.00000e+00	1.00000e+00	1.00000e+00	1.00000e+00	1.00000e+00	1.00000e+00	1.00000e+00	1.00000e+00	1.00000e+00	1.00000e+00	1.00000e+00	1.00000e+00	1.00000e+00	1.00000e+00	1.00000e+00	1.00000e+00	1.00000e+00	1.00000e+00	1.00000e+00	1.00000e+00	1.00000e+00	1.00000e+00	1.00000e+00	1.00000e+00	1.00000e+00	1.00000e+00	1.00000e+00	1.00000e+00	1.00000e+00	1.00000e+00	X	X	X	X	X	X	X	X	X	X	X	X	X	X	X	X	

B = Detector Channel
Val Type	B-AC1	B-AC2	B-AC3	B-AC4	B-AC5	B-AC6	B-AC7	B-AC8	B-AC9	B-AC10	B-AC11	B-AC12	B-AC13	B-AC14	B-AC15	B-AC16	B-DC1	B-DC2	B-DC3	B-DC4	B-DC5	B-DC6	B-DC7	B-DC8	B-DC9	B-DC10	B-DC11	B-DC12	B-DC13	B-DC14	B-DC15	B-DC16	B-Ph1	B-Ph2	B-Ph3	B-Ph4	B-Ph5	B-Ph6	B-Ph7	B-Ph8	B-Ph9	B-Ph10	B-Ph11	B-Ph12	B-Ph13	B-Ph14	B-Ph15	B-Ph16	

Term	0.00000e+00	0.00000e+00	0.00000e+00	0.00000e+00	0.00000e+00	0.00000e+00	0.00000e+00	0.00000e+00	0.00000e+00	0.00000e+00	0.00000e+00	0.00000e+00	0.00000e+00	0.00000e+00	0.00000e+00	0.00000e+00	0.00000e+00	0.00000e+00	0.00000e+00	0.00000e+00	0.00000e+00	0.00000e+00	0.00000e+00	0.00000e+00	0.00000e+00	0.00000e+00	0.00000e+00	0.00000e+00	0.00000e+00	0.00000e+00	0.00000e+00	0.00000e+00	-1.65095e+02	-1.36760e+02	-1.28228e+02	-1.79802e+02	-7.58801e+01	-8.06562e+01	-1.58085e+02	-1.62015e+02	-8.34201e+01	-6.02352e+01	-1.69977e+02	-1.71992e+02	-1.83057e+02	-1.76155e+02	-6.30896e+01	-1.48803e+02	
Factor	2.68855e-05	1.33963e-04	4.06587e-05	1.73064e-01	1.18092e-06	1.38058e-06	1.79830e-01	6.39379e-02	1.39152e-06	1.46583e-06	8.33553e-02	3.13931e-02	2.72019e-02	8.97484e-03	1.12261e-06	1.30680e-02	1.59552e-06	1.68252e-06	4.69401e-07	8.55044e-02	1.82819e-08	1.84544e-08	8.38191e-02	3.15264e-02	1.83315e-08	1.84551e-08	3.98753e-02	1.49757e-02	1.33735e-02	4.44832e-03	1.83795e-08	6.25309e-03	X	X	X	X	X	X	X	X	X	X	X	X	X	X	X	X	



#DISTANCE SETTINGS
A = Detector Channel
A-1	A-2	A-3	A-4	A-5	A-6	A-7	A-8	A-9	A-10	A-11	A-12	A-13	A-14	A-15	A-16	

2.5000e+00	3.0000e+00	2.5000e+00	3.0000e+00	2.0000e+00	3.0000e+00	1.5000e+00	3.0000e+00	3.0000e+00	3.0000e+00	3.0000e+00	3.0000e+00	3.0000e+00	3.0000e+00	1.5000e+00	3.0000e+00	

B = Detector Channel
B-1	B-2	B-3	B-4	B-5	B-6	B-7	B-8	B-9	B-10	B-11	B-12	B-13	B-14	B-15	B-16	

1.0000e+01	1.0000e+01	1.0000e+01	1.4400e+00	1.0000e+01	1.0000e+01	1.5100e+00	1.9400e+00	1.0000e+01	1.0000e+01	1.9900e+00	2.4900e+00	2.4100e+00	2.9000e+00	1.0000e+01	2.9800e+00	




#DATA BEGINS
time	group	step	mark	flag	A-AC1	A-AC2	A-AC3	A-AC4	A-AC5	A-AC6	A-AC7	A-AC8	A-AC9	A-AC10	A-AC11	A-AC12	A-AC13	A-AC14	A-AC15	A-AC16	A-DC1	A-DC2	A-DC3	A-DC4	A-DC5	A-DC6	A-DC7	A-DC8	A-DC9	A-DC10	A-DC11	A-DC12	A-DC13	A-DC14	A-DC15	A-DC16	A-Ph1	A-Ph2	A-Ph3	A-Ph4	A-Ph5	A-Ph6	A-Ph7	A-Ph8	A-Ph9	A-Ph10	A-Ph11	A-Ph12	A-Ph13	A-Ph14	A-Ph15	A-Ph16	B-AC1	B-AC2	B-AC3	B-AC4	B-AC5	B-AC6	B-AC7	B-AC8	B-AC9	B-AC10	B-AC11	B-AC12	B-AC13	B-AC14	B-AC15	B-AC16	B-DC1	B-DC2	B-DC3	B-DC4	B-DC5	B-DC6	B-DC7	B-DC8	B-DC9	B-DC10	B-DC11	B-DC12	B-DC13	B-DC14	B-DC15	B-DC16	B-Ph1	B-Ph2	B-Ph3	B-Ph4	B-Ph5	B-Ph6	B-Ph7	B-Ph8	B-Ph9	B-Ph10	B-Ph11	B-Ph12	B-Ph13	B-Ph14	B-Ph15	B-Ph16	aux-1	digaux	

1316.230	1	1	0	256	0.29872	0.11482	0.25512	0.38703	0.23301	0.1844	0.1557	0.21955	0.061139	0.16732	0.20229	0.12451	0.03409	0.2145	0.086531	0.16284	-3.0146	-3.5812	-3.4167	-3.575	-3.7313	-3.2562	-3.7146	-3.9042	-3.2646	-3.7208	-3.7188	-3.5229	-3.7812	-3.5333	-3.6979	-3.8417	143.469	-50.557	2.374	268.978	15.970	63.349	120.802	223.391	270.582	-5.881	79.149	135.898	49.628	-52.802	140.255	160.423	0.00016622	0.00043671	0.00012388	1369.4	3.1391e-06	5.9531e-06	1364.3	365.58	5.4282e-06	9.9995e-06	417.84	137.94	119.45	41.096	4.7961e-06	50.924	0.0011288	0.0012002	0.00036858	1417.7	1.222e-05	1.3909e-05	1419.7	384.89	1.3075e-05	1.419e-05	443.71	148.06	127.38	44.316	1.5156e-05	54.876	105.335	84.501	6.732	-42.076	5.788	118.983	-42.173	-37.762	88.283	188.595	-38.037	-33.713	-33.183	-28.492	42.893	-29.235	-8191	255	
1316.351	1	1	0	0	0.11141	0.19343	0.24887	0.18708	0.17255	0.2862	0.22981	0.08603	0.42271	0.17623	0.061464	0.096967	0.048024	0.19637	0.18215	0.10349	-2.9625	-3.675	-3.3354	-3.5667	-3.6146	-3.5167	-3.6958	-3.7292	-3.4	-3.7583	-3.5979	-3.6	-3.8187	-3.5104	-3.7292	-3.8167	274.910	161.173	220.579	261.935	49.193	263.104	291.852	-32.936	-46.470	-2.383	14.283	223.966	264.052	288.394	110.908	137.192	0.00035358	0.00035708	0.00022791	1372.9	4.0961e-06	4.4487e-06	1364.7	365.79	8.2848e-06	3.2016e-06	418.57	138.21	119.2	41.264	8.0478e-06	50.861	0.0011899	0.0013676	0.00037742	1424.6	1.2788e-05	1.5065e-05	1419.7	384.55	1.3039e-05	1.4708e-05	441.38	147.2	126.88	44.266	1.3553e-05	54.32	122.617	102.834	-17.669	-42.090	203.440	155.463	-42.037	-37.821	144.415	168.154	-38.096	-34.058	-33.387	-28.355	32.915	-29.329	-8191	255	
1316.447	1	1	0	0	0.053104	0.12117	0.19733	0.25409	0.18998	0.08026	0.19828	0.1494	0.083166	0.14569	0.3193	0.25748	0.40926	0.14323	0.25849	0.063948	-2.9437	-3.525	-3.5396	-3.4875	-3.8521	-3.4208	-3.6646	-3.8354	-3.5563	-3.5771	-3.5292	-3.4146	-3.9625	-3.6167	-3.5563	-3.725	8.189	43.976	113.536	284.046	127.974	-27.234	280.881	282.872	226.464	299.956	245.345	-43.817	275.321	15.620	193.695	202.033	0.00045395	0.00051598	0.0001309	1368.6	4.2119e-06	1.1513e-06	1364.3	365.41	8.1471e-06	9.3609e-06	417.5	138.12	119.88	41.152	3.4979e-06	50.768	0.0011211	0.0012862	0.00032729	1411.5	1.2179e-05	1.376e-05	1409.1	381.01	1.2522e-05	1.3458e-05	437.21	146.16	126.8	43.877	1.202e-05	53.822	109.690	88.634	94.990	-42.218	111.782	77.607	-42.139	-37.615	141.183	21.270	-38.065	-33.844	-33.316	-28.511	128.538	-29.416	-8191	255	
1316.543	1	1	0	0	0.36648	0.16557	0.084646	0.094437	0.23357	0.15408	0.14939	0.17534	0.048591	0.15447	0.43623	0.23733	0.31225	0.13248	0.1159	0.15116	-2.9396	-3.5312	-3.4646	-3.4979	-3.6083	-3.5229	-3.6021	-3.9896	-3.3375	-3.6063	-3.8563	-3.2562	-3.5812	-3.3396	-3.3771	-3.7792	9.202	256.996	-19.680	244.853	152.207	121.967	255.433	-42.962	16.809	154.422	263.699	256.480	247.011	267.366	-31.370	155.624	0.00018405	0.00067004	0.0002855	1368.1	3.6433e-06	9.6271e-06	1361.4	366.09	3.7779e-06	8.3048e-06	419.51	137.17	119.45	41.263	5.0935e-06	50.909	0.0010802	0.0011627	0.00029192	1406.6	1.2092e-05	1.254e-05	1403.6	379.9	1.2529e-05	1.265e-05	436.67	145.56	127.14	43.803	1.1916e-05	54.035	103.958	-50.127	27.777	-42.120	212.924	81.180	-42.152	-37.583	125.699	38.386	-38.025	-33.845	-33.302	-28.501	153.914	-29.288	-8191	255	
1316.639	1	1	0	0	0.079714	0.21436	0.19394	0.2646	0.10597	0.077137	0.2386	0.16224	0.076905	0.12417	0.18305	0.06194	0.2219	0.082531	0.091963	0.03254	-2.9896	-3.3521	-3.5854	-3.325	-3.5875	-3.4375	-3.6229	-3.8104	-3.2729	-3.45	-3.8021	-3.4667	-3.7396	-3.7792	-3.2229	-3.9896	273.039	-23.828	-14.829	-36.491	228.294	123.799	286.843	268.592	22.832	-54.843	134.971	-30.286	-34.982	224.240	27.560	123.460	0.00027884	0.0011222	4.7461e-05	1367.8	1.5259e-06	4.6497e-06	1357	364.77	4.2996e-06	1.3298e-05	418.26	138.01	119.94	41.249	7.8717e-06	50.903	0.0011577	0.0011572	0.00029476	1409.1	1.2988e-05	1.2341e-05	1403.6	380.92	1.3122e-05	1.2571e-05	436.22	146.37	127.95	43.78	1.1962e-05	54.36	97.920	11.858	52.583	-42.086	104.424	102.757	-42.181	-37.720	80.406	88.432	-37.910	-33.800	-33.064	-28.596	105.347	-29.182	-8191	255	
1316.736	1	1	0	0	0.16613	0.26391	0.13877	0.096286	0.24794	0.20833	0.2249	0.080054	0.12549	0.24246	0.05407	0.2379	0.26474	0.11622	0.038159	0.24964	-2.9708	-3.3854	-3.8	-3.375	-3.7271	-3.6458	-3.5875	-3.9542	-3.4271	-3.5208	-4.0083	-3.4917	-3.6333	-3.6354	-3.5563	-3.9208	55.824	155.549	210.895	239.517	-40.039	248.527	287.096	-20.255	84.059	154.326	-27.729	-32.097	267.797	-36.804	7.707	286.401	0.00021198	0.00038393	0.00011865	1370.2	5.5384e-06	4.5918e-06	1361	365.09	4.5036e-06	1.0164e-05	417.87	138.09	120.13	41.132	4.5593e-06	51.075	0.0012025	0.0011752	0.00029918	1417.9	1.3938e-05	1.2906e-05	1408.4	384.83	1.4294e-05	1.357e-05	438.99	148.3	128.99	44.068	1.2944e-05	55.111	106.477	67.487	-20.961	-42.005	60.627	33.382	-42.209	-37.500	97.366	87.591	-38.079	-33.835	-33.468	-28.579	182.719	-29.236	-8191	255	
1316.832	1	1	0	0	0.15035	0.22533	0.30884	0.36927	0.1604	0.34953	0.34744	0.25675	0.19597	0.25417	0.23364	0.10026	0.18553	0.095742	0.33296	0.10162	-3.1667	-3.4667	-3.625	-3.5667	-3.4583	-3.5625	-3.5208	-3.8438	-3.5708	-3.3146	-3.9125	-3.5396	-3.6583	-3.9229	-3.35	-3.8833	224.381	16.801	290.237	286.319	157.248	129.352	215.022	216.789	-29.280	93.945	258.814	34.292	210.379	-42.699	-29.157	-53.744	0.0001602	0.00080545	0.0002266	1371.2	1.0992e-06	1.5081e-05	1358.1	367.37	4.2728e-06	9.4402e-06	420.26	138.67	120.36	41.293	5.4261e-06	50.999	0.0012678	0.0012479	0.00031765	1426.9	1.429e-05	1.3043e-05	1411.7	387.96	1.3837e-05	1.3295e-05	440.45	148.86	128.66	43.957	1.2853e-05	55.342	108.344	3.232	29.687	-42.054	151.081	98.173	-42.161	-37.729	74.609	43.582	-38.150	-33.705	-33.390	-28.547	175.412	-29.348	-8191	255	
1316.928	1	1	0	0	0.069746	0.14546	0.092053	0.17675	0.14266	0.13076	0.26577	0.16297	0.16239	0.21154	0.14809	0.2714	0.20277	0.27072	0.047269	0.50138	-3.2313	-3.3792	-3.7917	-3.4854	-3.5354	-3.8438	-3.4313	-3.8458	-3.5958	-3.3583	-4.0792	-3.6625	-3.7	-3.8125	-3.2604	-3.6104	48.873	280.026	-40.450	213.168	237.125	125.932	-51.272	260.505	71.539	233.962	23.165	232.766	213.876	-50.782	133.944	291.999	0.00016089	0.00076002	5.3845e-05	1373.7	2.4795e-06	3.0116e-06	1366.7	368.8	3.9191e-06	7.4251e-06	417.77	138.2	119.98	41.319	9.2858e-06	51.26	0.0011842	0.0011833	0.00032186	1429.3	1.3454e-05	1.2251e-05	1416.1	387.77	1.2951e-05	1.2568e-05	440.25	148.27	127.82	43.701	1.3145e-05	55.073	128.475	8.448	87.193	-42.102	155.654	124.463	-42.070	-37.660	27.290	71.655	-38.040	-33.657	-33.164	-28.705	179.923	-29.253	-8191	255	
1317.048	1	1	0	0	0.11231	0.03001	0.2654	0.16029	0.20648	0.048544	0.21264	0.066515	0.074935	0.28005	0.11731	0.16012	0.054456	0.11754	0.07294	0.17888	-3.1813	-3.15	-3.8375	-3.7313	-3.4083	-3.8896	-3.5854	-3.8521	-3.6729	-3.4625	-3.9813	-3.8333	-3.4542	-3.7229	-3.4667	-3.6354	-22.080	9.670	136.537	271.274	108.697	156.988	245.971	193.339	288.112	48.008	302.625	273.086	-19.996	289.895	-18.963	264.035	0.00022315	0.00043306	0.00012	1376.8	9.2763e-06	4.2512e-06	1366.6	367.44	5.4083e-06	2.5656e-06	421.17	138.08	120.29	41.289	2.2463e-06	51.068	0.001106	0.001113	0.00033239	1425.2	1.2736e-05	1.1556e-05	1418.1	386.07	1.1991e-05	1.1856e-05	442.67	147.5	127.42	43.517	1.3141e-05	54.646	151.628	100.577	47.363	-42.086	91.243	46.347	-42.078	-37.605	-19.452	102.326	-38.101	-33.948	-33.240	-28.542	191.669	-29.293	-8191	255	
1317.143	1	1	0	0	0.046238	0.22897	0.09828	0.25034	0.11151	0.28801	0.28474	0.10033	0.014296	0.18231	0.23855	0.095636	0.34498	0.1802	0.18052	0.15504	-3.3271	-3.5146	-3.6083	-3.6021	-3.3604	-3.8333	-3.6479	-3.6771	-3.9062	-3.4021	-3.6875	-3.6958	-3.2604	-3.7396	-3.4896	-3.5042	29.512	89.092	42.195	234.999	107.459	171.046	258.144	285.436	189.620	102.043	6.373	-26.326	285.613	-23.351	174.777	110.988	0.00030006	0.00086849	0.00024221	1373.4	4.6817e-06	6.6653e-06	1373	367	2.4784e-06	1.4117e-06	418.79	138.25	119.9	41.087	3.8776e-07	51.151	0.0010267	0.001056	0.00033045	1418.1	1.1595e-05	1.1052e-05	1418	383.19	1.0996e-05	1.1387e-05	439.72	146.05	126.28	43.497	1.2584e-05	54.297	90.298	53.758	85.190	-42.117	108.559	93.054	-42.291	-37.563	60.052	14.718	-38.051	-33.829	-33.422	-28.519	269.383	-29.299	-8191	255	
1317.216	1	1	0	0	0.13033	0.17908	0.13301	0.41575	0.20365	0.10174	0.31787	0.12641	0.02479	0.10489	0.15467	0.17988	0.21878	0.12332	0.18903	0.14058	-3.4792	-3.2875	-3.7479	-3.5521	-3.4062	-3.8625	-3.575	-3.7438	-3.725	-3.4625	-3.7479	-3.6375	-3.3667	-3.6208	-3.3375	-3.5187	247.347	266.059	228.833	242.138	164.166	180.005	210.017	-49.419	173.450	98.350	130.038	-47.489	274.077	255.220	161.840	91.792	0.00033222	0.00085941	0.00016434	1376.2	4.8562e-06	3.9939e-06	1365.4	366.39	5.1068e-06	7.0696e-06	419.29	137.91	119.06	41.147	5.2948e-06	50.958	0.00094197	0.0010508	0.00031804	1415.1	1.0826e-05	1.1376e-05	1413.1	381.83	1.0311e-05	1.1601e-05	438.84	145.48	125.57	43.555	1.1867e-05	53.979	109.515	116.663	30.493	-42.160	82.593	135.492	-42.031	-37.639	109.777	225.623	-38.054	-33.920	-33.178	-28.569	47.990	-29.266	-8191	255	
1317.335	1	1	0	0	0.11437	0.17502	0.028492	0.16429	0.36729	0.21405	0.17843	0.11484	0.015982	0.19753	0.10088	0.014413	0.056384	0.18869	0.052622	0.22623	-3.4542	-3.2417	-3.4396	-3.8396	-3.0812	-3.6917	-3.675	-3.4792	-3.7104	-3.4667	-3.6875	-3.625	-3.2313	-3.7146	-3.3417	-3.3854	29.913	-18.720	300.506	-47.240	273.415	199.329	18.110	276.846	39.626	-26.867	84.804	145.719	281.054	-55.221	101.108	-37.656	0.00032869	0.00061452	0.00019047	1371.3	2.0792e-06	6.9819e-06	1365.6	365.75	2.799e-06	6.5206e-06	418.61	138.03	119.35	41.026	4.7355e-06	51.045	0.0009094	0.0010813	0.00030504	1410.7	1.0671e-05	1.1969e-05	1409.9	380.77	1.0502e-05	1.2411e-05	438.09	145.27	125.83	43.756	1.1827e-05	54.083	125.923	63.839	54.865	-42.246	119.110	93.911	-42.388	-37.551	129.081	155.506	-38.045	-33.923	-33.271	-28.714	9.797	-29.374	-8191	255	
1317.431	1	1	0	0	0.36537	0.25198	0.21264	0.21316	0.23737	0.072155	0.023824	0.25361	0.11792	0.12985	0.12367	0.2105	0.1144	0.12633	0.18624	0.17299	-3.2667	-3.4437	-3.625	-3.7229	-3.2729	-3.6333	-3.8542	-3.4417	-3.7833	-3.5438	-3.6146	-3.7042	-3.3167	-3.7354	-3.6042	-3.3583	37.606	5.298	252.102	-22.065	195.782	272.216	277.682	-31.110	37.745	-30.878	51.645	197.858	25.196	-44.421	-43.703	186.288	0.00024607	0.00046806	0.00010933	1375.8	2.0243e-06	3.7073e-06	1365.8	366.63	5.6949e-06	4.0969e-06	417.96	137.22	119.24	41.165	2.1823e-06	50.804	0.00096858	0.0011632	0.00030795	1413.9	1.1413e-05	1.2893e-05	1410.2	381.23	1.1471e-05	1.3029e-05	437.34	145.03	126.76	43.884	1.1814e-05	53.989	119.641	105.982	51.129	-42.056	165.989	62.962	-42.216	-37.439	212.446	129.671	-38.112	-33.770	-33.298	-28.551	126.719	-29.264	-8191	255	
1317.527	1	1	0	0	0.070849	0.13985	0.15481	0.16814	0.035857	0.087614	0.3601	0.21524	0.10842	0.15245	0.28023	0.12134	0.17811	0.28495	0.195	0.35721	-3.3604	-3.3312	-3.4646	-3.9062	-3.4333	-3.7729	-3.8917	-3.4667	-3.7271	-3.4979	-3.3771	-3.8104	-3.3521	-3.7313	-3.4667	-3.4125	79.665	63.441	-26.747	236.739	149.127	97.031	-55.187	212.776	54.600	116.731	241.370	294.500	282.528	-44.170	63.558	294.980	0.0003191	0.00097289	0.00022963	1374.1	3.2696e-06	5.4943e-06	1366.4	365.94	9.9659e-06	7.4611e-06	418.05	137.74	119.22	41.184	5.8163e-06	51.027	0.0010648	0.0011782	0.00030819	1412.4	1.2353e-05	1.292e-05	1408.3	381.19	1.2202e-05	1.2491e-05	436.81	144.97	126.91	43.814	1.1158e-05	53.981	115.998	2.492	-20.224	-42.070	110.291	24.975	-42.235	-37.666	145.921	24.881	-37.925	-33.794	-33.117	-28.693	114.768	-29.381	-8191	255	
1317.624	1	1	0	0	0.1304	0.28119	0.12404	0.073219	0.087042	0.065334	0.11323	0.16107	0.13671	0.11234	0.24669	0.088598	0.14517	0.081303	0.14621	0.29614	-3.3375	-3.6125	-3.3729	-3.9708	-3.4062	-3.6667	-3.8667	-3.5104	-3.7354	-3.5542	-3.3354	-3.7542	-3.6042	-3.6167	-3.6729	-3.5812	-14.014	287.830	181.231	288.571	-54.746	274.935	83.858	-43.268	77.428	252.570	259.669	97.438	295.404	38.423	-21.190	209.829	0.0003244	0.00038367	0.00017444	1373.2	1.354e-05	5.3608e-06	1365.5	365.53	4.6871e-06	1.2218e-05	417.83	137.4	119.28	41.165	3.6747e-06	50.92	0.0010927	0.0010989	0.00029129	1409.2	1.2448e-05	1.2127e-05	1405.3	380.6	1.2455e-05	1.1763e-05	436.18	145.36	127.12	43.653	1.0918e-05	54.063	102.989	-46.484	-9.500	-42.084	98.130	158.664	-42.210	-37.636	127.778	92.449	-37.855	-33.713	-33.378	-28.456	103.094	-29.538	-8191	255	
1317.744	1	1	0	0	0.31097	0.11578	0.28185	0.19153	0.10391	0.035823	0.16361	0.19989	0.095069	0.095278	0.13091	0.11947	0.038988	0.054772	0.16649	0.14241	-3.3167	-3.5229	-3.3312	-3.7687	-3.3375	-3.5375	-3.9062	-3.5083	-3.4813	-3.5979	-3.3458	-3.9583	-3.5167	-3.5417	-3.8563	-3.4562	179.368	100.948	215.964	21.041	224.536	219.201	206.187	265.190	291.482	224.231	292.160	260.359	180.561	-21.715	212.726	182.539	0.00021767	0.00043154	0.00026047	1371.1	2.9801e-06	9.5059e-06	1364.3	364.51	2.7806e-06	5.1524e-06	418.76	137.61	119.71	41.306	2.1394e-06	50.883	0.0011273	0.001073	0.00028838	1412.1	1.2749e-05	1.1943e-05	1403.4	381.77	1.2828e-05	1.1737e-05	436.1	146.17	127.24	43.686	1.1001e-05	54.413	102.745	-8.521	60.383	-42.036	168.482	146.551	-42.223	-37.444	53.987	101.868	-38.047	-33.811	-33.335	-28.673	59.911	-29.201	-8191	255	
1317.840	1	1	0	0	0.20225	0.056543	0.25815	0.24366	0.030737	0.092102	0.17456	0.18566	0.032359	0.085902	0.13495	0.18777	0.17032	0.086436	0.099972	0.20481	-3.2438	-3.6625	-3.2417	-3.8937	-3.6042	-3.5333	-4.0687	-3.7292	-3.6333	-3.6229	-3.4229	-3.6708	-3.4313	-3.3104	-3.5771	-3.5292	243.199	-34.246	244.560	248.772	199.344	219.023	-53.232	269.067	67.546	132.808	139.978	165.793	183.449	-5.317	257.259	21.771	7.571e-05	0.00063386	8.7246e-05	1373.6	1.244e-06	1.0457e-05	1364.2	365.75	3.6549e-06	1.1077e-06	416.83	137.25	119.55	41.212	2.6188e-06	51.01	0.0011485	0.0010722	0.00029193	1418.8	1.2567e-05	1.2042e-05	1405.7	382.92	1.2618e-05	1.1584e-05	436.11	146.83	127.04	43.573	1.1135e-05	54.698	68.704	4.564	58.756	-42.164	-46.068	64.422	-42.097	-37.603	74.222	134.587	-38.048	-33.587	-33.289	-28.723	112.463	-29.368	-8191	255	
1317.912	1	1	0	0	0.18339	0.15632	0.18673	0.10118	0.082586	0.093811	0.18111	0.1027	0.10183	0.12258	0.21586	0.16713	0.11942	0.29235	0.10755	0.038474	-3.3271	-3.7792	-3.1792	-3.8812	-3.6063	-3.4104	-3.8604	-3.4313	-3.4938	-3.6688	-3.3063	-3.725	-3.6229	-3.5	-3.7021	-3.5208	269.274	142.262	-19.903	-28.811	-14.441	275.581	288.182	195.936	33.964	65.921	270.574	240.907	294.208	255.946	-44.181	127.620	9.9822e-05	0.00089855	0.00024675	1375.6	5.6095e-06	1.8254e-06	1363.4	366.63	5.4336e-06	6.9762e-06	418.9	137.48	119.3	41.352	2.3697e-06	51.163	0.0010988	0.0010311	0.00029482	1419.7	1.1918e-05	1.146e-05	1406.3	383.85	1.2093e-05	1.1043e-05	437.23	146.8	126.29	43.527	1.1656e-05	54.593	82.919	17.278	58.214	-42.169	54.126	-38.406	-42.028	-37.570	66.687	165.544	-38.120	-33.855	-33.213	-28.428	97.243	-29.230	-8191	255	
1318.008	1	1	0	0	0.14375	0.090105	0.1661	0.1554	0.30811	0.13073	0.13669	0.17659	0.088026	0.27911	0.0062305	0.091293	0.085885	0.092873	0.23907	0.06188	-3.3625	-3.8521	-3.2938	-3.9021	-3.55	-3.3854	-3.8333	-3.4979	-3.5125	-3.7	-3.6021	-3.6292	-3.775	-3.2458	-3.7271	-3.5104	49.651	-34.697	259.766	294.881	238.750	221.505	262.773	-17.389	74.967	282.968	260.396	-39.560	-55.184	-35.977	242.033	172.714	0.00031586	0.00038439	0.00014275	1374.7	6.8018e-06	5.5031e-06	1361.2	364.6	6.6856e-06	4.3882e-06	417.85	137.26	119.76	41.019	5.8208e-06	50.88	0.0010493	0.0009838	0.00030849	1418.6	1.1386e-05	1.1037e-05	1407.3	381.57	1.1515e-05	1.0484e-05	437.3	146.06	125.74	43.345	1.2084e-05	54.223	100.423	65.892	46.836	-42.177	99.890	-26.510	-42.062	-37.661	142.804	89.837	-37.849	-33.762	-33.309	-28.324	132.134	-29.262	-8191	255	
1318.127	1	1	0	0	0.19132	0.059585	0.11727	0.23292	0.14763	0.15687	0.2091	0.29095	0.03721	0.17856	0.22789	0.26823	0.21271	0.018532	0.14488	0.15164	-2.9417	-3.8521	-3.1417	-3.7167	-3.5187	-3.6479	-3.8458	-3.6208	-3.2917	-3.6042	-3.5083	-3.6396	-3.6354	-3.3833	-3.7396	-3.5229	281.477	244.898	4.775	251.840	283.087	250.386	222.393	264.234	148.697	64.812	13.025	-42.298	267.169	84.425	204.219	-43.894	0.00024688	0.00065824	0.00022252	1373	5.8414e-06	4.4243e-06	1362.9	365.54	5.1323e-06	1.991e-06	417.13	137.74	119.2	40.903	3.6547e-07	51.011	0.0010053	0.00096314	0.00031711	1414.6	1.0958e-05	1.1058e-05	1409.7	380.64	1.1323e-05	1.0871e-05	437.5	145.99	125.51	43.344	1.2426e-05	53.957	113.617	93.916	91.933	-42.263	115.156	174.117	-42.152	-37.518	85.254	152.595	-37.995	-33.697	-33.493	-28.673	75.535	-29.574	-8191	255	
1318.223	1	1	0	0	0.073117	0.19238	0.075564	0.14469	0.13239	0.04144	0.23133	0.25813	0.23658	0.16864	0.17063	0.22629	0.081211	0.33252	0.19743	0.031555	-2.9979	-3.8771	-3.5375	-3.7896	-3.6896	-3.5083	-3.6771	-3.5875	-3.4021	-3.6958	-3.5333	-3.475	-3.8937	-3.4938	-3.7771	-3.8104	-52.346	-54.573	-45.998	237.956	252.931	81.975	181.211	228.748	146.498	-21.483	-1.356	-28.661	252.345	269.431	32.765	-28.880	0.00026957	0.00058603	0.00013526	1364	1.9736e-06	4.6454e-06	1357	364.47	3.3575e-06	5.263e-06	417.53	138.01	119.58	41.019	2.9551e-06	50.923	0.00096887	0.00099842	0.00031248	1408.2	1.0359e-05	1.1339e-05	1406.5	379.29	1.0737e-05	1.1226e-05	436.7	145.38	125.16	43.475	1.2154e-05	53.846	99.245	142.324	46.445	-42.017	100.801	255.212	-42.100	-37.589	101.715	151.881	-38.145	-33.713	-33.193	-28.662	93.997	-29.389	-8191	255	
1318.321	1	1	0	0	0.055936	0.27495	0.17845	0.26159	0.25036	0.18803	0.44216	0.14475	0.19939	0.038918	0.27463	0.12362	0.27985	0.14111	0.091515	0.30989	-3.15	-3.8312	-3.5333	-3.6063	-3.7979	-3.5542	-3.7708	-3.7875	-3.4958	-3.7771	-3.5521	-3.5312	-3.9333	-3.5271	-3.7521	-3.8625	164.238	121.675	70.733	263.325	265.252	33.809	278.310	232.564	279.044	171.187	286.769	-23.642	-8.376	-8.163	28.203	219.489	0.0001264	0.00047794	8.3183e-05	1366.7	3.2175e-06	4.0437e-06	1359.5	364.47	2.4564e-06	9.0761e-06	417.3	136.96	119.41	40.935	5.6935e-06	50.892	0.00094432	0.0010651	0.00030507	1406.7	1.0293e-05	1.2087e-05	1406.2	378.83	1.0742e-05	1.2072e-05	436.23	144.97	125.23	43.568	1.1912e-05	53.816	96.786	141.136	64.761	-42.017	79.321	22.438	-42.137	-37.544	-13.491	97.817	-37.915	-33.941	-33.218	-28.585	96.676	-29.439	-8191	255	
1318.440	1	1	0	0	0.2119	0.26061	0.19692	0.14913	0.20804	0.21632	0.046715	0.22622	0.12469	0.2132	0.1698	0.28647	0.015393	0.14776	0.18534	0.099399	-3.1292	-3.5792	-3.3958	-3.3667	-3.7229	-3.6375	-3.8396	-3.7854	-3.2583	-3.7854	-3.7479	-3.5	-3.8833	-3.375	-3.5208	-3.7875	164.581	228.410	100.649	6.272	53.748	1.526	79.529	208.139	30.274	253.489	223.082	-55.565	26.858	300.214	301.390	-48.079	0.00043883	0.0012526	0.00027915	1369	1.913e-06	4.5409e-06	1363.1	364.22	7.9704e-06	1.6791e-06	416.61	137.55	119.28	41.178	6.3591e-06	50.777	0.00096938	0.0011263	0.00029661	1405.9	1.0717e-05	1.2457e-05	1405.1	377.87	1.1123e-05	1.2348e-05	434.72	144.84	125.78	43.671	1.1423e-05	53.55	113.504	85.033	-10.865	-41.939	86.133	61.468	-42.128	-37.748	172.916	119.016	-38.218	-33.728	-33.333	-28.644	18.206	-29.390	-8191	255	
1318.512	1	1	0	0	0.14235	0.26591	0.17091	0.23102	0.14945	0.21035	0.1563	0.14279	0.37447	0.097894	0.056519	0.27466	0.092139	0.28598	0.048725	0.15068	-2.875	-3.6562	-3.8021	-3.5917	-3.9375	-3.4354	-3.4771	-3.8417	-3.2104	-3.7792	-3.65	-3.3792	-3.7833	-3.7604	-3.475	-4.0437	-30.088	238.879	262.725	246.956	32.852	-44.374	256.786	206.444	123.666	25.773	14.017	285.331	66.915	296.075	227.146	261.598	0.00031318	0.00046073	0.00035743	1368.3	5.3001e-06	2.691e-06	1361.5	364.2	1.3996e-06	6.2381e-06	417.28	137.96	119.15	41.184	2.3184e-06	50.875	0.0010108	0.0011112	0.00027799	1404.1	1.1159e-05	1.1791e-05	1401.4	377.26	1.1286e-05	1.171e-05	432.57	144.4	125.7	43.369	1.0613e-05	53.358	100.416	302.265	11.622	-42.023	19.335	125.502	-42.082	-37.490	89.330	51.353	-37.866	-33.807	-33.082	-28.625	159.342	-29.344	-8191	255	
1318.608	1	1	0	0	0.1781	0.39187	0.072546	0.37334	0.11748	0.1416	0.12825	0.25309	0.069734	0.14137	0.17652	0.31323	0.070204	0.3435	0.24606	0.22428	-2.9896	-3.7229	-3.7896	-3.5917	-3.7938	-3.5458	-3.3958	-3.7833	-3.4229	-3.6958	-3.6979	-3.5667	-3.6937	-3.7042	-3.3583	-3.7938	148.052	204.528	82.534	244.597	155.612	249.744	237.902	245.893	145.080	18.668	268.176	219.122	286.009	-30.956	119.772	35.841	0.00032721	0.00088807	0.00019183	1365.5	3.0937e-06	2.7008e-06	1359.3	364.07	3.9583e-06	8.7192e-06	416.14	136.77	119.17	41.207	2.7223e-06	50.717	0.00099615	0.0010227	0.00026109	1400.1	1.1294e-05	1.1102e-05	1395.7	376.68	1.1655e-05	1.1268e-05	431.88	144.28	126.29	43.362	1.0653e-05	53.633	116.998	-20.277	-8.798	-41.994	302.992	73.169	-42.170	-37.558	126.156	98.639	-37.888	-33.952	-33.254	-28.730	141.465	-29.207	-8191	255	
1318.728	1	1	0	0	0.15801	0.17333	0.20807	0.28133	0.15132	0.19894	0.19503	0.013137	0.13032	0.21108	0.13263	0.089477	0.28286	0.09631	0.13118	0.031469	-3.2604	-3.2542	-3.8292	-3.4521	-3.6292	-3.5354	-3.4125	-4.0667	-3.4708	-3.5417	-3.7979	-3.4854	-3.6583	-3.5792	-3.3875	-3.8438	21.268	188.776	174.359	256.884	114.678	2.620	273.730	59.442	-9.138	24.995	245.470	52.235	-22.324	8.771	-53.701	-37.286	0.00026265	0.00040796	0.00020862	1368.3	2.9314e-06	7.1594e-06	1364	363.42	7.6237e-07	7.0846e-06	417.13	137.64	119.09	40.993	1.9633e-07	50.672	0.0010642	0.0010316	0.00026364	1405.6	1.2069e-05	1.1095e-05	1399.2	378.97	1.1983e-05	1.1336e-05	432.12	145.53	126.42	43.36	1.0737e-05	54.041	92.168	31.486	33.249	-42.055	117.797	48.800	-42.214	-37.658	83.531	137.904	-38.140	-33.718	-33.303	-28.794	95.882	-29.097	-8191	255	
1318.825	1	1	0	0	0.17239	0.1666	0.21662	0.085173	0.13432	0.14285	0.1419	0.18121	0.115	0.060375	0.090846	0.18414	0.30161	0.37131	0.12474	0.14578	-3.3	-3.4396	-3.9042	-3.5354	-3.5604	-3.575	-3.5333	-3.8979	-3.6479	-3.3854	-3.9854	-3.4625	-3.6667	-3.7333	-3.4104	-3.8792	-14.009	69.858	230.317	287.729	-2.857	231.080	256.520	248.482	-14.802	-47.381	261.643	250.838	283.576	228.859	-34.700	171.909	0.00023363	0.0006062	0.00013524	1366.4	2.8862e-06	3.1938e-06	1361.6	364.23	3.2235e-06	7.8713e-06	418.3	137.2	119.64	41.288	4.1709e-06	50.941	0.0010857	0.0010566	0.00026871	1411	1.23e-05	1.1252e-05	1400.3	381.23	1.2211e-05	1.1702e-05	433.74	146.51	126.92	43.533	1.119e-05	54.507	89.297	-47.587	292.280	-42.157	138.260	-4.596	-42.175	-37.619	98.368	65.015	-37.874	-33.882	-33.357	-28.387	9.005	-29.337	-8191	255	
1318.921	1	1	0	0	0.10621	0.29279	0.066711	0.25722	0.24654	0.037192	0.17457	0.27804	0.078867	0.13085	0.55734	0.1744	0.11944	0.11637	0.12015	0.20044	-3.2271	-3.4042	-3.8354	-3.4688	-3.5687	-3.4792	-3.6521	-3.8708	-3.6083	-3.5958	-3.7604	-3.4979	-3.7083	-3.8563	-3.1875	-3.8688	-32.518	55.646	292.913	247.990	175.429	-29.837	204.777	296.834	291.535	66.642	281.866	-16.015	168.153	-50.966	226.793	-12.451	0.00017036	0.00039619	4.8814e-05	1370	6.7913e-06	6.1711e-06	1359.3	364.46	3.7714e-06	5.6838e-07	416.1	138.08	119.82	41.289	7.3687e-06	50.957	0.0010686	0.0010491	0.00028084	1412.8	1.2011e-05	1.0884e-05	1401.4	382.34	1.1569e-05	1.1288e-05	434.64	146.76	126.51	43.415	1.1543e-05	54.511	135.301	110.911	49.714	-42.089	72.215	50.359	-42.078	-37.574	45.454	27.779	-38.020	-33.923	-33.414	-28.715	193.463	-29.272	-8191	255	
1319.041	1	1	0	0	0.11702	0.20796	0.1483	0.16047	0.2699	0.060551	0.30734	0.27709	0.20335	0.18889	0.11123	0.20394	0.13738	0.13388	0.24565	0.12041	-3.225	-3.0687	-3.7479	-3.6917	-3.225	-3.7667	-3.6063	-3.8167	-3.6021	-3.4479	-3.8583	-3.7042	-3.5812	-3.9292	-3.5187	-3.7229	222.427	293.570	238.988	249.191	70.194	205.485	216.809	-55.029	173.909	131.989	246.279	220.406	283.753	299.170	125.901	249.571	0.00018462	0.00093901	0.00023427	1369.3	5.3858e-06	5.7242e-06	1362.9	365.26	5.0998e-06	9.8625e-06	416.56	138.18	119.56	41.29	5.0497e-06	51.065	0.0010026	0.001002	0.00029284	1412.4	1.1494e-05	1.0505e-05	1406	381.73	1.1177e-05	1.0954e-05	436.28	146.38	126.34	43.344	1.2173e-05	54.435	106.434	90.166	69.534	-42.179	-4.095	28.371	-42.211	-37.625	85.234	94.032	-37.736	-33.823	-33.149	-28.462	150.824	-29.192	-8191	255	
1319.136	1	1	0	0	0.2432	0.39973	0.059774	0.030414	0.17592	0.16007	0.25036	0.11469	0.065606	0.13246	0.22594	0.1252	0.18642	0.10903	0.15058	0.32641	-3.3542	-3.3063	-3.8396	-3.7042	-3.4833	-3.7875	-3.5604	-3.5375	-3.6813	-3.3375	-4.1125	-3.6729	-3.5062	-3.9375	-3.5333	-3.7583	-15.006	-26.128	196.032	276.787	-43.609	-22.964	-40.158	281.101	-13.711	49.770	-54.243	229.426	289.902	185.249	-45.055	255.475	0.00029247	0.0004723	0.00027327	1366.8	5.8288e-06	1.5723e-06	1364	365.49	9.1651e-06	2.0844e-06	416.37	137.75	119.21	41.33	5.4721e-06	51.141	0.00098945	0.0010083	0.00031401	1410.8	1.1516e-05	1.0785e-05	1409.4	381.94	1.1181e-05	1.1313e-05	438.84	146.25	126.35	43.574	1.2963e-05	54.49	110.457	97.549	56.608	-42.270	86.613	157.372	-42.301	-37.540	6.536	33.897	-38.082	-33.736	-33.168	-28.519	130.361	-29.287	-8191	255	
1319.207	1	1	0	0	0.088705	0.062968	0.22966	0.197	0.14624	0.032183	0.22906	0.11487	0.11767	0.13262	0.091366	0.22368	0.27922	0.17862	0.10271	0.16036	-3.45	-3.4417	-3.7167	-3.575	-3.45	-3.8	-3.7417	-3.6125	-3.8896	-3.4	-3.9	-3.7375	-3.4188	-3.8	-3.5042	-3.6271	70.534	180.314	205.094	258.872	199.590	175.329	251.018	79.644	121.588	274.242	-9.985	218.268	245.036	281.406	30.835	198.683	0.00019675	0.00068847	2.4455e-05	1368.8	1.0429e-05	1.0313e-05	1361.7	365.76	7.6123e-06	6.0415e-06	416.1	138.05	119.06	41.333	2.1271e-06	51.092	0.00098458	0.0010679	0.00033248	1411.2	1.1624e-05	1.1801e-05	1410.7	382.15	1.1217e-05	1.2289e-05	439.47	146.14	126.33	43.871	1.3048e-05	54.513	76.296	51.136	98.632	-42.124	83.361	79.225	-42.122	-37.659	30.589	187.929	-38.140	-33.889	-33.425	-28.574	272.951	-29.359	-8191	255	
1319.304	1	1	0	0	0.20338	0.21401	0.20539	0.1325	0.19062	0.047537	0.13835	0.12662	0.10871	0.24203	0.19961	0.11898	0.20476	0.17829	0.09887	0.12445	-3.4896	-3.1667	-3.9667	-4.0146	-3.3812	-3.9875	-3.6771	-3.6937	-3.8104	-3.5979	-3.9625	-3.7417	-3.5646	-3.9833	-3.6125	-3.6479	-18.828	-23.433	255.376	274.168	157.739	284.722	234.515	248.133	236.732	184.947	225.262	250.460	284.681	285.126	267.182	158.285	0.00010595	0.0005966	9.6844e-05	1369.4	2.5388e-06	9.0349e-06	1359.4	365.31	1.0628e-05	3.7483e-06	416.75	137.92	119.89	41.237	4.9089e-06	51.026	0.00099187	0.0011651	0.00033683	1411.6	1.1638e-05	1.2947e-05	1409.4	382.21	1.1461e-05	1.3453e-05	439.64	146.31	126.93	44.165	1.3136e-05	54.583	122.679	83.165	27.361	-42.223	128.395	136.816	-42.177	-37.510	141.613	169.790	-38.065	-33.872	-33.182	-28.633	91.593	-29.195	-8191	255	
1319.424	1	1	0	0	0.067057	0.092643	0.20799	0.1072	0.097018	0.15725	0.14254	0.050911	0.09115	0.2729	0.15817	0.18543	0.12819	0.27259	0.13427	0.20965	-3.2	-3.4083	-3.3229	-3.8812	-3.3396	-3.8083	-3.7833	-3.5125	-3.8792	-3.5062	-3.7396	-3.8583	-3.5125	-3.7917	-3.6542	-3.5229	97.758	-22.847	172.775	161.343	13.271	228.823	221.476	286.846	2.085	-1.441	202.315	276.276	232.687	272.511	140.862	263.792	0.00025692	0.0013249	0.00024215	1367.4	1.8751e-06	5.7439e-06	1355.6	366.85	1.0791e-05	3.6908e-06	418.08	138.61	119.66	41.267	4.1392e-06	51.174	0.0010447	0.0012574	0.00033963	1409.7	1.2273e-05	1.3921e-05	1409.9	382.86	1.2244e-05	1.4134e-05	440.33	146.55	127.59	44.399	1.3134e-05	54.694	103.139	31.407	90.600	-42.183	286.095	53.863	-42.127	-37.337	203.404	297.734	-37.978	-33.822	-33.448	-28.696	145.605	-29.433	-8191	255	
1319.520	1	1	0	0	0.11794	0.18384	0.13851	0.21328	0.08971	0.050635	0.22326	0.13221	0.1199	0.064866	0.23709	0.39189	0.13726	0.2997	0.12076	0.13132	-3.5021	-3.2875	-3.4938	-3.8396	-3.3937	-3.7833	-3.9396	-3.4062	-3.775	-3.4562	-3.725	-3.9708	-3.6083	-3.6813	-3.7687	-3.4583	88.074	-0.428	257.598	235.341	293.800	123.469	281.736	-34.796	204.459	132.286	292.803	222.658	-20.039	-13.919	111.179	215.777	0.00036326	0.0008636	4.6918e-05	1368.6	1.4047e-06	9.0648e-06	1361.3	364.56	8.2426e-06	1.1065e-05	416.4	138.3	120.38	41.341	2.3649e-06	51.2	0.0011348	0.0013112	0.00034091	1411.3	1.3347e-05	1.4267e-05	1410.2	382.74	1.322e-05	1.3986e-05	439.4	146.32	128.54	44.335	1.2645e-05	54.623	113.350	-24.720	118.416	-42.273	252.491	37.234	-42.001	-37.568	190.764	53.600	-37.957	-34.005	-33.287	-28.744	42.835	-29.215	-8191	255	
1319.617	1	1	0	0	0.050605	0.28485	0.34257	0.1582	0.26287	0.066455	0.30549	0.37251	0.18176	0.012339	0.37958	0.039535	0.16787	0.15148	0.14864	0.2461	-3.3542	-3.5125	-3.2583	-3.9542	-3.3333	-3.4354	-3.9271	-3.4104	-3.6833	-3.4354	-3.5708	-3.7812	-3.3292	-3.6896	-3.6771	-3.2667	28.320	141.962	132.061	-52.064	162.369	45.692	244.727	242.096	260.078	92.299	283.776	287.586	132.088	214.108	-54.718	301.106	0.00026603	0.00020738	0.00013179	1371.3	3.9867e-06	5.978e-06	1363.5	364.94	7.3821e-06	1.289e-05	416.97	137.72	119.32	41.41	3.6222e-06	50.831	0.0012115	0.0012612	0.00033176	1413.7	1.3857e-05	1.382e-05	1409.4	382.63	1.3912e-05	1.3398e-05	438.58	146.41	128.4	44.198	1.2215e-05	54.497	114.168	26.223	-9.487	-42.035	-19.608	73.347	-42.254	-37.622	184.886	58.135	-37.983	-33.788	-33.163	-28.489	-33.155	-29.517	-8191	255	
1319.713	1	1	0	0	0.090471	0.020865	0.12041	0.1756	0.13517	0.24109	0.21512	0.054825	0.15673	0.13742	0.3423	0.31679	0.1764	0.16315	0.11214	0.12717	-3.3333	-3.3771	-3.4313	-3.8458	-3.3063	-3.5375	-3.7792	-3.5563	-3.5687	-3.7104	-3.6625	-3.9104	-3.5438	-3.5646	-3.7583	-3.4792	101.829	288.326	5.858	252.594	-7.500	-15.213	267.561	184.160	10.097	303.328	231.865	260.500	272.269	-29.549	20.278	263.297	0.00021537	0.00058812	7.2986e-05	1369.1	5.8524e-06	2.1768e-06	1359.1	365.48	2.5606e-06	9.3273e-06	417.35	137.7	120.05	41.554	7.1674e-06	50.943	0.0012449	0.001202	0.00032442	1416.4	1.4296e-05	1.3631e-05	1407.1	384.03	1.4381e-05	1.3135e-05	438.58	147.33	128.58	44.229	1.2009e-05	54.957	111.807	-15.160	74.539	-42.139	88.528	53.787	-42.137	-37.220	22.963	36.113	-37.927	-33.640	-33.404	-28.532	98.287	-29.249	-8191	255	
1319.809	1	1	0	0	0.1183	0.11874	0.20151	0.28105	0.16801	0.17912	0.18339	0.24144	0.19631	0.053521	0.16316	0.080438	0.12594	0.21059	0.11999	0.053847	-3.1937	-3.7854	-3.4458	-3.9646	-3.4979	-3.5125	-4.0687	-3.4979	-3.7479	-3.6312	-3.4292	-3.8479	-3.6833	-3.6521	-3.8375	-3.5292	27.552	-14.322	47.674	-31.645	195.990	-42.240	215.282	97.161	275.377	149.964	8.862	118.192	268.227	281.679	129.051	-18.208	0.00023031	0.00091125	0.00011888	1369.4	5.9732e-06	9.7044e-06	1365	366.32	2.3172e-06	3.8776e-06	417.86	138.07	119.61	41.419	2.8336e-06	50.993	0.0012485	0.0011684	0.00031555	1419.7	1.3644e-05	1.3019e-05	1407.1	384.7	1.3599e-05	1.2427e-05	437.36	147.59	127.7	43.978	1.1602e-05	54.919	119.213	-12.736	89.175	-42.093	78.209	36.721	-42.089	-37.610	57.730	-9.879	-37.968	-33.956	-33.323	-28.389	296.260	-29.390	-8191	255	
1319.905	1	1	0	0	0.15394	0.027388	0.23848	0.38043	0.11302	0.14305	0.30158	0.14662	0.25366	0.0986	0.040104	0.21341	0.16406	0.074411	0.16993	0.17861	-3.3333	-3.6271	-3.4458	-3.9625	-3.5563	-3.2896	-4.1583	-3.4083	-3.425	-3.7042	-3.7542	-3.8875	-3.9625	-3.4792	-3.9042	-3.5	111.425	3.627	68.161	282.186	88.113	-3.577	-44.064	184.984	-24.336	282.991	-54.229	227.835	156.131	178.622	79.985	296.464	0.00013915	0.00057311	0.00032304	1370.2	5.6894e-06	5.8396e-06	1368	364.85	2.878e-06	1.165e-05	418.25	137.51	119.83	41.331	6.2905e-06	51.248	0.0011617	0.0010891	0.00030601	1418.2	1.2742e-05	1.2292e-05	1406.5	384.48	1.284e-05	1.1681e-05	437.28	147.69	127.06	43.784	1.1919e-05	54.934	117.293	283.181	34.303	-42.180	32.253	56.660	-42.367	-37.716	108.359	69.042	-37.976	-33.612	-33.323	-28.467	122.671	-29.601	-8191	255	
1320.001	1	1	0	0	0.18145	0.22062	0.14753	0.25581	0.061474	0.26604	0.11025	0.22807	0.29081	0.058548	0.065952	0.095624	0.093084	0.23489	0.18571	0.080116	-3.0417	-3.8375	-3.4354	-3.75	-3.7167	-3.3229	-3.9646	-3.7042	-3.5312	-3.6771	-3.5583	-3.8688	-3.9167	-3.5312	-3.7687	-3.5625	230.270	245.160	-46.910	291.805	22.284	-15.860	46.831	274.213	53.663	128.600	295.400	210.727	78.532	256.469	-30.342	184.963	0.00022471	0.00052077	0.00016651	1372.9	3.87e-06	6.5152e-06	1358	364.16	5.3748e-06	9.1384e-06	418.26	137.59	119.89	41.335	2.9812e-06	50.981	0.001112	0.0010392	0.00031803	1418.7	1.1967e-05	1.1726e-05	1407.3	383.09	1.2226e-05	1.1178e-05	438.32	146.9	126.63	43.671	1.2441e-05	54.612	101.409	-19.479	122.127	-42.111	115.966	64.569	-42.187	-37.649	-7.448	103.211	-37.998	-33.928	-33.356	-28.564	122.095	-29.475	-8191	255	
1320.120	1	1	0	0	0.19607	0.14589	0.0092535	0.060462	0.07929	0.13415	0.29473	0.1138	0.11043	0.11619	0.26558	0.10596	0.056692	0.083569	0.22858	0.13937	-3.1125	-3.6792	-3.4437	-3.9062	-3.7208	-3.3396	-3.8563	-3.7188	-3.5417	-3.9083	-3.5938	-3.7042	-3.7833	-3.4271	-3.7125	-3.5333	-33.100	159.477	206.311	226.000	157.318	244.083	294.581	129.239	228.274	285.027	6.864	54.515	202.887	76.238	218.566	209.553	0.00015687	0.00024028	0.00014078	1368.4	3.8204e-06	6.3043e-06	1365.2	365.57	5.0546e-06	3.0127e-06	417.27	138.08	119.97	41.255	2.4717e-06	51.063	0.0010666	0.0010069	0.00032653	1415.1	1.1542e-05	1.1501e-05	1410.4	382.3	1.1915e-05	1.12e-05	438.44	146.63	126.18	43.648	1.3011e-05	54.443	106.929	85.022	93.624	-41.993	-6.213	114.145	-42.169	-37.625	87.653	119.723	-38.033	-33.734	-33.351	-28.553	9.430	-29.490	-8191	255	
1320.216	1	1	0	0	0.2604	0.074864	0.21476	0.12152	0.14083	0.076423	0.049879	0.19491	0.19513	0.16915	0.15084	0.077918	0.20049	0.25276	0.14416	0.17515	-3.0417	-3.9604	-3.4562	-3.7396	-3.7438	-3.425	-3.7646	-3.4729	-3.3917	-3.9646	-3.6646	-3.7417	-3.8292	-3.5	-3.6271	-3.5687	108.486	254.401	41.292	272.558	123.362	144.788	145.112	298.549	158.064	273.227	-44.981	262.555	226.786	-44.504	-49.435	270.608	0.00028341	0.0010452	0.00012026	1368.3	9.7391e-06	9.4484e-06	1363	364.15	1.6609e-06	4.4114e-06	418.7	137.76	119.63	41.156	4.5072e-06	50.972	0.0010408	0.0010344	0.00033325	1411.2	1.1145e-05	1.189e-05	1409.5	380.82	1.1534e-05	1.1778e-05	439.41	146.35	126.16	43.819	1.312e-05	54.261	125.842	46.755	9.193	-42.238	101.893	191.795	-41.996	-37.555	120.208	95.236	-38.160	-33.850	-33.285	-28.596	125.573	-29.386	-8191	255	
1320.312	1	1	0	0	0.021729	0.13727	0.18434	0.21064	0.06844	0.28791	0.20328	0.032449	0.034298	0.24956	0.17736	0.094448	0.025442	0.21531	0.21087	0.19475	-2.9104	-3.7	-3.525	-3.6208	-3.6708	-3.3937	-3.8167	-3.8021	-3.2229	-3.9729	-3.6396	-3.4313	-3.9708	-3.4667	-3.6979	-3.7979	268.913	289.854	-15.046	257.842	298.191	159.075	160.785	-24.858	-15.482	268.412	94.565	11.374	189.048	-41.053	233.672	272.000	0.00029048	0.00058284	0.0001817	1365.9	3.9939e-06	2.3945e-06	1362.9	363.57	3.5398e-06	1.5436e-05	416.91	138.07	119.58	41.342	1.8095e-06	51.023	0.00102	0.0011201	0.00032982	1410.2	1.1034e-05	1.2787e-05	1410.6	380.04	1.148e-05	1.2784e-05	438.23	146.34	126.15	44.057	1.2834e-05	54.271	150.633	100.436	34.562	-41.942	124.569	298.336	-42.283	-37.608	15.018	136.057	-38.137	-33.771	-33.252	-28.650	131.522	-29.213	-8191	255	
1320.408	1	1	0	0	0.075911	0.22361	0.29154	0.22979	0.15084	0.26918	0.041554	0.21814	0.10508	0.42869	0.16623	0.22485	0.064388	0.28864	0.07995	0.2574	-2.9396	-3.7562	-3.5917	-3.4896	-3.75	-3.4813	-3.9125	-3.6937	-3.2604	-3.6625	-3.6937	-3.5438	-3.7771	-3.5833	-3.4958	-3.8708	212.523	288.864	62.440	261.472	55.795	170.211	158.526	254.412	230.876	-9.617	292.020	270.278	-55.493	271.628	181.214	222.482	0.00042631	0.00063206	0.0004085	1368.6	6.6379e-06	2.6208e-06	1362.6	365.39	2.2508e-06	1.4056e-06	417.41	137.66	119.46	41.196	3.4802e-06	51.121	0.0010329	0.0012053	0.00032361	1412	1.1391e-05	1.3414e-05	1409.2	380.72	1.1877e-05	1.331e-05	437.11	146.17	126.48	44.09	1.251e-05	54.109	111.440	-12.027	54.574	-41.932	159.981	70.116	-42.208	-37.578	188.622	71.978	-38.044	-33.791	-33.184	-28.616	103.523	-29.436	-8191	255	
1320.505	1	1	0	0	0.15984	0.06237	0.15436	0.27985	0.1287	0.15599	0.40275	0.20574	0.21606	0.25948	0.38617	0.060271	0.2268	0.13915	0.032817	0.12997	-2.9542	-3.6312	-3.4625	-3.6271	-3.9688	-3.7	-3.6542	-4.0104	-3.3958	-3.5771	-3.6458	-3.4667	-3.7521	-3.375	-3.4104	-3.8354	142.344	274.652	266.969	253.197	212.033	191.919	241.133	-32.766	-37.347	4.641	223.536	-6.682	-29.938	250.783	81.744	256.263	0.00030264	0.00064861	0.00024788	1366.6	4.0058e-06	2.4259e-06	1359.8	363.52	2.9308e-06	1.1194e-05	416.62	138.18	119.26	41.258	6.9272e-06	50.839	0.0010819	0.0012155	0.00031063	1407.8	1.2004e-05	1.325e-05	1405.5	379.56	1.2573e-05	1.3362e-05	436.16	145.89	127.08	44.035	1.2303e-05	54.011	114.636	50.665	10.873	-42.203	175.920	228.501	-42.076	-37.630	251.398	132.406	-38.042	-33.919	-33.361	-28.237	96.748	-29.182	-8191	255	
1320.601	1	1	0	0	0.21119	0.23381	0.096813	0.14891	0.089943	0.1047	0.10938	0.32807	0.29042	0.22646	0.11052	0.091821	0.18891	0.21975	0.13769	0.051983	-2.925	-3.6417	-3.6479	-3.5396	-3.7875	-3.5229	-3.6271	-4.0563	-3.4271	-3.6375	-3.7542	-3.3688	-3.8917	-3.7021	-3.3708	-3.875	51.810	44.637	30.768	18.277	301.853	282.244	168.834	231.929	185.550	126.746	292.990	212.878	-53.123	294.802	175.777	17.340	0.0003255	0.00076244	0.00012301	1364.6	4.3562e-06	5.081e-06	1359	363.9	8.8064e-07	1.2211e-05	415.94	137.3	119.59	41.257	3.8438e-06	50.921	0.0011424	0.0011973	0.00030234	1406.7	1.2795e-05	1.2829e-05	1404.2	379.14	1.3021e-05	1.2704e-05	434.7	145.45	127.07	43.771	1.1623e-05	53.906	99.659	-10.961	-3.173	-42.212	192.859	39.117	-42.184	-37.619	148.371	62.268	-38.039	-33.806	-33.269	-28.453	53.468	-29.314	-8191	255	
1320.721	1	1	0	0	0.2082	0.15959	0.17668	0.21951	0.12079	0.11331	0.27979	0.14555	0.064483	0.029266	0.1078	0.19792	0.2305	0.26075	0.050727	0.19413	-3.0542	-3.5042	-3.7438	-3.4062	-3.5896	-3.5229	-3.6604	-3.7146	-3.5417	-3.4875	-3.7146	-3.5042	-3.7417	-3.7042	-3.3208	-3.9333	-17.508	40.899	28.926	259.800	22.268	111.677	-9.988	260.589	56.798	245.322	-47.152	282.772	-49.742	224.390	270.206	83.846	0.00037394	0.00043684	0.00018965	1360.8	3.6574e-06	5.8603e-06	1356.2	362.68	6.6608e-06	7.6751e-06	414.59	137.59	119.43	41.053	1.0732e-06	50.698	0.0011208	0.0010946	0.00027673	1401.4	1.2406e-05	1.148e-05	1393.9	377.9	1.2274e-05	1.1521e-05	431.39	145.05	126.29	43.291	1.0628e-05	53.825	108.257	-8.289	15.928	-42.151	99.542	32.045	-41.958	-37.479	102.162	61.418	-38.130	-34.026	-33.091	-28.726	156.386	-29.479	-8191	255	
1320.818	1	1	0	0	0.14865	0.068685	0.27774	0.061614	0.0079277	0.19907	0.26401	0.095185	0.18708	0.18842	0.15765	0.080987	0.17836	0.23549	0.034707	0.14021	-2.9313	-3.4938	-3.9479	-3.5979	-3.7438	-3.825	-3.475	-3.7979	-3.5083	-3.2583	-3.9688	-3.3812	-3.6562	-3.8271	-3.4167	-3.7917	123.674	36.673	137.084	-47.159	56.856	265.147	273.028	21.083	6.928	32.116	257.803	21.724	152.340	268.536	70.683	296.674	0.00015987	0.00078396	6.847e-05	1359.5	2.4323e-06	6.0995e-06	1351	363.61	7.4158e-06	3.4759e-06	415.49	137.07	119.46	41.044	2.4172e-06	50.817	0.0010557	0.0010163	0.00025911	1399.4	1.1725e-05	1.0706e-05	1388.6	378.29	1.1544e-05	1.0902e-05	429.95	145.18	125.8	43.19	1.0234e-05	53.962	105.731	56.231	83.707	-42.140	140.553	32.739	-42.223	-37.493	47.977	157.678	-37.934	-33.660	-33.354	-28.439	14.984	-29.266	-8191	255	
1320.914	1	1	0	0	0.1905	0.23076	0.014035	0.26541	0.18359	0.098662	0.1386	0.16264	0.2902	0.031545	0.23557	0.20471	0.22693	0.21925	0.15006	0.18494	-2.9958	-3.3667	-3.8292	-3.6188	-3.6063	-3.6667	-3.65	-3.8125	-3.5875	-3.5125	-3.9292	-3.6042	-3.55	-3.6458	-3.2562	-3.7583	23.066	68.598	220.923	-41.270	276.557	-52.650	185.652	-5.813	157.284	-28.334	224.676	-29.872	175.092	-17.337	156.778	263.795	0.00026396	0.00054127	7.7899e-05	1359.2	6.1153e-06	5.3893e-06	1353	363.59	1.5983e-06	7.0804e-06	414.38	137.18	119.17	41.103	6.4865e-06	50.705	0.00098826	0.00096755	0.00025235	1401.1	1.1192e-05	1.0197e-05	1388.5	378.99	1.0899e-05	1.0566e-05	429.56	145.44	125.38	43.069	1.0622e-05	53.961	131.254	-12.253	263.623	-42.184	48.878	56.106	-42.226	-37.556	64.684	55.241	-37.947	-33.835	-33.197	-28.483	132.394	-29.172	-8191	255	
1321.010	1	1	0	0	0.16819	0.3128	0.19866	0.27708	0.28162	0.21255	0.26673	0.18292	0.29113	0.067853	0.22434	0.09633	0.14648	0.24687	0.10091	0.055824	-3.2938	-3.4604	-3.7521	-3.6125	-3.7396	-3.7562	-3.6625	-3.7812	-3.6063	-3.3771	-3.7333	-3.4479	-3.6188	-3.8083	-3.325	-3.775	65.631	-25.819	36.924	246.708	-55.135	3.626	-48.697	261.939	-32.130	51.513	224.400	262.201	-51.651	226.066	279.858	222.752	0.00019407	0.0011096	0.00012584	1360.2	2.2373e-06	4.1227e-06	1353.2	363.18	1.9025e-06	5.2722e-06	414.22	137.3	119.59	41.13	2.1345e-06	50.851	0.0009498	0.0009528	0.0002682	1401.4	1.0924e-05	9.9544e-06	1392.3	378.92	1.0606e-05	1.0382e-05	431.62	145.29	125.52	43.065	1.1327e-05	54.055	119.150	26.264	135.002	-42.142	291.848	9.934	-42.101	-37.483	72.482	135.503	-38.018	-33.859	-33.034	-28.310	196.092	-29.132	-8191	255	
1321.104	1	1	0	0	0.20403	0.16618	0.17605	0.1587	0.099285	0.032325	0.25077	0.039426	0.018597	0.047635	0.22269	0.039215	0.13957	0.14507	0.063849	0.21518	-3.3875	-3.375	-3.7062	-3.5542	-3.35	-3.8167	-3.7458	-3.6708	-3.6125	-3.2646	-3.7396	-3.5792	-3.4667	-3.8125	-3.3917	-3.6708	-0.515	280.006	73.912	279.984	92.814	-23.690	215.268	69.041	249.116	-47.079	300.439	-40.013	-43.244	236.305	176.005	263.069	0.00027428	0.00057452	0.0001767	1361.5	3.4687e-06	7.2545e-06	1351.3	362.66	2.5766e-06	4.4149e-06	415.62	137.14	118.89	41.185	8.9882e-06	50.884	0.00094024	0.00094215	0.00028855	1400.5	1.0772e-05	9.9496e-06	1396.5	378.32	1.046e-05	1.042e-05	433.65	144.88	125.26	43.139	1.1885e-05	53.937	95.639	86.903	24.520	-42.187	282.713	87.871	-42.209	-37.673	11.082	97.515	-37.939	-33.900	-33.057	-28.657	222.721	-29.061	-8191	255	
1321.200	1	1	0	0	0.096034	0.13616	0.24629	0.25577	0.089014	0.092796	0.31163	0.040835	0.19982	0.055445	0.13918	0.028515	0.078118	0.22352	0.072384	0.2211	-3.6958	-3.4667	-3.8875	-3.6542	-3.3375	-3.8333	-3.7625	-3.6625	-3.55	-3.4042	-3.8229	-3.7438	-3.5896	-3.95	-3.4292	-3.6042	109.601	216.102	136.096	199.736	19.425	71.280	240.865	244.279	-22.163	293.466	251.583	66.317	233.412	279.300	102.699	269.506	0.0002297	0.00089823	0.00021014	1360.4	5.6148e-06	8.0585e-06	1354.9	364.32	4.9503e-06	4.0312e-06	415.92	137.15	118.8	41.049	6.1329e-06	50.842	0.00091651	0.00097519	0.0003038	1398.5	1.0638e-05	1.0443e-05	1397.4	378.01	1.0176e-05	1.0897e-05	434.45	144.53	124.88	43.208	1.19e-05	53.776	114.839	76.011	94.186	-42.107	46.821	180.458	-42.183	-37.410	-0.279	172.720	-37.778	-33.880	-33.229	-28.538	58.904	-29.270	-8191	255	
1321.297	1	1	0	0	0.13102	0.31645	0.096532	0.36363	0.2927	0.29401	0.23636	0.21052	0.10793	0.28409	0.087001	0.103	0.30418	0.083797	0.080753	0.26706	-3.5021	-3.5729	-3.8208	-3.925	-3.3937	-3.7208	-3.8021	-3.675	-3.7979	-3.5312	-3.9833	-3.8979	-3.3604	-3.9625	-3.7687	-3.7896	254.245	279.788	-14.624	280.969	-26.435	280.672	228.201	271.800	-14.251	6.037	46.693	297.851	-4.390	19.826	264.297	67.418	0.00028385	0.00014617	0.00018618	1362.9	1.2189e-06	6.5246e-06	1351.8	363.33	3.4317e-06	8.6907e-06	415.47	136.98	118.79	41.046	7.1771e-06	50.733	0.0008955	0.0010196	0.00030088	1396.5	1.0308e-05	1.1123e-05	1395.2	377.66	9.9259e-06	1.1504e-05	433.89	144.04	124.82	43.419	1.1397e-05	53.71	119.873	150.295	-12.363	-41.933	-30.313	135.417	-42.198	-37.615	214.260	186.490	-38.001	-33.826	-33.266	-28.548	62.950	-29.173	-8191	255	
1321.393	1	1	0	0	0.085982	0.16047	0.076258	0.077783	0.20301	0.11242	0.038497	0.035743	0.11507	0.045823	0.20439	0.30062	0.27461	0.26447	0.060352	0.11721	-3.4667	-3.4896	-3.75	-3.9833	-3.3604	-3.7958	-3.9833	-3.6271	-4.0229	-3.6042	-3.8229	-3.8583	-3.2833	-3.9562	-3.6458	-3.5583	83.528	30.694	5.272	189.306	-3.416	115.000	280.143	8.054	-5.888	175.615	137.994	-8.495	193.390	12.777	143.656	-5.659	0.00026145	0.00047128	0.0002111	1359.8	4.3064e-06	6.6128e-06	1353.9	361.78	6.2017e-06	4.4399e-06	416.1	136.49	118.42	41.114	3.5604e-06	50.884	0.00089208	0.0010759	0.00029607	1394	1.0414e-05	1.1811e-05	1393.5	376.71	1.0227e-05	1.1874e-05	432.57	143.91	124.85	43.496	1.0916e-05	53.62	92.627	57.439	-16.718	-42.135	227.318	146.288	-42.126	-37.420	121.101	218.142	-37.869	-33.819	-33.382	-28.380	42.802	-29.500	-8191	255	
1321.513	1	1	0	0	0.072827	0.187	0.20169	0.11391	0.11398	0.11169	0.25191	0.10673	0.13647	0.15295	0.12545	0.14977	0.14314	0.099703	0.20289	0.25472	-3.5646	-3.3625	-3.5479	-3.8438	-3.5187	-3.7313	-3.6271	-3.2771	-3.6458	-3.5938	-3.6354	-4.025	-3.5458	-3.8	-3.775	-3.5083	40.912	-12.727	-45.281	231.361	281.085	139.386	-50.122	206.168	-28.174	84.503	258.389	291.189	150.401	39.169	20.545	181.997	0.00041052	0.00061595	0.00030039	1359.7	6.3159e-06	4.2303e-06	1350.6	363.75	9.1441e-06	1.0733e-05	413.57	136.99	118.48	41.125	7.1027e-06	50.649	0.00092843	0.0010845	0.00028431	1392.1	1.0818e-05	1.1788e-05	1390.7	376.23	1.0641e-05	1.1658e-05	430.84	143.68	125.37	43.356	1.0535e-05	53.374	91.656	38.899	1.901	-42.205	142.404	75.765	-41.941	-37.429	226.430	65.019	-37.977	-33.893	-33.145	-28.669	98.945	-29.294	-8191	255	
1321.609	1	1	0	0	0.10634	0.11178	0.29276	0.10598	0.039098	0.14231	0.13838	0.30174	0.17332	0.2473	0.35583	0.24755	0.35263	0.06913	0.065949	0.16631	-3.5812	-3.55	-3.3688	-4.1	-3.5708	-3.5854	-3.8	-3.3833	-3.6396	-3.5563	-3.7542	-3.7583	-3.4104	-3.775	-3.6708	-3.5083	245.826	260.588	71.876	-33.609	151.070	-12.991	296.534	-36.602	267.347	-31.469	-34.192	219.704	229.064	260.701	19.539	207.262	0.00026546	0.00050424	0.00012211	1364.2	5.2771e-07	1.0807e-05	1355.1	362.32	8.2283e-06	7.5649e-06	415.27	137.26	118.75	41.111	2.2821e-06	50.819	0.00098146	0.0010406	0.0002719	1391.5	1.122e-05	1.1358e-05	1390.2	375.69	1.1252e-05	1.1142e-05	431.16	143.44	125.61	43.348	1.0106e-05	53.512	114.657	19.710	25.186	-41.906	115.633	57.389	-42.062	-37.525	180.595	120.699	-38.157	-33.879	-33.235	-28.434	175.888	-29.081	-8191	255	
1321.681	1	1	0	0	0.092856	0.12055	0.14704	0.21596	0.4025	0.040854	0.16275	0.37959	0.32868	0.13448	0.038344	0.053963	0.34184	0.10683	0.17029	0.10379	-3.5521	-3.6167	-3.4625	-3.9479	-3.4813	-3.4708	-3.7854	-3.225	-3.6667	-3.6979	-3.3083	-3.8812	-3.4646	-3.6396	-3.7083	-3.5729	295.347	107.952	225.432	292.271	95.423	-26.770	214.610	287.356	112.898	58.571	151.717	-11.398	279.057	262.303	285.055	134.541	0.00017165	0.00094442	0.00026537	1362.2	2.1797e-06	7.3274e-06	1351.7	362.55	2.9612e-06	4.245e-06	416.02	136.92	119.51	41.012	1.7286e-06	50.616	0.0010253	0.0010018	0.00026842	1392.7	1.1704e-05	1.1182e-05	1387.6	376.74	1.1822e-05	1.0902e-05	431.68	144.24	126.08	43.332	1.0088e-05	53.721	107.422	282.471	-8.049	-42.115	175.984	8.573	-42.379	-37.476	76.708	41.278	-38.091	-33.854	-33.267	-28.591	29.231	-29.339	-8191	255	
1321.802	1	1	0	0	0.24176	0.10489	0.19523	0.13304	0.23135	0.11188	0.14386	0.1968	0.24409	0.26656	0.44269	0.074811	0.11701	0.2382	0.076985	0.20959	-3.3917	-3.6625	-3.4833	-3.8417	-3.4417	-3.5687	-3.7812	-3.5125	-3.6937	-3.5938	-3.5271	-3.8438	-3.4938	-3.7396	-3.9146	-3.6479	-27.371	182.033	251.675	176.712	143.787	118.862	-39.288	226.604	301.849	59.526	287.920	258.128	299.445	-27.245	188.570	-1.417	0.00015484	0.0001475	0.00022511	1362	5.8538e-06	6.1649e-06	1353	362.64	1.1893e-05	7.0038e-06	415.24	137.19	119.3	41.065	3.4253e-06	50.894	0.001051	0.0009835	0.00026673	1398	1.1628e-05	1.0991e-05	1386.9	377.71	1.1742e-05	1.0662e-05	430.93	144.91	125.72	43.278	9.9102e-06	53.904	82.821	-9.186	34.357	-42.049	58.050	46.821	-42.197	-37.649	40.765	81.505	-37.936	-33.909	-33.250	-28.467	83.604	-29.310	-8191	255	
1321.898	1	1	0	0	0.19792	0.30946	0.219	0.29219	0.092366	0.27146	0.25171	0.2103	0.10693	0.063569	0.19284	0.065777	0.081161	0.086707	0.090518	0.14182	-3.1271	-3.7188	-3.3063	-3.775	-3.6021	-3.4125	-3.9042	-3.4188	-3.5604	-3.8104	-3.5792	-3.8812	-3.7354	-3.5917	-3.85	-3.6375	192.859	93.121	220.412	264.431	286.843	31.751	284.156	288.000	91.448	151.783	282.487	-43.820	-51.987	84.140	276.533	293.316	0.00023551	0.00088287	6.3141e-05	1359.1	4.7437e-06	7.0787e-06	1350	364.12	1.7172e-06	1.005e-05	414.69	137.3	118.84	41.034	3.0156e-06	50.765	0.0010225	0.000962	0.00026439	1399.3	1.1203e-05	1.0766e-05	1385.5	379.18	1.1312e-05	1.0346e-05	431.28	145.38	125.35	43.184	1.0421e-05	54.016	73.684	-2.815	-37.943	-42.142	108.539	17.640	-42.031	-37.472	290.110	115.455	-38.063	-33.659	-33.438	-28.585	281.863	-29.314	-8191	255	
1321.994	1	1	0	0	0.12839	0.28626	0.21252	0.24409	0.15002	0.24535	0.1543	0.18023	0.17096	0.20367	0.093086	0.1487	0.095186	0.16726	0.13083	0.23521	-3.1188	-3.5771	-3.4521	-3.8729	-3.6917	-3.3583	-4.0625	-3.6521	-3.6375	-3.7396	-3.5625	-3.7812	-3.7042	-3.3479	-3.8417	-3.6604	201.643	275.874	-45.986	290.660	2.184	264.845	287.201	262.983	270.961	17.447	95.399	98.138	-28.507	-30.134	-5.249	230.074	0.00030508	0.00039527	5.999e-05	1359.7	2.7696e-06	5.7161e-06	1354.4	362.72	2.7953e-06	6.2261e-06	415.47	137.53	119.09	40.977	4.8578e-06	50.952	0.00099698	0.00093603	0.00027852	1402.7	1.097e-05	1.0635e-05	1391.1	379.3	1.114e-05	1.0203e-05	433.27	145.55	125.4	43.164	1.1226e-05	54.082	104.624	12.374	235.702	-41.896	92.917	40.147	-42.185	-37.576	89.419	81.062	-37.926	-33.645	-33.263	-28.445	174.076	-29.166	-8191	255	
1322.090	1	1	0	0	0.078649	0.14186	0.18315	0.077593	0.12506	0.1199	0.18493	0.18153	0.25824	0.22593	0.30065	0.1313	0.040871	0.16426	0.15145	0.20802	-3.1937	-3.6396	-3.3479	-3.7833	-3.3875	-3.4646	-3.8375	-3.6229	-3.6292	-3.9813	-3.5875	-3.8417	-3.8104	-3.4813	-3.8854	-3.6208	284.570	130.341	283.154	251.726	172.334	283.610	291.342	299.623	228.774	202.017	301.961	198.688	-25.254	303.241	285.336	-6.659	0.00023602	0.0007418	0.00013537	1358.3	3.3685e-06	5.2994e-06	1348.4	364.1	2.7172e-06	6.8041e-06	416.13	137.13	118.96	41.057	3.175e-06	50.805	0.00099356	0.00092998	0.00029591	1401.8	1.0762e-05	1.0566e-05	1394.2	378.97	1.1004e-05	1.0273e-05	434.76	145.39	125.14	43.205	1.1913e-05	53.901	121.563	270.721	12.797	-42.159	49.153	37.075	-42.233	-37.523	58.170	106.742	-37.899	-33.986	-33.402	-28.475	93.435	-29.193	-8191	255	
1322.209	1	1	0	0	0.16568	0.15575	0.15542	0.087343	0.11589	0.19257	0.4901	0.083775	0.13094	0.12917	0.061644	0.12519	0.081992	0.062118	0.15395	0.15933	-2.9813	-3.8521	-3.5146	-3.7521	-3.7708	-3.3125	-3.9	-3.5479	-3.4896	-3.7854	-3.5729	-3.7417	-4.1229	-3.4813	-3.8083	-3.4896	237.937	57.803	-45.758	219.469	38.369	222.835	263.905	179.220	-26.030	115.080	75.994	272.653	301.301	69.041	274.884	297.882	0.00024523	0.00058894	0.00011731	1364.5	6.0249e-06	5.2686e-07	1353.9	363.35	2.3809e-06	2.6654e-06	416.12	137.56	118.98	41.079	4.6846e-06	50.789	0.00096508	0.00094278	0.00030786	1401.8	1.0403e-05	1.0796e-05	1398.2	378.55	1.0724e-05	1.0661e-05	435.55	145.24	124.89	43.395	1.2118e-05	53.801	99.232	16.606	18.129	-42.203	39.795	52.169	-41.962	-37.587	-52.814	-47.732	-38.057	-33.723	-33.248	-28.607	122.092	-29.320	-8191	255	
1322.305	1	1	0	0	0.16216	0.05216	0.13616	0.19576	0.23721	0.22044	0.057266	0.01546	0.21126	0.023381	0.24257	0.15199	0.11952	0.068799	0.055018	0.074539	-2.9708	-3.7833	-3.4292	-3.4958	-3.8542	-3.4917	-3.8021	-3.8063	-3.3396	-3.95	-3.4854	-3.5729	-4.2104	-3.5521	-3.7646	-3.8	260.184	158.619	68.636	233.083	-2.119	200.679	48.512	90.224	186.432	96.914	245.360	251.533	109.464	275.323	195.616	275.051	0.00011513	0.00046278	0.00031794	1361.5	3.3382e-06	6.7952e-06	1351.2	363.41	3.4809e-06	6.1518e-06	415.59	137.96	119.28	41.289	4.4442e-06	50.691	0.00093822	0.0010068	0.0003069	1398.7	1.0186e-05	1.1417e-05	1396.3	377.92	1.0624e-05	1.1486e-05	434.63	145.15	124.91	43.655	1.1941e-05	53.685	98.996	57.038	44.549	-42.175	176.402	180.220	-41.909	-37.542	-21.310	86.876	-37.975	-33.849	-33.650	-28.394	125.358	-29.235	-8191	255	
1322.401	1	1	0	0	0.12327	0.044438	0.21121	0.08117	0.1282	0.14635	0.22801	0.23007	0.15542	0.1005	0.1876	0.22496	0.15505	0.0038999	0.048635	0.035412	-3.0042	-3.7521	-3.4208	-3.4958	-3.7188	-3.4458	-3.7771	-3.6042	-3.4333	-3.7646	-3.6688	-3.4625	-3.8438	-3.6063	-3.4604	-3.9167	239.224	215.035	66.148	-41.248	52.719	10.875	256.855	250.382	-17.298	133.419	269.952	18.137	302.848	234.747	-49.204	60.289	0.00027341	0.00035699	0.00027497	1360.4	3.0378e-06	6.2971e-06	1354.7	363.25	7.0724e-06	1.1741e-05	417.3	137.16	119.23	41.056	3.5427e-07	51.094	0.00094206	0.0010729	0.00029687	1399	1.0209e-05	1.1966e-05	1397.1	377.69	1.0656e-05	1.2083e-05	433.89	144.94	125.33	43.686	1.1643e-05	53.726	129.742	61.271	4.308	-42.100	166.628	97.307	-42.231	-37.588	20.140	144.978	-38.117	-33.822	-33.198	-28.578	23.759	-29.296	-8191	255	
1322.498	1	1	0	0	0.094634	0.18846	0.11457	0.18108	0.18642	0.19071	0.21997	0.35653	0.10179	0.24181	0.17508	0.24238	0.094477	0.21042	0.2389	0.16486	-2.9271	-3.6917	-3.7479	-3.3917	-3.875	-3.3875	-3.4688	-4.0625	-3.4813	-3.8125	-3.8417	-3.5	-3.8625	-3.5812	-3.4708	-3.7875	198.682	179.766	-15.730	241.211	178.649	-33.236	255.301	250.101	48.857	214.705	-51.615	-40.843	180.911	-51.610	280.918	250.919	0.00022661	0.00068059	7.0547e-05	1364.5	7.3733e-06	7.5521e-06	1357.4	362.98	6.225e-06	4.234e-06	415.45	137.4	119.04	41.075	3.025e-06	50.856	0.00097642	0.0011239	0.00028697	1399.1	1.0834e-05	1.2215e-05	1397	376.5	1.1257e-05	1.2241e-05	433.35	144.74	125.6	43.687	1.1225e-05	53.561	102.031	101.235	241.090	-42.014	176.621	82.388	-42.136	-37.632	253.916	165.808	-37.853	-33.876	-33.257	-28.606	109.426	-29.304	-8191	255	
1322.594	1	1	0	0	0.075996	0.11899	0.094811	0.26258	0.071257	0.10032	0.13913	0.18085	0.28423	0.078319	0.17599	0.065764	0.23132	0.13194	0.19321	0.19063	-3.0271	-3.7125	-3.5062	-3.4625	-3.7313	-3.4375	-3.7354	-4.1021	-3.4625	-3.6271	-3.9042	-3.4146	-3.8646	-3.7833	-3.3042	-3.7333	155.081	251.502	111.448	282.989	99.058	173.947	260.158	246.640	187.612	-53.773	4.122	266.004	275.382	166.215	137.197	258.380	0.00027108	0.001793	0.00021008	1365.9	5.1191e-06	3.252e-06	1351.2	362.11	3.3067e-06	3.8069e-06	417.04	138.1	119.17	41.128	2.3013e-06	50.817	0.0010251	0.0011046	0.00027701	1398.4	1.1525e-05	1.1808e-05	1394.1	376.77	1.1856e-05	1.183e-05	432.95	144.59	126.32	43.62	1.1022e-05	53.629	124.575	4.148	-21.225	-42.078	184.120	63.295	-42.353	-37.317	189.329	208.349	-37.993	-33.827	-33.591	-28.498	52.913	-29.269	-8191	255	
1322.690	1	1	0	0	0.16684	0.15857	0.2325	0.18666	0.094791	0.25876	0.10296	0.13021	0.062083	0.10551	0.19456	0.10448	0.039766	0.23844	0.071186	0.072277	-3.2521	-3.4479	-3.6667	-3.6042	-3.7458	-3.6646	-3.6708	-3.9792	-3.5208	-3.6625	-3.9354	-3.4896	-3.725	-3.4854	-3.3854	-3.8792	215.555	175.485	149.235	-50.055	178.672	-22.373	111.753	256.214	182.718	160.318	174.158	260.701	218.339	-54.348	63.265	-39.947	0.00022467	0.00087088	0.0002101	1361.8	7.5083e-06	5.82e-06	1352.1	363.37	1.8102e-06	7.3993e-06	414.83	137.81	119.38	41.395	4.1723e-06	50.861	0.0010626	0.0010657	0.00027009	1399.1	1.2063e-05	1.1418e-05	1392.5	377.3	1.2162e-05	1.1563e-05	431.71	145.14	126.66	43.553	1.0674e-05	53.824	81.291	7.675	52.680	-42.223	182.351	67.962	-42.112	-37.633	201.548	95.266	-38.172	-33.758	-33.126	-28.739	71.502	-29.450	-8191	255	
1322.810	1	1	0	0	0.13176	0.172	0.25033	0.28542	0.22104	0.2389	0.24904	0.18706	0.17234	0.11946	0.052776	0.27502	0.28006	0.19964	0.085328	0.090331	-3.1792	-3.4333	-3.9917	-3.4667	-3.6979	-3.5208	-3.3896	-3.8333	-3.6146	-3.7375	-3.9417	-3.5854	-3.5938	-3.6542	-3.2396	-3.8	0.669	162.695	27.939	295.672	0.222	151.009	252.418	-47.115	194.376	21.511	280.020	226.143	298.753	270.612	100.629	201.239	0.00019448	0.00090028	0.00010117	1364.4	8.2275e-06	7.1129e-06	1355.3	363.52	3.5305e-06	7.3693e-06	416.49	137.73	119.44	41.261	2.2127e-06	50.954	0.0010757	0.0010291	0.00026255	1401.5	1.1973e-05	1.1002e-05	1392.4	378.64	1.1996e-05	1.1251e-05	430.88	145.64	126.42	43.415	1.0619e-05	54.227	131.522	18.760	42.999	-41.942	91.476	80.627	-42.184	-37.669	-6.653	113.311	-38.035	-33.831	-33.411	-28.608	285.969	-29.551	-8191	255	
1322.907	1	1	0	0	0.20721	0.16028	0.16194	0.29691	0.059053	0.20768	0.24462	0.15232	0.19805	0.092806	0.094688	0.17567	0.090965	0.0043719	0.10248	0.047707	-3.0583	-3.3187	-3.8833	-3.4083	-3.5167	-3.5521	-3.6188	-3.8708	-3.5875	-3.5917	-3.925	-3.3854	-3.7146	-3.8563	-3.3688	-3.6542	113.426	10.088	225.327	256.181	64.633	254.466	227.523	266.122	144.977	277.794	204.970	227.188	40.628	136.872	284.543	99.625	0.00026572	0.00076002	0.00025338	1363.1	6.7329e-06	3.9285e-06	1353.1	364.97	1.1751e-05	7.1303e-06	414.54	138.11	119.17	41.108	4.6112e-06	50.826	0.0010395	0.0010191	0.00026077	1405.5	1.1776e-05	1.0801e-05	1392.1	380.58	1.147e-05	1.1095e-05	431.66	146.18	126.08	43.373	1.0843e-05	54.385	127.225	-9.124	38.450	-42.199	29.919	83.859	-42.102	-37.475	81.087	108.502	-37.953	-33.643	-33.184	-28.599	193.527	-29.315	-8191	255	
1322.978	1	1	0	0	0.049252	0.20397	0.023794	0.087377	0.12212	0.14318	0.30203	0.22473	0.13644	0.25185	0.068843	0.21717	0.15734	0.17504	0.1351	0.34886	-3.1625	-3.3729	-3.6646	-3.6083	-3.4729	-3.7438	-3.5771	-3.9208	-3.6708	-3.3604	-3.9146	-3.7125	-3.6104	-3.6937	-3.4104	-3.8042	-10.566	199.172	-12.978	234.745	127.641	247.446	289.651	23.573	-24.067	-40.262	168.929	284.023	184.950	-32.152	-3.610	270.459	9.3451e-05	0.00011152	0.0001496	1360.7	3.3552e-06	3.9373e-06	1358.9	362.82	3.2349e-06	6.3141e-06	416.16	137.26	119.44	41.272	5.7783e-06	50.957	0.0010064	0.00099563	0.00027333	1406.2	1.148e-05	1.0529e-05	1397.1	380.33	1.1141e-05	1.0876e-05	434.21	146.22	126.16	43.307	1.1612e-05	54.43	58.884	85.265	48.589	-42.052	231.051	62.053	-41.959	-37.524	85.512	121.323	-38.022	-34.018	-33.232	-28.478	207.738	-29.186	-8191	255	
1323.074	1	1	0	0	0.20963	0.18943	0.24305	0.19684	0.26801	0.1663	0.16922	0.067591	0.12667	0.27169	0.12017	0.092713	0.26662	0.26416	0.097653	0.036302	-3.2271	-3.0729	-3.7542	-3.9104	-3.3896	-3.8917	-3.4917	-3.8083	-3.6125	-3.4375	-3.9771	-3.5375	-3.5958	-3.7438	-3.3479	-3.6042	-23.416	297.247	111.060	-38.756	220.190	40.046	247.050	276.612	98.755	35.099	269.049	266.619	-49.194	35.313	212.508	242.734	0.00027753	0.00032344	0.0003327	1362.5	8.0188e-06	8.2104e-06	1353.8	362.99	5.8173e-06	2.1475e-06	416.3	137.16	119.35	41.301	5.553e-06	51.036	0.00098221	0.00098021	0.00029436	1405.8	1.1254e-05	1.0373e-05	1398.8	380.3	1.0914e-05	1.0687e-05	435.63	145.63	125.89	43.353	1.2075e-05	54.287	103.911	-51.026	122.207	-42.132	52.708	156.047	-42.197	-37.518	154.001	70.725	-37.858	-33.653	-33.317	-28.665	54.120	-29.295	-8191	255	
1323.171	1	1	0	0	0.16108	0.16202	0.22141	0.060488	0.20327	0.03547	0.28195	0.090891	0.055639	0.24939	0.25898	0.13104	0.099228	0.070944	0.16878	0.18781	-3.2125	-3.4458	-3.9229	-3.5521	-3.2333	-3.925	-3.6042	-3.7542	-3.8896	-3.4	-3.9104	-3.8292	-3.3812	-4.0104	-3.7083	-3.5542	211.545	156.244	269.156	-45.704	112.998	2.818	159.447	-32.189	280.431	21.586	202.105	152.840	10.248	-42.283	-49.190	113.879	0.00023678	0.00053736	0.00030611	1365.5	3.9692e-06	6.1386e-06	1353.9	364.69	3.257e-06	7.3623e-06	416.88	137.97	119.53	41.349	3.5635e-06	50.993	0.00095565	0.00099162	0.00030983	1405.6	1.1078e-05	1.0631e-05	1401.2	380	1.0662e-05	1.1108e-05	436.28	145.43	125.95	43.522	1.2406e-05	54.157	107.631	44.343	81.411	-42.203	33.558	177.043	-42.120	-37.563	165.623	138.410	-38.057	-33.785	-33.063	-28.540	123.968	-29.299	-8191	255	
1323.289	1	1	0	0	0.051658	0.1187	0.089007	0.067041	0.10668	0.24466	0.060477	0.12547	0.23365	0.16983	0.28375	0.21182	0.36244	0.060615	0.049897	0.13785	-3.3604	-3.2583	-3.5646	-3.9333	-3.3646	-3.8146	-3.7833	-3.8104	-3.7938	-3.3458	-3.7417	-3.7271	-3.3083	-3.7812	-3.5312	-3.6188	252.471	89.307	46.366	-53.639	253.044	245.520	269.473	204.210	291.116	291.001	262.070	-17.509	-43.807	28.075	130.035	1.825	0.00020384	0.00055458	0.00027814	1368.4	4.3162e-06	3.2853e-06	1356.2	364.87	4.884e-06	6.9733e-06	417.25	137.58	119.4	41.277	3.9905e-06	50.946	0.00093395	0.0010412	0.00031707	1403.3	1.0858e-05	1.1385e-05	1401	379.62	1.0323e-05	1.1712e-05	435.83	145.27	125.42	43.673	1.1956e-05	54.031	122.362	136.030	0.526	-42.147	11.072	16.535	-42.239	-37.494	279.724	144.996	-37.912	-33.791	-33.299	-28.469	98.341	-29.219	-8191	255	
1323.386	1	1	0	0	0.19423	0.21713	0.10326	0.20263	0.057943	0.11126	0.14789	0.15638	0.11143	0.037784	0.15068	0.20377	0.092322	0.093975	0.14426	0.075688	-3.45	-3.3417	-3.5042	-3.8271	-3.4667	-4.0042	-3.8625	-3.5479	-3.775	-3.3833	-3.7687	-3.6146	-3.4021	-3.9479	-3.6063	-3.5354	276.964	279.034	-2.843	-48.562	-23.712	-51.109	214.914	146.625	8.027	267.538	272.570	279.908	273.446	72.929	114.646	211.260	0.00022431	0.0010078	4.952e-05	1364.7	3.0654e-06	4.1107e-06	1357.4	364.01	7.0013e-06	8.8397e-06	415.74	137.59	119.79	41.244	5.336e-06	51.052	0.00091654	0.001094	0.00030659	1399.6	1.0616e-05	1.1951e-05	1398.9	378.22	1.0354e-05	1.2222e-05	434.85	144.68	125.82	43.766	1.1468e-05	53.941	120.366	89.568	-47.895	-42.170	110.888	103.077	-42.285	-37.556	145.447	140.748	-38.162	-33.986	-32.945	-28.645	96.523	-29.076	-8191	255	
1323.482	1	1	0	0	0.057275	0.033645	0.10218	0.24242	0.074741	0.078882	0.23102	0.11244	0.234	0.053998	0.05689	0.1954	0.37726	0.15165	0.14295	0.24192	-3.5125	-3.4667	-3.5583	-4.1104	-3.5417	-3.9146	-3.9396	-3.3854	-3.8521	-3.4708	-3.6583	-3.7479	-3.4625	-3.6625	-3.6146	-3.5542	90.329	229.226	61.305	-28.980	275.762	293.016	246.539	247.084	110.718	224.345	208.733	240.095	241.355	20.962	204.156	210.548	0.00031637	0.00013179	0.00013903	1367.1	6.6558e-06	1.1055e-05	1354.7	363.37	5.8564e-06	7.2887e-06	415.57	137.87	120.06	41.249	7.8906e-06	50.941	0.00093135	0.0011139	0.00029547	1398.6	1.0904e-05	1.2189e-05	1394.8	377.48	1.0841e-05	1.2136e-05	434.53	144.39	126.03	43.777	1.1015e-05	53.817	109.677	132.644	292.596	-42.165	78.801	102.163	-42.204	-37.411	87.430	-3.257	-38.011	-33.749	-33.201	-28.471	39.583	-29.237	-8191	255	
1323.578	1	1	0	0	0.10389	0.17388	0.16291	0.13031	0.18189	0.080194	0.33228	0.29129	0.31004	0.18025	0.1328	0.18031	0.36966	0.15886	0.023229	0.089709	-3.5583	-3.4958	-3.4667	-3.9875	-3.4188	-3.6437	-3.9938	-3.5729	-3.7167	-3.4667	-3.5479	-3.7667	-3.5208	-3.6521	-3.6188	-3.4896	137.262	243.676	191.290	210.606	232.789	20.329	-36.440	-49.788	171.315	62.679	263.609	100.178	-43.133	297.545	245.506	-44.823	0.00038165	0.00069822	9.1563e-05	1363.1	4.2966e-06	5.622e-06	1353	363.62	7.2097e-06	4.5327e-06	415.96	137.73	119.55	41.144	6.3121e-06	50.768	0.00099194	0.0010971	0.00028855	1395.1	1.1559e-05	1.2127e-05	1393.9	377.66	1.1593e-05	1.1836e-05	433.82	144.4	126.44	43.686	1.0728e-05	53.775	122.355	-9.235	80.737	-42.016	184.745	79.144	-42.211	-37.685	166.288	64.102	-37.951	-33.858	-33.516	-28.531	68.359	-29.507	-8191	255	
1323.674	1	1	0	0	0.13028	0.064321	0.18558	0.19891	0.16412	0.27318	0.2594	0.085169	0.25258	0.1795	0.32565	0.25223	0.16251	0.2529	0.09273	0.032582	-3.2479	-3.5812	-3.6396	-3.9938	-3.5542	-3.4875	-3.8896	-3.3187	-3.6875	-3.5583	-3.3417	-3.8875	-3.425	-3.6437	-3.7729	-3.3604	265.972	224.965	41.368	255.313	34.183	211.918	265.505	1.554	-16.995	-51.879	282.646	246.437	303.255	274.680	56.117	19.956	0.00024354	5.7516e-05	0.00015818	1361.1	2.4755e-06	6.4448e-06	1357.5	364.66	2.8999e-06	8.134e-06	416.95	137.23	119.88	41.413	9.1964e-07	50.856	0.0010548	0.0010564	0.00028172	1397.3	1.2046e-05	1.1712e-05	1394.5	378.64	1.2133e-05	1.1491e-05	433.11	144.87	126.88	43.708	1.062e-05	54.072	104.918	24.307	-3.569	-42.160	209.026	83.020	-42.261	-37.473	101.038	13.724	-38.002	-33.726	-33.208	-28.437	11.391	-29.369	-8191	255	
1323.770	1	1	0	0	0.090041	0.23939	0.13235	0.12056	0.10665	0.07223	0.31369	0.054471	0.037692	0.20502	0.35202	0.10802	0.44677	0.22036	0.22348	0.080834	-3.2438	-3.5771	-3.1896	-3.8917	-3.5854	-3.4375	-3.8417	-3.5417	-3.5208	-3.6521	-3.5438	-3.6375	-3.55	-3.5646	-3.7125	-3.4125	75.460	289.582	-53.877	240.475	192.930	248.069	219.874	234.533	142.215	-24.441	-4.348	282.474	-39.052	297.436	257.291	203.798	0.00021205	0.00078782	0.00016689	1362.3	5.4973e-06	4.7065e-06	1357.2	363.92	4.6361e-06	1.3023e-05	416.47	138.16	119.99	41.537	6.8955e-07	50.935	0.0010974	0.0010391	0.00028209	1401.7	1.2504e-05	1.1695e-05	1394.2	379.54	1.247e-05	1.1396e-05	433.34	145.97	127.14	43.742	1.0506e-05	54.44	99.601	-30.046	31.447	-42.071	-19.156	-5.932	-42.181	-37.719	89.733	75.046	-37.918	-33.770	-33.281	-28.696	162.404	-29.243	-8191	255	
1323.891	1	1	0	0	0.16059	0.11718	0.043743	0.14435	0.021517	0.024148	0.2524	0.20062	0.16711	0.12365	0.082869	0.11014	0.43868	0.20458	0.11306	0.20154	-3.1083	-3.6729	-3.4313	-4.0354	-3.5312	-3.45	-3.9958	-3.4292	-3.6229	-3.6125	-3.5667	-3.7208	-3.6667	-3.6104	-3.6792	-3.4062	10.476	174.256	217.320	234.857	186.927	43.574	-46.114	239.967	15.977	-19.389	250.833	-34.573	289.343	297.589	125.480	175.596	0.00013037	0.00072006	0.00014698	1361.6	6.7085e-06	5.0262e-06	1353.4	363.36	8.8768e-06	7.683e-06	416.35	137.57	119.89	41.405	4.8704e-06	51.083	0.001089	0.0010257	0.00027866	1407.2	1.1989e-05	1.1426e-05	1394.5	381.19	1.2011e-05	1.0928e-05	432.83	146.3	126.4	43.644	1.0473e-05	54.547	81.933	-54.085	92.710	-42.025	146.456	-28.211	-42.204	-37.496	33.101	97.293	-38.023	-33.626	-33.390	-28.616	226.841	-29.420	-8191	255	
1323.987	1	1	0	0	0.14865	0.084618	0.1019	0.2028	0.12711	0.10186	0.15733	0.14731	0.04642	0.071057	0.30864	0.15381	0.19645	0.18632	0.10242	0.15132	-3.2229	-3.5917	-3.2167	-3.9396	-3.4958	-3.3125	-4.1271	-3.5521	-3.4729	-3.7417	-3.6583	-3.625	-3.8688	-3.4854	-3.8542	-3.6271	115.875	161.257	132.905	218.164	224.139	112.566	205.913	287.226	272.668	54.389	264.487	159.960	-32.515	279.436	238.703	275.233	0.00014956	0.00051123	0.00027522	1366.2	6.5826e-06	5.0185e-06	1358.8	363.94	4.9535e-06	8.0468e-06	416.53	137.67	119.25	41.427	5.7681e-06	51.053	0.0010314	0.00097087	0.00027935	1409.5	1.1276e-05	1.0909e-05	1395.7	381.03	1.1389e-05	1.0417e-05	434.08	146.29	125.88	43.458	1.1043e-05	54.376	123.319	282.519	66.641	-41.965	51.653	48.720	-42.086	-37.539	115.280	83.066	-37.884	-33.754	-33.288	-28.614	197.284	-29.348	-8191	255	
1324.083	1	1	0	0	0.23298	0.12237	0.04886	0.41825	0.088672	0.038673	0.018371	0.14011	0.094411	0.20792	0.088276	0.19891	0.16583	0.12549	0.12494	0.1507	-3.2146	-3.8063	-3.3417	-3.8583	-3.6667	-3.4667	-4.2063	-3.5708	-3.6604	-3.8063	-3.6083	-3.7604	-3.8375	-3.4708	-3.7833	-3.7333	270.712	-26.219	215.094	254.151	172.384	-29.711	94.271	-47.588	101.894	-51.120	218.463	223.891	-27.974	215.574	159.408	230.541	0.00023926	0.000706	0.00018493	1367.6	1.9785e-06	9.8158e-06	1353.3	364.32	4.187e-06	4.998e-06	417.06	137.7	119.74	41.354	5.0869e-06	51.3	0.00099835	0.0009351	0.00029155	1407.5	1.0803e-05	1.0627e-05	1397.5	379.94	1.1064e-05	1.0213e-05	435.41	146.04	125.81	43.462	1.1736e-05	54.274	91.984	-5.195	31.100	-42.098	87.149	108.038	-42.161	-37.683	-29.188	54.439	-37.996	-33.715	-33.266	-28.484	243.851	-29.245	-8191	255	
1324.202	1	1	0	0	0.20566	0.1156	0.14805	0.2183	0.126	0.062595	0.21714	0.020858	0.23814	0.17631	0.15179	0.13757	0.20021	0.064371	0.066746	0.21601	-3.0667	-3.8333	-3.4792	-3.7687	-3.7146	-3.4062	-3.7479	-3.6583	-3.5292	-3.8708	-3.5104	-3.7729	-3.8458	-3.5792	-3.825	-3.7875	180.008	235.649	75.509	-52.050	247.344	144.596	247.013	131.779	269.682	293.379	278.426	256.303	182.319	59.931	222.417	-40.249	0.00022475	0.0004824	0.00011069	1362.5	5.0067e-06	4.865e-06	1351	363.14	6.0856e-06	6.6256e-06	416.94	137.38	119.63	41.301	3.295e-06	50.801	0.00098773	0.00093341	0.00030721	1405.5	1.0612e-05	1.0734e-05	1399.8	379.12	1.0952e-05	1.0594e-05	435.78	145.68	125.64	43.536	1.2262e-05	54.142	105.841	23.807	27.371	-42.041	11.750	104.215	-42.336	-37.800	60.775	170.655	-38.024	-33.841	-33.299	-28.566	145.712	-29.220	-8191	255	
1324.274	1	1	0	0	0.18032	0.20143	0.15521	0.27691	0.22301	0.27989	0.046544	0.23153	0.07137	0.098796	0.10198	0.03129	0.2201	0.099356	0.17837	0.23406	-3.1542	-3.85	-3.5146	-3.825	-3.9729	-3.3187	-4.0125	-3.6917	-3.1875	-3.9208	-3.4979	-3.5396	-3.8375	-3.525	-3.6958	-3.8979	296.409	221.285	245.759	262.618	270.917	234.571	59.408	185.493	258.441	-20.280	277.651	208.683	235.544	155.213	56.033	271.852	0.0001328	0.00027443	0.00017139	1362.2	8.5609e-06	6.6877e-06	1361.1	363.95	8.8002e-06	4.2838e-06	415.29	137.62	118.96	41.318	1.0222e-06	50.978	0.00096786	0.0010085	0.00031528	1404.1	1.044e-05	1.1394e-05	1403.5	378.89	1.0791e-05	1.1324e-05	435.71	145.42	125.3	43.808	1.2295e-05	54.155	95.839	34.370	19.328	-42.163	22.349	155.325	-42.026	-37.334	81.370	163.685	-38.018	-33.667	-33.301	-28.309	114.151	-29.262	-8191	255	
1324.370	1	1	0	0	0.079132	0.06623	0.073217	0.19896	0.25391	0.138	0.2266	0.31176	0.099367	0.39277	0.18337	0.15179	0.182	0.097097	0.13357	0.15305	-3.0146	-3.6542	-3.7188	-3.5229	-3.6208	-3.1875	-3.7521	-3.6813	-3.4417	-3.5812	-3.6063	-3.4833	-3.8375	-3.3688	-3.7479	-3.6813	236.490	56.716	169.884	276.869	107.965	201.095	243.278	252.836	228.610	-32.356	237.894	-22.386	-55.370	176.476	177.977	192.339	0.00036337	0.00073101	0.00013231	1367.1	5.7749e-06	5.5745e-06	1358.8	363.34	2.4849e-06	4.9655e-06	416.97	136.76	119.84	41.329	2.7424e-06	51.298	0.00095103	0.0010734	0.00030998	1404.2	1.0404e-05	1.2122e-05	1400.4	378.23	1.0748e-05	1.2053e-05	435.06	145.27	125.59	43.843	1.1818e-05	53.957	106.674	22.207	133.040	-41.867	96.279	76.532	-42.081	-37.412	21.592	167.106	-37.939	-33.822	-33.240	-28.742	30.830	-29.370	-8191	255	
1324.466	1	1	0	0	0.12077	0.28502	0.14406	0.26671	0.21034	0.15893	0.3458	0.12401	0.10901	0.1651	0.18233	0.32332	0.17438	0.22524	0.30117	0.057853	-2.9167	-3.6188	-3.5687	-3.4458	-3.775	-3.4625	-3.5583	-3.7604	-3.1771	-3.5375	-3.6958	-3.5167	-3.7479	-3.4042	-3.5396	-3.8583	-39.175	-21.891	161.588	-44.131	129.433	273.032	227.977	36.847	261.678	110.456	284.947	275.066	-40.407	42.519	173.580	130.967	0.0002673	0.0006534	8.058e-05	1364.8	5.6369e-06	5.6916e-06	1360	364.12	4.3523e-06	5.5521e-06	416.29	137.74	119.28	41.449	4.8863e-07	50.885	0.00096407	0.0011155	0.0002943	1402	1.0579e-05	1.2299e-05	1399.9	377.88	1.1063e-05	1.2328e-05	433.82	145.19	125.73	43.952	1.1454e-05	53.783	114.396	41.951	-4.946	-41.966	174.618	14.639	-42.160	-37.499	237.129	129.927	-38.198	-33.651	-33.317	-28.821	53.958	-29.342	-8191	255	
1324.587	1	1	0	0	0.10268	0.18454	0.074214	0.23173	0.098946	0.055343	0.37968	0.26182	0.07697	0.30966	0.23857	0.15077	0.11214	0.13664	0.13132	0.24904	-3.1	-3.6458	-3.5542	-3.4542	-3.7458	-3.5604	-3.5854	-3.7646	-3.4896	-3.6104	-3.9167	-3.4688	-3.8729	-3.775	-3.4958	-3.8896	-4.273	193.034	289.295	-38.782	23.325	97.104	249.957	155.311	-36.069	170.919	230.459	65.585	269.358	232.972	32.324	255.058	0.00032379	0.00064527	0.00018901	1364.9	4.5671e-06	1.1858e-05	1352.9	363.35	4.2041e-06	6.5576e-06	415.04	137.28	119.21	41.194	2.6483e-06	51.226	0.0010093	0.0011212	0.00028218	1399.3	1.1366e-05	1.2097e-05	1395.6	376.76	1.1691e-05	1.2156e-05	433.14	145.06	126.35	43.79	1.126e-05	53.847	102.485	75.288	17.899	-42.026	187.465	122.490	-42.157	-37.527	127.626	128.612	-38.005	-33.845	-33.224	-28.662	89.681	-29.414	-8191	255	
1324.683	1	1	0	0	0.13325	0.18957	0.22754	0.30853	0.15802	0.11648	0.22192	0.14075	0.20568	0.23523	0.076393	0.17057	0.089825	0.25076	0.34751	0.14621	-3.1188	-3.6479	-3.625	-3.3104	-3.7521	-3.5708	-3.475	-3.8208	-3.4229	-3.6688	-3.7167	-3.2458	-3.7562	-3.7938	-3.4729	-4.0021	43.907	-20.873	69.548	248.928	217.083	115.155	242.394	287.540	218.782	132.089	228.873	219.378	19.650	38.973	54.995	213.154	0.00019806	0.00054967	0.00031641	1362.8	3.0571e-06	5.3873e-06	1357.5	363.95	4.1144e-06	5.9391e-06	416.89	137.1	119.25	41.475	2.2531e-06	50.79	0.001061	0.0010959	0.00027847	1401.1	1.2044e-05	1.1715e-05	1396.5	377.65	1.2277e-05	1.1779e-05	432.78	145.07	126.71	43.716	1.1038e-05	53.928	96.338	293.874	13.784	-42.175	156.533	77.655	-42.123	-37.518	127.460	31.368	-37.971	-33.893	-33.404	-28.592	248.189	-29.555	-8191	255	
1324.779	1	1	0	0	0.21549	0.016283	0.098392	0.44878	0.06666	0.065344	0.16035	0.28348	0.19832	0.11158	0.13822	0.10506	0.19613	0.092006	0.1135	0.055765	-3.1437	-3.5625	-3.8167	-3.3479	-3.5563	-3.6042	-3.3646	-3.9979	-3.5646	-3.5875	-4.1854	-3.5708	-3.8625	-3.6792	-3.4521	-3.8854	35.126	298.056	257.096	220.498	-10.834	67.079	-47.970	269.774	249.051	123.933	300.201	204.164	226.177	298.882	18.519	297.499	0.00016135	0.00086452	9.8956e-05	1364.8	3.5353e-06	6.0272e-06	1358	362.58	4.9177e-06	8.2827e-06	415.6	137.37	119.64	41.356	4.2243e-06	50.923	0.0010967	0.0010622	0.00027104	1403.5	1.2349e-05	1.1348e-05	1395.2	378.28	1.2272e-05	1.1485e-05	432.01	145.74	127.03	43.649	1.0804e-05	54.249	107.518	-23.649	228.568	-42.145	-21.788	49.478	-42.072	-37.569	78.032	73.466	-38.074	-33.770	-33.132	-28.828	16.260	-29.222	-8191	255	
1324.851	1	1	0	0	0.049569	0.020631	0.092533	0.071779	0.02529	0.35801	0.31278	0.26803	0.10435	0.24311	0.25652	0.1843	0.23244	0.2686	0.24156	0.11031	-3.2562	-3.4813	-3.8	-3.4375	-3.7229	-3.6333	-3.7938	-3.9896	-3.7062	-3.6104	-3.8312	-3.6021	-3.6396	-3.925	-3.3729	-3.7625	-15.508	97.917	135.768	3.755	257.106	-43.751	260.313	298.890	25.871	254.325	298.254	268.604	275.787	232.894	225.822	285.375	0.00029489	0.00095252	8.9658e-05	1360.6	2.9502e-06	6.7986e-06	1357	364.2	9.6732e-06	5.2518e-06	416.08	137.68	119.52	41.339	5.1464e-06	50.995	0.001078	0.0010443	0.00026463	1404.6	1.2023e-05	1.1041e-05	1394.7	380	1.1857e-05	1.1277e-05	431.58	146.33	126.48	43.502	1.0754e-05	54.478	121.614	-10.031	107.080	-42.010	225.053	34.575	-42.073	-37.265	53.825	64.865	-38.071	-33.952	-33.386	-28.492	130.655	-29.422	-8191	255	
1324.971	1	1	0	0	0.13327	0.16063	0.036871	0.18538	0.15315	0.2302	0.19153	0.046221	0.23382	0.176	0.2628	0.032787	0.096403	0.088365	0.034287	0.33436	-3.35	-3.3937	-3.725	-3.7729	-3.5667	-3.8167	-3.6083	-3.7354	-3.5896	-3.3667	-3.9188	-3.5958	-3.6688	-3.8708	-3.4292	-3.8667	-49.973	267.382	292.595	300.619	-49.692	143.084	-44.384	260.038	-38.862	198.425	216.335	147.633	164.108	-44.646	245.543	246.741	9.8234e-05	0.00081007	5.6405e-05	1363.7	7.4578e-06	4.3109e-06	1353	362.49	6.8461e-06	4.3798e-06	416.16	137.39	119.45	41.408	6.0823e-06	50.84	0.0010249	0.0010101	0.00026806	1405.1	1.1506e-05	1.0602e-05	1393.5	379.92	1.1175e-05	1.085e-05	432.28	145.96	126.05	43.355	1.1085e-05	54.404	106.982	21.573	60.263	-42.120	56.572	87.838	-42.284	-37.524	6.573	35.424	-37.851	-33.939	-33.021	-28.778	170.094	-29.184	-8191	255	
1325.067	1	1	0	0	0.17845	0.047794	0.16778	0.13209	0.12369	0.11455	0.094518	0.29028	0.075856	0.12764	0.29763	0.1226	0.32726	0.22171	0.15322	0.032089	-3.2229	-3.1646	-3.7292	-3.6625	-3.5042	-3.8521	-3.5771	-3.7833	-3.7292	-3.4646	-3.8104	-3.5458	-3.5104	-3.9396	-3.4667	-3.6771	297.942	51.023	211.284	182.660	-27.707	183.040	77.011	225.543	1.280	253.431	0.363	204.733	239.216	-41.648	174.205	6.135	0.00036291	0.0010625	0.00018149	1361.1	2.3113e-07	6.0774e-06	1350.9	363.44	4.1563e-06	1.015e-06	414.37	137.59	119.57	41.401	3.5351e-06	50.884	0.00097938	0.00097674	0.00028372	1403.4	1.1168e-05	1.0241e-05	1395.8	379.69	1.0852e-05	1.0573e-05	433.4	145.85	125.9	43.318	1.1806e-05	54.308	110.161	-11.066	31.448	-42.239	286.872	65.938	-42.087	-37.382	76.718	36.476	-37.861	-33.840	-33.278	-28.617	113.867	-29.295	-8191	255	
1325.164	1	1	0	0	0.085587	0.20527	0.14931	0.23652	0.066629	0.069285	0.11508	0.21783	0.21767	0.16298	0.04138	0.21815	0.092266	0.12367	0.20081	0.066227	-3.3417	-3.4917	-3.7271	-3.7792	-3.4208	-3.9	-3.6	-3.8312	-3.7708	-3.3521	-3.8854	-3.7042	-3.6521	-3.9375	-3.5396	-3.7271	13.631	5.516	58.147	200.183	275.121	205.429	298.838	178.019	16.999	78.683	203.825	229.447	210.131	73.781	291.097	210.805	0.00023466	0.00069897	0.00034729	1362.5	5.6e-06	3.366e-06	1353.9	364.38	9.5891e-06	1.5343e-06	415.72	137.66	118.96	41.384	1.4958e-06	50.963	0.00094719	0.00096936	0.00030074	1402.8	1.0918e-05	1.0271e-05	1398.3	379.6	1.0494e-05	1.0655e-05	434.57	145.39	125.28	43.417	1.2066e-05	54.154	90.602	75.030	76.086	-42.166	97.890	146.264	-42.176	-37.578	38.734	136.773	-38.128	-33.917	-33.290	-28.718	282.209	-29.203	-8191	255	
1325.282	1	1	0	0	0.08527	0.17174	0.32231	0.17681	0.101	0.1542	0.20369	0.12949	0.046345	0.1986	0.30967	0.1563	0.14706	0.16061	0.081635	0.37412	-3.2396	-3.2917	-3.7792	-3.8958	-3.4479	-3.8063	-3.5708	-3.7542	-3.8396	-3.575	-3.85	-3.8833	-3.5167	-3.85	-3.5146	-3.625	168.260	92.936	73.193	217.278	249.931	10.691	201.694	246.639	156.789	-20.452	207.258	-26.030	216.015	-47.121	220.381	190.028	0.00013953	0.0003671	9.4385e-05	1357.8	9.4606e-06	5.5826e-06	1354	363.58	8.1004e-06	8.4815e-07	415.84	137.59	119.37	41.187	1.8001e-06	50.721	0.00091823	0.00099143	0.00030845	1397.7	1.0568e-05	1.0809e-05	1398.9	378.95	1.0242e-05	1.1262e-05	435.19	145.13	125.45	43.599	1.2012e-05	54.044	89.572	94.354	4.627	-42.146	44.769	162.660	-42.055	-37.455	33.789	255.259	-38.085	-33.834	-33.316	-28.491	149.741	-29.320	-8191	255	
1325.379	1	1	0	0	0.12397	0.070684	0.14371	0.2583	0.12693	0.085037	0.3699	0.18142	0.17866	0.24743	0.45264	0.17638	0.036234	0.12559	0.091429	0.22856	-3.5833	-3.4896	-3.7375	-4.0375	-3.4125	-3.7708	-3.7396	-3.6	-3.8479	-3.4188	-3.9	-3.9354	-3.5792	-3.8083	-3.5958	-3.6667	284.987	239.427	158.204	287.578	110.652	6.259	226.043	230.889	236.978	295.990	227.625	-28.538	13.990	-45.655	278.212	277.512	0.00038248	0.00020673	0.00020668	1364.5	1.6222e-06	5.8269e-06	1361.4	363.8	1.4978e-06	5.0586e-06	414.83	137.73	119.61	41.337	4.8873e-06	50.973	0.00090691	0.0010583	0.00030615	1399.6	1.0519e-05	1.1678e-05	1399.5	378.18	1.0233e-05	1.1966e-05	434.52	144.88	125.58	43.804	1.1615e-05	54.01	95.143	85.377	-12.990	-42.160	67.846	198.313	-42.131	-37.527	272.268	121.608	-38.116	-33.760	-33.320	-28.540	106.232	-29.293	-8191	255	
1325.475	1	1	0	0	0.12886	0.076026	0.16453	0.012464	0.023499	0.19406	0.27493	0.13102	0.19757	0.1704	0.22054	0.10864	0.21644	0.14176	0.17543	0.27478	-3.3625	-3.4667	-3.5292	-3.7208	-3.2625	-3.775	-3.6958	-3.5792	-3.9167	-3.7	-3.625	-4.0021	-3.4271	-3.8104	-3.7792	-3.3458	-28.712	119.819	33.577	-33.493	226.499	172.440	225.795	-54.589	162.341	-31.015	247.262	27.831	-52.010	215.486	178.161	253.825	0.00028344	0.00062357	0.00021577	1364.1	2.6519e-06	5.405e-06	1355.4	362.63	4.8437e-06	7.3642e-06	417.87	137.74	119.58	41.39	4.0531e-06	51.012	0.00092013	0.0011101	0.00029882	1399.8	1.0644e-05	1.2065e-05	1396	377.22	1.0526e-05	1.2048e-05	434.7	144.85	125.78	43.916	1.1065e-05	53.95	114.436	74.130	38.186	-42.208	304.035	112.818	-42.085	-37.612	142.124	167.647	-38.009	-33.961	-33.128	-28.385	63.148	-29.206	-8191	255	
1325.571	1	1	0	0	0.20079	0.2147	0.13722	0.041022	0.21762	0.24644	0.32108	0.12287	0.064454	0.30219	0.16172	0.052631	0.17078	0.040643	0.021954	0.1229	-3.3292	-3.4125	-3.4667	-4.0604	-3.4729	-3.7062	-3.9729	-3.6646	-4.0229	-3.5958	-3.6625	-3.9396	-3.4354	-3.7917	-3.8104	-3.5958	247.616	-47.356	303.838	178.527	282.022	232.665	273.631	270.516	-26.440	285.671	215.076	261.215	279.219	296.006	291.712	204.369	0.00024059	0.00026582	0.00017945	1363.6	1.7149e-06	1.7577e-06	1357.1	364.42	2.3308e-06	4.5393e-06	415.29	137.84	119.59	41.39	2.4393e-06	51.168	0.0009533	0.0010939	0.00028352	1396.6	1.1117e-05	1.1923e-05	1394.1	377.36	1.116e-05	1.1763e-05	432.68	144.42	126.37	43.834	1.0675e-05	53.877	115.183	159.396	14.920	-42.117	166.768	19.015	-42.224	-37.433	173.441	98.201	-38.032	-33.838	-33.190	-28.483	141.739	-29.560	-8191	255	
1325.667	1	1	0	0	0.092606	0.16013	0.1222	0.37267	0.18677	0.31813	0.2238	0.31213	0.1922	0.1042	0.25348	0.20005	0.099947	0.12923	0.21528	0.2126	-3.3333	-3.5729	-3.675	-4.1396	-3.55	-3.7708	-3.8896	-3.4688	-4.0375	-3.7729	-3.7208	-3.8833	-3.7	-3.6458	-3.7021	-3.3771	52.997	37.846	29.891	271.761	-21.801	255.360	225.270	273.628	235.501	-5.874	215.269	231.077	288.612	294.956	242.594	250.278	0.00027992	0.00077808	0.00028441	1363.7	2.5687e-06	6.3974e-06	1356.3	363.93	2.6531e-06	6.6408e-06	417.62	137.03	118.92	41.303	6.904e-06	51.022	0.0010173	0.0010563	0.00027784	1396.5	1.1672e-05	1.1647e-05	1393.4	377.26	1.1703e-05	1.1239e-05	432.32	144.31	126.22	43.625	1.0295e-05	53.984	96.917	-13.323	-42.483	-41.967	62.123	97.797	-42.255	-37.489	137.442	82.045	-37.800	-33.625	-33.171	-28.856	127.799	-29.149	-8191	255	
1325.763	1	1	0	0	0.26359	0.037876	0.075492	0.081113	0.095937	0.21046	0.21351	0.24047	0.10358	0.030614	0.12363	0.16466	0.10757	0.15039	0.22537	0.23069	-3.3083	-3.6396	-3.5229	-3.7854	-3.5271	-3.55	-3.8333	-3.5208	-3.8667	-3.9042	-3.4292	-3.9208	-3.6021	-3.5729	-3.7521	-3.5042	-17.277	177.603	303.682	-2.838	64.430	244.115	200.211	234.579	217.502	144.576	302.889	261.174	120.262	-50.820	137.765	109.701	0.00032146	0.00078407	0.00022408	1362.5	4.229e-06	4.3236e-06	1357.3	363.38	3.3887e-06	4.9482e-06	414.68	137.5	120.07	41.515	2.7329e-06	51.238	0.0010466	0.0010084	0.00027017	1396.8	1.1862e-05	1.1176e-05	1391.9	377.76	1.1858e-05	1.0798e-05	431.12	145.15	126.52	43.666	1.0047e-05	54.221	88.449	17.549	78.294	-41.895	56.486	38.327	-42.253	-37.326	276.974	47.640	-38.253	-33.841	-33.264	-28.614	153.768	-29.341	-8191	255	
1325.884	1	1	0	0	0.15755	0.11872	0.16471	0.26633	0.11884	0.32675	0.12274	0.21932	0.099447	0.16229	0.20617	0.2155	0.19361	0.24319	0.11805	0.025989	-3.3854	-3.6312	-3.2167	-3.9021	-3.525	-3.3667	-3.9917	-3.6542	-3.6833	-3.7354	-3.6437	-3.7625	-3.5354	-3.8	-3.6562	-3.3563	259.563	113.248	147.310	262.614	14.918	223.334	245.967	239.482	147.083	34.700	263.819	187.501	273.552	-44.011	252.277	255.566	0.0001773	0.0010049	9.2404e-05	1363.7	2.0099e-06	3.365e-06	1355.1	362.51	6.2048e-06	8.013e-06	415.36	137.61	119.32	41.373	8.3318e-06	51.141	0.001049	0.00098417	0.00026539	1403	1.1677e-05	1.101e-05	1389.2	378.98	1.1735e-05	1.0709e-05	431.45	145.65	126.19	43.589	1.0196e-05	54.381	97.427	-26.837	45.619	-41.870	12.290	49.720	-42.144	-37.485	173.560	70.927	-38.145	-33.512	-33.201	-28.525	113.833	-29.350	-8191	255	
1325.980	1	1	0	0	0.21704	0.084527	0.28849	0.068017	0.11563	0.15183	0.10099	0.32868	0.19934	0.13369	0.12897	0.17047	0.20543	0.25423	0.15444	0.25346	-3.2958	-3.7708	-3.4104	-3.9354	-3.5604	-3.3833	-4.0458	-3.6083	-3.7687	-3.8625	-3.4167	-3.8542	-3.7687	-3.2917	-3.7229	-3.6292	284.284	4.359	287.304	53.480	70.557	153.694	242.905	206.816	42.649	101.810	252.951	-36.203	224.944	185.851	30.803	246.145	0.000137	0.00083901	0.00010324	1364.6	1.922e-06	2.588e-06	1354.4	363.69	4.5708e-06	7.3671e-06	415.43	138.11	119.65	41.389	9.9481e-06	51.2	0.001024	0.00096352	0.00026894	1405.9	1.1171e-05	1.0788e-05	1391.3	379.63	1.1393e-05	1.0358e-05	432.11	146.31	125.88	43.513	1.0621e-05	54.388	115.341	49.738	34.288	-42.054	68.430	49.205	-42.190	-37.823	35.511	81.523	-37.976	-33.845	-33.296	-28.520	206.617	-29.303	-8191	255	
1326.074	1	1	0	0	0.029265	0.13237	0.14265	0.21556	0.10622	0.17252	0.29946	0.12639	0.16608	0.27114	0.076745	0.13435	0.2809	0.078335	0.099972	0.2386	-3.1667	-3.6146	-3.2667	-4.0542	-3.7083	-3.2979	-3.9271	-3.6521	-3.5792	-3.925	-3.5354	-3.7583	-3.6688	-3.3958	-3.7792	-3.675	272.353	14.698	189.975	294.863	-1.618	99.598	225.857	234.626	146.298	204.909	274.897	-38.698	242.312	130.413	96.861	261.176	0.00021932	0.00063161	4.8877e-05	1362.6	5.967e-06	1.6711e-06	1355.1	364.55	6.6321e-06	7.3858e-06	415.48	138.02	119.2	41.415	2.3195e-06	51.019	0.00098947	0.00092742	0.00028378	1405.4	1.0832e-05	1.0413e-05	1394.1	379.42	1.0986e-05	1.0029e-05	433.66	145.8	125.51	43.465	1.1289e-05	54.259	133.170	18.579	128.053	-42.086	-3.885	157.017	-42.039	-37.492	7.135	54.055	-37.848	-33.715	-33.222	-28.496	226.725	-29.493	-8191	255	
#DATA ENDS
