BOXY.EXE: ISS Imagent and Oximeter Data Acquisition Program Version 0.80
Ascii Record File

#ACQ INFORMATION
2  Detector Channels 
16  External MUX Channels 
1  Auxiliary Channels 
5000  Waveform (CCF) Frequency (Hz)
1  Waveforms Skipped 
30  Waveforms Averaged 
1  Cycles Averaged 
16  Acquisitions per Waveform 
10.0806  Updata Rate (Hz) 

#FILE INFORMATION
TRUE -- External MUX Channel results are PARSED.
FALSE -- AC DC and Phase are NOT grouped.
TRUE -- Companion Program Settings File CREATED.
FALSE -- AC data not excluded
FALSE -- DC data not excluded
FALSE -- Phase data not excluded
FALSE -- Auxillary Chn. data not excluded
Tab delimiters

#CALIBRATION STATE
TRUE -- Waveform Calibration Values APPLIED.


#AUX CALIBRATION VALUES
Val Type	aux-1	

Term	1.0000e+00	
Factor	0.0000e+00	


#WF CALIBRATION VALUES
A = Detector Channel
Val Type	A-AC1	A-AC2	A-AC3	A-AC4	A-AC5	A-AC6	A-AC7	A-AC8	A-AC9	A-AC10	A-AC11	A-AC12	A-AC13	A-AC14	A-AC15	A-AC16	A-DC1	A-DC2	A-DC3	A-DC4	A-DC5	A-DC6	A-DC7	A-DC8	A-DC9	A-DC10	A-DC11	A-DC12	A-DC13	A-DC14	A-DC15	A-DC16	A-Ph1	A-Ph2	A-Ph3	A-Ph4	A-Ph5	A-Ph6	A-Ph7	A-Ph8	A-Ph9	A-Ph10	A-Ph11	A-Ph12	A-Ph13	A-Ph14	A-Ph15	A-Ph16	

Term	0.00000e+00	0.00000e+00	0.00000e+00	0.00000e+00	0.00000e+00	0.00000e+00	0.00000e+00	0.00000e+00	0.00000e+00	0.00000e+00	0.00000e+00	0.00000e+00	0.00000e+00	0.00000e+00	0.00000e+00	0.00000e+00	0.00000e+00	0.00000e+00	0.00000e+00	0.00000e+00	0.00000e+00	0.00000e+00	0.00000e+00	0.00000e+00	0.00000e+00	0.00000e+00	0.00000e+00	0.00000e+00	0.00000e+00	0.00000e+00	0.00000e+00	0.00000e+00	0.00000e+00	0.00000e+00	0.00000e+00	0.00000e+00	0.00000e+00	0.00000e+00	0.00000e+00	0.00000e+00	0.00000e+00	0.00000e+00	0.00000e+00	0.00000e+00	0.00000e+00	0.00000e+00	0.00000e+00	0.00000e+00	
Factor	1.00000e+00	1.00000e+00	1.00000e+00	1.00000e+00	1.00000e+00	1.00000e+00	1.00000e+00	1.00000e+00	1.00000e+00	1.00000e+00	1.00000e+00	1.00000e+00	1.00000e+00	1.00000e+00	1.00000e+00	1.00000e+00	1.00000e+00	1.00000e+00	1.00000e+00	1.00000e+00	1.00000e+00	1.00000e+00	1.00000e+00	1.00000e+00	1.00000e+00	1.00000e+00	1.00000e+00	1.00000e+00	1.00000e+00	1.00000e+00	1.00000e+00	1.00000e+00	X	X	X	X	X	X	X	X	X	X	X	X	X	X	X	X	

B = Detector Channel
Val Type	B-AC1	B-AC2	B-AC3	B-AC4	B-AC5	B-AC6	B-AC7	B-AC8	B-AC9	B-AC10	B-AC11	B-AC12	B-AC13	B-AC14	B-AC15	B-AC16	B-DC1	B-DC2	B-DC3	B-DC4	B-DC5	B-DC6	B-DC7	B-DC8	B-DC9	B-DC10	B-DC11	B-DC12	B-DC13	B-DC14	B-DC15	B-DC16	B-Ph1	B-Ph2	B-Ph3	B-Ph4	B-Ph5	B-Ph6	B-Ph7	B-Ph8	B-Ph9	B-Ph10	B-Ph11	B-Ph12	B-Ph13	B-Ph14	B-Ph15	B-Ph16	

Term	0.00000e+00	0.00000e+00	0.00000e+00	0.00000e+00	0.00000e+00	0.00000e+00	0.00000e+00	0.00000e+00	0.00000e+00	0.00000e+00	0.00000e+00	0.00000e+00	0.00000e+00	0.00000e+00	0.00000e+00	0.00000e+00	0.00000e+00	0.00000e+00	0.00000e+00	0.00000e+00	0.00000e+00	0.00000e+00	0.00000e+00	0.00000e+00	0.00000e+00	0.00000e+00	0.00000e+00	0.00000e+00	0.00000e+00	0.00000e+00	0.00000e+00	0.00000e+00	-1.65095e+02	-1.36760e+02	-1.28228e+02	-1.79802e+02	-7.58801e+01	-8.06562e+01	-1.58085e+02	-1.62015e+02	-8.34201e+01	-6.02352e+01	-1.69977e+02	-1.71992e+02	-1.83057e+02	-1.76155e+02	-6.30896e+01	-1.48803e+02	
Factor	2.68855e-05	1.33963e-04	4.06587e-05	1.73064e-01	1.18092e-06	1.38058e-06	1.79830e-01	6.39379e-02	1.39152e-06	1.46583e-06	8.33553e-02	3.13931e-02	2.72019e-02	8.97484e-03	1.12261e-06	1.30680e-02	1.59552e-06	1.68252e-06	4.69401e-07	8.55044e-02	1.82819e-08	1.84544e-08	8.38191e-02	3.15264e-02	1.83315e-08	1.84551e-08	3.98753e-02	1.49757e-02	1.33735e-02	4.44832e-03	1.83795e-08	6.25309e-03	X	X	X	X	X	X	X	X	X	X	X	X	X	X	X	X	



#DISTANCE SETTINGS
A = Detector Channel
A-1	A-2	A-3	A-4	A-5	A-6	A-7	A-8	A-9	A-10	A-11	A-12	A-13	A-14	A-15	A-16	

2.5000e+00	3.0000e+00	2.5000e+00	3.0000e+00	2.0000e+00	3.0000e+00	1.5000e+00	3.0000e+00	3.0000e+00	3.0000e+00	3.0000e+00	3.0000e+00	3.0000e+00	3.0000e+00	1.5000e+00	3.0000e+00	

B = Detector Channel
B-1	B-2	B-3	B-4	B-5	B-6	B-7	B-8	B-9	B-10	B-11	B-12	B-13	B-14	B-15	B-16	

1.0000e+01	1.0000e+01	1.0000e+01	1.4400e+00	1.0000e+01	1.0000e+01	1.5100e+00	1.9400e+00	1.0000e+01	1.0000e+01	1.9900e+00	2.4900e+00	2.4100e+00	2.9000e+00	1.0000e+01	2.9800e+00	




#DATA BEGINS
time	group	step	mark	flag	A-AC1	A-AC2	A-AC3	A-AC4	A-AC5	A-AC6	A-AC7	A-AC8	A-AC9	A-AC10	A-AC11	A-AC12	A-AC13	A-AC14	A-AC15	A-AC16	A-DC1	A-DC2	A-DC3	A-DC4	A-DC5	A-DC6	A-DC7	A-DC8	A-DC9	A-DC10	A-DC11	A-DC12	A-DC13	A-DC14	A-DC15	A-DC16	A-Ph1	A-Ph2	A-Ph3	A-Ph4	A-Ph5	A-Ph6	A-Ph7	A-Ph8	A-Ph9	A-Ph10	A-Ph11	A-Ph12	A-Ph13	A-Ph14	A-Ph15	A-Ph16	B-AC1	B-AC2	B-AC3	B-AC4	B-AC5	B-AC6	B-AC7	B-AC8	B-AC9	B-AC10	B-AC11	B-AC12	B-AC13	B-AC14	B-AC15	B-AC16	B-DC1	B-DC2	B-DC3	B-DC4	B-DC5	B-DC6	B-DC7	B-DC8	B-DC9	B-DC10	B-DC11	B-DC12	B-DC13	B-DC14	B-DC15	B-DC16	B-Ph1	B-Ph2	B-Ph3	B-Ph4	B-Ph5	B-Ph6	B-Ph7	B-Ph8	B-Ph9	B-Ph10	B-Ph11	B-Ph12	B-Ph13	B-Ph14	B-Ph15	B-Ph16	aux-1	digaux	

3236.700	1	1	0	256	0.33122	0.085787	0.36335	0.16877	0.19508	0.11226	0.22096	0.2724	0.081452	0.10552	0.14875	0.2008	0.098775	0.2522	0.097134	0.30643	-3.0917	-2.9729	-3.5833	-3.4479	-3.2667	-3.4333	-3.2854	-3.4688	-3.5729	-3.1479	-3.8146	-3.5146	-3.2125	-3.7896	-3.4396	-3.625	108.789	53.128	159.560	45.860	161.206	71.493	257.229	-33.754	196.270	48.506	61.128	222.090	-6.739	270.404	95.587	217.700	0.00059026	0.00052164	0.00024307	792.58	7.939e-06	3.777e-06	981.97	313.44	6.362e-06	8.0659e-06	495	231.28	138.87	66.174	3.5052e-06	125.61	0.00038673	0.00033549	9.5726e-05	761.52	3.8976e-06	3.6472e-06	939.69	299.87	3.8072e-06	3.6497e-06	468.91	219.9	133.13	63.294	3.9243e-06	119.06	143.608	0.207	27.934	-65.995	54.557	50.870	-66.039	-61.206	-12.019	58.312	-62.290	-59.024	-58.530	-53.528	190.391	-55.212	-8191	255	
3236.796	1	1	0	0	0.15258	0.12044	0.11681	0.17017	0.27994	0.068842	0.1875	0.055579	0.11687	0.19603	0.21089	0.26955	0.24912	0.11734	0.065505	0.12071	-3.3042	-3.1937	-3.5083	-3.7729	-3.2958	-3.8812	-3.3396	-3.3708	-3.625	-3.2271	-3.8042	-3.7354	-3.3021	-3.875	-3.2646	-3.4062	47.112	47.253	192.365	94.936	97.989	130.858	191.949	72.442	128.368	267.963	180.118	266.562	-63.769	227.856	243.910	194.377	0.00062064	0.00048912	0.00031264	792.17	5.3577e-06	5.608e-06	979.03	312.92	3.4941e-06	5.5903e-06	494.74	230.89	139.62	66.706	5.0164e-06	126.37	0.0003697	0.00033189	0.00010001	760.4	3.7154e-06	3.5002e-06	940.66	300.23	3.7239e-06	3.5428e-06	470.34	220.53	133.43	63.538	4.0922e-06	119.59	141.772	-16.840	33.572	-65.919	60.989	68.103	-65.950	-61.377	48.720	45.608	-62.374	-59.097	-58.594	-53.460	86.628	-55.210	-8191	255	
3236.917	1	1	0	0	0.21635	0.30628	0.40824	0.35075	0.26766	0.065008	0.099962	0.30138	0.078586	0.17862	0.39966	0.073718	0.25711	0.14702	0.22562	0.11664	-3.025	-3.0042	-3.3417	-3.5062	-3.0896	-3.7562	-3.3875	-3.4083	-3.6542	-3.2021	-3.5812	-3.4479	-3.3104	-3.725	-3.5375	-3.5333	241.350	-66.275	190.548	265.098	62.777	1.863	111.595	257.517	142.268	275.409	219.387	276.511	-76.769	241.783	231.966	172.218	0.00059486	0.00040537	8.5037e-05	789.4	1.9941e-06	4.9669e-06	982.46	313.01	1.0179e-05	5.6204e-06	497.33	232.07	139.72	66.852	3.1417e-06	126.69	0.00035863	0.00033049	0.00010411	758.99	3.6143e-06	3.4975e-06	942.12	299.6	3.5921e-06	3.584e-06	473.09	220.6	133.78	63.663	4.1411e-06	119.95	142.780	7.471	40.330	-65.973	-21.940	80.454	-66.041	-61.535	19.029	49.062	-62.355	-59.201	-58.413	-53.585	29.538	-55.111	-8191	255	
3236.989	1	1	0	0	0.24203	0.15719	0.36535	0.18038	0.11096	0.060308	0.10392	0.37868	0.1468	0.045513	0.14831	0.30033	0.22789	0.15011	0.13711	0.26507	-3.0792	-3.0479	-3.4271	-3.4896	-2.8937	-3.3917	-3.425	-3.2854	-3.6	-3.3812	-3.5854	-3.6479	-3.1688	-3.7521	-3.325	-3.4167	90.247	-67.855	161.984	270.482	20.521	24.020	125.415	234.686	-72.434	226.677	-58.806	194.003	269.069	200.891	-40.473	185.201	0.00060135	0.00029983	0.00019121	787.97	7.0897e-06	7.0048e-06	978.37	313.51	6.424e-06	9.541e-06	498.93	231.45	140.22	66.902	6.1322e-06	126.91	0.00035083	0.00033628	0.00010352	757.58	3.5469e-06	3.7987e-06	940.94	299.83	3.5004e-06	3.8283e-06	473.65	220.38	133.84	63.659	4.0584e-06	119.8	135.404	66.728	7.258	-66.148	27.092	96.812	-66.126	-61.523	43.699	73.233	-62.490	-59.242	-58.475	-53.507	71.137	-55.169	-8191	255	
3237.085	1	1	0	0	0.10559	0.2037	0.06414	0.33722	0.19622	0.17015	0.12581	0.38908	0.17579	0.022289	0.43466	0.25499	0.20202	0.20935	0.072168	0.28824	-3.1375	-3.0625	-3.2562	-3.3396	-3.0521	-3.6271	-3.6312	-3.45	-3.6604	-3.4938	-3.4333	-3.7146	-3.1729	-3.4479	-3.3208	-3.3958	274.694	255.961	-27.187	278.475	255.951	63.736	234.162	252.758	-57.496	233.727	218.205	86.349	257.889	256.479	182.949	243.307	0.0005117	0.00075729	0.00036146	789.13	6.5939e-06	6.5319e-06	978.1	312.95	2.0426e-06	6.9047e-06	496.94	230.73	139.64	66.812	3.306e-06	126.68	0.00035389	0.00036384	0.00010299	757.14	3.5644e-06	4.0046e-06	939.04	299.06	3.557e-06	4.0671e-06	472.18	219.94	133.53	63.826	3.9689e-06	119.97	144.472	22.598	9.806	-65.936	48.294	79.416	-65.943	-61.200	55.639	74.139	-62.260	-59.147	-58.296	-53.634	92.070	-55.308	-8191	255	
3237.205	1	1	0	0	0.19219	0.15996	0.10116	0.11443	0.074961	0.14735	0.44728	0.16947	0.21602	0.18462	0.20201	0.18979	0.23417	0.22258	0.1186	0.26772	-2.9125	-3.1833	-3.2104	-3.4854	-3.1333	-3.4083	-3.375	-3.1896	-3.575	-3.2146	-3.2854	-3.7146	-3.1292	-3.6312	-3.3542	-3.3896	11.219	149.427	230.847	-65.118	145.929	32.258	268.162	260.559	-5.898	-16.506	245.127	-72.059	243.751	262.693	-59.996	252.347	0.00060104	0.00050547	0.0002014	789.06	2.8391e-06	5.07e-06	980.43	313.36	7.7753e-06	1.1103e-05	497.61	232.2	140.35	67.098	5.7954e-06	127.34	0.00035629	0.00037712	9.8584e-05	756.89	3.6313e-06	4.0895e-06	940.99	299.22	3.6647e-06	4.095e-06	472.53	220.77	134.13	64.011	3.7619e-06	120.47	130.229	-24.899	-22.245	-66.200	59.937	15.132	-66.225	-61.267	34.603	88.289	-62.543	-59.242	-58.484	-53.429	12.639	-55.231	-8191	255	
3237.301	1	1	0	0	0.19383	0.14298	0.083537	0.06614	0.034582	0.23892	0.042637	0.1516	0.12876	0.4195	0.22261	0.026376	0.1439	0.25285	0.11665	0.10034	-2.9188	-3.1167	-3.0375	-3.7271	-3.1771	-3.5687	-3.8021	-3.3458	-3.7208	-3.4688	-3.3875	-3.7667	-3.2292	-3.4646	-3.3667	-3.2625	174.576	31.646	-46.599	3.954	126.922	-57.309	205.671	146.700	209.054	213.703	-48.606	202.025	220.225	274.467	117.929	158.717	0.0006591	0.001201	0.0003483	790.43	3.3463e-06	9.1091e-06	986.47	313.38	2.9282e-06	7.088e-06	499.18	231.75	140.74	67.165	4.4308e-06	127.4	0.00037566	0.00037037	9.6535e-05	757.54	3.7994e-06	4.0232e-06	940.76	298.7	3.8411e-06	3.9759e-06	473.79	220.78	134.3	64.025	3.5767e-06	120.83	143.158	14.136	11.850	-66.004	111.236	66.230	-66.032	-61.416	66.777	104.632	-62.292	-59.277	-58.549	-53.697	85.477	-55.144	-8191	255	
3237.398	1	1	0	0	0.29017	0.10751	0.19166	0.22941	0.027127	0.15458	0.36071	0.09039	0.084055	0.13921	0.11101	0.29241	0.18614	0.13325	0.24524	0.24975	-3.0125	-3.2792	-3.1188	-3.7729	-3.2208	-3.4667	-3.6292	-3.2104	-3.5729	-3.4854	-3.3104	-3.5062	-3.4437	-3.3417	-3.4375	-3.2833	-32.221	223.137	-30.181	231.009	179.083	158.570	201.280	-68.176	77.824	28.877	217.137	273.364	-66.596	268.931	227.473	200.985	0.00061892	0.001093	0.00024678	790.75	1.2558e-06	9.1334e-06	985.45	311.99	6.7388e-06	7.5462e-06	498.92	232.28	139.96	66.92	1.8689e-06	127.52	0.00038567	0.00035575	9.1767e-05	756.08	3.9597e-06	3.8412e-06	939.54	298.38	4.0445e-06	3.8602e-06	472.26	220.26	134.23	63.862	3.4983e-06	120.43	133.236	-6.659	17.089	-65.746	115.039	80.983	-66.269	-61.145	53.122	87.628	-62.256	-59.309	-58.517	-53.519	97.761	-55.385	-8191	255	
3237.494	1	1	0	0	0.25689	0.01993	0.15913	0.11965	0.074251	0.037134	0.39325	0.27164	0.060274	0.18528	0.12405	0.2022	0.040341	0.21768	0.25443	0.11757	-2.95	-3.3292	-2.9708	-3.4833	-3.3833	-3.325	-3.7729	-3.2	-3.3563	-3.3667	-3.3	-3.6792	-3.5229	-3.4042	-3.7042	-3.6188	43.402	15.056	-22.218	255.663	-70.049	4.982	224.867	183.044	243.626	253.925	278.975	248.056	225.407	270.818	245.989	216.505	0.00055578	0.00050908	0.00024353	789.01	8.487e-06	8.0178e-06	986.19	311.55	5.5326e-06	1.1229e-05	499.25	231.9	139.69	66.956	5.2132e-06	127.4	0.00039726	0.00034365	9.0916e-05	757.36	3.9751e-06	3.7149e-06	939.98	298.19	4.0211e-06	3.616e-06	473.24	220.73	134.07	63.844	3.4427e-06	120.65	139.598	-24.881	0.345	-65.908	69.090	44.035	-66.111	-61.422	38.589	100.239	-62.291	-59.210	-58.589	-53.548	75.514	-55.254	-8191	255	
3237.588	1	1	0	0	0.013281	0.26447	0.17315	0.078242	0.050163	0.093959	0.047913	0.18158	0.048868	0.14678	0.073074	0.029529	0.058543	0.20656	0.2067	0.30746	-3.1542	-3.7188	-3.2854	-3.5875	-3.4708	-3.2938	-3.7667	-3.4	-3.3833	-3.7313	-3.3875	-3.7583	-3.675	-3.3021	-3.6896	-3.5542	222.736	118.292	26.491	274.900	232.503	-24.836	-77.321	-77.453	64.914	222.744	277.940	44.299	246.705	0.473	250.234	171.987	0.00057142	0.00076928	0.00016155	789.56	4.6254e-06	3.1659e-06	980.87	312.03	6.963e-06	6.1245e-06	499.23	232.51	140.62	66.957	4.4039e-06	127.72	0.00039204	0.00032658	8.8169e-05	758.11	3.8958e-06	3.5602e-06	941.85	299.2	3.8769e-06	3.5646e-06	472.92	221.4	134.48	63.928	3.4258e-06	121.06	143.851	48.984	4.401	-66.118	82.378	45.597	-65.946	-61.207	34.962	92.848	-62.620	-59.100	-58.459	-53.343	33.809	-55.396	-8191	255	
3237.684	1	1	0	0	0.062796	0.13118	0.10939	0.22943	0.31446	0.08754	0.16556	0.12691	0.15624	0.18357	0.21884	0.26804	0.24614	0.42934	0.050276	0.32339	-2.8979	-3.6458	-3.175	-3.6458	-3.4729	-3.2292	-3.6875	-3.3667	-3.3354	-3.5875	-3.2604	-3.6417	-3.3312	-2.9771	-3.3271	-3.4833	235.742	14.339	171.131	-78.306	-58.918	196.524	138.480	62.629	124.368	-78.850	258.161	234.615	-51.248	-74.615	43.014	273.557	0.00053077	0.00045769	0.00022953	792.17	2.9788e-06	7.2989e-06	983.37	312.76	8.6977e-06	8.5838e-06	497.55	231.47	139.82	66.615	8.2821e-06	127.27	0.00037729	0.00031219	8.9476e-05	760.22	3.7677e-06	3.5359e-06	940.59	299.51	3.702e-06	3.4535e-06	472.59	220.74	133.64	63.687	3.6183e-06	120.58	148.445	-4.611	-8.438	-65.804	33.436	77.914	-66.045	-61.335	42.199	70.411	-62.263	-59.096	-58.447	-53.595	101.652	-55.225	-8191	255	
3237.780	1	1	0	0	0.070366	0.15376	0.24914	0.063759	0.093083	0.24013	0.13464	0.2207	0.13713	0.086333	0.21425	0.23273	0.15087	0.21469	0.12858	0.38006	-2.6083	-3.5583	-3.1688	-3.2687	-3.3937	-3.0604	-3.5896	-3.2958	-3.1458	-3.6625	-3.475	-3.5625	-3.6896	-3.4021	-3.5958	-3.7542	-49.783	186.563	188.717	-49.040	-48.047	72.153	-9.397	107.697	-21.365	76.953	214.609	253.357	-51.601	-50.189	3.034	153.952	0.0006467	0.0010919	0.00014733	789.42	6.2467e-06	6.8904e-06	977.94	311.44	4.9924e-06	5.7599e-06	496.08	230.08	139.48	66.654	2.3061e-06	126.35	0.00036357	0.00031367	9.4537e-05	758.81	3.7066e-06	3.5185e-06	938	298.82	3.7091e-06	3.4846e-06	471.38	219.51	133.38	63.41	4.0086e-06	119.81	144.226	-19.363	-4.508	-66.099	55.494	31.667	-66.086	-61.151	37.145	72.513	-62.318	-59.128	-58.469	-53.563	142.526	-55.230	-8191	255	
3237.901	1	1	0	0	0.16063	0.19088	0.1332	0.16252	0.14868	0.19458	0.095805	0.19044	0.082695	0.13928	0.11189	0.26235	0.20602	0.19303	0.21285	0.23809	-2.9167	-3.6688	-3.2354	-3.4104	-3.5583	-3.2687	-3.7438	-3.4667	-3.3271	-3.7042	-3.5917	-3.5146	-3.8354	-3.4833	-3.6042	-3.6917	-58.718	-0.149	-59.990	275.882	241.856	36.864	275.677	-67.920	117.665	256.267	-78.957	226.833	238.794	257.810	255.672	227.350	0.00062395	0.00066073	7.8452e-05	791.59	4.2553e-06	9.029e-06	978.64	311.58	7.029e-06	2.3546e-06	497.77	230.82	139.39	66.644	3.7322e-06	126.65	0.00036866	0.00032302	0.00010379	758.1	3.6992e-06	3.6313e-06	939.65	298.1	3.701e-06	3.6165e-06	472.8	220.13	133.27	63.473	4.2098e-06	119.88	152.667	-30.866	-71.638	-66.062	82.157	21.825	-65.848	-61.168	66.534	88.169	-62.468	-59.175	-58.435	-53.309	66.418	-55.281	-8191	255	
3237.997	1	1	0	0	0.18325	0.091333	0.32825	0.086358	0.24795	0.076848	0.28952	0.22325	0.028963	0.098535	0.13349	0.43131	0.23089	0.21116	0.25332	0.32709	-2.9208	-3.6562	-3.1979	-3.2021	-3.6479	-3.2583	-3.5667	-3.6292	-3.1292	-3.8042	-3.4917	-3.3875	-3.575	-3.2333	-3.3833	-3.7146	-0.858	253.729	209.230	146.496	260.658	149.285	211.084	279.422	65.514	177.734	225.299	249.146	244.404	212.680	199.504	219.347	0.0005278	0.00037508	0.00014225	791.69	7.8282e-06	7.4857e-06	982.14	313.22	8.19e-07	7.8483e-06	495.68	230.86	138.47	66.648	3.8252e-06	126.47	0.00036583	0.0003356	0.00010758	759.11	3.5977e-06	3.7271e-06	940.82	298.12	3.6593e-06	3.7493e-06	472.6	220.1	133.01	63.443	4.2181e-06	119.97	150.269	-21.923	14.913	-65.949	75.006	104.591	-66.230	-61.427	257.069	47.348	-62.319	-59.054	-58.425	-53.510	75.434	-55.216	-8191	255	
3238.093	1	1	0	0	0.21909	0.27115	0.23592	0.20782	0.18031	0.19396	0.12686	0.089531	0.093569	0.19941	0.24263	0.22032	0.077344	0.31418	0.11598	0.26397	-2.6729	-3.4396	-3.2729	-3.3354	-3.6333	-3.3729	-3.7542	-3.7979	-3.3187	-3.5917	-3.7062	-3.3833	-3.9354	-3.3958	-3.4062	-3.875	260.782	204.893	261.439	256.484	166.353	272.190	252.689	-24.831	116.919	242.121	-36.359	258.408	232.086	235.924	233.638	198.747	0.00052207	0.00064482	0.00016156	783.42	3.4287e-06	2.1556e-06	979.02	309.9	6.2183e-06	6.0714e-06	496.01	230.17	139.01	66.431	2.4137e-06	126.13	0.00036181	0.00035264	0.00010666	753.97	3.5553e-06	3.9409e-06	937.72	297.15	3.5968e-06	3.9829e-06	471.28	218.96	132.54	63.338	4.0642e-06	119.4	137.212	-17.413	38.841	-65.894	44.772	22.632	-66.236	-61.240	43.525	43.315	-62.436	-59.316	-58.442	-53.542	116.915	-55.177	-8191	255	
3238.190	1	1	0	0	0.070213	0.12759	0.11568	0.16066	0.20011	0.38809	0.06571	0.12173	0.11555	0.18909	0.20716	0.28526	0.1865	0.17943	0.12001	0.091788	-2.925	-3.3812	-3.5104	-3.3396	-3.7896	-3.4292	-3.5458	-3.8167	-3.3708	-3.5729	-3.6	-3.325	-3.7729	-3.4646	-3.3542	-3.95	80.698	108.690	213.678	172.279	162.633	268.601	219.706	221.988	-17.059	259.154	216.616	226.114	221.774	-46.347	1.045	228.335	0.00065342	0.0010483	0.0002717	787.3	2.5532e-06	6.1654e-06	972.24	310.35	5.2859e-06	2.8761e-06	495.64	230.03	139.25	66.211	5.3763e-06	125.81	0.0003578	0.0003724	0.00010149	753.46	3.5583e-06	4.1343e-06	933.26	296.42	3.6902e-06	4.1752e-06	469.75	218.64	132.63	63.287	3.9331e-06	119.27	137.307	16.164	5.352	-66.116	96.236	75.636	-66.029	-61.333	72.649	98.743	-62.269	-59.142	-58.436	-53.580	94.329	-55.413	-8191	255	
3238.286	1	1	0	0	0.065785	0.20366	0.1715	0.13117	0.028974	0.097915	0.1587	0.13629	0.34083	0.15907	0.24949	0.25222	0.073304	0.057527	0.027118	0.30841	-2.9458	-3.6813	-3.4917	-3.2771	-3.4333	-3.5292	-3.6188	-3.8021	-3.3958	-3.4167	-3.7458	-3.1729	-3.7125	-3.5792	-3.0396	-3.825	187.436	-41.996	208.574	160.998	-66.593	125.958	196.985	270.786	91.490	63.265	181.483	158.665	-66.044	187.816	208.304	228.007	0.00062569	0.00078441	9.5634e-05	784.48	3.2856e-06	9.6901e-06	975.75	311.42	7.7131e-06	8.3536e-06	494.06	230.01	138.96	66.038	5.5763e-06	125.81	0.00036966	0.00038446	9.7467e-05	752.36	3.6958e-06	4.1378e-06	933.91	296.48	3.8621e-06	4.1783e-06	469.04	218.31	132.57	63.106	3.75e-06	119.15	145.948	-52.550	34.378	-65.983	12.844	82.534	-66.072	-61.451	82.834	85.773	-62.316	-59.120	-58.674	-53.695	35.309	-55.057	-8191	255	
3238.382	1	1	0	0	0.21998	0.20564	0.2174	0.23999	0.24909	0.11435	0.15483	0.30738	0.17677	0.15255	0.34617	0.13514	0.11335	0.2928	0.15053	0.34931	-2.8771	-3.2812	-3.3417	-3.2313	-3.6125	-3.3563	-3.5083	-3.675	-3.3312	-3.5375	-3.8458	-3.4896	-3.5812	-3.5521	-3.2708	-3.9104	32.167	254.567	66.776	266.598	171.382	110.760	-35.276	242.734	-7.874	209.968	233.884	240.050	189.388	246.298	86.318	192.937	0.00052973	0.00053349	0.00019726	785.18	1.414e-07	8.188e-06	975.81	309.24	4.6035e-06	5.9611e-06	495.36	230.34	138.27	65.914	3.8849e-06	125.97	0.00038243	0.00037366	9.2792e-05	752.09	3.9102e-06	3.9795e-06	934.07	295.68	4.0128e-06	3.9614e-06	468.76	218.32	132.33	62.909	3.6198e-06	118.91	145.347	0.553	5.573	-65.981	-32.138	41.271	-65.901	-61.754	52.002	34.773	-62.268	-59.042	-58.406	-53.495	85.419	-55.031	-8191	255	
3238.478	1	1	0	0	0.17345	0.17333	0.072879	0.12502	0.13621	0.12982	0.19454	0.037234	0.11628	0.18287	0.10071	0.35955	0.17667	0.33905	0.084538	0.24032	-2.875	-3.1604	-3.5312	-3.2417	-3.5938	-3.5354	-3.125	-3.5292	-3.3917	-3.3604	-3.725	-3.4333	-3.4708	-3.4542	-3.1875	-3.7208	83.049	52.064	235.416	-26.828	235.956	26.747	-79.335	-30.513	52.220	151.606	270.141	185.915	192.771	-69.410	148.039	273.188	0.00063818	0.00032632	0.00021567	782.23	1.8455e-06	4.2887e-06	971.79	308.33	8.3578e-06	8.1721e-06	491.79	229.55	138.25	65.865	2.1531e-06	125	0.00040211	0.00035254	8.8926e-05	750.01	4.0276e-06	3.7855e-06	929.46	294.51	4.1131e-06	3.8127e-06	466.3	217.89	132.44	62.788	3.6038e-06	118.6	148.114	-39.562	10.310	-65.922	34.339	58.733	-66.104	-61.540	50.635	89.155	-62.367	-59.107	-58.542	-53.612	30.865	-55.176	-8191	255	
3238.597	1	1	0	0	0.049017	0.12065	0.24925	0.16564	0.1731	0.20015	0.16882	0.23197	0.20939	0.042976	0.18949	0.18194	0.24183	0.18669	0.20989	0.32853	-2.7375	-3.1146	-3.6937	-3.1458	-3.45	-3.7	-3.0979	-3.6354	-3.4729	-3.2354	-3.8979	-3.375	-3.4437	-3.5375	-3.2292	-3.8375	83.679	258.053	90.706	245.271	88.962	-67.205	-74.934	277.198	102.289	51.553	245.986	178.587	232.189	223.706	95.953	214.024	0.00057728	0.0009114	0.00016877	783.11	5.301e-06	8.6045e-06	968.31	307.48	3.9996e-06	5.9264e-06	490.93	227.33	137.7	65.893	3.0642e-06	125.89	0.00040636	0.00034522	8.9354e-05	751.27	4.1391e-06	3.7689e-06	928.68	295.28	4.1232e-06	3.8459e-06	466.39	217.03	131.74	62.769	3.6497e-06	118.93	137.976	-34.664	-17.922	-65.887	78.712	72.690	-65.978	-61.501	22.213	89.751	-62.184	-59.180	-58.367	-53.449	82.705	-55.239	-8191	255	
3238.693	1	1	0	0	0.21184	0.05972	0.16998	0.11403	0.0077534	0.12168	0.16382	0.10045	0.14209	0.19332	0.18071	0.096792	0.33563	0.42011	0.10714	0.027955	-3.1042	-3.1937	-3.6021	-3.2354	-3.3146	-3.4042	-3.3646	-3.5979	-3.3625	-3.2313	-3.7438	-3.2771	-3.2438	-3.5208	-2.9896	-3.6937	-72.452	214.747	139.795	-49.625	79.413	41.027	181.461	-38.084	72.411	-72.683	254.118	250.713	266.085	181.769	160.990	17.008	0.00053974	0.00047071	0.0001573	784.42	6.7345e-06	4.6217e-06	972.18	307.85	5.8499e-06	1.2347e-05	493.28	229.74	137.78	65.947	1.9412e-06	125.67	0.00040185	0.00034762	9.1318e-05	754.09	4.0597e-06	3.7057e-06	929.55	295.17	4.0678e-06	3.7135e-06	467.67	218.26	132.11	62.853	3.6931e-06	119.29	142.324	-12.273	29.518	-65.956	50.408	80.041	-66.216	-61.443	15.028	72.260	-62.243	-59.077	-58.509	-53.616	46.195	-54.978	-8191	255	
3238.789	1	1	0	0	0.13641	0.18545	0.36072	0.16589	0.050318	0.18187	0.21736	0.27242	0.15352	0.1117	0.083357	0.083627	0.22097	0.28743	0.040495	0.33437	-2.9354	-3.0292	-3.45	-3.2333	-3.1625	-3.4979	-3.3979	-3.5625	-3.4938	-3.0958	-3.5771	-3.5292	-3.3104	-3.8	-3.3417	-3.6813	192.022	246.409	43.808	-77.886	-39.561	5.139	244.499	-38.522	200.809	109.909	26.049	219.048	274.608	275.647	-31.696	210.180	0.00054153	0.00037853	0.00021899	782.41	8.7701e-06	2.4705e-06	973.29	307.42	6.8818e-06	2.9048e-06	492.67	228.24	137.77	65.632	9.8863e-06	125.06	0.0003812	0.00033591	9.4797e-05	750.38	3.8573e-06	3.5278e-06	928.07	294.63	3.7981e-06	3.6422e-06	467.3	217.65	131.7	62.632	3.8912e-06	118.76	154.992	-26.999	16.211	-65.918	63.600	83.056	-66.195	-61.365	73.091	97.210	-62.265	-59.293	-58.563	-53.560	43.536	-55.216	-8191	255	
3238.863	1	1	0	0	0.054477	0.090958	0.095373	0.18955	0.14558	0.17626	0.065808	0.19878	0.133	0.14207	0.15411	0.067655	0.20238	0.11842	0.08626	0.10655	-3.25	-3.1854	-3.5667	-3.4479	-3.4708	-3.7875	-3.4208	-3.5333	-3.7375	-3.2833	-3.8312	-3.6271	-3.1771	-3.7521	-3.2792	-3.6542	62.265	177.682	86.855	54.034	58.675	230.276	-28.743	203.396	-77.421	23.314	232.329	172.156	-18.881	-66.504	31.822	217.042	0.00063512	0.00095984	6.2519e-05	782.92	6.3027e-06	5.5471e-06	966.83	307.5	2.5393e-06	3.981e-06	489.54	227.77	137.8	65.545	3.3055e-06	125.52	0.00037198	0.0003307	9.9272e-05	750.7	3.7445e-06	3.5284e-06	928.5	294.31	3.695e-06	3.5861e-06	466.15	217.08	131.46	62.502	4.0971e-06	118.62	149.951	16.026	27.815	-65.898	75.323	71.831	-66.106	-61.207	6.290	84.391	-62.280	-59.110	-58.498	-53.631	78.134	-55.193	-8191	255	
3238.981	1	1	0	0	0.1688	0.14483	0.032349	0.073689	0.063496	0.31106	0.10018	0.19327	0.23292	0.14278	0.085671	0.18916	0.088559	0.15788	0.16634	0.018396	-3.3146	-3.15	-3.6437	-3.55	-3.4375	-3.6604	-3.5583	-3.5583	-3.6292	-3.2208	-3.5146	-3.6229	-3.2083	-3.8312	-3.3854	-3.5167	54.450	-76.436	157.046	264.901	219.868	209.573	153.138	-56.356	-59.874	280.311	245.550	202.442	240.276	207.399	168.171	80.335	0.00055067	0.0005098	9.5295e-05	783.76	4.924e-06	6.7851e-06	965.49	307.33	6.8173e-06	4.0804e-06	491.38	227.86	137.39	65.645	5.1932e-06	125.94	0.0003594	0.00032833	0.00010484	749.36	3.6469e-06	3.5753e-06	928.48	293.98	3.5741e-06	3.6389e-06	467.29	216.94	131.41	62.611	4.1181e-06	118.92	147.113	-2.581	35.371	-65.789	44.708	84.918	-65.840	-61.357	56.525	90.434	-62.310	-59.160	-58.487	-53.521	37.343	-55.064	-8191	255	
3239.078	1	1	0	0	0.35408	0.18578	0.25551	0.11621	0.087665	0.01676	0.081579	0.11623	0.26419	0.19473	0.10088	0.27854	0.052233	0.15711	0.20057	0.25017	-3.4292	-3.2958	-3.4813	-3.7708	-3.0896	-3.6479	-3.3542	-3.4604	-3.5854	-3.1854	-3.425	-3.7	-3.2687	-3.7	-3.3604	-3.5646	-33.551	160.726	266.974	10.381	239.460	152.773	-26.225	51.818	45.058	-67.323	114.464	241.495	226.341	220.593	-73.978	246.255	0.00061936	0.0007839	0.00026106	778.47	5.932e-06	6.2767e-06	960.4	306.89	5.0676e-06	5.5629e-06	492.61	228.95	137.78	65.797	4.8787e-06	126.21	0.00034877	0.00033584	0.000103	745.41	3.4693e-06	3.7046e-06	925.86	292.84	3.3992e-06	3.7791e-06	468.34	217.3	131.29	62.782	4.0616e-06	119.24	136.922	0.692	25.236	-65.870	74.179	62.691	-66.139	-61.271	124.100	56.045	-62.436	-59.136	-58.418	-53.529	92.634	-55.129	-8191	255	
3239.174	1	1	0	0	0.35175	0.19233	0.20813	0.091197	0.22172	0.16901	0.11897	0.22084	0.088314	0.17033	0.21467	0.39607	0.13095	0.10623	0.17997	0.14494	-3.3563	-3.2958	-3.4167	-3.8229	-3.4042	-3.7208	-3.6958	-3.4458	-3.7146	-3.4083	-3.3854	-3.5958	-3.0438	-3.7604	-3.6771	-3.3521	49.927	74.405	176.965	-6.800	234.779	23.818	134.108	246.188	53.708	-30.516	219.439	225.650	249.838	240.770	41.584	229.996	0.00060417	0.00069981	0.00025949	780.29	4.0142e-06	4.6755e-06	964.55	305.94	3.0495e-06	4.0805e-06	492.13	226.78	136.87	65.492	7.2326e-06	125.09	0.00034508	0.00035614	0.000101	745.1	3.515e-06	3.9371e-06	924.9	291.78	3.5105e-06	4.0487e-06	467.42	215.72	130.57	62.597	3.9031e-06	118.48	135.081	33.013	32.997	-65.666	10.189	105.656	-65.972	-61.156	57.667	47.816	-62.443	-59.294	-58.463	-53.367	62.596	-55.178	-8191	255	
3239.294	1	1	0	0	0.28255	0.38954	0.18983	0.15632	0.16561	0.32416	0.16858	0.16967	0.1579	0.16853	0.28515	0.19416	0.29331	0.12838	0.1005	0.244	-3.3958	-3.2812	-3.3833	-3.825	-3.25	-3.6	-3.4917	-3.4292	-3.7833	-3.5438	-3.6396	-4.025	-3.4646	-3.4646	-3.4458	-3.4542	152.326	-6.296	248.721	112.434	234.688	268.039	107.305	240.433	34.930	-56.801	279.274	143.296	239.860	143.128	73.847	225.452	0.00059163	0.00028897	0.00032198	775.76	5.7139e-06	3.2187e-06	966.26	306.01	3.9612e-06	7.9918e-06	491.25	226.75	136.99	65.751	4.2667e-06	125.68	0.00035475	0.00038184	9.9259e-05	743.59	3.6802e-06	4.1946e-06	923.86	291.71	3.7672e-06	4.2099e-06	466.71	216.17	130.89	62.702	3.8371e-06	118.76	143.563	49.957	-2.947	-66.136	91.823	125.448	-66.009	-61.130	93.617	84.826	-62.545	-58.932	-58.532	-53.544	62.522	-55.298	-8191	255	
3239.389	1	1	0	0	0.087974	0.20304	0.14775	0.22075	0.11705	0.096152	0.15138	0.10852	0.10853	0.15513	0.3328	0.21774	0.29833	0.37292	0.030513	0.21582	-3.1833	-3.5521	-3.4562	-3.8	-3.4062	-3.7021	-3.8729	-3.3042	-3.5104	-3.3771	-3.4146	-3.6271	-3.2625	-3.5521	-3.7	-3.5333	147.331	30.699	204.869	236.275	-61.114	184.738	188.538	277.419	-77.207	-3.637	247.129	243.556	213.020	232.206	38.048	248.564	0.00062329	0.0007259	0.00016837	775.79	4.6651e-06	3.3257e-06	960.82	305.47	5.2078e-06	6.4103e-06	491.23	226.5	136.75	65.773	5.7228e-06	125.73	0.00037972	0.00038128	9.8556e-05	743.16	3.9581e-06	4.1867e-06	924.62	291.4	3.9911e-06	4.0983e-06	467.74	216.45	131.07	62.756	3.7389e-06	119.2	138.066	-41.087	-3.280	-66.011	71.732	44.062	-65.862	-61.305	-9.580	70.693	-62.483	-59.167	-58.544	-53.205	30.344	-55.033	-8191	255	
3239.462	1	1	0	0	0.2183	0.10227	0.16141	0.12264	0.25935	0.2159	0.34829	0.39208	0.20401	0.1361	0.21135	0.28322	0.20781	0.20205	0.019412	0.22044	-3.3771	-3.4458	-3.2917	-3.9167	-3.3521	-3.425	-3.65	-3.2438	-3.5521	-3.6188	-3.3812	-3.8583	-3.3875	-3.3958	-3.6958	-3.4167	-16.204	178.372	-19.087	211.800	279.935	236.522	239.041	223.676	131.256	55.999	241.356	262.212	26.899	-18.282	16.835	170.192	0.00059255	0.00065173	0.00013651	777.61	3.5124e-06	3.124e-06	965.49	304.45	5.1683e-06	6.1275e-06	494.04	227.3	136.05	65.886	9.2711e-06	126.65	0.00039555	0.00036574	9.3821e-05	744.47	4.0699e-06	3.9712e-06	925.04	291.04	4.1005e-06	3.8401e-06	468.28	216.34	130.69	62.701	3.5409e-06	119.61	134.327	3.948	-2.134	-66.041	35.786	28.222	-66.049	-61.250	24.852	42.434	-62.328	-59.228	-58.352	-53.494	107.315	-55.194	-8191	255	
3239.581	1	1	0	0	0.18939	0.19633	0.28996	0.26706	0.13135	0.075061	0.065978	0.35312	0.22019	0.15147	0.083115	0.263	0.19801	0.22058	0.2184	0.43279	-3.0187	-3.4729	-3.0187	-3.6542	-3.4771	-3.3458	-3.8146	-3.2042	-3.4542	-3.5229	-3.4042	-3.8042	-3.4708	-3.4292	-3.7042	-3.5104	-35.040	24.181	279.980	-58.911	-4.684	174.314	195.064	185.153	171.606	-44.923	96.177	-77.035	-43.964	280.206	46.275	-66.112	0.00061322	0.001042	0.00019806	777.08	4.2021e-06	8.6877e-06	961.98	305.48	3.2083e-06	5.45e-06	492.3	226.04	136.46	65.509	2.2962e-06	125.77	0.0003968	0.00034198	9.0845e-05	743	4.0518e-06	3.7757e-06	923.09	291.66	4.0342e-06	3.6255e-06	466.9	215.83	131.04	62.502	3.4418e-06	119.21	139.617	17.076	-57.333	-65.941	36.674	83.850	-66.040	-61.243	53.325	113.368	-62.304	-59.181	-58.557	-53.348	113.674	-55.342	-8191	255	
3239.677	1	1	0	0	0.13215	0.042937	0.052877	0.25444	0.13642	0.35709	0.17754	0.13373	0.14728	0.029609	0.13509	0.083355	0.17537	0.37195	0.11655	0.29338	-3.1042	-3.4938	-3	-3.4021	-3.3792	-3.1208	-3.7313	-3.3271	-3.3375	-3.5375	-3.3292	-3.7292	-3.5438	-3.3063	-3.6833	-3.5958	210.166	4.798	133.351	176.732	-9.841	119.285	209.832	-38.649	-48.768	-16.387	-10.030	230.029	275.025	259.506	221.530	213.215	0.00059364	0.0008429	0.00023473	775.02	6.1448e-06	8.3365e-06	968.6	305.92	6.633e-06	7.3371e-06	491.16	226.97	136.76	65.731	5.723e-06	126.17	0.00039344	0.00032698	8.7723e-05	745.21	3.9348e-06	3.5527e-06	924.71	292.03	3.9218e-06	3.5142e-06	467.28	216.52	130.8	62.642	3.4824e-06	119.59	147.230	-62.594	22.600	-66.019	74.737	60.622	-66.086	-61.518	91.738	86.115	-62.380	-59.128	-58.497	-53.702	104.856	-55.358	-8191	255	
3239.773	1	1	0	0	0.1267	0.10796	0.17936	0.16326	0.068896	0.091581	0.17169	0.18154	0.14637	0.12324	0.31371	0.30102	0.30072	0.091297	0.26991	0.27971	-2.9729	-3.6042	-3.1375	-3.7604	-3.4521	-3.3187	-3.8688	-3.3083	-3.2417	-3.7104	-3.3104	-3.6125	-3.6167	-3.2	-3.6813	-3.7	221.288	115.988	215.693	190.631	259.970	236.875	213.207	-48.532	-70.872	73.534	-41.861	241.843	268.982	238.467	63.181	258.769	0.00050737	0.0010287	0.00028731	778.34	1.0185e-05	1.0079e-05	973.72	305.1	9.6643e-06	9.6876e-06	492.25	228.15	136.48	65.672	6.4618e-06	125.8	0.00037466	0.00032207	8.9087e-05	746.98	3.8032e-06	3.5361e-06	928.01	292.31	3.8226e-06	3.4861e-06	467.57	216.81	130.75	62.53	3.7038e-06	119.44	145.508	13.204	2.577	-66.096	73.293	26.423	-66.023	-61.379	88.715	64.801	-62.302	-58.969	-58.606	-53.466	150.072	-54.940	-8191	255	
3239.894	1	1	0	0	0.15117	0.14498	0.1381	0.087398	0.30256	0.090957	0.28843	0.03679	0.21843	0.15441	0.23962	0.27681	0.16572	0.16501	0.042491	0.13675	-2.975	-3.6562	-3.3854	-3.8354	-3.6437	-3.4271	-3.7271	-3.475	-3.3458	-3.6813	-3.4417	-3.4813	-3.7917	-3.4333	-3.7333	-3.7479	119.330	30.425	-60.696	-69.778	50.840	192.398	216.882	114.600	198.166	26.234	271.336	226.668	219.795	129.730	140.441	243.319	0.00057852	0.00095795	7.4486e-05	774.05	5.0468e-06	8.8707e-06	966.78	305.6	4.1505e-06	7.3924e-06	491.93	225.64	135.93	65.347	1.6403e-06	125.12	0.00037608	0.0003198	9.6687e-05	746.81	3.6869e-06	3.5956e-06	929.51	292.45	3.8098e-06	3.4971e-06	467.49	215.24	130	62.336	4.0222e-06	118.91	134.742	19.184	252.599	-66.198	29.183	44.584	-66.141	-61.528	44.713	54.464	-62.251	-58.897	-58.493	-53.631	130.355	-55.163	-8191	255	
3239.990	1	1	0	0	0.086462	0.12681	0.17206	0.16443	0.1926	0.12003	0.09968	0.14319	0.31861	0.19124	0.14771	0.1041	0.14527	0.25496	0.2289	0.2403	-2.9062	-3.575	-3.4	-3.5375	-3.8125	-3.3063	-3.6167	-3.4208	-3.1521	-3.5479	-3.4083	-3.5208	-3.5979	-3.3312	-3.4708	-3.5687	223.042	264.464	257.137	209.261	153.684	99.642	181.270	-41.369	215.900	8.720	164.253	-79.202	-37.262	235.630	33.735	222.432	0.00051044	0.00049527	0.00016925	777.77	4.4509e-06	5.1263e-06	966.46	302.43	4.7244e-06	5.4934e-06	492.48	225.77	136.71	65.589	1.5619e-06	126.41	0.00036759	0.0003229	0.00010191	746.55	3.6501e-06	3.5586e-06	928.27	291.16	3.6984e-06	3.5318e-06	468.22	215.15	130.13	62.427	4.0889e-06	119.38	143.253	-5.021	38.088	-66.077	67.668	62.635	-66.274	-61.230	38.115	38.324	-62.125	-58.878	-58.516	-53.634	82.178	-55.050	-8191	255	
3240.086	1	1	0	0	0.14867	0.044869	0.15442	0.13002	0.21046	0.076984	0.29169	0.46901	0.084552	0.090809	0.14573	0.27679	0.35601	0.12542	0.15975	0.36718	-2.8292	-3.5187	-3.1792	-3.4562	-3.6125	-3.2771	-3.5563	-3.5292	-3.2167	-3.6104	-3.4104	-3.4583	-3.7771	-3.3979	-3.5333	-3.7438	68.828	122.506	-24.099	256.397	89.675	-9.794	-56.192	252.182	79.771	256.777	261.066	188.436	-68.521	264.989	164.551	201.941	0.00063355	0.0006402	0.0002021	778.64	4.8958e-06	5.0475e-06	966.68	305.13	1.9757e-06	2.1197e-06	495.41	226.18	135.76	65.293	3.9782e-06	126.37	0.00035578	0.00032424	0.00010546	746.2	3.4686e-06	3.6317e-06	928.95	291	3.5691e-06	3.6415e-06	469.23	215.36	129.64	62.392	4.0539e-06	119.79	147.936	-30.112	22.530	-65.729	80.957	67.196	-65.964	-61.251	18.237	57.364	-62.318	-58.724	-58.555	-53.581	47.666	-55.113	-8191	255	
3240.158	1	1	0	0	0.13543	0.089014	0.3594	0.11541	0.031575	0.31987	0.05716	0.18982	0.26812	0.16513	0.12795	0.34152	0.098593	0.12567	0.1952	0.26695	-2.6271	-3.3833	-3.3375	-3.1917	-3.5979	-3.2896	-3.5396	-3.6792	-3.1458	-3.5917	-3.6542	-3.5354	-3.7438	-3.3875	-3.3375	-3.8396	211.816	31.707	106.638	122.313	280.836	69.591	254.533	205.594	240.367	167.767	213.037	206.272	94.955	192.808	63.057	212.387	0.00056674	0.00061799	0.00029391	780.3	5.8129e-06	1.0559e-05	970.08	301.27	8.6276e-07	7.36e-06	491.58	226.45	136.02	65.476	7.9365e-06	126.24	0.00034932	0.0003448	0.00010116	748.23	3.4197e-06	3.8479e-06	930.01	289.52	3.4281e-06	3.8518e-06	468.06	215.12	130.04	62.462	3.8141e-06	119.46	142.089	-10.009	20.299	-66.211	55.537	58.434	-65.931	-61.062	12.968	118.324	-62.487	-59.099	-58.520	-53.421	50.923	-55.180	-8191	255	
3240.279	1	1	0	0	0.31944	0.20917	0.03492	0.26789	0.13448	0.30693	0.21568	0.30047	0.17335	0.19576	0.18326	0.19325	0.18784	0.26931	0.23935	0.063215	-2.7667	-3.6896	-3.4708	-3.4917	-3.8187	-3.3542	-3.2375	-3.5375	-3.0375	-3.375	-3.3854	-3.3208	-3.6458	-3.4938	-3.4729	-3.8833	107.480	276.967	258.277	177.936	209.439	-19.602	150.940	199.169	-0.793	44.293	183.038	278.925	279.969	204.274	106.270	75.614	0.0006188	0.0002516	0.00022014	777.28	3.2497e-06	3.9756e-06	969.65	301.75	3.5472e-06	2.9877e-06	490.04	225.54	135.52	65.274	5.7781e-06	125.83	0.00033819	0.00035595	9.5594e-05	744.49	3.325e-06	3.8584e-06	927.98	288.88	3.4691e-06	3.9277e-06	466.39	214.1	129.41	62.371	3.6655e-06	119.19	143.132	6.840	19.907	-66.170	117.903	94.779	-66.193	-61.178	-6.948	35.580	-62.449	-59.134	-58.502	-53.387	60.638	-55.190	-8191	255	
3240.375	1	1	0	0	0.12894	0.207	0.15758	0.019136	0.16799	0.24577	0.18772	0.018654	0.26703	0.088934	0.19147	0.085142	0.31998	0.33481	0.2803	0.17814	-2.8542	-3.3604	-3.4708	-3.2417	-3.6292	-3.2917	-3.2167	-3.6833	-3.2417	-3.5667	-3.6771	-3.0854	-3.4729	-3.4688	-3.3917	-3.7562	228.972	29.655	-13.927	259.593	220.721	150.020	-41.018	42.563	162.883	-44.825	270.240	17.833	-48.847	242.088	132.979	181.352	0.00060307	0.00067908	0.00016582	777.79	5.1253e-06	8.4833e-06	970.6	301.89	4.2118e-06	6.734e-06	493.64	226.46	135.69	65.402	2.8042e-06	126.13	0.00035086	0.00035395	9.012e-05	744.22	3.4811e-06	3.9353e-06	927.07	288.78	3.6139e-06	3.8973e-06	468.21	215.14	129.67	62.544	3.5505e-06	119.5	146.056	5.302	-20.995	-65.920	82.392	62.780	-66.188	-61.499	87.789	47.492	-62.239	-59.178	-58.541	-53.625	67.796	-55.196	-8191	255	
3240.471	1	1	0	0	0.20495	0.080758	0.20714	0.10399	0.13751	0.12578	0.12861	0.13185	0.10989	0.23211	0.092424	0.18102	0.19131	0.2682	0.13504	0.22917	-2.8875	-3.3854	-3.6021	-3.2521	-3.4021	-3.3937	-3.3479	-3.5812	-3.3167	-3.4083	-3.5667	-3.2479	-3.7146	-3.6979	-2.9875	-3.8271	-70.976	201.565	51.138	-33.639	123.373	276.651	221.418	236.223	255.561	214.173	277.708	229.164	219.808	-76.094	249.187	237.814	0.00059248	0.0011071	0.00019736	777.6	2.057e-06	1.1089e-05	965.26	304.64	3.5802e-06	9.8308e-06	494.13	227.35	136.38	65.526	6.3296e-06	126.25	0.00037046	0.00035154	8.8193e-05	742.49	3.769e-06	3.8056e-06	927.17	290.14	3.8993e-06	3.8662e-06	468.01	215.76	130.35	62.626	3.6237e-06	119.69	142.028	13.930	20.435	-65.900	89.343	46.630	-66.050	-61.487	49.174	55.649	-62.155	-59.031	-58.414	-53.430	76.166	-55.079	-8191	255	
3240.565	1	1	0	0	0.1057	0.10281	0.1452	0.24362	0.10342	0.030419	0.30596	0.19905	0.12394	0.14427	0.18156	0.17752	0.12924	0.21307	0.16674	0.077492	-3.0187	-3.3229	-3.55	-3.1125	-3.5021	-3.4729	-3.0792	-3.6562	-3.4021	-3.4437	-3.7271	-3.4542	-3.7458	-3.6	-3.2021	-3.8167	61.129	250.299	226.422	-45.061	49.458	201.732	204.152	179.927	134.572	-32.878	167.774	235.851	9.316	221.857	241.244	-66.446	0.00059461	0.00061222	0.00023509	777.66	6.5765e-06	2.079e-06	973.18	302.58	6.5111e-06	4.1258e-06	490.22	225.71	136.31	65.427	3.5621e-06	126.19	0.00038979	0.00035343	8.9456e-05	744.71	4.0625e-06	3.7739e-06	929.59	290.25	4.1413e-06	3.7674e-06	466.52	215.17	130.41	62.396	3.5801e-06	119.43	148.576	-55.039	-21.362	-66.244	43.319	12.709	-65.977	-61.451	-6.944	57.780	-62.387	-59.188	-58.313	-53.565	57.784	-55.086	-8191	255	
3240.686	1	1	0	0	0.16871	0.015225	0.19455	0.046063	0.21053	0.071803	0.15817	0.20273	0.023698	0.11365	0.24574	0.034751	0.14319	0.10246	0.079637	0.11609	-2.8417	-3.4792	-3.6479	-3.2875	-3.3979	-3.7083	-3.2104	-3.7708	-3.575	-3.4229	-3.8458	-3.4458	-3.5563	-3.6958	-3.3063	-3.8792	118.925	195.219	87.371	84.854	-78.724	67.953	-72.526	276.309	55.625	-37.895	226.739	101.900	262.657	44.804	215.596	208.260	0.00056084	0.0011363	0.00018802	779.47	7.77e-06	5.3187e-06	969	304.21	1.5787e-06	7.2191e-07	493.48	226.24	136.09	65.545	4.6553e-06	126.63	0.00040269	0.00034197	8.8072e-05	746.98	4.0552e-06	3.6787e-06	925.44	290.72	4.0382e-06	3.7182e-06	466.38	215.99	130.34	62.434	3.5591e-06	119.8	147.049	-11.212	63.183	-65.902	65.379	64.066	-66.024	-61.394	70.494	140.771	-62.366	-59.083	-58.115	-53.625	75.915	-55.164	-8191	255	
3240.758	1	1	0	0	0.081721	0.12519	0.15538	0.12054	0.10795	0.12944	0.3018	0.30534	0.21392	0.068921	0.093207	0.23077	0.13223	0.13295	0.069033	0.19232	-3.2562	-3.3896	-3.3146	-3.1188	-3.2562	-3.3375	-3.3729	-3.6292	-3.525	-3.0792	-3.8563	-3.4813	-3.575	-3.8187	-3.3333	-3.8563	-22.037	249.922	75.417	207.594	155.696	224.521	279.998	240.927	271.253	60.520	145.729	253.123	13.081	214.513	129.137	203.022	0.0004876	0.00052594	0.00018708	779.5	6.1723e-06	6.8093e-06	973.98	305.19	4.6876e-06	3.7298e-06	494.6	227.62	137.13	65.419	3.0532e-06	126.78	0.00038958	0.00033555	8.9534e-05	748.54	3.937e-06	3.6139e-06	930.9	292.9	3.9128e-06	3.6651e-06	468.18	216.82	130.79	62.573	3.6444e-06	120.15	145.852	19.483	11.593	-65.989	78.242	62.875	-66.061	-61.264	42.749	-4.635	-62.621	-59.302	-58.479	-53.607	127.998	-55.101	-8191	255	
3240.854	1	1	0	0	0.063606	0.030848	0.096377	0.22122	0.15041	0.16302	0.30487	0.28094	0.10844	0.1416	0.1036	0.2669	0.25748	0.092817	0.20523	0.3544	-3.1479	-3.1146	-3.7458	-3.5042	-3.4167	-3.6688	-3.4292	-3.4625	-3.6312	-3.1125	-3.7875	-3.4667	-3.3604	-3.9021	-3.1125	-3.5604	19.193	-35.673	264.237	204.263	235.350	254.296	237.737	236.422	127.236	112.315	126.887	253.012	248.908	220.834	175.212	210.842	0.00060522	0.00057885	3.1459e-05	778.33	5.8715e-06	7.7577e-06	971.82	304.81	4.1417e-06	4.0266e-06	490.56	226.05	136.84	65.278	3.1932e-06	125.54	0.00037346	0.00032495	9.1512e-05	749.63	3.7564e-06	3.4391e-06	929.13	292.13	3.6648e-06	3.5136e-06	466.65	215.66	130.29	62.318	3.8141e-06	119.28	135.619	-7.931	88.924	-65.825	65.820	11.010	-65.898	-61.107	21.638	37.999	-62.075	-59.026	-58.575	-53.437	123.008	-54.897	-8191	255	
3240.974	1	1	0	0	0.23815	0.17182	0.17479	0.25098	0.33861	0.14726	0.20769	0.068406	0.27865	0.10322	0.083589	0.14568	0.089454	0.08902	0.093329	0.14297	-3.0604	-3.2354	-3.4083	-3.4896	-3.3167	-3.7042	-3.5479	-3.6104	-3.7833	-3.1771	-3.7625	-3.6042	-3.3063	-3.875	-3.3229	-3.5333	-15.651	70.094	-30.843	-49.924	269.107	161.972	232.531	239.550	245.298	58.770	209.494	-62.914	235.637	263.633	172.033	163.506	0.00058339	0.00051193	0.00025483	780.61	2.45e-06	7.27e-06	971.84	304.58	5.3881e-06	2.7131e-06	490.01	225.76	134.79	65.497	1.8397e-06	126.1	0.00036005	0.00031473	9.5843e-05	748.29	3.6496e-06	3.4031e-06	929.62	291.45	3.5822e-06	3.4431e-06	466.8	215.04	129.36	62.331	4.0298e-06	119.36	138.738	24.035	30.897	-66.053	75.928	52.771	-65.841	-61.032	29.838	73.021	-62.290	-59.052	-58.524	-53.594	45.977	-55.160	-8191	255	
3241.071	1	1	0	0	0.088823	0.089537	0.20658	0.1453	0.05466	0.062667	0.18157	0.17585	0.12684	0.12336	0.29356	0.09044	0.15358	0.30001	0.2048	0.1647	-3.3021	-3.1813	-3.5625	-3.4188	-3.2479	-3.5604	-3.2229	-3.4333	-3.5292	-3.1917	-3.5708	-3.575	-3.1208	-3.5	-3.1896	-3.2833	223.129	77.849	-71.052	38.400	-67.101	37.327	167.923	178.460	255.632	44.412	250.908	-67.764	151.109	223.491	66.295	236.653	0.00060917	0.00068692	0.0002731	777.63	1.7191e-06	7.2545e-06	969.71	304.15	7.2547e-06	4.4727e-06	490.81	226.67	136.12	65.416	4.3997e-06	125.55	0.00035389	0.00032659	0.00010278	747.14	3.5927e-06	3.4912e-06	931.97	291.16	3.4631e-06	3.6375e-06	467.78	215.64	130.03	62.402	4.0822e-06	119.25	148.728	-0.814	1.361	-66.000	63.872	43.765	-66.124	-61.370	14.095	100.710	-62.218	-59.259	-58.425	-53.528	54.007	-55.199	-8191	255	
3241.167	1	1	0	0	0.10778	0.20945	0.10042	0.18966	0.053981	0.18882	0.29238	0.27528	0.043392	0.2265	0.27927	0.18617	0.29269	0.18907	0.03213	0.2024	-3.225	-3.0333	-3.4	-3.5938	-3.1167	-3.5875	-3.4292	-3.3063	-3.6958	-3.0583	-3.4958	-3.5271	-2.8958	-3.5167	-3.4083	-3.3917	-76.599	-2.458	170.580	194.843	-45.639	263.136	200.408	233.953	113.328	53.610	158.960	218.583	171.095	-48.293	196.056	-66.172	0.00054687	0.00038492	0.00022596	776.56	4.2156e-06	3.341e-06	965.44	305.07	5.3606e-06	3.3843e-06	491.88	226.8	136.5	65.505	3.3426e-06	126.15	0.00034318	0.00034389	0.00010421	745.93	3.4883e-06	3.7339e-06	929.38	291.15	3.4189e-06	3.7926e-06	467.69	215.74	129.94	62.523	3.972e-06	119.47	143.988	24.468	24.979	-66.145	63.216	59.381	-66.018	-61.242	68.189	22.566	-62.345	-58.961	-58.605	-53.528	100.232	-54.865	-8191	255	
3241.263	1	1	0	0	0.12655	0.13059	0.021745	0.3144	0.24062	0.069959	0.01902	0.083739	0.10487	0.088731	0.28496	0.19096	0.11285	0.11038	0.080209	0.12835	-3.2271	-3.1375	-3.2333	-3.7167	-3.0833	-3.3625	-3.4771	-3.225	-3.6042	-3.075	-3.5125	-3.5812	-3.2875	-3.55	-3.5208	-3.5333	-69.940	-55.292	114.720	228.339	242.659	125.991	240.742	-63.114	2.564	-10.453	249.051	-75.438	-4.988	-75.310	190.812	199.806	0.00074953	0.00090764	0.00034333	777.77	5.242e-06	1.172e-05	968.08	302.55	5.808e-06	5.8085e-06	490.51	227.31	136.26	65.303	5.1776e-06	127.11	0.00033675	0.00035434	9.9036e-05	743.82	3.4222e-06	3.9323e-06	928.39	289.84	3.3675e-06	3.9159e-06	467.81	216.18	129.87	62.504	3.7158e-06	119.7	140.704	18.842	-9.320	-66.014	50.563	54.043	-65.764	-61.373	86.100	48.559	-62.045	-59.225	-58.348	-53.433	76.936	-54.871	-8191	255	
3241.359	1	1	0	0	0.18801	0.1577	0.14912	0.084856	0.10387	0.1523	0.15549	0.13347	0.071696	0.097236	0.075563	0.27852	0.075949	0.2354	0.11074	0.21041	-3.2167	-3.3604	-3.4167	-3.7313	-3.4354	-3.6813	-3.725	-3.1083	-3.4396	-3.2771	-3.5417	-4.0396	-3.4333	-3.6125	-3.5458	-3.4042	213.025	-7.158	-3.791	47.995	218.627	241.812	251.333	269.732	-13.232	-63.224	130.579	223.214	231.537	-28.362	-48.409	121.617	0.00066592	0.00038047	0.0001812	773.57	4.0066e-06	4.5547e-06	967.2	302.29	7.087e-06	5.4598e-06	491.85	226.94	135.32	65.42	3.3411e-06	126.51	0.00034031	0.00036162	9.4426e-05	740.94	3.4559e-06	3.9135e-06	925.42	288.83	3.4514e-06	3.9011e-06	467.46	216.55	129.53	62.525	3.5193e-06	119.9	147.833	-16.000	-26.231	-65.822	29.293	55.522	-66.075	-61.357	32.538	84.122	-62.329	-59.186	-58.254	-53.483	20.319	-55.022	-8191	255	
3241.455	1	1	0	0	0.20362	0.26894	0.13526	0.10413	0.055617	0.10074	0.10881	0.044809	0.24109	0.13295	0.20742	0.23959	0.27901	0.22732	0.20258	0.13069	-3.3229	-3.4208	-3.3646	-3.7417	-3.2875	-3.4729	-3.8958	-3.2938	-3.3792	-3.4917	-3.4813	-3.7812	-3.55	-3.5292	-3.4562	-3.6104	201.314	98.855	94.039	238.577	155.207	99.821	225.057	-32.682	237.023	-48.549	267.795	229.912	222.550	228.036	226.998	247.761	0.00057146	0.00065633	8.0415e-05	772.21	3.1757e-06	7.282e-06	958.91	301.38	7.6038e-06	9.7714e-07	489.6	225.66	135	64.927	4.033e-06	125.28	0.00034903	0.00034866	8.9163e-05	736.55	3.5948e-06	3.8095e-06	919.88	288.24	3.6604e-06	3.754e-06	465.14	214.42	129.26	62.131	3.4182e-06	118.61	134.352	23.861	-25.286	-66.026	156.518	75.684	-66.163	-61.241	90.955	97.805	-62.282	-58.976	-58.557	-53.428	67.245	-55.103	-8191	255	
3241.574	1	1	0	0	0.22589	0.11446	0.0092465	0.17942	0.31113	0.1414	0.034971	0.20726	0.12439	0.2023	0.34462	0.18994	0.21868	0.13253	0.06542	0.13764	-3.2417	-3.5271	-3.2917	-3.6937	-3.4042	-3.4083	-3.75	-3.2188	-3.6063	-3.4542	-3.4333	-3.8917	-3.4979	-3.3979	-3.8083	-3.5125	-55.485	53.300	175.272	200.543	174.218	10.653	-32.553	195.831	53.957	110.117	272.092	275.079	47.764	157.983	9.823	192.428	0.00053211	0.00071143	0.00016252	770.32	2.9823e-06	5.4539e-06	958.58	300.99	3.2068e-06	1.2246e-05	488.97	225.55	135.05	64.959	3.3925e-06	125.68	0.00037981	0.00034829	8.9795e-05	737.71	3.8946e-06	3.7799e-06	918.85	287.99	3.979e-06	3.7614e-06	464.61	214.2	129.44	62.094	3.4304e-06	118.98	142.974	15.414	-12.727	-66.210	105.004	78.102	-66.140	-61.287	89.300	73.783	-62.278	-59.122	-58.641	-53.558	62.625	-55.202	-8191	255	
3241.670	1	1	0	0	0.10979	0.24202	0.12803	0.13127	0.13699	0.24707	0.12419	0.35495	0.11855	0.17663	0.13324	0.46737	0.092431	0.11522	0.30185	0.16191	-3.1375	-3.3104	-3.1167	-3.6229	-3.4667	-3.3875	-3.775	-3.2833	-3.5625	-3.6125	-3.2521	-3.7479	-3.4208	-3.3375	-3.6104	-3.4375	261.073	268.557	50.462	130.468	247.518	153.178	218.394	190.586	42.660	154.135	133.314	247.193	-15.496	123.198	221.882	144.271	0.00055038	0.00064696	0.00023857	771.59	1.4599e-06	1.1259e-05	960.9	303.48	3.9709e-06	4.7175e-06	492.7	226.95	135.55	65.386	7.4444e-06	126.1	0.00039584	0.00033787	8.8895e-05	737.56	4.0619e-06	3.7496e-06	919.19	289.09	4.0981e-06	3.7121e-06	466.62	215.88	130	62.32	3.4763e-06	119.5	143.781	-37.358	40.567	-65.799	29.910	45.592	-65.880	-61.477	69.444	98.868	-62.378	-59.036	-58.553	-53.328	48.413	-55.155	-8191	255	
3241.766	1	1	0	0	0.093022	0.051839	0.13721	0.1971	0.15961	0.22752	0.02507	0.23533	0.15885	0.051004	0.30067	0.26369	0.15499	0.3409	0.13747	0.31484	-3.0479	-3.3937	-3.0458	-3.6542	-3.4583	-3.2604	-3.6208	-3.2521	-3.4146	-3.7521	-3.4208	-3.7104	-3.6479	-3.675	-3.5833	-3.5917	12.336	260.410	65.634	-69.685	51.383	48.861	100.700	238.881	22.075	263.230	214.837	205.010	-77.606	265.572	-46.274	266.011	0.0005331	0.00075582	0.00014157	773.3	3.8157e-06	7.9511e-06	958.39	300.46	9.2503e-06	7.1378e-06	490.52	226.08	135.21	65.197	2.9249e-06	126.36	0.00039893	0.00033699	9.0398e-05	738.05	4.0399e-06	3.6934e-06	919.58	288.6	4.0323e-06	3.66e-06	465.59	216.04	129.53	62.309	3.5241e-06	119.64	140.985	-13.333	29.988	-66.097	30.359	51.253	-65.924	-61.400	51.644	69.239	-62.204	-59.269	-58.567	-53.639	112.044	-54.981	-8191	255	
3241.863	1	1	0	0	0.29518	0.10553	0.17269	0.10035	0.1718	0.1433	0.16456	0.045363	0.2396	0.073263	0.053291	0.074633	0.051399	0.086664	0.15985	0.26658	-3.0167	-3.6021	-3.1833	-3.5708	-3.4583	-3.1583	-3.7396	-3.2646	-3.3646	-3.7188	-3.4083	-3.7438	-3.7354	-3.1792	-3.6604	-3.5479	195.864	-45.016	178.886	-46.326	210.497	-1.071	114.012	133.390	192.691	90.465	189.405	62.998	45.940	69.977	-49.301	-77.598	0.00048454	0.0005727	0.00014019	764.25	6.9009e-06	7.9184e-06	959.14	299.49	8.091e-06	7.8244e-06	491.89	225.85	135.48	65.426	4.6064e-06	126.27	0.00038008	0.0003185	9.0229e-05	735.77	3.7046e-06	3.4634e-06	915.94	287.31	3.6979e-06	3.2907e-06	465.09	215.28	129.19	62.241	3.4887e-06	119.68	140.830	-0.620	10.043	-66.326	52.290	58.225	-65.932	-61.411	59.634	76.470	-62.442	-59.026	-58.515	-53.498	104.819	-55.084	-8191	255	
3241.983	1	1	0	0	0.19919	0.13149	0.092112	0.19802	0.19334	0.13324	0.046484	0.12907	0.035897	0.072267	0.21316	0.3907	0.061392	0.17266	0.078813	0.23291	-2.7771	-3.6542	-3.2729	-3.6229	-3.4708	-3.0958	-3.6437	-3.4479	-3.2083	-3.6729	-3.4146	-3.5687	-3.7792	-3.1521	-3.7562	-3.7687	231.588	112.140	227.417	241.002	271.073	10.101	62.354	270.967	-71.753	203.733	187.347	248.617	-53.234	172.579	72.000	178.066	0.00049396	0.00063275	0.00012686	759.32	8.3653e-06	5.2292e-06	956.18	300.51	6.8159e-06	7.1203e-06	491.28	226.65	134.95	65.474	5.5961e-06	126.83	0.00034943	0.00029469	8.8827e-05	731.07	3.4312e-06	3.2787e-06	914	286.77	3.4468e-06	3.1211e-06	466.6	215.33	128.63	62.187	3.5757e-06	119.82	142.540	6.280	-3.475	-66.037	47.309	36.437	-65.850	-61.300	58.684	92.304	-62.191	-59.122	-58.489	-53.477	56.440	-55.159	-8191	255	
3242.055	1	1	0	0	0.19871	0.11566	0.12109	0.13517	0.076204	0.099233	0.26152	0.11678	0.17435	0.1507	0.23859	0.10739	0.33065	0.057812	0.035718	0.22085	-2.7917	-3.7854	-3.1146	-3.3375	-3.4938	-3.0687	-3.4292	-3.4021	-3.125	-3.6042	-3.3937	-3.425	-3.6188	-3.3521	-3.5563	-3.8563	96.070	-1.109	252.939	175.493	102.832	248.133	233.734	-55.343	-12.793	-48.416	187.587	97.545	209.728	-36.075	-38.110	280.043	0.00060774	0.00055857	0.00025369	759.94	8.2369e-06	4.3403e-06	955.63	300.26	7.5306e-06	7.9963e-06	491.34	225.79	133.78	65.057	4.1754e-06	125.78	0.00033352	0.00028176	9.2599e-05	730.18	3.2355e-06	3.1324e-06	915.64	286	3.2893e-06	3.114e-06	465.63	214.41	127.68	61.849	3.775e-06	119.04	140.068	11.000	24.631	-66.154	12.794	94.324	-66.148	-61.218	53.969	75.581	-62.229	-59.362	-58.521	-53.491	35.938	-55.304	-8191	255	
3242.151	1	1	0	0	0.26662	0.21202	0.12046	0.19193	0.040847	0.1501	0.15971	0.08562	0.12509	0.24853	0.19708	0.36392	0.2463	0.16202	0.3104	0.12526	-2.8187	-3.6646	-3.3604	-3.5708	-3.6771	-3.3	-3.6646	-3.6146	-2.9979	-3.7	-3.4542	-3.3833	-3.5708	-3.4292	-3.3312	-3.7271	62.413	-33.909	177.620	-57.138	90.648	110.966	163.483	216.626	-15.249	30.827	244.547	239.875	209.745	244.240	111.874	277.829	0.0005593	0.00053953	0.0001477	763.43	4.2636e-06	5.1677e-06	957.68	298.42	8.4774e-06	4.3037e-06	491.07	225.16	134.3	64.988	6.983e-06	126.13	0.00032203	0.00029527	9.5622e-05	730.37	3.0963e-06	3.2785e-06	916.1	285.51	3.147e-06	3.2621e-06	465.72	214.26	127.85	61.889	3.6836e-06	119.19	137.469	8.376	6.584	-66.110	92.959	54.339	-65.999	-61.454	42.395	80.880	-62.414	-59.090	-58.469	-53.552	49.226	-55.216	-8191	255	
3242.247	1	1	0	0	0.27255	0.23664	0.19844	0.10086	0.17237	0.13586	0.18917	0.084276	0.081179	0.063647	0.16024	0.27746	0.24361	0.29968	0.16573	0.37167	-2.7396	-3.6312	-3.4583	-3.0312	-3.6063	-2.9938	-3.4875	-3.4417	-3.2646	-3.7458	-3.6333	-3.3917	-3.7604	-3.5563	-3.3979	-3.8167	209.199	-2.306	-64.656	214.916	166.680	143.598	205.198	23.104	151.400	218.465	-58.412	241.042	237.194	276.412	-70.059	217.896	0.00057495	0.00031541	0.0001651	761.49	5.9246e-06	3.3967e-06	953.41	297.34	4.3235e-06	2.4595e-06	494.3	224.73	133.86	64.835	2.7155e-06	126.67	0.00031648	0.0003117	9.2984e-05	727.27	3.0226e-06	3.4537e-06	914.14	284.37	3.0979e-06	3.4623e-06	466.38	214.25	127.6	61.78	3.5236e-06	119.52	151.926	16.612	14.758	-66.002	36.065	109.410	-66.061	-61.113	68.980	69.093	-62.064	-59.103	-58.633	-53.599	34.802	-55.124	-8191	255	
3242.343	1	1	0	0	0.2083	0.28626	0.090309	0.05895	0.15677	0.23057	0.22982	0.20657	0.2543	0.21917	0.30433	0.17771	0.083646	0.1854	0.11901	0.12808	-2.7375	-3.5667	-3.7125	-3.3563	-3.7646	-3.5563	-3.4875	-3.7708	-3.3375	-3.5687	-3.8563	-3.3729	-3.7229	-3.5271	-3.2125	-3.8771	173.251	-30.730	83.178	13.457	-78.354	234.812	212.572	202.452	-3.640	-51.621	216.864	242.323	238.869	249.444	-43.149	238.691	0.00055811	0.0002634	0.00018289	761.6	2.2015e-06	4.3719e-06	954.98	298.3	1.9932e-06	5.3344e-06	493.23	226.03	134.3	64.864	7.05e-06	126.36	0.00031248	0.00032778	8.8005e-05	728.26	3.076e-06	3.6361e-06	914.73	284.75	3.1692e-06	3.6924e-06	467.17	214.54	127.92	61.951	3.3631e-06	119.65	142.811	-27.885	-16.377	-66.046	119.902	57.356	-65.660	-61.705	11.108	74.714	-62.341	-59.058	-58.255	-53.642	58.500	-55.271	-8191	255	
3242.462	1	1	0	0	0.16583	0.22162	0.1037	0.13386	0.074135	0.084726	0.1628	0.077283	0.25153	0.28734	0.36438	0.10835	0.36632	0.38156	0.24076	0.029918	-2.7938	-3.3479	-3.3125	-3.1167	-3.4792	-3.2229	-3.4542	-3.7104	-3.3688	-3.5896	-3.7167	-3.2562	-3.7438	-3.6667	-3.3479	-3.9375	218.209	167.847	16.845	276.386	58.483	269.870	-30.162	223.158	-29.910	-58.713	217.871	-67.191	-55.706	230.981	-17.649	211.678	0.00060282	0.00086987	0.00018079	761.15	8.1313e-06	6.8408e-06	958.97	298.39	3.0958e-06	6.7898e-06	492.59	227.55	134.14	64.788	4.8537e-06	127.41	0.00032515	0.00032903	8.2447e-05	726.11	3.223e-06	3.5709e-06	914.57	284.38	3.3408e-06	3.6103e-06	466.77	215.81	128.18	62.025	3.2034e-06	120.45	145.720	3.531	15.108	-65.942	79.472	36.259	-65.800	-61.336	48.450	75.639	-62.339	-59.114	-58.561	-53.685	123.833	-55.038	-8191	255	
3242.558	1	1	0	0	0.24431	0.0099748	0.089527	0.093864	0.037574	0.28134	0.16755	0.12472	0.074704	0.1172	0.22212	0.038507	0.11509	0.17183	0.14401	0.061675	-2.7687	-3.5271	-3.7083	-3.3229	-3.5812	-3.4833	-3.4042	-3.7417	-3.1771	-3.3833	-3.7875	-3.3083	-3.5812	-3.7854	-3.2146	-3.9104	173.976	88.525	205.430	217.354	15.954	42.997	229.476	-34.879	155.607	-14.200	-54.394	-61.244	194.558	239.537	37.290	245.231	0.00062134	0.00056394	0.00032853	763.67	3.446e-06	4.7689e-06	960.47	298.38	6.1767e-06	7.4939e-06	496.73	228.48	134.76	65.405	2.3092e-06	128.05	0.00034176	0.00032397	8.0328e-05	727.06	3.4729e-06	3.5415e-06	916.07	285.1	3.557e-06	3.5175e-06	469.28	217	128.72	62.31	3.2107e-06	121.07	132.696	-13.480	-10.479	-66.006	126.353	55.818	-65.992	-61.359	62.770	65.194	-62.280	-59.260	-58.491	-53.513	98.134	-55.052	-8191	255	
3242.656	1	1	0	0	0.26371	0.15507	0.10092	0.25581	0.13855	0.1815	0.076349	0.21636	0.099168	0.072786	0.081655	0.17776	0.17737	0.2445	0.15467	0.23074	-2.7438	-3.1167	-3.4958	-3.1271	-3.3438	-3.3583	-3.1083	-3.4437	-3.1625	-3.2771	-3.8271	-3.575	-3.4833	-3.6937	-3.2292	-3.8917	8.990	108.857	241.421	178.114	30.916	105.747	44.853	-69.372	149.376	38.527	156.977	262.568	-70.853	226.683	162.689	222.206	0.00065199	0.00079959	0.00024085	758.6	4.2623e-06	4.3791e-06	960.03	298.63	3.7492e-06	5.041e-06	496.75	228.8	134.26	65.025	3.7954e-06	128.36	0.00036397	0.00031167	7.9591e-05	727.89	3.6397e-06	3.3735e-06	915.63	285.33	3.6665e-06	3.3519e-06	470.22	217.38	128.94	62.217	3.1102e-06	121.32	144.153	23.501	-24.693	-65.888	57.788	40.392	-65.927	-61.582	48.176	50.460	-62.125	-59.073	-58.748	-53.606	48.354	-55.148	-8191	255	
3242.751	1	1	0	0	0.011493	0.22637	0.18708	0.21861	0.1466	0.081618	0.092243	0.10895	0.21564	0.14746	0.14078	0.12697	0.14701	0.085815	0.21655	0.26802	-2.8271	-3.2771	-3.5625	-3.3208	-3.5125	-3.4938	-3.3146	-3.4417	-3.3833	-3.1396	-3.9625	-3.3187	-3.6167	-3.6542	-3.0854	-3.6625	207.554	-71.490	-43.734	85.281	66.800	126.356	161.870	230.338	50.326	-69.375	199.381	143.120	-17.704	243.615	-56.101	219.983	0.00060705	0.0013219	0.00012735	762.68	6.5785e-06	6.8445e-06	960.72	299	9.7401e-06	1.1254e-05	494.95	227.54	135.14	65.526	1.9823e-06	127.66	0.00036754	0.00029666	7.6021e-05	729.54	3.601e-06	3.2039e-06	917.38	286.14	3.5853e-06	3.2709e-06	469.34	216.58	128.77	62.278	3.1088e-06	120.96	134.254	-10.778	24.051	-65.982	64.398	42.992	-66.139	-61.410	63.763	69.111	-62.115	-59.248	-58.560	-53.484	27.005	-55.167	-8191	255	
3242.847	1	1	0	0	0.19839	0.19496	0.19665	0.32605	0.070653	0.24475	0.20677	0.095301	0.11651	0.066876	0.37969	0.10399	0.14814	0.15946	0.10517	0.2081	-2.9667	-3.1583	-3.6625	-3.3792	-3.3458	-3.5208	-3.6854	-3.4854	-3.4854	-3.15	-3.8083	-3.4875	-3.1063	-3.6854	-3.0729	-3.7646	236.360	181.284	-59.780	238.375	211.125	186.715	229.689	163.428	200.254	230.675	228.227	207.910	139.238	274.164	265.395	187.675	0.00055452	0.0010739	0.00024543	761.93	6.6132e-06	3.2718e-06	961.71	298.92	5.2002e-06	1.0108e-05	496.9	227.82	134.35	65.365	4.4696e-06	127.85	0.00035401	0.00029266	7.8567e-05	731.3	3.4615e-06	3.1939e-06	918.45	286.76	3.474e-06	3.2146e-06	470.35	217.19	128.81	62.305	3.2693e-06	121.13	140.326	-22.599	-0.033	-66.042	46.543	65.476	-66.288	-61.299	71.964	97.800	-62.612	-59.205	-58.354	-53.531	83.907	-55.012	-8191	255	
3242.943	1	1	0	0	0.2367	0.28652	0.059739	0.050897	0.21058	0.071468	0.17965	0.30957	0.060308	0.34005	0.17865	0.12242	0.23599	0.34163	0.12404	0.30196	-3.2396	-3.0833	-3.7771	-3.3292	-3.1542	-3.6646	-3.2896	-3.3792	-3.5146	-3.1333	-3.6979	-3.3667	-3.2938	-3.6167	-3.2562	-3.6396	187.324	65.265	-10.505	-74.924	131.579	-8.446	202.637	208.153	167.248	-31.520	264.870	280.315	266.177	256.921	236.359	242.635	0.00053335	0.00056519	0.00019112	765.32	4.7895e-06	5.8447e-06	967.88	301.82	4.7654e-06	9.5483e-06	498.19	228.42	135.69	65.541	5.8116e-07	128.37	0.00034438	0.00029035	8.3572e-05	734.54	3.4135e-06	3.1552e-06	922.68	288.65	3.3516e-06	3.1825e-06	472.17	218.03	129.38	62.292	3.5192e-06	121.56	139.286	22.454	-39.222	-66.081	48.691	39.796	-65.864	-61.282	48.672	94.745	-62.478	-59.232	-58.415	-53.523	40.758	-55.022	-8191	255	
3243.064	1	1	0	0	0.22282	0.19943	0.088594	0.21685	0.12464	0.45243	0.13705	0.079696	0.2059	0.078981	0.38019	0.35728	0.24811	0.42535	0.17985	0.22453	-3.1458	-3.1708	-3.6021	-3.8042	-3.3563	-3.6146	-3.5	-3.675	-3.7062	-3.3	-3.7896	-3.475	-3.1	-3.6437	-3.1063	-3.5229	272.681	204.046	216.166	238.912	194.952	260.885	238.717	196.820	-72.557	262.012	259.962	224.764	222.244	246.032	250.553	243.402	0.00058227	0.00080008	1.2573e-05	767.87	5.3052e-06	6.9742e-06	970.6	301.87	6.1899e-06	5.2167e-06	496.18	229.44	135.52	65.357	5.1295e-06	128.07	0.00033092	0.00028859	8.9644e-05	734.8	3.3222e-06	3.0301e-06	926.58	288.93	3.2991e-06	3.1188e-06	472.38	218.35	129.28	62.386	3.7683e-06	121.38	141.031	-16.473	-51.118	-66.039	60.120	48.687	-65.853	-61.044	49.672	123.570	-62.279	-59.218	-58.355	-53.672	116.368	-55.198	-8191	255	
3243.160	1	1	0	0	0.034781	0.095619	0.26949	0.19278	0.1744	0.26953	0.22728	0.1077	0.19319	0.22373	0.30444	0.22893	0.13903	0.45725	0.094668	0.27399	-3.2604	-3.3438	-3.4667	-3.5312	-3.2042	-3.5687	-3.45	-3.3625	-3.5292	-2.9	-3.5375	-3.4354	-3.0396	-3.5438	-3.25	-3.4354	128.034	113.064	23.801	237.375	81.463	103.764	-54.564	174.274	39.872	18.777	280.319	-67.320	252.641	-61.612	119.399	211.659	0.00058467	0.00034801	0.00024294	764.31	5.9603e-06	3.9234e-06	966.38	302.69	9.2334e-06	6.2169e-06	495.11	228.63	134.85	65.705	3.5391e-06	127.15	0.0003299	0.00029206	9.6415e-05	735.42	3.2674e-06	3.1965e-06	925.9	288.88	3.1717e-06	3.3486e-06	471.68	217.24	129.13	62.384	3.8527e-06	120.58	144.311	-35.061	27.630	-66.194	38.755	45.221	-66.182	-61.168	28.327	79.937	-62.208	-59.067	-58.443	-53.410	119.314	-55.141	-8191	255	
3243.256	1	1	0	0	0.11353	0.21646	0.2454	0.066089	0.014895	0.014142	0.058278	0.012279	0.27962	0.05819	0.36111	0.30801	0.21119	0.31691	0.1961	0.15829	-3.1521	-3.0833	-3.0625	-3.5104	-2.8917	-3.5208	-3.2604	-3.1979	-3.5333	-3.1562	-3.6042	-3.5833	-3.2104	-3.7438	-3.4792	-3.3812	271.330	43.302	-67.716	21.371	44.618	264.111	-50.237	-36.810	197.204	90.849	172.096	231.911	-35.021	-45.760	52.918	112.903	0.00059505	0.00043643	0.00026335	770.9	7.3784e-06	5.229e-06	968.33	301.92	6.0475e-06	5.5886e-06	498.26	228.05	136.01	65.366	5.2161e-06	127.93	0.00032145	0.00031457	9.8578e-05	736.24	3.2425e-06	3.4813e-06	927.96	288.79	3.1819e-06	3.5948e-06	472.25	216.91	129.33	62.416	3.7896e-06	120.83	141.630	-18.424	33.490	-65.859	45.466	101.760	-66.116	-61.201	51.406	124.211	-62.473	-59.168	-58.478	-53.413	61.756	-55.297	-8191	255	
3243.352	1	1	0	0	0.20293	0.16473	0.16497	0.051617	0.15427	0.030367	0.043083	0.31654	0.0097195	0.02432	0.10691	0.30895	0.2376	0.096907	0.14796	0.30261	-3.2875	-3.3021	-3.5312	-3.7062	-3.0792	-3.5083	-3.375	-3.2604	-3.5062	-3.2854	-3.325	-3.6292	-3.125	-3.4854	-3.1813	-3.3312	41.698	21.415	-48.437	234.968	14.315	87.059	0.232	209.023	-27.983	162.904	-37.951	276.645	219.909	207.531	14.066	209.871	0.00051492	0.00025436	0.00026503	768.03	5.1108e-06	2.2893e-06	971.2	302.04	3.9531e-06	6.6895e-06	498.67	228.31	135.41	65.234	3.6997e-06	127.82	0.00032037	0.0003451	9.5704e-05	736.54	3.2704e-06	3.7515e-06	930.74	289.28	3.2043e-06	3.8083e-06	472.56	217.27	129.39	62.368	3.5997e-06	120.77	140.705	-9.187	-4.368	-66.108	25.345	130.897	-65.876	-61.414	49.488	67.024	-62.520	-59.025	-58.335	-53.481	49.367	-55.200	-8191	255	
3243.448	1	1	0	0	0.14059	0.13262	0.16891	0.010435	0.17088	0.20133	0.25702	0.2342	0.15689	0.10696	0.20822	0.1504	0.066348	0.11021	0.24444	0.094376	-3.1	-3.2833	-3.2667	-3.7542	-3.1167	-3.4167	-3.575	-3.1479	-3.45	-3.4167	-3.3542	-3.7875	-3.3583	-3.7083	-3.4188	-3.2417	107.884	-7.585	211.539	266.164	187.187	125.782	224.851	211.706	234.533	-47.008	247.309	207.148	-43.815	263.030	65.634	248.788	0.00058303	0.00034695	0.00020971	774.22	4.8341e-06	7.4641e-06	970.62	303.43	2.0016e-06	5.4033e-06	498.48	228.21	135.66	65.119	2.8375e-06	127.54	0.00033448	0.0003582	9.2044e-05	739.9	3.405e-06	3.9745e-06	930.42	289.55	3.5007e-06	3.9228e-06	471.85	216.95	129.46	62.317	3.555e-06	120.29	144.030	-1.199	19.053	-66.137	79.278	84.690	-66.030	-61.241	218.984	108.825	-62.167	-58.920	-58.527	-53.558	86.930	-55.212	-8191	255	
3243.543	1	1	0	0	0.17257	0.10257	0.16498	0.25615	0.11076	0.086239	0.33284	0.3179	0.32969	0.11124	0.2971	0.14579	0.20277	0.30765	0.060672	0.14896	-3.2396	-3.1688	-2.9792	-3.6292	-3.2083	-3.3792	-3.6583	-3.2188	-3.5542	-3.6292	-3.4062	-3.5917	-3.1667	-3.3958	-3.4833	-3.2083	112.814	246.582	-63.810	207.419	162.371	13.802	215.008	163.210	224.966	-10.671	168.368	202.574	-54.018	259.114	262.089	217.854	0.00057065	0.00073925	0.00022541	772.52	5.386e-06	3.62e-06	963.64	304.35	4.3067e-06	5.1923e-06	493.91	227.91	136.05	65.148	4.1269e-06	126.58	0.00035377	0.00035596	9.0537e-05	739.26	3.6732e-06	3.8874e-06	927.61	289.78	3.7064e-06	3.8039e-06	469.92	216.53	129.66	62.236	3.4365e-06	119.79	139.310	-30.939	-15.055	-66.154	111.894	11.592	-65.848	-61.286	81.536	60.449	-62.168	-59.450	-58.651	-53.455	80.825	-55.011	-8191	255	
3243.663	1	1	0	0	0.15418	0.10893	0.15834	0.064436	0.12964	0.051277	0.18439	0.26977	0.24302	0.053361	0.26621	0.3002	0.10197	0.13882	0.12015	0.18604	-3.1396	-3.4292	-3.2917	-3.7458	-3.2708	-3.3396	-3.5146	-3.0812	-3.3792	-3.2583	-3.1083	-3.6417	-3.3312	-3.4042	-3.6979	-3.4521	34.474	176.879	145.722	138.037	219.361	232.999	-20.934	5.735	224.756	266.944	219.934	220.906	-37.821	270.252	44.529	208.189	0.00056095	0.00078822	0.00020328	773.28	3.824e-06	7.0169e-06	968.93	303.49	3.5671e-06	7.3124e-06	495.73	228.07	135.33	65.353	7.5002e-06	126.85	0.00037502	0.00034389	8.6485e-05	740.09	3.8563e-06	3.725e-06	929.82	289.84	3.9302e-06	3.6723e-06	470.18	216.47	129.72	62.282	3.3311e-06	120.33	133.115	-15.216	23.767	-66.045	63.488	38.713	-66.073	-61.400	31.851	39.943	-62.105	-59.214	-58.402	-53.806	77.634	-54.977	-8191	255	
3243.759	1	1	0	0	0.26489	0.2558	0.048233	0.15672	0.089758	0.065248	0.098924	0.14279	0.11313	0.053251	0.07973	0.19149	0.11117	0.088745	0.17691	0.21201	-2.9958	-3.5083	-3.1	-3.4104	-3.2708	-3.2188	-3.7	-3.2375	-3.5208	-3.5479	-3.2083	-3.6	-3.3229	-3.4167	-3.5917	-3.1771	256.814	26.520	71.630	62.476	76.515	-12.707	-27.544	190.089	-5.924	251.778	251.558	178.372	-74.718	20.463	202.601	240.484	0.00054319	0.00037357	0.00024739	775.87	6.4616e-06	6.9962e-06	975.87	302.63	7.3477e-06	9.1796e-06	496.51	228.02	135.12	65.084	4.7334e-06	127.26	0.00038976	0.00032947	8.5548e-05	743.15	3.9755e-06	3.5694e-06	931.59	290.46	4.0145e-06	3.5333e-06	470.45	217.49	129.91	62.204	3.2779e-06	120.28	144.694	-11.938	14.497	-66.172	47.672	29.934	-65.887	-61.407	11.045	52.326	-62.389	-59.030	-58.387	-53.522	102.205	-55.092	-8191	255	
3243.855	1	1	0	0	0.22499	0.068224	0.081658	0.15319	0.16086	0.28489	0.093175	0.12189	0.15056	0.28847	0.18552	0.275	0.11824	0.14006	0.15368	0.30594	-2.725	-3.3292	-3.0458	-3.4417	-3.2687	-3.0563	-3.5625	-3.1813	-3.5062	-3.6312	-3.4437	-3.7562	-3.6063	-3.4188	-3.6437	-3.3604	272.843	185.830	103.589	154.868	266.013	198.251	137.986	96.997	150.835	279.715	240.485	184.685	20.174	198.218	11.985	217.197	0.00066626	0.00091229	9.0662e-05	777.91	5.303e-06	5.9692e-06	970.47	304.93	1.4861e-06	5.9794e-06	493.7	227.61	134.96	64.938	4.3831e-06	126.12	0.00038557	0.00031534	8.5139e-05	745.72	3.8846e-06	3.5305e-06	931.12	291.19	3.8945e-06	3.401e-06	468.42	216.46	129.36	61.832	3.3742e-06	119.32	150.876	-8.152	8.270	-65.915	51.278	95.072	-66.063	-61.450	-68.190	35.562	-62.429	-59.216	-58.382	-53.675	79.229	-55.030	-8191	255	
3243.927	1	1	0	0	0.11338	0.052614	0.25662	0.17116	0.19123	0.23688	0.01311	0.040426	0.051177	0.06272	0.17265	0.46339	0.20846	0.064753	0.16017	0.1979	-2.9104	-3.3854	-2.9938	-3.5958	-3.1979	-3.0812	-3.6063	-3.3563	-3.2375	-3.5771	-3.2167	-3.4854	-3.5708	-3.2583	-3.3729	-3.4562	174.303	35.374	87.514	251.265	205.648	-28.005	235.487	107.842	77.906	257.928	276.114	248.489	271.729	223.649	36.866	237.719	0.00055787	0.00092181	0.00023941	781.05	9.3364e-06	9.2141e-06	976.27	304.53	4.9694e-06	3.3648e-06	494.77	226.76	135.19	64.831	5.3784e-06	125.83	0.00037584	0.00031281	8.6797e-05	748.19	3.7036e-06	3.4666e-06	933.49	291.68	3.7066e-06	3.3389e-06	468.42	216.58	129.31	61.817	3.5503e-06	119.25	148.130	9.575	6.484	-66.034	68.402	33.484	-65.990	-61.107	10.381	101.904	-62.167	-59.079	-58.394	-53.558	101.277	-55.217	-8191	255	
3244.023	1	1	0	0	0.034258	0.18022	0.094658	0.069649	0.26903	0.30595	0.22722	0.1243	0.056337	0.24899	0.31522	0.20507	0.12328	0.31909	0.066575	0.1197	-2.6979	-3.6958	-3.3438	-3.5938	-3.6667	-3.2021	-3.4896	-3.3854	-3.1354	-3.4583	-3.1646	-3.5333	-3.6437	-3.2875	-3.6604	-3.5375	77.718	-14.864	24.809	234.192	193.759	-42.924	256.963	203.201	-39.104	-43.386	250.331	-35.255	257.931	202.380	271.748	248.022	0.00054831	0.00088827	0.00023889	781.83	3.1919e-06	5.4799e-06	974.48	305.58	5.276e-06	8.2409e-06	494.35	227.32	134.87	64.997	3.175e-06	126.12	0.0003618	0.0003049	9.3679e-05	746.4	3.5167e-06	3.3907e-06	932.79	291.43	3.6065e-06	3.2972e-06	469.92	216.8	129.12	61.859	3.79e-06	119.48	142.271	-7.000	-2.564	-66.021	27.929	55.813	-65.923	-61.442	99.920	83.100	-62.388	-59.149	-58.477	-53.447	37.445	-55.054	-8191	255	
3244.144	1	1	0	0	0.024526	0.14323	0.13471	0.25304	0.040454	0.24205	0.23276	0.14727	0.23267	0.18231	0.12407	0.34009	0.20063	0.30087	0.17823	0.13281	-3.05	-3.7125	-3.3917	-3.5042	-3.5729	-3.1875	-3.6979	-3.5542	-3.0625	-3.6146	-3.5833	-3.4771	-3.7229	-3.2604	-3.4021	-3.5687	91.431	-33.703	-60.005	247.683	113.970	54.676	256.466	153.440	114.140	65.131	-30.897	212.016	262.281	-78.505	24.852	-18.858	0.00054253	0.0008237	6.9688e-05	776.89	4.4739e-06	5.1505e-06	971.68	303.14	7.7446e-06	4.9821e-06	495.06	228.17	134.97	64.767	5.6395e-07	125.44	0.00034939	0.00030435	9.974e-05	744.31	3.4267e-06	3.3534e-06	932.1	290.13	3.5005e-06	3.3294e-06	469.56	217.06	128.93	61.776	4.0518e-06	119.19	146.289	9.257	53.940	-65.995	56.267	34.372	-65.908	-61.279	46.174	22.219	-62.251	-59.062	-58.774	-53.605	-63.660	-55.101	-8191	255	
3244.240	1	1	0	0	0.34923	0.088228	0.13807	0.081536	0.31517	0.069269	0.21112	0.27721	0.20862	0.1677	0.19361	0.16804	0.24602	0.22708	0.05506	0.21028	-2.8146	-3.6208	-3.2354	-3.4667	-3.8021	-3.25	-3.5708	-3.375	-3.2083	-3.5979	-3.6521	-3.5625	-3.8271	-3.4062	-3.6104	-3.9458	98.300	134.472	-56.567	179.636	67.951	-21.803	187.179	195.091	48.977	101.860	124.057	200.265	273.397	-74.561	-45.531	235.723	0.00060118	0.00041259	0.00015803	773.74	3.6748e-06	4.3714e-06	972.17	300.8	8.102e-06	2.0414e-06	491.17	225.97	134.8	64.22	3.206e-06	125.09	0.00034205	0.00031305	0.00010142	740.81	3.361e-06	3.5516e-06	930.29	288.53	3.4048e-06	3.5151e-06	467.07	214.71	128.38	61.533	4.031e-06	118.08	141.602	2.745	1.163	-65.958	-19.355	60.385	-65.969	-61.391	69.494	28.587	-62.307	-59.148	-58.394	-53.640	111.825	-55.300	-8191	255	
3244.336	1	1	0	0	0.076535	0.12864	0.143	0.23054	0.053151	0.057199	0.16861	0.099017	0.047867	0.2585	0.40238	0.1506	0.082335	0.14374	0.084769	0.62902	-2.6521	-3.4667	-3.4771	-3.2708	-3.6479	-3.3292	-3.6104	-3.5812	-3.3292	-3.6188	-3.6229	-3.5979	-3.8354	-3.4625	-3.2792	-3.7896	187.773	82.504	257.384	196.745	-75.805	39.008	176.882	209.520	188.311	169.002	201.485	182.887	-30.190	271.235	274.813	227.155	0.000628	0.00063457	0.000235	771.93	4.1821e-06	1.3576e-06	967.02	301.15	7.0333e-06	8.1318e-06	489.48	226.06	135.09	64.677	7.9049e-06	124.73	0.00033479	0.00033862	0.00010054	738.3	3.2906e-06	3.7702e-06	928.71	288.31	3.3946e-06	3.8475e-06	466.1	215.08	128.53	61.553	3.9273e-06	117.84	143.836	35.496	-35.820	-66.013	82.155	104.556	-66.248	-61.307	6.276	125.672	-62.361	-58.999	-58.484	-53.425	76.030	-55.206	-8191	255	
3244.457	1	1	0	0	0.13223	0.055741	0.086711	0.21152	0.24719	0.091554	0.10043	0.30502	0.13227	0.098807	0.18234	0.062364	0.44668	0.21744	0.15698	0.053842	-2.7687	-3.625	-3.5104	-3.0625	-3.6042	-3.4042	-3.5604	-3.8125	-3.1354	-3.575	-3.5563	-3.2062	-3.6688	-3.6229	-3.3833	-3.8438	251.272	203.285	247.617	127.735	59.670	166.992	73.695	192.525	276.899	160.057	-73.206	213.783	245.816	272.390	100.683	150.458	0.00063359	0.00058037	0.00031131	770.85	4.6961e-06	3.8583e-06	968.04	300.22	7.3988e-06	4.204e-06	488.53	225.41	134.02	64.047	3.5537e-06	124.17	0.00033979	0.00035627	9.6125e-05	737.82	3.3387e-06	4.0258e-06	925.61	287.75	3.5446e-06	4.0365e-06	465.27	214.49	127.78	61.276	3.7384e-06	117.44	140.735	-7.347	9.103	-66.055	62.042	72.665	-66.128	-61.150	45.980	69.361	-62.255	-59.173	-58.250	-53.664	73.666	-55.009	-8191	255	
3244.528	1	1	0	0	0.093641	0.1903	0.22425	0.16423	0.10747	0.24803	0.16085	0.056258	0.23495	0.13288	0.20437	0.34008	0.14863	0.23933	0.23386	0.14762	-2.875	-3.3167	-3.4292	-3.3146	-3.5521	-3.3104	-3.3063	-3.7021	-3.2854	-3.4375	-3.8083	-3.3563	-3.6104	-3.5229	-3.1667	-3.8	142.282	-21.900	-26.128	172.183	-59.189	83.398	-60.550	128.399	227.249	25.322	268.478	203.405	266.119	203.657	276.703	223.613	0.00054609	0.00054542	0.00028449	773.64	6.0928e-06	3.9412e-06	962.61	302.38	8.3405e-06	9.8954e-06	487.05	225.55	133.88	64.052	4.1064e-06	123.76	0.00035632	0.00037173	9.2762e-05	738.28	3.5971e-06	4.0525e-06	923.8	287.58	3.7317e-06	4.0394e-06	463.4	214.7	127.84	61.132	3.6037e-06	117.29	141.665	21.202	24.976	-65.900	101.612	62.005	-65.987	-61.568	66.042	103.946	-62.472	-59.137	-58.636	-53.764	85.294	-54.981	-8191	255	
3244.625	1	1	0	0	0.21904	0.12022	0.27961	0.18872	0.18805	0.18134	0.081489	0.16686	0.12661	0.18357	0.13803	0.21193	0.14597	0.15735	0.14977	0.36369	-3.0583	-3.3688	-3.775	-3.1	-3.5042	-3.4562	-3.2854	-3.6458	-3.3271	-3.6813	-3.9	-3.4875	-3.9104	-3.7167	-3.175	-3.925	73.092	-61.788	191.006	37.507	59.648	279.064	255.494	214.550	14.262	40.164	250.052	276.578	246.246	212.327	225.845	195.528	0.00061951	0.00094655	0.00018439	768.23	5.377e-06	3.7159e-06	967.11	298.04	4.4074e-06	4.5656e-06	486.11	223.07	132.61	63.501	6.0125e-06	123.3	0.00037639	0.00035795	8.9338e-05	735.17	3.8351e-06	3.8897e-06	922.96	285.99	3.9724e-06	3.9003e-06	460.93	212.62	127.36	60.692	3.475e-06	116.34	141.562	-13.770	-2.057	-66.115	44.048	67.877	-65.789	-61.303	8.683	37.799	-62.214	-58.951	-58.508	-53.662	55.761	-55.320	-8191	255	
3244.744	1	1	0	0	0.081164	0.23841	0.14724	0.16683	0.1772	0.064953	0.23941	0.31613	0.1761	0.1092	0.11978	0.13425	0.091297	0.21794	0.086941	0.19909	-3.0854	-3.3312	-3.6813	-3.1813	-3.3958	-3.55	-3.2646	-3.7438	-3.3958	-3.2875	-3.8917	-3.4375	-3.525	-3.5438	-3.0729	-3.8333	116.766	123.826	24.911	100.218	161.327	149.272	251.962	262.604	155.528	-25.503	196.694	229.208	252.415	-57.244	50.517	210.756	0.00064028	0.001034	8.1902e-06	769.36	4.0219e-06	9.416e-06	955.76	300.36	3.8082e-06	7.8431e-06	486.44	222.97	133.06	63.614	5.6029e-06	122.87	0.00039208	0.0003467	8.6806e-05	735.49	3.9699e-06	3.6721e-06	919.11	286.8	4.0023e-06	3.6578e-06	460.47	212.82	127.44	60.58	3.3757e-06	116.36	142.563	5.976	40.841	-66.090	31.013	61.789	-65.964	-61.322	12.491	50.691	-62.152	-59.260	-58.371	-53.603	47.751	-55.050	-8191	255	
3244.840	1	1	0	0	0.097511	0.181	0.19706	0.099172	0.33545	0.20762	0.16928	0.13422	0.13089	0.24116	0.32801	0.31327	0.22903	0.10448	0.14442	0.12704	-2.8521	-3.1063	-3.4875	-3.3125	-3.5208	-3.5958	-3.3708	-3.5687	-3.3792	-3.0896	-3.6708	-3.3833	-3.3896	-3.7375	-3.1458	-3.6625	177.757	-72.342	-1.993	84.212	238.863	222.676	187.048	194.480	191.276	111.556	246.484	276.788	238.636	187.996	39.734	227.835	0.00062579	0.0006522	0.00010327	766.96	4.3135e-06	7.4307e-06	964	298.59	5.9756e-06	7.7643e-06	484.77	223.93	132.76	63.193	3.8486e-06	123.21	0.00038407	0.00032157	8.259e-05	733.34	3.8902e-06	3.4256e-06	918.45	285.41	3.8259e-06	3.5177e-06	461.04	213.13	127.09	60.453	3.3482e-06	116.72	133.619	21.021	22.128	-65.961	52.644	72.935	-66.227	-61.181	56.575	121.576	-62.341	-59.137	-58.387	-53.562	44.707	-54.939	-8191	255	
3244.936	1	1	0	0	0.26501	0.052429	0.12278	0.19487	0.18201	0.13796	0.24672	0.075828	0.36326	0.098014	0.249	0.32129	0.14176	0.35338	0.22041	0.32767	-2.8688	-3.0875	-3.6229	-3.3521	-3.3479	-3.4667	-3.3542	-3.6521	-3.6208	-3.3208	-3.7479	-3.6312	-3.4979	-3.7604	-3.2542	-3.4917	-35.036	153.340	100.237	13.120	89.274	213.200	221.735	180.170	100.398	-72.857	249.714	188.381	131.071	234.345	-25.164	221.001	0.00055023	0.0008878	0.00020236	767.17	5.1392e-06	1.078e-05	959.76	298.28	6.8005e-06	7.8148e-06	490.1	224.71	132.43	63.391	2.4411e-06	123.52	0.00037013	0.00031426	8.2745e-05	734.29	3.7368e-06	3.3901e-06	917.78	285.23	3.7289e-06	3.4094e-06	462.45	214.29	126.65	60.427	3.4544e-06	117.13	156.226	-26.908	11.765	-65.935	39.625	49.210	-66.132	-61.519	30.971	90.219	-62.216	-59.115	-58.760	-53.585	-20.193	-55.132	-8191	255	
3245.056	1	1	0	0	0.030828	0.10691	0.13403	0.3807	0.35268	0.24336	0.33609	0.15731	0.068155	0.22394	0.3892	0.2458	0.18547	0.14308	0.20563	0.23088	-3.075	-3.1292	-3.4437	-3.5375	-3.1729	-3.675	-3.2854	-3.4188	-3.6521	-3.3333	-3.7188	-3.5479	-3.3479	-3.7438	-3.225	-3.5854	-2.666	-65.389	127.411	209.406	-39.900	-50.775	216.610	156.324	185.399	31.084	241.262	177.410	276.932	266.137	-35.408	233.513	0.00054973	0.00099915	0.00022268	765.8	5.0199e-06	5.8682e-06	962.61	299.06	2.3883e-06	1.0467e-05	490.91	225.25	132.56	63.601	2.4249e-06	124.27	0.00035891	0.00031394	8.726e-05	734.76	3.6086e-06	3.3142e-06	919.11	286.01	3.5638e-06	3.3432e-06	464.23	214.64	126.77	60.602	3.6939e-06	117.74	147.308	2.476	-6.683	-66.075	58.235	55.745	-66.085	-61.220	22.712	111.333	-62.423	-59.115	-58.766	-53.718	35.469	-55.245	-8191	255	
3245.153	1	1	0	0	0.17558	0.20346	0.11992	0.051309	0.14736	0.049978	0.19153	0.091646	0.096265	0.22404	0.093018	0.26965	0.30312	0.15729	0.20336	0.19458	-2.9958	-3.1083	-3.6063	-3.6021	-3.0375	-3.5771	-3.1583	-3.4729	-3.6646	-3.2708	-3.7292	-3.7729	-3.3271	-3.8354	-3.3729	-3.65	229.808	28.741	0.898	230.652	109.021	128.171	271.781	240.922	223.341	-18.127	-65.894	234.995	-66.008	-25.750	246.471	171.543	0.00059283	0.00066999	0.00020649	769.45	4.0807e-06	7.012e-06	956.65	297.95	4.8724e-06	8.1203e-06	487.63	225.28	132.16	63.499	2.4578e-06	124	0.00034713	0.00029694	9.2354e-05	733.99	3.4541e-06	3.231e-06	920.22	284.87	3.4318e-06	3.3046e-06	464.29	214.65	126.25	60.53	3.8934e-06	117.37	151.066	-8.549	40.833	-66.081	14.814	60.316	-65.754	-61.230	20.172	84.172	-62.192	-59.042	-58.727	-53.326	99.301	-55.206	-8191	255	
3245.224	1	1	0	0	0.13085	0.11021	0.093705	0.1868	0.15595	0.10861	0.28704	0.28915	0.15866	0.19689	0.11974	0.24569	0.16903	0.16234	0.028418	0.31527	-3.3208	-3.2229	-3.4333	-3.4167	-3.0646	-3.7	-3.4396	-3.6063	-3.6583	-3.3625	-3.9021	-3.6667	-3.3479	-3.8604	-3.5167	-3.5792	-53.271	11.613	-49.294	249.778	-25.501	16.381	200.970	171.051	67.917	209.381	-36.457	262.820	-33.103	241.568	-37.599	234.961	0.00058229	0.00060367	0.00017261	762.7	4.4692e-06	9.842e-06	962.85	296.07	3.5778e-06	6.1793e-06	487.11	224.03	132.08	63.44	7.0517e-06	123.56	0.00033378	0.00030579	9.8631e-05	731.15	3.403e-06	3.2726e-06	920.67	283.97	3.3064e-06	3.4283e-06	463.88	213.08	126.19	60.409	3.9479e-06	116.98	142.227	-12.579	21.662	-65.888	39.891	50.533	-66.008	-60.920	63.991	72.721	-62.461	-59.198	-58.481	-53.729	94.376	-55.158	-8191	255	
3245.320	1	1	0	0	0.020284	0.14414	0.19033	0.069543	0.12232	0.24364	0.0064338	0.17694	0.24257	0.077547	0.084777	0.1019	0.19337	0.38564	0.050652	0.17901	-3.3812	-3.2458	-3.4771	-3.5875	-3.2604	-3.8042	-3.4458	-3.3792	-3.7521	-3.2812	-3.4625	-3.6833	-3.0354	-3.5083	-3.2917	-3.4792	-1.371	159.496	-72.214	3.111	46.295	-38.435	272.267	267.189	235.386	-16.631	198.729	-36.542	254.356	269.222	203.262	228.046	0.00059219	0.00061799	0.00028867	760.11	3.1729e-06	6.764e-06	959.43	297.73	9.2874e-06	6.5025e-06	487.32	224.41	132.61	63.298	5.4205e-06	123.98	0.00032944	0.0003257	0.00010144	729.99	3.2692e-06	3.5151e-06	920.03	284.4	3.1621e-06	3.5747e-06	464.85	213.84	126.51	60.565	3.8425e-06	117.42	146.686	1.549	-4.627	-66.157	69.684	69.181	-66.049	-61.609	14.107	89.237	-62.044	-59.023	-58.420	-53.394	62.159	-55.261	-8191	255	
3245.439	1	1	0	0	0.029152	0.26721	0.15183	0.15574	0.32906	0.050037	0.13812	0.15698	0.24537	0.10392	0.3429	0.25294	0.23242	0.23327	0.032317	0.37491	-3.1937	-3.3229	-3.5021	-3.6646	-3.0771	-3.5	-3.5021	-3.1458	-3.4437	-3.3042	-3.5312	-3.8396	-3.2438	-3.8	-3.5792	-3.1271	160.206	233.646	62.964	236.340	150.398	222.846	217.411	-0.052	212.592	-24.469	262.513	273.971	-78.426	-71.027	57.101	-79.198	0.00051063	0.0010301	0.0002787	761.7	4.8761e-06	1.3834e-06	961.85	298.37	5.3296e-06	3.1466e-06	490.24	225.56	132.45	63.413	5.5562e-06	124.41	0.00032101	0.00033964	9.8022e-05	729.61	3.2376e-06	3.7313e-06	920.41	284.26	3.215e-06	3.8158e-06	465.44	214.08	126.43	60.659	3.6983e-06	117.67	136.171	39.282	-9.547	-66.216	21.367	121.979	-65.963	-61.455	36.449	39.380	-62.218	-58.954	-58.677	-53.399	55.156	-55.076	-8191	255	
3245.535	1	1	0	0	0.092372	0.050831	0.090282	0.086618	0.093914	0.071773	0.26583	0.31636	0.25708	0.19109	0.30431	0.34964	0.17903	0.21173	0.040206	0.2673	-3.3792	-3.3812	-3.3771	-3.7	-3.3625	-3.4354	-3.6292	-3.1208	-3.6458	-3.3458	-3.4458	-3.8958	-3.3563	-3.6125	-3.3958	-3.3417	-2.146	67.800	191.877	142.833	-14.380	-5.345	176.657	131.187	9.382	154.823	238.329	217.616	198.744	-69.185	42.520	246.671	0.00058177	0.0010553	0.00027036	761.75	4.5245e-06	6.7946e-06	960.79	298.26	7.0854e-06	1.985e-06	491.52	225.18	132.02	63.622	6.842e-06	124.04	0.00033314	0.00035413	9.1924e-05	729.89	3.3581e-06	3.8808e-06	919.65	283.78	3.3856e-06	3.8783e-06	464.9	213.84	126.33	60.651	3.4191e-06	117.46	144.747	-0.703	-7.400	-65.966	93.674	57.950	-65.971	-61.309	44.111	54.907	-62.280	-59.139	-58.547	-53.344	25.432	-55.134	-8191	255	
3245.632	1	1	0	0	0.12255	0.092085	0.17388	0.26441	0.078502	0.14341	0.26699	0.18476	0.15329	0.051853	0.17691	0.36225	0.30018	0.12656	0.10995	0.14956	-3.3042	-3.2833	-3.2208	-3.6292	-3.1437	-3.4479	-3.5042	-3.3979	-3.6875	-3.5812	-3.3375	-4.05	-3.5667	-3.4437	-3.5333	-3.3729	8.649	-24.206	214.530	171.825	253.498	-71.625	159.693	215.257	-58.986	263.296	246.615	217.830	241.204	1.357	247.302	248.589	0.00063691	0.0011244	0.00017169	763.04	2.6489e-06	6.4989e-06	962.28	296.76	1.8069e-06	5.3675e-06	488.49	224.67	131.57	63.352	3.8293e-06	124.06	0.00034256	0.00034883	8.7989e-05	727.33	3.5716e-06	3.8254e-06	917.98	282.76	3.6741e-06	3.7984e-06	463.03	212.96	126.01	60.393	3.3864e-06	117.19	149.291	36.039	-21.925	-65.971	131.257	60.112	-65.935	-61.491	92.618	99.765	-62.281	-59.357	-58.632	-53.728	45.130	-55.327	-8191	255	
3245.728	1	1	0	0	0.04298	0.19969	0.19199	0.31082	0.20882	0.089293	0.0135	0.14433	0.13628	0.15345	0.19653	0.20344	0.16915	0.11792	0.22848	0.232	-3.1937	-3.3187	-2.9896	-3.6937	-3.2021	-3.4833	-3.825	-3.3604	-3.5021	-3.4958	-3.2854	-3.5417	-3.3812	-3.5	-3.8292	-3.3875	-72.067	112.982	42.616	175.296	-43.081	273.668	159.040	127.972	94.781	99.709	238.243	225.840	208.595	189.773	-41.546	205.611	0.00068554	0.00048243	0.00020868	762.26	2.8561e-06	2.0442e-06	959.54	296.33	7.7747e-06	7.171e-06	490.6	223.42	131.61	63.384	5.8557e-06	124.52	0.00037227	0.00034013	8.6693e-05	728.18	3.826e-06	3.7358e-06	919.23	282.75	3.8799e-06	3.5803e-06	464.53	212.65	126.15	60.354	3.2823e-06	117.53	141.662	39.258	19.325	-66.297	143.815	28.184	-66.225	-61.406	32.487	49.156	-62.361	-59.112	-58.612	-53.612	89.932	-55.305	-8191	255	
3245.824	1	1	0	0	0.09387	0.10857	0.1225	0.17042	0.056281	0.16853	0.10631	0.2284	0.039311	0.27649	0.23537	0.081256	0.29347	0.16763	0.23816	0.17909	-3.0021	-3.4396	-3.1646	-3.6917	-3.5708	-3.5375	-3.9167	-3.3958	-3.6271	-3.5896	-3.3208	-3.7729	-3.2792	-3.3625	-3.6875	-3.3187	141.886	175.480	207.182	220.234	-2.811	-6.629	-44.889	195.100	-18.265	195.466	222.440	200.843	232.466	269.890	129.972	180.727	0.00061466	0.00035026	0.00020254	767.17	5.4043e-06	8.1381e-06	959.75	295.7	7.2941e-06	8.1008e-06	490.2	224.62	131.24	63.339	7.8368e-06	124.11	0.00038331	0.00032051	8.4666e-05	732.14	3.8638e-06	3.504e-06	919.53	283.49	3.8995e-06	3.4298e-06	464.54	214.08	126.11	60.42	3.2152e-06	117.69	138.912	-37.863	17.322	-65.819	37.224	60.344	-65.908	-61.395	41.250	91.575	-62.187	-58.888	-58.477	-53.690	80.377	-55.201	-8191	255	
3245.920	1	1	0	0	0.046702	0.15007	0.1359	0.15017	0.023511	0.22113	0.20878	0.076216	0.13352	0.050175	0.21285	0.46741	0.044199	0.14263	0.22098	0.16249	-2.9854	-3.5354	-3.2708	-3.75	-3.575	-3.1583	-3.65	-3.4021	-3.3458	-3.8604	-3.5062	-3.7917	-3.5271	-3.4771	-3.55	-3.6396	45.918	174.142	263.686	-73.405	269.795	-58.354	227.914	-21.966	-72.720	34.629	163.655	265.310	67.563	-47.617	-7.364	241.624	0.00051268	0.00081196	0.00017403	765.47	8.9447e-06	6.4976e-06	964.32	295.27	5.0718e-06	9.5482e-06	489.73	223.29	131.18	63.148	2.9901e-06	123.92	0.00038042	0.0003044	8.3096e-05	731.7	3.6991e-06	3.4324e-06	919.44	283.11	3.7158e-06	3.3383e-06	464.01	212.98	125.68	60.093	3.2507e-06	117.27	137.139	2.559	-24.339	-65.818	62.116	60.846	-66.052	-61.197	51.982	74.411	-62.190	-59.041	-58.655	-53.617	71.261	-55.175	-8191	255	
3246.016	1	1	0	0	0.17968	0.1737	0.049615	0.099028	0.091945	0.21018	0.15025	0.19743	0.19521	0.19474	0.18498	0.31412	0.34065	0.336	0.21632	0.215	-3.1229	-3.7583	-3.1833	-3.7167	-3.5604	-3.125	-3.6875	-3.2313	-3.3333	-3.7479	-3.5875	-3.85	-3.7125	-3.1667	-3.5458	-3.5229	46.595	135.226	94.816	193.341	80.063	-61.892	105.784	-13.788	-26.652	114.124	276.446	239.624	176.378	-55.261	125.081	166.535	0.00050777	0.00074743	0.00020307	766.32	6.3449e-06	7.9176e-06	965.05	295	7.7289e-06	9.646e-06	489.33	223.29	130.79	63.043	6.5567e-06	123.79	0.00036365	0.00030139	8.4073e-05	733.2	3.554e-06	3.333e-06	920.41	282.65	3.5656e-06	3.2676e-06	463.56	212.5	125.22	59.959	3.4373e-06	117.17	146.883	-17.219	1.297	-65.936	48.031	50.688	-65.925	-61.185	49.570	80.184	-62.330	-59.015	-58.630	-53.509	84.613	-55.367	-8191	255	
3246.137	1	1	0	0	0.28062	0.18697	0.19131	0.23093	0.071557	0.13584	0.13987	0.30751	0.15385	0.10574	0.27987	0.28568	0.19844	0.15224	0.14973	0.064462	-2.9854	-3.725	-3.2917	-3.5771	-3.5938	-3.3875	-3.8396	-3.5208	-3.4542	-3.8208	-3.4417	-3.5833	-3.7604	-3.45	-3.5979	-3.6854	107.036	12.972	-74.769	-70.494	222.035	53.542	240.399	193.640	145.061	194.908	256.382	246.402	179.768	-28.162	185.279	264.670	0.00050729	0.0007999	0.00018357	766.42	6.2783e-06	7.6146e-06	961.62	297.73	3.6347e-06	4.0878e-06	491.04	223.55	132.13	63.27	4.9366e-06	123.36	0.00034912	0.00029269	8.9667e-05	734.91	3.4333e-06	3.2547e-06	921.86	283.79	3.4666e-06	3.1707e-06	465.5	212.99	125.56	60.131	3.7188e-06	117.34	145.926	16.711	18.473	-66.263	66.453	43.386	-65.968	-61.663	49.773	111.064	-62.157	-59.135	-58.757	-53.519	116.781	-55.238	-8191	255	
3246.233	1	1	0	0	0.12631	0.15993	0.066473	0.19017	0.15251	0.15068	0.35074	0.36041	0.083528	0.20145	0.079928	0.22324	0.18421	0.46433	0.24748	0.30105	-2.8708	-3.6458	-3.2583	-3.6854	-3.7708	-3.0396	-3.575	-3.7146	-3.2917	-3.6208	-3.5417	-3.6042	-3.7438	-3.3333	-3.5604	-3.8021	-55.519	58.532	37.769	242.040	208.214	-60.940	204.624	268.857	86.444	36.543	77.301	170.821	-2.889	218.509	88.893	252.383	0.00058015	0.00075537	0.00011004	764.63	3.7287e-06	3.1104e-06	966.87	296.61	6.864e-06	5.6003e-06	488.22	224.09	131.16	62.919	1.5358e-06	123.9	0.00034286	0.00029155	9.6753e-05	735.69	3.3492e-06	3.2817e-06	927.41	284.16	3.4428e-06	3.2464e-06	464.75	213.15	125.36	60.061	3.8909e-06	117.24	143.781	-21.277	14.315	-65.976	39.371	145.549	-65.984	-61.196	41.276	56.494	-62.253	-59.067	-58.706	-53.540	42.542	-55.115	-8191	255	
3246.329	1	1	0	0	0.27178	0.053325	0.1637	0.19166	0.060795	0.071832	0.10498	0.38931	0.089403	0.22588	0.32703	0.10208	0.22262	0.25468	0.13633	0.22822	-2.7542	-3.6125	-3.3833	-3.5646	-3.7396	-3.3187	-3.8729	-3.7708	-3.1792	-3.6542	-3.4958	-3.3625	-3.75	-3.4021	-3.5854	-3.875	-70.138	-51.657	194.503	-38.153	234.236	144.283	269.820	241.296	71.148	-38.985	211.850	196.792	239.733	-65.219	230.695	245.280	0.00062578	0.00022384	0.00010199	765.48	4.8363e-06	5.6776e-06	962.2	295.81	5.0344e-06	6.0984e-06	487.31	222.56	130.36	62.831	9.1725e-07	123.17	0.00033656	0.00030602	9.8872e-05	734.25	3.2475e-06	3.4465e-06	925.46	282.8	3.287e-06	3.4344e-06	464.71	211.72	124.91	59.925	3.9004e-06	116.63	146.565	29.213	-20.731	-66.086	101.690	47.619	-66.094	-61.544	41.802	88.211	-62.330	-59.108	-58.527	-53.459	28.478	-55.177	-8191	255	
3246.425	1	1	0	0	0.089313	0.038072	0.051684	0.10803	0.13112	0.21138	0.075664	0.065428	0.047257	0.056303	0.31028	0.39787	0.049651	0.20344	0.26609	0.32521	-3.0208	-3.6104	-3.4313	-3.4062	-3.5687	-3.4292	-3.7292	-3.9813	-3.2812	-3.6437	-3.4313	-3.3958	-3.7625	-3.4083	-3.4875	-3.8583	117.682	17.523	159.363	100.121	132.992	134.510	151.548	264.658	102.100	250.959	219.015	193.071	-62.742	273.513	191.421	262.950	0.00050105	0.00065408	0.00022629	768.02	7.8453e-06	7.4475e-06	966.59	296.4	3.7983e-06	6.6919e-06	486.7	222.49	131.04	62.769	6.7523e-06	123.08	0.0003279	0.00032731	9.7893e-05	734.25	3.2421e-06	3.6794e-06	926.19	283.03	3.3688e-06	3.8166e-06	463.29	211.83	125.25	60.009	3.9007e-06	116.65	144.145	18.890	13.075	-65.900	44.056	10.816	-65.834	-61.664	57.249	62.428	-62.315	-59.116	-58.469	-53.519	75.677	-55.032	-8191	255	
3246.520	1	1	0	0	0.13318	0.093792	0.19835	0.20081	0.18275	0.053065	0.27134	0.18959	0.034554	0.12041	0.29392	0.13686	0.13576	0.15047	0.12153	0.10597	-2.8646	-3.4313	-3.3604	-3.2729	-3.75	-3.3438	-3.4833	-3.6875	-3.1646	-3.4938	-3.5542	-3.3646	-3.8146	-3.65	-3.4208	-3.85	-52.897	121.524	-38.022	219.721	133.953	121.255	180.182	190.907	25.466	-51.196	124.358	260.823	206.802	246.716	67.832	164.875	0.0004916	0.00054101	8.0266e-05	770.51	6.9762e-06	1.9636e-06	966.66	296.19	1.6553e-06	2.8621e-06	487.17	222.78	131.45	62.604	4.8018e-06	123.21	0.00034302	0.00035974	9.7918e-05	736.53	3.3726e-06	4.0674e-06	927.06	283.78	3.4929e-06	4.018e-06	464.13	212.33	125.5	60.066	3.743e-06	116.89	138.582	-31.526	71.857	-65.989	68.523	39.610	-66.074	-61.379	206.919	114.795	-62.148	-59.284	-58.501	-53.651	49.498	-55.119	-8191	255	
#DATA ENDS
