BOXY.EXE: ISS Imagent and Oximeter Data Acquisition Program Version 0.80
Ascii Record File

#ACQ INFORMATION
2  Detector Channels 
16  External MUX Channels 
1  Auxiliary Channels 
5000  Waveform (CCF) Frequency (Hz)
1  Waveforms Skipped 
30  Waveforms Averaged 
1  Cycles Averaged 
16  Acquisitions per Waveform 
10.0806  Updata Rate (Hz) 

#FILE INFORMATION
TRUE -- External MUX Channel results are PARSED.
FALSE -- AC DC and Phase are NOT grouped.
TRUE -- Companion Program Settings File CREATED.
FALSE -- AC data not excluded
FALSE -- DC data not excluded
FALSE -- Phase data not excluded
FALSE -- Auxillary Chn. data not excluded
Tab delimiters

#CALIBRATION STATE
TRUE -- Waveform Calibration Values APPLIED.


#AUX CALIBRATION VALUES
Val Type	aux-1	

Term	1.0000e+00	
Factor	0.0000e+00	


#WF CALIBRATION VALUES
A = Detector Channel
Val Type	A-AC1	A-AC2	A-AC3	A-AC4	A-AC5	A-AC6	A-AC7	A-AC8	A-AC9	A-AC10	A-AC11	A-AC12	A-AC13	A-AC14	A-AC15	A-AC16	A-DC1	A-DC2	A-DC3	A-DC4	A-DC5	A-DC6	A-DC7	A-DC8	A-DC9	A-DC10	A-DC11	A-DC12	A-DC13	A-DC14	A-DC15	A-DC16	A-Ph1	A-Ph2	A-Ph3	A-Ph4	A-Ph5	A-Ph6	A-Ph7	A-Ph8	A-Ph9	A-Ph10	A-Ph11	A-Ph12	A-Ph13	A-Ph14	A-Ph15	A-Ph16	

Term	0.00000e+00	0.00000e+00	0.00000e+00	0.00000e+00	0.00000e+00	0.00000e+00	0.00000e+00	0.00000e+00	0.00000e+00	0.00000e+00	0.00000e+00	0.00000e+00	0.00000e+00	0.00000e+00	0.00000e+00	0.00000e+00	0.00000e+00	0.00000e+00	0.00000e+00	0.00000e+00	0.00000e+00	0.00000e+00	0.00000e+00	0.00000e+00	0.00000e+00	0.00000e+00	0.00000e+00	0.00000e+00	0.00000e+00	0.00000e+00	0.00000e+00	0.00000e+00	0.00000e+00	0.00000e+00	0.00000e+00	0.00000e+00	0.00000e+00	0.00000e+00	0.00000e+00	0.00000e+00	0.00000e+00	0.00000e+00	0.00000e+00	0.00000e+00	0.00000e+00	0.00000e+00	0.00000e+00	0.00000e+00	
Factor	1.00000e+00	1.00000e+00	1.00000e+00	1.00000e+00	1.00000e+00	1.00000e+00	1.00000e+00	1.00000e+00	1.00000e+00	1.00000e+00	1.00000e+00	1.00000e+00	1.00000e+00	1.00000e+00	1.00000e+00	1.00000e+00	1.00000e+00	1.00000e+00	1.00000e+00	1.00000e+00	1.00000e+00	1.00000e+00	1.00000e+00	1.00000e+00	1.00000e+00	1.00000e+00	1.00000e+00	1.00000e+00	1.00000e+00	1.00000e+00	1.00000e+00	1.00000e+00	X	X	X	X	X	X	X	X	X	X	X	X	X	X	X	X	

B = Detector Channel
Val Type	B-AC1	B-AC2	B-AC3	B-AC4	B-AC5	B-AC6	B-AC7	B-AC8	B-AC9	B-AC10	B-AC11	B-AC12	B-AC13	B-AC14	B-AC15	B-AC16	B-DC1	B-DC2	B-DC3	B-DC4	B-DC5	B-DC6	B-DC7	B-DC8	B-DC9	B-DC10	B-DC11	B-DC12	B-DC13	B-DC14	B-DC15	B-DC16	B-Ph1	B-Ph2	B-Ph3	B-Ph4	B-Ph5	B-Ph6	B-Ph7	B-Ph8	B-Ph9	B-Ph10	B-Ph11	B-Ph12	B-Ph13	B-Ph14	B-Ph15	B-Ph16	

Term	0.00000e+00	0.00000e+00	0.00000e+00	0.00000e+00	0.00000e+00	0.00000e+00	0.00000e+00	0.00000e+00	0.00000e+00	0.00000e+00	0.00000e+00	0.00000e+00	0.00000e+00	0.00000e+00	0.00000e+00	0.00000e+00	0.00000e+00	0.00000e+00	0.00000e+00	0.00000e+00	0.00000e+00	0.00000e+00	0.00000e+00	0.00000e+00	0.00000e+00	0.00000e+00	0.00000e+00	0.00000e+00	0.00000e+00	0.00000e+00	0.00000e+00	0.00000e+00	-1.65095e+02	-1.36760e+02	-1.28228e+02	-1.79802e+02	-7.58801e+01	-8.06562e+01	-1.58085e+02	-1.62015e+02	-8.34201e+01	-6.02352e+01	-1.69977e+02	-1.71992e+02	-1.83057e+02	-1.76155e+02	-6.30896e+01	-1.48803e+02	
Factor	2.68855e-05	1.33963e-04	4.06587e-05	1.73064e-01	1.18092e-06	1.38058e-06	1.79830e-01	6.39379e-02	1.39152e-06	1.46583e-06	8.33553e-02	3.13931e-02	2.72019e-02	8.97484e-03	1.12261e-06	1.30680e-02	1.59552e-06	1.68252e-06	4.69401e-07	8.55044e-02	1.82819e-08	1.84544e-08	8.38191e-02	3.15264e-02	1.83315e-08	1.84551e-08	3.98753e-02	1.49757e-02	1.33735e-02	4.44832e-03	1.83795e-08	6.25309e-03	X	X	X	X	X	X	X	X	X	X	X	X	X	X	X	X	



#DISTANCE SETTINGS
A = Detector Channel
A-1	A-2	A-3	A-4	A-5	A-6	A-7	A-8	A-9	A-10	A-11	A-12	A-13	A-14	A-15	A-16	

2.5000e+00	3.0000e+00	2.5000e+00	3.0000e+00	2.0000e+00	3.0000e+00	1.5000e+00	3.0000e+00	3.0000e+00	3.0000e+00	3.0000e+00	3.0000e+00	3.0000e+00	3.0000e+00	1.5000e+00	3.0000e+00	

B = Detector Channel
B-1	B-2	B-3	B-4	B-5	B-6	B-7	B-8	B-9	B-10	B-11	B-12	B-13	B-14	B-15	B-16	

1.0000e+01	1.0000e+01	1.0000e+01	1.4400e+00	1.0000e+01	1.0000e+01	1.5100e+00	1.9400e+00	1.0000e+01	1.0000e+01	1.9900e+00	2.4900e+00	2.4100e+00	2.9000e+00	1.0000e+01	2.9800e+00	




#DATA BEGINS
time	group	step	mark	flag	A-AC1	A-AC2	A-AC3	A-AC4	A-AC5	A-AC6	A-AC7	A-AC8	A-AC9	A-AC10	A-AC11	A-AC12	A-AC13	A-AC14	A-AC15	A-AC16	A-DC1	A-DC2	A-DC3	A-DC4	A-DC5	A-DC6	A-DC7	A-DC8	A-DC9	A-DC10	A-DC11	A-DC12	A-DC13	A-DC14	A-DC15	A-DC16	A-Ph1	A-Ph2	A-Ph3	A-Ph4	A-Ph5	A-Ph6	A-Ph7	A-Ph8	A-Ph9	A-Ph10	A-Ph11	A-Ph12	A-Ph13	A-Ph14	A-Ph15	A-Ph16	B-AC1	B-AC2	B-AC3	B-AC4	B-AC5	B-AC6	B-AC7	B-AC8	B-AC9	B-AC10	B-AC11	B-AC12	B-AC13	B-AC14	B-AC15	B-AC16	B-DC1	B-DC2	B-DC3	B-DC4	B-DC5	B-DC6	B-DC7	B-DC8	B-DC9	B-DC10	B-DC11	B-DC12	B-DC13	B-DC14	B-DC15	B-DC16	B-Ph1	B-Ph2	B-Ph3	B-Ph4	B-Ph5	B-Ph6	B-Ph7	B-Ph8	B-Ph9	B-Ph10	B-Ph11	B-Ph12	B-Ph13	B-Ph14	B-Ph15	B-Ph16	aux-1	digaux	

2177.173	1	1	0	256	0.19376	0.16865	0.43736	0.12952	0.30937	0.13536	0.46482	0.2918	0.088751	0.065192	0.26071	0.16763	0.19007	0.22547	0.096865	0.19156	-2.9896	-3.6958	-3.2417	-3.6854	-3.4833	-3.3479	-3.7042	-3.4125	-3.2812	-3.6542	-3.3312	-3.6583	-3.6208	-3.1875	-3.5417	-3.4958	-19.561	-14.932	-70.493	148.902	172.776	219.388	181.653	-70.590	170.568	85.648	-82.355	269.939	-78.326	-34.278	159.554	152.454	0.00040387	0.00083527	0.00013873	1177.8	5.6676e-06	5.869e-06	1398.1	366.29	6.3716e-06	7.18e-06	508.93	167.19	108.58	38.329	5.1027e-06	70.503	0.00048645	0.00043265	0.00012293	1078.1	5.1679e-06	4.8902e-06	1277	336.5	5.1564e-06	4.6734e-06	463.51	154.42	100.76	35.294	4.9713e-06	64.979	146.796	42.893	-45.439	-76.270	89.228	4.341	-76.409	-71.281	-40.503	73.324	-72.025	-68.221	-67.363	-62.008	62.082	-63.923	-8191	255	
2177.292	1	1	0	0	0.10945	0.15464	0.19446	0.20684	0.057026	0.16831	0.17264	0.36307	0.1004	0.09937	0.28899	0.030017	0.10061	0.13919	0.2277	0.17703	-3.1167	-3.5833	-3.3771	-3.8667	-3.8146	-3.1167	-3.7104	-3.4354	-3.4167	-3.6083	-3.4604	-3.675	-3.4583	-3.2938	-3.5396	-3.6063	213.626	246.632	126.866	-48.305	141.787	124.348	215.399	173.754	-48.586	23.532	203.653	255.176	-75.149	249.409	-53.709	206.199	0.00013077	0.00095519	1.1211e-05	1169.9	7.107e-06	6.375e-06	1383.2	364.97	8.2131e-06	7.4268e-06	506.6	166.24	109.13	38.068	2.4077e-06	70.972	0.00046765	0.00042507	0.00013408	1070.2	5.0387e-06	4.6913e-06	1263.9	334.37	5.012e-06	4.4716e-06	460.32	153.08	100.18	35.123	5.1538e-06	64.751	137.771	0.331	-44.774	-76.199	44.898	50.827	-76.668	-71.254	25.397	53.851	-71.897	-68.125	-67.343	-62.461	200.357	-63.932	-8191	255	
2177.388	1	1	0	0	0.11502	0.094473	0.20343	0.26235	0.027028	0.18781	0.10688	0.16901	0.2161	0.25984	0.27553	0.35493	0.0706	0.17287	0.13269	0.03644	-2.9167	-3.75	-3.2854	-3.525	-3.7354	-3.1896	-3.6312	-3.6813	-3.3146	-3.575	-3.4542	-3.4417	-3.725	-3.2354	-3.5292	-3.6063	91.291	57.707	143.737	-70.645	163.861	244.807	46.385	211.862	148.021	0.875	209.462	241.209	97.608	261.001	248.289	269.729	0.00021883	0.00020984	0.00027055	1155.7	4.8381e-06	6.5961e-06	1371.6	361.23	1.2448e-06	5.8324e-06	501.67	165.36	107.88	37.912	3.2089e-06	69.875	0.00042801	0.00039494	0.00013092	1057.8	4.4991e-06	4.4689e-06	1254.1	330.56	4.553e-06	4.3735e-06	457.87	152.48	99.277	35.069	5.1828e-06	64.144	131.504	16.031	-29.924	-76.227	90.818	57.663	-76.469	-71.463	104.011	38.559	-71.824	-68.532	-67.599	-62.264	97.221	-64.000	-8191	255	
2177.485	1	1	0	0	0.098548	0.17971	0.17522	0.26841	0.32883	0.26759	0.28282	0.19268	0.11314	0.070337	0.1955	0.30765	0.048425	0.18167	0.090893	0.10484	-2.8854	-3.5438	-3.3021	-3.3688	-3.4854	-3.0771	-3.85	-3.6208	-3.2125	-3.5833	-3.2687	-3.4979	-3.7792	-3.3792	-3.6625	-3.4604	215.636	170.162	255.414	207.547	-83.559	197.376	-63.745	-52.496	-57.955	-15.935	73.229	213.296	222.944	-37.929	-89.367	24.977	0.00016433	0.00049191	0.00015014	1150.9	2.2662e-06	5.5539e-06	1367.1	357.69	6.3351e-06	5.0676e-06	501.43	165.99	106.74	37.695	4.4857e-06	70.3	0.00040922	0.0004121	0.00013175	1048.8	4.1964e-06	4.6051e-06	1246	327.71	4.2964e-06	4.5256e-06	457.59	151.85	98.298	34.908	4.8354e-06	64.122	182.310	-70.551	11.832	-76.264	-25.249	66.059	-76.500	-71.534	12.147	138.510	-72.152	-68.269	-67.496	-62.175	144.473	-63.926	-8191	255	
2177.581	1	1	0	0	0.041026	0.060842	0.29616	0.23436	0.17011	0.13085	0.21675	0.10597	0.063016	0.1528	0.28272	0.018193	0.16926	0.24454	0.14745	0.090443	-2.7125	-3.6292	-3.4896	-3.5625	-3.6021	-3.3167	-3.7104	-3.4458	-3.3042	-3.4625	-3.4396	-3.4708	-3.7	-3.4125	-3.3708	-3.6271	-2.155	-5.646	0.546	242.717	221.798	142.932	255.187	228.662	217.787	229.521	206.481	-38.526	252.627	-82.237	28.210	98.305	0.00034643	0.00063085	0.00020272	1146	3.6088e-06	2.4198e-06	1360.1	358.53	2.9438e-06	5.7534e-06	501.75	165.75	107.37	37.738	5.7634e-06	70.096	0.0003807	0.00042124	0.00012122	1040.3	3.905e-06	4.7006e-06	1239.3	327.21	4.0327e-06	4.635e-06	455.13	151.55	98.42	34.923	4.4537e-06	63.735	144.442	10.898	37.767	-76.342	56.846	202.432	-76.579	-71.359	17.023	20.931	-71.839	-68.277	-67.465	-62.530	55.464	-63.996	-8191	255	
2177.677	1	1	0	0	0.13999	0.29377	0.20291	0.093182	0.14512	0.21037	0.15558	0.038742	0.13014	0.10534	0.31213	0.080757	0.26551	0.047888	0.099835	0.18958	-2.9354	-3.6167	-3.5687	-3.3583	-3.7479	-3.2062	-3.4646	-3.7396	-3.1875	-3.4188	-3.5729	-3.2917	-3.6458	-3.4354	-3.3312	-3.6167	230.774	267.105	181.519	236.913	195.071	144.612	-74.351	125.708	104.626	176.922	-85.301	-45.848	250.541	216.680	-83.766	167.793	0.00040366	0.00025266	0.00020751	1134.2	7.1992e-07	1.7788e-06	1345.9	359.69	3.6221e-06	2.3032e-06	502.57	166.15	108.47	38.163	3.5885e-06	70.208	0.00036519	0.00041314	0.00010663	1032.4	3.8854e-06	4.5952e-06	1224.4	326.4	4.0373e-06	4.613e-06	455.44	151.8	99.281	35.221	4.0764e-06	64.155	143.079	267.544	-56.379	-76.251	-56.493	234.864	-76.450	-71.504	235.299	73.637	-72.037	-68.220	-67.500	-62.499	111.241	-63.779	-8191	255	
2177.773	1	1	0	0	0.14577	0.17023	0.23053	0.1275	0.082789	0.14271	0.21044	0.17053	0.089706	0.14736	0.26893	0.10932	0.11515	0.35423	0.14953	0.17109	-2.8292	-3.5333	-3.4938	-3.2771	-3.5938	-3.3563	-3.4042	-3.7438	-3.2	-3.3208	-3.475	-3.3292	-3.6292	-3.65	-3.1917	-3.7292	61.813	5.557	-77.129	203.690	154.509	-65.947	225.280	-17.694	248.178	227.541	177.218	222.625	-3.153	-76.736	234.663	181.533	0.000333	0.00046001	8.4772e-05	1126.5	3.4273e-06	1.014e-05	1342.1	359.46	7.485e-06	7.4266e-06	505.51	168.31	109.4	39.155	1.5506e-06	71.527	0.00038069	0.00040673	9.782e-05	1025.4	3.9616e-06	4.2839e-06	1220.8	327.45	4.2097e-06	4.2927e-06	458	153.94	100.64	35.882	3.8545e-06	64.976	152.223	-42.736	-26.320	-75.903	125.911	69.488	-76.599	-71.312	247.025	13.034	-72.041	-68.153	-67.577	-62.521	47.962	-63.949	-8191	255	
2177.869	1	1	0	0	0.11888	0.19301	0.13017	0.21063	0.11158	0.27005	0.26503	0.21923	0.21615	0.10663	0.13181	0.31654	0.38498	0.24501	0.082118	0.21348	-2.8479	-3.3479	-3.4292	-3.425	-3.7687	-3.3229	-3.4208	-3.675	-3.3229	-3.4667	-3.8563	-3.2542	-3.6792	-3.65	-3.3312	-3.8854	233.862	128.529	187.827	141.602	207.249	-70.991	191.804	-76.851	-86.744	180.169	185.015	-61.644	186.052	-89.416	71.958	124.902	0.00037851	0.00079384	0.00013526	1123.9	4.7058e-06	4.1382e-06	1331.3	362.39	2.2679e-06	1.0148e-05	510.27	170.53	110.73	39.588	6.1271e-06	72.686	0.00040402	0.00038081	9.4207e-05	1020.2	4.228e-06	4.0421e-06	1212.5	327.85	4.2672e-06	3.9077e-06	460.5	156	101.7	36.429	3.6857e-06	66.149	127.114	-19.456	-17.049	-76.176	61.561	22.917	-76.477	-71.533	87.011	35.029	-72.047	-68.248	-67.518	-62.582	95.568	-64.155	-8191	255	
2177.965	1	1	0	0	0.15476	0.19931	0.21932	0.29763	0.077928	0.20541	0.32778	0.45032	0.11807	0.36507	0.030127	0.18429	0.18245	0.082859	0.33594	0.13333	-3.0812	-3.3479	-3.6063	-3.5604	-3.6229	-3.3729	-3.4062	-3.6083	-3.2271	-3.4125	-3.8812	-3.4229	-3.7458	-3.8292	-3.3917	-4.0083	242.231	-35.084	54.208	246.325	2.899	177.954	190.808	206.864	48.517	11.184	126.196	174.984	143.137	37.216	177.097	184.260	0.00031266	0.00054922	0.0002263	1113.9	5.0096e-06	4.483e-06	1318.1	360.42	5.6206e-06	6.3077e-06	512.49	175.01	113.93	41.417	1.2541e-06	75.628	0.0004018	0.00036065	9.0562e-05	1013.1	4.2768e-06	3.8291e-06	1199	328.75	4.2495e-06	3.7264e-06	462.82	160.6	104.27	37.887	3.4833e-06	68.683	137.793	19.974	-9.573	-76.502	27.499	116.902	-76.445	-71.161	19.965	5.131	-71.996	-68.415	-67.710	-62.587	144.129	-64.180	-8191	255	
2178.084	1	1	0	0	0.17836	0.078657	0.20948	0.11377	0.30088	0.36678	0.25543	0.17884	0.018068	0.31664	0.20239	0.33096	0.068699	0.26442	0.17084	0.19358	-3.3396	-3.4896	-3.6688	-3.5187	-3.3521	-3.5625	-3.3937	-3.7083	-3.3438	-3.1542	-3.8792	-3.2729	-3.3604	-3.7375	-3.1521	-3.7354	-16.066	196.093	63.879	135.875	106.764	268.368	203.160	265.969	-27.303	-28.994	227.190	214.398	20.417	233.495	179.695	221.142	0.00028464	0.00094445	0.00012164	1106	6.2136e-06	5.9756e-06	1309.3	363.41	3.1622e-06	1.8931e-06	518.34	182.99	118.46	44.047	3.8011e-06	79.528	0.00038657	0.00034255	8.5988e-05	1006.8	4.121e-06	3.6814e-06	1189.1	331.58	4.0927e-06	3.6849e-06	467.9	167.1	108.03	40.204	3.5401e-06	72.273	131.529	21.754	38.100	-76.113	61.050	61.286	-76.602	-71.440	210.797	113.080	-72.062	-68.409	-67.814	-63.008	51.103	-64.486	-8191	255	
2178.180	1	1	0	0	0.082391	0.25417	0.18394	0.1343	0.15239	0.22541	0.057214	0.21216	0.16661	0.091107	0.44345	0.1005	0.27488	0.10471	0.22796	0.37376	-2.9833	-3.2271	-3.4729	-3.2417	-3.4146	-3.5792	-3.5604	-3.6	-3.4042	-3.3167	-3.7708	-3.1917	-3.3583	-3.725	-3.2604	-3.7396	-84.324	38.162	76.411	226.062	60.048	269.886	87.278	176.122	191.367	183.448	221.824	-5.461	-81.978	137.221	152.330	198.596	0.00036747	0.0011151	9.7457e-05	1088.7	6.1162e-06	6.005e-06	1295.5	363.06	3.381e-06	5.9539e-06	519.11	187.35	119.78	46.074	7.3179e-06	81.862	0.0003545	0.00031515	8.7394e-05	992.24	3.7358e-06	3.339e-06	1175.2	331.88	3.6547e-06	3.3957e-06	469.9	170.77	109.27	41.913	3.6677e-06	74.563	148.051	1.913	31.737	-76.094	48.662	57.618	-76.728	-71.259	-1.353	32.370	-71.854	-68.386	-67.625	-63.418	68.735	-65.044	-8191	255	
2178.254	1	1	0	0	0.071705	0.11445	0.069895	0.17164	0.14746	0.12499	0.35128	0.29808	0.077117	0.063832	0.18161	0.14257	0.17833	0.11477	0.22206	0.20699	-3.1792	-3.1396	-3.4146	-3.4896	-3.3208	-3.6854	-3.5312	-3.6771	-3.6083	-3.1417	-3.7479	-3.5563	-3.2354	-3.9437	-3.2229	-3.4958	36.263	-43.100	32.305	232.918	145.272	-20.148	-33.914	231.253	-74.991	129.859	234.581	-51.034	0.906	22.904	-77.702	192.132	0.00038624	0.00029844	0.00023089	1077.3	1.002e-05	7.4934e-06	1268	357.65	4.7403e-06	6.1418e-06	515.31	188.2	118.45	46.696	4.4402e-06	83.126	0.00033528	0.00029852	9.3161e-05	979.82	3.5071e-06	3.1759e-06	1159	326.11	3.3639e-06	3.1287e-06	465.64	171.54	108.23	42.523	3.7638e-06	75.423	164.797	60.600	-31.945	-76.150	39.282	32.464	-76.822	-71.348	39.725	21.745	-72.313	-68.629	-67.823	-63.390	61.496	-64.633	-8191	255	
2178.373	1	1	0	0	0.10959	0.12447	0.086438	0.23294	0.12786	0.059948	0.1545	0.2003	0.047167	0.16947	0.18398	0.09824	0.087667	0.21341	0.39984	0.28863	-3.1813	-3.1333	-3.6146	-3.6	-3.1937	-3.6542	-3.5438	-3.3563	-3.6562	-3.2333	-3.7958	-3.8167	-3.2917	-3.8021	-3.3937	-3.4938	80.354	43.140	197.041	-72.517	-38.306	189.998	245.541	268.732	145.590	-65.619	245.844	159.234	198.799	-86.038	37.650	219.274	0.00039095	0.00039779	0.00018659	1065	1.6655e-06	3.7483e-06	1251.4	351.72	3.8301e-07	7.5677e-06	507.87	188.67	117.48	46.833	4.8909e-06	83.621	0.00030345	0.00028251	9.1999e-05	964.16	3.1359e-06	2.9639e-06	1139.4	319.78	2.9738e-06	3.0234e-06	459.07	171.06	107.28	42.668	3.4866e-06	75.542	168.385	24.778	11.283	-76.270	73.728	-19.928	-76.470	-71.199	266.604	66.516	-72.172	-68.605	-68.035	-63.319	13.102	-64.807	-8191	255	
2178.469	1	1	0	0	0.18594	0.12119	0.10677	0.24697	0.3405	0.10435	0.2366	0.12031	0.013012	0.1852	0.46189	0.1344	0.24992	0.20268	0.20212	0.13584	-3.2479	-3.1937	-3.3063	-3.7646	-3.1792	-3.6896	-3.4188	-3.2542	-3.6063	-3.3438	-3.4646	-3.7354	-3.2229	-3.6917	-3.3396	-3.3292	132.209	174.685	241.056	258.064	235.118	-12.810	227.032	164.855	158.255	81.289	230.154	-87.738	188.770	-88.834	-87.086	250.292	0.00027143	0.00030204	0.00021429	1047.1	2.5499e-06	7.7316e-06	1236.6	349.19	2.4975e-06	5.9637e-06	506.14	189.05	117.25	47.423	3.5815e-06	84.293	0.00027155	0.00028195	8.6833e-05	952.88	2.8581e-06	2.9754e-06	1124.6	317.51	2.7681e-06	3.0867e-06	455.96	171.16	106.97	43.137	3.1691e-06	76.11	152.693	-10.070	16.592	-76.357	44.359	100.213	-76.492	-71.453	-19.515	55.040	-72.011	-68.788	-67.649	-63.476	66.910	-64.987	-8191	255	
2178.565	1	1	0	0	0.18228	0.24414	0.17719	0.24059	0.090753	0.18256	0.26397	0.31283	0.031795	0.2361	0.08943	0.15249	0.15416	0.1086	0.015246	0.23696	-3.3458	-3.2438	-3.375	-3.625	-3.1104	-3.5542	-3.5062	-3.2021	-3.7292	-3.1604	-3.5417	-3.8292	-3.3167	-3.7917	-3.4479	-3.3458	38.099	144.194	86.051	232.374	-13.173	107.612	97.281	-71.144	196.055	112.436	-25.629	216.660	160.245	-64.325	132.054	-22.303	0.00042994	0.00043587	0.00020022	1047.4	4.8764e-06	3.9151e-06	1230.5	349.95	2.4316e-06	8.7134e-06	505.21	190.09	117.7	47.601	4.9697e-06	84.7	0.00024795	0.00027975	7.6467e-05	946.85	2.634e-06	2.9486e-06	1114.7	317.04	2.5524e-06	3.0284e-06	456.17	171.5	106.83	43.228	2.8338e-06	76.173	145.851	51.433	-27.282	-76.283	62.196	101.834	-76.489	-71.196	71.204	71.451	-72.042	-68.811	-67.857	-63.137	53.176	-64.752	-8191	255	
2178.661	1	1	0	0	0.25287	0.35669	0.14522	0.23963	0.36097	0.062146	0.21192	0.19381	0.052712	0.12736	0.050145	0.14017	0.19098	0.22222	0.10259	0.35169	-3.2979	-3.2771	-3.2604	-3.5521	-3.025	-3.6875	-3.5583	-3.0854	-3.6542	-3.2083	-3.5271	-3.625	-3.4771	-3.7313	-3.4042	-3.2771	-79.678	64.077	-16.192	223.273	21.973	213.236	180.583	137.891	46.311	-33.656	-67.464	183.388	127.551	261.244	221.734	201.522	0.00040374	0.00042599	0.00020629	1032.5	5.827e-06	3.5434e-06	1209.9	340.33	1.871e-06	5.0107e-06	493.44	184.06	113.08	46.099	5.539e-06	82.534	0.00024685	0.00027668	7.0925e-05	935.66	2.65e-06	2.9727e-06	1099.8	307.71	2.6139e-06	2.9829e-06	442.97	166.82	102.75	42.032	2.5433e-06	74.582	157.123	-26.912	17.960	-76.400	60.897	99.175	-76.536	-71.127	14.967	116.899	-71.863	-68.681	-67.796	-63.457	44.810	-65.141	-8191	255	
2178.782	1	1	0	0	0.13617	0.23224	0.063071	0.20309	0.15825	0.20611	0.2699	0.17867	0.20747	0.21661	0.080856	0.040669	0.19293	0.16485	0.3235	0.023232	-3.1125	-3.2938	-3.3167	-3.7562	-3.3063	-3.575	-3.5958	-3.4375	-3.5917	-3.3771	-3.4333	-3.7021	-3.3646	-3.5667	-3.5729	-3.3021	-30.325	142.721	233.558	268.659	213.182	147.054	229.992	205.649	68.552	75.543	96.076	134.428	-13.755	162.794	84.067	-22.333	0.00041885	0.00051434	0.00019828	1015.1	6.3037e-06	4.0634e-06	1187.1	326.69	4.1934e-06	5.9514e-06	477.36	177.66	107.7	44.718	8.4991e-07	80.794	0.00025313	0.00025589	6.4158e-05	917.17	2.6453e-06	2.7409e-06	1078	295.74	2.6647e-06	2.6765e-06	427.2	160.81	98.319	40.635	2.2801e-06	73.064	143.287	-6.873	-33.102	-76.432	44.728	26.478	-76.590	-71.387	-50.568	27.110	-71.980	-68.668	-67.653	-63.098	76.631	-65.003	-8191	255	
2178.876	1	1	0	0	0.053213	0.11204	0.28078	0.27927	0.12551	0.10663	0.087843	0.12154	0.21696	0.19205	0.12016	0.03156	0.30014	0.13209	0.23156	0.13458	-3.0833	-3.1542	-3.2104	-3.8854	-3.2917	-3.3167	-3.7208	-3.2854	-3.7	-3.6312	-3.4396	-3.9708	-3.4979	-3.525	-3.6396	-3.3271	6.620	206.911	-65.671	-85.401	229.337	107.366	170.744	167.097	166.390	50.839	227.534	229.835	-82.973	-65.982	267.800	225.833	0.00040869	0.00030465	6.4867e-05	992.44	2.2554e-06	6.2003e-06	1168.5	321.81	6.1086e-06	5.6367e-06	467.23	176.54	107.16	44.625	3.2908e-06	80.538	0.00025827	0.00022868	5.9959e-05	897.16	2.6482e-06	2.5373e-06	1057.8	290.25	2.6789e-06	2.4246e-06	421.03	160.01	97.561	40.542	2.2496e-06	72.892	149.131	12.984	-37.343	-76.705	55.597	38.513	-76.876	-71.600	40.431	96.215	-72.029	-68.819	-68.097	-63.500	37.965	-64.798	-8191	255	
2178.974	1	1	0	0	0.2712	0.11738	0.0738	0.050743	0.21318	0.1433	0.18142	0.24167	0.2319	0.19243	0.042815	0.24917	0.24651	0.11759	0.12731	0.070957	-3.1583	-3.3958	-3.1063	-3.7208	-3.3083	-3.4437	-3.5812	-3.2812	-3.5292	-3.4813	-3.2771	-3.7479	-3.4896	-3.3479	-3.7	-3.3438	132.119	-85.647	-80.747	153.747	-53.343	231.703	210.173	170.011	164.255	115.696	179.123	175.148	253.068	268.030	-78.961	151.443	0.00029579	0.00054432	0.00013663	977.51	4.2319e-06	3.485e-06	1155.5	315.82	5.826e-06	4.8099e-06	463.03	174.63	105.41	43.901	9.6429e-07	80.607	0.00026025	0.00021563	5.6647e-05	886.35	2.6171e-06	2.3175e-06	1047.2	284.89	2.5819e-06	2.2656e-06	415.78	158.07	95.852	39.942	2.1544e-06	72.55	146.722	33.555	-35.301	-76.477	79.629	3.825	-76.586	-71.673	45.931	64.687	-72.162	-68.590	-67.687	-63.210	-35.613	-64.794	-8191	255	
2179.070	1	1	0	0	0.12414	0.14687	0.20406	0.31316	0.19321	0.075189	0.09236	0.26222	0.2717	0.091314	0.20566	0.17849	0.13527	0.093805	0.045219	0.29901	-2.8937	-3.6	-3.1229	-3.7104	-3.3417	-3.15	-3.7062	-3.2271	-3.4646	-3.4375	-3.3937	-3.4813	-3.4229	-3.4354	-3.5438	-3.4313	82.541	64.197	20.080	242.451	74.409	18.984	229.258	-46.991	23.640	155.967	244.175	-18.801	260.381	-63.984	-8.901	160.434	0.00033832	0.00030142	0.00016078	968.35	3.6198e-06	6.9133e-06	1145.2	304.79	3.3714e-06	4.348e-06	446.2	166.95	99.133	42.402	3.5461e-06	78.559	0.00024356	0.00020454	5.3866e-05	876.05	2.4236e-06	2.1775e-06	1036.9	275.75	2.3501e-06	2.1024e-06	400.26	151.65	89.942	38.408	2.0561e-06	70.902	165.802	-72.205	-45.379	-76.604	129.559	93.973	-76.706	-71.411	26.438	37.721	-72.193	-68.625	-67.639	-63.555	65.497	-64.774	-8191	255	
2179.165	1	1	0	0	0.12514	0.1796	0.19997	0.10264	0.13278	0.073318	0.19527	0.082994	0.037758	0.052345	0.26763	0.16333	0.051618	0.17529	0.077435	0.20097	-2.775	-3.5458	-3.1813	-3.6292	-3.3812	-3.3125	-3.7458	-3.5521	-3.35	-3.7687	-3.4042	-3.6271	-3.6312	-3.2042	-3.4188	-3.5625	-84.556	185.438	199.058	-52.826	32.396	115.551	199.841	-14.557	-16.302	-14.491	251.691	189.119	177.572	-26.288	-83.966	206.127	0.00036873	0.00079956	0.00019424	954.35	4.9526e-06	4.9828e-06	1125.6	293.38	2.1766e-06	8.6612e-06	433.07	163.24	96.902	42.971	9.5009e-07	80.298	0.00022085	0.00018262	5.4197e-05	862.97	2.2371e-06	2.0332e-06	1020.7	264.52	2.1756e-06	1.9537e-06	389.77	148.13	87.878	38.839	2.1774e-06	72.486	149.932	-12.802	42.611	-76.496	31.098	43.545	-76.792	-71.388	27.742	44.814	-71.824	-68.279	-67.432	-63.309	-65.567	-64.868	-8191	255	
2179.261	1	1	0	0	0.077563	0.1703	0.085083	0.15422	0.10277	0.18592	0.19495	0.25094	0.097025	0.17887	0.16364	0.073713	0.20609	0.1498	0.18925	0.10734	-2.8625	-3.7313	-3.375	-3.5708	-3.6937	-3.1792	-3.6063	-3.5646	-3.3083	-3.5708	-3.3208	-3.3937	-3.3438	-3.1458	-3.6021	-3.6167	242.892	138.035	-85.061	216.393	202.982	242.882	193.748	198.728	-47.934	226.378	238.881	-12.125	115.345	176.385	184.362	252.504	0.00035109	0.00056602	0.00020479	950.72	6.5101e-06	5.0811e-06	1124.4	294.57	4.6826e-06	2.6948e-06	436.63	168.72	99.213	45.145	1.4187e-06	83.793	0.00021632	0.00017638	5.75e-05	861.1	2.0544e-06	1.9472e-06	1020.5	265.61	2.0989e-06	1.843e-06	393.49	152.55	90.289	40.71	2.2482e-06	75.355	147.648	-5.116	-18.864	-76.505	37.267	42.846	-76.657	-71.180	34.418	97.950	-72.041	-68.207	-67.524	-63.426	86.911	-64.747	-8191	255	
2179.381	1	1	0	0	0.050431	0.15973	0.13637	0.21425	0.2047	0.44865	0.2334	0.19457	0.061552	0.072186	0.18776	0.22386	0.0033283	0.17302	0.20885	0.45162	-2.9792	-3.5042	-3.0542	-3.4604	-3.5458	-3.2333	-3.6437	-3.6208	-3.2771	-3.5438	-3.4813	-3.5042	-3.5563	-3.4021	-3.4188	-3.6646	-48.043	93.267	109.308	258.639	206.307	197.713	207.471	216.678	230.001	74.895	131.699	269.296	69.677	223.945	120.778	183.924	0.00042379	0.00050933	0.00018049	949.64	4.5429e-06	2.8243e-06	1121.2	291.68	2.4471e-06	7.2917e-06	431.05	163.88	96.457	43.795	2.851e-06	81.706	0.00020312	0.0001729	5.9416e-05	859.17	1.9785e-06	2.0834e-06	1020.1	264.18	2.1988e-06	2.1793e-06	388.5	149.25	87.606	39.683	2.7998e-06	73.806	159.121	-2.924	-21.250	-76.741	58.530	105.346	-76.668	-71.478	55.968	77.625	-72.045	-67.725	-67.209	-63.020	26.767	-64.440	-8191	255	
2179.478	1	1	0	0	0.1546	0.13643	0.093647	0.24446	0.31607	0.17126	0.20425	0.17288	0.22485	0.020352	0.18023	0.21068	0.12783	0.26237	0.089078	0.27553	-2.7396	-3.5938	-3.3187	-3.2896	-3.6958	-3.2125	-3.7812	-3.7521	-3.3729	-3.5417	-3.5729	-3.6208	-3.6271	-3.4833	-3.6063	-3.7062	14.232	-30.904	-35.537	226.690	27.878	20.096	147.081	101.441	149.291	141.234	208.624	-30.659	187.023	139.079	-59.253	148.625	0.00032813	0.00076737	0.00020262	944.49	4.6494e-06	6.8924e-06	1127.2	286.17	2.5356e-06	7.2393e-06	424.98	163.28	94.745	43.533	5.5127e-06	81.89	0.00023986	0.00023789	7.3966e-05	857.73	2.3982e-06	2.7754e-06	1023.1	259.63	2.6241e-06	2.944e-06	385.12	148.03	86.915	39.821	3.3005e-06	74.415	146.713	-1.144	-17.892	-76.762	53.803	75.371	-76.336	-71.189	9.246	100.134	-71.940	-67.775	-67.471	-62.773	88.578	-64.436	-8191	255	
2179.549	1	1	0	0	0.20321	0.097158	0.055356	0.016102	0.092223	0.026178	0.31404	0.037142	0.1525	0.13289	0.1386	0.10459	0.17543	0.037658	0.26493	0.21735	-2.825	-3.5312	-3.4688	-3.5417	-3.7958	-3.4688	-3.7938	-3.7146	-3.1208	-3.55	-3.5583	-3.2021	-3.6396	-3.3542	-3.35	-3.8333	146.404	115.820	97.312	191.489	86.219	151.761	64.431	15.674	86.249	85.772	117.845	222.420	145.219	-21.707	55.645	204.138	0.00044288	0.00032857	0.00019725	949.94	6.8294e-06	5.8842e-06	1124.3	283.43	4.5512e-06	4.4705e-06	416.9	157.18	91.564	41.752	6.5328e-06	79.279	0.00028547	0.00031209	8.6567e-05	862.52	3.0103e-06	3.6724e-06	1026.9	258.56	3.5018e-06	4.2214e-06	380.55	144.12	84.497	38.575	4.5908e-06	72.122	154.760	44.126	60.893	-76.532	-5.884	48.517	-76.651	-71.179	-25.898	25.793	-71.572	-67.689	-66.708	-62.405	114.014	-64.157	-8191	255	
2179.645	1	1	0	0	0.3059	0.18008	0.011459	0.094515	0.065249	0.10032	0.098645	0.11836	0.15616	0.1295	0.2177	0.051212	0.084174	0.092542	0.20704	0.29842	-2.9646	-3.5563	-3.6146	-3.3208	-3.8542	-3.4833	-3.6417	-4.0292	-3.2458	-3.5979	-3.7188	-3.4938	-3.75	-3.425	-3.5042	-3.7542	184.637	95.648	121.302	4.061	14.288	-86.886	187.714	9.546	47.230	-6.771	42.473	124.620	97.741	176.999	39.776	236.108	0.00041143	0.00088747	0.00010497	955.87	2.4801e-06	5.666e-06	1129.4	273.99	1.7388e-06	6.1274e-06	402.51	149.01	86.199	39.059	3.5171e-06	75.111	0.00042151	0.00048366	0.00012488	872.9	4.6813e-06	5.5301e-06	1037.6	252.6	5.1207e-06	5.6883e-06	370.85	138	80.874	36.317	5.4362e-06	68.844	142.357	-2.645	73.804	-76.276	41.227	-5.666	-76.700	-71.322	81.758	19.861	-71.598	-67.568	-67.010	-61.839	58.472	-63.742	-8191	255	
2179.766	1	1	0	0	0.085489	0.3018	0.23236	0.38528	0.20119	0.072549	0.37131	0.11625	0.26251	0.19765	0.19303	0.10202	0.12916	0.20657	0.031362	0.13645	-2.8208	-3.5104	-3.4958	-3.3354	-3.4333	-3.3563	-3.3667	-3.6312	-3.3333	-3.4646	-3.6937	-3.2208	-3.6375	-3.6	-3.0875	-3.7333	-50.656	11.772	-39.354	225.552	267.142	14.520	222.851	227.006	0.220	110.406	267.469	-16.321	203.524	22.514	217.147	194.790	0.0004714	0.00051971	0.00012606	951.37	9.3305e-07	7.7206e-06	1136.6	267.56	8.8638e-06	8.2224e-06	395.1	145.59	83.575	37.536	2.5425e-06	73.902	0.00052458	0.00054553	0.00013529	872.57	5.6573e-06	5.9722e-06	1040.7	247.81	6.0556e-06	6.1463e-06	363.75	134.33	79.003	35.225	5.571e-06	67.983	145.930	-15.859	-65.464	-76.418	122.530	40.914	-76.433	-71.088	76.710	21.538	-71.414	-67.449	-66.509	-62.066	132.430	-63.799	-8191	255	
2179.862	1	1	0	0	0.15197	0.20207	0.17173	0.20707	0.048021	0.22331	0.25842	0.16511	0.10841	0.36308	0.17962	0.12766	0.18918	0.10718	0.17578	0.23421	-2.9146	-3.3479	-3.3667	-3.2271	-3.6375	-3.3271	-3.3021	-3.6646	-3.2625	-3.4354	-3.5896	-3.3021	-3.7042	-3.5854	-3.2521	-3.8688	147.382	18.812	-82.064	195.058	215.672	117.076	216.463	229.620	240.826	195.504	221.823	131.188	81.534	265.061	-0.920	194.302	0.00028487	0.00066212	0.00018417	940.27	5.3097e-06	7.6138e-06	1121.8	264.83	8.8578e-06	8.9094e-06	389.14	142.23	81.019	36.572	2.1684e-06	72.179	0.00057774	0.00054694	0.0001373	868.35	6.0545e-06	5.6263e-06	1029	244.81	5.9236e-06	5.3991e-06	357.39	131.24	76.664	33.997	4.8933e-06	66.237	158.013	-22.446	-71.974	-76.894	113.918	14.396	-76.362	-71.367	41.880	49.556	-71.318	-67.213	-66.392	-61.868	-71.256	-63.818	-8191	255	
2179.957	1	1	0	0	0.27954	0.16386	0.26534	0.12572	0.085311	0.12658	0.27905	0.19964	0.14119	0.044178	0.048926	0.07356	0.15264	0.125	0.20211	0.15542	-2.9313	-3.3146	-3.5896	-3.4104	-3.5312	-3.6104	-3.3312	-3.6688	-3.3604	-3.3854	-3.9313	-3.4125	-3.575	-3.5958	-3.1312	-3.6292	123.085	122.049	50.001	212.778	-4.860	73.780	175.747	147.216	15.340	153.605	163.203	234.927	117.003	12.106	39.015	185.188	0.00041399	6.3127e-05	0.00019963	938.49	5.1805e-06	4.2175e-06	1118.9	259.57	4.6889e-06	4.0172e-06	381.62	137.28	79.01	34.976	3.0913e-06	69.832	0.0005374	0.00049543	0.00012736	863.88	6.1921e-06	5.6498e-06	1023.8	241.75	6.3478e-06	5.8704e-06	349.47	127.75	74.69	32.65	5.2606e-06	64.246	145.178	147.110	79.211	-76.681	45.243	-24.656	-76.538	-71.247	32.024	58.059	-71.912	-67.562	-66.140	-61.589	178.658	-63.635	-8191	255	
2180.054	1	1	0	0	0.22663	0.083113	0.20643	0.15223	0.35042	0.096148	0.069089	0.14234	0.16116	0.23693	0.17265	0.12423	0.25493	0.0606	0.25157	0.30262	-3.1229	-3.2271	-3.3917	-3.5729	-3.4333	-3.8292	-3.2687	-3.8542	-3.3604	-3.3167	-3.8625	-3.4833	-3.4521	-3.7396	-3.2521	-3.7021	227.070	237.804	238.621	-51.116	159.768	66.835	242.163	125.072	-31.332	85.710	93.941	-56.324	253.004	237.019	258.490	229.117	0.00041903	0.00051303	8.9149e-05	933.05	1.5673e-06	5.5881e-06	1111.9	255.96	2.9233e-06	7.9399e-06	377.64	134.31	77.033	34.175	1.7074e-06	68.57	0.00053456	0.0004902	0.00012826	861.46	5.7921e-06	5.3551e-06	1019.8	239.25	5.9234e-06	5.5617e-06	346.98	125.71	73.091	31.869	5.574e-06	63.241	149.293	3.915	135.794	-76.492	40.152	90.611	-76.341	-70.913	228.606	-17.253	-71.400	-67.252	-66.288	-61.967	181.387	-63.437	-8191	255	
2180.149	1	1	0	0	0.31895	0.27055	0.18267	0.023715	0.29022	0.19886	0.081483	0.39157	0.081689	0.099045	0.14526	0.071916	0.30363	0.137	0.1787	0.25531	-3.175	-3.225	-3.5167	-3.5979	-3.4646	-3.4896	-3.4292	-3.6562	-3.6146	-3.1708	-3.7125	-3.3833	-3.2729	-3.5396	-3.1896	-3.5875	209.942	262.135	191.775	231.806	-27.411	75.469	-71.638	-84.005	235.767	175.110	230.025	100.162	128.258	25.476	29.363	259.959	0.00021983	0.00043566	5.4514e-05	922.81	4.0621e-06	4.1525e-06	1107.4	251.41	6.3111e-06	1.0814e-05	372.38	132.36	74.963	33.006	4.6093e-06	66.674	0.00051637	0.0004883	0.00013761	857.44	5.6356e-06	5.2027e-06	1020.2	236.91	5.6928e-06	5.3214e-06	344.14	123.61	71.052	30.596	5.8105e-06	61.562	150.207	-69.226	-20.300	-76.438	92.137	-10.015	-76.609	-70.791	49.070	86.566	-71.371	-67.253	-66.586	-61.781	-9.470	-63.557	-8191	255	
2180.245	1	1	0	0	0.025482	0.23836	0.13161	0.039553	0.27063	0.088354	0.14998	0.26332	0.030815	0.1409	0.11368	0.14068	0.22936	0.089318	0.18194	0.085193	-3.4688	-3.1646	-3.7042	-3.6729	-3.2125	-3.8083	-3.5146	-3.6896	-3.6229	-3.2458	-3.7812	-3.4979	-3.3646	-3.85	-3.3375	-3.7646	124.172	-23.938	87.951	259.612	-51.148	240.989	231.421	206.946	125.722	76.821	-14.014	160.193	160.402	17.500	37.963	-54.477	0.00032284	0.00045135	3.8823e-05	925.17	7.8001e-06	4.819e-06	1103.7	250.98	2.2042e-06	1.9996e-06	371.78	132.82	75.52	33.195	1.367e-06	67.683	0.00048806	0.00045656	0.00014088	853.49	5.0831e-06	4.6744e-06	1016	233.64	4.7972e-06	4.6279e-06	342.11	122.77	70.801	30.735	5.4922e-06	61.949	170.190	6.228	142.019	-76.616	126.527	258.288	-76.383	-71.077	179.191	124.707	-71.361	-66.976	-66.652	-61.768	70.041	-63.403	-8191	255	
2180.341	1	1	0	0	0.20552	0.074758	0.16917	0.33359	0.16267	0.25657	0.30872	0.21256	0.13828	0.12102	0.37248	0.12041	0.15349	0.22303	0.069631	0.22229	-3.2875	-3.2604	-3.6063	-3.7667	-3.2812	-3.7729	-3.5521	-3.7479	-3.6063	-3.4167	-3.6646	-3.5708	-3.1979	-3.7625	-3.2583	-3.5062	127.431	2.226	-34.721	248.933	54.762	-42.634	194.679	214.116	62.746	147.536	-55.851	155.712	112.498	254.723	194.030	252.132	0.00025799	0.0002448	0.00027447	920.74	3.0637e-06	2.5181e-06	1098.8	252.69	5.9571e-06	9.4874e-07	373.17	132.96	76.347	33.509	5.6733e-06	68.2	0.00042853	0.00043484	0.00013916	845.28	4.6802e-06	4.5783e-06	1010.6	234.01	4.4312e-06	4.6614e-06	342.75	123.09	71.438	31.221	5.2036e-06	62.345	139.597	-3.641	0.012	-76.614	193.678	54.235	-76.664	-71.553	99.305	-32.031	-71.836	-67.199	-66.415	-61.411	-14.182	-63.187	-8191	255	
2180.462	1	1	0	0	0.06753	0.35816	0.16156	0.080979	0.2004	0.24319	0.28841	0.076551	0.22064	0.22921	0.12648	0.10795	0.12234	0.083781	0.25294	0.14092	-3.2708	-3.3021	-3.5542	-3.6271	-3.4792	-3.6375	-3.6542	-3.5062	-3.6625	-3.5396	-3.65	-3.5958	-3.1625	-3.6437	-3.5229	-3.3521	179.170	70.276	56.544	106.015	-84.336	249.369	217.058	-31.081	-35.399	-18.525	68.025	-75.681	263.696	-59.737	-30.557	-70.363	0.00023615	0.00045338	5.8511e-05	914.35	6.2843e-06	8.3002e-06	1094.8	253.13	2.643e-06	6.3473e-06	374.94	133.1	76.368	33.377	5.6953e-06	67.223	0.0003921	0.00043873	0.00013191	839.73	4.3197e-06	4.7221e-06	1005.6	234.33	4.1472e-06	4.9386e-06	344.14	123.63	71.393	31.066	5.0598e-06	61.658	140.000	230.209	248.404	-76.554	56.477	107.355	-76.705	-70.770	-81.413	84.579	-71.447	-67.292	-66.764	-61.541	119.836	-63.306	-8191	255	
2180.558	1	1	0	0	0.20932	0.1814	0.10232	0.15134	0.13247	0.08701	0.083205	0.12947	0.21269	0.15071	0.12731	0.34575	0.13597	0.2659	0.10773	0.10716	-3.225	-3.1729	-3.3396	-3.7458	-3.0875	-3.6542	-3.6271	-3.2479	-3.6625	-3.3104	-3.2812	-3.775	-3.1625	-3.5854	-3.4604	-3.4667	200.178	22.268	230.714	-58.150	138.505	3.634	110.400	214.037	-0.950	229.141	258.214	191.936	132.169	-57.848	-15.697	213.300	0.00038092	0.00047877	0.00023677	917.59	3.8896e-06	3.7164e-06	1101.1	252.47	5.3738e-06	3.417e-06	373.89	133.92	76.653	33.264	5.5763e-06	67.02	0.00040351	0.0004888	0.0001317	841.61	4.6041e-06	5.4242e-06	1007.3	233.47	4.5544e-06	5.2956e-06	342.77	123.26	71.512	31.013	4.8633e-06	61.497	114.473	46.132	-12.636	-76.744	-22.201	-42.112	-76.560	-71.011	73.524	156.936	-71.365	-67.282	-66.404	-61.688	-6.566	-63.608	-8191	255	
2180.654	1	1	0	0	0.10595	0.28519	0.30586	0.15744	0.13937	0.17594	0.12321	0.10129	0.23936	0.055912	0.15212	0.080108	0.22547	0.11661	0.082779	0.17716	-3.3771	-3.4	-3.3312	-3.7396	-3.3125	-3.7979	-3.7438	-3.2354	-3.7125	-3.5687	-3.3812	-3.6708	-3.3958	-3.6979	-3.6021	-3.2083	-39.568	32.005	-83.102	224.185	-21.787	159.411	174.415	165.458	184.027	245.277	-69.385	146.644	252.928	-63.939	38.079	182.503	0.0003106	8.8983e-05	7.6083e-05	907.57	1.4203e-06	2.5453e-06	1083.3	250.89	6.968e-06	9.6215e-06	368.77	132.39	75.31	32.362	1.6488e-06	66.255	0.00042901	0.00050544	0.00012929	832.71	4.9785e-06	5.6053e-06	995.74	231.86	5.1151e-06	5.685e-06	339.49	122.25	71.399	30.623	5.0297e-06	60.503	147.450	225.774	144.472	-76.578	-62.888	25.685	-76.518	-71.036	119.284	4.534	-71.247	-67.123	-66.435	-61.393	103.895	-63.326	-8191	255	
2180.775	1	1	0	0	0.28025	0.081864	0.21343	0.4115	0.24267	0.022591	0.030577	0.24279	0.089339	0.009698	0.20778	0.17121	0.19212	0.12851	0.32074	0.13844	-3.2792	-3.375	-3.2812	-3.8354	-3.1521	-3.4875	-3.6688	-3.1417	-3.6	-3.3063	-3.2417	-3.7979	-3.3896	-3.5312	-3.6979	-3.3417	132.809	7.409	180.214	-67.116	223.252	245.755	-39.591	234.915	100.760	158.334	207.409	212.408	59.633	234.834	-81.620	90.538	0.00031281	0.00070249	6.6315e-05	896.74	3.117e-06	8.4262e-06	1078.7	249.72	1.6998e-06	5.1512e-06	365.35	130.52	74.482	32.289	7.8684e-06	64.685	0.00048449	0.0005098	0.00013045	826.12	5.6001e-06	5.6459e-06	988.85	230.73	5.6785e-06	5.6555e-06	335.62	120.59	70.92	30.288	5.0284e-06	59.638	139.465	46.383	55.311	-76.340	39.051	20.762	-76.629	-71.194	45.298	179.045	-72.040	-67.316	-66.353	-61.580	92.252	-63.680	-8191	255	
2180.846	1	1	0	0	0.2124	0.12148	0.084019	0.11184	0.15523	0.41155	0.16872	0.13664	0.1168	0.029477	0.19175	0.25269	0.2471	0.1372	0.054022	0.27429	-3.1396	-3.4458	-3.2313	-3.5354	-3.2667	-3.3708	-3.8083	-3.2583	-3.5646	-3.3917	-3.1667	-3.4667	-3.4625	-3.3542	-3.5083	-3.4188	263.058	-36.544	-5.032	240.258	-49.499	30.301	227.048	157.334	47.294	175.602	151.850	239.578	-69.037	229.011	249.990	38.498	0.00027345	0.00013508	0.00011916	895.99	4.8723e-06	5.0237e-06	1075.3	248.33	1.0404e-05	9.3358e-06	364.01	129.48	74.365	32.133	3.4189e-06	64.279	0.00052194	0.00049589	0.00012946	825.86	5.8726e-06	5.4335e-06	988.01	230.47	5.9897e-06	5.442e-06	335.27	120.23	70.726	29.971	4.9943e-06	59.406	136.726	210.659	-11.248	-76.841	52.843	64.057	-76.380	-70.888	2.467	73.564	-71.715	-67.460	-66.921	-61.743	133.994	-63.650	-8191	255	
2180.943	1	1	0	0	0.10351	0.24768	0.16486	0.34911	0.1059	0.053148	0.21306	0.16512	0.019803	0.028879	0.05667	0.11164	0.20779	0.20159	0.12217	0.28589	-3.3854	-3.5208	-3.1813	-3.6958	-3.4188	-3.1896	-3.6292	-3.2562	-3.4083	-3.55	-3.2125	-3.7271	-3.3146	-3.3187	-3.5125	-3.4021	269.230	52.399	-27.286	254.656	140.328	0.340	135.455	62.529	71.620	179.445	200.796	79.026	-10.155	268.091	-51.713	166.668	0.0003121	0.00052707	0.00031598	895.18	5.5993e-06	5.3311e-06	1073.9	248.16	3.3488e-06	2.5511e-06	365.13	129.76	73.899	31.876	1.3791e-06	64.136	0.00053943	0.00047891	0.0001276	826.62	5.8366e-06	5.1888e-06	985.14	230.56	5.7306e-06	5.1728e-06	334.33	120.29	70.261	29.79	4.6813e-06	59.219	122.026	-37.819	14.604	-76.706	76.653	153.790	-76.593	-71.504	-29.919	152.897	-71.464	-67.447	-66.411	-61.390	93.919	-63.367	-8191	255	
2181.061	1	1	0	0	0.10923	0.041887	0.092464	0.24374	0.094047	0.157	0.060804	0.096604	0.089683	0.20118	0.16517	0.27463	0.039176	0.18598	0.13386	0.25083	-2.8688	-3.5521	-3.1604	-3.5333	-3.4437	-3.2646	-3.75	-3.2625	-3.2417	-3.4896	-3.1292	-3.5417	-3.325	-3.3104	-3.6875	-3.5979	249.133	222.754	3.500	227.411	244.232	-64.076	260.475	212.474	172.864	259.947	221.963	227.539	259.360	216.864	-82.820	236.625	0.0002304	0.00056032	0.00021612	890.94	6.1691e-06	2.1717e-06	1062.9	247.44	7.8135e-06	6.1818e-06	360.18	127.68	73.537	31.369	1.7202e-06	63.339	0.00050351	0.00044578	0.0001218	822.5	5.1784e-06	4.8468e-06	976.98	229.45	5.1932e-06	4.6408e-06	330.5	118.49	69.242	29.236	4.5806e-06	58.228	139.203	33.633	50.234	-76.403	99.166	245.863	-76.617	-71.369	39.991	77.919	-71.994	-67.445	-66.851	-61.633	52.141	-63.514	-8191	255	
2181.158	1	1	0	0	0.062172	0.095668	0.4055	0.035185	0.28982	0.15579	0.39478	0.16425	0.29965	0.25079	0.14351	0.17101	0.054869	0.20011	0.10086	0.044984	-3.0167	-3.6979	-3.3312	-3.8417	-3.7125	-3.2854	-3.5896	-3.2188	-3.3063	-3.8187	-3.2854	-3.575	-3.6271	-3.4042	-3.5125	-3.6	122.857	-9.431	-55.854	205.905	130.675	59.012	210.826	168.263	133.062	265.120	203.019	-76.222	205.924	207.740	260.981	100.912	0.00031873	0.00025786	0.00017784	884.65	7.0559e-06	2.4956e-06	1066.4	244.77	8.5193e-07	8.6901e-06	358.6	127.5	73.177	31.378	4.7003e-06	63.321	0.00045513	0.00041251	0.00012322	818.66	4.9241e-06	4.5282e-06	974.96	227.45	4.83e-06	4.286e-06	329.08	118.03	68.512	29.126	4.5893e-06	58.151	139.136	-31.144	-81.298	-76.469	37.046	83.346	-76.654	-71.225	-42.566	55.197	-71.723	-67.211	-66.668	-61.739	131.069	-63.795	-8191	255	
2181.254	1	1	0	0	0.30167	0.087973	0.067057	0.18037	0.11645	0.19917	0.24117	0.17737	0.088553	0.37422	0.10294	0.18021	0.098478	0.21627	0.17891	0.22283	-2.9062	-3.6708	-3.1813	-3.5146	-3.6	-3.3542	-3.875	-3.2562	-3.2104	-3.6083	-3.1562	-3.3521	-3.6417	-3.1396	-3.5229	-3.4125	187.533	-82.735	268.884	-73.717	42.429	41.228	257.607	180.688	205.966	59.834	162.586	264.371	-45.689	258.491	165.458	149.944	0.00028857	0.00077224	0.00019696	889.74	5.595e-06	2.0009e-06	1061	244.58	6.6144e-06	7.5936e-07	361.15	129.58	75.049	32.601	2.0327e-06	65.511	0.00039028	0.00035197	0.00011435	811.91	3.9712e-06	3.7831e-06	970.18	226.01	3.8418e-06	3.615e-06	330.45	119.31	69.341	29.971	3.9479e-06	59.64	147.500	-23.232	-12.330	-76.688	22.219	167.861	-76.459	-71.013	29.751	31.702	-71.693	-67.370	-66.703	-61.749	127.707	-64.072	-8191	255	
2181.350	1	1	0	0	0.25396	0.29379	0.087678	0.22712	0.17552	0.11421	0.25526	0.12438	0.17306	0.20635	0.16656	0.066607	0.19604	0.22564	0.19396	0.10982	-2.7875	-3.2687	-3.2771	-3.3521	-3.6396	-3.0833	-3.6208	-3.4625	-3.2708	-3.7104	-3.4521	-3.2979	-3.6604	-3.2229	-3.5146	-3.5958	9.815	126.008	198.942	-35.814	202.825	243.253	207.697	139.377	185.196	-26.156	246.460	160.684	-4.952	243.094	-33.796	132.180	0.00029475	0.00034313	0.0001585	879.1	2.5554e-06	3.9907e-06	1058.3	247.69	4.627e-06	3.3897e-06	368.03	134.89	78.318	34.08	5.9064e-06	67.519	0.00031304	0.0002924	9.5817e-05	798.68	3.0869e-06	3.1038e-06	967.61	226.23	2.9013e-06	2.9149e-06	333.72	122.89	71.499	31.175	2.9917e-06	61.362	170.656	-27.654	69.266	-76.600	13.807	240.840	-76.860	-71.440	21.558	152.525	-71.500	-67.514	-66.342	-62.274	90.523	-63.881	-8191	255	
2181.446	1	1	0	0	0.031841	0.14245	0.089572	0.079221	0.07632	0.16836	0.14425	0.23128	0.054266	0.11226	0.13481	0.028692	0.12777	0.15377	0.062395	0.23433	-2.7875	-3.675	-3.2646	-3.4708	-3.6188	-3.1354	-3.5625	-3.5229	-3.0292	-3.5646	-3.45	-3.5479	-3.675	-3.2313	-3.3979	-3.625	16.043	120.241	239.912	242.433	263.714	39.312	257.015	235.607	-57.114	92.697	265.364	71.238	269.145	-52.669	88.917	216.352	0.00032682	0.00039588	0.00022163	874.8	5.1116e-06	2.7098e-06	1048.2	252.39	2.3572e-06	5.0889e-06	376.33	141.62	83.811	36.512	2.8722e-06	71.092	0.00023928	0.000238	7.3548e-05	791.55	2.2957e-06	2.6277e-06	954.72	229.94	2.2868e-06	2.5878e-06	340.48	128.66	76.032	33.226	2.5168e-06	64.091	163.891	15.130	19.466	-76.606	52.262	44.851	-76.779	-70.922	107.570	81.878	-72.050	-67.941	-66.482	-62.509	98.225	-64.462	-8191	255	
2181.542	1	1	0	0	0.22777	0.16555	0.055532	0.24421	0.08411	0.17033	0.065784	0.20124	0.025875	0.10414	0.13345	0.20443	0.1125	0.10664	0.012552	0.13271	-2.6792	-3.6854	-3.5	-3.2646	-3.7687	-3.3229	-3.5938	-3.5229	-3.2313	-3.5312	-3.4083	-3.3125	-3.6458	-3.2458	-3.3771	-3.6354	163.777	268.329	-86.880	238.549	-2.476	62.750	111.937	215.498	-76.855	-84.185	-77.200	219.709	266.139	-17.471	85.285	-66.525	0.00029244	0.00074791	0.00017808	872.76	1.217e-06	3.3605e-06	1062.1	264.46	1.4951e-06	5.3497e-06	397.46	151.93	91.246	39.083	3.209e-06	75.521	0.00021385	0.00022738	6.0251e-05	789.39	2.0392e-06	2.4494e-06	961.22	239.86	2.0528e-06	2.3864e-06	357.85	137.74	82.803	35.692	2.2253e-06	67.965	154.953	-13.625	11.940	-76.359	123.452	27.817	-76.533	-71.185	58.369	4.579	-71.688	-68.047	-67.079	-62.999	52.976	-64.653	-8191	255	
2181.638	1	1	0	0	0.15937	0.13095	0.27774	0.15337	0.28926	0.15274	0.17438	0.24339	0.071777	0.22517	0.19986	0.21849	0.22897	0.2197	0.18318	0.076657	-2.8229	-3.3854	-3.35	-3.1292	-3.7396	-3.3333	-3.3125	-3.6583	-3.2229	-3.3375	-3.4375	-3.4188	-3.7979	-3.3354	-3.3771	-3.8167	61.299	130.756	-45.974	-65.447	26.181	125.935	266.965	139.671	150.141	-72.181	-71.295	222.407	166.344	259.307	257.915	238.370	0.00040789	0.00066875	0.00018505	892.83	4.0444e-06	3.8511e-06	1078.8	286.01	3.7711e-06	5.9708e-06	430.89	163.67	98.83	40.392	5.6933e-06	77.06	0.00021109	0.00021411	5.4195e-05	803.81	2.0832e-06	2.2857e-06	977.67	258.62	2.1731e-06	2.3036e-06	385.77	147.97	89.815	36.808	2.0597e-06	69.382	135.040	-1.618	-0.875	-76.757	43.324	83.656	-76.724	-71.279	-49.342	44.240	-71.907	-68.903	-67.367	-62.812	6.731	-64.758	-8191	255	
2181.734	1	1	0	0	0.23224	0.2964	0.14351	0.075672	0.1707	0.10546	0.2195	0.16079	0.09473	0.069059	0.069788	0.24394	0.067855	0.091868	0.19398	0.078681	-2.8833	-3.5187	-3.4583	-3.3438	-3.6312	-3.5021	-3.3417	-3.6646	-3.075	-3.5062	-3.7729	-3.2729	-3.7146	-3.4979	-3.2521	-3.8708	184.247	204.769	193.911	220.439	257.197	-87.853	201.182	159.527	166.070	234.096	247.852	182.182	180.027	29.764	261.310	224.615	0.00033894	0.00073244	0.00012087	897.04	2.7776e-06	6.1304e-06	1093.9	298.8	7.567e-06	3.2014e-06	439.66	162.74	99.484	39.554	5.569e-06	75.484	0.00022443	0.00020931	5.3368e-05	812.71	2.3097e-06	2.2779e-06	987.02	269.26	2.458e-06	2.3154e-06	394.56	147.31	90.515	35.845	2.1738e-06	68.033	154.097	-0.036	-30.011	-76.878	0.987	79.700	-76.793	-71.384	42.397	54.702	-71.952	-68.280	-68.029	-62.720	25.731	-64.521	-8191	255	
2181.853	1	1	0	0	0.062637	0.10086	0.033588	0.20517	0.16386	0.10308	0.26249	0.095232	0.13352	0.3279	0.17627	0.12754	0.18852	0.093923	0.30836	0.18319	-2.7792	-3.3229	-3.6521	-3.3271	-3.5729	-3.6354	-3.2521	-3.6813	-3.3104	-3.2771	-3.8292	-3.2687	-3.5062	-3.6042	-3.2021	-3.8708	49.039	-81.532	23.100	225.619	159.828	-36.414	191.778	17.900	239.264	-1.154	166.972	208.680	230.623	52.784	8.786	109.143	0.00034478	0.00087716	0.00020166	908.47	3.0812e-06	1.4069e-06	1089.3	300.6	3.8436e-06	9.5229e-06	436.29	158.66	97.272	37.883	2.5183e-06	73.776	0.00024806	0.00021585	5.3753e-05	820.1	2.4922e-06	2.2995e-06	986.93	272.48	2.5045e-06	2.2419e-06	392.34	143.5	88.2	34.468	1.9908e-06	66.238	159.941	21.222	-70.166	-76.362	108.136	23.838	-76.575	-71.380	-4.072	53.616	-72.295	-68.704	-67.753	-62.516	24.140	-64.420	-8191	255	
2181.950	1	1	0	0	0.10156	0.058097	0.2025	0.18107	0.32851	0.13581	0.14749	0.10091	0.15712	0.092703	0.19173	0.14246	0.13101	0.17962	0.060215	0.3318	-3.025	-3.3479	-3.85	-3.3312	-3.4458	-3.7062	-3.2396	-3.5604	-3.3729	-3.4083	-3.7146	-3.3646	-3.3292	-3.6688	-3.2521	-3.7188	-66.770	75.580	249.072	171.825	216.218	119.034	65.486	-13.229	136.730	254.544	195.739	230.047	162.949	208.864	86.190	202.384	0.00036033	0.00037652	0.00014873	911.13	9.3489e-07	2.1589e-06	1096.1	301.2	1.9161e-06	1.9448e-06	432.16	155.55	95.63	37.298	1.1278e-06	72.504	0.00022982	0.00018879	4.7382e-05	822.52	2.2096e-06	1.9621e-06	990.19	271.77	2.1423e-06	1.8554e-06	388.67	140.73	86.166	33.726	1.7003e-06	65.252	138.003	10.625	-7.447	-76.581	171.067	55.084	-76.595	-71.243	-71.513	96.008	-72.252	-68.555	-67.339	-62.540	8.652	-64.022	-8191	255	
2182.046	1	1	0	0	0.13302	0.077209	0.046169	0.1635	0.14649	0.17644	0.33316	0.34021	0.066171	0.21154	0.1422	0.24549	0.024707	0.11762	0.21371	0.18937	-3.175	-3.3292	-3.6937	-3.4542	-3.4521	-3.4688	-3.3833	-3.5833	-3.3438	-3.3542	-3.65	-3.1875	-3.4021	-3.4792	-3.3417	-3.4813	152.738	269.292	-80.234	181.349	200.559	-25.721	174.540	71.900	191.606	210.477	185.601	204.439	15.203	200.209	9.515	207.652	0.00037818	0.00045151	0.00014809	908.01	6.546e-06	5.8517e-06	1090.9	291.06	5.6476e-06	2.642e-06	423.77	151.42	91.701	36.173	2.5104e-06	71.513	0.00019111	0.00016079	4.1496e-05	821.8	1.8386e-06	1.631e-06	984.83	263.7	1.7649e-06	1.6248e-06	380.85	137.03	83.245	32.815	1.6664e-06	64.327	162.900	12.454	7.831	-76.565	52.368	54.202	-76.656	-71.771	0.505	114.364	-71.804	-68.639	-67.544	-62.176	114.240	-64.271	-8191	255	
2182.142	1	1	0	0	0.23635	0.099419	0.14904	0.12279	0.35681	0.088683	0.0627	0.075846	0.13392	0.16124	0.17825	0.061376	0.12996	0.21883	0.41185	0.20753	-3.125	-3.1396	-3.4729	-3.3187	-3.325	-3.5417	-3.3396	-3.6	-3.4542	-2.9229	-3.5146	-3.3458	-3.4688	-3.6167	-3.1208	-3.7521	-82.989	252.352	-71.973	211.650	-65.305	2.041	15.027	107.671	201.843	69.010	99.596	-52.896	-60.930	254.356	181.144	214.505	0.00033485	0.00038695	0.00019478	909.36	2.5416e-06	4.22e-06	1081.7	289.03	4.316e-06	7.9222e-07	419.3	150.33	89.912	35.602	1.0394e-06	70.013	0.00017054	0.00014164	4.1659e-05	820.12	1.6675e-06	1.4875e-06	980.26	261.34	1.6623e-06	1.5584e-06	376.59	134.96	81.519	32.125	1.8003e-06	63.084	157.940	37.338	1.118	-76.564	-15.476	70.513	-76.650	-71.255	4.833	54.035	-72.020	-68.450	-67.498	-62.622	-63.083	-64.208	-8191	255	
2182.238	1	1	0	0	0.14653	0.14444	0.055581	0.24876	0.12891	0.066977	0.13728	0.12174	0.17333	0.15971	0.33386	0.40973	0.14093	0.12531	0.097045	0.034469	-3.2104	-2.9792	-3.5042	-3.5479	-3.1417	-3.5625	-3.4562	-3.4938	-3.4562	-3.3625	-3.6021	-3.5333	-3.1083	-3.6875	-3.2708	-3.4833	22.653	88.984	88.626	-55.387	40.753	174.331	202.690	-71.562	267.978	-75.940	180.679	264.307	108.367	153.475	71.723	219.799	0.0003129	0.00056695	0.0001437	898.62	4.8096e-06	3.3592e-06	1074	285.46	3.1317e-06	3.8711e-06	413.37	148.42	89.782	35.487	4.6982e-06	69.802	0.00016438	0.0001392	4.5359e-05	811.28	1.6434e-06	1.5015e-06	968.13	257.65	1.5653e-06	1.5121e-06	372.02	133.93	80.958	32.044	1.7799e-06	62.836	151.743	-16.278	-23.526	-76.563	40.070	56.036	-76.969	-71.279	65.606	72.168	-72.447	-68.650	-67.900	-62.474	85.656	-64.534	-8191	255	
2182.334	1	1	0	0	0.074161	0.077387	0.039121	0.18758	0.13261	0.18073	0.24299	0.38772	0.13202	0.22882	0.34477	0.1036	0.23646	0.091347	0.058697	0.2166	-3.2167	-3.1292	-3.5333	-3.4437	-3.1792	-3.5667	-3.3417	-3.3458	-3.5979	-3.1354	-3.5042	-3.5625	-3.2854	-3.75	-3.3646	-3.4229	251.014	110.175	123.271	49.562	157.335	69.254	217.453	230.786	31.852	-40.847	264.319	-82.557	-37.196	-64.981	106.396	152.711	0.00032015	0.0007083	0.00014735	892.17	4.4592e-06	2.5663e-06	1067.2	280	5.8678e-06	5.6181e-06	410.81	147.38	88.194	35.004	2.4987e-06	69.412	0.00015629	0.00014102	4.4297e-05	803.85	1.5249e-06	1.4625e-06	961.78	252.45	1.4589e-06	1.5263e-06	367.46	133.01	79.634	31.73	1.6692e-06	62.482	152.352	17.515	-26.260	-76.504	53.482	78.867	-76.884	-71.398	30.958	106.673	-72.134	-68.641	-67.439	-62.558	98.266	-64.205	-8191	255	
2182.455	1	1	0	0	0.20436	0.14736	0.18628	0.18836	0.21597	0.21879	0.17039	0.22048	0.1208	0.28183	0.096588	0.22794	0.071289	0.10292	0.0099825	0.25544	-3.2812	-3.2271	-3.3792	-3.5542	-3.2604	-3.5958	-3.3042	-3.2958	-3.7792	-3.2792	-3.4875	-3.6146	-3.1542	-3.4667	-3.3958	-3.1958	51.813	-41.907	-87.658	239.715	167.326	139.693	174.159	165.057	57.756	-66.260	177.488	253.212	248.962	113.061	96.357	145.039	0.00031891	0.00056246	0.00013434	876.08	4.7853e-06	3.2359e-06	1048.6	271.43	4.1808e-06	6.2923e-06	400.34	144.92	86.013	34.165	3.3919e-06	67.911	0.00014579	0.00014062	4.0928e-05	788.12	1.3838e-06	1.5099e-06	945.53	245.46	1.3287e-06	1.5207e-06	359.03	130.77	77.381	30.866	1.4858e-06	60.894	156.109	-46.365	-5.852	-76.619	32.197	46.772	-76.986	-71.564	-0.452	18.261	-72.161	-68.506	-67.514	-62.567	111.466	-64.231	-8191	255	
2182.551	1	1	0	0	0.17605	0.19214	0.16095	0.18717	0.16436	0.039896	0.16511	0.13781	0.098739	0.27906	0.17129	0.088403	0.20022	0.18254	0.32434	0.37236	-3.3063	-3.25	-3.2521	-3.5208	-3.2729	-3.5271	-3.6667	-3.2542	-3.6917	-3.4042	-3.2083	-3.6375	-3.3979	-3.6583	-3.5604	-3.3667	266.010	248.841	-1.261	-53.130	110.620	-75.718	202.281	222.492	158.472	253.110	168.080	24.231	244.229	139.824	167.438	195.889	0.00029774	0.00045711	0.0001846	855.88	1.9741e-06	5.8211e-06	1029.6	256.89	8.6216e-07	9.7472e-07	375.97	135.95	79.143	31.5	6.732e-07	63.08	0.00013005	0.00013701	3.7555e-05	770.02	1.3061e-06	1.485e-06	927.5	231.69	1.2392e-06	1.487e-06	338.54	122.76	71.435	28.515	1.3125e-06	56.839	157.812	-1.333	-1.203	-76.503	60.092	37.487	-76.529	-70.793	30.505	89.497	-72.218	-68.187	-67.411	-62.193	-52.431	-64.054	-8191	255	
2182.647	1	1	0	0	0.17066	0.14239	0.17193	0.16835	0.14151	0.24061	0.027223	0.30873	0.12999	0.096126	0.20151	0.16968	0.20585	0.23651	0.2112	0.21104	-3.0854	-3.25	-3.2479	-3.6	-3.1688	-3.4125	-3.5292	-3.1813	-3.65	-3.3396	-3.3688	-3.55	-3.2729	-3.4146	-3.525	-3.2333	149.683	256.216	79.834	196.449	-53.432	76.900	113.769	229.059	128.208	85.750	-59.066	55.437	62.473	254.244	175.016	-7.203	0.0003143	0.00063394	0.00014391	849.61	3.6371e-06	3.034e-06	1013.6	242.86	3.5711e-06	6.1053e-06	357.47	129.26	74.969	29.802	1.2935e-06	59.666	0.00013206	0.00013455	3.5071e-05	759.27	1.3637e-06	1.5307e-06	914.61	219.72	1.5107e-06	1.5705e-06	322.34	116.49	67.596	26.91	1.4598e-06	53.679	154.644	-12.165	21.878	-76.880	16.910	34.087	-76.827	-71.579	29.822	51.003	-71.639	-67.869	-67.100	-61.879	107.194	-63.932	-8191	255	
2182.743	1	1	0	0	0.11805	0.073305	0.060051	0.2202	0.32081	0.13707	0.21033	0.19208	0.23461	0.040877	0.10324	0.13328	0.21946	0.42846	0.10576	0.22757	-3.0896	-3.2646	-3.0438	-3.6375	-3.3021	-3.4417	-3.4917	-3.2583	-3.5438	-3.3187	-3.4458	-3.6792	-3.3396	-3.3063	-3.6229	-3.0979	111.898	183.246	128.049	270.425	170.912	176.673	180.862	-80.224	21.227	35.684	-58.626	223.601	-3.443	186.619	-19.179	188.108	0.00025187	0.00045982	0.00018854	845.55	3.8346e-06	3.1739e-07	1017.8	237.8	1.5607e-06	4.144e-06	353.34	125.3	71.979	29.039	7.7225e-07	59.546	0.00016305	0.00014977	3.7937e-05	761.66	1.7188e-06	1.7175e-06	922.1	215	1.8906e-06	1.8384e-06	317.6	113.13	65.627	26.416	1.8521e-06	53.714	142.295	5.825	-38.820	-76.519	102.278	43.166	-76.959	-71.218	6.913	102.110	-71.775	-67.614	-66.674	-61.808	-11.207	-63.735	-8191	255	
2182.839	1	1	0	0	0.16076	0.12951	0.055302	0.27578	0.14853	0.028467	0.23975	0.20158	0.20339	0.13362	0.051317	0.23566	0.31694	0.26381	0.1359	0.25015	-3.225	-3.3917	-3.1458	-3.6688	-3.3646	-3.4104	-3.7958	-3.1458	-3.5917	-3.6625	-3.2792	-3.5917	-3.3937	-3.2458	-3.6292	-3.2687	168.759	80.100	118.412	219.801	-26.312	-73.663	179.886	220.557	73.129	-11.892	-28.237	-62.189	-81.722	269.364	215.439	169.621	0.00031561	0.00067475	7.6266e-05	858.17	4.101e-06	3.301e-06	1030.6	240.01	1.6119e-06	5.7441e-06	352.23	124.87	71.687	29.198	5.1959e-06	59.173	0.00022301	0.00020163	5.3299e-05	777.54	2.6295e-06	2.4781e-06	933.77	217.35	2.7855e-06	2.5775e-06	318.53	113.84	66.039	26.77	2.6117e-06	53.948	154.957	-14.078	12.038	-76.412	56.038	59.619	-77.168	-71.321	21.653	56.836	-71.808	-67.630	-66.801	-61.338	14.228	-63.370	-8191	255	
2182.935	1	1	0	0	0.1335	0.12979	0.022334	0.14507	0.20644	0.13678	0.22499	0.17516	0.051825	0.1874	0.18395	0.10822	0.37874	0.087535	0.10503	0.1569	-3.1437	-3.3312	-3.0771	-3.6979	-3.3312	-3.1583	-3.8792	-3.3396	-3.5208	-3.425	-3.2333	-3.4813	-3.3979	-3.3063	-3.4062	-3.4646	41.693	73.917	-81.563	-67.703	53.678	234.394	244.765	210.785	259.456	184.671	226.941	227.002	-7.195	-21.944	108.656	-23.524	0.00037871	0.00039909	0.00016864	859.44	7.4245e-06	1.6655e-06	1033.5	238.05	3.0668e-06	1.0655e-05	351.21	123.05	71.085	28.634	1.7187e-06	57.689	0.00030723	0.00027912	7.4976e-05	784.55	3.612e-06	3.4204e-06	939.26	219.49	3.9121e-06	3.715e-06	319.81	113.66	66.975	26.823	4.5248e-06	53.622	148.722	-88.614	-44.927	-76.686	14.425	82.901	-76.822	-70.986	38.307	33.248	-71.823	-67.162	-66.827	-61.016	126.417	-63.190	-8191	255	
2183.032	1	1	0	0	0.18465	0.039462	0.14132	0.1459	0.094557	0.22039	0.26016	0.21882	0.20234	0.12291	0.19637	0.12731	0.11787	0.14211	0.25285	0.32017	-3.0958	-3.5375	-3.1688	-3.5979	-3.4979	-3.2958	-3.7125	-3.5	-3.3	-3.7042	-3.2188	-3.6625	-3.5167	-3.2646	-3.6021	-3.2146	112.251	209.047	69.580	257.980	-86.976	230.889	221.923	262.099	19.512	158.138	191.274	-1.386	213.376	145.270	183.636	147.831	0.00024597	0.0010989	0.00014094	856.01	7.8676e-06	1.4821e-05	1007.3	241.52	1.3104e-05	6.4306e-06	351.55	123.08	75.508	29.14	2.8014e-06	57.487	0.00052608	0.00051744	0.00015065	796.97	7.136e-06	7.0054e-06	937.25	230.69	8.6212e-06	8.3214e-06	331.41	118.99	74.934	28.329	1.1706e-05	56.44	128.218	-34.644	-12.937	-76.922	32.791	21.298	-76.553	-70.831	-5.440	74.066	-71.804	-67.605	-66.834	-61.311	1.393	-63.102	-8191	255	
2183.151	1	1	0	0	0.12494	0.13291	0.13013	0.36983	0.1531	0.05531	0.15116	0.17652	0.264	0.16886	0.13491	0.15252	0.18883	0.2038	0.10486	0.040583	-2.8583	-3.6	-3.1875	-3.325	-3.575	-3.1875	-3.65	-3.5458	-3.3896	-3.675	-3.2729	-3.3625	-3.5583	-3.2062	-3.6771	-3.5208	34.743	88.292	197.308	164.424	48.608	-41.134	158.614	256.686	231.305	247.831	-71.103	171.271	219.872	236.443	-19.033	61.722	0.00013103	0.0013334	0.00013594	871.25	9.4752e-06	1.6224e-05	1021.5	263.74	7.0993e-06	1.4895e-05	379.8	128.49	80.877	30.206	7.9184e-06	59.265	0.0012375	0.0012498	0.00041031	866.67	1.8405e-05	1.874e-05	1018	278.16	2.4964e-05	2.4764e-05	404.6	143.07	96.022	35.163	3.9766e-05	67.595	153.017	-36.103	54.781	-76.798	-8.964	15.047	-76.463	-71.316	161.330	92.055	-71.988	-67.537	-67.149	-61.637	160.861	-63.352	-8191	255	
2183.247	1	1	0	0	0.1355	0.2244	0.33788	0.13568	0.22584	0.014085	0.21714	0.30202	0.18605	0.023043	0.24077	0.10471	0.17419	0.16386	0.21	0.29099	-2.6854	-3.6854	-2.9875	-3.5833	-3.5167	-3.3354	-3.8292	-3.3958	-3.3229	-3.6604	-3.5896	-3.5833	-3.6312	-3.3063	-3.6188	-3.6604	-32.530	270.569	268.036	164.366	239.486	129.669	213.665	210.814	-59.639	182.359	202.899	-63.702	249.797	-72.275	-30.528	219.434	0.00033832	0.0011168	0.00054458	958.58	2.1865e-05	7.6304e-06	1140.8	298.11	2.418e-05	1.8683e-05	424.67	140.86	91.771	34.101	1.48e-05	66.61	0.0036112	0.0036637	0.0012374	1089.2	4.6554e-05	4.7568e-05	1286.8	366.67	5.804e-05	5.905e-05	544.47	189.28	136.06	50.118	9.9228e-05	93.494	154.622	-2.681	191.070	-76.544	56.006	92.124	-76.869	-71.333	21.547	242.436	-72.295	-68.141	-67.082	-61.633	198.995	-63.593	-8191	255	
2183.318	1	1	0	131072	0.032963	0.20252	0.070487	0.42975	0.19547	0.15277	0.083371	0.1297	0.063982	0.14099	0.082489	0.11986	0.128	0.22885	0.31301	0.33804	-2.8396	-3.5354	-3.4167	-3.5667	-3.6333	-3.4354	-3.925	-3.5521	-3.2396	-4	-3.6667	-3.7125	-3.9979	-3.4625	-3.7375	-3.9562	225.353	36.305	107.504	218.920	146.774	216.576	215.810	265.771	253.842	159.958	-67.064	33.407	41.283	-82.082	136.819	178.903	0.0003243	0.002337	0.00026523	1275	1.6738e-05	6.818e-05	1473.9	375.08	2.4261e-05	5.5435e-05	525.65	173.26	114.59	41.507	5.6948e-05	76.39	0.0087942	0.0096265	0.0032997	1732.1	0.00011799	0.00013	2099.2	584.59	0.00013989	0.00015062	855.78	290.51	215.62	80.437	0.00019444	128.15	-88.918	161.267	-36.467	-77.241	1.529	226.937	-77.533	-72.442	-2.627	243.953	-73.141	-69.451	-68.281	-63.444	43.136	-64.662	-8191	255	
2183.414	1	1	0	131072	0.082018	0.12314	0.097225	0.11506	0.068293	0.063758	0.18489	0.23705	0.18731	0.29814	0.077382	0.22727	0.13029	0.25096	0.25837	0.063379	-2.7917	-3.7458	-3.2708	-3.4229	-3.5687	-3.225	-3.8792	-3.7188	-3.175	-3.6917	-3.6813	-3.2833	-3.8354	-3.2833	-3.2917	-3.7292	-81.839	46.151	-41.213	179.209	161.750	144.048	167.768	224.439	266.326	113.254	-41.450	-29.876	196.865	215.607	123.661	150.755	0.0006638	0.0095072	0.0017129	1409.5	5.2028e-06	5.2832e-05	1295.7	396.37	2.1074e-05	5.1064e-05	535.26	173.36	113.39	40.707	3.8085e-05	72.149	0.014269	0.016107	0.0047143	2097.9	0.00014497	0.0001678	2276.5	624.14	0.00015119	0.00017512	864.48	287.01	206.95	76.63	0.00015087	108.31	248.434	147.724	-75.354	-77.614	-8.978	201.013	-77.416	-72.611	262.608	203.747	-73.272	-69.171	-68.444	-63.271	42.765	-63.971	-8191	255	
2183.535	1	1	0	131072	0.045009	0.15073	0.053571	0.19964	0.13399	0.33767	0.14516	0.14671	0.20099	0.18362	0.1564	0.082017	0.26867	0.18296	0.2726	0.24739	-2.7854	-3.6292	-3.4167	-3.3354	-3.6396	-3.15	-3.4813	-3.5479	-3.1521	-3.475	-3.4854	-3.3063	-3.5938	-3.1625	-3.3896	-3.6063	-31.747	-27.193	168.655	-86.003	212.224	185.096	165.557	204.794	-0.754	87.333	239.198	-60.222	249.098	213.987	219.164	160.837	0.00068997	0.005097	0.002229	1443.3	3.4122e-05	1.9058e-05	1668.6	364.98	4.4866e-05	1.2358e-05	489.91	152.12	96.659	36.807	8.8223e-06	67.812	0.010197	0.011522	0.0028122	1734.2	8.2236e-05	9.0772e-05	1862.4	435.81	5.8299e-05	6.0385e-05	538.93	168.5	111.55	40.576	2.2316e-05	65.798	148.312	118.471	1.319	-77.378	188.553	182.233	-77.863	-72.546	229.971	38.080	-72.806	-68.382	-66.789	-61.450	33.614	-63.108	-8191	255	
2183.631	1	1	0	0	0.039601	0.12077	0.062929	0.23681	0.079508	0.16249	0.228	0.09056	0.09192	0.2039	0.15025	0.26572	0.11803	0.20232	0.027222	0.11822	-2.6396	-3.5208	-3.2562	-3.0604	-3.5563	-3.2667	-3.2542	-3.6583	-3.0208	-3.5333	-3.4292	-3.1146	-3.4562	-3.1854	-3.1688	-3.6542	56.078	92.426	165.710	164.349	80.523	94.481	226.200	20.056	-83.406	-38.867	226.308	239.158	165.950	218.345	53.374	229.405	0.0005382	0.00098584	6.3995e-05	1226	4.0398e-06	2.1634e-06	1415.3	324.09	2.4172e-06	5.7056e-06	444.71	147.31	91.218	36.22	3.24e-06	67.714	0.0011645	0.001001	0.00018558	1123.8	4.9153e-06	4.4594e-06	1286.1	294.16	2.9983e-06	2.9123e-06	400.16	134.01	82.951	33.085	2.1486e-06	61.114	124.329	8.455	77.984	-77.146	183.201	20.112	-77.103	-72.105	61.714	83.508	-72.024	-67.975	-66.924	-61.650	44.255	-62.886	-8191	255	
2183.727	1	1	0	0	0.1353	0.042833	0.20215	0.16573	0.22124	0.21211	0.31537	0.21011	0.099019	0.063893	0.074003	0.41727	0.14566	0.11705	0.20238	0.14941	-2.6312	-3.375	-3.4313	-3.4437	-3.3021	-3.4646	-3.3271	-3.5375	-3.2042	-3.1354	-3.6771	-3.2729	-3.3688	-3.4167	-3.2917	-3.6437	103.827	143.923	109.354	223.915	198.537	143.492	187.962	193.545	-32.141	109.249	123.348	-79.648	212.897	176.059	126.017	234.742	0.00027229	0.00038541	0.0001795	1087.4	4.3883e-06	7.7334e-06	1286.9	306.14	2.2501e-06	7.3095e-06	429.83	144.32	88.122	35.879	4.6135e-06	67.546	0.00022622	0.00019948	4.9353e-05	978.55	2.0817e-06	2.0135e-06	1165.8	275.51	1.9623e-06	1.8158e-06	385.1	130.64	80.049	32.51	1.5872e-06	60.815	138.566	6.116	-7.606	-76.676	61.199	38.394	-77.071	-71.628	246.327	26.475	-72.289	-68.081	-67.074	-61.445	49.796	-63.241	-8191	255	
2183.824	1	1	0	0	0.2377	0.15418	0.17865	0.25525	0.14356	0.11457	0.41899	0.36386	0.12312	0.11856	0.33284	0.093379	0.080752	0.13534	0.19719	0.22062	-2.8479	-3.1458	-3.5187	-3.2146	-3.275	-3.5333	-3.2125	-3.6208	-3.2292	-3.1708	-3.6833	-3.2313	-3.3229	-3.5021	-3.1312	-3.6458	230.799	-70.278	7.500	-62.104	77.017	-76.520	168.097	213.965	51.912	188.717	227.638	209.091	-49.252	173.189	199.334	192.968	0.00026044	0.00049129	0.0001307	1061.3	3.29e-06	3.7101e-06	1260.7	301.35	4.6602e-06	1.1212e-06	425.9	144.57	87.778	35.56	2.2826e-06	67.807	0.00018585	0.00016021	4.011e-05	955.83	1.9307e-06	1.749e-06	1140.4	271.37	2.0222e-06	1.7999e-06	381.81	130.15	79.563	32.326	1.6546e-06	60.905	144.963	8.198	-38.479	-76.924	115.827	65.782	-77.019	-71.434	62.178	-12.227	-72.307	-67.831	-66.922	-61.594	-11.461	-63.350	-8191	255	
2183.942	1	1	0	0	0.1811	0.11504	0.20682	0.29271	0.072796	0.034144	0.28709	0.23674	0.14126	0.13678	0.17572	0.052743	0.17465	0.11332	0.22489	0.18609	-2.8646	-2.9646	-3.5917	-3.3104	-3.3937	-3.4292	-3.2604	-3.6479	-3.3417	-3.225	-3.5521	-3.2021	-3.3292	-3.575	-2.9167	-3.5854	-38.557	256.446	135.204	179.928	44.889	159.347	253.653	199.535	17.236	135.959	269.360	-75.801	231.522	-47.057	38.343	-87.315	0.00034071	0.00043849	6.8046e-05	1073.8	4.1797e-06	4.6338e-06	1270.5	305.04	5.7971e-06	8.0814e-06	429.12	145.2	88.876	35.69	2.6871e-06	67.775	0.00019829	0.00016692	4.2281e-05	966.7	2.0406e-06	1.7943e-06	1148.2	275.75	2.023e-06	1.8214e-06	385.78	131.49	80.488	32.475	1.6827e-06	61.219	147.583	7.110	-9.050	-76.623	37.511	34.286	-77.162	-71.944	-4.107	96.450	-72.174	-67.906	-66.849	-61.570	-29.565	-63.412	-8191	255	
2184.016	1	1	0	0	0.22903	0.13511	0.2483	0.1568	0.24595	0.20635	0.16146	0.40415	0.34295	0.13381	0.25573	0.10984	0.28559	0.13186	0.040006	0.19603	-3.1063	-3.1	-3.4813	-3.3083	-3.5104	-3.7146	-3.4479	-3.6271	-3.6937	-3.2188	-3.7062	-3.4917	-3.2125	-3.6083	-3.1375	-3.5271	152.567	221.261	224.434	-88.328	242.056	115.764	183.042	188.444	1.287	252.293	257.588	247.640	-40.098	194.277	233.584	253.301	0.00025501	0.0002306	0.00021494	1076.5	5.0144e-06	5.5819e-06	1263.6	310.09	1.8059e-06	5.9595e-06	432.47	147.06	90.193	36.174	4.4128e-06	68.746	0.0001894	0.00015849	4.208e-05	973.04	1.9115e-06	1.7106e-06	1140.3	278.62	1.8632e-06	1.6959e-06	389.07	133.03	81.333	32.664	1.6794e-06	61.812	141.907	68.234	19.609	-76.609	12.405	24.178	-77.262	-71.836	-10.341	78.908	-71.923	-67.931	-66.966	-61.749	45.058	-63.320	-8191	255	
2184.135	1	1	0	0	0.30029	0.040824	0.16218	0.16669	0.056192	0.22025	0.27689	0.20032	0.12653	0.080079	0.18968	0.15743	0.10797	0.1662	0.13843	0.38302	-2.9583	-3.025	-3.4896	-3.3604	-3.2667	-3.6625	-3.2542	-3.2958	-3.4313	-3.3604	-3.8292	-3.3667	-2.9771	-3.6021	-3.2021	-3.3604	82.475	64.427	55.846	178.166	249.423	171.506	236.109	51.523	24.943	128.832	197.538	233.192	-61.391	-87.132	-27.165	217.438	0.00031184	0.00010775	8.5358e-05	1059.4	4.4459e-06	5.987e-06	1228.2	309.8	5.5214e-06	5.2299e-06	433.92	149.98	90.786	36.42	3.593e-06	68.973	0.00016896	0.00013974	4.0591e-05	954.86	1.6649e-06	1.4317e-06	1113.6	277.66	1.6506e-06	1.519e-06	389.57	135.47	82.36	33.061	1.7488e-06	62.121	149.393	-46.011	-16.055	-76.644	13.057	59.072	-77.157	-71.941	26.173	122.626	-72.338	-67.964	-67.313	-62.061	94.267	-63.616	-8191	255	
2184.231	1	1	0	0	0.19486	0.13216	0.19267	0.097299	0.23083	0.040807	0.17855	0.16995	0.23001	0.14505	0.17959	0.11436	0.39786	0.16944	0.092301	0.1363	-3.1604	-3.1729	-3.4292	-3.4813	-3.2	-3.4521	-3.3958	-3.3312	-3.5104	-3.0938	-3.5167	-3.4458	-3.1292	-3.4396	-3.2479	-3.5187	41.975	44.191	219.018	250.576	146.732	2.800	205.225	-67.124	233.098	103.377	-64.244	-58.742	249.457	202.294	137.149	207.002	0.00036326	0.00055833	5.0871e-05	1035.7	4.7327e-06	2.31e-06	1203.2	305.65	7.5609e-07	5.5351e-06	438.93	153.32	93.697	37.285	1.3186e-06	69.995	0.00016028	0.00013121	4.3913e-05	932.91	1.5525e-06	1.4034e-06	1088.8	275.74	1.5014e-06	1.4837e-06	394.53	138.91	84.643	33.781	1.7413e-06	63.048	147.904	-12.871	21.573	-76.763	90.790	-40.238	-77.175	-71.525	70.436	62.566	-72.183	-68.198	-67.286	-62.543	58.331	-63.889	-8191	255	
2184.327	1	1	0	0	0.25701	0.052184	0.076348	0.079413	0.092051	0.12273	0.18707	0.11799	0.010591	0.039973	0.1388	0.30896	0.11843	0.14088	0.086379	0.038977	-3.0833	-3.0687	-3.4729	-3.4625	-3.2542	-3.6583	-3.3604	-3.4333	-3.5333	-3.3708	-3.4333	-3.5333	-3.2292	-3.6667	-3.275	-3.1917	12.454	226.042	223.837	-78.949	156.019	145.352	187.410	-83.601	43.569	202.211	-88.975	199.583	-29.650	262.691	8.316	160.208	0.00032254	0.00013444	5.2762e-05	1020.3	3.0264e-06	5.3265e-06	1194.8	304.41	8.002e-06	9.8007e-07	438.04	154.72	93.68	37.13	4.5651e-06	69.336	0.00015118	0.00013764	4.3713e-05	918.8	1.4525e-06	1.4734e-06	1078.8	273.29	1.3976e-06	1.4844e-06	392.62	138.81	84.376	33.547	1.6669e-06	62.73	151.927	-20.621	-3.206	-76.779	63.392	8.997	-77.092	-71.547	32.635	-52.008	-71.924	-68.277	-67.177	-62.203	93.388	-64.132	-8191	255	
2184.423	1	1	0	0	0.11886	0.11582	0.1298	0.050404	0.16488	0.17276	0.2749	0.38011	0.037772	0.14425	0.20937	0.214	0.12293	0.16875	0.10514	0.23713	-3.2396	-3.1396	-3.5146	-3.5563	-3.0187	-3.6562	-3.3042	-3.1625	-3.5042	-3.3521	-3.4917	-3.5854	-3.3167	-3.5167	-3.1063	-3.2667	72.292	239.475	-44.501	120.837	253.159	259.845	198.879	207.888	-66.048	-0.641	269.837	198.391	-34.021	44.791	135.198	196.484	0.00029159	0.00029217	3.7253e-05	1008.5	3.7997e-06	5.0485e-06	1189.6	303.42	1.9534e-06	2.6913e-06	440.05	154.41	93.076	37.223	2.3723e-06	69.408	0.00014736	0.00014878	4.1491e-05	906.29	1.4249e-06	1.5796e-06	1073.9	273.37	1.3726e-06	1.6543e-06	393.86	139.46	84.473	33.73	1.6513e-06	62.51	151.803	55.774	245.515	-76.637	53.070	5.585	-77.069	-71.647	37.407	45.550	-72.261	-67.937	-67.437	-62.175	40.381	-63.954	-8191	255	
2184.544	1	1	0	0	0.09696	0.10505	0.10318	0.17636	0.12859	0.15034	0.29671	0.1001	0.11629	0.16953	0.23877	0.13501	0.089763	0.24923	0.29152	0.05043	-3.3312	-3.1813	-3.3208	-3.5396	-3.15	-3.55	-3.65	-3.3271	-3.6	-3.2188	-3.3104	-3.7458	-3.2896	-3.5271	-3.4646	-3.4042	35.982	85.252	18.256	234.780	238.063	149.566	228.111	227.055	250.574	96.036	213.546	250.266	-78.506	239.448	-29.848	92.701	0.00032383	0.00058143	0.00013358	1003.4	4.3665e-06	4.3882e-06	1184	302.63	5.7545e-06	5.3687e-06	437.86	153.07	93.276	36.41	4.6022e-06	68.031	0.00014866	0.00015941	4.1311e-05	903.55	1.479e-06	1.7225e-06	1067	271.38	1.5143e-06	1.7076e-06	390.93	137.86	83.952	33.102	1.5903e-06	61.201	148.327	11.534	-7.915	-76.675	26.049	48.834	-76.886	-71.959	54.602	103.189	-72.172	-68.164	-67.481	-62.561	78.533	-63.922	-8191	255	
2184.615	1	1	0	0	0.088842	0.26281	0.13523	0.24612	0.20593	0.2559	0.1012	0.30063	0.23741	0.062005	0.073683	0.28729	0.13683	0.14167	0.10086	0.14897	-3.0917	-3.1229	-3.1875	-3.5438	-3.0354	-3.475	-3.7292	-3.2083	-3.4229	-3.5646	-3.3333	-3.6917	-3.2792	-3.5375	-3.3583	-3.3792	226.928	132.913	-83.990	-50.417	145.496	-19.549	196.756	237.451	153.052	130.815	-74.305	220.397	123.627	17.004	204.630	253.329	0.00034126	0.00066452	0.00013956	991.37	2.2925e-06	4.2375e-06	1165.7	293.89	3.8905e-06	6.4036e-06	424.42	149.73	89.671	34.978	2.7832e-06	66.303	0.00016282	0.00015859	4.1194e-05	892.33	1.7311e-06	1.8081e-06	1052.2	264.85	1.779e-06	1.8206e-06	381.07	134.09	81.29	31.677	1.6513e-06	59.502	151.074	-0.424	12.772	-76.952	66.833	76.992	-77.030	-71.456	57.250	102.064	-72.345	-68.102	-67.053	-62.387	30.524	-64.004	-8191	255	
2184.712	1	1	0	0	0.11563	0.10575	0.081675	0.30791	0.51562	0.14563	0.34902	0.32354	0.22124	0.098769	0.15948	0.15063	0.14338	0.16519	0.10237	0.22378	-3.1521	-3.1937	-3.2375	-3.8083	-3.1271	-3.4062	-3.6271	-3.3771	-3.2854	-3.25	-3.2292	-3.5687	-3.2375	-3.3604	-3.6312	-3.2479	200.692	19.139	-26.642	-37.716	-3.757	55.965	244.350	-88.491	182.159	71.443	-5.334	243.935	215.195	100.520	-77.575	166.172	0.00029967	0.0005308	9.5726e-05	986.95	5.0087e-06	8.7319e-06	1159.3	287	4.2755e-06	6.2384e-06	415.66	144.37	86.572	33.675	2.0521e-06	64.461	0.00017729	0.00016542	4.2104e-05	883.7	1.8854e-06	1.8078e-06	1042.2	258.97	1.8942e-06	1.7693e-06	373.95	130.43	78.633	30.577	1.6051e-06	57.848	148.816	-22.828	37.749	-76.558	70.947	48.521	-76.864	-71.405	76.415	86.594	-71.897	-68.060	-67.001	-62.676	39.494	-64.001	-8191	255	
2184.808	1	1	0	0	0.19216	0.20805	0.17175	0.11009	0.24483	0.16309	0.13015	0.20374	0.14947	0.11527	0.025466	0.16283	0.14428	0.12249	0.15604	0.053807	-2.9625	-3.4062	-3.1937	-3.7125	-3.35	-3.2188	-3.8396	-3.3229	-3.4104	-3.5438	-3.1458	-3.6208	-3.525	-3.3396	-3.7313	-3.3979	264.774	201.053	199.021	197.617	40.321	109.471	205.678	-70.007	253.095	43.971	50.013	161.694	224.873	159.418	107.525	205.582	0.00029906	0.00078028	0.0001025	971.56	2.8512e-06	5.2762e-06	1151.6	285.16	3.4616e-06	7.8532e-06	414.13	142.65	86.174	33.19	4.4652e-06	63.746	0.00018871	0.00015494	4.0471e-05	876.86	1.8241e-06	1.6852e-06	1037.8	256.27	1.8445e-06	1.5828e-06	370.3	129.23	77.636	30.113	1.4357e-06	57.332	150.098	-2.899	-11.326	-76.706	3.116	49.097	-76.820	-71.548	7.181	34.331	-72.438	-68.085	-67.463	-62.089	58.507	-63.816	-8191	255	
2184.927	1	1	0	0	0.21028	0.10561	0.26923	0.15986	0.14119	0.20644	0.25948	0.066519	0.17799	0.079754	0.15544	0.21181	0.18054	0.20357	0.18737	0.16696	-3.0375	-3.5854	-3.2458	-3.8208	-3.4792	-3.3375	-3.9562	-3.4396	-3.4146	-3.4333	-3.2167	-3.5792	-3.3187	-3.1875	-3.4521	-3.2625	85.153	-68.982	204.799	216.114	91.128	175.223	164.664	235.411	221.436	236.740	212.074	157.881	170.924	120.966	120.795	144.256	0.00015331	0.00079198	0.00021324	970.62	6.2643e-06	2.2926e-06	1152.5	284.44	1.8156e-06	6.3028e-06	412.83	143.14	85.551	33.637	1.8947e-06	64.817	0.00016869	0.00013695	3.6538e-05	877.26	1.6407e-06	1.5349e-06	1036.6	256.08	1.5968e-06	1.4258e-06	370.11	129.23	77.481	30.336	1.3403e-06	58.25	153.815	-14.807	-49.957	-76.730	77.460	8.195	-77.021	-71.624	160.215	89.843	-72.034	-68.220	-67.237	-62.110	32.264	-64.207	-8191	255	
2185.023	1	1	0	0	0.18034	0.02909	0.22844	0.23021	0.24016	0.16078	0.13343	0.21124	0.15908	0.13784	0.22292	0.10408	0.10472	0.13156	0.28947	0.2956	-2.9854	-3.6375	-3.0667	-3.7417	-3.5896	-3.3187	-3.8354	-3.4708	-3.225	-3.5604	-3.3875	-3.4604	-3.425	-3.1854	-3.6292	-3.3708	220.958	51.810	20.884	245.788	214.988	5.477	178.942	195.864	-86.805	156.598	176.145	-68.211	269.951	222.592	57.335	170.829	0.00020829	0.00039766	9.9465e-05	984.32	2.2933e-06	6.4797e-06	1158.9	289.7	3.7655e-06	5.0398e-06	421.42	147.67	88.997	34.804	3.5954e-06	67.263	0.00015101	0.00012317	3.4288e-05	883.38	1.4456e-06	1.3496e-06	1044.5	260.84	1.4532e-06	1.2524e-06	377.87	133.17	80.023	31.517	1.3953e-06	60.285	138.644	-10.913	-21.859	-76.737	75.447	42.327	-77.070	-71.545	16.580	71.716	-71.977	-68.157	-67.313	-62.275	-13.095	-63.982	-8191	255	
2185.119	1	1	0	0	0.14732	0.078804	0.072427	0.19638	0.111	0.3291	0.15706	0.12284	0.05137	0.18807	0.1659	0.218	0.20807	0.066304	0.14384	0.2261	-2.9437	-3.5	-3.2229	-3.6437	-3.4958	-3.25	-3.8271	-3.4458	-3.2208	-3.6	-3.3542	-3.4667	-3.4646	-3.3042	-3.5646	-3.4688	227.207	13.056	168.239	244.890	6.524	-81.216	192.620	257.677	145.658	-27.671	-86.350	-70.370	241.452	258.304	129.081	152.552	0.0002741	0.00059823	8.2849e-05	983.21	6.3935e-07	4.2219e-06	1169.2	293.35	2.4349e-06	2.7734e-06	424.53	149.51	89.452	35.36	2.572e-06	67.845	0.0001477	0.00011923	3.6577e-05	887.35	1.393e-06	1.3319e-06	1053.6	264.13	1.4177e-06	1.2626e-06	382.51	134.99	80.975	31.922	1.5264e-06	60.921	156.261	4.421	1.971	-76.893	140.894	59.045	-77.184	-71.384	82.840	11.841	-72.164	-68.382	-67.699	-62.291	39.042	-64.278	-8191	255	
2185.215	1	1	0	0	0.1129	0.18114	0.099968	0.034495	0.21548	0.03652	0.23007	0.050393	0.182	0.10762	0.068747	0.28548	0.032108	0.24107	0.1783	0.26999	-2.8708	-3.5333	-3.0438	-3.3625	-3.7271	-3.1896	-3.6708	-3.3438	-3.2208	-3.6688	-3.475	-3.4229	-3.5833	-3.1583	-3.5625	-3.5875	107.377	63.672	147.616	254.381	128.138	207.325	194.415	145.060	140.629	249.060	18.028	186.609	201.535	253.393	92.872	221.733	0.00033495	0.00033475	0.00014122	980.99	3.1524e-06	2.6869e-06	1160.5	293.94	3.9973e-06	4.0752e-06	426.47	148.72	89.565	35.13	6.475e-06	67.371	0.00014373	0.00012107	3.8606e-05	884.35	1.3854e-06	1.3204e-06	1049.9	264.5	1.4073e-06	1.3399e-06	383.52	134.78	80.882	31.762	1.6089e-06	60.536	148.127	2.556	7.996	-76.881	64.351	55.323	-77.215	-71.961	20.660	120.518	-72.378	-68.089	-67.153	-62.564	63.610	-63.884	-8191	255	
2185.311	1	1	0	0	0.28168	0.12492	0.11094	0.10264	0.10984	0.13368	0.086146	0.24612	0.13004	0.18438	0.081296	0.1188	0.13892	0.2266	0.14134	0.12547	-2.725	-3.4646	-3.3417	-3.4167	-3.5792	-3.2729	-3.6417	-3.3979	-3.0542	-3.4896	-3.2417	-3.2979	-3.5333	-3.3042	-3.4375	-3.6562	97.747	188.055	180.188	238.803	13.531	-40.318	208.429	106.243	12.523	9.098	213.237	160.936	227.001	192.643	-36.583	223.375	0.00026043	0.000195	0.00017413	980.76	1.479e-06	4.0412e-06	1160.7	293.95	4.7462e-06	4.8051e-06	426.61	148.09	88.899	35.178	3.5325e-06	67.147	0.00014109	0.00012386	4.0698e-05	880.39	1.3038e-06	1.4249e-06	1045.4	264.59	1.3659e-06	1.438e-06	383.19	133.97	80.557	31.836	1.6273e-06	60.73	136.550	34.259	-10.121	-76.755	54.130	22.349	-77.246	-71.743	21.678	75.927	-72.093	-68.374	-67.593	-62.435	67.158	-63.963	-8191	255	
2185.407	1	1	0	0	0.19934	0.029005	0.083248	0.23129	0.096762	0.13024	0.25951	0.20813	0.21324	0.1451	0.10469	0.11363	0.23604	0.13781	0.10023	0.23053	-2.6979	-3.575	-3.2979	-3.3688	-3.6146	-3.4083	-3.4792	-3.4583	-2.9396	-3.6	-3.5563	-3.2979	-3.5333	-3.2812	-3.5062	-3.6625	245.351	-53.717	250.314	216.036	7.297	251.972	253.341	-54.705	131.377	92.093	220.449	-65.554	146.084	215.652	118.259	203.406	0.00033095	0.00030578	0.00016968	976.19	6.0729e-06	5.4329e-06	1156.7	292.57	1.1712e-06	2.2974e-06	429.59	148.33	88.55	34.916	2.9529e-06	67.478	0.00013874	0.00014051	4.0306e-05	877.59	1.3662e-06	1.5732e-06	1044.1	264.09	1.3816e-06	1.5678e-06	383.4	133.67	80.11	31.623	1.5313e-06	60.386	158.841	5.789	4.358	-76.770	27.971	38.059	-76.916	-71.419	22.312	121.151	-72.247	-68.343	-67.907	-62.336	120.723	-63.728	-8191	255	
2185.504	1	1	0	0	0.12003	0.14724	0.098722	0.12083	0.14801	0.19771	0.29917	0.33019	0.18713	0.18937	0.12429	0.23731	0.14968	0.048031	0.20466	0.16511	-2.9792	-3.6021	-3.3729	-3.2333	-3.4729	-3.2667	-3.4125	-3.6063	-3.2062	-3.45	-3.4688	-3.1958	-3.5396	-3.2917	-3.3875	-3.7917	151.544	239.916	269.563	36.944	-71.812	15.826	115.725	209.702	44.123	52.100	-68.302	268.343	228.492	146.169	117.571	8.766	0.00036665	0.00044244	0.00018594	968	3.1556e-06	5.5295e-06	1153.9	291.16	8.7921e-07	8.6299e-06	420.15	147.72	87.116	34.079	3.1808e-06	66.568	0.0001385	0.00014303	3.8272e-05	873.42	1.3729e-06	1.5887e-06	1040.5	262.38	1.3998e-06	1.5961e-06	379.21	132.46	78.845	30.951	1.4769e-06	59.66	138.496	18.255	-3.035	-76.981	6.821	27.811	-77.137	-71.444	85.288	80.838	-72.267	-68.142	-67.433	-62.301	23.074	-63.748	-8191	255	
2185.622	1	1	0	0	0.1308	0.087156	0.2366	0.19562	0.1924	0.11275	0.26046	0.086719	0.095308	0.044115	0.075203	0.072719	0.331	0.19006	0.052677	0.029053	-2.7125	-3.2792	-3.575	-3.1562	-3.4875	-3.3667	-3.3875	-3.5833	-3.1979	-3.3896	-3.5729	-3.2771	-3.7396	-3.5583	-3.3104	-3.75	81.617	-17.902	96.840	187.879	120.465	249.695	222.895	253.793	104.557	-8.602	44.406	256.501	197.818	104.973	98.103	249.646	0.00023841	0.0004134	0.00014142	964.72	2.3245e-06	8.1462e-07	1153.2	288.91	8.0989e-06	9.7736e-06	421.43	146.74	87.605	34.322	3.485e-06	66.651	0.00014584	0.00014302	3.4633e-05	869.07	1.4037e-06	1.516e-06	1037.6	260.05	1.4847e-06	1.5283e-06	378.53	132.11	79.093	30.995	1.386e-06	59.702	143.489	-52.834	24.137	-76.699	7.542	91.132	-77.234	-71.680	47.790	93.357	-72.405	-68.391	-67.810	-62.541	68.058	-64.028	-8191	255	
2185.719	1	1	0	0	0.15567	0.22511	0.19491	0.068213	0.19697	0.1351	0.30488	0.21445	0.071817	0.19002	0.25035	0.15988	0.077778	0.11683	0.15926	0.2437	-2.8979	-3.175	-3.5958	-3.2958	-3.6417	-3.3208	-3.2875	-3.5979	-3.1688	-3.475	-3.5062	-3.0896	-3.4979	-3.7146	-3.3688	-3.6292	82.156	-63.674	98.814	259.193	212.912	-42.015	149.437	162.634	152.181	218.199	217.461	153.398	229.207	-34.031	-19.967	147.033	0.00037378	0.00029663	0.00015286	966.03	3.1327e-06	4.0063e-06	1154.2	290.57	3.3554e-06	3.6247e-06	427.65	149.56	89.196	34.892	8.5585e-07	67.56	0.00015538	0.00013281	3.3732e-05	870.05	1.5625e-06	1.4423e-06	1040.7	261.15	1.5576e-06	1.4526e-06	382.12	134.4	80.7	31.509	1.3432e-06	60.738	148.974	-27.125	17.955	-76.658	60.208	34.902	-77.118	-71.751	7.381	64.513	-72.008	-68.424	-67.840	-62.889	70.849	-64.055	-8191	255	
2185.815	1	1	0	0	0.23858	0.17205	0.12961	0.21824	0.21856	0.20725	0.14269	0.31682	0.12487	0.14525	0.19568	0.3458	0.067787	0.20169	0.28053	0.29638	-2.7375	-3.175	-3.6167	-3.3042	-3.5104	-3.3417	-3.3875	-3.6063	-3.2479	-3.2542	-3.6229	-3.1312	-3.4396	-3.475	-2.9375	-3.4771	200.368	169.032	241.362	-70.732	118.932	-10.116	201.523	228.636	181.422	-34.010	204.059	-72.168	186.338	254.543	-73.104	173.217	0.00026498	0.00020238	0.0002196	968.63	2.1716e-06	4.7872e-06	1157.1	289.84	4.0565e-06	1.8502e-06	427.71	150.08	88.883	34.921	1.7228e-06	67.979	0.00015744	0.00012955	3.2173e-05	869.45	1.5528e-06	1.3534e-06	1041.4	260.99	1.5359e-06	1.3736e-06	382.77	135.18	80.697	31.602	1.2705e-06	61.133	144.512	-26.631	-11.707	-76.703	0.799	36.702	-77.162	-71.604	20.104	21.880	-72.187	-68.064	-67.632	-62.348	67.231	-63.918	-8191	255	
2185.911	1	1	0	0	0.046622	0.24999	0.15174	0.2549	0.049908	0.28129	0.1745	0.19894	0.13126	0.050805	0.085914	0.064526	0.09831	0.15854	0.15919	0.046688	-2.8021	-3.1333	-3.4771	-3.1979	-3.4021	-3.5021	-3.3396	-3.5312	-3.3458	-3.3292	-3.6896	-3.3896	-3.3604	-3.4458	-2.9708	-3.4646	77.879	246.015	77.332	228.728	151.198	218.249	248.765	197.498	179.176	-70.401	208.116	173.818	32.113	146.804	-60.380	-77.323	0.00035655	0.0003298	0.00012897	972.42	3.1402e-06	2.1807e-06	1162.2	294.39	2.9911e-06	7.0959e-06	432.74	152.13	91.164	35.341	3.9463e-06	67.91	0.00015734	0.00012592	3.2154e-05	874.82	1.5117e-06	1.3474e-06	1048.7	264.56	1.5177e-06	1.3674e-06	387.53	137.73	82.425	31.901	1.3825e-06	61.354	139.994	-39.748	-17.333	-76.766	22.660	102.743	-76.823	-71.477	29.661	42.311	-72.293	-68.241	-67.708	-62.600	17.997	-64.068	-8191	255	
2186.007	1	1	0	0	0.23287	0.22605	0.071691	0.15205	0.1434	0.2515	0.28056	0.36229	0.26334	0.24143	0.17955	0.25382	0.20084	0.17754	0.030046	0.10243	-3.1333	-3.1396	-3.4688	-3.1937	-3.3208	-3.7313	-3.3021	-3.6063	-3.4437	-3.3187	-3.6521	-3.3667	-3.425	-3.6625	-3.1479	-3.6833	83.979	90.596	69.063	115.400	45.772	163.318	5.344	199.636	140.071	243.846	200.727	258.313	243.821	186.630	-1.172	243.183	0.00028689	0.00035584	7.0436e-05	970.65	4.622e-06	4.1056e-06	1152.1	291	5.1733e-06	4.9695e-06	430.62	152.97	91.195	35.436	2.3265e-06	68.088	0.00015166	0.00012521	3.4373e-05	873	1.5057e-06	1.3966e-06	1041.4	262.64	1.5238e-06	1.3965e-06	385.3	138.69	82.481	32.076	1.5396e-06	61.234	150.977	-6.948	31.397	-76.704	54.628	34.387	-76.938	-71.036	-8.372	105.406	-72.148	-68.021	-67.459	-62.342	48.963	-64.378	-8191	255	
2186.103	1	1	0	0	0.24104	0.082576	0.23656	0.22255	0.20957	0.4111	0.023336	0.14925	0.13605	0.077016	0.16833	0.20768	0.24135	0.16554	0.1127	0.072897	-3.1271	-3.1854	-3.4229	-3.3688	-3.3167	-3.5896	-3.4	-3.5833	-3.5812	-3.1437	-3.8646	-3.5312	-3.3812	-3.6479	-3.2229	-3.6562	245.524	141.570	131.990	126.537	-32.665	243.919	46.557	117.293	3.224	-84.037	180.229	207.518	46.153	215.886	264.943	-70.745	0.0003239	0.00033513	0.00017232	964.1	1.2015e-06	3.6747e-06	1145.2	287.12	5.331e-06	4.3173e-06	420.46	152.88	90.627	35.53	3.2393e-06	67.98	0.00015315	0.0001263	3.8949e-05	868.44	1.4858e-06	1.3471e-06	1036	258.33	1.5028e-06	1.4381e-06	378.47	137.69	81.788	32.191	1.6745e-06	61.359	141.276	12.778	-13.257	-76.787	-15.647	102.862	-77.216	-71.462	28.257	98.658	-72.004	-68.043	-67.345	-62.983	75.286	-64.210	-8191	255	
2186.224	1	1	0	0	0.12906	0.21013	0.11936	0.14574	0.26238	0.085914	0.26351	0.096333	0.21449	0.16387	0.076803	0.13165	0.26831	0.054459	0.21107	0.32963	-3.0083	-3.0792	-3.4417	-3.6167	-3.2896	-3.5687	-3.3667	-3.5208	-3.6542	-3.0312	-3.6312	-3.6437	-3.3167	-3.6604	-3.2917	-3.2875	18.545	-79.985	-66.870	241.044	7.087	212.754	192.828	216.966	18.631	136.380	253.940	255.903	15.018	-66.169	38.094	175.198	0.00035973	0.0005997	0.00015783	959.55	4.7026e-06	1.5926e-06	1145.1	279.53	5.78e-06	3.4509e-06	409.73	148.39	86.938	35.01	2.9205e-06	66.787	0.00015685	0.00013318	4.3634e-05	864.21	1.5586e-06	1.51e-06	1034.5	251.07	1.5439e-06	1.5364e-06	368.6	134.18	78.814	31.726	1.9346e-06	60.314	155.958	11.544	27.237	-76.626	52.898	77.765	-77.191	-71.532	22.161	21.704	-72.174	-68.324	-67.378	-62.622	168.121	-64.144	-8191	255	
2186.318	1	1	0	0	0.041588	0.13232	0.10858	0.094882	0.093603	0.17814	0.11412	0.21985	0.14657	0.2005	0.12188	0.053829	0.15819	0.13243	0.0049737	0.27893	-3.125	-3.2208	-3.5042	-3.5	-3.0646	-3.6083	-3.3667	-3.4646	-3.6125	-3.2021	-3.575	-3.4854	-3.0396	-3.8438	-3.2729	-3.4938	-26.098	102.758	-42.632	177.512	225.233	61.491	171.398	254.969	100.139	221.858	173.331	160.705	239.970	-8.562	195.798	219.758	0.00025427	0.00037279	0.00013417	957.47	5.9215e-06	3.9995e-06	1145.5	267.02	7.8499e-06	2.3757e-06	395.47	142.99	82.937	34.091	1.7821e-06	66.021	0.00016474	0.00015667	4.9288e-05	862.04	1.6475e-06	1.7571e-06	1034.6	240.81	1.5699e-06	1.753e-06	356.11	129.25	75.377	30.991	1.8445e-06	59.212	151.844	-29.883	22.553	-76.807	25.949	-62.232	-76.902	-71.363	21.290	155.653	-71.688	-67.455	-66.858	-62.122	53.175	-64.065	-8191	255	
2186.414	1	1	0	0	0.3404	0.26644	0.31189	0.18792	0.05655	0.1724	0.25719	0.1094	0.08676	0.037093	0.20514	0.23048	0.083002	0.24647	0.11943	0.10454	-3.2333	-3.1354	-3.2021	-3.5792	-3.2104	-3.7271	-3.5438	-3.1354	-3.5333	-3.3167	-3.5979	-3.6063	-3.2375	-3.3521	-3.4625	-3.3667	189.674	207.937	92.888	228.970	114.792	107.101	225.423	20.001	80.264	149.432	232.641	233.974	238.080	203.627	193.639	221.040	0.00028334	0.00030027	0.00012502	949.22	2.3146e-06	3.1494e-06	1137.1	261.72	1.4336e-06	3.6621e-06	384.78	139.81	81.359	33.699	3.2577e-06	64.407	0.00015553	0.00015992	4.5321e-05	854.69	1.504e-06	1.707e-06	1026.8	235.81	1.4825e-06	1.7379e-06	347.48	126.48	73.673	30.513	1.6349e-06	58.104	153.937	-72.493	13.033	-76.860	18.095	83.387	-76.937	-71.539	236.847	97.967	-71.638	-67.691	-66.799	-61.948	71.962	-63.827	-8191	255	
2186.488	1	1	0	0	0.16653	0.013889	0.25613	0.19097	0.1202	0.085063	0.098263	0.20257	0.27044	0.16188	0.12644	0.17983	0.14748	0.26577	0.085344	0.20663	-3.2958	-3.1667	-3.175	-3.6833	-3.2062	-3.5563	-3.5312	-3.2687	-3.6312	-3.2167	-3.3875	-3.6688	-3.3063	-3.5125	-3.4896	-3.25	-54.083	-18.645	31.935	-86.588	252.640	5.446	164.443	239.545	11.988	-4.165	-72.537	186.739	173.620	269.912	71.046	-83.662	0.00032639	0.00039991	4.6586e-05	940.97	4.1038e-06	5.5281e-06	1120.3	263.23	2.6166e-06	5.036e-06	402.86	150.38	88.802	37.068	3.6766e-06	68.437	0.00015072	0.00015878	4.1325e-05	847.39	1.5031e-06	1.7111e-06	1014.4	237.79	1.4737e-06	1.6623e-06	361.58	135.62	80.616	33.594	1.5765e-06	61.614	150.641	-41.062	-8.949	-76.903	-1.094	50.969	-76.864	-71.459	-14.756	51.639	-72.016	-67.937	-67.435	-62.841	93.656	-64.316	-8191	255	
2186.607	1	1	0	0	0.14198	0.19091	0.11425	0.035693	0.30122	0.069201	0.19127	0.16082	0.31885	0.26747	0.13232	0.19655	0.12306	0.17897	0.19119	0.47633	-3.2229	-3.2854	-3.3063	-3.7521	-3.3146	-3.3438	-3.6188	-3.3	-3.6104	-3.225	-3.3292	-3.7438	-3.3021	-3.4167	-3.3875	-3.4292	-68.604	257.549	246.546	228.507	-57.285	-43.074	234.708	268.127	90.618	247.004	245.931	221.326	-43.484	213.142	29.731	267.678	0.00022803	0.00054065	7.9226e-05	935.24	1.3205e-06	7.8159e-06	1112.2	267.17	2.7692e-06	5.1627e-06	403.01	149.3	88.361	36.664	2.9234e-06	68.672	0.00016594	0.00016136	4.1345e-05	841.48	1.7471e-06	1.8137e-06	1010.3	240.81	1.8207e-06	1.8173e-06	361.35	134.76	80.249	33.239	1.7005e-06	61.792	149.257	-9.550	20.054	-76.431	22.347	100.079	-76.910	-71.285	260.186	62.976	-72.170	-67.935	-67.416	-62.705	84.067	-64.484	-8191	255	
2186.703	1	1	0	0	0.0502	0.10772	0.29471	0.19644	0.21017	0.14673	0.18478	0.15982	0.12523	0.10294	0.30797	0.14469	0.11756	0.14751	0.14074	0.11178	-3.1917	-3.4542	-3.3083	-3.7354	-3.3187	-3.4062	-3.6688	-3.0438	-3.3896	-3.4771	-3.2771	-3.5687	-3.2875	-3.2188	-3.4688	-3.1896	221.583	34.415	-1.673	215.477	231.723	241.475	113.396	-62.016	228.208	-79.254	169.215	228.791	-79.232	235.102	160.281	193.985	0.0003395	0.00026628	0.00024691	931.7	9.8433e-07	1.8585e-06	1119.2	266.12	5.1523e-06	8.5743e-06	392.89	144.3	83.674	34.923	3.4202e-06	65.667	0.00018868	0.00017051	4.498e-05	839.55	1.9915e-06	1.9739e-06	1008.4	240.11	2.0694e-06	1.9265e-06	353.89	130.32	76.59	31.608	1.8035e-06	59.142	146.439	-11.785	-1.347	-77.039	-6.845	53.506	-76.811	-71.515	62.052	50.695	-71.827	-67.814	-67.095	-62.656	57.486	-64.051	-8191	255	
2186.799	1	1	0	0	0.12157	0.073656	0.18601	0.088654	0.32609	0.086749	0.15398	0.13802	0.10328	0.011971	0.086006	0.25373	0.19898	0.2414	0.24043	0.044635	-3.0438	-3.4708	-3.1708	-3.6312	-3.2479	-3.3583	-3.5354	-3.3	-3.6229	-3.5479	-3.4	-3.7583	-3.2917	-3.4417	-3.5667	-3.3167	241.573	239.079	131.377	132.891	145.545	1.733	249.300	-80.745	253.947	159.569	-65.007	28.102	36.824	252.127	216.703	25.573	0.00023582	0.00044534	7.2181e-05	931.2	5.5957e-06	4.7632e-06	1107.1	259	3.5983e-06	7.8986e-06	383.57	138.94	80.962	33.882	4.3295e-06	63.757	0.00021844	0.0001829	4.7351e-05	839.84	2.161e-06	1.9946e-06	1001.9	233.72	2.2471e-06	1.9751e-06	344.19	125.92	73.924	30.706	1.8746e-06	57.904	151.267	-31.753	6.962	-77.161	65.984	-0.132	-77.071	-71.461	50.287	62.936	-71.743	-67.706	-66.886	-62.119	75.356	-63.881	-8191	255	
2186.895	1	1	0	0	0.20586	0.20375	0.099446	0.095669	0.099518	0.13764	0.075724	0.26599	0.11868	0.16942	0.18271	0.12148	0.11632	0.032058	0.10805	0.090698	-2.975	-3.2854	-3.1042	-3.7604	-3.35	-3.0812	-3.7354	-3.2521	-3.4771	-3.4417	-3.1917	-3.6917	-3.4813	-3.1188	-3.6479	-3.4062	181.373	35.164	12.539	226.769	-81.264	-26.047	228.685	242.589	69.574	141.846	-71.133	214.250	-22.491	-75.387	-7.408	-67.562	0.00034471	0.00043323	0.00019301	925.92	4.8997e-06	6.0669e-06	1108.3	253.72	4.9838e-06	7.5251e-06	377.21	138.44	80.438	34.606	4.833e-06	65.542	0.00022485	0.00018831	4.8953e-05	839.52	2.1766e-06	2.0263e-06	1001.7	230.43	2.1475e-06	1.8126e-06	339.71	125.41	73.398	31.278	1.7462e-06	59.275	159.359	-49.962	7.750	-76.891	52.677	45.717	-77.080	-71.371	2.293	76.939	-71.925	-67.658	-67.494	-62.167	-5.188	-64.090	-8191	255	
2187.016	1	1	0	0	0.10226	0.20838	0.10946	0.25571	0.1969	0.16478	0.23348	0.11373	0.12624	0.1498	0.23127	0.40863	0.15633	0.33269	0.070767	0.12764	-2.9458	-3.5646	-3.1417	-3.5771	-3.3646	-3.2188	-3.7104	-3.4875	-3.3063	-3.5854	-3.2104	-3.6479	-3.7083	-3.2167	-3.6021	-3.6375	201.071	-27.824	44.610	219.293	44.396	243.348	270.212	127.227	-65.484	-15.807	177.542	181.638	77.675	260.546	93.721	260.789	0.00027993	0.00063372	0.00019954	928.66	2.6383e-06	5.612e-06	1105	254.36	3.8671e-06	5.2622e-06	384.47	142.79	82.457	36.089	3.0948e-07	67.836	0.00018878	0.0001549	4.4092e-05	833.31	1.8219e-06	1.6717e-06	995.48	231.01	1.8355e-06	1.6106e-06	343.6	128.91	75.265	32.663	1.7534e-06	61.341	139.906	-44.234	27.572	-76.858	0.129	51.711	-76.964	-71.040	86.638	67.115	-71.806	-67.695	-66.879	-62.572	151.678	-64.150	-8191	255	
#DATA ENDS
