BOXY.EXE: ISS Imagent and Oximeter Data Acquisition Program Version 0.80
Ascii Record File

#ACQ INFORMATION
2  Detector Channels 
16  External MUX Channels 
1  Auxiliary Channels 
5000  Waveform (CCF) Frequency (Hz)
1  Waveforms Skipped 
30  Waveforms Averaged 
1  Cycles Averaged 
16  Acquisitions per Waveform 
10.0806  Updata Rate (Hz) 

#FILE INFORMATION
TRUE -- External MUX Channel results are PARSED.
FALSE -- AC DC and Phase are NOT grouped.
TRUE -- Companion Program Settings File CREATED.
FALSE -- AC data not excluded
FALSE -- DC data not excluded
FALSE -- Phase data not excluded
FALSE -- Auxillary Chn. data not excluded
Tab delimiters

#CALIBRATION STATE
TRUE -- Waveform Calibration Values APPLIED.


#AUX CALIBRATION VALUES
Val Type	aux-1	

Term	1.0000e+00	
Factor	0.0000e+00	


#WF CALIBRATION VALUES
A = Detector Channel
Val Type	A-AC1	A-AC2	A-AC3	A-AC4	A-AC5	A-AC6	A-AC7	A-AC8	A-AC9	A-AC10	A-AC11	A-AC12	A-AC13	A-AC14	A-AC15	A-AC16	A-DC1	A-DC2	A-DC3	A-DC4	A-DC5	A-DC6	A-DC7	A-DC8	A-DC9	A-DC10	A-DC11	A-DC12	A-DC13	A-DC14	A-DC15	A-DC16	A-Ph1	A-Ph2	A-Ph3	A-Ph4	A-Ph5	A-Ph6	A-Ph7	A-Ph8	A-Ph9	A-Ph10	A-Ph11	A-Ph12	A-Ph13	A-Ph14	A-Ph15	A-Ph16	

Term	0.00000e+00	0.00000e+00	0.00000e+00	0.00000e+00	0.00000e+00	0.00000e+00	0.00000e+00	0.00000e+00	0.00000e+00	0.00000e+00	0.00000e+00	0.00000e+00	0.00000e+00	0.00000e+00	0.00000e+00	0.00000e+00	0.00000e+00	0.00000e+00	0.00000e+00	0.00000e+00	0.00000e+00	0.00000e+00	0.00000e+00	0.00000e+00	0.00000e+00	0.00000e+00	0.00000e+00	0.00000e+00	0.00000e+00	0.00000e+00	0.00000e+00	0.00000e+00	0.00000e+00	0.00000e+00	0.00000e+00	0.00000e+00	0.00000e+00	0.00000e+00	0.00000e+00	0.00000e+00	0.00000e+00	0.00000e+00	0.00000e+00	0.00000e+00	0.00000e+00	0.00000e+00	0.00000e+00	0.00000e+00	
Factor	1.00000e+00	1.00000e+00	1.00000e+00	1.00000e+00	1.00000e+00	1.00000e+00	1.00000e+00	1.00000e+00	1.00000e+00	1.00000e+00	1.00000e+00	1.00000e+00	1.00000e+00	1.00000e+00	1.00000e+00	1.00000e+00	1.00000e+00	1.00000e+00	1.00000e+00	1.00000e+00	1.00000e+00	1.00000e+00	1.00000e+00	1.00000e+00	1.00000e+00	1.00000e+00	1.00000e+00	1.00000e+00	1.00000e+00	1.00000e+00	1.00000e+00	1.00000e+00	X	X	X	X	X	X	X	X	X	X	X	X	X	X	X	X	

B = Detector Channel
Val Type	B-AC1	B-AC2	B-AC3	B-AC4	B-AC5	B-AC6	B-AC7	B-AC8	B-AC9	B-AC10	B-AC11	B-AC12	B-AC13	B-AC14	B-AC15	B-AC16	B-DC1	B-DC2	B-DC3	B-DC4	B-DC5	B-DC6	B-DC7	B-DC8	B-DC9	B-DC10	B-DC11	B-DC12	B-DC13	B-DC14	B-DC15	B-DC16	B-Ph1	B-Ph2	B-Ph3	B-Ph4	B-Ph5	B-Ph6	B-Ph7	B-Ph8	B-Ph9	B-Ph10	B-Ph11	B-Ph12	B-Ph13	B-Ph14	B-Ph15	B-Ph16	

Term	0.00000e+00	0.00000e+00	0.00000e+00	0.00000e+00	0.00000e+00	0.00000e+00	0.00000e+00	0.00000e+00	0.00000e+00	0.00000e+00	0.00000e+00	0.00000e+00	0.00000e+00	0.00000e+00	0.00000e+00	0.00000e+00	0.00000e+00	0.00000e+00	0.00000e+00	0.00000e+00	0.00000e+00	0.00000e+00	0.00000e+00	0.00000e+00	0.00000e+00	0.00000e+00	0.00000e+00	0.00000e+00	0.00000e+00	0.00000e+00	0.00000e+00	0.00000e+00	-6.15763e+01	-1.30411e+02	-1.24549e+02	-1.82143e+02	-5.62854e+01	-6.13144e+01	-1.55749e+02	-1.62015e+02	-4.36545e+01	-5.84641e+01	-1.71172e+02	-1.71176e+02	-1.81653e+02	-1.77264e+02	-5.75505e+01	-1.50260e+02	
Factor	1.84335e-05	1.52056e-04	4.43642e-05	4.71444e-01	1.63633e-06	1.83727e-06	1.70005e-01	5.70259e-02	1.24874e-06	1.86029e-06	9.06459e-02	2.89522e-02	2.44098e-02	8.74298e-03	1.46882e-06	1.28138e-02	7.07437e-06	9.43660e-06	2.63415e-06	2.38107e-01	1.02249e-07	1.04931e-07	8.15064e-02	2.91262e-02	9.98385e-08	1.04856e-07	4.47650e-02	1.44068e-02	1.26248e-02	4.50497e-03	1.02288e-07	6.38331e-03	X	X	X	X	X	X	X	X	X	X	X	X	X	X	X	X	



#DISTANCE SETTINGS
A = Detector Channel
A-1	A-2	A-3	A-4	A-5	A-6	A-7	A-8	A-9	A-10	A-11	A-12	A-13	A-14	A-15	A-16	

2.5000e+00	3.0000e+00	2.5000e+00	3.0000e+00	2.0000e+00	3.0000e+00	1.5000e+00	3.0000e+00	3.0000e+00	3.0000e+00	3.0000e+00	3.0000e+00	3.0000e+00	3.0000e+00	1.5000e+00	3.0000e+00	

B = Detector Channel
B-1	B-2	B-3	B-4	B-5	B-6	B-7	B-8	B-9	B-10	B-11	B-12	B-13	B-14	B-15	B-16	

1.0000e+01	1.0000e+01	1.0000e+01	1.4400e+00	1.0000e+01	1.0000e+01	1.5100e+00	1.9400e+00	1.0000e+01	1.0000e+01	1.9900e+00	2.4900e+00	2.4100e+00	2.9000e+00	1.0000e+01	2.9800e+00	




#DATA BEGINS
time	group	step	mark	flag	A-AC1	A-AC2	A-AC3	A-AC4	A-AC5	A-AC6	A-AC7	A-AC8	A-AC9	A-AC10	A-AC11	A-AC12	A-AC13	A-AC14	A-AC15	A-AC16	A-DC1	A-DC2	A-DC3	A-DC4	A-DC5	A-DC6	A-DC7	A-DC8	A-DC9	A-DC10	A-DC11	A-DC12	A-DC13	A-DC14	A-DC15	A-DC16	A-Ph1	A-Ph2	A-Ph3	A-Ph4	A-Ph5	A-Ph6	A-Ph7	A-Ph8	A-Ph9	A-Ph10	A-Ph11	A-Ph12	A-Ph13	A-Ph14	A-Ph15	A-Ph16	B-AC1	B-AC2	B-AC3	B-AC4	B-AC5	B-AC6	B-AC7	B-AC8	B-AC9	B-AC10	B-AC11	B-AC12	B-AC13	B-AC14	B-AC15	B-AC16	B-DC1	B-DC2	B-DC3	B-DC4	B-DC5	B-DC6	B-DC7	B-DC8	B-DC9	B-DC10	B-DC11	B-DC12	B-DC13	B-DC14	B-DC15	B-DC16	B-Ph1	B-Ph2	B-Ph3	B-Ph4	B-Ph5	B-Ph6	B-Ph7	B-Ph8	B-Ph9	B-Ph10	B-Ph11	B-Ph12	B-Ph13	B-Ph14	B-Ph15	B-Ph16	aux-1	digaux	

18909.492	1	1	0	256	0.18099	0.1973	0.050397	0.16415	0.097012	0.15917	0.098492	0.11296	0.061945	0.1118	0.077897	0.14352	0.15521	0.29388	0.036102	0.19374	-2.4229	-2.9667	-2.7396	-3.0146	-2.875	-2.5625	-2.9792	-2.6312	-2.7292	-3.1042	-2.9146	-2.9104	-2.9417	-2.6042	-2.725	-2.8271	223.528	482.257	211.376	284.840	283.181	327.532	432.701	301.794	255.415	174.586	421.795	278.320	146.123	457.511	319.167	363.941	0.00015344	0.0014633	6.0517e-05	84.786	3.9483e-06	4.3769e-06	186.59	16.915	1.0287e-05	1.5282e-05	51.938	19.032	4.681	1.6579	3.8239e-06	8.0103	0.0024223	0.0031782	0.00088539	148.04	3.4248e-05	3.5552e-05	184.32	23.882	3.389e-05	3.478e-05	58.869	21.045	8.3009	2.8512	3.2216e-05	8.8617	211.120	256.855	242.868	159.757	226.551	422.229	158.703	163.426	494.794	472.399	163.711	168.349	170.079	173.607	390.928	172.264	-8191	255	
18909.590	1	1	0	0	0.068776	0.074699	0.1885	0.071448	0.2645	0.40591	0.12634	0.3089	0.30097	0.10258	0.12818	0.086231	0.2318	0.060105	0.18481	0.32215	-2.4521	-3.0396	-2.6312	-2.8	-2.7667	-2.6958	-3.0104	-2.7667	-2.9625	-2.9833	-2.7438	-2.8646	-3.0104	-2.5958	-2.8146	-2.575	307.865	312.264	431.908	451.286	441.064	397.585	346.636	326.179	339.184	423.834	165.090	477.300	159.077	255.122	441.304	425.537	0.0001608	0.001223	0.0001147	78.455	9.8705e-06	1.8655e-05	185.8	17.774	3.5427e-06	1.1495e-05	58.453	20.765	5.2118	1.9012	1.4622e-06	9.6138	0.0022982	0.0029871	0.0008052	141.22	3.1572e-05	3.1637e-05	179.54	23.405	2.7624e-05	2.8098e-05	59.997	21.544	7.5263	2.679	2.2332e-05	9.5015	240.939	239.600	244.567	157.282	222.275	435.011	158.326	164.759	298.111	361.117	162.886	168.774	166.946	172.266	394.212	172.335	-8191	255	
18909.709	1	1	0	0	0.099806	0.10133	0.25951	0.12939	0.15602	0.16177	0.13762	0.052323	0.23232	0.20563	0.10021	0.095884	0.21846	0.1909	0.24499	0.036539	-2.4729	-2.8625	-2.6646	-2.7313	-2.8312	-2.6833	-2.9562	-2.8729	-2.7917	-3.0292	-2.6042	-2.7188	-2.9062	-2.5021	-2.8563	-2.9354	290.556	409.623	323.349	420.837	402.821	471.418	247.367	386.305	467.457	470.171	263.097	152.762	346.564	200.369	336.567	284.146	3.4238e-05	0.00044015	0.00020586	80.199	3.1979e-06	7.8099e-06	180.76	18.85	3.7743e-06	4.8827e-06	58.79	21.64	5.5929	2.0305	5.2431e-06	9.5751	0.0014723	0.0018333	0.00049409	109.17	1.8336e-05	1.8039e-05	166.28	20.746	1.5908e-05	1.5973e-05	56.781	20.642	6.4712	2.3285	1.4591e-05	9.2038	174.402	348.239	172.568	157.604	248.889	234.928	158.867	162.883	406.038	159.207	162.390	168.967	166.425	172.873	364.204	171.649	-8191	255	
18909.805	1	1	0	0	0.10494	0.27102	0.21237	0.3924	0.16126	0.12303	0.13861	0.022861	0.31664	0.29386	0.054186	0.17757	0.14319	0.22977	0.07673	0.097889	-2.3458	-2.9125	-2.6146	-2.7729	-3.0104	-2.6167	-3.0208	-2.8042	-2.6958	-3.1042	-2.8167	-2.925	-2.8417	-2.6417	-2.8688	-2.7167	230.564	207.498	487.303	392.287	398.620	277.142	185.566	378.025	291.758	179.408	228.053	297.790	163.806	430.250	310.822	466.585	0.00011258	0.00037342	0.0001391	76.015	1.8787e-06	5.2773e-06	172.16	18.592	2.4207e-06	5.302e-06	54.902	19.383	5.0205	1.7793	1.8323e-06	8.8943	0.00099084	0.0012393	0.00034401	93.283	1.262e-05	1.2255e-05	152.93	18.536	1.0881e-05	1.1215e-05	50.829	18.045	5.3567	1.9161	9.5939e-06	8.151	272.595	405.192	251.156	157.209	409.713	230.222	157.097	162.677	202.341	289.775	163.094	168.308	166.187	170.906	313.767	171.799	-8191	255	
18909.902	1	1	0	0	0.2545	0.0092728	0.041991	0.2128	0.21459	0.18214	0.08902	0.13449	0.059694	0.18044	0.018865	0.19309	0.35983	0.23477	0.059417	0.023376	-2.2687	-2.9958	-2.7	-2.7083	-3.0021	-2.6708	-2.8812	-2.7313	-2.6458	-2.9104	-2.8042	-2.6792	-3.1125	-2.725	-2.8708	-2.8792	159.850	493.236	346.979	204.237	272.378	209.995	334.759	322.846	327.004	246.638	402.161	435.272	329.564	148.747	321.947	434.835	4.2008e-05	0.00030025	0.00010529	66.341	6.385e-06	5.2019e-06	149.06	16.58	1.9143e-06	5.9575e-06	49.094	18.075	4.5507	1.6492	3.5218e-06	8.4186	0.00064473	0.00086315	0.00023735	78.331	9.1082e-06	9.5377e-06	133.84	16.604	9.5352e-06	1.0103e-05	45.634	16.804	5.0244	1.7935	9.6084e-06	7.6907	284.429	345.631	433.015	159.676	216.754	313.977	158.752	163.840	396.240	500.734	162.880	168.220	169.092	169.392	413.014	171.344	-8191	255	
18909.998	1	1	0	0	0.29836	0.1283	0.30099	0.06592	0.15368	0.1006	0.23894	0.16056	0.074374	0.19022	0.13853	0.012292	0.20136	0.1486	0.042346	0.21333	-2.3354	-2.8083	-2.6979	-2.5604	-2.9188	-2.7313	-2.7708	-2.8979	-2.5604	-2.95	-2.7812	-2.7667	-3.0646	-2.6688	-2.9021	-3.1333	438.666	195.378	433.629	181.431	264.166	285.963	246.251	462.242	482.520	416.578	219.517	417.557	461.569	401.121	162.285	286.217	0.00011059	0.00057612	0.00010816	61.97	4.0333e-06	7.7488e-06	142.89	16.236	1.1426e-06	6.8282e-06	50.492	19.132	5.0532	1.866	6.0478e-06	9.0741	0.00063581	0.00088099	0.00024483	72.417	8.9636e-06	9.6733e-06	127.06	16.365	9.2253e-06	9.5866e-06	46.798	17.635	5.3699	1.9796	9.23e-06	8.3258	238.209	292.603	319.988	159.624	482.755	196.851	158.806	163.030	287.420	295.802	162.950	169.046	168.520	174.294	387.053	172.336	-8191	255	
18910.092	1	1	0	0	0.14612	0.045169	0.34487	0.042561	0.072936	0.18159	0.14074	0.17583	0.24628	0.062772	0.20403	0.25843	0.046619	0.25557	0.038514	0.086878	-2.1333	-2.9917	-2.7917	-2.7146	-2.9708	-2.7583	-2.7292	-2.9396	-2.7042	-2.8646	-2.9729	-2.6188	-2.9708	-2.5792	-2.7438	-3.0667	481.864	387.405	243.243	473.065	421.868	427.096	178.248	381.652	290.860	435.416	167.828	268.174	180.967	410.212	380.093	164.361	0.00010783	0.0002726	0.00011564	71.494	8.8408e-06	4.9215e-06	149.63	17.249	5.9252e-06	5.5065e-06	50.64	19.352	5.1164	1.8314	4.266e-06	8.8008	0.00062988	0.00084821	0.00023453	75.405	8.4127e-06	8.725e-06	133.23	16.792	7.8991e-06	8.5051e-06	46.608	17.545	5.1579	1.885	6.8567e-06	7.9882	255.498	301.687	463.864	158.148	429.735	155.025	158.434	164.277	290.236	374.503	162.699	167.428	168.982	171.308	346.515	172.324	-8191	255	
18910.188	1	1	0	0	0.14423	0.044838	0.15758	0.10385	0.18474	0.27823	0.071209	0.31362	0.1913	0.31301	0.37094	0.065577	0.058923	0.09779	0.13738	0.042147	-2.3937	-3.0021	-2.7812	-2.6437	-3.0479	-2.7667	-2.8729	-3.0542	-2.7396	-3.1167	-2.9042	-2.6813	-2.9375	-2.7188	-2.6354	-3.0583	316.394	159.948	505.855	155.055	231.241	460.152	216.362	358.047	413.092	496.691	358.935	210.631	482.352	212.583	252.616	451.043	8.3122e-05	0.00024649	0.00010868	70.41	7.288e-06	7.1562e-06	146.75	16.576	1.3066e-06	1.2208e-06	49.313	18.599	4.6239	1.6856	1.7419e-06	8.5403	0.00048286	0.0006005	0.00015712	69.576	6.058e-06	6.0473e-06	128.81	15.559	5.6432e-06	5.6135e-06	43.865	16.585	4.5325	1.6393	5.1001e-06	7.5811	257.376	403.273	180.391	155.805	183.416	226.535	158.749	164.324	212.799	171.207	161.716	167.832	168.145	172.962	156.093	171.113	-8191	255	
18910.283	1	1	0	0	0.013132	0.2015	0.13391	0.1322	0.1104	0.18062	0.11184	0.0078692	0.36908	0.052788	0.22691	0.093552	0.10644	0.14604	0.10795	0.084998	-2.1792	-2.9792	-3.0104	-2.4562	-3.1229	-2.7938	-2.5333	-2.9062	-2.6875	-2.8812	-3.0771	-2.6208	-2.8563	-2.7979	-2.6833	-3.0062	405.325	349.932	264.438	152.922	285.529	203.116	468.802	188.853	448.408	352.193	178.268	453.693	244.623	315.479	187.765	234.855	9.641e-05	0.00030625	5.171e-05	66.141	2.6542e-06	5.8907e-06	151.97	16.69	1.7602e-06	2.7777e-06	50.226	18.789	4.585	1.7345	1.7726e-06	8.4702	0.00036586	0.00046532	0.00012151	66.281	4.9516e-06	4.9582e-06	132.11	15.441	4.7355e-06	4.9116e-06	44.535	16.598	4.5232	1.6414	4.935e-06	7.5523	226.075	422.028	287.873	158.164	236.924	333.705	157.717	162.992	182.292	407.854	163.087	168.493	168.754	170.607	325.632	172.948	-8191	255	
18910.404	1	1	0	0	0.21384	0.19073	0.17776	0.33335	0.11529	0.13282	0.17451	0.1663	0.12389	0.11309	0.051478	0.15275	0.22803	0.20148	0.21869	0.15337	-2.2292	-2.7167	-2.9854	-2.5021	-2.7417	-2.85	-2.6125	-3.0542	-2.6688	-2.8271	-2.9688	-2.5354	-2.7167	-2.8417	-2.6604	-2.9542	487.963	382.626	378.041	406.535	174.233	388.798	254.153	418.482	442.935	280.068	174.584	266.390	433.463	352.917	375.040	206.321	9.7856e-05	0.00013211	0.0001262	63.226	2.4933e-06	3.2986e-06	151.84	16.028	2.7506e-06	3.7837e-06	49.98	18.212	4.4854	1.584	4.7465e-06	8.2687	0.00037948	0.0004932	0.00013734	66.633	5.3534e-06	5.5491e-06	130.37	15.008	5.3027e-06	5.4381e-06	43.953	16.287	4.4823	1.5952	4.9876e-06	7.34	263.387	213.401	503.847	156.765	436.470	351.863	158.290	163.638	203.388	420.580	161.367	168.328	166.056	172.559	351.386	171.321	-8191	255	
18910.502	1	1	0	0	0.15861	0.096206	0.26371	0.14588	0.14782	0.11768	0.29947	0.1813	0.17167	0.21756	0.15039	0.14788	0.13626	0.098933	0.17248	0.32578	-2.2896	-2.5771	-2.8417	-2.6875	-2.9875	-2.9813	-2.6333	-2.9792	-2.6521	-2.575	-2.9458	-2.5708	-2.6792	-2.9646	-2.5187	-2.9	445.020	182.954	210.101	252.222	240.608	376.805	425.696	212.435	184.912	282.847	419.791	359.043	331.153	241.038	463.038	222.204	0.0001024	0.00040894	9.6109e-05	63.252	3.995e-06	2.3487e-06	149.84	15.897	4.2374e-06	2.2692e-06	48.361	17.537	4.2909	1.5213	7.4384e-07	7.9965	0.00038657	0.00045771	0.00013113	64.148	5.0219e-06	5.0745e-06	129.25	14.856	4.7875e-06	4.7344e-06	42.911	15.706	4.2148	1.4943	4.4653e-06	7.093	275.451	291.199	182.545	158.221	297.645	314.366	157.409	162.279	443.515	150.982	163.660	167.757	167.702	173.016	206.745	171.616	-8191	255	
18910.598	1	1	0	0	0.076189	0.18554	0.12083	0.12571	0.29125	0.14719	0.16098	0.026538	0.17278	0.33664	0.094212	0.12559	0.14521	0.18369	0.30924	0.17366	-2.3937	-2.5062	-2.9146	-2.5312	-2.7479	-2.9292	-2.6312	-2.8417	-2.775	-2.5479	-2.9521	-2.6146	-2.6542	-3.05	-2.6604	-2.775	205.818	279.904	212.515	164.014	383.312	297.721	211.411	176.433	192.180	174.545	265.088	258.797	379.673	200.652	386.157	307.774	8.1837e-05	0.00013584	6.5225e-05	62.296	3.8842e-06	3.9206e-06	148.64	15.113	1.6149e-06	1.7236e-06	46.355	17.399	4.218	1.4738	3.3071e-06	7.6239	0.00034231	0.00041179	0.00012405	64.032	4.6643e-06	4.6397e-06	126.96	13.95	4.161e-06	4.5158e-06	41.293	15.15	4.0241	1.428	4.4384e-06	6.8151	270.817	464.296	297.848	156.452	181.616	276.161	158.592	164.626	335.887	457.937	161.998	168.963	165.622	173.224	234.700	172.157	-8191	255	
18910.693	1	1	0	0	0.072861	0.19876	0.3166	0.16046	0.14816	0.18616	0.16061	0.10538	0.073573	0.065027	0.10552	0.20432	0.23486	0.22225	0.038197	0.19521	-2.3896	-2.8063	-2.9333	-2.6917	-2.6771	-3.0542	-2.5375	-2.7208	-2.8604	-2.6188	-2.8917	-2.8167	-2.7062	-2.8896	-2.7021	-2.8958	374.036	281.975	276.242	470.957	228.285	206.957	206.364	399.913	349.658	336.448	405.491	431.736	319.852	412.263	446.900	326.218	0.00011217	0.00010326	4.5074e-05	61.892	6.3463e-07	2.0421e-06	143.01	14.937	2.2539e-06	2.208e-06	44.554	16.682	4.0714	1.3842	2.0275e-06	7.6176	0.00033095	0.00038796	0.00010361	60.888	4.3339e-06	4.1972e-06	124.17	13.641	3.9405e-06	4.0289e-06	39.465	14.671	3.8198	1.3568	4.2345e-06	6.6851	259.286	254.515	453.188	158.958	227.968	280.052	157.568	163.629	166.361	450.057	163.817	167.718	166.456	172.748	342.560	172.590	-8191	255	
18910.789	1	1	0	0	0.20382	0.25976	0.1095	0.22738	0.099811	0.10922	0.06447	0.20175	0.34364	0.25728	0.19585	0.044704	0.13958	0.047314	0.20852	0.1027	-2.4708	-2.5792	-2.8812	-2.7542	-2.65	-2.9979	-2.6542	-2.7375	-2.9792	-2.7167	-2.9021	-2.725	-2.5812	-2.9562	-2.6333	-2.7208	276.505	203.003	331.505	197.150	286.709	270.119	265.668	185.249	293.179	152.830	205.977	355.062	356.628	255.300	387.273	415.025	6.3822e-05	0.00033134	0.00010837	59.156	3.0543e-06	1.4627e-06	144	14.445	1.5907e-06	3.1119e-06	45.394	16.275	3.8552	1.3932	2.7468e-06	7.528	0.00029879	0.00037552	0.00011157	59.829	4.0919e-06	4.1782e-06	122.9	13.426	4.1622e-06	4.1813e-06	39.882	14.501	3.8201	1.3723	4.1949e-06	6.6562	225.608	308.202	283.964	158.542	239.167	261.359	159.055	164.782	178.651	392.599	163.299	169.356	167.707	171.866	259.297	171.756	-8191	255	
18910.885	1	1	0	0	0.31669	0.19392	0.094684	0.10413	0.12277	0.21859	0.35435	0.14934	0.22752	0.03217	0.22695	0.24124	0.15782	0.076865	0.060167	0.21034	-2.7042	-2.6979	-2.95	-2.5979	-2.5396	-2.9625	-2.9896	-2.7958	-3.025	-2.6125	-2.9646	-2.7208	-2.5646	-3.0292	-2.8563	-2.9062	351.670	345.894	240.006	469.207	333.082	185.454	427.890	271.608	422.205	441.268	210.898	405.323	269.206	396.344	200.192	404.681	9.6942e-05	0.00041328	8.3275e-05	60.981	1.1705e-06	2.1589e-06	140.37	14.436	2.2459e-06	6.2286e-06	45.225	16.254	3.8579	1.4004	5.3953e-06	7.4373	0.0003118	0.00040662	0.00012384	60.967	4.3494e-06	4.5411e-06	122.36	13.644	4.4894e-06	4.7187e-06	39.949	14.542	3.9336	1.4038	4.6861e-06	6.6905	229.520	172.466	468.086	157.942	222.169	159.820	158.681	162.854	449.381	302.657	162.871	168.023	164.860	171.633	339.807	172.478	-8191	255	
18911.006	1	1	0	0	0.084617	0.19503	0.12493	0.17031	0.18928	0.19599	0.1974	0.075664	0.1138	0.27236	0.065498	0.094507	0.24416	0.21321	0.22677	0.068175	-2.7167	-2.6146	-3.0438	-2.7875	-2.5583	-3.0729	-2.7583	-2.6083	-3.0167	-2.7125	-2.8417	-2.8042	-2.5625	-2.9313	-2.8	-2.7521	233.509	198.710	146.631	339.072	165.464	170.490	234.353	226.325	366.629	364.239	199.601	280.465	327.403	366.128	277.846	244.961	5.8835e-05	8.4291e-05	6.0331e-05	58.712	3.3438e-06	3.488e-06	142.87	14.648	3.5216e-06	2.7318e-06	44.919	16.52	3.9686	1.4141	6.0684e-07	7.4717	0.00033605	0.00043169	0.00012927	60.511	4.7245e-06	5.1873e-06	122.93	13.558	4.7739e-06	4.9715e-06	39.814	14.735	3.9259	1.4327	5.0526e-06	6.717	170.849	449.380	352.705	157.139	329.788	152.205	157.615	162.754	465.783	390.310	162.642	168.975	166.866	172.940	300.931	172.383	-8191	255	
18911.102	1	1	0	0	0.14619	0.13898	0.20477	0.24209	0.15733	0.18278	0.2124	0.24897	0.10469	0.082538	0.17379	0.21791	0.18871	0.1151	0.097406	0.071062	-2.6167	-2.4396	-2.8208	-3.0021	-2.6583	-3	-2.9083	-2.5312	-3.0354	-2.7146	-2.775	-2.9292	-2.6729	-2.9958	-2.8583	-2.5812	362.752	466.659	324.647	349.367	201.999	419.725	322.516	262.597	223.814	353.480	478.489	185.278	168.835	317.202	275.837	479.131	6.4767e-05	0.00015143	0.00014134	63.005	5.1639e-07	3.9124e-06	143.83	15.155	2.4945e-06	4.6531e-06	44.923	16.833	4.219	1.477	1.4641e-06	7.6391	0.00038087	0.00048876	0.00013377	62.598	5.1237e-06	5.37e-06	123.91	13.813	5.2586e-06	5.1305e-06	40.437	14.943	4.0889	1.4766	5.615e-06	6.9072	279.906	386.357	344.261	158.738	170.497	383.552	158.336	163.754	440.828	277.071	163.136	167.381	165.961	171.440	390.219	171.835	-8191	255	
18911.197	1	1	0	0	0.26406	0.077198	0.071181	0.2642	0.073391	0.26097	0.014756	0.22115	0.1698	0.19999	0.17679	0.030509	0.1361	0.14155	0.23809	0.14225	-2.6562	-2.6896	-2.6	-2.9292	-2.6562	-2.8729	-2.9208	-2.5208	-3.0854	-2.7438	-2.8333	-2.9354	-2.5458	-2.975	-2.8688	-2.6042	175.487	301.453	342.911	260.241	182.305	402.574	396.511	415.168	158.699	253.404	354.250	489.676	304.327	219.593	156.729	214.481	4.5251e-05	0.00037101	0.00010005	60.909	1.0208e-06	5.7271e-06	141.73	14.711	3.226e-06	2.0306e-06	45.289	16.853	4.2865	1.5347	4.6823e-06	7.6607	0.00039552	0.00051601	0.00014804	64.167	5.4935e-06	5.9345e-06	123.82	14.054	5.7601e-06	6.1349e-06	41.162	15.192	4.2425	1.5262	5.5007e-06	6.898	258.332	437.750	382.851	155.785	324.390	454.861	158.482	161.519	272.040	183.846	163.039	167.978	169.017	171.993	414.138	171.844	-8191	255	
18911.270	1	1	0	0	0.29723	0.22171	0.23233	0.11223	0.27813	0.21316	0.12905	0.17379	0.16491	0.17745	0.20203	0.25047	0.091646	0.13231	0.26405	0.12253	-2.4521	-2.7917	-2.7583	-3.0104	-2.6771	-2.9271	-2.9792	-2.6417	-2.7667	-2.9458	-2.8229	-3.0521	-2.8229	-2.9208	-2.9542	-2.675	331.304	310.447	249.040	483.699	402.156	155.229	324.904	304.977	310.382	324.093	218.430	427.171	145.891	159.215	438.110	366.409	5.4777e-05	0.00025031	6.4416e-05	59.003	3.6222e-06	2.2015e-06	143.7	15.017	3.3779e-07	2.3988e-06	45.791	16.766	4.0761	1.4553	3.8608e-06	7.6432	0.00039727	0.00050629	0.00014706	62.593	5.6605e-06	5.8741e-06	124.51	14.089	5.8039e-06	6.0152e-06	40.859	15.266	4.1635	1.4975	5.7394e-06	6.9265	286.344	482.065	498.710	158.342	351.284	358.944	158.450	161.007	464.542	162.567	162.908	168.847	169.405	172.610	243.062	171.388	-8191	255	
18911.389	1	1	0	0	0.15105	0.061944	0.27118	0.070622	0.034895	0.062095	0.19307	0.048215	0.16296	0.14113	0.077334	0.27738	0.16586	0.20489	0.16993	0.28739	-2.5396	-2.7833	-2.6479	-2.8063	-2.7875	-2.9729	-3.05	-2.5917	-2.8833	-2.8583	-2.6167	-2.9729	-2.8063	-2.7521	-3.0938	-2.6583	369.393	172.323	497.600	189.925	179.940	154.005	155.469	188.892	333.376	208.225	220.460	269.113	152.583	155.427	247.707	284.069	0.00010444	8.7374e-05	2.1687e-05	61.65	1.6832e-06	5.4931e-06	143	14.932	2.9182e-06	8.6592e-06	46.622	16.828	4.1855	1.466	1.4693e-06	7.6197	0.00043939	0.000537	0.00014958	64.346	5.8919e-06	6.0696e-06	123.56	14.25	6.1894e-06	5.9451e-06	41.528	15.231	4.2061	1.4937	5.9286e-06	6.8766	252.604	431.711	453.983	155.566	383.415	283.158	158.081	162.913	442.141	331.077	162.963	168.648	168.929	172.787	414.212	172.701	-8191	255	
18911.484	1	1	0	0	0.25023	0.055306	0.14816	0.18631	0.10301	0.29575	0.071721	0.21357	0.14332	0.19219	0.18068	0.092661	0.12417	0.05447	0.010297	0.15311	-2.3875	-2.6479	-2.6479	-3.1667	-2.8958	-2.7458	-3.0167	-2.7333	-2.8771	-2.9604	-2.675	-3.0187	-2.8396	-2.4562	-3.2229	-2.8042	477.496	230.607	456.188	422.174	372.262	295.510	210.814	256.057	448.733	187.783	253.650	193.670	439.392	335.224	229.947	228.708	0.00010906	0.00010047	6.7036e-05	58.383	5.7069e-06	2.5936e-06	141.48	14.796	3.6413e-06	4.5334e-06	45.76	16.88	4.0282	1.3925	1.5236e-06	7.4147	0.00044287	0.00054905	0.0001487	62.493	5.698e-06	5.8444e-06	122.4	13.822	5.8846e-06	5.75e-06	40.349	15.047	4.0458	1.4361	5.5996e-06	6.7138	263.074	352.602	216.274	157.499	352.073	187.367	158.256	165.476	268.958	241.527	162.628	169.065	167.714	172.001	194.273	171.475	-8191	255	
18911.582	1	1	0	0	0.16688	0.13248	0.10123	0.063078	0.15437	0.21224	0.18169	0.37883	0.083848	0.13412	0.051595	0.073705	0.1612	0.070217	0.18472	0.17048	-2.3521	-2.9167	-2.5667	-2.9437	-2.6521	-2.725	-2.9792	-2.6813	-2.725	-3.2458	-2.7562	-2.8646	-2.8708	-2.6042	-3.0417	-2.7646	320.451	417.554	396.721	166.278	331.891	492.921	219.476	402.687	229.190	307.753	190.335	395.825	428.827	279.641	361.381	380.486	6.8168e-05	0.00020839	1.1935e-05	57.66	5.3465e-06	2.6839e-07	142.05	15.019	4.8269e-06	2.2799e-06	45.341	16.659	4.1188	1.4321	1.1377e-06	7.4296	0.00041132	0.0005091	0.00013679	62.164	5.4569e-06	5.4459e-06	123.63	13.998	5.5115e-06	5.3295e-06	40.283	14.913	4.0097	1.4183	5.5546e-06	6.7147	217.202	414.056	458.883	155.459	314.733	476.689	157.913	163.908	318.295	449.973	162.693	167.969	168.581	172.483	447.117	171.572	-8191	255	
18911.678	1	1	0	0	0.10867	0.12783	0.14808	0.35844	0.25071	0.016486	0.1354	0.34279	0.13551	0.13421	0.15118	0.13871	0.11076	0.1007	0.10533	0.046954	-2.2708	-2.9062	-2.6125	-2.8	-2.7167	-2.6937	-2.8729	-2.6896	-2.6896	-3.0563	-2.7313	-2.9562	-2.8396	-2.4896	-2.825	-2.6667	427.710	487.972	313.704	258.758	267.995	250.926	150.772	382.480	451.381	158.197	468.163	357.835	176.824	167.316	471.175	256.653	6.6833e-05	0.00046585	0.00015579	60.709	1.7066e-06	1.7688e-06	138.36	14.277	5.1705e-06	2.6277e-06	44.2	16.514	3.9471	1.3444	5.0089e-06	7.4842	0.00037538	0.00046866	0.0001294	62.71	5.1704e-06	5.2203e-06	122.6	13.634	4.9751e-06	5.1349e-06	39.778	14.607	3.9241	1.3908	5.1274e-06	6.6645	224.168	175.300	200.079	158.621	474.804	379.940	157.533	161.144	495.714	198.506	162.060	168.769	167.569	171.691	500.955	172.109	-8191	255	
18911.797	1	1	0	0	0.35868	0.25653	0.2264	0.21852	0.10918	0.14748	0.40388	0.16304	0.050595	0.20425	0.075003	0.086741	0.28455	0.086121	0.19067	0.25711	-2.2896	-2.9354	-2.6208	-3.0083	-2.7979	-2.5	-2.8354	-2.8896	-2.6792	-2.8937	-2.6854	-2.8937	-2.8396	-2.5979	-2.9188	-2.7875	246.623	392.138	292.474	381.451	472.196	416.765	329.887	273.184	312.873	491.480	335.282	213.845	454.162	300.648	188.565	418.284	0.00010923	0.00024506	8.0713e-05	59.945	3.6278e-06	1.3317e-06	144.06	14.486	1.3402e-06	3.7419e-06	44.415	16.224	4.0229	1.2912	2.7146e-06	7.4113	0.00034773	0.0004519	0.00012952	60.37	4.7137e-06	4.9932e-06	124.6	13.471	4.6467e-06	5.1003e-06	39.919	14.485	3.8772	1.3329	5.0607e-06	6.5541	243.680	500.900	240.584	154.844	396.067	340.227	158.446	161.203	367.142	213.517	161.458	168.197	166.931	171.113	199.166	173.101	-8191	255	
18911.893	1	1	0	0	0.12583	0.033244	0.078321	0.12485	0.17949	0.24869	0.1316	0.27665	0.1878	0.29269	0.23011	0.33912	0.13156	0.20694	0.13206	0.25858	-2.3042	-3.0229	-2.5271	-2.75	-2.8479	-2.6417	-2.8312	-2.7896	-2.6667	-3.1354	-2.6229	-2.7	-3.0146	-2.7687	-2.825	-2.7062	272.615	471.947	392.791	244.977	232.821	264.206	369.888	478.024	282.187	307.586	195.073	486.881	175.578	469.185	332.246	374.247	8.2461e-05	5.2692e-05	7.0393e-05	58.819	4.5389e-06	5.1181e-06	143.79	14.795	9.3986e-07	2.8332e-06	43.534	16.377	3.8931	1.3619	4.3996e-06	7.3919	0.00034549	0.00043617	0.00012623	59.837	4.6136e-06	5.0681e-06	123.26	13.419	4.5235e-06	5.2375e-06	39.668	14.613	3.8176	1.3688	5.0357e-06	6.575	273.644	326.241	318.632	158.221	285.075	363.942	157.307	162.932	353.931	254.538	163.211	168.585	166.525	171.446	310.985	171.808	-8191	255	
18911.967	1	1	0	0	0.044814	0.25271	0.088546	0.20001	0.11286	0.19828	0.072243	0.11118	0.2349	0.098075	0.18906	0.12493	0.30635	0.27138	0.065173	0.22219	-2.2583	-2.8063	-2.8396	-2.5312	-2.9	-2.4771	-2.8	-2.8229	-2.6021	-2.9938	-2.6708	-2.6042	-2.9042	-2.4625	-2.9208	-2.8833	261.255	439.903	435.855	424.454	212.692	367.791	490.707	298.078	299.341	422.587	404.177	157.459	476.510	386.578	155.465	171.203	5.6249e-05	0.00023882	7.5826e-05	63.749	6.7351e-06	1.6225e-06	143.86	14.858	1.3965e-06	2.5176e-06	45.505	16.685	4.0509	1.3737	4.1443e-06	7.6225	0.0003689	0.00049336	0.00012774	62.696	5.4473e-06	5.3458e-06	125.41	13.778	5.1723e-06	5.7485e-06	40.488	14.893	4.07	1.4474	5.9681e-06	6.7867	236.441	162.380	146.960	155.954	259.643	487.074	158.346	163.084	461.674	327.144	163.405	168.604	168.053	175.156	308.094	172.391	-8191	255	
18912.086	1	1	0	0	0.13472	0.24026	0.23372	0.19279	0.10566	0.16547	0.099611	0.27495	0.17512	0.18291	0.10392	0.17795	0.11802	0.12648	0.36738	0.23209	-2.0792	-2.7396	-2.7458	-2.5292	-2.875	-2.6042	-3.0667	-3.0271	-2.625	-2.8333	-2.7021	-2.525	-2.8875	-2.4958	-2.7708	-2.8875	481.425	388.751	358.393	425.585	481.443	236.390	340.582	437.169	250.767	218.185	305.577	472.404	416.904	402.286	414.414	396.838	6.9824e-05	0.00012973	8.5445e-05	62.519	3.3488e-06	3.4151e-06	145.31	14.514	2.6558e-06	3.8484e-06	45.781	16.742	4.0931	1.3713	2.1356e-06	7.6186	0.00041667	0.00053881	0.00014386	65.243	5.8497e-06	5.6916e-06	127.11	13.92	5.6854e-06	6.1312e-06	41.089	15.033	4.1038	1.4411	5.6716e-06	6.8078	273.159	173.021	276.167	157.599	329.868	246.212	158.076	164.486	227.022	502.611	162.122	168.039	167.136	173.496	382.125	172.515	-8191	255	
18912.182	1	1	0	0	0.11445	0.24695	0.18305	0.30418	0.2951	0.29791	0.017818	0.076156	0.12458	0.038685	0.07025	0.19725	0.3581	0.047401	0.15512	0.40345	-2.1063	-2.8458	-2.6875	-2.5021	-2.7958	-2.7292	-2.9542	-2.7667	-2.4354	-2.7562	-2.7438	-2.4854	-2.7667	-2.6521	-2.7438	-2.875	362.363	172.471	499.471	418.817	470.048	254.852	458.752	307.658	453.866	227.140	247.758	392.082	246.986	164.843	243.793	477.131	0.00010254	0.0003903	6.5001e-05	61.438	7.5443e-07	3.5937e-06	144.5	14.081	3.5401e-06	1.8802e-06	46.175	16.347	4.0199	1.335	2.1753e-06	7.5187	0.00040961	0.00053865	0.00014808	64.191	6.2086e-06	5.7237e-06	126.26	13.577	5.6153e-06	5.8051e-06	40.597	14.803	4.0165	1.4253	5.4483e-06	6.6726	247.081	494.472	171.564	157.353	365.818	181.658	158.750	165.071	276.638	172.870	163.659	167.456	167.882	173.084	207.287	172.244	-8191	255	
18912.277	1	1	0	0	0.077852	0.29047	0.15461	0.28219	0.11121	0.25604	0.149	0.11018	0.099235	0.022486	0.33414	0.16731	0.096657	0.15068	0.21419	0.15873	-2.1021	-2.8042	-2.8708	-2.5604	-2.9271	-2.6958	-2.6688	-2.9917	-2.6646	-2.9042	-3.0625	-2.5521	-2.8583	-2.6813	-2.8854	-3.0125	162.092	325.288	450.845	446.805	348.724	358.638	368.626	257.917	294.448	149.615	195.967	415.493	485.592	340.892	492.626	147.408	4.11e-05	5.5874e-05	9.6144e-05	62.44	1.452e-06	3.3525e-06	143.09	14.584	1.8333e-06	2.5813e-06	44.327	16.524	4.0168	1.3877	2.7257e-06	7.4394	0.00041341	0.00052269	0.00014416	63.822	5.8086e-06	6.0589e-06	124.3	13.811	5.5935e-06	6.2352e-06	39.843	14.833	4.0217	1.4166	5.7816e-06	6.7143	248.229	184.412	294.303	156.804	171.190	326.720	157.736	162.254	278.000	208.576	163.732	169.520	166.742	172.041	194.300	173.071	-8191	255	
18912.398	1	1	0	0	0.26361	0.21106	0.16035	0.20883	0.12359	0.18443	0.12993	0.087702	0.054483	0.1791	0.11688	0.16183	0.14262	0.21629	0.28631	0.16654	-2.3146	-2.7583	-2.9583	-2.575	-2.9	-2.8042	-2.6333	-2.9104	-2.7104	-2.8417	-2.8604	-2.6063	-2.8771	-2.625	-2.6	-2.8	153.941	288.237	153.130	308.702	219.636	471.450	324.359	272.657	492.385	223.208	408.458	406.558	428.748	430.512	443.278	275.378	4.946e-05	0.00046683	0.00011347	60.677	3.8825e-06	1.9634e-06	145.71	14.095	2.0416e-06	5.533e-06	44.099	16.252	4.0041	1.3211	2.2695e-06	7.317	0.00042933	0.00054605	0.00014879	64.683	6.3648e-06	6.1052e-06	126.62	13.755	5.8876e-06	6.1603e-06	40.039	14.737	4.0153	1.4207	5.9943e-06	6.6791	242.234	417.049	332.848	157.868	435.766	322.504	157.891	165.554	502.527	259.650	162.772	168.021	165.803	172.459	319.475	172.094	-8191	255	
18912.494	1	1	0	0	0.19076	0.17428	0.35023	0.25725	0.12535	0.19393	0.13444	0.24021	0.096517	0.07501	0.22173	0.044567	0.17219	0.12525	0.053042	0.056923	-2.3083	-2.5208	-2.7458	-2.6354	-2.9437	-2.8375	-2.6333	-2.7792	-2.5854	-2.7979	-3.1125	-2.8063	-2.7979	-2.775	-2.5	-3.0021	175.877	303.104	249.699	149.226	218.986	415.075	411.183	202.004	340.733	324.929	433.677	363.835	405.420	349.913	386.064	381.995	6.4672e-05	0.00033734	0.00014243	61.939	3.6094e-06	3.1136e-06	142.65	14.457	1.2481e-06	2.5133e-06	44.219	16.151	3.7943	1.3798	2.0198e-06	7.354	0.0004302	0.00052715	0.00015256	64.269	5.8235e-06	5.9786e-06	123.86	13.776	5.8158e-06	6.1015e-06	39.864	14.598	3.9269	1.3973	5.9444e-06	6.6058	236.725	196.081	426.344	158.240	479.777	189.141	158.847	162.367	485.233	368.352	161.741	168.512	167.120	173.487	473.822	171.797	-8191	255	
18912.566	1	1	0	0	0.084878	0.055429	0.15722	0.12583	0.085994	0.12089	0.049857	0.15515	0.20291	0.42301	0.14319	0.16541	0.27176	0.082506	0.15094	0.29342	-2.3354	-2.7812	-2.9521	-2.5938	-2.8604	-2.8458	-2.5062	-2.7979	-2.6708	-2.5396	-3.1458	-2.5021	-2.8	-2.7604	-2.7333	-2.8979	225.868	422.575	409.720	422.759	368.405	281.211	436.293	437.323	435.617	147.627	354.975	167.153	435.809	440.421	410.080	335.332	3.4517e-05	7.095e-05	0.00013299	60.534	2.1724e-06	6.9283e-06	144.98	14.119	1.4533e-06	1.8281e-06	45.209	16.684	3.809	1.4102	7.456e-06	7.5267	0.00042515	0.00053071	0.00015455	63.352	6.0708e-06	5.978e-06	124.79	13.514	5.7031e-06	6.1712e-06	40.247	14.794	3.9834	1.4198	6.1688e-06	6.6868	491.272	451.192	233.949	156.354	202.743	445.586	158.521	164.320	452.695	350.436	163.188	169.786	165.505	173.971	411.841	171.661	-8191	255	
18912.686	1	1	0	0	0.064988	0.043214	0.1529	0.087625	0.13631	0.070342	0.14359	0.17207	0.096221	0.21208	0.11261	0.082444	0.015989	0.18051	0.15018	0.23264	-2.3896	-2.6813	-3.0667	-2.4896	-2.6354	-2.7146	-2.4792	-2.8604	-2.7417	-2.8375	-2.8229	-2.6104	-2.7458	-2.9875	-2.5458	-2.8563	206.929	352.715	223.800	499.441	198.340	418.602	426.480	256.134	463.643	260.779	347.048	413.360	498.951	404.941	189.775	195.712	5.2053e-05	0.0002862	0.00018147	60.933	2.859e-06	2.2503e-06	141.58	13.564	2.1431e-06	4.2272e-06	43.636	16.259	4.0136	1.3384	1.144e-06	7.3853	0.00043248	0.00053425	0.00014982	64.417	5.8163e-06	6.2045e-06	123.56	13.582	5.8655e-06	6.1288e-06	39.981	14.67	4.0354	1.4147	6.1852e-06	6.6685	283.800	332.043	176.842	157.627	498.971	318.476	157.827	162.308	446.305	245.525	163.145	168.360	169.552	170.841	445.076	172.951	-8191	255	
18912.781	1	1	0	0	0.12299	0.068389	0.19866	0.13459	0.10687	0.28591	0.16173	0.27185	0.28274	0.19334	0.11829	0.23461	0.27379	0.20912	0.26879	0.29789	-2.3521	-2.5417	-2.8187	-2.6396	-2.7521	-2.8354	-2.6854	-2.8104	-2.8937	-2.5208	-2.95	-2.7646	-2.55	-2.9688	-2.7604	-2.8354	435.842	490.781	229.326	264.519	454.726	256.055	305.868	263.768	160.535	327.613	259.587	406.850	394.443	404.873	479.931	244.841	0.00011257	0.00017499	0.00018083	59.241	3.0185e-06	4.1813e-06	142.38	14.074	1.4072e-06	6.3042e-06	44.38	16.191	3.8145	1.3344	2.5515e-06	7.409	0.00042342	0.00056222	0.0001636	63.65	6.0574e-06	6.5748e-06	123.7	13.663	5.9171e-06	6.3497e-06	39.896	14.635	3.952	1.3969	5.9789e-06	6.6577	212.143	498.056	370.539	159.105	147.967	323.171	157.931	161.908	200.338	215.647	162.575	168.467	165.949	174.208	277.294	172.187	-8191	255	
18912.877	1	1	0	0	0.29587	0.14211	0.33339	0.14037	0.12642	0.032514	0.236	0.18472	0.13519	0.20133	0.24004	0.13738	0.35022	0.092206	0.0694	0.065194	-2.5938	-2.6937	-2.975	-2.6833	-2.8167	-2.875	-2.7833	-2.9042	-2.8771	-2.7104	-2.9375	-2.725	-2.6854	-2.9729	-2.7021	-2.7042	344.651	200.964	196.813	347.504	469.461	495.674	308.066	335.510	419.744	341.385	453.699	307.852	241.849	183.628	340.140	389.482	9.2382e-05	0.00018164	0.00016367	62.891	4.1314e-06	4.6935e-06	142.49	14.032	2.4223e-06	4.5895e-06	43.731	16.746	3.8143	1.307	3.2193e-07	7.3934	0.00043311	0.00056435	0.00015747	64.207	6.0203e-06	6.0009e-06	124.07	13.558	5.9716e-06	6.1373e-06	39.81	14.82	4.003	1.4031	6.2834e-06	6.6187	231.492	432.767	324.039	157.468	151.817	289.445	158.372	162.397	396.481	431.726	163.576	168.565	166.465	171.244	271.849	172.543	-8191	255	
18912.973	1	1	0	0	0.16323	0.088437	0.43781	0.18989	0.076511	0.19922	0.13828	0.12045	0.19468	0.31241	0.22661	0.11867	0.16587	0.2352	0.28241	0.15249	-2.5396	-2.7625	-2.9083	-2.825	-2.7792	-3.1979	-2.7792	-2.9292	-2.9437	-2.7271	-2.925	-2.8438	-2.5167	-3.0292	-2.9042	-2.7979	220.668	360.156	301.955	499.870	406.119	410.028	272.556	461.969	403.799	441.303	408.954	208.541	316.886	188.741	177.876	453.942	0.00010091	0.00014948	0.00016731	58.333	4.0564e-06	9.7794e-06	143.72	14.248	1.697e-06	1.609e-06	43.944	16.362	3.9256	1.3349	2.7342e-06	7.225	0.00044038	0.00055951	0.00016095	64.371	5.841e-06	6.2302e-06	124.88	13.63	6.0236e-06	6.1649e-06	40.13	14.773	3.9824	1.416	5.9519e-06	6.5694	251.416	304.780	413.713	157.613	355.094	384.028	158.273	162.282	332.638	299.274	163.980	168.008	167.319	175.335	290.770	173.097	-8191	255	
18913.094	1	1	0	0	0.14869	0.17781	0.28343	0.028746	0.051734	0.12865	0.093243	0.11832	0.38131	0.20879	0.1903	0.046315	0.20758	0.094991	0.047271	0.29062	-2.6	-2.7958	-2.7625	-2.925	-2.8604	-3.0354	-2.7562	-2.8021	-3.0938	-2.8771	-2.8229	-3.1021	-2.7313	-3.1063	-2.7771	-2.5708	242.534	419.363	486.531	167.485	291.887	386.602	324.895	464.347	382.573	149.507	444.241	440.594	157.492	439.019	378.709	335.619	7.7575e-05	0.00054935	1.7154e-05	60.701	1.0007e-06	5.1117e-06	141.01	14.16	3.7157e-06	6.9578e-06	44.545	16.498	3.8739	1.3201	3.5218e-06	7.273	0.00044352	0.00054335	0.00015224	63.374	5.5681e-06	6.0554e-06	123.18	13.517	5.8387e-06	6.3861e-06	39.862	14.581	3.9208	1.3639	5.8483e-06	6.5538	257.626	157.597	348.042	159.374	254.889	308.852	158.239	164.035	347.475	435.168	163.527	168.622	168.062	170.863	268.049	172.977	-8191	255	
18913.189	1	1	0	0	0.11787	0.14439	0.11285	0.26137	0.22135	0.16886	0.31849	0.34655	0.15575	0.22436	0.02105	0.16658	0.20287	0.33312	0.35207	0.23165	-2.3854	-2.675	-2.8021	-2.85	-2.4792	-2.95	-2.8333	-2.7229	-2.8854	-2.6188	-2.9917	-3.0333	-2.5792	-2.6875	-2.8292	-2.7333	238.338	202.506	459.889	350.907	458.819	194.718	461.482	435.625	170.032	481.154	390.561	189.911	300.861	224.297	499.530	371.093	3.8917e-05	9.7252e-05	6.1131e-05	58.005	3.3675e-06	4.5021e-06	140.6	14.373	2.678e-06	6.7294e-06	43.725	16.275	3.8974	1.3684	5.2085e-06	7.2738	0.00043512	0.00055949	0.00014648	63.485	5.6135e-06	6.4366e-06	123.26	13.432	5.7544e-06	5.889e-06	39.342	14.45	3.9514	1.3803	5.554e-06	6.5417	292.137	351.838	149.829	156.546	167.255	376.105	158.176	162.327	146.051	266.916	162.464	168.758	166.397	171.445	403.317	172.483	-8191	255	
18913.262	1	1	0	0	0.13468	0.1593	0.30539	0.18889	0.063127	0.11286	0.20528	0.19846	0.23407	0.15378	0.23978	0.11272	0.19641	0.17797	0.10481	0.09113	-2.5563	-2.5687	-2.5812	-2.8812	-2.5583	-2.9813	-2.7792	-2.7104	-2.8979	-2.7583	-2.7417	-2.9354	-2.7042	-3.0729	-2.7812	-2.7146	430.842	378.918	482.529	356.571	466.520	189.327	466.823	150.485	488.348	251.466	413.121	194.521	419.681	273.966	470.188	184.596	5.3357e-05	0.00020245	3.166e-05	58.9	3.7e-06	4.1284e-06	141.21	14.436	3.8018e-06	8.0399e-07	44.363	15.899	3.8357	1.3025	1.1657e-07	7.1914	0.00043366	0.00049849	0.00014898	62.899	5.675e-06	6.0807e-06	123.58	13.544	5.6563e-06	5.7456e-06	39.578	14.378	3.863	1.3719	5.4882e-06	6.5064	284.153	304.668	210.008	155.402	145.764	315.234	158.693	163.124	447.240	504.932	163.570	168.641	169.966	172.761	299.327	171.596	-8191	255	
18913.357	1	1	0	0	0.11287	0.20909	0.1183	0.27296	0.19084	0.024933	0.25349	0.093217	0.075903	0.1467	0.25544	0.13624	0.056833	0.15604	0.09087	0.25798	-2.6083	-2.6604	-2.6458	-3.075	-2.5771	-2.9771	-2.9604	-2.5438	-2.9896	-3.0896	-2.7375	-2.9854	-2.6104	-2.8021	-3.025	-2.6396	177.378	473.556	282.114	410.531	258.550	317.795	432.186	415.663	358.886	148.080	405.454	255.911	401.156	220.398	239.517	289.493	8.6767e-05	0.00030437	8.4917e-05	59.752	3.46e-06	2.3072e-06	141.4	14.294	2.2105e-06	1.7905e-06	43.667	16.473	3.9075	1.2938	2.0088e-06	7.3302	0.00042122	0.00051105	0.00014517	63.859	5.4825e-06	5.8582e-06	123.33	13.659	5.5036e-06	5.5058e-06	39.55	14.59	3.9125	1.3726	5.6721e-06	6.5232	287.487	481.911	318.580	155.852	460.605	345.040	159.096	164.584	313.204	375.746	163.490	168.298	166.524	172.777	397.051	173.863	-8191	255	
18913.479	1	1	0	0	0.12547	0.13319	0.14013	0.13338	0.20099	0.12184	0.20854	0.14529	0.075088	0.35073	0.24656	0.23758	0.14965	0.08957	0.06765	0.042988	-2.3563	-2.9229	-2.6937	-2.9792	-2.7896	-2.9333	-3.1688	-2.6896	-2.95	-2.8667	-2.7146	-2.8854	-2.7521	-2.825	-3.1333	-2.8146	387.181	484.185	449.294	284.621	258.131	405.635	405.451	284.031	200.110	315.378	420.752	409.041	303.711	427.351	172.839	369.434	5.5647e-05	0.00027419	5.4463e-05	61.337	2.6412e-06	1.2214e-06	142.38	14.258	1.5954e-06	3.9995e-06	43.574	15.779	3.6158	1.2284	2.3565e-06	7.1377	0.00040235	0.00051754	0.00014936	63.879	5.6388e-06	5.6398e-06	123.44	13.464	5.4668e-06	5.3151e-06	38.76	14.366	3.8799	1.3355	5.5627e-06	6.4138	290.563	214.747	243.264	155.753	319.319	335.689	159.592	165.529	492.001	504.411	161.667	168.914	166.833	172.483	278.692	172.428	-8191	255	
18913.574	1	1	0	0	0.40664	0.10373	0.28386	0.12087	0.0056592	0.29533	0.087301	0.031015	0.12023	0.13679	0.061506	0.13262	0.17543	0.014186	0.090465	0.073221	-2.5917	-2.7792	-2.6167	-2.9062	-2.6979	-2.6896	-3.0104	-2.5646	-2.7021	-2.7646	-2.6375	-2.8333	-2.5667	-2.6542	-3.0396	-2.6583	162.262	505.246	206.251	227.051	165.502	486.467	495.472	395.130	294.268	398.437	458.313	502.674	423.897	486.846	443.605	331.915	0.00010704	0.00025144	0.0001346	57.757	2.6656e-06	7.1496e-06	144.22	14.046	1.0149e-06	2.9203e-06	43.369	15.822	3.7473	1.2941	2.5825e-06	7.2084	0.00040884	0.00051561	0.00014348	63.566	5.3819e-06	5.7056e-06	123.76	13.337	5.4402e-06	5.6688e-06	38.899	14.229	3.7848	1.35	5.5642e-06	6.4406	267.400	250.064	253.593	157.291	467.035	176.294	157.830	164.235	486.155	383.441	163.140	168.131	167.040	172.928	436.175	172.984	-8191	255	
18913.672	1	1	0	0	0.15976	0.076524	0.05185	0.1013	0.18135	0.11687	0.11771	0.17436	0.12317	0.13178	0.11578	0.1228	0.24553	0.10117	0.055699	0.14974	-2.5563	-2.8896	-2.6083	-3.0187	-2.6292	-2.6292	-2.9562	-2.5187	-2.8333	-2.9271	-2.6125	-2.8833	-2.7188	-2.625	-3.0146	-2.5229	259.547	229.372	385.182	370.099	453.868	367.949	272.030	329.587	186.514	170.584	486.212	481.867	188.040	390.497	411.759	423.214	0.0001565	0.00058386	9.8208e-05	58.054	2.2373e-06	3.0247e-06	144.85	14.218	9.3117e-07	2.6365e-06	44.554	15.677	3.8966	1.3249	1.1454e-06	7.2128	0.00041553	0.00050376	0.00014197	62.991	5.5672e-06	5.6311e-06	123.99	13.469	5.3811e-06	5.7625e-06	39.463	14.396	3.831	1.371	5.655e-06	6.5087	277.348	193.538	295.778	156.274	295.618	169.720	158.694	164.017	500.061	488.684	162.572	169.858	165.797	171.964	279.252	172.341	-8191	255	
18913.768	1	1	0	0	0.1788	0.05504	0.26085	0.0808	0.12116	0.12727	0.22042	0.16113	0.13836	0.08818	0.087054	0.14698	0.32468	0.24898	0.21676	0.37649	-2.3229	-2.9875	-2.5208	-2.8292	-2.8792	-2.7917	-2.8937	-2.7333	-2.6167	-3.1208	-2.5833	-2.8542	-2.9542	-2.6083	-3.0104	-2.8667	215.061	338.991	281.192	324.663	398.526	173.111	215.292	394.540	387.873	429.597	370.108	260.104	297.187	458.601	290.234	198.370	9.6698e-05	0.0002893	8.5857e-05	57.65	3.007e-06	1.746e-06	139.17	14.231	3.0177e-06	3.7579e-06	43.542	15.953	3.8087	1.2906	7.3816e-06	7.0397	0.00042112	0.00055273	0.00014965	62.956	5.7034e-06	6.0923e-06	123.66	13.461	5.5608e-06	5.7968e-06	39.369	14.307	3.8908	1.3531	5.7558e-06	6.4236	253.160	234.859	204.605	157.126	466.809	271.423	158.556	163.874	299.523	311.182	162.619	169.235	167.333	173.543	342.295	173.584	-8191	255	
18913.863	1	1	0	0	0.090586	0.19513	0.059898	0.12453	0.29635	0.21337	0.11544	0.30566	0.22117	0.18351	0.17188	0.21911	0.076769	0.25086	0.21202	0.17352	-2.2896	-3.1229	-2.5292	-2.7438	-2.9417	-2.7646	-2.9208	-2.7396	-2.7854	-3.1	-2.6688	-2.6875	-2.7583	-2.6146	-3.0208	-2.7812	329.962	278.880	425.179	196.402	258.495	273.785	472.601	156.448	173.524	336.723	353.725	501.619	449.281	289.920	247.533	382.778	5.7281e-05	0.00032046	4.483e-05	57.547	2.8786e-06	4.0174e-06	139.68	13.424	3.35e-06	3.34e-06	42.531	15.672	3.8044	1.2645	2.9335e-06	7.2718	0.00043471	0.00055867	0.00014727	63.508	6.09e-06	5.9795e-06	123.25	13.218	5.5787e-06	6.2352e-06	39.134	14.174	3.9337	1.3508	5.7888e-06	6.493	308.446	309.589	371.232	157.045	230.472	301.956	158.243	162.953	342.182	372.952	162.837	167.930	169.609	173.101	459.279	172.659	-8191	255	
18913.959	1	1	0	0	0.47751	0.075545	0.12754	0.021233	0.070719	0.089337	0.25057	0.15268	0.18857	0.066644	0.26176	0.082837	0.15837	0.023556	0.077983	0.037219	-2.3271	-3.0021	-2.5479	-2.7479	-2.8958	-2.6292	-2.9458	-2.825	-2.6104	-3.0667	-2.8333	-2.7313	-2.8729	-2.7875	-2.7833	-2.8979	306.849	315.156	154.952	470.686	254.426	268.026	434.230	419.423	250.692	356.308	187.505	492.299	505.925	299.768	430.887	495.859	0.00010858	0.00024602	2.1481e-05	59.528	6.2005e-06	5.6576e-06	140.76	14.338	6.4065e-07	4.3239e-06	42.516	15.988	3.8613	1.318	1.7561e-06	7.0203	0.00043093	0.00054919	0.00014894	62.343	5.6703e-06	6.02e-06	122.61	13.403	5.7846e-06	5.9353e-06	38.793	14.229	3.8854	1.3446	5.8948e-06	6.3953	240.194	433.970	282.157	157.544	380.894	485.596	158.140	163.941	484.368	369.298	163.604	169.042	168.841	174.375	177.415	172.738	-8191	255	
18914.078	1	1	0	0	0.16757	0.085624	0.26262	0.2979	0.13676	0.24381	0.14452	0.040407	0.19224	0.12939	0.071103	0.0060069	0.18404	0.19338	0.25986	0.26524	-2.1104	-3.0396	-2.6188	-2.6146	-2.9813	-2.65	-2.9583	-2.8542	-2.7229	-3.0854	-2.5563	-2.8208	-2.95	-2.625	-2.8354	-2.9333	329.310	460.301	416.782	298.065	161.827	290.143	164.813	321.891	382.734	462.856	315.829	323.072	423.912	358.002	428.000	334.118	7.2884e-06	0.0005564	9.6582e-05	61.41	2.9427e-06	4.1404e-06	140.56	13.784	8.2354e-07	3.7516e-06	43.045	15.809	3.7292	1.2853	1.8644e-06	7.0999	0.00041325	0.0005499	0.00014146	63.215	5.6706e-06	5.9364e-06	121.88	13.138	5.6507e-06	6.1611e-06	38.714	14.051	3.7864	1.3071	5.6094e-06	6.3192	205.701	319.770	190.773	162.075	433.059	371.096	158.888	163.079	147.125	184.990	163.936	169.763	168.073	172.915	294.196	172.451	-8191	255	
18914.174	1	1	0	0	0.08866	0.2113	0.1017	0.30095	0.23191	0.12742	0.032274	0.070049	0.2039	0.26872	0.17177	0.10675	0.16042	0.049386	0.34349	0.24048	-2.2417	-2.9771	-2.7875	-2.5979	-2.8833	-2.6875	-2.8083	-2.7646	-2.4958	-3.1	-2.8021	-2.5479	-3.0417	-2.6604	-2.9437	-3.1083	269.826	363.829	151.790	385.869	438.882	420.470	238.310	183.373	423.317	453.116	257.026	496.748	359.053	244.268	282.265	339.279	5.3609e-05	0.0003277	4.4807e-05	55.168	2.1272e-06	4.5839e-06	140.32	13.52	3.0979e-06	2.5622e-06	42.999	15.925	3.6624	1.2567	1.5612e-06	7.0094	0.0004258	0.000544	0.00014372	60.721	5.7176e-06	5.9334e-06	122.49	13.068	5.7453e-06	6.2763e-06	38.525	14.282	3.8282	1.3404	5.7213e-06	6.3824	300.627	210.301	259.542	158.867	430.047	178.189	158.329	162.701	330.688	425.461	162.624	168.724	168.679	173.935	395.590	171.840	-8191	255	
18914.270	1	1	0	0	0.097005	0.1494	0.20905	0.22368	0.010977	0.084221	0.12016	0.058871	0.18703	0.072118	0.33028	0.19125	0.11904	0.24335	0.26243	0.30966	-2.1458	-2.8208	-2.775	-2.5292	-2.9208	-2.8104	-2.8187	-3.1312	-2.5312	-3.025	-2.7562	-2.6125	-2.9708	-2.6229	-2.95	-2.8354	307.068	485.366	392.530	409.299	340.405	337.779	241.456	159.001	195.570	269.829	346.997	443.993	215.613	319.798	495.881	500.527	9.3731e-05	6.0457e-05	0.00021015	59.078	6.9664e-06	3.7396e-06	139.69	13.807	2.9855e-06	4.4534e-06	42.698	15.453	3.8217	1.3036	4.1037e-06	6.8766	0.00044011	0.00056169	0.00014939	63.203	6.1486e-06	5.9141e-06	121.12	13.12	5.775e-06	5.9853e-06	38.66	14.123	3.903	1.3344	5.8545e-06	6.3231	250.071	160.626	191.223	160.791	413.690	363.947	158.017	165.038	391.306	346.828	161.508	168.872	169.556	171.973	445.673	173.458	-8191	255	
18914.365	1	1	0	0	0.23669	0.18946	0.10776	0.12571	0.28287	0.23773	0.42116	0.14892	0.26606	0.096834	0.25438	0.21719	0.15781	0.23792	0.18284	0.13553	-2.2438	-2.9021	-2.8958	-2.6875	-2.8854	-2.7687	-2.6917	-2.8125	-2.5167	-3.2833	-2.9188	-2.6771	-2.9813	-2.8	-2.8042	-3.0708	459.308	320.253	220.775	215.845	210.245	152.389	355.319	330.643	188.159	307.184	433.738	315.823	154.270	395.310	359.304	162.110	4.8062e-05	8.2493e-05	8.5058e-05	62.792	5.6682e-06	2.0474e-06	140.09	13.656	2.9778e-06	3.2965e-06	43.751	15.56	3.5973	1.2714	5.3089e-06	7.1761	0.00041111	0.00055212	0.00014891	63.682	5.8435e-06	6.0149e-06	122.39	13.347	5.8114e-06	6.0403e-06	39.27	14.152	3.8673	1.3483	6.2681e-06	6.4526	258.425	378.745	479.371	158.603	353.281	262.596	158.580	163.741	305.917	151.445	162.973	169.277	168.833	171.566	359.784	171.974	-8191	255	
18914.463	1	1	0	0	0.21545	0.12784	0.18971	0.21624	0.044227	0.29098	0.14824	0.18079	0.15347	0.12228	0.20425	0.1107	0.15995	0.16692	0.048304	0.084485	-2.1833	-2.9813	-2.7542	-2.5771	-2.8521	-2.8229	-2.7542	-2.7667	-2.6792	-2.9188	-2.8708	-2.7167	-2.6896	-2.6583	-2.6833	-3.0563	351.785	445.402	349.251	483.995	155.612	489.027	298.747	204.640	480.732	161.738	223.954	426.695	342.320	348.734	341.432	176.549	0.00011151	0.000315	1.4042e-05	60.422	1.9593e-06	3.951e-06	141.22	13.951	2.1936e-06	4.5474e-06	43.159	15.838	3.7431	1.3303	3.0382e-06	7.0888	0.00044079	0.00056671	0.00015392	62.925	5.9886e-06	5.9369e-06	123.57	13.383	5.7282e-06	6.0674e-06	39.15	14.39	3.84	1.3732	6.0286e-06	6.4607	262.208	220.756	299.041	159.675	474.460	404.817	158.016	163.271	434.730	379.745	160.995	169.125	167.020	173.843	333.458	171.905	-8191	255	
18914.559	1	1	0	0	0.18003	0.025979	0.12843	0.067782	0.42762	0.21925	0.15151	0.31713	0.079756	0.10849	0.21296	0.097957	0.13018	0.10833	0.2411	0.19235	-2.2625	-2.775	-2.8229	-2.5625	-2.9833	-2.9333	-2.6271	-2.9646	-2.8333	-2.7562	-3.0083	-2.5771	-2.7979	-2.8417	-2.6875	-2.8521	268.870	278.515	471.977	481.398	163.860	309.569	309.615	297.893	395.926	361.781	324.436	329.925	467.781	408.720	222.131	359.705	9.5322e-05	0.00030889	0.00012008	58.566	5.7316e-06	6.5515e-07	142.88	14.691	4.1649e-06	3.7722e-06	43.812	15.903	3.8509	1.3671	1.7146e-06	7.2825	0.00043503	0.00052963	0.00014483	63.288	5.7656e-06	6.0551e-06	123.8	13.593	5.4936e-06	6.0401e-06	39.162	14.437	3.8744	1.3826	5.8777e-06	6.4998	272.463	293.353	474.100	160.118	329.143	252.599	157.884	162.287	286.726	300.289	163.592	168.216	168.716	172.899	421.423	171.893	-8191	255	
18914.654	1	1	0	0	0.10621	0.25877	0.24262	0.10381	0.14156	0.29947	0.0055551	0.10566	0.14688	0.11401	0.12184	0.24113	0.07733	0.088991	0.18242	0.05471	-2.4604	-2.6979	-2.925	-2.7062	-3.0458	-2.9688	-2.5333	-3.0146	-2.7479	-2.6688	-2.8688	-2.7562	-2.875	-3.0542	-2.6417	-2.8896	443.550	199.398	436.789	310.171	458.436	399.123	316.168	324.226	495.974	189.666	254.530	427.514	223.331	232.486	467.418	299.635	5.2854e-05	0.00022482	5.6863e-05	57.02	3.5826e-06	2.5406e-06	140.64	14.458	2.9945e-07	1.1489e-06	43.036	15.996	3.7864	1.2576	2.8327e-06	7.071	0.00042339	0.00054465	0.0001628	61.917	6.0024e-06	6.1422e-06	123.26	13.566	5.6521e-06	6.0036e-06	38.497	14.242	3.8804	1.354	5.6823e-06	6.4357	278.500	313.557	454.111	155.399	288.296	416.636	158.284	163.948	328.911	349.060	164.372	168.240	168.444	173.261	231.765	172.036	-8191	255	
18914.773	1	1	0	0	0.11061	0.098433	0.06454	0.16935	0.13511	0.23961	0.2966	0.14308	0.14226	0.24755	0.3232	0.33137	0.088743	0.17872	0.082978	0.18341	-2.4646	-2.625	-2.8271	-2.8292	-2.8063	-2.9625	-2.5729	-2.8792	-2.9354	-2.7646	-2.8937	-2.7438	-2.6312	-2.9979	-2.6292	-2.7687	235.334	459.567	498.880	464.997	197.609	216.903	403.930	206.873	372.232	492.605	442.679	162.323	410.917	495.559	386.072	206.518	5.0898e-05	6.4261e-05	0.00012698	57.795	4.205e-06	3.3225e-06	140.13	14.115	2.0234e-06	5.5324e-06	43.39	16.047	3.7344	1.3009	3.128e-06	7.1918	0.00041482	0.00054298	0.00015727	62.65	5.7664e-06	5.9898e-06	122.2	13.505	5.7703e-06	6.0213e-06	38.981	14.346	3.7824	1.3684	5.8615e-06	6.513	253.604	255.168	291.127	161.030	349.268	337.869	157.725	162.098	225.602	398.585	163.858	168.741	168.640	173.565	247.777	172.744	-8191	255	
18914.869	1	1	0	0	0.28212	0.24006	0.17621	0.023621	0.22134	0.063867	0.25971	0.16827	0.35495	0.27172	0.10023	0.28347	0.075502	0.20262	0.16324	0.030284	-2.4813	-2.6146	-2.875	-2.6521	-2.7604	-2.9729	-2.4604	-2.8937	-2.7521	-2.6292	-2.9958	-2.475	-2.6604	-2.8667	-2.7	-2.825	403.928	468.105	371.831	297.386	323.985	489.126	436.461	419.975	465.252	423.588	295.415	200.683	333.300	280.613	466.120	201.885	0.00010762	0.00026551	5.8465e-05	60.402	5.3066e-07	7.6696e-06	141.16	13.779	3.5871e-06	4.152e-06	44.568	15.989	3.7412	1.3884	3.5708e-06	7.4524	0.00044579	0.00053167	0.00015591	63.855	5.8981e-06	6.1465e-06	123.65	13.612	5.7062e-06	6.0325e-06	39.935	14.443	3.9104	1.4078	5.9913e-06	6.5903	290.445	190.615	172.888	158.879	424.817	325.651	158.904	162.973	286.104	152.745	163.747	169.594	168.214	172.676	301.252	171.822	-8191	255	
18914.967	1	1	0	0	0.044139	0.069702	0.18864	0.052034	0.15615	0.10462	0.42401	0.10414	0.085655	0.10047	0.094301	0.13463	0.0093756	0.136	0.15064	0.41946	-2.3833	-2.5062	-2.8125	-2.8208	-2.7354	-3.025	-2.5125	-2.7938	-2.9521	-2.6562	-2.7708	-2.6646	-2.675	-3.0125	-2.6896	-2.6937	213.567	353.702	206.487	214.513	194.413	293.453	414.963	293.797	404.229	195.453	151.948	448.755	417.212	403.512	495.159	161.662	0.00012629	0.00011031	4.1058e-05	61.293	1.168e-06	4.8082e-06	140.42	14.601	1.109e-06	2.4762e-06	43.855	15.941	3.8163	1.3138	1.8972e-06	7.2184	0.00044319	0.000544	0.00015123	63.326	5.858e-06	5.8418e-06	123.26	13.559	5.7667e-06	5.8752e-06	39.628	14.331	3.8843	1.3758	5.5052e-06	6.5108	261.169	310.089	273.136	158.235	368.919	435.139	158.350	163.235	292.081	220.552	162.462	168.256	165.594	173.386	191.163	172.122	-8191	255	
18915.062	1	1	0	0	0.12122	0.15224	0.19696	0.15686	0.088855	0.26718	0.043528	0.045982	0.17344	0.16626	0.25715	0.13903	0.22376	0.17538	0.22337	0.18775	-2.55	-2.6229	-2.8625	-2.5875	-2.8229	-2.8417	-2.6979	-2.8958	-2.8458	-2.7812	-2.8271	-2.8208	-2.7583	-2.925	-2.5417	-2.65	315.517	476.738	497.276	493.851	434.782	302.363	299.367	422.612	219.021	258.688	184.171	417.703	298.551	477.638	212.640	272.537	6.2475e-05	0.00034997	8.1449e-05	58.131	6.1659e-06	2.6793e-06	140.6	13.701	2.7005e-06	4.5668e-06	42.421	15.329	3.7904	1.2521	2.93e-06	7.0391	0.00043317	0.00052869	0.00014693	61.728	5.6501e-06	5.6131e-06	122.3	13.097	5.2842e-06	5.5549e-06	38.176	13.817	3.7378	1.3139	5.3085e-06	6.3037	304.410	338.236	428.902	156.773	277.146	282.490	158.566	164.162	330.915	505.552	163.789	170.344	167.033	172.711	353.527	173.179	-8191	255	
18915.158	1	1	0	0	0.3416	0.13543	0.20855	0.10761	0.14854	0.25997	0.075105	0.062126	0.13829	0.1047	0.14774	0.18575	0.081908	0.18626	0.19335	0.29571	-2.4458	-2.5792	-2.8833	-2.6813	-2.575	-3.0271	-2.6958	-2.7458	-3.0563	-2.6875	-2.8896	-2.8896	-2.6375	-2.7896	-2.725	-2.7333	473.022	284.967	281.347	473.659	407.563	184.158	369.850	183.419	384.062	356.175	389.985	431.736	469.382	158.774	472.448	495.401	0.00011169	0.00014564	3.441e-05	54.606	2.5803e-06	3.1866e-06	141.35	14.251	1.2951e-06	9.4629e-07	42.056	15.761	3.6139	1.3207	2.0639e-06	7.0264	0.00039569	0.00051272	0.00014279	60.509	5.226e-06	5.3195e-06	122.92	13.37	5.5907e-06	5.3522e-06	38.474	14.024	3.7509	1.3174	5.5453e-06	6.3681	264.616	472.321	492.299	159.271	227.313	313.339	159.041	163.586	476.174	460.743	162.335	168.411	165.479	171.601	434.675	172.694	-8191	255	
18915.256	1	1	0	0	0.13217	0.091525	0.13747	0.18047	0.2433	0.14921	0.15868	0.048797	0.22918	0.16709	0.10101	0.17682	0.1845	0.14626	0.18035	0.17467	-2.4833	-2.7583	-2.7812	-2.9729	-2.7146	-2.8104	-2.8042	-2.6625	-2.8563	-2.6792	-2.7646	-2.8646	-2.6146	-2.7542	-2.8271	-2.7833	453.096	383.452	185.439	452.336	240.798	323.814	178.178	505.598	201.731	232.143	400.033	426.473	478.604	449.179	333.918	430.111	0.00012988	0.00021464	0.00010768	57.237	1.4952e-06	4.3725e-06	141.05	14.693	3.724e-06	2.9258e-06	43.14	15.704	3.7572	1.3212	1.2945e-06	7.0483	0.00041074	0.00049916	0.00014966	61.303	5.6098e-06	5.7251e-06	122.54	13.537	5.3607e-06	5.342e-06	38.939	14.178	3.7861	1.3635	5.9026e-06	6.3934	258.612	409.962	172.379	156.850	265.388	196.805	158.781	163.914	179.688	375.171	162.759	168.645	169.170	172.604	195.472	171.438	-8191	255	
18915.352	1	1	0	0	0.12051	0.13625	0.20872	0.099595	0.23891	0.29532	0.06865	0.25087	0.33168	0.13165	0.13732	0.03566	0.15816	0.13255	0.2068	0.18435	-2.6396	-2.7771	-2.7583	-2.8583	-2.5938	-3.0208	-2.8417	-2.5646	-2.8375	-2.7167	-2.6583	-2.9021	-2.5167	-2.7687	-2.8292	-2.6104	435.304	392.193	158.682	405.184	263.190	484.893	395.763	494.485	310.542	292.459	420.624	347.975	398.593	481.913	369.501	347.420	0.00010661	0.00022232	0.00010116	60.606	2.9323e-06	3.8746e-06	142.12	14.607	2.2739e-06	3.2064e-06	43.53	15.674	3.6889	1.3067	1.5758e-06	7.1427	0.00039506	0.00051262	0.00014318	62.718	5.3261e-06	5.6553e-06	124.11	13.591	5.3763e-06	5.8153e-06	38.861	14.147	3.7981	1.333	5.791e-06	6.4126	250.272	225.358	298.040	155.832	405.096	253.020	157.855	161.544	462.055	231.934	162.540	168.344	172.036	173.285	213.802	172.303	-8191	255	
18915.447	1	1	0	0	0.21662	0.3413	0.1914	0.3053	0.30261	0.37911	0.11856	0.1024	0.3547	0.10948	0.26849	0.29626	0.20945	0.12723	0.17342	0.023277	-2.5104	-2.5938	-2.7146	-2.9542	-2.55	-2.8583	-2.6896	-2.7104	-2.8917	-2.7958	-2.7062	-3.075	-2.725	-2.8042	-3.0125	-2.6188	408.102	427.387	242.581	399.996	180.530	233.069	226.448	426.869	249.334	264.045	215.164	471.960	145.716	493.279	483.992	464.731	0.00012903	0.00038885	0.00011829	59.526	1.7023e-06	1.1325e-06	138.49	13.959	6.6867e-07	2.5311e-06	43.077	15.721	3.7485	1.3438	3.244e-06	6.9918	0.00040784	0.00053232	0.00015617	62.952	5.6872e-06	5.9738e-06	122.58	13.284	5.1708e-06	5.7784e-06	38.473	14.12	3.7672	1.3431	5.7098e-06	6.3161	274.910	480.497	445.753	157.426	299.062	323.916	158.634	163.120	153.096	347.006	162.980	168.190	167.188	171.314	381.389	172.411	-8191	255	
18915.568	1	1	0	0	0.2428	0.13281	0.16125	0.14557	0.045438	0.09457	0.045224	0.08175	0.095404	0.053124	0.089621	0.03488	0.35845	0.039325	0.16388	0.26168	-2.5104	-2.8417	-2.4792	-2.9938	-2.5687	-2.8083	-3.0187	-2.5021	-2.8438	-2.8875	-2.65	-2.8708	-2.5646	-2.8104	-3.0312	-2.5875	342.563	427.876	310.923	461.653	446.830	274.770	377.948	145.586	260.447	150.912	204.518	462.617	221.347	152.860	430.616	249.872	2.8738e-05	0.0001333	0.00014789	58.088	4.9118e-06	3.6542e-06	140.63	13.965	6.4397e-07	2.229e-06	42.136	15.77	3.7344	1.3228	1.6917e-06	6.9426	0.00042224	0.00053511	0.00014986	61.951	5.6092e-06	5.9299e-06	123.08	13.254	5.8699e-06	5.8044e-06	38.696	14.228	3.8365	1.3604	5.9327e-06	6.3512	245.145	450.312	422.781	157.440	293.670	448.383	158.226	163.400	171.890	245.563	162.549	167.620	167.505	171.542	230.185	173.222	-8191	255	
18915.664	1	1	0	0	0.030089	0.23892	0.25976	0.19123	0.15609	0.2764	0.076637	0.123	0.14342	0.30557	0.23416	0.081139	0.18872	0.23872	0.2252	0.28041	-2.3708	-2.7062	-2.4604	-2.8896	-2.8958	-2.6771	-2.9938	-2.3458	-2.7146	-2.9354	-2.575	-2.7417	-2.6833	-2.6188	-3.0083	-2.5958	430.350	448.806	221.993	178.153	273.020	353.684	331.768	436.426	158.679	454.131	219.815	237.010	488.023	305.469	258.760	504.608	8.8783e-05	0.00018979	7.4012e-05	59.582	2.8192e-06	3.5252e-06	141.98	14.283	3.7725e-06	1.5087e-06	43.049	16.181	3.6377	1.2467	4.59e-06	7.2042	0.0004179	0.00054528	0.00015417	63.355	5.564e-06	6.1465e-06	122.8	13.338	5.8572e-06	6.1496e-06	39.172	14.226	3.7901	1.3311	5.921e-06	6.448	249.655	309.720	493.753	158.281	430.021	350.085	158.091	163.737	285.263	393.129	163.790	168.499	166.805	169.896	266.992	173.756	-8191	255	
18915.760	1	1	0	0	0.14966	0.065657	0.27252	0.21334	0.2005	0.15613	0.085707	0.29455	0.17212	0.065387	0.15951	0.065186	0.27798	0.14986	0.21542	0.13814	-2.3521	-2.8042	-2.6229	-2.9292	-2.725	-2.7562	-2.8292	-2.6208	-2.9396	-2.9083	-2.5729	-2.8708	-2.7875	-2.6312	-3.1437	-2.8187	317.655	381.540	390.586	381.213	160.252	337.750	439.209	468.679	443.774	157.321	393.055	439.770	378.461	300.356	165.844	493.173	0.0001266	0.00043302	0.00017928	57.075	1.443e-06	3.9401e-06	139.26	14.023	4.3223e-07	8.2366e-07	41.749	15.685	3.6855	1.3417	4.4022e-06	6.9431	0.00044468	0.0005408	0.00015121	62.423	5.7602e-06	5.9681e-06	122.01	13.221	5.6906e-06	5.965e-06	38.603	14.206	3.812	1.3569	5.7782e-06	6.2996	249.268	415.497	168.151	158.100	316.164	244.065	158.178	163.584	256.639	492.182	164.018	169.485	169.420	171.143	195.544	173.534	-8191	255	
18915.854	1	1	0	0	0.20832	0.14732	0.11262	0.19921	0.28749	0.22947	0.033398	0.043803	0.07749	0.22012	0.085942	0.16265	0.16474	0.048165	0.031487	0.27065	-2.3396	-3.0208	-2.725	-2.8375	-2.8812	-2.5646	-3.0146	-2.6792	-2.9125	-2.9979	-2.6896	-2.8312	-2.9313	-2.5729	-3.1063	-2.7812	434.011	393.767	156.477	496.874	351.731	177.735	444.035	310.599	179.051	317.449	182.937	321.797	461.554	212.635	247.461	475.481	0.00010231	3.5062e-05	4.8444e-05	60.329	7.0918e-07	2.0896e-06	139.61	13.998	2.5112e-06	7.4187e-07	41.936	15.433	3.6232	1.1976	3.1054e-06	7.0425	0.00041776	0.00050146	0.0001396	63.431	5.7029e-06	5.706e-06	121.53	13.259	5.508e-06	5.9527e-06	38.49	14.014	3.7672	1.2927	5.8984e-06	6.3029	243.610	321.798	479.560	157.242	276.474	442.666	158.327	163.102	440.295	260.619	163.653	169.005	168.819	174.127	492.659	172.507	-8191	255	
18915.949	1	1	0	0	0.18442	0.31498	0.030296	0.14415	0.17519	0.16008	0.18283	0.19315	0.21861	0.16163	0.017692	0.17359	0.12926	0.19007	0.093264	0.32965	-2.4271	-2.8521	-2.6792	-2.7625	-2.8375	-2.7021	-3.0062	-2.6458	-2.7687	-3.1604	-2.7354	-2.8271	-2.9792	-2.3792	-2.8563	-2.7771	399.732	245.609	457.741	447.488	284.239	343.281	268.640	415.134	422.123	207.820	442.680	281.499	235.529	352.515	432.831	342.374	0.00010138	7.9799e-05	0.00019622	59.005	2.5012e-06	2.6169e-06	140.15	13.518	3.0448e-06	1.8907e-06	42.333	15.379	3.6571	1.2704	1.2327e-06	6.9741	0.00043821	0.00053061	0.00014412	62.64	5.7973e-06	5.7884e-06	122.25	13.13	5.6346e-06	5.9106e-06	38.405	13.945	3.7365	1.3194	5.6876e-06	6.2742	248.135	404.534	304.698	158.201	172.288	448.840	157.754	164.279	292.392	432.922	163.257	169.700	168.149	172.590	445.758	172.442	-8191	255	
18916.049	1	1	0	0	0.13725	0.061564	0.19789	0.19121	0.14511	0.15912	0.33038	0.29265	0.30617	0.098123	0.10714	0.13035	0.14708	0.11579	0.24746	0.1353	-2.2375	-2.9729	-2.6292	-2.8021	-2.8604	-2.7479	-3.0083	-2.8354	-2.7292	-2.8917	-2.6604	-2.8042	-2.9958	-2.6583	-2.9729	-2.8208	235.236	144.385	489.254	225.174	165.434	447.574	396.030	284.420	500.158	268.128	476.020	455.500	460.565	241.948	242.210	188.455	8.9499e-05	0.00012461	4.8607e-05	59.667	4.5236e-06	4.9305e-06	139.88	13.155	5.648e-07	3.4357e-06	42.956	15.786	3.6957	1.3124	4.8473e-07	7.1109	0.0004358	0.00053771	0.00014847	62.616	5.7498e-06	5.8429e-06	121.72	13.086	5.947e-06	5.9167e-06	38.928	14.194	3.8703	1.3622	6.5081e-06	6.3625	259.674	451.006	186.118	158.728	319.750	144.505	158.184	162.215	262.949	289.352	162.888	168.746	167.391	173.943	405.421	172.211	-8191	255	
18916.168	1	1	0	0	0.27362	0.023351	0.10028	0.18231	0.097955	0.084142	0.27166	0.072122	0.15986	0.16839	0.07778	0.13265	0.34367	0.085529	0.14408	0.17844	-2.1667	-3.1312	-2.6354	-2.8688	-2.9292	-2.6063	-2.8771	-2.8187	-2.6958	-3.1229	-2.4667	-2.7	-2.8708	-2.5521	-2.8417	-2.9938	277.166	292.193	331.619	191.017	407.473	259.759	264.772	309.665	497.430	189.129	166.685	199.799	379.198	251.740	168.627	298.392	9.3414e-06	0.00019531	4.6838e-05	59.799	1.7783e-06	4.9898e-06	139.11	14.07	2.2151e-06	6.0451e-06	43.792	15.754	3.7254	1.2952	2.0796e-06	6.991	0.00045173	0.00055448	0.00015733	64.224	6.2353e-06	6.4974e-06	122.38	13.529	6.0286e-06	6.7062e-06	39.224	14.365	3.8982	1.3598	6.5441e-06	6.4301	216.506	169.868	429.629	157.032	149.312	160.614	159.433	162.629	417.212	330.685	163.460	168.849	168.222	173.252	311.448	173.379	-8191	255	
18916.264	1	1	0	0	0.12426	0.17168	0.16545	0.16539	0.070323	0.18316	0.14908	0.11875	0.24098	0.12377	0.23136	0.15993	0.23249	0.11227	0.035159	0.20199	-2.1646	-2.9604	-2.7375	-2.55	-3.1875	-2.8667	-2.8708	-2.8229	-2.5187	-2.9354	-2.5979	-2.7271	-3.1146	-2.5854	-2.7625	-2.9125	148.156	417.202	330.147	365.226	275.460	451.843	345.003	306.699	313.073	435.329	435.793	157.227	300.394	200.734	239.155	217.374	7.4702e-05	0.00073452	2.8792e-05	60.686	7.0662e-06	5.396e-06	137.68	14.213	2.6028e-06	1.6375e-06	41.593	15.647	3.6455	1.2964	2.5985e-06	6.9207	0.00045727	0.00057911	0.00016509	63.828	6.3686e-06	6.3286e-06	122.13	13.376	5.5993e-06	6.5045e-06	38.44	13.966	3.7995	1.3348	6.2549e-06	6.2623	252.162	176.162	304.509	156.764	252.695	340.487	158.113	162.838	158.054	192.995	164.357	169.279	168.658	172.553	268.374	172.210	-8191	255	
18916.359	1	1	0	0	0.023726	0.33172	0.19983	0.20733	0.10266	0.20877	0.069198	0.069442	0.14126	0.03751	0.35074	0.2032	0.13742	0.22324	0.17899	0.058114	-2.1688	-2.8146	-2.6083	-2.6354	-3.0875	-2.8396	-2.9271	-3.0042	-2.6188	-2.8667	-2.8063	-2.7125	-3.1729	-2.6312	-2.8083	-3.0625	339.044	250.979	248.877	362.178	168.363	297.791	152.824	279.289	277.936	476.359	181.862	478.168	218.685	147.989	171.947	334.213	7.0449e-05	0.00036793	5.2169e-05	63.633	1.7001e-06	4.6354e-06	137.35	13.256	1.0263e-06	3.2089e-06	42.229	15.123	3.6432	1.2398	3.3331e-06	6.8824	0.00043124	0.00055184	0.00015874	64.254	6.2598e-06	6.0429e-06	121.46	13.054	5.8984e-06	6.7269e-06	38.206	13.927	3.9189	1.3595	6.4855e-06	6.3906	240.432	271.392	156.094	158.341	247.456	229.270	159.225	163.671	354.471	426.229	163.710	169.663	166.894	173.868	147.656	172.061	-8191	255	
18916.455	1	1	0	0	0.20631	0.094079	0.26347	0.05925	0.25251	0.33533	0.20207	0.23475	0.16722	0.15968	0.1337	0.041428	0.19849	0.063165	0.36335	0.13476	-2.1104	-2.8396	-2.8042	-2.8208	-3.1979	-2.7729	-2.6417	-3.0042	-2.6542	-2.9292	-2.9146	-2.8063	-3.2062	-2.9	-2.7562	-3.0438	438.255	258.573	383.177	285.969	287.704	480.963	439.944	224.513	421.811	357.069	320.170	399.301	373.817	348.747	407.617	369.531	9.9707e-05	5.329e-05	0.00010018	61.255	2.4786e-06	6.0437e-07	146.28	14.257	3.7818e-06	4.4703e-06	45.101	16.304	4.0092	1.3333	6.3672e-06	7.4221	0.00046576	0.00061462	0.00017672	66.025	6.9265e-06	6.9368e-06	126.82	13.737	6.8421e-06	7.5144e-06	41.01	14.691	4.247	1.4542	7.4843e-06	6.7783	241.144	170.741	239.017	156.467	475.805	464.085	158.781	162.792	160.878	420.363	162.813	169.061	168.196	174.283	332.399	172.946	-8191	255	
18916.553	1	1	0	0	0.11969	0.080703	0.13726	0.1589	0.23703	0.0090701	0.18834	0.16292	0.17569	0.077965	0.05393	0.085507	0.090321	0.11848	0.23701	0.16198	-2.3333	-2.7667	-2.9646	-2.5312	-2.9375	-2.7875	-2.6771	-2.9479	-2.7146	-2.675	-2.975	-2.6604	-3.0271	-2.8438	-2.7	-3.1708	420.743	322.664	435.276	357.269	283.735	422.766	374.649	206.344	406.540	249.894	209.749	394.640	318.575	449.108	207.498	400.780	0.00010048	9.1229e-05	6.6247e-05	63.094	2.222e-06	4.2959e-06	147.19	14.82	2.5487e-06	5.2372e-06	44.521	16.37	3.899	1.3524	1.4768e-06	7.3347	0.00052039	0.00066255	0.00018216	67.591	7.043e-06	6.8828e-06	129.19	14.04	6.8337e-06	7.5944e-06	40.683	14.875	4.1494	1.4636	6.9826e-06	6.6466	268.185	482.824	201.605	158.344	502.485	488.356	158.975	162.020	441.110	457.615	164.104	170.135	170.165	172.584	347.697	172.153	-8191	255	
18916.648	1	1	0	0	0.097551	0.069713	0.15745	0.11149	0.22724	0.20394	0.33203	0.28737	0.20017	0.094489	0.062723	0.11139	0.15967	0.024433	0.27	0.16489	-2.2208	-2.8396	-2.925	-2.7438	-2.8875	-2.7958	-2.5875	-3.0458	-2.7417	-2.8583	-3.1333	-2.7229	-3	-2.9062	-2.7958	-3.0292	269.887	279.698	187.802	405.065	390.863	343.211	427.139	231.150	394.822	404.302	459.402	478.881	408.708	361.207	236.688	457.121	8.9852e-05	0.00050377	2.1304e-05	63.041	2.2876e-06	2.2494e-06	143.19	14.303	3.5916e-06	7.5671e-06	43.455	15.904	3.8945	1.2907	4.2457e-06	7.2107	0.00050454	0.00062816	0.00017726	67.197	7.2601e-06	7.2317e-06	125.2	13.897	6.951e-06	7.2049e-06	39.953	14.347	4.026	1.3888	6.4469e-06	6.4613	305.110	337.068	300.384	157.948	277.258	149.665	158.353	162.918	439.013	184.913	162.901	167.521	166.020	172.977	290.212	173.155	-8191	255	
18916.744	1	1	0	0	0.15424	0.13876	0.24072	0.13847	0.20965	0.15147	0.055632	0.24633	0.23653	0.15204	0.14944	0.19041	0.23393	0.041637	0.27411	0.11255	-2.2896	-2.9021	-2.9375	-2.6312	-2.8167	-2.9042	-2.5604	-2.8667	-2.8375	-2.7896	-3.1813	-2.5625	-2.8917	-2.9313	-2.6292	-2.9792	478.043	458.128	390.572	220.773	183.802	293.420	283.593	471.845	235.699	497.825	247.535	461.952	385.612	221.068	192.457	358.154	4.4374e-05	0.00032108	8.6732e-05	60.256	3.8872e-06	2.5333e-06	141.97	13.564	2.3658e-06	3.295e-06	42.529	15.883	3.6735	1.2564	2.6526e-06	7.0498	0.00049366	0.00060074	0.00017132	66.285	6.7689e-06	6.8961e-06	125.07	13.399	6.4872e-06	6.9447e-06	39.487	14.308	3.991	1.3696	6.7898e-06	6.4696	201.488	160.077	260.560	156.888	384.940	303.510	158.939	163.782	486.745	427.458	163.456	168.758	169.182	173.811	487.293	172.745	-8191	255	
18916.840	1	1	0	0	0.18037	0.027961	0.15898	0.123	0.06936	0.19893	0.092839	0.15813	0.090513	0.040258	0.20153	0.20954	0.32483	0.1237	0.11244	0.091804	-2.3125	-2.7042	-3.0354	-2.7167	-2.9875	-2.9229	-2.6417	-3.0229	-2.8563	-2.7	-3.0146	-2.675	-2.9042	-2.7812	-2.4479	-3	331.366	220.570	226.044	303.353	349.369	452.921	499.257	364.637	232.776	489.376	428.926	316.811	184.443	186.428	159.758	169.624	0.00010417	0.00033072	0.0001078	63.535	2.5562e-06	3.4906e-06	144.45	14.436	3.5083e-06	2.1575e-06	43.907	16.076	3.6661	1.2923	6.7849e-06	7.1684	0.00050831	0.00063854	0.00017678	68.506	7.4141e-06	7.0161e-06	127.36	14.003	7.1439e-06	7.3041e-06	40.338	14.702	4.0682	1.4447	7.4018e-06	6.6162	252.776	388.883	415.134	157.300	429.526	425.617	158.819	163.655	280.196	401.577	162.475	169.048	169.942	173.134	197.091	172.973	-8191	255	
18916.959	1	1	0	0	0.14197	0.15243	0.22846	0.17038	0.074252	0.10284	0.21572	0.15433	0.23082	0.18707	0.093441	0.19991	0.28154	0.14749	0.073069	0.078385	-2.3063	-2.6271	-2.8208	-2.6188	-2.7104	-2.9583	-2.6042	-2.8312	-2.8021	-2.6625	-2.9875	-2.8187	-2.675	-2.9479	-2.8646	-2.9562	389.322	206.102	191.824	171.359	438.654	291.417	453.789	428.369	210.387	398.433	489.073	170.365	469.933	249.390	208.519	436.631	8.7147e-05	5.6228e-05	5.3727e-05	63.102	2.2266e-06	3.1708e-06	142.35	14.319	2.2613e-06	1.4197e-06	43.714	15.724	3.8189	1.2729	3.0386e-06	6.9345	0.00053271	0.00067983	0.0001905	68.072	7.337e-06	7.3672e-06	126.99	14.023	6.9866e-06	6.7877e-06	39.538	14.495	4.0702	1.3951	7.2245e-06	6.4959	258.583	384.462	168.734	157.566	387.736	227.676	159.454	163.148	458.705	476.059	162.888	168.117	168.264	172.686	252.541	172.283	-8191	255	
18917.031	1	1	0	0	0.10715	0.15354	0.22086	0.26975	0.31081	0.19516	0.21791	0.055675	0.29398	0.34865	0.2129	0.1813	0.17142	0.11858	0.18259	0.17905	-2.4667	-2.5521	-2.8354	-2.7042	-2.7875	-3.1104	-2.8271	-2.9292	-2.8083	-2.7271	-3.0458	-2.55	-2.7396	-3.1375	-2.6188	-2.8187	173.284	397.919	447.582	378.014	441.874	435.299	377.062	457.317	303.659	348.100	428.270	335.555	450.411	251.054	337.812	193.226	4.0516e-05	0.00035388	6.051e-05	60.551	5.2832e-06	1.0283e-05	143.45	14.072	1.7812e-06	2.701e-06	43.133	15.699	3.6999	1.3039	5.9818e-07	6.9975	0.00052081	0.00065889	0.00019065	67.915	7.2273e-06	7.4682e-06	127.03	13.671	6.9866e-06	6.9877e-06	39.655	14.389	3.9801	1.3784	7.3969e-06	6.3583	259.992	341.305	329.866	157.245	506.529	320.402	158.280	166.786	425.580	325.706	164.215	168.161	167.761	171.971	319.646	172.649	-8191	255	
18917.129	1	1	0	0	0.11126	0.23025	0.27007	0.077143	0.22981	0.15245	0.33631	0.12021	0.15324	0.061808	0.13357	0.050368	0.11653	0.19093	0.49451	0.047252	-2.4917	-2.6083	-2.9562	-2.8958	-2.6104	-3.0771	-2.8312	-2.6854	-2.9938	-2.7458	-2.9938	-2.8563	-2.6917	-2.9396	-2.7479	-2.6271	461.199	482.541	302.372	157.597	177.672	174.706	276.780	450.686	199.911	227.403	495.595	172.106	494.654	265.031	450.155	448.576	5.9966e-05	0.00060877	0.00010641	60.798	1.8976e-06	3.2795e-06	142.07	13.345	5.4513e-06	5.2041e-06	42.205	15.126	3.7573	1.2347	7.3077e-06	6.9911	0.00051734	0.000671	0.00019067	67.19	7.2793e-06	7.4796e-06	126.08	13.522	6.9302e-06	7.5572e-06	39.105	14.162	3.9118	1.3843	7.487e-06	6.3565	291.146	279.687	236.407	160.198	334.746	191.450	159.088	164.718	434.950	324.939	163.014	168.103	169.733	172.950	331.070	173.084	-8191	255	
18917.248	1	1	0	0	0.22861	0.17021	0.043256	0.048629	0.16251	0.0051405	0.096044	0.10159	0.13974	0.22	0.18584	0.24005	0.18084	0.13201	0.2757	0.15252	-2.5729	-2.4896	-2.8979	-2.6688	-2.7146	-3.05	-2.6875	-2.7	-2.9979	-2.5729	-2.7438	-2.8937	-2.675	-2.9875	-2.5333	-2.6396	193.430	208.305	435.579	309.780	287.898	417.067	472.414	199.729	442.649	296.141	381.303	310.049	380.434	365.646	353.081	465.970	6.452e-05	0.00020499	0.00020386	58.594	1.2774e-06	1.424e-06	140.88	13.739	5.8874e-07	2.1315e-06	43.163	15.596	3.6802	1.2769	1.4566e-06	6.8625	0.00051006	0.00066931	0.00019882	68.504	7.4269e-06	8.0173e-06	124.37	13.396	7.0806e-06	7.32e-06	39.159	14.248	3.9408	1.3916	7.1765e-06	6.394	318.568	164.601	293.915	158.229	485.251	352.118	158.507	162.615	419.876	255.648	161.601	169.074	167.388	173.008	316.451	173.546	-8191	255	
18917.344	1	1	0	0	0.31506	0.021796	0.16321	0.060036	0.094157	0.2552	0.19217	0.11021	0.2366	0.078301	0.17905	0.044176	0.22061	0.22038	0.091502	0.27443	-2.575	-2.6937	-2.6042	-2.7042	-2.4771	-2.9562	-2.8187	-2.5938	-2.7625	-2.6542	-2.8833	-2.8646	-2.5417	-2.9333	-2.6771	-2.6271	184.459	356.322	224.201	232.803	408.776	360.162	355.552	319.070	179.750	202.463	256.767	336.059	377.191	245.007	285.261	380.056	3.1664e-05	0.00040162	0.00021433	62.506	7.207e-06	6.6743e-06	139.89	14.049	2.0285e-06	2.2772e-06	42.041	15.421	3.6696	1.3317	2.6471e-06	7.0742	0.00052934	0.00066017	0.00019924	68.811	7.3319e-06	8.034e-06	125.21	13.803	7.3252e-06	7.6628e-06	39.234	14.247	3.9955	1.4325	7.4278e-06	6.4733	222.294	225.877	276.364	156.074	203.098	424.439	158.873	163.476	299.011	148.054	163.203	169.039	167.019	173.776	224.307	172.808	-8191	255	
18917.439	1	1	0	0	0.13368	0.26488	0.35222	0.15277	0.064931	0.11935	0.16268	0.22302	0.071364	0.252	0.078726	0.26382	0.014223	0.18557	0.070482	0.1556	-2.5833	-2.55	-2.7438	-2.7938	-2.475	-2.8833	-2.8021	-2.675	-2.9604	-2.7208	-2.775	-2.875	-2.4375	-2.8	-2.8438	-2.6771	263.867	299.284	190.488	285.295	444.921	462.208	369.030	342.018	390.339	227.054	470.818	286.062	400.234	415.048	189.502	398.309	7.7047e-05	0.0003323	0.00015197	61.338	3.6812e-06	2.5217e-06	142.15	13.919	7.1809e-07	1.3774e-06	43.209	15.732	3.8226	1.278	6.3106e-07	7.0448	0.00054944	0.00072273	0.00019015	67.788	7.15e-06	8.067e-06	125.59	13.625	7.4388e-06	7.9398e-06	39.436	14.435	4.0676	1.4269	7.536e-06	6.4909	252.568	171.022	275.642	158.281	438.773	159.830	158.455	163.338	487.419	477.962	163.524	169.175	169.618	172.639	403.400	172.243	-8191	255	
18917.561	1	1	0	0	0.13122	0.081715	0.14464	0.16631	0.25313	0.38078	0.12083	0.15024	0.040258	0.10989	0.24726	0.13678	0.16637	0.13709	0.15216	0.17236	-2.5479	-2.7417	-2.5729	-2.8729	-2.5833	-2.9146	-2.8792	-2.7	-2.8958	-2.8	-2.4854	-3.0375	-2.5896	-2.8208	-3.0604	-2.6021	498.044	247.621	365.037	356.303	217.732	284.505	484.485	413.586	484.266	153.528	257.904	429.991	295.063	181.394	263.280	507.237	4.9772e-05	4.5498e-05	7.6013e-05	60.488	7.3715e-07	2.9354e-06	141.53	13.663	2.8347e-06	2.4561e-06	42.193	15.845	3.614	1.3029	6.2566e-06	7.1597	0.00054537	0.00070839	0.0001923	67.808	7.3677e-06	7.7528e-06	124.64	13.54	7.6628e-06	8.161e-06	38.865	14.367	4.0009	1.4467	7.5348e-06	6.5225	304.284	411.687	462.316	156.696	213.108	319.781	158.782	165.454	362.618	355.252	164.185	169.406	167.921	172.226	442.381	173.022	-8191	255	
18917.633	1	1	0	0	0.21376	0.064307	0.14775	0.07864	0.081825	0.11671	0.086522	0.12987	0.089228	0.18763	0.16316	0.21492	0.37495	0.19003	0.11967	0.18088	-2.5146	-2.8167	-2.7042	-2.7438	-2.7521	-2.7229	-2.9521	-2.6375	-2.8312	-2.775	-2.6271	-2.8729	-2.6167	-2.8229	-3.0687	-2.6667	189.413	255.732	434.367	383.849	220.513	325.857	493.572	286.773	327.935	383.200	215.159	247.710	472.868	190.021	375.195	361.197	6.8857e-05	0.00059478	5.2187e-05	60.37	5.2197e-06	4.7963e-06	139.7	13.618	5.5101e-07	6.872e-06	44.202	15.493	3.8576	1.2862	4.8232e-06	7.0815	0.00055703	0.00071512	0.00019237	67.395	7.9268e-06	8.147e-06	125.18	13.602	7.5863e-06	7.7632e-06	39.774	14.468	4.1528	1.4448	7.5056e-06	6.4647	260.275	383.794	240.749	158.057	312.214	356.479	158.434	163.980	316.791	325.782	162.554	168.575	168.607	173.306	265.277	172.455	-8191	255	
18917.729	1	1	0	0	0.12031	0.21589	0.066027	0.091502	0.031826	0.027348	0.16752	0.094451	0.058451	0.28221	0.021125	0.13957	0.14766	0.11458	0.064824	0.23446	-2.4792	-2.875	-2.5167	-3.0458	-2.7167	-2.675	-2.8812	-2.7521	-2.8896	-2.7125	-2.7479	-3.0125	-2.6958	-2.6458	-2.9729	-2.7667	258.454	217.179	266.078	481.757	357.266	165.165	471.948	165.121	182.756	185.223	428.507	195.934	436.214	358.452	261.288	483.838	2.3022e-05	0.00035612	0.00010476	60.465	8.6515e-06	5.0993e-06	141.79	13.588	1.1232e-06	4.8973e-06	44.345	16.102	3.876	1.2674	4.5955e-06	7.0564	0.00056511	0.00071887	0.00019287	68.207	8.2104e-06	8.1892e-06	126.25	13.803	7.7674e-06	7.921e-06	40.122	14.591	4.1173	1.4331	7.945e-06	6.5619	230.969	324.792	491.896	157.357	467.369	331.091	157.531	162.641	154.817	411.528	161.586	168.962	165.112	175.266	449.104	173.383	-8191	255	
18917.850	1	1	0	0	0.12059	0.21232	0.10677	0.21656	0.20895	0.10186	0.39515	0.099336	0.1427	0.07532	0.1557	0.090913	0.10164	0.066357	0.038264	0.18753	-2.3187	-2.7042	-2.6875	-2.9542	-2.6375	-2.7271	-2.6854	-2.6479	-2.8833	-2.9229	-2.5042	-2.8937	-2.6271	-2.6063	-2.8563	-2.6688	324.496	347.714	503.305	469.956	270.078	244.360	504.656	407.667	264.844	204.635	226.455	494.449	444.880	395.582	492.406	147.684	8.9127e-05	0.00023539	0.00010784	60.747	3.4117e-06	8.0636e-06	144.96	13.275	2.5121e-06	4.4166e-06	43.876	15.758	3.6481	1.3152	4.1225e-06	7.2917	0.00057803	0.00072762	0.00020271	68.926	8.1901e-06	7.8103e-06	127.47	13.655	8.0651e-06	7.8843e-06	39.558	14.639	4.1512	1.4569	7.8369e-06	6.6156	252.920	249.947	258.522	155.281	154.280	481.057	158.052	164.688	386.483	403.674	162.498	169.143	168.780	172.211	317.123	171.976	-8191	255	
18917.943	1	1	0	0	0.14042	0.12976	0.038026	0.16295	0.183	0.10968	0.22971	0.020683	0.16356	0.04805	0.092699	0.09989	0.041102	0.37405	0.29555	0.023649	-2.2271	-2.9083	-2.6375	-2.7979	-2.7833	-2.6292	-2.8958	-2.5917	-2.7417	-2.725	-2.6125	-2.8667	-2.6562	-2.5542	-3.0479	-2.6188	349.210	481.869	185.203	157.182	159.250	210.763	327.573	423.747	244.455	223.983	339.505	279.677	190.340	294.567	431.505	179.612	7.8567e-05	0.00042016	0.00018962	60.062	1.6246e-06	6.499e-06	141.24	13.847	5.5839e-06	7.1271e-07	43.628	15.762	3.822	1.3046	2.7635e-06	7.1975	0.00058064	0.00072444	0.00019762	69.804	7.949e-06	7.9435e-06	126.25	14.053	7.7184e-06	8.0485e-06	39.802	14.581	4.2006	1.4517	7.7227e-06	6.6202	258.895	505.967	244.064	156.739	219.893	268.322	159.194	164.709	293.858	215.886	162.351	169.561	166.428	171.590	332.146	171.695	-8191	255	
18918.039	1	1	0	0	0.22851	0.061432	0.27739	0.076961	0.066334	0.24453	0.22026	0.12239	0.21746	0.29427	0.30994	0.15723	0.10468	0.15455	0.056062	0.14069	-2.4646	-2.825	-2.6146	-2.8625	-2.8812	-2.6979	-2.8812	-2.6896	-2.8625	-2.9437	-2.6104	-2.8688	-2.8646	-2.5812	-2.8458	-2.6917	351.925	453.011	387.689	459.886	185.945	203.330	268.861	200.581	460.025	190.454	191.978	275.705	158.117	303.053	411.446	449.557	6.1589e-05	0.00018084	3.8532e-05	57.877	5.2347e-07	2.9538e-06	144.39	14.325	2.602e-06	7.6417e-06	42.551	16.23	3.7259	1.3493	3.6263e-06	7.2086	0.00055849	0.00072275	0.00020647	69.729	8.1028e-06	8.1415e-06	127.81	14.089	7.5796e-06	8.3408e-06	40.247	14.77	4.1949	1.5119	8.3139e-06	6.6585	224.178	316.834	219.349	158.715	301.974	217.242	158.023	162.938	202.549	366.828	162.956	168.705	166.155	172.177	248.524	173.634	-8191	255	
18918.137	1	1	0	0	0.23978	0.15802	0.29488	0.19152	0.049271	0.032257	0.25598	0.079252	0.13645	0.081137	0.38918	0.10193	0.082698	0.19841	0.17601	0.10288	-2.3292	-2.9562	-2.7125	-2.8896	-2.8646	-2.5563	-3.0521	-2.6208	-2.5667	-3.0687	-2.6229	-2.8896	-2.9979	-2.6583	-2.9562	-2.6562	456.343	210.811	351.516	249.240	411.200	244.374	501.892	301.492	363.228	441.164	334.424	330.459	408.829	491.756	370.145	444.526	8.1997e-05	0.00060691	0.00017101	62.166	2.1249e-06	6.2151e-06	145.37	14.287	1.5608e-06	5.3056e-06	43.252	16.04	3.7739	1.2722	2.5354e-06	7.1287	0.00059021	0.00077433	0.00020741	70.877	8.0975e-06	7.9067e-06	128.32	14.053	7.7945e-06	8.4586e-06	40.398	14.81	4.1775	1.4634	8.459e-06	6.6113	283.555	432.998	310.234	159.468	276.000	443.084	158.166	162.592	380.691	368.691	162.210	168.911	167.767	173.540	468.944	172.185	-8191	255	
18918.256	1	1	0	0	0.25846	0.096948	0.11174	0.32558	0.24947	0.29774	0.31799	0.24767	0.23463	0.14833	0.13187	0.25193	0.04811	0.20471	0.26701	0.08924	-2.175	-2.9688	-2.7917	-2.6063	-2.9062	-2.525	-3.1479	-2.6583	-2.5521	-2.7521	-2.6375	-2.6312	-2.8896	-2.6208	-2.9146	-2.9146	240.568	243.300	478.823	299.481	237.393	472.954	205.680	498.865	336.105	488.433	499.544	196.582	420.583	188.946	233.924	439.337	3.1175e-05	0.00029577	0.00022963	59.127	1.0543e-06	4.4465e-06	143.23	13.832	3.402e-06	4.094e-06	43.265	15.885	3.718	1.3091	4.0346e-06	7.2852	0.0005816	0.00078988	0.0002187	70.005	8.0231e-06	8.3339e-06	127.34	13.948	7.6745e-06	8.6167e-06	40.327	14.722	4.1362	1.4923	8.4027e-06	6.6083	242.020	353.954	253.873	157.076	386.982	316.218	158.864	163.504	401.839	404.549	163.676	166.892	169.080	171.499	403.930	173.314	-8191	255	
18918.328	1	1	0	0	0.26424	0.16178	0.44053	0.075738	0.1203	0.24763	0.21905	0.1975	0.1982	0.35832	0.037861	0.055327	0.23472	0.16274	0.098713	0.13206	-2.0958	-3.1083	-2.6083	-2.6396	-3.0208	-2.5958	-2.975	-2.7875	-2.4875	-2.9604	-2.5312	-2.7562	-3.0125	-2.6125	-2.6729	-2.8167	250.104	374.770	166.872	178.553	207.935	344.364	448.860	454.514	174.596	428.017	198.435	352.071	165.294	169.801	317.312	323.980	8.9549e-05	0.00072975	0.00014784	61.778	4.9845e-06	4.8795e-06	140.52	13.976	2.9319e-06	4.89e-06	42.676	15.924	3.8826	1.2521	1.2444e-06	6.9895	0.00058119	0.00077891	0.0002101	69.892	8.0589e-06	8.4244e-06	124.81	13.734	7.9881e-06	8.7891e-06	39.698	14.59	4.1744	1.4564	8.267e-06	6.5236	257.884	404.104	182.781	156.941	394.369	253.250	157.943	163.042	205.639	225.843	161.634	168.326	165.811	174.250	286.556	171.886	-8191	255	
18918.424	1	1	0	0	0.2049	0.34737	0.11049	0.40145	0.15907	0.34609	0.17372	0.13386	0.11729	0.24885	0.10478	0.19479	0.072071	0.14368	0.13266	0.072438	-2.125	-2.8542	-2.6771	-2.5667	-2.8875	-2.7979	-2.8896	-2.9292	-2.5667	-2.7667	-2.675	-2.6292	-2.9562	-2.6458	-2.6458	-2.9042	236.483	338.818	459.487	452.853	248.143	467.186	268.034	445.516	248.703	199.711	224.171	208.124	402.556	383.770	394.469	504.815	0.00012081	0.00035992	3.2176e-05	60.081	5.4803e-06	4.903e-06	142.28	13.86	4.1379e-06	1.7653e-06	42.296	15.897	3.6364	1.2864	4.4761e-06	6.9586	0.00060305	0.00078167	0.0002092	68.86	8.3597e-06	8.3282e-06	126.02	13.845	8.0127e-06	8.2818e-06	39.658	14.605	4.1278	1.4441	7.8972e-06	6.4924	273.978	250.146	496.574	159.821	303.083	302.092	156.963	165.566	237.650	378.966	162.002	168.155	172.140	175.242	448.736	172.351	-8191	255	
18918.520	1	1	0	0	0.16018	0.10357	0.10249	0.011865	0.18297	0.040599	0.043377	0.15492	0.10376	0.14825	0.24274	0.20385	0.036587	0.036781	0.05734	0.23744	-2.1667	-2.7104	-2.8396	-2.5146	-2.9437	-2.8354	-2.6188	-2.8292	-2.8063	-2.8896	-2.8167	-2.5104	-3.1146	-2.7438	-2.7667	-3.0083	230.581	319.492	256.954	265.509	389.862	395.855	210.961	470.372	226.389	271.936	335.682	247.057	503.610	460.841	486.731	359.590	9.2962e-05	0.00012997	4.0312e-05	62.3	7.4465e-06	3.8728e-06	140.65	13.747	3.2963e-06	6.5539e-06	42.742	15.971	3.7275	1.3036	2.7104e-06	6.9918	0.00058288	0.00078385	0.00020591	68.813	8.3563e-06	8.157e-06	124.24	13.792	7.8881e-06	8.4494e-06	39.195	14.38	4.1355	1.4443	7.7136e-06	6.4233	280.976	387.810	345.616	156.542	244.941	167.859	158.609	163.926	244.814	480.170	162.021	169.096	167.742	172.945	394.829	172.678	-8191	255	
18918.641	1	1	0	0	0.35308	0.043933	0.20337	0.17633	0.067627	0.13484	0.089236	0.09201	0.257	0.034553	0.2284	0.32208	0.090506	0.079757	0.084136	0.12707	-2.1542	-2.7771	-2.7167	-2.6146	-2.8771	-2.7062	-2.6792	-2.9646	-2.425	-2.8896	-2.8229	-2.6542	-2.8187	-2.675	-2.625	-2.9458	351.573	173.584	374.505	199.735	150.839	223.261	305.206	183.747	256.783	176.240	186.624	216.286	358.789	323.486	151.056	399.866	4.3119e-05	0.00081144	0.00012948	63.96	2.9957e-06	4.5051e-06	139.88	13.844	2.5139e-06	7.4767e-06	41.7	15.711	3.7643	1.2959	2.2266e-06	7.1697	0.00055633	0.00073983	0.00019708	68.877	8.1401e-06	8.2165e-06	123.84	13.834	7.481e-06	8.2181e-06	39.222	14.485	4.1848	1.4584	7.8291e-06	6.5501	286.636	165.937	191.057	159.043	239.735	208.186	158.707	165.881	324.176	231.878	163.629	169.132	169.004	174.707	422.921	172.102	-8191	255	
18918.736	1	1	0	0	0.2542	0.027891	0.046452	0.0533	0.25829	0.035841	0.29321	0.21233	0.16518	0.16319	0.043311	0.13098	0.28249	0.15797	0.15559	0.13071	-2.2958	-2.6792	-2.85	-2.4708	-3.0438	-2.8167	-2.8104	-3.0563	-2.7	-2.7979	-2.8792	-2.7	-2.825	-2.9667	-2.7125	-2.9979	504.790	244.118	414.235	335.059	169.024	205.860	369.395	226.020	165.270	401.209	493.106	234.465	481.871	172.105	389.534	157.294	7.6002e-05	0.00067199	7.1523e-05	62.636	3.2597e-06	3.2821e-06	142.5	13.382	1.7635e-06	1.9389e-06	43.081	15.456	4.0068	1.3014	3.7235e-06	7.0055	0.00057033	0.00077274	0.00020018	69.668	7.6763e-06	7.9137e-06	124.83	13.727	7.8504e-06	7.9105e-06	39.445	14.376	4.1589	1.4421	7.9056e-06	6.4997	272.645	321.651	276.374	159.882	208.300	357.199	159.261	164.765	278.125	198.197	163.506	169.114	167.058	173.163	428.267	171.791	-8191	255	
18918.830	1	1	0	0	0.079089	0.18108	0.21633	0.10902	0.13885	0.18541	0.085897	0.14234	0.23594	0.14248	0.15805	0.14037	0.078488	0.056109	0.32567	0.077566	-2.2396	-2.6688	-2.8583	-2.7188	-2.7208	-2.9771	-2.5708	-3.0104	-2.7354	-2.6667	-3.2229	-2.7	-2.8708	-2.9062	-2.5792	-2.8354	204.841	254.456	494.731	496.654	418.969	432.373	216.412	395.027	230.432	404.239	310.237	162.286	347.775	341.298	447.134	339.854	1.4576e-05	0.00067184	8.3013e-05	59.669	1.375e-06	5.2344e-06	139.75	13.112	2.2491e-06	1.0531e-06	41.864	15.577	3.7353	1.2972	4.3651e-06	6.9834	0.0005773	0.00071761	0.00020595	68.661	8.0809e-06	7.8687e-06	125.12	13.507	7.6903e-06	8.0424e-06	38.939	14.364	4.0937	1.4269	8.0034e-06	6.4487	348.289	444.516	492.155	157.211	335.764	257.147	158.236	164.753	504.697	482.874	163.882	167.917	166.819	175.214	252.647	171.089	-8191	255	
18918.930	1	1	0	0	0.045698	0.18541	0.21163	0.092017	0.055651	0.31771	0.10446	0.31187	0.10858	0.14679	0.17822	0.20851	0.22349	0.11152	0.14574	0.16616	-2.325	-2.6333	-2.9417	-2.7188	-2.8646	-2.8521	-2.6896	-3.1021	-2.8833	-2.6458	-2.9229	-2.6104	-2.8271	-2.7854	-2.6875	-2.8146	170.289	304.183	296.101	479.734	211.390	317.766	165.106	453.598	346.228	317.346	152.303	330.321	343.372	503.486	167.467	150.282	6.7377e-05	0.00060284	0.0001254	61.801	6.6503e-06	2.2588e-06	140.74	13.194	2.0755e-06	5.1979e-06	42.943	15.702	3.8424	1.2518	2.2727e-06	7.018	0.00055089	0.00071848	0.00021185	68.875	7.7289e-06	7.9487e-06	124.66	13.553	7.7872e-06	7.9275e-06	39.499	14.312	4.116	1.4178	7.6279e-06	6.4013	301.910	504.034	450.056	157.810	355.642	350.819	158.620	162.553	276.920	472.979	163.497	170.316	169.171	172.707	257.221	173.297	-8191	255	
18919.023	1	1	0	0	0.14855	0.24555	0.2138	0.1937	0.042106	0.24814	0.13112	0.056632	0.07301	0.057024	0.1417	0.23681	0.16582	0.081558	0.23253	0.069888	-2.4458	-2.5833	-3.0667	-2.625	-2.7938	-2.8937	-2.7542	-3.2	-2.8312	-2.7708	-2.7604	-2.5875	-2.5938	-3.0125	-2.5187	-2.9	381.456	490.081	456.101	234.937	429.774	381.099	458.182	271.827	392.740	412.221	409.535	200.549	177.795	390.737	227.338	401.702	9.0757e-05	0.00049086	0.00014121	63.363	9.045e-07	2.9926e-06	142.74	13.864	3.1291e-06	2.8187e-06	42.209	15.752	3.8369	1.3982	4.4947e-06	7.1196	0.00055619	0.00072141	0.00020588	68.07	7.6448e-06	7.7723e-06	125.77	13.989	7.3034e-06	7.7975e-06	39.448	14.58	4.1566	1.455	7.6106e-06	6.5239	221.646	377.407	189.180	159.273	174.771	227.741	159.501	164.883	236.919	372.259	162.225	168.435	167.231	174.137	486.252	172.888	-8191	255	
18919.121	1	1	0	0	0.14745	0.18697	0.030902	0.16805	0.096531	0.16123	0.16646	0.10648	0.034773	0.078211	0.24142	0.082338	0.028493	0.18268	0.07631	0.070821	-2.4271	-2.6083	-2.9875	-2.6937	-2.6417	-2.9562	-2.5417	-2.7917	-2.8667	-2.6021	-2.9167	-2.7188	-2.7313	-2.8812	-2.6646	-2.7854	164.414	210.453	449.521	291.897	260.694	149.363	238.793	424.917	311.884	428.343	160.828	505.317	493.166	350.467	242.715	297.914	3.8355e-05	0.0002275	1.7952e-05	65.505	4.3385e-06	4.1064e-06	144.73	14.255	4.1798e-06	3.8494e-06	42.475	15.339	3.8793	1.2591	4.9911e-06	6.9278	0.0005671	0.00071227	0.00021377	68.771	7.5127e-06	7.7445e-06	126.41	13.973	7.3119e-06	7.8128e-06	39.567	14.342	4.1072	1.4234	7.5955e-06	6.4212	219.117	363.375	331.143	157.821	272.628	490.477	159.636	163.762	175.732	240.564	162.741	168.847	168.183	171.939	301.431	173.001	-8191	255	
18919.240	1	1	0	0	0.078014	0.40999	0.18958	0.18408	0.22647	0.082598	0.35755	0.15066	0.093188	0.11922	0.091267	0.042724	0.10258	0.2044	0.1824	0.2273	-2.6354	-2.6021	-2.9458	-2.6417	-2.6521	-2.9708	-2.6354	-2.8458	-3.0229	-2.7854	-2.9562	-2.8333	-2.4146	-2.875	-2.5917	-2.5917	359.807	379.351	383.312	232.381	251.268	405.071	424.160	259.906	253.229	324.692	241.524	169.337	460.123	438.649	356.561	166.254	0.00011829	0.00033045	6.4587e-06	61.866	5.791e-06	7.7099e-06	142.77	13.696	3.593e-06	5.5808e-06	43.922	15.726	3.8062	1.2884	1.4783e-06	6.9889	0.0005411	0.00066874	0.00020164	68.763	7.4897e-06	7.4547e-06	124.91	13.806	7.2603e-06	7.5009e-06	39.665	14.318	4.0417	1.4286	7.3212e-06	6.4013	256.404	168.713	217.393	157.522	374.604	471.161	158.185	165.038	170.929	290.546	164.586	169.458	167.535	173.349	339.441	172.329	-8191	255	
18919.338	1	1	0	0	0.18642	0.11924	0.040359	0.063578	0.17289	0.29649	0.11187	0.11314	0.1054	0.067415	0.046661	0.092754	0.35099	0.15241	0.1719	0.14926	-2.3833	-2.7229	-2.9958	-2.7438	-2.5563	-3.0771	-2.7729	-2.7583	-2.975	-2.7021	-2.8688	-2.8375	-2.4437	-2.9771	-2.6354	-2.6292	451.108	296.597	322.558	276.806	173.846	176.788	277.504	377.377	434.241	391.364	358.936	345.546	341.407	410.769	418.633	480.354	8.6051e-05	0.00048028	8.2889e-05	59.121	8.6516e-07	3.8863e-06	143.5	13.977	3.3323e-06	6.3929e-06	42.587	15.647	3.7418	1.3283	3.0119e-06	7.0996	0.00052535	0.00068793	0.00019973	67.073	7.3014e-06	7.3969e-06	126.64	13.842	7.4417e-06	7.4148e-06	39.254	14.354	4.0356	1.4219	7.2443e-06	6.4407	249.407	445.648	421.870	156.487	381.827	455.841	158.070	163.355	341.000	339.053	164.091	168.423	168.065	174.472	444.146	172.214	-8191	255	
#DATA ENDS
