BOXY.EXE: ISS Imagent and Oximeter Data Acquisition Program Version 0.80
Ascii Record File

#ACQ INFORMATION
2  Detector Channels 
16  External MUX Channels 
1  Auxiliary Channels 
5000  Waveform (CCF) Frequency (Hz)
1  Waveforms Skipped 
30  Waveforms Averaged 
1  Cycles Averaged 
16  Acquisitions per Waveform 
10.0806  Updata Rate (Hz) 

#FILE INFORMATION
TRUE -- External MUX Channel results are PARSED.
FALSE -- AC DC and Phase are NOT grouped.
TRUE -- Companion Program Settings File CREATED.
FALSE -- AC data not excluded
FALSE -- DC data not excluded
FALSE -- Phase data not excluded
FALSE -- Auxillary Chn. data not excluded
Tab delimiters

#CALIBRATION STATE
TRUE -- Waveform Calibration Values APPLIED.


#AUX CALIBRATION VALUES
Val Type	aux-1	

Term	1.0000e+00	
Factor	0.0000e+00	


#WF CALIBRATION VALUES
A = Detector Channel
Val Type	A-AC1	A-AC2	A-AC3	A-AC4	A-AC5	A-AC6	A-AC7	A-AC8	A-AC9	A-AC10	A-AC11	A-AC12	A-AC13	A-AC14	A-AC15	A-AC16	A-DC1	A-DC2	A-DC3	A-DC4	A-DC5	A-DC6	A-DC7	A-DC8	A-DC9	A-DC10	A-DC11	A-DC12	A-DC13	A-DC14	A-DC15	A-DC16	A-Ph1	A-Ph2	A-Ph3	A-Ph4	A-Ph5	A-Ph6	A-Ph7	A-Ph8	A-Ph9	A-Ph10	A-Ph11	A-Ph12	A-Ph13	A-Ph14	A-Ph15	A-Ph16	

Term	0.00000e+00	0.00000e+00	0.00000e+00	0.00000e+00	0.00000e+00	0.00000e+00	0.00000e+00	0.00000e+00	0.00000e+00	0.00000e+00	0.00000e+00	0.00000e+00	0.00000e+00	0.00000e+00	0.00000e+00	0.00000e+00	0.00000e+00	0.00000e+00	0.00000e+00	0.00000e+00	0.00000e+00	0.00000e+00	0.00000e+00	0.00000e+00	0.00000e+00	0.00000e+00	0.00000e+00	0.00000e+00	0.00000e+00	0.00000e+00	0.00000e+00	0.00000e+00	0.00000e+00	0.00000e+00	0.00000e+00	0.00000e+00	0.00000e+00	0.00000e+00	0.00000e+00	0.00000e+00	0.00000e+00	0.00000e+00	0.00000e+00	0.00000e+00	0.00000e+00	0.00000e+00	0.00000e+00	0.00000e+00	
Factor	1.00000e+00	1.00000e+00	1.00000e+00	1.00000e+00	1.00000e+00	1.00000e+00	1.00000e+00	1.00000e+00	1.00000e+00	1.00000e+00	1.00000e+00	1.00000e+00	1.00000e+00	1.00000e+00	1.00000e+00	1.00000e+00	1.00000e+00	1.00000e+00	1.00000e+00	1.00000e+00	1.00000e+00	1.00000e+00	1.00000e+00	1.00000e+00	1.00000e+00	1.00000e+00	1.00000e+00	1.00000e+00	1.00000e+00	1.00000e+00	1.00000e+00	1.00000e+00	X	X	X	X	X	X	X	X	X	X	X	X	X	X	X	X	

B = Detector Channel
Val Type	B-AC1	B-AC2	B-AC3	B-AC4	B-AC5	B-AC6	B-AC7	B-AC8	B-AC9	B-AC10	B-AC11	B-AC12	B-AC13	B-AC14	B-AC15	B-AC16	B-DC1	B-DC2	B-DC3	B-DC4	B-DC5	B-DC6	B-DC7	B-DC8	B-DC9	B-DC10	B-DC11	B-DC12	B-DC13	B-DC14	B-DC15	B-DC16	B-Ph1	B-Ph2	B-Ph3	B-Ph4	B-Ph5	B-Ph6	B-Ph7	B-Ph8	B-Ph9	B-Ph10	B-Ph11	B-Ph12	B-Ph13	B-Ph14	B-Ph15	B-Ph16	

Term	0.00000e+00	0.00000e+00	0.00000e+00	0.00000e+00	0.00000e+00	0.00000e+00	0.00000e+00	0.00000e+00	0.00000e+00	0.00000e+00	0.00000e+00	0.00000e+00	0.00000e+00	0.00000e+00	0.00000e+00	0.00000e+00	0.00000e+00	0.00000e+00	0.00000e+00	0.00000e+00	0.00000e+00	0.00000e+00	0.00000e+00	0.00000e+00	0.00000e+00	0.00000e+00	0.00000e+00	0.00000e+00	0.00000e+00	0.00000e+00	0.00000e+00	0.00000e+00	-1.89518e+02	-1.23593e+02	-1.25496e+02	-1.81679e+02	-7.61103e+01	-6.24902e+01	-1.55738e+02	-1.62015e+02	-8.38926e+01	-6.66045e+01	-1.71022e+02	-1.71488e+02	-1.82271e+02	-1.77129e+02	-7.76859e+01	-1.50166e+02	
Factor	3.40093e-05	1.64242e-04	4.24187e-05	4.50345e-01	1.35262e-06	1.43726e-06	1.64758e-01	5.55694e-02	1.59219e-06	1.39930e-06	8.73404e-02	2.91543e-02	2.39755e-02	8.51859e-03	1.51915e-06	1.23768e-02	5.84871e-06	6.87391e-06	1.90808e-06	2.31325e-01	7.49402e-08	7.54082e-08	8.06156e-02	2.88414e-02	7.34411e-08	7.61242e-08	4.39244e-02	1.47014e-02	1.25749e-02	4.46564e-03	7.38727e-08	6.28510e-03	X	X	X	X	X	X	X	X	X	X	X	X	X	X	X	X	



#DISTANCE SETTINGS
A = Detector Channel
A-1	A-2	A-3	A-4	A-5	A-6	A-7	A-8	A-9	A-10	A-11	A-12	A-13	A-14	A-15	A-16	

2.5000e+00	3.0000e+00	2.5000e+00	3.0000e+00	2.0000e+00	3.0000e+00	1.5000e+00	3.0000e+00	3.0000e+00	3.0000e+00	3.0000e+00	3.0000e+00	3.0000e+00	3.0000e+00	1.5000e+00	3.0000e+00	

B = Detector Channel
B-1	B-2	B-3	B-4	B-5	B-6	B-7	B-8	B-9	B-10	B-11	B-12	B-13	B-14	B-15	B-16	

1.0000e+01	1.0000e+01	1.0000e+01	1.4400e+00	1.0000e+01	1.0000e+01	1.5100e+00	1.9400e+00	1.0000e+01	1.0000e+01	1.9900e+00	2.4900e+00	2.4100e+00	2.9000e+00	1.0000e+01	2.9800e+00	




#DATA BEGINS
time	group	step	mark	flag	A-AC1	A-AC2	A-AC3	A-AC4	A-AC5	A-AC6	A-AC7	A-AC8	A-AC9	A-AC10	A-AC11	A-AC12	A-AC13	A-AC14	A-AC15	A-AC16	A-DC1	A-DC2	A-DC3	A-DC4	A-DC5	A-DC6	A-DC7	A-DC8	A-DC9	A-DC10	A-DC11	A-DC12	A-DC13	A-DC14	A-DC15	A-DC16	A-Ph1	A-Ph2	A-Ph3	A-Ph4	A-Ph5	A-Ph6	A-Ph7	A-Ph8	A-Ph9	A-Ph10	A-Ph11	A-Ph12	A-Ph13	A-Ph14	A-Ph15	A-Ph16	B-AC1	B-AC2	B-AC3	B-AC4	B-AC5	B-AC6	B-AC7	B-AC8	B-AC9	B-AC10	B-AC11	B-AC12	B-AC13	B-AC14	B-AC15	B-AC16	B-DC1	B-DC2	B-DC3	B-DC4	B-DC5	B-DC6	B-DC7	B-DC8	B-DC9	B-DC10	B-DC11	B-DC12	B-DC13	B-DC14	B-DC15	B-DC16	B-Ph1	B-Ph2	B-Ph3	B-Ph4	B-Ph5	B-Ph6	B-Ph7	B-Ph8	B-Ph9	B-Ph10	B-Ph11	B-Ph12	B-Ph13	B-Ph14	B-Ph15	B-Ph16	aux-1	digaux	

32991.477	1	1	0	256	0.13804	0.20966	0.20623	0.20748	0.15179	0.023946	0.047564	0.097268	0.17925	0.1157	0.13229	0.084552	0.13871	0.12106	0.12533	0.094593	-2.0083	-2.6521	-2.5625	-2.4896	-2.7667	-2.3271	-2.7396	-2.7083	-2.3167	-2.7729	-2.4521	-2.6354	-2.7292	-2.2729	-2.575	-2.8042	130.535	351.183	150.462	36.965	33.414	332.627	283.520	345.942	233.985	185.008	229.412	219.118	110.500	113.943	20.987	34.411	0.00060076	0.0082051	0.00019962	500.58	2.9043e-06	1.1274e-06	845.16	130.56	8.6722e-06	3.8551e-06	309.61	108.93	38.035	15.147	5.5803e-06	54.745	0.00088124	0.0048487	0.00025861	518.41	1.0711e-05	1.0256e-05	860.22	131.32	1.0186e-05	1.2385e-05	309.3	111.88	43.622	15.498	1.1864e-05	54.948	90.759	48.133	39.665	29.324	141.602	183.179	30.279	34.395	166.135	152.468	34.900	38.750	39.417	42.321	166.668	43.389	-8191	255	
32991.574	1	1	0	0	0.075054	0.31951	0.13801	0.11593	0.12638	0.18757	0.19659	0.23906	0.24857	0.11013	0.15959	0.19395	0.031147	0.056945	0.18146	0.11692	-1.9292	-2.6896	-2.375	-2.4167	-2.7417	-2.5021	-2.6312	-2.3542	-2.4813	-2.6021	-2.5229	-2.4958	-2.7917	-2.6271	-2.6021	-2.6437	317.311	162.392	28.069	283.916	47.455	332.308	26.976	299.092	195.830	161.384	344.926	372.198	348.253	252.200	289.150	108.935	0.00067334	0.0037454	0.00018109	506.07	2.1936e-06	3.1421e-06	848.19	129.7	6.5109e-06	4.3583e-06	307.69	109.75	37.579	15.073	3.7049e-06	54.235	0.00091738	0.0027142	0.00026993	519.44	1.1816e-05	1.0625e-05	887.47	131.1	1.0261e-05	1.2236e-05	307.85	110	41.913	15.431	1.1782e-05	54.627	91.222	61.175	128.860	29.090	208.989	242.748	30.422	34.415	130.987	195.366	34.650	39.597	38.409	42.903	199.220	43.301	-8191	255	
32991.672	1	1	0	0	0.079531	0.21541	0.19369	0.088057	0.20011	0.16507	0.19471	0.18241	0.42189	0.2313	0.17663	0.097118	0.19216	0.080975	0.050775	0.048204	-2.1104	-2.9062	-2.4896	-2.4646	-2.9188	-2.6188	-2.8563	-2.8417	-2.5021	-2.6604	-2.7313	-2.4375	-2.8104	-2.5542	-2.7479	-2.7812	210.868	275.803	35.585	361.568	179.820	225.906	246.703	296.449	335.141	336.559	275.027	329.700	263.185	316.275	36.576	190.944	0.00058449	0.0071854	0.00011122	498.28	1.5344e-06	2.8346e-06	844.52	128.16	4.2066e-06	3.06e-06	305.87	108.62	36.464	14.973	5.0897e-06	54.071	0.00093069	0.0047783	0.0002756	517.14	1.1963e-05	1.0832e-05	850.15	130.16	1.0384e-05	1.2491e-05	305.35	108.9	45.451	15.312	1.1022e-05	54.603	89.694	56.183	127.876	29.211	275.186	218.601	29.746	34.827	126.328	136.986	34.778	39.468	37.910	42.687	165.452	43.379	-8191	255	
32991.766	1	1	0	0	0.096573	0.11901	0.11772	0.19886	0.30886	0.15038	0.29649	0.21831	0.14876	0.10015	0.063065	0.21723	0.061801	0.019096	0.30211	0.29702	-1.875	-2.7271	-2.6229	-2.3812	-2.6562	-2.5625	-2.5958	-2.5729	-2.4354	-2.9229	-2.6229	-2.3854	-2.6792	-2.4417	-2.6104	-3.025	27.427	302.061	152.001	231.163	58.987	178.929	263.990	366.723	179.824	349.207	28.603	164.164	225.105	303.702	271.374	303.264	0.00067769	0.0037521	8.6274e-05	495.16	2.4011e-06	3.6311e-06	839.21	126.9	4.1517e-06	3.6089e-06	306.6	108.94	37.326	14.937	6.2116e-06	54.481	0.00091197	0.0026886	0.00027855	511.5	1.2658e-05	1.1093e-05	839.41	139.86	1.0654e-05	1.2367e-05	306.12	109.03	41.786	15.42	1.1232e-05	54.972	88.194	55.905	207.932	29.094	170.504	174.059	29.959	35.585	212.540	171.571	35.061	39.329	38.999	42.382	186.698	43.341	-8191	255	
32991.863	1	1	0	0	0.06716	0.054599	0.24138	0.14555	0.14928	0.20685	0.12247	0.19617	0.18836	0.079604	0.13622	0.09936	0.14156	0.23537	0.26699	0.083741	-2.0521	-2.6625	-2.7542	-2.4979	-2.8375	-2.6333	-2.6354	-2.7687	-2.525	-2.7271	-2.6937	-2.475	-2.6854	-2.6458	-2.6167	-3.0125	155.671	126.047	306.232	356.478	40.416	352.020	305.785	330.856	204.082	103.581	46.958	309.978	268.633	294.877	122.521	312.020	0.00068119	0.0073962	0.00020069	493.12	4.239e-06	1.6291e-06	838.52	128.26	6.8266e-06	4.6592e-06	308.18	110.12	37.336	15.243	5.1179e-06	55.138	0.00096234	0.0047571	0.00029647	509.47	1.2524e-05	1.1434e-05	829.71	136.85	1.0723e-05	1.2549e-05	307.67	110.26	46.019	15.693	1.1024e-05	55.82	84.357	72.578	123.512	29.487	133.848	164.630	29.607	34.681	153.075	168.176	35.135	39.553	37.636	42.534	121.419	43.362	-8191	255	
32991.984	1	1	0	0	0.2104	0.15635	0.20158	0.32382	0.23976	0.19157	0.34593	0.15671	0.17498	0.2347	0.15335	0.12689	0.23091	0.1178	0.30493	0.16638	-1.8771	-2.5833	-2.8792	-2.4583	-2.7875	-2.8167	-2.5792	-2.6708	-2.4188	-2.5021	-2.6521	-2.2562	-2.8146	-2.7313	-2.5021	-2.9396	154.953	139.867	191.553	158.531	137.713	61.035	320.296	220.975	345.880	152.994	158.578	51.065	33.650	319.867	78.768	306.836	0.00065907	0.0027009	0.0007555	488.82	4.3704e-06	4.3952e-06	837.91	126.79	5.2266e-06	3.5055e-06	307.4	110.09	37.519	15.156	6.649e-06	55.282	0.00098636	0.0023012	0.00034789	510.41	1.2992e-05	1.1757e-05	830.2	146.17	1.1411e-05	1.2279e-05	308.03	110.39	42.097	15.636	1.1312e-05	55.809	79.784	23.366	113.010	29.912	191.603	187.826	29.761	35.644	157.242	142.149	34.763	39.430	38.680	42.604	153.287	43.266	-8191	255	
32992.078	1	1	0	0	0.089907	0.27102	0.231	0.24221	0.28914	0.090297	0.11053	0.27319	0.16562	0.12382	0.3274	0.24266	0.30207	0.11899	0.065863	0.073793	-2.0583	-2.4875	-2.7313	-2.4021	-2.7479	-2.725	-2.575	-2.7812	-2.4521	-2.6208	-2.8438	-2.6917	-2.8187	-2.6917	-2.4771	-2.9396	238.174	117.390	90.628	151.432	119.716	46.546	312.083	309.308	132.553	275.656	313.085	301.502	53.117	332.349	130.623	296.282	0.00063989	0.0061084	0.0018826	495.85	2.884e-06	5.4999e-06	832.32	128.4	3.3591e-06	5.8043e-06	306.2	110.07	36.94	15.24	1.3279e-06	55.313	0.0010124	0.0015261	0.0010519	511.98	1.2903e-05	1.2092e-05	826.04	137.11	1.1513e-05	1.1996e-05	308.09	110.02	45.933	15.75	1.1572e-05	55.898	81.900	24.133	125.946	29.963	110.722	220.871	29.857	34.921	194.019	243.419	34.643	39.646	37.840	42.562	205.625	43.361	-8191	255	
32992.152	1	1	0	0	0.15734	0.13689	0.1159	0.087588	0.15572	0.23977	0.14536	0.15337	0.22486	0.23472	0.16479	0.014381	0.053312	0.095444	0.12177	0.18599	-1.9688	-2.6958	-2.7479	-2.5312	-2.6792	-2.8438	-2.5542	-2.7625	-2.6792	-2.6188	-2.7458	-2.6667	-2.5167	-2.75	-2.2979	-2.9521	195.419	74.202	163.578	24.089	22.528	83.501	312.103	333.011	39.438	77.213	354.677	148.774	79.868	210.341	249.702	322.870	0.0006398	0.00023141	0.0013612	495.73	7.2618e-06	6.3889e-06	839.8	127.81	2.9815e-06	7.7757e-06	308.25	110.55	37.812	15.381	4.6036e-06	55.59	0.0010506	0.0011072	0.00078019	514.97	1.349e-05	1.3019e-05	832.44	147.55	1.2238e-05	1.2417e-05	310.22	111.34	41.59	16.118	1.2475e-05	56.275	90.430	115.965	84.230	29.454	126.399	184.715	29.827	35.344	98.053	172.525	34.671	39.341	37.870	42.578	150.325	43.688	-8191	255	
32992.270	1	1	0	0	0.18555	0.34818	0.14372	0.086671	0.14072	0.16186	0.1699	0.2461	0.22675	0.25001	0.057007	0.32575	0.10416	0.038723	0.20162	0.15769	-2.2104	-2.5187	-2.7833	-2.4333	-2.4896	-2.7958	-2.3208	-2.6125	-2.6271	-2.3292	-2.8396	-2.6833	-2.5229	-2.6667	-2.4	-2.8833	125.622	204.769	43.100	371.375	72.395	371.531	321.209	271.232	240.294	367.681	18.920	30.447	311.853	263.737	159.204	18.549	0.00067612	0.00056519	0.0018972	499.84	3.9733e-06	2.7083e-06	841.84	129.5	6.7184e-06	3.493e-06	311.68	110.57	37.64	15.472	3.5303e-06	55.53	0.0011083	0.0011684	0.0014088	519.7	1.3441e-05	1.3831e-05	837.25	139.54	1.2417e-05	1.2872e-05	312.21	111.13	40.149	17.793	1.1997e-05	56.022	81.703	87.373	98.794	29.132	188.858	190.344	29.760	34.342	87.857	81.947	34.556	39.218	37.314	42.922	139.545	43.764	-8191	255	
32992.367	1	1	0	0	0.22693	0.25294	0.14585	0.071822	0.26594	0.22885	0.045241	0.21097	0.1537	0.15742	0.16471	0.17256	0.27476	0.16314	0.11469	0.07445	-2.3	-2.4604	-2.7771	-2.6125	-2.6292	-3.0271	-2.4771	-2.7521	-2.775	-2.5208	-2.9354	-2.525	-2.6333	-2.6854	-2.4542	-2.8438	242.161	283.922	367.998	254.600	205.857	44.697	79.458	260.201	76.379	314.284	217.488	353.959	333.210	362.988	127.563	323.414	0.00064445	0.00017654	0.0010437	499.14	1.8624e-06	8.9664e-06	843.45	127.91	4.1319e-06	3.1961e-06	311.08	110.64	38.282	15.23	3.7619e-06	55.414	0.001056	0.0010828	0.00079628	518.57	1.2065e-05	1.3612e-05	837.39	148.37	1.2287e-05	1.2034e-05	312.14	111.09	39.434	16.909	1.1482e-05	55.91	87.137	108.422	92.648	29.787	55.974	165.866	29.759	34.729	197.447	134.398	34.754	39.559	38.677	41.815	99.995	43.520	-8191	255	
32992.461	1	1	0	0	0.26925	0.1502	0.16592	0.10924	0.18896	0.20161	0.29129	0.093765	0.19826	0.15316	0.096124	0.27872	0.085803	0.24197	0.24934	0.1743	-2.4375	-2.3854	-2.7188	-2.6	-2.4833	-2.7604	-2.5187	-2.3833	-2.6437	-2.5354	-2.7875	-2.6792	-2.5958	-2.6083	-2.6146	-2.6917	251.493	121.741	332.101	208.256	175.233	328.904	276.503	45.766	161.952	20.732	41.202	322.527	104.609	258.025	294.375	339.240	0.0007091	0.00010209	0.0021174	500.2	3.14e-06	3.7869e-06	843.16	130.04	2.4285e-05	3.1881e-06	309.27	110.28	38.223	15.233	4.1202e-06	55.279	0.0010432	0.0010382	0.0013833	517.82	1.1469e-05	1.2529e-05	834.89	136.31	1.4952e-05	1.1187e-05	310.92	110.54	39.195	18.322	1.0671e-05	55.559	87.869	147.040	100.560	29.107	120.033	186.758	29.785	34.085	215.148	157.853	34.926	39.768	38.898	41.590	177.645	43.452	-8191	255	
32992.559	1	1	0	0	0.045465	0.13706	0.077556	0.14559	0.15757	0.25694	0.19777	0.13803	0.038319	0.11892	0.061014	0.030884	0.24466	0.073864	0.10644	0.04931	-2.3	-2.4479	-2.675	-2.6146	-2.3729	-2.8667	-2.5458	-2.6167	-2.7479	-2.3937	-2.7562	-2.6729	-2.5104	-2.6562	-2.5812	-2.4833	309.816	261.687	151.707	198.843	80.423	253.457	298.943	84.488	331.345	27.323	142.212	375.154	54.997	162.095	153.570	259.168	0.00068728	0.00063425	0.00097006	502.49	3.2879e-06	7.6857e-06	846.06	130.3	6.7404e-05	3.1398e-06	313.38	111.39	38.513	15.652	4.6846e-06	55.942	0.0010369	0.00097985	0.00075647	517.55	1.0693e-05	1.2559e-05	838.92	132.98	4.4599e-05	1.0602e-05	312.92	111.65	39.549	17.209	1.0533e-05	56.205	88.199	114.486	106.889	29.658	125.121	109.696	30.122	33.998	236.412	132.214	34.908	39.377	39.291	42.081	140.767	43.327	-8191	255	
32992.652	1	1	0	0	0.20691	0.086573	0.27894	0.19954	0.12496	0.10057	0.16433	0.2768	0.063097	0.13107	0.14363	0.20493	0.36659	0.11231	0.025927	0.11251	-2.325	-2.4667	-2.6437	-2.5812	-2.5146	-2.8125	-2.7667	-2.5438	-2.7354	-2.5062	-2.5896	-2.6667	-2.4542	-2.8625	-2.5833	-2.5042	207.876	329.310	361.118	229.210	161.468	83.182	341.269	361.963	289.377	366.419	252.568	77.154	288.149	189.889	137.151	264.498	0.00063472	0.00057103	0.0022365	507.26	1.273e-06	6.4388e-06	854.02	132.7	3.2868e-05	3.7395e-06	312.8	112.64	38.989	15.671	2.9904e-06	56.204	0.0010324	0.00097919	0.0013632	520.61	1.0454e-05	1.1985e-05	842.45	133.2	2.9167e-05	1.0319e-05	312.6	112.69	39.93	18.751	1.0124e-05	56.675	91.617	138.094	115.165	29.268	236.249	146.428	30.167	34.405	258.421	158.151	34.665	38.896	39.085	41.045	186.110	43.608	-8191	255	
32992.773	1	1	0	0	0.18906	0.28433	0.16247	0.15214	0.077758	0.085113	0.089194	0.23419	0.051866	0.25086	0.27828	0.2174	0.018038	0.21452	0.038489	0.36363	-2.3729	-2.4333	-2.5729	-2.5604	-2.475	-2.7729	-2.5792	-2.4292	-2.6896	-2.375	-2.7146	-2.7062	-2.5312	-2.5521	-2.6708	-2.4979	51.313	228.247	224.389	17.631	257.212	17.091	290.412	199.079	210.696	67.576	355.232	308.661	103.961	118.532	177.176	319.245	0.00068747	0.00035311	0.0005556	515.41	2.9448e-06	5.6297e-06	856.58	133.64	7.8307e-05	9.6151e-07	315.29	113.3	39.311	16.099	3.9447e-06	57.143	0.00098587	0.00091971	0.00054997	537.89	9.9814e-06	1.1667e-05	845.89	133.84	5.3518e-05	1.0351e-05	314.14	113.74	40.415	17.619	1.0206e-05	57.476	92.253	44.199	39.243	30.413	252.747	152.875	30.055	34.144	281.613	125.196	34.856	39.156	39.150	42.294	183.019	43.236	-8191	255	
32992.848	1	1	0	0	0.10321	0.21424	0.054721	0.071698	0.088884	0.11348	0.32138	0.22711	0.16562	0.04074	0.24623	0.16155	0.10993	0.29186	0.21281	0.18056	-2.1688	-2.4833	-2.65	-2.7313	-2.2396	-2.6979	-2.8208	-2.4938	-2.6667	-2.5938	-2.6729	-2.8312	-2.4437	-2.6771	-2.6813	-2.6	356.639	235.636	102.623	325.120	53.588	369.569	279.984	25.638	46.574	43.455	355.813	325.455	193.751	340.239	294.118	335.419	0.00051204	0.00078889	4.5219e-05	520.04	5.4862e-06	4.3202e-06	852.7	133.19	2.8158e-05	1.8099e-06	312.99	113.17	39.573	15.884	3.9703e-06	57.217	0.0010354	0.00095012	0.00025872	640.53	1.0181e-05	1.1186e-05	843.25	133.74	2.9567e-05	1.0143e-05	312.78	113.59	40.211	18.876	1.0694e-05	57.357	91.507	113.576	233.623	31.412	215.816	198.460	29.854	34.556	279.665	207.187	34.731	39.424	38.937	40.892	204.077	43.312	-8191	255	
32992.941	1	1	0	0	0.051249	0.166	0.34463	0.099201	0.13678	0.094117	0.33023	0.12898	0.2979	0.097928	0.19484	0.022602	0.20673	0.17905	0.30805	0.14699	-2.4062	-2.45	-2.4	-2.6917	-2.3479	-2.7354	-2.7375	-2.4979	-2.8021	-2.7979	-2.5604	-2.8417	-2.3563	-2.6979	-2.7417	-2.5167	63.648	294.277	123.333	303.474	93.741	212.112	159.856	330.372	253.526	310.175	113.056	65.610	130.602	182.210	219.606	246.070	0.00064581	0.00063985	6.2704e-05	516.35	6.0523e-06	8.3005e-06	851.18	134.04	7.0608e-05	2.5859e-06	315.01	113.21	39.778	16.049	1.705e-05	58.199	0.0010036	0.00093378	0.00025841	582.04	1.0165e-05	1.0895e-05	841.86	134.16	5.3945e-05	1.0366e-05	314.28	114.01	40.63	17.135	1.6037e-05	58.117	85.712	129.010	339.860	29.788	169.208	128.260	30.161	34.932	287.403	207.184	34.719	39.488	38.545	41.693	152.625	43.082	-8191	255	
32993.062	1	1	0	0	0.13087	0.10791	0.11339	0.020706	0.15659	0.24784	0.32859	0.12594	0.16632	0.14344	0.052405	0.10576	0.15694	0.039951	0.045782	0.3458	-2.1937	-2.6188	-2.2833	-2.7208	-2.6542	-2.6708	-2.8708	-2.4688	-2.6521	-2.7458	-2.5104	-2.8771	-2.5875	-2.6188	-2.7375	-2.5167	101.790	96.369	141.253	183.360	109.718	312.174	91.681	358.142	178.004	284.370	323.304	262.631	358.078	74.044	289.464	297.695	0.00065591	0.0003399	0.00017285	531.95	1.6609e-06	2.4812e-06	851.61	133.74	3.5303e-05	5.377e-06	317.59	114.89	40.659	16.423	4.1357e-05	59.032	0.00099773	0.000951	0.00025631	663.76	9.8806e-06	1.0476e-05	843.08	134.55	2.9534e-05	1.0497e-05	316.73	115.42	41.145	16.791	5.0421e-05	59.159	87.628	196.120	88.046	31.057	191.354	145.843	30.109	34.383	283.205	156.995	34.698	39.098	38.798	42.272	142.109	43.354	-8191	255	
32993.160	1	1	0	0	0.21025	0.18647	0.1733	0.048971	0.18792	0.044121	0.095657	0.17521	0.14442	0.093886	0.40999	0.1876	0.35675	0.26632	0.11045	0.038535	-2.4042	-2.4771	-2.2146	-2.8021	-2.5729	-2.4896	-2.7458	-2.5354	-2.8187	-2.6792	-2.4583	-2.7208	-2.5479	-2.4542	-2.8125	-2.5854	255.627	164.494	132.781	353.141	258.566	65.369	31.906	321.730	150.184	338.579	330.744	296.556	29.240	324.999	141.491	81.855	0.00067899	0.00036612	6.9412e-05	513.93	3.8748e-06	3.8521e-06	856.6	134.38	8.8326e-05	2.662e-06	320.85	116.63	40.965	16.699	4.2864e-05	59.784	0.00091245	0.00089872	0.00023977	584.6	9.3731e-06	9.7065e-06	845.96	135.55	5.3947e-05	1.0203e-05	319.16	116.86	41.614	17.019	2.9648e-05	59.7	81.050	36.503	117.563	30.165	202.807	286.411	29.816	34.560	296.526	117.235	34.898	39.391	38.641	42.588	83.776	42.995	-8191	255	
32993.258	1	1	0	0	0.22351	0.15881	0.062076	0.17107	0.10512	0.034351	0.12351	0.15396	0.12983	0.11575	0.090061	0.30259	0.13841	0.28904	0.031994	0.20444	-2.1021	-2.8229	-2.4583	-2.5146	-2.6646	-2.4146	-2.8	-2.6208	-2.6958	-2.7417	-2.4104	-2.6854	-2.75	-2.5438	-2.7625	-2.825	115.279	291.389	92.668	348.254	170.539	158.624	347.833	359.375	249.944	338.669	347.040	55.912	32.104	68.529	40.599	49.025	0.00073191	0.00033414	4.1058e-05	524.39	3.5813e-06	6.1902e-06	852.34	134.43	2.9978e-05	1.7554e-05	319.79	115.5	40.782	16.544	8.409e-05	58.923	0.00089947	0.00092776	0.00023073	664	9.5499e-06	9.5127e-06	843.07	135.36	1.9321e-05	1.7018e-05	317.44	116.14	41.333	16.848	5.4395e-05	59.253	85.614	147.011	168.322	32.249	117.631	201.230	30.022	34.394	350.230	264.668	34.865	39.365	38.762	42.976	86.290	42.844	-8191	255	
32993.375	1	1	0	0	0.12731	0.09739	0.29436	0.1709	0.11343	0.3015	0.24541	0.17719	0.16928	0.18352	0.17802	0.031525	0.23484	0.21468	0.044248	0.14303	-2.2	-2.7375	-2.3833	-2.675	-2.6271	-2.35	-3.0271	-2.6	-2.4813	-2.9958	-2.7062	-2.7792	-2.6437	-2.4729	-2.7958	-2.6542	23.071	132.333	77.691	367.325	220.227	91.519	275.220	253.168	185.822	247.483	118.719	23.261	20.865	320.465	77.863	313.902	0.00076496	0.00066762	0.00012499	515.87	7.1341e-06	3.5013e-06	853.61	134.12	7.6946e-06	3.7534e-05	317.43	115.79	40.563	16.576	3.403e-05	59.393	0.00088138	0.00099425	0.00024268	583.44	9.9781e-06	9.7617e-06	845.29	134.89	9.7599e-06	5.4015e-05	318.31	116.32	41.269	16.894	2.9568e-05	59.339	85.264	91.534	154.695	30.316	167.207	216.206	30.022	34.301	151.497	261.046	34.942	39.340	38.640	42.327	90.456	43.353	-8191	255	
32993.445	1	1	0	0	0.076598	0.10484	0.19661	0.33856	0.25386	0.35773	0.11798	0.24468	0.019514	0.049912	0.099533	0.26976	0.024748	0.32967	0.22548	0.34914	-2.0292	-2.6979	-2.4771	-2.7104	-2.7708	-2.5604	-2.8063	-2.6583	-2.5042	-2.7812	-2.5667	-2.7313	-2.7021	-2.4	-2.7146	-2.8563	105.865	370.349	166.774	180.258	315.888	131.565	344.195	85.201	210.902	138.141	60.202	278.450	100.680	21.445	17.261	362.303	0.00078231	0.00065848	9.4526e-05	512.97	3.3587e-06	1.1638e-06	852.86	134.44	5.2155e-06	2.3589e-05	320.56	116.62	40.736	16.608	8.1119e-05	59.689	0.0008944	0.0010411	0.0002427	658.44	1.0396e-05	9.5746e-06	845.83	135.55	9.5694e-06	3.0274e-05	318.18	116.58	41.622	16.927	5.3806e-05	59.633	90.842	105.827	140.737	31.497	237.249	168.226	30.104	34.467	122.776	339.708	34.981	39.393	38.959	42.641	85.697	43.090	-8191	255	
32993.543	1	1	0	0	0.12437	0.097273	0.2315	0.30341	0.082031	0.2686	0.26741	0.073103	0.277	0.14207	0.33295	0.20472	0.085892	0.1025	0.12821	0.21869	-2.0271	-2.7375	-2.4604	-2.6937	-2.8729	-2.45	-2.8292	-2.7458	-2.4771	-2.6646	-2.6917	-2.6646	-2.8042	-2.5771	-2.6396	-2.9292	101.843	282.727	251.458	16.766	315.527	199.836	367.709	329.593	214.286	151.024	57.418	304.019	44.849	299.403	365.730	207.124	0.00066331	4.1442e-05	0.00011433	510.97	3.8635e-05	2.3966e-06	852.43	134.89	4.3878e-06	7.1441e-05	319.33	116.84	40.759	16.861	3.5231e-05	59.378	0.00087912	0.0010041	0.00024991	550.68	1.8038e-05	9.7872e-06	846.33	135.9	9.602e-06	5.618e-05	317.99	116.86	41.71	17.108	2.8975e-05	59.865	89.612	126.947	95.919	28.644	204.706	108.027	29.962	34.327	99.063	347.668	34.625	39.229	38.914	42.574	98.605	43.014	-8191	255	
32993.664	1	1	0	0	0.30904	0.12603	0.071713	0.14713	0.1223	0.142	0.26214	0.17827	0.13993	0.20634	0.25903	0.28082	0.13506	0.074069	0.076949	0.15174	-2.2646	-2.775	-2.6063	-2.4292	-2.7875	-2.6896	-2.9229	-2.7896	-2.6	-2.9167	-2.7938	-2.7771	-2.7812	-2.7146	-2.6771	-2.8875	128.426	80.644	134.475	278.179	34.793	254.952	283.057	325.735	194.271	81.037	116.075	285.487	117.257	151.220	311.301	350.632	0.00062873	0.00052796	8.7995e-05	507.16	7.3179e-05	4.5226e-06	852.02	133.81	3.7712e-06	3.0834e-05	319.64	115.4	40.418	16.477	8.5924e-05	58.87	0.00084312	0.0010162	0.00024251	520.19	5.4334e-05	9.6438e-06	841.42	135.28	9.4306e-06	2.9884e-05	317.85	115.84	41.416	16.859	5.2513e-05	59.242	85.933	72.841	91.228	29.389	214.100	175.172	29.925	34.276	126.874	346.139	35.049	39.448	39.214	42.625	96.093	43.090	-8191	255	
32993.758	1	1	0	0	0.32966	0.26068	0.22925	0.1988	0.060315	0.21911	0.21186	0.26481	0.12922	0.036698	0.25906	0.26845	0.46627	0.047156	0.18873	0.041258	-2.0792	-2.7333	-2.5687	-2.4542	-2.8333	-2.5958	-2.6188	-2.675	-2.5312	-2.8083	-2.7812	-2.4958	-2.7875	-2.5	-2.4708	-2.8021	127.381	17.638	250.581	62.564	95.351	203.340	227.699	26.288	278.217	204.115	291.054	84.336	371.136	317.105	78.390	39.029	0.00062629	0.00013276	8.1547e-05	503.98	3.7606e-05	7.1871e-06	844.96	135.57	4.1942e-06	6.9353e-05	318.69	115.64	40.662	16.697	3.391e-05	59.243	0.00082654	0.00099583	0.00024745	515.93	2.9822e-05	9.5467e-06	837.92	136.1	9.7085e-06	5.5449e-05	317.91	115.76	41.593	16.98	1.8148e-05	60.176	88.973	19.544	101.807	29.620	219.883	185.198	29.807	34.593	234.420	354.147	34.736	39.426	38.790	42.960	70.857	43.163	-8191	255	
32993.855	1	1	0	0	0.051502	0.17491	0.12466	0.13041	0.21948	0.11207	0.10124	0.25081	0.16588	0.35592	0.39843	0.12922	0.16515	0.16517	0.19535	0.037806	-2.0458	-2.5646	-2.45	-2.4729	-2.7958	-2.4771	-2.6708	-2.8146	-2.3708	-2.6917	-2.7646	-2.5792	-2.6729	-2.5438	-2.6375	-2.9125	360.940	321.928	346.779	136.435	115.256	358.109	333.609	256.243	19.800	240.104	21.414	114.582	347.369	258.952	97.337	203.737	0.00068772	0.0002352	6.9564e-05	504.5	7.6887e-05	4.0725e-06	845.97	136.15	6.5745e-06	3.1467e-05	320.56	115.34	40.366	16.533	1.6533e-06	59.981	0.00090246	0.0010588	0.00027041	519.31	5.5465e-05	1.0476e-05	838.31	136.81	1.0396e-05	3.0608e-05	319.63	115.86	41.645	16.965	1.0847e-05	63.225	91.991	61.346	161.785	28.737	224.866	154.147	30.165	34.615	141.241	354.071	34.899	39.512	38.898	42.602	145.015	43.030	-8191	255	
32993.977	1	1	0	0	0.17792	0.11599	0.16631	0.11692	0.28616	0.136	0.30283	0.20631	0.30097	0.090776	0.17971	0.17702	0.023661	0.068165	0.14151	0.28238	-1.8958	-2.5625	-2.5438	-2.4	-2.8292	-2.5687	-2.6333	-2.7542	-2.4875	-2.7771	-2.7375	-2.4417	-2.6667	-2.6167	-2.4313	-2.9667	67.427	336.510	216.874	294.717	254.060	50.052	289.293	239.312	66.026	301.781	261.060	171.323	61.476	356.937	122.726	357.134	0.00064593	0.00026668	3.617e-05	503.89	2.8367e-05	3.1414e-06	846.9	135.14	4.7662e-06	8.0352e-05	319.58	114.96	40.799	16.421	7.0281e-06	58.747	0.00091219	0.001039	0.00028461	520.67	3.0776e-05	1.0584e-05	839.82	137.18	1.012e-05	5.5492e-05	319.42	115.26	41.697	16.838	1.0758e-05	60.629	85.598	165.044	295.138	29.525	223.889	172.327	30.157	34.610	133.667	17.733	34.968	39.204	39.055	42.677	174.960	43.402	-8191	255	
32994.047	1	1	0	0	0.15319	0.10155	0.016928	0.16349	0.12634	0.25818	0.12471	0.18409	0.24178	0.11372	0.20811	0.18173	0.31488	0.12377	0.052269	0.23289	-2.0208	-2.3854	-2.5687	-2.3875	-2.7188	-2.7479	-2.6979	-2.7021	-2.4479	-2.7875	-2.8187	-2.4437	-2.775	-2.5917	-2.6667	-2.8292	323.172	133.436	85.720	93.221	115.778	74.090	178.521	372.090	318.025	248.704	247.442	353.680	365.419	197.733	56.491	345.295	0.00066339	0.00031713	9.4939e-05	510.31	6.0433e-05	4.3969e-06	851.62	135.69	3.637e-06	2.9204e-05	317.61	114.15	39.971	16.234	6.4307e-06	58.853	0.00091797	0.0010553	0.00029766	522.27	5.5162e-05	1.0957e-05	840.95	137.1	1.031e-05	1.8477e-05	323.37	114.5	41.173	16.685	1.0253e-05	62.194	94.508	156.003	30.135	29.338	231.638	184.586	29.958	34.415	142.381	25.472	34.894	39.030	38.766	42.891	204.739	43.729	-8191	255	
32994.145	1	1	0	0	0.19165	0.26993	0.24543	0.26778	0.080573	0.061823	0.12813	0.1142	0.13249	0.1744	0.029144	0.30241	0.13839	0.087766	0.11421	0.22786	-2.1437	-2.5229	-2.7396	-2.3937	-2.6813	-2.6479	-2.5438	-2.5812	-2.7708	-2.5208	-2.8688	-2.7021	-2.5854	-2.9833	-2.6229	-2.9813	18.231	84.240	81.215	200.440	163.090	123.315	229.686	306.384	139.260	234.248	113.813	43.020	373.121	221.102	278.658	292.528	0.000602	0.00027199	0.00014668	501.25	2.5919e-05	5.0222e-06	846.8	134.72	5.147e-06	2.9617e-06	314.3	113.43	39.695	15.953	4.1294e-06	57.768	0.0008853	0.00098685	0.00028475	517.7	2.911e-05	1.0739e-05	836.39	135.74	9.6814e-06	1.0396e-05	342.02	113.33	40.652	16.41	9.9616e-06	59.333	81.034	114.676	155.898	28.814	231.440	277.066	30.213	34.269	179.265	189.104	34.436	39.099	38.974	42.879	102.260	43.306	-8191	255	
32994.238	1	1	0	0	0.14447	0.044013	0.34249	0.17591	0.046083	0.31386	0.047667	0.076768	0.15309	0.2208	0.096341	0.38041	0.22748	0.18508	0.19808	0.32398	-2.2667	-2.5021	-2.8646	-2.5792	-2.5354	-2.7188	-2.725	-2.7021	-2.6604	-2.5021	-2.7271	-2.6104	-2.5187	-2.7062	-2.4125	-2.8229	184.710	38.567	230.620	83.206	299.538	363.401	238.459	278.532	251.233	302.002	266.142	272.005	257.218	231.388	249.204	338.742	0.00062184	1.9297e-05	7.6834e-05	501.7	2.068e-05	3.1337e-06	848.1	134.48	5.6169e-06	2.4026e-06	315.07	112.91	39.439	15.985	4.5961e-06	57.803	0.00086939	0.0009253	0.00029137	515.73	5.0247e-05	1.0599e-05	835.25	134.95	9.6145e-06	9.8051e-06	326.88	113.25	40.439	16.33	9.1096e-06	61.104	88.836	353.998	155.266	29.293	298.075	153.235	29.937	33.967	115.800	231.656	34.329	39.140	38.733	42.761	147.525	43.514	-8191	255	
32994.336	1	1	0	0	0.05111	0.20164	0.11943	0.13308	0.23785	0.12522	0.055758	0.085476	0.12904	0.084783	0.11254	0.21622	0.24325	0.095899	0.20775	0.049279	-2.3	-2.4521	-2.7729	-2.3917	-2.4229	-2.7104	-2.6833	-2.7562	-2.6604	-2.4313	-2.7542	-2.6583	-2.5042	-2.7896	-2.4958	-2.8833	191.865	124.402	106.944	176.785	341.528	189.874	358.334	355.475	75.336	310.225	302.913	38.741	375.101	35.752	20.630	319.281	0.00062945	0.00053671	0.00011377	509.18	7.3662e-06	2.5186e-05	845.35	133.95	3.5895e-06	4.9928e-06	314.55	112.29	39.335	15.553	3.6752e-06	56.286	0.00086278	0.00086689	0.00026404	518.43	1.5699e-05	1.9516e-05	833.78	134.87	9.6953e-06	9.1807e-06	339.62	112.25	39.985	15.967	8.795e-06	57.919	80.497	100.108	114.531	29.568	298.163	241.246	29.719	34.367	202.766	204.078	34.298	39.070	38.893	42.924	199.857	43.531	-8191	255	
32994.453	1	1	0	0	0.082001	0.024782	0.052761	0.22874	0.048021	0.18428	0.28216	0.17765	0.12914	0.058599	0.1539	0.16352	0.14133	0.10181	0.21186	0.11776	-2.1604	-2.3292	-2.7417	-2.6688	-2.6688	-2.7021	-2.4125	-2.525	-2.7438	-2.5563	-2.9271	-2.6417	-2.3958	-2.7687	-2.4625	-2.6521	284.260	314.424	205.194	173.023	232.749	341.357	366.231	103.509	310.273	88.429	152.327	370.658	245.381	100.524	178.412	330.818	0.00064725	0.00047377	2.9775e-05	506.29	3.2385e-06	6.7604e-05	843.19	133.18	3.3996e-06	4.5531e-06	313.3	111.27	39.042	15.502	6.2192e-06	55.908	0.0008411	0.00080924	0.0002583	516.16	8.8414e-06	5.2041e-05	832.69	133.53	9.2941e-06	8.8553e-06	322.79	111.29	39.557	15.824	8.5126e-06	59.179	89.645	85.238	102.574	28.909	164.527	269.567	29.823	34.466	142.094	166.566	34.289	39.278	39.251	42.528	155.599	42.966	-8191	255	
32994.551	1	1	0	0	0.145	0.056343	0.14859	0.05978	0.1559	0.1299	0.10721	0.17316	0.24524	0.34591	0.12274	0.17083	0.26979	0.098574	0.23877	0.12935	-2.3063	-2.6042	-2.6625	-2.5771	-2.4333	-2.8729	-2.5792	-2.5854	-2.8542	-2.6646	-2.7083	-2.7646	-2.3438	-2.7958	-2.5854	-2.6896	34.982	264.421	202.898	170.411	326.374	217.098	282.652	42.663	116.888	28.290	146.430	267.302	318.199	309.143	357.776	327.707	0.00065156	0.00048157	0.00010584	511.5	5.0782e-06	2.8595e-05	839.21	131.6	5.7992e-06	4.5527e-06	309.15	111.95	38.452	15.667	6.3735e-06	55.791	0.00086168	0.00080181	0.00024857	518.54	9.0123e-06	2.7872e-05	829.45	132.36	9.5244e-06	8.861e-06	335.48	111.55	39.321	15.892	8.3553e-06	56.425	81.175	122.862	163.651	28.650	118.965	279.052	29.883	34.309	125.909	160.402	34.007	39.178	39.276	42.418	207.390	42.890	-8191	255	
32994.648	1	1	0	0	0.14542	0.084751	0.23318	0.23532	0.20541	0.16094	0.07634	0.065793	0.093345	0.11583	0.092711	0.18938	0.14665	0.029182	0.13545	0.1147	-2.3979	-2.2396	-2.5229	-2.6021	-2.2667	-2.6542	-2.6437	-2.5708	-2.6917	-2.55	-2.8604	-2.825	-2.5104	-2.6604	-2.775	-2.6937	277.976	18.494	72.602	333.071	158.132	288.740	312.429	189.239	349.341	328.137	342.590	102.121	243.388	362.268	171.865	141.817	0.0012919	0.00036955	7.0998e-05	504.36	5.0302e-06	6.4027e-05	844.11	131.21	9.9347e-07	7.8903e-06	310.66	111.54	38.653	15.383	5.0188e-06	55.939	0.00163	0.00076087	0.00024715	515.63	8.5205e-06	5.2455e-05	831.57	132.27	9.489e-06	8.3185e-06	321.61	111.37	39.392	15.761	8.2845e-06	55.824	81.931	132.673	105.820	29.112	136.303	288.043	30.051	34.332	206.107	219.633	34.488	39.125	38.816	42.649	173.051	43.365	-8191	255	
32994.742	1	1	0	0	0.10773	0.10805	0.085203	0.17937	0.13187	0.05463	0.33397	0.071381	0.04869	0.13462	0.073359	0.11792	0.11615	0.12871	0.081048	0.20907	-2.425	-2.3812	-2.6208	-2.8625	-2.5229	-2.9146	-2.6958	-2.525	-2.8063	-2.4396	-2.6813	-2.9271	-2.4771	-2.6479	-2.7062	-2.4729	260.653	256.676	358.165	268.645	67.576	367.499	330.762	358.198	113.481	238.351	86.430	286.952	17.626	80.009	113.453	346.626	0.0023247	0.00045015	4.4054e-05	502.23	4.1988e-06	3.2482e-05	842.99	131.64	5.7988e-06	2.6619e-06	310.29	111.45	38.726	15.416	3.2579e-06	55.708	0.0041093	0.00073015	0.00022768	515.35	8.2795e-06	2.7734e-05	832.9	132.06	9.5681e-06	8.2157e-06	331.23	111.49	39.26	15.687	8.6046e-06	55.634	53.307	144.557	175.602	29.757	199.415	288.754	30.051	34.616	145.484	193.432	34.116	39.350	39.269	42.674	215.887	43.391	-8191	255	
32994.840	1	1	0	0	0.097812	0.1211	0.045526	0.036638	0.17921	0.13449	0.15401	0.20475	0.13755	0.056398	0.059498	0.22332	0.2014	0.040982	0.15648	0.27445	-2.4188	-2.5917	-2.5021	-2.7042	-2.4021	-2.6021	-2.6875	-2.4271	-2.7854	-2.525	-2.6437	-2.7708	-2.4875	-2.5958	-2.6604	-2.3208	21.390	257.504	169.213	28.301	369.345	165.926	326.025	238.015	325.293	279.030	74.625	294.294	66.869	141.390	245.337	184.327	0.0014031	0.00049236	6.1428e-05	507.92	3.086e-06	6.5684e-05	841.6	131.82	2.6882e-06	1.0484e-06	310.59	110.94	38.793	15.305	1.3126e-06	55.291	0.0022763	0.00075652	0.0002357	518.71	8.3552e-06	5.262e-05	831.82	131.96	9.3327e-06	8.8161e-06	311.8	113.08	39.183	15.612	9.0934e-06	55.234	69.443	69.532	165.754	29.559	155.838	293.174	29.609	34.253	208.485	171.914	34.153	39.152	38.549	42.855	232.118	43.389	-8191	255	
32994.938	1	1	0	0	0.13431	0.29181	0.14035	0.043922	0.1858	0.018083	0.22628	0.32392	0.25651	0.25915	0.27723	0.10719	0.12177	0.10991	0.16618	0.080083	-2.2479	-2.425	-2.275	-2.7208	-2.5708	-2.7146	-2.9208	-2.4125	-2.7208	-2.4875	-2.4188	-2.7667	-2.4979	-2.4771	-2.6333	-2.6396	268.294	176.670	167.180	154.448	246.411	203.025	342.106	84.299	246.238	183.469	31.226	302.081	250.819	375.664	268.161	368.840	0.0021954	0.00042431	5.0474e-05	503.89	5.721e-06	2.4515e-05	841.78	131.13	4.2681e-06	5.6875e-06	310.5	110.63	38.743	15.348	3.2343e-06	55.224	0.004166	0.00077519	0.00022799	517.3	8.3721e-06	2.779e-05	830.34	131.45	9.4704e-06	8.6935e-06	308.09	119.07	39.055	15.594	9.0048e-06	55.134	59.171	99.944	96.217	29.005	171.996	302.950	30.075	34.383	160.113	178.806	34.454	38.440	39.084	42.730	187.673	43.291	-8191	255	
32995.055	1	1	0	0	0.041226	0.20631	0.21889	0.18723	0.25321	0.12597	0.1663	0.26007	0.043527	0.3938	0.11537	0.2273	0.24139	0.087079	0.21332	0.017018	-2.0667	-2.3542	-2.4333	-2.7708	-2.6625	-2.5771	-3.0542	-2.4062	-2.8438	-2.6417	-2.5833	-2.7208	-2.5021	-2.5125	-2.6312	-2.5208	342.009	314.983	296.550	47.193	273.108	263.188	216.807	306.051	361.658	225.104	300.025	368.368	250.551	280.676	287.155	201.119	0.0013516	0.0001882	1.1728e-05	504.2	4.2589e-06	5.6674e-05	837.41	132.47	2.5055e-06	3.1642e-06	310.14	111.62	38.79	15.41	3.4204e-06	55.613	0.0022672	0.00080034	0.00021753	518.62	8.1749e-06	4.3984e-05	833.73	132.16	8.982e-06	8.8217e-06	308.74	115.03	39.262	15.689	9.2538e-06	55.426	74.225	130.178	252.025	28.971	116.220	350.152	30.000	34.496	207.945	220.002	34.744	39.052	39.104	43.089	216.275	43.099	-8191	255	
32995.152	1	1	0	0	0.44951	0.10914	0.15708	0.24683	0.18838	0.083105	0.095841	0.089142	0.15418	0.16488	0.072253	0.029889	0.087531	0.092414	0.079263	0.1905	-2.2875	-2.6875	-2.4021	-2.6646	-2.4979	-2.5229	-2.8042	-2.4333	-2.5625	-2.6437	-2.4896	-2.8146	-2.4104	-2.3917	-2.6125	-2.2771	68.780	124.606	116.203	76.630	308.996	65.577	344.719	334.447	304.882	333.502	360.766	214.055	198.192	81.603	113.550	187.889	0.0022607	0.00060767	0.00016796	512.92	2.8581e-06	2.1605e-05	844.73	131.63	5.0131e-06	7.3552e-06	310.4	111.05	38.134	15.192	6.5588e-06	54.491	0.0042413	0.00084003	0.00021853	521.86	8.4949e-06	1.2886e-05	849.31	132.22	9.6999e-06	9.5322e-06	308.63	119.16	39.041	15.476	9.8709e-06	54.668	71.824	142.623	164.691	28.747	129.506	365.545	30.035	34.206	147.646	228.654	34.859	38.682	39.257	42.751	187.565	43.695	-8191	255	
32995.246	1	1	0	0	0.23415	0.11346	0.18612	0.2397	0.19091	0.11117	0.16689	0.25195	0.16673	0.19409	0.1887	0.09062	0.093201	0.29045	0.25113	0.13058	-2.0146	-2.6667	-2.2417	-2.6396	-2.6021	-2.5542	-2.7729	-2.3667	-2.5354	-2.7938	-2.5354	-2.8187	-2.4854	-2.5687	-2.7417	-2.5833	337.192	156.015	124.297	362.346	19.624	147.617	334.157	273.101	162.741	141.882	350.742	370.276	95.969	341.449	199.911	43.988	0.0014864	0.00031696	8.9262e-05	511.78	4.8539e-06	6.7502e-06	839.22	131.51	2.8323e-06	1.5398e-06	308.72	109.46	38.069	14.993	2.7805e-06	53.42	0.002362	0.00091035	0.00022521	524.32	9.5416e-06	9.1577e-06	885.37	132.03	9.8284e-06	1.0186e-05	306.83	112.84	38.828	15.196	1.034e-05	53.629	75.163	159.478	131.614	29.428	213.251	167.334	29.943	34.371	62.145	182.183	34.930	39.191	39.423	42.854	246.802	43.725	-8191	255	
32995.344	1	1	0	0	0.13895	0.24067	0.037551	0.18852	0.066582	0.16513	0.27203	0.077441	0.1677	0.033893	0.15633	0.056031	0.25184	0.19485	0.22434	0.24543	-2.2062	-2.6354	-2.3396	-2.6896	-2.4854	-2.4604	-2.8812	-2.4625	-2.575	-2.6583	-2.4708	-2.8771	-2.5167	-2.4875	-2.8104	-2.5583	253.188	222.395	360.862	112.925	213.041	173.859	56.618	278.588	200.655	136.200	362.945	238.381	75.417	54.940	181.993	302.423	0.00045332	0.0090648	0.00011857	508.76	3.9591e-06	3.5168e-06	837.95	130.27	1.9807e-06	2.5186e-06	305.5	108.18	37.823	14.779	2.7815e-06	53.072	0.003419	0.0012243	0.00022389	521.99	9.7024e-06	9.4235e-06	854.42	131.16	9.764e-06	1.0599e-05	304.24	116.75	38.584	15.017	9.9637e-06	53.155	53.137	151.403	96.744	29.660	176.428	191.065	30.042	34.744	116.000	222.428	34.693	38.977	38.552	43.178	166.895	43.667	-8191	255	
32995.438	1	1	0	0	0.11585	0.078589	0.10953	0.12126	0.13129	0.15056	0.25194	0.11616	0.23359	0.15636	0.16011	0.18651	0.48103	0.19883	0.1601	0.3014	-2.1208	-2.7938	-2.375	-2.5854	-2.725	-2.5354	-2.6729	-2.5583	-2.5542	-2.7271	-2.4896	-2.7438	-2.5979	-2.4917	-2.7313	-2.7896	262.136	204.086	373.728	200.385	323.068	33.514	289.939	282.689	313.257	159.452	328.441	65.457	31.897	338.521	337.763	63.946	0.00047126	0.0043393	0.00015678	510.51	5.2947e-06	7.1698e-06	839.2	130.67	5.4628e-06	3.2791e-06	303.58	108	37.665	14.586	4.7835e-06	52.567	0.0010672	0.0021219	0.00022761	522.62	9.8503e-06	9.1316e-06	883.43	131.06	9.333e-06	1.0269e-05	303.38	111.58	38.488	14.907	1.0341e-05	52.842	65.398	148.978	117.231	29.315	196.877	170.010	29.488	34.441	232.859	244.797	35.180	39.049	38.781	42.928	122.687	43.334	-8191	255	
32995.535	1	1	0	0	0.039754	0.2314	0.12549	0.17096	0.19543	0.23115	0.15149	0.0056367	0.026775	0.33726	0.13666	0.065052	0.1489	0.044528	0.10266	0.14749	-2.1271	-2.6437	-2.3917	-2.6667	-2.7458	-2.3604	-2.9458	-2.7125	-2.3833	-2.7125	-2.3958	-2.8708	-2.7146	-2.4021	-2.7313	-2.6625	138.663	217.824	270.571	26.086	77.591	221.214	371.557	159.939	201.339	142.032	285.005	273.412	131.208	257.877	72.280	284.244	0.00063629	0.0079723	4.1772e-05	513.33	4.3151e-06	1.2364e-06	834.5	130.57	4.7364e-06	2.8723e-06	303.58	108.06	38.383	14.721	2.0136e-06	53.139	0.00083417	0.0049166	0.00022989	523.01	9.7989e-06	8.8554e-06	853.71	131.11	8.969e-06	1.0325e-05	303.13	114.43	39.424	14.98	9.6773e-06	53.203	90.999	151.657	197.978	28.947	149.046	212.703	29.724	34.151	127.101	199.402	34.802	38.677	38.555	43.144	166.984	43.692	-8191	255	
32995.633	1	1	0	0	0.07388	0.12684	0.034607	0.22446	0.105	0.047674	0.23611	0.15622	0.10895	0.25006	0.2963	0.016958	0.057814	0.25647	0.099598	0.095822	-2.0812	-2.7396	-2.4792	-2.5187	-2.875	-2.5271	-2.7875	-2.6312	-2.4979	-2.8	-2.5687	-2.5104	-2.7125	-2.2771	-2.5917	-2.8646	17.329	258.358	122.985	85.840	76.300	305.713	326.636	302.936	328.455	211.285	317.332	68.058	179.563	336.283	128.976	303.644	0.00061455	0.0035289	0.00013234	508.43	3.6562e-06	1.8182e-06	835.2	130.01	3.7171e-06	5.6258e-07	301.83	107.09	37.679	14.266	6.943e-06	51.973	0.00079235	0.0026333	0.00022478	516.44	9.8514e-06	8.4517e-06	880.4	130.73	8.8613e-06	1.0154e-05	301.14	107.3	40.421	14.664	1.0241e-05	52.183	86.265	155.948	112.154	29.825	193.271	132.803	29.766	33.829	154.751	325.900	34.781	39.326	39.046	43.146	192.092	43.348	-8191	255	
32995.754	1	1	0	0	0.19461	0.2095	0.064937	0.12118	0.21381	0.089478	0.22707	0.15171	0.074435	0.18409	0.08359	0.043834	0.22932	0.081747	0.18167	0.077604	-2.0687	-2.6417	-2.5938	-2.3833	-2.7667	-2.5812	-2.7354	-2.6792	-2.3458	-2.6833	-2.6771	-2.6583	-2.7354	-2.5729	-2.6875	-2.8396	29.823	215.181	142.907	313.798	308.720	45.911	67.572	353.658	166.777	115.809	255.724	146.310	193.942	193.846	291.854	177.506	0.00059096	0.0077845	0.00011632	503.84	3.6978e-06	1.8465e-06	828.32	128.69	2.795e-06	3.4647e-06	299.96	105.53	37.608	14.226	4.107e-06	51.446	0.00078594	0.0048625	0.00023987	514.36	1.0114e-05	9.0872e-06	845	129.71	8.8917e-06	1.0839e-05	299.34	105.78	44.835	14.588	1.0456e-05	51.753	88.059	161.176	116.708	28.999	184.524	106.396	29.855	34.432	140.566	246.338	34.892	39.308	38.171	43.316	184.391	43.221	-8191	255	
32995.848	1	1	0	0	0.072901	0.15781	0.2176	0.1836	0.24973	0.096496	0.16452	0.27541	0.087374	0.057714	0.0086878	0.16758	0.12435	0.067293	0.02061	0.15553	-2.1146	-2.7729	-2.6	-2.5583	-2.8417	-2.6063	-2.625	-2.8688	-2.4167	-2.6146	-2.6958	-2.4562	-2.9646	-2.7042	-2.3958	-2.9437	56.110	242.220	78.949	314.960	267.457	215.971	351.783	38.974	358.140	264.291	328.386	86.615	55.370	19.165	37.448	316.577	0.00060126	0.003898	4.3425e-05	498.82	1.6445e-06	3.9387e-06	827.98	128.14	1.9075e-06	9.7855e-06	299.12	103.64	36.506	13.906	2.4885e-06	50.565	0.00084136	0.0026954	0.00026586	513.55	1.1442e-05	1.0185e-05	853.15	132.29	1.0003e-05	1.1893e-05	299.91	104	40.331	14.299	1.1721e-05	50.882	92.902	165.226	93.647	29.289	152.482	165.504	29.454	34.534	125.980	164.327	35.333	39.611	38.605	43.412	322.775	43.687	-8191	255	
32995.945	1	1	0	0	0.22014	0.17928	0.029708	0.090992	0.22984	0.087456	0.16346	0.08395	0.10348	0.30175	0.40904	0.27181	0.21809	0.21511	0.094387	0.18578	-1.8667	-2.6229	-2.7562	-2.4625	-2.7687	-2.4375	-2.7292	-2.8625	-2.5083	-2.5771	-2.7833	-2.4229	-2.7229	-2.3917	-2.4688	-2.9208	162.355	260.396	259.408	26.486	324.287	151.655	295.846	51.046	354.127	185.647	329.401	72.082	335.420	283.410	250.728	29.260	0.00049041	0.0084235	0.00013999	498.78	6.0109e-06	3.1733e-06	832.89	127.83	6.512e-06	4.7871e-06	297.04	101.73	36.256	13.754	1.8279e-06	50.413	0.00096004	0.004978	0.00031644	518.56	1.2851e-05	1.2347e-05	826.74	135.87	1.1249e-05	1.3686e-05	297.89	102.57	43.904	14.269	1.2554e-05	50.95	83.277	170.907	169.688	29.732	197.157	152.266	29.830	34.741	174.595	165.832	34.721	39.777	37.827	43.304	227.919	44.158	-8191	255	
32996.016	1	1	0	0	0.1854	0.1429	0.1499	0.19783	0.09382	0.043409	0.26328	0.13952	0.18633	0.10714	0.043756	0.04172	0.039998	0.12529	0.057593	0.34037	-2.0646	-2.5271	-2.6417	-2.4771	-2.5771	-2.5021	-2.5792	-2.7542	-2.5896	-2.5896	-2.5167	-2.4792	-2.5229	-2.5979	-2.4042	-2.8146	105.019	124.358	19.376	246.672	334.990	39.427	285.845	50.624	245.584	161.812	125.355	68.859	146.088	135.169	118.511	333.121	0.00060549	0.0041033	0.00012638	502.63	3.0516e-06	4.4917e-06	834.04	127.51	3.2725e-06	6.2921e-06	299.23	102.99	36.258	14.068	6.813e-06	50.763	0.0010486	0.0029244	0.00034925	524.88	1.4601e-05	1.3231e-05	828.31	147.56	1.1946e-05	1.3406e-05	300.71	103.47	40.448	14.519	1.1738e-05	51.528	85.762	167.478	15.705	29.709	62.093	188.356	29.969	33.661	123.713	150.699	34.419	39.482	39.016	43.340	195.156	43.982	-8191	255	
32996.137	1	1	0	0	0.29168	0.32461	0.072577	0.23025	0.09147	0.33339	0.27615	0.030828	0.16368	0.13483	0.26338	0.30089	0.044273	0.21162	0.23124	0.13958	-2.0958	-2.65	-2.8708	-2.3937	-2.7708	-2.8812	-2.3771	-2.8667	-2.3438	-2.6333	-2.9104	-2.5521	-2.7229	-2.6937	-2.2896	-2.8312	284.799	51.313	337.204	59.496	315.828	135.030	342.520	173.941	212.139	266.092	309.619	335.489	231.733	174.492	197.099	371.804	0.00062319	0.0013007	0.002167	498.41	4.6563e-06	4.919e-06	829.19	128.25	5.0389e-06	6.749e-06	300.46	103.95	37.684	14.416	5.4901e-06	51.76	0.00099982	0.0035418	0.0005509	517.95	1.2706e-05	1.223e-05	822.99	138.44	1.1447e-05	1.1947e-05	301.76	104.59	44.861	14.817	1.0364e-05	52.427	84.067	308.576	173.065	29.445	157.526	123.535	30.026	34.144	157.864	152.746	34.488	39.598	38.358	43.062	207.090	43.748	-8191	255	
32996.234	1	1	0	0	0.033274	0.22782	0.05911	0.15582	0.16287	0.19749	0.29006	0.14912	0.1921	0.16141	0.48173	0.3112	0.18841	0.30113	0.041493	0.14379	-2.05	-2.4646	-2.9979	-2.6	-2.7521	-2.7146	-2.4938	-2.6833	-2.6937	-2.3646	-2.8688	-2.4958	-2.525	-2.7271	-2.4521	-2.6542	108.156	273.141	50.749	267.388	182.584	296.435	323.751	330.518	65.328	120.436	32.840	368.252	122.881	62.966	324.939	277.539	0.00062606	0.00059258	0.00091935	502.92	1.128e-06	3.1896e-06	830.09	128.83	3.7412e-06	4.1008e-06	302.28	106.13	37.75	14.701	3.5316e-06	52.401	0.00094839	0.0010091	0.00068272	514.66	1.1604e-05	1.1184e-05	822.36	148.14	1.0391e-05	1.0557e-05	301.46	106.06	41.276	15.023	9.511e-06	52.719	95.259	275.462	168.987	29.358	111.494	152.047	29.982	33.366	166.439	108.222	34.994	39.502	38.568	43.053	252.743	43.355	-8191	255	
32996.328	1	1	0	0	0.099677	0.22962	0.19154	0.24815	0.1212	0.12756	0.31233	0.066463	0.21534	0.2798	0.31278	0.061397	0.24454	0.21693	0.206	0.12634	-2.3063	-2.3521	-2.75	-2.5979	-2.7021	-2.8625	-2.5625	-2.6937	-2.6021	-2.6875	-2.7833	-2.5938	-2.6354	-2.7146	-2.5167	-2.6354	125.198	97.950	68.949	353.195	355.417	72.523	296.154	215.826	190.157	132.943	303.769	178.185	343.425	83.579	104.375	327.300	0.0006629	0.00054729	0.0019892	504.24	1.875e-06	5.5375e-06	828.58	129.41	5.3234e-06	6.4731e-06	300.24	107.26	38.073	15.139	3.2114e-06	53.078	0.00089517	0.00089523	0.0013541	513.76	1.0094e-05	1.0103e-05	821.31	138.08	9.3022e-06	9.1194e-06	299.53	107.16	42.666	15.806	8.7405e-06	53.28	90.953	88.914	193.000	29.398	55.114	174.754	30.128	34.225	173.482	140.511	34.927	39.306	37.959	43.548	158.407	43.240	-8191	255	
32996.422	1	1	0	0	0.17429	0.16746	0.44986	0.096426	0.149	0.15741	0.26992	0.21934	0.071626	0.2203	0.2206	0.26904	0.15815	0.066666	0.2155	0.17178	-2.2396	-2.2979	-2.6833	-2.6063	-2.4229	-2.7646	-2.5812	-2.6771	-2.8396	-2.5104	-2.9021	-2.4458	-2.5333	-2.8563	-2.5312	-2.7604	101.184	370.643	369.109	73.323	329.370	245.201	283.692	81.223	110.015	130.557	18.069	311.905	96.458	163.034	37.349	249.390	0.00064041	0.00052802	0.0010619	506.4	1.2502e-06	4.9759e-06	840.23	127.42	2.8559e-06	2.4073e-06	298.55	106.75	37.304	14.969	5.47e-06	53.045	0.00086555	0.00082309	0.00073575	518.32	9.8075e-06	1.0299e-05	830.91	146.24	9.5773e-06	9.0472e-06	297.92	106.99	38.125	16.112	8.5975e-06	53.251	86.540	153.662	191.382	29.552	197.030	194.309	30.216	33.499	127.973	143.956	34.747	39.345	38.885	43.282	150.653	43.315	-8191	255	
32996.543	1	1	0	0	0.035025	0.22913	0.0076577	0.27149	0.12035	0.12222	0.18623	0.10359	0.09103	0.097863	0.12676	0.3294	0.087791	0.13096	0.23198	0.25078	-2.5375	-2.6708	-2.7354	-2.5167	-2.4562	-2.8646	-2.6292	-2.5854	-2.7833	-2.4708	-2.6479	-2.7375	-2.5042	-2.725	-2.4688	-2.7125	276.327	87.564	154.929	242.934	33.789	186.142	375.023	63.448	324.281	180.766	222.966	75.355	354.521	330.145	234.447	330.559	0.00063545	0.00038317	0.0020979	502.76	3.5985e-06	4.8631e-06	834.28	127.7	6.9744e-06	3.9642e-06	295.84	105.94	36.956	15.081	5.4559e-06	52.443	0.00084515	0.00077669	0.0013406	515.35	8.7088e-06	9.4948e-06	823.74	135.75	9.3177e-06	8.5521e-06	295.81	106.35	37.722	17.544	8.7579e-06	52.675	80.874	114.849	196.872	29.451	147.216	146.218	30.014	34.274	98.611	143.424	34.880	39.271	39.136	42.600	190.396	43.296	-8191	255	
32996.617	1	1	0	0	0.053952	0.088849	0.31849	0.17739	0.14223	0.19629	0.061005	0.28041	0.18168	0.13023	0.14991	0.10855	0.060911	0.24324	0.12516	0.1892	-2.3396	-2.3354	-2.3979	-2.4292	-2.5833	-2.7229	-2.6937	-2.5875	-2.8146	-2.4417	-2.6604	-2.7333	-2.5438	-2.6937	-2.5208	-2.5792	215.239	166.265	267.657	359.816	52.517	43.697	94.046	88.687	176.180	72.236	68.544	237.255	190.419	60.220	125.876	354.325	0.00061646	0.00059842	0.0009926	499.6	4.0847e-06	3.5603e-06	832.39	127.05	1.5182e-05	6.9393e-06	294.27	105.71	36.975	14.873	4.2391e-06	52.582	0.00083412	0.00078646	0.00072692	514.37	8.8539e-06	1.0175e-05	822.3	136.75	2.2234e-05	8.6149e-06	295.02	105.93	37.561	16.078	8.8198e-06	52.713	83.658	168.668	206.127	29.742	150.050	156.002	29.707	32.524	165.201	190.349	34.869	39.308	39.012	42.862	269.983	43.426	-8191	255	
32996.734	1	1	0	0	0.30889	0.21186	0.23459	0.11174	0.21411	0.067189	0.017483	0.27676	0.11017	0.041437	0.12856	0.28971	0.3067	0.22186	0.32452	0.34403	-2.4042	-2.3854	-2.675	-2.5833	-2.325	-2.7125	-2.6271	-2.6063	-2.7042	-2.4813	-2.7479	-2.7938	-2.3146	-2.7604	-2.6271	-2.6104	44.545	360.958	204.866	175.611	199.399	127.282	129.795	36.535	35.167	35.720	375.720	193.020	24.472	77.455	45.625	355.226	0.00060604	0.00058967	0.0020746	500.82	2.696e-06	1.4658e-06	827.47	125.94	1.0635e-05	3.3731e-06	295.38	105.87	36.77	14.969	3.0844e-06	52.48	0.00085262	0.00077539	0.0013367	511.66	8.5433e-06	1.0074e-05	818.83	127.36	2.6608e-05	8.9831e-06	294.79	106.13	37.604	17.491	9.3437e-06	52.602	78.188	110.447	215.564	29.498	121.349	154.745	29.930	34.304	168.874	182.579	34.822	39.516	39.646	43.268	125.990	43.208	-8191	255	
32996.832	1	1	0	0	0.085124	0.26858	0.13121	0.04623	0.23697	0.10447	0.21385	0.050412	0.24215	0.058428	0.04549	0.29428	0.040763	0.16383	0.12905	0.45323	-2.3708	-2.5104	-2.6833	-2.6729	-2.6063	-2.8958	-2.65	-2.3771	-2.7479	-2.4104	-2.8167	-2.9083	-2.35	-2.6396	-2.5771	-2.4437	140.095	132.461	40.282	232.459	202.971	42.670	319.699	171.656	310.446	138.483	180.851	152.707	331.478	167.024	26.453	277.500	0.00060271	0.00073019	0.0007033	502.59	2.5966e-06	2.1499e-06	829.48	127.31	8.2424e-05	1.5847e-06	297.88	106.15	36.982	14.712	3.0473e-06	52.172	0.00087229	0.00085907	0.0007272	512.04	8.8458e-06	1.0975e-05	820.95	127.61	5.2186e-05	9.8221e-06	296.51	106.08	37.679	16.069	1.0154e-05	52.361	92.193	154.098	216.833	29.278	261.439	374.861	29.984	34.229	28.666	201.619	34.976	39.176	39.129	42.807	143.973	43.592	-8191	255	
32996.926	1	1	0	0	0.12674	0.29991	0.04509	0.17516	0.074588	0.35633	0.2066	0.2162	0.21369	0.066918	0.050103	0.11097	0.29898	0.076092	0.10277	0.1796	-2.2958	-2.5833	-2.6854	-2.7042	-2.4271	-2.7646	-2.6271	-2.3354	-2.8667	-2.5312	-2.6688	-2.8542	-2.7021	-2.6312	-2.6125	-2.4854	270.421	243.133	143.208	28.043	303.442	335.408	368.243	66.742	84.920	29.766	43.243	153.697	38.762	69.504	277.780	190.403	0.00058038	0.00045705	0.0011953	488.72	2.3824e-06	1.0659e-06	827.9	126.61	3.6321e-05	3.0323e-06	294.85	105.23	36.67	14.867	7.4436e-06	51.752	0.00094277	0.00090052	0.00078877	559.58	9.3758e-06	1.0815e-05	817.23	127.03	2.8569e-05	9.9393e-06	294.87	105.52	37.44	17.326	1.0453e-05	51.89	89.770	69.887	277.852	31.385	214.877	349.894	29.956	34.586	31.940	242.286	34.683	39.379	39.253	43.179	167.105	43.230	-8191	255	
32997.023	1	1	0	0	0.18516	0.28093	0.13025	0.10454	0.20759	0.16093	0.15298	0.12037	0.0090003	0.24782	0.14381	0.299	0.12577	0.14768	0.12829	0.17761	-2.3	-2.6292	-2.5104	-2.65	-2.5104	-2.5938	-3.0021	-2.5062	-2.4667	-2.6854	-2.6146	-2.6458	-2.5812	-2.6146	-2.6667	-2.6458	34.167	260.660	168.186	118.746	146.816	233.411	244.606	185.711	272.130	259.062	268.866	345.420	143.753	255.441	357.772	226.456	0.00061462	0.00058448	8.4909e-05	494.17	2.825e-06	8.5801e-06	824.55	126.7	6.5792e-05	5.1148e-06	295.42	105.44	36.932	14.824	4.7226e-06	51.979	0.00096299	0.00094844	0.00025861	569.1	1.0231e-05	1.1404e-05	818.04	127.75	5.269e-05	1.0884e-05	296.16	105.73	37.836	16.106	1.0569e-05	52.312	88.923	177.274	120.960	30.257	218.032	109.462	29.797	34.147	34.913	96.813	34.966	39.616	39.028	43.142	161.972	43.250	-8191	255	
32997.145	1	1	0	0	0.05986	0.090759	0.14462	0.33639	0.25254	0.10158	0.058495	0.058969	0.16176	0.31869	0.11101	0.059059	0.095466	0.27789	0.15181	0.11107	-2.2146	-2.7417	-2.5292	-2.9208	-2.6083	-2.6667	-2.8042	-2.3875	-2.7458	-2.725	-2.4062	-2.8812	-2.6437	-2.6229	-2.7208	-2.525	64.089	59.256	25.267	86.267	20.160	121.244	341.218	250.990	92.555	19.380	284.705	232.982	248.691	229.791	285.363	334.639	0.00059982	0.00049038	0.00010061	476.45	1.3921e-06	5.5099e-06	823.02	127.79	2.6605e-05	5.5382e-06	297.63	105.47	36.885	14.786	7.9213e-05	52.205	0.00099639	0.00098346	0.00025327	649.89	1.032e-05	1.1192e-05	817.67	128.99	2.9778e-05	1.1537e-05	297.35	106.19	38.099	16.195	2.7664e-05	52.371	92.139	102.552	105.296	30.475	186.553	191.045	29.648	34.637	41.214	198.838	34.930	39.831	39.062	42.664	192.073	43.498	-8191	255	
32997.215	1	1	0	0	0.03523	0.30297	0.19662	0.22499	0.055272	0.096991	0.29793	0.070117	0.070207	0.16849	0.18701	0.23711	0.41889	0.20821	0.097083	0.091568	-2.2271	-2.8042	-2.3042	-2.7062	-2.8021	-2.475	-2.9396	-2.3875	-2.5729	-2.675	-2.4125	-2.7979	-2.6521	-2.4	-2.575	-2.6479	339.366	298.328	28.869	331.602	158.672	18.845	363.647	314.256	113.523	244.665	272.195	320.930	73.424	226.355	22.575	246.372	0.00064538	0.00073509	0.00012228	489.25	4.312e-06	8.7567e-07	828.33	128.61	8.1877e-05	2.5787e-06	298.43	106.34	37.046	14.593	3.5846e-05	52.279	0.00099229	0.0010127	0.00025851	575.78	1.0871e-05	1.0669e-05	821.42	129.69	5.2987e-05	1.14e-05	298.18	106.34	38.202	14.955	2.9453e-05	52.32	92.265	75.940	131.398	29.852	131.673	221.719	30.227	34.438	47.624	141.614	34.751	39.378	38.660	43.412	176.053	43.771	-8191	255	
32997.312	1	1	0	0	0.079807	0.30064	0.27617	0.15061	0.12574	0.13216	0.37331	0.17622	0.061358	0.40541	0.19031	0.39009	0.22404	0.20173	0.30079	0.11478	-2.1542	-2.7167	-2.3229	-2.6979	-2.5875	-2.5354	-2.925	-2.4896	-2.6292	-2.8958	-2.2833	-2.8208	-2.5979	-2.4646	-2.7833	-2.4917	66.339	33.221	36.826	253.180	38.585	210.415	329.518	322.415	321.001	80.535	320.249	233.233	99.328	325.706	246.720	344.181	0.00056941	0.00042241	0.0001239	479.26	1.229e-06	3.5339e-06	829.52	129.68	3.1186e-05	5.0035e-06	298.01	105.89	37.317	14.62	7.8476e-05	51.991	0.00096366	0.00098951	0.00024991	652.97	1.0599e-05	9.8983e-06	822.07	130.5	2.8872e-05	1.0816e-05	297.39	106.42	38.339	14.993	5.2838e-05	52.435	83.987	120.071	86.065	30.186	163.549	159.553	29.705	34.305	52.116	100.268	34.804	39.451	39.098	42.793	179.223	43.338	-8191	255	
32997.434	1	1	0	0	0.26759	0.33938	0.04411	0.18816	0.12715	0.3059	0.25864	0.09475	0.068342	0.021433	0.21357	0.20012	0.12766	0.015789	0.033538	0.14034	-2.1	-2.7	-2.6063	-2.6229	-2.5271	-2.4833	-2.9083	-2.5229	-2.6042	-2.775	-2.4979	-2.6917	-2.6708	-2.3729	-2.6937	-2.5938	190.644	132.569	19.599	301.663	131.557	302.637	333.869	193.420	212.562	333.182	284.992	251.845	166.015	97.285	281.941	25.378	0.00048755	0.00045399	0.00020086	494.3	4.9776e-06	2.047e-06	828.61	129.19	8.38e-05	2.9508e-05	297.21	107.12	37.355	14.744	3.8383e-05	52.451	0.00091808	0.00097123	0.00025004	578.56	1.0291e-05	9.2658e-06	824.18	130.12	2.681e-05	2.9546e-05	297.78	107.05	38.406	15.098	2.9503e-05	52.736	88.691	33.882	129.644	30.196	176.766	101.619	29.480	34.450	33.354	145.078	34.736	39.343	39.345	42.770	182.457	43.449	-8191	255	
32997.527	1	1	0	0	0.19347	0.21098	0.16207	0.085468	0.099569	0.043667	0.3753	0.095111	0.095162	0.057568	0.27178	0.21046	0.13757	0.083377	0.12972	0.11047	-2.1771	-2.7458	-2.55	-2.7354	-2.7979	-2.6271	-2.7979	-2.65	-2.5417	-2.8688	-2.6063	-2.6083	-2.5812	-2.4021	-2.6979	-2.6958	74.582	325.696	253.986	86.167	257.542	370.727	354.158	92.233	307.548	369.561	363.187	247.682	162.569	64.701	53.562	79.910	0.00057883	0.00056506	5.1337e-05	481.17	2.6222e-06	3.851e-06	831.22	129.21	3.9886e-06	3.5148e-05	298.52	106.94	37.441	14.885	7.7178e-05	52.811	0.00083912	0.00096281	0.00023969	651.09	9.9397e-06	8.7986e-06	824.55	130.17	8.9624e-06	2.9349e-05	297.54	106.98	38.413	15.144	5.237e-05	53.001	90.830	104.969	156.809	29.797	87.902	137.779	30.048	34.412	230.884	87.260	34.702	39.111	38.593	42.790	184.425	43.069	-8191	255	
32997.625	1	1	0	0	0.19221	0.15986	0.22525	0.094715	0.0709	0.15423	0.28841	0.057579	0.2424	0.15235	0.3613	0.08489	0.19313	0.092519	0.20564	0.12194	-2.0833	-2.5479	-2.4292	-2.4313	-2.7833	-2.4792	-2.7854	-2.65	-2.4021	-2.8708	-2.4646	-2.5146	-2.6063	-2.5479	-2.6583	-2.7125	310.954	272.529	255.718	317.922	94.364	311.632	285.039	339.670	29.460	310.543	323.290	373.578	190.986	258.693	50.852	303.086	0.00065902	0.00021964	0.00017236	500.68	1.5319e-06	3.5927e-06	833.64	129.29	6.5725e-06	8.1229e-05	295.81	106.01	37.597	14.798	3.447e-05	52.33	0.00080193	0.00091953	0.00024301	575.08	9.8703e-06	9.0812e-06	824.85	129.72	8.9124e-06	5.4131e-05	296.71	106.43	38.36	15.053	2.8502e-05	52.414	89.907	74.404	154.732	28.384	278.705	152.260	29.894	34.855	107.635	86.509	34.856	39.535	38.892	42.723	189.006	43.287	-8191	255	
32997.719	1	1	0	0	0.21829	0.091427	0.21965	0.083653	0.15638	0.2087	0.042002	0.1742	0.32417	0.2466	0.28155	0.080766	0.38228	0.1266	0.26309	0.17018	-2.0979	-2.7104	-2.5187	-2.5125	-2.8333	-2.5625	-2.8604	-2.5583	-2.3542	-2.875	-2.8479	-2.5167	-2.8354	-2.5271	-2.6875	-2.8854	155.274	78.840	88.530	317.258	213.918	191.221	114.379	363.123	284.354	213.050	344.513	351.614	20.784	310.754	88.590	347.072	0.00055528	0.00045338	8.8613e-05	488.93	3.9428e-05	1.9823e-06	830.16	127.87	4.0795e-06	2.8844e-05	295.27	104.76	36.879	14.459	7.0962e-05	51.593	0.00079867	0.001013	0.00025214	562.57	3.0695e-05	9.4386e-06	822.27	128.9	8.9096e-06	2.9155e-05	294.54	105.12	37.873	14.791	5.0853e-05	51.68	91.640	59.497	133.322	27.817	257.889	169.599	29.825	34.329	201.024	94.474	35.068	39.280	39.702	42.358	198.004	43.322	-8191	255	
32997.840	1	1	0	0	0.10995	0.17559	0.024481	0.25235	0.10469	0.14927	0.099547	0.070848	0.18689	0.13201	0.24128	0.1662	0.024807	0.25291	0.1002	0.19855	-2.1042	-2.8792	-2.6333	-2.5979	-2.6625	-2.7208	-2.6417	-2.6375	-2.5083	-2.8083	-2.7521	-2.4313	-2.8312	-2.4792	-2.6771	-2.6125	140.586	348.024	84.259	36.411	215.323	85.944	226.363	330.854	153.664	109.366	82.101	68.331	295.868	330.183	323.244	233.173	0.00062261	0.00051979	0.00015306	503.09	3.1142e-05	3.3422e-06	827.45	127.53	8.1173e-06	7.1906e-05	293.08	105.15	36.798	14.386	6.3298e-06	51.694	0.00078424	0.00097393	0.00025167	512.11	2.8783e-05	9.725e-06	822.37	128.76	9.407e-06	5.4154e-05	293.65	105.07	37.998	14.799	2.7481e-05	51.912	86.680	71.464	124.557	29.771	315.841	131.926	30.013	34.002	150.609	107.356	34.772	39.349	39.139	42.822	157.950	43.609	-8191	255	
32997.910	1	1	0	0	0.24092	0.17635	0.088975	0.17158	0.2245	0.038983	0.20011	0.13311	0.17445	0.12645	0.24118	0.034457	0.090518	0.42713	0.20689	0.15622	-1.9646	-2.6667	-2.5146	-2.5021	-2.9104	-2.5958	-2.6229	-2.7667	-2.5042	-2.7333	-2.7396	-2.4208	-2.7208	-2.5646	-2.6375	-3.0167	213.939	265.008	47.915	179.276	269.780	276.066	326.591	272.061	213.287	28.678	325.098	272.398	42.730	46.611	263.028	163.448	0.00052918	0.0005685	1.0679e-05	500.52	6.7372e-05	2.0625e-06	826.74	126.78	2.6685e-06	3.7236e-05	293.63	104.48	37.036	14.383	7.8865e-06	51.173	0.00083838	0.0010392	0.00026314	512.81	5.2899e-05	1.0108e-05	822.31	128.88	9.9259e-06	3.0517e-05	294.19	104.84	38.25	14.809	2.3952e-05	53.552	88.289	140.423	215.227	28.837	335.737	85.486	29.873	34.773	275.266	106.139	34.824	39.430	39.143	42.693	50.609	44.131	-8191	255	
32998.008	1	1	0	0	0.19189	0.070152	0.17409	0.18876	0.15321	0.088968	0.088898	0.1158	0.025677	0.23944	0.28994	0.2267	0.027193	0.1378	0.25796	0.1322	-1.8937	-2.7604	-2.7375	-2.3542	-2.7521	-2.5312	-2.625	-2.7042	-2.725	-2.625	-2.8625	-2.5458	-2.7333	-2.5458	-2.375	-2.9917	45.195	373.373	299.293	179.174	63.850	277.848	242.357	213.342	105.272	107.378	321.035	258.043	318.723	43.232	294.167	310.178	0.00063448	0.00075009	0.00016324	498.31	2.3561e-05	4.5283e-06	828.83	127.41	8.2687e-06	7.0127e-05	294.74	104.08	36.79	14.312	7.1964e-06	51.06	0.00091209	0.0010651	0.00028285	515.87	3.0666e-05	1.1148e-05	824.83	129.35	1.0803e-05	5.416e-05	294.21	104.61	38.094	14.771	1.0206e-05	52.989	85.396	104.505	128.738	29.711	330.665	180.913	29.754	34.213	195.149	113.266	35.008	39.423	39.277	43.021	143.389	43.798	-8191	255	
32998.102	1	1	0	0	0.2929	0.088666	0.038102	0.1996	0.11067	0.1277	0.059942	0.073553	0.21496	0.13029	0.24677	0.34227	0.034906	0.15998	0.21873	0.24771	-2.2417	-2.4667	-2.5083	-2.4479	-2.5708	-2.5625	-2.4813	-2.7375	-2.5312	-2.3875	-2.8958	-2.4104	-2.6729	-2.6312	-2.4771	-2.8	79.195	367.036	297.337	121.876	210.737	257.141	362.762	366.528	257.393	139.892	341.399	315.153	24.892	18.696	115.915	311.423	0.00072175	0.00064121	0.00011	504.78	5.9783e-05	1.8834e-06	830.24	126.85	3.3989e-06	2.896e-05	289.99	102.83	36.167	14.05	6.6408e-06	50.041	0.00092268	0.0010573	0.00028155	518.48	5.3408e-05	1.1269e-05	822.09	128.72	1.0525e-05	2.7579e-05	292.28	103.33	37.498	14.46	1.0154e-05	54.021	84.885	75.458	224.581	29.449	348.379	238.786	30.095	34.482	153.025	81.925	34.330	39.660	38.929	43.459	130.234	44.203	-8191	255	
32998.223	1	1	0	0	0.32968	0.41854	0.04974	0.069247	0.22026	0.15095	0.15205	0.14207	0.13352	0.15014	0.013373	0.28239	0.27804	0.10118	0.25538	0.21773	-1.9604	-2.6083	-2.9208	-2.4813	-2.5438	-2.8333	-2.5146	-2.7667	-2.4958	-2.4667	-2.8396	-2.7042	-2.6063	-2.6229	-2.1729	-2.8146	236.936	95.061	351.479	348.386	68.389	91.406	263.592	150.825	312.515	50.366	90.633	339.142	138.745	325.563	352.308	321.001	0.00057979	0.00024412	0.00015672	495.7	2.9531e-05	1.2251e-06	826.12	126.45	3.9245e-06	6.1425e-05	293.63	102.23	35.985	13.947	3.0865e-06	49.288	0.00094775	0.0010101	0.00029121	514.09	2.9518e-05	1.117e-05	815.78	127.8	1.0845e-05	2.199e-05	304.94	102.51	37.162	14.358	1.0182e-05	51.607	76.710	25.052	97.786	29.073	346.798	198.135	29.784	34.324	185.366	71.938	35.265	39.390	39.356	43.349	58.185	43.887	-8191	255	
32998.320	1	1	0	0	0.12862	0.056067	0.12869	0.1262	0.23391	0.29656	0.076939	0.19983	0.12633	0.21016	0.34217	0.27631	0.35452	0.053289	0.14212	0.061094	-2.2542	-2.4083	-2.7167	-2.4167	-2.5729	-2.7792	-2.6917	-2.7375	-2.4521	-2.4542	-2.9229	-2.7	-2.6229	-2.5667	-2.2604	-2.7167	222.128	286.355	26.132	234.238	60.157	52.828	291.317	323.766	19.732	133.433	343.356	281.622	26.319	67.219	274.969	25.877	0.00049402	9.2996e-05	0.00023976	504.26	5.9583e-05	2.5999e-06	822.71	125.73	5.6428e-06	1.9577e-06	293.13	102.59	36.161	14.013	4.1823e-06	49.425	0.00093238	0.0009824	0.00030511	517.53	5.2492e-05	1.1247e-05	815.25	128.07	1.0966e-05	1.0755e-05	303.14	103	37.434	14.402	1.0239e-05	53.753	86.759	237.871	115.130	29.287	361.131	18.252	29.896	34.737	180.809	152.888	34.773	39.439	39.475	43.191	239.665	44.098	-8191	255	
32998.414	1	1	0	0	0.15917	0.19512	0.069642	0.25224	0.16579	0.16644	0.13373	0.1936	0.2421	0.26396	0.22137	0.17423	0.17357	0.26675	0.12652	0.16888	-2.4833	-2.6458	-2.6708	-2.35	-2.5333	-2.8729	-2.4792	-2.8729	-2.8458	-2.4229	-2.8438	-2.5854	-2.325	-2.6312	-2.4354	-2.5604	80.144	74.905	195.883	101.136	61.680	74.220	312.003	364.250	325.185	336.588	363.038	23.623	256.482	102.293	61.878	335.659	0.00049406	0.00057643	0.00013229	490.91	2.5553e-05	4.1716e-06	825.94	126.75	6.2189e-06	7.5417e-06	297.22	102.57	36.322	13.888	2.2558e-06	49.983	0.00094809	0.00092554	0.00029982	512.68	2.6034e-05	1.128e-05	814.05	128.02	1.0749e-05	1.0273e-05	316.44	103.06	37.207	14.394	1.0509e-05	51.924	76.282	86.618	150.864	29.777	366.706	257.491	29.832	34.728	113.051	118.329	34.583	39.322	38.786	43.027	122.570	43.984	-8191	255	
32998.512	1	1	0	0	0.26388	0.12084	0.13164	0.18261	0.29163	0.066604	0.19076	0.059762	0.10081	0.092003	0.30909	0.32095	0.02354	0.12301	0.086632	0.20434	-2.2062	-2.4229	-2.4979	-2.3312	-2.5167	-2.7479	-2.6688	-2.5563	-2.5729	-2.4604	-2.6188	-2.4896	-2.6854	-2.6792	-2.4792	-2.5479	324.040	299.263	313.231	130.395	370.874	292.825	288.387	41.070	258.079	190.731	344.069	344.040	221.315	267.105	362.676	35.466	0.0005278	0.00027694	0.00015295	500.65	7.0467e-05	1.8003e-05	814.86	126.83	2.1734e-06	1.401e-06	292.4	100.55	35.837	13.771	4.6388e-06	48.252	0.00094838	0.00093149	0.00031239	514.82	1.983e-05	3.7164e-05	812.07	128.22	1.1058e-05	1.0602e-05	301.84	101.31	36.736	14.244	1.103e-05	52.521	83.681	157.509	103.085	29.541	375.037	246.980	29.725	34.413	221.018	140.490	34.890	39.322	38.971	43.384	145.847	43.885	-8191	255	
32998.609	1	1	0	0	0.05364	0.079796	0.089654	0.025365	0.24398	0.49513	0.020937	0.15236	0.16233	0.069441	0.24044	0.2203	0.33092	0.20151	0.19329	0.12899	-2.2417	-2.3375	-2.75	-2.5625	-2.3896	-2.8729	-2.6646	-2.5542	-2.8333	-2.4771	-2.7646	-2.7875	-2.3667	-2.8	-2.4104	-2.6271	82.440	105.472	162.805	266.859	178.788	39.967	232.826	59.991	82.284	360.343	122.337	353.310	334.214	102.124	322.960	275.052	0.00057937	0.00020575	0.00011877	500.78	3.9369e-06	2.2967e-05	817.61	124.51	5.5911e-06	3.6988e-06	292.11	98.739	35.234	13.383	4.3951e-06	47.762	0.0010009	0.00099715	0.00031977	517.42	1.0735e-05	3.0364e-05	811.67	127.45	1.1345e-05	1.115e-05	312.68	99.924	36.222	13.803	1.1298e-05	49.198	94.067	46.557	169.509	29.175	175.467	367.863	30.065	34.566	135.711	131.230	34.841	39.158	39.607	43.163	186.366	43.868	-8191	255	
32998.703	1	1	0	0	0.16997	0.048966	0.37934	0.16813	0.14092	0.033595	0.21691	0.21183	0.16657	0.37149	0.080507	0.22791	0.19914	0.065925	0.091543	0.15572	-2.2479	-2.15	-2.6583	-2.4688	-2.3083	-2.6729	-2.6625	-2.3792	-2.6354	-2.5083	-2.7396	-2.7333	-2.4958	-2.6667	-2.625	-2.4708	249.826	116.790	360.352	74.467	101.655	181.162	158.427	354.165	103.080	288.601	331.200	45.406	25.556	142.077	221.356	153.844	0.0012306	0.00048026	7.8037e-05	498.02	6.4632e-07	6.5863e-05	819.58	127.1	4.0449e-06	3.4255e-06	289.18	99.319	35.063	13.35	4.5725e-06	47.696	0.0010695	0.0010099	0.00031547	514.72	1.0572e-05	5.2907e-05	813.38	128.33	1.154e-05	1.1425e-05	299.67	99.787	36.028	13.829	1.1232e-05	48.814	101.494	129.843	77.480	28.887	231.738	24.473	29.961	34.529	189.695	181.317	34.866	39.357	39.265	43.268	167.362	43.188	-8191	255	
32998.824	1	1	0	0	0.055873	0.14719	0.20644	0.26062	0.1405	0.20944	0.37662	0.05732	0.08724	0.090008	0.29007	0.17298	0.24399	0.18774	0.26164	0.087732	-2.3979	-2.3167	-2.6417	-2.7208	-2.4896	-2.7042	-2.6958	-2.3792	-2.7083	-2.6229	-2.6146	-2.7812	-2.4313	-2.6917	-2.6104	-2.5687	200.534	83.410	306.708	192.749	350.587	313.321	318.685	221.508	291.710	48.602	310.329	26.578	250.430	310.387	128.350	299.939	0.0020786	0.0001871	6.1633e-05	498.16	1.6899e-06	3.0431e-05	816.38	126.18	3.5821e-06	5.58e-06	291	97.934	34.885	12.963	4.67e-06	46.535	0.003123	0.0010143	0.00030668	517.63	1.074e-05	3.0369e-05	809.47	127.66	1.2184e-05	1.1317e-05	310.73	98.405	35.776	13.507	1.1292e-05	46.977	113.029	72.239	374.561	28.949	97.633	54.353	29.910	34.481	162.123	208.849	34.927	39.556	39.625	43.822	150.988	43.885	-8191	255	
32998.922	1	1	0	0	0.094603	0.121	0.23677	0.22305	0.21868	0.19819	0.24506	0.11324	0.22854	0.24645	0.14143	0.058125	0.089808	0.069057	0.22788	0.2341	-2.1708	-2.45	-2.3792	-2.625	-2.5375	-2.7375	-2.6354	-2.3229	-2.6063	-2.5438	-2.4479	-2.7167	-2.5312	-2.6437	-2.675	-2.5396	137.099	51.339	139.657	76.940	145.236	246.275	313.757	215.792	122.279	268.734	76.998	71.270	179.415	281.106	153.895	315.081	0.0010528	0.00046932	6.5384e-05	494.11	7.3078e-06	7.1129e-05	811.8	124.7	3.2133e-06	3.9807e-06	283.73	97.454	34.204	12.872	8.1514e-06	46.345	0.0023578	0.0010123	0.00029255	512.19	1.0837e-05	5.0981e-05	804.44	126.01	1.2316e-05	1.1449e-05	291.27	97.878	35.192	13.356	1.1067e-05	46.669	124.428	86.175	112.385	29.863	198.324	43.324	29.938	34.728	156.178	195.707	34.697	39.937	39.341	43.532	162.541	43.743	-8191	255	
32999.016	1	1	0	0	0.13888	0.15427	0.27025	0.23144	0.13056	0.040569	0.22049	0.10704	0.19182	0.14122	0.20768	0.13216	0.202	0.36099	0.31649	0.28541	-2.3438	-2.4292	-2.3229	-2.8229	-2.3958	-2.6458	-2.7646	-2.3646	-2.7687	-2.5417	-2.4708	-2.8438	-2.4458	-2.6958	-2.7042	-2.5458	114.523	192.613	347.792	87.877	125.465	346.804	315.168	228.510	224.461	244.475	303.965	305.135	235.907	164.391	117.904	312.392	0.0018444	0.00050331	0.00010497	491.28	1.4355e-06	1.5017e-05	808.26	124.39	7.1604e-06	3.9162e-06	283.88	97.598	34.171	12.761	5.6475e-06	46.23	0.0040533	0.0010282	0.00027356	512.24	1.0869e-05	2.9025e-05	801.88	125.49	1.2075e-05	1.0856e-05	285.35	102.39	34.989	13.203	1.0928e-05	46.524	144.367	130.094	37.227	29.743	43.005	53.771	30.054	34.553	180.307	175.898	34.365	40.160	39.189	43.415	127.979	43.892	-8191	255	
32999.137	1	1	0	0	0.22314	0.061054	0.13223	0.28307	0.10158	0.18675	0.20909	0.11112	0.16712	0.014415	0.13735	0.16392	0.21121	0.097791	0.2053	0.21835	-2.5833	-2.5833	-2.4188	-2.5208	-2.5458	-2.4938	-3.0167	-2.5	-2.7313	-2.6271	-2.4875	-2.9146	-2.4208	-2.5042	-2.6146	-2.4625	135.024	360.105	226.323	210.444	196.081	55.903	260.015	190.069	325.585	107.184	85.541	271.709	179.819	162.089	160.556	344.200	0.00095385	0.00014136	0.0001509	489.8	1.0823e-07	6.2731e-05	807.93	124.04	4.0897e-06	3.5015e-06	281.6	96.137	33.557	12.53	1.6667e-06	45.83	0.0023072	0.00099321	0.000263	511.31	1.0708e-05	4.9529e-05	800.04	125.11	1.1872e-05	1.1256e-05	281.46	99.706	34.796	13.017	1.0968e-05	46.156	129.288	118.985	94.482	29.183	69.646	61.751	29.796	34.516	84.582	195.297	34.630	39.738	39.220	43.732	134.558	43.984	-8191	255	
32999.207	1	1	0	0	0.095467	0.21685	0.28234	0.35064	0.092344	0.22625	0.14299	0.17742	0.1203	0.17729	0.0035483	0.12136	0.20281	0.070364	0.14624	0.22952	-2.0833	-2.5646	-2.325	-2.5938	-2.475	-2.6396	-2.8	-2.3375	-2.6771	-2.7188	-2.5479	-2.85	-2.5375	-2.6	-2.9938	-2.7687	175.485	67.211	141.299	127.975	302.694	347.711	66.385	250.836	67.426	192.021	67.755	345.576	305.626	244.800	327.100	278.410	0.0017026	0.0010044	6.8957e-05	489.16	4.637e-06	3.7352e-05	808.27	123.75	3.828e-06	2.2291e-06	281.52	97.107	34.034	12.692	2.462e-06	45.879	0.0039634	0.00098934	0.00025043	506.92	1.0362e-05	2.1927e-05	802.53	124.82	1.1369e-05	1.0813e-05	281.39	104.29	34.919	13.089	1.1022e-05	46.264	159.071	131.397	123.481	29.163	132.591	28.293	29.807	34.494	216.209	74.520	34.672	40.057	39.115	43.282	214.309	43.904	-8191	255	
32999.305	1	1	0	0	0.19738	0.22004	0.093653	0.37952	0.24581	0.31146	0.2182	0.29444	0.14939	0.063427	0.04911	0.25293	0.096579	0.090214	0.16598	0.33913	-2.4062	-2.9792	-2.575	-2.8354	-2.5896	-2.6146	-3.0604	-2.7521	-2.7896	-2.9521	-2.6729	-2.7917	-2.7521	-2.5687	-2.8771	-2.5375	161.306	69.529	34.015	177.315	118.436	21.997	338.453	38.170	66.711	342.540	361.935	115.738	282.605	214.988	97.856	315.369	0.0008583	0.00052449	0.00011867	488.55	2.5172e-06	6.4696e-05	805.38	122.98	3.9581e-06	5.8962e-06	280.94	95.963	33.649	12.493	5.093e-06	45.742	0.0022124	0.00097466	0.00025594	507.61	1.0479e-05	1.33e-05	828.94	124.1	1.0596e-05	1.0686e-05	280.39	99.516	34.566	12.95	1.142e-05	46.04	140.114	85.191	56.204	29.976	142.878	46.969	30.088	34.499	70.385	214.420	34.706	39.674	38.963	43.394	167.279	43.882	-8191	255	
32999.398	1	1	0	0	0.03379	0.10785	0.25255	0.21512	0.13858	0.23878	0.13711	0.046189	0.12124	0.21463	0.084265	0.21013	0.39046	0.25325	0.081651	0.13095	-2.3417	-2.9188	-2.5938	-2.7271	-2.7792	-2.5354	-3.0833	-2.7125	-2.6021	-2.9542	-2.6	-2.8792	-2.7521	-2.4917	-2.8229	-2.7292	32.558	39.973	34.021	26.386	168.297	52.667	287.339	61.983	351.172	305.537	61.067	80.158	104.713	83.303	108.509	187.776	0.0016848	0.00056602	8.2916e-05	489.7	3.037e-06	1.4671e-06	800.49	122.16	1.1943e-06	2.2463e-06	280.4	98.125	33.926	12.956	6.7021e-06	46.838	0.0038119	0.00095931	0.00025439	504.95	1.0128e-05	9.7809e-06	811.15	123.73	1.0066e-05	1.0713e-05	280.18	104.95	34.886	13.305	1.0867e-05	47.054	162.373	102.868	188.206	29.508	172.016	276.029	29.698	34.256	361.712	168.059	34.911	39.860	38.839	43.687	205.076	43.767	-8191	255	
32999.496	1	1	0	0	0.075743	0.09751	0.023553	0.32687	0.086164	0.19145	0.25348	0.043661	0.30985	0.24358	0.10119	0.14978	0.094739	0.19622	0.1311	0.31229	-2.2875	-2.85	-2.5667	-2.6521	-2.5271	-2.3854	-3.0354	-2.4813	-2.5896	-2.8771	-2.6188	-2.7167	-2.9771	-2.4813	-2.8438	-2.7438	107.466	179.947	159.051	264.463	341.366	70.579	270.297	20.489	161.160	62.194	333.746	224.672	90.260	299.955	247.788	302.439	0.00031488	0.0025171	4.1517e-05	490.39	2.1136e-06	5.2153e-06	805.97	123.61	5.8839e-06	5.2122e-06	282.53	98.468	34.081	13.241	4.982e-06	47.487	0.0017112	0.0012466	0.0002487	503.98	1.0262e-05	9.6094e-06	837.88	124.54	9.6596e-06	1.0941e-05	282.26	101.64	35.26	13.566	1.1233e-05	47.669	155.317	204.206	293.219	29.722	143.524	255.151	29.412	34.481	125.156	214.676	34.618	39.904	38.750	43.492	159.049	43.582	-8191	255	
32999.613	1	1	0	0	0.1963	0.35929	0.072099	0.15926	0.15142	0.20398	0.25187	0.1296	0.072762	0.19127	0.22098	0.33788	0.31998	0.15992	0.19543	0.17826	-2.0938	-2.7833	-2.5979	-2.7687	-2.7854	-2.4854	-2.8063	-2.6813	-2.6625	-2.8917	-2.6604	-2.5708	-2.8063	-2.4875	-2.8479	-2.7062	196.415	201.830	268.648	101.445	336.145	220.551	297.973	167.438	131.006	368.385	136.359	299.843	22.326	63.891	139.448	290.085	0.00091453	0.0045564	0.0001963	486.76	2.2872e-06	3.9238e-06	806.25	124.17	7.2439e-06	3.7346e-06	282.84	99.975	34.854	13.488	4.1911e-06	48.182	0.00096184	0.0039527	0.00025942	503.91	1.0804e-05	1.0081e-05	817.83	124.87	9.6405e-06	1.1953e-05	283.12	107.34	36.008	13.826	1.1133e-05	48.518	212.247	195.070	113.495	30.032	99.544	235.295	29.680	34.383	183.042	242.082	34.841	40.425	38.991	43.308	165.742	43.808	-8191	255	
32999.711	1	1	0	0	0.12827	0.066175	0.17016	0.13655	0.18372	0.14606	0.23077	0.18372	0.23075	0.12155	0.1195	0.34128	0.15202	0.29508	0.22946	0.13885	-2.0917	-2.7812	-2.4625	-2.5146	-2.9042	-2.5771	-2.8979	-2.9125	-2.5542	-2.7125	-2.7062	-2.6729	-2.75	-2.5333	-2.6479	-2.9104	225.413	273.973	348.569	84.759	214.275	311.334	354.049	290.985	183.201	216.233	170.546	357.592	40.266	328.131	106.789	370.092	0.00047551	0.0030006	9.061e-06	497.01	6.5079e-06	3.121e-06	809.52	123.74	4.376e-06	3.3542e-06	283.56	98.979	35.159	13.504	2.3999e-06	48.421	0.00084499	0.002664	0.00026332	506.42	1.1155e-05	1.0264e-05	842.94	124.53	9.8391e-06	1.1741e-05	282.72	101.37	36.833	13.976	1.1192e-05	48.736	78.952	259.394	294.974	29.396	169.262	270.053	29.671	34.381	120.974	156.516	34.508	39.396	40.534	42.992	251.408	43.435	-8191	255	
32999.785	1	1	0	0	0.17228	0.14421	0.3686	0.10618	0.18096	0.10411	0.26008	0.13733	0.05366	0.06318	0.17957	0.042467	0.096229	0.16549	0.013662	0.20419	-2.2333	-2.8271	-2.6417	-2.5125	-2.9437	-2.6979	-2.8208	-2.8167	-2.6042	-2.9083	-2.6021	-2.5917	-2.7458	-2.4708	-2.7521	-2.9167	44.213	281.224	298.576	246.736	347.223	166.182	309.934	366.647	344.733	110.524	59.020	282.445	342.673	30.877	240.232	30.765	0.00054974	0.0080784	5.9851e-05	490.02	7.1036e-06	3.4688e-06	808.6	123.07	3.5319e-06	4.5859e-06	281.31	98.712	35.666	13.608	5.4026e-06	48.237	0.00087883	0.0046533	0.00026605	502.38	1.1416e-05	1.025e-05	817.67	124.11	9.9992e-06	1.1919e-05	281.89	99.259	41.89	13.996	1.0565e-05	48.709	94.228	256.439	214.180	29.330	182.627	97.630	29.522	34.568	197.794	212.110	34.986	39.513	41.174	42.981	133.696	43.496	-8191	255	
32999.906	1	1	0	0	0.1947	0.16907	0.21505	0.051696	0.17283	0.16027	0.07202	0.089263	0.10343	0.16376	0.22499	0.22133	0.063912	0.16179	0.036477	0.24547	-2.1271	-2.7229	-2.7042	-2.5104	-3	-2.6354	-2.8563	-2.9	-2.6562	-2.8104	-2.9188	-2.5625	-3.0521	-2.6604	-2.6104	-3.0083	219.765	317.045	258.909	21.544	326.129	282.467	227.464	252.987	31.943	72.918	225.772	199.078	173.215	121.782	305.201	376.330	0.00056933	0.0032908	0.00014787	485.97	3.9227e-06	3.4377e-06	813.76	123.72	4.4705e-06	3.2881e-06	281.22	99.616	35.319	13.597	4.9751e-06	48.469	0.00088972	0.0026813	0.00026189	500.83	1.1581e-05	1.025e-05	843.21	125.11	9.8719e-06	1.151e-05	281.79	99.779	39.37	14.038	1.0735e-05	48.957	80.297	280.245	126.552	29.422	221.369	239.658	29.552	34.722	146.182	134.149	34.802	39.250	39.711	43.422	184.546	43.886	-8191	255	
33000.000	1	1	0	0	0.12578	0.15974	0.18036	0.15304	0.24651	0.085916	0.20243	0.06788	0.069137	0.18421	0.08812	0.094117	0.083297	0.17443	0.18635	0.12442	-2.3167	-2.7208	-2.8042	-2.6	-2.7458	-2.7062	-2.5875	-2.9583	-2.5271	-2.8688	-2.7729	-2.4854	-2.6583	-2.5333	-2.3271	-2.9167	213.332	17.670	29.089	117.557	196.875	79.709	222.898	364.325	80.166	341.450	343.085	219.718	131.338	364.741	266.260	249.831	0.00049095	0.0071606	5.7807e-05	489.49	4.9635e-06	6.6688e-06	807.28	123.44	5.1046e-06	7.2549e-07	281.05	98.773	35.497	13.53	5.3761e-06	48.209	0.00091062	0.0047549	0.00027529	503.73	1.2067e-05	1.0921e-05	808.59	126.88	1.0548e-05	1.176e-05	281.8	99.53	43.026	13.937	1.0656e-05	48.677	88.803	278.454	136.918	28.899	204.437	187.747	30.021	34.836	155.651	244.702	35.127	39.801	41.103	43.696	173.130	43.578	-8191	255	
33000.098	1	1	0	0	0.19034	0.079924	0.19435	0.048751	0.21257	0.25132	0.1176	0.19445	0.17051	0.1871	0.26545	0.32628	0.14825	0.033545	0.13997	0.10747	-2.1	-2.5667	-2.7333	-2.4396	-2.6667	-2.6896	-2.6021	-2.9104	-2.5	-2.5771	-2.8083	-2.4333	-2.6625	-2.575	-2.4833	-2.9688	31.786	113.393	114.796	73.960	345.186	121.196	268.985	109.850	137.954	201.956	66.539	281.015	165.945	143.454	81.607	42.707	0.00056322	0.0022613	5.8385e-05	489.37	4.6703e-06	7.5297e-07	798.65	123.49	3.9182e-06	1.2891e-06	277.06	97.524	34.457	13.207	4.4476e-06	47.073	0.00095184	0.002719	0.00030132	503.68	1.2811e-05	1.1413e-05	792.55	138.28	1.0964e-05	1.1572e-05	280.21	98.103	38.543	13.649	1.0534e-05	47.727	82.014	300.688	350.056	29.315	227.093	156.241	30.152	34.524	212.026	173.372	34.891	39.653	40.321	43.022	132.420	43.734	-8191	255	
33000.219	1	1	0	0	0.23537	0.15862	0.13056	0.081309	0.1952	0.17505	0.19184	0.083668	0.27724	0.079019	0.12475	0.33783	0.21818	0.15775	0.29982	0.26852	-2.1083	-2.5375	-2.7833	-2.4417	-2.7417	-2.6146	-2.4979	-2.7	-2.5521	-2.4458	-2.8563	-2.4854	-2.6271	-2.6042	-2.3458	-2.7271	286.825	155.976	18.741	302.054	216.139	46.034	17.338	40.171	263.333	355.818	360.430	277.214	323.864	147.912	342.714	63.264	0.00059851	0.0081189	0.00018395	480.25	3.4241e-06	2.1301e-06	789.31	122.46	3.2543e-06	4.3004e-06	277.23	96.509	34.256	12.905	1.4725e-06	46.416	0.00095199	0.0045909	0.00030454	499.03	1.1734e-05	1.1108e-05	786.52	129.68	1.0651e-05	1.1227e-05	277.88	96.878	41.532	13.338	9.9094e-06	46.952	81.753	281.678	105.621	28.909	136.146	187.477	29.977	34.409	197.584	115.804	34.899	39.758	40.485	43.140	191.261	43.691	-8191	255	
33000.312	1	1	0	0	0.14326	0.23802	0.13994	0.21606	0.22847	0.16743	0.25251	0.13237	0.051628	0.1902	0.13262	0.13003	0.30097	0.18433	0.20043	0.21787	-1.8833	-2.5583	-2.6042	-2.6208	-2.6333	-2.6937	-2.5583	-2.725	-2.5458	-2.3479	-2.7958	-2.5146	-2.4562	-2.7375	-2.3354	-2.7104	333.299	98.757	286.867	366.047	229.259	330.019	346.550	269.212	113.091	126.480	147.597	375.038	254.812	193.427	348.394	360.774	0.00048431	0.0025746	0.00026587	480.64	4.0971e-06	7.8692e-06	790.93	122.73	5.5006e-06	4.2257e-06	276.22	96.246	34.041	12.766	2.8332e-06	46.544	0.00087096	0.0017304	0.00042083	495.1	1.0868e-05	1.0412e-05	782.86	137.01	9.639e-06	9.4359e-06	275.95	96.394	37.612	13.216	8.9714e-06	46.995	76.438	314.744	182.283	29.467	140.318	233.469	29.690	34.305	165.027	201.833	34.576	39.682	40.408	43.344	118.250	43.437	-8191	255	
33000.387	1	1	0	0	0.30662	0.2689	0.15364	0.14479	0.13994	0.090443	0.17399	0.099406	0.23778	0.12318	0.12998	0.15659	0.079998	0.14309	0.11811	0.32701	-2.0438	-2.4146	-2.7229	-2.4583	-2.4313	-2.9	-2.5979	-2.6396	-2.5708	-2.4583	-2.6479	-2.6063	-2.4583	-2.6375	-2.5438	-2.7979	150.437	245.425	182.418	271.782	190.203	43.786	219.542	370.649	39.202	44.727	146.265	31.573	274.394	106.837	291.996	327.986	0.00057506	0.0002063	0.00058295	482.3	1.0693e-06	6.0578e-06	791.05	122.6	5.2218e-06	4.5749e-06	275.92	96.667	33.876	12.898	3.5068e-06	46.768	0.00080066	0.00082233	0.0011829	493.37	9.4984e-06	9.9619e-06	781.38	128.16	9.1221e-06	9.0195e-06	275.88	96.559	41.105	13.26	8.809e-06	47.083	91.891	142.641	222.429	29.020	157.951	161.445	30.028	34.497	144.954	224.139	34.526	39.637	40.479	43.212	202.355	43.451	-8191	255	
33000.504	1	1	0	0	0.24466	0.32272	0.17451	0.12139	0.048582	0.091109	0.19756	0.25018	0.1972	0.049568	0.079224	0.38974	0.085174	0.24394	0.1457	0.28705	-2.2188	-2.4229	-2.7583	-2.4667	-2.5229	-2.8833	-2.4917	-2.5917	-2.6771	-2.4521	-2.8396	-2.8083	-2.4271	-2.7896	-2.6083	-2.7833	40.069	353.150	227.961	127.088	363.761	299.789	332.442	289.036	126.962	206.230	357.920	361.769	367.438	28.826	340.572	364.390	0.00056469	0.00041049	0.00077376	477.52	5.2972e-06	2.2407e-06	793.52	122.29	2.8138e-06	1.2635e-06	276.3	96.512	33.859	12.941	5.986e-06	47.212	0.00079323	0.00080695	0.00069248	488.73	8.9529e-06	9.8158e-06	780.99	136.31	8.8939e-06	8.6866e-06	275.11	96.539	35.993	13.666	8.4735e-06	47.244	82.005	138.680	306.992	29.474	163.992	147.151	29.688	34.310	101.281	242.239	34.655	39.316	38.994	43.601	137.061	43.521	-8191	255	
33000.602	1	1	0	0	0.29303	0.035482	0.081578	0.22327	0.3195	0.089972	0.079305	0.044701	0.14671	0.05838	0.076421	0.11031	0.010034	0.17365	0.24566	0.34159	-2.3542	-2.2229	-2.5833	-2.7	-2.5958	-2.8667	-2.7042	-2.4437	-2.7333	-2.3812	-2.6583	-2.6167	-2.4375	-2.7146	-2.5208	-2.6708	181.507	17.445	36.920	204.902	177.480	273.269	292.773	246.150	302.756	332.466	124.032	324.978	51.984	144.343	111.448	314.480	0.00059274	0.0001788	0.0016717	479.22	4.9209e-06	9.4992e-06	785.62	121	1.7359e-06	2.954e-06	274.07	97.124	33.829	13.068	1.9179e-06	47.249	0.00079646	0.00078199	0.0012376	487.08	8.3202e-06	9.8778e-06	777.65	127.58	9.101e-06	8.6279e-06	274.58	96.835	34.521	15.684	8.6045e-06	47.423	85.246	184.437	313.346	29.170	202.074	209.905	29.613	34.660	182.173	168.424	34.517	39.474	39.372	44.844	245.736	43.137	-8191	255	
33000.695	1	1	0	0	0.26038	0.082268	0.10716	0.087574	0.082176	0.067096	0.15687	0.11114	0.10095	0.26852	0.10901	0.10123	0.16827	0.18887	0.17869	0.12393	-2.4688	-2.4313	-2.6437	-2.6604	-2.3708	-2.8375	-2.6396	-2.6208	-2.6792	-2.5646	-2.7083	-2.6271	-2.4625	-2.7083	-2.575	-2.6354	162.145	24.240	146.163	145.243	104.558	55.885	197.000	144.328	188.627	256.522	27.626	119.440	195.455	225.516	78.038	297.526	0.00057302	0.00053427	0.00062874	475.5	3.4377e-06	4.0564e-06	788.33	122.95	3.4119e-06	2.5448e-06	275.54	97.18	33.961	12.966	5.865e-06	47.519	0.00080705	0.00078348	0.00068486	486.85	8.6445e-06	1.026e-05	778.99	136.29	9.4237e-06	8.5246e-06	274.76	96.866	34.626	14.446	8.6511e-06	47.601	89.902	133.493	328.333	29.441	42.204	226.558	29.823	34.192	128.472	107.484	34.825	39.343	39.495	43.909	268.566	43.798	-8191	255	
33000.793	1	1	0	0	0.22096	0.13601	0.056936	0.13914	0.12855	0.11777	0.2203	0.073437	0.28902	0.19228	0.16644	0.098044	0.14128	0.12675	0.2969	0.16669	-2.2375	-2.3854	-2.5917	-2.5667	-2.4583	-2.6208	-2.6312	-2.4542	-2.775	-2.5104	-2.7646	-2.8312	-2.3458	-2.4875	-2.3812	-2.5625	375.418	160.034	149.035	369.589	139.164	107.486	358.555	271.483	66.895	288.501	252.805	85.708	341.174	369.594	218.537	350.803	0.00059282	0.00064547	0.0018832	478.31	1.891e-06	4.1662e-06	786.32	121.46	3.5469e-05	7.6722e-06	276.62	97.13	34.22	12.967	2.9675e-06	47.929	0.00085368	0.00079657	0.0012565	489.43	8.5497e-06	1.0051e-05	778.71	124.63	1.6908e-05	8.8155e-06	276.43	97.524	34.888	15.971	8.7048e-06	48.073	91.329	109.616	317.843	28.932	153.349	225.243	29.917	34.165	158.549	170.374	34.817	39.528	39.113	44.766	233.124	43.374	-8191	255	
33000.914	1	1	0	0	0.097753	0.011488	0.082339	0.31632	0.14189	0.10038	0.25375	0.34001	0.038434	0.071373	0.24624	0.060431	0.13901	0.1828	0.25331	0.11708	-2.2438	-2.55	-2.7792	-2.7271	-2.6	-2.6875	-2.8292	-2.525	-2.7646	-2.6542	-2.6958	-2.7542	-2.5687	-2.6417	-2.6521	-2.4958	261.464	122.220	223.636	332.320	250.310	371.535	316.618	46.063	183.009	39.231	252.996	334.887	53.622	85.803	202.280	371.079	0.00053435	0.0008773	0.00093549	477.26	2.2147e-06	1.2695e-06	785.55	120.77	8.268e-05	5.8835e-06	277.3	98.305	34.579	13.151	5.8363e-06	47.405	0.00085238	0.00080382	0.00069407	489.37	8.8686e-06	1.0328e-05	779.16	121.82	4.9392e-05	9.0941e-06	277.27	98.098	35.154	14.696	8.8972e-06	47.883	78.700	136.575	329.237	29.861	142.241	107.709	29.759	34.368	135.341	185.260	34.710	39.471	39.265	44.072	195.964	43.382	-8191	255	
33001.008	1	1	0	0	0.077811	0.29577	0.1855	0.24407	0.19104	0.10576	0.26022	0.042859	0.06869	0.14252	0.027752	0.15531	0.086409	0.13122	0.15499	0.40628	-2.3958	-2.4667	-2.5167	-2.8521	-2.4062	-2.6208	-2.8375	-2.6667	-2.6333	-2.5542	-2.4313	-2.8979	-2.3979	-2.6813	-2.7396	-2.4729	50.356	221.188	72.450	53.844	45.669	100.832	367.588	326.541	66.463	109.938	16.700	187.005	157.020	257.287	331.590	293.136	0.00048154	0.00062121	0.0020005	474.59	3.8287e-06	2.0523e-06	783.49	120.06	3.9889e-05	2.4017e-06	276.95	97.006	34.262	12.959	6.952e-06	47.499	0.00088529	0.00079116	0.0012334	486.69	8.5149e-06	9.1766e-06	772.26	120.76	2.6224e-05	8.4579e-06	274.36	97.064	34.689	15.799	8.6683e-06	47.587	85.482	123.621	343.789	29.506	212.490	348.575	29.629	34.435	134.761	347.828	34.682	38.946	39.295	44.662	196.659	43.624	-8191	255	
33001.078	1	1	0	0	0.095709	0.21173	0.15583	0.065701	0.24614	0.091047	0.15351	0.18548	0.058071	0.19424	0.17764	0.15401	0.11661	0.22233	0.24766	0.14727	-2.2	-2.5292	-2.45	-2.8042	-2.4979	-2.7188	-2.8667	-2.4062	-2.7979	-2.7708	-2.5792	-2.925	-2.5667	-2.5479	-2.8812	-2.5417	166.247	113.769	174.078	86.319	163.470	160.746	285.397	93.071	76.858	257.735	317.782	334.430	39.246	47.484	372.027	342.785	0.00059813	0.00044458	0.0010308	474.21	3.1175e-06	4.1697e-06	778.64	119.18	7.9472e-05	4.1456e-06	275.08	96.905	34.273	13.045	2.6201e-06	47.862	0.00080693	0.00075053	0.00038368	510.96	8.079e-06	8.9828e-06	768.86	119.74	4.7005e-05	8.1949e-06	273.07	96.938	34.618	14.464	8.7199e-06	47.866	82.734	82.376	339.720	29.700	137.722	173.939	29.922	34.538	140.238	190.254	34.711	39.559	39.137	43.825	127.735	43.283	-8191	255	
33001.176	1	1	0	0	0.25013	0.18712	0.19481	0.2339	0.12123	0.19097	0.085409	0.061139	0.24424	0.066301	0.18139	0.19708	0.27913	0.069917	0.16731	0.054656	-2.3396	-2.5167	-2.3979	-2.7625	-2.4583	-2.5312	-2.75	-2.6229	-2.5292	-2.5458	-2.3458	-2.8042	-2.4354	-2.4	-2.6708	-2.6604	177.110	185.047	87.968	278.596	35.966	126.816	319.350	269.244	32.337	23.934	338.413	48.649	347.567	364.401	301.147	43.492	0.00056283	0.00025046	9.7475e-05	472.67	3.3154e-06	2.2425e-06	781.13	119.33	3.6136e-05	3.8193e-06	272.94	97.265	34.412	13.018	2.1636e-06	47.976	0.00082979	0.00075806	0.00020959	607.99	8.1588e-06	8.365e-06	770.71	119.93	2.5851e-05	8.6747e-06	273.37	97.324	34.709	15.703	9.2193e-06	47.933	87.040	140.664	77.028	27.286	136.951	81.858	29.892	34.639	158.255	155.716	34.715	39.472	39.332	42.882	244.636	43.240	-8191	255	
33001.297	1	1	0	0	0.23247	0.22731	0.14915	0.045361	0.11209	0.18262	0.24685	0.25755	0.25944	0.18646	0.16003	0.28702	0.24681	0.23022	0.11481	0.015318	-2.1104	-2.625	-2.3292	-2.8646	-2.6458	-2.6208	-2.8104	-2.5458	-2.6104	-2.6771	-2.6792	-2.6083	-2.4521	-2.4896	-2.8146	-2.3583	302.522	130.836	184.637	229.283	339.726	293.162	364.516	247.830	146.457	99.543	245.003	361.855	142.645	17.672	183.674	235.512	0.0005452	0.0002607	7.1322e-05	472.3	5.8889e-06	2.4874e-06	778.87	118.93	7.6369e-05	1.8686e-06	273.83	97.578	33.823	12.969	2.7359e-05	47.903	0.0007819	0.00079671	0.00020929	536.37	8.2978e-06	8.4625e-06	770.89	119.88	4.716e-05	9.0488e-06	272.64	97.245	34.428	13.739	1.8065e-05	47.972	88.639	81.857	345.929	28.354	153.267	185.065	29.968	34.240	149.473	217.997	34.715	39.250	38.978	43.344	238.914	43.425	-8191	255	
#DATA ENDS
