BOXY.EXE: ISS Imagent and Oximeter Data Acquisition Program Version 0.80
Ascii Record File

#ACQ INFORMATION
2  Detector Channels 
16  External MUX Channels 
1  Auxiliary Channels 
5000  Waveform (CCF) Frequency (Hz)
1  Waveforms Skipped 
30  Waveforms Averaged 
1  Cycles Averaged 
16  Acquisitions per Waveform 
10.0806  Updata Rate (Hz) 

#FILE INFORMATION
TRUE -- External MUX Channel results are PARSED.
FALSE -- AC DC and Phase are NOT grouped.
TRUE -- Companion Program Settings File CREATED.
FALSE -- AC data not excluded
FALSE -- DC data not excluded
FALSE -- Phase data not excluded
FALSE -- Auxillary Chn. data not excluded
Tab delimiters

#CALIBRATION STATE
TRUE -- Waveform Calibration Values APPLIED.


#AUX CALIBRATION VALUES
Val Type	aux-1	

Term	1.0000e+00	
Factor	0.0000e+00	


#WF CALIBRATION VALUES
A = Detector Channel
Val Type	A-AC1	A-AC2	A-AC3	A-AC4	A-AC5	A-AC6	A-AC7	A-AC8	A-AC9	A-AC10	A-AC11	A-AC12	A-AC13	A-AC14	A-AC15	A-AC16	A-DC1	A-DC2	A-DC3	A-DC4	A-DC5	A-DC6	A-DC7	A-DC8	A-DC9	A-DC10	A-DC11	A-DC12	A-DC13	A-DC14	A-DC15	A-DC16	A-Ph1	A-Ph2	A-Ph3	A-Ph4	A-Ph5	A-Ph6	A-Ph7	A-Ph8	A-Ph9	A-Ph10	A-Ph11	A-Ph12	A-Ph13	A-Ph14	A-Ph15	A-Ph16	

Term	0.00000e+00	0.00000e+00	0.00000e+00	0.00000e+00	0.00000e+00	0.00000e+00	0.00000e+00	0.00000e+00	0.00000e+00	0.00000e+00	0.00000e+00	0.00000e+00	0.00000e+00	0.00000e+00	0.00000e+00	0.00000e+00	0.00000e+00	0.00000e+00	0.00000e+00	0.00000e+00	0.00000e+00	0.00000e+00	0.00000e+00	0.00000e+00	0.00000e+00	0.00000e+00	0.00000e+00	0.00000e+00	0.00000e+00	0.00000e+00	0.00000e+00	0.00000e+00	0.00000e+00	0.00000e+00	0.00000e+00	0.00000e+00	0.00000e+00	0.00000e+00	0.00000e+00	0.00000e+00	0.00000e+00	0.00000e+00	0.00000e+00	0.00000e+00	0.00000e+00	0.00000e+00	0.00000e+00	0.00000e+00	
Factor	1.00000e+00	1.00000e+00	1.00000e+00	1.00000e+00	1.00000e+00	1.00000e+00	1.00000e+00	1.00000e+00	1.00000e+00	1.00000e+00	1.00000e+00	1.00000e+00	1.00000e+00	1.00000e+00	1.00000e+00	1.00000e+00	1.00000e+00	1.00000e+00	1.00000e+00	1.00000e+00	1.00000e+00	1.00000e+00	1.00000e+00	1.00000e+00	1.00000e+00	1.00000e+00	1.00000e+00	1.00000e+00	1.00000e+00	1.00000e+00	1.00000e+00	1.00000e+00	X	X	X	X	X	X	X	X	X	X	X	X	X	X	X	X	

B = Detector Channel
Val Type	B-AC1	B-AC2	B-AC3	B-AC4	B-AC5	B-AC6	B-AC7	B-AC8	B-AC9	B-AC10	B-AC11	B-AC12	B-AC13	B-AC14	B-AC15	B-AC16	B-DC1	B-DC2	B-DC3	B-DC4	B-DC5	B-DC6	B-DC7	B-DC8	B-DC9	B-DC10	B-DC11	B-DC12	B-DC13	B-DC14	B-DC15	B-DC16	B-Ph1	B-Ph2	B-Ph3	B-Ph4	B-Ph5	B-Ph6	B-Ph7	B-Ph8	B-Ph9	B-Ph10	B-Ph11	B-Ph12	B-Ph13	B-Ph14	B-Ph15	B-Ph16	

Term	0.00000e+00	0.00000e+00	0.00000e+00	0.00000e+00	0.00000e+00	0.00000e+00	0.00000e+00	0.00000e+00	0.00000e+00	0.00000e+00	0.00000e+00	0.00000e+00	0.00000e+00	0.00000e+00	0.00000e+00	0.00000e+00	0.00000e+00	0.00000e+00	0.00000e+00	0.00000e+00	0.00000e+00	0.00000e+00	0.00000e+00	0.00000e+00	0.00000e+00	0.00000e+00	0.00000e+00	0.00000e+00	0.00000e+00	0.00000e+00	0.00000e+00	0.00000e+00	-6.15763e+01	-1.30411e+02	-1.24549e+02	-1.82143e+02	-5.62854e+01	-6.13144e+01	-1.55749e+02	-1.62015e+02	-4.36545e+01	-5.84641e+01	-1.71172e+02	-1.71176e+02	-1.81653e+02	-1.77264e+02	-5.75505e+01	-1.50260e+02	
Factor	1.84335e-05	1.52056e-04	4.43642e-05	4.71444e-01	1.63633e-06	1.83727e-06	1.70005e-01	5.70259e-02	1.24874e-06	1.86029e-06	9.06459e-02	2.89522e-02	2.44098e-02	8.74298e-03	1.46882e-06	1.28138e-02	7.07437e-06	9.43660e-06	2.63415e-06	2.38107e-01	1.02249e-07	1.04931e-07	8.15064e-02	2.91262e-02	9.98385e-08	1.04856e-07	4.47650e-02	1.44068e-02	1.26248e-02	4.50497e-03	1.02288e-07	6.38331e-03	X	X	X	X	X	X	X	X	X	X	X	X	X	X	X	X	



#DISTANCE SETTINGS
A = Detector Channel
A-1	A-2	A-3	A-4	A-5	A-6	A-7	A-8	A-9	A-10	A-11	A-12	A-13	A-14	A-15	A-16	

2.5000e+00	3.0000e+00	2.5000e+00	3.0000e+00	2.0000e+00	3.0000e+00	1.5000e+00	3.0000e+00	3.0000e+00	3.0000e+00	3.0000e+00	3.0000e+00	3.0000e+00	3.0000e+00	1.5000e+00	3.0000e+00	

B = Detector Channel
B-1	B-2	B-3	B-4	B-5	B-6	B-7	B-8	B-9	B-10	B-11	B-12	B-13	B-14	B-15	B-16	

1.0000e+01	1.0000e+01	1.0000e+01	1.4400e+00	1.0000e+01	1.0000e+01	1.5100e+00	1.9400e+00	1.0000e+01	1.0000e+01	1.9900e+00	2.4900e+00	2.4100e+00	2.9000e+00	1.0000e+01	2.9800e+00	




#DATA BEGINS
time	group	step	mark	flag	A-AC1	A-AC2	A-AC3	A-AC4	A-AC5	A-AC6	A-AC7	A-AC8	A-AC9	A-AC10	A-AC11	A-AC12	A-AC13	A-AC14	A-AC15	A-AC16	A-DC1	A-DC2	A-DC3	A-DC4	A-DC5	A-DC6	A-DC7	A-DC8	A-DC9	A-DC10	A-DC11	A-DC12	A-DC13	A-DC14	A-DC15	A-DC16	A-Ph1	A-Ph2	A-Ph3	A-Ph4	A-Ph5	A-Ph6	A-Ph7	A-Ph8	A-Ph9	A-Ph10	A-Ph11	A-Ph12	A-Ph13	A-Ph14	A-Ph15	A-Ph16	B-AC1	B-AC2	B-AC3	B-AC4	B-AC5	B-AC6	B-AC7	B-AC8	B-AC9	B-AC10	B-AC11	B-AC12	B-AC13	B-AC14	B-AC15	B-AC16	B-DC1	B-DC2	B-DC3	B-DC4	B-DC5	B-DC6	B-DC7	B-DC8	B-DC9	B-DC10	B-DC11	B-DC12	B-DC13	B-DC14	B-DC15	B-DC16	B-Ph1	B-Ph2	B-Ph3	B-Ph4	B-Ph5	B-Ph6	B-Ph7	B-Ph8	B-Ph9	B-Ph10	B-Ph11	B-Ph12	B-Ph13	B-Ph14	B-Ph15	B-Ph16	aux-1	digaux	

18206.633	1	1	0	256	0.1598	0.14447	0.0975	0.12132	0.10482	0.24167	0.11888	0.34918	0.12818	0.10801	0.054385	0.20682	0.030342	0.38711	0.061822	0.32077	-2.15	-2.65	-2.3667	-2.7979	-2.6083	-2.4396	-2.9146	-2.6437	-2.5667	-2.7604	-2.4083	-2.825	-2.6083	-2.4604	-2.8083	-2.3771	202.238	73.524	245.801	55.217	216.247	352.281	389.155	260.203	339.569	291.125	327.121	244.953	100.031	404.711	248.409	121.748	0.00026315	0.00035271	8.0702e-05	1287.3	5.8901e-06	2.8077e-06	1356.6	272.88	3.3523e-06	2.3477e-06	336.62	93.996	74.387	22.172	3.9942e-06	30.352	0.00022654	0.00019909	5.8484e-05	1257.5	2.3762e-06	2.2623e-06	1330.2	270.79	2.4808e-06	2.3151e-06	332.45	93.967	74.387	22.349	2.4462e-06	30.609	227.991	128.928	130.139	63.867	232.672	212.575	64.171	71.000	267.187	185.916	70.408	77.535	77.332	83.604	217.370	83.554	-8191	255	
18206.754	1	1	0	0	0.39423	0.15501	0.33734	0.24272	0.096344	0.29501	0.33198	0.13361	0.21147	0.081024	0.19424	0.24804	0.27388	0.13211	0.061037	0.23297	-2.1312	-2.7729	-2.2417	-2.9521	-2.5292	-2.5021	-2.9875	-2.5812	-2.4271	-2.6688	-2.5729	-2.6646	-2.7021	-2.3521	-2.8729	-2.5187	201.394	231.408	219.676	374.777	290.237	95.417	349.652	311.841	285.050	122.632	221.634	66.290	383.980	319.707	382.264	283.958	0.00027571	0.000443	0.00012584	1286.7	3.785e-06	3.5846e-06	1357.1	274.11	3.7873e-06	4.0839e-06	335.94	94.067	74.537	22.011	4.0984e-06	30.297	0.00025773	0.00022227	6.2457e-05	1261.7	2.5394e-06	2.5955e-06	1334.3	271.73	2.7566e-06	2.6397e-06	333.6	93.876	74.575	22.246	2.8003e-06	30.464	226.864	121.016	143.210	64.104	230.954	206.319	64.193	71.025	243.213	190.854	70.396	77.307	77.707	83.384	238.060	83.113	-8191	255	
18206.848	1	1	0	0	0.089269	0.040716	0.24577	0.12708	0.090256	0.23011	0.2017	0.11933	0.051696	0.24864	0.24355	0.18884	0.19933	0.41775	0.099817	0.23083	-2.1188	-2.7333	-2.4938	-2.7042	-2.8979	-2.3792	-2.9021	-2.5417	-2.4083	-2.7854	-2.4521	-2.5979	-2.7208	-2.4375	-2.8458	-2.6396	297.458	304.341	152.445	232.458	354.412	107.243	370.939	85.302	184.095	184.681	262.262	78.230	377.555	384.472	165.453	239.953	0.00026607	0.00037396	0.00011634	1290.3	1.5099e-06	3.6542e-06	1360	274.95	3.1476e-06	2.7028e-06	336.43	93.366	74.354	21.828	3.1393e-06	30.31	0.00026704	0.00025029	6.8817e-05	1266.3	2.9094e-06	2.7881e-06	1335.6	272.07	2.9059e-06	2.7789e-06	333.38	93.62	74.532	22.133	2.9427e-06	30.467	223.232	137.293	116.343	64.080	188.131	188.896	64.090	71.061	234.304	216.269	70.173	77.385	77.199	83.681	231.278	83.363	-8191	255	
18206.945	1	1	0	0	0.011268	0.092905	0.087715	0.024051	0.065344	0.038526	0.12816	0.34448	0.23614	0.15321	0.14812	0.3019	0.4316	0.10972	0.15551	0.33046	-2.1979	-2.8229	-2.2708	-2.6167	-2.7542	-2.4604	-2.8583	-2.6792	-2.3979	-2.725	-2.7854	-2.4792	-2.7062	-2.4437	-2.5875	-2.7604	303.354	308.584	323.562	209.217	406.868	288.037	330.963	349.566	357.490	95.451	317.648	288.631	405.599	333.541	173.089	342.818	0.00025532	0.00030079	0.00011814	1300.6	4.8067e-06	3.2248e-06	1367.3	274.25	2.1543e-06	2.6757e-06	337.78	93.825	74.277	21.883	3.6838e-06	30.263	0.00027958	0.00026308	7.1182e-05	1272.6	2.8873e-06	2.8788e-06	1339.5	272.47	2.8841e-06	2.8663e-06	334.69	93.751	74.38	22.151	2.8947e-06	30.419	230.232	107.368	155.911	64.076	190.271	199.542	64.070	71.039	231.147	195.910	70.502	77.377	77.717	83.374	227.451	83.308	-8191	255	
18207.043	1	1	0	0	0.19891	0.28412	0.26233	0.3148	0.28796	0.23216	0.23274	0.078141	0.03887	0.22098	0.12066	0.26031	0.11649	0.10953	0.21882	0.24169	-1.9625	-2.7438	-2.4458	-2.5208	-2.8229	-2.2521	-2.8271	-2.6875	-2.2042	-2.7417	-2.5104	-2.475	-2.7125	-2.3563	-2.5729	-2.7917	331.804	296.095	278.331	408.120	190.910	291.984	378.843	389.952	122.304	97.172	114.437	367.023	381.331	60.743	316.209	307.523	0.00023607	0.00042083	0.00013163	1296.4	4.006e-06	3.1146e-06	1358.3	274.32	3.251e-06	5.1337e-06	336	92.798	73.985	21.705	1.4286e-06	30.068	0.00027531	0.00025516	7.4996e-05	1269.4	2.9569e-06	2.8436e-06	1334.6	271.18	3.0266e-06	2.9178e-06	332.19	92.99	73.887	21.973	3.059e-06	30.245	224.101	131.149	178.408	63.454	228.427	228.409	64.019	70.929	251.398	204.578	70.598	77.863	77.831	83.523	250.920	83.812	-8191	255	
18207.137	1	1	0	0	0.17991	0.12662	0.086605	0.1191	0.16395	0.49515	0.24944	0.31833	0.26142	0.10224	0.058405	0.23184	0.051028	0.085868	0.28844	0.058321	-1.8813	-2.8479	-2.4979	-2.7062	-2.6542	-2.5896	-2.9	-2.8958	-2.5604	-2.8271	-2.6479	-2.4542	-2.8229	-2.55	-2.5542	-2.7583	334.608	169.771	215.684	337.223	371.236	335.019	390.982	71.366	161.299	276.993	267.235	382.831	201.823	318.920	243.652	61.167	0.0002609	0.00022523	0.0001258	1287.9	3.8049e-06	1.1334e-06	1356	272.13	3.5056e-06	2.3303e-06	333.58	92.499	73.256	21.586	3.723e-06	29.673	0.0002834	0.00027852	7.6544e-05	1261	3.0621e-06	3.078e-06	1329.4	269.3	3.0831e-06	3.0485e-06	330.86	92.721	73.533	21.859	3.2299e-06	30.068	232.040	111.786	146.468	64.115	200.540	315.349	64.371	71.090	210.564	184.571	70.719	77.892	77.429	83.915	229.989	83.467	-8191	255	
18207.232	1	1	0	0	0.22425	0.057756	0.15298	0.15892	0.25597	0.151	0.14624	0.18302	0.17105	0.099001	0.20216	0.17614	0.23135	0.1433	0.060727	0.042157	-2.0542	-2.7625	-2.4625	-2.5875	-2.7687	-2.5	-2.7854	-2.7833	-2.4667	-2.5104	-2.9083	-2.3833	-2.825	-2.5667	-2.6417	-2.7167	392.650	345.615	74.274	396.422	389.103	211.707	356.652	298.461	150.410	281.694	400.357	204.761	199.034	324.131	262.230	378.079	0.00027899	0.00040772	0.00011679	1282.2	4.9269e-06	6.1809e-06	1346.3	268.56	4.0763e-06	4.2893e-06	332.43	91.967	73.232	21.638	2.2019e-06	29.796	0.00028653	0.00028571	7.9112e-05	1257	3.1467e-06	3.1936e-06	1324.6	267.64	3.1584e-06	3.1714e-06	330.11	92.504	73.285	21.824	3.1108e-06	30.056	230.653	100.225	195.224	63.969	237.926	210.554	64.472	71.202	234.003	202.436	70.865	77.704	77.719	83.919	247.154	83.707	-8191	255	
18207.354	1	1	0	0	0.14861	0.042432	0.29664	0.12348	0.062518	0.1275	0.38634	0.11522	0.07599	0.23789	0.17069	0.10979	0.081342	0.044294	0.10963	0.10927	-2.025	-2.6146	-2.5812	-2.55	-2.9104	-2.5604	-2.8271	-3.0396	-2.4854	-2.8229	-2.7167	-2.5646	-2.9188	-2.7479	-2.4271	-2.8958	352.478	323.082	142.293	373.350	292.306	67.820	376.202	274.083	242.476	286.723	123.115	225.374	316.096	195.440	54.638	375.221	0.00024981	0.00036218	0.000116	1281.2	3.3834e-06	5.7061e-06	1347.7	268.8	3.3817e-06	2.4854e-06	333.14	92.575	73.593	21.686	3.3066e-06	29.774	0.00028321	0.00028784	8.1225e-05	1254.5	3.1554e-06	3.1053e-06	1323.9	267.74	3.1401e-06	3.1902e-06	329.79	92.631	73.481	21.951	3.0776e-06	30.181	232.236	164.777	155.039	64.073	206.715	202.830	63.964	71.221	222.055	173.234	70.522	77.532	77.573	83.779	246.873	83.920	-8191	255	
18207.449	1	1	0	0	0.21652	0.25533	0.16148	0.17654	0.14686	0.15856	0.14191	0.21122	0.19085	0.049479	0.095597	0.17372	0.17513	0.18323	0.10003	0.005148	-2.1604	-2.6146	-2.6917	-2.6104	-2.7104	-2.6146	-2.7021	-2.8667	-2.3479	-2.6333	-3.0042	-2.4625	-2.6562	-2.7396	-2.3833	-2.8979	311.973	248.655	127.673	370.050	331.015	272.381	321.568	349.310	326.329	345.983	195.161	390.641	136.800	347.810	292.864	301.089	0.00025581	0.00043379	9.4668e-05	1275.7	3.0131e-06	4.5837e-06	1338.7	270.48	2.3426e-06	6.3593e-06	330.96	92.166	72.751	21.479	2.2073e-06	29.524	0.00027704	0.00026379	7.2121e-05	1251.8	2.7905e-06	2.7197e-06	1316.5	267.49	2.7784e-06	2.6832e-06	327.85	92.396	72.871	21.752	2.5947e-06	29.949	221.563	147.517	167.229	64.431	180.443	213.942	64.049	71.114	227.973	190.662	70.933	77.748	77.584	83.332	228.891	83.904	-8191	255	
18207.521	1	1	0	0	0.1711	0.31236	0.20499	0.17179	0.25726	0.2126	0.46263	0.21264	0.1424	0.02472	0.12826	0.029687	0.042075	0.13297	0.22758	0.16847	-2.0146	-2.4979	-2.7292	-2.3667	-2.8312	-2.8333	-2.8146	-2.8917	-2.5938	-2.2625	-2.8625	-2.4167	-2.6417	-2.5187	-2.4167	-2.8167	120.108	325.055	356.122	104.744	298.579	204.449	346.621	369.237	139.665	205.558	114.211	221.147	319.170	108.119	62.714	280.555	0.00023819	0.00031292	5.1046e-05	1252.3	3.8263e-06	2.5199e-06	1322.4	265	4.0251e-06	3.7208e-06	326.1	90.969	72.079	21.186	2.6212e-06	29.311	0.00024443	0.00022027	6.1738e-05	1232.4	2.5292e-06	2.3859e-06	1298.7	263.15	2.409e-06	2.3509e-06	323.11	90.982	71.842	21.396	2.3897e-06	29.631	228.688	138.832	175.619	64.025	230.610	227.399	64.291	71.356	253.464	206.449	70.807	78.066	78.212	83.881	189.176	83.823	-8191	255	
18207.641	1	1	0	0	0.341	0.11272	0.076734	0.18188	0.22072	0.21868	0.032433	0.14493	0.091238	0.24771	0.22096	0.26599	0.11413	0.20568	0.18698	0.25019	-2.05	-2.4813	-2.8937	-2.4292	-2.7083	-2.6396	-2.4896	-2.7854	-2.4562	-2.7229	-2.9333	-2.5167	-2.6063	-2.7583	-2.5208	-2.7458	217.044	99.743	256.295	386.461	66.701	206.685	253.333	303.098	236.634	411.817	333.883	65.043	69.689	351.384	181.244	63.641	0.00026701	0.00034567	0.00010824	1245.1	3.5719e-06	3.3572e-06	1310.2	261.89	3.1015e-06	2.9032e-06	322.91	90.004	70.515	21.008	3.8907e-06	28.847	0.00023574	0.00021793	5.8379e-05	1218.8	2.3573e-06	2.2129e-06	1286.9	259.8	2.2659e-06	2.2312e-06	319.5	89.944	70.509	21.154	2.0954e-06	29.194	228.402	146.427	167.120	64.051	235.944	198.609	64.313	71.335	224.935	224.458	70.855	77.991	78.058	84.251	229.538	84.012	-8191	255	
18207.736	1	1	0	0	0.14542	0.10337	0.079804	0.21231	0.094618	0.16171	0.37055	0.32375	0.21236	0.14268	0.32536	0.17612	0.11028	0.30333	0.088296	0.11725	-2.0938	-2.4146	-2.8396	-2.5021	-2.6104	-2.7729	-2.5854	-2.7438	-2.5521	-2.4333	-2.8125	-2.6167	-2.7542	-2.9167	-2.2917	-2.6813	188.715	72.948	337.614	124.337	128.124	272.388	344.173	346.979	127.972	110.675	354.682	351.702	353.650	71.488	175.214	99.594	0.00025543	0.0003565	0.00011073	1229.8	5.7248e-06	3.1699e-06	1295.2	258.22	3.0496e-06	5.0546e-06	320.04	88.599	70.017	20.603	4.0934e-06	28.71	0.00021895	0.0001928	5.4757e-05	1204.7	2.1619e-06	2.1028e-06	1272.1	256.24	2.0939e-06	1.9936e-06	316.99	88.979	69.823	20.777	1.9637e-06	28.884	228.761	141.185	156.085	64.328	241.776	238.004	64.334	71.428	243.334	197.884	70.635	78.416	78.345	84.506	223.095	83.950	-8191	255	
18207.834	1	1	0	0	0.34713	0.21723	0.061051	0.055322	0.09003	0.055134	0.35099	0.17933	0.026344	0.26366	0.26885	0.21174	0.18591	0.13382	0.17405	0.23092	-2.2521	-2.2146	-2.7021	-2.4833	-2.4125	-2.8688	-2.5479	-2.5104	-2.5458	-2.275	-2.7729	-2.5708	-2.4146	-2.8875	-2.4896	-2.6354	398.121	112.686	262.980	330.322	359.856	360.557	363.597	346.838	95.510	334.993	342.455	124.278	317.389	271.693	274.745	368.855	0.00026529	0.00036356	0.00013391	1208.8	4.5124e-06	3.324e-06	1276.7	254.49	3.1477e-06	2.8259e-06	314.88	87.77	68.375	20.128	2.9482e-06	28.215	0.00020355	0.00017566	4.9352e-05	1186.2	1.9091e-06	1.8383e-06	1251.3	252.11	2.0132e-06	1.8651e-06	312.37	87.72	68.659	20.405	1.9222e-06	28.465	229.195	142.557	163.281	64.236	195.977	209.246	64.348	71.569	215.893	217.783	70.813	77.971	78.030	84.612	211.404	83.936	-8191	255	
18207.930	1	1	0	0	0.077894	0.18686	0.15076	0.12924	0.27584	0.079817	0.1782	0.19443	0.15912	0.15975	0.14132	0.18996	0.060185	0.2102	0.13499	0.19355	-2.2292	-2.3417	-2.6813	-2.5312	-2.425	-2.8667	-2.7333	-2.7958	-2.7229	-2.6417	-2.7375	-2.6792	-2.3417	-2.9833	-2.4542	-2.7562	105.776	126.819	362.075	383.924	168.683	72.162	322.796	322.092	224.266	270.646	227.622	82.274	154.125	377.769	357.057	361.456	0.00024315	0.00033069	8.4623e-05	1197.2	3.587e-06	3.9149e-06	1267	252.64	3.7039e-06	3.7959e-06	312.83	86.164	68.107	20.019	3.3005e-06	28.129	0.00019471	0.0001711	4.7717e-05	1177	1.9983e-06	1.8002e-06	1245.1	250.13	1.9044e-06	1.8378e-06	309.39	86.678	67.943	20.168	1.8395e-06	28.198	231.585	135.356	149.339	64.220	221.928	211.851	64.360	71.449	268.501	224.984	70.907	78.192	78.170	84.829	235.487	84.057	-8191	255	
18208.049	1	1	0	0	0.22895	0.22687	0.090617	0.07507	0.042443	0.25809	0.43092	0.18514	0.15467	0.089098	0.13719	0.091761	0.093337	0.21668	0.11486	0.14978	-2.2708	-2.3	-2.6813	-2.8375	-2.2583	-2.7542	-2.5875	-2.7354	-2.8729	-2.5062	-2.65	-2.5771	-2.4229	-2.8958	-2.5667	-2.6833	75.908	194.293	393.337	408.033	193.225	305.598	349.740	302.336	264.198	69.798	122.608	282.380	367.656	320.370	281.573	228.078	0.00023124	0.00031398	6.7081e-05	1185.8	3.6848e-06	3.224e-06	1245.6	247.63	2.1658e-06	4.5491e-06	307.61	85.572	66.765	19.682	3.4519e-06	27.441	0.00018687	0.00016028	4.2201e-05	1160.1	1.7252e-06	1.6409e-06	1225.8	245.53	1.7923e-06	1.7528e-06	304.69	85.331	66.445	19.817	1.7794e-06	27.743	225.869	147.061	156.324	64.206	214.866	199.567	64.335	71.582	202.687	208.311	71.225	77.960	78.307	84.590	242.332	84.098	-8191	255	
18208.145	1	1	0	0	0.18132	0.046122	0.19397	0.17529	0.047324	0.26083	0.26004	0.24143	0.076036	0.19394	0.3773	0.079523	0.037916	0.23179	0.22658	0.17071	-2.4604	-2.3812	-2.6667	-2.7333	-2.4646	-2.7938	-2.75	-2.5917	-2.8354	-2.5125	-2.6354	-2.7146	-2.3896	-2.8688	-2.6771	-2.3417	145.217	114.693	188.943	110.754	239.624	76.409	413.160	74.600	373.195	346.127	322.898	348.566	105.448	348.623	254.911	84.987	0.00023828	0.00029816	6.0105e-05	1179.7	3.1971e-06	4.1488e-06	1234.8	244.6	2.6135e-06	4.2946e-06	305.68	85.219	66.315	19.527	1.6844e-06	27.345	0.00018452	0.00015415	4.4572e-05	1148.8	1.7186e-06	1.6839e-06	1213.8	242.98	1.7389e-06	1.6582e-06	302.57	84.684	66.185	19.638	1.7118e-06	27.599	225.708	156.390	129.077	64.560	236.582	218.976	64.469	71.638	228.076	232.994	71.203	78.186	78.396	84.843	237.098	84.511	-8191	255	
18208.217	1	1	0	0	0.011797	0.23994	0.17543	0.079235	0.15461	0.057723	0.4615	0.20096	0.16224	0.086663	0.11514	0.12953	0.12963	0.053963	0.28773	0.26131	-2.4646	-2.5104	-2.5729	-2.7125	-2.5917	-2.8167	-2.8312	-2.5312	-2.8833	-2.5292	-2.5604	-2.8187	-2.5042	-2.7792	-2.6396	-2.4917	303.488	286.326	140.725	413.019	230.358	66.442	359.493	361.892	56.643	343.955	94.353	196.622	346.306	79.001	315.059	102.400	0.00022753	0.00025603	4.3131e-05	1172.9	2.7464e-06	2.4061e-06	1230	244.98	3.5811e-06	2.2154e-06	304.15	84.025	65.848	19.345	3.562e-06	27.511	0.00018309	0.00015478	4.2273e-05	1145.5	1.7397e-06	1.6977e-06	1210.7	242.46	1.8366e-06	1.7707e-06	301.16	84.081	65.835	19.536	1.8797e-06	27.578	227.595	147.016	169.116	64.252	212.470	209.026	64.330	71.513	239.061	244.521	71.050	78.071	78.445	84.528	217.046	84.256	-8191	255	
18208.312	1	1	0	0	0.191	0.14259	0.094121	0.2058	0.24337	0.23169	0.27351	0.12422	0.3136	0.090315	0.02618	0.15334	0.21064	0.25539	0.16939	0.12085	-2.2875	-2.3708	-2.6229	-2.9083	-2.5479	-2.7854	-2.6	-2.6271	-2.6771	-2.7083	-2.6583	-2.7958	-2.55	-2.7	-2.6333	-2.3729	65.441	306.956	149.712	378.497	314.083	294.569	326.683	375.037	390.055	326.457	280.287	70.141	312.551	58.229	165.745	399.405	0.0002219	0.0001917	9.5865e-05	1162.9	2.6694e-06	5.2523e-06	1234.1	243.82	2.3074e-06	2.5584e-06	303.92	84.084	65.883	19.431	5.1569e-06	27.125	0.00019011	0.00017684	4.8529e-05	1144.4	1.9165e-06	1.8649e-06	1210.9	242.17	1.9448e-06	1.8535e-06	301.08	84.099	65.9	19.586	1.9173e-06	27.455	232.255	167.610	157.282	64.198	253.136	213.044	64.410	71.697	264.501	246.028	71.120	78.308	78.274	84.730	216.447	84.366	-8191	255	
18208.434	1	1	0	0	0.54233	0.13156	0.16635	0.10249	0.14514	0.24308	0.31242	0.092735	0.23662	0.098306	0.21493	0.26638	0.041731	0.13452	0.14698	0.1769	-2.2875	-2.5708	-2.4396	-2.8979	-2.4521	-2.5604	-2.8354	-2.4396	-2.7958	-2.5229	-2.55	-2.7604	-2.5479	-2.7833	-2.6708	-2.4271	382.212	305.783	185.540	304.473	380.430	164.871	348.595	291.148	139.743	248.860	358.861	71.082	247.746	76.789	392.676	242.316	0.00022601	0.00032403	5.7308e-05	1178	3.0963e-06	4.268e-06	1237.9	245.58	1.6434e-06	3.1381e-06	306.1	84.857	66.37	19.463	1.8767e-06	27.386	0.00019765	0.00017039	5.0148e-05	1149.2	1.9551e-06	1.9598e-06	1218.3	242.95	2.0419e-06	1.8867e-06	302.2	84.624	66.249	19.712	1.8506e-06	27.661	222.963	131.945	109.244	64.051	223.906	177.386	64.361	71.414	214.060	226.545	71.013	77.942	78.222	84.870	239.677	84.159	-8191	255	
18208.529	1	1	0	0	0.16606	0.058184	0.12821	0.088815	0.30803	0.32193	0.092958	0.15594	0.19215	0.10233	0.045166	0.20873	0.095378	0.15166	0.095077	0.29225	-2.3917	-2.675	-2.4292	-2.8792	-2.5667	-2.4979	-2.9188	-2.5667	-2.7104	-2.8354	-2.8	-3.0354	-2.6042	-2.6896	-2.8958	-2.4708	334.851	158.692	309.215	125.093	281.780	171.302	380.587	346.171	383.195	243.897	303.160	365.782	379.402	90.868	277.056	322.352	0.00023315	0.00025179	6.162e-05	1175.1	2.3691e-06	3.9227e-06	1240.6	245.11	3.5815e-06	1.976e-06	305.2	84.941	66.94	19.639	2.1053e-06	27.612	0.00019785	0.00016768	4.6888e-05	1149.5	1.9076e-06	1.7961e-06	1217.5	243.44	1.9175e-06	1.8391e-06	302.61	85.023	66.512	19.793	1.903e-06	27.862	226.836	120.957	122.255	64.070	210.419	214.067	64.339	71.812	242.243	199.358	70.886	77.959	78.268	84.861	231.283	84.371	-8191	255	
18208.627	1	1	0	0	0.1741	0.26386	0.25477	0.15464	0.057149	0.070097	0.33207	0.27713	0.10001	0.10841	0.040629	0.25294	0.11724	0.29926	0.02168	0.11694	-2.3	-2.8167	-2.5104	-2.8667	-2.5917	-2.6104	-3.1104	-2.6021	-2.625	-2.7708	-2.3708	-2.8	-2.4021	-2.5521	-2.8333	-2.6833	121.261	145.280	228.365	75.928	341.340	378.130	80.149	93.276	278.346	296.056	412.516	92.668	315.563	172.824	109.742	145.934	0.00024025	0.00038255	8.6224e-05	1182.6	2.8511e-06	3.7011e-06	1252.6	247.29	2.8179e-06	1.9154e-06	308.31	85.812	66.959	19.803	3.9621e-06	27.913	0.0002002	0.00017302	4.9226e-05	1156.4	1.9787e-06	1.9257e-06	1225.5	244.9	1.9481e-06	1.8612e-06	304.62	85.707	66.964	19.981	1.8966e-06	28.1	225.240	130.709	144.203	64.107	261.055	202.710	64.371	71.433	250.735	206.760	71.260	78.144	78.503	84.327	253.258	84.033	-8191	255	
18208.746	1	1	0	0	0.22528	0.13141	0.17154	0.22332	0.082923	0.18406	0.36793	0.12216	0.1632	0.060235	0.076819	0.094147	0.11841	0.097243	0.16196	0.086906	-2.2917	-2.7667	-2.3271	-2.6625	-2.7188	-2.5583	-2.8187	-2.5479	-2.5854	-2.7417	-2.4729	-2.7812	-2.7812	-2.5708	-2.6292	-2.5521	136.726	339.672	338.911	155.328	313.568	309.114	403.031	270.649	118.924	399.146	239.983	351.372	385.972	121.747	191.238	129.966	0.00024573	0.00031469	0.00010294	1186.3	2.3972e-06	3.0024e-06	1247.3	247.42	3.5144e-06	5.5002e-06	307.33	85.533	67.265	19.849	2.8945e-06	27.674	0.00019948	0.00016781	4.6668e-05	1159.6	1.8761e-06	1.8452e-06	1227.4	245.66	1.8689e-06	1.8857e-06	305.34	85.64	67.17	20.05	1.9328e-06	27.979	227.809	136.441	141.447	64.143	246.093	167.759	64.514	71.546	244.007	201.329	71.063	78.218	78.198	84.690	222.311	84.215	-8191	255	
18208.818	1	1	0	0	0.19776	0.22569	0.079642	0.13946	0.13068	0.2887	0.40216	0.19009	0.10606	0.053822	0.094752	0.26049	0.043	0.181	0.15819	0.21622	-2.0812	-2.7083	-2.6	-2.9208	-2.7479	-2.3146	-2.8604	-2.7146	-2.675	-2.5667	-2.4333	-2.7042	-2.5375	-2.35	-2.7833	-2.6479	86.302	289.657	407.039	87.394	324.284	267.008	389.007	344.560	352.730	269.298	331.323	342.793	82.640	240.914	96.651	325.226	0.00023959	0.00043662	4.83e-05	1178	2.8374e-06	4.6088e-06	1248.4	249.14	1.9971e-06	2.5358e-06	308.04	85.324	67.51	19.824	3.6765e-06	27.732	0.00019808	0.00016801	4.6498e-05	1156.7	1.8995e-06	1.8431e-06	1226.7	246.67	1.9119e-06	1.7389e-06	305.63	85.874	67.211	20.06	1.8361e-06	28.076	229.317	123.394	157.776	64.166	217.517	202.104	64.275	71.463	254.701	220.777	71.030	78.032	78.622	84.123	217.523	84.123	-8191	255	
18208.914	1	1	0	0	0.059551	0.22315	0.1094	0.10568	0.20389	0.13431	0.095219	0.11434	0.19164	0.17391	0.1946	0.15976	0.13369	0.11134	0.14387	0.18914	-1.9771	-2.7396	-2.4458	-2.7458	-2.4292	-2.3812	-2.9354	-2.6229	-2.5604	-2.7979	-2.5604	-2.6396	-2.7375	-2.55	-2.9083	-2.6312	282.877	393.717	282.961	220.864	79.954	168.567	369.584	333.725	376.560	185.019	370.141	226.322	362.713	213.013	167.477	354.164	0.00025301	0.00040906	9.1898e-05	1179.5	2.8281e-06	2.7376e-06	1253.6	249.18	3.3759e-06	3.1104e-06	310.16	86.332	67.271	19.971	2.2802e-06	28.105	0.00019699	0.00016257	4.5554e-05	1158.7	1.8424e-06	1.7784e-06	1229.6	246.61	1.8589e-06	1.7487e-06	306.42	86.239	67.302	20.132	1.7807e-06	28.229	229.011	172.922	154.243	64.316	248.404	236.491	64.228	71.570	244.976	227.307	70.888	78.242	78.152	84.090	205.343	84.235	-8191	255	
18209.033	1	1	0	0	0.1794	0.23887	0.16054	0.12386	0.13719	0.07784	0.26154	0.21195	0.16349	0.071346	0.26709	0.13737	0.064952	0.051543	0.13387	0.14575	-1.9917	-2.6833	-2.4646	-2.7938	-2.8187	-2.4354	-2.7812	-2.7083	-2.4167	-2.7042	-2.5292	-2.6583	-2.9271	-2.3875	-2.6208	-2.625	412.719	205.172	73.483	64.345	350.619	193.305	339.781	364.010	403.089	330.113	384.652	88.590	390.557	145.310	282.310	231.519	0.00023888	0.00026223	0.00010165	1189.9	3.2079e-06	2.266e-06	1250.2	248.47	2.7369e-06	2.6509e-06	310.01	85.958	67.162	19.984	4.261e-06	28.041	0.00018987	0.00015038	4.4385e-05	1161.9	1.76e-06	1.6889e-06	1228.1	246.8	1.8645e-06	1.6631e-06	306.55	86.095	67.358	20.134	1.7536e-06	28.176	226.000	117.896	142.235	63.931	244.143	209.499	64.550	71.522	262.286	202.955	71.502	78.158	77.881	84.642	237.315	84.154	-8191	255	
18209.129	1	1	0	0	0.24798	0.07752	0.19624	0.23233	0.17258	0.2	0.22032	0.16854	0.16186	0.15563	0.010368	0.059573	0.060747	0.12353	0.20239	0.11925	-1.8104	-2.7333	-2.3438	-2.525	-2.6458	-2.5833	-2.8979	-2.5771	-2.3875	-2.7062	-2.6646	-2.5375	-2.7542	-2.6292	-2.4375	-2.7812	199.629	107.621	170.764	95.905	146.147	369.109	278.892	61.558	302.765	321.909	149.730	234.649	346.532	193.068	275.110	107.200	0.00026476	0.00031164	6.3479e-05	1184.6	2.9806e-06	3.4077e-06	1252	249.03	2.4633e-06	3.9332e-06	309.93	85.958	67.37	19.802	2.3901e-06	27.862	0.00019942	0.00016089	4.359e-05	1160	1.8021e-06	1.7136e-06	1228.5	247.06	1.8196e-06	1.7622e-06	306.45	85.91	67.419	20.05	1.8486e-06	28.094	224.972	135.412	159.655	63.946	214.482	197.886	64.351	71.466	232.679	204.538	71.083	77.836	78.160	84.768	210.562	84.012	-8191	255	
18209.225	1	1	0	0	0.23876	0.18678	0.21484	0.15312	0.23499	0.24784	0.12595	0.067012	0.32441	0.20548	0.11748	0.15562	0.21297	0.17234	0.11947	0.27158	-1.9042	-2.7021	-2.475	-2.5958	-2.6958	-2.4062	-2.7375	-2.7604	-2.4562	-2.6979	-2.7229	-2.6479	-2.7083	-2.5458	-2.5771	-2.5917	363.148	232.087	379.941	322.940	342.418	140.006	57.716	77.693	258.753	78.849	262.836	119.665	343.712	341.372	159.057	168.505	0.00024527	0.00016088	8.5008e-05	1183.7	3.2209e-06	4.0243e-06	1246.6	249.89	4.3095e-06	2.9403e-06	309.62	85.854	67.144	19.986	3.3627e-06	27.825	0.00019811	0.00016616	4.5763e-05	1160.4	1.8479e-06	1.8212e-06	1228	247.23	1.9129e-06	1.726e-06	306.1	85.93	67.355	20.098	1.8335e-06	28.104	226.043	127.628	142.610	64.337	210.505	238.117	64.465	71.592	225.557	196.350	70.811	77.909	78.009	84.586	225.769	83.941	-8191	255	
18209.346	1	1	0	0	0.055474	0.11473	0.34087	0.14065	0.085735	0.072702	0.080131	0.30519	0.15346	0.10366	0.1488	0.18618	0.17806	0.089151	0.20393	0.1668	-1.9062	-2.5687	-2.7042	-2.4104	-2.6271	-2.6583	-2.7208	-2.7229	-2.2333	-2.75	-2.6312	-2.4271	-2.8812	-2.3979	-2.6292	-2.8479	282.850	77.468	313.600	330.266	334.777	68.632	337.657	413.335	298.545	244.938	209.822	384.610	183.193	338.187	263.425	156.232	0.00024638	0.00029208	0.00010059	1187.9	2.8477e-06	3.6441e-06	1250.2	249.25	3.05e-06	2.696e-06	309.36	85.843	67.498	19.915	3.032e-06	27.879	0.0001894	0.00016874	4.6158e-05	1160.7	1.8927e-06	1.8787e-06	1230	246.88	1.8275e-06	1.8186e-06	306.66	86.186	67.381	20.1	1.7783e-06	28.103	229.936	159.423	154.165	63.942	239.369	241.924	64.283	71.331	255.969	218.526	71.014	78.320	78.271	84.672	210.666	84.076	-8191	255	
18209.418	1	1	0	0	0.075753	0.16142	0.071415	0.26819	0.23426	0.14482	0.30763	0.035324	0.12943	0.173	0.22223	0.10819	0.046818	0.18932	0.035253	0.37097	-1.8813	-2.6813	-2.5812	-2.3479	-2.9396	-2.5208	-2.8875	-2.9125	-2.4833	-2.675	-2.7396	-2.575	-2.8625	-2.6688	-2.4646	-2.8063	306.963	117.773	101.160	73.408	405.291	85.075	340.133	396.913	319.385	193.868	308.150	60.818	233.909	359.787	180.919	120.360	0.00025701	0.00032684	0.0001011	1181.4	3.9634e-06	3.5322e-06	1254.1	248.97	3.3559e-06	3.9318e-06	310.44	86.328	67.807	20.027	2.8732e-06	28.078	0.00019387	0.00015806	4.2909e-05	1159.7	1.7695e-06	1.7744e-06	1230.5	246.95	1.8693e-06	1.7098e-06	306.58	86.284	67.634	20.171	1.7736e-06	28.195	230.262	139.967	148.846	64.450	191.169	229.818	64.403	71.367	227.960	214.097	70.933	78.289	78.257	84.611	214.791	84.016	-8191	255	
18209.514	1	1	0	0	0.13136	0.10429	0.051545	0.25968	0.14359	0.11048	0.16505	0.35999	0.14813	0.1971	0.14022	0.028379	0.059676	0.15347	0.027015	0.28497	-2.0687	-2.6271	-2.7792	-2.525	-2.7292	-2.5729	-2.7375	-2.9854	-2.5	-2.7583	-2.725	-2.6458	-2.6667	-2.6208	-2.4167	-2.9333	80.065	313.592	374.728	367.966	229.966	169.480	72.063	341.829	402.181	144.469	332.081	344.590	326.841	106.669	335.691	336.422	0.00024767	0.00025088	6.0764e-05	1185	3.7687e-06	4.2563e-06	1249.7	250.22	3.3294e-06	3.0591e-06	311.57	85.785	67.721	20.126	2.5056e-06	28.057	0.00018663	0.00015578	4.1203e-05	1157.9	1.7414e-06	1.6669e-06	1229.4	247.29	1.7551e-06	1.6449e-06	307.22	86.145	67.506	20.158	1.6882e-06	28.212	225.520	142.705	158.653	64.404	232.152	223.439	64.272	71.577	253.650	248.470	71.097	78.340	78.208	84.470	250.790	84.101	-8191	255	
18209.609	1	1	0	0	0.087222	0.19647	0.063952	0.173	0.089066	0.11366	0.26208	0.27014	0.16929	0.051833	0.12035	0.17154	0.097939	0.26421	0.28061	0.19769	-2	-2.4062	-2.7604	-2.5021	-2.8542	-2.7396	-2.6604	-2.8771	-2.2708	-2.6458	-2.8792	-2.4104	-2.5729	-2.7646	-2.4167	-2.8604	280.451	266.073	331.546	64.395	211.353	335.654	390.994	68.724	110.273	191.787	357.165	325.880	339.774	146.084	411.544	165.138	0.00025718	0.00014501	9.2895e-05	1187.5	3.0384e-06	1.9629e-06	1246.8	249.75	3.6553e-06	3.3381e-06	308.98	85.614	67.59	19.948	3.6264e-06	27.892	0.00018637	0.00015472	4.3123e-05	1157.3	1.7118e-06	1.6625e-06	1227.7	246.97	1.7515e-06	1.6176e-06	306.49	85.87	67.314	20.151	1.663e-06	28.039	230.724	129.215	140.641	64.435	210.806	245.361	64.464	71.776	241.145	250.839	71.093	78.148	78.057	84.475	219.627	84.118	-8191	255	
18209.705	1	1	0	0	0.14879	0.10414	0.30431	0.1567	0.14528	0.21728	0.20529	0.22628	0.23183	0.085256	0.07185	0.21434	0.19187	0.2242	0.085667	0.083092	-1.9562	-2.5354	-2.6479	-2.5542	-2.6813	-2.6979	-2.5521	-2.8167	-2.6354	-2.5146	-2.85	-2.5687	-2.6125	-2.6979	-2.5375	-2.8125	56.228	141.239	270.563	70.170	333.630	199.739	349.390	360.395	188.628	220.898	241.173	221.493	318.238	307.205	110.087	376.897	0.00023828	0.0002409	9.398e-05	1180.1	4.6301e-06	4.4038e-06	1246.2	249.05	3.2839e-06	3.4643e-06	309.67	86.052	66.991	19.868	4.1662e-06	27.971	0.00017975	0.00015134	3.9885e-05	1154.6	1.7048e-06	1.643e-06	1223.2	246.32	1.7178e-06	1.5733e-06	305.78	85.919	67.06	19.997	1.6129e-06	28.077	224.940	120.943	156.189	64.039	204.245	238.271	64.400	71.374	230.817	211.522	71.012	78.019	78.422	84.607	228.348	84.349	-8191	255	
18209.826	1	1	0	0	0.30048	0.3345	0.26232	0.053856	0.0768	0.083014	0.049172	0.14647	0.087512	0.082335	0.19572	0.22212	0.12787	0.34256	0.1869	0.12577	-2.4833	-2.4	-2.6667	-2.4688	-2.7188	-2.7812	-2.7625	-2.8583	-2.7479	-2.4521	-3.0187	-2.7854	-2.675	-2.9208	-2.5958	-2.8187	294.888	272.285	386.503	281.624	247.300	407.201	104.315	55.457	83.251	135.907	353.672	346.579	400.417	308.911	106.012	349.387	0.0002342	0.00020918	0.00010455	1175.3	3.0352e-06	4.6728e-06	1239.9	248.57	2.7577e-06	1.6467e-06	307.82	85.681	67.373	19.897	3.3868e-06	27.83	0.00017819	0.00013724	3.9029e-05	1149.3	1.5863e-06	1.4408e-06	1220.8	245.43	1.5402e-06	1.5239e-06	305.09	85.627	67.188	20.079	1.5769e-06	28.069	230.824	135.749	164.194	64.263	203.223	214.479	64.461	71.725	245.630	186.065	70.822	78.262	78.463	84.558	202.848	84.148	-8191	255	
18209.922	1	1	0	0	0.097402	0.34288	0.16254	0.12418	0.24385	0.058451	0.096377	0.27147	0.18604	0.081953	0.27338	0.26399	0.33653	0.18669	0.034833	0.10829	-2.2646	-2.4938	-2.9042	-2.6771	-2.4271	-2.9521	-2.85	-2.7833	-2.6688	-2.5208	-2.7917	-2.5375	-2.5104	-2.7771	-2.4354	-2.6958	322.405	102.903	126.377	194.001	267.033	97.934	222.887	75.886	368.259	209.185	334.340	340.885	116.802	396.868	74.454	226.596	0.00026065	0.00023778	6.6476e-05	1170.2	2.5416e-06	3.3744e-06	1238.4	247.67	3.1631e-06	3.2943e-06	307.51	85.604	67.136	19.9	1.916e-06	27.85	0.00017401	0.0001442	3.9221e-05	1149.4	1.5548e-06	1.5169e-06	1217.9	245.11	1.5974e-06	1.5897e-06	304.81	85.639	67.045	20.101	1.5484e-06	28.076	229.794	138.418	156.151	64.295	216.056	190.752	64.345	71.471	238.368	251.123	71.074	78.121	78.295	84.386	246.354	84.242	-8191	255	
18210.018	1	1	0	0	0.16643	0.093476	0.050737	0.23541	0.09564	0.22524	0.026145	0.40547	0.11425	0.043613	0.15911	0.16594	0.11441	0.13878	0.20476	0.19372	-2.4521	-2.4958	-2.7375	-2.5958	-2.5708	-2.9417	-2.8563	-2.6354	-2.7438	-2.4458	-2.7458	-2.7917	-2.5062	-2.6917	-2.6292	-2.6708	300.154	337.717	99.513	395.531	74.490	90.745	161.736	338.467	133.125	199.319	366.570	318.617	297.910	118.967	270.747	57.596	0.00024512	0.00038064	9.5394e-05	1169.6	2.4225e-06	4.321e-06	1243.1	247.17	2.8481e-06	3.1641e-06	307.22	85.848	66.764	19.8	2.7956e-06	27.777	0.00017247	0.00013622	3.8393e-05	1149.5	1.5316e-06	1.4808e-06	1219.1	245.21	1.6673e-06	1.5521e-06	304.71	85.663	66.772	20.046	1.5889e-06	28.004	229.769	138.120	162.109	64.356	212.752	192.213	64.485	71.480	223.557	216.591	70.903	77.901	78.435	84.840	238.930	84.322	-8191	255	
18210.115	1	1	0	0	0.1375	0.17745	0.16188	0.21115	0.13757	0.15793	0.24974	0.067665	0.098711	0.11627	0.046433	0.040286	0.057828	0.061061	0.096294	0.096262	-2.2396	-2.4354	-2.6354	-2.6604	-2.3604	-2.8833	-2.6042	-2.5229	-2.6813	-2.5646	-2.8729	-2.8667	-2.3583	-2.7479	-2.4396	-2.7146	352.700	206.171	381.479	150.783	74.289	346.465	342.430	359.093	241.984	193.006	337.805	229.122	370.292	404.534	203.976	174.164	0.0002254	0.00027593	7.3342e-05	1179.2	3.9524e-06	2.2005e-06	1240	247.06	2.7794e-06	1.7211e-06	305.36	85.279	66.855	19.82	3.5518e-06	27.628	0.00017506	0.00013878	3.808e-05	1148.1	1.6703e-06	1.4872e-06	1218	244.88	1.6226e-06	1.58e-06	303.83	85.221	66.787	19.953	1.627e-06	27.947	223.256	157.029	171.519	64.745	221.824	214.847	64.561	71.462	227.974	214.360	71.188	78.104	78.560	84.456	208.321	84.103	-8191	255	
18210.209	1	1	0	0	0.032867	0.19889	0.097386	0.25305	0.051024	0.1706	0.095971	0.079874	0.12393	0.080974	0.10853	0.04239	0.19696	0.28577	0.098501	0.11252	-2.5104	-2.4167	-2.6729	-2.7958	-2.5146	-2.925	-2.6833	-2.5292	-2.8146	-2.7042	-2.8312	-2.6667	-2.4437	-2.7792	-2.6188	-2.5625	314.326	140.254	294.357	178.485	287.015	396.100	336.175	237.569	112.778	273.102	379.427	196.334	90.506	400.074	229.760	370.469	0.00021758	0.00035883	0.00011253	1175.8	3.2168e-06	2.0749e-06	1238.2	246.8	3.4592e-06	3.1353e-06	307.89	85.32	66.817	19.942	2.6293e-06	27.797	0.00017628	0.00014428	3.9622e-05	1148.7	1.6077e-06	1.5845e-06	1216.4	244.93	1.695e-06	1.5759e-06	304.44	85.513	66.897	20.03	1.5584e-06	28.004	226.277	124.936	156.195	64.134	229.982	205.709	64.264	71.669	228.642	215.553	70.904	78.224	78.294	84.670	226.238	83.848	-8191	255	
18210.307	1	1	0	0	0.12414	0.11368	0.028125	0.11239	0.14829	0.15205	0.31447	0.40127	0.34919	0.14797	0.047544	0.13019	0.30944	0.18012	0.24415	0.26373	-2.3646	-2.3375	-2.6771	-2.7396	-2.5854	-2.7521	-2.9562	-2.4188	-2.8479	-2.2604	-2.5292	-2.6312	-2.4437	-2.9104	-2.6188	-2.4542	272.632	307.990	311.436	287.195	278.000	231.775	388.296	361.352	164.822	89.858	89.107	142.596	386.630	63.171	142.563	107.582	0.00025108	0.00029436	4.6202e-05	1171.1	3.728e-06	1.872e-06	1243.1	247.94	2.2967e-06	4.0825e-06	306.22	85.746	66.859	19.899	2.0206e-06	27.72	0.0001759	0.00014751	4.0582e-05	1149.3	1.6089e-06	1.5307e-06	1220.1	245.56	1.6236e-06	1.5228e-06	304.12	85.639	66.879	20.031	1.5925e-06	28.032	230.442	139.411	143.750	64.420	192.152	202.815	64.453	71.354	239.934	211.699	70.512	78.113	78.605	84.335	195.848	84.031	-8191	255	
18210.426	1	1	0	0	0.10262	0.35415	0.19838	0.092112	0.18294	0.22814	0.39168	0.11043	0.03578	0.094973	0.3231	0.24579	0.13819	0.18865	0.079529	0.32393	-2.375	-2.3667	-2.6729	-2.8812	-2.5229	-2.7104	-2.775	-2.4354	-3.0458	-2.5417	-2.4958	-2.8396	-2.5375	-2.6542	-2.5187	-2.4813	224.756	314.723	331.033	260.202	351.655	311.379	344.777	346.987	244.831	398.652	359.920	222.271	246.137	370.776	296.042	58.614	0.00025679	0.00039785	8.4667e-05	1180.5	2.4907e-06	4.2969e-06	1239.8	247.57	3.3777e-06	2.7125e-06	308.13	85.344	66.914	19.698	2.4366e-06	27.74	0.00017928	0.00014129	3.949e-05	1152.8	1.5348e-06	1.5315e-06	1219.9	245.25	1.7106e-06	1.5521e-06	304.7	85.564	66.875	19.964	1.6108e-06	27.916	228.186	148.383	134.224	64.365	205.307	210.805	64.480	71.660	253.234	252.466	71.084	78.077	78.273	84.260	204.695	84.243	-8191	255	
18210.521	1	1	0	0	0.21898	0.22143	0.052915	0.225	0.24934	0.25738	0.33227	0.10696	0.078505	0.025417	0.030541	0.10734	0.13495	0.25026	0.061748	0.082422	-2.4208	-2.5479	-2.5083	-2.8208	-2.4917	-2.6708	-2.9958	-2.5521	-2.8479	-2.6104	-2.475	-2.5479	-2.3604	-2.6833	-2.7271	-2.3667	191.479	305.839	98.203	392.194	136.364	280.547	320.304	351.313	305.293	112.965	142.654	382.162	219.395	139.185	251.266	301.492	0.00023051	0.00042163	7.8424e-05	1178.2	3.9455e-06	2.4476e-06	1244.4	246.89	2.9896e-06	2.5893e-06	307.22	85.165	67.017	19.843	2.3939e-06	27.608	0.00018075	0.00014703	4.1021e-05	1150.3	1.7076e-06	1.629e-06	1220.7	245.32	1.7199e-06	1.6071e-06	303.86	85.532	66.776	19.984	1.5927e-06	27.957	229.485	111.469	167.948	64.216	228.583	203.379	64.394	71.538	238.857	246.236	70.965	77.995	78.236	84.688	220.661	84.142	-8191	255	
18210.617	1	1	0	0	0.088341	0.094696	0.16708	0.086832	0.053422	0.1482	0.08398	0.059274	0.0804	0.17356	0.050932	0.31348	0.27934	0.27956	0.069994	0.25486	-2.1813	-2.7021	-2.5771	-2.8667	-2.6229	-2.4958	-2.8187	-2.6167	-2.8479	-2.6875	-2.55	-2.8354	-2.4229	-2.5229	-2.7125	-2.7062	384.138	107.203	334.074	183.790	63.150	212.654	273.017	206.740	279.801	217.495	54.730	75.433	362.440	395.293	272.242	100.531	0.00024913	0.0004084	7.9974e-05	1182.7	3.5244e-06	2.9008e-06	1244	246.96	3.1334e-06	2.5814e-06	308.16	85.618	67.091	19.87	4.0617e-06	27.791	0.00018632	0.00014161	4.1455e-05	1151.4	1.5981e-06	1.5652e-06	1218.5	245.26	1.6675e-06	1.5169e-06	304.06	85.554	66.933	19.996	1.5823e-06	27.971	225.030	135.642	152.264	64.155	201.776	220.263	64.595	71.378	241.275	227.360	71.030	78.284	78.292	84.398	229.750	83.791	-8191	255	
18210.715	1	1	0	0	0.064827	0.19131	0.17627	0.22744	0.19573	0.13422	0.56633	0.089209	0.17541	0.019135	0.082584	0.19054	0.2269	0.081283	0.20444	0.34207	-2.1979	-2.7333	-2.6125	-2.6937	-2.5438	-2.3354	-2.9375	-2.5729	-2.5979	-2.7521	-2.4792	-2.8083	-2.6708	-2.7417	-2.7062	-2.7271	320.224	230.337	186.049	90.330	62.144	158.699	365.581	400.412	130.093	365.861	298.695	120.705	244.840	153.255	363.315	69.438	0.00024616	0.00035115	5.8703e-05	1177.7	2.7348e-06	2.4002e-06	1241.2	247.55	2.6745e-06	3.0829e-06	307.65	85.079	67.095	19.749	2.9004e-06	27.549	0.00017463	0.00013891	4.0473e-05	1150.1	1.5697e-06	1.542e-06	1220.4	245.32	1.6748e-06	1.4824e-06	304.51	85.422	66.802	19.985	1.5965e-06	27.951	232.245	102.876	145.044	64.463	214.018	218.680	64.542	71.509	255.548	234.505	70.751	78.024	78.475	84.565	220.999	84.282	-8191	255	
18210.811	1	1	0	0	0.12334	0.11071	0.12706	0.079604	0.24378	0.082641	0.42496	0.10615	0.20615	0.13158	0.24692	0.016207	0.12779	0.16072	0.17774	0.084805	-2.3063	-2.6958	-2.5062	-2.6708	-2.7125	-2.2812	-2.9896	-2.6104	-2.6667	-2.7896	-2.3792	-2.7542	-2.6063	-2.5667	-2.8104	-2.5354	62.553	124.279	155.227	273.159	320.414	172.175	380.613	313.684	114.920	241.228	361.901	245.086	362.623	204.480	311.548	407.704	0.00026504	0.0002577	6.6932e-05	1181.4	4.272e-06	5.3043e-06	1247.7	248.24	2.2641e-06	2.6415e-06	307.22	86.055	66.738	19.864	4.1034e-06	27.83	0.00017894	0.00012999	3.9452e-05	1152.9	1.6172e-06	1.5158e-06	1222.6	245.08	1.6525e-06	1.5551e-06	304.47	85.604	66.8	19.989	1.5878e-06	27.977	227.937	135.273	126.598	64.327	222.609	213.337	64.329	71.450	221.132	209.180	70.698	77.961	78.272	84.401	209.518	84.259	-8191	255	
18210.906	1	1	0	0	0.24954	0.12862	0.12564	0.078999	0.20524	0.26156	0.261	0.19654	0.14012	0.18563	0.43719	0.23389	0.16823	0.24114	0.12465	0.19035	-2.0542	-2.6396	-2.4979	-2.9083	-2.7125	-2.4188	-2.9	-2.5167	-2.3812	-2.7542	-2.6208	-2.7396	-2.775	-2.4625	-2.8542	-2.5708	114.196	374.565	399.344	90.251	327.349	314.343	401.299	389.168	290.161	56.477	303.218	73.361	285.972	255.323	288.674	318.032	0.00022997	0.0002904	7.0008e-05	1180.7	2.0303e-06	4.4442e-06	1236	245.71	3.3174e-06	5.5645e-06	306.81	85.546	66.514	19.761	3.6704e-06	27.757	0.00018174	0.00013732	4.0341e-05	1151.4	1.6055e-06	1.574e-06	1218.2	244.62	1.6604e-06	1.5765e-06	304.06	85.228	66.668	19.906	1.594e-06	27.877	225.839	135.157	133.271	63.979	237.705	198.414	64.538	71.496	238.918	219.168	70.668	78.234	77.994	84.696	224.526	84.242	-8191	255	
18211.002	1	1	0	0	0.17612	0.082352	0.046293	0.072558	0.45551	0.23577	0.19296	0.15143	0.31938	0.12034	0.168	0.092632	0.23079	0.34205	0.0096177	0.1398	-2.1042	-2.6792	-2.4104	-2.7542	-2.7313	-2.5729	-3.0042	-2.7146	-2.6125	-2.7938	-2.5708	-2.5958	-2.7354	-2.4333	-2.8438	-2.5	367.985	310.399	130.218	353.435	248.496	294.930	66.419	213.420	200.019	182.538	68.199	279.346	377.091	96.091	371.109	354.629	0.00025009	0.00035337	0.00011274	1180.5	3.51e-06	3.2815e-06	1237.6	246.36	2.312e-06	4.3211e-06	307.43	85.735	66.908	19.713	1.891e-06	27.705	0.00018125	0.00014057	3.9765e-05	1151.2	1.6106e-06	1.5567e-06	1218.3	244.23	1.7549e-06	1.5291e-06	303.74	85.417	66.728	19.864	1.6496e-06	27.909	223.726	149.751	140.679	64.397	223.356	192.436	64.577	71.664	264.210	203.939	70.720	78.103	77.969	84.837	217.150	84.023	-8191	255	
18211.121	1	1	0	0	0.073867	0.2724	0.072761	0.26811	0.10192	0.10858	0.29664	0.22872	0.25214	0.12108	0.094486	0.25261	0.20497	0.26363	0.057789	0.19591	-2.1583	-2.6042	-2.3729	-2.6896	-2.6771	-2.5833	-2.9625	-2.6333	-2.1833	-2.7604	-2.5833	-2.725	-2.7375	-2.5917	-2.8563	-2.7542	365.870	384.957	79.503	338.892	131.517	148.671	331.845	271.487	311.007	391.934	204.871	98.182	379.018	147.120	256.532	323.694	0.00022053	0.00031231	0.00011783	1173.3	2.7464e-06	4.0129e-06	1240	245.57	1.7482e-06	2.8868e-06	307.36	84.696	66.936	19.615	2.4791e-06	27.691	0.00017429	0.00013903	4.0418e-05	1147.5	1.5393e-06	1.5657e-06	1218.7	244.57	1.7172e-06	1.5322e-06	303.99	84.979	66.766	19.865	1.6652e-06	27.881	226.242	154.904	147.705	63.922	218.129	205.219	64.360	71.524	226.101	194.419	70.871	78.187	78.377	84.555	250.818	84.252	-8191	255	
18211.219	1	1	0	0	0.066276	0.2073	0.11072	0.17464	0.30766	0.20958	0.10304	0.20061	0.26554	0.13483	0.028584	0.15497	0.19071	0.11113	0.21363	0.073618	-1.8792	-2.8937	-2.4188	-2.65	-2.8833	-2.5646	-2.9979	-2.7583	-2.5417	-2.8542	-2.7188	-2.5875	-2.8063	-2.5958	-2.6854	-2.8167	154.619	68.338	274.164	127.224	131.621	267.271	287.618	314.659	197.331	92.450	310.614	111.708	284.837	122.051	53.782	247.394	0.0002532	0.00024974	8.7437e-05	1176.3	2.8692e-06	1.6467e-06	1242.5	246.12	2.9772e-06	3.522e-06	306.7	84.926	66.813	19.681	3.2236e-06	27.724	0.00017693	0.00015238	4.0857e-05	1151.3	1.6236e-06	1.5796e-06	1218.2	244.16	1.7913e-06	1.563e-06	303.7	84.959	66.672	19.841	1.6242e-06	27.796	229.048	138.783	172.491	64.027	230.955	233.331	64.299	71.711	244.996	202.415	70.832	78.212	78.330	84.489	208.286	84.152	-8191	255	
18211.314	1	1	0	0	0.25653	0.1301	0.15388	0.12165	0.075032	0.11136	0.19262	0.024484	0.10581	0.071317	0.3179	0.22805	0.23436	0.073249	0.13351	0.23843	-1.8167	-2.7083	-2.4729	-2.725	-2.8375	-2.3854	-2.6479	-2.6875	-2.3729	-2.8354	-2.7125	-2.6104	-2.9396	-2.5208	-2.5333	-2.9958	202.169	324.438	112.366	155.745	126.323	379.267	411.499	357.058	130.970	236.248	335.966	355.489	95.870	240.853	328.268	361.367	0.00026834	0.00028583	0.00012794	1168.2	5.0261e-06	3.7195e-06	1239.6	246.48	2.7506e-06	4.2604e-06	306.63	85.063	66.466	19.799	4.1266e-06	27.531	0.00018278	0.00014819	4.0769e-05	1146	1.6339e-06	1.5416e-06	1216.1	244.35	1.6068e-06	1.5204e-06	303.54	85.084	66.471	19.879	1.6345e-06	27.869	227.879	147.316	146.255	64.072	212.335	219.854	64.380	71.613	229.118	213.100	71.344	78.116	78.595	84.594	237.933	84.079	-8191	255	
18211.387	1	1	0	0	0.030803	0.099517	0.15896	0.20973	0.11176	0.21935	0.27971	0.053734	0.10364	0.12616	0.15041	0.17315	0.11075	0.11576	0.18655	0.25394	-1.9208	-2.8542	-2.4917	-2.4125	-2.7625	-2.6333	-2.95	-2.9583	-2.4521	-2.7958	-2.8958	-2.5875	-2.9542	-2.5042	-2.5	-2.8667	229.684	188.070	215.970	353.920	229.002	377.696	340.546	356.632	293.351	83.657	402.592	356.799	373.076	200.497	140.852	399.782	0.0002467	0.00030643	0.00010864	1174	3.5424e-06	3.0642e-06	1236.1	245.65	2.6551e-06	3.2479e-06	306.01	84.686	66.255	19.621	3.1901e-06	27.462	0.00017702	0.00014141	4.0511e-05	1144.7	1.682e-06	1.5593e-06	1214.5	243.89	1.6665e-06	1.5281e-06	303.05	84.799	66.47	19.806	1.6647e-06	27.759	229.372	154.989	157.284	64.354	240.578	242.657	64.510	71.431	239.463	225.286	71.021	77.889	78.522	84.621	204.799	84.147	-8191	255	
18211.508	1	1	0	0	0.055173	0.21238	0.089715	0.27874	0.11328	0.15724	0.1779	0.31613	0.26854	0.1101	0.16236	0.092302	0.22575	0.13952	0.12776	0.24497	-2.2542	-2.5687	-2.5938	-2.5375	-2.7417	-2.6854	-2.5979	-3.2333	-2.5479	-2.8104	-2.8375	-2.6417	-2.9979	-2.6375	-2.4688	-3.0979	181.395	135.490	232.587	357.373	278.236	334.934	334.793	340.333	331.762	353.965	343.095	396.505	94.130	71.140	142.497	126.763	0.00023491	0.00015178	9.0322e-05	1173.1	4.0673e-06	2.7318e-06	1237.5	246.2	2.5915e-06	3.9308e-06	304.61	84.981	66.97	19.565	4.2117e-06	27.71	0.000173	0.00013807	3.8426e-05	1148.4	1.5898e-06	1.5309e-06	1215.9	243.93	1.6552e-06	1.5621e-06	302.94	85.007	66.638	19.812	1.6138e-06	27.782	230.816	143.916	165.690	64.211	228.064	215.713	64.512	71.522	223.594	189.944	70.736	77.789	78.506	84.620	194.591	84.469	-8191	255	
18211.604	1	1	0	0	0.08463	0.21771	0.22291	0.28151	0.16016	0.46816	0.15031	0.20917	0.2184	0.18925	0.18896	0.2512	0.066514	0.19742	0.088615	0.21649	-2.1937	-2.7833	-2.6646	-2.4021	-2.9229	-2.7854	-2.7958	-2.8667	-2.5979	-2.8083	-3.0187	-2.5292	-2.7292	-2.5104	-2.2479	-2.8917	116.508	337.061	55.471	406.316	136.517	332.924	312.667	382.307	88.052	325.818	334.042	360.909	180.964	337.014	287.829	409.331	0.00025537	0.00023159	9.09e-05	1170.9	2.9387e-06	4.36e-06	1231.5	245.19	3.7582e-06	1.8522e-06	305.74	85.231	66.458	19.62	2.4433e-06	27.598	0.00018264	0.00014397	3.7246e-05	1144.1	1.6552e-06	1.5396e-06	1213.1	243.54	1.7156e-06	1.5899e-06	302.85	84.973	66.331	19.8	1.5763e-06	27.806	228.903	153.494	153.929	64.124	222.157	206.375	64.447	71.819	212.825	233.857	70.952	78.218	78.338	84.674	226.950	83.886	-8191	255	
18211.699	1	1	0	0	0.11679	0.056775	0.036528	0.40256	0.13389	0.13797	0.16662	0.021549	0.14007	0.12374	0.31961	0.30286	0.17848	0.13979	0.068716	0.086933	-1.9521	-2.5417	-2.7417	-2.4771	-2.825	-2.6813	-2.6813	-2.7229	-2.6417	-2.5083	-2.8917	-2.3792	-2.5062	-2.7917	-2.3563	-2.6958	189.172	391.566	310.218	55.789	191.577	396.948	280.245	233.839	216.261	65.632	399.562	286.093	377.731	398.536	307.762	327.448	0.00023824	0.00026158	7.6787e-05	1171.3	1.2158e-06	3.4289e-06	1238.9	246.4	4.1147e-06	3.158e-06	307.72	85.055	66.702	19.614	2.2852e-06	27.513	0.00018135	0.00014552	3.8074e-05	1142.8	1.6571e-06	1.5716e-06	1215.9	243.94	1.7193e-06	1.4983e-06	303.29	84.867	66.233	19.84	1.7142e-06	27.743	222.711	133.962	150.115	64.248	192.225	199.501	64.562	71.611	230.445	221.096	70.808	78.238	78.562	84.882	240.638	84.930	-8191	255	
18211.795	1	1	0	0	0.27962	0.16303	0.24317	0.22995	0.047622	0.11125	0.36641	0.27244	0.09941	0.27401	0.22137	0.093008	0.22095	0.25479	0.32859	0.17395	-2.1	-2.3208	-2.725	-2.4771	-2.55	-2.7562	-2.6979	-2.7167	-2.6521	-2.5771	-2.875	-2.5687	-2.7458	-2.8292	-2.4771	-2.6833	279.182	196.697	394.729	388.359	404.422	162.000	357.545	117.406	402.498	158.569	294.280	400.088	199.095	95.095	306.373	309.145	0.00022947	0.00039426	0.00010576	1171.5	3.9386e-06	3.3488e-06	1240	246.07	3.4166e-06	3.4846e-06	303.99	84.706	66.555	19.599	2.86e-06	27.527	0.00017894	0.00014064	3.8135e-05	1147.4	1.6624e-06	1.5106e-06	1216.5	243.75	1.648e-06	1.5997e-06	302.74	84.9	66.361	19.815	1.6178e-06	27.781	227.005	137.883	164.904	64.097	212.990	220.215	64.542	71.589	223.015	197.318	70.903	77.991	78.596	84.678	221.598	84.347	-8191	255	
18211.914	1	1	0	0	0.049262	0.25599	0.1471	0.29306	0.13766	0.12108	0.059831	0.24857	0.19954	0.04311	0.12459	0.17349	0.21162	0.17007	0.14424	0.18644	-2.1396	-2.5479	-2.7938	-2.425	-2.5021	-2.8146	-2.7396	-2.8833	-2.8042	-2.2146	-2.7125	-2.5042	-2.5292	-2.7396	-2.4167	-2.6437	58.617	152.031	285.152	388.367	318.904	79.964	413.169	376.129	341.841	365.730	412.983	63.946	348.485	275.362	378.665	368.476	0.00024636	0.00030577	9.911e-05	1164	3.7435e-06	4.8588e-06	1237.8	244.61	2.3088e-06	3.8184e-06	307.29	85.003	66.257	19.48	3.0252e-06	27.654	0.00017269	0.00013184	3.8717e-05	1142.8	1.5497e-06	1.4883e-06	1212.4	243.25	1.6043e-06	1.5532e-06	303.45	84.967	66.279	19.781	1.6479e-06	27.768	228.533	147.144	160.130	64.306	235.753	202.739	64.343	71.588	249.538	202.647	71.332	77.784	77.997	84.670	238.583	84.245	-8191	255	
18211.986	1	1	0	0	0.12641	0.075736	0.11176	0.27793	0.36862	0.074406	0.079624	0.32071	0.1165	0.22493	0.083468	0.19758	0.28056	0.11478	0.10603	0.13884	-2.2938	-2.325	-2.7542	-2.6437	-2.7271	-2.8771	-2.6042	-2.7438	-2.6312	-2.4521	-2.7604	-2.625	-2.5	-3.0354	-2.2313	-2.6354	233.785	139.316	355.193	375.787	262.352	164.057	379.228	334.017	388.452	319.530	58.818	298.966	352.155	305.072	180.718	216.775	0.00024617	0.00026489	5.5843e-05	1175.1	2.6924e-06	2.8733e-06	1236.6	244.26	1.81e-06	3.4887e-06	304.61	84.575	66.501	19.656	2.4108e-06	27.502	0.00017814	0.0001399	3.8085e-05	1143	1.6138e-06	1.5178e-06	1210	242.82	1.5506e-06	1.461e-06	301.9	84.648	66.213	19.777	1.5982e-06	27.695	231.057	137.175	141.518	64.163	226.666	181.353	64.484	71.482	220.902	183.484	71.249	78.037	78.431	84.798	221.127	84.489	-8191	255	
18212.105	1	1	0	0	0.18023	0.06297	0.21345	0.22973	0.029063	0.2246	0.26386	0.38083	0.24015	0.11027	0.22347	0.11191	0.26106	0.039865	0.2978	0.060587	-2.2687	-2.3312	-2.7104	-2.6833	-2.5458	-3.0708	-2.6813	-2.7792	-2.8396	-2.4146	-2.7875	-2.775	-2.5042	-2.7979	-2.2812	-2.5229	92.334	383.828	106.379	312.648	175.997	275.921	316.581	327.292	147.957	61.225	247.760	148.436	358.383	361.098	77.909	312.726	0.00025811	0.0004861	0.00010099	1169.8	3.8418e-06	3.8425e-06	1231.2	244.71	3.0331e-06	3.2853e-06	305.25	84.475	66.197	19.574	2.5973e-06	27.517	0.00017322	0.0001442	3.7092e-05	1142.5	1.6157e-06	1.5064e-06	1208.8	242.98	1.6055e-06	1.4861e-06	302.15	84.692	66.067	19.745	1.5863e-06	27.723	228.902	138.035	161.468	64.443	227.534	209.286	64.492	71.502	211.935	250.002	71.105	78.265	78.223	84.571	219.473	84.300	-8191	255	
18212.201	1	1	0	0	0.076264	0.23038	0.19612	0.16423	0.12197	0.11566	0.33514	0.14124	0.18586	0.14638	0.20645	0.15616	0.075991	0.1522	0.13721	0.13574	-2.3438	-2.4125	-2.7188	-2.6875	-2.1625	-2.775	-2.6125	-2.7771	-2.8271	-2.3896	-2.7854	-2.6063	-2.475	-2.7938	-2.5187	-2.5875	102.901	85.144	263.840	128.657	79.861	99.675	301.056	275.571	81.355	251.930	293.762	286.834	67.923	247.900	123.277	372.567	0.00023963	0.00026858	0.00010834	1169.4	2.8854e-06	3.446e-06	1230.9	244.76	2.1683e-06	3.8141e-06	303.78	84.532	66.418	19.601	3.9881e-06	27.652	0.00017005	0.00014271	3.7345e-05	1138.1	1.5448e-06	1.5335e-06	1208.9	243.2	1.5847e-06	1.492e-06	301.75	84.709	66.336	19.782	1.5448e-06	27.721	233.560	168.434	152.878	64.358	241.790	215.568	64.313	71.684	255.874	202.920	70.724	78.078	78.312	84.466	207.674	84.420	-8191	255	
18212.299	1	1	0	0	0.11367	0.16054	0.14877	0.17549	0.077163	0.18216	0.28771	0.27805	0.27452	0.14848	0.22262	0.13237	0.19594	0.24886	0.18911	0.13375	-2.3854	-2.3438	-2.6813	-2.6958	-2.2792	-2.875	-2.6604	-2.6625	-2.8563	-2.425	-2.7875	-2.6708	-2.3583	-2.575	-2.6271	-2.5542	193.982	207.349	137.000	89.776	237.857	208.614	399.232	379.972	136.067	384.709	293.969	118.691	71.785	294.629	58.040	208.528	0.00025807	0.00026637	9.9378e-05	1159.8	4.3005e-06	1.7977e-06	1230.5	246.04	2.9116e-06	3.8424e-06	303.9	84.53	65.992	19.689	4.2816e-06	27.569	0.00017546	0.00013927	3.8508e-05	1139.8	1.5371e-06	1.5147e-06	1208	243.28	1.624e-06	1.4796e-06	301.59	84.794	66.216	19.804	1.5243e-06	27.752	228.324	169.746	129.451	64.284	206.160	220.225	64.458	71.561	233.025	201.441	71.094	77.824	78.243	84.404	217.954	84.004	-8191	255	
18212.395	1	1	0	0	0.068719	0.15034	0.0808	0.13523	0.062206	0.16305	0.21139	0.41376	0.19532	0.22211	0.014796	0.21117	0.4139	0.15009	0.32552	0.13029	-2.3563	-2.6292	-2.6521	-2.9708	-2.5771	-2.7229	-2.7583	-2.6771	-2.8854	-2.425	-2.5542	-2.7729	-2.4354	-2.7292	-2.4688	-2.5208	167.215	112.649	146.640	397.975	190.536	122.717	102.182	362.666	153.464	74.555	242.298	399.636	384.368	108.612	126.524	147.807	0.00023913	0.00028713	0.0001001	1166.6	2.4813e-06	4.2056e-06	1228	244.5	3.184e-06	3.7623e-06	304.24	84.406	66.525	19.65	1.9247e-06	27.405	0.00016852	0.00013203	3.735e-05	1138.6	1.4924e-06	1.4397e-06	1207.2	242.05	1.57e-06	1.4603e-06	301.52	84.6	66.301	19.772	1.4542e-06	27.649	230.960	147.600	175.868	64.307	226.082	207.669	64.527	71.375	247.792	217.932	70.825	78.139	78.433	84.946	227.597	84.347	-8191	255	
18212.516	1	1	0	0	0.096411	0.048983	0.2134	0.19173	0.17657	0.16286	0.096688	0.29341	0.042047	0.12441	0.16297	0.28198	0.17611	0.18974	0.031679	0.39759	-2.4771	-2.4917	-2.5687	-2.5687	-2.6333	-2.9062	-2.7583	-2.5708	-2.9479	-2.4521	-2.6042	-2.9333	-2.4917	-2.5229	-2.6813	-2.3937	188.999	329.615	354.523	164.136	113.985	410.567	318.294	343.354	203.321	68.115	280.462	225.557	406.908	286.202	97.520	64.784	0.00023344	0.00024105	9.8205e-05	1164.1	2.3733e-06	5.3763e-06	1226.9	244.35	2.5938e-06	3.013e-06	304.22	84.484	66.073	19.554	2.6831e-06	27.469	0.00016573	0.00013229	3.6851e-05	1139.6	1.4967e-06	1.4751e-06	1206.2	242.07	1.5675e-06	1.3832e-06	301.33	84.591	66.024	19.739	1.5222e-06	27.715	226.941	139.073	151.290	64.033	239.282	202.059	64.487	71.583	231.717	216.846	70.813	78.242	78.306	84.612	195.934	84.402	-8191	255	
18212.588	1	1	0	0	0.25204	0.11207	0.23565	0.20003	0.071286	0.098448	0.16057	0.1559	0.11347	0.31476	0.22827	0.25861	0.17355	0.064217	0.039934	0.088693	-2.3083	-2.4521	-2.3229	-2.8104	-2.6021	-2.5979	-3.0062	-2.525	-2.7646	-2.5375	-2.5958	-2.8312	-2.6042	-2.6958	-2.8646	-2.5042	260.050	79.413	373.877	58.892	279.156	343.744	141.859	74.897	413.854	165.377	287.080	137.452	288.636	120.612	322.333	208.888	0.00021884	0.00016246	0.00011904	1160.7	3.3981e-06	4.109e-06	1223.8	244.58	3.9687e-06	4.9577e-06	304.03	85.493	66.64	19.627	3.7897e-06	27.719	0.0001637	0.00013017	3.7734e-05	1133.5	1.5171e-06	1.4078e-06	1203.7	242.01	1.5356e-06	1.3992e-06	301.27	84.941	66.106	19.822	1.4902e-06	27.752	227.058	182.397	143.191	64.548	214.907	217.865	64.568	71.840	228.542	200.810	70.937	78.335	78.687	84.562	228.110	84.196	-8191	255	
18212.684	1	1	0	0	0.16952	0.067715	0.10494	0.23339	0.090853	0.11565	0.12655	0.091449	0.14887	0.23876	0.18194	0.11525	0.16314	0.3445	0.24568	0.10461	-2.2875	-2.5125	-2.3583	-2.8792	-2.5854	-2.7062	-2.8708	-2.5521	-2.7146	-2.6917	-2.4562	-2.8479	-2.5021	-2.7229	-2.9562	-2.6333	264.651	250.704	62.738	408.062	400.517	63.950	411.124	94.461	231.484	75.636	285.979	160.765	328.179	397.257	362.089	410.362	0.00024499	0.00030709	9.9606e-05	1166.1	3.7207e-06	3.3336e-06	1232.4	243.03	3.4658e-06	2.1846e-06	304.51	84.6	66.466	19.677	4.2643e-06	27.453	0.00017073	0.00012773	3.5303e-05	1138.3	1.5186e-06	1.424e-06	1208.1	242.02	1.5423e-06	1.3293e-06	301.14	84.721	66.245	19.796	1.4864e-06	27.72	230.076	143.165	146.118	63.977	205.762	202.872	64.463	71.740	245.077	202.612	70.998	77.967	78.263	84.600	225.330	83.913	-8191	255	
18212.805	1	1	0	0	0.07094	0.11564	0.14625	0.1377	0.21672	0.27654	0.44444	0.10397	0.1948	0.26008	0.30771	0.2366	0.17828	0.065644	0.17108	0.12249	-2.2188	-2.7792	-2.4313	-2.9	-2.4708	-2.4417	-2.9083	-2.6146	-2.7021	-2.6792	-2.6188	-2.7958	-2.6042	-2.6792	-2.8771	-2.6458	58.089	184.620	266.701	164.635	282.489	209.063	401.392	75.004	275.060	194.115	368.915	402.260	299.174	407.305	212.003	175.166	0.00024494	0.00017759	5.3017e-05	1162.6	2.5749e-06	3.127e-06	1231.2	244.96	2.5715e-06	2.7559e-06	303.67	84.276	66.379	19.769	2.8654e-06	27.526	0.00016693	0.00012175	3.4776e-05	1136.9	1.4913e-06	1.3892e-06	1205.7	242.16	1.5783e-06	1.3876e-06	301.19	84.512	66.13	19.845	1.4576e-06	27.709	226.615	151.953	144.426	64.455	190.085	213.914	64.431	71.408	217.776	195.911	71.288	77.844	78.376	84.400	217.756	84.386	-8191	255	
18212.898	1	1	0	0	0.061502	0.18507	0.31461	0.16447	0.21304	0.14099	0.19423	0.37998	0.15854	0.45643	0.2817	0.19294	0.276	0.16882	0.28146	0.059744	-2.2292	-2.6875	-2.6042	-2.9396	-2.4229	-2.5896	-2.8896	-2.6542	-2.6688	-2.8083	-2.5542	-2.7792	-2.6937	-2.4229	-2.7396	-2.4292	374.628	153.852	373.160	181.314	240.112	256.551	346.808	374.487	305.568	179.641	392.862	378.378	78.931	68.784	80.750	120.155	0.00024805	0.0002275	9.1074e-05	1154.8	4.5291e-06	3.5025e-06	1221	243.59	3.7774e-06	3.7962e-06	302.25	85.273	65.884	19.441	3.0617e-06	27.558	0.00016536	0.00011937	3.5506e-05	1134.5	1.4149e-06	1.3455e-06	1201.9	241.9	1.4945e-06	1.333e-06	300.56	84.808	65.968	19.756	1.3474e-06	27.687	231.503	129.620	143.712	64.534	215.390	188.846	64.417	71.738	242.631	188.276	70.776	78.394	78.497	85.126	224.601	84.108	-8191	255	
18212.994	1	1	0	0	0.1052	0.19058	0.30372	0.1953	0.07799	0.09139	0.16967	0.39826	0.12417	0.23396	0.20851	0.045705	0.19289	0.136	0.18578	0.17835	-2.1979	-2.6312	-2.35	-2.675	-2.7229	-2.5708	-2.8396	-2.7021	-2.5062	-2.7958	-2.4354	-2.6854	-2.7125	-2.3792	-2.7396	-2.6729	401.244	169.445	320.020	313.708	346.807	86.857	304.321	386.938	267.870	307.252	400.755	170.730	389.752	389.259	264.276	273.409	0.00023676	0.00032179	0.00010211	1152.4	3.7011e-06	3.1078e-06	1225.3	244.19	3.584e-06	4.6931e-06	304.99	84.33	66.004	19.678	2.742e-06	27.536	0.00016041	0.00012356	3.5561e-05	1132.1	1.3744e-06	1.3497e-06	1201.5	241.75	1.4618e-06	1.3384e-06	300.61	84.595	66.035	19.791	1.3274e-06	27.745	230.263	132.740	126.643	64.433	223.597	203.287	64.498	71.490	222.336	214.814	70.847	78.365	78.336	84.686	248.661	83.944	-8191	255	
18213.090	1	1	0	0	0.22453	0.13877	0.076245	0.27476	0.16355	0.041926	0.1878	0.29167	0.23881	0.097954	0.19311	0.35407	0.084185	0.117	0.17975	0.13435	-2.0812	-2.975	-2.4437	-2.7188	-2.7333	-2.4021	-2.9083	-2.5896	-2.4771	-2.6521	-2.475	-2.5958	-2.7771	-2.1792	-2.7479	-2.6937	243.764	127.548	126.213	248.963	337.707	103.414	386.868	406.350	60.804	372.268	342.974	256.941	95.157	336.402	292.104	263.044	0.00023671	0.00031658	9.906e-05	1149.9	2.8753e-06	4.3903e-06	1220	244.27	2.6228e-06	2.1656e-06	302.47	84.32	65.868	19.59	3.0521e-06	27.7	0.00016001	0.00011562	3.0946e-05	1128.1	1.3256e-06	1.2498e-06	1198.5	241.27	1.4063e-06	1.2384e-06	300.08	84.479	65.911	19.716	1.2675e-06	27.694	226.565	156.862	152.547	64.068	199.965	223.787	64.459	71.743	223.491	179.952	71.218	78.042	78.327	84.701	225.798	84.440	-8191	255	
18213.211	1	1	0	0	0.014066	0.056535	0.096518	0.17161	0.059619	0.11118	0.12829	0.22718	0.060502	0.063021	0.26089	0.30988	0.11418	0.033321	0.47013	0.21837	-2.05	-2.7271	-2.4	-2.6229	-2.8792	-2.3812	-2.875	-2.5521	-2.425	-2.8083	-2.5667	-2.6625	-2.8458	-2.4458	-2.6646	-2.5729	153.653	308.557	155.047	382.569	341.663	352.040	389.981	411.646	144.854	341.029	409.958	323.969	386.587	189.951	244.796	76.957	0.00022906	0.00031834	9.631e-05	1158.3	4.2171e-06	3.4877e-06	1220.6	242.98	3.9342e-06	2.8384e-06	302.74	84.335	66.102	19.567	3.5847e-06	27.259	0.00015356	0.00011578	3.2389e-05	1129.6	1.2513e-06	1.3092e-06	1196.9	240.79	1.4163e-06	1.3297e-06	299.81	84.412	65.793	19.709	1.3329e-06	27.591	228.610	156.954	141.892	64.279	209.281	243.569	64.501	71.654	243.014	210.026	71.255	77.947	78.104	84.450	230.694	84.488	-8191	255	
18213.283	1	1	0	0	0.11476	0.20343	0.14058	0.3621	0.24422	0.23785	0.13315	0.20529	0.14898	0.21633	0.17343	0.13842	0.15833	0.16869	0.12463	0.23966	-2.0271	-2.875	-2.4167	-2.4542	-2.9313	-2.5083	-2.9188	-2.5271	-2.4271	-2.8187	-2.675	-2.6437	-2.7042	-2.4958	-2.6688	-2.975	315.643	262.448	131.893	286.257	213.098	54.688	404.894	342.625	214.247	141.130	359.263	79.282	228.772	365.855	341.620	65.737	0.00022768	0.00019174	9.4361e-05	1152.9	4.1024e-06	2.872e-06	1221.8	242.9	3.3215e-06	2.3914e-06	303.22	83.963	65.84	19.485	4.0586e-06	27.522	0.00015835	0.00011322	3.1621e-05	1126.7	1.3508e-06	1.2955e-06	1196	240.42	1.415e-06	1.2771e-06	299.71	84.243	65.845	19.664	1.3896e-06	27.593	228.028	138.987	136.106	64.444	237.771	232.693	64.483	71.641	229.697	194.438	71.018	78.384	78.588	84.638	204.505	84.291	-8191	255	
18213.379	1	1	0	0	0.26235	0.10797	0.076755	0.31368	0.087128	0.063277	0.37844	0.23628	0.17102	0.38369	0.31597	0.32001	0.2276	0.26218	0.092585	0.093132	-2.0292	-2.8375	-2.6521	-2.4208	-2.7188	-2.4604	-2.8229	-2.8104	-2.4188	-2.7708	-2.6625	-2.5208	-2.7667	-2.4646	-2.6104	-2.7542	275.879	319.459	178.595	129.243	137.497	389.221	314.319	369.288	254.618	137.331	260.397	366.425	297.731	304.398	151.337	104.188	0.00025824	0.00037933	7.9819e-05	1148.5	3.9755e-06	4.7984e-06	1216.5	241.96	2.7967e-06	3.7074e-06	301.91	83.441	65.833	19.447	2.3295e-06	27.294	0.00015861	0.00011867	3.2417e-05	1122.1	1.3116e-06	1.2163e-06	1194	239.81	1.3786e-06	1.3094e-06	298.84	83.835	65.63	19.635	1.3651e-06	27.503	231.125	148.663	136.541	64.065	220.905	206.184	64.468	71.724	233.897	214.765	71.160	78.135	78.427	84.737	201.189	84.412	-8191	255	
18213.475	1	1	0	0	0.075671	0.1161	0.085789	0.36931	0.17964	0.10987	0.25003	0.32718	0.15144	0.21334	0.10707	0.091569	0.1064	0.25018	0.14719	0.11503	-1.7646	-2.6521	-2.6792	-2.3958	-2.8354	-2.4292	-2.6792	-2.8187	-2.3521	-2.6979	-2.7562	-2.4437	-2.8979	-2.5458	-2.5	-2.9792	323.833	307.819	87.038	270.913	254.586	261.197	299.880	352.455	363.530	345.194	214.461	234.130	291.094	56.495	357.178	143.145	0.00024319	0.00037175	0.00012471	1138.4	4.4996e-06	4.0752e-06	1207.7	242.88	1.8687e-06	2.1099e-06	301.28	83.859	65.692	19.298	2.1841e-06	26.923	0.00016137	0.00011267	3.1912e-05	1118.1	1.3137e-06	1.2568e-06	1188.2	240.02	1.41e-06	1.3013e-06	297.87	83.794	65.333	19.461	1.3276e-06	27.265	228.051	147.928	136.248	64.258	221.393	210.011	64.656	71.636	231.587	217.164	71.099	78.315	78.579	84.589	230.077	84.176	-8191	255	
18213.596	1	1	0	0	0.23322	0.12667	0.076953	0.25744	0.13307	0.1865	0.32445	0.073521	0.11307	0.07773	0.28916	0.22823	0.063735	0.13038	0.11873	0.24405	-1.9312	-2.7125	-2.6667	-2.4271	-2.6688	-2.7896	-2.7313	-2.9458	-2.2792	-2.625	-2.9417	-2.5792	-2.7438	-2.5354	-2.5083	-2.8333	253.366	410.386	402.554	393.062	78.075	132.907	362.055	311.036	144.187	119.471	119.190	60.158	87.924	348.311	55.524	390.191	0.00024769	0.00035331	5.7767e-05	1138.7	3.2605e-06	2.3087e-06	1203	240.73	2.6812e-06	3.3592e-06	297.87	83.256	65.257	19.082	4.3158e-06	27.072	0.00015866	0.00012653	3.4529e-05	1114.2	1.3167e-06	1.3379e-06	1183.7	238.16	1.4593e-06	1.3151e-06	295.83	83.258	65.145	19.303	1.4182e-06	27.257	230.216	112.198	156.295	64.574	230.415	219.006	64.600	71.831	256.570	215.816	71.278	78.005	78.544	84.650	214.759	84.166	-8191	255	
18213.691	1	1	0	0	0.22458	0.067213	0.17629	0.20032	0.02125	0.31886	0.25239	0.082415	0.086948	0.245	0.20092	0.17209	0.13253	0.16606	0.26973	0.14998	-1.9292	-2.3625	-2.6312	-2.4688	-2.7188	-2.7062	-2.4354	-3.0125	-2.6042	-2.6021	-2.8333	-2.475	-2.9458	-2.6146	-2.3771	-2.8729	55.838	252.465	70.309	209.936	291.071	112.241	333.543	168.487	213.552	197.921	103.055	358.895	367.147	348.578	85.518	352.099	0.00024423	0.00038142	9.5588e-05	1138.5	4.814e-06	2.4093e-06	1205.9	239.96	2.913e-06	4.4667e-06	299.1	83.049	64.812	19.252	1.8779e-06	26.798	0.00016359	0.00013011	3.4853e-05	1113.5	1.4771e-06	1.3881e-06	1181.9	237.61	1.545e-06	1.3671e-06	296.04	83.07	64.663	19.351	1.5177e-06	27.144	226.873	131.085	139.573	64.401	220.097	235.695	64.708	71.787	245.759	218.380	71.362	77.897	78.490	84.552	215.328	84.427	-8191	255	
18213.787	1	1	0	0	0.071479	0.16221	0.23284	0.15747	0.21215	0.20823	0.12723	0.06038	0.098836	0.17295	0.3452	0.15397	0.12432	0.30177	0.16854	0.18798	-2.1063	-2.5687	-2.7625	-2.4125	-2.7083	-2.6042	-2.6104	-2.8604	-2.6958	-2.6292	-2.9667	-2.3458	-2.6979	-2.7562	-2.4271	-2.9021	171.711	332.441	61.890	390.720	122.316	339.637	173.219	243.356	399.628	370.958	393.796	413.014	132.712	94.682	315.573	184.064	0.0002277	0.00026794	7.7466e-05	1140.4	4.0866e-06	3.2667e-06	1208	239.94	2.0883e-06	4.269e-06	301.11	82.583	65.039	19.196	2.7007e-06	26.987	0.00016103	0.00013312	3.4156e-05	1114	1.4019e-06	1.358e-06	1183.8	237.77	1.4518e-06	1.4643e-06	296.92	82.953	64.854	19.316	1.4333e-06	27.217	231.637	146.175	158.404	64.038	207.078	208.765	64.380	71.661	244.842	197.260	70.857	78.583	78.812	84.954	217.372	84.392	-8191	255	
18213.885	1	1	0	0	0.15795	0.15848	0.14838	0.03598	0.18419	0.19186	0.17428	0.15151	0.18527	0.34693	0.156	0.13735	0.064988	0.25117	0.28536	0.14585	-2.0354	-2.4854	-2.6063	-2.5396	-2.6437	-2.7208	-2.4833	-2.9271	-2.7104	-2.4833	-3.05	-2.5771	-2.5833	-2.8396	-2.35	-2.8354	161.506	342.718	135.030	73.413	320.267	285.373	316.974	236.582	99.339	403.277	397.771	368.545	353.848	90.006	389.179	403.636	0.00023382	0.000264	5.4215e-05	1130.3	3.1423e-06	2.2521e-06	1207.1	240.1	3.1006e-06	2.4573e-06	299.39	83.458	64.98	19.287	2.0697e-06	27.191	0.00015732	0.00013042	3.4217e-05	1111.5	1.443e-06	1.3599e-06	1183.3	238.27	1.5244e-06	1.4005e-06	295.55	83.185	64.988	19.355	1.4838e-06	27.291	230.191	137.198	195.281	64.258	230.393	192.326	64.264	71.528	224.512	220.336	70.888	78.399	78.642	84.633	221.056	84.287	-8191	255	
18213.980	1	1	0	0	0.29936	0.17281	0.15104	0.10481	0.26461	0.093333	0.2603	0.28257	0.10109	0.26549	0.15559	0.090353	0.19978	0.16213	0.094026	0.33524	-2.3708	-2.5312	-2.8375	-2.5646	-2.5396	-2.8187	-2.6792	-2.6937	-2.8438	-2.525	-2.7438	-2.6063	-2.6646	-2.825	-2.5021	-2.6708	218.084	173.490	387.357	280.378	332.511	152.892	392.107	411.732	75.502	204.531	83.138	115.518	364.459	148.248	287.715	333.426	0.00023425	0.00041287	6.1002e-05	1140.1	3.6278e-06	2.1608e-06	1205.2	238.37	1.6024e-06	4.2552e-06	297.56	82.767	65.057	19.179	2.7218e-06	27.114	0.00016407	0.0001303	3.5292e-05	1115.2	1.4311e-06	1.3044e-06	1183.6	237.39	1.4302e-06	1.4136e-06	296.08	82.967	64.974	19.34	1.4418e-06	27.2	223.942	158.426	144.927	64.593	208.468	189.708	64.608	71.596	250.878	207.252	70.910	78.441	78.653	84.811	194.891	84.367	-8191	255	
18214.076	1	1	0	0	0.40445	0.18889	0.23914	0.24759	0.11912	0.16708	0.073076	0.20576	0.026369	0.19786	0.08318	0.18011	0.20215	0.1414	0.19562	0.3036	-2.1	-2.5354	-2.8125	-2.55	-2.4062	-2.7125	-2.7375	-2.6813	-2.5646	-2.6312	-2.7958	-2.6437	-2.475	-2.8063	-2.3333	-2.7417	241.066	172.771	191.743	106.303	224.119	391.649	340.460	85.425	397.365	211.348	412.488	366.253	312.599	273.820	77.468	54.857	0.00022947	0.00036822	9.1151e-05	1143.9	4.637e-06	4.7996e-06	1209.3	239.93	3.4099e-06	3.6228e-06	298.93	83.013	65.26	19.305	3.3782e-06	27.091	0.00016079	0.00012814	3.6379e-05	1117.9	1.5031e-06	1.3667e-06	1185.4	238.16	1.4949e-06	1.4346e-06	296.43	83.192	65.019	19.431	1.4431e-06	27.281	223.226	150.169	156.898	64.253	195.166	227.218	64.480	71.734	243.145	194.020	71.204	78.112	78.290	84.369	224.114	84.193	-8191	255	
18214.195	1	1	0	0	0.11494	0.17268	0.055624	0.10103	0.092707	0.14358	0.19643	0.38133	0.26843	0.14524	0.22409	0.07804	0.17736	0.10688	0.16839	0.21542	-2.2875	-2.2479	-2.5292	-2.5667	-2.5042	-2.9396	-2.575	-2.75	-2.7146	-2.4104	-2.7792	-2.5771	-2.3937	-2.8021	-2.5958	-2.7771	98.512	170.287	254.872	291.727	193.676	232.097	360.296	331.116	91.200	159.421	316.509	337.863	344.017	281.260	229.272	393.370	0.00025601	0.00034317	8.3702e-05	1145.6	2.5693e-06	2.9002e-06	1206.9	239.91	2.1427e-06	4.0067e-06	299.57	82.934	65.247	19.212	2.2183e-06	27.167	0.000169	0.00012755	3.4694e-05	1115.4	1.434e-06	1.3982e-06	1183.6	237.81	1.5165e-06	1.4514e-06	296.46	82.97	64.971	19.338	1.405e-06	27.275	227.312	139.926	124.946	64.238	228.565	207.201	64.389	71.701	217.100	219.140	70.742	78.209	78.536	84.840	238.517	84.517	-8191	255	
18214.291	1	1	0	0	0.12089	0.039726	0.32911	0.1338	0.17224	0.094923	0.32322	0.17557	0.21656	0.20584	0.034765	0.13579	0.084103	0.090292	0.073091	0.34893	-2.4458	-2.3312	-2.6688	-2.4396	-2.4479	-2.8187	-2.7562	-2.5396	-2.825	-2.5396	-2.7687	-2.9896	-2.6104	-2.9	-2.3438	-2.5792	217.103	363.553	160.553	65.266	163.504	257.797	388.580	70.242	216.952	215.390	242.464	105.118	162.574	327.532	266.056	234.879	0.00023271	0.00034634	9.2385e-05	1141.7	3.9919e-06	3.0579e-06	1202.6	239.22	2.9929e-06	4.0825e-06	298.65	82.662	64.88	19.12	3.2313e-06	26.984	0.00016278	0.000134	3.5018e-05	1116.2	1.5101e-06	1.4201e-06	1179.8	237.81	1.4689e-06	1.4186e-06	296.02	82.755	64.627	19.248	1.4342e-06	27.099	230.142	140.633	166.923	64.443	205.276	234.490	64.459	71.783	235.613	199.851	71.036	78.348	78.467	84.955	234.077	84.181	-8191	255	
18214.389	1	1	0	0	0.087558	0.1078	0.12663	0.40549	0.13039	0.15621	0.20378	0.15285	0.023985	0.21227	0.1829	0.12924	0.048704	0.15746	0.11024	0.19667	-2.2583	-2.4667	-2.5062	-2.7333	-2.3083	-2.8354	-2.7562	-2.6417	-2.8958	-2.6	-2.9667	-2.6479	-2.4146	-2.9271	-2.6562	-2.7396	195.099	359.868	62.207	403.130	413.277	185.534	129.539	292.154	159.357	295.427	268.516	110.680	148.041	111.957	395.089	368.509	0.00023047	0.00022935	7.8434e-05	1139.9	2.1703e-06	5.545e-06	1200.4	238.52	3.0038e-06	1.9785e-06	298.21	82.686	63.918	19.082	1.8501e-06	26.694	0.00016489	0.00012816	3.6675e-05	1112	1.4941e-06	1.452e-06	1180.3	236.46	1.5548e-06	1.5099e-06	295.74	82.488	64.309	19.179	1.5539e-06	26.978	227.837	142.909	134.634	63.917	218.364	209.710	64.446	71.763	223.848	235.882	70.924	78.107	78.511	84.734	185.514	84.509	-8191	255	
18214.508	1	1	0	0	0.21895	0.32946	0.26605	0.22526	0.17457	0.13671	0.32942	0.12622	0.1873	0.1395	0.11648	0.084702	0.074798	0.44833	0.069886	0.16933	-2.4854	-2.3271	-2.6771	-2.6958	-2.2375	-2.75	-2.8729	-2.4542	-2.8854	-2.6021	-2.7208	-2.7729	-2.4521	-2.7667	-2.6042	-2.4688	393.004	389.412	361.526	329.277	337.575	276.410	382.589	351.533	119.151	221.241	276.294	151.575	378.170	362.291	410.959	94.870	0.00023814	0.00022815	2.9477e-05	1138.2	2.5879e-06	3.5222e-06	1202.2	238.21	2.9845e-06	4.1956e-06	298.79	83.192	64.904	19.001	2.6622e-06	26.918	0.00016967	0.00014247	3.9584e-05	1118.1	1.5744e-06	1.5033e-06	1182.5	236.8	1.5284e-06	1.449e-06	295.8	82.751	64.579	19.184	1.4847e-06	27.101	226.587	138.405	150.284	64.596	200.999	216.430	64.202	71.621	250.166	212.183	71.070	77.855	78.585	84.850	209.512	84.491	-8191	255	
18214.580	1	1	0	0	0.33482	0.1413	0.040378	0.17748	0.2508	0.05658	0.2166	0.20161	0.049406	0.25323	0.25645	0.16287	0.045495	0.29027	0.20067	0.15108	-2.3896	-2.4813	-2.5333	-2.7896	-2.475	-2.6708	-2.7646	-2.2938	-2.7458	-2.5458	-2.725	-2.8937	-2.5104	-2.5771	-2.7313	-2.4167	198.300	307.009	231.495	206.531	273.241	169.143	322.581	332.708	257.215	226.949	363.151	352.153	304.855	260.345	174.275	127.990	0.00026287	0.00021442	0.00010639	1142.2	3.7951e-06	1.5243e-06	1199.7	239.04	3.8028e-06	3.8271e-06	298.2	82.127	64.015	18.92	1.566e-06	26.734	0.00016676	0.00012696	3.8245e-05	1113.4	1.4907e-06	1.4087e-06	1177.8	236.39	1.524e-06	1.4394e-06	295.2	82.306	64.206	19.095	1.4365e-06	26.998	226.994	130.158	161.782	64.259	209.739	194.343	64.783	71.625	235.547	232.278	71.197	78.536	78.677	84.587	242.568	84.312	-8191	255	
18214.676	1	1	0	0	0.095094	0.2043	0.078468	0.022309	0.15533	0.24188	0.38332	0.12928	0.31449	0.29473	0.10426	0.11804	0.32896	0.21794	0.18117	0.060516	-2.4667	-2.3646	-2.625	-2.8292	-2.6083	-2.6958	-2.9333	-2.5125	-2.8229	-2.4896	-2.6354	-2.9688	-2.6583	-2.75	-2.7646	-2.6083	107.268	64.184	303.895	118.768	103.171	58.040	305.075	332.470	69.481	154.302	131.873	301.466	70.260	357.214	188.662	127.579	0.00024481	0.00022033	4.3813e-05	1139.8	3.6118e-06	2.5938e-06	1197.7	237.8	3.4415e-06	3.7681e-06	295.65	82.139	64.378	18.945	2.8672e-06	26.678	0.00016894	0.00013585	3.667e-05	1114.1	1.5542e-06	1.5866e-06	1178.4	235.53	1.6105e-06	1.5005e-06	293.81	81.981	64.228	19.098	1.49e-06	26.923	228.878	156.512	145.725	64.325	208.653	224.456	64.611	71.698	233.009	204.599	71.036	78.206	78.419	85.149	203.422	84.322	-8191	255	
18214.771	1	1	0	0	0.072152	0.062899	0.21861	0.072133	0.22284	0.19705	0.13769	0.11519	0.20898	0.14695	0.19133	0.11247	0.066136	0.20546	0.025455	0.055862	-2.4104	-2.5729	-2.4604	-2.8292	-2.5646	-2.7479	-2.9542	-2.5333	-2.6437	-2.7271	-2.475	-2.7625	-2.6854	-2.65	-2.9542	-2.5875	295.110	83.272	291.948	68.984	138.852	327.458	378.725	324.737	330.136	292.612	314.033	363.138	366.175	378.858	78.887	328.008	0.00023183	0.00028543	6.669e-05	1141.2	3.1928e-06	2.8323e-06	1201	238.19	2.7749e-06	3.0284e-06	298.56	82.216	64.363	18.84	2.2239e-06	26.872	0.00017407	0.00013801	3.7937e-05	1115.7	1.5459e-06	1.5053e-06	1181	235.66	1.6313e-06	1.5894e-06	294.23	82.192	64.131	19.068	1.5352e-06	26.996	227.990	135.167	153.764	64.051	212.059	192.284	64.525	71.600	230.528	219.517	70.972	78.360	78.280	85.302	230.035	84.625	-8191	255	
18214.891	1	1	0	0	0.10848	0.19334	0.19058	0.18803	0.13243	0.31847	0.16366	0.21863	0.18404	0.11557	0.24768	0.32934	0.216	0.12274	0.18763	0.099942	-2.3	-2.6917	-2.5125	-2.9083	-2.5354	-2.5208	-2.9896	-2.3771	-2.6021	-2.7271	-2.55	-2.8042	-2.5187	-2.4271	-2.9437	-2.6667	262.327	213.303	178.029	247.598	143.504	391.219	391.870	141.742	345.745	236.274	300.557	282.024	70.591	354.148	358.485	180.453	0.00023044	0.00033943	2.4445e-05	1142.5	2.5647e-06	4.375e-06	1198.9	237.42	2.5616e-06	3.0873e-06	296.58	81.973	64.335	18.988	3.0626e-06	26.85	0.00017508	0.00013974	3.7257e-05	1113.7	1.5721e-06	1.4373e-06	1180.4	235.59	1.581e-06	1.4791e-06	293.58	82.169	64.195	19.118	1.5439e-06	26.974	227.770	176.805	183.747	64.228	205.160	215.868	64.484	71.987	241.827	241.475	70.998	78.206	78.510	85.240	252.918	84.170	-8191	255	
18214.986	1	1	0	0	0.055353	0.17059	0.20109	0.21371	0.052707	0.17985	0.28213	0.10517	0.13282	0.083516	0.31114	0.080635	0.052113	0.20781	0.14597	0.28394	-2.1167	-2.8604	-2.3063	-2.7812	-2.6063	-2.6625	-3.025	-2.5542	-2.7313	-2.7792	-2.5854	-2.8563	-2.6937	-2.4729	-2.9521	-2.5229	253.991	140.686	86.273	346.672	266.275	273.629	363.831	193.500	251.104	63.436	69.311	359.814	399.042	212.969	285.558	130.075	0.0002223	0.00032357	6.047e-05	1136.1	2.9413e-06	3.9574e-06	1201.2	236.36	2.4549e-06	3.4579e-06	295.33	81.978	64.103	19.086	3.5121e-06	26.838	0.00016747	0.00012851	3.6719e-05	1112.4	1.5391e-06	1.3617e-06	1178.8	234.9	1.5818e-06	1.3858e-06	293.2	82.203	64.157	19.173	1.4416e-06	26.993	232.124	132.553	135.582	64.108	223.516	194.380	64.462	71.982	242.436	189.879	70.918	78.378	78.093	85.161	204.085	84.688	-8191	255	
18215.082	1	1	0	0	0.23388	0.031229	0.13017	0.038277	0.10875	0.1221	0.28172	0.11896	0.15285	0.49114	0.37372	0.16291	0.20338	0.076842	0.26941	0.089526	-2.1229	-2.7583	-2.5812	-2.9125	-2.5187	-2.5125	-3.0354	-2.8812	-2.675	-2.8458	-2.4938	-3.0667	-2.7833	-2.4021	-2.9208	-2.6896	99.885	269.169	250.090	71.603	113.897	156.200	380.786	390.763	280.921	223.886	392.705	370.065	205.370	399.166	293.692	343.218	0.00021371	0.00035081	7.9265e-05	1135.2	4.2891e-06	1.2639e-06	1193.3	236.77	3.8524e-06	3.7463e-06	295.36	82.198	64.127	18.995	3.134e-06	26.526	0.00016031	0.00012564	3.3465e-05	1111	1.4777e-06	1.3337e-06	1173.1	234.75	1.5096e-06	1.3832e-06	292.72	82.115	64.017	19.109	1.4124e-06	26.838	222.294	145.745	149.669	64.328	215.781	217.537	64.648	71.945	240.771	199.375	71.235	78.378	78.013	84.882	229.872	84.326	-8191	255	
18215.156	1	1	0	0	0.093508	0.25675	0.064247	0.037781	0.21524	0.14059	0.41176	0.06922	0.24012	0.12476	0.036394	0.078548	0.12792	0.17482	0.3038	0.093014	-2.2271	-2.875	-2.3958	-2.8104	-2.8229	-2.3917	-3.0083	-2.6604	-2.5771	-2.8708	-2.6063	-2.8667	-2.7167	-2.6021	-2.6875	-2.7167	352.476	261.621	299.183	200.266	338.828	160.739	346.788	259.474	394.916	379.664	256.228	114.347	359.251	105.228	100.757	381.314	0.00023188	0.00017825	7.4353e-05	1130.4	2.9004e-06	3.6308e-06	1196	236.28	2.5407e-06	3.6261e-06	294.49	81.67	63.865	18.9	2.2779e-06	26.725	0.0001615	0.00012386	3.4046e-05	1103.9	1.4387e-06	1.2987e-06	1172.9	234.2	1.5171e-06	1.3627e-06	291.87	82.063	63.925	19.08	1.4033e-06	26.861	228.855	157.173	167.524	64.251	217.468	213.841	64.388	71.617	216.513	198.065	71.199	78.320	78.657	84.651	209.387	84.499	-8191	255	
18215.275	1	1	0	0	0.078821	0.075382	0.088172	0.041594	0.17923	0.1216	0.20652	0.058271	0.10346	0.02463	0.031608	0.15717	0.10783	0.29816	0.15029	0.08214	-2.2896	-2.8187	-2.5271	-2.7292	-2.9437	-2.5521	-3.175	-2.7479	-2.4062	-2.8104	-2.6417	-2.8063	-2.9833	-2.3854	-2.8375	-2.7229	158.041	244.582	184.875	333.613	123.449	133.820	412.873	355.350	299.796	403.617	296.759	94.904	194.537	88.247	380.337	265.150	0.00022785	0.00041983	0.00012943	1130.4	4.5155e-06	2.9079e-06	1188.6	235.52	2.9405e-06	3.1631e-06	296.19	82.014	63.873	18.916	3.8804e-06	26.69	0.00015888	0.0001225	3.4848e-05	1105.1	1.4289e-06	1.3604e-06	1169.5	234.02	1.5327e-06	1.3594e-06	292.99	82.01	64.04	19.058	1.4024e-06	26.892	227.839	135.882	154.075	64.132	214.917	196.800	64.357	71.617	238.348	210.342	70.883	78.458	78.736	84.969	230.419	84.329	-8191	255	
18215.371	1	1	0	0	0.22584	0.078524	0.089682	0.25991	0.30462	0.35214	0.19753	0.06981	0.15953	0.18215	0.08498	0.14086	0.21825	0.069967	0.050318	0.18819	-2.3771	-2.6792	-2.5396	-2.5812	-2.8417	-2.3979	-2.8187	-2.7167	-2.425	-2.8625	-2.7042	-2.6125	-2.8229	-2.4437	-2.8104	-2.5521	172.662	122.350	56.614	354.598	390.920	244.691	347.110	353.586	255.157	339.419	362.553	285.340	316.109	104.003	90.421	62.202	0.00024315	0.00023171	8.1193e-05	1130.4	1.6478e-06	3.4587e-06	1191.1	237.23	3.1825e-06	2.596e-06	295.35	82.012	64.456	18.973	2.8916e-06	26.693	0.00016927	0.00012732	3.6955e-05	1102.4	1.4242e-06	1.3641e-06	1170.3	234.49	1.4878e-06	1.3708e-06	292.36	82.041	64.039	19.136	1.4725e-06	26.86	228.482	136.104	153.658	64.275	226.858	212.744	64.546	71.702	228.499	223.082	71.076	78.282	78.716	85.070	197.219	84.498	-8191	255	
18215.469	1	1	0	0	0.1975	0.21259	0.10939	0.17624	0.29569	0.070187	0.2576	0.15627	0.34895	0.29951	0.074438	0.064244	0.20229	0.39709	0.21827	0.024178	-1.9979	-2.8312	-2.5292	-2.7042	-2.9958	-2.5146	-2.4896	-2.8021	-2.6646	-2.7812	-2.8063	-2.6125	-2.9792	-2.6188	-2.8229	-2.7812	393.598	378.637	314.224	74.900	97.173	380.094	371.499	345.454	262.262	73.499	357.376	171.366	292.818	271.977	208.786	376.991	0.00023635	0.00024503	0.00011827	1132.3	4.9032e-06	2.2629e-06	1190.7	235.9	1.7052e-06	3.0974e-06	295.95	81.471	64.111	19.081	1.9481e-06	26.599	0.00016259	0.00012458	3.7383e-05	1102.4	1.417e-06	1.4115e-06	1169.3	233.95	1.5171e-06	1.3417e-06	292.75	81.869	64.041	19.103	1.4885e-06	26.833	230.665	146.244	167.557	64.486	207.014	218.531	64.519	71.542	241.129	213.028	70.988	78.216	78.452	84.840	243.574	84.516	-8191	255	
18215.590	1	1	0	0	0.12357	0.14556	0.18584	0.20992	0.20162	0.018154	0.2857	0.31041	0.27051	0.24877	0.092858	0.35456	0.1022	0.054518	0.1116	0.10991	-2.1958	-2.8688	-2.7062	-2.4958	-2.8167	-2.6229	-2.9021	-2.9437	-2.6646	-2.6937	-2.7667	-2.6146	-2.9646	-2.7083	-2.6458	-2.7062	128.618	59.761	62.027	390.887	397.626	173.717	386.295	384.834	262.664	82.070	380.646	98.799	374.154	205.852	327.592	405.765	0.00022015	0.00042456	7.0311e-05	1134.7	2.7143e-06	3.3157e-06	1191.7	237.15	2.8265e-06	2.5913e-06	294.77	81.784	64.58	18.959	3.3166e-06	26.901	0.00016629	0.00012883	3.5111e-05	1106.6	1.3616e-06	1.4262e-06	1172.2	234.71	1.5469e-06	1.3376e-06	292.8	82.243	64.227	19.12	1.5224e-06	26.962	230.557	124.558	158.215	64.349	205.977	215.127	64.468	71.625	253.934	263.615	71.400	78.469	78.518	85.208	199.937	83.853	-8191	255	
18215.686	1	1	0	0	0.14595	0.27829	0.10762	0.27496	0.13117	0.23308	0.30355	0.32969	0.086529	0.0724	0.12397	0.24032	0.10165	0.068101	0.11537	0.26244	-2.1167	-2.7479	-2.7417	-2.4833	-2.8438	-2.6729	-2.6937	-2.9604	-2.35	-2.8583	-2.7375	-2.4604	-2.9771	-2.7271	-2.5604	-2.9	137.130	406.748	58.770	379.041	366.691	277.642	345.895	328.280	336.689	311.184	317.993	349.921	106.275	293.002	404.136	382.478	0.00025841	0.00030747	7.6993e-05	1129.8	2.745e-06	1.8524e-06	1197	235.55	2.8961e-06	3.0826e-06	295.51	82.723	64.465	19.081	3.925e-06	26.899	0.00017082	0.00012897	3.3262e-05	1106.6	1.3712e-06	1.335e-06	1174.5	234.5	1.4608e-06	1.3293e-06	293.26	82.622	64.291	19.204	1.4233e-06	27.027	229.387	140.685	160.126	64.448	224.623	182.914	64.580	71.764	243.922	232.381	70.970	78.260	78.692	84.855	236.161	84.303	-8191	255	
18215.756	1	1	0	0	0.18955	0.20826	0.15034	0.065175	0.14463	0.28702	0.29215	0.06526	0.32941	0.072134	0.40837	0.026236	0.34141	0.1196	0.1746	0.34383	-2	-2.7542	-2.7125	-2.7375	-2.8125	-2.675	-2.7479	-2.8625	-2.4125	-2.5438	-2.8771	-2.5646	-2.7271	-2.7812	-2.2438	-2.8979	85.167	182.157	198.206	231.580	59.388	292.929	354.011	307.820	257.259	300.131	349.813	254.505	380.909	154.513	190.061	364.803	0.00023683	0.00031282	7.8672e-05	1136.6	2.8968e-06	3.5992e-06	1197.7	237.12	2.5958e-06	2.8721e-06	297.09	82.249	64.446	19.18	3.1033e-06	26.975	0.00016407	0.00012708	3.2817e-05	1108.6	1.4029e-06	1.4148e-06	1176.2	235.46	1.4849e-06	1.3834e-06	294.23	82.345	64.381	19.277	1.448e-06	27.146	226.900	160.218	159.776	64.633	199.837	203.615	64.690	71.633	215.937	216.883	71.166	78.149	78.959	84.416	198.121	84.559	-8191	255	
18215.877	1	1	0	0	0.083763	0.15327	0.16164	0.054161	0.14161	0.18672	0.21	0.14715	0.14745	0.10179	0.15462	0.08619	0.14937	0.17435	0.23243	0.16939	-2.1688	-2.6479	-2.7167	-2.5687	-2.7417	-2.8438	-2.7042	-2.9292	-2.4688	-2.5979	-2.9458	-2.5187	-2.6312	-2.6	-2.4875	-2.8396	259.862	154.964	168.939	122.719	196.131	409.991	267.746	327.547	262.524	167.991	360.722	55.982	78.950	112.885	270.700	129.090	0.00022633	0.00034323	0.00012883	1137.8	4.7673e-06	3.5085e-06	1198.6	238.49	1.8132e-06	2.2045e-06	297.77	82.685	64.804	19.246	2.6348e-06	26.925	0.0001666	0.00012049	3.4425e-05	1111	1.4632e-06	1.3079e-06	1176.6	235.73	1.4643e-06	1.3622e-06	294.61	82.573	64.69	19.362	1.481e-06	27.182	225.817	149.377	170.928	64.241	210.938	202.279	64.559	71.654	249.593	223.994	71.187	78.346	78.578	84.862	213.656	84.670	-8191	255	
18215.971	1	1	0	0	0.061781	0.19809	0.1098	0.13289	0.20952	0.13949	0.37173	0.28982	0.30072	0.084102	0.18199	0.20233	0.10747	0.061904	0.08679	0.089859	-2.0896	-2.4854	-2.8042	-2.5521	-2.6583	-2.5146	-2.5271	-2.9167	-2.7562	-2.6125	-2.9042	-2.6396	-2.6833	-2.8833	-2.5229	-2.8208	372.784	66.534	173.927	244.432	386.015	206.911	305.568	331.010	256.885	374.602	72.086	137.557	314.790	83.237	399.333	251.133	0.00023572	0.00023068	9.6626e-05	1143.1	3.3878e-06	3.4227e-06	1200.3	238.79	2.6279e-06	2.276e-06	298.01	82.601	64.903	19.313	3.3998e-06	27.083	0.00016066	0.00012635	3.3772e-05	1114.3	1.394e-06	1.3094e-06	1176.3	236.33	1.4755e-06	1.3072e-06	295.29	82.846	64.666	19.407	1.4229e-06	27.241	229.613	141.973	138.071	64.230	214.899	204.015	64.631	71.856	243.165	222.846	71.415	78.134	78.507	84.889	220.532	84.640	-8191	255	
18216.068	1	1	0	0	0.20105	0.25857	0.28852	0.36453	0.1065	0.095397	0.38063	0.17701	0.036473	0.031645	0.1178	0.29973	0.063277	0.066646	0.064455	0.22988	-2.1729	-2.5021	-2.9167	-2.4875	-2.6063	-3.0021	-2.6063	-2.7917	-2.7062	-2.5125	-3.0375	-2.5312	-2.6208	-2.8958	-2.5458	-2.8	356.135	338.520	195.278	70.882	306.912	56.982	326.991	86.576	145.449	338.642	348.356	395.028	280.307	374.583	227.337	402.869	0.00025136	0.00029138	7.874e-05	1132.6	3.1412e-06	1.9092e-06	1205.8	238.95	3.4517e-06	3.0915e-06	298.73	83.766	65.014	19.306	3.234e-06	27.113	0.00016507	0.00011969	3.2515e-05	1108.6	1.3505e-06	1.2557e-06	1181.5	237.47	1.4052e-06	1.2895e-06	295.84	83.477	65.01	19.442	1.35e-06	27.342	228.596	128.381	140.555	64.320	204.950	229.258	64.444	71.778	241.315	217.385	71.007	78.204	78.405	84.697	222.974	84.611	-8191	255	
18216.188	1	1	0	0	0.13002	0.048601	0.059029	0.19229	0.08147	0.16901	0.3554	0.24121	0.11645	0.087996	0.17962	0.32781	0.10633	0.17611	0.20126	0.1831	-2.1875	-2.4625	-2.7229	-2.6979	-2.675	-2.9188	-2.7333	-2.8063	-2.4708	-2.5583	-2.7833	-2.6354	-2.5958	-2.9062	-2.5146	-2.925	330.197	73.161	284.634	369.640	179.110	75.307	376.568	345.854	67.590	185.724	71.723	360.853	391.198	144.450	259.434	353.223	0.00025126	0.00027805	6.3796e-05	1132.7	2.7154e-06	2.8191e-06	1200.3	239.06	3.3586e-06	1.9544e-06	300	83.059	65.031	19.197	2.8172e-06	27.218	0.00015897	0.00011593	3.234e-05	1111.4	1.3744e-06	1.243e-06	1181.8	237.48	1.3216e-06	1.2742e-06	296.41	83.257	65.091	19.457	1.2264e-06	27.367	227.003	159.725	138.370	64.132	218.376	206.749	64.515	71.872	240.575	220.290	71.137	78.303	78.376	84.716	213.881	84.089	-8191	255	
18216.283	1	1	0	0	0.13321	0.052402	0.11635	0.1612	0.042015	0.10619	0.21826	0.14281	0.053505	0.064939	0.18869	0.042607	0.084159	0.12572	0.1344	0.25285	-2.5271	-2.5583	-2.7521	-2.6521	-2.3375	-2.7604	-2.7562	-2.7646	-2.7812	-2.6625	-2.8708	-2.75	-2.5375	-2.8542	-2.6083	-2.5146	374.295	197.752	91.404	263.559	210.129	94.361	373.872	405.655	301.062	382.791	338.151	152.448	333.771	186.638	370.459	67.198	0.00024843	0.00043717	8.3384e-05	1135.2	2.9084e-06	2.5873e-06	1199.7	240.14	2.922e-06	3.1998e-06	298.36	83.39	65.349	19.331	3.9507e-06	27.017	0.00015455	0.00011975	3.1374e-05	1109	1.3158e-06	1.1914e-06	1177.1	237.63	1.3345e-06	1.2449e-06	296.33	83.41	65.073	19.533	1.3297e-06	27.29	225.646	152.052	162.975	64.037	213.477	213.810	64.658	71.702	240.988	226.210	71.195	77.841	78.771	84.668	227.555	84.604	-8191	255	
18216.381	1	1	0	0	0.1071	0.13829	0.22987	0.17819	0.097119	0.11826	0.099028	0.072034	0.13543	0.072905	0.1002	0.048818	0.12214	0.20549	0.10565	0.36713	-2.4333	-2.4771	-2.8458	-2.7354	-2.5354	-2.7958	-2.6896	-2.7667	-2.7542	-2.4813	-2.825	-2.65	-2.4417	-2.7542	-2.5583	-2.6375	383.792	97.984	146.938	78.872	156.229	132.411	109.635	378.052	98.437	141.965	232.777	145.536	74.681	395.713	58.424	76.456	0.00025919	0.00024647	7.1941e-05	1139.5	2.0818e-06	2.078e-06	1201.7	240.2	2.5728e-06	3.2455e-06	299.93	83.345	65.696	19.309	3.6939e-06	27.149	0.00015617	0.0001095	3.0935e-05	1112	1.221e-06	1.1013e-06	1177.5	237.56	1.2324e-06	1.1722e-06	295.99	83.209	65.139	19.467	1.2803e-06	27.39	231.087	141.418	168.493	64.107	208.159	208.844	64.518	71.896	215.997	201.348	71.195	78.334	78.536	84.598	214.641	84.261	-8191	255	
18216.451	1	1	0	0	0.15337	0.10794	0.1001	0.084645	0.18315	0.082766	0.14407	0.27572	0.078196	0.20576	0.089379	0.33116	0.24906	0.059327	0.074983	0.4469	-2.3458	-2.7354	-2.6167	-2.5833	-2.4146	-2.8187	-2.7188	-2.5396	-2.7729	-2.5583	-2.8167	-2.6583	-2.6458	-2.7583	-2.6729	-2.6	305.317	72.741	161.812	77.596	123.699	117.670	294.405	362.896	126.824	68.729	240.131	125.232	267.968	143.992	221.971	280.756	0.00025377	0.00029669	6.8312e-05	1132	3.5525e-06	2.8951e-06	1195.1	238.94	3.0069e-06	2.7206e-06	297.63	83.144	65.114	19.284	3.8739e-06	27.087	0.00015413	0.00010628	2.8553e-05	1105.1	1.1554e-06	1.1407e-06	1171.6	237.13	1.2041e-06	1.1914e-06	295.32	83.277	64.778	19.456	1.2875e-06	27.303	223.544	158.250	134.578	64.362	247.475	211.187	64.470	71.894	229.444	192.540	71.046	78.218	78.560	84.685	201.630	84.683	-8191	255	
#DATA ENDS
