BOXY.EXE: ISS Imagent and Oximeter Data Acquisition Program Version 0.80
Ascii Record File

#ACQ INFORMATION
2  Detector Channels 
16  External MUX Channels 
1  Auxiliary Channels 
5000  Waveform (CCF) Frequency (Hz)
1  Waveforms Skipped 
30  Waveforms Averaged 
1  Cycles Averaged 
16  Acquisitions per Waveform 
10.0806  Updata Rate (Hz) 

#FILE INFORMATION
TRUE -- External MUX Channel results are PARSED.
FALSE -- AC DC and Phase are NOT grouped.
TRUE -- Companion Program Settings File CREATED.
FALSE -- AC data not excluded
FALSE -- DC data not excluded
FALSE -- Phase data not excluded
FALSE -- Auxillary Chn. data not excluded
Tab delimiters

#CALIBRATION STATE
TRUE -- Waveform Calibration Values APPLIED.


#AUX CALIBRATION VALUES
Val Type	aux-1	

Term	1.0000e+00	
Factor	0.0000e+00	


#WF CALIBRATION VALUES
A = Detector Channel
Val Type	A-AC1	A-AC2	A-AC3	A-AC4	A-AC5	A-AC6	A-AC7	A-AC8	A-AC9	A-AC10	A-AC11	A-AC12	A-AC13	A-AC14	A-AC15	A-AC16	A-DC1	A-DC2	A-DC3	A-DC4	A-DC5	A-DC6	A-DC7	A-DC8	A-DC9	A-DC10	A-DC11	A-DC12	A-DC13	A-DC14	A-DC15	A-DC16	A-Ph1	A-Ph2	A-Ph3	A-Ph4	A-Ph5	A-Ph6	A-Ph7	A-Ph8	A-Ph9	A-Ph10	A-Ph11	A-Ph12	A-Ph13	A-Ph14	A-Ph15	A-Ph16	

Term	0.00000e+00	0.00000e+00	0.00000e+00	0.00000e+00	0.00000e+00	0.00000e+00	0.00000e+00	0.00000e+00	0.00000e+00	0.00000e+00	0.00000e+00	0.00000e+00	0.00000e+00	0.00000e+00	0.00000e+00	0.00000e+00	0.00000e+00	0.00000e+00	0.00000e+00	0.00000e+00	0.00000e+00	0.00000e+00	0.00000e+00	0.00000e+00	0.00000e+00	0.00000e+00	0.00000e+00	0.00000e+00	0.00000e+00	0.00000e+00	0.00000e+00	0.00000e+00	0.00000e+00	0.00000e+00	0.00000e+00	0.00000e+00	0.00000e+00	0.00000e+00	0.00000e+00	0.00000e+00	0.00000e+00	0.00000e+00	0.00000e+00	0.00000e+00	0.00000e+00	0.00000e+00	0.00000e+00	0.00000e+00	
Factor	1.00000e+00	1.00000e+00	1.00000e+00	1.00000e+00	1.00000e+00	1.00000e+00	1.00000e+00	1.00000e+00	1.00000e+00	1.00000e+00	1.00000e+00	1.00000e+00	1.00000e+00	1.00000e+00	1.00000e+00	1.00000e+00	1.00000e+00	1.00000e+00	1.00000e+00	1.00000e+00	1.00000e+00	1.00000e+00	1.00000e+00	1.00000e+00	1.00000e+00	1.00000e+00	1.00000e+00	1.00000e+00	1.00000e+00	1.00000e+00	1.00000e+00	1.00000e+00	X	X	X	X	X	X	X	X	X	X	X	X	X	X	X	X	

B = Detector Channel
Val Type	B-AC1	B-AC2	B-AC3	B-AC4	B-AC5	B-AC6	B-AC7	B-AC8	B-AC9	B-AC10	B-AC11	B-AC12	B-AC13	B-AC14	B-AC15	B-AC16	B-DC1	B-DC2	B-DC3	B-DC4	B-DC5	B-DC6	B-DC7	B-DC8	B-DC9	B-DC10	B-DC11	B-DC12	B-DC13	B-DC14	B-DC15	B-DC16	B-Ph1	B-Ph2	B-Ph3	B-Ph4	B-Ph5	B-Ph6	B-Ph7	B-Ph8	B-Ph9	B-Ph10	B-Ph11	B-Ph12	B-Ph13	B-Ph14	B-Ph15	B-Ph16	

Term	0.00000e+00	0.00000e+00	0.00000e+00	0.00000e+00	0.00000e+00	0.00000e+00	0.00000e+00	0.00000e+00	0.00000e+00	0.00000e+00	0.00000e+00	0.00000e+00	0.00000e+00	0.00000e+00	0.00000e+00	0.00000e+00	0.00000e+00	0.00000e+00	0.00000e+00	0.00000e+00	0.00000e+00	0.00000e+00	0.00000e+00	0.00000e+00	0.00000e+00	0.00000e+00	0.00000e+00	0.00000e+00	0.00000e+00	0.00000e+00	0.00000e+00	0.00000e+00	-8.38749e+01	-1.27561e+02	-1.29383e+02	-1.82058e+02	-6.19891e+01	-7.14628e+01	-1.55747e+02	-1.62015e+02	-5.82974e+01	-6.86231e+01	-1.71238e+02	-1.71237e+02	-1.82061e+02	-1.77401e+02	-5.37240e+01	-1.50384e+02	
Factor	1.42709e-05	1.38839e-04	3.86687e-05	4.05436e-01	1.18614e-06	1.51150e-06	1.47071e-01	4.85511e-02	1.02166e-06	1.47325e-06	7.65610e-02	2.53067e-02	2.09732e-02	7.51348e-03	1.33112e-06	1.08675e-02	6.93059e-06	9.99898e-06	2.78233e-06	2.11537e-01	1.08082e-07	1.11375e-07	7.28781e-02	2.56159e-02	1.03966e-07	1.10888e-07	3.90711e-02	1.30328e-02	1.12180e-02	3.99480e-03	1.06624e-07	5.59534e-03	X	X	X	X	X	X	X	X	X	X	X	X	X	X	X	X	



#DISTANCE SETTINGS
A = Detector Channel
A-1	A-2	A-3	A-4	A-5	A-6	A-7	A-8	A-9	A-10	A-11	A-12	A-13	A-14	A-15	A-16	

2.5000e+00	3.0000e+00	2.5000e+00	3.0000e+00	2.0000e+00	3.0000e+00	1.5000e+00	3.0000e+00	3.0000e+00	3.0000e+00	3.0000e+00	3.0000e+00	3.0000e+00	3.0000e+00	1.5000e+00	3.0000e+00	

B = Detector Channel
B-1	B-2	B-3	B-4	B-5	B-6	B-7	B-8	B-9	B-10	B-11	B-12	B-13	B-14	B-15	B-16	

1.0000e+01	1.0000e+01	1.0000e+01	1.4400e+00	1.0000e+01	1.0000e+01	1.5100e+00	1.9400e+00	1.0000e+01	1.0000e+01	1.9900e+00	2.4900e+00	2.4100e+00	2.9000e+00	1.0000e+01	2.9800e+00	




#DATA BEGINS
time	group	step	mark	flag	A-AC1	A-AC2	A-AC3	A-AC4	A-AC5	A-AC6	A-AC7	A-AC8	A-AC9	A-AC10	A-AC11	A-AC12	A-AC13	A-AC14	A-AC15	A-AC16	A-DC1	A-DC2	A-DC3	A-DC4	A-DC5	A-DC6	A-DC7	A-DC8	A-DC9	A-DC10	A-DC11	A-DC12	A-DC13	A-DC14	A-DC15	A-DC16	A-Ph1	A-Ph2	A-Ph3	A-Ph4	A-Ph5	A-Ph6	A-Ph7	A-Ph8	A-Ph9	A-Ph10	A-Ph11	A-Ph12	A-Ph13	A-Ph14	A-Ph15	A-Ph16	B-AC1	B-AC2	B-AC3	B-AC4	B-AC5	B-AC6	B-AC7	B-AC8	B-AC9	B-AC10	B-AC11	B-AC12	B-AC13	B-AC14	B-AC15	B-AC16	B-DC1	B-DC2	B-DC3	B-DC4	B-DC5	B-DC6	B-DC7	B-DC8	B-DC9	B-DC10	B-DC11	B-DC12	B-DC13	B-DC14	B-DC15	B-DC16	B-Ph1	B-Ph2	B-Ph3	B-Ph4	B-Ph5	B-Ph6	B-Ph7	B-Ph8	B-Ph9	B-Ph10	B-Ph11	B-Ph12	B-Ph13	B-Ph14	B-Ph15	B-Ph16	aux-1	digaux	

25847.959	1	1	0	256	0.14875	0.16667	0.10076	0.26222	0.20489	0.11309	0.21449	0.25727	0.11866	0.12849	0.31164	0.026971	0.1268	0.061119	0.10994	0.06547	-2.2646	-2.6521	-2.7208	-2.5938	-2.9	-2.4271	-2.7958	-3.0458	-2.5146	-2.8146	-2.7521	-2.675	-3.0292	-2.8	-2.6604	-2.9875	253.508	181.230	464.504	227.075	387.835	371.340	398.132	492.956	292.319	320.684	437.597	462.445	293.263	419.957	473.976	487.757	0.00052998	0.00063035	0.00010773	1445.8	5.0977e-06	6.3125e-06	1451.7	389.08	5.7281e-06	5.0876e-06	444.86	146.36	128.38	43.777	7.0147e-06	54.319	0.00062484	0.00065241	0.0001752	1469.9	7.0082e-06	7.0955e-06	1472.1	396.27	6.9794e-06	7.2449e-06	452.83	150.42	131.24	44.911	7.0814e-06	55.731	236.129	232.274	230.201	163.651	322.510	300.805	163.158	167.905	291.727	302.972	167.175	171.720	172.193	176.862	308.219	176.071	-8191	255	
25848.080	1	1	0	0	0.091432	0.14754	0.2221	0.29011	0.19126	0.42142	0.27141	0.2719	0.30902	0.38894	0.20939	0.28053	0.11753	0.13381	0.23833	0.19139	-2.0687	-2.8771	-2.6417	-2.6188	-2.8479	-2.7333	-2.8208	-3.1312	-2.6375	-2.9417	-2.875	-2.575	-2.7542	-2.5896	-2.6979	-2.8417	454.465	301.592	267.529	496.017	257.275	439.512	406.712	469.447	155.398	392.128	447.550	456.746	169.262	172.270	292.500	480.521	0.00053731	0.00063931	0.00017139	1453.1	6.4576e-06	8.2826e-06	1447.6	390.18	6.4678e-06	5.5751e-06	443.79	147.16	127.82	43.53	3.2939e-06	54.103	0.00063117	0.00063414	0.00017719	1470	7.033e-06	7.1329e-06	1469.8	396.85	6.9649e-06	7.0987e-06	451.89	150.3	131.18	44.835	7.0427e-06	55.641	235.759	243.767	248.980	163.344	269.759	288.551	163.282	167.995	284.700	298.312	167.209	171.744	172.186	176.844	285.073	176.062	-8191	255	
25848.176	1	1	0	0	0.1589	0.1136	0.1971	0.10452	0.17137	0.11466	0.2503	0.21216	0.23819	0.14213	0.17302	0.43939	0.24652	0.18195	0.11011	0.089052	-1.9562	-2.6417	-2.8083	-2.4833	-2.8896	-2.5625	-2.6333	-2.9875	-2.4562	-2.6354	-2.7417	-2.5604	-2.7583	-2.8208	-2.4062	-2.8937	228.419	248.204	350.129	381.219	395.335	220.294	448.060	443.778	442.565	173.064	191.184	174.488	455.764	412.879	507.009	463.218	0.00054291	0.00059593	0.00012498	1454.5	3.6033e-06	6.8051e-06	1452.8	389.92	5.4506e-06	6.2682e-06	445	146.87	127.96	43.726	5.3443e-06	54.346	0.00062925	0.00064037	0.00017838	1472.3	7.0332e-06	7.1201e-06	1471.7	397.04	6.9699e-06	7.2331e-06	452.97	150.35	131.07	44.939	6.9179e-06	55.646	239.449	246.688	218.413	163.180	303.524	294.534	163.287	167.689	293.842	288.083	167.309	171.497	172.239	176.631	289.245	176.089	-8191	255	
25848.271	1	1	0	0	0.070878	0.23858	0.26728	0.27155	0.055591	0.23005	0.32907	0.089523	0.22601	0.16953	0.10509	0.046473	0.23619	0.096167	0.1726	0.1568	-2.1417	-2.4958	-2.7458	-2.5417	-2.8229	-2.4938	-2.6542	-3.1417	-2.6813	-2.775	-2.8625	-2.6562	-2.8667	-2.9208	-2.4479	-3.0729	300.088	195.346	353.418	237.489	492.363	224.813	155.161	471.150	302.705	354.516	473.449	431.864	166.758	472.934	336.974	441.916	0.00053467	0.00065805	0.00016015	1448.2	3.9564e-06	2.6147e-06	1450.7	388.98	4.832e-06	5.1434e-06	444.41	146.72	127.96	43.791	4.8628e-06	54.031	0.00061541	0.00063889	0.00017438	1470.3	7.0431e-06	7.0491e-06	1471.5	397.06	7.074e-06	7.0698e-06	452.64	150.25	131.15	44.927	6.9283e-06	55.597	239.771	241.282	254.415	163.422	297.287	286.494	163.145	167.829	304.655	307.968	167.273	171.871	172.396	176.733	308.526	176.021	-8191	255	
25848.367	1	1	0	0	0.15115	0.031661	0.051121	0.1941	0.14689	0.30044	0.3668	0.12918	0.1924	0.061741	0.3246	0.047665	0.13099	0.14559	0.40539	0.15253	-2.1229	-2.5708	-2.9625	-2.6104	-2.5292	-2.8917	-2.8708	-2.9375	-2.6083	-2.725	-3.0896	-2.9229	-3.0292	-2.9583	-2.4354	-2.8729	382.345	459.678	224.898	490.684	432.966	341.603	476.011	397.750	496.862	179.814	428.631	219.365	440.372	456.183	372.631	412.951	0.00052422	0.00055717	9.0215e-05	1452.4	5.1996e-06	7.7051e-06	1448.5	390.02	6.5334e-06	3.9855e-06	443.56	146.96	128.02	43.652	6.505e-06	53.894	0.00061861	0.00064508	0.00017579	1469.7	7.0834e-06	7.0491e-06	1469.3	396.93	6.8676e-06	7.2486e-06	452.68	150.06	131.11	44.873	7.1012e-06	55.516	238.084	260.409	244.164	163.246	305.101	298.723	163.104	168.045	287.450	296.528	167.200	171.530	172.198	176.486	332.424	176.117	-8191	255	
25848.486	1	1	0	0	0.20297	0.14085	0.2568	0.13841	0.30408	0.097061	0.42695	0.19128	0.18451	0.19844	0.23878	0.30472	0.11946	0.24269	0.2159	0.066728	-2.2667	-2.4313	-2.7687	-2.5771	-2.6208	-2.7292	-2.4813	-3.0667	-2.7188	-2.6771	-2.9583	-2.8396	-2.6854	-2.9333	-2.5917	-2.7646	379.314	221.146	406.674	471.781	383.697	293.099	400.563	377.713	339.093	207.638	462.140	167.213	150.178	491.858	289.289	163.269	0.00054908	0.00075119	0.00013893	1455.7	4.8058e-06	5.7029e-06	1446.2	388.04	5.6749e-06	4.0405e-06	444.29	147.11	127.8	43.688	4.8242e-06	54.232	0.00062134	0.00063471	0.00018075	1472.3	7.1379e-06	7.2298e-06	1468.2	395.79	7.0398e-06	7.1638e-06	452.65	150.18	131	44.856	7.1698e-06	55.653	234.424	212.854	225.592	163.320	290.409	303.301	163.205	167.851	331.258	292.058	167.411	171.682	172.413	176.947	318.688	176.037	-8191	255	
25848.559	1	1	0	0	0.30393	0.48335	0.32124	0.13613	0.11616	0.1101	0.45875	0.15148	0.21939	0.34346	0.11377	0.15688	0.17811	0.16576	0.059656	0.1909	-2.2812	-2.3833	-2.8333	-2.6521	-2.4792	-2.7458	-2.8063	-2.8542	-2.7583	-2.3458	-2.9625	-2.7479	-2.7167	-3.0646	-2.3729	-2.7667	159.968	310.775	264.821	288.871	265.011	288.105	425.384	333.151	379.197	303.604	466.996	276.944	442.228	408.915	443.284	163.788	0.00054501	0.00085857	0.00022567	1444.3	4.3163e-06	7.3671e-06	1449.4	389.81	5.6707e-06	6.0754e-06	441.72	146.16	127.38	43.549	4.2516e-06	54.12	0.00062768	0.000643	0.0001814	1470.2	7.1046e-06	7.0004e-06	1468	396.73	6.9205e-06	7.0462e-06	451.18	150.04	130.86	44.812	7.0998e-06	55.67	238.823	235.606	247.642	163.864	303.433	296.599	163.062	167.896	288.997	296.660	167.541	171.797	172.151	176.631	296.395	176.144	-8191	255	
25848.680	1	1	0	0	0.1262	0.17845	0.079568	0.11252	0.28238	0.27214	0.35468	0.24588	0.070965	0.14088	0.17966	0.29298	0.22492	0.2761	0.19723	0.083585	-2.4729	-2.525	-2.7521	-2.6542	-2.5687	-2.7896	-2.5563	-2.8208	-2.8104	-2.2687	-2.8104	-2.6208	-2.7833	-2.9354	-2.6479	-2.8146	213.965	234.506	388.511	235.087	332.202	314.996	422.978	168.819	370.915	309.992	425.509	499.153	504.239	444.044	454.066	158.400	0.00054521	0.00057033	0.00010434	1440.2	3.8129e-06	5.8974e-06	1447.3	388.4	6.2129e-06	4.9914e-06	443.09	146.68	128.32	43.567	7.3717e-06	54.099	0.00063399	0.00064627	0.00018076	1468.1	6.9821e-06	7.1955e-06	1468.1	396.24	6.9716e-06	7.1576e-06	451.63	149.97	130.91	44.766	7.3162e-06	55.595	236.877	225.284	259.890	163.399	307.233	293.229	163.113	167.747	293.003	285.773	167.436	171.532	172.100	176.864	323.913	176.246	-8191	255	
25848.775	1	1	0	0	0.016646	0.13279	0.17011	0.10125	0.097709	0.27182	0.19565	0.24615	0.15927	0.12953	0.069357	0.23967	0.26367	0.046418	0.12233	0.10692	-2.4688	-2.4896	-2.55	-2.7521	-2.5917	-2.9896	-3.0021	-2.8063	-2.8	-2.6604	-3.0896	-2.7125	-2.5438	-3.0187	-2.6125	-2.8104	423.277	212.118	180.359	502.116	421.289	302.476	487.713	479.623	294.466	438.069	481.869	500.479	494.367	482.705	330.337	464.676	0.00051723	0.00048522	0.00011974	1452	3.6733e-06	4.2553e-06	1444.5	387.84	5.2111e-06	4.1687e-06	445.76	146.28	127.23	43.78	4.379e-06	53.872	0.00062634	0.00064577	0.00018405	1470	7.0841e-06	7.3595e-06	1466.5	395.75	7.1405e-06	7.335e-06	452.82	149.97	130.56	44.882	6.9768e-06	55.473	237.633	222.272	229.087	163.556	299.387	318.820	163.273	167.949	275.728	312.950	167.714	171.646	172.042	176.845	336.988	175.980	-8191	255	
25848.871	1	1	0	0	0.2212	0.17615	0.19494	0.10249	0.21826	0.033154	0.065242	0.16488	0.21202	0.06689	0.062361	0.41758	0.21399	0.20746	0.14862	0.12108	-2.2687	-2.5104	-2.575	-2.7292	-2.4917	-2.9667	-2.9437	-2.7583	-2.8583	-2.5625	-2.8229	-2.9354	-2.5229	-2.9667	-2.5396	-2.7896	376.849	254.314	457.171	205.982	291.914	265.797	465.445	477.205	217.047	424.763	412.709	472.879	230.471	461.439	170.320	259.764	0.00051644	0.0005041	0.00017527	1447.1	3.9779e-06	5.646e-06	1446.2	389.41	5.5977e-06	5.5013e-06	445	146.42	127.97	43.597	6.3264e-06	54.153	0.00062836	0.00065456	0.00018106	1466.8	7.1539e-06	7.1853e-06	1467.4	395.74	7.1284e-06	7.1218e-06	452.02	149.87	130.99	44.773	7.0219e-06	55.553	236.599	251.485	259.688	163.247	338.349	306.515	163.206	167.867	293.884	283.865	167.541	171.384	172.306	176.752	316.988	176.119	-8191	255	
25848.969	1	1	0	0	0.20443	0.1251	0.040713	0.046699	0.017795	0.22388	0.31945	0.16075	0.17817	0.20313	0.2952	0.14489	0.21365	0.27043	0.25047	0.03514	-2.3208	-2.55	-2.6375	-2.8896	-2.4771	-2.7854	-3.0312	-2.9875	-2.9813	-2.7313	-2.8479	-2.8854	-2.5146	-2.9979	-2.5563	-2.6646	413.580	485.329	209.487	220.551	447.181	197.683	497.615	187.443	503.369	236.896	433.921	439.411	492.445	180.775	391.229	460.643	0.00054853	0.00061978	0.00012072	1439.1	4.9111e-06	4.1458e-06	1443.2	387.91	3.9224e-06	3.9755e-06	441.52	146.67	127.61	43.725	4.2004e-06	53.961	0.00062076	0.00065793	0.00017883	1466.5	7.1784e-06	7.2723e-06	1465.5	395.13	7.1176e-06	7.1472e-06	450.93	149.84	130.72	44.809	6.9323e-06	55.487	235.995	238.623	258.117	163.228	303.859	268.275	163.110	167.908	319.214	304.916	167.492	171.734	172.096	176.909	278.228	175.997	-8191	255	
25849.090	1	1	0	0	0.20126	0.27195	0.13912	0.20001	0.17267	0.17365	0.14216	0.25935	0.081566	0.026185	0.22153	0.11593	0.080427	0.2932	0.16454	0.064957	-2.2417	-2.65	-2.5896	-2.8771	-2.3667	-2.7854	-2.8917	-2.6854	-2.7458	-2.5833	-2.6479	-3.0687	-2.6667	-2.8	-2.6937	-2.6333	504.592	244.354	285.335	462.524	167.171	173.344	203.630	476.022	227.724	166.525	491.204	425.926	453.750	165.840	412.197	298.560	0.00052513	0.00061516	0.00013973	1447	4.5192e-06	8.0809e-06	1447.4	388.84	4.236e-06	5.2219e-06	441.95	146.17	127.86	43.623	2.1603e-06	53.829	0.0006197	0.00065766	0.00018319	1468.4	7.0253e-06	7.2459e-06	1464	395.47	7.2029e-06	7.1735e-06	450.89	149.78	130.71	44.773	7.1323e-06	55.435	232.709	231.660	221.193	163.557	289.269	323.224	163.269	168.040	312.478	285.762	167.334	171.818	172.221	176.892	277.661	176.134	-8191	255	
25849.160	1	1	0	0	0.20294	0.068945	0.12786	0.3669	0.10029	0.1874	0.12561	0.40362	0.10859	0.26717	0.21243	0.20226	0.10167	0.40996	0.11279	0.42954	-2.4583	-2.6354	-2.3958	-2.9375	-2.5896	-2.7896	-2.9688	-2.7562	-2.8146	-2.5125	-2.6271	-2.8	-2.7729	-2.8875	-2.8021	-2.6396	289.478	160.180	445.252	190.085	491.056	258.627	165.324	442.548	256.900	190.692	499.350	480.835	259.985	478.611	452.227	488.397	0.00050823	0.00042239	0.00010743	1440.7	4.3767e-06	6.425e-06	1437.7	388.85	5.4565e-06	6.9098e-06	441.84	146.23	127.09	43.508	6.8173e-06	53.92	0.00062393	0.00065268	0.00018286	1463.9	7.1231e-06	7.418e-06	1463	395.24	7.1771e-06	7.1673e-06	451	149.8	130.23	44.658	7.1276e-06	55.454	237.230	249.867	229.530	163.333	286.799	293.496	163.345	167.912	298.975	275.022	167.322	171.742	172.390	176.931	304.168	176.190	-8191	255	
25849.256	1	1	0	0	0.27146	0.25419	0.071505	0.18055	0.079401	0.015855	0.31897	0.21784	0.17646	0.098775	0.16934	0.16929	0.463	0.02204	0.11099	0.034597	-2.3125	-2.45	-2.5771	-2.6854	-2.5771	-2.5854	-2.9771	-2.6229	-2.7771	-2.6292	-2.6479	-2.9542	-2.6333	-2.7479	-3.0104	-2.5292	211.731	163.642	432.267	172.954	200.509	352.132	455.867	431.346	319.961	441.257	485.884	482.557	169.641	363.069	504.536	410.218	0.00054945	0.00047362	0.00017144	1432.7	6.3779e-06	5.5213e-06	1441.1	386.4	4.8573e-06	3.4698e-06	440.47	145.6	127.24	43.519	6.9401e-06	53.701	0.00064001	0.00066031	0.00018362	1459.8	7.2895e-06	7.2482e-06	1463.4	394.06	7.4277e-06	7.3637e-06	449.81	149.32	130.12	44.62	7.5099e-06	55.246	238.951	224.606	236.097	163.460	296.447	328.826	163.092	167.742	283.277	295.016	167.338	171.746	172.160	177.080	306.980	176.204	-8191	255	
25849.354	1	1	0	0	0.17522	0.11853	0.15694	0.15763	0.41651	0.19747	0.042563	0.23432	0.16187	0.13612	0.26098	0.22227	0.068396	0.2277	0.30115	0.076279	-2.2333	-2.7687	-2.3979	-2.7958	-2.5917	-2.6312	-3.0708	-2.6437	-2.7771	-2.7333	-2.8396	-3.0708	-2.6562	-2.6854	-2.75	-2.8667	164.224	341.408	291.582	498.849	435.395	329.233	272.275	475.804	482.090	393.769	159.317	453.171	176.421	158.382	469.378	473.612	0.00055967	0.00061743	0.00012824	1436	4.6251e-06	5.4322e-06	1442.6	386.94	5.0455e-06	5.5473e-06	442.63	146	126.58	43.321	4.5025e-06	53.848	0.00064527	0.00067118	0.00018756	1460.5	7.334e-06	7.4737e-06	1462.7	394.03	7.3433e-06	7.5131e-06	450.35	149.42	130.12	44.537	7.5006e-06	55.349	237.581	274.181	274.234	163.647	291.745	314.850	163.115	167.970	294.162	313.831	167.365	171.730	172.196	177.118	291.627	176.105	-8191	255	
25849.449	1	1	0	0	0.060188	0.065554	0.10544	0.19021	0.32626	0.12213	0.22423	0.15479	0.1368	0.16554	0.18906	0.18179	0.15501	0.25079	0.37788	0.36893	-2.2	-2.8375	-2.4729	-2.8792	-2.6437	-2.6417	-2.9521	-2.6917	-2.6083	-2.6354	-2.5104	-2.85	-2.7458	-2.4271	-3.0604	-2.7062	224.775	430.117	188.859	152.343	491.039	325.519	408.550	471.127	441.606	189.803	446.321	150.581	423.967	423.890	259.222	485.810	0.00051274	0.00067831	0.00016285	1433	3.9244e-06	5.0473e-06	1438	386.59	5.4286e-06	7.0302e-06	441.2	145.13	126.42	43.364	7.122e-06	53.61	0.00065817	0.00068424	0.00018777	1459.4	7.4421e-06	7.6097e-06	1462.1	394.04	7.4319e-06	7.4149e-06	449.19	148.99	129.92	44.517	7.4639e-06	55.249	233.316	259.111	255.817	163.464	307.011	323.730	163.164	167.942	299.625	302.078	167.341	171.899	172.167	176.749	309.765	176.262	-8191	255	
25849.568	1	1	0	0	0.1962	0.12185	0.15832	0.063467	0.18437	0.14975	0.34409	0.071975	0.25455	0.13846	0.14166	0.12352	0.1832	0.11164	0.17158	0.19422	-2.0979	-2.7458	-2.6813	-2.8937	-2.6833	-2.5187	-3.0708	-2.6896	-2.8396	-2.7792	-2.5854	-2.8583	-2.7042	-2.6479	-2.8854	-2.6833	416.673	291.359	367.534	482.828	446.660	220.368	434.070	387.315	331.671	369.849	471.831	448.469	489.654	488.777	198.361	470.719	0.00052262	0.00062645	0.00017662	1434.8	5.5674e-06	3.4298e-06	1437.3	387.69	4.5744e-06	5.4083e-06	439.22	145.33	126.83	43.331	3.7523e-06	53.526	0.00065116	0.0006951	0.00019164	1457.5	7.3849e-06	7.5753e-06	1458.8	393.58	7.3288e-06	7.4644e-06	448.8	148.92	129.68	44.413	7.6616e-06	55.174	241.997	240.121	231.874	163.431	314.197	305.005	163.388	167.946	304.641	279.169	167.648	171.517	172.091	176.879	324.232	176.102	-8191	255	
25849.664	1	1	0	0	0.16545	0.059585	0.11376	0.063992	0.10874	0.068233	0.25763	0.12508	0.14039	0.076702	0.1634	0.2518	0.02631	0.1187	0.30294	0.11966	-2.1396	-2.7667	-2.4854	-2.775	-2.6625	-2.5042	-2.9604	-2.8271	-2.5833	-2.8146	-2.6917	-2.7167	-3.0125	-2.675	-2.7417	-2.7521	490.702	343.687	222.134	389.499	437.025	502.228	469.401	452.539	399.294	216.259	471.178	419.751	290.398	508.744	284.150	483.062	0.00052428	0.00054055	0.00013317	1437.2	5.0659e-06	4.4115e-06	1439.2	387	4.3008e-06	7.3428e-06	440.22	144.94	126.3	43.089	8.0969e-06	53.769	0.00065737	0.00069497	0.00019038	1456.3	7.6069e-06	7.6178e-06	1461.1	393.61	7.4945e-06	7.6845e-06	448.97	148.79	129.55	44.346	7.5301e-06	55.255	239.897	268.449	226.377	163.115	287.080	301.379	163.180	167.844	309.421	301.912	167.611	171.870	172.206	176.916	316.612	175.914	-8191	255	
25849.760	1	1	0	0	0.17552	0.19767	0.093088	0.15347	0.20848	0.32387	0.34984	0.1762	0.10365	0.064006	0.23742	0.22371	0.23759	0.30626	0.2715	0.035914	-2.0375	-2.8625	-2.5229	-2.6271	-2.8229	-2.4646	-2.9542	-2.8458	-2.5667	-2.7542	-2.7104	-2.7833	-2.9188	-2.6917	-2.8167	-2.6646	217.760	257.623	248.922	339.585	292.060	485.324	504.266	507.856	221.218	384.805	152.276	480.424	459.338	493.257	171.881	441.984	0.00054018	0.00046059	0.00013108	1436.8	4.7315e-06	7.3302e-06	1440.9	386.44	4.1424e-06	2.7654e-06	439.8	145.11	126.6	43.183	4.633e-06	53.729	0.00067082	0.00069303	0.00019104	1458.4	7.6416e-06	7.6204e-06	1462.4	393.61	7.455e-06	7.5686e-06	448.67	148.73	129.73	44.335	7.6063e-06	55.253	237.868	231.620	209.959	163.268	295.516	310.437	163.140	168.038	300.105	294.898	167.484	171.601	172.297	176.869	300.137	176.279	-8191	255	
25849.855	1	1	0	0	0.12838	0.072897	0.1322	0.2147	0.075594	0.11865	0.30366	0.32366	0.079336	0.14189	0.33078	0.16137	0.44741	0.15197	0.094446	0.21603	-1.8646	-2.8667	-2.5312	-2.825	-2.7771	-2.5687	-3.05	-2.8354	-2.5208	-2.975	-2.9979	-2.8625	-2.8208	-2.4667	-2.7583	-2.7396	207.727	254.125	203.211	468.323	435.374	370.203	453.437	414.339	429.502	462.917	168.718	156.611	503.811	190.370	492.155	480.806	0.00052759	0.00053987	0.00016699	1433.7	5.1149e-06	5.4859e-06	1442.1	385.78	4.738e-06	8.2415e-06	439.94	145.31	126.44	42.926	5.2277e-06	53.496	0.00065778	0.00070095	0.00019067	1457.1	7.4723e-06	7.5698e-06	1461.5	392.92	7.4167e-06	7.5993e-06	448.36	148.81	129.52	44.329	7.4914e-06	55.105	237.927	246.689	237.145	163.409	292.708	309.513	163.097	168.069	315.190	316.174	167.259	171.579	172.178	176.772	317.327	176.132	-8191	255	
25849.951	1	1	0	0	0.18715	0.11773	0.21146	0.16706	0.19511	0.1708	0.30975	0.31632	0.23858	0.13809	0.24174	0.27514	0.16665	0.38428	0.20176	0.17554	-2.025	-2.7604	-2.6208	-2.6688	-2.8646	-2.775	-2.9646	-3.0604	-2.5062	-2.8937	-2.9229	-2.6667	-2.8583	-2.6333	-2.6646	-2.8896	210.734	245.354	199.037	445.216	449.587	447.498	475.793	471.974	325.606	480.522	473.468	433.312	496.991	489.879	349.447	417.505	0.00055517	0.00056817	0.00024097	1436.9	5.1658e-06	7.223e-06	1438.2	386.6	5.6576e-06	4.1002e-06	438.51	144.52	126.17	43.361	5.5159e-06	53.653	0.00066241	0.00070155	0.00018947	1457.8	7.4529e-06	7.6016e-06	1460.2	393.35	7.4581e-06	7.6965e-06	447.39	148.48	129.32	44.315	7.5839e-06	55.207	238.345	245.265	248.374	163.384	292.619	327.511	163.090	168.049	295.467	293.890	167.529	171.950	172.307	176.830	305.818	175.929	-8191	255	
25850.049	1	1	0	0	0.23199	0.23326	0.019818	0.14595	0.19526	0.18111	0.52519	0.38627	0.24322	0.082098	0.075351	0.15015	0.19778	0.082897	0.15768	0.092657	-1.9813	-2.8042	-2.625	-2.6667	-2.9083	-2.4375	-2.9167	-3.0396	-2.5125	-2.6875	-2.8312	-2.6146	-2.9667	-2.4771	-2.65	-2.85	333.845	485.344	326.354	419.293	229.800	238.496	444.830	459.049	378.792	487.603	316.782	210.618	415.576	429.052	321.130	251.464	0.00055063	0.00050965	9.7864e-05	1425.2	2.8901e-06	5.7188e-06	1431.2	385	3.7701e-06	5.4137e-06	438.79	144.6	126.57	43	5.4373e-06	53.668	0.00065735	0.0006851	0.00019128	1453	7.4914e-06	7.6565e-06	1455.3	392.01	7.3487e-06	7.3643e-06	447.59	148.15	129.48	44.254	7.2589e-06	55.117	237.257	248.694	233.317	163.277	305.014	278.212	163.143	168.086	281.566	303.090	167.391	171.550	172.151	176.885	319.951	176.271	-8191	255	
25850.170	1	1	0	0	0.10625	0.16115	0.16585	0.28349	0.090511	0.22632	0.19223	0.30895	0.071847	0.29794	0.085277	0.25201	0.26136	0.22295	0.15681	0.047841	-2.0354	-2.8292	-2.6583	-2.4396	-2.575	-2.6063	-2.7938	-2.9875	-2.5021	-2.6458	-2.9292	-2.5	-3.0375	-2.725	-2.5458	-2.8063	311.335	166.179	398.461	504.038	375.388	498.055	402.686	485.900	509.823	359.684	469.212	507.836	439.008	466.256	474.784	423.318	0.00050702	0.00044925	0.00019264	1427.5	5.5259e-06	6.5772e-06	1433.1	384.47	5.3499e-06	6.8611e-06	437.68	144.43	125.75	42.862	3.5431e-06	53.617	0.00064502	0.00068978	0.00018638	1449	7.3442e-06	7.386e-06	1456.4	391.83	7.274e-06	7.5041e-06	446.42	148.09	128.97	44.188	7.0425e-06	55.119	236.500	260.487	234.334	163.411	285.037	312.551	163.013	168.136	292.814	317.694	167.366	171.813	172.308	176.782	327.829	176.119	-8191	255	
25850.266	1	1	0	0	0.20535	0.097906	0.091093	0.31298	0.21932	0.19617	0.21468	0.17113	0.10629	0.056744	0.16359	0.27231	0.20408	0.19718	0.26901	0.13312	-2.0083	-2.7292	-2.6979	-2.5375	-2.7854	-2.6792	-2.8812	-2.9729	-2.4833	-2.7292	-2.8187	-2.2979	-2.9	-2.7417	-2.4417	-2.8667	443.920	322.835	362.121	460.790	174.187	259.266	431.811	404.381	423.031	306.094	461.449	463.305	464.291	197.954	195.662	418.859	0.00053953	0.00046834	0.0001813	1424.5	6.252e-06	6.4457e-06	1431.6	385.52	7.2634e-06	1.4342e-06	438.29	144.53	125.92	43.117	6.3463e-06	53.442	0.0006416	0.00067862	0.0001826	1449.1	7.2658e-06	7.3693e-06	1454.1	391.48	7.2774e-06	7.3879e-06	447.36	148.31	129.06	44.209	7.1776e-06	55.031	237.446	220.652	206.837	163.398	336.423	298.374	163.191	167.867	294.040	322.126	167.753	171.523	172.467	176.895	302.061	176.028	-8191	255	
25850.361	1	1	0	0	0.1981	0.14624	0.24748	0.18695	0.17399	0.14412	0.098264	0.16268	0.080913	0.29656	0.19093	0.13012	0.24396	0.17653	0.051752	0.18248	-2.1167	-2.5292	-2.7042	-2.3792	-2.7292	-2.5438	-2.7229	-2.9125	-2.6625	-2.5792	-3.1188	-2.4729	-2.9333	-2.8521	-2.5833	-3.0833	396.075	271.505	367.042	506.205	490.399	448.867	357.893	468.440	243.243	273.568	178.328	421.155	456.638	152.680	176.446	505.433	0.00052011	0.00062127	0.00015721	1424.8	5.9797e-06	4.1607e-06	1427.8	384.48	4.7739e-06	6.3863e-06	438.98	144.49	126.03	43.068	4.7016e-06	53.495	0.00062999	0.00066747	0.0001846	1446.2	7.262e-06	7.392e-06	1452.4	391	7.4087e-06	7.3576e-06	447.16	148.13	129.11	44.217	7.272e-06	55.073	232.847	230.096	239.074	163.514	309.637	307.632	163.282	168.264	322.094	304.260	167.454	171.603	172.132	176.859	309.589	176.418	-8191	255	
25850.455	1	1	0	0	0.19152	0.13044	0.1888	0.25516	0.11006	0.10695	0.30551	0.099119	0.28222	0.18933	0.13804	0.094841	0.32299	0.20398	0.16158	0.092822	-2.2333	-2.5104	-2.7583	-2.5354	-2.7375	-2.6833	-2.4729	-2.9854	-2.7333	-2.6979	-2.9417	-2.6917	-2.6958	-2.8792	-2.6188	-2.8021	434.864	269.429	282.817	366.567	445.854	293.622	476.202	483.352	331.196	306.023	452.995	493.052	162.061	460.047	311.119	271.014	0.0005411	0.00060351	0.00017764	1428.9	5.1816e-06	4.1755e-06	1431.6	384.98	5.0364e-06	6.0866e-06	438.38	144.54	126.12	43.024	5.4718e-06	53.584	0.00063899	0.00067454	0.00018538	1448.1	7.4331e-06	7.3424e-06	1455.3	391.74	7.1602e-06	7.3985e-06	446.34	148.12	129.07	44.251	7.3095e-06	55.085	235.787	229.600	253.393	163.448	303.544	318.613	163.225	168.045	306.047	289.407	167.526	171.521	172.237	176.915	302.057	176.271	-8191	255	
25850.553	1	1	0	0	0.24204	0.075597	0.0069711	0.071156	0.11629	0.058375	0.095674	0.19033	0.13128	0.19064	0.072656	0.2921	0.053155	0.28009	0.20316	0.095813	-2.3021	-2.4813	-2.7646	-2.7979	-2.5396	-2.8125	-2.6958	-2.975	-2.7083	-2.475	-2.875	-2.7583	-2.7062	-3.0271	-2.4708	-2.85	355.756	335.604	229.579	482.319	180.298	300.685	454.760	485.852	456.669	265.361	455.975	401.689	507.444	504.586	489.838	476.504	0.00052689	0.00036427	0.00013948	1426.4	5.5412e-06	5.135e-06	1436.4	383.44	4.7744e-06	6.8541e-06	437.9	143.85	125.97	42.986	5.9686e-06	53.56	0.00064261	0.00065881	0.00018766	1443.8	7.2629e-06	7.5159e-06	1454.5	390.82	7.2486e-06	7.374e-06	446.86	147.86	129.01	44.193	7.2222e-06	55.108	240.445	240.634	249.467	163.449	310.687	297.329	163.440	168.079	321.814	293.938	167.495	171.819	172.354	176.766	303.613	176.314	-8191	255	
25850.648	1	1	0	0	0.2165	0.15623	0.18856	0.18822	0.09948	0.1027	0.43941	0.16977	0.27504	0.31709	0.18923	0.21139	0.20572	0.10148	0.13722	0.25186	-2.3896	-2.4062	-2.6437	-2.6063	-2.5833	-2.8625	-2.7438	-2.9583	-2.7854	-2.475	-2.9188	-2.6562	-2.6354	-2.7479	-2.5021	-2.7083	347.816	338.425	328.942	348.310	505.277	464.582	470.491	415.937	306.787	213.123	156.115	507.325	181.075	261.455	469.265	488.515	0.00053046	0.00053809	0.00017678	1426.9	4.7405e-06	6.1575e-06	1435.9	384.7	6.0624e-06	4.5793e-06	437.63	144.51	126.34	42.979	6.0481e-06	53.621	0.00064293	0.00065416	0.00018559	1447.7	7.2802e-06	7.2345e-06	1456.2	392.06	7.2783e-06	7.4306e-06	447.56	147.99	129.33	44.2	7.2258e-06	55.212	235.153	243.044	245.083	163.589	297.140	287.054	163.240	167.993	276.917	314.195	167.510	171.819	172.118	177.021	310.212	175.947	-8191	255	
25850.744	1	1	0	0	0.23925	0.054985	0.057617	0.20728	0.2447	0.17543	0.5491	0.32793	0.10184	0.33215	0.23201	0.24073	0.1412	0.27939	0.32299	0.14459	-2.2188	-2.4125	-2.7771	-2.7854	-2.3729	-2.75	-2.6958	-2.7646	-2.5854	-2.5938	-2.7979	-2.7583	-2.6021	-2.8417	-2.4979	-2.7396	506.974	291.534	446.184	158.673	284.484	258.459	453.293	405.751	236.946	501.693	478.123	450.278	428.434	346.845	260.363	451.466	0.00051967	0.00071973	0.00014491	1428.9	5.0964e-06	5.3616e-06	1439.9	386.09	7.3968e-06	8.6049e-06	439.82	144.95	126.12	43.305	3.4653e-06	53.693	0.00065516	0.00068251	0.00018824	1455.1	7.5236e-06	7.4821e-06	1461.4	393.31	7.397e-06	7.4632e-06	448.4	148.58	129.55	44.398	7.2493e-06	55.248	234.399	234.804	234.058	163.286	289.332	313.516	163.204	168.174	316.987	291.684	167.466	171.425	172.105	176.822	297.610	176.148	-8191	255	
25850.865	1	1	0	0	0.36144	0.16785	0.24638	0.24669	0.085485	0.13728	0.40303	0.34062	0.12803	0.14642	0.24483	0.18981	0.22773	0.079812	0.079578	0.17199	-2.4792	-2.4021	-2.65	-2.6375	-2.3438	-2.8708	-2.6688	-2.8375	-2.8333	-2.4646	-3.0458	-2.9792	-2.7188	-2.8854	-2.5854	-2.5042	181.549	187.809	152.428	427.679	388.323	485.880	481.891	481.956	227.648	314.516	431.649	194.701	462.943	181.295	272.653	365.542	0.00055199	0.0004533	0.0002021	1432.8	5.3405e-06	5.7875e-06	1440.8	385.94	4.3663e-06	5.2344e-06	440.36	145.81	126.67	43.399	5.4872e-06	53.749	0.0006577	0.00065179	0.00018533	1454.7	7.212e-06	7.3563e-06	1461.7	393.25	7.0812e-06	7.2089e-06	448.79	148.98	129.8	44.423	7.1778e-06	55.284	237.731	233.129	255.839	163.271	322.458	290.527	163.182	167.822	304.192	292.078	167.615	171.712	172.340	176.892	299.945	176.225	-8191	255	
25850.961	1	1	0	0	0.21782	0.17124	0.12733	0.24957	0.11572	0.11738	0.27324	0.10197	0.11183	0.2259	0.27038	0.18351	0.070577	0.12596	0.056403	0.029807	-2.4958	-2.7313	-2.6688	-2.9396	-2.4917	-2.7625	-2.8458	-2.6875	-2.8167	-2.4313	-2.8063	-2.8708	-2.5521	-2.8812	-2.5833	-2.6188	426.076	327.388	244.458	496.345	496.637	229.689	455.652	197.154	349.295	436.189	398.020	501.902	249.071	480.486	223.144	344.730	0.00054903	0.00036725	0.00014774	1437.5	5.0323e-06	6.9376e-06	1442	385.37	6.365e-06	4.6575e-06	439.25	145.5	127.29	43.356	4.9702e-06	53.373	0.00064691	0.00065031	0.00018614	1458.2	7.2167e-06	7.3196e-06	1464.7	393.74	7.0396e-06	7.1881e-06	448.81	148.95	130.01	44.496	6.9774e-06	55.282	235.160	256.818	241.030	163.274	291.396	304.205	163.335	168.034	292.779	290.846	167.391	171.714	172.301	176.830	300.597	176.009	-8191	255	
25851.033	1	1	0	0	0.24336	0.11127	0.33092	0.11523	0.14544	0.085679	0.31156	0.3218	0.082939	0.2221	0.051262	0.25135	0.17097	0.2105	0.08178	0.20002	-2.3	-2.4625	-2.6167	-2.7708	-2.5833	-2.725	-2.925	-2.5417	-2.7271	-2.6521	-2.8604	-3.0687	-2.6854	-2.8563	-2.8625	-2.6146	369.878	290.043	239.027	414.976	368.189	479.742	423.626	461.371	408.608	364.091	307.750	464.963	452.551	384.433	474.209	408.902	0.00053633	0.00079365	0.00011865	1434.3	3.3428e-06	8.0531e-06	1442.3	385.42	3.6864e-06	5.6683e-06	440.88	145.3	127.17	43.66	3.7502e-06	53.749	0.00062063	0.00065187	0.00018044	1458.8	6.9704e-06	7.0577e-06	1464.5	394.29	6.8988e-06	6.9862e-06	449.42	149.43	130.31	44.734	6.7246e-06	55.297	237.919	231.249	233.096	163.647	287.569	293.245	163.478	168.058	294.110	286.742	167.240	171.580	172.254	176.715	298.203	175.909	-8191	255	
25851.129	1	1	0	0	0.21376	0.37968	0.25054	0.19417	0.10299	0.13261	0.25033	0.19081	0.13592	0.12601	0.25166	0.21946	0.56381	0.17527	0.43171	0.13337	-2.3146	-2.6917	-2.5792	-2.9083	-2.4708	-2.8	-3.0583	-2.7562	-2.7542	-2.7104	-2.8937	-2.9375	-2.6688	-2.9313	-2.8167	-2.6292	363.769	472.436	415.662	167.107	412.097	192.785	438.747	436.005	370.424	340.851	468.541	489.239	492.436	487.187	397.214	159.592	0.0005456	0.00058559	0.00022983	1434.7	4.7047e-06	5.2914e-06	1445.6	388.21	5.4898e-06	3.7597e-06	443.63	146.57	127.99	43.71	6.4608e-06	53.915	0.00062338	0.00062123	0.00017167	1459.7	6.8164e-06	6.8769e-06	1465.2	394.58	6.7847e-06	6.8418e-06	450.86	149.91	130.82	44.914	6.7286e-06	55.414	235.753	254.935	245.406	163.165	277.065	299.628	163.260	167.982	309.102	295.299	167.379	171.669	172.165	177.078	304.258	176.308	-8191	255	
25851.248	1	1	0	0	0.089624	0.13744	0.1117	0.25821	0.090682	0.18133	0.091274	0.1098	0.19707	0.2	0.301	0.2739	0.20688	0.099951	0.13378	0.1298	-2.4146	-2.5521	-2.4333	-2.9375	-2.3646	-2.7875	-3.0125	-2.625	-2.6667	-2.5417	-2.5958	-2.9062	-2.8	-2.5604	-2.9333	-2.4646	489.822	275.591	504.504	157.517	501.677	331.180	462.848	163.323	196.327	445.155	463.013	447.964	482.819	481.141	255.792	163.873	0.00054866	0.0005674	0.00013232	1441.1	4.332e-06	5.2783e-06	1440.1	388.17	4.4909e-06	6.4127e-06	443.82	146.01	127.58	43.691	6.3577e-06	54.007	0.00061067	0.00061077	0.00017085	1460.4	6.7562e-06	6.6932e-06	1463.6	395.39	6.6207e-06	6.7157e-06	451.34	149.73	130.79	45.018	6.6729e-06	55.626	236.856	251.366	253.633	163.210	314.395	297.574	163.123	168.030	264.815	289.132	167.702	171.536	172.100	177.023	305.549	175.991	-8191	255	
25851.346	1	1	0	0	0.034855	0.035099	0.14808	0.10622	0.16512	0.25317	0.21228	0.25746	0.12705	0.14139	0.087161	0.14419	0.42332	0.29205	0.084753	0.28883	-2.2042	-2.6458	-2.3688	-2.7979	-2.6479	-2.6458	-2.9708	-2.75	-2.7021	-2.7271	-2.6625	-2.9062	-2.8667	-2.6479	-3.025	-2.7896	347.072	176.749	421.871	274.883	488.400	497.556	381.817	413.194	238.685	390.624	462.573	385.312	440.989	443.743	339.984	499.874	0.00050523	0.00046883	0.00011503	1444.7	6.2534e-06	7.3229e-06	1437.4	389.26	4.0036e-06	3.1819e-06	443.17	146.94	128.21	43.785	5.6276e-06	54.15	0.00059856	0.00061544	0.00016744	1461.6	6.7427e-06	6.6637e-06	1462.3	396.01	6.625e-06	6.6711e-06	451.61	150.29	131.06	45.01	6.5711e-06	55.492	236.840	246.712	258.814	163.427	301.363	307.780	163.151	167.962	295.218	313.248	167.365	171.644	172.091	176.764	276.075	176.188	-8191	255	
25851.441	1	1	0	0	0.086305	0.24615	0.28893	0.22291	0.085002	0.10706	0.43545	0.038218	0.15304	0.15182	0.28707	0.13091	0.093281	0.2532	0.063362	0.072707	-2.4167	-2.7875	-2.3812	-2.8521	-2.6437	-2.6937	-3.175	-2.8229	-2.7104	-2.8229	-2.7438	-2.8125	-2.75	-2.575	-2.8417	-2.8458	326.427	394.907	460.728	320.476	150.525	233.104	439.612	169.745	156.003	402.510	459.385	456.223	444.385	445.761	465.103	447.620	0.00051973	0.00071548	0.00015307	1438.7	6.6691e-06	5.5769e-06	1445.6	388.88	8.2381e-06	3.9716e-06	442.77	147.21	128.08	43.857	6.9508e-06	53.922	0.00059873	0.00061179	0.00016594	1460.1	6.6707e-06	6.6505e-06	1462.1	395.83	6.5126e-06	6.5717e-06	451.26	150.15	131.02	45.008	6.6724e-06	55.498	238.402	242.823	240.570	163.149	283.564	296.660	163.108	167.885	302.988	289.541	167.195	171.614	172.227	176.784	295.830	176.179	-8191	255	
25851.561	1	1	0	0	0.11968	0.27957	0.14046	0.32043	0.053888	0.25806	0.25307	0.35848	0.16793	0.11226	0.11365	0.059815	0.364	0.028786	0.15854	0.24504	-2.0583	-2.7042	-2.5375	-2.7167	-2.7542	-2.7188	-3.0563	-2.7479	-2.4688	-2.7	-2.6333	-2.8292	-2.8021	-2.7333	-2.9562	-2.8292	365.640	244.118	264.383	448.049	387.434	226.214	419.824	161.158	410.170	426.800	334.659	415.717	172.670	211.581	200.207	422.385	0.00054324	0.0003153	9.6591e-05	1447.4	4.544e-06	3.3107e-06	1440.9	387.46	5.3629e-06	5.3268e-06	441.77	146.14	128.03	43.746	3.5477e-06	53.903	0.00060884	0.00061248	0.00016657	1461.3	6.6038e-06	6.579e-06	1460.3	395.35	6.463e-06	6.6302e-06	450.7	150.13	130.96	44.974	6.4759e-06	55.471	238.540	243.712	239.545	163.308	302.673	298.212	163.312	167.925	304.449	275.192	167.214	171.612	172.197	176.423	308.774	176.245	-8191	255	
25851.656	1	1	0	0	0.25437	0.1501	0.10126	0.22629	0.23935	0.33405	0.18283	0.056978	0.12597	0.099095	0.063213	0.35834	0.23179	0.030311	0.08398	0.25162	-2.2208	-2.6479	-2.4146	-2.7583	-2.7417	-2.4917	-3.0875	-2.6833	-2.6042	-2.8917	-2.6958	-2.9896	-2.9062	-2.5146	-2.8271	-2.7729	320.780	507.184	158.193	328.085	436.783	345.573	161.170	484.060	205.265	265.547	359.528	197.405	448.604	494.513	223.250	425.624	0.00051717	0.00040089	0.00013391	1442.1	3.0593e-06	4.4731e-06	1438.6	388.74	5.7974e-06	7.0133e-06	442.17	146.93	128.08	43.76	4.8667e-06	54.014	0.00059492	0.00060808	0.00016656	1460.6	6.5955e-06	6.6704e-06	1458.2	395.49	6.5655e-06	6.5609e-06	450.82	150.06	131.01	44.938	6.63e-06	55.531	236.053	240.365	203.175	163.364	308.501	301.797	163.196	168.013	295.136	309.306	167.415	171.687	172.204	176.936	300.183	176.056	-8191	255	
25851.730	1	1	0	0	0.17166	0.081093	0.079196	0.10296	0.21157	0.12629	0.090016	0.099645	0.18158	0.15695	0.12856	0.48928	0.19085	0.25249	0.10095	0.23202	-2.2083	-2.825	-2.4646	-2.5792	-2.7729	-2.3104	-3.0083	-2.8688	-2.5187	-2.8625	-2.8521	-2.6625	-2.9771	-2.5521	-2.7771	-2.8042	368.505	220.792	468.616	470.492	178.573	402.956	409.328	412.729	243.873	246.238	439.613	495.656	465.228	402.913	476.057	457.898	0.00055271	0.0003517	0.00014064	1441.1	4.3726e-06	4.7101e-06	1442.4	389.3	6.9685e-06	5.8428e-06	442.53	146.83	128.11	43.692	6.9619e-06	54.143	0.00059652	0.00059071	0.0001656	1461.3	6.5455e-06	6.6238e-06	1461.4	395.83	6.5325e-06	6.6958e-06	450.83	150.31	130.85	44.986	6.6213e-06	55.563	238.784	232.152	219.653	163.339	281.018	281.874	163.343	168.033	294.229	299.482	167.528	171.780	172.095	176.795	302.525	176.170	-8191	255	
25851.850	1	1	0	0	0.18023	0.15307	0.21453	0.15701	0.22603	0.13115	0.20437	0.18437	0.22078	0.20588	0.20922	0.079958	0.13424	0.24566	0.33207	0.20074	-2.2396	-2.8063	-2.4729	-2.6875	-2.7542	-2.3521	-2.8417	-3.0646	-2.4375	-2.8	-2.875	-2.7833	-2.9333	-2.5979	-2.6667	-2.8312	402.914	183.315	287.984	353.689	306.104	251.512	472.471	391.381	397.857	349.149	423.181	498.645	386.458	462.280	298.593	477.729	0.00055849	0.00058747	0.00014337	1447.3	2.8016e-06	6.5573e-06	1441.8	388.09	5.9463e-06	4.8054e-06	440.21	146.64	127.68	43.796	5.2291e-06	54.107	0.00059385	0.00059815	0.00016635	1464.3	6.5365e-06	6.6208e-06	1459.8	395.28	6.5943e-06	6.608e-06	450.64	149.95	131.03	44.979	6.5367e-06	55.565	239.500	252.759	243.460	163.416	329.577	314.545	163.358	167.868	300.258	292.401	167.381	171.568	172.165	176.822	315.233	176.260	-8191	255	
25851.945	1	1	0	0	0.12354	0.19352	0.2162	0.21658	0.028308	0.29232	0.22347	0.35936	0.30722	0.087804	0.35417	0.23576	0.19648	0.44629	0.1034	0.11563	-2.0792	-2.6729	-2.65	-2.4792	-3.0875	-2.5208	-3.0104	-3.0938	-2.4292	-2.7667	-2.8479	-2.6521	-2.9854	-2.6625	-2.5604	-2.7958	390.628	158.419	356.239	452.718	204.798	270.153	452.237	468.011	325.174	448.820	434.775	449.669	379.432	499.927	192.723	420.540	0.00054555	0.00047956	0.00014329	1441.6	2.6088e-06	5.131e-06	1439.5	388.8	5.8792e-06	7.3414e-06	444.82	146.84	128.4	43.717	6.061e-06	53.822	0.00059795	0.00059381	0.00016877	1459.6	6.636e-06	6.4442e-06	1460.2	395.68	6.3883e-06	6.6852e-06	452.35	150.18	131.19	44.975	6.5449e-06	55.514	237.424	278.408	242.397	163.230	275.221	297.454	163.224	167.883	289.324	312.401	167.477	171.514	172.131	176.651	330.157	175.785	-8191	255	
25852.041	1	1	0	0	0.15023	0.0029059	0.19121	0.3186	0.26731	0.3492	0.3914	0.13589	0.23947	0.28527	0.29915	0.18114	0.019095	0.45496	0.14656	0.26299	-2.1188	-2.7	-2.3604	-2.4542	-2.6437	-2.4667	-2.8792	-2.9583	-2.4313	-2.9437	-2.9083	-2.6896	-3.0042	-2.8438	-2.6354	-3.0417	446.916	470.061	261.967	476.368	397.985	424.549	413.297	494.793	247.623	293.661	395.939	405.366	432.107	470.043	397.482	473.054	0.00054088	0.00037565	0.00014113	1441.9	3.6775e-06	4.5183e-06	1436.5	388.9	4.719e-06	4.9368e-06	442.78	146.7	128.08	43.702	5.2671e-06	53.792	0.00059168	0.00060052	0.00016629	1461.2	6.6277e-06	6.5421e-06	1459.9	395.94	6.6051e-06	6.6898e-06	451.87	150.18	131.1	44.998	6.6136e-06	55.535	236.824	242.486	278.954	163.291	296.500	286.452	163.421	168.017	300.668	288.391	167.355	171.687	172.051	176.890	288.990	176.320	-8191	255	
25852.162	1	1	0	0	0.10362	0.042337	0.1348	0.089331	0.18674	0.27488	0.32977	0.14076	0.16867	0.149	0.24771	0.28467	0.077159	0.34257	0.082771	0.17614	-2.1479	-2.7313	-2.6688	-2.5958	-2.8208	-2.6604	-2.8833	-3.0521	-2.4458	-2.6771	-2.8208	-2.7458	-2.8625	-2.6229	-2.4875	-2.8979	176.592	366.192	486.348	187.813	202.383	151.118	408.041	327.386	470.365	236.524	438.466	428.171	423.702	471.456	440.381	492.883	0.00053996	0.00050365	0.00013913	1450.4	4.2638e-06	3.8122e-06	1443.5	388.34	5.9268e-06	3.7701e-06	442.41	147.29	128.58	43.762	6.1406e-06	54.043	0.00058929	0.00060952	0.00016904	1465.1	6.7243e-06	6.6776e-06	1460.7	395.9	6.6523e-06	6.6909e-06	450.49	150.22	131.21	44.999	6.6171e-06	55.611	235.331	276.593	226.359	163.369	287.106	301.690	163.225	167.898	287.768	303.759	167.509	171.612	172.184	176.778	316.933	176.199	-8191	255	
25852.258	1	1	0	0	0.2179	0.22825	0.12227	0.12255	0.26036	0.1853	0.33046	0.25316	0.11296	0.063735	0.29775	0.3932	0.2307	0.23808	0.067608	0.28289	-1.9729	-2.6396	-2.8417	-2.4875	-2.6917	-2.7104	-2.775	-3.0667	-2.6	-2.6188	-3.0062	-2.6813	-2.9792	-2.8479	-2.4542	-3.0521	170.758	380.937	400.698	388.841	363.665	306.534	433.894	175.332	155.027	232.504	153.584	507.237	491.002	500.141	400.079	478.641	0.00052403	0.00050677	7.6515e-05	1446.7	4.3974e-06	5.6707e-06	1439.9	388.93	5.3604e-06	3.6597e-06	443.45	146.92	127.98	43.79	6.5865e-06	53.963	0.00058956	0.00060838	0.00016649	1463.1	6.5203e-06	6.5317e-06	1459.6	395.63	6.6636e-06	6.5867e-06	451.12	150.14	131.16	45.029	6.6385e-06	55.531	236.763	217.938	223.988	163.170	299.669	324.209	163.209	167.744	288.273	303.339	167.206	171.916	172.305	176.652	296.031	175.903	-8191	255	
25852.330	1	1	0	0	0.094677	0.033619	0.26348	0.082738	0.15125	0.08584	0.2036	0.36504	0.26274	0.15138	0.19109	0.12457	0.036154	0.1574	0.19381	0.37309	-2.2979	-2.6667	-2.85	-2.5167	-2.8083	-2.5604	-2.6729	-3.0083	-2.6625	-2.6188	-2.9375	-2.6875	-2.8417	-2.8229	-2.6417	-2.8042	503.569	191.964	478.480	425.980	309.339	409.432	484.545	447.196	393.672	488.999	437.813	447.692	461.585	460.600	475.349	434.001	0.00052417	0.00057566	0.00018405	1443.8	4.1658e-06	9.7572e-06	1438.1	388.66	6.4051e-06	7.1794e-06	442.91	147.17	128.7	43.718	6.1939e-06	54.198	0.00060062	0.00061583	0.00017125	1460.6	6.6576e-06	6.6312e-06	1460.3	396.19	6.6289e-06	6.5602e-06	451.74	150.27	131.02	45	6.6764e-06	55.607	233.194	221.599	219.997	163.460	311.352	298.962	163.288	167.849	306.792	329.637	167.449	171.694	172.445	177.022	274.509	176.037	-8191	255	
25852.426	1	1	0	0	0.20063	0.11657	0.064014	0.23058	0.17002	0.17958	0.64395	0.14844	0.16822	0.19184	0.20975	0.19854	0.11565	0.088301	0.27144	0.15915	-2.2938	-2.5396	-2.8458	-2.6375	-2.9146	-2.8458	-2.7792	-3.0104	-2.6458	-2.675	-3.0896	-2.6167	-2.8771	-2.9958	-2.4604	-2.9083	416.982	345.321	422.661	404.168	447.599	387.346	433.203	489.109	442.248	230.882	474.444	496.497	416.271	447.966	191.501	168.271	0.00055407	0.00053571	0.00014576	1436.9	4.8549e-06	3.96e-06	1439.9	388.12	3.9305e-06	4.3556e-06	444.68	146.58	128.17	43.756	3.1146e-06	54.249	0.00061123	0.00062087	0.0001671	1463.2	6.686e-06	6.785e-06	1460.6	395.85	6.7481e-06	6.7339e-06	451.95	150.2	131.23	44.994	6.8977e-06	55.616	235.399	239.937	244.765	163.412	302.540	274.484	163.319	167.986	295.601	284.708	167.309	171.735	172.346	176.723	298.878	176.055	-8191	255	
25852.545	1	1	0	0	0.10113	0.25328	0.17981	0.045912	0.11968	0.10872	0.42355	0.36448	0.2213	0.048221	0.23849	0.16241	0.34219	0.068964	0.19979	0.087673	-2.0354	-2.6854	-2.9083	-2.6542	-2.5687	-2.725	-2.7854	-2.85	-2.65	-2.4562	-3.0125	-2.8521	-2.8979	-3.1146	-2.6813	-2.8896	399.571	192.120	197.380	364.955	418.558	232.595	459.423	394.435	194.284	372.892	241.228	197.850	460.479	404.215	159.083	438.668	0.00052189	0.00048161	0.00017488	1449	3.8452e-06	5.7112e-06	1435	388.83	4.782e-06	5.7765e-06	444.1	146.33	127.83	43.76	4.4087e-06	53.963	0.00059978	0.00062144	0.00016977	1464.4	6.7529e-06	6.7639e-06	1458.8	396.14	6.9268e-06	6.931e-06	451.7	150.14	130.96	44.997	6.778e-06	55.551	237.784	233.066	228.637	163.436	318.188	300.635	163.102	167.837	292.948	302.623	167.165	171.841	172.091	176.747	308.580	176.210	-8191	255	
25852.641	1	1	0	0	0.059945	0.061031	0.19102	0.099604	0.060383	0.10927	0.44855	0.19156	0.23982	0.050526	0.39115	0.18242	0.32962	0.24622	0.13299	0.094341	-2.4583	-2.5208	-2.7125	-2.7271	-2.5604	-2.8979	-2.8167	-2.9313	-2.8312	-2.6646	-2.9938	-2.7687	-2.8292	-2.9958	-2.6917	-2.7625	498.875	151.669	400.909	454.990	472.455	221.328	433.583	479.533	295.320	161.483	431.519	476.848	172.987	506.439	236.776	297.385	0.00055308	0.00031706	0.00015914	1451.9	3.6122e-06	5.5357e-06	1441.7	389.44	5.3227e-06	4.8794e-06	444.65	146.43	127.82	43.811	4.8309e-06	54.031	0.00062377	0.00064941	0.00018089	1468.2	7.0312e-06	7.1363e-06	1460.8	396.22	6.8988e-06	6.9862e-06	451.75	150.05	130.92	44.925	6.8195e-06	55.555	237.202	224.205	231.143	163.199	310.888	301.648	163.180	167.741	292.758	330.066	167.426	171.520	172.339	177.140	285.524	176.193	-8191	255	
25852.736	1	1	0	0	0.293	0.25703	0.13023	0.31985	0.11623	0.20264	0.12516	0.3543	0.18671	0.1298	0.072977	0.11576	0.27437	0.35626	0.17906	0.19054	-2.2792	-2.6583	-2.8042	-2.8771	-2.6667	-3.2	-2.8646	-2.9792	-2.8438	-2.4896	-2.9688	-2.8583	-2.6458	-2.925	-2.675	-2.7458	388.375	436.907	418.574	433.687	358.842	267.259	503.595	479.430	302.842	476.709	283.620	422.530	497.723	492.150	435.295	165.498	0.0005391	0.00041743	0.0001089	1438.8	2.7088e-06	7.1252e-06	1439.6	387.19	3.8578e-06	5.1306e-06	443.62	147.21	128.63	43.867	8.8871e-06	54.023	0.00061837	0.00061175	0.00017564	1459.8	6.7984e-06	6.8099e-06	1461.6	395.63	6.6792e-06	6.7117e-06	451.93	150.03	131.31	45.002	6.6973e-06	55.69	236.094	261.254	238.181	163.533	300.469	282.416	163.194	167.950	284.056	290.421	167.191	171.602	172.367	176.821	295.121	176.185	-8191	255	
25852.832	1	1	0	0	0.2647	0.072677	0.17284	0.11396	0.061295	0.22723	0.17764	0.27237	0.085893	0.1693	0.15769	0.1311	0.14997	0.10502	0.14504	0.20906	-2.4437	-2.5729	-2.6417	-2.9542	-2.5417	-2.8042	-2.9833	-2.9125	-2.9833	-2.5812	-2.9479	-3.0271	-2.7208	-2.9313	-2.55	-2.65	315.625	309.220	314.231	493.420	255.154	171.534	434.501	500.345	409.710	184.567	431.466	459.836	430.561	223.954	208.623	484.677	0.00055457	0.00063079	9.9663e-05	1447.1	5.7081e-06	3.9491e-06	1439.2	389.59	6.0004e-06	6.3354e-06	444.73	146.65	127.78	43.776	3.8896e-06	54.093	0.00060842	0.00061329	0.00017204	1463.8	6.7848e-06	6.8414e-06	1460.3	396.64	6.8362e-06	6.9901e-06	452.66	150.1	131.05	45.029	7.037e-06	55.551	237.740	240.309	221.209	163.192	297.941	289.059	163.255	168.094	296.959	336.622	167.577	171.791	172.286	176.744	337.254	176.233	-8191	255	
25852.930	1	1	0	0	0.095214	0.26685	0.099128	0.23375	0.25803	0.074521	0.20209	0.32758	0.29452	0.29065	0.26002	0.10717	0.13748	0.11413	0.076783	0.096058	-2.5458	-2.5521	-2.7083	-2.8521	-2.4938	-2.9333	-2.9146	-2.7562	-2.8229	-2.5521	-3.0625	-3.0042	-2.5979	-2.8792	-2.7854	-2.5833	166.550	349.854	473.194	491.229	445.801	189.810	434.527	425.061	197.028	232.516	449.732	422.163	475.180	482.171	415.405	332.946	0.00051929	0.00053326	0.00016514	1445	4.1737e-06	4.4837e-06	1443.2	389.18	3.8245e-06	5.0411e-06	442.49	146.73	127.95	43.692	4.7387e-06	54.28	0.00061053	0.00063577	0.00018123	1465.8	6.8648e-06	7.0315e-06	1463.5	396.21	6.9486e-06	7.0744e-06	452.52	150.4	131.15	45.01	7.0687e-06	55.639	238.839	237.349	219.250	163.214	286.069	315.948	163.221	167.918	298.192	292.327	167.631	171.681	172.178	176.953	284.198	176.130	-8191	255	
25853.025	1	1	0	0	0.13833	0.24832	0.14923	0.24936	0.14497	0.15308	0.27705	0.2145	0.3839	0.046125	0.27093	0.12977	0.15782	0.03194	0.25088	0.10887	-2.4354	-2.6208	-2.7333	-2.7354	-2.5417	-2.6646	-2.9667	-2.6271	-2.7771	-2.6021	-2.8688	-2.7083	-2.5771	-2.7562	-2.7979	-2.5958	271.756	354.420	366.157	409.938	306.205	325.216	487.648	395.010	372.605	421.137	477.530	424.062	496.091	197.500	282.194	413.113	0.00051547	0.0005027	0.00013548	1453.3	5.7494e-06	4.6366e-06	1445.2	389.18	6.6759e-06	7.3378e-06	445.16	146.69	128.16	43.898	5.6388e-06	54.174	0.00061971	0.00064318	0.00017916	1467.5	7.0217e-06	7.0505e-06	1463.7	396.47	6.9556e-06	7.0885e-06	452.37	150.26	131.06	45.012	6.9848e-06	55.695	239.933	218.861	229.427	163.243	292.443	289.994	163.052	168.004	300.338	277.774	167.345	171.681	172.178	176.746	283.725	176.020	-8191	255	
25853.121	1	1	0	0	0.22357	0.14007	0.16013	0.073927	0.26484	0.19151	0.20187	0.33422	0.1738	0.10117	0.12552	0.26729	0.49784	0.173	0.24777	0.094016	-2.5	-2.6375	-2.5792	-3.1375	-2.3208	-2.8375	-3.0604	-2.6562	-2.975	-2.7	-2.6813	-3.0646	-2.7917	-2.9813	-2.8125	-2.6667	468.565	311.449	317.608	437.267	315.220	391.584	414.932	493.574	453.837	404.696	245.741	181.208	469.426	173.290	482.754	431.219	0.00053454	0.00055899	0.00020771	1442.6	4.9561e-06	4.7116e-06	1439.2	389.09	6.2447e-06	5.3993e-06	443.6	146.88	128.54	43.577	3.3975e-06	54.207	0.00062621	0.00064812	0.00017864	1466	6.8504e-06	6.9574e-06	1462.4	395.97	6.9261e-06	7.1599e-06	452.44	150.3	131.19	44.897	6.8757e-06	55.594	234.635	270.243	242.294	163.372	301.794	318.091	163.152	167.941	300.452	294.410	167.184	171.796	171.995	176.827	324.336	176.213	-8191	255	
25853.242	1	1	0	0	0.13796	0.19719	0.14498	0.12192	0.051722	0.017589	0.15594	0.15191	0.19533	0.1042	0.26643	0.16983	0.067906	0.33188	0.046717	0.3312	-2.2042	-2.7354	-2.5396	-2.9625	-2.7583	-2.8042	-2.9854	-2.8187	-2.9437	-2.7875	-2.5812	-3.0563	-2.8187	-2.8312	-2.825	-2.45	284.838	153.684	497.803	419.367	331.863	175.173	433.290	489.414	485.158	480.320	154.390	463.084	203.368	207.444	286.958	153.387	0.00053818	0.00021389	0.00017071	1443	5.6452e-06	5.2356e-06	1444.7	388.65	4.7535e-06	6.8565e-06	444.88	147.13	128.4	43.684	6.4383e-06	53.993	0.00061704	0.00063062	0.00017841	1467	7.0015e-06	7.0681e-06	1463	396.08	6.8492e-06	6.9624e-06	452.54	150.26	131.15	44.935	6.9754e-06	55.567	237.737	243.722	230.433	163.326	302.188	282.827	163.075	167.811	313.393	311.044	167.364	171.606	172.209	176.905	287.314	176.041	-8191	255	
25853.338	1	1	0	0	0.16055	0.088546	0.078503	0.20215	0.28239	0.081232	0.17276	0.28672	0.20926	0.15297	0.13066	0.37667	0.19172	0.068468	0.28466	0.212	-2.1875	-2.5854	-2.4667	-2.9458	-2.725	-2.7125	-3.1667	-2.6875	-2.7812	-2.7979	-2.8292	-2.9083	-2.7521	-2.8396	-2.7438	-2.7417	439.181	168.622	359.943	189.384	256.999	472.745	434.975	485.982	373.633	153.840	489.253	498.425	155.782	408.729	407.758	451.020	0.00056995	0.00059348	0.00022594	1442.2	6.2646e-06	3.1837e-06	1437	389.55	5.9569e-06	5.451e-06	443.19	147.06	128.23	43.999	6.1962e-06	53.99	0.00063925	0.00064237	0.00017696	1463.3	7.0181e-06	6.9579e-06	1458.8	396.33	7.0606e-06	7.0892e-06	451.71	150.3	131.1	44.997	6.9377e-06	55.572	236.045	240.458	247.144	163.247	301.632	270.780	163.345	167.835	315.270	312.415	167.371	171.836	172.324	176.833	300.119	176.162	-8191	255	
25853.434	1	1	0	0	0.0060327	0.14745	0.11816	0.11678	0.18291	0.062828	0.32078	0.16553	0.071636	0.084692	0.039832	0.10867	0.16042	0.50621	0.10987	0.12606	-2.225	-2.7	-2.5125	-2.8667	-2.7458	-2.6437	-3.1312	-2.6437	-2.75	-2.9167	-2.5354	-2.9	-2.7375	-2.7292	-2.9167	-2.6583	259.627	195.166	420.938	427.058	395.105	501.392	443.328	451.683	221.802	317.868	373.776	501.190	190.224	479.834	402.473	295.057	0.00053893	0.00047742	0.00019546	1446.8	5.3431e-06	6.7589e-06	1440.8	388.77	4.537e-06	3.5622e-06	443.15	146.5	127.88	43.743	7.0379e-06	54.03	0.00063487	0.00062754	0.00017885	1466.8	6.9639e-06	6.9999e-06	1462.5	396.04	6.9586e-06	6.8254e-06	452.15	150.19	130.88	44.938	7.0247e-06	55.554	237.726	242.574	241.496	163.358	298.750	293.404	163.126	167.853	293.134	286.865	167.480	171.567	172.098	176.970	305.980	175.956	-8191	255	
25853.553	1	1	0	0	0.23209	0.0418	0.055445	0.16876	0.11292	0.23048	0.13968	0.062898	0.23948	0.18342	0.19393	0.15058	0.23628	0.13432	0.093997	0.028101	-2.2208	-2.7292	-2.5792	-2.8812	-2.6729	-2.4708	-3.1708	-2.7979	-2.5271	-2.9083	-2.6417	-3.0646	-2.9271	-2.6396	-2.8563	-2.7687	251.923	387.891	364.061	479.132	325.565	297.644	447.600	199.858	335.570	189.096	152.218	363.889	462.135	449.580	260.410	201.561	0.000524	0.0004958	0.00015929	1445.7	3.178e-06	6.3248e-06	1434.1	389.37	6.198e-06	3.3554e-06	445.19	146.8	128.04	43.724	3.3094e-06	53.878	0.00062497	0.00064402	0.00017529	1465.6	7.0386e-06	7.0273e-06	1461.2	396.27	6.917e-06	6.9996e-06	452.88	150.29	131.12	44.968	7.0072e-06	55.501	234.445	267.864	246.642	163.421	311.111	320.949	163.220	167.860	288.625	336.951	167.423	171.408	172.330	176.942	310.827	176.017	-8191	255	
25853.625	1	1	0	0	0.11946	0.12942	0.36222	0.35936	0.14841	0.26898	0.16378	0.1601	0.10227	0.13781	0.1645	0.37239	0.057347	0.077372	0.17575	0.11701	-2.1813	-2.8104	-2.5354	-2.7625	-2.7896	-2.5563	-3.1542	-2.7938	-2.5917	-2.975	-2.5979	-2.9313	-2.8875	-2.4938	-2.8229	-2.7042	154.670	346.898	218.844	498.779	179.552	490.010	453.601	451.056	269.298	504.411	191.302	172.396	297.351	449.385	443.039	457.006	0.00053626	0.00051449	0.00014535	1444.7	5.7246e-06	6.2458e-06	1441.7	389.53	3.9201e-06	6.1754e-06	442.98	146.56	128.37	43.755	4.8592e-06	54.2	0.00063172	0.00063308	0.00018004	1469.4	6.9499e-06	7.0549e-06	1464	396.39	7.0894e-06	7.0033e-06	452.17	150.34	131.07	44.979	6.909e-06	55.53	236.692	259.736	250.516	163.569	301.878	307.580	163.115	167.762	295.407	305.280	167.437	171.892	172.183	176.847	332.071	175.944	-8191	255	
25853.721	1	1	0	0	0.1863	0.061272	0.10062	0.24809	0.26679	0.043582	0.38773	0.07616	0.11718	0.17647	0.35447	0.27454	0.36403	0.12305	0.1627	0.28424	-2.1312	-2.8	-2.3917	-2.9396	-2.8396	-2.5875	-3.2167	-2.8104	-2.7083	-2.825	-2.6604	-2.8625	-2.8875	-2.7687	-2.9104	-2.7542	414.076	209.181	263.681	288.599	247.845	285.031	504.216	292.079	382.199	184.740	491.297	221.497	178.149	348.274	413.838	189.856	0.00057122	0.0007503	0.00015341	1444.5	6.0275e-06	7.8138e-06	1440.1	388.75	4.3624e-06	5.1345e-06	443.55	146.83	127.75	43.903	4.924e-06	53.813	0.00062847	0.00064779	0.00017605	1466.8	6.9918e-06	6.999e-06	1462.4	396.3	6.9508e-06	7.1012e-06	451.57	150.09	130.92	44.966	6.9903e-06	55.559	235.338	251.883	247.767	163.700	288.162	311.469	163.315	167.886	301.313	308.564	167.509	171.593	172.149	176.766	314.702	176.112	-8191	255	
25853.842	1	1	0	0	0.27385	0.21956	0.20771	0.17172	0.075877	0.17391	0.2165	0.11854	0.18516	0.13169	0.17309	0.18052	0.089031	0.3202	0.2444	0.11392	-2.2229	-2.7604	-2.5542	-2.725	-2.7	-2.4938	-2.9729	-2.8354	-2.6083	-2.7521	-2.7062	-2.7062	-2.9542	-2.6167	-2.8875	-2.8063	222.366	454.288	246.640	418.257	352.589	417.796	419.361	427.983	447.686	184.942	377.893	458.858	410.225	159.803	281.355	417.384	0.00052687	0.00056291	0.00018852	1445.2	6.6176e-06	4.9085e-06	1443.8	388.53	5.8684e-06	5.1916e-06	442.72	146.57	128.12	43.823	5.988e-06	53.932	0.00062889	0.00064354	0.00017504	1465.5	7.0129e-06	7.0693e-06	1462.6	395.89	6.9224e-06	7.122e-06	451.47	150.21	131.1	45.007	6.9679e-06	55.504	234.061	277.641	228.296	163.396	292.336	296.398	163.067	167.754	302.016	343.860	167.418	171.648	172.192	176.854	307.353	176.096	-8191	255	
25853.936	1	1	0	0	0.2018	0.21029	0.13228	0.20823	0.16584	0.01558	0.16771	0.1382	0.25802	0.16091	0.13271	0.12477	0.071185	0.38081	0.18876	0.16017	-2.1021	-2.7604	-2.5771	-2.6917	-2.9813	-2.5708	-3.1021	-2.7458	-2.6083	-2.8333	-2.7979	-2.7292	-2.9167	-2.55	-2.7854	-2.9375	399.481	465.132	263.585	397.016	335.257	334.662	452.910	177.141	201.489	365.153	456.516	317.683	503.482	439.022	177.600	441.123	0.00052683	0.00067397	0.00013752	1447.4	3.8982e-06	4.4044e-06	1438.8	388.61	6.0153e-06	6.8662e-06	441.49	146.61	127.86	43.544	4.4586e-06	54.095	0.00062528	0.00064083	0.00017723	1466.6	6.786e-06	7.1129e-06	1460	395.8	6.8832e-06	7.2377e-06	451.16	150.17	131.01	44.928	6.8777e-06	55.602	237.186	262.889	252.703	163.570	334.799	320.632	163.250	167.987	296.491	299.677	167.406	171.304	172.218	176.849	270.905	176.156	-8191	255	
25854.031	1	1	0	0	0.19807	0.12975	0.10835	0.05058	0.027931	0.13638	0.32975	0.18435	0.18811	0.10584	0.11941	0.073554	0.20226	0.21744	0.14897	0.039234	-2.0375	-2.7854	-2.6667	-2.6083	-2.8583	-2.4896	-2.9208	-2.6813	-2.4792	-2.8854	-2.6813	-2.7396	-2.8688	-2.6042	-2.7104	-2.8146	222.690	320.343	234.129	419.749	310.767	503.384	456.259	360.637	213.921	194.327	342.115	504.433	456.532	506.502	178.057	438.363	0.00054114	0.00020311	9.9175e-05	1440.7	2.9367e-06	5.8661e-06	1443.1	388.6	4.0806e-06	6.0086e-06	442.96	147.14	127.75	43.962	5.9108e-06	53.76	0.00061526	0.00064506	0.00017428	1465.2	6.9981e-06	7.0922e-06	1463.5	396.16	6.9125e-06	6.9446e-06	452.11	150.47	131.22	44.994	7.1725e-06	55.477	238.039	236.308	252.998	163.507	320.604	304.419	163.054	167.694	284.819	343.625	167.339	171.734	172.304	176.892	317.005	176.217	-8191	255	
25854.129	1	1	0	0	0.126	0.31403	0.24058	0.095891	0.15859	0.38262	0.28684	0.36084	0.15162	0.1453	0.32411	0.097126	0.25023	0.40014	0.24419	0.25045	-2.1188	-2.6292	-2.6833	-2.5563	-2.8042	-2.5792	-2.8792	-2.9625	-2.5396	-2.8479	-2.8667	-2.8167	-2.8583	-2.7542	-2.4958	-3.0583	497.922	343.884	209.747	320.300	305.276	250.904	509.222	403.960	311.747	248.793	488.823	444.626	502.549	500.812	289.781	450.942	0.00050908	0.00055935	0.00014174	1438.3	4.374e-06	5.6035e-06	1440.4	388.14	5.4677e-06	5.0666e-06	442.69	146.43	127.46	43.7	4.4296e-06	54.118	0.00062414	0.00063285	0.00017529	1464.6	7.0316e-06	7.1345e-06	1462.6	396.11	6.9285e-06	6.9303e-06	451.94	150.18	130.84	44.942	6.9892e-06	55.577	237.079	229.936	255.307	163.342	287.069	295.716	163.148	167.855	286.108	330.299	167.290	171.619	172.332	176.884	272.323	175.974	-8191	255	
25854.225	1	1	0	0	0.21798	0.14716	0.35894	0.098331	0.07958	0.15388	0.30091	0.18494	0.11516	0.071682	0.27484	0.36594	0.15626	0.20251	0.16087	0.26038	-2.1104	-2.8104	-2.5938	-2.4562	-2.8333	-2.5667	-2.9146	-2.9854	-2.3667	-2.5021	-3.0333	-2.8812	-2.9792	-2.8937	-2.5167	-2.8708	350.052	468.362	440.518	192.935	480.671	444.905	447.334	470.846	207.770	319.625	447.590	508.112	186.515	407.563	414.990	464.363	0.0005327	0.00040369	0.00011561	1451.2	4.5693e-06	4.8104e-06	1444.7	390.43	4.7319e-06	5.2372e-06	443.39	147.04	127.86	43.577	4.6507e-06	54.071	0.00062201	0.00066464	0.0001771	1467.5	7.092e-06	7.0609e-06	1462.7	396.49	7.0892e-06	7.07e-06	452.41	150.11	131.07	44.874	6.9996e-06	55.62	238.894	214.610	252.238	163.405	292.793	290.757	163.357	167.852	299.671	301.684	167.540	171.658	172.169	176.930	308.757	176.181	-8191	255	
25854.320	1	1	0	0	0.11357	0.36757	0.26821	0.13093	0.048112	0.2108	0.34073	0.25788	0.26893	0.1258	0.1816	0.33026	0.15518	0.24353	0.086794	0.12718	-2.1625	-2.5563	-2.6417	-2.3625	-2.7167	-2.6646	-2.5979	-3.0687	-2.4833	-2.6833	-2.9104	-2.6542	-2.8458	-2.8292	-2.3979	-3.0083	281.864	170.897	270.695	462.999	445.628	265.549	374.958	460.536	210.965	449.049	456.063	475.857	455.772	185.663	311.677	153.158	0.00052585	0.0003843	0.00012709	1442.8	4.5149e-06	5.9719e-06	1444	388.61	6.5137e-06	5.8057e-06	443.89	146.54	128.05	43.849	7.6082e-06	54.097	0.00063019	0.00063187	0.00017698	1463.5	7.0974e-06	7.1252e-06	1463	396.55	6.8975e-06	7.071e-06	451.77	150.01	131.05	45.007	6.8304e-06	55.455	237.701	224.896	228.220	163.144	265.931	296.591	163.310	167.882	281.641	264.663	167.403	171.567	172.355	176.920	297.167	176.312	-8191	255	
25854.418	1	1	0	0	0.19137	0.19851	0.13165	0.28461	0.32014	0.052756	0.43598	0.36567	0.11552	0.14459	0.030234	0.10584	0.346	0.34969	0.31087	0.21507	-2.2396	-2.5354	-2.7938	-2.5521	-2.6917	-2.6229	-2.8	-2.8771	-2.5625	-2.5333	-2.9542	-2.5125	-2.8146	-2.8979	-2.6583	-2.8354	408.236	176.906	281.778	496.046	231.250	266.106	438.087	509.326	333.772	314.330	344.897	470.769	450.133	491.027	508.277	458.309	0.00055543	0.00076763	0.00017284	1444.3	3.6917e-06	6.6746e-06	1441.9	390.18	5.0812e-06	5.4483e-06	443.6	146.73	128.25	43.846	6.9124e-06	53.892	0.00062816	0.00063914	0.00017632	1464.9	6.9377e-06	6.9013e-06	1460.8	396.75	6.9547e-06	7.1895e-06	452.22	150.13	131.21	44.976	7.0296e-06	55.497	238.713	230.031	243.953	163.153	314.666	298.585	163.108	167.936	289.640	293.981	167.303	171.678	172.116	176.509	309.782	176.219	-8191	255	
25854.514	1	1	0	0	0.051789	0.26735	0.13537	0.17962	0.21259	0.3052	0.14926	0.15985	0.1781	0.19255	0.063967	0.33768	0.33353	0.36434	0.15714	0.14817	-2.1708	-2.7042	-2.7729	-2.55	-2.5083	-2.6771	-2.5521	-3.0396	-2.5479	-2.5146	-2.9062	-2.6417	-2.7	-2.7875	-2.5771	-2.7542	213.024	449.591	359.565	450.025	323.630	329.313	360.468	481.922	189.603	216.124	281.758	159.390	175.695	413.405	499.861	155.775	0.00052125	0.00052399	0.00016261	1443.2	4.1825e-06	4.6834e-06	1441.6	388.91	5.6595e-06	7.7224e-06	441.84	146.24	128.76	43.633	5.0237e-06	54.019	0.00062338	0.00063319	0.00017987	1464.6	6.9618e-06	6.9252e-06	1462.2	395.89	6.9135e-06	6.86e-06	451.97	150.02	131.13	44.97	6.925e-06	55.579	239.140	256.803	220.514	163.562	309.941	264.760	163.331	168.021	299.925	306.304	167.350	171.395	172.129	176.993	324.562	176.054	-8191	255	
25854.635	1	1	0	0	0.33918	0.080297	0.2689	0.42052	0.076546	0.19285	0.28429	0.10826	0.25862	0.12921	0.25645	0.076575	0.15003	0.16565	0.19244	0.22992	-2.3479	-2.3396	-2.7729	-2.5833	-2.5812	-2.6875	-2.7604	-2.8021	-2.8917	-2.4417	-2.85	-2.7062	-2.7979	-2.9521	-2.4646	-2.9104	491.311	212.003	331.964	162.758	246.603	263.958	471.749	169.435	175.851	359.785	432.402	341.223	494.253	491.027	396.341	442.672	0.00052791	0.00048679	0.00015775	1448.6	3.5997e-06	4.5314e-06	1440.1	389.95	5.5505e-06	3.0687e-06	443.51	146.13	127.8	43.858	5.7903e-06	54.358	0.00061993	0.00063394	0.0001818	1466	7.1289e-06	6.9419e-06	1460.8	396.39	6.9313e-06	6.9238e-06	452.07	149.92	130.88	44.992	6.8701e-06	55.671	236.989	248.982	226.973	163.094	328.157	299.675	163.170	167.714	294.161	268.664	167.504	171.777	172.216	176.903	279.257	175.933	-8191	255	
25854.730	1	1	0	0	0.10746	0.41136	0.22588	0.31204	0.30478	0.15055	0.15756	0.1849	0.17075	0.22787	0.28937	0.25201	0.14796	0.12675	0.12568	0.30327	-2.3271	-2.5667	-2.7625	-2.7083	-2.5521	-2.9042	-2.6875	-2.8708	-2.7833	-2.4604	-3.0292	-2.6937	-2.7521	-2.7542	-2.4458	-2.6896	372.428	158.126	175.213	406.882	348.003	472.150	346.186	238.805	421.544	162.292	155.682	163.709	262.887	192.332	171.238	426.979	0.00056437	0.00070262	0.00014506	1441.2	3.8807e-06	5.4092e-06	1439.1	389.36	5.7636e-06	4.2399e-06	443.12	146.78	127.87	43.88	7.1779e-06	53.95	0.00061896	0.00062994	0.00017914	1463.7	6.7878e-06	6.9301e-06	1461	396.02	6.7786e-06	6.9728e-06	451.72	150.15	131.01	45.045	7.0143e-06	55.536	236.721	246.201	235.841	163.285	291.620	283.438	163.288	168.036	297.196	279.115	167.253	171.779	172.322	176.923	292.840	175.859	-8191	255	
25854.824	1	1	0	0	0.22191	0.21864	0.086566	0.16222	0.17332	0.17073	0.29874	0.25461	0.079768	0.098078	0.19893	0.22202	0.26574	0.19678	0.28135	0.13761	-2.3271	-2.5229	-2.8417	-2.7333	-2.4938	-2.7458	-2.9354	-2.9104	-2.8375	-2.6437	-2.7333	-2.6937	-2.7458	-2.9333	-2.6479	-2.6042	294.022	255.593	425.116	208.246	277.032	490.484	438.564	397.227	171.871	251.497	463.246	473.460	195.273	397.377	354.378	492.583	0.00052178	0.00033428	0.00016877	1451	5.8108e-06	2.8019e-06	1441.8	389	5.9433e-06	6.3052e-06	443.12	146.15	128.17	43.803	6.1881e-06	53.994	0.00062277	0.0006265	0.00018058	1467.6	6.9443e-06	6.8964e-06	1462.2	396.34	6.841e-06	6.9178e-06	452.08	150.16	131.23	44.99	7.0256e-06	55.604	234.533	227.278	218.650	163.178	313.895	294.836	162.989	168.010	309.649	281.191	167.479	171.502	172.238	176.730	320.733	176.053	-8191	255	
25854.922	1	1	0	0	0.13013	0.16689	0.13989	0.015094	0.17963	0.27207	0.15662	0.24437	0.16466	0.12873	0.15725	0.26071	0.23406	0.28869	0.26073	0.20283	-2.5687	-2.3937	-2.7271	-2.8771	-2.4062	-2.9458	-2.8104	-2.8896	-2.8354	-2.5042	-2.7583	-2.9104	-2.6875	-3.1875	-2.6688	-2.7104	211.191	441.772	325.979	155.630	485.532	255.130	440.584	445.554	281.527	481.571	508.143	465.493	433.238	454.113	326.379	395.046	0.00051483	0.00065716	0.00012842	1448.8	4.1476e-06	5.7612e-06	1447.3	388.43	5.9556e-06	5.2554e-06	443.67	146.62	128.38	43.874	6.5071e-06	53.93	0.00062725	0.00064016	0.0001781	1467.8	6.9501e-06	7.067e-06	1463.2	396.1	6.839e-06	7.0513e-06	451.92	150.34	131.2	45.042	7.0319e-06	55.528	236.827	236.737	271.144	163.267	304.811	283.102	163.232	167.971	292.070	297.974	167.345	171.446	172.027	176.596	301.925	175.938	-8191	255	
25855.018	1	1	0	0	0.01833	0.18832	0.14634	0.36343	0.074848	0.27458	0.23281	0.067063	0.29058	0.13471	0.076536	0.32644	0.29296	0.38105	0.14156	0.083876	-2.3896	-2.5458	-2.6583	-2.7646	-2.6833	-2.9188	-2.9625	-2.625	-2.9146	-2.7062	-2.8646	-2.7208	-2.6688	-2.9688	-2.4979	-2.6625	411.471	237.786	211.291	158.609	447.979	413.014	467.030	503.397	181.713	499.193	418.160	455.920	151.619	500.647	411.598	412.473	0.00055565	0.00034887	0.00023723	1449	2.4042e-06	3.4379e-06	1441.1	389.42	4.6721e-06	7.5197e-06	442.94	146.29	128.36	43.762	5.8549e-06	53.899	0.00061613	0.00063475	0.00017848	1467.4	6.9199e-06	7.1377e-06	1463	396.29	6.8237e-06	7.0649e-06	452.23	150.09	131.16	44.958	6.9323e-06	55.524	236.316	211.878	251.141	163.314	294.625	315.340	163.257	167.920	306.106	301.318	167.347	171.566	171.906	176.903	311.862	176.167	-8191	255	
25855.113	1	1	0	0	0.099077	0.15141	0.30045	0.23881	0.23484	0.13319	0.28691	0.48064	0.16341	0.34861	0.22511	0.024935	0.16727	0.17556	0.34458	0.35057	-2.4979	-2.5083	-2.6979	-3.0062	-2.5896	-2.7833	-2.8771	-2.6854	-2.8979	-2.7708	-2.8229	-3.0312	-2.5792	-2.8833	-2.7771	-2.6875	364.746	297.427	326.649	502.018	371.713	332.121	412.312	437.295	156.788	284.771	403.702	252.232	158.802	451.960	222.290	425.824	0.00053114	0.00051009	0.00011873	1440.6	5.1409e-06	7.7856e-06	1444.1	389.08	4.4899e-06	4.7183e-06	443.46	147.14	128.59	43.642	4.8663e-06	54.09	0.00062035	0.00064127	0.00017739	1466.3	7.0201e-06	7.1549e-06	1465.6	397	6.9226e-06	7.0298e-06	451.93	150.27	131.34	44.977	6.9621e-06	55.608	238.856	258.266	213.719	163.478	304.855	292.866	163.358	167.957	297.698	288.019	167.373	171.516	172.265	176.676	283.183	176.132	-8191	255	
25855.232	1	1	0	0	0.13589	0.29414	0.20583	0.092648	0.10805	0.12003	0.063952	0.17242	0.18614	0.040652	0.17339	0.10569	0.17549	0.12211	0.18614	0.085104	-2.5687	-2.7083	-2.5938	-2.8771	-2.6437	-2.9292	-3.1792	-2.675	-2.8937	-2.7583	-2.725	-2.9188	-2.7292	-2.8542	-2.9188	-2.5625	413.589	452.639	175.817	502.793	469.615	191.661	153.815	398.776	434.485	305.437	323.295	480.250	452.390	491.055	472.459	454.713	0.00055163	0.00061814	0.00014782	1438.5	4.7717e-06	6.1857e-06	1441.5	387.32	4.5255e-06	6.3854e-06	442.23	146.57	127.91	43.755	7.6252e-06	53.744	0.00062235	0.00061637	0.00017277	1464.5	6.8501e-06	6.8892e-06	1462.4	395.6	6.8568e-06	6.8134e-06	452.04	150.22	131.18	45.002	6.7146e-06	55.589	238.103	232.432	257.567	163.418	312.441	311.950	163.222	167.773	296.133	303.844	167.421	171.827	172.040	176.800	322.479	176.346	-8191	255	
25855.330	1	1	0	0	0.18925	0.36921	0.14626	0.30557	0.076682	0.085012	0.41645	0.19787	0.16726	0.10332	0.13921	0.15046	0.3261	0.29226	0.10687	0.28331	-2.5042	-2.7104	-2.5417	-3.0625	-2.5812	-2.6354	-3.0396	-2.5542	-2.7208	-2.8292	-2.875	-3.0292	-2.8875	-2.6729	-2.9688	-2.6833	471.294	169.671	177.776	480.782	275.346	451.740	411.881	412.421	413.082	342.234	336.965	451.877	479.443	485.057	371.135	399.827	0.00058299	0.00056759	0.00016729	1441	2.8515e-06	4.0858e-06	1443.2	388.12	5.8643e-06	6.4211e-06	443.5	147.51	128.32	43.913	6.8112e-06	53.913	0.00061291	0.000637	0.00017129	1465.4	6.8234e-06	6.9052e-06	1461.2	395.89	6.7047e-06	6.8057e-06	452.06	150.37	131.26	44.994	6.6895e-06	55.492	235.919	231.998	244.919	163.488	293.053	314.057	163.097	167.993	287.171	300.751	167.199	171.780	172.192	176.751	278.536	175.851	-8191	255	
25855.426	1	1	0	0	0.21255	0.079222	0.28491	0.09576	0.21374	0.37603	0.55832	0.26622	0.1346	0.17342	0.2964	0.26458	0.31185	0.19106	0.10459	0.26271	-2.275	-2.6625	-2.3771	-2.8479	-2.6208	-2.75	-2.9938	-2.7958	-2.7646	-2.8396	-2.6667	-2.9792	-2.7417	-2.7854	-2.85	-2.6896	171.172	196.051	509.622	207.640	369.206	338.476	463.766	459.467	420.474	399.320	391.396	452.236	466.329	461.827	439.339	174.299	0.00056591	0.00037588	0.00016998	1443.4	4.0445e-06	5.6772e-06	1441.4	389.25	5.222e-06	4.7911e-06	443.37	147.23	128.49	43.892	4.6418e-06	54.07	0.0006151	0.00062656	0.00016748	1467.2	6.811e-06	6.7544e-06	1462.2	396.28	6.6363e-06	6.6487e-06	451.67	150.55	131.28	45.073	6.6529e-06	55.627	236.933	232.788	236.638	163.344	302.983	292.585	163.125	168.024	280.431	330.219	167.518	171.470	172.324	176.834	285.733	175.893	-8191	255	
25855.521	1	1	0	0	0.22514	0.20031	0.084567	0.16333	0.26613	0.14735	0.17302	0.24505	0.27914	0.16639	0.036759	0.19071	0.24038	0.16649	0.26131	0.2753	-2.3646	-2.8208	-2.5187	-2.8604	-2.7208	-2.7833	-2.9958	-2.7812	-2.7292	-2.6333	-2.6646	-2.9813	-2.7833	-2.75	-2.9375	-2.6521	417.254	455.583	155.252	242.366	272.526	362.389	450.733	436.069	470.229	190.285	424.866	372.398	174.745	501.538	320.397	466.097	0.00055063	0.00042534	0.0001278	1448.3	4.4427e-06	6.3373e-06	1439.6	389.41	3.8391e-06	3.9025e-06	444.3	147.3	128.21	43.659	5.0137e-06	53.923	0.00060788	0.00060752	0.00016896	1465.2	6.6621e-06	6.5795e-06	1461.4	396.81	6.4784e-06	6.6413e-06	451.43	150.51	131.27	44.973	6.6376e-06	55.509	236.095	240.208	214.201	163.288	298.672	252.068	162.938	167.918	289.033	252.074	167.495	171.681	172.246	176.658	294.033	175.935	-8191	255	
25855.617	1	1	0	0	0.15534	0.13754	0.18138	0.21382	0.21116	0.15207	0.34157	0.42834	0.11963	0.33608	0.19286	0.26724	0.32236	0.21374	0.15571	0.062367	-2.2521	-2.7458	-2.3896	-2.9646	-2.6063	-2.4625	-3.0187	-2.9458	-2.4958	-2.8958	-2.7854	-2.8063	-2.8937	-2.7375	-2.9188	-2.7708	285.048	247.427	295.805	190.829	322.308	216.874	365.508	472.589	256.788	197.271	505.856	482.553	479.944	470.588	188.089	428.850	0.00052083	0.00034988	0.00019593	1434.4	4.5127e-06	6.3846e-06	1440.8	389.11	4.9808e-06	4.3154e-06	443.31	146.56	128.05	43.786	6.1682e-06	54.199	0.00059652	0.00059102	0.00017204	1466	6.815e-06	6.6994e-06	1463.6	396.37	6.8709e-06	6.879e-06	452.06	149.97	131.17	44.971	6.7653e-06	55.614	237.887	203.949	226.522	163.468	280.195	303.798	163.441	167.943	291.236	301.835	167.650	171.644	172.376	176.673	302.670	176.075	-8191	255	
25855.715	1	1	0	0	0.15256	0.14528	0.094729	0.1262	0.10629	0.2355	0.12747	0.31395	0.11108	0.1486	0.1544	0.17138	0.27392	0.035823	0.07487	0.239	-2.3396	-2.8125	-2.5875	-2.7604	-2.7562	-2.5854	-3.1521	-2.8021	-2.7021	-2.8125	-2.6667	-2.8417	-2.8	-2.6188	-2.7167	-2.8875	428.707	167.659	288.227	281.290	150.982	162.233	395.060	474.621	291.601	453.851	159.320	154.499	495.231	169.507	340.083	435.229	0.00053767	0.00034762	0.00013027	1443.9	6.0569e-06	5.9505e-06	1438.2	388.15	4.7051e-06	4.982e-06	444.24	147.5	128.39	44.079	6.9288e-06	54.023	0.00059124	0.00061425	0.00017158	1461.3	6.5842e-06	6.5286e-06	1461	396.02	6.5323e-06	6.8074e-06	452.61	150.46	131.33	45.074	6.6756e-06	55.576	237.736	255.399	238.014	163.390	299.587	319.913	163.231	168.048	282.779	280.879	167.277	171.672	171.916	176.876	306.158	176.120	-8191	255	
25855.811	1	1	0	0	0.21675	0.12342	0.22251	0.37925	0.28801	0.15839	0.42613	0.34023	0.099552	0.051778	0.069918	0.16699	0.31619	0.18256	0.13027	0.28939	-2.1521	-2.8104	-2.5271	-2.6771	-2.6625	-2.2042	-3.0938	-2.8354	-2.6333	-2.7354	-2.6667	-2.8271	-2.8979	-2.5854	-2.7104	-2.7625	405.081	154.916	362.176	435.678	372.323	448.487	462.314	418.348	453.032	504.984	378.446	163.911	491.656	428.349	194.854	175.992	0.00056587	0.00078228	0.00012745	1438.4	2.9445e-06	5.6862e-06	1441.5	389.77	4.5921e-06	4.0602e-06	442.14	146.95	128.56	43.652	6.0154e-06	54.099	0.00059233	0.00062285	0.00016651	1466.2	6.4383e-06	6.589e-06	1462.7	396.91	6.4741e-06	6.6681e-06	451.69	150.17	131.16	44.976	6.6342e-06	55.582	237.158	221.090	230.770	163.549	280.443	291.884	163.056	167.846	314.519	306.850	167.563	171.894	172.196	176.783	302.292	176.215	-8191	255	
25855.930	1	1	0	0	0.084277	0.10605	0.17952	0.27439	0.17627	0.091902	0.16194	0.086122	0.15314	0.21915	0.11386	0.33052	0.18402	0.031992	0.032833	0.056924	-2.3208	-2.8208	-2.5938	-2.5458	-2.8063	-2.5479	-2.9979	-3.0083	-2.6854	-2.8688	-2.7333	-2.6562	-2.9729	-2.7833	-2.7687	-2.9625	305.616	325.301	320.890	195.060	282.146	321.691	388.374	498.254	246.721	309.967	162.480	499.541	465.195	259.243	306.570	212.135	0.00058248	0.0003658	0.00018773	1446.5	5.4655e-06	5.0216e-06	1439.6	387.66	5.7736e-06	5.1249e-06	441.35	146.97	129	43.862	7.0498e-06	53.941	0.00059649	0.00060011	0.00016633	1462.6	6.4412e-06	6.5131e-06	1462.7	395.75	6.4786e-06	6.6671e-06	451.52	150.58	131.43	45.093	6.7737e-06	55.591	236.865	215.688	259.407	163.542	310.918	319.307	163.242	167.860	288.386	307.859	167.308	171.703	172.233	176.882	308.695	175.965	-8191	255	
25856.025	1	1	0	0	0.15769	0.151	0.23449	0.14057	0.1787	0.070272	0.46113	0.34406	0.28889	0.076826	0.19615	0.15561	0.14835	0.25201	0.086879	0.16565	-2.1333	-2.8896	-2.7562	-2.775	-2.8438	-2.5687	-3.0854	-2.95	-2.5146	-3.0521	-2.8729	-2.7521	-3.0542	-2.7562	-2.8083	-2.8208	488.324	283.975	478.046	436.849	241.999	192.963	466.144	439.626	158.907	441.032	177.127	484.407	306.015	151.250	502.128	189.036	0.00051959	0.00071463	0.00020963	1444.5	4.3308e-06	5.0025e-06	1445.7	389.54	4.402e-06	4.6174e-06	444.69	146.43	128.17	43.771	5.0952e-06	54.071	0.00058659	0.0006081	0.00016911	1466.3	6.6061e-06	6.5416e-06	1465.2	396.56	6.4531e-06	6.6452e-06	453.09	150.51	131.42	45.056	6.6851e-06	55.715	236.721	252.768	230.224	163.405	318.755	280.621	163.198	168.068	283.685	300.175	167.377	171.600	172.149	176.777	315.829	176.252	-8191	255	
25856.098	1	1	0	0	0.11094	0.16035	0.07692	0.12628	0.1089	0.30576	0.37881	0.21156	0.068349	0.063927	0.24201	0.3489	0.16813	0.23859	0.13541	0.24601	-2.0458	-2.9354	-2.6229	-2.6583	-2.8812	-2.75	-3.125	-2.9437	-2.7375	-2.8292	-2.975	-2.6542	-3.0229	-2.775	-2.5292	-3.2438	168.550	441.336	369.502	457.343	301.722	310.266	430.955	151.372	208.721	459.132	152.223	463.885	501.147	452.165	427.098	427.041	0.00056175	0.00045532	0.00012096	1445.3	4.2714e-06	6.4857e-06	1444.8	391.26	4.4622e-06	6.1051e-06	444.43	146.94	128.39	44.034	5.8705e-06	54.121	0.00059176	0.00060952	0.00016655	1465.6	6.6639e-06	6.6713e-06	1465.1	397.3	6.5458e-06	6.6339e-06	452.74	150.46	131.46	45.166	6.6174e-06	55.621	235.438	226.353	235.902	163.228	305.683	296.079	163.242	167.963	279.082	320.020	167.508	171.799	172.268	176.814	302.794	176.004	-8191	255	
25856.193	1	1	0	0	0.088671	0.21304	0.077808	0.10759	0.082699	0.19269	0.054289	0.15624	0.1138	0.3262	0.30881	0.082116	0.24804	0.24499	0.068104	0.21928	-2.1271	-2.7229	-2.7562	-2.5542	-2.6521	-2.7604	-2.9083	-3.2542	-2.6875	-2.8063	-2.9813	-2.6021	-2.9458	-2.8187	-2.5833	-2.9188	487.476	209.457	417.612	210.766	331.050	424.639	407.062	377.208	461.577	354.423	407.833	271.653	408.458	185.365	292.213	483.675	0.00054662	0.00048363	0.00013984	1455.7	3.0237e-06	7.6406e-06	1447.6	389.13	6.2715e-06	5.7139e-06	444.93	146.89	128.87	43.895	3.7812e-06	54.385	0.00059408	0.00060727	0.00016234	1466.6	6.55e-06	6.6287e-06	1464.9	396.93	6.3892e-06	6.5052e-06	453.02	150.66	131.72	45.144	6.3555e-06	55.74	237.455	241.257	241.656	163.134	325.900	293.048	163.080	167.741	303.874	291.568	167.489	171.535	172.242	176.818	311.540	175.887	-8191	255	
25856.314	1	1	0	0	0.22689	0.16941	0.14885	0.10223	0.098679	0.51645	0.49738	0.29179	0.13348	0.028179	0.22903	0.21516	0.21331	0.23925	0.11554	0.07513	-1.9667	-2.4875	-2.8042	-2.6042	-2.8729	-2.5812	-2.7083	-3.0563	-2.55	-2.8271	-3.0521	-2.8333	-3.0687	-2.7625	-2.6854	-3.1417	339.682	300.175	254.926	472.908	472.732	480.086	431.086	468.988	172.424	301.809	442.401	462.449	201.455	420.159	159.337	168.846	0.0005309	0.00065217	0.00015699	1446.3	4.9614e-06	5.227e-06	1442.9	389.75	4.5278e-06	6.3533e-06	445.92	147.82	128.74	43.78	6.4398e-06	54.384	0.00058623	0.00060388	0.00016427	1467.5	6.5025e-06	6.6507e-06	1464.8	396.78	6.3619e-06	6.6341e-06	452.88	150.67	131.62	45.088	6.6325e-06	55.785	237.530	256.499	241.974	163.119	293.465	306.650	163.295	168.182	302.676	317.149	167.365	171.750	172.006	176.721	305.056	176.231	-8191	255	
25856.410	1	1	0	0	0.023065	0.068864	0.13445	0.08047	0.21993	0.2031	0.42486	0.25748	0.092296	0.26945	0.14212	0.20086	0.13813	0.35213	0.14531	0.032379	-1.9979	-2.5646	-2.7167	-2.6542	-2.7313	-2.8479	-2.8625	-3.0458	-2.6083	-2.6167	-3.0062	-2.7021	-3.1271	-2.9	-2.5167	-2.8812	364.733	262.959	425.123	437.165	391.708	496.379	464.804	469.482	189.117	347.127	215.237	167.827	424.447	465.026	160.220	381.401	0.00053824	0.00043854	0.00021588	1443.1	5.1594e-06	6.1008e-06	1442.6	390.41	5.9921e-06	6.7714e-06	442.97	147.11	128.52	43.998	7.2663e-06	54.096	0.0005847	0.00060821	0.00016535	1466.4	6.6297e-06	6.4595e-06	1464	397.7	6.4572e-06	6.5107e-06	452.89	150.8	131.38	45.147	6.5174e-06	55.684	236.323	209.037	246.919	163.486	294.085	293.031	163.150	167.869	305.656	311.430	167.212	171.753	172.277	176.986	307.503	176.140	-8191	255	
25856.506	1	1	0	0	0.24566	0.14092	0.059681	0.41156	0.17367	0.26481	0.20249	0.11987	0.043223	0.22734	0.040833	0.042007	0.43062	0.21733	0.19881	0.14399	-2.2792	-2.5479	-2.8771	-2.5312	-2.5354	-2.8042	-2.8312	-2.9729	-2.6458	-2.45	-3.0104	-2.4292	-2.7417	-2.7354	-2.4083	-3.1021	322.208	336.111	468.145	415.629	306.638	170.908	450.565	471.062	259.154	400.847	178.959	331.228	166.777	485.470	207.065	169.009	0.00053661	0.0005434	0.00016044	1446.2	4.0056e-06	4.8752e-06	1443.6	388.3	4.1645e-06	5.7355e-06	443.82	147.95	128.21	44.083	6.1344e-06	54.368	0.00059604	0.00060088	0.00016744	1467.7	6.6588e-06	6.5795e-06	1463.7	396.61	6.5395e-06	6.5777e-06	453.32	150.75	131.33	45.163	6.5552e-06	55.725	238.414	243.929	219.843	163.275	281.214	306.080	163.165	168.111	277.785	312.295	167.364	171.535	172.145	176.748	304.196	176.133	-8191	255	
25856.602	1	1	0	0	0.15769	0.12891	0.19494	0.084955	0.088842	0.26063	0.18441	0.30587	0.16847	0.38801	0.16835	0.261	0.21952	0.096169	0.022264	0.18433	-2.3354	-2.6104	-2.9562	-2.7104	-2.6146	-2.6646	-2.8521	-2.9354	-2.7104	-2.5	-3.1104	-2.8083	-2.9104	-2.9625	-2.6125	-3.0354	303.932	316.722	257.266	337.191	302.427	371.779	400.471	434.510	220.627	460.885	430.088	433.603	425.630	378.875	431.364	485.733	0.00054311	0.00060859	0.00016038	1450	5.977e-06	4.4089e-06	1443.6	390.19	5.4077e-06	4.8756e-06	443.56	146.96	128.6	43.933	6.5387e-06	54.244	0.00060069	0.00060256	0.00016935	1469.6	6.6578e-06	6.6403e-06	1463.7	397.07	6.6621e-06	6.6221e-06	452.65	150.74	131.62	45.064	6.5443e-06	55.72	236.614	258.533	219.938	163.174	291.515	298.767	163.221	167.927	281.540	303.985	167.337	171.528	172.079	176.833	296.603	176.162	-8191	255	
25856.723	1	1	0	0	0.1018	0.18195	0.12411	0.20659	0.17324	0.22362	0.28564	0.16999	0.26487	0.10013	0.20705	0.34153	0.066802	0.19933	0.067464	0.14927	-2.3063	-2.4271	-2.8542	-2.7333	-2.5792	-2.7646	-2.8688	-2.9604	-2.7062	-2.4458	-3.0104	-2.7521	-2.9	-3.1688	-2.5833	-2.9604	270.641	293.696	193.193	180.857	399.921	223.885	484.498	508.620	396.435	349.145	170.977	489.476	465.533	426.578	387.429	434.104	0.00053149	0.0005017	0.00012436	1445.9	6.0768e-06	6.0149e-06	1444.3	389.39	6.1654e-06	3.7917e-06	445.11	147.12	128.23	43.758	6.1302e-06	54.04	0.00058708	0.0005905	0.00016682	1467.6	6.6025e-06	6.6486e-06	1466.5	396.48	6.4561e-06	6.6655e-06	452.85	150.52	131.38	45.034	6.5618e-06	55.676	235.771	237.862	232.057	163.233	302.915	318.456	163.241	167.933	307.297	291.602	167.139	171.646	172.179	176.730	317.593	176.406	-8191	255	
25856.795	1	1	0	0	0.06888	0.16522	0.16683	0.073959	0.26679	0.076952	0.33917	0.2482	0.14462	0.084738	0.11932	0.16604	0.14954	0.31674	0.16705	0.12581	-2.2687	-2.6271	-2.8583	-2.8646	-2.7042	-2.8875	-2.9542	-2.9938	-2.7938	-2.5083	-3.0583	-2.7167	-2.5563	-2.8708	-2.4792	-2.7938	443.058	236.888	159.749	460.906	368.642	409.058	476.629	489.533	423.336	265.816	374.325	469.457	478.221	487.452	356.665	442.851	0.00054111	0.00072061	0.00013826	1449.6	4.4317e-06	6.8493e-06	1445.7	389.89	4.752e-06	6.4721e-06	445.44	147.07	128.53	44.157	6.2576e-06	54.157	0.0005946	0.00058977	0.00016615	1468.9	6.5536e-06	6.7182e-06	1466.9	396.82	6.3941e-06	6.605e-06	453.4	150.68	131.57	45.253	6.5869e-06	55.769	236.510	224.181	238.912	163.308	326.407	304.826	163.324	168.088	310.784	298.468	167.381	171.578	172.177	176.801	310.978	176.023	-8191	255	
25856.914	1	1	0	0	0.32962	0.34727	0.073004	0.080445	0.092888	0.1372	0.3512	0.25411	0.12269	0.23531	0.21721	0.13146	0.087878	0.10703	0.076159	0.27117	-2.3125	-2.3729	-2.7896	-2.8563	-2.6437	-2.8	-2.8208	-2.7812	-2.7229	-2.5	-2.9625	-2.7771	-2.7646	-3.1292	-2.8229	-2.675	270.529	236.131	402.812	443.826	499.158	338.297	459.751	417.812	465.208	234.861	212.689	449.609	476.417	415.198	170.479	376.460	0.0005766	0.00052801	0.00012508	1455	5.8749e-06	3.533e-06	1445.7	390.8	5.9406e-06	6.7153e-06	444.88	146.58	128.62	44.075	4.5229e-06	54.455	0.00060581	0.00059144	0.00016892	1470.3	6.7855e-06	6.6642e-06	1468.1	397.32	6.8169e-06	6.8783e-06	453.6	150.91	131.73	45.261	6.8859e-06	55.897	235.407	228.136	226.465	163.175	300.322	311.855	163.182	167.879	297.337	292.450	167.313	171.689	172.152	176.604	304.672	175.981	-8191	255	
25857.010	1	1	0	0	0.29833	0.18511	0.098916	0.18165	0.29317	0.16185	0.26483	0.21103	0.13267	0.04726	0.26293	0.22747	0.1096	0.46543	0.35002	0.30849	-2.6479	-2.5812	-2.6042	-2.675	-2.5646	-2.8187	-2.9875	-2.7667	-2.7	-2.7271	-2.9854	-2.9896	-2.8271	-2.9146	-2.6542	-2.6937	287.227	277.864	336.405	226.556	226.823	397.426	436.276	502.035	479.605	394.820	442.734	496.191	441.672	489.946	285.843	463.154	0.00056848	0.0005195	9.6106e-05	1457.4	4.7272e-06	5.8692e-06	1448.4	391.43	4.6603e-06	2.975e-06	446.56	147.35	128.15	43.987	3.9611e-06	54.352	0.00061726	0.00062596	0.00017624	1472.1	7.09e-06	7.1092e-06	1469.4	397.77	6.8232e-06	7.0065e-06	454.65	150.84	131.41	45.165	6.9023e-06	55.787	238.018	252.798	229.935	163.414	295.256	282.633	163.016	167.844	313.974	253.655	167.339	171.498	172.140	176.806	302.002	176.106	-8191	255	
25857.105	1	1	0	0	0.18226	0.1492	0.1991	0.16084	0.091444	0.14589	0.20879	0.19479	0.10825	0.0935	0.10171	0.25858	0.34233	0.24644	0.17423	0.36116	-2.4458	-2.7125	-2.6167	-2.8771	-2.7333	-2.7917	-3.0979	-2.7167	-3.1021	-2.7292	-2.9125	-2.925	-2.7313	-2.8979	-2.7375	-2.7042	438.426	272.216	370.889	289.500	243.558	217.027	442.765	452.450	487.706	266.090	385.433	161.507	450.964	430.634	262.348	369.242	0.0005423	0.00046612	0.0001755	1455.5	4.3169e-06	6.9391e-06	1448.2	391.72	6.5125e-06	5.0574e-06	445.49	146.68	128.74	43.916	5.941e-06	54.397	0.00062573	0.00063364	0.0001749	1473.7	6.7977e-06	7.0122e-06	1469.3	397.91	6.909e-06	7.0183e-06	453.97	150.65	131.83	45.188	6.8333e-06	55.859	237.030	251.907	230.225	163.155	255.692	322.083	163.269	167.746	303.836	304.478	167.203	171.618	172.312	176.815	300.664	176.274	-8191	255	
25857.201	1	1	0	0	0.23324	0.1569	0.2143	0.16391	0.16616	0.086954	0.37592	0.12262	0.13969	0.20543	0.074828	0.22347	0.32842	0.16796	0.20414	0.042195	-2.4042	-2.5563	-2.7125	-2.8583	-2.5812	-2.9271	-2.9292	-2.5896	-2.8	-2.7208	-2.7104	-2.9229	-2.55	-2.8646	-2.7083	-2.6583	345.814	411.752	370.866	445.921	483.798	191.369	464.645	350.903	463.424	377.387	319.755	484.610	496.572	193.919	367.298	482.244	0.00056377	0.00058246	0.00017415	1454.9	4.9672e-06	6.4794e-06	1453.4	391.94	4.7822e-06	6.0721e-06	445.48	147.22	128.35	43.963	5.1521e-06	54.102	0.00063734	0.00063556	0.00018126	1472.3	7.0447e-06	7.0983e-06	1472	398.6	7.0153e-06	7.028e-06	454.4	151.02	131.79	45.191	6.9052e-06	55.87	235.706	247.223	223.432	163.433	313.273	293.804	163.275	167.867	311.307	318.322	167.248	171.760	172.261	176.738	310.304	176.177	-8191	255	
25857.322	1	1	0	0	0.15542	0.23041	0.097323	0.19225	0.2187	0.044935	0.23434	0.18065	0.073756	0.17055	0.24067	0.11705	0.23415	0.32984	0.02012	0.088257	-2.5333	-2.5167	-2.5979	-2.9542	-2.5854	-2.6292	-3.1375	-2.7875	-2.7979	-2.6854	-2.9104	-3.0208	-2.6083	-2.8146	-2.9479	-2.6813	457.694	282.098	331.909	505.293	198.117	223.455	393.987	160.102	312.253	273.380	434.321	177.289	360.874	507.907	462.032	496.145	0.00056276	0.0002694	9.9549e-05	1459.9	4.1115e-06	3.2991e-06	1446.5	391.15	5.1211e-06	1.2585e-06	447.25	147.21	129.16	44.006	3.789e-06	54.505	0.00062434	0.0006285	0.00017661	1479.8	6.9116e-06	6.9593e-06	1471	398.23	6.9976e-06	6.9286e-06	454.81	150.97	131.96	45.228	6.8177e-06	55.926	236.664	212.823	223.653	163.467	303.483	281.330	163.162	167.915	308.401	251.579	167.337	171.632	172.074	176.998	312.514	175.926	-8191	255	
25857.395	1	1	0	0	0.26895	0.24959	0.35719	0.10905	0.27104	0.31602	0.27073	0.22698	0.31318	0.0733	0.21024	0.22674	0.1577	0.073714	0.23577	0.15531	-2.4313	-2.6562	-2.4458	-2.8542	-2.6271	-2.775	-3.075	-2.7792	-2.8458	-2.7771	-2.45	-2.8896	-2.6083	-2.65	-2.9104	-2.5542	467.925	200.167	180.110	506.838	398.934	438.540	487.968	479.807	204.930	240.185	202.344	477.739	170.255	363.730	451.088	163.598	0.00051044	0.00045879	0.00012827	1451.4	5.7074e-06	4.5067e-06	1452.9	392.51	4.8102e-06	7.9579e-06	445.23	147.63	128.42	44.018	6.0306e-06	54.089	0.00062632	0.00062131	0.00018069	1474.1	6.9078e-06	6.9226e-06	1471.6	399.06	7.0353e-06	6.8704e-06	454.27	151.18	131.8	45.21	6.9494e-06	55.795	237.442	271.157	247.599	163.141	303.501	297.480	163.248	167.857	299.165	298.513	167.371	171.743	172.215	176.658	288.167	175.925	-8191	255	
25857.490	1	1	0	0	0.099712	0.12813	0.30763	0.18349	0.23637	0.1526	0.28348	0.17501	0.10706	0.11915	0.15572	0.092655	0.23978	0.20838	0.10755	0.10177	-2.3583	-2.6396	-2.3833	-2.975	-2.6646	-2.65	-3.0917	-2.8042	-2.7479	-2.8667	-2.7062	-2.9875	-2.9042	-2.5625	-2.9083	-2.7958	484.454	291.334	262.961	360.442	161.509	176.986	364.184	433.188	362.788	198.198	488.400	409.168	476.595	450.321	304.455	220.524	0.00052036	0.00052031	5.1114e-05	1449.2	2.9449e-06	3.9686e-06	1450.6	391.13	6.0659e-06	6.0599e-06	445.75	147.41	128.82	43.934	5.4269e-06	54.223	0.00061916	0.00062281	0.00017261	1475.5	6.9064e-06	6.889e-06	1470.4	398.1	6.9997e-06	6.9721e-06	455.03	151.1	131.89	45.173	6.8788e-06	55.863	235.185	267.096	255.390	163.500	324.011	281.439	163.234	167.859	300.258	283.861	167.109	171.685	172.116	176.802	295.228	176.037	-8191	255	
25857.586	1	1	0	0	0.32992	0.12378	0.13893	0.10518	0.053414	0.10379	0.34536	0.31242	0.14494	0.31103	0.12808	0.19966	0.11137	0.044226	0.092271	0.28687	-2.2521	-2.7771	-2.3771	-2.7542	-2.6333	-2.5729	-3.0771	-2.8063	-2.5312	-2.7604	-2.6042	-2.9167	-2.8187	-2.6771	-2.9062	-2.6771	381.856	438.523	319.671	388.214	182.300	311.410	427.315	481.785	192.782	386.869	453.627	423.509	185.175	255.830	160.738	468.849	0.00049831	0.00063312	0.0002269	1447.8	4.9077e-06	7.3782e-06	1452.6	391.49	4.7119e-06	1.7333e-06	444.29	147.16	129.2	43.917	6.5673e-06	54.382	0.00061051	0.00062962	0.00017326	1473.1	6.7569e-06	7.0403e-06	1471.9	398.78	6.7656e-06	6.7725e-06	453.64	150.91	132.01	45.185	6.9299e-06	55.939	234.441	230.847	233.421	163.530	292.442	306.478	163.003	167.844	305.505	296.171	167.655	171.566	172.038	176.869	317.560	175.955	-8191	255	
25857.707	1	1	0	0	0.23097	0.18847	0.19834	0.36487	0.2489	0.1481	0.27861	0.086483	0.30151	0.11482	0.33859	0.26636	0.094402	0.15152	0.051328	0.31039	-2.1312	-2.85	-2.4646	-2.7542	-2.6	-2.9021	-3.1396	-2.9958	-2.5062	-2.8396	-2.7042	-2.9625	-3.1042	-2.5854	-2.8042	-2.8771	339.167	222.344	172.496	482.681	218.695	487.737	450.589	453.284	239.304	331.717	150.101	458.383	247.257	193.586	489.353	434.475	0.00054001	0.00048152	9.991e-05	1453.1	3.8855e-06	3.8991e-06	1454	390.08	5.3333e-06	4.6475e-06	448.22	148.16	129.2	43.956	6.7041e-06	54.229	0.0006136	0.00060146	0.00017108	1472.7	6.752e-06	6.7066e-06	1471.4	398.09	6.6584e-06	6.7011e-06	455.3	151.37	132.13	45.246	6.9332e-06	55.904	236.894	217.642	240.615	163.261	303.415	284.559	163.025	167.938	301.611	287.764	167.495	171.678	172.194	176.647	296.400	175.901	-8191	255	
25857.803	1	1	0	0	0.13558	0.10611	0.090483	0.18174	0.059555	0.21454	0.40858	0.19151	0.28103	0.13758	0.26518	0.31269	0.1753	0.053794	0.13015	0.055281	-2.0417	-2.9062	-2.3979	-2.8063	-2.8187	-2.5417	-3.1688	-2.8896	-2.6792	-2.7812	-2.6271	-2.7708	-2.9229	-2.5458	-2.9167	-2.8063	227.610	184.192	202.633	419.303	504.063	412.253	418.567	423.946	364.487	346.545	461.855	501.956	453.001	156.448	213.309	174.423	0.00049959	0.0004584	0.00014684	1446.5	3.6665e-06	9.0847e-06	1449	390.22	3.2437e-06	3.7699e-06	446.73	147.42	128.71	44.007	4.532e-06	54.468	0.00061109	0.00063921	0.00017191	1472.4	6.8546e-06	6.7746e-06	1470.7	397.82	6.7639e-06	6.7445e-06	454.61	151.1	131.86	45.289	6.8668e-06	55.944	235.023	244.773	239.382	163.573	308.054	312.900	163.057	167.952	314.479	277.767	167.063	171.666	172.473	176.717	324.727	175.930	-8191	255	
#DATA ENDS
