BOXY.EXE: ISS Imagent and Oximeter Data Acquisition Program Version 0.80
Ascii Record File

#ACQ INFORMATION
2  Detector Channels 
16  External MUX Channels 
1  Auxiliary Channels 
5000  Waveform (CCF) Frequency (Hz)
1  Waveforms Skipped 
30  Waveforms Averaged 
1  Cycles Averaged 
16  Acquisitions per Waveform 
10.0806  Updata Rate (Hz) 

#FILE INFORMATION
TRUE -- External MUX Channel results are PARSED.
FALSE -- AC DC and Phase are NOT grouped.
TRUE -- Companion Program Settings File CREATED.
FALSE -- AC data not excluded
FALSE -- DC data not excluded
FALSE -- Phase data not excluded
FALSE -- Auxillary Chn. data not excluded
Tab delimiters

#CALIBRATION STATE
TRUE -- Waveform Calibration Values APPLIED.


#AUX CALIBRATION VALUES
Val Type	aux-1	

Term	1.0000e+00	
Factor	0.0000e+00	


#WF CALIBRATION VALUES
A = Detector Channel
Val Type	A-AC1	A-AC2	A-AC3	A-AC4	A-AC5	A-AC6	A-AC7	A-AC8	A-AC9	A-AC10	A-AC11	A-AC12	A-AC13	A-AC14	A-AC15	A-AC16	A-DC1	A-DC2	A-DC3	A-DC4	A-DC5	A-DC6	A-DC7	A-DC8	A-DC9	A-DC10	A-DC11	A-DC12	A-DC13	A-DC14	A-DC15	A-DC16	A-Ph1	A-Ph2	A-Ph3	A-Ph4	A-Ph5	A-Ph6	A-Ph7	A-Ph8	A-Ph9	A-Ph10	A-Ph11	A-Ph12	A-Ph13	A-Ph14	A-Ph15	A-Ph16	

Term	0.00000e+00	0.00000e+00	0.00000e+00	0.00000e+00	0.00000e+00	0.00000e+00	0.00000e+00	0.00000e+00	0.00000e+00	0.00000e+00	0.00000e+00	0.00000e+00	0.00000e+00	0.00000e+00	0.00000e+00	0.00000e+00	0.00000e+00	0.00000e+00	0.00000e+00	0.00000e+00	0.00000e+00	0.00000e+00	0.00000e+00	0.00000e+00	0.00000e+00	0.00000e+00	0.00000e+00	0.00000e+00	0.00000e+00	0.00000e+00	0.00000e+00	0.00000e+00	0.00000e+00	0.00000e+00	0.00000e+00	0.00000e+00	0.00000e+00	0.00000e+00	0.00000e+00	0.00000e+00	0.00000e+00	0.00000e+00	0.00000e+00	0.00000e+00	0.00000e+00	0.00000e+00	0.00000e+00	0.00000e+00	
Factor	1.00000e+00	1.00000e+00	1.00000e+00	1.00000e+00	1.00000e+00	1.00000e+00	1.00000e+00	1.00000e+00	1.00000e+00	1.00000e+00	1.00000e+00	1.00000e+00	1.00000e+00	1.00000e+00	1.00000e+00	1.00000e+00	1.00000e+00	1.00000e+00	1.00000e+00	1.00000e+00	1.00000e+00	1.00000e+00	1.00000e+00	1.00000e+00	1.00000e+00	1.00000e+00	1.00000e+00	1.00000e+00	1.00000e+00	1.00000e+00	1.00000e+00	1.00000e+00	X	X	X	X	X	X	X	X	X	X	X	X	X	X	X	X	

B = Detector Channel
Val Type	B-AC1	B-AC2	B-AC3	B-AC4	B-AC5	B-AC6	B-AC7	B-AC8	B-AC9	B-AC10	B-AC11	B-AC12	B-AC13	B-AC14	B-AC15	B-AC16	B-DC1	B-DC2	B-DC3	B-DC4	B-DC5	B-DC6	B-DC7	B-DC8	B-DC9	B-DC10	B-DC11	B-DC12	B-DC13	B-DC14	B-DC15	B-DC16	B-Ph1	B-Ph2	B-Ph3	B-Ph4	B-Ph5	B-Ph6	B-Ph7	B-Ph8	B-Ph9	B-Ph10	B-Ph11	B-Ph12	B-Ph13	B-Ph14	B-Ph15	B-Ph16	

Term	0.00000e+00	0.00000e+00	0.00000e+00	0.00000e+00	0.00000e+00	0.00000e+00	0.00000e+00	0.00000e+00	0.00000e+00	0.00000e+00	0.00000e+00	0.00000e+00	0.00000e+00	0.00000e+00	0.00000e+00	0.00000e+00	0.00000e+00	0.00000e+00	0.00000e+00	0.00000e+00	0.00000e+00	0.00000e+00	0.00000e+00	0.00000e+00	0.00000e+00	0.00000e+00	0.00000e+00	0.00000e+00	0.00000e+00	0.00000e+00	0.00000e+00	0.00000e+00	-6.15763e+01	-1.30411e+02	-1.24549e+02	-1.82143e+02	-5.62854e+01	-6.13144e+01	-1.55749e+02	-1.62015e+02	-4.36545e+01	-5.84641e+01	-1.71172e+02	-1.71176e+02	-1.81653e+02	-1.77264e+02	-5.75505e+01	-1.50260e+02	
Factor	1.84335e-05	1.52056e-04	4.43642e-05	4.71444e-01	1.63633e-06	1.83727e-06	1.70005e-01	5.70259e-02	1.24874e-06	1.86029e-06	9.06459e-02	2.89522e-02	2.44098e-02	8.74298e-03	1.46882e-06	1.28138e-02	7.07437e-06	9.43660e-06	2.63415e-06	2.38107e-01	1.02249e-07	1.04931e-07	8.15064e-02	2.91262e-02	9.98385e-08	1.04856e-07	4.47650e-02	1.44068e-02	1.26248e-02	4.50497e-03	1.02288e-07	6.38331e-03	X	X	X	X	X	X	X	X	X	X	X	X	X	X	X	X	



#DISTANCE SETTINGS
A = Detector Channel
A-1	A-2	A-3	A-4	A-5	A-6	A-7	A-8	A-9	A-10	A-11	A-12	A-13	A-14	A-15	A-16	

2.5000e+00	3.0000e+00	2.5000e+00	3.0000e+00	2.0000e+00	3.0000e+00	1.5000e+00	3.0000e+00	3.0000e+00	3.0000e+00	3.0000e+00	3.0000e+00	3.0000e+00	3.0000e+00	1.5000e+00	3.0000e+00	

B = Detector Channel
B-1	B-2	B-3	B-4	B-5	B-6	B-7	B-8	B-9	B-10	B-11	B-12	B-13	B-14	B-15	B-16	

1.0000e+01	1.0000e+01	1.0000e+01	1.4400e+00	1.0000e+01	1.0000e+01	1.5100e+00	1.9400e+00	1.0000e+01	1.0000e+01	1.9900e+00	2.4900e+00	2.4100e+00	2.9000e+00	1.0000e+01	2.9800e+00	




#DATA BEGINS
time	group	step	mark	flag	A-AC1	A-AC2	A-AC3	A-AC4	A-AC5	A-AC6	A-AC7	A-AC8	A-AC9	A-AC10	A-AC11	A-AC12	A-AC13	A-AC14	A-AC15	A-AC16	A-DC1	A-DC2	A-DC3	A-DC4	A-DC5	A-DC6	A-DC7	A-DC8	A-DC9	A-DC10	A-DC11	A-DC12	A-DC13	A-DC14	A-DC15	A-DC16	A-Ph1	A-Ph2	A-Ph3	A-Ph4	A-Ph5	A-Ph6	A-Ph7	A-Ph8	A-Ph9	A-Ph10	A-Ph11	A-Ph12	A-Ph13	A-Ph14	A-Ph15	A-Ph16	B-AC1	B-AC2	B-AC3	B-AC4	B-AC5	B-AC6	B-AC7	B-AC8	B-AC9	B-AC10	B-AC11	B-AC12	B-AC13	B-AC14	B-AC15	B-AC16	B-DC1	B-DC2	B-DC3	B-DC4	B-DC5	B-DC6	B-DC7	B-DC8	B-DC9	B-DC10	B-DC11	B-DC12	B-DC13	B-DC14	B-DC15	B-DC16	B-Ph1	B-Ph2	B-Ph3	B-Ph4	B-Ph5	B-Ph6	B-Ph7	B-Ph8	B-Ph9	B-Ph10	B-Ph11	B-Ph12	B-Ph13	B-Ph14	B-Ph15	B-Ph16	aux-1	digaux	

18434.105	1	1	0	768	0.13133	0.19838	0.10737	0.14194	0.057163	0.0922	0.32281	0.13343	0.1181	0.26661	0.13004	0.019526	0.25152	0.069304	0.21644	0.046326	-2.6542	-2.6437	-2.6021	-3.1	-2.5875	-2.8625	-3.025	-2.5875	-2.7875	-2.825	-2.7062	-3.1688	-2.7938	-2.725	-2.7458	-2.7542	469.698	328.838	411.213	448.121	331.387	416.725	486.616	497.655	383.129	313.242	452.601	292.129	485.649	356.924	294.044	443.672	0.00065924	0.00075779	0.00065038	802.84	7.4827e-06	1.5486e-05	1426.5	192.08	9.3773e-06	2.7085e-05	502.54	166.04	49.532	18.8	1.3641e-05	79.635	0.0068706	0.0087049	0.0023711	897.69	0.00010305	9.1617e-05	1296	187.66	8.3351e-05	8.9052e-05	467.85	155.22	52.34	19.473	9.3987e-05	73.915	265.146	313.145	286.309	177.095	206.247	276.689	177.412	182.074	377.894	392.088	182.120	187.947	186.191	191.039	263.973	190.907	-8191	255	
18434.201	1	1	0	0	0.13564	0.057739	0.21463	0.12028	0.30336	0.057376	0.12881	0.188	0.041946	0.049932	0.43784	0.26405	0.20165	0.025135	0.16559	0.16834	-2.4125	-2.6688	-2.6417	-2.8854	-2.6896	-2.8354	-3.1396	-2.6312	-2.7292	-2.8167	-2.4917	-3.0521	-2.7	-2.6167	-2.9646	-2.7104	492.857	298.306	482.836	225.127	215.756	339.790	400.880	407.446	465.970	204.187	493.587	257.448	235.691	309.665	164.799	405.590	0.00081617	0.0012171	0.00052405	850.69	1.1675e-05	1.1409e-05	1501.2	206.32	4.5395e-06	3.1774e-05	533.76	177.79	54.717	20.586	5.9435e-06	84.352	0.0052987	0.0066473	0.0018089	888.3	7.2244e-05	6.8313e-05	1339.6	193.19	6.128e-05	7.8308e-05	482.57	162.25	53.688	20.164	5.7922e-05	76.604	259.887	165.987	261.803	176.471	428.609	319.895	177.616	181.828	387.072	482.909	182.005	187.668	186.549	190.372	320.958	190.519	-8191	255	
18434.297	1	1	0	0	0.26686	0.25894	0.18605	0.17019	0.2246	0.1035	0.33362	0.1678	0.072285	0.071224	0.37914	0.20817	0.067249	0.098912	0.06219	0.2762	-2.4667	-2.8729	-2.5917	-2.9188	-2.7042	-2.6792	-3.0187	-2.7104	-2.8667	-2.8021	-2.6104	-2.8667	-2.775	-2.7188	-2.9896	-2.8083	346.881	523.626	269.029	289.990	404.181	317.178	428.063	407.268	416.760	376.287	514.998	482.217	271.157	274.547	250.209	430.324	0.0008731	0.0012225	0.00017945	887.8	4.6834e-06	1.0797e-05	1546.7	210.93	6.6851e-06	7.5729e-06	542.42	182.88	57.247	21.067	1.8908e-05	85.213	0.0039625	0.004893	0.0013352	882.14	6.8859e-05	5.363e-05	1371.2	195.78	5.1365e-05	5.7651e-05	489.63	165.55	55.009	20.469	5.0549e-05	78.029	271.651	180.748	345.059	177.451	299.545	391.416	177.394	182.013	301.997	191.774	182.339	187.399	186.228	190.962	336.603	190.667	-8191	255	
18434.393	1	1	0	0	0.31979	0.26124	0.28949	0.0031972	0.10895	0.092025	0.25724	0.085214	0.21185	0.092355	0.079535	0.37256	0.14755	0.071992	0.2285	0.42548	-2.2625	-2.7854	-2.5187	-2.9208	-2.7583	-2.6	-3.1375	-2.7042	-2.8333	-2.8937	-2.5875	-2.8479	-2.9313	-2.5792	-2.8354	-2.9479	445.675	384.148	431.465	318.773	363.376	190.428	475.278	373.077	463.119	290.306	339.947	171.216	270.698	347.393	320.176	518.137	0.00078435	0.001901	8.2474e-05	903.86	8.1473e-06	9.0837e-06	1553.8	210.92	5.8602e-06	2.3913e-05	540.07	180.75	55.956	20.487	1.0176e-05	83.035	0.0035808	0.004395	0.0012039	880.16	5.1231e-05	4.8149e-05	1372.8	193.76	4.6549e-05	6.6625e-05	485.71	163.55	54.039	19.865	5.0611e-05	76.028	260.108	254.186	195.910	176.201	411.630	314.622	177.838	181.859	324.584	510.709	182.258	187.611	186.192	190.617	270.236	190.864	-8191	255	
18434.488	1	1	0	0	0.101	0.20989	0.29174	0.1296	0.1787	0.29426	0.32251	0.12503	0.11059	0.10092	0.46582	0.1843	0.168	0.21508	0.19084	0.22763	-2.2	-2.9479	-2.4771	-2.7646	-2.9	-2.6229	-2.9708	-2.6125	-2.5833	-2.9125	-2.7292	-2.8729	-2.8917	-2.5187	-2.8833	-2.7792	498.360	518.148	507.992	332.722	166.980	221.571	475.226	510.369	352.579	191.375	484.033	491.425	178.100	514.751	294.417	169.045	0.00086154	0.00060445	0.00033323	899.85	2.4313e-05	9.557e-06	1548.7	209.92	1.0486e-05	1.2066e-05	538.1	180.25	55.648	20.243	4.5593e-06	83.786	0.0037241	0.0048142	0.0013391	887.85	6.9962e-05	5.4449e-05	1377.1	194.82	5.2426e-05	5.8611e-05	488.08	163.8	54.202	19.928	5.4246e-05	77.162	270.906	203.291	328.636	177.146	366.095	317.247	177.550	181.860	375.932	501.669	182.405	187.387	186.948	190.008	343.796	190.878	-8191	255	
18434.586	1	1	0	0	0.068946	0.16553	0.26199	0.14238	0.28315	0.10379	0.24034	0.21226	0.16804	0.23191	0.11983	0.3559	0.1158	0.1521	0.18593	0.21934	-2.3625	-2.9	-2.6875	-2.7687	-2.7208	-2.5583	-3.0542	-2.7958	-2.575	-2.8604	-2.7333	-2.9479	-2.95	-2.6708	-2.7417	-2.8896	269.161	261.964	386.788	361.065	356.160	270.871	494.660	492.034	352.846	417.334	473.502	509.842	457.313	429.422	378.844	447.331	0.00075731	0.002107	0.00017071	891.32	1.2713e-05	5.0239e-06	1550.2	211.22	3.5581e-06	2.131e-06	541.13	178.13	54.287	20.132	1.232e-05	83.757	0.0039355	0.0050647	0.0014149	890.35	5.9527e-05	5.6399e-05	1375	196.65	5.361e-05	5.8242e-05	495.53	161.97	53.612	19.817	5.7694e-05	76.755	262.079	264.888	271.600	176.554	432.150	354.191	177.596	182.042	460.834	299.008	182.186	187.238	186.044	190.607	311.185	190.475	-8191	255	
18434.705	1	1	0	0	0.14297	0.11305	0.12223	0.16937	0.26249	0.077668	0.41252	0.22152	0.26899	0.21042	0.18211	0.21265	0.36099	0.074785	0.22996	0.13017	-2.3583	-2.9292	-2.6875	-2.75	-2.9062	-2.675	-3.1354	-2.9083	-2.7292	-2.8833	-2.7583	-2.7979	-2.7958	-2.5938	-2.8208	-2.8667	427.330	444.359	198.053	452.730	338.215	421.069	451.233	417.121	210.487	361.246	205.298	475.963	353.812	439.590	397.461	464.760	0.00092458	0.00037304	0.00053883	906.4	2.905e-05	8.7715e-06	1545	211.08	8.2757e-06	1.329e-05	535.31	178.31	54.752	20.472	9.8317e-06	85.444	0.0041509	0.0052858	0.0014737	895.45	7.4168e-05	5.7762e-05	1374.4	195.86	5.2601e-05	5.6719e-05	490.07	161.93	53.469	19.895	5.3555e-05	78.415	264.074	334.770	344.434	176.728	379.280	356.410	177.470	181.508	315.170	336.932	181.950	187.327	186.367	190.809	301.013	190.793	-8191	255	
18434.803	1	1	0	0	0.14109	0.1236	0.15466	0.070925	0.11985	0.30368	0.066726	0.19099	0.048468	0.18916	0.10449	0.28936	0.10704	0.14298	0.13718	0.071602	-2.2062	-2.9146	-2.8021	-2.8479	-3.0479	-2.5938	-3.05	-2.8063	-2.6188	-2.7729	-2.9396	-2.8458	-2.9229	-2.5812	-2.675	-2.9271	209.401	353.327	283.147	282.303	246.562	173.842	376.952	481.689	372.243	324.932	335.816	435.463	502.387	440.682	219.786	228.387	0.00087306	0.00085098	4.2831e-05	905.45	2.2029e-05	3.9427e-06	1555.2	214.12	5.5155e-06	2.4267e-05	545.33	180.75	55.462	20.626	7.9784e-07	86.34	0.0038418	0.0050103	0.0013896	895.02	5.8181e-05	5.7109e-05	1379.1	198.31	5.2924e-05	5.692e-05	502.47	163.55	54.139	20.196	5.2883e-05	78.618	265.716	234.520	242.879	176.260	421.315	388.113	177.599	181.789	290.136	417.318	182.286	187.695	186.123	190.511	327.658	190.453	-8191	255	
18434.898	1	1	0	0	0.13314	0.19908	0.067652	0.09346	0.2288	0.036999	0.24233	0.16734	0.019801	0.21858	0.15126	0.1641	0.10784	0.11798	0.19834	0.12189	-2.1854	-2.8292	-2.6688	-2.6917	-2.8563	-2.6312	-2.8479	-2.7792	-2.4313	-2.8979	-2.9417	-2.6562	-2.9188	-2.4583	-2.725	-3.1208	236.274	409.097	339.481	223.314	451.260	195.001	510.725	429.992	295.096	390.455	491.399	511.829	384.599	376.508	166.058	495.498	0.00082129	0.0012016	0.00029366	913.86	1.8689e-05	4.3904e-06	1558.2	214.15	5.7964e-06	4.7089e-06	549.07	181.38	56.123	20.673	1.0442e-05	86.799	0.0037788	0.0048619	0.0013446	892.9	5.2882e-05	6.9722e-05	1383.8	198.72	5.027e-05	5.516e-05	497.57	164.32	54.602	20.217	5.4223e-05	79.482	262.777	246.232	337.272	176.822	204.439	333.713	177.680	181.971	358.527	313.976	182.101	187.828	186.619	191.264	288.852	191.021	-8191	255	
18434.994	1	1	0	0	0.025192	0.21086	0.28672	0.081056	0.10585	0.13793	0.10422	0.12881	0.12157	0.11547	0.20981	0.1535	0.047724	0.099966	0.18301	0.31794	-2.3812	-2.9083	-2.875	-2.6063	-2.9875	-2.7646	-2.9917	-2.9458	-2.5167	-2.7917	-2.8771	-2.5083	-2.8104	-2.6875	-2.6729	-2.9646	445.269	266.080	389.778	481.154	181.547	454.235	175.756	385.755	521.877	430.481	427.497	475.330	491.514	294.264	217.389	448.862	0.00084539	0.00039104	0.00039064	904.89	3.3441e-05	1.6773e-05	1549.5	213.65	4.6135e-06	9.7297e-06	541	179.2	54.823	20.397	1.3479e-05	85.189	0.0040192	0.0052675	0.0014697	900.7	5.7714e-05	6.4287e-05	1381.3	199.89	5.8991e-05	6.4752e-05	502.09	164.27	55.406	20.511	6.7876e-05	78.665	271.106	202.124	387.283	176.766	331.089	424.139	177.564	181.421	213.595	335.600	181.996	187.631	186.270	191.165	264.989	190.749	-8191	255	
18435.090	1	1	0	0	0.10855	0.10018	0.11389	0.12668	0.46838	0.43573	0.27063	0.12948	0.2085	0.20044	0.048578	0.30055	0.15348	0.074528	0.10708	0.15095	-2.1646	-2.7792	-2.8083	-2.6292	-2.8187	-2.7854	-2.8125	-2.9333	-2.6063	-2.7833	-2.7833	-2.6125	-2.775	-2.875	-2.5292	-3.125	518.361	420.782	484.256	523.215	516.572	469.499	454.609	177.407	424.662	250.392	506.625	424.963	205.666	501.281	376.897	453.588	0.00087075	0.00088062	0.00024612	898.75	1.8009e-05	3.4027e-05	1536.2	213.42	5.33e-06	1.389e-05	541	178.11	55.133	20.56	2.0578e-06	86.905	0.0050131	0.0064179	0.0017878	919.09	6.7196e-05	8.5086e-05	1370	199.82	5.794e-05	6.0996e-05	493.93	163.23	54.559	20.416	5.8815e-05	79.376	254.530	264.499	218.567	177.198	286.016	409.029	177.586	181.666	303.148	312.842	182.117	187.607	186.502	190.563	180.204	190.628	-8191	255	
18435.186	1	1	0	0	0.17063	0.10106	0.15077	0.32623	0.046226	0.18606	0.13963	0.23455	0.29481	0.21792	0.19075	0.12515	0.24123	0.31303	0.023822	0.43737	-2.2104	-2.7292	-2.6646	-2.625	-3.0062	-2.8229	-2.8125	-3.0542	-2.7458	-2.6354	-3.0625	-2.8021	-3.0604	-2.8563	-2.5958	-3.2583	350.459	426.696	501.170	353.781	478.388	475.446	314.133	514.185	452.720	413.287	465.867	357.056	499.949	509.765	368.592	461.424	0.00094413	0.00060875	0.0004593	896.03	1.1424e-05	1.1428e-05	1541.8	214.32	1.152e-05	2.5731e-06	543.49	180.6	55.925	20.878	1.3829e-05	88.393	0.0055111	0.0055424	0.0015762	896.22	6.0774e-05	6.6034e-05	1370	199.51	5.5529e-05	5.7254e-05	501.32	164.25	54.272	20.414	5.2819e-05	79.871	266.184	495.489	328.729	175.798	397.037	356.388	177.555	181.913	282.092	328.548	181.919	187.516	185.935	190.456	362.678	190.455	-8191	255	
18435.307	1	1	0	0	0.33221	0.13782	0.067835	0.28488	0.28626	0.17053	0.068977	0.12616	0.19008	0.25065	0.15292	0.15614	0.12799	0.14036	0.14523	0.26656	-2.2208	-2.7229	-2.9042	-2.5521	-2.8979	-2.7854	-2.6854	-3.0438	-2.7125	-2.8458	-2.9646	-2.7625	-2.9167	-2.975	-2.5958	-3.1458	414.009	406.781	190.928	513.909	463.516	351.711	475.816	458.826	326.741	460.123	182.320	466.474	415.533	520.822	266.952	165.499	0.00086623	0.00052257	0.00029346	905.09	1.0861e-05	6.6738e-06	1549.4	216.16	1.4781e-05	1.5669e-05	550.36	182.62	56.272	21.205	9.3405e-06	88.619	0.0042359	0.0049541	0.0013883	890.78	5.419e-05	7.3951e-05	1372.5	199.47	5.3106e-05	5.4904e-05	496.24	165.47	54.625	20.7	5.3102e-05	80.484	267.558	344.778	299.759	176.882	335.686	411.874	177.824	181.921	327.292	251.460	182.359	187.300	185.849	189.919	259.412	190.305	-8191	255	
18435.402	1	1	0	0	0.39966	0.034976	0.24508	0.068502	0.023216	0.29035	0.24444	0.1739	0.08895	0.085293	0.1856	0.37412	0.059065	0.28041	0.1378	0.22545	-2.375	-2.4646	-2.8	-2.6	-2.9625	-2.6688	-2.8583	-2.9604	-2.6604	-2.7458	-2.9542	-2.7583	-2.55	-2.9042	-2.4667	-2.9917	178.627	383.262	254.252	169.179	227.929	468.991	504.447	467.229	379.298	171.743	444.487	450.275	321.754	484.031	466.074	476.121	0.0010325	0.00090385	0.00031901	921.45	1.0239e-05	1.1446e-05	1559.2	216.59	5.1082e-06	1.3033e-05	550.74	183.15	56.364	21.282	1.4612e-05	87.848	0.0050466	0.0048398	0.0013565	891.02	5.2417e-05	5.884e-05	1378	199.7	5.2499e-05	5.4446e-05	497.38	168.21	54.682	20.672	5.2233e-05	79.811	272.763	291.734	228.285	177.034	299.191	405.883	177.334	182.225	263.737	300.675	182.064	187.229	185.946	190.068	220.465	190.481	-8191	255	
18435.498	1	1	0	0	0.23464	0.2179	0.33036	0.056602	0.056707	0.24497	0.15261	0.078584	0.22159	0.10898	0.20146	0.36117	0.020881	0.075742	0.22858	0.34734	-2.1271	-2.7146	-2.8354	-2.55	-2.7083	-2.8417	-2.6417	-3.075	-2.6125	-2.5396	-3.0812	-2.8667	-2.7833	-2.7896	-2.5833	-2.9146	348.912	235.606	513.482	375.760	458.832	351.346	510.140	394.918	438.188	462.480	442.734	165.944	414.631	209.894	340.417	480.104	0.0010399	0.0013998	0.00036647	903.69	9.39e-06	2.9177e-05	1552.1	215.59	2.9078e-06	1.6151e-05	548.35	182.99	57.143	21.531	6.1848e-06	88.13	0.0042056	0.0047823	0.0013651	889.17	5.288e-05	7.1996e-05	1374.7	200.38	5.2477e-05	5.6437e-05	496.1	167	55.958	21.148	5.7563e-05	80.572	268.926	231.136	243.060	175.882	358.923	466.934	177.794	181.755	376.017	290.128	182.340	187.324	186.766	190.616	269.855	190.657	-8191	255	
18435.594	1	1	0	0	0.11632	0.27927	0.11025	0.19847	0.096117	0.2198	0.14501	0.20446	0.19427	0.27026	0.23212	0.20368	0.28842	0.077187	0.06712	0.10855	-2.3063	-2.4396	-2.8083	-2.7104	-2.575	-2.9979	-2.7625	-2.7479	-2.7938	-2.65	-2.8646	-2.8312	-2.5062	-2.9042	-2.5875	-2.8979	434.036	319.151	424.267	495.188	301.108	513.549	443.368	402.536	185.695	459.718	486.213	461.508	507.114	368.935	303.330	454.171	0.0011085	0.0011835	0.00048934	914.07	4.4334e-06	1.1705e-05	1553.7	221.22	3.034e-06	5.206e-06	558.27	187.13	59.281	22.507	6.3105e-06	90.312	0.0055766	0.0056062	0.0016253	923.89	6.4526e-05	6.9389e-05	1394.3	208.42	6.5945e-05	7.0525e-05	510.46	174.95	59.151	22.446	7.0766e-05	83.266	272.368	323.989	228.903	175.901	268.656	337.232	177.781	181.782	276.112	184.582	182.203	187.564	185.865	190.669	508.407	190.543	-8191	255	
18435.666	1	1	0	0	0.08587	0.05514	0.21238	0.14205	0.27252	0.17928	0.20117	0.12604	0.26515	0.13792	0.16508	0.060826	0.14463	0.10531	0.22284	0.073976	-2.3667	-2.4833	-2.7083	-2.9167	-2.7229	-2.8	-2.9771	-2.9021	-2.8083	-2.5771	-2.9667	-2.9292	-2.6937	-2.9458	-2.6292	-2.7854	437.736	244.732	297.321	512.115	371.919	523.084	498.367	345.079	519.232	310.183	421.815	520.421	450.007	411.142	217.698	367.592	0.00064708	0.00087481	0.00020302	914.28	1.1563e-05	1.5147e-05	1545.2	218.45	1.6696e-05	1.3384e-05	555.16	186.54	58.845	22.281	1.9728e-05	91.341	0.005554	0.0066948	0.0018968	950.44	7.3106e-05	7.7689e-05	1409.4	209.28	7.5104e-05	7.8144e-05	512.15	174.08	60.167	22.886	8.1274e-05	84.567	272.502	313.926	256.487	175.921	313.492	350.142	177.472	182.095	314.207	387.356	182.123	187.167	186.216	190.718	370.142	190.258	-8191	255	
18435.787	1	1	0	0	0.2205	0.2118	0.20476	0.082757	0.045972	0.22268	0.18667	0.10533	0.10903	0.089233	0.29128	0.17944	0.14834	0.098991	0.093092	0.24948	-2.4917	-2.6083	-2.875	-2.8229	-2.5583	-2.8937	-2.7583	-2.6437	-2.7854	-2.5208	-2.9583	-3.0229	-2.6125	-2.9167	-2.5812	-2.8438	234.476	323.544	280.847	474.635	399.031	521.596	447.925	484.728	288.044	201.646	476.269	451.618	208.784	431.206	504.266	504.301	0.00079201	0.00036988	0.00025429	915.56	2.6983e-05	2.0465e-05	1530.1	217.73	5.4709e-06	9.3069e-06	545.48	183.18	57.035	21.641	5.8007e-06	88.886	0.0069982	0.0075778	0.0021782	970.22	8.3276e-05	8.7534e-05	1392.5	209.81	8.2622e-05	8.6471e-05	509.31	173.93	59.686	22.605	8.6121e-05	82.798	289.122	465.648	202.249	176.062	312.057	373.279	177.628	182.016	336.713	476.966	182.395	187.213	186.481	190.772	353.137	190.588	-8191	255	
18435.883	1	1	0	0	0.14292	0.077595	0.12	0.22542	0.16454	0.21848	0.29469	0.16596	0.11512	0.27681	0.16121	0.25448	0.1685	0.17956	0.32962	0.13362	-2.4896	-2.45	-2.7958	-2.8104	-2.4354	-2.7708	-2.9146	-2.6937	-3.0812	-2.6833	-2.8708	-2.8	-2.5792	-2.925	-2.5667	-2.8146	327.585	510.156	390.225	177.521	203.581	331.217	486.167	490.635	313.520	419.783	487.095	192.608	281.103	275.936	511.167	394.618	0.00089798	0.0035359	0.00018702	885.04	6.2432e-06	1.99e-05	1510	214.36	1.4417e-05	1.9884e-05	538.53	183.63	56.559	21.63	2.9187e-06	88.219	0.0062923	0.0080086	0.002256	956.01	8.4908e-05	8.8992e-05	1383.1	207.16	8.2575e-05	8.5146e-05	503.13	171.37	58.814	22.485	8.2791e-05	82.48	268.631	225.712	182.212	176.427	511.643	383.288	177.591	181.812	399.902	362.562	182.515	187.252	186.028	190.926	339.997	190.734	-8191	255	
18435.979	1	1	0	0	0.0744	0.028613	0.22824	0.12207	0.26032	0.21527	0.17638	0.1733	0.10396	0.014562	0.30291	0.1736	0.041913	0.24796	0.18224	0.29635	-2.4708	-2.5	-2.6042	-2.9521	-2.625	-2.9271	-2.8125	-2.6813	-2.8271	-2.6604	-2.7021	-3.1458	-2.5438	-2.8146	-2.7396	-2.675	469.691	421.240	187.498	444.687	462.107	417.537	482.232	320.420	222.615	518.062	481.036	482.595	433.430	220.117	429.058	463.708	0.00091018	0.0027254	0.00040529	893.62	1.6919e-05	1.5271e-05	1524	214.29	1.3836e-05	8.5098e-06	540.94	183.31	56.183	21.442	1.3255e-06	88.811	0.0059751	0.0090514	0.0021321	948.5	8.0196e-05	8.5408e-05	1378.5	206.1	7.9463e-05	8.2112e-05	502.37	172.29	58.136	22.053	7.6836e-05	82.037	260.274	273.821	314.637	176.953	347.318	433.996	177.505	181.541	309.223	472.792	181.929	187.375	185.356	190.774	518.814	190.433	-8191	255	
18436.098	1	1	0	0	0.16347	0.26963	0.238	0.22248	0.15944	0.16687	0.32525	0.13577	0.12006	0.12717	0.069378	0.25744	0.044521	0.054787	0.037956	0.2194	-2.3792	-2.8271	-2.6813	-2.8208	-2.7313	-2.8521	-3.0187	-2.6833	-3.0146	-2.9062	-2.9229	-3.1042	-2.525	-2.8042	-2.8625	-3.0042	222.670	184.960	231.497	482.822	429.640	467.942	455.300	522.753	376.601	206.550	392.629	435.451	231.561	237.950	439.354	473.483	0.00050269	0.00053469	0.00024176	896.74	2.125e-06	1.1645e-05	1538.1	216.44	1.3911e-05	7.86e-06	546.5	182.94	57.003	21.531	1.2401e-05	88.734	0.005487	0.0073805	0.0019558	939.64	7.3821e-05	7.8099e-05	1394.4	206.12	7.5859e-05	7.8782e-05	503.31	170.17	58.483	22.05	7.613e-05	81.76	254.094	418.855	271.420	176.996	370.755	239.050	177.642	181.846	367.583	199.170	182.010	187.415	185.921	190.651	224.104	190.840	-8191	255	
18436.193	1	1	0	0	0.27722	0.13614	0.12337	0.169	0.25601	0.11508	0.2613	0.030741	0.29749	0.23969	0.33462	0.13253	0.071312	0.073605	0.12706	0.35206	-2.5896	-2.5521	-2.5792	-3.0292	-2.5375	-2.6896	-2.9271	-2.7313	-2.6833	-2.7604	-2.7188	-2.9938	-2.5771	-2.8896	-2.6917	-2.5417	266.965	340.333	518.916	170.044	368.568	376.091	433.833	453.589	367.095	468.900	507.115	183.603	270.625	281.443	510.452	479.796	0.0008152	0.00060357	0.00040491	889.61	3.0806e-05	8.9801e-06	1526.4	211.61	3.0154e-06	1.4888e-05	539.58	182.22	55.498	20.936	1.0239e-05	86.271	0.0055029	0.0085098	0.0019176	929.31	7.2826e-05	7.729e-05	1373.5	202.33	7.4273e-05	7.7597e-05	497.8	167.69	58.851	21.458	7.6413e-05	80.285	248.987	494.953	280.700	176.326	327.107	324.163	177.787	181.717	269.532	315.259	182.743	187.262	186.331	190.254	227.733	190.599	-8191	255	
18436.268	1	1	0	0	0.13026	0.087451	0.1739	0.19003	0.29863	0.19148	0.27485	0.20186	0.36035	0.030091	0.054863	0.088222	0.080719	0.22447	0.040662	0.20988	-2.4625	-2.75	-2.3958	-2.9208	-2.6771	-2.7604	-3.1625	-2.7021	-2.8958	-2.7771	-2.5875	-3.025	-2.6208	-2.6667	-2.9896	-2.7875	297.928	470.715	517.591	257.671	425.441	336.621	444.087	312.211	310.882	360.267	178.159	217.004	172.924	499.180	491.446	173.057	0.00067106	0.0015975	0.0003164	874.33	2.9028e-05	9.0803e-06	1502.9	210.16	1.3478e-05	4.5855e-06	531.17	177.82	54.705	20.411	1.4615e-05	86.174	0.0055366	0.0074054	0.0019279	924.76	7.5505e-05	7.813e-05	1363.9	199.91	7.5633e-05	7.9768e-05	491.21	164.55	56.697	21.189	7.9166e-05	79.676	244.041	259.897	301.971	176.353	326.297	283.271	177.827	181.916	329.679	475.564	182.106	187.332	185.826	190.343	285.605	190.700	-8191	255	
18436.387	1	1	0	0	0.13418	0.23913	0.32116	0.15759	0.23185	0.34333	0.47642	0.15304	0.22369	0.14641	0.25934	0.22387	0.023275	0.32726	0.21303	0.041781	-2.3125	-2.85	-2.3521	-3.0021	-2.7292	-2.7833	-3.1229	-2.7667	-2.8375	-2.7292	-2.7667	-3.1729	-2.7333	-2.5812	-2.9375	-2.7542	387.189	453.745	284.777	473.040	317.348	231.389	451.024	423.547	273.514	296.392	248.424	516.794	484.902	485.159	429.682	194.146	0.0007604	0.0024167	0.00035543	853.6	1.324e-05	1.9724e-05	1470.1	203.21	1.0901e-05	2.4216e-05	521.5	173.41	52.645	19.777	1.1984e-05	84.261	0.0057944	0.008895	0.0020728	918.64	8.188e-05	8.4355e-05	1333.9	198.6	8.3321e-05	8.761e-05	487.06	162.45	57.762	20.915	8.8977e-05	78.478	265.978	255.716	498.834	176.482	498.404	337.729	177.650	181.744	351.084	395.973	181.871	187.781	185.689	190.383	282.333	190.745	-8191	255	
18436.482	1	1	0	0	0.065033	0.056187	0.047164	0.23254	0.03578	0.13171	0.29798	0.11638	0.18995	0.045874	0.31545	0.13994	0.21029	0.22226	0.097328	0.20724	-2.3917	-2.875	-2.5583	-3.075	-2.6958	-2.6271	-3.1958	-2.7083	-2.7812	-2.8667	-2.6833	-2.9646	-2.8625	-2.5792	-2.9	-2.6875	393.058	310.282	225.000	479.497	217.098	284.375	476.325	354.706	366.945	198.449	481.234	230.563	424.565	164.947	509.867	472.756	0.00070329	0.002302	0.00049298	816.43	9.4588e-06	1.5237e-05	1430.4	193.52	1.7241e-05	1.7611e-05	509.21	167.36	50.906	19.097	1.5134e-05	82.586	0.006503	0.0087852	0.0023172	913.57	9.1842e-05	9.3826e-05	1303.6	196.98	9.0994e-05	9.5772e-05	478.67	159.79	55.373	20.467	9.5637e-05	77.763	262.205	274.682	239.063	176.840	198.181	259.175	177.736	181.659	397.363	380.280	182.332	187.493	186.283	190.491	176.602	190.325	-8191	255	
18436.578	1	1	0	0	0.15368	0.10807	0.022786	0.19779	0.11899	0.12534	0.1041	0.18032	0.1241	0.11292	0.39259	0.19188	0.1097	0.093891	0.15826	0.11563	-2.1271	-2.825	-2.7687	-2.9562	-2.9667	-2.5771	-3.2167	-2.7271	-2.7333	-2.8354	-2.8167	-3.0458	-2.8458	-2.5563	-3.0938	-2.7792	390.522	466.144	297.829	434.481	318.916	219.388	474.732	438.142	197.241	381.143	404.860	167.322	267.613	449.294	456.874	283.788	0.00066494	0.0037001	0.00026031	780.19	1.4293e-05	3.0301e-05	1392.1	187.84	1.1069e-05	2.1694e-05	496.21	165.2	48.684	18.3	1.4833e-05	81.262	0.0068256	0.010174	0.0024293	893.61	9.6061e-05	9.6635e-05	1277.2	190.77	9.5634e-05	9.9883e-05	472.25	157.81	56.191	20.211	0.00010074	76.919	262.367	304.078	248.470	176.529	376.528	313.278	177.708	181.789	343.938	286.496	182.084	187.474	186.081	191.085	430.285	190.481	-8191	255	
18436.699	1	1	0	0	0.30073	0.16919	0.10824	0.1277	0.096276	0.2065	0.39306	0.079796	0.17176	0.19684	0.17116	0.046723	0.0048234	0.10105	0.14255	0.23271	-2.2083	-2.9271	-2.4062	-2.7042	-2.8375	-2.4688	-3.0187	-2.7313	-2.6646	-2.975	-2.6896	-2.8042	-2.8312	-2.4167	-2.8688	-2.6542	488.697	450.154	424.204	517.898	236.172	197.007	440.296	478.714	220.761	305.424	426.885	446.344	415.868	226.319	332.951	492.452	0.00051743	0.0014574	0.00047401	771.12	3.4809e-06	1.1669e-05	1366.6	184.72	1.3386e-05	2.9389e-05	491.99	162.48	47.828	18.043	1.3589e-05	79.928	0.0069917	0.0092155	0.0025986	884.4	9.9937e-05	9.9898e-05	1255	190.39	9.6106e-05	0.00010262	464.84	154.53	53.793	19.976	0.00010277	76.087	281.863	271.549	193.744	176.178	495.644	319.267	177.714	181.640	361.917	277.039	182.183	186.964	186.097	190.689	173.689	190.652	-8191	255	
18436.795	1	1	0	0	0.071977	0.27093	0.19712	0.11514	0.0708	0.041057	0.17389	0.15836	0.15048	0.23872	0.26962	0.16738	0.10944	0.24555	0.17973	0.10323	-2.1688	-2.8771	-2.65	-2.6917	-2.8583	-2.4333	-2.9646	-2.825	-2.3667	-2.9271	-2.6208	-2.7167	-2.9688	-2.3854	-2.8812	-2.8063	196.641	271.955	389.841	407.047	179.103	449.436	467.752	181.206	357.229	233.696	201.757	208.787	280.204	342.791	195.206	372.992	0.00092961	0.0022566	0.0011732	763.14	2.2128e-05	1.9223e-05	1352.8	184.32	3.768e-06	1.0192e-05	482.8	161.66	47.655	18.1	1.3921e-05	79.767	0.0072289	0.0094511	0.003061	885.1	0.00010314	0.00010523	1248.5	187.87	9.9938e-05	0.00010646	462.67	154.57	55.167	20.151	0.00010719	75.924	259.791	237.678	327.671	175.882	341.947	319.484	178.059	181.543	366.507	521.060	182.213	187.725	186.459	190.154	369.538	190.811	-8191	255	
18436.891	1	1	0	0	0.18766	0.076498	0.15004	0.27658	0.18114	0.30539	0.12968	0.12097	0.13141	0.2271	0.097476	0.10404	0.097892	0.19981	0.13045	0.16376	-2.1375	-2.9062	-2.6396	-2.7812	-2.8167	-2.4521	-3.0812	-2.7667	-2.6583	-2.9354	-2.4917	-2.7687	-2.7313	-2.5812	-2.9229	-2.9688	343.255	410.157	499.613	443.956	201.299	461.104	384.334	477.545	274.985	215.196	497.796	468.511	489.542	189.901	184.761	433.503	0.00078863	0.0013011	0.00076261	737.13	1.1092e-05	1.1113e-05	1336.3	179.65	1.3267e-05	1.0869e-05	482.71	160.73	47.426	18.071	2.1928e-05	80.416	0.0074016	0.0098746	0.0028705	879.92	0.00010695	0.00010918	1235.9	190.43	0.00010487	0.0001133	464.75	154.95	54.154	20.488	0.00011388	76.935	276.281	208.326	324.990	176.080	247.196	294.072	177.435	181.250	318.819	508.712	182.214	187.365	186.245	190.713	208.707	190.724	-8191	255	
18436.963	1	1	0	0	0.15728	0.14253	0.067673	0.057001	0.16377	0.12362	0.25895	0.053518	0.20723	0.32201	0.014343	0.34075	0.16066	0.081766	0.20635	0.10713	-2.3729	-2.6542	-2.7583	-2.6917	-2.9521	-2.5771	-2.8583	-2.8063	-2.5687	-2.9458	-2.7667	-2.6729	-2.9083	-2.7896	-2.7375	-3.0854	238.646	483.270	289.337	376.284	517.886	416.375	493.920	488.165	237.057	374.371	372.459	509.896	214.741	235.014	430.042	468.219	0.00068915	0.0017369	0.00082363	722.34	8.6877e-06	1.3113e-05	1322.3	179.03	1.7779e-05	9.9082e-06	477.6	159.31	46.288	17.581	1.0568e-05	79.716	0.0078559	0.010638	0.0033942	879.01	0.00011584	0.00011792	1228.6	187.64	0.00011301	0.00012192	465.06	154.24	54.483	21.153	0.00011808	76.558	264.151	441.584	309.569	176.523	263.463	251.763	177.786	181.589	413.771	347.713	182.158	187.888	185.701	190.401	295.630	191.109	-8191	255	
18437.082	1	1	0	0	0.1248	0.17297	0.26741	0.33614	0.091364	0.10518	0.17187	0.19981	0.087642	0.16546	0.030851	0.14049	0.12303	0.092244	0.084691	0.2664	-2.2146	-2.6917	-2.7083	-2.6562	-2.8354	-2.4688	-2.8771	-3.0354	-2.5167	-3.0875	-2.8146	-2.6146	-2.9833	-2.6167	-2.6688	-2.9979	164.352	484.086	318.575	298.770	293.574	205.210	462.988	395.376	184.565	293.604	486.881	416.952	376.855	164.093	189.792	498.523	0.00066942	0.0013608	0.00045659	716.96	8.7238e-06	1.3735e-05	1293.9	175.87	9.118e-06	4.9828e-06	471.79	156.19	46.364	17.489	2.6623e-05	77.716	0.0083432	0.011234	0.0032297	887.18	0.00012296	0.0001253	1210.7	188.35	0.00011908	0.0001273	461.51	152.93	54.663	20.53	0.00012156	75.825	253.978	209.594	256.744	176.644	363.339	221.488	177.862	181.810	286.608	497.189	181.903	187.367	186.361	189.899	285.062	190.577	-8191	255	
18437.178	1	1	0	0	0.24626	0.1963	0.15977	0.12903	0.08607	0.10754	0.21566	0.044799	0.34282	0.1739	0.12769	0.14268	0.16447	0.091764	0.1226	0.21449	-2.1521	-2.6875	-2.7708	-2.6854	-2.8521	-2.7104	-2.8312	-3.0854	-2.6562	-3.0146	-2.9875	-2.6146	-2.9938	-2.7917	-2.7333	-3.0687	192.438	487.110	376.932	225.964	170.387	188.798	396.094	407.391	231.404	437.689	336.139	469.749	434.466	477.598	186.267	495.428	0.00038796	6.5702e-05	0.0008603	708.45	1.5294e-05	6.6399e-06	1292.3	176.11	1.3046e-05	1.9509e-05	470.88	157.65	45.866	17.322	1.6973e-05	77.462	0.0084604	0.011219	0.0035121	871.63	0.00012123	0.00012306	1207.1	184.84	0.00011992	0.00012508	461.12	153.44	54.555	21.173	0.00012231	75.694	284.666	176.203	303.555	176.808	485.938	423.933	177.673	181.787	199.565	383.095	182.438	187.285	186.202	190.206	334.408	190.701	-8191	255	
18437.273	1	1	0	0	0.21521	0.051685	0.11672	0.032769	0.11623	0.18897	0.20362	0.043372	0.22657	0.029808	0.040531	0.18477	0.12428	0.24208	0.1043	0.17895	-2.2125	-2.9417	-2.8458	-2.5604	-2.9146	-2.7417	-2.9104	-2.8375	-2.5208	-2.7812	-3.0208	-2.6208	-2.9146	-2.725	-2.6667	-3.0208	273.180	331.469	365.372	467.122	372.719	494.101	436.550	308.248	206.387	486.249	169.968	438.385	194.703	468.988	277.305	446.398	0.00070642	0.0017568	0.00046578	699.32	2.434e-05	2.3189e-05	1291.5	173.72	2.1423e-05	2.2245e-05	473.6	154.18	45.191	17.017	2.4609e-05	77.035	0.0087712	0.011794	0.003347	888.3	0.00012855	0.00013019	1208.4	185.69	0.00014025	0.00013093	462.32	151.98	54.775	20.473	0.00012625	75.054	256.743	178.212	354.741	176.275	241.971	437.278	177.653	181.151	199.643	292.806	182.256	187.170	185.946	190.721	316.585	190.696	-8191	255	
18437.369	1	1	0	0	0.14768	0.013276	0.20532	0.089867	0.20057	0.043876	0.16272	0.14285	0.20438	0.051424	0.46173	0.032574	0.27292	0.099258	0.3331	0.1348	-2.1833	-2.5687	-2.85	-2.5604	-3.0167	-2.7708	-2.7146	-2.9562	-2.5771	-2.8063	-2.9917	-2.7896	-2.6833	-2.7833	-2.5542	-2.9375	361.307	395.445	451.786	363.333	195.136	363.944	501.587	369.283	500.019	232.757	501.318	312.061	323.444	175.370	312.116	383.756	0.00074428	0.0019624	0.0011959	696.5	2.7228e-05	9.7342e-06	1273.7	172.81	6.5982e-06	2.0295e-05	466.12	153.76	44.469	16.778	4.782e-06	75.857	0.0090844	0.012019	0.0036548	898.21	0.00013274	0.00013636	1205.4	185.63	0.0001363	0.00013904	460.71	152.36	55.168	21.055	0.00013399	74.509	260.546	367.197	325.368	175.998	301.797	266.490	177.552	181.343	379.730	487.648	182.007	187.577	186.809	190.405	181.453	190.658	-8191	255	
18437.490	1	1	0	0	0.10673	0.10202	0.08519	0.23509	0.2686	0.17298	0.32509	0.081381	0.13198	0.19347	0.10194	0.053346	0.13983	0.085049	0.23983	0.2304	-2.3208	-2.6771	-2.9479	-2.6125	-2.6854	-2.8354	-2.6875	-2.8625	-2.6813	-2.6354	-3.1896	-2.7188	-2.7708	-2.9042	-2.8292	-3.0792	516.289	431.396	317.752	346.491	491.591	279.906	446.211	404.697	189.679	235.062	434.384	235.426	412.862	238.353	361.955	485.009	0.00067455	0.0026423	0.00055878	681.54	2.6783e-05	2.7523e-05	1274.3	170.72	2.9962e-05	2.6322e-05	462.05	153.53	44.388	16.616	2.9503e-06	75.859	0.0095498	0.012482	0.0034923	905.4	0.00013785	0.00013843	1198.8	185.01	0.00015022	0.00013877	458.6	151.51	54.869	20.418	0.00013326	74.495	267.795	255.839	325.622	176.512	492.320	186.623	177.647	181.781	201.217	460.066	182.305	187.419	185.595	191.159	417.850	190.684	-8191	255	
18437.562	1	1	0	0	0.27009	0.12143	0.20334	0.31249	0.087269	0.13968	0.47584	0.1645	0.1072	0.11947	0.05776	0.36145	0.29817	0.36419	0.20089	0.24692	-2.2667	-2.6437	-2.8646	-2.6771	-2.5625	-2.8271	-2.7562	-2.8854	-2.7438	-2.5167	-3.0167	-2.5417	-2.6854	-2.9229	-2.5792	-3.0375	348.742	210.550	319.503	465.811	469.774	454.410	442.923	322.302	477.316	407.472	517.752	480.172	454.819	513.344	172.275	465.906	0.00068592	0.00053776	0.00067427	677.18	1.748e-05	1.7435e-05	1265.5	171.92	1.1732e-05	1.8062e-05	463.23	152.57	45.036	16.773	2.4132e-05	76.454	0.0095429	0.012198	0.0034895	934.11	0.00013617	0.0001393	1193.7	186.07	0.00013833	0.00013884	461.04	151.65	55.258	20.966	0.00013887	75.202	263.336	367.868	309.314	176.592	432.749	243.541	177.823	182.416	349.982	306.100	182.122	187.730	186.002	190.585	290.267	190.818	-8191	255	
18437.658	1	1	0	0	0.30731	0.03379	0.16029	0.11947	0.082752	0.18839	0.23628	0.099034	0.12614	0.23017	0.20587	0.181	0.28512	0.14257	0.072401	0.36265	-2.2646	-2.5708	-2.8521	-2.75	-2.6583	-2.9979	-2.7417	-2.8021	-2.8146	-2.6271	-3.0625	-2.8	-2.7021	-2.9333	-2.4521	-2.775	443.501	353.070	272.029	387.902	275.227	455.158	453.616	209.421	310.502	329.029	215.376	180.635	182.079	282.564	210.224	470.359	0.00077199	0.0020472	0.00040841	675.26	1.1944e-05	3.6137e-05	1270	173.76	1.6315e-05	2.2791e-05	464.87	153.91	44.942	17.005	1.7258e-05	76.549	0.0096202	0.012307	0.0035375	908.79	0.00013382	0.00013734	1197.9	185.82	0.00014602	0.00013328	460.55	151.96	54.619	20.321	0.00013277	75.298	254.950	520.507	511.497	178.100	317.228	363.017	177.823	181.956	239.062	405.220	181.824	187.620	186.610	190.074	392.481	190.531	-8191	255	
18437.779	1	1	0	0	0.23295	0.098329	0.040268	0.031053	0.058747	0.22232	0.24519	0.07605	0.26416	0.18099	0.22898	0.016347	0.099138	0.089142	0.16365	0.12956	-2.4458	-2.5104	-2.8083	-2.6813	-2.475	-3.0083	-2.7875	-2.7479	-2.8396	-2.4562	-2.9792	-2.6688	-2.7333	-2.9146	-2.7313	-2.7771	502.957	347.839	199.898	434.178	268.545	404.672	265.401	520.111	215.064	227.610	481.648	175.026	420.580	457.781	240.781	173.824	0.00076491	0.00037571	0.00039211	701.2	1.5346e-05	7.4688e-06	1281.8	171.87	7.4827e-06	2.9026e-05	470.12	154.79	45.591	16.822	3.321e-05	77.575	0.0090571	0.01168	0.0033597	928.91	0.0001268	0.00013042	1202.2	184.07	0.00012616	0.00012415	460.58	151.74	53.374	19.763	0.00013312	74.645	246.945	427.229	171.821	176.075	235.548	422.259	177.594	182.344	418.712	283.244	182.058	187.313	186.098	190.974	323.859	190.578	-8191	255	
18437.877	1	1	0	0	0.16066	0.15359	0.18429	0.1844	0.25223	0.31217	0.18977	0.23995	0.15051	0.16778	0.33858	0.092249	0.27426	0.012908	0.18172	0.35741	-2.4667	-2.4354	-2.9042	-2.8354	-2.4562	-2.7771	-2.775	-2.5708	-2.7604	-2.6271	-2.7333	-2.85	-2.5812	-2.8688	-2.6354	-2.8146	247.164	483.090	334.377	478.845	194.239	172.360	417.198	455.547	181.822	484.576	521.837	480.034	230.279	363.583	417.099	502.824	0.00069468	0.00049095	0.00043944	707.72	1.5766e-05	1.9413e-05	1318.3	176.39	9.3838e-06	3.0677e-05	477.68	156.71	45.72	17	7.3694e-06	78.117	0.0079531	0.010253	0.0029274	874.83	0.00010888	0.00011492	1217.7	182	0.00011926	0.00011816	460.02	151.65	52.829	19.845	0.00011604	74.6	270.582	178.591	432.809	176.644	377.961	303.928	177.530	181.891	273.807	293.407	181.882	187.702	185.968	190.230	206.912	190.448	-8191	255	
18437.971	1	1	0	0	0.32088	0.083844	0.27664	0.015085	0.21297	0.046298	0.3887	0.12421	0.47806	0.091511	0.14189	0.23061	0.23193	0.25033	0.14879	0.18523	-2.4083	-2.4146	-2.8583	-2.7854	-2.575	-2.9083	-2.7313	-2.8833	-2.875	-2.5042	-3.0208	-2.9437	-2.65	-2.8083	-2.8146	-2.8354	265.150	395.544	430.246	472.469	486.180	179.075	488.975	282.162	461.685	470.007	410.384	494.060	452.833	308.883	261.706	473.843	0.00081488	0.0013923	0.00060633	713.31	1.8581e-05	2.3987e-05	1322.9	179.72	6.0632e-06	5.493e-06	476.94	157.39	46.341	17.218	2.9998e-05	78.42	0.0077856	0.01011	0.0028597	909.28	0.0001081	0.00011398	1227.5	184.84	0.00010777	0.00011692	461.71	152.4	53.327	19.982	0.00012794	74.922	247.302	498.854	280.037	177.112	312.503	364.507	177.565	181.901	491.477	310.504	182.223	187.572	185.729	191.092	299.631	190.615	-8191	255	
18438.068	1	1	0	0	0.011126	0.20669	0.079997	0.057347	0.22906	0.11672	0.092523	0.2914	0.10107	0.17995	0.14459	0.20966	0.31287	0.093418	0.093633	0.17763	-2.4646	-2.525	-2.7313	-2.8063	-2.5229	-2.6813	-2.9854	-2.5354	-2.9083	-2.6083	-3.0875	-3.0396	-2.55	-2.8271	-2.6729	-2.5792	219.248	391.587	346.863	240.930	397.103	441.276	378.284	458.164	374.753	427.629	460.514	522.389	482.042	425.809	443.590	419.816	0.00051762	0.001997	0.00050646	724.69	8.786e-06	1.6119e-05	1329.3	179.66	1.7223e-05	4.2155e-05	481.67	160.04	47.001	17.669	1.4654e-05	79.192	0.0078621	0.010161	0.0028689	888.39	0.00010951	0.00011498	1230.1	184.71	0.00010916	0.00013197	463.47	153.67	53.484	20.263	0.00011636	75.631	270.054	235.079	363.514	176.850	190.215	280.291	177.479	181.845	405.081	198.022	182.170	188.050	186.418	190.780	440.120	190.772	-8191	255	
18438.162	1	1	0	0	0.26057	0.073517	0.029317	0.098938	0.2461	0.25664	0.15008	0.18264	0.081369	0.069867	0.37066	0.052755	0.10359	0.14749	0.099736	0.21269	-2.3292	-2.5479	-2.4771	-2.9146	-2.6312	-2.8375	-2.9792	-2.5333	-2.9229	-2.8333	-2.7229	-3.0312	-2.5625	-2.7229	-2.7229	-2.6937	440.861	381.694	168.656	482.369	224.944	475.801	501.233	465.373	469.987	346.548	496.443	424.674	408.258	374.374	509.680	417.680	0.00078647	0.0001723	0.00053391	738.95	5.5433e-06	3.4191e-05	1338.2	179.63	1.7966e-05	1.0115e-05	482.08	158.97	46.88	17.866	2.7127e-05	79.024	0.0079937	0.010332	0.0028763	909.81	0.00011445	0.00011446	1240	185.91	0.00010937	0.00011841	464.92	153.77	53.804	20.298	0.00012938	75.64	267.881	191.348	282.190	176.956	408.520	359.309	177.651	181.698	251.654	331.190	182.327	187.707	185.177	191.110	310.231	190.871	-8191	255	
18438.260	1	1	0	0	0.088168	0.22965	0.12693	0.044198	0.13306	0.22966	0.32896	0.30925	0.059547	0.11758	0.19852	0.18665	0.23692	0.19855	0.12067	0.3049	-2.3458	-2.4708	-2.4208	-2.8729	-2.6813	-2.8271	-2.9354	-2.5187	-2.925	-2.6958	-2.65	-3.1063	-2.4313	-2.6417	-2.8542	-2.6688	417.610	233.996	485.755	399.678	476.388	243.464	476.662	509.470	179.565	174.062	467.033	505.271	458.715	373.713	251.433	456.980	0.00096798	0.00097302	0.00055471	742.62	1.2399e-05	3.3658e-05	1333.2	179.28	1.5617e-05	4.0826e-05	479.87	159.01	46.729	17.688	2.4808e-05	79.16	0.0080582	0.010332	0.0028876	891.13	0.00011582	0.00011544	1234.2	184.77	0.00010908	0.00012902	461.38	153.46	53.513	20.11	0.00011428	75.395	256.848	219.469	283.753	176.136	344.939	326.607	177.731	181.507	172.612	253.259	182.292	187.456	186.317	190.008	284.008	190.543	-8191	255	
18438.379	1	1	0	0	0.1888	0.072116	0.075199	0.071034	0.28027	0.13027	0.31495	0.10132	0.28422	0.018568	0.28513	0.19076	0.025637	0.34358	0.10986	0.22843	-2.4417	-2.7062	-2.75	-2.8667	-2.5	-2.7	-3.175	-2.4729	-2.7917	-2.7812	-2.6813	-3.0708	-2.4771	-2.5312	-2.8771	-2.5292	321.405	316.186	244.696	424.637	340.496	253.195	451.283	471.894	256.219	283.261	212.878	169.438	198.009	390.062	510.043	362.111	0.00065031	0.001096	0.00065999	750.55	1.4274e-05	3.0125e-05	1343.6	182.28	6.6291e-06	3.0063e-05	481.86	160.19	47.119	18	2.0982e-05	79.529	0.0080263	0.01025	0.0028312	895.7	0.00012886	0.00011633	1242.3	186.93	0.0001127	0.00012055	464.06	154.79	54.026	20.451	0.00012027	76.36	283.887	264.913	322.281	176.026	405.100	314.667	177.849	182.089	300.880	386.746	182.052	187.972	186.170	190.640	422.176	190.869	-8191	255	
18438.475	1	1	0	0	0.087015	0.12189	0.10252	0.26125	0.016914	0.46711	0.31756	0.095728	0.15707	0.10371	0.083766	0.1532	0.20264	0.092086	0.20144	0.30115	-2.3229	-2.6646	-2.5458	-3.125	-2.6271	-2.7354	-3.1854	-2.7562	-2.6875	-2.75	-2.5292	-2.9792	-2.5917	-2.8375	-2.8396	-2.7229	396.823	381.989	231.045	469.885	368.420	467.622	450.611	455.544	445.849	282.339	167.146	426.833	185.872	513.667	285.997	468.439	0.00072714	0.0013665	0.000325	735.26	7.204e-06	1.6557e-05	1346.1	182.69	7.3185e-06	2.8869e-05	485.68	159.05	46.777	17.796	1.2677e-05	79.26	0.007956	0.010168	0.0027932	895.84	0.00011721	0.00011431	1246.1	187.47	0.00011195	0.00013355	467.05	155.12	54.639	20.476	0.00011555	76.564	261.352	222.983	392.763	176.719	218.388	292.733	177.594	181.712	270.912	223.567	182.418	187.110	185.798	190.923	328.541	190.595	-8191	255	
18438.570	1	1	0	0	0.17933	0.11946	0.10633	0.13712	0.13414	0.16522	0.045701	0.15837	0.22389	0.25326	0.16453	0.215	0.4097	0.077328	0.027262	0.3714	-2.1979	-2.725	-2.4479	-2.7292	-2.8292	-2.7854	-3.0417	-2.5646	-2.8229	-2.8479	-2.7208	-3.0104	-2.9188	-2.6146	-2.9188	-2.6521	323.014	163.938	393.216	368.398	180.331	447.598	519.784	425.640	294.142	383.659	448.601	227.174	484.859	261.256	422.532	421.703	0.0007299	0.0019489	0.0001386	734.84	1.8296e-05	6.2679e-06	1338.2	180.6	4.6937e-06	2.3337e-05	481.96	160.69	46.41	17.585	1.2204e-06	79.435	0.0083685	0.010632	0.0029824	909.37	0.00013384	0.00011824	1243.4	188.03	0.00011413	0.0001233	464.78	155.47	54.402	20.25	0.00011636	77.218	249.499	284.370	312.275	176.369	485.917	289.520	177.176	181.581	427.567	377.308	182.135	187.540	186.624	190.671	212.025	190.644	-8191	255	
18438.668	1	1	0	0	0.088516	0.10518	0.076255	0.076302	0.15446	0.10233	0.223	0.17013	0.25001	0.27408	0.25839	0.014305	0.42194	0.19648	0.099317	0.17055	-2.1875	-2.6854	-2.4562	-2.8979	-2.8292	-2.6417	-3.0958	-2.5229	-2.7458	-2.9271	-2.6063	-2.9271	-2.8229	-2.6375	-2.8292	-2.7146	387.242	212.819	362.767	448.610	476.621	384.503	523.359	407.909	306.345	193.202	500.539	277.539	516.914	213.217	292.680	176.447	0.00057616	0.0019758	0.00028907	737.72	1.1037e-05	1.5719e-05	1319.1	177.68	1.3501e-05	2.8724e-05	472.72	156.38	45.304	16.934	7.7899e-06	75.515	0.0082599	0.010783	0.0029981	909.33	0.00012374	0.00012248	1236.3	187.16	0.00012127	0.00013579	464.68	153.09	54.323	20.131	0.00012831	74.395	281.512	328.734	224.563	176.485	180.025	456.329	177.683	181.907	339.445	376.802	181.793	187.417	185.965	190.651	259.903	190.614	-8191	255	
18438.787	1	1	0	0	0.1773	0.34005	0.21976	0.29455	0.12758	0.10388	0.20909	0.11572	0.0596	0.050196	0.37999	0.23468	0.29131	0.16522	0.22257	0.066931	-2.2646	-2.9292	-2.6146	-2.8521	-2.8792	-2.6312	-3.0667	-2.7167	-2.5438	-2.7562	-2.6	-2.8104	-2.8125	-2.6479	-2.9042	-2.9958	518.084	256.339	208.276	336.506	352.169	433.826	439.032	439.924	515.267	521.237	491.017	437.008	522.640	344.070	247.730	251.488	0.00078347	0.0019938	0.00044154	706.29	2.275e-05	2.4727e-05	1290.8	174.28	8.9833e-06	3.0806e-06	467.1	154.52	45.322	16.919	1.4305e-05	77.969	0.0090296	0.011989	0.003341	918.48	0.00014588	0.00013094	1219.7	185.77	0.00012524	0.00013408	461.71	152.43	54.579	20.276	0.000129	76.648	262.359	373.703	212.928	176.365	163.819	255.979	177.740	181.384	223.746	313.654	182.399	187.340	186.077	190.453	275.884	190.435	-8191	255	
18438.859	1	1	0	0	0.05652	0.07086	0.18342	0.07051	0.30363	0.033487	0.40464	0.14768	0.22555	0.11427	0.16737	0.20638	0.24096	0.15891	0.25531	0.081751	-2.175	-2.8063	-2.5125	-2.5833	-2.8354	-2.4979	-3.0146	-2.7938	-2.6104	-2.8354	-2.7521	-2.8167	-2.8771	-2.5917	-2.8208	-2.8458	284.584	168.813	199.875	507.110	523.682	314.272	492.751	249.326	238.781	257.264	455.292	467.252	487.203	426.125	480.037	408.241	0.0007004	0.00038054	0.00026494	712.58	2.2999e-05	3.9594e-05	1311.1	177.89	7.9862e-06	2.6965e-05	482.34	158.21	46.714	17.589	6.5559e-06	79.227	0.0088295	0.011775	0.0032104	902.08	0.00012776	0.00012337	1227.6	185.33	0.00011096	0.00011732	468.11	153.33	53.282	19.889	0.00010553	75.671	271.045	182.923	250.462	176.474	336.884	287.679	177.710	181.706	379.774	309.039	182.134	187.013	186.442	191.023	192.195	190.925	-8191	255	
18438.955	1	1	0	0	0.070707	0.17083	0.15189	0.12456	0.10851	0.033331	0.089882	0.34648	0.028508	0.27759	0.14329	0.46294	0.25001	0.04174	0.14162	0.088162	-1.9896	-2.9417	-2.6625	-2.6271	-2.7375	-2.4917	-3.0271	-2.8042	-2.4062	-3.1583	-2.6729	-2.7646	-2.9542	-2.7375	-2.6917	-2.7792	483.411	522.620	494.242	518.340	299.767	417.990	473.720	473.390	177.533	392.105	352.063	469.701	228.714	332.968	420.707	404.683	0.00089634	0.0010982	0.00047435	780.62	2.0768e-05	2.3396e-05	1376.4	186.24	1.0126e-05	1.2104e-05	488.09	163.38	48.188	18.089	1.2882e-05	79.072	0.0071643	0.0096106	0.0026488	892.46	0.0001099	0.00011239	1265.5	189.12	9.9103e-05	0.00010743	468.83	155.81	53.73	20.116	0.00010386	76.097	266.126	216.899	228.198	176.070	456.705	240.366	177.592	181.997	269.454	291.583	182.296	187.478	185.787	190.790	322.856	190.679	-8191	255	
18439.051	1	1	0	0	0.37899	0.25504	0.069278	0.1154	0.051521	0.18784	0.13103	0.2571	0.18587	0.13687	0.31632	0.20143	0.18365	0.17151	0.019846	0.10895	-2.0292	-2.7729	-2.6583	-2.5708	-3.0125	-2.5938	-2.9583	-2.6542	-2.3479	-2.7875	-2.7979	-2.8333	-2.8958	-2.6854	-2.7354	-3.1021	384.097	415.322	340.383	203.450	352.346	296.836	519.241	231.439	506.251	282.458	186.067	509.784	414.411	458.342	339.371	404.453	0.0007665	0.0030599	0.00025627	789.46	7.4501e-06	1.6785e-05	1390	186.32	2.331e-06	2.503e-05	490.99	161.53	48.002	17.906	7.8213e-06	78.567	0.0071683	0.0096005	0.0026382	906.67	0.00010318	0.00010932	1278.2	188.76	0.00010174	0.00010961	475.3	154.85	54.417	20.161	0.00010849	75.465	256.691	266.358	346.108	176.496	179.349	337.504	177.553	181.627	416.269	340.838	181.960	187.758	186.143	190.296	214.764	190.908	-8191	255	
18439.148	1	1	0	0	0.15342	0.14333	0.12424	0.10206	0.016047	0.30565	0.033722	0.048922	0.19891	0.17272	0.36871	0.28805	0.054195	0.21601	0.25192	0.14899	-2.0375	-2.7062	-2.5438	-2.5563	-2.8875	-2.625	-2.9396	-2.9542	-2.5479	-2.8479	-2.8375	-2.6708	-2.8812	-2.7875	-2.7125	-2.8937	473.101	330.812	331.379	243.047	282.575	344.049	423.982	189.465	360.229	467.336	453.264	453.588	335.520	297.146	431.073	476.289	0.00074419	0.0017748	0.00021032	778.67	1.4821e-05	2.6033e-05	1377.3	187.49	5.3919e-06	2.3323e-05	499.34	165.12	50.036	18.995	1.3505e-05	84.063	0.0074684	0.0099375	0.0027252	898.68	0.00010404	0.00012283	1269.2	188.69	9.6342e-05	0.00010261	472.8	157.24	54.467	20.608	9.2508e-05	79.336	269.401	236.643	177.702	177.046	282.196	197.710	177.604	181.606	425.903	462.723	182.157	187.489	186.184	190.560	205.244	190.631	-8191	255	
18439.268	1	1	0	0	0.14432	0.13556	0.057778	0.23058	0.34809	0.20608	0.41764	0.089047	0.21722	0.17179	0.14158	0.37273	0.12994	0.2235	0.074379	0.10195	-2.2062	-2.75	-2.5896	-2.2875	-2.8312	-2.725	-2.6771	-2.7875	-2.5917	-2.7896	-2.9896	-2.5521	-2.9521	-2.5625	-2.55	-2.9646	173.001	386.028	506.950	171.949	288.476	284.424	449.412	463.248	273.074	374.512	462.436	470.659	266.169	195.967	467.401	441.801	0.00087664	0.0022959	0.000469	803.48	1.7941e-05	2.4827e-05	1428.6	198.82	1.4279e-05	1.6323e-05	520.66	177.48	53.272	21.035	4.7158e-06	89.148	0.0069347	0.0083238	0.0022704	879.58	8.718e-05	9.1887e-05	1294.4	194.11	8.096e-05	8.5781e-05	491.45	164.7	56.059	21.628	8.0255e-05	82.698	267.700	331.497	499.316	175.652	292.272	370.052	177.869	181.538	271.234	345.753	182.420	187.298	185.809	190.967	429.743	190.601	-8191	255	
18439.363	1	1	0	0	0.23707	0.2274	0.22234	0.096622	0.1018	0.09584	0.28505	0.12765	0.3129	0.036381	0.33719	0.27271	0.054791	0.14012	0.24393	0.34415	-2.2542	-2.6625	-2.7521	-2.5396	-2.8354	-2.5396	-2.7562	-2.9313	-2.5625	-2.6583	-2.8292	-2.7271	-2.9104	-2.7104	-2.5375	-3.0062	486.863	399.504	236.935	344.718	395.049	301.408	402.707	398.426	270.943	168.232	496.827	203.970	343.670	486.754	476.736	506.929	0.00084123	0.0015141	0.00054825	839.27	1.7496e-05	1.4717e-05	1466.5	205.76	4.3772e-06	1.0871e-05	529.37	179.25	54.763	21.019	5.2189e-06	87.442	0.0060851	0.0075681	0.0020595	894.78	8.1254e-05	9.9051e-05	1323.6	198.98	7.7153e-05	8.0964e-05	491.85	166.81	56.741	21.726	8.0707e-05	81.473	261.009	322.167	228.014	177.193	342.788	185.618	177.693	182.036	263.803	342.128	182.151	187.592	186.456	190.706	249.197	190.466	-8191	255	
18439.461	1	1	0	0	0.20011	0.094059	0.085922	0.078201	0.24169	0.27191	0.12177	0.15896	0.12018	0.25203	0.2865	0.14935	0.29126	0.35001	0.051248	0.36602	-2.025	-2.8063	-3.1354	-2.6021	-2.7979	-2.5812	-2.6479	-2.8688	-2.5646	-2.7125	-2.9979	-2.675	-2.9021	-2.7604	-2.7375	-3.0333	264.980	433.972	180.452	288.819	522.458	266.460	391.876	505.773	283.257	214.756	470.528	449.973	424.650	495.339	206.652	447.748	0.00067532	0.00049889	0.00052952	847.36	2.5166e-06	1.9881e-05	1458.7	200.23	8.5108e-06	5.5587e-06	528.07	176.53	53.328	20.579	1.7473e-05	86.307	0.0070895	0.0075465	0.0021195	900.42	8.2696e-05	8.736e-05	1319.7	195.75	7.7795e-05	8.0304e-05	488.31	165.34	55.289	21.074	7.6257e-05	80.197	274.484	384.072	211.011	176.219	321.432	193.175	177.528	181.564	294.532	281.250	182.044	187.365	185.715	190.582	350.733	190.177	-8191	255	
18439.557	1	1	0	0	0.12225	0.16133	0.22178	0.24121	0.25954	0.052632	0.24691	0.24499	0.14772	0.034555	0.083195	0.033523	0.11283	0.16297	0.1203	0.30135	-2.2104	-2.625	-2.7833	-2.3979	-2.8646	-2.825	-2.7042	-2.9208	-2.6458	-2.6833	-3.0125	-2.5792	-2.6917	-2.7708	-2.65	-2.9479	393.431	306.094	398.302	500.425	397.925	185.546	469.556	467.493	283.350	203.350	301.390	313.715	522.226	285.195	480.680	174.529	0.00098237	0.0010504	0.00050173	847.98	1.4645e-05	2.1073e-05	1461.2	200.03	6.4877e-06	2.3403e-05	518.49	175.02	52.186	20.11	1.0902e-05	85.105	0.0058668	0.0070286	0.0020056	891.56	7.7287e-05	9.679e-05	1313.6	193.93	7.4948e-05	7.7258e-05	479.9	163	54.53	20.643	7.5878e-05	78.69	263.594	345.125	237.743	177.246	332.059	208.211	177.653	181.814	360.170	349.818	182.085	187.273	185.684	190.608	283.389	190.467	-8191	255	
18439.652	1	1	0	0	0.17534	0.092459	0.071072	0.16017	0.11274	0.17424	0.28174	0.24465	0.18136	0.15386	0.24939	0.34661	0.20305	0.074211	0.15623	0.17438	-2.0938	-2.5271	-2.8875	-2.6417	-2.6437	-2.925	-2.8104	-2.9	-2.8271	-2.6042	-3.1896	-2.6437	-2.6021	-2.8167	-2.5833	-2.975	192.015	261.610	215.266	386.072	515.120	458.729	442.807	486.832	258.462	256.865	477.555	497.023	479.294	191.517	304.539	176.836	0.00058659	0.0018631	0.00011985	858.86	1.0698e-05	1.94e-05	1460.8	201.19	1e-05	5.5165e-06	520.76	176.22	53.692	20.426	9.0612e-06	85.984	0.006548	0.0068875	0.0019821	896.41	7.7133e-05	8.1823e-05	1314.5	193.94	7.3708e-05	7.6375e-05	481.91	165.53	55.215	20.964	7.4777e-05	79.886	288.808	307.517	183.099	176.550	361.207	334.216	177.531	181.353	214.441	357.749	182.469	187.461	185.715	190.097	320.980	190.630	-8191	255	
18439.748	1	1	0	0	0.33505	0.30072	0.041361	0.14277	0.050713	0.097181	0.04767	0.36998	0.16374	0.24562	0.27533	0.18665	0.22737	0.16792	0.089481	0.14637	-2.2812	-2.5312	-2.875	-2.5771	-2.6542	-2.9	-2.5792	-2.9021	-2.7208	-2.5646	-3.0833	-2.6771	-2.65	-3	-2.6188	-3.0187	423.216	285.614	439.011	439.388	283.494	229.082	184.263	510.507	258.153	365.217	473.241	396.602	411.465	186.861	482.838	479.392	0.00085516	1.7755e-05	0.00032888	856.39	8.6179e-06	6.6071e-06	1472.9	204.18	7.8196e-06	1.6541e-05	527.53	177.93	53.14	20.646	5.8166e-06	86.643	0.0056771	0.0069329	0.0019844	903.64	7.6431e-05	8.4028e-05	1335.1	197.21	7.6501e-05	7.9554e-05	488.09	165.58	55.549	21.244	7.9276e-05	80.151	258.104	466.310	267.278	176.441	272.191	452.827	177.347	181.772	396.702	291.133	181.988	187.456	185.843	189.618	424.253	190.228	-8191	255	
18439.869	1	1	0	0	0.12973	0.11145	0.16252	0.30519	0.11283	0.24447	0.1778	0.12188	0.067008	0.061196	0.065139	0.048398	0.21585	0.083623	0.2913	0.16265	-2.4313	-2.6	-2.825	-2.7313	-2.6833	-2.8583	-2.8875	-2.8292	-2.9083	-2.6104	-3.1792	-2.8958	-2.5625	-3.0312	-2.5854	-3.1	265.488	217.606	421.126	253.281	336.365	337.633	424.685	193.810	265.307	218.543	232.725	324.965	482.684	466.141	488.344	430.405	0.00071217	0.00087198	0.0005558	835.24	2.4036e-05	1.9973e-05	1458.4	202.66	6.285e-06	1.6337e-05	523.77	176.61	53.178	20.374	8.502e-06	87.302	0.0068782	0.0073829	0.0021327	903.01	8.1657e-05	8.6176e-05	1323.7	196.82	8.1912e-05	8.5355e-05	486.53	166.92	55.781	21.388	8.2634e-05	81.004	264.424	266.693	284.755	176.717	487.832	294.949	177.503	181.947	350.032	365.480	182.184	187.475	186.138	190.357	286.738	190.114	-8191	255	
18439.963	1	1	0	0	0.18902	0.13582	0.055685	0.23434	0.15896	0.28855	0.10949	0.11135	0.030326	0.2539	0.32274	0.18474	0.12814	0.10503	0.030728	0.11786	-2.325	-2.4896	-2.7458	-2.5896	-2.6875	-2.7271	-2.6854	-2.7271	-2.7625	-2.7792	-2.975	-2.9708	-2.6417	-3.0229	-2.6646	-2.8063	329.449	182.078	334.815	212.480	504.510	362.855	422.240	332.885	311.084	406.617	475.229	510.078	513.374	212.699	259.094	395.913	0.00066828	0.00041151	0.0005561	836.1	1.483e-05	1.8393e-05	1436.2	199.23	1.6398e-05	2.9841e-05	520.1	174.94	52.714	20.428	4.0784e-06	88.15	0.0062325	0.0075983	0.0022034	902.47	8.3785e-05	8.8778e-05	1316.4	195.75	8.5025e-05	8.9345e-05	485.91	164.99	56.131	21.625	8.724e-05	82.312	281.007	428.721	272.296	176.682	328.769	230.241	177.279	181.964	310.325	308.891	182.009	187.383	185.409	190.899	354.724	190.452	-8191	255	
18440.061	1	1	0	0	0.094896	0.11162	0.32603	0.28881	0.11594	0.16342	0.24015	0.065964	0.1307	0.1857	0.27687	0.26866	0.2086	0.15775	0.064609	0.12133	-2.4104	-2.55	-2.6771	-2.7417	-2.7292	-2.8812	-2.6542	-2.85	-2.8396	-2.6396	-2.8729	-3.1688	-2.5958	-2.8396	-2.9333	-2.9104	232.946	283.423	380.782	453.671	340.445	456.565	499.980	520.340	389.220	205.626	464.029	176.345	495.803	482.994	240.569	505.629	0.00072584	0.00075225	0.00023917	807.43	1.0201e-05	1.7467e-05	1420.5	199.56	2.5499e-06	1.2601e-05	513.43	175.72	52.368	20.471	1.716e-05	88.317	0.0066364	0.0089249	0.002287	893.61	8.8153e-05	9.3436e-05	1297.6	195.42	8.9309e-05	9.4187e-05	483.92	167.11	56.192	21.87	9.4419e-05	82.88	279.395	474.587	231.720	176.180	359.649	348.662	177.651	181.920	200.819	326.824	182.118	187.124	185.551	190.589	428.063	190.484	-8191	255	
18440.156	1	1	0	0	0.046847	0.056426	0.032763	0.077913	0.054073	0.26329	0.32851	0.25184	0.076265	0.22789	0.16092	0.34559	0.11688	0.060628	0.16533	0.15114	-2.7125	-2.4729	-2.7979	-2.9	-2.7021	-2.9458	-2.9375	-2.8292	-2.9646	-2.6979	-3.0104	-2.9458	-2.7417	-2.8	-2.6333	-2.7083	180.230	171.516	290.821	291.856	453.148	480.080	487.423	472.007	462.385	463.427	374.506	516.653	406.421	303.196	417.897	477.439	0.001079	0.00078272	0.00033931	792.07	4.3084e-06	1.6769e-05	1396.2	195.3	7.9319e-06	1.6128e-05	510.79	173.31	52.003	20.22	2.1374e-05	88.183	0.0067768	0.0092952	0.0024922	891.08	9.4593e-05	0.00010017	1291	193.89	9.4111e-05	9.8648e-05	482.2	163.81	56.316	21.883	9.618e-05	82.642	259.428	226.881	365.779	176.036	373.645	336.241	177.414	181.485	268.887	311.452	182.309	187.561	185.365	190.667	416.944	190.227	-8191	255	
18440.252	1	1	0	0	0.11716	0.15517	0.061096	0.052242	0.060625	0.032892	0.36375	0.15954	0.13057	0.13012	0.44164	0.12799	0.13097	0.049427	0.12525	0.076733	-2.6396	-2.6104	-2.7604	-2.8625	-2.5875	-2.7687	-2.9062	-2.6729	-2.9979	-2.7271	-2.9125	-2.8729	-2.5375	-2.9083	-2.8958	-2.7812	255.650	402.769	301.204	299.085	199.354	269.654	483.446	514.770	483.951	504.922	483.509	500.499	234.803	272.935	271.781	470.709	0.00087928	0.00207	0.00016642	778.78	6.5759e-06	1.7051e-05	1384.1	194.33	5.9024e-06	8.3749e-06	510.18	173.24	52.698	20.729	1.5757e-05	89.844	0.0068486	0.01028	0.0024506	886.17	9.528e-05	9.9619e-05	1274.5	193.15	9.5997e-05	0.00010059	482.49	164.57	57.896	22.168	9.67e-05	84.096	260.711	335.494	465.363	176.333	241.801	240.978	177.471	181.537	347.273	189.449	181.857	187.392	185.719	190.687	239.057	190.505	-8191	255	
18440.348	1	1	0	0	0.040879	0.16154	0.15556	0.18299	0.33974	0.16686	0.17392	0.15734	0.15427	0.22732	0.034627	0.21117	0.25553	0.33334	0.094431	0.18304	-2.6104	-2.6333	-2.5062	-2.9792	-2.5708	-2.7417	-3.1542	-2.3229	-2.7854	-2.7375	-2.8812	-2.9833	-2.6375	-2.5375	-2.8521	-2.825	401.759	240.917	221.107	188.416	271.534	190.665	432.318	518.845	439.242	213.699	284.804	403.642	509.263	403.210	190.831	470.932	0.00074942	0.00082218	0.00012936	769.39	9.3326e-06	1.5189e-06	1383	193.73	9.8983e-06	1.7544e-05	513.54	173.82	51.819	20.767	8.7651e-06	90.262	0.0069516	0.0091251	0.0024329	877.85	9.2949e-05	9.6714e-05	1276.2	191.85	9.3152e-05	9.6977e-05	481.74	164.45	57.052	22.246	9.5528e-05	84.494	264.039	244.150	297.619	176.049	299.155	181.462	177.501	181.782	359.852	418.576	182.152	187.303	185.782	190.161	302.017	190.210	-8191	255	
18440.443	1	1	0	0	0.12519	0.12935	0.060945	0.09864	0.070075	0.028291	0.30771	0.12104	0.074308	0.061005	0.07999	0.34521	0.12982	0.055635	0.056948	0.1275	-2.5833	-2.7917	-2.6271	-3.0229	-2.5875	-2.7667	-3.0083	-2.5542	-2.8458	-2.7562	-2.5625	-2.9292	-2.7188	-2.7562	-2.8708	-2.5604	298.262	416.872	430.330	334.858	270.685	210.275	477.102	463.534	238.762	185.764	178.853	441.121	301.904	465.652	286.476	452.769	0.0008081	0.0018794	0.00035924	773.46	1.4217e-05	2.2933e-05	1389.4	194.62	1.0141e-05	1.1814e-05	511.56	173	52.713	20.952	1.8457e-05	89.688	0.0068443	0.010239	0.0024117	876.25	9.2419e-05	9.6769e-05	1270	192.9	9.1587e-05	9.4708e-05	480.65	163.63	58.272	22.042	9.3802e-05	83.632	273.115	471.532	246.468	176.123	243.761	370.614	177.543	181.967	430.938	360.717	182.297	187.286	186.318	190.625	381.678	190.775	-8191	255	
18440.564	1	1	0	0	0.33397	0.095736	0.22846	0.12056	0.28244	0.053461	0.41437	0.13617	0.34349	0.13454	0.18384	0.15768	0.049369	0.23059	0.075889	0.075914	-2.3417	-2.8125	-2.5479	-2.8292	-2.8708	-2.6958	-3.0625	-2.4958	-2.8708	-2.8146	-2.6854	-2.95	-2.8063	-2.625	-2.9896	-2.6458	316.589	430.507	237.102	177.288	324.264	400.858	175.810	423.552	432.516	261.666	475.118	383.936	300.680	178.432	274.205	173.635	0.0010149	0.00066368	0.00051286	777.58	9.7799e-06	4.2332e-06	1391.1	196.03	8.3053e-06	4.5154e-06	513.75	175.97	53.03	21.19	9.6646e-06	90.909	0.0067446	0.0090502	0.002385	882.75	9.2712e-05	9.503e-05	1274.5	196.89	9.1e-05	9.3699e-05	484.01	165.42	56.809	22.191	8.8533e-05	84.821	268.470	389.003	206.689	177.007	430.512	247.320	177.641	181.327	361.174	331.416	182.532	187.404	185.762	190.421	300.566	190.622	-8191	255	
18440.660	1	1	0	0	0.21774	0.31684	0.21948	0.098182	0.093009	0.2219	0.2312	0.097799	0.37481	0.11795	0.27882	0.2838	0.1822	0.12474	0.12753	0.26745	-2.3583	-2.8625	-2.5563	-2.7292	-2.7792	-2.4437	-3.0979	-2.7042	-2.6083	-2.8812	-2.7313	-2.9167	-2.6625	-2.6813	-2.7958	-2.7917	430.453	435.661	496.610	457.975	290.396	460.114	482.559	353.285	180.137	171.292	441.456	456.511	224.107	211.446	313.868	469.751	0.00092237	0.0032378	0.00016695	791.99	6.911e-06	2.4692e-05	1416.6	198.44	3.9853e-06	1.5232e-05	518.45	176.45	53.086	20.928	1.3887e-05	90.549	0.0062601	0.0096217	0.0022008	878.41	8.6241e-05	8.8506e-05	1287.7	195.98	8.6528e-05	9.1743e-05	485.82	165.9	58.462	22.029	9.0667e-05	84.149	265.167	405.597	499.591	176.709	376.990	352.505	177.996	181.840	410.265	248.062	182.107	187.790	185.915	189.697	318.782	190.297	-8191	255	
18440.732	1	1	0	0	0.33603	0.1999	0.2775	0.21712	0.23177	0.21955	0.067206	0.14504	0.0089008	0.15006	0.4068	0.37314	0.10728	0.2131	0.1299	0.2333	-2.3375	-2.8896	-2.3708	-2.7812	-2.6167	-2.575	-3.0125	-2.7208	-2.7396	-2.8917	-2.7938	-2.9125	-2.875	-2.5104	-2.9667	-2.7396	354.033	407.978	453.305	236.329	215.381	206.062	514.265	471.959	200.114	189.288	429.549	487.740	293.843	381.242	224.799	435.499	0.00099532	0.00078889	0.00013496	793.62	1.3029e-05	1.7349e-05	1407	196.88	4.7467e-06	1.1737e-05	512.89	174.89	52.325	20.555	4.4184e-06	89.987	0.0064898	0.0085137	0.0022674	876.99	8.7706e-05	8.935e-05	1277.4	197.27	8.3931e-05	8.826e-05	480.37	163.18	56.182	21.693	8.8682e-05	83.611	263.814	305.623	414.844	177.351	424.088	274.779	177.535	181.775	369.030	377.815	182.183	187.151	185.726	190.490	307.642	190.194	-8191	255	
18440.854	1	1	0	0	0.264	0.045424	0.085397	0.122	0.031236	0.17536	0.26971	0.16518	0.044086	0.1559	0.025825	0.20377	0.31167	0.093856	0.18564	0.29256	-2.1813	-2.8583	-2.5354	-2.8812	-2.7333	-2.5542	-2.9542	-2.8125	-2.7438	-2.7396	-2.5896	-2.7687	-2.7313	-2.5625	-2.8229	-2.8604	493.863	270.508	300.782	168.855	422.782	211.665	166.642	365.796	297.806	443.338	461.425	448.944	481.206	177.552	271.083	443.004	0.00078352	0.0019632	0.00073314	781.64	2.402e-05	1.3047e-05	1401.3	196.59	6.8797e-06	2.2082e-05	512.26	174.61	53.475	20.951	9.1914e-06	90.398	0.0063504	0.0084233	0.0025821	879.03	8.9409e-05	9.1967e-05	1277.5	194.66	8.8233e-05	9.4233e-05	482.55	164.23	58.755	22.083	9.2973e-05	84.277	273.266	362.971	500.600	176.052	352.219	427.989	177.820	181.815	219.653	326.105	182.253	187.442	186.227	190.079	370.424	190.518	-8191	255	
18440.947	1	1	0	0	0.17111	0.28071	0.17719	0.011746	0.1687	0.068295	0.13465	0.25434	0.22189	0.09568	0.39194	0.24684	0.21092	0.078615	0.18933	0.31494	-2.1646	-2.8042	-2.6375	-2.7104	-3.0229	-2.5771	-2.9604	-2.6479	-2.7771	-3.0104	-2.6146	-2.7083	-2.9583	-2.4813	-2.9542	-2.7542	282.968	382.603	310.731	383.514	215.003	323.724	461.609	484.008	409.644	496.866	475.593	507.816	304.291	472.722	414.154	487.721	0.00093368	0.0021873	0.00046584	785.21	1.1857e-05	7.176e-06	1391.8	197.28	1.1647e-05	1.7959e-05	515.37	174.49	52.107	20.722	1.9497e-05	89.878	0.0064965	0.0085604	0.0024763	881.61	9.412e-05	9.4705e-05	1278.3	199.25	9.0421e-05	9.7234e-05	484.04	164.46	56.955	22.047	9.4172e-05	84.248	267.787	517.499	252.964	176.366	329.679	396.059	177.781	181.625	394.603	268.651	181.997	187.370	185.914	189.989	331.321	190.173	-8191	255	
18441.043	1	1	0	0	0.22173	0.055661	0.13638	0.2674	0.038686	0.19116	0.35773	0.078818	0.19339	0.23515	0.19897	0.035161	0.19259	0.13167	0.34654	0.36945	-2.0646	-2.7771	-2.7292	-2.5271	-2.8625	-2.5792	-2.9792	-2.8438	-2.7042	-3.0146	-2.6354	-2.8771	-2.8229	-2.6333	-2.7042	-3.0583	174.437	418.579	474.010	256.833	292.479	201.506	475.490	387.207	207.388	516.907	512.787	230.486	234.068	168.268	258.540	442.664	0.00086975	0.0011505	0.0013664	778.9	2.4083e-06	2.2578e-05	1391.9	195.99	8.6779e-06	2.5806e-06	514.93	175.39	52.027	20.579	1.8737e-05	90.241	0.0065509	0.0086268	0.0028328	876.29	9.3304e-05	9.3511e-05	1274.3	194.8	8.9187e-05	9.59e-05	484.3	164.53	56.33	22.449	9.2516e-05	83.926	252.501	219.731	380.441	176.418	433.527	300.225	177.495	181.778	338.211	489.307	182.202	187.445	186.348	190.116	193.745	190.268	-8191	255	
18441.141	1	1	0	0	0.26407	0.12664	0.19572	0.13263	0.13046	0.077137	0.27213	0.31972	0.12286	0.14366	0.10835	0.27954	0.047666	0.11739	0.046082	0.41992	-2.1146	-2.8979	-2.6958	-2.6146	-3.0375	-2.6417	-3.1021	-2.8563	-2.5979	-2.9104	-2.7083	-2.5938	-3.0062	-2.7271	-2.7438	-2.9417	513.537	178.876	369.419	516.452	243.257	350.297	447.428	443.429	259.745	368.969	511.771	365.526	409.392	222.059	294.320	485.619	0.00073874	0.00050215	0.00025786	785.37	1.6344e-05	1.0526e-05	1391.6	195.48	4.4825e-06	2.0576e-05	511.94	173.18	52.836	20.738	1.1711e-05	89.294	0.0064733	0.0085228	0.0024434	876.65	9.1372e-05	9.3126e-05	1274.2	197.76	8.6704e-05	9.313e-05	481.24	162.86	56.022	21.951	9.1383e-05	83.33	265.704	334.096	185.223	176.811	356.957	521.680	177.833	181.210	459.854	328.319	182.453	187.288	185.597	190.406	315.576	190.165	-8191	255	
18441.260	1	1	0	0	0.065302	0.24199	0.26499	0.21277	0.051243	0.031621	0.19604	0.15439	0.31131	0.13149	0.062029	0.18413	0.26492	0.12781	0.27936	0.23399	-2.275	-2.7542	-2.65	-2.6083	-2.8688	-2.6271	-2.7708	-2.8292	-2.4646	-2.9813	-2.7417	-2.9104	-3.0687	-2.5979	-2.8438	-2.9375	401.183	380.472	189.950	398.820	324.622	414.614	424.968	332.633	369.665	248.760	394.586	518.532	230.162	481.400	366.252	501.544	0.00098325	0.0015839	0.00064334	794.99	1.1802e-05	1.435e-05	1406.8	197.67	8.1189e-06	2.2961e-05	517.24	175.97	53.235	20.95	9.6415e-06	90.413	0.0063237	0.0085031	0.0027262	881.38	8.9852e-05	9.0499e-05	1284.6	194.51	8.5696e-05	9.1378e-05	485.21	164.78	56.605	22.778	8.8437e-05	84.151	258.401	260.187	467.467	176.688	207.827	440.978	177.620	181.462	300.682	307.762	182.139	187.501	185.965	190.590	284.747	190.532	-8191	255	
18441.332	1	1	0	0	0.085802	0.20944	0.12842	0.3581	0.11893	0.23725	0.25163	0.27905	0.19875	0.19485	0.27956	0.12034	0.196	0.073138	0.1422	0.21015	-2.2083	-2.8708	-2.7687	-2.4958	-2.8625	-2.7854	-2.8937	-3.0104	-2.6604	-2.8542	-2.9813	-2.5229	-2.8875	-2.7375	-2.65	-2.9854	460.865	488.342	230.205	453.554	367.511	412.119	503.668	479.246	360.567	258.881	440.837	169.502	470.936	193.104	474.386	477.915	0.00089772	0.00075607	0.00030994	812.92	2.8558e-06	9.5169e-06	1428	201.16	4.1009e-05	9.3303e-06	524.27	177.48	53.996	21.287	7.3256e-06	90.959	0.0062736	0.0082167	0.0023679	888.82	8.8512e-05	9.0296e-05	1297.1	196.33	9.7413e-05	9.0419e-05	488.51	166.63	56.909	22.412	8.7455e-05	84.862	250.556	194.099	360.657	176.479	191.123	273.557	177.583	182.253	248.600	322.084	182.431	187.443	186.089	190.524	287.346	190.668	-8191	255	
18441.428	1	1	0	0	0.10274	0.30363	0.068695	0.10469	0.031575	0.25735	0.15267	0.25667	0.24438	0.24517	0.20483	0.17302	0.12658	0.26454	0.28959	0.094772	-2.125	-2.7313	-2.7875	-2.5125	-2.9083	-2.7625	-2.7792	-2.8563	-2.3917	-2.7958	-3.0583	-2.7021	-3.1104	-2.8542	-2.5167	-2.8812	299.674	481.463	477.547	188.517	381.350	337.841	463.590	434.374	235.747	220.202	189.809	440.441	488.789	198.981	503.462	180.447	0.00085957	0.0011723	0.00045586	801.47	6.2535e-06	3.2198e-06	1422.9	200.36	9.7065e-06	1.8787e-05	520.73	176.36	52.672	20.929	1.1025e-05	90.994	0.0062248	0.0081397	0.0027167	884.44	8.9244e-05	8.9913e-05	1295.5	196.63	8.8865e-05	8.944e-05	487.13	165.39	56.257	22.68	8.5139e-05	84.495	256.438	268.400	469.120	176.605	425.991	282.663	177.868	181.920	306.844	271.518	182.357	187.411	186.040	190.491	339.804	190.432	-8191	255	
18441.549	1	1	0	0	0.18317	0.19897	0.18075	0.14421	0.2432	0.028973	0.13907	0.047148	0.15067	0.071894	0.31588	0.22646	0.026297	0.087446	0.11905	0.051654	-2.2417	-2.8667	-2.7542	-2.4813	-2.8125	-2.6854	-2.9333	-2.9396	-2.7583	-2.7146	-3.0021	-2.5187	-2.7646	-2.9188	-2.575	-3.125	277.961	275.534	225.218	478.756	247.043	384.362	273.207	464.516	356.741	495.842	475.327	475.825	367.876	426.324	419.209	224.041	0.00094365	0.0012073	7.7934e-05	801.59	3.5149e-06	1.1905e-05	1420.2	199.4	2.9209e-05	1.7425e-05	518.22	175.55	53.015	20.798	1.3792e-05	89.819	0.0061337	0.0079959	0.002315	885.74	8.8013e-05	9.0217e-05	1291.8	195.86	0.00010279	9.1611e-05	485.81	164.27	56.354	22.139	8.7414e-05	83.762	263.571	231.553	485.538	175.886	424.916	311.968	177.913	181.364	281.465	209.104	182.129	187.160	186.046	190.468	287.304	190.818	-8191	255	
18441.645	1	1	0	0	0.062066	0.11749	0.16766	0.40698	0.062313	0.088069	0.35459	0.11703	0.30542	0.12995	0.11059	0.18505	0.19579	0.1152	0.21263	0.11572	-2.3417	-2.6229	-2.8271	-2.8479	-2.9396	-2.8479	-2.6396	-2.8521	-2.6271	-2.4688	-3.0458	-2.6437	-2.6333	-2.9917	-2.5812	-3.0729	473.861	251.798	226.794	164.476	426.153	514.743	424.914	508.015	346.803	288.778	490.100	471.940	175.579	296.162	228.883	493.159	0.00092226	0.00086606	0.00028721	812.57	5.3077e-06	1.2519e-05	1424.3	197.21	2.1318e-05	8.0888e-06	519.73	174.68	52.444	20.655	1.5678e-05	88.604	0.006394	0.0082673	0.0023358	926.69	9.1686e-05	9.3927e-05	1291.4	195.89	9.4112e-05	9.3859e-05	486.82	164.51	56.717	22.8	9.26e-05	83.523	267.782	275.583	458.059	177.029	242.440	242.631	177.819	181.494	343.527	341.249	181.904	187.340	186.185	190.641	279.693	190.727	-8191	255	
18441.740	1	1	0	0	0.15461	0.12284	0.11145	0.20613	0.16173	0.038362	0.15713	0.22185	0.14865	0.26552	0.086264	0.141	0.087131	0.24609	0.095551	0.25057	-2.1833	-2.7208	-2.7583	-2.5333	-2.6542	-2.8937	-2.5729	-2.9938	-2.6542	-2.7021	-3.1542	-2.7104	-2.7021	-2.9667	-2.5833	-3.0625	409.566	200.658	441.973	206.634	197.540	456.700	431.147	217.153	390.138	413.284	306.311	508.089	495.317	512.960	192.159	453.318	0.00087937	0.00033174	0.00046338	793.94	1.3891e-05	1.0327e-05	1400.4	194.93	2.1971e-05	3.2917e-05	513.13	171.77	51.893	20.457	1.8077e-05	88.065	0.0067785	0.0087436	0.0024973	906.19	9.7828e-05	0.00010142	1280.3	195.31	0.00011262	0.00010056	484.82	163.79	56.701	22.13	9.8009e-05	82.625	259.421	479.209	281.499	175.964	388.904	277.119	177.680	181.750	293.135	369.739	181.938	187.231	186.235	189.882	331.982	190.557	-8191	255	
18441.861	1	1	0	0	0.085213	0.092926	0.10673	0.30335	0.30697	0.07393	0.18861	0.062613	0.077741	0.25444	0.17473	0.18555	0.39656	0.36371	0.12813	0.10892	-2.3042	-2.6708	-2.7792	-2.6229	-2.725	-2.8792	-2.6625	-3.075	-2.7	-2.5729	-3.0583	-2.775	-2.7	-2.9917	-2.4604	-2.9396	191.730	516.744	328.614	514.224	279.046	509.332	475.046	237.046	210.714	226.329	401.292	468.081	507.004	456.513	205.278	469.181	0.00079707	0.00075815	0.00056248	768.33	7.3066e-06	5.332e-06	1401	195.29	1.7032e-05	1.7496e-05	512.95	173.53	52.219	20.552	1.6103e-05	89.242	0.0070702	0.0090319	0.0025767	932.61	9.8651e-05	0.00010144	1280.3	194.79	0.00010008	9.8011e-05	484.14	163.88	56.56	21.963	0.00010899	83.573	266.734	332.649	202.135	175.914	495.281	479.685	177.749	181.612	361.087	395.534	182.371	187.640	185.898	190.330	195.625	190.565	-8191	255	
18441.957	1	1	0	0	0.098749	0.023422	0.15227	0.16336	0.21107	0.15265	0.10187	0.26429	0.080743	0.19099	0.30936	0.29588	0.073242	0.20938	0.23547	0.1396	-2.3667	-2.5229	-2.8375	-2.6542	-2.5646	-3.0083	-2.7396	-2.7979	-2.8667	-2.6875	-3.1	-2.7625	-2.5563	-3.0125	-2.6437	-2.8146	347.355	422.563	481.377	275.053	356.182	364.775	263.542	447.858	445.643	282.858	485.378	491.811	179.473	323.453	298.122	467.977	0.00072996	0.00083767	8.1231e-05	800.07	1.0951e-05	5.9899e-06	1419.1	198.03	1.458e-05	1.8233e-05	516.61	173.66	52.442	20.485	3.0027e-05	87.429	0.0067214	0.0085491	0.0024426	906.68	9.2901e-05	9.5438e-05	1295.7	196.3	0.0001064	9.3795e-05	485.9	163.87	56.341	21.839	9.7345e-05	82.073	272.435	492.639	297.355	176.609	313.890	267.744	177.413	181.838	312.603	316.675	182.134	187.745	186.057	190.548	423.369	190.365	-8191	255	
18442.029	1	1	0	0	0.11294	0.13417	0.1991	0.19144	0.22542	0.18533	0.36569	0.12603	0.16797	0.13711	0.39041	0.25835	0.058856	0.26544	0.099661	0.22576	-2.5021	-2.3688	-3	-2.6229	-2.5583	-2.9833	-2.8187	-2.825	-2.8708	-2.5438	-2.9333	-2.7625	-2.6792	-3.1104	-2.6188	-2.8521	399.845	419.850	248.097	437.621	206.422	463.927	466.319	290.668	314.133	220.301	483.810	163.710	172.736	370.820	342.331	490.098	0.00087174	0.00091608	0.00044683	818.74	9.6491e-06	1.5201e-05	1430.3	200.96	1.152e-05	1.0428e-05	518.04	176.2	53.259	20.832	3.7491e-05	88.004	0.0066618	0.0084562	0.0024125	945.95	9.2224e-05	9.5217e-05	1303.3	197.08	9.1573e-05	9.2572e-05	487.74	164.93	56.65	21.913	0.00010885	82.444	260.396	209.448	255.163	175.236	238.360	309.088	177.735	181.678	371.151	234.814	182.109	187.611	185.563	190.537	413.025	190.255	-8191	255	
18442.148	1	1	0	0	0.14536	0.27442	0.037823	0.2683	0.17685	0.1162	0.39054	0.10348	0.13418	0.057699	0.42381	0.26439	0.16318	0.096373	0.14439	0.25753	-2.4021	-2.55	-2.8333	-2.8104	-2.7458	-2.875	-2.825	-2.7313	-3.1146	-2.4437	-2.9354	-2.9875	-2.5687	-2.9604	-2.7438	-2.7729	366.501	456.742	498.950	171.756	340.684	485.454	481.863	463.600	200.141	475.076	506.688	439.920	466.468	236.578	244.043	176.307	0.00097272	0.0030449	0.00041607	826.78	1.3509e-05	1.4056e-05	1436.4	203.13	1.6894e-05	3.2755e-05	524.86	175.42	52.982	20.891	2.1769e-05	88.436	0.006567	0.0084175	0.0023884	926.13	9.0114e-05	9.4536e-05	1310.8	198.6	8.8829e-05	0.00010739	490.55	165.46	56.547	21.991	9.2813e-05	82.53	266.846	204.929	259.752	176.953	418.892	362.543	177.880	182.063	204.271	284.019	182.126	187.265	186.530	190.066	361.980	190.490	-8191	255	
18442.244	1	1	0	0	0.21881	0.083823	0.18011	0.32939	0.065533	0.31175	0.43324	0.018552	0.15778	0.18749	0.18732	0.052823	0.25062	0.20468	0.16138	0.43731	-2.4896	-2.7042	-2.8521	-2.8604	-2.6375	-2.9146	-2.875	-2.6854	-2.9604	-2.5708	-2.9208	-3.0729	-2.5396	-2.9042	-2.7875	-2.7438	478.445	416.210	168.562	232.997	260.637	484.135	440.569	168.273	268.845	382.048	166.018	193.172	483.858	474.002	249.434	483.079	0.0007906	0.0006055	0.00046721	827.66	6.134e-06	1.9361e-05	1447.7	201.54	1.0221e-05	1.7228e-05	526.37	177	53.292	20.97	1.9022e-05	88.434	0.0063638	0.0082299	0.002329	949.68	8.8807e-05	9.2895e-05	1313	197.28	8.7254e-05	9.5006e-05	490.62	165.78	56.722	21.893	0.00010383	82.792	257.907	264.440	502.718	176.050	323.057	273.202	177.410	181.426	493.426	318.913	182.302	187.530	185.528	190.587	434.578	190.046	-8191	255	
18442.342	1	1	0	0	0.27246	0.44738	0.29366	0.053048	0.1534	0.1828	0.21567	0.10369	0.14669	0.16551	0.17853	0.30343	0.26853	0.055016	0.2213	0.44135	-2.4229	-2.5292	-2.8	-2.8083	-2.6312	-2.9062	-2.9833	-2.5854	-2.8146	-2.6937	-2.7104	-3.0625	-2.5854	-2.9042	-2.7604	-2.8021	371.624	345.664	491.329	454.924	239.508	215.788	200.736	515.786	273.042	471.572	501.876	457.995	507.056	327.438	363.033	458.081	0.0007027	0.0021114	0.00046004	832.26	3.0008e-06	4.1232e-06	1460.6	203.7	1.9201e-05	4.4195e-05	525.16	176.46	54.102	20.903	7.7702e-06	88.101	0.0062076	0.0079464	0.0022394	917.6	8.5344e-05	8.7416e-05	1324	198.39	8.2741e-05	0.00010341	490.29	165.24	56.234	21.812	8.8104e-05	81.603	259.886	227.432	370.868	176.364	375.769	269.992	177.478	181.956	369.633	343.270	182.228	187.360	185.601	190.340	361.825	190.377	-8191	255	
18442.438	1	1	0	0	0.1671	0.13238	0.11033	0.13032	0.24457	0.21223	0.17255	0.11296	0.10349	0.15653	0.12593	0.019867	0.079699	0.32832	0.09111	0.19418	-2.4062	-2.7438	-2.4	-2.8521	-2.5875	-2.9292	-3.0354	-2.5479	-2.8354	-2.5583	-2.7854	-3.0167	-2.7	-2.8438	-2.8958	-2.6125	510.064	456.691	405.793	187.055	393.532	492.031	449.661	438.916	188.584	344.019	276.941	182.064	242.729	495.733	521.867	398.792	0.00093234	0.00099597	0.00034873	822.99	1.6284e-05	1.5473e-05	1453	203.23	1.1046e-05	2.1305e-05	523.52	174.61	52.814	20.728	1.2076e-05	87.876	0.0060576	0.0076739	0.002119	900.53	9.8596e-05	8.5542e-05	1313.5	196.94	8.0671e-05	8.9595e-05	485.51	163.95	55.731	21.591	9.8338e-05	81.324	268.835	379.623	280.514	176.665	193.007	316.698	177.873	181.330	304.178	298.466	182.445	187.807	185.053	189.968	414.732	190.407	-8191	255	
18442.557	1	1	0	0	0.16884	0.26984	0.13803	0.07544	0.13	0.063501	0.32821	0.30288	0.071138	0.24621	0.13461	0.23029	0.061685	0.12233	0.12142	0.087614	-2.4562	-2.775	-2.575	-2.9896	-2.6437	-2.7542	-3.0625	-2.4792	-2.9875	-2.6479	-2.8	-2.9542	-2.8875	-2.7375	-2.8854	-2.65	215.799	274.830	188.902	194.271	283.695	323.660	418.089	480.019	445.559	503.544	443.525	169.406	168.931	471.547	431.415	464.165	0.0009143	0.0020879	6.4687e-05	838	1.2423e-05	7.8307e-06	1458.8	205.25	1.1476e-05	3.4092e-05	526.25	178.3	54.415	20.846	2.2498e-05	88.001	0.006006	0.007603	0.0020921	905.97	8.5387e-05	8.3227e-05	1320.8	197.02	7.9348e-05	9.9333e-05	487.87	165.57	56.359	21.636	8.2785e-05	81.705	259.776	401.889	491.322	176.377	256.529	369.743	177.544	181.352	298.665	314.495	182.219	187.349	185.452	190.168	311.715	190.242	-8191	255	
18442.629	1	1	0	0	0.23765	0.1645	0.048376	0.084125	0.16274	0.030446	0.19887	0.18377	0.033019	0.021285	0.23119	0.20562	0.097907	0.27693	0.1218	0.38357	-2.4833	-2.7125	-2.6104	-3.05	-2.5667	-2.7667	-3.1479	-2.4833	-2.7917	-2.7313	-2.6667	-3.0438	-2.7979	-2.7208	-2.8063	-2.7021	392.040	209.587	371.159	274.440	502.859	522.919	350.329	265.849	308.780	354.075	406.871	498.703	280.771	277.105	430.410	453.466	0.00078416	0.00031845	0.00053955	854.1	2.2813e-05	1.7392e-05	1458.6	202.09	4.633e-06	3.0527e-05	521.2	176.86	53.658	20.914	9.3396e-06	87.685	0.005928	0.0076032	0.0021123	913.36	9.917e-05	8.6065e-05	1321.2	197.26	8.3769e-05	9.0825e-05	488.31	165.95	56.473	21.783	8.5471e-05	82.986	264.479	461.622	252.822	177.047	268.848	429.895	177.699	181.488	403.634	291.804	182.100	187.562	186.349	190.528	183.662	190.485	-8191	255	
18442.725	1	1	0	0	0.08535	0.14314	0.24064	0.097697	0.03777	0.29115	0.1596	0.25227	0.071587	0.35012	0.029925	0.17842	0.36855	0.1527	0.24937	0.14661	-2.5354	-2.7438	-2.6	-3.0458	-2.6729	-2.6771	-2.9813	-2.6458	-2.9792	-2.9292	-2.8104	-3.0354	-2.7792	-2.6188	-2.8375	-2.6625	345.083	364.890	459.679	222.957	189.244	271.128	436.722	214.828	227.775	360.199	217.955	215.815	498.246	342.528	479.205	432.583	0.00088403	0.0012251	0.00026419	835.82	1.0523e-05	7.2128e-06	1463.7	205.73	1.4361e-05	4.1758e-05	531.61	181.85	55.267	21.792	6.8697e-06	91.577	0.0062563	0.0080067	0.0021828	914.54	9.1444e-05	8.8046e-05	1324.6	199.45	8.4966e-05	0.0001042	493.94	169.72	57.868	22.545	8.2011e-05	85.115	263.005	382.585	513.574	176.643	261.550	229.964	177.813	181.369	358.749	380.809	182.421	187.404	185.944	189.233	253.775	190.215	-8191	255	
18442.820	1	1	0	0	0.24236	0.25006	0.098253	0.17216	0.2872	0.17944	0.22373	0.18809	0.21677	0.13567	0.035545	0.22441	0.10421	0.29658	0.058455	0.28133	-2.2396	-2.7833	-2.5792	-2.8271	-2.6229	-2.7875	-3.025	-2.5958	-2.6583	-2.8563	-2.8438	-2.9917	-2.7812	-2.575	-2.8833	-2.8917	523.077	257.857	360.818	500.786	370.288	353.558	451.399	247.645	360.045	330.049	398.917	505.093	434.624	476.811	254.686	444.900	0.00097591	0.001261	0.00018879	864.98	2.3709e-05	1.1558e-05	1486	214	1.5334e-05	1.3205e-05	548.04	189.23	58.719	23.317	2.3953e-05	94.911	0.0059089	0.0074897	0.0020442	926.14	9.7421e-05	8.2302e-05	1347.5	206.22	7.9412e-05	8.4972e-05	507.08	176.12	60.379	23.584	8.0868e-05	88.347	263.088	233.471	505.607	176.085	261.013	300.760	177.815	181.514	315.719	426.141	181.834	187.365	185.904	189.403	319.983	189.893	-8191	255	
18442.941	1	1	0	0	0.22628	0.19393	0.11122	0.11241	0.14526	0.032043	0.19751	0.15977	0.11387	0.078532	0.38438	0.37661	0.23387	0.037504	0.17957	0.16992	-2.3104	-3.0333	-2.45	-2.8729	-2.9083	-2.5583	-3.1521	-2.9479	-2.6146	-2.9292	-2.9	-3.0229	-2.8854	-2.6875	-2.775	-2.6833	252.573	387.843	196.124	385.127	247.763	471.873	394.583	172.604	168.495	191.111	438.201	476.637	212.308	388.277	223.224	394.687	0.0010127	0.00097467	0.00043657	871.83	1.6699e-05	1.2879e-05	1505.9	219.44	3.7753e-06	1.4621e-05	554.42	192.86	59.986	23.853	2.8142e-05	96.489	0.0057224	0.0073206	0.0020283	933.25	8.3072e-05	7.983e-05	1361.3	209.07	7.7317e-05	8.1227e-05	520.66	178.67	61.515	24.146	8.1475e-05	89.396	273.803	169.992	378.886	177.184	291.469	423.242	177.811	182.067	258.323	474.969	182.234	187.192	186.283	189.705	311.007	190.335	-8191	255	
18443.035	1	1	0	0	0.079299	0.12133	0.28635	0.17292	0.084463	0.35843	0.14037	0.12667	0.2522	0.23896	0.21755	0.066251	0.061416	0.12921	0.11189	0.10368	-2.3	-2.8417	-2.4542	-2.725	-2.9417	-2.6771	-2.9854	-2.7271	-2.5896	-2.9688	-2.8438	-2.9688	-2.9313	-2.5	-2.7812	-3.0812	217.343	388.415	267.111	241.023	230.872	381.148	514.749	350.349	220.414	459.930	466.565	381.616	421.934	432.911	506.227	460.821	0.0010755	0.0010932	0.00032348	894.06	1.1925e-05	1.6017e-05	1515	219.57	1.7263e-05	1.2188e-05	555.66	193.33	60.355	23.761	1.0912e-05	95.929	0.0058154	0.0075368	0.0020861	945.41	9.6478e-05	8.3152e-05	1372.5	211.25	8.0404e-05	8.6543e-05	518.51	179.76	62.12	24.171	8.6305e-05	89.761	271.507	226.098	335.028	176.288	400.301	366.505	177.884	181.882	299.859	298.250	181.988	187.150	185.717	190.058	297.329	190.007	-8191	255	
18443.133	1	1	0	0	0.075293	0.058824	0.17191	0.35477	0.14656	0.28087	0.1951	0.1763	0.088772	0.084807	0.27903	0.078226	0.29716	0.18511	0.10146	0.023584	-2.125	-2.9229	-2.5958	-2.6417	-2.9792	-2.4729	-3.0938	-2.7562	-2.6688	-2.9083	-2.7271	-2.8375	-2.925	-2.5687	-2.8375	-2.8646	233.638	294.962	203.899	439.582	281.487	197.832	464.982	442.923	378.324	422.624	478.078	166.970	461.185	499.388	271.064	410.855	0.0010121	0.00094873	0.00028556	862.62	1.3452e-05	9.6011e-06	1500.5	219.47	9.0743e-06	6.964e-06	550.44	190.55	58.474	23.609	6.9977e-06	96.297	0.0060624	0.0079768	0.0022142	944.13	8.7301e-05	8.901e-05	1360.5	209.83	7.9995e-05	8.4687e-05	518.41	176.9	60.656	23.902	8.2276e-05	89.09	273.256	483.686	383.351	177.194	170.755	356.904	177.664	181.841	362.992	492.191	182.404	187.196	185.958	189.888	341.711	190.019	-8191	255	
18443.229	1	1	0	0	0.15457	0.071848	0.15737	0.097092	0.28932	0.18484	0.23943	0.13568	0.11769	0.20518	0.041159	0.12028	0.22257	0.042723	0.17024	0.2357	-2.1562	-2.6875	-2.5479	-2.6479	-2.8896	-2.5187	-2.9125	-2.7833	-2.5938	-2.9167	-2.8833	-2.5604	-2.7583	-2.5146	-2.7104	-3.1437	466.441	395.054	283.322	512.275	435.925	483.621	180.067	189.810	252.175	176.246	430.622	515.252	472.616	416.260	396.425	503.782	0.00089057	0.0011786	0.00046198	880.43	8.0336e-06	4.8485e-05	1507	220.93	1.7991e-05	1.4944e-05	560.12	194.9	61.753	24.384	8.5526e-06	96.748	0.0056757	0.007506	0.0020829	932.41	7.9787e-05	9.6799e-05	1366.9	210.8	7.4143e-05	8.0085e-05	518.92	180.13	62.04	24.344	7.6339e-05	90.438	268.750	315.675	434.414	176.768	290.659	273.664	177.691	181.612	368.158	378.768	182.104	187.327	185.928	190.396	406.057	190.479	-8191	255	
18443.324	1	1	0	0	0.26693	0.39934	0.21903	0.40318	0.26617	0.16765	0.14638	0.17896	0.20547	0.13395	0.089216	0.080079	0.23713	0.016824	0.10153	0.16752	-2.0604	-2.7917	-2.7083	-2.5563	-2.9188	-2.5417	-2.8438	-2.9042	-2.6229	-2.9375	-2.8521	-2.7625	-2.8958	-2.5583	-2.6312	-2.9521	380.612	415.218	387.225	498.080	417.817	291.199	445.825	471.904	215.290	179.838	185.366	164.830	512.159	362.596	392.648	482.681	0.0008371	0.0016714	0.0006991	903.63	1.5066e-05	6.7101e-06	1532.1	223.55	7.0598e-06	2.1685e-05	564.96	194.98	61.818	24.364	1.3084e-05	96.922	0.0053034	0.0070096	0.0019371	937.18	7.5554e-05	8.1861e-05	1380.3	212.38	7.369e-05	8.0538e-05	529.75	180.33	62.412	24.497	7.8357e-05	89.524	258.625	225.203	276.320	176.499	280.467	434.721	177.639	182.175	320.473	301.446	182.050	187.568	186.106	190.327	235.997	190.032	-8191	255	
18443.422	1	1	0	0	0.065107	0.056574	0.11314	0.19297	0.066225	0.094766	0.18642	0.16839	0.057043	0.21657	0.19304	0.23012	0.14575	0.36728	0.085932	0.24881	-2.15	-2.775	-2.5979	-2.4938	-2.9708	-2.7104	-2.9	-2.9083	-2.4917	-2.85	-2.9083	-2.8688	-3.1188	-2.7333	-2.7167	-3.0187	166.799	193.942	358.890	496.468	286.076	419.670	426.914	190.540	400.999	353.039	248.997	458.974	432.021	501.824	463.891	503.448	0.00098832	0.0016548	0.0004098	906.19	5.7047e-06	4.5263e-05	1524.6	221.04	4.0375e-06	2.5599e-05	554.38	190.32	58.534	23.082	4.301e-06	94.053	0.0056993	0.007426	0.0020681	943.1	8.0289e-05	9.954e-05	1377.7	212.37	7.8998e-05	8.5166e-05	518.18	176.65	60.473	23.469	7.979e-05	86.945	262.798	391.407	327.611	176.394	416.340	292.657	177.668	181.640	311.290	314.712	182.055	187.407	185.682	190.113	418.000	190.404	-8191	255	
18443.543	1	1	0	0	0.11977	0.10984	0.16412	0.066184	0.13703	0.33872	0.15418	0.037046	0.10812	0.039125	0.21302	0.37078	0.2691	0.12578	0.28725	0.10046	-2.2812	-2.9437	-2.8604	-2.5792	-2.9125	-2.7854	-3.025	-2.9104	-2.65	-2.7417	-2.9542	-2.6813	-3.0438	-2.6875	-2.7917	-2.8937	344.233	420.003	455.644	328.070	173.949	216.032	171.119	276.403	452.136	422.412	178.803	441.786	466.452	487.384	268.040	521.709	0.00093038	0.00081362	0.00064695	877.44	2.3987e-05	1.9624e-05	1501.8	216.44	1.2692e-05	3.4795e-06	547.51	186.79	57.842	22.612	2.9053e-06	93.216	0.0068482	0.0074463	0.0020406	923.16	8.0694e-05	8.7217e-05	1358	206.8	7.7546e-05	8.3165e-05	513.7	172.96	59.453	23.085	7.8702e-05	86.399	242.942	429.782	366.871	176.611	249.917	221.490	177.535	181.587	337.334	400.891	182.557	187.220	185.895	189.747	475.924	190.306	-8191	255	
18443.639	1	1	0	0	0.0503	0.12529	0.07702	0.14776	0.20452	0.20995	0.35833	0.18113	0.21614	0.17163	0.087536	0.22061	0.17484	0.095141	0.26787	0.18652	-2.1583	-2.7292	-3.0146	-2.7583	-2.8875	-2.8771	-2.7625	-3.1104	-2.6958	-2.5646	-2.9333	-2.6604	-2.5646	-2.8646	-2.7667	-3.0938	461.240	468.217	457.745	477.945	390.618	445.540	478.667	355.117	468.141	459.160	365.926	479.252	438.206	204.607	164.889	463.652	0.0008462	0.00091871	0.0001712	870.06	5.7217e-06	2.798e-05	1503.3	216.28	1.297e-05	7.8953e-06	548.11	186.99	58.558	22.772	2.9389e-06	92.951	0.0060073	0.0074173	0.0020244	917.26	7.9742e-05	9.7813e-05	1355.3	207.37	7.4915e-05	7.9327e-05	507.08	172.87	59.306	22.934	7.5914e-05	85.801	253.473	511.680	297.354	176.681	403.132	299.966	177.529	181.474	361.456	260.506	182.297	187.491	185.870	190.623	382.035	190.377	-8191	255	
18443.734	1	1	0	0	0.21649	0.09518	0.12369	0.26934	0.1685	0.1097	0.25029	0.07003	0.13253	0.28432	0.39469	0.12879	0.24695	0.046214	0.11405	0.1753	-2.3833	-2.6833	-3.1167	-2.5396	-2.9333	-2.8583	-2.7812	-2.9771	-2.6083	-2.5896	-2.9479	-2.8187	-2.7208	-2.9375	-2.5875	-3.1875	439.131	266.800	254.494	459.085	229.924	486.535	506.081	187.381	302.982	477.783	456.282	453.520	357.865	262.666	260.698	451.863	0.00076389	0.00073661	0.00075707	889.35	8.1773e-06	3.6661e-06	1511.4	218.94	2.075e-05	3.4921e-05	557.6	191.47	59.883	23.398	1.1781e-05	95.067	0.006587	0.0069026	0.0019295	923.65	7.5246e-05	8.0124e-05	1361.4	207.82	7.1009e-05	7.4259e-05	511.4	178.37	60.544	23.358	7.1061e-05	87.076	242.797	225.611	293.538	176.717	259.799	311.426	177.749	181.295	305.468	300.177	182.206	187.526	185.654	190.065	390.808	190.178	-8191	255	
18443.830	1	1	0	0	0.33514	0.20841	0.22467	0.1133	0.3145	0.13489	0.13633	0.2753	0.11967	0.14308	0.31078	0.33213	0.3405	0.075742	0.10359	0.27835	-2.3333	-2.5667	-2.7854	-2.7333	-2.9146	-2.8542	-2.7	-2.8208	-2.7146	-2.7458	-3.0833	-2.6521	-2.7729	-2.8958	-2.6396	-3.075	449.486	279.777	230.058	465.947	345.602	175.956	372.751	435.320	431.905	264.119	517.203	226.129	505.278	494.191	189.569	492.364	0.00096049	0.0014129	0.00020842	889.43	1.162e-05	1.7192e-05	1528	219.66	1.4322e-05	2.1959e-05	557.27	190.59	60.375	23.048	2.1931e-05	94.25	0.0055968	0.0065664	0.001861	931.91	7.3254e-05	8.8571e-05	1371.5	209.09	7.1685e-05	7.4983e-05	512.9	177.1	60.505	23.243	7.3185e-05	86.519	274.421	343.102	409.476	176.840	301.196	367.579	177.846	181.750	349.302	341.842	182.209	187.579	185.839	190.309	310.949	190.346	-8191	255	
18443.924	1	1	0	0	0.22222	0.074452	0.11627	0.16789	0.027549	0.062652	0.15518	0.13339	0.24048	0.15778	0.25457	0.15916	0.19023	0.12617	0.17454	0.27325	-2.2979	-2.4104	-2.8021	-2.7896	-2.5333	-2.9042	-2.7792	-2.9896	-2.7521	-2.5896	-2.9021	-2.8167	-2.575	-3.1188	-2.6917	-2.9167	365.901	295.562	273.880	446.861	515.622	234.465	224.999	459.858	253.825	187.034	417.688	177.641	205.919	194.703	441.848	474.286	0.00099708	0.0013758	0.00021488	898.76	6.0669e-06	2.5025e-05	1520.7	217.3	7.996e-06	1.0242e-05	550.6	187.58	58.284	22.723	4.1677e-06	92.024	0.0064983	0.006746	0.001953	933.83	7.5353e-05	7.7534e-05	1369.2	208.65	7.6579e-05	7.9262e-05	510.61	176.95	59.894	23.198	8.0501e-05	85.17	244.136	237.388	250.380	176.640	377.251	371.513	177.647	181.855	401.458	178.258	182.189	187.509	185.775	190.102	201.078	190.297	-8191	255	
#DATA ENDS
