BOXY.EXE: ISS Imagent and Oximeter Data Acquisition Program Version 0.80
Ascii Record File

#ACQ INFORMATION
2  Detector Channels 
16  External MUX Channels 
1  Auxiliary Channels 
5000  Waveform (CCF) Frequency (Hz)
1  Waveforms Skipped 
30  Waveforms Averaged 
1  Cycles Averaged 
16  Acquisitions per Waveform 
10.0806  Updata Rate (Hz) 

#FILE INFORMATION
TRUE -- External MUX Channel results are PARSED.
FALSE -- AC DC and Phase are NOT grouped.
TRUE -- Companion Program Settings File CREATED.
FALSE -- AC data not excluded
FALSE -- DC data not excluded
FALSE -- Phase data not excluded
FALSE -- Auxillary Chn. data not excluded
Tab delimiters

#CALIBRATION STATE
TRUE -- Waveform Calibration Values APPLIED.


#AUX CALIBRATION VALUES
Val Type	aux-1	

Term	1.0000e+00	
Factor	0.0000e+00	


#WF CALIBRATION VALUES
A = Detector Channel
Val Type	A-AC1	A-AC2	A-AC3	A-AC4	A-AC5	A-AC6	A-AC7	A-AC8	A-AC9	A-AC10	A-AC11	A-AC12	A-AC13	A-AC14	A-AC15	A-AC16	A-DC1	A-DC2	A-DC3	A-DC4	A-DC5	A-DC6	A-DC7	A-DC8	A-DC9	A-DC10	A-DC11	A-DC12	A-DC13	A-DC14	A-DC15	A-DC16	A-Ph1	A-Ph2	A-Ph3	A-Ph4	A-Ph5	A-Ph6	A-Ph7	A-Ph8	A-Ph9	A-Ph10	A-Ph11	A-Ph12	A-Ph13	A-Ph14	A-Ph15	A-Ph16	

Term	0.00000e+00	0.00000e+00	0.00000e+00	0.00000e+00	0.00000e+00	0.00000e+00	0.00000e+00	0.00000e+00	0.00000e+00	0.00000e+00	0.00000e+00	0.00000e+00	0.00000e+00	0.00000e+00	0.00000e+00	0.00000e+00	0.00000e+00	0.00000e+00	0.00000e+00	0.00000e+00	0.00000e+00	0.00000e+00	0.00000e+00	0.00000e+00	0.00000e+00	0.00000e+00	0.00000e+00	0.00000e+00	0.00000e+00	0.00000e+00	0.00000e+00	0.00000e+00	0.00000e+00	0.00000e+00	0.00000e+00	0.00000e+00	0.00000e+00	0.00000e+00	0.00000e+00	0.00000e+00	0.00000e+00	0.00000e+00	0.00000e+00	0.00000e+00	0.00000e+00	0.00000e+00	0.00000e+00	0.00000e+00	
Factor	1.00000e+00	1.00000e+00	1.00000e+00	1.00000e+00	1.00000e+00	1.00000e+00	1.00000e+00	1.00000e+00	1.00000e+00	1.00000e+00	1.00000e+00	1.00000e+00	1.00000e+00	1.00000e+00	1.00000e+00	1.00000e+00	1.00000e+00	1.00000e+00	1.00000e+00	1.00000e+00	1.00000e+00	1.00000e+00	1.00000e+00	1.00000e+00	1.00000e+00	1.00000e+00	1.00000e+00	1.00000e+00	1.00000e+00	1.00000e+00	1.00000e+00	1.00000e+00	X	X	X	X	X	X	X	X	X	X	X	X	X	X	X	X	

B = Detector Channel
Val Type	B-AC1	B-AC2	B-AC3	B-AC4	B-AC5	B-AC6	B-AC7	B-AC8	B-AC9	B-AC10	B-AC11	B-AC12	B-AC13	B-AC14	B-AC15	B-AC16	B-DC1	B-DC2	B-DC3	B-DC4	B-DC5	B-DC6	B-DC7	B-DC8	B-DC9	B-DC10	B-DC11	B-DC12	B-DC13	B-DC14	B-DC15	B-DC16	B-Ph1	B-Ph2	B-Ph3	B-Ph4	B-Ph5	B-Ph6	B-Ph7	B-Ph8	B-Ph9	B-Ph10	B-Ph11	B-Ph12	B-Ph13	B-Ph14	B-Ph15	B-Ph16	

Term	0.00000e+00	0.00000e+00	0.00000e+00	0.00000e+00	0.00000e+00	0.00000e+00	0.00000e+00	0.00000e+00	0.00000e+00	0.00000e+00	0.00000e+00	0.00000e+00	0.00000e+00	0.00000e+00	0.00000e+00	0.00000e+00	0.00000e+00	0.00000e+00	0.00000e+00	0.00000e+00	0.00000e+00	0.00000e+00	0.00000e+00	0.00000e+00	0.00000e+00	0.00000e+00	0.00000e+00	0.00000e+00	0.00000e+00	0.00000e+00	0.00000e+00	0.00000e+00	-8.38749e+01	-1.27561e+02	-1.29383e+02	-1.82058e+02	-6.19891e+01	-7.14628e+01	-1.55747e+02	-1.62015e+02	-5.82974e+01	-6.86231e+01	-1.71238e+02	-1.71237e+02	-1.82061e+02	-1.77401e+02	-5.37240e+01	-1.50384e+02	
Factor	1.42709e-05	1.38839e-04	3.86687e-05	4.05436e-01	1.18614e-06	1.51150e-06	1.47071e-01	4.85511e-02	1.02166e-06	1.47325e-06	7.65610e-02	2.53067e-02	2.09732e-02	7.51348e-03	1.33112e-06	1.08675e-02	6.93059e-06	9.99898e-06	2.78233e-06	2.11537e-01	1.08082e-07	1.11375e-07	7.28781e-02	2.56159e-02	1.03966e-07	1.10888e-07	3.90711e-02	1.30328e-02	1.12180e-02	3.99480e-03	1.06624e-07	5.59534e-03	X	X	X	X	X	X	X	X	X	X	X	X	X	X	X	X	



#DISTANCE SETTINGS
A = Detector Channel
A-1	A-2	A-3	A-4	A-5	A-6	A-7	A-8	A-9	A-10	A-11	A-12	A-13	A-14	A-15	A-16	

2.5000e+00	3.0000e+00	2.5000e+00	3.0000e+00	2.0000e+00	3.0000e+00	1.5000e+00	3.0000e+00	3.0000e+00	3.0000e+00	3.0000e+00	3.0000e+00	3.0000e+00	3.0000e+00	1.5000e+00	3.0000e+00	

B = Detector Channel
B-1	B-2	B-3	B-4	B-5	B-6	B-7	B-8	B-9	B-10	B-11	B-12	B-13	B-14	B-15	B-16	

1.0000e+01	1.0000e+01	1.0000e+01	1.4400e+00	1.0000e+01	1.0000e+01	1.5100e+00	1.9400e+00	1.0000e+01	1.0000e+01	1.9900e+00	2.4900e+00	2.4100e+00	2.9000e+00	1.0000e+01	2.9800e+00	




#DATA BEGINS
time	group	step	mark	flag	A-AC1	A-AC2	A-AC3	A-AC4	A-AC5	A-AC6	A-AC7	A-AC8	A-AC9	A-AC10	A-AC11	A-AC12	A-AC13	A-AC14	A-AC15	A-AC16	A-DC1	A-DC2	A-DC3	A-DC4	A-DC5	A-DC6	A-DC7	A-DC8	A-DC9	A-DC10	A-DC11	A-DC12	A-DC13	A-DC14	A-DC15	A-DC16	A-Ph1	A-Ph2	A-Ph3	A-Ph4	A-Ph5	A-Ph6	A-Ph7	A-Ph8	A-Ph9	A-Ph10	A-Ph11	A-Ph12	A-Ph13	A-Ph14	A-Ph15	A-Ph16	B-AC1	B-AC2	B-AC3	B-AC4	B-AC5	B-AC6	B-AC7	B-AC8	B-AC9	B-AC10	B-AC11	B-AC12	B-AC13	B-AC14	B-AC15	B-AC16	B-DC1	B-DC2	B-DC3	B-DC4	B-DC5	B-DC6	B-DC7	B-DC8	B-DC9	B-DC10	B-DC11	B-DC12	B-DC13	B-DC14	B-DC15	B-DC16	B-Ph1	B-Ph2	B-Ph3	B-Ph4	B-Ph5	B-Ph6	B-Ph7	B-Ph8	B-Ph9	B-Ph10	B-Ph11	B-Ph12	B-Ph13	B-Ph14	B-Ph15	B-Ph16	aux-1	digaux	

25871.895	1	1	0	256	0.029092	0.19208	0.21355	0.091166	0.25762	0.034018	0.33028	0.29735	0.11519	0.081563	0.13947	0.20069	0.28343	0.15435	0.10241	0.048907	-2.2375	-2.6958	-2.4542	-2.8042	-2.5021	-2.6396	-3.0146	-2.625	-2.8229	-2.6958	-2.6208	-2.9208	-2.6167	-2.4833	-2.6875	-2.5167	175.194	405.688	215.062	170.107	168.847	302.825	396.653	506.201	399.266	383.633	238.573	492.414	203.793	483.278	494.750	260.023	0.00030593	0.00038401	0.00012148	1261.3	2.4624e-06	3.8459e-06	1309.1	250.53	4.2345e-06	2.384e-06	313.97	87.655	68.214	19.632	2.7132e-06	27.703	0.00045801	0.00053286	0.00014921	1241.6	5.7984e-06	5.8727e-06	1294.8	248.75	5.6023e-06	5.6825e-06	311.94	88.022	68.735	19.971	5.2372e-06	28.368	241.959	273.026	232.393	164.955	322.208	286.442	164.953	172.091	296.582	343.024	171.906	178.516	178.898	186.109	294.007	185.034	-8191	255	
25871.967	1	1	0	0	0.03435	0.21913	0.20941	0.17718	0.076692	0.16105	0.30804	0.040436	0.27739	0.23533	0.088999	0.11499	0.15697	0.26467	0.077932	0.12088	-2.3396	-2.6979	-2.4208	-2.9271	-2.4792	-2.6229	-2.8417	-2.7167	-2.8875	-2.6188	-2.7687	-2.9729	-2.6792	-2.6021	-2.9813	-2.6917	286.902	485.556	482.311	457.478	277.027	279.760	508.361	396.807	325.508	214.662	415.272	490.210	270.914	374.085	209.152	325.197	0.00030505	0.00039779	0.00011454	1251.6	2.0473e-06	2.8044e-06	1298.6	249.14	2.4897e-06	3.6647e-06	311.18	87.26	67.742	19.798	3.1218e-06	27.876	0.00043107	0.00047056	0.0001325	1231.8	5.1819e-06	5.3393e-06	1283	247.69	5.1734e-06	5.3198e-06	310.37	87.799	68.225	19.95	4.9798e-06	28.38	239.673	255.508	240.151	165.032	333.204	327.616	164.961	172.112	320.794	305.895	171.776	178.478	178.244	185.776	324.457	184.895	-8191	255	
25872.088	1	1	0	0	0.033862	0.25661	0.049985	0.40509	0.15626	0.1295	0.27321	0.15566	0.13484	0.27213	0.098045	0.13627	0.06728	0.3659	0.080817	0.30071	-2.4271	-2.9313	-2.4604	-2.75	-2.6521	-2.7188	-2.9271	-2.7708	-2.7	-2.8021	-2.5812	-2.8854	-2.7854	-2.6063	-2.8187	-2.6896	291.553	209.202	448.422	164.294	195.767	350.711	442.035	163.879	389.898	478.327	487.202	242.603	263.024	202.978	306.541	447.773	0.0002847	0.00021422	8.6045e-05	1239.9	3.0992e-06	4.8058e-06	1297.6	249.11	2.6604e-06	3.1516e-06	311.31	86.742	68.125	19.552	3.8611e-06	27.958	0.00042433	0.00048426	0.00013435	1226.4	5.4584e-06	5.3645e-06	1285.4	246.88	5.536e-06	5.5707e-06	310.9	87.536	68.43	19.872	5.5695e-06	28.397	243.708	263.916	244.785	165.184	287.704	298.865	165.129	172.151	283.083	326.027	171.965	178.543	178.483	185.815	306.854	185.554	-8191	255	
25872.184	1	1	0	0	0.11683	0.13525	0.069024	0.32824	0.22757	0.17272	0.28871	0.14536	0.18207	0.10561	0.24736	0.12631	0.1584	0.039201	0.12706	0.11395	-2.4271	-2.8187	-2.4583	-2.8104	-2.6292	-2.8104	-3.0292	-2.7792	-2.5854	-2.9313	-2.4771	-2.7229	-2.8875	-2.6167	-2.7104	-2.6312	411.088	183.284	310.152	190.725	380.306	493.286	385.803	482.616	479.688	510.502	453.017	183.627	407.876	321.061	346.687	239.643	0.00026257	0.00044289	0.00010245	1242.2	2.9065e-06	1.6957e-06	1293.1	247.81	4.3886e-06	2.9579e-06	309.01	86.699	68.003	19.575	4.6772e-06	27.538	0.0004464	0.00050474	0.00014007	1228.2	5.7387e-06	5.6713e-06	1277.2	246.03	5.829e-06	5.9769e-06	308.48	87.139	67.923	19.793	6.2708e-06	28.232	241.182	227.852	209.233	165.001	329.879	308.873	165.148	172.111	317.128	342.099	171.658	178.330	178.354	185.863	306.412	185.136	-8191	255	
25872.279	1	1	0	0	0.21011	0.084818	0.32935	0.10376	0.12593	0.12237	0.20443	0.11397	0.19917	0.25648	0.030913	0.19504	0.15272	0.37498	0.1387	0.16204	-2.1437	-2.9875	-2.4688	-2.7583	-2.825	-2.525	-2.9083	-2.6729	-2.8083	-2.9354	-2.7396	-2.8333	-2.8833	-2.3417	-2.9021	-2.7333	501.051	275.114	310.751	225.081	175.608	267.734	414.368	505.433	254.073	266.275	505.403	373.422	238.531	424.066	473.145	198.776	0.00027391	0.00041518	9.5756e-05	1247.7	3.6803e-06	2.9098e-06	1299.6	249.86	6.0325e-06	2.7697e-06	312.9	86.834	68.132	19.563	2.9876e-06	28.087	0.00051727	0.00063873	0.00017322	1230.7	7.0632e-06	7.2414e-06	1286.9	248.31	7.2038e-06	7.3727e-06	312.31	87.978	68.839	20.034	7.3064e-06	28.677	241.978	237.039	300.212	165.072	301.324	260.192	164.981	172.262	293.436	381.630	171.907	178.609	178.881	185.569	283.653	185.222	-8191	255	
25872.400	1	1	0	0	0.10624	0.050511	0.082291	0.16718	0.060405	0.14467	0.11563	0.14247	0.15646	0.12501	0.20694	0.13331	0.17042	0.29343	0.033533	0.10005	-2.3688	-2.7896	-2.6104	-2.7646	-2.8438	-2.6396	-2.9083	-2.7229	-2.6479	-2.9875	-2.575	-2.5917	-2.9083	-2.6312	-2.6562	-2.7021	472.136	195.824	224.647	160.329	413.955	496.438	462.449	460.194	291.135	367.045	453.104	479.728	439.447	507.445	412.504	338.287	0.00025445	0.00031174	7.0167e-05	1265.2	4.1996e-06	5.3202e-06	1314.9	250.17	2.9074e-06	1.4868e-06	313.06	87.943	68.511	19.783	6.6121e-06	28.074	0.00057224	0.0006942	0.00019735	1250.7	7.4309e-06	7.5626e-06	1302	249.94	7.4786e-06	7.6101e-06	313.26	88.724	69.136	20.126	7.4326e-06	28.707	243.032	261.474	245.118	164.964	284.336	294.480	164.919	172.147	315.040	215.986	171.740	177.822	178.612	185.475	300.746	185.032	-8191	255	
25872.494	1	1	0	0	0.095753	0.081051	0.10401	0.13279	0.036889	0.20932	0.57176	0.19023	0.087414	0.17119	0.15721	0.065048	0.22884	0.046368	0.3106	0.17577	-2.1188	-2.8292	-2.4896	-2.7062	-2.8417	-2.525	-2.9062	-2.7979	-2.7458	-2.9271	-2.8396	-2.5896	-3.0042	-2.4958	-2.7104	-2.8563	303.583	198.043	159.194	480.902	316.861	451.079	442.739	163.452	406.015	415.047	436.694	508.191	164.595	453.048	373.905	471.447	0.00025748	0.00027921	9.0553e-05	1267	2.7114e-06	1.6467e-06	1326.3	253.69	3.946e-06	2.2637e-06	314.78	87.874	69.036	19.827	2.411e-06	28.121	0.00059251	0.00070855	0.00019901	1259.8	7.883e-06	8.2717e-06	1314.2	252.29	7.9933e-06	8.2475e-06	315.68	89.07	69.703	20.259	8.326e-06	28.826	244.027	242.674	273.090	165.303	327.671	391.727	164.934	172.085	301.180	271.414	171.532	178.408	178.857	185.441	295.489	185.356	-8191	255	
25872.592	1	1	0	0	0.25966	0.39019	0.42206	0.33989	0.1355	0.21989	0.052503	0.21846	0.1226	0.021661	0.32688	0.18975	0.24582	0.12195	0.12111	0.20828	-2.15	-2.7167	-2.5646	-2.7125	-2.8042	-2.7562	-2.9667	-2.7854	-2.5646	-2.8958	-2.7167	-2.75	-2.8771	-2.7188	-2.8229	-2.7542	247.766	459.640	238.018	476.057	243.103	294.769	402.565	171.733	445.358	254.036	452.527	474.649	341.142	370.391	394.845	483.089	0.00029527	0.00042371	0.00010518	1286.1	3.5902e-06	5.3821e-06	1332.7	252.74	4.4127e-06	1.8407e-06	315.31	88.376	68.982	19.889	5.4951e-06	28.333	0.00062058	0.00077521	0.0002112	1274.7	8.4124e-06	8.665e-06	1322.4	252.84	8.2447e-06	8.6791e-06	316.85	89.346	69.831	20.339	8.4271e-06	28.937	238.220	242.537	270.163	165.223	292.453	272.365	165.092	171.785	338.585	468.717	171.482	178.181	178.417	185.291	299.875	185.094	-8191	255	
25872.688	1	1	0	0	0.17295	0.25924	0.12749	0.31448	0.23623	0.30082	0.45222	0.077484	0.1157	0.18009	0.052773	0.17953	0.10682	0.23613	0.099427	0.17569	-2.1375	-2.8187	-2.6667	-2.6562	-2.8937	-2.8708	-2.7354	-2.9792	-2.4979	-2.6583	-2.8125	-2.7542	-3.0083	-2.4292	-2.6042	-2.825	289.920	351.233	357.482	512.972	247.828	366.126	464.022	480.071	398.029	164.379	302.858	416.840	438.085	503.794	207.171	437.510	0.00024882	0.00041959	0.0001961	1286.2	2.9071e-06	5.5864e-06	1339	254.11	2.1014e-06	3.3153e-06	316.64	88.171	69.331	20.021	2.8873e-06	28.153	0.00062033	0.00078142	0.00021746	1270.7	8.4822e-06	8.4965e-06	1323.9	253.36	8.2634e-06	8.6543e-06	316.49	89.25	69.934	20.353	8.4442e-06	28.95	249.477	231.060	264.688	165.140	276.762	320.667	164.764	172.069	297.189	343.371	171.709	178.042	178.864	185.511	342.785	184.701	-8191	255	
25872.783	1	1	0	0	0.037625	0.23154	0.26526	0.076875	0.15051	0.071055	0.18361	0.11693	0.073643	0.17442	0.18622	0.35052	0.043384	0.32553	0.059845	0.060748	-2.1937	-2.8042	-2.5833	-2.5687	-2.7708	-2.7396	-2.8208	-2.9854	-2.575	-2.8646	-2.9167	-2.5896	-3.0583	-2.6958	-2.7604	-2.925	313.979	485.671	303.509	195.654	460.630	398.507	430.491	500.019	461.927	408.480	204.488	172.260	416.460	462.497	397.391	277.832	0.00026499	0.00031291	0.0001243	1290.8	3.8251e-06	1.2214e-06	1334.2	255.63	3.3002e-06	6.8841e-07	316.98	88.35	69.37	19.92	3.2225e-06	28.297	0.00064865	0.00079446	0.00022018	1277.9	8.767e-06	9.2478e-06	1323	253.72	8.538e-06	8.7712e-06	317.03	89.431	69.978	20.35	8.9244e-06	28.92	238.100	272.651	228.392	165.015	315.436	273.834	165.004	171.980	262.871	288.466	171.875	178.429	178.970	185.462	304.783	184.939	-8191	255	
25872.881	1	1	0	0	0.23702	0.16427	0.12505	0.27888	0.20596	0.31441	0.35279	0.4072	0.2131	0.082922	0.15521	0.3757	0.12231	0.18037	0.16017	0.15515	-2.0479	-2.5042	-2.7458	-2.4625	-2.8667	-2.7167	-2.9333	-3.0021	-2.6771	-2.8792	-2.9917	-2.6333	-2.625	-2.8854	-2.5146	-2.9188	430.089	212.925	168.995	480.661	216.547	300.143	501.305	457.311	158.839	279.751	477.630	162.637	356.920	434.065	465.598	407.064	0.00025414	0.00034799	0.00010887	1286.3	1.4418e-06	6.0243e-06	1344.9	254.56	2.406e-06	4.6166e-06	317.98	88.465	69.459	20.107	4.6092e-06	28.289	0.00065839	0.00083	0.00022299	1277.2	9.0809e-06	9.2919e-06	1326.2	254.11	9.0364e-06	9.5371e-06	317.72	89.482	70.025	20.423	9.3192e-06	28.935	241.905	221.621	222.217	164.936	283.865	304.525	164.898	171.986	281.801	340.924	171.437	178.251	178.425	185.481	323.359	185.054	-8191	255	
25872.977	1	1	0	0	0.11989	0.22797	0.13232	0.20043	0.25692	0.24746	0.13073	0.11564	0.07283	0.25426	0.24178	0.245	0.31044	0.16076	0.16311	0.15027	-2.0375	-2.8208	-2.7812	-2.7188	-2.8708	-2.9021	-2.8896	-3.025	-2.6937	-2.6354	-3.0771	-2.6083	-2.8	-2.8292	-2.6333	-2.9583	456.539	258.504	357.649	340.139	252.117	292.983	194.164	178.086	345.179	165.920	498.314	425.716	355.919	293.647	353.661	458.857	0.00031412	0.00037099	4.7694e-05	1293.2	4.371e-06	2.4247e-06	1339.4	255.42	4.6498e-06	2.5788e-06	316.8	88.065	69.421	20.029	4.0892e-06	28.069	0.000679	0.00086187	0.00023394	1282.3	9.645e-06	9.5446e-06	1327.1	254.21	9.1202e-06	9.2869e-06	317.98	89.424	70.089	20.387	8.808e-06	28.872	241.483	269.780	288.685	164.970	285.609	363.515	165.053	171.977	282.041	297.730	171.924	178.229	178.456	185.580	265.315	184.976	-8191	255	
25873.096	1	1	0	0	0.24848	0.27441	0.13713	0.1234	0.15879	0.053323	0.22006	0.10926	0.11892	0.28483	0.041834	0.3487	0.062055	0.13995	0.10596	0.20591	-2.4604	-2.5729	-2.7833	-2.6208	-2.7771	-2.7792	-2.7417	-2.9938	-2.6917	-2.5792	-3.0708	-2.5667	-2.9104	-3.0104	-2.5958	-2.9646	488.280	320.764	386.154	451.483	217.344	485.464	398.646	230.405	187.620	506.689	417.972	381.330	325.207	222.778	246.236	204.258	0.00025855	0.00041029	8.0078e-05	1288.4	2.2748e-06	2.7869e-06	1333.9	254.96	3.4444e-06	6.2255e-07	315.94	88.204	68.92	20.008	4.876e-06	28.059	0.0006534	0.00081192	0.00022462	1274.2	8.7087e-06	8.8172e-06	1320.5	253.65	8.5155e-06	8.7613e-06	316.76	89.32	69.643	20.313	8.4384e-06	28.749	240.754	214.718	323.341	164.838	304.831	304.142	165.035	171.971	301.814	297.828	171.338	178.300	178.514	186.036	310.596	185.396	-8191	255	
25873.193	1	1	0	0	0.11141	0.084594	0.093271	0.097154	0.12755	0.11519	0.46867	0.19921	0.19347	0.086899	0.15215	0.17078	0.060839	0.18432	0.12257	0.39667	-2.1917	-2.5438	-2.8458	-2.6833	-2.7729	-2.5646	-2.8083	-2.9417	-2.6396	-2.5646	-3.0854	-2.6625	-2.7479	-2.8667	-2.6396	-2.7208	428.204	412.932	168.686	350.403	406.081	208.267	445.749	455.106	330.531	473.738	399.668	486.639	270.818	298.768	330.810	487.597	0.00027332	0.00023209	2.8275e-05	1283.7	3.6309e-06	2.3484e-06	1332.4	254.73	3.4264e-06	5.1974e-06	317.11	88.778	68.891	19.793	2.7935e-06	28.355	0.000643	0.00079375	0.00022096	1274.6	8.7067e-06	8.9172e-06	1320.1	253.52	8.4453e-06	8.6597e-06	317.13	89.264	69.717	20.303	8.7025e-06	28.804	237.583	204.433	305.138	164.791	254.862	399.309	164.802	172.157	317.165	285.673	171.891	178.469	178.664	185.866	308.767	185.136	-8191	255	
25873.264	1	1	0	0	0.060217	0.19961	0.12153	0.027654	0.059537	0.080804	0.28437	0.049457	0.19509	0.18822	0.30504	0.1101	0.29023	0.19181	0.2739	0.077143	-2.3396	-2.4792	-2.7542	-2.6	-2.6688	-2.8021	-2.8833	-2.8479	-2.5021	-2.4271	-2.8854	-2.4146	-2.6771	-3.0083	-2.6437	-2.9271	164.638	192.669	212.056	347.449	506.711	268.687	479.581	394.967	176.376	352.339	495.630	373.049	223.335	495.915	449.141	288.533	0.00026942	0.0001217	6.0472e-05	1289.7	2.6466e-06	3.4862e-06	1331.5	253.43	3.8382e-06	4.557e-06	316.18	88.401	69.173	19.822	3.6409e-06	27.958	0.00065763	0.00081635	0.00022325	1274.6	8.8924e-06	8.9831e-06	1320	253.53	8.7137e-06	8.8345e-06	316.45	89.273	69.72	20.236	8.5697e-06	28.687	239.548	457.351	235.316	164.741	301.469	318.973	164.894	172.159	322.392	314.468	171.912	177.957	178.676	185.577	328.379	185.365	-8191	255	
25873.359	1	1	0	0	0.062572	0.26117	0.081832	0.31256	0.079309	0.25534	0.25841	0.099704	0.20211	0.17609	0.26925	0.15489	0.13645	0.12004	0.18711	0.20388	-2.3167	-2.4958	-2.5396	-2.7188	-2.7167	-2.8688	-2.6583	-2.7167	-2.8	-2.4833	-2.7896	-2.7292	-2.7083	-2.7562	-2.625	-2.7188	311.596	338.241	491.550	468.024	174.286	355.163	387.082	376.552	287.727	209.586	432.423	255.269	501.400	176.385	174.056	433.939	0.00024611	0.00054925	0.00010033	1283.2	2.8105e-06	2.8961e-06	1335.9	253.82	3.3007e-06	7.1898e-06	317.27	88.242	69.043	19.866	4.46e-06	28.221	0.00064771	0.00079796	0.00022289	1274.2	8.9183e-06	8.9211e-06	1323.2	253.86	8.8153e-06	9.0427e-06	317.72	89.1	69.723	20.333	8.8302e-06	28.754	237.133	200.549	267.196	164.791	300.985	352.446	164.930	172.168	297.677	320.637	171.735	178.357	178.670	185.594	306.556	185.113	-8191	255	
25873.479	1	1	0	0	0.044659	0.14371	0.3081	0.12686	0.33394	0.34359	0.25599	0.084232	0.15722	0.16743	0.14615	0.28367	0.12944	0.029988	0.15757	0.049072	-2.2958	-2.6125	-2.7562	-2.7875	-2.3792	-2.9708	-2.8604	-2.9583	-2.6875	-2.5333	-2.9229	-2.6896	-2.5479	-2.7896	-2.5479	-2.7167	387.971	439.911	290.366	415.693	166.948	401.639	491.100	199.687	197.354	324.935	369.659	449.786	351.839	471.403	391.623	455.017	0.00028316	0.00037475	3.0679e-05	1281.2	5.3657e-06	6.3932e-06	1335.4	255.33	3.8531e-06	8.02e-06	318.29	88.461	69.095	19.968	7.4196e-07	28.178	0.00064697	0.00080561	0.00022304	1272.6	8.8868e-06	9.1216e-06	1321.7	253.83	8.6667e-06	8.8239e-06	317.7	89.063	69.739	20.323	8.509e-06	28.719	241.792	256.604	277.930	164.915	288.882	296.026	164.839	171.984	300.300	285.068	171.355	178.092	178.566	185.668	238.992	184.900	-8191	255	
25873.574	1	1	0	0	0.20032	0.044661	0.16521	0.32591	0.3296	0.12317	0.16166	0.27439	0.070236	0.21222	0.062652	0.085325	0.2763	0.227	0.057074	0.2035	-2.5417	-2.6688	-2.7854	-2.6979	-2.7146	-2.9583	-2.7271	-2.7667	-2.8438	-2.5542	-2.8479	-2.8417	-2.7833	-2.9729	-2.6583	-2.8208	452.931	193.522	456.887	484.003	284.129	294.280	459.584	447.012	496.174	423.637	154.649	457.739	412.091	346.080	198.544	481.754	0.00027209	0.00046363	0.00012696	1281.6	2.7811e-06	2.5345e-06	1334	253.54	3.217e-06	4.0676e-06	315.48	88.234	68.984	19.814	3.6255e-06	27.976	0.0006568	0.00081029	0.00022258	1273.6	8.9118e-06	8.9937e-06	1320.7	253.12	8.4265e-06	8.8757e-06	316.53	89.276	69.573	20.291	8.7238e-06	28.694	241.892	272.616	255.520	164.729	302.242	271.525	164.987	172.079	231.471	333.472	171.864	178.390	178.642	185.788	346.463	185.615	-8191	255	
25873.672	1	1	0	0	0.30859	0.23194	0.22066	0.13527	0.16044	0.0062665	0.58446	0.19243	0.16594	0.11958	0.20739	0.091231	0.19956	0.092096	0.28598	0.19763	-2.5354	-2.575	-2.6479	-2.975	-2.4688	-2.8042	-2.9854	-2.6146	-3.0542	-2.7896	-2.8167	-3.0812	-2.5354	-2.8208	-2.625	-2.5104	291.593	229.897	460.626	222.527	279.488	418.886	468.317	417.854	436.148	487.925	400.822	447.253	183.749	202.033	416.886	439.983	0.00027155	0.00024374	2.5514e-05	1285.9	3.2643e-06	6.1836e-06	1329.2	254.59	4.9852e-06	2.141e-06	316.47	87.823	69.526	19.935	5.2129e-06	28.265	0.00065103	0.00080046	0.0002175	1272.8	8.5907e-06	8.8619e-06	1318.1	253.72	8.4401e-06	8.4219e-06	316.4	89.201	69.965	20.353	8.4622e-06	28.759	243.394	282.969	270.176	164.913	307.958	284.744	164.886	171.929	297.916	264.494	171.804	178.641	178.538	185.970	296.180	185.330	-8191	255	
25873.768	1	1	0	0	0.15878	0.16038	0.18445	0.096864	0.13392	0.061826	0.20549	0.30292	0.092515	0.20681	0.28285	0.16653	0.14765	0.13355	0.047048	0.19985	-2.4771	-2.5542	-2.5875	-2.8583	-2.5167	-2.65	-2.7354	-2.4917	-2.8187	-2.5333	-2.6792	-2.8104	-2.6708	-2.8438	-2.6063	-2.4521	236.067	507.623	206.063	513.899	174.787	238.993	450.099	181.302	351.393	188.480	177.806	462.214	170.602	243.486	503.988	201.691	0.00028131	0.000593	0.00017552	1285.6	4.9172e-06	6.2506e-06	1334.9	253.46	3.9936e-06	2.7095e-06	317.14	88.016	69.35	19.838	4.0017e-06	28.096	0.00064495	0.00077584	0.00022085	1276.5	8.5024e-06	8.5863e-06	1321.4	253.11	8.507e-06	8.6865e-06	317.12	89.131	69.88	20.293	8.4375e-06	28.672	240.700	212.058	206.847	164.750	281.274	278.477	164.962	172.091	296.902	249.177	171.942	178.180	178.554	185.759	295.055	185.354	-8191	255	
25873.889	1	1	0	0	0.22141	0.20318	0.13556	0.19192	0.068781	0.14695	0.57367	0.18546	0.079404	0.19649	0.13442	0.27909	0.28835	0.14073	0.069442	0.23872	-2.25	-2.6437	-2.4562	-2.7958	-2.4437	-2.8479	-2.925	-2.6292	-2.9542	-2.6542	-2.5438	-2.8646	-2.6646	-2.7625	-2.9	-2.6	435.928	390.238	359.669	441.293	404.245	402.132	428.370	513.562	460.339	328.425	345.850	444.761	170.788	284.558	270.384	494.022	0.00026264	0.0002779	0.00010405	1292.5	4.1576e-06	2.5354e-06	1338.5	253.62	4.2415e-06	1.4604e-06	319.52	87.726	69.178	19.979	1.333e-06	28.181	0.00065182	0.00079469	0.00022282	1276.7	8.7139e-06	8.8977e-06	1323.5	253.45	8.4685e-06	8.7668e-06	318.18	89.264	69.8	20.359	8.5384e-06	28.752	239.869	185.397	252.761	164.870	320.402	273.981	165.077	171.830	287.928	340.838	171.760	177.888	178.433	185.755	346.925	185.247	-8191	255	
25873.961	1	1	0	0	0.029282	0.14705	0.10178	0.17284	0.17055	0.16782	0.33417	0.15089	0.20733	0.091017	0.089627	0.12543	0.32447	0.30063	0.055467	0.20641	-2.3771	-2.5604	-2.7271	-2.7042	-2.5917	-2.6333	-3.0292	-2.6312	-2.7917	-2.8458	-2.5667	-2.8375	-2.6083	-2.6312	-2.7479	-2.5896	496.516	358.956	288.444	489.595	498.985	434.168	498.358	390.450	337.775	289.953	504.675	175.369	180.647	431.052	253.960	380.374	0.00029366	0.00048154	9.5193e-05	1293.6	3.3965e-06	4.725e-06	1336.1	254.61	4.5363e-06	5.1706e-06	316.38	88.294	69.177	20.031	2.6419e-06	27.999	0.00064765	0.00079421	0.00022258	1279.6	8.5047e-06	8.5895e-06	1323.8	253.71	8.2935e-06	8.5605e-06	317.16	89.232	69.722	20.348	8.2676e-06	28.686	235.854	232.799	229.654	164.906	299.423	328.220	164.957	171.934	278.151	272.897	171.864	177.959	178.804	185.677	319.281	185.410	-8191	255	
25874.080	1	1	0	0	0.13816	0.092954	0.0821	0.13304	0.16877	0.17757	0.27358	0.213	0.26586	0.10621	0.045781	0.2126	0.178	0.14077	0.15258	0.12806	-2.3229	-2.8312	-2.5938	-2.8417	-2.575	-2.5938	-3.0021	-2.6479	-2.8042	-2.8083	-2.6375	-2.875	-2.7896	-2.5833	-2.8812	-2.7521	229.552	304.226	396.279	168.206	188.366	300.714	471.078	417.062	509.079	408.122	401.983	450.502	415.571	494.935	496.412	450.744	0.00030272	0.00039396	0.00012715	1293	1.7151e-06	5.9384e-06	1335	254.62	2.1913e-06	3.7309e-06	316.01	87.911	69.376	19.858	3.2778e-06	28.072	0.00062192	0.00076565	0.00021038	1274.3	8.414e-06	8.454e-06	1323.2	253.23	8.2482e-06	8.488e-06	316.85	89.173	69.859	20.268	8.2003e-06	28.751	241.429	257.009	283.685	164.854	304.350	317.858	164.962	172.132	341.048	331.749	171.543	178.470	178.553	185.781	332.615	184.713	-8191	255	
25874.178	1	1	0	0	0.20041	0.074121	0.13333	0.13315	0.093682	0.17089	0.32281	0.14783	0.059046	0.11147	0.30532	0.24505	0.075936	0.2898	0.21792	0.058656	-2.2292	-2.6042	-2.5667	-2.9708	-2.6458	-2.5625	-2.9542	-2.6792	-2.7854	-2.8917	-2.5979	-2.8667	-2.7708	-2.7958	-2.8688	-2.5604	325.174	321.368	278.996	201.783	277.231	171.657	402.324	446.069	206.701	175.940	468.972	397.901	440.934	434.348	376.468	454.478	0.00030166	0.00057131	0.00010805	1289.2	4.3499e-06	2.9149e-06	1333.3	254.14	1.5719e-06	2.6669e-06	316.55	87.983	69.271	19.91	4.7644e-06	28.046	0.00063733	0.0007735	0.00021718	1275.5	8.4423e-06	8.5039e-06	1321.9	253.41	8.1334e-06	8.3295e-06	316.62	89.24	69.793	20.28	8.1256e-06	28.694	240.707	261.401	246.268	164.869	263.474	317.902	164.949	171.883	207.491	229.507	171.960	178.305	178.427	185.514	307.092	185.215	-8191	255	
25874.273	1	1	0	0	0.16888	0.1939	0.046827	0.31817	0.27758	0.24972	0.34733	0.089012	0.14859	0.19175	0.097811	0.065913	0.15107	0.13437	0.16576	0.25221	-2.25	-2.9458	-2.4688	-2.8521	-2.7479	-2.4854	-2.9375	-2.9	-2.8	-2.8958	-2.5604	-2.8958	-2.7396	-2.7646	-3.0833	-2.6708	358.932	349.633	178.288	511.401	322.830	412.080	439.751	412.610	341.572	160.638	208.080	428.294	493.919	441.626	251.634	451.566	0.00028467	0.00047566	6.3875e-05	1286.9	3.3908e-06	7.713e-06	1338.6	254.63	3.8316e-06	5.5108e-06	317.65	87.764	69.454	19.847	2.1903e-06	28.172	0.00062989	0.00077032	0.00021398	1274.9	8.5031e-06	8.6953e-06	1321.8	253.26	8.1795e-06	8.5873e-06	317.26	88.961	69.788	20.251	8.2449e-06	28.688	240.455	242.696	185.586	164.785	327.238	299.631	164.833	171.954	335.048	349.743	171.479	178.479	178.333	185.667	349.139	185.319	-8191	255	
25874.369	1	1	0	0	0.1287	0.08231	0.27468	0.19004	0.20763	0.20854	0.24831	0.2695	0.15886	0.029994	0.013578	0.2493	0.092334	0.078726	0.17056	0.09162	-2.2896	-2.8229	-2.5396	-2.7458	-2.8125	-2.5604	-3.0438	-2.7021	-2.5563	-2.9021	-2.6312	-2.9562	-2.8792	-2.5167	-2.9354	-2.8042	444.568	157.338	175.986	354.275	264.123	401.945	364.098	465.068	282.039	442.744	454.438	455.235	366.813	499.149	370.774	212.259	0.00026124	0.00040769	2.9873e-05	1278.3	1.9382e-06	2.7341e-06	1333.8	252.79	3.6751e-06	4.8985e-06	317.34	88.45	68.882	19.854	6.9752e-06	28.259	0.00061753	0.00074403	0.00021398	1270.2	8.1969e-06	8.3803e-06	1320	252.97	8.1538e-06	8.4443e-06	317.05	89.118	69.694	20.239	8.1543e-06	28.786	239.640	214.865	313.722	164.950	302.885	318.360	165.054	171.848	282.459	307.443	171.735	178.297	178.388	185.887	282.347	185.539	-8191	255	
25874.488	1	1	0	0	0.32683	0.22324	0.16324	0.27575	0.31867	0.27639	0.092039	0.17613	0.12654	0.1858	0.29914	0.22019	0.19381	0.1002	0.25131	0.18334	-2.2062	-2.9208	-2.5292	-2.7938	-2.9208	-2.525	-3.0938	-2.9583	-2.725	-2.8771	-2.7458	-2.8417	-2.9062	-2.5958	-2.8896	-2.7833	198.763	285.026	445.321	455.836	369.479	439.454	433.391	481.706	280.044	154.482	500.282	277.213	299.120	447.352	166.862	414.837	0.00031457	0.00023733	0.00014809	1286	4.4407e-06	1.6354e-06	1328.1	253.23	4.6317e-06	3.9765e-06	316.22	88.343	68.565	19.751	4.4627e-06	27.772	0.00061045	0.00072936	0.00020408	1271.1	8.0983e-06	8.187e-06	1314.8	252.15	7.6987e-06	7.8689e-06	314.83	88.817	69.151	20.129	7.5419e-06	28.506	240.215	276.918	226.954	164.937	306.854	283.042	165.031	171.945	309.262	374.410	171.669	178.263	178.753	185.563	295.021	185.436	-8191	255	
25874.561	1	1	0	0	0.034444	0.25244	0.19765	0.077863	0.066788	0.1654	0.28078	0.13313	0.21661	0.12324	0.45062	0.037044	0.077922	0.29126	0.25249	0.072583	-2.1021	-2.7438	-2.6396	-2.7042	-2.9479	-2.7375	-3.1292	-3.0292	-2.5771	-2.9437	-2.6604	-2.7	-2.8771	-2.6667	-3.0417	-2.8854	348.531	250.507	478.084	227.443	355.408	344.654	495.656	165.633	497.523	168.868	427.974	371.286	196.097	254.520	460.040	336.975	0.0002722	0.00050262	0.00015735	1267.4	3.1184e-06	2.2171e-06	1321.5	251.95	3.4382e-06	2.1677e-06	314.15	87.7	68.813	19.617	6.1347e-06	27.936	0.00057677	0.0007212	0.00020131	1258.7	7.5966e-06	7.8721e-06	1308	250.75	7.543e-06	7.8874e-06	314.26	88.491	69.185	20.054	7.7156e-06	28.545	235.586	244.409	247.153	164.870	330.355	288.591	165.091	171.827	303.860	279.059	171.915	178.343	178.691	185.409	331.097	185.325	-8191	255	
25874.656	1	1	0	0	0.070612	0.11347	0.21152	0.22143	0.20052	0.13715	0.10951	0.22424	0.046798	0.072253	0.1867	0.35415	0.073008	0.048561	0.091788	0.13698	-2.175	-2.8	-2.6125	-2.5458	-2.8875	-2.7521	-3.0396	-3.0354	-2.6479	-3.1208	-2.7958	-2.6542	-3.1562	-2.6979	-2.8229	-2.8937	382.048	405.293	255.251	177.893	243.146	379.079	445.551	443.426	302.092	308.724	228.007	476.406	365.871	384.635	411.111	246.959	0.00024742	0.00045983	0.00010823	1274.6	2.293e-06	1.1839e-06	1320.7	251.64	4.9607e-06	9.4202e-06	314.77	87.866	68.603	19.75	4.4832e-06	27.965	0.00058767	0.00071191	0.00020397	1259.5	8.0584e-06	8.1837e-06	1307.7	251.42	8.0275e-06	8.2304e-06	314.32	88.651	69.27	20.174	8.1767e-06	28.553	241.785	196.689	250.583	164.698	273.826	287.122	164.909	171.833	270.255	310.918	172.002	178.276	178.696	185.710	297.928	184.863	-8191	255	
25874.775	1	1	0	0	0.22324	0.14496	0.086349	0.2635	0.066022	0.14608	0.20055	0.15492	0.19974	0.11287	0.088873	0.20304	0.14603	0.10627	0.26973	0.25225	-2.0958	-2.7917	-2.7771	-2.8312	-3.1312	-2.6813	-2.9646	-2.8542	-2.6625	-2.9125	-2.9521	-2.6146	-3.0729	-2.8083	-2.6	-2.9125	438.466	180.477	364.129	246.948	250.576	159.623	484.241	314.624	217.229	277.464	501.203	427.918	476.837	505.709	390.749	483.636	0.00026109	0.00014388	0.00019694	1274.7	5.3375e-06	6.7032e-06	1320.9	251.65	1.7537e-06	4.947e-06	314.23	87.543	69.116	19.672	3.4381e-06	28.191	0.00063295	0.00076994	0.00021222	1262.5	8.3275e-06	8.664e-06	1311.2	252.05	8.2229e-06	8.524e-06	314.67	88.587	69.578	20.203	8.3718e-06	28.61	237.006	338.960	243.391	164.910	311.678	281.845	165.101	171.950	249.100	358.155	171.562	178.055	178.757	185.988	357.363	184.908	-8191	255	
25874.873	1	1	0	0	0.17699	0.17582	0.20358	0.16268	0.2866	0.18054	0.18646	0.18696	0.11788	0.097845	0.17006	0.12947	0.062286	0.23564	0.18355	0.099837	-2.2354	-3.0021	-2.5125	-2.5833	-2.8708	-2.6375	-2.8333	-3.0333	-2.5979	-2.725	-2.9167	-2.6646	-2.7875	-2.875	-2.6813	-2.9875	306.673	200.375	513.036	333.018	290.445	368.100	418.147	414.953	323.586	413.110	204.172	410.684	455.698	475.354	186.442	461.905	0.00022748	0.00047889	7.5523e-05	1274.9	3.4546e-06	4.7035e-06	1325.6	254.38	4.452e-06	3.7948e-06	315.32	87.996	68.807	19.712	1.108e-06	27.915	0.00062011	0.00077413	0.00021436	1262.3	8.3248e-06	8.625e-06	1311.7	252.27	8.1057e-06	8.4418e-06	315.04	88.956	69.334	20.131	8.0988e-06	28.511	241.499	234.413	283.620	164.792	278.921	347.346	164.916	172.002	308.413	276.542	171.665	178.527	178.901	185.982	316.388	185.772	-8191	255	
25874.969	1	1	0	0	0.25825	0.11979	0.035307	0.088841	0.27946	0.18478	0.25131	0.1399	0.06671	0.19117	0.27316	0.32717	0.17372	0.19859	0.18383	0.1204	-2.025	-2.8146	-2.7542	-2.5125	-2.9271	-2.6583	-3.0208	-2.8896	-2.5875	-2.6896	-2.9188	-2.5604	-2.9271	-2.7062	-2.6417	-2.8917	426.171	344.482	234.147	347.958	223.036	469.171	433.165	294.634	444.190	495.999	464.787	401.795	355.032	443.685	230.393	205.825	0.00026131	0.00036084	3.3268e-05	1274.1	3.5977e-06	3.0857e-06	1325.1	251.76	3.6702e-06	3.6422e-06	314.54	87.199	68.559	19.959	4.9025e-06	27.625	0.00060052	0.00075782	0.00020489	1262.2	8.246e-06	8.2601e-06	1311.1	251.39	7.9365e-06	8.4582e-06	314.85	88.502	69.172	20.205	7.9535e-06	28.429	238.688	332.820	186.659	164.891	297.352	298.238	165.097	172.196	281.642	302.225	171.918	178.075	178.743	185.733	345.262	184.961	-8191	255	
25875.064	1	1	0	0	0.127	0.073117	0.19895	0.070523	0.2496	0.074273	0.16842	0.26433	0.33052	0.18828	0.27991	0.26587	0.12968	0.25883	0.13587	0.20745	-2.2083	-2.6333	-2.7771	-2.5438	-2.7208	-2.6708	-2.9479	-2.9479	-2.5354	-2.6833	-2.9938	-2.5833	-2.7292	-2.7833	-2.6125	-2.9104	186.624	444.372	336.795	276.520	239.003	321.300	471.613	482.387	434.554	328.885	463.031	428.438	160.949	505.774	284.459	216.128	0.0002547	0.00018579	3.6888e-05	1272.2	4.2611e-06	4.0473e-06	1321.3	251.45	4.518e-06	2.5396e-06	314.52	87.894	68.359	19.795	4.5298e-06	27.901	0.00060757	0.00074219	0.00020861	1258.1	8.314e-06	8.548e-06	1308.8	251.35	7.984e-06	8.3804e-06	314.37	88.73	69.165	20.189	7.9566e-06	28.571	244.891	306.877	274.037	164.927	298.546	311.944	165.030	172.152	323.706	319.068	171.791	178.153	178.293	185.630	278.886	185.194	-8191	255	
25875.160	1	1	0	0	0.099173	0.1472	0.23027	0.073903	0.10258	0.11079	0.1125	0.20962	0.40728	0.33929	0.21892	0.21444	0.39357	0.25079	0.26097	0.22357	-2.225	-2.7104	-2.8896	-2.5187	-2.7354	-2.6896	-2.7833	-2.9479	-2.5167	-2.6521	-2.8542	-2.6063	-2.9229	-2.7542	-2.4521	-2.8708	460.789	509.818	425.312	355.286	441.678	181.139	424.580	451.004	305.178	279.143	433.832	475.908	508.557	471.035	163.390	227.604	0.00026604	0.0003903	4.6764e-05	1267.4	2.0084e-06	3.9065e-06	1323.1	252.58	2.2113e-06	3.9984e-06	314.47	87.847	68.264	19.794	2.7186e-06	27.869	0.00061913	0.00076678	0.00021044	1259	8.502e-06	8.5568e-06	1310.9	252.01	8.3905e-06	8.7188e-06	315	89.01	69.33	20.194	8.6599e-06	28.527	239.244	218.048	218.861	164.553	299.774	312.132	164.998	172.045	291.631	292.237	171.658	178.234	178.899	185.677	357.190	185.317	-8191	255	
25875.258	1	1	0	0	0.12392	0.07226	0.12703	0.14295	0.097805	0.1243	0.37042	0.1915	0.20148	0.30053	0.10546	0.070863	0.14078	0.32233	0.11514	0.11463	-2.2604	-2.6417	-2.7604	-2.5125	-2.8521	-2.9062	-2.6146	-2.9375	-2.7479	-2.7479	-2.9833	-2.6646	-2.7333	-2.8396	-2.6813	-2.9458	283.128	248.821	317.188	416.606	250.662	218.905	460.507	476.458	167.089	433.982	293.318	481.121	177.971	456.216	180.195	213.992	0.00027275	0.00038822	0.00012775	1280.6	3.2106e-06	3.2261e-06	1332.8	252.89	3.6126e-06	2.4467e-06	314.56	87.746	69.213	19.957	4.4269e-06	28.041	0.00064137	0.00077844	0.0002214	1266.5	8.69e-06	8.9432e-06	1316.3	252.28	8.5114e-06	8.8484e-06	315.08	88.869	69.522	20.246	8.5943e-06	28.611	239.193	267.385	251.870	165.036	282.776	268.795	165.063	172.130	281.630	230.838	171.648	178.214	178.428	185.526	294.617	184.989	-8191	255	
25875.354	1	1	0	0	0.098016	0.19468	0.1394	0.10633	0.10629	0.10347	0.14081	0.16837	0.21403	0.076625	0.20466	0.1315	0.06716	0.16227	0.19489	0.22132	-2.2729	-2.6604	-2.8604	-2.7333	-2.8958	-2.7438	-2.7938	-2.9708	-2.8792	-2.6771	-3.0104	-2.6958	-2.7	-2.95	-2.4333	-2.8229	406.064	302.532	442.413	264.503	474.249	432.235	186.104	229.597	188.894	281.139	383.572	420.834	508.821	462.999	159.407	498.768	0.00028103	0.00046965	6.5443e-05	1286.8	6.0146e-06	2.7414e-06	1327.1	253.25	3.8774e-06	6.0156e-06	316.56	88.007	68.753	19.799	6.2863e-07	28.129	0.00064815	0.00081865	0.00022744	1272.6	8.8614e-06	8.8427e-06	1317.3	252.59	8.5456e-06	8.9884e-06	316.02	88.943	69.647	20.268	8.7623e-06	28.652	235.045	253.918	212.937	165.034	302.035	272.324	165.165	172.018	312.643	293.723	171.544	178.072	178.550	185.312	406.804	185.041	-8191	255	
25875.449	1	1	0	0	0.26672	0.13828	0.13968	0.17756	0.16014	0.10389	0.17622	0.052709	0.1534	0.11766	0.14378	0.2667	0.20057	0.31213	0.23533	0.14096	-2.2646	-2.4562	-2.9646	-2.8729	-2.5312	-2.8708	-2.9437	-2.9208	-2.8958	-2.5646	-2.85	-2.7771	-2.6771	-2.8167	-2.5938	-2.8563	449.431	458.519	389.497	175.706	190.325	256.584	496.585	185.751	202.018	301.300	178.070	465.669	424.311	496.310	336.757	489.054	0.00025633	0.00032491	0.00017014	1282.7	1.4031e-06	2.3563e-06	1330.4	253.08	2.3497e-06	2.8264e-06	315.16	87.95	68.589	19.914	4.7336e-06	28.14	0.00066544	0.00081554	0.00022824	1272.9	8.5878e-06	8.8731e-06	1317.7	252.78	8.619e-06	9.0339e-06	315.92	89.012	69.477	20.268	8.6556e-06	28.728	241.032	211.524	252.813	165.179	386.237	274.525	164.981	171.968	338.634	263.077	171.829	178.266	178.766	185.624	286.720	185.437	-8191	255	
25875.568	1	1	0	0	0.32855	0.16432	0.18692	0.34637	0.18107	0.24548	0.051725	0.26397	0.25187	0.2046	0.085792	0.17358	0.14394	0.070749	0.13148	0.10137	-2.4	-2.3646	-2.6479	-2.7792	-2.4354	-2.7104	-2.6417	-2.7042	-2.5729	-2.4708	-2.9292	-2.6708	-2.6104	-2.8563	-2.5208	-2.5896	457.434	510.838	384.429	512.610	156.198	479.811	377.086	487.848	430.871	210.747	464.118	399.524	158.806	402.297	220.885	428.891	0.00026584	0.00027768	4.5139e-05	1279.3	2.2824e-07	3.3578e-06	1332	254.44	4.3048e-06	5.88e-06	314.77	87.751	68.842	19.883	3.6147e-06	28.152	0.00064677	0.00079702	0.00022263	1270.6	8.6628e-06	8.7958e-06	1318.8	253.44	8.5051e-06	8.7782e-06	315.99	88.809	69.524	20.243	8.3513e-06	28.665	237.364	245.517	186.684	164.949	495.572	285.875	164.906	171.925	263.096	273.625	171.880	178.059	178.336	185.569	316.872	185.120	-8191	255	
25875.664	1	1	0	0	0.21935	0.27509	0.32854	0.029735	0.094058	0.27599	0.30145	0.22837	0.2696	0.20435	0.15929	0.2121	0.094645	0.31098	0.16537	0.093933	-2.4417	-2.3833	-2.7604	-2.8125	-2.4417	-2.7896	-3.0708	-2.8167	-2.8604	-2.6167	-2.9125	-2.9437	-2.4396	-2.9125	-2.6375	-2.6958	329.661	462.100	469.061	370.951	166.101	180.938	487.258	180.605	285.506	446.880	442.945	158.701	443.273	413.042	467.528	474.192	0.00026553	6.971e-05	0.00011568	1281.5	2.8298e-06	5.9942e-07	1329.5	252.68	2.8068e-06	4.5102e-06	315.36	87.736	68.597	19.907	3.8935e-06	28.016	0.00063292	0.00078673	0.00021425	1268.3	8.0809e-06	8.5475e-06	1315.8	252.8	8.1072e-06	8.3034e-06	316.08	88.863	69.419	20.21	8.3247e-06	28.63	240.354	238.186	276.427	164.803	295.897	334.328	164.720	171.718	227.183	339.352	171.815	178.335	178.852	185.463	351.282	185.032	-8191	255	
25875.762	1	1	0	0	0.21138	0.21098	0.093566	0.098714	0.064153	0.12637	0.078288	0.088384	0.22459	0.063767	0.2777	0.28714	0.095415	0.35592	0.33236	0.17804	-2.3917	-2.4896	-2.5042	-2.9375	-2.3979	-2.8625	-2.8438	-2.65	-2.7521	-2.5167	-2.9646	-2.625	-2.5375	-2.8458	-2.8396	-2.6604	331.315	469.345	158.031	490.095	177.663	385.325	392.449	323.254	461.561	295.777	374.875	409.865	424.877	486.401	303.282	475.707	0.00030321	0.00023541	5.8775e-05	1282.4	4.7792e-06	7.0123e-06	1328	253.93	1.0973e-06	2.1712e-06	316.19	88.229	68.975	19.878	5.8413e-06	28.004	0.00061575	0.00076453	0.00021376	1268.2	8.2915e-06	8.5276e-06	1316.2	252.73	8.094e-06	8.7336e-06	315.99	89.103	69.653	20.258	8.5404e-06	28.601	242.829	215.374	214.252	164.993	298.794	365.482	164.834	171.995	350.902	369.152	171.825	178.079	178.387	185.665	290.111	185.389	-8191	255	
25875.857	1	1	0	0	0.34648	0.19844	0.12841	0.39701	0.11193	0.2373	0.14834	0.2644	0.35695	0.15553	0.14789	0.13215	0.21173	0.23704	0.036264	0.067684	-2.4229	-2.3979	-2.6146	-2.8583	-2.6	-2.5812	-2.8563	-2.5958	-2.8312	-2.6542	-2.7792	-2.7542	-2.5938	-2.8875	-2.8146	-2.5583	260.984	363.047	514.034	474.906	405.653	305.110	384.359	481.691	313.017	201.158	423.013	440.791	409.630	425.549	197.020	496.649	0.00030583	0.00044026	0.00012054	1278.7	4.9569e-06	5.1749e-06	1330	253.47	2.9988e-06	1.0775e-06	316.42	88.11	68.78	19.92	3.2457e-06	27.873	0.00064182	0.00078667	0.00022314	1272.3	8.6238e-06	8.7668e-06	1317.6	252.73	8.5112e-06	8.8038e-06	316.27	89.093	69.664	20.302	8.3129e-06	28.617	234.916	271.592	237.954	164.618	275.166	319.535	164.958	172.208	255.912	288.327	171.828	178.340	178.534	185.698	347.499	185.042	-8191	255	
25875.953	1	1	0	0	0.21397	0.13464	0.12871	0.28075	0.1769	0.01171	0.19959	0.24865	0.19245	0.088407	0.30439	0.074804	0.053454	0.21182	0.058555	0.098009	-2.4417	-2.5333	-2.4979	-2.8417	-2.6604	-2.6708	-2.8917	-2.7021	-2.9125	-2.6708	-2.4896	-2.9146	-2.5479	-2.7542	-2.9	-2.6667	302.112	509.413	314.628	404.884	486.472	344.862	382.413	400.070	450.185	483.761	192.612	314.017	434.969	462.871	155.059	359.799	0.00027705	0.00018027	0.00015223	1284.7	2.7411e-06	3.6348e-06	1330.9	252.71	3.9849e-06	4.249e-06	314.86	87.853	69.416	19.808	4.2431e-06	28.201	0.0006323	0.00079667	0.00022058	1270.9	8.4153e-06	8.5464e-06	1315.6	252.64	8.3156e-06	8.537e-06	315.34	88.988	69.618	20.259	8.3131e-06	28.709	238.896	263.141	249.857	164.991	272.108	326.622	164.981	172.167	288.393	348.646	171.756	177.948	178.689	185.400	315.183	184.957	-8191	255	
25876.049	1	1	0	0	0.11278	0.10987	0.10633	0.042644	0.035793	0.16012	0.20504	0.24174	0.064663	0.35066	0.083809	0.055295	0.16626	0.25896	0.070719	0.16865	-2.5042	-2.525	-2.6	-2.7562	-2.7542	-2.725	-2.925	-2.55	-2.6875	-2.6	-2.5833	-2.6125	-2.4708	-2.7833	-2.7375	-2.3792	180.817	155.037	231.079	356.002	409.405	293.383	205.526	451.363	361.063	438.350	364.820	498.253	230.365	473.875	502.376	306.769	0.00028451	0.00044286	0.0001145	1284.5	2.6374e-06	1.5147e-07	1329.4	253.32	4.8324e-06	1.4816e-06	316.84	88.096	69.092	19.875	6.2933e-06	28.099	0.00063868	0.00076467	0.00021757	1269.9	8.5583e-06	8.742e-06	1315.4	252.77	8.2694e-06	8.6858e-06	316.6	88.956	69.642	20.265	8.4271e-06	28.732	241.425	260.130	243.850	164.834	297.380	285.469	164.869	171.930	281.038	346.014	171.750	178.549	178.614	185.841	315.849	184.859	-8191	255	
25876.170	1	1	0	0	0.15963	0.154	0.26447	0.13664	0.12551	0.16391	0.29899	0.24269	0.18796	0.11879	0.25403	0.32076	0.22419	0.10447	0.16623	0.17845	-2.4021	-2.7708	-2.3271	-2.8604	-2.725	-2.8271	-3.1312	-2.6979	-2.7604	-2.8458	-2.4979	-3.0979	-2.7042	-2.7521	-2.7188	-2.55	244.974	455.714	201.976	368.187	498.159	456.249	444.061	159.794	432.911	311.410	162.844	429.319	460.758	433.336	493.795	174.729	0.00024942	0.0005471	0.00015889	1289.4	2.8268e-06	3.7378e-06	1330.5	254.5	3.1429e-06	4.2487e-06	316.29	87.888	68.874	19.758	2.0481e-06	28.091	0.00065487	0.00078244	0.00022186	1270.8	8.602e-06	8.7002e-06	1319.7	252.98	8.4507e-06	8.7692e-06	316.85	88.863	69.535	20.224	8.292e-06	28.694	237.836	240.944	239.580	164.927	319.390	349.097	164.947	171.927	285.440	286.699	171.832	178.240	178.421	185.647	302.650	185.270	-8191	255	
25876.266	1	1	0	0	0.33888	0.13528	0.18494	0.12647	0.092869	0.30175	0.39028	0.12523	0.16675	0.25104	0.22243	0.20084	0.043008	0.36288	0.20412	0.43138	-2.3146	-2.6854	-2.3208	-2.8812	-2.6688	-2.7229	-3.0062	-2.5854	-2.875	-2.7396	-2.6271	-2.8229	-2.6271	-2.6479	-2.9792	-2.5479	369.562	372.480	508.673	191.743	308.529	382.350	446.245	461.959	246.704	422.013	491.899	486.280	209.406	175.614	294.388	154.169	0.00029632	0.00047409	0.00022332	1282.3	3.0433e-06	2.3501e-06	1332.2	252.14	4.1243e-06	3.7408e-06	315.71	88.156	68.71	19.907	3.6833e-06	28.112	0.0006295	0.00077365	0.00021437	1274.5	8.4522e-06	8.3608e-06	1318.5	252.77	8.2391e-06	8.4698e-06	316.11	89.066	69.405	20.269	8.2642e-06	28.705	238.463	265.226	274.519	164.675	307.462	256.560	165.102	172.051	289.076	318.710	171.984	178.348	178.696	185.453	303.076	185.007	-8191	255	
25876.359	1	1	0	0	0.094373	0.20995	0.15185	0.21416	0.23743	0.089578	0.17466	0.14381	0.26117	0.37035	0.36844	0.36926	0.14416	0.17955	0.17842	0.15073	-2.3333	-2.8542	-2.5438	-2.9708	-2.7542	-2.6417	-3.0896	-2.8125	-2.8708	-2.8667	-2.5542	-2.8229	-2.6833	-2.7854	-2.8125	-2.7521	239.625	325.667	395.720	348.045	283.969	300.247	412.057	480.405	315.128	436.012	173.307	441.125	441.472	485.343	286.059	506.817	0.00026371	0.00016127	0.00011178	1285.5	2.3022e-06	2.5738e-06	1327.7	252.27	2.3308e-06	4.0215e-06	315.98	87.599	68.619	19.826	2.7745e-06	27.978	0.00063106	0.00076892	0.00021744	1269.3	8.4529e-06	8.3659e-06	1317.3	252.12	8.1715e-06	8.3457e-06	316.21	88.845	69.522	20.213	8.5484e-06	28.649	243.219	237.596	198.240	165.045	316.545	291.221	164.752	171.936	260.674	352.453	171.853	178.614	178.792	185.545	274.164	185.289	-8191	255	
25876.455	1	1	0	0	0.068334	0.17434	0.21159	0.20732	0.13726	0.18635	0.18637	0.3299	0.18746	0.1091	0.24077	0.29528	0.26843	0.13132	0.14449	0.16696	-2.1583	-2.9437	-2.4562	-2.7562	-2.7542	-2.5	-3.2333	-2.6854	-2.6854	-2.8479	-2.8771	-2.9313	-2.8542	-2.6437	-2.8792	-2.5667	401.620	386.314	163.845	365.396	487.450	248.895	457.896	425.011	380.233	359.777	453.316	228.924	182.301	218.072	336.613	168.422	0.00028428	0.00012588	0.00012745	1281.6	3.2539e-07	5.0342e-06	1331.7	252.96	3.1782e-06	4.174e-06	315.8	87.624	68.69	19.794	4.7531e-06	28.187	0.00062387	0.00076082	0.0002108	1267.3	8.2773e-06	8.6434e-06	1316.3	252.67	8.1876e-06	8.2748e-06	316.06	88.65	69.388	20.206	7.9753e-06	28.723	243.934	257.908	237.693	164.559	351.026	304.255	164.923	171.859	294.556	333.583	171.794	178.219	178.299	186.231	283.130	185.288	-8191	255	
25876.553	1	1	0	0	0.05757	0.097116	0.073593	0.058287	0.13152	0.067519	0.2363	0.29157	0.16335	0.11817	0.10128	0.29975	0.097828	0.044052	0.1766	0.055522	-2.1708	-2.7708	-2.5479	-2.7062	-3.0042	-2.5625	-3.1125	-2.7125	-2.6104	-2.9313	-2.675	-2.7271	-3.0396	-2.6375	-2.8146	-2.8667	179.795	277.459	228.083	473.470	165.230	211.873	497.937	482.241	298.618	287.758	197.825	412.910	438.650	230.559	358.777	397.777	0.00025027	0.00033872	7.1726e-05	1286.6	2.5996e-06	1.7542e-06	1324.1	252.49	1.1849e-06	7.0812e-06	314.63	88.02	69.207	19.829	6.178e-06	27.976	0.00059756	0.00074959	0.00020672	1266.3	8.2897e-06	8.1109e-06	1313.3	251.95	7.739e-06	8.1237e-06	314.61	88.835	69.406	20.174	7.9981e-06	28.659	246.120	251.972	261.535	164.692	227.267	207.274	165.101	172.202	405.401	290.829	171.651	178.097	178.608	185.553	362.896	185.242	-8191	255	
25876.648	1	1	0	0	0.29206	0.093783	0.15736	0.17573	0.13124	0.11822	0.34075	0.18698	0.39345	0.16602	0.029982	0.066287	0.13218	0.13942	0.028184	0.10995	-2.1125	-2.9375	-2.4896	-2.6958	-2.8792	-2.55	-3.0521	-2.9917	-2.5146	-2.9333	-2.7875	-2.7271	-2.9979	-2.6312	-2.7958	-2.9542	332.938	410.264	221.265	511.960	438.326	316.276	473.157	327.939	295.407	465.904	318.939	229.913	506.005	332.785	487.977	504.222	0.00028427	0.00034888	6.538e-05	1276	3.8475e-06	5.6205e-07	1326.6	253.45	5.7201e-06	5.0848e-06	316.92	87.648	68.57	19.829	3.3872e-06	28.037	0.00060337	0.00074884	0.00020481	1266	8.033e-06	8.3928e-06	1313.6	252.15	7.8479e-06	8.2551e-06	315.29	88.749	69.301	20.23	8.0006e-06	28.606	244.160	242.756	205.791	164.538	305.167	326.477	165.026	172.025	342.995	283.560	171.556	177.954	178.691	185.690	333.353	184.776	-8191	255	
25876.744	1	1	0	0	0.20897	0.25455	0.13876	0.15675	0.055458	0.12371	0.30029	0.17159	0.12876	0.12914	0.098447	0.04843	0.14351	0.22671	0.17763	0.20909	-2.0812	-2.8521	-2.4417	-2.5938	-2.9604	-2.625	-2.9938	-2.8875	-2.3563	-2.9333	-2.7625	-2.6729	-3.1083	-2.6562	-2.7104	-2.9208	495.083	323.521	323.613	183.490	439.424	378.493	434.552	457.005	329.362	337.982	187.529	247.456	486.416	437.389	200.189	453.066	0.00024991	0.00012972	0.00014867	1280.8	4.3417e-06	4.4766e-06	1325.4	251.39	2.9306e-06	2.7872e-06	315.35	88.019	68.702	19.852	4.2746e-06	28.014	0.00059674	0.00075705	0.00020832	1265	7.9933e-06	8.1577e-06	1313.1	251.82	7.9224e-06	8.014e-06	315.81	88.915	69.237	20.177	8.1236e-06	28.619	242.502	232.201	253.587	164.543	307.856	313.058	164.912	171.879	356.149	314.895	171.948	178.340	178.599	185.510	371.343	185.061	-8191	255	
25876.865	1	1	0	0	0.18417	0.18753	0.26447	0.092783	0.21919	0.11338	0.17317	0.11857	0.18417	0.28258	0.1303	0.057228	0.44943	0.23009	0.38651	0.020044	-2.225	-2.6792	-2.7625	-2.6937	-2.8958	-2.6792	-2.8021	-2.8396	-2.4708	-2.7104	-2.825	-2.7125	-3.0104	-2.7062	-2.6271	-2.9375	408.156	192.876	303.318	412.031	498.243	264.931	405.126	436.744	484.766	331.393	478.336	167.638	505.146	507.044	312.736	371.113	0.00031357	0.00012675	0.00010602	1277.9	2.9853e-06	6.9718e-06	1327.9	252.53	2.2471e-06	1.8805e-06	315.08	87.794	68.912	19.733	2.1883e-06	28.16	0.00061134	0.0007619	0.00020658	1261.7	8.2138e-06	8.1909e-06	1311.7	251.36	7.9844e-06	8.3531e-06	314.31	88.722	69.321	20.195	7.9477e-06	28.605	243.194	231.776	259.417	165.185	279.398	296.899	164.798	172.011	346.501	404.078	171.773	178.533	178.686	185.496	335.872	185.297	-8191	255	
25876.963	1	1	0	0	0.22226	0.091885	0.29631	0.11784	0.19608	0.22341	0.32575	0.31284	0.087096	0.21299	0.189	0.25805	0.016626	0.094944	0.12468	0.10307	-2.0958	-2.7708	-2.725	-2.6	-2.7625	-2.825	-2.9479	-3.0292	-2.4313	-2.7917	-2.9271	-2.6813	-2.7854	-2.5854	-2.5333	-2.9208	297.452	208.483	478.675	466.776	370.396	302.913	485.465	362.398	406.763	325.014	198.256	388.649	182.565	420.186	322.502	430.069	0.00028183	0.00035443	7.9603e-05	1275.7	1.6857e-06	3.3264e-06	1326.5	252.99	3.8912e-06	3.3556e-06	314.52	87.512	68.43	19.841	2.317e-06	27.849	0.00060877	0.00074805	0.00020935	1260.3	8.2712e-06	8.4712e-06	1311.4	251.44	8.0435e-06	8.3094e-06	314.39	88.572	69.012	20.135	7.957e-06	28.547	245.151	258.310	306.513	164.995	331.992	300.245	164.948	171.796	307.843	325.829	171.857	178.558	178.672	185.692	302.905	185.435	-8191	255	
25877.059	1	1	0	0	0.23841	0.1959	0.26218	0.18695	0.20212	0.05402	0.36024	0.20056	0.1206	0.16003	0.13507	0.13345	0.2103	0.14666	0.11317	0.17201	-2.1479	-2.7042	-2.8438	-2.4562	-2.8563	-2.5583	-2.9021	-2.9437	-2.7292	-2.7167	-3.0729	-2.7375	-2.9125	-2.6458	-2.7021	-3.0646	221.719	405.715	346.655	491.881	268.676	429.818	443.591	373.416	183.510	413.840	181.512	164.310	514.113	154.220	501.296	294.003	0.00029865	0.00035579	0.00011257	1269.5	2.1976e-06	3.7362e-06	1316.3	251.73	3.678e-06	6.2855e-06	312.33	87.051	68.591	19.556	3.5575e-06	27.876	0.00061116	0.00074334	0.00020401	1258.6	8.0458e-06	8.2009e-06	1305.3	250.87	7.9547e-06	8.1741e-06	313.25	88.28	69.034	20.045	7.8888e-06	28.52	238.115	248.220	226.870	165.084	245.155	332.364	165.130	172.156	340.392	272.833	171.889	178.302	178.722	185.448	288.401	185.262	-8191	255	
25877.129	1	1	0	0	0.11067	0.14781	0.044122	0.26317	0.20809	0.081446	0.15873	0.16931	0.29815	0.30973	0.065345	0.10427	0.21231	0.11218	0.2515	0.084784	-2.1104	-2.7062	-2.6188	-2.5875	-2.825	-2.8167	-2.9146	-2.9313	-2.6688	-2.6646	-3.0542	-2.6625	-2.725	-2.7708	-2.4792	-2.925	397.408	212.050	366.536	409.503	345.911	464.902	419.549	453.634	477.332	500.370	395.191	273.925	456.270	255.251	377.538	245.981	0.00026745	0.00037776	8.9474e-05	1267.5	3.4737e-06	4.8899e-06	1310.5	251.09	3.1597e-06	1.1404e-06	313.28	87.113	68.585	19.75	4.3228e-06	27.926	0.00059359	0.00074417	0.00020317	1255.7	8.1052e-06	8.0127e-06	1300.3	249.84	7.7321e-06	8.0045e-06	313.11	88.411	69.123	20.104	7.9541e-06	28.53	236.482	212.466	245.888	164.715	291.448	296.477	164.987	172.125	298.488	303.444	171.790	178.456	178.849	185.523	318.863	185.155	-8191	255	
25877.250	1	1	0	0	0.12079	0.061984	0.21871	0.068101	0.02107	0.13491	0.205	0.17172	0.18397	0.27664	0.22907	0.17364	0.14691	0.12182	0.15261	0.33804	-2.2562	-2.6937	-2.8854	-2.7229	-2.6479	-2.8	-2.6708	-2.8583	-2.7667	-2.6937	-3.0167	-2.7687	-2.8021	-2.8667	-2.75	-2.9146	349.571	391.344	336.640	206.306	405.470	372.708	455.477	423.236	417.142	399.503	501.208	491.454	412.831	495.035	283.487	511.693	0.00028744	0.00027154	0.00013143	1266.9	6.8091e-06	2.2867e-06	1320.6	251.08	3.9835e-06	5.3012e-06	312.71	87.213	67.838	19.714	2.3992e-06	27.859	0.00060569	0.00074822	0.00020815	1253.5	8.2273e-06	8.1976e-06	1304.5	250.11	7.9803e-06	8.1348e-06	313.21	88.259	68.717	20.035	8.0303e-06	28.575	240.539	224.425	244.167	164.888	305.677	297.525	164.860	171.968	284.147	298.943	171.873	178.222	178.893	185.366	276.529	185.034	-8191	255	
25877.346	1	1	0	0	0.17101	0.28894	0.14148	0.11595	0.13414	0.10509	0.20825	0.33374	0.15635	0.23105	0.06857	0.17455	0.25973	0.17688	0.15276	0.054382	-2.1958	-2.6208	-2.8958	-2.7562	-2.6604	-2.8104	-2.6583	-2.7979	-2.6646	-2.6167	-2.9875	-2.7583	-2.5312	-2.9062	-2.5438	-2.6833	176.739	286.778	499.819	395.276	162.920	240.783	419.233	472.444	225.575	189.079	214.075	177.819	176.237	162.092	218.605	437.550	0.0002786	0.00021828	0.00011054	1274.8	2.4682e-06	2.7331e-06	1314	250.98	3.7739e-06	4.7637e-06	312.63	88.035	68.196	19.735	4.1012e-06	27.877	0.00060205	0.00075365	0.00020947	1255.5	8.1251e-06	8.2756e-06	1304.2	250.42	7.8241e-06	8.172e-06	313.32	88.47	68.914	20.082	7.9777e-06	28.517	237.228	290.998	264.747	164.628	333.961	352.449	164.919	172.055	254.731	291.228	171.646	178.386	178.963	185.695	301.126	185.395	-8191	255	
25877.441	1	1	0	0	0.23626	0.17331	0.18444	0.23214	0.14704	0.15988	0.36162	0.21326	0.22053	0.12724	0.20156	0.26113	0.09848	0.11744	0.082545	0.2007	-2.1354	-2.5875	-2.7667	-2.4646	-2.75	-2.8146	-2.7667	-2.7646	-2.6292	-2.5938	-2.8104	-2.4792	-2.7562	-3.0583	-2.2667	-2.75	327.855	286.640	336.097	431.738	410.969	268.574	443.334	167.148	458.094	212.438	437.655	460.460	485.371	330.450	281.112	481.090	0.00028441	0.00034796	0.00011657	1269.5	2.8905e-06	5.6865e-06	1316	250.71	2.6651e-06	3.4604e-06	311.71	87.541	67.875	19.743	4.4758e-06	27.95	0.00061015	0.0007342	0.00020601	1255.5	8.0312e-06	8.2485e-06	1302.2	250.1	7.8542e-06	8.2563e-06	312.92	88.317	68.74	20.081	8.0665e-06	28.599	238.779	287.018	270.530	164.935	277.015	347.599	164.843	172.143	295.743	257.444	171.808	178.238	178.597	185.234	320.408	184.803	-8191	255	
25877.561	1	1	0	0	0.16634	0.069742	0.15705	0.22366	0.010271	0.2	0.28588	0.28916	0.38499	0.061164	0.14827	0.050587	0.22085	0.14303	0.12698	0.20195	-2.3333	-2.4	-2.9521	-2.6833	-2.6354	-2.8	-2.8521	-2.8729	-2.8354	-2.4792	-3.0333	-2.7125	-2.8208	-2.9042	-2.5875	-2.7354	485.423	243.459	306.471	443.269	294.560	476.812	425.743	392.399	257.762	248.964	486.666	462.327	242.451	383.235	306.631	454.991	0.00024457	0.0003238	0.0001735	1274	2.7308e-06	4.1038e-06	1315.2	252.08	4.0828e-06	3.9382e-06	315.02	87.126	68.544	19.674	2.9589e-06	27.792	0.00059682	0.00071503	0.00020879	1256.7	8.1829e-06	8.1921e-06	1302.1	250.68	7.8046e-06	8.0717e-06	314.03	88.231	68.942	20.049	8.0001e-06	28.414	245.775	252.527	234.520	164.857	341.508	328.674	165.321	172.113	303.373	321.718	171.771	178.538	178.582	185.485	310.481	185.427	-8191	255	
25877.656	1	1	0	0	0.063523	0.065953	0.28328	0.52758	0.11381	0.090331	0.25888	0.074428	0.16418	0.23915	0.17112	0.19563	0.19713	0.085144	0.1613	0.1111	-2.4896	-2.55	-2.8833	-2.6979	-2.5604	-2.8542	-2.8417	-2.6042	-2.9271	-2.4646	-2.9667	-2.7875	-2.7083	-2.8375	-2.7062	-2.7313	220.888	156.840	511.431	183.186	154.861	374.977	474.329	174.183	512.787	489.006	167.277	211.219	264.906	256.089	435.282	408.186	0.00026873	0.00026609	0.00010449	1269.7	9.9533e-07	3.2855e-06	1314.4	251.69	3.4655e-06	4.8303e-06	313.69	87.173	68.186	19.784	1.1583e-06	27.591	0.00060403	0.0007288	0.00020642	1255.3	8.1032e-06	8.242e-06	1303	250.56	7.9604e-06	8.2981e-06	313.29	87.977	68.997	20.106	7.8726e-06	28.473	245.430	236.742	294.631	164.980	305.776	345.677	164.948	172.205	321.076	287.644	171.987	178.447	178.814	185.514	440.479	185.305	-8191	255	
25877.729	1	1	0	0	0.25631	0.20426	0.17127	0.25894	0.11389	0.040787	0.050556	0.22655	0.25514	0.057719	0.20905	0.28357	0.16765	0.16132	0.085189	0.20518	-2.3333	-2.5396	-2.7313	-2.6875	-2.6396	-2.8937	-2.7938	-2.6625	-2.7729	-2.4958	-2.8458	-2.9708	-2.6188	-2.875	-2.5917	-2.5354	452.828	425.544	172.922	364.285	294.929	237.411	459.499	405.102	191.211	300.945	169.800	451.269	163.556	176.592	336.320	306.065	0.00027425	0.00033767	6.7806e-05	1260.7	5.1171e-06	4.4525e-06	1316.9	250.15	4.2244e-06	1.4917e-06	313.24	86.943	68.565	19.699	9.8261e-07	27.782	0.00060823	0.00075009	0.0002059	1253.2	7.8321e-06	8.2141e-06	1303.5	249.45	7.9614e-06	8.2399e-06	313.36	88.068	69.083	20.063	8.0015e-06	28.5	241.543	263.383	199.917	165.191	342.363	264.261	165.036	172.027	282.047	221.925	171.644	178.370	178.824	185.543	340.603	185.500	-8191	255	
25877.850	1	1	0	0	0.26455	0.069114	0.26392	0.09741	0.12169	0.26281	0.13684	0.28819	0.16565	0.080632	0.14247	0.1239	0.13941	0.15001	0.17375	0.13344	-2.3479	-2.4875	-2.6708	-2.8187	-2.5146	-2.8	-3.0563	-2.6229	-2.8688	-2.5208	-2.9292	-2.9604	-2.3625	-2.9396	-2.6333	-2.7271	288.345	266.497	460.968	359.704	154.176	394.666	490.105	502.446	196.934	491.508	464.168	508.181	395.131	203.464	475.734	383.927	0.0002583	0.00031632	6.4466e-05	1266.3	3.719e-06	4.0323e-06	1312.3	251.34	1.9425e-06	3.2175e-06	313.11	87.058	68.542	19.735	2.3589e-06	27.7	0.000612	0.00073051	0.00021136	1252.8	8.0307e-06	8.4833e-06	1301.3	250.39	7.8319e-06	8.1452e-06	313.2	88.384	68.935	20.109	7.8233e-06	28.493	244.758	243.463	237.789	164.855	309.081	283.623	165.113	172.149	295.711	325.213	171.754	178.294	178.462	185.700	354.791	184.991	-8191	255	
25877.945	1	1	0	0	0.29585	0.2245	0.13756	0.10029	0.0011191	0.030453	0.31048	0.21395	0.15114	0.25398	0.19341	0.23832	0.22252	0.1044	0.16052	0.30316	-2.4396	-2.6458	-2.7146	-2.8312	-2.6167	-2.8438	-3.0687	-2.7687	-2.9167	-2.7604	-2.7042	-2.8042	-2.6521	-2.8854	-2.7208	-2.6	229.846	221.307	206.012	357.143	180.000	377.486	438.810	445.626	306.071	347.708	165.394	452.071	326.862	210.696	266.584	192.888	0.00026998	0.00042023	0.00010293	1271.3	2.5385e-06	4.5324e-06	1316.2	249.58	2.5596e-06	3.6592e-06	312.33	87.054	68.613	19.726	4.5849e-06	27.693	0.00060546	0.00074078	0.00021029	1255.8	8.1206e-06	8.3642e-06	1302.2	250.24	7.9671e-06	8.1449e-06	313.35	88.102	68.966	20.111	8.1661e-06	28.477	241.938	312.510	233.077	164.945	340.008	286.225	164.769	172.148	305.418	280.530	171.683	178.428	178.560	185.511	305.952	185.391	-8191	255	
25878.043	1	1	0	0	0.28887	0.46968	0.025329	0.14473	0.18993	0.091953	0.28591	0.15393	0.12247	0.12415	0.12164	0.13687	0.19961	0.06375	0.04422	0.082199	-2.2812	-2.5667	-2.6125	-3.0271	-2.525	-2.7188	-3.0771	-2.4313	-2.8521	-2.725	-2.9104	-2.9562	-2.625	-2.7812	-2.7958	-2.5896	395.384	299.671	190.224	486.167	256.499	160.229	423.197	440.031	377.792	252.362	384.377	162.448	415.714	349.677	488.647	240.010	0.00026982	0.00018762	3.6529e-05	1265.9	2.1912e-06	2.5306e-06	1317.9	251.76	3.2437e-06	2.0669e-06	315.35	87.261	68.79	19.597	3.712e-06	27.964	0.00061048	0.00074032	0.00020701	1256.4	7.9181e-06	8.2874e-06	1303.5	250.27	8.0301e-06	8.1362e-06	313.58	88.065	68.987	20.069	7.9244e-06	28.544	238.213	311.997	255.256	165.078	377.502	256.489	164.855	172.151	295.332	259.221	171.558	178.444	178.695	185.564	304.868	184.861	-8191	255	
25878.162	1	1	0	0	0.1429	0.14705	0.12784	0.28791	0.061217	0.11771	0.1869	0.30817	0.11119	0.17259	0.16237	0.17818	0.18761	0.11859	0.15259	0.29241	-2.3021	-2.6396	-2.6125	-3.1667	-2.6396	-2.7167	-3.1	-2.6021	-2.9729	-2.725	-2.7604	-2.8021	-2.6312	-2.7604	-2.7979	-2.6208	392.610	298.557	371.976	158.323	327.254	460.840	502.638	423.969	258.174	266.550	367.372	507.354	498.773	491.065	426.082	504.640	0.00029435	0.00046577	6.0421e-05	1266.6	5.4251e-06	2.7982e-06	1316.6	251.57	2.5186e-06	4.3736e-06	314.01	87.393	68.193	19.653	3.1698e-06	27.931	0.00060225	0.00071711	0.0002052	1254.1	7.9544e-06	8.2596e-06	1303.7	250.38	7.953e-06	8.0389e-06	313.56	88.349	68.907	20.098	8.1014e-06	28.579	247.044	263.815	236.088	164.523	340.503	269.311	164.783	172.199	308.689	370.726	171.769	178.355	178.611	185.537	348.208	185.312	-8191	255	
25878.260	1	1	0	0	0.09897	0.18314	0.080538	0.20297	0.18149	0.14595	0.17731	0.03891	0.30964	0.16767	0.24166	0.13284	0.17876	0.060424	0.023716	0.10123	-2.3896	-2.7646	-2.4854	-2.8375	-2.5667	-2.7313	-3.1708	-2.6729	-2.8042	-2.7375	-2.8375	-2.9875	-2.6271	-2.7646	-2.9813	-2.7208	313.884	272.048	360.670	199.056	373.346	198.080	497.782	429.275	289.331	175.723	492.723	484.872	488.154	161.230	393.176	362.255	0.0002704	0.00029824	9.5693e-05	1271	3.2546e-06	3.8119e-06	1317	250.2	3.4399e-06	5.8559e-06	312.75	87.442	68.29	19.833	2.0391e-06	27.874	0.00060631	0.00072768	0.0002091	1258.5	8.1809e-06	8.1965e-06	1303.9	250.71	8.0998e-06	8.1881e-06	313.51	88.381	68.942	20.145	7.8813e-06	28.606	239.799	242.287	209.734	164.751	300.050	324.201	165.055	172.225	313.101	294.857	171.837	178.140	178.763	185.697	345.411	185.068	-8191	255	
25878.330	1	1	0	0	0.16173	0.15304	0.059858	0.10869	0.17429	0.14732	0.24303	0.27342	0.11029	0.054384	0.25014	0.21543	0.17844	0.07686	0.15657	0.20115	-2.2104	-2.8021	-2.3354	-2.825	-2.7938	-2.6583	-3.0687	-2.7313	-2.6937	-2.7646	-2.7958	-2.8042	-2.8583	-2.7938	-2.8563	-2.7979	323.443	513.534	252.564	208.138	474.138	173.736	439.954	462.277	366.139	176.064	426.061	373.610	293.102	301.955	160.838	455.465	0.00025677	0.00030442	3.3494e-05	1270.9	2.063e-06	1.6319e-06	1322.1	252.17	2.9297e-06	3.6684e-06	314.76	87.371	68.199	19.727	4.0663e-06	27.876	0.0006164	0.0007357	0.0002085	1260.4	8.1415e-06	8.2642e-06	1308.3	250.87	8.0253e-06	8.2826e-06	314.29	88.47	69.07	20.164	8.027e-06	28.562	241.205	261.183	513.776	164.867	306.727	278.898	164.939	172.074	319.644	317.200	171.946	177.952	178.581	185.855	308.849	185.234	-8191	255	
25878.428	1	1	0	0	0.13254	0.10243	0.11866	0.04355	0.14801	0.078652	0.30209	0.32916	0.17189	0.098204	0.25736	0.1261	0.068485	0.021929	0.083766	0.23657	-2.1667	-2.8146	-2.4708	-2.9188	-2.8479	-2.55	-3.0938	-2.7729	-2.6833	-2.8792	-2.4771	-2.95	-2.6417	-2.4917	-2.8271	-2.6646	435.984	380.139	222.930	303.493	374.175	273.328	458.997	493.439	350.083	391.033	441.158	484.497	211.929	182.852	324.703	482.265	0.00026864	0.0006069	6.9242e-05	1271.4	2.5415e-06	2.0985e-06	1318.8	251.72	4.0394e-06	3.6715e-06	313.16	87.576	68.574	19.814	5.1141e-06	27.959	0.00061463	0.00074263	0.00020528	1260.8	8.0609e-06	8.3311e-06	1306.6	251.21	8.1182e-06	8.1886e-06	313.8	88.414	69.162	20.127	7.9759e-06	28.58	239.837	294.830	294.381	165.101	265.011	330.847	164.844	172.169	279.305	339.050	171.803	178.221	178.823	185.726	295.921	185.070	-8191	255	
25878.523	1	1	0	0	0.12464	0.23316	0.087467	0.08482	0.21525	0.21632	0.26776	0.20971	0.26209	0.4076	0.15726	0.20704	0.26257	0.36149	0.41852	0.2235	-2.2687	-2.8688	-2.4792	-2.7812	-2.6875	-2.5083	-2.9688	-2.7229	-2.3625	-2.8625	-2.6875	-3.0125	-2.7271	-2.6208	-2.7438	-2.7417	194.369	480.346	182.868	477.459	508.634	509.069	445.760	164.801	261.146	228.162	492.906	417.249	178.681	431.024	183.948	498.053	0.00022222	0.00028889	9.4713e-05	1275.1	3.5382e-06	1.4262e-06	1321	251.94	3.7789e-06	3.6571e-06	313.84	87.92	68.545	19.846	1.7013e-06	28.122	0.00060172	0.0007549	0.00020451	1259.3	8.1586e-06	8.0881e-06	1306	250.68	7.9892e-06	8.2521e-06	314.94	88.543	69.207	20.166	8.0601e-06	28.602	250.938	255.217	271.350	164.725	296.211	192.893	165.030	172.046	294.749	295.112	171.611	177.815	178.577	185.853	315.881	185.064	-8191	255	
25878.643	1	1	0	0	0.21034	0.11254	0.10365	0.10049	0.22276	0.021343	0.22988	0.15498	0.1143	0.35056	0.24303	0.12928	0.13556	0.27181	0.23885	0.095167	-2.0917	-2.8583	-2.3667	-2.6958	-2.7687	-2.3812	-2.8771	-2.6792	-2.5479	-2.7687	-2.5271	-2.6979	-2.5563	-2.4208	-2.7271	-2.7208	325.639	483.080	487.583	266.543	273.823	440.795	476.883	454.473	418.619	346.821	422.955	360.704	422.188	202.102	392.512	453.003	0.00027858	0.00028965	0.00011253	1269.5	2.805e-06	7.3975e-06	1320.1	250.88	2.7655e-06	4.6438e-06	314.49	87.684	68.464	19.889	2.5219e-06	28.113	0.00061262	0.00075486	0.00020979	1260.2	8.1107e-06	8.1891e-06	1308.7	250.85	7.9772e-06	8.382e-06	314.43	88.622	69.234	20.185	7.9886e-06	28.633	238.273	222.846	262.665	164.781	276.046	324.892	164.908	172.053	307.103	296.492	171.897	178.280	178.489	185.874	351.352	185.171	-8191	255	
25878.738	1	1	0	0	0.15858	0.075893	0.22256	0.2581	0.19002	0.1882	0.44686	0.13711	0.21951	0.23578	0.2562	0.17999	0.27514	0.29164	0.14911	0.028092	-2.1396	-2.7583	-2.6333	-2.7167	-2.9104	-2.4938	-2.9646	-2.6333	-2.5187	-2.85	-2.725	-2.7896	-3.0167	-2.4979	-2.7833	-2.5396	183.571	348.647	284.914	254.556	201.365	419.557	405.137	424.558	223.299	450.159	459.751	457.548	418.657	475.831	196.674	485.295	0.00028182	0.00064853	6.3402e-05	1266	2.9094e-06	2.424e-06	1323.9	251.53	1.2391e-06	5.3965e-06	315.17	87.81	68.854	19.778	3.9662e-06	28.098	0.000611	0.0007568	0.00020773	1259.9	8.2048e-06	8.1092e-06	1310.3	251.04	8.0535e-06	8.248e-06	315.02	88.728	69.394	20.189	8.1716e-06	28.661	228.556	238.950	232.719	164.965	312.426	268.087	164.899	172.157	214.322	286.034	171.860	178.190	178.578	185.917	310.643	185.093	-8191	255	
25878.834	1	1	0	0	0.2132	0.11555	0.23634	0.10246	0.080219	0.32616	0.11765	0.18713	0.17497	0.21104	0.18153	0.036237	0.15823	0.082277	0.098325	0.39368	-2.0396	-3.0771	-2.4062	-2.5292	-2.8708	-2.525	-2.9896	-2.7375	-2.4062	-2.7812	-2.65	-2.6417	-2.8875	-2.4396	-2.8187	-2.5854	407.023	243.155	512.852	438.627	305.749	208.658	483.657	413.598	372.705	220.971	419.193	416.718	483.998	411.656	259.159	488.117	0.00028109	0.00038817	2.947e-05	1268.2	5.7188e-07	7.7601e-06	1324.6	252.99	2.7404e-06	3.4881e-06	313.78	87.853	69.363	19.76	9.9238e-07	28.006	0.00061344	0.00075986	0.00021155	1261.9	8.2127e-06	8.3872e-06	1311.2	251.74	7.9292e-06	8.3998e-06	313.91	88.595	69.448	20.179	8.2305e-06	28.654	235.292	252.497	285.265	164.994	286.338	295.290	165.092	172.006	289.093	261.406	171.597	178.195	178.622	185.664	455.636	185.240	-8191	255	
25878.930	1	1	0	0	0.12269	0.12294	0.046027	0.13532	0.075825	0.042865	0.17548	0.058469	0.20447	0.066549	0.26787	0.10817	0.33745	0.31553	0.061217	0.10483	-2.0625	-2.9771	-2.5375	-2.5458	-2.6854	-2.4813	-2.8167	-2.8542	-2.5396	-2.8083	-2.6688	-2.5771	-2.8333	-2.5958	-2.7562	-2.9062	362.597	237.707	229.848	483.114	242.417	367.841	409.426	408.350	478.678	282.943	509.344	243.177	447.724	463.760	371.486	358.558	0.00026984	0.0002346	7.3667e-05	1284.6	4.7636e-06	3.602e-06	1326	252.94	2.7852e-06	3.5656e-06	314.11	88.236	68.548	19.855	3.1328e-06	28.005	0.00062016	0.00075951	0.00021371	1267.9	8.1638e-06	8.3334e-06	1309.8	251.68	8.0492e-06	8.4538e-06	314.57	88.93	69.28	20.197	8.1219e-06	28.668	240.294	245.290	167.271	164.957	296.113	272.976	165.013	171.993	315.356	379.877	171.603	178.479	178.442	185.758	328.375	185.109	-8191	255	
25879.025	1	1	0	0	0.22076	0.27081	0.11592	0.099367	0.096825	0.028064	0.28996	0.065626	0.17998	0.15508	0.27934	0.24684	0.036122	0.26998	0.06216	0.058863	-2.1937	-2.7833	-2.7708	-2.5875	-2.925	-2.7854	-2.8354	-2.9875	-2.5062	-2.9562	-2.8021	-2.5854	-3.1583	-2.7313	-2.7604	-2.9854	194.783	470.560	445.098	242.511	468.030	336.591	458.258	363.005	197.546	341.890	155.701	225.112	250.511	458.257	464.961	512.493	0.00027698	0.00030418	8.7431e-05	1276.7	1.0412e-06	3.8369e-06	1325.3	251.8	2.3014e-06	1.2066e-06	314.54	87.697	68.829	19.882	3.8123e-06	28.028	0.00061652	0.00076886	0.00021274	1267	8.4403e-06	8.4689e-06	1313.6	251.38	8.1356e-06	8.3707e-06	315.26	88.714	69.367	20.212	8.0577e-06	28.658	231.882	243.489	216.186	165.201	288.536	280.719	165.170	172.304	301.613	358.742	171.878	177.911	179.048	185.537	321.517	185.013	-8191	255	
25879.121	1	1	0	0	0.068289	0.2062	0.088361	0.13077	0.069998	0.21645	0.28507	0.22877	0.06017	0.17065	0.13605	0.14343	0.24984	0.10767	0.13207	0.35748	-2.1813	-2.6583	-2.7271	-2.5687	-2.9958	-2.6792	-2.8583	-2.9208	-2.6271	-2.7208	-2.9313	-2.5167	-2.8771	-2.6167	-2.5375	-3.0167	419.849	322.252	442.292	398.261	233.165	188.119	456.141	472.533	442.138	411.113	296.275	397.666	174.834	447.238	215.423	457.652	0.00027873	0.00025694	0.00011296	1273.9	2.6001e-06	4.6812e-06	1332.7	252.32	2.5304e-06	3.0815e-06	314.31	87.636	68.44	19.747	4.451e-06	28.346	0.00061186	0.0007503	0.00021019	1264.4	8.3115e-06	8.5278e-06	1316.3	251.8	8.0591e-06	8.391e-06	315.28	88.805	69.355	20.216	8.1108e-06	28.77	236.087	226.051	176.882	164.927	261.029	321.072	165.330	171.891	321.118	264.791	171.731	178.433	178.382	185.911	313.237	185.029	-8191	255	
25879.242	1	1	0	0	0.24557	0.074412	0.19539	0.23032	0.052457	0.19096	0.26743	0.27898	0.074284	0.10276	0.23328	0.33348	0.2934	0.093084	0.049198	0.15369	-1.9958	-2.5146	-2.8312	-2.6792	-2.8958	-2.8104	-2.8542	-2.9375	-2.5979	-2.6917	-2.8458	-2.65	-2.8083	-2.6125	-2.5062	-2.8396	275.721	319.029	202.639	484.447	197.051	198.367	446.113	492.025	260.431	512.367	484.501	370.051	417.319	484.082	445.965	444.259	0.00025279	0.00051748	0.0001422	1279.9	4.0801e-06	4.1415e-06	1326.2	253.46	4.6979e-06	4.0812e-06	315.12	87.71	68.99	19.781	5.692e-06	28.117	0.00061747	0.00076617	0.00021137	1268.2	8.5265e-06	8.4376e-06	1315	252.01	8.1644e-06	8.3524e-06	315.81	88.84	69.534	20.226	8.1969e-06	28.8	244.567	272.753	266.999	164.976	318.390	279.288	164.935	171.928	327.769	280.461	171.787	178.057	178.783	185.612	308.161	184.578	-8191	255	
25879.340	1	1	0	0	0.26433	0.085979	0.059357	0.085395	0.2552	0.1359	0.062559	0.14331	0.2009	0.18817	0.28899	0.2552	0.28622	0.19108	0.19992	0.24259	-2.1083	-2.6271	-2.7896	-2.6562	-2.6396	-2.6271	-2.5083	-2.8729	-2.4375	-2.5833	-2.8979	-2.4062	-2.6979	-2.7188	-2.675	-3.0187	498.268	352.604	313.530	164.158	397.020	480.611	479.146	394.157	512.382	478.990	420.016	471.279	368.274	328.509	331.636	154.436	0.0002689	0.0002899	9.5021e-05	1277.7	2.9726e-06	7.6319e-06	1329.2	251.88	3.9903e-06	3.325e-06	316.66	88.236	69.191	19.807	4.5383e-06	28.079	0.00063005	0.00076863	0.0002068	1269	8.4675e-06	8.4313e-06	1315.3	251.95	8.1102e-06	8.2348e-06	316.29	89.015	69.744	20.295	8.4346e-06	28.741	240.801	302.346	244.311	165.020	320.239	303.998	164.952	171.942	353.616	320.601	171.924	178.141	178.421	185.801	309.652	184.745	-8191	255	
25879.434	1	1	0	0	0.31617	0.22389	0.1614	0.1787	0.087524	0.036807	0.08545	0.16705	0.050783	0.2291	0.21366	0.1527	0.21983	0.084862	0.2821	0.32948	-2.1375	-2.3688	-2.9042	-2.6312	-2.6792	-2.85	-2.6125	-2.9833	-2.5396	-2.6521	-3.1458	-2.525	-2.7146	-2.8167	-2.3271	-2.9	264.635	188.580	414.257	318.097	362.014	204.436	452.364	476.382	435.955	352.046	413.140	511.883	499.760	366.368	325.159	487.621	0.00024978	0.00032048	0.00013184	1284.7	4.9186e-06	1.0016e-06	1330.7	253.04	2.6612e-06	4.7352e-06	315.68	88.224	68.83	19.888	4.853e-06	28.046	0.00062817	0.00076923	0.00021022	1269.9	8.4149e-06	8.5485e-06	1318.5	252.3	8.2645e-06	8.4222e-06	316.34	88.856	69.519	20.279	8.1596e-06	28.78	241.765	244.649	260.469	165.198	337.661	412.773	165.065	172.163	290.716	309.299	171.951	178.132	178.366	185.505	312.261	184.993	-8191	255	
25879.531	1	1	0	0	0.20764	0.18359	0.3009	0.19977	0.25979	0.031265	0.24445	0.30996	0.090632	0.12226	0.25689	0.12068	0.21268	0.28766	0.15943	0.038545	-2.2708	-2.4083	-2.8083	-2.6125	-2.7479	-2.8438	-2.5208	-2.825	-2.7562	-2.4542	-2.9188	-2.5438	-2.7083	-3.0208	-2.4708	-2.8208	195.105	336.984	374.693	440.507	439.728	493.015	438.448	428.534	455.628	266.341	461.240	457.537	455.892	498.245	224.180	216.246	0.00027764	0.00045457	0.00012607	1287.2	1.6264e-06	1.8684e-06	1338	253.77	3.1947e-06	3.4067e-06	316.7	88.087	69.212	19.931	3.2404e-06	28.026	0.00061227	0.00077434	0.00021352	1273.1	8.3574e-06	8.4858e-06	1320.1	253.09	8.204e-06	8.357e-06	315.78	88.958	69.644	20.337	8.1852e-06	28.793	234.755	236.874	267.136	164.788	233.953	299.850	164.702	171.947	267.276	350.010	171.641	178.307	178.873	185.617	297.444	185.318	-8191	255	
25879.627	1	1	0	0	0.27578	0.074593	0.13625	0.17878	0.067798	0.21096	0.48469	0.15123	0.23285	0.093997	0.088517	0.12467	0.21464	0.045099	0.043072	0.20465	-2.2396	-2.3625	-2.6083	-2.5458	-2.6375	-2.8396	-2.7458	-2.6667	-2.7292	-2.3708	-2.8229	-2.8021	-2.5333	-2.7833	-2.5625	-2.6437	337.229	252.714	438.899	223.918	374.988	201.969	416.087	402.701	473.817	335.111	415.754	506.125	512.282	251.588	216.753	160.620	0.00028698	0.00051191	3.6543e-05	1280	1.6591e-06	4.5956e-06	1336.6	255.37	4.6646e-06	4.021e-06	315.14	88.455	69.313	19.825	3.8533e-06	28.308	0.0006497	0.00076384	0.00021526	1270.9	8.4403e-06	8.6318e-06	1320.2	253.37	8.2372e-06	8.4109e-06	316.31	89.029	69.834	20.297	8.2105e-06	28.907	241.332	293.799	386.104	164.863	327.260	279.877	165.026	172.018	295.802	309.595	171.835	178.196	178.914	185.609	323.834	185.472	-8191	255	
25879.723	1	1	0	0	0.13693	0.10566	0.15601	0.14344	0.24952	0.097296	0.32774	0.2932	0.14056	0.1846	0.26282	0.43804	0.21069	0.16697	0.24937	0.154	-2.3104	-2.4646	-2.5896	-2.6063	-2.6604	-2.8604	-2.6833	-2.5542	-2.8042	-2.4813	-2.8063	-2.7062	-2.5042	-2.8042	-2.5104	-2.6813	279.562	216.653	475.038	405.874	393.400	169.207	446.618	317.029	330.343	253.405	213.767	426.350	392.006	185.117	215.797	164.699	0.00027722	0.00066256	0.00013741	1291.5	1.643e-06	3.0034e-06	1336.2	253.8	3.0163e-06	4.7113e-06	316.94	88.18	69.224	19.859	5.1798e-07	28.114	0.00062928	0.00079369	0.00021964	1275.2	8.6288e-06	8.6387e-06	1322.8	253.34	8.2452e-06	8.7412e-06	316.65	89.117	69.823	20.303	8.3013e-06	28.919	240.627	223.340	237.820	164.843	283.056	286.855	164.864	172.116	298.035	292.798	171.962	178.150	178.361	185.498	309.716	184.783	-8191	255	
25879.818	1	1	0	0	0.20647	0.088417	0.030209	0.17581	0.20328	0.14956	0.38743	0.29473	0.28421	0.17878	0.052321	0.037486	0.18825	0.091207	0.22147	0.16674	-2.4938	-2.4854	-2.7917	-2.7208	-2.5479	-2.8167	-2.7021	-2.6896	-2.8875	-2.4688	-2.6688	-2.8229	-2.5938	-2.9167	-2.6792	-2.6917	254.746	405.471	485.995	496.324	347.744	248.998	440.882	174.582	469.513	211.757	180.235	373.351	203.406	485.139	414.143	314.493	0.00026175	0.00019629	8.6889e-05	1281.6	2.669e-06	3.7953e-06	1337.6	255.55	4.8697e-06	3.317e-06	315.82	88.333	69.495	20.109	4.1296e-06	28.376	0.00064119	0.00077517	0.00021861	1275.8	8.5272e-06	8.8174e-06	1325.6	253.88	8.1689e-06	8.6202e-06	316.55	89.195	70.071	20.438	8.4031e-06	28.941	231.849	273.885	226.031	164.789	286.930	340.411	165.043	171.987	307.831	282.951	171.812	178.032	178.574	185.599	294.582	184.797	-8191	255	
25879.939	1	1	0	0	0.34054	0.095911	0.02956	0.16259	0.25204	0.20617	0.15306	0.11512	0.1788	0.22649	0.22953	0.18608	0.088234	0.22989	0.0496	0.091874	-2.4437	-2.4979	-2.6979	-2.7313	-2.5729	-2.8354	-2.8458	-2.5625	-2.8438	-2.65	-2.7354	-2.7333	-2.3792	-2.6813	-2.6208	-2.5208	511.360	166.365	221.111	481.633	405.263	432.253	464.571	481.610	180.475	178.877	459.476	238.788	173.099	486.733	420.410	160.484	0.0002609	0.00021407	7.8802e-05	1292.2	3.1797e-06	3.5002e-06	1343.3	255.19	4.2576e-06	4.4397e-06	317.57	87.799	69.061	20.078	3.311e-06	28.152	0.00063299	0.0007909	0.00021865	1280.6	8.3311e-06	8.5352e-06	1325.7	254.04	8.3894e-06	8.6118e-06	317.02	89.125	69.905	20.437	8.5353e-06	28.955	238.353	236.028	271.723	164.423	300.873	376.350	164.978	171.953	336.122	280.503	171.494	178.094	178.493	185.522	307.357	185.325	-8191	255	
25880.035	1	1	0	0	0.20054	0.13949	0.20679	0.18011	0.37107	0.071106	0.39477	0.14464	0.059897	0.15278	0.17536	0.1754	0.20057	0.11165	0.25033	0.14944	-2.4104	-2.4	-2.5208	-2.8375	-2.3792	-2.8187	-2.7542	-2.8208	-2.7583	-2.6562	-2.7646	-3.0271	-2.5208	-2.9271	-2.6208	-2.5417	400.935	484.899	448.855	242.329	502.633	330.965	460.535	504.739	189.258	155.403	173.926	357.724	449.355	168.188	377.877	156.519	0.0002732	0.0002227	1.9153e-05	1295.8	3.2342e-06	3.1315e-06	1342.6	257.27	4.4345e-06	2.3872e-06	317.24	88.198	69.479	20.015	3.8354e-06	28.455	0.00063257	0.00078596	0.00021921	1281.6	8.4928e-06	8.9318e-06	1328.5	254.67	8.4622e-06	8.5853e-06	317.92	89.418	70.15	20.399	8.4746e-06	29.029	236.466	239.284	208.688	164.971	307.738	321.301	164.943	172.108	329.402	312.594	171.692	178.322	178.494	185.823	313.187	184.880	-8191	255	
25880.131	1	1	0	0	0.24177	0.15902	0.12443	0.28418	0.34183	0.13955	0.34915	0.092222	0.22343	0.09987	0.16353	0.1218	0.11	0.28078	0.12474	0.15949	-2.3542	-2.5708	-2.4833	-2.7792	-2.4771	-2.6625	-3.0125	-2.5875	-2.8937	-2.5458	-2.7521	-2.8187	-2.5521	-2.7146	-2.8146	-2.4333	402.916	249.670	279.120	476.526	236.966	194.841	465.377	177.927	454.474	474.179	193.308	350.376	333.976	486.529	261.100	163.607	0.00027206	7.6389e-05	0.00012613	1289	4.8109e-06	3.6982e-06	1345.7	254.38	1.5921e-06	4.2557e-06	317.18	88.289	69.561	20.065	2.8566e-06	28.344	0.00064553	0.00079402	0.00022222	1280.9	8.6022e-06	8.8239e-06	1331.8	254.04	8.4113e-06	8.7049e-06	318.26	89.582	70.148	20.402	8.4362e-06	29.043	243.518	272.516	224.398	164.668	375.716	320.859	164.864	171.715	309.688	344.188	171.703	178.006	178.499	185.871	326.214	184.782	-8191	255	
25880.227	1	1	0	0	0.25735	0.10903	0.11093	0.15841	0.08544	0.22823	0.33648	0.19598	0.0166	0.14517	0.11441	0.079834	0.18078	0.02681	0.047187	0.064194	-2.3396	-2.3771	-2.4562	-2.8896	-2.3625	-2.6562	-3.0479	-2.5146	-2.9542	-2.675	-2.7167	-2.9896	-2.4188	-2.8083	-2.8958	-2.5125	272.579	421.232	450.162	379.698	434.611	214.931	446.990	503.261	234.342	462.559	508.724	154.483	192.542	272.008	198.389	280.800	0.00030149	0.00044749	0.00010866	1295.8	3.4505e-06	5.8582e-07	1346	254.9	2.1984e-06	2.4567e-06	317.57	88.533	69.277	19.989	6.4615e-06	28.159	0.00064779	0.00079529	0.00021572	1286.5	8.6538e-06	9.0132e-06	1333.7	254.74	8.5371e-06	8.6744e-06	318.23	89.752	70.216	20.482	8.7094e-06	28.968	238.670	254.500	234.034	164.967	313.675	295.955	164.968	171.903	293.833	316.944	171.828	178.054	178.795	185.605	296.548	185.322	-8191	255	
25880.322	1	1	0	0	0.19306	0.22304	0.057298	0.076348	0.24811	0.11052	0.28586	0.13437	0.1658	0.030159	0.13003	0.11499	0.15294	0.35189	0.22395	0.017663	-2.1312	-2.5542	-2.5375	-2.9167	-2.4583	-2.5938	-3.0438	-2.5687	-2.7896	-2.7146	-2.6521	-2.7062	-2.6167	-2.5333	-2.9125	-2.5625	508.751	441.449	401.343	354.534	250.924	385.457	465.360	425.987	217.513	299.890	441.706	171.596	217.590	464.648	476.269	213.670	0.00029359	0.00046089	8.6131e-05	1295.2	2.4324e-06	5.1593e-06	1344	255.89	2.968e-06	4.3664e-06	317.68	89.26	69.404	20.106	4.6044e-06	28.41	0.00066037	0.00080281	0.00022477	1286.8	8.7346e-06	8.9803e-06	1332.8	255.09	8.705e-06	8.9761e-06	318.95	89.978	70.189	20.523	8.5908e-06	29.05	236.404	281.965	258.907	165.117	325.003	356.646	165.027	172.153	295.665	306.840	171.688	178.273	178.774	185.608	298.312	185.257	-8191	255	
25880.420	1	1	0	0	0.15025	0.18395	0.20731	0.21653	0.26827	0.17033	0.12974	0.29327	0.12025	0.097381	0.091112	0.093884	0.24868	0.13383	0.18935	0.10122	-2.2542	-2.675	-2.3333	-2.9	-2.5292	-2.5062	-3.1479	-2.5792	-2.6646	-2.7333	-2.725	-2.8812	-2.5938	-2.4146	-2.8021	-2.4271	239.801	265.901	199.432	476.629	324.109	210.470	399.272	506.723	359.254	243.721	452.206	386.435	503.289	469.323	395.754	392.636	0.00025527	0.00069473	7.8965e-05	1308.3	3.2062e-06	2.913e-06	1351.6	255.01	2.4507e-06	1.3412e-06	319.24	88.993	69.499	19.973	3.0327e-06	28.612	0.0006434	0.00079427	0.00021874	1293.7	8.772e-06	8.9984e-06	1336.7	255.35	8.4531e-06	8.7114e-06	319.16	89.9	70.316	20.479	8.6605e-06	29.217	242.399	217.741	228.203	164.648	304.550	313.432	164.959	172.002	294.459	318.171	171.574	178.515	178.413	185.586	294.613	185.044	-8191	255	
25880.514	1	1	0	0	0.20136	0.11137	0.13239	0.12165	0.10876	0.18417	0.10278	0.14741	0.088402	0.29287	0.33485	0.16376	0.07221	0.16862	0.22105	0.23825	-2.2	-2.9542	-2.5521	-2.7771	-2.6854	-2.4729	-3.1958	-2.9208	-2.6729	-2.9604	-2.5208	-2.7542	-2.6125	-2.5292	-2.9792	-2.5208	356.447	197.677	171.062	456.157	184.314	306.239	285.736	190.943	315.418	326.689	154.260	488.366	237.448	436.186	283.706	352.787	0.00028145	0.00013512	0.00012087	1298.8	3.2961e-06	5.9126e-06	1346.7	256.75	4.731e-06	1.8911e-06	318.03	89.073	69.497	20.064	5.9775e-06	28.55	0.00064478	0.00081456	0.00021828	1290.8	8.7128e-06	8.7165e-06	1336	255.46	8.7007e-06	8.8606e-06	319.48	90.063	70.389	20.55	8.6521e-06	29.146	240.943	306.774	257.091	165.261	299.961	268.084	165.086	171.868	350.727	253.817	171.927	178.369	178.812	185.199	326.633	185.038	-8191	255	
25880.611	1	1	0	0	0.12785	0.08558	0.1663	0.094339	0.12225	0.2914	0.22095	0.15898	0.091796	0.27687	0.10702	0.21552	0.17711	0.22739	0.14753	0.24098	-2.175	-2.7729	-2.4583	-2.5979	-2.7	-2.4896	-3.0792	-2.7812	-2.5187	-2.8896	-2.55	-2.8979	-2.6833	-2.6292	-2.8042	-2.7167	398.129	232.797	328.279	407.223	202.705	488.554	472.777	446.404	362.519	476.121	469.422	455.427	339.915	460.939	362.678	222.546	0.00025449	0.00025171	9.3993e-05	1300	8.8847e-07	4.516e-06	1353	256.5	3.4964e-06	4.1262e-06	318.95	89.163	69.543	20.015	1.8405e-06	28.499	0.00064459	0.00081131	0.00021899	1290.2	8.6283e-06	8.9752e-06	1338.6	256.07	8.4808e-06	8.5192e-06	319.1	89.966	70.328	20.463	8.3178e-06	29.124	243.670	169.490	211.298	164.759	201.777	316.225	164.983	171.869	258.842	317.666	171.716	178.137	178.312	185.524	301.419	184.695	-8191	255	
25880.730	1	1	0	0	0.1235	0.089815	0.096174	0.17283	0.16199	0.10466	0.32531	0.29905	0.16683	0.043311	0.13467	0.010591	0.015741	0.071885	0.12701	0.19502	-2.1021	-2.6417	-2.4813	-2.8146	-2.8042	-2.6896	-2.9667	-2.9021	-2.5083	-2.9833	-2.6229	-2.7708	-2.8896	-2.7208	-2.7958	-2.7646	461.149	203.497	195.386	208.748	227.335	413.809	428.324	158.789	239.860	454.606	200.216	187.536	325.115	349.938	180.174	483.303	0.000303	0.00025409	0.00019845	1306.9	3.2071e-06	4.6557e-06	1351.4	255.79	4.0721e-06	3.9308e-06	319.63	88.824	69.324	20.053	2.8412e-06	28.616	0.00064111	0.00078613	0.00022047	1290.6	8.3937e-06	8.6979e-06	1336.4	255.26	8.4401e-06	8.6811e-06	318.84	89.89	70.156	20.456	8.5328e-06	29.117	242.390	240.594	246.478	164.732	340.015	296.228	164.867	171.564	314.974	355.588	171.876	177.973	178.496	185.379	334.995	185.185	-8191	255	
25880.826	1	1	0	0	0.11539	0.4568	0.14648	0.19235	0.17773	0.14895	0.5718	0.023408	0.14089	0.30522	0.095539	0.30852	0.11579	0.066301	0.067136	0.27176	-2.2062	-2.8167	-2.7146	-2.7167	-2.8542	-2.5729	-2.9458	-2.8063	-2.5687	-2.8854	-2.8104	-2.6146	-2.8542	-2.3854	-2.8063	-2.8708	388.724	290.097	366.691	451.704	413.131	177.001	468.752	446.669	185.913	422.917	406.691	192.191	378.957	413.762	396.597	223.829	0.00029174	0.00058168	0.00011154	1297.1	4.0986e-06	4.9429e-06	1350	256.01	4.4112e-06	9.3278e-07	319.88	88.492	69.757	20.099	3.7779e-06	28.445	0.00064722	0.00078517	0.00022266	1289.6	8.6959e-06	8.8947e-06	1337.8	255.67	8.4895e-06	8.737e-06	319.1	89.985	70.432	20.499	8.4855e-06	29.138	235.218	203.453	219.683	164.607	289.528	304.356	165.021	171.919	280.553	484.736	171.691	178.167	178.562	185.787	311.691	184.705	-8191	255	
25880.924	1	1	0	0	0.085895	0.14552	0.15412	0.11731	0.093104	0.14467	0.029673	0.27371	0.33108	0.068562	0.088476	0.19102	0.052987	0.064177	0.10638	0.08639	-2.1396	-2.9	-2.6188	-2.6188	-2.7771	-2.5708	-2.7812	-2.7708	-2.4229	-2.6688	-2.7229	-2.6792	-2.8479	-2.6125	-2.8125	-2.95	495.192	417.467	186.843	438.933	287.537	387.472	386.342	484.968	299.168	355.496	196.221	163.124	424.408	511.705	463.008	511.416	0.00028441	0.00052824	6.0089e-05	1304.6	2.898e-06	6.2322e-06	1354.1	255.53	2.9853e-06	4.2829e-06	318.48	88.902	69.27	20.311	1.9776e-06	28.287	0.00065371	0.00079231	0.00023012	1291.8	8.6011e-06	8.7483e-06	1341.2	255.89	8.663e-06	8.8426e-06	319.37	90.166	70.332	20.607	8.5601e-06	29.035	244.013	278.159	252.899	164.635	238.701	333.066	164.916	172.082	256.406	325.785	171.490	178.151	178.306	185.500	404.994	184.495	-8191	255	
25881.020	1	1	0	0	0.070232	0.26584	0.12475	0.068099	0.30677	0.085336	0.16072	0.24678	0.016856	0.1949	0.053317	0.23098	0.38972	0.094475	0.21422	0.087466	-2.2167	-2.5646	-2.5792	-2.6667	-2.875	-2.575	-2.8333	-2.8917	-2.6833	-2.7583	-2.8667	-2.6354	-2.7396	-2.5125	-2.5042	-2.6458	171.658	391.611	377.871	476.374	433.219	399.076	419.093	383.603	508.550	511.144	435.826	425.473	487.612	305.831	455.613	172.613	0.00027918	0.00040597	0.00021372	1311	2.7292e-06	2.4212e-06	1347	256.43	3.6634e-06	4.0831e-06	317.81	89.166	69.483	20.084	2.9176e-06	28.364	0.00065251	0.00081402	0.00022525	1294.2	8.8071e-06	8.8812e-06	1338.9	255.58	8.6548e-06	9.0096e-06	319.71	90.101	70.552	20.514	8.4835e-06	29.076	237.177	229.816	200.084	165.055	274.325	283.886	164.834	171.806	248.647	309.222	171.475	178.592	178.615	185.098	339.827	185.337	-8191	255	
25881.115	1	1	0	0	0.4434	0.061438	0.18396	0.12585	0.25646	0.36401	0.1471	0.1742	0.22363	0.098283	0.19177	0.31393	0.2622	0.21248	0.19942	0.18228	-1.9021	-2.7396	-2.6042	-2.4458	-2.8854	-2.5292	-3.0083	-2.9708	-2.4167	-2.8292	-2.7042	-2.5125	-2.8292	-2.8042	-2.5417	-3.0354	158.217	427.169	490.495	470.218	276.817	197.836	312.254	423.767	510.430	478.325	509.507	394.519	432.328	466.357	159.432	316.840	0.00026131	0.00037221	4.0712e-05	1304.5	1.9523e-06	2.521e-06	1353.8	256.66	5.6875e-06	4.2004e-06	319.34	88.585	69.829	20.154	2.9494e-06	28.452	0.00064063	0.00080867	0.0002263	1293.8	8.7693e-06	9.0555e-06	1339.8	256.37	8.6253e-06	8.8643e-06	320.01	89.88	70.533	20.558	8.6323e-06	29.142	241.733	208.523	352.450	164.889	262.054	306.498	164.872	171.694	294.380	324.700	171.545	178.255	178.513	185.431	293.916	185.082	-8191	255	
25881.211	1	1	0	0	0.13747	0.19696	0.10088	0.13895	0.1611	0.088298	0.18883	0.11504	0.1909	0.11891	0.052877	0.18605	0.078539	0.20699	0.0954	0.19744	-2.1146	-2.8458	-2.7333	-2.5229	-2.7833	-2.6625	-2.8458	-3.0229	-2.4625	-2.6896	-2.8625	-2.5833	-3.0062	-2.6958	-2.4917	-2.8146	457.206	291.286	276.377	372.603	419.495	450.683	454.672	473.642	387.808	198.248	198.083	164.999	213.640	396.122	222.796	237.949	0.00028787	0.0003634	6.1693e-05	1304	3.8639e-06	2.2484e-06	1353	256.83	2.8548e-06	1.7729e-06	320.16	89.055	69.718	20.045	3.9284e-06	28.396	0.00064151	0.00082773	0.00022408	1293.4	8.9307e-06	9.0538e-06	1339	256.02	8.4436e-06	8.7955e-06	320.16	89.826	70.451	20.511	8.529e-06	29.033	243.927	283.469	223.290	164.808	300.552	355.584	164.941	172.013	308.930	287.956	171.521	178.332	178.323	185.492	312.689	185.457	-8191	255	
25881.332	1	1	0	0	0.31557	0.10331	0.33482	0.38562	0.19226	0.13305	0.34084	0.24829	0.15329	0.15104	0.059184	0.097088	0.30259	0.37965	0.12691	0.25543	-2.1	-2.7417	-2.6042	-2.4229	-2.8542	-2.7062	-2.7125	-3.1312	-2.7604	-2.5292	-2.9188	-2.6021	-3.0229	-2.7104	-2.5417	-2.8021	499.707	476.026	462.361	429.213	331.405	186.828	444.755	470.087	462.780	316.808	373.047	196.832	494.792	512.117	379.806	451.091	0.00029213	0.00056343	0.00011004	1305.5	5.429e-06	1.638e-06	1353	256.2	3.8142e-06	1.1385e-06	319.22	88.593	69.953	20.148	4.4149e-06	28.539	0.00064154	0.00079827	0.00022051	1293.7	8.8321e-06	8.7798e-06	1339.6	256.23	8.5948e-06	9.0041e-06	320.23	89.815	70.549	20.512	8.7072e-06	29.156	241.622	257.814	507.408	164.883	355.142	352.319	165.029	172.074	340.091	343.928	171.922	178.161	178.662	185.352	336.607	185.189	-8191	255	
25881.426	1	1	0	0	0.032229	0.1056	0.19973	0.29244	0.17788	0.17363	0.37692	0.19432	0.10638	0.19591	0.18278	0.30908	0.21719	0.29647	0.21507	0.088349	-2.3667	-2.6125	-2.8063	-2.4375	-2.7833	-2.8292	-2.575	-3.0312	-2.5604	-2.5104	-2.9104	-2.4792	-2.8083	-2.8896	-2.5687	-2.8438	481.749	220.965	310.524	434.588	219.130	340.198	474.164	454.796	394.724	451.411	207.566	491.412	473.536	165.671	224.712	442.302	0.00032067	0.00026557	5.7233e-05	1306.7	1.9168e-06	2.8054e-06	1358.4	257.2	3.054e-06	4.0971e-06	319.23	88.575	69.67	20.156	1.5214e-06	28.708	0.00064563	0.00080379	0.00022038	1294	8.9967e-06	8.9951e-06	1342.4	256.49	8.5055e-06	8.7255e-06	319.59	90.001	70.512	20.547	8.4442e-06	29.193	243.520	236.131	263.695	164.800	322.062	366.245	164.963	171.761	298.982	313.689	171.734	177.936	178.312	185.516	340.432	184.984	-8191	255	
25881.500	1	1	0	0	0.076357	0.20135	0.2263	0.24102	0.06137	0.18696	0.32153	0.056989	0.39331	0.1175	0.38693	0.23607	0.3182	0.34515	0.28489	0.078	-2.2167	-2.5208	-2.9354	-2.5729	-2.6729	-3.0438	-2.6604	-2.7729	-2.7479	-2.5833	-3.0104	-2.6542	-2.7062	-2.7021	-2.4125	-2.9375	337.998	456.036	301.150	460.032	393.937	178.630	412.742	257.745	363.333	159.400	475.044	425.251	256.938	163.972	212.532	489.857	0.00028796	0.00038606	0.00015932	1303.1	2.0467e-06	5.9308e-06	1356.5	256.14	1.933e-06	5.3053e-06	317.62	89.489	70.037	20.172	1.593e-06	28.363	0.00065524	0.00081327	0.00022775	1293.3	9.0264e-06	8.8258e-06	1341.7	255.86	8.6582e-06	9.0769e-06	319.97	90.117	70.7	20.597	8.5703e-06	29.078	240.445	178.365	289.833	164.993	318.826	291.409	164.883	172.215	287.765	326.685	171.675	178.174	178.723	185.176	408.192	184.703	-8191	255	
25881.619	1	1	0	0	0.20369	0.082527	0.074499	0.23781	0.12278	0.1474	0.13448	0.33549	0.076182	0.19699	0.12293	0.13176	0.079716	0.057712	0.12948	0.25843	-2.1729	-2.5125	-2.7833	-2.6417	-2.7292	-2.6437	-2.8375	-2.8125	-2.6458	-2.4833	-2.8708	-2.6188	-2.7146	-2.7875	-2.5187	-2.6688	311.888	393.525	406.810	490.043	390.460	321.755	449.914	475.343	408.475	466.310	182.234	390.481	232.221	487.714	283.835	194.250	0.00027094	6.5807e-05	6.2462e-05	1307.9	3.8693e-06	1.6889e-06	1356.8	257.53	5.243e-06	3.7936e-06	317.26	88.792	69.509	20.18	4.6397e-06	28.346	0.00065507	0.000794	0.00022364	1295.4	8.8058e-06	8.7427e-06	1340.9	256.54	8.7141e-06	8.7394e-06	319.52	90.056	70.465	20.56	8.7316e-06	29.109	244.681	329.233	238.793	164.658	326.379	239.604	164.998	171.994	317.035	358.911	171.922	178.069	178.632	185.655	331.733	185.110	-8191	255	
25881.715	1	1	0	0	0.10524	0.12049	0.1535	0.23079	0.19788	0.10433	0.0806	0.3924	0.19178	0.24446	0.1602	0.22582	0.1297	0.12436	0.24741	0.086973	-2.2875	-2.5833	-2.8729	-2.6396	-2.5375	-2.7771	-2.7396	-2.8312	-2.65	-2.5187	-2.8229	-2.7021	-2.4729	-2.7896	-2.3646	-2.7458	438.515	396.488	155.647	442.444	365.565	295.600	217.214	430.031	504.197	263.518	185.000	473.120	163.804	453.845	237.215	163.699	0.00028104	5.5283e-05	1.8669e-05	1305.3	4.0336e-06	4.5592e-06	1357.2	256.05	3.522e-06	9.2981e-07	320.29	88.688	69.595	20.099	3.9502e-06	28.574	0.00065773	0.00081098	0.00022417	1294	8.7004e-06	9.003e-06	1341.5	255.99	8.7994e-06	8.9526e-06	320.25	89.908	70.448	20.6	8.6117e-06	29.211	239.511	238.406	300.754	164.867	350.989	343.894	165.185	171.837	309.316	320.830	171.452	178.374	178.545	185.537	319.546	184.897	-8191	255	
#DATA ENDS
