BOXY.EXE: ISS Imagent and Oximeter Data Acquisition Program Version 0.80
Ascii Record File

#ACQ INFORMATION
2  Detector Channels 
16  External MUX Channels 
1  Auxiliary Channels 
5000  Waveform (CCF) Frequency (Hz)
1  Waveforms Skipped 
30  Waveforms Averaged 
1  Cycles Averaged 
16  Acquisitions per Waveform 
10.0806  Updata Rate (Hz) 

#FILE INFORMATION
TRUE -- External MUX Channel results are PARSED.
FALSE -- AC DC and Phase are NOT grouped.
TRUE -- Companion Program Settings File CREATED.
FALSE -- AC data not excluded
FALSE -- DC data not excluded
FALSE -- Phase data not excluded
FALSE -- Auxillary Chn. data not excluded
Tab delimiters

#CALIBRATION STATE
TRUE -- Waveform Calibration Values APPLIED.


#AUX CALIBRATION VALUES
Val Type	aux-1	

Term	1.0000e+00	
Factor	0.0000e+00	


#WF CALIBRATION VALUES
A = Detector Channel
Val Type	A-AC1	A-AC2	A-AC3	A-AC4	A-AC5	A-AC6	A-AC7	A-AC8	A-AC9	A-AC10	A-AC11	A-AC12	A-AC13	A-AC14	A-AC15	A-AC16	A-DC1	A-DC2	A-DC3	A-DC4	A-DC5	A-DC6	A-DC7	A-DC8	A-DC9	A-DC10	A-DC11	A-DC12	A-DC13	A-DC14	A-DC15	A-DC16	A-Ph1	A-Ph2	A-Ph3	A-Ph4	A-Ph5	A-Ph6	A-Ph7	A-Ph8	A-Ph9	A-Ph10	A-Ph11	A-Ph12	A-Ph13	A-Ph14	A-Ph15	A-Ph16	

Term	0.00000e+00	0.00000e+00	0.00000e+00	0.00000e+00	0.00000e+00	0.00000e+00	0.00000e+00	0.00000e+00	0.00000e+00	0.00000e+00	0.00000e+00	0.00000e+00	0.00000e+00	0.00000e+00	0.00000e+00	0.00000e+00	0.00000e+00	0.00000e+00	0.00000e+00	0.00000e+00	0.00000e+00	0.00000e+00	0.00000e+00	0.00000e+00	0.00000e+00	0.00000e+00	0.00000e+00	0.00000e+00	0.00000e+00	0.00000e+00	0.00000e+00	0.00000e+00	0.00000e+00	0.00000e+00	0.00000e+00	0.00000e+00	0.00000e+00	0.00000e+00	0.00000e+00	0.00000e+00	0.00000e+00	0.00000e+00	0.00000e+00	0.00000e+00	0.00000e+00	0.00000e+00	0.00000e+00	0.00000e+00	
Factor	1.00000e+00	1.00000e+00	1.00000e+00	1.00000e+00	1.00000e+00	1.00000e+00	1.00000e+00	1.00000e+00	1.00000e+00	1.00000e+00	1.00000e+00	1.00000e+00	1.00000e+00	1.00000e+00	1.00000e+00	1.00000e+00	1.00000e+00	1.00000e+00	1.00000e+00	1.00000e+00	1.00000e+00	1.00000e+00	1.00000e+00	1.00000e+00	1.00000e+00	1.00000e+00	1.00000e+00	1.00000e+00	1.00000e+00	1.00000e+00	1.00000e+00	1.00000e+00	X	X	X	X	X	X	X	X	X	X	X	X	X	X	X	X	

B = Detector Channel
Val Type	B-AC1	B-AC2	B-AC3	B-AC4	B-AC5	B-AC6	B-AC7	B-AC8	B-AC9	B-AC10	B-AC11	B-AC12	B-AC13	B-AC14	B-AC15	B-AC16	B-DC1	B-DC2	B-DC3	B-DC4	B-DC5	B-DC6	B-DC7	B-DC8	B-DC9	B-DC10	B-DC11	B-DC12	B-DC13	B-DC14	B-DC15	B-DC16	B-Ph1	B-Ph2	B-Ph3	B-Ph4	B-Ph5	B-Ph6	B-Ph7	B-Ph8	B-Ph9	B-Ph10	B-Ph11	B-Ph12	B-Ph13	B-Ph14	B-Ph15	B-Ph16	

Term	0.00000e+00	0.00000e+00	0.00000e+00	0.00000e+00	0.00000e+00	0.00000e+00	0.00000e+00	0.00000e+00	0.00000e+00	0.00000e+00	0.00000e+00	0.00000e+00	0.00000e+00	0.00000e+00	0.00000e+00	0.00000e+00	0.00000e+00	0.00000e+00	0.00000e+00	0.00000e+00	0.00000e+00	0.00000e+00	0.00000e+00	0.00000e+00	0.00000e+00	0.00000e+00	0.00000e+00	0.00000e+00	0.00000e+00	0.00000e+00	0.00000e+00	0.00000e+00	-1.89518e+02	-1.23593e+02	-1.25496e+02	-1.81679e+02	-7.61103e+01	-6.24902e+01	-1.55738e+02	-1.62015e+02	-8.38926e+01	-6.66045e+01	-1.71022e+02	-1.71488e+02	-1.82271e+02	-1.77129e+02	-7.76859e+01	-1.50166e+02	
Factor	3.40093e-05	1.64242e-04	4.24187e-05	4.50345e-01	1.35262e-06	1.43726e-06	1.64758e-01	5.55694e-02	1.59219e-06	1.39930e-06	8.73404e-02	2.91543e-02	2.39755e-02	8.51859e-03	1.51915e-06	1.23768e-02	5.84871e-06	6.87391e-06	1.90808e-06	2.31325e-01	7.49402e-08	7.54082e-08	8.06156e-02	2.88414e-02	7.34411e-08	7.61242e-08	4.39244e-02	1.47014e-02	1.25749e-02	4.46564e-03	7.38727e-08	6.28510e-03	X	X	X	X	X	X	X	X	X	X	X	X	X	X	X	X	



#DISTANCE SETTINGS
A = Detector Channel
A-1	A-2	A-3	A-4	A-5	A-6	A-7	A-8	A-9	A-10	A-11	A-12	A-13	A-14	A-15	A-16	

2.5000e+00	3.0000e+00	2.5000e+00	3.0000e+00	2.0000e+00	3.0000e+00	1.5000e+00	3.0000e+00	3.0000e+00	3.0000e+00	3.0000e+00	3.0000e+00	3.0000e+00	3.0000e+00	1.5000e+00	3.0000e+00	

B = Detector Channel
B-1	B-2	B-3	B-4	B-5	B-6	B-7	B-8	B-9	B-10	B-11	B-12	B-13	B-14	B-15	B-16	

1.0000e+01	1.0000e+01	1.0000e+01	1.4400e+00	1.0000e+01	1.0000e+01	1.5100e+00	1.9400e+00	1.0000e+01	1.0000e+01	1.9900e+00	2.4900e+00	2.4100e+00	2.9000e+00	1.0000e+01	2.9800e+00	




#DATA BEGINS
time	group	step	mark	flag	A-AC1	A-AC2	A-AC3	A-AC4	A-AC5	A-AC6	A-AC7	A-AC8	A-AC9	A-AC10	A-AC11	A-AC12	A-AC13	A-AC14	A-AC15	A-AC16	A-DC1	A-DC2	A-DC3	A-DC4	A-DC5	A-DC6	A-DC7	A-DC8	A-DC9	A-DC10	A-DC11	A-DC12	A-DC13	A-DC14	A-DC15	A-DC16	A-Ph1	A-Ph2	A-Ph3	A-Ph4	A-Ph5	A-Ph6	A-Ph7	A-Ph8	A-Ph9	A-Ph10	A-Ph11	A-Ph12	A-Ph13	A-Ph14	A-Ph15	A-Ph16	B-AC1	B-AC2	B-AC3	B-AC4	B-AC5	B-AC6	B-AC7	B-AC8	B-AC9	B-AC10	B-AC11	B-AC12	B-AC13	B-AC14	B-AC15	B-AC16	B-DC1	B-DC2	B-DC3	B-DC4	B-DC5	B-DC6	B-DC7	B-DC8	B-DC9	B-DC10	B-DC11	B-DC12	B-DC13	B-DC14	B-DC15	B-DC16	B-Ph1	B-Ph2	B-Ph3	B-Ph4	B-Ph5	B-Ph6	B-Ph7	B-Ph8	B-Ph9	B-Ph10	B-Ph11	B-Ph12	B-Ph13	B-Ph14	B-Ph15	B-Ph16	aux-1	digaux	

33812.723	1	1	0	256	0.3157	0.11122	0.12902	0.21958	0.33216	0.15462	0.24369	0.10941	0.26196	0.12584	0.12238	0.25312	0.25858	0.10383	0.071643	0.21824	-2.2208	-2.9875	-2.9021	-2.8229	-3.0021	-2.8604	-2.9521	-3.0979	-2.8229	-3.0542	-3.1354	-2.5958	-3.0125	-2.9208	-2.7229	-3.0625	51.618	154.376	170.847	209.855	112.679	-1.979	242.750	217.632	7.451	151.340	209.240	105.147	-35.964	240.032	27.541	216.575	8.4471e-05	0.00017236	0.00019836	708.55	4.3119e-05	7.4746e-06	772.95	147.03	3.302e-06	2.1642e-05	181.1	41.791	29.42	5.6598	1.289e-05	10.564	0.002638	0.0032531	0.00089204	787.48	6.2215e-05	3.4777e-05	794.4	156.89	3.3744e-05	5.1859e-05	198.62	47.958	34.812	7.5544	4.6395e-05	14.63	38.533	218.619	87.148	-48.093	-20.150	-24.062	-47.402	-43.484	61.223	110.711	-43.195	-37.741	-38.843	-32.557	-5.787	-30.078	-8191	255	
33812.797	1	1	0	0	0.071111	0.18	0.15081	0.049383	0.011054	0.083978	0.15552	0.090791	0.1005	0.11025	0.28739	0.14763	0.085949	0.19493	0.065013	0.23996	-2.6167	-2.9938	-2.8667	-2.7167	-2.9313	-2.7979	-2.9146	-3.2125	-2.8	-3.0396	-3.0708	-2.8146	-3.0104	-2.8021	-2.6542	-3.1188	75.611	81.774	-33.867	-9.658	99.723	166.628	225.206	55.548	95.602	278.553	74.300	53.762	280.187	240.214	1.799	-28.123	5.7294e-05	0.00048133	0.00012764	715.64	1.6992e-05	6.3876e-06	777.22	147.86	6.0623e-06	4.8368e-05	185.36	42.508	30.071	5.8	5.4624e-06	11.353	0.0026713	0.0032646	0.00088152	793.59	5.1313e-05	3.4811e-05	798.07	158.09	3.3585e-05	6.2842e-05	201.86	48.63	35.519	7.71	3.2857e-05	15.646	-60.426	62.831	170.194	-47.800	9.632	196.518	-47.238	-43.325	9.983	123.803	-42.515	-38.068	-39.616	-31.494	246.167	-29.486	-8191	255	
33812.914	1	1	0	0	0.25634	0.10257	0.012908	0.017852	0.14423	0.26722	0.30781	0.46846	0.024815	0.070101	0.14269	0.16231	0.22128	0.13771	0.15545	0.22135	-2.2313	-2.9208	-2.7917	-2.8792	-2.7521	-2.9042	-2.7021	-3.0312	-2.7896	-2.925	-3.0458	-2.5896	-2.9146	-2.7604	-2.8479	-2.9437	255.949	-14.660	179.887	188.016	-55.588	172.200	215.592	179.586	129.877	157.800	30.070	243.384	259.412	89.695	142.783	62.159	5.0836e-05	0.00075201	0.00010556	730.16	3.1223e-05	8.8613e-06	812.15	160.13	8.2007e-06	3.3626e-05	201.03	47.388	33.65	6.163	7.1226e-06	11.812	0.0026535	0.003211	0.00087066	807.42	6.4027e-05	3.4749e-05	831.47	170.08	3.3968e-05	5.3166e-05	218.03	53.58	39.199	8.1673	3.3229e-05	17.368	1.262	5.732	-59.753	-47.600	6.542	-55.856	-47.229	-43.540	-53.838	131.397	-42.837	-38.148	-39.794	-32.647	288.213	-31.752	-8191	255	
33813.012	1	1	0	0	0.09559	0.070917	0.13413	0.076748	0.079509	0.069722	0.11906	0.2385	0.29032	0.063126	0.065877	0.18299	0.22683	0.29459	0.11879	0.16899	-2.1083	-2.9979	-3.1271	-2.6854	-2.8688	-3.075	-2.7792	-3.0833	-2.8229	-2.7896	-3.2146	-2.675	-3.0542	-3.0375	-2.6875	-3.0396	207.084	154.875	165.046	76.133	-9.804	137.962	266.750	-27.236	241.155	115.102	173.499	247.537	-32.601	124.367	76.449	56.078	0.00018711	0.00045223	0.00010671	736.95	2.5654e-05	2.2075e-06	820.63	161.91	5.3715e-06	4.6578e-05	202.21	48.231	34.777	6.411	1.6991e-06	12.336	0.0026697	0.0031546	0.00086755	816.54	5.2137e-05	3.4494e-05	838.25	171.54	3.3775e-05	4.7794e-05	226.33	54.351	39.762	8.3555	3.2873e-05	16.831	-58.931	102.243	34.451	-47.437	1.300	78.538	-47.184	-43.481	233.517	76.323	-42.508	-38.270	-39.789	-32.549	180.655	-31.488	-8191	255	
33813.105	1	1	0	0	0.05516	0.20355	0.12231	0.19184	0.15001	0.21281	0.22919	0.2114	0.12917	0.060816	0.168	0.16189	0.26484	0.19199	0.04939	0.10471	-2.4333	-2.8583	-3.0375	-2.6771	-2.7438	-2.8521	-2.7917	-3.0458	-3.0021	-2.7646	-3.1688	-2.7812	-2.725	-2.9854	-2.8021	-2.8708	-24.214	135.567	151.663	263.445	240.795	284.059	-35.695	253.888	-10.189	164.197	297.822	167.363	-20.563	50.931	-33.058	13.996	0.00013253	0.00042354	9.1767e-05	756.74	4.7357e-05	3.3464e-06	826.89	163.63	4.8118e-06	7.3399e-06	205.76	48.799	34.801	6.5348	6.6194e-06	12.402	0.0026734	0.0031146	0.00088601	831.75	6.5211e-05	3.4622e-05	846.86	172.99	3.3519e-05	3.3817e-05	231.76	54.662	39.919	8.4615	3.2944e-05	18.119	86.428	271.650	98.374	-47.310	15.785	199.189	-46.998	-43.497	246.880	31.750	-42.142	-37.543	-39.888	-32.480	105.614	-31.714	-8191	255	
33813.203	1	1	0	0	0.21749	0.083155	0.19126	0.11467	0.043137	0.28716	0.064406	0.21799	0.097841	0.32958	0.43376	0.16509	0.11826	0.25969	0.19397	0.099643	-2.3271	-2.75	-3.0625	-2.8563	-2.7812	-3.0729	-2.8187	-2.9729	-2.9313	-2.6646	-3.0083	-2.8292	-2.7812	-2.8979	-2.7521	-2.8271	43.129	262.453	134.146	281.353	-5.112	10.953	-18.845	142.968	41.652	-41.649	167.834	13.946	178.043	230.498	214.267	127.062	5.467e-05	0.00067089	7.7427e-05	753.63	2.6375e-05	2.2679e-06	832.45	164.8	8.2136e-06	3.6224e-06	210.66	49.79	35.696	6.7883	3.1671e-06	12.733	0.0026739	0.0030766	0.00087342	835.06	5.2181e-05	3.4158e-05	852.97	174.86	3.326e-05	3.378e-05	244.28	55.877	40.885	8.647	3.2646e-05	17.283	138.719	27.036	33.687	-47.233	27.669	114.160	-46.926	-43.685	33.111	57.250	-41.993	-38.875	-39.800	-33.281	33.890	-30.860	-8191	255	
33813.324	1	1	0	0	0.076737	0.071062	0.042805	0.1426	0.21673	0.19698	0.091254	0.26147	0.26002	0.27827	0.12776	0.13188	0.12141	0.12546	0.13298	0.10034	-2.3604	-2.3708	-2.9625	-2.7396	-2.775	-3.0021	-2.9604	-2.7833	-2.8979	-2.7979	-3.0104	-2.8771	-2.6458	-2.9021	-2.65	-2.8625	108.761	31.510	-1.148	94.610	48.055	86.559	188.422	196.288	-0.483	-23.532	280.749	97.624	165.446	-3.782	101.999	-36.876	0.00010462	0.0003748	0.00013466	749.73	5.4461e-05	1.0336e-05	835.45	166.87	2.6376e-06	4.0724e-06	211.23	51.986	37.118	6.9764	8.1444e-06	12.974	0.0026449	0.0029803	0.00087079	827.8	4.5138e-05	4.8304e-05	855.46	176.91	3.2536e-05	3.3186e-05	238.31	57.767	42.35	8.9762	3.2881e-05	18.656	257.859	43.978	185.457	-47.617	17.049	161.056	-46.913	-43.433	-19.326	-7.159	-42.322	-38.452	-40.388	-33.830	160.007	-31.685	-8191	255	
33813.395	1	1	0	0	0.017359	0.097255	0.072701	0.15035	0.11733	0.13682	0.31248	0.22558	0.23947	0.098796	0.2238	0.20943	0.017005	0.060298	0.15039	0.2043	-2.5583	-2.5938	-2.8896	-2.8708	-2.7958	-3.15	-2.9562	-3	-2.9208	-2.8292	-2.9313	-2.8958	-2.9167	-3	-2.6917	-2.9125	46.889	131.121	233.956	-22.743	38.508	93.242	127.337	-24.504	103.224	-48.404	113.927	153.836	263.457	240.065	150.181	-20.434	0.00015026	0.00063208	0.00011714	753.73	2.8103e-06	3.7327e-05	835.71	167.07	4.1378e-06	2.8305e-06	211.68	51.607	37.248	6.9757	8.9926e-07	13.328	0.0026415	0.0029778	0.00086045	831.29	3.2517e-05	5.332e-05	856.26	176.45	3.2508e-05	3.3203e-05	245.62	57.466	42.118	8.9812	3.2947e-05	17.451	107.472	-17.669	-5.963	-47.244	238.423	51.974	-47.102	-43.862	-0.210	86.092	-41.748	-38.713	-40.174	-33.281	268.554	-31.777	-8191	255	
33813.516	1	1	0	0	0.081704	0.10583	0.15008	0.16882	0.42507	0.15575	0.16657	0.20055	0.02033	0.089592	0.10012	0.082064	0.059581	0.022787	0.15756	0.02557	-2.5	-2.6771	-2.8875	-2.8208	-2.6729	-3.1104	-3.0229	-3.0042	-2.9729	-2.7313	-2.9729	-3.1604	-2.8042	-2.9917	-2.7188	-2.7333	-4.963	-56.232	11.748	-56.529	-7.278	212.411	210.177	-2.039	140.085	79.970	231.359	266.494	-40.075	104.099	189.860	-36.813	6.7584e-05	0.00086529	0.00012902	748.84	1.9402e-06	6.0343e-05	826.5	162.43	5.94e-06	3.4775e-06	204.83	49.834	35.432	6.6186	8.2888e-06	12.875	0.0026466	0.002985	0.0008689	825.18	3.2527e-05	6.6367e-05	844.35	171.31	3.2343e-05	3.3327e-05	231.99	55.755	40.306	8.6086	3.2926e-05	16.252	90.647	11.557	64.947	-47.038	243.393	51.029	-46.848	-43.315	-23.576	290.160	-41.901	-38.393	-39.378	-33.908	48.851	-32.014	-8191	255	
33813.609	1	1	0	0	0.16586	0.25001	0.26125	0.12735	0.1483	0.070303	0.13376	0.14622	0.16455	0.31101	0.12218	0.067851	0.080924	0.081841	0.20819	0.19875	-2.6292	-2.8521	-2.8354	-3.0333	-2.6937	-3.1312	-2.8854	-2.5792	-3.0833	-2.8292	-3.0083	-2.9917	-2.6937	-3.0042	-2.9521	-2.8354	-27.071	255.078	266.015	-7.082	186.848	284.496	143.639	231.177	208.913	149.514	73.102	271.074	74.217	193.929	175.092	115.816	0.00091013	0.00048432	6.9288e-05	728.95	5.7448e-06	3.4234e-05	809.4	153.88	3.1962e-06	6.913e-06	198.68	46.99	33.394	6.3213	7.7063e-06	12.402	0.0039101	0.0030181	0.00086692	806.95	3.2052e-05	5.2699e-05	824.88	164.08	3.2563e-05	3.3425e-05	232.01	53.065	38.029	8.2286	3.2697e-05	14.984	128.179	61.675	76.791	-47.426	169.275	49.411	-46.609	-42.935	40.320	163.864	-41.237	-37.882	-39.139	-32.337	17.175	-31.190	-8191	255	
33813.703	1	1	0	0	0.16604	0.16723	0.24431	0.2091	0.080666	0.1414	0.19676	0.053382	0.24908	0.13128	0.091335	0.060946	0.18745	0.0351	0.17073	0.096312	-2.6125	-2.8438	-2.6937	-3.1208	-2.7729	-2.925	-3.1333	-2.6188	-3.1771	-2.8438	-2.8583	-3.1562	-2.85	-3.1	-3.1292	-2.6354	-2.744	157.341	-53.930	72.654	-19.365	36.377	9.019	162.168	-46.281	278.722	-1.959	-7.064	59.121	290.184	167.843	30.604	0.00078063	0.0010259	0.00019542	720.13	3.3999e-06	4.7554e-05	798.21	153.53	5.5843e-06	4.7667e-06	198.16	46.924	33.179	6.3562	1.9873e-06	12.501	0.004105	0.0030118	0.00085585	799.78	3.2246e-05	6.5169e-05	817.09	162.29	3.3024e-05	3.3108e-05	221.88	52.97	37.948	8.2525	3.3077e-05	15.001	166.510	120.921	270.162	-47.111	132.229	60.755	-46.663	-42.892	138.545	-58.061	-42.308	-37.272	-39.410	-32.251	51.365	-30.260	-8191	255	
33813.801	1	1	0	0	0.08708	0.14091	0.29312	0.20325	0.10666	0.22769	0.19586	0.20929	0.032251	0.069752	0.28618	0.10007	0.22177	0.32708	0.16847	0.12042	-2.6375	-2.8104	-2.6813	-3.1979	-2.5958	-2.8604	-3.1583	-2.825	-3.1833	-2.7375	-2.8333	-3.1458	-2.8458	-2.8	-2.9396	-2.6667	-24.706	164.634	-34.951	262.233	197.702	42.875	234.444	249.768	97.548	-55.046	118.230	139.434	7.066	125.581	162.637	222.184	0.001225	0.0009884	0.00013993	722.82	6.0355e-06	4.0583e-05	805.35	153.94	8.288e-06	5.2167e-06	199.86	46.37	33.508	6.2949	4.1253e-06	12.376	0.0051244	0.0030475	0.00085085	806.77	3.3117e-05	5.2782e-05	823.73	163.59	3.3559e-05	3.4034e-05	218.31	56.716	38.326	8.2769	3.2803e-05	15.029	174.924	47.448	96.379	-47.155	149.575	70.126	-46.972	-43.137	196.762	140.216	-41.687	-36.703	-38.973	-32.561	259.188	-30.158	-8191	255	
33813.922	1	1	0	0	0.02457	0.10396	0.068571	0.31984	0.18132	0.1024	0.098755	0.18929	0.34107	0.16044	0.16152	0.096559	0.35183	0.085743	0.14095	0.25093	-2.6188	-2.6917	-2.8146	-2.9896	-2.6542	-2.9729	-3.2625	-2.8312	-3.0187	-3.0687	-2.8354	-3.2083	-2.9458	-2.8688	-2.9437	-2.8479	200.372	59.550	-8.707	-52.449	69.931	59.100	264.584	230.076	61.759	272.472	156.787	168.315	194.746	39.035	-30.048	-14.804	0.00060292	0.0008851	0.00018944	732.16	6.1363e-06	5.6419e-05	826.85	163.61	7.4748e-06	5.6491e-06	209.58	50.835	36.557	6.8898	4.2203e-06	13.189	0.0041757	0.0030994	0.00084592	815.3	3.4106e-05	6.6873e-05	846.63	173.32	3.5544e-05	3.5978e-05	225.96	61.524	42.253	8.9731	3.601e-05	16.018	176.532	44.487	102.292	-47.401	88.279	69.546	-46.826	-43.504	29.760	211.093	-42.287	-37.551	-39.624	-32.501	98.263	-31.171	-8191	255	
33813.992	1	1	0	0	0.19774	0.20559	0.29721	0.24852	0.15871	0.17376	0.20108	0.18733	0.23337	0.085883	0.12211	0.17526	0.089209	0.31203	0.13236	0.10373	-2.5333	-2.95	-2.6667	-3.0958	-2.7583	-2.7979	-3.0771	-2.8292	-2.8958	-2.8854	-2.7979	-2.9104	-2.8729	-2.9271	-3.1021	-2.7604	-11.226	288.174	114.803	155.699	201.205	79.915	246.603	194.393	260.840	201.254	141.198	182.521	292.259	107.236	138.318	210.249	0.00147	0.00045141	8.865e-05	756.79	5.797e-06	3.4943e-05	851.88	172.66	9.1236e-06	4.6127e-06	217.85	52.563	38.66	6.9977	6.2873e-06	13.202	0.0055048	0.0034304	0.00093106	852.53	3.794e-05	5.4957e-05	876.41	183.65	3.884e-05	3.9362e-05	235.47	66.958	44.719	9.2161	3.8048e-05	16.346	176.644	97.145	-23.720	-47.190	115.482	56.381	-46.874	-43.700	80.909	115.794	-42.222	-37.247	-40.151	-33.152	-10.162	-31.572	-8191	255	
33814.090	1	1	0	0	0.075649	0.16414	0.048728	0.11677	0.047554	0.079914	0.14744	0.35739	0.15151	0.29361	0.10922	0.17552	0.13082	0.11943	0.17094	0.2154	-2.5708	-2.8208	-2.7083	-3.0792	-2.775	-2.9229	-3.3104	-2.8104	-2.9354	-3.025	-2.7687	-3.1688	-3.0083	-2.8875	-3.1729	-2.9271	268.026	213.658	283.549	136.489	128.533	36.880	153.850	271.559	166.013	-56.205	57.718	192.035	205.274	207.556	250.893	155.895	0.00050355	0.00028061	5.9781e-05	763.82	2.4205e-06	6.1511e-05	844.14	169.91	6.3859e-06	3.8559e-06	212.98	51.322	37.261	6.9156	7.1188e-06	12.931	0.0045874	0.0035702	0.00096843	862.69	3.8933e-05	4.7132e-05	892.54	182.37	3.8974e-05	3.9864e-05	230.89	62.636	43.302	8.9991	3.9386e-05	16.089	181.973	294.697	104.283	-47.550	70.178	55.957	-46.462	-43.671	89.572	46.063	-42.513	-37.314	-39.912	-32.732	215.310	-31.085	-8191	255	
33814.188	1	1	0	0	0.18967	0.17046	0.15632	0.1175	0.14332	0.086579	0.19463	0.060003	0.077868	0.11944	0.10523	0.18113	0.087121	0.19625	0.13758	0.075544	-2.4604	-3.0604	-2.8333	-3.0667	-2.8896	-2.7438	-3.2042	-2.8604	-2.8667	-2.9896	-2.7646	-2.9729	-2.8917	-2.6292	-3.1292	-2.7229	62.305	137.708	139.578	232.582	26.001	85.159	228.426	-50.489	107.173	-0.059	146.287	195.339	231.287	292.361	154.381	-37.995	0.0012365	0.00056082	0.00016079	756.32	4.5995e-06	5.9146e-06	840.24	168.67	8.5698e-06	4.3655e-06	211.51	50.534	37.132	6.6851	3.7501e-06	12.868	0.0055669	0.0036394	0.00098749	855.52	3.9684e-05	3.9223e-05	885.44	179.97	3.9818e-05	4.0949e-05	230.47	64.941	43.447	9.0476	4.1749e-05	16.226	189.768	6.800	-29.854	-47.168	154.380	5.768	-46.806	-43.812	294.157	246.771	-42.677	-37.379	-40.446	-32.653	137.031	-30.920	-8191	255	
33814.305	1	1	0	0	0.037396	0.12209	0.19143	0.12613	0.07263	0.20208	0.23376	0.011331	0.09069	0.17659	0.14699	0.20597	0.23654	0.1018	0.014706	0.13017	-2.3604	-2.9313	-2.7396	-2.8208	-2.8479	-2.7479	-2.8688	-2.8729	-2.8812	-3.1125	-2.9833	-2.9083	-3.0333	-2.7333	-2.9938	-2.9188	16.511	284.058	98.615	25.608	-31.201	38.804	255.689	75.986	-29.800	236.965	185.331	247.634	-21.683	267.226	108.718	297.384	0.00084479	0.0025482	9.0731e-05	759.5	4.2788e-06	6.0111e-06	845.63	173.51	8.3791e-06	5.4114e-06	215.7	52.634	39.052	6.889	1.0352e-05	12.783	0.0044755	0.0040285	0.0010893	870.74	4.4387e-05	4.4908e-05	911.23	187.71	4.5298e-05	4.7768e-05	239.04	65.199	46.213	9.4641	4.7106e-05	16.608	228.645	215.068	46.043	-46.905	27.398	103.326	-46.628	-43.875	175.092	98.275	-42.596	-38.044	-40.537	-33.153	129.232	-30.448	-8191	255	
33814.402	1	1	0	0	0.19773	0.16881	0.18026	0.088217	0.13604	0.13586	0.40144	0.057293	0.30117	0.19844	0.14772	0.19114	0.133	0.060248	0.093737	0.43167	-2.4833	-3.0312	-2.6729	-2.8688	-2.9813	-2.8458	-3.0521	-3.0187	-2.8438	-3.1667	-2.8625	-2.8958	-3.1646	-2.5625	-2.9604	-3.0958	196.236	80.955	46.000	146.819	280.859	200.706	238.148	157.307	-3.273	160.027	164.420	270.193	89.790	172.282	24.013	279.237	0.00092546	0.0030422	0.00010257	761.56	8.9655e-06	8.9647e-06	839.72	171.39	7.7104e-06	3.683e-06	214.2	51.844	39.314	7.024	3.3748e-06	13.2	0.0041059	0.0061392	0.0011801	881.6	4.652e-05	4.6507e-05	893.24	185.82	4.5545e-05	4.9582e-05	237.83	67.767	46.795	9.7199	4.9869e-05	17.204	235.997	216.378	34.279	-47.321	-32.552	50.605	-46.900	-43.357	103.667	291.390	-42.953	-38.044	-40.579	-33.210	258.811	-30.943	-8191	255	
33814.496	1	1	0	0	0.24492	0.21376	0.092645	0.18321	0.10884	0.11887	0.16492	0.36704	0.1854	0.21193	0.25773	0.21058	0.1108	0.32372	0.27675	0.10081	-2.2896	-2.8479	-2.6917	-2.8729	-3.025	-2.5625	-3.0271	-3	-2.775	-3.2458	-2.9458	-2.8563	-3.1271	-2.7188	-3.0438	-2.9042	216.788	44.409	-33.658	243.987	-5.068	154.243	93.760	220.420	113.701	68.698	-28.588	-10.508	-41.776	194.358	205.579	284.652	0.00024533	0.0026781	0.00022951	774.54	5.4102e-06	8.6455e-06	847.16	174.18	6.6609e-06	4.25e-06	215.38	53.036	38.566	6.7884	4.7321e-06	12.824	0.0038855	0.0064029	0.0012849	900.81	5.0315e-05	5.032e-05	916.49	189.96	4.8324e-05	5.2021e-05	239.58	64.482	46.911	9.6856	5.0683e-05	16.839	27.896	274.812	29.368	-47.087	27.429	95.788	-46.564	-43.867	221.145	92.920	-42.774	-39.209	-40.533	-33.598	60.413	-31.288	-8191	255	
33814.594	1	1	0	0	0.082651	0.11994	0.23241	0.1825	0.14933	0.052465	0.041435	0.18349	0.11491	0.040884	0.084325	0.20879	0.22128	0.13256	0.19995	0.13917	-2.2042	-3	-2.7979	-2.7458	-3.0542	-2.8042	-3.0875	-2.9062	-2.6688	-2.8583	-3.1083	-2.6875	-2.9333	-2.7313	-2.7771	-2.9854	79.726	0.039	82.939	275.762	-48.408	-46.491	243.761	184.285	169.071	36.540	76.141	-12.611	71.931	199.447	-11.743	262.550	0.0002602	0.0056596	0.00027307	758.48	6.0323e-06	1.959e-06	841.94	171.12	5.0156e-06	5.8378e-06	211.26	51.291	37.438	6.6376	1.3976e-05	12.664	0.0038808	0.0074871	0.0012858	889.02	5.1067e-05	5.1191e-05	894.17	187.29	4.8914e-05	5.3132e-05	237.39	61.719	49.681	9.5682	5.0478e-05	16.755	58.062	286.639	92.900	-47.463	-10.540	275.296	-46.603	-43.754	95.501	-18.920	-42.436	-39.145	-40.318	-32.860	162.916	-30.688	-8191	255	
33814.691	1	1	0	0	0.16307	0.11918	0.15323	0.26124	0.20818	0.28282	0.21183	0.09063	0.050553	0.14859	0.31411	0.10508	0.24408	0.036171	0.065981	0.10387	-2.1583	-2.9958	-3.0312	-2.6458	-2.9313	-2.9417	-2.9437	-2.9958	-2.65	-2.9688	-2.9125	-2.7229	-3.175	-2.6521	-2.8729	-2.9896	90.964	150.964	135.247	281.983	188.498	124.641	238.679	-16.462	161.478	93.434	192.603	149.740	77.899	-32.189	12.150	221.102	2.75e-05	0.0030281	0.0001832	754.04	2.2041e-06	2.4243e-06	844.28	172.06	1.071e-05	5.5374e-06	210.92	50.78	36.505	6.5037	2.7148e-06	12.362	0.0039714	0.0063745	0.0012937	888.13	5.2041e-05	5.1618e-05	909.33	188.32	4.9583e-05	5.307e-05	235.41	60.282	48.198	9.4129	5.0003e-05	16.363	3.356	-39.688	16.367	-47.503	203.774	195.337	-46.728	-43.806	175.936	-20.272	-42.696	-38.468	-40.245	-33.308	-24.339	-30.868	-8191	255	
33814.785	1	1	0	0	0.44198	0.17483	0.072474	0.34739	0.24823	0.045468	0.25785	0.067385	0.33158	0.36288	0.11256	0.054852	0.3303	0.18301	0.2174	0.02525	-2.3312	-3.025	-2.9396	-2.575	-3.0229	-2.7458	-2.9	-3.2167	-2.7604	-2.9354	-2.9479	-2.7375	-2.9604	-2.7625	-2.8271	-3.0354	-55.480	86.103	159.813	255.667	38.408	140.412	161.565	179.470	59.660	22.543	194.121	41.991	175.158	-46.694	226.392	146.674	0.00015369	0.0071085	0.00010399	743.64	4.4656e-06	1.0809e-05	821.51	164.76	1.054e-05	3.7978e-06	206.88	49.592	35.57	6.3991	1.3968e-06	12.184	0.0039562	0.0074104	0.0012818	875.26	5.1249e-05	5.0743e-05	873.17	182.16	4.8576e-05	5.1967e-05	230.96	59.051	49.476	9.3191	4.9087e-05	16.331	191.609	290.879	160.483	-47.218	3.417	110.842	-46.853	-43.163	126.566	262.137	-42.449	-38.512	-39.791	-32.967	232.961	-30.602	-8191	255	
33814.883	1	1	0	0	0.1955	0.071892	0.075504	0.34567	0.14861	0.097214	0.17921	0.16792	0.14063	0.22867	0.1292	0.2109	0.13755	0.14663	0.069595	0.082289	-2.2583	-2.8458	-2.8583	-2.6312	-3.1	-2.8917	-2.8979	-3.1604	-2.6333	-2.9021	-2.9562	-2.5687	-2.8812	-2.8167	-2.8521	-2.9583	224.357	-31.015	127.929	187.079	-60.235	100.626	8.117	102.997	11.917	10.800	-24.971	-13.259	197.271	296.318	161.843	215.810	0.00013896	0.0033527	0.00025739	736.23	3.138e-06	1.2979e-06	827.21	168.24	1.4928e-05	4.3909e-06	208.6	51.032	37.012	6.4523	6.2924e-06	12.183	0.0039084	0.0062195	0.0012836	870.44	5.204e-05	5.0727e-05	862.71	192.98	4.9794e-05	5.2785e-05	234.95	60.283	48.535	9.4069	5.0446e-05	16.459	193.014	-47.797	134.827	-47.188	42.812	201.293	-46.688	-43.259	13.208	132.861	-42.778	-38.797	-40.617	-32.396	16.093	-30.320	-8191	255	
33815.004	1	1	0	0	0.098696	0.3664	0.21278	0.07134	0.13576	0.22437	0.11148	0.076934	0.10458	0.12902	0.10634	0.077654	0.1293	0.13766	0.066235	0.20272	-2.2812	-2.7625	-2.8625	-2.575	-2.8417	-2.8979	-2.75	-2.8125	-2.7938	-2.8021	-3.1146	-2.5708	-2.9125	-2.9646	-2.8292	-2.9042	143.721	289.442	234.580	-52.256	-1.633	-35.115	128.431	87.899	39.685	240.473	288.369	201.162	92.532	30.602	279.865	40.412	0.00018933	0.0055609	0.00032861	740.86	2.7168e-06	4.4023e-06	816.51	165.18	1.3671e-05	1.8054e-07	206.41	49.007	35.12	6.2132	1.7779e-06	12.121	0.0040495	0.0073497	0.0013295	877.31	5.2725e-05	5.1523e-05	855.64	188.68	5.0007e-05	5.2458e-05	231.1	58.579	48.884	9.1974	4.9661e-05	16.285	152.642	-41.414	262.240	-47.257	16.256	205.575	-46.941	-43.408	75.820	-9.233	-42.763	-38.444	-40.362	-33.296	39.302	-30.806	-8191	255	
33815.098	1	1	0	0	0.074588	0.18442	0.18704	0.27395	0.32165	0.12277	0.0462	0.33946	0.21178	0.14479	0.1105	0.41772	0.22212	0.045873	0.087972	0.050389	-2.2313	-2.75	-3.1312	-2.6667	-3.025	-2.975	-2.7854	-3.0938	-2.9396	-2.8833	-3.0417	-2.7104	-2.9188	-3.0958	-2.8063	-3.0062	-39.486	-57.013	137.730	-57.463	297.634	99.697	260.836	287.036	10.542	93.907	138.916	239.118	185.056	21.936	52.715	-3.293	8.084e-05	0.0038305	0.00036205	743.92	7.485e-06	4.9024e-06	811.58	162.05	4.3356e-06	7.8828e-06	201.39	48.064	33.975	6.0935	6.902e-06	11.614	0.0039987	0.0056744	0.0013732	872.13	5.1568e-05	5.0328e-05	848.31	189.34	4.9116e-05	5.0647e-05	226.93	57.195	45.352	9.0028	4.8799e-05	15.886	109.276	-41.749	225.370	-47.076	51.761	216.018	-46.923	-42.863	-24.038	86.036	-42.175	-38.719	-40.076	-32.566	144.011	-29.921	-8191	255	
33815.191	1	1	0	0	0.16536	0.078623	0.083631	0.038564	0.069235	0.2034	0.14969	0.29373	0.072514	0.18725	0.086874	0.057446	0.25321	0.20605	0.4253	0.27189	-2.3229	-2.7104	-2.9792	-2.5854	-2.8042	-3.1042	-2.925	-3.0375	-2.9333	-2.7479	-3.125	-2.7396	-2.8625	-2.7979	-2.7375	-3.0208	96.994	218.545	298.305	281.937	164.995	-42.106	198.758	191.327	228.689	255.276	180.256	223.292	51.464	149.273	261.930	171.715	0.0002711	0.0054528	0.0001576	726.09	4.2944e-06	6.8072e-06	798.77	156.76	6.9427e-06	6.9054e-06	194.02	46.375	31.985	5.9445	5.1449e-06	11.371	0.0038952	0.0047396	0.0018515	855.5	4.9812e-05	4.9928e-05	834.64	179.34	4.7839e-05	4.958e-05	219.87	55.063	45.204	8.7652	4.7743e-05	15.463	20.892	-32.203	276.202	-46.899	221.359	110.776	-46.926	-43.264	198.801	108.999	-42.276	-37.618	-40.194	-31.803	-58.965	-30.118	-8191	255	
33815.289	1	1	0	0	0.12092	0.089989	0.09834	0.17222	0.18408	0.042709	0.20035	0.34146	0.1632	0.17707	0.40182	0.23289	0.10863	0.20612	0.18176	0.099305	-2.5833	-2.4833	-2.975	-2.8563	-2.8021	-3.0354	-2.7812	-2.9646	-2.7938	-2.7542	-3.0917	-2.7167	-2.7562	-3.075	-2.7	-3.0021	12.498	242.854	246.520	94.437	122.079	192.614	48.954	233.998	107.034	114.294	189.531	265.037	248.406	85.469	34.688	168.806	0.00019461	0.00047496	0.0010179	709.42	1.0433e-05	7.6624e-06	786.73	151.73	2.2836e-06	5.431e-06	189.15	44.485	31.043	5.5153	7.6375e-06	11.075	0.0038093	0.0044456	0.0016821	836.83	4.8476e-05	4.8415e-05	818.65	177.6	4.6811e-05	4.7873e-05	213.84	52.845	39.972	8.5566	4.4461e-05	14.793	124.501	224.539	-32.078	-47.177	26.075	12.380	-46.931	-42.830	128.562	169.138	-42.191	-37.398	-39.533	-31.271	81.403	-29.775	-8191	255	
33815.387	1	1	0	0	0.11027	0.16727	0.02727	0.24311	0.1343	0.13542	0.2608	0.2195	0.09603	0.35717	0.25786	0.34819	0.38367	0.13323	0.14425	0.042097	-2.4604	-2.7042	-2.975	-2.7208	-2.7833	-3.1562	-2.9062	-2.9188	-3.1063	-2.8125	-2.9979	-2.8667	-2.7979	-3.1813	-2.8187	-2.9604	249.306	-53.228	96.619	-46.989	267.912	270.893	264.362	259.986	54.023	258.157	178.454	-49.683	242.877	79.707	117.238	287.729	0.00021094	0.00031341	0.0013452	694.45	7.7783e-06	4.5956e-06	765.71	142.75	5.6921e-06	3.5973e-06	182.61	42.161	28.982	5.1553	2.0033e-06	11.133	0.0035466	0.0040848	0.0018633	808.46	4.374e-05	4.4409e-05	794.78	162.92	4.2106e-05	4.206e-05	204.13	49.58	35.117	9.2528	3.9153e-05	14.264	67.440	220.976	-35.346	-46.774	171.398	90.321	-46.607	-42.663	231.943	57.424	-41.855	-36.899	-39.841	-31.110	250.187	-29.907	-8191	255	
33815.480	1	1	0	0	0.16713	0.084556	0.087971	0.32129	0.21564	0.060221	0.18069	0.14522	0.24398	0.068269	0.10957	0.20006	0.078708	0.18775	0.076537	0.10568	-2.6875	-2.6667	-2.8937	-2.85	-2.6354	-3.0667	-2.975	-3.0583	-3.1	-2.7812	-2.9542	-2.8729	-2.8021	-3.3125	-2.7917	-2.8396	208.175	-6.393	291.384	244.769	295.403	134.653	272.984	281.729	250.693	16.466	277.509	253.089	40.303	122.719	119.038	73.112	0.00031018	0.00046548	0.00095588	686.5	4.5322e-06	4.327e-06	758.38	135.41	4.258e-06	4.5656e-06	176.26	40.254	26.33	5.0723	1.023e-05	10.966	0.0030821	0.0035492	0.0014558	782.52	3.7379e-05	3.9093e-05	781.29	158.63	3.6643e-05	3.6697e-05	194.64	46.767	32.017	8.5181	3.513e-05	13.837	154.965	5.305	-20.507	-47.354	172.876	186.168	-46.740	-41.750	-49.182	13.640	-41.942	-35.837	-37.476	-31.523	135.055	-29.773	-8191	255	
33815.602	1	1	0	0	0.057147	0.2459	0.080546	0.17535	0.19224	0.1192	0.14731	0.30666	0.08223	0.10665	0.20322	0.027023	0.10658	0.15105	0.019653	0.077577	-2.5542	-2.7875	-2.9375	-2.8292	-2.9188	-2.8771	-3.0854	-2.9146	-3.0958	-2.8292	-3.0417	-2.9313	-2.7208	-2.9396	-2.8354	-2.6167	152.004	248.121	34.963	276.033	149.691	105.582	136.245	270.760	282.994	237.033	170.116	203.180	103.998	22.327	-32.814	190.914	2.2287e-05	0.00035893	0.0014194	670.04	4.6046e-06	1.2387e-05	750.54	132.47	3.3378e-05	7.1536e-06	175.21	39.638	25.757	4.9586	3.4073e-06	11.013	0.0028405	0.0032181	0.0016878	762.42	3.4739e-05	3.6244e-05	773.56	147.26	3.9388e-05	3.5343e-05	191.33	45.763	31.168	9.1003	3.3955e-05	13.66	12.878	60.859	-16.070	-47.545	194.355	70.624	-46.467	-42.393	176.739	183.424	-41.030	-36.360	-37.616	-30.870	217.700	-29.212	-8191	255	
33815.699	1	1	0	0	0.14018	0.34594	0.10537	0.28254	0.079185	0.14831	0.36054	0.13803	0.12733	0.099346	0.28157	0.094444	0.14629	0.23168	0.29916	0.043845	-2.6188	-2.7667	-2.8937	-3.0312	-2.8021	-3.0854	-3.0208	-2.9042	-3.0979	-2.725	-2.875	-3.0146	-2.7542	-2.9646	-2.9	-2.7354	12.266	224.422	-4.076	230.037	76.523	-27.582	184.937	87.819	33.802	-59.424	174.067	197.225	32.910	-8.011	45.778	134.164	6.4821e-05	0.0006264	0.0009404	677.31	6.1027e-06	5.2162e-06	755.15	131.61	6.3959e-05	3.1156e-06	176.06	39.631	26.169	5.1852	7.1989e-06	11.084	0.0027503	0.0031645	0.0013654	762.08	3.4326e-05	3.6056e-05	775.46	142.51	6.0955e-05	3.5082e-05	191.29	46.095	31.377	8.4506	3.3861e-05	13.79	103.358	263.217	-5.530	-46.847	-16.631	218.087	-46.453	-42.087	172.839	143.549	-41.503	-36.374	-37.385	-31.559	100.855	-29.210	-8191	255	
33815.797	1	1	0	0	0.11739	0.17812	0.09175	0.036939	0.21966	0.14689	0.14722	0.056506	0.23616	0.11897	0.050469	0.18523	0.10358	0.14504	0.083305	0.19573	-2.5687	-2.6813	-2.8	-3.1875	-2.7771	-3.0021	-3.0167	-2.6958	-3.0354	-2.9458	-2.8729	-3.0125	-2.8771	-2.8417	-3.0333	-2.675	25.396	169.923	99.646	202.336	56.494	128.792	31.386	291.024	69.680	-18.766	268.622	293.832	290.736	234.536	235.939	37.407	0.0002046	0.00026093	0.0014359	676.28	4.2396e-06	5.7074e-06	756.33	132.31	4.0508e-05	2.7605e-06	173.14	39.747	25.636	4.996	4.4922e-06	11.045	0.0027738	0.0031524	0.0016792	767.58	3.3959e-05	3.5138e-05	775.94	141.95	5.2672e-05	3.382e-05	189.68	45.629	30.764	9.0683	3.2685e-05	13.6	62.589	284.822	-16.170	-46.997	195.925	58.237	-46.366	-42.246	161.277	189.753	-40.993	-35.716	-36.863	-32.835	124.932	-29.307	-8191	255	
33815.891	1	1	0	0	0.36466	0.032672	0.16645	0.10243	0.21396	0.079408	0.21523	0.13113	0.1149	0.30749	0.24358	0.13709	0.26817	0.097845	0.10361	0.079959	-2.5875	-2.8563	-2.8417	-3.1542	-2.9208	-3.0312	-2.9062	-2.7687	-2.9625	-2.9958	-2.9333	-3.1625	-2.7146	-2.9146	-3.0729	-2.7313	194.888	-20.626	294.764	249.098	177.963	37.992	298.384	60.593	-1.135	39.462	242.532	-24.960	110.819	39.069	142.570	-18.423	2.0225e-05	0.0010333	0.0011771	667.22	5.1159e-06	3.9456e-06	743.92	126.26	6.6454e-05	6.8306e-06	169.77	38.857	25.001	5.0801	7.2053e-06	11.028	0.0026578	0.0029459	0.0010913	766.53	3.1834e-05	3.3351e-05	763.55	136.46	6.401e-05	3.2321e-05	184.95	44.694	29.869	8.1949	3.1646e-05	13.525	82.218	2.778	-13.438	-46.759	-31.773	-49.517	-46.618	-41.603	162.671	-42.765	-41.152	-35.522	-36.627	-32.209	-3.564	-29.317	-8191	255	
33815.988	1	1	0	0	0.14682	0.043458	0.1586	0.12165	0.12584	0.18912	0.13678	0.082281	0.21514	0.26766	0.23361	0.24513	0.15694	0.02513	0.1575	0.1051	-2.75	-2.8688	-2.8917	-2.9354	-2.7313	-2.6958	-2.9958	-2.6375	-2.9875	-3.0125	-2.6937	-3.0958	-2.6521	-2.7292	-3.0292	-2.6875	45.689	138.075	-42.485	244.173	164.673	64.804	284.662	243.928	-51.602	-32.525	9.522	172.707	185.952	-49.326	183.282	200.877	3.2304e-05	0.00076925	0.00013017	669.64	1.4301e-07	2.7064e-06	743.31	126.85	4.6401e-05	2.6337e-06	171.43	38.752	24.655	5.0478	3.8194e-06	11.09	0.0025835	0.0028841	0.00079505	838.76	3.0978e-05	3.2069e-05	760.29	135.87	5.0615e-05	3.1563e-05	184.18	44.381	29.301	9.0051	3.0735e-05	13.484	79.543	79.271	79.414	-46.267	-32.952	297.432	-46.308	-41.691	166.227	72.600	-40.935	-35.130	-37.217	-32.615	289.093	-28.807	-8191	255	
33816.082	1	1	0	0	0.14944	0.21764	0.13132	0.14882	0.27473	0.12068	0.17237	0.15815	0.088978	0.167	0.068793	0.28997	0.050421	0.15778	0.18312	0.27425	-2.2771	-2.8042	-2.5292	-2.8604	-2.8354	-2.8458	-3.2208	-2.7896	-2.9458	-2.9583	-2.8	-2.9062	-2.7958	-2.7875	-3.0458	-2.8063	269.012	-58.613	156.516	103.967	40.866	61.210	3.164	-50.684	203.163	192.801	240.382	20.885	263.608	116.618	291.300	289.257	0.00017235	0.00044664	6.2216e-05	669.21	3.5507e-06	7.4499e-06	740.49	124.75	7.0694e-05	5.7321e-06	167.19	38.291	24.164	5.219	2.0767e-05	11.016	0.0024428	0.0027624	0.00075969	798.5	3.0034e-05	3.0695e-05	758.22	133.73	6.3038e-05	3.033e-05	180.55	43.802	28.633	7.4637	3.6593e-05	13.344	112.807	158.949	251.979	-46.621	48.192	-54.764	-46.234	-41.473	162.432	-37.898	-40.552	-35.002	-36.317	-31.494	254.995	-29.534	-8191	255	
33816.176	1	1	0	0	0.29604	0.17149	0.11373	0.18548	0.17006	0.32317	0.25086	0.13881	0.030346	0.22272	0.14043	0.14835	0.23913	0.099435	0.21216	0.17745	-2.4479	-2.9708	-2.6833	-3.0375	-2.8708	-2.8125	-3.2042	-2.8167	-2.9771	-2.9167	-2.7042	-2.9854	-3.0187	-2.7583	-3.0312	-2.7833	45.550	94.206	-48.783	278.481	297.625	230.019	219.585	-56.129	22.488	68.875	86.888	261.104	90.433	29.031	218.420	222.403	0.00011575	0.00039306	6.4593e-05	675.01	7.4013e-06	4.7654e-06	732.58	122.33	3.4206e-05	5.3271e-06	167.41	38.373	24.254	5.3223	3.6593e-05	11.366	0.0023531	0.0027086	0.000741	834.23	2.8947e-05	2.899e-05	748.99	130.75	4.8773e-05	2.9641e-05	180.08	43.565	28.581	6.8671	6.2277e-05	13.563	93.165	-17.260	10.615	-46.882	147.479	116.026	-46.298	-41.335	176.319	88.981	-40.722	-35.493	-36.103	-30.327	255.589	-28.660	-8191	255	
33816.273	1	1	0	0	0.23498	0.089171	0.13201	0.2024	0.14495	0.20174	0.18943	0.26671	0.20377	0.1276	0.10283	0.1667	0.14777	0.15438	0.28338	0.092834	-2.4208	-3.0292	-2.7104	-2.9708	-2.9354	-2.85	-3.1979	-2.8563	-2.8042	-3.0417	-2.6292	-2.925	-2.9375	-2.5542	-3.0812	-2.875	196.434	246.662	22.031	-41.892	149.447	-27.878	-57.608	295.513	-41.363	-24.264	7.162	8.563	14.050	268.676	155.657	269.068	0.00012585	0.000336	0.00013429	678.11	6.4101e-06	3.1768e-06	735.21	122.74	7.3875e-05	7.1409e-06	167.94	38.665	24.022	5.2843	4.3112e-05	11.275	0.0022866	0.0026906	0.00072649	795	2.8608e-05	2.856e-05	751.78	130.88	6.2032e-05	2.9493e-05	180.33	43.604	28.385	6.8406	4.9306e-05	13.494	16.834	98.039	17.686	-46.775	48.430	179.114	-46.290	-41.406	179.379	230.174	-40.490	-35.621	-36.215	-29.972	-43.590	-29.059	-8191	255	
33816.395	1	1	0	0	0.14224	0.11613	0.19795	0.15278	0.022758	0.21182	0.042562	0.15108	0.14639	0.036231	0.1737	0.20737	0.1009	0.045667	0.16896	0.0031767	-2.3792	-3.0104	-2.7438	-2.775	-2.9292	-2.6437	-3.0875	-2.9021	-2.7229	-3.0687	-2.8646	-2.8854	-3.0125	-2.7438	-3.0021	-2.8958	-50.896	-10.310	25.226	76.753	40.839	218.786	-48.149	65.083	279.730	-13.702	-34.464	107.027	211.753	110.878	-1.965	244.160	0.00011019	0.00046886	0.00013814	673.45	5.7609e-06	9.0856e-06	738.26	122.48	9.2268e-06	3.99e-05	171.26	38.942	24.266	5.2661	6.29e-05	11.375	0.0022375	0.0026418	0.00071182	831.75	2.8586e-05	2.8188e-05	755.14	131.44	3.7437e-05	3.8002e-05	182.23	43.833	28.564	6.8448	6.3879e-05	13.614	52.663	276.680	116.219	-46.859	16.822	116.319	-46.322	-41.211	56.471	200.583	-40.657	-34.523	-35.580	-30.315	-39.869	-29.005	-8191	255	
33816.488	1	1	0	0	0.065041	0.20591	0.28646	0.098811	0.17221	0.29341	0.16487	0.24633	0.23238	0.089763	0.07514	0.10275	0.14906	0.29418	0.042822	0.19874	-2.3167	-3	-2.7583	-2.8542	-3.0542	-2.8458	-3.0208	-2.8667	-2.75	-3.1125	-2.9771	-2.8333	-3.2021	-2.8	-2.9146	-2.9458	91.516	39.084	122.125	234.179	2.289	144.798	229.268	21.821	237.199	89.151	260.750	192.685	6.299	11.053	119.025	31.954	6.4378e-05	0.00040316	0.00013586	669.49	5.8661e-06	5.0955e-06	737.96	123.73	7.4807e-06	5.7771e-05	167.22	38.288	23.75	5.2849	4.9352e-05	11.403	0.0021843	0.0026711	0.00071619	790.86	2.8719e-05	2.7986e-05	751.51	131.48	2.7261e-05	6.5181e-05	180.52	43.368	28.298	6.8087	4.9145e-05	13.493	151.573	-33.338	232.809	-45.686	156.521	90.661	-46.045	-41.052	232.371	201.338	-40.125	-34.664	-35.754	-30.789	-42.448	-29.262	-8191	255	
33816.562	1	1	0	0	0.1995	0.17078	0.11432	0.082014	0.13244	0.038026	0.061178	0.022383	0.13	0.21007	0.20089	0.21244	0.26574	0.2393	0.019184	0.078925	-2.2958	-3.0687	-2.7083	-2.7771	-3.0729	-2.6646	-3.0646	-3.1083	-2.7271	-3.0896	-2.7938	-2.6792	-3.0458	-2.575	-2.85	-2.975	266.435	101.910	187.914	240.004	227.675	274.853	298.776	154.365	190.757	118.256	183.076	166.658	230.826	4.378	10.231	-45.523	0.00012536	0.00046093	0.000173	667.49	2.3425e-06	5.8879e-06	732.23	121.23	1.5554e-06	3.3578e-05	168.6	39.009	24.364	5.2885	6.2402e-05	11.316	0.0021744	0.0026694	0.0007073	826.85	2.8358e-05	2.7634e-05	744.96	129.73	2.7372e-05	5.1093e-05	180.63	43.579	28.748	6.8635	6.2736e-05	13.537	4.764	248.400	208.205	-46.121	233.628	70.594	-46.157	-41.164	135.888	216.919	-40.564	-35.280	-35.994	-30.294	-48.995	-28.543	-8191	255	
33816.684	1	1	0	0	0.16564	0.037072	0.08483	0.24909	0.037979	0.069683	0.33938	0.026498	0.19301	0.21054	0.15444	0.26935	0.096186	0.058492	0.095365	0.1375	-2.0687	-2.8583	-2.7687	-2.8208	-2.8417	-2.8083	-2.9708	-2.9354	-2.6604	-2.9646	-2.8688	-2.4833	-2.9521	-2.7896	-2.825	-2.7604	24.426	129.318	172.123	214.449	121.507	216.378	242.692	-52.249	104.584	203.592	275.012	268.451	237.513	106.237	139.009	-24.026	0.00020236	0.00032175	0.00017811	667.34	2.3502e-05	4.7555e-06	727.9	122.13	5.016e-06	6.8771e-05	167.51	38.297	24.088	5.163	4.0445e-05	11.383	0.0021687	0.002641	0.00069801	744.78	3.7979e-05	2.7755e-05	743.21	129.91	2.7414e-05	6.5173e-05	180.07	43.263	28.349	6.7834	4.8848e-05	13.528	31.132	25.166	215.057	-46.952	154.332	107.805	-46.064	-41.122	141.115	215.390	-40.651	-35.270	-36.178	-29.705	-29.434	-28.437	-8191	255	
33816.777	1	1	0	0	0.10971	0.16725	0.21166	0.16288	0.34071	0.086762	0.029768	0.17503	0.29342	0.27832	0.091452	0.09657	0.1443	0.28985	0.14678	0.20827	-2.3271	-2.7792	-2.7604	-2.8854	-3.1958	-2.8438	-2.9375	-2.9813	-2.7396	-2.9625	-2.9792	-2.8917	-2.9542	-2.7917	-2.8208	-3.1083	-44.530	14.351	193.624	298.196	-29.779	264.457	137.102	-12.966	106.838	-56.077	162.273	206.314	113.382	217.162	262.764	208.942	0.00010896	0.00027201	0.00011598	642.85	5.2117e-05	8.5221e-06	723.51	120.76	2.8104e-06	3.9243e-05	166.79	38.149	23.779	5.2658	5.7522e-05	11.219	0.0021672	0.0026561	0.00070638	708.39	6.4258e-05	2.7734e-05	738.11	129.23	2.7149e-05	5.0592e-05	179.04	42.969	28.241	6.7833	6.1898e-05	13.473	42.484	57.967	-20.124	-46.689	93.132	41.934	-45.670	-40.902	130.329	234.546	-40.282	-35.028	-35.362	-30.116	-4.494	-28.467	-8191	255	
33816.875	1	1	0	0	0.055887	0.17164	0.14141	0.19852	0.16569	0.14776	0.1696	0.20283	0.17906	0.1082	0.2061	0.10068	0.29964	0.073008	0.2315	0.12605	-2.0458	-2.8396	-2.9229	-2.8063	-3.0563	-2.8104	-2.8937	-3.1333	-2.6729	-2.8937	-2.9208	-2.7104	-2.9479	-2.6042	-2.8458	-3.0312	241.414	70.627	181.742	5.239	261.198	-4.602	-51.776	148.768	-16.869	149.186	268.679	130.120	297.198	-46.155	-2.398	133.050	5.9427e-05	0.0013933	4.4585e-05	638.44	2.9926e-05	8.2373e-06	713.36	118.39	1.6351e-06	5.8003e-05	163.98	37.978	23.623	5.1856	4.0315e-05	11.046	0.0021456	0.0026159	0.00070969	699.19	4.9899e-05	2.7671e-05	726.57	126.45	2.6804e-05	6.4478e-05	176.14	42.392	27.758	6.667	3.5021e-05	14.143	187.548	55.588	291.151	-46.304	96.374	14.803	-46.062	-40.960	90.140	229.097	-40.352	-34.583	-36.081	-29.613	7.223	-29.194	-8191	255	
33816.996	1	1	0	0	0.045913	0.17675	0.1934	0.084834	0.099	0.11672	0.12184	0.29669	0.057661	0.095583	0.22862	0.10594	0.087417	0.15058	0.13538	0.17321	-2.4562	-2.6667	-2.9917	-2.7458	-3.1125	-2.9813	-2.8375	-2.8937	-2.7521	-2.7687	-2.9042	-2.6813	-2.8229	-2.8396	-2.8604	-3.0375	125.003	250.299	145.304	121.142	295.975	261.265	250.854	-52.910	184.862	-12.463	-54.776	25.647	211.388	95.515	-52.536	-9.929	0.00010034	0.0011502	4.9158e-05	639.36	5.5901e-05	3.3286e-06	705.89	115.32	5.6347e-06	3.5612e-05	161.96	36.993	22.876	4.9797	6.7161e-06	11.281	0.0021247	0.0025777	0.00071323	698	6.3577e-05	2.7746e-05	718.56	124.07	2.6537e-05	4.9829e-05	173.51	41.58	27.204	6.5527	2.6656e-05	16.128	102.211	255.545	94.286	-46.233	106.079	49.005	-45.724	-40.611	135.409	248.770	-40.395	-34.798	-35.917	-30.054	10.751	-31.209	-8191	255	
33817.090	1	1	0	0	0.16695	0.13263	0.26325	0.11205	0.32687	0.081574	0.2268	0.21234	0.15034	0.085326	0.30984	0.20125	0.17436	0.29127	0.25295	0.10369	-2.2083	-2.7562	-3.0896	-2.6917	-2.9854	-2.9188	-2.725	-3.0187	-3.0833	-2.9562	-3.0979	-2.7	-2.9771	-2.9437	-2.6458	-2.8146	81.120	153.834	278.140	54.474	32.916	-39.934	118.285	218.501	188.775	92.142	260.797	70.815	286.921	261.599	283.952	88.264	8.7682e-05	0.00051943	0.00013101	627.17	3.1255e-05	3.7738e-06	694.58	113.15	4.6336e-06	5.3371e-06	160.47	36.607	22.964	5.0438	3.8057e-06	11.239	0.0021341	0.0025431	0.00070688	686.82	4.8918e-05	2.7611e-05	707.9	121.81	2.6128e-05	6.0977e-05	172.51	41.363	27.071	6.5475	2.6699e-05	14.92	73.507	22.865	25.549	-46.752	110.077	157.931	-45.988	-40.776	-10.244	-9.401	-40.380	-34.809	-35.137	-29.395	98.117	-30.019	-8191	255	
33817.164	1	1	0	0	0.25201	0.27375	0.07656	0.2126	0.41463	0.1598	0.055278	0.052871	0.13478	0.1397	0.12464	0.22753	0.11812	0.14671	0.19778	0.27532	-2.3229	-2.7188	-3.0146	-2.7583	-2.9188	-3.0625	-2.7833	-3.0021	-2.85	-2.8604	-3.15	-2.7583	-2.9271	-2.9813	-2.5438	-2.9583	189.061	63.879	202.289	30.862	191.516	-54.989	-28.138	-17.683	191.275	-15.726	243.558	40.346	229.752	-42.396	219.219	300.400	9.7626e-05	0.00038911	2.9985e-05	621.98	5.0163e-05	8.0816e-06	692.22	113.15	4.2302e-06	1.1256e-05	157.57	36.713	22.692	4.9172	8.2236e-06	11.198	0.0021553	0.002541	0.00070572	685.1	6.2393e-05	2.7939e-05	707.44	121.84	2.6175e-05	3.4037e-05	177.83	41.259	26.791	6.491	2.6333e-05	15.929	73.704	251.310	215.162	-46.458	106.977	28.313	-45.932	-40.201	182.245	23.960	-40.038	-34.555	-35.517	-29.487	72.742	-30.726	-8191	255	
33817.281	1	1	0	0	0.17134	0.17109	0.11709	0.29887	0.027057	0.23145	0.086886	0.17004	0.10286	0.080673	0.10508	0.2574	0.051138	0.19805	0.18985	0.09487	-2.4854	-2.6854	-3.2271	-2.7708	-2.9792	-3.2229	-2.9313	-2.9125	-3.1083	-2.6604	-3.0854	-2.7896	-2.7938	-2.9021	-2.7667	-2.8729	228.850	72.354	114.019	247.866	54.736	23.705	85.903	8.775	75.094	180.337	-10.535	20.311	47.105	228.423	258.768	204.754	0.00010199	9.6675e-05	0.00012655	620.09	3.1349e-05	2.1836e-06	691.43	112.13	5.6959e-06	3.3556e-06	155.36	36	22.094	4.8548	3.9318e-06	10.845	0.0021349	0.0024292	0.00070117	675.83	4.7781e-05	2.6946e-05	702.26	120.3	2.5727e-05	2.6501e-05	189.78	40.398	26.138	6.3091	2.4893e-05	14.304	200.472	92.250	144.822	-46.570	132.245	178.084	-46.072	-40.359	7.362	86.314	-40.492	-34.816	-35.387	-29.868	263.966	-29.122	-8191	255	
33817.379	1	1	0	0	0.15454	0.097419	0.12617	0.21743	0.14335	0.12564	0.19901	0.11555	0.078201	0.26225	0.3446	0.13653	0.10632	0.16178	0.33171	0.12083	-2.3604	-2.675	-2.9417	-2.7667	-2.8146	-3.0833	-2.7667	-2.925	-2.9688	-2.6854	-2.9521	-2.9479	-2.8229	-2.8333	-2.7313	-2.9458	200.485	126.640	245.912	284.205	115.091	293.675	268.334	-57.722	-15.017	166.569	204.569	46.397	255.395	78.171	75.305	84.357	0.00017189	0.00038127	5.7688e-05	603.32	4.3962e-05	7.1716e-06	670.83	109.84	4.3279e-06	3.9081e-06	153.81	35.531	21.554	4.8305	1.9341e-06	10.94	0.0020347	0.0023107	0.00067632	660.15	5.5241e-05	2.6284e-05	683.87	116.93	2.5255e-05	2.577e-05	178.51	39.828	25.528	6.2634	2.5013e-05	15.363	75.851	-57.985	220.599	-46.445	68.437	-19.931	-45.925	-40.075	64.788	174.194	-40.413	-34.258	-35.092	-28.753	66.008	-30.613	-8191	255	
33817.477	1	1	0	0	0.45705	0.21052	0.33474	0.042989	0.14533	0.27549	0.269	0.17056	0.19576	0.23363	0.036355	0.14822	0.22659	0.070899	0.27015	0.26272	-2.5875	-2.6083	-3.0292	-2.8438	-2.7104	-2.8875	-2.8146	-2.7938	-3.2146	-2.6958	-3.1354	-2.8729	-2.7479	-3	-2.9229	-2.9271	49.153	42.363	47.447	80.849	120.154	30.498	247.817	249.011	87.376	194.131	-2.771	5.146	286.279	240.535	230.331	174.602	9.8839e-05	0.00077325	9.0881e-05	602.01	2.59e-05	3.9423e-05	675.42	109.47	5.9616e-06	4.7786e-06	151.68	35.594	21.611	4.8633	1.7836e-06	10.637	0.0020323	0.0022794	0.00066877	660.31	3.1189e-05	3.8023e-05	688.27	117.23	2.5417e-05	2.5796e-05	186.62	40.107	25.643	6.3133	2.5455e-05	14.236	238.301	-6.894	15.561	-46.426	71.970	202.088	-45.914	-40.528	40.545	51.890	-40.246	-34.387	-34.628	-29.575	82.364	-29.879	-8191	255	
33817.570	1	1	0	0	0.1722	0.11988	0.36323	0.27626	0.22605	0.16981	0.11372	0.27748	0.15566	0.10781	0.22398	0.040521	0.061224	0.065009	0.070525	0.21252	-2.5312	-2.6271	-2.9313	-2.8	-2.8167	-2.8479	-2.9292	-2.7917	-2.9083	-2.5771	-2.8083	-3.075	-2.5438	-2.9875	-2.9229	-2.8187	71.514	187.997	153.293	24.819	-9.558	21.243	268.531	-47.186	164.389	106.233	210.852	17.212	39.107	176.560	183.590	-15.089	0.00012076	0.00016054	0.000129	606.17	3.1039e-06	5.3062e-05	681.86	111.59	3.7106e-06	4.2626e-06	154.84	36.041	22.201	4.9039	2.5148e-06	11.254	0.0020917	0.002362	0.00068671	668.08	2.6365e-05	6.0648e-05	694.49	119	2.6566e-05	2.6709e-05	181.18	40.775	26.254	6.4501	2.6192e-05	15.251	108.564	8.894	76.534	-46.581	77.747	155.363	-45.759	-40.157	206.490	113.166	-40.414	-34.384	-35.702	-29.283	227.407	-29.453	-8191	255	
33817.668	1	1	0	0	0.18819	0.093912	0.11734	0.079349	0.088888	0.22268	0.29141	0.19356	0.1782	0.24676	0.21033	0.087068	0.25552	0.11418	0.31814	0.17515	-2.4583	-2.7729	-2.8542	-2.9813	-2.7771	-2.9875	-2.9333	-2.6271	-3.0187	-2.7646	-2.9813	-3.0812	-2.7771	-3.0271	-2.9354	-2.5438	35.788	-38.757	235.194	246.815	-36.472	24.972	158.424	181.201	-45.619	60.623	239.209	94.477	154.316	153.676	83.192	123.449	0.00027142	0.00033477	0.00010095	607.24	5.7043e-06	3.2523e-05	689.69	113.5	8.7406e-06	3.1638e-06	155.37	36.222	22.269	4.9095	1.7495e-06	10.78	0.0022039	0.0024407	0.00071154	677.88	2.7027e-05	4.8702e-05	704.34	121.28	2.7255e-05	2.7079e-05	190.16	41.093	26.326	6.4187	2.6479e-05	13.051	159.864	223.538	16.685	-46.516	10.558	149.675	-46.013	-40.875	159.284	184.182	-41.117	-34.742	-35.898	-29.625	150.160	-29.176	-8191	255	
33817.785	1	1	0	0	0.063428	0.14223	0.23985	0.12499	0.095099	0.14922	0.068817	0.27935	0.2716	0.050758	0.3665	0.12366	0.30597	0.19553	0.074188	0.19753	-2.6354	-2.6458	-2.4375	-2.9792	-2.6688	-2.8292	-3.1604	-2.6458	-3.0792	-2.8292	-2.7833	-3.0854	-2.6833	-2.8812	-2.8208	-2.6479	201.660	275.550	-15.372	176.856	55.198	91.476	256.108	126.438	164.603	35.595	178.422	299.472	-14.574	-5.300	-23.332	-17.677	0.00013822	0.00030338	7.3289e-05	612.43	6.1942e-06	5.8969e-05	687.4	112.76	6.4214e-06	4.1642e-06	156.82	36.01	22.569	4.9265	1.2344e-06	10.637	0.0031374	0.0024326	0.00070688	674.61	2.6947e-05	6.1465e-05	698.39	120.11	2.7392e-05	2.7037e-05	182.62	40.983	26.546	6.4706	2.6768e-05	12.746	50.213	23.233	225.495	-46.490	188.115	158.053	-45.953	-40.738	171.233	213.834	-40.540	-35.073	-35.328	-29.814	134.911	-28.591	-8191	255	
33817.859	1	1	0	0	0.048735	0.30028	0.07299	0.2779	0.041974	0.028517	0.07187	0.10965	0.25655	0.21488	0.099473	0.31421	0.13665	0.28346	0.21675	0.19207	-2.775	-2.7812	-2.7125	-2.9062	-2.6771	-2.9375	-3.0333	-2.6125	-2.9	-2.7896	-2.7021	-3.0667	-2.7854	-2.7625	-3.0708	-2.7396	124.170	12.319	178.632	144.856	-57.245	195.195	169.296	-58.393	251.384	116.421	143.167	205.419	51.944	37.351	-42.280	217.163	0.0013349	0.00095874	0.00012106	615.84	6.3463e-06	4.1934e-05	686.97	112.3	1.8385e-06	7.3052e-06	158.81	35.418	22.352	4.921	6.8837e-06	10.722	0.0047969	0.0024544	0.00069492	677.72	2.6474e-05	4.7923e-05	700.97	120.41	2.7074e-05	2.7139e-05	186.68	41.475	26.409	6.4512	2.6635e-05	12.758	269.245	26.853	224.515	-46.703	58.748	157.897	-45.896	-40.707	72.116	-58.009	-40.804	-34.240	-35.768	-30.283	99.328	-28.829	-8191	255	
33817.953	1	1	0	0	0.2759	0.22592	0.26138	0.10524	0.11843	0.10742	0.27233	0.10029	0.24294	0.28902	0.081987	0.17568	0.16945	0.03811	0.20069	0.1342	-2.5729	-2.75	-2.7062	-2.9104	-2.675	-3.0479	-3.1833	-2.8271	-2.9125	-2.9188	-2.6896	-2.9583	-2.7208	-2.8167	-3.0146	-2.6813	266.112	-32.112	286.549	246.513	20.743	137.200	270.676	231.243	163.889	142.157	13.199	293.407	-44.598	104.657	157.293	142.709	0.00091779	0.00020638	0.00010019	615.16	1.2356e-05	6.5451e-05	683.23	112.76	5.7514e-06	2.6332e-06	159.18	35.987	22.566	4.965	4.3025e-06	10.901	0.0037486	0.0024584	0.00068432	676.33	2.6393e-05	6.1334e-05	699.19	120.07	2.6999e-05	2.6928e-05	173.13	43.908	26.487	6.4814	2.6607e-05	12.875	296.455	159.933	133.142	-46.022	86.393	172.930	-46.088	-40.554	136.108	294.073	-40.464	-34.642	-35.626	-28.748	246.992	-28.447	-8191	255	
33818.074	1	1	0	0	0.074316	0.29278	0.062415	0.11516	0.095773	0.26675	0.22099	0.29404	0.052023	0.22925	0.062456	0.23942	0.11621	0.33673	0.075775	0.28892	-2.5083	-2.8792	-2.6917	-3.0875	-2.7958	-2.75	-3.1188	-2.7354	-3.1354	-3.0833	-2.6104	-2.9667	-2.8396	-2.7917	-3.0167	-2.5521	77.220	183.372	172.857	40.207	78.994	31.205	300.387	216.998	132.614	40.275	245.903	233.224	129.479	180.315	33.520	129.984	0.0013029	0.00082568	7.1741e-05	622.28	2.3873e-06	3.4447e-05	700.22	114.32	6.1342e-06	7.0258e-06	160.8	35.726	22.904	4.9271	5.5895e-06	10.999	0.0048288	0.0024555	0.00067064	684.07	2.6325e-05	4.8235e-05	711.92	122.3	2.6625e-05	2.6955e-05	172.64	48.293	26.833	6.4546	2.665e-05	12.84	291.159	163.153	257.162	-46.113	-51.529	171.105	-46.140	-40.428	114.033	277.567	-39.758	-35.946	-35.135	-29.213	91.817	-28.493	-8191	255	
33818.172	1	1	0	0	0.15206	0.093468	0.17949	0.1553	0.033838	0.18299	0.12174	0.38847	0.14652	0.27759	0.065577	0.25427	0.085461	0.089127	0.23796	0.10331	-2.5542	-2.9771	-2.6708	-3.1625	-2.7333	-2.8958	-2.9604	-2.7333	-2.9854	-3.0542	-2.9083	-2.9813	-2.8917	-2.8812	-3.0563	-2.5521	42.123	268.997	1.670	236.841	126.270	170.012	67.562	188.477	252.587	127.343	230.524	97.092	77.415	175.867	168.301	141.198	0.00093333	0.00091121	0.00018949	624.27	2.8942e-06	2.7361e-05	695.51	114.5	5.7052e-06	3.3401e-06	160.14	36.074	22.364	4.9342	6.3846e-06	10.907	0.0037518	0.0024664	0.00066873	688.09	2.6267e-05	5.309e-05	716	121.95	2.6611e-05	2.6994e-05	171.62	45.425	26.506	6.4375	2.6607e-05	12.796	298.303	-12.669	298.743	-46.742	144.865	95.855	-45.565	-40.567	-0.680	154.877	-40.004	-35.486	-34.960	-29.830	111.735	-28.451	-8191	255	
33818.266	1	1	0	0	0.19708	0.05651	0.24345	0.17925	0.18033	0.13624	0.29107	0.039225	0.19242	0.08356	0.20839	0.086894	0.13149	0.22492	0.099805	0.048627	-2.3958	-3.0333	-2.8354	-3.1063	-2.8688	-2.7667	-3.2042	-2.6604	-3.0542	-3.0167	-2.775	-2.975	-2.8833	-2.7729	-2.9479	-2.7021	233.754	242.937	-3.611	-43.057	255.085	59.147	226.678	205.394	164.628	34.546	240.988	9.382	202.957	280.625	10.890	282.964	0.0013113	0.00056792	0.00024853	614.09	4.9775e-06	1.1547e-05	692.88	112.71	5.3411e-06	3.3521e-06	160.49	36.286	22.776	5.0172	3.399e-06	10.835	0.0047664	0.0024666	0.00064707	679.24	2.6206e-05	2.9389e-05	726.81	121.14	2.6369e-05	2.6999e-05	171.44	48.209	26.605	6.4309	2.6645e-05	12.872	297.670	173.051	-24.180	-46.202	139.661	84.065	-45.889	-40.501	229.576	102.430	-40.011	-36.455	-35.787	-28.481	123.665	-28.636	-8191	255	
33818.363	1	1	0	0	0.12791	0.13965	0.089632	0.075319	0.12813	0.15478	0.1574	0.14966	0.22217	0.20315	0.18824	0.18422	0.11383	0.32956	0.17259	0.14852	-2.2854	-2.8208	-2.7521	-2.9854	-3.0521	-2.7417	-3.0792	-2.8208	-2.7479	-3.0563	-2.7	-3.0729	-3.0146	-2.7229	-3.1104	-2.7875	229.292	36.915	230.392	-11.572	265.232	-42.462	-0.294	129.138	212.134	283.257	217.660	291.260	-38.756	57.823	217.327	229.865	0.00089569	0.00019989	9.2172e-05	619.33	5.9308e-06	2.3125e-06	689.83	114.59	2.1389e-06	5.1398e-06	161.03	36.76	22.698	5.0691	4.5916e-06	10.779	0.0037226	0.0024415	0.00065651	682.28	2.6187e-05	2.6367e-05	747.53	121.57	2.563e-05	2.7107e-05	171.58	45.709	26.821	6.4536	2.681e-05	12.985	-31.745	115.626	179.348	-46.384	277.123	73.158	-45.788	-40.434	23.524	-19.166	-40.189	-35.819	-35.251	-29.081	281.838	-28.795	-8191	255	
33818.461	1	1	0	0	0.182	0.074024	0.21663	0.054987	0.081108	0.11697	0.12283	0.21722	0.014818	0.082461	0.22864	0.2413	0.40276	0.20268	0.27526	0.21216	-2.175	-3.0604	-2.7604	-2.8792	-2.8563	-2.7313	-3.1	-2.8833	-2.7021	-3.2708	-2.6979	-2.7417	-2.8583	-2.5187	-2.875	-2.8063	113.881	-1.113	162.023	266.320	185.657	58.455	14.347	101.990	294.335	236.791	-55.168	262.400	63.046	275.934	15.910	210.518	0.0014593	0.0035859	0.00015553	615.88	2.9863e-06	4.3907e-06	688.61	114.33	5.6046e-06	8.2812e-06	160.11	36.385	22.501	4.9653	2.4266e-06	10.739	0.0040445	0.0029126	0.00066223	682.55	2.6654e-05	2.6065e-05	729.75	120.63	2.5738e-05	2.7272e-05	170.7	48.029	26.516	6.4126	2.6575e-05	12.809	298.859	90.864	68.824	-46.531	203.542	103.716	-45.754	-40.372	100.684	166.035	-39.945	-37.136	-35.514	-29.760	149.721	-28.689	-8191	255	
33818.555	1	1	0	0	0.065196	0.083829	0.12696	0.17102	0.043584	0.18141	0.22495	0.085197	0.094137	0.028436	0.1446	0.079379	0.10619	0.21935	0.15238	0.075632	-2.2771	-3.0438	-2.7438	-2.8042	-2.9208	-2.7604	-3.0083	-2.9062	-2.6792	-3.0896	-2.7687	-2.8438	-2.9979	-2.7104	-2.7521	-2.9604	237.547	-15.078	125.702	148.373	177.105	217.519	43.707	82.675	117.355	212.879	261.139	184.030	261.183	287.955	115.620	210.565	0.0007304	0.0026048	0.00012026	612.65	1.7328e-06	3.9629e-06	683.25	112.26	5.2206e-06	6.8245e-06	157.87	36.291	22.447	4.8355	1.2093e-06	10.738	0.0022345	0.0038809	0.0006677	676.41	2.7004e-05	2.5981e-05	741.72	119.91	2.5488e-05	2.7445e-05	169.92	45.222	26.344	6.3774	2.6892e-05	12.824	290.007	93.077	127.030	-46.290	187.967	69.974	-45.184	-40.168	106.321	47.526	-40.005	-35.598	-35.501	-29.696	91.031	-28.153	-8191	255	
33818.676	1	1	0	0	0.044675	0.08871	0.10691	0.10986	0.09632	0.052682	0.088475	0.077438	0.2665	0.099165	0.2895	0.34657	0.23629	0.23948	0.15593	0.20639	-2.3312	-3.1667	-2.8146	-2.9208	-2.9062	-2.8333	-3.0375	-2.8042	-2.8854	-3.1729	-2.9896	-2.9875	-2.8333	-2.8958	-2.9271	-3.0187	139.192	139.023	267.111	-24.074	54.446	55.449	108.899	229.090	122.146	-32.567	276.904	194.571	180.745	217.898	27.715	-10.940	0.00010313	0.0073059	0.00017533	615.5	3.8254e-06	2.9474e-06	686.84	113.01	2.9002e-06	5.8053e-06	157.94	36.834	21.746	4.9251	5.0157e-06	10.902	0.0020357	0.0056428	0.00067259	676.63	2.6681e-05	2.6236e-05	728.68	120.68	2.527e-05	2.7751e-05	170.12	45.65	27.605	6.3817	2.6733e-05	12.92	-0.873	26.962	152.341	-46.688	69.633	70.425	-45.877	-41.008	241.899	66.083	-40.190	-35.592	-35.817	-29.881	108.614	-28.157	-8191	255	
33818.773	1	1	0	0	0.37786	0.08101	0.19505	0.32059	0.052661	0.16176	0.05215	0.029464	0.042995	0.23996	0.10929	0.12246	0.10569	0.087959	0.13531	0.33904	-2.3271	-3.2021	-2.8875	-2.7479	-2.9417	-2.6833	-2.9979	-3.1292	-2.6833	-3.0271	-3.0396	-2.7646	-3.0083	-2.7313	-2.7479	-2.9458	160.914	57.352	140.592	15.362	142.495	287.814	-29.581	265.602	127.114	252.444	249.248	180.639	65.348	22.778	189.547	227.049	5.6382e-05	0.0039048	0.00017205	617.04	1.5599e-06	2.7983e-06	683.66	113.26	7.095e-06	6.8399e-06	158.02	36.901	22.363	4.9699	1.0292e-05	10.733	0.002049	0.0044	0.00067079	672.32	2.7141e-05	2.6052e-05	740.66	120.48	2.5246e-05	2.744e-05	170.38	41.207	29.356	6.4068	2.6616e-05	12.906	-47.542	32.943	49.408	-46.105	6.641	94.978	-45.426	-40.588	169.504	-47.991	-40.094	-35.415	-35.842	-29.614	-31.440	-28.053	-8191	255	
33818.867	1	1	0	0	0.12427	0.05131	0.077058	0.089031	0.016762	0.0689	0.12522	0.27289	0.19717	0.089386	0.1092	0.094863	0.02256	0.16915	0.22629	0.15423	-2.3042	-3.0875	-2.9313	-2.7292	-2.9875	-2.9417	-2.9188	-3.0896	-2.7417	-2.9604	-3.0042	-2.6771	-2.9271	-2.9292	-2.7458	-3.0583	171.168	16.232	207.635	-9.092	154.877	-30.284	118.809	224.446	219.797	188.022	186.443	274.525	279.560	20.303	284.468	75.790	5.7271e-05	0.0075813	0.00014856	601.87	1.1284e-06	2.8518e-06	685.24	111.93	8.5938e-06	3.2603e-06	158.9	36.466	22.627	5.0282	2.3197e-06	10.84	0.0020387	0.0056817	0.0006814	668.12	2.7198e-05	2.6145e-05	724.24	119.78	2.5277e-05	2.7894e-05	170.99	41.246	32.731	6.5073	2.631e-05	12.898	78.513	48.973	231.111	-46.695	-4.541	70.071	-45.927	-40.048	101.583	152.618	-40.137	-34.421	-37.853	-29.661	53.424	-28.054	-8191	255	
33818.965	1	1	0	0	0.18687	0.12821	0.065228	0.41179	0.013228	0.033772	0.127	0.32858	0.07703	0.11907	0.23238	0.10209	0.20983	0.16411	0.24634	0.15481	-2.3375	-2.9437	-3.0021	-2.6375	-3.0833	-3.0021	-3.0812	-3.2562	-2.8333	-3.1375	-3.1167	-2.9021	-3.0854	-2.95	-2.9021	-3.1896	292.009	206.768	-51.232	294.481	-54.369	145.713	120.311	260.161	135.269	96.288	-33.596	172.847	153.817	100.751	275.692	215.725	0.00021468	0.0047828	0.00016625	614.43	4.4524e-06	4.9484e-06	690.78	109.97	1.9189e-06	1.2025e-06	159.35	36.352	22.751	4.9981	5.4258e-06	10.915	0.0020305	0.0044165	0.00069208	676.98	2.7457e-05	2.6744e-05	729.48	123.79	2.5401e-05	2.7114e-05	171.26	40.912	30.286	6.5025	2.5875e-05	13.012	141.761	42.157	75.854	-46.292	209.464	158.476	-45.689	-39.564	-44.658	186.850	-39.782	-34.487	-37.471	-29.762	45.809	-28.582	-8191	255	
33819.082	1	1	0	0	0.12748	0.22054	0.19903	0.34685	0.18029	0.2589	0.24315	0.38826	0.15688	0.1001	0.25518	0.20187	0.078811	0.05891	0.33433	0.19046	-2.5667	-2.8875	-3.0667	-2.7958	-2.9958	-2.9979	-2.9	-3.3104	-2.875	-2.7875	-3.1146	-2.75	-2.85	-3.1104	-2.8146	-3.0312	56.124	22.614	268.924	298.984	47.665	90.780	180.345	238.551	155.660	-31.838	-18.178	215.161	45.568	244.422	0.456	101.362	8.4747e-05	0.0063049	0.00021972	620.38	4.8546e-06	3.6515e-06	699.48	113.79	5.0712e-06	1.9093e-06	160.15	37.04	22.801	5.0936	6.3175e-06	10.784	0.0020729	0.0056911	0.00068994	682.41	2.7424e-05	2.6962e-05	713.67	130.02	2.6241e-05	2.7655e-05	172.55	41.383	32.806	6.5485	2.5698e-05	13.012	146.729	48.461	84.045	-46.648	34.395	272.245	-45.481	-39.949	118.112	229.330	-39.986	-34.767	-38.298	-29.334	295.229	-27.792	-8191	255	
33819.156	1	1	0	0	0.05389	0.22709	0.10365	0.17733	0.14866	0.067148	0.29601	0.11216	0.04148	0.082571	0.17277	0.2334	0.21248	0.16778	0.14318	0.025002	-2.4813	-2.7687	-3.0875	-2.7833	-2.9458	-2.9083	-2.9125	-3.0521	-2.9813	-2.925	-3.1146	-2.7458	-2.9979	-3.0708	-2.7646	-2.8979	-56.340	189.768	78.244	265.731	241.057	118.048	267.660	144.929	-46.608	202.423	254.267	104.307	199.636	31.365	-20.993	-35.407	0.00013369	0.0032863	7.8169e-05	618.73	7.0576e-06	6.0335e-06	701.37	112.42	6.0108e-06	5.1729e-06	160.28	36.464	22.767	5.0648	3.4736e-06	10.878	0.0020947	0.0044111	0.0006856	683.13	2.7601e-05	2.6849e-05	711.7	135.89	2.6377e-05	2.719e-05	172.2	41.161	30.405	6.4993	2.5461e-05	13.058	148.389	59.402	9.240	-46.658	268.471	100.841	-45.945	-40.506	55.992	97.889	-39.989	-34.762	-36.831	-29.403	38.896	-28.408	-8191	255	
33819.250	1	1	0	0	0.04586	0.15054	0.17558	0.085921	0.080875	0.15224	0.033193	0.12347	0.28129	0.094409	0.15635	0.14879	0.17659	0.14285	0.1275	0.15688	-2.4396	-2.6583	-2.8646	-2.6917	-2.9625	-2.9458	-2.9167	-3.1375	-3.05	-2.7687	-3.0125	-2.8563	-2.9125	-2.9562	-2.6354	-3.0208	107.773	-22.239	152.540	107.133	188.644	34.850	190.411	192.533	7.496	291.180	261.007	30.647	251.445	-53.290	295.314	273.632	0.00015661	0.0064119	0.0011604	620.98	2.4065e-06	8.5542e-06	698.83	113.83	1.8098e-06	5.3579e-06	161.07	37.016	22.971	5.0427	4.4244e-06	10.818	0.0021012	0.0043455	0.0009218	683.1	2.7267e-05	2.7038e-05	712.47	131.06	2.6486e-05	2.6747e-05	173.12	41.46	32.662	6.5228	2.5354e-05	12.988	71.481	3.462	110.943	-46.425	84.609	8.733	-45.806	-40.807	93.641	108.836	-40.034	-34.682	-37.759	-29.413	136.032	-28.436	-8191	255	
33819.348	1	1	0	0	0.10913	0.054881	0.25408	0.18577	0.1178	0.088538	0.024452	0.19048	0.093318	0.1655	0.12194	0.17144	0.20906	0.12556	0.19506	0.18961	-2.4813	-2.6917	-3.1917	-2.8063	-2.9646	-3.1854	-2.8458	-2.9104	-3.1125	-2.6875	-2.8896	-2.7979	-2.8896	-2.9396	-2.7854	-3.0583	272.158	41.932	100.713	228.988	57.854	286.229	159.500	61.927	25.914	134.784	-44.624	-41.276	204.386	3.730	67.922	105.904	9.4225e-05	0.00058361	0.00077809	612.91	2.3361e-06	5.3611e-06	695.69	111.45	7.5721e-06	1.2414e-06	159.37	36.731	23.056	5.0602	4.1814e-06	10.979	0.0020972	0.002416	0.0011669	675.59	2.6736e-05	2.7033e-05	705.51	134.99	2.6272e-05	2.6246e-05	172.31	41.385	30.379	6.5147	2.5686e-05	13.019	39.059	20.990	111.573	-46.242	259.739	127.170	-45.541	-40.671	112.700	16.445	-40.192	-34.643	-37.298	-29.544	15.099	-28.167	-8191	255	
33819.469	1	1	0	0	0.15852	0.070482	0.071886	0.24695	0.27323	0.10942	0.19814	0.23709	0.10241	0.28872	0.06616	0.18106	0.29358	0.086015	0.28535	0.072249	-2.3229	-2.6833	-2.8625	-2.8	-2.8167	-3.0312	-2.9229	-3.0167	-2.9104	-2.8396	-3.0187	-2.8729	-2.6479	-3.0646	-2.9875	-2.6917	122.323	247.570	49.887	198.007	295.193	145.481	138.868	227.944	39.887	180.600	-13.829	208.601	289.046	192.533	276.539	139.308	4.1129e-05	0.00045034	0.0016578	621.03	2.8832e-06	6.6962e-06	698.27	113.94	1.0713e-05	2.7587e-06	162.09	36.767	23.266	5.0334	4.0897e-06	10.835	0.0020971	0.0023936	0.0015841	681.84	2.6643e-05	2.7071e-05	712.62	131.45	2.6498e-05	2.6178e-05	173.72	41.518	29.965	7.1974	2.59e-05	12.946	-51.226	88.880	67.422	-46.386	272.238	100.108	-45.977	-40.306	242.025	58.452	-40.460	-33.837	-37.791	-29.848	71.021	-28.326	-8191	255	
33819.562	1	1	0	0	0.13539	0.14732	0.093201	0.32971	0.20472	0.14095	0.38257	0.1057	0.041074	0.06917	0.2693	0.024287	0.12831	0.058747	0.2228	0.097004	-2.4417	-2.8083	-3.0396	-2.8042	-2.7458	-2.9521	-2.7708	-2.7625	-2.9562	-2.7229	-3.0667	-3.0729	-2.7562	-2.875	-2.7479	-2.9104	278.212	225.211	98.499	244.769	291.558	-50.144	289.926	-33.124	198.556	71.709	261.586	291.388	270.606	200.664	-55.481	174.203	6.5691e-05	0.00015934	0.0012438	620.91	1.1409e-05	5.7218e-06	702.08	113.09	3.3867e-06	8.1646e-07	161.57	37.227	22.975	5.0552	4.9817e-06	10.892	0.0021131	0.0023689	0.0012331	683.71	2.611e-05	2.7264e-05	713.5	136.58	2.6503e-05	2.6201e-05	174.18	41.684	26.939	7.7211	2.601e-05	13.04	125.866	24.022	61.755	-46.053	17.558	224.805	-45.524	-41.082	50.331	236.501	-39.898	-34.912	-35.932	-29.935	-4.086	-28.902	-8191	255	
33819.660	1	1	0	0	0.21288	0.37918	0.059848	0.087665	0.13093	0.065176	0.049168	0.22671	0.28066	0.21371	0.091517	0.050242	0.055101	0.2466	0.063106	0.15853	-2.4958	-2.7104	-3.0042	-2.9729	-2.6521	-3.0812	-3.1167	-2.8375	-3.0312	-2.6667	-3.0604	-2.8625	-2.8063	-3.0354	-2.8083	-2.7833	301.263	159.214	225.775	100.681	221.872	-18.039	283.627	153.803	125.786	-21.531	254.670	277.469	39.595	178.658	119.521	-41.202	0.00010857	0.00077112	0.0017358	628.86	3.9699e-06	5.8566e-06	700.14	113.63	7.8972e-06	7.1577e-06	162.88	37.194	22.876	5.2682	2.6457e-06	10.939	0.0021036	0.0023996	0.0015904	688.26	2.5888e-05	2.7383e-05	713.07	131.38	2.6272e-05	2.6504e-05	174.12	41.762	26.918	8.6684	2.6416e-05	12.973	149.112	-10.880	75.867	-46.228	65.172	170.627	-45.973	-40.646	128.577	164.559	-39.721	-34.777	-35.596	-33.213	4.036	-28.722	-8191	255	
33819.758	1	1	0	0	0.17929	0.18703	0.11137	0.24061	0.052215	0.2404	0.11996	0.044195	0.19848	0.16644	0.16352	0.26762	0.11278	0.068951	0.068855	0.062091	-2.5938	-2.6354	-2.9271	-2.9667	-2.7646	-3.0208	-2.95	-2.7833	-3.0396	-2.9125	-2.9854	-3.0417	-2.7958	-2.9667	-2.9792	-2.9792	113.240	194.971	144.796	171.691	82.402	267.091	175.722	234.578	-40.621	299.444	78.622	-14.856	-55.128	188.344	235.860	281.253	7.8993e-05	0.00018957	0.0010772	625.7	5.8858e-07	4.8129e-06	703.19	115.6	5.1826e-05	3.0286e-06	162.53	36.937	23.04	5.1176	8.8051e-06	10.808	0.0021327	0.0024206	0.0012322	687.05	2.5916e-05	2.7737e-05	714.47	130.01	3.8408e-05	2.716e-05	173.57	41.652	26.859	7.8145	2.6672e-05	12.936	172.166	28.054	86.169	-46.935	6.795	179.419	-46.148	-41.444	222.262	255.531	-39.639	-35.215	-35.531	-30.990	39.061	-28.108	-8191	255	
33819.852	1	1	0	0	0.4149	0.10121	0.085132	0.18517	0.053041	0.17076	0.0094778	0.11693	0.046979	0.35536	0.25249	0.018825	0.16047	0.2495	0.091212	0.16736	-2.6646	-2.7188	-2.925	-3.1562	-2.6917	-3.1021	-3.0625	-2.8396	-3.0729	-2.7333	-3.0167	-2.9042	-2.5979	-2.9042	-2.8958	-2.8354	68.804	138.720	104.242	74.394	-19.421	224.167	202.984	53.990	137.590	135.786	153.043	240.538	151.227	122.838	227.965	287.362	0.00024123	0.00027023	0.0019679	623.43	3.38e-06	3.4057e-06	703.66	116.2	3.0152e-05	2.9253e-06	162.27	37.366	23.077	5.2445	1.0141e-05	10.884	0.0021803	0.0024576	0.0015696	686.28	2.6211e-05	2.7786e-05	715.73	123.51	4.6891e-05	2.7401e-05	175.15	42.062	27.177	8.6926	2.6911e-05	12.979	123.669	-14.209	86.896	-46.270	282.473	75.809	-46.078	-40.401	223.465	-46.289	-40.128	-35.239	-35.376	-30.979	10.834	-28.603	-8191	255	
33819.949	1	1	0	0	0.13889	0.12403	0.15766	0.26487	0.19594	0.25139	0.29936	0.33368	0.12485	0.14843	0.26062	0.25542	0.15176	0.20726	0.24811	0.11997	-2.6042	-2.9083	-2.9333	-2.9375	-2.7792	-2.8792	-2.9875	-2.7104	-3.2021	-2.7521	-2.9146	-3	-2.5458	-2.9667	-2.7	-2.8729	181.374	268.457	124.149	-51.964	284.955	199.696	-43.794	8.933	129.054	207.338	156.192	268.940	13.534	207.382	175.025	72.459	0.0001167	0.00074113	0.0010396	632.62	2.4572e-06	6.3153e-06	709.56	116.92	5.4802e-05	1.4047e-06	162.19	37.12	23.285	5.2569	2.9663e-06	10.785	0.0021726	0.0024727	0.0012296	693	2.6451e-05	2.8139e-05	720.88	124.13	6.0887e-05	2.7369e-05	174.43	41.893	27.16	7.827	2.6835e-05	12.929	230.725	58.701	89.599	-46.089	229.769	107.844	-46.056	-40.541	266.377	86.546	-40.043	-34.533	-36.132	-31.316	155.153	-28.223	-8191	255	
33820.043	1	1	0	0	0.093277	0.11336	0.058476	0.2395	0.22509	0.2065	0.12413	0.16616	0.26896	0.2297	0.030092	0.24187	0.02521	0.25584	0.10466	0.14647	-2.5167	-2.8083	-2.7562	-3.0583	-2.8833	-2.9604	-3.0729	-2.7458	-3.0792	-2.9562	-2.7021	-3.0854	-2.7229	-2.8292	-3.0958	-2.5729	206.154	166.077	9.574	281.620	24.215	35.382	297.136	-45.326	76.877	65.063	160.796	66.969	158.187	248.127	-24.724	240.750	6.2226e-05	0.00046326	0.0010445	607.08	3.4104e-06	5.2196e-06	705.27	116.39	4.3482e-05	6.4215e-06	163.06	36.909	23.296	5.3483	2.1203e-06	10.908	0.0021912	0.0024506	0.0010789	730.86	2.6974e-05	2.7434e-05	717.98	123.84	4.7793e-05	2.7462e-05	174.52	41.937	27.096	8.6654	2.6645e-05	12.93	92.642	24.590	20.946	-44.774	-26.706	48.412	-45.827	-40.575	268.834	159.182	-40.418	-35.291	-35.911	-31.762	-5.263	-28.769	-8191	255	
33820.164	1	1	0	0	0.57291	0.077949	0.17063	0.13193	0.20407	0.16264	0.32412	0.11975	0.11052	0.077951	0.049623	0.041604	0.27458	0.29874	0.15787	0.074859	-2.4917	-2.95	-2.7542	-2.8354	-2.9854	-2.9979	-3.0812	-2.8604	-2.9021	-2.9167	-2.725	-2.95	-2.8125	-2.7938	-3.0833	-2.8312	128.675	88.234	126.683	48.364	222.200	272.265	201.939	152.836	154.188	291.979	199.148	105.600	-8.204	-1.770	124.485	21.696	0.00016091	0.00087318	5.0496e-05	619.56	3.5659e-06	7.6472e-06	701.86	116.01	6.5385e-05	3.3484e-06	162.75	36.897	22.848	5.2239	3.4932e-06	10.901	0.002186	0.0024719	0.00067182	754.02	2.6895e-05	2.713e-05	716.78	123.72	6.112e-05	2.7779e-05	174.02	41.865	26.9	7.7714	2.6721e-05	12.866	95.820	206.021	280.868	-44.935	143.687	25.362	-45.980	-40.565	275.860	148.056	-40.471	-35.195	-35.619	-31.571	195.577	-29.438	-8191	255	
33820.258	1	1	0	0	0.13185	0.2321	0.15545	0.14154	0.32673	0.12432	0.052072	0.19021	0.15704	0.11792	0.054262	0.27368	0.18216	0.15469	0.10367	0.15446	-2.5146	-2.9104	-2.7104	-3.1875	-2.8708	-2.7708	-3.0125	-2.6917	-2.9896	-3.0479	-2.6896	-3.0312	-2.7521	-2.6979	-3.2625	-2.8	-28.464	127.754	232.626	243.490	-35.323	198.739	230.021	167.320	279.691	127.325	5.073	166.660	217.027	90.604	-25.031	-13.875	8.7812e-05	0.00057751	6.2756e-05	615.01	2.2951e-06	2.8737e-06	698.49	114.1	3.8332e-05	7.7515e-06	161.21	36.746	22.789	5.3904	1.2416e-05	10.896	0.0021692	0.0024429	0.00066179	792.87	2.6876e-05	2.674e-05	711.33	122.12	4.7524e-05	2.732e-05	172.88	41.775	26.895	7.3232	4.1976e-05	12.962	282.135	120.954	-3.635	-44.467	88.104	63.599	-45.955	-40.607	291.013	107.870	-40.315	-34.520	-35.716	-31.872	117.585	-28.828	-8191	255	
33820.355	1	1	0	0	0.17082	0.11522	0.25249	0.11004	0.17365	0.052042	0.18178	0.13785	0.16937	0.19377	0.28107	0.11723	0.1521	0.10885	0.10152	0.14143	-2.5292	-2.8792	-2.6021	-3.0958	-2.8833	-2.625	-3.2188	-2.8479	-2.7562	-3.0125	-2.575	-2.7833	-2.7375	-2.6937	-2.8146	-2.9167	132.883	39.782	118.520	174.921	154.742	288.046	-58.302	166.615	-0.110	48.158	-37.596	80.997	-5.090	235.005	157.130	288.461	0.00020418	0.0010104	8.4897e-05	615.83	3.8044e-06	5.1347e-06	698.98	114.66	6.0446e-05	2.5162e-06	161.01	36.677	23.094	4.9258	3.8308e-05	10.859	0.0021396	0.0024492	0.00066375	751.83	2.687e-05	2.6071e-05	713.02	122.83	6.0749e-05	2.7074e-05	172.76	41.672	26.932	6.4394	4.7493e-05	12.972	53.940	97.093	-1.085	-45.492	-4.282	66.538	-45.803	-40.488	281.320	99.075	-40.066	-34.678	-35.756	-30.211	47.637	-28.573	-8191	255	
33820.453	1	1	0	0	0.34692	0.35382	0.090247	0.029416	0.35552	0.21636	0.059497	0.021391	0.076804	0.23953	0.092939	0.22341	0.23636	0.31187	0.20605	0.34674	-2.3708	-2.9875	-2.6958	-3.0375	-2.9604	-2.4292	-3.0771	-2.7438	-2.7146	-2.8312	-2.6875	-2.9	-2.925	-2.6583	-3.0271	-2.8396	261.840	-34.651	166.129	110.999	150.540	117.916	8.376	278.921	280.869	293.505	245.501	102.450	3.543	171.828	22.355	-16.424	4.2166e-05	0.00050732	0.00028237	615.63	7.2402e-06	3.957e-06	699.43	114.93	3.9125e-05	4.3138e-06	161.32	36.819	22.721	5.0144	6.502e-05	10.942	0.0021263	0.002468	0.00066543	795.98	2.6626e-05	2.5987e-05	714.8	122.85	4.6586e-05	2.7132e-05	172.92	41.774	26.815	6.4936	6.1926e-05	12.968	32.783	60.215	161.650	-44.791	61.683	-12.467	-45.818	-41.090	-29.712	80.129	-40.198	-34.224	-35.284	-30.231	51.474	-28.723	-8191	255	
33820.547	1	1	0	0	0.080067	0.15949	0.17183	0.16734	0.1151	0.15915	0.11375	0.20516	0.15364	0.184	0.18554	0.071907	0.12706	0.2215	0.072445	0.10138	-2.3833	-2.9313	-2.7562	-2.7792	-2.9188	-2.6708	-3.1083	-2.9042	-2.8271	-3.2125	-2.6562	-2.9562	-3.1458	-2.7083	-3.1583	-2.9021	39.151	115.977	178.650	91.064	261.824	-32.586	173.194	31.420	263.219	228.620	66.091	295.585	251.270	263.244	291.094	127.179	7.5579e-05	0.00026976	0.00014636	607.03	1.5784e-06	4.431e-06	697.86	115.13	4.5079e-05	3.8724e-05	162.23	36.05	23.006	5.0247	3.9272e-05	10.789	0.0020561	0.0024608	0.00066772	748.38	2.687e-05	2.5994e-05	711.95	122.57	3.788e-05	4.461e-05	172.33	41.243	26.801	6.4422	4.7508e-05	12.938	128.315	229.637	-40.021	-45.991	12.299	55.789	-45.667	-40.503	-31.904	254.821	-40.378	-35.083	-35.515	-29.831	60.036	-29.099	-8191	255	
33820.645	1	1	0	0	0.071109	0.2648	0.23293	0.11458	0.20594	0.10899	0.15579	0.12146	0.034519	0.019627	0.1277	0.18205	0.085074	0.03723	0.098522	0.15734	-2.35	-2.9417	-2.7708	-2.9437	-3.0792	-2.7917	-3.0771	-2.9771	-2.85	-3.0833	-2.8875	-2.6208	-3.0229	-2.6833	-3.0917	-2.9396	288.634	263.677	181.154	52.442	33.710	-37.750	222.810	181.878	86.836	150.401	235.175	249.939	-13.392	149.811	5.925	195.553	5.3565e-05	0.00059326	0.00019436	617.07	2.7057e-06	3.3235e-06	702.48	115.41	4.2691e-06	4.2209e-05	161.68	37.261	23.081	5.1312	5.9563e-05	10.91	0.0020443	0.0025047	0.00067572	794.23	2.6601e-05	2.6288e-05	714.09	122.9	2.5494e-05	4.8889e-05	173.85	41.727	27.054	6.518	6.1689e-05	12.967	38.158	271.164	244.342	-45.320	140.555	-47.900	-45.551	-40.298	156.852	-49.001	-40.232	-34.927	-35.731	-29.751	70.444	-28.587	-8191	255	
33820.766	1	1	0	0	0.11887	0.25994	0.10164	0.13677	0.18477	0.16477	0.024173	0.19764	0.079032	0.20839	0.2745	0.11771	0.17813	0.20031	0.19612	0.37728	-2.3396	-3.0042	-2.8312	-2.7083	-2.9396	-2.8229	-2.9646	-2.9479	-2.7125	-2.9771	-2.9042	-2.7479	-3.0062	-2.7438	-3.0042	-2.9458	-26.353	210.074	-4.729	248.146	300.992	113.963	204.302	75.705	-17.691	7.000	-38.486	26.642	-38.414	-25.243	-20.693	158.746	4.9221e-05	0.00042925	0.00013989	626.89	5.1719e-06	4.8366e-06	705.66	115.34	1.9639e-06	6.0015e-05	163.61	37.639	22.82	5.1426	3.6566e-05	10.871	0.0020263	0.0024991	0.00067345	747.86	2.6553e-05	2.6088e-05	717.83	123.46	2.5575e-05	6.4159e-05	174.46	41.801	27.022	6.5578	4.7927e-05	13.049	274.067	240.117	4.299	-46.405	-36.309	26.321	-45.948	-40.563	65.086	-41.989	-40.345	-34.759	-35.737	-30.459	84.834	-29.043	-8191	255	
33820.859	1	1	0	0	0.17435	0.085753	0.18034	0.16216	0.048011	0.11656	0.28149	0.28825	0.19346	0.13956	0.17598	0.38816	0.20392	0.19691	0.18697	0.035861	-2.3271	-2.9	-2.9208	-2.7167	-3.0667	-2.8229	-3.0271	-3.0479	-2.8312	-2.8646	-3.0167	-2.8542	-3.0854	-2.8563	-2.9042	-3.0687	-51.748	226.220	139.371	227.984	267.218	84.388	71.200	102.053	206.299	114.346	230.540	73.226	-6.137	122.300	-50.300	215.328	5.4075e-05	0.00066943	8.3685e-05	631.77	6.5699e-05	5.9441e-06	703.18	116.45	9.0893e-06	3.533e-05	163.44	36.998	23.127	5.0712	7.3618e-05	11.115	0.0020247	0.0025375	0.00067229	719.9	4.5667e-05	2.6292e-05	717.96	124.08	2.5201e-05	4.9164e-05	174.75	41.493	27.195	6.5178	6.1411e-05	13.087	84.852	275.384	-48.171	-46.016	205.586	295.463	-46.008	-40.313	64.606	-23.402	-40.466	-35.363	-35.900	-30.388	81.876	-28.897	-8191	255	
33820.957	1	1	0	0	0.22617	0.20924	0.098595	0.052162	0.20508	0.36111	0.19676	0.17299	0.20743	0.07186	0.058842	0.17808	0.20827	0.084411	0.079022	0.15064	-2.2229	-2.9875	-2.8812	-2.5667	-3.0396	-2.7917	-2.9938	-3.0875	-2.6333	-2.8937	-3.0042	-2.8125	-3.0208	-2.9042	-2.6958	-3.0792	-11.829	252.612	279.560	43.630	76.985	227.706	4.202	181.246	255.046	135.637	299.354	289.723	159.385	7.881	59.545	-8.918	4.0637e-05	0.00051753	5.9331e-05	625.19	3.3034e-05	4.3916e-06	702.9	116.51	6.6913e-06	5.7961e-05	163.64	37.194	23.392	5.0508	4.5644e-05	11.069	0.0020461	0.0024972	0.00066216	684.67	4.866e-05	2.6939e-05	717.72	124.34	2.5659e-05	6.3774e-05	175.01	41.586	27.304	6.5546	4.4556e-05	13.039	217.112	29.972	122.867	-46.577	202.501	-35.221	-45.760	-40.748	144.236	-26.435	-40.149	-34.651	-35.530	-29.934	57.332	-28.888	-8191	255	
33821.027	1	1	0	0	0.20079	0.073008	0.14192	0.072499	0.24768	0.049786	0.24147	0.25037	0.1053	0.29226	0.14785	0.16918	0.30179	0.23986	0.1385	0.33759	-2.3521	-3.0375	-3.0708	-2.7979	-3.0125	-2.9354	-3.0062	-3.1104	-2.8104	-2.8354	-2.9917	-2.8229	-2.95	-2.9042	-2.7021	-3.0375	44.374	89.971	201.219	-11.066	10.964	70.632	137.853	0.047	-3.024	227.611	140.222	227.832	278.040	274.842	-22.992	-49.243	9.3692e-05	0.00087812	0.00012619	632.6	5.5988e-05	1.9053e-06	708.12	116.41	8.6718e-06	2.9812e-05	163.82	37.593	23.126	5.1549	6.1851e-05	10.887	0.0020361	0.0024786	0.00067289	685.03	6.2493e-05	2.6698e-05	718.34	124.65	2.5829e-05	4.9263e-05	174.85	41.944	27.464	6.5684	3.4741e-05	14.911	52.485	-8.218	21.247	-46.739	213.827	30.999	-45.766	-40.606	114.502	-18.476	-40.051	-34.164	-34.736	-29.960	49.093	-27.247	-8191	255	
33821.148	1	1	0	0	0.13779	0.22309	0.11574	0.10212	0.12907	0.16783	0.099872	0.17224	0.0086327	0.054084	0.12906	0.077039	0.12136	0.16245	0.35595	0.14126	-2.2812	-2.9062	-2.9208	-2.7229	-3.0229	-2.8875	-2.8812	-3.0938	-2.8937	-2.9625	-3.0854	-2.8438	-3.1292	-2.9375	-2.6188	-3.0417	189.061	130.568	165.255	76.559	247.287	73.042	73.925	261.084	-50.344	103.559	178.270	89.287	-27.975	41.572	197.013	193.470	4.1392e-05	0.00028525	9.7688e-05	622.72	3.6413e-05	1.7462e-06	705.65	116.57	7.0411e-06	7.2552e-05	163.94	37.564	23.116	5.1299	9.2796e-06	11.24	0.0020671	0.0024476	0.00067379	682.58	4.8347e-05	2.6624e-05	716.18	124.36	2.5836e-05	6.3066e-05	175.17	41.947	27.278	6.5916	2.5536e-05	14.937	16.332	134.759	298.630	-46.048	215.047	29.162	-45.895	-40.307	91.293	-13.323	-40.005	-34.613	-35.514	-29.198	43.588	-27.487	-8191	255	
33821.242	1	1	0	0	0.11929	0.072707	0.25028	0.16263	0.18771	0.14192	0.14137	0.20815	0.18496	0.29455	0.23041	0.11366	0.10791	0.16266	0.16803	0.24706	-2.4542	-2.8521	-3.0625	-2.8563	-3.0417	-2.9958	-2.8667	-3.1333	-2.9854	-2.8937	-3.0479	-2.8438	-3.0646	-3.1063	-2.8271	-3.1063	248.145	293.936	204.900	9.051	275.414	-20.351	138.942	262.136	69.303	223.402	259.391	-38.477	290.871	152.268	116.111	212.327	0.00011218	0.00017997	5.5562e-05	627.98	5.6613e-05	1.0423e-06	707.46	117.31	7.8054e-06	3.394e-05	164.86	37.631	23.404	5.2011	1.9923e-06	11.382	0.002076	0.0024099	0.00067824	688.23	6.311e-05	2.6341e-05	719.97	125.55	2.5527e-05	4.5344e-05	176.58	42.232	27.571	6.6442	2.5295e-05	16.287	106.472	197.740	228.942	-47.088	209.276	182.189	-45.750	-40.491	-49.820	13.780	-40.527	-34.692	-35.730	-29.245	50.201	-26.986	-8191	255	
33821.340	1	1	0	0	0.11654	0.17776	0.11471	0.1327	0.094728	0.081539	0.19982	0.11803	0.10523	0.3375	0.055057	0.26792	0.088906	0.16029	0.18256	0.050819	-2.6417	-2.7583	-3.0687	-2.8354	-2.8271	-3.05	-2.9042	-2.9583	-2.8896	-2.7896	-3.0583	-2.8125	-2.7583	-3.1312	-2.8542	-3.0771	225.234	-37.188	132.994	260.931	-11.103	68.246	260.259	262.568	-34.912	207.141	259.259	-5.921	253.398	-42.508	-37.264	229.155	0.00016591	0.000667	0.00011037	626.57	3.3658e-05	2.1137e-06	705.39	117.31	5.52e-06	5.4256e-05	163.05	37.392	23.209	5.1163	3.7256e-06	11.094	0.0020798	0.0023576	0.00067469	686.73	4.8854e-05	2.658e-05	718.22	124.84	2.5607e-05	3.3968e-05	188.6	41.805	27.202	6.5656	2.5421e-05	14.916	117.301	3.587	-52.493	-46.216	224.390	108.846	-45.954	-40.616	225.641	13.421	-40.389	-35.347	-35.356	-29.298	-18.058	-27.055	-8191	255	
33821.438	1	1	0	0	0.1171	0.30859	0.052096	0.12282	0.18274	0.082097	0.063194	0.21828	0.2171	0.14398	0.22681	0.1388	0.048991	0.13621	0.24731	0.097926	-2.5563	-2.8333	-3.1104	-2.9021	-2.7812	-3.0625	-2.7	-2.9583	-2.9604	-2.7229	-3.0875	-2.8771	-2.925	-3.15	-2.8417	-3.0604	-41.919	-51.451	-35.871	170.428	62.302	142.541	35.526	-29.489	-24.003	232.758	-51.304	255.949	253.349	144.043	20.330	210.898	0.00013236	0.00029478	0.00032346	620.39	6.02e-05	1.6798e-06	703.91	116.72	5.356e-06	9.6592e-06	164.2	37.165	22.895	5.0554	1.5609e-06	11.191	0.0020499	0.002364	0.00069726	682.55	6.1534e-05	2.639e-05	715.04	124.08	2.581e-05	2.6721e-05	187.62	41.815	27.037	6.5503	2.5561e-05	16.123	62.017	257.923	-16.176	-46.059	233.912	264.509	-45.769	-40.500	152.379	133.784	-40.990	-34.606	-35.679	-29.903	10.759	-25.893	-8191	255	
33821.559	1	1	0	0	0.045445	0.088019	0.21605	0.05613	0.038335	0.16721	0.040464	0.18562	0.23093	0.18837	0.064709	0.17497	0.084261	0.14323	0.11568	0.25294	-2.5333	-2.7083	-2.9771	-3.0146	-2.7271	-3.15	-2.9125	-2.9125	-2.9708	-2.6229	-3.0333	-2.9521	-2.975	-3.1333	-2.7625	-2.8563	299.587	125.877	12.987	6.002	35.518	150.902	223.902	289.297	83.290	34.260	263.424	286.149	38.077	300.224	100.384	285.128	4.1097e-05	0.00033419	0.00025614	625.5	7.1232e-06	3.1503e-05	707.5	116.04	7.2974e-06	3.2451e-06	166.03	37.502	23.66	5.1254	4.5921e-06	11.061	0.0020637	0.002364	0.00069947	684.9	4.3463e-05	2.8371e-05	718.66	124.37	2.5769e-05	2.6188e-05	196.55	42.077	27.341	6.6665	2.5705e-05	14.988	297.612	19.965	-46.512	-47.000	-16.434	236.350	-45.681	-40.313	272.856	52.184	-41.003	-34.558	-35.857	-29.811	175.294	-26.474	-8191	255	
33821.629	1	1	0	0	0.19954	0.32686	0.11965	0.12211	0.12014	0.02848	0.16003	0.1104	0.27506	0.25899	0.14455	0.16711	0.14236	0.17549	0.25047	0.12069	-2.7333	-2.8375	-3.0979	-2.9417	-2.8625	-3.1542	-2.9313	-2.8021	-3.1	-2.7354	-3.1292	-3.0458	-2.9125	-3.1542	-2.8312	-2.8146	229.198	207.927	81.382	247.285	-54.969	101.695	238.688	231.279	115.106	201.549	296.090	13.698	188.973	-47.130	-44.621	-28.890	0.00014171	0.000287	6.5085e-05	626.51	1.4533e-05	6.7409e-05	706.3	116.12	3.5921e-06	2.6864e-06	165.87	37.683	23.809	5.2312	4.3626e-06	11.402	0.0020687	0.0024023	0.0007046	688.87	3.1863e-05	5.1294e-05	717.02	125.05	2.6041e-05	2.6298e-05	189.22	42.448	27.65	6.7334	2.5947e-05	16.264	289.234	68.381	-11.577	-46.611	-41.655	233.341	-45.953	-40.706	255.523	39.890	-40.450	-34.993	-35.484	-29.528	93.193	-26.503	-8191	255	
33821.723	1	1	0	0	0.33185	0.12878	0.16081	0.31977	0.061502	0.09121	0.35015	0.14274	0.24463	0.053498	0.13989	0.13109	0.14837	0.21507	0.09632	0.25285	-2.5208	-2.8542	-2.875	-2.9813	-2.9167	-2.9833	-2.8937	-2.7292	-3.0104	-2.6333	-3.1646	-2.9813	-2.7729	-2.9625	-2.8229	-2.7562	237.977	41.759	-49.178	-30.283	289.894	45.096	190.827	20.101	-5.446	263.007	57.893	-35.625	146.603	-22.688	53.564	-37.213	0.00013824	0.00019247	9.275e-05	629.05	2.6609e-06	3.7346e-05	707.22	118.66	9.0943e-06	6.1732e-06	166.88	37.479	23.374	5.1251	6.0782e-06	11.297	0.0020948	0.0024052	0.00068726	689.46	2.5705e-05	4.8982e-05	720.15	126.05	2.6371e-05	2.6493e-05	197.46	42.158	27.331	6.6591	2.5818e-05	14.385	225.027	-43.640	44.170	-46.285	51.010	260.270	-45.876	-40.871	241.611	50.804	-41.135	-34.880	-35.432	-30.115	165.692	-27.941	-8191	255	
33821.844	1	1	0	0	0.065847	0.094884	0.085622	0.23	0.14048	0.063417	0.19497	0.15361	0.18122	0.21767	0.039385	0.087269	0.15287	0.20004	0.31911	0.040338	-2.6292	-2.7229	-2.7917	-2.9688	-2.5563	-3.0354	-2.725	-2.7229	-3.1854	-2.8417	-2.7687	-3.0792	-2.7542	-2.8917	-2.8354	-2.7167	-39.573	249.309	-44.028	292.939	158.275	159.411	76.370	283.493	60.709	-51.797	297.937	56.592	195.022	266.575	190.419	27.700	0.0008778	0.00016227	0.00021919	626.08	7.8013e-06	5.6471e-05	704.94	116.93	4.0834e-06	2.8678e-06	164.35	37.237	23.053	5.0849	1.9201e-06	11.404	0.0022882	0.0024116	0.00068502	687.82	2.5804e-05	6.3111e-05	714.34	124.01	2.6496e-05	2.6236e-05	186.27	41.607	26.978	6.5783	2.5498e-05	13.295	76.275	149.169	239.712	-46.379	103.574	264.218	-45.865	-40.611	73.682	39.528	-40.862	-35.054	-35.830	-29.196	48.736	-27.648	-8191	255	
33821.941	1	1	0	0	0.051559	0.2479	0.19564	0.25058	0.16117	0.10455	0.138	0.35421	0.3626	0.02361	0.037898	0.089341	0.3001	0.12797	0.32789	0.14415	-2.7438	-2.8458	-2.6958	-3.0604	-2.8479	-2.8833	-2.9979	-2.7083	-3.1312	-2.7208	-2.9708	-2.9437	-2.6729	-2.9208	-2.7812	-2.7667	266.921	284.455	113.304	19.607	226.724	9.225	214.150	210.662	119.899	140.084	12.341	188.508	291.733	-52.768	123.221	-31.352	0.0013594	0.00020024	7.9923e-05	623.14	3.0817e-06	4.4853e-05	695.8	114.71	5.3847e-06	5.0735e-06	165.63	37.258	23.215	5.0422	3.519e-06	10.976	0.0040804	0.0024093	0.00066885	680.11	2.576e-05	4.8654e-05	708.17	122.39	2.6356e-05	2.6349e-05	194.74	41.796	27.077	6.5999	2.5742e-05	12.924	56.633	250.282	262.404	-46.483	-18.272	280.087	-45.877	-40.348	116.064	120.915	-40.585	-34.962	-35.843	-30.184	40.893	-28.472	-8191	255	
33822.035	1	1	0	0	0.27514	0.042923	0.13007	0.11461	0.14454	0.10111	0.24851	0.013864	0.045032	0.15331	0.25976	0.13942	0.25473	0.13816	0.14564	0.35107	-2.6417	-2.8896	-2.7583	-3.0271	-2.5938	-2.9437	-3.0854	-2.6688	-3.0833	-2.775	-2.8979	-3.0812	-2.8333	-2.9562	-3.0812	-2.6771	223.851	117.636	254.427	98.516	142.965	291.798	207.578	39.078	29.192	275.773	216.023	210.442	-51.142	249.777	-3.472	37.067	0.00075799	0.00024604	0.00013281	618.32	4.4905e-06	5.2907e-05	687.71	115.4	5.7214e-06	3.0194e-06	163.14	36.903	22.879	5.0535	2.6324e-06	10.887	0.0037501	0.0023901	0.00066105	677.17	2.5542e-05	6.1638e-05	702.64	121.67	2.6485e-05	2.6174e-05	181.38	42.061	26.804	6.5103	2.5743e-05	12.836	33.567	85.485	127.503	-47.032	199.238	274.796	-45.773	-40.743	194.253	94.996	-40.475	-34.716	-35.535	-29.352	99.325	-28.410	-8191	255	
33822.156	1	1	0	0	0.18534	0.085588	0.35593	0.070847	0.088109	0.31579	0.11131	0.39653	0.18229	0.03244	0.10582	0.20813	0.16665	0.18247	0.096224	0.082935	-2.4042	-2.9062	-2.7812	-3.2083	-2.575	-2.7229	-3.0458	-2.6813	-2.8875	-2.8063	-2.7521	-3.0021	-2.6646	-2.9688	-2.9958	-2.8375	160.858	10.223	188.734	118.165	-2.843	255.559	-55.943	226.720	59.349	-39.223	-39.806	284.967	183.842	-30.434	164.452	-26.496	0.001593	0.00070872	9.2914e-05	620.07	1.4364e-06	3.801e-05	695.56	114.85	2.7141e-06	5.2839e-06	163.82	36.996	22.854	4.9481	1.8081e-06	10.738	0.0048229	0.0023964	0.0006481	680.68	2.578e-05	4.7541e-05	708.53	121.88	2.6549e-05	2.6192e-05	173.68	46.82	26.657	6.4234	2.571e-05	12.772	35.673	7.346	-17.086	-46.371	150.194	286.822	-45.672	-40.440	-17.435	156.399	-40.829	-34.596	-35.432	-29.370	51.476	-28.678	-8191	255	
33822.254	1	1	0	0	0.14916	0.27552	0.10076	0.37356	0.058639	0.23111	0.27292	0.097379	0.35387	0.33277	0.10981	0.0092931	0.18806	0.56077	0.13097	0.038293	-2.625	-2.9521	-2.6458	-3.0812	-2.8187	-2.8417	-3.1979	-2.7521	-2.9042	-3.1229	-2.85	-3.1354	-2.9646	-2.7417	-3.0062	-2.8771	292.582	145.698	-48.349	279.603	26.212	124.670	227.720	299.898	43.054	90.953	41.077	-1.078	57.840	-49.402	81.527	248.692	0.00075404	0.00040973	0.00011276	610.05	1.6754e-06	5.9197e-05	694.72	114.42	2.5011e-06	2.9513e-06	159.6	37.133	22.53	4.9063	3.3836e-06	10.717	0.0037474	0.002381	0.00064475	676.9	2.5608e-05	6.1213e-05	706.77	121.79	2.5957e-05	2.6219e-05	171.32	45.203	26.421	6.359	2.6215e-05	12.704	36.935	150.202	33.296	-46.361	156.717	284.077	-45.577	-40.658	299.319	80.895	-40.133	-35.013	-35.200	-29.781	50.053	-28.856	-8191	255	
33822.324	1	1	0	0	0.13604	0.33587	0.22892	0.030242	0.21655	0.11092	0.3039	0.1272	0.16123	0.17314	0.013962	0.090107	0.17966	0.20098	0.34179	0.059599	-2.4146	-2.8583	-2.6667	-3.0479	-2.75	-2.6979	-3.0167	-2.7188	-3.1375	-3.0896	-2.8146	-3.025	-2.8	-2.7417	-3.125	-2.7604	-5.323	74.918	49.492	229.483	231.012	88.386	252.931	300.855	-21.268	32.184	181.082	134.478	227.438	121.746	146.644	-6.314	0.0013662	0.00075143	5.2727e-05	611.23	3.5746e-06	1.7144e-05	678.66	111.29	6.9265e-06	3.5053e-06	156.82	36.746	22.045	4.8036	7.4786e-06	10.511	0.004753	0.0023449	0.00064232	668.59	2.5541e-05	3.9548e-05	697.88	118.61	2.5348e-05	2.6014e-05	167.4	47.203	25.846	6.2362	2.5794e-05	12.519	42.912	279.454	63.352	-46.157	165.633	-17.654	-46.067	-39.987	128.608	174.883	-40.343	-35.258	-35.653	-29.970	1.828	-28.864	-8191	255	
33822.445	1	1	0	0	0.33511	0.087504	0.16167	0.25329	0.32963	0.17243	0.26812	0.049679	0.1401	0.11486	0.21287	0.19765	0.15309	0.13936	0.033511	0.13021	-2.5062	-3.1042	-2.7479	-3.0229	-2.7417	-2.8521	-3.1125	-2.7938	-2.8271	-2.95	-2.725	-2.8417	-2.8021	-2.6562	-3.0979	-2.9437	239.816	95.614	66.249	192.149	-44.115	195.927	244.475	95.145	140.300	154.821	14.832	282.593	208.375	155.867	-28.092	75.474	0.00098536	0.0010398	0.00011221	602.89	3.0959e-06	4.5929e-05	680.38	111.9	1.7988e-06	6.0975e-06	158.29	36.664	22.527	4.8852	1.3567e-06	10.796	0.0036629	0.0023692	0.00064808	667.09	2.5523e-05	2.647e-05	726.62	118.98	2.4905e-05	2.6381e-05	168.9	44.934	26.097	6.3185	2.6429e-05	12.65	47.310	47.630	187.894	-46.524	92.720	-6.327	-46.094	-40.377	274.832	180.235	-39.798	-34.779	-36.023	-29.738	13.869	-28.415	-8191	255	
33822.539	1	1	0	0	0.18492	0.21732	0.14622	0.14584	0.24174	0.082774	0.087894	0.17386	0.18164	0.15345	0.11214	0.057414	0.20607	0.24836	0.3128	0.26191	-2.4458	-3.0312	-2.7646	-2.9396	-2.9604	-2.7146	-3.0583	-2.8625	-2.8688	-3.1437	-2.7292	-2.9792	-2.8771	-2.7938	-3.0396	-2.8	40.256	-22.223	142.973	163.544	255.652	237.715	-33.030	208.806	76.451	78.588	238.109	220.849	167.894	202.256	177.338	15.716	0.0012727	0.00069391	0.00024931	597.16	5.2323e-06	6.537e-06	674.11	111.27	4.5467e-06	3.1676e-06	157.29	36.617	22.316	4.9206	6.1598e-06	10.64	0.0047399	0.002392	0.00064714	659.59	2.5653e-05	2.5289e-05	713.57	118.17	2.5238e-05	2.6542e-05	168.62	47.189	26.026	6.2921	2.6076e-05	12.568	60.187	270.010	298.862	-45.867	45.665	156.550	-45.840	-40.206	25.265	91.273	-39.954	-35.187	-35.028	-30.640	20.959	-28.797	-8191	255	
#DATA ENDS
