BOXY.EXE: ISS Imagent and Oximeter Data Acquisition Program Version 0.80
Ascii Record File

#ACQ INFORMATION
2  Detector Channels 
16  External MUX Channels 
1  Auxiliary Channels 
5000  Waveform (CCF) Frequency (Hz)
1  Waveforms Skipped 
30  Waveforms Averaged 
1  Cycles Averaged 
16  Acquisitions per Waveform 
10.0806  Updata Rate (Hz) 

#FILE INFORMATION
TRUE -- External MUX Channel results are PARSED.
FALSE -- AC DC and Phase are NOT grouped.
TRUE -- Companion Program Settings File CREATED.
FALSE -- AC data not excluded
FALSE -- DC data not excluded
FALSE -- Phase data not excluded
FALSE -- Auxillary Chn. data not excluded
Tab delimiters

#CALIBRATION STATE
TRUE -- Waveform Calibration Values APPLIED.


#AUX CALIBRATION VALUES
Val Type	aux-1	

Term	1.0000e+00	
Factor	0.0000e+00	


#WF CALIBRATION VALUES
A = Detector Channel
Val Type	A-AC1	A-AC2	A-AC3	A-AC4	A-AC5	A-AC6	A-AC7	A-AC8	A-AC9	A-AC10	A-AC11	A-AC12	A-AC13	A-AC14	A-AC15	A-AC16	A-DC1	A-DC2	A-DC3	A-DC4	A-DC5	A-DC6	A-DC7	A-DC8	A-DC9	A-DC10	A-DC11	A-DC12	A-DC13	A-DC14	A-DC15	A-DC16	A-Ph1	A-Ph2	A-Ph3	A-Ph4	A-Ph5	A-Ph6	A-Ph7	A-Ph8	A-Ph9	A-Ph10	A-Ph11	A-Ph12	A-Ph13	A-Ph14	A-Ph15	A-Ph16	

Term	0.00000e+00	0.00000e+00	0.00000e+00	0.00000e+00	0.00000e+00	0.00000e+00	0.00000e+00	0.00000e+00	0.00000e+00	0.00000e+00	0.00000e+00	0.00000e+00	0.00000e+00	0.00000e+00	0.00000e+00	0.00000e+00	0.00000e+00	0.00000e+00	0.00000e+00	0.00000e+00	0.00000e+00	0.00000e+00	0.00000e+00	0.00000e+00	0.00000e+00	0.00000e+00	0.00000e+00	0.00000e+00	0.00000e+00	0.00000e+00	0.00000e+00	0.00000e+00	0.00000e+00	0.00000e+00	0.00000e+00	0.00000e+00	0.00000e+00	0.00000e+00	0.00000e+00	0.00000e+00	0.00000e+00	0.00000e+00	0.00000e+00	0.00000e+00	0.00000e+00	0.00000e+00	0.00000e+00	0.00000e+00	
Factor	1.00000e+00	1.00000e+00	1.00000e+00	1.00000e+00	1.00000e+00	1.00000e+00	1.00000e+00	1.00000e+00	1.00000e+00	1.00000e+00	1.00000e+00	1.00000e+00	1.00000e+00	1.00000e+00	1.00000e+00	1.00000e+00	1.00000e+00	1.00000e+00	1.00000e+00	1.00000e+00	1.00000e+00	1.00000e+00	1.00000e+00	1.00000e+00	1.00000e+00	1.00000e+00	1.00000e+00	1.00000e+00	1.00000e+00	1.00000e+00	1.00000e+00	1.00000e+00	X	X	X	X	X	X	X	X	X	X	X	X	X	X	X	X	

B = Detector Channel
Val Type	B-AC1	B-AC2	B-AC3	B-AC4	B-AC5	B-AC6	B-AC7	B-AC8	B-AC9	B-AC10	B-AC11	B-AC12	B-AC13	B-AC14	B-AC15	B-AC16	B-DC1	B-DC2	B-DC3	B-DC4	B-DC5	B-DC6	B-DC7	B-DC8	B-DC9	B-DC10	B-DC11	B-DC12	B-DC13	B-DC14	B-DC15	B-DC16	B-Ph1	B-Ph2	B-Ph3	B-Ph4	B-Ph5	B-Ph6	B-Ph7	B-Ph8	B-Ph9	B-Ph10	B-Ph11	B-Ph12	B-Ph13	B-Ph14	B-Ph15	B-Ph16	

Term	0.00000e+00	0.00000e+00	0.00000e+00	0.00000e+00	0.00000e+00	0.00000e+00	0.00000e+00	0.00000e+00	0.00000e+00	0.00000e+00	0.00000e+00	0.00000e+00	0.00000e+00	0.00000e+00	0.00000e+00	0.00000e+00	0.00000e+00	0.00000e+00	0.00000e+00	0.00000e+00	0.00000e+00	0.00000e+00	0.00000e+00	0.00000e+00	0.00000e+00	0.00000e+00	0.00000e+00	0.00000e+00	0.00000e+00	0.00000e+00	0.00000e+00	0.00000e+00	-1.89518e+02	-1.23593e+02	-1.25496e+02	-1.81679e+02	-7.61103e+01	-6.24902e+01	-1.55738e+02	-1.62015e+02	-8.38926e+01	-6.66045e+01	-1.71022e+02	-1.71488e+02	-1.82271e+02	-1.77129e+02	-7.76859e+01	-1.50166e+02	
Factor	3.40093e-05	1.64242e-04	4.24187e-05	4.50345e-01	1.35262e-06	1.43726e-06	1.64758e-01	5.55694e-02	1.59219e-06	1.39930e-06	8.73404e-02	2.91543e-02	2.39755e-02	8.51859e-03	1.51915e-06	1.23768e-02	5.84871e-06	6.87391e-06	1.90808e-06	2.31325e-01	7.49402e-08	7.54082e-08	8.06156e-02	2.88414e-02	7.34411e-08	7.61242e-08	4.39244e-02	1.47014e-02	1.25749e-02	4.46564e-03	7.38727e-08	6.28510e-03	X	X	X	X	X	X	X	X	X	X	X	X	X	X	X	X	



#DISTANCE SETTINGS
A = Detector Channel
A-1	A-2	A-3	A-4	A-5	A-6	A-7	A-8	A-9	A-10	A-11	A-12	A-13	A-14	A-15	A-16	

2.5000e+00	3.0000e+00	2.5000e+00	3.0000e+00	2.0000e+00	3.0000e+00	1.5000e+00	3.0000e+00	3.0000e+00	3.0000e+00	3.0000e+00	3.0000e+00	3.0000e+00	3.0000e+00	1.5000e+00	3.0000e+00	

B = Detector Channel
B-1	B-2	B-3	B-4	B-5	B-6	B-7	B-8	B-9	B-10	B-11	B-12	B-13	B-14	B-15	B-16	

1.0000e+01	1.0000e+01	1.0000e+01	1.4400e+00	1.0000e+01	1.0000e+01	1.5100e+00	1.9400e+00	1.0000e+01	1.0000e+01	1.9900e+00	2.4900e+00	2.4100e+00	2.9000e+00	1.0000e+01	2.9800e+00	




#DATA BEGINS
time	group	step	mark	flag	A-AC1	A-AC2	A-AC3	A-AC4	A-AC5	A-AC6	A-AC7	A-AC8	A-AC9	A-AC10	A-AC11	A-AC12	A-AC13	A-AC14	A-AC15	A-AC16	A-DC1	A-DC2	A-DC3	A-DC4	A-DC5	A-DC6	A-DC7	A-DC8	A-DC9	A-DC10	A-DC11	A-DC12	A-DC13	A-DC14	A-DC15	A-DC16	A-Ph1	A-Ph2	A-Ph3	A-Ph4	A-Ph5	A-Ph6	A-Ph7	A-Ph8	A-Ph9	A-Ph10	A-Ph11	A-Ph12	A-Ph13	A-Ph14	A-Ph15	A-Ph16	B-AC1	B-AC2	B-AC3	B-AC4	B-AC5	B-AC6	B-AC7	B-AC8	B-AC9	B-AC10	B-AC11	B-AC12	B-AC13	B-AC14	B-AC15	B-AC16	B-DC1	B-DC2	B-DC3	B-DC4	B-DC5	B-DC6	B-DC7	B-DC8	B-DC9	B-DC10	B-DC11	B-DC12	B-DC13	B-DC14	B-DC15	B-DC16	B-Ph1	B-Ph2	B-Ph3	B-Ph4	B-Ph5	B-Ph6	B-Ph7	B-Ph8	B-Ph9	B-Ph10	B-Ph11	B-Ph12	B-Ph13	B-Ph14	B-Ph15	B-Ph16	aux-1	digaux	

32774.152	1	1	0	256	0.1484	0.19521	0.044997	0.15421	0.1279	0.2703	0.19685	0.09586	0.21518	0.10012	0.12392	0.25778	0.085182	0.25749	0.35996	0.09541	-2.3438	-2.8292	-2.9417	-2.6208	-3.025	-2.7271	-2.8792	-2.9958	-2.6625	-2.8542	-3.0271	-2.7479	-2.8375	-2.8896	-2.6458	-3.0271	46.401	42.430	251.261	290.561	96.536	23.215	328.805	57.718	355.486	169.067	28.372	364.117	119.487	342.772	259.965	337.362	0.00034448	0.00021546	9.5147e-05	1294.6	2.4684e-06	3.0053e-06	1362.8	261.62	3.4249e-06	1.8757e-06	322.29	90.394	71.906	20.647	4.3608e-06	28.916	0.00017329	0.00013953	3.8563e-05	1269.3	1.6574e-06	1.4884e-06	1339.7	257.9	1.6527e-06	1.5566e-06	320.4	90.372	71.627	20.808	1.5852e-06	29.128	92.793	131.581	116.157	30.712	180.656	199.684	30.957	38.323	183.581	180.798	37.646	44.476	44.892	51.972	173.698	51.191	-8191	255	
32774.246	1	1	0	0	0.35112	0.12553	0.069812	0.14505	0.079272	0.035661	0.089937	0.0091856	0.18663	0.082974	0.13351	0.11921	0.040848	0.11427	0.39476	0.20671	-2.3729	-2.7583	-2.8333	-2.7333	-2.8667	-2.9083	-2.6146	-3.175	-2.7521	-2.7146	-3.075	-2.9479	-2.7583	-2.8729	-2.5958	-3.2104	357.681	165.612	370.816	215.010	379.852	162.680	118.256	67.534	70.257	89.100	327.240	148.086	115.394	272.314	160.159	43.677	0.0004035	0.00023304	0.00010219	1294.9	2.3458e-06	3.1274e-06	1365.4	261.08	2.7074e-06	3.8752e-06	323.99	91.068	71.618	20.809	2.7332e-06	28.964	0.00017756	0.00014197	3.997e-05	1271.1	1.6687e-06	1.555e-06	1342.3	258.8	1.6391e-06	1.6184e-06	320.77	90.673	71.575	20.951	1.5923e-06	29.168	85.567	100.624	90.371	30.993	194.628	192.637	31.039	38.036	133.472	189.714	37.946	44.532	44.739	51.974	176.310	51.559	-8191	255	
32774.344	1	1	0	0	0.20517	0.24471	0.23329	0.27556	0.17692	0.3089	0.36695	0.045719	0.095287	0.027265	0.17847	0.14014	0.18566	0.12519	0.02446	0.11075	-2.1917	-2.5771	-3.0375	-2.7542	-2.825	-2.8771	-2.8104	-3.0229	-2.7521	-2.6312	-3.0354	-2.6354	-2.8854	-3.1021	-2.6437	-2.9771	228.470	124.216	358.675	46.438	327.285	227.310	315.727	270.449	82.426	45.326	27.681	30.703	317.725	338.943	197.968	369.616	0.00037035	0.000301	5.4651e-05	1308	1.7788e-06	2.8632e-06	1367.7	261.85	2.9433e-06	2.5194e-06	324.55	91.455	72.104	20.724	3.2973e-06	29.011	0.00018232	0.00014359	4.0229e-05	1277.9	1.6546e-06	1.5258e-06	1345.6	259.01	1.6639e-06	1.5345e-06	322.33	91.083	71.99	20.94	1.5881e-06	29.249	85.715	115.201	108.451	31.382	200.767	178.278	30.990	38.449	158.595	164.820	37.928	44.654	44.668	51.723	144.971	51.498	-8191	255	
32774.441	1	1	0	0	0.29343	0.25834	0.30173	0.19324	0.15812	0.032719	0.14074	0.23645	0.095474	0.039725	0.43643	0.23036	0.14278	0.21215	0.17166	0.30053	-2.3583	-2.5792	-2.9313	-2.8271	-2.7208	-3.025	-2.975	-2.875	-2.8	-2.7	-2.9958	-2.625	-2.8354	-3.1083	-2.6917	-2.8646	104.547	47.310	181.204	151.272	283.374	289.142	316.388	372.021	113.132	49.494	96.421	33.532	160.669	335.609	101.012	363.721	0.00035631	0.00027588	8.9209e-05	1313	2.6797e-06	2.4963e-06	1373.7	264.03	3.9284e-06	2.0003e-06	326.89	92.688	73.091	20.884	2.5126e-06	29.122	0.00017998	0.00014987	4.1628e-05	1281.7	1.6398e-06	1.6507e-06	1352	261.05	1.8089e-06	1.6444e-06	324.28	91.831	72.571	21.111	1.7382e-06	29.431	91.468	112.865	97.896	30.984	186.848	155.237	31.055	38.139	153.492	173.592	37.374	44.742	44.966	51.359	166.834	51.495	-8191	255	
32774.535	1	1	0	0	0.082265	0.28525	0.017196	0.19606	0.35126	0.23199	0.38461	0.27492	0.12084	0.12668	0.036119	0.3344	0.2943	0.11095	0.083347	0.067271	-2.4688	-2.6042	-2.9729	-2.825	-2.6771	-2.8229	-2.7229	-2.9167	-2.925	-2.5812	-2.7292	-2.8667	-2.5083	-2.85	-2.8104	-2.7833	96.073	311.584	84.576	226.876	140.731	119.854	343.013	370.425	102.170	352.299	378.004	184.082	290.598	291.251	347.877	23.852	0.00037419	0.00026859	6.7795e-05	1320.5	2.8745e-06	3.0742e-06	1383.9	265.11	4.3327e-06	2.9375e-06	328.88	92.006	73.215	20.923	3.3994e-06	29.308	0.00018966	0.00015418	4.713e-05	1287	1.8479e-06	1.7763e-06	1362.5	262.28	1.8249e-06	1.8125e-06	325.87	91.867	72.8	21.219	1.768e-06	29.632	87.566	119.479	118.111	30.753	173.912	185.610	30.844	38.015	184.841	167.397	37.659	44.530	44.662	51.653	172.312	50.953	-8191	255	
32774.633	1	1	0	0	0.35113	0.34324	0.15991	0.13818	0.055286	0.13698	0.20789	0.083659	0.15967	0.13744	0.14426	0.18058	0.30036	0.15414	0.11391	0.36504	-2.5854	-2.5958	-2.9042	-2.9729	-2.6125	-3.0146	-2.8021	-2.8625	-2.7375	-2.8979	-2.9271	-2.8792	-2.4646	-2.925	-2.8208	-2.8333	330.626	184.812	344.414	76.601	217.201	95.319	245.617	157.455	219.731	194.221	352.165	227.244	373.302	342.841	216.848	82.256	0.00036536	0.0002972	7.32e-05	1321.5	3.7699e-06	2.4387e-06	1387.6	265.89	3.028e-06	1.8629e-06	330.98	92.672	74.097	21.211	4.1663e-06	29.34	0.00019453	0.000162	4.6168e-05	1295.7	1.7324e-06	1.7958e-06	1368	263.88	1.8819e-06	1.7264e-06	327.73	92.437	73.357	21.417	1.7516e-06	29.805	86.093	95.531	71.250	30.882	150.372	166.790	30.946	38.322	182.827	135.144	37.972	44.164	44.596	51.628	148.038	51.230	-8191	255	
32774.754	1	1	0	0	0.17378	0.087612	0.31115	0.39888	0.089738	0.17814	0.22506	0.2762	0.040268	0.14517	0.26338	0.24007	0.073182	0.17093	0.06288	0.11039	-2.5604	-2.5229	-2.7729	-2.8896	-2.5896	-2.9458	-2.9708	-2.7417	-2.9208	-2.8167	-3.0812	-3.0062	-2.7208	-3.0083	-2.9521	-2.5833	34.298	84.732	111.065	310.877	190.091	271.040	310.431	262.761	59.590	152.919	369.037	339.670	321.547	280.400	216.429	194.793	0.00039991	0.00028055	8.7383e-05	1326.3	3.648e-06	2.3465e-06	1389.9	268.42	4.1392e-06	2.1505e-06	332.56	92.33	73.73	21.21	2.8296e-06	29.606	0.00019518	0.00015796	4.4737e-05	1299.1	1.8159e-06	1.8158e-06	1371.4	265.67	1.8512e-06	1.7391e-06	329.03	92.86	73.508	21.493	1.7634e-06	29.876	87.644	106.515	126.973	30.965	179.767	171.074	31.267	38.081	184.134	195.367	37.485	44.233	44.644	51.701	180.279	51.093	-8191	255	
32774.848	1	1	0	0	0.13266	0.23225	0.06549	0.20859	0.087012	0.22086	0.1679	0.23724	0.27433	0.18867	0.21384	0.1675	0.33712	0.071819	0.085328	0.24602	-2.4313	-2.6083	-3.05	-2.9521	-2.75	-2.9667	-3.0167	-2.8917	-3.0604	-2.5792	-2.8854	-2.9917	-2.8104	-2.8833	-2.9396	-2.7562	141.123	241.834	276.129	23.449	195.014	189.794	367.055	333.416	105.521	350.748	321.974	177.276	314.381	365.500	294.353	259.573	0.00036746	0.00041696	6.7511e-05	1330.6	3.574e-06	1.8458e-06	1404.7	269.06	4.507e-06	1.5134e-06	334.95	92.897	74.329	21.444	4.1178e-06	29.917	0.00019798	0.00015635	4.5563e-05	1304.7	1.7708e-06	1.7982e-06	1379.3	266.74	1.9534e-06	1.7333e-06	330.88	93.184	73.851	21.532	1.838e-06	30.078	85.311	120.028	155.456	31.012	180.730	163.559	30.952	38.212	163.037	119.700	37.923	44.635	44.976	51.201	163.627	50.952	-8191	255	
32774.945	1	1	0	0	0.29295	0.12654	0.28906	0.1466	0.17238	0.21167	0.10176	0.1016	0.16897	0.20102	0.16204	0.18025	0.17371	0.30189	0.16803	0.017376	-2.5708	-2.7583	-2.6813	-3.15	-2.5354	-2.9208	-2.9021	-2.9604	-2.9208	-2.7146	-2.6125	-2.9375	-2.8	-2.7417	-2.8417	-2.75	236.586	32.714	242.659	314.764	260.390	197.576	310.771	318.505	207.782	359.733	60.438	317.451	317.395	359.609	204.434	332.864	0.00040942	0.00033642	6.224e-05	1330.4	2.3428e-06	2.3215e-06	1402.9	270.35	4.7191e-06	3.8265e-06	333.96	93.211	74.46	21.57	3.9228e-06	30.056	0.00019013	0.00016197	4.6382e-05	1308.1	1.7656e-06	1.8351e-06	1383.6	267.82	1.9032e-06	1.8666e-06	331.06	93.527	74.269	21.69	1.9131e-06	30.202	92.115	121.869	90.107	31.041	216.027	199.883	30.957	37.865	178.708	182.516	37.598	44.517	44.612	51.754	205.646	50.976	-8191	255	
32775.043	1	1	0	0	0.23466	0.11099	0.22058	0.060935	0.055426	0.10826	0.35293	0.21077	0.14163	0.18599	0.18798	0.16892	0.14975	0.20113	0.087534	0.10736	-2.6437	-2.7854	-2.8312	-3.1188	-2.8854	-2.9625	-3.2	-2.8292	-2.9437	-2.7938	-2.8542	-3.0146	-2.7333	-2.8042	-3.0062	-2.8854	233.987	151.769	287.254	316.481	187.814	114.239	279.813	372.955	258.262	142.765	216.566	202.463	205.892	123.473	59.086	52.156	0.00040175	0.00047158	6.497e-05	1345.3	2.3793e-06	3.084e-06	1410.2	272.44	3.8886e-06	2.0764e-06	335.96	94.407	74.608	21.668	2.6761e-06	30.052	0.00020814	0.00016926	4.9805e-05	1320.5	1.9653e-06	1.9303e-06	1392.4	270.13	2.0518e-06	1.9507e-06	333.21	94.08	74.622	21.837	1.9305e-06	30.358	89.905	99.410	106.732	31.010	170.536	209.921	30.995	38.142	146.599	188.812	38.111	44.530	44.571	51.666	180.120	51.086	-8191	255	
32775.137	1	1	0	0	0.2776	0.27512	0.21205	0.12133	0.30992	0.071423	0.05898	0.3448	0.1858	0.32806	0.17016	0.06295	0.18118	0.137	0.069838	0.11901	-2.6104	-2.6833	-2.8083	-3.0146	-2.5938	-2.7292	-3.1625	-2.7438	-2.8458	-2.7208	-2.6521	-2.9979	-2.6979	-2.8438	-2.9313	-2.7687	340.216	40.918	376.354	290.103	36.843	244.008	41.487	354.513	227.745	202.398	321.375	112.493	361.841	158.925	376.561	272.523	0.00040343	0.0002737	0.00016491	1368.2	2.5479e-06	2.9499e-06	1421.5	273.59	4.8732e-06	3.08e-06	336.67	94.286	75.064	21.672	3.4571e-06	30.306	0.00020645	0.00016907	4.6764e-05	1328.8	1.8649e-06	1.8327e-06	1400.1	270.79	2.0303e-06	1.892e-06	334.01	94.116	74.748	21.866	1.9136e-06	30.404	83.927	85.908	116.938	31.205	176.895	172.827	30.897	38.128	156.737	172.036	37.704	44.404	44.685	51.553	181.645	51.245	-8191	255	
32775.230	1	1	0	0	0.28475	0.11251	0.1207	0.084386	0.11571	0.2226	0.22507	0.14543	0.35422	0.25243	0.12751	0.18637	0.31592	0.17532	0.14812	0.11328	-2.5458	-2.8	-2.5687	-2.9917	-2.7896	-2.8375	-3.1771	-2.9708	-2.7542	-2.975	-2.7396	-3.0792	-2.9125	-2.7896	-2.9229	-2.7667	253.342	262.296	337.031	366.987	48.120	290.294	375.885	285.376	345.903	56.515	61.290	364.343	291.249	242.527	81.693	165.462	0.00041612	0.00029672	5.1422e-05	1353.3	1.8403e-06	3.3378e-06	1425.9	274.93	4.9376e-06	4.7138e-06	336.81	94.86	74.716	21.628	2.4238e-06	30.222	0.0002084	0.00017384	4.6569e-05	1327.3	1.9338e-06	1.8524e-06	1401.3	271.36	1.9724e-06	1.9106e-06	333.57	94.508	74.831	21.844	1.9593e-06	30.383	86.444	103.949	114.878	31.287	207.543	204.034	30.789	38.073	161.138	208.582	37.613	44.198	44.624	51.829	162.788	51.292	-8191	255	
32775.352	1	1	0	0	0.11795	0.16205	0.15984	0.23244	0.29425	0.1299	0.28527	0.21104	0.22699	0.030561	0.29377	0.18284	0.10497	0.1766	0.058073	0.13274	-2.5125	-2.8604	-2.5896	-2.8958	-2.825	-2.7083	-2.9708	-2.8917	-2.9021	-2.8854	-2.5208	-2.9875	-2.8896	-2.6479	-2.8833	-2.7292	300.909	265.030	370.749	378.341	324.229	38.519	339.275	338.668	153.952	68.242	297.333	190.459	226.524	38.784	87.399	251.276	0.00040801	0.00042157	0.00012753	1358.1	3.6357e-06	8.4777e-07	1424.8	273.05	4.5047e-06	1.5261e-06	337.12	94.658	75.385	21.697	3.6035e-06	30.253	0.00020079	0.00017341	4.9181e-05	1327.1	1.9341e-06	1.8588e-06	1403	271.55	2.0476e-06	1.95e-06	333.21	94.738	75.092	21.905	2.0358e-06	30.471	89.695	123.993	119.346	31.176	166.078	128.548	30.931	37.658	162.868	172.464	38.111	44.308	44.734	51.635	176.724	51.009	-8191	255	
32775.449	1	1	0	0	0.22856	0.16317	0.25987	0.045895	0.19302	0.085572	0.37679	0.22327	0.011287	0.075276	0.040031	0.1069	0.20619	0.22704	0.14831	0.029235	-2.5438	-2.8312	-2.4437	-3.1063	-2.7938	-2.5521	-3.1729	-2.9437	-2.8167	-2.8458	-2.7	-2.8625	-2.9292	-2.7042	-2.9875	-2.825	258.047	95.582	31.341	350.423	247.378	41.401	316.638	379.934	279.617	374.390	132.008	61.229	121.460	76.070	266.972	166.723	0.00035948	0.00028464	0.0001007	1363.4	3.0554e-06	4.3224e-06	1423.5	275.08	3.6913e-06	3.2659e-06	339.51	95.326	75.468	21.778	7.3576e-07	30.141	0.00021119	0.00018582	5.1622e-05	1334.4	2.0696e-06	1.9817e-06	1405.7	272.9	2.1179e-06	2.0363e-06	336.13	94.807	75.344	21.98	2.0949e-06	30.53	89.438	106.521	127.199	31.049	184.594	150.815	30.989	38.077	161.244	193.225	37.640	44.459	44.709	51.244	140.832	50.817	-8191	255	
32775.547	1	1	0	0	0.16097	0.10686	0.22262	0.21031	0.15701	0.15433	0.37535	0.20271	0.086425	0.22932	0.099021	0.070129	0.078246	0.092048	0.016176	0.15779	-2.3708	-2.8729	-2.5396	-2.7625	-2.7667	-2.6396	-3.0938	-2.9271	-2.6896	-2.8854	-2.7313	-2.9	-3.0646	-2.5958	-3.0146	-3.0354	154.536	297.251	283.377	88.153	148.224	340.672	310.472	221.306	69.146	194.082	348.144	120.438	122.798	328.928	238.743	41.482	0.00039359	0.00038931	7.5246e-05	1364	3.0237e-06	2.8746e-06	1434.6	276.24	3.4315e-06	3.8916e-06	338.72	95.556	75.974	21.839	4.1743e-06	30.634	0.00021515	0.00019155	4.8819e-05	1339.8	2.1584e-06	2.0121e-06	1413.4	273.6	2.181e-06	2.109e-06	336.09	95.446	75.822	22.09	2.1014e-06	30.763	90.178	98.106	83.889	31.081	163.253	182.560	30.905	37.627	162.143	164.597	37.648	44.265	44.614	51.192	183.032	50.488	-8191	255	
32775.617	1	1	0	0	0.23818	0.056742	0.054767	0.22966	0.27074	0.2012	0.075508	0.16547	0.3239	0.1275	0.060138	0.37658	0.22523	0.2284	0.14258	0.033972	-2.225	-3.0396	-2.6042	-2.6813	-2.8375	-2.4354	-3.2021	-2.8521	-2.6958	-3.1562	-2.8167	-2.7208	-2.9917	-2.6542	-2.925	-3.0271	77.577	280.087	216.334	292.793	52.665	313.409	280.123	198.233	156.597	40.712	329.370	41.891	371.611	29.765	350.090	186.006	0.0004332	0.00024665	0.00010731	1382.3	3.1727e-06	3.5616e-06	1437.6	278.15	4.8248e-06	3.3261e-06	340.12	96.209	76.717	22.055	5.8429e-06	30.381	0.00022184	0.00019692	4.9952e-05	1348.4	2.1675e-06	1.9846e-06	1418.5	275.58	2.1338e-06	2.1711e-06	337.74	95.814	76.144	22.183	2.2214e-06	30.792	91.802	153.131	124.684	30.905	159.148	171.003	30.844	38.067	168.928	156.475	37.707	44.627	44.615	51.465	162.289	50.849	-8191	255	
32775.738	1	1	0	0	0.14677	0.083651	0.31918	0.090585	0.13882	0.26639	0.31556	0.31113	0.3391	0.053364	0.11989	0.19146	0.25373	0.11174	0.2341	0.070223	-1.975	-3.075	-2.6625	-2.6646	-3.0104	-2.7313	-3.2042	-3	-2.7021	-3.15	-2.7146	-2.7417	-3.0521	-2.8312	-2.8479	-3.0062	151.332	316.668	209.552	347.540	315.769	130.254	316.946	339.991	170.827	207.225	349.525	258.145	108.479	377.136	379.237	374.887	0.00043249	0.00039791	0.00010242	1381.2	5.363e-06	4.307e-06	1452.2	278.91	7.2799e-06	3.1088e-06	341.4	97.126	77.037	22.299	1.5131e-06	30.746	0.00021977	0.00020012	5.3363e-05	1353.1	2.2555e-06	2.0671e-06	1428.1	276.27	2.2921e-06	2.268e-06	339.06	96.582	76.664	22.415	2.2436e-06	31.131	88.294	120.263	109.203	31.107	188.918	202.937	30.892	37.957	182.170	193.965	37.910	44.478	44.430	51.302	123.534	50.971	-8191	255	
32775.836	1	1	0	0	0.047854	0.28201	0.34371	0.20982	0.12227	0.053319	0.20352	0.17849	0.093951	0.039431	0.22104	0.21771	0.19908	0.18817	0.17327	0.11066	-2.1729	-2.9688	-2.7687	-2.6646	-3.0646	-2.6813	-2.9292	-3.1271	-2.7438	-2.8417	-2.8667	-2.6937	-2.8438	-2.7562	-2.875	-2.975	315.844	107.507	94.115	292.616	296.676	293.903	341.800	289.583	29.813	193.811	226.174	356.392	87.497	362.215	295.228	66.430	0.0004201	0.00021593	4.5878e-05	1388.2	3.8373e-06	3.5716e-06	1459.6	281.05	4.463e-06	1.8223e-06	344.63	96.98	77.01	22.363	4.3477e-06	31.185	0.00023091	0.00020569	5.5736e-05	1360.5	2.3555e-06	2.2333e-06	1435.2	278.32	2.3448e-06	2.3134e-06	342.14	97.048	77.078	22.586	2.3398e-06	31.295	84.078	80.030	126.866	30.745	168.815	172.099	30.975	37.945	179.828	166.561	38.103	44.271	44.346	51.154	175.083	50.651	-8191	255	
32775.930	1	1	0	0	0.10321	0.1016	0.19602	0.26688	0.13235	0.22667	0.35102	0.33277	0.048292	0.1374	0.17098	0.12304	0.10972	0.17741	0.11796	0.1311	-2.2	-2.9	-2.8271	-2.7396	-2.8583	-2.7687	-3.0229	-2.9229	-2.9333	-3.1354	-2.9271	-2.75	-2.9042	-2.9125	-2.4875	-2.8875	271.989	122.168	286.354	333.420	81.168	343.802	302.422	378.869	166.273	29.566	334.330	86.863	176.012	357.095	130.909	75.810	0.00040495	0.00047898	0.00015189	1399.7	2.0287e-06	3.7026e-06	1465.9	283.17	2.7849e-06	4.181e-06	345.72	96.756	77.554	22.452	5.2015e-06	30.993	0.00022373	0.00021557	5.9178e-05	1367.5	2.4278e-06	2.2657e-06	1441.8	280.2	2.3415e-06	2.3486e-06	343.54	97.17	77.306	22.661	2.231e-06	31.328	91.722	135.886	83.940	31.166	185.121	179.705	30.859	37.824	161.060	154.922	37.675	44.326	44.503	51.043	164.783	50.811	-8191	255	
32776.027	1	1	0	0	0.15454	0.057362	0.054962	0.12011	0.19733	0.17683	0.19645	0.28621	0.053503	0.17716	0.019075	0.19144	0.10976	0.11576	0.08889	0.32249	-2.1833	-2.8896	-2.9167	-2.7625	-2.8979	-2.8083	-2.8729	-3.0146	-2.6833	-2.8917	-2.8646	-2.7729	-2.9062	-2.8063	-2.7104	-3.0125	98.702	113.449	309.262	318.781	361.816	266.182	29.899	379.142	231.788	63.940	186.101	91.895	50.055	247.799	344.264	371.609	0.00037747	0.00030371	8.027e-05	1397.9	4.8374e-06	2.5944e-06	1463.3	284.28	4.6792e-06	2.3081e-06	347.05	97.209	77.445	22.588	3.0015e-06	31.177	0.00022391	0.00021153	5.6062e-05	1371.4	2.3519e-06	2.2827e-06	1441.4	281.4	2.3406e-06	2.2833e-06	344.34	97.543	77.738	22.746	2.2119e-06	31.509	87.635	116.621	113.113	30.906	153.589	182.992	31.002	37.790	158.805	186.988	37.701	44.284	44.569	51.119	164.757	50.766	-8191	255	
32776.145	1	1	0	0	0.22785	0.096775	0.071946	0.11062	0.10423	0.24832	0.22878	0.36075	0.27875	0.23176	0.043867	0.21331	0.076293	0.20279	0.14026	0.26281	-2.2396	-2.8292	-2.9979	-2.8083	-2.8	-2.7042	-3.0146	-3.2354	-2.6521	-2.6354	-3.0458	-2.5167	-2.9979	-2.8042	-2.6688	-3.0563	28.317	52.850	93.454	268.161	263.974	137.575	353.577	342.993	93.031	125.885	249.883	329.408	368.078	357.380	333.111	326.183	0.00041738	0.00057125	9.6015e-05	1407.2	2.3607e-06	2.4752e-06	1462.2	283.53	4.4642e-06	2.5938e-06	348.46	97.996	78.164	22.691	4.9049e-06	31.284	0.00023263	0.00021461	5.5919e-05	1372	2.289e-06	2.1623e-06	1445.6	281.96	2.2765e-06	2.3137e-06	346.22	97.769	77.851	22.815	2.1691e-06	31.538	86.579	122.839	157.521	30.972	169.700	207.801	30.885	37.895	167.142	152.689	37.580	44.681	44.496	51.000	174.534	50.474	-8191	255	
32776.215	1	1	0	0	0.093357	0.09031	0.14813	0.27113	0.13628	0.15495	0.10816	0.37881	0.23191	0.1148	0.1409	0.17509	0.26838	0.1084	0.16959	0.22195	-2.3875	-2.7042	-2.9875	-2.5187	-2.7833	-2.7979	-2.7271	-2.9708	-2.7062	-2.7687	-3.0833	-2.7583	-2.8187	-2.9354	-2.7583	-3.1208	33.898	179.950	212.151	31.511	45.702	56.906	81.250	302.550	152.766	228.670	285.455	208.053	206.690	241.097	245.900	64.061	0.00043043	0.00040423	0.00012295	1403.2	2.4598e-06	3.6797e-06	1473	284.68	4.2584e-06	2.6021e-06	348.84	97.385	78.095	22.694	3.6288e-06	31.15	0.00023528	0.00019956	5.4822e-05	1370.7	2.2496e-06	2.0838e-06	1449.3	282.63	2.2839e-06	2.2342e-06	346.83	97.809	77.862	22.84	2.1868e-06	31.527	84.656	100.115	111.171	31.128	146.494	203.035	30.853	37.956	172.494	138.778	37.793	44.117	44.526	51.008	188.408	50.612	-8191	255	
32776.312	1	1	0	0	0.11818	0.11365	0.23369	0.051315	0.13515	0.19453	0.20703	0.12492	0.19125	0.13072	0.0037698	0.17385	0.096416	0.12786	0.21545	0.19296	-2.2938	-2.7104	-3.0271	-2.7542	-2.8521	-2.9833	-2.8125	-3.0875	-2.8167	-2.7396	-3.1917	-2.7083	-2.975	-2.8875	-2.7938	-3.025	257.881	20.283	30.094	305.624	52.135	340.863	291.303	318.641	373.107	265.244	271.988	96.017	321.098	372.275	215.850	227.409	0.00042404	0.00024388	6.7014e-05	1404.1	5.5753e-07	3.7958e-06	1464.8	286.61	3.2751e-06	3.6587e-06	350.51	98.397	78.004	22.593	5.0273e-06	31.285	0.00022505	0.00020063	5.6527e-05	1376.4	2.2182e-06	2.1985e-06	1444.5	283.36	2.2364e-06	2.1392e-06	347.84	98.305	77.901	22.908	2.1211e-06	31.649	88.396	58.601	87.617	31.202	171.908	167.929	30.877	37.859	126.301	175.899	37.830	43.921	44.640	50.945	192.655	50.388	-8191	255	
32776.434	1	1	0	0	0.17443	0.28412	0.10683	0.057851	0.11544	0.13006	0.18938	0.35577	0.18734	0.10936	0.45097	0.26826	0.18292	0.036044	0.29438	0.12138	-2.2687	-2.8	-3.0167	-2.6375	-2.7583	-3.1312	-2.6292	-3.0521	-2.8917	-2.7729	-3.2042	-2.7729	-2.7979	-2.8854	-2.6042	-3.0417	282.934	346.710	189.858	86.328	81.266	118.208	301.299	333.159	236.095	304.377	348.474	370.462	69.581	285.416	130.288	79.846	0.0003868	0.00030568	1.4999e-05	1413.8	3.2803e-06	3.7379e-06	1469.3	286.37	3.8976e-06	2.2624e-06	351.96	98.815	78.046	22.655	4.645e-06	31.486	0.00023411	0.0002003	5.7525e-05	1377.3	2.226e-06	2.2278e-06	1452.2	284.09	2.3038e-06	2.2682e-06	348.97	98.295	78.269	22.929	2.2802e-06	31.792	81.277	140.850	157.234	30.984	217.451	163.581	31.076	37.914	171.783	164.804	37.708	43.936	44.368	51.026	166.992	51.051	-8191	255	
32776.527	1	1	0	0	0.047428	0.19888	0.23109	0.40091	0.029075	0.13691	0.1078	0.20522	0.10186	0.10715	0.18095	0.1828	0.14166	0.069417	0.074448	0.056219	-2.2542	-2.7417	-2.9958	-2.7854	-2.7917	-3	-2.7521	-2.9604	-2.9583	-2.8521	-3.2083	-2.7458	-2.6833	-2.9771	-2.7417	-2.9708	140.644	265.964	207.446	356.412	197.071	61.720	326.846	349.170	271.935	87.705	42.255	288.721	303.130	232.207	131.596	57.266	0.00040228	0.00022306	8.104e-05	1418	3.5977e-06	2.7613e-06	1482.2	287.58	3.8689e-06	1.7724e-06	354.26	99.285	79.193	22.837	2.9423e-06	31.719	0.00023771	0.00020534	5.9266e-05	1383.2	2.4218e-06	2.3105e-06	1460.7	285.67	2.4046e-06	2.3568e-06	350.98	99.111	78.906	23.111	2.3398e-06	32.011	91.681	76.252	76.618	30.564	148.605	179.839	30.755	37.666	143.769	186.624	37.513	44.342	44.562	50.971	164.656	50.864	-8191	255	
32776.625	1	1	0	0	0.069652	0.16934	0.1601	0.28872	0.1484	0.087145	0.39272	0.23356	0.25097	0.19777	0.29258	0.42762	0.40402	0.15167	0.35397	0.12853	-2.625	-2.6125	-2.9229	-2.8021	-2.7146	-2.9604	-2.9396	-2.9771	-2.9104	-2.9208	-3.1104	-2.9646	-2.7583	-3.0187	-2.725	-2.7583	140.927	76.469	244.231	364.578	251.010	62.018	350.310	314.859	222.679	114.111	306.973	309.957	111.167	179.084	339.066	227.422	0.00038265	0.00048752	8.8024e-05	1428.3	3.8592e-06	1.6922e-06	1486.4	289.44	5.1295e-06	3.6648e-06	354.67	99.292	79.067	22.897	4.3384e-06	31.709	0.00024349	0.00021707	6.1591e-05	1393.7	2.374e-06	2.3636e-06	1463.9	287.37	2.4263e-06	2.3277e-06	352.37	99.126	79.036	23.186	2.3225e-06	32.04	89.075	100.513	82.668	30.832	157.411	119.686	30.677	38.045	159.692	160.515	37.541	44.074	44.241	50.870	193.981	50.689	-8191	255	
32776.746	1	1	0	0	0.13018	0.13406	0.23946	0.13449	0.23451	0.15007	0.2854	0.06454	0.19329	0.28105	0.13188	0.13705	0.099625	0.081337	0.046269	0.092328	-2.5604	-2.4833	-2.9375	-2.7	-2.6792	-2.9208	-2.9562	-2.9833	-2.9583	-2.6354	-2.9167	-2.8229	-2.6771	-3.0021	-2.6604	-2.6521	177.557	337.164	117.157	325.522	148.088	166.548	341.241	56.991	118.148	364.167	145.325	214.998	110.293	344.665	344.341	284.699	0.00040945	0.00041346	6.9209e-05	1430.4	4.6191e-06	3.2195e-06	1490.8	290.99	4.695e-06	2.5546e-06	354.94	99.424	79.193	22.802	3.147e-06	31.724	0.00022981	0.00020837	6.0415e-05	1394.3	2.2292e-06	2.2619e-06	1468.7	288.2	2.3913e-06	2.2623e-06	352.93	99.539	79.101	23.189	2.3071e-06	32.05	90.683	156.740	106.625	30.854	152.224	140.683	31.098	37.891	132.661	194.474	37.444	44.143	44.339	50.998	225.677	50.692	-8191	255	
32776.844	1	1	0	0	0.083207	0.076808	0.1875	0.35438	0.20155	0.43934	0.091342	0.30106	0.2272	0.06217	0.050971	0.10168	0.17922	0.28299	0.13161	0.19564	-2.7271	-2.7812	-2.7687	-2.8271	-2.5438	-3.0438	-3.1312	-2.7958	-3.0938	-2.5604	-2.9667	-2.8917	-2.6125	-2.9542	-2.775	-2.7917	231.504	26.125	358.528	354.461	111.273	370.793	28.470	306.481	84.497	111.390	59.192	149.066	375.563	299.370	200.272	282.757	0.00043334	0.0001262	6.7547e-05	1432.4	4.2756e-06	2.0935e-06	1487.3	291.02	5.1589e-06	3.7952e-06	357.33	99.33	79.514	23.09	3.7589e-06	31.646	0.00024333	0.00021522	6.0931e-05	1395.5	2.3132e-06	2.3703e-06	1467.4	288.88	2.4728e-06	2.246e-06	354.04	99.407	79.354	23.216	2.2885e-06	32.042	80.774	139.575	119.860	30.838	176.141	142.218	31.014	37.716	173.562	172.811	37.737	43.912	44.123	50.746	146.444	50.750	-8191	255	
32776.914	1	1	0	0	0.16232	0.56996	0.29802	0.27913	0.32504	0.13926	0.15913	0.20525	0.14561	0.17304	0.17679	0.14299	0.058455	0.027235	0.16626	0.26791	-2.2708	-2.4708	-2.7333	-2.7938	-2.5646	-2.7812	-3.0021	-2.8292	-2.9729	-2.7708	-2.8292	-2.95	-2.6625	-3.0312	-2.8875	-2.7042	266.196	262.280	147.059	341.224	65.786	187.302	342.403	292.408	61.920	143.196	40.671	70.681	221.262	202.213	43.340	271.726	0.00041942	0.00037592	9.2554e-05	1418.5	4.9873e-06	2.5459e-06	1487	290.1	3.5573e-06	1.4835e-06	356.84	99.437	79.013	22.923	2.6174e-06	31.535	0.00023388	0.00019671	5.7505e-05	1389.8	2.244e-06	2.2481e-06	1465.6	287.9	2.3018e-06	2.18e-06	353.44	99.337	79.062	23.15	2.2216e-06	31.924	86.102	129.777	127.560	31.093	166.816	167.456	30.833	37.842	181.143	185.721	37.854	44.231	44.445	50.656	104.561	50.849	-8191	255	
32777.031	1	1	0	0	0.1148	0.23854	0.11801	0.15429	0.10817	0.12279	0.28229	0.28592	0.19203	0.30044	0.064552	0.036037	0.0445	0.19067	0.08471	0.27779	-2.4833	-2.7458	-2.6937	-2.7146	-2.6625	-2.8771	-3.1729	-2.6458	-3.0292	-2.8563	-2.8312	-3.0083	-2.6125	-2.8792	-2.9437	-2.7	321.435	190.392	95.719	365.967	285.409	315.434	359.492	340.598	81.978	64.808	56.620	284.053	290.113	338.378	52.830	298.239	0.00040746	0.00025259	7.9851e-05	1419.7	3.1336e-06	2.6549e-06	1488.8	290.18	3.6632e-06	2.5565e-06	358.03	99.616	78.928	22.793	2.8054e-06	31.697	0.00022688	0.00019566	5.6006e-05	1390.3	2.2602e-06	2.2104e-06	1464.4	287.84	2.3135e-06	2.1911e-06	353.66	99.403	78.81	23.098	2.176e-06	31.91	88.532	71.000	169.396	30.832	195.503	208.088	31.153	37.651	183.894	158.127	37.824	44.000	44.492	51.171	149.129	50.884	-8191	255	
32777.129	1	1	0	0	0.099138	0.30904	0.1441	0.18717	0.16494	0.16288	0.47795	0.14632	0.070289	0.12549	0.20338	0.24431	0.11008	0.29737	0.21344	0.18051	-2.4146	-2.6021	-2.6583	-3.075	-2.7021	-2.7521	-3.0583	-2.6896	-2.8479	-2.6917	-2.7646	-3.0042	-2.8458	-2.8812	-3.0958	-2.6604	372.696	130.329	375.038	45.486	143.933	140.195	298.171	154.316	82.985	163.782	299.203	367.107	195.662	354.579	285.945	314.314	0.00035226	0.00023254	8.8443e-05	1420.1	2.2968e-06	4.0309e-06	1491.6	290.56	3.981e-06	3.2384e-06	354.95	99.021	79.089	22.803	3.3913e-06	31.547	0.00023195	0.00020188	5.4341e-05	1388.7	2.19e-06	2.2875e-06	1464.7	287.72	2.282e-06	2.1345e-06	352.63	99.062	78.684	22.996	2.1771e-06	31.919	86.180	104.028	128.424	31.052	168.389	181.416	30.754	37.938	156.111	186.811	37.658	44.392	44.512	50.966	175.765	51.134	-8191	255	
32777.227	1	1	0	0	0.29418	0.23292	0.20224	0.22639	0.13677	0.091253	0.11151	0.083868	0.15204	0.052035	0.010465	0.083515	0.13538	0.24192	0.2717	0.16846	-2.2646	-2.6417	-2.6813	-2.9896	-2.7104	-2.7542	-3.2313	-2.6458	-3.0042	-2.9958	-2.7729	-2.9813	-2.7771	-2.6917	-3.0125	-2.5479	187.876	19.783	147.577	276.780	119.917	128.129	273.241	377.847	233.076	41.849	55.555	327.814	377.574	305.124	299.519	131.261	0.00041068	0.00036335	0.00015862	1417.8	3.7059e-06	2.1525e-06	1486.3	288.59	3.9838e-06	2.0303e-06	355.72	98.995	78.654	22.869	3.0097e-06	31.612	0.0002277	0.00019717	5.3975e-05	1386.9	2.2245e-06	2.2087e-06	1464.3	286.73	2.3031e-06	2.1234e-06	351.71	98.804	78.655	23.003	2.1474e-06	31.76	84.916	97.856	122.335	30.908	156.604	198.957	30.777	37.539	180.044	211.851	37.654	44.381	44.610	51.242	182.576	50.825	-8191	255	
32777.320	1	1	0	0	0.091865	0.17744	0.14702	0.097202	0.35715	0.090574	0.29708	0.21719	0.19691	0.34796	0.10029	0.082753	0.18793	0.43336	0.091948	0.19113	-2.6333	-2.9167	-2.5771	-2.9583	-2.8896	-2.9167	-3.3667	-2.9479	-2.7917	-2.9208	-2.6146	-3.0354	-2.8021	-2.7188	-2.9604	-2.7104	119.134	158.326	46.836	241.054	35.415	190.341	284.016	344.981	293.252	253.372	301.641	338.868	340.329	302.390	28.608	36.830	0.00039338	0.00034091	8.2605e-05	1418.9	4.5274e-06	3.8732e-06	1484.9	286.6	3.3288e-06	3.4893e-06	353.98	98.383	78.671	22.494	3.7455e-06	31.608	0.00023331	0.00019866	5.4432e-05	1386.7	2.2843e-06	2.1892e-06	1461.1	285.7	2.3008e-06	2.2238e-06	350.95	98.456	78.262	22.865	2.1909e-06	31.68	81.520	124.179	100.655	30.887	138.452	162.380	30.960	37.923	149.005	149.544	37.481	43.973	44.383	51.523	180.784	50.770	-8191	255	
32777.441	1	1	0	0	0.10616	0.10366	0.072554	0.056588	0.17196	0.055715	0.10128	0.35234	0.13545	0.27953	0.21455	0.33449	0.2815	0.14781	0.027034	0.17713	-2.4979	-2.9313	-2.6063	-2.8187	-2.8042	-2.7979	-3.1271	-2.7583	-2.7917	-2.9208	-2.7417	-2.9521	-2.9521	-2.7708	-3.0542	-2.8063	279.530	182.406	29.614	180.956	242.025	206.986	246.581	315.061	187.069	158.421	374.594	331.340	341.048	238.485	40.472	295.573	0.00038182	0.0004084	9.3788e-05	1418.3	4.4419e-06	3.6388e-06	1473.1	288.54	1.6326e-06	4.4755e-06	352.37	98.183	78.607	22.621	2.0615e-06	31.426	0.00022725	0.00019678	5.3776e-05	1385.8	2.1987e-06	2.1293e-06	1456.1	285.3	2.324e-06	2.1608e-06	350.24	98.399	78.35	22.92	2.2662e-06	31.661	84.904	127.368	129.275	31.077	131.399	197.891	30.895	37.772	131.180	175.883	37.779	44.281	44.603	51.467	169.041	50.852	-8191	255	
32777.516	1	1	0	0	0.098929	0.18686	0.073899	0.34991	0.31915	0.17723	0.65374	0.049381	0.10416	0.1275	0.34566	0.051479	0.46983	0.1272	0.12049	0.061926	-2.3208	-2.8625	-2.5563	-2.9208	-2.7083	-2.7687	-3.2146	-2.9458	-2.8667	-3.0875	-2.7625	-2.9333	-2.9854	-2.7667	-2.8979	-2.8563	204.083	376.597	256.612	329.405	116.847	46.882	304.104	348.219	353.480	36.281	332.497	369.606	376.298	64.870	331.421	216.520	0.00041226	0.00030648	0.0001092	1412.5	2.5557e-06	1.8532e-06	1471.4	287.51	3.564e-06	3.3218e-06	353.52	98.235	78.514	22.583	3.8492e-06	31.156	0.0002314	0.00020202	5.1749e-05	1382.7	2.227e-06	2.1023e-06	1454	285.08	2.1997e-06	2.0706e-06	350.07	98.274	78.088	22.8	2.2517e-06	31.582	80.561	106.297	154.357	30.941	163.440	174.306	30.910	37.824	159.228	161.640	37.662	44.510	44.335	51.378	138.373	50.793	-8191	255	
32777.609	1	1	0	0	0.14714	0.23606	0.20157	0.18267	0.055159	0.14022	0.33664	0.28745	0.21659	0.2072	0.18312	0.34274	0.062801	0.12165	0.067616	0.065994	-2.3708	-2.9479	-2.6521	-2.9542	-2.6562	-2.6146	-3.1292	-2.7396	-2.7396	-3.1083	-2.6875	-2.85	-2.9542	-2.5146	-2.8333	-2.6833	263.989	267.362	261.796	182.470	345.150	293.210	314.380	355.732	165.824	358.816	302.470	340.599	54.392	365.034	356.848	312.219	0.00045318	0.00041801	0.00010255	1405.8	2.4479e-06	3.0845e-06	1473.1	285.93	2.522e-06	2.1121e-06	352.14	97.663	78.483	22.538	3.5571e-06	31.235	0.00022608	0.00019828	5.3633e-05	1375.7	2.1214e-06	2.018e-06	1449.5	283.82	2.1844e-06	2.0412e-06	349.34	97.778	78.019	22.723	2.134e-06	31.541	85.038	121.492	123.147	31.236	173.515	163.675	30.804	37.920	144.131	194.719	37.858	44.022	44.475	51.114	171.682	50.628	-8191	255	
32777.707	1	1	0	0	0.12184	0.18053	0.33254	0.24584	0.16236	0.22387	0.064533	0.11755	0.19968	0.074837	0.11229	0.18591	0.054088	0.21129	0.043498	0.18699	-2.15	-2.6875	-2.55	-2.7458	-2.8812	-2.5729	-2.9021	-2.9792	-2.5187	-3.0229	-2.7917	-2.85	-2.9604	-2.5021	-2.975	-3.0792	31.838	242.174	195.618	301.045	362.048	336.651	66.729	303.393	352.418	44.264	55.261	30.593	269.527	377.378	33.244	54.265	0.00039849	0.00038215	0.00011776	1396	1.1478e-06	4.1639e-06	1473.7	285.77	2.7935e-06	1.8606e-06	352.06	98.085	78.028	22.44	4.3162e-06	31.225	0.00022148	0.00018839	5.409e-05	1371	2.0674e-06	2.009e-06	1450.3	283.87	2.0866e-06	2.0779e-06	348.16	97.918	77.891	22.647	2.1774e-06	31.519	82.919	125.199	112.932	31.037	180.416	200.488	31.049	37.901	193.847	195.536	37.657	44.262	44.377	51.273	154.162	51.045	-8191	255	
32777.828	1	1	0	0	0.26071	0.28756	0.12414	0.094848	0.052047	0.19378	0.17357	0.2096	0.27012	0.02068	0.1373	0.15144	0.085744	0.46098	0.11662	0.27144	-2.4042	-2.8354	-2.5687	-2.7625	-3.1125	-2.5521	-3.1771	-2.8625	-2.5438	-3.0146	-2.8542	-2.9021	-2.9375	-2.6813	-2.8937	-2.7708	246.358	299.259	156.899	51.871	101.873	188.898	338.427	327.520	148.434	323.579	34.872	251.624	55.652	197.863	187.008	371.645	0.00043871	0.00039393	0.00013209	1406.6	1.1869e-06	2.6197e-06	1471.7	286.32	4.2755e-06	2.9205e-06	350.58	97.774	78.024	22.443	3.4627e-06	31.176	0.00021639	0.00019808	5.318e-05	1372.1	2.1514e-06	2.0902e-06	1447.4	283.28	2.1592e-06	2.121e-06	347.54	97.814	77.593	22.685	2.1839e-06	31.392	86.619	153.194	137.029	30.998	178.558	199.367	31.036	37.922	152.691	182.884	37.669	44.265	44.533	50.986	181.793	50.836	-8191	255	
32777.922	1	1	0	0	0.034676	0.16431	0.13161	0.49286	0.19816	0.056847	0.13669	0.34084	0.19131	0.12394	0.4149	0.011315	0.26411	0.14159	0.16798	0.23423	-2.1604	-2.8583	-2.9375	-2.7687	-2.8729	-2.6813	-3.0646	-2.9437	-2.7875	-2.975	-2.7583	-2.6688	-3.1479	-2.4542	-2.9313	-2.9208	36.952	173.227	66.983	362.578	294.075	190.744	358.960	305.668	205.989	181.868	304.084	113.749	321.212	185.434	56.410	314.738	0.00038858	0.00038389	0.00010412	1404.5	2.8452e-06	4.5713e-06	1473.1	285.91	5.6637e-06	2.5449e-06	350.3	96.955	77.541	22.396	3.9814e-06	31.09	0.0002181	0.00019764	5.3546e-05	1372.9	2.1481e-06	2.1017e-06	1448.7	283.08	2.1892e-06	2.1732e-06	348.75	97.515	77.629	22.665	2.1802e-06	31.456	82.669	114.797	91.038	30.902	204.456	157.626	30.788	37.844	177.232	200.036	37.610	44.648	44.271	51.382	175.908	50.831	-8191	255	
32778.016	1	1	0	0	0.28254	0.26498	0.17745	0.21445	0.10894	0.19719	0.20412	0.15599	0.17646	0.20608	0.093714	0.35236	0.29349	0.25151	0.30674	0.10272	-2.0625	-2.8896	-2.575	-2.6479	-2.9	-2.6188	-3	-3	-2.6229	-2.9792	-2.9688	-2.7146	-3.0354	-2.7667	-2.6833	-2.8458	90.916	38.605	340.765	290.794	115.739	44.390	337.710	314.310	201.858	47.405	250.562	313.407	45.856	340.911	71.229	166.004	0.00039686	0.00022646	9.3699e-05	1402.5	3.4924e-06	2.7598e-06	1470.9	286.37	3.3131e-06	4.0027e-06	351.39	97.373	77.996	22.516	4.5587e-06	31.142	0.00021964	0.00020367	5.4659e-05	1372.7	2.2357e-06	2.0296e-06	1446.5	283.24	2.1621e-06	2.207e-06	348	97.707	77.889	22.681	2.2016e-06	31.471	86.951	128.576	124.657	30.878	162.006	179.225	31.000	37.575	178.721	159.553	37.713	44.362	44.510	51.360	172.781	50.879	-8191	255	
32778.113	1	1	0	0	0.18659	0.045698	0.083288	0.17914	0.10923	0.086083	0.27035	0.17243	0.26567	0.067073	0.14861	0.11985	0.24241	0.0255	0.18866	0.20974	-2.2958	-2.8979	-2.8667	-2.7062	-2.8979	-2.8	-3.1104	-3.2292	-2.65	-2.8833	-2.8688	-2.525	-2.9292	-2.7417	-2.6937	-3.1479	55.652	205.924	351.879	314.062	141.724	103.893	293.012	278.374	131.515	181.504	62.651	332.066	284.653	216.288	334.278	99.230	0.00047917	0.00021817	0.0001096	1404.9	3.1431e-06	3.7366e-06	1466.6	286.18	5.6594e-06	1.9093e-06	348.76	97.815	78.12	22.436	4.574e-06	31.243	0.00022994	0.00020553	5.4074e-05	1373.7	2.2e-06	2.1788e-06	1447	283.05	2.2963e-06	2.2209e-06	347.53	97.603	77.649	22.709	2.2311e-06	31.486	82.385	117.200	93.467	30.779	185.928	203.734	30.757	37.831	137.509	148.799	37.737	44.384	44.439	51.503	182.519	50.496	-8191	255	
32778.211	1	1	0	0	0.046858	0.13518	0.26049	0.14869	0.18847	0.029526	0.23654	0.058857	0.18562	0.15269	0.038796	0.19095	0.10125	0.045694	0.17923	0.038314	-2.1354	-2.7792	-2.8854	-2.5938	-2.9458	-2.8583	-2.8896	-3.075	-2.7417	-2.7292	-2.9104	-2.6292	-2.9229	-2.8021	-2.5417	-2.9146	239.042	144.425	142.304	239.650	347.103	254.336	308.023	157.511	289.556	25.439	268.255	334.653	30.534	340.511	52.611	268.423	0.00044315	0.00014797	7.8567e-05	1408.8	2.177e-06	3.8341e-06	1471	284.94	6.0625e-06	3.1978e-06	351.02	98.03	77.634	22.404	5.3743e-06	30.934	0.00023002	0.00020308	5.7262e-05	1372.9	2.2913e-06	2.1419e-06	1448.1	283.05	2.2574e-06	2.2309e-06	347.79	97.933	77.741	22.685	2.2242e-06	31.428	80.241	109.934	123.671	30.911	176.060	159.224	30.903	37.760	182.853	159.995	37.773	43.938	44.528	50.994	180.777	50.892	-8191	255	
32778.305	1	1	0	0	0.18224	0.19571	0.09425	0.2097	0.24061	0.23984	0.4014	0.23047	0.21917	0.1901	0.31981	0.41473	0.1249	0.16603	0.10558	0.12991	-2.2458	-2.7333	-2.9792	-2.6667	-2.8542	-2.8563	-2.8458	-2.9437	-2.7833	-2.6646	-3.0187	-2.75	-2.9875	-2.7917	-2.6458	-3.0833	23.679	311.772	44.771	346.461	319.845	88.122	293.221	372.787	220.522	189.725	376.493	333.973	37.382	338.722	324.937	299.699	0.00045125	0.00042791	6.5487e-05	1401.5	2.8359e-06	3.2342e-06	1469.9	285.86	3.3351e-06	4.5291e-06	351.86	97.877	77.985	22.532	3.7302e-06	31.273	0.00023529	0.00020387	5.7894e-05	1376.7	2.3931e-06	2.275e-06	1448.8	283.42	2.2943e-06	2.2693e-06	348.65	97.929	77.741	22.751	2.1936e-06	31.5	85.655	121.733	126.068	30.275	147.281	198.980	30.951	37.993	172.426	176.484	37.488	44.164	44.544	50.927	162.909	50.944	-8191	255	
32778.426	1	1	0	0	0.25359	0.10157	0.070631	0.13157	0.2839	0.21629	0.3942	0.1732	0.28717	0.14272	0.36005	0.10771	0.082649	0.10886	0.26559	0.22171	-2.4938	-2.8417	-2.8854	-2.7333	-2.8167	-2.9333	-2.7667	-2.8979	-2.7229	-2.8333	-3.0542	-2.8812	-2.6	-2.6646	-2.5625	-2.9167	277.296	210.331	24.345	302.615	180.711	271.128	330.605	257.095	103.657	146.861	30.954	281.430	222.651	259.388	338.032	286.245	0.00042332	0.00012436	0.00010811	1401.9	5.0456e-06	3.2586e-06	1469.2	286.13	3.6589e-06	2.1095e-06	351.57	98.496	78.069	22.485	4.2858e-06	31.387	0.00023501	0.00020741	5.6984e-05	1372.4	2.3536e-06	2.2293e-06	1447.7	283.62	2.3764e-06	2.3299e-06	348.42	97.9	77.767	22.776	2.3054e-06	31.544	92.946	76.082	97.952	30.911	184.178	128.426	30.926	37.887	195.739	145.158	37.556	44.261	44.376	51.564	162.276	50.889	-8191	255	
32778.523	1	1	0	0	0.32018	0.18288	0.15691	0.040776	0.28561	0.17335	0.13077	0.31485	0.19414	0.20412	0.1118	0.055637	0.12111	0.15613	0.15466	0.2753	-2.4	-2.6479	-2.8479	-2.8833	-2.8375	-2.9854	-2.8479	-2.9896	-2.9146	-2.6292	-3.15	-2.8792	-2.7208	-3.1083	-2.5479	-2.8396	353.922	131.655	316.545	326.360	50.155	341.672	293.767	275.426	296.805	70.079	293.272	358.810	355.442	375.179	321.115	76.490	0.00038778	0.00038068	8.5023e-05	1400	3.5661e-06	2.2941e-06	1472.7	286.29	6.304e-06	3.0824e-06	351.17	98.031	78.044	22.443	6.4331e-06	31.124	0.00023317	0.00020045	5.9063e-05	1371.2	2.335e-06	2.2264e-06	1448.4	283.62	2.3493e-06	2.2003e-06	348.24	97.636	77.828	22.726	2.2594e-06	31.534	88.853	104.338	87.114	30.816	179.326	192.113	30.731	38.075	167.150	165.367	37.731	44.217	44.485	51.345	181.843	50.876	-8191	255	
32778.617	1	1	0	0	0.033134	0.097128	0.17049	0.3334	0.0075151	0.25946	0.18716	0.25682	0.11536	0.18185	0.032157	0.12147	0.13066	0.14312	0.26642	0.1254	-2.3312	-2.7667	-3.0208	-2.7958	-2.7917	-3.0021	-2.8563	-2.9229	-2.7854	-2.6813	-2.8646	-2.7167	-2.6	-3.0021	-2.8583	-3.0146	19.937	95.628	346.819	58.845	108.369	264.214	356.470	263.888	26.077	148.357	343.250	61.315	20.059	338.663	156.825	285.444	0.00039056	0.00037883	6.0701e-05	1404.6	3.3481e-06	3.4966e-06	1467.9	285.87	4.7058e-06	2.5505e-06	352.09	97.936	78.17	22.542	5.2671e-06	31.014	0.00023719	0.00020605	5.8658e-05	1373	2.4129e-06	2.2965e-06	1449.1	283.99	2.3547e-06	2.2476e-06	348.82	97.955	77.975	22.766	2.2556e-06	31.525	84.232	101.536	112.441	30.726	189.036	181.265	30.779	37.867	140.215	171.193	37.528	44.160	44.363	51.221	162.864	51.134	-8191	255	
32778.715	1	1	0	0	0.060642	0.21204	0.19713	0.15807	0.11919	0.12852	0.42005	0.086882	0.050581	0.18408	0.38137	0.15013	0.33486	0.14621	0.12522	0.30168	-2.4729	-2.5146	-3.0125	-2.7042	-2.5521	-2.95	-3.0354	-2.9396	-2.7854	-2.5104	-3.0687	-2.8333	-2.6271	-3.2083	-2.7271	-2.9146	288.853	240.606	258.470	93.284	127.349	152.310	364.212	354.210	324.746	167.489	362.121	96.610	41.596	288.143	85.205	76.167	0.00040826	0.00050074	3.9991e-05	1400.2	3.509e-06	3.1087e-06	1471.3	285.16	4.1595e-06	2.5209e-06	352.48	97.721	77.745	22.526	2.4687e-06	31.092	0.00023557	0.00021147	5.8805e-05	1375.2	2.3789e-06	2.2894e-06	1448.4	283.8	2.4451e-06	2.3091e-06	349.02	97.884	77.778	22.732	2.3202e-06	31.511	80.536	84.148	93.117	31.224	144.529	191.410	31.065	37.778	171.774	182.102	37.413	44.219	44.496	51.475	185.294	50.724	-8191	255	
32778.812	1	1	0	0	0.14028	0.18364	0.04942	0.21973	0.11267	0.09069	0.29039	0.10588	0.19725	0.11011	0.29239	0.21395	0.51219	0.14177	0.19607	0.071804	-2.5458	-2.6437	-3.0479	-2.7833	-2.6833	-2.8063	-2.85	-2.825	-2.9688	-2.5521	-2.9729	-2.8167	-2.7792	-3.0062	-2.8125	-2.7208	262.398	85.968	59.883	148.882	188.281	22.821	304.096	207.903	81.461	335.644	336.403	341.671	357.187	376.841	246.219	329.189	0.00041067	0.00029516	6.3659e-05	1402.6	2.063e-06	2.6345e-06	1469.7	286.13	6.8581e-06	2.9014e-06	351.79	98.197	77.961	22.393	2.8933e-06	31.197	0.00023565	0.00020656	6.0355e-05	1377.4	2.2199e-06	2.3153e-06	1449	283.78	2.3497e-06	2.321e-06	347.76	97.913	77.823	22.688	2.2637e-06	31.501	82.968	97.902	124.592	30.649	178.632	183.051	30.926	37.944	161.673	173.488	37.618	44.363	44.660	51.006	165.874	50.660	-8191	255	
32778.906	1	1	0	0	0.37839	0.071877	0.13403	0.29577	0.33893	0.16125	0.27152	0.20835	0.122	0.06242	0.24572	0.21504	0.16106	0.31299	0.31754	0.27553	-2.4667	-2.9125	-2.9208	-2.9583	-2.6083	-3.0458	-2.8708	-2.6896	-2.9854	-2.5083	-2.9562	-2.9375	-2.6937	-3.1083	-2.9146	-2.7625	91.546	97.229	340.540	374.329	251.790	117.325	51.378	265.536	135.052	195.912	257.506	92.724	58.914	286.011	269.284	323.603	0.00044815	0.00057255	8.8589e-05	1401.6	4.1603e-06	3.963e-06	1468.5	286.64	5.1813e-06	2.9641e-06	350.03	97.547	77.322	22.366	3.8384e-06	30.864	0.00023726	0.00021164	6.0403e-05	1371.9	2.2384e-06	2.3691e-06	1446.7	283.78	2.3376e-06	2.3074e-06	348.61	97.815	77.635	22.681	2.289e-06	31.392	78.226	121.063	108.819	30.756	147.992	181.445	30.894	37.952	178.931	160.827	37.692	44.023	44.126	51.177	170.023	50.924	-8191	255	
32779.000	1	1	0	0	0.018807	0.2519	0.042159	0.24484	0.35227	0.33171	0.20875	0.091544	0.16157	0.061087	0.11203	0.17258	0.11087	0.27555	0.033963	0.16057	-2.6042	-2.7104	-2.7771	-2.9979	-2.6083	-2.9667	-3.1083	-2.8187	-2.9667	-2.6813	-2.8792	-2.9062	-2.6833	-2.9813	-2.8167	-2.7708	372.936	372.230	359.849	353.876	103.265	26.758	293.411	345.295	105.683	141.398	274.491	36.604	176.923	75.606	241.362	277.194	0.00039807	0.0002403	8.5595e-05	1403.8	3.4898e-06	4.5859e-06	1468.7	285.27	4.0254e-06	3.2384e-06	351.52	97.764	78.139	22.41	3.2748e-06	31.21	0.00023897	0.000206	5.7083e-05	1374.5	2.2496e-06	2.2896e-06	1446.8	283.44	2.4327e-06	2.2888e-06	348.03	97.68	77.716	22.672	2.2505e-06	31.455	83.572	110.207	123.397	30.707	189.457	189.165	30.903	38.131	170.260	168.839	37.627	44.501	44.433	51.408	166.047	50.902	-8191	255	
32779.098	1	1	0	0	0.17258	0.20436	0.088872	0.21448	0.17541	0.081908	0.22156	0.092935	0.26338	0.18445	0.11654	0.10651	0.15962	0.14207	0.16964	0.16253	-2.4854	-2.6396	-2.7979	-2.9062	-2.5667	-2.8812	-3.0312	-2.725	-2.9104	-2.8771	-2.8375	-2.9417	-2.6688	-2.9458	-2.6896	-2.7292	208.089	265.735	236.381	49.901	173.420	131.312	297.484	321.175	261.678	172.616	47.206	374.545	336.136	192.760	23.161	295.400	0.00039614	0.00047382	0.00010077	1412.5	3.1593e-06	2.4379e-06	1471.3	284.95	2.1777e-06	3.0199e-06	352.44	97.952	77.369	22.397	3.039e-06	30.976	0.00023833	0.00020795	5.9262e-05	1377.8	2.2986e-06	2.2497e-06	1446.6	283.22	2.4794e-06	2.2717e-06	348.56	98.01	77.508	22.685	2.3199e-06	31.367	80.446	136.873	101.636	31.244	175.376	162.877	31.000	38.050	201.939	165.465	37.636	44.432	44.581	51.369	148.175	50.980	-8191	255	
32779.219	1	1	0	0	0.050945	0.17796	0.26649	0.2733	0.085378	0.2543	0.27892	0.17546	0.15462	0.072208	0.29773	0.2443	0.43044	0.22251	0.1954	0.24435	-2.4375	-2.8104	-2.675	-3.0792	-2.6688	-3.075	-3.1688	-2.6208	-2.9542	-2.7917	-2.7917	-2.9813	-2.6562	-2.7979	-2.8729	-2.65	175.575	323.124	113.830	328.866	116.881	248.967	373.526	311.676	318.768	168.487	359.825	46.725	27.748	37.949	20.997	59.267	0.0004009	0.00043043	0.00010381	1399.4	3.4789e-06	3.4068e-06	1472.1	285.43	3.739e-06	3.1238e-06	348.94	97.861	78.12	22.429	1.5593e-06	31.121	0.00024039	0.00020882	5.6463e-05	1374.6	2.35e-06	2.2888e-06	1450.4	283.6	2.4549e-06	2.2277e-06	347.57	97.756	77.753	22.705	2.3575e-06	31.467	91.495	129.816	100.244	31.054	179.497	160.796	31.002	37.828	172.126	183.548	37.411	44.215	44.494	51.270	169.531	50.878	-8191	255	
32779.312	1	1	0	0	0.090062	0.16345	0.24	0.23385	0.10815	0.18256	0.15162	0.11587	0.28024	0.10183	0.12539	0.15383	0.31542	0.24536	0.15435	0.094665	-2.4979	-2.8896	-2.7417	-2.9875	-2.6708	-2.7875	-3.05	-2.6042	-2.8292	-2.6958	-2.6521	-3.1417	-2.7479	-2.8042	-2.9875	-2.6708	218.825	22.097	250.990	327.142	238.539	61.422	315.381	226.059	192.414	208.915	333.417	94.570	370.970	57.904	53.280	349.358	0.00044241	0.00057282	9.9085e-05	1400	2.1289e-06	2.4805e-06	1473.3	286.06	3.4872e-06	4.4652e-06	350.95	97.351	78.483	22.363	4.8061e-06	31.221	0.00024061	0.00020791	5.9337e-05	1373	2.3633e-06	2.3164e-06	1450.2	283.37	2.4802e-06	2.4188e-06	347.69	97.771	77.829	22.691	2.3976e-06	31.453	80.100	130.817	122.490	31.114	151.415	147.673	31.024	37.891	186.315	187.178	37.563	44.290	44.487	51.238	158.768	50.851	-8191	255	
32779.387	1	1	0	0	0.39325	0.15643	0.038336	0.21206	0.27432	0.14833	0.30354	0.261	0.11579	0.1077	0.13115	0.090911	0.16827	0.28858	0.25808	0.20874	-2.5	-2.8104	-2.6542	-3.1854	-2.6292	-2.8833	-3.0312	-2.4688	-2.8771	-2.9583	-2.6792	-2.9667	-2.7417	-2.6521	-3.0458	-2.7396	139.775	66.677	109.721	30.696	142.951	196.722	325.169	282.894	138.335	341.820	181.488	180.251	221.691	20.704	82.525	290.084	0.0004329	0.00052473	0.00015673	1409.1	5.6335e-06	1.8052e-06	1468.1	287.89	4.2329e-06	3.3655e-06	351.23	97.65	77.363	22.383	4.5486e-06	31.168	0.00024111	0.00021636	5.7906e-05	1374.3	2.4167e-06	2.3552e-06	1448	284.28	2.5229e-06	2.3622e-06	347.7	97.81	77.591	22.693	2.399e-06	31.427	84.054	134.788	136.755	30.863	183.109	170.376	30.971	37.887	183.559	169.864	37.563	44.471	44.484	51.052	169.892	51.059	-8191	255	
32779.508	1	1	0	0	0.22609	0.18014	0.11934	0.22463	0.08963	0.30797	0.12298	0.09011	0.23182	0.20829	0.098113	0.15912	0.17221	0.12131	0.058576	0.12081	-2.5354	-2.8708	-2.4875	-3.0833	-2.6604	-2.5875	-3.15	-2.8187	-2.8396	-2.9375	-2.8542	-3.0479	-2.9083	-2.625	-3.1625	-2.7188	243.402	325.962	20.932	33.049	87.531	335.642	303.692	304.842	108.595	227.278	215.344	311.583	360.849	33.412	163.503	95.684	0.00037756	0.0004001	0.00011277	1401.3	2.5259e-06	2.512e-06	1465.6	286.36	2.0633e-06	2.4592e-06	352.21	97.878	77.71	22.46	3.2352e-06	31.164	0.00024428	0.00021826	5.8765e-05	1377.1	2.3932e-06	2.3738e-06	1446.2	283.42	2.5083e-06	2.3554e-06	348.72	97.708	77.53	22.662	2.4058e-06	31.453	89.556	120.039	144.183	30.643	151.862	203.494	30.903	37.782	169.800	201.993	37.881	44.832	44.454	51.389	169.323	50.728	-8191	255	
32779.602	1	1	0	0	0.027601	0.063065	0.1575	0.51725	0.17038	0.012076	0.050903	0.03982	0.13619	0.11095	0.16079	0.3049	0.32063	0.089136	0.13814	0.14518	-2.2188	-2.8708	-2.6125	-2.775	-2.7521	-2.625	-3.3104	-2.7562	-2.5187	-2.9458	-2.8354	-2.95	-2.7417	-2.5792	-2.8625	-2.6979	195.251	122.316	62.788	346.987	359.583	152.306	40.660	23.857	337.515	243.647	58.485	328.449	376.630	301.328	103.798	356.859	0.00042703	0.00051002	9.9883e-05	1401.7	2.9265e-06	2.7167e-06	1466.3	285.18	4.0475e-06	2.5111e-06	350.14	97.448	77.891	22.355	2.3588e-06	31.169	0.00024427	0.00021226	5.9496e-05	1374.8	2.3573e-06	2.2901e-06	1446.9	283.13	2.4702e-06	2.3633e-06	348.29	97.458	77.655	22.583	2.427e-06	31.357	85.417	108.748	115.654	31.072	177.045	180.867	31.021	38.043	167.370	183.625	37.913	44.197	44.539	51.287	167.036	50.973	-8191	255	
32779.699	1	1	0	0	0.13074	0.33874	0.068841	0.13675	0.097992	0.13915	0.42949	0.15984	0.049681	0.13365	0.13147	0.18366	0.24005	0.19386	0.21123	0.16876	-2.2104	-2.7104	-2.55	-2.9437	-2.975	-2.625	-3.1979	-2.9646	-2.575	-3.0417	-2.85	-2.8375	-2.8396	-2.7146	-2.8438	-2.8958	299.473	99.486	179.477	307.298	292.976	84.474	290.836	346.083	115.522	372.223	334.343	170.495	26.362	79.755	289.456	233.002	0.00034816	0.00039603	6.0947e-05	1399	1.8258e-06	3.4732e-06	1468.3	286.27	4.6565e-06	2.708e-06	347.89	97.737	77.678	22.429	3.1345e-06	31.022	0.0002416	0.00021843	5.884e-05	1371	2.3737e-06	2.3912e-06	1446.5	282.69	2.3904e-06	2.3857e-06	346.52	97.616	77.496	22.561	2.4243e-06	31.239	86.436	105.569	116.273	30.955	134.794	172.006	30.978	37.910	201.700	172.327	37.613	44.013	44.468	51.390	188.457	50.450	-8191	255	
32779.797	1	1	0	0	0.24947	0.080061	0.057467	0.27039	0.32537	0.25572	0.19275	0.014508	0.1903	0.071087	0.31027	0.17887	0.22796	0.13107	0.1824	0.11061	-2.2083	-2.8917	-2.4771	-2.9188	-2.8708	-2.4792	-3.1792	-2.9875	-2.7521	-2.9021	-2.6708	-2.7188	-2.9625	-2.5292	-2.8958	-2.9062	104.593	42.305	340.608	371.587	231.777	83.764	321.261	299.177	95.689	219.918	366.398	253.351	109.839	117.005	41.604	334.541	0.00038073	0.00044247	4.3017e-05	1396.3	3.2799e-06	2.5512e-06	1462.8	284.15	6.1563e-06	3.1138e-06	349.27	97.632	77.69	22.301	3.8006e-06	31.079	0.00023369	0.00020835	5.5489e-05	1368.7	2.3083e-06	2.2602e-06	1442.8	281.57	2.318e-06	2.356e-06	346.52	97.358	77.299	22.559	2.4464e-06	31.199	88.837	90.937	93.075	30.975	146.598	124.838	30.953	37.930	192.901	133.747	37.967	44.205	44.500	51.360	202.276	50.577	-8191	255	
32779.914	1	1	0	0	0.10621	0.020855	0.025016	0.15533	0.22807	0.20371	0.20145	0.31895	0.10319	0.10654	0.29658	0.25023	0.17017	0.24739	0.055966	0.10535	-2.1875	-2.9042	-2.6688	-2.7417	-2.8729	-2.6854	-3.125	-2.8208	-2.4688	-2.9313	-2.9229	-2.8104	-2.8958	-2.5729	-2.9542	-2.9688	312.443	326.915	112.281	141.534	87.660	275.929	305.149	295.244	321.241	170.997	42.034	70.430	237.237	322.539	279.714	44.845	0.00040757	0.00023657	4.4837e-05	1393.1	5.1663e-06	2.8939e-06	1465.1	284.6	2.5336e-06	4.1445e-06	351.24	97.114	77.754	22.237	3.6972e-06	30.822	0.0002353	0.00021843	5.9703e-05	1367.8	2.3783e-06	2.3667e-06	1443.8	282.01	2.4153e-06	2.4344e-06	346.37	97.27	77.537	22.487	2.2563e-06	31.228	87.459	116.511	112.536	31.389	167.330	161.243	30.823	37.957	176.592	201.601	37.793	44.256	44.828	51.486	189.628	50.570	-8191	255	
32780.012	1	1	0	0	0.22978	0.1565	0.097278	0.19262	0.2771	0.19006	0.14507	0.12738	0.064221	0.28455	0.14281	0.18816	0.19527	0.15779	0.015975	0.20736	-2.2146	-2.775	-2.7396	-2.6354	-3.0312	-2.6813	-3.1375	-2.9729	-2.6396	-3.0375	-2.8167	-2.7583	-2.9958	-2.5833	-2.6104	-3.1604	260.874	255.365	229.296	364.745	354.922	295.265	294.003	369.578	127.934	199.359	191.487	44.872	298.417	156.266	108.509	272.420	0.00031947	0.00034195	0.00012938	1397.1	3.9307e-06	4.4668e-06	1465.6	283.69	3.9745e-06	2.4618e-06	348.34	97.606	77.438	22.328	5.4882e-06	30.806	0.00022631	0.00020762	5.5839e-05	1365.6	2.2922e-06	2.1491e-06	1441.9	281.19	2.3053e-06	2.2477e-06	345.67	97.397	77.155	22.543	2.2901e-06	31.235	74.884	112.969	136.174	31.301	183.086	191.898	30.912	37.892	178.454	168.073	37.709	44.101	44.740	51.378	179.335	50.949	-8191	255	
32780.105	1	1	0	0	0.23169	0.029015	0.073465	0.19079	0.08762	0.076231	0.033182	0.26564	0.13336	0.086989	0.17315	0.27953	0.22346	0.25048	0.040496	0.12519	-2.1375	-2.8187	-2.7854	-2.7875	-2.8958	-2.625	-2.9292	-2.9292	-2.6333	-2.8271	-2.9313	-2.65	-3.1021	-2.575	-2.7646	-2.9875	119.947	255.179	108.713	288.689	343.745	318.444	80.358	324.913	100.744	67.514	323.636	180.681	29.695	52.099	296.859	346.581	0.00037299	0.00034076	9.3839e-05	1393.9	3.1448e-06	1.9822e-06	1463.8	283.85	3.7896e-06	3.7228e-06	348.75	97.386	77.332	22.238	3.7483e-06	31.007	0.00023292	0.00021071	5.8248e-05	1366.4	2.3912e-06	2.214e-06	1440.5	281.24	2.3376e-06	2.246e-06	345.47	97.228	77.182	22.531	2.2174e-06	31.251	81.664	141.841	117.492	30.865	194.928	195.526	30.842	37.816	172.965	179.414	37.563	44.406	44.699	51.173	188.414	50.827	-8191	255	
32780.203	1	1	0	0	0.26761	0.043485	0.24215	0.075687	0.27167	0.20014	0.23376	0.27963	0.17484	0.1756	0.39287	0.24496	0.10477	0.2717	0.15581	0.12917	-2.2438	-2.7354	-2.9479	-2.5833	-3.0583	-2.9125	-3.0083	-3.1729	-2.6188	-2.8979	-2.8333	-2.6729	-2.8375	-2.6667	-2.675	-3.1375	190.231	287.360	28.456	292.220	98.021	305.002	276.571	309.805	108.063	83.791	355.630	330.689	271.177	298.685	189.847	77.298	0.00042948	0.00032936	0.00010104	1396.6	2.5018e-06	5.1413e-06	1454.5	284.49	2.7483e-06	2.2416e-06	348.34	97.254	77.411	22.258	3.7393e-06	30.838	0.0002338	0.00020852	5.6451e-05	1366.3	2.2829e-06	2.1531e-06	1437	280.99	2.3396e-06	2.2607e-06	345.61	97.308	77.351	22.502	2.2051e-06	31.151	80.243	114.289	135.369	31.079	166.363	159.058	30.809	37.889	172.401	174.784	37.609	44.218	44.190	51.328	162.393	50.330	-8191	255	
32780.297	1	1	0	0	0.063959	0.12171	0.29018	0.28176	0.054391	0.31523	0.16213	0.11334	0.016298	0.10385	0.036718	0.14503	0.094622	0.0027034	0.21222	0.19513	-2.2875	-2.7292	-2.7417	-2.5375	-2.85	-2.8333	-2.9333	-2.9854	-2.7854	-2.7125	-2.9813	-2.825	-2.7167	-2.9292	-2.6854	-3.0854	135.649	69.714	312.979	294.908	172.549	378.862	262.859	85.530	268.502	111.183	42.704	340.542	328.951	331.417	375.209	339.287	0.00041588	0.0005281	0.00010428	1394.6	2.535e-06	4.0887e-06	1464.5	283.32	3.0813e-06	2.1717e-06	348.34	97.061	77.061	22.142	3.2542e-06	31.096	0.000236	0.00021187	5.7095e-05	1366.6	2.368e-06	2.231e-06	1439.8	281.03	2.3691e-06	2.2249e-06	344.88	96.95	77.167	22.461	2.1782e-06	31.22	85.119	109.256	141.330	31.172	196.489	179.725	30.824	37.762	206.898	177.159	37.726	44.119	44.913	51.538	158.409	50.516	-8191	255	
32780.395	1	1	0	0	0.027926	0.14682	0.21035	0.17191	0.19973	0.14543	0.2964	0.12983	0.17883	0.2419	0.19721	0.21813	0.18405	0.14906	0.17821	0.29119	-2.0396	-2.8375	-2.9708	-2.7167	-2.9104	-2.8688	-2.775	-2.8542	-2.7958	-2.6771	-2.8812	-2.7146	-2.8583	-2.8021	-2.5667	-2.9583	118.165	72.148	40.039	302.143	27.819	179.780	351.575	98.749	42.397	201.080	233.590	229.469	327.838	288.856	310.598	365.361	0.00040257	0.0005103	0.00011002	1401.4	4.55e-06	2.2216e-06	1465.4	281.77	4.2937e-06	2.636e-06	347.21	96.376	77.132	22.189	3.6378e-06	30.774	0.00022855	0.00020902	5.5978e-05	1365.8	2.2654e-06	2.1843e-06	1441.1	279.72	2.2683e-06	2.1448e-06	344.36	96.738	77.092	22.422	2.2407e-06	31.067	88.001	122.012	145.027	30.921	192.750	130.472	30.924	37.970	179.064	167.470	37.852	44.560	44.541	51.528	154.556	51.103	-8191	255	
32780.516	1	1	0	0	0.15812	0.22951	0.25195	0.27375	0.092065	0.112	0.21602	0.12785	0.19684	0.012403	0.28561	0.26478	0.2906	0.19881	0.089078	0.053457	-2.1854	-2.625	-2.925	-2.7167	-2.8	-2.8854	-2.8312	-3.1937	-2.675	-2.6437	-3.0958	-2.5771	-2.8229	-2.9104	-2.6	-3.0896	164.477	266.699	255.247	37.713	83.065	367.142	330.695	21.380	174.761	282.675	378.354	273.199	324.473	375.810	111.030	362.109	0.00043214	0.00037649	7.0107e-05	1390.3	3.6181e-06	3.7357e-06	1457.3	281.87	4.0577e-06	2.9819e-06	347.07	96.644	77.324	22.178	5.8829e-06	30.823	0.00023543	0.00020128	5.7338e-05	1362.7	2.3183e-06	2.2767e-06	1436.6	279.51	2.327e-06	2.2545e-06	343.97	96.677	76.883	22.449	2.1928e-06	31.09	89.340	89.515	123.562	30.929	172.377	164.842	31.027	37.765	157.330	197.848	37.764	44.304	44.446	51.391	159.575	50.870	-8191	255	
32780.609	1	1	0	0	0.18781	0.17568	0.084251	0.27062	0.12387	0.31747	0.41856	0.18485	0.41708	0.27778	0.25493	0.24487	0.31251	0.053846	0.1089	0.21917	-2.1958	-2.6104	-2.9	-2.7167	-2.7042	-2.7729	-2.9375	-2.8354	-2.8146	-2.6042	-3.0938	-2.6958	-2.6021	-2.8458	-2.7729	-2.9167	184.031	104.383	257.699	362.497	315.261	61.272	316.447	151.966	170.825	60.059	328.174	320.366	321.405	43.533	172.765	338.556	0.00044639	0.00027898	0.00013566	1390	3.8181e-06	4.0462e-06	1455.5	281.67	2.7099e-06	2.4032e-06	345.91	96.811	77.009	22.227	1.7391e-06	30.855	0.00023045	0.0002037	5.7326e-05	1360.6	2.2546e-06	2.1758e-06	1435	279.85	2.3152e-06	2.1716e-06	343.65	96.678	76.867	22.414	2.219e-06	31.123	87.917	134.361	92.616	30.878	174.209	186.611	30.961	38.197	151.245	165.888	37.932	44.362	44.615	51.751	178.182	50.579	-8191	255	
32780.684	1	1	0	0	0.071951	0.099596	0.32793	0.21752	0.12399	0.074471	0.41138	0.15627	0.11597	0.23143	0.089327	0.44007	0.1311	0.048897	0.04241	0.30143	-2.3333	-2.5792	-2.8229	-2.6146	-2.7979	-2.9271	-2.6875	-2.8729	-2.775	-2.6917	-3.0896	-2.6896	-2.625	-3.1688	-2.6542	-2.7521	334.782	188.373	233.241	284.109	257.854	104.932	352.596	260.432	98.477	361.551	337.131	313.091	319.658	244.117	138.702	322.973	0.00042448	0.00021863	6.963e-05	1391	2.39e-06	3.1399e-06	1457.8	281.21	2.3988e-06	2.3295e-06	342.67	95.642	76.763	22.233	2.8203e-06	30.678	0.00023032	0.00020186	5.5104e-05	1360.3	2.1289e-06	2.1647e-06	1435	278.75	2.228e-06	2.2006e-06	342.37	96.436	76.747	22.408	2.1238e-06	30.993	88.318	111.715	79.135	30.706	177.599	211.145	30.822	38.052	182.497	164.019	37.977	44.224	44.480	51.403	195.366	50.897	-8191	255	
32780.777	1	1	0	0	0.11149	0.15998	0.037139	0.17866	0.29994	0.12072	0.2945	0.05078	0.30586	0.12254	0.15494	0.1705	0.15317	0.059517	0.14177	0.038464	-2.3	-2.4938	-3.0229	-2.625	-2.6937	-2.9604	-2.8458	-2.9292	-2.8583	-2.6042	-2.9104	-2.8146	-2.5333	-2.95	-2.625	-2.7917	319.560	270.924	42.860	29.376	87.653	199.985	347.104	322.356	379.042	239.272	75.954	168.450	357.870	251.787	367.743	195.568	0.00045153	0.00042101	0.00012258	1390.3	3.769e-06	3.0866e-06	1451.5	280.55	3.5601e-06	3.5523e-06	344.89	96.553	76.602	22.056	2.6138e-06	30.71	0.00022433	0.00019602	5.4042e-05	1358.9	2.1458e-06	2.1589e-06	1430.1	278.13	2.1654e-06	2.091e-06	341.94	96.224	76.39	22.239	2.0358e-06	30.976	89.211	104.690	106.996	31.018	186.310	190.412	30.790	38.098	178.101	159.515	37.817	44.381	44.557	51.337	196.109	51.231	-8191	255	
32780.898	1	1	0	0	0.24916	0.078212	0.18177	0.23993	0.21644	0.033291	0.18869	0.16244	0.072019	0.21352	0.16055	0.12988	0.29036	0.063347	0.2855	0.28426	-2.4458	-2.7229	-2.8	-2.9083	-2.6479	-2.9188	-2.925	-2.7562	-2.8333	-2.6937	-2.9688	-2.7625	-2.5292	-2.9458	-2.8063	-2.8083	206.813	217.834	188.967	307.957	340.726	347.883	329.993	357.097	367.692	73.418	65.592	335.704	33.350	23.045	134.941	62.410	0.00042644	0.00054073	0.00011315	1375	3.4333e-06	3.4811e-06	1444.6	279.61	5.331e-06	2.135e-06	343.94	95.743	76.277	21.948	4.7089e-06	30.399	0.00021881	0.00018136	5.4754e-05	1348.4	2.0801e-06	2.132e-06	1425.4	276.46	2.2542e-06	1.9749e-06	340.21	95.751	76.31	22.174	2.0958e-06	30.752	84.901	129.869	123.138	31.148	159.644	183.640	30.891	38.111	159.043	221.253	37.684	44.102	44.453	51.275	156.336	51.085	-8191	255	
32780.992	1	1	0	0	0.21282	0.14719	0.21784	0.056761	0.27068	0.072604	0.1599	0.18674	0.30177	0.095565	0.14423	0.1632	0.15043	0.22448	0.18926	0.21383	-2.5521	-2.5229	-2.6646	-2.8833	-2.4896	-2.8688	-2.8208	-2.8104	-2.8417	-2.7708	-2.9	-2.9229	-2.5167	-2.8417	-2.6542	-2.4708	267.099	191.185	355.430	72.025	162.091	310.275	296.084	368.012	140.674	51.724	204.353	28.861	157.450	321.059	141.907	292.397	0.00041265	0.00054048	0.00014939	1383.9	2.801e-06	4.1414e-06	1444.2	277.65	3.8905e-06	3.1626e-06	342.14	95.762	76.178	21.874	3.5048e-06	30.707	0.00022197	0.00019114	5.2266e-05	1350.1	2.1592e-06	2.1064e-06	1423.1	275.92	2.1313e-06	2.0458e-06	339.8	95.813	75.962	22.178	2.0983e-06	30.872	86.632	97.373	106.257	30.765	175.856	149.056	30.890	38.001	171.580	187.944	37.503	44.315	44.831	51.518	169.577	51.279	-8191	255	
32781.090	1	1	0	0	0.10055	0.33373	0.32679	0.24035	0.085006	0.25188	0.27742	0.14843	0.075451	0.17536	0.1379	0.059239	0.041671	0.23895	0.32426	0.10163	-2.2958	-2.4437	-2.6271	-3.1042	-2.6333	-2.8417	-2.8854	-2.725	-2.7938	-2.6771	-2.7979	-3.0438	-2.6396	-2.8625	-2.6708	-2.6479	115.248	27.472	359.529	61.592	231.003	42.328	308.490	42.223	360.708	94.598	205.529	44.359	378.690	311.775	135.504	327.716	0.00043446	0.0004326	0.00010335	1371.4	3.1435e-06	3.4738e-06	1441.1	277.59	4.7078e-06	4.0668e-06	340.39	95.423	76.369	21.973	4.94e-06	30.274	0.00021783	0.00018391	5.2663e-05	1346.4	2.0028e-06	2.1183e-06	1419.9	274.97	2.1915e-06	1.9846e-06	338.25	95.587	75.763	22.14	2.0478e-06	30.729	87.392	155.006	118.267	30.719	179.612	173.585	30.810	38.094	177.201	184.356	37.765	44.543	44.628	51.695	171.471	50.695	-8191	255	
32781.188	1	1	0	0	0.046875	0.12171	0.30284	0.11662	0.13713	0.10119	0.2318	0.13872	0.084458	0.21251	0.10939	0.23529	0.25689	0.19817	0.22229	0.035058	-2.4979	-2.4437	-2.6375	-2.9813	-2.6146	-2.8167	-2.9667	-2.4958	-2.8688	-2.6979	-2.5604	-3	-2.6688	-2.9042	-2.8125	-2.6146	329.246	28.919	173.593	153.624	63.796	63.681	270.464	83.955	306.195	118.910	202.400	31.017	38.997	168.040	115.971	241.035	0.00040747	0.00032591	9.0554e-05	1372.3	2.4009e-06	1.9023e-06	1441.7	276.29	4.5691e-06	1.5733e-06	342.22	95.709	75.683	21.835	5.2974e-06	30.401	0.00022012	0.00017639	5.1761e-05	1345	1.9773e-06	2.0437e-06	1419.3	274.78	2.036e-06	1.9045e-06	338.75	95.592	75.783	22.104	2.0227e-06	30.757	88.407	89.472	103.252	31.252	179.175	188.804	30.901	38.035	178.025	169.144	37.401	44.730	44.671	51.352	185.194	50.850	-8191	255	
32781.281	1	1	0	0	0.086725	0.11363	0.19304	0.1987	0.14555	0.19209	0.10791	0.44461	0.076652	0.10055	0.18159	0.20762	0.123	0.25356	0.16392	0.10543	-2.2271	-2.7458	-2.8354	-2.9917	-2.6625	-2.8646	-2.9646	-2.625	-2.6813	-2.6854	-2.6271	-3.0083	-2.7542	-2.6667	-2.725	-2.6917	186.493	216.232	336.160	295.452	365.887	137.871	327.706	23.976	194.793	125.916	91.705	277.123	370.543	68.914	322.583	295.283	0.00036726	0.00043429	6.0618e-05	1373.6	1.5107e-06	4.5959e-06	1442	276.72	3.1411e-06	3.6275e-06	341.2	96.099	75.725	21.928	4.7596e-06	30.383	0.00021955	0.00017912	5.0898e-05	1342.3	2.0437e-06	2.0665e-06	1417.6	274.65	2.156e-06	2.0254e-06	338.33	95.672	75.829	22.117	2.1468e-06	30.75	80.990	109.970	147.844	30.959	144.368	145.963	30.927	37.811	153.144	169.696	37.980	44.633	44.813	51.589	180.119	50.856	-8191	255	
32781.379	1	1	0	0	0.069718	0.14662	0.29223	0.22533	0.16613	0.09621	0.27891	0.094298	0.083826	0.37358	0.096313	0.12286	0.16815	0.14741	0.13705	0.1589	-2.4958	-2.7812	-2.6646	-3.025	-2.7167	-2.9354	-3.0667	-2.7062	-2.95	-2.7	-2.8771	-2.9979	-2.7062	-2.7	-2.7958	-2.8021	45.141	91.946	322.867	321.278	67.190	300.689	321.852	132.764	74.657	325.591	250.509	28.019	377.834	53.820	142.063	28.518	0.00035741	0.00041843	0.00010566	1380.6	3.0044e-06	2.184e-06	1436.2	278.48	1.2613e-06	2.513e-06	341.41	95.087	75.635	21.809	2.9228e-06	30.361	0.00021339	0.00019254	5.1948e-05	1344.8	2.0952e-06	2.0387e-06	1416.5	275.36	2.1836e-06	2.0252e-06	338.04	95.465	75.628	22.03	2.038e-06	30.716	88.895	136.826	112.049	30.815	166.008	149.143	31.082	38.250	185.198	156.089	37.870	44.638	44.653	50.995	173.760	50.852	-8191	255	
32781.477	1	1	0	0	0.31823	0.11959	0.20975	0.25153	0.047798	0.11739	0.15551	0.33155	0.10173	0.11125	0.20748	0.093836	0.10831	0.17404	0.17754	0.1255	-2.4083	-2.7938	-2.6042	-2.9938	-2.6292	-2.7833	-3.0417	-2.7896	-2.8875	-2.7792	-2.6146	-2.9938	-2.7354	-2.8854	-2.8979	-2.7792	78.227	40.106	116.932	279.986	133.394	174.380	354.966	361.847	359.679	74.495	254.893	281.588	85.339	21.905	165.998	181.532	0.00043314	0.00029568	0.00010392	1375.1	3.3066e-06	1.5842e-06	1446.6	276.77	1.1497e-06	2.4524e-06	339.63	95.593	75.704	21.779	3.7041e-06	30.377	0.00021783	0.00019155	5.2957e-05	1343.1	2.0143e-06	2.0008e-06	1419.1	274.1	2.1385e-06	2.095e-06	337.35	95.378	75.753	22.111	2.1335e-06	30.653	87.109	134.643	136.047	30.847	180.120	181.674	31.137	38.189	193.658	152.553	37.856	44.555	45.018	51.250	148.764	50.806	-8191	255	
32781.598	1	1	0	0	0.11864	0.086071	0.05741	0.14306	0.2152	0.16174	0.2309	0.14697	0.064454	0.17732	0.11897	0.19034	0.24443	0.15894	0.26629	0.079384	-2.3563	-2.8021	-2.5646	-2.9604	-2.7167	-2.7896	-3.1917	-2.7521	-2.7083	-2.7938	-2.8042	-2.9708	-2.7854	-2.6937	-2.9688	-2.8187	270.665	305.126	256.545	41.922	135.214	318.938	318.214	258.162	207.087	167.098	253.710	54.632	43.907	73.090	65.163	316.278	0.00039965	0.00023618	0.00012696	1379.4	3.2825e-06	4.3573e-06	1432.5	276.95	5.2374e-06	5.4121e-06	340.92	95.447	76.131	21.785	4.4307e-06	30.269	0.00021777	0.00018603	5.1697e-05	1344.1	2.0808e-06	2.0272e-06	1414.5	274.46	2.1143e-06	2.0861e-06	337.57	95.299	75.759	22.061	2.0401e-06	30.607	82.946	131.996	110.121	31.006	184.176	149.252	30.998	38.147	183.166	156.586	37.884	44.393	44.747	51.384	169.254	51.161	-8191	255	
32781.691	1	1	0	0	0.2942	0.063628	0.26837	0.081553	0.11832	0.1948	0.14506	0.20673	0.21295	0.15239	0.18408	0.062125	0.099934	0.25411	0.15277	0.081776	-2.3271	-2.9021	-2.575	-2.8604	-2.6979	-2.625	-3.2062	-2.7354	-2.6792	-3.0687	-2.7854	-2.9583	-2.85	-2.4417	-2.8229	-2.7938	117.229	370.317	363.569	377.699	165.896	229.968	193.414	265.748	175.325	100.161	286.645	255.584	73.157	53.417	161.211	139.289	0.00039684	0.00032606	8.6862e-05	1374.8	4.0488e-06	2.7988e-06	1435.9	276.4	2.5634e-06	3.0442e-06	339.56	95.562	75.844	21.88	3.7024e-06	30.296	0.00021169	0.00018663	4.9837e-05	1342.1	2.0699e-06	2.006e-06	1415.1	273.9	2.1128e-06	2.1248e-06	337.39	95.26	75.764	22.059	2.0814e-06	30.662	91.335	130.123	125.319	31.051	165.985	196.732	31.147	38.192	159.209	168.488	37.865	44.472	44.725	51.282	161.075	50.592	-8191	255	
32781.789	1	1	0	0	0.51026	0.27675	0.14564	0.14845	0.10522	0.25705	0.43558	0.071585	0.084735	0.095657	0.17017	0.14817	0.18325	0.13165	0.088316	0.22597	-2.2875	-2.8812	-2.7167	-2.9396	-2.875	-2.5563	-3.1208	-2.9479	-2.8417	-3.0187	-2.7896	-2.8292	-2.775	-2.8646	-2.8312	-2.7333	105.023	238.886	104.225	20.436	252.135	346.828	332.770	141.560	112.454	272.754	311.743	111.425	58.128	107.783	149.925	118.677	0.00039236	0.00033603	7.9666e-05	1370.9	4.2481e-06	4.0631e-06	1431.1	275.31	4.056e-06	3.8672e-06	339.7	95.367	75.698	21.798	5.2211e-06	30.345	0.00021584	0.00018392	5.1343e-05	1338.6	2.081e-06	1.97e-06	1412.2	273.27	2.1192e-06	1.9994e-06	336.56	95.216	75.58	22.011	2.0675e-06	30.606	86.578	108.703	149.588	31.150	151.027	195.852	30.840	38.221	167.680	171.991	37.359	44.314	44.963	51.135	173.285	51.192	-8191	255	
32781.910	1	1	0	0	0.095591	0.17151	0.14615	0.15318	0.18002	0.207	0.43185	0.3187	0.02097	0.11395	0.2611	0.13422	0.15978	0.065686	0.090997	0.19004	-2.2542	-2.8583	-2.4854	-2.8917	-2.9396	-2.5438	-3.1083	-2.9667	-2.6417	-2.9771	-2.8229	-2.8958	-2.9333	-2.6625	-2.9708	-2.9562	213.282	250.521	377.126	53.874	228.411	299.913	324.456	332.537	160.994	230.717	62.973	357.267	295.861	367.219	212.858	100.687	0.00033328	0.00023563	0.00013183	1367.8	4.2469e-06	2.8203e-06	1428.7	276.82	5.4639e-06	1.6929e-06	339.07	95.603	75.588	21.706	6.1749e-06	30.248	0.00021163	0.00017904	5.0612e-05	1337.9	2.137e-06	1.9831e-06	1409.2	273.73	2.1384e-06	2.0603e-06	336.32	95.103	75.39	21.952	2.096e-06	30.625	92.095	151.540	136.743	30.995	173.169	153.615	30.891	38.088	158.664	129.288	37.773	44.397	44.798	51.490	188.300	50.990	-8191	255	
32781.980	1	1	0	0	0.071499	0.071037	0.085304	0.11869	0.12313	0.13222	0.46688	0.18063	0.08027	0.10831	0.16604	0.11366	0.15146	0.28739	0.29129	0.24638	-2.1771	-2.9021	-2.6146	-2.675	-2.9083	-2.5	-2.8729	-2.8458	-2.6688	-3.0229	-2.9458	-2.7771	-2.9313	-2.6063	-2.9167	-2.7792	167.242	88.640	264.685	47.291	142.819	101.467	331.729	279.085	180.466	349.083	364.818	316.737	222.949	71.465	363.719	294.913	0.00038893	0.00034736	5.2225e-05	1360.5	1.8482e-06	1.5523e-06	1429.5	275.84	4.5312e-06	2.3585e-06	337.81	94.697	75.992	21.747	3.8755e-06	30.086	0.00021779	0.00018441	5.0882e-05	1335.3	2.0961e-06	1.9645e-06	1409.7	273.41	2.0557e-06	2.0631e-06	335.58	94.919	75.616	21.991	2.0303e-06	30.465	92.437	76.940	130.294	30.834	149.005	177.720	30.796	38.001	189.653	196.376	38.103	44.549	44.891	51.558	155.321	50.537	-8191	255	
32782.074	1	1	0	0	0.21487	0.052104	0.11328	0.13217	0.11255	0.09698	0.064183	0.25047	0.16685	0.16699	0.10606	0.17191	0.011573	0.11481	0.28243	0.21862	-2.1312	-2.8812	-2.5167	-2.6354	-2.9729	-2.5104	-2.7792	-2.9688	-2.7438	-2.9854	-2.7667	-2.45	-2.9917	-2.6417	-2.675	-2.9625	122.599	358.882	312.770	49.461	99.117	235.799	266.811	291.748	32.358	141.954	338.322	354.320	317.838	352.622	332.479	279.037	0.00037565	0.00041042	7.9368e-05	1373.2	2.61e-06	2.2357e-06	1429	275.76	1.3519e-06	2.8395e-06	337.99	94.938	75.724	21.916	2.9169e-06	30.326	0.00020456	0.0001803	5.0644e-05	1341	2.0353e-06	1.9556e-06	1409.5	273.28	2.058e-06	2.0603e-06	335.66	95.17	75.394	22.008	2.0412e-06	30.577	81.693	91.263	97.979	31.111	167.820	188.649	30.989	38.039	174.432	155.031	37.957	44.507	44.924	51.542	178.426	51.008	-8191	255	
32782.195	1	1	0	0	0.085348	0.16524	0.23658	0.33819	0.104	0.19172	0.18221	0.28905	0.077685	0.082934	0.178	0.1401	0.096805	0.14011	0.11663	0.11764	-2.1354	-2.6271	-2.7125	-2.675	-2.8708	-2.7583	-2.85	-3	-2.5187	-2.8354	-2.8375	-2.5542	-2.9708	-2.825	-2.5396	-2.9188	159.444	53.922	124.795	318.668	270.985	285.887	336.816	351.291	359.423	185.590	363.372	335.653	23.379	368.968	371.306	121.261	0.00039487	0.00046604	0.00012964	1363.7	3.2382e-06	3.013e-06	1429.3	275.61	5.4009e-06	2.3701e-06	338.94	95.096	75.426	21.79	2.2982e-06	30.26	0.00021216	0.00018869	4.9709e-05	1334.8	1.9881e-06	1.8403e-06	1409	273.05	1.9884e-06	1.9905e-06	336.37	95.005	75.333	21.99	2.0561e-06	30.546	81.088	122.278	139.925	31.018	177.107	169.469	31.090	38.067	134.695	181.578	37.937	44.922	44.297	51.017	205.221	50.914	-8191	255	
32782.289	1	1	0	0	0.087661	0.040274	0.12652	0.33522	0.15224	0.063343	0.30239	0.29953	0.30643	0.1126	0.27701	0.078218	0.21968	0.14655	0.15252	0.05152	-2.1208	-2.8896	-2.7687	-2.6063	-2.9896	-2.7542	-2.9396	-2.9604	-2.7229	-2.9813	-2.9292	-2.5625	-2.8521	-2.6354	-2.7917	-2.9625	266.217	64.039	289.226	24.298	236.462	146.279	331.778	258.833	354.956	283.114	31.150	180.518	28.168	84.134	145.061	178.066	0.00043816	0.00031719	0.0001267	1359.4	2.6345e-06	3.5939e-06	1430.3	275.07	3.9377e-06	5.4412e-06	339.1	94.715	75.473	21.733	4.8971e-06	30.311	0.00021232	0.00017831	5.0155e-05	1334.1	2.0938e-06	1.9039e-06	1409.5	273.28	2.0941e-06	2.0209e-06	336.31	95.013	75.413	21.968	1.9796e-06	30.529	89.806	109.321	105.753	31.269	168.907	135.127	30.945	37.990	161.660	174.916	37.889	44.544	44.582	51.365	162.968	50.632	-8191	255	
32782.387	1	1	0	0	0.31468	0.37012	0.1268	0.10511	0.20848	0.097092	0.33178	0.22408	0.13982	0.048778	0.21648	0.17164	0.21282	0.15412	0.1966	0.13233	-2.1917	-2.7708	-2.9	-2.7062	-2.7687	-2.7479	-2.7333	-2.8917	-2.6875	-2.7271	-2.9042	-2.5708	-3.0187	-2.5792	-2.5583	-2.9	249.967	292.999	236.942	28.830	378.923	232.621	316.341	363.433	39.298	300.595	54.919	66.022	124.627	129.267	106.867	359.687	0.00038441	0.00040523	0.00012134	1369.4	4.5712e-06	3.0198e-06	1429.7	274.48	3.2229e-06	3.5719e-06	337.81	95.09	75.509	21.875	3.04e-06	30.26	0.00020356	0.00017808	4.7869e-05	1334.2	1.9564e-06	1.8239e-06	1407.3	272.56	2.0414e-06	1.9986e-06	336.4	95.107	75.315	21.975	1.9618e-06	30.549	91.070	105.526	108.124	30.777	160.396	189.805	31.065	37.830	160.028	176.086	38.031	44.488	44.322	51.596	198.435	50.783	-8191	255	
32782.484	1	1	0	0	0.12266	0.056463	0.16823	0.098448	0.24006	0.13133	0.39002	0.15709	0.21206	0.23876	0.22936	0.19229	0.12526	0.22655	0.27265	0.18158	-2.1562	-2.5729	-2.7875	-2.5354	-2.9458	-2.9646	-2.7625	-3.1875	-2.6417	-2.5938	-3.0438	-2.7229	-2.7604	-2.7062	-2.4979	-2.8396	308.614	67.560	22.868	261.236	100.926	88.300	301.659	320.887	122.729	29.869	333.280	359.588	283.779	327.940	71.584	90.716	0.00040205	0.00030394	0.00011099	1366.6	3.0044e-06	4.4201e-06	1426.1	275.19	3.4704e-06	1.6532e-06	341.43	95.384	75.829	21.74	2.054e-06	30.391	0.00021169	0.00018093	4.8509e-05	1335.5	2.0118e-06	1.8916e-06	1408.9	272.89	2.03e-06	1.9248e-06	336.51	94.918	75.51	21.977	1.9899e-06	30.598	84.838	173.219	90.412	31.009	148.716	143.102	31.067	38.025	169.272	176.108	37.580	44.572	44.611	51.289	189.674	50.993	-8191	255	
32782.578	1	1	0	0	0.031116	0.12956	0.088174	0.21725	0.10255	0.10592	0.16889	0.22871	0.072621	0.37591	0.17085	0.24177	0.13215	0.11116	0.37362	0.18277	-2.2354	-2.65	-3.0458	-2.6292	-2.9062	-2.9	-2.9146	-3.1292	-2.8167	-2.5458	-3.05	-2.6562	-2.8292	-2.9	-2.5583	-2.8646	366.717	202.996	47.970	75.712	209.420	261.827	372.079	259.704	96.305	326.232	56.358	361.761	87.773	82.592	134.415	326.348	0.00040408	0.00032304	0.0001115	1362.6	1.1652e-06	4.2555e-06	1431.8	275.48	3.2509e-06	1.9987e-06	339.14	95.195	75.583	21.843	1.4215e-06	30.233	0.00020139	0.00016691	4.9129e-05	1333.9	1.9731e-06	1.9193e-06	1409.1	272.94	1.9613e-06	1.8646e-06	335.93	94.854	75.373	22.027	1.8728e-06	30.493	94.664	115.073	144.696	31.129	123.649	173.875	30.954	38.239	180.995	144.013	38.010	44.495	44.540	51.653	143.079	51.247	-8191	255	
32782.676	1	1	0	0	0.13134	0.32056	0.14789	0.19673	0.19003	0.24511	0.08959	0.12551	0.065769	0.071237	0.35623	0.089963	0.064279	0.19975	0.24928	0.18848	-2.3104	-2.6937	-2.8917	-2.6667	-2.6688	-2.9917	-2.9104	-2.9292	-2.7271	-2.6333	-2.9667	-2.8083	-2.7333	-3.0083	-2.6792	-2.9167	285.859	144.598	290.642	104.557	240.757	180.481	367.936	287.466	191.003	162.829	73.015	37.276	328.190	326.644	144.978	329.088	0.00038619	0.00030676	0.00011408	1359.8	3.9344e-06	2.5755e-06	1424	275.12	4.3749e-06	1.5294e-06	338.38	94.52	75.771	21.891	3.9418e-06	30.176	0.00020695	0.0001767	4.9177e-05	1334.2	1.9697e-06	1.9001e-06	1407	271.92	1.9336e-06	1.8784e-06	335.58	94.838	75.346	21.962	1.9024e-06	30.555	85.136	119.720	115.098	30.760	147.320	180.297	31.012	38.206	183.679	155.467	37.852	44.277	44.365	51.322	131.210	50.979	-8191	255	
32782.773	1	1	0	0	0.20486	0.14905	0.1188	0.22338	0.038264	0.12162	0.28378	0.07981	0.12459	0.24184	0.10089	0.40185	0.052449	0.11159	0.30172	0.05796	-2.2896	-2.5479	-2.8854	-2.7062	-2.7188	-2.8833	-2.85	-2.9521	-2.8917	-2.6604	-2.9313	-2.7562	-2.7479	-3.0458	-2.575	-2.7583	341.415	62.133	184.301	319.264	304.986	338.473	323.689	375.966	53.983	152.163	44.570	316.007	112.380	354.431	338.993	218.553	0.00042289	0.00044449	0.00010332	1361.9	3.7281e-06	3.2765e-06	1425.4	273.53	5.6116e-06	2.8064e-06	336.27	95.318	75.207	21.746	4.9992e-06	30.178	0.00021417	0.0001771	4.8123e-05	1332.4	1.9055e-06	1.9163e-06	1404.9	272.25	2.0381e-06	1.9039e-06	335.08	95.13	75.327	21.883	1.9293e-06	30.496	89.602	117.498	99.603	30.999	184.156	182.816	30.873	38.092	166.240	185.433	38.213	44.202	44.518	51.735	176.114	50.903	-8191	255	
32782.867	1	1	0	0	0.17243	0.12951	0.31409	0.10423	0.19041	0.039844	0.36399	0.22215	0.16086	0.23957	0.10413	0.043756	0.028249	0.20169	0.049003	0.102	-2.475	-2.5292	-3.0271	-2.8125	-2.7375	-3	-3.0354	-2.7979	-2.8312	-2.5833	-2.9604	-2.7104	-2.6437	-3.0083	-2.8417	-2.6271	284.300	85.506	171.421	296.583	42.384	37.651	328.129	304.124	223.081	187.929	265.352	225.542	269.662	366.005	145.126	289.969	0.00037719	0.00031755	9.4533e-05	1359.2	3.0971e-06	2.7912e-06	1428.8	275.31	5.4343e-06	2.2138e-06	337.8	94.976	75.91	21.767	4.4518e-06	30.318	0.00020514	0.00017338	4.955e-05	1331.6	1.9341e-06	1.8442e-06	1407.6	272.67	1.989e-06	1.8784e-06	335.32	94.775	75.262	21.905	1.9138e-06	30.54	89.619	127.488	164.669	30.982	213.876	168.476	31.072	37.946	176.030	165.995	37.932	44.304	44.514	51.509	183.329	51.029	-8191	255	
32782.988	1	1	0	0	0.045633	0.18246	0.077084	0.30805	0.27679	0.12937	0.43977	0.32544	0.22323	0.29066	0.12631	0.34608	0.17025	0.10637	0.1644	0.31223	-2.4104	-2.7479	-2.8417	-2.7979	-2.5396	-3.1375	-2.8792	-2.7979	-2.85	-2.5687	-2.9417	-2.8625	-2.6625	-2.9646	-2.7729	-2.8042	306.828	377.425	176.679	219.708	359.176	216.749	277.097	270.171	64.944	115.081	307.986	91.858	334.401	209.548	115.072	80.560	0.00039292	0.0005609	9.6657e-05	1357.3	4.2358e-06	2.7653e-06	1428.5	274.26	4.3616e-06	3.3321e-06	337.37	94.912	75.338	21.784	2.3559e-06	30.042	0.00021036	0.0001768	4.9737e-05	1333.6	1.9769e-06	1.8907e-06	1406.1	272.41	1.9925e-06	1.8923e-06	335.07	94.918	75.284	21.95	1.9513e-06	30.481	84.614	144.391	120.155	30.837	174.765	175.586	31.094	38.042	155.237	167.150	37.830	44.563	44.413	51.778	152.323	50.796	-8191	255	
32783.082	1	1	0	0	0.1515	0.079899	0.11891	0.052953	0.14636	0.16096	0.20077	0.086133	0.14592	0.066982	0.22112	0.39466	0.18397	0.28072	0.26033	0.27329	-2.6542	-2.6708	-2.9125	-2.8854	-2.575	-2.8333	-2.8187	-2.8208	-3.0104	-2.6854	-2.9729	-2.7292	-2.625	-2.9792	-2.7271	-2.6875	53.655	363.517	119.662	80.061	325.536	331.769	301.194	344.814	365.884	248.240	356.645	60.281	44.726	363.724	140.739	258.428	0.00046321	0.00031302	9.9367e-05	1364.5	3.0378e-06	4.3233e-06	1429.8	275.62	2.5492e-06	3.56e-06	335.74	95.173	75.434	21.808	3.613e-06	30.245	0.00021007	0.00016599	5.0266e-05	1335	1.8448e-06	1.8898e-06	1407.1	272.75	2.0187e-06	1.8173e-06	335.14	94.973	75.291	21.974	1.9181e-06	30.564	87.129	95.697	128.729	30.864	173.340	178.390	30.932	38.011	232.832	174.145	37.509	44.503	44.782	51.613	174.535	51.199	-8191	255	
32783.180	1	1	0	0	0.12664	0.078754	0.25218	0.19735	0.17624	0.11634	0.39544	0.045876	0.078217	0.13401	0.16589	0.040723	0.044796	0.22148	0.022966	0.11005	-2.6708	-2.6208	-2.825	-2.8667	-2.875	-3.0354	-2.7979	-2.6667	-2.9729	-2.7188	-2.9083	-2.9417	-2.7875	-2.8708	-2.6729	-2.5792	216.928	229.899	42.217	354.948	282.056	298.149	356.548	205.687	120.637	170.898	332.987	287.518	33.463	306.815	34.719	318.910	0.00037257	0.00036923	9.1333e-05	1357.3	2.8907e-06	9.232e-07	1424.1	275.46	2.7052e-06	3.576e-06	340.08	94.413	75.288	21.694	2.7775e-06	30.054	0.00020446	0.00017317	4.8708e-05	1331.3	1.9463e-06	1.8506e-06	1405.4	272.25	2.0224e-06	1.8171e-06	335.72	94.668	75.18	21.941	1.9321e-06	30.513	87.392	90.083	120.756	31.348	179.029	164.448	31.042	37.933	164.679	190.787	37.772	44.447	44.448	51.409	166.688	50.919	-8191	255	
32783.277	1	1	0	0	0.086277	0.14814	0.26175	0.30679	0.15805	0.037661	0.33797	0.22968	0.06342	0.17984	0.32658	0.27151	0.25072	0.068563	0.14889	0.28561	-2.3688	-2.7875	-2.6854	-2.85	-2.7021	-2.8792	-2.9104	-2.5187	-2.9396	-2.8375	-2.7229	-2.9083	-2.75	-2.6042	-2.825	-2.5	61.641	134.584	143.770	48.735	108.851	312.761	361.896	112.817	209.940	67.365	356.157	289.957	55.047	76.612	32.062	51.302	0.00038354	0.0005227	9.6126e-05	1366.1	4.5515e-06	7.618e-07	1428	273.77	4.3447e-06	1.2656e-06	338.92	94.975	75.197	21.626	2.431e-06	30.191	0.00020093	0.00017374	4.862e-05	1334.5	1.9168e-06	1.9056e-06	1406.3	272.29	2.0042e-06	1.906e-06	335.5	94.935	75.113	21.943	1.9855e-06	30.523	87.699	134.243	113.756	30.866	149.923	87.610	30.989	38.209	158.258	202.749	37.938	44.503	44.447	51.719	166.870	50.959	-8191	255	
32783.371	1	1	0	0	0.072055	0.19818	0.30553	0.12021	0.26925	0.20834	0.16609	0.15842	0.16827	0.068703	0.20569	0.08999	0.048402	0.10303	0.27791	0.061625	-2.4229	-2.725	-2.6646	-2.8688	-2.4479	-2.7833	-2.9729	-2.6833	-2.825	-2.7542	-2.7062	-3.0312	-2.5479	-2.8583	-2.8417	-2.9208	287.737	96.124	354.777	21.998	57.392	296.521	335.582	306.273	29.075	369.364	351.575	301.570	340.933	337.617	114.904	132.979	0.00038113	0.00035718	9.2873e-05	1359.6	2.1393e-06	3.8424e-06	1425.1	273.82	3.2237e-06	3.5821e-06	337.81	95.074	75.557	21.686	1.8372e-06	30.357	0.00020919	0.00017503	4.7833e-05	1331.4	1.948e-06	1.8671e-06	1402.6	272.18	2.0227e-06	1.8803e-06	334.89	94.976	75.1	21.945	1.8613e-06	30.539	80.412	97.696	122.627	30.748	159.705	183.734	31.128	37.950	162.629	152.244	37.669	44.704	44.906	51.753	151.278	51.076	-8191	255	
32783.469	1	1	0	0	0.1076	0.34452	0.34769	0.26365	0.24368	0.2204	0.17808	0.13308	0.074233	0.31778	0.037288	0.2259	0.11925	0.31182	0.1006	0.14508	-2.4938	-2.7583	-2.6917	-2.9625	-2.5812	-2.6854	-3.0104	-2.725	-2.9354	-2.75	-2.7479	-2.9375	-2.5812	-2.8104	-2.9729	-2.6479	199.565	222.067	261.314	359.336	81.563	90.820	272.909	54.338	231.113	122.767	161.769	36.566	335.761	249.739	63.404	29.722	0.00036815	0.00055695	9.6874e-05	1362.1	3.0581e-06	3.6725e-06	1423.1	274.47	4.1242e-06	2.4538e-06	337.38	94.722	75.243	21.863	4.3425e-06	30.022	0.0002014	0.00016885	4.5444e-05	1329.7	1.858e-06	1.8646e-06	1401.8	271.89	1.9814e-06	1.8021e-06	334.89	94.589	75.121	21.922	1.9155e-06	30.416	89.811	114.156	65.985	31.363	151.385	187.975	30.987	38.170	177.969	105.081	37.891	44.366	44.516	51.408	143.249	51.220	-8191	255	
32783.590	1	1	0	0	0.14075	0.1865	0.098807	0.25529	0.15118	0.23496	0.33964	0.50753	0.18637	0.27549	0.32417	0.22206	0.32741	0.028177	0.042354	0.1555	-2.475	-2.8333	-2.6562	-3.0083	-2.8438	-2.8312	-3.1312	-2.8146	-2.9979	-3.0375	-2.7021	-2.9292	-2.6646	-2.6396	-3.0125	-2.5479	259.473	265.114	252.161	79.230	68.368	258.625	320.763	328.046	188.861	217.421	366.852	113.453	43.614	172.713	95.998	361.727	0.00042054	0.00053255	5.2211e-05	1363.8	4.7389e-06	1.7515e-06	1420.4	273.09	4.7036e-06	1.9992e-06	338.49	94.811	75.495	21.817	2.7077e-06	30.293	0.00020858	0.00017557	4.5802e-05	1329.9	1.9869e-06	1.8577e-06	1402.2	271.32	2.0204e-06	1.8834e-06	334.53	94.732	75.067	21.929	1.8607e-06	30.511	88.166	135.137	123.952	31.199	168.649	171.461	31.094	38.128	150.310	154.360	37.961	44.552	44.470	51.714	158.249	51.212	-8191	255	
32783.684	1	1	0	0	0.19475	0.20991	0.32106	0.055564	0.16774	0.2716	0.06202	0.052263	0.16531	0.13911	0.12091	0.061567	0.11491	0.096966	0.11348	0.10797	-2.1958	-2.8958	-2.6229	-2.9646	-2.5583	-2.6688	-3.0958	-2.7083	-2.8521	-3.0271	-2.6542	-2.95	-2.6583	-2.4229	-2.9167	-2.6979	246.122	315.711	261.801	263.354	73.742	27.404	246.107	35.839	376.744	52.592	314.536	375.444	26.549	172.905	310.121	332.879	0.00040314	0.0004265	0.0001273	1353	2.9898e-06	2.6478e-06	1423.5	274.4	5.0932e-06	3.0086e-06	336.84	94.606	75.215	21.662	1.6519e-06	30.099	0.0002064	0.0001706	4.7634e-05	1326.3	1.8506e-06	1.8857e-06	1401.6	271.41	2.0251e-06	1.8906e-06	334.17	94.478	75.025	21.899	1.8334e-06	30.389	82.093	87.465	112.265	31.400	176.493	200.561	31.113	38.024	198.050	196.899	37.694	44.500	44.424	51.086	190.884	50.886	-8191	255	
32783.781	1	1	0	0	0.06354	0.23694	0.16699	0.071111	0.15928	0.29283	0.49998	0.11855	0.17105	0.20937	0.15637	0.2307	0.13266	0.059717	0.34024	0.11171	-2.4896	-3.0167	-2.7417	-2.9771	-2.6917	-2.7042	-2.9521	-2.7125	-2.9083	-3.0583	-2.8312	-2.9875	-2.8708	-2.7667	-2.8688	-2.6771	354.219	54.994	285.963	87.264	40.902	326.990	295.501	47.114	346.057	278.356	137.223	348.373	29.441	90.978	210.858	150.648	0.00038926	0.00043566	0.00013745	1353.5	3.0337e-06	6.6234e-06	1423.5	274.87	3.5251e-06	1.2776e-06	338.95	94.284	75.303	21.717	2.8009e-06	30.244	0.00020271	0.00017455	4.7225e-05	1329.3	1.9292e-06	1.8373e-06	1401.4	271.66	1.9581e-06	1.9042e-06	334.65	94.567	75.071	21.892	1.9447e-06	30.48	90.151	96.246	108.174	30.835	179.544	194.482	30.899	37.928	174.894	112.459	37.856	44.609	44.619	51.534	160.053	51.013	-8191	255	
32783.879	1	1	0	0	0.10631	0.12962	0.20088	0.086349	0.12076	0.24363	0.21863	0.28832	0.08089	0.08197	0.22958	0.29698	0.12109	0.067048	0.10108	0.041743	-2.2375	-2.9646	-2.4938	-2.85	-2.7792	-2.6479	-3.0979	-2.9042	-2.6292	-2.9146	-2.75	-2.8854	-3.0187	-2.5979	-2.9125	-2.8917	288.530	167.474	317.806	68.059	282.378	323.013	329.281	327.565	136.793	206.350	57.042	322.254	106.126	344.144	320.284	103.216	0.00039286	0.00043826	0.00013208	1355.5	2.3791e-06	2.4855e-06	1417.8	273.06	4.356e-06	3.6974e-06	338.29	94.734	74.823	21.669	3.6038e-06	30.179	0.00021069	0.00017264	4.6339e-05	1328	1.9436e-06	1.8445e-06	1400.4	271.68	1.9425e-06	1.9994e-06	334.54	94.66	74.862	21.894	1.9793e-06	30.435	85.849	117.642	125.688	31.219	188.677	182.784	31.120	38.213	192.745	183.444	37.756	44.831	44.628	51.533	182.502	50.950	-8191	255	
32783.973	1	1	0	0	0.17804	0.063207	0.31705	0.12535	0.13607	0.051099	0.28091	0.20673	0.07339	0.1149	0.39554	0.16181	0.079024	0.18412	0.13952	0.066121	-2.3625	-3.0396	-2.6312	-2.8521	-3.0438	-2.6521	-3.1271	-2.7958	-2.5479	-3.0438	-2.8688	-2.8167	-3.0917	-2.6813	-2.9042	-3.0271	176.090	377.787	140.294	378.445	164.700	283.718	319.511	309.193	344.512	347.407	328.617	37.034	347.961	28.680	334.939	272.007	0.00039298	0.00030992	6.852e-05	1349.1	3.3755e-06	2.8037e-06	1417.5	274.54	4.7835e-06	2.7564e-06	336.33	94.505	75.528	21.853	2.4046e-06	30.137	0.00020395	0.00017712	4.8855e-05	1325.9	1.9834e-06	1.8872e-06	1401.4	271.92	1.9188e-06	1.8969e-06	334.13	94.571	75.107	21.924	1.9138e-06	30.464	84.170	121.868	84.483	31.415	195.845	171.220	31.413	38.069	193.494	204.597	37.881	44.298	44.658	51.609	191.528	50.936	-8191	255	
#DATA ENDS
