BOXY.EXE: ISS Imagent and Oximeter Data Acquisition Program Version 0.80
Ascii Record File

#ACQ INFORMATION
2  Detector Channels 
16  External MUX Channels 
1  Auxiliary Channels 
5000  Waveform (CCF) Frequency (Hz)
1  Waveforms Skipped 
30  Waveforms Averaged 
1  Cycles Averaged 
16  Acquisitions per Waveform 
10.0806  Updata Rate (Hz) 

#FILE INFORMATION
TRUE -- External MUX Channel results are PARSED.
FALSE -- AC DC and Phase are NOT grouped.
TRUE -- Companion Program Settings File CREATED.
FALSE -- AC data not excluded
FALSE -- DC data not excluded
FALSE -- Phase data not excluded
FALSE -- Auxillary Chn. data not excluded
Tab delimiters

#CALIBRATION STATE
TRUE -- Waveform Calibration Values APPLIED.


#AUX CALIBRATION VALUES
Val Type	aux-1	

Term	1.0000e+00	
Factor	0.0000e+00	


#WF CALIBRATION VALUES
A = Detector Channel
Val Type	A-AC1	A-AC2	A-AC3	A-AC4	A-AC5	A-AC6	A-AC7	A-AC8	A-AC9	A-AC10	A-AC11	A-AC12	A-AC13	A-AC14	A-AC15	A-AC16	A-DC1	A-DC2	A-DC3	A-DC4	A-DC5	A-DC6	A-DC7	A-DC8	A-DC9	A-DC10	A-DC11	A-DC12	A-DC13	A-DC14	A-DC15	A-DC16	A-Ph1	A-Ph2	A-Ph3	A-Ph4	A-Ph5	A-Ph6	A-Ph7	A-Ph8	A-Ph9	A-Ph10	A-Ph11	A-Ph12	A-Ph13	A-Ph14	A-Ph15	A-Ph16	

Term	0.00000e+00	0.00000e+00	0.00000e+00	0.00000e+00	0.00000e+00	0.00000e+00	0.00000e+00	0.00000e+00	0.00000e+00	0.00000e+00	0.00000e+00	0.00000e+00	0.00000e+00	0.00000e+00	0.00000e+00	0.00000e+00	0.00000e+00	0.00000e+00	0.00000e+00	0.00000e+00	0.00000e+00	0.00000e+00	0.00000e+00	0.00000e+00	0.00000e+00	0.00000e+00	0.00000e+00	0.00000e+00	0.00000e+00	0.00000e+00	0.00000e+00	0.00000e+00	0.00000e+00	0.00000e+00	0.00000e+00	0.00000e+00	0.00000e+00	0.00000e+00	0.00000e+00	0.00000e+00	0.00000e+00	0.00000e+00	0.00000e+00	0.00000e+00	0.00000e+00	0.00000e+00	0.00000e+00	0.00000e+00	
Factor	1.00000e+00	1.00000e+00	1.00000e+00	1.00000e+00	1.00000e+00	1.00000e+00	1.00000e+00	1.00000e+00	1.00000e+00	1.00000e+00	1.00000e+00	1.00000e+00	1.00000e+00	1.00000e+00	1.00000e+00	1.00000e+00	1.00000e+00	1.00000e+00	1.00000e+00	1.00000e+00	1.00000e+00	1.00000e+00	1.00000e+00	1.00000e+00	1.00000e+00	1.00000e+00	1.00000e+00	1.00000e+00	1.00000e+00	1.00000e+00	1.00000e+00	1.00000e+00	X	X	X	X	X	X	X	X	X	X	X	X	X	X	X	X	

B = Detector Channel
Val Type	B-AC1	B-AC2	B-AC3	B-AC4	B-AC5	B-AC6	B-AC7	B-AC8	B-AC9	B-AC10	B-AC11	B-AC12	B-AC13	B-AC14	B-AC15	B-AC16	B-DC1	B-DC2	B-DC3	B-DC4	B-DC5	B-DC6	B-DC7	B-DC8	B-DC9	B-DC10	B-DC11	B-DC12	B-DC13	B-DC14	B-DC15	B-DC16	B-Ph1	B-Ph2	B-Ph3	B-Ph4	B-Ph5	B-Ph6	B-Ph7	B-Ph8	B-Ph9	B-Ph10	B-Ph11	B-Ph12	B-Ph13	B-Ph14	B-Ph15	B-Ph16	

Term	0.00000e+00	0.00000e+00	0.00000e+00	0.00000e+00	0.00000e+00	0.00000e+00	0.00000e+00	0.00000e+00	0.00000e+00	0.00000e+00	0.00000e+00	0.00000e+00	0.00000e+00	0.00000e+00	0.00000e+00	0.00000e+00	0.00000e+00	0.00000e+00	0.00000e+00	0.00000e+00	0.00000e+00	0.00000e+00	0.00000e+00	0.00000e+00	0.00000e+00	0.00000e+00	0.00000e+00	0.00000e+00	0.00000e+00	0.00000e+00	0.00000e+00	0.00000e+00	-2.28318e+02	-1.28261e+02	-1.22557e+02	-1.79784e+02	-6.98370e+01	-5.69121e+01	-1.58204e+02	-1.62015e+02	-8.96925e+01	-7.94603e+01	-1.70039e+02	-1.72048e+02	-1.82281e+02	-1.76085e+02	-7.57894e+01	-1.48903e+02	
Factor	4.44743e-05	1.16669e-04	3.11420e-05	1.50107e-01	1.44705e-06	1.30124e-06	1.55391e-01	5.73555e-02	1.61794e-06	1.31520e-06	7.33951e-02	2.70137e-02	2.41607e-02	7.75268e-03	1.42893e-06	1.11630e-02	1.56745e-06	1.64600e-06	4.64896e-07	7.58927e-02	1.78137e-08	1.80026e-08	7.42071e-02	2.88859e-02	1.77144e-08	1.80151e-08	3.60562e-02	1.31780e-02	1.21309e-02	3.93631e-03	1.80715e-08	5.48598e-03	X	X	X	X	X	X	X	X	X	X	X	X	X	X	X	X	



#DISTANCE SETTINGS
A = Detector Channel
A-1	A-2	A-3	A-4	A-5	A-6	A-7	A-8	A-9	A-10	A-11	A-12	A-13	A-14	A-15	A-16	

2.5000e+00	3.0000e+00	2.5000e+00	3.0000e+00	2.0000e+00	3.0000e+00	1.5000e+00	3.0000e+00	3.0000e+00	3.0000e+00	3.0000e+00	3.0000e+00	3.0000e+00	3.0000e+00	1.5000e+00	3.0000e+00	

B = Detector Channel
B-1	B-2	B-3	B-4	B-5	B-6	B-7	B-8	B-9	B-10	B-11	B-12	B-13	B-14	B-15	B-16	

1.0000e+01	1.0000e+01	1.0000e+01	1.4400e+00	1.0000e+01	1.0000e+01	1.5100e+00	1.9400e+00	1.0000e+01	1.0000e+01	1.9900e+00	2.4900e+00	2.4100e+00	2.9000e+00	1.0000e+01	2.9800e+00	




#DATA BEGINS
time	group	step	mark	flag	A-AC1	A-AC2	A-AC3	A-AC4	A-AC5	A-AC6	A-AC7	A-AC8	A-AC9	A-AC10	A-AC11	A-AC12	A-AC13	A-AC14	A-AC15	A-AC16	A-DC1	A-DC2	A-DC3	A-DC4	A-DC5	A-DC6	A-DC7	A-DC8	A-DC9	A-DC10	A-DC11	A-DC12	A-DC13	A-DC14	A-DC15	A-DC16	A-Ph1	A-Ph2	A-Ph3	A-Ph4	A-Ph5	A-Ph6	A-Ph7	A-Ph8	A-Ph9	A-Ph10	A-Ph11	A-Ph12	A-Ph13	A-Ph14	A-Ph15	A-Ph16	B-AC1	B-AC2	B-AC3	B-AC4	B-AC5	B-AC6	B-AC7	B-AC8	B-AC9	B-AC10	B-AC11	B-AC12	B-AC13	B-AC14	B-AC15	B-AC16	B-DC1	B-DC2	B-DC3	B-DC4	B-DC5	B-DC6	B-DC7	B-DC8	B-DC9	B-DC10	B-DC11	B-DC12	B-DC13	B-DC14	B-DC15	B-DC16	B-Ph1	B-Ph2	B-Ph3	B-Ph4	B-Ph5	B-Ph6	B-Ph7	B-Ph8	B-Ph9	B-Ph10	B-Ph11	B-Ph12	B-Ph13	B-Ph14	B-Ph15	B-Ph16	aux-1	digaux	

7408.112	1	1	0	512	0.24552	0.26037	0.042479	0.23731	0.3038	0.11002	0.3283	0.18865	0.016058	0.20497	0.30683	0.081686	0.26582	0.069711	0.025666	0.22851	-2.5083	-3.2354	-2.85	-3.1188	-3.2	-2.9833	-3.175	-2.9021	-3.3063	-3.3167	-2.6771	-3.1271	-3.2042	-2.8917	-3.0354	-2.9708	159.532	-12.870	-31.763	29.458	-142.297	42.865	149.831	-131.951	-45.714	156.573	124.671	-90.753	139.128	-169.155	131.562	110.526	0.0019866	0.00030418	6.7113e-05	446.25	6.4981e-06	9.6395e-06	631.89	155.8	4.6143e-06	4.5859e-06	287.3	133.86	66.733	30.379	7.903e-06	71.423	0.0006264	0.00054778	0.00015108	482.09	6.5395e-06	5.9818e-06	669.43	168.69	6.286e-06	5.8759e-06	304.63	140.84	71.504	32.262	6.0314e-06	75.536	97.631	-69.554	-147.245	-161.889	4.331	3.095	-161.700	-157.133	-33.444	-21.367	-157.248	-153.473	-154.083	-148.732	-68.936	-149.459	-8191	255	
7408.208	1	1	0	0	0.15082	0.16372	0.022929	0.14495	0.27398	0.21167	0.24594	0.16709	0.13861	0.11519	0.10373	0.1713	0.082979	0.19304	0.076944	0.20211	-2.5812	-3.2792	-2.5625	-3.2771	-3.1333	-2.7271	-3.2354	-3.2292	-3.0479	-3.3833	-2.9	-3.4146	-3.15	-2.5979	-3.325	-3.2708	87.967	-73.141	-102.935	146.322	107.994	111.798	114.102	155.823	131.583	184.523	156.533	128.676	150.127	144.226	-57.741	181.112	0.0019892	0.00050398	8.7342e-05	445.38	5.1547e-06	6.7399e-06	634.1	156.49	8.9167e-06	1.767e-06	287.75	134.59	66.759	30.286	5.3913e-06	72.016	0.00059406	0.0005298	0.00015973	481.87	6.1961e-06	5.7343e-06	671.54	169.32	6.0102e-06	5.7087e-06	305.56	141.13	71.416	32.239	6.2779e-06	75.735	97.974	-72.219	-60.227	-161.771	0.244	-45.501	-161.652	-157.107	-48.479	-68.709	-156.956	-153.753	-153.845	-148.599	-85.169	-149.185	-8191	255	
7408.304	1	1	0	0	0.32837	0.0576	0.066241	0.10279	0.15297	0.19276	0.074917	0.13725	0.11528	0.12587	0.11247	0.15829	0.22379	0.26186	0.11661	0.24444	-2.375	-3.2125	-2.8042	-2.9437	-3.1292	-2.8833	-3.3604	-2.9708	-2.7896	-3.2521	-3.1167	-3.1854	-3.1188	-3.0583	-3.0583	-3.1021	99.632	-36.572	-117.329	-139.671	151.863	96.389	-158.994	96.035	-37.684	42.915	15.723	-111.284	177.053	-168.120	41.491	70.974	0.0019721	0.00054054	0.00012737	447.7	5.2893e-06	3.7942e-06	631.81	156.54	5.7392e-06	4.6534e-06	289.43	134.85	66.832	30.475	3.3552e-06	72.356	0.00055889	0.00049761	0.00016409	479.59	5.6503e-06	5.3492e-06	671.97	168.49	5.5357e-06	5.4002e-06	306.5	141.26	71.235	32.359	6.4015e-06	75.885	96.155	-71.078	-116.588	-161.828	-50.639	-12.451	-161.835	-157.377	-122.608	-93.978	-157.202	-153.468	-153.805	-148.433	-102.606	-149.224	-8191	255	
7408.400	1	1	0	0	0.12257	0.10266	0.13456	0.092681	0.03853	0.07826	0.1613	0.18762	0.1866	0.31245	0.067684	0.14673	0.32856	0.089281	0.099961	0.35309	-2.5438	-3.3729	-2.95	-3.1125	-3.1813	-2.9417	-3.2229	-3.2646	-3.1167	-3.1688	-3.0583	-3.1937	-3.2333	-2.9938	-3.1583	-3.3146	86.755	142.941	-23.030	-167.197	85.304	21.420	180.569	31.587	-7.152	32.291	46.521	180.927	-144.969	-152.662	61.998	96.199	0.0020323	0.00050282	0.0001971	445.89	1.3771e-06	5.9364e-06	634.89	156.99	1.2599e-06	7.2936e-06	287.8	134.51	67.123	30.449	6.5405e-06	72.181	0.00052745	0.00050062	0.00016491	478.5	5.316e-06	5.5225e-06	673	167.69	5.2023e-06	5.5474e-06	305.59	140.69	71.027	32.374	6.4196e-06	75.619	94.082	-144.169	-84.853	-161.961	-34.596	-4.776	-161.676	-157.356	-101.637	-142.447	-157.239	-153.583	-153.825	-148.587	-26.687	-149.301	-8191	255	
7408.521	1	1	0	0	0.16423	0.17365	0.065567	0.16883	0.19878	0.13119	0.30414	0.17723	0.11357	0.17064	0.052995	0.28503	0.052187	0.24415	0.12961	0.36895	-2.3438	-3.1792	-2.8875	-3.0104	-3.1208	-2.9375	-2.925	-3.1542	-2.9833	-3.2938	-3.1875	-2.8979	-3.4292	-2.8875	-3.0708	-3.2646	-132.246	-0.907	52.402	120.011	35.281	172.296	-141.454	-61.109	-170.905	-142.227	129.855	170.458	150.916	-50.907	45.953	103.091	0.0020059	0.00026267	0.00014872	446.44	6.1311e-06	6.5563e-06	632.15	157.09	2.0591e-06	6.1105e-06	287.67	133.76	66.769	30.291	7.8728e-06	71.535	0.00051898	0.00053962	0.00017015	477.96	5.3479e-06	6.1265e-06	673.2	167.85	5.3202e-06	6.2024e-06	305.38	140.13	71.02	32.473	6.3898e-06	75.171	98.651	-90.433	-96.964	-161.739	-21.195	-102.211	-161.614	-157.253	-165.536	-112.896	-157.425	-153.601	-153.958	-148.670	-11.346	-149.414	-8191	255	
7408.615	1	1	0	0	0.16783	0.24188	0.01392	0.12774	0.086192	0.27849	0.11191	0.2542	0.16167	0.24113	0.02684	0.27672	0.23086	0.35941	0.18075	0.32609	-2.4333	-3.1229	-2.8563	-2.8937	-3.2042	-3.0104	-3.0583	-3.0146	-2.8333	-3.1458	-3.1833	-2.8563	-3.3521	-2.9729	-2.8542	-3.3146	-129.559	67.190	-78.052	62.745	-9.830	-54.828	173.658	167.955	-98.857	141.496	23.070	178.895	161.607	161.117	181.217	100.492	0.0021216	0.00032798	8.6809e-05	444.38	6.5462e-06	8.4502e-06	632.58	156.89	6.7239e-06	7.1221e-06	288.13	134.47	66.757	30.483	8.5663e-06	72.272	0.00052975	0.00058739	0.00016453	477.14	5.492e-06	6.6159e-06	670.11	167.64	5.6637e-06	6.7831e-06	305.2	140.43	71.394	32.693	6.4031e-06	75.641	97.846	-117.360	36.897	-161.753	-49.116	-75.516	-161.734	-157.325	-124.069	-89.313	-157.102	-153.575	-153.884	-148.673	-22.047	-149.312	-8191	255	
7408.713	1	1	0	0	0.14517	0.15623	0.042265	0.072578	0.13196	0.17256	0.10038	0.050111	0.17749	0.18303	0.10184	0.18983	0.13599	0.22158	0.079313	0.17749	-2.3979	-3.05	-3.0646	-2.7833	-3.2771	-2.8812	-3.0833	-3.35	-2.8375	-3.0542	-3.1917	-3.0438	-3.1625	-3.2521	-3.1271	-3.4771	144.965	-161.632	76.604	-138.025	175.397	-49.074	-37.211	-174.228	7.509	-44.289	-59.887	101.347	173.030	137.935	156.717	116.072	0.0021684	0.00031694	9.5781e-05	445.85	1.6008e-06	3.756e-06	632.86	157.11	7.6605e-06	6.29e-06	287.74	134.74	67.059	30.609	2.2572e-06	72.592	0.00057874	0.0006369	0.00016309	479.06	5.9206e-06	6.9008e-06	670.89	167.6	6.0181e-06	6.812e-06	305.02	140.91	71.803	32.795	6.0574e-06	75.936	95.555	66.981	-47.938	-161.976	-11.119	-157.092	-161.591	-157.246	-139.468	12.238	-157.439	-153.496	-154.139	-148.396	31.959	-149.243	-8191	255	
7408.809	1	1	0	0	0.1553	0.32866	0.13612	0.20055	0.14518	0.23909	0.12394	0.27438	0.2796	0.39608	0.30245	0.077292	0.10582	0.25542	0.27159	0.20774	-2.3	-3.1979	-3.0917	-2.8854	-3.1833	-2.9271	-2.8583	-3.3208	-2.8771	-2.9583	-3.2167	-2.7542	-3.225	-3.0146	-2.8937	-3.5021	31.983	-167.299	-151.753	114.988	-111.199	-44.117	39.425	119.367	159.121	93.492	117.794	77.916	70.253	105.132	-157.034	124.952	0.0022235	0.00050417	0.00012619	447.71	4.9632e-06	5.1518e-06	631.89	157.6	4.3817e-06	4.6688e-06	289.57	135.72	67.346	30.856	6.9562e-06	72.304	0.00060789	0.00061171	0.0001544	478.45	6.375e-06	6.667e-06	671.31	168.39	6.5065e-06	6.538e-06	305.68	141.55	72.499	32.876	6.0478e-06	75.924	93.383	-77.590	-97.680	-161.900	-149.392	11.402	-161.743	-157.123	-69.396	-41.123	-157.494	-153.654	-154.071	-148.579	4.092	-149.200	-8191	255	
7408.904	1	1	0	0	0.13223	0.17584	0.14802	0.15219	0.21394	0.21094	0.21134	0.098027	0.051015	0.077863	0.10071	0.14359	0.24655	0.12694	0.085141	0.097703	-2.4604	-2.6979	-3.1729	-2.8458	-3.0958	-3.3396	-2.9021	-3.3333	-3.1229	-3.1354	-3.4979	-2.8604	-3.3292	-3.2438	-2.8771	-3.3958	70.665	131.307	-116.801	155.194	-72.365	-156.384	38.829	44.908	-118.568	19.671	-134.867	-31.647	-155.805	67.301	118.809	86.470	0.0021279	0.00030474	0.00019331	451.09	5.0929e-06	7.4922e-06	635.08	157.63	7.375e-07	5.919e-06	289.5	135.41	67.482	30.811	1.8866e-06	72.308	0.00065919	0.00059883	0.00015559	481.64	6.9671e-06	6.5175e-06	671.43	169.06	7.0307e-06	6.517e-06	305.92	141.91	72.952	32.856	6.1325e-06	76.098	93.702	-14.143	-67.851	-161.533	-23.059	42.165	-162.017	-157.205	-21.025	12.663	-157.359	-153.837	-153.765	-148.309	-137.663	-149.391	-8191	255	
7409.000	1	1	0	0	0.081334	0.13914	0.1965	0.33795	0.13082	0.1854	0.18246	0.13836	0.037864	0.083102	0.10114	0.11066	0.27126	0.16418	0.23717	0.2286	-2.65	-2.7646	-3.0375	-3.0271	-2.9917	-2.9646	-2.8958	-3.3833	-3.1583	-2.8583	-3.2062	-2.9125	-3.0458	-3.1625	-2.7438	-3.2875	-73.825	44.906	28.330	156.750	0.831	181.778	155.362	-106.712	-155.804	37.015	-76.803	141.274	-136.705	143.429	117.599	114.937	0.0021528	0.00050574	4.3037e-05	452.35	8.2995e-06	7.3775e-06	635.32	158.75	1.0139e-05	1.5487e-06	289.74	136.56	68.034	30.945	3.2315e-06	72.699	0.00068885	0.00059557	0.00015718	486.69	7.315e-06	6.5514e-06	673.56	170.83	7.3091e-06	6.6233e-06	307.28	143.48	73.612	33.079	6.4908e-06	76.761	91.535	-114.364	-78.413	-161.723	-23.431	27.344	-161.675	-157.213	-62.768	137.127	-157.403	-153.780	-153.761	-148.618	-37.744	-149.309	-8191	255	
7409.120	1	1	0	0	0.23301	0.15497	0.26106	0.32036	0.21929	0.29815	0.20399	0.16232	0.12221	0.14708	0.054446	0.12856	0.12569	0.17464	0.11217	0.12762	-2.6562	-2.6958	-3.2896	-2.9875	-2.8542	-2.9125	-2.8542	-3.1292	-3.1229	-2.7208	-3.1167	-3.0917	-2.9771	-3.2062	-2.8167	-3.4104	73.865	42.940	171.270	152.533	-138.483	37.862	165.765	-25.839	-22.473	-66.560	-163.989	127.184	-165.839	139.064	-78.723	116.797	0.0018626	0.00056825	4.9279e-05	450.77	9.0266e-06	6.1766e-06	634.89	159.13	4.4397e-06	7.6905e-06	291.85	136.93	68.207	30.954	6.0061e-06	72.862	0.00073001	0.00063846	0.00017243	493.38	7.9203e-06	7.2168e-06	678.13	174.02	7.969e-06	7.3402e-06	310.56	145.06	74.339	33.29	7.5109e-06	77.29	102.309	-76.324	-46.266	-161.774	-28.408	18.956	-161.668	-157.074	-37.872	-6.024	-157.205	-153.672	-154.004	-148.488	-13.459	-149.334	-8191	255	
7409.216	1	1	0	0	0.25628	0.099843	0.19793	0.33262	0.23404	0.086279	0.099992	0.13765	0.13705	0.10994	0.13279	0.27391	0.1594	0.22465	0.057446	0.1378	-2.7542	-2.6937	-3.3625	-2.9708	-2.8479	-3.3125	-2.8896	-3.1229	-3.225	-2.7042	-3.2104	-3.1479	-3.075	-3.2021	-2.7083	-3.175	-154.560	-35.499	-61.291	-174.744	49.725	-96.656	96.412	-56.277	-115.831	-89.576	62.242	172.054	113.567	39.526	-77.806	25.331	0.0019227	0.00053207	0.00010322	453.85	8.0532e-06	6.0622e-06	640.25	159.19	5.545e-06	4.4059e-06	291.09	136.67	68.315	30.928	4.7907e-06	72.942	0.00076449	0.00068482	0.00019488	498.59	8.0736e-06	7.5114e-06	684.85	175.38	7.99e-06	7.4767e-06	312.12	145.17	74.143	33.262	8.1691e-06	77.409	100.381	-58.777	-150.257	-162.063	24.984	52.710	-161.823	-157.314	-103.566	-48.379	-157.486	-153.537	-154.009	-148.444	-101.735	-149.193	-8191	255	
7409.313	1	1	0	0	0.090509	0.27947	0.043112	0.30213	0.18721	0.18421	0.17223	0.12232	0.053767	0.13409	0.27037	0.15682	0.042499	0.17134	0.18766	0.35924	-2.8083	-2.7917	-3.0438	-3.1042	-2.7896	-3.15	-2.8521	-3.1458	-3.0396	-2.8812	-3.2646	-2.8667	-2.7458	-3.3604	-2.9229	-3.0271	79.150	-141.819	-79.290	144.089	184.572	24.969	-97.202	123.107	-38.860	149.259	38.689	145.663	168.362	-171.048	-21.623	181.228	0.0020384	0.00085068	4.3514e-05	454.83	4.8574e-06	2.7713e-06	639.08	158.51	9.155e-06	2.944e-06	290.95	136.12	68.129	30.963	6.2231e-06	72.8	0.0007402	0.00067692	0.00020906	499.14	7.8082e-06	7.327e-06	685.9	174.87	7.695e-06	7.2622e-06	312.22	144.4	73.851	33.179	8.449e-06	76.92	95.579	-97.611	-108.785	-162.012	-25.313	21.406	-161.932	-156.987	-27.926	-96.926	-157.323	-153.791	-153.861	-148.216	-73.993	-149.420	-8191	255	
7409.409	1	1	0	0	0.17658	0.29608	0.076869	0.10183	0.15034	0.098712	0.41435	0.13909	0.24875	0.081151	0.14811	0.18825	0.089015	0.08754	0.14306	0.35649	-2.6833	-2.8604	-3.0854	-2.9646	-2.9188	-3.1583	-2.7583	-2.9875	-3.2958	-2.9604	-3.1604	-3.2125	-2.7313	-3.2542	-3.1063	-2.9667	76.533	-96.566	86.969	96.372	179.720	37.149	171.433	93.697	70.073	34.081	68.796	63.817	45.260	-22.648	26.484	158.054	0.0020066	0.00049271	1.3914e-05	453.97	1.2289e-06	3.214e-06	637.89	159.22	4.3894e-06	3.9725e-06	291.48	136.69	68.157	30.923	7.853e-06	72.683	0.00069935	0.00065413	0.00021662	495.12	7.3469e-06	7.1844e-06	685.15	173.76	7.2015e-06	7.274e-06	312.84	143.98	73.627	33.234	8.5907e-06	76.82	97.330	-162.660	-148.258	-161.907	-83.169	-67.348	-161.675	-157.098	-73.297	14.609	-157.219	-153.659	-153.819	-148.525	-72.159	-149.236	-8191	255	
7409.505	1	1	0	0	0.10948	0.21403	0.044439	0.25689	0.040519	0.024832	0.30069	0.16159	0.13392	0.30903	0.15887	0.27627	0.080061	0.31138	0.16154	0.074313	-2.9396	-3.0229	-3.0187	-3.0167	-3.0208	-3.2042	-2.9167	-3.0875	-3.2521	-2.9333	-3.1208	-3.2417	-2.7917	-3.2229	-3.2	-3.1667	-18.293	-74.543	131.880	-159.652	-53.500	150.907	183.599	56.846	-39.982	119.221	90.969	135.542	-111.270	66.186	49.508	96.173	0.0021143	0.000353	0.00011799	452.78	4.9845e-06	1.3182e-06	635.09	159.1	1.0132e-05	3.9794e-06	291.93	136.37	68.244	31.02	5.5415e-06	73.16	0.00067262	0.00067595	0.00021877	493.24	7.0362e-06	7.4409e-06	684.62	173.02	6.8392e-06	7.4965e-06	312.52	143.72	73.217	33.411	8.2134e-06	77.052	95.499	-43.149	-64.258	-161.842	-86.960	-66.343	-161.946	-157.241	-60.875	-60.821	-157.319	-153.657	-154.086	-148.794	-81.541	-149.334	-8191	255	
7409.601	1	1	0	0	0.19462	0.19678	0.15232	0.045593	0.12264	0.1362	0.26893	0.26824	0.02796	0.26249	0.043055	0.17934	0.1095	0.19854	0.16609	0.11421	-2.8917	-2.9708	-2.9562	-3.2729	-2.9354	-3.1896	-3.1437	-3.0708	-3.1562	-2.8396	-3.2604	-3.1104	-2.8417	-3.5083	-2.8854	-3.1375	72.892	11.317	48.083	-165.889	-15.251	15.869	120.694	-106.674	58.501	125.590	42.025	-148.198	-43.074	171.976	58.917	176.699	0.0019842	0.00031196	7.1159e-05	454.93	6.7417e-06	5.5398e-06	637.01	158.65	5.0018e-06	1.9299e-06	291.07	137.41	68.484	31.17	5.8792e-06	73.036	0.00064357	0.0007081	0.00020902	492.15	6.792e-06	7.9121e-06	684.71	173	6.7456e-06	7.9919e-06	312.05	144.29	73.502	33.535	7.7167e-06	77.027	96.297	-115.736	-81.329	-161.695	-66.755	-73.497	-161.935	-157.234	-73.361	-105.629	-157.341	-153.602	-153.681	-148.756	11.951	-149.321	-8191	255	
7409.697	1	1	0	0	0.24374	0.28424	0.22406	0.27151	0.26718	0.1519	0.10668	0.26091	0.084615	0.17621	0.060298	0.31312	0.042225	0.060331	0.14834	0.35565	-2.9583	-2.8396	-2.9667	-3.1021	-2.8958	-3.2583	-3.0208	-3.0417	-3.2958	-2.9562	-3.2354	-3.1417	-3.0479	-2.8729	-3.0021	-3.0771	-105.526	-9.483	-86.284	157.950	138.093	-147.976	147.646	105.246	-161.086	3.915	43.524	-174.360	31.080	-90.069	138.231	130.631	0.002075	0.00065435	0.00011831	454.24	9.0807e-06	6.2106e-06	639	159.23	9.2226e-06	8.1718e-06	290.99	137	68.112	31.09	7.5862e-06	73.22	0.00064794	0.00073782	0.00019627	490.32	6.7978e-06	8.0994e-06	682.56	172.07	6.7771e-06	8.1094e-06	310.97	143.73	73.793	33.613	7.4593e-06	77.09	97.612	-102.465	-65.892	-161.999	-105.028	-45.323	-161.874	-156.914	-93.840	-78.000	-157.269	-153.580	-154.144	-148.391	-69.586	-149.484	-8191	255	
7409.816	1	1	0	0	0.15989	0.12374	0.06405	0.18751	0.12356	0.24588	0.16619	0.13113	0.14538	0.1001	0.087711	0.26451	0.19365	0.23883	0.25166	0.23566	-2.7917	-2.8063	-2.9167	-3.1396	-2.6583	-2.9938	-3.2021	-2.8	-3.1458	-3.1875	-3.0021	-3.1333	-2.9688	-3.2188	-3.0667	-3.1521	-135.229	142.196	85.554	133.287	104.143	154.762	108.284	171.350	-120.328	155.647	98.547	125.566	167.085	151.206	-5.249	152.925	0.0020887	0.00077826	0.00014208	455.51	4.2718e-06	4.4517e-06	639.82	159.57	8.88e-06	6.5286e-06	292.1	136.89	68.475	31.12	4.2232e-06	73.351	0.0007002	0.00076856	0.00019434	492.63	7.6191e-06	8.5056e-06	682.93	172.45	7.7706e-06	8.5444e-06	312.19	144.21	74.654	33.702	7.6216e-06	77.188	96.426	-96.040	-65.616	-161.962	-54.838	-32.895	-161.807	-156.896	-54.565	5.879	-157.237	-153.692	-153.987	-148.490	-18.166	-149.364	-8191	255	
7409.912	1	1	0	0	0.2817	0.11963	0.021699	0.16059	0.12695	0.25169	0.35356	0.29195	0.14439	0.11666	0.02034	0.17029	0.20208	0.40237	0.17019	0.21573	-2.725	-2.9458	-2.7792	-3.4	-2.7792	-2.9771	-3.4062	-2.6625	-3.1771	-3.0625	-2.9188	-3.3708	-2.9979	-2.9146	-3.2146	-3.1146	-97.306	109.244	-27.718	79.106	20.094	-29.350	67.067	145.818	21.966	-129.914	36.014	129.553	157.488	-44.698	-6.325	140.393	0.0023332	0.0004052	0.00010037	454.56	2.3794e-06	3.8025e-06	642.89	160.44	2.8493e-06	3.8036e-06	292.97	137.7	68.941	31.185	9.8365e-06	73.539	0.00077548	0.00077914	0.00020008	494.13	8.5499e-06	8.6132e-06	686.96	174.05	8.8235e-06	8.7243e-06	313.46	145.31	75.616	33.764	7.872e-06	77.553	89.719	-91.752	-27.742	-162.033	-47.615	7.965	-161.688	-157.046	-56.541	23.313	-157.279	-153.774	-154.247	-148.605	0.473	-149.490	-8191	255	
7409.984	1	1	0	0	0.15399	0.11705	0.16361	0.28395	0.18195	0.13895	0.19203	0.1844	0.2015	0.21935	0.26053	0.38391	0.23351	0.049114	0.21457	0.28181	-2.6063	-2.975	-2.8667	-3.2521	-2.8271	-2.9813	-3.4979	-2.8792	-3.1167	-3.2333	-2.7833	-3.2958	-3.0646	-2.9958	-3.0708	-3.1688	-77.256	147.815	104.404	176.514	-124.199	-147.575	159.648	-143.697	-31.763	-135.450	163.981	-174.314	117.518	89.093	-60.056	103.785	0.0019612	0.00058844	0.00016133	456.03	6.4659e-06	1.0766e-05	640.01	160.63	8.5339e-06	1.0049e-05	294.07	138.35	69.311	31.336	6.1899e-06	73.517	0.0008547	0.00078206	0.00020293	497.26	9.2919e-06	8.6215e-06	687.18	175.76	9.6113e-06	8.8166e-06	315.64	146.75	76.498	34.022	8.3344e-06	78.122	94.101	-58.430	-54.086	-161.646	-0.506	22.802	-161.712	-157.302	-28.876	-43.976	-157.460	-153.840	-153.915	-148.781	-17.374	-149.431	-8191	255	
7410.080	1	1	0	0	0.083652	0.18128	0.16324	0.30669	0.2372	0.13143	0.20737	0.089559	0.069056	0.20873	0.085295	0.18977	0.14856	0.23563	0.11798	0.23624	-2.6646	-3.0625	-2.5979	-3.2125	-2.9354	-3.0958	-3.4167	-2.6417	-3.0896	-3.25	-2.9062	-3.4146	-2.9958	-3.0354	-3.2562	-3.1312	-31.227	49.890	-117.700	-146.196	125.144	92.230	2.716	-57.355	-98.311	45.930	78.898	-168.273	-90.997	-173.174	146.299	137.967	0.0019943	0.00011846	0.00014802	458.02	3.8191e-06	8.2679e-06	641.77	160.64	6.5807e-06	2.9927e-06	293.16	138.17	69.385	31.402	3.2374e-06	73.43	0.00091971	0.0008122	0.00021391	504.79	9.6576e-06	8.7779e-06	689.65	177.42	9.648e-06	8.8115e-06	314.72	147.42	76.594	34.057	8.4772e-06	78.307	103.629	-25.338	-75.041	-161.836	-20.404	-26.912	-161.821	-157.431	-42.644	40.231	-157.379	-153.695	-154.030	-148.716	2.411	-149.580	-8191	255	
7410.201	1	1	0	0	0.1404	0.25973	0.078763	0.04695	0.060309	0.33268	0.13376	0.08818	0.21723	0.094122	0.15749	0.082189	0.036706	0.18658	0.29605	0.064509	-2.6479	-3.175	-2.7542	-3.2167	-2.9208	-3.0667	-3.3708	-3.1	-3.0792	-3.1146	-2.9396	-3.15	-3.0375	-3.0333	-3.1771	-3.1	3.321	79.664	-3.470	-26.332	-134.691	77.640	153.597	129.657	159.135	-60.182	59.996	172.217	-56.657	67.496	-166.466	84.458	0.0018854	0.00037928	8.179e-05	460.07	7.7296e-06	8.8594e-06	643.56	160.39	3.7031e-06	8.0443e-06	292.47	137.88	69.635	31.392	8.6046e-06	73.338	0.0009072	0.00080705	0.00021998	508.13	9.5131e-06	8.679e-06	690.87	178.31	9.2786e-06	8.7085e-06	315.86	147.65	76.412	34.011	8.9953e-06	78.403	97.546	-94.235	-33.808	-161.935	0.586	-11.999	-161.768	-157.515	174.817	-12.029	-157.398	-153.686	-154.219	-148.606	-129.810	-149.365	-8191	255	
7410.297	1	1	0	0	0.11009	0.025077	0.206	0.071283	0.022658	0.11321	0.29838	0.1408	0.30742	0.23794	0.13156	0.29656	0.039674	0.046695	0.14754	0.36664	-2.7354	-3.325	-2.7271	-3.1437	-3.1063	-2.7812	-3.3458	-2.8896	-2.8563	-3.3083	-3.0729	-3.2354	-3.2958	-2.7833	-3.3917	-3.1625	152.343	-139.330	-67.831	180.622	-90.575	138.484	116.984	155.567	170.245	-27.281	1.763	162.627	170.181	135.417	-161.673	136.143	0.002075	0.00059365	0.000175	458.34	1.7444e-06	4.9201e-06	643.05	161.61	3.2596e-06	2.3663e-06	293.92	138.24	69.093	31.399	2.1453e-06	73.573	0.00086447	0.00079233	0.00023433	508.98	9.1499e-06	8.5592e-06	693.53	178.96	9.0467e-06	8.4901e-06	317.28	147.73	75.728	33.939	9.2479e-06	78.405	104.835	-93.200	-141.214	-161.804	9.390	-11.537	-161.992	-156.944	-42.870	-171.625	-157.170	-153.668	-153.908	-148.759	-95.610	-149.569	-8191	255	
7410.393	1	1	0	0	0.070364	0.035122	0.14356	0.062112	0.138	0.094673	0.11705	0.18469	0.30694	0.09249	0.30012	0.10518	0.077331	0.13078	0.073814	0.043179	-2.4104	-3.2104	-2.6083	-3.0354	-3.2313	-2.7521	-3.2	-3.0979	-2.9458	-3.2542	-3.0417	-2.975	-3.3375	-2.95	-3.3125	-3.1271	12.272	-33.156	-29.967	128.779	158.103	40.830	139.774	118.189	91.206	-83.236	131.400	-161.275	129.663	139.132	-96.607	155.095	0.0019626	0.0002491	0.00015105	457.4	9.0837e-06	4.1994e-06	640.66	160.98	2.2877e-06	2.9132e-06	292.96	139.02	69.356	31.551	2.1324e-06	73.856	0.0007964	0.00072006	0.00023334	504.62	8.15e-06	7.7132e-06	692.11	176.79	7.9657e-06	7.6714e-06	317.19	147.19	75.28	33.929	9.0734e-06	78.373	97.466	11.812	-126.621	-161.637	-27.069	-12.295	-161.881	-157.270	59.120	-33.255	-157.244	-153.840	-154.193	-148.379	-72.609	-149.310	-8191	255	
7410.514	1	1	0	0	0.16941	0.099425	0.26174	0.23763	0.32568	0.39014	0.45507	0.21654	0.078463	0.13205	0.082423	0.059904	0.34736	0.14687	0.28233	0.17763	-2.3875	-3.1854	-2.875	-3.1292	-3.3021	-2.8583	-3.2604	-3.1729	-2.8375	-3.3521	-2.9958	-3.0312	-3.3771	-2.8625	-2.9688	-3.2271	-157.318	-46.716	85.407	-117.040	52.955	-96.514	117.021	139.278	123.295	4.692	-38.546	1.370	63.896	-80.238	-143.514	112.696	0.0020053	0.00050298	5.0015e-05	454.71	5.8439e-06	3.0949e-06	639.58	160.35	9.7226e-06	1.9013e-06	293.56	137.64	69.462	31.479	4.9901e-06	73.454	0.00072939	0.0006899	0.00023143	500.04	7.5978e-06	7.7589e-06	692.07	175.96	7.6958e-06	7.96e-06	317.28	146.55	75.056	33.966	9.4706e-06	77.921	97.529	-166.143	14.521	-161.654	-22.474	98.173	-161.791	-157.081	-88.296	-42.247	-157.313	-153.560	-154.070	-148.715	22.619	-149.332	-8191	255	
7410.608	1	1	0	0	0.16059	0.10875	0.074324	0.18927	0.22895	0.2326	0.046996	0.22003	0.12961	0.042042	0.17622	0.34053	0.20041	0.24631	0.10924	0.36588	-2.2896	-3.0979	-2.9292	-2.9792	-3.3167	-2.9062	-3.1104	-3.1	-3.0292	-3.2771	-2.9167	-3.0771	-3.2229	-3.0542	-2.9958	-3.1479	-25.278	-7.569	98.613	86.822	165.291	158.198	-162.717	51.213	-13.991	128.461	163.993	177.076	110.812	131.519	141.899	76.280	0.0018191	0.00056381	0.00018417	455.58	4.4609e-06	1.4054e-06	638.69	160.6	5.864e-06	4.801e-06	291.44	137.76	69.236	31.441	6.5437e-06	73.407	0.00074684	0.00077209	0.00024452	499.63	7.7745e-06	8.6963e-06	692.4	175.55	7.8048e-06	8.9093e-06	316.77	145.77	75.117	34.123	9.5853e-06	77.718	98.522	180.018	-70.236	-161.652	-112.499	-50.971	-161.724	-157.200	-67.615	-156.901	-157.275	-153.705	-154.293	-148.860	-83.585	-149.599	-8191	255	
7410.681	1	1	0	0	0.1553	0.051965	0.063005	0.082707	0.19486	0.13886	0.25255	0.23082	0.095903	0.10993	0.1935	0.18596	0.34568	0.37694	0.19591	0.14263	-2.3917	-3.1479	-2.8604	-2.9521	-3.3646	-2.9479	-3.1771	-3.1833	-2.7458	-3.1146	-3.2583	-2.9229	-3.2042	-3.1437	-3.0229	-3.4688	-105.790	-165.760	41.674	124.352	114.731	160.461	-171.100	127.432	-128.429	-46.449	137.547	179.410	135.823	143.983	177.407	-162.378	0.0021161	0.0004122	8.7341e-05	456.64	1.0447e-05	8.5595e-06	640.8	160.04	9.9542e-06	7.0318e-06	291.83	137.51	69.16	31.249	7.0905e-06	73.21	0.00076251	0.00085722	0.00023988	499.13	7.8821e-06	9.4194e-06	691.5	175.23	7.9275e-06	9.4411e-06	315.59	145.57	75.105	34.126	8.8208e-06	77.573	100.214	-141.709	21.099	-161.880	-54.460	-68.804	-161.732	-156.980	-111.771	-68.596	-157.410	-153.534	-154.194	-148.707	-14.471	-149.392	-8191	255	
7410.800	1	1	0	0	0.15142	0.064823	0.1761	0.12415	0.095805	0.055292	0.26437	0.16194	0.26032	0.049398	0.13387	0.17516	0.17793	0.22303	0.15403	0.098456	-2.4375	-3.1896	-3.0687	-2.9979	-3.2271	-3.05	-2.7417	-3.4208	-2.7375	-3.0604	-3.3771	-2.9667	-3.1292	-3.1854	-2.8937	-3.4229	-34.445	6.443	-161.562	-91.479	55.267	71.537	100.822	-48.864	119.509	165.661	85.619	169.994	-148.638	-137.999	-171.779	143.073	0.0021013	0.00096854	0.00019928	458.63	7.212e-06	4.7435e-06	639.03	160.39	4.598e-06	4.5218e-06	293.39	138.47	69.085	31.37	8.0234e-06	73.512	0.00076307	0.00086466	0.00022423	498.32	8.1034e-06	9.4848e-06	689.99	174.71	8.2718e-06	9.5628e-06	315.24	146.04	75.513	34.317	8.9051e-06	77.865	94.665	-81.501	-60.836	-161.687	-101.598	-37.470	-161.772	-157.142	-164.550	-33.219	-157.344	-153.574	-154.078	-148.520	-25.358	-149.309	-8191	255	
7410.896	1	1	0	0	0.13034	0.074359	0.25911	0.030873	0.13123	0.055512	0.053365	0.098289	0.016688	0.091587	0.036274	0.073289	0.18077	0.18315	0.18624	0.30122	-2.6	-2.9188	-3.1958	-2.85	-3.0479	-3.1792	-3.15	-3.0833	-2.9188	-3.1583	-3.2667	-2.9729	-3.2833	-3.0833	-2.9375	-3.5458	-172.201	-105.190	10.046	11.826	161.209	-82.907	13.322	140.133	-74.020	-100.039	18.287	-148.586	-125.041	-175.000	-30.442	140.119	0.0022751	0.00046191	5.3101e-05	456.86	7.783e-06	1.6532e-06	641.34	160.96	7.7564e-07	6.0406e-06	292.12	137.51	69.066	31.445	6.0492e-06	73.14	0.00086479	0.00092299	0.00023367	501.64	9.5708e-06	1.023e-05	693.56	176.07	9.7967e-06	1.0135e-05	315.68	146.14	76.418	34.251	9.102e-06	77.652	96.740	-78.735	-16.093	-161.954	-83.402	-142.312	-161.425	-157.197	42.109	-57.936	-157.418	-153.788	-154.360	-148.483	-112.812	-149.526	-8191	255	
7410.993	1	1	0	0	0.20918	0.2214	0.20111	0.25202	0.24447	0.11919	0.11946	0.22643	0.088859	0.18309	0.15801	0.31297	0.15419	0.11882	0.31532	0.13797	-2.3312	-3.0354	-3.0979	-2.8438	-3.1188	-3.0208	-2.9	-3.1646	-2.7604	-2.9875	-3.3708	-2.8354	-3.3854	-3.1104	-3.1562	-3.4979	-72.012	95.716	-63.820	-35.077	123.228	-6.169	-145.399	9.064	102.054	79.017	91.507	91.353	116.856	128.062	-74.799	135.541	0.0020845	0.00083341	0.00010144	457.83	7.1471e-06	2.0383e-06	637.84	159.94	2.6865e-06	6.6624e-06	291.2	136.89	69.235	31.342	4.4349e-06	73.398	0.00093671	0.00090185	0.00023104	501.55	1.0184e-05	9.7808e-06	691.12	176.44	1.0383e-05	9.7798e-06	314.58	145.78	76.555	34.081	8.8805e-06	77.61	90.213	-52.644	-6.003	-161.955	-53.039	42.932	-162.009	-157.244	-173.736	-32.353	-157.150	-153.805	-154.178	-148.638	-56.560	-149.542	-8191	255	
7411.113	1	1	0	0	0.26783	0.13674	0.16121	0.20757	0.03948	0.11498	0.34538	0.056337	0.16395	0.079165	0.040472	0.38429	0.21464	0.2747	0.22003	0.15468	-2.3604	-2.9792	-3.2375	-2.8625	-3.2792	-3.1083	-2.95	-3.2521	-2.8271	-2.9771	-3.4938	-2.9083	-3.0167	-3.1729	-2.925	-3.4042	52.983	127.787	-2.426	118.342	83.640	55.290	128.161	-132.246	79.651	-103.180	113.270	-140.288	-148.471	121.885	136.605	55.466	0.0019937	0.0010393	0.00011895	456.96	5.6606e-06	8.725e-06	637.2	160.43	1.3877e-05	1.1228e-05	292.68	137.45	69.2	31.243	5.3819e-06	73.184	0.00095884	0.00086409	0.00022616	503.53	1.044e-05	9.4432e-06	689.28	177.5	1.041e-05	9.4497e-06	314.52	146.57	76.677	34.078	8.6964e-06	77.977	87.961	-95.411	-26.323	-161.981	-2.482	38.180	-161.942	-157.274	-16.793	-11.643	-157.464	-153.844	-153.886	-148.594	-4.192	-149.552	-8191	255	
7411.209	1	1	0	0	0.16549	0.25271	0.22965	0.18774	0.060198	0.11053	0.24478	0.11017	0.20236	0.030352	0.19603	0.31369	0.21975	0.16387	0.063695	0.29225	-2.6104	-2.8083	-3.0417	-2.9333	-3.25	-3.0417	-3.0771	-3.2687	-3.0667	-3.2062	-3.2812	-3.1625	-3.1083	-3.3417	-2.9188	-3.3167	-51.071	-48.100	-149.746	-167.967	-82.515	-131.298	70.434	-82.791	118.244	82.438	55.591	150.983	95.699	-166.369	33.508	169.715	0.0021371	0.00067574	8.1698e-05	455.69	9.7053e-06	2.4116e-06	639.62	160.39	5.6541e-06	6.2688e-06	291.55	137.64	69.129	31.519	9.1127e-06	73.368	0.00094793	0.00084198	0.0002232	506.5	1.0093e-05	9.3002e-06	689.62	178.47	1.0307e-05	9.4317e-06	315.51	147.93	76.743	34.219	9.2777e-06	78.534	100.437	-105.163	-74.555	-162.135	-66.523	-26.391	-161.836	-157.503	-13.325	11.323	-157.524	-153.585	-154.163	-148.581	-107.690	-149.609	-8191	255	
7411.281	1	1	0	0	0.027419	0.1224	0.21236	0.04627	0.20633	0.18324	0.15264	0.13703	0.12442	0.091202	0.29916	0.11639	0.40368	0.24329	0.18245	0.20526	-2.7083	-2.7604	-3.3979	-2.9271	-2.9813	-3.4667	-2.9521	-3.2	-3.1688	-2.7792	-3.5521	-2.9583	-2.8958	-3.2812	-2.8021	-3.1833	-51.310	146.101	163.906	-98.113	-142.783	-101.916	-158.848	125.229	-131.306	-116.191	152.562	106.206	-137.420	-110.130	-61.536	119.287	0.0019326	0.0004609	9.1154e-05	456.56	8.5776e-06	2.9341e-06	639.57	160.17	2.5173e-06	8.411e-06	292.73	138.28	69.103	31.501	1.6871e-06	73.385	0.00094302	0.00084658	0.00023659	510.34	9.8836e-06	9.1539e-06	692.83	179.38	9.6861e-06	9.1151e-06	315.97	147.91	76.239	34.115	9.568e-06	78.602	97.793	-54.123	-135.644	-161.803	-18.757	-73.058	-161.720	-157.105	-103.159	-29.005	-157.629	-153.944	-153.907	-148.899	-145.686	-149.439	-8191	255	
7411.377	1	1	0	0	0.083621	0.076785	0.25847	0.079939	0.21845	0.27148	0.093024	0.1021	0.25082	0.094884	0.11947	0.12521	0.095762	0.12028	0.15395	0.18299	-2.5417	-2.8542	-3.3292	-3.0229	-2.9396	-3.1583	-3.0042	-2.95	-3.1688	-2.7188	-3.3979	-2.9458	-2.9958	-3.3812	-2.9	-3.1688	-164.013	-157.705	151.886	-16.690	-118.260	97.170	80.476	2.249	95.702	51.062	-104.277	-96.181	140.419	113.289	17.484	-166.878	0.001898	0.00057454	0.0001407	456.48	4.9351e-06	2.9771e-06	637.87	160.4	9.9473e-06	7.9942e-06	291.52	137.4	69.427	31.365	7.097e-06	73.267	0.00088152	0.00081119	0.00024781	509.22	9.2874e-06	8.7296e-06	693.22	179.06	9.1458e-06	8.6797e-06	315.86	147	75.923	33.976	1.0057e-05	78.244	97.359	-35.289	-122.917	-161.831	-99.977	2.002	-162.033	-157.284	-44.582	-17.968	-157.503	-153.849	-154.243	-148.710	-172.928	-149.453	-8191	255	
7411.498	1	1	0	0	0.12356	0.36765	0.025254	0.41262	0.14623	0.30851	0.2068	0.027372	0.20245	0.22397	0.25548	0.29827	0.15717	0.30721	0.22531	0.22256	-2.5938	-2.6521	-3.025	-2.9979	-2.8479	-3.2333	-3.1854	-2.9667	-3.3063	-2.7729	-3.275	-3.3208	-2.8187	-3.3604	-2.8708	-3.0979	76.664	-24.948	-152.142	112.534	-32.499	18.495	-23.103	137.935	-169.281	47.953	-155.232	130.434	-128.235	80.584	-15.892	121.632	0.0021268	0.00054786	0.00012287	455.35	3.328e-06	2.2138e-06	640.17	159.53	5.4476e-06	6.2504e-06	293.49	137.51	69.036	31.533	5.7919e-06	73.474	0.00084578	0.00079471	0.00026213	505.3	8.9835e-06	8.6777e-06	696.65	177.86	8.8805e-06	8.772e-06	317.71	146.56	75.671	34.081	1.0353e-05	78.286	100.871	-55.970	-14.964	-161.855	1.465	-31.515	-161.708	-156.982	-61.239	-64.217	-157.558	-153.495	-154.323	-148.495	-75.448	-149.441	-8191	255	
7411.592	1	1	0	0	0.20477	0.36533	0.040185	0.11963	0.031047	0.40468	0.27533	0.072335	0.27422	0.13996	0.079233	0.21082	0.087103	0.10105	0.14305	0.11647	-2.7646	-2.7271	-3.0958	-3.0833	-2.7562	-3.2917	-3.3021	-3.0042	-3.2562	-2.8646	-3.0125	-3.4	-2.7167	-3.4125	-2.9417	-3.0708	103.243	58.321	-40.020	23.128	-95.789	129.392	99.322	95.122	-52.454	-75.644	-170.128	179.435	-92.355	154.252	124.779	-170.418	0.002175	0.00019817	0.00027509	452.26	9.767e-06	3.8283e-06	640.95	160.76	7.381e-06	7.22e-06	293.42	137.93	69.174	31.397	7.5747e-06	73.734	0.00081066	0.00080932	0.00026456	502.26	8.5837e-06	9.0285e-06	697.18	177.52	8.4271e-06	9.1818e-06	318.09	146.72	75.593	34.23	1.014e-05	78.428	94.798	170.109	-95.805	-161.666	-25.636	-117.136	-161.653	-157.143	-77.137	-138.715	-157.183	-153.588	-153.913	-148.788	5.388	-149.461	-8191	255	
7411.688	1	1	0	0	0.19673	0.032528	0.12821	0.29203	0.10588	0.15746	0.11761	0.15661	0.12015	0.19807	0.18383	0.1599	0.21002	0.057394	0.23981	0.18065	-3.2417	-2.8	-3.3292	-3.2083	-2.8375	-3.1479	-3.2188	-2.9854	-3.3542	-3.0479	-3.1625	-3.3354	-2.8583	-3.0729	-3.1063	-3.0417	166.299	-120.062	-110.884	181.431	61.408	-54.754	64.639	-57.501	-162.984	132.006	177.390	178.070	77.861	81.912	-15.014	116.501	0.0021462	0.00027538	0.00026583	457.01	5.6005e-07	2.3981e-06	637.71	160.27	4.9603e-06	5.2998e-06	293.25	138.88	69.191	31.64	1.3933e-05	74.009	0.00077699	0.00085032	0.00025605	500.65	8.2552e-06	9.4455e-06	694.32	176.66	8.1936e-06	9.6328e-06	317.5	147.25	75.59	34.553	9.6295e-06	78.599	96.114	-22.928	-69.972	-162.025	-23.601	-112.266	-161.660	-157.315	89.546	-52.182	-157.600	-153.541	-153.915	-148.726	-41.280	-149.437	-8191	255	
7411.785	1	1	0	0	0.049544	0.066099	0.1148	0.12138	0.28652	0.20281	0.17436	0.067996	0.044563	0.22262	0.10082	0.23524	0.17404	0.058454	0.19503	0.16662	-2.9458	-2.8688	-2.8667	-3.2896	-2.8417	-3.2562	-3.1417	-3.0625	-3.2479	-2.8417	-3.0521	-3.3625	-3.0604	-3.0792	-3.0667	-2.9396	-5.731	127.016	-79.546	-0.524	-34.130	86.217	-172.156	127.217	-29.192	75.932	-81.042	179.165	114.227	-72.656	6.035	162.005	0.0021304	0.00036232	8.0782e-05	456.92	4.7218e-06	3.9883e-06	639.78	161.72	5.0001e-06	3.1748e-06	292.8	138.52	69.396	31.74	8.7337e-06	73.937	0.00077844	0.00090789	0.00024353	500.09	8.3815e-06	9.9074e-06	692.18	176.44	8.3106e-06	9.9065e-06	315.78	146.44	75.865	34.545	8.9281e-06	78.295	94.245	-79.355	-0.353	-161.877	-40.829	-76.939	-161.810	-157.340	-152.402	-21.788	-157.213	-153.767	-154.287	-148.715	-51.591	-149.318	-8191	255	
7411.881	1	1	0	0	0.18994	0.27755	0.18607	0.12456	0.20038	0.30646	0.12732	0.086984	0.053043	0.1247	0.099001	0.13616	0.11235	0.045124	0.050197	0.13967	-2.8937	-2.8396	-3.0438	-3.25	-2.6854	-3.1479	-3.1229	-2.9167	-3.15	-3.0396	-3.075	-3.3417	-2.8396	-3.2771	-2.9667	-3.0438	-160.310	-107.851	87.793	180.565	91.113	-126.124	157.668	-157.691	119.857	36.712	43.205	71.319	100.546	-167.095	-2.583	10.841	0.0022436	0.00081235	0.00014827	455.37	3.4483e-06	9.2539e-06	640.68	161.31	8.1393e-06	7.477e-06	293.85	139.01	69.993	31.654	4.8305e-06	74.103	0.00080854	0.00090526	0.00022974	499.02	8.9398e-06	1.0022e-05	690.92	176.57	9.0769e-06	1.0064e-05	317	146.94	76.64	34.629	9.0782e-06	78.53	95.254	-67.220	-93.295	-161.979	-51.857	10.655	-161.773	-157.225	-171.133	-46.076	-157.186	-153.733	-154.225	-148.249	6.630	-149.311	-8191	255	
7411.977	1	1	0	0	0.15658	0.22768	0.1987	0.086977	0.026586	0.10096	0.36586	0.12788	0.11227	0.16514	0.33346	0.17451	0.076441	0.11038	0.047239	0.19764	-2.8146	-3.0021	-2.8	-3.1937	-2.825	-2.9979	-3.3458	-2.925	-3.275	-2.9229	-3.0271	-3.5771	-2.9417	-2.9813	-3.0687	-2.9333	-117.535	-59.227	-50.766	149.462	106.163	-111.485	131.039	-141.080	138.905	134.852	103.517	59.622	109.664	103.036	-136.247	78.419	0.0021548	0.00046922	0.00018675	458.17	2.8031e-06	1.2507e-06	641.13	160.48	2.5159e-06	5.1863e-06	293.56	138.88	69.84	31.834	5.981e-06	74.297	0.00089177	0.00091013	0.00023355	500.24	9.8071e-06	9.888e-06	691.68	176.31	9.7329e-06	9.6011e-06	315.62	146.99	77.114	34.627	8.7904e-06	78.801	92.331	-130.988	-64.239	-161.790	-108.542	12.216	-161.803	-157.269	-124.108	30.977	-157.340	-154.004	-153.911	-148.438	-17.341	-149.335	-8191	255	
7412.073	1	1	0	0	0.17837	0.16315	0.14893	0.18457	0.10152	0.067369	0.17683	0.14975	0.18175	0.12027	0.30935	0.27446	0.29155	0.13712	0.18531	0.23592	-2.7167	-3.0687	-2.7396	-3.2625	-2.9146	-2.9979	-3.575	-2.8917	-3.2687	-3.1688	-2.9813	-3.3917	-2.8875	-3.0062	-3.2042	-3.1917	-121.854	-145.604	-85.090	-160.767	-150.766	114.056	142.087	50.662	148.314	-70.654	68.747	-158.283	-143.457	72.656	86.140	82.807	0.0023398	0.00050787	0.00016171	458.21	6.4529e-06	8.1489e-06	643.49	161.21	8.7534e-06	4.6074e-06	293.75	139.05	69.489	31.802	9.1971e-06	74.337	0.00094837	0.0008818	0.00022943	501.64	1.0296e-05	9.5592e-06	692.01	177.35	1.0134e-05	9.2767e-06	315.56	147.52	77.161	34.49	8.5471e-06	79.077	95.967	-70.718	-89.007	-162.223	-36.244	64.627	-161.928	-157.362	-85.330	-51.442	-157.425	-153.643	-154.133	-148.588	-56.169	-149.476	-8191	255	
7412.194	1	1	0	0	0.22644	0.20407	0.076732	0.14882	0.1107	0.17259	0.26115	0.18039	0.05842	0.03507	0.18278	0.14077	0.28935	0.1105	0.046263	0.3191	-2.6958	-3.0167	-2.8875	-3.25	-3.0042	-3.1104	-3.2354	-3.0875	-3.125	-3.0958	-3.2979	-3.1958	-2.975	-2.9521	-3.1792	-2.9417	71.990	-115.256	108.503	129.213	-1.999	-12.064	59.968	71.488	57.070	116.546	100.622	52.653	122.315	-120.246	113.444	82.407	0.0020898	0.00057814	8.7459e-05	457.43	1.3178e-05	8.4682e-07	640.49	160.11	9.9095e-06	2.9731e-06	292.21	137.95	69.633	31.704	7.7061e-06	74.298	0.00092804	0.00081921	0.00021702	502.64	9.7759e-06	8.8294e-06	688.89	177.46	9.4554e-06	8.6136e-06	314.01	147.23	76.518	34.357	8.1785e-06	79.018	97.833	-30.000	-85.896	-162.040	-6.253	-28.004	-161.962	-157.260	-64.903	39.577	-157.420	-153.706	-153.861	-148.510	-65.411	-149.261	-8191	255	
7412.288	1	1	0	0	0.14023	0.17295	0.27078	0.023314	0.12851	0.10244	0.13594	0.047966	0.14461	0.055201	0.17914	0.19607	0.08164	0.30617	0.080065	0.24542	-2.675	-3.1	-2.7458	-3.2562	-2.9229	-2.9833	-3.3604	-2.8917	-3.225	-3.2917	-3.0417	-3.2875	-3.0563	-3.0583	-3.0646	-2.9208	117.654	-52.471	131.694	7.136	-0.078	-73.516	136.966	82.804	-161.432	-39.610	178.928	28.461	163.386	46.990	66.809	112.987	0.0020186	0.00029238	0.00015203	455.46	5.7509e-06	1.7834e-06	636.09	161.42	9.892e-06	5.8556e-06	293.1	138.8	69.71	31.836	1.3452e-06	74.335	0.00086657	0.00078103	0.00021214	503.23	9.0777e-06	8.3696e-06	685.6	178.3	8.8793e-06	8.2666e-06	314.05	147.5	76.302	34.27	8.2961e-06	79.138	101.425	-104.719	-78.930	-162.115	10.105	74.413	-161.974	-157.257	-86.928	9.298	-157.248	-153.858	-153.689	-148.400	-56.857	-149.409	-8191	255	
7412.384	1	1	0	0	0.10648	0.12607	0.068021	0.18072	0.10251	0.20479	0.29857	0.22868	0.040071	0.026625	0.16117	0.24976	0.19457	0.21374	0.23276	0.14124	-2.5292	-3.1771	-2.9	-3.1958	-3.0646	-2.8229	-3.3312	-3.0167	-2.7542	-3.3521	-2.825	-3.2313	-3.2104	-2.7667	-3.3792	-3.2313	73.697	-122.660	-20.341	-140.226	8.746	-174.210	-155.544	117.809	106.499	25.763	35.026	139.068	133.525	131.208	160.091	150.660	0.0020634	0.00052	0.00010483	455.83	7.3775e-06	7.01e-06	642.27	161.95	4.0762e-06	6.057e-06	294.19	138.69	70.023	31.902	9.4873e-06	74.757	0.00083972	0.00075992	0.00022094	505.01	8.7766e-06	8.2832e-06	690.57	178.74	8.6074e-06	8.0641e-06	316.6	148.17	76.295	34.41	8.8998e-06	79.491	100.289	-96.362	154.982	-161.996	-7.164	69.083	-161.961	-157.056	-94.420	-105.143	-157.292	-153.686	-153.913	-148.388	-61.607	-149.151	-8191	255	
7412.480	1	1	0	0	0.13309	0.4042	0.10939	0.17359	0.11336	0.086409	0.23449	0.21001	0.27069	0.28461	0.31276	0.21074	0.3571	0.13459	0.19511	0.24667	-2.4292	-3.1708	-2.7542	-3.0854	-3.1854	-2.9333	-3.3667	-3.1521	-2.8292	-3.3729	-3.0083	-3.2	-3.3854	-2.8438	-3.1583	-3.3292	-167.395	57.320	104.368	81.772	113.870	-126.408	131.641	-173.426	120.872	-84.093	-169.083	158.828	118.241	136.092	90.047	165.356	0.0022097	0.0004964	0.00017632	456.18	5.8395e-06	3.8292e-06	639.83	161.49	8.5951e-06	7.0578e-06	294.74	139.68	69.921	32.014	7.3509e-06	75.133	0.00080466	0.00072209	0.00023295	503.21	8.3399e-06	7.9227e-06	691.82	178.12	8.1699e-06	7.7487e-06	318.01	148.36	75.975	34.472	9.1019e-06	79.67	100.402	-87.179	-94.652	-161.612	-62.311	14.474	-161.699	-157.184	-51.083	-20.373	-157.199	-153.501	-153.962	-148.576	4.635	-149.281	-8191	255	
7412.576	1	1	0	0	0.053632	0.10602	0.10445	0.13547	0.14087	0.26263	0.1247	0.12658	0.33809	0.17541	0.15061	0.23691	0.2083	0.20936	0.088639	0.28755	-2.4333	-3.2812	-2.9271	-2.9667	-3.4104	-2.8292	-3.3146	-3.0479	-2.7229	-3.3896	-2.925	-3.2271	-3.3187	-2.6083	-3.2667	-3.3875	100.638	-118.366	53.199	111.568	-47.568	-78.632	57.087	138.868	97.086	-110.527	141.976	41.671	-163.589	-156.795	16.548	121.372	0.0023132	0.00052492	0.00013789	455.21	3.5571e-06	7.4607e-06	644.34	161.68	7.4727e-06	6.4483e-06	296.19	140.35	70.463	32.017	1.2864e-05	74.601	0.00075981	0.00071543	0.00024068	501.34	8.0642e-06	8.1678e-06	697.12	178.04	8.193e-06	8.4045e-06	320.38	148.58	76.448	34.646	9.8892e-06	79.363	96.429	-152.959	-73.203	-162.055	-48.620	-69.879	-161.778	-157.054	23.953	-106.700	-157.294	-153.604	-154.063	-148.516	-35.745	-149.319	-8191	255	
7412.673	1	1	0	0	0.15041	0.090174	0.14738	0.20721	0.13433	0.05497	0.26881	0.22841	0.18207	0.24743	0.017432	0.032829	0.12272	0.22916	0.26505	0.29282	-2.4208	-3.1542	-2.9875	-2.9021	-3.35	-2.875	-3.0083	-3.2625	-2.7958	-3.2625	-3.0521	-3	-3.3646	-3.0125	-3.0438	-3.2396	125.435	142.790	180.972	-146.561	75.464	-170.891	163.323	132.465	-90.986	-152.397	-144.728	137.563	-148.789	123.623	-122.779	-141.985	0.0020611	0.00067573	7.4063e-05	457.09	8.3717e-06	2.6741e-06	642.25	161.24	4.7565e-06	1.0704e-06	293.97	139.03	70.265	32.084	5.1176e-06	74.685	0.00077778	0.00079325	0.00025226	501.38	8.0382e-06	8.8981e-06	696.02	177.27	7.9598e-06	8.9116e-06	318.32	147.37	75.968	34.698	9.5008e-06	79.135	95.496	-140.268	-118.816	-161.859	-28.905	-72.963	-161.700	-157.267	-15.734	-80.207	-157.200	-153.840	-153.905	-148.758	-31.710	-149.376	-8191	255	
7412.793	1	1	0	0	0.19569	0.1147	0.34765	0.25705	0.24482	0.23968	0.20589	0.072414	0.14408	0.24799	0.073709	0.1964	0.10096	0.33792	0.31394	0.11949	-2.5479	-3.1042	-3.0021	-3.1063	-3.3563	-3.0792	-3.3104	-3.1229	-2.9229	-3.3167	-3.0833	-2.9667	-3.3417	-3.0083	-3.1417	-3.3979	-42.451	23.867	65.504	-129.061	165.048	-30.526	-59.571	42.903	-5.897	-9.378	115.664	-91.804	0.355	-19.824	-79.997	86.583	0.002018	3.7524e-05	0.00011607	459.93	1.0288e-05	6.4363e-06	641.83	162.19	4.8796e-06	6.7473e-06	293.85	139.81	69.973	32.047	3.155e-06	74.534	0.00075498	0.00083598	0.00024216	501.53	7.8195e-06	9.3256e-06	694.36	177.07	7.898e-06	9.3508e-06	317.57	147.49	75.897	34.764	8.8924e-06	78.943	93.852	102.099	12.750	-162.008	-24.480	-69.951	-161.561	-157.030	-98.402	-130.844	-157.331	-153.651	-154.194	-148.511	-149.108	-149.430	-8191	255	
7412.889	1	1	0	0	0.33671	0.084531	0.25154	0.15814	0.21147	0.022843	0.087367	0.17747	0.22877	0.14871	0.3658	0.13711	0.2084	0.27349	0.01887	0.21766	-2.5333	-3.15	-3.1437	-3.1354	-3.2687	-2.8729	-3.1125	-3.1167	-2.7938	-3.0229	-3.2583	-2.8958	-3.2417	-3.0417	-2.9833	-3.4437	-142.895	116.345	-95.403	-68.160	-9.602	-29.737	-99.444	34.765	-60.051	21.624	-164.660	177.449	179.395	138.476	5.004	84.624	0.0022261	0.00012047	0.00022982	456.91	9.9486e-06	5.3418e-07	642.42	161.64	1.7658e-06	4.1047e-06	294.15	139.4	70.185	32.019	5.3476e-06	75.075	0.00075404	0.00084518	0.00022197	496.88	7.7719e-06	9.0809e-06	689.54	175.65	7.7987e-06	8.9307e-06	315.8	146.9	75.884	34.671	7.9613e-06	79.19	92.908	-84.761	-39.499	-161.938	-75.634	-38.827	-161.529	-157.207	-131.952	-34.027	-157.130	-153.754	-153.968	-148.607	5.433	-149.107	-8191	255	
7412.986	1	1	0	0	0.098996	0.037748	0.21476	0.32051	0.19505	0.24394	0.15451	0.087952	0.091727	0.29686	0.10034	0.15814	0.15596	0.3172	0.091561	0.33236	-2.4042	-3	-3.1354	-3.0083	-3.2021	-2.9208	-3.1333	-3.225	-2.7583	-3.2958	-3.4292	-2.9313	-3.5062	-3.0812	-2.7646	-3.45	125.978	-97.945	-16.703	132.173	-14.699	-38.606	162.195	-167.693	-2.342	36.933	122.807	-88.204	159.224	183.446	173.610	146.193	0.0022461	0.00050292	6.7131e-05	455.29	4.6353e-06	9.6729e-06	643.37	161.5	6.5435e-07	5.9128e-06	293.37	139.38	70.02	32.041	2.644e-06	75.118	0.00075232	0.00079686	0.00020429	494.31	8.0803e-06	8.6846e-06	689.82	175.17	8.3073e-06	8.6768e-06	315.07	146.84	76.28	34.69	7.8959e-06	79.243	92.789	-14.796	-0.026	-161.889	-63.958	27.197	-161.560	-157.358	174.049	-68.302	-157.296	-153.575	-153.817	-148.712	-38.587	-149.274	-8191	255	
7413.080	1	1	0	0	0.26632	0.1284	0.26109	0.19548	0.068425	0.19541	0.25806	0.25493	0.22997	0.12804	0.1385	0.34243	0.20066	0.18661	0.14329	0.11829	-2.2917	-2.9646	-3.2604	-2.9708	-3.0875	-3.0542	-3.0354	-3.4542	-3.15	-2.8792	-3.4604	-2.8208	-3.275	-3.0625	-2.9542	-3.5396	167.551	-31.293	161.135	147.894	-146.463	15.102	-138.089	-163.966	-16.213	-121.305	-77.190	-172.745	-85.359	-94.055	121.028	147.163	0.0023818	0.00070651	0.00024688	458.4	4.9124e-06	3.5076e-06	644.21	161.14	4.9532e-06	6.9937e-06	295.67	139.57	70.242	32.026	7.6241e-06	74.798	0.00082033	0.00078699	0.00019996	495.93	8.6811e-06	8.4839e-06	688.88	175.73	8.9237e-06	8.4912e-06	315.87	147.33	76.878	34.585	7.7212e-06	79.224	90.165	-58.724	-36.015	-161.987	-62.549	30.612	-161.662	-157.360	-92.306	-14.780	-157.220	-153.845	-153.735	-148.526	-25.546	-149.269	-8191	255	
7413.176	1	1	0	0	0.19293	0.11003	0.069835	0.17648	0.2024	0.13228	0.1726	0.051165	0.085265	0.11319	0.08288	0.13451	0.096669	0.22487	0.16413	0.23224	-2.6708	-3.0292	-3.2896	-2.8292	-3.2479	-2.9479	-3.0458	-3.1875	-3.1333	-2.975	-3.5125	-2.9104	-3.0563	-3.1667	-2.7562	-3.4854	107.008	86.952	153.396	100.069	158.259	56.988	-152.989	-29.508	121.603	-154.019	174.082	165.014	-32.945	112.137	62.657	121.160	0.002237	0.00064274	4.2673e-05	457.54	9.0874e-06	9.6132e-06	644.66	162.59	1.0361e-05	4.6441e-06	296.66	140.15	70.787	32.058	6.9671e-06	75.445	0.00084672	0.00076348	0.00019837	499.06	9.1633e-06	8.3475e-06	690.7	177.63	9.1967e-06	8.3972e-06	316.65	148.53	77.21	34.668	7.7708e-06	79.868	96.390	-90.851	-73.477	-162.125	-24.368	-8.104	-161.821	-157.302	-58.205	17.249	-157.111	-153.534	-153.925	-148.361	-22.453	-149.253	-8191	255	
7413.272	1	1	0	0	0.087539	0.1923	0.1786	0.05864	0.082589	0.13425	0.1683	0.1506	0.23997	0.14665	0.070985	0.11448	0.19443	0.073445	0.12585	0.061573	-2.8833	-2.9729	-3.3271	-2.9917	-3.1937	-3.1167	-3.0187	-3.1188	-3.0792	-3.1104	-3.4417	-2.8854	-3.2188	-3.2104	-2.9396	-3.4333	-51.383	74.924	120.704	153.924	36.868	157.213	61.418	-158.511	-71.289	-36.436	149.358	101.174	-108.985	-162.037	-2.535	-74.149	0.0020724	0.00073496	0.00010255	458.38	6.9776e-06	8.6742e-06	646.28	162.64	5.9819e-06	4.3479e-06	297.27	140.42	70.636	32.13	5.2545e-06	75.511	0.00085135	0.00075775	0.00019899	504.21	9.0328e-06	8.2862e-06	693.78	179.49	9.1468e-06	8.557e-06	318.76	149.9	77.583	34.771	8.3784e-06	80.485	96.921	-48.630	-36.085	-161.949	10.412	-12.331	-161.707	-157.164	-61.198	8.972	-157.283	-153.614	-153.794	-148.347	15.781	-149.242	-8191	255	
7413.368	1	1	0	0	0.13453	0.14634	0.18502	0.057088	0.060558	0.15579	0.12859	0.13882	0.13394	0.091016	0.1697	0.2861	0.048752	0.16225	0.17314	0.23555	-2.7062	-2.8729	-3.2562	-2.975	-3.1562	-3.3521	-3.1042	-3.1312	-3.0083	-2.9146	-3.3771	-3.1417	-3.0917	-3.2917	-2.9313	-3.3375	24.185	-59.624	-157.800	-9.308	103.496	-96.707	168.264	90.087	31.725	159.061	150.893	-51.912	86.023	145.730	-16.388	124.434	0.0021059	0.00087215	6.112e-05	459.77	6.5407e-06	2.6266e-06	650.11	163.58	6.7259e-06	5.2434e-06	297.59	140.72	70.551	32.211	7.9783e-06	75.222	0.00087042	0.00078541	0.00021486	508.45	9.0784e-06	8.4042e-06	696.83	181.27	8.985e-06	8.5179e-06	319.63	150.15	77.359	34.718	8.7648e-06	80.281	96.829	-50.158	-38.908	-161.655	30.071	-21.783	-161.986	-157.182	-18.731	-50.651	-157.248	-153.695	-154.005	-148.468	-130.271	-149.414	-8191	255	
7413.465	1	1	0	0	0.24796	0.13108	0.14901	0.21149	0.031886	0.2578	0.15664	0.2001	0.12229	0.41131	0.18502	0.14401	0.11148	0.16551	0.12132	0.083752	-2.5667	-2.8	-3.25	-3.0312	-3.0812	-3.2438	-3.0229	-3.4271	-3.0146	-3.1188	-3.2917	-3.0333	-3.0083	-3.2438	-2.8521	-3.2833	162.031	162.076	19.658	109.886	6.702	-91.902	117.308	55.016	167.336	82.184	-107.531	112.802	-169.607	179.192	90.879	181.933	0.0021268	0.00057793	0.00020646	455.76	9.9249e-06	4.1935e-06	646.91	162.39	1.0266e-05	2.9415e-06	296.77	140.04	70.831	32.207	6.6589e-06	75.29	0.00082462	0.00074795	0.00022502	506.42	8.5812e-06	7.8866e-06	696.45	179.86	8.3828e-06	7.939e-06	319.48	149.24	76.813	34.608	8.9462e-06	79.94	95.652	-148.732	-143.700	-161.689	-30.136	-3.412	-161.733	-157.140	-37.013	10.624	-157.224	-153.501	-154.085	-148.664	-72.944	-149.261	-8191	255	
7413.561	1	1	0	0	0.099343	0.19362	0.16657	0.071557	0.26601	0.20951	0.14638	0.098991	0.26044	0.22384	0.24157	0.21992	0.18903	0.11474	0.17808	0.095988	-2.5208	-2.8563	-3.2354	-3.1375	-3.0125	-3.1354	-3.0396	-3.2812	-3.1625	-2.85	-3.475	-3.025	-3.0708	-3.3208	-2.8708	-3.1771	99.002	140.047	-151.372	-39.832	-21.568	68.394	53.640	-147.852	67.103	-62.433	149.085	-168.896	108.193	162.404	78.236	67.816	0.0021753	0.00023213	8.7905e-05	456.78	3.4483e-06	6.1858e-06	646.54	163.27	2.3278e-06	3.4999e-06	296.4	140.2	70.49	32.156	1.3518e-05	75.462	0.00076738	0.00070745	0.00022879	503.37	8.0392e-06	7.661e-06	696.42	178.9	7.8615e-06	7.7711e-06	319.91	148.58	76.488	34.609	9.2677e-06	79.921	93.197	12.659	-58.621	-162.159	-10.037	6.068	-161.782	-157.175	-62.757	-105.634	-157.239	-153.546	-153.986	-148.648	-80.424	-149.261	-8191	255	
7413.681	1	1	0	0	0.18691	0.062909	0.10733	0.1387	0.30418	0.016793	0.11772	0.32204	0.13929	0.13779	0.17919	0.12859	0.048314	0.18011	0.072805	0.27742	-2.7479	-2.9979	-3.2479	-3.0208	-2.7646	-3.2062	-2.9583	-3.2333	-3.3292	-2.8729	-3.2833	-3.1375	-2.6021	-3.5438	-3.0146	-3.0604	5.076	-134.786	52.141	-57.001	-118.765	-51.456	-171.543	-143.231	97.275	-10.843	125.258	-158.155	-116.063	-27.855	-84.775	165.606	0.0021074	0.00047533	9.3777e-05	459.42	1.179e-05	6.7337e-06	648.37	162.8	5.7541e-06	3.5032e-06	296.99	140.44	70.392	32.123	3.3707e-06	75.472	0.00074794	0.00073102	0.00023938	501.74	7.8743e-06	8.1194e-06	699.19	178.19	7.7351e-06	8.2943e-06	320.4	148.5	76.23	34.732	9.3293e-06	79.903	97.356	-100.906	-109.823	-161.766	-0.848	-49.970	-161.810	-157.016	-76.961	-87.823	-157.330	-153.777	-153.708	-148.377	-70.260	-149.132	-8191	255	
7413.777	1	1	0	0	0.21851	0.17487	0.20271	0.12159	0.19413	0.10415	0.24676	0.21831	0.17917	0.29067	0.15953	0.1219	0.098149	0.46118	0.20828	0.16495	-3.0396	-2.7667	-3.0917	-3.2375	-2.7208	-3.3729	-3.2521	-2.8146	-3.2708	-2.975	-3.2604	-3.1771	-2.8208	-3.5104	-3.0354	-3.0875	121.564	171.603	126.904	171.776	-104.680	34.894	108.422	30.445	90.336	41.488	88.282	138.742	22.306	6.214	5.753	133.456	0.0022286	0.00051943	0.00019529	455.52	7.0842e-06	3.8022e-06	644.54	161.17	8.6506e-06	7.8975e-06	295.82	140.26	69.923	32.083	3.6576e-06	75.46	0.00072189	0.00078055	0.00023468	497.6	7.489e-06	8.3207e-06	694.58	176.55	7.1205e-06	8.3169e-06	317.57	147.72	75.49	34.559	8.3101e-06	79.69	92.704	-137.557	-72.862	-161.861	-62.834	-156.456	-161.850	-157.158	-137.744	-101.774	-157.199	-153.593	-154.054	-148.510	6.418	-149.151	-8191	255	
7413.874	1	1	0	0	0.2519	0.16326	0.23002	0.23275	0.22099	0.13167	0.08706	0.12805	0.22482	0.35514	0.14602	0.25135	0.14227	0.063691	0.14185	0.12549	-2.8604	-2.8583	-2.8667	-3.1729	-2.8667	-3.3479	-3.0812	-2.975	-3.1604	-2.7521	-3.0271	-3.2896	-3.0833	-3.3021	-3.1417	-2.8917	55.818	14.325	94.585	167.643	-62.481	8.070	157.764	119.114	-111.503	-134.146	5.460	147.525	102.027	143.740	77.377	125.843	0.0020371	0.00056764	6.8261e-05	453.45	3.6091e-06	4.8995e-06	643.02	161.54	9.3892e-06	2.409e-06	294.79	139.99	69.92	31.874	4.177e-06	75.213	0.0006672	0.00074815	0.0002046	491.06	6.8403e-06	7.9415e-06	687.77	174.97	6.6136e-06	7.9297e-06	314.69	146.73	75.247	34.435	7.4614e-06	79.183	101.257	-109.318	-120.945	-161.859	-118.288	-7.846	-161.779	-157.038	-96.254	120.476	-157.151	-153.604	-153.966	-148.383	-31.553	-149.019	-8191	255	
7413.970	1	1	0	0	0.04257	0.21817	0.25389	0.14146	0.11675	0.20335	0.056086	0.2278	0.07405	0.10114	0.24136	0.17835	0.21158	0.089521	0.15317	0.19954	-2.8604	-3.1417	-3.075	-3.5458	-3.0438	-2.9917	-3.2083	-2.8771	-3.2	-3.1792	-3.0646	-3.3104	-2.9854	-3.3063	-3.1229	-3.175	181.517	97.202	-158.212	-97.626	-56.656	57.870	-78.773	116.578	-12.145	-31.706	159.174	100.776	156.104	-132.899	75.629	-122.920	0.002323	0.00047577	0.0001132	457.02	3.9944e-06	3.3322e-06	643.13	162.36	3.9793e-06	1.7502e-06	295.28	139.84	69.958	31.956	1.5542e-06	75.309	0.00066774	0.00074639	0.00019055	491.51	7.225e-06	8.1851e-06	686.3	175.27	7.3592e-06	8.3118e-06	314.87	146.48	75.749	34.514	7.6081e-06	79.249	94.652	171.015	-50.973	-161.873	-60.867	33.757	-161.790	-157.151	-95.559	-44.625	-157.219	-153.631	-154.066	-148.379	-33.156	-149.256	-8191	255	
7414.066	1	1	0	0	0.11022	0.19621	0.11282	0.19404	0.11734	0.11584	0.093067	0.052724	0.15897	0.11564	0.33981	0.11301	0.31629	0.3149	0.10873	0.1173	-2.6021	-2.9771	-2.8333	-3.2917	-2.8458	-3.1437	-3.1979	-2.8958	-3.075	-3.0125	-2.8438	-3.2146	-3.0771	-3.0167	-3.3	-2.9479	-50.453	169.362	30.037	159.215	-60.516	-142.192	26.659	51.976	122.690	-115.364	150.627	-175.044	160.690	148.287	51.980	84.088	0.0020992	0.00093024	0.00011812	453.23	3.2695e-06	4.508e-06	641.38	162.28	5.7422e-06	1.0273e-05	295.78	139.86	69.925	32.058	5.4883e-06	75.357	0.0007528	0.00076515	0.00019615	492.79	8.1046e-06	8.2631e-06	687.32	175.59	8.1029e-06	8.2202e-06	315.69	147.06	76.231	34.551	7.394e-06	79.444	94.373	-45.925	-121.091	-161.593	-63.804	38.001	-161.829	-157.398	-116.801	-16.415	-157.156	-153.425	-154.037	-148.362	-50.501	-149.242	-8191	255	
7414.162	1	1	0	0	0.08648	0.076799	0.11705	0.12384	0.070247	0.1183	0.25237	0.29216	0.085725	0.16061	0.10824	0.21871	0.099008	0.16691	0.050703	0.104	-2.5479	-3.15	-2.9208	-3.3187	-3.0146	-3.1104	-3.2771	-3.0125	-3.1875	-3.0854	-3.1729	-3.2188	-3.1042	-3.05	-3.1667	-3.1312	182.796	17.132	-148.861	-168.472	134.390	166.877	176.917	94.076	139.708	-25.061	-166.241	-86.207	25.682	-98.983	-16.423	116.404	0.0019873	0.0003159	2.8621e-05	454.3	8.1844e-06	4.406e-06	641	162.14	5.0587e-06	4.4486e-06	294.7	140.51	70.253	32.035	3.115e-06	75.443	0.00078102	0.00072401	0.00018758	492.53	8.2518e-06	7.7237e-06	685.47	175.32	7.9535e-06	7.4546e-06	314.37	147.4	76.181	34.374	6.865e-06	79.714	98.464	-84.538	-59.228	-161.815	-16.094	37.570	-161.816	-157.676	-62.799	-47.415	-157.092	-153.539	-154.040	-148.430	-35.901	-149.114	-8191	255	
7414.281	1	1	0	0	0.26632	0.084516	0.21599	0.15643	0.044549	0.083276	0.060516	0.095873	0.35052	0.14238	0.13408	0.15247	0.079569	0.053571	0.17028	0.11477	-2.8271	-3.0729	-2.8542	-3.2146	-3.0542	-2.9167	-3.2812	-2.9813	-3.0979	-3.2062	-2.9688	-3.3	-3.2083	-3.0625	-3.2146	-2.9583	-31.043	-173.274	116.062	19.242	-91.249	180.378	132.811	120.055	164.053	93.924	71.583	34.275	-167.401	54.341	-130.271	-169.481	0.0022469	0.00039007	0.00021017	456.77	2.0553e-06	6.3568e-06	645.25	161.94	4.0116e-06	3.6765e-06	296.5	139.9	70.007	32.019	3.2148e-06	75.473	0.00077003	0.00068017	0.00018032	495.04	8.1562e-06	7.464e-06	686.34	176.68	8.1281e-06	7.3725e-06	314.58	147.82	76.15	34.416	6.99e-06	79.699	93.143	-58.329	-81.357	-161.965	-171.104	-10.234	-161.549	-157.211	23.247	-61.535	-157.094	-153.567	-154.169	-148.527	-49.332	-149.344	-8191	255	
7414.377	1	1	0	0	0.29979	0.19248	0.16474	0.081249	0.055591	0.38517	0.089702	0.085698	0.075108	0.10374	0.14532	0.1148	0.009755	0.18367	0.23103	0.20781	-2.6875	-3.0187	-2.9062	-3.0521	-3.1688	-2.8042	-3.5417	-3.0479	-2.9562	-3.2062	-2.9229	-3.3375	-3.2896	-2.7979	-3.4646	-3.2646	94.919	26.454	-88.208	-118.264	-153.021	157.318	-135.060	113.558	-39.038	161.930	181.312	143.643	74.903	163.641	-160.075	139.319	0.0020345	0.00034986	9.8201e-05	453.38	4.5209e-06	5.413e-06	642.17	162.17	5.4149e-06	7.6573e-06	294.88	139.79	69.922	31.977	2.8772e-06	75.482	0.00076655	0.00067417	0.00018177	495.64	8.0507e-06	7.3586e-06	684.48	177.2	7.7826e-06	7.0909e-06	313.5	147.55	75.643	34.234	7.0112e-06	79.846	95.911	-17.907	-82.152	-162.189	-75.296	31.177	-161.710	-157.025	2.166	-16.357	-157.180	-153.559	-154.010	-148.677	17.027	-149.279	-8191	255	
7414.473	1	1	0	0	0.17969	0.17797	0.069071	0.20124	0.10595	0.1629	0.31978	0.21909	0.17051	0.18345	0.039298	0.19353	0.15655	0.13564	0.080231	0.15492	-2.6479	-3.3771	-2.7562	-3.1542	-3.1063	-3.0104	-3.4792	-3.1667	-3.025	-3.4813	-3.0417	-3.3208	-3.0833	-3.0771	-3.2938	-3.075	6.965	82.553	-89.510	62.437	86.361	-172.954	85.239	140.459	-70.259	-160.682	-69.029	174.525	-117.951	92.884	25.980	-133.631	0.0021241	0.0005897	0.0001461	454.44	1.9614e-06	3.3673e-06	642.97	162.43	9.3358e-06	5.2768e-06	295.88	140.41	70.475	32.341	3.0193e-06	75.885	0.00071371	0.00063888	0.00018443	496.61	7.3502e-06	6.9629e-06	685.28	177.05	7.2263e-06	6.7715e-06	315.5	148.35	75.77	34.483	7.3856e-06	80.305	96.568	-72.739	-168.578	-161.927	3.548	48.032	-161.525	-157.202	-42.048	7.592	-157.160	-153.529	-153.883	-148.277	-60.900	-149.136	-8191	255	
7414.569	1	1	0	0	0.1828	0.1806	0.10864	0.27619	0.22705	0.36781	0.15638	0.20118	0.066934	0.18413	0.23255	0.12627	0.15456	0.18694	0.14546	0.20202	-2.6063	-3.2833	-2.9625	-3.0146	-3.3042	-2.9125	-3.3646	-3.0646	-3.0229	-3.1854	-3.0438	-3.2208	-3.1396	-3.2604	-3.2896	-3.0958	-33.035	54.326	67.957	132.143	-156.957	87.896	37.698	74.479	70.019	67.999	126.028	131.287	78.848	119.422	126.349	111.662	0.0021355	0.00056778	9.9546e-05	453.74	5.6672e-06	7.8435e-06	642.81	162.38	8.0266e-06	1.6382e-06	296.31	141.55	70.582	32.399	4.9205e-06	76.192	0.00067502	0.00060954	0.00019378	495.78	7.0539e-06	6.7424e-06	688.06	176.94	7.0075e-06	6.6584e-06	316.92	148.83	75.72	34.5	7.8171e-06	80.463	97.526	-69.197	-139.893	-161.872	9.473	-46.701	-161.763	-157.179	-33.145	-30.344	-157.376	-153.428	-154.048	-148.439	-15.803	-149.065	-8191	255	
7414.666	1	1	0	0	0.14223	0.084703	0.10958	0.090743	0.21237	0.26422	0.089705	0.26878	0.15045	0.16516	0.13018	0.079135	0.07442	0.1868	0.070077	0.38778	-2.5542	-3.3021	-3.0125	-2.9104	-3.2271	-2.8917	-3.1917	-3.0979	-2.9562	-3.4437	-3.0229	-3.1688	-3.3625	-3.025	-3.0396	-3.2896	-32.444	40.106	74.200	127.319	136.746	-89.102	92.777	149.583	-168.371	-164.820	96.540	95.351	-125.699	126.418	-144.829	160.886	0.0021305	0.00074047	0.00014781	453.78	3.0652e-06	2.3729e-06	644.1	163.15	4.6391e-06	2.0023e-06	296.8	140.92	70.328	32.291	3.3536e-06	76.247	0.00066672	0.00061206	0.00020652	495.04	6.8986e-06	6.8517e-06	691.3	176.76	6.878e-06	6.9073e-06	318.06	148.58	75.674	34.603	8.2706e-06	80.287	100.783	-115.632	-4.835	-161.878	52.405	-64.950	-161.762	-157.216	-80.725	38.948	-157.196	-153.568	-154.134	-148.474	-85.559	-149.141	-8191	255	
7414.762	1	1	0	0	0.232	0.06928	0.14965	0.30407	0.17055	0.18811	0.24607	0.07365	0.096893	0.18501	0.1945	0.14858	0.051824	0.15246	0.16429	0.2712	-2.5958	-3.3833	-3.0604	-2.9854	-3.325	-3.0542	-3.275	-3.0417	-2.8688	-3.3312	-2.9604	-2.9625	-3.2625	-2.8333	-3.0375	-3.45	-151.765	148.060	-42.182	174.962	184.029	121.738	158.511	36.881	99.207	160.737	-107.461	62.106	-147.439	161.437	179.567	108.119	0.0021309	0.00057073	0.00012448	456.57	3.701e-06	3.0193e-06	645	163.02	6.3515e-06	2.0606e-06	295.79	139.83	70.099	32.097	6.2875e-06	75.953	0.00066447	0.00066952	0.00021599	495.21	6.8173e-06	7.4436e-06	691.83	176.07	6.7154e-06	7.2701e-06	316.08	147.08	75.074	34.465	7.4901e-06	79.773	97.461	-143.336	-106.125	-161.954	-1.251	-101.869	-161.793	-157.343	-57.124	175.988	-156.904	-153.567	-153.777	-148.330	-30.160	-149.357	-8191	255	
7414.882	1	1	0	0	0.38713	0.10415	0.060899	0.18902	0.18874	0.12011	0.076097	0.068661	0.17852	0.077979	0.15593	0.21172	0.055653	0.23716	0.16725	0.2007	-2.4583	-3.05	-2.7875	-3.1083	-3.2833	-2.8292	-3.2125	-3.2	-2.9437	-3.1396	-3.1792	-2.9771	-3.3208	-3.2604	-3.0958	-3.2896	128.093	-173.646	33.027	-1.990	42.744	80.975	173.304	175.802	-121.159	46.066	146.261	123.265	-141.775	165.097	43.217	166.086	0.0021633	0.00010802	0.00026415	452.14	2.6066e-06	1.7158e-06	641.2	161.97	2.4718e-06	3.1155e-06	296.32	140.41	70.419	32.28	8.445e-06	76.323	0.0005982	0.00063751	0.00018391	487.43	5.8536e-06	6.866e-06	682.95	173.82	5.8291e-06	6.8097e-06	314.46	146.88	74.731	34.536	6.644e-06	80.083	95.069	-47.038	-54.495	-161.783	40.238	9.362	-161.881	-157.112	-39.458	4.681	-157.056	-153.448	-153.824	-148.419	-20.392	-149.271	-8191	255	
7414.977	1	1	0	0	0.43748	0.045716	0.2266	0.15534	0.10812	0.13732	0.22652	0.037028	0.09425	0.083532	0.4183	0.27133	0.07714	0.10701	0.2725	0.19156	-2.6	-3.1146	-3.1083	-3.2438	-3.2542	-3.0417	-3.1063	-3.1542	-2.8167	-3.2188	-3.1333	-2.9188	-3.3688	-3.0208	-3.0062	-3.475	-78.305	-162.622	142.069	135.654	-128.230	98.886	128.379	121.502	179.773	-53.396	-152.437	171.610	19.531	-17.230	123.398	141.155	0.0022823	0.00053597	0.00011978	453.43	4.9305e-06	5.9404e-06	643.4	162.57	1.0335e-05	3.4592e-06	296.64	141.17	70.316	32.427	2.6533e-06	76.426	0.00056959	0.00063396	0.00016724	485.94	5.8629e-06	6.9737e-06	682.9	174	6.1036e-06	7.0953e-06	315.37	147.67	75.299	34.782	6.7438e-06	80.351	97.146	-113.114	-40.932	-161.734	-60.865	-4.682	-161.461	-157.055	-66.913	12.373	-157.130	-153.401	-153.769	-148.355	66.214	-149.182	-8191	255	
7415.050	1	1	0	0	0.14498	0.13877	0.11483	0.075809	0.21894	0.12298	0.21183	0.18534	0.26517	0.18964	0.059669	0.049585	0.030883	0.1728	0.11371	0.28741	-2.3792	-3.1063	-2.9792	-2.7417	-3.3187	-3.1229	-2.8646	-3.375	-2.9437	-3.05	-3.2125	-2.6688	-3.3187	-3.2833	-2.8875	-3.2729	-15.286	11.759	162.381	-111.625	16.606	-26.049	4.439	76.917	-87.729	29.654	-58.443	24.782	62.244	146.515	-144.614	131.306	0.0022098	0.00047995	0.00015943	456.28	3.1847e-06	4.6382e-06	645.02	162.76	8.18e-06	4.8885e-06	298.84	140.84	70.386	32.425	7.6762e-06	76.686	0.00064859	0.00069565	0.00017768	490	7.0191e-06	7.6717e-06	687.78	175.07	7.266e-06	7.6793e-06	316.86	148.2	76.231	34.916	7.0539e-06	80.689	94.027	-85.027	-101.066	-161.965	184.303	33.155	-161.896	-156.906	-41.892	-14.189	-156.980	-153.672	-153.752	-148.548	28.456	-149.159	-8191	255	
7415.146	1	1	0	0	0.074129	0.073444	0.1001	0.14299	0.08067	0.049063	0.078546	0.045723	0.066479	0.2406	0.11212	0.16986	0.1316	0.19075	0.22714	0.20462	-2.5604	-3.1646	-3.0458	-2.85	-3.1	-3.0292	-2.9646	-3.1292	-3.0104	-2.9875	-3.2375	-3.05	-3.3375	-3.275	-2.8187	-3.3792	-69.094	175.473	-167.206	140.209	-158.079	-20.213	38.686	-79.417	71.756	176.514	145.733	78.499	-152.936	137.782	130.562	60.480	0.0022917	0.00076803	0.00010913	458.4	5.2163e-06	5.5872e-06	644.48	163.03	1.1489e-05	5.3126e-06	296.64	141.4	70.769	32.547	7.7507e-06	76.7	0.00073315	0.00070946	0.00018058	491.74	7.7216e-06	7.6309e-06	687.73	175.7	7.7433e-06	7.4688e-06	315.46	148.55	76.678	34.85	6.7993e-06	80.57	94.121	-59.771	-64.438	-162.013	-97.188	-2.068	-161.921	-157.298	-43.006	25.248	-157.156	-153.607	-154.055	-148.584	-20.973	-149.146	-8191	255	
7415.242	1	1	0	0	0.2903	0.16784	0.21568	0.11115	0.15097	0.060684	0.1927	0.054098	0.1377	0.1668	0.11105	0.17112	0.056401	0.15608	0.40002	0.30399	-2.5187	-2.8979	-3.2646	-2.9875	-3.0375	-3.0354	-3	-3.2062	-2.9458	-3.125	-3.3563	-2.9396	-3.2188	-3.1979	-2.7333	-3.2125	18.458	-63.084	161.029	124.858	-114.223	-49.431	-137.909	147.023	32.164	-47.617	105.695	137.937	160.392	-136.736	6.267	141.038	0.0023145	0.0009252	0.00016566	455.35	6.6594e-06	1.0711e-05	645.62	163.39	2.2816e-06	3.039e-06	297.85	142.03	70.801	32.613	5.0309e-06	76.73	0.00073457	0.00065627	0.00017052	491.14	7.6005e-06	6.9481e-06	685.35	175.82	7.4786e-06	6.8644e-06	315.75	149.08	76.446	34.769	6.407e-06	80.865	93.054	-63.560	-50.619	-162.042	-74.881	20.117	-161.820	-157.113	-126.422	-29.828	-157.162	-153.536	-154.096	-148.515	-61.450	-149.286	-8191	255	
7415.361	1	1	0	0	0.21513	0.14042	0.19162	0.10589	0.22877	0.10421	0.12224	0.14754	0.36464	0.17647	0.19973	0.34517	0.14532	0.28094	0.045336	0.22848	-2.6854	-2.9021	-3.1417	-2.9146	-3.2167	-3.2042	-2.7792	-3.3667	-2.9437	-2.9188	-3.5479	-2.9313	-3.1437	-3.2333	-2.8833	-3.3042	31.571	-101.141	116.759	159.890	175.207	127.040	39.764	42.929	-69.455	-81.141	115.133	160.289	95.050	-84.858	-77.780	156.541	0.0020386	0.00091634	0.00012058	455.85	8.8002e-06	5.6761e-06	649.01	163.64	6.7463e-06	8.6479e-07	297.48	143	71.35	32.851	3.9337e-06	77.228	0.00071574	0.00062657	0.00016507	494.12	7.5702e-06	6.8352e-06	686.64	177.34	7.6024e-06	7.0218e-06	316.65	150.59	77.13	35.012	6.7665e-06	81.523	95.874	-30.213	-52.558	-161.913	-7.015	-26.471	-161.961	-157.131	-93.408	-92.189	-157.103	-153.500	-154.060	-148.373	177.741	-149.039	-8191	255	
7415.457	1	1	0	0	0.38336	0.076263	0.032361	0.053792	0.10222	0.084024	0.010901	0.20004	0.16629	0.11534	0.13422	0.15013	0.13838	0.17844	0.22958	0.10265	-2.5458	-2.9062	-3.1667	-3.1917	-2.9396	-3.2042	-3.1312	-3.1	-3.1562	-2.8958	-3.3063	-2.9229	-3.3417	-3.4562	-2.6542	-3.3146	-100.612	-61.653	-77.483	-88.781	-53.820	152.576	-106.555	52.583	62.993	-153.878	164.083	-169.266	136.881	115.479	125.842	122.926	0.0021329	0.00060732	9.9096e-05	456.56	2.291e-06	6.2782e-06	646.05	164.5	1.3354e-05	3.324e-06	299.31	143.19	71.601	32.738	5.7442e-06	77.423	0.00071837	0.00063497	0.0001714	496.55	7.3416e-06	6.7372e-06	688.24	178.14	7.1613e-06	6.8268e-06	318.32	151.08	76.918	34.94	6.9488e-06	81.833	95.869	-138.494	-91.784	-162.056	35.133	26.592	-161.901	-157.252	-36.811	-37.557	-157.213	-153.549	-153.966	-148.567	-55.791	-149.109	-8191	255	
7415.554	1	1	0	0	0.077769	0.064543	0.28638	0.11809	0.25826	0.20011	0.15521	0.33156	0.25366	0.03804	0.24842	0.18043	0.29463	0.28615	0.28575	0.093751	-2.6625	-2.7729	-3.4125	-2.8312	-2.9146	-3.2875	-2.6479	-3.3354	-3.1333	-2.9042	-3.3917	-3.0687	-3.0812	-3.3375	-2.725	-3.1521	144.611	43.512	183.734	112.464	-154.537	105.337	-121.203	56.187	-50.151	111.346	154.505	-161.355	70.614	-158.702	119.788	-153.484	0.0021637	5.6573e-05	0.00010867	457.44	9.8139e-06	2.3725e-06	646.67	163.82	2.0974e-06	5.1119e-06	298.89	142.33	71.191	32.574	5.7091e-06	76.891	0.00067126	0.00060094	0.00017489	495.81	6.8519e-06	6.4507e-06	689.36	177.82	6.8264e-06	6.523e-06	318.41	150.32	76.426	34.755	7.2021e-06	81.268	96.855	-172.777	-62.783	-162.103	-13.868	31.492	-161.653	-157.354	-96.120	-32.322	-157.128	-153.531	-153.880	-148.536	-130.388	-149.160	-8191	255	
7415.674	1	1	0	0	0.21327	0.11202	0.1355	0.19491	0.059427	0.14282	0.1296	0.10754	0.16554	0.095344	0.15176	0.1732	0.20197	0.21628	0.24157	0.33554	-2.7708	-2.675	-3.2146	-2.9521	-2.9396	-3.2125	-2.925	-2.9667	-3.2792	-2.8021	-3.5021	-3.1417	-3.0604	-3.225	-2.9125	-3.1875	67.286	-113.066	-74.957	-168.356	-94.687	-94.513	39.121	23.905	-145.516	-25.668	41.523	148.163	142.460	-131.531	100.100	108.416	0.0020955	0.00056283	7.0474e-05	454.99	5.378e-06	6.366e-06	644.68	162.92	7.2822e-06	3.5288e-06	298.72	141.55	70.678	32.396	5.2726e-06	76.612	0.00063555	0.00057207	0.00018362	492.12	6.5012e-06	6.1778e-06	687.49	176.11	6.3618e-06	6.2209e-06	316.88	148.77	75.62	34.552	7.339e-06	80.904	92.672	-169.395	121.988	-161.969	-11.268	0.540	-161.771	-157.215	-89.624	-41.632	-157.181	-153.364	-153.732	-148.280	-58.084	-149.139	-8191	255	
7415.746	1	1	0	0	0.090649	0.14857	0.14386	0.098493	0.056447	0.27336	0.16697	0.2418	0.074549	0.062011	0.11593	0.09516	0.077592	0.12527	0.044233	0.28038	-2.7562	-2.7188	-3.0875	-3.1396	-3.0729	-3.2875	-3.0708	-2.9542	-3.1771	-2.725	-3.1833	-3.0687	-3.1875	-3.3333	-2.9437	-2.8854	88.415	148.049	-8.652	-87.909	100.874	122.663	119.413	183.770	-162.807	89.603	92.172	127.465	-107.886	-165.952	120.061	166.547	0.0021863	0.00051204	0.00017567	454.17	3.7172e-06	3.9852e-06	644.33	162.88	7.5252e-06	1.0189e-06	298.5	141.34	70.519	32.441	4.1166e-06	77.18	0.00061305	0.00057722	0.00019257	491.79	6.4525e-06	6.5013e-06	689.01	175.57	6.295e-06	6.5814e-06	318.06	148.65	75.387	34.64	7.3223e-06	81	96.924	-159.318	-78.143	-161.793	-1.289	-42.735	-161.545	-157.403	-50.933	-78.873	-157.042	-153.372	-154.076	-148.567	-0.331	-149.173	-8191	255	
7415.842	1	1	0	0	0.35103	0.16845	0.089725	0.1659	0.051991	0.2112	0.29275	0.17832	0.25694	0.19234	0.016467	0.23105	0.15278	0.1626	0.16379	0.19503	-2.7708	-2.9729	-2.8917	-3.3	-2.9083	-3.4646	-3.1521	-3.1937	-3.1604	-2.7875	-3.0354	-3.3542	-2.6854	-3.1583	-3.0687	-3.0771	166.814	-80.880	151.854	147.868	138.991	136.011	119.932	133.882	-173.495	181.212	42.313	115.717	-108.260	-159.944	44.255	160.460	0.0021436	0.00064993	5.8939e-05	454.2	3.3129e-06	3.9761e-06	644	162.46	4.8854e-06	5.1193e-06	300.09	142.11	70.835	32.61	7.2699e-06	77.261	0.00058111	0.00060204	0.00018423	487.61	6.0203e-06	6.6376e-06	687.47	174.89	5.9029e-06	6.799e-06	318.18	149.04	75.498	34.92	7.055e-06	81.36	95.195	118.254	-70.664	-161.713	-23.346	-91.288	-161.659	-157.183	-82.683	-53.912	-157.168	-153.425	-153.750	-148.167	-9.569	-149.010	-8191	255	
7415.963	1	1	0	0	0.21279	0.054139	0.2176	0.11399	0.4218	0.184	0.19066	0.15318	0.17513	0.22738	0.25742	0.031921	0.12065	0.16644	0.16576	0.2664	-2.8812	-2.9104	-2.8771	-3.0979	-2.7958	-3.2396	-3.1458	-3.0354	-3.25	-2.9417	-3.1917	-3.3125	-2.7875	-3.2458	-3.1583	-3.0563	-86.421	-79.648	-134.818	-41.644	142.124	127.226	71.983	41.453	-87.900	-96.125	136.750	-40.793	-145.011	152.881	122.365	150.002	0.0022917	0.00059273	9.9694e-05	452.86	7.9113e-06	2.7034e-06	645.81	162.86	6.1729e-06	5.0292e-06	298.7	141.78	70.756	32.532	8.3175e-06	77.315	0.00058114	0.00064689	0.00018014	488.69	6.0789e-06	7.0432e-06	687.15	175.29	5.9503e-06	7.1662e-06	317.6	148.72	75.676	34.858	6.7071e-06	81.041	95.213	-143.015	-140.123	-161.884	-19.263	-65.929	-161.570	-156.868	-105.286	-38.235	-157.019	-153.523	-153.680	-148.471	-47.357	-149.264	-8191	255	
7416.059	1	1	0	0	0.076295	0.045576	0.12911	0.16476	0.15746	0.21891	0.14298	0.1588	0.046845	0.18196	0.060175	0.1118	0.26454	0.17508	0.17766	0.19901	-2.5187	-2.8646	-2.7979	-3.4313	-2.9604	-2.9646	-3.2729	-2.8375	-3.3833	-2.8396	-3.1042	-3.4792	-2.9146	-3.3146	-3.125	-3.2042	-90.629	70.674	-110.540	-83.745	8.266	-56.633	66.902	149.773	151.024	124.376	-102.515	110.507	145.652	104.369	124.505	-137.701	0.002138	0.00038999	0.00018288	456.85	3.4981e-06	9.1897e-06	647.5	163.65	7.2672e-06	1.8639e-06	299.63	141.48	71.026	32.502	4.0935e-06	77.075	0.00060545	0.00067348	0.00017756	489.35	6.5007e-06	7.4926e-06	687.43	175.52	6.5593e-06	7.5308e-06	317.48	148.37	76.099	34.849	6.7464e-06	81.042	94.859	-126.238	-68.420	-161.728	-27.990	10.738	-161.619	-157.250	-156.592	-94.973	-157.161	-153.648	-153.735	-148.410	-23.058	-149.111	-8191	255	
7416.153	1	1	0	0	0.24981	0.21835	0.066645	0.087073	0.46241	0.080229	0.18916	0.067405	0.31519	0.16501	0.10673	0.23057	0.058101	0.18484	0.21859	0.14154	-2.75	-3.125	-2.8438	-3.3104	-2.8396	-3.1937	-3.025	-2.8937	-3.1792	-2.925	-3.1	-3.2917	-3.0833	-2.9688	-3.1146	-3	113.588	-28.255	-103.383	157.902	87.105	150.423	139.757	175.532	-136.560	134.051	126.349	107.317	105.441	143.796	-12.124	51.802	0.0021792	0.00041894	9.4108e-05	454.59	6.7958e-06	8.169e-06	645.44	163.57	2.9708e-06	5.8905e-06	297.52	141.71	71.003	32.603	7.1452e-06	77.357	0.00065938	0.00067714	0.0001722	488.18	7.0942e-06	7.328e-06	686.53	175.79	7.1075e-06	7.2905e-06	317.09	148.78	76.54	34.94	6.5155e-06	81.167	89.332	-34.554	-133.084	-162.212	-56.664	6.585	-161.777	-157.164	-109.040	-3.189	-157.315	-153.660	-153.829	-148.168	-4.699	-149.109	-8191	255	
7416.274	1	1	0	0	0.23942	0.16722	0.076471	0.09346	0.19433	0.14885	0.15262	0.29827	0.25365	0.19064	0.17127	0.29983	0.11136	0.14111	0.1707	0.10961	-2.9021	-2.8479	-2.8479	-3.2354	-2.8917	-3.1104	-3.375	-2.9688	-3.1792	-3.0187	-3.0271	-3.3417	-2.9813	-3.225	-3.1125	-2.9479	172.512	105.173	68.051	-128.306	84.824	147.926	114.034	110.868	41.874	161.820	-156.968	74.350	-95.714	67.639	59.501	97.933	0.002113	0.00029765	7.44e-05	453.05	5.5389e-06	1.7096e-06	649.4	163.89	9.5225e-06	5.5973e-06	299.21	142.77	70.984	32.526	4.929e-06	77.409	0.00069047	0.00064124	0.00016555	488.12	7.1937e-06	6.8682e-06	685.27	175.31	7.107e-06	6.6457e-06	316.45	149.14	76.341	34.748	6.1828e-06	81.518	96.115	-88.919	-120.736	-162.079	-85.620	108.220	-161.751	-157.321	-80.624	-7.330	-157.153	-153.458	-154.002	-148.284	-77.523	-149.168	-8191	255	
7416.346	1	1	0	0	0.22683	0.014584	0.14819	0.062811	0.083427	0.172	0.14471	0.16102	0.21329	0.15371	0.1672	0.22676	0.33934	0.13541	0.080359	0.32588	-2.7458	-3.0125	-2.7792	-3.4625	-3.0542	-3.1021	-3.3271	-2.9437	-3.1125	-3.1063	-3.0333	-3.3604	-3.0625	-2.9646	-3.2167	-2.9688	104.719	149.424	132.986	-17.905	-137.488	64.919	-175.122	-116.504	-129.592	-134.615	131.269	160.111	-135.325	-166.541	149.754	156.257	0.0021505	0.0001402	7.872e-05	452.99	4.958e-06	1.4047e-06	646.01	164.63	7.0158e-06	2.9786e-06	299.77	142.63	71.101	32.797	6.9322e-06	77.739	0.00069271	0.00059988	0.00015832	488.35	7.1788e-06	6.4639e-06	684.93	176.56	7.1193e-06	6.5687e-06	317.78	149.93	76.689	34.861	6.2712e-06	81.884	95.297	-82.743	-74.091	-162.394	-40.219	55.670	-161.629	-157.162	-59.687	20.206	-157.150	-153.555	-153.854	-148.464	2.484	-149.033	-8191	255	
7416.442	1	1	0	0	0.16087	0.078663	0.21485	0.21392	0.17463	0.075986	0.24067	0.06581	0.17959	0.11912	0.22772	0.11326	0.057288	0.25031	0.18995	0.26165	-2.7917	-3.1813	-2.7271	-3.0812	-3.2479	-2.75	-3.4375	-2.9083	-3.1729	-3.2417	-2.9521	-3.3104	-3.0542	-2.7667	-3.0563	-3.0896	34.695	-133.292	16.981	-26.375	-154.948	-80.061	-97.785	-169.223	184.132	-12.040	140.591	161.466	87.743	15.365	-16.832	93.593	0.0021224	0.00044005	0.00012958	454.05	3.6216e-06	3.6859e-06	648.58	164.59	6.3691e-06	9.6537e-06	299.4	142.5	71.469	32.611	5.6671e-06	77.046	0.00070479	0.00061381	0.00016455	494.56	7.3639e-06	6.809e-06	688.66	178.19	7.4378e-06	6.8217e-06	317.77	150.38	76.675	34.832	6.692e-06	81.633	96.327	-85.018	-78.475	-161.981	14.255	-55.648	-161.778	-157.309	-17.303	-16.633	-157.200	-153.515	-154.206	-148.430	-71.507	-149.100	-8191	255	
7416.538	1	1	0	0	0.18761	0.10783	0.11903	0.16622	0.22527	0.14273	0.26171	0.16971	0.17547	0.11835	0.020981	0.033026	0.16899	0.092985	0.077445	0.21756	-2.6312	-3.0792	-3.0229	-3.2458	-3.1813	-2.7938	-3.2979	-3.0438	-2.9854	-3.2667	-2.8667	-3.2979	-3.2771	-2.8854	-3.2833	-2.9833	17.888	-56.918	-52.723	172.408	-164.716	-17.387	145.552	74.323	-111.427	62.812	155.531	176.908	-99.745	121.242	113.871	79.237	0.0021739	0.00056563	0.00011255	456.35	5.369e-06	5.6386e-06	647.58	163.82	5.812e-06	1.2016e-05	299.61	143.24	71.042	32.467	4.5508e-06	77.437	0.00070495	0.00062181	0.00017765	498.1	7.3871e-06	6.9714e-06	690.62	179.3	7.3262e-06	6.8576e-06	319.05	150.78	76.531	34.72	6.994e-06	81.652	92.906	-65.348	-121.463	-162.047	18.939	-12.236	-161.852	-157.265	-45.499	-25.719	-157.132	-153.592	-154.124	-148.496	-150.253	-149.198	-8191	255	
7416.658	1	1	0	0	0.15213	0.12205	0.16348	0.21809	0.20715	0.19826	0.21721	0.021152	0.095401	0.12037	0.09394	0.32235	0.041175	0.011557	0.055816	0.16745	-2.5583	-3.2667	-2.7146	-3.2792	-3.0917	-2.6271	-3.2938	-2.9292	-2.9521	-3.1958	-2.7917	-3.1312	-3.1188	-2.85	-3.0583	-3.2896	-33.218	-115.043	20.903	-155.801	-82.280	1.224	140.169	125.589	32.822	46.689	181.796	62.280	81.125	-52.449	-57.969	143.038	0.0021673	0.00059597	0.00014534	454.04	4.2328e-06	8.5909e-06	649.06	164.18	6.8839e-06	3.5634e-06	299.4	142.99	71.298	32.562	3.6502e-06	77.533	0.00065016	0.00057264	0.00017954	493.21	6.6293e-06	6.3191e-06	690.93	177.66	6.7182e-06	6.2695e-06	319.26	150.34	76.182	34.659	7.2175e-06	81.697	95.776	-92.989	-140.773	-161.899	-0.839	9.348	-161.741	-157.015	-67.109	29.504	-157.068	-153.227	-154.182	-148.370	-60.265	-149.102	-8191	255	
7416.755	1	1	0	0	0.073118	0.20824	0.12276	0.13604	0.11864	0.094331	0.26874	0.19436	0.11822	0.1263	0.12366	0.16218	0.19624	0.12675	0.26707	0.19785	-2.5917	-3.1625	-2.8896	-3.0396	-3.025	-2.7021	-3.3333	-3	-3.0187	-3.2271	-3.1042	-3.1333	-3.4792	-2.6583	-3.2583	-3.4083	119.869	-146.108	121.563	114.930	-51.181	131.946	-163.723	-115.425	-107.432	-59.835	-145.101	140.652	147.607	-85.088	-147.743	-173.908	0.0021365	0.00059869	0.00014769	455.46	8.494e-06	4.3028e-06	648.82	163.32	6.8544e-06	3.1878e-06	299.87	141.86	71.126	32.474	2.1198e-06	77.489	0.00062989	0.0005725	0.00018933	492.41	6.3807e-06	6.2896e-06	691.53	176.86	6.3587e-06	6.2304e-06	319.6	149.57	75.698	34.587	7.3081e-06	81.489	97.476	-73.947	-144.563	-161.834	-28.739	-66.827	-161.714	-157.439	-55.419	109.116	-157.102	-153.356	-153.960	-148.291	18.854	-148.917	-8191	255	
7416.851	1	1	0	0	0.16108	0.33844	0.2311	0.098605	0.16942	0.13046	0.2698	0.35171	0.11625	0.22262	0.32414	0.25027	0.097977	0.20062	0.14486	0.21496	-2.5604	-3.2	-2.8917	-3.0458	-3.3896	-2.7812	-3.3396	-3.0792	-2.9604	-3.1063	-3.1771	-2.9271	-3.375	-2.8812	-3.1396	-3.2438	-125.247	-129.528	-84.025	-110.163	-86.271	-2.367	157.636	172.753	182.661	-25.029	96.977	178.288	-114.048	134.061	5.603	-162.386	0.0020918	0.00059229	7.8538e-05	455.42	2.4587e-06	2.3538e-06	647.16	162.82	9.229e-06	5.8671e-06	299.44	141.96	70.471	32.361	3.2605e-06	77.044	0.0006026	0.0005789	0.00018899	490.47	6.1386e-06	6.5239e-06	691.3	175.76	6.1703e-06	6.6525e-06	318.68	148.8	75.232	34.537	7.314e-06	80.887	99.316	-90.029	-58.948	-161.835	12.191	-4.781	-161.713	-157.138	-76.056	-118.164	-157.102	-153.628	-153.994	-148.371	-54.792	-149.208	-8191	255	
7416.947	1	1	0	0	0.22564	0.038843	0.13984	0.14764	0.20764	0.029107	0.20431	0.0091734	0.013254	0.11967	0.13688	0.095872	0.1379	0.22002	0.2292	0.092955	-2.4625	-3.1146	-3.0146	-2.9938	-3.4458	-2.8604	-3.1042	-3.1771	-3.0083	-3.1229	-3.1375	-2.8833	-3.2271	-2.9729	-3.1375	-3.35	104.013	5.358	88.755	118.898	-111.996	-95.374	95.759	116.530	-52.460	-29.843	95.997	-142.354	141.638	-21.606	26.247	-94.527	0.0021817	0.00060107	7.6035e-05	452.7	8.0366e-06	5.9023e-06	647.88	163.26	3.3844e-06	6.1217e-06	298.03	141.13	70.502	32.429	3.4181e-06	77.063	0.00058188	0.00061284	0.00018069	487.33	5.8728e-06	6.8651e-06	688.82	175.34	5.9016e-06	6.8524e-06	317.43	147.78	74.942	34.571	6.6357e-06	80.863	95.081	-126.855	-67.103	-162.016	-66.358	-32.059	-161.689	-156.988	-7.870	-71.679	-156.983	-153.553	-154.002	-148.424	-99.435	-149.202	-8191	255	
7417.043	1	1	0	0	0.07497	0.16201	0.049417	0.10438	0.1633	0.26007	0.15413	0.45789	0.049319	0.034375	0.12297	0.099962	0.21164	0.16822	0.24532	0.17462	-2.4375	-3.1312	-3.2125	-2.7667	-3.2292	-2.8438	-3.2	-3.2313	-2.9104	-3.0833	-3.2083	-3.0333	-3.1542	-3.0792	-2.9458	-3.475	-3.272	-99.505	156.706	154.517	-40.989	-29.113	150.096	168.535	132.303	-34.050	79.159	-106.657	117.798	-141.391	51.977	118.775	0.0021371	0.00036939	0.00015442	452.64	3.6438e-06	6.1539e-06	647.99	162.74	6.1519e-06	6.3649e-06	299.62	142.24	70.73	32.382	2.474e-06	77.251	0.00056287	0.00062497	0.00016812	485.54	5.8401e-06	6.9694e-06	687.77	174.86	6.0619e-06	7.0527e-06	317.61	148.6	75.465	34.614	6.5422e-06	80.989	93.377	-37.553	-113.818	-161.820	-11.410	-42.204	-161.635	-157.068	-95.589	-33.223	-157.151	-153.315	-153.667	-148.302	12.025	-149.046	-8191	255	
7417.139	1	1	0	0	0.31302	0.077119	0.12917	0.20706	0.063495	0.27673	0.45189	0.040347	0.13039	0.032702	0.075725	0.026557	0.21843	0.07613	0.44314	0.048065	-2.4479	-3.1833	-2.9542	-2.9458	-3.2583	-2.9271	-3.1396	-3.3125	-3.1208	-3.2646	-3.2917	-2.9333	-3.0979	-3.0667	-2.8417	-3.4813	-23.906	14.845	-6.077	-168.996	16.592	9.952	138.121	17.285	158.335	158.866	-84.098	26.620	86.712	47.689	72.814	41.192	0.0020814	0.00041378	5.8598e-05	454.83	6.4682e-06	4.8399e-06	647.19	163.88	7.5586e-06	8.8408e-06	299.54	142.52	70.919	32.494	4.811e-06	77.879	0.00060769	0.00064766	0.00016455	486.95	6.3613e-06	7.1375e-06	687.36	174.74	6.5386e-06	7.1012e-06	317.97	148.85	76.054	34.747	6.5603e-06	81.608	93.988	-151.977	-160.255	-162.277	-37.792	22.738	-161.657	-157.403	-159.114	-46.671	-157.140	-153.413	-153.817	-148.262	-13.819	-149.114	-8191	255	
7417.235	1	1	0	0	0.25738	0.060707	0.15583	0.34165	0.14653	0.21444	0.15978	0.12693	0.22806	0.1696	0.12739	0.33486	0.25683	0.11266	0.096716	0.12878	-2.3333	-3.2917	-2.9646	-2.8125	-3.1937	-2.9771	-3.0646	-3.2708	-2.9313	-3.0458	-3.1958	-2.725	-3.2958	-3.1083	-2.8812	-3.4333	127.615	0.702	25.808	-148.694	-60.855	-143.500	142.516	31.489	-104.991	102.656	139.952	-166.844	-140.446	165.296	-100.018	91.134	0.0023076	0.00060805	0.00015219	453.54	7.7441e-06	6.418e-06	647.01	163.64	6.992e-06	3.8113e-06	300.13	142.75	70.97	32.375	2.0632e-06	77.812	0.00067148	0.00065238	0.00016603	486.47	6.9461e-06	6.9646e-06	686.46	175.08	6.9646e-06	6.7844e-06	317.6	149.31	76.383	34.652	6.2774e-06	81.482	97.502	-75.642	-34.595	-161.777	-68.759	-0.538	-161.591	-157.192	-67.439	-11.222	-157.100	-153.525	-154.175	-148.404	11.989	-149.049	-8191	255	
7417.354	1	1	0	0	0.11112	0.080377	0.39354	0.27845	0.12154	0.019636	0.12872	0.1458	0.3071	0.15095	0.20654	0.045977	0.07572	0.19633	0.21848	0.24383	-2.4958	-3.1979	-3.2042	-2.85	-3.1479	-3.0229	-2.8604	-3.2083	-3.0167	-2.9208	-3.3854	-3.1667	-3.0104	-3.3625	-2.8812	-3.4313	-74.813	-14.676	-124.967	72.037	-20.329	-86.298	52.956	-112.059	147.948	9.722	143.455	-147.211	149.387	80.292	-40.141	164.023	0.0023466	0.00020349	8.7085e-05	454.55	8.0597e-06	8.6593e-06	647.9	163.76	6.7197e-06	7.9593e-06	300.21	142.96	71.07	32.46	5.2872e-06	77.516	0.00068978	0.00061563	0.00016042	488.98	7.2386e-06	6.7178e-06	687.53	175.88	7.2617e-06	6.6676e-06	317.14	149.34	76.334	34.635	6.2205e-06	81.465	95.709	-84.514	-129.649	-161.911	-12.786	8.238	-161.671	-157.488	-73.542	-7.661	-157.266	-153.448	-153.898	-148.458	-7.983	-149.063	-8191	255	
7417.450	1	1	0	0	0.10544	0.20621	0.2871	0.15767	0.084389	0.16731	0.18265	0.069562	0.20739	0.10808	0.21046	0.34695	0.081548	0.24879	0.21563	0.29454	-2.6458	-2.8292	-3.0792	-3.1604	-2.9417	-3.2625	-2.9042	-3.3812	-3.1437	-2.9292	-3.3021	-3.075	-3.2271	-3.2333	-2.8937	-3.3417	-104.442	53.813	-51.694	52.613	-8.101	-152.292	119.984	-151.592	-42.584	-20.341	13.402	156.320	83.791	155.087	86.877	-162.004	0.0022003	0.00031873	9.6887e-05	454.59	1.9523e-06	4.2136e-06	646.25	164.15	8.1501e-06	2.2904e-06	301.68	143.05	71.205	32.483	5.264e-06	77.87	0.00069721	0.00060957	0.00015851	491.17	7.4009e-06	6.7547e-06	688.26	177.55	7.3894e-06	6.7914e-06	318.58	150.33	76.64	34.686	6.3743e-06	82.002	92.091	-155.502	-25.074	-161.966	87.372	-35.808	-161.597	-157.177	-115.886	76.538	-157.037	-153.615	-153.563	-148.534	-23.764	-148.956	-8191	255	
7417.547	1	1	0	0	0.14926	0.10162	0.32122	0.13002	0.40146	0.097314	0.058303	0.17484	0.1031	0.11709	0.15013	0.36875	0.18805	0.11771	0.11542	0.23346	-2.4125	-3.0021	-3.2875	-2.9813	-3.075	-3.3646	-2.8083	-3.3042	-3.0938	-3.0062	-3.1729	-2.9688	-3.0938	-3.2771	-2.9833	-3.4104	-90.409	-27.163	17.168	136.930	-135.192	-173.681	70.523	61.110	90.064	-160.813	-59.108	127.702	109.031	-167.874	106.566	150.561	0.0023263	0.00075364	8.9759e-05	455.09	6.8727e-06	3.6324e-06	647.57	164.26	1.0083e-05	7.6239e-06	301.57	143.02	71.399	32.564	7.9097e-06	78.036	0.00068334	0.00060759	0.00016296	494.65	7.1818e-06	6.5536e-06	690.17	178.44	7.1495e-06	6.7522e-06	319.3	151.02	76.63	34.723	6.7794e-06	82.386	95.365	-82.971	-70.591	-161.935	19.382	-13.953	-161.511	-157.293	-58.244	-22.102	-157.183	-153.465	-153.886	-148.497	-100.044	-149.016	-8191	255	
7417.643	1	1	0	0	0.045161	0.28061	0.082914	0.1356	0.23441	0.16395	0.13689	0.22413	0.27731	0.19484	0.08403	0.094066	0.10733	0.14433	0.2308	0.093317	-2.9313	-2.7833	-3.3167	-3.0729	-3.075	-3.2812	-3.0104	-3.2208	-3.15	-2.9229	-3.2292	-3.0729	-2.9479	-3.1771	-2.9875	-3.2604	-158.381	63.421	-145.684	27.568	-53.826	96.647	68.063	-120.697	124.255	-64.765	79.773	152.826	10.051	-145.449	-37.952	-167.754	0.0020473	0.00048208	0.0001421	455.66	1.1179e-05	6.9427e-06	648.89	163.42	3.3602e-06	4.3541e-06	301.04	142.86	71.112	32.495	9.7444e-06	77.954	0.00066983	0.00060561	0.00017462	495.91	6.8873e-06	6.3932e-06	691.99	177.88	6.8016e-06	6.5084e-06	320.14	150.58	76.289	34.595	7.2986e-06	82.144	97.115	-62.943	-68.041	-161.781	4.499	-20.436	-161.602	-156.954	-53.250	-40.163	-157.158	-153.369	-153.858	-148.488	-141.796	-148.920	-8191	255	
7417.739	1	1	0	0	0.27173	0.090488	0.12339	0.2146	0.29751	0.1323	0.16125	0.078842	0.30426	0.23957	0.2033	0.25601	0.11621	0.25636	0.19106	0.17612	-2.7062	-2.7812	-3.3625	-3.2	-2.975	-3.475	-3.0417	-3.2146	-3.1042	-2.9229	-3.3542	-2.9917	-3.0396	-3.5208	-2.8708	-3.1896	-90.272	-101.281	-109.647	102.499	22.390	70.375	-170.528	115.915	-2.249	52.828	179.826	-165.411	68.468	134.425	-54.040	-170.936	0.0023707	0.00045116	5.5612e-05	456.52	5.432e-06	8.8792e-06	648.67	163.15	6.0102e-06	8.7552e-06	300.74	142.49	70.728	32.484	7.2618e-06	77.618	0.00065374	0.00059352	0.00018874	494.12	6.6986e-06	6.3162e-06	692.59	177.23	6.5054e-06	6.3858e-06	320.2	149.97	75.826	34.592	7.4772e-06	81.808	97.537	-168.926	-105.918	-162.038	-45.672	-57.353	-161.835	-157.373	-97.587	-64.180	-157.094	-153.565	-153.811	-148.428	-51.973	-148.979	-8191	255	
7417.835	1	1	0	0	0.094066	0.030416	0.092095	0.18759	0.2868	0.21122	0.14144	0.058376	0.19414	0.19665	0.052921	0.14501	0.079173	0.089597	0.11613	0.32693	-2.8625	-3.0563	-3.0625	-3.2	-2.8292	-3.2	-3.1854	-2.8646	-3.25	-2.8646	-3.0708	-3.15	-2.9021	-3.4458	-2.7938	-3.3625	53.287	74.417	156.542	-174.875	-106.379	-73.253	173.513	-49.105	79.997	-174.330	-59.157	-171.731	167.325	-96.054	-68.031	136.983	0.0022323	0.00049252	4.8325e-05	454.63	1.7116e-06	3.3001e-06	647.17	164.71	6.7735e-06	8.1911e-06	300.22	143.16	71.241	32.611	7.7865e-06	77.938	0.00061288	0.00058136	0.00019003	491.51	6.3346e-06	6.3548e-06	692.74	177.09	6.264e-06	6.5883e-06	321.18	150.25	75.971	34.731	7.5306e-06	82.076	94.355	-91.376	-78.354	-162.001	-33.331	-53.329	-161.837	-157.013	-61.008	-109.044	-157.154	-153.316	-154.051	-148.413	-48.675	-149.021	-8191	255	
7417.956	1	1	0	0	0.31273	0.16544	0.14346	0.26334	0.26135	0.27711	0.21978	0.21161	0.14834	0.14137	0.17914	0.20084	0.24443	0.12083	0.047811	0.22946	-2.8063	-2.7104	-3.1667	-2.9167	-2.9667	-3.1646	-3.0021	-2.9646	-3.2208	-2.9625	-3.1354	-3.3104	-2.7896	-3.2771	-3.0687	-2.8667	-127.668	-175.044	49.197	70.853	135.747	10.951	78.033	-57.082	126.941	138.441	13.567	146.596	60.985	173.664	60.192	24.097	0.0022258	0.00041278	0.0002041	454.25	6.7342e-06	2.1202e-06	648.16	163.97	4.0943e-06	2.4545e-06	301.69	143.41	71.487	32.746	5.1083e-06	78.137	0.00059297	0.00060823	0.00018809	489.02	6.0292e-06	6.575e-06	691.26	176.39	5.8732e-06	6.7939e-06	320.85	150.32	75.87	34.892	7.1303e-06	82.301	92.937	-41.842	-92.663	-162.060	-24.709	-31.061	-161.789	-157.462	12.188	-60.056	-157.067	-153.323	-153.963	-148.440	-56.261	-149.149	-8191	255	
#DATA ENDS
