BOXY.EXE: ISS Imagent and Oximeter Data Acquisition Program Version 0.80
Ascii Record File

#ACQ INFORMATION
2  Detector Channels 
16  External MUX Channels 
1  Auxiliary Channels 
5000  Waveform (CCF) Frequency (Hz)
1  Waveforms Skipped 
30  Waveforms Averaged 
1  Cycles Averaged 
16  Acquisitions per Waveform 
10.0806  Updata Rate (Hz) 

#FILE INFORMATION
TRUE -- External MUX Channel results are PARSED.
FALSE -- AC DC and Phase are NOT grouped.
TRUE -- Companion Program Settings File CREATED.
FALSE -- AC data not excluded
FALSE -- DC data not excluded
FALSE -- Phase data not excluded
FALSE -- Auxillary Chn. data not excluded
Tab delimiters

#CALIBRATION STATE
TRUE -- Waveform Calibration Values APPLIED.


#AUX CALIBRATION VALUES
Val Type	aux-1	

Term	1.0000e+00	
Factor	0.0000e+00	


#WF CALIBRATION VALUES
A = Detector Channel
Val Type	A-AC1	A-AC2	A-AC3	A-AC4	A-AC5	A-AC6	A-AC7	A-AC8	A-AC9	A-AC10	A-AC11	A-AC12	A-AC13	A-AC14	A-AC15	A-AC16	A-DC1	A-DC2	A-DC3	A-DC4	A-DC5	A-DC6	A-DC7	A-DC8	A-DC9	A-DC10	A-DC11	A-DC12	A-DC13	A-DC14	A-DC15	A-DC16	A-Ph1	A-Ph2	A-Ph3	A-Ph4	A-Ph5	A-Ph6	A-Ph7	A-Ph8	A-Ph9	A-Ph10	A-Ph11	A-Ph12	A-Ph13	A-Ph14	A-Ph15	A-Ph16	

Term	0.00000e+00	0.00000e+00	0.00000e+00	0.00000e+00	0.00000e+00	0.00000e+00	0.00000e+00	0.00000e+00	0.00000e+00	0.00000e+00	0.00000e+00	0.00000e+00	0.00000e+00	0.00000e+00	0.00000e+00	0.00000e+00	0.00000e+00	0.00000e+00	0.00000e+00	0.00000e+00	0.00000e+00	0.00000e+00	0.00000e+00	0.00000e+00	0.00000e+00	0.00000e+00	0.00000e+00	0.00000e+00	0.00000e+00	0.00000e+00	0.00000e+00	0.00000e+00	0.00000e+00	0.00000e+00	0.00000e+00	0.00000e+00	0.00000e+00	0.00000e+00	0.00000e+00	0.00000e+00	0.00000e+00	0.00000e+00	0.00000e+00	0.00000e+00	0.00000e+00	0.00000e+00	0.00000e+00	0.00000e+00	
Factor	1.00000e+00	1.00000e+00	1.00000e+00	1.00000e+00	1.00000e+00	1.00000e+00	1.00000e+00	1.00000e+00	1.00000e+00	1.00000e+00	1.00000e+00	1.00000e+00	1.00000e+00	1.00000e+00	1.00000e+00	1.00000e+00	1.00000e+00	1.00000e+00	1.00000e+00	1.00000e+00	1.00000e+00	1.00000e+00	1.00000e+00	1.00000e+00	1.00000e+00	1.00000e+00	1.00000e+00	1.00000e+00	1.00000e+00	1.00000e+00	1.00000e+00	1.00000e+00	X	X	X	X	X	X	X	X	X	X	X	X	X	X	X	X	

B = Detector Channel
Val Type	B-AC1	B-AC2	B-AC3	B-AC4	B-AC5	B-AC6	B-AC7	B-AC8	B-AC9	B-AC10	B-AC11	B-AC12	B-AC13	B-AC14	B-AC15	B-AC16	B-DC1	B-DC2	B-DC3	B-DC4	B-DC5	B-DC6	B-DC7	B-DC8	B-DC9	B-DC10	B-DC11	B-DC12	B-DC13	B-DC14	B-DC15	B-DC16	B-Ph1	B-Ph2	B-Ph3	B-Ph4	B-Ph5	B-Ph6	B-Ph7	B-Ph8	B-Ph9	B-Ph10	B-Ph11	B-Ph12	B-Ph13	B-Ph14	B-Ph15	B-Ph16	

Term	0.00000e+00	0.00000e+00	0.00000e+00	0.00000e+00	0.00000e+00	0.00000e+00	0.00000e+00	0.00000e+00	0.00000e+00	0.00000e+00	0.00000e+00	0.00000e+00	0.00000e+00	0.00000e+00	0.00000e+00	0.00000e+00	0.00000e+00	0.00000e+00	0.00000e+00	0.00000e+00	0.00000e+00	0.00000e+00	0.00000e+00	0.00000e+00	0.00000e+00	0.00000e+00	0.00000e+00	0.00000e+00	0.00000e+00	0.00000e+00	0.00000e+00	0.00000e+00	-1.89518e+02	-1.23593e+02	-1.25496e+02	-1.81679e+02	-7.61103e+01	-6.24902e+01	-1.55738e+02	-1.62015e+02	-8.38926e+01	-6.66045e+01	-1.71022e+02	-1.71488e+02	-1.82271e+02	-1.77129e+02	-7.76859e+01	-1.50166e+02	
Factor	3.40093e-05	1.64242e-04	4.24187e-05	4.50345e-01	1.35262e-06	1.43726e-06	1.64758e-01	5.55694e-02	1.59219e-06	1.39930e-06	8.73404e-02	2.91543e-02	2.39755e-02	8.51859e-03	1.51915e-06	1.23768e-02	5.84871e-06	6.87391e-06	1.90808e-06	2.31325e-01	7.49402e-08	7.54082e-08	8.06156e-02	2.88414e-02	7.34411e-08	7.61242e-08	4.39244e-02	1.47014e-02	1.25749e-02	4.46564e-03	7.38727e-08	6.28510e-03	X	X	X	X	X	X	X	X	X	X	X	X	X	X	X	X	



#DISTANCE SETTINGS
A = Detector Channel
A-1	A-2	A-3	A-4	A-5	A-6	A-7	A-8	A-9	A-10	A-11	A-12	A-13	A-14	A-15	A-16	

2.5000e+00	3.0000e+00	2.5000e+00	3.0000e+00	2.0000e+00	3.0000e+00	1.5000e+00	3.0000e+00	3.0000e+00	3.0000e+00	3.0000e+00	3.0000e+00	3.0000e+00	3.0000e+00	1.5000e+00	3.0000e+00	

B = Detector Channel
B-1	B-2	B-3	B-4	B-5	B-6	B-7	B-8	B-9	B-10	B-11	B-12	B-13	B-14	B-15	B-16	

1.0000e+01	1.0000e+01	1.0000e+01	1.4400e+00	1.0000e+01	1.0000e+01	1.5100e+00	1.9400e+00	1.0000e+01	1.0000e+01	1.9900e+00	2.4900e+00	2.4100e+00	2.9000e+00	1.0000e+01	2.9800e+00	




#DATA BEGINS
time	group	step	mark	flag	A-AC1	A-AC2	A-AC3	A-AC4	A-AC5	A-AC6	A-AC7	A-AC8	A-AC9	A-AC10	A-AC11	A-AC12	A-AC13	A-AC14	A-AC15	A-AC16	A-DC1	A-DC2	A-DC3	A-DC4	A-DC5	A-DC6	A-DC7	A-DC8	A-DC9	A-DC10	A-DC11	A-DC12	A-DC13	A-DC14	A-DC15	A-DC16	A-Ph1	A-Ph2	A-Ph3	A-Ph4	A-Ph5	A-Ph6	A-Ph7	A-Ph8	A-Ph9	A-Ph10	A-Ph11	A-Ph12	A-Ph13	A-Ph14	A-Ph15	A-Ph16	B-AC1	B-AC2	B-AC3	B-AC4	B-AC5	B-AC6	B-AC7	B-AC8	B-AC9	B-AC10	B-AC11	B-AC12	B-AC13	B-AC14	B-AC15	B-AC16	B-DC1	B-DC2	B-DC3	B-DC4	B-DC5	B-DC6	B-DC7	B-DC8	B-DC9	B-DC10	B-DC11	B-DC12	B-DC13	B-DC14	B-DC15	B-DC16	B-Ph1	B-Ph2	B-Ph3	B-Ph4	B-Ph5	B-Ph6	B-Ph7	B-Ph8	B-Ph9	B-Ph10	B-Ph11	B-Ph12	B-Ph13	B-Ph14	B-Ph15	B-Ph16	aux-1	digaux	

33797.234	1	1	0	768	0.073425	0.13275	0.097581	0.15105	0.053772	0.2197	0.079277	0.071021	0.15533	0.27427	0.22554	0.18775	0.2329	0.22509	0.19459	0.11041	-2.85	-3.2208	-3.1479	-3.1604	-2.8208	-3.2083	-3.1208	-2.8646	-3.1312	-3.0958	-3.1771	-3.2917	-2.8708	-3.1562	-3.2083	-2.9875	-31.012	20.796	-54.004	274.786	201.354	136.172	104.770	28.998	-44.444	53.345	-27.581	127.006	11.407	210.778	149.603	135.776	0.00026538	0.00015611	0.00043165	370.72	7.0349e-06	2.0963e-06	345.19	59.222	8.8799e-06	1.0445e-05	69.483	16.089	12.718	2.7517	5.6016e-06	3.9297	0.0079388	0.0085998	0.0024196	662.06	9.0309e-05	0.00010172	440.48	91.546	9.6554e-05	9.2921e-05	120.97	35.21	27.152	8.3424	9.1579e-05	11.322	69.522	198.832	-39.443	-48.881	34.344	251.690	-49.171	-45.144	-55.078	110.275	-45.798	-41.347	-40.790	-37.716	280.893	-37.919	-8191	255	
33797.332	1	1	0	0	0.12656	0.068824	0.078481	0.069279	0.099465	0.048937	0.20198	0.17989	0.092285	0.11509	0.071079	0.21828	0.27017	0.1997	0.045658	0.13227	-2.8063	-2.9313	-3.0021	-3.4	-3.1771	-3.1562	-3.2021	-2.8042	-3.2375	-3.2854	-2.9542	-3.3	-2.975	-3.0875	-3.2792	-3.0062	287.103	254.177	203.576	166.220	216.451	-39.350	76.646	134.367	-50.890	23.046	-35.238	65.563	134.086	98.121	-10.277	42.256	0.00020979	0.0010084	0.00031419	370.32	1.06e-05	1.7174e-05	341.93	57.093	1.3158e-05	7.2293e-06	66.673	15.611	12.109	2.5738	7.9199e-06	3.9788	0.0077978	0.0084398	0.0022919	653.15	8.9174e-05	9.6999e-05	434.18	89.436	9.4363e-05	9.2672e-05	118.29	34.971	26.941	8.1154	9.2561e-05	11.309	48.554	258.990	-30.013	-48.549	280.167	16.703	-49.219	-45.201	5.857	237.365	-44.729	-39.230	-41.539	-37.190	115.085	-36.623	-8191	255	
33797.430	1	1	0	0	0.096571	0.15527	0.20814	0.062775	0.14301	0.24479	0.26134	0.021494	0.12607	0.29132	0.06219	0.10682	0.1822	0.19106	0.27307	0.025631	-2.7229	-3.0958	-2.9792	-3.1813	-3.0625	-3.0104	-3.1979	-2.9146	-3.1063	-3.2083	-2.9229	-3.1167	-2.9646	-2.95	-3.2375	-2.8167	44.118	108.434	225.103	-23.844	2.263	187.818	196.551	271.913	177.681	39.561	-54.407	110.834	100.099	10.799	99.886	-53.723	0.0004311	0.0009367	9.1664e-05	368.04	1.2799e-05	1.8833e-05	340.67	57.807	8.47e-06	9.4622e-06	67.998	16.064	12.396	2.731	1.2124e-05	4.2045	0.0076662	0.008601	0.002263	655.67	9.1034e-05	9.7752e-05	435.2	89.624	9.7007e-05	9.6073e-05	119.15	35.427	27.801	8.2984	9.6862e-05	11.72	215.062	212.237	44.096	-47.639	232.303	18.539	-49.633	-45.285	72.978	164.777	-45.194	-40.260	-40.964	-38.250	116.890	-35.017	-8191	255	
33797.523	1	1	0	0	0.18336	0.15032	0.24252	0.14004	0.15052	0.015425	0.066272	0.098647	0.1849	0.10271	0.14887	0.10381	0.10929	0.32962	0.10498	0.093727	-2.6562	-3.1458	-2.7438	-3.05	-2.8542	-3.1042	-3.2396	-3.0167	-3.0042	-3.2438	-2.9479	-3.1688	-3.1833	-2.775	-3.2583	-2.9396	188.477	231.745	167.827	24.451	167.465	289.109	282.362	256.529	276.111	259.047	26.598	106.253	174.340	-9.982	168.915	100.658	0.00026573	0.0013293	9.0615e-05	366.55	7.3679e-06	1.014e-06	339.43	57.791	7.8281e-06	1.2517e-05	67.727	16.19	12.52	2.7155	1.4716e-05	3.9004	0.0080858	0.0090278	0.0023095	669.23	9.4681e-05	9.5653e-05	440.94	91.103	9.6945e-05	9.7804e-05	119.21	35.81	28.13	8.1219	9.6522e-05	11.635	226.195	211.086	-5.154	-48.129	179.755	110.168	-49.083	-44.621	208.139	261.626	-45.146	-40.584	-40.806	-37.432	270.057	-36.952	-8191	255	
33797.617	1	1	0	0	0.16117	0.13872	0.12265	0.17607	0.24748	0.39425	0.17854	0.094309	0.07055	0.24225	0.17063	0.11974	0.22283	0.2069	0.053101	0.1767	-2.6083	-3.1521	-2.9729	-3.2958	-3.0583	-2.8625	-3.3063	-3.0667	-3.0625	-3.1937	-2.95	-3.0938	-3.0958	-2.8854	-3.1979	-3.0625	204.733	7.106	112.066	131.395	113.232	241.249	-1.511	143.432	-21.642	181.997	-5.024	-31.979	125.336	86.152	135.723	151.692	0.00023234	0.00048577	0.00034039	372.52	2.3601e-06	9.8523e-06	345.66	58.165	1.348e-05	8.5213e-07	71.157	16.623	12.939	2.8331	1.7802e-06	4.1595	0.007783	0.0089805	0.0022757	670.91	9.549e-05	9.4249e-05	448.49	92.955	9.5486e-05	0.00010033	121.69	36.307	29.096	8.195	0.0001003	11.97	4.918	8.342	222.674	-48.170	288.534	264.200	-49.128	-45.184	64.494	191.650	-45.343	-40.333	-41.754	-36.322	-45.805	-37.036	-8191	255	
33797.719	1	1	0	0	0.053096	0.057021	0.16448	0.099941	0.2173	0.098002	0.14778	0.27596	0.10687	0.039951	0.14233	0.05862	0.13764	0.16671	0.17418	0.030971	-2.5563	-3.2604	-2.8542	-3.1437	-3.1	-2.8792	-3.3333	-3.025	-3.025	-3.3042	-2.9583	-3.225	-3.0208	-2.8083	-2.9917	-3.0667	156.753	62.992	41.308	-7.943	-23.832	24.012	239.184	285.015	126.525	177.067	75.455	62.583	-17.894	94.954	66.975	71.793	0.00026307	0.00086233	0.00015086	374.99	7.9598e-06	4.9735e-06	360.65	60.572	5.1725e-06	8.1684e-06	73.09	16.704	13.305	2.7537	1.1976e-05	4.2728	0.0078071	0.009238	0.0023186	677.55	9.7059e-05	9.3821e-05	458.43	96.284	9.4415e-05	0.00010158	124.65	36.958	29.496	8.2118	0.00010043	12.154	155.058	146.270	178.812	-47.812	-37.787	84.700	-49.184	-45.280	87.161	183.160	-44.647	-41.427	-41.698	-37.250	-51.300	-37.012	-8191	255	
33797.836	1	1	0	0	0.06409	0.3711	0.19132	0.23251	0.25216	0.16849	0.1411	0.10123	0.24462	0.086837	0.14854	0.17233	0.16336	0.16946	0.10335	0.093231	-2.6562	-3.2313	-2.8875	-3.0771	-3.0604	-2.9542	-3.15	-2.9375	-2.8875	-3.2375	-3.0271	-2.975	-3.1583	-2.7646	-3.2833	-2.8958	-19.569	-21.418	64.074	-42.192	99.487	189.888	5.345	138.467	195.951	103.885	7.408	-52.566	132.197	203.041	283.663	209.065	0.00020351	0.00077506	0.00038292	376.56	4.6897e-06	8.9181e-06	354.99	59.85	8.1364e-06	3.5133e-06	70.276	16.707	12.836	2.7697	3.6724e-06	4.1233	0.0074904	0.0094021	0.0023665	676.33	9.7593e-05	9.3143e-05	458.92	96.066	9.2391e-05	0.00010223	123.67	36.331	29.509	8.1649	0.00010108	12.236	14.781	207.377	100.386	-48.427	269.502	55.445	-49.449	-45.580	-2.091	70.894	-45.954	-42.324	-42.443	-36.148	-44.698	-37.146	-8191	255	
33797.934	1	1	0	0	0.14958	0.15265	0.1149	0.19313	0.15142	0.23641	0.24916	0.1151	0.23299	0.14349	0.20434	0.27232	0.07763	0.074031	0.37766	0.052667	-2.5583	-3.1854	-2.8875	-2.9375	-3.2354	-2.9792	-3.1146	-3.1458	-2.9979	-3.2917	-2.9333	-3.1271	-3.2938	-2.8812	-3.0083	-3.1833	174.323	255.347	242.855	60.296	285.347	176.990	160.019	-9.616	245.332	157.729	11.029	-9.468	247.152	40.932	127.741	-55.632	0.0001423	0.00054163	0.00015632	379.72	9.8376e-06	4.1266e-06	353.18	61.07	1.5599e-05	1.2722e-06	71.75	17.188	13.134	2.8015	1.2149e-05	4.1501	0.0073935	0.0097476	0.0024309	669.07	0.00010022	9.413e-05	458.16	97.196	9.1377e-05	0.00010487	125.48	36.211	29.978	8.2543	0.00010176	12.402	-29.381	270.177	207.121	-48.212	202.214	48.352	-48.808	-45.025	104.793	220.763	-45.814	-42.411	-41.436	-36.757	152.460	-38.326	-8191	255	
33798.027	1	1	0	0	0.14459	0.25322	0.24614	0.11493	0.15262	0.12693	0.022621	0.35912	0.10849	0.19685	0.10536	0.26221	0.15664	0.1881	0.24674	0.15251	-2.3812	-3.0438	-3.0625	-2.925	-3.2417	-2.9458	-3.1458	-3.0229	-2.8417	-3.2979	-3.1458	-2.9958	-3.2062	-2.8187	-3.1354	-3.1188	67.587	284.009	34.402	239.632	6.468	-61.624	184.287	-23.206	154.380	224.891	241.991	93.890	199.442	228.743	152.852	124.101	0.00027896	0.0018244	0.00012059	380.16	3.1556e-06	1.0587e-06	357.14	61.794	1.2315e-05	1.0408e-05	73.923	17.229	13.541	2.898	9.6967e-06	4.3233	0.0073808	0.0096148	0.0025048	665.77	0.00010154	9.568e-05	463.74	99.393	9.1389e-05	0.00010637	128.76	36.197	30.916	8.569	0.00010135	12.629	115.944	156.845	227.864	-49.239	4.875	22.008	-49.307	-45.534	271.872	195.625	-45.899	-41.886	-41.648	-37.322	-45.818	-37.002	-8191	255	
33798.125	1	1	0	0	0.32307	0.061319	0.080329	0.20052	0.2428	0.21514	0.1039	0.086046	0.17131	0.21789	0.13068	0.0085415	0.21141	0.14451	0.20301	0.12486	-2.4396	-3.0875	-3.0667	-2.8354	-3.0896	-3.0229	-2.9229	-3.1667	-2.9104	-3.1021	-3.075	-2.8792	-3.0167	-2.8771	-2.9417	-3.3083	108.446	233.329	1.129	-47.367	71.724	77.092	143.877	283.883	272.001	159.711	140.952	4.671	202.207	31.014	272.058	188.472	0.00024784	0.0017461	0.00010234	377.32	9.2484e-06	4.9464e-06	357.69	61.375	3.755e-06	3.4146e-06	74.632	17.876	14.273	2.9542	2.565e-06	4.5196	0.0073265	0.0098717	0.0025013	655.07	0.00010265	9.6192e-05	459.43	99.25	9.0375e-05	0.0001066	130.03	36.491	32.121	8.9451	0.00010162	13.233	38.127	270.681	-50.129	-49.156	61.523	203.154	-49.280	-44.946	44.168	76.413	-45.945	-42.779	-40.699	-35.923	114.139	-34.908	-8191	255	
33798.219	1	1	0	0	0.089939	0.17115	0.11311	0.051558	0.33647	0.11946	0.28104	0.097298	0.091281	0.15276	0.11707	0.071532	0.15612	0.28557	0.15252	0.10441	-2.4583	-3.125	-3.1292	-2.7917	-3.2958	-3.2333	-2.8542	-3.3333	-2.8458	-3.2708	-3.1	-2.8458	-3.1188	-3.0958	-2.9021	-3.25	-39.888	87.495	137.826	277.382	35.081	275.849	190.026	243.480	-29.707	197.113	241.501	-27.479	128.574	41.893	102.212	117.399	0.00015971	0.00091483	8.0244e-05	387.92	8.0294e-06	3.5889e-06	373.28	65.068	9.3934e-06	7.0077e-06	78.561	18.914	15.21	3.2947	6.498e-06	4.8012	0.0076604	0.010105	0.0026781	676.63	0.00011023	0.00010384	478.96	106.07	9.8836e-05	0.00011359	138.98	38.543	34.185	9.6707	0.00010542	14.059	281.647	280.557	145.141	-49.116	119.229	290.512	-49.765	-45.310	117.768	166.849	-46.245	-40.868	-40.301	-38.730	-11.391	-36.037	-8191	255	
33798.316	1	1	0	0	0.14659	0.13131	0.072179	0.092414	0.28325	0.17759	0.12213	0.063266	0.20709	0.069229	0.11829	0.084516	0.077837	0.043897	0.29265	0.16946	-2.3625	-3.1521	-3.0146	-2.8979	-3.2479	-2.8917	-2.8229	-3.2521	-2.975	-3.0271	-3.0646	-2.7271	-3.1042	-2.9708	-2.9208	-3.1375	-23.205	72.727	223.545	13.521	283.978	101.917	123.518	-20.597	-2.976	142.190	-56.228	207.787	194.882	83.355	32.013	-46.973	0.00027351	0.0016197	0.00012303	401.37	6.5029e-06	1.3529e-05	387.25	68.367	9.5595e-06	9.9209e-06	80.91	19.418	15.705	3.4318	3.6967e-06	4.7598	0.0081398	0.010684	0.0027997	700.15	0.00011374	0.00010696	488.67	111.02	0.00010227	0.00011307	142.26	39.047	34.978	9.7378	0.00010287	14.168	46.455	247.297	189.603	-49.696	152.440	220.131	-49.543	-46.024	69.784	171.328	-45.682	-42.616	-41.429	-39.268	13.434	-37.355	-8191	255	
33798.410	1	1	0	0	0.15066	0.18138	0.075693	0.19237	0.12572	0.23879	0.1274	0.067573	0.29347	0.11217	0.11245	0.073835	0.10481	0.092773	0.06257	0.053893	-2.45	-3.0396	-3.3875	-2.8979	-3.1354	-3.1688	-2.8063	-3.1854	-2.8583	-2.9917	-3.2125	-2.9062	-3.0833	-3.1417	-2.8917	-3.1	204.584	10.244	-17.835	260.510	-39.362	-47.349	206.366	80.165	-49.963	254.457	284.167	62.895	233.330	124.936	98.315	-26.163	0.0001405	0.00065656	0.00034846	402.96	1.151e-05	6.3957e-07	384.82	68.262	9.41e-06	1.3669e-06	78.126	18.797	14.94	3.1224	5.9079e-06	4.5197	0.008194	0.010308	0.0027961	702.56	0.0001135	0.00010793	485.5	111.11	0.00010302	0.00011039	140.94	38.591	33.818	9.5452	0.0001006	13.898	117.463	194.530	29.961	-49.333	108.774	11.818	-48.842	-44.480	183.813	103.880	-45.850	-42.550	-42.751	-37.482	-18.809	-37.401	-8191	255	
33798.531	1	1	0	0	0.048032	0.31414	0.14754	0.14233	0.28686	0.072597	0.33179	0.30044	0.31512	0.10957	0.28662	0.11765	0.42186	0.26723	0.11229	0.2856	-2.5333	-2.9021	-3.0979	-2.8833	-3.1146	-3.1021	-2.8375	-3.0729	-2.8729	-2.8521	-3.3312	-2.7021	-3.0896	-3.1375	-2.8708	-3.1167	278.297	20.823	253.950	284.474	136.604	-24.601	205.036	73.632	54.150	21.601	75.888	154.761	244.268	128.853	-39.287	9.809	0.00030312	0.002108	0.0002591	395.11	5.6442e-06	7.5862e-06	371.35	64.338	1.1668e-05	1.4625e-05	75.563	17.738	14.065	2.9758	1.593e-05	4.3595	0.0082215	0.010076	0.0028336	695.47	0.00011172	0.00010743	471.9	106.3	0.00010368	0.00010639	137.28	37.497	32.847	9.2731	9.7557e-05	13.532	-22.905	290.785	149.108	-49.079	-19.880	31.319	-49.512	-45.665	100.305	116.896	-45.615	-42.318	-41.240	-37.192	269.604	-37.371	-8191	255	
33798.629	1	1	0	0	0.056462	0.20445	0.15106	0.14925	0.16051	0.16601	0.21196	0.35474	0.14672	0.22785	0.1479	0.15326	0.21303	0.18336	0.041832	0.23035	-2.4208	-2.8583	-3.2687	-2.8917	-3.1583	-3.0979	-2.9542	-3.0292	-3.0229	-2.8958	-3.2313	-2.9688	-2.9104	-3.1271	-2.9042	-3.1125	92.422	61.274	-17.314	104.967	30.182	-3.743	229.118	121.741	81.078	2.343	170.856	-11.322	174.785	119.615	156.327	36.776	4.9855e-05	0.0016956	9.2126e-05	389.75	9.2337e-06	1.701e-05	364.15	63.138	5.0472e-06	3.5042e-06	73.291	17.217	13.506	2.7448	1.4214e-05	4.2981	0.0081071	0.009376	0.0028085	684.17	0.00010705	0.00010521	460.99	104.37	0.00010138	0.00010029	134.33	36.388	30.948	8.8848	9.4695e-05	13.195	68.412	-31.298	265.043	-49.338	245.760	59.500	-49.323	-45.037	156.584	260.392	-45.656	-40.977	-41.912	-38.745	216.423	-35.704	-8191	255	
33798.723	1	1	0	0	0.16289	0.15939	0.35728	0.28917	0.16224	0.16942	0.049625	0.16973	0.267	0.022699	0.18199	0.12872	0.16611	0.10944	0.14704	0.078623	-2.6063	-2.8417	-3.1562	-2.8583	-2.8958	-3.125	-2.9354	-3.0417	-3.15	-2.8771	-3.0417	-2.9854	-3.025	-3.1292	-3.0187	-2.9479	-59.765	29.075	156.833	204.167	-57.228	95.502	264.296	20.641	44.655	174.547	235.778	75.728	14.778	116.836	268.199	20.413	0.00029749	0.00087393	0.00049818	390.94	1.5124e-05	6.6133e-06	370.84	64.32	2.0895e-05	1.0338e-05	74.668	17.355	13.964	2.7989	1.1334e-05	4.0804	0.0078551	0.00894	0.0028051	684.75	0.00010223	0.00010397	463.46	104.38	0.00010162	9.7691e-05	134.4	36.437	30.64	9.0437	9.6068e-05	12.96	122.164	258.585	284.610	-47.805	27.372	167.171	-49.288	-44.343	-57.682	-37.034	-45.842	-41.799	-43.123	-36.623	179.428	-37.399	-8191	255	
33798.797	1	1	0	0	0.15863	0.025832	0.27112	0.17067	0.064013	0.1248	0.14944	0.1751	0.070419	0.1316	0.14856	0.10926	0.1676	0.035501	0.19954	0.12788	-2.5479	-2.5646	-3.15	-2.9813	-2.9271	-3.2812	-2.9104	-3.0979	-3.2375	-2.9875	-3.1896	-2.9354	-2.8542	-3.2062	-3.0458	-3.0687	-51.237	107.985	41.554	212.459	160.601	102.417	242.125	214.740	97.358	-60.639	209.253	225.337	276.239	44.605	191.006	-43.180	0.00020436	0.00078101	0.00024216	382.34	9.4471e-06	5.5379e-06	357.55	62.116	1.2125e-05	1.0317e-05	72.938	16.389	12.977	2.8062	9.921e-06	4.2047	0.0079431	0.0089153	0.0027792	680.73	9.9754e-05	0.0001059	454.49	102.47	0.00010161	9.804e-05	133.6	36.151	29.458	9.1343	9.8127e-05	12.871	114.867	22.245	252.792	-49.304	-44.439	203.890	-49.491	-44.720	47.570	72.021	-46.213	-41.186	-42.508	-36.444	283.996	-36.872	-8191	255	
33798.914	1	1	0	0	0.15307	0.12673	0.19784	0.25005	0.048721	0.094129	0.17542	0.22372	0.18901	0.193	0.16582	0.18643	0.18561	0.097821	0.17303	0.1531	-2.6854	-2.8688	-3.15	-3.1125	-2.8937	-3.2167	-2.9979	-2.8104	-2.95	-2.8646	-3.1937	-3.0938	-2.7375	-2.9208	-3.1583	-2.9917	-5.032	73.053	131.908	-1.060	272.235	224.747	206.665	109.150	93.669	275.844	190.393	71.279	-9.002	15.727	48.382	91.618	0.0001875	0.00033632	0.00030687	373.13	2.1328e-06	9.2662e-06	353.84	62.132	6.8262e-06	6.142e-06	73.714	17.163	14.052	2.8465	4.2052e-06	4.3516	0.0079957	0.008879	0.0028559	674.19	9.7979e-05	0.00010708	451.2	100.48	0.00010041	9.699e-05	133.23	36.414	29.38	9.271	9.7182e-05	12.604	-32.647	-25.054	-30.023	-49.113	230.462	111.286	-49.550	-44.742	-6.045	-22.183	-45.807	-42.118	-41.331	-35.835	291.374	-37.284	-8191	255	
33799.012	1	1	0	0	0.17645	0.1309	0.18989	0.15245	0.07692	0.21585	0.10243	0.25007	0.11409	0.02505	0.13662	0.10467	0.131	0.04679	0.19706	0.26399	-2.8375	-2.9333	-3.1646	-3.1021	-2.7792	-3.1312	-3.0896	-3.0896	-3.1521	-3.0167	-3.0708	-3.1458	-2.825	-3.1	-3.0521	-2.9896	252.466	-37.206	288.637	158.367	186.320	126.375	240.010	105.740	239.130	233.039	285.066	208.266	220.249	179.246	138.680	102.986	0.00018964	0.00018301	0.00035853	368.38	4.6073e-06	7.7402e-06	353.42	61.609	2.1465e-05	6.1909e-06	72.609	17.048	13.667	2.9325	7.2561e-06	4.3067	0.0079392	0.0086998	0.0027091	668.85	9.3858e-05	0.00010608	450.27	98.576	0.00010216	9.6532e-05	130.77	36.111	28.993	9.2056	9.7057e-05	12.36	108.958	164.804	192.234	-49.219	143.661	214.319	-49.133	-44.434	189.145	213.142	-46.148	-41.291	-42.253	-36.743	63.973	-38.051	-8191	255	
33799.109	1	1	0	0	0.14052	0.12414	0.27268	0.15343	0.074874	0.40426	0.099189	0.046949	0.085033	0.14549	0.063394	0.12869	0.20707	0.10764	0.083124	0.21039	-2.6479	-2.9771	-3.1542	-3.0396	-2.85	-3.2313	-2.925	-2.8042	-3.225	-2.9229	-3.1	-2.9521	-2.7792	-3.0938	-3.1479	-3.0687	205.186	-60.478	249.209	266.215	-52.266	5.631	-10.852	186.848	57.248	153.418	55.892	-63.041	87.210	260.929	-54.675	27.210	0.00012786	0.0015515	0.00010805	371.23	3.3414e-06	9.818e-06	353.03	62.375	2.5367e-05	7.1478e-06	75.497	17.381	13.644	2.8303	6.1048e-06	4.3434	0.008033	0.0087509	0.0027348	669.08	9.3594e-05	0.0001067	451.53	98.047	0.00010509	9.991e-05	132.95	37.077	29.592	9.4734	9.9666e-05	12.298	36.649	261.985	204.451	-49.506	-6.285	178.789	-49.492	-46.103	31.004	222.436	-45.946	-43.039	-41.446	-37.050	-53.955	-36.575	-8191	255	
33799.230	1	1	0	0	0.098518	0.21679	0.33266	0.12516	0.03819	0.1766	0.1859	0.20677	0.19828	0.12949	0.18228	0.10232	0.19452	0.22621	0.040926	0.19625	-2.8354	-2.8312	-2.9854	-3.0917	-3.1208	-3.2625	-3.0812	-2.8458	-3.2875	-2.9625	-3.0812	-3.1792	-2.6854	-3.0438	-3.1354	-2.9146	229.265	-31.221	-48.368	79.661	219.172	37.370	220.960	253.010	56.066	97.830	214.648	284.200	294.127	175.046	155.381	242.185	4.6134e-05	0.00032437	0.00053221	369.35	5.3706e-06	1.6012e-05	360.87	62.281	1.7193e-05	8.4535e-06	73.697	17.52	14.021	2.9347	4.8748e-06	4.3605	0.0082142	0.0089487	0.0026737	674.1	9.4822e-05	0.00010705	457.56	98.118	0.00010705	0.00010045	130.58	37.22	29.668	9.2853	9.958e-05	12.2	279.506	226.473	281.744	-48.086	55.470	175.483	-49.443	-46.169	37.486	117.862	-45.546	-41.882	-41.795	-38.347	221.359	-37.368	-8191	255	
33799.324	1	1	0	0	0.18594	0.22621	0.081756	0.23352	0.20215	0.17168	0.23765	0.036349	0.20055	0.09418	0.067319	0.089264	0.36608	0.099593	0.054097	0.081314	-2.8187	-2.825	-3.1104	-3.1312	-2.8104	-3.3208	-3.2188	-2.9562	-3.1813	-2.9979	-2.8438	-3.1917	-2.7292	-3.0458	-3.2875	-2.8479	190.326	87.894	249.201	229.256	184.922	144.121	242.562	113.000	247.611	246.838	47.668	190.429	85.934	180.970	254.872	-59.342	0.00017818	0.00036609	0.00038603	372.9	1.1827e-05	7.1611e-06	362.6	64.42	9.5102e-06	1.3663e-05	74.023	17.836	13.998	2.9489	1.4876e-05	4.3903	0.0083002	0.0090166	0.0025707	682.4	9.597e-05	0.00010519	459.36	98.584	0.00010603	0.00010146	129.17	37.666	29.79	9.357	9.9529e-05	12.242	296.431	241.164	-40.522	-49.431	232.101	53.598	-49.248	-45.059	30.049	135.859	-45.239	-41.364	-42.273	-37.264	117.320	-36.495	-8191	255	
33799.398	1	1	0	0	0.079516	0.18213	0.21243	0.049855	0.11976	0.19832	0.3	0.13077	0.2058	0.14231	0.3442	0.10818	0.27388	0.055318	0.05249	0.030378	-2.8646	-3.0979	-3.0521	-3.1271	-3.0187	-2.9583	-3.2542	-2.8479	-3.2188	-3.1583	-2.9583	-3.1104	-3.0354	-2.9667	-3.1333	-2.8375	212.787	-24.247	65.488	129.719	-27.372	202.706	205.297	100.749	125.534	77.244	288.452	261.611	-41.507	178.173	18.287	85.842	0.00039254	0.0013687	0.00022287	374.2	8.6659e-06	1.7807e-05	363.46	62.928	1.224e-05	6.2485e-06	74.96	17.234	13.833	2.9781	1.3909e-06	4.3865	0.0083107	0.0090502	0.0024643	690	9.7305e-05	0.0001027	460.19	98.289	0.00010714	0.00010116	127.41	37.615	29.691	9.0945	9.9619e-05	12.338	89.558	238.033	287.217	-49.580	100.722	133.062	-49.486	-44.663	123.667	249.577	-45.342	-40.786	-41.964	-37.310	123.484	-35.841	-8191	255	
33799.516	1	1	0	0	0.04721	0.071554	0.34062	0.2559	0.24962	0.096424	0.078985	0.16956	0.076154	0.10106	0.043945	0.15148	0.24126	0.17101	0.06763	0.10433	-2.8812	-3.1312	-2.8937	-3.0271	-2.825	-3.1375	-3.0979	-2.8167	-2.9708	-3.1708	-2.7625	-3.1667	-2.8354	-2.8396	-3.2417	-3.0521	217.065	205.865	-20.853	-38.912	274.716	241.433	182.538	198.385	211.282	233.458	118.204	-6.859	74.670	286.452	-6.838	16.223	0.00017064	0.00065678	0.00048011	373.74	3.4106e-06	8.7413e-06	355.63	61.93	1.906e-05	1.0972e-05	73.882	17.352	13.626	2.9869	1.2319e-05	4.5006	0.0082606	0.0090991	0.0024491	700.36	9.9181e-05	0.00010089	459.03	97.728	0.00010566	0.00010305	127.57	38.063	30.025	9.0083	0.00010457	12.557	-48.263	-6.342	200.827	-49.596	141.987	38.826	-49.539	-44.693	102.417	295.380	-45.489	-41.508	-41.775	-36.935	160.360	-37.384	-8191	255	
33799.613	1	1	0	0	0.32494	0.23735	0.39612	0.10539	0.22949	0.21833	0.17434	0.21685	0.33319	0.076372	0.04182	0.10963	0.25221	0.092319	0.11262	0.24579	-2.6333	-2.9979	-2.8417	-2.9896	-2.9271	-2.925	-3.3042	-2.9271	-3.0083	-3.1833	-2.9813	-3.0729	-3.1083	-2.9021	-3.1437	-2.9458	-43.560	129.141	40.715	20.932	72.374	201.604	170.153	176.100	277.490	272.258	232.430	151.356	-46.579	58.386	65.281	51.416	0.00016277	0.00066318	0.00026683	369.78	1.3644e-05	2.2834e-06	355.9	62.835	6.2264e-06	4.5884e-06	72.211	16.9	13.641	3.0506	1.9342e-05	4.4408	0.0082476	0.0092378	0.0024528	696.85	0.00010067	9.8106e-05	458.49	98.012	0.00010599	0.0001031	126.72	37.844	29.825	8.6675	0.0001051	12.514	-30.832	-22.373	114.994	-49.103	182.731	140.526	-49.249	-45.082	120.519	172.714	-45.853	-42.073	-41.887	-37.688	266.455	-36.994	-8191	255	
33799.707	1	1	0	0	0.26487	0.13547	0.15621	0.26672	0.19154	0.11327	0.16821	0.11969	0.16993	0.18446	0.060722	0.14178	0.13235	0.10822	0.19494	0.18273	-2.5854	-3.0479	-2.6917	-3.1937	-3.1604	-2.9417	-3.3771	-3.0167	-3.1562	-3.2396	-2.8875	-3.1396	-3.1854	-2.9167	-3.3458	-3.0583	-39.667	107.662	215.964	-60.911	102.061	195.332	156.058	-8.909	27.702	-37.916	192.871	-3.873	91.802	-50.112	182.687	-44.607	0.00031994	0.001397	6.0943e-05	367.58	4.9815e-06	1.652e-05	354.32	62.026	1.1683e-05	9.9712e-06	73.962	17.336	13.666	2.9138	4.9234e-06	4.3123	0.0079358	0.0092686	0.0024364	692.87	9.9605e-05	9.5071e-05	457.54	97.174	0.00010103	0.00010261	126.88	37.57	29.767	8.5188	0.00010726	12.472	-6.228	88.320	70.936	-49.332	295.439	-22.973	-49.542	-45.663	-28.227	150.688	-45.838	-42.738	-42.543	-38.067	217.781	-38.235	-8191	255	
33799.828	1	1	0	0	0.18212	0.091201	0.059249	0.1963	0.066924	0.18334	0.15567	0.10634	0.048756	0.25467	0.11414	0.15197	0.10281	0.031036	0.29741	0.12138	-2.6479	-3.25	-2.9875	-3.0083	-3.1896	-3.0042	-3.2313	-2.975	-2.8458	-3.2542	-2.8625	-3.2188	-3.3521	-2.9396	-3.1583	-2.8771	-31.252	191.579	204.779	-27.801	112.837	30.502	100.022	256.217	193.642	59.177	282.693	148.623	115.171	37.259	126.454	-33.279	0.00015888	0.0008866	0.00036009	370.5	8.2563e-06	9.1037e-06	356.57	61.131	4.9911e-06	3.8451e-06	71.88	17.34	13.139	2.8664	1.2159e-05	4.2375	0.0077152	0.0093741	0.0024344	685.21	0.00010024	9.5072e-05	458.75	97.825	9.8037e-05	0.00010699	127.03	37.11	29.67	8.4907	0.00010682	12.544	296.355	149.658	117.633	-49.744	55.594	-39.012	-49.639	-44.536	8.795	204.271	-45.999	-42.160	-41.365	-36.422	196.250	-36.148	-8191	255	
33799.926	1	1	0	0	0.19195	0.23534	0.14242	0.12454	0.22105	0.085856	0.10142	0.091914	0.1655	0.082014	0.13024	0.13014	0.093964	0.2272	0.17171	0.10531	-2.5438	-3.0771	-2.8646	-3.0208	-3.2333	-2.825	-3.2021	-2.9292	-2.9708	-3.2896	-2.875	-2.9896	-3.075	-3.0396	-3.2062	-3.15	274.257	32.836	-1.262	238.039	97.722	82.353	27.094	207.387	218.460	151.794	-34.371	208.463	-3.228	265.547	228.639	123.587	0.00050712	0.0005189	0.00035966	365.24	8.4476e-06	8.5897e-06	348.45	61.57	9.2407e-06	1.6451e-05	70.808	16.857	12.837	2.8534	6.3666e-06	4.1095	0.0075803	0.0096058	0.0024716	686.35	0.00010154	9.5843e-05	457.61	97.64	9.6157e-05	0.00010972	127.48	36.432	29.695	8.5085	0.00010923	12.511	13.221	-46.948	254.594	-48.666	252.097	-37.787	-49.554	-44.441	-5.947	114.038	-46.316	-41.611	-42.247	-37.760	153.640	-38.193	-8191	255	
33800.020	1	1	0	0	0.11361	0.15078	0.28548	0.25137	0.17924	0.11796	0.12006	0.10134	0.11994	0.24026	0.1153	0.28044	0.13636	0.1872	0.23384	0.34199	-2.5646	-3.2021	-2.9646	-3.0625	-3.3438	-2.9354	-3.1875	-3.1917	-2.8708	-3.0896	-2.9958	-2.9813	-3.0708	-2.7583	-3.2938	-3.0271	261.004	267.905	-29.598	170.563	1.780	49.642	-23.799	59.405	204.593	219.348	-9.344	55.740	-11.999	242.732	129.725	246.803	0.00026158	0.00089841	5.4265e-05	360.79	1.241e-05	3.8859e-06	344.16	59.62	1.8257e-06	1.9756e-06	71.315	16.911	13.064	2.7504	1.2978e-05	4.1146	0.0075259	0.0098289	0.0024991	668.97	0.00010274	9.7262e-05	449.67	96.23	9.441e-05	0.00011217	127.2	35.815	30.122	8.4961	0.00010583	12.47	107.122	219.219	75.845	-49.898	253.836	236.669	-49.033	-44.421	12.579	180.131	-46.232	-40.827	-41.391	-37.598	6.661	-37.117	-8191	255	
33800.094	1	1	0	0	0.14311	0.19887	0.077067	0.23142	0.18667	0.29812	0.24089	0.013796	0.049319	0.15654	0.034801	0.20047	0.19151	0.12742	0.067217	0.044429	-2.3833	-3.1396	-2.9437	-2.9021	-3.3729	-3.1021	-3.3021	-3.025	-3.0396	-3.1917	-3.0833	-3.1	-3.2375	-2.9833	-3.0854	-3.2375	120.119	89.632	109.017	97.487	138.154	175.656	112.442	268.790	138.201	271.623	161.424	-45.835	144.021	155.735	196.314	162.802	6.4922e-05	0.0011057	0.00026209	364.49	4.6511e-06	6.4145e-06	342.34	58.704	7.9233e-06	7.0443e-06	69.078	16.651	12.951	2.7973	3.6908e-06	4.135	0.0073744	0.0096831	0.0024914	653.82	0.00010557	9.6613e-05	443.48	95.451	9.3529e-05	0.00010905	125.86	35.028	30.139	8.4461	0.00010566	12.51	146.609	236.363	-38.123	-49.271	62.122	235.684	-49.840	-44.993	163.851	-20.456	-44.909	-41.652	-42.363	-37.380	282.822	-34.370	-8191	255	
33800.215	1	1	0	0	0.052283	0.073399	0.017778	0.18175	0.1585	0.11244	0.069716	0.10646	0.19517	0.034313	0.14399	0.17297	0.17933	0.021936	0.10318	0.10027	-2.5792	-3.0687	-3.0354	-2.8729	-3.2979	-2.9854	-3.1125	-3.2188	-2.9896	-3.1312	-3.125	-2.9667	-3.0271	-2.8354	-3.1937	-3.2812	220.544	-18.714	177.597	164.008	101.637	53.610	38.199	279.444	194.967	100.678	102.451	256.355	191.228	207.900	153.085	275.225	0.0002189	0.00094865	0.00052553	358.48	1.2344e-06	6.9802e-06	349.44	60.359	7.3639e-06	2.0439e-05	70.495	16.975	12.989	2.7725	1.0523e-06	4.1546	0.0074161	0.0097302	0.00249	647.64	0.00010694	9.8345e-05	446.35	97.684	9.3342e-05	0.00011074	126.88	34.891	30.539	8.4995	0.00010053	12.614	225.537	64.306	-61.983	-48.204	274.391	252.777	-49.632	-44.289	-58.317	163.895	-45.841	-41.348	-42.000	-37.849	295.846	-36.966	-8191	255	
33800.309	1	1	0	0	0.31401	0.26586	0.13816	0.21206	0.22499	0.039114	0.047219	0.17746	0.23762	0.14135	0.23373	0.11176	0.12631	0.1617	0.14796	0.15378	-2.4771	-3.0979	-3.0854	-2.7687	-3.0792	-3.0208	-3.0604	-3.1979	-2.9729	-3.2167	-3.2292	-2.9646	-3.075	-3.0875	-3.0312	-3.1583	279.962	152.404	-27.588	112.733	124.772	203.891	140.316	86.860	76.452	-31.062	-30.636	62.915	94.669	194.777	15.781	11.108	0.0001881	0.0012447	0.00038819	361.49	1.7034e-05	1.5965e-05	347.94	59.646	5.7073e-06	5.3107e-06	70.712	16.59	13.031	2.6979	1.1133e-05	3.9841	0.0074469	0.0095731	0.0024978	644.08	0.00010999	9.8718e-05	443.34	98.626	9.3996e-05	0.00010852	127.38	34.874	30.401	8.4759	9.6931e-05	12.886	-57.184	-0.210	108.581	-48.671	121.893	-61.507	-49.370	-44.988	187.942	186.115	-45.774	-41.477	-41.333	-35.994	22.708	-37.059	-8191	255	
33800.406	1	1	0	0	0.090089	0.1396	0.12737	0.10942	0.077732	0.12418	0.11377	0.17908	0.095098	0.28382	0.24525	0.090303	0.19983	0.091886	0.01476	0.076349	-2.4396	-3.0896	-2.9583	-2.8979	-3.3563	-3.2458	-2.9313	-3.2729	-2.9208	-3.1604	-3.1333	-2.7896	-3.2042	-3.0667	-3.1708	-3.3271	211.324	227.387	80.181	90.101	45.611	102.392	-31.443	162.574	2.881	149.742	192.037	-61.927	125.438	258.797	162.634	20.153	0.00040536	0.0020665	0.00027841	357.3	5.7483e-06	1.059e-05	342.52	59.436	7.1693e-06	7.5251e-06	70.083	16.221	12.941	2.8054	1.2601e-05	4.0577	0.0074973	0.0094002	0.002526	637.18	0.00010749	9.8562e-05	436.43	97.862	9.3491e-05	0.00010748	126.53	34.528	30.096	8.4381	9.4375e-05	12.942	89.249	270.394	102.635	-48.432	153.314	250.590	-49.363	-45.008	154.645	65.991	-45.920	-41.716	-41.398	-37.464	55.970	-35.331	-8191	255	
33800.500	1	1	0	0	0.046378	0.13251	0.23354	0.20718	0.12692	0.3265	0.22688	0.077678	0.44664	0.14761	0.072353	0.2118	0.16194	0.15823	0.23173	0.2186	-2.5917	-3.1437	-3.2104	-2.9188	-3.1271	-3.2167	-3.0333	-3.0792	-2.9313	-3.1437	-3.0312	-2.8	-3.2021	-3.1583	-2.9896	-3.2938	280.953	42.094	133.410	226.585	87.764	44.337	238.876	174.966	173.140	-55.598	251.542	184.525	274.846	238.976	199.025	194.994	0.00036185	0.0015755	0.00030093	355.42	1.0071e-05	7.6954e-06	342.1	57.199	1.2679e-05	5.8454e-06	68.928	16.49	12.636	2.7989	6.4295e-06	4.1362	0.007542	0.0091732	0.00256	637.23	0.00010882	9.9085e-05	433.64	97.536	9.4205e-05	0.00010286	126.71	34.598	29.937	8.5291	9.4441e-05	13.219	132.898	-16.760	215.178	-50.120	-10.302	126.246	-49.107	-43.980	-42.759	116.805	-45.307	-40.460	-42.374	-37.597	182.052	-36.232	-8191	255	
33800.621	1	1	0	0	0.23946	0.28706	0.14635	0.17241	0.17577	0.089809	0.15634	0.35321	0.14799	0.062111	0.10541	0.30241	0.30847	0.062852	0.27276	0.18099	-2.5625	-3.0125	-3.2104	-2.8604	-3.1271	-3.1354	-2.9313	-3.2146	-3.025	-2.925	-3.3271	-2.8937	-2.9958	-3.0938	-2.8812	-3.1479	264.817	135.427	279.413	179.386	129.652	63.441	229.086	212.275	198.371	-48.130	241.942	52.362	33.709	293.813	77.363	29.406	0.00040185	0.00076202	6.8339e-05	360.49	1.8051e-05	8.8547e-06	339.95	59.15	7.8179e-06	1.1236e-05	68.975	16.299	12.734	2.7967	6.0943e-06	4.2443	0.0076726	0.0089364	0.0026248	638.14	0.00010641	0.00010013	434.8	98.431	9.5267e-05	9.9678e-05	129.71	34.742	29.555	8.5632	9.3304e-05	12.943	282.015	118.961	219.737	-48.882	55.438	132.414	-49.353	-44.693	89.269	113.062	-44.310	-41.425	-40.188	-34.316	-46.185	-37.950	-8191	255	
33800.691	1	1	0	0	0.29571	0.03565	0.3526	0.21245	0.19307	0.29416	0.18572	0.13431	0.16168	0.1268	0.22435	0.10376	0.18165	0.10657	0.16243	0.11069	-2.8521	-3.0375	-3.3312	-3.0312	-3.0708	-3.2375	-2.8937	-3.2438	-3.1521	-2.8479	-3.225	-2.75	-2.8792	-3.1	-2.975	-3.1875	61.058	295.722	260.510	158.646	10.033	234.721	-11.116	-8.252	272.414	207.184	271.890	-2.126	163.373	240.172	-0.407	23.220	0.00023716	0.00040485	0.00011213	357.01	1.6634e-05	1.189e-05	343.44	59.039	1.2434e-05	1.7407e-05	68.908	16.148	12.464	2.7046	5.4223e-06	3.9809	0.0076158	0.0087068	0.0026556	636.87	0.00010583	0.00010061	435.82	98.019	9.5318e-05	9.7428e-05	130.74	34.984	29.131	8.6652	9.4624e-05	13.196	90.759	143.111	37.747	-49.866	16.327	290.374	-49.544	-44.615	254.619	107.856	-45.880	-40.918	-42.648	-36.740	125.331	-38.278	-8191	255	
33800.789	1	1	0	0	0.11603	0.21864	0.19048	0.21814	0.36002	0.11863	0.45838	0.032671	0.2023	0.23979	0.2273	0.23615	0.066823	0.13375	0.40756	0.13495	-2.65	-2.9896	-3.0771	-2.9854	-3.1562	-3.275	-2.9062	-3.1958	-3.1333	-3.0333	-3.1958	-3.0062	-2.9771	-3.025	-2.8042	-3.1208	-50.316	75.540	27.294	268.812	227.485	162.686	175.601	198.098	96.296	-15.507	262.081	134.907	162.802	27.148	101.805	253.447	0.00026687	0.0010774	0.00016737	348.3	1.301e-05	1.0294e-05	337.58	56.929	1.0489e-05	1.8836e-05	67.866	16.048	12.723	2.7365	7.0434e-06	4.0005	0.0077715	0.0087923	0.002721	637.67	0.00010304	0.00010466	430.36	96.515	9.7767e-05	9.8936e-05	131.38	35.094	28.712	8.8779	9.4908e-05	12.975	72.870	32.089	-2.295	-48.869	289.879	58.655	-49.062	-45.278	255.525	128.827	-45.433	-41.286	-41.495	-36.992	196.567	-37.847	-8191	255	
33800.910	1	1	0	0	0.13053	0.1183	0.061808	0.1261	0.051898	0.024351	0.11329	0.12145	0.28363	0.12564	0.10306	0.22113	0.20195	0.089034	0.24517	0.27373	-2.6937	-2.8479	-3.2313	-3.1333	-3.075	-3.1437	-3.0104	-3.0771	-3.1917	-2.6583	-3.2375	-2.8937	-2.8708	-3.1937	-2.9125	-3.0854	-0.056	83.045	294.080	185.720	188.734	255.089	251.323	245.566	-15.923	235.383	-57.273	210.227	262.841	15.539	169.368	256.844	0.00023638	0.00046386	0.00059452	351.66	2.5143e-05	7.7919e-06	337.37	58.623	8.5929e-06	3.2869e-06	67.699	15.943	12.313	2.71	9.9241e-06	4.0267	0.0079004	0.008814	0.0027465	647.08	9.9688e-05	0.00010903	435.11	96.493	9.9145e-05	9.8412e-05	130.4	35.09	28.358	8.8683	9.5366e-05	12.917	118.691	231.975	156.676	-49.601	32.070	82.401	-49.557	-44.786	198.635	-39.731	-45.581	-42.397	-41.955	-36.169	238.566	-37.424	-8191	255	
33801.004	1	1	0	0	0.12866	0.12034	0.0093195	0.21569	0.17511	0.32087	0.24376	0.082998	0.24954	0.11768	0.14496	0.096179	0.0469	0.12149	0.055949	0.18699	-2.8542	-2.6396	-3.2396	-2.95	-2.8667	-3.2958	-2.9417	-2.9708	-3.3063	-2.8792	-3.3187	-2.9896	-2.7875	-3.0896	-2.9104	-3.0417	53.150	280.952	251.455	219.677	61.574	-15.507	206.018	107.021	60.296	219.662	259.663	107.415	-42.296	208.288	164.637	143.059	0.00028752	0.0014853	0.00040024	347.34	6.3168e-06	1.3272e-05	335.63	57.66	9.309e-06	8.2677e-06	69.237	16.093	12.377	2.7153	1.1776e-06	4.1079	0.0079725	0.0088184	0.0026994	641.97	9.8102e-05	0.00010992	433.3	95.044	0.00010123	9.8421e-05	131.58	35.408	28.42	9.0081	9.6134e-05	12.554	-52.103	53.980	218.139	-49.793	178.899	113.724	-49.391	-45.193	114.994	48.780	-45.205	-40.547	-42.204	-37.335	288.631	-38.693	-8191	255	
33801.102	1	1	0	0	0.12622	0.042738	0.17817	0.19465	0.093657	0.12041	0.18682	0.063111	0.20144	0.18794	0.22958	0.084191	0.12775	0.1147	0.17864	0.049155	-2.7562	-2.9625	-3.0438	-3.1083	-2.925	-3.1771	-3.0625	-3.1271	-3.1792	-2.9417	-3.2917	-3.1292	-2.8271	-3.2583	-3	-2.9375	-18.519	179.392	273.482	117.107	138.385	29.312	289.671	-6.361	-39.662	-5.048	229.480	138.924	-18.971	222.113	167.822	149.666	0.00021355	0.00047059	0.00024577	353.95	9.8226e-06	1.6275e-05	337.38	57.992	9.6428e-06	5.1502e-06	67.929	15.792	12.207	2.6338	1.3895e-05	4.1865	0.0080962	0.0088794	0.0026641	647.13	9.6989e-05	0.0001111	433.15	93.708	0.00010183	9.7502e-05	128.2	35.131	27.944	8.8323	9.5723e-05	12.108	193.781	75.887	-45.023	-48.093	59.855	111.632	-49.144	-44.871	189.970	-45.211	-45.389	-41.830	-40.838	-38.187	-48.414	-35.705	-8191	255	
33801.195	1	1	0	0	0.030034	0.08836	0.2444	0.19427	0.035562	0.12062	0.24178	0.21075	0.060698	0.1786	0.32181	0.24909	0.21549	0.080238	0.057026	0.23822	-2.7854	-2.9604	-3.0875	-3.0354	-2.7708	-3.3083	-2.9813	-2.9333	-3.25	-2.9292	-3.05	-3.1417	-2.9125	-3.1146	-2.9854	-2.8187	157.322	233.947	171.470	58.645	194.771	251.394	292.625	-60.766	162.260	114.251	234.958	113.672	-63.492	79.584	221.837	280.713	6.4007e-05	0.00096488	0.00014957	349.26	7.6716e-06	8.7387e-06	332.92	57.959	3.2764e-06	1.5484e-06	67.569	15.845	12.258	2.6197	2.9017e-06	4.0134	0.0083805	0.0088691	0.0025775	646.2	9.6047e-05	0.000109	430.54	92.696	0.00010339	9.8128e-05	128.26	35.263	27.942	8.8022	9.561e-05	11.897	236.614	169.628	46.677	-48.898	92.180	74.424	-49.526	-45.670	247.743	98.025	-45.029	-41.137	-42.077	-38.505	-62.335	-34.680	-8191	255	
33801.293	1	1	0	0	0.17219	0.22128	0.17439	0.2417	0.16994	0.21417	0.088465	0.1912	0.049356	0.24146	0.14337	0.18531	0.12033	0.08985	0.16618	0.14792	-2.8667	-2.8563	-2.7958	-3.1729	-2.975	-3.1417	-3.1479	-2.8917	-3.3396	-3.05	-2.9437	-3.0708	-2.9896	-3.1312	-3.0583	-2.875	168.760	59.162	-50.450	247.828	204.087	276.328	198.269	137.066	160.033	54.896	190.866	268.740	267.374	-27.495	122.258	166.029	4.1693e-05	0.0012541	0.00039146	347.27	4.6433e-06	6.9545e-06	332.79	55.971	1.3412e-05	2.3442e-06	67.499	15.222	11.954	2.6182	1.6119e-05	4.1104	0.008309	0.0088662	0.0025318	649.6	9.5036e-05	0.00010941	428.29	91.343	0.00010383	9.7987e-05	124.02	35.393	27.962	8.6879	9.7576e-05	11.882	-29.753	-48.920	-25.879	-48.722	128.428	67.281	-48.932	-44.715	-18.292	129.902	-45.891	-41.148	-40.418	-37.916	163.725	-37.376	-8191	255	
33801.391	1	1	0	0	0.23602	0.057892	0.21172	0.11523	0.11418	0.1391	0.04714	0.34153	0.2693	0.35128	0.070384	0.30012	0.14003	0.36222	0.16017	0.080589	-2.8146	-2.9583	-2.925	-3.1604	-3.0021	-3.2083	-3.0938	-3.0187	-3.1146	-3	-2.8604	-3.2646	-2.9542	-3.0042	-3.1604	-2.9708	55.115	-51.942	89.793	233.228	89.948	229.328	91.582	257.153	144.241	176.492	107.696	79.044	76.445	206.204	163.756	-15.009	0.00015955	0.00074192	0.000105	347.46	1.0523e-05	1.3128e-05	333.55	56.269	1.7973e-05	1.8041e-05	66.263	15.256	11.888	2.5987	1.2497e-05	3.9301	0.0085735	0.0089394	0.0024742	656.32	9.5084e-05	0.00010544	430.45	91.506	0.00010323	9.7789e-05	121.68	36.312	27.942	8.4762	9.866e-05	11.854	-36.213	225.636	149.158	-48.651	129.014	111.382	-49.083	-44.620	51.322	-32.934	-45.315	-39.770	-41.618	-37.894	136.860	-36.748	-8191	255	
33801.512	1	1	0	0	0.15572	0.014601	0.060497	0.12002	0.1533	0.096613	0.13624	0.036716	0.17955	0.15314	0.34172	0.13938	0.086394	0.090568	0.11158	0.11543	-2.8583	-2.8438	-2.8792	-3.1854	-2.9417	-3.1875	-3.3229	-2.9167	-3.2208	-3.0083	-2.9938	-3.1396	-3.1104	-2.9771	-3.1167	-2.8854	119.668	-42.792	286.715	210.384	144.047	253.904	264.848	94.315	187.388	146.187	248.627	236.234	268.215	273.727	173.254	102.748	0.00025201	0.0022147	0.00011702	348.64	1.7619e-05	1.3837e-05	331	57.066	9.3761e-07	9.0955e-06	67.872	15.871	12.396	2.6566	2.4354e-05	3.7879	0.0083841	0.0090294	0.0024405	660.84	9.5446e-05	0.00010612	431.38	91.733	0.00010223	9.8306e-05	121.83	36.416	28.251	8.4385	0.00010029	11.763	216.646	200.242	58.898	-48.718	51.197	129.489	-48.705	-44.733	252.647	114.966	-45.328	-41.566	-41.601	-38.702	157.240	-36.438	-8191	255	
33801.605	1	1	0	0	0.3278	0.21008	0.084869	0.077551	0.073748	0.18182	0.046531	0.1532	0.14903	0.13547	0.075418	0.22453	0.17175	0.18589	0.14994	0.33668	-2.6896	-3.1229	-2.8583	-3.2667	-3.0125	-3.0042	-3.275	-2.9104	-3.1667	-3.2521	-2.8438	-3.0812	-2.9583	-2.8125	-3.2938	-2.9	-40.523	84.827	178.883	158.653	107.842	31.016	246.349	-17.793	133.275	162.728	-8.523	228.809	253.084	80.433	-45.083	224.904	0.00015197	0.0016775	0.00010287	354.88	5.5364e-06	6.8305e-06	324.5	56.235	8.6448e-06	9.9609e-06	66.262	15.456	12.075	2.6324	3.0958e-06	3.904	0.0084103	0.0090029	0.0023882	660.74	9.4935e-05	0.00010034	429.24	90.611	9.9436e-05	9.9469e-05	119.68	36.376	27.842	8.2344	0.00010223	11.687	185.106	255.002	269.685	-48.637	84.382	42.041	-49.361	-44.624	288.528	51.217	-45.740	-40.713	-41.032	-37.381	-11.397	-38.085	-8191	255	
33801.699	1	1	0	0	0.17114	0.0747	0.046228	0.077487	0.2004	0.12667	0.20642	0.075752	0.14765	0.063215	0.067119	0.092276	0.1069	0.15498	0.20182	0.1114	-2.6312	-3.0833	-3	-3.0771	-2.9833	-3.0167	-3.3667	-2.9208	-3.1792	-3.0146	-2.925	-3.1833	-3.1354	-3.0104	-3.2687	-2.9188	91.465	207.216	94.815	281.137	-8.091	221.778	127.778	80.135	242.728	277.118	119.566	64.261	165.595	17.888	268.639	65.482	0.00043503	0.0010512	9.8185e-05	348.68	5.6959e-06	6.0344e-06	326.96	56.153	1.2007e-05	1.5706e-05	66.95	15.532	11.944	2.7067	1.236e-05	3.87	0.008154	0.0090967	0.0023909	658.89	9.5102e-05	9.7552e-05	435.33	91.745	9.8493e-05	0.00010186	120.96	36.392	28.42	8.3441	0.00010506	11.968	198.966	134.004	272.356	-48.391	-44.258	77.912	-49.160	-44.318	1.274	203.799	-45.314	-40.912	-41.032	-37.114	137.605	-36.322	-8191	255	
33801.797	1	1	0	0	0.071368	0.16064	0.13518	0.30222	0.17807	0.16148	0.12555	0.031506	0.084479	0.10581	0.19475	0.052079	0.21749	0.048437	0.30637	0.23286	-2.8292	-3.2604	-2.8083	-3.0812	-3.2062	-2.8833	-3.3833	-2.9729	-3.0896	-3.2292	-2.9604	-3.0938	-3.0896	-2.9167	-3.2562	-2.8	275.077	275.687	-62.465	68.161	106.912	275.975	-47.443	248.838	292.704	-43.794	57.464	230.444	-13.893	275.474	220.166	147.620	0.00026186	0.00021841	0.00028439	352.68	5.1657e-06	1.3126e-05	335.27	57.9	6.1945e-06	1.5785e-05	68.484	15.91	12.634	2.6793	1.4883e-05	3.9642	0.0083321	0.0093333	0.0024263	667.21	9.8314e-05	9.7973e-05	444.04	93.886	9.7667e-05	0.00010456	122.87	37.265	29.171	8.4383	0.00010565	12.082	176.427	259.321	128.616	-48.507	120.093	113.303	-49.204	-44.774	-54.147	140.491	-45.832	-40.684	-41.357	-36.448	275.636	-36.830	-8191	255	
33801.918	1	1	0	0	0.33389	0.17692	0.12802	0.099871	0.14997	0.36888	0.11744	0.18592	0.14759	0.068204	0.28946	0.10635	0.049339	0.06563	0.022122	0.10189	-2.5187	-3.3187	-2.7958	-3.1063	-3.1188	-3.0792	-3.2771	-3.0687	-3.0167	-3.1833	-3.0229	-3.0729	-3.1646	-2.9875	-3.3271	-3.0771	178.229	226.864	281.311	252.246	262.827	141.815	-34.725	120.367	252.368	-28.155	3.062	103.895	-60.848	-55.412	49.491	-39.363	0.00048946	0.00069094	0.00032415	359.66	2.6502e-06	8.4806e-06	341.49	58.517	1.1055e-05	9.7304e-06	70.084	16.371	12.966	2.7351	2.7805e-05	4.0859	0.0079582	0.0096025	0.0024456	663.17	0.00010022	9.7092e-05	449.16	94.554	9.6367e-05	0.00010684	123.2	36.716	29.407	8.387	0.00010451	12.134	271.642	290.015	189.836	-49.938	111.892	42.967	-49.081	-44.527	244.498	266.393	-46.037	-41.466	-41.445	-36.960	67.722	-36.774	-8191	255	
33801.988	1	1	0	0	0.064939	0.074156	0.16248	0.094816	0.10523	0.23809	0.11586	0.19926	0.091775	0.10131	0.25321	0.27826	0.029233	0.070354	0.14222	0.083732	-2.575	-3.3333	-2.8854	-3.1063	-3.1063	-2.7438	-3.3021	-2.9313	-2.9437	-3.2438	-2.9688	-3.1583	-3.1	-2.9562	-3.1396	-3.0521	121.843	28.493	178.394	6.125	246.521	124.247	125.464	-50.141	288.338	126.608	12.172	30.854	56.597	10.150	250.448	64.019	0.00029899	0.0004845	0.00035667	357.84	1.1033e-05	7.4449e-06	339.78	57.951	6.1069e-06	5.9458e-06	68.143	16.06	12.777	2.7698	6.822e-06	4.0988	0.0076615	0.0099667	0.0024524	658.11	0.00010254	9.5547e-05	446.71	94.638	9.4579e-05	0.00010811	123.05	36.91	29.689	8.4221	0.00010431	12.316	-47.056	282.651	98.290	-48.801	215.004	-18.487	-48.722	-44.973	265.795	155.807	-44.976	-41.673	-41.239	-36.947	269.661	-36.773	-8191	255	
33802.086	1	1	0	0	0.10786	0.17314	0.19335	0.35594	0.241	0.093545	0.34782	0.33924	0.092015	0.1883	0.10938	0.058772	0.044745	0.1241	0.16863	0.099466	-2.675	-3.125	-2.8583	-3.0438	-3.2729	-2.9625	-3.1729	-2.9813	-2.875	-3.1562	-3.0396	-3.1042	-2.9542	-3.0375	-3.2438	-3.15	170.519	-31.551	61.580	-59.286	258.401	157.259	66.192	165.732	210.948	22.508	-35.376	119.978	130.970	15.109	155.447	-19.075	0.000164	0.00097108	0.00018736	351.66	6.2665e-06	3.597e-06	340.21	58.978	1.25e-05	1.0648e-05	69.73	16.58	13.058	2.8311	1.1909e-05	4.1933	0.0076479	0.0099802	0.0024846	651.63	0.00010477	9.6822e-05	449.59	96.118	9.4526e-05	0.00010905	125.13	36.259	30.494	8.6068	0.00010329	12.65	264.614	53.138	90.758	-48.883	231.190	97.738	-49.287	-45.131	179.865	11.177	-44.917	-41.683	-40.962	-38.097	73.368	-35.947	-8191	255	
33802.180	1	1	0	0	0.22139	0.041401	0.28606	0.34159	0.16992	0.28678	0.11956	0.14795	0.10324	0.18771	0.14525	0.091105	0.19984	0.12563	0.14976	0.24008	-2.5042	-3.2458	-2.9375	-2.9562	-3.2771	-2.8125	-3.1521	-3.0958	-2.9458	-3.2125	-3.1562	-3.0292	-3.2146	-2.9458	-3.0729	-3.1208	51.259	157.909	58.923	17.148	230.113	173.989	289.422	33.374	178.788	47.342	192.988	34.538	70.054	60.741	89.594	204.637	7.2184e-05	0.0025161	0.00038818	353.89	9.1803e-06	1.6323e-06	339.67	58.907	8.5744e-06	7.0268e-06	69.744	16.512	12.562	2.7815	7.2109e-06	3.9912	0.0076094	0.010231	0.0025105	647.83	0.00010554	9.6077e-05	445.54	96.156	9.3048e-05	0.00010722	123.77	35.149	30.665	8.3966	9.9794e-05	12.481	83.039	0.575	86.731	-49.313	132.161	287.244	-48.639	-45.289	119.275	55.210	-44.889	-41.845	-41.866	-37.131	144.331	-35.207	-8191	255	
33802.301	1	1	0	0	0.20875	0.11292	0.030767	0.12745	0.14437	0.12747	0.2555	0.05702	0.13077	0.15679	0.098434	0.33596	0.19381	0.041445	0.079586	0.11418	-2.4188	-3.0771	-2.9979	-3.1125	-3.0667	-2.9562	-3.1042	-3.0375	-2.7208	-3.0958	-3.1208	-2.9854	-3.3021	-3.0167	-3.1083	-3.1708	278.313	-62.084	83.380	133.057	-19.389	192.291	210.631	168.404	33.074	190.481	263.381	-31.674	-42.471	74.868	-43.926	189.160	0.00013359	0.0017497	0.00018456	351.55	5.2827e-06	2.2943e-06	339.65	57.469	9.6834e-06	1.0554e-05	67.985	16.179	12.882	2.7584	1.4537e-05	3.8762	0.0073526	0.0097514	0.0024826	634.86	0.00010413	9.4064e-05	441.47	94.914	9.2134e-05	0.0001042	123.56	34.642	30.42	8.3658	9.6971e-05	12.668	64.697	-13.716	41.104	-49.053	265.021	268.926	-49.081	-44.438	120.636	122.046	-46.032	-41.569	-43.026	-36.146	54.324	-34.940	-8191	255	
33802.398	1	1	0	0	0.081705	0.085492	0.19852	0.28271	0.17408	0.092473	0.092214	0.15808	0.14674	0.21626	0.22702	0.16084	0.10861	0.18773	0.22086	0.048351	-2.4688	-3.2729	-3.0958	-2.8438	-3.1667	-2.9521	-3.1437	-3.2	-2.9625	-3.1792	-3.0521	-2.7417	-3.0542	-2.95	-2.8958	-3.1833	-61.658	180.990	-5.001	-49.640	280.630	68.733	-10.006	-18.203	38.000	75.712	7.952	156.051	117.711	6.172	204.886	-16.799	0.00038171	0.001816	0.00029585	349.69	5.4721e-06	4.499e-06	335.98	57.259	1.1351e-05	8.8191e-06	68.377	16.283	12.63	2.6871	1.1856e-05	3.9134	0.0073504	0.0098919	0.0025184	629.88	0.00010511	9.6118e-05	435.47	96.257	9.28e-05	0.00010287	124.78	34.441	30.582	8.4392	9.6006e-05	12.735	133.343	-45.435	108.559	-48.738	39.065	212.207	-49.089	-45.065	-61.015	41.247	-45.716	-41.566	-40.609	-37.437	180.932	-34.122	-8191	255	
33802.492	1	1	0	0	0.26588	0.18483	0.13076	0.10477	0.2969	0.13318	0.3939	0.35783	0.27598	0.32124	0.23529	0.076124	0.17584	0.34457	0.18096	0.09366	-2.5354	-3.1583	-3.2313	-2.9083	-3.1417	-3.1542	-2.9104	-3.2083	-2.8958	-3.0604	-3.175	-2.8208	-3.0583	-3.0271	-2.8417	-3.2958	7.993	102.130	264.153	169.791	88.959	102.370	-28.901	237.545	-28.014	58.086	-18.020	288.301	-19.647	180.620	154.636	-28.760	0.00022796	0.0024471	0.00038792	348.74	1.1718e-05	1.2529e-05	336.76	57.604	8.6607e-06	4.6963e-06	69.019	16.407	12.599	2.7239	9.2068e-06	4.1485	0.0073065	0.0096681	0.0025486	629.82	0.00010529	9.7081e-05	433.06	98.168	9.2957e-05	0.00010189	125.92	34.36	30.292	8.492	9.47e-05	12.869	151.128	-37.830	89.908	-48.449	52.157	245.460	-48.878	-44.856	85.799	4.474	-46.808	-41.139	-42.430	-37.374	209.560	-37.409	-8191	255	
33802.590	1	1	0	0	0.25441	0.27286	0.079814	0.17965	0.04153	0.12458	0.10966	0.15131	0.079673	0.075961	0.29629	0.16808	0.23642	0.039961	0.12683	0.14844	-2.5083	-3.1125	-3.25	-2.9938	-3.225	-3.1271	-3.1562	-3.2521	-3.0417	-3.1146	-3.3042	-3.0125	-3.0354	-3.2104	-3.0125	-3.1917	275.011	211.961	174.814	-36.451	116.625	93.298	219.372	96.269	214.721	1.835	231.489	197.184	30.062	256.348	236.050	16.357	0.0001278	0.001769	0.0002511	358.77	1.2504e-06	4.8051e-06	339.58	58.724	1.0752e-05	1.5539e-05	68.797	16.401	12.992	2.7844	1.3316e-05	4.2444	0.0073732	0.0096791	0.0025732	635.89	0.00010325	9.934e-05	433.76	98.488	9.4287e-05	0.00010088	127.9	34.545	30.922	8.7505	9.4081e-05	13.002	33.642	9.280	119.474	-49.231	35.538	153.474	-49.189	-44.322	101.387	51.104	-45.326	-41.221	-41.340	-38.294	-11.680	-37.102	-8191	255	
33802.684	1	1	0	0	0.10171	0.15944	0.10525	0.046116	0.12957	0.052583	0.12409	0.04965	0.15126	0.31225	0.17628	0.16233	0.09445	0.1248	0.25565	0.238	-2.5479	-2.9292	-3.3187	-2.8292	-3.2479	-3.1333	-2.9042	-3.2771	-2.9313	-3.1625	-3.1708	-2.7229	-3.0604	-3.0958	-2.9583	-3.125	231.629	14.623	296.640	201.895	112.241	261.962	-56.870	235.834	286.129	283.469	133.493	40.099	132.727	-44.802	105.414	47.978	9.6872e-05	0.0031536	0.00010521	356.4	3.2671e-06	9.472e-06	340.68	58.951	7.2484e-06	5.9639e-06	70.278	16.45	13.171	2.715	1.5911e-05	4.2543	0.0074817	0.0092496	0.0026705	641.04	0.00010261	0.00010082	436.68	99.814	9.4971e-05	9.8726e-05	128.57	34.674	30.305	8.7883	9.3255e-05	12.906	180.522	10.072	74.030	-49.153	186.571	159.583	-49.730	-44.267	191.166	32.929	-44.789	-42.256	-42.586	-37.982	277.710	-36.596	-8191	255	
33802.781	1	1	0	0	0.069314	0.16276	0.22571	0.097697	0.17065	0.1257	0.30342	0.20935	0.14372	0.22187	0.37935	0.14673	0.048987	0.2066	0.17059	0.12994	-2.6021	-3.0187	-3.1896	-3.0062	-3.0979	-3.1375	-2.8583	-3.1667	-3.05	-2.7833	-3.1063	-3.1271	-3.0667	-3.2125	-2.8917	-3.0042	126.749	52.335	-48.927	274.112	182.811	9.962	-30.835	164.948	79.495	65.516	293.270	127.291	-18.425	66.575	39.805	-39.927	4.6154e-05	0.0021678	0.00039621	354.27	1.083e-05	7.1548e-06	339.15	59.752	5.4582e-06	5.9168e-06	69.245	16.578	13.021	2.8792	1.0371e-05	4.2281	0.007561	0.0089249	0.0027591	636.27	0.00010042	0.00010209	432.27	98.526	9.5357e-05	9.677e-05	128.9	34.533	30.226	8.7694	9.2526e-05	12.674	133.910	47.093	-16.275	-49.103	70.176	163.662	-49.303	-44.875	59.511	58.737	-45.692	-41.116	-43.310	-37.007	166.206	-37.844	-8191	255	
33802.879	1	1	0	0	0.066243	0.1155	0.095495	0.12171	0.14581	0.19163	0.11281	0.024936	0.17981	0.03843	0.14899	0.20778	0.08078	0.30421	0.15205	0.13053	-2.7229	-2.8542	-3.1854	-2.8833	-2.9958	-3.0812	-2.8063	-2.9667	-3.0542	-2.8521	-3.1396	-2.9354	-2.8875	-3.1917	-2.8917	-3.0875	70.098	133.458	-55.306	130.685	84.993	288.442	283.940	-29.692	11.749	108.276	233.437	86.275	198.825	227.049	116.235	119.014	0.00026559	0.0011185	0.00016933	352.65	1.3513e-05	8.8051e-06	339.19	57.333	7.5413e-06	8.3273e-06	69.173	15.968	12.492	2.5969	3.1828e-06	3.9659	0.0076634	0.0087721	0.0027051	636.25	9.8413e-05	0.00010296	429.97	98.319	9.714e-05	9.5985e-05	127.99	34.401	29.092	8.813	9.2463e-05	12.31	47.730	92.230	137.178	-48.394	-34.656	128.654	-49.241	-45.029	290.715	61.614	-45.459	-41.594	-41.952	-37.956	190.923	-36.143	-8191	255	
33802.996	1	1	0	0	0.055057	0.36531	0.075233	0.16591	0.26223	0.10431	0.10793	0.19743	0.24781	0.30345	0.33651	0.23962	0.20062	0.15198	0.23379	0.013406	-2.8417	-2.7417	-3.3146	-3.0208	-2.8583	-3.2729	-2.9292	-2.9437	-3.1521	-2.8292	-3.0167	-3.0833	-3.0042	-3.1125	-2.8479	-3.0438	72.594	146.235	252.473	277.350	244.197	249.472	196.750	267.127	160.584	231.324	284.228	18.708	61.005	174.135	212.373	-46.044	0.00020916	0.0020419	0.00019992	347.53	1.8105e-05	1.0989e-05	332.84	57.193	1.6667e-05	7.3583e-06	69.852	16.218	12.505	2.712	3.9853e-06	4.0252	0.0077524	0.0086135	0.0027525	634.26	9.6053e-05	0.00010456	426.05	96.432	9.846e-05	9.5788e-05	127.9	34.742	28.508	9.1276	9.3665e-05	12.354	185.153	195.448	78.381	-48.667	-10.449	43.657	-49.267	-45.572	175.532	41.443	-46.251	-40.867	-41.508	-37.807	251.626	-36.148	-8191	255	
33803.094	1	1	0	0	0.1845	0.16828	0.044182	0.18591	0.053394	0.13697	0.17281	0.23248	0.060517	0.22115	0.12542	0.10583	0.0991	0.052031	0.20045	0.18382	-2.6813	-2.9062	-3.0542	-3.0083	-2.75	-3.2604	-2.8458	-3.1271	-3.2229	-2.8917	-3.2812	-2.925	-2.9	-3.125	-3.1	-3.0958	-33.429	194.507	45.066	106.709	282.650	259.654	292.187	-14.420	86.894	-39.068	148.883	60.777	31.274	-22.033	56.496	272.911	9.8195e-05	0.0011048	0.00028484	349.52	9.1971e-06	1.0231e-05	330.26	58.487	8.9398e-06	6.1448e-06	67.593	15.839	12.849	2.7305	2.5826e-06	4.0622	0.0079402	0.0085847	0.0027109	639.7	9.5436e-05	0.00010552	425.26	96.607	9.9685e-05	9.5992e-05	126.68	34.944	28.291	9.0061	9.4563e-05	12.303	-36.760	-44.164	-14.852	-48.754	10.887	277.986	-49.329	-44.706	126.955	250.889	-46.067	-41.375	-41.813	-37.732	-32.904	-36.829	-8191	255	
33803.191	1	1	0	0	0.066751	0.10842	0.1718	0.15905	0.15369	0.030296	0.080481	0.15314	0.04323	0.13797	0.091128	0.2098	0.092372	0.36521	0.32357	0.1844	-2.8167	-3.0021	-3.175	-3.0583	-3.0521	-3.2042	-3.0292	-2.9708	-3.2354	-3.0792	-3.1625	-3.0187	-2.8187	-3.2125	-3.2417	-2.8854	36.437	209.082	293.744	-44.483	245.158	91.745	285.830	9.234	-50.579	189.239	-49.251	281.153	76.349	240.610	112.549	218.285	7.0152e-05	0.0010345	0.0001624	352.95	9.4708e-06	9.6536e-06	337.56	58.569	1.4646e-05	1.4899e-05	68.704	16	12.373	2.7105	3.1099e-06	3.9962	0.0080417	0.0085318	0.0027476	647	9.4308e-05	0.0001052	431.04	95.037	0.00010174	9.5746e-05	126.28	35.456	28.055	9.1091	9.5989e-05	12.105	121.073	86.290	118.946	-49.592	226.434	150.879	-49.260	-44.633	264.834	223.544	-45.937	-41.799	-41.873	-35.872	119.525	-36.826	-8191	255	
33803.285	1	1	0	0	0.20587	0.10745	0.29691	0.13609	0.23964	0.20549	0.2966	0.18631	0.24898	0.16775	0.19243	0.11426	0.14316	0.17695	0.29101	0.15579	-2.9104	-2.9896	-3.0396	-3.125	-2.8354	-3.0875	-3.1229	-3.0021	-3.3208	-3.0083	-3.125	-3.275	-2.7625	-3.3417	-3.1271	-3.0021	226.708	62.071	183.354	70.356	-28.095	291.377	175.092	122.679	88.394	203.940	237.395	271.429	-15.362	167.542	-2.193	31.531	0.00028575	0.0011119	0.00032197	347.64	9.3275e-06	4.0731e-06	332.16	57.128	7.2052e-06	2.9839e-06	67.715	15.972	12.263	2.6278	2.1817e-05	3.8513	0.0081698	0.0085909	0.0026818	644.78	9.402e-05	0.0001042	429.86	93.16	0.000106	9.7504e-05	124.21	35.549	27.811	8.9536	9.7452e-05	11.851	237.896	32.368	62.909	-49.148	44.945	167.739	-49.516	-44.866	290.847	121.045	-45.357	-40.838	-42.966	-38.720	137.818	-35.853	-8191	255	
33803.383	1	1	0	0	0.21255	0.10519	0.13383	0.27489	0.14662	0.17467	0.13569	0.11762	0.060316	0.2678	0.11852	0.13797	0.0058647	0.28186	0.16526	0.17502	-2.7625	-3.0667	-3.1083	-3.1417	-2.9979	-3.1896	-3.0979	-2.8688	-3.4271	-3.0833	-2.9917	-3.2521	-2.9062	-3.1813	-3.1396	-2.9042	174.088	105.715	139.336	154.412	102.100	-61.069	290.539	-44.888	220.175	275.959	109.952	213.866	295.417	-0.559	90.895	140.363	0.00015903	0.0011303	0.00029118	342.7	8.3231e-06	7.1941e-06	327.46	56.942	4.3784e-06	5.3224e-06	66.186	15.184	12.272	2.6414	9.8087e-06	3.8752	0.0081536	0.0086409	0.0026666	643.99	9.3772e-05	0.00010329	426.77	91.706	0.00010397	9.7871e-05	122.71	35.57	27.488	8.9863	9.8411e-05	11.834	153.801	5.330	12.066	-49.888	269.894	-23.073	-49.277	-44.289	-11.755	-25.764	-44.777	-40.968	-42.850	-37.233	79.531	-36.856	-8191	255	
33803.480	1	1	0	0	0.15861	0.14275	0.14577	0.079078	0.14693	0.098366	0.12285	0.16975	0.16595	0.12604	0.10319	0.11077	0.12209	0.09177	0.1452	0.028874	-2.8021	-2.8937	-3.0208	-3.1604	-3.0792	-3.3708	-3.1	-3.0396	-3.2396	-3.0771	-3.2021	-3.4333	-3.0333	-3.1792	-3.2208	-2.8083	75.420	284.827	-33.342	182.333	66.061	186.702	272.215	104.121	233.289	242.031	1.781	-59.113	219.652	14.519	107.990	126.211	0.00014374	0.00025488	4.5105e-05	349.1	2.9018e-06	6.7931e-06	332.2	56.684	6.386e-06	6.993e-06	66.506	15.532	11.948	2.6503	1.8771e-06	4.049	0.0081227	0.0088299	0.0025488	658.42	9.472e-05	0.00010237	432.75	91.273	0.00010631	9.8425e-05	121.39	35.459	27.624	8.842	9.9353e-05	11.79	108.684	-29.939	-19.836	-47.754	56.748	59.001	-49.008	-44.561	122.487	178.506	-44.888	-40.629	-41.215	-39.221	2.366	-35.936	-8191	255	
33803.598	1	1	0	0	0.21209	0.068403	0.32724	0.17559	0.064475	0.19097	0.2276	0.10825	0.14004	0.16905	0.15077	0.14798	0.26798	0.024055	0.20912	0.054743	-2.8958	-3.1104	-2.9979	-3.3104	-3.0604	-3.1813	-3.2375	-2.8042	-3.1167	-3.2396	-2.9521	-3.2521	-2.9	-2.9479	-3.2396	-2.8271	26.272	49.033	65.915	246.635	126.077	284.673	218.808	196.511	251.017	200.743	-17.581	-45.437	275.478	129.806	134.370	291.009	4.222e-05	0.0017382	0.0003901	346.03	1.0831e-05	1.2489e-05	335.2	57.775	1.2153e-05	4.2312e-06	69.014	15.981	12.536	2.7328	6.6427e-06	4.0859	0.0081063	0.0090159	0.0024827	672.83	9.5649e-05	0.00010157	438.54	92.23	0.00010461	0.00010008	121.6	36.065	27.971	8.8021	9.8387e-05	11.662	-8.586	156.526	-60.984	-48.653	185.090	44.511	-49.328	-44.445	292.111	111.686	-45.335	-41.048	-41.388	-35.971	-46.089	-37.389	-8191	255	
33803.695	1	1	0	0	0.03932	0.40134	0.1886	0.2793	0.14755	0.11041	0.17485	0.25369	0.11565	0.2183	0.10033	0.10957	0.1817	0.15811	0.18378	0.022595	-2.8771	-3.1646	-2.7354	-3.1312	-2.9292	-2.8792	-3.1521	-2.9125	-2.925	-3.0271	-2.7438	-3.1042	-2.7771	-3.0812	-3.2521	-2.8563	136.028	280.176	238.516	207.355	79.003	87.546	97.300	-0.738	113.666	190.939	249.525	225.091	-41.519	-11.263	-62.808	-3.081	0.00027221	0.0017619	0.00021557	343.72	4.7924e-06	2.034e-05	330.15	56.358	1.6988e-05	4.8122e-06	66.024	16.06	12.24	2.6106	5.6736e-06	3.978	0.0078407	0.0089002	0.0023751	658.23	9.4488e-05	9.6881e-05	430.83	89.922	0.00010362	9.8639e-05	118.88	35.349	27.672	8.3214	9.9955e-05	11.544	277.203	21.914	267.746	-49.368	44.533	82.337	-49.456	-44.855	197.504	69.513	-45.683	-40.828	-42.317	-38.488	223.942	-35.226	-8191	255	
33803.789	1	1	0	0	0.10576	0.097083	0.14465	0.067816	0.051417	0.16308	0.10955	0.26034	0.23294	0.053876	0.10315	0.30996	0.10496	0.14775	0.10093	0.30122	-2.5729	-3.1083	-2.7771	-3.2417	-2.9333	-2.9708	-3.2583	-2.9125	-3.2125	-3.2667	-2.9125	-2.9729	-2.7854	-2.9333	-3.1063	-2.8354	208.635	29.729	202.917	215.040	200.439	67.963	12.287	110.398	68.019	-29.718	110.558	16.473	-34.806	180.443	131.591	218.878	5.6729e-05	0.0021447	0.00053007	346.85	1.89e-05	8.8375e-06	327.46	56.445	1.4054e-05	9.973e-06	64.912	14.98	11.529	2.5913	3.5934e-06	3.7905	0.0077225	0.0090459	0.0023285	659.64	9.5036e-05	9.43e-05	426.94	88.9	9.8485e-05	9.7519e-05	116.18	34.312	27.387	8.0333	0.00010293	11.555	0.844	139.021	-43.894	-48.826	210.767	96.366	-49.068	-44.519	261.083	0.966	-45.501	-40.927	-41.398	-38.071	-0.311	-36.579	-8191	255	
33803.859	1	1	0	0	0.31522	0.10251	0.061956	0.137	0.11152	0.15128	0.19201	0.046873	0.26244	0.1152	0.15007	0.2267	0.030724	0.053598	0.036611	0.025598	-2.7	-3.0062	-2.9062	-3.2292	-3.0854	-2.8979	-3.1562	-3.1042	-2.9396	-3.1458	-2.6562	-3.1708	-3.0229	-2.6667	-3.2229	-3.0708	248.850	221.910	222.087	176.832	226.869	204.342	183.800	193.340	180.926	-27.621	80.252	-62.391	101.063	30.094	158.852	159.875	0.00010308	0.00039894	0.00034584	344.45	8.7008e-06	1.0523e-05	325.95	55.089	6.7248e-06	1.8625e-05	65.497	15.258	11.315	2.5089	5.6112e-06	3.8824	0.0076723	0.0091353	0.0023158	654.27	9.6461e-05	9.3396e-05	425.41	88.746	9.8796e-05	9.9695e-05	115.84	34.194	27.401	7.8311	0.00010073	11.508	292.829	170.212	-41.043	-48.618	103.961	-37.273	-49.100	-45.153	260.597	264.071	-44.948	-41.169	-41.297	-37.713	104.302	-35.069	-8191	255	
33803.957	1	1	0	0	0.32195	0.078733	0.26981	0.276	0.26698	0.0070339	0.17583	0.22912	0.16061	0.17661	0.48496	0.22978	0.097556	0.20995	0.10586	0.18832	-2.6	-3.1312	-2.8396	-3.0292	-3.0563	-2.9729	-3.1875	-2.9667	-2.9458	-3.3083	-2.9646	-3.1958	-3.0708	-2.8583	-3.15	-3.1521	281.962	157.891	-54.667	223.170	222.996	112.151	-54.089	226.275	202.436	216.705	265.678	224.263	270.002	4.237	22.081	179.605	3.5968e-05	0.00060555	0.00012085	345.07	4.1318e-06	5.913e-06	323.31	54.103	9.8665e-06	3.5383e-06	61.911	14.796	11.118	2.2894	1.3496e-05	3.6613	0.007356	0.009106	0.0022703	652.43	9.5809e-05	9.2019e-05	421.46	88.794	9.3146e-05	0.0001011	113.35	33.047	26.917	7.4425	9.9664e-05	11.159	227.955	113.154	240.858	-48.958	163.586	220.053	-49.339	-44.220	3.753	241.242	-44.390	-39.928	-40.896	-37.006	274.007	-37.265	-8191	255	
33804.078	1	1	0	0	0.10143	0.22693	0.10618	0.084743	0.17579	0.13708	0.099405	0.13122	0.063218	0.085941	0.20702	0.15225	0.091081	0.083111	0.30518	0.11254	-2.55	-3.2854	-3.0146	-3.1917	-3.2854	-3.0083	-3.1417	-2.9625	-2.9854	-3.3438	-2.9	-3.0083	-3.1042	-2.9521	-3.1771	-3.0958	236.722	46.432	56.041	-12.268	284.706	50.822	74.406	30.537	244.144	261.940	125.443	94.243	248.193	287.407	-25.753	52.447	0.00031013	0.0010912	0.00024747	329.12	1.129e-05	7.5433e-06	300.36	50.719	2.1223e-06	1.1704e-05	59.566	13.852	10.567	2.2764	6.878e-06	3.4839	0.0069817	0.0088554	0.0022189	619.02	9.4287e-05	8.8205e-05	399.09	85.001	8.7354e-05	0.00010173	109.87	31.703	25.992	7.268	9.715e-05	11.03	-16.261	34.211	3.336	-48.963	240.739	223.046	-49.163	-45.090	225.465	255.644	-45.334	-40.522	-39.898	-35.824	79.325	-36.453	-8191	255	
33804.176	1	1	0	0	0.030893	0.24661	0.13041	0.22486	0.094018	0.14421	0.22127	0.10177	0.22526	0.026966	0.17348	0.074368	0.13103	0.17305	0.10017	0.060788	-2.5938	-3.0104	-2.9854	-3.0292	-3.2479	-2.9375	-3.2854	-3.1417	-3.0312	-3.2521	-2.9375	-3.0354	-3.1437	-2.7896	-3.2542	-3.1458	172.371	145.582	248.478	-37.014	133.407	39.133	214.716	64.733	89.532	149.909	194.573	-5.218	23.455	50.718	233.728	-15.659	0.00028018	0.0015486	0.00020113	319.05	1.1833e-05	8.6097e-06	299.93	50.3	2.6719e-06	3.9353e-06	58.644	13.318	10.016	2.136	7.5853e-06	3.4575	0.006812	0.0087962	0.0022159	602.65	9.3364e-05	8.5984e-05	390.15	83.256	8.2736e-05	9.6727e-05	107.54	30.292	25.35	6.9891	9.4568e-05	10.689	1.620	292.775	34.841	-48.116	124.734	79.965	-48.903	-44.226	44.290	189.141	-43.901	-40.034	-39.790	-35.049	27.700	-34.727	-8191	255	
33804.270	1	1	0	0	0.18488	0.15488	0.050938	0.10791	0.20022	0.12677	0.22743	0.15532	0.18429	0.17035	0.20087	0.22599	0.19335	0.16629	0.10585	0.17103	-2.3854	-3.2458	-2.9938	-2.925	-3.1521	-3.0458	-3.1104	-3.1708	-2.9375	-3.2917	-3.0167	-3.025	-3.1813	-2.8063	-2.9958	-3.1854	282.438	3.584	-26.190	39.979	92.157	-29.985	115.793	162.785	32.613	-50.235	254.522	-15.223	295.462	265.287	228.431	118.573	0.00010529	0.0011344	0.00046321	322.66	2.7611e-06	7.764e-06	294.34	49.683	8.511e-06	1.95e-05	57.891	13.466	10.451	2.1197	1.9384e-05	3.4535	0.0064893	0.0083772	0.0021638	568.5	9.1298e-05	8.2714e-05	381.16	81.403	7.7609e-05	9.477e-05	105.23	28.878	24.537	6.7856	8.7175e-05	10.34	20.125	103.411	223.704	-49.038	200.083	287.307	-48.590	-43.448	31.893	204.207	-44.851	-40.878	-40.070	-34.345	-57.116	-33.932	-8191	255	
33804.391	1	1	0	0	0.24699	0.085345	0.15434	0.075455	0.18297	0.096768	0.029338	0.024309	0.14837	0.044872	0.10534	0.14731	0.03606	0.16732	0.09281	0.13166	-2.575	-3.1125	-2.9958	-2.8521	-3.2104	-2.8875	-2.95	-3.125	-2.9167	-3.2917	-3.1917	-2.8854	-3.2313	-2.9604	-3.1667	-3.1354	192.882	118.932	259.249	84.420	148.304	-32.076	215.431	180.984	38.334	-3.937	270.496	106.224	-34.048	95.453	238.513	66.947	0.00016148	0.001179	0.00034062	315.82	1.268e-05	8.7407e-06	298	48.801	5.3703e-06	8.8978e-06	58.628	13.722	10.105	2.0027	9.2588e-06	3.3291	0.0061258	0.0079903	0.0021187	554.78	8.9617e-05	7.9209e-05	376.79	79.139	7.194e-05	8.5596e-05	102.65	27.476	23.229	6.4161	7.9045e-05	9.7751	281.065	143.774	166.096	-48.637	81.343	239.388	-48.731	-43.882	250.364	278.726	-46.009	-39.880	-39.736	-33.410	18.554	-35.150	-8191	255	
33804.465	1	1	0	0	0.16948	0.077296	0.22483	0.061364	0.1079	0.0064671	0.081525	0.18914	0.17124	0.14667	0.1231	0.22449	0.27068	0.12829	0.17137	0.23494	-2.3417	-2.9667	-3.0938	-2.7708	-3.2979	-2.9729	-3.0187	-3.1021	-2.9813	-3.2667	-3.0292	-2.7771	-3.1708	-2.9021	-2.925	-3.2208	99.995	-41.153	267.801	-8.580	98.627	22.307	81.013	128.065	56.898	147.905	48.258	-24.920	-13.791	181.237	256.980	205.019	0.00015453	0.00053911	3.4979e-05	337.46	8.6051e-06	8.8395e-06	312.54	49.29	5.1751e-06	5.477e-06	59.705	13.316	9.7338	2.0648	9.2737e-06	3.256	0.0055661	0.0070539	0.0018741	539.13	7.7258e-05	7.0545e-05	378.77	76.004	6.4368e-05	7.7596e-05	98.473	25.895	21.59	6.0447	6.8274e-05	9.4363	-16.314	63.038	215.208	-48.345	99.824	31.882	-48.718	-43.974	97.041	266.372	-44.223	-39.594	-39.866	-34.372	34.764	-34.580	-8191	255	
33804.559	1	1	0	0	0.073349	0.1477	0.14297	0.34173	0.22607	0.15099	0.23969	0.24037	0.063818	0.062292	0.11146	0.023883	0.13423	0.30793	0.097562	0.091561	-2.4229	-3.1979	-3.1417	-2.8479	-2.9542	-3.1063	-2.9188	-3.4125	-2.8646	-3.0708	-3.1854	-2.7771	-3.15	-2.9229	-2.9042	-3.2083	212.472	117.440	81.299	220.992	-49.911	165.212	285.677	7.746	-37.174	247.869	-28.083	-52.940	289.144	-19.165	142.824	91.227	0.00010225	0.0009233	0.00012135	335.48	6.3858e-07	9.6819e-06	312.93	49.828	2.6621e-06	1.0037e-05	60.888	13.192	10.08	2.0711	5.676e-06	3.5121	0.0053171	0.0066688	0.0018595	532.31	7.9646e-05	7.2107e-05	380.05	76.766	6.7324e-05	7.737e-05	100.87	26.395	22.264	6.2762	6.9214e-05	10.024	83.007	273.372	-15.118	-48.580	25.987	158.218	-49.393	-44.639	-8.066	186.121	-44.793	-39.529	-39.330	-34.137	260.621	-34.035	-8191	255	
33804.680	1	1	0	0	0.073151	0.21528	0.15973	0.19326	0.077165	0.023799	0.22657	0.12936	0.28241	0.066418	0.12492	0.1506	0.19478	0.1065	0.047764	0.1298	-2.4979	-2.9104	-2.975	-2.8396	-3.1937	-3.0146	-3	-3.2542	-2.8417	-2.7958	-3.2667	-3.0479	-3.1708	-3.0667	-2.8417	-3.3333	96.477	-59.386	273.305	-8.656	107.835	94.713	237.225	155.670	98.479	-54.433	115.190	214.962	-44.969	-21.450	76.561	116.954	0.00018419	0.00076641	0.00041254	338.56	4.3177e-06	3.1966e-06	318.45	50.462	8.2651e-06	4.636e-06	61.556	13.609	10.174	2.0693	1.7993e-06	3.5377	0.0055422	0.0067364	0.0019014	536.41	7.8644e-05	7.1615e-05	383.72	77.963	6.7444e-05	7.5404e-05	102.79	26.51	21.984	6.1792	6.4362e-05	9.6525	29.084	243.524	27.501	-49.100	161.409	44.801	-48.493	-44.277	246.605	297.266	-43.964	-39.522	-40.207	-32.852	-1.142	-35.092	-8191	255	
33804.773	1	1	0	0	0.046918	0.11343	0.11103	0.11627	0.19789	0.21216	0.12517	0.17767	0.24223	0.092263	0.13057	0.1607	0.26539	0.19183	0.090287	0.12132	-2.5625	-2.9813	-3.1208	-2.8375	-3.2896	-3.1813	-2.95	-3.1792	-2.8667	-2.9437	-3.4167	-3.0083	-3.025	-2.975	-2.9417	-3.2271	167.120	10.212	-21.390	-19.914	-30.573	196.066	237.419	64.518	242.225	221.888	163.470	281.566	149.591	27.067	274.027	281.381	0.00030356	0.0014294	3.3467e-05	344.71	2.0879e-05	5.3817e-06	323.91	51.747	1.1853e-05	6.6689e-06	62.373	14.014	10.199	2.0472	6.2505e-06	3.4776	0.0053081	0.0062437	0.0017988	532.19	7.613e-05	6.9327e-05	386.21	77.825	6.6242e-05	6.8906e-05	103.48	26.634	21.747	6.224	6.3703e-05	9.848	-32.907	142.783	113.496	-48.378	118.116	66.596	-48.906	-43.844	71.929	-28.160	-44.252	-39.199	-39.805	-37.291	16.643	-33.705	-8191	255	
33804.871	1	1	0	0	0.10054	0.12578	0.14876	0.20855	0.18199	0.13981	0.02815	0.029129	0.23742	0.27503	0.1671	0.13412	0.07208	0.12624	0.21764	0.30885	-2.5062	-2.8646	-3.1771	-3.0062	-3.0917	-3.1562	-2.8271	-3.2938	-2.9813	-2.7521	-3.1208	-2.9979	-2.875	-3.2521	-2.9396	-3.0375	-27.041	-40.795	112.294	194.353	273.820	138.008	-49.034	30.995	-37.185	99.274	-49.991	215.285	-30.374	-11.245	123.106	71.718	0.00022941	0.0018786	5.2741e-05	349.82	4.9577e-06	9.1996e-06	328.54	52.705	4.5957e-06	7.4094e-06	63.775	13.955	10.413	2.0679	1.2723e-05	3.5191	0.005356	0.0061725	0.0018213	541.11	7.329e-05	6.9835e-05	389.8	79.234	6.7627e-05	6.7865e-05	106.34	26.954	21.907	6.3001	6.41e-05	9.8092	103.794	-37.183	-40.976	-48.217	158.548	72.641	-48.739	-44.552	197.752	287.889	-45.465	-39.783	-39.669	-35.964	136.178	-35.862	-8191	255	
33804.992	1	1	0	0	0.17206	0.21215	0.13617	0.24698	0.1345	0.2015	0.22292	0.15264	0.06441	0.07419	0.21395	0.20526	0.18446	0.19681	0.1597	0.24448	-2.7625	-2.9042	-3.1979	-2.7708	-2.8417	-3.0958	-2.8937	-3.0604	-3.0354	-2.8208	-3.2833	-2.9604	-3	-3.1771	-2.8292	-3.0062	-11.964	244.534	69.255	-4.340	-22.043	254.981	251.957	292.654	40.221	181.302	132.755	264.291	-54.244	58.169	100.875	55.583	9.1186e-05	0.00057166	0.00037864	355.79	4.6711e-06	7.1554e-06	330.69	54.212	7.4754e-06	1.8053e-05	64.146	14.436	10.749	2.1861	3.8739e-06	3.6143	0.0054336	0.0061802	0.0018671	548.89	7.4483e-05	7.349e-05	395.48	81.136	7.0636e-05	6.8596e-05	108.76	27.987	22.377	6.5675	6.7879e-05	10.282	87.705	53.005	118.346	-48.740	52.974	274.741	-49.150	-44.624	-14.216	131.065	-44.994	-39.810	-40.086	-34.535	264.189	-33.556	-8191	255	
33805.086	1	1	0	0	0.21139	0.27156	0.22602	0.13527	0.050916	0.3059	0.086458	0.19345	0.083057	0.26234	0.23296	0.15438	0.11329	0.29165	0.11459	0.32969	-2.6625	-2.7458	-3.0812	-2.8625	-2.8771	-3.1312	-3.0375	-2.9333	-3.1229	-2.7958	-3.0896	-2.9042	-2.525	-3.0604	-2.8167	-3.0125	207.403	-28.048	-29.682	-42.648	5.714	132.386	20.764	155.957	-15.350	276.862	21.983	144.469	14.852	214.395	220.744	240.438	9.8267e-05	0.00095254	0.00022483	345.59	7.7021e-06	6.1362e-06	330.51	53.295	4.5456e-06	9.0953e-06	64.194	14.602	10.695	2.225	4.0223e-06	3.7866	0.0057528	0.0063607	0.0019534	557.86	7.2115e-05	7.8126e-05	396.74	80.928	7.1629e-05	6.7701e-05	109.63	27.734	21.894	6.4769	6.6448e-05	9.8656	291.214	-31.060	-49.230	-48.568	54.439	216.948	-48.847	-43.570	190.434	214.060	-45.015	-39.664	-40.262	-35.452	190.998	-33.150	-8191	255	
33805.160	1	1	0	0	0.25525	0.084869	0.086405	0.19487	0.04396	0.31738	0.23812	0.072791	0.21031	0.26733	0.008008	0.0075601	0.21615	0.097207	0.11964	0.15537	-2.7021	-2.7562	-2.9479	-2.8688	-2.7188	-3.1958	-2.8333	-2.9854	-3.1292	-2.9875	-2.9833	-3.0438	-2.9958	-3.0708	-2.9688	-2.9188	219.391	57.701	198.411	-0.198	168.237	19.907	240.686	-18.256	93.868	-24.336	277.768	1.616	215.678	133.691	39.821	-31.054	6.8449e-05	0.00068461	0.0006997	352.68	7.9192e-06	6.7089e-06	331.72	54.428	8.6672e-06	7.9542e-07	67.476	14.232	10.819	2.1813	1.0119e-05	3.7458	0.0055145	0.0061267	0.0018427	555.71	6.6175e-05	7.6589e-05	395.91	79.177	6.7498e-05	6.3762e-05	107.24	27.115	21.166	6.204	6.3259e-05	9.355	189.568	12.684	11.567	-49.013	4.544	148.898	-48.812	-44.191	238.092	292.670	-45.452	-40.782	-39.634	-34.657	248.138	-35.623	-8191	255	
33805.254	1	1	0	0	0.20632	0.28524	0.42556	0.095151	0.20884	0.10442	0.17237	0.020723	0.31885	0.083321	0.26741	0.36059	0.23257	0.24545	0.11884	0.03443	-2.85	-2.7583	-3.1521	-2.9792	-2.9083	-3.0479	-2.8917	-2.9313	-3.1667	-2.8271	-3.0208	-3.1917	-2.9271	-3.0833	-3.1354	-2.9188	-22.073	53.097	62.374	-15.264	-8.891	229.592	51.426	280.220	288.978	-26.983	242.767	33.704	-42.798	226.827	30.152	98.997	0.00021641	0.00092627	0.00035458	355.75	9.0757e-06	9.1155e-06	334.52	54.461	7.1202e-06	2.1844e-06	66.24	14.57	11.022	2.2675	6.6436e-06	3.8687	0.005243	0.0056878	0.0017053	545.1	6.1966e-05	7.1883e-05	395.52	78.939	6.7356e-05	6.4273e-05	108.5	27.667	21.413	6.3289	6.4042e-05	9.0339	91.528	53.846	-38.654	-48.104	71.085	170.388	-48.188	-44.043	189.948	254.155	-45.755	-40.158	-39.816	-33.903	43.074	-34.500	-8191	255	
33805.375	1	1	0	0	0.14073	0.040771	0.16244	0.20949	0.13896	0.30374	0.1238	0.29726	0.13093	0.12576	0.032189	0.064348	0.19672	0.099638	0.067084	0.10074	-2.85	-2.7958	-2.9042	-3.0646	-2.7833	-3.075	-3.0896	-2.7354	-3.2521	-2.9708	-3.0354	-3.1958	-2.8146	-3.0208	-2.8625	-2.7708	47.128	119.180	89.857	173.404	34.750	225.767	146.774	213.641	90.813	271.910	91.808	-51.280	237.620	290.070	267.902	-32.809	4.0281e-05	0.00098706	0.00034448	360.41	4.9307e-06	3.81e-06	340.73	56.224	3.7291e-06	9.5623e-06	68.103	14.894	10.917	2.2481	3.1253e-06	3.6664	0.0054082	0.0057379	0.0016761	547.74	6.0381e-05	7.4114e-05	402.59	79.515	6.8149e-05	6.5817e-05	107.58	27.863	21.626	6.4037	6.7548e-05	9.1154	44.356	172.023	188.785	-48.356	275.545	293.479	-48.840	-43.911	-22.141	224.911	-44.871	-39.753	-41.118	-35.969	275.386	-35.595	-8191	255	
33805.473	1	1	0	0	0.23107	0.087315	0.20259	0.10641	0.19321	0.085889	0.28153	0.057402	0.064763	0.34445	0.10722	0.22397	0.18607	0.086995	0.04558	0.35049	-2.7854	-2.95	-2.9792	-3.1229	-2.7083	-3.1625	-3.0333	-2.6688	-3.1146	-2.9313	-2.8729	-3.2417	-2.9958	-3.1167	-3.15	-2.8646	-17.726	278.288	-33.875	288.448	136.548	-41.478	150.462	162.673	205.677	39.098	-49.510	193.493	109.520	-62.236	-38.918	19.158	0.00026196	0.0010029	0.00013082	351.46	4.6027e-06	1.8139e-05	340.48	56.756	1.5823e-05	1.1058e-05	65.963	14.356	10.812	2.3202	6.4814e-06	3.6637	0.0060159	0.0062689	0.0017853	560.31	6.6978e-05	7.8799e-05	405.61	81.407	7.3886e-05	7.1193e-05	108.18	29.085	22.258	6.6327	7.1619e-05	9.2358	-19.075	33.952	25.638	-48.620	-42.263	240.031	-48.486	-44.323	245.618	200.919	-45.474	-39.951	-40.589	-35.595	71.686	-34.588	-8191	255	
33805.566	1	1	0	0	0.15064	0.14621	0.22323	0.10153	0.026009	0.05348	0.18252	0.2766	0.24669	0.11677	0.13834	0.14814	0.32023	0.027944	0.10444	0.18935	-2.6354	-2.8771	-2.8458	-3.0875	-2.875	-3.1396	-3.075	-2.8312	-3.0312	-3.0563	-2.7875	-3.1375	-2.8708	-3.0229	-3.2604	-2.775	1.827	46.184	291.861	179.037	142.748	59.433	220.090	213.395	267.742	244.834	74.156	-26.189	222.240	101.776	133.135	172.894	0.00020914	0.0011013	0.00032239	340.65	1.0199e-05	9.0702e-06	323.72	54.132	8.1786e-06	4.2178e-06	65.178	14.118	10.581	2.2003	7.1636e-06	3.53	0.0061956	0.0064899	0.001807	554.85	6.7785e-05	8.0025e-05	393.54	78.619	7.2043e-05	7.1252e-05	103.51	29.197	22.137	6.5413	7.263e-05	9.1845	-37.971	109.452	60.270	-48.580	26.291	243.542	-48.711	-44.406	126.696	238.984	-45.210	-40.520	-39.286	-35.239	208.200	-34.643	-8191	255	
33805.660	1	1	0	0	0.19941	0.23427	0.23603	0.18012	0.11055	0.11299	0.085202	0.14485	0.22526	0.093681	0.19374	0.11809	0.3166	0.16454	0.073256	0.064643	-2.4771	-2.8271	-2.8187	-3.2604	-2.675	-3.0042	-3.0563	-2.8083	-3.2	-3.0396	-2.9708	-3.1729	-2.9083	-3.0229	-3.1542	-2.8354	213.073	6.134	262.279	160.580	139.039	40.544	118.145	75.327	-7.447	257.429	-30.189	164.567	36.646	7.654	90.509	237.863	7.8455e-05	0.00097062	5.5203e-05	329.15	9.6075e-06	7.2211e-06	322.78	54.519	1.0704e-05	4.1914e-06	64.077	13.954	10.325	2.1356	1.7106e-05	3.5067	0.0064553	0.0066195	0.0017892	549.33	6.9531e-05	7.6679e-05	388.77	78.293	7.2147e-05	7.2167e-05	101.21	29.163	21.702	6.3029	7.1444e-05	8.9759	-27.709	12.025	259.322	-48.388	133.273	294.312	-49.021	-44.484	7.042	180.072	-44.892	-40.846	-39.863	-35.823	216.216	-32.902	-8191	255	
33805.758	1	1	0	0	0.14513	0.064829	0.23042	0.1243	0.19234	0.17443	0.099031	0.202	0.0033499	0.094626	0.16327	0.0068272	0.17816	0.22633	0.20592	0.015702	-2.6521	-2.9917	-2.9229	-3.1688	-2.9208	-2.85	-3.2375	-2.7646	-3.1604	-3.2208	-2.8875	-3.2667	-3	-2.9958	-3.1188	-2.8521	105.229	-46.841	238.618	232.062	146.865	184.668	111.793	-47.336	4.342	239.059	69.889	43.386	127.057	129.448	83.378	13.863	8.8154e-05	0.00063671	0.00028695	332.79	4.4017e-06	1.5619e-05	320.55	52.968	8.1329e-06	7.9988e-06	63.52	14.234	10.768	2.2038	9.454e-06	3.4947	0.0059745	0.0064251	0.0017043	545.94	6.8736e-05	7.2872e-05	392.22	78.128	7.1317e-05	7.1723e-05	101.27	29.508	22.23	6.3622	7.2962e-05	9.3346	158.753	-12.263	-4.905	-48.550	271.965	96.140	-48.863	-44.600	57.249	273.652	-44.374	-39.664	-40.645	-34.617	147.876	-33.645	-8191	255	
33805.855	1	1	0	0	0.32855	0.12527	0.15775	0.32151	0.15336	0.18072	0.11224	0.13832	0.18709	0.11494	0.1191	0.171	0.27876	0.20963	0.38864	0.27143	-2.7729	-2.8917	-2.9542	-3.2417	-2.9854	-2.8521	-3.1146	-2.8812	-3.0375	-3.1688	-2.825	-3.1208	-3.0271	-2.9375	-3.0646	-2.9083	261.941	41.835	-29.483	-48.874	-49.188	-10.596	177.244	122.290	140.295	106.624	30.715	260.222	54.080	152.493	151.071	220.750	0.00021735	0.00039057	0.0004398	330.05	4.424e-06	9.2694e-06	316.72	52.882	2.9837e-06	4.8685e-06	63.325	14.222	10.588	2.1635	6.1537e-06	3.6044	0.0063136	0.0067198	0.0017735	553.24	7.3641e-05	7.2478e-05	394.38	79.498	7.3454e-05	7.6071e-05	102.2	30.297	22.634	6.4063	7.5982e-05	9.5863	29.437	128.530	283.481	-48.851	274.268	92.141	-49.050	-44.481	111.776	28.706	-44.790	-40.407	-40.507	-36.318	221.213	-33.053	-8191	255	
33805.949	1	1	0	0	0.28614	0.153	0.2429	0.18578	0.17923	0.28827	0.25787	0.19973	0.23106	0.094127	0.11946	0.15904	0.15264	0.096939	0.17247	0.1372	-2.4375	-3.0396	-2.7333	-3.1333	-3.2083	-2.7812	-3.2229	-2.9062	-2.8625	-2.9917	-3.0708	-3.175	-3.0208	-2.5708	-3.1458	-2.8625	269.793	148.656	9.475	205.738	-25.555	116.161	-9.374	25.770	156.467	19.043	163.864	253.684	262.903	211.172	292.492	261.967	0.0002315	0.0017842	0.00013767	331.49	8.3119e-06	6.9576e-06	318.03	52.86	3.0861e-06	1.0163e-05	64.693	14.275	10.899	2.2039	6.1352e-06	3.6584	0.006193	0.0068481	0.0018188	561.13	7.4902e-05	7.1188e-05	401.44	80.245	7.2176e-05	7.6765e-05	103.79	29.821	22.694	6.2848	7.4748e-05	9.4802	74.162	65.368	55.747	-49.364	270.471	139.340	-48.706	-43.315	4.815	8.268	-45.419	-40.667	-38.933	-34.770	151.028	-35.270	-8191	255	
33806.070	1	1	0	0	0.21009	0.11086	0.24447	0.18385	0.26045	0.25791	0.11004	0.20132	0.032839	0.10862	0.064103	0.27022	0.098351	0.047786	0.28103	0.078903	-2.4333	-3.2271	-2.9188	-2.9938	-3.1521	-2.7771	-3.1771	-2.8229	-2.8854	-3.3792	-2.8458	-2.9625	-3.0104	-2.7583	-3.2104	-3.0625	-16.538	281.527	59.421	283.578	100.127	-53.348	185.703	-44.886	4.883	294.956	-22.280	209.022	134.215	102.399	112.188	-54.641	0.00027998	0.0004037	8.9927e-05	344.14	1.6559e-05	8.5654e-06	327.45	54.464	4.6661e-06	6.172e-06	66.327	14.636	10.89	2.3089	1.2215e-05	3.721	0.0057364	0.0068616	0.0017586	559.87	7.2399e-05	6.7664e-05	405.48	80.465	6.8463e-05	7.5537e-05	104.54	30.02	22.787	6.281	7.5257e-05	9.7412	-39.303	16.780	191.525	-48.703	224.639	50.797	-49.123	-44.146	167.766	76.404	-44.760	-40.214	-40.751	-34.035	282.200	-34.720	-8191	255	
33806.168	1	1	0	0	0.24988	0.085726	0.16419	0.26205	0.11985	0.13207	0.079935	0.20542	0.099369	0.15964	0.14436	0.17685	0.12237	0.097676	0.17868	0.05419	-2.3229	-3.2229	-2.8063	-3.0604	-3.1396	-2.85	-3.1437	-2.9479	-2.8396	-3.1521	-2.9062	-3.0042	-2.9938	-2.7229	-3.0958	-2.8604	-50.136	91.663	226.903	-54.461	-54.661	166.152	-46.786	129.774	217.870	-13.747	277.286	79.429	254.261	-9.466	191.756	272.533	0.00025056	0.0029067	0.0001399	337.05	2.3365e-06	1.7154e-05	319.6	52.967	1.0607e-05	8.6819e-07	63.938	14.46	10.781	2.2732	3.0914e-06	3.5959	0.005525	0.0072517	0.0018164	555.01	7.4655e-05	6.9694e-05	402.96	80.269	7.0383e-05	8.0123e-05	105.35	30.061	23.454	6.5886	8.1133e-05	10.072	-61.219	60.950	88.726	-49.097	159.667	71.902	-48.747	-44.138	-8.939	-23.198	-44.679	-40.843	-40.673	-34.695	116.397	-35.523	-8191	255	
33806.262	1	1	0	0	0.22708	0.31989	0.061638	0.23126	0.1377	0.083775	0.17113	0.024964	0.33664	0.15887	0.14781	0.16688	0.078315	0.2509	0.12677	0.10308	-2.3833	-3.0479	-3.0312	-2.85	-3.2083	-2.9208	-3.0854	-2.9208	-2.7417	-3.0479	-2.9437	-2.8833	-3.1208	-2.6146	-3.0021	-2.9562	56.193	83.000	11.048	70.947	250.580	285.819	224.048	40.261	84.062	260.901	-35.237	207.109	159.641	30.413	194.925	132.618	0.00033747	0.0011208	0.00031738	331.33	8.5372e-06	7.3047e-06	319.09	53.179	7.3195e-06	1.2483e-05	64.088	14.494	10.644	2.2483	8.1014e-06	3.6069	0.0057266	0.008076	0.0019377	554.89	8.0396e-05	7.3865e-05	401.13	81.297	7.1823e-05	8.3544e-05	106.86	29.3	24.052	6.5377	7.7699e-05	9.9278	273.825	124.801	180.943	-50.302	225.174	-50.942	-48.866	-44.170	-39.678	83.721	-44.340	-40.113	-40.303	-34.324	91.645	-34.368	-8191	255	
33806.359	1	1	0	0	0.30175	0.21627	0.1748	0.15883	0.066923	0.077879	0.24986	0.05736	0.10048	0.19219	0.14508	0.3479	0.10104	0.08177	0.029451	0.1246	-2.3042	-3.0854	-2.7792	-2.875	-3.1167	-2.8229	-2.9521	-3.0271	-2.7917	-3.2333	-2.9062	-2.8396	-3.2687	-2.9708	-2.8458	-3.1208	-49.283	102.046	269.173	39.008	196.380	189.517	135.999	68.657	172.054	182.489	-28.643	-52.650	119.418	192.709	101.541	-27.434	0.00016441	0.00053309	9.1439e-05	331.07	9.3347e-06	1.0868e-05	318.86	53.507	7.5137e-06	6.4601e-06	63.176	14.131	10.652	2.1101	1.0805e-05	3.6562	0.0055368	0.0077118	0.0018907	547.57	7.8999e-05	7.3676e-05	402.4	81.432	7.1951e-05	8.3968e-05	107.34	28.774	24.773	6.7084	7.9092e-05	10.29	256.529	5.000	192.362	-49.424	53.171	233.578	-48.366	-44.852	17.472	-23.460	-44.157	-40.632	-41.425	-35.372	6.838	-35.965	-8191	255	
33806.457	1	1	0	0	0.1304	0.089143	0.10283	0.17074	0.11053	0.13172	0.095139	0.087437	0.23297	0.25169	0.049448	0.1212	0.1635	0.02155	0.22284	0.19143	-2.2313	-2.9396	-2.9375	-2.9292	-3	-2.9792	-2.9833	-3.1437	-2.95	-3.0312	-3.0708	-2.7583	-3.2167	-2.9938	-2.8187	-3.2167	138.022	71.861	61.442	108.756	-51.350	111.578	106.184	226.572	118.192	3.685	220.291	30.992	289.304	277.332	293.653	248.209	8.4931e-05	0.0012696	0.00010896	329.15	8.8574e-06	3.4631e-06	322.1	53.736	5.5038e-06	1.0144e-05	64.709	14.549	10.882	2.2263	8.7933e-07	3.7567	0.0057614	0.0081754	0.0019613	549.69	8.2283e-05	7.5903e-05	399.86	82.422	7.2369e-05	8.2336e-05	107.87	28.261	24.923	6.607	7.3809e-05	10.078	-15.658	135.990	90.829	-48.598	147.989	-8.510	-49.130	-44.080	231.007	15.523	-44.723	-39.917	-41.230	-34.367	-49.886	-34.840	-8191	255	
33806.551	1	1	0	0	0.29334	0.10255	0.085456	0.29314	0.090016	0.13951	0.18803	0.080705	0.099463	0.099951	0.20586	0.058298	0.1086	0.1364	0.19978	0.23396	-2.2708	-2.9083	-2.7208	-2.7583	-2.9708	-3.0771	-2.9958	-3.1229	-2.7854	-2.9896	-3.1354	-2.6688	-3.0729	-2.7687	-2.7708	-3.0958	-39.068	187.347	217.969	25.553	240.482	118.353	137.477	154.895	21.324	-60.705	-52.536	194.214	-45.282	248.696	252.579	23.934	9.4698e-05	0.00086118	0.00020254	346.2	4.8512e-06	3.7765e-06	327.41	54.138	4.9905e-06	6.0996e-06	64.65	14.812	10.749	2.2366	3.8982e-06	3.7267	0.0055447	0.0075258	0.0018852	546.98	7.9354e-05	7.4407e-05	401.04	84.183	7.1574e-05	7.9212e-05	107.87	28.069	24.639	6.6173	7.146e-05	10.182	125.496	112.044	233.839	-48.277	177.102	161.715	-48.662	-44.167	273.475	-40.965	-43.838	-40.529	-40.459	-35.316	235.701	-35.900	-8191	255	
33806.672	1	1	0	0	0.053729	0.29487	0.058876	0.13573	0.017576	0.21201	0.037736	0.2566	0.23604	0.15206	0.23681	0.26566	0.15524	0.28884	0.13985	0.3121	-2.4396	-3.0312	-3.0646	-2.5417	-3.1375	-2.8729	-2.8896	-3.1042	-2.9646	-2.9	-3.0646	-2.7292	-3.1104	-2.8417	-2.8542	-3.2833	146.092	198.649	228.719	267.967	-52.601	95.225	108.696	38.477	-53.063	137.047	245.880	210.721	-59.512	-52.067	69.438	-44.875	0.00010496	0.00073028	0.00052562	349.25	1.3648e-05	5.6446e-06	332.43	54.558	6.0123e-06	1.2426e-05	64.761	14.652	10.797	2.258	7.1273e-06	3.7792	0.0056287	0.0075714	0.0019	553.54	7.9268e-05	7.5306e-05	399.93	84.727	7.122e-05	7.6884e-05	107.89	28.033	24.824	6.6176	7.0832e-05	10.257	94.825	32.349	74.360	-48.605	-21.680	11.975	-49.051	-44.181	8.493	27.826	-44.853	-39.757	-39.973	-35.783	172.767	-35.667	-8191	255	
33806.766	1	1	0	0	0.14712	0.14939	0.094479	0.3292	0.15947	0.16374	0.28691	0.21768	0.13423	0.12253	0.24931	0.10801	0.19883	0.11782	0.28303	0.14244	-2.3458	-2.9917	-2.9938	-2.6667	-2.9542	-2.7646	-2.8479	-3.1167	-2.9417	-3.1667	-3.1688	-2.9437	-3.0563	-2.9313	-2.7188	-3.1375	245.782	144.242	273.100	-23.443	199.607	-3.453	173.384	183.761	107.696	-56.928	185.451	40.975	131.943	141.140	76.287	127.040	0.00025586	0.00064448	0.00022335	337.01	9.0887e-06	5.7141e-06	325.8	52.822	7.3754e-06	8.9689e-06	65.133	14.533	10.872	2.2887	1.4217e-05	3.7761	0.0057216	0.0072557	0.0019323	546.85	7.8782e-05	7.5025e-05	390.64	84.982	7.1536e-05	7.5216e-05	108.45	28.187	24.336	6.6165	7.0093e-05	10.259	156.001	100.611	69.666	-48.216	92.816	198.977	-49.092	-44.108	-40.544	-12.780	-44.707	-39.725	-40.510	-34.923	191.519	-34.345	-8191	255	
33806.863	1	1	0	0	0.055122	0.064103	0.16296	0.16543	0.030412	0.30336	0.19344	0.10778	0.06821	0.21951	0.12868	0.045647	0.23074	0.15233	0.20479	0.13404	-2.3896	-2.8667	-3.0417	-2.6604	-2.9167	-3.1229	-2.8438	-3.1	-2.9167	-3.0583	-3.1375	-2.7625	-3.0021	-3.0062	-2.8021	-3.05	272.046	170.608	-21.565	224.909	154.387	21.649	261.525	49.952	-44.023	-37.052	21.294	0.892	-61.183	19.432	204.563	155.821	0.00027749	0.001577	0.00048713	335.76	8.929e-06	1.2578e-05	323.73	53.272	4.9571e-06	8.3744e-06	65.171	14.239	10.731	2.2263	5.3694e-06	3.7702	0.0057109	0.006812	0.0020159	542.79	7.5849e-05	7.4043e-05	386.05	83.117	7.0083e-05	7.0804e-05	107.15	27.788	23.866	6.5202	6.7278e-05	9.9606	198.044	283.867	90.963	-48.375	-43.091	294.442	-49.250	-44.026	247.984	-4.897	-44.627	-40.988	-40.967	-34.218	225.648	-34.486	-8191	255	
33806.961	1	1	0	0	0.16238	0.18067	0.062639	0.13627	0.10072	0.090162	0.2731	0.08419	0.097265	0.11753	0.23557	0.094867	0.24812	0.24168	0.080427	0.27737	-2.6	-2.875	-3.0625	-2.9521	-3.0312	-3.1125	-2.875	-3.1417	-2.9333	-2.9562	-3.1229	-2.8021	-2.8396	-2.9583	-2.875	-3.0062	179.052	-44.128	80.434	101.234	53.484	46.530	-52.477	-8.303	192.438	192.922	-35.610	81.400	85.932	220.799	129.145	201.440	0.00018089	0.00087432	0.0003916	336.48	3.346e-06	7.8083e-06	330.93	54.107	5.8907e-07	4.4181e-06	66.728	15.214	11.148	2.3532	7.365e-06	3.9343	0.0055456	0.0062151	0.001966	539.32	7.058e-05	7.14e-05	393.6	83.77	6.6809e-05	6.7601e-05	107.56	27.818	22.95	6.3725	6.4782e-05	9.6753	128.184	-53.214	173.066	-48.964	188.863	10.009	-48.611	-44.433	182.503	131.458	-45.451	-39.820	-39.201	-34.507	61.970	-35.375	-8191	255	
33807.055	1	1	0	0	0.18537	0.15224	0.21888	0.37302	0.18236	0.24667	0.16904	0.16879	0.16683	0.2976	0.23561	0.049005	0.10802	0.17357	0.18482	0.19642	-2.6625	-2.7083	-3.0438	-2.8542	-3.0375	-3.2625	-2.6833	-3.1958	-2.95	-2.8771	-3.1458	-2.9479	-2.9375	-3.1979	-2.9146	-3.0854	283.013	54.339	220.605	142.959	286.971	7.047	251.821	230.809	76.023	151.230	246.062	206.196	189.070	14.095	-28.857	243.542	0.00016153	0.00081043	0.00042748	354.84	3.2339e-06	1.1292e-05	349.58	58.453	9.5221e-06	6.6893e-06	70.06	15.49	11.732	2.3724	5.2744e-06	3.922	0.0052418	0.0058617	0.001944	544.88	6.6521e-05	6.8843e-05	407.95	84.665	6.3354e-05	6.2948e-05	107.7	27.396	21.778	6.3764	6.0526e-05	9.1316	223.009	237.457	99.392	-49.104	125.659	165.009	-48.706	-44.266	221.744	108.318	-43.933	-39.966	-39.968	-36.043	260.830	-34.618	-8191	255	
#DATA ENDS
