BOXY.EXE: ISS Imagent and Oximeter Data Acquisition Program Version 0.80
Ascii Record File

#ACQ INFORMATION
2  Detector Channels 
16  External MUX Channels 
1  Auxiliary Channels 
5000  Waveform (CCF) Frequency (Hz)
1  Waveforms Skipped 
30  Waveforms Averaged 
1  Cycles Averaged 
16  Acquisitions per Waveform 
10.0806  Updata Rate (Hz) 

#FILE INFORMATION
TRUE -- External MUX Channel results are PARSED.
FALSE -- AC DC and Phase are NOT grouped.
TRUE -- Companion Program Settings File CREATED.
FALSE -- AC data not excluded
FALSE -- DC data not excluded
FALSE -- Phase data not excluded
FALSE -- Auxillary Chn. data not excluded
Tab delimiters

#CALIBRATION STATE
TRUE -- Waveform Calibration Values APPLIED.


#AUX CALIBRATION VALUES
Val Type	aux-1	

Term	1.0000e+00	
Factor	0.0000e+00	


#WF CALIBRATION VALUES
A = Detector Channel
Val Type	A-AC1	A-AC2	A-AC3	A-AC4	A-AC5	A-AC6	A-AC7	A-AC8	A-AC9	A-AC10	A-AC11	A-AC12	A-AC13	A-AC14	A-AC15	A-AC16	A-DC1	A-DC2	A-DC3	A-DC4	A-DC5	A-DC6	A-DC7	A-DC8	A-DC9	A-DC10	A-DC11	A-DC12	A-DC13	A-DC14	A-DC15	A-DC16	A-Ph1	A-Ph2	A-Ph3	A-Ph4	A-Ph5	A-Ph6	A-Ph7	A-Ph8	A-Ph9	A-Ph10	A-Ph11	A-Ph12	A-Ph13	A-Ph14	A-Ph15	A-Ph16	

Term	0.00000e+00	0.00000e+00	0.00000e+00	0.00000e+00	0.00000e+00	0.00000e+00	0.00000e+00	0.00000e+00	0.00000e+00	0.00000e+00	0.00000e+00	0.00000e+00	0.00000e+00	0.00000e+00	0.00000e+00	0.00000e+00	0.00000e+00	0.00000e+00	0.00000e+00	0.00000e+00	0.00000e+00	0.00000e+00	0.00000e+00	0.00000e+00	0.00000e+00	0.00000e+00	0.00000e+00	0.00000e+00	0.00000e+00	0.00000e+00	0.00000e+00	0.00000e+00	0.00000e+00	0.00000e+00	0.00000e+00	0.00000e+00	0.00000e+00	0.00000e+00	0.00000e+00	0.00000e+00	0.00000e+00	0.00000e+00	0.00000e+00	0.00000e+00	0.00000e+00	0.00000e+00	0.00000e+00	0.00000e+00	
Factor	1.00000e+00	1.00000e+00	1.00000e+00	1.00000e+00	1.00000e+00	1.00000e+00	1.00000e+00	1.00000e+00	1.00000e+00	1.00000e+00	1.00000e+00	1.00000e+00	1.00000e+00	1.00000e+00	1.00000e+00	1.00000e+00	1.00000e+00	1.00000e+00	1.00000e+00	1.00000e+00	1.00000e+00	1.00000e+00	1.00000e+00	1.00000e+00	1.00000e+00	1.00000e+00	1.00000e+00	1.00000e+00	1.00000e+00	1.00000e+00	1.00000e+00	1.00000e+00	X	X	X	X	X	X	X	X	X	X	X	X	X	X	X	X	

B = Detector Channel
Val Type	B-AC1	B-AC2	B-AC3	B-AC4	B-AC5	B-AC6	B-AC7	B-AC8	B-AC9	B-AC10	B-AC11	B-AC12	B-AC13	B-AC14	B-AC15	B-AC16	B-DC1	B-DC2	B-DC3	B-DC4	B-DC5	B-DC6	B-DC7	B-DC8	B-DC9	B-DC10	B-DC11	B-DC12	B-DC13	B-DC14	B-DC15	B-DC16	B-Ph1	B-Ph2	B-Ph3	B-Ph4	B-Ph5	B-Ph6	B-Ph7	B-Ph8	B-Ph9	B-Ph10	B-Ph11	B-Ph12	B-Ph13	B-Ph14	B-Ph15	B-Ph16	

Term	0.00000e+00	0.00000e+00	0.00000e+00	0.00000e+00	0.00000e+00	0.00000e+00	0.00000e+00	0.00000e+00	0.00000e+00	0.00000e+00	0.00000e+00	0.00000e+00	0.00000e+00	0.00000e+00	0.00000e+00	0.00000e+00	0.00000e+00	0.00000e+00	0.00000e+00	0.00000e+00	0.00000e+00	0.00000e+00	0.00000e+00	0.00000e+00	0.00000e+00	0.00000e+00	0.00000e+00	0.00000e+00	0.00000e+00	0.00000e+00	0.00000e+00	0.00000e+00	-8.38749e+01	-1.27561e+02	-1.29383e+02	-1.82058e+02	-6.19891e+01	-7.14628e+01	-1.55747e+02	-1.62015e+02	-5.82974e+01	-6.86231e+01	-1.71238e+02	-1.71237e+02	-1.82061e+02	-1.77401e+02	-5.37240e+01	-1.50384e+02	
Factor	1.42709e-05	1.38839e-04	3.86687e-05	4.05436e-01	1.18614e-06	1.51150e-06	1.47071e-01	4.85511e-02	1.02166e-06	1.47325e-06	7.65610e-02	2.53067e-02	2.09732e-02	7.51348e-03	1.33112e-06	1.08675e-02	6.93059e-06	9.99898e-06	2.78233e-06	2.11537e-01	1.08082e-07	1.11375e-07	7.28781e-02	2.56159e-02	1.03966e-07	1.10888e-07	3.90711e-02	1.30328e-02	1.12180e-02	3.99480e-03	1.06624e-07	5.59534e-03	X	X	X	X	X	X	X	X	X	X	X	X	X	X	X	X	



#DISTANCE SETTINGS
A = Detector Channel
A-1	A-2	A-3	A-4	A-5	A-6	A-7	A-8	A-9	A-10	A-11	A-12	A-13	A-14	A-15	A-16	

2.5000e+00	3.0000e+00	2.5000e+00	3.0000e+00	2.0000e+00	3.0000e+00	1.5000e+00	3.0000e+00	3.0000e+00	3.0000e+00	3.0000e+00	3.0000e+00	3.0000e+00	3.0000e+00	1.5000e+00	3.0000e+00	

B = Detector Channel
B-1	B-2	B-3	B-4	B-5	B-6	B-7	B-8	B-9	B-10	B-11	B-12	B-13	B-14	B-15	B-16	

1.0000e+01	1.0000e+01	1.0000e+01	1.4400e+00	1.0000e+01	1.0000e+01	1.5100e+00	1.9400e+00	1.0000e+01	1.0000e+01	1.9900e+00	2.4900e+00	2.4100e+00	2.9000e+00	1.0000e+01	2.9800e+00	




#DATA BEGINS
time	group	step	mark	flag	A-AC1	A-AC2	A-AC3	A-AC4	A-AC5	A-AC6	A-AC7	A-AC8	A-AC9	A-AC10	A-AC11	A-AC12	A-AC13	A-AC14	A-AC15	A-AC16	A-DC1	A-DC2	A-DC3	A-DC4	A-DC5	A-DC6	A-DC7	A-DC8	A-DC9	A-DC10	A-DC11	A-DC12	A-DC13	A-DC14	A-DC15	A-DC16	A-Ph1	A-Ph2	A-Ph3	A-Ph4	A-Ph5	A-Ph6	A-Ph7	A-Ph8	A-Ph9	A-Ph10	A-Ph11	A-Ph12	A-Ph13	A-Ph14	A-Ph15	A-Ph16	B-AC1	B-AC2	B-AC3	B-AC4	B-AC5	B-AC6	B-AC7	B-AC8	B-AC9	B-AC10	B-AC11	B-AC12	B-AC13	B-AC14	B-AC15	B-AC16	B-DC1	B-DC2	B-DC3	B-DC4	B-DC5	B-DC6	B-DC7	B-DC8	B-DC9	B-DC10	B-DC11	B-DC12	B-DC13	B-DC14	B-DC15	B-DC16	B-Ph1	B-Ph2	B-Ph3	B-Ph4	B-Ph5	B-Ph6	B-Ph7	B-Ph8	B-Ph9	B-Ph10	B-Ph11	B-Ph12	B-Ph13	B-Ph14	B-Ph15	B-Ph16	aux-1	digaux	

25756.391	1	1	0	768	0.36273	0.085299	0.15114	0.066831	0.3156	0.1227	0.36057	0.15156	0.078493	0.17319	0.19649	0.22435	0.3608	0.17988	0.1876	0.2186	-2.6146	-2.5812	-2.6417	-2.8937	-2.75	-2.7854	-3.025	-2.7396	-3.0354	-2.7854	-2.8	-2.9729	-2.7771	-3.0646	-2.9521	-2.5438	177.992	156.622	417.246	380.493	339.220	361.922	428.494	406.461	350.411	171.890	456.500	441.251	494.007	433.980	326.479	476.973	0.00053186	0.00055438	0.00012171	1369.2	4.9342e-06	4.0797e-06	1366.8	369.39	5.2298e-06	7.1822e-06	421.33	141.46	123.19	42.114	5.8611e-06	52.036	0.00053748	0.00051609	0.00014179	1386.8	5.5552e-06	5.6704e-06	1385	376.43	5.5531e-06	5.7186e-06	429.22	144.73	125.95	43.361	5.4338e-06	53.582	236.746	232.119	215.342	163.533	285.203	291.477	163.268	168.243	281.342	314.031	167.649	171.434	172.301	176.898	303.899	176.139	-8191	255	
25756.463	1	1	0	0	0.19011	0.37457	0.25123	0.18862	0.14233	0.14947	0.21728	0.41974	0.22663	0.22939	0.32958	0.065388	0.24668	0.25373	0.22746	0.10403	-2.4583	-2.5812	-2.75	-2.9875	-2.7833	-2.875	-2.9042	-2.8375	-2.9729	-2.7604	-2.9437	-3.1125	-2.6583	-2.9375	-2.9771	-2.8354	498.729	160.949	187.304	473.391	266.126	158.683	431.252	505.759	419.343	366.882	452.992	152.555	193.537	469.137	413.542	455.893	0.00050293	0.00069216	0.0001582	1368.4	5.0125e-06	2.4676e-06	1365.7	369.81	5.7502e-06	4.0332e-06	422.68	141.76	123.19	42.255	5.6421e-06	52.241	0.00052222	0.00049607	0.0001404	1386.5	5.6489e-06	5.6397e-06	1385.4	376.34	5.6607e-06	5.519e-06	429.67	144.76	126.04	43.384	5.6451e-06	53.665	238.116	249.315	256.894	163.642	324.011	336.081	163.342	167.996	293.427	290.123	167.300	171.813	172.310	177.000	311.273	176.208	-8191	255	
25756.582	1	1	0	0	0.30168	0.17788	0.29505	0.16819	0.095542	0.34121	0.23439	0.18956	0.44306	0.13073	0.22619	0.17348	0.068169	0.063527	0.021302	0.25805	-2.5229	-2.6063	-2.5187	-2.9979	-2.625	-2.7917	-3.2104	-2.6083	-2.85	-2.8104	-2.7521	-2.8708	-2.8167	-2.8812	-2.8729	-2.7583	493.313	331.820	269.800	347.053	333.633	349.484	420.730	456.457	482.834	478.970	443.401	368.319	433.828	396.188	316.226	500.003	0.00050844	0.00046274	0.00017541	1369.1	5.2258e-06	5.5556e-06	1369.9	369.29	5.7548e-06	5.0495e-06	421.62	141.19	123.13	42.29	5.2566e-06	52.301	0.0005348	0.00050726	0.00013817	1388.5	5.5793e-06	5.5987e-06	1386.4	376.26	5.4779e-06	5.58e-06	429.36	144.55	125.81	43.373	5.5349e-06	53.667	235.321	244.041	229.046	163.355	303.183	339.437	163.235	167.995	306.941	302.607	167.520	171.650	172.521	176.895	296.782	176.091	-8191	255	
25756.680	1	1	0	0	0.12618	0.13941	0.19193	0.20992	0.063249	0.40494	0.30191	0.19932	0.18093	0.16512	0.056557	0.19008	0.10623	0.04405	0.034724	0.19715	-2.5146	-2.5771	-2.4146	-3.0021	-2.5917	-2.7062	-3.1167	-2.6729	-2.9875	-2.9583	-2.8187	-2.975	-2.7708	-2.7375	-3.1417	-2.6667	328.216	391.376	192.344	398.359	275.853	262.933	460.687	477.245	405.616	462.238	352.487	430.610	444.893	194.757	201.100	466.700	0.00049857	0.00037007	0.00017416	1372.1	3.3804e-06	4.0131e-06	1367.6	369.69	5.4904e-06	5.7267e-06	422.18	141.78	123.09	42.292	7.2618e-06	52.033	0.00052672	0.00051899	0.00014258	1388.7	5.6459e-06	5.6402e-06	1386	376.54	5.745e-06	5.7597e-06	429.56	144.75	125.75	43.38	5.7584e-06	53.512	238.297	253.326	237.982	163.612	311.169	292.547	163.378	168.180	287.719	304.410	167.601	171.819	172.212	177.248	299.171	176.050	-8191	255	
25756.773	1	1	0	0	0.16292	0.2454	0.048422	0.063233	0.18264	0.17158	0.29041	0.20339	0.15949	0.1135	0.1925	0.25218	0.30426	0.10107	0.12532	0.08489	-2.4167	-2.8625	-2.5604	-2.8479	-2.7729	-2.6792	-3.1604	-2.8146	-2.8688	-3.0312	-2.6437	-3.1479	-2.9062	-2.8333	-2.9833	-2.9	275.848	205.415	479.133	193.658	387.235	436.042	450.776	493.316	248.103	344.934	479.186	500.322	153.367	214.668	449.633	472.432	0.00049459	0.00046702	0.00014479	1371.2	4.165e-06	4.8506e-06	1366.2	369.88	4.9476e-06	2.8026e-06	420.4	141.79	122.45	42.248	4.9064e-06	52.161	0.00053719	0.00052609	0.00014587	1387.3	5.7437e-06	5.8154e-06	1385	376.48	5.7914e-06	5.8316e-06	429.09	144.48	125.57	43.266	5.8814e-06	53.524	235.824	259.167	248.180	163.227	302.319	306.765	163.303	167.917	309.210	341.726	167.551	171.898	172.155	177.000	269.628	176.169	-8191	255	
25756.871	1	1	0	0	0.16488	0.1207	0.18381	0.034607	0.14002	0.29365	0.15925	0.095075	0.17411	0.19604	0.18587	0.096217	0.33728	0.25112	0.066208	0.16485	-2.4396	-2.575	-2.6167	-2.9625	-2.6688	-2.7271	-3.1167	-2.7208	-2.7771	-2.9146	-2.5583	-2.9062	-2.7729	-2.6396	-2.9396	-2.7292	479.805	257.220	162.685	429.172	302.684	361.024	461.668	402.225	477.375	209.481	490.026	196.221	495.830	152.638	178.766	163.606	0.00050762	0.00048092	8.7783e-05	1367.1	5.898e-06	2.6159e-06	1366.9	369.2	3.6913e-06	8.8117e-06	419.99	141.05	122.74	41.972	6.5171e-06	52.074	0.00054973	0.00054017	0.0001481	1387.4	5.8349e-06	5.9172e-06	1385.2	375.59	5.7415e-06	5.7997e-06	428.89	144.46	125.39	43.224	5.8594e-06	53.464	238.502	241.001	219.209	163.413	299.016	287.742	163.286	168.052	285.865	302.818	167.527	171.825	172.519	176.888	297.753	176.063	-8191	255	
25756.990	1	1	0	0	0.25311	0.086441	0.18189	0.10833	0.4161	0.13945	0.091741	0.33615	0.12181	0.088456	0.30284	0.22731	0.17444	0.27307	0.085214	0.12536	-2.1708	-2.8521	-2.5438	-2.8667	-2.6437	-2.6188	-3.1125	-2.6396	-2.6979	-2.8187	-2.6833	-2.7792	-2.9813	-2.7833	-2.9083	-2.8146	305.995	288.480	311.346	162.941	489.142	242.604	430.871	431.503	450.839	503.653	478.496	442.215	227.351	157.247	320.525	430.319	0.00056886	0.000718	0.00014149	1367.3	4.4167e-06	6.8669e-06	1371.4	368.94	4.1271e-06	4.2207e-06	422.31	141.54	122.61	42.204	6.7992e-06	52.136	0.00055094	0.00054399	0.00014749	1391.6	6.0017e-06	5.9671e-06	1388.7	375.56	5.8659e-06	5.9933e-06	428.97	144.5	125.47	43.29	5.9358e-06	53.552	237.215	242.511	253.461	163.528	281.168	320.884	163.490	168.177	302.594	300.511	167.550	171.846	172.501	177.103	328.905	176.285	-8191	255	
25757.062	1	1	0	0	0.11598	0.19599	0.07621	0.074826	0.24263	0.15937	0.099642	0.18891	0.14967	0.040961	0.26119	0.46375	0.20746	0.095676	0.12288	0.2375	-2.1583	-2.8875	-2.4729	-2.9354	-2.7667	-2.5625	-3.0521	-2.8021	-2.7687	-3.0062	-2.8354	-2.7854	-3.0792	-2.55	-3.0083	-2.7292	245.303	187.424	220.439	395.994	271.908	436.972	176.459	437.194	374.030	503.504	414.107	180.143	479.668	501.121	385.282	418.337	0.00054198	0.00075417	0.00014805	1378.4	6.5432e-06	5.5185e-06	1367.4	369.34	5.6896e-06	4.7203e-06	422.45	141.32	122.91	42.165	5.9209e-06	52.2	0.00055621	0.00054049	0.00015178	1389	5.9463e-06	5.9458e-06	1387.9	376.02	5.9692e-06	5.8884e-06	429.41	144.44	125.6	43.242	5.9927e-06	53.622	237.759	236.295	212.915	163.558	307.408	310.928	163.364	168.084	279.487	287.464	167.479	171.764	172.367	176.970	301.508	176.003	-8191	255	
25757.184	1	1	0	0	0.24365	0.023696	0.17149	0.16869	0.20005	0.40246	0.10223	0.32095	0.11881	0.079925	0.029959	0.020141	0.083839	0.10424	0.073041	0.32598	-2.1917	-3.0271	-2.55	-2.9083	-2.9375	-2.6937	-3.0917	-2.6604	-2.6792	-3.0062	-2.8104	-2.8021	-3.0896	-2.6104	-2.9792	-3.0333	240.451	497.833	432.936	471.969	302.837	178.609	265.201	427.631	286.230	187.289	416.904	405.652	152.629	255.784	303.894	428.782	0.00051096	0.00086263	8.4508e-05	1369.8	4.4726e-06	5.1792e-06	1373.4	368.61	5.4288e-06	4.6238e-06	422.6	141.65	122.75	42.153	5.0647e-06	52.046	0.00054828	0.00055744	0.00015147	1389.6	5.7723e-06	5.8177e-06	1390.6	376.08	5.8574e-06	5.9554e-06	429.63	144.54	125.54	43.296	5.9274e-06	53.486	237.450	240.803	242.832	163.790	284.458	310.555	163.216	167.950	294.263	309.565	167.527	171.595	172.480	176.963	304.136	176.051	-8191	255	
25757.279	1	1	0	0	0.11857	0.17275	0.1691	0.28918	0.1092	0.16032	0.37301	0.31101	0.23723	0.32654	0.18001	0.27373	0.11178	0.1451	0.059783	0.3437	-2.1542	-2.8812	-2.625	-2.775	-2.8729	-2.6896	-3.0333	-2.9917	-2.5646	-2.9562	-2.8625	-2.7208	-3.0687	-2.7125	-2.9104	-3.0104	211.780	302.702	200.442	484.299	297.570	488.382	422.432	192.946	382.342	171.742	412.911	478.615	372.453	492.308	449.217	444.497	0.00050048	0.00067744	0.00017539	1374.2	3.564e-06	5.3889e-06	1373.7	370.74	5.4935e-06	4.9817e-06	422.22	141.74	122.92	42.216	5.4883e-06	52.059	0.00053783	0.00054813	0.00015154	1392.7	5.8702e-06	5.8038e-06	1389.6	376.54	5.9276e-06	5.9487e-06	429.9	144.57	125.74	43.346	5.8157e-06	53.572	233.432	256.885	239.468	163.505	306.810	265.004	163.310	168.033	302.003	311.416	167.617	171.690	172.463	176.903	314.707	176.251	-8191	255	
25757.375	1	1	0	0	0.24565	0.34505	0.068675	0.17759	0.25111	0.11465	0.2512	0.244	0.091572	0.11381	0.33234	0.21366	0.09871	0.12386	0.19101	0.19493	-2.3187	-2.9271	-2.5854	-2.4042	-2.9854	-2.5187	-2.9437	-3.0312	-2.4771	-2.9604	-2.9354	-2.7438	-3.0271	-2.6896	-2.7021	-2.8187	453.880	184.584	475.091	489.415	165.044	478.833	447.812	385.389	356.809	151.158	458.198	392.355	454.758	416.767	222.753	415.925	0.00047478	0.00042712	0.00013412	1378.4	3.9931e-06	6.0336e-06	1368.7	370.45	3.6539e-06	5.2134e-06	420.37	140.84	123.03	42.186	5.3041e-06	52.035	0.00054017	0.00054263	0.0001471	1391.3	5.9981e-06	5.8541e-06	1388.8	376.67	5.7591e-06	5.8678e-06	428.59	144.34	125.7	43.297	5.8528e-06	53.58	239.923	215.340	238.581	163.295	302.979	270.371	163.308	167.947	305.968	301.930	167.515	171.961	172.365	176.944	304.670	176.129	-8191	255	
25757.471	1	1	0	0	0.22505	0.12095	0.23138	0.066961	0.032987	0.18946	0.34753	0.24303	0.032762	0.14083	0.1201	0.23332	0.29764	0.28239	0.13647	0.27811	-2.1771	-2.9521	-2.7333	-2.65	-2.8417	-2.7292	-3.0208	-3.0333	-2.7521	-2.8646	-2.9958	-2.8187	-2.9854	-2.7979	-2.775	-2.8708	496.622	411.654	190.274	485.137	484.655	150.469	468.485	210.619	281.492	331.382	367.282	465.040	192.977	463.880	325.752	176.233	0.00050993	0.00079367	0.00014601	1369.5	5.326e-06	5.2053e-06	1369.2	368.74	5.8225e-06	7.0329e-06	422.87	140.73	123.09	42.377	5.5448e-06	52.303	0.00053604	0.00054024	0.00014807	1391.6	5.9441e-06	5.8077e-06	1389.2	376.33	5.7454e-06	5.9009e-06	429.47	144.35	125.82	43.407	5.8512e-06	53.673	237.488	246.901	235.183	163.303	312.454	313.804	163.347	168.001	287.036	268.930	167.570	171.911	172.417	176.783	301.499	176.193	-8191	255	
25757.592	1	1	0	0	0.23622	0.16412	0.20844	0.2897	0.15894	0.16818	0.19113	0.31184	0.15349	0.10521	0.21999	0.17925	0.34195	0.31298	0.092855	0.040112	-2.1396	-2.8583	-2.7687	-2.5771	-2.8729	-2.6813	-3.0187	-2.975	-2.6771	-2.8958	-3.1729	-2.7875	-3.0104	-2.9167	-2.6792	-3.2521	150.164	184.019	405.947	344.100	392.181	464.118	421.284	447.315	165.107	301.520	378.501	458.152	476.121	449.518	408.360	156.074	0.00051813	0.0005275	0.0001176	1378.1	5.5753e-06	4.2212e-06	1371.8	369.83	6.644e-06	4.7896e-06	421.81	141.7	122.88	42.014	4.1427e-06	52.405	0.00054503	0.0005347	0.00014542	1392.4	5.8353e-06	5.8855e-06	1389.3	376.79	5.805e-06	5.7558e-06	429.83	144.66	125.72	43.313	5.7975e-06	53.792	239.592	253.106	237.493	163.228	304.786	296.735	163.454	167.655	315.559	273.408	167.406	171.888	172.372	176.978	299.855	176.219	-8191	255	
25757.664	1	1	0	0	0.21516	0.23652	0.16623	0.12103	0.2101	0.081235	0.24486	0.14066	0.020471	0.17093	0.059658	0.14659	0.090936	0.08837	0.41191	0.32053	-2.3833	-2.8417	-2.9458	-2.5708	-2.9104	-2.8042	-2.8479	-2.9792	-2.6542	-2.6167	-3.1917	-2.4875	-3.0146	-2.8979	-2.6688	-3.0083	256.635	176.975	268.896	425.970	436.070	279.181	415.218	253.687	324.502	308.330	337.922	413.049	399.543	321.004	469.065	478.949	0.00051929	0.00049091	0.00011723	1378.2	4.5016e-06	5.1552e-06	1378.6	369.81	4.7775e-06	5.4644e-06	422.64	141.26	123.29	42.464	6.5205e-06	52.274	0.00053517	0.00052947	0.00014564	1391.9	5.6122e-06	5.6339e-06	1392.9	376.52	5.6497e-06	5.5541e-06	430.11	144.68	125.92	43.461	5.7864e-06	53.734	234.486	211.976	220.135	163.086	316.011	309.187	163.190	168.026	296.067	316.359	167.629	171.783	172.108	176.940	307.521	175.911	-8191	255	
25757.760	1	1	0	0	0.27614	0.34202	0.24136	0.13827	0.10554	0.1346	0.030414	0.32316	0.20915	0.056297	0.44694	0.33875	0.10937	0.15822	0.19723	0.21576	-2.2875	-2.6833	-2.9854	-2.5396	-2.6917	-2.6688	-2.9542	-2.9771	-2.5833	-2.6917	-3.0312	-2.675	-2.8688	-2.8812	-2.675	-2.7896	230.945	410.429	373.264	161.387	192.945	417.921	435.035	448.785	152.477	151.729	406.095	454.795	489.201	150.302	285.440	194.120	0.00050786	0.0005607	0.00014889	1379.9	5.5844e-06	5.0038e-06	1371.3	371.52	6.2317e-06	6.3984e-06	422.96	141.44	123.57	42.153	5.173e-06	52.185	0.00053432	0.00052857	0.0001459	1395.8	5.7966e-06	5.6154e-06	1391.5	377.67	5.6987e-06	5.7888e-06	430.85	144.81	126.23	43.383	5.8066e-06	53.701	239.771	257.773	226.480	163.547	285.058	304.342	163.299	167.932	294.379	302.904	167.552	171.921	172.441	177.166	285.784	176.185	-8191	255	
25757.854	1	1	0	0	0.22954	0.15388	0.22201	0.15475	0.24396	0.23745	0.13989	0.27023	0.26606	0.0090839	0.1536	0.13504	0.19847	0.22555	0.099392	0.31408	-2.05	-2.6083	-2.7958	-2.8042	-2.775	-2.8833	-2.7771	-2.8937	-2.7062	-2.7833	-3.0396	-2.7958	-2.8375	-3.0125	-2.6688	-3.1229	361.959	380.316	273.079	157.372	171.152	259.532	327.517	436.655	354.961	461.077	482.881	161.087	482.906	440.908	285.593	393.688	0.00054992	0.00062549	0.00016276	1379.3	5.6668e-06	6.6254e-06	1373.5	370.97	4.6627e-06	7.5067e-06	422.87	141.93	123.58	42.253	5.1232e-06	52.136	0.00053927	0.00051853	0.0001449	1395.8	5.7569e-06	5.7759e-06	1392.9	378.14	5.7268e-06	5.8075e-06	430.2	145.15	126.03	43.38	5.7766e-06	53.677	238.614	230.263	254.860	163.476	283.413	283.652	163.437	168.064	290.804	292.166	167.523	171.647	172.365	177.010	307.408	176.115	-8191	255	
25757.975	1	1	0	0	0.063973	0.15309	0.11974	0.24146	0.074251	0.12253	0.24692	0.29097	0.19765	0.17866	0.02995	0.068645	0.34889	0.11137	0.15658	0.1499	-2.3563	-2.5021	-2.8312	-2.8125	-2.7562	-2.9729	-2.9437	-3.0521	-2.8396	-2.4354	-2.9708	-2.7854	-2.8167	-2.9188	-2.6271	-2.9396	315.628	367.457	495.848	442.526	377.501	292.426	409.265	447.941	476.494	417.650	212.680	440.026	501.120	196.426	189.500	162.121	0.00050956	0.00049752	0.00018304	1380.5	5.4233e-06	4.5412e-06	1375.4	371.44	5.6561e-06	6.0912e-06	423.83	141.66	123.34	42.333	6.2872e-06	52.484	0.00053919	0.00052428	0.00015062	1399.3	5.9164e-06	5.7124e-06	1393	377.57	5.7207e-06	5.7689e-06	431.6	145.05	126.15	43.453	5.7364e-06	53.801	238.894	239.535	250.462	163.551	294.810	308.072	163.298	167.997	287.154	276.326	167.266	171.719	172.388	177.098	286.799	176.083	-8191	255	
25758.070	1	1	0	0	0.16728	0.049433	0.14223	0.16243	0.12202	0.15813	0.14426	0.13633	0.15283	0.036184	0.24876	0.054536	0.47849	0.24784	0.14801	0.096049	-2.3063	-2.5604	-2.8271	-2.8792	-2.7771	-2.8479	-2.9854	-2.9479	-2.8833	-2.6458	-3.0333	-2.8896	-2.825	-2.9271	-2.6625	-2.775	366.902	229.893	264.900	397.647	317.593	228.416	434.174	419.419	371.183	194.741	481.765	225.516	427.490	478.919	458.868	451.554	0.00051418	0.00030069	7.327e-05	1367.2	2.8588e-06	6.4817e-06	1373.1	370.71	5.404e-06	5.6872e-06	423.6	141.07	123.23	42.279	6.0745e-06	52.419	0.0005367	0.00051926	0.00014725	1392.5	5.8515e-06	5.9087e-06	1393.4	377.17	5.8031e-06	5.7063e-06	430.93	144.78	126.14	43.418	5.8157e-06	53.766	238.928	226.449	277.686	163.372	329.416	309.484	163.088	168.128	297.037	292.856	167.436	172.004	172.527	177.033	322.201	176.406	-8191	255	
25758.168	1	1	0	0	0.18818	0.084658	0.27575	0.22031	0.17192	0.12706	0.29362	0.30437	0.13149	0.054232	0.18513	0.13449	0.13353	0.22387	0.19345	0.15463	-2.4521	-2.6375	-2.7729	-2.7479	-2.6917	-2.9792	-2.8021	-2.9	-3.0354	-2.7896	-3.025	-2.9354	-2.6771	-2.9542	-2.5792	-2.8312	299.265	227.386	307.347	215.105	448.564	152.201	439.520	458.099	198.909	260.898	486.857	425.675	477.727	163.337	360.691	466.613	0.000523	0.00070448	0.00012262	1373.4	5.1929e-06	6.9642e-06	1375.5	370.72	5.45e-06	3.4716e-06	421.67	141.02	122.99	42.235	5.5178e-06	51.992	0.00054238	0.00054392	0.00014606	1393.4	5.886e-06	6.0667e-06	1394	377.45	5.8665e-06	5.8281e-06	430.77	144.72	125.97	43.436	5.9918e-06	53.615	237.429	227.736	275.569	163.429	305.743	297.062	163.345	167.972	301.770	276.929	167.483	171.885	172.306	176.981	308.620	176.303	-8191	255	
25758.264	1	1	0	0	0.17156	0.35873	0.087378	0.1537	0.093122	0.24538	0.26758	0.21314	0.089459	0.2053	0.37397	0.033027	0.22478	0.39205	0.24729	0.19939	-2.5271	-2.3646	-2.8917	-2.8187	-2.6021	-3	-2.9083	-2.75	-2.8854	-2.5646	-2.9813	-2.9313	-2.5125	-3.0396	-2.7583	-2.8625	375.358	285.180	187.074	276.460	453.952	211.028	479.963	164.514	289.664	268.643	490.101	206.487	493.010	486.283	483.991	170.046	0.00049986	0.00047732	0.00013948	1373.2	4.6135e-06	4.8742e-06	1377.3	370.5	4.0502e-06	6.6113e-06	424.84	141.35	123.25	42.253	4.6383e-06	52.174	0.00055471	0.00053653	0.00015095	1392.8	5.9191e-06	5.8829e-06	1393.1	377.29	5.9932e-06	5.9637e-06	431.07	144.8	125.91	43.379	5.9845e-06	53.696	237.241	232.069	226.538	163.428	313.522	276.890	163.268	168.316	285.931	288.338	167.397	171.657	172.358	177.031	294.634	176.209	-8191	255	
25758.359	1	1	0	0	0.063289	0.095233	0.25579	0.050374	0.16991	0.13438	0.23785	0.33425	0.20111	0.14611	0.10453	0.2489	0.20632	0.21495	0.15937	0.19813	-2.2938	-2.5208	-2.7292	-2.9813	-2.7333	-2.9125	-2.975	-2.7646	-3	-2.5896	-2.7875	-3.0333	-2.7	-2.8771	-2.6937	-2.6729	219.300	432.085	444.911	345.527	388.560	205.458	424.692	471.737	335.050	482.016	175.568	445.179	180.322	467.540	271.495	207.858	0.0005374	0.00027077	0.00010817	1377.9	5.991e-06	2.7356e-06	1378.2	371.28	6.3396e-06	5.3129e-06	422.7	141.52	123.46	42.284	5.1326e-06	52.223	0.00056133	0.00053492	0.00015244	1393.7	6.0287e-06	5.863e-06	1394.7	377.19	6.003e-06	6.1201e-06	430.28	144.87	125.84	43.33	6.028e-06	53.646	236.277	240.092	223.675	163.472	344.357	311.860	163.136	168.153	296.294	275.945	167.277	171.905	172.568	177.030	290.878	176.322	-8191	255	
25758.455	1	1	0	0	0.04676	0.46283	0.15262	0.014235	0.14852	0.2112	0.27812	0.33696	0.38152	0.1169	0.18427	0.29015	0.15272	0.29418	0.023736	0.15811	-2.475	-2.65	-2.7917	-3.0042	-2.6417	-2.65	-2.8708	-2.6708	-2.85	-2.8042	-2.9875	-2.9292	-2.6271	-3	-2.7792	-2.725	296.081	199.870	372.691	467.297	411.698	405.668	474.460	488.858	245.628	164.699	433.463	507.588	486.513	166.877	252.595	152.752	0.00052391	0.00041169	0.00014858	1379.8	3.3401e-06	5.8115e-06	1370.2	370.97	3.754e-06	4.9928e-06	420.85	141.27	122.65	42.201	4.7281e-06	52.299	0.00056161	0.00055199	0.00015586	1398.6	6.0632e-06	6.1834e-06	1393.6	377.57	6.136e-06	6.2134e-06	430	144.41	125.78	43.334	6.0496e-06	53.668	236.139	226.215	225.970	163.403	270.844	307.853	163.208	168.198	290.218	305.304	167.284	171.588	172.508	177.101	304.110	176.173	-8191	255	
25758.553	1	1	0	0	0.09842	0.10896	0.16402	0.12764	0.27019	0.020437	0.12719	0.1981	0.066011	0.35212	0.22741	0.43316	0.12956	0.20924	0.16866	0.15098	-2.6146	-2.6104	-2.4917	-2.9	-2.7125	-2.8104	-3.1312	-2.7104	-2.8312	-2.7	-2.7333	-3.0396	-2.6917	-3.0458	-2.7854	-2.7729	467.850	503.210	360.721	352.405	262.215	185.486	427.877	155.852	335.902	327.566	449.817	456.586	468.624	503.171	171.574	260.817	0.00050115	0.00050806	0.00014404	1372.2	2.8691e-06	5.6185e-06	1371.4	370.42	5.5053e-06	6.9505e-06	421.75	141.29	122.98	42.127	6.5133e-06	52.191	0.00055645	0.000572	0.00015346	1393.5	6.049e-06	6.2117e-06	1390.6	377.25	6.102e-06	6.2478e-06	429.68	144.45	125.66	43.299	6.2586e-06	53.528	239.317	231.376	264.828	163.421	292.362	281.909	163.153	168.309	308.815	299.541	167.432	172.018	172.180	177.062	274.175	176.230	-8191	255	
25758.672	1	1	0	0	0.34039	0.083871	0.073975	0.13415	0.078182	0.20528	0.21111	0.37828	0.099143	0.16772	0.15056	0.23391	0.19639	0.34395	0.14408	0.10999	-2.3229	-2.6375	-2.7208	-3.1083	-2.6167	-2.7208	-3.0375	-2.6667	-2.9646	-2.8	-2.7896	-3.0125	-2.6875	-2.8854	-2.8875	-2.8	254.541	426.003	182.253	286.902	441.107	451.698	460.395	439.785	398.634	473.339	499.477	492.445	460.795	172.746	210.856	476.380	0.00052219	0.00036667	0.00017008	1372.4	5.2893e-06	6.2528e-06	1374.3	369.69	5.6174e-06	4.4427e-06	422.94	141.28	122.74	42.171	3.8644e-06	52.09	0.00057364	0.00056784	0.00015648	1395.3	6.2854e-06	6.2391e-06	1392.2	376.56	6.152e-06	6.2053e-06	430.67	144.34	125.75	43.337	6.2555e-06	53.579	237.825	255.059	233.266	163.512	308.753	279.999	163.172	168.044	304.970	336.429	167.455	171.852	172.435	176.958	292.561	176.266	-8191	255	
25758.768	1	1	0	0	0.22848	0.15548	0.16046	0.075741	0.32012	0.16922	0.20362	0.3253	0.16904	0.14368	0.11343	0.16813	0.12076	0.295	0.090988	0.28735	-2.4062	-2.6063	-2.5312	-2.9083	-2.6104	-2.8688	-3.1417	-2.6312	-3.1125	-2.7958	-2.8312	-3.0375	-2.8021	-2.85	-3.0187	-2.6437	243.971	508.362	332.580	313.654	186.721	483.125	473.829	167.000	268.668	435.747	155.001	400.445	180.018	209.538	462.050	443.886	0.00050893	0.00065778	0.00018084	1374.4	4.3494e-06	4.5637e-06	1370.1	370.42	5.4678e-06	8.8959e-06	423.34	141.07	122.95	42.057	3.7675e-06	52.119	0.00055668	0.00056384	0.00015725	1394.3	6.3453e-06	6.1122e-06	1391.8	377.11	6.1059e-06	6.2458e-06	430.92	144.38	125.86	43.255	6.0996e-06	53.553	237.587	245.480	254.288	163.492	279.351	307.099	163.272	168.059	292.909	310.574	167.462	171.868	172.355	177.021	300.207	176.228	-8191	255	
25758.865	1	1	0	0	0.16075	0.115	0.23273	0.064505	0.077433	0.042858	0.19415	0.38604	0.050371	0.1387	0.2944	0.13867	0.095004	0.10421	0.073598	0.24484	-2.5312	-2.8438	-2.5167	-2.9688	-2.4479	-2.7125	-2.9771	-2.7958	-2.7521	-2.75	-2.6437	-2.9271	-2.6604	-2.6271	-2.9875	-2.8146	419.372	313.253	247.666	231.038	500.956	432.057	495.610	449.798	464.098	346.210	425.319	210.678	486.376	468.755	248.002	257.884	0.000487	0.00059192	9.4385e-05	1378.9	4.4418e-06	3.8473e-06	1370.7	370.67	3.9572e-06	5.7033e-06	423.46	141.2	122.98	42.07	4.9917e-06	52.195	0.00056724	0.00057234	0.00015889	1395.1	6.2098e-06	6.3363e-06	1389.9	376.58	6.2471e-06	6.3601e-06	430.28	144.46	125.8	43.28	6.2633e-06	53.541	236.584	239.290	240.808	163.426	296.436	290.690	163.372	167.862	282.760	294.537	167.493	171.558	172.289	177.095	324.540	176.025	-8191	255	
25758.961	1	1	0	0	0.25957	0.21032	0.092803	0.23619	0.23521	0.21671	0.35508	0.27259	0.1361	0.18519	0.19543	0.089588	0.21812	0.20796	0.092082	0.18895	-2.3063	-2.8167	-2.3958	-2.8625	-2.8187	-2.6417	-3.0812	-2.4854	-2.6979	-2.8896	-2.5458	-3.1458	-2.675	-2.5896	-2.6646	-2.8854	348.800	268.217	229.060	157.916	423.227	199.832	458.176	494.772	246.587	423.392	468.429	499.230	170.664	501.528	390.185	474.215	0.0005062	0.00052102	0.00017219	1376.4	3.8877e-06	5.5665e-06	1372.2	372.59	6.1172e-06	4.3281e-06	422.95	141.59	122.67	42.254	3.6978e-06	52.241	0.000569	0.00055144	0.0001606	1395.2	6.1744e-06	6.2609e-06	1391.7	377.29	6.1635e-06	6.1665e-06	429.94	144.85	125.66	43.361	6.1964e-06	53.654	237.967	232.501	234.940	163.398	293.854	286.673	163.103	168.017	299.924	285.515	167.414	171.704	172.154	176.954	286.758	176.166	-8191	255	
25759.055	1	1	0	0	0.42969	0.082321	0.082923	0.029042	0.18183	0.18813	0.2601	0.28593	0.16125	0.17515	0.18216	0.21916	0.27165	0.031304	0.074116	0.29506	-2.3833	-2.8604	-2.4688	-2.9396	-2.8167	-2.725	-3.1792	-2.7021	-2.7	-3.0792	-2.5854	-2.8854	-2.9521	-2.7417	-3.025	-2.7979	302.092	479.016	395.849	317.933	396.542	293.045	421.403	466.041	179.358	410.251	472.144	492.639	187.704	344.091	197.617	331.563	0.00053075	0.00068915	0.00019563	1374.9	4.323e-06	5.6091e-06	1374.5	369.19	4.8873e-06	5.0029e-06	422.35	141.84	122.97	42.329	5.646e-06	52.044	0.00056741	0.00055694	0.00015484	1392.8	6.1341e-06	6.0588e-06	1392.5	376.98	6.1243e-06	6.1381e-06	430.81	144.64	125.79	43.394	6.2719e-06	53.594	235.256	230.053	217.643	163.126	315.544	325.937	163.390	167.965	301.655	297.312	167.144	171.557	172.292	176.828	293.648	176.436	-8191	255	
25759.150	1	1	0	0	0.089786	0.24992	0.30428	0.22047	0.10198	0.15157	0.24124	0.21794	0.24707	0.13923	0.27954	0.013193	0.18774	0.092475	0.39415	0.083481	-2.0625	-2.9354	-2.5312	-2.9396	-2.6437	-2.6042	-3.0687	-2.9	-2.6125	-2.9021	-2.6729	-2.8104	-2.7917	-2.6917	-2.7729	-2.7917	337.370	314.113	166.713	472.216	240.060	464.378	461.383	155.774	211.182	369.541	412.039	481.294	478.853	450.652	170.408	431.356	0.00052845	0.00048605	0.00011445	1371.4	4.6659e-06	4.7407e-06	1377.6	370.4	5.1161e-06	6.729e-06	423.49	141.56	122.99	42.27	6.7856e-06	52.1	0.00056542	0.00056342	0.00016041	1393.3	6.3793e-06	6.2588e-06	1392.4	377.01	6.293e-06	6.2876e-06	430.57	144.63	125.77	43.309	6.192e-06	53.507	237.326	221.718	234.070	163.784	276.217	302.294	163.313	168.107	291.539	295.885	167.712	171.804	172.213	176.944	322.113	176.397	-8191	255	
25759.271	1	1	0	0	0.1503	0.17869	0.14068	0.20985	0.31488	0.13346	0.26131	0.18752	0.29533	0.16194	0.27664	0.14727	0.22783	0.037236	0.057362	0.09568	-2.3292	-2.7562	-2.5375	-2.5896	-2.7125	-2.4771	-2.9813	-2.8625	-2.6771	-2.8542	-2.7333	-2.7542	-2.9792	-2.5771	-2.875	-2.8479	258.596	333.268	485.679	499.891	442.734	409.995	407.426	200.901	466.757	410.070	360.869	488.256	486.252	363.944	343.819	386.829	0.00052406	0.00064887	0.00010507	1375.1	3.5681e-06	7.6158e-06	1373.5	370.2	6.2584e-06	4.1482e-06	422.51	141.51	122.49	42.171	6.2661e-06	52.188	0.0005766	0.00056898	0.00015728	1395.4	6.2411e-06	6.2142e-06	1392.9	376.91	6.2349e-06	6.1455e-06	429.84	144.66	125.54	43.359	6.1944e-06	53.616	240.287	238.550	276.488	163.460	303.804	301.380	163.381	167.932	299.161	314.548	167.470	171.841	172.117	176.917	302.974	176.022	-8191	255	
25759.367	1	1	0	0	0.10084	0.28196	0.24367	0.14686	0.081705	0.1863	0.48189	0.21108	0.18344	0.028611	0.23494	0.15566	0.22125	0.032341	0.17444	0.29117	-2.0979	-2.8896	-2.4896	-2.6604	-2.7833	-2.6771	-2.9125	-2.9979	-2.55	-2.9083	-2.9313	-2.775	-3.1271	-2.6458	-2.9	-2.9042	412.505	390.382	297.421	203.033	247.961	446.435	415.721	427.740	454.264	473.642	392.455	338.153	416.576	269.334	212.575	373.237	0.00052401	0.00066328	0.00016781	1380	4.1876e-06	5.871e-06	1375.5	371.55	6.0521e-06	6.5687e-06	422.11	141.22	123.3	42.182	6.4054e-06	52.232	0.00057525	0.00057086	0.00015894	1395.9	6.0483e-06	6.1296e-06	1392	377.96	6.2401e-06	6.0727e-06	430.77	144.52	126.03	43.296	6.1464e-06	53.657	236.833	246.707	231.994	163.443	303.919	319.598	163.382	167.967	282.708	312.683	167.721	171.866	172.258	176.932	295.576	176.280	-8191	255	
25759.465	1	1	0	0	0.22285	0.13796	0.23496	0.17948	0.17792	0.25852	0.18958	0.1282	0.064699	0.26941	0.10934	0.16397	0.046041	0.35275	0.10762	0.24993	-2.0021	-2.8292	-2.6854	-2.6833	-2.8937	-2.7438	-2.9083	-3.1208	-2.5917	-2.8542	-2.8458	-2.7292	-2.95	-2.7354	-2.8063	-2.8917	264.542	443.663	301.694	339.369	463.337	166.610	481.479	404.858	201.254	390.166	451.606	505.463	505.335	478.514	389.857	445.144	0.00051888	0.00056031	0.00020741	1379.8	3.1129e-06	5.2145e-06	1368.8	371.6	3.954e-06	5.0893e-06	422.5	141.73	122.87	42.178	4.6935e-06	52.095	0.00057623	0.0005564	0.00015615	1395.5	6.1613e-06	6.1388e-06	1391.9	376.98	6.1791e-06	6.1966e-06	431.03	144.87	125.82	43.315	6.1238e-06	53.587	235.996	238.756	224.628	163.317	276.105	324.344	163.323	168.040	298.025	279.978	167.620	171.831	172.229	177.050	302.490	176.341	-8191	255	
25759.561	1	1	0	0	0.19921	0.26984	0.23046	0.024587	0.20082	0.29059	0.113	0.30819	0.12416	0.2667	0.14783	0.26957	0.28995	0.18524	0.096423	0.26562	-2.1292	-2.8979	-2.7979	-2.7125	-3	-2.7812	-2.9208	-3.0875	-2.5083	-2.9833	-2.9542	-2.7125	-3.0563	-2.7792	-2.8583	-2.8979	388.400	206.581	309.005	442.400	202.470	250.177	156.773	172.854	368.906	300.194	210.277	421.993	427.320	157.886	335.582	473.483	0.00052852	0.00064317	0.0001803	1372	5.1284e-06	3.503e-06	1372.9	369.59	4.7639e-06	5.4528e-06	422.76	141.65	123.08	42.004	5.2587e-06	52.216	0.00056567	0.00055392	0.00015695	1392.1	6.1375e-06	6.2808e-06	1391.4	377.05	6.0859e-06	6.0704e-06	430.21	144.71	125.77	43.283	6.4145e-06	53.567	238.687	225.202	235.835	163.313	298.572	307.623	163.320	168.159	296.681	287.845	167.554	171.895	172.438	177.051	316.418	176.022	-8191	255	
25759.656	1	1	0	0	0.047856	0.19287	0.21013	0.18993	0.22203	0.079486	0.3079	0.24375	0.33875	0.12235	0.34035	0.327	0.22251	0.13954	0.20827	0.26334	-2.1063	-2.7917	-2.9208	-2.6146	-2.8208	-2.725	-2.875	-3.0438	-2.5938	-2.8104	-2.8458	-2.6458	-2.925	-2.8688	-2.4792	-3.0375	456.386	219.922	277.391	433.580	451.716	456.381	429.692	181.528	377.828	290.881	434.773	150.904	502.233	481.327	251.725	484.478	0.00054715	0.00054904	0.00011415	1378.9	4.6264e-06	3.927e-06	1368.8	371.28	4.3325e-06	4.1725e-06	424.43	140.91	123.06	42.089	7.7393e-06	52.111	0.00058667	0.00057559	0.000158	1392.7	6.2449e-06	6.3333e-06	1390.9	377.02	6.1188e-06	6.2744e-06	430.76	144.53	125.69	43.287	6.1766e-06	53.648	238.498	247.717	229.633	163.498	298.159	285.472	163.288	167.901	268.272	315.258	167.249	171.876	172.263	176.891	308.424	176.253	-8191	255	
25759.754	1	1	0	0	0.044593	0.14135	0.13861	0.23894	0.19509	0.16215	0.072072	0.14467	0.13281	0.11271	0.08419	0.15195	0.26386	0.18583	0.16363	0.38714	-2.2375	-2.6583	-2.7625	-2.6229	-2.7562	-2.8625	-2.8063	-3.0229	-2.4104	-2.7104	-3.1562	-2.6479	-2.9479	-2.8375	-2.6063	-3.0062	367.185	310.826	398.366	460.753	381.569	349.571	309.018	231.005	185.887	234.741	378.738	470.656	496.746	498.444	264.935	501.656	0.00053742	0.00047207	0.00022178	1365.8	5.8441e-06	5.0868e-06	1371.8	369.37	5.7246e-06	6.3237e-06	423.7	141.98	122.95	42.095	6.4038e-06	52.162	0.00056767	0.00056242	0.00015405	1391.6	6.1201e-06	6.3221e-06	1391.2	376.83	6.1529e-06	6.243e-06	430.74	144.71	125.74	43.385	6.1626e-06	53.618	236.860	237.170	231.739	163.537	328.790	297.325	163.186	168.012	296.759	278.990	167.532	171.937	172.227	177.006	304.341	176.178	-8191	255	
25759.848	1	1	0	0	0.21062	0.036557	0.28965	0.059449	0.066019	0.22518	0.26049	0.038949	0.10955	0.15523	0.041837	0.18543	0.093971	0.215	0.030036	0.091535	-2.2438	-2.5854	-2.8	-2.525	-2.7396	-2.6583	-2.7458	-3.0479	-2.5042	-2.8646	-3.0083	-2.6542	-2.9104	-2.8438	-2.4604	-2.8396	256.550	352.608	365.867	457.801	259.217	414.041	474.639	244.992	455.304	253.491	166.784	507.001	364.420	482.374	360.783	437.011	0.00051356	0.00055241	0.00011425	1372.6	3.4319e-06	5.6081e-06	1368.7	370.07	1.7303e-06	3.6454e-06	423.37	141.11	122.9	42.1	5.7993e-06	52.217	0.00056331	0.00054992	0.00015578	1391.6	6.2152e-06	6.3189e-06	1388.7	376.95	6.1758e-06	6.1561e-06	430.82	144.32	125.64	43.243	6.2226e-06	53.598	235.025	250.794	230.451	163.547	285.709	280.853	163.307	167.929	254.120	311.882	167.353	172.144	172.183	176.999	299.343	176.264	-8191	255	
25759.945	1	1	0	0	0.30196	0.23238	0.051607	0.12489	0.11645	0.12642	0.14315	0.08782	0.23917	0.053435	0.16038	0.28441	0.43213	0.38042	0.06802	0.15459	-2.1458	-2.6083	-2.7042	-2.4875	-2.7313	-2.8542	-2.7792	-3.0021	-2.6437	-2.7646	-3.1021	-2.7958	-2.6917	-2.9854	-2.4313	-3.0646	174.882	215.946	441.123	500.159	373.251	284.218	486.188	222.825	508.600	197.276	354.721	499.200	467.134	508.459	237.392	414.557	0.0005131	0.00048435	0.00011216	1376.9	2.7417e-06	6.1752e-06	1373.6	369.69	4.542e-06	2.779e-06	421.32	140.93	122.36	42.258	6.3886e-06	51.72	0.00056662	0.00055921	0.00015538	1393.5	6.219e-06	6.2131e-06	1391.1	376.6	6.2622e-06	6.2566e-06	429.3	144.29	125.72	43.334	6.1156e-06	53.485	236.254	260.051	245.175	163.230	249.628	293.876	163.307	167.989	304.987	310.007	167.606	171.741	172.129	176.896	323.010	176.287	-8191	255	
25760.064	1	1	0	0	0.05183	0.13694	0.098405	0.18383	0.071279	0.40178	0.48884	0.014042	0.38347	0.26374	0.39891	0.3162	0.1613	0.24188	0.27985	0.10611	-2.3125	-2.4667	-2.8354	-2.575	-2.5979	-2.9437	-2.7	-2.8187	-2.7854	-2.5875	-3.0417	-2.6896	-2.825	-3.0354	-2.7333	-2.9354	367.910	296.049	449.284	466.738	192.670	304.393	440.071	366.889	456.754	487.863	449.939	441.439	300.091	506.672	235.449	430.717	0.00052996	0.00044936	0.00015877	1373.1	4.936e-06	4.0002e-06	1376.5	370.22	6.0193e-06	4.5213e-06	421.27	141.41	122.56	42.191	5.3488e-06	52.277	0.0005621	0.00056663	0.00015617	1391	6.2291e-06	6.147e-06	1389.9	376.9	6.2029e-06	6.194e-06	430.45	144.53	125.65	43.341	6.0411e-06	53.6	238.836	233.635	238.438	163.631	323.703	282.911	163.381	167.983	302.260	292.534	167.568	171.712	172.411	176.986	327.643	176.111	-8191	255	
25760.160	1	1	0	0	0.13444	0.11705	0.12208	0.28035	0.20991	0.36023	0.23237	0.28029	0.10102	0.21223	0.17396	0.39463	0.11925	0.11129	0.036147	0.2177	-2.3042	-2.3646	-2.8479	-2.8063	-2.6375	-2.9771	-2.7062	-2.95	-2.7521	-2.5958	-3.0312	-2.8125	-2.8396	-3.0979	-2.6937	-2.8458	279.850	461.924	249.652	177.585	227.515	429.199	460.460	427.909	329.393	244.074	156.003	204.855	471.569	438.276	465.960	467.332	0.00051342	0.00047951	0.00011385	1379.4	4.1969e-06	5.6998e-06	1370.8	370.05	5.7396e-06	5.3303e-06	421.16	141.32	122.69	42.292	7.0823e-06	52.113	0.0005619	0.00057571	0.00015465	1395.7	6.0805e-06	6.1286e-06	1390.2	376.99	6.1429e-06	6.1303e-06	429.41	144.6	125.68	43.36	6.0078e-06	53.6	238.401	224.923	231.645	163.350	323.697	290.423	163.317	168.137	288.876	297.372	167.498	172.029	172.359	176.793	315.768	176.119	-8191	255	
25760.232	1	1	0	0	0.17226	0.1664	0.1834	0.11332	0.046177	0.051271	0.30145	0.10417	0.30435	0.10259	0.23462	0.32702	0.22578	0.25168	0.0095492	0.13436	-2.2562	-2.6208	-2.8833	-2.775	-2.7	-2.85	-2.6583	-2.9208	-2.7854	-2.6625	-3.0458	-2.7917	-2.6979	-2.8187	-2.6562	-2.8354	152.058	470.891	418.779	279.492	167.058	174.440	483.670	465.727	276.334	466.919	444.069	440.727	454.602	403.966	279.540	394.093	0.00052199	0.00018601	0.00014354	1372.8	5.4549e-06	6.445e-06	1368.6	370.5	5.8551e-06	3.9003e-06	422.38	141.13	122.67	42.18	4.2286e-06	51.884	0.00055718	0.00055926	0.00015819	1392.4	6.158e-06	6.1289e-06	1387.9	377.27	6.1513e-06	5.9967e-06	430.34	144.38	125.7	43.283	6.2822e-06	53.439	238.534	261.860	254.753	163.783	301.459	279.044	163.316	167.949	300.227	296.892	167.681	171.780	172.456	177.016	319.997	176.162	-8191	255	
25760.352	1	1	0	0	0.063604	0.14033	0.11477	0.17531	0.14405	0.18874	0.14045	0.16219	0.18916	0.27332	0.18034	0.068772	0.1739	0.3157	0.21774	0.23204	-2.4604	-2.5292	-2.7521	-2.7333	-2.4688	-3.0146	-2.7104	-2.7687	-2.9708	-2.6542	-2.8958	-2.9021	-2.7833	-3.075	-2.7	-2.7313	416.851	277.511	191.178	341.850	233.967	225.485	464.624	455.199	417.660	441.363	408.050	481.658	163.747	419.318	251.252	157.384	0.00050881	0.00033098	9.6766e-05	1372.4	4.4339e-06	7.7731e-06	1373.9	370.15	5.6745e-06	4.0282e-06	423.48	141.49	122.45	42.207	4.4204e-06	52.02	0.00057161	0.00056269	0.00015956	1390.8	6.3147e-06	6.2279e-06	1391	377.16	6.2241e-06	6.2148e-06	430.89	144.65	125.69	43.299	6.3001e-06	53.515	236.263	240.104	235.117	163.271	301.909	288.641	163.483	168.190	303.868	268.803	167.688	171.663	172.261	176.823	272.147	176.012	-8191	255	
25760.449	1	1	0	0	0.18959	0.13867	0.13816	0.2468	0.20262	0.16263	0.37898	0.34829	0.25186	0.13857	0.36627	0.14902	0.11994	0.21617	0.17305	0.40017	-2.3125	-2.5917	-2.7396	-2.6354	-2.4938	-2.9229	-2.9021	-2.9417	-2.8688	-2.5958	-2.8292	-2.8792	-2.7458	-2.8917	-2.6167	-2.6958	212.924	453.513	223.859	482.922	466.269	366.757	436.544	152.803	368.016	366.394	163.071	440.004	459.615	460.084	432.580	495.639	0.00054361	0.0008916	0.0001322	1370.6	5.1089e-06	5.7316e-06	1373.7	371.56	4.2233e-06	4.8282e-06	421.46	140.64	122.55	42	4.5164e-06	52.376	0.00057144	0.00057761	0.00015616	1390.9	5.9751e-06	6.2284e-06	1390.5	377.6	6.027e-06	6.1367e-06	430.67	144.37	125.76	43.275	6.1402e-06	53.679	235.819	229.383	239.212	163.228	304.443	309.965	163.274	168.198	287.590	299.090	167.522	172.143	172.487	176.641	318.085	176.165	-8191	255	
25760.545	1	1	0	0	0.067409	0.12758	0.16788	0.096448	0.32568	0.18627	0.14582	0.4666	0.30263	0.043905	0.18017	0.09702	0.072429	0.1831	0.27166	0.10353	-2.4604	-2.5625	-2.7146	-2.975	-2.4771	-2.9229	-2.8021	-2.8083	-3.1396	-2.6792	-2.8563	-2.9875	-2.5563	-2.9167	-2.7792	-2.7792	416.425	296.586	160.168	251.740	168.374	211.695	448.668	417.062	195.212	394.356	156.302	171.294	496.998	448.740	456.551	165.086	0.0005017	0.00049356	0.00015177	1372.1	3.315e-06	4.6251e-06	1376.4	371.06	3.3699e-06	4.816e-06	422.81	140.92	123.03	42.117	4.0748e-06	52.379	0.00055858	0.00057311	0.00015584	1391.5	6.0688e-06	6.2384e-06	1390.3	377.09	6.0864e-06	6.1164e-06	430.17	144.45	125.7	43.248	6.1962e-06	53.58	237.987	249.143	215.596	163.808	320.125	304.590	163.407	167.968	305.187	311.218	167.389	172.021	172.424	177.084	281.797	176.571	-8191	255	
25760.664	1	1	0	0	0.17228	0.19236	0.042044	0.14939	0.10785	0.11204	0.15202	0.46383	0.024287	0.22307	0.42233	0.23276	0.2081	0.343	0.16024	0.23719	-2.4604	-2.6958	-2.7542	-3.05	-2.625	-2.8333	-3.0875	-2.8208	-3.0167	-2.6688	-2.8896	-3.0708	-2.8146	-2.8542	-2.6979	-2.6146	168.850	260.213	480.483	486.169	151.513	237.835	431.493	464.852	479.920	204.135	468.627	492.636	465.882	161.057	472.604	433.671	0.00050051	0.00055172	0.00018345	1372.6	2.0994e-06	4.7117e-06	1362.9	369.38	6.4189e-06	5.221e-06	423.05	141.18	123.29	42.085	4.2429e-06	52.073	0.00055305	0.00055909	0.00015314	1389.6	5.9997e-06	6.0193e-06	1387.1	376.76	5.9945e-06	6.1601e-06	431.08	144.9	125.93	43.312	6.202e-06	53.549	239.221	231.067	233.786	163.444	306.819	309.305	163.360	168.135	284.768	330.429	167.351	171.519	172.210	176.963	289.821	176.241	-8191	255	
25760.762	1	1	0	0	0.17692	0.091766	0.14435	0.345	0.30677	0.25948	0.29061	0.28239	0.23057	0.2897	0.25837	0.045135	0.15491	0.36009	0.37174	0.11998	-2.4979	-2.4875	-2.5563	-2.9062	-2.6583	-2.8083	-2.9375	-2.5312	-2.8708	-2.8458	-2.8083	-2.9271	-2.7833	-2.8146	-2.9167	-2.8	223.217	451.105	291.509	433.186	225.257	495.050	426.933	462.788	361.129	295.310	451.743	493.386	478.876	449.642	335.927	451.740	0.00050989	0.00056968	0.00016648	1374.9	4.1104e-06	6.3836e-06	1372	370.05	4.222e-06	3.7875e-06	423.71	141.48	123.27	42.37	5.5738e-06	52.116	0.00055481	0.00056763	0.00015427	1390	6.2634e-06	6.2177e-06	1389	377.09	6.0669e-06	6.0993e-06	430.61	144.81	125.9	43.38	5.9247e-06	53.706	239.386	221.821	240.629	163.625	273.373	331.081	163.330	168.067	286.937	301.805	167.294	171.676	172.538	177.017	306.898	176.193	-8191	255	
25760.832	1	1	0	0	0.15769	0.36655	0.18941	0.15683	0.073504	0.29624	0.17112	0.17431	0.11874	0.22928	0.11163	0.18396	0.085925	0.023823	0.24292	0.10512	-2.3833	-2.5812	-2.6917	-2.8688	-2.5687	-2.7333	-3.2083	-2.9771	-2.7917	-2.8125	-2.7125	-2.9792	-2.8083	-2.8375	-3.0854	-2.7208	339.639	167.947	460.991	478.174	419.663	227.153	464.383	381.687	170.209	396.129	171.888	400.457	247.039	354.456	390.876	456.560	0.00049889	0.00057449	0.00015529	1369.4	4.0114e-06	8.8336e-06	1371	370.84	5.8347e-06	5.8616e-06	422.24	141.77	123.42	42.171	3.8054e-06	52.373	0.00055107	0.00055165	0.00015187	1392.6	6.0044e-06	6.0592e-06	1390.6	377.28	6.0552e-06	6.0573e-06	430.79	144.84	125.74	43.306	6.1398e-06	53.652	234.690	246.805	230.241	163.150	268.738	285.648	163.408	168.116	287.932	277.014	167.493	171.860	172.321	176.820	285.066	176.130	-8191	255	
25760.951	1	1	0	0	0.18475	0.16298	0.31783	0.15454	0.044686	0.25215	0.32699	0.2442	0.21083	0.20332	0.05333	0.29076	0.16325	0.084992	0.3874	0.11462	-2.4062	-2.7167	-2.5479	-2.9437	-2.6979	-2.725	-2.9417	-2.7208	-2.825	-2.7729	-2.825	-2.9229	-2.9083	-2.7417	-3.0083	-2.7104	293.304	466.437	246.835	242.858	330.584	229.687	509.127	156.657	325.220	461.026	172.619	413.012	395.510	235.793	488.829	468.155	0.00053665	0.00039632	0.00015506	1364.8	5.4812e-06	7.0633e-06	1367.4	369.24	5.5322e-06	5.4788e-06	423.71	140.81	123.32	42.081	6.8222e-06	52.132	0.00056639	0.00055394	0.00015611	1388.1	6.1879e-06	6.1219e-06	1388.8	376.88	6.0781e-06	6.1159e-06	430.17	144.63	125.87	43.34	6.1133e-06	53.651	235.347	223.378	221.509	163.570	307.524	292.094	163.177	167.983	277.317	289.242	167.305	171.850	172.168	177.091	321.253	176.130	-8191	255	
25761.049	1	1	0	0	0.088476	0.32276	0.18429	0.30033	0.18224	0.12541	0.30562	0.31436	0.22383	0.053235	0.1599	0.29872	0.36616	0.16636	0.35579	0.12511	-2.2958	-2.9042	-2.5	-2.9292	-2.6417	-2.5979	-3.025	-2.7812	-2.7333	-2.8208	-2.8458	-2.9125	-2.8146	-2.7104	-2.8792	-2.8667	298.983	340.749	229.130	253.923	273.843	402.986	414.010	436.360	189.535	466.393	461.643	454.979	378.353	481.365	153.099	458.975	0.00050838	0.00080244	0.00015528	1379.4	5.8668e-06	4.9488e-06	1374.1	371.48	5.85e-06	6.7533e-06	422.91	142.27	123.32	42.37	6.1052e-06	52.379	0.00056822	0.00056219	0.00015618	1394.7	6.0888e-06	6.1602e-06	1391.1	378.02	6.0519e-06	6.0727e-06	430.6	145.14	125.98	43.442	5.943e-06	53.749	235.552	230.920	214.403	163.678	286.742	298.225	163.256	167.970	282.465	278.866	167.431	171.865	172.290	176.855	311.085	176.166	-8191	255	
25761.145	1	1	0	0	0.19506	0.1282	0.37842	0.15931	0.11259	0.1126	0.40959	0.18859	0.10819	0.22212	0.24798	0.074828	0.26501	0.071682	0.17055	0.14261	-2.2062	-2.8021	-2.4708	-3.0146	-2.6271	-2.5917	-3.0687	-2.8604	-2.7604	-2.9104	-2.5187	-2.975	-2.9188	-2.7875	-2.9667	-2.8354	466.321	398.734	246.441	263.048	400.232	485.470	408.720	488.760	429.674	376.066	161.222	459.718	157.437	447.684	329.558	312.954	0.00053413	0.00058447	0.00017916	1381.5	3.543e-06	4.9393e-06	1376	370.98	5.4736e-06	6.8277e-06	423.94	142.18	123.5	42.28	5.9884e-06	52.369	0.00056723	0.00055149	0.00015237	1396.4	6.1055e-06	5.9922e-06	1393.5	377.77	5.9973e-06	6.0866e-06	431.56	145.2	126.25	43.427	6.1013e-06	53.795	238.963	238.713	230.431	163.379	311.886	313.004	163.359	168.059	303.846	311.196	167.662	171.592	172.210	176.963	334.429	176.137	-8191	255	
25761.240	1	1	0	0	0.3242	0.11161	0.24635	0.13765	0.14638	0.1102	0.20417	0.35234	0.21616	0.17904	0.16623	0.20235	0.25201	0.040998	0.24988	0.27221	-2.1458	-2.925	-2.5625	-2.9333	-2.8521	-2.7687	-2.9938	-2.9333	-2.6417	-3.1583	-2.7375	-3.0312	-2.9146	-2.7708	-2.8688	-2.7854	219.551	165.690	150.112	453.092	425.096	275.576	393.369	437.110	453.110	206.527	475.265	363.785	496.069	376.038	336.401	450.043	0.00051767	0.0002179	0.00012146	1371.9	2.405e-06	5.9578e-06	1375.3	371.08	6.552e-06	5.4879e-06	423.78	141.88	123.25	42.282	4.1771e-06	52.24	0.00055624	0.00053157	0.00015062	1393.1	5.9713e-06	5.9135e-06	1394.1	377.9	5.9759e-06	5.9833e-06	431.62	145.23	126.33	43.474	5.8928e-06	53.749	237.284	205.835	231.683	163.562	318.546	278.936	163.130	167.990	298.808	292.499	167.655	171.771	172.515	177.045	301.373	176.328	-8191	255	
25761.361	1	1	0	0	0.01387	0.09724	0.12891	0.23618	0.13609	0.29046	0.20565	0.1882	0.17072	0.061569	0.21656	0.32706	0.25609	0.12492	0.26891	0.23897	-2.3875	-2.7583	-2.325	-2.9104	-2.9583	-2.8479	-3.1146	-2.8792	-2.6583	-3.0687	-2.6562	-2.8354	-2.8854	-2.5604	-2.8229	-2.8542	262.410	268.235	228.591	171.535	228.130	376.587	499.041	173.547	233.463	292.088	424.203	484.233	478.253	231.894	458.087	159.550	0.00051392	0.00028798	0.0001518	1377.1	4.0396e-06	3.6931e-06	1377.1	372.16	6.4589e-06	5.0287e-06	422.76	141.9	123.56	42.234	5.5494e-06	52.354	0.00055202	0.00054328	0.00015149	1395.3	5.9062e-06	5.8688e-06	1393.2	378.04	5.8641e-06	5.9011e-06	431.14	145.19	126.26	43.441	6.0762e-06	53.784	235.557	215.160	230.642	163.403	320.394	298.918	163.306	168.239	298.628	285.070	167.630	171.952	172.325	176.651	298.971	176.003	-8191	255	
25761.457	1	1	0	0	0.14228	0.25004	0.076455	0.15809	0.037262	0.082011	0.27613	0.18763	0.13608	0.11337	0.2074	0.21462	0.052281	0.23123	0.057527	0.11842	-2.0958	-2.875	-2.5604	-2.7729	-2.9854	-2.6375	-3.1125	-2.9521	-2.6083	-2.9271	-2.8063	-2.65	-2.975	-2.825	-2.8063	-2.9813	159.659	265.895	150.153	443.442	321.183	421.785	391.847	394.727	261.951	343.998	465.077	466.146	375.720	478.236	301.238	433.264	0.00052389	0.00032998	0.00012312	1380.1	2.1752e-06	6.2154e-06	1378.4	371.39	5.144e-06	4.3702e-06	425.09	141.48	123.21	42.196	5.1341e-06	52.37	0.00054993	0.00054965	0.00015168	1397.4	5.9763e-06	6.005e-06	1394.6	378.05	5.9118e-06	6.145e-06	431.69	145.23	126.39	43.455	6.1682e-06	53.77	239.179	272.945	229.223	163.583	320.515	311.497	163.407	168.087	307.520	317.197	167.309	171.927	172.620	176.925	297.194	176.137	-8191	255	
25761.529	1	1	0	0	0.13941	0.22861	0.24015	0.17569	0.22484	0.11151	0.097294	0.26029	0.15883	0.1912	0.35447	0.35844	0.27948	0.13911	0.20799	0.19136	-2.0792	-2.8271	-2.7333	-2.8063	-2.8729	-2.7125	-3.0271	-3.0146	-2.4708	-2.925	-2.7458	-2.9458	-3.0583	-2.8542	-3.0021	-2.9979	465.314	454.123	205.492	479.985	240.107	420.471	413.067	445.730	427.392	369.597	396.982	179.246	166.067	451.681	159.306	347.030	0.0005251	0.00049495	0.00012154	1381.3	3.5842e-06	3.408e-06	1375.9	370.97	3.9104e-06	6.8169e-06	424.64	141.39	123.57	42.318	4.8231e-06	52.157	0.00055133	0.00054615	0.00015447	1394.5	6.0278e-06	6.1191e-06	1393.9	378.01	6.1834e-06	6.0374e-06	431.66	145.04	126.17	43.499	6.1182e-06	53.782	236.899	245.435	214.271	163.602	298.119	288.396	163.310	168.138	307.752	318.199	167.443	172.075	172.232	176.731	296.531	176.219	-8191	255	
25761.625	1	1	0	0	0.14169	0.20195	0.20623	0.1259	0.051884	0.036266	0.10277	0.41883	0.27975	0.18886	0.20709	0.27069	0.11103	0.069733	0.12949	0.22354	-2.2833	-2.8104	-2.9646	-2.6375	-2.9562	-2.6854	-2.975	-3.0563	-2.6771	-2.8542	-3.0771	-2.55	-2.9708	-2.7458	-2.8542	-3.0979	263.427	467.248	266.335	361.232	179.061	307.802	460.284	486.604	506.570	498.272	395.738	458.613	407.691	452.947	315.020	458.789	0.00049866	0.00038258	0.00015356	1374.1	3.745e-06	6.1402e-06	1374.2	371.01	5.5073e-06	4.1918e-06	422.38	141.34	122.9	42.459	4.3017e-06	52.136	0.00054789	0.00055619	0.00014709	1393.1	5.9193e-06	5.9681e-06	1393.5	377.54	5.9826e-06	6.0425e-06	430.74	145.12	126.05	43.442	6.0585e-06	53.647	238.612	258.964	244.944	163.613	303.512	314.694	163.327	168.073	287.003	305.414	167.569	171.823	172.277	177.015	319.491	176.105	-8191	255	
25761.744	1	1	0	0	0.25093	0.2507	0.28622	0.16779	0.038754	0.13574	0.40031	0.17971	0.15445	0.26527	0.087334	0.089086	0.16587	0.27259	0.10392	0.22488	-2.2729	-2.8167	-2.7542	-2.6354	-3.0083	-2.6083	-2.8438	-2.9333	-2.5333	-2.8729	-3.0083	-2.6	-2.9292	-2.625	-2.4896	-3.0854	184.279	500.303	285.044	156.798	214.957	386.841	452.637	465.325	236.720	335.326	493.209	371.748	247.366	463.921	383.703	343.494	0.00051077	0.00065117	0.00011731	1367.7	3.8393e-06	5.9324e-06	1371.8	370.36	4.6225e-06	7.5547e-06	424.33	141.39	123.33	42.249	5.3654e-06	52.22	0.00055027	0.00055815	0.00015362	1390.3	6.2832e-06	6.198e-06	1392.4	377.39	6.0398e-06	6.1649e-06	431.36	144.93	126.18	43.393	6.0509e-06	53.686	236.801	238.616	252.979	163.169	308.843	287.470	163.311	168.126	301.264	281.723	167.521	171.731	172.291	177.134	276.113	176.311	-8191	255	
25761.840	1	1	0	0	0.22095	0.14696	0.12311	0.24492	0.26679	0.23338	0.23228	0.018257	0.23158	0.0845	0.54496	0.23424	0.036352	0.28342	0.1199	0.25997	-2.0938	-2.825	-2.6813	-2.6312	-2.8063	-2.7812	-2.8271	-3.2	-2.5625	-2.8	-3.2	-2.7521	-2.9625	-2.8458	-2.7104	-3.0812	171.549	303.602	438.018	163.183	252.949	360.724	433.428	396.710	506.809	332.981	459.639	490.069	262.645	477.718	205.173	462.723	0.00052351	0.00045886	0.00016203	1371.7	4.43e-06	6.0881e-06	1374.7	371.15	4.4468e-06	4.6635e-06	423	141.8	123.09	42.295	3.5007e-06	52.396	0.00056123	0.00057184	0.00015419	1393.8	6.0832e-06	6.1634e-06	1392	377.89	6.0266e-06	6.0154e-06	431.19	145.09	126.07	43.372	5.9905e-06	53.704	239.386	245.502	249.585	163.424	320.789	280.237	163.473	168.178	287.496	280.973	167.475	171.828	172.367	176.943	296.000	176.328	-8191	255	
25761.936	1	1	0	0	0.10623	0.2262	0.13561	0.08915	0.05675	0.045862	0.43306	0.10367	0.034552	0.17163	0.091283	0.52276	0.091318	0.14966	0.14119	0.35237	-2.3104	-2.6333	-2.9042	-2.5187	-2.8958	-2.8229	-2.8667	-3.0938	-2.725	-2.8729	-3.0812	-2.6562	-2.9417	-2.9	-2.6	-3.0417	464.449	271.246	373.381	302.789	181.682	477.039	438.650	480.826	295.178	375.062	231.262	489.675	495.763	355.636	429.995	443.836	0.00052413	0.00046342	0.00013155	1379.1	4.6542e-06	4.4943e-06	1374.2	370.98	4.8166e-06	2.6284e-06	421.58	141.43	123.63	42.315	5.1903e-06	52.266	0.00055768	0.00055653	0.00015189	1394.7	6.0814e-06	6.0351e-06	1391	377.84	6.0461e-06	6.1337e-06	430.61	145.09	126.15	43.349	6.1989e-06	53.661	239.106	228.121	259.308	163.516	275.266	280.817	163.327	167.977	272.619	308.121	167.456	171.801	172.673	176.893	295.005	176.130	-8191	255	
25762.031	1	1	0	0	0.054666	0.096138	0.20228	0.23823	0.17523	0.052246	0.088293	0.2246	0.14408	0.26108	0.37435	0.14514	0.13599	0.094178	0.12567	0.21559	-2.4125	-2.6125	-2.9188	-2.7104	-2.9021	-2.9	-2.75	-3.1146	-2.8667	-2.7479	-2.9021	-2.6708	-2.9896	-2.9417	-2.5042	-3.0792	175.040	189.210	479.433	271.038	186.755	484.511	459.095	414.524	348.720	202.580	490.999	183.132	187.645	465.484	329.988	403.844	0.00050658	0.00064525	0.00015168	1374.1	5.0104e-06	5.3285e-06	1369.4	371.43	4.9251e-06	4.4285e-06	423.35	141.84	122.7	42.307	6.1781e-06	52.033	0.00055388	0.00055405	0.00014963	1394.7	6.1325e-06	6.0207e-06	1389.6	377.64	5.9033e-06	6.1688e-06	431.22	145.05	125.74	43.341	5.9952e-06	53.593	236.407	239.207	228.753	163.340	272.003	302.942	163.114	168.074	314.607	308.806	167.659	171.931	172.332	176.997	292.864	176.124	-8191	255	
25762.129	1	1	0	0	0.063205	0.28457	0.18495	0.16975	0.11338	0.19064	0.08995	0.21775	0.040519	0.28177	0.041609	0.23346	0.092253	0.25483	0.2393	0.16224	-2.275	-2.6479	-2.8458	-2.6646	-2.7146	-2.8187	-3.0646	-3.0354	-2.7292	-2.7292	-2.9688	-2.8333	-2.7354	-2.975	-2.4729	-3.0229	152.364	189.429	241.126	189.459	169.243	220.802	464.137	480.427	321.763	466.443	236.154	463.782	184.178	423.523	172.946	467.794	0.00051351	0.00044058	0.00015469	1367.3	3.4363e-06	2.8091e-06	1370	371.72	5.4507e-06	3.5676e-06	423.58	141.38	123.03	42.353	6.117e-06	52.431	0.00055785	0.00055346	0.00015186	1387	5.9803e-06	6.0767e-06	1388.2	377.42	5.9783e-06	6.075e-06	430.4	144.83	125.96	43.414	5.9836e-06	53.791	238.033	263.881	228.977	163.498	314.553	307.728	163.225	168.040	296.092	299.565	167.497	171.622	172.591	176.892	290.254	176.398	-8191	255	
25762.225	1	1	0	0	0.19643	0.11252	0.27043	0.12181	0.10725	0.25149	0.21915	0.35649	0.087646	0.083348	0.14944	0.14183	0.32292	0.24951	0.19796	0.37167	-2.3958	-2.5812	-2.975	-2.6958	-2.7188	-2.8292	-2.7208	-2.9542	-2.7229	-2.6667	-2.9396	-2.8271	-2.7771	-3.0729	-2.7333	-2.8083	379.143	296.078	335.967	188.996	307.382	255.757	403.660	497.581	469.106	311.196	487.442	437.419	494.384	158.297	359.772	481.992	0.000517	0.00047128	9.9193e-05	1376.9	4.5605e-06	3.286e-06	1374.1	371.06	5.0816e-06	6.1376e-06	424.21	141.76	123.73	42.211	7.0215e-06	52.196	0.00056171	0.00054553	0.00015322	1392.3	6.1821e-06	6.1361e-06	1391.2	377.72	6.1221e-06	6.0452e-06	431.61	144.98	126.17	43.356	5.9605e-06	53.666	236.445	233.244	231.814	163.412	298.517	309.503	163.261	168.086	292.555	326.109	167.336	171.869	172.280	177.165	307.698	176.327	-8191	255	
25762.346	1	1	0	0	0.22518	0.11869	0.20624	0.21649	0.14924	0.33405	0.26257	0.32382	0.16094	0.25299	0.13587	0.3861	0.22736	0.086369	0.026002	0.080406	-2.5354	-2.5938	-2.7313	-2.6417	-2.6167	-2.8438	-2.6375	-3.0271	-2.7792	-2.5604	-2.9854	-2.7875	-2.7062	-2.9875	-2.6271	-3.0062	359.396	212.129	376.166	163.397	493.716	299.859	478.751	446.756	470.047	378.173	200.596	509.247	164.059	164.611	397.097	234.768	0.00048847	0.00056967	0.00010266	1376.9	3.3714e-06	4.3938e-06	1371.6	372.13	4.8479e-06	3.5934e-06	424.18	142.01	123.19	42.264	5.7548e-06	52.293	0.00055098	0.00054372	0.00015192	1392.3	5.9319e-06	5.9326e-06	1390.3	377.76	5.8332e-06	6.0448e-06	431.59	144.87	126.02	43.381	5.9503e-06	53.66	236.958	249.212	222.520	163.618	315.887	288.182	163.423	168.058	277.839	309.573	167.582	171.831	172.302	176.714	324.808	176.284	-8191	255	
25762.441	1	1	0	0	0.13336	0.17002	0.30912	0.08563	0.27236	0.074979	0.16846	0.23849	0.11783	0.21722	0.28098	0.13268	0.17102	0.34381	0.21871	0.14453	-2.4188	-2.6521	-2.9417	-2.9167	-2.4333	-2.975	-2.8792	-2.9771	-2.8729	-2.6896	-2.8958	-2.9437	-2.7792	-3.1479	-2.6229	-2.8417	373.960	296.928	456.634	440.407	348.241	299.731	460.465	156.636	389.250	479.874	456.439	188.063	187.968	430.821	227.948	471.739	0.0005238	0.00048287	0.00016555	1371	4.9146e-06	6.3063e-06	1372.5	371.38	4.7401e-06	4.865e-06	423.42	141.98	123.4	42.102	4.75e-06	52.311	0.00055437	0.00055367	0.00015178	1390.7	6.0195e-06	6.1033e-06	1390	378.05	5.7535e-06	5.8565e-06	431.02	144.9	126.22	43.33	6.0309e-06	53.74	237.370	241.002	258.977	163.474	306.581	308.205	163.173	167.915	276.598	303.959	167.567	171.837	172.316	177.083	303.155	176.427	-8191	255	
25762.537	1	1	0	0	0.14276	0.14186	0.13379	0.16899	0.082143	0.19402	0.30562	0.18016	0.29908	0.17917	0.40064	0.29235	0.061311	0.16045	0.1286	0.20425	-2.1667	-2.6917	-2.7104	-2.8896	-2.4479	-3.0125	-2.9188	-2.9167	-2.8583	-2.7104	-2.9125	-3.025	-2.7375	-3.2354	-2.6479	-2.6604	253.791	326.831	191.208	394.931	204.060	315.905	387.215	474.829	260.988	222.343	450.692	457.004	365.029	151.024	452.038	362.327	0.00051095	0.00052158	0.00015477	1372.2	5.0648e-06	5.1837e-06	1371	370.27	6.6057e-06	6.9359e-06	423.47	141.88	123.8	42.371	5.4138e-06	52.539	0.00055563	0.00054501	0.00015321	1391.8	5.8193e-06	5.9862e-06	1389	377.43	5.9458e-06	5.9316e-06	430.83	144.99	126.22	43.42	5.9701e-06	53.754	236.876	227.906	235.023	163.615	287.823	296.865	163.311	168.142	299.784	302.334	167.513	171.601	172.249	177.159	310.169	176.323	-8191	255	
25762.635	1	1	0	0	0.11733	0.082428	0.17695	0.090404	0.324	0.078148	0.2236	0.36777	0.12913	0.083787	0.15957	0.16044	0.074396	0.36739	0.27468	0.10412	-2.7125	-2.4896	-2.8292	-2.7042	-2.6271	-2.9792	-3.1042	-2.8896	-2.9667	-2.7687	-2.8792	-2.9729	-2.7	-2.8812	-2.8563	-2.6813	188.273	267.385	207.289	393.669	326.453	252.209	402.366	479.928	475.821	234.884	451.363	373.077	153.605	161.619	443.436	155.031	0.00053082	0.00054293	0.00013484	1372.4	4.9688e-06	5.7218e-06	1372.8	370.37	3.8008e-06	6.3887e-06	423.02	142.19	122.87	42.142	7.7757e-06	52.147	0.00055182	0.00053476	0.00015117	1393.9	5.9902e-06	5.9321e-06	1390.7	377.26	5.9934e-06	5.9743e-06	430.71	144.86	125.8	43.401	6.0063e-06	53.659	237.446	228.879	193.487	163.447	268.491	316.488	163.430	168.266	294.793	292.840	167.247	171.787	172.349	176.942	311.625	176.347	-8191	255	
25762.754	1	1	0	0	0.11005	0.1075	0.060028	0.07166	0.17911	0.24679	0.29715	0.35145	0.15929	0.051492	0.21615	0.11154	0.15149	0.12253	0.054068	0.24517	-2.6771	-2.6875	-2.6917	-2.9188	-2.6458	-2.9417	-2.9417	-2.8042	-3.0521	-2.7583	-2.7167	-3.0708	-2.6958	-2.9542	-2.9479	-2.7333	445.462	291.605	193.552	237.917	254.722	219.537	423.473	501.158	171.136	241.650	385.322	373.928	161.432	213.256	451.702	472.287	0.00052632	0.00046475	0.0001681	1380.2	4.1148e-06	4.3983e-06	1368.7	371.17	3.8381e-06	3.7443e-06	422.23	141.58	123.33	42.295	5.2402e-06	52.317	0.0005459	0.00053803	0.0001513	1393.2	5.8756e-06	5.9878e-06	1389.3	377.94	5.9098e-06	5.924e-06	431.6	144.97	126.11	43.378	5.8228e-06	53.743	235.975	244.361	230.659	163.464	280.602	297.751	163.263	168.105	292.346	309.438	167.729	171.765	172.329	177.079	325.228	176.008	-8191	255	
25762.824	1	1	0	0	0.13931	0.20678	0.11318	0.10016	0.059623	0.086777	0.18666	0.24533	0.2051	0.21532	0.24498	0.20094	0.087038	0.031311	0.12366	0.11958	-2.3729	-2.5438	-2.5938	-3.0563	-2.6896	-2.8083	-2.9458	-2.7417	-2.9417	-2.8	-2.7771	-2.9167	-2.7292	-2.8833	-2.7896	-2.7083	485.921	238.525	409.923	483.912	498.710	351.364	486.890	393.088	470.343	274.045	417.214	491.879	459.371	495.693	333.752	421.309	0.00052689	0.00055225	0.00018623	1374.3	6.2678e-06	5.3515e-06	1371.7	370.9	5.4253e-06	5.8731e-06	422.77	141.95	123.4	42.307	6.2315e-06	52.243	0.00055728	0.00054582	0.00015055	1392.2	5.9727e-06	5.9873e-06	1390.6	377.79	5.9367e-06	5.9145e-06	431.03	144.83	126.06	43.388	5.8061e-06	53.7	237.054	218.986	241.032	163.574	308.073	296.911	163.394	168.113	286.796	292.912	167.598	171.748	172.231	177.017	307.664	176.109	-8191	255	
25762.920	1	1	0	0	0.19365	0.16728	0.13432	0.13468	0.13053	0.31069	0.22173	0.20678	0.17062	0.1296	0.2153	0.19265	0.16568	0.21872	0.061115	0.078629	-2.4271	-2.7479	-2.6083	-3.0708	-2.7771	-2.7604	-3.2708	-2.7479	-2.8312	-2.8625	-2.5833	-2.9188	-2.65	-2.8958	-2.8479	-2.7125	232.306	184.105	237.961	337.635	165.720	200.493	490.361	399.098	506.739	253.228	174.754	157.548	473.469	343.494	234.181	220.508	0.00050827	0.00073306	0.00012034	1376.4	5.882e-06	8.5591e-06	1370.4	371.85	3.9701e-06	5.8856e-06	422.12	141.74	123.34	42.373	4.6633e-06	52.346	0.00055001	0.00054107	0.00014874	1395.4	5.8495e-06	5.992e-06	1389.2	377.61	5.9744e-06	5.8727e-06	430.65	144.93	126.16	43.472	5.919e-06	53.678	238.097	230.799	255.014	163.525	295.675	290.339	163.320	168.001	290.596	335.677	167.489	171.702	172.216	177.075	286.168	176.170	-8191	255	
25763.018	1	1	0	0	0.13191	0.11272	0.28043	0.16057	0.13166	0.25786	0.18663	0.34938	0.24807	0.14004	0.010455	0.18303	0.21458	0.093225	0.14868	0.083639	-2.2917	-2.9146	-2.4792	-2.8333	-2.7021	-2.7188	-3.15	-2.8229	-2.7583	-2.8125	-2.6979	-3.0792	-2.725	-2.8542	-2.9021	-2.7938	351.398	454.035	397.180	153.092	433.700	162.331	450.117	494.457	329.794	399.684	322.762	420.732	388.262	159.536	420.512	418.832	0.00054165	0.00049257	0.0001844	1370.1	5.4541e-06	6.3909e-06	1371.7	370.41	7.7976e-06	5.5922e-06	423.56	141.35	123.33	42.13	4.8373e-06	52.409	0.0005457	0.00054053	0.00015311	1394.2	5.8718e-06	5.8966e-06	1390.1	377.47	5.9098e-06	5.7502e-06	431.16	144.97	126.13	43.365	5.8639e-06	53.771	238.721	260.309	213.849	163.522	302.613	307.254	163.460	168.017	283.328	274.548	167.301	171.731	172.370	176.899	313.009	176.203	-8191	255	
25763.137	1	1	0	0	0.16221	0.13524	0.19222	0.06563	0.072816	0.14835	0.33086	0.072103	0.25409	0.010356	0.039991	0.19638	0.29972	0.095027	0.12078	0.36726	-2.3417	-2.7833	-2.4437	-2.9583	-2.675	-2.7125	-3.1813	-2.8458	-2.8854	-2.7854	-2.8083	-3.0042	-2.8063	-2.6104	-2.8104	-2.6396	356.122	329.357	441.230	364.606	214.233	233.141	450.099	150.105	497.978	291.765	333.420	507.929	460.645	182.534	509.187	433.306	0.00050706	0.00050264	0.00014246	1376.7	3.35e-06	7.8272e-06	1370	371.71	3.8236e-06	6.5088e-06	422.12	141.53	122.81	42.523	5.9407e-06	52.155	0.00055514	0.00053105	0.0001483	1393.7	5.917e-06	5.982e-06	1390.5	377.82	5.9311e-06	5.8267e-06	430.26	145.05	126.04	43.474	5.9338e-06	53.72	238.531	267.473	233.681	163.572	287.502	306.666	163.268	168.008	286.253	271.744	167.697	171.730	172.323	177.128	305.321	176.087	-8191	255	
25763.232	1	1	0	0	0.15434	0.19643	0.25962	0.10473	0.030852	0.067785	0.23202	0.2104	0.0391	0.1673	0.25315	0.087117	0.253	0.087836	0.13788	0.029511	-2.3771	-2.9437	-2.4229	-2.8187	-2.7146	-2.6312	-3.0833	-2.7729	-2.7271	-2.9167	-2.6833	-2.8063	-3.0187	-2.7917	-2.9583	-2.7021	278.453	289.092	240.272	196.416	177.241	225.028	395.005	412.257	273.862	255.004	477.250	165.769	505.903	483.598	451.781	417.301	0.00051905	0.00044018	0.00013659	1378	3.8487e-06	6.2365e-06	1372.5	371.26	5.8768e-06	6.103e-06	422.68	141.93	123.62	42.226	4.6826e-06	52.288	0.00054077	0.00053567	0.00014946	1392.5	5.8934e-06	5.9184e-06	1389.6	377.39	5.816e-06	5.7207e-06	430.66	145.22	126.29	43.437	5.9041e-06	53.712	237.893	213.557	222.541	163.311	304.700	285.149	163.221	168.081	285.780	307.880	167.586	171.886	172.250	177.114	305.924	176.048	-8191	255	
25763.330	1	1	0	0	0.23582	0.17185	0.11637	0.12095	0.21853	0.14851	0.2319	0.16428	0.19387	0.08977	0.079688	0.23128	0.073271	0.32366	0.11173	0.1578	-2.3375	-2.9396	-2.5438	-2.8771	-2.8667	-2.5812	-3.0896	-2.7958	-2.425	-2.8604	-2.6729	-2.8563	-2.8979	-2.7042	-2.8125	-2.7104	444.776	198.956	383.060	491.279	441.350	467.446	481.451	473.968	289.149	355.154	439.541	429.511	499.153	439.039	505.849	216.031	0.00055246	0.0004785	0.00014813	1373	1.0136e-06	6.3583e-06	1370.1	369.35	4.6303e-06	5.123e-06	424.71	141.71	123.6	42.372	6.3607e-06	52.462	0.00054636	0.0005352	0.00014982	1392.1	5.8074e-06	5.966e-06	1389.1	377.34	5.915e-06	5.926e-06	431.65	145.07	126.27	43.409	5.9472e-06	53.75	235.281	233.571	245.974	163.474	275.741	294.874	163.374	168.015	301.986	293.614	167.394	171.795	172.424	176.984	298.327	176.329	-8191	255	
25763.426	1	1	0	0	0.16601	0.16337	0.16464	0.039304	0.058504	0.11768	0.17248	0.13824	0.057898	0.14294	0.42672	0.20432	0.33319	0.21208	0.16669	0.12427	-2.2292	-2.9	-2.6063	-2.8688	-2.8792	-2.6417	-3.2958	-2.8125	-2.6146	-2.8896	-2.875	-2.7979	-2.8708	-2.6333	-2.8167	-2.8729	462.119	177.108	344.106	509.210	195.512	261.439	441.101	369.906	161.422	277.699	475.261	492.397	471.292	459.818	444.428	475.176	0.00049956	0.00032953	0.00013698	1380.8	4.8114e-06	5.3585e-06	1366.8	371.05	4.828e-06	4.8454e-06	424.48	141.63	123.46	42.242	4.8191e-06	52.41	0.00054448	0.00053715	0.00015172	1393.4	5.8693e-06	5.9182e-06	1389	377.5	5.7894e-06	5.7976e-06	431.89	145.23	126.18	43.408	5.8166e-06	53.85	238.365	239.585	249.399	163.466	306.901	301.321	163.294	168.069	299.189	314.021	167.317	171.883	172.321	177.009	333.618	176.221	-8191	255	
25763.521	1	1	0	0	0.061218	0.067891	0.11946	0.092458	0.13719	0.056391	0.22897	0.12779	0.092133	0.15805	0.26489	0.17565	0.22956	0.11362	0.21201	0.22348	-2.1188	-2.9167	-2.6271	-2.9417	-2.9667	-2.5125	-3.2125	-2.9396	-2.8021	-3.1083	-2.6354	-2.8937	-2.9417	-2.7021	-2.7271	-3.0208	157.493	357.648	175.334	496.485	436.942	344.829	498.762	227.088	334.812	421.527	405.981	220.837	173.713	174.494	222.435	505.638	0.000514	0.00052386	0.00016267	1372.6	5.4362e-06	7.2735e-06	1373	371.81	4.3245e-06	4.5035e-06	422.61	141.2	123.37	42.208	4.8272e-06	52.308	0.00054679	0.00053063	0.00015001	1391.3	5.9436e-06	5.9263e-06	1391.3	377.93	5.9155e-06	5.8514e-06	431.16	144.98	126.04	43.438	5.9498e-06	53.738	238.055	222.339	234.806	163.530	305.400	294.027	163.459	167.975	279.825	317.273	167.329	171.627	172.279	176.984	319.510	176.033	-8191	255	
25763.617	1	1	0	0	0.26549	0.086717	0.054139	0.22297	0.049716	0.088534	0.12542	0.2096	0.16981	0.11808	0.19047	0.038433	0.56663	0.32759	0.15237	0.12216	-2.2188	-2.925	-2.6042	-2.6792	-2.8771	-2.6917	-3.0792	-2.7854	-2.5229	-2.9021	-2.7292	-2.6125	-3.2021	-2.7958	-2.8438	-2.9958	499.742	383.493	269.672	425.684	475.963	420.988	440.123	482.670	455.073	441.653	428.460	481.711	476.048	488.964	447.550	187.048	0.00051156	0.00061294	0.00011411	1373.6	5.1202e-06	3.2756e-06	1370.1	369.72	5.3479e-06	6.9404e-06	424.36	141.78	123.15	42.272	4.3909e-06	52.073	0.00054714	0.00054463	0.00014832	1390.6	5.9934e-06	5.9876e-06	1390.9	377.58	5.9246e-06	5.9674e-06	431.42	145.02	126.08	43.363	5.9676e-06	53.661	239.084	239.287	245.894	163.457	305.869	271.938	163.491	168.129	284.656	302.346	167.695	171.829	172.265	177.040	317.856	176.258	-8191	255	
25763.715	1	1	0	0	0.15281	0.16043	0.32174	0.13823	0.22711	0.10381	0.20898	0.28424	0.28862	0.086939	0.35928	0.010815	0.15402	0.19383	0.16554	0.34543	-2.2646	-2.7271	-2.6188	-2.8354	-2.9792	-2.7438	-2.9125	-2.9167	-2.5354	-2.8688	-3.0563	-2.75	-3.0667	-2.7625	-2.5917	-3.0771	275.643	171.792	243.192	444.777	473.257	307.356	449.386	482.091	292.710	464.477	416.761	301.507	362.561	411.755	462.232	414.728	0.00053122	0.00049475	0.00013002	1378.9	4.0693e-06	5.9968e-06	1376	370.67	4.0234e-06	3.403e-06	424.26	141.64	123.04	42.438	5.6603e-06	52.398	0.00054264	0.00053407	0.00014945	1392.8	5.756e-06	5.8678e-06	1390.9	377.57	5.8024e-06	6.0898e-06	431.15	145.09	126.04	43.457	5.9556e-06	53.813	236.770	233.647	225.380	163.575	330.835	316.403	163.422	168.061	298.851	309.641	167.379	171.926	172.083	176.924	313.685	176.337	-8191	255	
25763.832	1	1	0	0	0.24909	0.11738	0.11102	0.081614	0.13069	0.10513	0.019999	0.12882	0.20699	0.17668	0.24597	0.048532	0.097473	0.20653	0.25286	0.146	-2.2812	-2.7646	-2.8167	-2.6729	-2.9437	-2.7625	-2.9021	-3.0938	-2.6	-2.8458	-2.9104	-2.6708	-3.0312	-2.7687	-2.5208	-3.0479	303.234	327.639	348.140	384.638	316.385	461.282	167.925	486.353	222.662	354.939	164.522	279.534	172.304	423.839	200.488	413.770	0.00053487	0.00048602	0.00019524	1371.3	2.4298e-06	6.2788e-06	1373.8	369.98	3.8656e-06	5.5971e-06	423.55	142.14	123.42	42.328	5.6569e-06	52.054	0.00054525	0.00054028	0.00015154	1390.4	5.8488e-06	6.0504e-06	1389.5	376.59	5.899e-06	5.8928e-06	430.79	145.02	126.32	43.435	5.9281e-06	53.625	237.637	238.269	234.343	163.749	306.435	309.397	163.315	167.929	292.315	321.612	167.448	171.652	172.366	177.009	322.899	176.109	-8191	255	
25763.930	1	1	0	0	0.19007	0.12493	0.19234	0.15525	0.26869	0.16768	0.12059	0.14743	0.25868	0.12927	0.22881	0.36532	0.14427	0.12015	0.18128	0.34884	-2.0729	-2.825	-2.7667	-2.6229	-2.8792	-2.7667	-2.825	-2.9729	-2.5875	-2.7938	-2.9042	-2.7938	-2.9396	-2.6875	-2.6437	-2.9854	334.458	334.251	285.199	431.056	454.268	445.029	420.849	396.577	160.065	480.728	157.453	497.506	451.878	387.615	303.698	175.354	0.00052316	0.00044984	8.9805e-05	1373	4.7943e-06	6.8043e-06	1371.4	372.11	5.3168e-06	5.1968e-06	424.85	141.87	122.86	42.459	6.2004e-06	52.414	0.00055771	0.00053772	0.00014825	1392	5.9785e-06	5.8741e-06	1389.4	377.84	6.0433e-06	6.063e-06	431.78	145.04	125.99	43.494	5.8816e-06	53.754	239.071	237.756	229.072	163.251	315.524	322.011	163.264	168.101	309.328	290.168	167.445	171.801	172.527	176.907	304.751	176.314	-8191	255	
25764.025	1	1	0	0	0.29474	0.051697	0.19367	0.13537	0.19051	0.27792	0.32841	0.23902	0.36813	0.14947	0.11617	0.25207	0.16176	0.078486	0.1957	0.15018	-2.1729	-2.7021	-2.8563	-2.7292	-2.9917	-2.7479	-2.5729	-3.2375	-2.7687	-2.8125	-3.2104	-2.6229	-2.9313	-2.8604	-2.5833	-3.0583	466.341	412.555	332.283	407.000	293.267	167.876	478.089	419.090	250.275	158.862	439.136	468.854	499.595	473.468	383.325	490.370	0.00051197	0.00056578	0.00015266	1374.8	4.4319e-06	4.0212e-06	1369.8	370.12	3.918e-06	8.1432e-06	422.9	141.56	123.77	42.4	5.4089e-06	52.164	0.00053586	0.00053374	0.00014981	1391.9	6.1084e-06	5.8824e-06	1391.3	377.51	5.9436e-06	6.075e-06	431.5	144.96	126.07	43.4	5.8463e-06	53.688	234.801	227.858	274.973	163.400	278.856	311.598	163.360	167.950	304.248	282.805	167.463	171.960	172.205	177.143	294.842	176.237	-8191	255	
25764.121	1	1	0	0	0.31127	0.087834	0.15363	0.27901	0.24708	0.095244	0.18498	0.2558	0.20105	0.073057	0.22084	0.032026	0.15363	0.32396	0.097651	0.1437	-2.1688	-2.7104	-2.9417	-2.625	-2.5458	-2.7812	-2.7396	-3.1063	-2.6854	-2.7375	-3.0208	-2.5417	-2.9083	-2.9271	-2.5479	-2.9167	356.944	295.134	164.907	492.398	409.422	415.851	505.291	411.480	392.514	452.936	422.735	434.144	420.690	504.523	161.747	440.211	0.00049842	0.00069565	0.00012059	1374.2	3.851e-06	3.7876e-06	1370.1	371.1	5.8788e-06	7.3723e-06	421.48	141.55	122.74	42.202	6.0989e-06	52.229	0.00054516	0.00053007	0.00014582	1393.1	6.017e-06	6.0196e-06	1388.7	377.31	5.8368e-06	5.8579e-06	430.9	144.95	125.97	43.403	5.911e-06	53.682	238.195	231.867	246.647	163.313	299.743	313.003	163.530	168.183	291.245	264.439	167.422	171.764	172.269	176.954	321.553	176.268	-8191	255	
25764.219	1	1	0	0	0.067921	0.25428	0.33343	0.097349	0.19147	0.33595	0.46207	0.24412	0.18848	0.1925	0.13673	0.58898	0.2224	0.40546	0.23003	0.067211	-2.3146	-2.5708	-2.7979	-2.5229	-2.6417	-2.9375	-2.6729	-2.9729	-2.7354	-2.6208	-3.1458	-2.5	-2.7229	-2.9333	-2.4583	-3.0167	228.487	178.692	251.044	447.115	373.585	426.570	361.032	465.812	173.204	393.900	488.169	441.819	184.783	205.453	227.162	407.713	0.00052749	0.00045382	0.00013358	1379.4	4.414e-06	4.7272e-06	1374.3	371.18	5.0908e-06	5.4686e-06	423.7	141.64	123.27	42.272	5.6043e-06	52.045	0.00054928	0.00053303	0.00014741	1396.2	6.0526e-06	5.9054e-06	1389.4	377.37	5.8117e-06	5.9087e-06	431.32	144.93	126.11	43.363	5.9205e-06	53.62	236.805	236.332	238.502	163.517	309.322	299.197	163.175	167.995	302.714	300.443	167.514	171.802	172.122	177.009	290.794	176.308	-8191	255	
25764.314	1	1	0	0	0.23266	0.11406	0.27228	0.2684	0.08899	0.10015	0.25543	0.12029	0.33115	0.083329	0.11552	0.046567	0.20065	0.28789	0.12855	0.10352	-2.4583	-2.6979	-2.9417	-2.6208	-2.7271	-2.8958	-2.8083	-2.9437	-2.9083	-2.6979	-3.0458	-2.6792	-2.8104	-3.0896	-2.6562	-2.8563	395.391	349.325	345.108	470.800	471.234	476.264	427.756	439.341	168.585	219.417	497.402	302.167	499.426	458.997	214.290	361.734	0.00053467	0.00051845	0.00015837	1372.4	3.8769e-06	6.0917e-06	1371.7	369.91	3.9769e-06	5.0614e-06	421.67	141.47	123.23	42.429	5.3239e-06	52.397	0.00055377	0.00052951	0.00014974	1389.6	6.1334e-06	6.0247e-06	1390.3	377.39	5.9571e-06	5.9628e-06	431.11	144.92	126.06	43.427	5.9927e-06	53.85	235.182	237.898	205.050	163.057	334.497	299.516	163.239	168.260	289.944	294.647	167.113	171.775	172.145	177.051	292.865	176.151	-8191	255	
25764.434	1	1	0	0	0.15101	0.21039	0.19202	0.25887	0.19167	0.16355	0.35646	0.23683	0.15833	0.34112	0.20012	0.24425	0.3734	0.22315	0.17927	0.24728	-2.2833	-2.5604	-2.8896	-2.8417	-2.5229	-2.9979	-2.9938	-3.0271	-2.95	-2.7646	-3.0229	-2.8021	-2.6437	-3.0062	-2.7167	-3.075	331.925	270.962	504.506	381.108	342.093	186.904	458.571	454.525	502.890	211.582	347.191	200.958	490.141	184.525	201.028	499.371	0.00050097	0.00057405	0.00012149	1370.8	5.9452e-06	3.8921e-06	1374.9	371.36	5.3368e-06	5.1584e-06	423.88	141.23	123.6	42.397	3.7324e-06	52.423	0.00055022	0.00052843	0.00014858	1390.8	5.9299e-06	5.9026e-06	1390.7	378.07	5.6807e-06	5.802e-06	431.17	144.66	126.18	43.465	5.7153e-06	53.736	237.816	238.914	248.609	163.269	304.213	278.895	163.312	168.185	286.601	300.220	167.415	171.932	172.310	176.880	314.511	176.397	-8191	255	
25764.531	1	1	0	0	0.33381	0.087542	0.1842	0.17489	0.078366	0.023344	0.15418	0.074967	0.17113	0.15083	0.08232	0.17753	0.1673	0.26767	0.029527	0.1698	-2.3417	-2.5833	-2.8542	-2.8229	-2.7146	-2.9208	-2.9167	-3.0604	-2.8771	-2.6146	-3.0875	-3.0062	-2.8021	-2.9688	-2.6333	-2.825	237.604	191.260	349.986	477.828	435.804	476.936	319.686	370.695	205.265	251.358	427.551	251.177	470.869	154.778	381.776	426.436	0.00051112	0.0005263	0.00016098	1373.4	3.308e-06	3.2917e-06	1370.4	371.59	3.9299e-06	6.0973e-06	421.79	141.43	123.4	42.39	4.6333e-06	52.178	0.00054385	0.00054755	0.00015011	1395.2	5.8013e-06	5.9465e-06	1389.2	377.66	5.8085e-06	5.7777e-06	430.93	144.97	126.16	43.491	5.7566e-06	53.676	235.838	239.682	233.555	163.481	289.758	305.659	163.301	168.200	300.710	288.160	167.622	171.748	172.480	177.058	300.585	176.323	-8191	255	
25764.627	1	1	0	0	0.26424	0.18539	0.10227	0.17969	0.13483	0.15423	0.24562	0.18406	0.14088	0.11907	0.18505	0.26702	0.23859	0.16	0.049256	0.042284	-2.2646	-2.6229	-2.8021	-2.725	-2.4271	-3.0062	-2.9	-2.8896	-3.0771	-2.55	-2.8438	-2.9688	-2.7188	-2.8583	-2.7	-2.8083	316.500	494.477	344.139	158.552	202.822	430.318	494.882	407.840	503.989	249.009	383.409	167.638	430.160	460.983	333.642	507.689	0.00049109	0.00073656	0.00013745	1371.6	4.1807e-06	4.0903e-06	1370.5	371.31	5.3044e-06	3.8296e-06	423.69	141.64	123.91	42.268	6.3373e-06	52.258	0.00054454	0.00053763	0.00014663	1388.7	5.9254e-06	5.8978e-06	1390.3	377.93	5.7654e-06	5.8771e-06	430.66	145.17	126.35	43.412	5.8705e-06	53.735	237.970	226.460	224.639	163.295	309.806	280.632	163.453	168.164	307.443	319.518	167.478	171.905	172.348	177.212	308.209	176.297	-8191	255	
25764.723	1	1	0	0	0.22038	0.10824	0.10521	0.24191	0.10431	0.010059	0.16093	0.19032	0.041399	0.11793	0.12554	0.26503	0.21311	0.13069	0.16462	0.17563	-2.3646	-2.7271	-2.6833	-2.9437	-2.6312	-2.8937	-3.0896	-2.8063	-2.9938	-2.6771	-2.8563	-2.7979	-2.6896	-3.1208	-2.6479	-2.7146	242.547	184.499	210.920	388.312	413.841	254.739	501.869	447.784	396.928	444.565	174.704	495.613	367.575	248.537	332.299	462.707	0.00053293	0.00050859	0.0001713	1374.8	4.9887e-06	6.85e-06	1371.5	371.58	5.3878e-06	6.29e-06	424.17	142.02	123.32	42.483	6.439e-06	52.04	0.00054944	0.00052942	0.00014826	1392.9	5.8445e-06	5.8873e-06	1389.9	377.93	5.7619e-06	5.8877e-06	431.15	145.2	126.13	43.508	5.7186e-06	53.696	238.918	247.780	234.567	163.431	295.741	301.615	163.311	167.858	293.601	302.746	167.570	171.802	172.516	176.844	312.669	176.366	-8191	255	
25764.816	1	1	0	0	0.32242	0.087714	0.090783	0.04092	0.14382	0.10482	0.29018	0.26191	0.20358	0.065907	0.32858	0.25321	0.25817	0.093945	0.42797	0.18932	-2.4396	-2.8521	-2.7854	-2.9396	-2.6042	-3.0583	-2.9417	-2.6542	-2.8771	-2.6292	-2.8396	-3.0104	-2.7771	-3.0104	-2.9938	-2.6063	237.680	298.322	381.304	174.658	154.658	276.922	457.931	404.049	156.271	187.320	474.307	470.304	180.622	450.012	414.934	454.193	0.00050602	0.0004085	0.00021075	1382.9	4.639e-06	6.5314e-06	1372.9	370.21	5.623e-06	3.8559e-06	424.75	141.94	123.85	42.343	4.2536e-06	52.325	0.00053143	0.00052797	0.00014546	1392.1	5.7754e-06	5.7497e-06	1391.6	377.5	5.8843e-06	5.7932e-06	431.34	145.14	126.3	43.507	5.7262e-06	53.76	236.005	213.860	242.173	163.628	296.271	283.567	163.378	168.006	282.185	295.070	167.614	171.922	172.156	177.141	335.407	176.454	-8191	255	
25764.912	1	1	0	0	0.21687	0.13966	0.13396	0.19049	0.064594	0.11677	0.13377	0.12085	0.085736	0.18394	0.35617	0.35853	0.30138	0.15934	0.1468	0.11421	-2.5625	-2.6042	-2.6375	-2.9167	-2.5271	-2.8688	-3.0083	-2.6437	-3.1021	-2.8438	-2.7667	-3.0896	-2.6458	-2.8438	-2.9229	-2.6854	266.811	438.990	311.247	430.028	339.072	487.268	405.446	475.645	290.707	170.325	506.078	464.570	331.060	465.344	310.557	204.660	0.0005269	0.00037054	0.00014315	1377.4	3.8699e-06	5.2698e-06	1370.3	371.72	4.4073e-06	5.8285e-06	421.53	141.61	123.71	42.251	5.1096e-06	52.272	0.00054334	0.00052607	0.00014375	1392.8	5.6444e-06	5.9152e-06	1389.5	377.64	5.7942e-06	5.7082e-06	430.7	145.22	126.28	43.426	5.8899e-06	53.713	237.505	238.623	213.198	163.416	309.253	290.418	163.251	167.901	294.093	303.061	167.400	171.800	172.335	176.799	303.907	176.160	-8191	255	
25765.010	1	1	0	0	0.33795	0.28361	0.18735	0.30005	0.19662	0.048355	0.48571	0.26442	0.12492	0.085499	0.14507	0.24779	0.059156	0.10258	0.1771	0.25008	-2.4292	-2.5812	-2.675	-2.9833	-2.5104	-2.5229	-2.9208	-2.8	-2.9146	-2.8167	-2.7229	-3.0187	-2.7542	-2.8125	-2.8583	-2.625	395.496	251.063	210.365	477.718	277.136	213.356	432.696	464.662	378.722	254.636	171.369	477.083	171.446	349.346	412.987	445.978	0.00047905	0.00038912	0.00014418	1373.2	3.8717e-06	5.175e-06	1366.2	371.47	7.1733e-06	3.9776e-06	424.3	141.72	123.3	42.263	5.1218e-06	52.442	0.00054802	0.0005344	0.00015106	1390.6	5.8069e-06	6.0697e-06	1388.6	377.76	5.9599e-06	5.9022e-06	431.41	145.03	126.11	43.388	5.8563e-06	53.675	236.995	246.566	251.803	163.503	311.212	298.963	163.224	168.122	308.807	292.356	167.603	171.968	172.252	176.903	282.235	176.318	-8191	255	
25765.105	1	1	0	0	0.16934	0.12586	0.17259	0.086048	0.30043	0.079724	0.23591	0.57219	0.21855	0.23778	0.23391	0.15587	0.28212	0.061034	0.12349	0.17426	-2.4083	-2.7938	-2.6854	-3.0146	-2.6083	-2.8333	-3.0792	-2.7729	-2.9146	-2.8208	-2.8104	-3.1312	-2.8292	-2.6375	-2.9125	-2.7021	225.829	471.332	445.676	235.702	325.647	284.241	157.207	458.354	286.690	248.706	374.484	249.788	503.493	439.881	435.196	475.590	0.00052155	0.00061121	0.00016286	1373.4	4.6654e-06	6.6344e-06	1372.6	370.46	6.4055e-06	6.6322e-06	424.72	141.67	122.92	42.264	4.7978e-06	52.21	0.00054596	0.00053655	0.00014862	1391.6	5.9323e-06	6.0398e-06	1390.5	377.57	5.8895e-06	5.9186e-06	430.95	145.13	125.95	43.375	5.9705e-06	53.606	237.166	223.426	216.550	163.447	290.364	294.957	163.443	168.152	283.202	277.515	167.289	171.841	172.315	176.951	319.793	176.082	-8191	255	
25765.227	1	1	0	0	0.13478	0.13222	0.10212	0.16823	0.050724	0.14004	0.45932	0.34101	0.095215	0.32684	0.19191	0.19046	0.36059	0.18391	0.22825	0.26684	-2.3333	-2.7938	-2.4833	-2.9979	-2.7396	-2.7438	-3.0458	-2.575	-2.6792	-2.8	-2.7354	-2.9813	-2.7812	-2.8	-2.8937	-2.7979	319.281	261.309	297.876	486.725	321.039	249.146	454.119	150.263	409.043	308.733	159.610	501.949	161.143	501.189	151.651	459.411	0.0005034	0.00039987	0.00022151	1369.8	4.8277e-06	3.4455e-06	1374.6	370.36	4.4662e-06	7.8169e-06	423.64	141.26	123.11	42.459	5.7692e-06	52.326	0.00055394	0.00053922	0.00014849	1391.4	5.9774e-06	5.8885e-06	1391.1	377.52	5.9924e-06	5.8537e-06	430.94	144.94	125.99	43.406	5.9647e-06	53.734	235.664	227.167	249.948	163.453	306.027	300.826	163.235	167.931	288.740	278.549	167.308	171.821	172.305	176.919	313.884	176.098	-8191	255	
25765.299	1	1	0	0	0.23661	0.079855	0.10622	0.24534	0.15118	0.25546	0.23994	0.2041	0.16408	0.06471	0.14894	0.14041	0.020253	0.12469	0.11802	0.16999	-2.3521	-2.7438	-2.4167	-2.7812	-2.6917	-2.6937	-3.0833	-2.7958	-2.6312	-2.9375	-2.6125	-2.8458	-2.9896	-2.7083	-2.9896	-2.6396	387.346	311.286	368.226	503.922	400.967	341.181	476.910	490.971	317.679	215.887	426.286	422.558	367.383	457.626	156.575	327.973	0.00053036	0.0006942	0.00015313	1371.7	4.478e-06	4.715e-06	1366.1	371.64	3.5299e-06	7.0679e-06	421.84	141.67	122.89	42.346	3.5393e-06	51.804	0.0005553	0.00054344	0.00014935	1390.5	6.0121e-06	6.1351e-06	1388	377.93	6.0281e-06	5.9069e-06	430.71	144.76	125.91	43.375	6.1122e-06	53.4	234.868	242.693	231.179	163.586	298.442	284.103	163.292	168.159	285.983	299.548	167.477	171.968	172.228	176.806	326.260	176.395	-8191	255	
25765.395	1	1	0	0	0.063693	0.11006	0.27487	0.044731	0.17301	0.082116	0.53351	0.45001	0.22708	0.069483	0.21192	0.33546	0.36933	0.10757	0.093864	0.11074	-2.1167	-2.9083	-2.4958	-2.9958	-2.7229	-2.5271	-3.1104	-2.9042	-2.725	-2.9208	-2.7458	-3.0021	-2.8646	-2.5229	-2.9083	-2.8458	496.074	469.866	268.353	487.729	161.732	365.873	480.819	452.414	251.740	350.224	432.407	507.777	497.918	390.562	300.477	228.608	0.00053036	0.00029552	0.00020417	1372.4	4.5044e-06	5.8157e-06	1369.5	370.27	5.1522e-06	5.1361e-06	421.73	141.42	123.34	42.188	4.841e-06	52.163	0.00056155	0.00054209	0.00015123	1388.4	5.9517e-06	6.0089e-06	1387.7	377.44	6.032e-06	5.9032e-06	430.15	144.81	125.94	43.315	6.2164e-06	53.481	238.135	217.968	245.096	163.135	292.173	308.746	163.146	167.873	317.678	292.040	167.427	171.937	172.046	176.847	327.783	176.234	-8191	255	
25765.516	1	1	0	0	0.11821	0.12545	0.12384	0.1956	0.21562	0.16674	0.28669	0.17057	0.12357	0.0039453	0.11744	0.22697	0.25764	0.15704	0.070297	0.19002	-2.2521	-3.0958	-2.5729	-2.9813	-3.1146	-2.6708	-3.0875	-2.8833	-2.7771	-2.9	-2.8792	-2.9167	-3.1104	-2.8167	-2.9833	-2.8708	228.586	239.992	353.123	362.325	467.295	190.609	457.413	460.179	455.463	252.514	418.738	417.057	475.490	407.289	425.550	456.467	0.00050039	0.00067156	0.00012731	1374.6	4.4643e-06	7.2171e-06	1369.3	371.13	5.2464e-06	6.862e-06	421.41	141.33	122.98	42.09	4.2466e-06	52.069	0.00055016	0.00054017	0.00015337	1391.5	5.8547e-06	5.9655e-06	1386.9	377.48	5.9872e-06	6.0841e-06	430.26	144.53	125.8	43.238	5.9885e-06	53.54	237.777	222.106	247.991	163.489	278.271	264.414	163.249	168.005	276.070	303.463	167.392	171.714	172.168	176.924	297.869	176.357	-8191	255	
25765.611	1	1	0	0	0.2707	0.20248	0.055648	0.28464	0.11096	0.13712	0.27075	0.34805	0.42464	0.10037	0.27928	0.15884	0.19864	0.18164	0.194	0.23208	-2.2625	-2.8979	-2.6063	-2.7938	-2.8812	-2.7604	-3.1104	-2.9125	-2.6667	-2.9896	-2.7833	-2.8354	-3.1042	-2.5771	-2.8583	-2.9375	400.173	414.135	155.057	487.229	416.613	468.244	408.784	446.259	172.076	369.795	419.729	451.934	504.014	501.857	166.797	485.854	0.00053719	0.0004645	0.00015517	1374.7	4.609e-06	3.0703e-06	1373.7	369.8	5.3878e-06	6.6449e-06	422.61	141.7	123.14	42.211	3.9833e-06	52.082	0.00055401	0.00054655	0.0001517	1390.5	5.9679e-06	5.9386e-06	1388.9	377.18	6.0892e-06	5.9491e-06	430.51	144.81	125.94	43.325	6.1591e-06	53.572	238.318	223.328	210.434	163.340	285.517	277.278	163.107	168.041	297.300	280.621	167.521	171.845	172.318	176.949	311.440	176.172	-8191	255	
25765.707	1	1	0	0	0.2217	0.27483	0.22369	0.08553	0.22152	0.099077	0.3941	0.28443	0.15185	0.006581	0.21819	0.21779	0.10034	0.04846	0.14411	0.097145	-2.1229	-2.8167	-2.3917	-2.8854	-3.0146	-2.6	-2.9417	-2.9833	-2.6417	-2.8958	-2.8604	-3.0208	-3.1458	-2.7729	-2.8896	-3.0417	182.610	335.997	354.667	370.823	491.003	299.525	431.049	482.807	354.787	194.792	150.713	223.772	422.705	159.745	451.569	507.367	0.00050367	0.0006481	0.00010401	1377.6	3.801e-06	4.0922e-06	1370.8	371.66	4.5159e-06	3.9612e-06	423.08	141.53	123.43	42.165	6.5644e-06	52.005	0.00055214	0.00055284	0.0001551	1392	5.9691e-06	6.0407e-06	1389.1	377.34	5.8912e-06	5.9237e-06	430.98	144.79	126.05	43.342	6.0431e-06	53.536	238.318	260.168	219.541	163.590	332.090	282.953	163.430	168.011	299.440	312.663	167.374	171.861	172.191	176.924	308.845	176.218	-8191	255	
25765.826	1	1	0	0	0.02336	0.089981	0.066508	0.12723	0.10242	0.10722	0.24075	0.14236	0.24456	0.10249	0.37787	0.1567	0.031966	0.22703	0.14449	0.18932	-2.0875	-2.8333	-2.8521	-2.8417	-2.9708	-2.6354	-3.0104	-2.9229	-2.6688	-2.7333	-2.9188	-2.6	-3.1063	-2.6708	-2.7771	-2.9083	410.574	243.666	475.110	306.998	433.369	497.592	440.094	396.019	475.180	271.885	415.653	201.643	491.910	164.232	475.433	420.314	0.00053813	0.00050225	0.00013306	1370.7	4.6633e-06	5.8285e-06	1369.1	369.87	4.4331e-06	3.5259e-06	422.04	141.2	123.34	42.281	5.6386e-06	52.004	0.00054874	0.00055436	0.00015359	1389.1	6.0848e-06	6.1632e-06	1387.5	377.05	6.0359e-06	5.9937e-06	429.96	144.72	125.8	43.298	6.0711e-06	53.478	234.224	233.259	222.145	163.311	304.542	305.242	163.263	167.955	279.277	308.514	167.342	171.948	172.515	176.818	284.166	176.091	-8191	255	
25765.922	1	1	0	0	0.14123	0.12031	0.12019	0.13639	0.048325	0.028669	0.45672	0.096379	0.22699	0.18079	0.12466	0.1824	0.4133	0.25566	0.27519	0.1428	-2.1604	-2.8396	-2.7375	-2.5438	-2.775	-2.7104	-2.9771	-3.0396	-2.6021	-2.9542	-2.8812	-2.7	-2.9771	-2.7313	-2.5917	-2.9771	412.227	165.245	187.988	441.272	164.507	194.450	166.941	452.889	489.651	336.892	435.233	484.262	476.359	485.971	352.528	421.549	0.00051625	0.00040502	0.00019791	1375.8	4.3435e-06	8.482e-06	1365.3	370.5	6.2305e-06	5.944e-06	421.44	140.79	122.98	42.078	4.2312e-06	51.882	0.00055411	0.0005513	0.00015291	1391	5.9308e-06	6.1523e-06	1387.6	377.17	6.1234e-06	5.972e-06	430.27	144.52	125.72	43.265	6.1244e-06	53.477	234.695	276.694	239.314	163.573	320.436	300.089	163.292	167.973	298.996	295.722	167.543	171.650	172.202	176.920	304.660	175.970	-8191	255	
25765.994	1	1	0	0	0.080975	0.18311	0.063194	0.082971	0.28802	0.28973	0.28031	0.22664	0.020101	0.2064	0.43209	0.11381	0.15709	0.084616	0.20291	0.14567	-2.1458	-2.8271	-2.725	-2.4729	-2.8333	-2.7771	-2.7396	-3.1208	-2.5729	-2.8479	-2.8083	-2.6625	-3.1271	-2.7188	-2.7854	-3.1021	247.272	342.831	282.377	417.118	191.693	466.686	464.453	463.190	154.079	161.799	442.647	359.704	469.033	413.732	306.580	468.750	0.00050414	0.0003987	8.6629e-05	1370.3	5.1862e-06	6.0676e-06	1370.9	369.61	6.1108e-06	6.2869e-06	421.91	141.88	123.25	42	5.4893e-06	51.965	0.00055573	0.00056442	0.00015163	1388.7	6.0765e-06	6.046e-06	1389.4	376.83	6.064e-06	5.9884e-06	430.03	144.72	125.82	43.167	5.9574e-06	53.446	237.846	225.845	245.056	163.709	296.222	296.966	163.521	168.045	290.215	303.102	167.566	171.845	172.363	177.089	313.657	176.289	-8191	255	
25766.113	1	1	0	0	0.053323	0.10283	0.15961	0.073249	0.20187	0.16784	0.32788	0.29789	0.1272	0.19464	0.14021	0.10314	0.25354	0.32091	0.13556	0.13511	-2.1833	-2.6979	-2.8292	-2.5521	-2.8312	-2.9271	-2.8875	-3.1125	-2.5958	-2.7625	-2.9208	-2.6896	-2.9542	-2.85	-2.4875	-3.1813	457.119	442.231	355.668	434.554	500.256	498.751	441.659	453.715	254.751	206.159	156.428	342.070	425.503	155.759	231.535	444.268	0.00052787	0.00035606	0.00016482	1370.2	6.0374e-06	7.0215e-06	1364.3	370.13	4.9265e-06	4.9952e-06	420.73	141.22	122.71	42.002	5.3752e-06	52.091	0.00055901	0.00057048	0.00015593	1389.8	6.1641e-06	6.1593e-06	1385.6	377.05	6.1684e-06	6.2109e-06	429.6	144.63	125.5	43.177	6.1504e-06	53.405	234.551	222.076	216.397	163.467	301.159	299.810	163.230	168.071	290.426	291.601	167.466	171.943	172.331	177.079	315.250	175.833	-8191	255	
25766.209	1	1	0	0	0.049665	0.052174	0.21166	0.14657	0.20856	0.18737	0.23189	0.14873	0.3298	0.20815	0.19504	0.3999	0.099657	0.34942	0.10129	0.08218	-2.3708	-2.7562	-3.0333	-2.5729	-2.8958	-2.9958	-2.8458	-3.0958	-2.775	-2.7438	-3.1958	-2.7708	-3.1688	-2.975	-2.5375	-3.2042	404.825	455.270	452.724	184.924	167.768	370.709	480.298	166.305	329.544	376.323	504.595	468.907	452.496	470.679	157.018	408.836	0.00051637	0.00080083	0.00014681	1374.1	5.5794e-06	4.1506e-06	1367.3	370.76	5.9451e-06	6.0855e-06	423.38	140.98	122.62	42.069	4.7909e-06	52.243	0.00057277	0.00057463	0.00015808	1387.9	6.3584e-06	6.1365e-06	1385.8	377.04	6.084e-06	6.2106e-06	430.17	144.32	125.68	43.128	6.1484e-06	53.473	236.181	240.548	246.395	163.352	297.834	285.247	163.224	168.140	288.651	321.347	167.469	171.752	172.474	176.751	301.665	176.061	-8191	255	
#DATA ENDS
