BOXY.EXE: ISS Imagent and Oximeter Data Acquisition Program Version 0.80
Ascii Record File

#ACQ INFORMATION
2  Detector Channels 
16  External MUX Channels 
1  Auxiliary Channels 
5000  Waveform (CCF) Frequency (Hz)
1  Waveforms Skipped 
30  Waveforms Averaged 
1  Cycles Averaged 
16  Acquisitions per Waveform 
10.0806  Updata Rate (Hz) 

#FILE INFORMATION
TRUE -- External MUX Channel results are PARSED.
FALSE -- AC DC and Phase are NOT grouped.
TRUE -- Companion Program Settings File CREATED.
FALSE -- AC data not excluded
FALSE -- DC data not excluded
FALSE -- Phase data not excluded
FALSE -- Auxillary Chn. data not excluded
Tab delimiters

#CALIBRATION STATE
TRUE -- Waveform Calibration Values APPLIED.


#AUX CALIBRATION VALUES
Val Type	aux-1	

Term	1.0000e+00	
Factor	0.0000e+00	


#WF CALIBRATION VALUES
A = Detector Channel
Val Type	A-AC1	A-AC2	A-AC3	A-AC4	A-AC5	A-AC6	A-AC7	A-AC8	A-AC9	A-AC10	A-AC11	A-AC12	A-AC13	A-AC14	A-AC15	A-AC16	A-DC1	A-DC2	A-DC3	A-DC4	A-DC5	A-DC6	A-DC7	A-DC8	A-DC9	A-DC10	A-DC11	A-DC12	A-DC13	A-DC14	A-DC15	A-DC16	A-Ph1	A-Ph2	A-Ph3	A-Ph4	A-Ph5	A-Ph6	A-Ph7	A-Ph8	A-Ph9	A-Ph10	A-Ph11	A-Ph12	A-Ph13	A-Ph14	A-Ph15	A-Ph16	

Term	0.00000e+00	0.00000e+00	0.00000e+00	0.00000e+00	0.00000e+00	0.00000e+00	0.00000e+00	0.00000e+00	0.00000e+00	0.00000e+00	0.00000e+00	0.00000e+00	0.00000e+00	0.00000e+00	0.00000e+00	0.00000e+00	0.00000e+00	0.00000e+00	0.00000e+00	0.00000e+00	0.00000e+00	0.00000e+00	0.00000e+00	0.00000e+00	0.00000e+00	0.00000e+00	0.00000e+00	0.00000e+00	0.00000e+00	0.00000e+00	0.00000e+00	0.00000e+00	0.00000e+00	0.00000e+00	0.00000e+00	0.00000e+00	0.00000e+00	0.00000e+00	0.00000e+00	0.00000e+00	0.00000e+00	0.00000e+00	0.00000e+00	0.00000e+00	0.00000e+00	0.00000e+00	0.00000e+00	0.00000e+00	
Factor	1.00000e+00	1.00000e+00	1.00000e+00	1.00000e+00	1.00000e+00	1.00000e+00	1.00000e+00	1.00000e+00	1.00000e+00	1.00000e+00	1.00000e+00	1.00000e+00	1.00000e+00	1.00000e+00	1.00000e+00	1.00000e+00	1.00000e+00	1.00000e+00	1.00000e+00	1.00000e+00	1.00000e+00	1.00000e+00	1.00000e+00	1.00000e+00	1.00000e+00	1.00000e+00	1.00000e+00	1.00000e+00	1.00000e+00	1.00000e+00	1.00000e+00	1.00000e+00	X	X	X	X	X	X	X	X	X	X	X	X	X	X	X	X	

B = Detector Channel
Val Type	B-AC1	B-AC2	B-AC3	B-AC4	B-AC5	B-AC6	B-AC7	B-AC8	B-AC9	B-AC10	B-AC11	B-AC12	B-AC13	B-AC14	B-AC15	B-AC16	B-DC1	B-DC2	B-DC3	B-DC4	B-DC5	B-DC6	B-DC7	B-DC8	B-DC9	B-DC10	B-DC11	B-DC12	B-DC13	B-DC14	B-DC15	B-DC16	B-Ph1	B-Ph2	B-Ph3	B-Ph4	B-Ph5	B-Ph6	B-Ph7	B-Ph8	B-Ph9	B-Ph10	B-Ph11	B-Ph12	B-Ph13	B-Ph14	B-Ph15	B-Ph16	

Term	0.00000e+00	0.00000e+00	0.00000e+00	0.00000e+00	0.00000e+00	0.00000e+00	0.00000e+00	0.00000e+00	0.00000e+00	0.00000e+00	0.00000e+00	0.00000e+00	0.00000e+00	0.00000e+00	0.00000e+00	0.00000e+00	0.00000e+00	0.00000e+00	0.00000e+00	0.00000e+00	0.00000e+00	0.00000e+00	0.00000e+00	0.00000e+00	0.00000e+00	0.00000e+00	0.00000e+00	0.00000e+00	0.00000e+00	0.00000e+00	0.00000e+00	0.00000e+00	-1.65095e+02	-1.36760e+02	-1.28228e+02	-1.79802e+02	-7.58801e+01	-8.06562e+01	-1.58085e+02	-1.62015e+02	-8.34201e+01	-6.02352e+01	-1.69977e+02	-1.71992e+02	-1.83057e+02	-1.76155e+02	-6.30896e+01	-1.48803e+02	
Factor	2.68855e-05	1.33963e-04	4.06587e-05	1.73064e-01	1.18092e-06	1.38058e-06	1.79830e-01	6.39379e-02	1.39152e-06	1.46583e-06	8.33553e-02	3.13931e-02	2.72019e-02	8.97484e-03	1.12261e-06	1.30680e-02	1.59552e-06	1.68252e-06	4.69401e-07	8.55044e-02	1.82819e-08	1.84544e-08	8.38191e-02	3.15264e-02	1.83315e-08	1.84551e-08	3.98753e-02	1.49757e-02	1.33735e-02	4.44832e-03	1.83795e-08	6.25309e-03	X	X	X	X	X	X	X	X	X	X	X	X	X	X	X	X	



#DISTANCE SETTINGS
A = Detector Channel
A-1	A-2	A-3	A-4	A-5	A-6	A-7	A-8	A-9	A-10	A-11	A-12	A-13	A-14	A-15	A-16	

2.5000e+00	3.0000e+00	2.5000e+00	3.0000e+00	2.0000e+00	3.0000e+00	1.5000e+00	3.0000e+00	3.0000e+00	3.0000e+00	3.0000e+00	3.0000e+00	3.0000e+00	3.0000e+00	1.5000e+00	3.0000e+00	

B = Detector Channel
B-1	B-2	B-3	B-4	B-5	B-6	B-7	B-8	B-9	B-10	B-11	B-12	B-13	B-14	B-15	B-16	

1.0000e+01	1.0000e+01	1.0000e+01	1.4400e+00	1.0000e+01	1.0000e+01	1.5100e+00	1.9400e+00	1.0000e+01	1.0000e+01	1.9900e+00	2.4900e+00	2.4100e+00	2.9000e+00	1.0000e+01	2.9800e+00	




#DATA BEGINS
time	group	step	mark	flag	A-AC1	A-AC2	A-AC3	A-AC4	A-AC5	A-AC6	A-AC7	A-AC8	A-AC9	A-AC10	A-AC11	A-AC12	A-AC13	A-AC14	A-AC15	A-AC16	A-DC1	A-DC2	A-DC3	A-DC4	A-DC5	A-DC6	A-DC7	A-DC8	A-DC9	A-DC10	A-DC11	A-DC12	A-DC13	A-DC14	A-DC15	A-DC16	A-Ph1	A-Ph2	A-Ph3	A-Ph4	A-Ph5	A-Ph6	A-Ph7	A-Ph8	A-Ph9	A-Ph10	A-Ph11	A-Ph12	A-Ph13	A-Ph14	A-Ph15	A-Ph16	B-AC1	B-AC2	B-AC3	B-AC4	B-AC5	B-AC6	B-AC7	B-AC8	B-AC9	B-AC10	B-AC11	B-AC12	B-AC13	B-AC14	B-AC15	B-AC16	B-DC1	B-DC2	B-DC3	B-DC4	B-DC5	B-DC6	B-DC7	B-DC8	B-DC9	B-DC10	B-DC11	B-DC12	B-DC13	B-DC14	B-DC15	B-DC16	B-Ph1	B-Ph2	B-Ph3	B-Ph4	B-Ph5	B-Ph6	B-Ph7	B-Ph8	B-Ph9	B-Ph10	B-Ph11	B-Ph12	B-Ph13	B-Ph14	B-Ph15	B-Ph16	aux-1	digaux	

1290.039	1	1	0	256	0.12996	0.1061	0.053387	0.10968	0.18726	0.051772	0.33043	0.2187	0.11742	0.11307	0.14149	0.15519	0.14699	0.33745	0.11401	0.099211	-3.05	-3.7521	-3.2938	-3.7542	-3.6479	-3.2458	-3.8354	-3.5229	-3.3896	-3.7333	-3.3312	-3.7521	-3.6604	-3.3604	-3.5062	-3.5521	108.353	-21.294	299.201	47.448	-11.002	228.916	261.127	256.736	132.237	63.475	-40.127	-8.974	-4.511	-50.913	1.914	145.914	0.0001346	0.00017976	4.9208e-05	1226.1	4.4208e-06	2.1623e-06	1295.6	251.62	2.2547e-06	3.6861e-06	313.8	87	68.713	19.959	4.8796e-06	27.869	0.00038455	0.0003543	0.00011379	1200.5	4.0205e-06	3.9352e-06	1264.9	250.84	4.0481e-06	3.7109e-06	310.67	88.269	69.111	20.372	4.5018e-06	28.623	93.910	56.501	1.707	-40.188	70.696	33.498	-40.006	-33.044	64.304	77.044	-33.274	-26.879	-26.438	-19.510	80.603	-20.182	-8191	255	
1290.135	1	1	0	0	0.23659	0.13151	0.14266	0.2367	0.15785	0.11062	0.2084	0.18634	0.062202	0.17538	0.24559	0.14097	0.2397	0.22891	0.24574	0.064411	-3.0812	-3.6188	-3.4375	-3.7521	-3.7062	-3.4	-3.7854	-3.7583	-3.4229	-3.8208	-3.5521	-3.4729	-3.7438	-3.2687	-3.7833	-3.6479	0.181	93.674	259.326	280.890	87.320	133.781	211.851	254.632	-16.611	-46.723	290.355	242.009	231.687	306.706	146.592	80.023	6.3666e-05	0.00034815	0.00014586	1230.5	1.7894e-06	2.2388e-06	1288.5	254.11	6.5659e-06	2.1072e-06	314.3	86.982	68.927	20.082	2.3614e-06	28.051	0.00037457	0.00036543	0.0001226	1203.8	4.1539e-06	4.4054e-06	1270.5	251.76	4.3874e-06	4.3358e-06	313.45	88.508	69.55	20.592	4.8949e-06	28.758	118.621	13.208	17.036	-40.100	156.493	101.274	-40.055	-33.431	147.598	75.570	-33.476	-27.243	-27.119	-19.702	55.829	-20.287	-8191	255	
1290.230	1	1	0	0	0.096081	0.16967	0.096506	0.016883	0.19193	0.037833	0.13958	0.18513	0.18899	0.16882	0.08001	0.29188	0.09405	0.20526	0.23771	0.05743	-2.9042	-3.7771	-3.2792	-3.5229	-3.7083	-3.3937	-3.7104	-3.6396	-3.3312	-3.6562	-3.6188	-3.5062	-3.6188	-3.125	-3.4208	-3.6437	-41.979	127.416	188.118	-9.725	65.526	49.799	301.653	149.441	40.639	77.924	171.916	198.745	235.164	252.233	55.341	95.857	0.00014704	0.00029217	8.0061e-05	1239.6	2.1373e-06	2.7598e-06	1300.7	253.56	2.5057e-06	6.0664e-06	315.08	87.938	68.815	20.231	1.5112e-06	28.084	0.00038606	0.0004087	0.00012398	1212	4.1108e-06	4.6619e-06	1277.9	251.84	4.2757e-06	4.6739e-06	313.19	88.772	69.531	20.772	4.8512e-06	28.744	147.708	60.597	111.010	-40.100	0.877	187.455	-40.283	-33.367	260.925	98.965	-33.493	-26.709	-26.895	-20.013	53.019	-20.583	-8191	255	
1290.350	1	1	0	0	0.18705	0.19421	0.1465	0.27975	0.17758	0.08307	0.19875	0.10948	0.1823	0.043616	0.062413	0.21465	0.14872	0.11786	0.21166	0.12118	-2.9437	-3.6792	-3.5479	-3.6417	-3.7167	-3.2771	-3.7854	-3.65	-3.3354	-3.6646	-3.5333	-3.4125	-3.8333	-3.2229	-3.5104	-3.9458	266.025	124.747	222.916	272.548	280.368	202.504	282.297	-44.195	283.605	199.049	278.717	229.502	75.657	282.124	-23.620	5.593	0.00021244	0.00053697	7.0698e-05	1238.6	6.6991e-06	1.6672e-06	1302.6	254.63	2.7217e-06	2.7196e-06	313.43	87.661	68.928	20.116	1.0917e-06	28.012	0.00038457	0.00044302	0.00012036	1211.5	4.1276e-06	4.8692e-06	1276.6	252.33	4.1754e-06	4.7965e-06	311.26	88.413	69.39	20.646	4.3482e-06	28.586	127.372	36.449	50.662	-40.127	171.246	304.824	-40.148	-33.117	54.432	127.867	-33.606	-26.988	-26.457	-19.853	-32.947	-20.275	-8191	255	
1290.446	1	1	0	0	0.1065	0.10194	0.2377	0.22232	0.12334	0.15921	0.23648	0.22674	0.13713	0.087648	0.20645	0.14834	0.19964	0.22739	0.083176	0.30583	-3.0146	-3.6542	-3.6333	-3.4938	-3.7333	-3.3667	-3.4688	-3.7292	-3.2125	-3.6417	-3.6042	-3.2521	-3.6437	-3.325	-3.3896	-3.8688	44.988	142.064	46.740	236.610	166.097	97.009	270.507	283.052	166.487	216.415	78.837	243.351	289.849	263.378	259.096	247.379	0.00019769	0.00040378	0.00010727	1227.9	1.5326e-06	1.5711e-06	1290.1	251.99	4.2445e-06	2.9139e-06	314.07	87.254	68.242	19.845	2.6671e-06	27.897	0.00036729	0.00041582	0.00010499	1198.4	3.942e-06	4.4852e-06	1261.5	249.54	4.0866e-06	4.4004e-06	309.09	87.528	68.836	20.396	4.0693e-06	28.308	109.385	66.641	55.626	-40.304	133.346	121.563	-40.155	-33.399	144.078	117.858	-33.225	-27.102	-26.939	-19.714	99.147	-20.065	-8191	255	
1290.542	1	1	0	0	0.1715	0.14927	0.27209	0.15668	0.1064	0.29046	0.38341	0.13795	0.26484	0.13512	0.16333	0.17917	0.23794	0.16208	0.095537	0.33361	-3.0646	-3.6104	-3.7479	-3.5021	-3.7583	-3.4979	-3.6875	-3.6229	-3.4375	-3.625	-3.7417	-3.3625	-3.6729	-3.5646	-3.3833	-3.7583	2.707	-10.350	232.728	301.678	5.084	193.076	238.608	-49.902	139.786	191.037	213.292	304.640	284.083	-31.124	258.752	264.608	0.00028021	0.00049562	0.00013325	1216.4	5.7102e-06	2.4455e-06	1288.7	251.34	8.5051e-07	2.4888e-06	313.53	87.282	68.28	19.835	8.2553e-07	27.807	0.00037781	0.00039599	9.9944e-05	1189.3	4.2516e-06	4.3386e-06	1259.6	249.2	4.4267e-06	4.4771e-06	309.19	87.799	69.213	20.442	4.2119e-06	28.422	103.342	-12.299	39.862	-40.439	157.984	-21.467	-40.025	-33.072	161.030	106.789	-33.475	-27.026	-26.657	-19.469	109.059	-20.440	-8191	255	
1290.639	1	1	0	0	0.10289	0.2056	0.04163	0.22604	0.20884	0.35629	0.096876	0.070146	0.20334	0.10743	0.24278	0.14929	0.21011	0.11979	0.21078	0.20417	-2.9562	-3.5687	-3.7833	-3.6292	-3.8729	-3.9167	-3.6375	-3.8604	-3.3396	-3.5187	-3.725	-3.5812	-3.6896	-3.6771	-3.4313	-3.6792	69.713	128.052	224.342	4.403	187.417	51.083	302.170	60.128	177.229	-18.388	-42.945	-31.884	7.376	69.057	-4.738	278.510	0.00019578	0.00041085	0.00010768	1219.3	3.9637e-06	1.6447e-06	1283.2	252.04	2.8737e-06	7.7316e-06	315.23	86.646	68.334	19.966	5.4363e-06	27.971	0.00041238	0.00040889	0.00010171	1191.8	4.6738e-06	4.3126e-06	1260.5	250.08	4.7242e-06	4.3788e-06	309.63	87.77	69.396	20.403	4.1346e-06	28.579	109.784	61.425	114.095	-40.019	156.131	24.306	-39.831	-33.044	132.473	63.439	-33.403	-27.281	-26.644	-19.559	100.090	-20.078	-8191	255	
1290.735	1	1	0	0	0.092932	0.2072	0.12069	0.22134	0.10719	0.22626	0.23132	0.21757	0.26821	0.34	0.081614	0.13613	0.17526	0.09911	0.14527	0.17107	-3.0792	-3.5812	-3.7	-3.4208	-3.6958	-3.7	-3.7146	-3.7604	-3.3583	-3.4271	-3.8979	-3.375	-3.5208	-3.7292	-3.3438	-3.9583	226.806	60.659	194.013	-17.766	268.249	112.368	248.197	-49.125	-23.461	81.624	267.543	226.073	-28.086	245.670	23.668	232.868	0.00015708	0.00062145	7.8349e-05	1223.4	7.19e-07	2.1129e-06	1289	253.02	7.6393e-06	3.0434e-06	312.44	86.941	68.662	19.977	1.7307e-06	27.912	0.00042008	0.00039891	0.00010117	1198.3	4.7799e-06	4.287e-06	1260.1	250.82	4.7386e-06	4.4243e-06	309.26	88.443	69.568	20.43	4.1113e-06	28.679	64.555	-1.679	142.194	-40.125	-41.971	111.608	-40.008	-33.121	68.616	62.635	-33.361	-27.090	-26.607	-19.804	186.243	-20.285	-8191	255	
1290.831	1	1	0	0	0.17008	0.096478	0.072423	0.22709	0.10899	0.15839	0.054636	0.20767	0.21637	0.231	0.16403	0.17128	0.25243	0.050597	0.32526	0.17973	-2.7833	-3.2771	-3.7313	-3.6542	-3.5375	-3.6188	-3.6042	-3.6375	-3.5938	-3.4396	-3.6771	-3.425	-3.375	-3.6354	-3.5125	-3.7979	306.775	295.567	260.695	245.803	115.245	85.028	-39.399	241.834	22.995	281.301	294.183	125.768	258.076	-33.607	23.552	-2.865	0.00013226	0.00033814	0.00018794	1223.2	3.9051e-06	5.5556e-06	1285.3	253.61	3.1701e-06	5.5173e-06	314.08	87.067	68.251	19.893	1.518e-06	27.909	0.00040655	0.00039866	0.00010119	1197.2	4.6607e-06	4.1514e-06	1259.3	252.01	4.5319e-06	4.3194e-06	309.72	88.48	69.537	20.358	4.2504e-06	28.789	117.818	39.274	60.905	-39.960	182.102	62.135	-39.971	-33.191	17.198	128.543	-33.377	-27.066	-26.688	-19.901	93.933	-20.028	-8191	255	
1290.927	1	1	0	0	0.15514	0.17463	0.08958	0.080931	0.068048	0.091517	0.29443	0.1026	0.070155	0.010514	0.25297	0.20176	0.1663	0.062105	0.11847	0.15222	-3.3333	-3.4188	-3.7708	-3.6521	-3.3833	-3.5833	-3.4146	-3.8833	-3.4521	-3.4396	-3.7792	-3.5687	-3.45	-3.6396	-3.3854	-3.7646	-20.956	96.367	72.924	221.387	197.756	199.122	253.377	89.561	188.784	55.269	275.579	257.598	248.431	4.252	205.978	223.676	0.000118	0.00037454	5.691e-05	1227	2.9361e-06	3.2629e-06	1285.9	252.84	4.1179e-06	6.7662e-06	313.64	87.37	68.612	19.866	4.0115e-06	28.149	0.00038754	0.00038179	0.00010435	1200.8	4.4101e-06	3.9304e-06	1261.3	251.67	4.273e-06	4.0983e-06	310.24	88.387	69.49	20.39	4.4598e-06	28.846	113.662	37.722	109.344	-40.139	135.938	12.902	-40.005	-33.064	-50.600	107.870	-33.669	-27.012	-26.762	-19.574	273.633	-20.130	-8191	255	
1291.048	1	1	0	0	0.10313	0.047413	0.19985	0.098475	0.31826	0.2116	0.095822	0.23601	0.20056	0.18943	0.24125	0.12775	0.16908	0.23822	0.012588	0.089781	-3.2438	-3.3458	-3.7	-3.6771	-3.3542	-3.7062	-3.5917	-3.7229	-3.6271	-3.4917	-3.8271	-3.5854	-3.2	-3.8479	-3.3646	-3.7271	217.393	295.652	71.991	276.599	-23.741	182.590	284.875	58.999	82.477	205.868	255.488	286.147	-22.836	231.554	38.977	-32.272	4.2226e-05	0.00038419	0.00017872	1225.6	2.4714e-06	4.994e-07	1289.2	251.61	2.1028e-06	7.1757e-06	314.39	87.111	69.134	20.09	2.5042e-06	28.232	0.00037633	0.00038012	0.00011623	1202.8	4.4249e-06	4.044e-06	1266.3	251.48	4.3451e-06	4.2927e-06	311.99	88.43	69.692	20.521	4.8849e-06	28.923	150.316	-37.967	41.152	-40.126	105.749	207.182	-40.208	-33.200	-5.082	98.556	-33.280	-27.099	-26.950	-19.724	51.856	-20.247	-8191	255	
1291.142	1	1	0	0	0.1821	0.12795	0.14759	0.2291	0.3238	0.061006	0.28394	0.062589	0.060613	0.12102	0.21877	0.15425	0.081616	0.10516	0.1401	0.20166	-3.2667	-3.3521	-3.8	-3.6813	-3.425	-3.6708	-3.2854	-3.5271	-3.6604	-3.4729	-3.7188	-3.5167	-3.2646	-3.8396	-3.4979	-3.5042	146.321	180.764	87.149	211.926	-46.571	152.080	260.158	154.968	86.021	-33.132	267.605	224.345	179.944	100.941	79.340	242.005	9.4061e-05	0.00012237	9.2911e-05	1234	2.1409e-06	2.8355e-06	1293.1	253.36	3.5777e-06	4.5977e-06	315.78	87.681	69.168	20.129	1.5736e-06	27.947	0.00039468	0.00040497	0.00012755	1207.6	4.6521e-06	4.3342e-06	1271.3	252.74	4.4401e-06	4.6799e-06	313.78	88.875	69.907	20.673	5.1718e-06	28.898	136.665	116.812	61.441	-40.041	270.506	196.948	-40.164	-33.393	58.631	228.262	-33.471	-27.434	-26.853	-19.777	134.031	-20.245	-8191	255	
1291.240	1	1	0	0	0.17272	0.12248	0.040866	0.2916	0.10546	0.13133	0.30983	0.13877	0.043135	0.18538	0.25499	0.1571	0.085513	0.07475	0.11459	0.093578	-3.55	-3.3521	-3.575	-3.6792	-3.35	-3.7208	-3.6188	-3.55	-3.6146	-3.4771	-3.7208	-3.8063	-3.2042	-3.8187	-3.4188	-3.4625	121.920	277.906	199.440	252.878	157.660	146.546	245.191	-50.082	298.404	-11.429	128.418	133.741	105.463	29.056	152.515	218.161	0.00017104	0.00043618	1.3127e-05	1230.4	4.1921e-06	8.4545e-06	1295.2	254.74	1.7701e-06	6.717e-06	313.53	87.631	69.118	20.073	3.5328e-06	28.188	0.0003891	0.00044245	0.00013312	1207.2	4.5411e-06	4.7018e-06	1272.7	253.13	4.3407e-06	4.9373e-06	313.45	89.071	69.885	20.729	5.0106e-06	29.009	75.649	127.729	116.280	-40.202	105.707	154.449	-40.190	-33.296	85.126	141.815	-33.304	-27.051	-26.859	-19.750	36.530	-20.551	-8191	255	
1291.334	1	1	0	0	0.27307	0.035582	0.18226	0.20228	0.21499	0.25739	0.12796	0.18779	0.30513	0.21004	0.14931	0.22041	0.17563	0.098467	0.10942	0.027593	-3.4396	-3.3042	-3.7625	-3.8271	-3.3708	-3.5312	-3.6625	-3.4813	-3.8958	-3.5896	-3.6646	-3.6312	-3.3521	-3.7958	-3.7333	-3.6958	232.476	-17.534	253.319	237.554	61.575	98.370	166.502	192.233	20.908	285.474	240.921	213.688	-22.144	-3.509	50.898	298.231	0.00018254	0.0005462	0.00013706	1238.9	3.3432e-06	7.0773e-06	1302.6	254.18	9.6181e-07	3.7214e-06	314.62	88.245	69.355	20.24	2.8213e-06	28.271	0.00038366	0.0004589	0.00012815	1211.7	4.4205e-06	4.9256e-06	1277.6	253.14	4.1488e-06	4.8544e-06	313.2	88.763	69.988	20.798	4.529e-06	28.9	90.469	300.390	-25.462	-40.204	83.672	138.703	-40.141	-33.130	27.047	171.815	-33.221	-27.084	-27.021	-19.843	46.942	-20.348	-8191	255	
1291.431	1	1	0	0	0.021499	0.061373	0.17896	0.14323	0.11597	0.088863	0.05716	0.066059	0.143	0.28428	0.1278	0.15562	0.13679	0.081675	0.17983	0.23395	-3.5083	-3.5146	-3.5354	-3.8771	-3.4354	-3.6292	-3.6771	-3.4896	-3.7125	-3.3563	-3.6271	-3.85	-3.5	-3.825	-3.8042	-3.4833	193.624	14.305	22.314	159.525	92.130	135.024	39.237	229.075	94.741	-49.539	289.739	-25.186	28.470	265.708	42.053	31.653	0.00021077	0.00025688	4.7555e-05	1239.1	3.4077e-06	2.8808e-06	1302.6	255.67	3.302e-06	3.4557e-06	315.43	87.595	69.399	20.23	4.1739e-06	28.042	0.00037922	0.0004579	0.00011757	1208	4.5421e-06	5.0521e-06	1277.6	253.57	4.5358e-06	5.1249e-06	313.76	88.679	70.336	20.934	4.7664e-06	29.005	95.175	1.458	299.035	-40.234	117.498	162.254	-40.037	-33.288	51.635	64.302	-33.341	-27.246	-26.877	-19.830	105.320	-20.416	-8191	255	
1291.527	1	1	0	0	0.089808	0.2087	0.1172	0.11648	0.024898	0.19717	0.13487	0.16627	0.13487	0.17806	0.15472	0.19958	0.19383	0.18957	0.13121	0.044929	-3.5042	-3.5021	-3.4896	-3.7771	-3.0604	-3.6333	-3.8042	-3.3292	-3.6958	-3.5208	-3.4896	-3.8729	-3.4167	-3.6104	-3.7208	-3.3521	185.240	119.012	152.597	236.711	195.660	288.383	122.009	245.290	290.725	195.621	-47.343	32.944	257.123	72.878	277.245	265.519	0.0002242	9.5878e-05	7.381e-05	1241.2	2.1675e-06	5.759e-06	1302.6	255.22	4.8213e-06	1.3594e-06	315.99	88.523	69.076	20.254	6.4137e-07	28.197	0.00044077	0.00048801	0.00012681	1215.1	5.2706e-06	5.4971e-06	1282.6	254.73	5.3245e-06	5.3613e-06	314.24	89.445	70.967	20.997	4.8949e-06	29.04	108.136	15.965	-9.226	-40.171	24.765	61.748	-40.205	-33.189	115.254	90.452	-33.546	-26.986	-26.587	-19.906	-24.913	-20.386	-8191	255	
1291.647	1	1	0	0	0.20728	0.18115	0.14753	0.18991	0.097034	0.25399	0.3367	0.089752	0.19904	0.10897	0.33129	0.1227	0.15006	0.34675	0.023267	0.073701	-3.2917	-3.55	-3.2083	-3.7375	-3.2396	-3.4542	-3.7292	-3.3688	-3.525	-3.3521	-3.2479	-3.6167	-3.4188	-3.6271	-3.6042	-3.4167	81.882	-28.644	276.894	237.299	186.251	213.161	268.027	92.309	272.820	52.423	-39.874	298.726	230.272	28.453	-23.582	115.406	0.000213	0.00044127	0.0001728	1241.7	1.6121e-06	4.3671e-06	1303.4	255.43	1.1533e-06	1.68e-06	314.83	87.707	69.018	20.226	1.0657e-06	28.101	0.00048878	0.00048572	0.00013026	1215.7	5.5775e-06	5.3363e-06	1282.7	254.73	5.5539e-06	5.0654e-06	314.3	88.956	70.846	20.819	4.5624e-06	29.028	163.568	8.271	63.338	-40.300	187.357	59.538	-39.975	-33.486	244.547	127.221	-33.524	-26.945	-26.770	-19.946	107.487	-20.074	-8191	255	
1291.743	1	1	0	0	0.077579	0.15427	0.19154	0.073399	0.20889	0.16468	0.043189	0.07631	0.1792	0.27111	0.18943	0.12383	0.29169	0.13932	0.0459	0.11987	-3.3042	-3.5062	-3.1854	-3.7771	-3.3125	-3.4042	-3.7958	-3.5042	-3.5854	-3.625	-3.5458	-3.875	-3.4479	-3.6354	-3.8146	-3.4854	-8.260	130.239	72.354	202.553	80.458	296.322	279.932	148.316	207.250	241.692	-22.872	-20.598	297.510	297.401	-23.661	136.524	0.00012757	0.0004612	0.000129	1239.9	2.7228e-06	6.9835e-06	1301.8	255.8	7.7094e-06	6.9145e-06	314.67	87.674	69.177	20.034	3.8033e-06	28.032	0.00048078	0.00044716	0.0001219	1214.2	5.3773e-06	5.0256e-06	1278.5	255.01	5.4172e-06	4.8351e-06	313.58	89.211	70.499	20.711	4.4191e-06	29.052	59.434	-15.307	89.527	-40.206	150.445	118.934	-39.840	-33.293	59.640	56.842	-33.178	-27.127	-26.759	-19.810	215.089	-20.114	-8191	255	
1291.815	1	1	0	0	0.12151	0.21812	0.27048	0.23686	0.20852	0.074445	0.037054	0.19556	0.16674	0.17179	0.079847	0.02047	0.35673	0.10303	0.03209	0.23075	-3.1729	-3.4083	-3.0438	-3.8417	-3.4375	-3.35	-3.8292	-3.5229	-3.4042	-3.6833	-3.3375	-3.6417	-3.4771	-3.3958	-3.6104	-3.3875	69.717	300.981	25.631	201.105	199.233	13.944	-42.095	34.872	17.579	154.864	-5.238	43.534	242.370	70.376	218.539	-33.822	0.00013305	0.00021313	0.00018269	1241.9	3.3938e-06	4.3071e-06	1304	254.86	6.3996e-06	4.809e-06	314.96	88.168	69.098	20.177	5.6118e-06	28.39	0.00047071	0.00043023	0.0001192	1219.6	5.1617e-06	4.8927e-06	1280.2	255.44	5.2374e-06	4.6641e-06	313.38	89.454	70.412	20.72	4.6269e-06	29.186	132.354	31.903	78.905	-40.302	251.757	129.859	-40.328	-32.993	49.285	141.619	-33.482	-27.058	-26.733	-19.755	187.982	-20.248	-8191	255	
1291.911	1	1	0	0	0.031077	0.18878	0.13195	0.22718	0.10339	0.18362	0.20081	0.21341	0.044494	0.071008	0.25367	0.097252	0.15267	0.15545	0.11145	0.27168	-3.2812	-3.5187	-3.2583	-3.7354	-3.4104	-3.2979	-3.9333	-3.4333	-3.5542	-3.6688	-3.3729	-3.8417	-3.7542	-3.4375	-3.6979	-3.575	31.850	50.482	34.439	260.142	-42.785	241.761	243.751	193.058	103.352	37.397	261.174	-50.158	-24.413	45.039	141.548	26.680	6.7268e-05	0.00085878	7.6803e-05	1242.6	5.0551e-06	6.1414e-06	1306.6	255.86	5.6994e-06	8.1005e-06	314.36	87.848	69.579	20.06	3.9064e-06	28.152	0.00045628	0.00042045	0.00012314	1222	4.9947e-06	4.8373e-06	1283.4	256.09	5.1009e-06	4.5845e-06	314.57	89.583	70.346	20.667	4.8601e-06	29.039	61.688	6.789	-13.093	-40.304	99.704	96.174	-40.180	-33.250	79.448	117.644	-33.492	-27.079	-26.751	-19.755	300.496	-20.094	-8191	255	
1292.032	1	1	0	0	0.18371	0.093522	0.19849	0.11028	0.15058	0.088888	0.15067	0.07035	0.045047	0.29825	0.14824	0.12103	0.15657	0.14127	0.1019	0.22444	-2.9271	-3.6729	-3.4375	-3.7417	-3.6875	-3.2958	-3.8229	-3.5396	-3.5396	-3.75	-3.6458	-3.7229	-3.6833	-3.5771	-3.7333	-3.5271	34.529	-18.668	69.299	263.982	144.114	10.134	220.896	297.184	123.619	175.250	300.607	23.534	206.930	191.486	156.653	249.980	0.00014224	0.00050896	0.00016942	1244.4	2.6874e-06	2.1778e-06	1302.5	255.19	3.1397e-06	6.7232e-06	315.37	87.404	68.759	19.957	2.2853e-06	28.18	0.00043418	0.00040052	0.00012683	1221.5	4.5835e-06	4.532e-06	1281.2	254.63	4.6983e-06	4.2104e-06	313.86	88.982	69.622	20.5	4.775e-06	28.783	43.176	48.147	42.028	-40.229	92.715	129.148	-40.168	-33.391	226.165	85.307	-33.211	-26.767	-26.911	-19.952	237.943	-19.913	-8191	255	
1292.126	1	1	0	0	0.19995	0.174	0.32107	0.25468	0.091307	0.07071	0.097764	0.24612	0.037225	0.20166	0.085298	0.066623	0.10085	0.10452	0.043335	0.079514	-2.9896	-3.6312	-3.4437	-3.7083	-3.6292	-3.4188	-3.8771	-3.7667	-3.4813	-3.9354	-3.7646	-3.5875	-3.9979	-3.6479	-3.5896	-3.7	-47.035	200.640	279.328	275.325	-43.904	214.649	191.905	219.396	294.404	1.458	-11.612	178.794	-20.520	-34.764	54.352	276.591	0.00016785	5.7292e-05	4.74e-05	1235.2	1.7539e-06	1.1533e-06	1291.4	253.75	1.6217e-06	3.39e-06	315.28	87.162	68.743	19.901	2.5442e-06	27.964	0.00039333	0.00037464	0.00012223	1208.9	4.1384e-06	4.1622e-06	1270.6	252.33	4.2135e-06	4.0563e-06	312.6	88.19	69.125	20.399	4.8309e-06	28.664	106.362	27.903	186.825	-40.332	130.706	187.746	-40.016	-33.148	130.366	97.784	-33.422	-27.053	-26.798	-19.763	100.557	-20.193	-8191	255	
1292.222	1	1	0	0	0.10758	0.056494	0.042292	0.30718	0.28969	0.072636	0.1393	0.1408	0.30825	0.34297	0.31853	0.12733	0.094968	0.19668	0.22278	0.15856	-3.0979	-3.5542	-3.4458	-3.7021	-3.7771	-3.5979	-3.7396	-3.7625	-3.4875	-3.7125	-3.5375	-3.45	-3.8042	-3.4729	-3.5583	-3.6813	260.597	36.948	297.772	244.091	181.211	4.120	263.794	184.777	140.196	136.554	71.876	45.074	68.899	17.114	70.136	56.285	1.0274e-05	2.9606e-05	9.5925e-05	1232.1	3.5635e-06	4.7161e-06	1295.8	253.23	5.7187e-06	3.037e-06	315.58	86.933	68.724	19.955	4.1544e-06	28.048	0.00037433	0.0003872	0.00012281	1205.1	4.0545e-06	4.5028e-06	1270.9	251.49	4.2677e-06	4.5328e-06	313.2	88.44	69.386	20.596	4.7688e-06	28.671	131.616	97.615	16.106	-40.073	94.043	133.112	-40.099	-33.342	66.101	-35.623	-33.446	-27.138	-26.706	-19.983	143.208	-20.086	-8191	255	
1292.320	1	1	0	0	0.086226	0.22918	0.064558	0.2511	0.066783	0.28421	0.2554	0.20476	0.10419	0.16729	0.33505	0.17775	0.10338	0.16071	0.22365	0.091927	-2.825	-3.8229	-3.3312	-3.3896	-3.8167	-3.4354	-3.7833	-3.6312	-3.4167	-3.7875	-3.5062	-3.4708	-3.8375	-3.45	-3.5187	-3.7438	130.099	5.202	157.819	275.889	168.580	255.796	261.779	222.981	65.431	203.851	276.744	-2.855	-15.004	83.997	70.095	240.333	0.00023918	0.00056546	0.00023533	1241.6	2.1123e-06	2.0436e-08	1299	254.13	6.2956e-06	4.7223e-06	314.97	87.96	69.116	20.119	5.3066e-06	28.207	0.00037375	0.00041748	0.00011832	1211.2	3.9269e-06	4.676e-06	1275.6	252.04	4.0665e-06	4.5597e-06	312.71	88.567	69.571	20.67	4.4732e-06	28.68	95.145	133.677	-28.401	-40.269	90.669	221.929	-40.014	-33.211	157.662	166.571	-33.497	-26.868	-26.594	-19.619	101.524	-20.085	-8191	255	
1292.439	1	1	0	0	0.069676	0.13626	0.14834	0.083251	0.1552	0.28309	0.40462	0.18321	0.015141	0.01623	0.27928	0.15985	0.014976	0.13354	0.099881	0.077615	-2.9938	-3.5187	-3.5083	-3.4792	-3.6542	-3.6042	-3.8187	-3.9021	-3.4917	-3.9167	-3.6312	-3.4417	-3.7646	-3.4125	-3.5979	-3.8312	-32.893	272.663	213.003	207.054	46.712	213.915	246.887	204.956	174.628	168.122	256.150	289.772	62.179	88.621	155.861	18.510	0.00017902	0.00038039	0.00013572	1245.8	3.2496e-07	2.7151e-06	1309.2	255.33	4.2265e-06	1.8246e-06	316.61	88.037	69.537	20.205	2.6166e-06	28.181	0.00037378	0.00043245	0.00011067	1215.8	4.1151e-06	4.7244e-06	1281.7	252.66	4.3203e-06	4.742e-06	313.45	88.705	70.007	20.779	4.3675e-06	28.717	79.630	43.644	-38.151	-40.263	191.333	191.349	-40.178	-33.677	216.067	165.153	-33.239	-27.306	-26.674	-19.755	85.953	-20.061	-8191	255	
1292.511	1	1	0	0	0.053526	0.27012	0.078157	0.28588	0.22963	0.2508	0.34785	0.17547	0.018691	0.11543	0.18287	0.18563	0.13253	0.29551	0.076012	0.0675	-2.7146	-3.6771	-3.675	-3.6063	-3.7104	-3.5187	-3.7333	-3.8729	-3.4542	-3.4729	-3.7979	-3.3667	-3.6354	-3.5292	-3.4313	-3.7833	-40.249	224.158	151.922	303.118	34.325	57.162	-41.559	297.560	210.961	163.012	192.629	19.626	163.367	233.084	41.456	176.305	0.00018408	0.00056985	0.00011781	1248.8	3.8926e-06	1.7579e-06	1311.8	254.52	3.6219e-06	6.9472e-06	315.37	87.624	69.444	20.257	1.6541e-06	28.203	0.00039749	0.00043659	0.00010865	1216.5	4.4941e-06	4.7478e-06	1284.1	252.57	4.8095e-06	4.9495e-06	313.37	88.717	70.521	20.859	4.678e-06	28.91	104.012	53.099	21.195	-40.348	219.847	68.642	-40.286	-33.155	132.081	38.234	-33.584	-26.748	-26.190	-19.602	280.646	-20.301	-8191	255	
1292.607	1	1	0	0	0.37838	0.080666	0.30617	0.029459	0.044927	0.04136	0.23529	0.068984	0.21844	0.14543	0.068727	0.17877	0.17728	0.32806	0.12927	0.18795	-2.9646	-3.5479	-3.5458	-3.3625	-3.8396	-3.5125	-3.5458	-3.9479	-3.55	-3.725	-3.7958	-3.4292	-3.7396	-3.4646	-3.3646	-3.7792	113.605	169.695	87.538	36.492	170.220	-48.846	266.426	-11.314	159.862	308.848	54.141	29.793	-44.550	140.374	208.258	-23.563	0.00014633	0.00086485	6.0755e-05	1245.7	4.7049e-06	8.4658e-06	1302.9	254.84	1.9707e-06	4.3338e-06	316.41	87.631	69.229	20.155	4.8299e-07	28.074	0.00046326	0.0004668	0.00011754	1220.1	5.2724e-06	5.1043e-06	1282.3	254.27	5.3846e-06	5.1452e-06	314.09	89.32	70.953	20.835	4.7575e-06	29.021	94.370	51.772	103.727	-40.307	114.841	51.420	-40.108	-33.098	75.571	73.230	-33.508	-27.131	-26.590	-19.577	130.576	-20.142	-8191	255	
1292.728	1	1	0	0	0.10888	0.16927	0.096464	0.24038	0.26656	0.091947	0.13565	0.17433	0.13665	0.11049	0.2394	0.096988	0.15841	0.097138	0.17485	0.13918	-3.1437	-3.4208	-3.8312	-3.6396	-3.6083	-3.5417	-3.5604	-4.0042	-3.475	-3.5729	-3.9958	-3.4833	-3.675	-3.7792	-3.4542	-3.7292	43.122	-36.849	180.721	239.007	274.703	-37.000	288.858	93.389	274.753	-39.895	279.737	245.940	253.513	58.660	1.671	271.281	0.00015302	0.00020574	7.8377e-05	1249.8	2.7133e-06	3.6075e-06	1311	255.83	5.4652e-06	2.9148e-06	316.32	88.02	69.357	20.163	1.723e-06	28.147	0.0004783	0.00045981	0.00011598	1222.3	5.4081e-06	4.8737e-06	1285.3	255.19	5.3609e-06	4.943e-06	314.08	89.657	70.857	20.807	4.6979e-06	29.142	130.996	288.616	-28.477	-40.295	13.405	34.760	-40.173	-33.107	271.927	267.881	-33.612	-27.207	-26.674	-19.987	78.567	-20.218	-8191	255	
1292.824	1	1	0	0	0.067341	0.05562	0.16834	0.08515	0.21124	0.1041	0.038934	0.12499	0.090212	0.094696	0.23113	0.39474	0.14068	0.096468	0.10475	0.22723	-3.1042	-3.5125	-3.8937	-3.6437	-3.7396	-3.8208	-3.7062	-3.8979	-3.5438	-3.5229	-3.9104	-3.5146	-3.6437	-3.5	-3.2812	-3.7271	180.776	8.066	288.506	-43.221	-4.067	306.244	0.629	-0.081	-50.564	162.165	262.882	-46.511	227.544	284.585	260.417	272.582	0.00012395	0.00036511	4.3909e-05	1252.2	4.1674e-06	3.0793e-06	1313.9	256.2	2.8264e-06	4.8806e-06	318.31	87.971	70.182	20.261	4.7645e-06	28.19	0.00047026	0.00045286	0.00011617	1227.4	5.4037e-06	4.7985e-06	1289	256.66	5.2093e-06	4.9866e-06	315.04	89.784	71.081	20.84	4.7601e-06	29.283	94.653	81.040	70.404	-40.373	152.100	61.847	-40.087	-33.236	67.459	49.601	-33.350	-27.014	-26.952	-20.057	95.033	-20.241	-8191	255	
1292.920	1	1	0	0	0.0838	0.087399	0.15365	0.28493	0.20108	0.27702	0.13987	0.17749	0.14236	0.087886	0.11946	0.11771	0.086212	0.079461	0.089601	0.17437	-3.1958	-3.5354	-3.9146	-3.6875	-3.4958	-3.7146	-3.4958	-3.7479	-3.6396	-3.4229	-3.9417	-3.4771	-3.5354	-3.5917	-3.4813	-3.5563	8.325	227.297	128.711	277.288	306.441	139.465	239.989	275.440	88.179	-23.514	64.253	246.315	284.207	199.583	223.159	25.485	5.375e-05	0.00024403	6.95e-05	1247.3	2.1468e-06	1.5871e-06	1311.3	256.5	1.6533e-06	4.7008e-06	319.22	88.689	69.467	20.418	2.6357e-06	28.306	0.0004476	0.00044197	0.00011978	1225.6	5.1011e-06	4.575e-06	1287.5	256.46	4.9461e-06	4.791e-06	316.23	90.323	70.851	20.862	5.1118e-06	29.424	199.990	2.858	-9.945	-40.326	48.809	247.149	-40.163	-33.158	130.366	97.758	-33.333	-26.938	-27.079	-20.367	239.755	-20.213	-8191	255	
1293.041	1	1	0	0	0.084402	0.05133	0.13347	0.36178	0.24581	0.16753	0.2343	0.12078	0.063377	0.039408	0.14315	0.1154	0.054409	0.06317	0.05113	0.30138	-3.1167	-3.4	-3.7687	-3.7104	-3.4813	-3.7917	-3.5083	-3.8042	-3.6792	-3.4271	-3.8521	-3.325	-3.4792	-3.8208	-3.2771	-3.6437	81.073	-5.672	270.412	248.985	164.498	241.610	211.472	234.838	17.424	137.852	294.821	263.768	1.015	205.682	209.016	220.621	0.00010963	0.00049718	0.00021762	1245.8	1.0346e-06	3.5883e-06	1318.4	257.81	8.8691e-07	4.3035e-06	319.58	88.785	69.848	20.416	2.4014e-06	28.389	0.00043326	0.00043474	0.00012744	1228.3	5.0762e-06	4.5235e-06	1294.2	257.56	4.7258e-06	4.6161e-06	317.68	90.172	70.898	20.891	5.0173e-06	29.321	59.102	-1.908	149.591	-40.219	265.464	228.301	-40.319	-33.435	270.727	143.856	-33.263	-27.044	-26.870	-19.938	104.776	-20.688	-8191	255	
1293.112	1	1	0	0	0.39957	0.12191	0.34335	0.25484	0.14313	0.11027	0.12001	0.07142	0.063274	0.054484	0.11281	0.051211	0.15687	0.21731	0.17059	0.29701	-3.3	-3.4229	-3.6167	-3.6604	-3.4437	-3.7438	-3.5792	-3.6354	-3.6083	-3.4625	-3.6792	-3.6208	-3.4292	-3.7667	-3.4979	-3.5271	45.946	138.358	147.380	250.787	10.889	170.352	278.752	-33.425	-46.108	290.541	-40.916	165.328	253.812	-24.514	122.228	299.613	6.7485e-05	0.00012419	3.9097e-05	1256.3	5.4994e-06	2.2652e-06	1314.9	259.03	2.8172e-06	2.0778e-06	319.5	89.385	70.283	20.554	2.4973e-07	28.79	0.00039146	0.00040216	0.00012477	1226.8	4.4433e-06	4.1267e-06	1291.8	256.78	4.1947e-06	4.3386e-06	317.1	90.203	70.898	21.04	5.1309e-06	29.533	106.049	241.908	135.385	-40.112	78.624	205.529	-40.182	-33.353	-2.695	158.642	-33.245	-26.891	-26.784	-20.055	154.190	-20.435	-8191	255	
1293.207	1	1	0	0	0.078185	0.1042	0.29865	0.29462	0.014466	0.16185	0.2466	0.16186	0.096973	0.027444	0.16454	0.13544	0.1804	0.29316	0.26306	0.26042	-3.5479	-3.275	-3.6896	-3.8146	-3.375	-3.8708	-3.8812	-3.4771	-3.6312	-3.4021	-3.8438	-3.7417	-3.4417	-3.6604	-3.5708	-3.3958	107.862	154.955	112.636	261.799	24.249	169.048	272.712	238.312	80.039	64.924	117.053	230.815	181.813	-17.214	275.015	-38.354	0.00012719	0.00029644	0.00015923	1260.3	2.2621e-06	2.8254e-06	1318.9	260.28	5.392e-07	6.4879e-06	322.16	89.306	70.408	20.634	4.0277e-06	28.86	0.00039262	0.0004379	0.00013526	1231.7	4.5901e-06	4.7203e-06	1297.2	259.21	4.3959e-06	4.9391e-06	320.4	90.45	71.297	21.296	5.2425e-06	29.563	78.976	126.945	73.981	-40.410	116.381	73.241	-39.966	-33.292	132.222	123.139	-33.415	-26.999	-26.783	-20.222	93.787	-20.499	-8191	255	
1293.327	1	1	0	0	0.24673	0.12283	0.064826	0.12848	0.25887	0.12293	0.09498	0.26058	0.12969	0.090765	0.15011	0.1082	0.1923	0.10944	0.13043	0.27426	-3.5542	-3.5125	-3.5271	-3.7771	-3.2833	-3.7646	-3.7438	-3.525	-3.8958	-3.4542	-3.6979	-3.7687	-3.275	-3.7875	-3.6417	-3.3167	9.522	80.263	56.583	279.199	284.026	4.588	202.335	277.589	44.116	110.739	299.132	267.652	249.940	-41.798	163.520	177.010	0.00014848	0.00028063	0.00010299	1253.4	2.476e-06	3.9205e-06	1316	261.09	1.0841e-06	3.5158e-06	322.93	89.276	70.407	20.656	3.2665e-06	28.85	0.00039765	0.00047754	0.00013664	1227.8	4.764e-06	5.3614e-06	1294.4	259.36	4.6997e-06	5.6231e-06	320.92	90.877	71.742	21.466	5.5445e-06	29.789	77.453	93.699	55.069	-40.149	232.759	111.961	-40.142	-33.430	187.784	204.870	-33.364	-27.308	-26.892	-20.029	50.508	-20.258	-8191	255	
1293.423	1	1	0	0	0.17994	0.098538	0.30287	0.10551	0.13686	0.0975	0.21667	0.083437	0.14248	0.11041	0.27299	0.24278	0.26509	0.22853	0.13702	0.36746	-3.3417	-3.4396	-3.4375	-3.7938	-3.2854	-3.7125	-3.6604	-3.2438	-3.8458	-3.4688	-3.6688	-3.675	-3.4271	-3.7354	-3.6333	-3.5021	146.835	270.491	179.408	281.274	270.626	167.327	184.666	250.607	43.807	23.899	220.442	306.047	239.316	-26.473	202.666	-15.731	0.00023073	0.00050734	0.00017468	1258.3	2.775e-06	7.1436e-06	1323.8	261.04	3.3314e-06	4.291e-06	322.8	89.565	70.607	20.768	3.8342e-06	29.05	0.00044918	0.00055273	0.00014767	1233.4	5.4179e-06	6.1429e-06	1303.1	261.24	5.4792e-06	6.3069e-06	323.44	91.511	72.669	21.795	5.7973e-06	30.031	128.371	-26.365	40.905	-40.179	125.964	-14.905	-40.081	-33.600	122.153	94.905	-33.577	-27.435	-26.954	-20.192	128.718	-20.278	-8191	255	
1293.520	1	1	0	0	0.071486	0.10702	0.14218	0.16132	0.13775	0.14076	0.33208	0.052292	0.23789	0.037907	0.36093	0.18877	0.1061	0.2079	0.16095	0.20229	-3.3375	-3.3833	-3.3479	-3.9313	-3.3667	-3.6646	-3.8146	-3.2125	-3.6312	-3.4375	-3.5667	-3.6542	-3.5875	-3.8417	-3.7313	-3.4062	23.112	44.678	124.591	268.961	-2.505	-6.774	254.694	17.208	112.775	109.575	214.699	305.169	218.004	249.919	102.317	186.147	0.00024198	0.00053915	9.6169e-05	1266.5	4.4213e-06	7.2313e-06	1333.1	262.79	3.3005e-06	6.4556e-06	323.92	89.985	70.871	20.831	2.6195e-06	28.983	0.00051626	0.00058791	0.00015137	1243.4	5.9802e-06	6.3643e-06	1308.5	263.26	5.8737e-06	6.1439e-06	324.62	91.632	73.092	21.684	5.5372e-06	29.977	129.244	85.062	88.884	-40.378	130.691	13.832	-40.280	-33.384	229.061	98.538	-33.661	-27.263	-27.112	-20.066	38.842	-20.658	-8191	255	
1293.616	1	1	0	0	0.10086	0.23614	0.20588	0.22711	0.0020656	0.094691	0.25698	0.14268	0.2383	0.079858	0.21355	0.22224	0.11493	0.23165	0.32528	0.14006	-3.3708	-3.5458	-3.4667	-3.9313	-3.6063	-3.4896	-3.7792	-3.4938	-3.6479	-3.4562	-3.5	-3.95	-3.7542	-3.7104	-3.5854	-3.4354	3.163	284.946	293.618	303.939	180.000	118.830	271.344	-19.916	-39.142	294.118	246.999	178.506	263.031	30.504	106.973	20.775	0.00017453	0.001194	0.00017458	1273.6	5.8856e-06	1.3407e-06	1336.2	264.5	3.8481e-06	4.539e-07	325.71	90.088	71.099	20.888	1.0628e-06	29.306	0.00053856	0.00055249	0.00014604	1245.6	6.161e-06	5.9916e-06	1311.6	264.09	6.0811e-06	5.6778e-06	324.62	91.824	73.055	21.7	5.1262e-06	30.121	62.434	47.243	-9.216	-40.277	154.314	159.985	-40.131	-33.329	162.090	81.743	-33.631	-27.144	-26.859	-20.344	276.245	-20.473	-8191	255	
1293.736	1	1	0	0	0.11093	0.090218	0.15319	0.17481	0.11004	0.15425	0.28532	0.079434	0.097373	0.1278	0.032418	0.12711	0.12099	0.094581	0.086673	0.17697	-3.4958	-3.6479	-3.4792	-4.15	-3.7042	-3.6208	-3.8896	-3.6083	-3.5625	-3.6354	-3.4958	-3.9083	-3.4146	-3.4292	-3.7062	-3.4562	-49.050	-45.829	-35.494	236.313	-43.087	13.404	231.908	206.802	202.108	216.171	93.922	252.984	127.235	88.916	143.082	-33.188	0.00017385	0.00028504	0.00010832	1272.8	2.6288e-06	2.923e-06	1338	263.79	8.6485e-06	8.0754e-06	327.3	90.401	71.331	20.845	1.5147e-06	28.946	0.00054103	0.00050838	0.00013959	1248.4	6.1747e-06	5.8209e-06	1310.6	264.7	6.3999e-06	5.796e-06	325.93	92.45	73.323	21.74	5.2906e-06	30.232	114.364	-29.181	97.338	-40.174	113.547	21.296	-40.043	-33.631	14.670	104.386	-33.578	-27.120	-27.130	-19.813	150.797	-20.568	-8191	255	
1293.808	1	1	0	0	0.052113	0.2503	0.13574	0.31607	0.10842	0.2339	0.22569	0.0415	0.25915	0.019795	0.25408	0.19366	0.21171	0.073481	0.17157	0.080509	-3.3104	-3.7667	-3.4479	-3.8979	-3.5646	-3.4479	-3.9062	-3.3958	-3.5563	-3.65	-3.3021	-3.6625	-3.6	-3.4542	-3.675	-3.4667	303.736	11.271	13.486	274.090	129.436	-19.373	293.855	151.925	52.885	252.104	252.222	-41.613	-0.054	5.237	117.799	158.071	0.00022829	0.00062944	9.3767e-05	1270.1	2.4959e-06	7.3012e-06	1324.3	262.76	1.2403e-06	3.4785e-06	323.72	89.845	70.932	20.621	2.3138e-06	28.754	0.00055416	0.00050608	0.00013869	1247.3	5.964e-06	5.6313e-06	1306.4	263.8	5.9883e-06	5.4625e-06	323.68	92.317	72.761	21.547	5.4186e-06	30.123	96.478	-1.240	62.694	-40.410	81.661	50.505	-40.296	-33.317	117.393	63.163	-33.384	-27.226	-26.598	-20.064	69.166	-20.316	-8191	255	
1293.904	1	1	0	0	0.044677	0.27533	0.095363	0.23765	0.05349	0.090605	0.18705	0.28696	0.14799	0.095093	0.3177	0.24037	0.067472	0.10336	0.031193	0.03504	-3.2083	-3.6437	-3.425	-3.7687	-3.7062	-3.4188	-3.8229	-3.5812	-3.4917	-3.6021	-3.3667	-3.5604	-3.5792	-3.3604	-3.7104	-3.5854	114.436	274.161	144.728	164.445	269.720	272.411	265.484	186.795	71.496	21.577	222.063	273.594	206.367	75.674	206.087	46.745	4.6685e-05	0.00025919	0.00011451	1270.9	5.1042e-06	3.2133e-06	1329.4	263.04	3.3445e-07	1.0127e-05	326.31	89.57	70.793	20.676	3.497e-06	28.629	0.00054666	0.00051308	0.00014746	1251.5	6.1023e-06	5.8391e-06	1310.8	265.03	6.0799e-06	5.4237e-06	325.26	92.003	72.28	21.343	5.4474e-06	29.895	92.742	-43.776	38.659	-40.267	102.836	-2.240	-40.105	-33.336	-35.810	96.086	-33.682	-27.245	-27.141	-20.041	222.521	-20.233	-8191	255	
1294.000	1	1	0	0	0.19168	0.22519	0.22183	0.077357	0.16685	0.12023	0.35533	0.10068	0.15877	0.18696	0.067244	0.15283	0.17092	0.09823	0.037467	0.032753	-3.2021	-3.7771	-3.1125	-3.9062	-3.4354	-3.2771	-3.9875	-3.4104	-3.4375	-3.8333	-3.4417	-3.6458	-3.575	-3.2958	-3.7146	-3.7229	-39.394	139.515	160.173	-51.001	15.387	206.036	253.970	287.554	26.423	136.131	176.661	232.178	-39.743	199.448	14.143	-40.928	0.00015466	0.0005824	5.8259e-05	1264.2	4.7591e-06	4.0866e-06	1325.5	260.47	3.8695e-06	5.215e-06	322.22	88.916	70.197	20.415	1.867e-06	28.563	0.0004936	0.00045085	0.00014093	1244	5.1698e-06	5.0274e-06	1303.8	260.89	5.3509e-06	4.7453e-06	321.45	91.076	71.459	21.074	5.62e-06	29.588	61.302	26.097	201.820	-40.298	199.498	86.468	-40.199	-33.295	131.406	152.790	-33.473	-26.904	-26.583	-19.848	180.989	-20.023	-8191	255	
1294.119	1	1	0	0	0.12374	0.10379	0.06237	0.19944	0.16335	0.22473	0.23139	0.11281	0.052853	0.085074	0.18966	0.040401	0.33474	0.045745	0.09636	0.3223	-2.9667	-3.7167	-3.3292	-3.6937	-3.5625	-3.4437	-3.8563	-3.6208	-3.3208	-3.825	-3.5021	-3.4542	-3.825	-3.2375	-3.7646	-3.4479	139.176	100.434	164.560	248.855	139.968	74.489	208.548	273.996	148.761	-7.400	-33.465	300.153	275.072	1.880	-2.666	250.034	0.0001609	0.00028863	9.3066e-05	1263.6	1.6679e-06	5.8092e-06	1329.6	260.81	4.7482e-06	2.6322e-06	321.67	89.207	69.738	20.44	3.42e-06	28.401	0.00047087	0.00044358	0.00014715	1242.5	4.9876e-06	5.1006e-06	1307.4	260.22	5.0243e-06	4.7939e-06	320.9	90.497	70.832	21.004	5.2887e-06	29.251	131.730	124.313	130.448	-40.297	87.026	71.390	-40.060	-33.393	78.711	116.243	-33.403	-27.185	-26.701	-19.831	65.012	-20.512	-8191	255	
1294.215	1	1	0	0	0.17007	0.061973	0.093186	0.22577	0.12638	0.12847	0.13018	0.085933	0.090254	0.058062	0.058433	0.14324	0.10563	0.1528	0.29692	0.21288	-2.9979	-3.5104	-3.3125	-3.6958	-3.6625	-3.4146	-3.8771	-3.5563	-3.1854	-3.6979	-3.55	-3.4229	-3.7083	-3.4542	-3.7938	-3.6833	143.046	8.386	113.365	265.756	272.104	107.677	248.353	298.994	-27.774	271.778	284.957	158.487	261.714	7.427	27.675	228.851	4.9434e-05	0.00021179	0.00013249	1259.5	9.0196e-07	1.9608e-06	1317.9	259.11	4.3276e-06	3.08e-06	317.61	88.337	69.429	20.19	3.1078e-06	28.173	0.00040875	0.00040836	0.00013006	1230	4.2412e-06	4.5632e-06	1294.5	256.86	4.3062e-06	4.4163e-06	316.35	89.162	69.96	20.776	4.788e-06	28.831	60.799	93.178	303.466	-40.270	230.278	83.031	-40.117	-33.212	199.992	125.515	-33.455	-27.185	-26.800	-19.552	139.441	-20.196	-8191	255	
1294.312	1	1	0	0	0.078244	0.06393	0.12236	0.17219	0.089919	0.13628	0.11668	0.081099	0.093767	0.17578	0.21371	0.11994	0.069387	0.25306	0.010415	0.14053	-2.9125	-3.7854	-3.4437	-3.4583	-3.7854	-3.3271	-3.8792	-3.7333	-3.4062	-3.75	-3.5125	-3.4771	-3.8667	-3.5271	-3.6042	-3.7208	181.250	109.156	193.634	301.838	150.805	118.221	202.636	-22.529	170.452	175.376	198.071	-48.744	-21.005	294.520	117.568	307.718	0.00020143	0.0004387	0.00011051	1246.5	6.3454e-06	3.5443e-06	1302	255.26	1.91e-06	9.1272e-07	314.23	87.442	68.411	20.048	1.2297e-06	27.934	0.00037146	0.00040929	0.00011887	1217.3	3.9854e-06	4.6144e-06	1282.5	252.91	3.9858e-06	4.4201e-06	312.77	88.102	68.877	20.47	4.0966e-06	28.415	110.995	80.438	-10.843	-40.191	139.286	52.898	-40.356	-33.332	215.312	-1.615	-33.478	-26.924	-26.614	-19.747	95.191	-20.348	-8191	255	
1294.408	1	1	0	0	0.061668	0.099223	0.1971	0.1348	0.055475	0.075272	0.31399	0.15602	0.11794	0.14573	0.13378	0.18986	0.16111	0.2564	0.12542	0.14344	-3.125	-3.725	-3.4042	-3.2375	-3.6437	-3.5	-3.8854	-3.9146	-3.4146	-3.7583	-3.575	-3.4146	-3.7896	-3.4437	-3.6146	-3.925	-18.026	-6.128	203.184	225.949	21.437	62.264	264.098	256.054	258.127	84.636	-17.536	279.467	164.795	-19.889	107.687	-12.569	0.00011608	0.00060419	8.5223e-05	1230	3.544e-06	3.0683e-06	1299.3	250.13	4.6199e-06	2.8403e-06	310.46	86.566	67.584	19.862	3.7092e-06	27.602	0.00033099	0.00037195	9.8123e-05	1201.4	3.5125e-06	4.0907e-06	1267.8	247.55	3.7112e-06	4.1297e-06	307.44	86.82	68.123	20.285	3.7814e-06	28.098	108.055	124.541	5.119	-40.175	176.465	68.832	-40.119	-33.280	170.038	141.602	-33.287	-26.824	-26.295	-19.364	95.057	-20.230	-8191	255	
1294.504	1	1	0	0	0.30613	0.18793	0.16405	0.30974	0.17088	0.27359	0.3392	0.090959	0.25684	0.25594	0.063477	0.23946	0.34537	0.20494	0.14432	0.18921	-3.0104	-3.5542	-3.5354	-3.4583	-3.6708	-3.4271	-3.575	-3.7271	-3.2479	-3.6312	-3.9479	-3.2583	-3.7917	-3.5208	-3.3917	-3.8583	286.352	219.873	-43.293	158.912	242.909	289.831	244.461	276.860	-46.410	278.143	180.261	218.284	-20.087	259.166	222.132	162.270	0.00017821	0.00013657	7.6326e-05	1224.4	2.1025e-06	2.1536e-06	1284.1	247.67	3.13e-06	4.4071e-06	308.29	85.865	67.089	19.633	2.8689e-06	27.605	0.00033402	0.00036489	9.1657e-05	1192.9	3.6093e-06	3.782e-06	1255.4	244.73	3.6642e-06	3.8007e-06	303.7	85.986	67.586	19.995	3.3819e-06	27.904	104.733	48.291	16.167	-40.038	143.547	-17.584	-39.984	-33.286	148.361	12.821	-33.171	-26.981	-26.683	-19.688	116.922	-20.023	-8191	255	
1294.600	1	1	0	0	0.096013	0.1952	0.11125	0.27357	0.16102	0.19731	0.10704	0.17243	0.12405	0.20326	0.17799	0.13033	0.11575	0.25338	0.12138	0.06857	-3.0396	-3.5604	-3.4938	-3.4021	-3.6958	-3.3292	-3.525	-3.8604	-3.3937	-3.6813	-3.8667	-3.5	-3.675	-3.7021	-3.1729	-3.8438	49.268	-32.113	39.671	249.423	-5.339	299.538	288.819	278.689	82.066	114.432	260.096	126.406	-21.213	288.483	196.867	152.235	0.00018774	0.00024019	0.00017241	1217.3	2.3896e-06	3.5298e-06	1282.1	246.75	4.7739e-06	2.3011e-06	307.14	85.401	67.212	19.69	1.9804e-06	27.396	0.0003284	0.00033146	8.3643e-05	1183.5	3.6654e-06	3.5923e-06	1250	243.35	3.8446e-06	3.6313e-06	302.35	85.754	67.608	19.899	3.4718e-06	27.804	115.896	-4.890	-40.888	-40.065	174.419	108.530	-39.990	-33.429	104.690	114.585	-33.238	-26.565	-26.392	-19.693	4.322	-20.062	-8191	255	
1294.721	1	1	0	0	0.1478	0.1814	0.16775	0.28016	0.14409	0.084105	0.11356	0.19525	0.11947	0.10265	0.1712	0.14575	0.29753	0.12605	0.30704	0.058269	-2.9729	-3.4375	-3.55	-3.4896	-3.5854	-3.5563	-3.5771	-3.8125	-3.4646	-3.4792	-3.8979	-3.325	-3.825	-3.6354	-3.325	-3.7354	221.840	277.953	242.598	286.109	27.630	19.396	200.718	219.611	258.612	22.632	-40.318	1.122	308.557	122.254	7.981	180.760	8.793e-05	0.0004284	0.00017457	1207.8	3.9526e-06	1.2803e-06	1278.7	246.9	6.0624e-06	5.1606e-06	305.94	85.157	66.779	19.596	3.4942e-06	27.395	0.00034668	0.00033462	8.3444e-05	1179.6	3.8983e-06	3.5131e-06	1245.2	243.37	3.9246e-06	3.6809e-06	301.08	85.806	67.355	19.855	3.5449e-06	27.876	59.274	-3.288	46.328	-40.052	134.112	-12.922	-40.152	-33.001	29.981	79.002	-33.301	-26.735	-26.398	-19.532	140.012	-19.928	-8191	255	
1294.817	1	1	0	0	0.26195	0.28719	0.25544	0.15272	0.32627	0.13126	0.12551	0.046522	0.14373	0.10168	0.15172	0.19036	0.097348	0.34046	0.1905	0.012899	-3.0792	-3.3833	-3.7771	-3.5792	-3.7188	-3.7042	-3.3812	-3.7271	-3.6	-3.5292	-3.8292	-3.4771	-3.6854	-3.6771	-3.3521	-3.6896	-43.986	267.630	289.265	-36.890	101.519	-2.596	281.828	151.667	84.010	190.689	-34.285	138.539	267.605	3.745	82.834	171.434	0.000113	0.00066991	0.00014134	1208	5.4999e-06	2.9455e-06	1274.2	246.41	1.6234e-06	3.7817e-06	306.62	85.322	66.881	19.424	1.3133e-06	27.321	0.000361	0.00034444	8.6584e-05	1182.2	4.1007e-06	3.6937e-06	1245.6	244.74	4.0405e-06	3.8225e-06	301.58	86.132	67.358	19.767	3.6469e-06	27.954	117.427	-21.288	30.970	-39.917	128.367	19.968	-40.125	-32.976	23.921	80.939	-33.295	-26.878	-26.728	-19.818	-2.659	-19.987	-8191	255	
1294.913	1	1	0	0	0.17265	0.25311	0.023357	0.20798	0.14488	0.23088	0.17882	0.19898	0.1497	0.032343	0.14637	0.082884	0.23037	0.079942	0.098811	0.16077	-3.0271	-3.2021	-3.7104	-3.4354	-3.275	-3.7083	-3.5271	-3.7792	-3.3312	-3.4208	-3.8271	-3.425	-3.7729	-3.6063	-3.2292	-3.6521	4.208	0.458	-42.510	291.749	42.802	9.177	261.838	287.537	1.465	280.844	18.156	-35.020	39.634	26.095	27.639	18.868	5.6494e-05	0.00043507	0.0002006	1212.7	2.1917e-07	2.1169e-06	1272.7	245.57	3.6174e-06	5.1619e-06	306.28	85.244	67.245	19.541	2.6848e-06	27.257	0.00035232	0.00034484	8.943e-05	1184.6	3.9719e-06	3.5552e-06	1248.7	244.7	3.8408e-06	3.7166e-06	302.54	86.08	67.478	19.799	3.812e-06	27.982	61.748	56.596	72.992	-40.086	-37.782	128.256	-39.920	-33.031	167.072	-22.590	-33.094	-26.900	-26.424	-19.449	118.485	-20.264	-8191	255	
1295.009	1	1	0	0	0.15051	0.04043	0.080123	0.171	0.0013371	0.22232	0.046001	0.31052	0.14654	0.17951	0.21006	0.16489	0.15283	0.11378	0.029388	0.092469	-3.0563	-3.3958	-3.6375	-3.4062	-3.4813	-3.6979	-3.6021	-3.5396	-3.6792	-3.2313	-4.0375	-3.7896	-3.5062	-3.8271	-3.2917	-3.7521	94.053	121.695	210.182	259.019	180.000	57.126	43.288	260.133	-27.560	283.980	201.604	210.497	201.554	11.877	-11.314	-15.982	0.00012024	8.5436e-05	4.1295e-05	1211.3	7.4183e-07	5.2674e-06	1276	247.16	2.2388e-06	2.3498e-06	306.45	85.249	66.53	19.513	4.6562e-06	27.27	0.00034074	0.00033263	9.7988e-05	1183.5	3.8547e-06	3.4739e-06	1250.5	244.9	3.6809e-06	3.6257e-06	303	85.96	67.257	19.794	4.1413e-06	27.989	128.935	67.956	184.560	-40.191	250.018	8.971	-40.079	-33.187	-48.738	158.837	-33.249	-26.937	-26.463	-19.382	129.427	-20.016	-8191	255	
1295.105	1	1	0	0	0.20115	0.16179	0.21489	0.1131	0.26368	0.031203	0.11277	0.17988	0.21102	0.095821	0.2311	0.024341	0.033398	0.16577	0.29425	0.15545	-3.3833	-3.1604	-3.6958	-3.6479	-3.3333	-3.8208	-3.5812	-3.8354	-3.7521	-3.4604	-3.9188	-3.6958	-3.8396	-3.8833	-3.4979	-3.5021	40.093	236.424	-0.013	12.702	-18.645	164.102	-42.698	-29.007	251.187	34.131	249.854	286.854	-41.868	68.656	201.799	166.698	0.00018612	0.00030661	5.2966e-05	1211.9	2.0804e-06	6.4423e-06	1275.6	247.35	6.1797e-06	2.5984e-06	307.8	85.514	66.676	19.463	2.2547e-06	27.534	0.00033749	0.00033873	0.00010512	1185.5	3.8787e-06	3.5594e-06	1252.5	245.05	3.6492e-06	3.7598e-06	303.96	85.742	67.216	19.86	4.2181e-06	27.911	94.130	17.323	57.154	-39.954	114.614	106.297	-40.140	-33.245	34.655	11.469	-33.254	-26.949	-26.647	-19.792	26.869	-20.270	-8191	255	
1295.200	1	1	0	0	0.14548	0.19368	0.074477	0.13281	0.37012	0.097695	0.23259	0.064673	0.13202	0.15486	0.16628	0.20387	0.21274	0.037823	0.14154	0.1784	-3.625	-3.3375	-3.6542	-3.9104	-3.3979	-3.95	-3.7188	-3.7396	-3.9979	-3.5187	-4.05	-4.0292	-3.6	-3.7208	-3.7479	-3.5646	30.332	202.713	293.830	260.209	87.722	27.129	257.734	-42.388	126.685	41.218	251.340	117.278	273.033	111.181	83.474	189.804	0.0001942	0.00061433	0.00016578	1212.4	5.0197e-06	1.669e-06	1275.4	245.96	1.7399e-06	3.034e-06	306.14	84.528	66.026	19.363	2.6484e-06	27.29	0.00032003	0.00034518	0.000108	1183.7	3.6793e-06	3.6956e-06	1250.9	243.96	3.4483e-06	3.8082e-06	302.11	85.169	66.64	19.727	4.0137e-06	27.746	104.596	126.906	30.613	-40.087	100.951	46.406	-40.039	-33.033	44.620	57.461	-33.084	-26.812	-26.686	-19.376	65.306	-19.837	-8191	255	
1295.296	1	1	0	0	0.3555	0.097197	0.15882	0.021917	0.18699	0.042882	0.31572	0.14634	0.062016	0.027411	0.051448	0.11494	0.13544	0.26618	0.21749	0.23708	-3.4375	-3.4854	-3.3937	-3.6354	-3.2604	-3.75	-3.6271	-3.425	-3.7062	-3.5083	-3.8208	-3.6396	-3.2771	-3.6437	-3.6667	-3.3312	2.975	145.174	48.743	286.319	283.644	189.219	201.469	-40.076	25.404	23.916	115.398	0.824	97.706	87.623	142.316	-11.870	0.00012685	0.00090031	7.1422e-05	1203.3	1.2481e-06	4.3393e-06	1270.6	245.04	3.9331e-06	1.1807e-06	304.38	83.965	66.216	19.284	2.437e-06	27.085	0.00030092	0.00035889	0.00010316	1176.5	3.6032e-06	3.9484e-06	1245.1	242.98	3.5377e-06	4.0933e-06	301.65	84.845	66.606	19.711	3.8752e-06	27.532	100.904	37.401	30.604	-40.145	208.273	129.649	-40.063	-33.053	5.996	31.086	-33.421	-26.847	-26.679	-20.156	14.923	-19.994	-8191	255	
1295.416	1	1	0	0	0.24805	0.2465	0.11117	0.15268	0.12262	0.019551	0.17383	0.076062	0.048738	0.21363	0.176	0.19745	0.14977	0.067113	0.04825	0.015509	-3.3375	-3.3896	-3.5021	-3.6229	-3.375	-3.6667	-3.7479	-3.4	-3.5521	-3.6063	-3.4792	-3.6417	-3.1833	-3.5563	-3.5333	-3.4604	92.394	36.771	28.081	-24.677	216.159	213.398	223.560	255.636	169.790	256.573	64.218	-42.276	61.471	-5.902	101.507	70.878	0.00018051	0.00039495	0.0002087	1196.7	1.2086e-06	5.1166e-06	1255	242.49	2.1059e-06	6.9233e-06	300.74	83.134	65.002	18.949	2.6017e-06	26.652	0.00030636	0.00036729	9.7175e-05	1167.2	3.4539e-06	3.8363e-06	1228.4	239.2	3.2081e-06	3.7469e-06	297.16	83.116	65.163	19.317	3.4025e-06	26.985	99.852	106.521	12.686	-40.094	251.267	109.925	-40.053	-32.951	16.365	2.202	-33.412	-26.596	-26.624	-19.311	125.208	-19.864	-8191	255	
1295.513	1	1	0	0	0.14636	0.0034326	0.20553	0.11567	0.015934	0.17641	0.11574	0.32446	0.13323	0.12528	0.1212	0.14992	0.43283	0.13079	0.16786	0.0783	-3.3458	-3.3292	-3.5	-3.925	-3.325	-3.5958	-3.7396	-3.4688	-3.7646	-3.5229	-3.5854	-3.9083	-3.3458	-3.5542	-3.6458	-3.3625	260.945	140.495	-19.768	-31.249	252.856	190.280	277.981	169.351	295.681	114.654	257.775	307.819	93.996	282.401	249.056	62.353	6.7313e-05	0.00023746	0.00010736	1185.1	2.2526e-07	4.7592e-06	1242.7	239.62	1.8626e-06	9.6474e-06	299.37	82.389	64.709	18.75	1.3047e-06	26.481	0.00030036	0.00033964	8.7686e-05	1152.4	3.4733e-06	3.7181e-06	1214.9	236.51	3.4734e-06	3.6045e-06	294.85	82.57	64.98	19.146	3.2088e-06	26.747	112.269	63.579	46.818	-39.880	27.660	77.137	-39.843	-33.080	161.132	79.404	-33.239	-26.899	-26.738	-19.186	193.168	-19.262	-8191	255	
1295.609	1	1	0	0	0.12356	0.18125	0.153	0.19562	0.17187	0.17337	0.25458	0.30036	0.11202	0.13574	0.21242	0.11004	0.17855	0.043919	0.30767	0.055531	-3.3604	-3.4125	-3.3646	-3.8479	-3.3063	-3.6229	-3.9479	-3.2938	-3.8396	-3.8375	-3.6583	-3.8917	-3.5187	-3.7188	-3.6437	-3.5646	42.808	278.520	142.492	196.559	40.620	98.496	283.086	-46.133	-46.707	143.205	277.032	-41.131	276.383	287.152	26.894	95.552	0.0001394	0.00035853	4.4293e-05	1164.8	1.5301e-06	4.5833e-06	1225	236.5	4.7978e-06	6.1489e-06	293.92	81.427	63.405	18.44	3.0638e-06	26.039	0.00030744	0.00031279	8.2531e-05	1132.7	3.4615e-06	3.3568e-06	1194.4	232.64	3.3138e-06	3.1762e-06	288.94	81.192	63.63	18.719	2.8488e-06	26.319	120.280	-45.323	63.446	-39.815	47.397	72.702	-39.831	-32.815	127.472	98.211	-33.013	-26.480	-26.337	-19.483	78.151	-19.966	-8191	255	
1295.680	1	1	0	0	0.14455	0.17622	0.37167	0.37076	0.19244	0.0030454	0.29713	0.30614	0.1864	0.065943	0.12826	0.10832	0.026573	0.098574	0.23336	0.12377	-3.3854	-3.4146	-3.4083	-3.9813	-3.4146	-3.5854	-4.0396	-3.4938	-3.7375	-3.6188	-3.5167	-3.8896	-3.3563	-3.5333	-3.5521	-3.5417	40.180	128.811	24.153	3.441	93.530	212.844	225.783	286.858	54.489	291.794	257.452	-24.143	297.797	-10.868	146.907	166.679	0.00015948	0.00054996	9.6997e-05	1151.5	4.4842e-06	1.1396e-06	1211.5	232.9	3.2708e-06	2.4021e-06	292.48	80.916	63.241	18.49	1.8049e-06	26.104	0.00029781	0.00027826	7.5773e-05	1119.2	3.3567e-06	3.1587e-06	1181.7	229.96	3.3819e-06	3.0838e-06	287.2	81	63.476	18.686	2.82e-06	26.393	107.791	4.454	307.451	-39.972	111.100	108.944	-39.831	-32.717	90.686	199.007	-33.256	-26.488	-26.542	-19.460	135.075	-19.830	-8191	255	
1295.801	1	1	0	0	0.18859	0.11373	0.09884	0.083517	0.20374	0.24234	0.33516	0.10356	0.26026	0.15695	0.2322	0.20844	0.16707	0.10517	0.14472	0.26171	-3.4208	-3.8479	-3.3771	-3.8896	-3.5854	-3.5396	-4.2417	-3.6125	-3.6562	-3.9292	-3.4896	-3.6479	-3.5625	-3.4771	-3.8292	-3.5396	16.356	243.184	106.629	194.963	80.302	274.914	244.652	116.270	284.682	65.191	207.263	40.843	292.959	63.897	-49.086	200.196	0.00014092	0.00051755	2.5607e-05	1148.2	6.5709e-06	2.1472e-06	1210.5	232.62	5.2769e-06	4.0576e-06	291.97	80.851	63.017	18.45	2.379e-06	25.985	0.00030544	0.00027175	7.4351e-05	1117.4	3.2844e-06	3.1102e-06	1179.5	229.8	3.3285e-06	2.9505e-06	286.87	80.973	63.143	18.599	2.8373e-06	26.403	113.378	28.052	-17.485	-40.053	122.805	76.677	-39.667	-32.886	47.469	63.931	-33.202	-26.594	-26.226	-19.152	51.238	-19.470	-8191	255	
1295.897	1	1	0	0	0.25772	0.27907	0.096213	0.27167	0.14422	0.24506	0.35009	0.1907	0.041102	0.33008	0.1356	0.17314	0.33043	0.23315	0.1216	0.18516	-3.25	-3.9562	-3.6333	-3.9604	-3.7729	-3.7208	-4.1354	-3.7271	-3.7958	-3.725	-3.3021	-3.6875	-3.6312	-3.3563	-3.8854	-3.3854	260.626	221.507	210.635	236.510	131.061	303.332	303.648	177.503	95.329	249.421	247.146	292.323	193.077	-30.641	143.544	-1.612	0.00019257	0.00076889	0.0001063	1147.1	3.1791e-07	6.8315e-07	1202	231.93	4.9035e-06	3.3298e-06	292.01	80.25	62.929	18.255	1.7362e-06	25.761	0.0002962	0.00027078	7.6738e-05	1118.1	3.1706e-06	3.0642e-06	1175.5	229.47	3.166e-06	2.7858e-06	286.1	80.751	62.744	18.469	2.8671e-06	26.177	74.308	15.192	141.582	-39.848	239.156	171.361	-39.992	-32.915	-28.761	105.080	-32.929	-26.599	-26.112	-19.469	162.334	-19.801	-8191	255	
1295.993	1	1	0	0	0.1807	0.071492	0.11397	0.21906	0.1371	0.14304	0.22017	0.11725	0.091035	0.35057	0.043839	0.16382	0.12478	0.26069	0.024615	0.025342	-3.0646	-3.7812	-3.3375	-4.0854	-3.6271	-3.4625	-4.0354	-3.6542	-3.6688	-3.7042	-3.3708	-3.7083	-3.6104	-3.4792	-3.8563	-3.5542	51.366	192.069	160.886	-16.179	193.416	-23.831	277.971	133.260	-48.041	295.987	36.868	238.438	275.143	293.000	-7.764	80.306	0.00014857	0.00025179	4.9169e-05	1141.8	1.2951e-06	4.5074e-06	1203.2	230.69	2.2414e-06	3.0904e-06	290.18	80.29	62.555	18.244	2.0224e-06	25.805	0.00027089	0.00024454	7.5821e-05	1109.8	2.8969e-06	2.8458e-06	1173.3	228.21	2.9811e-06	2.7194e-06	284.97	80.497	62.552	18.473	3.1551e-06	26.202	114.655	68.333	293.763	-39.928	35.655	68.369	-39.755	-32.754	83.672	155.634	-33.284	-26.574	-26.241	-19.350	70.229	-19.824	-8191	255	
1296.089	1	1	0	0	0.042542	0.21599	0.11409	0.19686	0.22988	0.16757	0.33428	0.063335	0.24494	0.19047	0.29133	0.090279	0.30251	0.15626	0.2838	0.066974	-2.8896	-3.7292	-3.3729	-3.675	-3.825	-3.4292	-3.8667	-3.6	-3.2938	-3.8167	-3.4437	-3.4958	-3.6104	-3.1604	-3.7771	-3.5229	131.879	274.538	6.588	294.680	291.041	282.401	266.556	293.084	-26.642	107.784	-22.016	128.283	269.774	281.024	235.754	283.727	0.00010315	0.00021291	2.8709e-05	1139.2	4.5632e-06	3.9215e-06	1202.1	230.37	6.6321e-06	2.0565e-06	289.96	79.699	63.111	18.23	2.4766e-06	25.888	0.00027418	0.00024997	8.2277e-05	1109.5	2.9067e-06	2.918e-06	1174	227.45	2.9765e-06	2.7743e-06	285.8	80.277	62.639	18.47	3.2385e-06	26.108	102.561	198.484	126.276	-39.990	166.938	102.436	-39.809	-33.034	88.719	149.644	-33.326	-26.485	-26.256	-19.226	191.426	-19.813	-8191	255	
1296.210	1	1	0	0	0.26784	0.19476	0.24864	0.2395	0.15263	0.33954	0.17324	0.27826	0.41983	0.22465	0.17622	0.19414	0.20308	0.22519	0.039205	0.10408	-3.0687	-3.8125	-3.4688	-3.7521	-3.7708	-3.2958	-3.7979	-3.6417	-3.3479	-3.7271	-3.625	-3.5292	-3.8438	-3.2708	-3.7313	-3.8708	262.066	57.378	308.925	306.488	166.292	94.825	243.461	220.778	115.086	-33.528	239.599	302.914	150.604	246.250	248.668	57.860	0.00012836	0.00051014	0.00013326	1140.1	3.3225e-06	2.948e-06	1200.5	229.61	6.018e-06	1.1301e-06	287.91	80.091	62.52	18.182	3.2552e-06	25.841	0.00025722	0.00025293	8.2692e-05	1109.8	2.7222e-06	2.9362e-06	1172.3	227.23	2.8398e-06	2.852e-06	284.17	80.265	62.237	18.373	3.1215e-06	25.981	111.919	-12.416	-26.066	-39.891	37.110	54.375	-39.784	-32.752	144.109	63.329	-33.225	-26.747	-26.260	-19.428	112.120	-20.014	-8191	255	
1296.282	1	1	0	0	0.096895	0.19617	0.19837	0.23141	0.088137	0.13361	0.29354	0.13444	0.11328	0.10119	0.21861	0.067816	0.073207	0.15417	0.092711	0.10456	-2.9188	-3.8646	-3.475	-3.725	-3.6979	-3.5312	-3.7875	-3.7042	-3.3271	-3.8208	-3.5938	-3.4354	-3.6	-3.2958	-3.7062	-3.6292	10.619	84.120	188.331	235.463	-2.510	275.866	-35.040	271.872	115.387	208.156	231.921	-10.709	161.137	297.523	-4.488	13.640	0.00015705	0.00026336	0.00025949	1132.7	1.3394e-06	4.6091e-06	1194.5	229.53	2.7042e-06	7.5485e-06	287.67	79.939	62.607	18.161	3.1836e-06	25.67	0.00024877	0.00026159	7.7522e-05	1100.5	2.6043e-06	2.9643e-06	1164.5	226.03	2.7479e-06	2.9996e-06	283.25	79.972	62.31	18.429	3.0253e-06	25.901	112.198	88.418	65.407	-39.863	225.668	132.852	-39.783	-33.031	125.381	134.181	-33.245	-26.760	-26.652	-19.585	21.347	-19.752	-8191	255	
1296.401	1	1	0	0	0.14666	0.090433	0.046973	0.21814	0.13899	0.035165	0.24285	0.13754	0.22586	0.061783	0.19681	0.080928	0.1416	0.10616	0.18446	0.15328	-2.9313	-3.675	-3.625	-3.6042	-3.8208	-3.3125	-3.7042	-3.7167	-3.3563	-3.5646	-3.6417	-3.4896	-3.7271	-3.4938	-3.5125	-3.7	226.955	225.368	-27.619	277.772	-2.953	39.933	201.183	266.470	285.166	-50.309	292.755	-31.178	3.453	206.102	242.454	152.989	0.00014027	0.00024518	8.226e-05	1132.5	1.7969e-06	4.0449e-06	1191.9	230.08	2.668e-06	3.28e-06	287.46	80.31	62.24	18.227	4.7136e-06	25.767	0.00024741	0.00027768	7.4226e-05	1100.4	2.6216e-06	3.0792e-06	1163.3	225.81	2.7182e-06	3.0586e-06	282.48	79.779	62.026	18.412	2.7881e-06	25.842	88.439	26.614	97.276	-39.968	89.865	116.657	-39.696	-32.672	98.369	170.119	-33.239	-26.663	-26.281	-19.238	102.267	-19.955	-8191	255	
1296.497	1	1	0	0	0.057479	0.066001	0.056886	0.11082	0.14186	0.13332	0.28268	0.17417	0.1469	0.26947	0.26121	0.121	0.23939	0.17878	0.037805	0.1654	-2.8854	-3.6188	-3.5792	-3.3375	-3.65	-3.3875	-3.6417	-3.7792	-3.2979	-3.6813	-3.6646	-3.3625	-3.7708	-3.5292	-3.4938	-3.8812	280.440	-22.481	60.556	191.085	89.933	294.031	300.769	180.679	166.306	261.524	278.229	158.062	238.714	252.909	-30.925	-16.573	0.00010798	0.00044387	6.2865e-05	1125.3	3.6177e-06	3.6953e-06	1190.6	229.98	3.0146e-06	3.7465e-06	288.13	79.851	62.251	18.179	2.1283e-06	25.649	0.00025103	0.00027971	6.9221e-05	1096.6	2.7634e-06	3.0301e-06	1161.3	225.23	2.867e-06	3.0229e-06	282.42	79.792	62.203	18.388	2.75e-06	25.782	82.933	80.065	94.518	-39.901	146.163	10.078	-39.816	-32.757	79.011	93.875	-33.209	-26.846	-26.240	-19.143	79.304	-19.614	-8191	255	
1296.593	1	1	0	0	0.23184	0.15973	0.1205	0.2375	0.12918	0.11386	0.15487	0.21791	0.23917	0.064229	0.098138	0.16141	0.07602	0.1763	0.20415	0.055814	-3.1146	-3.5792	-3.7625	-3.4896	-3.7	-3.5292	-3.6458	-3.925	-3.3167	-3.7125	-3.7938	-3.4292	-3.8667	-3.5792	-3.4042	-3.9979	187.146	297.818	233.881	246.560	291.434	134.402	214.843	276.936	23.237	155.958	266.605	-1.209	267.692	47.495	225.827	283.931	0.00014148	0.00037888	4.3271e-05	1126.2	4.025e-06	1.9423e-06	1182.6	228.88	5.0204e-06	2.3598e-06	286.99	79.434	62.09	18.174	1.1718e-06	25.633	0.00026308	0.00026469	6.6544e-05	1094.4	2.8634e-06	2.8076e-06	1156	224.52	2.9198e-06	2.8426e-06	280.59	79.422	62.023	18.236	2.5764e-06	25.715	115.134	44.253	127.775	-40.073	112.751	55.136	-39.687	-32.780	128.816	97.714	-33.113	-26.678	-26.354	-19.307	55.296	-19.718	-8191	255	
1296.689	1	1	0	0	0.11419	0.1281	0.16937	0.13981	0.13185	0.11892	0.33958	0.17013	0.16809	0.12114	0.25819	0.17667	0.15938	0.32512	0.13746	0.022372	-3.1792	-3.5021	-3.6604	-3.3792	-3.6271	-3.5354	-3.4042	-3.8167	-3.3458	-3.6792	-3.5917	-3.3417	-3.6021	-3.6604	-3.3438	-3.9667	147.532	285.402	282.086	250.077	215.275	270.019	258.322	173.250	175.012	141.659	207.785	249.477	95.228	272.479	123.600	14.008	0.00015221	0.00054832	0.00010867	1119.4	2.0126e-06	4.2202e-06	1185.7	227.61	3.2743e-06	2.7751e-06	287.6	79.137	62.208	18.2	4.7343e-07	25.582	0.00026606	0.00024909	6.2234e-05	1089	2.914e-06	2.678e-06	1153.4	224.08	2.9387e-06	2.7233e-06	280.9	79.312	61.994	18.269	2.6252e-06	25.73	112.532	49.330	-37.217	-39.897	100.896	45.611	-39.964	-32.820	115.962	192.723	-33.143	-26.650	-26.025	-19.024	111.209	-19.490	-8191	255	
1296.810	1	1	0	0	0.051017	0.18256	0.31782	0.33083	0.114	0.1253	0.2263	0.09153	0.10276	0.11015	0.16519	0.091377	0.16715	0.13102	0.1935	0.1122	-3.3563	-3.5083	-3.8792	-3.6896	-3.7083	-3.6979	-3.5354	-3.8063	-3.3688	-3.4583	-3.8833	-3.3354	-3.5438	-3.6771	-3.3167	-3.9917	301.592	-28.955	307.292	223.297	134.175	75.830	278.937	-19.767	297.480	124.723	116.508	38.883	100.639	289.707	224.560	259.208	6.0676e-05	0.00010716	0.00012306	1122	2.0561e-06	1.9783e-06	1180.7	227.87	3.7055e-06	2.8669e-06	285.86	79.473	61.789	18.074	1.8675e-06	25.626	0.0002651	0.00025223	6.2828e-05	1089.4	2.9687e-06	2.6649e-06	1150.6	224.64	2.9274e-06	2.7477e-06	280.25	79.675	62.027	18.233	2.6453e-06	25.921	116.118	5.050	53.792	-39.786	184.999	155.309	-39.711	-32.664	92.165	88.078	-33.183	-26.856	-26.034	-18.889	105.886	-19.388	-8191	255	
1296.906	1	1	0	0	0.094868	0.20637	0.14757	0.15702	0.067972	0.19348	0.20791	0.25456	0.12503	0.10668	0.25944	0.092255	0.1606	0.27988	0.16641	0.12818	-3.0542	-3.4208	-3.7271	-3.3875	-3.5521	-3.825	-3.5604	-3.7458	-3.4938	-3.3	-3.6542	-3.325	-3.5542	-3.6604	-3.3708	-3.5917	222.586	193.292	196.136	-5.686	196.292	240.945	242.344	241.163	48.960	74.830	188.148	-43.414	289.598	266.840	79.059	257.636	0.00011791	0.00019938	0.00010113	1121.5	1.5054e-06	3.7782e-06	1181.4	227.84	1.5329e-06	3.0553e-06	287.34	79.571	62.232	18.115	1.7888e-06	25.648	0.00025478	0.00024483	6.3814e-05	1091.2	2.8724e-06	2.5391e-06	1154.2	225.15	2.776e-06	2.6937e-06	280.98	79.598	62.025	18.22	2.7379e-06	25.972	85.053	34.899	64.553	-39.915	236.335	99.348	-39.692	-32.720	-47.325	106.813	-33.233	-26.145	-26.402	-19.405	35.524	-19.239	-8191	255	
1296.978	1	1	0	0	0.20806	0.14139	0.14747	0.19024	0.2345	0.19995	0.214	0.067619	0.17074	0.26422	0.090556	0.067442	0.18132	0.09233	0.1475	0.19472	-3.1021	-3.4938	-3.6813	-3.5521	-3.5333	-3.7938	-3.3083	-3.55	-3.575	-3.3937	-3.8438	-3.5687	-3.3354	-3.9208	-3.3833	-3.7354	208.012	308.056	90.992	182.728	161.157	-23.458	263.968	282.044	273.700	267.990	256.676	44.737	-50.316	176.109	8.966	283.179	0.0001417	0.00022581	5.2993e-05	1121.7	2.4898e-06	2.9004e-06	1183.8	228.09	2.7033e-06	3.05e-06	286.78	79.634	61.96	17.968	1.9075e-06	25.558	0.00024733	0.00024318	6.9171e-05	1091.4	2.7862e-06	2.467e-06	1153.9	225.2	2.6641e-06	2.6058e-06	281.38	79.481	61.796	18.182	2.8881e-06	25.908	129.588	23.140	148.761	-39.762	72.280	84.156	-39.550	-32.606	294.783	160.477	-33.258	-26.734	-26.341	-19.108	180.410	-19.656	-8191	255	
1297.074	1	1	0	0	0.22025	0.12599	0.099476	0.075593	0.10423	0.16477	0.093739	0.13892	0.16015	0.21468	0.097341	0.3024	0.27177	0.069381	0.23322	0.22092	-3.4167	-3.3271	-3.6167	-3.5167	-3.3729	-3.6417	-3.5042	-3.8625	-3.8833	-3.4917	-3.8438	-3.5792	-3.3667	-3.8937	-3.5771	-3.5938	-34.370	7.339	86.738	267.923	223.401	117.044	54.472	231.081	-26.022	3.377	-50.421	278.527	289.389	-41.094	92.197	-17.487	0.00016974	0.00018812	0.00014925	1123.7	3.1933e-06	9.5692e-07	1179.4	228.19	2.1107e-06	3.0526e-06	286.07	79.716	61.843	18.021	4.8609e-06	25.483	0.00023855	0.00023822	7.2179e-05	1091.3	2.6842e-06	2.4367e-06	1153.7	224.78	2.5434e-06	2.5374e-06	281.48	79.5	61.705	18.173	2.8936e-06	25.802	99.289	-23.401	18.597	-39.999	138.816	34.498	-39.745	-32.806	304.947	224.506	-32.947	-26.399	-26.076	-19.318	78.756	-19.536	-8191	255	
1297.193	1	1	0	0	0.17328	0.018177	0.13251	0.18643	0.19437	0.15004	0.051236	0.15414	0.31675	0.1567	0.076612	0.24828	0.15651	0.16331	0.072884	0.090489	-3.4583	-3.4062	-3.6292	-3.7521	-3.2188	-3.6708	-3.4875	-3.6479	-3.7062	-3.4021	-3.8292	-3.7146	-3.55	-3.9625	-3.3833	-3.575	219.223	252.561	-41.735	3.782	123.367	50.088	38.239	249.574	86.142	65.278	121.993	229.413	252.890	299.768	271.391	32.340	6.0495e-05	0.00035259	0.0001599	1122.8	2.7204e-06	1.3184e-06	1179.3	227.34	3.4343e-07	2.4733e-06	286.8	79.493	62.057	18.149	2.4526e-06	25.595	0.00022236	0.00023304	7.3495e-05	1087.9	2.5109e-06	2.4928e-06	1151.4	224.01	2.3928e-06	2.6199e-06	281.28	79.211	61.669	18.24	2.7748e-06	25.717	132.180	17.497	17.013	-39.855	109.935	68.464	-39.691	-32.946	207.589	184.979	-33.177	-26.364	-26.215	-19.108	115.854	-19.693	-8191	255	
1297.289	1	1	0	0	0.19709	0.32608	0.089115	0.080857	0.12109	0.13272	0.19213	0.19609	0.15718	0.20621	0.19299	0.12758	0.14476	0.29453	0.20347	0.076168	-3.3833	-3.3937	-3.6458	-3.5104	-3.2875	-3.7729	-3.5708	-3.5083	-3.8312	-3.4083	-3.5563	-3.7625	-3.5167	-3.9604	-3.5708	-3.5104	90.455	-16.619	134.376	262.488	117.520	41.255	279.218	-32.384	-31.506	-28.580	-0.912	81.715	55.875	104.684	299.765	220.452	8.2395e-05	0.0001803	0.00012685	1112.1	2.3976e-06	3.4107e-06	1176	225.81	3.6786e-06	3.8314e-06	285.5	79.618	61.809	18.049	1.9142e-06	25.539	0.00020946	0.00024083	6.9567e-05	1080.7	2.3615e-06	2.5434e-06	1146.8	222.73	2.2694e-06	2.6784e-06	279.84	78.898	61.373	18.143	2.5842e-06	25.604	90.186	99.327	47.274	-39.763	148.514	93.781	-39.853	-33.017	114.836	121.118	-33.012	-26.704	-26.048	-18.856	109.297	-19.744	-8191	255	
1297.385	1	1	0	0	0.12474	0.12043	0.10682	0.14575	0.079596	0.24339	0.22664	0.13193	0.10237	0.079042	0.16543	0.26605	0.23799	0.15387	0.14972	0.12391	-3.4479	-3.4562	-3.6167	-3.8875	-3.2646	-3.8146	-3.7521	-3.4479	-3.8937	-3.4104	-3.5375	-3.7271	-3.3125	-3.6188	-3.6	-3.5583	191.419	44.204	-19.949	-48.422	262.875	-36.045	175.872	229.184	11.298	109.129	214.576	-21.541	216.753	-22.609	-7.968	0.437	0.00022448	0.00032026	8.0835e-05	1113	5.2426e-07	5.6808e-06	1169.9	225.86	3.3109e-06	1.3989e-06	284	78.923	61.442	18.034	4.3144e-06	25.506	0.00020852	0.00024541	6.5726e-05	1077	2.3779e-06	2.6751e-06	1141.7	222.57	2.3137e-06	2.7453e-06	279.32	78.764	61.317	18.215	2.4816e-06	25.615	90.229	20.238	2.439	-39.832	52.362	72.064	-39.824	-32.744	157.199	130.266	-32.779	-26.615	-26.145	-19.317	68.868	-19.660	-8191	255	
1297.481	1	1	0	0	0.11237	0.11884	0.061532	0.30841	0.1133	0.11681	0.061577	0.1962	0.24275	0.13394	0.095601	0.12829	0.26399	0.17009	0.056028	0.15837	-3.5396	-3.2687	-3.175	-3.6542	-3.4375	-3.8187	-4.0188	-3.3812	-3.8292	-3.625	-3.3604	-3.7208	-3.3458	-3.7167	-3.5729	-3.5438	284.565	95.909	273.843	263.321	12.525	-43.685	130.356	299.249	-27.495	83.181	-17.843	165.082	193.962	-6.027	23.879	218.361	0.00016334	0.00036177	0.00013442	1110.5	3.1719e-06	1.5742e-06	1173.2	227.05	4.439e-06	2.5827e-06	286.17	79.144	61.468	18.191	3.3862e-07	25.389	0.00022052	0.00024692	6.3179e-05	1076.3	2.4995e-06	2.7082e-06	1140.9	222.5	2.4664e-06	2.6655e-06	279.24	78.623	61.33	18.216	2.311e-06	25.49	95.570	33.789	18.669	-39.715	119.389	194.275	-39.943	-32.834	143.126	6.391	-33.023	-26.637	-26.058	-19.206	139.022	-19.595	-8191	255	
1297.577	1	1	0	0	0.1157	0.061972	0.052185	0.19751	0.020125	0.09686	0.11019	0.21181	0.044624	0.14302	0.23562	0.1491	0.14158	0.12715	0.17454	0.088149	-3.4646	-3.5021	-3.4542	-3.7208	-3.35	-3.575	-3.7687	-3.4271	-3.675	-3.4375	-3.6896	-3.9917	-3.6458	-3.5667	-3.8125	-3.2938	41.758	23.783	44.415	279.307	249.813	15.316	199.900	201.835	5.269	15.692	278.065	211.047	-48.196	201.281	59.411	241.093	0.00012988	6.7531e-05	6.7249e-05	1111.6	2.1955e-06	5.1912e-06	1169.9	226.33	2.0564e-06	3.3077e-06	284.62	79.307	62.122	18.066	3.64e-06	25.419	0.00022858	0.00023468	6.1185e-05	1077.5	2.6063e-06	2.5795e-06	1138.9	222.39	2.6164e-06	2.4843e-06	278.83	78.707	61.581	18.196	2.2474e-06	25.594	95.081	259.577	81.990	-39.952	261.091	253.138	-39.693	-32.779	135.502	84.555	-33.231	-26.720	-26.123	-19.290	113.379	-19.379	-8191	255	
1297.673	1	1	0	0	0.15071	0.15973	0.25577	0.24491	0.13836	0.13616	0.074837	0.22083	0.043619	0.1984	0.21403	0.18531	0.071635	0.236	0.22103	0.2041	-3.3	-3.4167	-3.2646	-3.7146	-3.4667	-3.6042	-3.8083	-3.3854	-3.8167	-3.6312	-3.3125	-3.9625	-3.5271	-3.4833	-3.8771	-3.4792	236.767	171.819	65.694	265.159	86.988	155.339	256.923	285.742	228.205	78.070	230.564	302.826	24.691	-34.923	49.943	194.964	0.00012598	0.00035994	0.00010607	1107.9	3.2299e-06	7.9692e-07	1176.1	226.32	2.7294e-06	8.1999e-06	284.52	79.151	61.673	18.275	1.9567e-06	25.515	0.00024289	0.00022448	6.0913e-05	1076	2.6896e-06	2.5264e-06	1141.2	222.4	2.6574e-06	2.4345e-06	278.77	79.004	61.655	18.224	2.2802e-06	25.636	86.741	26.818	102.004	-39.776	7.608	54.757	-39.848	-32.821	122.231	83.800	-32.934	-26.763	-26.341	-19.352	81.773	-19.911	-8191	255	
1297.769	1	1	0	0	0.25164	0.070071	0.15126	0.19492	0.11018	0.31221	0.15786	0.11798	0.090719	0.023041	0.14498	0.12153	0.1176	0.11468	0.039351	0.10356	-3.1167	-3.55	-3.3333	-3.8063	-3.5146	-3.5479	-4.0708	-3.3417	-3.6104	-3.7604	-3.25	-3.8896	-3.4229	-3.5187	-3.7521	-3.5271	106.529	-23.444	231.232	267.807	12.734	34.711	293.939	229.079	63.855	134.175	283.893	40.053	9.150	153.169	41.388	299.727	0.00014405	0.00039487	0.00012198	1108.3	1.3778e-06	5.997e-06	1171.3	227.29	3.8284e-06	2.8576e-06	284.99	79.344	61.589	18.108	2.0629e-06	25.724	0.00024908	0.00022321	6.1407e-05	1077.1	2.7053e-06	2.5231e-06	1140.9	223.46	2.7283e-06	2.4388e-06	278.98	79.436	61.664	18.258	2.3106e-06	25.84	123.412	-17.532	-5.784	-40.013	148.054	49.440	-39.641	-32.698	137.998	170.575	-32.776	-26.505	-26.280	-19.100	126.004	-20.011	-8191	255	
1297.890	1	1	0	0	0.058715	0.21088	0.15852	0.1484	0.086283	0.1552	0.011153	0.15673	0.15919	0.13387	0.02019	0.13256	0.28826	0.1281	0.19861	0.1655	-3.1417	-3.7875	-3.3646	-3.6854	-3.675	-3.475	-3.8688	-3.5563	-3.6542	-3.7167	-3.3208	-3.8667	-3.7083	-3.4521	-3.7188	-3.4437	197.352	-49.089	247.813	-14.555	252.115	299.536	266.745	218.104	98.474	111.933	-42.139	271.645	73.521	242.618	-23.429	232.555	0.00014414	0.00019777	0.00013724	1109.8	2.1984e-06	3.7564e-06	1172.7	227.41	3.8481e-06	3.153e-06	284.57	79.639	61.485	18.108	2.5547e-07	25.775	0.00024404	0.00021755	6.1537e-05	1079.2	2.6002e-06	2.4495e-06	1141.2	223.78	2.6277e-06	2.3131e-06	279.24	79.536	61.565	18.212	2.4477e-06	25.809	93.929	40.965	47.862	-39.778	59.975	70.863	-39.720	-32.676	74.125	52.261	-33.258	-26.602	-26.046	-19.347	155.480	-19.731	-8191	255	
1297.986	1	1	0	0	0.20511	0.06458	0.15081	0.13431	0.12066	0.099764	0.17816	0.16581	0.22016	0.085843	0.067565	0.12899	0.073953	0.080905	0.19158	0.072083	-3.0438	-3.7313	-3.1229	-3.7188	-3.4354	-3.35	-3.8146	-3.4562	-3.5771	-3.8563	-3.4604	-3.6021	-3.6646	-3.3917	-3.6354	-3.4125	229.039	299.237	116.295	134.374	295.717	178.097	256.339	308.635	176.760	83.063	206.014	174.036	121.120	-19.570	64.021	-19.092	0.00014705	0.00034029	2.9297e-05	1111.2	6.2377e-06	2.7679e-06	1167.5	228.61	9.3424e-07	3.3479e-06	285.02	79.649	61.696	18.169	1.6958e-06	25.529	0.00023256	0.00021059	6.4481e-05	1080.5	2.4645e-06	2.4504e-06	1142.5	224.25	2.5825e-06	2.2901e-06	280.07	79.348	61.492	18.202	2.6517e-06	25.748	93.785	36.938	225.861	-39.773	77.906	115.618	-39.750	-33.030	174.756	181.140	-33.067	-26.770	-26.022	-19.061	115.309	-20.001	-8191	255	
1298.082	1	1	0	0	0.30692	0.056174	0.079674	0.06136	0.16661	0.06609	0.26903	0.19683	0.21818	0.4515	0.078543	0.22539	0.13584	0.1013	0.094226	0.11241	-3.0708	-3.6312	-3.175	-3.7438	-3.6917	-3.4062	-3.875	-3.6333	-3.4458	-3.8083	-3.3312	-3.4354	-3.7396	-3.3542	-3.8875	-3.5938	275.594	117.259	72.930	195.452	48.301	-35.831	215.324	95.603	-33.151	127.028	153.110	69.233	39.899	243.238	150.327	272.486	0.00015855	0.0001059	2.8252e-05	1112.9	1.0681e-06	7.2824e-07	1178.3	227.93	7.2219e-06	4.4086e-06	284.95	79.444	62.399	18.146	2.8208e-06	25.673	0.0002285	0.00020715	6.867e-05	1082.3	2.4371e-06	2.4047e-06	1145.3	223.87	2.5239e-06	2.281e-06	280.57	79.481	61.793	18.22	2.6946e-06	25.797	116.245	123.711	56.996	-39.914	66.959	-25.509	-39.816	-32.988	111.659	103.647	-33.136	-26.434	-26.293	-19.166	148.814	-19.915	-8191	255	
1298.179	1	1	0	0	0.093041	0.19574	0.19685	0.26527	0.083045	0.077674	0.3136	0.15614	0.074135	0.39359	0.17021	0.20452	0.42167	0.26326	0.16311	0.18882	-2.8354	-3.8271	-3.4354	-3.4813	-3.6208	-3.3563	-3.7812	-3.6229	-3.3917	-3.8646	-3.6229	-3.4104	-3.6312	-3.3979	-3.6437	-3.7562	293.737	273.836	52.039	238.257	171.898	303.080	228.170	109.864	119.824	40.704	216.567	302.514	283.157	13.377	131.442	270.377	0.00016446	0.00055351	0.00018965	1114.4	1.8896e-06	7.2806e-06	1174.1	227.36	2.3318e-06	1.0419e-06	285.98	79.987	62.574	18.19	1.7035e-06	25.533	0.00022344	0.00021857	7.099e-05	1083.1	2.3858e-06	2.5061e-06	1148.6	223.87	2.4656e-06	2.5072e-06	280.92	79.679	61.681	18.337	2.8624e-06	25.818	112.984	41.070	48.387	-40.064	71.790	186.811	-39.694	-32.540	165.691	188.853	-33.207	-26.792	-26.097	-19.096	82.348	-19.938	-8191	255	
1298.273	1	1	0	0	0.10451	0.14715	0.18203	0.21024	0.19427	0.10564	0.22318	0.097623	0.13774	0.16556	0.094334	0.052818	0.16289	0.11183	0.14456	0.10869	-3.2292	-3.6604	-3.3604	-3.4813	-3.8187	-3.4667	-3.8646	-3.7229	-3.2313	-3.7667	-3.7188	-3.4729	-3.6437	-3.3542	-3.5062	-3.7792	-8.430	175.780	243.088	8.917	142.643	221.720	261.128	164.630	51.620	177.127	271.614	167.450	154.083	263.333	243.700	29.984	0.00017926	0.00025322	6.8977e-05	1118.7	1.1227e-06	3.8012e-06	1180.1	229.11	5.3475e-06	3.8607e-06	285.25	80.143	62.791	18.273	2.4773e-06	25.755	0.00022601	0.00024168	7.1473e-05	1088.2	2.4171e-06	2.7204e-06	1153.7	224.29	2.5144e-06	2.6972e-06	281.39	79.772	62.054	18.461	2.7797e-06	25.901	95.771	164.750	-0.282	-39.995	-34.246	230.281	-39.787	-32.836	135.143	129.126	-32.797	-26.442	-26.415	-19.219	153.328	-19.671	-8191	255	
1298.369	1	1	0	0	0.13695	0.17249	0.041205	0.34577	0.069383	0.12327	0.2682	0.1053	0.20403	0.11147	0.19986	0.14015	0.077754	0.095008	0.22413	0.087577	-3.0292	-3.6417	-3.4479	-3.4333	-3.7167	-3.4667	-3.6167	-3.7542	-3.3667	-3.7313	-3.5542	-3.2	-3.75	-3.325	-3.5354	-3.8229	266.222	-15.462	12.010	266.201	14.494	23.635	275.071	263.717	202.606	221.989	124.944	-17.324	254.846	283.668	224.706	204.811	4.9668e-05	0.00026536	0.00019562	1118.6	2.196e-06	1.3749e-06	1185.1	228.58	1.6732e-06	5.3804e-06	287.87	79.644	62.573	18.251	2.2654e-06	25.857	0.00023082	0.0002615	6.9936e-05	1090.6	2.461e-06	2.8917e-06	1154.8	224.74	2.615e-06	2.9236e-06	282.19	79.519	62.053	18.451	2.757e-06	25.855	102.710	125.202	39.238	-40.084	-46.862	79.087	-39.811	-32.789	154.323	160.517	-33.169	-26.748	-25.920	-19.369	142.389	-19.830	-8191	255	
1298.490	1	1	0	0	0.27646	0.18197	0.090234	0.13033	0.083039	0.21633	0.21193	0.0097863	0.20342	0.1777	0.064983	0.070652	0.098366	0.11168	0.24207	0.046348	-2.8167	-3.8	-3.6333	-3.4396	-3.7604	-3.3167	-3.5229	-3.8604	-3.3729	-3.5958	-3.6208	-3.3583	-3.7229	-3.6646	-3.4979	-3.575	4.666	187.503	279.093	-38.980	77.325	112.893	259.909	107.831	185.585	62.233	34.169	230.736	16.513	291.893	170.345	308.767	0.00018459	4.3079e-05	9.6127e-05	1126.1	3.505e-07	5.7394e-06	1183.4	229.36	1.1789e-06	3.1372e-07	287.91	80.124	62.505	18.38	3.2557e-06	25.922	0.00023757	0.00026883	6.7705e-05	1093.7	2.6193e-06	2.9022e-06	1155.5	225.43	2.7494e-06	2.9332e-06	282.81	79.777	62.342	18.565	2.7139e-06	25.92	116.096	261.221	14.176	-39.972	-32.991	101.062	-39.906	-32.629	138.417	-4.679	-33.202	-26.632	-26.283	-19.321	124.400	-19.823	-8191	255	
1298.584	1	1	0	0	0.15481	0.1744	0.17854	0.26436	0.10951	0.16596	0.32649	0.10032	0.16813	0.067164	0.26136	0.11137	0.13118	0.1897	0.085958	0.18051	-3.0646	-3.7479	-3.6562	-3.3812	-3.8021	-3.6583	-3.5792	-3.8146	-3.4771	-3.5771	-3.6229	-3.2583	-3.7958	-3.5708	-3.4542	-3.6833	86.612	274.781	297.361	204.810	54.114	214.581	263.110	-42.979	217.835	41.724	271.599	-47.518	179.674	217.889	92.654	112.706	0.00014773	0.00065706	7.5359e-05	1123.6	1.6287e-06	9.6021e-07	1188.2	229.89	4.9687e-06	7.6198e-06	289.56	80.577	62.542	18.306	2.5652e-06	26.047	0.00026051	0.00026687	6.599e-05	1093.7	2.8533e-06	2.8269e-06	1158.5	225.78	2.9439e-06	2.8813e-06	283.01	80.101	62.65	18.565	2.6633e-06	26.079	116.783	2.509	83.086	-39.915	96.220	91.920	-39.826	-32.958	13.661	102.273	-33.011	-26.524	-26.350	-19.143	113.628	-19.589	-8191	255	
1298.680	1	1	0	0	0.16166	0.054753	0.23488	0.10091	0.17227	0.11715	0.26388	0.42263	0.065213	0.095054	0.11525	0.15649	0.13703	0.054608	0.20242	0.14312	-3.2	-3.5354	-3.35	-3.3667	-3.6167	-3.6083	-3.5021	-3.675	-3.5646	-3.5854	-3.5917	-3.2896	-3.75	-3.6542	-3.3458	-3.9	268.851	192.516	268.761	295.130	-27.273	-11.978	207.670	241.588	199.129	297.735	292.291	290.539	-48.064	271.293	294.394	257.915	0.00010084	0.00010735	2.2925e-06	1127.9	2.1437e-06	2.3456e-06	1190.6	230.76	1.5737e-06	6.4639e-06	290.76	80.116	63.012	18.479	2.9567e-06	26.182	0.00027051	0.00025702	6.5042e-05	1099.8	2.9744e-06	2.7141e-06	1163.6	227.27	2.9602e-06	2.7647e-06	284.13	80.37	63.036	18.555	2.5622e-06	26.185	65.459	156.187	39.189	-39.781	151.449	173.244	-39.883	-32.687	144.662	107.129	-33.038	-26.572	-26.411	-19.223	77.149	-19.855	-8191	255	
1298.776	1	1	0	0	0.072656	0.13188	0.19967	0.3433	0.13697	0.24527	0.21269	0.12309	0.25277	0.16561	0.11586	0.16712	0.18445	0.13729	0.18476	0.18715	-3.0104	-3.4042	-3.8354	-3.4583	-3.7229	-3.7875	-3.6125	-3.95	-3.5958	-3.4604	-3.6833	-3.4292	-3.6875	-3.6208	-3.3563	-3.5354	303.598	241.518	237.785	300.062	144.105	-47.232	219.501	15.077	237.247	92.742	249.784	-31.371	227.097	-45.649	-24.386	187.378	0.0001188	0.00019775	9.3977e-05	1126.8	2.814e-06	3.7463e-06	1191.6	231.2	1.073e-06	3.7768e-06	289.54	80.832	62.753	18.474	2.0526e-06	26.195	0.00026492	0.00024621	6.1631e-05	1100	2.9237e-06	2.5599e-06	1162.2	227.56	2.8915e-06	2.6896e-06	284.22	80.705	63	18.612	2.5837e-06	26.33	87.325	1.246	59.486	-39.970	51.177	81.633	-39.976	-32.939	8.836	58.351	-33.084	-26.632	-26.185	-19.423	150.530	-20.111	-8191	255	
1298.873	1	1	0	0	0.073885	0.11527	0.21277	0.16252	0.062377	0.1492	0.24307	0.23458	0.079859	0.15998	0.20852	0.13552	0.14079	0.19125	0.41087	0.088319	-3.0479	-3.225	-3.65	-3.5083	-3.4292	-3.825	-3.3771	-3.675	-3.6167	-3.3229	-3.8896	-3.5333	-3.6229	-3.7792	-3.3792	-3.9437	231.068	-35.495	-17.981	233.660	85.646	91.802	297.139	304.445	193.175	64.008	251.957	88.126	290.557	-11.135	200.722	40.232	0.00014379	0.00022998	0.00012472	1134.7	1.113e-06	2.8704e-06	1195.9	232.56	3.8231e-06	6.5438e-06	290.17	80.612	63.124	18.582	3.6726e-07	25.936	0.00025297	0.00024524	6.3162e-05	1103.6	2.8765e-06	2.5544e-06	1164.4	228.79	2.7814e-06	2.71e-06	284.46	80.896	62.947	18.621	2.6803e-06	26.319	118.301	-18.115	-5.721	-40.000	61.130	82.826	-39.792	-33.182	55.986	121.553	-33.154	-27.031	-26.115	-19.402	148.734	-19.719	-8191	255	
1298.969	1	1	0	0	0.11949	0.075729	0.074252	0.083803	0.13086	0.21092	0.29796	0.10607	0.13886	0.028445	0.18722	0.15366	0.14371	0.0079504	0.0042066	0.19783	-3.2875	-3.4833	-3.8021	-3.8229	-3.6	-3.9229	-3.7583	-3.6937	-3.4417	-3.2604	-3.8021	-3.4542	-3.4729	-3.7167	-3.5062	-3.5958	132.172	35.448	-0.221	184.994	211.100	79.395	209.811	29.049	84.518	162.973	238.260	47.973	129.887	224.850	108.312	70.149	0.00012426	0.00028779	6.5212e-05	1128.9	1.3247e-06	5.6114e-06	1194.3	233.52	2.2969e-06	4.3987e-06	290.91	81.324	63.009	18.597	7.7889e-07	26.131	0.00024454	0.00023949	6.6911e-05	1102.4	2.7848e-06	2.463e-06	1166	228.97	2.618e-06	2.5766e-06	285.45	81.041	62.93	18.551	2.7995e-06	26.328	100.677	37.646	146.539	-39.704	96.718	149.902	-39.769	-32.706	83.213	95.671	-33.214	-26.656	-26.468	-19.325	216.513	-20.011	-8191	255	
1299.065	1	1	0	0	0.14087	0.12989	0.23552	0.018572	0.094477	0.072607	0.2829	0.07132	0.15533	0.065131	0.17537	0.10614	0.16126	0.15654	0.26658	0.1369	-3.2125	-3.2	-3.6771	-3.5208	-3.4333	-3.7396	-3.4458	-3.4646	-3.6437	-3.2313	-3.6688	-3.4208	-3.3021	-3.6896	-3.3729	-3.35	1.641	-38.027	-8.661	120.707	224.130	8.541	-30.655	93.261	30.947	-4.597	102.483	280.224	-30.599	-50.179	282.875	221.363	0.00010899	0.00040004	0.00010703	1129.4	2.1618e-06	2.6792e-06	1193.6	232	2.5476e-06	3.4727e-06	291.17	80.641	63.099	18.55	9.4854e-07	26.176	0.00023185	0.00023002	7.002e-05	1101.1	2.6842e-06	2.4421e-06	1164.5	228.32	2.5403e-06	2.5893e-06	286.25	80.855	62.804	18.603	2.9596e-06	26.329	126.540	21.205	105.970	-40.195	236.163	120.510	-39.799	-32.560	113.129	119.340	-33.227	-26.618	-26.122	-19.313	279.757	-20.183	-8191	255	
1299.161	1	1	0	0	0.0659	0.11522	0.11714	0.28297	0.039899	0.10962	0.22505	0.2771	0.15037	0.15707	0.19187	0.028883	0.20702	0.22695	0.23472	0.17922	-3.1396	-3.3479	-3.5167	-3.7979	-3.3792	-3.8292	-3.4	-3.6229	-3.6229	-3.3104	-3.7833	-3.5792	-3.2188	-3.8688	-3.4917	-3.5729	16.142	147.667	170.494	-40.509	296.252	170.195	269.888	295.635	230.504	233.968	-48.930	-14.548	262.494	248.458	102.552	76.665	0.00011194	0.00033763	0.0001762	1134.3	3.6807e-07	4.5228e-06	1195.4	232.48	1.3767e-06	3.9965e-06	292.11	80.609	63.346	18.502	2.0568e-06	26.186	0.0002324	0.00024271	7.6094e-05	1101.2	2.6669e-06	2.5644e-06	1167.3	228.78	2.5037e-06	2.7024e-06	286.28	80.691	62.848	18.646	2.9599e-06	26.313	87.351	13.819	7.359	-39.889	289.580	89.352	-40.061	-32.607	166.445	137.607	-32.989	-26.577	-26.515	-19.422	155.903	-19.717	-8191	255	
1299.282	1	1	0	0	0.043065	0.33661	0.34609	0.079204	0.059886	0.18213	0.12966	0.23714	0.1131	0.06668	0.075388	0.17277	0.26652	0.090983	0.11567	0.039411	-3.4292	-3.3187	-3.6688	-3.8542	-3.2833	-3.5896	-3.5604	-3.5167	-3.7313	-3.2687	-3.5812	-3.7104	-3.2854	-3.6688	-3.5563	-3.5167	10.575	-20.168	217.899	211.833	143.038	88.557	295.935	284.223	283.046	-27.892	248.367	-37.501	64.244	-30.837	-27.903	255.042	0.00010985	0.00020684	0.00018386	1136.2	8.9301e-07	1.8049e-06	1196.4	232.12	3.2714e-06	4.1303e-06	291.33	80.739	63.126	18.53	2.3488e-06	26.036	0.00022406	0.00025407	7.5227e-05	1102	2.5982e-06	2.7667e-06	1166.6	229.05	2.441e-06	2.8423e-06	286.53	80.586	62.901	18.745	2.8077e-06	26.236	76.422	96.463	-1.066	-39.990	242.483	206.035	-40.110	-33.241	125.074	214.494	-33.590	-26.441	-26.723	-18.934	134.843	-20.227	-8191	255	
1299.378	1	1	0	0	0.055682	0.03559	0.18424	0.19004	0.13508	0.056102	0.31142	0.22202	0.15246	0.38728	0.060498	0.27151	0.166	0.20561	0.19112	0.14348	-3.4271	-3.35	-3.4208	-3.7375	-3.1333	-3.5417	-3.5667	-3.45	-3.6813	-3.4958	-3.5708	-3.6562	-3.6104	-3.825	-3.4	-3.3521	-20.261	18.895	58.497	-35.308	110.180	-48.937	242.792	234.699	63.130	68.357	175.620	60.085	33.362	231.065	267.186	291.052	9.4495e-05	6.5994e-05	0.00014483	1130	2.2634e-06	2.4398e-06	1194.3	233.1	7.4898e-07	3.8813e-06	291.4	81.489	63.436	18.589	4.5353e-06	26.22	0.00022347	0.00026753	7.268e-05	1101.7	2.5718e-06	2.8884e-06	1165.4	228.99	2.5365e-06	2.9271e-06	286.6	80.885	63.015	18.741	2.6712e-06	26.329	102.392	19.906	119.230	-40.033	179.107	106.161	-39.763	-32.648	97.027	159.183	-33.214	-26.988	-26.498	-19.305	72.499	-19.925	-8191	255	
1299.449	1	1	0	0	0.19759	0.14868	0.093544	0.30337	0.22076	0.14375	0.20675	0.16215	0.20535	0.22149	0.10057	0.22872	0.05523	0.054625	0.16571	0.27825	-3.3333	-3.4854	-3.3979	-3.9396	-3.2604	-3.5896	-3.75	-3.5646	-3.8708	-3.4271	-3.4875	-3.7917	-3.2812	-3.5458	-3.5438	-3.5	223.839	33.186	211.454	272.647	292.241	116.104	265.669	247.462	-12.641	-45.578	193.501	-30.632	-19.850	142.294	209.915	225.965	0.00013569	0.00015387	8.6971e-05	1129.6	2.6611e-06	3.0296e-06	1194.5	232.74	3.0725e-06	4.3159e-06	291.5	80.79	63.333	18.666	2.4315e-06	26.207	0.00023301	0.00027029	6.9985e-05	1102.8	2.7571e-06	2.9541e-06	1166.5	228.78	2.6863e-06	2.9212e-06	286.16	80.62	63.088	18.782	2.6065e-06	26.286	94.744	60.879	65.583	-40.192	47.002	232.797	-39.948	-32.807	105.806	187.440	-33.174	-26.919	-26.085	-19.427	97.384	-19.683	-8191	255	
1299.570	1	1	0	0	0.24778	0.15689	0.15725	0.080404	0.14227	0.20792	0.13838	0.098976	0.10234	0.20467	0.23758	0.16424	0.056144	0.12672	0.16046	0.04146	-3.4104	-3.4437	-3.3854	-3.6396	-3.0979	-3.5312	-3.8271	-3.4062	-3.65	-3.5354	-3.4396	-3.7417	-3.2979	-3.5312	-3.8833	-3.3771	257.814	181.813	292.079	284.899	141.765	16.284	217.331	252.799	192.739	157.488	248.911	89.346	211.904	307.785	-33.946	232.687	0.00017027	9.9404e-05	0.00015169	1136.2	3.2778e-06	4.6667e-06	1202	233.84	2.6666e-06	2.3676e-06	293.41	80.817	63.182	18.625	2.2456e-06	26.145	0.00025093	0.00026345	6.9436e-05	1105.2	2.8903e-06	2.91e-06	1169.6	229.35	2.9094e-06	2.8373e-06	286.95	80.774	63.214	18.765	2.5986e-06	26.388	109.090	11.376	0.682	-40.010	154.627	113.793	-39.862	-32.968	8.384	21.552	-33.010	-26.759	-26.214	-19.229	61.810	-20.175	-8191	255	
1299.664	1	1	0	0	0.23377	0.032506	0.047644	0.26369	0.063478	0.12926	0.15993	0.24678	0.13135	0.15456	0.01557	0.16632	0.19246	0.066183	0.16172	0.10399	-3.2542	-3.3417	-3.2667	-3.8583	-3.4333	-3.4542	-3.7938	-3.525	-3.7229	-3.5479	-3.5083	-3.775	-3.4458	-3.5104	-3.6979	-3.5354	232.289	60.853	5.241	260.177	101.857	267.282	246.591	270.466	308.868	-46.593	151.328	268.512	-12.515	221.367	141.862	238.619	0.00010656	0.00027405	0.00011528	1136.5	6.1834e-06	4.2793e-07	1200.1	234.74	1.7248e-06	2.179e-06	291.87	81.142	62.882	18.599	3.286e-06	26.274	0.00027111	0.00025842	6.9411e-05	1106.1	3.0653e-06	2.891e-06	1169.5	229.99	3.0182e-06	2.7598e-06	286.6	81.162	63.327	18.763	2.5126e-06	26.393	85.402	-44.084	88.769	-39.963	118.755	15.096	-39.680	-33.027	215.063	108.376	-33.228	-26.349	-26.217	-19.330	103.962	-19.822	-8191	255	
1299.761	1	1	0	0	0.17395	0.097461	0.22207	0.2434	0.21051	0.11714	0.055156	0.28582	0.23316	0.14552	0.21598	0.19259	0.19205	0.11184	0.032315	0.14047	-3.4083	-3.6021	-3.2708	-3.7542	-3.2979	-3.5542	-3.8958	-3.4625	-3.5333	-3.7	-3.3187	-3.925	-3.525	-3.3187	-3.9479	-3.6021	235.400	285.234	256.040	-6.592	44.148	10.271	307.679	290.955	-26.034	70.861	-12.228	289.388	-17.729	13.209	275.836	246.273	9.4716e-05	0.00032088	0.00012479	1144.1	3.9041e-06	6.1621e-06	1201.3	234.12	4.2174e-06	4.9734e-06	294.01	80.857	63.541	18.608	1.4009e-06	26.224	0.0002723	0.00024576	6.7496e-05	1110.7	3.0246e-06	2.7886e-06	1171	229.92	3.0084e-06	2.7069e-06	287.73	81.224	63.478	18.738	2.4973e-06	26.501	160.590	52.884	104.433	-39.881	103.113	52.658	-39.907	-32.886	91.529	81.532	-33.087	-26.453	-26.513	-19.507	181.605	-19.427	-8191	255	
1299.881	1	1	0	0	0.028877	0.20514	0.2077	0.12992	0.28075	0.055901	0.16043	0.27264	0.015682	0.26353	0.13838	0.39634	0.15885	0.21825	0.16524	0.13932	-3.325	-3.7646	-3.3229	-3.6958	-3.5833	-3.3708	-4	-3.4833	-3.4396	-3.7208	-3.3083	-3.6375	-3.4979	-3.6021	-3.775	-3.5625	291.483	84.104	8.455	256.389	61.468	6.702	4.024	244.383	282.228	180.514	204.325	258.556	213.504	270.889	135.454	77.516	0.00014664	0.00039286	0.00013246	1134.9	6.9455e-07	8.5025e-06	1203.9	234.01	7.5001e-06	3.1648e-06	293.72	81.248	63.811	18.724	2.3955e-06	26.316	0.00026342	0.00024182	6.6572e-05	1107.1	2.8294e-06	2.7153e-06	1171	230.78	2.8948e-06	2.5356e-06	287.31	81.413	63.502	18.767	2.5475e-06	26.586	59.677	29.890	31.072	-39.987	98.883	48.758	-39.686	-32.997	92.654	108.971	-33.170	-26.505	-26.083	-19.245	181.222	-19.794	-8191	255	
#DATA ENDS
