BOXY.EXE: ISS Imagent and Oximeter Data Acquisition Program Version 0.80
Ascii Record File

#ACQ INFORMATION
2  Detector Channels 
16  External MUX Channels 
1  Auxiliary Channels 
5000  Waveform (CCF) Frequency (Hz)
1  Waveforms Skipped 
30  Waveforms Averaged 
1  Cycles Averaged 
16  Acquisitions per Waveform 
10.0806  Updata Rate (Hz) 

#FILE INFORMATION
TRUE -- External MUX Channel results are PARSED.
FALSE -- AC DC and Phase are NOT grouped.
TRUE -- Companion Program Settings File CREATED.
FALSE -- AC data not excluded
FALSE -- DC data not excluded
FALSE -- Phase data not excluded
FALSE -- Auxillary Chn. data not excluded
Tab delimiters

#CALIBRATION STATE
TRUE -- Waveform Calibration Values APPLIED.


#AUX CALIBRATION VALUES
Val Type	aux-1	

Term	1.0000e+00	
Factor	0.0000e+00	


#WF CALIBRATION VALUES
A = Detector Channel
Val Type	A-AC1	A-AC2	A-AC3	A-AC4	A-AC5	A-AC6	A-AC7	A-AC8	A-AC9	A-AC10	A-AC11	A-AC12	A-AC13	A-AC14	A-AC15	A-AC16	A-DC1	A-DC2	A-DC3	A-DC4	A-DC5	A-DC6	A-DC7	A-DC8	A-DC9	A-DC10	A-DC11	A-DC12	A-DC13	A-DC14	A-DC15	A-DC16	A-Ph1	A-Ph2	A-Ph3	A-Ph4	A-Ph5	A-Ph6	A-Ph7	A-Ph8	A-Ph9	A-Ph10	A-Ph11	A-Ph12	A-Ph13	A-Ph14	A-Ph15	A-Ph16	

Term	0.00000e+00	0.00000e+00	0.00000e+00	0.00000e+00	0.00000e+00	0.00000e+00	0.00000e+00	0.00000e+00	0.00000e+00	0.00000e+00	0.00000e+00	0.00000e+00	0.00000e+00	0.00000e+00	0.00000e+00	0.00000e+00	0.00000e+00	0.00000e+00	0.00000e+00	0.00000e+00	0.00000e+00	0.00000e+00	0.00000e+00	0.00000e+00	0.00000e+00	0.00000e+00	0.00000e+00	0.00000e+00	0.00000e+00	0.00000e+00	0.00000e+00	0.00000e+00	0.00000e+00	0.00000e+00	0.00000e+00	0.00000e+00	0.00000e+00	0.00000e+00	0.00000e+00	0.00000e+00	0.00000e+00	0.00000e+00	0.00000e+00	0.00000e+00	0.00000e+00	0.00000e+00	0.00000e+00	0.00000e+00	
Factor	1.00000e+00	1.00000e+00	1.00000e+00	1.00000e+00	1.00000e+00	1.00000e+00	1.00000e+00	1.00000e+00	1.00000e+00	1.00000e+00	1.00000e+00	1.00000e+00	1.00000e+00	1.00000e+00	1.00000e+00	1.00000e+00	1.00000e+00	1.00000e+00	1.00000e+00	1.00000e+00	1.00000e+00	1.00000e+00	1.00000e+00	1.00000e+00	1.00000e+00	1.00000e+00	1.00000e+00	1.00000e+00	1.00000e+00	1.00000e+00	1.00000e+00	1.00000e+00	X	X	X	X	X	X	X	X	X	X	X	X	X	X	X	X	

B = Detector Channel
Val Type	B-AC1	B-AC2	B-AC3	B-AC4	B-AC5	B-AC6	B-AC7	B-AC8	B-AC9	B-AC10	B-AC11	B-AC12	B-AC13	B-AC14	B-AC15	B-AC16	B-DC1	B-DC2	B-DC3	B-DC4	B-DC5	B-DC6	B-DC7	B-DC8	B-DC9	B-DC10	B-DC11	B-DC12	B-DC13	B-DC14	B-DC15	B-DC16	B-Ph1	B-Ph2	B-Ph3	B-Ph4	B-Ph5	B-Ph6	B-Ph7	B-Ph8	B-Ph9	B-Ph10	B-Ph11	B-Ph12	B-Ph13	B-Ph14	B-Ph15	B-Ph16	

Term	0.00000e+00	0.00000e+00	0.00000e+00	0.00000e+00	0.00000e+00	0.00000e+00	0.00000e+00	0.00000e+00	0.00000e+00	0.00000e+00	0.00000e+00	0.00000e+00	0.00000e+00	0.00000e+00	0.00000e+00	0.00000e+00	0.00000e+00	0.00000e+00	0.00000e+00	0.00000e+00	0.00000e+00	0.00000e+00	0.00000e+00	0.00000e+00	0.00000e+00	0.00000e+00	0.00000e+00	0.00000e+00	0.00000e+00	0.00000e+00	0.00000e+00	0.00000e+00	-1.65095e+02	-1.36760e+02	-1.28228e+02	-1.79802e+02	-7.58801e+01	-8.06562e+01	-1.58085e+02	-1.62015e+02	-8.34201e+01	-6.02352e+01	-1.69977e+02	-1.71992e+02	-1.83057e+02	-1.76155e+02	-6.30896e+01	-1.48803e+02	
Factor	2.68855e-05	1.33963e-04	4.06587e-05	1.73064e-01	1.18092e-06	1.38058e-06	1.79830e-01	6.39379e-02	1.39152e-06	1.46583e-06	8.33553e-02	3.13931e-02	2.72019e-02	8.97484e-03	1.12261e-06	1.30680e-02	1.59552e-06	1.68252e-06	4.69401e-07	8.55044e-02	1.82819e-08	1.84544e-08	8.38191e-02	3.15264e-02	1.83315e-08	1.84551e-08	3.98753e-02	1.49757e-02	1.33735e-02	4.44832e-03	1.83795e-08	6.25309e-03	X	X	X	X	X	X	X	X	X	X	X	X	X	X	X	X	



#DISTANCE SETTINGS
A = Detector Channel
A-1	A-2	A-3	A-4	A-5	A-6	A-7	A-8	A-9	A-10	A-11	A-12	A-13	A-14	A-15	A-16	

2.5000e+00	3.0000e+00	2.5000e+00	3.0000e+00	2.0000e+00	3.0000e+00	1.5000e+00	3.0000e+00	3.0000e+00	3.0000e+00	3.0000e+00	3.0000e+00	3.0000e+00	3.0000e+00	1.5000e+00	3.0000e+00	

B = Detector Channel
B-1	B-2	B-3	B-4	B-5	B-6	B-7	B-8	B-9	B-10	B-11	B-12	B-13	B-14	B-15	B-16	

1.0000e+01	1.0000e+01	1.0000e+01	1.4400e+00	1.0000e+01	1.0000e+01	1.5100e+00	1.9400e+00	1.0000e+01	1.0000e+01	1.9900e+00	2.4900e+00	2.4100e+00	2.9000e+00	1.0000e+01	2.9800e+00	




#DATA BEGINS
time	group	step	mark	flag	A-AC1	A-AC2	A-AC3	A-AC4	A-AC5	A-AC6	A-AC7	A-AC8	A-AC9	A-AC10	A-AC11	A-AC12	A-AC13	A-AC14	A-AC15	A-AC16	A-DC1	A-DC2	A-DC3	A-DC4	A-DC5	A-DC6	A-DC7	A-DC8	A-DC9	A-DC10	A-DC11	A-DC12	A-DC13	A-DC14	A-DC15	A-DC16	A-Ph1	A-Ph2	A-Ph3	A-Ph4	A-Ph5	A-Ph6	A-Ph7	A-Ph8	A-Ph9	A-Ph10	A-Ph11	A-Ph12	A-Ph13	A-Ph14	A-Ph15	A-Ph16	B-AC1	B-AC2	B-AC3	B-AC4	B-AC5	B-AC6	B-AC7	B-AC8	B-AC9	B-AC10	B-AC11	B-AC12	B-AC13	B-AC14	B-AC15	B-AC16	B-DC1	B-DC2	B-DC3	B-DC4	B-DC5	B-DC6	B-DC7	B-DC8	B-DC9	B-DC10	B-DC11	B-DC12	B-DC13	B-DC14	B-DC15	B-DC16	B-Ph1	B-Ph2	B-Ph3	B-Ph4	B-Ph5	B-Ph6	B-Ph7	B-Ph8	B-Ph9	B-Ph10	B-Ph11	B-Ph12	B-Ph13	B-Ph14	B-Ph15	B-Ph16	aux-1	digaux	

2161.303	1	1	0	512	0.090682	0.033707	0.14618	0.23397	0.17573	0.097941	0.17745	0.054476	0.31715	0.096156	0.30364	0.053413	0.29792	0.14428	0.28747	0.23288	-3.0208	-3.4021	-3.1771	-3.7854	-3.1188	-3.3375	-3.6792	-3.2812	-3.5292	-3.3542	-3.1896	-3.6396	-3.3604	-3.3667	-3.7667	-3.3146	-83.872	-67.184	-59.064	-63.405	-24.863	105.292	31.250	191.264	234.086	167.239	270.079	140.706	-73.782	-53.246	66.399	182.901	0.00056419	0.00098494	0.0003057	668.79	6.6306e-06	2.1982e-05	856.25	230.73	1.2615e-05	1.666e-05	369.35	150.99	88.323	41.286	4.9531e-06	80.589	0.0016533	0.0016278	0.00041627	672.98	1.8281e-05	1.7127e-05	839.12	233.55	1.7888e-05	1.6677e-05	361.76	147.75	92.033	40.999	1.5049e-05	77.818	140.581	268.024	-41.161	-75.965	18.452	30.332	-76.300	-70.833	-88.657	53.180	-71.126	-67.173	-66.616	-61.667	-22.977	-63.504	-8191	255	
2161.400	1	1	0	0	0.10482	0.063257	0.11046	0.13258	0.22768	0.061707	0.22767	0.31961	0.11621	0.18308	0.087157	0.13743	0.03513	0.091971	0.056565	0.043148	-3.1937	-3.4396	-3.0479	-3.7979	-3.1646	-3.2188	-3.6667	-3.2583	-3.3688	-3.3812	-3.4	-3.6979	-3.3063	-3.25	-3.675	-3.2208	-27.694	151.707	254.740	36.438	-49.843	216.319	204.705	127.435	9.996	-42.573	176.767	-86.003	90.494	-87.084	99.508	150.890	0.0003182	0.0005103	0.00024499	664.88	1.848e-05	9.9842e-06	852.89	230.67	1.2948e-05	8.8337e-06	368.28	150.39	88.128	41.101	3.1926e-06	80.784	0.0016023	0.0015111	0.00039389	670.59	1.7495e-05	1.5506e-05	830.97	232.22	1.6217e-05	1.4425e-05	356.31	146.73	90.178	40.487	1.3325e-05	77.471	154.188	39.486	94.214	-76.284	-18.500	42.896	-76.334	-70.813	74.713	92.130	-71.542	-67.044	-66.902	-61.685	70.244	-63.349	-8191	255	
2161.496	1	1	0	0	0.25498	0.21408	0.070461	0.2308	0.10658	0.18209	0.13696	0.16878	0.3417	0.030002	0.16092	0.15665	0.051234	0.090042	0.04138	0.089795	-3.075	-3.6229	-3.075	-3.7396	-3.2146	-3.3354	-3.7604	-3.3104	-3.2125	-3.4729	-3.2687	-3.575	-3.6271	-3.3146	-3.5563	-3.6271	-58.957	-22.812	160.464	202.571	236.432	78.686	236.886	226.903	56.716	151.725	259.646	241.143	-29.283	-16.581	147.726	161.936	0.00033493	0.0006215	0.00026532	673.22	1.0722e-06	6.2307e-06	860.4	233.78	2.6378e-05	7.7159e-06	369.07	151.85	89.045	42.135	4.1232e-06	82.554	0.0013835	0.0012699	0.00033637	672.65	1.4525e-05	1.3149e-05	828.7	232.6	1.3492e-05	1.2068e-05	356.45	147.46	88.763	40.588	1.1561e-05	78.232	133.911	-7.726	-53.438	-76.205	180.153	100.147	-76.412	-70.685	40.525	49.971	-71.155	-67.753	-66.630	-61.739	244.507	-63.573	-8191	255	
2161.615	1	1	0	0	0.20271	0.18887	0.30317	0.15595	0.18687	0.042828	0.081381	0.013048	0.075422	0.073854	0.25926	0.087478	0.040008	0.15543	0.12844	0.079179	-3.1479	-3.5438	-3.3042	-3.3646	-3.4562	-3.1708	-3.8	-3.5125	-3.3167	-3.6521	-3.3333	-3.6312	-3.6063	-3.3271	-3.75	-3.6063	-51.750	86.289	108.424	246.950	83.048	257.179	86.726	220.995	81.090	-61.744	183.455	167.732	214.199	-52.122	-52.212	258.426	0.00031935	0.0010041	0.00017431	681.01	1.1249e-05	1.2054e-05	868.59	234.35	5.2678e-06	8.4357e-06	373.46	152.78	89.163	42.568	7.9528e-06	83.297	0.0011349	0.0010742	0.00031445	673.64	1.2545e-05	1.1803e-05	834.17	232.09	1.1565e-05	1.0407e-05	357.61	146.8	87.632	40.518	1.0365e-05	78.402	139.504	4.836	127.277	-76.413	46.550	-1.993	-76.602	-70.822	-42.646	38.213	-71.366	-67.408	-66.217	-61.719	257.798	-63.448	-8191	255	
2161.711	1	1	0	0	0.14994	0.15183	0.041512	0.18812	0.068989	0.093683	0.030804	0.12241	0.057776	0.098763	0.31612	0.40665	0.32099	0.36877	0.095733	0.33323	-2.7896	-3.6083	-3.1542	-3.5521	-3.3312	-3.2167	-3.7104	-3.2292	-3.2938	-3.6646	-3.1146	-3.6229	-3.6104	-3.2792	-3.5146	-3.4896	-72.024	269.201	248.400	-43.676	145.174	170.437	143.868	50.692	109.311	21.542	241.873	224.127	-87.228	218.294	171.003	41.385	0.00031729	0.0011254	0.00017567	687.25	6.4474e-06	6.3381e-06	881.21	235.67	6.4744e-06	3.1582e-06	373.67	153.27	90.046	42.7	2.1387e-06	82.617	0.00088983	0.00082676	0.00026366	663.29	9.6284e-06	9.0638e-06	834.28	229.11	9.1863e-06	8.3121e-06	355.54	145.38	86.515	40.238	9.2366e-06	77.009	146.840	-42.004	189.461	-76.535	164.909	57.710	-75.975	-70.544	-2.147	89.532	-71.610	-67.472	-66.615	-61.498	114.101	-63.721	-8191	255	
2161.784	1	1	0	0	0.2557	0.14375	0.28294	0.088206	0.21359	0.26366	0.15203	0.086329	0.12932	0.16612	0.18001	0.05611	0.1846	0.23875	0.15405	0.18587	-2.8854	-3.5	-3.2875	-3.2583	-3.5583	-3.2667	-3.6792	-3.5687	-3.2062	-3.5833	-3.4562	-3.4021	-3.625	-3.2229	-3.3708	-3.5854	123.227	139.974	-40.350	242.525	-33.256	206.721	207.870	-34.174	238.313	85.861	168.651	140.996	-47.523	-65.772	240.882	-76.109	0.0003082	0.00050659	7.86e-05	687.77	3.8845e-06	1.4668e-06	873.94	236.01	6.9077e-06	1.1213e-05	372.29	153.44	89.897	42.899	5.9267e-06	83.01	0.00075608	0.0007373	0.00024728	657.01	8.3668e-06	8.5501e-06	829.87	225.62	8.1631e-06	8.1018e-06	352.26	143.97	85.657	40.334	8.5438e-06	76.799	176.158	40.005	207.440	-76.598	139.194	69.340	-76.348	-70.800	260.837	101.807	-71.408	-67.546	-66.897	-61.660	-10.855	-63.828	-8191	255	
2161.903	1	1	0	0	0.093498	0.073733	0.25111	0.26169	0.23479	0.079704	0.13826	0.13022	0.21643	0.11668	0.082636	0.19939	0.22432	0.18187	0.17433	0.32456	-2.7917	-3.5604	-3.1	-3.4458	-3.6479	-3.3604	-3.6771	-3.5271	-3.1104	-3.7229	-3.5458	-3.1729	-3.7604	-3.5333	-3.4437	-3.6937	-40.480	187.331	136.778	265.188	223.496	266.465	111.261	181.442	250.570	24.200	174.227	268.926	-80.985	237.979	-48.587	197.101	0.00030635	0.00013277	0.00038052	691.9	5.1109e-06	9.4094e-06	872.66	235.64	7.0743e-06	2.946e-06	373.22	152.17	89.693	42.83	9.7359e-06	82.889	0.00065576	0.00071585	0.0002281	656.8	7.8035e-06	9.1683e-06	829.18	226.72	8.8021e-06	9.8112e-06	354.1	143.79	85.977	40.548	9.1792e-06	76.742	159.280	258.458	-3.503	-76.304	38.312	234.506	-76.239	-71.050	18.119	207.953	-70.988	-67.312	-66.893	-61.808	30.963	-63.873	-8191	255	
2161.999	1	1	0	0	0.10919	0.055578	0.17686	0.18812	0.15661	0.19188	0.12629	0.22388	0.17631	0.31359	0.098318	0.097726	0.29422	0.10541	0.26083	0.061256	-2.8479	-3.6417	-3.6208	-3.3625	-3.5625	-3.2667	-3.4083	-3.5396	-3.2188	-3.4542	-3.525	-3.3521	-3.85	-3.5479	-3.4521	-3.9958	-62.600	32.751	140.043	-58.126	-4.544	-75.729	185.250	182.903	32.955	-13.732	166.964	257.542	-40.813	-37.293	54.865	8.583	0.00053081	0.00068194	0.00021753	691.41	5.1017e-06	7.3915e-06	877.79	237.89	4.3327e-06	7.5153e-06	372.82	153.08	88.922	42.221	9.2654e-06	81.677	0.00069945	0.00080059	0.00021695	652.22	7.3815e-06	8.948e-06	824.97	225.38	8.4246e-06	1.0066e-05	353.24	144.43	86.334	40.595	1.0406e-05	76.326	150.952	38.315	-30.248	-76.025	1.880	19.633	-76.636	-70.747	242.763	28.935	-71.309	-67.311	-66.647	-61.502	46.404	-63.651	-8191	255	
2162.095	1	1	0	0	0.024815	0.10103	0.092915	0.058282	0.22042	0.065591	0.19414	0.17221	0.065996	0.20082	0.13919	0.10755	0.27535	0.24653	0.15034	0.10459	-2.8083	-3.5187	-3.4208	-3.3125	-3.625	-3.35	-3.4146	-3.6604	-3.3396	-3.2625	-3.7042	-3.1833	-3.6542	-3.55	-3.3625	-3.7042	187.615	103.970	-38.831	260.720	177.476	128.866	199.166	125.581	148.525	157.020	212.574	163.867	212.537	-62.501	144.306	173.176	0.00040254	0.00021405	0.00010379	679.87	1.2721e-05	2.4272e-06	864.48	230.62	5.2635e-06	1.8692e-05	362.94	148.25	86.067	40.151	6.737e-06	78.625	0.00088325	0.0010314	0.00026379	655.87	1.0101e-05	1.1888e-05	826.29	223.34	1.1304e-05	1.281e-05	350.19	141.92	86.176	39.531	1.3438e-05	74.586	121.775	5.645	79.952	-76.708	96.715	12.933	-76.070	-71.109	248.945	101.931	-71.245	-67.586	-66.397	-61.962	68.294	-63.504	-8191	255	
2162.216	1	1	0	0	0.03651	0.040828	0.17853	0.18554	0.13992	0.072318	0.14373	0.19765	0.15253	0.10938	0.19013	0.2559	0.1152	0.14186	0.15079	0.19674	-2.7792	-3.2417	-3.3708	-3.0875	-3.3625	-3.4813	-3.3104	-3.825	-3.1562	-3.5312	-3.8	-3.1854	-3.6542	-3.7854	-3.0854	-3.6437	126.677	186.763	164.888	205.004	157.335	26.171	190.627	96.975	52.181	40.997	212.583	-79.329	266.338	-49.306	219.511	159.932	0.00048701	0.0009613	0.00014304	668.59	9.962e-06	1.1799e-05	846.4	223.15	1.1906e-05	2.1006e-05	353.46	141.83	82.899	38.502	1.2293e-05	75.373	0.0013	0.001399	0.00035036	656.16	1.4704e-05	1.5418e-05	822.21	222.41	1.5931e-05	1.6302e-05	347.42	139.85	86.861	38.793	1.6283e-05	73.018	155.183	28.396	125.628	-76.400	103.905	-36.862	-76.270	-70.521	203.893	82.061	-71.270	-67.321	-66.759	-61.631	70.252	-63.240	-8191	255	
2162.310	1	1	0	0	0.12352	0.2089	0.15295	0.18537	0.24692	0.13767	0.33876	0.2164	0.21449	0.16853	0.079652	0.22339	0.067315	0.11878	0.21545	0.16224	-2.9437	-3.4042	-3.4604	-3.1958	-3.4833	-3.4646	-3.2875	-3.6917	-3.25	-3.3458	-3.8375	-3.3854	-3.3708	-3.5896	-3.3438	-3.6979	-50.809	134.393	95.739	198.788	5.101	105.523	199.641	22.423	71.711	-76.108	-27.660	206.065	225.838	163.540	54.919	141.936	0.00038754	0.0015229	0.00016035	641.01	8.2009e-06	1.8069e-05	819.77	216.66	8.5209e-06	7.612e-06	347.39	140.25	80.9	37.828	4.6869e-06	74.849	0.0017081	0.0017475	0.000453	662.66	2.1065e-05	1.9864e-05	821.84	224.48	2.0468e-05	1.8468e-05	344.86	139.58	86.272	37.872	1.5281e-05	72.401	151.628	10.694	105.723	-76.646	-26.499	47.182	-76.374	-70.451	46.044	-11.367	-71.197	-67.312	-66.828	-61.737	54.946	-63.538	-8191	255	
2162.384	1	1	0	0	0.22653	0.11264	0.107	0.26002	0.12287	0.21747	0.29726	0.21934	0.24644	0.11519	0.19356	0.14267	0.12938	0.15403	0.3132	0.22793	-2.9042	-3.2792	-3.6792	-3.2146	-3.45	-3.4646	-3.1875	-3.6063	-3.075	-3.3167	-3.7833	-3.3375	-3.5854	-3.5125	-3.1792	-3.7729	134.431	-62.125	54.165	191.429	149.851	126.911	240.516	156.000	150.382	232.663	249.370	200.795	12.722	240.815	88.828	248.668	0.00030781	0.0016318	0.00015663	639.54	1.3035e-05	2.1364e-05	819.6	212.95	1.1369e-05	1.6574e-06	341.47	139.19	80.235	36.738	1.2557e-05	73.013	0.0016055	0.0015401	0.00040327	655.33	1.963e-05	1.8101e-05	813.2	224.35	2.0653e-05	1.9045e-05	343.61	141.05	86.828	37.571	1.857e-05	72.836	112.941	-59.791	79.668	-76.237	0.949	24.508	-76.380	-71.147	-10.425	247.269	-71.438	-67.029	-66.327	-61.311	171.642	-63.508	-8191	255	
2162.480	1	1	0	0	0.092318	0.035135	0.19852	0.10001	0.22169	0.17931	0.13271	0.17998	0.036238	0.095518	0.12629	0.29324	0.078301	0.13812	0.10174	0.17415	-3.1146	-3.075	-3.6771	-3.2583	-3.4667	-3.4854	-3.3688	-3.4771	-3.4583	-3.1146	-3.5458	-3.2542	-3.3417	-3.5875	-3.2083	-3.6688	67.000	231.934	104.198	263.265	25.686	128.387	149.116	115.787	120.482	270.763	-70.201	260.313	239.374	245.397	7.181	165.959	0.0005847	0.0010124	8.1605e-05	625.13	1.3109e-05	1.158e-05	802.35	207.72	2.9124e-05	1.4179e-05	334.72	134.6	77.51	35.232	1.611e-05	70.849	0.0018963	0.0018537	0.00049689	669.34	2.3547e-05	2.2175e-05	821.83	231.71	2.5576e-05	2.4229e-05	350.23	144.02	88.785	37.553	2.4944e-05	73.356	166.369	18.706	126.505	-76.362	16.598	271.220	-76.444	-70.704	10.641	74.941	-71.279	-66.950	-66.710	-61.532	225.577	-63.647	-8191	255	
2162.599	1	1	0	0	0.075962	0.12449	0.10372	0.19635	0.13417	0.095058	0.27393	0.095277	0.39008	0.035868	0.20309	0.10572	0.02474	0.34077	0.15442	0.092611	-2.9375	-3.1	-3.6437	-3.3688	-3.4125	-3.6208	-3.3021	-3.6646	-3.4688	-3.3771	-3.7417	-3.4688	-3.3688	-3.9958	-3.0979	-3.6896	127.088	243.632	-26.790	162.052	141.727	233.812	213.712	74.250	-65.106	130.134	227.465	129.638	-60.281	-75.496	244.673	245.612	0.00036219	0.0014033	0.0001504	611.79	6.1399e-06	6.6441e-06	782.05	203.45	1.2743e-05	2.3357e-05	328.63	131.9	75.648	34.126	6.8766e-06	68.851	0.0022989	0.0022575	0.00064601	683.09	2.6713e-05	2.4833e-05	825.32	233.74	2.7624e-05	2.6399e-05	354.44	143.48	88.45	37.041	3.0092e-05	72.726	158.661	4.655	102.771	-76.867	4.900	218.500	-76.391	-70.914	70.329	29.970	-71.321	-67.359	-66.542	-61.290	166.488	-63.246	-8191	255	
2162.695	1	1	0	0	0.082972	0.1661	0.085531	0.16145	0.19807	0.094521	0.24398	0.056398	0.098796	0.17103	0.22644	0.21477	0.22844	0.14806	0.24192	0.10362	-3.1396	-3.0958	-3.5938	-3.4167	-3.2542	-3.6458	-3.3979	-3.8063	-3.6667	-3.3937	-3.7083	-3.4875	-3.2687	-3.6146	-3.3729	-3.5021	-80.227	179.648	101.892	174.257	7.606	204.738	270.156	9.448	-70.872	131.981	261.501	-84.074	250.114	260.267	63.082	93.055	8.0716e-05	0.00025664	0.00075832	602.75	3.6762e-06	2.2694e-05	769.3	198.63	1.3835e-05	4.4267e-06	322.96	129.81	74.377	33.266	1.4678e-05	68.019	0.0025768	0.0025808	0.0008181	695.95	3.0656e-05	2.9173e-05	851.47	237.92	3.2111e-05	3.1738e-05	369	146.42	92.151	38.13	4.0431e-05	74.18	-62.348	-43.344	149.024	-76.911	-3.175	-78.163	-76.510	-70.738	58.590	101.624	-71.327	-67.067	-66.484	-61.542	211.014	-63.329	-8191	255	
2162.791	1	1	0	0	0.16798	0.13035	0.042155	0.43848	0.12191	0.35909	0.16603	0.21143	0.18536	0.32563	0.084895	0.20043	0.21017	0.2038	0.11683	0.023208	-3.2396	-3.3	-3.5292	-3.6688	-3.2208	-3.6229	-3.6042	-3.4896	-3.775	-3.2042	-3.5542	-3.6646	-3.3458	-3.7125	-3.4313	-3.5	129.326	26.596	8.675	-66.089	196.911	25.034	191.107	150.874	69.184	22.559	138.744	212.157	201.092	237.451	253.772	-10.223	0.00034968	0.0022621	0.00060784	599.86	2.3418e-05	1.5145e-05	762.89	198.44	1.3131e-05	2.7069e-05	321.02	128.84	73.605	31.968	7.9517e-06	66.858	0.0031694	0.0033532	0.0011003	728.2	3.9017e-05	3.9724e-05	905.52	253.12	4.1568e-05	4.4432e-05	397.42	152.95	98.233	40.337	5.37e-05	76.384	178.997	111.900	161.963	-76.542	12.762	-70.763	-76.698	-71.086	-31.632	211.607	-71.280	-67.167	-66.889	-61.382	58.466	-63.548	-8191	255	
2162.887	1	1	0	0	0.11396	0.070623	0.19162	0.13917	0.20979	0.16101	0.2488	0.093344	0.05621	0.15107	0.30073	0.14575	0.12112	0.32947	0.1486	0.20904	-3.3021	-3.2229	-3.4479	-3.5979	-3.3438	-3.6479	-3.5312	-3.2438	-3.7625	-3.1979	-3.5833	-3.7229	-3.4042	-3.6625	-3.5604	-3.2792	19.997	127.228	-63.935	-44.754	222.776	-86.098	251.663	143.531	100.290	264.392	249.122	-74.715	151.705	236.356	32.857	188.619	0.00024814	0.0015545	0.00073595	619.71	8.6364e-06	3.7077e-05	777.55	199.49	1.6542e-05	4.8766e-05	322.6	126.95	74.734	31.35	1.8302e-05	65.428	0.0040379	0.004682	0.0014431	791.87	4.8472e-05	5.3889e-05	964.38	268.77	4.8877e-05	5.6415e-05	415.42	157.6	103.94	42.395	5.9213e-05	77.035	185.603	172.894	-30.337	-76.661	248.366	146.232	-76.799	-70.899	88.303	241.457	-71.494	-67.388	-66.795	-61.233	26.695	-63.207	-8191	255	
2162.983	1	1	0	0	0.13648	0.13935	0.073887	0.28908	0.11765	0.21061	0.13051	0.10814	0.19186	0.24388	0.25399	0.092784	0.40319	0.20021	0.28896	0.19076	-3.3292	-3.1667	-3.5292	-3.7438	-3.1292	-3.6958	-3.4958	-3.2021	-3.8937	-3.3688	-3.7646	-3.6688	-3.2354	-3.7979	-3.5104	-3.2458	66.491	-16.745	81.348	259.092	176.877	10.236	99.883	167.132	214.842	200.391	106.786	204.053	270.460	240.224	-65.689	36.124	0.00056502	0.0023037	0.00041688	630.11	1.844e-06	2.7138e-05	781.73	198.99	1.1053e-05	1.3276e-05	321.76	127.19	73.854	31.076	1.9757e-05	65	0.004488	0.0055009	0.0015025	810.54	5.0954e-05	5.9193e-05	960.47	267.15	4.9703e-05	5.8605e-05	406.16	154.14	103.7	42.173	5.3883e-05	75.118	137.171	89.266	-89.079	-76.976	120.582	177.447	-76.433	-71.148	204.238	198.537	-71.490	-67.582	-66.720	-61.553	47.579	-63.435	-8191	255	
2163.080	1	1	0	0	0.22597	0.12993	0.11549	0.13134	0.1187	0.071267	0.095996	0.11763	0.1909	0.122	0.12404	0.22697	0.299	0.40011	0.040277	0.028973	-3.1667	-3.5	-3.3896	-3.7292	-3.2333	-3.65	-3.7521	-3.4625	-3.9375	-3.4771	-3.3542	-3.8729	-3.3583	-3.5479	-3.6583	-3.3604	229.131	-85.153	5.561	255.189	14.331	-43.329	-36.383	-74.322	68.812	132.959	10.176	240.975	179.400	261.517	87.258	-22.752	0.00089524	0.0033902	0.00054226	623.64	2.5494e-05	1.4605e-05	780.82	199.41	2.7188e-05	1.3315e-05	323.87	127.22	74.481	31.745	1.0586e-05	65.342	0.0044876	0.0054094	0.0013739	790.11	5.2287e-05	5.8675e-05	936.5	260.94	5.0944e-05	5.6233e-05	397.24	151.51	104.21	41.426	4.8259e-05	74.11	126.814	11.032	0.973	-76.823	171.499	130.051	-76.580	-71.634	191.717	107.280	-71.761	-67.464	-67.130	-61.501	100.303	-63.758	-8191	255	
2163.176	1	1	0	0	0.08856	0.12933	0.14731	0.2262	0.20606	0.13546	0.12827	0.44943	0.048411	0.20939	0.069635	0.17585	0.15534	0.15279	0.083138	0.16032	-3.0938	-3.5479	-3.2396	-3.8187	-3.4229	-3.4	-3.6104	-3.1875	-3.575	-3.4833	-3.4083	-3.8146	-3.2771	-3.3917	-3.6437	-3.2583	-42.308	-24.269	-49.122	82.798	243.741	266.891	225.291	251.441	16.696	219.570	151.826	209.390	259.675	190.312	176.030	206.855	0.001061	0.0030462	0.00029839	623.29	1.0913e-05	2.1294e-05	771.89	197.11	3.2654e-05	3.3489e-05	322.75	126.85	74.212	31.711	6.653e-06	65.259	0.0044162	0.0048294	0.0012179	763.41	5.1303e-05	5.2349e-05	909.83	255.89	5.2931e-05	5.2842e-05	392.78	151.84	107.27	41.343	4.8073e-05	74.709	138.085	-60.663	-17.263	-76.870	61.646	45.144	-76.529	-71.054	152.914	72.968	-71.797	-67.684	-66.540	-61.621	69.322	-63.902	-8191	255	
2163.296	1	1	0	0	0.31333	0.14906	0.035379	0.20898	0.18964	0.36505	0.18434	0.21457	0.045477	0.06229	0.078543	0.0061249	0.16221	0.1374	0.11954	0.1671	-3.2812	-3.5167	-3.2292	-3.5896	-3.2687	-3.225	-3.9188	-3.3229	-3.5292	-3.4771	-3.5104	-3.6333	-3.4646	-3.2646	-3.7438	-3.2167	239.903	62.264	-28.958	270.577	-29.727	73.488	150.009	201.462	-2.912	-17.166	148.551	-74.186	213.804	-34.047	253.963	214.138	0.0002556	0.0034626	0.00038725	616.56	2.2365e-05	2.3318e-05	764.93	195.53	2.0936e-06	2.1056e-05	321.6	127.11	74.623	31.964	1.2557e-05	65.042	0.0047922	0.0047383	0.0012227	772.25	5.4653e-05	5.0831e-05	898.85	259.68	5.5114e-05	5.1041e-05	390.53	155.08	108.89	41.287	4.7967e-05	76.266	78.102	-10.995	-76.108	-76.662	5.957	54.586	-76.761	-71.235	226.023	97.073	-71.810	-67.296	-67.579	-62.030	24.537	-63.993	-8191	255	
2163.393	1	1	0	0	0.28362	0.087587	0.16039	0.13679	0.20497	0.058865	0.22921	0.20796	0.1437	0.017995	0.092723	0.068553	0.080345	0.25359	0.056951	0.060319	-3.0146	-3.5375	-3.3271	-3.7604	-3.4	-3.4292	-3.7438	-3.3292	-3.6542	-3.6813	-3.2542	-3.6271	-3.425	-3.1625	-3.5854	-3.3458	249.380	147.585	-37.578	123.536	110.950	28.014	217.455	70.347	-33.538	-3.978	-60.647	195.552	169.616	-77.643	0.074	159.339	0.00027066	0.0026899	0.0003712	607.66	2.0707e-05	1.7937e-05	750.56	194.8	1.8695e-05	1.2782e-05	314.29	128.19	76.516	32.266	2.2238e-06	65.832	0.0049704	0.0047088	0.0012435	795.66	5.7303e-05	5.3096e-05	902.01	272.48	5.9481e-05	5.4517e-05	396.15	164.52	113.45	42.819	5.4217e-05	80.97	229.491	-70.417	29.865	-76.780	29.459	-33.015	-76.565	-70.767	45.090	-44.733	-71.531	-67.629	-67.625	-61.531	165.438	-63.599	-8191	255	
2163.487	1	1	0	0	0.18382	0.071918	0.048591	0.1421	0.25897	0.062065	0.17016	0.10853	0.15558	0.068979	0.19257	0.15793	0.33127	0.066548	0.15841	0.21036	-3.2583	-3.6562	-3.1354	-3.6771	-3.3875	-3.2333	-3.7417	-3.4083	-3.4021	-3.55	-3.3417	-3.575	-3.7125	-3.2708	-3.5396	-3.5563	44.200	162.865	227.553	-47.494	59.542	85.952	223.764	252.005	186.118	48.426	252.174	248.557	219.438	220.816	130.807	201.291	0.00062682	0.0010097	0.00050637	622.48	3.0492e-05	1.6793e-05	763.14	195.4	2.7424e-05	3.4229e-05	319.1	130.03	78.324	32.416	1.5013e-05	65.874	0.0055867	0.0054115	0.0014856	876.41	6.6448e-05	6.2557e-05	965.62	299.43	6.841e-05	6.3605e-05	428.22	178.69	121.27	45.13	6.7659e-05	86.166	269.761	19.590	259.925	-77.158	51.868	-40.907	-76.695	-71.148	47.900	49.357	-72.148	-67.631	-67.446	-62.072	246.522	-63.865	-8191	255	
2163.585	1	1	0	0	0.10736	0.19733	0.18241	0.13664	0.1583	0.18122	0.13918	0.17273	0.23018	0.16328	0.097093	0.2229	0.098153	0.086366	0.11074	0.13681	-3.0042	-3.8167	-3.2479	-3.7625	-3.7396	-3.2687	-3.775	-3.4396	-3.45	-3.6208	-3.3479	-3.6667	-3.55	-3.2875	-3.6312	-3.6771	13.068	141.241	23.072	170.144	-75.227	67.857	203.230	235.231	-41.236	251.514	175.334	184.654	183.032	240.315	-17.453	264.062	0.00011819	0.0010402	0.00063402	642.87	1.3432e-05	2.2628e-05	783.84	204.61	6.8486e-06	2.1253e-05	331.38	133.4	80.138	32.174	3.1019e-05	65.83	0.0063643	0.0062623	0.0018661	962.08	7.5382e-05	7.2649e-05	1065.3	331.39	7.957e-05	7.4694e-05	480.69	193.59	130.95	47.988	8.7113e-05	90.826	122.183	236.731	185.953	-77.230	19.208	96.712	-76.987	-71.072	169.122	109.188	-72.253	-67.988	-67.282	-61.899	226.518	-63.793	-8191	255	
2163.679	1	1	0	0	0.17539	0.26475	0.11416	0.17031	0.14277	0.015235	0.099799	0.11636	0.16625	0.090659	0.27081	0.10407	0.057969	0.16113	0.238	0.26116	-2.8646	-3.6437	-3.3604	-3.525	-3.7625	-3.1271	-3.8208	-3.5687	-3.3354	-3.5542	-3.3292	-3.5167	-3.6104	-3.3187	-3.5708	-3.6833	111.565	62.274	-24.805	167.008	200.982	144.532	223.981	110.874	196.829	91.360	-59.610	-86.324	-3.469	222.569	155.893	133.616	0.00014172	0.0034532	0.0011795	667.45	2.9177e-05	6.4997e-06	814.76	211.05	1.2736e-05	3.2089e-05	338.97	135.4	81.037	32.283	1.9892e-05	65.821	0.0073495	0.0071726	0.0023259	1032.8	8.3483e-05	8.0958e-05	1164.9	346.19	8.5523e-05	8.1711e-05	515.14	198.15	134.68	49.693	9.8093e-05	90.865	251.076	51.142	149.738	-77.205	27.055	209.058	-77.274	-71.600	57.398	206.705	-71.737	-67.946	-67.251	-62.279	216.246	-63.877	-8191	255	
2163.775	1	1	0	0	0.27051	0.095406	0.12092	0.079004	0.12949	0.085045	0.080244	0.2883	0.17411	0.031393	0.21571	0.043152	0.29319	0.47368	0.23063	0.28634	-2.8021	-3.6458	-3.3187	-3.5646	-3.6729	-3.3417	-3.625	-3.5896	-3.1437	-3.725	-3.5292	-3.475	-3.5729	-3.4333	-3.4479	-3.8708	-57.129	-52.744	88.201	197.940	113.709	-15.462	-35.886	202.241	-28.111	172.165	241.462	-30.108	242.606	210.987	-0.874	168.224	0.00073649	0.0024323	0.0004347	676.03	2.9548e-05	3.8171e-05	821.91	208.98	1.4024e-05	2.443e-05	340.26	135.69	82.312	33.539	3.1712e-06	67.257	0.0074852	0.0077558	0.0025296	1031.8	8.3343e-05	8.6404e-05	1186.5	339.64	8.2227e-05	8.5436e-05	516.08	194.29	132.33	51.531	9.6063e-05	89.635	153.660	97.282	121.866	-77.156	25.616	192.567	-77.031	-71.537	130.701	149.199	-72.218	-68.203	-67.872	-62.401	189.170	-64.214	-8191	255	
2163.896	1	1	0	0	0.058264	0.02344	0.082127	0.080789	0.16675	0.059614	0.095834	0.15041	0.071384	0.22341	0.10823	0.15755	0.04448	0.24214	0.18118	0.13346	-2.8042	-3.5479	-3.4333	-3.4104	-3.8958	-3.5687	-3.7812	-3.8812	-3.2667	-3.675	-3.4562	-3.4	-3.6458	-3.4062	-3.2229	-3.7687	198.120	202.817	122.836	127.348	-67.736	164.229	-54.974	-21.135	24.050	260.654	182.638	-57.798	191.888	-19.188	155.311	100.699	0.00051822	0.0039254	0.00039878	665.13	1.1941e-05	2.4203e-05	817.08	210.41	1.4121e-05	3.3428e-05	339.24	137.59	83.475	34.679	2.236e-05	68.774	0.0070216	0.0079391	0.0023795	984.72	7.5491e-05	8.5495e-05	1131.2	322.85	7.3324e-05	8.3365e-05	486.18	186.18	126.46	51.256	8.0392e-05	86.099	83.561	147.649	-67.653	-76.928	72.437	236.429	-76.936	-71.860	30.492	253.949	-71.941	-68.295	-67.529	-62.581	-17.777	-64.040	-8191	255	
2163.992	1	1	0	0	0.28199	0.094947	0.05819	0.17202	0.15883	0.08262	0.03611	0.10352	0.098696	0.14277	0.071585	0.19339	0.086088	0.33434	0.11762	0.31318	-2.8146	-3.6479	-3.4938	-3.4271	-3.7354	-3.2583	-3.6479	-3.6937	-3.2	-3.6417	-3.4854	-3.2438	-3.9083	-3.4042	-3.3063	-3.6771	156.744	93.716	60.845	-76.334	71.094	157.336	-19.250	-64.050	71.895	46.516	136.455	-53.771	168.059	144.549	-77.258	-85.774	0.0005897	0.0013909	0.00052342	655.32	2.2408e-05	2.1765e-05	794.51	208.78	2.3377e-05	2.582e-05	339.98	140.14	85.436	36.095	7.3233e-06	70.128	0.0060058	0.0072452	0.0019289	905.3	6.5251e-05	7.7029e-05	1040.8	298.14	6.3667e-05	7.3543e-05	451.33	176.76	121.63	49.801	6.4184e-05	82.989	97.506	154.021	53.211	-77.386	178.876	173.783	-77.397	-72.082	117.703	150.386	-72.101	-68.014	-67.494	-62.925	62.532	-64.649	-8191	255	
2164.088	1	1	0	0	0.088615	0.18026	0.1132	0.17849	0.076796	0.087726	0.33022	0.32374	0.22473	0.098616	0.2464	0.021335	0.15011	0.30555	0.28691	0.16448	-2.7542	-3.5583	-3.4542	-3.15	-3.6146	-3.4833	-3.3187	-3.6437	-3.2375	-3.4646	-3.5979	-3.2979	-3.4708	-3.4271	-3.0854	-3.8167	68.671	-35.441	77.326	183.622	58.006	208.593	-59.142	132.377	158.028	179.452	224.273	246.050	211.612	212.562	169.189	225.671	0.000834	0.0020753	0.0011385	643.39	3.589e-05	1.6213e-05	779.2	209.16	1.9119e-05	2.8063e-05	340.54	142.01	87.208	37.411	4.7408e-06	70.847	0.005364	0.006286	0.001566	843.6	6.0062e-05	6.7435e-05	973.66	281.81	6e-05	6.3412e-05	423.73	168.43	118.95	47.326	5.0761e-05	79.342	153.775	40.292	-17.039	-77.255	208.310	113.618	-76.898	-71.629	202.883	66.671	-72.285	-67.956	-68.051	-62.920	261.096	-64.711	-8191	255	
2164.184	1	1	0	0	0.10421	0.054136	0.081724	0.17485	0.13576	0.045972	0.25359	0.09648	0.21923	0.10042	0.25	0.079863	0.020075	0.18958	0.060511	0.18628	-2.9313	-3.4979	-3.4958	-3.15	-3.6646	-3.5042	-3.3187	-3.6771	-3.2833	-3.4604	-3.5583	-3.3229	-3.675	-3.4896	-3.2458	-3.6104	71.282	84.808	-51.252	196.347	7.476	110.082	256.677	93.321	136.238	205.297	-25.365	186.272	157.595	132.836	181.151	-65.113	0.00049765	0.0020779	0.00035958	626.66	1.2908e-05	9.6088e-06	761.4	206.31	2.2539e-05	2.2893e-05	337.61	141.5	87.975	37.512	2.7961e-05	71.083	0.0046302	0.0048834	0.0012204	772.82	5.1046e-05	5.1207e-05	894.61	260.46	5.1007e-05	4.927e-05	395.94	162.02	114.04	44.831	4.1873e-05	77.535	116.644	19.131	-68.458	-77.185	254.745	-37.649	-77.025	-71.605	186.675	15.979	-72.136	-68.318	-67.646	-63.444	41.459	-64.924	-8191	255	
2164.281	1	1	0	0	0.18383	0.15524	0.06964	0.20763	0.23862	0.17704	0.17581	0.23806	0.17039	0.10671	0.15054	0.22386	0.12177	0.20678	0.064235	0.10846	-2.8271	-3.3083	-3.5625	-3.2646	-3.5396	-3.5167	-3.1625	-3.625	-3.3375	-3.2833	-3.7271	-3.3937	-3.4417	-3.5625	-3.4313	-3.7875	49.698	121.179	58.411	205.291	217.088	2.682	-39.326	200.841	125.628	-65.341	231.068	216.751	-33.565	-77.327	130.083	237.244	0.00061996	0.0022549	0.00051721	614.62	1.1491e-05	2.3058e-05	749.33	202.82	2.2119e-05	2.8394e-05	333.53	142.82	88.178	38.708	1.2778e-05	73.034	0.0041557	0.0041043	0.0010408	749.08	4.8242e-05	4.4147e-05	856.88	250.86	4.3888e-05	3.8429e-05	370.77	156.84	106.69	42.53	3.0417e-05	76.518	153.060	-40.671	0.874	-77.155	143.253	13.767	-76.847	-71.853	130.255	50.666	-72.201	-68.048	-67.593	-63.414	2.253	-65.046	-8191	255	
2164.377	1	1	0	0	0.12439	0.20358	0.21054	0.1362	0.16284	0.2954	0.22836	0.084424	0.16257	0.15613	0.22548	0.18711	0.24072	0.22759	0.046919	0.23624	-2.7667	-3.2896	-3.4958	-3.3	-3.5	-3.6875	-3.3854	-3.6188	-3.5	-3.1958	-3.6333	-3.4354	-3.4667	-3.5167	-3.2	-3.7062	80.186	154.887	247.025	113.766	106.177	254.713	238.424	83.186	195.664	76.162	139.164	195.972	1.447	260.265	-66.994	207.936	0.00018874	0.0012423	0.00043554	609.49	6.3113e-06	1.0821e-05	743.04	201.98	2.2777e-05	1.0183e-05	328.66	138.55	84.876	37.108	9.5128e-06	70.4	0.0030795	0.0029431	0.00076425	704.69	3.6002e-05	3.2512e-05	803.12	238.98	3.4355e-05	3.1054e-05	355.17	152.03	100.61	40.659	3.0171e-05	75.088	-1.030	-50.672	261.836	-76.973	51.735	-36.594	-76.696	-71.474	37.359	170.736	-72.122	-68.123	-67.843	-63.345	223.352	-64.753	-8191	255	
2164.473	1	1	0	0	0.14769	0.18733	0.22525	0.16854	0.10691	0.083611	0.18709	0.30037	0.13619	0.32148	0.10163	0.1444	0.21192	0.13965	0.17986	0.1195	-3.0792	-3.4375	-3.5708	-3.2125	-3.4583	-3.5979	-3.4208	-3.5125	-3.4375	-3.225	-3.5354	-3.3208	-3.4479	-3.7313	-3.05	-3.7146	68.951	259.591	190.781	170.982	41.313	148.759	229.271	232.896	-39.590	47.516	136.712	253.519	219.481	37.363	-18.465	166.602	0.00033814	0.00066638	0.00014638	595.87	1.4816e-05	1.8665e-05	725.57	199.56	7.6831e-06	3.9598e-06	324.18	136.93	84.482	36.242	9.4799e-06	69.009	0.0030204	0.0029299	0.00078472	702.37	3.3699e-05	3.0751e-05	791.08	236.26	3.1419e-05	2.9296e-05	351.83	150.02	97.664	39.439	3.0128e-05	73.425	148.214	-38.777	66.439	-77.360	8.444	43.384	-76.870	-71.710	-15.764	-43.883	-71.851	-68.277	-67.670	-63.089	160.219	-64.697	-8191	255	
2164.567	1	1	0	0	0.14735	0.31622	0.070257	0.1804	0.2033	0.14285	0.068594	0.21812	0.11253	0.091303	0.085513	0.12085	0.097911	0.055328	0.04896	0.031828	-3.2188	-3.1854	-3.6646	-3.4146	-3.3625	-3.65	-3.3083	-3.6354	-3.4437	-2.9292	-3.7125	-3.4042	-3.2771	-3.65	-3.3021	-3.5187	114.587	8.042	219.923	-34.197	46.343	91.314	31.839	205.155	195.221	-49.899	267.674	168.193	211.606	3.010	219.490	-86.182	0.00012933	0.00017868	0.00016436	589.02	1.8573e-05	2.1378e-05	714.81	196.95	8.8717e-06	2.1422e-05	318.18	135.41	82.661	36.027	1.2097e-05	69.143	0.0026934	0.002646	0.00077219	682.29	2.9818e-05	2.7369e-05	782.83	229.86	2.7988e-05	2.6699e-05	348.75	146.26	94.371	38.567	3.0021e-05	72.245	181.970	147.988	18.194	-77.029	-25.006	95.216	-76.801	-71.509	-53.018	101.525	-72.452	-68.200	-67.900	-63.389	227.428	-64.839	-8191	255	
2164.688	1	1	0	0	0.28699	0.073078	0.31488	0.12726	0.35211	0.313	0.26104	0.2395	0.18474	0.18218	0.10802	0.049552	0.071963	0.1202	0.16652	0.14408	-3.1479	-3.25	-3.4562	-3.5354	-3.275	-3.5771	-3.4	-3.4854	-3.6354	-3.2042	-3.5354	-3.4896	-3.1542	-3.8521	-3.225	-3.5042	235.349	-68.887	-45.908	164.991	178.636	64.540	252.205	267.505	172.096	120.592	190.488	177.830	5.626	-53.687	191.930	247.704	0.00050531	0.0012512	0.00032322	589.05	4.9291e-06	1.6255e-05	712.35	194.94	2.016e-05	1.1501e-05	316.79	134.27	82.132	35.764	1.4344e-05	69.337	0.0024247	0.0024505	0.00077838	665.29	2.8085e-05	2.7029e-05	786.21	227.29	2.7867e-05	2.7321e-05	351.73	144.18	92.957	38.458	3.0358e-05	71.351	140.251	122.956	106.085	-76.927	35.740	111.494	-76.686	-71.217	-32.245	218.108	-72.032	-68.064	-67.996	-63.279	186.297	-65.213	-8191	255	
2164.784	1	1	0	0	0.19098	0.14643	0.2429	0.1151	0.10175	0.1155	0.20727	0.31239	0.20315	0.14662	0.37736	0.086436	0.11975	0.33689	0.21253	0.076718	-3.2854	-3.2542	-3.375	-3.6375	-3.1854	-3.6437	-3.5563	-3.2792	-3.5687	-3.0938	-3.5187	-3.4792	-3.2708	-3.6417	-3.2438	-3.6083	56.537	100.272	184.132	261.852	-43.401	136.881	220.874	-50.008	-17.713	181.847	253.609	-14.518	202.273	270.088	-35.269	130.339	0.00036264	0.0015361	0.00041956	576.81	4.0959e-06	1.2227e-05	717.01	197.02	8.0382e-06	2.6944e-05	320.11	135.4	82.457	36.339	1.3736e-05	69.658	0.0022487	0.0023963	0.0007617	644.61	2.516e-05	2.5965e-05	773.26	220.2	2.4375e-05	2.616e-05	346.66	141.32	90.999	38.6	2.6491e-05	70.259	201.593	141.414	-0.417	-77.195	62.309	199.825	-76.904	-71.005	46.420	220.745	-71.885	-67.935	-67.706	-63.235	59.054	-65.117	-8191	255	
2164.880	1	1	0	0	0.41985	0.27479	0.20507	0.15853	0.12921	0.162	0.1828	0.10049	0.080589	0.17456	0.1809	0.17802	0.14153	0.088077	0.18187	0.10391	-3.2708	-3.4	-3.3771	-3.675	-3.0646	-3.5854	-3.5854	-3.4021	-3.6583	-3.2958	-3.6542	-3.7896	-3.2146	-3.6979	-3.5417	-3.4833	-50.343	57.303	42.655	194.446	67.280	73.205	254.074	42.350	-77.564	143.067	88.033	237.356	-22.431	58.725	112.989	78.627	0.00032331	0.00076536	0.00055322	578.14	5.4551e-06	1.1894e-05	705.76	194.41	7.904e-06	7.1752e-06	316.89	134	82.333	36.76	5.9873e-06	70.746	0.0018971	0.0022282	0.00064602	623.07	2.1148e-05	2.3978e-05	743.88	211.34	2.0386e-05	2.3819e-05	333.15	137.25	88.381	38.543	2.2054e-05	69.708	107.540	169.190	-6.765	-77.005	-11.237	154.392	-76.757	-71.306	-72.622	30.889	-71.906	-68.187	-68.018	-63.058	53.597	-65.076	-8191	255	
2164.976	1	1	0	0	0.090986	0.043165	0.19127	0.22704	0.26056	0.1499	0.17164	0.124	0.22825	0.10907	0.022394	0.212	0.059088	0.15975	0.32114	0.27027	-3.2896	-3.3729	-3.6333	-3.7979	-3.2021	-3.5833	-3.4896	-3.5208	-3.6188	-3.3667	-3.3271	-3.7583	-3.3854	-3.4354	-3.5667	-3.3396	152.131	220.062	148.248	152.800	67.087	-40.128	98.152	-46.294	268.030	67.565	82.914	214.861	-57.677	101.857	168.276	145.470	0.00047794	0.00065115	0.00080506	578.82	1.1317e-06	1.1041e-05	708.52	198.57	1.1087e-05	1.0412e-05	320.01	135.93	83.514	37.665	4.1959e-06	71.368	0.0016437	0.0019792	0.00051691	599.62	1.785e-05	2.0737e-05	719.54	206.34	1.7389e-05	2.0351e-05	324.16	135.26	87.723	38.675	1.8167e-05	69.535	162.535	112.684	3.827	-77.003	-67.431	80.785	-76.484	-71.314	68.168	139.921	-71.856	-68.143	-68.043	-63.140	74.844	-65.493	-8191	255	
2165.073	1	1	0	0	0.11703	0.12383	0.099984	0.095818	0.34061	0.16064	0.27873	0.24617	0.036153	0.1955	0.20248	0.23873	0.049937	0.19067	0.077915	0.24	-3.1937	-3.3625	-3.2062	-3.6958	-3.3063	-3.4292	-3.7062	-3.225	-3.7125	-3.4146	-3.3375	-3.6771	-3.2792	-3.4625	-3.4938	-3.3083	75.758	202.379	123.589	41.201	28.847	240.898	139.033	119.903	-28.831	-12.767	-66.318	211.619	226.806	177.291	201.860	240.955	0.00075005	0.00067136	0.00053196	569.03	3.3414e-06	1.5307e-05	696.72	196.14	8.4314e-06	2.0842e-05	315.93	134.68	82.475	37.831	8.4271e-06	71.85	0.0015779	0.001846	0.00045994	586.73	1.7728e-05	1.9156e-05	704.63	201.71	1.7125e-05	1.8148e-05	318.25	133.44	86.412	38.125	1.616e-05	69.283	141.568	216.783	54.563	-77.150	-79.647	63.826	-76.545	-71.248	184.497	86.378	-72.081	-68.487	-67.718	-63.474	72.823	-65.121	-8191	255	
2165.169	1	1	0	0	0.065508	0.26356	0.17651	0.1978	0.25929	0.18052	0.10197	0.21456	0.24292	0.083703	0.30351	0.045077	0.079828	0.19473	0.1679	0.25709	-3.2583	-3.2917	-3.2771	-3.7333	-3.2896	-3.2958	-3.5229	-3.1417	-3.5917	-3.4583	-3.2104	-3.6063	-3.425	-3.4042	-3.6833	-3.2042	50.123	141.068	187.325	-76.911	127.810	233.246	64.524	192.545	24.096	76.469	228.171	-34.903	-67.606	-85.954	12.278	222.597	0.00052826	0.00036365	0.00030884	571.25	3.4538e-06	6.495e-06	696.27	196.95	8.1938e-06	1.5141e-05	317.39	136.08	82.982	37.959	1.3447e-06	71.581	0.0015393	0.0015858	0.00039993	575.89	1.6482e-05	1.5923e-05	689.96	198.29	1.5745e-05	1.4905e-05	313.08	132.72	85.484	37.494	1.332e-05	68.733	136.759	255.310	17.890	-76.878	20.513	-13.710	-76.339	-71.598	124.579	-1.607	-71.943	-68.525	-67.512	-63.222	190.895	-65.202	-8191	255	
2165.265	1	1	0	0	0.28511	0.14763	0.18904	0.11565	0.10825	0.23324	0.17143	0.15568	0.10681	0.08431	0.14268	0.16961	0.12323	0.22498	0.11015	0.051447	-3.0854	-3.5479	-3.1396	-3.6604	-3.1875	-3.2229	-3.6917	-3.2062	-3.4042	-3.4375	-3.2458	-3.4646	-3.3021	-3.3042	-3.6021	-3.3354	8.032	-81.828	97.012	172.094	39.143	220.605	-47.217	262.246	252.113	88.407	-9.461	177.347	256.246	263.700	-88.548	233.644	0.00043704	0.0013018	0.0001795	566.78	4.1356e-06	1.8521e-05	691.93	195.47	7.2067e-06	7.3895e-06	315.36	134.37	82.264	38.018	3.938e-06	71.826	0.0013852	0.0013224	0.00034623	570.54	1.5796e-05	1.4416e-05	679.11	197.43	1.51e-05	1.3456e-05	307.97	131.21	84.025	37.133	1.1896e-05	68.635	139.094	-68.708	65.298	-76.499	61.747	9.566	-76.650	-71.696	-17.749	60.008	-71.977	-68.110	-67.908	-63.224	28.625	-64.906	-8191	255	
2165.385	1	1	0	0	0.17553	0.080216	0.09826	0.1991	0.11429	0.026523	0.15494	0.20352	0.038673	0.09333	0.23432	0.060861	0.2284	0.13559	0.095252	0.15265	-3.2854	-3.6417	-3.2667	-3.6042	-3.4354	-3.225	-3.6333	-3.0875	-3.4354	-3.6271	-3.1312	-3.7417	-3.4896	-3.1813	-3.6042	-3.5438	-68.689	-10.319	-25.583	-77.050	156.150	-69.290	184.262	70.608	163.441	212.819	196.979	197.833	244.487	170.861	-44.400	223.916	0.00020979	0.00091151	7.2485e-05	561.55	1.5909e-07	7.6355e-06	688.07	196.84	4.2965e-06	1.3393e-05	319.36	137.12	83.726	38.927	5.3881e-06	73.372	0.0012346	0.001122	0.00029496	561.57	1.293e-05	1.1775e-05	668.19	197.43	1.246e-05	1.1262e-05	307.57	132.96	83.522	37.496	1.0404e-05	69.635	189.603	-31.535	17.270	-76.843	68.299	110.029	-76.776	-71.504	-29.448	135.003	-71.878	-67.993	-67.690	-63.390	183.622	-65.536	-8191	255	
2165.480	1	1	0	0	0.10868	0.16162	0.06971	0.19552	0.2785	0.22501	0.21204	0.29718	0.10883	0.14833	0.15339	0.18826	0.016453	0.21733	0.13048	0.23083	-2.9729	-3.5979	-3.1604	-3.5833	-3.4021	-3.1708	-3.7542	-3.2354	-3.3521	-3.6708	-3.2646	-3.6771	-3.6813	-3.3729	-3.5875	-3.4708	-65.206	267.714	177.863	243.268	-69.453	8.889	227.691	181.105	19.414	-72.199	210.569	181.973	173.160	-66.065	112.882	244.643	0.00024393	0.0010004	0.00027131	572.21	8.1473e-06	4.1104e-06	701.49	202.92	1.489e-05	7.6835e-06	329.54	142.13	86.524	40.224	3.0368e-06	75.889	0.00098878	0.00089373	0.00024436	559.8	9.7276e-06	8.9459e-06	669.07	197.97	9.2396e-06	8.5082e-06	312.43	135.3	84.108	38.162	9.1479e-06	71.186	153.630	9.569	34.769	-76.222	19.170	113.655	-76.718	-71.210	37.375	22.207	-71.839	-68.504	-67.584	-63.444	81.740	-65.357	-8191	255	
2165.578	1	1	0	0	0.085597	0.14636	0.14211	0.052143	0.12607	0.13767	0.29382	0.057983	0.23048	0.33989	0.041922	0.14603	0.11616	0.13015	0.22386	0.055307	-2.8354	-3.6354	-3.1771	-3.6167	-3.5604	-3.1396	-3.8292	-3.4104	-3.2458	-3.85	-3.2792	-3.4333	-3.7583	-3.3375	-3.7271	-3.5458	131.107	-23.778	43.095	186.443	127.773	-41.667	168.648	-40.886	165.316	-15.120	-53.023	210.705	214.728	252.798	199.331	143.148	0.00029725	0.00055865	0.0001574	585.06	9.2122e-06	4.0542e-06	719.24	206.86	9.3176e-06	7.9842e-06	337.92	144.49	88.228	41.474	5.4109e-06	78.018	0.00082513	0.00075609	0.00023164	566.78	8.5964e-06	8.0294e-06	682.89	201.07	8.315e-06	7.6677e-06	319.03	136.96	84.84	39.002	8.696e-06	72.454	153.644	-39.583	35.284	-77.066	-23.019	36.915	-76.517	-71.233	57.125	101.027	-71.809	-68.239	-67.650	-63.430	-76.161	-65.113	-8191	255	
2165.672	1	1	0	0	0.041288	0.06006	0.26035	0.23409	0.15177	0.0142	0.073198	0.21618	0.035963	0.24733	0.20721	0.16394	0.12614	0.10532	0.30037	0.067415	-2.8771	-3.7479	-3.2167	-3.2875	-3.6312	-3.0917	-3.5833	-3.4896	-3.1354	-3.4833	-3.2062	-3.4771	-3.7812	-3.2625	-3.8125	-3.5979	240.967	-85.131	-14.927	202.125	246.642	-17.318	17.320	58.884	248.472	169.473	168.616	160.961	54.816	245.779	18.623	-15.924	7.1423e-05	0.0004311	0.00028792	595.81	6.9673e-06	7.6949e-06	727.07	210.39	4.4677e-06	8.1046e-06	331.22	141.43	84.824	39.762	4.691e-06	74.902	0.00072321	0.0006882	0.00022534	572.17	7.8915e-06	7.8328e-06	695.59	202.94	8.833e-06	8.8101e-06	318.69	135.39	83.044	38.338	1.2802e-05	70.785	172.555	211.050	-30.587	-76.844	58.746	16.062	-76.871	-71.262	-34.635	79.913	-71.850	-67.992	-67.347	-62.793	56.967	-64.619	-8191	255	
2165.768	1	1	0	0	0.10707	0.13001	0.32195	0.077797	0.23321	0.22789	0.10517	0.12916	0.13253	0.18235	0.11339	0.26544	0.089653	0.21192	0.31673	0.17323	-2.6021	-3.4813	-3.3063	-3.35	-3.4229	-3.2521	-3.5979	-3.5667	-3.3021	-3.6188	-3.5479	-3.5292	-3.8396	-3.2542	-3.3583	-3.5583	56.321	0.469	29.738	10.409	108.993	203.770	-16.276	223.557	210.253	-9.036	140.572	230.700	0.178	173.535	148.146	202.828	0.00025799	0.00017554	0.0001938	581.16	4.6355e-06	6.3723e-06	716.88	197.83	8.6506e-06	1.2887e-05	318.41	133.5	78.674	37.345	7.6339e-06	71.617	0.0010401	0.0010941	0.0003581	581.53	1.204e-05	1.3132e-05	710.95	200.37	1.29e-05	1.4195e-05	317.77	131.68	80.545	37.287	1.7387e-05	69.557	144.645	19.574	37.049	-77.107	93.917	205.048	-76.357	-71.317	25.041	188.861	-71.802	-67.758	-67.420	-62.620	196.203	-64.465	-8191	255	
2165.864	1	1	0	0	0.10374	0.21207	0.20879	0.1015	0.18253	0.11288	0.087081	0.073428	0.26218	0.24359	0.31374	0.084767	0.17923	0.3343	0.19771	0.06418	-2.8146	-3.5646	-3.275	-3.2208	-3.6458	-3.2979	-3.5542	-3.6937	-3.175	-3.3729	-3.4042	-3.1833	-3.6021	-3.5792	-3.4083	-3.7854	174.057	194.163	205.392	235.015	16.047	168.585	206.351	-84.723	203.311	161.088	161.810	-29.794	-84.188	188.318	-6.096	212.264	0.00054118	0.00063577	0.00052979	578.54	8.8327e-06	1.1943e-05	709.02	192.64	7.0279e-06	1.7972e-05	306.9	126.4	73.576	34.484	8.2697e-06	67.483	0.0013621	0.0016358	0.00049042	597.47	1.6772e-05	2.0173e-05	730.58	202.82	1.8353e-05	2.1592e-05	320.77	130.12	80.216	36.922	2.4954e-05	68.35	154.018	-0.033	-29.892	-76.774	-13.086	118.895	-76.349	-71.250	109.107	149.011	-71.516	-67.465	-66.730	-62.158	23.082	-64.072	-8191	255	
2165.961	1	1	0	0	0.041053	0.075701	0.084872	0.30302	0.35965	0.052184	0.21591	0.29141	0.17694	0.20992	0.15051	0.056532	0.099018	0.10588	0.14438	0.24009	-2.6688	-3.4625	-3.4146	-3.4417	-3.5417	-3.4313	-3.425	-3.8	-3.2375	-3.6063	-3.5583	-3.0604	-3.6375	-3.4958	-3.3458	-3.8875	-84.425	162.920	179.843	173.396	6.167	-22.108	192.716	234.764	219.079	213.590	106.708	55.643	256.027	202.871	76.150	-63.857	0.00044028	0.00082125	0.00033566	568.12	1.7376e-05	8.3712e-06	706.86	184.77	7.3535e-06	5.6378e-06	299.84	123.2	71.687	33.51	2.7423e-06	66.268	0.0020852	0.0025691	0.00068591	625.36	2.4577e-05	2.8834e-05	752.21	205.94	2.4023e-05	2.7254e-05	320.51	128.79	81.168	36.364	2.4425e-05	66.894	103.725	18.753	-24.834	-76.672	239.787	191.506	-76.313	-70.826	118.070	168.066	-71.843	-67.412	-66.498	-62.264	228.374	-64.031	-8191	255	
2166.081	1	1	0	0	0.19711	0.2645	0.11174	0.2263	0.35352	0.092787	0.026001	0.17482	0.28142	0.19215	0.13194	0.10868	0.20778	0.11322	0.14302	0.12994	-2.8417	-3.3792	-3.4771	-3.0542	-3.55	-3.3563	-3.375	-3.5917	-3.2812	-3.5104	-3.5896	-3.2521	-3.6708	-3.3292	-3.3771	-3.7479	190.479	16.284	239.514	54.992	226.648	-32.916	82.425	-37.574	119.622	243.747	246.746	209.475	123.828	-87.329	77.440	264.223	0.00048292	0.0012582	0.00056009	569.22	9.6073e-06	1.862e-05	703.48	182.62	2.4115e-05	4.2086e-06	297.16	121.71	71.628	33.392	2.1508e-06	67.011	0.0021708	0.0025029	0.00063718	617.32	2.5975e-05	2.853e-05	752.39	204.88	2.7753e-05	2.8736e-05	319.67	128.11	82.505	35.945	2.177e-05	66.497	151.615	-10.839	-26.491	-76.638	95.707	29.354	-76.496	-71.466	176.528	160.578	-71.525	-67.478	-67.266	-62.070	64.489	-64.002	-8191	255	
2166.177	1	1	0	0	0.15698	0.060159	0.15954	0.11819	0.11988	0.052928	0.023431	0.087523	0.17564	0.11474	0.14036	0.12816	0.13831	0.26003	0.13365	0.23511	-2.675	-3.35	-3.5396	-3.3458	-3.5938	-3.4854	-3.3125	-3.5167	-3.3083	-3.5271	-3.6479	-3.1708	-3.4979	-3.5292	-3.3417	-3.8396	172.718	268.608	74.172	188.483	240.704	173.492	72.189	193.283	257.305	36.482	-80.111	149.859	8.893	-87.740	267.649	111.269	0.00055194	0.0016652	0.00020191	580.43	5.1434e-06	9.3467e-06	715.45	188.32	7.6873e-06	5.4864e-06	305.03	126.35	74.071	34.683	5.0965e-06	68.532	0.0019261	0.0019091	0.00046253	596.74	1.9208e-05	1.8454e-05	719.05	195.55	1.8757e-05	1.7604e-05	307.3	126.51	79.902	35.195	1.5904e-05	66.813	135.715	66.967	91.397	-76.576	148.991	33.629	-76.830	-71.239	-83.575	63.987	-71.486	-67.510	-66.491	-62.104	30.678	-63.738	-8191	255	
2166.249	1	1	0	0	0.12877	0.011313	0.11699	0.08537	0.042134	0.25806	0.12554	0.2387	0.18463	0.28367	0.36232	0.2725	0.084565	0.059413	0.16371	0.34892	-3	-3.2896	-3.6292	-3.4542	-3.4292	-3.5292	-3.1875	-3.4854	-3.3625	-3.3708	-3.7938	-3.2812	-3.3417	-3.5062	-3.0479	-3.6979	-23.679	131.983	-20.515	-82.955	-30.208	138.622	-21.940	140.108	254.383	-9.697	195.725	245.674	221.058	101.317	129.415	169.969	0.00017934	0.00059664	7.093e-05	574.58	8.0035e-06	1.0773e-05	719.42	190.47	6.7693e-06	1.1053e-05	309.23	129.3	75.926	36.201	8.3031e-06	71.128	0.0015999	0.0014973	0.00037658	586.43	1.6328e-05	1.4534e-05	703.74	192.83	1.4674e-05	1.3149e-05	300.88	126.43	77.478	35.107	1.0633e-05	67.694	52.016	-22.097	-50.832	-76.397	-14.632	22.162	-76.435	-70.750	-62.928	55.489	-71.177	-67.677	-66.885	-61.985	111.919	-64.044	-8191	255	
2166.345	1	1	0	0	0.11549	0.11609	0.091852	0.047952	0.26443	0.054319	0.28449	0.2437	0.044434	0.044951	0.28006	0.095808	0.22836	0.22548	0.076398	0.17345	-3.0125	-3.2062	-3.5271	-3.1813	-3.5104	-3.4833	-3.1667	-3.5458	-3.425	-3.2417	-3.7583	-3.4396	-3.4708	-3.6646	-3.2104	-3.7875	38.242	-2.375	210.084	115.350	113.567	118.116	180.244	192.167	-64.673	71.291	-52.360	246.578	-57.636	-29.204	108.881	211.452	0.00028542	0.00050181	3.919e-05	587.9	2.4797e-06	1.5002e-05	729.67	193.96	5.2649e-06	1.1226e-05	311.72	131.82	76.753	36.747	8.8362e-06	72.291	0.0010408	0.00094097	0.00023686	575.44	1.0344e-05	9.3798e-06	695.47	190.53	1.0038e-05	9.3084e-06	297.12	126.06	75.856	35.098	8.7286e-06	68.105	196.159	240.847	87.323	-76.819	-12.775	8.612	-76.005	-71.284	181.908	72.720	-71.617	-67.356	-66.941	-62.024	-14.964	-64.233	-8191	255	
2166.464	1	1	0	0	0.13743	0.23175	0.091868	0.076895	0.11454	0.083448	0.19285	0.20181	0.12517	0.019494	0.33283	0.27563	0.1167	0.20072	0.063445	0.10805	-3.1	-3.0229	-3.7708	-3.2167	-3.2042	-3.7062	-3.3708	-3.5125	-3.5438	-3.2125	-3.8167	-3.3021	-3.5417	-3.7854	-3.1917	-3.5479	262.492	57.915	190.622	-60.582	153.359	49.482	46.482	251.498	121.294	261.733	190.613	269.016	228.797	195.312	142.897	62.888	0.00027518	0.0010171	0.00033414	596.34	5.5585e-06	4.3852e-06	735.98	194.06	3.3816e-06	1.0582e-05	315.67	132.53	77.618	37.544	3.6247e-07	73.687	0.00078986	0.00072018	0.00019466	570.26	7.587e-06	6.9371e-06	693.75	187.5	7.2855e-06	6.6988e-06	296.41	125.02	74.498	35.222	7.076e-06	68.413	131.433	-67.282	79.748	-76.954	-8.158	-1.068	-76.364	-70.766	-0.218	62.688	-71.449	-67.432	-66.875	-62.043	115.371	-63.951	-8191	255	
2166.560	1	1	0	0	0.27114	0.21559	0.26464	0.16536	0.13428	0.052294	0.11425	0.12968	0.049985	0.099776	0.10322	0.14788	0.2686	0.25846	0.088987	0.090545	-3.1417	-2.9979	-3.525	-3.2708	-3.3083	-3.7188	-3.3167	-3.6667	-3.5833	-3.3396	-3.8333	-3.6104	-3.1312	-3.6771	-3.3458	-3.2854	222.744	-44.266	137.594	-0.409	122.279	81.062	142.571	140.512	81.247	-44.101	-50.166	162.020	254.816	259.204	-24.617	151.764	0.00032286	0.00046039	6.8077e-05	591.91	3.5159e-06	3.1203e-06	745.7	193.31	1.2546e-06	4.1582e-06	314.77	130.01	74.641	36.334	4.091e-06	71.178	0.00061216	0.00056547	0.00017005	563.2	6.3307e-06	5.9326e-06	697.16	185.37	6.5641e-06	6.2514e-06	295.93	122.87	72.391	34.298	8.2989e-06	66.551	134.444	157.560	212.701	-76.667	111.654	105.204	-76.438	-70.901	264.058	106.482	-71.699	-67.661	-66.503	-62.104	266.005	-63.855	-8191	255	
2166.658	1	1	0	0	0.15149	0.084797	0.13741	0.1037	0.13023	0.12956	0.10812	0.084211	0.15888	0.014814	0.016962	0.068747	0.016649	0.21444	0.0414	0.080318	-3.1063	-3.2854	-3.4875	-3.4375	-3.1583	-3.5792	-3.5	-3.5104	-3.7896	-3.3583	-3.775	-3.7354	-3.3229	-3.7313	-3.4125	-3.3937	-21.755	-20.909	216.799	77.064	172.338	149.036	215.444	157.272	-48.655	107.102	77.841	244.107	-81.835	154.016	125.182	151.141	0.00032834	0.00037607	0.00014743	587.8	7.8823e-06	2.8847e-06	739.19	187.38	8.2906e-06	7.5296e-06	306.74	124.65	71.044	34.266	9.7813e-06	68.683	0.0006986	0.00068598	0.00022497	566.85	8.4005e-06	8.2498e-06	708.99	183.77	8.5331e-06	8.738e-06	295.75	119.29	70.279	32.922	1.1206e-05	64.972	141.854	252.618	222.019	-76.452	-0.125	52.681	-76.348	-70.613	-27.789	178.231	-71.365	-67.293	-66.371	-61.671	-22.177	-63.543	-8191	255	
2166.777	1	1	0	0	0.099719	0.054693	0.13364	0.031928	0.16038	0.032584	0.17774	0.1978	0.13404	0.1789	0.07211	0.19475	0.16006	0.050154	0.1368	0.17213	-3.0917	-3.1083	-3.4562	-3.4792	-3.1771	-3.5021	-3.475	-3.3354	-3.6688	-3.3083	-3.5375	-3.6042	-3.1604	-3.5687	-3.5146	-3.2438	182.831	-88.599	62.203	189.417	183.850	-0.550	-85.948	231.896	141.151	141.351	-51.176	-79.261	249.320	-81.046	44.868	247.267	0.00030437	0.00050039	0.0001593	582.97	5.086e-06	1.0454e-05	746.67	187.68	2.9456e-06	4.6358e-07	307.66	123.97	70.93	33.443	1.7906e-06	67.39	0.00088204	0.00098401	0.000312	574.94	1.0591e-05	1.1205e-05	724.89	186.08	1.0228e-05	1.1308e-05	298.63	119.24	70.351	32.831	1.2368e-05	64.042	139.070	195.206	-41.469	-76.539	29.474	94.171	-76.554	-70.719	56.046	178.163	-71.207	-66.898	-66.003	-61.501	16.423	-63.622	-8191	255	
2166.849	1	1	0	0	0.081493	0.071718	0.2965	0.25215	0.33374	0.15197	0.1264	0.1679	0.22123	0.08869	0.19751	0.23225	0.26349	0.12244	0.28918	0.12995	-3.3646	-3.3625	-3.4354	-3.6583	-3.1417	-3.6188	-3.4833	-3.3312	-3.6792	-3.3833	-3.3646	-3.6542	-3.1813	-3.6312	-3.4083	-3.2438	-84.704	-9.932	-10.471	-30.843	-9.701	10.934	-67.480	146.520	-24.857	143.051	255.566	160.935	94.001	2.610	34.397	196.249	0.00029679	0.00047364	0.00015722	589.7	2.309e-06	8.6808e-06	751.54	188.43	6.1674e-06	1.2935e-05	305.67	122.77	70.28	33.401	6.4329e-06	67.358	0.00097359	0.0011933	0.00034697	586.54	1.2276e-05	1.4445e-05	738.89	190.72	1.2572e-05	1.4906e-05	303.81	120.38	72.093	33.61	1.3995e-05	64.739	154.773	236.862	-49.847	-76.596	237.293	181.411	-76.095	-70.721	30.306	174.978	-71.400	-67.050	-66.380	-61.380	68.033	-63.568	-8191	255	
2166.945	1	1	0	0	0.22119	0.18602	0.3023	0.093095	0.24715	0.17941	0.04537	0.17094	0.10768	0.069571	0.30894	0.22111	0.044781	0.21254	0.17666	0.43904	-3.2146	-3.2729	-3.2396	-3.6958	-3.3104	-3.4646	-3.5812	-3.1063	-3.5083	-3.4917	-3.3667	-3.7792	-3.2229	-3.5458	-3.5021	-3.3104	104.654	86.600	100.222	96.001	40.708	97.937	178.332	176.833	195.646	-78.119	240.872	258.630	32.228	-81.550	264.379	251.228	0.00027249	0.00077091	0.00030906	590.65	6.2657e-06	5.5492e-06	752.57	187.92	3.3702e-06	3.7547e-06	305.34	122.26	69.207	32.784	6.1747e-06	66.179	0.0011411	0.0014102	0.00037295	591.41	1.3783e-05	1.6388e-05	741.66	192.38	1.477e-05	1.7206e-05	306.13	121.57	74.411	33.977	1.743e-05	64.574	166.726	-47.257	-9.663	-76.247	112.038	118.557	-76.352	-70.716	113.269	104.817	-71.010	-67.312	-66.526	-61.009	104.459	-63.304	-8191	255	
2167.065	1	1	0	0	0.035649	0.18141	0.09324	0.17355	0.11743	0.083134	0.2208	0.076029	0.12987	0.18154	0.29853	0.18996	0.10875	0.15414	0.1661	0.14446	-3.2083	-3.2812	-3.0792	-3.9562	-3.3625	-3.4646	-3.5521	-3.1333	-3.8333	-3.3208	-3.2438	-3.7188	-3.3292	-3.6229	-3.5208	-3.2896	39.937	42.516	22.895	261.119	110.882	199.689	265.160	209.581	70.582	-4.901	-64.383	44.754	181.866	41.268	166.304	119.346	0.00044064	0.0013684	0.00010862	580.24	9.9408e-06	7.2694e-06	736.83	186.11	1.3996e-05	2.2309e-05	300.14	121.45	68.966	32.511	4.2131e-06	65.194	0.0016137	0.0018938	0.00049167	601.96	2.0713e-05	2.2188e-05	752.51	197.81	2.1289e-05	2.1945e-05	311.48	123.72	78.013	34.405	2.0458e-05	65.102	170.477	-19.271	-5.910	-76.665	176.906	3.243	-76.475	-70.956	174.107	71.213	-71.384	-67.129	-66.504	-61.477	-15.163	-63.288	-8191	255	
2167.162	1	1	0	0	0.094105	0.23706	0.12325	0.1347	0.15799	0.22519	0.27386	0.25142	0.21848	0.1771	0.36576	0.069551	0.098176	0.087693	0.22435	0.24288	-3.2229	-3.3083	-3.2188	-3.7562	-3.2438	-3.2938	-3.5333	-3.2854	-3.5375	-3.6521	-3.2708	-3.6188	-3.3792	-3.3063	-3.5083	-3.1917	180.362	-8.183	45.041	-14.178	159.113	118.428	261.501	218.389	-68.740	-37.520	247.692	139.560	222.840	-5.857	14.718	248.708	0.00066048	0.0014511	0.00014807	573.47	1.0648e-05	6.8925e-06	728.64	183.57	2.6394e-06	8.1462e-06	300.97	119.22	68.128	32.051	6.295e-06	64.549	0.0020051	0.0020204	0.00052034	604.37	2.2638e-05	2.1468e-05	744.46	197.91	2.2271e-05	2.1193e-05	309.57	123.19	77.898	34.003	2.026e-05	64.807	97.307	-25.234	40.890	-76.732	255.340	4.045	-76.338	-70.693	262.604	18.014	-71.153	-67.275	-66.735	-61.288	197.604	-63.485	-8191	255	
2167.258	1	1	0	0	0.3032	0.25613	0.20049	0.14907	0.21794	0.15998	0.091376	0.12246	0.20314	0.045282	0.034369	0.22396	0.21763	0.17185	0.29414	0.34834	-3.0938	-3.5292	-3.2896	-3.8604	-3.5375	-3.3583	-3.9625	-3.5312	-3.7271	-3.6562	-3.2625	-3.6	-3.3708	-3.3292	-3.4979	-3.3667	48.989	-21.073	-14.107	128.054	36.357	108.966	-55.487	202.427	-61.684	233.619	247.572	241.030	-63.195	-66.738	-63.182	117.069	0.00025156	0.0015861	0.00023626	569.32	2.2604e-06	1.4045e-05	724.15	183.63	3.9892e-06	1.3051e-05	298.01	117.26	67.335	31.5	6.8744e-06	63.764	0.0021123	0.0020159	0.00052764	610.33	2.3916e-05	2.2267e-05	744.25	201.38	2.4126e-05	2.1878e-05	308.67	123.99	77.742	33.642	2.0416e-05	65.143	108.400	10.147	-10.595	-76.486	52.780	-86.698	-76.324	-70.777	-49.560	5.826	-71.473	-67.098	-66.157	-61.358	-49.260	-63.037	-8191	255	
2167.378	1	1	0	0	0.15078	0.045488	0.14222	0.11216	0.0267	0.07654	0.20808	0.13972	0.12449	0.043808	0.15567	0.077178	0.21553	0.22669	0.19181	0.010186	-3.0771	-3.3604	-3.2292	-3.6417	-3.4979	-3.2875	-3.6729	-3.4542	-3.3438	-3.6396	-3.3271	-3.7583	-3.6083	-3.1021	-3.6542	-3.5187	129.179	19.538	22.806	-72.303	52.027	-83.672	152.086	86.255	62.941	-30.995	134.193	154.661	190.448	-82.743	235.658	-84.338	0.00049561	0.0013195	0.00035206	566.81	7.4045e-06	4.9897e-06	726.94	181.68	1.6351e-05	7.4488e-06	294.15	117.66	68.263	31.39	8.894e-06	63.227	0.0021473	0.0020466	0.00054036	622.27	2.4128e-05	2.2416e-05	748.49	203.92	2.3897e-05	2.1957e-05	309.58	125.86	77.798	33.43	2.1771e-05	65.506	79.590	46.203	157.525	-76.672	13.692	93.829	-76.398	-70.686	1.707	150.873	-71.057	-66.814	-66.515	-61.094	140.827	-63.371	-8191	255	
2167.450	1	1	0	0	0.12761	0.27871	0.057441	0.042131	0.1313	0.14809	0.22349	0.19199	0.047189	0.34455	0.061163	0.091677	0.14137	0.19476	0.076429	0.059413	-2.8583	-3.6208	-3.2938	-3.4	-3.3917	-3.0812	-3.6625	-3.4292	-3.4792	-3.6292	-3.3	-3.6042	-3.5729	-3.3	-3.5104	-3.5146	64.539	125.892	112.319	254.737	185.562	197.198	206.703	-62.872	-39.249	-68.485	194.196	119.354	-55.070	-4.441	-88.010	266.025	8.1218e-05	0.00088679	0.00033235	569.02	9.9876e-06	9.8979e-06	725.79	180.95	2.3038e-05	1.1514e-05	296.23	115.47	66.11	30.821	4.594e-06	62.382	0.0021659	0.0020874	0.00059353	634.92	2.5267e-05	2.3912e-05	765.4	210.38	2.6279e-05	2.4491e-05	320.9	129.05	79.64	33.915	2.9098e-05	66.639	67.104	9.927	95.400	-76.734	265.310	44.227	-76.466	-70.677	27.764	118.383	-71.451	-67.350	-66.278	-61.273	235.414	-63.029	-8191	255	
2167.546	1	1	0	0	0.097719	0.15916	0.15603	0.025959	0.22418	0.10293	0.16394	0.32839	0.19008	0.29227	0.1404	0.10376	0.062871	0.19757	0.12598	0.20628	-2.9896	-3.625	-3.2375	-3.5896	-3.6417	-3.1813	-3.6229	-3.4542	-3.1896	-3.7104	-3.2917	-3.4854	-3.3563	-3.1667	-3.8187	-3.5187	111.842	84.390	142.759	-82.088	128.426	40.676	230.791	177.528	263.005	49.554	250.317	228.726	95.369	256.403	-56.908	228.763	0.00029322	0.00063091	0.00030337	569.78	5.3504e-06	7.0911e-06	727.74	179.89	1.3616e-05	1.1001e-05	293.14	114.8	65.85	29.659	1.3652e-05	60.812	0.0026467	0.0026041	0.00083765	676.64	3.2633e-05	3.1509e-05	819.05	225.85	3.4117e-05	3.2486e-05	344.9	134.45	84.699	34.967	4.0478e-05	68.466	145.697	23.355	75.468	-76.761	66.152	-20.536	-76.585	-70.779	-1.314	206.301	-70.988	-66.992	-66.857	-61.488	257.559	-63.139	-8191	255	
2167.641	1	1	0	0	0.16045	0.18956	0.069794	0.17944	0.21019	0.090118	0.098011	0.30777	0.17019	0.19742	0.088878	0.29429	0.25302	0.25696	0.13803	0.20136	-2.6604	-3.4521	-3.2146	-3.5833	-3.5604	-3.2833	-3.5146	-3.3625	-3.1979	-3.75	-3.4688	-3.3146	-3.3583	-3.1833	-3.4375	-3.7104	8.520	170.267	41.220	250.882	-44.055	48.646	-59.751	224.653	246.188	259.958	124.673	-66.003	265.865	257.243	156.652	131.597	0.00011293	0.0017764	0.00052357	587.69	2.3288e-05	2.5713e-05	736.65	181.7	6.1406e-06	2.1048e-05	299.14	115.58	67.771	29.592	1.2117e-05	60.966	0.0034165	0.003506	0.0011859	733.9	4.2496e-05	4.3159e-05	895.68	246.89	4.5364e-05	4.5546e-05	381.11	144.29	93.651	38.162	5.4864e-05	71.494	222.331	139.198	86.461	-76.754	90.899	186.685	-76.648	-70.780	-38.749	-85.140	-71.177	-66.917	-66.511	-60.716	-3.257	-62.993	-8191	255	
2167.761	1	1	0	0	0.30791	0.1259	0.33991	0.027452	0.10204	0.035724	0.15586	0.2642	0.11991	0.093752	0.13984	0.09584	0.26187	0.10538	0.12103	0.20455	-2.9729	-3.55	-3.4042	-3.375	-3.7104	-3.3792	-3.7229	-3.5042	-3.2292	-3.6229	-3.3708	-3.3917	-3.7062	-3.3208	-3.3708	-3.5729	235.300	133.149	163.224	71.987	49.288	87.877	30.210	163.036	173.673	185.305	241.476	216.332	-23.276	48.701	-52.215	187.206	7.2205e-05	0.0031679	0.00031185	597.88	1.5947e-05	1.407e-05	753.82	186.66	1.7574e-05	1.9436e-05	302	116.89	69.294	29.339	1.7896e-05	60.395	0.0041322	0.0045154	0.0014522	780.48	4.9153e-05	5.5129e-05	957.66	261.3	5.2435e-05	5.8445e-05	404.61	151.39	99.877	41.15	6.1982e-05	73.03	201.813	106.875	53.014	-76.916	-4.953	191.404	-76.463	-71.234	-13.135	199.244	-71.379	-66.922	-66.687	-61.094	63.734	-62.970	-8191	255	
2167.856	1	1	0	0	0.038099	0.21032	0.1087	0.048616	0.21406	0.12006	0.13357	0.14986	0.19977	0.14876	0.17473	0.17664	0.18825	0.3303	0.25653	0.092563	-2.8125	-3.6042	-3.2625	-3.35	-3.6854	-3.3458	-3.3417	-3.4417	-3.175	-3.4542	-3.5542	-3.0938	-3.6896	-3.3292	-3.325	-3.8979	194.190	22.132	71.757	198.243	-44.101	72.845	137.496	259.325	23.285	-80.847	268.373	122.404	83.870	261.624	244.898	139.950	0.00052372	0.0023711	0.00094927	607.07	1.1411e-05	1.4885e-05	758.44	187.79	1.3135e-05	2.2408e-05	304.08	116.89	68.619	29.163	2.1532e-05	59.75	0.0045956	0.0055477	0.0015803	809.92	5.3538e-05	6.3915e-05	974.57	267.37	5.6446e-05	6.6401e-05	411.2	154.39	104.43	43.286	6.6337e-05	74.373	157.362	136.939	-35.350	-76.826	163.197	143.771	-76.720	-70.750	252.378	182.895	-71.188	-67.331	-66.634	-61.016	39.125	-63.041	-8191	255	
2167.952	1	1	0	0	0.12708	0.31975	0.24176	0.43498	0.28424	0.080858	0.10411	0.070843	0.11391	0.25272	0.063662	0.089164	0.16162	0.087228	0.14024	0.23488	-2.7562	-3.6792	-3.5729	-3.4083	-3.9917	-3.5563	-3.5563	-3.7167	-3.3104	-3.6063	-3.5354	-3.2792	-3.6146	-3.4625	-3.2521	-3.775	-54.169	79.018	215.733	213.833	102.506	80.458	-79.585	-77.115	204.665	14.397	-80.915	57.100	-10.447	-57.912	190.083	226.258	0.00089938	0.0012812	0.001028	618.74	2.5919e-05	1.4553e-05	763.7	188.24	3.089e-05	2.0816e-05	301.84	115.83	68.973	28.995	9.8352e-06	58.847	0.0053706	0.0065657	0.0017027	844.11	6.2855e-05	7.3467e-05	995.71	273.86	6.5195e-05	7.4237e-05	415.7	155.74	110.21	43.785	6.6264e-05	73.19	124.531	207.239	-25.512	-76.942	224.801	205.648	-76.996	-71.082	215.173	99.846	-71.285	-67.180	-66.508	-61.283	5.032	-62.898	-8191	255	
2168.050	1	1	0	0	0.22158	0.13546	0.12307	0.15359	0.18279	0.076966	0.10836	0.26943	0.18731	0.10892	0.21666	0.26009	0.13167	0.10279	0.14658	0.1127	-2.9729	-3.3063	-3.4917	-3.2417	-3.6125	-3.375	-3.6292	-3.7896	-3.2458	-3.2938	-3.4583	-3.0563	-3.4292	-3.5104	-3.1708	-3.6188	81.597	226.788	34.563	-2.389	8.091	112.252	-84.289	-75.169	79.280	220.862	-80.724	-33.484	167.585	-5.680	-4.298	91.347	0.00064202	0.0013241	0.00024744	617.97	3.2192e-05	3.7696e-05	764.88	188.89	2.9535e-05	2.917e-05	305.56	115.6	68.86	28.775	1.5764e-05	57.884	0.0058929	0.0066592	0.0016616	838.45	6.79e-05	7.2184e-05	984.03	272.73	7.0433e-05	7.2632e-05	412.38	154.26	114.11	42.935	6.5238e-05	72.983	94.836	257.780	9.541	-77.394	220.119	25.680	-76.735	-71.050	193.135	13.790	-71.503	-67.018	-66.380	-61.308	9.231	-62.932	-8191	255	
2168.144	1	1	0	0	0.2595	0.26547	0.18129	0.31565	0.013363	0.23978	0.082679	0.19489	0.16005	0.17849	0.1721	0.19885	0.19477	0.17917	0.25072	0.10277	-2.8854	-3.3083	-3.5938	-3.1146	-3.5625	-3.4792	-3.3312	-3.4896	-3.4562	-3.4208	-3.8	-3.1604	-3.5417	-3.2917	-3.1937	-3.7188	222.824	28.603	-66.126	149.490	5.271	73.127	242.848	192.657	116.376	-56.728	266.308	72.891	4.987	110.109	132.139	-55.002	0.00044853	0.00082598	0.00011122	618.27	2.6433e-05	2.8222e-05	760.6	186.22	3.063e-05	3.981e-05	301.8	114.11	69.166	28.204	1.3125e-05	56.956	0.006329	0.0064581	0.0016435	850.42	7.4095e-05	7.0728e-05	985.68	278.17	7.5555e-05	7.1441e-05	411.3	158.35	118.64	42.643	6.7351e-05	74.748	116.631	33.233	-36.583	-76.799	186.600	-27.465	-76.885	-71.405	217.693	-41.388	-71.639	-67.141	-66.437	-61.212	-27.276	-63.087	-8191	255	
2168.240	1	1	0	0	0.21495	0.078488	0.17106	0.17248	0.16504	0.042547	0.11678	0.11227	0.16842	0.23623	0.052765	0.11261	0.10234	0.16503	0.17665	0.11142	-2.9354	-3.2875	-3.6917	-3.1604	-3.4958	-3.7417	-3.3583	-3.7125	-3.3063	-3.2938	-3.5646	-3.3625	-3.5833	-3.5542	-3.1583	-3.6854	183.050	-0.343	-11.339	241.494	28.778	132.107	247.392	229.586	4.589	118.302	69.776	-79.045	-30.556	24.670	120.750	-63.517	2.6603e-05	0.00086451	0.00042074	615.21	2.9167e-05	1.2889e-05	753.86	185.33	3.7535e-05	9.1948e-06	298.24	113.06	68.1	27.724	2.2896e-05	56.56	0.0068705	0.0065491	0.0016719	881.19	7.6072e-05	6.8777e-05	977.96	285.39	7.3637e-05	6.6688e-05	399.78	158.88	113.9	40.92	6.3284e-05	75.487	68.613	150.964	-50.565	-76.495	49.071	81.701	-76.972	-71.599	15.131	146.442	-71.335	-67.116	-67.217	-62.218	45.520	-63.360	-8191	255	
2168.336	1	1	0	0	0.20253	0.18258	0.062372	0.22593	0.16956	0.39175	0.10294	0.071572	0.21863	0.10906	0.10206	0.20596	0.35267	0.26161	0.031002	0.36329	-2.8958	-3.1437	-3.55	-3.2604	-3.4396	-3.5583	-3.3021	-3.55	-3.3979	-3.1292	-3.575	-3.4083	-3.3229	-3.6437	-3.3208	-3.6958	209.305	249.887	35.293	59.655	-45.540	-84.327	93.276	-50.206	245.493	-61.712	-79.760	-87.621	215.120	193.486	74.597	191.055	0.00031336	0.0015755	0.0003504	613.9	2.212e-05	3.0398e-06	762.97	183.79	1.0275e-05	4.2621e-06	297.1	112.95	68.271	27.801	3.7326e-05	56.589	0.0064263	0.0062031	0.0016019	892.31	7.1554e-05	6.4901e-05	966.59	287.75	6.8149e-05	6.3128e-05	396.91	160.21	110.16	39.924	6.3091e-05	75.831	187.063	7.490	119.722	-76.899	18.060	40.441	-77.014	-71.016	8.991	52.545	-71.547	-66.743	-66.616	-61.902	233.789	-63.167	-8191	255	
2168.457	1	1	0	0	0.066764	0.18109	0.13814	0.18759	0.33373	0.022932	0.062739	0.20289	0.15176	0.19119	0.11446	0.221	0.17551	0.12952	0.042441	0.1221	-3.0875	-3.1646	-3.55	-3.525	-3.3292	-3.6479	-3.2375	-3.4792	-3.4354	-3.2562	-3.6146	-3.375	-3.4833	-3.7417	-3.3354	-3.6292	-20.809	40.081	209.634	148.675	-15.937	268.890	-35.990	-42.696	177.581	-25.821	205.863	-67.221	113.982	187.529	211.434	-49.761	8.1313e-05	0.0022243	0.00066035	619.89	2.7957e-05	1.049e-05	766.33	185.44	8.0691e-06	2.9725e-05	299.69	115.12	68.54	28.183	1.2221e-05	57.781	0.005883	0.0057594	0.0015983	888.43	6.535e-05	5.9964e-05	972.7	286.83	6.2271e-05	5.8874e-05	401.65	158.56	106.21	39.105	6.3792e-05	75.291	84.226	19.461	127.093	-76.620	41.703	-16.630	-76.620	-71.646	-43.697	31.574	-71.741	-67.391	-66.263	-61.024	206.139	-63.274	-8191	255	
2168.553	1	1	0	0	0.30022	0.098393	0.23144	0.091389	0.04027	0.11778	0.064398	0.20519	0.038749	0.16619	0.28178	0.2473	0.12773	0.24329	0.1351	0.098482	-3.1396	-3.2229	-3.5396	-3.4167	-3.2833	-3.4479	-3.3771	-3.3833	-3.4417	-3.1396	-3.5542	-3.4854	-3.3479	-3.6042	-3.3354	-3.4604	54.459	155.344	-28.941	125.073	154.809	72.763	253.164	-32.493	140.246	215.917	257.787	-82.065	140.577	-60.846	-42.935	253.044	0.00042834	0.00087804	0.00063228	626.44	2.7228e-05	8.5571e-06	767.07	187.23	1.5053e-05	7.1428e-06	304.56	116.01	68.561	28.539	1.9318e-05	58.696	0.0053918	0.005389	0.0016605	877.68	6.1716e-05	5.6982e-05	989.77	280.9	5.7684e-05	5.5201e-05	406.67	154.57	102.87	38.747	6.3505e-05	73.864	184.434	-63.296	148.055	-76.871	68.988	171.001	-76.528	-71.184	84.437	166.213	-71.345	-67.274	-66.591	-61.329	242.213	-63.066	-8191	255	
2168.649	1	1	0	0	0.1383	0.12511	0.13411	0.29106	0.21187	0.14131	0.2546	0.18802	0.045812	0.17283	0.17428	0.12572	0.23093	0.15572	0.10017	0.12718	-3.3792	-3.2146	-3.6667	-3.8333	-3.3563	-3.6437	-3.325	-3.5083	-3.525	-3.1958	-3.575	-3.7958	-3.3125	-3.5979	-3.4354	-3.475	114.813	189.877	60.228	-84.486	151.129	239.791	234.282	192.313	-44.773	44.871	55.990	228.105	219.328	-48.929	-27.776	128.452	0.00033039	0.001487	0.00018041	633.12	2.0405e-05	3.0579e-05	775.78	192.65	9.5934e-06	1.6538e-05	305.76	116.48	69.155	28.901	6.4096e-06	59.218	0.0049691	0.0052209	0.0017062	861.37	5.9925e-05	5.8728e-05	1008.9	278.73	5.6787e-05	5.8102e-05	415.65	152.13	101.23	39.318	6.1858e-05	72.368	169.464	110.041	155.875	-77.559	-0.875	187.894	-76.569	-70.692	228.918	3.188	-71.163	-67.114	-66.799	-61.301	-80.490	-62.985	-8191	255	
2168.745	1	1	0	0	0.068203	0.13634	0.16446	0.12735	0.19019	0.066046	0.28086	0.062877	0.099701	0.1314	0.098268	0.40283	0.070642	0.15881	0.096384	0.2028	-3.1063	-3.1063	-3.4437	-3.7687	-3.3292	-3.6271	-3.4667	-3.2687	-3.5104	-3.1167	-3.4458	-3.6167	-3.2812	-3.4792	-3.2833	-3.3563	263.561	-44.457	-34.219	35.943	84.102	-65.335	223.399	77.151	75.682	67.050	152.749	197.279	229.979	231.209	33.978	-81.834	0.00047924	0.0029075	0.00038988	625.11	1.8337e-05	2.9482e-05	765.84	189.31	3.126e-06	4.3302e-05	303.41	115.06	68.428	28.655	1.728e-05	58.287	0.0044934	0.0051373	0.0015898	819.57	5.2785e-05	5.7445e-05	975.68	265.5	5.1476e-05	5.8553e-05	402.28	146.96	98.023	39.578	5.7387e-05	70.016	177.393	170.779	-5.313	-76.968	56.183	188.113	-76.390	-71.268	122.742	219.715	-71.052	-67.242	-66.770	-60.877	62.205	-63.240	-8191	255	
2168.842	1	1	0	0	0.21588	0.058731	0.23674	0.071003	0.12913	0.20464	0.1799	0.055525	0.075576	0.027408	0.11165	0.25111	0.12753	0.18815	0.13766	0.065	-3.1562	-3.1708	-3.2021	-3.5312	-3.1708	-3.5083	-3.6479	-3.2062	-3.7188	-3.3625	-3.2479	-3.5708	-3.2667	-3.6292	-3.4833	-3.3375	119.240	193.068	-84.914	26.218	139.375	9.829	224.361	225.027	200.553	-71.638	-76.898	168.031	169.499	262.409	66.738	13.920	0.00030541	0.0036402	0.0010654	618.17	7.7202e-06	2.0744e-05	769.33	189.96	1.5566e-05	6.3727e-06	302.35	114.18	68.126	28.685	1.4589e-05	58.13	0.0042224	0.0051927	0.0014494	790.09	4.9354e-05	5.7847e-05	945.39	256.85	4.8878e-05	5.7945e-05	387.23	142.23	96.179	39.207	5.0736e-05	68.352	153.239	79.449	-15.384	-77.084	89.292	206.458	-76.584	-71.197	188.195	-6.802	-71.273	-67.113	-66.564	-60.722	81.846	-63.219	-8191	255	
2168.938	1	1	0	0	0.19484	0.14319	0.22661	0.19733	0.22724	0.073419	0.091529	0.26457	0.11678	0.064599	0.14448	0.16686	0.064821	0.0015544	0.10297	0.12534	-3.1125	-3.3	-3.3396	-3.7729	-3.3063	-3.3354	-3.4938	-3.1583	-3.6708	-3.45	-3.3563	-3.7146	-3.2542	-3.3229	-3.2625	-3.2562	-84.697	218.618	-9.296	197.617	4.270	185.891	154.675	202.343	-31.760	140.170	116.681	234.836	155.041	180.000	-3.945	204.278	0.0002169	0.0012524	0.0003483	617.46	3.49e-05	3.5473e-05	766.37	185.94	2.7175e-05	2.5006e-05	300.92	114.48	67.616	28.791	1.2507e-05	57.699	0.0040321	0.0049113	0.0012598	761.77	4.7477e-05	5.4492e-05	908.34	247.35	4.8998e-05	5.6094e-05	379.08	140.55	98.294	39.397	5.0436e-05	68.1	155.838	221.383	251.419	-77.025	238.535	69.712	-76.815	-70.898	170.869	79.671	-71.999	-67.123	-66.826	-61.162	-19.101	-63.216	-8191	255	
2169.057	1	1	0	0	0.11643	0.090786	0.29354	0.1509	0.066622	0.15158	0.10011	0.3152	0.24443	0.19235	0.15471	0.062017	0.13947	0.14228	0.11259	0.22906	-3.3583	-3.2	-3.375	-3.6979	-3.2125	-3.3208	-3.5542	-3.1667	-3.5354	-3.4354	-3.2583	-3.8917	-3.4104	-3.3167	-3.5083	-3.3542	-78.302	-23.855	170.030	-78.815	42.065	255.059	114.804	210.134	69.594	90.353	218.081	-65.489	-46.542	0.160	-21.106	-62.546	0.00085316	0.0035384	0.00045574	605.13	3.0623e-05	7.9774e-06	750.17	184.57	1.459e-05	5.1478e-05	297.12	112.21	65.56	28.171	1.3334e-05	57.717	0.0046164	0.0051565	0.0013134	765.44	5.4084e-05	5.6428e-05	909.77	248.51	5.5302e-05	5.6205e-05	376.85	140.26	101.06	38.694	5.0788e-05	68.203	108.933	-17.580	37.006	-77.091	209.094	104.715	-76.778	-71.138	244.964	41.991	-71.297	-67.363	-66.482	-61.599	-40.545	-63.094	-8191	255	
2169.153	1	1	0	0	0.41761	0.26347	0.34432	0.18976	0.055024	0.025721	0.4316	0.10432	0.024307	0.10097	0.17493	0.013169	0.16094	0.10029	0.17909	0.098443	-3.0292	-3.3521	-3.3125	-3.5229	-3.2771	-3.4229	-3.7812	-3.1583	-3.4646	-3.2812	-3.2625	-3.6354	-3.1979	-3.3271	-3.625	-3.3417	238.911	-79.943	202.648	222.534	167.039	135.287	259.496	227.523	138.090	122.447	199.764	-31.527	224.346	-15.909	2.819	255.746	0.00031984	0.0018161	0.00019331	600.64	1.5328e-05	9.883e-06	745.83	182.96	2.2989e-05	1.94e-05	296.12	110.46	65.759	27.754	1.5107e-05	56.509	0.0049965	0.0049959	0.0012897	767.38	5.6348e-05	5.338e-05	894.9	248.13	5.6675e-05	5.2446e-05	369.53	140	100.4	37.549	4.7953e-05	68.356	142.353	31.486	32.533	-76.493	218.516	105.434	-76.638	-71.487	116.423	12.094	-70.949	-67.433	-66.891	-61.178	-25.632	-62.965	-8191	255	
2169.249	1	1	0	0	0.094032	0.23904	0.21485	0.19924	0.12698	0.080665	0.18676	0.1238	0.039668	0.20382	0.14875	0.23554	0.1258	0.22612	0.13756	0.17675	-3.2042	-3.4604	-3.2417	-3.5375	-3.4062	-3.4146	-3.7125	-3.2625	-3.4813	-3.475	-3.2604	-3.6896	-3.3438	-3.2958	-3.7333	-3.2396	244.382	194.484	17.688	201.434	138.849	0.224	172.828	-58.611	50.466	68.006	248.542	-65.255	163.164	91.227	251.621	-68.986	5.7337e-05	0.00094559	0.00082359	594.35	5.7914e-06	5.5389e-06	748.12	179.57	2.4214e-05	3.0321e-05	293.43	109.31	65.431	27.708	1.393e-05	57.106	0.0049534	0.0046482	0.0012138	771.02	5.4322e-05	4.9674e-05	876.7	248.57	5.304e-05	4.7868e-05	359.73	140.94	96.328	36.55	4.4116e-05	69.02	243.340	21.155	-41.398	-77.029	-87.989	47.125	-76.512	-71.243	8.324	43.289	-71.429	-66.781	-66.833	-61.363	56.849	-62.941	-8191	255	
2169.345	1	1	0	0	0.17021	0.28197	0.11843	0.051987	0.17633	0.062578	0.31222	0.155	0.21692	0.11818	0.0806	0.29003	0.093981	0.045995	0.17378	0.3533	-3.1	-3.5833	-3.2042	-3.6417	-3.5083	-3.2313	-3.8979	-3.2333	-3.5375	-3.55	-3.2625	-3.4875	-3.4688	-3.325	-3.4604	-3.3125	232.110	146.072	265.181	-80.684	63.450	132.285	230.231	154.878	237.449	264.735	-31.003	264.623	66.374	229.334	-36.852	241.868	0.00034442	0.0016806	0.00046429	592.71	1.5061e-05	1.6747e-05	742.37	178.55	1.4445e-05	3.1024e-05	290.27	110.6	65.08	27.471	2.0009e-05	56.603	0.0045251	0.004312	0.0011571	776.11	5.01e-05	4.6439e-05	865.64	249.13	4.8933e-05	4.4841e-05	356.46	141.33	93.08	35.766	4.455e-05	68.955	168.074	-39.570	125.102	-76.920	11.444	3.886	-76.559	-70.686	17.232	61.641	-71.615	-67.147	-66.059	-61.382	185.434	-63.071	-8191	255	
2169.441	1	1	0	0	0.081914	0.097292	0.30395	0.10119	0.077295	0.17911	0.11136	0.067954	0.18445	0.082033	0.043358	0.11445	0.28228	0.10012	0.18119	0.070559	-3.1021	-3.5542	-3.3563	-3.4979	-3.3917	-3.2875	-3.5333	-3.2438	-3.1042	-3.6479	-3.1792	-3.7708	-3.45	-3.1208	-3.675	-3.5292	-74.775	-24.151	-58.129	89.688	43.395	-61.667	228.058	-39.880	34.684	99.056	35.593	263.295	-71.247	248.774	158.748	226.569	0.00025421	0.00033911	0.00038591	593.51	7.0425e-06	1.6363e-05	734.99	179.59	2.4339e-05	1.0275e-05	290.19	110.23	64.274	27.523	2.328e-05	57.254	0.0042329	0.0040624	0.0011903	777.83	4.7297e-05	4.4996e-05	873.78	247.89	4.5635e-05	4.162e-05	356.95	138.61	88.774	34.566	4.4277e-05	67.229	196.911	132.932	257.392	-77.090	23.750	225.447	-76.967	-71.060	61.072	0.515	-71.854	-67.288	-66.361	-61.119	176.333	-63.150	-8191	255	
2169.537	1	1	0	0	0.38227	0.076293	0.099406	0.06838	0.11651	0.27484	0.27047	0.10209	0.082192	0.26101	0.11066	0.090297	0.10519	0.093472	0.13535	0.10588	-2.8833	-3.7208	-3.0729	-3.5521	-3.6479	-3.2083	-3.75	-3.4479	-3.2771	-3.8312	-3.3688	-3.2125	-3.7188	-3.1583	-3.4479	-3.4938	129.260	167.965	-65.178	239.450	-0.243	98.283	140.556	183.910	25.877	66.537	170.326	217.735	125.958	-76.725	202.559	220.003	2.7014e-05	0.0022474	0.00064764	593.29	3.7867e-06	5.371e-06	736.11	178.07	1.1884e-05	1.122e-05	288.03	110.18	64.345	27.568	1.1724e-05	57.263	0.0037605	0.0036354	0.0011635	746.38	4.1574e-05	3.9744e-05	865.97	234.9	4.0082e-05	3.7335e-05	350.93	132.96	84.447	33.465	4.1608e-05	64.609	167.007	102.375	149.526	-77.202	69.184	-2.496	-76.880	-71.063	-4.674	-3.913	-71.568	-67.378	-66.729	-61.306	158.795	-63.147	-8191	255	
2169.634	1	1	0	0	0.027911	0.054592	0.25011	0.31097	0.22816	0.30929	0.11617	0.14385	0.19059	0.094873	0.31813	0.26008	0.21789	0.10957	0.12379	0.33194	-2.8104	-3.4771	-3.1854	-3.5396	-3.5062	-3.0979	-3.5417	-3.4813	-3.1063	-3.7438	-3.425	-3.3896	-3.5646	-3.1875	-3.4104	-3.4375	-33.250	-15.971	228.642	178.397	-10.713	65.329	244.520	26.143	-12.334	-74.216	161.403	-61.155	-56.558	-11.335	41.646	188.533	0.00071239	0.0012123	0.00059294	588.91	1.216e-05	1.368e-05	728.24	178.27	7.0864e-06	7.0925e-06	289.04	110.15	63.296	27.539	1.6593e-05	57.209	0.0032273	0.00326	0.0010783	711.06	3.6071e-05	3.7496e-05	854.32	226.11	3.6964e-05	3.7689e-05	350.94	130.83	82.862	34.092	4.3088e-05	64.443	177.084	103.101	87.158	-76.631	0.274	223.714	-76.928	-70.939	-66.913	-68.148	-71.397	-67.467	-66.648	-61.408	219.352	-63.235	-8191	255	
2169.730	1	1	0	0	0.22084	0.20958	0.3425	0.3158	0.20271	0.22898	0.050669	0.074143	0.043218	0.02969	0.16702	0.34323	0.11542	0.12309	0.032404	0.12217	-2.825	-3.3792	-3.1646	-2.9021	-3.8042	-2.9458	-3.5896	-3.4625	-3.1437	-3.3479	-3.4479	-3.2208	-3.6521	-3.2583	-3.6167	-3.6875	45.190	269.526	-68.535	199.125	216.875	199.410	57.809	34.785	-76.026	200.670	117.873	200.819	233.462	248.157	38.880	-52.168	0.0002423	0.0026372	0.00041524	586.05	1.1063e-05	2.8749e-05	736	177.62	1.2039e-05	1.2027e-05	291.05	110.02	63.529	27.298	3.5605e-06	57.437	0.0032075	0.0036186	0.0011194	713.84	3.7127e-05	4.2723e-05	869.05	228.76	3.8555e-05	4.3492e-05	357.72	132.52	84.874	35.504	4.4734e-05	65.217	-15.950	116.337	44.756	-77.106	-20.805	205.457	-76.309	-70.962	264.049	174.392	-71.355	-67.005	-66.560	-61.053	217.018	-62.578	-8191	255	
2169.849	1	1	0	0	0.19544	0.063188	0.19732	0.28709	0.25739	0.16353	0.13302	0.27557	0.26314	0.22549	0.15644	0.10219	0.13219	0.025329	0.14528	0.19181	-2.7271	-3.4396	-3.275	-3.4167	-3.4146	-3.3396	-3.375	-3.6854	-3.1688	-3.6417	-3.5292	-3.3979	-3.5875	-3.3208	-3.325	-3.7125	9.930	34.470	-8.042	50.683	-65.430	248.090	149.243	186.219	246.835	-6.053	75.818	69.176	141.900	233.933	82.486	201.623	0.0002361	0.0032458	0.00051457	591.25	8.0028e-06	2.1981e-05	745.54	178.9	1.6538e-05	7.2824e-06	294.05	111.75	63.573	27.691	9.7054e-06	58.472	0.0034039	0.0041011	0.0011308	720.05	3.8826e-05	4.6342e-05	870.52	228.44	3.9684e-05	4.6219e-05	353.88	132.33	85.733	35.99	4.2062e-05	65.085	175.875	123.785	-23.611	-76.915	226.739	191.081	-76.317	-70.916	219.016	71.954	-71.423	-67.050	-66.560	-61.033	108.869	-62.948	-8191	255	
2169.945	1	1	0	0	0.013021	0.04499	0.10686	0.13326	0.17466	0.13079	0.27487	0.33761	0.2186	0.11255	0.13667	0.25637	0.072271	0.11308	0.14407	0.099439	-2.8667	-3.3	-3.4437	-3.2396	-3.6042	-3.4271	-3.4375	-3.55	-3.0917	-3.6292	-3.5792	-3.3604	-3.7625	-3.3667	-3.3625	-3.6667	170.080	166.921	32.116	262.046	267.081	80.762	191.936	130.838	-65.554	-9.720	260.307	263.822	-42.149	149.654	266.227	132.240	0.00055876	0.0023059	0.00081626	597.46	2.2719e-05	1.7164e-05	752.84	180.85	1.9195e-05	2.3298e-05	294.65	112.23	64.268	28.172	6.5408e-06	58.483	0.0034673	0.0041196	0.0010317	712.2	3.8489e-05	4.3406e-05	851.35	223.1	3.8504e-05	4.2167e-05	345.08	129.63	86.287	35.579	3.8068e-05	64.394	106.320	0.538	-21.642	-76.800	210.326	162.072	-76.480	-71.069	216.927	73.364	-71.259	-66.841	-66.421	-61.095	45.449	-62.823	-8191	255	
2170.018	1	1	0	0	0.3648	0.15975	0.34425	0.1588	0.022906	0.2899	0.0628	0.090354	0.21518	0.063747	0.1198	0.083989	0.22937	0.41637	0.077559	0.12469	-2.7292	-3.3688	-3.4396	-3.1958	-3.4417	-3.5479	-3.5	-3.7938	-3.4437	-3.45	-3.6979	-3.3792	-3.7521	-3.5021	-3.35	-3.9458	255.061	184.377	107.936	234.849	170.706	227.449	-34.888	-40.920	23.986	-18.790	-55.493	186.390	234.979	267.056	1.670	200.390	0.0006406	0.0022041	0.00094675	609.16	2.1238e-05	2.8404e-05	754.5	182.79	1.8661e-05	3.9507e-06	295.23	112.12	65.287	28.406	1.8203e-05	58.798	0.0035336	0.0038392	0.00097248	712.36	4.1802e-05	4.3023e-05	861.51	227.64	4.4192e-05	4.3703e-05	348.92	131.58	90.077	35.393	3.7892e-05	64.91	132.077	1.484	46.779	-77.212	147.837	30.720	-76.825	-70.821	163.543	217.602	-71.396	-66.633	-66.104	-61.246	9.533	-62.948	-8191	255	
2170.137	1	1	0	0	0.052558	0.11627	0.074209	0.081787	0.14396	0.14246	0.18891	0.16703	0.12179	0.14021	0.15544	0.22038	0.02739	0.20839	0.074512	0.19842	-2.9354	-3.3625	-3.3167	-3.2208	-3.375	-3.5021	-3.2771	-3.4854	-3.225	-3.2313	-3.6958	-3.0833	-3.4625	-3.4167	-3.1146	-3.6792	65.876	-72.619	73.752	198.807	-13.117	-28.411	0.188	222.570	84.369	226.184	155.360	216.722	-68.238	-65.142	-46.875	233.481	0.00032339	0.00060291	0.00026652	607.81	9.8696e-06	7.4468e-06	758.77	182.44	7.0924e-06	1.4465e-05	298.33	112.82	65.711	28.414	1.0131e-05	59.183	0.0036726	0.003647	0.0009242	714.26	4.2164e-05	3.9022e-05	848.29	227.9	4.2381e-05	3.9199e-05	344.06	132.41	89.312	34.871	3.5535e-05	66.042	132.497	-57.849	-8.067	-76.927	103.307	95.209	-76.676	-70.910	105.477	-7.121	-71.491	-66.953	-65.905	-61.134	83.203	-62.703	-8191	255	
2170.233	1	1	0	0	0.096529	0.06386	0.089009	0.28972	0.20259	0.023938	0.35517	0.14203	0.13438	0.12937	0.16144	0.096355	0.32739	0.22471	0.1444	0.024554	-2.9021	-3.25	-3.7958	-3.2625	-3.5438	-3.4542	-3.1042	-3.5396	-3.6292	-3.1833	-3.9083	-3.375	-3.4062	-3.75	-3.1437	-3.7208	269.888	27.858	261.276	153.243	188.381	126.022	222.965	-10.484	-85.480	5.514	-56.211	260.471	219.918	110.780	254.005	-69.073	0.00039444	0.00069883	0.00029491	609.04	1.1839e-05	9.9788e-06	761.18	183.78	8.7435e-06	1.0199e-05	299.35	111.82	64.906	28.305	1.2233e-05	58.874	0.0036476	0.0035163	0.00090303	731.25	4.2259e-05	3.8661e-05	852.28	236.39	4.372e-05	4.0834e-05	348.2	136.93	90.141	34.909	3.7083e-05	67.245	229.085	217.107	-15.097	-76.936	86.203	129.013	-76.679	-71.312	1.369	76.532	-71.285	-66.513	-66.617	-61.318	234.113	-62.499	-8191	255	
2170.329	1	1	0	0	0.31094	0.046992	0.14211	0.18868	0.28639	0.30242	0.13746	0.091665	0.088086	0.35095	0.20579	0.23345	0.08158	0.28359	0.13918	0.18194	-3.1042	-3.2333	-3.5646	-3.3063	-3.4917	-3.5187	-3.3937	-3.3688	-3.5271	-3	-3.4292	-3.4104	-3.3833	-3.4562	-3.1688	-3.6083	156.479	132.189	41.235	73.285	-31.111	-43.891	-37.165	-22.268	253.628	237.804	155.769	174.075	-19.878	253.937	177.532	191.080	0.0002851	0.0034638	0.00050189	609.58	1.2321e-05	1.599e-05	757.09	184.73	2.1223e-05	5.2219e-06	296.58	112.59	65.64	28.64	1.9895e-05	59.426	0.003565	0.0034561	0.00090234	741.39	3.9808e-05	3.6726e-05	852.43	238.57	4.0092e-05	3.8356e-05	348.8	137.39	88.664	34.689	3.8544e-05	67.842	215.614	3.746	60.116	-77.051	47.694	81.693	-76.220	-71.040	25.328	-29.435	-71.672	-66.784	-66.512	-60.822	133.767	-62.532	-8191	255	
2170.450	1	1	0	0	0.19661	0.25402	0.0086114	0.16112	0.070739	0.16699	0.14497	0.27275	0.1727	0.12868	0.16356	0.3999	0.15108	0.11766	0.20659	0.39768	-3.2104	-3.2854	-3.5167	-3.4146	-3.4437	-3.6688	-3.4479	-3.5104	-3.6063	-2.9479	-3.7083	-3.4292	-3.2833	-3.5104	-3.3625	-3.3417	133.176	-72.723	130.162	223.606	-24.825	207.781	107.160	173.801	28.194	-50.861	182.042	248.920	249.965	187.264	93.286	190.768	0.00025857	0.0013302	0.00073648	617.89	8.2303e-06	1.9725e-05	771.87	186.11	1.3731e-06	1.3983e-05	300.44	113.82	65.923	28.921	1.0711e-05	60.217	0.0034042	0.0033376	0.0009561	746.92	3.7718e-05	3.4799e-05	867.2	238.2	3.6693e-05	3.5096e-05	353.26	136.03	86.253	34.308	3.9052e-05	67.69	204.860	24.708	175.106	-76.868	145.245	-37.957	-76.731	-70.666	-80.959	22.895	-71.339	-66.997	-66.213	-60.882	197.459	-62.255	-8191	255	
2170.546	1	1	0	0	0.073266	0.042668	0.18134	0.0896	0.15768	0.11671	0.13405	0.12839	0.22432	0.23706	0.1281	0.25869	0.11837	0.18363	0.20271	0.15185	-3.2896	-3.0708	-3.5917	-3.275	-3.0479	-3.6104	-3.45	-3.2583	-3.5646	-3.2083	-3.5687	-3.4437	-3.2375	-3.6562	-3.2917	-3.3854	61.534	43.476	156.844	263.448	16.749	-27.547	263.858	224.349	132.337	144.071	116.775	187.997	261.567	256.896	99.591	243.506	0.00048717	0.00099091	0.00068564	620.49	4.9746e-06	3.4692e-06	779.77	188.51	7.5635e-06	2.0756e-05	306.74	115.64	66.465	29.507	1.1269e-05	60.739	0.0031577	0.0030935	0.00097371	731.78	3.4759e-05	3.2317e-05	871.26	232.49	3.3169e-05	3.2522e-05	355.06	133.58	84.561	34.377	3.9227e-05	67.043	159.860	-79.189	185.752	-77.038	74.184	94.506	-76.684	-70.803	40.932	203.205	-71.391	-66.750	-66.062	-61.282	135.377	-62.894	-8191	255	
2170.618	1	1	0	0	0.10445	0.12091	0.14643	0.16827	0.21321	0.080135	0.1336	0.40938	0.20647	0.21008	0.34237	0.080255	0.10828	0.10763	0.16151	0.21312	-3.2646	-3.1417	-3.5125	-3.4146	-3.325	-3.5083	-3.4417	-3.2833	-3.6083	-3.3083	-3.6083	-3.5417	-3.2479	-3.6021	-3.4542	-3.4625	36.793	-39.014	39.812	219.747	83.066	-25.710	186.954	206.413	11.127	-76.859	182.655	150.779	-55.633	238.372	112.403	254.778	0.00021236	0.0024765	0.00041816	619.17	7.8719e-06	2.7492e-05	774.19	188.2	2.0216e-05	7.4166e-06	304.87	115.43	66.261	28.708	3.3715e-06	60.14	0.0029656	0.0031637	0.0010147	726.01	3.4081e-05	3.4548e-05	880.7	230.74	3.2999e-05	3.5181e-05	357.53	132.18	83.134	34.627	3.9468e-05	66.054	165.770	136.555	82.529	-76.959	22.450	231.413	-76.608	-70.945	-0.879	-53.001	-71.354	-66.672	-65.973	-60.865	165.051	-62.785	-8191	255	
2170.738	1	1	0	0	0.11	0.18198	0.11615	0.072625	0.16414	0.031463	0.14414	0.15495	0.35558	0.21845	0.14314	0.12141	0.099773	0.21873	0.16606	0.16349	-3.1437	-3.2667	-3.4083	-3.5812	-3.1708	-3.6604	-3.4042	-3.4208	-3.5729	-3.3604	-3.5625	-3.5083	-3.4542	-3.6333	-3.3417	-3.3417	73.569	-57.304	-49.374	167.421	62.248	222.557	166.825	233.438	178.010	145.089	-62.583	53.637	61.923	265.706	114.022	220.652	0.00024999	0.00097178	0.00041002	617.8	1.5454e-05	8.7799e-06	774.13	187.37	1.3962e-05	6.2738e-06	305.38	115.3	65.936	28.833	1.2056e-05	60.207	0.0029261	0.0034563	0.001046	726.09	3.5408e-05	3.9564e-05	883.01	231.88	3.4053e-05	3.9121e-05	357.06	132.05	83.735	35.543	3.8661e-05	66.018	237.011	38.291	-14.610	-76.853	5.771	246.595	-76.294	-70.732	207.852	203.937	-71.070	-66.836	-66.126	-60.736	82.784	-62.930	-8191	255	
2170.835	1	1	0	0	0.093736	0.029455	0.16433	0.13098	0.059907	0.15347	0.23131	0.13669	0.23982	0.028034	0.16078	0.1834	0.29079	0.070974	0.16388	0.2989	-3.2604	-3.1833	-3.3312	-3.5875	-3.2583	-3.4667	-3.3563	-3.2	-3.5542	-3.3792	-3.2292	-3.6667	-3.25	-3.6188	-3.3688	-3.3417	144.191	255.744	-7.343	-43.698	5.038	-0.327	104.507	199.326	-76.726	202.939	261.795	194.218	-9.162	-35.443	252.343	99.339	0.00049754	0.0016226	0.00041353	622.05	1.1852e-05	1.444e-05	779.19	187.47	1.7174e-05	4.6793e-06	305.16	115.85	65.379	28.811	2.2119e-05	60.605	0.0029585	0.0036917	0.0010043	720.5	3.5611e-05	4.1897e-05	876.26	231.26	3.5709e-05	4.1765e-05	355.7	131.83	84.968	35.925	3.6661e-05	65.665	140.409	125.570	30.802	-76.742	164.376	-50.707	-76.305	-70.934	205.612	61.183	-71.179	-66.945	-65.885	-60.828	42.877	-62.804	-8191	255	
2170.929	1	1	0	0	0.23652	0.052762	0.1444	0.16035	0.14811	0.11564	0.29708	0.12967	0.10443	0.013872	0.11187	0.34249	0.21882	0.11673	0.21835	0.16822	-3.0021	-3.3521	-3.2604	-3.5479	-3.1667	-3.4292	-3.6771	-3.1167	-3.6479	-3.3375	-3.3063	-3.7458	-3.225	-3.5896	-3.5312	-3.2479	-25.501	-82.309	189.572	119.438	266.302	36.022	237.299	237.705	53.866	45.328	191.725	-82.266	240.656	-77.347	185.559	87.959	0.0006341	0.0016315	0.00013682	619.69	2.7294e-05	1.0635e-05	780.71	188.93	1.4607e-05	5.5816e-06	304.62	115.69	65.686	29.277	9.9553e-06	60.5	0.003096	0.0036736	0.00094286	710.36	3.6596e-05	4.0739e-05	865.7	227.21	3.7322e-05	4.057e-05	352.46	131.75	87.415	35.867	3.5602e-05	65.716	129.091	19.537	-40.736	-77.075	197.721	-11.122	-76.170	-70.926	207.003	-26.772	-71.266	-66.973	-66.459	-60.608	52.091	-62.779	-8191	255	
2171.025	1	1	0	0	0.18512	0.15319	0.2381	0.17961	0.21758	0.16375	0.12973	0.28523	0.1211	0.27216	0.28959	0.18556	0.12071	0.22661	0.17382	0.29997	-3.1104	-3.4667	-3.2146	-3.6417	-3.2083	-3.3583	-3.8667	-3.1333	-3.4792	-3.4146	-3.3708	-3.7438	-3.25	-3.3	-3.4729	-3.3563	202.027	11.359	-37.045	-68.301	115.242	225.145	240.235	184.179	53.481	105.886	192.704	206.745	169.991	-60.173	43.110	156.038	0.00062399	0.001028	0.00071442	619.57	1.5678e-05	2.4277e-05	778.54	189.47	1.1318e-05	1.2455e-05	305.85	115.56	67.204	29.551	4.434e-06	60.543	0.0032885	0.0034905	0.00088706	703.51	3.7489e-05	3.7643e-05	852.42	225.54	3.7936e-05	3.675e-05	346.43	130.84	87.28	35.046	3.1976e-05	65.317	111.347	90.572	15.028	-76.645	228.526	19.233	-76.499	-71.162	-62.520	156.496	-71.253	-66.754	-66.429	-61.010	110.308	-62.723	-8191	255	
2171.146	1	1	0	0	0.22539	0.15292	0.30103	0.21383	0.17165	0.15849	0.17578	0.108	0.058525	0.066055	0.1278	0.11985	0.21143	0.067123	0.089201	0.27965	-3.2021	-3.5125	-2.9521	-3.4583	-3.3708	-3.4104	-3.7667	-3.3812	-3.4396	-3.5312	-3.2667	-3.6792	-3.5104	-3.3312	-3.6271	-3.1667	-80.596	106.733	174.691	-28.745	140.912	39.715	87.762	200.790	-55.079	194.026	90.678	-50.653	266.727	128.925	-69.122	197.019	0.00024044	0.00037306	0.00023447	617.06	8.952e-06	2.0757e-05	777.48	191.1	6.9109e-07	1.6841e-05	306.88	117.34	67.18	30.054	1.4467e-05	62.028	0.0031576	0.0030039	0.0007713	690.73	3.3017e-05	3.0023e-05	821.75	218.71	3.0959e-05	2.7888e-05	331.18	127.9	82.485	33.496	2.5134e-05	64.877	117.219	228.814	78.206	-76.802	80.537	26.599	-76.339	-70.918	15.862	67.664	-71.100	-66.903	-66.665	-60.924	43.951	-62.741	-8191	255	
#DATA ENDS
