BOXY.EXE: ISS Imagent and Oximeter Data Acquisition Program Version 0.80
Ascii Record File

#ACQ INFORMATION
2  Detector Channels 
16  External MUX Channels 
1  Auxiliary Channels 
5000  Waveform (CCF) Frequency (Hz)
1  Waveforms Skipped 
30  Waveforms Averaged 
1  Cycles Averaged 
16  Acquisitions per Waveform 
10.0806  Updata Rate (Hz) 

#FILE INFORMATION
TRUE -- External MUX Channel results are PARSED.
FALSE -- AC DC and Phase are NOT grouped.
TRUE -- Companion Program Settings File CREATED.
FALSE -- AC data not excluded
FALSE -- DC data not excluded
FALSE -- Phase data not excluded
FALSE -- Auxillary Chn. data not excluded
Tab delimiters

#CALIBRATION STATE
TRUE -- Waveform Calibration Values APPLIED.


#AUX CALIBRATION VALUES
Val Type	aux-1	

Term	1.0000e+00	
Factor	0.0000e+00	


#WF CALIBRATION VALUES
A = Detector Channel
Val Type	A-AC1	A-AC2	A-AC3	A-AC4	A-AC5	A-AC6	A-AC7	A-AC8	A-AC9	A-AC10	A-AC11	A-AC12	A-AC13	A-AC14	A-AC15	A-AC16	A-DC1	A-DC2	A-DC3	A-DC4	A-DC5	A-DC6	A-DC7	A-DC8	A-DC9	A-DC10	A-DC11	A-DC12	A-DC13	A-DC14	A-DC15	A-DC16	A-Ph1	A-Ph2	A-Ph3	A-Ph4	A-Ph5	A-Ph6	A-Ph7	A-Ph8	A-Ph9	A-Ph10	A-Ph11	A-Ph12	A-Ph13	A-Ph14	A-Ph15	A-Ph16	

Term	0.00000e+00	0.00000e+00	0.00000e+00	0.00000e+00	0.00000e+00	0.00000e+00	0.00000e+00	0.00000e+00	0.00000e+00	0.00000e+00	0.00000e+00	0.00000e+00	0.00000e+00	0.00000e+00	0.00000e+00	0.00000e+00	0.00000e+00	0.00000e+00	0.00000e+00	0.00000e+00	0.00000e+00	0.00000e+00	0.00000e+00	0.00000e+00	0.00000e+00	0.00000e+00	0.00000e+00	0.00000e+00	0.00000e+00	0.00000e+00	0.00000e+00	0.00000e+00	0.00000e+00	0.00000e+00	0.00000e+00	0.00000e+00	0.00000e+00	0.00000e+00	0.00000e+00	0.00000e+00	0.00000e+00	0.00000e+00	0.00000e+00	0.00000e+00	0.00000e+00	0.00000e+00	0.00000e+00	0.00000e+00	
Factor	1.00000e+00	1.00000e+00	1.00000e+00	1.00000e+00	1.00000e+00	1.00000e+00	1.00000e+00	1.00000e+00	1.00000e+00	1.00000e+00	1.00000e+00	1.00000e+00	1.00000e+00	1.00000e+00	1.00000e+00	1.00000e+00	1.00000e+00	1.00000e+00	1.00000e+00	1.00000e+00	1.00000e+00	1.00000e+00	1.00000e+00	1.00000e+00	1.00000e+00	1.00000e+00	1.00000e+00	1.00000e+00	1.00000e+00	1.00000e+00	1.00000e+00	1.00000e+00	X	X	X	X	X	X	X	X	X	X	X	X	X	X	X	X	

B = Detector Channel
Val Type	B-AC1	B-AC2	B-AC3	B-AC4	B-AC5	B-AC6	B-AC7	B-AC8	B-AC9	B-AC10	B-AC11	B-AC12	B-AC13	B-AC14	B-AC15	B-AC16	B-DC1	B-DC2	B-DC3	B-DC4	B-DC5	B-DC6	B-DC7	B-DC8	B-DC9	B-DC10	B-DC11	B-DC12	B-DC13	B-DC14	B-DC15	B-DC16	B-Ph1	B-Ph2	B-Ph3	B-Ph4	B-Ph5	B-Ph6	B-Ph7	B-Ph8	B-Ph9	B-Ph10	B-Ph11	B-Ph12	B-Ph13	B-Ph14	B-Ph15	B-Ph16	

Term	0.00000e+00	0.00000e+00	0.00000e+00	0.00000e+00	0.00000e+00	0.00000e+00	0.00000e+00	0.00000e+00	0.00000e+00	0.00000e+00	0.00000e+00	0.00000e+00	0.00000e+00	0.00000e+00	0.00000e+00	0.00000e+00	0.00000e+00	0.00000e+00	0.00000e+00	0.00000e+00	0.00000e+00	0.00000e+00	0.00000e+00	0.00000e+00	0.00000e+00	0.00000e+00	0.00000e+00	0.00000e+00	0.00000e+00	0.00000e+00	0.00000e+00	0.00000e+00	-1.65095e+02	-1.36760e+02	-1.28228e+02	-1.79802e+02	-7.58801e+01	-8.06562e+01	-1.58085e+02	-1.62015e+02	-8.34201e+01	-6.02352e+01	-1.69977e+02	-1.71992e+02	-1.83057e+02	-1.76155e+02	-6.30896e+01	-1.48803e+02	
Factor	2.68855e-05	1.33963e-04	4.06587e-05	1.73064e-01	1.18092e-06	1.38058e-06	1.79830e-01	6.39379e-02	1.39152e-06	1.46583e-06	8.33553e-02	3.13931e-02	2.72019e-02	8.97484e-03	1.12261e-06	1.30680e-02	1.59552e-06	1.68252e-06	4.69401e-07	8.55044e-02	1.82819e-08	1.84544e-08	8.38191e-02	3.15264e-02	1.83315e-08	1.84551e-08	3.98753e-02	1.49757e-02	1.33735e-02	4.44832e-03	1.83795e-08	6.25309e-03	X	X	X	X	X	X	X	X	X	X	X	X	X	X	X	X	



#DISTANCE SETTINGS
A = Detector Channel
A-1	A-2	A-3	A-4	A-5	A-6	A-7	A-8	A-9	A-10	A-11	A-12	A-13	A-14	A-15	A-16	

2.5000e+00	3.0000e+00	2.5000e+00	3.0000e+00	2.0000e+00	3.0000e+00	1.5000e+00	3.0000e+00	3.0000e+00	3.0000e+00	3.0000e+00	3.0000e+00	3.0000e+00	3.0000e+00	1.5000e+00	3.0000e+00	

B = Detector Channel
B-1	B-2	B-3	B-4	B-5	B-6	B-7	B-8	B-9	B-10	B-11	B-12	B-13	B-14	B-15	B-16	

1.0000e+01	1.0000e+01	1.0000e+01	1.4400e+00	1.0000e+01	1.0000e+01	1.5100e+00	1.9400e+00	1.0000e+01	1.0000e+01	1.9900e+00	2.4900e+00	2.4100e+00	2.9000e+00	1.0000e+01	2.9800e+00	




#DATA BEGINS
time	group	step	mark	flag	A-AC1	A-AC2	A-AC3	A-AC4	A-AC5	A-AC6	A-AC7	A-AC8	A-AC9	A-AC10	A-AC11	A-AC12	A-AC13	A-AC14	A-AC15	A-AC16	A-DC1	A-DC2	A-DC3	A-DC4	A-DC5	A-DC6	A-DC7	A-DC8	A-DC9	A-DC10	A-DC11	A-DC12	A-DC13	A-DC14	A-DC15	A-DC16	A-Ph1	A-Ph2	A-Ph3	A-Ph4	A-Ph5	A-Ph6	A-Ph7	A-Ph8	A-Ph9	A-Ph10	A-Ph11	A-Ph12	A-Ph13	A-Ph14	A-Ph15	A-Ph16	B-AC1	B-AC2	B-AC3	B-AC4	B-AC5	B-AC6	B-AC7	B-AC8	B-AC9	B-AC10	B-AC11	B-AC12	B-AC13	B-AC14	B-AC15	B-AC16	B-DC1	B-DC2	B-DC3	B-DC4	B-DC5	B-DC6	B-DC7	B-DC8	B-DC9	B-DC10	B-DC11	B-DC12	B-DC13	B-DC14	B-DC15	B-DC16	B-Ph1	B-Ph2	B-Ph3	B-Ph4	B-Ph5	B-Ph6	B-Ph7	B-Ph8	B-Ph9	B-Ph10	B-Ph11	B-Ph12	B-Ph13	B-Ph14	B-Ph15	B-Ph16	aux-1	digaux	

2457.553	1	1	0	512	0.086759	0.10602	0.22793	0.22197	0.050388	0.1159	0.4072	0.029299	0.20502	0.12392	0.20497	0.45425	0.10758	0.46754	0.21725	0.23384	-3.1042	-3.5104	-3.1521	-3.8438	-3.3042	-3.3667	-3.6	-3.1667	-3.6146	-3.3875	-3.3042	-3.8333	-3.3563	-3.4354	-3.6063	-3.1937	315.662	167.397	55.949	80.518	8.911	153.820	194.848	-3.496	278.791	129.988	316.432	329.449	90.215	276.731	237.704	296.273	0.00065685	0.00098614	0.00020222	748.36	5.9823e-06	1.4364e-06	852.35	294.25	4.8952e-06	7.1615e-06	416.99	182.84	123.44	65.165	1.98e-06	110.05	0.00034111	0.00029522	7.6876e-05	705.25	3.4776e-06	3.2878e-06	800.37	276.79	3.5188e-06	3.2175e-06	387.78	172.26	116.03	61.212	2.9004e-06	102.55	104.829	42.594	59.498	-4.287	109.330	93.358	-5.011	0.471	106.827	171.034	-0.801	2.733	3.861	8.306	158.168	5.790	-8191	255	
2457.649	1	1	0	0	0.22065	0.16011	0.14507	0.30162	0.21579	0.13626	0.14356	0.19622	0.02759	0.13728	0.28493	0.18104	0.045826	0.23528	0.11574	0.10792	-3.1667	-3.5167	-3.025	-3.5333	-3.2917	-3.2375	-3.6333	-3.1896	-3.6708	-3.4792	-3.1396	-3.5771	-3.4625	-3.5667	-3.5021	-3.2667	163.827	314.369	33.074	314.288	177.541	296.002	197.867	297.916	267.532	11.046	247.231	-16.217	297.420	316.854	267.108	109.345	0.00068833	0.00077791	0.00039671	749.3	2.9275e-06	3.4457e-06	847.82	292.77	5.9537e-06	4.7963e-06	410.46	182.33	121.42	64.85	4.1845e-06	109.48	0.00034657	0.00028829	7.4834e-05	706.55	3.4702e-06	3.1371e-06	799.76	275.7	3.4463e-06	3.0054e-06	383.54	170.77	114.72	60.92	2.7851e-06	102.31	104.409	55.111	75.746	-4.063	139.412	25.282	-4.951	0.688	122.274	126.195	-0.853	2.748	3.953	7.919	186.589	5.723	-8191	255	
2457.768	1	1	0	0	0.22069	0.053606	0.14371	0.28283	0.30087	0.077014	0.18796	0.084598	0.13306	0.038506	0.22971	0.3586	0.30928	0.36635	0.16508	0.32375	-3.0771	-3.4583	-3.3	-3.5792	-3.2104	-3.05	-3.5292	-3.2167	-3.4583	-3.6375	-3.1146	-3.6958	-3.6229	-3.3021	-3.4625	-3.2833	244.832	66.789	68.507	331.565	81.878	330.362	294.613	324.454	32.584	-14.850	314.417	-8.254	333.556	288.136	65.321	246.535	0.00070367	0.00039925	0.00018832	742.2	4.2459e-06	6.5354e-06	845.57	289.35	7.6063e-06	4.8873e-06	402.54	179.73	120.88	64.351	3.0822e-06	108.05	0.00033558	0.00027026	7.469e-05	702.76	3.2522e-06	3.0047e-06	793.07	271.88	3.2824e-06	2.8556e-06	377.43	168.75	113.67	60.453	2.8399e-06	100.93	102.221	82.175	92.251	-3.782	176.476	128.356	-4.700	0.776	117.396	129.064	-1.017	3.034	4.123	7.958	186.938	5.678	-8191	255	
2457.864	1	1	0	0	0.45485	0.21459	0.17888	0.31643	0.11253	0.074313	0.31387	0.041207	0.098379	0.16899	0.12116	0.051406	0.074367	0.24493	0.11047	0.26849	-3.025	-3.6833	-3.2646	-3.5146	-3.3417	-3.2104	-3.7396	-3.2917	-3.2104	-3.6833	-3.5542	-3.7146	-3.3458	-3.0938	-3.5833	-3.6417	338.330	149.616	254.127	289.301	151.105	179.574	299.286	290.827	109.686	250.819	292.244	157.099	331.464	298.963	35.807	341.202	0.00066333	0.00093901	0.00018533	740.84	3.9322e-06	3.5631e-06	834.11	286.18	5.0662e-06	6.4955e-06	400.17	177.24	120.41	63.863	7.3978e-06	108.06	0.00031286	0.00025877	7.5082e-05	702.78	3.0792e-06	2.8898e-06	787.5	269.45	3.1383e-06	2.7302e-06	374.53	166.72	112.75	59.922	3.0449e-06	100.38	102.288	90.719	94.049	-4.441	113.044	97.163	-4.761	0.805	131.112	146.700	-0.948	3.057	4.307	8.026	184.487	5.546	-8191	255	
2457.960	1	1	0	0	0.048383	0.12735	0.094136	0.22437	0.24313	0.13182	0.20614	0.14414	0.15452	0.13896	0.15226	0.052663	0.14739	0.17146	0.13865	0.53161	-2.675	-3.4292	-3.1271	-3.4792	-3.4354	-3.1354	-3.7396	-3.4583	-3.3563	-3.6625	-3.3563	-3.4792	-3.4792	-3.25	-3.4458	-3.4229	25.992	188.504	284.728	273.103	178.539	150.383	272.111	243.779	189.134	24.266	250.401	196.248	-11.235	289.641	178.093	303.331	0.00066843	0.0005491	0.00019394	745.09	5.5274e-06	3.4882e-06	840.19	285.54	6.9342e-06	6.1579e-06	400.1	178.45	119.14	63.56	3.0649e-06	107.43	0.00031083	0.00025025	8.0233e-05	702.29	2.938e-06	2.7679e-06	791	270.02	2.9829e-06	2.6321e-06	374.43	167.06	112.35	59.617	3.2399e-06	100.07	97.147	39.978	70.755	-4.325	128.618	130.569	-4.779	0.597	101.612	150.368	-0.932	3.090	3.850	7.907	191.179	5.706	-8191	255	
2458.081	1	1	0	0	0.23703	0.1235	0.14396	0.1199	0.11021	0.075432	0.38999	0.093435	0.043726	0.1158	0.16363	0.32231	0.14158	0.082356	0.076866	0.16246	-2.9646	-3.5167	-3.1979	-3.5875	-3.4042	-3.0792	-3.6479	-3.5375	-3.1292	-3.5875	-3.4958	-3.5896	-3.575	-3.4542	-3.6583	-3.4979	138.293	69.361	57.174	103.207	21.482	84.545	257.446	5.194	271.725	131.385	164.683	278.943	26.704	255.575	-4.990	314.419	0.00064428	0.00036888	0.00026218	742.24	7.856e-06	1.1769e-05	837.85	284.09	4.0777e-06	4.2612e-06	399.95	177.17	118.67	63.483	3.7793e-06	107.54	0.00029792	0.00024491	8.5253e-05	700.07	2.8188e-06	2.8487e-06	790.18	267.98	2.9671e-06	2.8072e-06	374.91	166.36	111.54	59.571	3.45e-06	100.18	103.132	45.372	96.263	-4.280	168.720	102.905	-4.540	0.705	136.917	108.877	-0.794	3.181	3.786	8.287	183.216	5.807	-8191	255	
2458.177	1	1	0	0	0.17074	0.088286	0.098809	0.20464	0.22255	0.20623	0.23905	0.14528	0.34376	0.081623	0.10405	0.3179	0.073214	0.10458	0.116	0.26146	-2.6354	-3.6646	-3.2979	-3.2604	-3.5167	-3.2417	-3.5417	-3.5521	-2.9833	-3.4396	-3.3729	-3.4354	-3.6562	-3.2667	-3.3833	-3.8417	157.995	298.360	209.184	250.066	243.927	74.492	236.937	211.121	5.497	24.662	335.942	342.034	311.663	309.768	67.220	226.492	0.00061941	0.0008625	0.00012291	745.12	5.0917e-06	3.7734e-06	842.91	288.9	4.7541e-06	8.9272e-06	406.65	181.23	121.93	64.203	1.412e-06	108.97	0.00030058	0.00026963	8.881e-05	702.49	2.8058e-06	3.0989e-06	796	271.59	2.9002e-06	3.1152e-06	382.02	169.58	113.99	60.406	3.4684e-06	101.56	106.725	81.089	61.237	-4.206	120.931	123.578	-4.872	0.358	91.676	160.489	-0.914	2.850	4.088	8.270	101.207	5.810	-8191	255	
2458.249	1	1	0	0	0.14705	0.23898	0.073224	0.11277	0.065253	0.14042	0.28836	0.28013	0.22534	0.15552	0.059344	0.22043	0.034697	0.1068	0.22847	0.1911	-2.625	-3.5396	-3.3292	-3.2271	-3.6021	-3.2833	-3.5229	-3.8229	-3.0542	-3.4833	-3.6083	-3.2792	-3.6896	-3.25	-3.5	-3.8771	-14.210	61.726	61.242	-4.474	322.018	312.517	293.070	250.451	192.210	92.127	244.844	156.144	97.554	272.088	236.922	327.611	0.00070439	0.0005283	0.00016198	745.13	3.6025e-06	8.0855e-06	847.77	292.69	6.723e-06	3.9556e-06	412.17	184.36	122.86	65.486	3.7932e-06	111.04	0.00029127	0.00029041	8.6927e-05	703.18	2.7725e-06	3.3529e-06	799.48	274.91	2.9214e-06	3.3193e-06	386.72	172.3	115.54	61.601	3.4076e-06	103.39	104.128	89.281	112.544	-4.487	143.491	137.323	-4.776	0.604	132.247	159.811	-1.067	2.854	3.831	8.210	110.704	5.791	-8191	255	
2458.369	1	1	0	0	0.25891	0.14297	0.14388	0.21275	0.25567	0.21123	0.098092	0.16171	0.18765	0.28215	0.17246	0.22916	0.051006	0.15846	0.15633	0.18415	-2.6958	-3.3833	-3.3354	-3.1583	-3.6583	-3.2938	-3.3438	-3.6562	-2.9771	-3.4333	-3.6063	-3.2354	-3.6458	-3.3833	-3.2687	-3.9333	307.747	73.361	41.464	41.072	115.337	181.213	227.264	256.728	272.501	263.710	1.183	299.883	263.869	307.339	337.191	315.483	0.00069193	0.00089165	0.00019973	746.31	7.4452e-06	6.541e-06	855.7	293.84	8.1365e-06	7.2249e-06	414.79	184.35	123.36	65.898	4.2263e-06	111.34	0.00030049	0.00031664	8.2443e-05	703.2	2.8686e-06	3.5183e-06	805.42	275.34	3.081e-06	3.5238e-06	389	172.61	115.95	61.792	3.2085e-06	103.57	97.394	100.872	93.697	-4.341	154.949	185.023	-4.832	0.186	127.948	123.497	-0.862	2.871	4.005	8.158	149.414	5.822	-8191	255	
2458.464	1	1	0	0	0.23575	0.071704	0.10998	0.36238	0.070735	0.11864	0.068726	0.28145	0.11519	0.13844	0.19562	0.13907	0.15665	0.14478	0.39699	0.1215	-2.8542	-3.2792	-3.2625	-3.2604	-3.5833	-3.1354	-3.3833	-3.7583	-3.1542	-3.2271	-3.5021	-3.3417	-3.6229	-3.2313	-3.2938	-3.8854	84.000	134.018	123.865	258.323	-9.813	280.643	143.846	292.935	14.290	318.164	273.489	280.576	312.028	53.615	258.227	0.569	0.00078621	0.00045768	0.00026363	749.54	6.6755e-06	5.4687e-06	861.28	292.58	6.7603e-06	3.7299e-06	415.87	184.61	122.86	65.051	5.5105e-06	109.96	0.00031962	0.00032723	7.8122e-05	705.91	3.0779e-06	3.4952e-06	810.4	275.74	3.2336e-06	3.4628e-06	389.23	172.51	115.33	61.218	3.183e-06	102.57	107.588	87.545	52.959	-4.279	158.301	107.847	-4.989	0.514	134.626	131.226	-0.636	2.596	3.879	8.023	164.212	5.767	-8191	255	
2458.560	1	1	0	0	0.084263	0.072549	0.23701	0.24271	0.29627	0.28921	0.47948	0.44825	0.10077	0.27624	0.18376	0.17457	0.14858	0.37623	0.10147	0.14551	-2.8979	-3.4271	-3.3271	-3.2125	-3.5687	-3.2104	-3.1958	-3.5187	-3.5208	-3.3812	-3.525	-3.3625	-3.5292	-3.5396	-3.0812	-3.6875	323.804	125.402	66.554	295.658	31.066	260.263	295.259	296.833	77.508	35.317	327.830	294.406	328.873	340.143	5.843	288.297	0.00061629	0.00053652	7.7744e-05	745.78	4.8669e-06	9.1973e-06	842.54	289.33	4.8156e-06	5.5044e-06	407.67	180.89	121.13	64.155	7.2983e-06	108.8	0.00033674	0.00031231	7.546e-05	703.44	3.3604e-06	3.2814e-06	796.73	271.58	3.4643e-06	3.3904e-06	380.89	169.31	114.01	60.439	3.084e-06	101.33	106.588	48.655	50.276	-4.152	104.161	94.779	-4.697	0.480	76.261	147.814	-0.786	2.857	3.688	7.979	136.809	5.783	-8191	255	
2458.656	1	1	0	0	0.083613	0.046431	0.18014	0.22576	0.12325	0.25938	0.25879	0.16697	0.035503	0.14848	0.14999	0.17317	0.19787	0.048241	0.098088	0.35198	-2.8937	-3.1562	-3.4542	-3.1375	-3.2708	-3.3229	-3.2771	-3.625	-3.2229	-3.3208	-3.6625	-3.3521	-3.3396	-3.4417	-3.0104	-3.775	325.647	223.242	228.379	317.982	318.754	3.808	326.724	286.501	137.756	25.486	287.814	299.667	337.016	22.721	131.323	299.660	0.00074634	0.00093372	0.00025703	739.15	5.5684e-06	6.3972e-06	842.11	287.82	6.5514e-06	6.409e-06	409.52	182.39	121.95	65.022	3.506e-06	109.69	0.00034826	0.00029969	7.4521e-05	697.87	3.5182e-06	3.211e-06	793.42	272.24	3.6074e-06	3.28e-06	381.94	170.89	114.97	60.944	3.0549e-06	102.39	104.630	72.859	35.168	-4.146	128.877	126.182	-4.739	0.997	111.533	139.273	-0.740	2.749	3.911	8.152	120.540	5.696	-8191	255	
2458.777	1	1	0	0	0.057644	0.070764	0.056272	0.18518	0.20615	0.31953	0.14511	0.13472	0.060399	0.19563	0.28723	0.17453	0.18455	0.23411	0.34453	0.23319	-2.8042	-3.0354	-3.5667	-3.3125	-3.325	-3.4708	-3.275	-3.7125	-3.2167	-3.2083	-3.6312	-3.3937	-3.4292	-3.6375	-3.1833	-3.6021	46.158	169.591	16.297	335.626	15.806	163.112	253.389	326.866	-4.908	331.982	8.939	315.025	301.778	24.777	46.455	275.412	0.00066857	0.00042567	0.00018606	744.44	5.301e-06	5.5234e-06	846.14	292.18	2.3703e-06	1.6274e-06	412.92	182.13	122.21	64.507	4.5802e-06	108.87	0.00035215	0.00029668	7.3717e-05	703.56	3.5545e-06	3.1747e-06	798.35	275.16	3.5184e-06	3.2251e-06	386.11	171.57	114.96	60.536	3.0667e-06	101.87	105.888	67.564	79.179	-4.409	127.760	92.140	-4.480	0.668	102.226	110.790	-0.801	2.980	3.857	8.234	136.514	5.744	-8191	255	
2458.848	1	1	0	0	0.10675	0.04942	0.072987	0.24154	0.13967	0.14839	0.15337	0.25443	0.21158	0.13721	0.099676	0.19242	0.18645	0.15599	0.14284	0.33671	-2.7979	-3.0187	-3.5458	-3.3104	-3.2396	-3.5833	-3.3417	-3.5292	-3.2646	-3.1583	-3.7417	-3.2667	-3.4583	-3.8396	-3.1229	-3.6375	279.831	38.006	245.948	287.110	74.750	260.568	261.979	325.514	68.065	226.694	225.931	277.368	54.669	-4.279	38.640	294.721	0.00063817	0.00047376	0.00024045	744.21	6.9213e-06	5.7109e-06	851.54	290.41	7.2109e-06	9.5303e-06	412.33	182.89	122.42	64.856	4.8156e-06	109.93	0.00034504	0.00028984	7.4798e-05	705.7	3.4408e-06	3.0752e-06	802.73	274.72	3.4166e-06	3.1794e-06	385.68	171.29	114.92	60.965	3.2727e-06	102.74	100.302	85.932	92.303	-4.119	127.406	101.139	-4.766	0.610	102.921	145.083	-1.093	2.837	3.882	8.118	143.786	5.929	-8191	255	
2458.944	1	1	0	0	0.27909	0.09465	0.156	0.20212	0.10606	0.12073	0.22814	0.23193	0.16387	0.12941	0.12961	0.23284	0.12148	0.32499	0.067356	0.22621	-3.0583	-3.1917	-3.375	-3.2792	-3.4125	-3.8812	-3.4854	-3.7333	-3.3667	-3.0625	-3.5896	-3.2417	-3.4083	-3.6583	-2.9062	-3.5854	75.168	149.306	14.446	302.608	69.423	106.360	261.680	241.346	193.047	124.272	3.164	204.862	338.318	329.305	228.033	280.508	0.00065894	0.00064642	0.0002397	740.93	8.1641e-06	5.9696e-06	844.85	288.77	6.964e-06	5.136e-06	408.3	182.33	121.89	64.999	4.3249e-06	109.7	0.00033591	0.00028985	8.0897e-05	702.27	3.3937e-06	2.9984e-06	796.38	273.53	3.2923e-06	3.0788e-06	384.12	171.3	114.6	61.047	3.4524e-06	102.39	106.133	15.956	111.777	-4.228	157.971	106.701	-4.629	0.708	97.764	87.062	-0.601	2.726	4.207	7.988	186.487	5.777	-8191	255	
2459.041	1	1	0	0	0.10303	0.16187	0.11732	0.15416	0.010496	0.32748	0.21185	0.25039	0.11426	0.15126	0.15771	0.12768	0.12636	0.33536	0.093479	0.19948	-3.2812	-2.9771	-3.5167	-3.3729	-3.025	-3.7229	-3.0667	-3.3917	-3.3875	-3.0833	-3.6271	-3.3937	-3.2604	-3.7479	-3.2792	-3.5021	2.407	283.461	34.521	283.877	323.893	37.617	207.621	217.161	178.846	334.198	0.460	265.670	256.765	340.916	6.336	295.513	0.00069081	0.00035761	0.00017184	736.79	7.5744e-06	6.4798e-06	839.66	289.02	4.3195e-06	8.5131e-06	407.18	180.49	121.34	64.419	6.4179e-06	108.78	0.00032182	0.00027417	8.718e-05	697.6	3.2603e-06	2.9083e-06	795.8	273	3.1502e-06	3.0248e-06	382.29	169.95	113.92	60.435	3.6277e-06	101.74	104.494	43.683	99.598	-4.341	109.645	59.703	-4.540	0.558	125.309	98.395	-0.634	3.062	3.867	8.191	126.178	5.951	-8191	255	
2459.161	1	1	0	0	0.14889	0.039346	0.16381	0.17812	0.088034	0.13436	0.31234	0.11368	0.15753	0.29637	0.10451	0.15148	0.072028	0.093146	0.12897	0.35028	-3.2021	-3.1562	-3.3771	-3.325	-3.325	-3.5792	-3.1625	-3.4208	-3.4437	-2.775	-3.6333	-3.6	-3.075	-3.8021	-3.2771	-3.6271	154.879	162.980	0.890	274.289	23.292	241.457	237.127	340.336	14.701	141.904	257.199	179.135	278.301	51.376	244.766	300.567	0.0005793	0.00086351	0.00018748	738.95	7.8805e-06	3.5218e-06	835.48	285.69	8.2168e-06	9.1644e-07	408.44	181.42	120.77	64.72	4.9964e-06	109.85	0.00031246	0.00028052	9.1632e-05	698.49	3.1287e-06	2.9815e-06	793.2	270.92	3.0298e-06	3.1564e-06	383.23	170.25	113.86	60.767	3.7125e-06	102.26	103.681	83.914	109.991	-4.163	119.432	138.235	-4.674	0.454	129.937	87.183	-0.559	2.940	3.977	8.135	189.391	5.617	-8191	255	
2459.257	1	1	0	0	0.19597	0.11127	0.19722	0.30579	0.22267	0.14515	0.078461	0.11487	0.057481	0.28758	0.17679	0.19897	0.221	0.096074	0.13986	0.10642	-2.9604	-3.1	-3.3937	-3.5646	-3.2042	-3.5271	-3.1729	-3.4708	-3.6771	-3.1917	-3.7229	-3.7292	-3.1396	-3.7354	-3.3063	-3.4583	339.538	193.384	105.942	33.837	120.974	226.411	150.583	-11.001	327.581	-10.909	-4.921	235.846	331.388	299.314	324.258	162.730	0.00068706	0.00043629	0.00016263	737.79	3.7812e-06	5.7579e-06	852.76	290.43	5.37e-06	5.2007e-06	412.86	181.24	121.15	64.269	5.464e-06	108.73	0.00030134	0.00029893	9.4964e-05	698.65	3.0392e-06	3.289e-06	801.95	273.69	2.9565e-06	3.4138e-06	387.07	170.71	113.74	60.372	3.5218e-06	101.33	105.973	19.609	117.087	-4.338	133.072	117.258	-4.666	0.868	105.124	164.606	-0.902	2.983	4.085	8.167	111.457	5.980	-8191	255	
2459.353	1	1	0	0	0.15753	0.21039	0.058659	0.22432	0.20338	0.042627	0.22982	0.40695	0.32731	0.11642	0.074206	0.25372	0.10698	0.26186	0.20197	0.36232	-3.0833	-3.2979	-3.4125	-3.5354	-3.1292	-3.5563	-3.4938	-3.1833	-3.4458	-3.1771	-3.6354	-3.4167	-3.1792	-3.6979	-3.4167	-3.4542	53.640	148.103	217.359	122.958	218.240	244.578	248.065	334.148	49.073	276.618	-11.679	275.900	36.866	309.662	35.791	295.284	0.00067908	0.00058898	0.00020577	741.32	5.0657e-06	2.0079e-06	840.43	288.71	3.3008e-06	9.7802e-06	406.84	179.27	119.56	63.294	2.096e-06	107.1	0.0002937	0.00032103	9.1037e-05	698.26	2.9921e-06	3.5062e-06	795.05	271.78	2.9765e-06	3.6417e-06	381.37	167.75	112.6	59.655	3.4439e-06	100.09	97.466	54.077	70.657	-4.093	163.205	180.036	-4.710	0.655	169.661	138.934	-0.616	2.833	4.264	8.104	149.350	6.049	-8191	255	
2459.450	1	1	0	0	0.21266	0.12817	0.14689	0.1164	0.19765	0.18424	0.058475	0.30813	0.15626	0.11643	0.16974	0.052828	0.32023	0.10856	0.015765	0.31916	-3.1562	-3.1125	-3.1771	-3.5271	-3.2562	-3.5292	-3.8125	-3.1	-3.5333	-3.25	-3.3729	-3.7583	-3.3208	-3.4833	-3.4229	-3.2208	126.008	91.664	23.160	296.573	44.433	240.632	8.989	329.375	18.544	130.185	333.426	229.567	335.086	276.210	38.342	335.111	0.00073229	0.00063605	8.0295e-05	741.27	4.637e-06	3.8418e-06	845.39	288.53	6.1613e-06	7.0451e-06	406.57	179.5	119.51	63.585	4.3999e-06	108.2	0.000313	0.00033986	8.8876e-05	697.61	3.2125e-06	3.7147e-06	793.7	271.32	3.2106e-06	3.7601e-06	381.63	168.54	112.98	59.891	3.3583e-06	100.83	96.035	126.509	-11.184	-4.255	146.232	122.410	-4.708	0.767	108.644	150.255	-0.611	3.019	4.032	8.118	134.068	6.170	-8191	255	
2459.544	1	1	0	0	0.031689	0.28334	0.25834	0.16441	0.14921	0.10524	0.099297	0.22352	0.16826	0.02672	0.03013	0.10881	0.33925	0.15864	0.065306	0.31258	-3.3146	-3.3	-3.2229	-3.5083	-3.1833	-3.4542	-3.6937	-3.1958	-3.4	-3.3979	-3.3667	-3.8104	-3.3104	-3.4521	-3.4604	-3.4458	183.408	123.521	6.872	271.743	203.365	333.563	291.220	319.181	257.003	98.357	305.995	22.733	289.522	289.316	66.130	237.842	0.00067288	0.0011518	0.00017327	741.79	3.5681e-06	5.9285e-06	850.32	291.32	6.7978e-06	7.5225e-06	412.62	181.51	120.67	63.897	6.072e-06	109.22	0.00033266	0.00033753	8.4619e-05	699.88	3.4813e-06	3.6479e-06	800.46	272.85	3.4603e-06	3.567e-06	385.5	169.79	113.78	60.2	3.2054e-06	101.6	96.322	60.566	72.394	-4.210	153.400	76.576	-4.682	0.400	82.816	147.900	-0.631	3.015	3.957	8.199	163.024	6.168	-8191	255	
2459.642	1	1	0	0	0.044089	0.23987	0.16252	0.18666	0.16164	0.12453	0.13412	0.47688	0.20618	0.10598	0.060344	0.15278	0.3199	0.27683	0.20358	0.2721	-3.1562	-3.1979	-3.1208	-3.6833	-3.3187	-3.2729	-3.6021	-3.1188	-3.4417	-3.5167	-3.3104	-3.5104	-3.3146	-3.4729	-3.3021	-3.4583	221.067	153.828	128.300	120.373	-1.441	249.359	288.626	320.773	200.030	2.030	9.449	95.376	28.066	329.759	39.071	314.005	0.00066221	0.00058675	6.1458e-05	740.14	4.6058e-06	7.7943e-06	842.12	287.07	7.3901e-06	4.9395e-06	406.69	179.77	119.76	63.47	2.1582e-06	107.4	0.00034881	0.00032034	8.3244e-05	698	3.6348e-06	3.4695e-06	794.31	270.29	3.664e-06	3.3434e-06	379.96	167.92	112.76	59.885	3.0327e-06	100.28	107.466	39.502	81.329	-4.345	115.381	97.790	-4.456	0.548	143.546	95.666	-0.590	2.773	4.052	8.253	190.317	5.888	-8191	255	
2459.761	1	1	0	0	0.16173	0.07105	0.14563	0.33459	0.19654	0.084799	0.13778	0.23151	0.10343	0.054559	0.28897	0.27404	0.32042	0.21594	0.18834	0.43397	-3.2458	-3.4208	-3.1479	-3.6354	-3.2313	-3.2208	-3.5521	-3.2583	-3.3833	-3.5312	-3.0062	-3.5208	-3.4167	-3.4083	-3.5542	-3.4792	112.125	47.954	230.114	-15.822	116.679	71.527	318.970	335.613	187.948	264.519	340.496	291.144	342.638	231.157	252.956	254.637	0.00065977	0.00060087	0.000163	733.74	2.2695e-06	4.2983e-06	828.86	281.73	5.7576e-06	6.5429e-06	397.95	175.92	118.39	63.088	4.1852e-06	106.85	0.00036402	0.00030711	7.986e-05	691.43	3.6424e-06	3.3662e-06	780.12	266.15	3.6504e-06	3.2549e-06	372.66	165.57	111.64	59.256	2.912e-06	99.63	106.157	84.699	136.980	-4.090	153.735	73.191	-4.695	0.810	151.657	158.252	-0.886	3.021	3.821	8.112	172.976	5.806	-8191	255	
2459.857	1	1	0	0	0.065436	0.13695	0.082686	0.22767	0.026021	0.13809	0.14859	0.092954	0.32351	0.075141	0.2239	0.19403	0.05512	0.21378	0.18956	0.2663	-3.0021	-3.5104	-3.2667	-3.5812	-3.375	-3.175	-3.6354	-3.3708	-3.5729	-3.5125	-3.0542	-3.7938	-3.4417	-3.225	-3.675	-3.4917	298.078	244.673	161.211	40.682	15.303	140.098	142.723	209.293	29.058	24.761	237.534	331.648	320.366	330.039	317.599	261.493	0.00066425	0.00052276	2.1921e-05	731.77	1.8627e-06	6.0518e-06	824.5	282.28	5.7343e-06	9.9297e-06	398.25	176.79	118.48	63.328	6.5807e-06	107.14	0.00035539	0.00028558	7.6856e-05	692.97	3.5801e-06	3.2414e-06	778.05	266.8	3.5515e-06	3.0655e-06	371.9	165.7	111.44	59.323	2.9426e-06	99.847	102.108	-12.873	145.363	-4.227	98.917	89.514	-4.827	0.716	141.422	142.895	-0.864	2.937	3.880	8.062	152.423	5.989	-8191	255	
2459.953	1	1	0	0	0.19179	0.20548	0.19749	0.10241	0.085349	0.22974	0.27777	0.18973	0.22039	0.18411	0.37365	0.30781	0.086665	0.11789	0.2186	0.12231	-2.6792	-3.475	-3.1646	-3.6917	-3.4396	-3.2146	-3.4896	-3.3208	-3.2	-3.6854	-3.3396	-3.425	-3.4104	-3.2021	-3.4458	-3.3479	56.941	62.832	104.122	200.078	146.276	323.149	223.548	329.287	116.008	232.408	264.286	300.923	57.521	287.324	76.101	250.775	0.00073356	0.00079566	0.00016884	730.29	3.8631e-06	4.6148e-06	834.29	282.97	7.5398e-06	7.3658e-06	398.94	177.91	118.46	63.543	4.2267e-06	107.51	0.00034119	0.00028026	7.9232e-05	692.23	3.3725e-06	3.0919e-06	783.41	268	3.4207e-06	2.9652e-06	374.53	167.07	111.57	59.489	3.1851e-06	100.31	99.638	22.051	101.594	-4.254	175.163	113.963	-4.586	0.462	86.708	158.010	-0.705	2.945	3.867	8.100	152.213	5.756	-8191	255	
2460.049	1	1	0	0	0.16725	0.1832	0.109	0.10785	0.43547	0.064151	0.27755	0.12924	0.11745	0.1664	0.31054	0.17539	0.1511	0.026306	0.093364	0.13142	-2.8792	-3.4979	-3.0833	-3.5812	-3.5729	-2.9604	-3.5917	-3.4333	-3.1688	-3.3979	-3.3646	-3.5229	-3.475	-3.3458	-3.4542	-3.575	264.025	304.426	71.097	1.771	0.937	311.782	171.746	337.606	27.825	294.036	308.560	282.171	48.614	89.180	31.907	280.964	0.00072476	0.00072624	0.00024483	733.73	3.3964e-06	6.2405e-06	829.6	283.34	2.2061e-06	4.344e-06	402.67	177.75	118.85	63.385	8.98e-06	107.7	0.00032801	0.00026883	8.3281e-05	694.1	3.1958e-06	3.0226e-06	785.38	268.52	3.2675e-06	2.8716e-06	377.74	167.31	111.89	59.63	3.4233e-06	100.4	108.959	73.522	103.017	-4.157	124.763	120.352	-4.872	0.536	226.806	163.726	-0.819	2.932	3.840	8.245	157.498	5.702	-8191	255	
2460.145	1	1	0	0	0.044495	0.2422	0.31017	0.063158	0.13866	0.075396	0.28349	0.19126	0.11945	0.094689	0.089009	0.42795	0.044791	0.13417	0.2489	0.26166	-2.6292	-3.6396	-3.0104	-3.5354	-3.3771	-3.0083	-3.5417	-3.5396	-3.25	-3.4688	-3.2292	-3.6458	-3.5354	-3.1792	-3.5542	-3.4313	109.084	86.711	83.038	217.950	133.936	330.486	305.563	228.711	264.178	164.440	266.678	319.810	129.238	303.497	306.956	212.641	0.00065468	0.00041262	0.00013437	734.78	4.0735e-06	5.2932e-06	831.48	286.38	5.7769e-06	5.5724e-06	404.49	179.83	120	64.073	9.1734e-06	108.7	0.00032277	0.00026514	9.0366e-05	695.31	3.0715e-06	3.0446e-06	788.13	270.55	3.2376e-06	2.9533e-06	380.15	168.86	112.68	60.333	3.6221e-06	101.33	103.115	49.932	63.344	-4.226	148.528	143.598	-4.819	0.675	65.819	169.763	-0.668	2.760	3.663	8.175	163.788	5.687	-8191	255	
2460.242	1	1	0	0	0.1125	0.22539	0.063597	0.29387	0.2397	0.14754	0.24967	0.22391	0.12484	0.12432	0.21008	0.19019	0.21486	0.1359	0.244	0.31868	-2.7917	-3.4062	-3.2979	-3.2313	-3.4	-3.0854	-3.4104	-3.4458	-3.0187	-3.575	-3.1729	-3.4479	-3.6	-3.3333	-3.375	-3.6521	172.948	328.376	96.737	0.587	292.016	104.436	328.617	305.771	237.212	34.703	271.180	280.042	51.202	341.474	243.458	304.991	0.00064522	0.00058942	0.00022909	732.75	5.6268e-06	3.9045e-06	834.51	284.09	3.9114e-06	7.7461e-06	402.94	179.04	118.26	63.806	7.0524e-06	108.26	0.00031949	0.00027617	9.4527e-05	694.29	2.9796e-06	3.1683e-06	788.19	268.25	3.1109e-06	3.151e-06	378.05	167.76	111.65	60.073	3.682e-06	101.08	105.947	81.346	56.224	-4.120	69.999	164.086	-4.971	0.481	157.909	184.614	-0.724	2.971	4.070	8.122	153.228	5.935	-8191	255	
2460.338	1	1	0	0	0.22794	0.13284	0.3178	0.22124	0.008639	0.29964	0.28088	0.20733	0.21505	0.054909	0.28313	0.28046	0.25388	0.33011	0.076035	0.15293	-2.6312	-3.4125	-3.1458	-3.3292	-3.6646	-3.0812	-3.7042	-3.4396	-3.0062	-3.6042	-3.425	-3.2208	-3.4625	-3.4271	-3.225	-3.6333	135.746	77.508	272.438	38.426	282.591	18.228	239.672	293.960	240.017	332.838	334.315	322.154	313.461	326.297	147.147	289.886	0.00064275	0.00087396	0.00025661	735.99	6.7674e-06	4.4107e-06	836.32	284.88	6.2111e-06	6.2863e-06	402.3	179.94	120.02	63.971	2.0515e-06	107.98	0.00030779	0.00030216	9.3027e-05	693.59	2.9286e-06	3.4388e-06	787.98	268.29	3.0564e-06	3.4349e-06	378.09	168.49	112.39	60.224	3.5985e-06	100.77	102.331	89.859	60.345	-4.194	130.190	132.280	-4.814	0.543	68.581	159.747	-0.816	3.001	4.094	7.961	74.337	5.604	-8191	255	
2460.434	1	1	0	0	0.23628	0.16664	0.18915	0.16234	0.049994	0.21182	0.1077	0.33093	0.085777	0.14678	0.095737	0.19418	0.26481	0.071114	0.22267	0.21825	-2.6521	-3.4854	-3.1333	-3.0958	-3.5646	-3.0896	-3.3875	-3.5354	-3.0125	-3.5625	-3.4646	-3.2208	-3.5146	-3.325	-3.1833	-3.7479	22.126	73.635	260.618	8.147	13.145	54.120	179.607	259.128	284.964	303.688	121.643	226.483	76.894	320.179	305.086	207.076	0.00072202	0.00053955	8.9117e-05	733.62	2.61e-06	7.4345e-06	828.09	282.81	9.2227e-07	3.0688e-06	398.44	176.6	117.89	63.02	4.2298e-06	107.12	0.00030313	0.00031908	8.767e-05	691.07	2.8955e-06	3.5817e-06	783.43	266.44	3.0396e-06	3.5568e-06	374.41	165.77	111.07	59.494	3.297e-06	99.607	106.471	63.432	47.043	-4.159	174.802	90.080	-4.817	0.461	51.767	159.764	-0.910	2.834	4.109	8.126	86.605	5.895	-8191	255	
2460.553	1	1	0	0	0.30562	0.18127	0.22374	0.24279	0.076862	0.14909	0.030109	0.31305	0.30447	0.062968	0.14792	0.11717	0.29843	0.20245	0.15085	0.22972	-2.6708	-3.3583	-3.2812	-3.0396	-3.5042	-3	-3.2771	-3.7167	-2.9771	-3.4917	-3.6583	-3.1063	-3.5812	-3.4938	-3.2042	-3.6375	322.847	291.691	314.414	317.655	191.935	222.890	304.262	329.617	90.228	253.721	279.476	19.215	311.558	324.307	201.531	233.336	0.00065368	0.00066635	9.3529e-05	731.32	8.3921e-06	6.5067e-06	831.21	283.26	6.261e-06	3.5068e-06	400.89	177.13	117.99	62.297	2.0398e-06	105.95	0.0003149	0.00033214	8.0842e-05	691.43	3.0912e-06	3.6473e-06	784.38	267.18	3.2433e-06	3.5578e-06	374.75	165.86	111.13	58.78	3.2756e-06	98.804	103.732	72.888	-1.282	-4.174	158.161	113.887	-4.775	0.563	146.147	166.735	-0.632	2.924	3.956	8.188	83.508	5.668	-8191	255	
2460.649	1	1	0	0	0.19459	0.12862	0.076891	0.2113	0.082335	0.095271	0.17	0.21988	0.12571	0.1398	0.18666	0.15905	0.11087	0.081239	0.25593	0.23173	-2.7167	-3.25	-3.4958	-3.1813	-3.3521	-3.3771	-3.2375	-3.6042	-3.1396	-3.2938	-3.6167	-3.2562	-3.4208	-3.425	-3.0438	-3.5646	316.486	62.732	320.056	-6.822	-4.754	195.209	-7.909	295.407	272.208	196.715	265.229	262.391	312.443	89.350	49.270	311.513	0.00065248	0.0009935	9.7529e-05	736.31	5.5925e-06	5.7782e-06	841.13	283.31	7.3997e-06	8.0159e-06	399.14	175.36	116.74	61.199	2.3589e-06	105.19	0.0003332	0.00032188	7.7958e-05	694.89	3.3388e-06	3.4702e-06	790.22	267.09	3.4891e-06	3.3864e-06	375.3	164.84	110.25	57.561	3.1231e-06	98.08	106.473	65.028	54.240	-4.288	154.647	84.386	-4.968	0.438	169.184	70.870	-0.585	3.118	4.059	8.220	156.736	6.123	-8191	255	
2460.722	1	1	0	0	0.017321	0.21943	0.23375	0.15931	0.19587	0.15893	0.13284	0.28392	0.096035	0.080662	0.073118	0.22856	0.23876	0.26753	0.13969	0.37195	-2.8438	-3.2583	-3.3979	-3.2	-3.2708	-3.3417	-3.3021	-3.6125	-3.1083	-3.25	-3.6521	-3.1729	-3.5583	-3.3708	-3.0417	-3.5604	148.480	95.704	151.741	324.504	46.003	131.496	55.316	317.682	44.528	263.360	334.622	302.907	299.043	293.929	127.903	303.154	0.00065407	0.00074365	0.00011251	736.92	4.8863e-06	7.9459e-06	836.74	286.81	3.6932e-06	2.4593e-06	400.07	177.01	117.15	61.717	2.7148e-06	105.48	0.00034502	0.00031116	7.6759e-05	697.74	3.5161e-06	3.2648e-06	790.19	268.08	3.6067e-06	3.3356e-06	375.37	165.68	110.54	58.006	3.0088e-06	98.352	100.961	59.362	-0.608	-4.319	141.575	74.174	-4.905	0.382	105.123	48.819	-0.806	3.055	4.182	8.294	146.079	5.942	-8191	255	
2460.841	1	1	0	0	0.14717	0.090045	0.10769	0.1888	0.1104	0.27727	0.37742	0.11717	0.14304	0.20322	0.023499	0.46207	0.2125	0.071675	0.09558	0.057554	-3.0229	-3.0687	-3.4292	-3.275	-3.3583	-3.3479	-3.0854	-3.6333	-3.1854	-3.25	-3.6	-3.3479	-3.2313	-3.7021	-3.1896	-3.7104	14.218	172.503	259.982	229.342	199.940	198.754	210.200	275.022	115.087	100.577	185.099	-17.129	-2.915	-6.385	-2.859	255.360	0.00058973	0.00095399	0.0001791	733.96	3.4037e-06	8.2909e-06	827.35	281.09	8.2678e-06	2.2928e-06	395.66	175.17	116.76	61.664	2.0243e-06	105.2	0.00035225	0.00029487	7.3823e-05	692.93	3.5752e-06	3.1967e-06	780.15	266.02	3.5559e-06	3.2148e-06	370.64	164.67	110.15	57.976	2.9521e-06	98.118	106.600	46.803	87.019	-4.210	133.979	126.715	-4.569	0.579	115.430	37.598	-0.961	2.859	4.285	8.229	73.773	5.819	-8191	255	
2460.937	1	1	0	0	0.24427	0.034733	0.16872	0.22858	0.23774	0.10294	0.058557	0.080222	0.10417	0.1069	0.12336	0.13753	0.3155	0.15935	0.24429	0.15774	-2.8917	-3.0542	-3.6521	-3.1854	-3.3229	-3.2792	-3.275	-3.4938	-3.4958	-3.1021	-3.7917	-3.2188	-3.2667	-3.7375	-2.9604	-3.5312	160.206	10.795	176.544	303.943	38.287	24.107	316.467	235.737	329.897	154.271	295.073	273.810	261.801	285.509	301.173	296.437	0.00055185	0.0008911	0.0002757	736.94	6.786e-06	4.8895e-06	826.68	281.29	5.8424e-06	3.3357e-06	393.76	174.44	115.86	60.915	6.0547e-06	103.68	0.0003413	0.0002898	7.2821e-05	694.33	3.4782e-06	3.0485e-06	780.76	265.42	3.3835e-06	3.0869e-06	368.58	163.59	109.13	57.135	3.008e-06	96.778	111.998	83.663	83.606	-4.248	117.813	101.223	-4.710	0.745	114.541	178.085	-0.626	2.980	4.185	8.240	191.281	5.969	-8191	255	
2461.033	1	1	0	0	0.13349	0.075337	0.19303	0.18147	0.19934	0.12924	0.07906	0.14932	0.16547	0.13607	0.30901	0.022142	0.27749	0.21651	0.18014	0.10319	-2.8958	-3.1333	-3.6333	-3.1646	-3.2896	-3.4646	-3.1813	-3.5875	-3.3187	-3.0833	-3.5812	-3.4625	-3.2667	-3.5896	-3.1688	-3.6167	45.435	329.167	33.249	229.820	295.131	77.653	193.403	6.690	266.659	297.441	331.089	32.704	304.144	0.070	270.159	283.247	0.00060612	0.00084743	0.00012562	732.46	4.5981e-06	1.5833e-06	826.63	280.91	3.7852e-06	4.6817e-06	396.35	173.71	116.2	60.679	4.9665e-06	104.21	0.0003233	0.00028296	7.4595e-05	695.16	3.2555e-06	2.887e-06	781.41	265.11	3.2283e-06	3.042e-06	370.95	163.5	109.23	57.137	3.2836e-06	97.461	96.045	77.337	104.156	-4.451	130.418	65.328	-4.702	0.658	158.556	52.190	-0.537	3.118	4.110	8.194	151.690	6.129	-8191	255	
2461.130	1	1	0	0	0.076969	0.32138	0.2635	0.094998	0.22086	0.063691	0.11184	0.18336	0.28556	0.16463	0.30645	0.1465	0.24537	0.56361	0.095909	0.46011	-3.0125	-2.825	-3.4792	-3.4167	-3.2729	-3.4708	-3.35	-3.3563	-3.45	-2.8333	-3.5167	-3.4708	-3.2062	-3.6625	-3.1792	-3.2333	177.565	229.656	36.961	23.584	117.123	-8.121	44.107	304.680	92.911	197.288	283.196	314.607	253.415	306.008	43.996	308.660	0.00065606	0.00069164	0.00024309	737.5	1.8558e-06	5.7463e-07	825.72	281.28	4.3421e-06	7.3809e-06	394.58	173.02	114.48	60.017	2.3608e-06	102.87	0.00031296	0.00027149	8.3817e-05	697.6	3.1718e-06	2.8417e-06	783.49	265.34	3.1233e-06	2.937e-06	370.69	162.17	108.31	56.21	3.5153e-06	95.99	100.517	41.096	86.374	-4.252	88.974	122.404	-4.474	0.785	114.675	163.251	-0.490	3.043	3.873	8.424	144.161	5.942	-8191	255	
2461.250	1	1	0	0	0.10276	0.27409	0.18246	0.18274	0.089335	0.31044	0.2722	0.26759	0.24037	0.12581	0.080484	0.11092	0.17909	0.22663	0.26823	0.33891	-3.1	-3.0146	-3.7354	-3.2917	-3.2958	-3.575	-3.3833	-3.4625	-3.425	-3.1125	-3.4083	-3.5104	-3.2125	-3.7479	-3.3812	-3.4688	162.829	195.952	46.203	-16.334	125.865	71.668	337.908	282.740	178.505	4.954	236.956	321.859	81.012	-17.089	30.697	285.683	0.00061728	0.00041002	0.00017087	736.75	4.3865e-06	8.244e-06	827.69	283.68	5.9607e-06	3.4545e-06	397.96	173.87	116.18	60.376	6.6225e-06	103.51	0.00030589	0.0002724	8.938e-05	697.49	3.096e-06	2.9215e-06	784.85	266.73	3.0611e-06	3.1053e-06	373.39	163.25	109.26	56.759	3.6643e-06	96.679	97.700	68.557	80.900	-4.405	91.305	128.821	-4.538	0.619	137.936	127.594	-0.551	3.138	4.006	8.286	138.033	6.020	-8191	255	
2461.346	1	1	0	0	0.27241	0.13756	0.085556	0.18723	0.30425	0.29672	0.21135	0.20999	0.12468	0.097311	0.071714	0.17457	0.1103	0.067021	0.1645	0.21496	-3.0708	-3.2729	-3.3208	-3.6104	-3.2375	-3.625	-3.5062	-3.2667	-3.6958	-3.0604	-3.5646	-3.5833	-3.1792	-3.6479	-3.3146	-3.3667	142.007	124.197	-13.555	310.799	174.243	249.723	243.437	251.864	2.584	265.409	247.040	334.690	198.497	292.370	-7.464	237.707	0.00069581	0.00042187	7.6968e-05	734.9	3.7363e-06	9.8389e-06	832.04	282.85	6.8844e-06	8.069e-06	396.13	174.39	115.94	60.414	4.5284e-06	104.26	0.00029892	0.00029539	9.2689e-05	696.26	3.0698e-06	3.0849e-06	786.82	266.57	2.8876e-06	3.2471e-06	373.59	163.66	109.06	56.939	3.6695e-06	97.127	105.549	43.698	242.039	-4.156	110.109	120.083	-4.811	0.679	109.119	144.620	-0.741	3.077	4.102	8.160	115.129	6.050	-8191	255	
2461.443	1	1	0	0	0.14971	0.34282	0.11047	0.035732	0.12299	0.15864	0.12307	0.099704	0.3323	0.18745	0.27123	0.11417	0.037732	0.37451	0.31094	0.28833	-3.3042	-3.0333	-3.2958	-3.5479	-2.8896	-3.5604	-3.3563	-3.1188	-3.7104	-3.2938	-3.5542	-3.6417	-3.0979	-3.6813	-3.2833	-3.4396	66.396	333.396	-5.850	114.144	115.268	164.046	271.140	294.629	53.511	302.202	304.397	70.608	291.564	308.650	323.419	278.861	0.00064791	0.00045092	0.00022093	736.35	3.6214e-06	1.0457e-05	836.18	282.56	4.4549e-06	7.6296e-06	400.19	175.32	116.44	60.595	3.9696e-06	103.76	0.00029029	0.00031458	9.2694e-05	694.25	3.0236e-06	3.4993e-06	788.66	267.26	2.8989e-06	3.5579e-06	375.43	164.23	109.69	57.153	3.457e-06	96.903	103.013	69.916	91.121	-4.288	137.505	135.463	-4.835	0.850	157.783	144.342	-0.795	2.703	4.169	8.328	179.063	6.125	-8191	255	
2461.539	1	1	0	0	0.17022	0.39621	0.21792	0.26243	0.089823	0.17698	0.10166	0.23562	0.12366	0.087309	0.22049	0.10169	0.082237	0.1043	0.0748	0.30233	-3.1667	-3.125	-3.0354	-3.5417	-3.0708	-3.6271	-3.4688	-3.1708	-3.4604	-3.2458	-3.3917	-3.4125	-3.1292	-3.55	-3.3271	-3.2521	117.337	196.240	63.311	277.504	233.734	24.286	69.531	274.883	11.418	78.392	314.762	77.017	34.067	235.457	72.199	315.531	0.00073187	0.00044873	0.00014778	736.56	3.1413e-06	4.72e-06	827.77	280.24	5.5082e-06	4.3105e-06	391.21	172.29	114.52	59.511	6.5495e-06	101.69	0.0002996	0.00033234	8.6633e-05	693.93	3.0719e-06	3.6143e-06	782.15	263.76	3.0345e-06	3.6465e-06	368.62	160.97	107.76	55.951	3.2177e-06	95.004	100.980	73.602	47.916	-4.598	96.171	156.443	-4.797	0.649	197.620	92.739	-0.816	3.154	4.084	8.266	150.865	6.017	-8191	255	
2461.633	1	1	0	0	0.2658	0.35299	0.26755	0.10562	0.20032	0.10565	0.20064	0.32524	0.11316	0.10336	0.18262	0.1429	0.092851	0.16699	0.19809	0.30111	-3.3167	-3.2042	-3.0521	-3.4188	-3.1625	-3.3042	-3.6479	-3.1167	-3.6333	-3.1312	-3.3417	-3.5958	-3.3312	-3.4771	-3.5729	-3.3937	143.729	110.811	232.990	224.897	-15.957	173.500	1.992	-13.711	151.360	39.973	23.794	-6.676	269.349	329.410	73.154	322.138	0.00057145	0.00019547	0.00011102	733.42	6.6651e-06	6.9351e-06	821.04	279.51	6.9254e-06	8.3424e-06	393.05	171.94	115.67	59.837	3.3379e-06	102.63	0.00031397	0.00032958	8.3116e-05	689.62	3.2872e-06	3.6283e-06	776.45	263.09	3.2475e-06	3.5433e-06	367.93	161.18	108.5	56.475	3.185e-06	95.767	101.176	-16.566	69.852	-4.458	155.913	120.329	-4.829	0.289	132.683	157.826	-0.912	3.033	4.083	8.477	83.715	6.150	-8191	255	
2461.729	1	1	0	0	0.10464	0.15233	0.34291	0.20258	0.44171	0.065159	0.18131	0.23283	0.05811	0.15675	0.42688	0.13319	0.33103	0.047552	0.13196	0.16445	-3.0375	-3.2667	-3.0146	-3.525	-3.1979	-3.3083	-3.5667	-3.2875	-3.3542	-3.4437	-3.3521	-3.6979	-3.0417	-3.5187	-3.3104	-3.375	302.224	184.692	268.948	279.682	131.679	61.298	83.937	265.441	84.525	102.612	269.914	15.636	331.184	300.105	75.347	184.853	0.00066224	0.00083336	0.00011354	735.61	4.1854e-06	4.3954e-06	827.42	281.05	7.9838e-06	9.472e-06	395.49	173.54	115.62	59.745	2.9303e-06	103.48	0.00033924	0.00032136	8.1731e-05	692.61	3.5377e-06	3.4779e-06	780.98	264.36	3.5669e-06	3.3901e-06	370.66	162.5	109.18	56.273	3.0456e-06	96.266	114.740	56.710	44.863	-4.261	142.888	118.833	-4.658	0.603	128.560	167.573	-0.611	3.278	4.216	8.285	115.595	5.937	-8191	255	
2461.850	1	1	0	0	0.19092	0.17512	0.046405	0.27864	0.047534	0.18018	0.060962	0.072715	0.10733	0.26017	0.16358	0.023101	0.10462	0.37896	0.096856	0.22679	-3.0563	-3.075	-3.1333	-3.4604	-3.2417	-3.25	-3.6271	-3.2062	-3.3771	-3.4729	-3.2	-3.5687	-3.1104	-3.4771	-3.4646	-3.4729	336.250	124.767	193.785	285.677	3.263	125.109	321.504	266.247	69.293	181.227	331.351	74.291	194.261	-6.219	232.671	279.214	0.00067492	0.00040935	0.00011861	739.01	5.7464e-06	4.7418e-06	836.95	285.07	8.5096e-06	6.5165e-06	403.89	175.39	116.13	60.557	3.5563e-06	104.42	0.00035805	0.00030426	7.9239e-05	696.61	3.663e-06	3.4156e-06	788.18	268.06	3.6662e-06	3.3128e-06	376.33	164.69	109.96	56.956	2.9667e-06	97.354	102.723	54.033	37.706	-3.998	152.699	53.474	-4.567	0.946	129.980	125.053	-0.670	2.961	4.268	8.294	110.372	6.084	-8191	255	
2461.946	1	1	0	0	0.17402	0.12246	0.096684	0.26293	0.10696	0.17405	0.11477	0.10156	0.18975	0.03741	0.22356	0.27339	0.047712	0.31575	0.025488	0.23848	-2.9313	-3.4146	-3.1167	-3.5604	-3.4208	-3.2313	-3.7229	-3.1292	-3.3375	-3.3542	-3.2125	-3.4917	-3.1271	-3.175	-3.5417	-3.2333	284.309	211.733	292.315	293.786	255.018	140.254	69.978	314.726	-11.385	136.047	306.379	340.187	134.158	280.571	212.080	287.778	0.00065896	0.00076559	0.00011323	736.37	5.5282e-06	8.5393e-06	831.31	283.98	6.5369e-06	9.5936e-06	401.89	176.68	118.07	61.601	5.6195e-06	105.17	0.00035342	0.00029569	7.8214e-05	696.39	3.5975e-06	3.2417e-06	785.22	268.67	3.5542e-06	3.123e-06	376.01	166.38	110.86	57.788	2.9358e-06	98.357	106.047	71.525	78.692	-4.245	165.226	109.333	-4.963	0.706	89.525	130.267	-0.640	3.122	4.011	8.288	136.921	6.066	-8191	255	
2462.018	1	1	0	0	0.12607	0.18859	0.12935	0.21986	0.26325	0.11999	0.32313	0.17884	0.35088	0.063174	0.21003	0.21036	0.10708	0.61006	0.21841	0.10216	-2.8479	-3.425	-3.0687	-3.5125	-3.35	-3.3208	-3.6146	-3.325	-3.4083	-3.4208	-3.2104	-3.4167	-3.5375	-3.3125	-3.5479	-3.325	232.148	48.561	149.360	-16.675	159.938	159.560	74.577	221.854	331.162	231.505	269.837	296.711	33.263	300.300	328.095	226.453	0.00064494	0.00067752	0.00022801	735.15	6.1088e-06	5.6024e-06	837.86	286.71	4.4008e-06	2.6737e-06	404.45	177.5	117.32	61.368	6.9287e-06	105.03	0.00035111	0.00028408	7.7856e-05	697.75	3.4123e-06	3.1952e-06	789.19	270.41	3.4155e-06	3.013e-06	377.84	166.54	110.83	57.603	3.1148e-06	98.066	93.861	57.960	88.495	-4.235	90.066	75.526	-4.701	0.568	122.876	149.388	-0.675	2.749	3.969	8.363	214.368	5.828	-8191	255	
2462.114	1	1	0	0	0.17085	0.13633	0.13689	0.095089	0.16519	0.17025	0.14413	0.10761	0.11166	0.15559	0.068041	0.18665	0.23746	0.21059	0.074284	0.076132	-2.8438	-3.5062	-3.0667	-3.5208	-3.4646	-3.0521	-3.5833	-3.2812	-3.1708	-3.5604	-3.1042	-3.5125	-3.3958	-3.1688	-3.5417	-3.3625	337.602	162.108	198.368	312.211	139.439	145.617	322.762	323.181	191.623	272.365	41.240	301.911	191.836	209.027	145.466	272.222	0.0005671	0.00019383	0.00017641	738.07	4.5237e-06	6.2215e-06	833.79	284.91	4.9591e-06	6.2437e-06	399.08	176.57	116.16	60.676	5.7989e-06	104.17	0.00032722	0.00027384	8.1316e-05	698.69	3.2594e-06	3.0471e-06	787.08	268.09	3.3257e-06	2.9088e-06	374.71	165.19	109.63	57.018	3.3656e-06	97.431	102.465	84.890	124.496	-4.019	89.691	108.752	-4.775	0.835	95.673	114.880	-0.740	3.020	4.057	8.215	181.367	6.015	-8191	255	
2462.210	1	1	0	0	0.12654	0.060405	0.27841	0.054269	0.093222	0.18577	0.16913	0.22321	0.23998	0.17701	0.10847	0.32275	0.16809	0.073678	0.035318	0.14758	-2.6688	-3.6292	-3.0708	-3.5833	-3.4771	-3.2771	-3.5875	-3.5479	-3.2479	-3.4854	-3.4167	-3.4479	-3.4375	-3.3229	-3.3292	-3.5	82.769	4.034	189.707	73.021	60.021	136.082	222.109	245.917	211.914	31.343	258.733	318.668	60.292	128.860	249.777	341.476	0.00065765	0.00062082	5.0828e-05	738.34	6.5812e-06	7.4428e-06	834.03	285.07	6.5815e-06	9.8066e-06	398.99	175.98	116.45	60.737	2.7025e-06	104.47	0.00031988	0.0002637	8.7628e-05	697.17	3.1115e-06	3.0308e-06	789.71	267.78	3.1701e-06	2.9229e-06	375.61	165.22	109.58	57.074	3.5772e-06	97.314	97.455	70.426	65.844	-4.319	136.101	119.837	-4.601	0.564	142.463	151.135	-0.920	3.017	4.081	8.096	135.669	5.934	-8191	255	
2462.331	1	1	0	0	0.20468	0.040618	0.047553	0.2726	0.15601	0.23769	0.10804	0.16787	0.45	0.19138	0.035444	0.27939	0.16226	0.17878	0.20934	0.27369	-2.6583	-3.5563	-3.1375	-3.4625	-3.5875	-3	-3.7479	-3.3771	-3.1562	-3.4542	-3.3396	-3.2583	-3.7229	-3.2583	-3.4417	-3.6375	187.590	241.865	6.482	289.685	287.291	34.543	219.074	123.440	251.621	265.208	305.017	330.738	139.898	260.527	40.000	252.926	0.00072084	0.00034812	0.00022795	739.52	5.462e-06	5.9446e-06	827.61	282.59	2.5905e-06	6.3622e-06	398.86	174.91	116.4	60.284	5.6571e-06	103.86	0.00031255	0.00026977	9.209e-05	697.58	2.9935e-06	3.1094e-06	787.01	267.09	3.1116e-06	3.0457e-06	375.32	164.22	109.35	56.814	3.7196e-06	96.915	100.801	66.963	95.379	-4.170	109.767	111.217	-4.599	0.583	117.243	169.845	-0.622	2.992	4.047	8.536	153.023	6.138	-8191	255	
2462.427	1	1	0	0	0.10552	0.24884	0.13573	0.11133	0.22434	0.13027	0.096099	0.26648	0.14948	0.13071	0.12115	0.23105	0.18174	0.18952	0.030295	0.14061	-2.7812	-3.5354	-3.0687	-3.3937	-3.7021	-3.1792	-3.5729	-3.4896	-3.1104	-3.4042	-3.4354	-3.2562	-3.5208	-3.3646	-3.4125	-3.8271	22.434	129.580	52.241	299.189	15.675	269.663	42.799	90.446	28.754	156.458	251.961	312.247	339.963	-7.556	267.609	213.236	0.00058618	0.00035889	0.00019502	733.47	6.0584e-06	5.9621e-06	838.41	283.57	6.2522e-06	6.7663e-06	401.03	175.54	116.35	60.37	2.6993e-06	104.33	0.00031048	0.00029588	9.3918e-05	694.89	2.9675e-06	3.3675e-06	792.06	267.9	3.0518e-06	3.3416e-06	377.02	164.92	109.42	56.998	3.6228e-06	97.246	107.690	56.465	79.865	-4.421	123.586	162.143	-4.668	0.310	83.259	161.206	-0.864	3.043	4.002	8.455	76.776	6.016	-8191	255	
2462.523	1	1	0	0	0.19929	0.15417	0.12876	0.18642	0.14522	0.042219	0.1049	0.23932	0.24985	0.058737	0.076517	0.097613	0.33774	0.094134	0.21074	0.24615	-2.7021	-3.6562	-3.1708	-3.225	-3.4833	-3.1188	-3.4208	-3.6625	-3.0667	-3.3729	-3.6021	-3.2854	-3.7188	-3.2938	-3.3042	-3.6688	210.914	135.662	211.398	75.890	-1.358	131.485	124.452	252.269	215.121	75.995	292.752	300.452	-5.755	7.548	27.488	10.777	0.00070014	0.00037876	0.0002861	736.98	2.5293e-06	2.584e-06	839.73	285.47	4.4826e-06	5.9584e-06	401.87	175.33	116.49	60.123	1.9956e-06	103.66	0.00030662	0.00032078	8.9785e-05	696.93	2.9185e-06	3.5908e-06	792.98	267.66	3.1213e-06	3.5756e-06	376.25	164.38	109.26	56.674	3.4543e-06	96.625	105.958	74.699	67.551	-4.326	162.105	105.622	-4.684	0.494	182.021	154.551	-0.858	3.163	3.966	8.342	214.219	5.982	-8191	255	
2462.642	1	1	0	0	0.08132	0.037322	0.22627	0.13339	0.32675	0.091509	0.25642	0.2244	0.015866	0.16294	0.078828	0.21164	0.29852	0.4366	0.20199	0.14693	-2.6958	-3.45	-3.325	-3.2354	-3.5479	-3.2729	-3.4	-3.5375	-3.0854	-3.3542	-3.4813	-3.2479	-3.7208	-3.2833	-3.2646	-3.6021	255.540	32.343	266.035	176.942	222.470	208.758	271.677	323.211	8.764	281.466	127.530	-1.655	321.972	310.042	118.429	254.398	0.00065963	0.00051205	0.00016589	732.65	6.0246e-06	5.5909e-06	828.64	279.96	6.469e-06	1.9674e-06	393.75	171.93	114.8	59.672	2.8294e-06	102.53	0.00031078	0.00033483	8.618e-05	693.69	3.0591e-06	3.7264e-06	784.74	263.82	3.2788e-06	3.7555e-06	369.66	161.76	108.15	56.342	3.3889e-06	95.549	94.529	62.031	9.573	-4.321	134.141	108.124	-4.863	0.628	199.251	61.366	-0.661	2.840	4.099	8.309	159.524	5.810	-8191	255	
2462.713	1	1	0	0	0.11635	0.058755	0.11129	0.19133	0.091891	0.20177	0.16052	0.074641	0.1947	0.12651	0.15574	0.19465	0.068951	0.23332	0.18034	0.11551	-2.7479	-3.3021	-3.3604	-3.2604	-3.5458	-3.3521	-3.1396	-3.5542	-3.0542	-3.2583	-3.5854	-3.1833	-3.6292	-3.3958	-3.2687	-3.6542	312.304	55.483	308.475	300.400	318.291	119.949	259.880	272.946	135.843	289.332	327.698	316.403	36.529	-7.234	18.117	284.823	0.0006747	0.0005156	0.00021608	730.3	6.2656e-06	6.7848e-06	821.85	278.1	2.8963e-06	8.0782e-06	390.28	171.39	114.68	59.364	2.1246e-06	101.6	0.00034224	0.00034157	8.2214e-05	687.59	3.3711e-06	3.6272e-06	777.24	262.29	3.5866e-06	3.6596e-06	366.46	160.37	107.89	55.908	3.2379e-06	94.72	105.870	32.115	13.484	-4.479	154.354	109.244	-4.692	0.440	-7.976	196.746	-0.553	2.940	4.187	8.377	154.310	5.773	-8191	255	
2462.811	1	1	0	0	0.17253	0.13237	0.14268	0.18155	0.28184	0.025829	0.15407	0.23584	0.055373	0.16606	0.14846	0.22285	0.21545	0.098811	0.13032	0.22831	-2.925	-3.0062	-3.5458	-3.1125	-3.4792	-3.2917	-3.2417	-3.7667	-3.1521	-3.3667	-3.5521	-3.3125	-3.5396	-3.5438	-3.2146	-3.7083	53.594	338.553	-12.548	257.386	161.951	195.682	275.258	273.249	238.518	27.472	317.456	331.376	147.193	340.015	204.105	289.539	0.00068672	0.00042211	0.00018231	728.95	1.1326e-05	5.2297e-06	823.92	277.97	6.5164e-06	2.2995e-06	394.26	172.29	115.04	59.908	6.4587e-06	103.18	0.00034743	0.00032131	7.9245e-05	687.84	3.5844e-06	3.3775e-06	775.77	262.24	3.6701e-06	3.4527e-06	368.07	162.14	108.5	56.339	3.1822e-06	96.198	104.295	51.924	21.656	-4.487	145.020	112.642	-4.827	0.626	144.924	184.972	-0.877	3.256	4.126	8.381	158.439	6.056	-8191	255	
2462.930	1	1	0	0	0.09427	0.062999	0.1544	0.27835	0.16385	0.11884	0.16371	0.12191	0.12355	0.27231	0.23064	0.10985	0.087496	0.19492	0.17472	0.18734	-2.875	-3.2438	-3.5521	-3.1542	-3.4292	-3.5458	-3.3042	-3.7708	-3.3271	-3.2958	-3.5417	-3.2062	-3.4521	-3.6333	-3.2354	-3.6688	183.190	301.509	37.724	6.927	15.100	322.774	247.862	258.506	-4.649	185.089	326.986	328.137	-4.675	326.467	279.264	271.343	0.00068762	0.00041233	0.00021565	731.88	5.2476e-07	6.475e-06	831.69	281.07	4.6637e-06	1.091e-06	396.13	172.34	114.71	58.951	2.5879e-06	101.45	0.00036481	0.00031177	7.8728e-05	693.15	3.7332e-06	3.3126e-06	784.41	264.98	3.7294e-06	3.3564e-06	369.96	162.25	108.41	55.47	3.0718e-06	94.808	112.877	70.323	41.951	-4.283	99.248	65.794	-4.648	0.690	36.121	74.853	-0.880	3.112	4.200	8.454	165.766	6.246	-8191	255	
2463.026	1	1	0	0	0.11584	0.18997	0.10615	0.1243	0.18709	0.094115	0.010159	0.1179	0.0040059	0.066354	0.14731	0.27628	0.13464	0.16139	0.1355	0.22121	-2.9375	-3.3688	-3.8	-3.3063	-3.4813	-3.425	-3.3187	-3.65	-3.4042	-3.2458	-3.7667	-3.1917	-3.525	-3.45	-3.2417	-3.6354	80.544	51.758	296.078	284.684	296.974	183.090	53.149	77.833	31.577	262.436	-6.525	336.062	327.323	340.486	213.026	279.208	0.00056016	0.00029923	0.00015037	736.62	7.1575e-06	2.8638e-06	830.06	279.18	6.5461e-06	9.4617e-06	390.24	169.27	112.88	57.759	3.5639e-06	99.718	0.00035645	0.00029803	7.3215e-05	698.25	3.5737e-06	3.1036e-06	782.59	262.99	3.5182e-06	3.1685e-06	365.78	159.39	106.69	54.295	3.0797e-06	93.236	99.694	331.869	122.249	-4.544	95.330	117.516	-4.627	0.711	132.395	142.255	-0.695	2.830	4.149	8.527	163.385	6.253	-8191	255	
2463.123	1	1	0	0	0.23166	0.027758	0.22032	0.25959	0.22688	0.20302	0.087664	0.12577	0.30489	0.21172	0.10787	0.15785	0.36837	0.28755	0.092401	0.043561	-3.1542	-3.025	-3.4958	-3.25	-3.2958	-3.5792	-3.125	-3.6	-3.2833	-3.2625	-3.6375	-3.2146	-3.1979	-3.6771	-3.2625	-3.6312	323.371	0.255	9.204	313.472	194.139	310.874	10.761	332.856	153.277	221.158	340.289	-17.390	23.053	307.634	211.842	0.203	0.00063022	0.00027698	0.00022922	734.22	5.9088e-06	3.2187e-06	825.31	277.92	3.6986e-06	5.6282e-06	387.47	168.86	113.11	58.397	5.5524e-06	100.73	0.00033466	0.0002889	7.7433e-05	695.39	3.4233e-06	3.0015e-06	776.06	262.2	3.3146e-06	3.149e-06	364.06	159.52	106.68	54.909	3.2689e-06	94.033	96.020	39.638	56.436	-3.864	117.862	109.931	-4.666	0.409	70.778	119.281	-0.844	2.919	4.174	8.437	138.912	5.981	-8191	255	
2463.243	1	1	0	0	0.079758	0.35188	0.22518	0.23794	0.056602	0.25841	0.11661	0.091909	0.10653	0.036062	0.2313	0.17824	0.040271	0.27532	0.25098	0.027405	-3.1063	-2.9042	-3.4729	-3.25	-3.225	-3.4958	-3.2917	-3.4313	-3.4729	-3.0146	-3.4562	-3.375	-2.9854	-3.7396	-3.0875	-3.7646	89.380	220.356	261.788	315.523	54.614	110.095	221.372	241.687	114.558	180.929	269.779	291.489	64.405	254.837	307.561	251.246	0.00061538	0.00029071	7.7177e-05	726.93	4.9776e-06	2.8983e-06	818.42	278.91	4.7939e-06	4.8688e-06	391.9	169.92	113.29	58.695	6.2122e-06	100.99	0.00032387	0.00027995	8.1631e-05	691.19	3.319e-06	2.9174e-06	774.96	262.51	3.2027e-06	3.0366e-06	366.38	160.19	106.92	55.171	3.4933e-06	94.387	109.401	67.502	67.192	-4.163	114.459	99.566	-4.628	0.832	142.792	116.673	-0.836	3.074	4.348	8.376	116.600	6.046	-8191	255	
2463.315	1	1	0	0	0.24803	0.053987	0.21317	0.079374	0.10077	0.16268	0.21844	0.31955	0.29355	0.2036	0.14481	0.12982	0.19912	0.137	0.1805	0.15334	-2.9417	-3.1167	-3.5271	-3.2208	-3.2021	-3.5271	-3.3083	-3.6271	-3.4333	-3.2562	-3.5979	-3.4271	-3.4167	-3.4688	-3.2292	-3.3542	40.619	156.642	232.872	115.864	98.518	130.349	12.165	294.954	114.076	246.601	298.540	236.614	149.144	71.992	2.592	270.661	0.00058483	0.00047133	0.00017469	730.13	4.247e-06	5.1979e-06	823.41	277.67	2.5133e-06	8.4412e-06	391.9	170.6	113.37	58.57	4.5149e-06	101.75	0.00030928	0.00027465	8.8334e-05	692.11	3.1736e-06	2.9141e-06	780.43	263.05	3.0402e-06	3.0273e-06	367.42	160.67	106.7	55.133	3.6849e-06	94.716	109.741	78.515	90.419	-4.101	169.746	101.015	-4.611	0.380	38.530	103.884	-0.708	3.195	4.096	8.501	93.991	5.739	-8191	255	
2463.411	1	1	0	0	0.083657	0.10145	0.12757	0.24798	0.048707	0.38072	0.18462	0.043265	0.26656	0.14441	0.051253	0.06345	0.052454	0.1743	0.14436	0.17741	-3.2	-3.2	-3.4479	-3.3479	-3.1729	-3.4583	-3.5187	-3.2229	-3.6708	-3.1437	-3.3167	-3.6854	-3.2417	-3.5563	-3.3729	-3.4604	181.876	235.240	5.594	332.327	75.307	222.742	274.323	340.163	179.893	54.778	325.648	256.685	335.202	37.557	279.372	299.417	0.00061063	0.00072689	0.00012225	727.9	5.1554e-06	3.6932e-06	826.85	278.53	2.3346e-06	6.4685e-06	390.41	168.96	112.69	58.235	4.7837e-06	100.99	0.0002976	0.00028277	9.2796e-05	690.45	3.0747e-06	3.0707e-06	780.02	262.17	2.9949e-06	3.1964e-06	365.62	159.04	106.5	54.948	3.653e-06	93.906	102.005	100.631	67.534	-4.062	130.798	157.246	-4.840	0.735	162.071	154.609	-0.699	3.090	3.951	8.614	140.241	5.995	-8191	255	
2463.532	1	1	0	0	0.13854	0.25707	0.15137	0.65458	0.21863	0.073745	0.13363	0.26816	0.067273	0.15387	0.15533	0.083253	0.10677	0.26631	0.22376	0.31231	-3.0438	-3.1271	-3.1937	-3.4625	-2.9917	-3.7	-3.4542	-3.2458	-3.6188	-3.2375	-3.5208	-3.5542	-3.0958	-3.5667	-3.3271	-3.3771	70.098	-13.230	108.592	219.343	258.828	168.742	336.395	320.669	268.848	275.889	40.982	304.205	294.563	-14.668	218.871	278.077	0.00051909	0.00056784	0.00013826	729.3	2.5327e-06	3.2275e-06	823.12	278.92	3.3418e-06	4.421e-06	389.38	170.02	113.22	58.672	5.5816e-06	101.07	0.0002922	0.00030498	9.4781e-05	689.07	3.0754e-06	3.3569e-06	776.46	262.03	2.9216e-06	3.5126e-06	366.81	159.9	106.82	55.247	3.4942e-06	94.428	102.962	86.638	66.314	-4.365	82.461	113.453	-4.729	0.689	70.683	168.503	-0.821	2.830	4.194	8.433	91.660	5.989	-8191	255	
2463.626	1	1	0	0	0.098267	0.16571	0.10836	0.12425	0.14382	0.13079	0.070292	0.06061	0.063623	0.049183	0.31612	0.29803	0.21567	0.29598	0.084297	0.10231	-3.0833	-3.125	-3.3042	-3.5833	-2.9667	-3.6604	-3.4188	-3.0208	-3.6375	-3.2833	-3.2313	-3.5979	-3.3125	-3.4292	-3.4521	-3.3146	17.065	-15.533	11.614	0.355	7.775	42.757	249.964	278.443	269.123	46.094	332.555	258.987	-6.832	274.257	175.147	-12.497	0.00064071	0.00063812	3.9035e-05	729.59	5.9684e-06	9.7443e-06	826.86	280.53	3.4938e-06	2.9623e-06	393.36	171.54	113.22	58.457	1.89e-06	101.36	0.00029572	0.0003301	8.9101e-05	691.24	3.0886e-06	3.6482e-06	781.18	264.07	2.9596e-06	3.67e-06	368.33	160.65	106.78	55.197	3.3529e-06	94.371	106.284	59.784	7.706	-4.201	149.673	146.090	-4.628	0.728	135.692	80.057	-0.440	3.320	4.480	8.595	234.968	6.094	-8191	255	
2463.722	1	1	0	0	0.093551	0.08294	0.053026	0.025712	0.19024	0.073919	0.090986	0.16834	0.27034	0.23517	0.22068	0.050935	0.094474	0.23978	0.17548	0.13342	-3.3438	-3.2833	-3.3917	-3.6479	-3.1937	-3.2854	-3.55	-3.2042	-3.7188	-3.325	-3.2917	-3.6104	-3.4021	-3.5125	-3.4313	-3.1813	190.085	-7.371	274.022	89.539	88.424	114.922	7.655	238.429	49.658	132.660	303.421	226.785	323.016	271.648	223.965	315.423	0.00066991	0.00096931	0.00018109	733.43	4.9267e-06	2.2829e-06	832.36	278.23	6.2617e-06	5.636e-06	392.29	171.29	114.01	58.975	3.2426e-06	101.52	0.00030906	0.00033948	8.5325e-05	691.08	3.2792e-06	3.6994e-06	783.82	262.51	3.2528e-06	3.7245e-06	368.08	160.33	107.28	55.419	3.2668e-06	94.827	107.269	31.908	51.887	-4.176	171.812	-2.547	-4.858	0.435	133.398	166.891	-0.639	3.202	4.136	8.517	124.415	6.029	-8191	255	
2463.818	1	1	0	0	0.27339	0.13595	0.35143	0.17725	0.16652	0.10753	0.27054	0.31267	0.15694	0.040657	0.30814	0.1892	0.11522	0.18346	0.23982	0.29372	-2.9688	-3.2021	-2.9625	-3.5292	-3.1542	-3.4271	-3.55	-3.3875	-3.3187	-3.3458	-3.3479	-3.6604	-3.2354	-3.6521	-3.4875	-3.3563	82.056	137.367	31.673	327.457	314.069	110.155	235.291	261.047	155.381	1.473	314.288	300.949	309.737	33.309	202.186	241.046	0.0006755	0.00059871	0.00012503	730.14	3.4324e-06	4.8209e-06	814.79	277.32	5.7961e-06	4.7635e-06	389.65	171.08	113.86	59.211	4.1359e-06	101.45	0.00033826	0.0003326	8.3267e-05	687.62	3.5301e-06	3.6507e-06	774.11	261.67	3.5661e-06	3.5947e-06	365.45	160.2	107.58	55.742	3.1864e-06	94.533	108.488	72.783	79.316	-4.468	192.427	135.328	-4.389	0.726	194.697	127.421	-0.464	2.953	4.169	8.244	154.389	6.087	-8191	255	
2463.892	1	1	0	0	0.12841	0.14298	0.25037	0.22775	0.18994	0.16855	0.38385	0.1443	0.16952	0.26445	0.18714	0.17276	0.4584	0.30983	0.1204	0.038233	-2.9667	-3.375	-3.0417	-3.5792	-3.1583	-3.2229	-3.6312	-3.1792	-3.65	-3.4688	-3.2875	-3.7083	-3.1979	-3.3958	-3.5708	-3.2354	11.165	106.978	333.653	4.730	245.046	119.924	301.419	286.060	323.319	190.935	342.706	299.061	-2.662	269.373	144.265	-9.632	0.00070204	0.00048085	0.00014508	728.31	5.282e-06	2.4117e-06	817.91	277.08	1.3344e-06	4.6435e-06	391.37	171.1	113.99	58.943	2.2137e-06	101.57	0.0003536	0.00031306	8.1074e-05	686.85	3.7445e-06	3.4665e-06	774.25	261.52	3.7308e-06	3.4424e-06	365.35	160.64	107.61	55.472	3.0346e-06	94.583	102.378	120.858	140.097	-4.271	154.581	96.730	-4.473	0.722	58.851	118.612	-0.604	3.112	4.085	8.654	111.811	6.093	-8191	255	
2464.011	1	1	0	0	0.14468	0.31804	0.278	0.069522	0.005634	0.06804	0.204	0.31309	0.10151	0.26543	0.1738	0.13395	0.33499	0.3955	0.19064	0.11315	-3.0167	-3.3604	-3.0333	-3.5042	-3.2729	-3.2	-3.8104	-3.1854	-3.4979	-3.6458	-3.2604	-3.4979	-3.5312	-3.2646	-3.5771	-3.2333	277.044	289.527	141.774	79.021	250.534	16.258	122.733	237.646	2.855	156.892	291.302	274.369	336.818	308.564	203.311	255.199	0.00069372	0.00072449	0.000174	728.83	5.3516e-06	4.7657e-06	825.01	278.54	7.5892e-06	2.9701e-06	389.46	169.55	112.65	58.16	2.8347e-06	100.91	0.00036837	0.00030269	7.8925e-05	687.95	3.6914e-06	3.3219e-06	775.2	262.08	3.6382e-06	3.248e-06	364.27	159.56	106.48	54.708	2.9619e-06	94.054	99.923	56.000	82.498	-4.082	104.253	92.571	-4.653	0.443	86.355	63.584	-0.849	3.124	4.077	8.255	196.677	6.008	-8191	255	
2464.107	1	1	0	0	0.026842	0.38076	0.13378	0.21334	0.16578	0.11806	0.42979	0.12348	0.096888	0.33527	0.13425	0.13389	0.17332	0.055611	0.064629	0.12018	-2.9625	-3.3688	-3.0812	-3.7271	-3.0729	-3.2125	-3.5187	-3.1146	-3.3375	-3.3958	-3.3292	-3.4938	-3.3354	-3.3958	-3.4854	-3.325	313.071	177.869	338.517	198.614	-11.776	101.582	337.860	281.770	214.678	65.629	12.156	228.944	24.098	-11.729	165.110	215.708	0.0006151	0.00056507	0.00011889	729.31	2.325e-06	9.2176e-06	826	278.02	4.7239e-06	7.3196e-06	390.2	170.43	113.12	58.132	6.9135e-06	100.18	0.00035228	0.00028568	7.7027e-05	692.4	3.452e-06	3.1649e-06	777.87	262.31	3.4461e-06	3.0395e-06	365.45	160.39	106.73	54.746	2.9945e-06	93.847	103.506	38.469	73.961	-4.011	149.703	139.593	-4.651	0.896	51.107	123.853	-0.614	3.067	4.116	8.488	212.554	5.902	-8191	255	
2464.203	1	1	0	0	0.13121	0.090397	0.18891	0.16794	0.16336	0.12063	0.20634	0.097911	0.20057	0.26876	0.1694	0.34257	0.11259	0.14322	0.16026	0.15085	-2.8604	-3.3646	-3.1562	-3.5625	-3.325	-3.3	-3.7792	-3.2875	-3.3042	-3.4646	-3.2354	-3.4521	-3.5375	-3.3021	-3.5229	-3.5667	-7.277	236.531	17.527	306.053	251.930	30.844	268.573	5.733	116.091	109.727	305.394	325.302	295.010	281.703	273.570	326.509	0.00061649	0.00071555	0.00013389	725.11	3.168e-06	9.5725e-06	819.75	276.06	5.2038e-06	2.916e-06	387.54	168.78	112.42	57.317	4.7304e-06	99.654	0.00033939	0.00027531	7.8483e-05	689.61	3.2677e-06	3.091e-06	772.84	261.44	3.3234e-06	2.9612e-06	363.43	158.75	105.97	54.158	3.2685e-06	93.022	104.292	34.997	132.729	-3.944	110.428	113.030	-4.565	0.582	82.732	93.744	-0.931	3.301	4.017	8.439	157.726	6.177	-8191	255	
2464.324	1	1	0	0	0.14292	0.065338	0.12365	0.37776	0.10916	0.23273	0.12888	0.22859	0.16144	0.18138	0.25447	0.18129	0.16584	0.18192	0.026196	0.27806	-2.6437	-3.5396	-3.0667	-3.5417	-3.4375	-3.0104	-3.8646	-3.4875	-3.1146	-3.6417	-3.2479	-3.5333	-3.3229	-3.2812	-3.6479	-3.4167	319.812	148.258	332.660	319.039	279.847	136.259	317.455	303.485	283.727	197.594	284.892	19.482	4.687	301.246	329.869	302.700	0.00071956	0.00063755	0.0001585	730.67	4.8888e-06	6.2085e-06	818.07	276.34	1.7986e-06	3.9664e-06	387.09	166.96	111.46	57.321	2.6155e-06	99.179	0.00032187	0.00026697	8.6543e-05	690.57	3.2095e-06	3.044e-06	773.62	260.18	3.3082e-06	2.9086e-06	362.54	157.75	105.29	53.885	3.5445e-06	92.62	97.555	69.720	94.430	-4.078	119.024	122.356	-4.687	0.720	224.245	129.390	-0.515	2.743	4.006	8.508	221.982	6.073	-8191	255	
2464.420	1	1	0	0	0.16376	0.16147	0.10704	0.082237	0.16873	0.27176	0.071017	0.24815	0.097729	0.055642	0.10318	0.15994	0.16119	0.22863	0.044994	0.39905	-2.7583	-3.5312	-3.1688	-3.3958	-3.4542	-2.9333	-3.6458	-3.3729	-3.1271	-3.6854	-3.3146	-3.4542	-3.4958	-3.3354	-3.5667	-3.3958	99.948	336.684	258.656	41.106	195.746	323.270	318.167	214.798	4.578	12.832	198.187	264.058	5.372	316.664	6.561	259.613	0.0006194	0.00026307	0.00022895	732.2	6.6796e-06	3.79e-06	818.29	275.93	4.7787e-06	6.9676e-06	387.26	169.27	111.99	57.174	2.2975e-06	99.845	0.00032059	0.00026969	9.4189e-05	691.07	3.0658e-06	3.1249e-06	776.64	260.8	3.215e-06	3.0094e-06	365.22	158.66	105.76	53.986	3.7093e-06	92.961	101.176	70.755	46.222	-4.279	148.893	117.180	-4.541	0.508	83.522	164.620	-0.533	3.122	4.411	8.390	209.705	6.137	-8191	255	
2464.514	1	1	0	0	0.24214	0.14513	0.10773	0.31977	0.20308	0.076995	0.276	0.069806	0.14425	0.28624	0.091305	0.292	0.17837	0.34454	0.07267	0.042353	-2.6	-3.5875	-3.1021	-3.3792	-3.4146	-3.0417	-3.6	-3.5187	-3.1458	-3.5563	-3.2771	-3.3917	-3.5854	-3.2062	-3.4646	-3.4708	171.339	327.623	145.037	273.105	174.301	65.266	278.761	228.506	153.542	92.532	284.330	261.746	134.496	332.731	310.052	227.221	0.00057841	0.00050321	0.00015615	730.5	7.2182e-06	6.4246e-06	825.73	276.57	4.5864e-06	9.4668e-06	388.35	168.15	112.29	57.002	2.3146e-06	98.774	0.00031023	0.00028506	9.6527e-05	692.07	3.0196e-06	3.3002e-06	779.47	260.86	3.1203e-06	3.2536e-06	364.1	157.93	105.32	53.76	3.7382e-06	92.245	100.133	95.854	66.752	-4.038	118.174	131.974	-4.836	0.902	109.089	147.723	-0.602	3.220	4.206	8.673	178.008	6.163	-8191	255	
2464.612	1	1	0	0	0.18395	0.27942	0.064055	0.23971	0.20304	0.11917	0.38038	0.06554	0.08105	0.16868	0.2274	0.19406	0.19303	0.13525	0.12465	0.21208	-2.6542	-3.4604	-3.1604	-3.2062	-3.4083	-3.1063	-3.5917	-3.3979	-3.1437	-3.6333	-3.2896	-3.0729	-3.5812	-3.4813	-3.2396	-3.4646	248.811	115.853	337.302	276.558	328.057	230.077	311.105	139.844	235.545	159.820	332.527	168.231	278.602	2.799	36.324	276.167	0.00057234	0.00065918	0.00020482	729.91	5.9555e-06	7.0876e-06	813.69	273.78	3.8856e-06	3.2344e-06	384.3	167.16	111.49	57.05	4.1423e-06	98.338	0.00030588	0.0003143	9.4165e-05	689.27	3.0195e-06	3.6534e-06	772.36	258.81	3.1119e-06	3.6179e-06	361.26	157	105.11	53.922	3.6568e-06	92.09	106.732	98.255	7.268	-4.237	131.644	142.586	-4.602	0.609	131.715	158.070	-0.616	2.878	4.351	8.289	169.564	6.208	-8191	255	
2464.706	1	1	0	0	0.10724	0.04073	0.13388	0.28914	0.045183	0.088401	0.24372	0.11995	0.19432	0.095945	0.14612	0.030925	0.10948	0.303	0.25729	0.16178	-2.6354	-3.4271	-3.2229	-3.1354	-3.4521	-3.3646	-3.3979	-3.7438	-2.9813	-3.3396	-3.5479	-3.1958	-3.7042	-3.3292	-3.2938	-3.5479	96.037	23.524	263.482	251.551	280.001	39.648	242.304	276.604	191.323	326.518	321.723	210.877	337.106	297.622	205.689	310.706	0.00071758	0.00043014	8.5124e-05	727.08	3.6628e-06	5.4406e-06	818.56	274.81	1.0635e-05	4.1746e-06	382.16	167.15	111.87	57.012	5.3274e-06	98.627	0.0003121	0.00034369	9.051e-05	686.26	3.0481e-06	3.792e-06	771.2	257.85	3.2622e-06	3.855e-06	360.16	156.85	105.46	53.868	3.5069e-06	92.114	99.210	52.782	69.711	-4.104	145.381	104.792	-4.739	0.670	142.562	139.159	-0.840	3.072	4.164	8.432	161.757	6.024	-8191	255	
2464.803	1	1	0	0	0.16414	0.18687	0.11001	0.14977	0.20414	0.01981	0.31579	0.083397	0.17101	0.29861	0.15589	0.18143	0.16886	0.12751	0.12972	0.26279	-2.875	-3.1958	-3.4958	-3.0542	-3.5229	-3.3063	-3.1521	-3.6	-3.2271	-3.2938	-3.65	-3.1979	-3.5917	-3.3146	-3.0042	-3.7062	287.084	-8.533	323.140	111.676	119.099	1.097	234.283	153.585	42.972	292.336	300.023	-4.869	314.556	34.490	-0.193	257.629	0.00061147	0.00071987	0.00012686	728.58	8.0481e-06	5.4721e-06	818.39	274.2	8.1577e-06	3.7713e-06	385.61	167.46	112.25	57.11	6.2426e-06	99.306	0.00033533	0.00035077	8.563e-05	686.35	3.337e-06	3.8197e-06	773.03	258.7	3.5423e-06	3.8419e-06	362.35	157.53	105.79	53.966	3.3741e-06	92.386	106.504	82.000	65.154	-4.491	154.555	144.680	-4.795	0.725	110.048	158.129	-0.970	2.788	3.958	8.559	132.922	6.159	-8191	255	
2464.923	1	1	0	0	0.053579	0.1599	0.12334	0.28414	0.12056	0.086913	0.070193	0.095005	0.096637	0.061192	0.1948	0.090436	0.24568	0.2476	0.16363	0.32869	-2.625	-3.3021	-3.3792	-3.0396	-3.55	-3.3208	-3.1854	-3.5833	-3.1604	-3.1063	-3.6708	-3.2042	-3.4604	-3.3396	-3.0375	-3.5708	19.942	296.152	22.669	268.529	-8.886	307.327	267.980	261.533	279.272	131.453	102.587	-14.513	184.615	281.889	341.540	300.466	0.00060311	0.00080188	0.00015094	727.07	2.1279e-06	4.1917e-06	816.42	275.78	6.6754e-06	5.7041e-06	387.8	167.52	111.93	57.23	5.907e-07	99.224	0.00035519	0.000336	8.2085e-05	686.98	3.5853e-06	3.6146e-06	772.86	259.78	3.7377e-06	3.6274e-06	362.18	157.57	105.88	54.037	3.2664e-06	92.539	98.328	41.792	76.797	-4.066	249.791	105.766	-4.637	0.832	134.108	125.429	-0.737	3.157	4.162	8.591	38.989	6.015	-8191	255	
2465.019	1	1	0	0	0.22622	0.3195	0.095147	0.13788	0.30481	0.03244	0.153	0.31886	0.4206	0.2656	0.13606	0.15451	0.17974	0.11972	0.11761	0.18454	-2.9125	-2.9917	-3.2729	-3.1646	-3.1646	-3.3104	-3.2062	-3.5958	-3.1333	-3.2583	-3.5354	-3.2875	-3.4396	-3.5729	-2.95	-3.6104	167.710	-6.924	178.115	23.464	80.275	205.444	293.781	313.940	307.946	268.103	291.849	262.532	240.561	57.897	102.131	71.639	0.0005992	0.00035365	0.00019202	725.05	5.3692e-06	4.2968e-06	816.62	277.57	3.4641e-06	5.43e-06	388.07	169.97	113.28	58.063	4.7616e-06	99.885	0.00036424	0.00031751	7.8529e-05	686.7	3.7388e-06	3.4034e-06	769.92	261.37	3.8149e-06	3.4461e-06	364.1	159.36	106.91	54.673	3.1791e-06	93.231	102.323	21.775	43.184	-3.885	153.145	72.547	-4.556	0.216	191.058	104.487	-0.497	2.917	4.167	8.437	178.583	6.071	-8191	255	
2465.115	1	1	0	0	0.10803	0.18101	0.038506	0.07232	0.08795	0.14488	0.11373	0.12995	0.19231	0.22955	0.17765	0.15308	0.13595	0.20584	0.15408	0.31098	-2.8667	-3.0375	-3.3021	-3.4042	-3.2979	-3.4688	-3.1375	-3.6667	-3.2333	-3.4042	-3.6396	-3.1021	-3.5854	-3.575	-2.9417	-3.5729	-14.731	248.713	149.135	202.164	300.604	100.698	249.819	252.929	157.252	231.793	11.329	52.914	326.905	302.733	159.555	287.316	0.00057485	0.00074922	0.00026633	728.67	1.2753e-06	6.4311e-06	820.16	277.77	6.1831e-06	6.2167e-06	390.5	170.5	113.78	58.369	4.9055e-06	101.29	0.00036847	0.00030853	7.6898e-05	689.4	3.8048e-06	3.2898e-06	773.92	262.95	3.7155e-06	3.3628e-06	366.99	160.54	107.4	55.019	3.121e-06	94.359	100.580	125.284	74.961	-4.352	256.781	114.709	-4.582	0.621	178.420	140.496	-0.874	3.010	4.181	8.332	149.348	6.103	-8191	255	
2465.187	1	1	0	0	0.10793	0.34701	0.20732	0.16154	0.22842	0.012244	0.29069	0.35464	0.065505	0.076439	0.11506	0.43139	0.049049	0.35393	0.11699	0.072101	-2.9083	-3.1667	-3.6792	-3.2583	-3.5083	-3.4229	-3.1	-3.5563	-3.4	-3.0479	-3.5417	-3.2771	-3.5771	-3.5417	-3.1229	-3.6625	50.411	61.436	108.811	174.568	114.047	17.395	243.045	319.000	158.511	122.410	205.678	305.085	49.422	273.040	204.165	285.347	0.00066077	0.00044281	7.6167e-05	730.59	3.3023e-06	6.6478e-06	830.03	280.78	6.3243e-06	6.3158e-06	394.4	171.15	114.05	58.374	3.6067e-06	100.75	0.00035246	0.00029529	7.6397e-05	693.77	3.5819e-06	3.1131e-06	783.39	265.29	3.5153e-06	3.2824e-06	369.57	161.36	107.47	54.748	3.2606e-06	93.986	98.883	23.167	45.414	-4.130	155.851	120.719	-4.409	0.764	103.310	58.266	-0.690	2.936	4.304	8.578	149.939	6.206	-8191	255	
2465.308	1	1	0	0	0.18618	0.071135	0.070525	0.032987	0.31737	0.20827	0.074704	0.16804	0.1276	0.2615	0.36396	0.18597	0.30866	0.068174	0.13219	0.22595	-2.7271	-3.0208	-3.3979	-3.2833	-3.1146	-3.3667	-3.2438	-3.45	-3.6396	-3.2729	-3.4917	-3.5417	-3.2979	-3.5771	-3.1562	-3.4833	273.020	186.830	215.385	31.112	136.497	216.731	332.706	-2.828	-15.370	40.726	291.270	135.782	260.387	39.526	310.622	342.006	0.00059662	0.00058947	0.00011478	730.96	8.4759e-06	5.3575e-06	822.95	277.16	9.0724e-06	5.6619e-06	389.05	169.52	113.39	57.782	1.3902e-06	99.656	0.00033195	0.00029091	8.0667e-05	694.08	3.4328e-06	2.9914e-06	776.3	263.12	3.2946e-06	3.164e-06	365.57	159.76	106.47	54.392	3.588e-06	93.117	103.298	45.788	87.404	-4.137	147.323	109.845	-4.745	0.651	112.688	135.316	-0.690	2.890	4.128	8.648	137.739	6.205	-8191	255	
2465.404	1	1	0	0	0.02948	0.09043	0.20827	0.072539	0.37041	0.18864	0.19699	0.079645	0.23185	0.055812	0.29181	0.36354	0.12259	0.24605	0.23276	0.14262	-2.8125	-3.0875	-3.3604	-3.1875	-3.2229	-3.6292	-3.0917	-3.4792	-3.7146	-2.9104	-3.5167	-3.4896	-3.175	-3.7792	-3.2042	-3.3854	221.751	18.236	23.025	141.012	102.413	111.834	290.580	240.529	147.198	333.048	327.104	218.853	99.349	9.327	335.657	147.288	0.00061211	0.00075961	0.00016754	728.49	2.8952e-06	1.8843e-06	820.56	277.61	4.3262e-06	3.0528e-06	390.66	169.15	113.21	57.655	5.3163e-06	99.334	0.0003253	0.00028507	9.0705e-05	690.98	3.3511e-06	3.0312e-06	774.77	262.16	3.2524e-06	3.111e-06	366.09	158.9	106.46	54.33	3.7706e-06	93.02	99.196	62.110	106.859	-3.984	192.001	158.894	-4.727	0.740	152.764	73.216	-0.917	3.038	4.412	8.414	179.977	6.158	-8191	255	
2465.500	1	1	0	0	0.18184	0.2095	0.043328	0.23659	0.20556	0.18901	0.093192	0.21963	0.28089	0.1517	0.11171	0.1325	0.087626	0.17093	0.36925	0.21488	-3.1188	-3.0521	-3.4688	-3.6021	-3.0708	-3.5938	-3.1875	-3.5042	-3.3958	-3.0458	-3.5083	-3.5083	-3.1625	-3.6896	-3.4333	-3.2833	-7.905	314.968	13.822	263.616	243.127	74.724	116.429	305.173	190.649	333.185	251.268	241.871	138.212	270.062	107.296	324.714	0.00054209	0.00055658	0.0002646	727.78	5.4479e-06	7.2155e-06	822.87	278.08	4.2677e-06	5.3805e-06	390.9	168.75	113.55	57.633	4.4749e-06	100.05	0.00031887	0.00028936	9.5567e-05	689.3	3.2303e-06	3.0878e-06	777.9	262.28	3.1168e-06	3.244e-06	367.09	159.02	106.45	54.375	3.8462e-06	93.376	91.022	68.004	111.527	-4.214	118.140	153.695	-4.703	0.529	44.564	172.706	-0.680	3.008	4.275	8.612	154.525	6.194	-8191	255	
2465.594	1	1	0	0	0.15723	0.10906	0.25174	0.23602	0.070086	0.24538	0.16735	0.11972	0.34684	0.21491	0.21246	0.26927	0.18753	0.09884	0.19239	0.24813	-3.1271	-3.075	-3.1896	-3.4313	-2.9958	-3.5833	-3.3458	-3.3271	-3.2583	-3.1521	-3.4021	-3.4375	-3.1667	-3.7521	-3.0271	-3.3063	125.849	151.331	-9.735	-13.566	325.348	78.060	219.213	5.091	165.276	237.558	297.384	278.807	97.457	258.537	116.006	258.320	0.00065069	0.00022384	0.00015499	729.03	5.0893e-06	3.9306e-06	825.57	277.29	6.0093e-06	6.0011e-06	391.92	169.59	112.74	57.54	2.102e-06	99.597	0.00030708	0.00030397	9.7415e-05	689.3	3.0842e-06	3.3735e-06	779.83	262.09	3.0482e-06	3.5135e-06	367.87	159.07	106.44	54.318	3.7076e-06	93.117	100.374	105.422	68.112	-4.127	132.939	102.477	-4.495	0.863	144.669	173.344	-0.524	3.101	4.258	8.582	116.889	6.204	-8191	255	
2465.715	1	1	0	0	0.086508	0.11418	0.10263	0.29681	0.36897	0.28539	0.1318	0.14127	0.2173	0.080473	0.19773	0.11385	0.13641	0.094197	0.079434	0.27711	-3	-3.1896	-3.2375	-3.5812	-3.0729	-3.5896	-3.5833	-3.1771	-3.4021	-3.1917	-3.4708	-3.4688	-3.0646	-3.4521	-3.2958	-3.2354	340.517	268.000	140.480	301.845	145.491	55.648	273.383	147.143	-13.208	298.893	303.962	132.260	65.047	55.468	172.195	287.482	0.00063362	0.00071431	0.00020181	727.89	3.9487e-06	4.0975e-06	816.18	277.11	6.0986e-06	1.8074e-06	389.53	169.18	113	57.729	1.9736e-06	99.211	0.00029891	0.00033008	9.4213e-05	686.87	3.0891e-06	3.6505e-06	775.6	261.61	3.0448e-06	3.737e-06	366.4	158.8	106.28	54.444	3.5457e-06	92.66	107.167	93.099	101.298	-4.431	121.011	94.758	-4.742	0.814	133.413	59.858	-0.652	2.844	4.592	8.492	222.013	6.210	-8191	255	
2465.811	1	1	0	0	0.19633	0.020992	0.11083	0.40389	0.22679	0.088698	0.26368	0.10943	0.27648	0.17463	0.10452	0.20935	0.29172	0.044898	0.17176	0.15791	-3.1146	-3.2354	-3.125	-3.2625	-3.0187	-3.3083	-3.3521	-3.0542	-3.5792	-3.2771	-3.4375	-3.5271	-3.1063	-3.5021	-3.2438	-3.3312	57.629	249.038	61.504	15.960	60.383	133.551	275.291	288.587	-15.215	324.625	280.086	28.275	336.879	279.322	63.577	270.596	0.00068212	0.00040336	5.5698e-05	732.67	3.3937e-06	7.5635e-06	821.11	277.79	1.0126e-05	7.0842e-06	390.53	168.81	112.19	57.535	5.5704e-06	98.998	0.0003144	0.00034513	9.0145e-05	688.3	3.2576e-06	3.8161e-06	774.21	261.31	3.2082e-06	3.8435e-06	364.65	158.04	105.96	54.158	3.3483e-06	92.329	104.341	89.288	89.456	-4.394	139.340	146.936	-4.348	0.359	158.457	87.565	-0.678	3.080	4.143	8.626	128.553	6.319	-8191	255	
2465.883	1	1	0	0	0.11117	0.034747	0.18682	0.034958	0.050543	0.11796	0.1401	0.19927	0.048223	0.14476	0.42859	0.062047	0.099164	0.24883	0.12273	0.18727	-3.0292	-3.0625	-3.1562	-3.525	-3.0979	-3.3438	-3.4958	-3.0604	-3.6042	-3.2313	-3.3625	-3.4417	-3.125	-3.4229	-3.4896	-3.1729	188.898	79.954	210.713	77.140	0.948	115.486	332.999	167.328	21.847	206.281	279.623	222.373	244.588	-14.931	41.332	275.847	0.00060063	0.00043809	0.00024229	731.57	3.127e-06	4.4022e-06	816.31	277.55	1.0235e-05	3.2295e-06	388.6	168.14	112.16	57.249	4.6738e-06	99.28	0.0003319	0.00034449	8.7205e-05	687.12	3.5366e-06	3.7654e-06	773.48	261.45	3.5379e-06	3.7634e-06	364.68	157.94	106.13	53.961	3.2721e-06	92.372	103.480	71.835	11.557	-3.907	93.005	128.011	-4.601	0.881	189.716	221.263	-0.898	3.219	4.226	8.431	117.206	6.327	-8191	255	
2466.004	1	1	0	0	0.084635	0.11635	0.15445	0.28391	0.061236	0.11411	0.12095	0.24883	0.21931	0.086966	0.13405	0.14043	0.10833	0.16294	0.08114	0.1044	-3.1562	-3.0854	-3.1396	-3.4938	-3.0583	-3.425	-3.4708	-3.2438	-3.575	-3.3854	-3.1979	-3.6896	-3.0854	-3.3229	-3.4271	-3.2125	24.114	41.850	267.974	286.966	-15.553	193.204	31.266	297.561	21.672	309.861	139.514	331.614	309.373	296.913	251.394	294.995	0.00060789	0.00086575	0.00022158	731.35	5.256e-06	7.6006e-06	821.85	277.54	8.8296e-06	3.1759e-06	390.12	169.9	112.85	57.618	2.5907e-06	99.545	0.00036241	0.00033319	8.4256e-05	689.11	3.7626e-06	3.5921e-06	774.81	261.42	3.7496e-06	3.5274e-06	366.26	159.41	106.73	54.286	3.1574e-06	92.902	108.425	92.249	35.239	-4.154	177.662	86.968	-4.780	0.919	96.095	104.205	-0.696	3.188	4.072	8.393	129.128	6.148	-8191	255	
2466.100	1	1	0	0	0.15945	0.091029	0.097756	0.20346	0.16048	0.068024	0.30472	0.10689	0.22337	0.055862	0.30913	0.16778	0.13859	0.206	0.1366	0.14533	-3.2188	-3.425	-3.1188	-3.6833	-3.3063	-3.3146	-3.5958	-3.325	-3.4	-3.3688	-3.275	-3.5979	-3.475	-3.2396	-3.5333	-3.2875	51.705	208.862	130.684	288.277	32.477	-10.604	250.317	222.357	74.624	-5.857	83.566	3.189	340.297	301.638	152.587	259.585	0.00068985	0.00043845	0.00015536	729.33	4.4987e-06	3.589e-06	819.17	278.52	2.3482e-06	4.446e-06	388.8	169.03	111.92	56.901	3.3015e-06	98.51	0.00036536	0.00031105	8.1625e-05	689.47	3.8355e-06	3.4727e-06	772.4	262.21	3.8028e-06	3.3086e-06	364.03	158.34	106.03	53.699	3.0255e-06	91.957	104.315	30.512	53.106	-4.376	86.180	77.813	-4.434	1.149	106.247	180.963	-0.650	3.410	4.451	8.372	167.327	6.129	-8191	255	
2466.196	1	1	0	0	0.15295	0.18368	0.23066	0.182	0.13684	0.10896	0.23441	0.10693	0.19518	0.18994	0.18831	0.23478	0.049937	0.16117	0.055878	0.11249	-2.8854	-3.5896	-2.9583	-3.4562	-3.2042	-3.0958	-3.7646	-3.0062	-3.4917	-3.5083	-2.9917	-3.4021	-3.4083	-3.2604	-3.5938	-3.3542	334.943	156.457	209.854	-6.940	187.686	316.845	3.085	325.493	272.870	276.430	248.949	292.046	60.345	290.638	173.567	-9.123	0.00050552	0.00017688	0.0001953	727.76	3.1754e-06	4.0179e-06	816.6	278.33	5.4035e-06	4.5246e-06	387.21	167.78	111.92	56.926	4.0825e-06	97.949	0.00036573	0.00029835	7.9761e-05	689.74	3.6409e-06	3.3484e-06	770.82	262.18	3.7176e-06	3.2093e-06	363.53	158.43	105.82	53.656	3.0624e-06	91.959	99.467	22.879	77.812	-4.148	86.307	148.807	-4.799	0.854	103.320	195.504	-0.563	3.459	4.020	8.436	196.761	5.915	-8191	255	
2466.292	1	1	0	0	0.24466	0.016536	0.13352	0.12174	0.15083	0.12042	0.23615	0.052178	0.16698	0.11469	0.14662	0.22242	0.18121	0.18128	0.15737	0.18861	-2.9146	-3.2417	-3.275	-3.4917	-3.3021	-3.0271	-3.5687	-3.2604	-3.1646	-3.675	-3.1396	-3.4458	-3.3312	-2.9792	-3.75	-3.4	61.874	78.333	313.609	-16.679	0.371	4.457	292.114	13.208	204.747	168.505	272.243	331.273	307.912	339.165	75.465	292.922	0.00053485	0.00062591	0.00013886	731.81	7.5726e-06	6.8634e-06	819.11	276.25	5.9476e-06	4.7092e-06	387.26	167.04	111.7	56.133	5.1781e-06	97.818	0.0003473	0.00028959	8.0763e-05	692.37	3.4781e-06	3.2411e-06	773.08	260.69	3.498e-06	3.0497e-06	362.43	157.18	105.03	52.933	3.2398e-06	91.133	94.903	93.734	122.072	-4.252	146.107	168.888	-4.691	0.948	54.404	146.804	-0.427	2.968	4.565	8.513	215.862	6.495	-8191	255	
2466.413	1	1	0	0	0.2315	0.13785	0.13784	0.18499	0.10504	0.065931	0.16123	0.15773	0.11616	0.13658	0.24398	0.10916	0.10779	0.20252	0.19698	0.4217	-2.8812	-3.5938	-3.0938	-3.5771	-3.5479	-2.9938	-3.7354	-3.0938	-3.2458	-3.5833	-3.1917	-3.3333	-3.7479	-3.1396	-3.4688	-3.4625	13.892	255.553	60.161	73.473	23.006	336.489	302.082	204.774	198.527	235.662	270.357	342.150	9.571	299.983	341.336	267.179	0.00070639	0.00045639	0.00015176	732.46	6.2336e-06	8.7086e-06	814.36	275.66	5.3127e-06	6.4262e-06	385.63	166.73	111.74	56.732	3.6065e-06	97.91	0.00033575	0.00027657	8.6537e-05	693.09	3.3701e-06	3.1278e-06	771.24	260.89	3.4172e-06	3.0351e-06	362.53	157.66	105.39	53.418	3.5655e-06	91.509	99.578	50.591	99.795	-4.308	132.459	84.133	-4.512	0.878	117.714	129.691	-0.828	3.020	4.192	8.585	141.735	6.226	-8191	255	
2466.484	1	1	0	0	0.10939	0.25342	0.03992	0.18044	0.067473	0.2166	0.03554	0.13917	0.051755	0.23762	0.25666	0.094836	0.1891	0.074316	0.043305	0.19477	-2.7667	-3.5833	-3.1333	-3.3833	-3.5125	-3.0792	-3.5563	-3.5083	-3.1375	-3.6292	-3.2542	-3.4146	-3.4396	-3.3375	-3.3604	-3.4729	112.132	181.803	41.971	340.845	268.918	146.422	105.466	262.302	111.144	325.263	312.198	179.182	-15.457	318.447	192.782	235.034	0.00055919	0.00026369	0.00011732	727.9	4.848e-06	5.2185e-06	817.53	274.45	5.9627e-06	5.902e-06	383.2	166.49	111.2	56.325	1.8592e-06	97.385	0.0003328	0.00027677	9.4695e-05	689.61	3.2582e-06	3.196e-06	771.04	259.01	3.311e-06	3.0459e-06	360.95	156.25	104.8	53.108	3.7647e-06	90.825	106.666	85.493	76.914	-4.135	115.544	126.837	-4.646	0.603	125.593	126.655	-0.595	3.253	4.337	8.715	111.901	6.288	-8191	255	
2466.605	1	1	0	0	0.27379	0.068356	0.13077	0.085699	0.19601	0.069526	0.1482	0.34076	0.35892	0.34087	0.14638	0.10629	0.085604	0.049747	0.13557	0.3363	-2.7667	-3.4292	-3.1646	-3.4437	-3.3354	-3.2667	-3.4083	-3.2062	-3.1271	-3.5146	-3.4188	-3.3625	-3.5625	-3.2938	-3.2396	-3.4	145.021	311.543	161.101	232.008	130.143	220.217	242.993	237.108	107.747	142.661	287.361	4.384	137.920	43.152	159.613	274.493	0.0005832	0.00040522	0.00014967	732.4	4.0277e-06	5.1474e-06	813.56	275.51	6.3909e-06	6.2384e-06	384.62	166.78	111.97	56.61	8.745e-06	97.83	0.0003227	0.00028843	9.6749e-05	690.71	3.0972e-06	3.3277e-06	771.38	259.48	3.2369e-06	3.2564e-06	362.61	157.12	105.08	53.385	3.8634e-06	91.29	110.277	57.892	64.897	-4.181	118.310	130.679	-4.692	0.744	98.431	137.196	-1.109	3.481	4.207	8.659	128.624	6.176	-8191	255	
2466.699	1	1	0	0	0.11607	0.066352	0.046112	0.19442	0.13017	0.074288	0.061989	0.17018	0.14494	0.12661	0.046771	0.10217	0.13651	0.2711	0.24634	0.1835	-2.7479	-3.3	-3.2958	-3.3896	-3.3812	-3.2146	-3.4583	-3.4333	-3.2479	-3.475	-3.5646	-3.475	-3.5458	-3.1479	-3.3229	-3.6792	249.236	166.692	244.971	275.510	156.656	26.375	25.563	57.457	204.645	98.733	78.585	322.983	277.147	-12.280	197.385	270.784	0.00053483	0.00048114	8.4828e-05	727.42	4.4773e-06	2.2769e-06	815.78	274.33	4.4925e-06	7.2531e-06	386.58	166.13	110.77	55.976	3.747e-07	97.319	0.000316	0.00031762	9.796e-05	688.42	3.0318e-06	3.6077e-06	774.83	259.13	3.1523e-06	3.6098e-06	362.35	156.65	104.74	53.095	3.7703e-06	90.666	96.882	104.363	113.035	-4.084	169.952	279.848	-4.716	0.971	137.868	169.560	-0.718	3.090	4.125	8.567	186.559	6.414	-8191	255	
2466.795	1	1	0	0	0.13323	0.034385	0.29124	0.086743	0.17775	0.15118	0.10579	0.12423	0.22891	0.1306	0.02769	0.26256	0.15044	0.094245	0.070983	0.19333	-2.6437	-3.5563	-3.3104	-3.2	-3.6875	-3.3458	-3.5812	-3.4646	-3.0104	-3.325	-3.2729	-3.3771	-3.4917	-3.1896	-3.3667	-3.5875	175.200	134.413	149.068	84.454	-9.874	230.301	287.887	301.059	6.650	129.712	15.980	291.706	11.668	2.075	221.892	305.689	0.00051761	0.00028345	0.00020828	730.59	1.4351e-06	2.4662e-06	813.15	275.84	6.704e-06	1.0135e-05	387.42	167.52	111.95	56.995	2.2853e-06	97.793	0.00031434	0.00033901	9.4192e-05	688.78	3.0748e-06	3.837e-06	772.15	259.74	3.2115e-06	3.8246e-06	363.71	157.42	105.66	53.707	3.5626e-06	91.361	99.819	94.966	73.037	-4.340	156.597	110.179	-4.384	0.762	134.589	148.214	-0.699	3.287	4.390	8.652	100.363	6.316	-8191	255	
2466.892	1	1	0	0	0.19005	0.12264	0.18653	0.32443	0.075943	0.19189	0.14376	0.4268	0.090245	0.10787	0.035251	0.17442	0.2946	0.13377	0.14215	0.22098	-2.7229	-3.3333	-3.1937	-3.0229	-3.5125	-3.1875	-3.2167	-3.5667	-3.2083	-3.5458	-3.4917	-3.15	-3.5708	-3.4667	-2.9708	-3.7354	309.023	79.717	186.184	250.262	223.888	275.669	10.777	262.656	125.180	164.316	48.662	244.544	299.541	297.683	200.081	10.432	0.00075283	0.00054469	0.00027317	730.24	3.9393e-06	6.2238e-06	818.02	276.48	6.2765e-06	8.699e-06	388.35	168.37	112.36	57.131	6.1253e-06	98.444	0.00032593	0.00035027	8.6981e-05	688.08	3.2589e-06	3.8755e-06	772.41	260.51	3.5137e-06	3.8273e-06	363.27	157.69	105.93	53.827	3.4251e-06	91.688	100.321	57.229	46.411	-3.992	113.845	122.530	-4.586	0.692	172.856	122.849	-0.648	3.188	4.318	8.489	108.204	6.073	-8191	255	
2467.012	1	1	0	0	0.14231	0.24838	0.20409	0.1508	0.12305	0.11973	0.13298	0.31277	0.12113	0.1419	0.12983	0.042439	0.22944	0.14438	0.038956	0.44529	-2.6396	-3.4354	-3.2333	-3.3083	-3.3833	-3.2208	-3.3354	-3.4604	-3.1083	-3.3646	-3.3396	-3.0687	-3.5375	-3.2979	-3.3083	-3.4229	275.968	182.168	316.170	45.109	274.308	-7.962	315.053	287.664	246.062	174.745	40.772	171.591	1.793	292.892	105.566	233.928	0.0006429	0.00037371	0.00017346	731.98	5.0341e-06	6.6766e-06	816.03	278.06	4.3156e-06	6.0178e-06	390.94	169.45	113.29	57.327	6.7006e-06	98.697	0.00034657	0.00034499	8.436e-05	690	3.5482e-06	3.7311e-06	773.97	261.46	3.7105e-06	3.6874e-06	365.9	158.9	106.69	54.014	3.3313e-06	92.294	107.110	46.330	7.583	-4.360	142.436	159.742	-4.715	0.669	141.710	116.246	-0.813	3.348	4.438	8.806	134.288	6.323	-8191	255	
2467.084	1	1	0	0	0.071826	0.13942	0.059459	0.17	0.26754	0.22434	0.097327	0.1474	0.23345	0.18748	0.17884	0.18473	0.32105	0.15461	0.12895	0.5694	-2.6917	-3.4833	-3.3563	-3.225	-3.3854	-3.2354	-3.2208	-3.5438	-3.3146	-3.2479	-3.7271	-3.3896	-3.6063	-3.4625	-3.0667	-3.7729	220.542	66.659	5.175	219.742	283.209	114.126	176.210	167.938	134.712	75.333	104.570	6.379	-15.982	338.949	54.823	267.812	0.00063226	0.0013173	0.00018541	732.22	7.3092e-06	2.6068e-06	821.67	277.91	1.0287e-05	4.3806e-06	393.4	169.26	112.52	56.985	6.2956e-06	98.35	0.00036701	0.00032849	8.076e-05	691.57	3.7701e-06	3.4946e-06	778.47	262.43	3.8497e-06	3.5185e-06	366.73	158.97	106.39	53.727	3.2914e-06	91.7	99.801	87.728	80.374	-4.185	152.077	48.824	-4.507	0.820	137.988	195.904	-0.538	3.139	4.376	8.743	126.583	6.263	-8191	255	
2467.180	1	1	0	0	0.109	0.12014	0.040234	0.23726	0.18613	0.16874	0.020308	0.090173	0.085743	0.25907	0.18962	0.14412	0.25528	0.47335	0.0032556	0.20595	-2.7521	-3.2438	-3.5104	-3.1146	-3.4104	-3.4062	-3.0979	-3.5958	-3.1917	-3.2812	-3.5938	-3.2875	-3.2687	-3.5708	-2.7979	-3.6208	143.910	186.118	-0.254	258.296	18.678	-9.267	22.229	190.117	304.789	257.137	333.841	317.906	217.061	325.343	104.096	304.525	0.00061724	0.00041466	0.0001983	727.36	1.8065e-06	8.0353e-06	818.02	275.65	6.8968e-06	8.0042e-06	386.4	165.58	110.84	56.65	4.0062e-06	97.247	0.00037363	0.00031765	7.8662e-05	690.87	3.8264e-06	3.348e-06	771.39	260.2	3.839e-06	3.4357e-06	360.77	156.34	105.33	53.212	3.2519e-06	90.845	95.601	-1.718	55.679	-4.047	12.676	116.940	-4.704	1.134	87.123	112.698	-0.539	3.215	4.204	8.612	131.777	6.067	-8191	255	
2467.276	1	1	0	0	0.101	0.14838	0.1253	0.083686	0.13698	0.12187	0.22791	0.25391	0.09659	0.18433	0.1437	0.3176	0.074972	0.3291	0.13965	0.30122	-2.7625	-3.2562	-3.5375	-3.1896	-3.2917	-3.5292	-3.1604	-3.6125	-3.2792	-3.2833	-3.5583	-3.4062	-3.4437	-3.7917	-3.0396	-3.5812	198.823	318.763	341.848	311.974	-9.413	155.232	322.141	311.990	77.616	171.403	0.245	293.677	86.045	260.581	337.444	256.779	0.00059268	0.00079684	1.4849e-05	730.09	3.2123e-06	2.8577e-06	814.59	274.47	1.7887e-06	2.6702e-06	387.73	167.62	112.72	57.223	5.591e-06	99.077	0.00036881	0.00031369	7.8221e-05	689.91	3.7549e-06	3.2674e-06	770.16	260.73	3.6848e-06	3.3808e-06	362.65	158.48	106.32	53.94	3.238e-06	92.608	102.513	92.560	43.293	-4.051	76.212	94.282	-4.492	0.692	131.625	69.623	-0.553	3.023	4.028	8.575	168.755	6.309	-8191	255	
2467.395	1	1	0	0	0.092782	0.25341	0.17227	0.18465	0.10709	0.1225	0.19132	0.21872	0.24498	0.17823	0.25658	0.28936	0.1163	0.19421	0.33764	0.26222	-2.9062	-3.2542	-3.5229	-3.3604	-3.4104	-3.4562	-3.4229	-3.325	-3.4292	-3.0563	-3.6896	-3.2333	-3.3833	-3.5958	-3.1063	-3.6917	236.181	60.549	300.231	166.363	267.640	78.685	243.055	255.169	250.609	95.847	286.765	39.573	238.906	265.929	111.486	342.440	0.00049307	0.00070179	0.00013605	729.72	6.6951e-06	6.7972e-06	820.8	278.54	6.4386e-06	7.2752e-06	392.93	170.07	113.38	57.603	2.863e-06	99.356	0.00034611	0.00030057	8.0826e-05	692.69	3.5407e-06	3.0948e-06	777.96	264.47	3.3583e-06	3.2189e-06	369.11	160.21	106.76	54.044	3.4079e-06	92.973	96.089	54.505	95.418	-4.186	121.067	102.471	-4.590	0.740	159.910	96.141	-0.603	3.323	4.420	8.555	245.164	6.345	-8191	255	
#DATA ENDS
