BOXY.EXE: ISS Imagent and Oximeter Data Acquisition Program Version 0.80
Ascii Record File

#ACQ INFORMATION
2  Detector Channels 
16  External MUX Channels 
1  Auxiliary Channels 
5000  Waveform (CCF) Frequency (Hz)
1  Waveforms Skipped 
30  Waveforms Averaged 
1  Cycles Averaged 
16  Acquisitions per Waveform 
10.0806  Updata Rate (Hz) 

#FILE INFORMATION
TRUE -- External MUX Channel results are PARSED.
FALSE -- AC DC and Phase are NOT grouped.
TRUE -- Companion Program Settings File CREATED.
FALSE -- AC data not excluded
FALSE -- DC data not excluded
FALSE -- Phase data not excluded
FALSE -- Auxillary Chn. data not excluded
Tab delimiters

#CALIBRATION STATE
TRUE -- Waveform Calibration Values APPLIED.


#AUX CALIBRATION VALUES
Val Type	aux-1	

Term	1.0000e+00	
Factor	0.0000e+00	


#WF CALIBRATION VALUES
A = Detector Channel
Val Type	A-AC1	A-AC2	A-AC3	A-AC4	A-AC5	A-AC6	A-AC7	A-AC8	A-AC9	A-AC10	A-AC11	A-AC12	A-AC13	A-AC14	A-AC15	A-AC16	A-DC1	A-DC2	A-DC3	A-DC4	A-DC5	A-DC6	A-DC7	A-DC8	A-DC9	A-DC10	A-DC11	A-DC12	A-DC13	A-DC14	A-DC15	A-DC16	A-Ph1	A-Ph2	A-Ph3	A-Ph4	A-Ph5	A-Ph6	A-Ph7	A-Ph8	A-Ph9	A-Ph10	A-Ph11	A-Ph12	A-Ph13	A-Ph14	A-Ph15	A-Ph16	

Term	0.00000e+00	0.00000e+00	0.00000e+00	0.00000e+00	0.00000e+00	0.00000e+00	0.00000e+00	0.00000e+00	0.00000e+00	0.00000e+00	0.00000e+00	0.00000e+00	0.00000e+00	0.00000e+00	0.00000e+00	0.00000e+00	0.00000e+00	0.00000e+00	0.00000e+00	0.00000e+00	0.00000e+00	0.00000e+00	0.00000e+00	0.00000e+00	0.00000e+00	0.00000e+00	0.00000e+00	0.00000e+00	0.00000e+00	0.00000e+00	0.00000e+00	0.00000e+00	0.00000e+00	0.00000e+00	0.00000e+00	0.00000e+00	0.00000e+00	0.00000e+00	0.00000e+00	0.00000e+00	0.00000e+00	0.00000e+00	0.00000e+00	0.00000e+00	0.00000e+00	0.00000e+00	0.00000e+00	0.00000e+00	
Factor	1.00000e+00	1.00000e+00	1.00000e+00	1.00000e+00	1.00000e+00	1.00000e+00	1.00000e+00	1.00000e+00	1.00000e+00	1.00000e+00	1.00000e+00	1.00000e+00	1.00000e+00	1.00000e+00	1.00000e+00	1.00000e+00	1.00000e+00	1.00000e+00	1.00000e+00	1.00000e+00	1.00000e+00	1.00000e+00	1.00000e+00	1.00000e+00	1.00000e+00	1.00000e+00	1.00000e+00	1.00000e+00	1.00000e+00	1.00000e+00	1.00000e+00	1.00000e+00	X	X	X	X	X	X	X	X	X	X	X	X	X	X	X	X	

B = Detector Channel
Val Type	B-AC1	B-AC2	B-AC3	B-AC4	B-AC5	B-AC6	B-AC7	B-AC8	B-AC9	B-AC10	B-AC11	B-AC12	B-AC13	B-AC14	B-AC15	B-AC16	B-DC1	B-DC2	B-DC3	B-DC4	B-DC5	B-DC6	B-DC7	B-DC8	B-DC9	B-DC10	B-DC11	B-DC12	B-DC13	B-DC14	B-DC15	B-DC16	B-Ph1	B-Ph2	B-Ph3	B-Ph4	B-Ph5	B-Ph6	B-Ph7	B-Ph8	B-Ph9	B-Ph10	B-Ph11	B-Ph12	B-Ph13	B-Ph14	B-Ph15	B-Ph16	

Term	0.00000e+00	0.00000e+00	0.00000e+00	0.00000e+00	0.00000e+00	0.00000e+00	0.00000e+00	0.00000e+00	0.00000e+00	0.00000e+00	0.00000e+00	0.00000e+00	0.00000e+00	0.00000e+00	0.00000e+00	0.00000e+00	0.00000e+00	0.00000e+00	0.00000e+00	0.00000e+00	0.00000e+00	0.00000e+00	0.00000e+00	0.00000e+00	0.00000e+00	0.00000e+00	0.00000e+00	0.00000e+00	0.00000e+00	0.00000e+00	0.00000e+00	0.00000e+00	-6.15763e+01	-1.30411e+02	-1.24549e+02	-1.82143e+02	-5.62854e+01	-6.13144e+01	-1.55749e+02	-1.62015e+02	-4.36545e+01	-5.84641e+01	-1.71172e+02	-1.71176e+02	-1.81653e+02	-1.77264e+02	-5.75505e+01	-1.50260e+02	
Factor	1.84335e-05	1.52056e-04	4.43642e-05	4.71444e-01	1.63633e-06	1.83727e-06	1.70005e-01	5.70259e-02	1.24874e-06	1.86029e-06	9.06459e-02	2.89522e-02	2.44098e-02	8.74298e-03	1.46882e-06	1.28138e-02	7.07437e-06	9.43660e-06	2.63415e-06	2.38107e-01	1.02249e-07	1.04931e-07	8.15064e-02	2.91262e-02	9.98385e-08	1.04856e-07	4.47650e-02	1.44068e-02	1.26248e-02	4.50497e-03	1.02288e-07	6.38331e-03	X	X	X	X	X	X	X	X	X	X	X	X	X	X	X	X	



#DISTANCE SETTINGS
A = Detector Channel
A-1	A-2	A-3	A-4	A-5	A-6	A-7	A-8	A-9	A-10	A-11	A-12	A-13	A-14	A-15	A-16	

2.5000e+00	3.0000e+00	2.5000e+00	3.0000e+00	2.0000e+00	3.0000e+00	1.5000e+00	3.0000e+00	3.0000e+00	3.0000e+00	3.0000e+00	3.0000e+00	3.0000e+00	3.0000e+00	1.5000e+00	3.0000e+00	

B = Detector Channel
B-1	B-2	B-3	B-4	B-5	B-6	B-7	B-8	B-9	B-10	B-11	B-12	B-13	B-14	B-15	B-16	

1.0000e+01	1.0000e+01	1.0000e+01	1.4400e+00	1.0000e+01	1.0000e+01	1.5100e+00	1.9400e+00	1.0000e+01	1.0000e+01	1.9900e+00	2.4900e+00	2.4100e+00	2.9000e+00	1.0000e+01	2.9800e+00	




#DATA BEGINS
time	group	step	mark	flag	A-AC1	A-AC2	A-AC3	A-AC4	A-AC5	A-AC6	A-AC7	A-AC8	A-AC9	A-AC10	A-AC11	A-AC12	A-AC13	A-AC14	A-AC15	A-AC16	A-DC1	A-DC2	A-DC3	A-DC4	A-DC5	A-DC6	A-DC7	A-DC8	A-DC9	A-DC10	A-DC11	A-DC12	A-DC13	A-DC14	A-DC15	A-DC16	A-Ph1	A-Ph2	A-Ph3	A-Ph4	A-Ph5	A-Ph6	A-Ph7	A-Ph8	A-Ph9	A-Ph10	A-Ph11	A-Ph12	A-Ph13	A-Ph14	A-Ph15	A-Ph16	B-AC1	B-AC2	B-AC3	B-AC4	B-AC5	B-AC6	B-AC7	B-AC8	B-AC9	B-AC10	B-AC11	B-AC12	B-AC13	B-AC14	B-AC15	B-AC16	B-DC1	B-DC2	B-DC3	B-DC4	B-DC5	B-DC6	B-DC7	B-DC8	B-DC9	B-DC10	B-DC11	B-DC12	B-DC13	B-DC14	B-DC15	B-DC16	B-Ph1	B-Ph2	B-Ph3	B-Ph4	B-Ph5	B-Ph6	B-Ph7	B-Ph8	B-Ph9	B-Ph10	B-Ph11	B-Ph12	B-Ph13	B-Ph14	B-Ph15	B-Ph16	aux-1	digaux	

18928.361	1	1	0	256	0.21697	0.15911	0.17904	0.19242	0.24785	0.22786	0.061917	0.06762	0.19734	0.1542	0.076504	0.33973	0.087435	0.14095	0.12728	0.22444	-2.5271	-2.8354	-2.7271	-2.9625	-2.8292	-2.8146	-3.1146	-2.6292	-2.9292	-2.8667	-2.5583	-2.9729	-2.7208	-2.5958	-3.1188	-2.8271	184.111	434.308	316.408	149.001	258.793	455.821	360.573	166.604	393.895	282.631	247.566	146.952	237.102	466.032	374.342	398.090	0.00058082	0.00033347	0.00016531	450.66	5.4042e-06	4.0389e-06	845.26	149.51	2.8352e-06	7.5905e-06	335.45	125.14	43.535	16.88	5.1043e-06	57.324	0.00022395	0.00010496	3.0062e-05	376.33	1.116e-06	1.0537e-06	720.09	125.31	1.1352e-06	3.2376e-06	285.03	107.02	36.433	14.376	1.8964e-06	48.801	261.982	234.411	209.829	155.556	308.349	305.055	156.920	160.871	306.873	266.860	161.420	166.628	165.154	170.081	311.684	169.829	-8191	255	
18928.459	1	1	0	0	0.22907	0.024538	0.20821	0.052439	0.2193	0.20315	0.22382	0.30552	0.094693	0.2842	0.15869	0.12918	0.039931	0.13437	0.27988	0.32683	-2.5146	-2.9625	-2.7104	-2.9688	-2.5917	-2.6521	-3.0563	-2.7896	-2.9146	-3.0125	-2.625	-3.025	-2.8729	-2.6208	-3.0812	-2.7354	242.886	442.907	439.416	432.547	433.376	332.479	445.598	413.467	474.900	182.674	491.149	157.349	157.019	232.535	226.558	457.376	0.00059792	0.00038557	0.00012375	474.77	3.049e-06	8.0459e-06	900.63	151.83	3.7948e-06	3.8841e-06	344.62	128.61	44.155	16.917	3.9945e-06	58.275	0.00022828	0.00010899	2.8043e-05	401.45	1.1537e-06	1.1337e-06	763.49	128.4	1.1063e-06	2.0608e-06	292.56	109.81	37.216	14.436	3.5995e-06	49.943	257.889	224.791	234.646	155.932	332.510	287.317	156.652	161.386	328.461	284.055	161.725	166.560	165.550	170.484	334.673	169.662	-8191	255	
18928.555	1	1	0	0	0.20431	0.31471	0.10344	0.093403	0.15481	0.18126	0.23802	0.09821	0.25184	0.18736	0.13057	0.040706	0.1593	0.1182	0.19266	0.13208	-2.5396	-2.925	-2.8083	-2.9021	-2.7208	-2.9417	-3.0979	-2.725	-2.7229	-2.8083	-2.6604	-2.9188	-2.8312	-2.6125	-3.1896	-2.9583	233.836	372.648	403.008	164.866	252.690	329.310	424.052	464.684	265.221	282.939	390.615	307.081	501.405	308.591	217.224	454.496	0.00054668	0.00022951	0.00013703	506.02	3.415e-06	2.2192e-06	973.98	165.01	3.8905e-06	1.2136e-05	371.89	139.73	48.241	18.416	1.8734e-06	62.63	0.0002265	0.00010504	2.9003e-05	423.08	1.6413e-06	1.1658e-06	820.63	138.75	1.2551e-06	4.0479e-06	316.39	119.24	40.618	15.718	2.3812e-06	53.616	258.534	214.610	233.569	156.468	266.887	311.452	157.286	161.384	332.395	290.263	161.377	166.445	165.342	169.954	316.488	169.768	-8191	255	
18928.650	1	1	0	0	0.18919	0.22116	0.19242	0.22552	0.2375	0.074409	0.16619	0.11816	0.144	0.11941	0.14846	0.12473	0.2968	0.055642	0.021644	0.21356	-2.3812	-2.9625	-2.6667	-2.8688	-2.8312	-2.5917	-3.0563	-2.7792	-2.7062	-3.1708	-2.8792	-2.8875	-2.9104	-2.6479	-2.9729	-2.7604	237.733	484.033	494.376	490.504	197.879	432.303	462.456	182.216	406.508	441.533	218.409	452.363	415.500	386.842	256.816	442.622	0.00061461	0.0004397	0.00013947	533.86	3.8625e-06	2.5505e-06	1036.5	172.96	4.6857e-06	1.7352e-06	389.97	145.35	49.768	19.026	7.9693e-06	64.572	0.00025438	0.0001362	3.2329e-05	450.1	4.4344e-06	1.3503e-06	870.54	145.28	1.4337e-06	2.3994e-06	330.81	123.48	41.943	16.195	4.5356e-06	55.058	258.817	231.973	257.214	155.793	330.227	332.798	156.808	161.632	313.591	329.640	161.318	166.678	165.847	169.534	301.743	169.920	-8191	255	
18928.746	1	1	0	0	0.16776	0.32596	0.16011	0.22547	0.28403	0.21872	0.12281	0.17202	0.12024	0.15612	0.13071	0.080596	0.18311	0.16282	0.088615	0.13075	-2.3542	-3.0667	-2.6333	-2.8312	-2.9833	-2.6521	-3.1521	-2.9167	-2.525	-3.1063	-2.6896	-2.9271	-2.9375	-2.7354	-2.7812	-3.0896	498.287	480.252	154.534	221.569	267.420	154.531	145.187	410.193	497.596	388.903	471.567	490.016	424.445	399.596	252.288	403.368	0.00063304	0.00052981	0.00013901	552.8	5.2955e-06	1.5116e-06	1059.4	171.84	3.5323e-06	5.7579e-06	388.54	145.01	49.71	18.96	5.0365e-06	63.825	0.00025494	0.00011119	3.442e-05	466.5	2.2539e-06	1.2791e-06	892.48	145.53	1.3707e-06	4.533e-06	331.43	123.47	41.852	16.092	1.8107e-06	54.704	259.531	201.903	229.555	155.743	281.453	287.013	156.835	161.710	303.283	244.863	161.490	167.135	165.678	170.236	306.854	169.992	-8191	255	
18928.867	1	1	0	0	0.18303	0.032309	0.23373	0.13385	0.28913	0.22942	0.13499	0.1461	0.27628	0.14066	0.17756	0.20213	0.019559	0.066837	0.099083	0.10617	-2.2458	-2.975	-2.6542	-2.7979	-2.7833	-2.5062	-3.0083	-2.8812	-2.4292	-3.0771	-2.8771	-2.7833	-2.9625	-2.7167	-2.8583	-3.0687	289.737	289.147	380.504	213.392	339.725	338.266	416.264	379.772	228.975	286.774	293.138	446.258	320.795	203.111	294.223	409.741	0.00067894	0.00036589	8.4046e-05	555.03	2.7226e-06	2.7662e-06	1031.8	170.6	3.8913e-06	5.3072e-06	380.47	141.11	48.127	18.225	2.5196e-06	62.074	0.00026045	0.00012201	3.2285e-05	465.95	4.3973e-06	1.3182e-06	878.51	143.28	1.3137e-06	2.5406e-06	324.07	120.5	40.453	15.557	1.3696e-06	53.354	259.585	247.415	244.957	155.863	254.882	295.402	157.020	161.214	333.949	281.209	161.701	166.469	165.519	169.280	295.850	170.036	-8191	255	
18928.965	1	1	0	0	0.15291	0.10089	0.14821	0.22176	0.10421	0.1426	0.14937	0.22421	0.077028	0.1362	0.24433	0.071832	0.35801	0.18208	0.16997	0.2621	-2.125	-2.8125	-2.8187	-2.6375	-2.8958	-2.6958	-2.8187	-2.8146	-2.5208	-2.875	-2.8604	-2.8	-2.9583	-2.7396	-2.7271	-2.8937	180.556	273.105	367.796	404.557	269.037	188.977	160.917	479.013	350.941	332.685	495.181	144.010	464.709	462.473	200.723	451.995	0.00061557	0.00031255	0.00014165	542.11	2.7734e-06	5.1565e-06	1028.1	169.48	3.2817e-06	5.4547e-06	382.43	141.84	48.417	18.302	4.3107e-06	62.044	0.00024564	0.00011585	3.1429e-05	453.96	2.1172e-06	1.2093e-06	871.61	142.39	1.2511e-06	4.1337e-06	324.59	120.53	40.452	15.539	1.2724e-06	53.331	256.193	226.831	245.669	155.872	247.346	322.553	156.511	161.775	304.357	279.251	161.584	166.799	165.446	169.654	284.470	170.210	-8191	255	
18929.061	1	1	0	0	0.33665	0.11293	0.080104	0.1554	0.20615	0.19181	0.065925	0.25424	0.23252	0.20252	0.12235	0.17537	0.30565	0.39342	0.34468	0.37087	-2.0187	-2.9854	-2.6063	-2.6521	-2.8604	-2.6042	-2.8792	-2.9083	-2.6729	-2.8625	-2.9604	-2.8021	-2.8333	-2.75	-2.8917	-2.8854	168.745	444.812	298.778	250.684	406.638	328.295	441.569	495.114	285.045	298.658	428.139	423.683	329.311	457.886	365.135	414.694	0.00059502	0.00058523	0.00016367	552.21	1.9927e-06	5.646e-06	1034.7	169.08	4.6187e-06	5.8979e-06	384.93	141.01	47.595	18.18	2.6856e-06	62.608	0.00025211	0.00011595	3.3739e-05	463.23	4.2229e-06	1.2272e-06	876.37	141.99	1.244e-06	1.6163e-06	326.6	120.52	40.353	15.519	1.1985e-06	53.389	257.890	223.409	233.696	156.317	348.522	287.284	156.690	161.091	323.013	311.792	161.450	166.437	165.057	169.812	314.609	170.240	-8191	255	
18929.156	1	1	0	0	0.10571	0.20904	0.06105	0.39403	0.16057	0.052038	0.047047	0.25799	0.23148	0.15927	0.20036	0.19164	0.11624	0.19554	0.099429	0.036357	-2.1854	-2.8396	-2.8708	-2.5771	-3.1146	-2.7729	-2.8146	-3	-2.7	-2.9354	-3	-2.6188	-2.9875	-2.9437	-2.7521	-3.1583	152.783	165.206	449.020	267.232	254.468	502.977	321.241	151.724	428.841	236.971	493.252	350.477	148.371	167.333	333.206	295.024	0.00062632	0.00037907	9.0943e-05	563.85	7.7129e-07	7.719e-06	1049.4	170.7	3.4662e-06	4.8112e-06	385.17	141.28	46.979	18.296	5.02e-06	61.641	0.00025347	0.00010974	3.0584e-05	465.53	2.1984e-06	1.2356e-06	885.19	143.66	1.2078e-06	1.0903e-06	327.72	120.33	40.019	15.516	1.2694e-06	53.212	258.291	207.930	200.902	155.225	294.976	303.594	156.826	161.129	303.262	319.670	161.492	166.351	165.505	169.795	307.822	170.450	-8191	255	
18929.252	1	1	0	0	0.22913	0.15064	0.087849	0.14076	0.14219	0.16421	0.27549	0.074845	0.22243	0.18744	0.25407	0.3313	0.1567	0.15397	0.087928	0.15776	-2.3021	-2.7375	-2.8292	-2.5979	-2.825	-2.9792	-2.8604	-3.0021	-2.6104	-3.0333	-2.8979	-2.5479	-2.7812	-2.8083	-2.6625	-3.0104	232.297	403.530	254.886	434.364	205.096	223.111	420.647	312.600	356.531	464.281	426.037	414.911	459.631	480.404	278.939	169.383	0.00058427	0.00057845	9.2617e-05	556.85	1.9788e-06	2.8544e-06	1032.6	167.5	3.1369e-06	3.4625e-06	376.24	138.08	46.481	17.682	2.5778e-06	60.742	0.00023298	0.00011178	3.3113e-05	464.29	3.8921e-06	1.1429e-06	874.46	141.07	1.2299e-06	1.1862e-06	319.98	117.82	39.157	15.032	1.2402e-06	52.208	256.163	236.396	227.658	156.731	282.096	336.567	157.155	161.153	306.775	313.658	161.451	166.481	165.018	169.748	285.529	170.329	-8191	255	
18929.348	1	1	0	0	0.22584	0.1817	0.19912	0.21388	0.22777	0.061989	0.23541	0.21217	0.30096	0.28961	0.29601	0.33794	0.21661	0.10415	0.16265	0.20513	-2.2	-2.8167	-2.9125	-2.7708	-2.8333	-3.0375	-2.7667	-2.9708	-2.7521	-2.9021	-2.8917	-2.6979	-2.8896	-2.7292	-2.6604	-3.0875	275.178	345.229	243.210	423.877	157.292	459.988	419.207	401.032	424.870	223.268	200.229	237.649	364.897	216.507	365.081	369.915	0.00060994	0.00047625	0.00012568	538.7	6.3861e-07	2.8502e-06	1021.7	165.49	4.3185e-06	1.3466e-06	373.88	138.91	46.795	17.812	4.446e-06	60.948	0.00024044	0.00011348	3.0918e-05	451.33	1.4626e-06	1.7195e-06	861.9	139.7	1.2072e-06	1.3417e-06	320.64	118.2	39.376	15.102	1.2439e-06	52.192	256.721	227.610	225.335	155.533	277.808	280.849	156.848	161.220	308.435	281.799	161.734	166.609	164.752	170.114	274.270	169.964	-8191	255	
18929.445	1	1	0	0	0.052057	0.11547	0.19065	0.11333	0.094707	0.099217	0.26161	0.21954	0.048596	0.19328	0.17489	0.37326	0.28582	0.2383	0.15092	0.11501	-2.3104	-2.6917	-2.8333	-2.4917	-3.0062	-3.0208	-2.8875	-3.1125	-2.8521	-2.7062	-3.2167	-2.75	-2.8583	-2.9271	-2.4333	-2.8625	406.877	301.869	347.795	324.977	313.198	273.550	184.340	173.740	217.056	288.230	452.516	474.637	419.737	258.028	459.731	363.859	0.00067526	0.00026188	0.00010822	545.61	4.878e-06	2.6154e-06	1027.4	167.69	4.0817e-06	5.6557e-06	380.68	140.24	47.806	17.996	3.4927e-06	61.629	0.00025714	0.00010854	3.06e-05	454.62	1.2681e-06	4.286e-06	868.41	141.13	1.2519e-06	1.1763e-06	322.62	119.36	40.14	15.328	1.2264e-06	53.022	260.502	247.206	251.164	156.492	283.146	149.634	157.269	161.376	292.451	312.014	161.315	166.598	164.973	170.285	312.776	170.264	-8191	255	
18929.562	1	1	0	0	0.092331	0.17014	0.092622	0.12843	0.058135	0.19175	0.23717	0.17235	0.10033	0.26748	0.094612	0.13835	0.18522	0.22171	0.2212	0.16308	-2.3875	-2.6125	-3.0375	-2.7021	-2.8479	-2.8438	-2.7396	-3.0979	-2.7687	-2.6854	-3.1833	-2.725	-2.7417	-2.7875	-2.4708	-3.1542	222.872	320.591	363.318	349.325	253.258	195.579	454.194	376.941	224.623	144.627	255.773	440.491	414.526	480.505	158.402	354.421	0.00062833	0.00057315	0.00010681	549.42	4.3907e-06	2.6537e-06	1030.3	170.77	2.9605e-06	2.4032e-06	384.86	141.46	47.724	18.201	7.0266e-06	62.235	0.00023503	0.0001166	2.8493e-05	454.85	1.1658e-06	2.138e-06	872.34	142.82	1.2519e-06	1.1809e-06	326.29	120.54	40.238	15.548	1.2566e-06	53.39	256.930	217.078	249.144	155.543	293.186	342.787	157.075	161.433	316.205	305.556	161.721	166.433	165.210	170.036	303.615	170.101	-8191	255	
18929.660	1	1	0	0	0.058503	0.079283	0.024834	0.36135	0.11973	0.13814	0.18757	0.29548	0.1903	0.20818	0.31854	0.22186	0.12239	0.15979	0.19109	0.19858	-2.5187	-2.6271	-2.9458	-2.6771	-2.6562	-2.9313	-2.8229	-2.9229	-3.0521	-2.7229	-2.9646	-2.8438	-3.0187	-3.0563	-2.6646	-2.9437	436.606	280.061	185.645	425.976	337.253	311.462	179.766	466.398	444.827	407.173	417.065	459.653	287.822	356.416	332.072	451.528	0.00063851	0.00037076	0.00012386	553.41	5.8865e-06	3.6396e-06	1032.3	168.48	2.527e-06	3.7188e-06	379.72	138.3	46.419	18.17	3.8437e-06	61.228	0.00028532	0.00011823	3.043e-05	463.76	1.2692e-06	4.2047e-06	871.64	142.58	1.1922e-06	1.146e-06	322.17	118.8	39.457	15.391	1.2202e-06	52.393	258.436	246.659	221.251	155.720	300.683	144.888	156.707	161.088	307.505	315.870	161.394	166.534	165.488	169.531	307.972	170.315	-8191	255	
18929.756	1	1	0	0	0.048666	0.24095	0.1045	0.097611	0.17225	0.12369	0.26121	0.20688	0.28783	0.29246	0.10311	0.22904	0.121	0.14594	0.12265	0.31304	-2.6542	-2.5	-2.9667	-2.8375	-2.6333	-3.0292	-2.7479	-2.7708	-2.9042	-2.6146	-3.0771	-2.7625	-2.65	-2.9708	-2.7229	-2.9833	393.038	373.828	348.402	468.281	231.940	308.125	438.680	403.857	309.998	211.691	464.796	449.841	432.904	503.045	256.230	455.445	0.00064827	0.00055939	7.7859e-05	538.27	5.9411e-06	4.0758e-06	1014	164.1	2.9859e-06	5.5105e-06	375.5	138.86	47.18	18.004	3.9656e-06	61.058	0.00044669	0.00011359	3.1621e-05	448.6	1.2391e-06	2.2932e-06	858.55	139.22	1.1997e-06	1.1761e-06	319.95	118.37	39.478	15.261	1.1154e-06	52.546	265.438	214.882	246.134	156.535	315.186	267.136	156.748	161.238	328.080	299.675	161.634	166.905	164.981	170.449	291.287	170.109	-8191	255	
18929.852	1	1	0	0	0.21846	0.078581	0.23611	0.090663	0.22456	0.10858	0.10267	0.093694	0.17105	0.13869	0.2501	0.094502	0.17395	0.3226	0.26924	0.091676	-2.6771	-2.5687	-3.0958	-2.8708	-2.6833	-2.925	-2.8792	-2.9062	-2.8688	-2.6854	-2.8958	-2.7708	-2.9833	-3.0271	-2.7292	-2.8021	411.428	312.413	384.558	193.551	243.259	255.578	472.576	265.252	451.707	418.988	429.716	163.198	425.544	213.320	382.904	390.194	0.0006017	0.00034462	8.8936e-05	542.01	4.6338e-06	2.4328e-06	1016.7	165.88	3.2511e-06	2.7153e-06	375.18	138.46	47.058	18.112	3.904e-06	61.138	0.00031531	0.00010728	2.8526e-05	452.5	1.0945e-06	4.2344e-06	858.52	140.04	1.202e-06	1.1418e-06	319.15	118.22	39.548	15.418	1.3336e-06	52.659	258.323	206.172	214.294	156.067	302.080	219.066	156.758	161.561	296.440	331.036	161.632	166.530	165.095	169.910	305.509	170.057	-8191	255	
18929.947	1	1	0	0	0.089601	0.21292	0.38092	0.16176	0.21503	0.17765	0.11355	0.089685	0.088505	0.083529	0.14686	0.26039	0.13057	0.19629	0.28533	0.20469	-2.5875	-2.5771	-2.7833	-2.8417	-2.4958	-3.0438	-2.9062	-2.7208	-2.8646	-2.8396	-2.9313	-2.7979	-2.5625	-2.9458	-2.7542	-2.7562	464.856	201.473	222.847	185.805	390.722	159.084	200.315	222.834	493.581	185.968	459.703	199.605	227.076	335.873	286.787	195.923	0.00056896	0.00044259	0.00012762	541.6	2.3593e-06	2.8155e-06	1033.8	168.47	3.3204e-06	4.3081e-06	379.94	139.97	47.217	18.186	3.1708e-06	62.425	0.0004593	0.00010502	2.9009e-05	455.37	1.1454e-06	2.101e-06	870.05	141.52	1.1205e-06	1.2594e-06	322.84	120.02	39.918	15.521	1.2202e-06	53.341	262.398	245.449	234.601	156.070	326.223	250.749	156.974	161.141	296.199	273.731	161.541	166.828	166.260	170.251	281.625	170.215	-8191	255	
18930.045	1	1	0	0	0.15105	0.092132	0.11963	0.20826	0.2287	0.19966	0.33977	0.32806	0.20623	0.12177	0.20115	0.43126	0.16412	0.10307	0.39484	0.2366	-2.5396	-2.7354	-2.8208	-2.9542	-2.75	-3.0604	-2.9208	-2.5729	-2.9375	-2.8667	-3.0146	-2.9917	-2.7583	-2.7708	-2.8958	-2.7479	285.727	265.530	189.473	258.688	221.785	437.153	468.006	441.457	148.265	155.828	439.143	432.504	268.869	258.698	196.372	369.656	0.00060191	0.0002096	0.00014034	551.46	5.8778e-06	3.9211e-06	1028.5	167.35	2.8416e-06	3.9506e-06	380.4	140.41	46.511	17.952	2.3974e-06	61.461	0.0003237	0.0001072	3.1763e-05	460.44	1.2153e-06	3.3291e-06	871.38	141.74	1.2417e-06	1.2491e-06	321.26	119.07	39.46	15.314	1.1657e-06	52.572	259.166	236.454	229.964	156.480	290.257	325.843	156.773	161.196	281.707	317.888	161.978	166.509	165.353	170.363	309.981	170.225	-8191	255	
18930.141	1	1	0	0	0.14168	0.12897	0.15165	0.26201	0.38885	0.12031	0.28085	0.14078	0.1129	0.28217	0.1344	0.046106	0.10177	0.39167	0.079587	0.34933	-2.5396	-2.6792	-2.6562	-3.0167	-2.55	-2.9021	-2.9396	-2.5896	-3.0187	-2.6708	-2.6896	-3.1708	-2.5833	-2.8792	-2.7708	-2.5646	448.048	448.937	498.186	366.979	158.472	226.404	418.984	158.493	204.196	438.596	320.302	239.145	166.786	343.479	447.702	489.805	0.00055036	0.00043606	0.00011387	533.94	4.4933e-06	4.7268e-06	1007.1	165.64	4.3677e-06	3.5146e-06	372.4	138.66	46.49	18.149	5.4822e-06	62.242	0.00045777	0.00011778	3.0589e-05	447.54	1.0936e-06	1.2812e-06	855.83	139.12	1.2168e-06	1.1552e-06	317.09	118.52	39.495	15.396	1.2422e-06	53.034	258.336	230.661	228.926	156.407	278.686	325.602	157.031	161.151	314.756	298.082	161.803	166.361	166.074	170.425	285.695	170.168	-8191	255	
18930.260	1	1	0	0	0.16293	0.25492	0.066035	0.189	0.057402	0.13626	0.16494	0.34591	0.061712	0.25987	0.12206	0.36762	0.20658	0.19823	0.12166	0.18838	-2.5979	-2.6646	-2.6958	-3.0146	-2.6958	-2.8708	-2.9938	-2.5438	-3	-2.7917	-2.8875	-3.0104	-2.4771	-2.8333	-2.9354	-2.5438	469.420	473.028	407.097	386.104	160.643	245.995	433.484	427.302	438.204	408.255	487.697	436.079	462.826	159.374	378.225	449.235	0.00060029	0.00035032	6.8237e-05	537.05	6.6308e-06	5.4406e-06	1015.8	166.38	3.7616e-06	3.9536e-06	379.65	138.4	47.219	18.127	4.4727e-06	62.645	0.00031191	0.00010188	2.9909e-05	449.26	1.2907e-06	1.0539e-06	861.76	140.11	1.1126e-06	1.1123e-06	320.52	118.66	39.632	15.489	1.3061e-06	53.543	258.699	235.723	242.863	155.899	281.077	293.019	157.049	161.474	301.351	324.340	161.424	166.990	165.886	170.331	332.225	170.156	-8191	255	
18930.332	1	1	0	0	0.11499	0.33493	0.25692	0.060441	0.16914	0.20326	0.20856	0.13866	0.25537	0.31864	0.22951	0.18323	0.14424	0.074837	0.034316	0.17508	-2.4354	-2.5896	-2.6312	-3.1708	-2.7417	-2.8917	-2.8937	-2.4896	-2.9208	-2.6646	-2.725	-3.1	-2.825	-2.9813	-3.0563	-2.7083	405.688	191.373	442.913	296.436	391.806	498.944	158.848	485.375	421.373	218.982	482.082	439.831	494.571	264.406	294.062	373.612	0.00059678	0.0001887	6.5985e-05	543.96	5.9265e-06	6.6929e-06	1023.8	166.92	2.9904e-06	4.2286e-06	382.87	139.63	48.061	18.31	3.6289e-06	62.972	0.00038635	0.00015008	2.835e-05	454.04	1.1501e-06	1.1221e-06	866.71	141.26	1.112e-06	1.0796e-06	323.51	119.99	40.266	15.723	1.2066e-06	53.96	263.772	223.728	211.975	155.253	301.858	304.758	157.277	161.110	294.484	296.904	161.528	166.788	165.663	170.479	339.745	170.307	-8191	255	
18930.430	1	1	0	0	0.19435	0.1229	0.10289	0.09812	0.14374	0.34046	0.11259	0.062322	0.10632	0.083491	0.11274	0.27396	0.10636	0.18322	0.13247	0.28958	-2.4396	-2.6542	-2.7104	-2.975	-2.8438	-2.6396	-3.0667	-2.7542	-2.9104	-2.8896	-2.5667	-2.9896	-2.5812	-2.7792	-2.875	-2.8792	385.902	164.247	236.626	399.296	434.269	253.682	156.222	424.954	438.728	297.414	246.193	461.198	482.396	400.685	293.856	488.548	0.00061383	0.00041912	0.0001185	545.93	4.0087e-06	2.829e-06	1034.4	168.44	2.9737e-06	5.4269e-06	381.66	141.07	47.191	18.432	4.1364e-06	62.116	0.00024852	0.00018749	3.1681e-05	457.17	1.1763e-06	1.2054e-06	875.47	142.4	1.2804e-06	1.1833e-06	323.27	120.05	39.93	15.624	1.2004e-06	53.099	258.071	229.967	241.425	156.093	325.770	316.482	157.434	161.465	299.637	301.633	161.735	166.404	165.858	170.808	301.146	170.065	-8191	255	
18930.525	1	1	0	0	0.14184	0.18218	0.23299	0.041586	0.32739	0.3845	0.26896	0.052841	0.037038	0.14926	0.06688	0.28429	0.26986	0.10013	0.13725	0.14075	-2.4688	-2.8812	-2.4729	-2.9854	-2.6667	-2.6312	-3.1021	-2.7125	-2.7687	-2.775	-2.85	-2.8792	-2.6771	-2.7271	-3.2	-2.5312	242.060	287.273	319.104	326.407	204.770	206.782	440.651	314.523	266.621	269.701	166.157	481.034	463.032	249.845	153.107	152.463	0.00063786	0.00046385	0.00012168	533.85	5.5565e-06	5.1275e-06	1007.6	165.27	2.7043e-06	3.7295e-06	371.58	138.86	46.846	17.983	4.1707e-06	61.191	0.00025384	0.00036457	3.1237e-05	448.3	1.3039e-06	1.1337e-06	852.87	138.97	1.1402e-06	1.0435e-06	315.92	118.43	39.515	15.34	1.1789e-06	52.76	259.459	273.759	245.813	155.835	296.146	303.650	156.962	161.213	298.626	301.997	161.625	166.494	165.643	170.361	289.030	170.576	-8191	255	
18930.645	1	1	0	0	0.14445	0.30004	0.09654	0.21917	0.19225	0.21944	0.23743	0.14599	0.22924	0.12447	0.14179	0.21589	0.089374	0.10661	0.054681	0.11808	-2.5083	-3.05	-2.6208	-2.8854	-2.8	-2.8104	-3.2208	-2.7396	-2.8458	-2.85	-2.5563	-2.9167	-2.8792	-2.6104	-3.0229	-2.6688	311.000	308.633	236.773	467.723	283.467	211.668	433.778	347.264	260.165	339.694	432.529	447.815	502.792	473.603	314.813	251.006	0.00062634	0.00021395	0.00011359	538.99	6.799e-06	3.7188e-06	1008.3	165.21	2.4117e-06	4.8411e-06	371.9	139.32	46.799	18.224	3.9532e-06	62.322	0.00024902	0.00020094	3.1028e-05	450.49	1.1852e-06	9.5968e-07	854.06	139.52	1.1866e-06	1.1036e-06	317.23	118.25	39.564	15.545	1.2113e-06	53.138	258.881	212.396	257.018	156.047	299.973	302.403	157.204	161.393	310.661	331.420	161.294	166.809	165.591	169.927	304.696	170.001	-8191	255	
18930.740	1	1	0	0	0.20252	0.11307	0.18271	0.21472	0.098491	0.24073	0.16276	0.094894	0.11428	0.074729	0.23857	0.18639	0.12067	0.22347	0.063587	0.12953	-2.2646	-2.9646	-2.6021	-2.9583	-2.8563	-2.6604	-3.0729	-2.6854	-2.7625	-2.9604	-2.5938	-3.0729	-3.0187	-2.7729	-2.9188	-2.7417	378.705	485.893	334.488	447.518	362.914	263.930	314.950	426.596	384.754	489.185	453.964	181.524	497.533	178.864	452.775	490.708	0.00062317	0.00011248	0.00015074	533.21	3.0659e-06	4.1417e-06	1009.5	165.44	2.6294e-06	3.2747e-06	375.85	138.48	46.648	18.173	5.3708e-06	61.962	0.00024664	0.00037225	2.8465e-05	450.22	1.1141e-06	1.1247e-06	856.33	139.55	1.2673e-06	1.1071e-06	317.67	118.39	39.675	15.513	1.1876e-06	53.074	257.191	210.314	234.018	156.496	328.989	320.321	157.089	160.975	337.102	313.090	161.182	166.496	165.080	169.840	294.505	170.004	-8191	255	
18930.836	1	1	0	0	0.18185	0.1282	0.087581	0.17187	0.21173	0.17439	0.4369	0.21806	0.289	0.1741	0.048175	0.20526	0.05676	0.018577	0.17994	0.09862	-2.3438	-3.0687	-2.6208	-2.85	-2.9229	-2.5042	-3.0938	-2.7625	-2.7167	-2.8896	-2.9688	-3.1813	-2.9688	-2.7562	-3.1042	-2.9813	324.587	271.312	314.408	267.928	243.419	319.841	407.848	440.270	343.973	324.644	389.525	452.912	422.325	428.898	273.942	440.511	0.00059619	0.00041782	0.00013176	527.4	4.1729e-06	5.5369e-06	1012.2	164.86	4.0246e-06	4.1508e-06	372.98	138.92	46.619	18.357	5.2448e-06	62.85	0.00023425	0.00019538	2.9371e-05	444.51	1.1354e-06	1.1628e-06	857.4	139.41	1.1432e-06	1.1434e-06	318.5	118.48	39.667	15.592	1.2496e-06	53.526	258.818	264.188	217.189	155.972	272.674	279.609	156.336	161.059	313.530	325.168	161.799	166.435	165.744	170.249	292.580	170.319	-8191	255	
18930.957	1	1	0	0	0.13163	0.12315	0.11898	0.28694	0.061115	0.36458	0.15927	0.27143	0.14546	0.20067	0.19055	0.22316	0.057316	0.12829	0.1729	0.13487	-2.3187	-2.8396	-2.7646	-2.8104	-3.0354	-2.5146	-3.1083	-2.9062	-2.6375	-3.1625	-2.7604	-2.8792	-3.05	-2.7604	-2.7375	-2.8688	318.778	176.569	273.888	203.527	455.812	294.263	175.959	496.892	156.467	164.822	369.214	441.926	462.731	148.556	185.995	497.003	0.00063317	0.0001927	9.6904e-05	534.07	4.5771e-06	5.7721e-06	1025.3	167.45	4.3811e-06	4.9971e-06	373.87	140.03	47.418	18.455	5.1926e-06	63.559	0.00023816	0.00038028	2.9415e-05	449.15	1.1292e-06	1.1774e-06	863.13	140.39	1.2151e-06	1.0641e-06	319.01	119.75	40.284	15.73	1.2532e-06	54.07	261.475	347.441	225.671	156.229	298.949	304.372	156.891	161.153	305.189	316.982	161.197	166.626	165.393	170.215	298.403	170.156	-8191	255	
18931.027	1	1	0	0	0.071862	0.1512	0.17708	0.21168	0.19603	0.045563	0.17499	0.12859	0.15272	0.10527	0.17132	0.023453	0.029622	0.23367	0.044101	0.10414	-2.0625	-2.9875	-2.7417	-2.7	-2.8833	-2.7167	-2.9604	-2.8187	-2.6312	-2.9729	-2.8167	-2.7479	-3.025	-2.6083	-2.9688	-2.8583	493.664	193.260	166.437	331.138	332.360	261.455	495.159	431.125	269.434	503.206	181.982	169.696	400.709	147.275	342.218	449.521	0.00065471	0.0003536	7.2861e-05	546.66	3.1535e-06	5.8336e-06	1030.4	169.75	4.3068e-06	3.061e-06	380.71	142.83	47.692	18.689	2.412e-06	63.84	0.00024894	0.00019803	2.7867e-05	458.16	1.1763e-06	1.1252e-06	870.3	143.37	1.289e-06	1.1086e-06	324.32	121.24	40.535	15.927	1.259e-06	54.628	259.105	237.622	202.245	155.279	287.244	277.704	157.036	161.335	332.456	303.785	161.715	166.615	165.934	170.676	354.165	169.814	-8191	255	
18931.125	1	1	0	0	0.10291	0.13207	0.12473	0.15914	0.19395	0.032155	0.26072	0.27172	0.3582	0.337	0.089077	0.22327	0.24119	0.25422	0.021507	0.25267	-2.0771	-2.7833	-2.7	-2.6146	-3.0187	-2.5875	-2.8875	-2.9229	-2.625	-2.975	-2.9104	-2.8042	-3.0521	-2.6312	-2.8187	-3.0625	275.120	246.914	474.738	330.891	303.478	347.898	160.107	485.917	498.881	272.962	307.359	152.179	160.498	192.182	279.475	420.459	0.00062878	6.2343e-05	0.00013131	554.01	5.865e-06	2.9182e-06	1036	169.51	3.7284e-06	4.7443e-06	387.35	142.87	48.954	18.677	3.5646e-06	63.862	0.00023942	0.00025817	5.0559e-05	462.25	1.0708e-06	1.0609e-06	875.89	143.63	1.2584e-06	1.1034e-06	327.55	121.88	41.116	15.901	1.2164e-06	54.771	260.143	250.138	185.324	155.553	318.038	288.620	157.004	160.920	340.617	311.373	161.497	166.470	165.559	170.518	256.863	170.183	-8191	255	
18931.244	1	1	0	0	0.17851	0.050048	0.067534	0.20829	0.37119	0.029003	0.22461	0.077584	0.12067	0.26266	0.17748	0.19657	0.16187	0.18261	0.059312	0.2326	-2.1063	-2.9583	-2.7896	-2.65	-3.05	-2.6771	-2.9417	-3.025	-2.7292	-3.0458	-2.9062	-2.8708	-2.8958	-2.7708	-2.8521	-3.2062	421.887	153.984	219.436	168.154	151.426	382.951	483.591	243.327	301.203	467.515	470.828	465.828	155.788	207.906	157.420	384.718	0.00063131	0.00047279	6.852e-05	533.79	3.0565e-06	4.3388e-06	1016.1	166.26	3.5917e-06	3.6746e-06	370.03	138.72	46.204	18.202	4.8697e-06	61.663	0.00024432	9.588e-05	5.2848e-05	451.1	1.1156e-06	1.2095e-06	857.53	141.11	1.2305e-06	1.0818e-06	315.78	118.08	39.077	15.436	1.1759e-06	52.949	258.802	236.090	287.809	156.033	310.406	303.043	157.277	161.468	297.731	284.050	161.656	166.769	165.597	170.050	305.574	170.214	-8191	255	
18931.340	1	1	0	0	0.22609	0.21966	0.13701	0.11711	0.036381	0.28444	0.21212	0.30479	0.28541	0.23975	0.19936	0.14232	0.12821	0.15131	0.20484	0.18336	-2.2125	-2.8708	-2.8958	-2.7354	-2.9479	-2.7604	-2.8563	-2.9479	-2.5167	-3.0333	-2.9271	-2.9	-2.9229	-2.9833	-2.6708	-3.1125	205.027	312.845	378.345	340.762	280.065	384.339	405.945	470.159	161.252	286.888	230.290	308.799	205.100	446.584	142.904	452.533	0.00064943	0.00038833	0.00010776	532.8	4.597e-06	3.0981e-06	994.07	164.43	1.9199e-06	4.2179e-06	366.95	137.86	46.21	17.899	2.1931e-06	61.89	0.00023668	0.00010441	0.0001078	443.8	1.1469e-06	1.1693e-06	842.78	138.25	1.2209e-06	1.0809e-06	312.95	117.37	38.988	15.423	1.1081e-06	53.026	254.863	234.524	274.776	156.048	294.963	303.467	157.026	160.724	327.780	291.022	161.977	166.734	165.318	169.947	303.327	169.924	-8191	255	
18931.438	1	1	0	0	0.30725	0.1492	0.28203	0.029295	0.36598	0.16265	0.38142	0.080181	0.20507	0.044173	0.16412	0.34714	0.2613	0.15449	0.1297	0.19906	-2.2854	-2.7271	-2.8292	-2.6271	-2.8458	-2.9375	-2.9208	-2.9333	-2.6917	-2.7083	-3.0375	-2.7083	-2.9021	-2.7604	-2.7292	-2.9458	276.503	468.760	320.453	263.049	334.284	447.338	339.467	462.509	175.890	298.131	276.776	485.331	471.416	236.875	384.368	442.635	0.00059866	0.00047612	6.8712e-05	529.21	3.965e-06	6.2356e-06	997.61	163.77	2.7141e-06	3.1212e-06	369.23	137.83	46.639	18.014	6.0899e-06	62.364	0.00023404	0.00010486	5.3221e-05	443.11	1.1205e-06	1.1835e-06	846.9	138.94	1.1768e-06	1.1338e-06	315.75	117.87	39.249	15.509	1.2513e-06	53.412	258.551	237.215	214.795	155.831	332.746	304.719	156.971	160.922	355.825	325.878	161.677	166.757	165.071	169.672	302.161	170.198	-8191	255	
18931.557	1	1	0	0	0.23868	0.1216	0.096617	0.29746	0.17703	0.18732	0.20819	0.090097	0.16848	0.13187	0.10529	0.11483	0.09072	0.34467	0.21123	0.12542	-2.1854	-2.5125	-2.8771	-2.6771	-2.8937	-2.8146	-2.8667	-3.1104	-2.6979	-2.7396	-3.0083	-2.6292	-2.8479	-2.8354	-2.6833	-3.1771	301.290	233.572	259.070	423.363	432.987	344.262	458.461	387.874	181.671	401.935	201.801	468.434	435.641	503.566	304.646	406.766	0.000619	0.00030987	1.16e-05	528.02	3.2929e-06	4.6556e-06	1009.2	164.72	3.1256e-06	4.7171e-06	376.68	138.65	46.568	18.464	3.2281e-06	62.669	0.00024436	0.00010135	0.00010549	443.24	1.1128e-06	1.1527e-06	850.2	139.51	1.1043e-06	1.1705e-06	317.31	118.12	39.14	15.73	1.1539e-06	53.507	257.680	220.089	366.068	156.403	292.645	323.707	156.814	161.607	328.050	309.400	161.892	166.590	165.381	169.800	306.557	170.506	-8191	255	
18931.629	1	1	0	0	0.084199	0.042346	0.10182	0.35521	0.094444	0.28392	0.061774	0.25271	0.0069148	0.24315	0.098408	0.084864	0.217	0.1411	0.22971	0.30525	-2.3979	-2.6396	-3.075	-2.4958	-2.9437	-2.9146	-2.7667	-2.8688	-2.9729	-2.7042	-3.1917	-2.8042	-2.7146	-2.875	-2.6042	-3.0875	392.641	366.033	311.682	192.349	325.772	431.783	372.804	454.286	208.580	178.399	463.983	406.192	196.331	297.992	341.395	425.203	0.00061846	0.00023128	8.4261e-05	534.14	3.4839e-06	4.2429e-06	1010.9	164.72	8.0701e-06	5.8962e-06	370.37	136.85	44.91	18.051	3.276e-06	61.182	0.0002363	0.00010015	5.4e-05	446.87	1.0977e-06	1.2146e-06	852.04	139.44	2.1721e-06	1.1019e-06	313.54	116.75	38.208	15.313	1.2728e-06	52.399	257.301	197.803	203.716	156.315	310.261	283.932	157.095	161.231	279.948	298.056	161.301	167.003	165.654	170.473	295.095	170.401	-8191	255	
18931.725	1	1	0	0	0.21751	0.33661	0.064929	0.14736	0.21221	0.14557	0.14261	0.065948	0.039338	0.1778	0.21116	0.068506	0.11936	0.13212	0.28047	0.15482	-2.3792	-2.6729	-2.9729	-2.9542	-2.8292	-3.175	-2.65	-2.9958	-2.8667	-2.6125	-3.0604	-2.7	-2.7479	-2.9625	-2.5958	-2.7583	175.570	344.840	443.459	466.040	155.394	409.528	435.053	325.558	459.111	152.817	425.598	155.535	215.141	302.528	368.992	439.978	0.00061964	0.00040545	0.00013345	520.95	2.0416e-06	4.3299e-06	993.78	162.08	4.6103e-06	3.7295e-06	365.88	136.19	45.905	17.823	2.2871e-06	61.481	0.00024079	0.00010022	0.00010388	438.06	1.0672e-06	1.0707e-06	835.18	136.24	2.0939e-06	1.0579e-06	311.29	116.32	38.599	15.287	1.2166e-06	52.614	257.243	229.423	183.844	156.295	331.388	307.050	157.049	161.699	292.120	353.472	161.683	166.679	165.306	169.578	313.061	170.150	-8191	255	
18931.820	1	1	0	0	0.070455	0.12792	0.25871	0.17682	0.12212	0.22273	0.046477	0.13158	0.18199	0.13399	0.14099	0.2506	0.086156	0.10896	0.23389	0.24062	-2.4792	-2.7792	-2.9562	-2.4208	-2.7229	-3.0563	-2.9104	-3.1208	-2.7583	-2.7812	-3.0833	-2.9062	-2.55	-2.9958	-2.7938	-2.9146	219.185	201.124	294.952	159.339	360.599	293.085	257.863	159.502	151.022	428.480	161.738	466.227	474.474	326.951	471.204	167.140	0.00061223	0.00036976	0.00013377	518.68	4.6325e-06	4.052e-06	988.78	160.38	8.4211e-06	3.9446e-06	363.05	135.46	45.678	17.857	3.8346e-06	60.965	0.00023568	0.00010046	5.3407e-05	434.92	1.1567e-06	1.0185e-06	836.17	136.02	3.9956e-06	1.1348e-06	310.13	115.91	38.342	15.245	1.1509e-06	52.283	255.750	215.494	189.227	155.729	307.650	314.724	157.109	161.114	315.209	298.402	161.674	166.495	165.388	170.059	322.534	169.898	-8191	255	
18931.941	1	1	0	0	0.10624	0.070027	0.16654	0.16075	0.078067	0.060274	0.16602	0.40385	0.24046	0.12458	0.26252	0.17423	0.066662	0.030456	0.2179	0.15395	-2.6896	-2.675	-2.9292	-2.7646	-2.6396	-3.0292	-2.8625	-2.85	-2.9271	-2.5938	-3.0312	-2.8146	-2.7542	-2.9146	-2.6292	-2.9708	430.764	318.401	257.152	476.820	206.934	342.056	399.897	439.365	320.350	478.239	473.511	502.033	424.855	437.421	182.592	186.106	0.00065563	0.00058548	4.1188e-05	515.94	5.3416e-06	5.8053e-06	1000.7	159.98	4.9236e-06	7.1103e-06	366.54	136.02	44.861	17.808	4.7532e-06	61.226	0.00025295	9.8829e-05	6.0377e-05	438.35	1.0702e-06	1.0677e-06	841.99	135.77	2.1898e-06	1.189e-06	311.32	116.25	37.924	15.35	1.1541e-06	52.471	258.934	246.617	329.720	156.165	308.994	306.180	157.074	161.794	312.825	265.375	161.466	166.914	166.232	170.093	290.060	170.172	-8191	255	
18932.037	1	1	0	0	0.16852	0.15389	0.093702	0.18129	0.081762	0.3654	0.19905	0.2467	0.087868	0.2183	0.15352	0.19967	0.21624	0.038781	0.18338	0.27713	-2.4875	-2.6208	-2.9458	-2.7729	-2.6521	-3.0042	-2.8646	-2.8521	-2.8812	-2.6167	-3.0167	-2.9417	-2.6542	-2.9979	-2.675	-2.8729	480.108	145.341	359.775	466.970	284.948	198.678	403.734	368.166	270.612	165.739	473.203	496.988	178.460	472.722	257.979	456.723	0.00061542	0.0002999	0.0001218	512.15	4.1801e-06	2.7234e-06	987.83	160.86	8.0783e-06	5.2364e-06	360.83	134.25	44.708	17.359	3.9985e-06	60.158	0.00023342	0.00010323	2.8383e-05	438.58	1.0883e-06	1.072e-06	839.44	135.77	3.923e-06	1.1386e-06	307.01	114.3	37.411	14.876	1.084e-06	51.19	256.065	227.245	218.317	156.171	303.369	293.604	156.884	161.269	305.046	270.999	161.713	167.168	165.714	170.512	295.565	170.648	-8191	255	
18932.133	1	1	0	0	0.045974	0.22642	0.13581	0.078021	0.19309	0.031563	0.39718	0.11548	0.21988	0.075816	0.087445	0.27938	0.23595	0.11526	0.32944	0.13243	-2.6708	-2.6708	-2.9625	-2.8854	-2.5333	-3.0083	-2.8	-2.7042	-3.0833	-2.9479	-2.8896	-3.0208	-2.6354	-2.9417	-2.7313	-2.7917	485.082	362.409	450.764	256.261	281.663	218.982	481.839	487.727	218.181	483.445	331.534	180.016	463.945	151.080	444.231	397.899	0.0006145	0.00038925	0.0001027	503.38	4.6525e-06	2.6599e-06	968.51	158.2	6.343e-06	3.4539e-06	360.58	132.33	43.765	17.287	2.2886e-06	59.255	0.00023247	9.7669e-05	3.0293e-05	430.48	1.1333e-06	1.029e-06	818.79	132.41	2.0024e-06	1.1246e-06	303.94	112.79	36.957	14.726	2.4741e-06	50.915	258.464	225.905	239.526	156.050	276.411	301.789	157.135	161.406	304.317	298.161	161.513	166.889	165.672	170.340	309.329	170.485	-8191	255	
18932.229	1	1	0	0	0.20545	0.26834	0.20637	0.23558	0.13275	0.33365	0.12796	0.19382	0.029307	0.10528	0.047016	0.057753	0.25246	0.057628	0.27495	0.1939	-2.5021	-2.7313	-2.8979	-2.8417	-2.6979	-2.9604	-2.8958	-2.7521	-2.9396	-2.7521	-2.7021	-3.0208	-2.7083	-2.9146	-2.9833	-2.7771	236.820	432.950	349.600	250.548	341.239	464.758	153.372	253.228	273.727	431.868	207.798	285.118	196.728	491.319	461.980	334.205	0.00058179	0.00042492	0.00012128	499.39	4.0522e-06	3.8734e-06	970.89	157.38	4.9707e-06	7.158e-06	359.9	132.99	44.244	17.217	9.8243e-07	59.691	0.00022915	0.00010184	2.5699e-05	425.41	1.0798e-06	1.0954e-06	823.18	132.3	3.8305e-06	1.1294e-06	304.23	113.31	37.245	14.7	1.9384e-06	51.204	258.164	244.211	209.156	156.909	282.595	326.018	157.066	161.276	320.162	321.121	161.608	166.452	165.072	170.310	332.968	170.128	-8191	255	
18932.326	1	1	0	0	0.10183	0.084358	0.015405	0.15372	0.17507	0.3829	0.10003	0.063199	0.069273	0.14244	0.22805	0.26167	0.26809	0.054416	0.062243	0.29974	-2.5208	-2.7333	-2.875	-3.025	-2.5896	-2.9354	-3.0021	-2.8542	-3.0271	-2.8208	-2.9229	-2.9354	-2.75	-2.8937	-2.8417	-2.8	410.529	167.005	197.223	380.815	194.523	359.655	407.035	407.126	367.541	205.035	431.099	433.350	165.044	490.432	438.202	397.473	0.00059805	0.00043985	0.00011815	505.2	4.0276e-06	6.4214e-06	982.09	158.95	4.7099e-06	6.3099e-06	361.51	133.11	44.076	17.455	3.8649e-06	60.173	0.00023226	0.00010197	2.8564e-05	432.18	1.0001e-06	1.1186e-06	829.08	133.4	2.0513e-06	1.0545e-06	306.11	114.04	37.183	14.848	3.9926e-06	51.663	260.843	247.525	244.598	156.155	305.221	306.960	156.869	161.622	328.152	303.145	161.208	166.710	165.724	170.304	370.730	170.177	-8191	255	
18932.420	1	1	0	0	0.17539	0.0081133	0.21849	0.041717	0.10461	0.10743	0.36465	0.21075	0.35814	0.17079	0.098389	0.19414	0.24077	0.18436	0.096202	0.096366	-2.5875	-2.6813	-2.8812	-3.0875	-2.7687	-2.9646	-2.8917	-2.6333	-3.0563	-2.9646	-2.9042	-2.8646	-2.7583	-2.9125	-2.7313	-2.8063	360.845	219.425	462.437	462.194	152.126	353.687	437.010	271.624	316.837	164.300	482.728	218.304	166.357	332.303	250.317	386.450	0.00056969	0.00050679	0.00017349	510.27	4.0179e-06	4.4973e-06	984.93	159.53	4.9551e-06	5.9504e-06	363.04	133.65	44.399	17.528	3.0129e-06	60.055	0.00023141	9.2813e-05	3.1017e-05	430.33	1.0958e-06	1.0476e-06	830.58	134.63	2.1432e-06	2.4995e-06	307.66	114.13	37.415	14.797	2.0877e-06	51.229	260.491	216.463	250.101	155.782	295.339	290.652	157.094	161.498	343.196	278.094	161.529	166.345	165.427	170.094	285.541	170.199	-8191	255	
18932.518	1	1	0	0	0.11349	0.026957	0.37032	0.16197	0.19193	0.060577	0.2486	0.082238	0.058632	0.30641	0.2442	0.18371	0.17788	0.082339	0.212	0.20055	-2.4979	-2.7958	-2.7271	-2.9625	-2.7583	-2.7396	-3.1583	-2.8479	-2.8771	-2.8167	-2.8458	-3.0979	-2.7812	-2.8958	-2.9208	-2.7229	501.442	240.614	309.128	474.975	494.280	391.386	467.836	420.826	453.965	276.844	456.551	278.901	293.233	460.458	197.424	478.484	0.00062599	0.00044157	0.00013916	499.16	2.5835e-06	4.6751e-06	968.99	156.5	3.0052e-06	6.0541e-06	356.54	133.61	44.346	17.35	4.7093e-06	60.113	0.00023578	0.00010899	2.5875e-05	428.09	1.0097e-06	1.1169e-06	818.66	132.28	1.1538e-06	2.1519e-06	302.81	113.55	37.096	14.816	3.9781e-06	51.415	259.195	218.669	229.200	156.010	267.694	287.778	156.537	161.613	345.914	303.346	161.703	166.933	165.524	170.586	345.108	170.028	-8191	255	
18932.637	1	1	0	0	0.14113	0.12849	0.12035	0.24087	0.062112	0.10713	0.19281	0.29069	0.13438	0.055139	0.015744	0.22577	0.19987	0.1745	0.070081	0.28865	-2.525	-2.8708	-2.7146	-3	-2.6188	-2.7292	-2.9688	-2.6125	-3.0292	-2.9958	-2.8833	-3.1292	-2.7667	-2.65	-3.0271	-2.8208	445.991	167.543	381.501	415.946	224.418	408.401	446.511	418.802	251.981	388.111	404.092	464.149	498.370	399.427	163.291	424.137	0.00062638	0.00042246	0.000174	502.6	4.9358e-06	5.4887e-06	972.45	158.68	3.2679e-06	7.1641e-06	361.36	134.29	44.175	17.597	3.1278e-06	60.548	0.00023957	9.9438e-05	2.9151e-05	425.76	1.1935e-06	1.1488e-06	823.4	133.54	1.1122e-06	3.9775e-06	305.9	114.56	37.453	14.971	2.2079e-06	51.834	258.426	254.252	264.107	155.817	316.829	290.661	156.944	161.371	338.370	308.330	161.748	166.484	166.045	170.162	375.044	170.065	-8191	255	
18932.732	1	1	0	0	0.13217	0.045492	0.36683	0.070541	0.10633	0.058277	0.088431	0.12511	0.1898	0.19506	0.15712	0.16037	0.13807	0.11315	0.20518	0.24041	-2.575	-2.7167	-2.6875	-3.0458	-2.8917	-2.8604	-3.15	-2.6	-2.9292	-2.8771	-2.7875	-2.9583	-2.8896	-2.6208	-2.9396	-2.5917	441.001	408.245	239.604	390.646	263.902	307.502	416.380	466.581	355.124	410.183	366.984	441.405	468.916	217.834	471.897	443.926	0.00059776	0.00035944	0.00014444	502.13	7.4814e-06	1.2471e-06	980.18	159.86	4.0585e-06	6.9577e-06	362.81	134.77	44.612	17.694	1.0527e-06	60.886	0.00023426	0.0001051	2.9942e-05	426.82	2.6576e-06	1.0801e-06	827.86	134.34	1.2253e-06	2.1089e-06	306.86	114.82	37.679	15.061	4.028e-06	52.062	257.417	256.474	234.404	155.823	258.852	386.031	157.356	161.435	297.646	321.029	161.158	166.770	165.630	170.225	275.792	170.582	-8191	255	
18932.828	1	1	0	0	0.18749	0.03407	0.088948	0.15049	0.31639	0.059723	0.31003	0.17363	0.14341	0.22106	0.22769	0.11565	0.34731	0.21999	0.062172	0.38585	-2.625	-2.9688	-2.7333	-2.8771	-2.7458	-2.5792	-2.9979	-2.8688	-2.9646	-3.1042	-2.6437	-3.0625	-2.9792	-2.7521	-2.9062	-2.8958	285.784	199.893	286.221	327.770	389.232	187.308	475.949	436.213	224.453	359.061	357.437	500.304	331.587	171.639	168.197	487.435	0.00062091	0.00045527	9.9164e-05	515.4	3.9393e-06	4.1449e-06	982.22	159.66	3.7257e-06	1.1056e-05	362.42	135.03	44.945	17.544	4.3075e-06	60.155	0.00024258	0.00010172	3.0836e-05	429.74	2.0352e-06	1.0086e-06	831.34	134.5	1.1775e-06	4.0693e-06	307.75	115.14	37.602	14.966	2.0681e-06	51.782	258.042	245.437	232.844	156.073	274.843	300.136	157.022	161.832	330.240	333.556	161.776	166.506	165.490	170.169	334.917	170.235	-8191	255	
18932.926	1	1	0	0	0.40414	0.21208	0.18964	0.13621	0.1971	0.24713	0.075169	0.20693	0.19112	0.19131	0.29772	0.25365	0.26007	0.17438	0.22049	0.23564	-2.2021	-2.9833	-2.6542	-2.9792	-2.9271	-2.6375	-3.025	-2.8063	-2.6229	-3.0812	-2.7042	-2.9938	-2.8312	-2.5708	-2.925	-2.9271	446.969	340.804	179.684	408.388	162.533	461.036	343.627	491.429	294.285	356.175	344.612	148.063	484.253	355.624	201.582	164.258	0.00060058	0.00024453	0.00013261	500.96	8.4374e-06	5.7526e-06	972.61	158.65	4.366e-06	4.1717e-06	360.72	134.53	44.758	17.584	3.3048e-06	60.363	0.00023201	9.7256e-05	2.7944e-05	423.79	3.969e-06	1.1407e-06	820.49	133.28	1.2902e-06	2.0307e-06	305.55	114.78	37.538	15.001	1.8484e-06	51.862	259.420	206.479	233.108	155.931	264.740	290.892	157.092	161.354	308.608	279.957	161.416	166.518	165.180	169.638	372.520	169.723	-8191	255	
18933.021	1	1	0	0	0.097584	0.12687	0.17948	0.40175	0.14049	0.28827	0.099308	0.082606	0.20204	0.16738	0.17039	0.38737	0.074379	0.22731	0.034636	0.22084	-2.2021	-2.8896	-2.6208	-2.8896	-2.7521	-2.6437	-3.1188	-2.8417	-2.6125	-2.9854	-2.6958	-3.0271	-2.8271	-2.7812	-2.9229	-2.9604	307.530	206.754	468.640	252.597	181.922	245.303	474.859	396.712	151.208	233.940	472.684	429.787	327.820	170.875	412.616	469.871	0.00062523	0.00038244	0.00010263	497.99	2.682e-06	3.591e-06	965.22	157.44	3.708e-06	1.1086e-05	357.12	134.5	44.607	17.37	2.1639e-06	60.418	0.00023798	9.6529e-05	2.9656e-05	421.83	1.9979e-06	1.0664e-06	820.25	132.58	1.1294e-06	4.0256e-06	303.61	114.45	37.287	14.872	1.1478e-06	51.573	258.704	229.487	195.360	156.634	297.312	323.848	156.787	161.846	298.149	334.633	161.436	166.608	165.113	170.443	303.532	170.118	-8191	255	
18933.117	1	1	0	0	0.12732	0.090348	0.19313	0.38687	0.10914	0.15768	0.26844	0.21946	0.16688	0.11235	0.10352	0.035128	0.09684	0.057845	0.1505	0.21539	-2.2042	-3.075	-2.6646	-2.7521	-3.0938	-2.7396	-2.9062	-2.7625	-2.5563	-2.9521	-2.7792	-2.9375	-3.0229	-2.7229	-3.0563	-3.0229	490.826	254.926	232.556	240.719	433.790	335.281	468.176	494.458	431.433	418.615	211.829	165.862	202.383	144.720	376.110	446.922	0.00060302	0.00060675	9.5498e-05	510.17	8.1298e-06	2.5414e-06	977.76	157.14	4.7736e-06	5.2472e-06	361.54	134.86	44.273	17.467	3.0964e-06	60.947	0.00023662	9.8691e-05	2.6879e-05	427.13	4.0331e-06	1.0375e-06	826.35	132.67	1.1454e-06	1.9416e-06	306.3	114.52	37.481	14.917	1.1608e-06	52.111	258.400	216.470	276.413	156.846	292.291	278.677	157.060	161.493	310.879	307.772	161.675	167.078	165.894	169.936	341.941	170.324	-8191	255	
18933.238	1	1	0	0	0.23698	0.1702	0.25439	0.13873	0.24977	0.15258	0.23461	0.12428	0.12558	0.23288	0.19406	0.27854	0.082557	0.13935	0.19867	0.13056	-2.3063	-2.8021	-2.6833	-2.7396	-3.0021	-2.8271	-3.0563	-3.0021	-2.6542	-3.0583	-2.7729	-2.8729	-2.9542	-2.5417	-2.9792	-2.8396	301.428	419.443	484.175	349.572	421.972	401.276	426.629	309.262	196.432	223.494	161.742	358.457	412.745	463.301	317.848	488.794	0.00062562	0.00057033	0.00012297	516.35	4.2306e-06	6.6213e-06	989.31	158.97	4.7703e-06	7.1202e-06	364.69	135.77	44.717	17.395	4.5211e-06	60.163	0.00023889	0.00010249	2.7796e-05	431.68	2.1065e-06	1.0871e-06	837.52	134.12	1.2224e-06	1.7618e-06	309.48	115.52	37.384	14.898	1.1944e-06	51.675	258.515	216.090	249.728	156.793	308.234	266.942	157.111	160.995	314.338	338.754	161.469	166.570	165.589	170.635	282.992	170.097	-8191	255	
18933.334	1	1	0	0	0.23432	0.3166	0.14822	0.2284	0.076247	0.050112	0.14391	0.096769	0.24523	0.1874	0.088475	0.072117	0.18226	0.080065	0.14268	0.14687	-2.1396	-2.9833	-2.7833	-2.65	-2.8917	-2.9271	-3.0271	-2.8667	-2.5	-2.8396	-2.9854	-2.8937	-3.0229	-2.8083	-2.7417	-2.9354	366.574	192.336	382.276	499.820	247.924	245.918	473.798	407.377	387.947	499.276	489.339	443.413	459.999	327.638	187.249	395.864	0.0006373	0.00040419	6.3521e-05	506.23	6.372e-06	4.0301e-06	969.43	156.03	4.7389e-06	3.5312e-06	358.56	134.29	44.099	17.242	3.994e-06	60.004	0.00024681	0.00010396	2.8399e-05	423.47	3.8345e-06	1.0967e-06	819.97	131.53	1.1404e-06	1.087e-06	303.99	113.55	36.973	14.739	1.0938e-06	51.547	258.500	224.398	282.224	155.102	252.210	275.916	156.930	161.320	296.444	342.754	161.913	167.091	166.012	170.102	312.016	170.482	-8191	255	
18933.430	1	1	0	0	0.12316	0.1437	0.2902	0.22694	0.17438	0.29665	0.37895	0.15696	0.10457	0.063984	0.23078	0.25337	0.20963	0.15614	0.17915	0.35988	-2.15	-2.825	-2.7562	-2.6958	-3.1708	-2.8708	-2.8375	-3.0833	-2.5271	-2.8771	-3.1063	-2.7354	-2.9562	-2.9062	-2.7208	-3.1562	442.565	421.487	190.260	332.583	282.655	259.940	446.505	471.746	388.334	467.970	422.889	439.375	158.539	440.193	173.990	421.571	0.00057934	0.00056536	0.00016096	511.19	3.7104e-06	5.137e-06	970.74	158.25	5.572e-06	5.9278e-06	359.59	132.74	44.015	17.474	4.0072e-06	59.992	0.00023083	9.702e-05	2.7993e-05	428.36	1.8409e-06	1.0738e-06	823.15	132.6	1.232e-06	1.044e-06	306.13	113.73	37.219	14.827	1.0938e-06	51.668	256.478	234.945	201.990	155.922	279.700	318.296	157.119	161.361	315.903	308.079	161.636	166.791	165.722	169.977	291.151	170.491	-8191	255	
18933.502	1	1	0	0	0.27127	0.13431	0.16793	0.13681	0.24851	0.20594	0.32312	0.052075	0.24868	0.20428	0.10487	0.20452	0.11156	0.22186	0.065007	0.073837	-2.2104	-2.8063	-2.85	-2.7188	-2.9833	-2.7042	-2.9	-2.9875	-2.6937	-2.9188	-2.8396	-2.875	-2.7979	-2.8812	-2.8563	-3.1813	483.374	458.772	159.364	149.452	208.278	372.616	436.283	262.282	294.778	195.464	430.247	216.616	471.741	355.543	151.192	371.369	0.00058806	0.00042441	0.00013644	505.36	4.3593e-06	8.6202e-06	976.65	159.42	4.1798e-06	3.5702e-06	361.78	135.75	44.541	17.748	3.3813e-06	61.067	0.00023001	9.5821e-05	2.9464e-05	428.25	1.6132e-06	3.0157e-06	827.76	133.76	1.1434e-06	1.1294e-06	308.11	115.12	37.654	15.047	1.0297e-06	52.372	259.493	259.158	220.261	156.381	314.246	279.596	157.459	160.900	280.057	313.600	161.682	166.859	165.999	170.186	285.065	170.279	-8191	255	
18933.621	1	1	0	0	0.088708	0.23794	0.16965	0.23939	0.31602	0.31037	0.30348	0.25047	0.048335	0.16784	0.12274	0.15761	0.14238	0.19634	0.26442	0.25214	-2.2104	-2.7625	-2.7271	-2.5604	-3.0938	-2.6417	-2.6771	-3.0312	-2.7542	-2.6333	-3.15	-2.7167	-2.9833	-2.8792	-2.7396	-3.0208	495.554	302.253	300.922	197.772	230.421	430.634	400.913	166.602	167.450	451.647	459.508	331.879	157.026	273.738	305.282	374.235	0.00059054	0.00019182	0.00018526	509.93	2.786e-06	4.2801e-06	989.96	158.38	3.3051e-06	2.6509e-06	367.39	135.74	45.437	17.654	3.8868e-06	60.888	0.00023468	0.00010125	2.9936e-05	427.36	1.11e-06	2.1911e-06	834.01	134.69	1.0693e-06	1.1274e-06	311.89	115.8	38.022	15.088	1.2588e-06	52.281	257.245	223.685	217.622	155.789	281.990	297.539	157.135	161.325	304.834	266.051	161.316	166.717	165.818	170.110	283.651	170.100	-8191	255	
18933.717	1	1	0	0	0.36489	0.2708	0.1654	0.16165	0.16423	0.2605	0.31073	0.13043	0.19027	0.092083	0.15558	0.11387	0.20991	0.24128	0.22979	0.032679	-2.1146	-2.8	-2.95	-2.7125	-2.9417	-2.8438	-2.5687	-2.9354	-2.8229	-2.8917	-3.0187	-2.6312	-2.85	-3.025	-2.6021	-3.1063	315.103	420.168	392.058	369.514	429.922	410.782	156.621	375.885	198.903	395.043	381.520	189.982	253.229	468.756	383.771	155.567	0.00057486	0.00028409	0.0001228	511.34	4.7272e-06	1.0221e-05	970.14	157.98	3.1795e-06	3.6264e-06	361.28	134.63	43.892	17.227	3.8841e-06	60.239	0.00023975	0.00010817	2.7231e-05	425.54	1.0515e-06	3.8831e-06	819.64	132.76	1.2101e-06	1.0232e-06	305.95	114.13	37.208	14.826	1.0719e-06	51.676	255.976	223.419	230.176	156.104	299.640	265.957	157.091	161.298	338.154	301.524	161.209	166.288	165.323	169.657	320.228	169.704	-8191	255	
18933.812	1	1	0	0	0.41056	0.23881	0.30738	0.12695	0.22074	0.17152	0.10997	0.23536	0.14437	0.31686	0.014205	0.29211	0.031463	0.14406	0.19257	0.082693	-2.3271	-2.7396	-2.9417	-2.7562	-2.75	-2.9583	-2.825	-2.7833	-2.8917	-2.7271	-3.0646	-2.6688	-2.9437	-3.0333	-2.6479	-3.0854	434.160	238.374	450.093	470.291	403.825	476.106	345.352	174.184	358.646	477.712	360.866	445.660	239.056	500.820	293.992	385.046	0.00055843	0.00030472	0.00015803	509.46	5.1295e-06	7.157e-06	968.78	158.9	3.1721e-06	3.8609e-06	359.9	133.7	43.989	17.585	3.2624e-06	60.754	0.00038235	9.3855e-05	2.8345e-05	428.25	1.136e-06	2.1502e-06	819.65	133.19	1.2553e-06	1.0055e-06	305.74	114.36	37.178	14.957	1.1787e-06	51.871	251.856	216.715	229.661	155.542	293.400	293.894	157.234	161.404	301.204	282.105	161.267	166.572	164.987	170.620	301.508	170.000	-8191	255	
18933.908	1	1	0	0	0.13241	0.087292	0.20372	0.057937	0.3165	0.13033	0.24473	0.053336	0.057503	0.26241	0.31573	0.049505	0.071189	0.094764	0.15604	0.2207	-2.3667	-2.7188	-2.9792	-2.7188	-2.7313	-2.8583	-2.7	-3.0792	-2.8042	-2.925	-3.0958	-2.6792	-2.8729	-2.9125	-2.7292	-3.0792	492.855	297.565	208.766	207.480	198.924	321.228	483.851	377.266	424.425	424.910	449.142	347.593	218.342	406.449	493.364	462.528	0.00060614	0.00036204	0.00012957	513.34	2.8545e-06	7.4649e-06	972.11	158.02	3.2832e-06	6.5209e-06	359.96	133.54	44.496	17.696	2.8736e-06	60.636	0.00030766	0.00010386	2.6748e-05	424.86	1.1629e-06	4.0466e-06	823.94	133.57	1.1881e-06	1.0569e-06	305.41	114.35	37.428	15.027	1.1128e-06	51.976	255.219	232.920	244.238	156.236	280.665	282.503	156.750	161.567	298.843	326.374	161.665	166.518	165.769	169.879	286.963	170.263	-8191	255	
18934.029	1	1	0	0	0.024203	0.055389	0.022775	0.17086	0.091162	0.18677	0.3735	0.14168	0.24018	0.11322	0.30581	0.21616	0.15609	0.16443	0.1539	0.14118	-2.4437	-2.55	-2.9146	-2.7125	-2.8583	-3.1458	-2.7458	-2.8208	-2.8292	-2.6292	-3.0396	-2.8354	-2.7521	-3.0229	-2.7542	-2.9854	460.660	315.304	153.160	486.922	205.003	195.922	437.773	404.971	285.792	412.478	399.154	158.207	343.028	178.177	168.479	370.042	0.00053424	0.00046277	0.00011007	505.92	3.8329e-06	7.4619e-06	976.49	157.88	2.7161e-06	2.4674e-06	361.21	133.55	44.084	17.508	3.8733e-06	60.812	0.00042797	0.00010581	2.835e-05	424.46	1.0199e-06	2.0689e-06	825.88	133.08	1.2944e-06	1.1665e-06	305.43	114.96	37.289	14.921	1.1576e-06	51.94	251.157	231.620	221.238	156.348	328.789	305.157	157.058	161.582	304.718	291.135	161.374	166.452	165.531	169.966	302.160	170.301	-8191	255	
18934.127	1	1	0	0	0.27941	0.14894	0.039599	0.059056	0.1134	0.22323	0.14955	0.18346	0.13488	0.10427	0.08474	0.099512	0.14215	0.17333	0.034971	0.10584	-2.5125	-2.7896	-2.9833	-2.8104	-2.6896	-3.0312	-2.8021	-2.7833	-2.8167	-2.6292	-2.9813	-2.7396	-2.6813	-2.9188	-2.5771	-3.0083	153.496	373.001	297.810	182.634	316.600	434.779	441.722	449.732	297.425	225.097	376.700	226.821	374.420	157.170	389.184	488.834	0.00058638	0.00033074	0.0001503	496.02	6.2531e-06	1.199e-05	972.94	155.23	3.2139e-06	2.2486e-06	350.34	131.57	44.036	17.209	2.7969e-06	59.702	0.00031503	9.647e-05	2.9343e-05	418.49	1.1788e-06	3.9878e-06	815.09	131.19	1.1519e-06	1.0818e-06	299.37	112.65	36.769	14.673	1.1158e-06	51.008	257.430	229.610	242.533	155.905	320.591	289.441	156.960	161.749	321.234	305.703	161.535	166.984	165.154	169.952	303.145	170.186	-8191	255	
18934.197	1	1	0	0	0.049043	0.060747	0.1655	0.12001	0.15876	0.16755	0.25715	0.13005	0.22406	0.34712	0.2014	0.18254	0.01264	0.15724	0.10934	0.13606	-2.4833	-2.525	-2.9875	-2.7667	-2.7479	-2.8229	-3	-2.7042	-2.8333	-2.6958	-3.0083	-2.8625	-2.5438	-2.8937	-2.6771	-2.7313	273.177	242.230	466.185	445.441	394.636	399.814	478.395	187.658	416.881	194.591	466.652	444.740	404.626	194.765	428.479	483.399	0.00053529	0.00020718	5.3118e-05	492.88	4.5332e-06	2.8238e-07	959.07	157.19	4.2214e-06	6.0197e-06	353.43	132.07	44.001	17.166	3.2684e-06	60.108	0.00040741	9.531e-05	2.7697e-05	413.95	1.0996e-06	1.7394e-06	810.46	131.55	1.1124e-06	1.0344e-06	299.1	112.99	36.775	14.695	1.0533e-06	51.482	255.491	282.537	281.680	155.464	299.113	149.174	156.934	161.217	306.099	279.875	161.628	166.556	165.137	170.438	321.262	169.901	-8191	255	
18934.318	1	1	0	0	0.092436	0.19152	0.14988	0.27051	0.108	0.020207	0.3022	0.059081	0.0093833	0.060422	0.24749	0.072541	0.23633	0.1875	0.22543	0.23966	-2.4521	-2.5771	-2.7729	-2.8354	-2.6354	-2.8333	-2.8812	-2.7938	-3.1188	-2.5646	-2.7875	-3.0187	-2.6917	-2.8333	-2.7896	-2.8583	170.069	340.336	190.564	322.581	218.287	212.757	451.531	463.078	435.007	219.137	373.606	370.185	298.988	192.292	384.454	416.883	0.00059322	0.00047718	5.4717e-05	494.22	3.2964e-06	6.9555e-06	965.68	156.14	2.8061e-06	5.0421e-06	356.04	132.57	43.827	17.407	2.5098e-06	60.076	0.00030763	0.00010227	2.9519e-05	414.88	1.077e-06	1.1407e-06	817.33	131.17	1.1382e-06	1.1993e-06	301.03	113.13	36.846	14.789	1.1492e-06	51.352	258.072	251.140	215.790	156.280	310.650	336.680	157.196	161.512	326.708	301.982	161.549	166.923	165.492	170.102	275.797	170.283	-8191	255	
18934.414	1	1	0	0	0.17115	0.20794	0.20246	0.15647	0.093179	0.18501	0.32008	0.15759	0.10868	0.075668	0.22319	0.14042	0.39814	0.1779	0.27607	0.11084	-2.675	-2.8271	-2.6813	-2.9	-2.6937	-2.8812	-2.9688	-2.7396	-2.9667	-2.5583	-2.9813	-2.9021	-2.6375	-2.9958	-2.9167	-2.7792	299.627	295.197	214.071	461.198	420.763	408.353	462.005	174.090	323.072	177.145	397.546	463.185	458.920	153.040	364.346	434.645	0.00062588	0.00042537	0.00013544	506.29	3.108e-06	3.4023e-06	974.13	157.05	4.1086e-06	5.5753e-06	359.07	133.74	43.969	17.337	4.2664e-06	60.35	0.00042319	0.00010292	2.6621e-05	420.53	1.063e-06	9.8569e-07	822.15	132.23	1.2711e-06	1.1405e-06	302.81	114.14	36.98	14.786	1.2083e-06	51.752	253.239	260.698	245.678	156.637	276.470	316.059	156.563	161.726	322.735	317.428	161.471	167.065	166.221	169.990	289.818	170.326	-8191	255	
18934.510	1	1	0	0	0.068531	0.11556	0.16347	0.26493	0.20269	0.17485	0.03427	0.27645	0.16489	0.079241	0.19416	0.16972	0.21481	0.1532	0.27099	0.21774	-2.5083	-2.6167	-2.7833	-2.9833	-2.5479	-3.0229	-2.9792	-2.5792	-2.9458	-2.6688	-2.6667	-3.2542	-2.6229	-2.8208	-2.925	-2.5667	235.998	147.884	298.560	203.166	183.411	330.379	339.511	437.636	368.780	485.448	177.521	488.573	496.990	490.525	478.818	391.833	0.00053937	0.00036074	0.00012427	499.99	6.5179e-06	5.2411e-06	956.01	156.28	3.0621e-06	3.5177e-06	353.42	131.84	43.479	17.152	3.8253e-06	60.04	0.00025998	0.00013465	2.8948e-05	419.36	1.0723e-06	1.0607e-06	813.46	131.03	1.0756e-06	1.0772e-06	299.59	112.82	36.55	14.721	1.1484e-06	51.152	260.188	199.537	235.260	156.538	306.982	320.701	156.686	161.325	274.705	341.679	161.562	166.609	165.500	169.823	290.580	170.215	-8191	255	
18934.605	1	1	0	0	0.226	0.16773	0.23259	0.25563	0.16659	0.24887	0.18321	0.31046	0.028054	0.16582	0.17276	0.13261	0.31943	0.1519	0.056618	0.12794	-2.5833	-2.6708	-2.6146	-2.8854	-2.6521	-2.8604	-3.0396	-2.7812	-3.0187	-2.8125	-2.9625	-3.05	-2.6333	-2.9146	-3.0396	-2.7229	144.058	284.890	353.788	445.519	454.072	301.043	428.456	312.032	468.851	356.098	168.412	492.426	221.611	307.742	330.489	490.044	0.0006086	0.00036495	0.00012883	501.39	3.93e-06	6.0249e-06	964.5	155.75	1.64e-06	3.9243e-06	353.04	132.37	43.719	17.37	3.3355e-06	59.784	0.00022698	0.00033539	2.6934e-05	418.48	1.0902e-06	1.0296e-06	813.92	131.42	1.1367e-06	1.267e-06	300.42	113.23	36.824	14.719	1.1169e-06	51.267	260.190	154.516	227.999	156.827	290.660	284.210	156.951	160.916	331.090	320.235	161.609	166.820	165.930	170.010	316.494	170.527	-8191	255	
18934.727	1	1	0	0	0.19533	0.20993	0.11417	0.1851	0.11838	0.26491	0.11131	0.19712	0.147	0.0088921	0.15641	0.10526	0.18099	0.095342	0.15851	0.15422	-2.4979	-2.8292	-2.7479	-2.8021	-2.6375	-2.7729	-2.9938	-2.6729	-2.8542	-2.7708	-2.9313	-2.9667	-2.6688	-2.9458	-2.9521	-2.7208	163.520	474.734	440.398	276.055	418.143	280.170	355.652	263.557	155.820	450.234	435.629	160.034	171.641	356.561	428.718	453.978	0.00057807	0.00067803	7.8218e-05	493.19	4.2673e-06	4.5461e-06	964.92	154.78	4.7618e-06	4.4032e-06	354.36	133.06	43.931	17.427	4.0299e-06	60.345	0.00023437	0.00019691	2.5842e-05	416.41	1.0495e-06	1.0913e-06	816.8	131.46	1.2282e-06	1.0127e-06	301.46	113.69	36.988	14.792	1.2366e-06	51.666	259.992	215.553	257.178	155.804	286.296	277.867	156.951	161.463	319.808	294.679	161.740	166.663	165.105	170.446	298.997	170.529	-8191	255	
18934.799	1	1	0	0	0.14064	0.40474	0.17453	0.29764	0.094463	0.21679	0.025663	0.10964	0.21964	0.11626	0.25538	0.17204	0.14813	0.14142	0.088732	0.13416	-2.5667	-2.6958	-2.525	-3.0062	-2.7667	-2.7313	-3.2542	-2.6729	-2.8417	-2.8125	-2.7562	-2.9771	-2.7958	-2.7583	-3.15	-2.5958	328.630	340.885	352.573	433.856	377.599	284.654	339.237	475.110	272.727	154.976	480.379	482.034	211.463	451.530	303.734	439.054	0.00060491	0.00041084	0.00012876	499.42	4.3215e-06	2.2704e-06	973.66	156.86	3.7344e-06	5.4075e-06	354.55	133.1	44.023	17.399	4.5259e-06	59.978	0.00024337	0.00035771	2.8586e-05	421.45	1.1088e-06	1.0126e-06	820.02	131.91	1.259e-06	1.0695e-06	301.47	113.35	37.417	14.753	1.1539e-06	51.194	256.924	280.162	246.210	156.276	279.372	322.454	156.868	161.640	307.093	311.081	161.693	166.628	165.779	170.176	291.380	169.904	-8191	255	
18934.918	1	1	0	0	0.08025	0.14757	0.16011	0.18379	0.32544	0.1337	0.29883	0.23162	0.11518	0.14357	0.18519	0.26932	0.11777	0.3324	0.085352	0.36187	-2.4375	-2.9813	-2.5708	-3.0062	-3.0208	-2.7792	-3.2812	-2.7938	-2.9042	-2.9313	-2.8729	-2.9646	-2.9104	-2.7292	-3.1958	-2.75	463.680	478.031	232.714	374.634	222.866	338.940	438.587	228.792	452.331	442.099	494.327	446.070	296.939	435.726	469.898	145.273	0.00055766	0.00027303	0.00013044	491.52	2.712e-06	5.3268e-06	960.38	153.14	3.3179e-06	4.4839e-06	348.88	130.73	42.846	16.968	3.2998e-06	59.267	0.00022614	0.00018421	2.8312e-05	415.28	1.0928e-06	1.0548e-06	810.77	129.96	1.2351e-06	1.1506e-06	297.37	111.67	36.194	14.403	1.0461e-06	50.38	255.621	231.305	203.851	156.266	348.987	321.227	156.880	161.743	301.795	319.261	161.532	166.792	165.829	170.250	305.216	169.897	-8191	255	
18935.014	1	1	0	0	0.18632	0.24678	0.15542	0.011524	0.29806	0.27076	0.20878	0.19906	0.089734	0.12956	0.16356	0.2208	0.16598	0.1659	0.047954	0.13214	-2.3271	-2.9417	-2.6375	-3.0771	-2.8312	-2.6667	-3.1063	-2.6333	-2.8979	-2.9583	-2.6542	-3.0542	-2.8812	-2.5979	-2.9833	-2.8063	419.719	219.192	346.038	322.990	182.884	309.901	387.045	431.235	194.344	433.920	414.997	184.262	390.862	276.025	344.162	484.121	0.00059171	0.00033483	0.00011471	496.18	3.9115e-06	4.1915e-06	946.74	154.09	5.2733e-06	5.7899e-06	348.78	130.03	42.027	16.903	3.3572e-06	58.323	0.00022945	0.00035794	2.8295e-05	414.35	1.021e-06	1.0843e-06	803.2	129.44	1.1927e-06	1.1538e-06	295.93	110.96	36.138	14.33	1.0898e-06	50.098	261.037	194.438	242.022	156.104	337.961	290.038	156.900	161.164	312.779	316.949	161.334	167.017	165.052	169.831	295.638	170.061	-8191	255	
18935.109	1	1	0	0	0.10966	0.22011	0.24466	0.16756	0.16005	0.17292	0.17084	0.072136	0.35384	0.16512	0.057935	0.12794	0.12055	0.35129	0.093249	0.3157	-2.3833	-2.7833	-2.5729	-2.8521	-2.7479	-2.6979	-2.9396	-2.9813	-2.75	-2.7708	-2.8187	-2.8312	-2.8604	-2.7083	-2.9688	-2.9604	254.353	168.114	413.789	361.482	373.014	321.818	150.716	161.266	227.426	194.882	477.566	241.035	433.050	454.532	312.428	438.866	0.0005302	0.00044016	0.00015258	492.09	3.3924e-06	1.7977e-06	947.41	152.85	3.1839e-06	7.1372e-06	351.56	131.27	42.433	16.807	4.4057e-06	58.31	0.00022417	0.0001776	3.0468e-05	410.7	1.0395e-06	1.149e-06	803.68	129.48	1.1877e-06	1.139e-06	295.69	111.33	36.02	14.284	1.2532e-06	49.879	260.157	255.154	247.193	156.714	307.624	254.112	156.727	161.379	293.371	288.533	160.985	166.374	165.854	170.081	289.675	170.404	-8191	255	
18935.207	1	1	0	0	0.21888	0.24076	0.1845	0.1171	0.19788	0.28564	0.26773	0.24291	0.085894	0.21252	0.36556	0.12632	0.32429	0.26598	0.145	0.078382	-2.3271	-3.0812	-2.6229	-2.975	-2.7708	-2.6208	-3.0792	-2.7625	-2.8271	-3.2292	-2.8063	-2.8146	-3.0646	-2.5583	-2.9083	-2.75	498.627	160.587	282.192	430.621	469.724	368.100	448.060	196.889	342.284	283.767	435.384	454.200	410.347	179.536	438.323	437.892	0.00060128	0.00063468	0.00010606	486.88	5.0463e-06	2.8695e-06	952.4	153.88	3.7456e-06	5.2122e-06	349.82	131.04	42.784	16.82	3.9066e-06	58.343	0.00023592	0.00035311	2.9727e-05	410.01	1.0926e-06	9.9968e-07	806.37	129.48	1.2026e-06	1.13e-06	295.2	111.4	36.226	14.313	1.1563e-06	49.809	257.651	202.949	243.974	155.934	279.762	298.383	156.859	161.482	311.177	298.076	161.016	166.456	166.009	170.401	300.311	170.056	-8191	255	
18935.324	1	1	0	0	0.26353	0.12775	0.089153	0.081892	0.11616	0.36419	0.13267	0.15914	0.16316	0.019946	0.18175	0.213	0.15482	0.12351	0.065643	0.2723	-2.3458	-2.9958	-2.8604	-2.6688	-3.0583	-2.6417	-3.0104	-2.8729	-2.8208	-3.0479	-2.8271	-2.9917	-2.7604	-2.7771	-2.9313	-3.0708	304.127	432.623	252.971	385.210	159.930	445.051	420.168	222.855	239.497	386.789	146.344	419.130	473.816	144.636	263.719	439.645	0.0005922	0.00036259	0.00014166	493.68	4.1281e-06	4.438e-06	947.73	151.99	3.1058e-06	3.7899e-06	341.93	129.71	41.995	16.688	4.6972e-06	57.826	0.00022883	0.00014139	3.7855e-05	412.11	1.1139e-06	1.1783e-06	800.58	128.81	1.164e-06	1.1182e-06	292.53	110.34	35.598	14.133	1.1409e-06	49.377	257.854	227.641	208.313	155.929	310.789	302.176	156.824	161.349	295.988	290.832	161.410	166.797	165.089	169.815	304.014	169.873	-8191	255	
18935.422	1	1	0	0	0.072622	0.13651	0.070757	0.12951	0.13159	0.17323	0.1213	0.25833	0.04876	0.041217	0.27247	0.054431	0.036518	0.11808	0.041805	0.16037	-2.0062	-2.9167	-2.6583	-2.7271	-2.7667	-2.7479	-3.1188	-2.8479	-2.575	-2.9833	-2.7917	-2.7458	-2.9479	-2.7188	-2.9042	-3.025	472.418	331.880	353.151	418.087	322.511	441.825	439.889	202.012	402.163	399.230	156.057	231.359	376.406	474.182	465.073	212.398	0.00059375	0.00023404	0.00019286	481.35	2.8298e-06	1.1499e-06	945.58	152.35	2.8821e-06	5.1116e-06	344.72	129.32	42.534	16.551	2.8057e-06	57.813	0.00023157	0.00010445	9.8847e-05	405.44	1.0774e-06	1.0425e-06	797.01	128.57	1.1255e-06	1.0385e-06	292.39	110.36	35.925	14.043	1.0887e-06	49.475	257.430	239.338	209.731	156.411	305.604	237.914	156.310	161.704	312.479	288.407	161.468	166.465	165.578	169.705	266.852	170.206	-8191	255	
18935.492	1	1	0	0	0.068583	0.2616	0.18235	0.18663	0.2886	0.15319	0.27106	0.14639	0.16235	0.1238	0.17444	0.035838	0.13732	0.071915	0.13866	0.2116	-2.2354	-2.8438	-2.8208	-2.5625	-3.0062	-2.6771	-2.9125	-2.7333	-2.5062	-2.9042	-2.8625	-2.6854	-3.0167	-2.8604	-2.8438	-3.1917	433.773	503.490	290.890	227.435	223.106	376.294	427.666	472.369	415.702	312.657	427.294	418.893	416.301	259.392	234.731	452.428	0.00060549	0.00031387	0.00013565	478.23	3.2331e-06	6.1688e-06	953.86	152.31	2.7308e-06	4.9387e-06	346.27	129.56	41.992	16.562	3.2304e-06	58.532	0.0002308	9.8809e-05	5.0153e-05	405.11	1.1015e-06	1.102e-06	800.12	129.33	1.2174e-06	1.0204e-06	292.81	110.58	35.643	14.135	1.226e-06	49.836	256.250	227.069	226.111	156.309	288.652	331.604	156.908	161.620	299.552	304.443	161.492	166.211	166.174	170.012	304.392	170.055	-8191	255	
18935.590	1	1	0	0	0.17878	0.17069	0.15789	0.1711	0.20482	0.047858	0.29886	0.14701	0.015485	0.13327	0.3408	0.23923	0.15817	0.33242	0.12068	0.22515	-2.2687	-2.8042	-2.7042	-2.65	-3.1521	-2.9	-2.7917	-3.2021	-2.7333	-2.9104	-3.0979	-2.7146	-2.8937	-2.9	-2.8854	-3	448.435	207.016	151.965	498.671	366.049	425.353	188.275	148.257	501.076	146.835	465.234	410.364	219.173	149.973	360.995	421.365	0.00059092	0.00024814	0.00020946	488.47	1.9892e-06	4.3498e-06	948.74	152.28	4.2129e-06	5.3579e-06	347.44	130.24	42.51	16.885	1.5885e-06	58.31	0.00023444	9.6647e-05	9.793e-05	405.8	1.1296e-06	1.1127e-06	802.06	128.82	1.1544e-06	1.122e-06	294.28	110.95	35.82	14.411	1.188e-06	50.101	262.373	173.113	210.460	155.770	297.959	290.564	156.644	161.570	315.601	311.088	161.568	166.336	165.767	170.706	344.128	170.319	-8191	255	
18935.688	1	1	0	0	0.14484	0.11446	0.22857	0.19918	0.35966	0.2715	0.26204	0.14182	0.18027	0.16771	0.058459	0.33071	0.27908	0.28734	0.19336	0.44258	-2.3396	-2.7521	-2.7708	-2.7208	-3.0104	-2.8208	-2.6188	-3.0292	-2.8167	-2.95	-2.9604	-2.7958	-2.8792	-2.6396	-2.5729	-2.9833	322.945	458.912	435.704	230.027	227.934	151.929	144.030	312.855	296.804	193.831	255.472	202.015	320.752	227.845	295.509	499.419	0.00055684	0.00045527	0.00013401	488.04	2.9725e-06	3.8261e-06	960.47	152.56	3.6554e-06	4.3577e-06	344.76	127.7	41.562	16.591	5.2027e-06	57.179	0.00022807	0.00010929	5.3676e-05	411.11	1.1441e-06	1.2533e-06	806.21	129.24	1.1687e-06	1.1088e-06	293.02	109.55	35.298	14.116	1.2057e-06	49.082	257.041	238.757	241.373	156.119	320.564	309.152	156.786	161.239	283.926	263.923	161.112	166.331	165.857	170.154	325.776	170.483	-8191	255	
18935.807	1	1	0	0	0.24173	0.13399	0.074575	0.25643	0.25533	0.23459	0.20836	0.2995	0.040913	0.14237	0.15452	0.12898	0.31269	0.32207	0.19609	0.23688	-2.15	-2.6167	-2.9583	-2.5354	-2.9458	-2.7229	-2.7042	-3.0312	-2.6875	-2.7896	-2.8583	-2.7708	-2.9771	-2.9667	-2.75	-3.0125	417.806	187.224	437.078	196.309	322.639	228.089	198.657	502.830	485.545	196.669	187.442	479.108	380.385	427.725	209.684	364.220	0.0005293	0.00050861	0.00026992	482.37	3.4756e-06	3.1915e-06	940.48	151.07	4.3047e-06	5.8506e-06	342.63	128.31	41.714	16.485	3.5334e-06	57.323	0.00021705	0.00011509	9.7425e-05	406.76	1.1507e-06	1.0705e-06	798.3	127.14	1.5668e-06	1.1973e-06	290.45	109.43	35.243	14.076	1.2042e-06	48.908	258.278	200.956	196.078	155.411	292.524	310.353	156.961	161.682	349.660	318.123	161.377	166.665	165.693	170.213	319.252	170.081	-8191	255	
18935.902	1	1	0	0	0.094979	0.25817	0.035582	0.13527	0.19575	0.28161	0.13039	0.094258	0.24999	0.27816	0.23321	0.086123	0.27488	0.15995	0.19655	0.23203	-2.2292	-2.5979	-3.0438	-2.4292	-2.875	-2.9688	-2.8833	-3.1396	-2.825	-2.7687	-3.1375	-2.7271	-2.75	-2.9417	-2.6979	-2.9708	201.401	434.587	400.812	503.457	479.989	455.676	376.604	271.247	304.410	244.239	487.183	200.107	409.130	415.705	421.559	386.280	0.00058807	0.00060594	5.2524e-05	490.25	3.5248e-06	3.0935e-06	950.53	150.99	3.7368e-06	6.5247e-06	342.52	129.04	42.547	16.501	4.8263e-06	58.06	0.00022937	0.00010512	5.1723e-05	408.58	1.149e-06	1.0526e-06	802.39	126.63	3.8644e-06	1.1309e-06	290.77	109.58	35.611	14.116	1.175e-06	49.614	256.578	247.454	194.782	156.663	313.667	292.445	156.500	161.570	337.598	283.445	161.563	166.427	165.222	170.162	300.161	170.356	-8191	255	
18935.998	1	1	0	0	0.10755	0.021063	0.096807	0.078899	0.18113	0.16372	0.1161	0.11633	0.18672	0.12388	0.091156	0.28235	0.15678	0.25097	0.12252	0.29126	-2.3625	-2.6958	-3.0312	-2.7708	-2.9	-2.9958	-2.8271	-3.0083	-2.7667	-2.6854	-3.1792	-2.7521	-2.975	-2.9292	-2.7417	-3.1104	215.243	359.149	400.648	364.113	351.477	450.813	233.639	210.626	292.184	376.096	433.860	149.961	403.592	328.803	239.116	468.053	0.00062238	0.0004223	0.00018721	491.93	2.8486e-06	3.645e-06	946.81	154.42	4.2709e-06	3.0885e-06	351.74	131.15	43.159	16.856	2.1919e-06	58.492	0.00024967	0.00010239	9.725e-05	411.77	1.136e-06	1.1534e-06	803.92	130	2.1711e-06	1.0204e-06	297.12	111.92	36.371	14.499	1.1288e-06	50.137	262.855	263.957	254.752	156.632	288.763	275.364	156.845	161.365	353.713	328.119	161.275	166.940	166.068	169.949	281.063	169.988	-8191	255	
18936.096	1	1	0	0	0.16454	0.094731	0.19399	0.11776	0.098185	0.016974	0.18229	0.17779	0.50453	0.10022	0.14252	0.065909	0.25429	0.094716	0.19236	0.016392	-2.4396	-2.7125	-2.7354	-2.7917	-2.9	-2.7979	-2.7562	-2.9667	-2.7917	-2.7729	-3.1063	-2.8375	-2.8542	-2.975	-2.4938	-3.0771	331.480	322.937	376.680	357.560	367.166	444.022	408.060	372.859	317.019	260.135	485.744	455.164	149.322	303.063	479.027	306.260	0.00058107	0.00040559	0.0001288	492.41	3.0902e-06	5.6147e-06	957.68	152.24	4.2052e-06	4.6772e-06	347.4	129.31	42.822	16.483	3.0366e-06	57.501	0.00023228	0.00010754	4.022e-05	411.76	1.1993e-06	1.1669e-06	807.91	129.01	3.9888e-06	1.125e-06	295.33	110.83	35.868	14.144	1.214e-06	49.196	260.636	240.665	265.527	156.035	303.797	306.070	157.070	161.515	336.705	303.365	161.251	167.023	165.868	170.248	306.698	169.953	-8191	255	
18936.191	1	1	0	0	0.23507	0.067685	0.15602	0.093311	0.19529	0.030294	0.12977	0.12083	0.12988	0.053091	0.1859	0.35372	0.15027	0.17172	0.10735	0.21709	-2.4667	-2.7771	-3.1667	-2.8688	-2.8833	-3.0229	-2.7562	-2.8875	-2.925	-2.5771	-3.05	-3.0667	-2.55	-2.8917	-2.8125	-2.9729	279.928	453.668	330.213	279.771	422.799	439.852	471.694	273.696	182.014	280.522	476.514	461.894	410.429	359.548	270.034	493.746	0.00058838	0.00064032	0.00013351	489.49	4.0965e-06	5.2783e-06	946.42	151.36	5.0752e-06	6.3177e-06	343.99	128.83	41.798	16.135	4.2354e-06	57.159	0.00023658	0.00011815	3.0973e-05	413.85	1.1595e-06	1.0762e-06	798.27	127.86	1.9993e-06	1.0263e-06	292.25	109.81	35.245	14.021	1.1963e-06	48.846	257.481	241.346	209.548	156.148	311.914	298.277	156.948	161.407	329.315	293.435	161.557	167.115	165.970	169.913	330.882	170.311	-8191	255	
18936.287	1	1	0	0	0.072364	0.05163	0.11278	0.05475	0.13942	0.037228	0.33722	0.18587	0.1882	0.15966	0.11888	0.11823	0.060678	0.1768	0.19285	0.18814	-2.4875	-2.5563	-2.85	-2.6021	-2.5312	-3.025	-2.8187	-2.5917	-2.9458	-2.7917	-2.8375	-2.9	-2.8229	-2.8875	-2.7208	-2.8208	250.390	396.340	157.068	323.784	279.198	458.461	392.702	414.061	265.094	477.436	462.010	166.093	420.355	386.143	324.605	403.027	0.00060017	0.00036419	0.00014548	492.58	5.7335e-06	5.5381e-06	947.91	150.33	2.863e-06	4.8763e-06	344.38	127.48	42.113	16.286	3.7373e-06	57.021	0.00023429	0.00010689	2.7653e-05	411.44	1.2106e-06	1.2089e-06	800.76	126.91	3.89e-06	1.0623e-06	291.9	109.47	35.262	13.963	1.8425e-06	49.017	258.413	235.633	231.867	156.048	338.800	326.707	157.057	161.422	356.420	309.921	161.632	166.567	166.111	170.031	244.785	170.365	-8191	255	
18936.408	1	1	0	0	0.075901	0.2132	0.15461	0.27807	0.17021	0.068899	0.2418	0.063584	0.040008	0.30812	0.34838	0.13153	0.047019	0.18937	0.3251	0.093788	-2.5604	-2.6604	-3.0979	-2.85	-2.6583	-3.1229	-2.8708	-2.8771	-2.9229	-2.7708	-2.9979	-2.9354	-2.5917	-3.1292	-2.8229	-2.8958	382.506	273.892	189.415	210.939	336.552	298.671	372.365	414.231	263.343	429.405	482.607	445.586	295.528	175.572	191.355	344.877	0.00057549	0.00042523	8.354e-05	482.76	3.5334e-06	5.5557e-06	948.26	153.49	2.4902e-06	3.1463e-06	344.57	130.3	42.3	16.703	3.1499e-07	57.734	0.00024443	0.00010333	2.8904e-05	413.67	1.1771e-06	1.0956e-06	803.01	128.24	2.0918e-06	1.0457e-06	293.1	110.67	35.442	14.141	3.9085e-06	49.517	260.223	239.428	225.926	155.706	303.299	331.475	157.127	160.963	327.226	291.748	161.666	166.740	165.247	169.936	195.129	170.405	-8191	255	
18936.502	1	1	0	0	0.18926	0.19209	0.086637	0.29852	0.13256	0.15322	0.40386	0.23185	0.17699	0.18476	0.061287	0.21719	0.17299	0.1809	0.079214	0.17896	-2.4604	-2.5938	-3.0229	-2.8854	-2.8187	-2.8646	-2.8396	-2.7542	-3.0896	-2.8229	-2.9562	-2.9167	-2.7125	-2.9813	-2.9062	-2.7146	481.143	256.084	202.849	173.455	150.430	248.989	455.962	191.830	376.363	272.586	393.602	491.691	445.525	199.454	475.211	276.351	0.00057914	0.00040333	4.9328e-05	494.57	4.8795e-06	5.4963e-06	957.82	151.87	4.2179e-06	4.8318e-06	344.65	128.04	41.703	16.316	4.1225e-06	56.819	0.00022862	0.00010388	2.7285e-05	414.02	1.1e-06	1.1993e-06	807.13	128.52	3.6044e-06	1.2336e-06	292.07	109.28	35.173	13.892	2.1519e-06	48.67	260.087	211.503	250.226	156.618	316.259	310.586	157.216	162.220	423.609	302.939	160.980	166.468	166.055	170.116	270.164	170.421	-8191	255	
18936.598	1	1	0	0	0.067031	0.18749	0.13505	0.2598	0.16285	0.17402	0.29538	0.15497	0.13062	0.1406	0.087998	0.23261	0.040877	0.15104	0.10915	0.37442	-2.6042	-2.8396	-2.8521	-2.8333	-2.8208	-3.0625	-2.9188	-2.5812	-3.0646	-2.825	-3.1	-2.9833	-2.7	-2.8688	-2.9042	-2.6688	402.696	381.540	180.298	303.151	249.192	325.622	444.769	201.194	481.927	484.482	349.886	241.894	250.403	288.504	301.457	429.257	0.00055318	0.00040078	0.00010622	488.44	5.5663e-06	3.7651e-06	935.56	150.23	3.0043e-06	4.334e-06	339.94	127.13	41.628	16.413	3.9961e-06	57.367	0.00021829	0.00010225	2.7406e-05	413.08	1.1205e-06	1.1096e-06	794.72	127.13	1.4626e-06	1.7614e-06	289.75	108.99	35.126	13.955	3.8801e-06	48.858	261.005	233.525	241.668	156.170	313.195	319.790	156.989	161.781	352.036	291.203	161.682	166.454	165.909	170.396	266.969	170.434	-8191	255	
18936.693	1	1	0	0	0.14434	0.13523	0.031396	0.18978	0.15892	0.21669	0.37429	0.1527	0.11216	0.21338	0.097837	0.17887	0.13627	0.14019	0.17992	0.28146	-2.6146	-2.8479	-2.6521	-2.9833	-2.8542	-2.8333	-3.0021	-2.6813	-3.2625	-2.8583	-2.9917	-3.0375	-2.5854	-2.8125	-2.9813	-2.7687	430.007	503.410	225.990	378.001	346.820	479.779	458.949	369.228	295.715	239.969	491.968	162.042	319.277	433.126	225.879	417.902	0.00054722	0.00018427	7.5839e-05	481.88	3.3839e-06	3.8476e-06	943.55	152.7	2.5948e-06	6.7388e-06	345.31	128.7	42.446	16.281	2.4463e-06	58.208	0.00022769	0.00011049	2.8482e-05	406.93	1.1539e-06	1.053e-06	799.09	128.14	1.1968e-06	4.0157e-06	292.47	109.96	35.684	14.067	2.1704e-06	49.469	257.916	223.196	232.938	156.315	329.641	324.092	156.904	161.755	307.260	372.777	162.183	166.686	165.765	170.704	295.220	169.993	-8191	255	
18936.789	1	1	0	0	0.10036	0.09153	0.062171	0.22943	0.1231	0.1921	0.18753	0.17537	0.036027	0.10412	0.14228	0.16936	0.21622	0.15396	0.32836	0.26213	-2.525	-2.5708	-2.7771	-2.9854	-2.6229	-2.9292	-2.9729	-2.5854	-2.8604	-2.7167	-2.7833	-3.2313	-2.6604	-2.8917	-2.8688	-2.6521	246.710	347.773	160.708	457.681	293.905	463.873	426.458	473.678	255.707	315.382	401.860	469.532	392.790	461.399	481.619	259.219	0.00060587	0.00033827	0.00010636	488.38	7.2751e-06	5.7719e-06	947.19	153.07	3.6432e-06	8.8667e-06	346.64	129.92	43.278	16.63	5.9768e-06	58.19	0.00024492	0.00010595	2.9738e-05	415.35	1.3005e-06	1.1894e-06	803.42	129.1	1.264e-06	2.1696e-06	294.47	111.35	36.229	14.271	4.074e-06	50.047	259.369	228.686	244.510	155.945	272.675	301.341	157.147	161.717	269.861	295.045	161.600	166.959	165.139	170.259	257.688	170.187	-8191	255	
18936.887	1	1	0	0	0.11922	0.23167	0.23772	0.25466	0.20902	0.19245	0.1324	0.12825	0.039066	0.13225	0.17999	0.11061	0.050528	0.2838	0.19942	0.2612	-2.5792	-2.6979	-2.7146	-2.9917	-2.8833	-2.8896	-2.9917	-2.7271	-2.9833	-2.8104	-2.7417	-2.9458	-2.7667	-2.6542	-2.8896	-2.8542	241.949	410.755	282.138	357.272	324.173	378.463	387.698	355.316	159.781	221.576	451.580	334.695	169.970	160.169	280.570	428.202	0.00056358	0.00023695	0.00011807	493.2	3.4079e-06	5.6049e-06	947.89	154.22	3.1848e-06	4.6802e-06	347.78	131.22	42.7	16.659	3.9433e-06	57.479	0.00023198	0.00010659	2.8081e-05	411.35	1.8601e-06	1.1923e-06	807.42	130.39	1.1924e-06	4.1885e-06	295.71	111.38	36.036	14.18	2.2011e-06	49.208	255.088	268.497	258.627	156.010	295.007	286.106	157.143	161.269	318.588	402.823	161.871	166.541	166.060	169.778	281.846	169.736	-8191	255	
18936.982	1	1	0	0	0.21836	0.074627	0.22996	0.3851	0.23341	0.1457	0.11584	0.23514	0.080991	0.19665	0.096835	0.16991	0.093158	0.33579	0.071494	0.20918	-2.4313	-2.8063	-2.5875	-2.8583	-2.8896	-2.8271	-3.1854	-2.6958	-3.0083	-3.0083	-2.9	-3.0604	-2.6583	-2.5896	-3.0896	-2.9333	287.849	378.375	469.874	388.307	234.342	297.562	248.775	150.015	392.337	178.247	193.818	166.854	474.392	159.100	212.714	449.859	0.00058511	0.0002435	8.4413e-05	476.3	7.1683e-06	4.1737e-06	942.72	151.83	4.1795e-06	2.8483e-06	341.92	128.56	42.833	16.506	3.047e-06	57.141	0.00023111	0.00011186	2.8948e-05	403.32	3.7649e-06	1.1722e-06	796.39	128.22	1.2648e-06	2.1775e-06	291.36	110.2	35.925	14.062	3.4239e-06	48.986	260.830	253.239	209.617	157.218	304.051	326.694	157.085	161.182	333.926	314.893	161.797	166.941	164.974	169.713	249.440	169.543	-8191	255	
18937.104	1	1	0	0	0.25438	0.17683	0.26982	0.072328	0.11282	0.25174	0.12702	0.20634	0.087337	0.20416	0.28962	0.16627	0.072191	0.11619	0.13795	0.22725	-2.3854	-2.8396	-2.575	-2.8063	-2.9896	-2.6937	-3.0771	-2.5458	-2.9521	-2.9354	-2.7958	-3.05	-2.7938	-2.725	-3.0583	-2.8708	433.682	256.019	325.172	192.253	339.594	305.289	464.376	337.619	350.404	424.652	147.393	422.690	424.596	489.174	190.401	478.595	0.00057379	0.00041066	0.00011027	479.68	5.1234e-06	5.632e-06	947.44	152.58	2.5971e-06	4.5465e-06	345.14	129.79	43.351	16.489	4.1443e-06	57.637	0.0002256	0.00012097	3.1094e-05	406.55	2.1881e-06	1.2262e-06	799.26	128.27	1.1893e-06	3.9282e-06	293.38	110.5	36.209	14.056	1.4374e-06	49.393	258.112	199.699	201.320	156.478	276.745	292.756	156.684	160.983	308.206	362.418	161.720	166.412	166.525	169.452	301.287	170.190	-8191	255	
18937.199	1	1	0	0	0.23419	0.2325	0.19423	0.15106	0.070469	0.028953	0.30356	0.10894	0.098886	0.24797	0.096324	0.041203	0.22939	0.14216	0.0056336	0.26078	-2.4146	-2.8354	-2.6771	-2.9833	-2.975	-2.5854	-3.1833	-2.7958	-2.7458	-2.925	-2.6958	-3.0312	-2.8104	-2.7125	-2.8833	-2.7146	487.618	465.584	351.505	375.313	465.535	262.485	169.744	324.496	233.169	221.112	213.840	215.732	174.184	192.532	353.545	425.280	0.00054738	0.00021961	2.9466e-05	489.75	7.0032e-06	3.07e-06	951.44	153.86	4.3267e-06	3.4989e-06	347.82	131.04	42.972	16.655	2.6005e-06	58.278	0.00022843	0.00010618	2.8663e-05	408.4	3.8855e-06	1.25e-06	802.62	129.65	1.2798e-06	2.2513e-06	294.7	111.61	36.295	14.298	1.2967e-06	50.052	262.476	244.721	250.942	156.126	325.520	323.071	156.505	161.057	309.745	323.645	161.808	166.694	165.652	170.640	306.344	170.128	-8191	255	
18937.295	1	1	0	0	0.17648	0.13843	0.095872	0.26807	0.048753	0.081443	0.33103	0.2545	0.2097	0.20716	0.057328	0.11697	0.25349	0.22471	0.14895	0.10332	-2.3479	-2.8521	-2.65	-2.8854	-2.7604	-2.8625	-2.8958	-2.7375	-2.7417	-2.8333	-2.8104	-2.8896	-2.825	-2.6583	-2.8083	-2.7583	265.312	418.105	348.786	364.075	242.373	374.718	424.094	472.242	231.316	374.549	242.055	198.761	224.285	333.563	402.399	222.433	0.00054837	0.00035824	0.00010189	484.08	5.9324e-06	5.0163e-06	951.59	154.57	1.659e-06	2.813e-06	350.3	131.82	43.307	16.924	3.1677e-06	57.903	0.00022586	0.00010673	3.1302e-05	409.72	2.1404e-06	1.3153e-06	805.83	131.19	1.2513e-06	3.3185e-06	295.99	112.48	36.479	14.283	1.3474e-06	49.598	256.466	254.411	233.051	155.516	338.349	310.595	157.230	161.403	325.674	399.858	161.207	166.449	165.876	169.529	289.650	170.086	-8191	255	
18937.367	1	1	0	0	0.19615	0.014867	0.068695	0.14077	0.074817	0.25592	0.32332	0.092051	0.16245	0.31102	0.31301	0.12343	0.29325	0.048855	0.036764	0.035325	-2.0563	-2.8583	-2.7125	-2.7479	-2.8688	-2.8479	-2.9854	-2.9458	-2.6833	-2.9792	-2.5687	-3.0958	-2.825	-2.6979	-2.9458	-3.1375	196.835	169.333	181.516	250.842	190.045	289.474	476.701	401.647	311.995	145.968	159.601	422.861	449.475	215.792	167.067	354.712	0.00061173	0.00024039	0.00012554	474.83	7.4299e-06	4.7398e-06	940.05	152.89	2.793e-06	8.9915e-07	346.74	129.56	42.543	16.494	3.5746e-06	57.745	0.00024604	0.00010673	3.1429e-05	403.22	3.8607e-06	1.2563e-06	795.04	128.96	1.2971e-06	1.3843e-06	294.03	110.66	36.106	14.109	1.276e-06	49.486	259.465	250.400	237.417	156.180	327.678	302.085	156.581	161.459	306.028	488.821	161.344	166.944	165.555	169.837	289.188	170.014	-8191	255	
18937.486	1	1	0	0	0.38144	0.15532	0.15574	0.15846	0.096635	0.13488	0.36582	0.046058	0.14496	0.12802	0.05764	0.24368	0.2624	0.15952	0.19527	0.16742	-2.1375	-3.0896	-2.625	-2.7542	-3.0208	-2.6271	-3.1854	-2.7	-2.675	-3.1458	-2.7396	-2.7812	-3.0208	-2.6875	-2.8688	-3.0187	215.249	455.684	276.104	373.376	290.920	470.567	466.539	147.780	204.338	309.764	278.186	446.013	421.456	330.963	182.256	429.396	0.0005895	0.00031879	0.00015289	478.72	4.4429e-06	5.4296e-06	941.43	152.35	4.5076e-06	3.9315e-06	348.32	130.62	42.482	16.601	3.4404e-06	57.852	0.00023506	0.00011802	3.358e-05	401.89	2.1909e-06	1.072e-06	794.4	128.46	1.2447e-06	1.1571e-06	295.77	111.08	35.938	14.142	1.2496e-06	49.356	257.450	215.392	258.678	156.638	344.799	307.536	157.013	161.306	314.095	264.402	161.039	166.723	165.358	169.982	315.946	170.319	-8191	255	
18937.582	1	1	0	0	0.15331	0.078529	0.040212	0.14852	0.12774	0.14354	0.19469	0.091607	0.055902	0.23578	0.13483	0.10157	0.1976	0.28852	0.17315	0.25816	-2.0938	-2.8333	-2.7208	-2.7771	-2.8479	-2.8	-2.8958	-2.8917	-2.4688	-3.0583	-3.0604	-2.7062	-3.0021	-2.6146	-2.6875	-3.0354	457.427	388.638	411.418	442.621	497.850	295.861	483.053	201.367	340.058	397.348	445.470	490.608	147.488	486.890	415.825	437.454	0.00061192	0.00040061	7.2816e-05	482.09	8.128e-06	5.0575e-06	949.41	152.18	3.5901e-06	6.3252e-06	343.82	129.85	43.281	16.78	3.413e-06	57.594	0.0002469	0.00010795	3.2625e-05	405.17	3.0822e-06	1.6249e-06	799.6	128.83	1.1739e-06	1.2659e-06	293.71	110.89	36.127	14.236	1.237e-06	49.699	257.366	240.404	209.959	156.251	326.873	331.861	156.776	161.652	320.777	295.996	161.439	166.723	165.537	169.924	300.571	170.071	-8191	255	
18937.680	1	1	0	0	0.33816	0.032862	0.03768	0.16162	0.15937	0.13112	0.21432	0.16459	0.22534	0.11079	0.16019	0.21455	0.1195	0.34182	0.3054	0.058878	-2.2208	-3.0167	-2.7896	-2.7313	-2.9396	-2.7271	-2.8937	-3.1292	-2.4854	-2.9146	-2.9792	-2.9021	-2.9021	-2.6583	-2.7833	-3.2188	269.305	484.769	432.105	240.177	187.835	377.443	445.116	162.787	434.781	273.247	444.362	311.625	207.215	322.858	390.394	210.210	0.00059566	0.00060895	9.6774e-05	479.05	4.1714e-06	3.9818e-06	946.57	152.31	2.5832e-06	2.5758e-06	344.57	129.75	42.168	16.442	4.5387e-06	57.319	0.00023936	0.00011269	3.2043e-05	405.85	1.2564e-06	2.077e-06	798.69	128.48	1.2432e-06	1.2294e-06	294.74	110.33	35.607	14.047	1.2993e-06	48.931	259.691	237.577	218.167	156.154	355.517	284.306	157.243	161.502	318.817	284.400	161.266	166.632	165.865	170.743	329.369	170.113	-8191	255	
18937.799	1	1	0	0	0.35674	0.03781	0.065329	0.22712	0.051491	0.12617	0.23592	0.085707	0.40199	0.18176	0.10763	0.22933	0.18044	0.18312	0.15585	0.14238	-2.2375	-2.8625	-2.9021	-2.7313	-3.1375	-2.5458	-2.7917	-2.9313	-2.7708	-2.9813	-3.1375	-2.7938	-2.8937	-2.8146	-2.8396	-3.2562	341.806	363.059	352.597	352.151	419.409	375.199	398.087	366.303	369.954	385.750	254.562	262.796	313.939	171.096	368.549	404.352	0.00061512	0.00032699	0.00014256	478.95	5.3375e-06	1.0497e-05	931.05	149.69	2.6785e-06	5.0519e-06	341.28	127.7	41.763	16.144	3.3813e-06	56.514	0.00023519	0.00011039	3.0276e-05	400.48	1.1793e-06	4.0156e-06	787.28	126.46	1.192e-06	1.1739e-06	289	108.96	35.187	13.727	1.1671e-06	48.344	259.952	251.922	239.340	156.262	300.356	334.522	156.844	161.609	322.896	309.780	161.002	166.515	165.514	170.279	298.059	170.300	-8191	255	
18937.895	1	1	0	0	0.13167	0.16407	0.19916	0.026449	0.21356	0.023395	0.48411	0.17731	0.089916	0.2425	0.28754	0.077606	0.14702	0.27721	0.23158	0.0041933	-2.2313	-3.0396	-3.0729	-2.6083	-2.9542	-2.875	-2.8458	-2.95	-2.7854	-2.95	-2.8625	-2.7208	-2.8292	-2.8771	-2.8083	-2.9562	292.877	153.571	495.840	254.416	154.326	318.464	488.637	501.778	288.231	342.908	445.287	251.266	183.195	146.817	380.444	410.485	0.00059655	0.00038141	0.00010924	478.87	2.295e-06	4.3304e-06	931.02	149.36	1.9093e-06	4.637e-06	338.4	127.1	41.355	16.055	2.5019e-06	55.971	0.00025895	0.00010925	2.8613e-05	397.64	1.1667e-06	2.2053e-06	785.85	125.68	1.3185e-06	1.1984e-06	288.59	108.22	34.913	13.658	1.0832e-06	48.026	258.830	246.004	229.807	156.739	331.801	339.404	157.095	161.421	300.677	318.257	161.655	166.645	165.497	169.824	275.077	169.985	-8191	255	
18937.967	1	1	0	0	0.29398	0.18788	0.23405	0.18066	0.10968	0.24223	0.10507	0.049817	0.1839	0.098488	0.34875	0.1151	0.18559	0.18157	0.36857	0.21774	-2.4167	-2.6688	-2.9292	-2.7667	-3	-3.0125	-2.8438	-3.0083	-2.6813	-2.7	-3.075	-2.8292	-2.9313	-2.8833	-2.6729	-3.1229	493.360	486.653	205.557	499.182	313.851	224.781	203.560	419.423	416.762	224.010	451.473	175.357	190.871	368.639	212.843	145.666	0.00057832	0.00040705	0.00011231	483.32	4.1299e-06	7.9869e-06	928.31	148.31	4.2957e-06	6.2518e-06	337.77	128.67	41.719	16.122	4.5519e-06	56.466	0.00029409	0.00010903	3.0825e-05	400.5	1.0783e-06	3.9001e-06	785.51	125.41	1.2174e-06	1.3103e-06	288.19	108.82	34.97	13.704	1.2132e-06	48.142	257.400	240.219	281.328	156.463	310.177	342.117	156.361	160.867	302.277	334.411	161.602	166.707	164.757	170.563	288.024	170.108	-8191	255	
18938.088	1	1	0	0	0.13625	0.12048	0.2714	0.17466	0.23351	0.17938	0.21832	0.090893	0.030042	0.17886	0.12838	0.01778	0.041826	0.11294	0.10431	0.34123	-2.5271	-2.7938	-2.9729	-2.7229	-2.9	-3.1312	-2.6479	-2.9625	-2.8479	-2.8375	-2.9625	-2.7167	-2.9292	-3.0687	-2.75	-2.9167	427.983	503.365	367.789	146.045	298.951	289.827	429.846	240.478	456.211	460.634	426.679	421.382	380.269	156.949	184.923	481.165	0.00058151	0.00049	0.00016606	473.01	3.2024e-06	7.7823e-06	933.69	148.67	2.1313e-06	5.3211e-06	340.13	126.85	41.301	15.927	4.1033e-06	55.704	0.00039838	0.00010864	3.4085e-05	399.26	1.1209e-06	2.0617e-06	788.86	126.12	1.1692e-06	1.2124e-06	287.88	107.92	34.667	13.565	1.279e-06	47.531	257.204	229.586	236.373	155.871	320.465	306.055	156.911	161.665	349.101	285.478	161.256	166.809	165.433	169.624	334.870	169.995	-8191	255	
18938.184	1	1	0	0	0.07466	0.36488	0.09223	0.10456	0.10667	0.090429	0.14611	0.060645	0.17122	0.23156	0.21118	0.10827	0.20717	0.078019	0.09183	0.14017	-2.4313	-2.7333	-2.7	-2.6521	-2.75	-2.9542	-2.8854	-2.9875	-2.9104	-2.7354	-3.2313	-2.8208	-2.8375	-2.9646	-2.5604	-3.1042	441.609	322.326	443.620	421.337	220.094	295.042	475.158	399.981	415.252	476.913	231.111	210.507	415.415	174.539	497.037	211.442	0.00059052	0.00036149	0.00013655	465.24	4.8566e-06	1.0906e-05	919.38	144.81	3.4077e-06	2.7629e-06	332.43	123.89	40.422	15.44	2.9251e-06	54.83	0.00029222	0.00011157	2.959e-05	392.39	1.1693e-06	3.8149e-06	777.03	122.38	1.1883e-06	1.1807e-06	281.66	105.88	33.994	13.25	1.269e-06	46.983	256.676	220.594	230.907	156.571	282.593	344.606	156.948	161.359	315.720	308.972	161.561	166.176	165.670	170.221	327.560	170.367	-8191	255	
#DATA ENDS
