BOXY.EXE: ISS Imagent and Oximeter Data Acquisition Program Version 0.80
Ascii Record File

#ACQ INFORMATION
2  Detector Channels 
16  External MUX Channels 
1  Auxiliary Channels 
5000  Waveform (CCF) Frequency (Hz)
1  Waveforms Skipped 
30  Waveforms Averaged 
1  Cycles Averaged 
16  Acquisitions per Waveform 
10.0806  Updata Rate (Hz) 

#FILE INFORMATION
TRUE -- External MUX Channel results are PARSED.
FALSE -- AC DC and Phase are NOT grouped.
TRUE -- Companion Program Settings File CREATED.
FALSE -- AC data not excluded
FALSE -- DC data not excluded
FALSE -- Phase data not excluded
FALSE -- Auxillary Chn. data not excluded
Tab delimiters

#CALIBRATION STATE
TRUE -- Waveform Calibration Values APPLIED.


#AUX CALIBRATION VALUES
Val Type	aux-1	

Term	1.0000e+00	
Factor	0.0000e+00	


#WF CALIBRATION VALUES
A = Detector Channel
Val Type	A-AC1	A-AC2	A-AC3	A-AC4	A-AC5	A-AC6	A-AC7	A-AC8	A-AC9	A-AC10	A-AC11	A-AC12	A-AC13	A-AC14	A-AC15	A-AC16	A-DC1	A-DC2	A-DC3	A-DC4	A-DC5	A-DC6	A-DC7	A-DC8	A-DC9	A-DC10	A-DC11	A-DC12	A-DC13	A-DC14	A-DC15	A-DC16	A-Ph1	A-Ph2	A-Ph3	A-Ph4	A-Ph5	A-Ph6	A-Ph7	A-Ph8	A-Ph9	A-Ph10	A-Ph11	A-Ph12	A-Ph13	A-Ph14	A-Ph15	A-Ph16	

Term	0.00000e+00	0.00000e+00	0.00000e+00	0.00000e+00	0.00000e+00	0.00000e+00	0.00000e+00	0.00000e+00	0.00000e+00	0.00000e+00	0.00000e+00	0.00000e+00	0.00000e+00	0.00000e+00	0.00000e+00	0.00000e+00	0.00000e+00	0.00000e+00	0.00000e+00	0.00000e+00	0.00000e+00	0.00000e+00	0.00000e+00	0.00000e+00	0.00000e+00	0.00000e+00	0.00000e+00	0.00000e+00	0.00000e+00	0.00000e+00	0.00000e+00	0.00000e+00	0.00000e+00	0.00000e+00	0.00000e+00	0.00000e+00	0.00000e+00	0.00000e+00	0.00000e+00	0.00000e+00	0.00000e+00	0.00000e+00	0.00000e+00	0.00000e+00	0.00000e+00	0.00000e+00	0.00000e+00	0.00000e+00	
Factor	1.00000e+00	1.00000e+00	1.00000e+00	1.00000e+00	1.00000e+00	1.00000e+00	1.00000e+00	1.00000e+00	1.00000e+00	1.00000e+00	1.00000e+00	1.00000e+00	1.00000e+00	1.00000e+00	1.00000e+00	1.00000e+00	1.00000e+00	1.00000e+00	1.00000e+00	1.00000e+00	1.00000e+00	1.00000e+00	1.00000e+00	1.00000e+00	1.00000e+00	1.00000e+00	1.00000e+00	1.00000e+00	1.00000e+00	1.00000e+00	1.00000e+00	1.00000e+00	X	X	X	X	X	X	X	X	X	X	X	X	X	X	X	X	

B = Detector Channel
Val Type	B-AC1	B-AC2	B-AC3	B-AC4	B-AC5	B-AC6	B-AC7	B-AC8	B-AC9	B-AC10	B-AC11	B-AC12	B-AC13	B-AC14	B-AC15	B-AC16	B-DC1	B-DC2	B-DC3	B-DC4	B-DC5	B-DC6	B-DC7	B-DC8	B-DC9	B-DC10	B-DC11	B-DC12	B-DC13	B-DC14	B-DC15	B-DC16	B-Ph1	B-Ph2	B-Ph3	B-Ph4	B-Ph5	B-Ph6	B-Ph7	B-Ph8	B-Ph9	B-Ph10	B-Ph11	B-Ph12	B-Ph13	B-Ph14	B-Ph15	B-Ph16	

Term	0.00000e+00	0.00000e+00	0.00000e+00	0.00000e+00	0.00000e+00	0.00000e+00	0.00000e+00	0.00000e+00	0.00000e+00	0.00000e+00	0.00000e+00	0.00000e+00	0.00000e+00	0.00000e+00	0.00000e+00	0.00000e+00	0.00000e+00	0.00000e+00	0.00000e+00	0.00000e+00	0.00000e+00	0.00000e+00	0.00000e+00	0.00000e+00	0.00000e+00	0.00000e+00	0.00000e+00	0.00000e+00	0.00000e+00	0.00000e+00	0.00000e+00	0.00000e+00	2.75725e+01	-1.31108e+02	-1.23548e+02	-1.82912e+02	-5.41566e+01	-6.84967e+01	-1.56913e+02	-1.62015e+02	-1.69110e+01	-6.90769e+01	-1.71915e+02	-1.70337e+02	-1.80602e+02	-1.76910e+02	-5.41290e+01	-1.49881e+02	
Factor	3.81789e-05	1.74656e-04	4.40913e-05	1.54476e-01	2.40339e-06	1.68123e-06	1.67599e-01	4.70291e-02	2.64378e-06	1.71266e-06	1.45221e-01	2.55112e-02	2.28348e-02	7.80503e-03	2.52045e-06	1.14423e-02	1.64678e-05	3.34103e-05	9.38836e-06	7.76069e-02	3.14091e-07	3.81937e-07	7.88202e-02	2.36533e-02	3.02672e-07	3.77959e-07	7.06724e-02	1.24816e-02	1.15660e-02	3.96858e-03	3.32949e-07	5.62954e-03	X	X	X	X	X	X	X	X	X	X	X	X	X	X	X	X	



#DISTANCE SETTINGS
A = Detector Channel
A-1	A-2	A-3	A-4	A-5	A-6	A-7	A-8	A-9	A-10	A-11	A-12	A-13	A-14	A-15	A-16	

2.5000e+00	3.0000e+00	2.5000e+00	3.0000e+00	2.0000e+00	3.0000e+00	1.5000e+00	3.0000e+00	3.0000e+00	3.0000e+00	3.0000e+00	3.0000e+00	3.0000e+00	3.0000e+00	1.5000e+00	3.0000e+00	

B = Detector Channel
B-1	B-2	B-3	B-4	B-5	B-6	B-7	B-8	B-9	B-10	B-11	B-12	B-13	B-14	B-15	B-16	

1.0000e+01	1.0000e+01	1.0000e+01	1.4400e+00	1.0000e+01	1.0000e+01	1.5100e+00	1.9400e+00	1.0000e+01	1.0000e+01	1.9900e+00	2.4900e+00	2.4100e+00	2.9000e+00	1.0000e+01	2.9800e+00	




#DATA BEGINS
time	group	step	mark	flag	A-AC1	A-AC2	A-AC3	A-AC4	A-AC5	A-AC6	A-AC7	A-AC8	A-AC9	A-AC10	A-AC11	A-AC12	A-AC13	A-AC14	A-AC15	A-AC16	A-DC1	A-DC2	A-DC3	A-DC4	A-DC5	A-DC6	A-DC7	A-DC8	A-DC9	A-DC10	A-DC11	A-DC12	A-DC13	A-DC14	A-DC15	A-DC16	A-Ph1	A-Ph2	A-Ph3	A-Ph4	A-Ph5	A-Ph6	A-Ph7	A-Ph8	A-Ph9	A-Ph10	A-Ph11	A-Ph12	A-Ph13	A-Ph14	A-Ph15	A-Ph16	B-AC1	B-AC2	B-AC3	B-AC4	B-AC5	B-AC6	B-AC7	B-AC8	B-AC9	B-AC10	B-AC11	B-AC12	B-AC13	B-AC14	B-AC15	B-AC16	B-DC1	B-DC2	B-DC3	B-DC4	B-DC5	B-DC6	B-DC7	B-DC8	B-DC9	B-DC10	B-DC11	B-DC12	B-DC13	B-DC14	B-DC15	B-DC16	B-Ph1	B-Ph2	B-Ph3	B-Ph4	B-Ph5	B-Ph6	B-Ph7	B-Ph8	B-Ph9	B-Ph10	B-Ph11	B-Ph12	B-Ph13	B-Ph14	B-Ph15	B-Ph16	aux-1	digaux	

782.610	1	1	0	768	0.12864	0.13528	0.11721	0.23473	0.1238	0.11037	0.086771	0.35215	0.1957	0.15297	0.17026	0.34419	0.33861	0.13648	0.15635	0.080208	-2.9	-3.6188	-3.4104	-3.3792	-3.625	-3.35	-3.4875	-3.6688	-3.2583	-3.5563	-3.65	-3.4437	-3.6104	-3.4896	-3.2583	-3.7042	-27.571	66.829	86.450	264.642	22.561	157.057	256.805	217.477	1.446	162.493	205.280	270.843	212.564	-3.336	235.623	273.163	0.00030834	0.00049408	0.00010358	945.35	3.9308e-06	5.4544e-06	1151.3	266.5	3.2867e-06	2.7422e-06	396.81	128.69	77.726	18.679	3.0766e-06	43.157	0.00065223	0.0009625	0.00026649	898.63	9.7826e-06	1.0533e-05	1097.3	255.35	9.1892e-06	1.0514e-05	380.66	124.27	74.781	18.112	1.0437e-05	41.766	292.884	22.623	1.273	-42.409	74.572	94.365	-42.836	-38.460	195.720	95.833	-39.035	-34.739	-34.832	-30.118	123.327	-30.223	-8191	255	
782.707	1	1	0	0	0.15699	0.16123	0.010988	0.1583	0.061589	0.26918	0.33168	0.20758	0.072114	0.062431	0.16626	0.075444	0.090264	0.23082	0.079302	0.087258	-2.7854	-3.4146	-3.4146	-3.325	-3.4917	-3.3312	-3.4542	-3.6292	-3.4	-3.5062	-3.4458	-3.3479	-3.6375	-3.3937	-3.3542	-3.6729	243.274	226.086	283.899	119.852	87.733	137.723	225.134	199.672	18.388	57.768	-36.750	244.209	94.223	-39.100	303.563	129.564	0.00035566	0.0005962	0.00013014	969.78	4.8345e-06	4.631e-06	1194	280.08	3.9985e-06	3.9439e-06	406.46	132.88	79.985	19.151	7.7206e-06	43.556	0.00069405	0.00099152	0.00028476	928.91	1.0209e-05	1.1458e-05	1135.8	267.89	9.5613e-06	1.131e-05	390.46	128.13	77.009	18.617	1.115e-05	42.346	-53.997	31.573	44.820	-42.294	129.672	99.820	-42.722	-38.430	143.751	86.314	-38.750	-34.940	-34.607	-29.680	140.224	-30.020	-8191	255	
782.803	1	1	0	0	0.19606	0.35155	0.137	0.19102	0.23767	0.14029	0.12411	0.16764	0.27935	0.10328	0.26652	0.11569	0.18185	0.32737	0.17762	0.17936	-3.0708	-3.4417	-3.4667	-3.3312	-3.6021	-3.4958	-3.3792	-3.8729	-3.1688	-3.4375	-3.6125	-3.3625	-3.4958	-3.5646	-3.3937	-3.6479	197.869	28.351	218.040	247.279	75.432	144.630	223.337	262.921	152.662	-34.192	127.157	166.007	281.369	285.444	56.783	235.337	0.00022986	0.00036138	0.00011064	975.13	5.3778e-06	4.4778e-06	1197	280.84	6.0809e-06	3.1646e-06	411.57	132.17	79.984	19.388	6.3042e-06	43.998	0.00070733	0.0010313	0.0003061	934.3	1.0059e-05	1.1662e-05	1140.8	268.44	9.6376e-06	1.1363e-05	393.98	127.33	76.964	18.719	1.088e-05	42.654	298.452	34.256	21.047	-42.538	153.651	105.579	-42.668	-38.578	188.911	122.057	-39.317	-34.682	-34.872	-29.582	90.780	-29.942	-8191	255	
782.899	1	1	0	0	0.2238	0.13948	0.099724	0.26361	0.036332	0.26027	0.34007	0.089307	0.13762	0.067453	0.07897	0.16672	0.19691	0.12785	0.02598	0.31296	-2.9313	-3.3417	-3.5792	-3.3854	-3.5333	-3.7333	-3.5417	-3.7375	-3.5875	-3.4042	-3.7583	-3.3667	-3.5854	-3.5021	-3.2812	-3.7417	253.693	215.624	225.177	253.242	-56.354	217.342	190.703	290.313	219.096	183.840	261.392	27.184	275.527	299.223	-25.120	194.329	0.00029232	0.00039398	0.0001749	1007.6	3.3044e-06	4.29e-06	1235	292.28	2.7379e-06	5.3102e-06	426.76	132.42	81.132	19.929	7.3628e-06	45.165	0.00071494	0.0011116	0.00031723	961.33	1.0582e-05	1.2232e-05	1179	279.51	9.8829e-06	1.2506e-05	409.94	127.66	78.218	19.308	1.0999e-05	43.747	-55.514	-2.296	33.465	-42.303	141.680	78.360	-42.339	-38.559	109.232	88.530	-38.787	-34.307	-34.576	-29.094	109.783	-29.578	-8191	255	
782.995	1	1	0	0	0.30845	0.26657	0.12676	0.29628	0.26519	0.16135	0.2579	0.1546	0.1985	0.23305	0.20543	0.27231	0.18884	0.19387	0.059376	0.13596	-2.9625	-3.2854	-3.6354	-3.4958	-3.55	-3.5083	-3.4542	-3.6333	-3.3812	-3.4708	-3.725	-3.3563	-3.525	-3.3958	-3.2958	-3.7521	50.236	20.999	4.157	162.260	289.209	6.519	270.953	-29.700	300.257	175.999	-5.710	276.914	277.948	297.796	133.054	298.581	0.00030856	0.0003368	0.00012599	1045.1	5.4936e-06	5.9722e-06	1280.4	301.38	5.5774e-07	9.6929e-07	434.8	128.92	78.988	21.034	7.1155e-06	48.601	0.00074366	0.0010953	0.00031742	996.96	1.1189e-05	1.2971e-05	1220.7	288.93	1.0652e-05	1.27e-05	416.54	124.39	76.013	20.388	1.1348e-05	46.853	295.690	-0.599	49.162	-42.131	124.788	82.848	-42.349	-38.238	101.602	166.223	-38.352	-33.692	-33.805	-28.879	105.899	-29.469	-8191	255	
783.091	1	1	0	0	0.046489	0.15534	0.35741	0.33529	0.21466	0.10736	0.061675	0.24033	0.17287	0.15204	0.13423	0.25328	0.14243	0.079764	0.12796	0.23021	-3.0167	-3.2479	-3.4229	-3.4792	-3.4771	-3.5563	-3.4604	-3.675	-3.4667	-3.2917	-3.725	-3.5062	-3.2958	-3.7167	-3.2042	-3.5167	218.784	-46.358	-2.519	272.238	111.749	78.262	44.936	225.037	-53.443	209.003	277.611	297.953	221.352	293.597	294.253	301.524	0.00032821	0.0005418	7.9523e-05	1047.9	4.1016e-06	2.4566e-06	1291.3	302.77	4.3436e-06	3.6943e-06	438.87	131.54	79.938	22.543	6.5827e-06	51.741	0.00077944	0.0011276	0.00031746	1001.9	1.1152e-05	1.3278e-05	1233.2	290.69	1.1321e-05	1.2745e-05	422.69	127.04	76.764	21.849	1.1351e-05	50.105	294.645	38.700	18.215	-42.147	130.954	69.877	-42.341	-37.979	152.112	94.578	-38.230	-33.489	-33.640	-28.097	118.892	-29.275	-8191	255	
783.210	1	1	0	0	0.097798	0.14397	0.1327	0.15986	0.042715	0.13453	0.31593	0.3696	0.059251	0.096856	0.22949	0.065902	0.20478	0.29057	0.10639	0.23428	-3.35	-3.2604	-3.7458	-3.4375	-3.1688	-3.6312	-3.4146	-3.5125	-3.5521	-3.2458	-3.6583	-3.7125	-3.3854	-3.6792	-3.425	-3.55	164.014	85.427	265.356	267.606	9.235	-38.481	211.652	193.766	284.512	64.033	300.721	196.725	236.400	-38.564	129.076	219.717	0.00037893	0.00075294	0.00010712	1053.2	1.4042e-06	6.9198e-06	1292.1	303.79	1.8346e-06	2.5002e-06	444.79	133.77	79.965	23.533	7.8438e-06	53.651	0.00083152	0.0011698	0.00032818	1006.7	1.1761e-05	1.3807e-05	1236.1	291.89	1.1226e-05	1.3405e-05	425.94	129.71	77.629	22.915	1.1528e-05	52.114	287.655	27.179	33.123	-42.010	151.174	119.799	-42.373	-37.983	122.602	107.586	-38.116	-33.442	-33.546	-28.476	126.940	-28.825	-8191	255	
783.306	1	1	0	0	0.060844	0.23285	0.19426	0.065381	0.15146	0.12446	0.064962	0.32241	0.076901	0.12856	0.18437	0.28273	0.31495	0.32175	0.15397	0.22133	-3.1042	-3.0729	-3.5625	-3.6646	-3.2583	-3.4333	-3.4083	-3.6083	-3.5812	-3.2917	-3.5938	-3.4833	-3.2979	-3.5479	-3.3812	-3.3771	15.866	206.398	195.865	230.357	-30.490	296.707	83.813	214.989	296.593	210.323	164.828	275.180	-39.749	268.038	44.828	198.747	0.00039875	0.00070035	8.4974e-05	1051.1	1.0101e-05	5.9599e-06	1292.1	304.17	3.9509e-06	6.0194e-06	444.28	136.18	82.857	23.899	7.4162e-06	54.313	0.00083176	0.0011632	0.00033121	1003.3	1.2115e-05	1.3674e-05	1233.2	291.64	1.1812e-05	1.2899e-05	425.84	131.63	79.415	23.237	1.1743e-05	52.466	-50.378	23.731	13.608	-42.016	118.782	66.813	-42.170	-37.401	156.283	74.683	-38.228	-33.420	-33.563	-28.147	106.837	-28.947	-8191	255	
783.402	1	1	0	0	0.42891	0.18355	0.13855	0.24166	0.10867	0.17561	0.35794	0.039299	0.1352	0.21165	0.17673	0.15218	0.02066	0.14606	0.081613	0.11584	-3.2333	-3.1958	-3.4771	-3.5167	-3.3854	-3.5729	-3.5625	-3.5458	-3.6354	-3.4625	-3.5708	-3.5354	-3.2104	-3.5792	-3.475	-3.4104	-14.649	40.841	45.732	245.593	172.168	217.643	228.360	27.060	-47.543	73.207	-17.622	-53.449	147.727	276.697	160.247	175.742	0.00039692	0.00050081	9.4711e-05	1059	6.6112e-06	5.7065e-06	1308.1	312.34	7.5628e-06	3.8505e-06	453.18	138.85	84.861	24.256	5.0281e-06	53.397	0.00085207	0.0011401	0.00032591	1013.6	1.2013e-05	1.3125e-05	1250.9	299.66	1.1234e-05	1.3059e-05	436.03	133.99	81.661	23.364	1.1754e-05	51.663	300.480	16.648	13.510	-41.931	109.839	88.715	-42.176	-37.800	186.439	112.352	-38.236	-33.632	-33.588	-27.910	103.548	-29.044	-8191	255	
783.499	1	1	0	0	0.21294	0.18837	0.12871	0.24015	0.24986	0.21915	0.53736	0.033389	0.057683	0.26791	0.24566	0.45073	0.1105	0.18657	0.24188	0.28841	-3.125	-3.2271	-3.4396	-3.6125	-3.1854	-3.6208	-3.5333	-3.4604	-3.6396	-3.2938	-3.4542	-3.5896	-3.3167	-3.4125	-3.3792	-3.3854	285.334	-23.532	-7.444	-25.587	153.164	213.963	266.264	221.318	6.155	211.177	167.335	-37.889	23.082	-47.570	2.955	296.968	0.00039294	0.00056944	0.0001675	1067.3	3.3899e-06	4.7462e-06	1306.8	309.96	2.7579e-06	3.548e-06	443.82	136.37	82.719	23.391	4.3505e-06	51.709	0.00084542	0.0010922	0.0003265	1016.8	1.143e-05	1.3162e-05	1245.5	296.92	1.1497e-05	1.2343e-05	427.5	131.66	79.8	22.625	1.1696e-05	50.129	302.320	38.475	59.990	-41.769	39.367	92.829	-42.203	-38.060	133.835	72.871	-38.275	-33.625	-33.911	-28.332	158.851	-29.062	-8191	255	
783.595	1	1	0	0	0.24381	0.23141	0.074524	0.149	0.23872	0.17151	0.10348	0.263	0.18428	0.13963	0.14882	0.038127	0.19422	0.25273	0.18687	0.44851	-3.0208	-3.1458	-3.3125	-3.6854	-3.0792	-3.4188	-3.5583	-3.3563	-3.4938	-3.4229	-3.5	-3.6188	-3.1562	-3.4542	-3.4938	-3.1542	259.621	187.183	177.325	218.342	74.470	89.164	296.415	225.131	176.489	241.590	275.107	106.069	111.706	240.558	265.979	215.414	0.00033316	0.00051011	0.00013314	1044.9	3.9204e-06	3.9071e-06	1277.2	299.86	1.9526e-06	3.9247e-06	435.21	132.67	80.521	22.63	6.0639e-06	50.578	0.00081646	0.0011512	0.00033632	998.16	1.1456e-05	1.3124e-05	1222.8	286.71	1.1671e-05	1.3022e-05	416.93	128.47	77.545	21.949	1.255e-05	48.89	297.191	27.950	52.731	-41.738	119.066	95.278	-41.936	-37.651	198.932	88.068	-38.098	-33.399	-33.506	-28.309	88.703	-28.852	-8191	255	
783.691	1	1	0	0	0.14642	0.28468	0.17792	0.16696	0.19909	0.21242	0.31137	0.47326	0.023808	0.50519	0.13998	0.10435	0.21943	0.13391	0.093467	0.14309	-2.9229	-3.3104	-3.4229	-3.6458	-3.2479	-3.4875	-3.5854	-3.2396	-3.5125	-3.3417	-3.325	-3.6937	-3.3417	-3.4771	-3.4688	-3.1542	73.457	70.777	125.060	6.785	182.438	241.045	262.809	243.279	5.349	30.794	171.491	-12.570	-30.345	-18.741	237.962	210.951	0.00035537	0.00047	0.00016425	1028.1	4.0539e-06	3.718e-06	1257.9	290.58	4.1009e-06	6.8997e-06	422.16	129.11	77.599	21.791	6.7223e-06	48.789	0.0008296	0.0011905	0.00035253	979.54	1.1555e-05	1.3805e-05	1199.6	278.16	1.1815e-05	1.3995e-05	405.42	124.72	75.1	21.035	1.3102e-05	47.159	301.001	50.085	37.370	-41.799	96.283	82.300	-42.336	-37.785	149.635	90.916	-38.282	-33.505	-33.633	-28.205	140.216	-29.015	-8191	255	
783.811	1	1	0	0	0.094309	0.12319	0.10354	0.29772	0.10397	0.049145	0.21366	0.36382	0.15064	0.08547	0.27348	0.20429	0.030463	0.085137	0.11631	0.029441	-3.1229	-3.3729	-3.2646	-3.7771	-3.375	-3.4396	-3.5812	-3.4146	-3.4271	-3.4208	-3.2708	-3.55	-3.2938	-3.2708	-3.4813	-3.3229	167.039	-49.717	-2.137	226.918	208.655	244.818	-25.347	269.118	-46.343	9.633	-40.714	247.117	33.016	141.690	272.497	293.725	0.00037321	0.00043799	0.00016709	1003.1	7.0038e-06	3.6086e-06	1228.8	282.82	1.9825e-06	3.4606e-06	408.1	125.47	75.58	20.643	9.1021e-06	46.527	0.00085087	0.0012523	0.00035523	958.07	1.2123e-05	1.45e-05	1173.9	271.21	1.1831e-05	1.4477e-05	393.42	121.22	72.801	20.03	1.31e-05	45.314	300.039	20.968	27.283	-41.925	135.435	96.053	-42.280	-37.923	159.950	108.817	-38.206	-33.797	-33.723	-28.372	132.066	-29.112	-8191	255	
783.906	1	1	0	0	0.15277	0.072623	0.11751	0.17549	0.08878	0.045633	0.20849	0.25221	0.13603	0.30946	0.11407	0.13752	0.11226	0.11579	0.22306	0.072921	-3.1813	-3.4583	-3.1479	-3.7604	-3.3354	-3.3354	-3.7417	-3.3021	-3.3542	-3.4021	-3.4167	-3.6833	-3.4042	-3.2771	-3.5333	-3.3812	248.006	185.238	48.994	278.012	181.286	134.575	211.286	250.397	2.799	111.665	7.757	220.969	259.180	268.414	146.159	74.616	0.00029837	0.00051968	0.00012362	982.02	8.2898e-07	3.5845e-06	1206.9	274.71	2.2098e-06	3.7457e-06	402.09	122.9	73.633	19.991	4.7202e-06	45.841	0.00082116	0.0012837	0.00035044	936.41	1.2015e-05	1.4837e-05	1149.9	263.36	1.216e-05	1.433e-05	385.47	118.58	70.983	19.404	1.2694e-05	44.315	-51.308	21.721	43.716	-41.931	130.169	111.574	-42.621	-37.970	181.439	123.216	-38.157	-33.594	-33.786	-28.512	100.049	-29.156	-8191	255	
784.002	1	1	0	0	0.061416	0.14522	0.13092	0.20951	0.050975	0.077264	0.20008	0.14898	0.086749	0.16367	0.10691	0.25982	0.18635	0.25473	0.17288	0.131	-2.9813	-3.3542	-3.1708	-3.6729	-3.2792	-3.3042	-3.7396	-3.5042	-3.2792	-3.4917	-3.2729	-3.6479	-3.4646	-3.3667	-3.65	-3.3563	-55.039	164.399	155.375	261.705	269.453	41.295	255.795	257.262	11.961	3.257	254.764	224.900	-40.538	28.167	237.083	-45.162	0.00034937	0.00038508	0.00015444	967.69	4.1498e-06	2.2289e-06	1187.1	270.15	2.5645e-06	4.5777e-06	396.91	122.06	72.557	19.75	6.4746e-06	45.041	0.0008144	0.0012347	0.00033538	922.99	1.1818e-05	1.4413e-05	1133.7	259.38	1.138e-05	1.3102e-05	380.79	117.86	70.24	19.116	1.2033e-05	43.655	-52.014	31.269	47.176	-42.166	106.073	87.447	-42.237	-37.966	129.212	99.901	-38.201	-33.876	-33.839	-28.565	133.125	-29.164	-8191	255	
784.098	1	1	0	0	0.062888	0.1156	0.11502	0.10339	0.099288	0.26346	0.23622	0.27582	0.019224	0.1086	0.2133	0.17549	0.30758	0.15149	0.068069	0.1609	-2.8896	-3.7104	-3.2833	-3.6688	-3.5167	-3.3063	-3.7417	-3.4146	-3.4062	-3.6729	-3.2542	-3.4167	-3.2062	-3.1792	-3.5438	-3.575	-16.977	149.029	114.539	188.471	299.526	276.420	271.887	269.267	158.766	106.267	201.461	282.804	302.685	268.421	-51.206	141.595	0.00029767	0.0006074	6.0959e-05	955.98	6.3165e-06	2.1907e-06	1176.7	268.51	3.8146e-06	3.5151e-06	392.95	121.65	72.034	19.105	6.3344e-06	44.004	0.00080686	0.0012075	0.00031504	914.52	1.1986e-05	1.3494e-05	1124.2	256.87	1.1641e-05	1.2908e-05	377.58	116.69	69.419	18.538	1.1757e-05	42.601	-55.029	17.766	34.098	-41.850	112.894	127.220	-42.226	-37.990	173.016	71.543	-38.644	-33.709	-34.115	-28.445	139.906	-29.305	-8191	255	
784.172	1	1	0	0	0.037173	0.15884	0.19017	0.088075	0.045677	0.19298	0.32957	0.29767	0.19627	0.19821	0.083149	0.23573	0.084352	0.27901	0.2886	0.17259	-2.75	-3.4729	-3.2313	-3.6312	-3.2792	-3.35	-3.725	-3.5583	-3.3063	-3.6292	-3.4062	-3.5021	-3.3937	-3.1417	-3.5646	-3.4708	188.556	273.821	-11.771	-9.943	20.708	18.458	254.271	229.704	292.286	141.412	120.685	232.071	138.318	4.794	127.347	281.977	0.00032548	0.00045154	0.00010733	952.29	2.9741e-06	6.6245e-06	1171.1	266.47	8.7766e-06	4.5614e-06	388.3	118.9	71.152	18.834	3.976e-06	43.168	0.00079296	0.001164	0.00030364	908.14	1.1682e-05	1.2774e-05	1117.4	254.69	1.1403e-05	1.2406e-05	374	114.75	68.598	18.169	1.1053e-05	41.785	-45.656	63.110	39.577	-42.107	101.576	121.426	-42.113	-37.831	147.446	124.671	-38.357	-33.855	-34.227	-28.424	148.610	-29.190	-8191	255	
784.290	1	1	0	0	0.19386	0.11264	0.29217	0.21817	0.0996	0.20272	0.20557	0.15658	0.093781	0.23148	0.16129	0.090635	0.2404	0.10353	0.093636	0.081501	-2.95	-3.5625	-3.2396	-3.4708	-3.475	-3.3312	-3.6479	-3.3333	-3.2313	-3.6562	-3.3667	-3.3771	-3.5146	-3.1813	-3.4979	-3.7458	122.915	190.246	40.598	277.491	67.605	114.740	227.385	234.587	220.180	249.544	-52.617	-33.530	278.521	252.347	126.102	180.889	0.00025568	0.00033616	7.1141e-05	953.36	6.4689e-06	3.2252e-06	1175.6	266.78	2.4068e-06	4.5984e-06	392.55	118.84	71.093	18.644	5.7009e-06	42.948	0.00075673	0.0010685	0.00029157	911.19	1.0589e-05	1.1936e-05	1123.7	255.94	1.0496e-05	1.2199e-05	374.78	114.38	68.335	18.01	1.0658e-05	41.592	303.272	11.917	1.705	-42.121	165.062	95.307	-42.209	-38.363	124.209	134.030	-38.658	-33.831	-34.230	-28.724	125.997	-29.425	-8191	255	
784.387	1	1	0	0	0.14996	0.34771	0.13859	0.097179	0.23896	0.16051	0.36217	0.089838	0.086029	0.079516	0.037301	0.094258	0.11789	0.093641	0.033166	0.20335	-2.8937	-3.5417	-3.2458	-3.5146	-3.5146	-3.2646	-3.7771	-3.6	-3.1562	-3.6312	-3.4667	-3.4104	-3.6188	-3.2188	-3.575	-3.4521	68.783	130.125	99.667	142.131	43.354	87.867	216.510	99.621	-24.389	165.545	184.024	179.200	267.879	203.018	157.088	284.040	0.00032399	0.00081248	7.7116e-05	955.81	6.2833e-06	3.0252e-06	1181.1	271.44	3.3668e-06	3.7082e-06	394.1	119.05	70.771	18.475	1.943e-06	42.684	0.00071536	0.0010502	0.00028584	912.75	1.0525e-05	1.1117e-05	1125.8	258.27	9.5594e-06	1.1106e-05	378.76	114.59	68.32	17.914	1.0071e-05	41.28	293.595	41.156	49.829	-41.907	132.247	91.831	-42.403	-38.101	159.855	81.499	-39.064	-33.851	-34.259	-28.856	96.717	-29.431	-8191	255	
784.483	1	1	0	0	0.16178	0.040592	0.14954	0.1037	0.27894	0.18881	0.42264	0.093817	0.18987	0.19881	0.19314	0.10688	0.092148	0.11487	0.11212	0.22384	-2.7271	-3.5708	-3.2792	-3.3937	-3.5812	-3.5125	-3.5	-3.5708	-3.2583	-3.4542	-3.3875	-3.3354	-3.5354	-3.1188	-3.4021	-3.4917	7.135	58.813	278.947	223.183	-39.579	242.504	245.489	231.448	280.593	-40.235	204.930	203.581	296.000	161.762	30.255	279.484	0.00027967	0.00029388	9.1791e-05	948.27	7.0989e-06	4.7507e-06	1179.4	269.84	3.9295e-06	5.5517e-07	391.68	117.65	69.886	18.048	4.2678e-06	41.705	0.00068829	0.0010411	0.00028662	907.93	1.0285e-05	1.0968e-05	1124.5	257.49	9.7845e-06	1.1319e-05	376.55	113.32	67.543	17.475	1.0428e-05	40.36	-51.454	50.415	49.745	-41.838	116.425	116.663	-42.204	-38.179	180.632	109.229	-38.677	-33.683	-33.755	-28.994	98.520	-29.555	-8191	255	
784.579	1	1	0	0	0.1707	0.34624	0.061148	0.23332	0.10456	0.10115	0.19649	0.041196	0.036156	0.11258	0.028292	0.23411	0.095506	0.17158	0.067747	0.075205	-2.8583	-3.4229	-3.3479	-3.4062	-3.5438	-3.2833	-3.5146	-3.6083	-3.2958	-3.4792	-3.4562	-3.3146	-3.5292	-3.1375	-3.1646	-3.6479	-31.728	-24.425	182.215	-46.832	116.403	-6.893	266.434	99.281	105.684	19.761	58.415	284.964	11.441	220.222	77.695	240.055	0.00024199	0.00037712	0.00011037	947.72	4.384e-06	5.2463e-06	1166.7	265.43	2.3668e-06	2.4994e-06	389.12	115.57	69.161	17.66	5.3978e-06	41.046	0.0006629	0.0010008	0.00029082	902.44	9.9462e-06	1.1327e-05	1114.2	253.91	9.5298e-06	1.1293e-05	373	111.64	66.806	17.089	1.0466e-05	39.626	299.223	26.870	47.235	-42.388	54.021	93.038	-42.376	-38.220	144.249	69.945	-38.578	-33.832	-33.892	-29.306	102.945	-29.665	-8191	255	
784.700	1	1	0	0	0.13017	0.053991	0.099889	0.039871	0.17253	0.091704	0.11903	0.096106	0.09169	0.16699	0.16542	0.074852	0.30251	0.12318	0.093945	0.28429	-2.9042	-3.3729	-3.6083	-3.1771	-3.5375	-3.3667	-3.4396	-3.6688	-3.3208	-3.5542	-3.4396	-3.3417	-3.6104	-3.2708	-3.3375	-3.5417	284.289	115.114	-50.865	72.649	103.561	64.514	163.349	164.593	3.942	221.753	-21.730	247.297	232.113	92.227	-42.447	201.081	0.00027651	0.00049139	0.00014477	939.99	2.8565e-06	4.5315e-06	1159.9	264.76	2.4782e-06	3.5303e-06	384.98	114.07	68.062	17.472	4.5845e-06	40.274	0.00066317	0.0010207	0.00029636	897.33	9.9344e-06	1.147e-05	1108.9	252.27	9.4257e-06	1.1703e-05	368.84	110.29	65.738	16.786	9.9857e-06	39.076	302.654	18.819	4.562	-42.003	81.144	99.615	-42.518	-38.365	180.334	131.410	-38.478	-33.731	-33.721	-28.566	146.006	-29.397	-8191	255	
784.771	1	1	0	0	0.20755	0.04962	0.053626	0.11771	0.3511	0.19224	0.1542	0.16788	0.18631	0.0053524	0.11427	0.14168	0.22032	0.2268	0.1395	0.33039	-2.7667	-3.5167	-3.4813	-3.4062	-3.5917	-3.4833	-3.425	-3.8229	-3.2812	-3.5708	-3.7104	-3.4896	-3.5667	-3.5417	-3.2208	-3.775	296.677	-21.098	-38.975	265.507	192.267	133.330	235.393	133.529	298.327	31.113	184.861	-4.604	214.765	276.169	23.611	292.885	0.00030018	0.00047453	9.9283e-05	934.84	7.5486e-06	4.3037e-06	1158.5	261.48	3.0256e-06	4.1984e-06	382.9	113.01	67.576	16.986	6.5385e-06	39.581	0.00066695	0.0011205	0.00028351	891.5	9.9979e-06	1.1671e-05	1107	250.32	9.8696e-06	1.1692e-05	366.85	109.19	65.051	16.486	1.0138e-05	38.44	-48.800	56.712	46.236	-42.027	121.320	102.921	-42.456	-38.174	168.953	88.446	-38.148	-33.476	-33.698	-29.245	99.522	-29.532	-8191	255	
784.892	1	1	0	0	0.25809	0.16115	0.28535	0.28321	0.075837	0.091768	0.23285	0.14752	0.18828	0.18286	0.28999	0.16433	0.16136	0.1765	0.1933	0.066326	-2.8812	-3.4437	-3.6188	-3.3229	-3.4458	-3.3583	-3.4396	-3.5875	-3.3375	-3.4292	-3.7479	-3.2875	-3.6125	-3.5146	-3.2229	-3.7375	106.969	272.510	294.403	290.204	199.027	106.546	202.996	256.541	119.573	71.766	130.169	-13.162	232.121	166.551	-0.250	-42.384	0.00029504	0.00037129	8.2292e-05	929.48	4.8095e-06	3.3177e-06	1156.7	259.23	2.1957e-06	2.3293e-06	379.88	112.43	66.462	16.802	6.7825e-06	39.065	0.00067312	0.0010422	0.00028081	886.89	9.9357e-06	1.1448e-05	1103.7	248.57	9.8249e-06	1.1232e-05	365.31	108.21	64.185	16.248	1.0022e-05	37.704	-54.695	1.343	8.366	-41.883	89.070	60.766	-42.394	-38.088	111.491	76.377	-38.805	-34.154	-33.991	-28.711	143.846	-29.554	-8191	255	
784.986	1	1	0	0	0.053012	0.17764	0.21281	0.14324	0.11052	0.043106	0.24433	0.090141	0.13999	0.19644	0.16811	0.089635	0.27099	0.094643	0.13952	0.23089	-2.9229	-3.3083	-3.6146	-3.2521	-3.3542	-3.575	-3.4854	-3.5667	-3.4562	-3.1937	-3.8104	-3.4792	-3.6792	-3.55	-3.3125	-3.6708	7.152	21.144	204.766	138.032	284.100	100.391	259.461	144.350	79.672	79.156	125.036	195.531	256.482	274.200	-41.936	199.035	0.00029117	0.0002026	0.00011232	928.62	3.8673e-06	4.2518e-06	1159.8	258.37	3.5752e-06	3.3151e-06	382.39	110.88	65.758	16.473	4.2034e-06	38.553	0.00069072	0.001015	0.00028286	885.35	1.045e-05	1.1519e-05	1103.4	247.81	1.037e-05	1.1161e-05	365.4	106.94	63.772	15.98	1.007e-05	37.199	298.851	9.011	34.463	-42.075	170.764	72.364	-42.513	-38.195	180.350	77.843	-38.524	-34.131	-34.187	-29.218	133.034	-29.585	-8191	255	
785.082	1	1	0	0	0.099887	0.090815	0.11062	0.034732	0.010012	0.21977	0.24883	0.086817	0.10846	0.13922	0.25038	0.20475	0.23662	0.26124	0.33858	0.33896	-2.9813	-3.2604	-3.7042	-3.5146	-3.625	-3.7625	-3.4104	-3.5979	-3.525	-3.2562	-3.6958	-3.4458	-3.475	-3.5583	-3.3292	-3.65	162.606	31.224	29.454	61.676	277.658	103.526	250.869	238.228	91.993	-14.793	96.622	261.873	261.662	288.811	-8.756	-38.646	0.00029743	0.00044274	8.2452e-05	942.77	5.4238e-06	3.4923e-06	1196	268.42	1.9613e-06	2.0876e-06	401.43	117.17	71.708	17.417	4.4256e-06	39.489	0.00072232	0.0010439	0.0002839	900.22	1.0874e-05	1.1696e-05	1143.4	257.47	1.0914e-05	1.186e-05	386.59	112.63	68.864	16.856	1.0907e-05	38.274	287.456	36.025	32.539	-42.197	115.685	89.774	-42.637	-38.038	177.912	50.164	-38.491	-34.425	-34.659	-29.327	75.078	-29.477	-8191	255	
785.180	1	1	0	0	0.11995	0.15437	0.33647	0.0059982	0.31402	0.33452	0.25871	0.21798	0.076649	0.072126	0.15809	0.14327	0.066035	0.09894	0.11525	0.10021	-3.0417	-3.2396	-3.6688	-3.3958	-3.3604	-3.5333	-3.575	-3.7208	-3.6146	-3.0708	-3.6312	-3.3125	-3.3896	-3.6167	-3.2875	-3.825	248.165	-18.256	-19.364	17.759	205.161	-31.846	260.291	281.800	228.354	46.919	-30.778	-40.203	117.766	261.062	-37.239	169.257	0.00030548	0.00039204	9.7168e-05	1011.7	3.2981e-06	5.1585e-06	1297.1	293.21	2.3224e-06	5.1231e-06	436.12	126.73	78.181	18.596	5.8009e-06	41.379	0.00075066	0.0010952	0.00032132	966.98	1.1491e-05	1.3097e-05	1238.2	280.97	1.1723e-05	1.2768e-05	418.08	121.8	75.239	18.062	1.1158e-05	40.08	300.746	49.088	16.355	-42.193	127.755	88.006	-42.569	-38.483	116.394	96.651	-38.738	-34.531	-34.881	-29.249	114.817	-30.003	-8191	255	
785.299	1	1	0	0	0.17559	0.055962	0.19168	0.13006	0.10232	0.029302	0.14826	0.13228	0.13907	0.20048	0.12212	0.14831	0.16885	0.1559	0.1129	0.073398	-3.0229	-3.2729	-3.6	-3.4062	-3.3312	-3.5833	-3.4771	-3.5354	-3.5604	-3.2729	-3.575	-3.4583	-3.4479	-3.7083	-3.175	-3.4208	20.702	195.472	231.505	261.665	-37.847	-40.586	195.566	12.979	116.115	128.186	241.146	-52.797	278.328	23.233	219.777	256.044	0.00022252	0.0004395	0.00015596	1056.1	5.5933e-06	6.0539e-06	1343.1	303.16	4.7648e-06	4.3452e-06	448.32	128.63	80.317	19.155	6.1985e-06	41.894	0.00075412	0.0011583	0.00034528	1010.8	1.2045e-05	1.3334e-05	1281.4	290.31	1.1871e-05	1.3132e-05	430.48	124.72	77.428	18.547	1.211e-05	40.671	-52.824	38.422	45.152	-42.191	92.996	78.186	-42.655	-38.424	168.192	114.774	-38.815	-34.653	-34.579	-29.499	121.595	-29.789	-8191	255	
785.395	1	1	0	0	0.074464	0.099251	0.17499	0.22924	0.25978	0.23648	0.16299	0.069445	0.063935	0.13052	0.13015	0.32006	0.25762	0.03342	0.20214	0.045734	-3.0729	-3.1875	-3.3187	-3.5667	-3.2271	-3.4917	-3.4104	-3.4604	-3.525	-3.2771	-3.4396	-3.5729	-3.375	-3.4646	-3.2854	-3.5771	59.517	45.312	237.926	235.625	1.540	212.067	236.369	-38.950	49.967	20.558	193.365	211.274	-18.479	275.702	-47.654	160.854	0.00030508	0.0003508	0.00010572	1068.4	7.7304e-06	4.6049e-06	1348	305.93	5.2882e-06	6.2175e-06	454.46	131.15	81.694	19.388	9.8232e-06	42.434	0.00079269	0.0011483	0.00035204	1019.9	1.2149e-05	1.3679e-05	1289.2	293.24	1.1942e-05	1.319e-05	436.23	126.55	78.616	18.773	1.2515e-05	41.02	295.956	-8.256	44.580	-42.303	108.108	63.653	-42.613	-38.411	154.896	96.451	-39.063	-34.709	-34.629	-29.049	95.406	-29.905	-8191	255	
785.467	1	1	0	0	0.029961	0.10058	0.094622	0.26428	0.18636	0.08721	0.27052	0.15301	0.19751	0.12675	0.093285	0.18318	0.21836	0.050848	0.095669	0.13599	-3.1771	-3.2042	-3.5771	-3.4708	-3.2917	-3.5646	-3.5542	-3.525	-3.3771	-3.4813	-3.6771	-3.7083	-3.3271	-3.6312	-3.3083	-3.5042	177.780	43.257	240.555	254.481	65.180	65.263	229.028	179.933	30.547	216.812	259.084	246.169	-48.004	53.609	-45.860	269.980	0.00029498	0.00063204	0.00016954	1065.5	3.7339e-06	1.3571e-06	1347.8	309.33	5.8963e-06	5.1273e-06	454.06	131.17	80.889	19.667	9.1414e-06	42.753	0.00079474	0.0011792	0.00034148	1020.2	1.1691e-05	1.3501e-05	1289.4	294.91	1.1249e-05	1.2845e-05	438.59	126.45	78.038	18.969	1.1919e-05	41.491	300.610	25.544	32.880	-42.313	125.928	131.997	-42.537	-38.395	100.295	118.197	-38.750	-34.506	-34.570	-29.104	107.243	-29.680	-8191	255	
785.588	1	1	0	0	0.096099	0.1899	0.11253	0.19365	0.12813	0.16207	0.16658	0.34292	0.1108	0.13029	0.17297	0.15647	0.29745	0.11092	0.10421	0.34551	-3.2	-3.4542	-3.225	-3.5479	-3.2958	-3.4292	-3.5438	-3.4771	-3.6292	-3.2479	-3.4437	-3.6437	-3.2083	-3.5375	-3.5646	-3.375	-44.001	187.253	202.491	268.648	-19.115	211.780	190.730	296.268	288.591	78.733	-27.366	198.089	265.707	291.728	169.474	233.985	0.00031803	0.00029514	0.00017311	1060.1	5.0941e-06	3.9466e-06	1344.4	306.71	4.9945e-06	3.9326e-06	457.5	130.75	80.183	19.552	1.9359e-06	43.038	0.00075944	0.0011214	0.00033186	1015.6	1.0579e-05	1.3204e-05	1280.7	293.43	1.0703e-05	1.2392e-05	439.15	125.94	77.097	18.893	1.1007e-05	41.556	292.025	-0.668	31.948	-41.841	126.578	88.678	-42.441	-37.868	172.179	113.030	-38.676	-33.915	-34.412	-28.757	92.593	-29.260	-8191	255	
785.684	1	1	0	0	0.056262	0.17179	0.31404	0.11053	0.20471	0.14196	0.1596	0.24838	0.12968	0.062297	0.09339	0.19658	0.079773	0.21358	0.1666	0.15521	-3.3667	-3.2667	-3.3063	-3.6271	-3.2625	-3.6042	-3.7792	-3.3583	-3.6542	-3.425	-3.5333	-3.5125	-3.2771	-3.5354	-3.5354	-3.375	205.318	-34.961	255.829	206.599	115.028	-19.681	186.940	258.070	42.449	51.267	16.235	275.193	193.891	286.239	159.136	263.133	0.00030499	0.00045636	0.00018129	1058.1	5.6584e-06	6.1999e-06	1327.6	307.13	1.9168e-06	5.8934e-06	455.34	129.56	79.944	19.227	8.0874e-06	42.34	0.00074932	0.0011311	0.00031506	1008.7	1.0509e-05	1.2688e-05	1265.4	294.18	1.0591e-05	1.2414e-05	438.43	125.04	76.794	18.646	1.1054e-05	40.851	301.280	37.549	56.673	-41.940	137.945	76.121	-42.362	-37.856	142.882	121.711	-38.191	-33.915	-33.997	-29.186	100.568	-29.482	-8191	255	
785.780	1	1	0	0	0.055516	0.14823	0.016335	0.22489	0.021908	0.17258	0.22109	0.16355	0.095631	0.20698	0.16964	0.25492	0.17693	0.13265	0.25699	0.21117	-3.175	-3.3812	-3.3896	-3.6417	-3.4583	-3.4958	-3.7271	-3.3688	-3.675	-3.4771	-3.4833	-3.6354	-3.3646	-3.4417	-3.5979	-3.2792	272.477	75.026	-0.183	295.042	61.627	11.880	243.137	283.741	231.570	209.176	161.278	-45.004	-38.730	254.654	247.650	284.162	0.00026105	0.00064919	0.00013306	1052.4	6.2745e-06	4.7633e-06	1326.3	306.55	4.6898e-06	3.9955e-06	459.56	127.9	78.666	19.115	5.6858e-06	42.223	0.00071532	0.0010847	0.00029638	1005.4	1.0563e-05	1.2676e-05	1261.1	294.18	1.0308e-05	1.2103e-05	440.72	123.45	75.817	18.436	1.0841e-05	40.828	301.376	33.001	31.524	-41.954	138.744	58.911	-42.339	-38.161	138.745	89.851	-38.197	-33.938	-33.921	-28.529	108.657	-29.422	-8191	255	
785.876	1	1	0	0	0.10929	0.15401	0.079004	0.24507	0.14449	0.12399	0.2113	0.21171	0.11958	0.1027	0.1266	0.10164	0.12346	0.18703	0.033411	0.23479	-3.2875	-3.3854	-3.1125	-3.7104	-3.2	-3.325	-3.7333	-3.4562	-3.4437	-3.3229	-3.275	-3.7229	-3.3604	-3.4708	-3.7479	-3.5479	21.191	170.530	138.625	-24.620	143.828	112.008	-15.614	206.609	86.826	171.303	225.967	259.427	75.639	238.703	42.380	193.036	0.00027399	0.00048845	0.00014391	1059.2	3.8718e-06	3.8331e-06	1325.4	307.14	4.7398e-06	4.04e-06	456.73	125.31	77.065	19.078	6.7903e-06	43.071	0.00073481	0.0010829	0.00029088	1015.2	1.0633e-05	1.2017e-05	1266.8	294.04	1.0708e-05	1.1666e-05	438.34	121.59	74.265	18.536	1.0686e-05	41.37	292.252	26.317	54.012	-41.886	77.549	70.867	-42.199	-37.897	147.191	81.789	-38.165	-33.633	-34.140	-28.530	102.465	-29.023	-8191	255	
785.995	1	1	0	0	0.16161	0.11739	0.2347	0.17012	0.075579	0.13673	0.1914	0.10875	0.18614	0.21247	0.25141	0.23747	0.093078	0.22748	0.1301	0.025903	-3.1229	-3.45	-3.0292	-3.6688	-3.5292	-3.3771	-3.8729	-3.2979	-3.6146	-3.5958	-3.3312	-3.5687	-3.5375	-3.2896	-3.5354	-3.3688	0.328	161.662	-24.191	302.229	-17.846	-35.094	280.969	280.661	181.000	140.486	249.833	235.861	29.700	-20.119	246.711	110.547	0.00035262	0.00046871	0.00014633	1071.5	6.1572e-06	3.9447e-06	1333	297.07	2.6183e-06	4.2622e-06	442.22	121.69	73.929	18.987	5.7539e-06	42.719	0.00074785	0.0010547	0.00028541	1020.7	1.0993e-05	1.1803e-05	1271.9	285	1.084e-05	1.2131e-05	424.44	117.92	71.195	18.361	1.1089e-05	41.23	-54.352	5.610	68.499	-41.924	114.208	119.641	-42.370	-37.749	132.932	85.844	-38.187	-33.396	-33.926	-28.417	91.466	-29.092	-8191	255	
786.067	1	1	0	0	0.2525	0.22544	0.093143	0.10944	0.1402	0.17891	0.24054	0.17084	0.10616	0.1455	0.052364	0.084901	0.39944	0.15396	0.15788	0.16736	-2.9833	-3.4	-3.3917	-3.6125	-3.3021	-3.3604	-3.8292	-3.3667	-3.3812	-3.5854	-3.2375	-3.5896	-3.4896	-3.2438	-3.575	-3.4729	79.553	-29.691	-21.970	6.110	164.610	274.761	173.457	251.864	142.018	118.574	188.746	-25.439	230.115	292.342	179.504	-45.651	0.00036512	0.0004161	0.00011865	1060	3.636e-06	5.3791e-06	1317	285.78	3.1908e-06	3.916e-06	425.75	117.92	71.038	18.536	4.2302e-06	41.963	0.00075443	0.0011256	0.00029614	1013.2	1.1204e-05	1.2557e-05	1255.3	273.31	1.1264e-05	1.2829e-05	409.78	114.13	68.083	17.95	1.1896e-05	40.582	300.247	30.042	41.230	-42.087	114.463	82.124	-42.198	-37.573	143.350	112.657	-37.671	-33.305	-33.302	-27.999	114.203	-28.939	-8191	255	
786.163	1	1	0	0	0.070536	0.10022	0.46123	0.1312	0.20444	0.29584	0.24202	0.22347	0.18014	0.15543	0.20179	0.28237	0.22188	0.075004	0.10259	0.19285	-2.9938	-3.475	-3.1167	-3.5958	-3.4333	-3.1688	-3.6437	-3.5083	-3.2188	-3.5479	-3.1146	-3.5729	-3.4813	-3.3271	-3.5708	-3.1896	-24.197	117.741	52.748	279.736	110.505	243.672	261.306	182.451	115.216	227.209	209.811	240.025	47.394	224.259	31.540	-8.244	0.00031889	0.00053328	0.00010952	1035.7	7.6377e-06	4.763e-06	1289.3	274.84	3.8492e-06	5.8556e-06	412.55	116.42	68.451	18.245	6.8493e-06	41.69	0.00076215	0.0011982	0.00032867	985.64	1.1864e-05	1.3029e-05	1232	263.89	1.1618e-05	1.3199e-05	398.9	112.17	66.211	17.769	1.2986e-05	40.396	-48.078	48.835	54.647	-41.897	145.917	79.562	-42.150	-37.412	232.636	88.856	-38.222	-33.063	-33.140	-27.836	104.526	-28.447	-8191	255	
786.261	1	1	0	0	0.17494	0.072631	0.1632	0.19054	0.13755	0.22083	0.27242	0.26909	0.13038	0.25732	0.1861	0.062652	0.13789	0.059636	0.095474	0.052741	-2.9417	-3.4583	-3.0229	-3.5729	-3.2333	-3.3646	-3.6	-3.4167	-3.1708	-3.4417	-3.3354	-3.4396	-3.4354	-3.2417	-3.5833	-3.4417	265.960	-7.355	105.074	82.903	165.181	258.813	252.918	265.931	21.916	210.499	215.842	-47.854	93.611	179.703	295.352	296.265	0.00028244	0.00025915	0.00012155	1020.2	3.6604e-06	2.7149e-06	1277.1	270.13	1.9713e-06	3.84e-06	411.3	114.15	67.642	18.068	6.2722e-06	41.244	0.00080963	0.0012161	0.00034655	975.54	1.2117e-05	1.3741e-05	1220.3	258.86	1.1706e-05	1.371e-05	395.36	110.48	65.211	17.597	1.3125e-05	40.01	-45.746	-23.793	67.328	-41.769	93.425	84.355	-42.260	-37.535	155.750	63.321	-37.933	-33.319	-33.356	-27.766	130.606	-28.258	-8191	255	
786.380	1	1	0	0	0.042878	0.10575	0.13517	0.13799	0.076548	0.13835	0.14361	0.27265	0.12988	0.13077	0.060734	0.097848	0.17327	0.2672	0.15875	0.22907	-2.7479	-3.4875	-3.2958	-3.5042	-3.4	-3.1312	-3.6854	-3.4625	-3.2562	-3.5646	-3.4292	-3.4938	-3.7438	-3.2875	-3.3917	-3.5	234.903	-12.147	245.590	295.630	256.474	249.166	19.188	262.780	301.401	161.167	85.639	-15.745	183.262	212.040	114.410	160.223	0.00031989	0.00042588	0.00015144	1013.7	4.6297e-06	4.7673e-06	1280.8	267.59	3.5128e-06	3.5623e-06	407.76	112.54	66.337	17.641	3.8585e-06	40.088	0.00080836	0.0012429	0.00036188	970.45	1.2196e-05	1.3713e-05	1218.6	257.06	1.1809e-05	1.5004e-05	392.28	108.69	63.956	17.074	1.4021e-05	38.63	-55.201	40.571	18.152	-41.555	137.519	103.915	-42.067	-37.547	155.357	119.320	-37.600	-32.425	-32.864	-27.690	84.873	-28.447	-8191	255	
786.476	1	1	0	0	0.065203	0.1038	0.2115	0.12005	0.13395	0.12072	0.22973	0.14047	0.22614	0.043575	0.25677	0.1698	0.1657	0.18472	0.19443	0.041947	-2.7417	-3.4833	-3.2354	-3.45	-3.325	-3.1083	-3.7	-3.4167	-3.2229	-3.5875	-3.2	-3.4521	-3.5646	-3.1063	-3.5312	-3.5333	31.455	83.837	121.220	148.657	206.998	174.030	183.768	259.513	262.592	77.158	233.210	201.049	194.035	-12.171	24.691	13.942	0.00032861	0.00062423	0.00021166	1009.7	6.3553e-06	3.9207e-06	1266.9	262.02	2.2464e-06	1.0255e-06	397.79	108.95	65.061	17.197	6.4334e-06	38.296	0.00079605	0.0013134	0.00037444	963.34	1.2696e-05	1.5609e-05	1211.5	251.94	1.2493e-05	1.5459e-05	382.68	105.58	63.019	16.804	1.5726e-05	37.383	295.262	40.347	26.891	-41.625	143.306	122.383	-42.314	-37.188	224.113	112.664	-37.862	-32.848	-33.247	-27.792	129.581	-28.289	-8191	255	
786.572	1	1	0	0	0.19399	0.1081	0.16161	0.31909	0.12701	0.16758	0.32831	0.11388	0.05238	0.29082	0.13232	0.086287	0.20699	0.035113	0.074613	0.2101	-2.8812	-3.45	-3.2292	-3.4604	-3.4854	-3.1729	-3.5229	-3.4708	-3.3271	-3.6833	-3.4562	-3.3125	-3.6333	-3.4208	-3.4604	-3.5375	61.614	177.474	285.339	-54.557	8.582	-36.057	295.174	-25.915	-25.328	72.307	304.134	232.862	301.747	72.725	-22.965	53.997	0.00028965	0.00072782	6.8659e-05	1051.6	3.2077e-06	5.0988e-06	1300.9	261.37	2.421e-06	1.4604e-06	392.16	110.73	67.12	18.217	6.216e-06	39.705	0.00090721	0.0015992	0.00043284	1004.7	1.538e-05	1.9379e-05	1244.5	251.75	1.5101e-05	1.9559e-05	379.54	107.21	64.775	17.747	1.712e-05	38.538	-49.600	12.952	119.387	-41.355	163.213	88.502	-41.896	-36.988	231.604	148.948	-37.528	-32.586	-32.547	-27.559	162.431	-28.489	-8191	255	
786.668	1	1	0	0	0.23707	0.024974	0.2785	0.20942	0.16993	0.20293	0.1587	0.15576	0.19149	0.046277	0.31537	0.38962	0.32552	0.11909	0.099846	0.1462	-2.8083	-3.5979	-3.5458	-3.2875	-3.3583	-3.5062	-3.575	-3.8396	-3.1479	-3.5062	-3.3875	-3.3521	-3.5708	-3.2542	-3.3104	-3.6417	28.546	142.224	74.461	36.972	146.384	61.088	-49.725	237.891	51.623	19.784	-52.649	283.601	262.340	298.743	16.611	281.560	0.00025338	0.00030237	0.0001155	1069.2	6.917e-06	6.2293e-07	1316.5	265.91	2.3887e-06	6.1665e-06	399.27	110.9	67.825	18.617	2.9933e-07	40.079	0.0010198	0.001838	0.00049792	1024	1.7936e-05	2.1057e-05	1260.5	255.64	1.7817e-05	2.204e-05	385.55	107.46	65.384	18.185	1.9366e-05	38.788	-39.897	42.876	47.115	-41.582	134.241	161.676	-41.825	-36.970	68.829	62.776	-37.466	-32.554	-32.798	-27.291	47.079	-28.503	-8191	255	
786.764	1	1	0	0	0.074069	0.086825	0.13898	0.19532	0.26252	0.37431	0.18294	0.18496	0.088141	0.076037	0.28066	0.13064	0.29676	0.1747	0.11458	0.32453	-2.7792	-3.4271	-3.525	-3.2333	-3.5083	-3.45	-3.4062	-3.7708	-3.3604	-3.375	-3.5229	-3.2333	-3.5312	-3.3854	-3.3854	-3.6708	228.073	-21.138	181.844	258.858	75.233	78.430	243.372	283.288	136.978	199.429	138.107	241.936	230.052	265.353	92.668	241.891	0.00018609	0.00019676	5.9436e-05	1101.3	3.9198e-06	2.4386e-06	1381.8	277	5.3979e-06	6.3244e-06	413.97	114.81	69.834	19.346	8.5092e-06	41.005	0.0011293	0.0019741	0.0005074	1053	2.0233e-05	2.3814e-05	1319.1	266.28	2.0957e-05	2.5157e-05	400.28	110.97	67.942	18.97	2.2235e-05	40.068	279.076	74.294	-10.926	-41.487	191.581	76.243	-41.878	-36.762	180.869	90.407	-37.818	-32.525	-32.397	-27.939	102.602	-28.743	-8191	255	
786.860	1	1	0	0	0.21116	0.13167	0.095992	0.038431	0.14657	0.092719	0.27582	0.19057	0.20195	0.19193	0.11093	0.18846	0.067742	0.074882	0.1659	0.29631	-2.8167	-3.2438	-3.4688	-3.3375	-3.5187	-3.4271	-3.5708	-3.7104	-3.3104	-3.4125	-3.4604	-3.2229	-3.4062	-3.1937	-3.2	-3.6104	55.086	129.562	303.806	247.964	90.436	-12.024	261.212	-54.339	161.719	-45.017	298.021	191.438	65.824	179.032	-10.675	148.174	0.00037226	0.00036923	0.00014752	1100.3	3.2777e-06	4.4278e-06	1361.3	271.54	6.653e-06	5.4031e-06	398.96	114.38	69.059	19.824	6.4999e-06	42.684	0.0013629	0.0023842	0.00061328	1058.2	2.2484e-05	2.4445e-05	1300.8	260.99	2.1159e-05	2.486e-05	385.7	110.76	67.062	19.315	2.1024e-05	41.351	304.907	58.428	33.838	-41.371	106.301	74.390	-41.712	-36.804	162.470	96.898	-37.476	-32.467	-32.461	-27.543	114.958	-28.552	-8191	255	
786.981	1	1	0	0	0.10068	0.20982	0.15646	0.13955	0.12618	0.2489	0.14972	0.27554	0.23334	0.057464	0.1972	0.080023	0.13995	0.28957	0.19099	0.041987	-2.9	-3.1625	-3.3958	-3.3333	-3.4229	-3.3187	-3.3229	-3.5104	-3.3063	-3.3146	-3.6042	-3.2375	-3.4167	-3.3417	-3.0583	-3.6437	137.532	-24.375	99.214	-36.334	144.691	-37.537	242.782	304.559	-16.278	197.573	238.655	49.745	28.825	-31.078	-27.310	8.422	0.00024363	0.00027829	0.00011695	1058.5	6.0183e-06	5.8829e-06	1269.1	261.54	6.2474e-06	4.7128e-06	379.67	112.38	65.479	19.703	4.5058e-06	44.549	0.001323	0.0021962	0.00060361	1012.9	2.2778e-05	2.6026e-05	1214.1	251.38	2.1766e-05	2.6533e-05	367	108.79	63.697	19.147	2.4329e-05	43.436	-50.574	41.318	45.321	-41.250	74.018	80.122	-41.973	-36.896	58.211	80.796	-37.169	-32.473	-32.818	-27.856	96.862	-28.329	-8191	255	
787.075	1	1	0	0	0.046929	0.030574	0.13618	0.10328	0.19922	0.11484	0.3329	0.17909	0.093294	0.10939	0.36854	0.33512	0.08976	0.3877	0.087521	0.11973	-2.7812	-3.2354	-3.5583	-3.3063	-3.5021	-3.5979	-3.1813	-3.6167	-3.2479	-3.1417	-3.5542	-3.2521	-3.4938	-3.425	-3.1396	-3.5708	-41.653	77.831	147.116	297.536	17.369	269.809	242.427	233.032	132.141	-43.193	218.514	235.803	178.860	-42.246	-41.851	95.702	0.00026532	0.00067491	3.9438e-05	882.26	8.1354e-06	3.5265e-06	1070.3	224.65	9.0126e-06	4.8485e-06	335.3	101.72	56.807	18.13	1.0113e-05	44.459	0.0015578	0.0027113	0.00079559	848.13	3.0733e-05	3.6293e-05	1026.8	216.4	3.6321e-05	4.4389e-05	330.86	99.178	56.058	18.123	5.4912e-05	44.177	292.797	41.201	72.591	-41.452	140.311	44.642	-41.657	-36.985	119.372	72.061	-37.306	-32.655	-32.082	-27.445	166.687	-28.062	-8191	255	
787.171	1	1	0	0	0.094476	0.17962	0.17154	0.1301	0.12815	0.24108	0.2749	0.16551	0.050564	0.20797	0.031713	0.12986	0.16835	0.13334	0.042243	0.099274	-2.8438	-3.3354	-3.5687	-3.1937	-3.3167	-3.5125	-3.2292	-3.5396	-3.3875	-3.1625	-3.5104	-3.4042	-3.2979	-3.6396	-3.2521	-3.6167	187.336	304.823	277.265	204.305	271.428	169.327	229.904	71.958	17.625	11.955	21.002	209.980	164.102	110.199	208.191	268.412	0.00031067	0.00025156	0.00011398	812.86	4.2548e-06	1.8489e-06	1011.8	212.86	5.615e-06	7.1551e-06	326.09	97.754	55.752	17.899	4.3001e-06	43.524	0.003282	0.0062458	0.0020125	792.51	7.4542e-05	9.1818e-05	987.47	209.45	8.5381e-05	0.0001041	334.41	97.818	56.964	18.382	0.0001051	43.828	-43.657	-19.842	45.390	-41.783	179.087	-41.278	-41.929	-37.043	111.108	123.019	-37.629	-32.067	-32.655	-27.106	65.666	-28.234	-8191	255	
787.292	1	1	0	0	0.16561	0.30703	0.31491	0.11037	0.12029	0.16797	0.42986	0.21826	0.26666	0.24233	0.082846	0.1425	0.27368	0.2321	0.20906	0.16694	-3.0375	-3.1417	-3.5646	-3.4813	-3.2667	-3.65	-3.475	-3.425	-3.4458	-3.1583	-3.7125	-3.3354	-3.3625	-3.5792	-3.2458	-3.4542	302.289	245.763	-39.133	-24.263	84.682	237.589	293.211	-24.122	249.301	294.990	232.497	248.439	278.802	283.817	252.651	200.633	0.00017112	0.00044413	0.00017091	804.86	3.9846e-06	5.6432e-06	1002.9	210.6	3.1738e-06	8.0658e-06	322.75	96.574	55.588	17.805	5.5751e-06	43.533	0.005162	0.0099385	0.00303	790.27	9.4817e-05	0.0001157	981.15	208.82	8.7154e-05	0.00010935	331.37	96.548	56.561	18.389	0.00010429	43.74	-42.991	-26.210	64.339	-41.571	142.129	212.395	-42.037	-37.088	102.609	94.121	-37.372	-32.512	-32.593	-27.551	144.996	-28.020	-8191	255	
787.364	1	1	0	0	0.17574	0.059191	0.079071	0.18468	0.13499	0.12987	0.044818	0.36	0.20322	0.11143	0.057819	0.22661	0.19195	0.14559	0.2966	0.23923	-3.0125	-3.1708	-3.2771	-3.3271	-3.2125	-3.6104	-3.4604	-3.3917	-3.4958	-3.2313	-3.5604	-3.375	-3.1479	-3.4875	-3.3563	-3.4813	299.768	188.264	22.255	133.302	195.102	261.440	134.090	87.926	103.728	279.798	177.244	293.137	269.910	179.571	211.620	-54.090	0.00032359	0.00011683	0.00020266	803.24	4.0311e-06	3.2383e-06	997.31	211.91	8.2302e-06	1.0345e-05	327.28	97.67	57.318	18.175	6.9631e-06	43.669	0.0052119	0.010681	0.0032278	788.28	9.8897e-05	0.00012814	980	210.41	9.4673e-05	0.00012233	337.93	98.172	58.371	18.8	0.00010193	43.787	277.735	194.510	93.955	-41.500	54.277	106.535	-41.707	-37.197	115.547	90.165	-37.524	-32.312	-32.773	-27.376	119.504	-28.131	-8191	255	
787.460	1	1	0	0	0.063387	0.20174	0.19164	0.22159	0.032485	0.083452	0.20374	0.15851	0.10473	0.037891	0.094262	0.29044	0.15754	0.22908	0.12817	0.10184	-3.0917	-3.225	-3.3771	-3.4833	-3.1479	-3.4771	-3.3708	-3.3979	-3.4792	-3.2708	-3.6125	-3.6292	-3.0917	-3.6104	-3.4333	-3.35	130.259	40.871	-31.451	6.022	251.420	95.493	248.499	236.414	95.122	195.126	-30.911	277.178	-23.834	38.932	189.880	25.881	0.00029706	0.00028369	0.00018648	818.15	3.7609e-06	8.7221e-06	1033	220.39	8.0467e-06	2.7849e-06	337.69	100.63	58.66	18.903	4.1443e-06	45.589	0.0049074	0.009878	0.0028491	803.8	8.835e-05	0.00011633	1003.4	216.49	8.4383e-05	0.00010642	341.19	99.602	59.041	19.109	7.4807e-05	45.203	290.231	9.571	91.143	-41.560	-12.341	89.846	-42.197	-37.060	215.979	256.133	-37.814	-32.256	-32.933	-27.548	40.117	-27.972	-8191	255	
787.556	1	1	0	0	0.035946	0.33058	0.061745	0.1569	0.26078	0.077638	0.16492	0.17664	0.055494	0.16509	0.11856	0.18228	0.036486	0.12328	0.10806	0.12985	-3.1729	-3.1167	-3.4417	-3.7	-3.4188	-3.5708	-3.6208	-3.3646	-3.6229	-3.3312	-3.5021	-3.6104	-3.3583	-3.5021	-3.4437	-3.3833	103.766	78.205	-13.471	-31.492	289.652	288.343	245.809	284.856	297.409	230.143	106.709	247.871	-49.907	-6.506	161.543	289.280	0.0004372	0.00028323	0.00015856	830.25	6.2697e-06	3.5553e-06	1032.4	219.17	6.5245e-06	5.005e-06	341.43	103.35	58.819	19.836	8.4587e-06	49.789	0.0034483	0.0066012	0.0017539	803.48	5.1637e-05	6.3917e-05	996.58	212.97	4.5268e-05	5.4587e-05	333.59	101.05	57.735	19.658	4.0304e-05	48.805	300.473	24.952	6.635	-41.500	177.828	48.240	-42.022	-37.165	26.364	124.384	-37.483	-32.423	-32.802	-27.220	92.564	-28.362	-8191	255	
787.677	1	1	0	0	0.08523	0.13407	0.289	0.19843	0.11354	0.098753	0.12015	0.25677	0.2111	0.07378	0.26247	0.081294	0.074914	0.093277	0.33938	0.17026	-3.2042	-3.2229	-3.3937	-3.6708	-3.2479	-3.5062	-3.5146	-3.2375	-3.4604	-3.2271	-3.35	-3.5583	-3.2583	-3.6292	-3.3125	-3.4562	193.820	201.884	1.874	261.096	174.875	257.913	208.440	289.364	166.875	137.593	254.752	271.319	-17.615	247.412	-28.214	139.129	0.00033632	0.00017289	5.8298e-05	818.16	4.7953e-06	4.0374e-06	1028.5	220.46	1.3954e-05	8.5034e-06	344.55	107.48	59.977	20.743	4.312e-06	52.328	0.0022004	0.003867	0.0010226	791.46	3.3994e-05	4.2346e-05	989.85	212.97	3.2392e-05	3.8559e-05	335.88	104.63	58.562	20.426	2.9521e-05	51.19	-49.640	73.728	112.762	-41.722	97.656	51.137	-41.829	-37.127	159.011	125.327	-37.920	-32.269	-32.791	-27.347	124.369	-28.014	-8191	255	
787.773	1	1	0	0	0.032739	0.31253	0.26935	0.23692	0.19694	0.11838	0.13106	0.13111	0.33254	0.11258	0.13632	0.073589	0.096799	0.21967	0.072593	0.18936	-3.0812	-3.2271	-3.475	-3.6458	-3.2917	-3.4604	-3.5687	-3.1917	-3.5396	-3.1583	-3.3187	-3.5396	-3.2604	-3.4437	-3.4958	-3.3458	265.196	180.498	117.209	58.306	213.267	235.085	246.058	8.249	204.614	238.387	65.811	-16.561	287.121	241.672	-25.898	192.433	0.00036214	0.00048171	0.00014837	820.41	5.9667e-06	2.8182e-06	1021.8	220.16	6.8795e-06	5.994e-06	346.25	110.6	60.648	20.647	2.1067e-06	52.324	0.0017627	0.0030214	0.00076267	788.28	2.6513e-05	3.153e-05	979.9	213	2.4687e-05	2.7559e-05	335.78	107.06	58.88	20.222	2.2282e-05	50.951	-55.125	35.892	34.442	-41.730	150.213	108.270	-42.142	-37.202	123.319	79.309	-37.639	-32.287	-32.704	-27.528	189.134	-28.394	-8191	255	
787.869	1	1	0	0	0.20548	0.032515	0.22617	0.24248	0.053442	0.099041	0.076001	0.13385	0.20735	0.11482	0.18823	0.20461	0.062114	0.20678	0.20065	0.060517	-3.175	-3.3	-3.2896	-3.6021	-3.2083	-3.2875	-3.6833	-3.1854	-3.6042	-3.3	-3.3896	-3.5646	-3.1729	-3.3021	-3.425	-3.3479	171.041	61.519	59.092	230.798	256.331	105.760	127.721	235.171	288.695	214.018	232.625	-6.160	127.097	239.819	242.253	143.966	0.00037673	0.00033909	0.00013794	808.71	5.7069e-06	2.5081e-06	1007.8	221.38	5.7502e-06	2.0807e-06	348.6	110.79	60.651	20.462	8.1879e-06	52.671	0.0014019	0.0021252	0.00058065	772.96	2.0234e-05	2.3227e-05	965.16	213.46	1.8701e-05	2.0187e-05	335.68	107.78	58.852	19.861	1.7497e-05	51.059	302.396	-6.889	64.537	-41.674	152.249	70.510	-42.302	-37.433	192.477	152.531	-37.525	-32.493	-32.496	-27.333	131.289	-28.335	-8191	255	
787.941	1	1	0	0	0.13673	0.073303	0.10209	0.31536	0.3277	0.14628	0.088314	0.14048	0.11668	0.12482	0.12098	0.30027	0.2428	0.14099	0.23931	0.055262	-3.1688	-3.3583	-3.25	-3.5854	-3.3833	-3.3104	-3.6667	-3.3521	-3.5417	-3.4854	-3.2812	-3.7271	-3.2562	-3.3979	-3.6917	-3.3833	83.159	114.034	-48.803	246.075	223.249	-22.934	92.789	236.636	257.253	51.689	76.224	237.511	280.866	212.651	155.442	186.334	0.00034004	0.00071171	0.00015681	808.72	6.1962e-06	5.8749e-06	1011.9	219.22	1.9641e-06	1.3045e-06	345.11	111.89	60.057	20.857	6.743e-06	54.394	0.0011099	0.0016955	0.00044826	772.12	1.6039e-05	1.823e-05	964.19	210.95	1.5197e-05	1.699e-05	333.44	108.29	58.497	20.201	1.5849e-05	52.89	302.842	13.822	57.103	-41.925	172.823	124.934	-42.011	-37.214	157.443	138.496	-37.576	-32.555	-32.565	-27.356	137.499	-28.652	-8191	255	
788.061	1	1	0	0	0.099628	0.16581	0.1273	0.11473	0.18995	0.03841	0.2893	0.19677	0.12913	0.15727	0.070105	0.17817	0.25455	0.14753	0.035851	0.23527	-3.0375	-3.375	-3.1167	-3.625	-3.2521	-3.4188	-3.6771	-3.4521	-3.2938	-3.55	-3.375	-3.6125	-3.3917	-3.2792	-3.5187	-3.3375	-17.363	7.877	0.834	288.211	-3.488	66.277	298.644	277.638	231.078	45.122	12.902	-33.750	245.697	283.295	178.048	-50.887	0.00039584	0.00029706	0.00014257	804.46	5.8649e-06	5.0131e-06	1001.9	218.37	5.0204e-06	4.6448e-06	348.62	112.35	60.958	20.992	5.1875e-06	55.099	0.0010358	0.0015201	0.00042113	769.88	1.4834e-05	1.6542e-05	958.55	209.92	1.4446e-05	1.664e-05	334.47	109.21	58.932	20.451	1.6609e-05	53.529	303.687	38.521	43.672	-41.869	126.931	98.786	-42.299	-37.257	147.035	79.476	-37.854	-32.448	-33.020	-27.748	126.140	-28.409	-8191	255	
788.156	1	1	0	0	0.12579	0.27015	0.077882	0.14769	0.21905	0.13477	0.17916	0.24528	0.21881	0.16259	0.33123	0.17162	0.20654	0.23183	0.016538	0.1946	-3.0521	-3.3333	-3.0354	-3.6813	-3.2812	-3.1792	-3.7479	-3.3937	-3.3979	-3.4313	-3.3146	-3.5229	-3.4562	-3.125	-3.5958	-3.2812	-20.287	6.057	235.072	301.051	198.248	303.694	218.055	272.765	218.752	74.779	146.448	-42.136	292.563	-49.357	293.043	282.398	0.00040254	0.00052869	0.00012943	811.36	5.5787e-06	2.4873e-06	1007.9	219.87	6.6239e-06	4.8979e-06	344.93	112.11	60.705	20.87	7.3006e-06	54.246	0.0010333	0.0016154	0.00047478	776.72	1.5591e-05	1.8268e-05	964.57	211.11	1.5637e-05	1.907e-05	333.47	108.32	58.643	20.342	1.7888e-05	52.758	-52.800	24.651	56.879	-41.933	117.035	90.320	-42.399	-37.318	173.337	107.756	-37.671	-32.632	-33.199	-27.600	157.847	-28.657	-8191	255	
788.252	1	1	0	0	0.34103	0.10831	0.10614	0.21138	0.13151	0.14271	0.11785	0.089664	0.10259	0.16666	0.086436	0.091941	0.16868	0.39119	0.11524	0.12805	-2.8708	-3.5125	-3.2104	-3.5396	-3.4917	-3.0583	-3.5917	-3.4917	-3.3375	-3.6729	-3.1208	-3.5229	-3.3812	-3.2458	-3.5917	-3.4958	177.768	210.930	-53.398	300.791	77.165	268.638	263.886	276.472	96.330	56.383	301.973	291.245	287.573	-48.294	230.324	143.382	0.00040164	0.00052417	0.00012421	816.09	4.0291e-06	2.3173e-06	1006.2	217.31	1.2377e-06	7.9199e-06	339.72	110.91	59.443	20.577	2.5022e-06	53.533	0.0010629	0.0017685	0.00050421	779.09	1.6641e-05	1.9985e-05	964.65	208.97	1.6024e-05	2.1451e-05	329.97	107.06	57.824	20.105	2.0252e-05	52.16	-43.728	20.482	37.251	-42.095	71.468	131.110	-42.162	-37.197	241.923	81.476	-37.981	-32.567	-32.578	-27.924	175.865	-28.596	-8191	255	
788.372	1	1	0	0	0.30057	0.029229	0.13956	0.065593	0.12511	0.068118	0.13355	0.20888	0.20534	0.19184	0.15018	0.22439	0.062768	0.13713	0.085962	0.20304	-2.8958	-3.525	-3.2729	-3.4979	-3.4813	-3.125	-3.4917	-3.4896	-3.2729	-3.7021	-3.3479	-3.6479	-3.6083	-3.3208	-3.425	-3.3812	25.604	213.206	127.085	-13.307	95.004	263.680	59.825	213.196	276.690	277.882	89.370	6.963	244.408	274.633	96.159	-50.657	0.00042204	0.00080131	0.00015723	808.11	5.1819e-06	4.5634e-06	995.22	213.92	7.3734e-06	3.9234e-06	335.76	108.82	58.318	20.405	8.7088e-06	53.832	0.0011588	0.0020011	0.0005652	772.01	1.8209e-05	2.1959e-05	952.14	205.23	1.7527e-05	2.3155e-05	324.79	105.54	56.813	19.931	2.0661e-05	52.23	292.274	46.223	79.799	-41.915	135.377	58.026	-42.186	-37.016	133.997	104.480	-37.919	-32.735	-32.631	-27.325	135.194	-28.539	-8191	255	
788.469	1	1	0	0	0.10623	0.13569	0.092905	0.08016	0.14007	0.22631	0.14027	0.18988	0.10319	0.18004	0.22567	0.23561	0.23601	0.15681	0.021348	0.12472	-2.7208	-3.5229	-3.2333	-3.4354	-3.6063	-3.2479	-3.575	-3.5438	-3.1875	-3.6896	-3.2687	-3.5812	-3.4917	-3.1312	-3.3583	-3.3292	191.232	192.984	73.282	289.777	76.441	-25.561	291.225	209.225	29.615	100.772	-11.529	228.526	212.940	273.341	-8.764	224.426	0.00041134	0.0002984	0.00012009	795.11	1.014e-06	7.2495e-06	987.9	210.93	1.9737e-06	3.5858e-06	336	109.42	58.284	20.529	4.0742e-06	53.976	0.001177	0.0020935	0.00055947	761.17	1.8603e-05	2.2582e-05	945.15	203.21	1.8078e-05	2.3864e-05	324.4	105.8	56.701	19.956	2.0668e-05	52.543	-49.328	9.971	42.562	-41.771	79.557	110.064	-42.298	-37.470	-44.603	93.870	-37.768	-32.695	-32.974	-27.790	124.746	-28.480	-8191	255	
788.565	1	1	0	0	0.13892	0.24656	0.15377	0.080315	0.025291	0.22482	0.31899	0.35822	0.22347	0.1665	0.11778	0.18564	0.15955	0.23298	0.11249	0.16469	-2.8083	-3.6146	-3.3104	-3.3854	-3.6188	-3.175	-3.6167	-3.4125	-3.2854	-3.5167	-3.2396	-3.3187	-3.6708	-3.3917	-3.3083	-3.5125	248.066	0.986	-2.693	218.254	16.208	207.291	-23.440	240.037	275.971	271.103	115.222	-29.328	72.496	230.288	95.995	78.223	0.00047835	0.00065485	0.00013412	791.48	5.7601e-06	3.4242e-06	984.72	212.96	1.2696e-06	4.3307e-06	335.32	109.34	58.517	20.461	5.1821e-06	54.149	0.0012445	0.0021413	0.00055706	757.7	1.9339e-05	2.2806e-05	942.14	203.62	1.8544e-05	2.3119e-05	324.61	105.93	56.688	19.972	1.859e-05	52.601	-47.779	20.655	22.881	-41.961	151.803	96.618	-42.200	-37.430	64.954	78.740	-37.657	-32.437	-32.678	-27.552	78.789	-28.476	-8191	255	
788.661	1	1	0	0	0.095975	0.045006	0.22576	0.30738	0.15823	0.11821	0.14484	0.13097	0.34152	0.10286	0.060811	0.23434	0.1467	0.26418	0.020765	0.23895	-2.9625	-3.4542	-3.475	-3.4938	-3.4667	-3.3937	-3.5229	-3.3438	-3.3	-3.6063	-3.6354	-3.2917	-3.7375	-3.2562	-3.3521	-3.6021	223.139	133.177	86.492	261.761	135.068	200.780	129.804	214.073	77.826	258.126	302.432	289.990	256.328	5.633	212.630	281.849	0.00047887	0.00046746	8.2346e-05	791.09	2.8491e-06	3.581e-06	980.07	211.12	9.3267e-06	4.6327e-06	335.53	107.79	58.276	20.118	2.4525e-06	53.154	0.0012144	0.0019891	0.00050701	755.62	1.9262e-05	2.1778e-05	939.8	204.09	1.7661e-05	2.0908e-05	324.12	104.92	56.451	19.609	1.8391e-05	51.543	-47.183	8.542	40.040	-41.951	102.497	117.392	-42.179	-37.341	137.637	71.741	-38.204	-32.551	-32.800	-27.659	124.991	-28.599	-8191	255	
788.757	1	1	0	0	0.31637	0.066159	0.13371	0.11444	0.09943	0.072176	0.3195	0.050096	0.26859	0.070273	0.31829	0.21091	0.17925	0.28255	0.21523	0.23552	-2.8729	-3.3854	-3.3042	-3.3937	-3.5292	-3.2667	-3.5292	-3.6813	-3.1208	-3.4708	-3.5854	-3.4042	-3.6104	-3.4021	-3.3083	-3.6188	247.480	155.565	106.583	238.290	62.747	-48.502	237.941	218.231	241.805	123.011	248.781	127.458	68.866	46.549	-28.238	28.652	0.00036397	0.00033019	0.00011586	793.94	4.0628e-06	3.1816e-06	977.49	211.67	1.8711e-06	2.99e-06	332.45	107.49	57.792	20.064	3.5028e-06	53.032	0.0011589	0.0019182	0.00049952	756.82	1.8596e-05	2.014e-05	936.19	203.43	1.7431e-05	2.0751e-05	322.25	104.56	56.038	19.539	1.8256e-05	51.631	-43.396	63.887	55.231	-42.155	116.462	66.578	-42.394	-37.271	66.618	61.583	-37.505	-32.600	-33.143	-27.284	87.242	-28.458	-8191	255	
788.853	1	1	0	0	0.33837	0.2797	0.059089	0.33561	0.14419	0.085694	0.038553	0.21741	0.19029	0.18254	0.15755	0.09653	0.27487	0.11966	0.043137	0.10551	-2.725	-3.4271	-3.4521	-3.3187	-3.3521	-3.3479	-3.5708	-3.6	-3.2667	-3.5167	-3.5458	-3.1458	-3.4313	-3.4083	-3.3812	-3.5354	-11.927	238.766	146.282	232.423	-44.157	221.529	281.109	235.999	246.128	84.724	255.639	239.458	-27.360	-45.389	257.708	62.388	0.00040342	0.00033745	0.0001278	788.93	8.5103e-06	3.1525e-06	973.84	209.15	6.565e-06	3.871e-06	329.84	106.92	56.912	19.773	4.914e-06	53.079	0.0011774	0.0018784	0.00052436	753.88	1.923e-05	2.1031e-05	934.44	201.38	1.8454e-05	2.168e-05	319.6	103.72	55.439	19.337	2.0041e-05	51.52	-48.794	18.433	53.233	-42.019	84.057	123.768	-42.217	-37.306	165.572	49.829	-37.882	-32.318	-32.887	-27.352	118.018	-28.939	-8191	255	
788.972	1	1	0	0	0.052182	0.11419	0.24036	0.17671	0.15633	0.038998	0.20212	0.54815	0.14934	0.20809	0.16704	0.15576	0.15736	0.1733	0.086468	0.15524	-2.8083	-3.2729	-3.3396	-3.3146	-3.4771	-3.4188	-3.3563	-3.4979	-3.2417	-3.3354	-3.5312	-3.2479	-3.4938	-3.3812	-3.0833	-3.5396	179.035	224.362	218.825	-54.347	-19.082	182.051	167.846	255.748	-36.110	23.952	239.491	230.200	250.346	-34.832	178.273	267.103	0.00039961	0.00038844	4.5331e-05	778.95	5.1384e-06	4.4643e-06	965.24	205.01	5.8239e-06	6.2033e-06	326.89	106.42	56.191	19.599	4.5057e-06	53.135	0.0012364	0.0019431	0.00055673	744	1.9877e-05	2.2516e-05	922.66	197.5	1.903e-05	2.2703e-05	315.99	102.75	54.511	19.242	2.1367e-05	51.683	302.422	25.313	134.969	-41.949	128.518	73.070	-42.190	-37.052	195.261	47.198	-37.935	-32.546	-32.789	-27.714	112.956	-28.519	-8191	255	
789.068	1	1	0	0	0.11275	0.16515	0.1493	0.32408	0.18611	0.13897	0.26377	0.18841	0.15498	0.22878	0.23697	0.22225	0.094174	0.12258	0.066891	0.18581	-2.6875	-3.2333	-3.5083	-3.1937	-3.2562	-3.4104	-3.4229	-3.5375	-3.2146	-3.0979	-3.5146	-3.2938	-3.4958	-3.4313	-3.2375	-3.6083	127.812	-19.211	30.235	-34.386	248.573	92.123	-47.979	214.869	-9.840	-21.142	16.564	265.707	20.697	273.210	147.109	182.389	0.00039366	0.00024537	6.6598e-05	760.78	8.5603e-06	2.7338e-06	956.9	202.69	4.7846e-06	1.3094e-06	322.03	105.32	55.234	19.538	6.6656e-06	52.304	0.001264	0.0019993	0.00059771	730.23	1.9631e-05	2.2699e-05	914.31	194.85	1.8464e-05	2.3268e-05	312.54	101.86	53.707	18.997	2.1097e-05	51.038	-48.560	70.098	63.242	-42.125	116.382	142.910	-42.319	-37.469	185.760	69.862	-37.935	-32.576	-32.689	-27.697	108.892	-28.741	-8191	255	
789.164	1	1	0	0	0.076753	0.23779	0.28968	0.11138	0.20151	0.070516	0.063186	0.12477	0.071504	0.10766	0.2966	0.047791	0.18811	0.11466	0.11358	0.22984	-2.9521	-3.1146	-3.4833	-3.3458	-3.4396	-3.5208	-3.3271	-3.5062	-3.2979	-3.4708	-3.4813	-3.4042	-3.3146	-3.4917	-3.0563	-3.5062	126.412	-3.890	227.221	286.215	55.125	63.449	226.667	-25.883	135.276	-9.791	24.381	13.125	232.253	7.411	262.934	256.148	0.0003158	0.00056347	5.7597e-05	753.93	7.2447e-06	2.5259e-06	946.38	198.96	6.7232e-06	4.5099e-06	319.14	104.09	54.961	19.451	5.9147e-06	51.752	0.0012298	0.0020647	0.00060082	726.14	1.9458e-05	2.2755e-05	906.44	192.2	1.7832e-05	2.2721e-05	310.1	100.75	53.162	18.797	2.1135e-05	50.281	-52.713	13.790	-4.816	-42.000	81.657	71.536	-42.334	-37.438	169.978	51.533	-38.025	-32.883	-32.687	-27.600	83.700	-28.753	-8191	255	
789.236	1	1	0	0	0.2364	0.18419	0.20707	0.35709	0.11265	0.059928	0.16699	0.21234	0.1153	0.12116	0.11389	0.16639	0.090462	0.098839	0.046904	0.077066	-2.9292	-3.1312	-3.425	-3.2667	-3.2646	-3.4958	-3.3625	-3.4604	-3.3937	-3.2417	-3.5417	-3.3979	-3.2917	-3.6229	-3.2896	-3.6958	91.289	232.433	89.781	287.882	16.900	-53.268	-17.498	231.020	59.583	175.606	-18.568	300.702	226.063	264.916	-38.692	28.447	0.00036222	0.00062816	0.00012037	751.56	7.2225e-06	4.4678e-06	937.97	199.48	4.2297e-06	4.6482e-06	317.85	102.76	54.113	18.679	1.0003e-05	50.453	0.0012073	0.0020528	0.00058403	719.79	1.8676e-05	2.3958e-05	899.23	191.6	1.8203e-05	2.3704e-05	307.1	99.392	52.459	18.254	2.0942e-05	49.044	-54.395	34.531	39.387	-41.825	168.470	114.144	-42.245	-37.364	89.679	119.509	-37.694	-32.648	-32.637	-27.371	133.120	-28.625	-8191	255	
789.357	1	1	0	0	0.17232	0.083466	0.082415	0.02423	0.19493	0.11546	0.19186	0.36979	0.27836	0.096002	0.18677	0.19393	0.06346	0.10518	0.18942	0.19025	-3.1729	-3.1813	-3.5896	-3.4083	-3.3042	-3.5583	-3.3812	-3.6875	-3.5312	-3.2	-3.6625	-3.3458	-3.3417	-3.6542	-3.1854	-3.7021	-35.390	109.036	162.905	-15.357	230.174	119.362	290.071	253.056	291.188	0.425	253.741	-5.526	255.591	234.888	229.529	280.005	0.00032959	0.00068566	0.00013234	750.72	4.8074e-06	3.6058e-06	934.52	196.83	7.7195e-06	2.4775e-06	316.59	102.46	54.262	18.538	2.1165e-06	50.34	0.0012245	0.0020897	0.00060095	716.85	1.9241e-05	2.3779e-05	893.93	189.93	1.7877e-05	2.2689e-05	305.63	98.946	52.252	18.146	1.8671e-05	48.91	-54.274	-5.457	-4.183	-42.027	120.090	100.664	-42.118	-37.445	184.104	81.450	-37.630	-32.724	-32.903	-27.557	63.053	-28.799	-8191	255	
789.453	1	1	0	0	0.20119	0.2368	0.27127	0.16187	0.061534	0.023525	0.13977	0.2335	0.064909	0.11056	0.27206	0.11751	0.10382	0.10978	0.074385	0.20271	-3.0146	-3.2021	-3.6333	-3.625	-3.3812	-3.6458	-3.3625	-3.6937	-3.5104	-3.3125	-3.5875	-3.4979	-3.3604	-3.8292	-3.2625	-3.6354	-27.561	4.299	274.311	267.993	-27.558	267.135	-15.000	-28.371	6.320	240.843	-14.886	-3.141	303.409	-37.829	-37.557	187.983	0.00035377	0.00026136	8.9664e-05	743.91	9.8455e-06	3.2483e-06	929.59	196.81	3.9503e-06	6.6888e-06	313.14	101.51	53.737	18.461	7.5598e-06	49.483	0.0011874	0.0019388	0.00052945	713.94	1.8446e-05	2.281e-05	890.02	189.36	1.8283e-05	2.1751e-05	303.83	98.207	52.001	18.052	1.8645e-05	48.247	-50.687	25.482	33.533	-42.079	132.129	95.051	-42.450	-37.267	156.365	109.947	-38.474	-32.662	-33.288	-27.464	113.627	-28.814	-8191	255	
789.549	1	1	0	0	0.034416	0.10837	0.15816	0.26519	0.077511	0.41922	0.067064	0.22575	0.1879	0.078816	0.21163	0.26819	0.052137	0.21638	0.093836	0.34989	-3.0917	-3.2833	-3.35	-3.5875	-3.1333	-3.6417	-3.4646	-3.5375	-3.6208	-3.3917	-3.4458	-3.7104	-3.1813	-3.525	-3.3583	-3.5104	34.739	109.611	-23.579	258.813	22.516	-50.261	228.796	-3.854	-27.247	207.866	183.497	223.001	-30.724	221.026	-18.268	189.918	0.00033359	0.00052726	8.1152e-05	745.64	7.4229e-06	2.7255e-06	934.39	199.17	3.1085e-06	3.2296e-06	313.81	100.18	53.415	18.322	6.5099e-06	48.969	0.0011956	0.0018629	0.00049925	715.04	1.8945e-05	2.1768e-05	891.12	190.45	1.7835e-05	2.1015e-05	303.57	97.458	51.826	17.92	1.7396e-05	47.503	-52.612	32.758	25.099	-42.257	134.357	70.919	-42.060	-37.456	136.180	78.196	-38.100	-32.930	-33.261	-27.579	105.942	-28.739	-8191	255	
789.645	1	1	0	0	0.063755	0.083168	0.051767	0.21555	0.27129	0.11252	0.074425	0.26449	0.070224	0.16442	0.08541	0.22017	0.1381	0.093771	0.1692	0.18681	-3.25	-3.1229	-3.4167	-3.825	-3.2667	-3.6125	-3.6083	-3.5187	-3.7896	-3.4208	-3.5646	-3.675	-3.1979	-3.4833	-3.4042	-3.3021	181.756	-35.117	138.544	289.054	61.998	210.488	260.529	295.462	119.621	29.103	288.513	270.513	112.651	75.555	51.550	49.610	0.00032786	0.00046074	0.00012369	751.42	6.6649e-06	6.3514e-06	929.16	198.55	2.3878e-06	3.0883e-06	312.42	100.16	53.325	18.225	6.1566e-06	48.686	0.0011456	0.0017986	0.00049256	716.1	1.8082e-05	2.0602e-05	890.59	190.39	1.7254e-05	1.9953e-05	302.14	96.883	51.697	17.764	1.7827e-05	47.278	290.157	82.624	47.610	-42.072	113.556	83.521	-42.265	-37.623	29.088	89.681	-37.954	-33.034	-33.236	-27.944	92.772	-29.025	-8191	255	
789.766	1	1	0	0	0.28472	0.21959	0.059881	0.32548	0.24527	0.12753	0.078649	0.20563	0.19626	0.14271	0.17435	0.25721	0.28825	0.27591	0.14806	0.21625	-3.1625	-3.4417	-3.3042	-3.55	-3.375	-3.4313	-3.525	-3.2708	-3.6917	-3.3208	-3.3667	-3.6771	-3.2271	-3.5604	-3.5167	-3.4417	221.906	204.473	303.336	230.780	259.315	-1.057	292.842	250.456	-12.588	265.313	215.221	214.519	-51.759	2.349	-21.993	286.616	0.00041469	0.00043703	0.00012291	742.48	1.1848e-06	3.1084e-06	926.63	197.26	6.111e-06	3.1565e-06	311.25	99.514	52.73	18.009	1.0967e-06	48.226	0.0011474	0.0017027	0.0004887	712.12	1.7638e-05	2.0131e-05	887.58	189.38	1.7607e-05	1.8907e-05	300.59	96.301	51.195	17.61	1.811e-05	46.777	-48.812	71.992	57.043	-42.246	80.757	81.398	-42.518	-37.531	131.104	106.228	-37.853	-32.846	-33.226	-28.072	78.899	-28.854	-8191	255	
789.837	1	1	0	0	0.040811	0.12891	0.21543	0.093623	0.089204	0.051827	0.080283	0.22416	0.10965	0.11284	0.074405	0.20492	0.2883	0.21354	0.11474	0.29523	-3.3125	-3.2854	-3.5125	-3.7104	-3.2021	-3.6562	-3.5687	-3.3271	-3.7854	-3.3563	-3.3792	-3.6646	-3.2708	-3.4333	-3.4375	-3.3354	129.066	122.218	82.450	-30.579	219.112	-51.393	197.460	259.103	124.381	168.499	270.037	60.991	-7.679	23.607	272.757	186.697	0.0003411	0.00033881	0.00014837	740.5	2.881e-06	3.9641e-06	925.2	195.42	3.2482e-06	3.1169e-06	308.11	97.716	52.141	17.761	5.0044e-06	47.067	0.0011379	0.0016975	0.00051358	709.35	1.6803e-05	1.9703e-05	883.99	188.12	1.5968e-05	1.9126e-05	297.27	94.686	50.505	17.176	1.7409e-05	45.594	304.092	-26.077	49.424	-42.264	72.521	51.765	-42.215	-37.321	77.985	104.664	-38.181	-33.201	-33.326	-27.866	148.512	-28.926	-8191	255	
789.934	1	1	0	0	0.09968	0.12762	0.17031	0.26376	0.031306	0.093847	0.18109	0.23858	0.22445	0.18147	0.17934	0.064317	0.18669	0.027444	0.1614	0.13337	-3.0625	-3.4146	-3.15	-3.6792	-3.2146	-3.425	-3.6688	-3.2396	-3.4271	-3.5021	-3.2417	-3.6562	-3.2542	-3.3542	-3.6562	-3.2875	66.231	17.688	95.882	250.714	257.946	147.130	67.993	-37.684	239.211	269.914	233.295	-44.895	-4.450	-29.579	149.325	159.857	0.00039478	0.00011708	0.00010694	728.31	3.0722e-06	3.4626e-06	920.58	193.82	3.5356e-06	4.8771e-06	307.21	96.675	51.202	17.165	2.7006e-06	46.271	0.0010684	0.0016505	0.000486	699.35	1.5722e-05	1.8397e-05	877.27	185.99	1.5381e-05	1.7596e-05	295.7	93.545	49.767	16.803	1.6115e-05	44.802	302.944	115.710	52.521	-42.030	147.616	95.470	-42.825	-37.771	128.072	102.474	-37.853	-33.172	-33.088	-27.854	150.609	-29.183	-8191	255	
790.054	1	1	0	0	0.20615	0.063817	0.010677	0.20554	0.24928	0.2007	0.16141	0.17291	0.17897	0.03925	0.090144	0.13932	0.19622	0.25284	0.077151	0.29934	-3.1125	-3.3937	-3.1333	-3.6667	-3.2146	-3.3396	-3.625	-3.3542	-3.5417	-3.4896	-3.3312	-3.6312	-3.3333	-3.2875	-3.5896	-3.2583	-31.412	38.816	60.396	230.864	-22.635	37.791	182.627	166.573	229.219	-24.010	4.178	283.877	-33.109	-54.498	-17.549	175.406	0.00029042	0.00033333	0.00012692	727.34	4.988e-06	5.7341e-06	913.98	193.42	5.337e-06	6.2529e-06	304.59	96.264	50.871	16.796	5.2392e-06	44.486	0.0009692	0.0015332	0.00044335	697.32	1.4372e-05	1.7001e-05	874.51	184.92	1.4215e-05	1.7096e-05	293.33	92.93	49.366	16.353	1.5474e-05	43.232	298.256	-5.601	14.479	-42.233	119.200	84.607	-42.426	-37.381	125.586	77.872	-38.456	-32.993	-32.980	-28.295	184.524	-28.850	-8191	255	
790.149	1	1	0	0	0.18237	0.2047	0.11777	0.063523	0.10302	0.19481	0.11362	0.24531	0.20632	0.097414	0.17608	0.1983	0.1947	0.22782	0.17139	0.29839	-3.1083	-3.3812	-3.175	-3.7479	-3.5979	-3.3167	-3.6437	-3.4188	-3.4146	-3.6083	-3.2104	-3.6729	-3.4417	-3.2604	-3.7	-3.3688	278.430	43.353	184.764	273.964	-36.396	10.697	293.788	-43.489	49.636	44.219	213.761	246.600	302.220	-45.341	60.548	238.752	0.0002712	0.00039287	0.00010491	731.16	3.5297e-06	2.5256e-06	920.08	192.63	5.3601e-06	3.5889e-06	303.6	94.048	50.409	15.643	5.2332e-06	41.22	0.00088525	0.0014737	0.00040978	701.06	1.278e-05	1.5857e-05	880.82	184.93	1.2644e-05	1.5452e-05	291.64	90.559	48.721	15.26	1.3903e-05	39.892	-51.963	47.265	46.888	-42.663	152.023	84.388	-42.500	-37.661	164.289	73.267	-38.147	-33.579	-33.223	-28.034	77.152	-28.923	-8191	255	
790.245	1	1	0	0	0.13391	0.034075	0.1434	0.067666	0.14237	0.083539	0.098824	0.26327	0.12616	0.18958	0.055618	0.30155	0.021307	0.26397	0.085655	0.21117	-2.9896	-3.5438	-3.1042	-3.5687	-3.3729	-3.1229	-3.7958	-3.3021	-3.3021	-3.5542	-3.3292	-3.5521	-3.3542	-3.1458	-3.5563	-3.3146	183.138	125.077	240.210	159.936	29.279	224.116	142.796	189.425	281.212	288.660	-31.995	273.234	161.365	272.778	18.869	252.964	0.00037747	0.00015123	6.0255e-05	746.59	4.3824e-06	5.3836e-06	924.48	191.88	4.1624e-06	3.971e-06	299.1	90.647	49.324	14.475	7.7691e-07	36.808	0.00082648	0.0013819	0.00036325	713.66	1.1743e-05	1.4792e-05	884.76	184.45	1.1366e-05	1.4219e-05	287.45	87.402	47.549	14.005	1.1672e-05	35.742	-54.771	2.618	48.190	-42.203	100.792	67.526	-42.419	-37.597	194.526	99.439	-38.519	-33.036	-33.241	-28.628	249.445	-29.030	-8191	255	
790.341	1	1	0	0	0.076303	0.16297	0.065769	0.27338	0.21386	0.11704	0.16616	0.10504	0.1695	0.092174	0.073177	0.037002	0.26106	0.094514	0.21362	0.17644	-2.9688	-3.5896	-3.1729	-3.6375	-3.4417	-3.2958	-3.7125	-3.5021	-3.3208	-3.7042	-3.3229	-3.6146	-3.4646	-3.2979	-3.5333	-3.625	74.076	269.526	-27.541	202.146	121.902	191.199	-33.814	251.174	260.548	16.184	-21.384	24.805	-41.655	-15.678	191.845	232.289	0.00026525	0.00051622	1.1527e-05	736.65	3.6291e-06	2.7973e-06	925.4	201.52	3.1085e-06	3.0056e-06	317.34	96.349	54.611	15.257	4.7678e-06	36.759	0.00072568	0.0011403	0.00030117	703.92	1.0765e-05	1.1891e-05	884.03	192.4	9.6552e-06	1.1773e-05	303.52	92.802	52.957	14.77	1.001e-05	35.899	302.192	26.627	-6.674	-41.779	135.912	41.101	-42.421	-37.611	206.194	97.320	-37.853	-32.813	-32.796	-28.526	93.551	-28.983	-8191	255	
790.462	1	1	0	0	0.16254	0.075324	0.10394	0.1283	0.051926	0.053696	0.21346	0.16403	0.14477	0.1365	0.078137	0.34999	0.099292	0.32498	0.17584	0.1069	-2.9208	-3.5729	-3.2729	-3.5146	-3.5333	-3.2833	-3.7625	-3.6125	-3.4625	-3.7667	-3.1167	-3.35	-3.5583	-3.4021	-3.6042	-3.5625	97.643	6.931	125.528	276.272	282.395	28.208	-41.295	-4.721	181.947	267.941	-20.787	299.383	227.018	298.475	258.940	-25.133	0.00023892	0.00040232	0.00011804	794.99	3.2966e-06	3.8437e-06	1010.9	232.47	2.2358e-06	5.0166e-06	359.02	106.62	62.864	16.714	6.3498e-06	38.716	0.00069861	0.0010151	0.00026767	758.05	1.0148e-05	1.1192e-05	966.74	223.1	9.7782e-06	1.175e-05	345.64	102.53	60.558	16.218	9.7526e-06	37.308	-55.071	34.882	45.984	-41.756	146.734	74.703	-42.166	-37.352	123.788	59.076	-38.210	-33.321	-33.453	-28.410	125.119	-29.267	-8191	255	
790.533	1	1	0	0	0.12732	0.29823	0.38231	0.17217	0.048449	0.05324	0.18042	0.15448	0.25027	0.084821	0.24513	0.074005	0.18606	0.15156	0.076257	0.11454	-2.7833	-3.4521	-3.3208	-3.5187	-3.4167	-3.0542	-3.7125	-3.4625	-3.1479	-3.5687	-3.3917	-3.4646	-3.6333	-3.3292	-3.6292	-3.5604	-19.700	101.331	114.510	-42.660	26.267	233.665	235.762	282.996	200.485	-40.775	102.628	34.809	297.557	259.145	84.866	276.395	0.000252	0.0004282	9.4189e-05	881.81	1.5302e-06	4.4865e-06	1099.3	257.67	3.3912e-06	2.8059e-06	390.49	111.15	66.12	17.129	3.815e-06	38.358	0.000657	0.00097349	0.00026755	842.28	9.8461e-06	1.0389e-05	1052.3	245.73	9.2744e-06	1.1109e-05	373.22	107.39	64.079	16.581	9.6361e-06	37.033	-49.945	38.026	-21.750	-41.495	20.788	79.419	-41.834	-37.468	196.094	104.279	-37.929	-33.353	-33.371	-28.759	119.384	-29.322	-8191	255	
790.654	1	1	0	0	0.058887	0.20216	0.13292	0.10315	0.17806	0.13374	0.24348	0.22892	0.17567	0.091498	0.1289	0.089251	0.16516	0.12015	0.15175	0.065141	-2.8375	-3.475	-3.4542	-3.3792	-3.4896	-3.3	-3.5979	-3.6271	-3.3375	-3.6396	-3.4146	-3.35	-3.6833	-3.4292	-3.4188	-3.6646	281.941	244.844	106.680	289.935	184.529	152.235	265.610	-50.997	286.516	284.370	26.463	-5.505	189.182	223.849	228.391	114.144	0.00025517	0.00059892	0.00013726	923.07	4.5584e-06	3.5753e-06	1134.9	258.75	4.1117e-06	5.0936e-06	392.17	112.03	67.708	16.813	5.4285e-06	37.452	0.00065237	0.00098895	0.00026892	881	9.92e-06	1.043e-05	1083.8	248.08	8.8279e-06	1.0607e-05	375	107.82	64.781	16.238	9.9635e-06	36.147	300.254	14.832	18.381	-41.698	114.971	104.383	-42.078	-37.355	143.722	86.482	-38.086	-33.630	-33.236	-28.946	88.697	-29.192	-8191	255	
790.750	1	1	0	0	0.11857	0.12538	0.1625	0.17374	0.29865	0.20193	0.15976	0.1596	0.08693	0.076324	0.2848	0.12155	0.13677	0.11001	0.016365	0.14879	-2.7354	-3.575	-3.4062	-3.4396	-3.5875	-3.3063	-3.6458	-3.5	-3.2313	-3.5375	-3.55	-3.3646	-3.7542	-3.4646	-3.3396	-3.7958	84.099	224.319	178.066	270.483	303.551	-18.236	247.777	276.214	293.348	248.356	-40.020	237.704	-54.788	287.602	130.272	302.057	0.00028474	0.00036752	9.9768e-05	932.34	4.0666e-06	4.1304e-06	1140.2	258.47	2.128e-06	4.974e-06	390.75	110.84	66.961	16.555	4.626e-06	36.942	0.00067851	0.00094837	0.00026581	889.12	1.015e-05	1.0742e-05	1091.6	247.42	9.3652e-06	1.0854e-05	374	107.02	64.57	16.006	1.019e-05	35.594	300.490	55.155	55.005	-41.880	163.035	101.999	-41.909	-37.219	155.559	85.495	-37.998	-33.475	-33.360	-29.078	105.919	-29.218	-8191	255	
790.846	1	1	0	0	0.21882	0.065492	0.080115	0.20925	0.21894	0.14666	0.1262	0.10142	0.083309	0.094099	0.074665	0.049802	0.20339	0.24129	0.12423	0.19497	-2.9833	-3.3458	-3.3833	-3.3104	-3.6188	-3.375	-3.5083	-3.6833	-3.2521	-3.425	-3.6042	-3.3896	-3.4792	-3.3167	-3.225	-3.5875	87.116	19.290	158.946	271.409	159.331	159.420	209.373	150.203	10.843	31.340	225.234	-6.145	303.363	-25.799	-29.145	205.208	0.00030488	0.00030181	6.046e-05	933.46	2.3901e-06	2.2074e-06	1145.2	256.08	3.3338e-06	4.7008e-06	387.48	110.56	67.171	16.225	3.1592e-06	35.937	0.00063823	0.00095045	0.00027731	887.34	9.7375e-06	1.0641e-05	1090.2	245.56	9.3973e-06	1.1057e-05	371.51	106.01	64.208	15.713	1.0289e-05	34.88	-53.889	34.830	70.356	-41.798	157.984	27.790	-41.832	-37.355	146.733	74.826	-38.171	-33.312	-33.064	-28.953	103.773	-29.394	-8191	255	
790.942	1	1	0	0	0.28495	0.26042	0.048034	0.3628	0.28612	0.16911	0.31523	0.22627	0.32794	0.16422	0.10713	0.083712	0.11518	0.21002	0.14686	0.14068	-2.8292	-3.4417	-3.4229	-3.3396	-3.5104	-3.4354	-3.2042	-3.6792	-3.2208	-3.4458	-3.5563	-3.3042	-3.5292	-3.4583	-3.2125	-3.5667	284.434	281.901	169.510	215.415	289.478	17.351	272.380	221.818	52.695	139.930	301.953	-3.800	187.207	-30.129	165.812	-37.185	0.0002181	0.00024587	0.00014139	915.57	7.8024e-06	5.5986e-06	1123.2	252.05	2.7953e-06	3.3209e-06	376.05	106.81	64.74	15.639	6.6202e-06	35.096	0.00061754	0.00097134	0.00029253	875.51	9.5222e-06	1.1165e-05	1072.3	240.69	9.0171e-06	1.0977e-05	363.32	103.27	62.516	15.219	9.659e-06	33.895	-53.954	45.306	45.702	-41.581	141.592	105.540	-42.002	-37.523	179.818	98.727	-38.478	-33.295	-33.243	-29.082	136.279	-29.523	-8191	255	
791.061	1	1	0	0	0.45092	0.23548	0.11278	0.24984	0.24999	0.031594	0.10383	0.13723	0.16718	0.19106	0.070738	0.14324	0.1021	0.12295	0.17261	0.1848	-2.8312	-3.3125	-3.5375	-3.4292	-3.5396	-3.3833	-3.4	-3.5625	-3.0958	-3.4979	-3.7938	-3.1667	-3.3688	-3.35	-3.15	-3.55	3.296	-2.848	23.841	-22.320	151.478	296.555	95.816	198.628	-40.337	80.645	-49.787	209.570	239.951	-29.032	131.231	234.655	0.00023792	0.00049424	9.6048e-05	891.36	4.2713e-06	3.0048e-06	1085.5	242.66	7.9685e-07	4.7202e-06	366.78	105.13	62.879	15.333	1.6909e-06	34.562	0.00061778	0.00097238	0.00026767	849.32	9.231e-06	1.0284e-05	1034.2	231.62	8.6942e-06	1.0636e-05	352.16	101.21	60.653	14.727	9.204e-06	33.483	295.608	55.381	77.436	-41.850	94.865	83.091	-42.087	-37.724	146.211	84.364	-38.276	-33.544	-33.497	-28.997	100.730	-29.213	-8191	255	
791.133	1	1	0	0	0.22309	0.26414	0.16402	0.24516	0.12446	0.25232	0.22617	0.13045	0.19274	0.30802	0.25022	0.24258	0.20765	0.19656	0.16229	0.13509	-2.9792	-3.1417	-3.3417	-3.3688	-3.4396	-3.4	-3.3771	-3.6375	-3.4396	-3.325	-3.3396	-3.375	-3.4729	-3.4771	-3.0771	-3.6813	289.461	242.589	128.779	55.299	-22.286	210.983	185.001	238.650	169.073	293.016	-15.413	-40.735	-22.333	-36.980	249.578	85.365	0.00025725	0.0003007	0.00015437	869.96	3.869e-06	3.4047e-06	1065.2	238.75	1.2417e-06	2.2618e-06	363.52	104.2	62.103	14.926	5.9459e-06	34.557	0.00060324	0.00091774	0.00025116	831.27	8.8279e-06	1.0089e-05	1018	228.33	8.4363e-06	1.0536e-05	348.93	100.07	59.594	14.464	8.5235e-06	33.391	-52.194	80.337	34.617	-41.880	103.853	99.255	-42.223	-37.115	243.968	56.621	-37.972	-33.440	-33.455	-28.548	114.312	-29.421	-8191	255	
791.229	1	1	0	0	0.11337	0.15782	0.094051	0.25602	0.08922	0.045161	0.27233	0.05346	0.21147	0.13954	0.015686	0.07325	0.30945	0.076335	0.11525	0.20402	-2.9083	-3.1813	-3.5	-3.2583	-3.4083	-3.6396	-3.3729	-3.5646	-3.4333	-3.2479	-3.5479	-3.3833	-3.3667	-3.6625	-3.0938	-3.5312	233.828	303.710	-43.182	237.954	284.489	109.867	242.151	43.703	-34.959	303.640	-53.704	276.749	293.566	-25.487	-20.520	-30.515	0.00023334	0.00025065	9.8962e-05	855.82	4.4881e-06	4.034e-06	1056.5	233.97	5.573e-06	2.6924e-06	356.89	102.36	60.352	14.599	4.374e-06	33.76	0.00059662	0.00092922	0.00024582	816.56	9.108e-06	1.0308e-05	1006	224.05	8.7504e-06	1.038e-05	343.38	98.434	58.189	14.168	8.5124e-06	32.833	299.024	12.502	81.205	-41.716	95.623	117.861	-42.057	-37.540	144.755	99.203	-38.145	-33.564	-33.669	-29.274	114.275	-29.019	-8191	255	
791.325	1	1	0	0	0.053966	0.12979	0.052438	0.35799	0.11686	0.17624	0.2061	0.074339	0.026837	0.11385	0.10261	0.27916	0.39324	0.21565	0.10432	0.24886	-3.0146	-3.0708	-3.4271	-3.3271	-3.3146	-3.3458	-3.3042	-3.5521	-3.4229	-3.3063	-3.5271	-3.2646	-3.2542	-3.5521	-3.3229	-3.3875	-2.852	58.905	-7.386	289.374	16.145	233.222	220.270	2.869	209.876	241.506	205.101	210.063	275.061	-30.417	13.725	-52.574	0.00024422	0.00060181	0.00012777	843.2	2.7105e-06	1.8034e-06	1043.5	228.95	2.914e-06	5.6218e-06	353.64	100.69	59.145	14.306	6.9849e-06	33.563	0.00061768	0.00088154	0.00023807	807.35	8.6696e-06	1.0403e-05	994.88	220.22	8.5366e-06	1.0015e-05	339.64	96.942	56.917	13.811	8.4035e-06	32.6	294.491	38.352	23.099	-41.801	146.661	105.323	-42.056	-37.534	194.417	105.908	-37.919	-33.453	-33.515	-28.808	132.157	-29.345	-8191	255	
791.421	1	1	0	0	0.041177	0.090785	0.15264	0.13927	0.25151	0.24346	0.18307	0.032089	0.1112	0.3507	0.026039	0.24142	0.10889	0.026596	0.2043	0.27261	-2.9167	-3.0104	-3.3542	-3.4729	-3.1708	-3.4188	-3.3292	-3.4708	-3.4667	-3.1396	-3.4833	-3.1937	-3.3208	-3.6562	-3.3417	-3.4521	-48.694	81.112	107.395	35.328	285.721	32.528	213.400	86.454	110.251	281.199	205.931	68.806	253.931	9.017	41.187	277.377	0.0002029	0.00040345	8.278e-05	829.86	3.1845e-06	5.05e-06	1023	224.3	2.4573e-06	3.2884e-06	345.54	98.154	57.43	13.927	5.0757e-06	33.515	0.0006194	0.00090598	0.00023829	790.52	8.9163e-06	1.0025e-05	972.92	214.44	8.5997e-06	9.8403e-06	330.1	94.941	55.216	13.473	8.8578e-06	32.577	300.593	25.772	52.274	-41.908	132.058	97.612	-42.122	-37.619	156.962	77.406	-38.446	-33.054	-33.474	-28.506	123.788	-28.976	-8191	255	
791.542	1	1	0	0	0.25778	0.070528	0.14851	0.16567	0.093819	0.13675	0.45886	0.14955	0.11122	0.05713	0.20524	0.35037	0.075328	0.28302	0.10765	0.14333	-3.1688	-3.2375	-3.5229	-3.2917	-3.0687	-3.6021	-3.2479	-3.3646	-3.5354	-3.4271	-3.6042	-3.6063	-3.3021	-3.4958	-3.2479	-3.4271	19.645	80.384	167.308	299.690	72.359	67.688	250.149	300.622	104.794	296.526	224.630	287.118	122.381	-21.038	162.952	265.170	0.00022826	0.00032848	0.00010182	812.4	5.1846e-06	4.4998e-06	1008.7	223.3	4.4294e-06	3.5266e-06	344.06	98.89	57.611	14.067	3.2678e-06	33.946	0.0006138	0.00086735	0.00024283	776.68	8.9241e-06	9.7402e-06	963.77	213.22	8.4565e-06	9.5435e-06	330.94	95.428	55.374	13.576	8.5582e-06	32.994	304.274	32.958	31.972	-41.741	76.609	81.674	-42.113	-37.391	186.154	87.774	-37.687	-33.508	-33.895	-28.515	105.751	-28.777	-8191	255	
791.638	1	1	0	0	0.15164	0.10141	0.10543	0.17947	0.079529	0.14749	0.11971	0.091744	0.087978	0.29551	0.17503	0.21699	0.16267	0.18353	0.060192	0.1887	-3.1333	-3.2438	-3.4625	-3.4104	-3.2833	-3.4792	-3.2938	-3.3042	-3.5792	-3.1625	-3.6	-3.5542	-3.2604	-3.5229	-3.4875	-3.45	179.976	261.765	69.721	269.175	-46.401	281.499	218.980	218.998	133.414	158.209	303.128	186.616	277.622	54.637	156.177	76.704	0.00023927	0.00067498	8.9056e-05	819.64	5.1759e-06	2.4441e-06	1006.2	222.37	2.3899e-06	2.5689e-06	343.89	98.924	56.974	13.867	1.1269e-06	34.085	0.00058567	0.00082607	0.00023756	779.09	8.1572e-06	9.3821e-06	964.92	212.61	8.0965e-06	9.212e-06	329.29	95.165	54.802	13.434	8.982e-06	32.968	300.481	24.571	36.911	-41.852	132.309	129.243	-42.073	-37.596	153.669	97.336	-38.041	-33.102	-33.484	-28.589	88.229	-28.638	-8191	255	
791.734	1	1	0	0	0.092266	0.071464	0.18319	0.14933	0.18036	0.10196	0.10724	0.20944	0.14569	0.21749	0.10263	0.23616	0.20248	0.15656	0.1748	0.10721	-3.1854	-3.2479	-3.4917	-3.5979	-3.2792	-3.5208	-3.5375	-3.2792	-3.6125	-3.3396	-3.5458	-3.4938	-3.3458	-3.5	-3.3417	-3.3854	195.243	206.292	280.468	-31.882	239.860	146.476	176.179	294.325	-22.770	237.059	-17.252	261.329	271.012	204.260	264.789	123.264	0.00024629	0.00037328	0.00011986	814.09	4.0858e-06	3.6644e-06	1007.8	219.45	4.0773e-06	4.117e-06	341.77	98.559	56.608	13.939	3.7704e-06	34.079	0.0005832	0.00083136	0.00025028	772.87	8.2436e-06	9.6232e-06	959.52	210.4	8.0952e-06	9.3246e-06	326.76	94.804	54.473	13.429	8.9841e-06	32.917	299.691	35.167	39.166	-41.907	104.522	94.025	-41.983	-37.616	147.445	107.449	-38.271	-33.408	-33.536	-28.752	95.789	-28.845	-8191	255	
791.830	1	1	0	0	0.047139	0.21758	0.18957	0.25652	0.20565	0.15655	0.27375	0.32992	0.060902	0.17815	0.17703	0.27618	0.18411	0.21329	0.22065	0.13444	-3.1312	-3.2146	-3.2854	-3.6167	-3.1583	-3.5687	-3.6146	-3.3958	-3.6125	-3.3063	-3.4417	-3.6167	-3.3708	-3.3875	-3.4229	-3.2896	212.409	124.992	165.431	-9.460	65.473	-38.468	186.715	239.899	303.079	242.259	-36.732	284.347	137.718	202.072	-21.437	249.958	0.00018794	0.00031046	0.00010708	800.97	3.4118e-06	4.316e-06	997.62	218.64	3.9232e-06	8.0324e-07	338.78	97.35	56.055	13.794	4.3738e-06	34.092	0.00056059	0.00083832	0.00024803	765.97	8.2874e-06	9.9232e-06	953.27	208.63	7.6059e-06	9.2734e-06	325.07	94.175	53.907	13.343	8.9196e-06	32.963	302.706	-19.200	42.391	-41.847	129.582	106.298	-42.253	-37.516	125.209	79.681	-38.489	-32.907	-33.398	-28.397	124.379	-28.880	-8191	255	
791.927	1	1	0	0	0.28608	0.079393	0.09613	0.11253	0.21451	0.14655	0.085379	0.075308	0.12903	0.20502	0.15462	0.064628	0.25323	0.34135	0.10614	0.1438	-3.0833	-3.5812	-3.2542	-3.6896	-3.05	-3.525	-3.5833	-3.1937	-3.6125	-3.2354	-3.1083	-3.5417	-3.2771	-3.2938	-3.4375	-3.0771	-2.213	58.594	86.018	275.955	66.379	145.445	211.976	146.768	40.878	128.820	85.159	4.147	186.791	215.798	296.512	219.573	0.00026519	0.00061508	0.0001304	795.49	4.671e-06	3.2624e-06	994.18	216.1	1.1344e-06	3.3738e-06	337.39	97.943	56.18	13.714	4.5403e-06	34.284	0.00055744	0.0008757	0.00025133	760.79	8.1611e-06	9.8476e-06	947.63	206.57	8.034e-06	9.9057e-06	322.81	94.548	53.993	13.329	8.6664e-06	33.102	303.480	40.469	39.041	-41.710	69.460	100.473	-42.342	-37.385	189.269	97.260	-38.080	-33.302	-33.854	-28.683	77.510	-28.751	-8191	255	
792.023	1	1	0	0	0.1067	0.20067	0.031069	0.030841	0.10424	0.26034	0.1581	0.083668	0.10774	0.050053	0.146	0.18026	0.20201	0.13165	0.19754	0.37062	-3.0604	-3.2875	-3.0729	-3.6333	-3.2625	-3.375	-3.6792	-3.2542	-3.5521	-3.4979	-3.1417	-3.5312	-3.1896	-3.2479	-3.6542	-3.1437	300.720	-13.575	110.380	115.843	176.448	-12.810	281.540	177.895	125.246	76.181	156.773	195.462	114.278	190.111	128.722	269.002	0.00016971	0.00064591	8.7608e-05	790.97	2.6253e-06	3.2378e-06	975.27	211.57	2.1975e-06	3.0761e-06	328.81	97.925	55.4	13.96	1.7775e-06	34.454	0.00058252	0.000886	0.00023798	753.57	8.415e-06	9.6582e-06	932.76	203.17	8.1255e-06	9.4639e-06	316.91	94.063	53.388	13.44	8.1871e-06	33.378	284.449	55.088	86.330	-41.963	158.784	100.169	-42.091	-37.820	99.769	115.520	-38.009	-33.218	-33.490	-28.601	124.390	-28.848	-8191	255	
792.142	1	1	0	0	0.061944	0.082348	0.17467	0.24008	0.17805	0.21528	0.3173	0.17212	0.097419	0.10203	0.19674	0.067072	0.16186	0.093196	0.10868	0.16168	-3.0771	-3.5104	-3.0438	-3.8542	-3.2229	-3.3854	-3.7083	-3.2208	-3.4333	-3.3563	-3.1875	-3.5938	-3.2146	-3.2167	-3.4562	-3.225	203.077	165.630	25.729	281.364	159.035	63.937	205.306	238.112	21.189	80.015	87.502	21.850	277.017	257.552	-46.324	116.631	0.00022242	0.00028311	3.6782e-05	779.73	2.4728e-06	3.8426e-06	967.03	211.01	5.3302e-06	3.8729e-06	330.88	97.826	55.477	13.97	5.8393e-06	34.749	0.00058728	0.00083693	0.00022896	745.29	8.4471e-06	9.9264e-06	924.81	202.4	8.2604e-06	9.4718e-06	317.15	94.494	53.569	13.463	8.459e-06	33.702	298.304	46.355	-2.425	-42.085	112.535	118.498	-42.151	-37.831	215.560	54.565	-38.294	-33.445	-33.405	-28.768	118.670	-28.905	-8191	255	
792.238	1	1	0	0	0.11706	0.19924	0.2373	0.14557	0.1177	0.056139	0.16979	0.14349	0.14281	0.21918	0.18017	0.14422	0.16833	0.062452	0.19885	0.1686	-2.8625	-3.3208	-3.2021	-3.5333	-3.3875	-3.1458	-3.6625	-3.1125	-3.3583	-3.4979	-3.0375	-3.4604	-3.3396	-3.2812	-3.5458	-3.25	10.505	124.795	134.205	255.276	131.076	129.992	83.617	-42.405	57.948	286.687	262.297	222.508	255.717	-17.570	128.798	195.454	0.0002286	0.00025823	0.00011051	781.66	2.2151e-06	4.3338e-06	971.11	210.86	1.6165e-06	2.823e-06	328.53	97.842	55.106	13.943	2.8931e-06	34.763	0.00059469	0.00085001	0.00023224	744.16	8.4922e-06	9.8086e-06	925.86	201.86	8.5606e-06	1.0184e-05	315.97	94.333	53.235	13.478	8.8564e-06	33.74	-48.759	9.858	49.979	-42.020	125.522	71.187	-42.340	-37.522	80.555	121.502	-37.972	-33.085	-33.624	-28.658	101.331	-28.643	-8191	255	
792.334	1	1	0	0	0.1895	0.036878	0.082179	0.21834	0.14177	0.11632	0.076458	0.23858	0.017721	0.19981	0.22383	0.053616	0.036239	0.10933	0.15147	0.080162	-2.8833	-3.4854	-3.3292	-3.3937	-3.4062	-3.1333	-3.6479	-3.1771	-3.3021	-3.5	-3.3396	-3.4271	-3.2687	-3.1958	-3.6479	-3.3979	-17.112	143.663	73.526	261.565	244.333	199.825	271.133	271.651	283.584	260.320	244.708	-16.255	185.138	26.319	180.192	-21.531	0.00021758	0.00041535	8.0599e-05	771.09	6.732e-06	2.8092e-06	962.92	209.34	7.4479e-07	3.0964e-06	326.58	96.383	54.541	13.698	5.4564e-06	34.693	0.00061	0.00088273	0.00023563	737.79	8.9169e-06	9.5158e-06	919.74	200.23	8.8702e-06	9.982e-06	313.05	93.195	52.518	13.353	8.8474e-06	33.545	-53.001	28.836	42.173	-42.116	119.833	119.425	-42.142	-37.635	143.922	60.411	-38.176	-33.251	-33.295	-28.464	95.405	-28.797	-8191	255	
792.430	1	1	0	0	0.050879	0.29868	0.087752	0.27712	0.18964	0.23145	0.18889	0.32236	0.18654	0.028658	0.10611	0.081576	0.27786	0.17988	0.16906	0.24589	-3.0208	-3.4021	-3.15	-3.5167	-3.4917	-3.2229	-3.6792	-3.4625	-3.1521	-3.5687	-3.2292	-3.5375	-3.5708	-3.2438	-3.5146	-3.5229	149.410	35.536	29.957	271.039	165.306	222.350	250.204	300.621	94.250	220.865	253.509	250.208	289.925	54.101	-35.415	-48.163	0.00022637	0.00046966	0.00012179	764.19	3.4894e-06	2.3929e-06	954.8	205.33	4.4662e-06	3.1701e-06	321.39	94.881	53.544	13.477	4.7529e-06	34.374	0.00062283	0.00091071	0.00025345	730.66	9.1342e-06	9.9311e-06	911.49	196.72	9.0196e-06	1.0169e-05	308.76	91.497	51.555	13.082	9.9482e-06	33.269	303.316	26.850	25.503	-41.885	50.800	93.644	-42.044	-37.277	186.539	96.682	-38.114	-33.193	-32.879	-28.861	91.161	-28.877	-8191	255	
#DATA ENDS
