BOXY.EXE: ISS Imagent and Oximeter Data Acquisition Program Version 0.80
Ascii Record File

#ACQ INFORMATION
2  Detector Channels 
16  External MUX Channels 
1  Auxiliary Channels 
5000  Waveform (CCF) Frequency (Hz)
1  Waveforms Skipped 
30  Waveforms Averaged 
1  Cycles Averaged 
16  Acquisitions per Waveform 
10.0806  Updata Rate (Hz) 

#FILE INFORMATION
TRUE -- External MUX Channel results are PARSED.
FALSE -- AC DC and Phase are NOT grouped.
TRUE -- Companion Program Settings File CREATED.
FALSE -- AC data not excluded
FALSE -- DC data not excluded
FALSE -- Phase data not excluded
FALSE -- Auxillary Chn. data not excluded
Tab delimiters

#CALIBRATION STATE
TRUE -- Waveform Calibration Values APPLIED.


#AUX CALIBRATION VALUES
Val Type	aux-1	

Term	1.0000e+00	
Factor	0.0000e+00	


#WF CALIBRATION VALUES
A = Detector Channel
Val Type	A-AC1	A-AC2	A-AC3	A-AC4	A-AC5	A-AC6	A-AC7	A-AC8	A-AC9	A-AC10	A-AC11	A-AC12	A-AC13	A-AC14	A-AC15	A-AC16	A-DC1	A-DC2	A-DC3	A-DC4	A-DC5	A-DC6	A-DC7	A-DC8	A-DC9	A-DC10	A-DC11	A-DC12	A-DC13	A-DC14	A-DC15	A-DC16	A-Ph1	A-Ph2	A-Ph3	A-Ph4	A-Ph5	A-Ph6	A-Ph7	A-Ph8	A-Ph9	A-Ph10	A-Ph11	A-Ph12	A-Ph13	A-Ph14	A-Ph15	A-Ph16	

Term	0.00000e+00	0.00000e+00	0.00000e+00	0.00000e+00	0.00000e+00	0.00000e+00	0.00000e+00	0.00000e+00	0.00000e+00	0.00000e+00	0.00000e+00	0.00000e+00	0.00000e+00	0.00000e+00	0.00000e+00	0.00000e+00	0.00000e+00	0.00000e+00	0.00000e+00	0.00000e+00	0.00000e+00	0.00000e+00	0.00000e+00	0.00000e+00	0.00000e+00	0.00000e+00	0.00000e+00	0.00000e+00	0.00000e+00	0.00000e+00	0.00000e+00	0.00000e+00	0.00000e+00	0.00000e+00	0.00000e+00	0.00000e+00	0.00000e+00	0.00000e+00	0.00000e+00	0.00000e+00	0.00000e+00	0.00000e+00	0.00000e+00	0.00000e+00	0.00000e+00	0.00000e+00	0.00000e+00	0.00000e+00	
Factor	1.00000e+00	1.00000e+00	1.00000e+00	1.00000e+00	1.00000e+00	1.00000e+00	1.00000e+00	1.00000e+00	1.00000e+00	1.00000e+00	1.00000e+00	1.00000e+00	1.00000e+00	1.00000e+00	1.00000e+00	1.00000e+00	1.00000e+00	1.00000e+00	1.00000e+00	1.00000e+00	1.00000e+00	1.00000e+00	1.00000e+00	1.00000e+00	1.00000e+00	1.00000e+00	1.00000e+00	1.00000e+00	1.00000e+00	1.00000e+00	1.00000e+00	1.00000e+00	X	X	X	X	X	X	X	X	X	X	X	X	X	X	X	X	

B = Detector Channel
Val Type	B-AC1	B-AC2	B-AC3	B-AC4	B-AC5	B-AC6	B-AC7	B-AC8	B-AC9	B-AC10	B-AC11	B-AC12	B-AC13	B-AC14	B-AC15	B-AC16	B-DC1	B-DC2	B-DC3	B-DC4	B-DC5	B-DC6	B-DC7	B-DC8	B-DC9	B-DC10	B-DC11	B-DC12	B-DC13	B-DC14	B-DC15	B-DC16	B-Ph1	B-Ph2	B-Ph3	B-Ph4	B-Ph5	B-Ph6	B-Ph7	B-Ph8	B-Ph9	B-Ph10	B-Ph11	B-Ph12	B-Ph13	B-Ph14	B-Ph15	B-Ph16	

Term	0.00000e+00	0.00000e+00	0.00000e+00	0.00000e+00	0.00000e+00	0.00000e+00	0.00000e+00	0.00000e+00	0.00000e+00	0.00000e+00	0.00000e+00	0.00000e+00	0.00000e+00	0.00000e+00	0.00000e+00	0.00000e+00	0.00000e+00	0.00000e+00	0.00000e+00	0.00000e+00	0.00000e+00	0.00000e+00	0.00000e+00	0.00000e+00	0.00000e+00	0.00000e+00	0.00000e+00	0.00000e+00	0.00000e+00	0.00000e+00	0.00000e+00	0.00000e+00	2.75725e+01	-1.31108e+02	-1.23548e+02	-1.82912e+02	-5.41566e+01	-6.84967e+01	-1.56913e+02	-1.62015e+02	-1.69110e+01	-6.90769e+01	-1.71915e+02	-1.70337e+02	-1.80602e+02	-1.76910e+02	-5.41290e+01	-1.49881e+02	
Factor	3.81789e-05	1.74656e-04	4.40913e-05	1.54476e-01	2.40339e-06	1.68123e-06	1.67599e-01	4.70291e-02	2.64378e-06	1.71266e-06	1.45221e-01	2.55112e-02	2.28348e-02	7.80503e-03	2.52045e-06	1.14423e-02	1.64678e-05	3.34103e-05	9.38836e-06	7.76069e-02	3.14091e-07	3.81937e-07	7.88202e-02	2.36533e-02	3.02672e-07	3.77959e-07	7.06724e-02	1.24816e-02	1.15660e-02	3.96858e-03	3.32949e-07	5.62954e-03	X	X	X	X	X	X	X	X	X	X	X	X	X	X	X	X	



#DISTANCE SETTINGS
A = Detector Channel
A-1	A-2	A-3	A-4	A-5	A-6	A-7	A-8	A-9	A-10	A-11	A-12	A-13	A-14	A-15	A-16	

2.5000e+00	3.0000e+00	2.5000e+00	3.0000e+00	2.0000e+00	3.0000e+00	1.5000e+00	3.0000e+00	3.0000e+00	3.0000e+00	3.0000e+00	3.0000e+00	3.0000e+00	3.0000e+00	1.5000e+00	3.0000e+00	

B = Detector Channel
B-1	B-2	B-3	B-4	B-5	B-6	B-7	B-8	B-9	B-10	B-11	B-12	B-13	B-14	B-15	B-16	

1.0000e+01	1.0000e+01	1.0000e+01	1.4400e+00	1.0000e+01	1.0000e+01	1.5100e+00	1.9400e+00	1.0000e+01	1.0000e+01	1.9900e+00	2.4900e+00	2.4100e+00	2.9000e+00	1.0000e+01	2.9800e+00	




#DATA BEGINS
time	group	step	mark	flag	A-AC1	A-AC2	A-AC3	A-AC4	A-AC5	A-AC6	A-AC7	A-AC8	A-AC9	A-AC10	A-AC11	A-AC12	A-AC13	A-AC14	A-AC15	A-AC16	A-DC1	A-DC2	A-DC3	A-DC4	A-DC5	A-DC6	A-DC7	A-DC8	A-DC9	A-DC10	A-DC11	A-DC12	A-DC13	A-DC14	A-DC15	A-DC16	A-Ph1	A-Ph2	A-Ph3	A-Ph4	A-Ph5	A-Ph6	A-Ph7	A-Ph8	A-Ph9	A-Ph10	A-Ph11	A-Ph12	A-Ph13	A-Ph14	A-Ph15	A-Ph16	B-AC1	B-AC2	B-AC3	B-AC4	B-AC5	B-AC6	B-AC7	B-AC8	B-AC9	B-AC10	B-AC11	B-AC12	B-AC13	B-AC14	B-AC15	B-AC16	B-DC1	B-DC2	B-DC3	B-DC4	B-DC5	B-DC6	B-DC7	B-DC8	B-DC9	B-DC10	B-DC11	B-DC12	B-DC13	B-DC14	B-DC15	B-DC16	B-Ph1	B-Ph2	B-Ph3	B-Ph4	B-Ph5	B-Ph6	B-Ph7	B-Ph8	B-Ph9	B-Ph10	B-Ph11	B-Ph12	B-Ph13	B-Ph14	B-Ph15	B-Ph16	aux-1	digaux	

720.013	1	1	0	768	0.13151	0.054192	0.22323	0.17147	0.24688	0.23839	0.27544	0.099747	0.12761	0.22222	0.043052	0.28276	0.24279	0.30134	0.17367	0.25255	-2.8521	-3.3521	-3.3375	-3.3521	-3.4896	-3.2583	-3.4354	-3.7062	-3.0896	-3.5542	-3.3479	-3.3563	-3.5521	-3.3146	-3.2792	-3.6792	-58.382	187.379	-43.883	-55.313	261.358	-20.200	217.663	208.807	116.335	-5.908	273.333	-68.107	173.861	251.991	251.917	216.638	0.00027137	0.0005833	0.0001037	596.2	4.4367e-06	3.358e-06	798.76	174.28	2.0194e-06	2.5274e-06	298.94	102.76	50.685	16.327	2.3813e-06	41.3	0.00035413	0.00035317	0.00010094	572.61	3.4589e-06	3.8584e-06	763.45	166.87	3.4542e-06	3.9473e-06	288.22	99.271	48.848	15.963	3.6291e-06	40.195	-38.212	17.553	46.423	-62.419	127.567	76.854	-62.699	-57.281	145.723	103.465	-57.666	-52.918	-53.092	-47.525	81.738	-48.767	-8191	255	
720.108	1	1	0	0	0.16848	0.12971	0.11795	0.17517	0.34485	0.28761	0.16015	0.19664	0.087014	0.10178	0.11714	0.15998	0.064845	0.12269	0.34514	0.20576	-2.8	-3.4083	-3.5146	-3.3146	-3.3896	-3.3875	-3.3438	-3.4521	-2.9938	-3.5583	-3.6042	-3.3542	-3.6146	-3.4333	-3.2125	-3.5771	147.215	-11.104	172.379	216.020	-58.577	-3.810	86.688	-16.285	112.753	-19.720	171.107	216.281	190.286	213.896	95.073	-70.238	0.00033142	0.00036632	5.5603e-05	593.4	3.8101e-06	1.5346e-06	794.15	173.43	4.4727e-06	2.2423e-06	299.8	102.64	50.399	16.378	6.3619e-06	41.242	0.00035519	0.00035707	9.8245e-05	570.31	3.561e-06	3.9912e-06	759.46	166.38	3.7412e-06	3.9678e-06	288.81	99.138	48.753	15.906	3.9704e-06	40.104	-36.753	14.941	37.855	-62.361	91.340	117.710	-62.422	-57.480	149.295	94.382	-57.925	-52.986	-52.970	-47.760	121.074	-48.689	-8191	255	
720.204	1	1	0	0	0.15208	0.16178	0.25499	0.1174	0.24967	0.14328	0.12404	0.2063	0.01073	0.071725	0.11561	0.30839	0.06063	0.1693	0.15983	0.16309	-2.7542	-3.1562	-3.5917	-3.4021	-3.5292	-3.3438	-3.2208	-3.6396	-3.3146	-3.225	-3.4854	-3.2292	-3.5625	-3.3604	-3.2875	-3.6833	237.685	-48.840	48.770	111.984	187.217	182.997	248.165	193.921	108.755	-44.278	219.711	-26.194	-20.731	278.244	5.510	228.464	0.0003552	0.00036657	0.00013757	600.7	4.6075e-06	2.6268e-06	790.5	173.4	1.5747e-06	4.7872e-06	299.94	103.25	50.718	16.432	3.9885e-06	41.082	0.00037855	0.00040037	0.00010873	571.16	3.7305e-06	4.2005e-06	756.52	166.16	4.0432e-06	4.3843e-06	289.15	100.01	48.93	15.921	3.754e-06	40.06	-29.794	16.122	4.180	-62.411	55.097	102.916	-62.502	-57.501	106.465	83.868	-57.994	-52.980	-52.821	-47.793	100.364	-48.271	-8191	255	
720.300	1	1	0	0	0.12213	0.15998	0.047416	0.30415	0.20998	0.13115	0.035494	0.12233	0.10345	0.05817	0.22703	0.068486	0.011716	0.25112	0.08643	0.11682	-2.8458	-3.2125	-3.5104	-3.2042	-3.3896	-3.3292	-3.3979	-3.7083	-3.2042	-3.2375	-3.775	-3.35	-3.4729	-3.4375	-3.1688	-3.6458	115.299	4.907	193.754	-58.919	279.602	-5.204	11.624	244.300	38.052	133.621	-58.823	-21.191	216.288	-11.814	18.680	224.247	0.0002526	0.00044256	9.3552e-05	592.7	5.4471e-06	3.6729e-06	788.84	173.85	3.2068e-06	4.3992e-06	300.26	102.96	50.859	16.668	2.7615e-06	41.584	0.00038782	0.00040252	9.5683e-05	569.81	4.0295e-06	4.2268e-06	754.21	166.96	4.0791e-06	4.515e-06	288.78	99.407	49.072	16.078	3.8622e-06	40.353	-39.380	-1.925	9.694	-62.590	95.581	55.346	-62.565	-57.258	163.692	83.255	-57.839	-52.968	-53.346	-47.324	100.405	-48.301	-8191	255	
720.396	1	1	0	0	0.23202	0.27828	0.24371	0.27619	0.31832	0.23987	0.19938	0.10505	0.12762	0.067341	0.1118	0.1735	0.44939	0.15568	0.23849	0.078106	-2.8708	-3.1917	-3.4896	-3.2333	-3.2188	-3.3271	-3.1729	-3.4875	-3.4062	-3.1437	-3.5646	-3.2729	-3.4917	-3.3229	-3.1437	-3.4667	142.768	155.349	34.177	-73.010	-46.891	31.381	159.859	223.826	172.677	239.658	146.294	250.772	195.907	96.281	-14.943	-56.101	0.00032278	0.00041284	6.7141e-05	590.31	1.9451e-06	2.1675e-06	784.27	172.7	2.3345e-06	4.0132e-06	298.04	104.25	51.446	16.759	3.1607e-06	42.757	0.0003979	0.00041853	0.00010671	565.21	4.1957e-06	4.6175e-06	749.25	166.12	4.4827e-06	4.6119e-06	287.5	100.35	49.545	16.289	4.2409e-06	41.152	-38.754	0.785	48.122	-62.568	106.096	67.456	-62.542	-56.905	121.081	56.971	-57.613	-52.774	-52.842	-47.758	112.477	-48.734	-8191	255	
720.492	1	1	0	0	0.10816	0.1612	0.13216	0.24269	0.22286	0.21769	0.23988	0.11935	0.14402	0.15404	0.15189	0.14412	0.10892	0.18683	0.10641	0.33378	-2.9167	-3.2938	-3.6646	-3.5312	-3.2875	-3.4313	-3.1792	-3.4083	-3.3604	-3.1333	-3.5042	-3.3604	-3.4521	-3.5729	-3.1125	-3.4146	143.220	233.358	17.321	194.268	26.535	60.488	230.820	273.323	263.555	256.590	-44.862	-60.782	244.782	177.199	87.229	202.556	0.0003433	0.00044598	0.00010028	586.59	3.9953e-06	5.0193e-06	781.26	172.19	3.3048e-06	3.5259e-06	301.63	106.78	51.99	17.094	5.2663e-06	42.911	0.00042751	0.00046538	0.00011892	559.76	4.449e-06	4.7082e-06	745.14	165.22	4.4196e-06	4.4205e-06	290.27	102.79	49.991	16.463	4.3256e-06	41.673	-39.413	20.636	29.656	-62.342	117.240	67.738	-62.063	-56.717	105.312	58.783	-57.698	-52.317	-52.719	-47.711	88.390	-48.210	-8191	255	
720.613	1	1	0	0	0.17567	0.1883	0.18257	0.17518	0.12738	0.21502	0.14599	0.20248	0.16327	0.027316	0.17245	0.1084	0.10985	0.055197	0.18612	0.079664	-3.0812	-3.0375	-3.5375	-3.2896	-3.2104	-3.5083	-3.4333	-3.4729	-3.4667	-3.1646	-3.575	-3.4208	-3.3104	-3.5167	-3.2729	-3.3729	-53.180	104.881	86.217	-51.491	59.785	265.882	196.803	215.308	196.971	163.116	111.913	251.357	280.557	210.863	251.992	224.748	0.00029077	0.00040031	8.3273e-05	587.27	2.5271e-06	3.4678e-06	782.18	173.25	3.096e-06	2.3461e-06	301.73	105.47	51.63	16.751	4.1351e-06	42.819	0.0004035	0.00041429	0.00010746	559.86	4.3606e-06	4.4321e-06	748.54	165.93	4.1807e-06	4.4229e-06	289.63	101.76	49.692	16.251	4.2673e-06	41.415	-36.220	-5.019	22.030	-62.090	59.213	73.685	-62.493	-57.018	71.775	102.087	-57.554	-52.650	-52.679	-47.329	76.526	-48.527	-8191	255	
720.709	1	1	0	0	0.035054	0.081817	0.067029	0.11554	0.2544	0.24626	0.12431	0.1538	0.26806	0.30278	0.30534	0.26479	0.1658	0.11474	0.22284	0.28965	-3.175	-3.0771	-3.3375	-3.2687	-3.1813	-3.4313	-3.3604	-3.2083	-3.3771	-3.1312	-3.475	-3.4083	-3.1625	-3.4729	-3.2667	-3.4437	64.110	-62.438	147.196	142.567	166.164	129.410	229.674	158.694	-1.903	44.566	-32.772	65.671	-16.251	80.276	167.026	269.049	0.00028781	0.00027001	0.00010447	588.04	3.6638e-06	2.0367e-06	784.33	172.76	5.8375e-06	3.9711e-06	299.27	104.53	50.952	16.706	1.584e-06	42.761	0.0003977	0.00040058	0.00012142	561.22	4.2592e-06	4.5053e-06	749.07	165.13	4.0066e-06	4.5898e-06	286.74	101.38	49.294	16.231	4.3609e-06	41.28	-35.897	26.728	35.190	-62.217	70.953	90.895	-62.278	-57.070	134.572	61.511	-57.550	-52.911	-53.086	-47.296	101.218	-48.564	-8191	255	
720.805	1	1	0	0	0.15442	0.081474	0.18768	0.17635	0.21025	0.22726	0.1369	0.38847	0.011662	0.14082	0.20958	0.16061	0.22007	0.11695	0.11648	0.08066	-3.0979	-2.9396	-3.3354	-3.4125	-3.2583	-3.3375	-3.2979	-3.1354	-3.4646	-3.0917	-3.4083	-3.5083	-3.1479	-3.4188	-3.1646	-3.0958	241.024	264.983	28.548	261.345	275.035	160.700	243.847	216.578	160.409	-57.718	266.002	-72.843	138.934	276.841	167.732	-56.298	0.00027892	0.00038735	7.871e-05	583.26	5.6419e-06	3.7142e-06	776.36	168.55	3.9964e-06	3.0177e-06	297.65	105.54	50.891	16.963	3.7111e-06	43.193	0.00039619	0.00040329	0.00012811	555.16	4.129e-06	4.7018e-06	740.4	162.14	4.0754e-06	4.7599e-06	284.66	102	49.267	16.393	4.6134e-06	41.783	-35.940	3.245	37.065	-62.206	80.413	68.969	-62.228	-57.175	116.331	73.507	-57.602	-52.750	-53.057	-47.449	99.029	-48.835	-8191	255	
720.901	1	1	0	0	0.11984	0.090994	0.061677	0.09097	0.11922	0.13099	0.17461	0.18231	0.036466	0.069229	0.20166	0.095596	0.16432	0.30218	0.075593	0.21308	-3.0958	-3.1437	-3.4771	-3.4229	-3.0542	-3.5833	-3.4938	-3.1792	-3.4062	-3.3042	-3.525	-3.5333	-3.1417	-3.5729	-3.2083	-3.3146	216.695	134.208	154.375	185.453	12.318	62.576	-58.256	-46.685	-62.066	153.836	-61.971	186.287	6.000	278.127	229.337	211.569	0.00030655	0.00045891	7.7064e-05	576.74	2.4688e-06	3.2992e-06	768.7	168.34	2.298e-06	2.7325e-06	297.5	106.08	51.248	16.937	4.3655e-06	43.164	0.00040669	0.00042591	0.00012956	550.55	4.1296e-06	4.888e-06	737.87	161.43	3.9202e-06	4.6709e-06	285.43	102.67	49.473	16.472	4.7341e-06	41.879	-31.298	12.579	26.594	-62.144	104.427	98.759	-62.132	-57.229	141.873	84.505	-57.385	-53.000	-52.476	-47.546	64.713	-48.734	-8191	255	
720.997	1	1	0	0	0.015488	0.24908	0.058928	0.1793	0.22224	0.074602	0.15105	0.22042	0.46838	0.20212	0.087001	0.13808	0.17906	0.028761	0.14115	0.13105	-2.9979	-3.1958	-3.3604	-3.6542	-3.1896	-3.3375	-3.5563	-3.1104	-3.575	-3.1063	-3.3604	-3.5042	-3.1708	-3.4813	-3.2354	-3.1979	185.639	172.274	283.405	180.953	146.968	-31.694	-68.921	39.135	70.739	-26.482	-29.548	241.693	185.128	164.610	92.516	265.078	0.00032116	0.0002516	7.4305e-05	575.11	2.074e-06	2.2366e-06	774.3	168.78	4.3452e-06	5.7549e-06	300.8	107.29	51.693	17.025	2.4039e-06	43.561	0.00040374	0.00043858	0.00012692	550.07	4.1905e-06	4.8737e-06	738.28	161.62	4.0987e-06	4.9064e-06	287.06	103.45	49.825	16.501	4.4678e-06	42.19	-32.146	3.512	7.988	-62.160	163.407	50.347	-62.422	-56.927	140.174	71.497	-56.861	-52.712	-52.860	-47.882	118.506	-48.727	-8191	255	
721.092	1	1	0	0	0.1998	0.15241	0.075939	0.23493	0.28487	0.10027	0.19216	0.10931	0.072236	0.27927	0.15741	0.12251	0.19829	0.084803	0.12657	0.18403	-3.1417	-3.4646	-3.1562	-3.3896	-3.1688	-3.3708	-3.5542	-3.2875	-3.4354	-3.3229	-3.35	-3.4333	-3.3	-3.3396	-3.4417	-3.1208	192.099	237.276	-12.040	268.564	-8.775	163.697	251.735	4.145	219.747	97.054	253.981	207.998	209.923	-50.004	258.555	58.058	0.00030146	0.00034733	0.00011755	575.3	4.7088e-06	3.2316e-06	777.12	170.05	2.3991e-06	1.6482e-06	303.59	108.9	51.996	17.223	4.3744e-06	44.171	0.0004023	0.00042563	0.00012533	548.55	4.3456e-06	5.1235e-06	739.79	162.67	4.2815e-06	4.9316e-06	291.2	104.83	50.267	16.654	4.354e-06	42.704	-36.836	33.207	23.324	-61.837	105.250	87.844	-62.181	-57.045	142.031	72.956	-57.282	-52.768	-52.989	-48.008	78.069	-48.370	-8191	255	
721.188	1	1	0	0	0.072799	0.20905	0.19654	0.020458	0.17077	0.32141	0.36601	0.31048	0.24153	0.21817	0.13777	0.22534	0.22307	0.1787	0.1158	0.32097	-3.0479	-3.0979	-3.2646	-3.4542	-3.1583	-3.4229	-3.525	-3.1458	-3.4	-2.9958	-3.1854	-3.5729	-3.1958	-3.2812	-3.3937	-3.3	-59.964	199.099	261.428	132.469	53.051	-24.276	250.260	276.728	219.393	-14.000	252.776	221.628	229.834	251.137	209.534	247.490	0.00036011	0.0003965	0.00011234	570.15	4.1376e-06	3.217e-06	766.71	168.68	3.7965e-06	3.683e-06	300.62	108.72	52.379	17.247	3.7215e-06	44.011	0.0004105	0.00042577	0.00011542	543.01	4.0976e-06	5.0026e-06	735.28	161.82	4.402e-06	4.9536e-06	289.44	104.92	50.419	16.686	3.985e-06	42.769	-33.405	23.550	0.559	-62.123	123.483	92.752	-62.286	-57.164	125.730	87.592	-57.689	-52.979	-52.577	-47.793	89.503	-48.258	-8191	255	
721.309	1	1	0	0	0.090561	0.11637	0.23232	0.33375	0.043216	0.2699	0.22636	0.40903	0.23207	0.15624	0.1685	0.13511	0.15852	0.14925	0.051524	0.23997	-3.0812	-3.3438	-3.1958	-3.525	-3.2042	-3.3792	-3.4292	-3.1937	-3.375	-3.3187	-3.1854	-3.6375	-3.375	-3.225	-3.5521	-3.3833	-3.299	136.415	26.249	237.084	266.412	217.497	255.508	231.746	243.632	147.873	59.514	41.286	-33.041	133.380	-33.505	161.948	0.0003026	0.00042956	8.9964e-05	568	3.9317e-06	4.5359e-06	766.21	169.1	1.4761e-06	3.5618e-06	303.64	109.6	52.169	17.423	5.2732e-06	44.88	0.00044696	0.00042981	0.00011557	540.99	4.7899e-06	5.0694e-06	730.88	161.93	4.583e-06	4.7741e-06	291.51	105.97	50.603	16.878	4.243e-06	43.424	-39.607	21.742	30.977	-62.044	107.916	77.863	-62.468	-57.068	126.553	74.642	-57.438	-52.799	-52.925	-47.835	77.523	-48.536	-8191	255	
721.405	1	1	0	0	0.19294	0.2146	0.22087	0.012066	0.064121	0.07868	0.25725	0.093775	0.24414	0.062547	0.28103	0.24506	0.13878	0.062173	0.30912	0.28836	-3.0521	-3.3104	-3.1854	-3.6542	-3.1792	-3.2604	-3.5396	-3.2854	-3.3479	-3.425	-3.1479	-3.6667	-3.275	-3.1667	-3.6208	-3.3563	52.132	-25.281	139.917	168.440	-5.894	145.844	188.924	145.848	205.533	58.252	-53.177	197.886	43.064	227.239	61.204	241.873	0.00033653	0.00021561	6.246e-05	567.34	6.0414e-06	3.7679e-06	770.98	170.18	3.2415e-06	2.3662e-06	309	112.31	53.611	17.911	5.3569e-06	45.851	0.00043389	0.00043726	0.00011626	539.26	4.5733e-06	4.8936e-06	734.72	163.01	4.5218e-06	4.6607e-06	295.58	108.55	51.806	17.304	4.4275e-06	44.454	-38.018	3.080	-3.013	-62.086	101.840	75.012	-62.167	-56.900	100.026	79.805	-57.587	-52.841	-52.622	-47.917	86.302	-48.721	-8191	255	
721.501	1	1	0	0	0.35533	0.27375	0.10829	0.18117	0.1927	0.13493	0.26618	0.070076	0.077083	0.11091	0.096208	0.12167	0.16472	0.021312	0.26743	0.056055	-2.8354	-3.3229	-3.0979	-3.6229	-3.2938	-3.1437	-3.6708	-3.4	-3.3292	-3.5333	-3.15	-3.4437	-3.2292	-3.3229	-3.4854	-3.4354	-19.960	243.139	185.714	279.591	123.361	-31.786	213.949	62.414	100.376	73.580	26.029	-70.863	-21.332	16.839	245.168	36.706	0.00031377	0.00045198	7.8108e-05	563.4	4.4322e-06	2.719e-06	776.46	172.1	4.7662e-06	2.7854e-06	309.53	114.65	54.435	18.015	4.2555e-06	47.16	0.00044494	0.00040872	0.00011164	537.44	4.396e-06	4.5283e-06	738.82	164.51	4.5754e-06	4.6221e-06	298.43	110.32	52.388	17.548	4.7071e-06	45.304	-26.000	2.591	23.573	-62.114	97.141	76.527	-62.317	-57.074	106.520	36.961	-57.406	-52.888	-53.211	-47.736	91.012	-48.462	-8191	255	
721.573	1	1	0	0	0.17169	0.12305	0.21473	0.15482	0.19972	0.11431	0.093572	0.16178	0.17507	0.039492	0.1517	0.09128	0.10506	0.13083	0.097541	0.15335	-2.8854	-3.6208	-3.1958	-3.4313	-3.4875	-3.2646	-3.7396	-3.0979	-3.1979	-3.5604	-3.3229	-3.3292	-3.2917	-3.2354	-3.5208	-3.3563	270.860	265.277	250.536	76.271	204.761	177.821	165.525	221.071	-2.790	92.384	-32.452	35.162	139.443	156.736	-7.188	241.305	0.00035822	0.00021906	0.00012493	562.43	4.1418e-06	4.3624e-06	772.28	170.93	3.2025e-06	3.08e-06	310.99	116.22	54.91	18.662	5.498e-06	47.981	0.00043561	0.00041603	0.0001278	536.87	4.4856e-06	4.7034e-06	735.91	163.69	4.658e-06	4.8056e-06	299.49	111.89	53.105	18.093	5.3258e-06	46.421	-38.411	17.859	30.600	-62.170	73.624	78.350	-61.955	-57.374	151.713	54.077	-57.583	-52.889	-52.751	-47.625	93.587	-48.934	-8191	255	
721.693	1	1	0	0	0.31817	0.26987	0.12902	0.21641	0.087885	0.18871	0.3658	0.10378	0.058525	0.12254	0.24327	0.22274	0.056827	0.080504	0.22103	0.17328	-2.8042	-3.375	-3.0667	-3.3187	-3.3375	-3.1292	-3.4708	-3.275	-3.1083	-3.7	-3.2604	-3.4125	-3.3604	-2.9813	-3.4125	-3.1792	106.257	65.995	135.598	192.031	178.327	-21.557	203.178	65.073	-57.653	191.676	-45.119	164.035	-22.087	173.578	-6.104	270.949	0.00036625	0.00034804	0.0001194	556.92	2.5249e-06	4.3125e-06	767.48	172.3	5.1175e-06	4.3016e-06	316.56	118.64	56.298	19.292	6.4473e-06	48.879	0.00045194	0.00045522	0.00013836	530.87	4.7814e-06	5.1012e-06	734.69	164.81	4.4474e-06	5.308e-06	302.42	114.62	54.239	18.675	5.3091e-06	47.461	-38.774	0.083	10.091	-62.204	73.551	75.231	-62.386	-56.708	106.505	86.771	-57.136	-52.923	-52.892	-47.739	86.628	-49.197	-8191	255	
721.789	1	1	0	0	0.17034	0.084762	0.1388	0.066425	0.11113	0.23594	0.11753	0.099276	0.065741	0.21264	0.17185	0.12912	0.27319	0.15727	0.16692	0.22525	-2.6708	-3.5938	-3.2667	-3.3833	-3.3438	-3.1646	-3.4062	-3.4333	-3.1125	-3.5021	-3.2083	-3.3604	-3.5792	-3.325	-3.3958	-3.4313	-7.259	102.045	32.709	62.645	50.401	175.329	-56.051	269.977	210.281	157.431	139.778	16.904	274.481	120.546	275.276	221.159	0.00035873	0.0004098	7.5312e-05	558.99	5.0471e-06	3.8062e-06	770.59	172.65	5.4385e-06	4.239e-06	317.57	120.12	57.303	19.625	3.1931e-06	49.734	0.00046652	0.00048939	0.0001382	532.76	4.5497e-06	5.8516e-06	737.66	165.71	4.786e-06	5.6765e-06	305.22	116.18	55.146	18.947	5.5152e-06	48.186	-28.595	22.621	28.655	-62.351	98.586	77.814	-62.157	-56.792	155.615	88.895	-57.484	-52.678	-52.925	-47.676	87.767	-48.978	-8191	255	
721.885	1	1	0	0	0.23692	0.15131	0.11063	0.29539	0.00404	0.07056	0.097917	0.2773	0.18429	0.067374	0.092748	0.12366	0.44843	0.016673	0.073825	0.24487	-2.7021	-3.3833	-3.3083	-3.225	-3.5083	-3.1875	-3.6646	-3.5062	-3.1063	-3.4688	-3.2167	-3.2896	-3.4542	-3.2583	-3.2979	-3.3708	-28.825	65.219	218.559	168.932	33.722	114.095	-21.933	208.617	262.527	-38.403	11.219	284.585	196.847	254.687	144.222	-52.322	0.00035322	0.00066686	0.00011192	561.21	4.8233e-06	3.8466e-06	770.44	174.19	2.6183e-06	3.0628e-06	320.76	120.94	57.547	19.437	5.2248e-06	49.691	0.0004694	0.00052037	0.00014511	533.73	4.7847e-06	5.8651e-06	738.11	166.27	4.5603e-06	5.515e-06	306.9	116.59	55.256	18.83	5.3036e-06	48.053	-40.791	16.931	7.996	-61.783	85.804	68.654	-62.381	-56.732	130.613	46.363	-57.259	-52.907	-53.172	-47.963	105.779	-48.993	-8191	255	
721.982	1	1	0	0	0.056056	0.15769	0.16218	0.037146	0.058761	0.11941	0.47496	0.079633	0.12854	0.12907	0.064035	0.10405	0.091591	0.22831	0.12131	0.25624	-2.7188	-3.4062	-3.1292	-3.1188	-3.4458	-3.2354	-3.5104	-3.4562	-3.0458	-3.4042	-3.3812	-3.2229	-3.4313	-3.2604	-3.3063	-3.5396	76.715	240.622	20.861	284.011	219.167	248.897	230.805	175.614	279.648	4.516	183.961	94.705	210.904	-51.519	77.949	228.023	0.00036046	0.00038489	9.6156e-05	557.56	3.1239e-06	3.7254e-06	773.84	173.01	4.8556e-06	3.839e-06	316.83	120.31	57.041	19.347	6.1238e-06	49.381	0.00046528	0.0005116	0.00013109	531.65	4.9954e-06	5.6113e-06	736.63	165.77	4.9733e-06	5.6119e-06	305.34	115.82	54.954	18.72	5.0768e-06	47.752	-38.967	13.435	-10.188	-62.139	127.913	73.973	-62.277	-56.906	114.881	84.483	-57.792	-52.967	-53.089	-48.408	79.285	-48.815	-8191	255	
722.100	1	1	0	0	0.28031	0.16198	0.23079	0.035508	0.076856	0.031812	0.091254	0.14162	0.057076	0.075437	0.20303	0.33395	0.30764	0.20324	0.13487	0.2496	-2.7583	-3.6188	-3.5	-3.3375	-3.5083	-3.2729	-3.4271	-3.6333	-3.1375	-3.3396	-3.4479	-3.1646	-3.5604	-3.2875	-3.2354	-3.5604	-8.543	264.791	78.988	137.890	240.079	123.629	104.904	215.410	50.776	212.385	224.931	239.245	249.637	214.945	165.616	268.915	0.00036337	0.00043903	0.00010164	551	3.3216e-06	2.2116e-06	767.53	171.16	3.1468e-06	3.5472e-06	314.44	120.15	56.723	19.259	6.4298e-06	49.084	0.00046388	0.00051076	0.0001324	526.68	4.9358e-06	5.6861e-06	732.53	164.57	4.9878e-06	5.4473e-06	304.65	116.1	54.819	18.715	4.9075e-06	47.736	-36.692	11.537	10.775	-61.987	91.529	58.734	-62.333	-57.102	126.590	89.804	-57.236	-52.706	-53.100	-48.299	93.800	-49.265	-8191	255	
722.174	1	1	0	0	0.16748	0.060431	0.33919	0.095136	0.15051	0.18102	0.040196	0.047716	0.044131	0.14989	0.046016	0.07426	0.084376	0.16258	0.26765	0.062221	-2.7229	-3.2417	-3.3271	-3.2292	-3.2958	-3.4188	-3.3708	-3.4292	-3.0958	-3.3625	-3.3958	-3.2792	-3.5583	-3.4521	-3.3396	-3.5833	46.573	92.878	-8.594	38.312	-59.078	-19.197	204.608	179.519	51.865	160.919	7.205	79.845	275.201	173.546	70.113	230.470	0.00035548	0.00033977	0.00012533	553.57	3.3933e-06	4.641e-06	769.03	171.78	6.7389e-06	4.6132e-06	318.34	121.93	57.361	19.59	4.524e-06	49.956	0.00046305	0.0005054	0.00013349	525.86	4.9116e-06	5.4983e-06	731.46	164.85	4.9966e-06	5.6458e-06	306.11	117.14	55.303	18.909	4.9478e-06	48.359	-27.841	7.717	22.592	-62.248	83.690	78.971	-62.456	-56.789	102.877	74.356	-57.478	-52.972	-53.177	-48.200	101.250	-48.606	-8191	255	
722.293	1	1	0	0	0.10389	0.085379	0.12736	0.13957	0.14165	0.12045	0.1114	0.15648	0.083718	0.13913	0.20086	0.20623	0.20785	0.15735	0.1639	0.31697	-2.7104	-3.4313	-3.3354	-3.3625	-3.4396	-3.1875	-3.1188	-3.5167	-3.2104	-3.325	-3.4979	-3.1708	-3.3	-3.2188	-3.0833	-3.5979	52.377	256.046	221.094	-66.324	-42.891	-24.700	87.120	202.003	187.571	-24.703	184.872	-46.330	-51.222	-73.937	51.970	264.198	0.00034291	0.00046227	0.00010391	550.57	5.8169e-06	3.8899e-06	766.73	173.36	2.796e-06	4.306e-06	318.33	122.91	57.954	20.016	1.9051e-06	50.755	0.00047849	0.00047345	0.00012481	526.04	5.1661e-06	5.5444e-06	733.46	165.86	5.0748e-06	5.2686e-06	306.65	118.34	55.726	19.271	5.0345e-06	49.31	-36.598	31.416	29.976	-62.041	91.087	70.015	-62.201	-56.756	112.792	69.529	-57.504	-53.195	-53.144	-48.423	75.375	-49.131	-8191	255	
722.389	1	1	0	0	0.096798	0.29393	0.23369	0.0733	0.061729	0.20372	0.036651	0.083913	0.19461	0.2284	0.25377	0.13547	0.30976	0.24358	0.10086	0.13664	-2.7083	-3.2146	-3.4292	-3.1458	-3.1937	-3.3292	-3.1125	-3.4813	-3.1188	-3.1417	-3.5187	-3.1104	-3.2479	-3.3875	-2.9708	-3.5625	197.100	174.931	96.461	266.339	229.430	133.138	22.026	204.055	49.868	260.358	136.861	265.547	189.903	77.567	25.790	174.529	0.00036086	0.00042246	6.975e-05	551.45	2.8512e-06	4.0486e-06	769.92	174.3	3.8084e-06	2.8404e-06	323.8	124.17	58.587	20.417	4.8111e-06	51.23	0.00047894	0.00048062	0.00012997	527.22	5.2283e-06	4.9954e-06	735.91	166.88	4.8762e-06	5.0772e-06	310.11	119.93	56.587	19.646	5.3639e-06	49.746	-30.109	7.181	3.599	-62.286	100.078	65.196	-62.219	-56.836	110.223	71.145	-57.427	-53.357	-53.256	-48.331	95.390	-48.684	-8191	255	
722.485	1	1	0	0	0.039602	0.091778	0.11697	0.47391	0.097521	0.18528	0.21292	0.14727	0.039773	0.10284	0.19129	0.37429	0.26233	0.12332	0.15292	0.12614	-2.8271	-3.2708	-3.5646	-3.4813	-3.3625	-3.225	-3.1833	-3.3604	-3.1646	-3.2104	-3.5521	-3.2667	-3.2542	-3.3167	-3.0146	-3.4083	183.012	28.696	5.561	281.772	-0.233	86.150	183.037	216.479	146.904	140.578	229.866	251.515	-63.582	78.577	190.361	207.395	0.00038297	0.00040392	0.00012909	548.31	7.1335e-06	4.2923e-06	767.64	173.19	5.2121e-06	4.2496e-06	321.35	124.36	58.598	20.079	3.1328e-06	51.232	0.00049139	0.00047359	0.00014562	523.95	5.1962e-06	5.3758e-06	731.31	166.03	4.9405e-06	5.2072e-06	309.25	119.84	56.485	19.514	5.3952e-06	49.576	-34.598	23.509	32.738	-62.157	84.741	81.028	-62.128	-56.765	81.217	78.591	-57.567	-53.035	-53.430	-48.005	106.610	-49.118	-8191	255	
722.581	1	1	0	0	0.14681	0.10456	0.15481	0.094797	0.14509	0.041232	0.096151	0.14122	0.05645	0.11868	0.045743	0.24565	0.12118	0.10984	0.030691	0.14792	-2.8521	-2.9833	-3.5396	-3.2771	-3.3125	-3.2667	-3.1333	-3.3667	-3.3896	-3.0896	-3.4375	-3.2521	-3.2833	-3.5479	-3.1688	-3.4625	211.784	48.378	72.464	278.384	259.706	-26.476	261.053	-71.749	200.321	144.491	254.031	249.314	-63.253	198.673	284.740	-59.889	0.00036722	0.00039644	0.0001157	546.94	5.1175e-06	3.0401e-06	763.39	173.59	1.4211e-06	4.059e-06	325.04	124.65	58.925	20.177	3.1649e-06	51.256	0.00048553	0.00047853	0.00013654	524.34	4.7153e-06	5.3726e-06	732.89	166.96	4.791e-06	5.1749e-06	311	120.31	56.894	19.58	5.613e-06	49.664	-33.767	7.505	17.346	-62.267	117.006	77.057	-62.108	-56.785	143.021	68.531	-57.494	-52.782	-53.015	-48.084	52.956	-49.177	-8191	255	
722.702	1	1	0	0	0.056317	0.090913	0.10762	0.073133	0.11573	0.11721	0.28111	0.16414	0.033261	0.13985	0.24921	0.11694	0.02727	0.091032	0.33781	0.21039	-2.9021	-2.9271	-3.45	-3.3917	-3.1167	-3.5938	-3.3771	-3.4333	-3.5312	-3.1063	-3.4729	-3.1562	-3.1396	-3.5062	-3.0563	-3.4833	226.301	283.801	172.797	-58.320	-24.998	243.408	182.512	154.097	-72.071	195.783	71.594	99.810	137.432	168.027	-16.599	215.215	0.00038097	0.00047631	9.05e-05	552.25	2.7724e-06	4.5646e-06	768.38	174.83	5.5245e-06	4.3795e-06	326.65	124.82	58.978	20.123	3.5436e-06	51.292	0.00046285	0.00048744	0.00013928	526.2	4.6224e-06	5.3495e-06	734.36	167.47	4.5029e-06	5.4536e-06	312.66	120.25	56.827	19.47	5.1968e-06	49.621	-29.406	12.945	11.215	-62.251	95.610	78.073	-61.921	-56.590	124.299	65.627	-57.204	-52.891	-53.103	-48.086	96.862	-49.038	-8191	255	
722.798	1	1	0	0	0.11853	0.15734	0.12008	0.23522	0.16117	0.092467	0.32054	0.10013	0.07456	0.16442	0.11816	0.29606	0.23358	0.092834	0.12052	0.1231	-2.9229	-2.8771	-3.3375	-3.3146	-3.2062	-3.5583	-3.2917	-3.2938	-3.5187	-3.1	-3.55	-3.4437	-3.2271	-3.4896	-3.2562	-3.3521	-59.949	-54.809	141.868	251.083	143.899	76.569	233.920	-22.389	136.282	236.928	-33.007	261.587	-9.937	111.449	212.337	144.039	0.00035123	0.00053522	7.6441e-05	553.23	4.5383e-06	2.9776e-06	773.64	175.49	3.7752e-06	4.1325e-06	327.18	124.34	58.959	20.035	4.4671e-06	51.105	0.00046175	0.00048758	0.00014143	526.68	4.4719e-06	5.184e-06	739.01	168.04	4.3055e-06	5.2505e-06	314.69	120.62	56.824	19.402	4.8375e-06	49.472	-38.596	15.630	20.622	-62.203	105.811	99.019	-62.058	-56.815	119.739	73.111	-57.506	-53.108	-53.149	-48.079	87.002	-48.984	-8191	255	
722.870	1	1	0	0	0.19927	0.1026	0.11522	0.25415	0.22593	0.10546	0.1214	0.1075	0.20995	0.075908	0.31785	0.26176	0.17826	0.046335	0.043265	0.14353	-2.9	-3.1583	-3.5229	-3.4333	-3.2062	-3.5708	-3.2646	-3.3292	-3.5375	-3.0708	-3.4437	-3.4562	-3.1417	-3.4437	-3.2604	-3.4833	262.005	135.240	273.700	37.099	216.957	171.263	217.569	252.357	261.747	213.600	-51.594	176.018	-68.687	134.423	-52.165	163.652	0.00038228	0.00045751	7.4075e-05	546.44	3.5375e-06	3.3762e-06	766.86	173.53	4.553e-06	3.5081e-06	324.88	123.64	57.641	19.843	5.2054e-06	50.374	0.00045781	0.0004644	0.00012903	521.5	4.6054e-06	5.258e-06	732.68	166.31	4.4165e-06	4.6119e-06	311.05	119.24	55.873	19.088	4.6141e-06	48.737	-36.339	3.808	14.487	-61.881	83.346	80.797	-61.893	-56.763	132.814	82.754	-57.129	-53.079	-53.140	-48.129	69.794	-49.398	-8191	255	
722.989	1	1	0	0	0.18431	0.25323	0.15073	0.063788	0.14411	0.19028	0.38266	0.029151	0.20869	0.14627	0.12319	0.18576	0.1619	0.10007	0.051543	0.15499	-3.1437	-3.0812	-3.425	-3.2208	-3.0812	-3.4208	-3.4271	-3.55	-3.4875	-3.0479	-3.3812	-3.5167	-3.4292	-3.5396	-3.325	-3.2542	284.750	-26.503	5.672	222.749	-66.885	-5.573	208.489	12.673	214.001	214.458	243.147	7.326	124.749	128.939	240.982	150.294	0.00037171	0.00036935	7.6315e-05	542.66	4.2765e-06	3.6762e-06	769.27	173.02	4.3104e-06	3.6541e-06	324.41	124.19	58.411	19.953	4.6823e-06	51.152	0.00047239	0.00045013	0.0001154	519.55	4.3122e-06	5.0463e-06	731.34	166.05	4.4499e-06	4.9316e-06	312.41	119.98	56.578	19.314	4.2826e-06	49.538	-33.763	8.487	24.343	-62.115	91.114	92.407	-62.092	-56.848	124.192	59.611	-57.261	-53.107	-52.789	-48.129	61.292	-48.972	-8191	255	
723.085	1	1	0	0	0.094594	0.1227	0.18485	0.079336	0.25241	0.14547	0.25304	0.27277	0.11265	0.036374	0.11942	0.29834	0.17881	0.1511	0.13366	0.049388	-3.1708	-3.1208	-3.3542	-3.5021	-3.1354	-3.4958	-3.4583	-3.2	-3.6562	-3.2354	-3.4479	-3.6146	-3.3187	-3.4562	-3.1729	-3.3187	176.744	157.646	213.425	12.436	186.634	45.179	279.282	39.308	164.936	140.569	78.074	164.842	1.207	-68.568	74.968	246.406	0.00034505	0.00057801	0.00010284	544.51	3.6947e-06	4.3661e-06	770.67	174.87	4.9309e-06	2.0212e-06	329.02	125.87	58.878	20.026	6.5458e-06	51.529	0.00044165	0.00044853	0.00011618	518.7	4.1192e-06	4.6246e-06	733.17	167.57	4.2967e-06	4.7938e-06	315.92	121.4	56.959	19.433	4.055e-06	49.7	-30.285	8.727	29.470	-61.971	65.456	72.707	-62.218	-56.761	122.350	42.205	-57.476	-53.063	-53.343	-48.280	58.594	-49.223	-8191	255	
723.181	1	1	0	0	0.18619	0.04609	0.040243	0.13691	0.16885	0.14197	0.22826	0.19469	0.077886	0.15298	0.29267	0.058565	0.16295	0.10857	0.057174	0.27864	-3.2771	-3.2083	-3.2354	-3.5083	-3.225	-3.3583	-3.4917	-3.15	-3.6333	-3.2896	-3.3021	-3.6917	-3.2875	-3.3646	-3.4562	-3.2646	0.136	210.584	-68.033	268.125	51.722	-23.974	278.962	-70.822	153.165	38.983	29.607	260.521	209.906	146.434	135.191	228.285	0.00038596	0.0004802	0.00011002	544.64	4.0923e-06	5.5064e-06	769.61	175.5	5.565e-06	4.1013e-06	331.34	126.36	59.354	20.251	4.0596e-06	51.845	0.00044113	0.00038366	0.00010104	518.65	4.2029e-06	4.2109e-06	733.67	167.99	3.9757e-06	4.1442e-06	317.31	122.47	57.411	19.639	3.9468e-06	50.032	-29.786	2.225	22.770	-62.436	101.038	68.785	-62.059	-56.697	118.668	69.470	-57.737	-53.621	-53.082	-47.756	75.879	-48.942	-8191	255	
723.277	1	1	0	0	0.088413	0.13463	0.16044	0.14722	0.25554	0.16906	0.078658	0.25619	0.12772	0.21429	0.083795	0.13114	0.23622	0.24543	0.085917	0.10344	-3.1604	-3.2313	-2.9833	-3.575	-3.1771	-3.25	-3.6771	-3.2208	-3.3771	-3.2646	-3.2687	-3.5938	-3.2021	-3.0979	-3.4437	-3.2542	164.664	56.302	72.988	273.563	73.182	233.536	-27.816	145.668	182.820	216.208	-12.551	75.041	30.035	-17.980	-62.358	115.860	0.00035743	0.00054813	8.3794e-05	541.29	4.9742e-06	3.0593e-06	767.81	174.46	3.1789e-06	4.8089e-06	329.18	126.3	59.055	20.261	4.9207e-06	51.443	0.00043454	0.00035227	0.00010566	516.59	3.8574e-06	4.2156e-06	729.26	166.82	3.9164e-06	3.9394e-06	315.42	121.9	56.987	19.474	3.8386e-06	49.841	-33.946	1.781	7.881	-62.328	77.894	72.214	-62.389	-56.738	120.678	51.969	-57.037	-53.182	-53.573	-48.243	76.271	-49.182	-8191	255	
723.398	1	1	0	0	0.18582	0.091575	0.3004	0.21066	0.10241	0.15401	0.25462	0.1676	0.3689	0.11607	0.17554	0.17159	0.21285	0.21457	0.097342	0.16911	-3.0396	-3.2208	-3.1312	-3.5	-3.3125	-3.2292	-3.6125	-3.1813	-3.3542	-3.3187	-3.0625	-3.6125	-3.2896	-3.1937	-3.5396	-3.0979	265.653	159.589	-29.556	-47.605	68.188	151.366	232.189	265.746	70.111	125.824	96.281	204.562	236.930	-65.289	191.616	210.998	0.00029326	0.00044279	0.00010181	535.42	3.8909e-06	3.4325e-06	759.03	174.33	5.3161e-06	4.5157e-06	329.44	126.88	59.851	20.636	4.8694e-06	52.499	0.00041722	0.00034949	0.0001038	512.54	3.9353e-06	4.0056e-06	725.71	166.8	3.7002e-06	3.9536e-06	315.84	122.67	57.632	19.883	4.277e-06	50.849	-37.560	31.439	7.089	-62.345	87.895	89.377	-62.114	-56.945	137.633	54.074	-57.790	-52.999	-53.159	-47.971	92.187	-49.368	-8191	255	
723.469	1	1	0	0	0.174	0.18279	0.28065	0.16337	0.093177	0.15986	0.057876	0.24383	0.13866	0.25905	0.16118	0.22339	0.32502	0.24045	0.1381	0.25964	-2.8979	-3.3646	-2.9021	-3.3854	-3.2792	-3.2375	-3.6125	-3.0521	-3.3146	-3.4792	-3.225	-3.4646	-3.2042	-3.1521	-3.5333	-3.1958	245.587	236.106	158.471	275.984	72.486	-47.211	261.568	224.743	252.704	50.664	266.172	220.375	28.353	273.050	-59.548	203.558	0.00031891	0.00036038	6.626e-05	536.36	4.5453e-06	3.3496e-06	761.65	174.77	3.7262e-06	3.1381e-06	329.82	127.16	59.448	20.431	6.7524e-06	52.241	0.00042182	0.00037461	0.00010599	512.88	3.6166e-06	4.218e-06	726.56	166.69	3.7166e-06	3.9615e-06	315.53	123.1	57.489	19.748	4.1362e-06	50.385	-44.268	26.009	21.236	-62.112	105.801	75.903	-62.193	-56.683	111.994	73.830	-57.535	-53.074	-53.058	-48.299	108.040	-49.051	-8191	255	
723.565	1	1	0	0	0.1463	0.072803	0.23064	0.29846	0.12862	0.17088	0.089921	0.17754	0.15519	0.034733	0.19174	0.27504	0.10712	0.12546	0.16518	0.036861	-2.8125	-3.35	-3.0875	-3.5229	-3.2125	-3.1562	-3.4562	-3.2229	-3.3625	-3.6896	-3.1188	-3.5625	-3.3875	-3.175	-3.4813	-3.1104	-14.580	212.115	10.496	-49.639	223.916	212.001	-3.405	236.997	7.125	-19.675	-15.047	206.778	92.607	-37.703	-73.925	96.749	0.00041898	0.00034357	7.6275e-05	535.66	4.4603e-06	4.2123e-06	760.41	171.9	1.4834e-06	3.7912e-06	324.92	123.52	57.465	19.371	3.9865e-06	50.081	0.00042367	0.00034259	0.0001049	513.31	3.5597e-06	4.1058e-06	724.73	164.52	3.5356e-06	3.9646e-06	310.3	118.96	55.256	18.737	3.8032e-06	48.483	-30.712	-0.967	18.494	-62.051	85.882	87.502	-62.346	-56.972	159.823	78.243	-57.392	-53.249	-53.157	-48.016	85.325	-48.784	-8191	255	
723.662	1	1	0	0	0.21257	0.28017	0.27226	0.2712	0.21258	0.079281	0.15204	0.038176	0.19524	0.1296	0.22874	0.14255	0.11144	0.05444	0.13316	0.30937	-2.6063	-3.3187	-2.9979	-3.4562	-3.3458	-3.1312	-3.4104	-3.2979	-3.3438	-3.3896	-3.2479	-3.4813	-3.3271	-3.0229	-3.3229	-3.3583	75.789	-58.673	269.079	-43.488	281.232	204.208	201.613	201.932	21.256	8.493	168.829	171.491	164.354	259.545	-70.471	-9.158	0.00032061	0.0004362	0.0001243	538.56	4.5408e-06	3.6385e-06	752.44	169.42	2.182e-06	3.709e-06	316.27	120.8	55.868	19.001	4.1593e-06	48.843	0.00039681	0.00036793	0.00010272	512.39	3.2718e-06	3.6976e-06	718.28	161.81	3.3641e-06	3.4402e-06	303.46	116.16	53.898	18.287	3.6035e-06	47.14	-37.137	11.100	20.021	-62.063	109.008	91.698	-62.366	-56.960	116.791	86.752	-57.567	-53.040	-53.295	-48.170	86.502	-48.855	-8191	255	
723.782	1	1	0	0	0.19381	0.088735	0.22194	0.05483	0.15538	0.17494	0.18928	0.25282	0.21889	0.045113	0.15533	0.11866	0.17499	0.01859	0.08927	0.058186	-2.8125	-3.3563	-2.9437	-3.1729	-3.3875	-3.0583	-3.3792	-3.4479	-3.3021	-3.2938	-3.1125	-3.4458	-3.3479	-3	-3.3729	-3.3917	184.874	43.131	16.491	206.637	207.602	19.423	247.408	-46.840	-54.342	159.145	101.991	226.135	-50.664	25.287	261.839	167.146	0.00033991	0.00036494	7.9125e-05	536.14	4.3149e-06	3.7372e-06	747.29	166.57	4.6082e-06	3.5687e-06	309.53	118.48	55.637	18.916	5.2936e-06	49.003	0.00040603	0.00034072	0.00010364	509.81	3.6225e-06	3.883e-06	711.71	159.15	3.6478e-06	4.0119e-06	297.68	114.47	53.475	18.311	3.738e-06	47.362	-36.045	9.050	37.817	-61.996	117.506	89.445	-62.237	-56.790	125.896	75.240	-58.034	-53.049	-53.139	-47.706	96.224	-49.076	-8191	255	
723.878	1	1	0	0	0.077309	0.11829	0.16961	0.25063	0.10266	0.21542	0.19505	0.1974	0.087384	0.10187	0.10731	0.14851	0.097554	0.072356	0.17884	0.21996	-2.7458	-3.3979	-3.2417	-3.2521	-3.3646	-3.2	-3.5479	-3.1125	-3.2292	-3.2708	-3.3438	-3.3646	-3.475	-2.9813	-3.4104	-3.5687	134.057	-39.416	-20.449	265.477	264.546	214.034	207.772	53.657	-47.766	-47.242	271.965	216.520	148.316	20.119	122.243	191.482	0.00035974	0.00052676	6.5587e-05	533.01	2.579e-06	2.316e-06	743.7	167.24	4.0603e-06	3.5109e-06	312.23	121.31	56.178	19.431	5.3972e-06	49.749	0.00041084	0.0003964	9.8382e-05	508.66	3.7442e-06	4.2339e-06	711.34	159.97	4.0445e-06	4.3245e-06	299.9	116.73	54.38	18.765	3.8906e-06	48.222	-33.049	11.603	-15.963	-62.304	86.938	71.669	-62.355	-56.843	130.696	83.191	-57.291	-52.913	-52.828	-47.940	98.730	-49.091	-8191	255	
723.975	1	1	0	0	0.21262	0.18547	0.050069	0.19783	0.081374	0.088361	0.18292	0.25588	0.053168	0.1951	0.31315	0.18172	0.24678	0.34056	0.21311	0.10782	-2.6312	-3.525	-3.2687	-3.2292	-3.5333	-3.1208	-3.4833	-3.45	-3.2771	-3.2729	-3.2854	-3.3479	-3.6042	-3.2375	-3.3417	-3.3396	106.787	167.694	-46.700	93.060	55.229	38.718	151.741	-62.226	-27.211	154.936	160.769	164.672	36.919	-59.679	48.424	247.346	0.00038947	0.00050407	9.9168e-05	533.43	5.4031e-06	4.6761e-06	746.4	166.56	4.3611e-06	1.9558e-06	313.67	120.84	56.135	19.256	7.8848e-06	49.618	0.00043221	0.00039236	9.5624e-05	508.69	4.0472e-06	4.3e-06	712.54	159.97	3.941e-06	4.1008e-06	300.46	116.33	54.261	18.63	3.8463e-06	48.122	-29.490	18.442	15.317	-62.077	94.652	71.457	-62.449	-56.472	114.044	67.210	-57.325	-52.923	-53.036	-47.948	97.594	-48.951	-8191	255	
724.071	1	1	0	0	0.11252	0.19404	0.33059	0.088578	0.28407	0.17414	0.14554	0.075962	0.06669	0.12011	0.19095	0.31214	0.21331	0.20166	0.15704	0.072997	-2.6688	-3.5333	-3.2687	-3.3063	-3.1937	-3.2188	-3.5062	-3.4292	-3.1458	-3.3646	-3.3438	-3.1646	-3.5229	-3.2	-3.2583	-3.525	-8.189	164.152	-26.466	47.985	176.968	19.251	219.760	221.140	46.223	28.833	202.087	212.886	222.479	160.811	228.039	124.597	0.00036168	0.00036106	0.00010725	532.61	5.7902e-06	4.6636e-06	751.11	168.16	2.8524e-06	4.92e-06	318.55	121.75	57.201	19.652	3.9776e-06	50.391	0.00043945	0.00037169	0.00010636	509.86	3.9523e-06	4.1703e-06	717.18	161.47	3.9499e-06	4.2646e-06	303.88	117.86	55.124	19.069	3.6437e-06	48.826	-35.698	16.841	15.880	-62.202	89.548	56.906	-62.041	-57.017	90.207	77.262	-57.451	-52.962	-52.933	-48.036	103.388	-49.076	-8191	255	
724.165	1	1	0	0	0.20685	0.29668	0.12574	0.13119	0.075386	0.061557	0.18315	0.18153	0.13922	0.12467	0.34473	0.22914	0.19722	0.056577	0.20802	0.21181	-2.8146	-3.4875	-3.2479	-3.1917	-3.475	-3.1562	-3.1896	-3.5062	-3.2104	-3.4208	-3.3646	-3.0021	-3.4646	-3.3	-3.1729	-3.5187	-62.758	231.922	-42.336	-74.044	20.182	236.791	135.136	220.557	115.373	70.749	231.811	-52.204	-70.914	106.335	25.838	240.233	0.00034185	0.00036774	8.4479e-05	534.42	3.3058e-06	3.983e-06	743.63	166.19	4.7427e-06	5.2222e-06	313.46	122.01	56.762	19.555	5.2467e-06	50.067	0.0004317	0.00035979	0.0001038	510.17	4.0243e-06	4.0565e-06	712.16	159.84	4.006e-06	4.1308e-06	300.18	117.29	54.713	18.971	3.9829e-06	48.552	-30.311	18.547	15.064	-62.184	112.619	75.227	-62.289	-56.794	105.607	66.468	-57.580	-52.941	-53.011	-48.271	101.533	-49.065	-8191	255	
724.263	1	1	0	0	0.18509	0.16792	0.28101	0.20343	0.20465	0.17829	0.20977	0.11863	0.2566	0.20282	0.16976	0.46712	0.09123	0.095265	0.27541	0.31651	-2.6625	-3.3354	-3.4083	-3.0896	-3.5104	-3.2979	-3.3271	-3.5771	-3.2833	-3.4229	-3.5229	-3.175	-3.4917	-3.4083	-3.2146	-3.5625	-29.591	279.376	42.615	-9.926	283.014	33.408	-59.981	-17.312	-28.494	104.206	238.326	-52.131	42.018	243.592	19.266	-70.181	0.00034701	0.00045098	0.00010108	536.53	3.3077e-06	3.1872e-06	750.24	167.61	5.1311e-06	3.1001e-06	313.84	121.02	56.297	19.624	4.763e-06	49.715	0.00045088	0.00036438	0.00010638	511.29	3.9183e-06	4.1559e-06	714.38	160.41	3.6529e-06	4.1953e-06	300.47	116.51	54.407	18.844	4.225e-06	48.177	-42.664	17.184	8.728	-62.288	87.156	83.374	-62.153	-56.880	121.863	86.257	-57.597	-53.218	-53.167	-47.804	89.587	-49.187	-8191	255	
724.382	1	1	0	0	0.16051	0.11635	0.14957	0.13458	0.15433	0.082076	0.11249	0.2049	0.35719	0.062996	0.17218	0.24305	0.17481	0.12933	0.14131	0.2189	-2.7667	-3.2417	-3.3	-3.1458	-3.4813	-3.3688	-3.2062	-3.425	-3.1979	-3.3104	-3.4562	-3.1708	-3.4146	-3.2396	-3.1333	-3.5312	-52.461	-9.889	118.265	178.143	100.233	95.962	184.417	218.096	51.736	-50.727	264.723	258.743	250.467	59.754	-72.486	156.742	0.0003412	0.00051019	0.00010724	540.41	3.6089e-06	3.6619e-06	756.1	166.47	4.3213e-06	3.6687e-06	311.7	120.12	55.78	19.273	3.9232e-06	49.339	0.00041636	0.00036549	0.00010947	514.98	3.5957e-06	3.9196e-06	716.46	159.68	3.651e-06	4.0741e-06	298.59	115.47	53.959	18.66	4.1639e-06	47.844	-36.011	3.655	32.779	-62.006	126.014	71.511	-62.276	-56.987	122.346	79.304	-57.592	-52.914	-52.778	-47.994	65.256	-49.252	-8191	255	
724.478	1	1	0	0	0.068499	0.044987	0.071528	0.047545	0.10915	0.10197	0.25115	0.24635	0.084422	0.31178	0.11052	0.28282	0.23393	0.084403	0.2237	0.43471	-2.6958	-3.1271	-3.4792	-3.2771	-3.4	-3.3312	-3.2208	-3.5125	-3.325	-3.2521	-3.6708	-3.1312	-3.275	-3.5833	-3.1917	-3.4437	56.242	205.558	-0.750	251.621	183.672	-44.381	276.049	-55.831	243.697	253.042	271.298	240.234	114.968	137.209	34.595	166.572	0.00035114	0.00040404	6.8578e-05	542.63	5.5459e-06	2.5653e-06	745.81	166.93	3.8619e-06	2.0052e-06	310.82	118.68	55.569	19.44	6.8516e-06	49.395	0.00040559	0.00038011	0.00010801	516.24	3.8967e-06	4.3111e-06	715.78	159.87	3.5488e-06	4.4331e-06	297.29	115.12	53.685	18.728	4.8555e-06	47.803	-37.046	6.809	30.798	-62.112	86.182	81.303	-62.322	-56.922	118.238	56.204	-57.386	-53.074	-53.089	-48.404	103.443	-48.797	-8191	255	
724.574	1	1	0	0	0.38425	0.088101	0.19703	0.073907	0.23601	0.031953	0.31941	0.03869	0.33625	0.36379	0.11034	0.096724	0.16296	0.25077	0.25819	0.32308	-2.8438	-3.2958	-3.3042	-3.3292	-3.4792	-3.3396	-3.3063	-3.3458	-3.2375	-3.1771	-3.6312	-3.3104	-3.325	-3.4396	-3.1458	-3.5375	265.405	76.823	107.936	105.998	65.388	213.208	255.382	61.632	117.423	42.218	83.846	-23.926	8.068	238.774	168.905	182.103	0.00038629	0.00055683	0.00010098	536.84	2.1229e-06	3.8612e-06	744.47	163.5	3.8578e-06	5.0963e-06	303.29	116.92	54.38	19.154	7.1921e-06	48.909	0.00041811	0.00045132	0.00012207	513.02	4.2147e-06	4.7583e-06	709.97	156.97	4.2134e-06	5.0662e-06	291.53	113.11	52.796	18.541	4.9998e-06	47.189	-33.165	-3.651	4.376	-62.110	103.578	97.854	-62.444	-57.175	126.699	73.510	-58.034	-53.236	-53.014	-47.730	82.531	-48.913	-8191	255	
724.695	1	1	0	0	0.27728	0.085139	0.076202	0.12212	0.2386	0.0014928	0.20376	0.063651	0.17823	0.21984	0.1939	0.31295	0.20862	0.024553	0.10753	0.13322	-2.8229	-3.1896	-3.5521	-3.2458	-3.2458	-3.4604	-3.3479	-3.4667	-3.2583	-3.1688	-3.55	-3.3583	-3.2	-3.5521	-3.1937	-3.3354	154.348	-44.978	98.169	17.304	74.248	180.000	-58.874	-0.334	231.371	45.342	118.241	24.794	280.033	92.865	29.243	262.359	0.00034163	0.00053837	0.00011936	536.51	3.7445e-06	3.5111e-06	737.07	162.54	3.3021e-06	3.5567e-06	301.15	117.07	54.879	19.673	4.0746e-06	49.484	0.00044793	0.00047582	0.00012551	510.03	4.5622e-06	5.0806e-06	703.14	155.96	4.605e-06	5.1497e-06	288.68	113.3	53.109	18.933	5.0289e-06	48.016	-34.622	13.721	17.724	-62.242	74.132	66.686	-62.108	-56.628	130.942	32.374	-57.058	-53.140	-53.273	-47.954	71.846	-49.019	-8191	255	
724.766	1	1	0	0	0.094971	0.076956	0.06275	0.036296	0.32284	0.20372	0.19416	0.19013	0.11099	0.271	0.15704	0.049024	0.12626	0.066138	0.23724	0.11981	-2.8854	-3.1146	-3.3583	-3.1792	-3.2792	-3.5687	-3.2208	-3.4479	-3.3354	-3.1437	-3.5146	-3.4333	-3.2292	-3.3896	-3.1479	-3.3125	178.719	97.158	54.626	210.537	-26.309	157.023	211.645	22.580	3.003	263.748	165.261	198.725	164.238	65.297	-65.536	-26.476	0.00040787	0.00045098	8.1156e-05	535.51	3.4525e-06	3.0467e-06	737.66	160.85	4.3526e-06	4.1602e-06	299.35	117.34	54.72	19.82	4.6447e-06	49.656	0.00047544	0.00051327	0.00013292	510.06	4.8514e-06	5.8651e-06	705.39	154.48	5.0792e-06	5.619e-06	287.38	112.83	52.775	19.086	5.0802e-06	48.082	-33.381	29.471	26.387	-62.382	100.507	72.316	-62.062	-57.081	164.151	81.703	-57.128	-53.166	-52.633	-48.164	83.462	-49.328	-8191	255	
724.863	1	1	0	0	0.027575	0.13571	0.074732	0.16238	0.29665	0.23364	0.16908	0.096736	0.089638	0.1271	0.15504	0.17543	0.28445	0.018751	0.029879	0.14464	-3.1104	-3.1437	-3.2729	-3.5125	-3.1292	-3.4667	-3.3042	-3.4708	-3.5625	-3.1833	-3.4917	-3.3917	-3.0792	-3.3104	-3.1125	-3.4146	-28.625	18.836	-73.839	208.861	158.288	-46.928	15.233	204.685	107.275	16.111	226.057	240.041	-15.034	3.565	236.746	133.295	0.00034829	0.0003131	0.00010283	536	4.7995e-06	2.7699e-06	734.93	159.97	5.0363e-06	5.8511e-06	296.58	116.02	54.402	19.869	2.9881e-06	50.041	0.00049675	0.00051695	0.00013605	510.74	5.53e-06	5.7267e-06	703.43	153.61	5.4462e-06	6.3056e-06	283.42	112.07	52.423	19.225	5.3327e-06	48.326	-28.671	6.248	48.504	-62.108	124.629	51.141	-62.296	-56.615	111.494	75.156	-57.027	-53.052	-52.705	-48.212	94.777	-49.416	-8191	255	
724.959	1	1	0	0	0.19714	0.23453	0.16148	0.16203	0.061674	0.23811	0.17974	0.1563	0.10863	0.31943	0.083857	0.20121	0.061693	0.13125	0.13919	0.048182	-3.0896	-3.2458	-3.3458	-3.4083	-3.2542	-3.5	-3.4604	-3.3021	-3.575	-3.2854	-3.4688	-3.4604	-3.2354	-3.4479	-3.1833	-3.375	218.302	226.544	-74.155	255.930	83.990	128.190	109.869	262.225	120.319	213.729	134.853	-55.889	35.079	266.299	117.734	-24.089	0.0003345	0.0004978	9.6989e-05	534.89	2.3477e-06	2.2463e-06	735.51	159.89	6.5337e-06	3.4397e-06	293.24	115.53	53.95	19.727	2.6896e-06	49.281	0.0005011	0.00057758	0.00014935	509.85	5.9056e-06	6.1643e-06	699.99	152.72	5.5383e-06	6.1261e-06	281.47	111.55	52.094	19.102	5.4812e-06	47.785	-35.514	1.932	15.718	-62.033	122.587	60.714	-62.215	-56.956	132.390	81.087	-57.240	-52.829	-53.201	-48.102	89.440	-49.145	-8191	255	
725.078	1	1	0	0	0.11025	0.10335	0.16416	0.068802	0.10219	0.24001	0.34291	0.23783	0.22652	0.17937	0.25943	0.17326	0.12928	0.17388	0.062937	0.48434	-3.0583	-2.9521	-3.3271	-3.5396	-3.1833	-3.5958	-3.3875	-3.4083	-3.5604	-3.3063	-3.4521	-3.4958	-3.2729	-3.4354	-3.3271	-3.3292	-24.018	156.221	-10.143	108.807	271.745	58.820	223.917	259.916	1.122	-29.392	243.584	242.837	203.723	198.673	198.764	253.446	0.00033283	0.00035871	8.5242e-05	530.58	4.8963e-06	2.5454e-06	727.47	157.79	4.3397e-06	3.7934e-06	292.32	115.27	53.688	19.889	1.796e-06	49.684	0.00052097	0.00052294	0.00014513	507.3	5.7668e-06	6.2876e-06	696.14	151.81	5.5767e-06	5.8607e-06	280.6	111.02	51.95	19.186	5.7302e-06	48.127	-35.423	19.339	26.499	-62.351	78.605	73.941	-62.450	-56.712	105.394	92.011	-57.592	-52.701	-52.830	-48.183	85.509	-49.120	-8191	255	
725.174	1	1	0	0	0.096963	0.29487	0.39666	0.14647	0.18307	0.20282	0.061752	0.16336	0.13949	0.16986	0.056063	0.13343	0.19178	0.0023011	0.15172	0.15655	-3.2708	-3.1167	-3.3	-3.7354	-3.0771	-3.5958	-3.3521	-3.2042	-3.5896	-3.2188	-3.3187	-3.6188	-3.1979	-3.3708	-3.4792	-3.4188	55.852	-50.191	167.019	177.750	23.445	107.938	248.379	217.284	202.285	92.899	105.288	-43.970	-36.742	280.044	96.486	215.301	0.00035895	0.00046199	8.2931e-05	530.98	3.3045e-06	4.098e-06	729.43	158.64	2.5398e-06	4.7025e-06	293.07	114.98	53.287	19.866	4.7931e-06	49.628	0.00051115	0.00055997	0.00016394	507.4	5.8061e-06	6.3059e-06	695.74	151.73	5.484e-06	5.9261e-06	280.38	110.92	51.686	19.187	6.0333e-06	48.164	-31.834	-2.573	-2.388	-62.298	69.061	61.977	-62.376	-56.879	110.739	84.636	-57.323	-52.904	-52.698	-47.901	72.113	-48.828	-8191	255	
725.270	1	1	0	0	0.26495	0.1277	0.16355	0.27132	0.077703	0.16428	0.26365	0.19381	0.17788	0.10511	0.10259	0.20404	0.23143	0.39216	0.26139	0.095606	-3.0312	-3.3771	-3.3458	-3.5146	-3.1375	-3.3979	-3.4479	-3.2333	-3.6354	-3.2104	-3.2313	-3.6229	-3.2208	-3.2938	-3.375	-3.25	253.025	213.998	263.988	-54.918	37.685	-36.244	231.843	-16.329	223.836	-43.101	278.559	121.117	147.378	280.654	277.939	255.820	0.00030152	0.00035219	8.4299e-05	527.7	3.7171e-06	3.5794e-06	731.98	158.32	3.5759e-06	3.7072e-06	293.33	116.01	53.858	19.624	5.1777e-06	49.645	0.0005163	0.00055238	0.00015759	505.61	5.4331e-06	6.3831e-06	697.43	151.54	4.8535e-06	5.9946e-06	281.46	111.53	52.009	19.002	5.6851e-06	48.053	-35.175	-1.609	6.068	-62.309	74.367	73.133	-62.195	-57.154	154.344	87.509	-57.414	-53.024	-52.854	-47.941	80.985	-49.030	-8191	255	
725.343	1	1	0	0	0.15736	0.03433	0.084998	0.21105	0.021208	0.21531	0.12353	0.14897	0.22969	0.16586	0.09603	0.072117	0.19292	0.1855	0.14811	0.099435	-3.1021	-3.2604	-3.0271	-3.5833	-3.1979	-3.2833	-3.4813	-3.0417	-3.6479	-3.1917	-3.3354	-3.5521	-3.2646	-3.3896	-3.4688	-3.2771	-47.730	266.591	85.643	206.417	106.182	204.066	136.583	222.757	178.798	140.029	40.427	154.473	249.578	188.344	250.617	109.612	0.00035366	0.00019757	8.325e-05	530.87	3.4121e-06	4.3161e-06	730.93	158.9	5.2811e-07	4.2365e-06	292.9	113.95	53.215	19.371	3.8097e-06	48.577	0.00046882	0.00050039	0.00015014	506.83	4.8089e-06	5.6535e-06	696.85	151.64	4.7192e-06	5.7899e-06	280.84	110.39	51.459	18.686	5.4527e-06	46.971	-35.758	62.069	15.071	-62.218	76.341	43.826	-62.353	-56.672	124.950	75.104	-57.529	-53.075	-53.145	-48.138	77.917	-49.481	-8191	255	
725.462	1	1	0	0	0.30612	0.31076	0.15421	0.18651	0.12443	0.26743	0.068277	0.26456	0.17445	0.18909	0.16148	0.02374	0.098219	0.19101	0.18724	0.15383	-2.9813	-3.2396	-3.15	-3.65	-3.325	-3.2604	-3.6063	-3.2062	-3.3271	-3.4938	-3.1729	-3.6958	-3.375	-3.1375	-3.5167	-3.3396	127.542	-21.858	100.034	176.214	6.349	-44.312	262.134	217.672	1.780	110.159	-60.754	166.366	165.849	218.057	141.695	-55.664	0.00033859	0.00026832	7.8402e-05	529.5	6.4595e-06	2.9976e-06	729.57	157.56	2.6598e-06	3.3844e-06	292.23	113.21	52.747	19.173	3.4668e-06	48.523	0.00046439	0.0005061	0.00014485	503.04	4.4843e-06	5.7569e-06	692.82	150.75	4.6542e-06	5.8166e-06	279.6	109.56	50.844	18.52	5.3064e-06	46.956	-36.537	8.232	38.447	-62.243	69.777	94.436	-62.434	-56.694	160.227	72.650	-57.529	-52.580	-53.020	-48.216	97.982	-49.056	-8191	255	
725.558	1	1	0	0	0.27314	0.063764	0.17633	0.094729	0.14212	0.1929	0.16067	0.017976	0.064846	0.093122	0.28046	0.35363	0.31819	0.33659	0.26088	0.18097	-3.0458	-3.3063	-3.1	-3.5125	-3.3625	-3.3542	-3.5542	-3.3708	-3.2625	-3.4042	-3.2687	-3.5646	-3.1958	-3.3375	-3.4792	-3.4021	152.239	149.668	-16.376	-57.268	226.708	48.878	95.641	81.963	-2.058	26.699	-12.030	244.187	-45.429	-71.875	78.341	93.822	0.00033806	0.00041564	0.00011486	530.43	5.6982e-06	3.1085e-06	726.25	157.39	4.2167e-06	1.9004e-06	288.5	114.34	53.046	19.168	5.0532e-06	48.74	0.00046607	0.0004903	0.00014675	504.73	4.9175e-06	5.9025e-06	693.83	150.34	5.0344e-06	5.4497e-06	278.08	109.7	50.967	18.556	4.8728e-06	47.242	-34.713	4.804	22.588	-62.530	94.156	80.162	-62.282	-56.770	146.844	73.716	-57.353	-52.924	-52.952	-48.017	69.306	-49.258	-8191	255	
725.655	1	1	0	0	0.1484	0.11212	0.25067	0.041938	0.18847	0.18493	0.14989	0.15568	0.26494	0.049928	0.21186	0.17176	0.12193	0.23184	0.14362	0.34318	-2.7917	-3.5479	-3.2208	-3.5229	-3.4729	-3.2729	-3.6208	-3.3438	-3.3125	-3.5312	-3.1583	-3.4771	-3.2854	-3.2812	-3.575	-3.2812	-50.644	30.181	66.414	221.536	232.458	-63.495	253.973	214.499	-8.194	88.979	227.032	125.794	273.145	-70.283	71.625	188.417	0.00035174	0.00044462	0.00010828	532.85	4.593e-06	3.8667e-06	728.81	156.97	4.0988e-06	3.4286e-06	292.13	115.01	53.446	19.481	4.5234e-06	49.345	0.00048978	0.00051375	0.00014108	505.69	5.0065e-06	5.8755e-06	695.95	150.62	5.1612e-06	5.8111e-06	280.94	110.89	51.46	18.853	5.0664e-06	47.805	-33.081	25.462	53.917	-62.212	71.949	108.893	-61.974	-57.185	159.604	63.302	-57.551	-52.857	-52.809	-48.353	95.082	-49.205	-8191	255	
725.775	1	1	0	0	0.14674	0.09027	0.14452	0.21187	0.30615	0.019728	0.074307	0.13769	0.35011	0.070276	0.050814	0.22168	0.077144	0.36757	0.13324	0.195	-2.8354	-3.5146	-3.1729	-3.4583	-3.3063	-3.1333	-3.5729	-3.2667	-3.275	-3.6437	-3.2083	-3.5104	-3.3458	-3.2812	-3.5708	-3.3708	60.571	209.438	83.531	255.522	109.598	3.121	146.968	248.680	223.058	146.277	60.674	-65.235	-33.827	242.464	-69.121	218.806	0.00031961	0.0003894	0.00011536	529.72	3.0711e-06	4.6102e-06	729.6	157.46	3.7681e-06	3.4252e-06	292.19	115.7	53.851	19.757	3.5398e-06	49.714	0.00048686	0.00051048	0.00013384	504.65	5.1328e-06	6.0099e-06	696.77	151.35	5.1618e-06	5.6465e-06	281.32	111.78	52.052	19.11	4.8638e-06	48.182	-32.371	7.327	8.202	-62.264	100.659	67.220	-62.031	-56.542	130.552	57.686	-57.576	-53.054	-52.785	-47.917	60.352	-49.072	-8191	255	
725.871	1	1	0	0	0.03718	0.072525	0.065742	0.17841	0.10259	0.11867	0.12497	0.18381	0.12682	0.20975	0.27192	0.032897	0.042882	0.20417	0.087119	0.2167	-2.9583	-3.675	-3.3646	-3.2729	-3.5417	-3.075	-3.5687	-3.55	-3.4167	-3.6625	-3.4208	-3.5208	-3.7042	-3.2771	-3.3312	-3.5521	-25.377	28.091	124.989	-17.536	228.890	234.838	156.941	-55.855	264.328	105.935	76.140	173.180	-26.039	238.861	87.501	132.985	0.00032236	0.00040815	6.4789e-05	527.47	3.7404e-06	4.2356e-06	729.17	158.37	5.4381e-06	2.9865e-06	292.92	116.47	53.597	19.757	5.3147e-06	49.734	0.0004975	0.00050505	0.00013339	503.43	5.0503e-06	5.4147e-06	695.81	151.33	4.9815e-06	5.6332e-06	281.65	112.15	51.898	19.135	5.0657e-06	48.229	-36.462	6.683	43.613	-62.293	83.373	68.017	-61.785	-56.987	115.702	69.906	-57.561	-53.166	-53.030	-48.351	111.951	-49.275	-8191	255	
725.967	1	1	0	0	0.17217	0.076347	0.047015	0.15533	0.27089	0.17159	0.13124	0.20617	0.24507	0.18106	0.39281	0.21967	0.12939	0.16776	0.13046	0.14472	-3.0354	-3.4292	-3.2042	-3.2729	-3.6	-3.2771	-3.5646	-3.5125	-3.2146	-3.5062	-3.4813	-3.3458	-3.5021	-3.2229	-3.475	-3.4771	209.675	-11.165	266.608	-59.998	39.774	119.004	2.773	272.861	97.055	127.139	-18.447	254.908	138.733	-0.262	225.339	121.372	0.00034679	0.00048544	0.00011771	530.8	4.138e-06	2.5332e-06	729.17	155.97	4.658e-06	3.7519e-06	290.58	114.84	53.376	19.464	3.6113e-06	49.474	0.00049009	0.0004802	0.00012833	502.95	4.7977e-06	5.3217e-06	694.04	150.16	5.1315e-06	5.2166e-06	279.65	110.79	51.497	18.909	4.9297e-06	47.91	-34.311	11.859	22.054	-62.418	61.952	81.736	-62.077	-56.844	121.091	72.095	-57.701	-52.722	-52.732	-48.586	109.825	-49.313	-8191	255	
726.064	1	1	0	0	0.14169	0.30262	0.17324	0.17123	0.091804	0.18834	0.534	0.20195	0.20393	0.19362	0.0082402	0.27781	0.18666	0.10335	0.089122	0.16604	-2.5979	-3.3625	-3.3271	-3.2625	-3.5104	-3.1813	-3.5021	-3.4625	-3.3563	-3.6125	-3.3187	-3.2438	-3.6542	-3.1271	-3.4917	-3.5979	170.610	273.868	-32.940	261.978	34.959	217.917	201.911	260.988	233.588	-49.614	-13.815	185.121	193.422	67.547	126.200	208.733	0.00034636	0.00032662	8.4002e-05	527.42	5.3316e-06	2e-06	728.03	155.62	4.0468e-06	4.9445e-06	290.97	114.67	52.999	19.442	3.9607e-06	49.034	0.00047331	0.00045285	0.00012823	503.74	4.767e-06	5.3543e-06	696.31	149.47	4.6731e-06	4.8316e-06	279.54	110.54	51.068	18.74	4.9623e-06	47.462	-35.307	-28.304	23.077	-62.327	95.233	58.935	-61.883	-56.530	111.874	77.447	-57.207	-52.913	-52.947	-47.978	82.444	-49.334	-8191	255	
726.158	1	1	0	0	0.11085	0.079467	0.2553	0.13087	0.0096262	0.093461	0.18984	0.060105	0.17113	0.28458	0.13573	0.20207	0.21335	0.33864	0.27025	0.17872	-2.7708	-3.5438	-3.3792	-3.1562	-3.3625	-3.1833	-3.5167	-3.4396	-3.3354	-3.4354	-3.2917	-3.3271	-3.4167	-3.3125	-3.2083	-3.4625	-28.940	199.706	170.312	83.742	201.921	45.740	218.601	-3.798	14.365	-23.066	251.660	280.569	-49.361	266.118	140.266	213.557	0.00033961	0.00044515	9.3745e-05	529.6	3.7187e-06	2.8714e-06	726.96	155.04	2.2883e-06	3.7509e-06	288.41	113.52	51.984	19.059	3.1516e-06	48.251	0.0004507	0.00046538	0.00013642	502.43	4.2854e-06	4.8729e-06	691.5	148.86	4.3263e-06	5.0355e-06	275.77	109.18	50.299	18.393	4.8791e-06	46.835	-32.613	-7.772	22.516	-62.287	91.891	54.569	-62.307	-56.730	108.747	70.483	-57.355	-53.004	-52.503	-48.254	69.757	-49.330	-8191	255	
726.254	1	1	0	0	0.20235	0.29082	0.14744	0.12723	0.15038	0.087945	0.16093	0.20642	0.11133	0.19364	0.069886	0.23932	0.09752	0.10762	0.072751	0.29694	-2.65	-3.4146	-3.2354	-3.1646	-3.5292	-3.2146	-3.4104	-3.5104	-3.2417	-3.4292	-3.5646	-3.1188	-3.4313	-3.2479	-3.2562	-3.6167	-30.764	234.126	22.816	281.830	-71.895	158.048	78.814	260.842	3.777	138.186	-47.877	197.775	175.824	-0.763	191.134	284.222	0.00036961	0.0004824	9.438e-05	524.2	6.7073e-06	2.4257e-06	721.04	153.71	5.4406e-06	3.561e-06	287.73	112.54	52.224	18.881	5.6991e-06	48.113	0.00045444	0.00047763	0.00013171	498.8	4.2697e-06	5.1641e-06	687.76	147.66	4.233e-06	5.0182e-06	276.54	108.98	50.318	18.319	5.1399e-06	46.532	-45.269	-1.998	16.892	-62.265	87.138	64.024	-62.146	-56.576	134.726	113.380	-57.697	-53.024	-52.931	-48.230	106.549	-48.967	-8191	255	
726.375	1	1	0	0	0.17106	0.14906	0.32602	0.28674	0.14432	0.10273	0.095216	0.26879	0.15031	0.23051	0.10228	0.14143	0.093679	0.23817	0.088743	0.23408	-2.6646	-3.4813	-3.3146	-3.1063	-3.4813	-3.4229	-3.2687	-3.5667	-3.2479	-3.35	-3.3958	-3.2854	-3.3646	-3.25	-3.0938	-3.5354	15.309	274.455	40.783	175.995	-11.520	154.395	246.318	239.453	144.649	136.628	227.793	153.505	214.123	186.718	22.943	-60.634	0.00033661	0.00042077	5.107e-05	521.86	4.9082e-06	3.8617e-06	718.49	155.22	3.9686e-06	3.2897e-06	286.93	112.58	52.023	19.141	2.5519e-06	48.748	0.00045462	0.00046837	0.00013404	498	4.3619e-06	5.2675e-06	686.28	148.29	4.3351e-06	5.4253e-06	275.64	108.87	50.304	18.482	5.1316e-06	47.168	-38.092	1.916	-15.349	-62.255	104.906	61.115	-62.198	-56.913	132.386	83.255	-57.640	-52.648	-52.942	-48.125	73.164	-49.345	-8191	255	
726.471	1	1	0	0	0.1217	0.19854	0.30167	0.077461	0.094241	0.33201	0.13699	0.075588	0.10132	0.24948	0.060809	0.21928	0.10992	0.18908	0.053472	0.28543	-2.9021	-3.3438	-3.3917	-3.0771	-3.5208	-3.3104	-3.1667	-3.3854	-3.0333	-3.3875	-3.4562	-3.3312	-3.3958	-3.3438	-3.0167	-3.5479	106.759	184.629	-27.924	152.584	258.818	123.661	94.720	-7.610	93.079	145.367	23.337	240.209	244.758	-14.120	233.237	256.999	0.00032705	0.0002706	0.00010421	525.59	2.1237e-06	3.0918e-06	723.96	155.55	3.3103e-06	3.8275e-06	290.8	114.85	52.845	19.395	4.6833e-06	49.487	0.00044504	0.00049238	0.00013995	499.14	4.4614e-06	5.4291e-06	690.29	148.8	4.5729e-06	5.245e-06	278.73	110.6	51.122	18.846	5.1496e-06	47.97	-44.995	-2.752	23.560	-62.208	67.696	75.130	-62.049	-56.867	118.043	53.486	-57.253	-52.957	-52.935	-48.027	86.550	-49.375	-8191	255	
726.567	1	1	0	0	0.17036	0.012359	0.096301	0.16198	0.024448	0.094955	0.10709	0.13956	0.025812	0.16818	0.15374	0.068706	0.18443	0.028634	0.29695	0.020585	-2.9458	-3.3792	-3.3312	-3.2708	-3.2896	-3.3229	-3.1979	-3.6271	-3.475	-3.2833	-3.6437	-3.2208	-3.3417	-3.5062	-3.0625	-3.6375	32.817	-11.858	80.743	279.575	149.074	-53.560	85.690	155.642	-61.812	154.209	6.045	-0.708	147.432	37.016	243.666	162.127	0.0003606	0.00036896	0.00011359	525.77	5.5618e-06	3.6156e-06	727.72	156.25	6.3544e-06	3.1086e-06	292.14	115.38	53.505	19.679	5.9593e-06	49.575	0.00047228	0.00051647	0.00012995	499.96	4.7951e-06	5.484e-06	693.06	149.48	4.8301e-06	5.2371e-06	279.33	111.22	51.422	18.994	4.8104e-06	48.056	-33.989	23.738	13.723	-62.024	104.342	74.909	-62.115	-56.910	133.004	103.419	-57.566	-52.965	-52.622	-48.517	67.557	-49.149	-8191	255	
726.639	1	1	0	0	0.12106	0.096545	0.19461	0.14994	0.17028	0.25469	0.18632	0.11706	0.0091107	0.16665	0.11594	0.32708	0.13451	0.14563	0.061175	0.2119	-3.1146	-3.2271	-3.5104	-3.2396	-3.2271	-3.4083	-3.1729	-3.5646	-3.3979	-3.2479	-3.6542	-3.4083	-3.3917	-3.4667	-3.0458	-3.5458	117.797	122.968	183.969	-46.655	-53.991	22.938	271.852	92.133	-33.558	-64.848	105.436	234.628	-32.553	224.803	177.659	147.260	0.00036199	0.00042862	9.2571e-05	522.06	1.2518e-06	3.8494e-06	721.84	155.87	1.7559e-06	2.8415e-06	291.18	115.67	53.306	19.646	3.1643e-06	49.497	0.00048048	0.00051403	0.0001259	496.97	5.047e-06	5.4203e-06	689.66	149.18	4.8339e-06	5.3938e-06	279.71	111.42	51.532	18.969	4.7147e-06	47.945	-40.460	7.124	15.372	-62.391	93.065	79.597	-62.304	-56.733	126.089	63.088	-57.138	-53.130	-52.772	-48.435	82.544	-48.870	-8191	255	
726.735	1	1	0	0	0.18128	0.12399	0.2465	0.1462	0.22203	0.06539	0.074246	0.29095	0.24256	0.21641	0.24927	0.21696	0.21828	0.25064	0.12373	0.34032	-2.9083	-3.0938	-3.4854	-3.2354	-3.225	-3.425	-3.3021	-3.4125	-3.4375	-3.1167	-3.4813	-3.2396	-3.3604	-3.6458	-3.125	-3.525	263.499	77.166	97.815	227.900	-12.645	46.671	-6.594	-58.907	102.651	228.352	260.469	271.821	255.281	-52.593	233.368	205.139	0.00032128	0.00037223	9.9008e-05	524.84	6.0376e-06	3.3933e-06	723.39	156.17	3.526e-06	3.3201e-06	292.36	115.86	53.773	19.719	6.4136e-06	50.165	0.00047527	0.00050004	0.00012672	497.63	5.0464e-06	5.3606e-06	691.05	149.7	4.9153e-06	5.3355e-06	280.48	112.1	51.856	19.138	4.902e-06	48.482	-35.668	-10.995	-7.249	-62.303	71.778	79.511	-61.906	-57.046	88.760	68.893	-57.074	-52.842	-52.852	-48.205	92.957	-49.053	-8191	255	
726.856	1	1	0	0	0.14002	0.072216	0.066051	0.16794	0.069078	0.20923	0.19387	0.10604	0.088542	0.2065	0.15389	0.10905	0.18748	0.03634	0.029435	0.021514	-2.9354	-3.1729	-3.3604	-3.2938	-3.05	-3.5792	-3.2271	-3.6479	-3.2896	-3.1667	-3.5312	-3.3854	-3.2625	-3.525	-3.1875	-3.4062	150.310	-10.084	-60.385	279.295	209.383	156.633	232.499	-29.923	-21.869	-23.325	266.032	-71.799	276.293	-57.744	65.149	284.158	0.00039012	0.00037477	0.000114	525.69	3.2611e-06	3.5069e-06	726.63	158.34	2.4981e-06	3.8783e-06	292.52	116.47	53.438	19.938	5.5597e-06	50.263	0.00049949	0.00049788	0.00013159	499.16	5.136e-06	5.2469e-06	692.76	150.52	4.9657e-06	5.1615e-06	280.63	112.34	51.857	19.19	5.135e-06	48.641	-39.175	0.859	15.786	-62.038	72.933	66.954	-62.194	-56.751	120.083	81.736	-57.325	-52.759	-53.004	-48.217	103.197	-49.285	-8191	255	
726.952	1	1	0	0	0.2739	0.12725	0.16167	0.11406	0.2039	0.072504	0.24442	0.15627	0.12994	0.14911	0.16142	0.082759	0.076845	0.13971	0.12622	0.4328	-3.0854	-2.9688	-3.4688	-3.4542	-3.1854	-3.3063	-3.3	-3.4125	-3.4646	-3.2313	-3.4083	-3.3667	-3.15	-3.45	-3.0687	-3.4375	65.871	110.793	222.157	269.161	124.345	129.192	127.010	259.871	68.211	269.517	209.245	-74.356	-54.439	7.385	-7.331	237.604	0.00036599	0.00046965	8.7894e-05	523.09	3.4573e-06	2.8785e-06	727.05	155.9	5.8708e-07	5.1691e-06	290.85	116.13	53.092	19.82	4.8006e-06	50.156	0.00050097	0.00048313	0.00014407	498.19	5.0968e-06	5.8285e-06	693.09	149.57	5.0061e-06	5.5568e-06	279.2	111.79	51.396	19.255	5.8127e-06	48.574	-34.643	33.184	35.321	-62.133	60.552	86.229	-62.281	-56.924	-14.286	65.252	-57.320	-52.991	-52.918	-48.463	77.314	-48.948	-8191	255	
727.048	1	1	0	0	0.071564	0.17408	0.19195	0.15023	0.11604	0.14407	0.16004	0.079204	0.20992	0.032887	0.27707	0.027969	0.13143	0.076472	0.060285	0.13774	-3.0646	-3.0917	-3.4583	-3.3708	-3.2562	-3.5333	-3.3854	-3.5417	-3.5646	-2.9667	-3.3271	-3.2521	-3.1542	-3.5479	-3.3271	-3.3	-31.105	137.430	-29.648	11.840	239.741	212.581	181.308	61.271	-28.859	-41.571	221.484	94.089	-28.094	200.055	275.069	-37.307	0.0003529	0.00027779	9.1264e-05	518.18	5.0911e-06	2.7205e-06	714.02	153.67	4.6967e-06	2.9611e-06	286.82	115.14	52.853	19.71	3.606e-06	49.777	0.0005068	0.00050756	0.00015104	494.42	5.3441e-06	5.7863e-06	682.22	147.32	4.8566e-06	5.5127e-06	275.74	110.57	51.007	19.098	5.5235e-06	48.374	-35.651	-2.999	-1.722	-62.184	59.832	97.223	-62.069	-56.928	97.173	92.818	-57.665	-53.070	-52.888	-48.126	81.273	-49.154	-8191	255	
727.144	1	1	0	0	0.30767	0.23215	0.12925	0.25316	0.25214	0.14998	0.23218	0.10959	0.21037	0.14725	0.19781	0.16918	0.014214	0.19195	0.16923	0.012457	-3.1375	-2.9458	-3.3604	-3.2792	-3.0229	-3.4688	-3.3438	-3.35	-3.5667	-3.0938	-3.3104	-3.475	-3.2896	-3.3208	-3.2958	-3.2313	173.403	-43.258	-1.599	245.734	165.943	166.926	242.334	160.986	31.426	83.602	260.951	-51.574	174.023	209.339	219.253	149.653	0.00033888	0.0003279	7.4604e-05	516.55	5.9271e-06	4.6826e-06	712.96	153.69	4.6445e-06	2.9132e-06	287.14	114.91	53.161	19.642	3.932e-06	49.731	0.00048728	0.00054487	0.00015808	492.76	4.9515e-06	5.6073e-06	682.17	147.12	4.9386e-06	5.8418e-06	275.93	110.48	51.134	19.059	5.6754e-06	48.193	-37.621	7.408	35.256	-62.326	83.177	90.521	-62.209	-57.080	145.112	78.269	-57.339	-52.994	-52.854	-48.061	54.673	-49.389	-8191	255	
727.238	1	1	0	0	0.069101	0.16455	0.18426	0.1823	0.03414	0.20642	0.23057	0.083675	0.17737	0.14767	0.10008	0.041901	0.14233	0.29238	0.1828	0.19232	-3.2313	-3.2604	-3.3604	-3.5479	-2.975	-3.5479	-3.45	-3.1146	-3.4896	-3.1354	-3.3438	-3.4938	-3.1104	-3.4042	-3.425	-2.9396	30.582	95.063	227.177	183.671	129.854	143.407	164.553	-10.980	-56.523	202.084	226.595	55.852	265.099	-68.882	-67.903	265.181	0.00040088	0.00015814	7.1999e-05	516.26	4.3905e-06	2.4901e-06	715.32	153.84	2.8742e-06	3.07e-06	288.14	115.06	53.368	19.617	7.1514e-06	50.291	0.00049949	0.00051842	0.00016029	491.79	4.8023e-06	6.2081e-06	682.19	147.87	4.8806e-06	6.1395e-06	277.81	111.11	51.529	19.123	5.871e-06	48.505	-35.272	20.461	17.315	-62.180	79.198	74.781	-62.330	-56.748	118.864	55.613	-57.295	-52.821	-53.045	-47.966	117.742	-49.078	-8191	255	
727.336	1	1	0	0	0.16573	0.10086	0.16494	0.057428	0.16032	0.095074	0.1565	0.26436	0.14461	0.1514	0.14131	0.24657	0.24593	0.33647	0.13126	0.1653	-2.9958	-3.4104	-3.2167	-3.5646	-3.2375	-3.3875	-3.4938	-3.1854	-3.4729	-3.2583	-3.2792	-3.6833	-3.1479	-3.4229	-3.3896	-3.1417	-65.543	32.449	-62.975	-63.736	232.424	-21.375	167.765	146.170	-12.592	-1.430	158.996	180.492	220.464	-2.377	150.458	-31.823	0.00039806	0.00040321	9.1896e-05	515.59	4.7064e-06	4.3765e-06	718.13	155.79	4.3554e-06	2.6448e-06	290.99	116.56	53.489	19.718	5.3252e-06	49.597	0.00048398	0.00050881	0.00015008	492.94	4.7788e-06	6.0338e-06	686.75	149.31	4.7204e-06	5.7064e-06	280.32	112.27	51.649	19.046	5.1295e-06	48.067	-25.569	20.007	20.749	-62.058	85.950	69.090	-62.226	-56.358	129.631	57.579	-56.914	-52.857	-52.951	-48.210	89.702	-49.203	-8191	255	
727.455	1	1	0	0	0.12173	0.14102	0.1356	0.25675	0.040687	0.22812	0.10468	0.099252	0.21369	0.25835	0.17751	0.098361	0.17351	0.15423	0.1116	0.20921	-2.9896	-3.1896	-3.0917	-3.6604	-3.2125	-3.3833	-3.5604	-3.2104	-3.6333	-3.3063	-3.1875	-3.4604	-3.2271	-3.2271	-3.4021	-3.2938	222.406	283.547	129.786	-3.787	-27.405	38.321	85.463	133.045	222.554	53.598	-31.734	200.679	204.761	20.056	223.500	263.689	0.00035646	0.00046541	0.00012842	516.56	5.2152e-06	3.087e-06	715.91	156.5	3.9259e-06	2.7877e-06	293.2	115.86	53.583	19.598	3.2077e-06	49.887	0.00047434	0.00052294	0.00013488	491.24	4.7343e-06	5.5834e-06	683.9	148.94	4.8257e-06	5.3906e-06	280.9	111.9	51.722	18.965	4.6849e-06	48.262	-34.397	-6.346	23.243	-62.219	70.351	61.391	-62.208	-56.885	77.866	97.311	-57.216	-52.804	-52.910	-48.456	108.578	-49.237	-8191	255	
727.551	1	1	0	0	0.098872	0.14774	0.20889	0.11004	0.10043	0.25711	0.08951	0.29096	0.13916	0.012338	0.041687	0.30617	0.044306	0.3017	0.17642	0.072582	-3.1	-3.0938	-3.0833	-3.5938	-3.0521	-3.2458	-3.6188	-3.1542	-3.4792	-3.4271	-3.0646	-3.5458	-3.3417	-3.2562	-3.5167	-3.2125	50.622	13.126	80.357	9.988	189.254	216.312	243.869	128.738	177.198	143.297	11.948	260.444	-24.207	222.900	0.134	54.033	0.00034869	0.00032849	8.9504e-05	516.98	7.2746e-07	2.3167e-06	718.34	156.64	3.9212e-06	4.6647e-06	296.61	117.86	54.479	20.019	1.0324e-06	50.825	0.00047458	0.00049211	0.00013975	491.42	4.8959e-06	5.6646e-06	686.13	150	4.9348e-06	5.919e-06	283.63	113.69	52.56	19.416	4.6745e-06	49.201	-31.179	15.035	5.301	-61.977	101.269	61.301	-62.176	-56.669	163.072	70.450	-57.430	-52.927	-52.984	-48.270	67.229	-49.296	-8191	255	
727.647	1	1	0	0	0.22496	0.1201	0.047378	0.11746	0.056967	0.2165	0.25949	0.08205	0.22589	0.24021	0.24375	0.21823	0.048099	0.058925	0.081329	0.18534	-2.9437	-3.2042	-3.0812	-3.4083	-3.3688	-3.3167	-3.3688	-3.1146	-3.4437	-3.3688	-3.3187	-3.5125	-3.3854	-3.2313	-3.4917	-3.0333	190.490	38.076	179.152	234.144	77.164	-60.718	-66.689	224.902	-5.229	272.844	-5.337	243.986	141.624	-54.696	166.004	234.111	0.00036331	0.0004958	0.00011619	519.99	3.9531e-06	2.724e-06	726.03	158.04	6.7291e-06	2.4778e-06	297.91	119.5	55.015	20.238	5.5228e-06	51.076	0.00048995	0.00046273	0.00012796	494.38	5.0562e-06	5.5842e-06	691.81	150.94	4.8112e-06	5.0237e-06	286.25	115.11	53.131	19.559	4.7965e-06	49.486	-33.294	11.705	14.544	-62.172	102.628	41.865	-62.117	-57.161	116.109	80.013	-57.406	-53.299	-52.952	-48.568	86.683	-49.256	-8191	255	
727.744	1	1	0	0	0.086912	0.091809	0.081294	0.072781	0.053933	0.1501	0.31694	0.093791	0.15296	0.051578	0.072365	0.084461	0.10351	0.22389	0.077202	0.091939	-2.8979	-3.4958	-3.1729	-3.4146	-3.2292	-3.225	-3.4562	-3.1771	-3.6479	-3.5333	-3.3417	-3.6562	-3.3104	-3.1875	-3.5646	-3.2771	258.668	235.336	-21.324	84.389	235.962	230.896	253.121	207.676	99.072	239.960	267.654	21.291	265.500	-42.354	181.959	174.552	0.000372	0.00042696	0.0001408	520.7	8.3298e-06	3.6791e-06	732.35	159.15	4.0167e-06	4.2531e-06	302.67	120.18	55.615	20.2	3.7434e-06	51.675	0.00048759	0.00045598	0.00013048	495.72	4.9927e-06	5.2715e-06	697	152.68	4.5804e-06	4.7875e-06	289.4	116.19	53.614	19.603	4.603e-06	49.745	-32.614	8.732	4.041	-62.376	89.021	49.034	-62.153	-56.953	111.050	72.489	-57.407	-52.932	-52.798	-48.257	86.098	-49.092	-8191	255	
727.864	1	1	0	0	0.07121	0.12839	0.10043	0.16862	0.1855	0.19146	0.26754	0.14982	0.058438	0.12115	0.23139	0.24957	0.083403	0.30377	0.087143	0.093873	-3.0583	-3.3604	-3.2271	-3.5125	-3.5083	-3.1833	-3.6562	-3.3167	-3.2	-3.6021	-3.1729	-3.5146	-3.4083	-3.2313	-3.4604	-3.5083	-37.233	183.139	212.032	237.376	-2.945	280.264	-33.527	132.341	191.672	39.418	161.965	247.854	174.856	-50.094	254.555	253.388	0.00037001	0.00042098	0.00010988	519.63	4.5126e-06	4.5411e-06	728.94	159.79	2.7803e-06	3.9865e-06	300	119.27	55.672	20.189	5.0877e-06	51.218	0.00046971	0.00043593	0.00012844	494.85	4.5209e-06	4.8379e-06	694.68	153.06	4.6126e-06	4.8135e-06	289.19	115.62	53.571	19.479	4.6731e-06	49.44	-36.414	9.065	47.562	-62.081	102.778	81.462	-61.921	-56.983	120.930	70.751	-57.321	-53.193	-53.059	-48.622	80.006	-49.356	-8191	255	
727.936	1	1	0	0	0.20881	0.032887	0.15881	0.1318	0.085583	0.080939	0.18659	0.072595	0.10768	0.082124	0.18852	0.20286	0.20173	0.16661	0.10659	0.19675	-2.9208	-3.6396	-3.2625	-3.4083	-3.2979	-3.3167	-3.6646	-3.3792	-3.3083	-3.6937	-3.2625	-3.4917	-3.4854	-3.1854	-3.4417	-3.3187	83.051	-47.968	161.952	236.973	26.711	156.189	237.566	194.900	209.571	19.454	48.347	206.869	-40.892	-24.379	118.427	-61.218	0.0003836	0.00045998	9.2793e-05	516.03	5.0682e-06	4.0171e-06	727.41	160.11	1.8065e-06	2.6402e-06	304.56	121.06	55.776	20.409	4.4402e-06	51.585	0.00047146	0.00043106	0.00012966	493.61	4.6047e-06	4.9684e-06	695.11	153.46	4.2803e-06	4.8308e-06	290.5	116.82	53.929	19.698	5.2405e-06	49.91	-33.707	9.005	15.141	-62.047	76.715	71.050	-62.196	-56.933	85.810	43.697	-57.541	-53.130	-52.891	-48.048	88.850	-49.054	-8191	255	
728.057	1	1	0	0	0.080313	0.2655	0.077015	0.13825	0.098767	0.26417	0.061936	0.11728	0.18903	0.038435	0.27693	0.19436	0.26942	0.035971	0.034309	0.16446	-2.6875	-3.6208	-3.2042	-3.4938	-3.6	-3.1375	-3.5542	-3.3271	-3.1125	-3.4354	-3.1813	-3.2125	-3.4542	-3.0604	-3.3583	-3.5771	133.496	252.176	86.272	80.242	55.901	272.878	-47.768	182.068	75.147	80.446	268.469	-24.029	199.860	106.076	180.181	204.494	0.00039306	0.00043984	0.00011311	521.6	5.3765e-06	2.4164e-06	727.84	160.31	6.1923e-06	2.4702e-06	303.17	121.46	56.379	20.546	3.6583e-06	51.821	0.0004469	0.00046447	0.00013455	495.73	4.1944e-06	4.9501e-06	695.23	153.49	4.7173e-06	5.2828e-06	291.07	117.65	54.302	19.916	4.809e-06	50.327	-43.993	17.613	20.805	-62.245	96.461	72.125	-61.867	-56.667	119.535	65.407	-56.916	-52.799	-52.589	-48.183	88.130	-49.122	-8191	255	
728.151	1	1	0	0	0.18898	0.12666	0.14566	0.11207	0.31	0.10929	0.19922	0.32183	0.04911	0.24417	0.15345	0.2304	0.17396	0.24113	0.10641	0.012104	-2.7687	-3.4	-3.3	-3.2917	-3.5375	-3.0438	-3.3854	-3.4854	-3.1188	-3.5229	-3.2646	-3.2396	-3.6625	-3.3521	-3.3979	-3.5292	-44.655	268.295	55.877	279.699	191.897	88.119	248.678	218.957	253.161	-14.527	229.865	22.679	96.917	216.964	-4.510	-55.736	0.00036551	0.00063063	7.5424e-05	521.08	4.6978e-06	4.0259e-06	730.65	160.14	4.1397e-06	3.498e-06	303.68	121.03	55.989	20.176	5.6323e-06	51.219	0.00047791	0.00045612	0.00013169	495.77	4.4594e-06	5.1872e-06	696.32	153.48	4.3862e-06	5.2709e-06	291.13	116.9	53.921	19.547	4.9637e-06	49.62	-40.809	12.268	18.316	-62.100	90.799	83.405	-61.994	-56.521	125.224	58.210	-57.104	-53.123	-52.622	-48.569	100.702	-49.075	-8191	255	
728.247	1	1	0	0	0.13637	0.050116	0.048727	0.34607	0.26785	0.036287	0.37942	0.22061	0.058282	0.10023	0.18008	0.22099	0.18777	0.055806	0.073582	0.077486	-2.7021	-3.4979	-3.4479	-3.2396	-3.4979	-3.3187	-3.4958	-3.5687	-3.0167	-3.3125	-3.1833	-3.3292	-3.5333	-3.2938	-3.3042	-3.5792	146.974	226.786	17.266	171.405	39.246	219.485	161.516	271.509	242.898	265.456	224.839	267.868	246.515	-31.514	113.798	239.383	0.00034532	0.00046732	0.00012267	517.17	3.8372e-06	2.3762e-06	722.64	159.86	1.8966e-06	4.2691e-06	298.96	119.49	55.585	20.132	3.7248e-06	50.492	0.00045479	0.0004731	0.00013216	491.9	4.3848e-06	5.1721e-06	689.64	152.35	4.4972e-06	5.1331e-06	287.15	115.4	53.545	19.416	4.7459e-06	49.019	-37.834	22.285	26.359	-62.318	104.784	83.504	-61.930	-56.844	157.449	85.771	-57.471	-53.071	-52.599	-48.318	88.103	-49.085	-8191	255	
728.343	1	1	0	0	0.045741	0.12221	0.21811	0.23342	0.12067	0.20178	0.26721	0.20501	0.12463	0.077863	0.077945	0.077909	0.25901	0.1917	0.25158	0.16752	-2.6937	-3.2583	-3.3771	-3.25	-3.3667	-3.0438	-3.4021	-3.5729	-3.0833	-3.5104	-3.2854	-3.2542	-3.4292	-3.1646	-3.2875	-3.4854	137.626	177.173	124.021	237.048	137.582	137.454	-54.825	192.128	253.270	6.545	92.963	-24.561	-30.151	-52.022	94.389	223.247	0.00034828	0.00048204	0.0001016	510.59	4.3155e-06	4.3698e-06	724.35	158.86	2.495e-06	4.9655e-06	299.76	120.71	55.994	20.142	4.2355e-06	51.142	0.00045743	0.0004928	0.00012504	488.85	4.5798e-06	4.8713e-06	688.8	152.31	4.1674e-06	4.8473e-06	289.72	116.16	53.896	19.45	4.4026e-06	49.415	-40.419	18.450	30.035	-62.162	79.554	62.842	-62.139	-56.751	137.349	92.580	-57.159	-52.998	-52.517	-48.165	70.595	-49.104	-8191	255	
728.439	1	1	0	0	0.23299	0.048906	0.16646	0.16164	0.092338	0.11344	0.25884	0.20268	0.032392	0.058107	0.061609	0.13787	0.13442	0.20722	0.02569	0.1138	-2.9562	-3.2583	-3.3146	-3.2062	-3.5687	-3.3312	-3.1854	-3.4792	-3.0875	-3.5479	-3.5292	-3.3063	-3.5917	-3.2	-3.275	-3.7062	114.878	267.609	-54.774	214.165	109.991	195.960	205.400	114.849	-61.016	107.226	123.694	215.351	213.812	283.647	60.298	266.311	0.00034353	0.00045549	9.9261e-05	514.64	5.2292e-06	4.4865e-06	720.79	161.3	4.7496e-06	5.0894e-06	304.02	121.48	56.437	20.18	5.7796e-06	51.295	0.00047119	0.00044359	0.00011604	491.48	4.5687e-06	4.8092e-06	691.76	154.2	4.4865e-06	5.2505e-06	290.94	116.83	54.308	19.512	4.3658e-06	49.651	-35.406	-2.429	26.584	-62.363	70.217	93.594	-62.083	-56.878	123.487	80.967	-57.550	-52.873	-52.618	-48.592	92.214	-49.316	-8191	255	
728.536	1	1	0	0	0.082802	0.18218	0.28215	0.14217	0.10838	0.10623	0.099972	0.11722	0.10908	0.098984	0.1484	0.07313	0.30443	0.11956	0.0034143	0.13334	-2.6833	-3.3229	-3.2833	-3.1771	-3.5687	-3.3583	-3.4958	-3.5896	-3.2896	-3.3958	-3.4792	-3.2812	-3.5354	-3.4521	-3.0917	-3.7479	46.572	94.357	-27.857	-40.520	-27.546	-55.364	106.674	169.922	56.157	234.367	-58.006	198.761	-68.770	235.221	209.894	179.437	0.0003871	0.00037151	0.00012654	515.05	4.4933e-06	4.1381e-06	733.22	161.22	4.1034e-06	3.6463e-06	305.81	122.99	57.48	21.024	4.5962e-06	52.598	0.00045801	0.00044853	0.00011624	491.7	4.4895e-06	5.0424e-06	694.86	154.71	4.663e-06	5.0198e-06	293.58	119.02	55.285	20.303	4.6252e-06	50.932	-31.696	13.280	20.956	-61.972	86.649	92.268	-62.202	-56.525	63.147	61.073	-57.208	-53.009	-53.302	-48.698	102.651	-49.402	-8191	255	
728.632	1	1	0	0	0.24874	0.021016	0.17688	0.12819	0.21695	0.082681	0.20158	0.063721	0.13748	0.1844	0.0094089	0.069433	0.1311	0.1298	0.08289	0.15541	-2.8979	-3.2667	-3.5583	-3.3792	-3.3625	-3.4417	-3.3208	-3.6646	-3.2792	-3.2896	-3.5521	-3.2708	-3.3979	-3.4813	-3.1813	-3.5812	125.238	264.459	228.639	261.914	170.916	-19.624	100.974	118.023	252.196	-63.667	167.327	-24.851	-2.612	-20.908	283.952	158.245	0.00033664	0.0004957	0.00010655	516.05	3.4688e-06	2.8849e-06	728.91	160.78	4.1975e-06	3.2778e-06	303.41	123.5	56.986	20.99	5.4029e-06	52.613	0.00047407	0.00044944	0.00012309	491.68	4.8939e-06	4.7758e-06	692.6	154.05	4.856e-06	5.0528e-06	291.63	118.88	55.038	20.256	4.9478e-06	50.849	-34.741	10.491	20.478	-62.159	61.947	80.465	-62.213	-56.388	132.954	74.978	-57.046	-52.877	-52.809	-48.242	77.111	-49.345	-8191	255	
728.728	1	1	0	0	0.041787	0.30377	0.18521	0.22324	0.12912	0.10867	0.20855	0.053168	0.24373	0.28994	0.12832	0.18477	0.2881	0.10326	0.20961	0.097248	-2.9604	-3.3229	-3.5104	-3.3125	-3.4104	-3.4104	-3.0896	-3.6021	-3.2146	-3.3208	-3.5208	-3.3563	-3.3521	-3.4583	-3.1583	-3.4688	-65.079	24.436	174.174	-69.563	266.528	-1.937	264.991	187.779	272.672	221.925	235.989	-68.096	262.320	23.400	49.210	239.124	0.00035789	0.00039506	8.2964e-05	513.42	5.9529e-06	2.3897e-06	724.68	160.59	5.2622e-06	3.6569e-06	302.13	122.82	56.977	20.988	4.9618e-06	52.819	0.00047767	0.00044206	0.00011827	490.6	4.6878e-06	4.8164e-06	691.85	153.52	4.4631e-06	5.078e-06	290.92	118.59	55.037	20.372	4.8631e-06	51.212	-32.322	-1.215	18.906	-61.852	110.636	79.591	-62.124	-56.706	101.241	84.033	-57.836	-53.032	-52.913	-48.349	77.803	-49.278	-8191	255	
728.824	1	1	0	0	0.087957	0.24952	0.24333	0.030778	0.20538	0.20276	0.52854	0.065001	0.19881	0.11237	0.31245	0.1768	0.069126	0.16603	0.058147	0.23125	-2.9771	-3.1562	-3.3208	-3.3438	-3.4021	-3.5125	-3.2208	-3.4292	-3.3146	-3.2812	-3.6125	-3.4146	-3.3979	-3.5896	-3.3063	-3.6063	128.630	206.479	-1.710	184.116	194.574	133.303	236.456	144.096	-4.218	62.735	211.077	102.396	125.947	213.390	48.258	263.603	0.00035544	0.00027416	0.00010163	514.52	5.9164e-06	3.7188e-06	727.55	160.8	5.6377e-06	3.7235e-06	303.16	122.94	57.369	20.869	4.1987e-06	52.771	0.00048234	0.00039549	0.00012835	492.42	4.7873e-06	4.9572e-06	693.82	153.79	4.3932e-06	4.9993e-06	290.64	118.49	55.102	20.241	5.1787e-06	51.08	-30.616	-10.535	25.992	-61.979	74.750	64.625	-62.207	-56.632	101.829	62.419	-57.559	-53.130	-52.561	-48.397	83.371	-49.275	-8191	255	
728.945	1	1	0	0	0.031205	0.093544	0.10838	0.1541	0.066778	0.1118	0.099429	0.087123	0.049634	0.28252	0.13106	0.10281	0.30878	0.32662	0.10603	0.48968	-3.1	-3.2333	-3.5812	-3.375	-3.2354	-3.525	-3.1542	-3.475	-3.4271	-3.0604	-3.6646	-3.3708	-3.0625	-3.4583	-3.2521	-3.5125	229.915	231.285	118.892	-6.042	-29.315	36.982	266.676	103.807	101.684	190.126	-72.199	25.341	227.878	166.191	200.885	250.095	0.00035706	0.00046195	7.4436e-05	519.83	4.3978e-06	3.6577e-06	730.77	161.02	4.2526e-06	3.2746e-06	306.53	123.74	57.52	20.901	6.0657e-06	52.711	0.00046155	0.00042751	0.00013869	495.14	4.3744e-06	4.8212e-06	697.06	154.51	4.1863e-06	5.0709e-06	292.71	118.96	55.282	20.238	5.1905e-06	50.965	-42.884	10.351	48.015	-62.083	78.500	104.689	-62.244	-56.567	154.396	75.782	-57.437	-53.060	-52.902	-48.207	88.765	-49.235	-8191	255	
729.041	1	1	0	0	0.16449	0.2763	0.17767	0.075074	0.27838	0.078822	0.093448	0.12901	0.12297	0.11825	0.22477	0.22507	0.24764	0.24043	0.13149	0.039983	-3.1375	-3.3125	-3.5521	-3.3917	-3.3229	-3.5333	-3.1667	-3.4646	-3.4333	-3.2708	-3.4104	-3.3708	-3.2062	-3.6708	-3.1333	-3.3208	35.569	134.668	14.283	249.082	-19.637	188.704	219.975	71.667	-49.922	-25.381	261.280	252.278	-35.053	-72.454	207.605	208.559	0.00042604	0.00055898	0.00016743	517.53	5.5756e-06	2.7079e-06	726.74	160.02	3.4841e-06	2.5449e-06	298.63	119.99	55.6	20.156	3.2761e-06	51.314	0.000461	0.00050512	0.00013828	493.89	4.4693e-06	5.114e-06	691.73	153.15	4.2841e-06	5.3473e-06	287.55	115.9	53.694	19.568	4.7258e-06	49.481	-36.829	-12.613	11.680	-62.479	121.786	83.086	-62.323	-56.840	136.924	50.987	-57.784	-53.038	-52.742	-48.057	92.794	-48.868	-8191	255	
729.137	1	1	0	0	0.23023	0.21431	0.24409	0.13754	0.16227	0.12306	0.1212	0.29031	0.16032	0.24444	0.34981	0.25052	0.11505	0.34389	0.4266	0.33154	-3.125	-3.1333	-3.5292	-3.4146	-3.2333	-3.5375	-3.4813	-3.3917	-3.3333	-3.1146	-3.4229	-3.5667	-3.0958	-3.5104	-3.2917	-3.2812	105.960	79.742	140.179	-68.630	137.728	36.524	63.411	276.521	142.767	134.517	265.773	262.574	257.597	165.628	69.524	211.184	0.00036464	0.00023501	5.8647e-05	516.83	4.0509e-06	4.4676e-06	720.34	158.6	5.1116e-06	4.4624e-06	296.74	118.47	55.249	19.989	2.2866e-06	50.662	0.00045633	0.00044081	0.00012749	491.73	4.3796e-06	5.2556e-06	687.85	151.58	4.2967e-06	5.2891e-06	285.74	114.72	53.131	19.311	4.8826e-06	48.943	-31.280	-11.890	33.289	-62.440	73.359	63.533	-62.009	-56.559	100.320	60.940	-57.442	-52.836	-52.664	-48.221	106.533	-49.168	-8191	255	
729.231	1	1	0	0	0.11133	0.16109	0.14724	0.16992	0.1774	0.061647	0.2574	0.26194	0.14042	0.31771	0.053626	0.074035	0.13797	0.070911	0.19039	0.28813	-3.1188	-3.2	-3.3146	-3.3896	-3.1875	-3.6542	-3.2417	-3.25	-3.4667	-3.2417	-3.3396	-3.5271	-3.2354	-3.5708	-3.4896	-3.2396	55.296	-58.830	84.790	79.596	218.957	5.467	249.292	-63.323	268.828	131.786	170.247	94.648	-45.710	-36.839	196.984	228.863	0.00038147	0.00051896	0.00011643	515.86	2.9949e-06	3.8161e-06	721.95	157.81	3.4916e-06	2.6203e-06	297.08	117.96	54.287	19.623	5.1865e-06	50.009	0.00044566	0.00044728	0.00012887	491.17	4.5438e-06	5.2755e-06	688.66	151.37	4.2891e-06	4.8095e-06	285.03	113.62	52.41	18.955	4.3901e-06	48.288	-36.711	8.672	17.861	-61.870	107.492	66.682	-62.189	-56.490	137.990	42.055	-57.616	-53.127	-52.789	-47.762	88.790	-49.072	-8191	255	
729.328	1	1	0	0	0.060831	0.31837	0.10993	0.10645	0.11864	0.14873	0.17983	0.24276	0.12317	0.22602	0.33513	0.34308	0.15782	0.23761	0.06091	0.042429	-3.0812	-3.0521	-3.1479	-3.4396	-3.1521	-3.3667	-3.3417	-3.2708	-3.4167	-3.1021	-3.3979	-3.4708	-3.0687	-3.3583	-3.4354	-3.4188	36.804	129.788	25.752	-1.202	70.889	107.742	237.334	-72.109	-19.785	229.793	176.061	226.636	-66.335	275.077	6.203	116.288	0.00035561	0.00034872	9.5836e-05	517.57	4.0435e-06	2.941e-06	723.88	157.79	4.6987e-06	2.689e-06	295.51	117.63	54.463	19.538	5.6889e-06	49.559	0.00045026	0.00049023	0.00012043	493.05	4.5438e-06	5.2628e-06	690.4	151.19	4.2954e-06	4.8355e-06	284.32	113.4	52.284	18.881	4.2728e-06	48.185	-37.275	4.584	20.102	-61.847	110.901	76.656	-62.268	-56.886	147.147	88.773	-57.243	-52.875	-52.676	-48.012	89.238	-49.277	-8191	255	
729.424	1	1	0	0	0.12925	0.12905	0.35586	0.31205	0.29874	0.26231	0.074199	0.039533	0.12996	0.080177	0.17689	0.014133	0.13411	0.2189	0.12364	0.11589	-3.1729	-3.2896	-3.2583	-3.5687	-3.1417	-3.3667	-3.4542	-3.1	-3.4229	-3.4167	-3.2375	-3.5854	-3.2687	-3.4125	-3.2271	-3.2083	192.562	27.076	130.606	218.269	169.093	-5.019	99.028	124.890	208.825	275.582	164.898	235.073	234.887	28.104	-69.218	246.210	0.00032798	0.00026781	9.0712e-05	518.2	2.7163e-06	2.7785e-06	720.17	155.37	9.0517e-07	3.2998e-06	289.98	115	52.862	19.192	3.6178e-06	49.087	0.00046546	0.00043788	0.00012131	491.75	4.3711e-06	5.0527e-06	686.41	149.22	4.53e-06	4.6654e-06	279.54	110.92	51.065	18.614	4.1327e-06	47.406	-39.128	8.025	33.682	-62.097	75.677	85.398	-62.205	-56.773	218.178	71.531	-57.108	-52.936	-52.964	-48.154	87.813	-49.325	-8191	255	
729.544	1	1	0	0	0.1003	0.18411	0.13988	0.12572	0.080212	0.13082	0.13771	0.15815	0.12866	0.12635	0.22621	0.19283	0.24171	0.142	0.13131	0.13288	-3.2042	-3.1937	-3.2771	-3.6417	-3.3229	-3.6646	-3.4708	-3.2646	-3.6167	-3.1208	-3.2625	-3.5896	-3.3083	-3.4042	-3.3854	-3.2271	184.516	246.276	17.664	-51.573	-15.705	11.395	199.797	188.995	113.409	97.894	203.352	245.523	62.955	-49.406	61.921	221.108	0.00031784	0.00034759	9.2976e-05	511.25	5.478e-06	3.8519e-06	712.37	153.6	3.0293e-06	8.4929e-07	285.56	114.96	53.123	20.014	4.1043e-06	50.776	0.0004482	0.00043343	0.00011949	488.75	4.4967e-06	4.7424e-06	680.65	147.05	4.4764e-06	4.5961e-06	275.6	111.43	51.272	19.297	4.5219e-06	49.085	-31.647	9.321	26.723	-62.016	98.134	82.484	-61.989	-56.982	67.108	11.990	-57.700	-52.774	-52.976	-48.091	66.736	-49.083	-8191	255	
729.640	1	1	0	0	0.058535	0.074059	0.10906	0.11446	0.095444	0.09685	0.10732	0.18482	0.17672	0.24246	0.17629	0.14691	0.25073	0.17666	0.098612	0.073614	-3.1333	-3.2708	-3.1625	-3.45	-3.0375	-3.35	-3.5812	-3.1813	-3.4208	-3.4313	-3.1813	-3.5708	-3.3583	-3.1708	-3.5854	-3.2875	49.472	27.609	-61.462	168.371	-23.953	-36.094	161.919	-18.364	52.295	129.122	283.482	167.548	224.431	-16.231	172.046	233.509	0.00037521	0.00033879	7.696e-05	514.61	4.5533e-06	3.3033e-06	719.3	154.15	1.8778e-06	4.2677e-06	289.2	115.62	52.933	19.819	3.1544e-06	50.159	0.00046354	0.00044575	0.00012412	491.96	4.7434e-06	4.6159e-06	685.92	147.45	4.4272e-06	4.515e-06	276.5	111.13	51.084	19.184	4.3998e-06	48.652	-29.388	4.225	1.192	-62.126	87.102	77.821	-62.366	-57.334	171.621	72.113	-57.322	-52.742	-52.764	-48.375	74.001	-49.149	-8191	255	
729.737	1	1	0	0	0.080117	0.22895	0.09687	0.20319	0.37736	0.31704	0.03451	0.057465	0.25317	0.088585	0.092905	0.089537	0.213	0.14677	0.078341	0.22067	-3.1188	-3.4313	-3.0833	-3.6562	-3.3083	-3.2875	-3.5687	-3.1729	-3.4833	-3.5167	-3.1646	-3.5042	-3.1688	-3.2333	-3.4625	-3.1229	119.498	-55.059	-35.669	208.645	17.184	-26.837	7.445	163.725	204.578	90.772	196.432	92.954	208.409	200.464	187.723	-44.104	0.00034069	0.00047418	6.9746e-05	515.22	4.2785e-06	3.5551e-06	723.58	154.84	4.2834e-06	2.5005e-06	288.97	114.33	52.589	19.304	4.836e-06	49.394	0.00043688	0.00043078	0.00011913	493.68	4.343e-06	4.7058e-06	688.17	147.77	4.3068e-06	4.6292e-06	276.35	110.05	50.677	18.766	4.8229e-06	47.827	-34.080	3.174	25.306	-62.245	102.439	51.076	-62.121	-56.632	117.766	85.576	-57.771	-52.814	-53.098	-48.495	93.655	-49.107	-8191	255	
729.833	1	1	0	0	0.12914	0.16404	0.044648	0.10077	0.083512	0.12208	0.20236	0.11315	0.24673	0.09468	0.086333	0.091964	0.26573	0.17232	0.048162	0.35157	-2.8104	-3.2854	-3.1229	-3.45	-3.375	-3.1125	-3.5187	-3.2417	-3.3229	-3.5125	-3.2458	-3.6437	-3.3688	-3.0812	-3.6271	-3.3104	-40.900	199.775	229.768	276.875	116.066	136.454	255.544	-60.640	232.427	182.969	177.176	180.242	280.319	8.692	236.304	199.587	0.00033088	0.00039653	0.00013496	519.71	5.9511e-06	9.8627e-07	720.09	153.56	5.4338e-06	2.9891e-06	284.55	112.7	52.417	19.286	3.5039e-06	49.015	0.00044597	0.00043037	0.00013836	495.54	4.1401e-06	4.888e-06	686.66	147.23	4.1088e-06	4.8079e-06	273.5	108.9	50.392	18.659	4.8833e-06	47.436	-37.686	3.193	31.021	-62.241	87.514	-30.969	-62.183	-56.940	123.974	103.331	-57.372	-52.918	-52.731	-48.203	96.186	-49.197	-8191	255	
#DATA ENDS
