BOXY.EXE: ISS Imagent and Oximeter Data Acquisition Program Version 0.80
Ascii Record File

#ACQ INFORMATION
2  Detector Channels 
16  External MUX Channels 
1  Auxiliary Channels 
5000  Waveform (CCF) Frequency (Hz)
1  Waveforms Skipped 
30  Waveforms Averaged 
1  Cycles Averaged 
16  Acquisitions per Waveform 
10.0806  Updata Rate (Hz) 

#FILE INFORMATION
TRUE -- External MUX Channel results are PARSED.
FALSE -- AC DC and Phase are NOT grouped.
TRUE -- Companion Program Settings File CREATED.
FALSE -- AC data not excluded
FALSE -- DC data not excluded
FALSE -- Phase data not excluded
FALSE -- Auxillary Chn. data not excluded
Tab delimiters

#CALIBRATION STATE
TRUE -- Waveform Calibration Values APPLIED.


#AUX CALIBRATION VALUES
Val Type	aux-1	

Term	1.0000e+00	
Factor	0.0000e+00	


#WF CALIBRATION VALUES
A = Detector Channel
Val Type	A-AC1	A-AC2	A-AC3	A-AC4	A-AC5	A-AC6	A-AC7	A-AC8	A-AC9	A-AC10	A-AC11	A-AC12	A-AC13	A-AC14	A-AC15	A-AC16	A-DC1	A-DC2	A-DC3	A-DC4	A-DC5	A-DC6	A-DC7	A-DC8	A-DC9	A-DC10	A-DC11	A-DC12	A-DC13	A-DC14	A-DC15	A-DC16	A-Ph1	A-Ph2	A-Ph3	A-Ph4	A-Ph5	A-Ph6	A-Ph7	A-Ph8	A-Ph9	A-Ph10	A-Ph11	A-Ph12	A-Ph13	A-Ph14	A-Ph15	A-Ph16	

Term	0.00000e+00	0.00000e+00	0.00000e+00	0.00000e+00	0.00000e+00	0.00000e+00	0.00000e+00	0.00000e+00	0.00000e+00	0.00000e+00	0.00000e+00	0.00000e+00	0.00000e+00	0.00000e+00	0.00000e+00	0.00000e+00	0.00000e+00	0.00000e+00	0.00000e+00	0.00000e+00	0.00000e+00	0.00000e+00	0.00000e+00	0.00000e+00	0.00000e+00	0.00000e+00	0.00000e+00	0.00000e+00	0.00000e+00	0.00000e+00	0.00000e+00	0.00000e+00	0.00000e+00	0.00000e+00	0.00000e+00	0.00000e+00	0.00000e+00	0.00000e+00	0.00000e+00	0.00000e+00	0.00000e+00	0.00000e+00	0.00000e+00	0.00000e+00	0.00000e+00	0.00000e+00	0.00000e+00	0.00000e+00	
Factor	1.00000e+00	1.00000e+00	1.00000e+00	1.00000e+00	1.00000e+00	1.00000e+00	1.00000e+00	1.00000e+00	1.00000e+00	1.00000e+00	1.00000e+00	1.00000e+00	1.00000e+00	1.00000e+00	1.00000e+00	1.00000e+00	1.00000e+00	1.00000e+00	1.00000e+00	1.00000e+00	1.00000e+00	1.00000e+00	1.00000e+00	1.00000e+00	1.00000e+00	1.00000e+00	1.00000e+00	1.00000e+00	1.00000e+00	1.00000e+00	1.00000e+00	1.00000e+00	X	X	X	X	X	X	X	X	X	X	X	X	X	X	X	X	

B = Detector Channel
Val Type	B-AC1	B-AC2	B-AC3	B-AC4	B-AC5	B-AC6	B-AC7	B-AC8	B-AC9	B-AC10	B-AC11	B-AC12	B-AC13	B-AC14	B-AC15	B-AC16	B-DC1	B-DC2	B-DC3	B-DC4	B-DC5	B-DC6	B-DC7	B-DC8	B-DC9	B-DC10	B-DC11	B-DC12	B-DC13	B-DC14	B-DC15	B-DC16	B-Ph1	B-Ph2	B-Ph3	B-Ph4	B-Ph5	B-Ph6	B-Ph7	B-Ph8	B-Ph9	B-Ph10	B-Ph11	B-Ph12	B-Ph13	B-Ph14	B-Ph15	B-Ph16	

Term	0.00000e+00	0.00000e+00	0.00000e+00	0.00000e+00	0.00000e+00	0.00000e+00	0.00000e+00	0.00000e+00	0.00000e+00	0.00000e+00	0.00000e+00	0.00000e+00	0.00000e+00	0.00000e+00	0.00000e+00	0.00000e+00	0.00000e+00	0.00000e+00	0.00000e+00	0.00000e+00	0.00000e+00	0.00000e+00	0.00000e+00	0.00000e+00	0.00000e+00	0.00000e+00	0.00000e+00	0.00000e+00	0.00000e+00	0.00000e+00	0.00000e+00	0.00000e+00	2.75725e+01	-1.31108e+02	-1.23548e+02	-1.82912e+02	-5.41566e+01	-6.84967e+01	-1.56913e+02	-1.62015e+02	-1.69110e+01	-6.90769e+01	-1.71915e+02	-1.70337e+02	-1.80602e+02	-1.76910e+02	-5.41290e+01	-1.49881e+02	
Factor	3.81789e-05	1.74656e-04	4.40913e-05	1.54476e-01	2.40339e-06	1.68123e-06	1.67599e-01	4.70291e-02	2.64378e-06	1.71266e-06	1.45221e-01	2.55112e-02	2.28348e-02	7.80503e-03	2.52045e-06	1.14423e-02	1.64678e-05	3.34103e-05	9.38836e-06	7.76069e-02	3.14091e-07	3.81937e-07	7.88202e-02	2.36533e-02	3.02672e-07	3.77959e-07	7.06724e-02	1.24816e-02	1.15660e-02	3.96858e-03	3.32949e-07	5.62954e-03	X	X	X	X	X	X	X	X	X	X	X	X	X	X	X	X	



#DISTANCE SETTINGS
A = Detector Channel
A-1	A-2	A-3	A-4	A-5	A-6	A-7	A-8	A-9	A-10	A-11	A-12	A-13	A-14	A-15	A-16	

2.5000e+00	3.0000e+00	2.5000e+00	3.0000e+00	2.0000e+00	3.0000e+00	1.5000e+00	3.0000e+00	3.0000e+00	3.0000e+00	3.0000e+00	3.0000e+00	3.0000e+00	3.0000e+00	1.5000e+00	3.0000e+00	

B = Detector Channel
B-1	B-2	B-3	B-4	B-5	B-6	B-7	B-8	B-9	B-10	B-11	B-12	B-13	B-14	B-15	B-16	

1.0000e+01	1.0000e+01	1.0000e+01	1.4400e+00	1.0000e+01	1.0000e+01	1.5100e+00	1.9400e+00	1.0000e+01	1.0000e+01	1.9900e+00	2.4900e+00	2.4100e+00	2.9000e+00	1.0000e+01	2.9800e+00	




#DATA BEGINS
time	group	step	mark	flag	A-AC1	A-AC2	A-AC3	A-AC4	A-AC5	A-AC6	A-AC7	A-AC8	A-AC9	A-AC10	A-AC11	A-AC12	A-AC13	A-AC14	A-AC15	A-AC16	A-DC1	A-DC2	A-DC3	A-DC4	A-DC5	A-DC6	A-DC7	A-DC8	A-DC9	A-DC10	A-DC11	A-DC12	A-DC13	A-DC14	A-DC15	A-DC16	A-Ph1	A-Ph2	A-Ph3	A-Ph4	A-Ph5	A-Ph6	A-Ph7	A-Ph8	A-Ph9	A-Ph10	A-Ph11	A-Ph12	A-Ph13	A-Ph14	A-Ph15	A-Ph16	B-AC1	B-AC2	B-AC3	B-AC4	B-AC5	B-AC6	B-AC7	B-AC8	B-AC9	B-AC10	B-AC11	B-AC12	B-AC13	B-AC14	B-AC15	B-AC16	B-DC1	B-DC2	B-DC3	B-DC4	B-DC5	B-DC6	B-DC7	B-DC8	B-DC9	B-DC10	B-DC11	B-DC12	B-DC13	B-DC14	B-DC15	B-DC16	B-Ph1	B-Ph2	B-Ph3	B-Ph4	B-Ph5	B-Ph6	B-Ph7	B-Ph8	B-Ph9	B-Ph10	B-Ph11	B-Ph12	B-Ph13	B-Ph14	B-Ph15	B-Ph16	aux-1	digaux	

490.349	1	1	0	256	0.20278	0.22526	0.20508	0.092261	0.054466	0.32331	0.29134	0.3542	0.29012	0.053676	0.27609	0.18886	0.11315	0.37207	0.22296	0.16263	-3.2292	-3.8604	-3.6271	-3.7167	-3.8812	-3.6208	-3.8688	-4.0729	-3.6292	-3.8104	-3.8375	-3.7062	-3.9646	-3.7417	-3.7104	-4.1167	294.484	445.393	175.141	463.769	218.237	289.271	455.472	432.132	293.432	258.257	482.189	435.023	196.720	471.869	446.826	361.772	0.0014132	0.00039204	0.00012664	1378.8	9.4438e-06	6.0834e-06	1380.1	370.96	1.3161e-05	2.5087e-06	418.3	138.33	120.58	40.921	7.6291e-06	50.29	0.0010755	0.0012736	0.00036515	1410.4	1.3345e-05	1.4736e-05	1404.9	379.41	1.2878e-05	1.4407e-05	432.23	142.38	123.83	42.437	1.3925e-05	52.346	344.862	237.972	232.408	157.040	286.094	281.477	157.086	161.512	323.244	284.751	161.147	165.468	166.165	170.896	292.064	169.737	-8191	255	
490.445	1	1	0	0	0.086522	0.17293	0.1326	0.19715	0.23382	0.056344	0.41122	0.073126	0.18881	0.11029	0.21813	0.14905	0.1789	0.20106	0.12377	0.087696	-3.1354	-3.8021	-3.7604	-3.7208	-3.9917	-3.6479	-3.8063	-4.0479	-3.6875	-3.7375	-3.8688	-3.775	-4.0437	-3.75	-3.6625	-4.0729	332.077	155.272	209.976	454.599	201.716	390.428	439.763	346.728	256.717	255.231	417.512	457.806	468.017	404.391	406.586	230.275	0.0013873	0.00060176	0.00013968	1378.1	8.997e-06	6.7436e-06	1377.5	368.82	1.6689e-05	3.925e-06	419.16	138.59	120.47	40.739	9.0506e-06	50.193	0.0010903	0.0013357	0.00037692	1412.4	1.3855e-05	1.5033e-05	1404.5	378.01	1.353e-05	1.4936e-05	431.96	142.03	123.55	42.33	1.3705e-05	52.33	346.573	225.328	240.438	157.242	290.481	287.175	156.781	161.455	327.782	290.377	161.274	165.678	166.076	170.899	311.460	169.971	-8191	255	
490.541	1	1	0	0	0.024118	0.092126	0.273	0.23014	0.10827	0.052978	0.049901	0.19858	0.087757	0.14632	0.17463	0.1965	0.14976	0.2618	0.16893	0.27451	-3.1646	-4.0062	-3.7833	-3.7125	-3.85	-3.7313	-4.0854	-4.0583	-3.7583	-3.8354	-3.8146	-3.5938	-4.0687	-3.8667	-3.5667	-3.9958	461.785	293.800	367.396	483.547	439.072	487.496	445.978	443.944	331.146	285.646	229.133	185.730	372.636	184.102	393.934	451.495	0.001393	0.00041959	0.00020067	1375.4	1.3657e-05	3.2306e-06	1378.4	368.55	1.3462e-05	6.2323e-06	417.28	138.17	120.85	40.782	7.8898e-06	50.543	0.0010885	0.00134	0.00037395	1410.2	1.3686e-05	1.5083e-05	1405.6	378.43	1.2428e-05	1.5132e-05	432.26	142.09	123.67	42.348	1.3738e-05	52.376	346.563	210.860	246.862	157.197	296.267	295.033	156.805	161.768	326.278	285.920	161.122	165.594	166.126	170.826	301.754	169.828	-8191	255	
490.662	1	1	0	0	0.18487	0.094874	0.18111	0.21262	0.16389	0.067646	0.21385	0.31601	0.11236	0.24089	0.11618	0.28565	0.23445	0.093614	0.22514	0.31131	-3.1437	-3.7354	-3.8458	-3.6083	-3.7812	-3.8438	-3.9208	-4.0125	-3.5646	-3.7542	-3.9708	-3.7	-3.9521	-3.8937	-3.6521	-4.0167	457.475	291.200	158.025	156.437	305.750	152.373	376.942	463.399	491.209	485.523	251.991	453.503	397.652	471.314	409.331	428.419	0.0013704	0.00063304	0.00013871	1378.4	8.867e-06	4.7594e-06	1376.9	369.4	1.5474e-05	6.8645e-06	419.41	138.19	121.16	40.845	9.5005e-06	50.448	0.0010928	0.0013503	0.0003823	1412.1	1.3514e-05	1.5153e-05	1405.2	378.75	1.3034e-05	1.4889e-05	433.17	142.2	124.01	42.475	1.3855e-05	52.392	343.960	225.736	232.789	157.080	299.967	311.854	156.777	161.667	310.524	272.454	161.294	165.590	166.008	170.967	275.554	169.950	-8191	255	
490.758	1	1	0	0	0.071408	0.081719	0.23128	0.2183	0.29291	0.25023	0.19492	0.16114	0.20629	0.17048	0.077754	0.088908	0.15918	0.21633	0.1971	0.42923	-3.0604	-3.6667	-3.9229	-3.7271	-3.9417	-3.7021	-3.6917	-4.0458	-3.6125	-3.6312	-3.9146	-3.6625	-3.8417	-3.9875	-3.5	-3.9042	348.815	268.458	461.661	430.886	190.776	480.344	432.014	412.611	440.058	223.982	344.290	241.230	453.886	452.794	415.720	438.234	0.0014032	0.00037792	0.00012784	1382.1	7.2667e-06	6.0617e-06	1372.8	369.57	1.5246e-05	3.8436e-06	419.33	138.28	121.36	41.08	9.7944e-06	50.601	0.0010605	0.0013387	0.00036126	1414.1	1.2957e-05	1.4609e-05	1405.7	379.16	1.2741e-05	1.4362e-05	433	142.49	124.27	42.544	1.3546e-05	52.545	342.791	266.818	252.372	157.195	307.670	291.365	156.858	161.813	319.813	303.023	161.058	165.658	166.092	170.909	300.424	169.956	-8191	255	
490.854	1	1	0	0	0.10891	0.19431	0.21699	0.2916	0.2521	0.066955	0.17038	0.38435	0.061299	0.10528	0.14996	0.14972	0.082171	0.081839	0.12029	0.0705	-3.2917	-3.6646	-3.9917	-3.9458	-3.75	-3.9188	-3.6125	-3.9188	-3.7562	-3.6354	-4.0375	-3.7479	-3.8021	-3.8833	-3.4771	-4.0979	306.264	326.975	402.750	465.252	317.426	451.478	391.159	421.015	261.038	196.278	209.621	463.766	456.915	194.101	475.152	369.291	0.0014113	0.00058636	0.00016051	1379.9	1.1312e-05	5.3504e-06	1376	369.09	1.4907e-05	2.3988e-06	419.32	136.91	119.67	40.561	9.2897e-06	50.192	0.0010944	0.0013682	0.00037391	1414.2	1.3999e-05	1.616e-05	1404.7	377.87	1.3592e-05	1.539e-05	431.25	141.21	123	42.118	1.4381e-05	52.038	346.198	248.964	235.042	157.169	301.606	276.091	156.774	161.792	322.162	343.081	161.322	165.788	165.988	170.697	295.568	169.664	-8191	255	
490.950	1	1	0	0	0.060289	0.094406	0.12719	0.12971	0.11975	0.11907	0.24755	0.16389	0.29946	0.12031	0.077889	0.20079	0.092913	0.26992	0.03149	0.19906	-3.3354	-3.6458	-3.8292	-3.8646	-3.7104	-3.8458	-3.575	-3.9646	-3.8937	-3.3187	-4.0042	-3.7	-3.7708	-4.0729	-3.4792	-3.9167	208.152	208.286	152.471	244.746	256.276	286.970	432.590	350.246	317.253	313.509	149.623	446.266	421.564	474.813	311.846	328.352	0.0013346	0.00049562	0.00016671	1381.8	7.8506e-06	3.5737e-06	1375.7	367.81	1.182e-05	6.2375e-06	420.01	137.17	120.14	40.691	8.3233e-06	50.219	0.0011298	0.0014285	0.00039216	1413.6	1.4063e-05	1.5958e-05	1404.7	377.32	1.3584e-05	1.5822e-05	432.45	141.57	123.37	42.294	1.4168e-05	52.324	343.329	221.726	240.614	157.064	284.357	297.947	156.930	161.769	318.193	286.494	161.201	165.786	166.054	171.113	275.781	169.807	-8191	255	
491.046	1	1	0	0	0.1099	0.047659	0.24093	0.40261	0.12981	0.27321	0.25192	0.32594	0.068084	0.36006	0.046697	0.22971	0.10969	0.35091	0.13562	0.10893	-3.4729	-3.5958	-3.7896	-3.8021	-3.7896	-4.0146	-3.7729	-4.0062	-3.8958	-3.5417	-3.9083	-3.9833	-3.725	-4.1312	-3.625	-3.8563	482.880	306.615	229.967	480.393	283.309	223.773	491.719	474.863	365.768	173.498	385.236	443.483	172.886	441.709	485.874	395.135	0.0014079	0.00046867	0.00015097	1378.6	9.2547e-06	4.954e-06	1377.7	368.81	1.4791e-05	4.5794e-06	419.63	138.37	120.59	40.809	1.0818e-05	50.499	0.001125	0.0013709	0.00037706	1412.8	1.4071e-05	1.5512e-05	1408.4	378.84	1.3429e-05	1.5037e-05	432.94	142.37	123.91	42.435	1.4397e-05	52.402	344.999	247.672	232.255	157.156	296.171	277.022	156.809	161.862	325.034	247.619	161.252	165.745	166.178	170.958	300.749	169.657	-8191	255	
491.142	1	1	0	0	0.28501	0.31617	0.097881	0.14551	0.22807	0.22782	0.083624	0.097692	0.09382	0.094709	0.18438	0.24272	0.13421	0.11613	0.2197	0.082935	-3.325	-3.4729	-3.7979	-3.7292	-3.5417	-3.9479	-3.8042	-3.9813	-3.8021	-3.6	-3.9688	-3.8729	-3.7021	-3.9542	-3.5646	-3.8083	227.374	200.958	501.871	410.930	353.905	219.722	431.600	479.634	464.323	399.047	433.542	472.836	311.882	224.553	477.249	264.601	0.0014001	0.00066777	9.6642e-05	1379.1	9.4839e-06	4.9699e-06	1382.6	369.36	1.2571e-05	3.7801e-06	421.8	138.32	120.69	41.023	1.163e-05	50.41	0.0011201	0.0013663	0.00038919	1414.9	1.3927e-05	1.5258e-05	1407.7	378.88	1.3568e-05	1.528e-05	434.07	142.44	123.91	42.45	1.4284e-05	52.465	344.958	224.390	242.783	157.239	285.393	285.011	156.864	161.687	348.291	270.136	161.386	165.590	166.006	170.823	301.758	169.904	-8191	255	
491.239	1	1	0	0	0.21207	0.16239	0.053604	0.096164	0.11051	0.13099	0.30467	0.291	0.094948	0.020176	0.26771	0.1333	0.15615	0.33426	0.22964	0.092229	-3.4771	-3.4521	-3.8708	-3.8083	-3.6292	-3.9958	-3.9667	-3.9875	-3.9875	-3.6583	-3.9667	-4	-3.6771	-3.8854	-3.6146	-3.9	275.818	337.239	252.060	167.176	499.712	324.666	491.985	488.853	450.609	179.200	432.442	410.340	214.453	453.709	303.804	338.734	0.0013622	0.0004665	0.00012734	1383.1	9.0016e-06	4.0303e-06	1380.9	369.78	1.4035e-05	6.0981e-06	421.23	138.72	121.16	40.763	9.6026e-06	50.487	0.0011069	0.0013897	0.00037866	1418.8	1.3539e-05	1.5332e-05	1411.1	379.38	1.3433e-05	1.5114e-05	434.33	142.48	124.11	42.428	1.3962e-05	52.49	342.476	234.402	228.723	157.080	282.521	288.898	156.807	161.954	329.454	291.790	160.994	165.692	165.999	171.075	299.608	169.850	-8191	255	
491.357	1	1	0	0	0.27158	0.12091	0.049893	0.30036	0.073257	0.09221	0.2249	0.26416	0.17783	0.13329	0.10127	0.21086	0.099107	0.36937	0.076945	0.18169	-3.7	-3.5062	-3.8646	-3.9521	-3.5896	-3.85	-4.075	-3.8979	-3.9042	-3.6083	-3.8438	-3.7854	-3.6896	-4.0271	-3.7479	-3.825	150.751	296.035	261.675	477.466	157.542	499.062	449.592	479.175	310.909	423.952	214.626	468.329	189.610	429.792	200.549	374.871	0.0013319	0.00059746	0.00016075	1383.3	8.7694e-06	6.2866e-06	1381.1	370.56	1.3335e-05	5.614e-06	418.07	138.78	121.09	41.01	9.0855e-06	50.608	0.0011143	0.0013061	0.00037915	1417.8	1.3582e-05	1.5343e-05	1411.8	380.19	1.3211e-05	1.5119e-05	434.14	142.93	124.25	42.599	1.4023e-05	52.547	344.687	243.071	245.506	157.114	293.281	299.679	156.977	161.840	318.610	287.249	161.113	165.525	165.858	170.971	286.204	169.852	-8191	255	
491.454	1	1	0	0	0.16144	0.13754	0.20031	0.35098	0.11108	0.16648	0.082115	0.17671	0.13727	0.14015	0.17243	0.33883	0.22962	0.16873	0.097033	0.18807	-3.5458	-3.7229	-3.7521	-3.8958	-3.5271	-3.9771	-3.9604	-3.75	-3.9833	-3.9292	-3.775	-3.9875	-3.7667	-4.1604	-3.7583	-3.7583	216.222	294.838	250.421	427.631	281.637	464.168	443.856	409.936	171.568	377.544	415.267	380.415	452.135	268.635	431.389	398.256	0.0014057	0.00047222	0.00013698	1386	1.1879e-05	5.0956e-06	1383.9	371.23	1.6052e-05	3.765e-06	421.44	138.8	121.3	41.036	1.1257e-05	50.676	0.0011057	0.0013495	0.00039771	1419.9	1.3613e-05	1.5015e-05	1412.6	380.26	1.3303e-05	1.5229e-05	434.79	142.76	124.52	42.645	1.4103e-05	52.693	345.546	213.094	217.766	157.201	285.499	311.252	156.794	161.813	321.981	291.781	161.073	165.674	166.047	170.911	306.708	169.817	-8191	255	
491.550	1	1	0	0	0.16843	0.14396	0.11852	0.038514	0.12404	0.13845	0.34933	0.47351	0.047905	0.12697	0.28192	0.26247	0.21643	0.26537	0.2207	0.134	-3.6333	-3.5583	-3.8187	-4.1458	-3.6792	-3.8292	-3.9333	-3.7438	-3.9396	-3.9229	-3.8042	-4.1146	-3.8167	-4.0042	-3.7792	-3.65	157.434	215.679	479.360	388.221	239.210	256.840	443.822	478.689	225.868	211.170	429.791	420.334	159.852	152.486	152.467	461.085	0.00136	0.00062687	0.00010865	1387.5	7.7876e-06	4.6901e-06	1383.1	372.26	1.2232e-05	3.0771e-06	422.39	139.14	121.26	41.148	9.6981e-06	50.588	0.0010953	0.0013475	0.0003823	1421.2	1.3227e-05	1.5287e-05	1413.8	381.41	1.2736e-05	1.54e-05	436.06	143.3	124.6	42.69	1.3964e-05	52.704	343.359	231.605	236.355	157.092	296.179	280.129	156.812	161.663	318.412	270.872	161.267	165.643	165.876	170.889	289.163	169.852	-8191	255	
491.623	1	1	0	0	0.23306	0.053642	0.12592	0.070187	0.16526	0.11691	0.18374	0.1903	0.066256	0.16142	0.27159	0.2131	0.23071	0.31505	0.1315	0.070059	-3.5292	-3.7771	-3.5438	-4.0083	-3.5812	-3.7583	-4.0708	-3.7354	-4.0625	-3.9083	-3.6437	-4.1479	-3.6167	-3.7771	-3.9	-3.6437	243.683	144.070	335.269	185.875	301.809	361.569	439.468	456.829	224.216	191.838	165.906	449.501	435.503	429.803	287.147	413.358	0.0013893	0.00076667	0.00013634	1387.2	8.8787e-06	3.9802e-06	1385.8	373.1	1.4434e-05	6.8717e-06	422.94	139.55	121.41	41.052	7.7459e-06	50.692	0.001105	0.0013553	0.00038547	1424.2	1.3821e-05	1.5418e-05	1417.8	381.98	1.338e-05	1.574e-05	436.18	143.5	124.64	42.694	1.427e-05	52.729	342.884	232.695	234.987	157.116	295.530	272.679	156.628	161.594	326.332	294.171	161.476	165.605	166.086	170.841	321.151	169.644	-8191	255	
491.742	1	1	0	0	0.22041	0.077199	0.29328	0.26924	0.13129	0.10923	0.11665	0.20667	0.21401	0.22434	0.089483	0.081724	0.1109	0.35011	0.23293	0.14275	-3.7979	-3.7396	-3.5417	-4.0958	-3.5646	-3.6312	-4.0437	-3.9	-3.9562	-3.7333	-3.6167	-3.9542	-3.7062	-3.9625	-3.9771	-3.6813	245.928	191.185	495.229	439.331	230.014	354.254	429.223	174.851	149.064	243.294	280.079	498.688	169.944	488.217	450.396	402.670	0.0014227	0.00080363	0.00013413	1389.2	5.9962e-06	3.9227e-06	1387.1	371.78	1.6539e-05	5.1891e-06	423.17	139.56	121.72	41.07	9.2942e-06	51.121	0.0011162	0.0014014	0.00038561	1424	1.3564e-05	1.5181e-05	1415.9	381.9	1.3326e-05	1.5338e-05	436.18	143.62	124.89	42.727	1.4118e-05	52.938	343.881	241.855	236.100	157.115	297.941	295.595	156.929	161.908	353.790	296.870	161.315	165.612	165.865	171.085	308.450	169.741	-8191	255	
491.838	1	1	0	0	0.1624	0.091924	0.16653	0.41571	0.10649	0.26977	0.27694	0.20165	0.060552	0.12107	0.26469	0.084345	0.27277	0.070979	0.041667	0.10038	-3.5604	-3.8521	-3.6958	-4.0167	-3.6271	-3.5333	-4.1771	-3.7396	-3.8688	-3.9229	-3.6229	-3.9813	-3.8312	-3.7875	-3.9583	-3.6396	287.720	199.091	493.642	484.920	329.109	469.906	483.654	472.906	384.542	265.300	329.902	182.371	498.646	447.331	157.713	238.458	0.0013931	0.0005851	0.00012103	1387.1	1.0278e-05	4.7351e-06	1389.9	371.7	1.4192e-05	5.4366e-06	422.14	138.76	121.55	41.057	1.311e-05	50.673	0.001108	0.0013375	0.00038373	1424.7	1.4027e-05	1.5542e-05	1417.5	382	1.377e-05	1.5021e-05	435.39	143.24	124.76	42.662	1.4386e-05	52.779	343.659	245.749	251.537	157.229	301.439	310.905	156.749	161.762	325.639	284.591	161.038	165.692	166.172	170.907	307.801	169.640	-8191	255	
491.934	1	1	0	0	0.15413	0.075252	0.09198	0.35916	0.033918	0.088212	0.090996	0.26204	0.040844	0.20609	0.056291	0.15794	0.19432	0.061996	0.11225	0.16093	-3.2313	-3.725	-3.7208	-4.0271	-3.5958	-3.8104	-4.1833	-3.8479	-3.7625	-3.6646	-3.5062	-4.1896	-3.7792	-3.5583	-3.8125	-3.8604	503.448	455.835	259.648	481.545	330.668	476.459	367.944	402.601	264.464	272.225	287.582	155.117	488.685	434.298	279.980	153.099	0.0013651	0.00050226	0.00015778	1392	7.8824e-06	2.6658e-06	1388.8	373.16	1.7501e-05	5.2017e-06	423.64	139.22	121.81	41.146	9.8138e-06	50.814	0.0011278	0.0014144	0.00039106	1425.8	1.4209e-05	1.5471e-05	1418.2	381.92	1.3423e-05	1.511e-05	435.82	143.31	124.62	42.742	1.396e-05	52.748	343.920	222.090	234.228	157.217	295.171	299.357	156.768	161.810	336.651	291.556	161.470	165.709	166.041	170.987	297.909	169.626	-8191	255	
492.030	1	1	0	0	0.23713	0.023988	0.07746	0.22351	0.31122	0.18175	0.29628	0.19817	0.14756	0.12493	0.16946	0.090935	0.1651	0.056353	0.2359	0.15912	-3.3083	-3.8	-3.5833	-3.9083	-3.7104	-3.7104	-4.2812	-3.8979	-3.7729	-4.1021	-3.6354	-3.9146	-3.9958	-3.6146	-3.7667	-3.9167	313.026	221.016	474.497	401.757	487.884	358.288	414.776	487.118	448.494	378.671	426.546	451.288	396.772	419.081	204.141	211.210	0.0014231	0.00035366	0.00017824	1391.2	9.5829e-06	5.6085e-06	1384.5	371.55	1.1299e-05	4.6893e-06	422.28	138.33	121.12	40.889	7.928e-06	50.416	0.0011046	0.0013327	0.00038082	1424.8	1.3906e-05	1.5386e-05	1416.4	381.56	1.3263e-05	1.4655e-05	434.84	142.85	124.3	42.5	1.3998e-05	52.476	345.334	227.741	227.902	156.977	287.560	296.613	156.915	161.669	320.328	287.940	161.478	165.569	165.784	170.865	305.092	169.792	-8191	255	
492.149	1	1	0	0	0.16275	0.031655	0.31255	0.32627	0.16543	0.12242	0.163	0.37575	0.23077	0.025445	0.089618	0.071429	0.10967	0.27164	0.017876	0.12391	-3.4146	-3.9833	-3.5979	-4.0354	-4.025	-3.5354	-4.1708	-3.8229	-3.7042	-3.9354	-3.6729	-3.9979	-3.8833	-3.8958	-4.0396	-3.8187	285.407	349.761	289.682	483.699	188.835	486.318	433.177	414.003	388.586	356.883	495.857	283.360	306.029	470.498	320.221	493.488	0.0013607	0.00048288	0.00013171	1387.7	9.8181e-06	3.7802e-06	1386.5	371.26	1.3964e-05	3.7095e-06	419.36	138.11	120.68	40.773	7.9329e-06	50.284	0.0010992	0.0013759	0.00038539	1424.1	1.3843e-05	1.5669e-05	1414.3	380.28	1.3693e-05	1.5385e-05	433.75	142.46	124.05	42.347	1.4521e-05	52.329	344.219	213.611	248.864	157.216	287.539	257.243	156.839	161.699	329.900	331.505	160.843	165.539	166.032	171.007	276.999	169.836	-8191	255	
492.223	1	1	0	0	0.010119	0.13154	0.11716	0.16818	0.019699	0.26731	0.10873	0.14505	0.12857	0.13335	0.082876	0.33858	0.21466	0.097196	0.19569	0.044466	-3.4375	-3.7771	-3.7042	-3.9625	-3.8583	-3.5583	-4.0708	-3.9833	-3.6562	-3.8583	-3.6063	-3.8333	-4.0229	-3.7062	-3.8146	-3.7875	343.428	404.311	361.944	477.533	445.144	157.564	368.283	325.267	259.917	452.504	380.209	445.865	477.536	449.885	194.790	486.791	0.0014326	0.00052795	0.00012746	1387.5	1.0439e-05	3.7242e-06	1383.2	369.94	1.2232e-05	4.3916e-06	422.52	137.79	120.35	40.822	1.1781e-05	50.361	0.0011269	0.0013666	0.00038522	1422.5	1.4147e-05	1.5653e-05	1413.4	379.2	1.384e-05	1.5154e-05	433.83	142.36	123.83	42.373	1.443e-05	52.414	344.032	218.763	244.676	157.074	287.849	311.641	156.831	161.760	339.053	273.339	161.261	165.613	166.095	170.641	287.913	169.792	-8191	255	
492.343	1	1	0	0	0.18915	0.1627	0.29294	0.20413	0.090274	0.05341	0.37836	0.24969	0.16443	0.083316	0.068733	0.31449	0.12499	0.14277	0.18067	0.23506	-3.05	-3.9271	-3.6646	-3.9625	-3.9292	-3.6458	-3.9646	-3.9958	-3.5938	-4.0062	-3.8375	-3.8417	-4.1208	-3.7333	-3.775	-3.825	202.093	314.396	202.627	154.705	379.886	272.916	455.630	481.082	221.267	165.704	362.691	148.517	442.346	479.602	268.115	451.120	0.0013529	0.00046967	0.00013793	1387.2	1.0905e-05	4.364e-06	1388.2	370.4	1.5569e-05	3.1655e-06	422.57	138.38	120.93	40.69	8.9283e-06	50.511	0.0011022	0.0013785	0.00038508	1424.2	1.373e-05	1.6141e-05	1415.4	379.52	1.3473e-05	1.5673e-05	433.8	142.29	123.67	42.317	1.4512e-05	52.383	344.217	234.980	251.453	157.045	308.956	297.017	156.857	161.949	334.887	307.635	160.950	165.590	166.246	170.907	281.231	169.829	-8191	255	
492.440	1	1	0	0	0.23157	0.15774	0.052703	0.21961	0.18271	0.048079	0.21936	0.25696	0.27813	0.1902	0.015021	0.27767	0.23379	0.35475	0.061983	0.12281	-3.2667	-3.9	-3.7792	-3.8083	-3.8896	-3.4958	-3.8792	-4.0312	-3.5187	-4.0188	-3.7854	-3.9021	-4.0417	-3.7625	-3.8521	-3.8646	163.412	225.462	165.809	458.325	162.900	384.801	437.333	442.471	277.792	346.348	224.781	463.480	487.772	419.732	311.991	420.634	0.001429	0.00048747	0.00014122	1390.1	8.2326e-06	3.0965e-06	1381.5	369.89	1.4941e-05	6.027e-06	420	138.37	120.24	40.711	8.9167e-06	50.104	0.0011026	0.0013881	0.0003946	1422.6	1.3633e-05	1.6136e-05	1413.6	379.5	1.3375e-05	1.5621e-05	433.02	142.07	123.56	42.272	1.4358e-05	52.169	345.436	206.990	230.881	157.265	298.886	300.590	156.862	161.688	333.155	298.505	161.152	165.737	165.943	170.990	289.260	169.650	-8191	255	
492.534	1	1	0	0	0.27219	0.02358	0.08707	0.30423	0.081995	0.10749	0.16303	0.33874	0.18305	0.10478	0.099976	0.19171	0.076857	0.37404	0.19686	0.095876	-3.2646	-3.825	-3.7438	-3.8333	-4.1062	-3.6688	-3.9188	-3.9646	-3.675	-3.9167	-3.9708	-3.7146	-4.1375	-3.8708	-3.6437	-4.05	220.807	492.466	317.555	490.989	317.301	184.654	336.735	480.075	236.101	426.935	417.233	448.418	201.960	462.134	475.002	423.143	0.0014276	0.00071087	0.00013495	1387.5	6.5201e-06	4.8665e-06	1379.7	370.26	1.5888e-05	5.1615e-06	421.7	138.48	120.65	40.694	1.1735e-05	50.264	0.0011481	0.0014007	0.00039455	1422.4	1.3726e-05	1.6087e-05	1411.5	379.34	1.3158e-05	1.5807e-05	434.2	142.38	123.73	42.333	1.4711e-05	52.348	342.056	214.747	221.778	157.229	305.681	292.412	156.733	161.661	335.136	284.166	161.255	165.529	166.207	170.890	286.685	169.969	-8191	255	
492.630	1	1	0	0	0.24404	0.037453	0.13646	0.04629	0.12638	0.030771	0.076657	0.066887	0.12418	0.22476	0.1137	0.1598	0.17067	0.10138	0.27247	0.1541	-3.1792	-3.7708	-3.7958	-3.7229	-3.875	-3.8667	-3.9229	-4.1604	-3.5958	-3.7292	-4.05	-3.7104	-4.2708	-3.7562	-3.6583	-4.1604	288.159	212.029	370.420	439.578	298.403	483.421	361.179	428.186	378.754	379.061	483.073	427.456	469.245	378.709	267.887	489.943	0.0014144	0.00070512	9.2208e-05	1385.1	1.0066e-05	3.9677e-06	1383.1	369.35	1.315e-05	4.8717e-06	421.77	137.88	120.57	40.746	4.7795e-06	50.173	0.0011076	0.0014188	0.00039265	1419.2	1.398e-05	1.5726e-05	1413.1	378.68	1.3222e-05	1.6056e-05	433.76	142.12	123.72	42.331	1.4709e-05	52.217	346.420	227.636	261.685	157.247	278.444	285.435	156.809	161.827	327.378	265.303	161.333	165.620	166.008	170.910	284.321	169.807	-8191	255	
492.751	1	1	0	0	0.15438	0.078661	0.1116	0.22913	0.057019	0.11657	0.36469	0.15056	0.049786	0.26738	0.21599	0.25962	0.31355	0.17011	0.28224	0.16394	-3.1708	-3.5396	-3.7458	-3.8333	-3.85	-3.7396	-3.7771	-4.1979	-3.7833	-3.7146	-3.8125	-3.6063	-3.9646	-3.8729	-3.675	-4.0917	268.450	334.161	373.434	441.523	256.109	402.794	415.848	452.852	477.449	184.142	451.823	453.234	166.189	475.286	163.847	382.578	0.0014791	0.00088164	0.00014938	1385.6	1.1004e-05	6.4741e-06	1379.2	369.92	1.468e-05	4.988e-06	420.15	138.24	120.58	40.718	1.5004e-05	50.371	0.0011181	0.0014442	0.00039363	1420.1	1.4317e-05	1.5963e-05	1411.9	379.43	1.3665e-05	1.6121e-05	433.23	142.2	123.81	42.294	1.4471e-05	52.428	346.114	237.919	239.713	157.114	274.738	299.749	156.957	161.781	334.336	270.531	161.348	165.847	165.991	170.795	308.871	169.903	-8191	255	
492.822	1	1	0	0	0.1607	0.26071	0.065274	0.22982	0.1201	0.040904	0.18104	0.34164	0.18291	0.1242	0.24323	0.085229	0.14551	0.17709	0.16768	0.048177	-3.3042	-3.8187	-4	-3.7604	-3.8896	-3.9208	-3.6604	-4.0667	-3.7021	-3.7021	-4.1188	-3.6271	-3.9813	-3.9167	-3.5208	-4.0333	167.334	197.649	235.567	390.168	393.697	158.223	465.510	476.949	146.482	325.300	488.385	411.923	446.028	472.182	342.790	288.899	0.0013941	0.00046061	0.0001834	1386	9.674e-06	3.2173e-06	1380.2	370.06	1.3332e-05	5.2017e-06	420.94	138.52	120.39	40.854	1.0147e-05	50.31	0.0010954	0.0014258	0.00038365	1422.6	1.3902e-05	1.5573e-05	1412.3	379.73	1.3715e-05	1.5742e-05	434.14	142.47	123.84	42.375	1.4677e-05	52.381	345.507	237.438	234.699	157.232	292.938	250.284	156.873	161.695	335.359	285.413	161.567	165.818	166.020	170.788	286.435	169.772	-8191	255	
492.919	1	1	0	0	0.11999	0.08878	0.15742	0.18101	0.080053	0.068173	0.16008	0.4716	0.27059	0.02744	0.16837	0.075766	0.013635	0.10836	0.11369	0.1854	-3.1771	-3.5417	-3.7979	-3.7417	-3.8271	-3.8625	-3.7208	-3.9979	-3.7792	-3.6292	-3.9	-3.6708	-3.9313	-3.9313	-3.5333	-4.0813	353.621	344.679	336.877	198.424	438.683	211.422	414.590	473.171	391.298	347.841	468.747	276.554	150.372	409.663	376.921	492.384	0.0013034	0.00053579	9.1361e-05	1390.2	9.7876e-06	5.1585e-06	1381.9	369.84	1.3262e-05	4.5867e-06	420.62	137.92	120.48	40.676	8.9839e-06	50.167	0.0011151	0.0014133	0.00037831	1421.4	1.3943e-05	1.5928e-05	1413.9	379.33	1.3329e-05	1.5592e-05	433.39	142.12	123.67	42.254	1.4123e-05	52.306	344.433	258.904	255.363	157.105	307.904	309.788	156.948	161.871	326.568	310.218	161.210	165.661	166.163	170.768	282.560	169.962	-8191	255	
493.039	1	1	0	0	0.086668	0.12819	0.049601	0.054821	0.079364	0.088346	0.45332	0.18211	0.11598	0.11769	0.26151	0.065611	0.055435	0.17166	0.058084	0.14782	-3.3958	-3.7	-3.8708	-4.0125	-4.0896	-4.1	-3.7833	-4.0646	-3.85	-3.7438	-4.1521	-3.7375	-3.9167	-4.0479	-3.6312	-3.7604	351.539	229.165	277.676	198.907	492.821	376.468	435.677	373.413	464.771	363.583	162.438	382.891	459.626	374.374	363.496	408.364	0.0014218	0.00053279	0.0001909	1388.8	8.998e-06	4.1275e-06	1379.6	369.83	1.5164e-05	6.1322e-06	418.49	138.32	121.33	40.905	9.053e-06	50.45	0.0011131	0.0013883	0.00038326	1420.7	1.3777e-05	1.5542e-05	1412.8	379.76	1.3701e-05	1.5107e-05	433.76	142.55	124.08	42.397	1.3901e-05	52.455	345.550	251.288	246.732	157.217	305.669	282.818	156.759	161.783	339.073	279.164	161.094	165.511	166.068	170.754	294.514	169.900	-8191	255	
493.135	1	1	0	0	0.07782	0.16401	0.036962	0.22179	0.031886	0.14916	0.3645	0.29333	0.040145	0.37803	0.045733	0.023797	0.19821	0.12289	0.010884	0.14226	-3.3771	-3.6333	-3.75	-3.7917	-3.7833	-3.9062	-3.7417	-3.9896	-3.9792	-3.7229	-4.0958	-3.9021	-3.8167	-4.0958	-3.6188	-3.8604	447.174	478.878	495.859	176.476	436.863	440.604	444.390	452.273	494.667	470.023	187.693	317.671	151.749	353.597	247.959	405.293	0.001383	0.00075942	0.00014319	1388.4	7.2019e-06	5.7146e-06	1383.3	370.35	1.6481e-05	3.4198e-06	421.14	138.45	121.27	40.772	8.7975e-06	50.524	0.0011179	0.0013572	0.00038046	1420.2	1.3692e-05	1.5262e-05	1413.3	379.78	1.3401e-05	1.5309e-05	434.33	142.47	124.12	42.366	1.4639e-05	52.328	342.372	216.354	230.192	157.114	308.244	287.104	156.877	161.744	342.140	312.452	161.057	165.671	166.000	170.764	308.537	170.059	-8191	255	
493.231	1	1	0	0	0.16908	0.18524	0.21236	0.15521	0.04816	0.27887	0.21236	0.57204	0.15415	0.031729	0.28826	0.086293	0.27638	0.33022	0.1885	0.13851	-3.4542	-3.5708	-3.8792	-3.9813	-3.6729	-4.0042	-3.9208	-3.8937	-3.75	-3.5292	-3.9042	-3.7667	-3.6625	-4.0396	-3.5979	-3.7896	252.020	336.166	385.538	499.117	152.594	186.291	474.770	490.161	283.121	459.377	164.950	404.101	498.945	450.132	461.644	311.144	0.0013038	0.00049126	0.00014091	1388.5	9.2213e-06	3.2655e-06	1386.2	369.78	1.1807e-05	7.9815e-06	421.51	138.6	120.9	40.782	9.0858e-06	50.343	0.0011031	0.0013784	0.00039067	1423.2	1.3753e-05	1.5103e-05	1414.7	379.88	1.2997e-05	1.5455e-05	433.66	142.53	124.13	42.387	1.4401e-05	52.356	344.681	238.847	225.635	157.161	272.535	282.340	156.844	161.773	326.047	272.810	161.097	165.676	166.023	171.094	290.499	169.749	-8191	255	
493.326	1	1	0	0	0.041072	0.11735	0.122	0.25593	0.29193	0.089064	0.35624	0.24916	0.072971	0.088758	0.16613	0.051253	0.12382	0.06542	0.08117	0.040373	-3.5542	-3.4208	-3.7792	-3.9417	-3.7438	-3.9021	-3.8396	-3.9104	-3.9688	-3.55	-3.9229	-3.8729	-3.5333	-4.0896	-3.6042	-3.725	176.464	307.442	218.498	489.182	206.239	306.957	445.947	455.581	406.487	239.174	394.244	340.387	466.936	479.272	278.981	390.034	0.0013637	0.00045712	7.9574e-05	1386.6	1.0792e-05	3.905e-06	1385.2	369.22	1.0977e-05	4.8e-06	421.2	138.37	120.47	40.948	7.7919e-06	50.421	0.0010972	0.0013704	0.00038217	1420.8	1.3567e-05	1.5456e-05	1412.6	379.24	1.3364e-05	1.5396e-05	433.42	142.43	123.88	42.392	1.4472e-05	52.39	345.419	239.315	274.386	157.137	287.637	286.165	156.861	161.836	333.382	301.911	161.550	165.698	166.231	171.026	304.464	169.803	-8191	255	
493.447	1	1	0	0	0.12661	0.25815	0.13618	0.38192	0.093817	0.24175	0.24709	0.10203	0.42158	0.28875	0.1912	0.15617	0.17014	0.047447	0.21322	0.31335	-3.4938	-3.5083	-3.7604	-4.0146	-3.5333	-3.8375	-3.8854	-3.8167	-4.0146	-3.7083	-3.7687	-3.9042	-3.8729	-4.1333	-3.8812	-3.7479	319.057	386.628	226.551	443.515	461.383	314.376	491.671	163.955	145.170	445.546	154.084	460.930	405.027	473.708	430.292	451.449	0.0014266	0.00056357	0.00015633	1384.6	9.9256e-06	4.3832e-06	1381.2	369.58	1.2746e-05	6.3236e-06	418.53	138.57	120.89	40.918	9.2411e-06	50.415	0.0010938	0.0013836	0.0003804	1419.8	1.3414e-05	1.5632e-05	1410.4	379.44	1.3222e-05	1.5546e-05	433.38	142.39	123.85	42.416	1.4383e-05	52.354	344.555	239.476	232.645	157.162	275.429	298.544	156.862	161.743	332.244	287.261	161.107	165.634	165.910	170.831	296.540	169.914	-8191	255	
493.518	1	1	0	0	0.092673	0.10462	0.0039527	0.23717	0.045993	0.16279	0.36202	0.35153	0.073629	0.072171	0.13019	0.25619	0.12651	0.34714	0.12214	0.07252	-3.5812	-3.8542	-3.5896	-3.9667	-3.6083	-3.9188	-3.9583	-3.8354	-3.9375	-3.6896	-3.8812	-3.8958	-3.7104	-4.0729	-3.6917	-3.7917	345.817	423.809	380.907	458.495	501.427	478.665	458.101	460.115	362.492	410.493	489.329	447.339	446.903	453.637	248.085	162.873	0.0013681	0.00047152	9.7005e-05	1385.1	9.5121e-06	4.3699e-06	1383	369.64	1.4408e-05	5.5667e-06	420.18	138.78	121.04	40.751	8.0845e-06	50.201	0.0011079	0.0013516	0.00038835	1421.1	1.3722e-05	1.5646e-05	1411.4	379.49	1.3489e-05	1.5221e-05	433.9	142.69	124.08	42.424	1.419e-05	52.344	343.236	242.434	204.610	157.111	300.669	270.767	156.742	161.572	322.132	286.185	161.062	165.780	166.097	170.816	306.828	169.720	-8191	255	
493.614	1	1	0	0	0.19297	0.18874	0.093944	0.1528	0.25964	0.17115	0.24505	0.3453	0.22132	0.081801	0.21424	0.23904	0.1099	0.14867	0.041798	0.28928	-3.6854	-3.5667	-3.5021	-4.1188	-3.4854	-3.6729	-3.9938	-3.7479	-3.8812	-3.6937	-3.7833	-4.0188	-3.6625	-3.8375	-3.7604	-3.6375	150.657	422.495	149.166	471.043	493.445	465.101	415.886	432.882	366.668	441.045	414.259	438.364	412.134	164.637	243.173	446.794	0.0013513	0.00048384	0.00012109	1385.2	1.0579e-05	5.2869e-06	1382.5	369.17	1.5822e-05	5.7329e-06	420.8	138.17	120.89	40.892	8.4735e-06	50.486	0.0011009	0.0013368	0.00037904	1419.3	1.3832e-05	1.5585e-05	1413.3	379.29	1.349e-05	1.5385e-05	433.48	142.49	124.06	42.432	1.4142e-05	52.483	345.018	231.311	245.513	157.221	290.294	314.107	157.037	161.825	324.134	302.201	161.339	165.823	166.039	170.964	276.305	169.845	-8191	255	
493.710	1	1	0	0	0.17301	0.088083	0.1976	0.33331	0.081051	0.097635	0.1607	0.25793	0.078454	0.063874	0.17333	0.087884	0.087262	0.27633	0.30714	0.24243	-3.3458	-3.7271	-3.6125	-4.0813	-3.6604	-3.7875	-3.9875	-3.8583	-3.7375	-3.6937	-3.6354	-3.9542	-3.7375	-3.7208	-3.9958	-3.7417	161.353	388.023	464.655	463.345	317.009	405.926	410.123	395.415	282.771	201.739	367.039	379.930	244.348	386.145	479.323	423.305	0.0013319	0.00044039	0.00018113	1384.4	7.3701e-06	3.2906e-06	1387.6	370.01	1.2636e-05	4.8912e-06	421.36	138.4	120.88	40.869	5.6441e-06	50.447	0.0010881	0.0013481	0.00037729	1420.9	1.4299e-05	1.5063e-05	1414.2	379.71	1.3603e-05	1.5133e-05	434.09	142.59	124.02	42.483	1.3826e-05	52.411	345.729	245.065	226.830	157.265	296.656	275.806	156.796	161.897	338.626	328.471	161.465	165.789	166.055	170.797	294.322	170.030	-8191	255	
493.831	1	1	0	0	0.07115	0.13923	0.12321	0.1234	0.19322	0.16823	0.051205	0.34398	0.16396	0.098378	0.051446	0.15007	0.25124	0.37816	0.15194	0.12586	-3.5333	-3.7354	-3.6292	-4.0146	-3.5917	-3.7354	-3.8958	-3.7333	-3.7917	-3.7542	-3.775	-4.0396	-3.8875	-3.7687	-3.925	-3.7792	185.090	328.071	180.601	465.489	368.385	441.600	170.578	414.531	301.942	358.666	385.031	172.636	395.231	495.037	151.600	185.003	0.0013742	0.00060286	0.00014586	1387.6	9.3056e-06	5.1385e-06	1380.7	369.72	1.1628e-05	4.0069e-06	422.08	138.8	120.9	40.78	7.6832e-06	50.508	0.0011087	0.0013587	0.00037596	1422.8	1.3725e-05	1.5711e-05	1411.5	379.8	1.3711e-05	1.521e-05	433.58	142.66	124.23	42.438	1.3978e-05	52.479	344.627	226.075	236.087	157.189	306.048	277.183	156.802	161.717	322.027	307.308	161.172	165.644	166.076	171.188	293.414	169.930	-8191	255	
493.927	1	1	0	0	0.16264	0.19313	0.25971	0.13883	0.10712	0.072782	0.11176	0.1751	0.074945	0.093732	0.23138	0.34026	0.17058	0.24843	0.13174	0.225	-3.5062	-3.6146	-3.4604	-3.9521	-3.7125	-3.7208	-4.0875	-3.7708	-3.7104	-3.8812	-3.7438	-4.0146	-3.8604	-3.8187	-3.9729	-3.6708	361.231	411.560	218.339	458.392	191.595	416.684	443.589	422.677	424.215	296.666	445.683	454.171	435.358	410.276	150.451	458.582	0.0013475	0.00053156	0.00011126	1382.5	1.0675e-05	3.717e-06	1381.5	370.61	1.3006e-05	5.1061e-06	420.28	138.48	121.12	41.041	8.1756e-06	50.531	0.0011024	0.0013652	0.00038441	1420.4	1.3676e-05	1.5445e-05	1411.6	380.29	1.356e-05	1.515e-05	434.11	142.68	124.2	42.543	1.4069e-05	52.539	345.033	214.690	217.738	157.232	301.220	317.972	156.828	161.814	330.168	288.945	161.204	165.600	166.229	170.786	302.567	169.900	-8191	255	
494.023	1	1	0	0	0.1014	0.14935	0.29681	0.14025	0.11469	0.21719	0.13903	0.12702	0.069678	0.22139	0.052727	0.077768	0.1193	0.27509	0.22178	0.2321	-3.4771	-3.95	-3.5187	-4.3646	-3.825	-3.6	-4.0833	-3.8688	-3.7313	-3.8042	-3.5792	-3.975	-3.9375	-3.75	-4.0125	-3.9271	418.154	282.934	407.129	177.839	271.242	479.510	368.315	432.387	334.941	252.955	239.196	472.208	453.807	501.791	243.644	427.850	0.0013849	0.00056023	0.00017637	1390.2	8.8002e-06	4.6223e-06	1384.6	370.79	1.5084e-05	4.1352e-06	421.38	138.37	120.79	40.827	8.5227e-06	50.609	0.0010963	0.0013499	0.00038048	1421.4	1.3676e-05	1.5414e-05	1414.2	380.36	1.354e-05	1.538e-05	434.28	142.53	124.06	42.528	1.439e-05	52.577	344.033	232.393	249.749	157.234	302.619	293.346	156.815	161.832	337.173	308.342	161.546	165.793	166.132	170.967	302.824	169.996	-8191	255	
494.120	1	1	0	0	0.34597	0.057456	0.084339	0.20021	0.1883	0.15432	0.13202	0.21015	0.119	0.27127	0.069216	0.070367	0.074555	0.1369	0.04418	0.25286	-3.3146	-3.8125	-3.5167	-4.2	-4.0208	-3.5917	-4.2562	-3.8729	-3.6917	-4	-3.6875	-4.0021	-4.0167	-3.7208	-3.8563	-3.8396	206.675	451.715	178.919	378.311	300.290	208.460	450.897	162.552	332.725	339.034	288.736	397.164	441.604	199.517	173.029	416.154	0.001387	0.0007227	0.00012664	1391.9	7.2855e-06	3.7599e-06	1388.8	370.66	1.0487e-05	5.3345e-06	421.54	138.38	121.39	41.068	1.2558e-05	50.778	0.0011182	0.001365	0.00038758	1425	1.377e-05	1.5337e-05	1417.7	380.32	1.3507e-05	1.5244e-05	435.13	142.93	124.43	42.64	1.4535e-05	52.658	344.029	224.176	257.548	157.300	284.667	278.885	156.887	161.771	320.954	271.451	160.910	165.787	166.189	170.880	300.378	169.877	-8191	255	
494.216	1	1	0	0	0.21398	0.25428	0.17387	0.16283	0.14941	0.030854	0.2978	0.36785	0.23384	0.020209	0.12696	0.25215	0.29533	0.10459	0.11996	0.30446	-3.2708	-4.0646	-3.4479	-3.95	-3.8458	-3.5292	-4.0771	-4.0687	-3.6312	-3.9208	-3.4792	-4.0458	-4.0792	-3.6625	-3.9	-3.8333	324.171	373.325	477.126	460.481	398.903	463.741	448.356	458.078	245.728	166.483	495.542	418.936	184.875	452.241	289.349	443.040	0.0013759	0.00071014	0.00016619	1395.3	9.8755e-06	4.1799e-06	1386.3	372.74	1.3302e-05	5.1006e-06	422.98	138.55	120.85	41.235	1.1543e-05	50.61	0.0011022	0.0013607	0.0003843	1426.9	1.3702e-05	1.5651e-05	1419	381.46	1.3485e-05	1.5355e-05	435.81	142.94	124.53	42.707	1.4354e-05	52.642	346.433	230.353	227.176	157.215	305.444	288.384	156.900	161.728	337.406	274.643	161.352	165.746	165.791	171.141	301.516	169.768	-8191	255	
494.312	1	1	0	0	0.16083	0.15505	0.20079	0.27745	0.23223	0.1721	0.28802	0.33036	0.067972	0.16883	0.04392	0.21873	0.027716	0.084177	0.044163	0.14554	-3.2854	-3.8875	-3.7062	-3.9313	-3.8708	-3.6562	-4.0354	-3.8979	-3.5771	-4	-3.6813	-3.9521	-4.1729	-3.5646	-3.8667	-4.0479	445.756	186.383	234.969	435.971	249.969	498.712	413.893	427.871	388.487	145.257	502.884	445.373	442.195	371.255	199.894	356.668	0.0014389	0.00050327	0.00015691	1395	8.6809e-06	3.9789e-06	1389.7	371.68	1.463e-05	4.6254e-06	423.89	139.12	121.89	41.084	1.0443e-05	50.824	0.0011204	0.0013679	0.00039445	1428.1	1.3844e-05	1.534e-05	1420.7	381.51	1.3562e-05	1.5497e-05	436.88	143.35	124.88	42.618	1.449e-05	52.747	344.973	215.282	254.787	157.227	303.693	301.936	156.785	161.705	337.019	269.583	161.395	165.751	166.106	171.005	300.122	169.607	-8191	255	
494.431	1	1	0	0	0.14848	0.17264	0.11421	0.34759	0.092511	0.076563	0.076328	0.3595	0.14864	0.020201	0.096134	0.25291	0.218	0.14902	0.15525	0.18443	-3.225	-3.9938	-3.5438	-3.8	-3.8771	-3.5792	-4.0667	-3.9729	-3.4667	-3.8646	-3.6917	-3.8187	-3.9771	-3.7438	-3.8042	-3.8521	287.805	346.739	488.414	474.483	279.077	412.930	457.589	470.792	274.278	171.510	482.748	148.360	477.556	445.417	171.724	421.620	0.0013734	0.00045191	0.00015278	1396.7	7.5462e-06	5.0438e-06	1390.6	372.66	1.3651e-05	4.727e-06	422.89	139.44	120.91	41.038	7.5562e-06	50.632	0.0011231	0.0013862	0.00039228	1429.9	1.3569e-05	1.5507e-05	1421.9	381.88	1.3495e-05	1.5483e-05	436.28	143.28	124.27	42.533	1.4655e-05	52.638	343.984	211.103	229.572	157.216	313.360	308.162	157.055	161.765	335.558	277.695	161.195	165.673	166.189	170.943	291.256	170.068	-8191	255	
494.527	1	1	0	0	0.0096654	0.27648	0.1182	0.36302	0.21939	0.11245	0.29846	0.36006	0.10293	0.29598	0.19492	0.19695	0.40547	0.08763	0.043798	0.28193	-3.2	-4.0104	-3.7062	-3.9417	-3.7083	-3.5979	-4.0271	-4.1458	-3.4958	-3.8812	-3.6479	-3.625	-3.8542	-3.8542	-3.6396	-4.0229	287.326	313.034	150.870	439.293	243.477	412.745	469.019	486.917	419.483	336.687	459.504	467.407	195.475	268.442	491.369	457.964	0.0014264	0.00051861	7.4673e-05	1390.6	1.0606e-05	6.34e-06	1384.1	372.22	1.1957e-05	2.7714e-06	422.11	138.88	121.61	40.775	1.1011e-05	50.586	0.0011353	0.0013858	0.00039013	1424.4	1.3745e-05	1.5316e-05	1416.1	380.87	1.3489e-05	1.5503e-05	434.89	143.05	124.2	42.462	1.4584e-05	52.56	344.700	236.046	278.792	157.122	311.500	274.283	157.000	161.634	320.336	250.356	161.363	165.780	166.157	170.896	304.390	169.791	-8191	255	
494.623	1	1	0	0	0.086645	0.22631	0.069852	0.26826	0.071112	0.10978	0.12686	0.12462	0.13398	0.077921	0.238	0.097701	0.11212	0.16368	0.16387	0.069283	-3.1688	-3.9208	-3.6896	-3.8937	-4.0917	-3.7875	-4.0125	-3.9688	-3.5604	-3.7833	-3.85	-3.825	-4.05	-3.6125	-3.6375	-3.9375	172.022	152.264	447.843	457.187	319.117	255.229	418.100	370.234	178.046	226.760	464.645	422.355	162.293	468.812	168.596	397.739	0.0013709	0.00062805	0.00013659	1392.1	8.1306e-06	5.4667e-06	1384.5	371.73	1.1476e-05	7.0962e-06	421.34	139.21	121.35	40.791	6.9553e-06	50.387	0.0011319	0.001431	0.00039431	1427.3	1.4326e-05	1.6173e-05	1418.6	381.37	1.3651e-05	1.6044e-05	434.62	142.87	124.2	42.479	1.4762e-05	52.466	345.137	244.163	263.061	157.296	320.892	290.737	156.841	161.709	329.353	306.825	161.130	165.460	166.185	170.988	255.581	170.022	-8191	255	
494.744	1	1	0	0	0.074641	0.23371	0.26697	0.086444	0.14951	0.10201	0.10308	0.19686	0.14542	0.18883	0.097051	0.13704	0.20874	0.032364	0.1711	0.013435	-3.1229	-3.9125	-3.7687	-3.7042	-3.9313	-3.6917	-3.8063	-4.0333	-3.3937	-3.7417	-3.8937	-3.6937	-4.1708	-3.7479	-3.5312	-3.9313	403.343	190.599	310.645	469.417	204.483	486.847	501.574	447.975	455.180	316.031	359.163	289.175	491.417	274.364	398.986	406.131	0.0013492	0.00050115	0.00014323	1394.5	8.3145e-06	3.4505e-06	1395	371.24	1.7695e-05	3.5937e-06	423.26	138.82	122.32	40.967	1.0829e-05	50.339	0.001139	0.0014508	0.00040194	1428	1.4195e-05	1.5936e-05	1422.2	381.43	1.4181e-05	1.6429e-05	435.76	143.19	124.78	42.584	1.4538e-05	52.533	345.600	241.099	224.362	157.061	282.763	303.113	156.884	161.815	333.315	298.001	161.243	165.697	166.275	170.852	304.504	169.952	-8191	255	
494.815	1	1	0	0	0.12187	0.17107	0.22556	0.10373	0.021373	0.076495	0.2514	0.23767	0.25722	0.18422	0.1709	0.25636	0.35557	0.25827	0.068679	0.14045	-3.1729	-3.8229	-3.775	-3.8042	-3.9333	-3.7625	-3.7833	-4.0396	-3.6917	-3.8625	-3.8458	-3.6813	-3.9375	-3.8521	-3.5979	-4.0333	389.955	247.292	465.276	482.516	349.861	341.534	477.119	453.816	342.193	425.247	435.696	402.729	450.022	494.432	396.304	385.577	0.0014077	0.00064423	0.00016757	1395.4	1.0375e-05	2.5379e-06	1397.3	373.44	1.5326e-05	5.7788e-06	424.23	139.1	121.71	41.032	1.12e-05	50.486	0.0011416	0.0014072	0.00039777	1430.1	1.413e-05	1.5736e-05	1423.6	383.13	1.3974e-05	1.5877e-05	437.47	143.52	124.86	42.702	1.5085e-05	52.644	343.656	228.493	236.119	157.215	290.432	282.569	156.790	161.716	331.751	288.831	161.498	165.628	166.038	170.807	313.524	169.748	-8191	255	
494.911	1	1	0	0	0.26664	0.10265	0.11123	0.24215	0.072693	0.24208	0.3291	0.13215	0.21499	0.15569	0.22619	0.26693	0.25454	0.20256	0.10881	0.12878	-3.2188	-3.5854	-3.8458	-3.7354	-3.9604	-3.8375	-3.8229	-4.2979	-3.6958	-3.7562	-4.0583	-3.7896	-4.05	-3.9854	-3.65	-4.0396	360.576	336.370	458.069	154.504	451.065	430.242	446.944	424.572	394.800	502.132	252.276	144.038	485.455	158.567	148.808	390.732	0.0014284	0.00061111	0.00014813	1399.4	9.2577e-06	5.0395e-06	1397.8	372.78	1.6731e-05	3.137e-06	422.97	138.81	121.36	40.795	1.2818e-05	50.542	0.001145	0.0014355	0.00040687	1433.5	1.4218e-05	1.6256e-05	1425	382.43	1.4135e-05	1.6129e-05	436.21	142.87	124.42	42.486	1.5009e-05	52.479	342.665	225.056	228.073	157.224	281.571	275.164	156.780	161.850	326.553	300.433	161.408	165.677	165.927	170.995	308.582	169.999	-8191	255	
495.008	1	1	0	0	0.26186	0.10525	0.086355	0.34657	0.21489	0.16891	0.34262	0.22784	0.1554	0.0239	0.15122	0.14835	0.25268	0.20348	0.10525	0.27343	-3.2917	-3.6229	-3.8792	-3.8708	-3.5375	-3.7917	-3.8542	-3.9354	-3.6333	-3.5771	-4.0083	-3.6333	-3.9437	-3.9688	-3.6708	-4.125	469.249	262.617	304.515	465.992	424.767	442.849	464.289	482.354	381.912	487.647	382.089	496.986	458.599	450.880	434.117	396.636	0.0013433	0.00065903	0.00012847	1399.1	8.6996e-06	4.4658e-06	1393.1	371.58	1.2798e-05	5.8569e-06	421.15	139.11	121.99	41.158	4.9814e-06	50.616	0.0011195	0.0014387	0.00039676	1431.7	1.3977e-05	1.5403e-05	1422.7	382.23	1.3727e-05	1.5531e-05	436.16	143.27	124.77	42.621	1.4273e-05	52.642	345.069	235.030	244.046	157.226	302.953	285.903	156.795	161.713	334.920	304.021	161.283	165.727	166.274	170.930	306.829	169.835	-8191	255	
495.128	1	1	0	0	0.27522	0.19818	0.065588	0.20115	0.083696	0.17283	0.14646	0.32322	0.21589	0.19803	0.29122	0.28272	0.31643	0.13543	0.11241	0.065801	-3.3208	-3.7396	-3.9104	-3.7521	-3.8604	-3.8208	-3.7333	-3.9125	-3.8521	-3.5479	-4.0833	-3.7479	-3.6917	-3.9271	-3.5271	-3.9104	277.873	353.775	490.943	477.558	462.019	466.362	470.191	461.168	231.639	232.636	432.031	154.466	462.907	412.652	350.351	374.672	0.0014067	0.00084276	0.00024004	1394.8	8.3288e-06	4.3137e-06	1394.4	371.34	1.4064e-05	3.849e-06	421.27	137.66	120.57	40.513	6.8537e-06	50.008	0.0011018	0.001377	0.00038807	1429.1	1.4097e-05	1.5853e-05	1422.4	380.73	1.3831e-05	1.6024e-05	434.64	141.76	123.42	42.061	1.5343e-05	52.022	345.236	239.032	247.966	157.159	314.447	291.277	156.809	161.789	311.732	299.845	160.949	165.850	166.057	171.050	289.279	169.928	-8191	255	
495.223	1	1	0	0	0.25672	0.28007	0.062587	0.14799	0.25462	0.11166	0.22855	0.27309	0.089039	0.17314	0.063981	0.1971	0.055084	0.24526	0.13107	0.11067	-3.3771	-3.3625	-3.9042	-3.9583	-3.5729	-3.8167	-3.7333	-3.9042	-3.8354	-3.5521	-3.9167	-3.7167	-3.8229	-3.9854	-3.5104	-3.8396	405.850	238.577	424.250	148.730	256.174	262.648	480.728	458.018	417.265	240.941	435.273	438.200	442.443	471.889	215.574	416.459	0.0013582	0.00060532	0.00018083	1393.2	1.1746e-05	6.0888e-06	1386.4	367.75	1.4819e-05	6.2849e-06	416.6	135.73	119.41	40.056	5.4824e-06	49.7	0.0011462	0.0014558	0.00041987	1429.4	1.4983e-05	1.6664e-05	1417.3	376.96	1.4746e-05	1.725e-05	430.62	140.48	122.52	41.701	1.5719e-05	51.659	346.389	241.566	232.695	157.220	272.149	277.993	156.847	161.743	328.162	280.427	160.867	165.766	166.167	170.833	272.239	169.628	-8191	255	
495.319	1	1	0	0	0.17877	0.13175	0.12492	0.18746	0.090799	0.24694	0.35562	0.24277	0.10019	0.095727	0.15787	0.2904	0.076148	0.098802	0.074149	0.12425	-3.4417	-3.6146	-3.9771	-3.9813	-3.5333	-3.9271	-3.9938	-3.9083	-3.7646	-3.6063	-3.9833	-3.7854	-3.775	-4.0167	-3.8708	-3.8083	333.464	443.732	484.172	462.983	429.633	307.696	434.820	419.046	284.511	229.251	150.420	486.819	332.814	298.497	333.405	425.294	0.0014268	0.00042978	0.00015118	1387.9	1.1384e-05	5.3178e-06	1386.5	367.55	1.106e-05	5.539e-06	417	136.36	119.52	40.246	8.3364e-06	49.702	0.0011711	0.0015131	0.00041956	1426	1.5008e-05	1.7051e-05	1417.4	376.86	1.4422e-05	1.6638e-05	431.44	140.91	122.6	41.832	1.5169e-05	51.812	344.201	220.273	246.652	157.220	309.059	302.266	156.837	161.899	329.299	320.152	161.114	165.549	165.975	170.795	310.851	169.822	-8191	255	
495.392	1	1	0	0	0.25837	0.14065	0.085131	0.10062	0.20233	0.022697	0.29059	0.3534	0.17257	0.11812	0.24516	0.086734	0.2137	0.13432	0.12463	0.053715	-3.6042	-3.4188	-3.7229	-3.9021	-3.7708	-4.0104	-3.8875	-3.8729	-3.7812	-3.4062	-3.9542	-3.8396	-3.6542	-3.9437	-3.5042	-3.8583	308.183	362.866	440.556	450.784	404.367	255.226	461.834	481.714	440.843	375.632	457.078	502.992	416.022	429.803	308.429	407.019	0.0013627	0.00042696	0.00016377	1389.7	1.0914e-05	5.259e-06	1383.6	366.64	1.2376e-05	4.9421e-06	418.26	137.16	119.63	40.384	6.6902e-06	49.91	0.0011603	0.0015383	0.00042975	1426.6	1.5282e-05	1.7708e-05	1416.2	377.05	1.4704e-05	1.7114e-05	431.31	141.27	122.94	41.897	1.552e-05	51.925	342.945	210.592	262.458	157.228	274.869	275.542	156.962	161.782	333.667	283.797	161.272	165.559	166.036	171.052	290.817	169.928	-8191	255	
495.511	1	1	0	0	0.16564	0.14332	0.1148	0.39342	0.21544	0.14075	0.29222	0.28532	0.10776	0.22569	0.069822	0.14533	0.1754	0.15361	0.036128	0.1426	-3.6312	-3.6646	-3.7062	-4.0229	-3.4625	-3.9333	-3.8875	-3.7188	-3.9354	-3.5	-3.9313	-3.9479	-3.7792	-4.0083	-3.6625	-3.5583	191.572	204.780	175.954	414.015	173.931	382.362	481.217	430.670	451.433	260.923	151.445	153.467	154.654	155.846	261.074	429.618	0.0014156	0.00070558	0.00010547	1396.2	1.0632e-05	4.0504e-06	1383.3	367.48	1.1749e-05	5.4192e-06	420.14	137.09	119.77	40.371	5.074e-06	49.915	0.0011869	0.001523	0.00043838	1430.1	1.5065e-05	1.7323e-05	1417	376.94	1.5113e-05	1.6907e-05	432.82	141.15	122.96	41.958	1.5619e-05	51.909	344.448	249.241	244.284	157.093	291.524	272.626	156.923	161.932	335.453	305.023	161.151	165.691	166.117	171.061	292.739	169.803	-8191	255	
495.607	1	1	0	0	0.075703	0.12271	0.00802	0.20755	0.24556	0.012138	0.17556	0.099493	0.14837	0.058537	0.1884	0.24359	0.14405	0.090402	0.024843	0.052255	-3.5792	-3.5563	-3.7875	-4.0125	-3.4646	-3.8312	-3.8583	-3.8333	-3.8667	-3.7417	-3.9417	-4.0958	-3.9729	-3.8312	-3.675	-3.6875	366.346	308.250	425.483	443.042	361.383	192.458	405.506	488.554	208.401	277.438	447.253	154.133	402.055	484.517	403.394	417.589	0.0013553	0.00064889	0.00011426	1392.2	1.0114e-05	6.3618e-06	1386.7	367.88	1.5824e-05	3.1663e-06	417.42	137.3	119.86	40.402	1.3779e-05	49.82	0.0011762	0.0015059	0.00042097	1428.5	1.5028e-05	1.7566e-05	1418.7	377.27	1.4746e-05	1.6783e-05	431.84	141.11	122.97	41.96	1.5647e-05	51.914	342.508	218.276	229.396	157.111	293.941	282.378	156.811	162.027	334.629	296.067	161.207	165.584	166.206	171.147	296.567	169.884	-8191	255	
495.703	1	1	0	0	0.26797	0.16256	0.19115	0.31015	0.17931	0.068836	0.24739	0.21142	0.14132	0.14246	0.28612	0.05671	0.18416	0.11097	0.03541	0.051711	-3.4542	-3.7083	-3.6771	-4.0958	-3.4562	-3.9271	-4.0104	-3.7604	-3.9271	-3.8292	-3.7438	-4.0625	-3.7042	-3.7833	-3.9333	-3.8	495.854	479.056	147.719	465.668	499.369	460.320	455.906	447.540	490.412	497.219	469.341	484.217	394.956	155.349	293.995	487.576	0.0013559	0.00048527	9.4267e-05	1390	6.9642e-06	5.9703e-06	1384.2	366.38	1.2616e-05	5.6721e-06	418.65	137.07	120.35	40.586	7.5499e-06	50.057	0.001167	0.0015367	0.00043564	1426.6	1.5272e-05	1.7071e-05	1417.1	376.85	1.4647e-05	1.7114e-05	431.71	141.46	123.39	42.123	1.5767e-05	52.057	345.060	229.642	229.933	157.284	292.375	284.703	156.915	161.898	346.318	260.736	161.327	165.528	166.008	171.027	293.340	170.022	-8191	255	
495.824	1	1	0	0	0.023844	0.26508	0.13766	0.29529	0.13836	0.16654	0.37852	0.4149	0.23051	0.22813	0.37026	0.037843	0.049673	0.18473	0.27597	0.12735	-3.5812	-3.7542	-3.4792	-4.1833	-3.5792	-3.7354	-3.9917	-3.6958	-3.8979	-3.5958	-3.7667	-3.9562	-3.7562	-3.9979	-3.8	-3.6437	319.074	495.337	464.390	478.085	276.162	204.459	465.670	412.492	297.835	266.695	453.725	493.690	241.747	492.458	250.997	443.012	0.0013586	0.00042086	0.0001686	1392	6.9403e-06	5.4543e-06	1386.5	367.33	1.4118e-05	8.6198e-06	422.02	137.32	120.53	40.628	1.0627e-05	49.9	0.0011776	0.0014941	0.00041999	1429.1	1.4902e-05	1.648e-05	1418.8	377.8	1.4594e-05	1.641e-05	433.56	141.63	123.43	42.194	1.5566e-05	52.006	343.176	231.416	243.577	157.094	297.575	294.323	156.916	161.722	340.376	286.418	161.200	165.625	166.170	170.901	296.519	169.821	-8191	255	
495.920	1	1	0	0	0.20317	0.06419	0.11344	0.34213	0.15695	0.13188	0.18164	0.24544	0.22346	0.029217	0.25618	0.173	0.10296	0.41769	0.020424	0.24163	-3.4625	-3.6708	-3.4604	-4.0667	-3.5229	-3.6958	-4.0833	-3.6729	-3.8187	-3.8229	-3.5229	-4.0312	-3.7854	-3.7562	-3.775	-3.6771	200.567	355.750	253.187	481.995	470.714	227.040	465.979	449.501	189.742	234.609	469.209	379.198	198.798	468.390	230.701	389.180	0.0013606	0.00046294	0.00014246	1389.9	6.2042e-06	6.1772e-06	1390.5	368.97	1.2131e-05	6.1526e-06	416.68	138.05	119.87	40.531	1.2202e-05	49.946	0.0011673	0.0014946	0.00041931	1429.6	1.5211e-05	1.7061e-05	1420.1	378.47	1.4884e-05	1.6709e-05	432.41	141.8	123.46	42.133	1.5914e-05	52.04	345.361	216.898	229.198	157.286	264.232	272.561	157.111	161.846	340.032	286.110	161.275	165.644	166.074	170.958	290.004	169.888	-8191	255	
495.992	1	1	0	0	0.28078	0.045962	0.026968	0.14875	0.16707	0.12515	0.11147	0.26278	0.15555	0.013407	0.12136	0.2815	0.15624	0.18193	0.14759	0.2254	-3.4667	-3.8438	-3.5979	-4.1479	-3.7083	-3.7792	-4.025	-3.7771	-3.9583	-3.8875	-3.7271	-3.8167	-3.875	-3.8625	-3.7833	-3.6833	498.827	199.036	241.837	338.549	442.583	435.900	354.264	485.925	451.784	291.968	447.604	466.312	191.041	384.132	467.375	470.637	0.0014283	0.00051228	6.746e-05	1395.8	1.0503e-05	7.2202e-06	1387.4	369.16	1.1681e-05	4.6673e-06	419.54	137.62	121.07	40.656	9.6495e-06	50.277	0.0011844	0.0014923	0.0004303	1430.7	1.5045e-05	1.7097e-05	1421	378.45	1.4973e-05	1.6944e-05	433.38	142.13	123.78	42.286	1.5781e-05	52.237	343.390	229.456	235.243	157.141	289.028	285.645	156.797	161.762	331.628	272.978	161.321	165.657	166.126	171.098	293.115	169.966	-8191	255	
496.112	1	1	0	0	0.049798	0.061828	0.074271	0.45533	0.068918	0.20619	0.088802	0.12964	0.18282	0.015501	0.20117	0.31102	0.21245	0.16121	0.164	0.17933	-3.3896	-3.8583	-3.4167	-4.0542	-3.8292	-3.5938	-3.9729	-3.6333	-3.675	-3.9979	-3.5083	-3.8979	-3.7833	-3.5604	-3.7604	-3.5938	268.433	433.923	357.629	478.225	219.208	194.697	156.194	235.323	282.235	476.740	389.118	409.531	489.254	165.621	225.226	453.116	0.0013861	0.00056919	0.00011872	1394.6	9.0868e-06	4.0924e-06	1395.5	368.88	1.2515e-05	4.2457e-06	421.06	137.98	120.52	40.762	9.8844e-06	50.268	0.0011734	0.0014943	0.00043419	1431.1	1.5046e-05	1.6727e-05	1424.1	378.9	1.4753e-05	1.6539e-05	434.14	142.34	123.81	42.351	1.5678e-05	52.336	344.980	239.256	250.103	157.134	280.102	288.907	156.914	161.863	318.189	276.268	161.135	165.661	166.021	171.104	279.487	169.768	-8191	255	
496.209	1	1	0	0	0.099168	0.10834	0.10881	0.24353	0.20106	0.21005	0.27051	0.14487	0.038593	0.14225	0.18402	0.12058	0.22462	0.16777	0.28057	0.18421	-3.1312	-3.8542	-3.5021	-4.0771	-3.7542	-3.475	-4.0583	-3.7729	-3.6729	-3.875	-3.5083	-3.8	-3.8042	-3.7104	-3.8521	-3.8833	166.914	175.309	474.258	448.738	216.165	182.642	456.268	429.656	431.902	176.820	437.154	479.397	440.906	448.660	370.392	392.256	0.0013682	0.00058735	0.00016046	1398	8.2309e-06	6.5263e-06	1395.2	368.63	1.1407e-05	4.4442e-06	422.69	138.37	120.83	40.879	1.1453e-05	50.291	0.0011678	0.001516	0.0004248	1433.9	1.4935e-05	1.7229e-05	1424.9	379.48	1.4763e-05	1.6807e-05	435.08	142.5	124	42.389	1.5955e-05	52.367	342.756	239.389	212.705	157.140	286.118	305.796	156.874	161.871	328.008	261.582	160.998	165.595	165.987	170.933	298.560	170.036	-8191	255	
496.305	1	1	0	0	0.1243	0.020426	0.15695	0.25696	0.14474	0.10791	0.33289	0.22686	0.10209	0.065322	0.31253	0.072134	0.14855	0.36126	0.20496	0.077091	-3.2687	-3.8167	-3.3833	-3.9208	-3.7021	-3.4875	-4.025	-3.9104	-3.4208	-4.0188	-3.5687	-3.9208	-3.9062	-3.5708	-4.0354	-3.8667	333.688	487.474	337.293	445.547	480.971	384.622	409.905	476.510	415.659	271.416	445.774	171.005	244.896	434.162	419.152	393.537	0.001399	0.00066983	0.00014465	1400.5	9.1563e-06	2.9705e-06	1398.8	370.9	1.4147e-05	4.632e-06	421.04	138.29	121.19	40.984	6.2778e-06	50.356	0.0011642	0.0015289	0.00042064	1434.8	1.4944e-05	1.6948e-05	1428.6	380.33	1.4724e-05	1.6984e-05	435.11	142.42	124.26	42.447	1.5678e-05	52.397	345.242	223.163	231.992	157.037	285.747	287.065	156.797	161.726	325.514	270.039	161.146	165.815	165.970	171.119	315.974	169.710	-8191	255	
496.424	1	1	0	0	0.037887	0.1804	0.32648	0.35923	0.12027	0.13344	0.30927	0.20518	0.15238	0.1888	0.19902	0.23752	0.034287	0.21276	0.075963	0.27682	-3.3083	-3.8812	-3.5563	-3.8729	-3.65	-3.5542	-4.0417	-3.9562	-3.3812	-3.7458	-3.7271	-3.6625	-3.9813	-3.7208	-3.7583	-3.8625	178.978	151.959	458.875	152.055	248.825	484.344	482.771	464.616	161.031	259.716	239.784	466.202	214.403	493.644	443.861	299.642	0.0013929	0.00052551	0.00012029	1404.7	1.0647e-05	7.1162e-06	1398.1	370.85	1.2963e-05	4.3841e-06	424.62	138.78	121.03	40.747	1.0858e-05	50.479	0.0011908	0.0015286	0.00043001	1439.1	1.538e-05	1.7424e-05	1430.6	380.77	1.5076e-05	1.7013e-05	435.77	142.77	124.23	42.438	1.6028e-05	52.456	345.066	232.625	262.149	157.146	295.698	306.921	156.862	161.652	331.973	302.683	161.304	165.451	166.013	170.882	287.744	169.806	-8191	255	
496.520	1	1	0	0	0.17742	0.3095	0.071656	0.22923	0.14226	0.12973	0.19224	0.278	0.09647	0.033965	0.10346	0.19165	0.13455	0.11954	0.26169	0.26296	-3.2854	-3.9354	-3.5625	-3.9208	-4.0146	-3.725	-4.0458	-4.1062	-3.5375	-3.9688	-3.6875	-3.7167	-4.0917	-3.75	-3.5833	-3.8417	372.232	465.155	232.941	431.104	276.022	176.975	430.464	475.544	185.148	496.762	358.989	479.473	158.202	447.349	252.500	444.863	0.0014527	0.00063455	0.00015777	1402.9	7.6013e-06	4.9472e-06	1401.3	370.57	1.5175e-05	3.8775e-06	423.37	138.88	121.45	40.908	1.0109e-05	50.198	0.0012144	0.0015499	0.00043943	1439.7	1.5638e-05	1.7779e-05	1434.1	381.84	1.5045e-05	1.755e-05	437.16	143.08	124.63	42.592	1.6133e-05	52.502	344.490	231.796	229.068	157.128	314.711	303.753	156.847	161.750	313.609	292.688	161.109	165.791	166.208	170.957	292.637	169.758	-8191	255	
496.616	1	1	0	0	0.11842	0.18275	0.2229	0.29281	0.12101	0.2307	0.12326	0.11723	0.22875	0.035898	0.1119	0.11617	0.12977	0.14053	0.27621	0.17966	-3.1688	-3.7562	-3.7625	-3.6208	-4.0229	-3.7167	-3.9396	-4.0375	-3.6542	-3.85	-3.7271	-3.7562	-4.1042	-3.7521	-3.6208	-3.9833	503.582	241.036	295.401	455.987	189.061	415.620	418.616	452.961	345.149	371.951	493.211	160.098	492.939	156.138	346.322	489.462	0.0013759	0.00042068	0.00012628	1413.9	7.1677e-06	4.2057e-06	1408.8	373.11	1.3155e-05	6.2556e-06	428.31	139.94	121.92	41.162	5.8687e-06	50.785	0.0011976	0.0015504	0.00042999	1448.1	1.5569e-05	1.7809e-05	1440.3	383.33	1.5183e-05	1.7752e-05	440.35	144.04	125.25	42.734	1.6355e-05	52.866	344.460	239.859	233.280	157.187	292.947	308.515	156.872	161.754	319.936	285.280	161.069	165.717	165.994	170.968	255.088	169.765	-8191	255	
496.688	1	1	0	0	0.018676	0.16706	0.22915	0.383	0.15722	0.088427	0.28622	0.077147	0.12601	0.10733	0.044858	0.039132	0.17399	0.12927	0.36722	0.060223	-3.0646	-3.9188	-3.7333	-3.7604	-3.8708	-3.6917	-3.8583	-3.9208	-3.5833	-3.8979	-3.7958	-3.6396	-3.8875	-3.7687	-3.6542	-4.0146	492.937	155.443	416.757	442.064	306.125	235.772	447.154	149.364	361.199	340.097	462.949	447.170	443.753	472.621	475.392	487.319	0.001367	0.00069755	9.1799e-05	1423.3	9.1829e-06	2.4415e-06	1418.1	375.98	1.4493e-05	4.8491e-06	426.58	140.74	122.77	41.555	1.0945e-05	51.27	0.0011987	0.0015642	0.00044297	1456.9	1.5846e-05	1.8105e-05	1449	386.19	1.5103e-05	1.7382e-05	441.48	144.81	126.11	43.087	1.6516e-05	53.211	343.810	227.379	258.588	157.214	283.348	283.017	156.854	161.801	324.866	265.699	161.292	165.795	166.108	170.769	284.564	169.706	-8191	255	
496.784	1	1	0	0	0.12266	0.097156	0.27467	0.14896	0.082952	0.048859	0.31376	0.21629	0.11602	0.11396	0.10202	0.23843	0.17675	0.22928	0.068073	0.21659	-3.0667	-3.7958	-3.7646	-3.8271	-3.9271	-3.5104	-3.8375	-4.0583	-3.5542	-3.8667	-3.7896	-3.4979	-3.9104	-3.7812	-3.6979	-3.8521	218.274	254.957	275.744	162.710	241.158	187.494	441.564	443.827	349.855	374.455	368.230	441.603	159.872	454.665	350.050	468.886	0.0013741	0.00045006	8.963e-05	1425.1	7.6164e-06	4.1327e-06	1424	379.49	1.3542e-05	4.9318e-06	429.66	140.89	123.8	41.643	9.183e-06	51.324	0.0012219	0.0015081	0.00044507	1462.7	1.5874e-05	1.7677e-05	1453.6	388.87	1.5393e-05	1.734e-05	443.13	145.56	126.67	43.215	1.6343e-05	53.444	342.088	254.306	270.067	157.026	310.161	315.443	156.768	161.680	321.928	308.848	161.254	165.647	166.110	170.872	292.692	169.807	-8191	255	
496.904	1	1	0	0	0.29847	0.26667	0.045543	0.23842	0.19614	0.060905	0.29826	0.33494	0.10921	0.088275	0.3306	0.32761	0.23097	0.13191	0.039823	0.23513	-3.2083	-3.725	-3.8875	-3.5583	-3.9188	-3.6167	-3.85	-4.1354	-3.6312	-3.8042	-4.05	-3.6688	-3.875	-3.5812	-3.7354	-3.9938	258.195	297.189	177.421	436.183	173.947	238.777	431.159	472.379	414.624	279.982	378.227	467.936	465.215	495.118	192.416	434.088	0.0013765	0.00039926	0.00015629	1429.5	1.0254e-05	5.7208e-06	1426.3	379.9	1.3654e-05	6.4666e-06	430.47	141.39	123.51	41.402	5.1545e-06	51.349	0.0011923	0.0015863	0.00044233	1466.3	1.6117e-05	1.767e-05	1458.8	389.44	1.5583e-05	1.8005e-05	443.6	145.5	126.58	43.114	1.7093e-05	53.266	346.174	244.689	235.935	157.122	296.646	258.752	156.757	161.743	321.649	275.255	161.111	165.553	166.167	170.758	305.611	169.495	-8191	255	
497.001	1	1	0	0	0.14272	0.12969	0.077473	0.3663	0.10119	0.12553	0.23669	0.12091	0.1193	0.11876	0.12066	0.15744	0.1231	0.13744	0.074461	0.063138	-3.3292	-3.6125	-3.75	-3.8979	-3.8417	-3.7542	-3.7479	-4.0312	-3.6396	-3.6917	-4.0333	-3.775	-3.9083	-3.8875	-3.4333	-3.9938	479.914	459.523	154.869	496.540	424.043	411.905	437.218	154.857	267.677	295.351	469.379	473.940	431.739	475.546	469.814	457.061	0.0014106	0.00045725	0.00013964	1432.4	1.0789e-05	5.6165e-06	1430	378.12	1.1253e-05	5.1248e-06	426.6	140.58	123.44	41.398	9.0146e-06	51.165	0.0012556	0.0016821	0.00047454	1470.6	1.6723e-05	1.8889e-05	1461.4	388.99	1.6434e-05	1.9174e-05	442.49	145.13	126.41	43.11	1.7595e-05	53.292	340.356	221.867	242.048	157.332	296.762	296.543	156.858	161.815	330.966	296.707	161.145	165.829	166.030	170.788	310.358	169.844	-8191	255	
497.097	1	1	0	0	0.10557	0.12164	0.089714	0.41838	0.11492	0.14489	0.2266	0.34792	0.32723	0.16287	0.16582	0.18513	0.16934	0.1713	0.16075	0.18355	-3.3729	-3.5563	-3.8917	-3.8625	-3.9146	-3.6958	-3.6396	-4.0333	-3.6021	-3.7438	-4.0229	-3.8229	-3.7458	-4.0354	-3.5292	-4.05	470.876	400.473	476.768	432.616	498.663	442.702	433.936	472.574	365.183	485.559	194.290	485.916	158.943	488.083	241.808	239.221	0.0014022	0.00052385	0.00015517	1437.5	1.0494e-05	6.4457e-06	1430.3	379.39	1.7061e-05	3.8868e-06	430.87	141.93	123.71	41.592	1.5069e-05	51.025	0.0012813	0.001744	0.00048039	1472.8	1.7059e-05	1.9682e-05	1466.3	389.42	1.6876e-05	1.9681e-05	444.81	145.69	126.79	43.279	1.8244e-05	53.447	343.252	232.056	248.461	157.128	281.586	278.301	156.931	161.892	337.591	281.879	161.101	165.555	166.224	170.819	300.845	169.791	-8191	255	
497.193	1	1	0	0	0.39635	0.058348	0.12773	0.22582	0.11195	0.16772	0.048918	0.22697	0.066234	0.069895	0.12799	0.27025	0.066806	0.26767	0.18665	0.19211	-3.3792	-3.5729	-3.9	-3.8646	-3.6104	-3.9479	-3.8688	-3.8958	-3.7917	-3.7542	-3.9958	-3.8979	-3.8083	-3.9417	-3.5979	-3.925	374.662	447.320	307.457	470.152	366.824	182.446	166.959	219.572	477.462	408.067	328.519	419.644	467.531	412.565	487.961	418.138	0.0014074	0.00045887	0.0001225	1444.6	8.6493e-06	4.5668e-06	1440.8	381.71	1.3677e-05	3.917e-06	431.86	142.1	123.82	41.738	1.0296e-05	51.738	0.0013081	0.0017605	0.00048798	1479.3	1.7089e-05	1.9566e-05	1470.5	390.98	1.6743e-05	1.9606e-05	445.56	146.35	127.54	43.476	1.7949e-05	53.716	343.533	225.896	247.762	157.076	284.172	314.544	157.007	161.792	332.720	288.041	161.150	165.588	166.142	170.725	303.245	169.961	-8191	255	
497.289	1	1	0	0	0.054491	0.38656	0.13287	0.25785	0.1835	0.18178	0.1117	0.035709	0.10536	0.20422	0.13057	0.17883	0.24813	0.2522	0.20872	0.17272	-3.4479	-3.5042	-4.0167	-3.8292	-3.7333	-3.9417	-3.7229	-4.0542	-3.7479	-3.6979	-4.0292	-3.8688	-3.6188	-3.9979	-3.625	-3.8688	230.252	297.807	286.783	445.777	463.784	501.366	176.780	157.196	465.318	286.064	496.470	485.034	464.034	412.783	303.957	237.407	0.001413	0.00064539	0.00013491	1447.5	9.554e-06	4.7955e-06	1434.8	382.01	1.2209e-05	4.8217e-06	433.32	142.25	124.64	42.036	1.1077e-05	51.728	0.0013068	0.0017607	0.00048188	1482.2	1.7159e-05	1.9272e-05	1469.8	391.41	1.6906e-05	1.9136e-05	446	146.88	127.81	43.653	1.7751e-05	53.859	343.461	212.027	221.412	157.055	294.941	323.308	156.739	161.706	330.484	333.988	161.238	165.635	165.826	170.938	305.975	169.902	-8191	255	
497.385	1	1	0	0	0.19567	0.14957	0.2441	0.38848	0.11563	0.10848	0.14902	0.13445	0.23407	0.19475	0.21243	0.023736	0.15767	0.23873	0.19491	0.26116	-3.4417	-3.4646	-3.8479	-3.7833	-3.6583	-3.9479	-3.8083	-3.8812	-3.8792	-3.45	-3.8937	-3.9417	-3.6458	-3.9625	-3.6646	-3.7646	188.814	377.872	277.194	472.380	155.280	203.267	459.477	483.947	376.249	310.030	445.969	468.813	159.999	489.250	384.073	167.125	0.0013842	0.0006259	0.00021104	1447.4	1.1127e-05	4.0875e-06	1438.4	381.14	1.9207e-05	5.6267e-06	431.46	142.87	124.79	41.98	1.2871e-05	51.962	0.0013001	0.001732	0.00048419	1482.2	1.6816e-05	1.9447e-05	1473.3	391.83	1.6868e-05	1.9186e-05	446.87	147.43	128.22	43.766	1.7491e-05	54.029	345.257	235.816	237.237	157.145	277.824	280.205	156.659	161.738	327.741	298.294	161.234	165.350	166.067	170.962	299.866	169.632	-8191	255	
497.504	1	1	0	0	0.17654	0.088275	0.21131	0.26731	0.15228	0.25894	0.26038	0.19022	0.27679	0.091502	0.16994	0.033561	0.21768	0.27649	0.25973	0.16336	-3.5	-3.3917	-3.7938	-3.8354	-3.6167	-3.9583	-3.9729	-3.9958	-4.0312	-3.5583	-3.9479	-4	-3.7729	-4.1333	-3.8354	-3.675	304.601	153.469	351.355	472.273	451.209	470.963	436.153	198.701	147.534	348.432	179.525	442.295	477.628	221.933	433.071	467.322	0.0013972	0.00074989	0.00012919	1445.7	1.0413e-05	6.61e-06	1445.1	382.78	1.1652e-05	4.8788e-06	434.63	143.09	124.87	42.084	6.0637e-06	51.652	0.0012679	0.0016796	0.00047988	1481.9	1.6923e-05	1.9044e-05	1475.7	392.38	1.5991e-05	1.9052e-05	447.98	147.46	128.39	43.764	1.7419e-05	53.958	343.826	214.361	261.377	156.999	272.711	280.359	156.719	161.763	319.460	306.527	161.373	165.585	165.793	170.973	280.430	169.751	-8191	255	
497.600	1	1	0	0	0.1065	0.029667	0.1847	0.17518	0.09162	0.12934	0.36997	0.26374	0.041268	0.33578	0.13088	0.38882	0.15043	0.1682	0.060648	0.20817	-3.5479	-3.6729	-3.8063	-3.9333	-3.525	-3.6875	-3.9875	-3.6792	-3.8187	-3.7354	-3.8583	-3.8812	-3.6646	-4.0042	-3.6729	-3.6354	239.272	438.028	312.156	384.894	464.757	249.856	456.172	469.542	471.650	461.508	331.842	144.124	493.310	203.177	408.426	164.333	0.0014446	0.00040436	0.00015773	1447.7	5.9028e-06	3.0346e-06	1440	382.02	1.3432e-05	5.1605e-06	430.88	143.4	124.91	42.232	1.2636e-05	51.958	0.0012809	0.001695	0.00047904	1485.1	1.6876e-05	1.9269e-05	1473.5	391.86	1.6536e-05	1.8827e-05	447.22	147.65	128.24	43.876	1.7581e-05	54.057	342.400	201.198	250.309	156.972	264.391	293.264	156.988	161.715	322.140	281.042	161.314	165.377	165.856	170.979	323.495	169.843	-8191	255	
497.696	1	1	0	0	0.24053	0.10717	0.30235	0.25948	0.1456	0.068458	0.223	0.3146	0.17648	0.097635	0.26867	0.25377	0.37627	0.11433	0.014927	0.1614	-3.5292	-3.6021	-3.8667	-4.1062	-3.6125	-3.8688	-3.8937	-3.6521	-4.125	-3.6625	-3.6625	-3.9958	-3.6854	-3.9792	-3.8292	-3.6271	233.469	459.012	309.004	482.381	301.150	480.218	392.402	404.881	320.633	203.692	352.889	277.169	428.805	160.410	478.830	420.896	0.0014171	0.0006654	0.00012092	1448.1	8.1357e-06	6.9546e-06	1444.3	382.78	1.2254e-05	4.425e-06	432.27	143.79	125.29	42.203	1.1787e-05	51.948	0.0012715	0.0016629	0.00046715	1482.9	1.6894e-05	1.8776e-05	1476.3	392.49	1.6253e-05	1.8717e-05	446.93	147.86	128.57	43.852	1.7383e-05	54.202	345.045	223.897	232.355	157.358	285.694	298.074	156.571	161.846	328.215	293.799	160.918	165.566	166.218	170.930	287.458	169.838	-8191	255	
497.792	1	1	0	0	0.21709	0.097112	0.082107	0.18689	0.26158	0.14671	0.19812	0.071513	0.024189	0.13836	0.058359	0.11795	0.13625	0.09032	0.10098	0.094265	-3.5687	-3.6521	-3.8438	-4.0708	-3.6354	-3.9104	-4.0104	-3.6333	-3.9375	-3.5854	-3.7021	-4.1021	-3.7708	-4.0167	-3.9688	-3.8354	444.952	368.933	311.603	155.765	353.835	312.049	497.427	444.977	232.162	390.557	497.105	499.561	466.374	146.451	456.703	471.098	0.0014026	0.00048492	0.00014926	1444.4	1.109e-05	4.1955e-06	1443.5	382.63	1.5511e-05	3.8104e-06	433.59	143.73	124.97	42.166	7.7985e-06	51.983	0.0012667	0.0016159	0.00047875	1483.8	1.6636e-05	1.9386e-05	1474.7	392.54	1.6267e-05	1.8726e-05	446.76	147.68	128.27	43.861	1.7628e-05	54.075	344.424	228.721	231.135	157.140	290.560	275.173	156.800	161.560	329.136	289.247	161.026	165.629	165.865	170.660	266.068	169.955	-8191	255	
497.913	1	1	0	0	0.42004	0.13191	0.1052	0.37897	0.15058	0.16706	0.26272	0.18848	0.20985	0.20061	0.14459	0.10644	0.30168	0.13293	0.15519	0.031574	-3.4542	-3.5458	-3.4708	-4.1542	-3.6167	-3.8917	-4.0208	-3.7604	-3.9688	-3.7792	-3.7604	-4.0417	-3.7417	-3.8083	-4.0479	-3.5667	446.480	478.784	283.662	468.256	388.121	439.127	501.490	403.297	179.819	465.848	453.031	404.543	428.127	342.005	243.208	179.945	0.0014146	0.0002611	0.00014837	1448.1	1.057e-05	5.0961e-06	1442.6	383.14	1.6714e-05	3.4737e-06	433.42	143.26	125.05	42.314	9.6432e-06	51.884	0.0012896	0.001684	0.00048381	1484.5	1.676e-05	1.8867e-05	1476.6	392.6	1.6284e-05	1.8822e-05	447.56	147.7	128.43	43.927	1.7728e-05	54.128	344.527	257.698	221.007	156.919	313.222	300.708	156.805	161.536	334.444	292.479	161.292	165.498	166.098	170.819	298.707	169.645	-8191	255	
497.985	1	1	0	0	0.12638	0.14139	0.27994	0.069879	0.096752	0.15791	0.27184	0.18399	0.13636	0.097039	0.12015	0.12181	0.085642	0.067335	0.14807	0.27073	-3.5708	-3.6542	-3.6583	-4.1479	-3.6229	-3.6875	-4.1083	-3.6646	-3.9021	-3.7979	-3.7729	-4.0271	-3.8292	-3.85	-3.8104	-3.6167	424.431	444.834	482.345	206.846	465.112	459.205	428.231	327.157	262.884	207.426	250.055	362.076	210.253	368.680	337.226	477.105	0.0014784	0.0007254	0.00015081	1446.2	9.4455e-06	4.0419e-06	1444.4	382.05	9.762e-06	5.2339e-06	431.85	143.35	125.14	42.285	1.2644e-05	52.172	0.0012696	0.0017312	0.00046883	1485.4	1.6759e-05	1.8985e-05	1476.1	392.25	1.6001e-05	1.8937e-05	447.82	147.9	128.66	44	1.7363e-05	54.246	346.543	240.768	218.398	157.208	307.494	295.931	156.856	161.552	311.047	311.976	161.490	165.651	166.072	170.820	284.997	169.596	-8191	255	
498.105	1	1	0	0	0.10046	0.14589	0.1118	0.083097	0.11249	0.10133	0.24089	0.1491	0.15278	0.13597	0.26661	0.31205	0.1741	0.19812	0.17512	0.081665	-3.5125	-3.8708	-3.5375	-4.1646	-3.6104	-3.6208	-4.0042	-3.7833	-3.8146	-3.8771	-3.6771	-3.9583	-3.8479	-3.7313	-3.9042	-3.5792	385.816	207.219	153.684	171.255	481.185	175.134	442.547	455.580	338.762	434.263	417.327	404.587	154.313	151.665	431.000	208.208	0.0013912	0.00052944	0.00014506	1447.1	7.2475e-06	5.4296e-06	1440.9	381.93	1.384e-05	7.3207e-06	433.62	143.82	125.72	42.401	1.2014e-05	52.144	0.0012556	0.0016611	0.00046066	1486	1.6329e-05	1.8857e-05	1475.4	392.75	1.6206e-05	1.8351e-05	447.69	148.24	129.04	44.088	1.6948e-05	54.374	344.194	221.870	238.148	157.257	298.961	304.775	156.723	161.720	325.294	296.552	161.295	165.630	166.021	170.946	286.579	169.770	-8191	255	
498.202	1	1	0	0	0.050705	0.16437	0.20722	0.14709	0.10671	0.15944	0.18646	0.086515	0.072377	0.23621	0.16881	0.3723	0.29291	0.16136	0.11964	0.28417	-3.3979	-3.7583	-3.3729	-3.8729	-3.8292	-3.7479	-4.2167	-3.6167	-3.6375	-3.8083	-3.4875	-3.9188	-3.9979	-3.6312	-3.9792	-3.7979	397.838	411.851	259.051	451.093	403.480	267.400	415.652	384.976	245.278	458.467	305.642	437.615	484.280	157.543	412.795	487.427	0.0014505	0.00064139	0.00018118	1451.4	9.8926e-06	4.5481e-06	1447.8	383.33	1.5737e-05	5.4023e-06	434.53	144.34	125.64	42.505	1.1564e-05	52.466	0.0012765	0.001653	0.00046007	1486.7	1.6343e-05	1.832e-05	1478.2	392.98	1.6071e-05	1.8033e-05	447.85	148.41	129.1	44.138	1.6831e-05	54.395	343.983	206.320	238.009	157.160	277.787	294.311	156.679	161.648	326.545	275.120	161.124	165.561	165.917	170.942	300.731	169.740	-8191	255	
498.296	1	1	0	0	0.21797	0.13085	0.12931	0.25628	0.061578	0.13345	0.17072	0.08245	0.27192	0.0086904	0.045969	0.15524	0.069255	0.071107	0.13986	0.17186	-3.3667	-3.95	-3.5187	-4.0521	-3.7687	-3.5542	-4.0271	-3.7146	-3.6521	-4.0312	-3.6104	-3.8042	-3.9437	-3.7062	-3.9625	-3.7354	257.807	501.809	363.559	441.374	415.728	324.159	417.370	434.324	484.756	386.896	399.869	403.740	157.155	325.810	355.285	472.670	0.0014646	0.00063551	0.0001353	1449.6	8.4379e-06	6.1347e-06	1442.7	382.87	1.7933e-05	3.6255e-06	431.36	144.21	125.62	42.468	8.5901e-06	52.237	0.0012713	0.0016743	0.0004577	1487.7	1.6342e-05	1.8518e-05	1477.3	392.6	1.6318e-05	1.8176e-05	447.32	148.33	128.98	44.143	1.6834e-05	54.388	343.780	229.192	235.210	157.221	313.465	284.934	156.787	161.731	328.064	283.913	161.441	165.743	165.986	170.842	303.812	169.740	-8191	255	
498.392	1	1	0	0	0.24917	0.1035	0.27951	0.3709	0.12311	0.074602	0.29916	0.22301	0.17994	0.081543	0.13121	0.16997	0.27182	0.05579	0.076439	0.39791	-3.2146	-3.8083	-3.5187	-4.025	-3.8729	-3.5854	-4.0896	-3.7333	-3.6042	-3.8458	-3.7812	-3.6875	-4.1208	-3.575	-3.9792	-3.7729	157.033	439.098	429.356	487.930	348.452	351.986	416.738	464.521	215.912	415.339	264.433	405.641	475.636	421.555	247.169	462.223	0.0014592	0.00068682	0.00012974	1449.5	1.0916e-05	3.9999e-06	1444.3	383.4	1.2431e-05	5.5994e-06	432.76	144.91	126.39	42.579	7.4772e-06	52.608	0.0012642	0.0016624	0.00044505	1485.9	1.6196e-05	1.8335e-05	1477.6	393.22	1.6106e-05	1.8046e-05	447.47	149	129.37	44.307	1.6358e-05	54.639	344.855	221.172	223.795	157.277	284.966	280.172	156.724	161.794	329.140	320.640	161.045	165.658	166.173	170.681	285.474	169.746	-8191	255	
498.513	1	1	0	0	0.14051	0.19617	0.071874	0.2569	0.14483	0.17188	0.12633	0.2961	0.024429	0.087715	0.17512	0.14677	0.3606	0.086016	0.121	0.081299	-3.2292	-3.8917	-3.6	-4.0583	-3.8917	-3.4146	-4.1417	-3.9167	-3.6396	-3.9375	-3.6542	-3.9042	-4.0271	-3.6417	-3.7313	-3.9708	291.193	173.216	369.873	475.732	254.804	431.968	355.093	490.900	229.233	449.372	450.811	182.669	460.225	157.693	443.357	445.729	0.001406	0.00048899	8.953e-05	1449.2	8.645e-06	7.6989e-06	1448.3	384.18	1.3436e-05	5.839e-06	434.55	145.32	126.5	42.876	1.097e-05	52.696	0.001229	0.001593	0.00044845	1487.4	1.5791e-05	1.7911e-05	1479	393.98	1.5419e-05	1.7614e-05	448.3	149.36	129.76	44.548	1.6779e-05	54.891	341.437	213.921	250.910	157.229	324.560	271.638	156.675	161.674	327.762	285.906	161.168	165.661	165.891	170.702	285.858	169.732	-8191	255	
498.584	1	1	0	0	0.13157	0.094643	0.16361	0.30211	0.13369	0.1436	0.27314	0.24508	0.14091	0.15331	0.12255	0.3422	0.12386	0.17634	0.2243	0.10865	-3.3208	-3.9667	-3.5417	-3.9	-3.8729	-3.4729	-3.9917	-3.9646	-3.6292	-3.9062	-3.6479	-3.9042	-4.0958	-3.7125	-3.8312	-3.8542	346.209	445.115	376.481	464.915	443.868	361.720	450.590	432.910	280.306	408.684	427.175	459.966	298.610	496.199	256.591	474.966	0.0014176	0.00060004	0.00015345	1451.7	1.094e-05	5.543e-06	1449.2	385	1.3123e-05	5.4501e-06	434.61	145.78	127.11	43.13	7.2842e-06	52.972	0.0012065	0.0015543	0.00043359	1487.5	1.5834e-05	1.7291e-05	1480.1	394.5	1.5364e-05	1.7199e-05	449.69	150.17	130.47	44.822	1.5968e-05	55.157	347.287	226.597	219.262	157.217	296.367	311.124	156.860	161.590	343.489	303.093	161.420	165.631	165.738	170.737	304.109	169.616	-8191	255	
498.681	1	1	0	0	0.10579	0.28434	0.30848	0.18617	0.046629	0.11357	0.33951	0.086217	0.22875	0.1625	0.28306	0.11047	0.16681	0.13638	0.11349	0.1985	-3.0812	-3.7667	-3.6875	-3.7604	-4.0833	-3.6625	-3.9708	-3.9875	-3.5708	-3.85	-3.8042	-3.7458	-3.9354	-3.7083	-3.6125	-4.0437	387.942	457.947	443.339	483.630	447.132	188.463	439.250	478.913	152.877	429.823	490.321	377.870	268.422	471.492	410.684	150.614	0.0014508	0.00063387	0.00012529	1446.6	9.2379e-06	3.6106e-06	1447.7	384.74	1.4439e-05	7.0407e-06	435.14	145.48	126.99	43.09	1.4242e-05	52.949	0.0012098	0.0015612	0.00044906	1486.9	1.5299e-05	1.7684e-05	1479.5	394.43	1.5215e-05	1.7681e-05	449.59	149.99	130.5	44.756	1.6493e-05	55.084	346.974	240.654	228.585	157.180	289.510	280.637	156.900	161.813	322.435	308.992	161.390	165.716	166.062	170.655	296.020	169.586	-8191	255	
498.777	1	1	0	0	0.19572	0.15684	0.088199	0.18682	0.1308	0.23454	0.43127	0.093041	0.19111	0.36324	0.097439	0.24587	0.10601	0.21431	0.024063	0.050823	-3.2354	-3.8063	-3.7875	-3.8208	-3.9333	-3.7042	-4.0167	-3.9583	-3.5958	-3.8875	-3.8625	-3.6188	-3.9708	-3.7333	-3.8792	-3.9167	447.949	350.994	195.012	465.886	234.134	390.548	432.607	440.547	484.720	478.071	426.545	406.099	421.399	455.914	467.429	214.548	0.0014308	0.00076435	9.9318e-05	1451.7	9.9089e-06	5.9303e-06	1447.8	384.44	1.5833e-05	5.8887e-06	434.74	144.94	126.98	42.897	1.0435e-05	53.049	0.0012307	0.00159	0.00043363	1488	1.5265e-05	1.814e-05	1481.5	394.63	1.4947e-05	1.7628e-05	449.2	149.7	130.59	44.737	1.6667e-05	55.071	346.182	214.243	214.181	157.083	299.635	298.132	156.943	161.784	329.007	290.512	161.068	165.458	165.861	170.715	306.192	169.703	-8191	255	
498.873	1	1	0	0	0.14754	0.086654	0.26946	0.032251	0.18236	0.11115	0.15342	0.17857	0.03428	0.15973	0.15384	0.087058	0.096327	0.21469	0.027761	0.20602	-3.3208	-3.7875	-3.8125	-3.7375	-3.9458	-3.7396	-3.825	-4.0667	-3.7188	-3.6917	-3.8104	-3.725	-3.9792	-3.8208	-3.7062	-4.0417	470.310	402.448	208.786	357.045	241.636	225.472	440.910	450.860	422.762	475.475	473.658	431.051	189.241	457.580	215.041	438.124	0.0014814	0.00040271	0.00012147	1447.6	1.0751e-05	6.6228e-06	1451.1	383.94	1.3001e-05	3.4406e-06	434.16	145.69	127.17	43.242	8.7425e-06	52.806	0.0012477	0.0015827	0.00043936	1486.8	1.5737e-05	1.7687e-05	1481.6	394.3	1.531e-05	1.7463e-05	449.65	150.02	130.53	44.871	1.6076e-05	55.142	342.877	219.348	227.442	157.227	296.735	292.254	156.866	161.728	319.949	285.646	161.468	165.526	166.174	170.873	304.797	169.648	-8191	255	
498.993	1	1	0	0	0.26133	0.2448	0.049902	0.22901	0.066954	0.23539	0.42563	0.19547	0.22131	0.1229	0.1305	0.15054	0.01122	0.22482	0.11095	0.024247	-3.1479	-3.7771	-3.825	-3.6063	-4.0437	-3.8063	-3.7542	-4.1042	-3.4938	-3.6979	-3.9042	-3.6562	-3.9208	-3.9604	-3.5833	-4.0604	177.285	479.905	369.907	462.913	198.730	339.133	455.175	469.397	405.366	273.309	481.426	493.758	268.137	455.425	378.282	459.347	0.0014482	0.00074082	0.00016873	1454.5	9.4539e-06	5.5363e-06	1446.7	384.82	1.4082e-05	6.7653e-06	435.39	146.19	127.44	43.277	1.1222e-05	53.284	0.0012155	0.0015428	0.00043278	1489.4	1.5204e-05	1.7435e-05	1479.9	395.07	1.5072e-05	1.7277e-05	450.74	150.62	131.05	44.971	1.5499e-05	55.477	344.388	243.936	239.123	157.088	282.991	317.690	156.734	161.782	328.868	301.276	161.605	165.464	166.028	170.857	292.194	169.611	-8191	255	
499.090	1	1	0	0	0.096473	0.079543	0.085513	0.24629	0.16523	0.1728	0.19728	0.17233	0.010648	0.2027	0.17159	0.28485	0.12995	0.20355	0.081332	0.052346	-3.4583	-3.6292	-3.7521	-3.7583	-3.7875	-3.7354	-3.7438	-4.0062	-3.65	-3.6979	-4.0625	-3.7208	-3.9917	-4.0104	-3.4604	-4.0167	291.919	350.783	167.358	493.661	360.230	416.761	469.651	461.390	393.495	377.908	186.218	408.571	483.747	438.187	156.025	279.556	0.0015017	0.00059388	0.00016368	1450	7.8928e-06	5.8404e-06	1451.4	385.91	1.6633e-05	6.7256e-06	438.31	146.81	128.07	43.478	1.1436e-05	53.377	0.0012269	0.0015213	0.00041585	1488.6	1.5488e-05	1.7016e-05	1483.1	395.67	1.4965e-05	1.7257e-05	450.98	151.29	131.58	45.257	1.5389e-05	55.611	344.154	236.849	246.854	157.148	285.322	299.967	156.964	161.541	335.504	285.178	161.291	165.601	166.047	170.729	289.675	169.812	-8191	255	
499.186	1	1	0	0	0.061891	0.18671	0.10149	0.29371	0.1274	0.099473	0.14406	0.25225	0.11417	0.04626	0.0436	0.25601	0.15153	0.0624	0.10548	0.24501	-3.2458	-3.6708	-3.8771	-3.8063	-3.8438	-3.6771	-3.7667	-4.1	-3.6792	-3.7542	-3.9896	-3.7208	-3.8063	-3.8771	-3.5896	-4.0208	286.456	428.337	494.235	452.620	186.396	329.734	451.313	347.677	386.062	473.248	165.344	446.405	181.325	212.501	198.154	364.944	0.0014595	0.00054266	0.00013363	1454.1	8.4058e-06	6.0902e-06	1453.3	385.98	1.1209e-05	5.2773e-06	438.31	147.45	128.31	43.701	9.4163e-06	53.45	0.0011939	0.0015208	0.00042375	1491	1.5059e-05	1.6867e-05	1484	396.27	1.4743e-05	1.661e-05	451.3	151.46	131.76	45.336	1.5544e-05	55.727	344.825	224.966	258.362	157.119	283.681	310.399	156.900	161.903	325.091	305.765	161.199	165.482	166.104	170.657	291.480	169.705	-8191	255	
499.282	1	1	0	0	0.20005	0.047402	0.035688	0.17636	0.20271	0.31957	0.2504	0.1957	0.1151	0.10708	0.16584	0.051493	0.043826	0.141	0.29147	0.18204	-3.2125	-3.4167	-3.8521	-3.9542	-3.7	-3.9771	-3.7313	-4.0708	-3.7521	-3.6688	-3.9875	-3.7042	-3.8146	-3.9104	-3.6437	-3.8625	447.073	209.866	416.997	158.851	152.891	282.422	467.145	419.214	219.663	426.782	431.866	337.107	475.555	145.069	493.022	401.251	0.0014462	0.00061246	0.0001598	1455.5	9.987e-06	4.9626e-06	1450.5	386.1	1.6561e-05	4.8156e-06	437.54	147.2	129.2	43.527	7.8467e-06	53.558	0.0011893	0.0014684	0.00040701	1491.7	1.5112e-05	1.7193e-05	1484.7	396.6	1.4824e-05	1.6612e-05	452.2	151.52	131.84	45.273	1.5353e-05	55.75	343.440	259.635	238.532	157.282	316.489	328.344	156.919	161.647	333.904	282.931	161.141	165.670	166.000	170.817	291.727	169.720	-8191	255	
499.376	1	1	0	0	0.10956	0.19654	0.23582	0.12894	0.19302	0.12815	0.29095	0.26796	0.088968	0.21701	0.16185	0.28358	0.4498	0.18602	0.20344	0.12966	-3.425	-3.4667	-4.0188	-3.7271	-3.6167	-3.9354	-3.7833	-3.9521	-3.8563	-3.5792	-3.9792	-3.8187	-3.7792	-4.0604	-3.675	-3.6896	311.881	276.066	231.583	487.330	384.844	289.769	477.556	452.738	385.220	308.350	160.005	427.278	143.875	474.857	471.909	493.010	0.0014131	0.00056879	0.00016212	1454.5	9.866e-06	3.0053e-06	1455.1	386.95	1.3598e-05	5.36e-06	437.17	147.49	128.63	43.53	8.0193e-06	53.4	0.0011909	0.0014866	0.00042003	1491.3	1.4815e-05	1.6243e-05	1485.2	396.87	1.4598e-05	1.6546e-05	452.14	151.88	131.82	45.345	1.5391e-05	55.784	344.590	232.366	247.669	157.149	287.060	295.471	156.893	161.592	340.694	290.708	161.485	165.369	165.978	170.683	301.501	169.815	-8191	255	
499.474	1	1	0	0	0.15816	0.33776	0.20198	0.22341	0.15596	0.077793	0.20483	0.084606	0.13103	0.065258	0.13069	0.17995	0.13549	0.071587	0.15643	0.17032	-3.2812	-3.6688	-3.8146	-3.8708	-3.5708	-3.8979	-3.7687	-3.9188	-3.7313	-3.6896	-3.9625	-3.8708	-3.65	-3.8854	-3.7104	-3.7229	463.929	318.785	317.085	479.283	314.465	237.385	445.323	499.879	207.614	412.143	381.827	455.046	219.374	487.073	168.760	489.189	0.0014489	0.0005825	0.00012152	1452.2	1.3302e-05	5.8437e-06	1449.5	386.43	1.4598e-05	5.5914e-06	437.72	147.21	128.09	43.628	1.2296e-05	53.573	0.0011761	0.0014598	0.00042128	1490.4	1.4749e-05	1.6306e-05	1483.3	396.39	1.4267e-05	1.6345e-05	451.62	151.7	131.63	45.312	1.5539e-05	55.705	342.839	220.846	239.416	157.243	298.197	287.532	156.767	161.672	329.451	310.536	161.205	165.209	166.125	170.871	308.489	169.709	-8191	255	
499.593	1	1	0	0	0.10602	0.13937	0.16635	0.18027	0.24215	0.10617	0.1883	0.064418	0.31301	0.042049	0.24573	0.090649	0.3132	0.15234	0.24429	0.15509	-3.4125	-3.4688	-3.8542	-4.0437	-3.6125	-3.8896	-3.8875	-3.8271	-3.8812	-3.6396	-3.8875	-3.8708	-3.7146	-4.0792	-3.5583	-3.8312	209.739	146.488	472.985	450.594	344.460	415.811	443.352	471.751	358.502	472.625	488.906	157.973	472.905	497.081	400.282	427.767	0.0014363	0.00064128	0.00013565	1457.7	9.8396e-06	6.4385e-06	1447.6	385.95	1.3792e-05	5.3037e-06	438.64	147.54	127.9	43.707	1.0853e-05	53.734	0.0011831	0.001483	0.00042289	1491.3	1.5067e-05	1.6938e-05	1483.3	396.51	1.4477e-05	1.6542e-05	452.59	151.82	131.76	45.332	1.5508e-05	55.846	343.370	230.106	233.031	157.080	292.689	310.654	156.898	161.802	318.806	283.621	161.184	165.787	165.894	170.616	306.239	169.663	-8191	255	
499.689	1	1	0	0	0.36885	0.25499	0.16755	0.080996	0.27008	0.20078	0.12972	0.35721	0.07531	0.068312	0.11241	0.32451	0.10424	0.056002	0.15901	0.31789	-3.5187	-3.5167	-3.8729	-4.1	-3.5083	-3.9062	-3.7646	-3.7271	-3.9854	-3.7229	-3.9229	-3.8958	-3.6583	-3.9292	-3.7938	-3.7125	399.464	157.464	392.233	414.395	164.697	230.046	402.503	423.666	174.293	386.127	403.334	440.215	402.167	148.030	191.355	304.956	0.0014877	0.00044581	0.0001596	1456	1.0805e-05	5.7118e-06	1455.7	387.14	1.3899e-05	4.8168e-06	440.02	147.2	128.88	43.816	6.492e-06	53.819	0.0011813	0.0014796	0.00041551	1491.8	1.4554e-05	1.6677e-05	1484	396.73	1.4488e-05	1.6446e-05	452.24	151.79	132.01	45.496	1.5273e-05	55.942	343.729	242.074	230.776	157.096	303.827	284.954	156.756	161.825	344.628	270.827	161.180	165.691	165.964	170.611	295.206	169.538	-8191	255	
499.785	1	1	0	0	0.1769	0.067752	0.19251	0.16314	0.14073	0.13658	0.077229	0.11196	0.056405	0.15831	0.20259	0.018254	0.1087	0.16334	0.088173	0.21339	-3.4896	-3.5646	-3.5333	-3.9458	-3.6583	-3.9271	-3.9833	-3.8333	-4.0521	-3.6562	-3.8667	-4.0062	-3.8333	-4.0958	-3.6937	-3.6667	325.537	158.301	151.520	462.957	363.571	203.921	361.150	441.143	328.661	287.809	456.744	150.253	353.021	196.220	319.349	162.609	0.0015103	0.00042216	7.9243e-05	1453.8	9.996e-06	4.5773e-06	1453	387.5	1.8921e-05	5.5429e-06	437.59	147.31	128.68	43.807	7.7487e-06	53.652	0.0012001	0.0014969	0.00042547	1491.6	1.483e-05	1.6805e-05	1484.4	396.87	1.3967e-05	1.6769e-05	451.48	152.03	132.22	45.54	1.5354e-05	55.963	343.418	233.499	261.796	157.124	282.843	294.671	156.903	161.792	334.362	274.878	161.459	165.594	166.105	170.913	322.936	169.464	-8191	255	
499.882	1	1	0	0	0.17658	0.073305	0.0552	0.13646	0.19362	0.2051	0.33302	0.22492	0.18011	0.15525	0.10795	0.12221	0.27215	0.34092	0.11366	0.14198	-3.3167	-3.6521	-3.6521	-3.9771	-3.5375	-3.8354	-4.0729	-3.7208	-3.7958	-3.55	-3.7812	-4.0646	-3.4125	-3.9104	-4.0708	-3.6958	498.937	365.291	291.245	450.934	399.307	163.359	431.342	408.023	367.170	428.289	500.141	499.777	165.297	148.760	153.377	421.587	0.0014849	0.00066777	0.00013212	1456	6.8666e-06	3.5076e-06	1452.5	387.31	1.5567e-05	4.6339e-06	438.34	147.92	129.29	43.991	7.7543e-06	53.948	0.0011764	0.001509	0.00042068	1493.8	1.4766e-05	1.645e-05	1484.7	396.96	1.4321e-05	1.6446e-05	452.45	152.59	132.67	45.625	1.524e-05	56.049	343.320	233.644	235.044	157.069	311.777	317.260	156.838	161.838	335.543	280.376	161.191	165.391	166.097	170.751	297.409	169.776	-8191	255	
499.978	1	1	0	0	0.15311	0.044743	0.12982	0.38952	0.052234	0.038227	0.15454	0.26734	0.036797	0.15082	0.14109	0.28175	0.070716	0.0927	0.081895	0.18605	-3.5625	-3.6646	-3.7313	-4.1479	-3.5	-3.7687	-4.0521	-3.7333	-3.8708	-3.7167	-3.6521	-4.0146	-3.7188	-3.9167	-3.7812	-3.6042	389.904	242.863	498.081	463.262	209.465	223.986	387.799	409.875	157.753	479.641	176.067	145.965	190.544	278.555	472.041	458.277	0.0014938	0.00052201	0.00011716	1460.8	7.4174e-06	3.1939e-06	1451.5	386.6	1.5709e-05	5.4924e-06	439.71	147.86	128.76	43.848	8.4417e-06	53.944	0.001193	0.0014724	0.00041326	1494.9	1.4833e-05	1.6475e-05	1485.1	397.44	1.4406e-05	1.6636e-05	453.48	152.32	132.46	45.661	1.5101e-05	56.152	344.266	238.486	245.288	157.351	316.046	276.717	156.831	161.866	316.124	304.742	161.114	165.319	166.007	170.798	295.418	169.570	-8191	255	
500.074	1	1	0	0	0.21857	0.041148	0.094278	0.15403	0.13462	0.18254	0.18288	0.12176	0.14444	0.24753	0.054622	0.31283	0.268	0.16063	0.19719	0.093466	-3.5896	-3.5979	-3.5625	-4.0396	-3.8229	-3.6937	-4.1917	-3.7896	-3.875	-3.8208	-3.5479	-4.0687	-3.6312	-3.7375	-4.0021	-3.6708	181.136	502.458	268.923	499.844	456.278	260.729	446.032	153.456	182.331	152.547	218.126	486.258	483.910	235.366	315.446	184.609	0.0014859	0.00046382	0.00013738	1454.6	9.6242e-06	5.3262e-06	1457.6	387.87	1.4239e-05	5.2373e-06	440.18	148.65	129.72	43.955	1.0719e-05	54.05	0.0011995	0.0014518	0.00041549	1493.3	1.4863e-05	1.6565e-05	1488.8	397.57	1.484e-05	1.6044e-05	453.89	152.64	132.74	45.709	1.5097e-05	56.116	341.038	237.533	242.895	157.026	289.531	312.520	156.954	161.750	331.475	291.246	161.421	165.361	165.768	170.796	309.574	169.628	-8191	255	
500.170	1	1	0	0	0.10524	0.11323	0.34179	0.1254	0.31359	0.18966	0.11497	0.042721	0.13524	0.17609	0.019903	0.35632	0.048558	0.12692	0.1553	0.16945	-3.45	-3.7271	-3.4958	-3.9896	-3.6854	-3.5875	-4.0875	-3.8354	-3.7708	-3.6771	-3.5833	-4.0938	-3.8229	-3.6979	-3.9354	-3.6354	345.172	499.936	481.759	502.049	149.447	493.851	145.229	277.722	188.534	485.318	242.680	198.730	216.041	466.631	435.389	427.916	0.0014875	0.00045598	0.00012701	1457	1.0275e-05	3.2243e-06	1456.5	388.68	1.6651e-05	5.3706e-06	439.24	148.66	129.88	43.997	1.0495e-05	54.236	0.0012014	0.0014346	0.00040073	1493.5	1.4554e-05	1.6738e-05	1486.2	398.09	1.4477e-05	1.6418e-05	453.57	153.1	133.01	45.825	1.4955e-05	56.306	343.041	206.395	228.955	157.094	279.974	294.591	156.860	161.727	321.091	311.556	161.047	165.500	166.033	170.921	299.529	169.637	-8191	255	
#DATA ENDS
