BOXY.EXE: ISS Imagent and Oximeter Data Acquisition Program Version 0.80
Ascii Record File

#ACQ INFORMATION
2  Detector Channels 
16  External MUX Channels 
1  Auxiliary Channels 
5000  Waveform (CCF) Frequency (Hz)
1  Waveforms Skipped 
30  Waveforms Averaged 
1  Cycles Averaged 
16  Acquisitions per Waveform 
10.0806  Updata Rate (Hz) 

#FILE INFORMATION
TRUE -- External MUX Channel results are PARSED.
FALSE -- AC DC and Phase are NOT grouped.
TRUE -- Companion Program Settings File CREATED.
FALSE -- AC data not excluded
FALSE -- DC data not excluded
FALSE -- Phase data not excluded
FALSE -- Auxillary Chn. data not excluded
Tab delimiters

#CALIBRATION STATE
TRUE -- Waveform Calibration Values APPLIED.


#AUX CALIBRATION VALUES
Val Type	aux-1	

Term	1.0000e+00	
Factor	0.0000e+00	


#WF CALIBRATION VALUES
A = Detector Channel
Val Type	A-AC1	A-AC2	A-AC3	A-AC4	A-AC5	A-AC6	A-AC7	A-AC8	A-AC9	A-AC10	A-AC11	A-AC12	A-AC13	A-AC14	A-AC15	A-AC16	A-DC1	A-DC2	A-DC3	A-DC4	A-DC5	A-DC6	A-DC7	A-DC8	A-DC9	A-DC10	A-DC11	A-DC12	A-DC13	A-DC14	A-DC15	A-DC16	A-Ph1	A-Ph2	A-Ph3	A-Ph4	A-Ph5	A-Ph6	A-Ph7	A-Ph8	A-Ph9	A-Ph10	A-Ph11	A-Ph12	A-Ph13	A-Ph14	A-Ph15	A-Ph16	

Term	0.00000e+00	0.00000e+00	0.00000e+00	0.00000e+00	0.00000e+00	0.00000e+00	0.00000e+00	0.00000e+00	0.00000e+00	0.00000e+00	0.00000e+00	0.00000e+00	0.00000e+00	0.00000e+00	0.00000e+00	0.00000e+00	0.00000e+00	0.00000e+00	0.00000e+00	0.00000e+00	0.00000e+00	0.00000e+00	0.00000e+00	0.00000e+00	0.00000e+00	0.00000e+00	0.00000e+00	0.00000e+00	0.00000e+00	0.00000e+00	0.00000e+00	0.00000e+00	0.00000e+00	0.00000e+00	0.00000e+00	0.00000e+00	0.00000e+00	0.00000e+00	0.00000e+00	0.00000e+00	0.00000e+00	0.00000e+00	0.00000e+00	0.00000e+00	0.00000e+00	0.00000e+00	0.00000e+00	0.00000e+00	
Factor	1.00000e+00	1.00000e+00	1.00000e+00	1.00000e+00	1.00000e+00	1.00000e+00	1.00000e+00	1.00000e+00	1.00000e+00	1.00000e+00	1.00000e+00	1.00000e+00	1.00000e+00	1.00000e+00	1.00000e+00	1.00000e+00	1.00000e+00	1.00000e+00	1.00000e+00	1.00000e+00	1.00000e+00	1.00000e+00	1.00000e+00	1.00000e+00	1.00000e+00	1.00000e+00	1.00000e+00	1.00000e+00	1.00000e+00	1.00000e+00	1.00000e+00	1.00000e+00	X	X	X	X	X	X	X	X	X	X	X	X	X	X	X	X	

B = Detector Channel
Val Type	B-AC1	B-AC2	B-AC3	B-AC4	B-AC5	B-AC6	B-AC7	B-AC8	B-AC9	B-AC10	B-AC11	B-AC12	B-AC13	B-AC14	B-AC15	B-AC16	B-DC1	B-DC2	B-DC3	B-DC4	B-DC5	B-DC6	B-DC7	B-DC8	B-DC9	B-DC10	B-DC11	B-DC12	B-DC13	B-DC14	B-DC15	B-DC16	B-Ph1	B-Ph2	B-Ph3	B-Ph4	B-Ph5	B-Ph6	B-Ph7	B-Ph8	B-Ph9	B-Ph10	B-Ph11	B-Ph12	B-Ph13	B-Ph14	B-Ph15	B-Ph16	

Term	0.00000e+00	0.00000e+00	0.00000e+00	0.00000e+00	0.00000e+00	0.00000e+00	0.00000e+00	0.00000e+00	0.00000e+00	0.00000e+00	0.00000e+00	0.00000e+00	0.00000e+00	0.00000e+00	0.00000e+00	0.00000e+00	0.00000e+00	0.00000e+00	0.00000e+00	0.00000e+00	0.00000e+00	0.00000e+00	0.00000e+00	0.00000e+00	0.00000e+00	0.00000e+00	0.00000e+00	0.00000e+00	0.00000e+00	0.00000e+00	0.00000e+00	0.00000e+00	2.75725e+01	-1.31108e+02	-1.23548e+02	-1.82912e+02	-5.41566e+01	-6.84967e+01	-1.56913e+02	-1.62015e+02	-1.69110e+01	-6.90769e+01	-1.71915e+02	-1.70337e+02	-1.80602e+02	-1.76910e+02	-5.41290e+01	-1.49881e+02	
Factor	3.81789e-05	1.74656e-04	4.40913e-05	1.54476e-01	2.40339e-06	1.68123e-06	1.67599e-01	4.70291e-02	2.64378e-06	1.71266e-06	1.45221e-01	2.55112e-02	2.28348e-02	7.80503e-03	2.52045e-06	1.14423e-02	1.64678e-05	3.34103e-05	9.38836e-06	7.76069e-02	3.14091e-07	3.81937e-07	7.88202e-02	2.36533e-02	3.02672e-07	3.77959e-07	7.06724e-02	1.24816e-02	1.15660e-02	3.96858e-03	3.32949e-07	5.62954e-03	X	X	X	X	X	X	X	X	X	X	X	X	X	X	X	X	



#DISTANCE SETTINGS
A = Detector Channel
A-1	A-2	A-3	A-4	A-5	A-6	A-7	A-8	A-9	A-10	A-11	A-12	A-13	A-14	A-15	A-16	

2.5000e+00	3.0000e+00	2.5000e+00	3.0000e+00	2.0000e+00	3.0000e+00	1.5000e+00	3.0000e+00	3.0000e+00	3.0000e+00	3.0000e+00	3.0000e+00	3.0000e+00	3.0000e+00	1.5000e+00	3.0000e+00	

B = Detector Channel
B-1	B-2	B-3	B-4	B-5	B-6	B-7	B-8	B-9	B-10	B-11	B-12	B-13	B-14	B-15	B-16	

1.0000e+01	1.0000e+01	1.0000e+01	1.4400e+00	1.0000e+01	1.0000e+01	1.5100e+00	1.9400e+00	1.0000e+01	1.0000e+01	1.9900e+00	2.4900e+00	2.4100e+00	2.9000e+00	1.0000e+01	2.9800e+00	




#DATA BEGINS
time	group	step	mark	flag	A-AC1	A-AC2	A-AC3	A-AC4	A-AC5	A-AC6	A-AC7	A-AC8	A-AC9	A-AC10	A-AC11	A-AC12	A-AC13	A-AC14	A-AC15	A-AC16	A-DC1	A-DC2	A-DC3	A-DC4	A-DC5	A-DC6	A-DC7	A-DC8	A-DC9	A-DC10	A-DC11	A-DC12	A-DC13	A-DC14	A-DC15	A-DC16	A-Ph1	A-Ph2	A-Ph3	A-Ph4	A-Ph5	A-Ph6	A-Ph7	A-Ph8	A-Ph9	A-Ph10	A-Ph11	A-Ph12	A-Ph13	A-Ph14	A-Ph15	A-Ph16	B-AC1	B-AC2	B-AC3	B-AC4	B-AC5	B-AC6	B-AC7	B-AC8	B-AC9	B-AC10	B-AC11	B-AC12	B-AC13	B-AC14	B-AC15	B-AC16	B-DC1	B-DC2	B-DC3	B-DC4	B-DC5	B-DC6	B-DC7	B-DC8	B-DC9	B-DC10	B-DC11	B-DC12	B-DC13	B-DC14	B-DC15	B-DC16	B-Ph1	B-Ph2	B-Ph3	B-Ph4	B-Ph5	B-Ph6	B-Ph7	B-Ph8	B-Ph9	B-Ph10	B-Ph11	B-Ph12	B-Ph13	B-Ph14	B-Ph15	B-Ph16	aux-1	digaux	

508.692	1	1	0	256	0.25475	0.074848	0.13486	0.18499	0.25985	0.21876	0.18057	0.065684	0.221	0.17219	0.2136	0.098508	0.054294	0.16771	0.10873	0.33809	-3.3083	-3.85	-3.6396	-4.0021	-3.7771	-3.5312	-4.1521	-3.8937	-3.6375	-4.1167	-3.5458	-3.9	-3.8833	-3.7	-4.05	-3.8354	200.314	227.315	491.241	411.347	492.197	217.337	432.014	368.155	450.721	161.344	156.464	490.040	265.636	421.747	198.203	466.137	0.00071182	0.00034642	4.353e-05	1204.5	6.3625e-06	3.2555e-06	1259.6	237.45	6.7931e-06	3.6256e-06	297.47	82.698	65.287	18.88	4.3639e-06	26.652	0.00054807	0.00064941	0.00018368	1200.3	6.5004e-06	7.0833e-06	1254.4	237.54	6.3826e-06	6.6914e-06	298.26	83.682	65.42	19.222	6.3774e-06	27.107	345.856	263.753	274.779	158.964	301.113	254.610	159.016	166.272	328.334	291.647	166.159	172.889	172.834	180.003	318.773	179.377	-8191	255	
508.811	1	1	0	0	0.17804	0.19584	0.20404	0.26642	0.099164	0.12721	0.29509	0.11755	0.063529	0.041103	0.31826	0.24457	0.090869	0.1758	0.13565	0.17481	-3.2625	-3.8354	-3.6375	-4.0167	-3.9104	-3.3917	-3.9833	-3.7583	-3.5854	-4.0229	-3.6792	-3.8021	-4.0542	-3.5979	-3.9729	-3.7833	444.501	507.571	153.731	488.240	220.806	424.925	439.667	465.741	373.699	244.860	454.340	471.331	433.861	323.203	356.531	190.627	0.00073751	0.00012902	5.7286e-05	1191.5	5.5937e-06	2.3808e-06	1253.5	235.98	8.2182e-06	2.7305e-06	296.31	82.776	64.87	18.869	1.7764e-06	26.326	0.00053301	0.00057626	0.00017417	1188.7	6.2799e-06	6.9664e-06	1244.8	235.7	6.1108e-06	6.4111e-06	297.49	83.35	65.125	19.124	5.7545e-06	27.013	346.944	241.833	291.405	159.382	307.987	312.430	158.780	166.472	325.031	257.169	165.754	172.685	172.758	179.935	249.642	179.148	-8191	255	
508.907	1	1	0	0	0.076108	0.22809	0.23727	0.14672	0.22682	0.12305	0.35318	0.28838	0.02447	0.071981	0.047405	0.19589	0.18868	0.11521	0.19349	0.10574	-3.0958	-3.8563	-3.6083	-3.8708	-3.9313	-3.6	-4.0375	-3.8812	-3.6	-3.8625	-3.8458	-3.7833	-4.0396	-3.3354	-3.6188	-3.7438	487.740	325.672	304.235	454.199	285.801	227.344	436.838	391.787	240.360	445.382	178.492	483.537	360.732	499.726	348.327	334.158	0.00076577	0.0001285	0.00010628	1180.2	6.6337e-06	2.1214e-06	1245.2	235.13	8.7693e-06	3.549e-06	292.41	81.883	65.115	18.684	2.4711e-06	26.398	0.00050059	0.0005306	0.00015023	1175.8	5.8277e-06	5.8802e-06	1234.2	234.71	5.4721e-06	5.5757e-06	295.14	82.967	64.837	19.058	5.0851e-06	27.019	344.929	253.738	251.650	159.307	299.397	276.273	158.939	166.442	330.356	301.111	166.150	172.809	172.806	179.842	309.539	179.623	-8191	255	
509.004	1	1	0	0	0.12434	0.12577	0.17958	0.3474	0.29696	0.19541	0.1585	0.13634	0.40646	0.064576	0.19566	0.20079	0.16013	0.24829	0.23589	0.34576	-3.1479	-3.8271	-3.7917	-3.7354	-3.9813	-3.6688	-3.8438	-3.8979	-3.5333	-3.95	-3.8937	-3.7146	-4.1271	-3.7812	-3.8417	-3.8625	317.634	195.802	437.837	451.539	211.548	288.304	178.903	464.679	482.875	185.843	501.320	469.878	476.601	155.755	438.231	479.359	0.00071693	0.00032367	8.0289e-05	1178.9	5.9317e-06	2.0013e-06	1240	235.56	9.719e-06	4.2248e-06	292.73	82.698	64.974	18.801	4.9406e-06	26.587	0.00046954	0.00048285	0.00013834	1171.1	5.3631e-06	5.6988e-06	1232.8	234.81	5.3857e-06	5.3623e-06	294.98	83.396	65.083	19.177	5.2433e-06	27.17	343.561	230.250	254.574	159.111	300.035	314.857	158.984	166.189	335.587	311.470	166.157	172.602	172.802	180.248	317.317	179.227	-8191	255	
509.100	1	1	0	0	0.091468	0.11203	0.13201	0.18068	0.025472	0.20328	0.32285	0.14258	0.31385	0.095335	0.048637	0.17099	0.094336	0.018658	0.16059	0.23264	-3.0833	-4.0292	-3.7375	-3.8875	-3.9354	-3.8417	-3.8708	-4.0292	-3.5917	-3.8458	-3.7417	-3.4729	-3.8542	-3.7125	-3.6417	-3.9188	171.584	165.672	505.992	440.354	352.490	424.127	438.970	177.890	468.727	394.773	311.026	446.771	322.232	224.195	302.954	438.826	0.0007111	0.00037653	7.0699e-05	1178.5	5.8965e-06	2.9945e-06	1239	236.6	9.0816e-06	3.1376e-06	294.31	82.766	65.372	18.815	4.6647e-06	26.457	0.00045733	0.00047791	0.00013701	1172.2	5.318e-06	5.5333e-06	1231.6	235.58	4.7431e-06	5.4371e-06	296.56	83.585	65.381	19.165	4.7522e-06	27.102	348.589	216.026	243.544	159.200	282.734	316.734	159.024	166.225	332.420	324.791	165.935	172.677	172.620	180.084	288.565	179.181	-8191	255	
509.220	1	1	0	0	0.06079	0.12374	0.1315	0.096051	0.11697	0.16182	0.30375	0.12572	0.11601	0.11937	0.39028	0.074118	0.16755	0.24486	0.20422	0.2386	-3.1188	-3.7812	-3.7896	-3.6583	-3.8771	-3.7375	-3.6917	-4.0646	-3.5479	-3.7687	-3.8688	-3.6083	-3.825	-3.8917	-3.6688	-4	364.549	439.135	329.574	399.600	337.327	154.155	462.141	457.954	455.949	468.892	431.257	473.891	388.127	267.792	230.599	387.403	0.00070721	0.00027965	0.00011197	1174	5.5073e-06	1.7732e-06	1239.9	236.64	6.4138e-06	3.482e-06	297.07	82.28	64.518	18.881	6.5582e-06	26.586	0.00045602	0.00045849	0.00012146	1170	5.1236e-06	5.3407e-06	1230.8	236.08	5.1284e-06	5.0205e-06	297.16	83.178	64.863	19.187	4.8805e-06	27.091	350.340	241.193	272.379	159.192	292.422	309.771	158.964	166.223	339.589	327.332	166.292	172.619	172.960	180.278	299.362	179.301	-8191	255	
509.317	1	1	0	0	0.10561	0.13628	0.044343	0.22888	0.15709	0.14145	0.19246	0.25499	0.11273	0.154	0.13066	0.04675	0.20854	0.26147	0.27208	0.070699	-3.2313	-3.6229	-3.7458	-3.6854	-3.8167	-3.6937	-3.8438	-3.8937	-3.5896	-3.6104	-3.8417	-3.6417	-3.8771	-3.7979	-3.6354	-3.9917	182.135	485.211	480.552	454.577	190.303	329.716	458.087	485.883	284.853	402.957	451.326	246.165	449.898	464.116	344.194	384.882	0.00070697	0.00040742	7.365e-05	1173.3	6.1735e-06	3.8871e-06	1235.3	236.49	6.6387e-06	2.4079e-06	295.19	82.553	64.811	18.635	3.8901e-06	26.342	0.00044648	0.00046155	0.0001232	1166.3	4.9234e-06	4.8975e-06	1227.2	236.03	4.7955e-06	4.993e-06	296.45	83.338	65.007	19.09	4.5545e-06	27.078	346.204	247.866	266.570	159.324	286.865	283.623	158.819	166.397	342.912	305.250	166.291	172.585	172.936	180.150	321.097	179.364	-8191	255	
509.388	1	1	0	0	0.11189	0.20619	0.098305	0.20379	0.15283	0.068832	0.13089	0.24623	0.27622	0.19308	0.1789	0.23449	0.11647	0.11633	0.058861	0.24034	-3.3229	-3.6688	-3.8063	-3.7042	-3.8375	-3.8792	-3.775	-3.9667	-3.7771	-3.3937	-4.0208	-3.6792	-3.6833	-3.8604	-3.4229	-3.8729	288.533	177.019	321.006	473.244	270.476	202.416	162.625	443.176	466.376	150.278	229.793	484.835	480.447	485.099	446.856	467.729	0.00068751	0.00038756	5.6586e-05	1167.5	6.0375e-06	3.3504e-06	1235.4	235.44	6.786e-06	2.1688e-06	295.78	82.105	64.931	18.744	4.7671e-06	26.466	0.00044902	0.00044589	0.00011235	1162.6	4.9796e-06	4.7456e-06	1225.4	235.51	4.4909e-06	4.8765e-06	296.35	83.097	64.996	19.113	4.5004e-06	27.004	345.944	247.355	261.668	159.332	303.212	294.947	159.062	166.410	332.292	298.264	165.832	172.338	172.806	180.368	328.802	179.457	-8191	255	
509.509	1	1	0	0	0.228	0.059097	0.021298	0.36858	0.099887	0.15162	0.077265	0.15368	0.15462	0.26275	0.15566	0.089992	0.14112	0.13164	0.067608	0.082949	-3.2042	-3.6958	-3.9583	-3.7938	-3.6708	-3.8604	-3.8229	-3.9833	-3.5021	-3.6979	-4.0146	-3.7062	-3.8417	-3.8104	-3.4792	-3.9917	218.108	248.021	506.822	472.410	480.536	255.386	362.016	461.672	447.463	388.773	391.350	150.439	316.098	491.216	328.233	259.661	0.00072006	0.00030984	8.2109e-05	1167.3	4.2525e-06	2.6718e-06	1230.3	236.31	7.6094e-06	4.0186e-06	298.62	82.642	65.022	18.919	4.1456e-06	26.551	0.00044346	0.00042835	0.00011364	1161.4	4.5118e-06	4.7989e-06	1223.9	236.19	4.3578e-06	4.6883e-06	297.67	83.506	65.223	19.18	4.5142e-06	27.118	348.035	255.405	239.236	159.020	280.299	303.468	158.980	166.482	351.207	320.074	166.218	172.771	172.922	179.837	306.558	179.096	-8191	255	
509.605	1	1	0	0	0.029035	0.11165	0.16289	0.29188	0.13898	0.18916	0.34882	0.21271	0.2431	0.29798	0.19478	0.053951	0.028641	0.011769	0.091886	0.20756	-3.2562	-3.4292	-3.8917	-3.7875	-3.6146	-3.8875	-3.7812	-3.9062	-3.8146	-3.675	-3.9562	-3.775	-3.8042	-3.9354	-3.5917	-3.9313	243.735	346.368	421.902	407.945	497.529	365.210	439.967	435.054	385.154	262.005	379.654	181.310	467.462	340.823	368.918	383.558	0.00073748	0.00034066	0.00010415	1167	5.1572e-06	2.4518e-06	1226.9	236.82	5.6366e-06	3.4681e-06	297.14	83.151	65.158	18.925	5.5342e-06	26.674	0.00043561	0.00041826	0.00011458	1161.3	4.572e-06	4.5148e-06	1220.9	236.45	4.2683e-06	4.3772e-06	297.46	83.564	65.163	19.222	4.3727e-06	27.182	351.586	250.042	248.702	159.080	295.948	317.448	159.205	166.599	339.266	275.165	165.797	172.594	173.054	179.933	316.977	178.981	-8191	255	
509.701	1	1	0	0	0.1409	0.24057	0.17496	0.27984	0.19392	0.19187	0.12078	0.20549	0.21114	0.068057	0.19882	0.14566	0.10231	0.17524	0.028347	0.10717	-3.4229	-3.375	-3.9583	-3.7687	-3.5396	-3.7896	-3.6729	-3.7583	-3.9562	-3.6063	-3.9333	-3.8167	-3.7146	-4.025	-3.6937	-3.7146	151.899	483.677	261.611	391.482	432.730	306.881	506.034	442.150	180.242	225.052	175.156	440.912	370.221	491.944	444.789	416.607	0.00071614	0.00032246	9.7105e-05	1168.2	6.9359e-06	3.5989e-06	1234.2	237.81	6.9298e-06	2.7041e-06	297.4	82.949	65.184	18.82	4.1051e-06	26.467	0.00042693	0.00042153	0.0001143	1161.9	4.6106e-06	4.8283e-06	1225.3	237.34	4.3175e-06	4.8434e-06	298.61	83.66	65.267	19.154	4.6731e-06	27.161	346.690	262.996	260.113	159.204	290.286	299.240	159.086	166.545	318.568	319.159	166.379	172.668	173.240	179.996	308.938	179.462	-8191	255	
509.797	1	1	0	0	0.21129	0.13924	0.14052	0.34175	0.075061	0.16097	0.13862	0.3544	0.13923	0.35675	0.20105	0.052515	0.14524	0.090043	0.06659	0.16791	-3.4	-3.5708	-3.8292	-3.8479	-3.775	-3.9729	-3.9146	-3.8875	-3.9042	-3.5312	-3.8063	-3.9625	-3.5333	-3.8937	-3.4667	-3.6896	332.684	352.336	325.011	471.809	235.963	345.904	432.314	172.662	392.288	474.623	212.081	190.003	441.598	192.207	495.255	213.983	0.00071742	0.00024201	0.00010426	1167.1	5.1345e-06	3.8259e-06	1231	237.69	8.2637e-06	3.8759e-06	296.27	83.123	65.057	18.87	3.9892e-06	26.588	0.00041626	0.00044387	0.00011816	1163.2	5.21e-06	5.176e-06	1225.5	237.55	4.7217e-06	5.3749e-06	298.62	83.499	65.296	19.234	4.8409e-06	27.137	347.150	228.902	248.304	159.258	318.534	331.759	159.015	166.671	343.296	297.377	166.020	172.744	173.003	180.091	283.135	179.397	-8191	255	
509.916	1	1	0	0	0.1242	0.42997	0.1569	0.23853	0.072158	0.13408	0.15589	0.072997	0.29852	0.19183	0.077276	0.22757	0.23579	0.21578	0.058952	0.1245	-3.4688	-3.5333	-3.8542	-3.9458	-3.6875	-3.7229	-3.9062	-3.7667	-3.9958	-3.6729	-3.975	-3.8688	-3.5875	-3.925	-3.6396	-3.625	377.729	448.139	360.102	450.553	272.203	395.050	457.912	173.216	188.632	263.843	324.605	386.501	169.884	416.091	247.998	506.624	0.0007252	0.00035941	8.8402e-05	1175.6	5.151e-06	5.0774e-06	1233	237.16	5.9685e-06	3.346e-06	298.97	83.209	64.764	18.836	4.5123e-06	26.533	0.00044432	0.00048313	0.00012262	1167.6	4.943e-06	4.9453e-06	1225.1	237.77	4.7828e-06	4.9835e-06	299.06	83.75	65.274	19.268	4.7848e-06	27.176	349.162	232.324	276.553	159.307	305.271	311.376	158.918	166.425	326.433	285.118	165.877	172.229	172.914	180.025	312.128	179.293	-8191	255	
509.988	1	1	0	0	0.23909	0.22228	0.037895	0.25365	0.17981	0.24752	0.12729	0.14604	0.079334	0.18818	0.17023	0.15081	0.16266	0.29794	0.11083	0.18297	-3.6417	-3.6042	-3.6167	-3.9854	-3.5417	-3.8917	-3.9271	-3.7896	-4.1083	-3.6354	-3.8	-3.9625	-3.6292	-3.975	-3.7708	-3.8042	475.631	383.729	369.219	443.258	410.066	452.338	500.219	474.268	226.082	353.199	464.166	197.466	226.430	491.433	476.354	437.938	0.00073369	0.00036669	8.4485e-05	1170.6	4.3502e-06	1.8657e-06	1237.1	238.82	6.9829e-06	4.1959e-06	297.44	83.193	65.227	18.932	6.4644e-06	26.646	0.00044333	0.00045	0.00012011	1166.4	5.0333e-06	4.9174e-06	1229.6	238.36	4.8074e-06	5.3024e-06	298.25	83.891	65.293	19.297	4.7154e-06	27.241	347.822	246.355	238.213	159.098	290.527	298.667	159.013	166.461	332.258	280.874	166.027	172.638	172.711	180.059	315.283	179.364	-8191	255	
510.108	1	1	0	0	0.1529	0.17834	0.0050162	0.12798	0.091425	0.069582	0.1788	0.1994	0.12416	0.084712	0.34044	0.28159	0.12973	0.07923	0.078539	0.33365	-3.4667	-3.55	-3.5896	-3.9	-3.6375	-3.8917	-3.9979	-3.75	-3.8229	-3.6708	-3.6437	-3.8646	-3.5604	-3.8771	-3.7292	-3.5812	302.109	217.409	435.788	446.412	235.553	310.237	478.179	465.580	448.590	196.856	427.453	427.813	189.035	419.200	258.114	407.602	0.0007418	0.00023342	6.5655e-05	1172.4	6.9375e-06	3.7281e-06	1237.4	238.51	1.0741e-05	1.2431e-06	296.03	83.449	65.374	18.942	5.7027e-06	26.582	0.00044401	0.00044491	0.00012602	1168.4	5.2002e-06	4.9095e-06	1228.5	238.18	4.5281e-06	4.7394e-06	298.83	83.942	65.366	19.307	4.517e-06	27.192	347.627	269.246	234.524	159.376	284.401	304.451	159.084	166.532	324.189	294.365	166.086	172.750	172.867	179.756	297.621	179.453	-8191	255	
510.205	1	1	0	0	0.1611	0.14608	0.057732	0.17969	0.098516	0.12472	0.11085	0.10035	0.050413	0.40607	0.053568	0.16738	0.068778	0.20392	0.19661	0.20995	-3.5812	-3.7479	-3.7208	-4.1042	-3.5417	-3.9125	-3.9958	-3.6458	-3.8875	-3.7104	-3.7542	-3.9813	-3.5125	-3.7896	-3.7188	-3.425	380.330	164.184	490.071	397.019	396.689	324.485	148.783	506.420	197.461	192.361	153.102	204.747	467.446	507.031	467.061	448.895	0.00069171	0.00039583	6.479e-05	1173.9	4.959e-06	2.3866e-06	1238.5	239.44	9.2928e-06	2.1965e-06	296.72	83.133	65.097	18.957	5.0734e-06	26.65	0.00044902	0.00045264	0.00012436	1168.5	5.0752e-06	5.2206e-06	1230.7	238.74	4.8894e-06	4.945e-06	298.55	83.816	65.413	19.313	4.773e-06	27.225	346.996	254.628	256.556	159.202	311.906	294.781	159.153	166.485	331.757	268.763	165.829	172.662	172.793	180.166	290.557	179.099	-8191	255	
510.301	1	1	0	0	0.090556	0.21346	0.20434	0.1185	0.11084	0.057818	0.082061	0.21456	0.26706	0.1143	0.098194	0.13841	0.08637	0.080219	0.076522	0.19008	-3.4625	-3.5	-3.5875	-4.0292	-3.5771	-3.6854	-3.8208	-3.5417	-3.8042	-3.8375	-3.6063	-4.0208	-3.8271	-3.7396	-3.9146	-3.6625	382.545	312.356	477.378	151.350	345.031	187.796	240.138	151.591	471.171	384.302	333.681	445.330	357.080	393.492	150.055	156.828	0.00069591	0.00022044	7.901e-05	1173.5	5.5108e-06	3.5272e-06	1242.8	239.26	7.274e-06	2.4577e-06	297.02	83.168	65.381	18.887	4.2287e-06	26.679	0.00044312	0.00044255	0.00012426	1168	5.0202e-06	5.1028e-06	1231.3	238.92	4.5811e-06	4.5835e-06	299.04	83.803	65.531	19.292	4.4046e-06	27.223	346.398	228.148	231.414	159.083	305.748	298.168	158.722	166.559	327.067	282.375	165.838	172.807	172.832	180.109	341.674	179.118	-8191	255	
510.397	1	1	0	0	0.06362	0.2313	0.24132	0.31961	0.10064	0.026947	0.38815	0.0684	0.023133	0.209	0.082332	0.060634	0.37619	0.05668	0.11945	0.21418	-3.5125	-3.7604	-3.5417	-4.0792	-3.7917	-3.6896	-4.0042	-3.6917	-3.8542	-3.65	-3.5479	-3.8438	-3.8146	-3.75	-3.8688	-3.8604	442.630	486.658	338.218	353.149	428.745	421.368	424.709	247.260	166.340	308.618	155.584	418.863	476.665	269.923	453.238	407.719	0.00070845	0.00022869	8.9219e-05	1172.5	5.2808e-06	3.8516e-06	1239.3	239.29	8.5404e-06	3.2398e-06	297.57	83.349	65.517	18.824	2.7479e-06	26.442	0.00044223	0.0004202	0.00012512	1168.3	4.9895e-06	4.8204e-06	1230.8	238.65	4.6454e-06	4.9513e-06	299.67	84.047	65.514	19.289	4.612e-06	27.214	347.438	248.267	228.829	158.951	287.660	308.895	159.119	166.303	328.439	293.964	166.154	172.674	172.850	179.845	300.793	178.846	-8191	255	
510.518	1	1	0	0	0.12402	0.035233	0.12985	0.1719	0.15322	0.074153	0.18707	0.08651	0.20596	0.22994	0.066016	0.20777	0.090184	0.042048	0.1381	0.057802	-3.4979	-3.7188	-3.7792	-3.9875	-3.7354	-3.7208	-4.1229	-3.8125	-3.6625	-3.6958	-3.5979	-4.0687	-3.8292	-3.7146	-3.95	-3.625	309.457	304.347	288.411	496.040	215.982	454.905	471.545	448.259	473.514	411.572	149.072	399.030	340.501	395.328	284.766	502.431	0.00071209	0.00041658	7.6561e-05	1178	6.0735e-06	3.6236e-06	1236.1	239.2	4.4358e-06	2.5352e-06	297.57	82.99	65.139	18.867	5.409e-06	26.626	0.00044758	0.00044422	0.00012254	1170	4.9194e-06	4.7519e-06	1228.3	238.83	4.6624e-06	4.7387e-06	299.24	83.809	65.329	19.247	4.5891e-06	27.172	350.819	240.235	252.117	159.130	309.721	312.079	159.226	166.277	323.815	297.734	166.431	172.711	173.106	180.064	297.841	179.299	-8191	255	
510.614	1	1	0	0	0.25824	0.16083	0.31171	0.030256	0.051254	0.13331	0.17751	0.2024	0.13665	0.085354	0.14062	0.1483	0.11593	0.17595	0.15133	0.26011	-3.3812	-3.7104	-3.6646	-4.0375	-3.9313	-3.6083	-4.1583	-3.7104	-3.8125	-3.9062	-3.5875	-3.7625	-3.7625	-3.6542	-3.9688	-3.8104	422.880	460.095	391.007	464.315	471.883	212.349	490.771	447.666	380.747	296.810	156.979	458.954	418.924	187.356	379.057	492.190	0.00069586	0.00011791	7.1115e-05	1171.8	5.8597e-06	1.6794e-06	1229.5	237.94	6.7066e-06	2.9279e-06	298.33	82.965	65.179	18.8	4.5883e-06	26.598	0.00043712	0.00042675	0.0001261	1166.7	5.0104e-06	4.9055e-06	1224.7	237.72	4.6775e-06	4.582e-06	299.38	83.585	65.209	19.188	4.7126e-06	27.167	345.807	247.936	250.364	159.136	298.198	284.881	158.939	166.351	334.903	310.731	165.489	172.460	172.854	179.848	311.613	179.316	-8191	255	
510.685	1	1	0	0	0.26405	0.099821	0.16291	0.20015	0.44114	0.24334	0.093635	0.16188	0.26708	0.18627	0.058045	0.12119	0.21236	0.19174	0.11055	0.11456	-3.3146	-3.8542	-3.6333	-4.0625	-3.85	-3.7	-3.9979	-3.7125	-3.6562	-4.0833	-3.6271	-3.7958	-3.7771	-3.5812	-3.9229	-3.7396	292.417	410.488	406.593	496.999	181.350	400.738	236.102	178.607	404.204	231.748	381.356	466.757	503.450	248.100	305.879	445.051	0.00075333	0.00029108	9.2243e-05	1170.4	4.1746e-06	3.6486e-06	1236.4	236.78	9.594e-06	1.15e-06	296.2	82.822	64.926	18.858	4.9017e-06	26.355	0.0004483	0.00049684	0.00012395	1164.4	5.189e-06	5.1983e-06	1225.4	236.93	5.2261e-06	5.1206e-06	297.44	83.357	65.067	19.193	4.9325e-06	27.075	345.831	246.527	231.990	159.323	298.195	316.049	159.274	166.238	333.921	242.643	165.958	172.719	172.998	179.896	315.246	179.097	-8191	255	
510.782	1	1	0	0	0.17475	0.10028	0.16568	0.30872	0.058503	0.056782	0.27439	0.0438	0.17619	0.035863	0.17479	0.15208	0.11167	0.076152	0.15309	0.061984	-3.2271	-3.8792	-3.575	-4.0271	-3.7646	-3.4646	-4.2167	-3.775	-3.4771	-3.9042	-3.6188	-3.8375	-3.9375	-3.8125	-3.8354	-3.8042	167.823	396.759	209.338	447.352	450.805	350.708	476.704	189.907	468.550	186.918	342.938	458.251	366.973	317.135	424.098	382.980	0.00070771	0.0004004	0.00011819	1170.5	4.8981e-06	2.3018e-06	1233.4	237.63	7.2864e-06	2.9415e-06	293.88	82.148	65.177	18.863	4.012e-06	26.487	0.00044631	0.00044867	0.00012618	1165.6	4.9535e-06	5.1744e-06	1224.6	237.23	4.6574e-06	4.9135e-06	296.98	83.299	65.163	19.228	4.6703e-06	27.114	349.765	242.670	229.106	159.079	287.342	286.319	159.061	166.305	325.378	297.372	166.070	172.783	172.721	179.690	332.413	179.061	-8191	255	
510.902	1	1	0	0	0.046967	0.061064	0.18793	0.14886	0.080685	0.1933	0.040935	0.35706	0.158	0.15752	0.17562	0.1279	0.26609	0.16397	0.19352	0.096312	-3.2062	-3.8729	-3.4958	-3.9417	-3.975	-3.5938	-4.1042	-3.9208	-3.5792	-3.8104	-3.8146	-3.7938	-3.9896	-3.6688	-3.7042	-3.8125	423.684	379.061	463.584	387.045	385.870	169.912	199.378	395.947	219.731	215.693	444.733	342.009	446.854	431.763	290.200	495.496	0.00070791	0.00034583	6.8804e-05	1169.9	7.8887e-06	2.5499e-06	1234.9	237.71	8.0042e-06	3.8635e-06	295.3	82.555	64.31	18.74	6.3168e-06	26.259	0.00043767	0.00044352	0.00012299	1165.5	5.0915e-06	5.0726e-06	1225.6	237.51	4.8093e-06	5.0253e-06	297.69	83.438	65.06	19.167	4.7896e-06	27.087	346.111	224.136	269.188	159.173	292.916	295.077	158.912	166.272	315.397	293.927	166.203	172.506	172.758	179.698	303.629	179.475	-8191	255	
510.997	1	1	0	0	0.096532	0.39965	0.22705	0.31972	0.095635	0.12718	0.2359	0.30404	0.21946	0.081287	0.31301	0.12401	0.056178	0.36431	0.10767	0.16615	-3.1979	-3.8854	-3.6312	-3.6958	-3.875	-3.6542	-3.975	-3.9229	-3.6396	-4.1312	-3.7438	-3.7687	-3.8812	-3.6104	-3.7958	-3.925	270.779	344.702	258.190	148.562	200.288	185.030	460.573	400.034	285.225	215.250	166.024	210.202	451.331	486.228	324.973	494.516	0.00072382	0.00036989	0.00010535	1165.4	5.1296e-06	4.2479e-06	1235.4	237.45	5.4732e-06	1.7137e-06	297.29	83.029	65.005	18.863	5.6129e-06	26.558	0.00044065	0.00043273	0.00012684	1164	4.8259e-06	5.3941e-06	1226.4	237.59	4.6555e-06	4.9765e-06	297.73	83.714	65.115	19.263	4.5205e-06	27.153	347.312	232.944	248.458	159.357	307.075	280.747	159.098	166.290	340.314	305.194	165.826	172.667	173.073	180.022	325.383	179.232	-8191	255	
511.093	1	1	0	0	0.1587	0.11207	0.40103	0.23583	0.15577	0.14884	0.16155	0.092126	0.16111	0.11487	0.15634	0.39749	0.22075	0.071471	0.15064	0.14375	-3.0833	-3.7938	-3.8187	-3.8417	-3.9604	-3.6604	-3.9583	-4.0813	-3.5771	-3.9521	-3.9125	-3.6208	-4.0167	-3.7521	-3.7583	-4.0312	459.557	489.487	446.048	220.590	257.218	437.460	482.396	493.595	394.170	302.405	152.686	188.668	481.130	202.775	385.742	468.752	0.00069894	0.00032454	6.3695e-05	1173.8	5.6532e-06	2.6069e-06	1233.4	237.74	6.9771e-06	2.8924e-06	297.66	82.587	65.06	18.895	4.7469e-06	26.49	0.00043458	0.00045793	0.00012324	1165.2	5.1086e-06	5.2293e-06	1226.8	237.69	4.8882e-06	5.1891e-06	298.48	83.598	65.23	19.28	4.7112e-06	27.113	345.948	243.203	253.026	159.185	307.437	253.623	159.091	166.429	333.046	274.518	166.229	172.718	172.858	179.988	310.546	178.994	-8191	255	
511.189	1	1	0	0	0.40686	0.05725	0.06027	0.27804	0.11304	0.19897	0.16279	0.10306	0.053387	0.040963	0.27364	0.16817	0.079905	0.23163	0.16426	0.24892	-3.1729	-3.9854	-3.7542	-3.7479	-3.8771	-3.65	-3.7208	-3.9	-3.5333	-3.8458	-3.6771	-3.5708	-3.95	-3.6125	-3.7333	-4.0437	502.021	453.441	356.689	441.488	216.406	370.566	404.467	383.364	225.791	446.535	199.895	153.191	482.453	466.749	347.942	405.906	0.00072251	0.00028771	8.9124e-05	1171.7	6.4328e-06	2.4182e-06	1233.2	238.72	8.8028e-06	2.472e-06	299.31	83.043	65.532	18.853	6.0747e-06	26.38	0.00044899	0.00044185	0.00012303	1167.2	4.907e-06	4.9986e-06	1226.6	238.02	4.7299e-06	4.8056e-06	299.85	83.756	65.36	19.262	4.7473e-06	27.158	348.250	221.949	252.772	159.173	268.475	325.457	159.014	166.197	341.483	355.641	166.042	172.173	172.556	179.839	313.521	179.259	-8191	255	
511.285	1	1	0	0	0.24217	0.082195	0.097738	0.053157	0.011662	0.23248	0.32549	0.13512	0.26973	0.11621	0.12104	0.092293	0.045292	0.21915	0.04251	0.057287	-3.2458	-3.7208	-3.6729	-3.7083	-3.9583	-3.8646	-3.9167	-3.8479	-3.7125	-3.7583	-3.8521	-3.8021	-3.9417	-3.7667	-3.6042	-3.975	458.640	384.216	468.066	463.394	320.602	432.653	479.891	372.462	455.189	464.843	405.648	501.061	444.458	161.783	174.060	441.816	0.00066639	0.00027561	5.1067e-05	1173	4.579e-06	3.3452e-06	1235.1	237.96	8.0372e-06	4.037e-06	297.78	82.826	65.036	18.867	5.1321e-06	26.367	0.00044501	0.00043788	0.00012565	1167.5	4.7382e-06	5.0153e-06	1229	238.54	4.9739e-06	4.9387e-06	299.05	83.594	65.505	19.229	4.9103e-06	27.141	351.605	196.795	235.361	159.139	298.745	314.099	159.076	166.420	325.830	296.866	165.821	172.451	172.777	180.238	321.383	179.375	-8191	255	
511.381	1	1	0	0	0.25822	0.22679	0.089361	0.082986	0.25816	0.25537	0.21996	0.19236	0.14175	0.16624	0.18788	0.23913	0.10306	0.23655	0.2464	0.069214	-3.25	-3.6417	-3.875	-3.6458	-3.7458	-3.5729	-3.7021	-3.9583	-3.6417	-3.6312	-3.9375	-3.4938	-3.7812	-3.8021	-3.7188	-3.8479	501.973	409.052	154.432	388.106	466.798	347.051	378.124	412.914	454.065	192.754	210.260	506.682	407.189	434.218	206.372	360.497	0.00075062	0.00023914	9.5609e-05	1168.5	4.1984e-06	3.3967e-06	1235.3	238.57	1.103e-05	1.8496e-06	296.87	82.995	65.012	18.904	4.5319e-06	26.57	0.00045571	0.00045654	0.00012964	1166.5	5.1262e-06	5.2373e-06	1229.3	238.32	4.9367e-06	5.3135e-06	298.26	83.716	65.411	19.308	4.9679e-06	27.254	349.276	223.591	222.662	159.084	314.003	297.669	159.094	166.228	325.816	290.552	165.918	172.451	172.713	180.111	290.860	179.600	-8191	255	
511.477	1	1	0	0	0.10363	0.088274	0.1842	0.26141	0.084384	0.11082	0.27366	0.051402	0.24152	0.11205	0.080579	0.18499	0.21749	0.053543	0.12138	0.074596	-3.1437	-3.5583	-3.7938	-3.575	-3.6542	-3.6937	-3.6979	-3.9875	-3.7417	-3.5687	-3.9125	-3.5812	-3.8854	-3.8625	-3.5104	-3.7896	342.193	331.305	224.131	474.763	168.902	346.093	424.666	494.586	421.591	316.903	417.642	470.099	406.175	367.129	153.211	473.899	0.0007588	0.0004002	6.0672e-05	1168	7.7461e-06	2.8026e-06	1235.2	239.19	8.8879e-06	4.0598e-06	297.44	82.778	64.868	18.893	7.045e-06	26.387	0.00046038	0.00047526	0.00012927	1167.8	5.1969e-06	5.5405e-06	1228.4	238.1	4.8522e-06	5.245e-06	299.07	83.845	65.431	19.317	5.0289e-06	27.187	349.333	217.745	225.753	159.179	269.680	306.748	159.046	166.430	316.750	273.224	166.182	172.794	172.910	179.917	290.912	179.335	-8191	255	
511.598	1	1	0	0	0.26211	0.12974	0.25178	0.23669	0.091097	0.10313	0.23482	0.16588	0.25124	0.19291	0.17792	0.20484	0.018419	0.29952	0.17068	0.20945	-3.2167	-3.525	-3.925	-3.575	-3.6688	-3.8458	-3.7646	-3.9625	-3.7188	-3.7	-3.9833	-3.7812	-3.6354	-3.8312	-3.6479	-3.7729	162.649	437.486	229.295	474.128	270.527	261.783	475.741	325.293	357.244	303.089	227.918	455.016	335.450	153.555	251.935	358.378	0.00066622	0.00035263	0.00011437	1172.5	8.3646e-06	2.2845e-06	1232.2	237.21	1.0402e-05	2.5794e-06	296.47	82.497	64.934	18.909	4.1082e-06	26.595	0.00044357	0.00045097	0.00012166	1170.2	5.1282e-06	5.1768e-06	1229.7	238.72	4.798e-06	5.2505e-06	299.23	84.029	65.599	19.375	5.1212e-06	27.327	347.488	212.196	236.440	159.032	305.153	321.316	159.032	166.125	332.416	321.371	166.232	172.434	172.625	179.671	291.206	178.891	-8191	255	
511.694	1	1	0	0	0.36617	0.20256	0.13109	0.2766	0.27491	0.19328	0.38859	0.12209	0.1671	0.014121	0.13257	0.1313	0.054764	0.13979	0.1124	0.13469	-3.3125	-3.4521	-3.9646	-3.7917	-3.7833	-3.9271	-3.7667	-3.9854	-3.6375	-3.3792	-3.8312	-3.6063	-3.7625	-3.8063	-3.6771	-3.8458	348.994	495.096	259.139	465.082	285.157	166.646	447.185	174.073	169.687	364.034	280.598	394.388	489.657	408.570	443.650	361.480	0.0007098	0.00038234	6.6693e-05	1169.5	7.372e-06	2.7708e-06	1233.1	238.17	7.9859e-06	2.4247e-06	297.02	82.815	65.375	18.918	6.8919e-06	26.379	0.00046343	0.00049169	0.00012023	1169.4	5.3075e-06	5.437e-06	1232.9	239.34	5.0906e-06	5.3788e-06	300.02	84.138	65.674	19.369	4.9422e-06	27.253	348.541	261.806	235.878	159.118	281.938	281.550	158.852	166.196	333.603	281.698	166.080	172.417	172.530	179.775	306.882	178.787	-8191	255	
511.788	1	1	0	0	0.16463	0.20093	0.096862	0.35204	0.11369	0.13072	0.22348	0.25813	0.081901	0.18979	0.049522	0.37303	0.046556	0.12256	0.09104	0.24953	-3.5021	-3.4688	-3.925	-3.8771	-3.7042	-4.0375	-3.675	-3.9813	-3.8	-3.4458	-3.9521	-3.8854	-3.7542	-3.8604	-3.725	-3.8958	407.422	428.864	176.002	474.809	366.797	211.712	345.823	428.350	459.848	243.316	365.706	464.480	268.664	494.207	368.653	484.604	0.0007536	0.00017596	5.6115e-05	1165.7	6.1749e-06	3.985e-06	1234	238.5	7.7846e-06	3.7744e-06	296.22	83.546	65.011	18.876	3.1533e-06	26.547	0.00047249	0.00047241	0.00013435	1169.7	5.1825e-06	5.2787e-06	1232.6	239.38	5.1738e-06	5.4379e-06	299.47	84.245	65.507	19.319	5.1038e-06	27.232	344.994	209.350	269.246	159.016	285.018	294.258	159.040	166.111	323.267	298.891	165.991	172.414	172.765	179.887	285.553	178.722	-8191	255	
511.885	1	1	0	0	0.11707	0.13484	0.24694	0.20755	0.14499	0.33563	0.13493	0.32008	0.06461	0.091193	0.12182	0.17754	0.12372	0.30438	0.17923	0.14567	-3.4979	-3.5	-3.825	-3.7708	-3.6583	-3.9583	-3.8375	-3.7917	-3.9062	-3.6375	-3.9	-3.6562	-3.5938	-4.0458	-3.8208	-3.7458	161.895	206.826	344.675	185.840	160.777	190.785	438.007	434.748	266.114	498.734	294.991	362.546	245.423	431.931	479.867	402.292	0.00069479	0.00026614	6.4525e-05	1175.7	4.8193e-06	3.9545e-06	1234.7	237.71	8.2306e-06	5.0354e-06	297.27	83.138	65.618	18.91	3.7936e-06	26.462	0.00044961	0.00051271	0.00013748	1171.3	5.5535e-06	5.1816e-06	1231.1	238.92	5.1063e-06	5.4087e-06	299.92	84.185	65.76	19.365	5.0254e-06	27.322	349.623	193.548	264.467	159.102	268.434	284.710	159.048	166.118	336.376	295.078	165.948	172.374	172.937	179.874	354.859	178.835	-8191	255	
511.981	1	1	0	0	0.12628	0.17264	0.1837	0.084176	0.25177	0.1754	0.11546	0.16925	0.16302	0.048639	0.17682	0.15358	0.23951	0.22397	0.113	0.055521	-3.4625	-3.6188	-3.8146	-3.8563	-3.5521	-3.9354	-3.9458	-3.7417	-3.8833	-3.5583	-3.8083	-3.9542	-3.5146	-3.9396	-3.825	-3.6292	288.225	336.566	269.449	204.190	372.294	153.967	315.723	425.446	177.025	352.507	254.257	414.163	476.736	174.516	224.693	381.949	0.00074003	0.00036165	5.5895e-05	1166.5	4.7373e-06	4.9283e-06	1230.8	237.97	7.5045e-06	3.1599e-06	296.77	82.759	65.283	18.663	5.4087e-06	26.307	0.00047812	0.00049308	0.00013492	1172.7	5.6334e-06	5.6041e-06	1232.9	239.52	5.2905e-06	5.6048e-06	299.47	84.099	65.752	19.34	5.3646e-06	27.293	345.156	245.065	234.354	158.887	336.155	299.849	158.884	166.209	339.300	296.715	166.106	172.420	172.522	179.668	300.320	178.964	-8191	255	
512.077	1	1	0	0	0.18557	0.092529	0.10245	0.19083	0.082592	0.15718	0.22054	0.0073145	0.24483	0.047436	0.24739	0.043775	0.23363	0.21856	0.14569	0.21566	-3.475	-3.525	-3.8167	-4.0083	-3.6167	-4.05	-3.8625	-3.7521	-3.7708	-3.6646	-3.6688	-4.075	-3.6396	-3.825	-3.6042	-3.6021	411.111	152.125	254.130	444.503	396.934	218.409	431.324	402.259	371.387	473.634	195.031	372.036	171.615	176.933	428.076	466.130	0.00073633	0.00034536	0.00010977	1167.2	5.9562e-06	2.9535e-06	1230.8	237.9	8.5661e-06	2.3601e-06	296.22	82.771	64.959	18.748	4.4527e-06	26.666	0.00046288	0.00049893	0.00014028	1171.6	5.7158e-06	5.6073e-06	1231.6	239.13	4.9777e-06	5.4552e-06	300.05	84.066	65.672	19.325	5.3619e-06	27.315	350.158	239.135	257.678	159.073	296.397	312.817	158.846	166.117	321.762	302.793	165.940	172.281	172.453	179.796	279.229	179.023	-8191	255	
512.173	1	1	0	0	0.19577	0.15814	0.16067	0.34028	0.16304	0.14532	0.10084	0.15105	0.14254	0.17809	0.045904	0.019545	0.23132	0.11019	0.22607	0.066596	-3.3771	-3.5896	-3.5875	-3.9896	-3.6688	-3.7458	-3.8438	-3.6729	-3.7958	-3.7292	-3.6729	-3.9125	-3.6729	-3.9021	-3.7458	-3.6562	337.575	322.282	249.476	423.812	448.387	280.358	397.098	262.936	170.920	411.646	207.178	292.586	234.893	412.896	393.311	344.315	0.00072175	0.00030989	0.00013869	1170.6	5.9049e-06	3.7626e-06	1232.5	238.15	8.8244e-06	2.0417e-06	292.67	80.945	64.136	18.598	6.3803e-06	26.235	0.00047005	0.00051055	0.00014679	1174.3	5.6425e-06	5.4951e-06	1235.9	239.58	5.17e-06	5.7773e-06	299.21	83.819	65.604	19.28	5.2765e-06	27.229	345.386	233.381	239.402	158.951	298.750	292.608	158.774	166.184	332.175	264.165	165.430	172.151	172.392	179.437	313.687	179.107	-8191	255	
512.294	1	1	0	0	0.20397	0.063019	0.19361	0.2913	0.17797	0.09249	0.039634	0.052494	0.085124	0.1657	0.21598	0.027822	0.10533	0.30119	0.12318	0.20367	-3.5333	-3.6729	-3.5938	-4.0417	-3.5896	-3.8417	-3.925	-3.6958	-3.8417	-3.6188	-3.6104	-3.9333	-3.5708	-4.0021	-3.9833	-3.6688	236.440	404.018	285.019	466.940	216.419	281.874	468.479	398.205	184.763	371.524	478.849	499.069	500.325	417.543	388.291	435.973	0.00077836	0.00034987	2.1951e-05	1161.3	4.6349e-06	3.3134e-06	1228.7	238.26	1.0079e-05	2.161e-06	297.32	82.454	64.963	18.775	3.4283e-06	26.409	0.00047794	0.00050679	0.00013725	1170.7	5.4685e-06	5.9216e-06	1234.3	239.62	5.2457e-06	5.478e-06	301.13	84.112	65.849	19.352	5.3452e-06	27.244	347.605	258.635	259.169	158.992	275.709	271.302	158.693	166.299	343.551	350.139	165.842	172.246	172.603	179.866	289.486	178.780	-8191	255	
512.390	1	1	0	0	0.1614	0.091757	0.26813	0.18225	0.15146	0.16515	0.21064	0.16815	0.26226	0.10748	0.16774	0.28836	0.062622	0.22779	0.2238	0.23554	-3.4625	-3.6854	-3.5583	-4.0542	-3.6312	-3.7	-4.1021	-3.6292	-3.8375	-3.7333	-3.4938	-4.0083	-3.6354	-3.6646	-3.8229	-3.6146	448.592	472.547	382.248	399.779	212.236	403.363	491.752	460.773	345.853	185.937	350.266	356.633	189.759	427.938	474.590	312.415	0.00072547	0.00029416	8.1863e-05	1164.7	5.3149e-06	4.7509e-06	1227.6	237.42	8.3809e-06	2.7895e-06	295.88	82.542	65.032	18.801	2.7831e-06	26.465	0.00048264	0.00054076	0.00014294	1171.8	5.4959e-06	5.9678e-06	1234.4	239.83	5.3403e-06	5.5812e-06	300.06	84.148	65.757	19.346	5.2724e-06	27.286	348.540	276.705	238.675	158.982	284.202	295.704	158.659	166.018	319.179	284.348	165.782	172.434	172.728	179.801	296.096	178.549	-8191	255	
512.486	1	1	0	0	0.22997	0.072231	0.26757	0.26596	0.21013	0.10667	0.24116	0.16452	0.063269	0.10227	0.079276	0.12691	0.2375	0.257	0.26991	0.048003	-3.2417	-3.6083	-3.4313	-3.9271	-3.4521	-3.8271	-4.1438	-3.6792	-3.7875	-3.8375	-3.6292	-3.9313	-3.6813	-3.7375	-3.95	-3.5979	351.530	462.178	189.148	464.126	307.169	228.137	405.978	430.385	174.892	433.141	470.482	361.200	428.875	197.662	291.953	296.462	0.00069497	0.000251	6.7936e-05	1171.7	7.0767e-06	4.1972e-06	1233.9	238	9.5914e-06	3.5694e-06	295.64	82.734	65.149	18.824	5.5456e-06	26.551	0.00047047	0.00050547	0.00014165	1175.4	5.4377e-06	5.819e-06	1237.1	239.58	5.3844e-06	5.8174e-06	300.27	84.229	65.748	19.407	5.3459e-06	27.379	345.104	237.452	264.968	158.849	296.963	304.318	158.880	166.105	342.371	316.318	165.774	172.452	172.805	179.961	297.842	179.156	-8191	255	
512.558	1	1	0	0	0.13105	0.17325	0.06801	0.14755	0.13609	0.11642	0.15282	0.33523	0.17601	0.27585	0.21257	0.34628	0.2707	0.14168	0.036577	0.032016	-3.4271	-3.8771	-3.5521	-4.2625	-3.6688	-3.7792	-4.1583	-3.7125	-3.7167	-3.825	-3.5771	-4.0437	-3.7708	-3.7062	-3.9104	-3.675	218.372	163.743	406.072	489.279	355.214	442.972	153.348	451.024	507.564	385.139	486.829	174.345	508.116	269.035	353.259	211.295	0.00074046	0.00031407	8.5738e-05	1169.2	6.9348e-06	2.5779e-06	1237.4	237.3	7.5292e-06	2.9753e-06	296.66	82.991	65.306	18.798	3.6601e-06	26.4	0.00048192	0.00051702	0.00014171	1176	5.6903e-06	5.8683e-06	1239.2	239.62	5.4014e-06	5.5103e-06	300.81	84.155	65.946	19.359	5.2814e-06	27.264	349.190	228.936	241.210	158.991	305.099	285.141	158.506	166.255	313.515	308.844	166.212	172.341	172.573	179.804	287.635	179.138	-8191	255	
512.678	1	1	0	0	0.10162	0.19034	0.27199	0.35113	0.098309	0.084068	0.14481	0.098549	0.083947	0.069684	0.033955	0.060666	0.10804	0.18535	0.38375	0.16778	-3.3646	-3.8583	-3.4729	-4.1646	-3.7729	-3.6458	-4.1667	-3.8604	-3.6917	-3.9375	-3.6104	-3.9437	-3.8625	-3.5687	-3.7792	-3.7458	372.213	338.985	175.090	441.436	298.531	494.507	475.222	214.438	212.624	297.152	357.463	162.294	345.675	448.865	282.657	393.564	0.00075674	0.00041575	4.5247e-05	1171.5	5.4508e-06	1.6034e-06	1232.9	237.23	8.6406e-06	3.8476e-06	297.11	82.591	65.1	18.818	3.2373e-06	26.495	0.000488	0.00049586	0.00014306	1175.2	5.5817e-06	5.9129e-06	1238.3	239.6	5.421e-06	5.7623e-06	300.8	84.225	65.77	19.388	5.0927e-06	27.397	351.768	245.067	218.949	158.975	302.901	296.392	158.798	166.177	329.472	301.128	165.817	172.298	172.751	179.588	317.750	178.567	-8191	255	
512.774	1	1	0	0	0.18398	0.27936	0.043137	0.10226	0.11268	0.22634	0.23583	0.18029	0.096583	0.14369	0.12956	0.13253	0.27382	0.22352	0.13574	0.33789	-3.1771	-3.9583	-3.4833	-3.7479	-3.7354	-3.5958	-3.9938	-3.7562	-3.6354	-4.0146	-3.5146	-3.7208	-3.5979	-3.4604	-3.9354	-3.7104	354.490	271.113	413.932	381.024	163.834	193.751	392.288	466.082	454.186	280.876	182.588	255.242	157.517	174.508	273.126	467.968	0.0006921	0.00035077	6.7357e-05	1170.1	6.3652e-06	3.3238e-06	1239.8	238.44	9.0939e-06	2.2688e-06	297.28	82.175	64.996	18.78	7.4587e-06	26.349	0.0004728	0.00050178	0.00014198	1176.8	5.3592e-06	5.9001e-06	1239.5	240.39	5.3037e-06	5.5024e-06	301	84.117	65.716	19.366	5.425e-06	27.231	348.498	239.002	244.773	159.165	326.472	307.754	158.671	166.124	318.664	286.740	165.564	172.365	172.640	179.837	302.577	179.133	-8191	255	
512.871	1	1	0	0	0.11482	0.068548	0.090424	0.061052	0.18777	0.10788	0.24161	0.19053	0.031188	0.13344	0.25139	0.23815	0.19319	0.15142	0.31832	0.21639	-3.2542	-3.8208	-3.5	-3.9271	-3.7729	-3.3688	-3.9229	-3.7729	-3.6708	-3.9437	-3.6729	-3.8396	-3.9708	-3.5625	-3.8979	-3.8521	368.020	234.728	158.580	200.805	496.489	430.011	401.731	405.117	443.271	365.983	440.928	185.739	410.190	416.045	175.705	363.136	0.000705	0.00056902	7.5858e-05	1172.8	7.4976e-06	2.9158e-06	1228.5	238.93	8.8511e-06	4.2719e-06	298.01	82.92	64.934	18.868	4.6154e-06	26.228	0.00047517	0.00053032	0.00014206	1178.1	5.6608e-06	5.745e-06	1237.7	240	5.4613e-06	5.4607e-06	300.36	84.287	65.737	19.408	5.493e-06	27.271	352.320	234.194	263.917	159.024	299.475	307.152	158.726	166.123	331.005	337.929	165.949	172.120	172.656	179.945	297.953	178.781	-8191	255	
512.989	1	1	0	0	0.071667	0.21213	0.21942	0.25872	0.10493	0.028081	0.18059	0.092191	0.1836	0.286	0.14407	0.20023	0.1088	0.054197	0.26659	0.032733	-3.1229	-3.7979	-3.7521	-3.8021	-4.0958	-3.6	-4.0708	-3.9292	-3.4875	-3.9396	-3.8021	-3.6667	-4.1021	-3.5479	-3.9854	-3.9542	369.231	474.919	295.672	402.154	427.705	413.899	448.169	286.534	288.692	473.929	478.795	437.795	173.232	392.939	173.877	262.138	0.00071067	0.00027681	6.859e-05	1167.9	8.0935e-06	1.3957e-06	1236.4	238.05	9.3747e-06	5.2784e-06	298.3	83.038	64.964	18.834	4.3933e-06	26.403	0.00047963	0.00052767	0.00014785	1176.1	5.5561e-06	5.7275e-06	1240	239.55	5.3756e-06	5.7253e-06	301.22	84.222	65.84	19.389	5.3757e-06	27.277	346.450	222.148	226.077	158.873	288.886	289.373	158.832	166.262	331.026	295.104	165.695	172.350	172.725	179.355	315.741	179.121	-8191	255	
513.086	1	1	0	0	0.087896	0.097357	0.12201	0.19678	0.25537	0.10639	0.12905	0.085846	0.18452	0.11055	0.16417	0.22069	0.22308	0.096095	0.15146	0.24442	-3.1104	-3.9167	-3.7958	-3.6979	-4.1	-3.7687	-3.9583	-3.9479	-3.6437	-3.9104	-3.6562	-3.5125	-3.9896	-3.6729	-3.6958	-3.9583	426.753	185.781	333.518	173.631	215.194	500.940	423.561	467.813	252.550	438.167	491.302	370.068	451.857	210.835	370.647	305.857	0.00073335	0.00033192	6.1215e-05	1172.5	5.9119e-06	3.4021e-06	1238.9	238.86	6.405e-06	2.6005e-06	298.66	83.07	65.214	18.744	1.9102e-06	26.397	0.00050189	0.00051751	0.00014808	1180	5.4174e-06	5.5858e-06	1241.6	240.6	5.4531e-06	5.782e-06	301.2	84.477	65.925	19.348	5.6858e-06	27.373	347.278	247.026	233.656	158.943	281.928	279.847	158.703	166.331	324.870	286.377	165.797	172.144	172.712	179.315	304.490	179.169	-8191	255	
513.159	1	1	0	0	0.027042	0.12824	0.09329	0.087059	0.21229	0.29051	0.11824	0.25381	0.2501	0.046348	0.13632	0.40695	0.14044	0.2148	0.22333	0.18401	-2.9437	-3.9625	-3.6083	-3.6854	-3.925	-3.6188	-3.9396	-3.9417	-3.5	-3.7938	-3.8042	-3.5938	-3.9688	-3.6937	-3.7667	-3.8958	217.782	319.442	298.821	444.733	231.871	300.012	356.958	426.387	235.071	261.202	166.515	442.183	190.126	487.028	237.935	224.267	0.00070941	0.00047118	7.9233e-05	1173.4	5.2303e-06	2.5436e-06	1238.2	238.37	9.5911e-06	3.6802e-06	295.98	83.511	65.084	18.788	5.2902e-06	26.51	0.0004927	0.00050457	0.00014615	1180.3	5.9664e-06	5.9137e-06	1241.6	240.62	5.7432e-06	5.6851e-06	300.91	84.592	65.934	19.399	5.3452e-06	27.32	349.390	233.602	236.606	158.908	297.941	272.386	158.897	166.205	337.134	308.641	166.110	172.279	172.482	179.644	296.535	178.797	-8191	255	
513.278	1	1	0	0	0.10278	0.18105	0.2842	0.29756	0.28188	0.32259	0.15982	0.19101	0.12447	0.32176	0.085918	0.0049725	0.086207	0.32991	0.15696	0.20403	-3.2229	-3.8542	-3.7208	-3.6833	-3.9437	-3.6271	-3.8063	-4.0479	-3.4479	-3.8063	-3.8042	-3.6042	-3.9833	-3.7854	-3.6312	-3.8812	266.186	383.536	333.942	456.652	361.091	354.489	447.770	150.820	162.116	259.957	401.705	298.126	332.948	431.412	295.775	172.062	0.00075534	0.00037504	9.4738e-05	1169.9	6.9309e-06	1.9825e-06	1232	238.61	7.5043e-06	4.0097e-07	296.5	82.295	65.048	18.872	4.6283e-06	26.28	0.0004765	0.00053289	0.00015094	1177.8	5.8774e-06	6.1197e-06	1238.7	240.43	5.5572e-06	5.7615e-06	300.68	84.216	65.706	19.405	5.6026e-06	27.271	350.316	229.045	231.413	159.078	279.870	309.886	158.935	166.169	326.095	309.811	165.878	172.460	172.504	179.984	287.004	178.768	-8191	255	
513.374	1	1	0	0	0.069076	0.3406	0.10775	0.25855	0.16074	0.16166	0.15742	0.40006	0.15869	0.039195	0.11095	0.12081	0.1153	0.088472	0.1417	0.15851	-3.1667	-3.8312	-3.8292	-3.9042	-4.0146	-3.6146	-3.7792	-3.8854	-3.7292	-3.7083	-3.9875	-3.6167	-3.9021	-3.8438	-3.5208	-3.7854	293.193	423.696	461.534	500.205	323.544	469.838	444.772	429.827	470.141	395.601	215.686	404.551	427.035	236.805	318.092	424.935	0.00073707	0.00031947	6.4888e-05	1177.6	4.8076e-06	4.7128e-06	1233.8	236.94	9.44e-06	1.8978e-06	295.96	82.066	64.657	18.759	4.1067e-06	26.446	0.00048628	0.000499	0.00014045	1178.2	5.4567e-06	5.8198e-06	1237.4	239.88	5.1978e-06	5.8922e-06	299.71	83.957	65.497	19.327	5.1309e-06	27.278	343.323	271.156	242.672	158.913	273.071	315.631	158.658	166.102	340.957	267.923	165.776	172.325	172.555	179.793	325.698	179.169	-8191	255	
513.470	1	1	0	0	0.22559	0.020478	0.10666	0.1843	0.13169	0.028083	0.27786	0.20803	0.12773	0.14054	0.29519	0.052471	0.099394	0.075809	0.053416	0.0919	-3.2771	-3.5167	-3.7792	-3.7604	-3.7792	-3.6562	-3.6937	-3.8396	-3.7542	-3.7042	-3.7313	-3.5083	-3.8729	-3.8937	-3.5312	-3.9375	487.612	294.831	250.182	489.669	201.287	354.236	454.654	402.626	402.416	404.261	174.542	166.684	326.803	266.756	211.960	493.285	0.00067479	0.00050214	7.2324e-05	1167	6.2721e-06	2.5823e-06	1234.2	236.59	8.3089e-06	2.4297e-06	294.53	82.062	64.523	18.547	5.3752e-06	26.237	0.00047047	0.00052712	0.0001368	1173.4	5.3304e-06	5.4354e-06	1234.4	238.5	5.4166e-06	5.515e-06	298.4	83.477	65.319	19.183	5.1295e-06	27.15	345.000	208.097	237.965	159.042	303.775	293.141	158.860	166.129	325.909	283.732	165.643	172.505	172.539	179.757	315.782	179.210	-8191	255	
513.591	1	1	0	0	0.094216	0.28179	0.021368	0.23445	0.088089	0.066229	0.10053	0.10544	0.1825	0.10164	0.16194	0.36141	0.14023	0.23538	0.16348	0.19295	-3.3646	-3.65	-3.8104	-3.6625	-3.7333	-3.8625	-3.975	-3.8667	-3.7333	-3.625	-4.0229	-3.7104	-3.6958	-3.7917	-3.5146	-3.9958	275.313	373.466	238.012	400.548	482.100	365.587	493.670	364.146	393.139	435.676	499.314	492.481	171.713	172.462	274.138	435.533	0.00065975	0.00028492	8.5319e-05	1166	6.4663e-06	3.3922e-06	1222.8	235.77	8.994e-06	2.9074e-06	293.71	82.44	64.514	18.712	5.4176e-06	26.227	0.00045005	0.00047944	0.00013711	1169.3	5.3265e-06	5.266e-06	1224.9	237.29	5.1933e-06	5.1158e-06	297.84	83.581	65.105	19.215	5.2023e-06	27.107	345.804	227.315	264.042	159.169	288.095	297.129	158.754	166.188	333.257	272.041	165.878	172.600	172.738	179.724	302.689	179.117	-8191	255	
513.685	1	1	0	0	0.10489	0.38752	0.17479	0.22322	0.1305	0.25051	0.1585	0.13031	0.17373	0.21288	0.093074	0.21422	0.14173	0.09022	0.14452	0.25916	-3.2958	-3.4542	-3.975	-3.7562	-3.7958	-3.8979	-3.8042	-3.8896	-3.6667	-3.7	-3.8187	-3.8125	-3.7062	-3.9833	-3.4938	-3.8542	405.494	375.895	373.925	454.755	166.964	229.884	438.199	507.200	228.240	279.527	504.613	496.901	421.904	257.423	196.894	393.844	0.00072346	0.00036241	5.5828e-05	1165.1	5.1158e-06	3.4646e-06	1228.6	236.71	7.3004e-06	2.495e-06	292.31	82.539	64.573	18.753	6.1291e-06	26.241	0.00048371	0.00049461	0.0001384	1169.6	5.6903e-06	5.6932e-06	1231.6	238.2	5.5023e-06	5.6119e-06	298.83	83.811	65.469	19.312	5.0331e-06	27.24	349.650	225.790	175.393	158.955	293.097	300.442	158.764	166.144	336.515	291.139	165.667	172.389	172.723	179.817	288.328	179.055	-8191	255	
513.781	1	1	0	0	0.34097	0.21713	0.098976	0.58445	0.27028	0.15932	0.19945	0.11158	0.25593	0.056469	0.082855	0.15581	0.2335	0.050178	0.29999	0.20543	-3.3604	-3.4146	-3.9979	-3.7271	-3.6729	-3.8875	-3.8479	-3.9417	-3.8125	-3.6292	-3.9437	-3.7333	-3.5583	-3.8979	-3.7021	-3.7896	375.575	342.644	479.215	452.458	307.406	404.557	435.363	433.149	468.753	306.370	337.600	404.704	474.564	373.960	232.409	451.957	0.00070188	0.0003278	0.00011158	1164.9	7.5978e-06	2.866e-06	1229.2	236.98	9.8176e-06	3.5764e-06	294.33	82.54	64.485	18.7	5.8238e-06	26.412	0.00046117	0.00049921	0.00013197	1171.2	5.49e-06	5.2858e-06	1233.6	238.91	5.0029e-06	5.5095e-06	299.07	84.038	65.451	19.291	4.9471e-06	27.247	347.177	240.597	269.882	158.980	288.869	309.029	158.709	166.288	323.424	284.986	166.091	172.601	172.294	179.650	307.629	178.952	-8191	255	
513.855	1	1	0	0	0.22172	0.10701	0.084462	0.34663	0.21117	0.067914	0.08687	0.21855	0.14148	0.083153	0.16901	0.14073	0.23442	0.13439	0.22617	0.20376	-3.3708	-3.3917	-3.8854	-3.8917	-3.5792	-4	-3.8063	-3.7771	-3.7729	-3.7375	-3.9875	-3.775	-3.6896	-4.0771	-3.6354	-3.8812	293.277	247.590	161.883	468.073	271.663	306.771	459.878	488.195	341.393	205.049	388.463	434.669	429.679	278.291	157.648	467.004	0.00072153	0.00023753	7.0195e-05	1171	5.4506e-06	3.9682e-06	1230.3	237.67	8.096e-06	4.8856e-06	296.82	82.645	65.146	18.953	4.5729e-06	26.462	0.00045949	0.0004873	0.0001332	1171.9	5.2924e-06	4.8928e-06	1233.1	239.11	4.5167e-06	4.9528e-06	300.02	84.101	65.805	19.455	4.9263e-06	27.399	350.500	221.546	256.336	158.949	291.932	320.489	158.917	166.145	322.843	301.573	165.549	172.464	173.014	179.857	331.091	178.981	-8191	255	
513.974	1	1	0	0	0.10638	0.17821	0.13838	0.22179	0.078833	0.069911	0.15082	0.18718	0.20242	0.21281	0.056258	0.16389	0.35174	0.17426	0.043671	0.22544	-3.4896	-3.4521	-3.8312	-3.7979	-3.5708	-3.8208	-3.7	-3.75	-3.8521	-3.725	-3.8979	-3.9208	-3.6479	-3.9688	-3.5625	-3.6542	218.354	412.556	261.371	497.418	451.052	250.842	494.738	445.712	164.050	156.454	463.835	348.693	182.871	433.102	401.179	401.498	0.00071277	0.00034348	8.9719e-05	1168.6	4.4768e-06	3.9836e-06	1228.9	237.94	9.0128e-06	1.8574e-06	296.1	82.607	64.418	18.861	6.2988e-06	26.236	0.00043482	0.00044102	0.00012584	1171	5.2578e-06	4.8872e-06	1232.7	239.3	4.7633e-06	5.1662e-06	300.69	84.025	65.611	19.373	4.809e-06	27.218	348.640	217.124	247.413	158.971	298.276	308.988	158.781	166.046	332.517	319.274	165.662	172.097	172.519	179.737	307.467	178.803	-8191	255	
514.070	1	1	0	0	0.35292	0.21565	0.16899	0.23179	0.20964	0.078318	0.27089	0.11498	0.13332	0.18774	0.13226	0.21819	0.15466	0.19773	0.31852	0.13336	-3.45	-3.4	-3.5958	-3.8875	-3.6063	-3.8896	-3.8063	-3.8021	-4.0188	-3.5875	-3.8479	-3.9792	-3.75	-3.9771	-3.625	-3.7438	164.535	499.774	472.114	453.171	419.214	436.628	447.150	469.499	278.845	426.888	227.471	162.622	151.658	489.275	344.245	294.458	0.00070335	0.00038878	0.00011866	1165.4	4.6804e-06	1.7272e-06	1230	238.33	9.5695e-06	2.9816e-06	296.88	83.168	64.909	18.977	4.332e-06	26.411	0.00043959	0.00049016	0.00012142	1169.7	5.0791e-06	4.6716e-06	1230.9	239.55	4.5855e-06	4.6717e-06	299.74	84.448	65.842	19.473	4.508e-06	27.396	348.474	234.486	240.407	159.015	291.605	293.946	158.924	166.340	329.338	284.323	165.597	172.220	172.513	179.830	319.721	178.590	-8191	255	
514.166	1	1	0	0	0.05401	0.34085	0.050598	0.12814	0.10642	0.097225	0.1067	0.31678	0.18274	0.12247	0.097743	0.18233	0.33823	0.10773	0.036351	0.19868	-3.5896	-3.5979	-3.8917	-3.9167	-3.6167	-3.8375	-3.8229	-3.6771	-4.05	-3.4417	-3.7438	-3.9208	-3.7896	-3.8542	-3.7917	-3.5146	154.339	178.919	457.471	445.255	268.625	201.995	438.208	477.555	330.909	389.543	202.810	150.824	469.977	165.047	505.421	183.760	0.00072227	0.00019874	6.0822e-05	1165.4	5.5934e-06	1.9193e-06	1234.8	238.89	8.2943e-06	4.2794e-06	295.17	82.806	64.996	18.952	2.5199e-06	26.63	0.00041646	0.00039723	0.00012066	1168.7	4.8291e-06	4.5331e-06	1231.7	240.31	4.395e-06	4.6009e-06	300.14	84.302	65.87	19.463	4.3228e-06	27.414	347.358	230.106	243.299	158.871	309.502	261.403	158.707	166.290	341.374	304.418	165.845	172.298	172.193	179.830	349.064	178.659	-8191	255	
514.262	1	1	0	0	0.08421	0.11119	0.069925	0.18842	0.080417	0.21197	0.35371	0.10585	0.027282	0.21196	0.023758	0.083855	0.018578	0.09104	0.24395	0.11927	-3.5479	-3.6042	-3.7042	-3.925	-3.5833	-3.7625	-4.0854	-3.7167	-3.8792	-3.7354	-3.6604	-3.9562	-3.6104	-3.85	-3.8146	-3.6479	161.354	164.957	485.891	421.839	243.865	262.995	451.564	375.836	402.869	298.133	230.780	394.532	199.238	379.918	226.107	423.161	0.00072968	0.0003888	6.2109e-05	1165.1	4.4514e-06	1.8407e-06	1233.4	238.83	6.8499e-06	2.7226e-06	297.98	83.187	65.508	18.992	4.1578e-06	26.508	0.00042381	0.00041721	0.00011796	1169.4	4.7958e-06	4.9127e-06	1232.4	240.68	4.8346e-06	4.4922e-06	300.58	84.422	65.874	19.492	4.2839e-06	27.372	348.470	223.040	244.656	158.993	294.376	319.102	158.888	166.152	336.176	287.381	165.743	172.214	172.571	179.810	317.404	178.894	-8191	255	
514.383	1	1	0	0	0.043118	0.096918	0.11783	0.084105	0.10459	0.04329	0.34389	0.24863	0.08223	0.10347	0.13061	0.1786	0.066409	0.059717	0.23278	0.24232	-3.5021	-3.6292	-3.6458	-4.0312	-3.6521	-3.7375	-3.9271	-3.7458	-3.8896	-3.8688	-3.6063	-3.8438	-3.5042	-3.7229	-3.8958	-3.6854	314.214	321.785	362.673	460.915	241.297	377.642	426.424	434.885	304.300	342.679	431.347	224.939	258.740	434.985	203.929	417.310	0.00067524	0.00040472	9.1319e-05	1163.2	6.6061e-06	2.7001e-06	1230.1	237.47	8.5835e-06	2.6338e-06	295.3	83.321	65.36	18.914	2.0506e-06	26.56	0.00042281	0.00043768	0.00012631	1167.8	4.7068e-06	4.7098e-06	1231.9	239.87	4.3541e-06	4.5583e-06	300.22	84.623	66.029	19.48	4.3165e-06	27.476	347.116	227.004	224.453	159.086	289.737	284.203	158.949	166.307	329.382	304.104	165.842	172.343	172.296	179.955	335.174	179.116	-8191	255	
514.454	1	1	0	0	0.14475	0.1308	0.037574	0.21245	0.083244	0.084903	0.11896	0.19901	0.096582	0.033149	0.31011	0.091431	0.1843	0.2116	0.27518	0.1783	-3.5271	-3.6312	-3.5833	-4.1562	-3.6646	-3.6771	-3.9729	-3.7646	-3.9042	-3.7104	-3.6083	-4.1104	-3.5938	-3.8396	-4.0229	-3.6583	500.309	491.333	200.516	418.898	358.767	496.814	284.123	505.935	478.773	198.772	428.043	291.280	343.551	221.192	344.788	159.743	0.00073325	0.00032568	8.0602e-05	1165.6	3.9093e-06	1.9144e-06	1234.5	238.5	7.975e-06	2.8096e-06	296.24	82.909	65.262	19.021	3.2924e-06	26.636	0.00043204	0.00041742	0.00011659	1169.2	4.7061e-06	4.6103e-06	1234.1	240.41	4.6656e-06	4.6245e-06	300.94	84.541	66.071	19.558	4.4691e-06	27.424	350.437	228.055	241.494	159.037	309.212	325.798	158.892	166.172	333.575	302.758	165.869	172.268	172.492	179.461	318.945	179.060	-8191	255	
514.551	1	1	0	0	0.23839	0.12936	0.36013	0.045947	0.032347	0.17424	0.29292	0.12335	0.16473	0.14399	0.22042	0.30872	0.27861	0.14259	0.098697	0.2588	-3.4208	-3.7875	-3.5812	-3.9062	-3.7854	-3.4604	-3.9854	-3.7562	-3.8229	-3.8854	-3.675	-4.0062	-3.7479	-3.5583	-3.8104	-3.6896	320.537	501.861	472.014	321.797	243.378	287.099	450.561	478.114	222.160	234.935	326.332	457.770	409.667	324.095	477.841	438.988	0.00071791	0.00053046	8.6986e-05	1172.6	8.1567e-06	3.6985e-06	1230.5	238.74	6.3753e-06	2.2299e-06	295.95	83.561	65.072	18.894	6.11e-06	26.516	0.00043643	0.00042125	0.00011393	1172.5	5.0287e-06	5.0408e-06	1233.1	240.1	4.7009e-06	4.7576e-06	300.18	84.462	65.787	19.45	4.3519e-06	27.4	344.494	236.972	227.020	158.890	286.294	293.501	158.725	165.943	336.993	340.662	165.835	172.200	172.676	179.273	297.190	179.323	-8191	255	
514.671	1	1	0	0	0.13586	0.12353	0.054452	0.030106	0.07656	0.022086	0.22986	0.14016	0.023938	0.092564	0.11775	0.13851	0.10476	0.34579	0.30695	0.027249	-3.25	-3.8187	-3.5625	-3.9854	-3.7125	-3.5917	-4.125	-3.8167	-3.6479	-3.9771	-3.4625	-3.9	-3.675	-3.7	-3.9167	-3.7792	375.304	485.873	444.672	160.938	241.925	390.535	446.231	374.026	203.301	197.757	459.724	254.513	222.771	444.697	154.179	413.109	0.00068403	0.00038491	7.0484e-05	1164.8	5.4681e-06	1.2829e-06	1230.6	238.06	8.8435e-06	3.2273e-06	297.96	82.805	65.36	18.892	5.9928e-06	26.692	0.00042744	0.00041972	0.00012095	1170.3	4.9273e-06	4.8952e-06	1232.4	239.87	4.6038e-06	4.6135e-06	301.36	84.466	65.996	19.446	4.5073e-06	27.472	350.977	244.674	232.237	158.915	300.087	289.243	158.811	166.237	335.452	290.976	165.900	172.713	172.468	179.525	312.885	179.102	-8191	255	
514.766	1	1	0	0	0.11984	0.099894	0.021699	0.27531	0.24006	0.062687	0.39995	0.23794	0.16324	0.24354	0.1547	0.21192	0.26253	0.12173	0.1512	0.11613	-3.3375	-3.8187	-3.6104	-4.0188	-3.7979	-3.5417	-3.9833	-3.7313	-3.6604	-3.8312	-3.6083	-3.7812	-3.8542	-3.6229	-3.8854	-3.7354	364.222	287.704	394.790	437.020	472.009	474.424	450.878	388.705	386.339	437.778	488.977	456.920	495.901	505.501	420.097	248.678	0.00076778	0.00030267	6.6398e-05	1165.5	4.9425e-06	4.3792e-06	1225.6	238.68	8.4226e-06	3.3658e-06	297.38	83.098	65.011	18.809	5.2608e-06	26.603	0.00044086	0.00043058	0.00011876	1170.8	4.8396e-06	5.0551e-06	1230.9	240.28	4.6561e-06	4.8607e-06	300.46	84.275	65.74	19.413	4.6106e-06	27.366	348.198	219.869	252.502	159.002	299.416	281.332	158.812	166.072	328.344	280.135	165.543	171.956	172.655	179.519	297.230	178.678	-8191	255	
514.862	1	1	0	0	0.13556	0.17813	0.075111	0.27083	0.044891	0.12781	0.11498	0.12342	0.26777	0.094519	0.16671	0.083669	0.24166	0.21127	0.10815	0.096583	-3.3229	-3.8375	-3.3833	-3.8458	-3.7417	-3.3958	-4.0813	-3.6542	-3.4396	-3.9208	-3.6667	-3.7854	-3.8354	-3.6042	-3.7167	-3.9604	257.222	214.477	400.374	492.102	482.270	292.192	436.699	460.678	154.734	212.236	453.665	428.595	179.778	502.376	210.482	462.064	0.00067338	0.00019872	0.00011255	1167.4	5.2195e-06	1.8381e-06	1227.7	238.05	6.7667e-06	3.2691e-06	296.6	83.158	65.052	18.923	4.1584e-06	26.31	0.00044453	0.00041603	0.00011998	1171	4.6472e-06	4.8888e-06	1232.2	240.28	4.6756e-06	4.2772e-06	301.06	84.371	65.812	19.466	4.2513e-06	27.305	346.367	263.419	240.065	158.873	302.995	287.507	158.766	166.272	331.695	292.950	165.586	172.310	172.506	179.482	305.386	179.199	-8191	255	
514.960	1	1	0	0	0.11954	0.19515	0.12171	0.35592	0.10078	0.28007	0.31013	0.19009	0.12383	0.28309	0.30044	0.1549	0.22732	0.13062	0.14424	0.14052	-3.25	-3.9708	-3.5417	-3.7354	-3.7188	-3.4833	-4.0083	-3.7771	-3.525	-3.9521	-3.7313	-3.6917	-3.8979	-3.6292	-3.8542	-3.6958	373.986	371.847	192.881	169.959	506.893	454.838	414.450	464.495	335.887	324.468	159.391	159.451	350.608	504.595	433.690	463.044	0.00075982	0.0003226	7.8181e-05	1170.4	6.3735e-06	3.1796e-06	1227.1	240.48	9.4412e-06	3.0246e-06	295.07	83.315	65.587	18.906	4.2091e-06	26.603	0.0004446	0.00040635	0.00011771	1171.5	4.5602e-06	4.8967e-06	1231.5	240.6	4.6044e-06	4.5457e-06	300.51	84.588	66.054	19.482	4.3804e-06	27.421	343.943	248.390	241.616	158.995	297.575	322.560	158.961	166.030	337.281	281.876	166.253	172.474	172.451	179.653	296.164	178.673	-8191	255	
515.054	1	1	0	0	0.358	0.11178	0.108	0.21256	0.15159	0.17137	0.14313	0.090698	0.10351	0.12742	0.25044	0.1308	0.15836	0.034248	0.15804	0.17976	-3.0812	-3.7938	-3.5896	-3.875	-3.9688	-3.4688	-4.0375	-3.725	-3.5125	-4.1042	-3.7958	-3.6417	-4.0188	-3.5771	-3.9479	-3.8688	244.194	168.543	280.495	162.076	244.870	223.458	497.003	474.726	347.396	186.980	164.151	373.362	505.197	463.356	420.588	429.844	0.00068533	0.00033927	5.9233e-05	1161.8	5.9423e-06	3.186e-06	1226.1	239.13	1.0352e-05	2.7336e-06	295.72	83.431	64.827	18.612	5.9222e-06	26.494	0.00042285	0.00039452	0.00011334	1167	4.4463e-06	4.3875e-06	1228.2	239.8	4.4367e-06	4.3394e-06	299.8	84.282	65.694	19.281	4.0911e-06	27.314	346.988	247.685	226.405	159.218	300.057	308.222	159.063	166.064	339.862	337.267	165.700	172.420	172.957	179.921	307.302	178.903	-8191	255	
515.150	1	1	0	0	0.2415	0.18988	0.1761	0.10524	0.13875	0.21589	0.12048	0.19106	0.16294	0.13686	0.24507	0.025031	0.23597	0.19185	0.31217	0.26268	-3.1688	-3.7354	-3.6021	-3.7687	-3.9771	-3.6896	-3.9833	-3.8542	-3.5771	-4.0229	-3.7708	-3.6375	-3.8625	-3.5521	-3.7021	-3.9479	468.444	458.084	342.501	376.177	383.706	304.907	428.269	287.910	321.062	213.379	148.397	361.239	402.197	489.808	200.094	474.622	0.00074381	0.00036445	7.3984e-05	1146.4	6.498e-06	2.8146e-06	1214.3	237.1	6.4946e-06	3.9922e-06	290.45	82.523	64.691	18.808	5.7446e-06	26.228	0.0004117	0.0003902	0.00010536	1156.1	4.2906e-06	4.2952e-06	1218.4	237.82	4.0331e-06	4.204e-06	296.59	83.59	65.283	19.243	4.2347e-06	27.093	347.939	243.920	234.863	158.918	292.875	271.367	158.887	166.243	330.410	305.470	166.239	172.233	172.825	179.671	276.900	178.972	-8191	255	
515.271	1	1	0	0	0.088112	0.18656	0.19499	0.54575	0.081693	0.054145	0.081906	0.16619	0.14016	0.10794	0.094908	0.17028	0.15815	0.12904	0.079479	0.14943	-3.1396	-3.9062	-3.825	-3.6708	-3.8875	-3.6042	-3.9042	-3.8917	-3.4188	-3.7521	-3.7062	-3.5896	-3.8771	-3.6708	-3.5854	-3.9417	291.551	472.286	340.087	508.498	393.747	185.764	395.809	174.526	166.861	379.129	344.926	150.395	400.083	174.234	483.990	217.036	0.00073146	0.00042407	7.9844e-05	1150.3	5.696e-06	3.4898e-06	1209.4	235.1	7.0842e-06	4.2321e-06	295.13	81.56	64.282	18.72	4.2057e-06	26.226	0.00042254	0.00041979	0.00011051	1154.8	4.5916e-06	4.736e-06	1215.8	237.31	4.3805e-06	4.4387e-06	298.28	83.265	65.107	19.214	4.3408e-06	27.048	348.514	249.056	240.329	158.968	277.110	305.859	158.772	166.501	342.146	297.350	165.844	172.346	172.453	179.403	325.243	178.977	-8191	255	
515.367	1	1	0	0	0.032658	0.047998	0.25005	0.31172	0.2401	0.25462	0.2198	0.17675	0.1716	0.2252	0.1873	0.14973	0.11285	0.22554	0.30751	0.15545	-3.2604	-3.5542	-3.5125	-3.5563	-3.8458	-3.6771	-3.9271	-3.9	-3.5354	-3.7958	-3.7812	-3.5917	-4.0208	-3.7521	-3.8063	-3.9396	272.560	178.429	316.042	149.115	261.392	468.779	419.232	206.866	345.129	459.013	428.995	246.164	474.579	421.920	460.131	438.169	0.00075691	0.00021847	0.00011345	1150.7	6.8294e-06	2.6216e-06	1215.9	235.43	8.4155e-06	3.8863e-06	291.29	82.153	64.48	18.6	6.5789e-06	26.075	0.00043513	0.00041846	0.00012307	1155.7	4.57e-06	4.4607e-06	1217.9	237.17	4.436e-06	4.5875e-06	297.05	83.356	65.108	19.185	4.3332e-06	27.056	345.717	219.477	231.532	158.953	293.784	310.011	158.892	165.919	330.308	294.283	165.678	172.427	172.876	179.639	323.188	179.191	-8191	255	
515.463	1	1	0	0	0.11236	0.17818	0.21238	0.30768	0.21027	0.14044	0.28918	0.050864	0.186	0.03483	0.1094	0.12216	0.1651	0.047363	0.08702	0.093325	-3.3354	-3.7458	-3.8083	-3.7521	-3.8146	-3.725	-3.7979	-4.0708	-3.5396	-3.6188	-3.8854	-3.6521	-3.7375	-3.7646	-3.4375	-3.825	213.835	489.686	184.423	422.701	225.487	399.105	398.372	320.193	208.562	420.627	498.383	213.831	267.798	456.966	322.229	501.235	0.00070968	0.00030045	9.7921e-05	1149.8	8.5227e-06	2.0768e-06	1216	235.9	9.2124e-06	2.2121e-06	291.51	81.923	64.603	18.59	6.1433e-06	26.373	0.00041482	0.00041303	0.00011256	1156.9	4.6054e-06	4.5275e-06	1219.2	237.48	4.291e-06	4.3292e-06	296.74	83.382	65.241	19.216	4.0876e-06	27.166	347.013	270.456	267.026	159.150	308.808	302.080	158.824	166.402	346.242	323.527	165.625	172.251	172.732	179.600	282.262	178.784	-8191	255	
515.559	1	1	0	0	0.083956	0.09695	0.14043	0.094346	0.18688	0.14813	0.19748	0.13315	0.21982	0.28476	0.091187	0.073077	0.15078	0.24161	0.064723	0.13535	-3.1813	-3.4667	-3.8563	-3.6312	-3.8042	-3.6312	-3.6958	-3.9708	-3.7	-3.5875	-3.9042	-3.6521	-3.7188	-3.8438	-3.6042	-3.9479	444.190	359.727	475.960	348.413	349.026	157.802	375.583	292.937	451.300	490.142	403.874	165.960	167.273	163.292	295.335	216.858	0.0006853	0.00031542	0.00011534	1146.4	4.2947e-06	3.108e-06	1214.7	235.06	7.7608e-06	4.1675e-06	292.32	82.726	64.335	18.704	6.1806e-06	26.14	0.0004305	0.00043071	0.00010814	1154.6	4.5373e-06	4.2045e-06	1218.2	237.37	4.2973e-06	4.5497e-06	297.2	83.857	65.265	19.246	4.2687e-06	27.132	347.620	241.931	244.765	158.995	288.327	292.032	158.892	166.278	338.305	317.192	165.497	172.171	172.621	179.717	328.655	179.231	-8191	255	
515.680	1	1	0	0	0.25959	0.12095	0.031007	0.49444	0.14298	0.30123	0.13003	0.28115	0.080417	0.15594	0.23123	0.20716	0.10618	0.30425	0.26811	0.12515	-3.4167	-3.8146	-3.8167	-3.7708	-3.7042	-3.8688	-3.6521	-3.9792	-3.775	-3.5125	-3.9396	-3.8146	-3.5771	-3.9083	-3.6833	-3.9604	195.928	486.356	251.215	166.994	174.809	395.913	463.857	201.577	183.467	282.257	478.671	488.187	361.456	495.163	324.421	233.486	0.00075664	0.0002655	0.00011283	1149.7	7.1102e-06	3.1297e-06	1214.1	236.22	7.7638e-06	3.4797e-06	292.13	82.428	64.224	18.738	4.0113e-06	26.338	0.00041101	0.00037754	0.00011067	1156.1	4.4594e-06	3.9674e-06	1218	238.1	4.052e-06	4.1788e-06	297.27	83.765	65.251	19.285	3.8483e-06	27.151	348.050	217.898	247.300	159.051	292.059	291.781	158.863	165.972	332.975	266.161	165.876	172.394	172.478	179.516	318.100	178.669	-8191	255	
515.752	1	1	0	0	0.18347	0.2785	0.16684	0.39495	0.2831	0.10971	0.28676	0.27588	0.2364	0.13691	0.15541	0.23028	0.2966	0.37271	0.19568	0.064879	-3.2812	-3.5062	-3.7833	-3.825	-3.5792	-3.8083	-3.5938	-3.9542	-3.7521	-3.5729	-3.8896	-3.5792	-3.6667	-3.8208	-3.5146	-3.9375	153.684	286.078	192.457	436.693	259.743	186.686	429.230	498.364	259.812	419.917	474.597	494.214	246.484	421.509	369.726	167.617	0.00070946	0.00035409	8.8177e-05	1150.3	5.8733e-06	2.8366e-06	1210.1	234.2	5.4948e-06	3.0619e-06	293.16	82.094	63.615	18.574	5.5125e-06	25.739	0.00040744	0.00037322	0.00010415	1155.4	4.3979e-06	4.2395e-06	1216.8	237.04	4.1466e-06	4.5977e-06	297.52	83.362	64.915	19.185	4.4331e-06	26.95	348.139	247.092	241.760	158.997	289.237	286.650	158.829	166.129	330.204	310.721	165.900	172.245	172.701	179.562	320.623	179.072	-8191	255	
515.848	1	1	0	0	0.15795	0.093282	0.16003	0.13951	0.13798	0.20179	0.38744	0.17552	0.069716	0.070082	0.24777	0.069301	0.13782	0.29652	0.047352	0.13164	-3.3604	-3.6354	-3.8083	-3.7896	-3.65	-3.8937	-3.7687	-3.8375	-3.6333	-3.5833	-3.975	-3.6875	-3.55	-3.8854	-3.6375	-3.8229	382.897	477.629	241.283	381.240	260.079	249.294	499.719	149.541	256.585	419.536	463.019	318.970	459.773	157.597	488.323	347.245	0.0007089	0.00037614	8.2613e-05	1138.3	4.7518e-06	6.5853e-07	1203.3	233.23	8.7807e-06	2.0088e-06	288.63	80.103	63.545	18.287	5.4962e-06	25.762	0.00042538	0.00041853	0.00011606	1153.1	4.7434e-06	4.2284e-06	1215.3	236.36	4.5281e-06	4.3457e-06	295.6	83.004	64.729	19.027	4.3498e-06	26.911	348.365	218.844	220.720	158.892	292.173	279.178	158.547	165.934	336.284	248.672	166.034	172.184	172.252	179.704	293.751	178.820	-8191	255	
515.942	1	1	0	0	0.20384	0.10977	0.06133	0.26145	0.14048	0.22288	0.20144	0.12959	0.21418	0.13469	0.14763	0.15597	0.25236	0.047339	0.079091	0.10925	-3.5229	-3.5875	-3.8208	-3.9062	-3.6	-3.8667	-3.7938	-3.6917	-3.8583	-3.6792	-4.0333	-3.8896	-3.7229	-3.9125	-3.6792	-3.8	468.829	379.894	235.021	497.852	467.314	485.870	475.021	368.994	480.264	291.915	373.248	418.006	455.504	402.746	424.972	230.886	0.00070565	0.00033223	0.00010876	1134.5	6.2195e-06	3.1677e-06	1195.8	232.33	7.4493e-06	2.3736e-06	287.66	81.038	63.649	18.434	5.9509e-06	25.874	0.00042912	0.00041011	0.00011434	1150.2	4.8134e-06	4.4233e-06	1212	236.35	4.3831e-06	4.6253e-06	295.93	83.143	64.816	19.152	4.3124e-06	26.944	346.771	245.241	250.033	158.725	287.505	307.937	158.788	166.082	335.928	283.679	165.749	172.299	172.466	179.602	298.634	178.993	-8191	255	
516.040	1	1	0	0	0.24291	0.19643	0.21992	0.065519	0.15587	0.14599	0.21955	0.24895	0.24179	0.20944	0.12858	0.1879	0.12711	0.16785	0.16741	0.091307	-3.3771	-3.4896	-3.6833	-3.8208	-3.5833	-4	-3.6792	-3.7687	-3.7458	-3.6729	-3.7625	-3.7771	-3.6063	-3.9542	-3.5896	-3.6583	187.235	265.480	293.877	377.424	180.459	357.856	498.802	348.847	416.865	402.098	316.847	458.394	493.789	362.024	168.137	468.556	0.00071645	0.00038547	7.8985e-05	1134.1	5.9037e-06	1.9068e-06	1195.8	232.3	8.8156e-06	3.7079e-06	289.17	80.531	63.292	18.283	7.1583e-06	25.765	0.00041763	0.00041951	0.00011595	1150.9	4.6387e-06	4.4766e-06	1211.5	236.15	4.5811e-06	4.4087e-06	296.18	83.016	64.703	19.069	4.5538e-06	26.956	344.341	232.460	234.883	158.828	290.194	352.126	158.586	165.767	330.378	311.228	165.871	172.457	172.265	179.515	307.047	178.980	-8191	255	
516.159	1	1	0	0	0.0075858	0.17401	0.12335	0.26864	0.093408	0.097964	0.22763	0.088253	0.22229	0.095505	0.10123	0.21737	0.10363	0.19258	0.025332	0.0071729	-3.5771	-3.7125	-3.8292	-4.0229	-3.3958	-3.9625	-4.0042	-3.6708	-3.9396	-3.5146	-3.6083	-3.9208	-3.575	-3.8771	-3.7687	-3.6146	190.717	490.690	352.649	447.529	498.315	268.138	426.659	447.312	160.554	413.629	209.184	484.554	228.324	472.004	191.319	191.770	0.00069318	0.00027208	9.3414e-05	1138.5	5.8525e-06	2.363e-06	1203.8	233.28	7.9977e-06	3.1793e-06	290.11	80.762	63.578	18.456	4.0839e-06	25.781	0.00042233	0.00046155	0.00011998	1152.2	4.8475e-06	4.8745e-06	1214.4	236.76	4.4222e-06	4.5284e-06	296.39	83.115	64.891	19.16	4.773e-06	26.974	346.284	240.655	239.925	158.766	290.011	303.653	158.573	166.424	311.076	307.293	165.315	171.891	172.422	179.412	319.113	178.703	-8191	255	
516.255	1	1	0	0	0.15242	0.16077	0.11311	0.19467	0.18221	0.13491	0.40023	0.14692	0.04444	0.1368	0.22566	0.081634	0.092911	0.29905	0.049859	0.14772	-3.4562	-3.5438	-3.6896	-3.9167	-3.3375	-3.8896	-3.8708	-3.6104	-3.8771	-3.5833	-3.6979	-3.9708	-3.5667	-3.7333	-3.9688	-3.5896	444.744	383.649	365.556	158.676	286.362	214.037	464.133	419.784	468.381	488.744	395.850	433.641	454.310	384.055	448.383	148.750	0.00071274	0.00034412	6.7587e-05	1134.5	7.4428e-06	3.0694e-06	1198.4	232.77	9.1833e-06	3.0433e-06	290.27	81.316	63.993	18.622	6.2143e-06	25.865	0.00041574	0.00041589	0.00011444	1154.5	4.6603e-06	4.7989e-06	1215	236.73	4.7009e-06	4.8418e-06	297.22	83.511	65.077	19.212	4.3991e-06	27.033	348.498	228.571	289.860	158.696	293.050	287.972	158.643	166.105	336.830	265.667	165.682	172.407	172.409	179.430	308.952	178.372	-8191	255	
516.351	1	1	0	0	0.18678	0.19539	0.14318	0.090047	0.19294	0.10703	0.033352	0.23077	0.24649	0.2001	0.14682	0.095392	0.14874	0.10552	0.082274	0.23115	-3.3417	-3.4708	-3.5854	-3.9271	-3.6021	-3.6562	-3.925	-3.6958	-3.7979	-3.6125	-3.7271	-3.8375	-3.525	-3.8979	-3.9583	-3.6063	263.852	387.969	196.614	450.543	265.005	329.745	433.604	175.946	387.452	221.755	410.107	462.857	505.447	444.139	420.685	381.817	0.00070053	0.00038544	7.156e-05	1140.6	6.1593e-06	2.1388e-06	1209.6	233.84	1.0281e-05	2.7909e-06	292.79	81.505	64.031	18.609	4.7592e-06	26.208	0.00043334	0.00044046	0.00012639	1157.9	5.0222e-06	4.9357e-06	1221.2	237.62	4.6511e-06	4.6709e-06	298.61	83.607	65.265	19.261	4.5878e-06	27.163	347.141	280.780	268.721	158.758	292.488	284.444	158.480	165.914	329.391	268.020	165.779	172.019	172.472	179.715	303.796	179.048	-8191	255	
516.447	1	1	0	0	0.10909	0.086881	0.19576	0.15943	0.15933	0.22671	0.067446	0.31242	0.063292	0.086323	0.14191	0.16354	0.17965	0.20117	0.17002	0.25716	-3.5417	-3.6917	-3.5312	-4.0229	-3.7354	-3.6646	-3.9083	-3.7083	-3.8563	-3.8292	-3.6833	-3.9813	-3.6375	-3.8125	-3.8958	-3.5979	242.335	151.546	247.052	148.496	394.756	412.503	383.994	405.513	330.015	471.196	195.496	222.840	180.621	288.406	169.280	496.376	0.00069212	0.00029975	8.4546e-05	1146.9	3.8975e-06	1.8005e-06	1204.5	234.05	5.8046e-06	2.8988e-06	291.59	81.41	63.811	18.586	3.1162e-06	26.195	0.0004342	0.00046371	0.00012111	1158.7	5.0241e-06	4.9843e-06	1220.3	237.36	4.7488e-06	5.0213e-06	298.78	83.384	65.056	19.172	4.3887e-06	27.133	349.374	260.152	231.420	158.885	281.509	302.735	158.604	165.688	329.941	301.074	165.249	172.305	172.730	179.657	287.110	179.084	-8191	255	
516.544	1	1	0	0	0.20428	0.07704	0.11032	0.11889	0.069569	0.1416	0.24327	0.28748	0.37897	0.1931	0.31177	0.23924	0.34388	0.1828	0.17421	0.069505	-3.5417	-3.7208	-3.5187	-4.0542	-3.6542	-3.8021	-3.9646	-3.5438	-3.8187	-3.875	-3.5104	-4.0708	-3.5708	-3.7042	-4.0771	-3.5583	228.339	217.217	161.931	457.281	271.398	466.621	443.007	421.852	199.634	338.552	452.816	447.563	156.262	244.939	220.278	504.465	0.00071178	0.000421	9.2642e-05	1142.2	5.1602e-06	3.3477e-06	1210.1	234.25	1.0278e-05	2.8418e-06	291.09	81.258	63.713	18.62	5.5138e-06	26.339	0.00043149	0.00044109	0.00012305	1159.1	4.9286e-06	4.9532e-06	1221.4	237.77	4.8617e-06	4.8355e-06	297.41	83.478	65.109	19.227	4.5454e-06	27.155	347.193	224.450	270.707	158.694	279.720	320.079	158.477	165.886	335.382	298.738	165.677	172.007	172.335	179.633	307.926	178.497	-8191	255	
516.640	1	1	0	0	0.16789	0.13315	0.14654	0.2069	0.18772	0.059876	0.20151	0.13634	0.15622	0.18897	0.092066	0.032735	0.1241	0.12479	0.09077	0.030982	-3.4833	-3.6854	-3.35	-3.9792	-3.75	-3.6292	-4.1104	-3.6771	-3.9083	-3.7708	-3.6708	-3.8021	-3.6292	-3.6813	-3.9646	-3.6437	235.976	343.538	201.152	408.345	429.842	503.305	426.560	210.972	249.636	354.548	493.950	192.081	486.877	492.569	282.130	376.428	0.000743	0.00023514	8.5961e-05	1142.1	5.5365e-06	2.7287e-06	1209	234.65	1.0663e-05	2.924e-06	292.99	81.141	64.188	18.53	4.6785e-06	26.165	0.00045743	0.00043976	0.00013048	1158.6	4.9103e-06	4.7217e-06	1224.1	238.31	4.8358e-06	4.8938e-06	298.89	83.662	65.343	19.273	4.6953e-06	27.223	346.837	244.543	231.673	158.917	296.408	295.878	158.491	165.947	343.474	312.242	165.695	172.068	172.132	179.631	304.216	178.642	-8191	255	
516.760	1	1	0	0	0.10008	0.19331	0.16675	0.12768	0.1409	0.11946	0.20281	0.15152	0.15578	0.11901	0.17421	0.2502	0.20685	0.1828	0.1422	0.052329	-3.4042	-3.8333	-3.4646	-3.9625	-3.7833	-3.3958	-4.1167	-3.6229	-3.775	-3.9146	-3.6458	-3.9396	-3.7062	-3.6208	-3.9375	-3.7208	242.845	321.835	448.920	496.304	290.969	493.484	420.513	263.426	226.243	148.442	283.714	206.653	249.758	403.987	274.178	349.380	0.0007256	0.00038634	9.5102e-05	1146.7	4.9219e-06	3.9264e-06	1212	235.14	5.8816e-06	3.1232e-06	293.73	82.498	64.757	18.762	3.3647e-06	26.145	0.00044789	0.00045222	0.00012369	1162.8	5.087e-06	5.4959e-06	1225.5	238.57	4.8919e-06	4.8883e-06	299.18	83.992	65.646	19.335	4.7064e-06	27.212	346.746	251.832	253.446	158.768	297.003	300.274	158.567	166.121	332.186	304.935	165.969	172.301	172.475	179.509	301.841	178.488	-8191	255	
516.855	1	1	0	0	0.29981	0.06519	0.17141	0.19684	0.2534	0.25131	0.10311	0.16166	0.057913	0.11738	0.14624	0.076866	0.22912	0.0862	0.17295	0.27274	-3.225	-3.9708	-3.6375	-3.9437	-3.8708	-3.4479	-3.9479	-3.725	-3.6063	-3.9958	-3.6437	-3.7833	-3.7792	-3.5208	-3.9708	-3.8958	189.062	147.942	446.498	506.153	439.540	274.943	166.591	153.429	190.230	243.794	258.216	289.567	487.116	346.316	166.199	156.696	0.00065334	0.00026555	8.853e-05	1151.2	5.173e-06	2.9934e-06	1213.7	235.27	6.4541e-06	3.1278e-06	291.35	81.795	64.001	18.589	6.7108e-06	26.099	0.00044861	0.00043719	0.00013091	1164.8	5.2839e-06	5.3686e-06	1227.2	238.72	5.1725e-06	5.519e-06	298.09	83.978	65.456	19.329	4.8992e-06	27.216	346.269	238.612	250.424	158.600	271.471	290.719	158.587	165.774	330.458	262.242	165.501	172.310	172.370	179.012	302.455	178.508	-8191	255	
516.953	1	1	0	0	0.11084	0.26289	0.10904	0.15466	0.10234	0.032638	0.35899	0.15518	0.38036	0.10251	0.28992	0.32575	0.24682	0.19339	0.15757	0.20345	-3.2583	-3.9146	-3.7479	-3.7354	-3.7208	-3.6188	-4.0563	-3.7417	-3.4833	-4.0792	-3.5687	-3.8438	-3.8708	-3.6854	-3.8854	-3.8688	486.997	441.963	470.620	468.614	316.349	365.011	461.841	404.357	458.871	462.610	479.562	436.926	213.908	450.220	344.823	158.857	0.00069522	0.00046706	8.2859e-05	1150	6.596e-06	1.6398e-06	1212.8	234.34	1.0683e-05	2.5654e-06	291.83	82.073	64.027	18.751	3.2804e-06	26.109	0.00044957	0.0004976	0.00013588	1165	5.1832e-06	5.0416e-06	1228.4	238.89	5.0439e-06	5.093e-06	299.97	84.221	65.655	19.419	4.9915e-06	27.332	345.715	244.595	229.962	158.677	290.021	283.041	158.384	165.852	346.373	314.794	165.736	172.217	172.082	179.433	288.690	178.432	-8191	255	
517.047	1	1	0	0	0.1544	0.16021	0.087383	0.31484	0.18073	0.21299	0.058482	0.41586	0.074018	0.066596	0.16817	0.10352	0.13432	0.086404	0.14727	0.15438	-3.1208	-3.8937	-3.5208	-3.8208	-3.8979	-3.5062	-3.8458	-3.7896	-3.6854	-3.8333	-3.7146	-3.725	-4.0229	-3.625	-3.7687	-3.8521	447.304	420.487	192.898	409.464	212.796	424.169	408.700	149.303	392.637	251.778	434.457	301.236	317.611	159.676	157.133	439.628	0.00070983	0.00023117	6.0774e-05	1152.5	6.4952e-06	2.2982e-06	1216.1	234.73	6.8244e-06	2.5797e-06	294.15	81.936	64.45	18.719	7.6476e-06	26.239	0.00047427	0.00047965	0.00013416	1167.5	5.2061e-06	5.3272e-06	1231	239.23	5.2652e-06	5.456e-06	299.61	84.184	65.68	19.407	5.1538e-06	27.293	346.703	272.661	261.392	158.805	289.133	300.457	158.677	165.980	331.320	272.407	165.822	171.931	172.929	179.467	315.609	178.456	-8191	255	
517.143	1	1	0	0	0.13971	0.051487	0.053397	0.17405	0.24152	0.19044	0.081909	0.14964	0.1946	0.34835	0.39678	0.23299	0.13468	0.071005	0.17414	0.24521	-3.0833	-3.9833	-3.7167	-3.7854	-3.9437	-3.6625	-3.9354	-3.8958	-3.525	-3.9958	-3.8042	-3.6458	-4.0292	-3.5667	-3.8458	-3.9021	320.188	357.537	497.287	437.141	165.345	362.206	465.215	473.648	207.112	507.064	187.570	433.154	287.584	266.159	331.086	466.341	0.00069251	0.00035071	5.8444e-05	1150.4	6.6885e-06	2.2584e-06	1219.2	235.83	8.5485e-06	3.8082e-06	293.9	81.858	64.132	18.624	3.9435e-06	26.227	0.00045715	0.00047303	0.00013811	1167.9	5.5293e-06	5.5978e-06	1230.3	239.55	5.4771e-06	5.3135e-06	299.83	84.101	65.616	19.362	5.3008e-06	27.297	346.780	223.282	246.093	158.651	298.273	292.974	158.484	165.775	343.034	312.332	165.576	172.439	172.283	179.423	289.785	178.723	-8191	255	
517.239	1	1	0	0	0.22824	0.24563	0.2401	0.48504	0.027302	0.24067	0.24041	0.015266	0.081266	0.17218	0.13288	0.15054	0.051033	0.19977	0.33196	0.16786	-3.1604	-3.8625	-3.6688	-3.9021	-4.0021	-3.5438	-3.8375	-3.9813	-3.5687	-3.9313	-3.8229	-3.8063	-3.9583	-3.6333	-3.7542	-3.9437	248.110	157.519	329.276	174.118	474.003	454.948	479.296	210.857	212.119	391.511	409.480	268.937	179.782	321.529	234.681	205.801	0.00073801	0.00030764	8.9981e-05	1154.3	4.4771e-06	1.8869e-06	1217.8	235.05	8.4213e-06	4.0902e-06	293.96	82.172	64.25	18.654	4.764e-06	26.161	0.00046727	0.00048076	0.00013134	1168.9	5.4599e-06	5.7092e-06	1232.1	239.51	5.0849e-06	5.2993e-06	300.57	84.124	65.614	19.373	5.1649e-06	27.333	347.448	234.315	270.589	158.812	310.491	322.558	158.504	165.844	332.905	287.087	165.866	172.053	172.102	179.441	308.889	178.849	-8191	255	
517.360	1	1	0	0	0.075728	0.17508	0.27459	0.17814	0.16892	0.018909	0.11236	0.33052	0.049779	0.26914	0.34035	0.11036	0.17012	0.095041	0.1738	0.19306	-3.1458	-3.7646	-3.9	-3.6312	-3.9354	-3.7146	-3.7958	-4.0125	-3.5187	-3.7562	-3.8229	-3.6771	-3.85	-3.7042	-3.7562	-4.0312	288.216	330.334	324.405	433.322	441.326	364.882	396.613	430.641	306.824	379.455	190.932	489.548	477.286	473.845	342.284	460.726	0.00072151	0.00013257	5.3516e-05	1162.1	6.6929e-06	2.7983e-06	1228.3	238.1	6.8282e-06	4.5538e-06	295.47	82.532	64.744	18.756	5.5271e-06	26.166	0.000467	0.00048097	0.00014086	1170.8	5.2636e-06	5.3837e-06	1233.2	239.99	4.9998e-06	5.2749e-06	301.24	84.475	65.831	19.461	4.791e-06	27.347	346.991	254.776	259.945	158.918	306.375	265.910	158.721	166.051	334.605	298.935	165.410	172.114	172.424	179.403	294.703	178.672	-8191	255	
517.456	1	1	0	0	0.11616	0.17276	0.10079	0.17558	0.085974	0.15438	0.24655	0.14665	0.12621	0.28373	0.25066	0.069053	0.21227	0.098005	0.11683	0.10415	-3.1917	-3.5625	-3.8167	-3.6792	-3.8354	-3.8271	-3.7604	-4.1208	-3.6688	-3.8812	-3.9688	-3.6146	-4.0396	-3.7521	-3.4938	-3.8563	309.270	172.621	422.504	399.498	207.266	282.249	454.821	429.919	180.488	381.903	459.905	464.348	493.274	322.566	204.617	349.782	0.00072377	0.00020243	9.7252e-05	1152.2	5.8053e-06	2.6874e-06	1219.1	235.82	8.5668e-06	2.1148e-06	294.39	82.072	64.237	18.754	4.9419e-06	26.243	0.0004623	0.00045187	0.00012647	1167.9	4.9816e-06	4.7034e-06	1230.3	239.83	5.0943e-06	5.1828e-06	300.57	84.282	65.661	19.428	4.8916e-06	27.295	347.873	254.740	225.448	158.963	295.597	287.149	158.588	165.995	327.243	301.620	165.663	172.348	172.325	179.435	291.577	178.819	-8191	255	
517.552	1	1	0	0	0.1798	0.15226	0.20489	0.29346	0.29454	0.087157	0.1477	0.056459	0.14611	0.14294	0.25246	0.067926	0.16463	0.13224	0.22567	0.084561	-3.1708	-3.5687	-3.8396	-3.5438	-3.6979	-3.8104	-3.7583	-4.1146	-3.5854	-3.5479	-4.0396	-3.5687	-4.0042	-3.9208	-3.65	-4.0583	331.239	172.031	421.908	161.571	354.291	384.570	475.896	430.701	382.977	329.482	499.611	230.111	298.729	419.128	453.882	472.931	0.00074673	0.00031808	9.1839e-05	1157.4	6.9611e-06	3.3676e-06	1221.5	235.24	7.6252e-06	2.2541e-06	294.41	81.943	64.43	18.655	6.6957e-06	25.906	0.00047338	0.00047693	0.00013445	1170.8	5.475e-06	5.2683e-06	1232	239.3	5.1971e-06	5.5434e-06	299.77	83.923	65.684	19.362	5.1746e-06	27.224	344.630	245.385	232.636	158.746	285.346	284.146	158.519	165.888	310.952	299.072	165.563	172.062	172.078	179.609	303.928	178.483	-8191	255	
517.624	1	1	0	0	0.15231	0.1506	0.35439	0.15469	0.045841	0.19878	0.093272	0.24715	0.17276	0.4152	0.21247	0.080404	0.093854	0.13481	0.19799	0.15125	-3.325	-3.4	-3.8917	-3.9188	-3.8563	-3.7125	-3.7542	-4.15	-3.5312	-3.6146	-4.0062	-3.7188	-3.8083	-3.6833	-3.4479	-3.8375	428.519	224.221	288.205	507.083	248.975	462.308	460.073	473.726	159.719	422.003	264.673	370.934	263.322	228.762	363.759	503.934	0.00071641	0.00037413	5.9392e-05	1152.3	5.397e-06	3.2977e-06	1213.8	235.59	7.9816e-06	3.1764e-06	294.7	82.291	64.296	18.562	4.879e-06	26.004	0.00046556	0.00050387	0.00013345	1168.6	5.4599e-06	5.5261e-06	1229.5	239.1	5.3661e-06	5.8111e-06	300.04	83.902	65.564	19.299	5.2412e-06	27.163	349.168	236.332	284.434	158.600	293.234	324.915	158.440	166.014	329.294	310.115	165.721	172.157	172.411	179.082	306.467	178.586	-8191	255	
517.720	1	1	0	0	0.092111	0.18952	0.19039	0.28868	0.27134	0.14859	0.2273	0.11338	0.25996	0.21723	0.18497	0.096016	0.1777	0.30183	0.076627	0.1362	-3.3583	-3.5604	-3.9688	-3.7604	-3.7333	-3.9042	-3.6896	-3.7104	-3.8688	-3.7167	-4.0083	-3.6396	-3.7938	-3.7562	-3.3625	-3.9062	166.560	200.372	403.150	454.075	237.239	329.183	450.146	227.100	240.588	495.958	489.181	476.379	505.517	157.422	499.688	152.781	0.00070262	0.00024471	7.3026e-05	1153.2	6.7627e-06	4.1775e-06	1213.6	234.73	8.0943e-06	1.8589e-06	293	82.046	64.234	18.491	3.8364e-06	26.222	0.00047331	0.00051758	0.00014129	1169.6	5.5817e-06	5.7672e-06	1229.6	238.51	5.2999e-06	5.6127e-06	299.56	83.975	65.551	19.26	5.2474e-06	27.241	348.206	252.257	253.242	158.845	297.833	276.663	158.724	165.881	343.814	286.622	165.773	172.249	172.255	179.769	285.790	178.430	-8191	255	
517.839	1	1	0	0	0.13518	0.291	0.22519	0.26567	0.18598	0.06069	0.41855	0.16619	0.13697	0.1997	0.21507	0.15385	0.3117	0.14104	0.20284	0.22975	-3.3896	-3.4667	-3.6604	-3.6437	-3.7271	-3.7021	-3.6167	-3.7521	-3.7458	-3.6042	-3.8875	-3.6583	-3.7208	-4.0375	-3.6437	-3.6333	477.517	289.583	348.518	179.777	283.220	158.041	471.186	369.879	421.858	364.836	389.510	383.057	473.892	429.330	175.203	373.960	0.00067345	0.00028372	8.5884e-05	1157.3	5.3869e-06	1.9553e-06	1218.9	235.35	5.8329e-06	1.0861e-06	292.05	81.724	63.98	18.716	6.6507e-06	26.757	0.0004624	0.00051327	0.00014041	1169.5	5.7079e-06	5.2739e-06	1231.3	238.75	5.2375e-06	5.7087e-06	298.75	83.781	65.45	19.355	5.3258e-06	27.431	347.089	235.636	298.324	158.799	278.942	267.802	158.652	166.104	334.213	325.606	165.598	172.380	172.796	179.627	310.877	179.489	-8191	255	
517.935	1	1	0	0	0.3095	0.052855	0.037434	0.11986	0.35892	0.21209	0.19709	0.1486	0.14506	0.086342	0.3067	0.16343	0.15164	0.3	0.072139	0.1023	-3.2104	-3.5812	-3.7271	-3.9917	-3.5083	-3.9229	-3.7521	-3.6896	-3.8438	-3.4375	-3.8021	-3.6229	-3.4813	-3.8917	-3.6375	-3.8479	256.088	452.073	352.943	491.230	150.095	243.827	378.095	397.656	223.073	272.107	457.036	171.021	491.287	161.401	416.805	298.367	0.00071521	0.00032602	7.8914e-05	1183.3	7.8677e-06	3.3594e-06	1243.5	242.33	9.6364e-06	2.6713e-06	300.46	83.832	65.749	18.983	3.9552e-06	26.687	0.00047698	0.00053763	0.00014395	1176.2	5.6602e-06	5.3288e-06	1235.7	240.59	5.5553e-06	5.9292e-06	300.8	84.38	65.894	19.406	5.3085e-06	27.378	347.287	247.829	244.949	159.401	301.447	314.324	159.215	166.350	322.360	269.174	166.369	172.796	172.872	179.895	299.034	179.415	-8191	255	
518.033	1	1	0	0	0.25462	0.16687	0.22657	0.244	0.1066	0.1034	0.22234	0.12165	0.25871	0.084409	0.13401	0.2244	0.19716	0.31545	0.038658	0.03861	-3.3333	-3.6146	-3.9792	-3.9771	-3.5646	-3.8146	-3.6896	-3.825	-3.8375	-3.6604	-3.675	-3.8	-3.5438	-3.9021	-3.6375	-3.6896	503.924	324.262	487.796	493.303	289.439	239.936	493.279	492.502	392.043	375.056	439.948	160.804	296.280	460.954	471.213	204.550	0.0007275	0.0004046	5.9064e-05	1190.1	7.1954e-06	2.2661e-06	1245.7	240.59	8.585e-06	2.0703e-06	299.86	82.416	65.875	19.201	6.4341e-06	27.046	0.00047242	0.00052656	0.00013856	1178.2	5.9226e-06	5.7338e-06	1236.6	239.95	5.1713e-06	5.767e-06	300.76	83.973	65.959	19.447	5.4999e-06	27.452	348.752	252.725	238.302	159.697	311.748	313.537	159.067	166.247	327.817	308.395	165.822	172.651	173.045	180.022	301.110	179.595	-8191	255	
518.152	1	1	0	0	0.10017	0.029434	0.11462	0.24171	0.19115	0.068963	0.24072	0.21768	0.1766	0.25141	0.053968	0.16766	0.075126	0.16279	0.1611	0.19714	-3.4146	-3.4854	-3.8583	-3.8646	-3.6021	-3.9375	-3.7333	-3.725	-3.8937	-3.6063	-3.8979	-3.9771	-3.5312	-3.8708	-3.6042	-3.7292	406.955	281.926	377.437	483.227	371.750	149.673	482.521	462.274	487.275	345.572	334.436	489.604	336.407	362.477	274.905	480.231	0.00074277	0.00040259	0.00010665	1190.3	7.5661e-06	2.3165e-06	1252.4	240.93	1.0088e-05	3.403e-06	298.85	83.875	65.962	19.075	3.8242e-06	26.758	0.00047136	0.000507	0.00014311	1177.8	5.9337e-06	5.7776e-06	1239.4	240.53	5.4645e-06	5.6521e-06	300.28	84.405	65.911	19.464	5.6303e-06	27.424	347.677	241.084	228.232	159.434	303.563	310.300	158.955	166.481	335.005	298.670	165.950	172.549	172.907	179.995	296.409	179.398	-8191	255	
518.224	1	1	0	0	0.16863	0.093269	0.02428	0.08754	0.051971	0.065522	0.19003	0.05669	0.25179	0.11412	0.11288	0.080104	0.15485	0.27778	0.11671	0.17934	-3.425	-3.625	-3.7958	-3.8646	-3.5104	-3.9604	-3.9667	-3.7562	-3.7958	-3.5354	-3.7125	-3.9	-3.4667	-3.8583	-3.6833	-3.425	356.265	334.617	374.229	484.783	438.074	278.987	501.505	290.716	186.406	230.402	192.088	466.930	428.152	198.677	295.481	272.387	0.00072828	0.00027294	8.8124e-05	1164.8	7.6276e-06	4.2521e-06	1230.3	238.4	8.3151e-06	3.8705e-06	295.85	83.15	65.027	18.886	6.085e-06	26.411	0.00047451	0.00051723	0.00014765	1171.3	6.0325e-06	6.1166e-06	1234.9	240.05	5.3119e-06	6.1355e-06	300.38	84.198	65.694	19.399	5.733e-06	27.279	345.422	225.041	240.862	159.024	280.389	282.210	158.872	166.384	336.491	299.035	166.043	172.301	172.699	179.697	306.383	179.232	-8191	255	
518.320	1	1	0	0	0.28471	0.19101	0.11186	0.36694	0.15359	0.063269	0.22673	0.14493	0.3129	0.07785	0.1566	0.059647	0.21066	0.086389	0.17279	0.32303	-3.3937	-3.6208	-3.7021	-3.9375	-3.6125	-3.8458	-3.8708	-3.7958	-3.9375	-3.7333	-3.8729	-3.9333	-3.625	-4.0167	-3.6396	-3.6937	363.669	168.392	250.370	151.126	336.997	505.010	438.956	388.263	403.352	351.883	358.151	424.874	438.204	225.095	396.256	181.428	0.00075725	0.00051676	9.0496e-05	1176.5	6.6899e-06	1.2351e-06	1236.1	240.08	7.6351e-06	3.0339e-06	296.9	82.416	65.464	18.91	6.3148e-06	26.88	0.00048518	0.00053909	0.00014767	1175.4	5.9088e-06	5.6654e-06	1234.9	240.18	5.3081e-06	5.9741e-06	300	84.081	65.825	19.378	5.5165e-06	27.344	347.812	220.197	232.538	159.015	308.625	302.370	158.891	166.279	346.400	310.708	165.747	172.739	173.214	179.957	298.811	179.450	-8191	255	
518.440	1	1	0	0	0.13293	0.17357	0.13966	0.18882	0.098744	0.041873	0.16641	0.3176	0.091939	0.26314	0.22612	0.086037	0.078056	0.11693	0.20879	0.22442	-3.2833	-3.6854	-3.5271	-4.075	-3.5646	-3.7438	-3.9688	-3.5354	-3.8979	-3.7729	-3.5896	-3.95	-3.7958	-3.9604	-3.9021	-3.5687	263.029	415.083	470.245	243.531	227.327	418.023	450.186	479.691	176.402	422.602	449.701	498.222	296.827	465.867	387.787	499.074	0.00077721	0.00019896	4.6014e-05	1191.6	5.6334e-06	2.8391e-06	1250.9	241.87	7.8692e-06	1.9679e-06	299.43	84.621	65.903	19.168	5.8943e-06	26.757	0.00048172	0.00054139	0.00015168	1177.8	5.7361e-06	5.6511e-06	1236.6	240.62	5.2305e-06	5.5906e-06	300.63	84.633	65.94	19.452	5.4576e-06	27.315	347.532	254.715	232.109	159.369	279.657	326.623	159.358	166.492	335.135	298.444	166.319	172.495	173.160	179.961	308.152	179.241	-8191	255	
518.536	1	1	0	0	0.27743	0.053514	0.22235	0.26594	0.11319	0.24661	0.11258	0.154	0.13676	0.10791	0.20403	0.098761	0.35095	0.20307	0.023006	0.2451	-3.4958	-3.75	-3.5312	-3.9979	-3.7438	-3.725	-3.8958	-3.6188	-3.8708	-3.8396	-3.6604	-3.9542	-3.6708	-3.7479	-3.8396	-3.525	222.887	493.287	493.432	508.035	314.344	198.477	166.444	417.927	324.503	154.763	153.957	467.252	213.572	506.844	289.971	371.758	0.00070133	0.00028355	0.00010222	1191.5	8.6921e-06	3.3158e-06	1257.2	243.23	6.757e-06	1.7617e-06	302.57	84.429	66.534	19.156	4.5388e-06	27.105	0.00046131	0.00052559	0.00014963	1177.7	5.846e-06	5.6232e-06	1237.6	240.78	5.2879e-06	5.6599e-06	301.53	84.61	66.07	19.409	5.3709e-06	27.518	349.020	244.037	254.942	159.261	293.813	276.528	159.262	166.772	334.646	292.299	166.409	172.947	173.094	180.157	300.887	179.285	-8191	255	
#DATA ENDS
