BOXY.EXE: ISS Imagent and Oximeter Data Acquisition Program Version 0.80
Ascii Record File

#ACQ INFORMATION
2  Detector Channels 
16  External MUX Channels 
1  Auxiliary Channels 
5000  Waveform (CCF) Frequency (Hz)
1  Waveforms Skipped 
30  Waveforms Averaged 
1  Cycles Averaged 
16  Acquisitions per Waveform 
10.0806  Updata Rate (Hz) 

#FILE INFORMATION
TRUE -- External MUX Channel results are PARSED.
FALSE -- AC DC and Phase are NOT grouped.
TRUE -- Companion Program Settings File CREATED.
FALSE -- AC data not excluded
FALSE -- DC data not excluded
FALSE -- Phase data not excluded
FALSE -- Auxillary Chn. data not excluded
Tab delimiters

#CALIBRATION STATE
TRUE -- Waveform Calibration Values APPLIED.


#AUX CALIBRATION VALUES
Val Type	aux-1	

Term	1.0000e+00	
Factor	0.0000e+00	


#WF CALIBRATION VALUES
A = Detector Channel
Val Type	A-AC1	A-AC2	A-AC3	A-AC4	A-AC5	A-AC6	A-AC7	A-AC8	A-AC9	A-AC10	A-AC11	A-AC12	A-AC13	A-AC14	A-AC15	A-AC16	A-DC1	A-DC2	A-DC3	A-DC4	A-DC5	A-DC6	A-DC7	A-DC8	A-DC9	A-DC10	A-DC11	A-DC12	A-DC13	A-DC14	A-DC15	A-DC16	A-Ph1	A-Ph2	A-Ph3	A-Ph4	A-Ph5	A-Ph6	A-Ph7	A-Ph8	A-Ph9	A-Ph10	A-Ph11	A-Ph12	A-Ph13	A-Ph14	A-Ph15	A-Ph16	

Term	0.00000e+00	0.00000e+00	0.00000e+00	0.00000e+00	0.00000e+00	0.00000e+00	0.00000e+00	0.00000e+00	0.00000e+00	0.00000e+00	0.00000e+00	0.00000e+00	0.00000e+00	0.00000e+00	0.00000e+00	0.00000e+00	0.00000e+00	0.00000e+00	0.00000e+00	0.00000e+00	0.00000e+00	0.00000e+00	0.00000e+00	0.00000e+00	0.00000e+00	0.00000e+00	0.00000e+00	0.00000e+00	0.00000e+00	0.00000e+00	0.00000e+00	0.00000e+00	0.00000e+00	0.00000e+00	0.00000e+00	0.00000e+00	0.00000e+00	0.00000e+00	0.00000e+00	0.00000e+00	0.00000e+00	0.00000e+00	0.00000e+00	0.00000e+00	0.00000e+00	0.00000e+00	0.00000e+00	0.00000e+00	
Factor	1.00000e+00	1.00000e+00	1.00000e+00	1.00000e+00	1.00000e+00	1.00000e+00	1.00000e+00	1.00000e+00	1.00000e+00	1.00000e+00	1.00000e+00	1.00000e+00	1.00000e+00	1.00000e+00	1.00000e+00	1.00000e+00	1.00000e+00	1.00000e+00	1.00000e+00	1.00000e+00	1.00000e+00	1.00000e+00	1.00000e+00	1.00000e+00	1.00000e+00	1.00000e+00	1.00000e+00	1.00000e+00	1.00000e+00	1.00000e+00	1.00000e+00	1.00000e+00	X	X	X	X	X	X	X	X	X	X	X	X	X	X	X	X	

B = Detector Channel
Val Type	B-AC1	B-AC2	B-AC3	B-AC4	B-AC5	B-AC6	B-AC7	B-AC8	B-AC9	B-AC10	B-AC11	B-AC12	B-AC13	B-AC14	B-AC15	B-AC16	B-DC1	B-DC2	B-DC3	B-DC4	B-DC5	B-DC6	B-DC7	B-DC8	B-DC9	B-DC10	B-DC11	B-DC12	B-DC13	B-DC14	B-DC15	B-DC16	B-Ph1	B-Ph2	B-Ph3	B-Ph4	B-Ph5	B-Ph6	B-Ph7	B-Ph8	B-Ph9	B-Ph10	B-Ph11	B-Ph12	B-Ph13	B-Ph14	B-Ph15	B-Ph16	

Term	0.00000e+00	0.00000e+00	0.00000e+00	0.00000e+00	0.00000e+00	0.00000e+00	0.00000e+00	0.00000e+00	0.00000e+00	0.00000e+00	0.00000e+00	0.00000e+00	0.00000e+00	0.00000e+00	0.00000e+00	0.00000e+00	0.00000e+00	0.00000e+00	0.00000e+00	0.00000e+00	0.00000e+00	0.00000e+00	0.00000e+00	0.00000e+00	0.00000e+00	0.00000e+00	0.00000e+00	0.00000e+00	0.00000e+00	0.00000e+00	0.00000e+00	0.00000e+00	2.75725e+01	-1.31108e+02	-1.23548e+02	-1.82912e+02	-5.41566e+01	-6.84967e+01	-1.56913e+02	-1.62015e+02	-1.69110e+01	-6.90769e+01	-1.71915e+02	-1.70337e+02	-1.80602e+02	-1.76910e+02	-5.41290e+01	-1.49881e+02	
Factor	3.81789e-05	1.74656e-04	4.40913e-05	1.54476e-01	2.40339e-06	1.68123e-06	1.67599e-01	4.70291e-02	2.64378e-06	1.71266e-06	1.45221e-01	2.55112e-02	2.28348e-02	7.80503e-03	2.52045e-06	1.14423e-02	1.64678e-05	3.34103e-05	9.38836e-06	7.76069e-02	3.14091e-07	3.81937e-07	7.88202e-02	2.36533e-02	3.02672e-07	3.77959e-07	7.06724e-02	1.24816e-02	1.15660e-02	3.96858e-03	3.32949e-07	5.62954e-03	X	X	X	X	X	X	X	X	X	X	X	X	X	X	X	X	



#DISTANCE SETTINGS
A = Detector Channel
A-1	A-2	A-3	A-4	A-5	A-6	A-7	A-8	A-9	A-10	A-11	A-12	A-13	A-14	A-15	A-16	

2.5000e+00	3.0000e+00	2.5000e+00	3.0000e+00	2.0000e+00	3.0000e+00	1.5000e+00	3.0000e+00	3.0000e+00	3.0000e+00	3.0000e+00	3.0000e+00	3.0000e+00	3.0000e+00	1.5000e+00	3.0000e+00	

B = Detector Channel
B-1	B-2	B-3	B-4	B-5	B-6	B-7	B-8	B-9	B-10	B-11	B-12	B-13	B-14	B-15	B-16	

1.0000e+01	1.0000e+01	1.0000e+01	1.4400e+00	1.0000e+01	1.0000e+01	1.5100e+00	1.9400e+00	1.0000e+01	1.0000e+01	1.9900e+00	2.4900e+00	2.4100e+00	2.9000e+00	1.0000e+01	2.9800e+00	




#DATA BEGINS
time	group	step	mark	flag	A-AC1	A-AC2	A-AC3	A-AC4	A-AC5	A-AC6	A-AC7	A-AC8	A-AC9	A-AC10	A-AC11	A-AC12	A-AC13	A-AC14	A-AC15	A-AC16	A-DC1	A-DC2	A-DC3	A-DC4	A-DC5	A-DC6	A-DC7	A-DC8	A-DC9	A-DC10	A-DC11	A-DC12	A-DC13	A-DC14	A-DC15	A-DC16	A-Ph1	A-Ph2	A-Ph3	A-Ph4	A-Ph5	A-Ph6	A-Ph7	A-Ph8	A-Ph9	A-Ph10	A-Ph11	A-Ph12	A-Ph13	A-Ph14	A-Ph15	A-Ph16	B-AC1	B-AC2	B-AC3	B-AC4	B-AC5	B-AC6	B-AC7	B-AC8	B-AC9	B-AC10	B-AC11	B-AC12	B-AC13	B-AC14	B-AC15	B-AC16	B-DC1	B-DC2	B-DC3	B-DC4	B-DC5	B-DC6	B-DC7	B-DC8	B-DC9	B-DC10	B-DC11	B-DC12	B-DC13	B-DC14	B-DC15	B-DC16	B-Ph1	B-Ph2	B-Ph3	B-Ph4	B-Ph5	B-Ph6	B-Ph7	B-Ph8	B-Ph9	B-Ph10	B-Ph11	B-Ph12	B-Ph13	B-Ph14	B-Ph15	B-Ph16	aux-1	digaux	

738.067	1	1	0	256	0.24374	0.15861	0.047395	0.063695	0.20594	0.14076	0.14964	0.10792	0.13065	0.3299	0.091112	0.12591	0.26595	0.18304	0.14062	0.18124	-3.0396	-3.2313	-3.2375	-3.5146	-3.2271	-3.4167	-3.5625	-3.3854	-3.4229	-3.2562	-3.3021	-3.5438	-3.3729	-3.2313	-3.4958	-3.2354	110.539	-43.598	-70.607	34.805	237.515	187.576	108.069	149.744	62.964	-58.837	141.129	277.996	261.257	232.478	1.840	3.865	0.00034708	0.00029404	7.6035e-05	570.66	3.9794e-06	4.6694e-06	832.46	182.14	3.8405e-06	3.6354e-06	353.75	115.58	53.736	17.482	3.8924e-06	47.303	0.00041554	0.00043259	0.00011514	544.06	3.8371e-06	4.2156e-06	796.33	173.97	3.6548e-06	3.9741e-06	340.26	111.37	51.707	16.937	3.8338e-06	45.624	-39.920	14.097	30.369	-62.287	90.381	97.026	-62.009	-56.948	146.121	71.680	-57.749	-52.606	-53.136	-47.513	84.391	-48.164	-8191	255	
738.163	1	1	0	0	0.1289	0.19474	0.18285	0.13041	0.25661	0.19257	0.039557	0.16422	0.25424	0.21217	0.13561	0.18611	0.092445	0.11262	0.069149	0.056782	-3.0771	-3.2896	-3.1854	-3.5062	-3.2583	-3.4479	-3.6813	-3.2167	-3.4813	-3.4875	-3.2313	-3.7313	-3.2792	-3.3229	-3.7104	-3.2854	105.803	-40.731	15.061	-71.846	139.439	152.119	184.770	256.912	171.943	-15.825	-54.586	-24.411	-72.838	42.235	135.083	209.762	0.00034598	0.00024118	9.6163e-05	569.48	4.1336e-06	2.9764e-06	833.52	181.36	2.9396e-06	2.8703e-06	352.5	115.5	53.09	17.378	6.4158e-06	46.382	0.000379	0.00034336	0.00010583	541.27	3.7913e-06	4.0987e-06	794.91	173.36	3.4751e-06	3.6646e-06	338.48	110.92	51.185	16.729	3.455e-06	44.907	-39.077	32.283	14.465	-61.872	116.308	76.906	-61.876	-57.178	120.892	83.724	-57.564	-53.053	-52.778	-47.385	82.586	-48.097	-8191	255	
738.259	1	1	0	0	0.045802	0.23794	0.1033	0.048585	0.042522	0.32055	0.14091	0.35428	0.2299	0.31633	0.24899	0.22949	0.13683	0.2685	0.11096	0.27458	-2.7833	-3.3479	-3.1208	-3.7167	-3.1125	-3.1479	-3.6458	-3.3917	-3.4771	-3.45	-3.2313	-3.6167	-3.1375	-3.1396	-3.4917	-3.1271	265.114	125.417	72.341	129.780	140.000	17.562	204.540	145.515	48.616	53.832	-24.047	229.165	221.410	266.817	191.165	257.328	0.00031805	0.00044347	9.2471e-05	555.62	6.1314e-06	4.4201e-06	822.12	178.75	3.4981e-06	4.6954e-06	354.61	115.21	53.35	17.234	2.7006e-06	46.662	0.00038061	0.00032178	8.5317e-05	530.03	3.3333e-06	3.6921e-06	784.75	171.07	3.4391e-06	3.5804e-06	339.48	110.94	51.142	16.685	3.1131e-06	45.2	-36.363	0.420	27.700	-62.079	88.666	78.805	-61.810	-56.846	138.017	87.458	-57.616	-52.789	-53.356	-47.469	58.689	-48.007	-8191	255	
738.380	1	1	0	0	0.097433	0.071473	0.14223	0.1726	0.079326	0.15827	0.094178	0.21657	0.15213	0.17906	0.16709	0.19165	0.064416	0.053393	0.11101	0.13861	-2.9792	-3.5333	-3.2	-3.3771	-3.1542	-3.4	-3.55	-3.3333	-3.3917	-3.5479	-3.3375	-3.6083	-3.4479	-3.1375	-3.4646	-3.275	28.172	249.236	1.813	-56.000	127.408	206.638	166.261	60.925	148.090	233.293	-41.355	-67.224	230.756	189.875	125.976	243.507	0.00033114	0.00035766	7.9665e-05	556.25	3.3651e-06	3.2482e-06	826.92	179.42	2.4524e-06	4.649e-06	357.17	116.68	53.622	17.548	5.1618e-06	47.673	0.00038703	0.00032213	8.4906e-05	527.01	3.0532e-06	3.5186e-06	785.76	171.43	3.3811e-06	3.6197e-06	340.79	112.54	51.687	16.993	3.0562e-06	45.964	-38.802	8.825	8.574	-61.649	93.231	71.697	-62.101	-56.593	104.658	62.051	-57.637	-52.921	-52.983	-47.621	86.981	-48.417	-8191	255	
738.474	1	1	0	0	0.1843	0.10243	0.22493	0.17811	0.1062	0.27255	0.13423	0.25111	0.063112	0.20435	0.11225	0.35557	0.16129	0.27879	0.152	0.29576	-3.0021	-3.6771	-3.1646	-3.4646	-3.2354	-3.1229	-3.6688	-3.2125	-3.3958	-3.6208	-3.1813	-3.5417	-3.3667	-3.0625	-3.5042	-3.375	-21.526	100.982	-46.570	173.510	168.034	118.309	181.190	229.507	-27.029	11.557	-0.367	277.994	-63.572	240.199	273.327	259.540	0.00034268	0.00049657	0.00011354	551.71	5.8061e-06	4.4369e-06	828.23	180.68	5.234e-06	3.7239e-06	359.58	119.21	54.678	18.149	4.1543e-06	48.452	0.00038747	0.00032394	8.8153e-05	527.36	3.4818e-06	3.5663e-06	790.79	173.12	3.6604e-06	3.4953e-06	345.02	114.68	52.827	17.447	3.5036e-06	46.911	-31.504	5.905	13.451	-61.929	68.490	82.992	-61.956	-56.919	136.937	57.591	-57.477	-52.692	-53.008	-47.488	112.618	-48.291	-8191	255	
738.570	1	1	0	0	0.16597	0.33301	0.14453	0.055454	0.32778	0.21943	0.038737	0.16396	0.14843	0.39368	0.090485	0.24537	0.072641	0.21877	0.2035	0.16863	-2.8667	-3.5229	-3.1688	-3.2583	-3.5938	-3.2313	-3.4	-3.475	-3.0208	-3.3354	-3.2958	-3.2479	-3.5083	-3.2229	-3.4104	-3.5208	-17.233	15.160	186.405	-33.342	-42.153	221.578	203.861	278.418	77.045	-3.053	-67.943	-65.234	42.869	40.108	12.899	229.475	0.00034965	0.00037483	9.3628e-05	555.36	3.8899e-06	1.9577e-06	832.06	181.2	3.0427e-06	4.2749e-06	359.23	118.68	54.653	17.915	5.8253e-06	47.851	0.00040103	0.00033167	9.2847e-05	529.94	3.5145e-06	3.5671e-06	791.84	173.91	3.6598e-06	3.4016e-06	344.36	114.33	52.573	17.34	3.4231e-06	46.378	-34.793	5.373	36.000	-62.206	89.438	90.415	-61.748	-56.682	128.718	82.365	-57.434	-52.825	-52.948	-47.653	87.106	-48.144	-8191	255	
738.666	1	1	0	0	0.11489	0.10581	0.21605	0.12657	0.092855	0.062441	0.069335	0.2164	0.2134	0.062043	0.21592	0.046037	0.056708	0.10847	0.18032	0.14594	-2.7062	-3.5354	-3.1417	-3.4313	-3.3833	-3.2229	-3.4729	-3.3812	-3.1813	-3.7104	-3.2083	-3.25	-3.4604	-3.2812	-3.4021	-3.4104	9.299	243.223	273.700	114.177	231.771	-19.750	188.522	-21.902	147.945	-30.052	62.162	63.035	194.904	230.387	173.425	-37.895	0.00034035	0.00041885	0.00010664	553.89	5.1143e-06	3.6247e-06	822.86	181.53	3.7769e-06	3.4213e-06	354.3	117.68	54.109	17.595	4.3274e-06	47.924	0.00038202	0.00031176	9.0304e-05	526.18	3.3274e-06	3.6841e-06	783.79	172.83	3.3622e-06	3.1441e-06	341.49	113.26	52.148	17.151	3.3163e-06	46.218	-38.127	5.512	7.663	-62.112	96.290	61.872	-61.938	-56.974	153.615	40.300	-57.527	-52.689	-53.358	-47.208	104.608	-48.520	-8191	255	
738.762	1	1	0	0	0.024969	0.063452	0.25129	0.12177	0.11224	0.17463	0.1329	0.20291	0.2075	0.048687	0.211	0.17373	0.36219	0.39273	0.14659	0.32167	-2.8083	-3.5583	-3.1667	-3.4583	-3.5771	-3.1917	-3.575	-3.4333	-2.9354	-3.5729	-3.2333	-3.3667	-3.6042	-3.35	-3.5375	-3.5438	0.542	138.106	223.376	176.340	196.117	238.375	226.369	200.221	159.601	-36.437	11.924	239.503	245.426	261.398	270.882	-10.396	0.00033016	0.00037048	0.00011197	550.64	4.6898e-06	3.8431e-06	820.15	180.52	5.105e-06	4.2775e-06	357.88	118.5	54.411	17.962	3.6776e-06	48.044	0.00037958	0.00031733	8.6353e-05	525.02	3.1985e-06	3.147e-06	784.06	172.92	3.3653e-06	3.1079e-06	342.86	113.94	52.546	17.385	3.5591e-06	46.627	-43.460	12.564	33.227	-62.328	98.657	60.913	-61.844	-56.820	132.652	78.343	-57.485	-52.763	-53.155	-47.406	87.159	-48.368	-8191	255	
738.859	1	1	0	0	0.10125	0.2073	0.167	0.042729	0.12898	0.13057	0.28053	0.27495	0.17487	0.09866	0.12002	0.22387	0.20358	0.18169	0.051118	0.10477	-2.6521	-3.5083	-3.4333	-3.2646	-3.4875	-3.2479	-3.4042	-3.625	-3.2062	-3.5167	-3.4896	-3.3875	-3.5896	-3.2542	-3.3521	-3.7125	-0.221	208.153	-43.302	65.610	-69.006	58.061	267.272	213.942	253.799	230.919	225.324	232.317	-5.551	171.321	36.401	10.629	0.00032837	0.00047285	8.83e-05	551.76	5.2668e-06	3.8243e-06	826.27	181.86	2.5001e-06	2.0642e-06	359.43	118.59	54.995	18.061	4.8045e-06	48.657	0.00038048	0.00035631	9.4275e-05	526.9	3.1481e-06	3.5799e-06	787.72	174.01	3.5286e-06	3.5504e-06	344.75	114.44	53.015	17.571	3.7068e-06	46.968	-41.773	7.606	29.392	-61.967	98.244	61.382	-62.171	-56.942	135.246	60.021	-57.500	-52.877	-52.716	-47.346	96.764	-48.400	-8191	255	
738.955	1	1	0	0	0.11855	0.023125	0.21254	0.10626	0.26854	0.15326	0.11488	0.29433	0.048499	0.064347	0.17353	0.13521	0.21578	0.084338	0.070027	0.1936	-2.825	-3.6417	-3.5708	-3.4813	-3.5896	-3.3229	-3.5104	-3.7042	-3.0563	-3.3958	-3.5	-3.2812	-3.5667	-3.3625	-3.3021	-3.8375	145.704	93.744	-30.182	-25.605	226.138	151.390	259.307	-59.610	72.372	-9.755	-40.393	223.736	207.968	-7.784	229.795	196.164	0.00034823	0.00036327	7.9899e-05	556.78	4.6819e-06	2.8058e-06	833.65	182.97	2.341e-06	3.0957e-06	360.99	118.62	55.366	18.214	4.7113e-06	48.432	0.00039152	0.00036034	9.6837e-05	530.99	3.2384e-06	3.6173e-06	792.25	175.08	3.5463e-06	3.8379e-06	345.33	114.42	53.317	17.605	3.6791e-06	46.813	-41.043	29.260	9.112	-62.088	84.800	64.812	-61.616	-56.784	84.438	84.551	-57.577	-52.767	-52.993	-47.624	86.497	-48.505	-8191	255	
739.051	1	1	0	0	0.14622	0.1771	0.17999	0.076802	0.20356	0.16191	0.36446	0.17847	0.0093285	0.060294	0.26989	0.02481	0.16283	0.024191	0.06154	0.43064	-3.0667	-3.3542	-3.5521	-3.3937	-3.4854	-3.3458	-3.3563	-3.625	-3.3229	-3.5021	-3.4292	-3.2667	-3.4125	-3.2938	-3.225	-3.5979	52.313	-14.023	62.875	-7.459	-12.026	100.958	248.586	249.693	29.837	225.839	-71.815	63.047	150.974	42.855	66.266	252.197	0.00032661	0.00036611	0.00012407	554.54	4.1975e-06	2.7066e-06	821.39	181.21	5.0583e-06	4.4453e-06	358.87	117.87	54.494	18.075	5.2056e-06	48.042	0.0003976	0.00035853	0.00010302	528.22	3.417e-06	4.0255e-06	786.1	173.59	3.3458e-06	3.9402e-06	343.72	113.84	52.617	17.44	3.5958e-06	46.523	-41.472	8.545	11.550	-62.015	112.059	57.462	-62.010	-57.021	127.106	64.612	-57.527	-52.824	-53.216	-47.543	90.052	-48.395	-8191	255	
739.172	1	1	0	0	0.10506	0.085554	0.060086	0.10773	0.073588	0.10057	0.098219	0.098768	0.29698	0.10007	0.16443	0.18056	0.27676	0.13106	0.068178	0.35125	-2.8292	-3.2521	-3.2917	-3.2708	-3.5354	-3.4146	-3.2562	-3.5396	-3.2833	-3.3271	-3.6208	-3.3292	-3.3438	-3.3625	-3.3396	-3.6917	141.850	281.199	118.375	195.910	-24.761	2.907	212.976	-14.567	42.976	221.544	260.552	207.490	278.291	-12.962	162.290	240.029	0.00037293	0.00062836	6.7276e-05	556.22	4.1889e-06	3.7981e-06	830.51	181.89	4.9816e-06	3.3173e-06	360.19	118.33	54.836	18.221	5.9858e-06	48.684	0.00038672	0.00036932	9.5996e-05	528.25	3.3752e-06	3.8926e-06	788.65	174.09	3.5911e-06	3.9363e-06	344.07	114.22	52.956	17.596	3.5168e-06	46.942	-33.981	-3.821	20.075	-61.985	117.519	74.805	-61.646	-56.666	127.013	61.781	-57.582	-52.877	-53.015	-47.576	94.175	-48.333	-8191	255	
739.268	1	1	0	0	0.18754	0.07597	0.17335	0.13602	0.27776	0.091236	0.060187	0.027477	0.30466	0.23883	0.14047	0.31064	0.15997	0.18635	0.15937	0.32646	-2.9042	-3.2292	-3.6396	-3.3229	-3.2667	-3.3917	-3.2146	-3.7	-3.3083	-3.35	-3.6375	-3.1542	-3.3979	-3.5187	-3.2271	-3.4896	175.999	127.605	132.591	183.520	7.520	216.587	156.380	-59.052	182.203	0.885	131.771	274.350	245.348	-50.975	248.561	-73.451	0.00033079	0.00046431	0.00010638	556.6	4.3336e-06	2.8577e-06	831.21	184.39	4.9117e-06	4.5343e-06	361.76	120.69	56.222	18.41	4.3416e-06	49.244	0.00040607	0.00035979	9.3453e-05	530.87	3.669e-06	3.9324e-06	793.15	176.21	3.6346e-06	3.9087e-06	348.52	116.22	54.06	17.935	3.6749e-06	47.855	-30.888	-2.168	19.464	-62.093	55.040	92.993	-62.145	-56.997	115.953	72.231	-57.309	-52.844	-53.269	-47.415	85.250	-48.506	-8191	255	
739.339	1	1	0	0	0.18769	0.028798	0.17008	0.27586	0.35111	0.17017	0.061016	0.15175	0.050494	0.1412	0.12896	0.25171	0.36394	0.17727	0.23713	0.13905	-3.0792	-3.2104	-3.4292	-3.2604	-3.4458	-3.4542	-3.425	-3.5958	-3.3354	-3.2396	-3.5333	-3.1063	-3.45	-3.5312	-3.2021	-3.5812	39.628	13.884	195.708	220.426	-17.068	50.288	208.067	183.341	169.537	232.020	22.214	-15.709	-32.788	251.697	41.860	240.215	0.00039904	0.00049146	0.00013062	565.08	5.8991e-06	3.9665e-06	839.16	187.07	2.6296e-06	5.4239e-06	369.41	122.05	56.549	18.79	4.8048e-06	49.756	0.00042062	0.00037935	9.7287e-05	537.02	3.8352e-06	3.7334e-06	801.03	179.05	3.9108e-06	4.0812e-06	353.61	117.58	54.599	18.203	3.582e-06	48.264	-33.289	14.672	24.174	-61.900	101.261	77.823	-61.655	-56.841	98.185	93.034	-57.786	-52.883	-53.346	-47.581	57.984	-48.427	-8191	255	
739.460	1	1	0	0	0.25999	0.10899	0.1832	0.07401	0.088252	0.13861	0.16883	0.044118	0.033236	0.066025	0.20394	0.30324	0.042992	0.10729	0.26217	0.28011	-2.9354	-3.2062	-3.6188	-3.3125	-3.1917	-3.4313	-3.1667	-3.6208	-3.4292	-3.2958	-3.6542	-3.3563	-3.2208	-3.6063	-3.2188	-3.525	130.851	197.791	-56.672	255.526	282.059	166.021	140.476	-43.655	269.035	56.841	240.334	225.835	242.175	231.120	-53.431	-46.339	0.00036054	0.00040304	0.00012801	560.63	5.5946e-06	5.0542e-06	835.51	184.83	2.2295e-06	3.8952e-06	367.57	120.26	55.727	18.498	2.2028e-06	48.956	0.00042096	0.00034141	9.3571e-05	533.08	3.7252e-06	3.7318e-06	795.84	177.52	3.5261e-06	3.641e-06	350.76	115.77	53.794	17.813	3.4696e-06	47.375	-31.968	12.587	13.734	-62.225	76.565	90.053	-61.865	-56.756	87.046	78.181	-57.737	-52.725	-53.275	-47.392	86.941	-48.574	-8191	255	
739.556	1	1	0	0	0.12797	0.23795	0.10347	0.24941	0.10779	0.050922	0.2206	0.28698	0.06383	0.21555	0.13147	0.17691	0.23942	0.20641	0.23249	0.087578	-2.8917	-3.1729	-3.5521	-3.3187	-3.1958	-3.425	-3.3646	-3.55	-3.4021	-3.0938	-3.5062	-3.3667	-3.2292	-3.3833	-3.3063	-3.4958	-36.989	96.668	126.772	-65.952	-43.942	229.675	127.253	258.931	243.823	45.792	-60.640	192.716	217.660	128.129	64.924	226.310	0.00030743	0.00035354	0.00010644	559.53	6.4738e-06	3.9474e-06	829.98	185.41	6.262e-06	3.327e-06	368.1	120.76	56.158	18.667	6.8472e-06	49.913	0.00040048	0.00031141	9.5664e-05	532.84	3.4877e-06	3.6769e-06	794.66	177.35	3.6415e-06	3.6323e-06	351.52	116.62	54.311	18.096	3.6513e-06	48.318	-34.298	34.386	9.440	-62.441	83.962	85.093	-61.847	-56.900	105.743	61.481	-57.722	-52.906	-53.006	-47.636	88.458	-48.300	-8191	255	
739.652	1	1	0	0	0.17443	0.17034	0.095723	0.11641	0.25349	0.17733	0.090556	0.24759	0.048992	0.12284	0.054132	0.18067	0.087403	0.17709	0.22616	0.16996	-2.8917	-3.1396	-3.4375	-3.3021	-3.2604	-3.5875	-3.3146	-3.3646	-3.4875	-3.3208	-3.5729	-3.4104	-3.15	-3.3854	-3.1104	-3.3958	48.432	-16.829	58.996	248.837	257.081	44.926	69.275	44.339	199.565	-3.161	21.679	256.146	22.753	202.368	-43.400	274.661	0.00031386	0.0004618	0.00010458	562.38	4.9944e-06	2.4263e-06	839.12	187.57	5.1743e-06	3.9666e-06	371.04	122.4	56.739	18.835	3.8576e-06	50.331	0.00039818	0.00035164	8.9385e-05	535.96	3.4033e-06	3.622e-06	799.75	179.35	3.4404e-06	3.6363e-06	355.17	117.81	54.919	18.312	3.8067e-06	48.736	-31.718	0.135	29.200	-62.006	90.978	68.369	-61.644	-56.940	147.029	74.068	-57.594	-52.940	-52.800	-47.536	90.044	-48.221	-8191	255	
739.771	1	1	0	0	0.07115	0.31662	0.043167	0.32324	0.15424	0.20841	0.20069	0.30433	0.17563	0.038046	0.29706	0.39028	0.07648	0.078571	0.032021	0.091934	-3.0687	-3.1583	-3.3042	-3.4396	-3.2083	-3.7708	-3.2354	-3.3021	-3.3979	-3.2021	-3.3667	-3.6188	-3.1792	-3.5062	-3.3104	-3.3958	-49.624	-66.722	122.092	206.496	16.935	81.344	238.190	216.616	151.850	246.970	230.173	272.949	-44.705	100.849	152.866	218.896	0.00037081	0.00031486	9.6594e-05	564.03	4.0558e-06	3.7656e-06	840.73	187.92	3.6633e-06	4.4372e-06	368.57	122.45	57.144	19.107	4.4832e-06	50.329	0.00040871	0.00036292	0.00010609	536.86	3.8777e-06	4.0819e-06	801.17	180.09	3.6163e-06	3.9749e-06	355.18	118.41	55.101	18.463	4.0613e-06	48.762	-34.538	28.236	16.341	-62.113	106.991	83.902	-61.859	-56.814	128.889	77.862	-58.282	-53.037	-52.781	-47.474	93.019	-48.276	-8191	255	
739.867	1	1	0	0	0.13257	0.10569	0.24937	0.22675	0.026634	0.25538	0.16186	0.14813	0.23047	0.11371	0.12564	0.16737	0.30976	0.158	0.29646	0.065682	-3.1688	-3.0854	-3.1521	-3.5542	-2.9979	-3.6021	-3.275	-3.2979	-3.4938	-3.1604	-3.5229	-3.4604	-3.2458	-3.65	-3.4833	-3.2938	-64.909	-20.920	82.230	144.324	137.388	-50.844	191.558	149.857	134.258	-49.966	23.055	224.400	205.539	-16.579	79.696	143.099	0.00038203	0.0004974	0.00013778	562.8	3.3023e-06	4.3965e-06	840.77	187.38	6.3632e-06	4.5307e-06	368.24	123.06	56.722	19.034	4.7695e-06	50.294	0.00041166	0.00037712	0.00011321	537.76	3.6055e-06	4.2403e-06	798.21	179.18	3.7355e-06	4.3418e-06	353.21	118.11	54.881	18.388	4.2555e-06	48.565	-36.490	12.634	10.792	-62.005	83.802	74.256	-61.972	-56.775	126.976	65.471	-57.293	-53.046	-53.573	-47.464	93.679	-48.401	-8191	255	
739.939	1	1	0	0	0.27186	0.015298	0.23982	0.25654	0.15526	0.21583	0.14783	0.17112	0.16545	0.10604	0.05487	0.20632	0.12318	0.22392	0.11275	0.018532	-3.0333	-3.1271	-3.3667	-3.4833	-3.1021	-3.3896	-3.3812	-3.1771	-3.4646	-3.4437	-3.375	-3.5667	-3.1271	-3.4979	-3.3229	-3.3333	-51.344	280.128	238.467	-27.593	-69.333	21.013	284.172	-58.632	197.941	80.760	258.703	-26.459	173.832	251.950	279.589	223.202	0.00037822	0.00047578	9.7943e-05	560.96	4.3747e-06	4.0048e-06	840.14	187.57	2.4208e-06	4.1863e-06	372.07	124.02	57.86	19.323	4.5992e-06	51.024	0.00044017	0.00041645	0.00011698	534.99	3.9962e-06	4.549e-06	799.25	179.93	4.0154e-06	4.6119e-06	357.34	119.24	55.757	18.749	4.0391e-06	49.398	-42.674	5.936	30.920	-62.050	73.960	79.921	-61.903	-56.623	123.307	72.796	-57.734	-52.778	-53.131	-47.665	104.195	-48.333	-8191	255	
740.035	1	1	0	0	0.15917	0.22823	0.087523	0.066571	0.27536	0.063916	0.16931	0.21802	0.0024945	0.060294	0.074357	0.15212	0.10844	0.20197	0.12589	0.051975	-3.2771	-3.25	-3.3646	-3.5229	-3.0479	-3.4958	-3.4417	-3.2083	-3.65	-3.3396	-3.1958	-3.4729	-3.2458	-3.425	-3.2938	-3.1167	64.451	-20.585	88.091	130.314	246.252	170.127	255.096	177.936	180.000	0.399	173.637	26.176	95.805	-44.772	51.787	184.510	0.00036306	0.00060726	8.6453e-05	569.95	5.3419e-06	4.691e-06	849.3	191.07	6.0407e-06	4.4136e-06	377.54	124.54	58.197	19.59	6.5965e-06	51.072	0.00043074	0.00038686	0.00011622	542.07	4.1473e-06	4.5928e-06	809.14	183.05	4.1201e-06	4.4056e-06	360.84	120.18	56.188	18.849	4.055e-06	49.477	-35.372	-9.856	15.923	-62.033	105.218	86.997	-61.925	-56.933	107.095	81.235	-57.721	-52.760	-52.880	-47.156	94.486	-48.358	-8191	255	
740.156	1	1	0	0	0.12988	0.12902	0.29645	0.40954	0.1289	0.064193	0.17219	0.24656	0.099126	0.12715	0.18965	0.19544	0.1641	0.14696	0.038959	0.031458	-3.1604	-3.3708	-3.2125	-3.65	-3.1604	-3.425	-3.6312	-3.3	-3.6	-3.2667	-3.3563	-3.6375	-3.3146	-3.3729	-3.5187	-3.1813	-7.025	85.568	277.825	252.233	69.842	115.036	-71.431	204.601	-74.119	220.440	82.498	220.968	-36.306	278.695	280.092	169.533	0.0003349	0.00052011	0.00010765	570.47	5.411e-06	3.8687e-06	849.81	191.35	3.402e-06	4.4484e-06	381.66	125.04	58.703	19.569	6.4606e-06	51.608	0.00041794	0.00041624	0.00010466	544.73	4.1473e-06	4.2705e-06	812.99	183.83	3.9436e-06	4.5135e-06	363.35	120.9	56.49	18.936	3.8039e-06	49.964	-34.739	7.289	27.687	-61.837	96.634	82.086	-61.873	-56.681	136.970	64.583	-57.327	-53.036	-53.223	-47.431	61.082	-48.314	-8191	255	
740.252	1	1	0	0	0.19092	0.055437	0.059351	0.19856	0.15386	0.10087	0.29209	0.28995	0.041626	0.070705	0.090298	0.20748	0.062149	0.11398	0.21246	0.073818	-2.9188	-3.2792	-3.2146	-3.6104	-3.25	-3.2938	-3.5542	-3.0583	-3.2104	-3.3875	-3.2521	-3.5646	-3.3	-3.1833	-3.3583	-3.2792	-37.223	-3.897	53.626	179.266	69.882	112.933	214.212	234.631	261.157	-66.146	-38.884	232.560	174.703	70.599	216.140	139.701	0.00033423	0.00031944	8.0404e-05	576.75	2.9611e-06	2.2017e-06	850.83	192.69	3.9909e-06	3.8586e-06	377.28	125.45	58.705	19.617	7.7803e-06	51.236	0.00044477	0.00039013	0.00010699	547.47	4.0596e-06	4.4559e-06	813.92	184.69	4.2689e-06	4.3993e-06	362.96	120.95	56.647	18.992	4.2104e-06	49.729	-32.052	14.849	25.114	-62.042	98.217	43.683	-61.924	-56.688	142.362	70.911	-57.327	-52.991	-52.966	-47.454	73.371	-48.408	-8191	255	
740.348	1	1	0	0	0.34049	0.10036	0.28991	0.078522	0.16973	0.26077	0.060508	0.080583	0.14005	0.10496	0.20988	0.034583	0.14114	0.15196	0.15489	0.057511	-2.9792	-3.3854	-3.0896	-3.5479	-3.2438	-3.2167	-3.7104	-3.275	-3.4271	-3.3833	-3.2271	-3.6562	-3.4	-3.0896	-3.55	-3.3104	221.538	12.684	156.982	277.538	150.352	-8.828	264.296	276.758	-63.055	256.896	242.509	138.665	203.929	224.561	-4.571	249.252	0.00034278	0.00057231	4.4693e-05	566.58	8.1699e-06	5.6211e-06	844.59	191.73	4.6474e-06	3.77e-06	374.74	124.38	58.057	19.401	4.3016e-06	50.925	0.00044209	0.00038714	0.00011198	540.49	4.3174e-06	4.5928e-06	804.9	182.89	4.3484e-06	4.1213e-06	359.15	119.57	55.964	18.709	3.8775e-06	49.248	-33.026	14.908	79.499	-61.797	80.538	86.972	-61.838	-56.913	93.200	97.837	-57.604	-53.080	-53.542	-47.898	91.986	-48.370	-8191	255	
740.469	1	1	0	0	0.30479	0.11842	0.16984	0.13789	0.049097	0.25874	0.21627	0.16391	0.1372	0.28001	0.069738	0.21829	0.18048	0.16597	0.14791	0.243	-2.8563	-3.3063	-3.3542	-3.6104	-3.2917	-3.3375	-3.6958	-3.3125	-3.4938	-3.5542	-3.2062	-3.4979	-3.3937	-3.2854	-3.4333	-3.3146	67.117	266.555	70.093	223.560	100.296	-65.816	147.656	31.462	172.899	218.807	261.022	197.216	275.412	198.929	170.070	234.837	0.00031943	0.00038798	9.9358e-05	568.59	6.6353e-06	3.7678e-06	846.87	190.83	7.0159e-06	5.5503e-06	376.87	124.08	58.303	19.338	5.4081e-06	51.084	0.00043657	0.00037942	0.00011051	541.16	4.0263e-06	4.2705e-06	806.34	182.12	4.2317e-06	4.1481e-06	360.43	119.78	55.983	18.744	4.2617e-06	49.441	-41.015	35.111	12.111	-62.025	92.173	84.464	-61.920	-56.800	124.008	91.522	-57.896	-53.313	-52.995	-47.592	94.708	-48.580	-8191	255	
740.563	1	1	0	0	0.15109	0.06308	0.22613	0.18993	0.086112	0.12854	0.09973	0.10711	0.15373	0.053452	0.13324	0.15075	0.055937	0.22372	0.07874	0.21213	-2.8708	-3.4875	-3.0417	-3.3292	-3.3333	-3.1958	-3.6854	-3.5333	-3.3833	-3.5646	-3.3292	-3.5229	-3.4625	-3.1375	-3.4104	-3.3458	-49.987	101.269	196.752	263.751	272.370	282.001	163.807	256.142	280.904	162.835	215.322	276.270	-65.542	210.788	237.458	37.391	0.00034979	0.00045555	6.1247e-05	570.23	4.8737e-06	3.8836e-06	845.43	189.89	4.5448e-06	4.8057e-06	374.72	123.31	57.772	18.978	4.9389e-06	50.37	0.00043132	0.00037176	0.00010396	542.72	3.6441e-06	3.9522e-06	808.37	181.89	3.8685e-06	3.7449e-06	357.97	118.78	55.403	18.436	3.9475e-06	48.793	-27.789	20.133	9.972	-61.880	94.910	60.252	-61.442	-57.029	114.658	60.638	-57.736	-53.163	-52.939	-47.217	80.422	-48.129	-8191	255	
740.637	1	1	0	0	0.080032	0.22893	0.16152	0.1625	0.33022	0.36427	0.11249	0.1337	0.096704	0.081439	0.065615	0.068502	0.1166	0.10917	0.021907	0.25517	-2.7042	-3.5771	-3.1667	-3.6688	-3.4437	-3.2125	-3.7125	-3.3583	-3.2021	-3.6	-3.3354	-3.4188	-3.5375	-3.0417	-3.475	-3.4354	260.210	210.905	245.934	140.731	35.524	-23.589	178.962	211.224	146.865	142.069	240.145	253.408	-31.132	143.626	209.319	257.098	0.00034963	0.00039446	0.00011889	571.54	6.1129e-06	4.5916e-06	847.84	189.43	4.28e-06	2.6384e-06	374.36	123.55	57.508	19.137	6.3872e-06	50.165	0.00040535	0.00034691	0.0001028	544.67	3.5257e-06	3.9268e-06	808.71	181.42	3.5911e-06	3.7552e-06	357.79	118.58	55.336	18.48	3.9475e-06	48.735	-38.122	16.679	11.809	-62.045	96.880	71.744	-61.809	-57.104	122.353	82.112	-57.710	-52.844	-53.265	-47.596	88.491	-48.399	-8191	255	
740.733	1	1	0	0	0.07234	0.17374	0.16981	0.30773	0.14622	0.27046	0.19104	0.17815	0.302	0.020178	0.27789	0.35268	0.14316	0.097506	0.13927	0.26767	-2.8521	-3.5083	-3.2333	-3.2583	-3.5563	-3.1292	-3.5167	-3.4062	-3.075	-3.4979	-3.2354	-3.3021	-3.6292	-3.1771	-3.5021	-3.6708	83.988	266.266	130.354	-13.210	256.969	49.357	200.290	243.922	105.803	204.533	-38.403	260.753	248.020	31.571	88.964	208.437	0.00034781	0.00060608	6.7763e-05	568.97	4.8906e-06	5.0592e-06	840.08	188.03	4.097e-06	3.8532e-06	371.58	122.7	57.486	19.238	5.5031e-06	50.674	0.00040569	0.00036863	0.000102	542.31	3.402e-06	4.179e-06	802.09	180.39	3.837e-06	3.841e-06	356.63	118.42	55.293	18.552	3.8143e-06	49.062	-32.670	10.209	7.659	-61.939	95.024	94.964	-61.797	-56.658	146.995	64.634	-57.385	-53.223	-53.095	-47.888	101.536	-48.315	-8191	255	
740.852	1	1	0	0	0.19583	0.17078	0.15284	0.11733	0.11619	0.047591	0.23038	0.15677	0.18073	0.10538	0.11039	0.2741	0.10285	0.26997	0.11735	0.09787	-2.8208	-3.4313	-3.1042	-3.3563	-3.4313	-3.3479	-3.4729	-3.3604	-3.0521	-3.5583	-3.3583	-3.2708	-3.5958	-3.4542	-3.5687	-3.5896	118.018	271.785	248.679	102.167	23.056	167.599	-23.452	189.997	231.541	69.074	109.836	188.296	12.814	155.432	126.831	144.028	0.00036413	0.00041297	8.1152e-05	567.61	4.1922e-06	4.226e-06	850.06	191.18	2.9109e-06	4.5734e-06	378.43	125.41	58.353	19.384	4.9606e-06	51.217	0.00041942	0.00037016	0.00010746	541.92	3.5584e-06	4.1488e-06	811.99	182.98	3.7815e-06	4.0835e-06	362.29	120.58	56.187	18.848	3.9017e-06	49.585	-41.718	22.783	11.671	-62.042	85.125	70.885	-62.029	-56.810	114.892	64.603	-57.939	-52.855	-52.770	-47.148	94.753	-48.464	-8191	255	
740.948	1	1	0	0	0.051997	0.1926	0.060111	0.40652	0.081563	0.094395	0.12584	0.038214	0.048453	0.15623	0.059758	0.1377	0.17986	0.17966	0.051719	0.068229	-2.725	-3.5479	-3.2438	-3.275	-3.4604	-3.2958	-3.5125	-3.575	-3.2104	-3.5083	-3.4062	-3.2458	-3.6	-3.2958	-3.3354	-3.6104	25.618	265.649	268.900	274.226	199.598	-72.907	186.858	245.428	-14.370	-63.791	-69.548	274.756	269.301	210.484	272.047	242.298	0.00036703	0.00040072	6.2751e-05	574.03	5.3118e-06	3.7647e-06	856.58	191.2	3.7797e-06	2.8734e-06	375.67	124.77	58.179	19.368	4.7783e-06	51.081	0.00040682	0.00036194	9.8343e-05	547.86	3.6421e-06	3.9228e-06	814.77	183.42	3.5223e-06	3.8804e-06	361.38	120.16	55.972	18.7	3.6187e-06	49.404	-36.944	35.128	14.143	-61.796	110.887	62.555	-61.677	-56.937	116.432	74.383	-57.690	-53.169	-52.884	-47.765	97.650	-48.652	-8191	255	
741.044	1	1	0	0	0.24163	0.28772	0.13629	0.16698	0.16356	0.21992	0.26178	0.10604	0.16842	0.19009	0.13628	0.28114	0.11754	0.23281	0.085708	0.23905	-2.7854	-3.4667	-3.1979	-3.1771	-3.5292	-3.1	-3.275	-3.5563	-2.9979	-3.3688	-3.4229	-3.1604	-3.5021	-3.5083	-3.2521	-3.6625	4.418	274.179	95.052	-70.864	-15.795	17.029	68.845	213.732	201.750	249.133	229.829	-54.462	111.906	273.772	110.644	157.151	0.00035309	0.00038661	0.00010774	575.91	6.1752e-06	3.4202e-06	850.77	190.92	4.3986e-06	4.6114e-06	375.52	123.97	58.198	19.215	3.9994e-06	50.897	0.00042964	0.00039647	0.0001029	547.51	3.6912e-06	4.0812e-06	812.97	182.77	3.9631e-06	4.2253e-06	359.63	119.89	55.863	18.735	3.9968e-06	49.289	-37.721	18.056	27.058	-61.543	72.185	68.298	-62.094	-57.009	116.652	82.255	-57.655	-52.622	-53.247	-47.563	122.434	-48.339	-8191	255	
741.140	1	1	0	0	0.083883	0.32068	0.02036	0.10326	0.052376	0.18118	0.31163	0.22732	0.16842	0.16928	0.34029	0.10067	0.06478	0.097861	0.37817	0.034525	-2.7583	-3.4083	-3.3146	-3.1875	-3.5542	-3.3083	-3.4167	-3.4854	-3.0896	-3.5312	-3.4104	-3.2646	-3.5062	-3.3354	-3.1979	-3.4667	242.152	184.247	-2.257	97.870	111.307	16.970	237.492	196.473	203.133	161.027	265.362	11.769	201.466	-22.683	44.987	139.326	0.00033325	0.00061075	0.0001068	570.23	6.6711e-06	4.7259e-06	849.71	189.2	1.9908e-06	2.8832e-06	372.2	123.11	57.245	19.074	4.6786e-06	50.612	0.00043887	0.0003831	0.00010104	543.5	3.9595e-06	4.0358e-06	807.14	181.53	3.8994e-06	4.0371e-06	356.78	118.58	55.261	18.457	3.8303e-06	48.767	-41.625	4.475	21.250	-62.077	87.492	82.436	-61.833	-56.982	127.190	87.443	-57.546	-52.934	-52.895	-47.695	95.879	-48.637	-8191	255	
741.236	1	1	0	0	0.046636	0.32479	0.14397	0.13684	0.205	0.26245	0.018762	0.20758	0.11933	0.043668	0.12779	0.25779	0.093598	0.22731	0.19276	0.075322	-2.8187	-3.3521	-3.2938	-3.0979	-3.3146	-3.3417	-3.2354	-3.3833	-3.2271	-3.3417	-3.4188	-3.2687	-3.4146	-3.3708	-3.1229	-3.5125	117.485	19.716	193.529	273.158	204.750	94.105	89.780	-44.769	92.284	1.294	73.504	243.446	119.275	245.513	-0.723	-56.481	0.00032786	0.00045457	0.00012493	566.84	4.2154e-06	3.0249e-06	842.14	189.65	5.6852e-06	2.5257e-06	372.31	123.18	57.524	19.222	5.2117e-06	50.652	0.00043194	0.00036313	9.537e-05	539.72	3.9098e-06	3.7215e-06	802.73	181.51	4.0558e-06	3.7095e-06	357.28	118.97	55.443	18.566	3.7859e-06	48.843	-34.404	11.781	14.147	-61.814	86.687	62.991	-61.961	-56.845	164.231	81.838	-57.500	-53.134	-53.174	-47.633	99.696	-48.399	-8191	255	
741.332	1	1	0	0	0.043241	0.086254	0.085052	0.2679	0.22879	0.19288	0.13775	0.052598	0.092008	0.11883	0.2	0.20067	0.099677	0.28052	0.088986	0.16216	-2.6312	-3.2604	-3.3063	-3.1979	-3.5146	-3.2125	-3.2625	-3.6479	-3.1104	-3.3	-3.4917	-3.1604	-3.2896	-3.3688	-3.0083	-3.5771	259.826	119.368	48.427	110.275	-40.867	269.384	173.095	-19.811	-65.393	183.188	248.371	64.045	160.371	185.424	55.202	136.248	0.00035044	0.00046381	8.9317e-05	569.92	3.7584e-06	3.7135e-06	842.03	189.71	4.7182e-06	2.7127e-06	374.42	122.91	57.391	19.1	6.7284e-06	49.59	0.00041423	0.00034935	0.00010321	542.88	4.0937e-06	3.9435e-06	804.32	181.83	3.8483e-06	4.1883e-06	357.15	118.64	55.316	18.383	3.9309e-06	48.216	-38.771	13.910	23.247	-61.922	92.013	118.824	-61.991	-56.565	133.716	81.262	-57.692	-52.906	-53.142	-47.434	76.504	-48.313	-8191	255	
741.453	1	1	0	0	0.15317	0.085306	0.081906	0.10148	0.081395	0.06166	0.20984	0.11853	0.0032054	0.126	0.24947	0.17335	0.1176	0.24182	0.01832	0.14881	-2.8708	-3.1854	-3.65	-3.3667	-3.2833	-3.2729	-3.3063	-3.6521	-3.3438	-3.2479	-3.3896	-3.1146	-3.3146	-3.55	-3.2083	-3.3812	270.065	22.430	265.683	259.088	114.875	232.388	203.379	-30.056	20.438	21.398	234.338	199.762	239.758	40.649	-16.380	284.108	0.00035411	0.00044852	9.6938e-05	565.45	6.298e-06	3.4952e-06	837.55	185.06	1.6019e-06	4.6998e-06	366.44	119.6	55.262	18.27	6.8895e-06	48.375	0.00040257	0.00035185	9.981e-05	539.26	3.5826e-06	3.5616e-06	799.18	177.41	3.3868e-06	3.5764e-06	349.16	115.01	53.367	17.691	3.6721e-06	46.991	-37.253	41.588	-6.076	-61.880	102.851	76.869	-61.924	-56.742	95.702	65.732	-57.617	-53.177	-53.069	-47.553	108.850	-48.034	-8191	255	
741.549	1	1	0	0	0.16589	0.031948	0.3091	0.091065	0.1521	0.23445	0.23108	0.23646	0.093001	0.2602	0.14293	0.093251	0.084637	0.31767	0.1846	0.10679	-2.9583	-3.0625	-3.6063	-3.3042	-3.3438	-3.5979	-3.1562	-3.4333	-3.325	-3.3	-3.3167	-3.4104	-3.325	-3.6542	-3.1271	-3.4021	-26.627	6.988	40.211	-67.723	175.959	228.469	139.732	246.135	-51.349	68.562	137.989	90.289	258.125	264.427	188.318	228.243	0.00036909	0.00030458	9.2203e-05	568.56	3.3749e-06	3.702e-06	835.99	184.66	4.4448e-06	2.7474e-06	361.77	118.19	55.182	18.045	3.4123e-06	47.726	0.00039993	0.00034266	9.8715e-05	541.35	3.4367e-06	3.6141e-06	798.37	176.98	3.33e-06	3.7568e-06	346.86	113.89	53.051	17.458	3.6527e-06	46.265	-39.624	-22.868	10.992	-62.069	87.146	51.370	-62.043	-57.051	122.239	67.486	-57.667	-52.857	-53.329	-47.462	75.342	-48.475	-8191	255	
741.643	1	1	0	0	0.19843	0.069929	0.050624	0.28785	0.088248	0.037575	0.17269	0.18871	0.24165	0.33421	0.092733	0.24779	0.053063	0.12898	0.16201	0.14723	-3.1312	-3.0958	-3.4104	-3.2625	-3.3667	-3.6312	-3.1521	-3.5229	-3.4813	-3.1167	-3.5312	-3.2958	-3.1333	-3.6833	-3.0563	-3.475	43.652	253.310	-12.572	284.724	246.692	8.547	13.329	230.209	82.541	41.243	260.419	201.475	123.632	282.218	28.741	169.625	0.00033636	0.00032516	6.9799e-05	560.67	4.001e-06	3.4918e-06	828.67	183.2	3.331e-06	2.5889e-06	356.95	117.11	54.43	18.067	4.9887e-06	47.506	0.00038065	0.00034176	9.6211e-05	535.61	3.4792e-06	3.6093e-06	788.42	175.28	3.2115e-06	3.767e-06	343.94	113.3	52.59	17.439	3.806e-06	46.19	-34.261	2.199	19.262	-62.642	101.939	79.564	-62.069	-56.864	88.385	69.287	-57.868	-52.910	-53.030	-47.110	98.986	-48.363	-8191	255	
741.740	1	1	0	0	0.089164	0.17015	0.12038	0.12385	0.12305	0.17204	0.16136	0.17079	0.095181	0.12793	0.2006	0.051729	0.11651	0.32362	0.21512	0.16583	-3.2271	-3.1479	-3.4354	-3.4917	-3.0208	-3.6688	-3.3167	-3.55	-3.6	-3.3542	-3.5354	-3.4229	-3.2458	-3.6417	-3.2542	-3.4688	-7.767	265.321	200.187	23.032	77.877	-37.236	-68.496	269.221	16.601	-60.090	-71.710	273.299	156.942	164.149	47.227	282.089	0.00031369	0.00050491	0.00011214	560.24	5.7327e-06	3.3602e-06	825.13	181.81	3.216e-06	3.8805e-06	359.21	117.5	54.641	17.878	5.4743e-06	47.604	0.00039265	0.00036765	0.00010419	534.68	3.5433e-06	4.1552e-06	788.54	174.43	3.5602e-06	3.8654e-06	343.53	113.22	52.648	17.362	3.8185e-06	46.124	-38.325	10.012	23.164	-62.073	85.484	86.280	-61.973	-57.102	141.948	61.047	-57.487	-52.936	-53.202	-46.988	74.332	-48.338	-8191	255	
741.860	1	1	0	0	0.053459	0.21894	0.12929	0.089709	0.10542	0.12644	0.33126	0.16222	0.12563	0.21635	0.061781	0.20077	0.27077	0.090085	0.13692	0.089791	-3.2062	-3.3146	-3.55	-3.4625	-3.0833	-3.5667	-3.3146	-3.4771	-3.6312	-3.1333	-3.5792	-3.4667	-3.025	-3.4958	-3.0938	-3.4021	74.975	260.507	75.856	-70.171	251.164	-39.453	276.909	258.407	39.438	88.062	44.397	135.316	66.848	150.854	157.430	157.743	0.00032155	0.00040681	0.00010913	564.13	5.4064e-06	5.04e-06	827.4	181.75	2.0705e-06	2.5273e-06	358.92	117.05	54.512	17.81	3.5661e-06	47.519	0.00038905	0.00035415	9.1986e-05	536.87	3.684e-06	3.7915e-06	789.47	174.18	3.4561e-06	3.9922e-06	342.9	112.9	52.481	17.305	3.5605e-06	45.98	-29.140	-6.360	14.975	-61.910	84.665	63.911	-61.706	-56.463	89.088	106.456	-57.325	-52.988	-52.910	-47.422	107.386	-47.917	-8191	255	
741.932	1	1	0	0	0.0651	0.25558	0.0046481	0.17014	0.17158	0.061461	0.26698	0.11022	0.29136	0.19119	0.19281	0.14223	0.15402	0.30496	0.072457	0.17765	-3.1104	-3.2562	-3.3271	-3.2146	-3.075	-3.4021	-3.4354	-3.1458	-3.3937	-3.3021	-3.45	-3.6521	-3.25	-3.4604	-3.3563	-3.2958	234.926	64.341	72.831	276.423	58.264	176.448	201.721	-22.334	53.308	-53.505	158.261	255.196	9.008	220.197	95.962	166.242	0.00034103	0.00047866	0.00013682	560.99	3.6528e-06	3.3464e-06	825.77	180.31	3.378e-06	3.5882e-06	354.35	115.75	53.675	17.477	4.1007e-06	46.476	0.00040778	0.0003671	0.00010288	534.66	3.8875e-06	4.0621e-06	788.76	172.76	3.7752e-06	4.0016e-06	338.44	111.4	51.589	16.944	3.4974e-06	45.001	-32.839	-5.090	23.349	-61.846	80.394	68.019	-61.856	-56.617	104.920	41.386	-57.766	-52.772	-52.877	-47.673	90.512	-48.088	-8191	255	
742.028	1	1	0	0	0.19396	0.13253	0.23812	0.15307	0.045569	0.26357	0.26269	0.15442	0.12063	0.12931	0.15582	0.27435	0.020398	0.11374	0.083595	0.15073	-3.1458	-3.1208	-3.3271	-3.3208	-3.1188	-3.4604	-3.3937	-3.2667	-3.4458	-3.2792	-3.2083	-3.4042	-2.9688	-3.2812	-3.2458	-3.1458	-10.824	-43.355	272.454	143.333	260.498	175.003	264.662	197.158	136.034	75.996	17.183	186.834	15.460	-72.146	61.085	164.209	0.00030199	0.00042957	9.3219e-05	558.5	4.8892e-06	3.0965e-06	810.93	177.6	4.768e-06	5.124e-06	347.83	112.85	52.818	17.288	1.953e-06	45.853	0.00039235	0.00036459	9.6641e-05	531.81	3.6363e-06	3.9371e-06	777.43	170.22	3.6705e-06	3.9678e-06	332.97	109.21	50.886	16.705	3.3246e-06	44.318	-32.595	10.599	43.127	-62.058	77.126	83.088	-61.758	-56.842	114.488	88.176	-57.085	-52.660	-53.047	-47.185	59.103	-47.818	-8191	255	
742.124	1	1	0	0	0.027661	0.24517	0.057	0.027129	0.13615	0.040499	0.15837	0.29098	0.19751	0.20772	0.070611	0.15481	0.2662	0.0267	0.13965	0.2314	-3.1583	-3.2229	-3.2646	-3.5687	-3.1917	-3.3688	-3.5312	-3.3438	-3.3104	-3.0938	-3.3646	-3.5687	-3.1104	-3.2667	-3.2375	-3.2313	240.079	184.639	149.745	211.383	-45.646	146.303	117.919	212.143	228.589	8.735	-14.741	232.167	229.310	87.707	183.900	241.033	0.00027713	0.00041573	0.00010276	556.44	3.4021e-06	3.1469e-06	811.92	177.19	4.0656e-06	3.9286e-06	348.22	112.63	52.503	17.2	4.5299e-06	45.601	0.00038157	0.0003396	9.3981e-05	529.94	3.3843e-06	3.7597e-06	775.84	169.49	3.581e-06	3.3977e-06	332.23	108.88	50.643	16.566	3.3843e-06	44.078	-33.019	5.972	17.299	-61.781	102.050	60.950	-61.864	-56.844	116.760	75.668	-57.654	-52.627	-52.661	-47.203	96.785	-48.384	-8191	255	
742.245	1	1	0	0	0.10175	0.26199	0.081742	0.28822	0.15646	0.13944	0.15466	0.19489	0.35588	0.2229	0.12478	0.26629	0.11409	0.38868	0.10976	0.15474	-3.1	-3.3438	-3.3833	-3.4604	-2.9917	-3.3854	-3.4271	-3.2021	-3.5	-3.3	-3.2021	-3.4271	-3.2062	-3.4229	-3.5375	-3.1021	176.163	7.895	48.892	-41.414	-62.975	272.742	186.440	-46.760	249.533	155.704	-41.753	225.716	93.575	-61.869	20.271	1.044	0.00034707	0.00036061	8.7713e-05	558.46	5.3746e-06	4.2822e-06	815.11	176.73	2.3994e-06	4.2841e-06	344.93	112.82	52.514	17.111	4.8922e-06	45.531	0.00039962	0.00032401	9.4333e-05	531.57	3.5126e-06	3.4502e-06	777.45	168.88	3.5003e-06	3.541e-06	330.57	108.77	50.564	16.528	3.3829e-06	44.133	-36.666	-6.011	17.209	-62.074	79.640	60.564	-62.175	-56.789	117.888	68.677	-57.324	-52.612	-52.885	-47.562	90.834	-48.212	-8191	255	
742.341	1	1	0	0	0.17539	0.087563	0.17643	0.11508	0.12267	0.24751	0.11207	0.12986	0.084908	0.091188	0.084121	0.20482	0.28369	0.13255	0.073872	0.37055	-2.9604	-3.2479	-3.0938	-3.5792	-3.1208	-3.1854	-3.4062	-3.2771	-3.4208	-3.3917	-3.2562	-3.5354	-3.2333	-3.2896	-3.6063	-3.0833	269.311	121.355	75.533	85.982	-74.210	33.940	173.361	271.956	-64.590	122.932	61.881	-1.553	106.385	232.376	175.591	279.638	0.0003534	0.00049037	0.00012733	555.38	3.217e-06	2.78e-06	813.17	177.61	3.6206e-06	2.1348e-06	347.56	113.58	52.934	17.303	3.6022e-06	45.906	0.00038579	0.00033369	9.7424e-05	530.2	3.3379e-06	3.4557e-06	776.99	169.29	3.5129e-06	3.4481e-06	333.27	109.77	51.012	16.747	3.5841e-06	44.52	-36.613	0.312	29.119	-62.069	112.372	95.791	-62.206	-56.758	134.464	83.856	-57.224	-52.933	-53.263	-47.530	70.771	-48.006	-8191	255	
742.437	1	1	0	0	0.29444	0.25106	0.049599	0.18293	0.18872	0.016053	0.16965	0.19356	0.16534	0.28132	0.02261	0.2031	0.08212	0.066195	0.3892	0.12439	-3.0875	-3.2979	-3.125	-3.5312	-3.4104	-3.3042	-3.6312	-3.1312	-3.625	-3.3812	-3.1646	-3.7458	-3.3104	-3.3875	-3.4417	-3.2875	263.708	86.266	-74.295	-12.526	94.363	190.097	240.105	216.665	-54.975	-7.920	217.278	-59.030	142.734	37.416	195.430	36.070	0.00029322	0.00038563	8.668e-05	556.91	5.9311e-06	2.5697e-06	814.18	176.56	4.7885e-06	2.6357e-06	346.42	113.03	52.645	17.051	5.3924e-06	45.288	0.00037873	0.000327	9.9712e-05	532.45	3.2705e-06	3.7072e-06	777.44	169.77	3.2638e-06	3.893e-06	331.87	108.97	50.683	16.488	3.7776e-06	43.85	-35.328	4.275	16.498	-62.014	101.935	81.142	-62.083	-56.578	123.961	87.189	-57.727	-52.715	-52.897	-47.060	90.574	-48.364	-8191	255	
742.533	1	1	0	0	0.073094	0.1969	0.066453	0.1298	0.14422	0.063319	0.26548	0.21874	0.20924	0.21879	0.071919	0.093099	0.16797	0.14548	0.058532	0.13864	-2.9562	-3.2104	-3.1125	-3.3396	-3.3417	-3.2271	-3.65	-3.2646	-3.2896	-3.2854	-3.2104	-3.5	-3.3021	-3.325	-3.4833	-3.3312	124.949	-8.403	97.136	278.558	116.350	225.066	8.667	244.865	222.612	27.852	25.618	159.198	216.070	-40.190	268.875	-0.565	0.00038654	0.00022749	9.8907e-05	556.32	3.7186e-06	3.0118e-06	807.59	177.36	3.9389e-06	2.1426e-06	345.72	112.82	52.203	17.111	4.869e-06	45.904	0.00037423	0.0003284	9.7639e-05	528.81	3.1475e-06	3.6061e-06	771.97	168.69	3.2348e-06	3.5591e-06	330.19	108.71	50.4	16.521	3.6853e-06	44.208	-37.748	-46.121	32.669	-61.851	86.076	52.579	-61.807	-56.576	146.476	83.390	-57.843	-52.767	-53.008	-47.547	100.297	-48.121	-8191	255	
742.629	1	1	0	0	0.31017	0.12514	0.14298	0.14678	0.19593	0.20527	0.22488	0.15729	0.14218	0.058512	0.16001	0.39013	0.097891	0.23468	0.14685	0.12838	-2.9958	-3.2313	-3.1083	-3.4833	-3.4	-3.1542	-3.5458	-3.3354	-3.2729	-3.575	-3.2979	-3.5687	-3.3917	-3.3292	-3.6271	-3.2708	23.450	40.369	19.082	165.739	95.735	38.187	248.499	-0.206	112.124	206.988	175.196	-55.505	14.573	217.773	-66.361	31.294	0.00028563	0.00045538	9.524e-05	558.17	6.128e-06	3.4428e-06	819.09	177.4	3.9358e-06	3.5706e-06	349.64	114.67	53.254	17.457	5.5794e-06	45.997	0.0003744	0.00036793	0.00010063	531.98	3.5289e-06	3.9475e-06	780.5	170.45	3.6642e-06	4.0977e-06	334.57	110.12	51.197	16.851	3.9253e-06	44.572	-30.523	6.736	30.062	-61.854	88.970	99.117	-61.811	-56.550	111.496	65.525	-57.600	-53.004	-52.943	-47.639	95.138	-47.951	-8191	255	
742.724	1	1	0	0	0.16637	0.10266	0.11875	0.22769	0.15195	0.25891	0.26571	0.070636	0.099292	0.041802	0.18699	0.22158	0.13315	0.077815	0.13335	0.08487	-2.8375	-3.5917	-3.2979	-3.3792	-3.4188	-3.0271	-3.6625	-3.3625	-3.225	-3.4542	-3.3792	-3.45	-3.4792	-3.2	-3.5125	-3.4625	271.222	173.766	103.304	249.770	224.152	-47.813	91.553	235.799	-67.761	216.149	122.022	217.414	133.980	-63.222	210.517	107.497	0.00037353	0.00033386	0.00011692	558.62	3.1628e-06	5.8878e-06	818.47	178.08	3.0722e-06	3.6403e-06	346.91	113.98	52.891	17.358	5.2551e-06	46.207	0.00040411	0.00036215	0.00010447	532.71	3.4936e-06	3.9889e-06	779.52	170.43	3.5318e-06	4.0316e-06	334.07	109.87	51.167	16.771	3.6694e-06	44.727	-36.117	17.924	33.640	-61.927	102.793	91.095	-61.771	-56.584	113.385	75.961	-57.742	-53.011	-52.855	-47.594	83.289	-48.235	-8191	255	
742.822	1	1	0	0	0.089437	0.17277	0.070558	0.1324	0.18667	0.28198	0.12687	0.18915	0.098679	0.23534	0.3543	0.1287	0.12491	0.31064	0.26963	0.29982	-2.775	-3.4042	-3.1562	-3.3104	-3.35	-3.2188	-3.4771	-3.3917	-3.2083	-3.4604	-3.275	-3.2958	-3.5667	-3.0917	-3.3688	-3.6042	184.729	22.918	12.963	216.162	226.301	273.894	175.316	252.559	18.183	-19.369	255.175	160.574	-45.833	284.868	-60.438	-40.888	0.00033074	0.00040565	0.0001229	559.62	4.4958e-06	2.8598e-06	811.15	178.29	2.1607e-06	4.1319e-06	350.52	115.27	53.08	17.362	4.554e-06	46.123	0.00040477	0.00035178	0.0001036	530.7	3.9621e-06	4.0764e-06	775.52	170.07	3.7153e-06	3.8851e-06	334.19	110.37	51.229	16.843	3.736e-06	44.79	-37.619	-2.488	18.561	-61.891	109.559	72.939	-62.089	-56.611	63.331	93.434	-57.588	-52.777	-53.164	-46.975	95.498	-48.384	-8191	255	
742.941	1	1	0	0	0.079525	0.12935	0.23184	0.069342	0.16852	0.082227	0.1003	0.080531	0.30974	0.17994	0.19113	0.18544	0.28183	0.47732	0.16725	0.088272	-2.8479	-3.6104	-3.0792	-3.3937	-3.5187	-3.1042	-3.3	-3.4917	-3.1625	-3.4208	-3.3125	-3.2667	-3.5271	-3.0354	-3.3729	-3.2833	56.160	70.799	-42.996	182.276	215.848	36.317	25.009	134.157	108.333	-37.921	55.692	138.495	246.471	-45.164	198.700	-67.368	0.00034552	0.00039523	9.9029e-05	555.2	5.5872e-06	3.5313e-06	810.77	179.01	4.4263e-06	2.7015e-06	351.07	115.59	53.783	17.56	5.2e-06	46.637	0.00039272	0.00036758	9.3121e-05	527.78	3.9445e-06	4.3517e-06	774.28	170.85	3.7506e-06	3.9323e-06	334.85	110.99	51.613	17.047	3.7013e-06	45.141	-36.435	15.404	18.686	-61.896	85.189	65.227	-61.705	-56.834	82.396	73.247	-57.708	-52.765	-53.375	-47.639	71.106	-48.198	-8191	255	
743.037	1	1	0	0	0.23646	0.25927	0.19777	0.16793	0.16887	0.10008	0.28841	0.40779	0.08372	0.18579	0.22259	0.10341	0.11173	0.33624	0.18745	0.088584	-2.5229	-3.3896	-3.1583	-3.2583	-3.4375	-3.2375	-3.2271	-3.5083	-3.0271	-3.475	-3.1896	-3.3146	-3.4771	-3.125	-3.225	-3.3979	-42.620	185.368	27.865	248.584	182.319	100.679	278.490	284.170	-26.921	240.370	34.837	222.484	169.105	214.619	123.972	-62.948	0.00034296	0.00050031	0.00010635	553.85	3.5185e-06	3.8091e-06	809.6	177.3	5.1361e-06	4.0977e-06	348.72	115.18	53.417	17.438	5.028e-06	46.608	0.00040796	0.0003357	9.8011e-05	527.88	3.7148e-06	3.6435e-06	775.22	170.27	3.8509e-06	3.5772e-06	334.49	110.89	51.497	16.929	3.5903e-06	45.18	-37.904	1.132	51.456	-62.070	82.720	78.871	-61.941	-56.849	114.020	88.977	-57.468	-53.057	-52.722	-47.477	92.022	-48.380	-8191	255	
743.133	1	1	0	0	0.19912	0.16684	0.19542	0.060791	0.095472	0.30985	0.13115	0.28288	0.16571	0.089097	0.1244	0.20825	0.18975	0.054878	0.13982	0.10375	-3.0292	-3.5312	-3.1979	-3.1021	-3.4604	-3.1146	-3.45	-3.5167	-3.1417	-3.475	-3.4167	-3.2396	-3.5208	-3.3729	-3.425	-3.5375	27.216	-40.839	-24.009	-15.880	124.774	185.394	238.367	-68.776	210.480	67.779	15.447	6.657	143.825	206.761	222.200	-69.434	0.00034467	0.00031732	9.7993e-05	553.63	6.364e-06	3.0274e-06	818.93	179.45	5.6149e-06	2.8592e-06	351.2	116.66	54.543	18.126	5.534e-06	47.6	0.0003919	0.00031475	9.0598e-05	528.56	3.8731e-06	3.8162e-06	778.87	171.83	3.8811e-06	3.7292e-06	337.61	112.4	52.493	17.443	3.969e-06	46.296	-37.979	37.213	37.581	-61.844	103.859	83.392	-61.680	-56.697	135.827	78.047	-57.374	-52.819	-52.936	-47.615	103.644	-48.249	-8191	255	
743.229	1	1	0	0	0.0025532	0.09304	0.29489	0.067368	0.039184	0.19018	0.023668	0.15835	0.1347	0.24225	0.10158	0.061818	0.21272	0.13342	0.26916	0.087255	-2.6312	-3.2875	-3.3854	-3.0625	-3.4375	-3.2562	-3.3333	-3.425	-3.0854	-3.5167	-3.4917	-3.2625	-3.3396	-3.3583	-3.1917	-3.6271	73.982	-8.158	-38.322	172.926	-22.138	-66.613	270.917	-65.942	167.270	172.285	64.259	-20.765	264.483	166.256	114.626	127.173	0.00034698	0.0004874	9.4811e-05	557.06	4.3404e-06	3.2537e-06	823.99	183.78	2.4487e-06	2.7628e-06	361.3	119.98	55.7	18.628	7.477e-06	48.96	0.0004072	0.00035178	9.8089e-05	533.11	3.7082e-06	3.8066e-06	786.88	175.97	3.8774e-06	3.8733e-06	345.74	115.59	53.9	18.045	4.2611e-06	47.514	-35.017	-6.597	27.385	-62.022	84.726	61.014	-61.708	-56.639	139.518	39.062	-57.741	-52.981	-52.770	-47.249	85.182	-48.470	-8191	255	
743.325	1	1	0	0	0.21141	0.043306	0.16544	0.19295	0.18051	0.15189	0.31961	0.097512	0.24319	0.19959	0.16011	0.14109	0.14731	0.035304	0.11543	0.39303	-2.75	-3.2521	-3.3917	-3.2208	-3.4417	-3.3833	-3.3417	-3.5792	-3.0812	-3.2542	-3.4458	-3.3021	-3.5208	-3.2625	-3.0604	-3.4854	65.137	-33.182	142.965	250.811	283.725	-40.236	228.502	242.019	-15.376	208.521	-43.219	163.173	284.473	14.929	132.272	186.910	0.00035438	0.00051309	7.0974e-05	559.97	4.8812e-06	3.835e-06	822.79	183.69	3.4002e-06	4.1039e-06	358.82	120.17	55.977	18.524	3.4918e-06	48.988	0.00041948	0.00036904	0.00011246	531.82	3.7704e-06	3.9769e-06	785.72	175.56	3.7702e-06	4.1016e-06	344.88	115.54	53.977	18.016	4.1952e-06	47.377	-32.675	11.173	17.369	-62.144	101.273	90.899	-62.021	-56.680	115.969	100.621	-57.611	-53.225	-52.742	-47.350	72.975	-48.405	-8191	255	
743.421	1	1	0	0	0.15407	0.0087177	0.21648	0.03554	0.1721	0.24492	0.20011	0.11498	0.19033	0.016994	0.073743	0.19717	0.38475	0.17431	0.038031	0.17765	-2.7583	-3.2458	-3.5062	-3.1167	-3.5	-3.2042	-3.3042	-3.7875	-3.0563	-3.25	-3.45	-3.2313	-3.5625	-3.5646	-3.0771	-3.7104	-17.502	243.469	22.900	69.403	118.017	280.335	254.860	188.242	85.115	100.501	225.978	198.030	-50.564	-65.285	-14.258	154.977	0.00034999	0.00026672	7.7331e-05	561.51	5.2121e-06	3.3966e-06	825.77	185.21	2.7204e-06	3.5635e-06	364.66	121.54	56.861	19.038	6.3252e-06	49.945	0.0004072	0.00035137	0.00010378	533.89	3.7436e-06	4.1416e-06	789.24	177.12	3.5873e-06	4.2583e-06	349.72	116.98	54.832	18.36	4.1355e-06	48.32	-35.440	8.229	25.424	-62.038	94.657	79.805	-62.097	-56.703	92.288	76.273	-57.800	-52.828	-53.058	-47.600	88.662	-48.318	-8191	255	
743.542	1	1	0	0	0.1601	0.059859	0.17974	0.11679	0.057625	0.21361	0.15479	0.15918	0.37723	0.070694	0.17324	0.14168	0.1437	0.050667	0.21139	0.076619	-2.8958	-3.1417	-3.5167	-3.3708	-3.4417	-3.3896	-3.3167	-3.7125	-3.4354	-3.3354	-3.6063	-3.2479	-3.575	-3.5312	-3.3229	-3.5875	80.849	255.693	197.113	155.307	5.868	195.210	-13.699	241.341	95.253	163.036	190.188	236.473	254.924	194.701	206.513	53.152	0.00032069	0.00022325	0.00012626	567.03	3.4028e-06	4.1307e-06	835.81	188.17	1.0709e-06	4.2014e-06	366.51	122.49	57.369	19.145	5.3477e-06	50.094	0.00040689	0.0003664	0.00011104	539.76	3.6232e-06	4.3453e-06	797.75	179.6	3.9562e-06	4.219e-06	352.65	117.97	55.452	18.507	4.25e-06	48.591	-35.884	4.776	14.176	-62.003	72.185	68.568	-61.734	-56.840	160.166	59.549	-57.506	-52.914	-53.011	-47.175	61.982	-48.379	-8191	255	
743.636	1	1	0	0	0.16034	0.16696	0.38567	0.30426	0.13692	0.086513	0.13227	0.13842	0.25228	0.26477	0.23122	0.063005	0.050275	0.21135	0.15143	0.071809	-2.9708	-3.1646	-3.3812	-3.4083	-3.4813	-3.3937	-3.3271	-3.5583	-3.2188	-3.1625	-3.3958	-3.5312	-3.35	-3.4667	-3.1188	-3.6021	269.811	40.363	101.790	180.152	83.645	-69.966	282.330	-27.158	-60.010	229.525	181.944	107.152	45.459	243.635	227.968	232.764	0.0003388	0.00041277	0.00012897	567.86	4.0801e-06	2.7702e-06	833.55	187.65	1.315e-06	3.4459e-06	365.68	121.98	57.245	19.1	5.7972e-06	50.051	0.00042665	0.00041241	0.00011065	540.76	4.1362e-06	4.5124e-06	798.45	179.77	4.0615e-06	4.4339e-06	352.15	117.98	55.308	18.48	4.4248e-06	48.33	-36.786	22.547	22.972	-61.943	142.737	102.090	-61.627	-56.750	132.687	76.756	-57.401	-53.062	-53.014	-47.466	102.759	-48.264	-8191	255	
743.733	1	1	0	0	0.11083	0.19087	0.091108	0.27758	0.10096	0.17799	0.14515	0.22622	0.44204	0.10058	0.031649	0.15689	0.12112	0.22059	0.20259	0.062211	-3.025	-3.3167	-3.4313	-3.2167	-3.3229	-3.6042	-3.3667	-3.4375	-3.2958	-3.2146	-3.7375	-3.3979	-3.4437	-3.5042	-3.1292	-3.4667	2.706	90.191	210.443	249.486	38.327	35.268	175.548	274.084	279.920	253.134	29.911	96.938	252.196	-62.591	16.111	237.719	0.00035829	0.00039561	6.9956e-05	564.47	3.7697e-06	2.6694e-06	833.02	185.75	4.0918e-06	3.7118e-06	363.98	121.47	56.952	18.941	4.0234e-06	49.549	0.00043794	0.00041067	0.00011859	536.65	4.2095e-06	4.3167e-06	794.68	178.56	4.2658e-06	4.6639e-06	350.2	117.27	55.029	18.383	4.0453e-06	48.05	-36.922	11.443	56.633	-61.827	84.860	76.947	-61.601	-56.980	109.813	70.182	-57.911	-52.831	-53.273	-47.319	83.619	-48.373	-8191	255	
743.804	1	1	0	0	0.081609	0.26732	0.036417	0.2548	0.14786	0.099356	0.20114	0.48427	0.098256	0.20848	0.32703	0.38815	0.30511	0.13345	0.13701	0.16674	-2.9313	-3.1292	-3.4229	-3.3521	-3.3208	-3.4896	-3.4562	-3.3563	-3.3563	-3.1958	-3.6167	-3.3979	-3.1792	-3.4437	-2.9583	-3.2854	13.037	-26.650	50.345	93.927	61.016	150.098	269.362	262.297	102.113	73.925	218.312	208.360	236.714	35.352	166.768	180.009	0.0003434	0.00053289	0.00010219	567.98	6.2464e-06	1.9226e-06	834.19	189.15	6.4002e-06	4.4092e-06	368.33	122.32	57.5	19.245	5.0968e-06	50.574	0.0004378	0.00041798	0.00010302	539.29	4.5366e-06	4.6429e-06	797.32	180.33	4.3635e-06	4.7418e-06	353.6	118.21	55.583	18.652	4.2798e-06	48.857	-46.249	6.507	54.706	-62.030	104.084	82.791	-61.916	-56.492	109.574	65.238	-57.621	-52.798	-52.806	-47.619	83.524	-48.269	-8191	255	
743.925	1	1	0	0	0.11541	0.10278	0.055411	0.1335	0.16085	0.18954	0.11533	0.20978	0.1622	0.19212	0.12547	0.18168	0.17448	0.04278	0.028156	0.15476	-3.05	-3.0833	-3.3521	-3.3125	-3.1083	-3.5	-3.4813	-3.3646	-3.4042	-3.2708	-3.6063	-3.4208	-2.9958	-3.5438	-3.1562	-3.3833	88.886	-10.457	64.373	-55.468	66.529	137.124	241.814	-17.881	121.303	-67.370	28.211	257.816	-19.091	49.628	49.167	189.865	0.00037376	0.00052141	0.0001101	569.12	5.8203e-06	5.6757e-06	837.28	187.41	3.4992e-06	4.9217e-06	373.32	123.98	57.997	19.369	6.1276e-06	50.802	0.00045499	0.0004351	0.0001101	541.47	4.6341e-06	4.806e-06	800.91	180.87	4.6233e-06	4.7631e-06	356.04	119.17	55.89	18.744	4.4039e-06	49.199	-30.413	-13.761	10.323	-62.031	77.923	60.889	-62.009	-56.653	158.034	90.339	-57.487	-52.795	-53.142	-47.550	88.414	-48.044	-8191	255	
744.021	1	1	0	0	0.053827	0.16759	0.22509	0.11578	0.20235	0.085948	0.12969	0.21186	0.076526	0.20322	0.20081	0.041715	0.26262	0.21653	0.2348	0.20947	-3.1667	-3.2062	-3.4146	-3.3604	-3.1396	-3.5521	-3.3688	-3.3646	-3.5042	-3.0333	-3.4146	-3.4083	-3.2646	-3.6	-3.3438	-3.3625	-46.774	58.122	34.358	20.967	267.656	86.209	177.639	-44.592	275.907	50.363	-49.003	22.909	-19.292	226.972	87.956	219.785	0.00033601	0.00057145	8.5954e-05	569.38	4.0842e-06	4.9061e-06	843.89	189.68	5.0696e-06	5.2084e-06	373.36	124.02	58.19	19.402	5.8202e-06	50.505	0.00045712	0.00041728	0.00011644	544.57	4.8056e-06	4.6485e-06	805.66	182.08	4.465e-06	4.5284e-06	357.56	119.41	56.147	18.771	4.4046e-06	49.01	-35.859	7.790	20.062	-62.123	100.363	70.152	-61.963	-56.883	133.592	86.406	-57.703	-53.080	-52.945	-47.386	112.781	-48.243	-8191	255	
744.117	1	1	0	0	0.36838	0.13314	0.17635	0.24829	0.030855	0.1316	0.21977	0.22835	0.2309	0.063538	0.21318	0.090283	0.20402	0.14934	0.26875	0.13452	-3.3187	-3.2104	-3.4042	-3.3792	-3.1271	-3.4417	-3.2333	-3.0812	-3.4313	-3.2771	-3.4792	-3.4688	-3.1125	-3.4437	-3.5146	-3.2458	221.054	-38.464	19.767	237.954	208.210	75.553	190.990	216.229	182.616	218.082	-39.062	84.537	238.248	181.743	-31.136	-65.524	0.00034718	0.00041016	0.00012906	577.93	4.9941e-06	5.1077e-06	845.54	191.09	3.9685e-06	2.5803e-06	370.68	123.2	57.734	19.351	2.5692e-06	50.388	0.00044563	0.00042181	0.00012117	546.72	4.6171e-06	4.658e-06	805.63	182.15	4.3206e-06	4.6599e-06	355.83	118.71	55.866	18.674	4.2805e-06	48.745	-33.169	6.846	3.026	-62.108	102.362	78.019	-61.542	-56.624	100.657	23.177	-57.360	-52.911	-53.206	-47.685	93.405	-48.460	-8191	255	
744.213	1	1	0	0	0.13987	0.011108	0.51427	0.14962	0.048046	0.1553	0.13146	0.14612	0.099763	0.090427	0.23444	0.096498	0.050978	0.176	0.23591	0.10082	-3.2646	-3.2458	-3.3458	-3.6417	-3.0396	-3.5375	-3.4771	-3.2104	-3.6125	-3.2771	-3.2271	-3.5833	-3.2083	-3.4396	-3.1708	-3.4	255.190	149.857	-43.472	-66.613	97.850	131.457	242.960	266.225	189.084	-32.565	180.234	-59.350	284.434	-2.427	82.480	-67.825	0.0003735	0.00037732	6.8335e-05	568.07	3.4689e-06	3.9836e-06	845.33	190.5	4.7183e-06	4.2414e-06	372.33	123.34	58.133	19.312	4.6297e-06	50.482	0.00043581	0.00041095	0.00012502	542.41	4.2873e-06	4.3859e-06	804.82	181.95	4.2715e-06	4.5827e-06	356.48	118.89	56.026	18.708	4.4678e-06	48.842	-34.987	18.546	21.871	-61.900	73.559	95.245	-61.783	-56.985	129.463	54.120	-57.675	-52.817	-53.041	-47.358	83.315	-48.643	-8191	255	
744.334	1	1	0	0	0.1688	0.20727	0.066695	0.20761	0.13343	0.15405	0.29278	0.051947	0.083483	0.23169	0.20082	0.12631	0.23745	0.18908	0.096366	0.1358	-3.1229	-3.2104	-3.2229	-3.5333	-3.0021	-3.3417	-3.5479	-3.25	-3.4354	-3.1146	-3.3667	-3.6208	-3.0958	-3.4646	-3.2687	-3.175	20.608	5.341	204.433	2.675	180.414	263.864	-7.690	76.420	86.760	132.251	-26.128	176.248	224.106	-64.969	186.710	245.642	0.00032794	0.00041137	8.4762e-05	571.44	3.7472e-06	4.8181e-06	846.12	190.87	6.2252e-06	4.1656e-06	374.55	124.57	58.572	19.592	7.1794e-06	51.249	0.00044041	0.00042466	0.00012021	544.46	3.8659e-06	4.7678e-06	807.14	183.13	4.4833e-06	4.9733e-06	358.49	120	56.559	19.031	4.8888e-06	49.671	-37.574	22.009	6.318	-61.890	81.355	78.571	-61.623	-56.805	102.522	61.319	-57.311	-52.943	-52.972	-47.364	99.737	-48.251	-8191	255	
744.406	1	1	0	0	0.081258	0.21005	0.063245	0.098217	0.205	0.14923	0.038563	0.0092162	0.081832	0.14652	0.067645	0.19778	0.04182	0.19627	0.18576	0.248	-3.0333	-3.1521	-3.0708	-3.6729	-3.2146	-3.3063	-3.5812	-3.4583	-3.4896	-3.3438	-3.3667	-3.6604	-3.1729	-3.2562	-3.4938	-3.2042	48.997	-18.432	278.873	-10.355	221.102	36.928	131.130	230.779	267.775	-42.400	243.326	216.760	158.098	-39.709	201.313	190.641	0.00037598	0.00039128	0.00010044	574.26	4.3691e-06	4.2122e-06	853.71	194.83	3.6616e-06	5.4366e-06	378.61	125.8	59.351	19.995	5.0012e-06	51.867	0.00045568	0.00046426	0.00013034	547.8	4.4895e-06	5.0058e-06	812.86	185.62	4.5268e-06	5.2135e-06	363.19	121.63	57.273	19.328	4.8964e-06	50.233	-34.912	20.838	30.213	-61.779	86.255	84.148	-61.667	-56.458	114.939	71.842	-57.882	-52.916	-52.988	-47.980	80.241	-48.422	-8191	255	
744.502	1	1	0	0	0.1739	0.16835	0.083736	0.13724	0.10463	0.026454	0.13042	0.22025	0.15683	0.23252	0.14714	0.11585	0.24031	0.15219	0.0086482	0.27499	-3.0979	-3.2188	-3.3021	-3.7938	-3.2354	-3.2812	-3.5812	-3.2708	-3.4062	-3.4708	-3.1083	-3.6312	-3.2521	-3.3187	-3.5312	-3.4042	86.640	35.212	231.752	-15.045	223.324	132.235	267.313	177.540	-58.633	239.876	91.718	265.002	262.380	211.184	44.608	190.789	0.00036015	0.0003097	7.1729e-05	575.98	3.2073e-06	4.3546e-06	852.14	192.37	5.8939e-06	4.3551e-06	376.38	124.1	58.751	19.528	5.8151e-06	50.587	0.00046354	0.00049893	0.00013568	549.78	4.7336e-06	5.9479e-06	812.27	184.46	4.8491e-06	5.4481e-06	359.41	119.94	56.503	18.885	4.6543e-06	49.036	-30.405	-3.819	19.815	-61.692	86.889	87.989	-61.851	-56.579	107.561	107.516	-57.964	-52.869	-52.992	-47.586	86.646	-48.222	-8191	255	
744.622	1	1	0	0	0.11664	0.19654	0.36393	0.227	0.10221	0.10109	0.26825	0.18341	0.092213	0.17288	0.11906	0.15476	0.28472	0.27299	0.23747	0.010447	-3.125	-3.425	-3.2896	-3.6188	-3.3396	-3.2979	-3.6479	-3.2687	-3.3917	-3.6396	-3.3042	-3.5292	-3.3625	-3.1646	-3.5125	-3.1729	123.506	126.344	168.776	265.937	-37.610	254.341	219.234	269.641	80.787	157.681	109.360	246.037	255.627	-63.413	62.623	-28.790	0.00035403	0.00056026	0.00014302	572.23	3.3272e-06	3.0622e-06	837.58	188.61	2.5828e-06	4.9458e-06	364.04	120.83	56.624	18.96	6.0344e-06	49.058	0.00046329	0.00047923	0.00013412	543.56	4.7009e-06	5.3829e-06	799.34	180.22	4.6927e-06	5.1009e-06	350.57	116.73	54.811	18.281	4.4948e-06	47.542	-30.711	22.999	17.697	-62.013	87.928	87.296	-62.046	-56.730	86.248	65.353	-57.384	-53.033	-53.216	-47.263	61.373	-48.324	-8191	255	
744.717	1	1	0	0	0.089787	0.13046	0.20729	0.22712	0.012441	0.2271	0.31122	0.31998	0.091029	0.068689	0.15533	0.092571	0.045266	0.20829	0.12567	0.17843	-3.1937	-3.3646	-3.2521	-3.5542	-3.2333	-3.2562	-3.6	-3.3125	-3.4	-3.5146	-3.3417	-3.4958	-3.4396	-3.3083	-3.6458	-3.4646	89.103	56.357	-63.711	136.276	179.468	97.093	212.470	224.761	284.029	278.685	-51.957	76.618	180.362	259.934	164.529	220.670	0.00032494	0.00047465	0.00015433	568.01	5.5953e-06	3.3101e-06	832.34	185.47	3.9342e-06	4.4398e-06	361.13	118.97	55.226	18.474	4.6828e-06	48.464	0.00046923	0.00048535	0.00012238	539.44	4.4987e-06	5.1012e-06	791.96	177.49	4.704e-06	4.9843e-06	346.03	114.57	53.528	17.863	4.2312e-06	46.815	-42.613	18.387	0.889	-62.174	89.859	72.331	-61.829	-56.846	124.608	65.307	-57.450	-52.434	-53.265	-46.842	91.402	-48.123	-8191	255	
744.815	1	1	0	0	0.072089	0.090065	0.10506	0.06753	0.033655	0.057972	0.23404	0.11713	0.10231	0.069679	0.18116	0.11655	0.32369	0.31174	0.30115	0.05732	-2.8917	-3.4979	-3.2729	-3.4771	-3.3729	-3.1479	-3.7667	-3.3438	-3.35	-3.7208	-3.1562	-3.5062	-3.5625	-3.125	-3.5958	-3.4417	249.056	85.774	5.871	147.393	115.488	98.018	168.133	232.904	43.585	115.977	257.248	207.255	-48.160	208.253	-2.999	-44.583	0.00034228	0.00042719	9.3144e-05	564.53	4.3022e-06	4.6834e-06	833.05	184.13	5.0714e-06	5.1444e-06	358.88	118.44	55.492	18.239	4.2798e-06	48.289	0.00044768	0.00043503	0.00011203	538.08	4.377e-06	4.6747e-06	792.31	176.22	4.3187e-06	4.3449e-06	345.02	114.37	53.48	17.701	4.0342e-06	46.689	-31.731	6.693	17.335	-61.874	96.801	71.833	-61.924	-56.870	119.798	68.167	-57.364	-52.686	-53.141	-47.687	112.361	-48.261	-8191	255	
744.934	1	1	0	0	0.079155	0.19103	0.20919	0.044615	0.075702	0.049631	0.037898	0.050047	0.095752	0.21114	0.14726	0.085676	0.046458	0.042147	0.090366	0.18921	-2.9417	-3.5104	-3.1792	-3.325	-3.5	-3.2625	-3.5875	-3.4979	-3.3292	-3.525	-3.2146	-3.3729	-3.5062	-3.2625	-3.5708	-3.4375	138.197	126.794	248.809	227.437	-14.156	70.283	182.327	69.189	160.248	-4.865	281.683	29.950	240.254	8.932	231.277	125.069	0.00032984	0.0004068	7.4373e-05	560.79	4.2061e-06	4.5465e-06	830.15	181.81	3.0355e-06	3.2983e-06	356.6	116.62	54.287	17.759	5.7284e-06	47.044	0.00045389	0.00039863	0.00010967	536.27	4.2801e-06	4.1981e-06	789.01	174.56	4.4291e-06	4.3347e-06	341.59	112.48	52.244	17.229	4.5073e-06	45.5	-45.267	16.695	9.147	-61.891	85.100	56.828	-61.460	-56.906	123.726	84.355	-57.259	-52.875	-53.217	-47.490	95.226	-48.309	-8191	255	
745.030	1	1	0	0	0.1637	0.18417	0.063571	0.037054	0.21462	0.21677	0.17394	0.1776	0.16017	0.10685	0.074865	0.38456	0.13536	0.24037	0.17173	0.1642	-2.7146	-3.5021	-3.1437	-3.1771	-3.6083	-3.2979	-3.5062	-3.4188	-3.3063	-3.5521	-3.45	-3.4688	-3.4979	-3.1979	-3.3854	-3.3563	77.812	-10.540	64.681	227.117	119.697	-18.730	257.720	155.311	102.736	210.740	109.781	-56.879	-60.702	-20.527	159.402	-61.626	0.00030886	0.0003237	0.00010575	559.2	5.3506e-06	1.5027e-06	809.87	177.17	2.9347e-06	3.8861e-06	346.75	113.78	52.92	17.341	3.0827e-06	45.822	0.00043149	0.00038373	0.00010914	530.42	4.0838e-06	4.0764e-06	774.44	170.04	3.9095e-06	4.0906e-06	333.01	109.55	50.904	16.794	3.7734e-06	44.394	-32.869	6.097	34.196	-61.945	107.463	49.430	-61.928	-57.083	118.837	62.073	-57.386	-52.850	-52.723	-47.419	113.227	-48.017	-8191	255	
745.101	1	1	0	0	0.16619	0.21249	0.027502	0.39298	0.15889	0.25594	0.16433	0.14804	0.22737	0.17496	0.30396	0.11951	0.21372	0.22146	0.14601	0.12639	-2.8042	-3.5062	-3.2812	-3.3854	-3.4271	-3.3958	-3.5604	-3.4396	-3.2125	-3.5604	-3.2417	-3.4958	-3.4917	-3.1792	-3.5521	-3.4208	170.862	-61.483	-49.725	224.501	-19.253	121.356	233.800	267.537	37.563	-64.419	230.784	195.347	113.272	28.958	109.006	49.500	0.00033253	0.00036487	0.00010981	554.19	3.2326e-06	3.8165e-06	809.79	178.18	4.9634e-06	4.8425e-06	346.25	113.47	52.973	17.228	1.3062e-06	45.835	0.00040483	0.00036194	0.00010623	528.27	3.7953e-06	4.2538e-06	773.77	169.73	3.5633e-06	3.9906e-06	331.61	109.26	51.02	16.732	4.3845e-06	44.317	-33.146	20.536	35.485	-62.007	84.086	70.941	-61.751	-56.534	141.238	61.355	-57.522	-52.627	-52.633	-47.179	40.737	-48.024	-8191	255	
745.222	1	1	0	0	0.015661	0.17794	0.31904	0.28156	0.10332	0.072802	0.091115	0.067054	0.17592	0.01746	0.10189	0.049737	0.18519	0.014615	0.10854	0.093289	-2.8854	-3.475	-3.2708	-3.1792	-3.5292	-3.2729	-3.4958	-3.6167	-3.2	-3.3708	-3.4667	-3.1542	-3.4146	-3.1	-3.2896	-3.6646	196.926	210.289	197.660	135.474	265.854	-40.066	219.824	214.866	28.568	224.674	79.773	233.110	269.379	23.800	3.475	229.096	0.00033817	0.00030399	0.00012296	554.21	1.9682e-06	3.8831e-06	809.91	175.51	3.3193e-06	3.0274e-06	343.21	111.86	51.727	16.937	4.3585e-06	45.385	0.00037993	0.00039897	0.00011043	527.97	3.597e-06	4.2618e-06	771.96	167.88	3.7733e-06	4.0993e-06	329.32	107.87	49.988	16.387	3.8622e-06	43.856	-30.356	5.062	24.994	-62.160	116.970	66.144	-61.868	-56.827	136.954	67.809	-57.202	-52.595	-52.781	-47.398	94.444	-48.009	-8191	255	
745.318	1	1	0	0	0.31694	0.056613	0.24392	0.039566	0.010187	0.061709	0.11211	0.091701	0.050809	0.20478	0.11674	0.10749	0.012071	0.21993	0.11914	0.17033	-2.9292	-3.4667	-3.1979	-3.2938	-3.6271	-3.2687	-3.5208	-3.5729	-3.0417	-3.3708	-3.4313	-3.3125	-3.5312	-3.3083	-3.3125	-3.6104	39.660	-24.532	284.637	133.935	272.227	-11.695	22.360	214.646	140.947	-44.079	105.117	180.044	218.730	269.177	137.618	-21.079	0.00030821	0.00019968	0.00010696	556.56	3.2127e-06	3.4135e-06	807.91	175.54	4.3581e-06	2.1184e-06	341.24	111.94	51.983	16.897	5.2587e-06	45.246	0.00038274	0.00035185	0.00010227	528.97	3.3824e-06	4.4567e-06	770.91	167.57	3.6844e-06	4.0568e-06	327.71	107.44	49.996	16.366	4.0689e-06	43.697	-35.559	3.101	22.153	-61.968	106.969	69.976	-61.500	-56.840	123.816	85.619	-57.391	-52.889	-53.118	-47.120	111.056	-47.892	-8191	255	
745.414	1	1	0	0	0.16458	0.14928	0.04033	0.013499	0.2097	0.20623	0.15843	0.22863	0.18867	0.166	0.1103	0.097043	0.1061	0.089868	0.12299	0.066379	-2.8917	-3.3917	-3.3917	-3.0979	-3.4354	-3.5438	-3.4417	-3.7833	-3.2646	-3.4062	-3.5187	-3.3542	-3.5854	-3.4396	-3.3125	-3.7062	89.478	251.941	20.188	152.678	86.666	237.631	-33.521	252.351	52.270	-60.581	249.492	249.763	284.875	153.030	186.891	184.798	0.00030999	0.00040245	7.8283e-05	555.42	4.6265e-06	4.1811e-06	805.17	174.41	2.0064e-06	2.4466e-06	342.4	111.35	51.592	16.757	3.8964e-06	44.566	0.00038514	0.00037775	0.00010464	526.89	3.6827e-06	4.113e-06	766.81	166.75	3.5198e-06	4.3064e-06	325.68	106.99	49.632	16.252	3.7908e-06	43.299	-40.649	19.412	-5.254	-61.986	96.466	61.460	-62.005	-56.528	101.886	70.981	-57.468	-52.552	-52.722	-47.239	106.719	-48.048	-8191	255	
745.510	1	1	0	0	0.088177	0.095807	0.073389	0.16199	0.16894	0.1711	0.061007	0.10083	0.040305	0.12914	0.16496	0.16126	0.040393	0.13995	0.227	0.12672	-2.8854	-3.1875	-3.5167	-3.1063	-3.5083	-3.4875	-3.3625	-3.6813	-3.1979	-3.375	-3.7625	-3.3854	-3.5979	-3.4521	-3.125	-3.6917	34.747	240.003	37.238	230.159	65.960	141.841	-55.208	246.551	56.172	71.274	169.361	74.437	-39.748	272.742	131.464	196.629	0.0002885	0.00042033	8.4819e-05	549.39	6.1403e-06	3.7411e-06	802.79	174.13	2.0409e-06	2.9511e-06	337.68	110.41	51.204	16.922	3.6422e-06	44.531	0.00039046	0.0003854	9.8167e-05	523.67	3.9935e-06	4.0239e-06	764.62	166.32	3.784e-06	4.3064e-06	325.45	106.46	49.402	16.266	3.6534e-06	43.215	-34.291	9.815	20.674	-61.916	78.746	68.941	-61.752	-56.819	128.477	102.407	-57.890	-52.854	-53.202	-47.175	79.586	-48.055	-8191	255	
745.629	1	1	0	0	0.16227	0.061663	0.021426	0.10995	0.031881	0.21152	0.12975	0.10807	0.082907	0.22572	0.14948	0.24505	0.10948	0.22195	0.25478	0.17616	-2.9729	-3.3646	-3.3958	-3.2521	-3.5917	-3.4771	-3.4062	-3.6729	-3.2542	-3.2062	-3.6354	-3.3667	-3.5083	-3.3854	-3.0938	-3.6271	283.587	155.832	-44.463	245.662	129.434	284.420	199.988	180.884	-43.001	0.281	-46.584	217.417	244.136	20.159	87.622	238.801	0.00029689	0.00052939	8.9642e-05	552.25	4.7186e-06	3.7635e-06	804.34	173.42	5.7519e-06	5.0702e-06	340.97	110.79	51.442	16.759	2.927e-06	44.889	0.00040092	0.00038262	9.8969e-05	525.33	4.0289e-06	4.2204e-06	766.12	166.15	4.0867e-06	4.219e-06	325.64	106.78	49.748	16.293	3.779e-06	43.465	-39.237	5.950	18.263	-61.913	91.966	82.295	-61.812	-56.611	124.908	93.739	-57.385	-52.607	-52.589	-46.964	91.665	-48.382	-8191	255	
745.701	1	1	0	0	0.12401	0.2154	0.14681	0.2483	0.15619	0.076992	0.21334	0.21296	0.35833	0.11765	0.14218	0.31049	0.026999	0.032944	0.27081	0.20338	-2.875	-3.3104	-3.6833	-3.3937	-3.4042	-3.6479	-3.3333	-3.725	-3.35	-3.2438	-3.6167	-3.2938	-3.3917	-3.6125	-3.2167	-3.6437	97.936	228.058	62.667	259.782	192.811	138.520	129.854	160.999	93.269	-74.731	135.030	211.355	94.225	138.314	237.438	205.737	0.00032785	0.00042136	7.9251e-05	550.28	4.7774e-06	3.5552e-06	810.41	175.85	2.8494e-06	3.2366e-06	346	113.42	52.724	17.401	4.1363e-06	46.231	0.00039272	0.00037656	0.00010038	525.3	4.0119e-06	4.2769e-06	770.25	168.15	4.2607e-06	4.3505e-06	332.15	109.41	50.929	16.826	4.0127e-06	44.718	-29.276	10.317	10.543	-61.846	94.360	57.615	-61.922	-56.965	106.942	66.543	-57.477	-52.634	-52.421	-46.941	88.285	-48.368	-8191	255	
745.797	1	1	0	0	0.3369	0.2883	0.15518	0.19887	0.22728	0.089318	0.16782	0.1424	0.19851	0.089064	0.19557	0.071662	0.17371	0.13328	0.11107	0.12287	-2.7417	-3.1667	-3.5292	-3.2646	-3.4083	-3.5208	-3.2625	-3.4729	-3.3667	-3.2771	-3.5542	-3.5021	-3.325	-3.5375	-3.2167	-3.6104	199.314	-66.033	148.295	203.083	-4.963	117.764	198.006	56.781	213.285	11.719	254.241	225.544	-51.831	280.788	-60.848	232.306	0.0002742	0.00039779	0.00010735	556.77	5.4972e-06	4.6414e-06	810.85	177.04	4.3662e-06	2.8112e-06	345.19	113.21	52.299	17.257	7.2239e-06	45.628	0.00042219	0.00038338	0.00010292	529.32	4.1728e-06	4.2093e-06	773.05	169.37	4.0218e-06	3.9221e-06	331.16	109.3	50.705	16.7	4.1549e-06	44.258	-35.771	10.638	25.448	-61.756	89.826	81.111	-61.797	-56.997	125.779	77.203	-57.470	-52.816	-52.510	-47.556	80.882	-48.191	-8191	255	
745.895	1	1	0	0	0.12912	0.1047	0.2234	0.062967	0.06015	0.068104	0.13923	0.20075	0.34286	0.18634	0.098348	0.36646	0.20313	0.14656	0.27275	0.14887	-3.0542	-3.1125	-3.4646	-3.2104	-3.2771	-3.6	-3.3937	-3.4417	-3.4729	-3.1292	-3.2979	-3.3896	-3.1479	-3.5771	-3.1708	-3.625	96.958	-8.548	135.759	169.353	172.337	127.491	276.575	283.412	223.062	-0.379	-67.449	243.437	-18.124	270.288	183.592	225.654	0.00032593	0.00031093	5.3905e-05	551.93	4.0998e-06	3.1163e-06	807.76	175.86	2.0536e-06	3.4334e-06	346.01	112.67	52.432	17.279	3.9762e-06	45.969	0.00040936	0.00035547	0.0001074	525.54	4.0341e-06	3.9212e-06	771.22	168.56	3.9852e-06	4.0969e-06	330.12	108.64	50.581	16.682	4.2049e-06	44.416	-34.224	9.575	50.429	-62.019	85.751	57.939	-61.889	-56.993	115.190	90.655	-57.596	-52.690	-52.714	-47.388	67.043	-48.156	-8191	255	
746.014	1	1	0	0	0.22164	0.17887	0.16872	0.074343	0.09685	0.10045	0.39364	0.16281	0.19992	0.13812	0.058136	0.33848	0.029473	0.21847	0.20679	0.14114	-3.0792	-3.1354	-3.4437	-3.35	-3.2188	-3.4979	-3.5125	-3.5604	-3.3208	-3.025	-3.55	-3.4625	-3.3063	-3.5938	-3.375	-3.4542	56.170	-43.285	251.736	212.061	-21.580	92.485	196.983	236.610	233.922	283.287	136.687	256.027	206.348	256.222	39.690	193.618	0.00030685	0.00047665	9.3397e-05	549.7	2.57e-06	3.8489e-06	808.16	174.9	4.1907e-06	2.7181e-06	348.29	112.55	52.575	17.233	6.3135e-06	45.75	0.00038943	0.00038032	0.00011067	524.92	3.9216e-06	4.0477e-06	770.33	168.18	3.7355e-06	4.0016e-06	331.27	108.84	50.706	16.686	4.0828e-06	44.415	-37.587	9.474	14.184	-62.009	82.628	90.035	-61.967	-56.877	143.628	78.978	-57.147	-52.864	-53.196	-47.173	81.367	-48.014	-8191	255	
746.110	1	1	0	0	0.17174	0.20503	0.32334	0.17948	0.16175	0.18326	0.19153	0.18959	0.13038	0.0093406	0.10534	0.17954	0.22717	0.18307	0.11967	0.074288	-3.0667	-3.1813	-3.3812	-3.5646	-3.1604	-3.5833	-3.3229	-3.3417	-3.4458	-2.9875	-3.5625	-3.6521	-3.4271	-3.7521	-3.3958	-3.3187	196.374	-28.633	50.540	91.977	-54.576	232.504	283.678	-53.688	3.856	280.345	186.177	268.935	-46.207	151.289	16.827	266.542	0.00027798	0.00043225	8.955e-05	554.89	5.2804e-06	3.1331e-06	811.43	176.53	2.7643e-06	2.6405e-06	347.53	113.1	52.295	17.316	4.4631e-06	45.651	0.00038909	0.00038763	0.0001093	527.71	3.7252e-06	4.3509e-06	771.74	168.49	3.3817e-06	4.23e-06	331.11	108.82	50.509	16.651	4.003e-06	44.202	-32.823	-2.645	37.106	-62.115	107.254	96.030	-62.020	-56.739	129.108	66.039	-57.205	-53.127	-52.797	-47.455	105.676	-48.120	-8191	255	
746.206	1	1	0	0	0.11504	0.18403	0.066605	0.17412	0.096352	0.18069	0.18549	0.4233	0.21203	0.20622	0.13952	0.083089	0.18344	0.077889	0.23615	0.044437	-3.0479	-3.125	-3.4167	-3.5062	-3.2708	-3.6521	-3.3833	-3.3937	-3.4146	-3.2708	-3.3917	-3.5625	-3.1479	-3.5708	-3.3729	-3.3563	186.947	255.344	-36.588	219.992	96.264	60.738	-58.858	273.054	94.841	118.956	241.794	64.778	273.117	80.440	146.602	270.260	0.00034984	0.00030787	6.9067e-05	553.75	7.0703e-06	4.0014e-06	808.89	175.28	3.2831e-06	3.7721e-06	342.81	111.64	51.906	17.087	3.4317e-06	45.265	0.0003932	0.00038143	0.00010992	528.01	3.7416e-06	4.3167e-06	772.11	167.81	3.7462e-06	4.0686e-06	328.59	107.92	50.197	16.525	4.2208e-06	43.943	-40.678	27.821	21.931	-62.196	106.950	65.144	-61.610	-56.499	141.681	75.205	-57.256	-52.650	-53.105	-47.338	123.347	-48.407	-8191	255	
746.302	1	1	0	0	0.070521	0.21057	0.16055	0.13617	0.19888	0.03226	0.073297	0.062606	0.063726	0.096419	0.22078	0.02477	0.17955	0.12588	0.057948	0.25422	-3.125	-3.2583	-3.3604	-3.6125	-3.1875	-3.6708	-3.4313	-3.2313	-3.4562	-3.1396	-3.4208	-3.5	-3.3625	-3.5208	-3.4562	-3.3125	199.789	281.394	149.495	92.911	173.826	75.842	139.817	259.163	84.883	-16.303	-26.806	192.663	252.848	282.039	74.630	223.083	0.00032782	0.00046341	9.0594e-05	551.22	5.8231e-06	2.8977e-06	799.8	173.59	3.3732e-06	4.3524e-06	338.03	110.12	51.259	16.634	3.1775e-06	44.453	0.00040319	0.00041756	0.00011319	525.3	3.9425e-06	4.3207e-06	764.96	165.86	4.0148e-06	4.5434e-06	324.17	106.13	49.31	16.104	4.1889e-06	43.101	-31.407	23.649	26.470	-62.065	69.971	78.780	-61.910	-56.478	119.477	83.288	-57.508	-52.261	-53.038	-47.303	87.103	-48.238	-8191	255	
746.399	1	1	0	0	0.083681	0.15121	0.10582	0.2279	0.28506	0.15261	0.052096	0.31749	0.060634	0.096798	0.24325	0.34132	0.14711	0.057985	0.10295	0.23956	-3.0125	-3.2542	-3.3937	-3.6771	-3.3729	-3.4917	-3.6813	-3.3812	-3.35	-3.2646	-3.3104	-3.6583	-3.1583	-3.5438	-3.4417	-3.4021	-33.628	152.256	-52.592	212.192	25.970	-36.327	256.291	249.694	-43.183	244.318	100.885	228.893	104.432	-41.571	267.456	199.266	0.00031723	0.00041594	8.1596e-05	548.79	2.1049e-06	2.6592e-06	793.8	173.33	3.3969e-06	3.1003e-06	337.72	110.56	51.214	16.832	3.4245e-06	45.082	0.00039314	0.00037684	0.00010581	522.44	4.1224e-06	4.2761e-06	759.95	165.84	3.9858e-06	4.3442e-06	324.29	106.76	49.511	16.276	3.8414e-06	43.55	-42.616	15.003	39.311	-61.860	133.980	57.029	-61.761	-56.936	148.644	66.052	-57.264	-52.550	-52.523	-47.181	85.661	-47.983	-8191	255	
746.495	1	1	0	0	0.14288	0.19398	0.36826	0.083207	0.066191	0.12918	0.21954	0.20226	0.20459	0.23725	0.11589	0.12149	0.090638	0.1589	0.026969	0.097768	-3.0312	-3.4396	-3.2854	-3.5333	-3.1896	-3.4688	-3.5104	-3.1896	-3.5979	-3.3667	-3.5042	-3.6896	-3.2125	-3.4458	-3.5792	-3.3792	-17.167	53.863	-49.025	-19.163	76.191	93.947	229.318	-59.156	174.206	199.694	209.261	206.562	-1.967	254.559	34.503	-8.854	0.0003089	0.00037082	7.2142e-05	547.06	4.0539e-06	3.3839e-06	802.5	172.54	2.9025e-06	2.3948e-06	339.46	109.79	50.986	16.813	5.4282e-06	44.828	0.00041465	0.00040308	0.00010826	521.64	4.023e-06	4.693e-06	762.37	164.66	3.9278e-06	4.1371e-06	323.98	106.27	49.229	16.201	3.9607e-06	43.334	-36.546	13.182	31.685	-61.942	99.760	85.154	-61.732	-56.816	145.951	78.693	-57.378	-52.496	-52.977	-47.045	69.473	-48.002	-8191	255	
746.615	1	1	0	0	0.077566	0.21691	0.17308	0.093278	0.21731	0.093027	0.16382	0.10708	0.14452	0.11342	0.012227	0.11838	0.30678	0.10151	0.2495	0.32651	-3.2333	-3.2562	-3.3875	-3.8104	-3.4646	-3.425	-3.5896	-3.0583	-3.3583	-3.3604	-3.1667	-3.7792	-3.1896	-3.5042	-3.5417	-3.4021	101.568	277.028	182.322	52.669	278.245	91.398	11.836	-28.001	174.560	-15.397	22.573	262.936	280.546	24.808	283.511	277.544	0.00032883	0.00027302	0.00012123	551.19	4.6594e-06	2.974e-06	802.45	172.58	4.8304e-06	3.6307e-06	339.34	110.05	51.379	16.906	3.7689e-06	45.347	0.00038669	0.00037099	0.00010063	522.85	4.0649e-06	4.222e-06	763.88	165.01	4.0186e-06	4.341e-06	324.69	106.62	49.653	16.349	3.5619e-06	43.771	-36.790	30.466	-4.185	-61.973	89.320	61.258	-61.905	-56.394	174.506	38.506	-57.944	-52.473	-52.634	-46.944	90.833	-48.044	-8191	255	
746.711	1	1	0	0	0.13239	0.14012	0.11729	0.081114	0.10497	0.15256	0.21552	0.047582	0.21374	0.045154	0.23185	0.074253	0.10029	0.12594	0.22869	0.1312	-3.2167	-3.4562	-3.1937	-3.6375	-3.3354	-3.2083	-3.6667	-3.3604	-3.3083	-3.4271	-3.1479	-3.5979	-3.2604	-3.1104	-3.6333	-3.4229	198.333	75.051	203.384	118.405	281.417	96.954	207.382	22.421	-32.966	10.111	240.383	-19.943	31.365	218.123	-10.478	139.264	0.00030777	0.00030286	0.00011634	549.87	2.6583e-06	4.2439e-06	802.66	173.21	2.932e-06	3.3627e-06	341.41	112.75	51.824	16.979	4.4299e-06	45.269	0.00039458	0.00036181	9.936e-05	523.29	3.6873e-06	4.3079e-06	764.32	166.02	3.9341e-06	3.7741e-06	326.83	108.07	49.96	16.465	3.7193e-06	43.929	-41.201	14.146	13.667	-61.865	60.670	76.230	-61.791	-56.789	136.007	77.421	-57.700	-52.719	-52.438	-47.430	67.885	-47.981	-8191	255	
746.806	1	1	0	0	0.1589	0.18347	0.095023	0.10739	0.22274	0.071736	0.25711	0.2833	0.23949	0.083702	0.37101	0.24211	0.13587	0.055562	0.18416	0.20292	-3.0229	-3.5479	-3.1375	-3.5417	-3.3042	-3.2521	-3.575	-3.3063	-3.3708	-3.5208	-3.2396	-3.6042	-3.2583	-3.2667	-3.5208	-3.2979	114.991	37.300	2.783	150.578	272.672	57.217	216.120	195.539	128.750	64.082	219.021	-52.951	30.886	203.252	115.761	248.994	0.00029763	0.00048827	8.3569e-05	545.44	5.1909e-06	2.7006e-06	803.7	173.56	1.5014e-06	4.2833e-06	342.51	112.21	51.936	17.085	5.2093e-06	45.656	0.00040645	0.0003593	0.00010134	520.26	3.8417e-06	3.8775e-06	765.14	166.53	4.0054e-06	3.8544e-06	327.5	107.99	50.093	16.519	4.1875e-06	44.116	-36.111	9.205	22.951	-62.005	74.457	50.848	-61.725	-56.551	166.863	80.207	-57.573	-52.564	-52.799	-47.177	84.734	-47.996	-8191	255	
746.902	1	1	0	0	0.16511	0.141	0.25034	0.12805	0.1666	0.22118	0.24821	0.16543	0.16251	0.095757	0.22878	0.074194	0.2002	0.055114	0.27016	0.23067	-2.9979	-3.5333	-3.1437	-3.4646	-3.3937	-3.1708	-3.7667	-3.2729	-3.2292	-3.5875	-3.2313	-3.5062	-3.3458	-3.2417	-3.5979	-3.4375	272.576	62.054	217.234	-61.531	1.835	21.684	177.026	246.727	158.430	282.789	250.513	240.587	247.408	74.449	261.467	274.765	0.00034597	0.00017561	0.0001223	553.41	4.2285e-06	3.7627e-06	804.88	175.53	4.7218e-06	3.7585e-06	345.05	112.79	52.106	17.269	5.3852e-06	46.063	0.00041444	0.00034921	0.00011272	524.67	3.7527e-06	3.7613e-06	768.01	167.64	3.6434e-06	4.2213e-06	329.84	108.58	50.396	16.621	3.9413e-06	44.444	-29.679	25.168	39.055	-61.922	75.734	51.741	-61.873	-56.938	109.815	91.027	-57.715	-52.527	-52.816	-47.196	84.907	-48.434	-8191	255	
746.998	1	1	0	0	0.21585	0.061266	0.13233	0.20514	0.12195	0.083218	0.14358	0.1729	0.063358	0.18906	0.057596	0.10328	0.059944	0.44039	0.13805	0.074334	-2.8625	-3.5458	-3.25	-3.3292	-3.3333	-3.3458	-3.5771	-3.4	-3.325	-3.5771	-3.2458	-3.4729	-3.35	-3.1083	-3.4208	-3.4188	100.347	277.800	116.205	96.737	218.514	210.195	188.171	246.101	106.831	263.765	-67.866	-4.899	240.331	268.854	119.465	227.978	0.00034504	0.00026786	0.00011843	550.63	4.2473e-06	2.2114e-06	811.22	175.71	6.3678e-06	3.5498e-06	344.69	113.14	52.307	17.457	4.6959e-06	46.385	0.00039396	0.00038074	0.00010484	524.63	3.4563e-06	4.2761e-06	771.17	168.1	3.7777e-06	4.4394e-06	331.93	109.21	50.713	16.845	4.5357e-06	44.826	-30.376	31.001	10.491	-62.109	96.467	65.280	-61.937	-56.681	142.218	94.352	-57.420	-52.581	-52.954	-47.074	63.109	-47.943	-8191	255	
747.094	1	1	0	0	0.21434	0.1352	0.10845	0.037984	0.11546	0.15744	0.036714	0.32396	0.073517	0.057634	0.10619	0.17226	0.20828	0.21617	0.14918	0.26328	-2.7562	-3.4729	-3.2396	-3.3792	-3.3937	-3.1937	-3.6125	-3.5854	-3.2625	-3.4938	-3.2729	-3.4313	-3.4896	-3.2396	-3.4333	-3.3875	-2.105	181.064	23.922	246.995	73.153	276.505	186.052	231.340	210.428	231.689	102.560	184.349	264.275	47.592	189.643	195.870	0.00030376	0.00027041	0.00011132	555.7	5.2768e-06	4.1517e-06	811.68	175.89	2.3898e-06	4.1913e-06	345.08	113.52	52.714	17.415	3.541e-06	46.239	0.00039959	0.00038102	0.00011716	527.79	3.9517e-06	4.4273e-06	773.89	168.26	4.0205e-06	4.5284e-06	331.1	109.51	50.826	16.849	4.5094e-06	44.901	-37.851	12.092	23.214	-61.662	92.046	80.671	-61.995	-56.760	53.959	80.210	-57.326	-52.707	-52.869	-46.991	96.682	-48.264	-8191	255	
747.190	1	1	0	0	0.18165	0.24817	0.083035	0.16067	0.11551	0.22897	0.078627	0.17747	0.14193	0.041883	0.072276	0.070395	0.12904	0.11056	0.16337	0.18282	-2.7104	-3.4667	-3.4188	-3.3083	-3.5833	-3.2854	-3.5208	-3.6021	-3.0958	-3.6917	-3.2833	-3.2354	-3.5187	-3.2771	-3.4979	-3.625	-34.329	-72.355	3.523	-35.021	209.498	37.127	226.146	-38.584	166.357	185.532	62.727	254.616	32.356	128.803	74.284	-13.284	0.00030588	0.00032676	0.00013482	549.61	5.763e-06	4.3544e-06	805.38	176.14	2.649e-06	3.15e-06	346.04	114.89	52.919	17.712	6.4038e-06	46.748	0.00041595	0.00042139	0.00012044	523.13	4.3207e-06	4.7384e-06	768.32	168.59	4.2406e-06	4.9001e-06	331.8	110.64	51.372	17.098	4.5919e-06	45.354	-34.978	28.422	13.252	-62.030	91.158	80.816	-61.771	-56.692	119.069	56.704	-57.952	-52.637	-52.519	-47.262	96.632	-48.222	-8191	255	
747.287	1	1	0	0	0.15512	0.13616	0.079907	0.11689	0.14329	0.088796	0.3128	0.33462	0.3057	0.020622	0.19365	0.050811	0.1512	0.097532	0.18299	0.27996	-2.8063	-3.425	-3.1833	-3.325	-3.4313	-3.2812	-3.6312	-3.5458	-3.1312	-3.5417	-3.2958	-3.3083	-3.5062	-3.3083	-3.4354	-3.475	101.528	-31.476	232.073	-60.752	68.001	50.877	242.410	165.509	-36.534	212.194	-58.066	62.174	-33.245	-1.250	195.510	250.562	0.00032834	0.00029802	7.4181e-05	551.13	4.2584e-06	3.3108e-06	810.44	176.79	4.1267e-06	3.0692e-06	346.37	115.11	54.05	17.904	8.5078e-06	47.234	0.00043372	0.00043141	0.00011606	525.13	4.2088e-06	4.4329e-06	772.41	170.12	4.2254e-06	4.5946e-06	335.29	111.4	52.003	17.219	4.0876e-06	45.801	-40.066	-12.564	-1.458	-61.976	85.942	58.882	-61.727	-57.036	108.777	49.463	-57.370	-52.656	-52.788	-47.530	59.455	-48.191	-8191	255	
747.407	1	1	0	0	0.13356	0.27088	0.11142	0.22027	0.1546	0.31127	0.080932	0.33618	0.061224	0.28487	0.28795	0.32389	0.17086	0.14705	0.042352	0.10075	-2.6542	-3.4375	-3.1604	-3.4688	-3.4583	-3.1896	-3.4938	-3.6937	-3.2625	-3.4854	-3.3479	-3.3875	-3.8208	-3.2479	-3.3292	-3.6104	120.029	24.869	249.213	259.814	52.463	-18.334	275.048	-38.350	204.072	179.999	221.642	274.134	-30.337	81.472	154.501	-36.902	0.00028228	0.00032675	0.0001094	553.42	4.7015e-06	1.9074e-06	816.36	179.51	4.1174e-06	3.6225e-06	353.44	116.28	54.404	17.983	5.0513e-06	47.697	0.00042676	0.00043155	0.0001049	528.06	4.3901e-06	4.8339e-06	780.26	171.86	4.3471e-06	4.7079e-06	338.47	112.38	52.262	17.422	3.9163e-06	46.223	-33.233	-2.282	16.314	-62.136	88.820	80.803	-61.846	-56.605	129.640	63.873	-57.662	-52.656	-52.822	-47.569	93.321	-48.161	-8191	255	
747.503	1	1	0	0	0.12618	0.1205	0.30874	0.054704	0.096969	0.14789	0.26688	0.15689	0.083317	0.29432	0.26612	0.11909	0.08073	0.21082	0.2445	0.037819	-2.9562	-3.45	-3.2542	-3.1479	-3.4229	-3.3333	-3.2917	-3.6146	-3.1937	-3.4188	-3.425	-3.3875	-3.5042	-3.2896	-3.3063	-3.5167	60.871	117.459	194.438	84.070	274.797	173.903	193.265	157.948	47.598	79.621	232.452	235.571	-11.560	234.746	-2.714	260.366	0.00032556	0.00035885	8.3159e-05	561.62	3.7975e-06	3.3481e-06	822.18	181.32	4.8435e-06	4.9181e-06	353.21	115.26	53.47	17.582	5.0697e-06	46.522	0.00042367	0.0004122	0.00010212	533.64	4.2055e-06	4.3398e-06	783.92	172.91	3.9934e-06	4.378e-06	338.67	111.26	51.674	17.018	3.6735e-06	45.13	-31.877	12.952	21.859	-61.683	65.676	68.939	-61.986	-56.633	155.539	76.597	-57.464	-52.718	-52.414	-47.471	117.332	-48.107	-8191	255	
747.575	1	1	0	0	0.06797	0.21599	0.018192	0.28807	0.094888	0.15693	0.1484	0.19878	0.01922	0.22463	0.068841	0.20282	0.089351	0.27939	0.023592	0.18571	-2.8375	-3.4021	-3.3396	-3.3187	-3.375	-3.2708	-3.4458	-3.4125	-3.2083	-3.3521	-3.6188	-3.2125	-3.4562	-3.3146	-3.2917	-3.7458	188.164	-28.636	149.451	216.919	262.922	-51.439	225.156	84.523	151.613	76.483	134.813	243.182	259.105	-43.272	-30.165	32.598	0.00032479	0.00047642	9.7025e-05	557.56	5.2228e-06	3.3337e-06	818.91	177.51	2.238e-06	3.402e-06	351.46	114.28	53.195	17.427	2.6415e-06	46.366	0.00040809	0.00039	9.9028e-05	529.75	4.1597e-06	4.3811e-06	776.69	170.44	4.0697e-06	4.0631e-06	334.97	110.1	51.07	16.88	4.1306e-06	44.934	-32.758	23.054	18.691	-62.119	103.502	79.425	-61.816	-56.614	127.242	86.102	-57.801	-52.536	-52.779	-47.253	98.731	-47.840	-8191	255	
747.696	1	1	0	0	0.16225	0.0637	0.19523	0.32637	0.12727	0.25414	0.23573	0.074778	0.1119	0.19227	0.035233	0.33274	0.18666	0.0967	0.14145	0.36061	-2.775	-3.2833	-3.4271	-3.3688	-3.3438	-3.2375	-3.2917	-3.575	-3.3354	-3.2	-3.3042	-3.2854	-3.4583	-3.4208	-3.2083	-3.6063	222.296	109.501	111.533	-0.204	227.063	22.668	-58.079	186.969	-8.572	77.825	66.958	-67.517	223.855	201.553	33.639	261.288	0.00035055	0.00047269	6.6628e-05	553.51	4.9874e-06	3.3596e-06	808.56	175.24	2.164e-06	3.4942e-06	345.05	112.92	52.313	17.17	2.0842e-06	46.043	0.00043777	0.00036807	0.00011141	527.53	4.3547e-06	4.1496e-06	770.92	168.41	4.2412e-06	4.4961e-06	330.21	108.53	50.562	16.638	4.4844e-06	44.572	-35.506	-7.739	39.587	-61.843	100.396	72.458	-62.054	-56.633	123.288	85.312	-57.576	-52.812	-52.894	-47.068	84.888	-47.922	-8191	255	
747.790	1	1	0	0	0.080819	0.17143	0.044071	0.035197	0.34482	0.21247	0.10917	0.23394	0.13319	0.072639	0.17204	0.15529	0.12241	0.19451	0.32391	0.15765	-2.7979	-3.2125	-3.4271	-3.2125	-3.525	-3.3229	-3.1854	-3.6063	-3.3479	-3.1667	-3.6958	-3.2271	-3.2229	-3.6208	-3.2333	-3.5042	65.154	213.750	-9.413	245.502	-48.594	47.432	25.017	-20.004	221.618	218.956	118.665	-66.275	195.828	263.190	26.942	271.018	0.00030703	0.00030225	6.4908e-05	553.5	3.0046e-06	4.1417e-06	808.01	175.89	3.9535e-06	3.2376e-06	345.41	114.42	52.822	17.47	5.0448e-06	46.758	0.00041911	0.00041116	0.00011812	526.72	4.2448e-06	4.3262e-06	772.05	168.61	4.0949e-06	4.393e-06	331.77	109.79	50.901	16.905	4.6384e-06	45.352	-38.848	28.391	23.921	-61.936	124.525	73.288	-61.602	-56.349	89.627	77.546	-57.712	-52.795	-53.227	-47.293	101.651	-47.955	-8191	255	
747.886	1	1	0	0	0.082301	0.056282	0.046401	0.22789	0.14301	0.21556	0.1436	0.25879	0.089144	0.082177	0.31148	0.076801	0.19355	0.085144	0.04235	0.21131	-3	-3.3	-3.5292	-3.175	-3.3125	-3.5521	-3.4583	-3.4854	-3.3792	-3.3396	-3.6396	-3.3146	-3.4854	-3.5021	-3.3063	-3.5458	-42.528	252.814	-52.591	227.820	-72.248	175.056	-64.171	254.539	124.577	278.639	270.237	224.593	-44.329	-52.621	213.836	282.013	0.00032441	0.00040666	0.00011199	554.84	5.4424e-06	4.2528e-06	812.23	178.37	1.0912e-06	2.86e-06	354.42	116.49	54.517	18.107	4.1097e-06	48.367	0.00041259	0.00044032	0.00011876	526.88	4.0694e-06	4.7002e-06	777.13	171.24	4.1378e-06	5.0497e-06	339.53	112.5	52.517	17.534	4.8375e-06	46.661	-30.691	6.607	22.938	-61.899	80.284	78.560	-62.029	-56.866	184.327	71.938	-57.538	-52.661	-52.769	-47.376	106.390	-48.158	-8191	255	
#DATA ENDS
