BOXY.EXE: ISS Imagent and Oximeter Data Acquisition Program Version 0.80
Ascii Record File

#ACQ INFORMATION
2  Detector Channels 
16  External MUX Channels 
1  Auxiliary Channels 
5000  Waveform (CCF) Frequency (Hz)
1  Waveforms Skipped 
30  Waveforms Averaged 
1  Cycles Averaged 
16  Acquisitions per Waveform 
10.0806  Updata Rate (Hz) 

#FILE INFORMATION
TRUE -- External MUX Channel results are PARSED.
FALSE -- AC DC and Phase are NOT grouped.
TRUE -- Companion Program Settings File CREATED.
FALSE -- AC data not excluded
FALSE -- DC data not excluded
FALSE -- Phase data not excluded
FALSE -- Auxillary Chn. data not excluded
Tab delimiters

#CALIBRATION STATE
TRUE -- Waveform Calibration Values APPLIED.


#AUX CALIBRATION VALUES
Val Type	aux-1	

Term	1.0000e+00	
Factor	0.0000e+00	


#WF CALIBRATION VALUES
A = Detector Channel
Val Type	A-AC1	A-AC2	A-AC3	A-AC4	A-AC5	A-AC6	A-AC7	A-AC8	A-AC9	A-AC10	A-AC11	A-AC12	A-AC13	A-AC14	A-AC15	A-AC16	A-DC1	A-DC2	A-DC3	A-DC4	A-DC5	A-DC6	A-DC7	A-DC8	A-DC9	A-DC10	A-DC11	A-DC12	A-DC13	A-DC14	A-DC15	A-DC16	A-Ph1	A-Ph2	A-Ph3	A-Ph4	A-Ph5	A-Ph6	A-Ph7	A-Ph8	A-Ph9	A-Ph10	A-Ph11	A-Ph12	A-Ph13	A-Ph14	A-Ph15	A-Ph16	

Term	0.00000e+00	0.00000e+00	0.00000e+00	0.00000e+00	0.00000e+00	0.00000e+00	0.00000e+00	0.00000e+00	0.00000e+00	0.00000e+00	0.00000e+00	0.00000e+00	0.00000e+00	0.00000e+00	0.00000e+00	0.00000e+00	0.00000e+00	0.00000e+00	0.00000e+00	0.00000e+00	0.00000e+00	0.00000e+00	0.00000e+00	0.00000e+00	0.00000e+00	0.00000e+00	0.00000e+00	0.00000e+00	0.00000e+00	0.00000e+00	0.00000e+00	0.00000e+00	0.00000e+00	0.00000e+00	0.00000e+00	0.00000e+00	0.00000e+00	0.00000e+00	0.00000e+00	0.00000e+00	0.00000e+00	0.00000e+00	0.00000e+00	0.00000e+00	0.00000e+00	0.00000e+00	0.00000e+00	0.00000e+00	
Factor	1.00000e+00	1.00000e+00	1.00000e+00	1.00000e+00	1.00000e+00	1.00000e+00	1.00000e+00	1.00000e+00	1.00000e+00	1.00000e+00	1.00000e+00	1.00000e+00	1.00000e+00	1.00000e+00	1.00000e+00	1.00000e+00	1.00000e+00	1.00000e+00	1.00000e+00	1.00000e+00	1.00000e+00	1.00000e+00	1.00000e+00	1.00000e+00	1.00000e+00	1.00000e+00	1.00000e+00	1.00000e+00	1.00000e+00	1.00000e+00	1.00000e+00	1.00000e+00	X	X	X	X	X	X	X	X	X	X	X	X	X	X	X	X	

B = Detector Channel
Val Type	B-AC1	B-AC2	B-AC3	B-AC4	B-AC5	B-AC6	B-AC7	B-AC8	B-AC9	B-AC10	B-AC11	B-AC12	B-AC13	B-AC14	B-AC15	B-AC16	B-DC1	B-DC2	B-DC3	B-DC4	B-DC5	B-DC6	B-DC7	B-DC8	B-DC9	B-DC10	B-DC11	B-DC12	B-DC13	B-DC14	B-DC15	B-DC16	B-Ph1	B-Ph2	B-Ph3	B-Ph4	B-Ph5	B-Ph6	B-Ph7	B-Ph8	B-Ph9	B-Ph10	B-Ph11	B-Ph12	B-Ph13	B-Ph14	B-Ph15	B-Ph16	

Term	0.00000e+00	0.00000e+00	0.00000e+00	0.00000e+00	0.00000e+00	0.00000e+00	0.00000e+00	0.00000e+00	0.00000e+00	0.00000e+00	0.00000e+00	0.00000e+00	0.00000e+00	0.00000e+00	0.00000e+00	0.00000e+00	0.00000e+00	0.00000e+00	0.00000e+00	0.00000e+00	0.00000e+00	0.00000e+00	0.00000e+00	0.00000e+00	0.00000e+00	0.00000e+00	0.00000e+00	0.00000e+00	0.00000e+00	0.00000e+00	0.00000e+00	0.00000e+00	2.75725e+01	-1.31108e+02	-1.23548e+02	-1.82912e+02	-5.41566e+01	-6.84967e+01	-1.56913e+02	-1.62015e+02	-1.69110e+01	-6.90769e+01	-1.71915e+02	-1.70337e+02	-1.80602e+02	-1.76910e+02	-5.41290e+01	-1.49881e+02	
Factor	3.81789e-05	1.74656e-04	4.40913e-05	1.54476e-01	2.40339e-06	1.68123e-06	1.67599e-01	4.70291e-02	2.64378e-06	1.71266e-06	1.45221e-01	2.55112e-02	2.28348e-02	7.80503e-03	2.52045e-06	1.14423e-02	1.64678e-05	3.34103e-05	9.38836e-06	7.76069e-02	3.14091e-07	3.81937e-07	7.88202e-02	2.36533e-02	3.02672e-07	3.77959e-07	7.06724e-02	1.24816e-02	1.15660e-02	3.96858e-03	3.32949e-07	5.62954e-03	X	X	X	X	X	X	X	X	X	X	X	X	X	X	X	X	



#DISTANCE SETTINGS
A = Detector Channel
A-1	A-2	A-3	A-4	A-5	A-6	A-7	A-8	A-9	A-10	A-11	A-12	A-13	A-14	A-15	A-16	

2.5000e+00	3.0000e+00	2.5000e+00	3.0000e+00	2.0000e+00	3.0000e+00	1.5000e+00	3.0000e+00	3.0000e+00	3.0000e+00	3.0000e+00	3.0000e+00	3.0000e+00	3.0000e+00	1.5000e+00	3.0000e+00	

B = Detector Channel
B-1	B-2	B-3	B-4	B-5	B-6	B-7	B-8	B-9	B-10	B-11	B-12	B-13	B-14	B-15	B-16	

1.0000e+01	1.0000e+01	1.0000e+01	1.4400e+00	1.0000e+01	1.0000e+01	1.5100e+00	1.9400e+00	1.0000e+01	1.0000e+01	1.9900e+00	2.4900e+00	2.4100e+00	2.9000e+00	1.0000e+01	2.9800e+00	




#DATA BEGINS
time	group	step	mark	flag	A-AC1	A-AC2	A-AC3	A-AC4	A-AC5	A-AC6	A-AC7	A-AC8	A-AC9	A-AC10	A-AC11	A-AC12	A-AC13	A-AC14	A-AC15	A-AC16	A-DC1	A-DC2	A-DC3	A-DC4	A-DC5	A-DC6	A-DC7	A-DC8	A-DC9	A-DC10	A-DC11	A-DC12	A-DC13	A-DC14	A-DC15	A-DC16	A-Ph1	A-Ph2	A-Ph3	A-Ph4	A-Ph5	A-Ph6	A-Ph7	A-Ph8	A-Ph9	A-Ph10	A-Ph11	A-Ph12	A-Ph13	A-Ph14	A-Ph15	A-Ph16	B-AC1	B-AC2	B-AC3	B-AC4	B-AC5	B-AC6	B-AC7	B-AC8	B-AC9	B-AC10	B-AC11	B-AC12	B-AC13	B-AC14	B-AC15	B-AC16	B-DC1	B-DC2	B-DC3	B-DC4	B-DC5	B-DC6	B-DC7	B-DC8	B-DC9	B-DC10	B-DC11	B-DC12	B-DC13	B-DC14	B-DC15	B-DC16	B-Ph1	B-Ph2	B-Ph3	B-Ph4	B-Ph5	B-Ph6	B-Ph7	B-Ph8	B-Ph9	B-Ph10	B-Ph11	B-Ph12	B-Ph13	B-Ph14	B-Ph15	B-Ph16	aux-1	digaux	

853.395	1	1	0	768	0.20128	0.10902	0.16792	0.069795	0.2426	0.14884	0.18565	0.078376	0.067306	0.16606	0.11304	0.13692	0.12388	0.027888	0.10366	0.1697	-3.2646	-3.2417	-3.3583	-3.5479	-3.1646	-3.2667	-3.6375	-3.2562	-3.5417	-3.3229	-3.4896	-3.7458	-3.3187	-3.4083	-3.3312	-3.3604	138.500	272.994	-19.117	36.198	74.758	134.091	245.450	101.405	23.596	-38.915	248.968	258.520	198.107	223.151	0.682	243.298	0.00067248	0.00052401	0.00017001	659.05	8.5353e-06	4.3165e-06	985.89	226.04	7.7662e-06	5.2326e-06	452.73	190.99	85.975	39.818	7.8829e-06	98.444	0.00081914	0.00077331	0.00019745	632.18	7.4983e-06	8.4567e-06	947.45	217.6	7.5151e-06	8.119e-06	435.8	184.9	83.416	38.441	7.431e-06	95.639	-48.347	18.422	47.093	-43.429	117.012	90.907	-43.717	-38.613	151.444	75.467	-39.387	-35.137	-35.332	-31.079	106.352	-32.262	-8191	255	
853.491	1	1	0	0	0.19542	0.086503	0.16296	0.24184	0.060001	0.14654	0.23895	0.11715	0.12476	0.10318	0.11532	0.091372	0.087451	0.17075	0.097563	0.17176	-3.1167	-3.3792	-3.1875	-3.6583	-3.2125	-3.3708	-3.4896	-3.1729	-3.4146	-3.4021	-3.375	-3.5771	-3.4604	-3.4479	-3.4688	-3.2479	49.667	122.853	13.484	169.492	280.926	-42.971	193.472	202.890	12.146	280.632	155.604	226.355	221.320	262.857	0.581	288.889	0.00073414	0.00058749	0.00019254	649.87	7.2447e-06	5.8366e-06	977.01	220.8	7.0265e-06	7.4424e-06	445.7	188.07	84.311	38.321	7.0959e-06	95.405	0.00084995	0.00074943	0.00019759	620.57	7.7953e-06	8.3358e-06	934.65	212.53	7.4804e-06	8.4852e-06	428.8	181.63	81.748	37.236	7.6329e-06	92.777	-50.649	30.533	24.106	-43.504	114.589	89.103	-43.491	-38.258	150.620	94.780	-39.584	-35.301	-35.126	-31.233	122.731	-32.119	-8191	255	
853.587	1	1	0	0	0.23017	0.12816	0.098999	0.18802	0.20052	0.14222	0.19138	0.28861	0.29139	0.093816	0.14757	0.3552	0.073087	0.16432	0.064904	0.29121	-3.1437	-3.2687	-3.3042	-3.4917	-3.1667	-3.3271	-3.6312	-3.3625	-3.475	-3.3563	-3.2604	-3.6396	-3.3375	-3.4958	-3.4167	-3.4813	45.595	114.673	224.119	291.388	258.115	166.273	226.608	225.566	18.951	26.229	-45.034	-51.758	109.871	165.023	141.656	275.377	0.00075605	0.00081941	0.00014023	643.8	5.0103e-06	7.2027e-06	981.12	223.44	9.1708e-06	6.0117e-06	449.73	190.1	86.004	38.592	7.307e-06	96.444	0.00085921	0.00074658	0.000212	615.69	7.6959e-06	8.1416e-06	938.59	215.42	7.7616e-06	8.0797e-06	435.91	183.69	83.103	37.438	7.9401e-06	93.821	-44.851	17.483	21.367	-43.793	99.416	84.180	-43.532	-38.504	145.205	90.497	-39.253	-35.638	-35.109	-31.186	91.877	-32.516	-8191	255	
853.683	1	1	0	0	0.21049	0.18756	0.22544	0.066123	0.071721	0.084329	0.2079	0.20667	0.17812	0.069268	0.11909	0.18514	0.069015	0.053762	0.2794	0.32141	-2.8937	-3.3292	-3.0667	-3.4688	-3.4417	-3.3021	-3.5312	-3.1979	-3.5667	-3.5438	-3.2313	-3.5563	-3.4854	-3.3479	-3.5687	-3.3458	41.973	11.284	24.034	-6.090	264.041	255.969	235.409	217.271	181.410	80.625	-50.832	239.548	-34.401	89.504	150.030	238.219	0.00067706	0.00045964	0.0001662	649.84	7.0976e-06	6.1373e-06	989.94	226.22	6.513e-06	4.2356e-06	454.69	190.58	86.025	38.813	8.9032e-06	96.477	0.00083163	0.0006893	0.00020635	624.46	7.457e-06	7.8687e-06	946.16	217.52	7.4413e-06	7.4702e-06	437.93	184.34	83.309	37.716	8.0588e-06	93.99	-51.091	17.521	42.440	-43.606	118.247	99.317	-43.332	-38.449	155.532	78.905	-39.559	-35.296	-35.034	-30.855	126.518	-32.156	-8191	255	
853.779	1	1	0	0	0.094396	0.13996	0.14675	0.1922	0.045671	0.19078	0.060443	0.22877	0.17818	0.11396	0.10859	0.16444	0.099498	0.1262	0.24382	0.074156	-2.8937	-3.4229	-3.0792	-3.5583	-3.3167	-3.0646	-3.6896	-3.3604	-3.2438	-3.4896	-3.2521	-3.6688	-3.3729	-3.0667	-3.4979	-3.4396	255.833	237.808	177.196	51.707	61.355	202.841	155.060	240.161	111.905	83.691	294.317	243.860	265.298	173.222	114.563	288.586	0.00071993	0.0005715	0.00017201	651.66	6.9447e-06	6.6482e-06	986.18	226.16	6.654e-06	5.8154e-06	455.96	191.53	86.356	39.165	9.3474e-06	98.005	0.0007992	0.00071728	0.0002234	623.53	7.0134e-06	8.5045e-06	945.15	217.58	7.0264e-06	8.1797e-06	438.64	185.38	83.564	37.976	8.4777e-06	95.202	-49.902	25.679	46.192	-43.503	91.688	99.822	-43.597	-38.472	132.937	88.078	-39.657	-35.523	-35.451	-31.062	106.860	-32.192	-8191	255	
853.875	1	1	0	0	0.20652	0.085685	0.050647	0.13472	0.18384	0.17457	0.15329	0.091372	0.055833	0.07871	0.10209	0.26292	0.21212	0.17167	0.035285	0.25537	-3.0625	-3.5917	-3.1646	-3.4958	-3.5667	-3.175	-3.7292	-3.5375	-3.2542	-3.4875	-3.4062	-3.4229	-3.5271	-3.2021	-3.4833	-3.3625	59.437	248.286	276.715	299.741	184.532	254.767	249.057	211.840	251.852	-18.091	-36.948	146.381	180.004	229.158	202.702	231.549	0.00073472	0.00065503	0.00024231	652.97	7.9714e-06	6.1337e-06	984.02	226.72	8.3003e-06	6.2309e-06	453.5	191.35	86.486	38.94	6.6641e-06	97.509	0.00083351	0.00074018	0.00021945	625.04	6.98e-06	8.288e-06	943.75	218.29	7.0523e-06	8.5749e-06	439.46	184.82	83.725	37.891	8.2204e-06	94.542	-47.430	8.521	19.288	-44.060	124.929	85.016	-43.447	-38.476	163.416	93.305	-39.415	-35.575	-35.172	-31.032	97.680	-32.177	-8191	255	
853.996	1	1	0	0	0.15321	0.095241	0.18921	0.12161	0.1577	0.13751	0.14423	0.11843	0.078871	0.0587	0.2026	0.25596	0.1629	0.13857	0.21969	0.14294	-2.8729	-3.5938	-3.1792	-3.5708	-3.3375	-3.4271	-3.6188	-3.4938	-3.2208	-3.5667	-3.2292	-3.375	-3.5292	-3.2542	-3.4083	-3.5146	277.394	270.312	203.539	86.901	203.721	-32.005	168.352	275.718	300.609	280.358	253.986	250.972	277.636	-12.610	203.949	-27.727	0.00072888	0.00069033	0.00024424	654.3	9.0585e-06	5.6049e-06	995.76	230.26	7.3172e-06	6.3738e-06	463.05	192.11	87.033	39.05	6.7342e-06	96.995	0.00081409	0.00077895	0.00021951	627.24	7.0808e-06	9.0073e-06	952.62	221.58	7.1664e-06	8.9891e-06	444.41	185.5	84.496	37.862	8.5207e-06	94.306	-48.532	20.532	34.751	-43.691	115.556	85.888	-43.500	-38.690	134.838	78.801	-39.635	-35.394	-34.889	-30.852	110.659	-32.258	-8191	255	
854.092	1	1	0	0	0.067117	0.16953	0.1286	0.048218	0.23119	0.21479	0.22008	0.066853	0.12589	0.31904	0.11075	0.097383	0.16458	0.14544	0.1287	0.12635	-2.8479	-3.5354	-3.1979	-3.3354	-3.7667	-3.1729	-3.7208	-3.5833	-3.3271	-3.4333	-3.3167	-3.3417	-3.6604	-3.3458	-3.6646	-3.425	182.596	268.172	-30.208	142.575	37.642	229.338	254.781	298.270	108.126	252.700	293.748	175.521	225.999	227.320	87.734	245.861	0.00068855	0.00059553	0.00019396	659.59	8.439e-06	5.4973e-06	997.76	231.24	5.243e-06	5.2153e-06	463.93	191.61	87.257	38.645	6.9034e-06	96.562	0.0008191	0.00077206	0.0002229	631.51	7.7528e-06	8.9278e-06	956.33	222.68	7.3965e-06	9.2293e-06	446.49	185.58	84.643	37.59	8.366e-06	93.773	-53.483	31.236	31.965	-43.748	128.242	82.143	-43.582	-38.743	138.236	96.102	-39.559	-35.280	-35.013	-31.083	129.781	-32.218	-8191	255	
854.188	1	1	0	0	0.23171	0.056076	0.22679	0.19547	0.31597	0.059131	0.16324	0.14545	0.089623	0.21308	0.11466	0.24694	0.2707	0.056668	0.1362	0.16495	-2.9146	-3.4083	-3.3187	-3.2667	-3.5833	-3.3146	-3.6125	-3.7417	-3.1875	-3.4771	-3.4792	-3.3896	-3.6208	-3.4	-3.4188	-3.7083	-6.300	289.057	55.529	59.023	84.980	13.208	75.709	-51.397	16.790	92.271	27.554	289.029	246.365	173.159	30.026	231.575	0.00070725	0.00070545	0.00012607	668.7	1.0321e-05	6.9617e-06	1011.6	236.39	4.5754e-06	7.9725e-06	470.18	192.11	88.205	38.698	9.2652e-06	96.945	0.0008332	0.00082885	0.00021603	642.11	7.5931e-06	9.4529e-06	968.6	227.34	7.8783e-06	9.2734e-06	452.68	185.92	85.107	37.575	8.1794e-06	94.245	-50.476	29.147	58.337	-43.717	135.455	88.162	-43.629	-38.630	154.706	78.843	-39.356	-35.358	-35.297	-30.915	116.770	-32.044	-8191	255	
854.284	1	1	0	0	0.061093	0.30268	0.15405	0.11495	0.04938	0.20083	0.23282	0.1351	0.084889	0.19388	0.035628	0.28686	0.078418	0.041532	0.13543	0.31183	-2.8146	-3.4542	-3.4437	-3.3063	-3.5479	-3.3708	-3.5583	-3.7	-3.3583	-3.4792	-3.4417	-3.2687	-3.525	-3.3333	-3.3375	-3.7875	250.862	-23.770	55.974	-38.482	223.435	281.549	-33.450	-24.738	223.027	1.730	252.877	253.573	196.219	125.082	210.955	290.033	0.00067519	0.00070499	0.00014489	668.43	4.857e-06	6.2232e-06	1002	234.07	8.3236e-06	6.5503e-06	465.14	191.42	87.023	38.357	9.378e-06	95.603	0.00084394	0.00081521	0.00021139	637.91	7.6318e-06	8.7169e-06	964.05	225.31	7.7812e-06	8.7151e-06	448.93	185.65	84.449	37.381	7.6703e-06	93.399	-51.631	56.352	28.272	-43.462	128.565	112.532	-43.616	-38.575	156.671	94.023	-39.053	-35.278	-35.073	-31.117	118.430	-32.183	-8191	255	
854.380	1	1	0	0	0.10772	0.069919	0.073247	0.032811	0.13089	0.21703	0.38415	0.18953	0.37251	0.12243	0.21495	0.24917	0.15179	0.13147	0.098484	0.28522	-2.7229	-3.4062	-3.3583	-3.2667	-3.6583	-3.3958	-3.4604	-3.6771	-3.2438	-3.5083	-3.4729	-3.2687	-3.5146	-3.3125	-3.35	-3.7396	155.862	122.042	104.686	-15.091	219.730	101.711	235.318	-33.098	-45.825	181.492	58.798	243.137	-49.885	68.088	105.837	227.581	0.00065999	0.00069693	0.00017246	660.71	6.9539e-06	4.9396e-06	1002.7	233.76	7.8215e-06	6.3718e-06	466	191.23	87.052	38.224	7.4646e-06	94.925	0.00086319	0.00078333	0.00020474	633.84	7.6285e-06	8.654e-06	961.39	224.94	8e-06	8.6521e-06	449.43	184.88	84.563	37.048	7.7972e-06	92.48	-46.525	41.511	31.523	-43.495	115.154	80.709	-43.563	-38.619	128.487	90.724	-39.362	-35.253	-35.238	-31.125	97.395	-32.103	-8191	255	
854.477	1	1	0	0	0.14935	0.18353	0.20273	0.046776	0.060821	0.057627	0.1435	0.24391	0.12712	0.045936	0.10229	0.16208	0.14661	0.17321	0.024857	0.25715	-2.9292	-3.3271	-3.1917	-3.1625	-3.5208	-3.3063	-3.3667	-3.6937	-3.125	-3.5312	-3.5771	-3.3375	-3.5229	-3.4042	-3.1229	-3.5521	175.269	-3.616	254.251	248.770	-18.461	257.835	258.670	259.004	226.829	284.737	251.010	-55.916	291.463	203.946	124.092	220.918	0.0006946	0.00054022	0.00014687	665.97	7.408e-06	5.0506e-06	1007.8	236.98	9.7216e-06	6.1125e-06	469.56	190.77	86.854	37.971	5.9838e-06	94.297	0.00082795	0.00076802	0.00021112	638.42	7.9223e-06	8.3453e-06	967.05	227.55	7.9641e-06	8.6647e-06	451.9	184.95	84.286	36.713	8.2453e-06	91.933	-51.288	47.344	46.515	-43.669	111.228	95.330	-43.703	-38.614	147.412	86.592	-39.349	-35.478	-35.324	-31.320	114.933	-32.093	-8191	255	
854.596	1	1	0	0	0.23521	0.10723	0.10609	0.071596	0.20392	0.031131	0.32076	0.40722	0.079841	0.16119	0.25133	0.31714	0.10748	0.35379	0.32867	0.23017	-2.9167	-3.3396	-3.5021	-3.2042	-3.6396	-3.4688	-3.2021	-3.6042	-3.3438	-3.3229	-3.5333	-3.2958	-3.4646	-3.5187	-3.3021	-3.5083	290.338	176.878	238.930	4.905	262.611	8.457	208.855	247.427	253.816	-52.176	200.015	-45.284	223.458	282.361	231.102	267.576	0.00068071	0.0006604	0.00011033	665.3	9.1294e-06	6.54e-06	1002.4	234.13	5.8754e-06	6.2363e-06	467.38	191.15	86.864	38.241	8.7178e-06	96.109	0.00084672	0.00074776	0.0002173	636.46	7.993e-06	8.1321e-06	962.69	225.29	7.5624e-06	8.4127e-06	449.15	185.37	84.429	37.137	8.056e-06	93.449	-50.023	38.125	36.261	-43.808	103.780	82.223	-43.707	-38.555	173.929	84.317	-39.620	-35.374	-35.314	-31.396	108.604	-32.254	-8191	255	
854.692	1	1	0	0	0.15021	0.12557	0.18326	0.10062	0.039208	0.2301	0.51621	0.13683	0.097385	0.053972	0.13815	0.31681	0.16451	0.252	0.24364	0.18346	-2.6312	-3.3063	-3.4479	-3.4625	-3.4083	-3.2938	-3.1937	-3.4188	-3.5104	-3.4417	-3.7542	-3.5417	-3.3583	-3.4	-3.1729	-3.5646	168.021	272.380	55.620	264.917	202.146	277.798	198.426	280.913	220.541	134.920	174.663	167.900	-19.534	212.532	-18.197	185.661	0.00073346	0.0006875	0.00019128	656.94	6.8412e-06	6.4449e-06	998.92	231.89	4.1327e-06	6.744e-06	462.94	190.21	86.427	38.042	7.4167e-06	95.039	0.00083605	0.00074338	0.00023013	630.34	7.444e-06	8.265e-06	957.34	222.95	7.3644e-06	8.6828e-06	446.32	184.48	83.586	36.895	8.6151e-06	92.487	-49.262	29.945	39.157	-43.525	107.641	90.991	-43.722	-38.481	167.319	107.008	-39.475	-35.342	-35.226	-30.957	127.324	-31.920	-8191	255	
854.788	1	1	0	0	0.078414	0.19068	0.077503	0.14627	0.17103	0.22373	0.27681	0.18115	0.054679	0.069138	0.22675	0.41384	0.15168	0.22805	0.18436	0.14603	-3.1125	-3.2938	-3.5792	-3.4771	-3.3	-3.5	-3.3187	-3.6562	-3.1167	-3.2167	-3.5	-3.4417	-3.5229	-3.5583	-3.1771	-3.6021	-20.589	239.763	266.491	264.364	-49.882	205.930	234.636	167.017	203.080	256.569	258.794	234.323	193.540	-48.258	52.425	250.631	0.00071388	0.00072017	0.00020463	654.58	8.4312e-06	7.6704e-06	994.08	230.25	5.7357e-06	7.1951e-06	465.5	190.77	86.647	38.064	9.8273e-06	95.154	0.00081015	0.00076899	0.00023555	625.91	7.4374e-06	8.592e-06	954.61	222.3	7.1651e-06	9.1773e-06	447.88	184.93	84.031	36.951	8.5388e-06	92.443	-45.533	15.197	19.512	-43.641	117.429	84.889	-43.724	-38.749	155.484	97.407	-39.506	-35.382	-35.144	-31.050	113.642	-32.185	-8191	255	
854.884	1	1	0	0	0.19408	0.33994	0.12653	0.11589	0.037395	0.085982	0.091998	0.13482	0.13527	0.10951	0.1887	0.10471	0.16146	0.14278	0.13245	0.17006	-2.9813	-3.1104	-3.5604	-3.425	-3.4521	-3.575	-3.4792	-3.525	-3.4417	-3.3937	-3.5167	-3.6104	-3.4813	-3.5354	-3.3042	-3.8396	190.130	102.253	160.675	247.958	266.737	141.178	199.622	207.440	-53.713	160.805	204.393	-27.541	105.218	244.510	229.111	246.227	0.00074366	0.00059959	0.00013641	667.72	9.7837e-06	4.9583e-06	1007.2	238.76	5.1971e-06	4.8974e-06	470.49	192.63	88.066	38.343	9.8864e-06	95.857	0.00078946	0.00081876	0.00024535	639.84	7.2751e-06	9.1187e-06	971.38	229.31	7.2042e-06	9.108e-06	455.35	186.24	85.191	37.29	8.6581e-06	93.33	-45.983	14.838	46.290	-43.636	120.249	107.674	-43.511	-38.620	168.747	92.216	-39.680	-35.546	-35.503	-31.165	108.991	-32.379	-8191	255	
854.980	1	1	0	0	0.20171	0.076918	0.13991	0.17022	0.10518	0.326	0.26536	0.088467	0.042161	0.21414	0.1832	0.12961	0.091651	0.15479	0.13325	0.13939	-3.2854	-3.125	-3.5479	-3.3667	-3.2375	-3.7521	-3.5708	-3.5458	-3.5542	-3.3396	-3.6333	-3.5604	-3.2479	-3.6042	-3.2833	-3.5438	229.345	90.328	-3.663	23.940	82.211	245.844	-44.774	175.743	183.209	263.148	131.793	283.646	61.747	229.672	-50.518	-3.000	0.00071043	0.00058637	0.00014838	667.76	8.0373e-06	4.9735e-06	1009.3	236.22	6.7535e-06	4.9254e-06	472.37	192.52	88.154	38.832	8.0329e-06	96.967	0.00080788	0.00082078	0.00023236	638.23	7.5185e-06	9.0837e-06	968.13	227.22	7.4199e-06	8.8726e-06	454.49	186.76	85.454	37.585	8.4562e-06	94.339	-49.137	23.412	28.373	-43.600	123.504	90.955	-43.441	-38.464	127.001	113.690	-39.539	-35.486	-35.230	-30.948	109.009	-32.222	-8191	255	
855.076	1	1	0	0	0.16886	0.084663	0.10183	0.39411	0.16126	0.15836	0.092764	0.12335	0.11165	0.090295	0.16571	0.14472	0.14603	0.03395	0.12679	0.23437	-3.2292	-3.1688	-3.4104	-3.5104	-3.2771	-3.7771	-3.5021	-3.5062	-3.4833	-3.1937	-3.4875	-3.5062	-3.1646	-3.575	-3.2687	-3.5167	49.672	60.735	8.604	-50.601	127.137	-13.230	-17.897	162.557	182.534	-54.151	96.196	208.252	53.668	171.150	156.146	280.684	0.0007212	0.00080575	0.00016729	667.29	7.7067e-06	4.9567e-06	1012.8	236.7	9.7163e-06	5.7816e-06	473.64	194.29	87.814	38.609	7.3429e-06	96.655	0.00083537	0.00083776	0.00021589	640.06	7.5958e-06	9.3169e-06	971.12	228.03	7.6286e-06	8.9088e-06	455.98	187.84	85.405	37.529	8.2155e-06	94.026	-46.914	32.542	29.854	-43.573	108.511	108.293	-43.627	-38.536	141.507	73.441	-39.183	-35.477	-35.469	-31.022	103.796	-32.017	-8191	255	
855.172	1	1	0	0	0.11864	0.10182	0.040142	0.1424	0.27236	0.039768	0.065053	0.2095	0.040884	0.1787	0.27198	0.16049	0.13608	0.30222	0.16321	0.10231	-3.075	-3.3292	-3.5062	-3.4813	-3.1667	-3.5271	-3.4604	-3.3229	-3.4083	-3.4125	-3.6771	-3.7208	-3.4062	-3.7167	-3.3729	-3.5771	-1.350	-48.353	-11.260	-25.682	-54.982	162.008	242.966	272.191	173.602	256.974	249.580	255.296	164.930	2.773	-37.507	272.733	0.00066511	0.00079072	0.00014838	666.48	5.8147e-06	5.2456e-06	1009.1	235.26	7.2617e-06	7.1142e-06	470.43	192.57	87.755	38.357	8.1247e-06	95.693	0.00085924	0.00081445	0.00020997	637.19	7.9445e-06	9.1514e-06	966.12	226.81	8.0221e-06	8.8403e-06	453	186.31	85.057	37.191	7.689e-06	93.053	-53.521	24.472	15.762	-43.447	113.539	101.390	-43.429	-38.726	175.830	92.055	-39.496	-35.367	-35.360	-30.941	96.909	-32.234	-8191	255	
855.269	1	1	0	0	0.20751	0.085931	0.2614	0.15648	0.075051	0.12953	0.026985	0.25658	0.1816	0.22388	0.12175	0.11665	0.061193	0.16584	0.38807	0.016811	-3.1354	-3.1917	-3.4188	-3.6	-3.2646	-3.6125	-3.4125	-3.3979	-3.6854	-3.1396	-3.2833	-3.7792	-3.3146	-3.8	-3.4417	-3.3771	119.245	158.252	100.733	265.752	280.623	193.117	154.838	-53.525	273.014	73.389	151.910	-43.684	215.660	263.172	262.053	-13.872	0.00075592	0.00057211	0.00015267	670.57	9.2131e-06	5.7742e-06	1012.2	238.19	5.3699e-06	4.8691e-06	470.2	193.09	88.374	38.663	5.4649e-06	96.657	0.00086003	0.00077609	0.00020809	640.15	8.0172e-06	9.0607e-06	971.13	229.04	7.7944e-06	8.4521e-06	453.95	186.8	85.107	37.574	7.404e-06	94.081	-47.727	27.789	42.821	-43.849	123.056	98.153	-43.747	-38.939	170.121	95.179	-39.687	-35.247	-35.354	-30.986	95.167	-32.320	-8191	255	
855.365	1	1	0	0	0.18628	0.18201	0.087582	0.23626	0.038328	0.075828	0.11595	0.11378	0.13351	0.13971	0.34548	0.33198	0.26933	0.049878	0.18271	0.1452	-3.2062	-3.2021	-3.3208	-3.5958	-3.1979	-3.3708	-3.4979	-3.3229	-3.5479	-3.2854	-3.2896	-3.6542	-3.2729	-3.2396	-3.4292	-3.3458	291.717	150.405	-23.161	258.135	-1.339	159.876	-0.563	272.851	264.656	225.806	256.773	263.222	291.889	277.266	-48.392	296.134	0.00067863	0.00065282	0.00016351	665.14	6.9607e-06	5.0895e-06	1007	234.55	6.5936e-06	5.3257e-06	467.94	193.24	88.072	38.949	6.3728e-06	97.332	0.00084425	0.00078862	0.00020934	635.55	8.0597e-06	8.2021e-06	963.21	225.94	7.79e-06	8.056e-06	450.86	187.6	85.184	37.841	7.886e-06	94.737	-44.585	33.977	22.894	-43.773	88.876	88.745	-43.891	-38.471	143.056	64.523	-39.793	-35.294	-35.597	-31.141	122.015	-32.259	-8191	255	
855.484	1	1	0	0	0.25984	0.40288	0.14013	0.098823	0.21398	0.028946	0.17123	0.29373	0.017378	0.14824	0.16872	0.14315	0.11811	0.32743	0.17133	0.20679	-3.2104	-3.0812	-3.275	-3.5833	-3.075	-3.3771	-3.6312	-3.1542	-3.55	-3.3521	-3.4313	-3.7021	-3.3625	-3.3625	-3.375	-3.3625	-25.727	233.140	150.578	204.025	190.881	41.192	161.683	-46.518	135.362	99.356	284.185	296.288	83.228	232.931	209.440	228.727	0.00065536	0.00058462	0.00015838	664.12	8.4695e-06	5.2453e-06	1006.5	235.96	7.0946e-06	4.2554e-06	468.72	193.55	88.249	38.763	8.5801e-06	97.166	0.00085969	0.00074087	0.0002128	636.58	7.851e-06	8.183e-06	964.9	226.76	7.5882e-06	8.1111e-06	452.8	187.5	85.27	37.749	8.3778e-06	94.733	-50.148	32.633	44.039	-43.637	101.128	65.135	-43.523	-38.653	150.692	93.701	-39.563	-35.475	-35.665	-31.011	99.841	-32.254	-8191	255	
855.557	1	1	0	0	0.21145	0.09422	0.10899	0.25727	0.26838	0.061528	0.041169	0.28178	0.068247	0.22865	0.25748	0.15754	0.045634	0.12705	0.057094	0.31558	-3.0271	-3.1125	-3.1979	-3.4854	-3.1875	-3.3729	-3.6229	-3.4417	-3.3104	-3.3542	-3.2292	-3.7729	-3.3833	-3.5125	-3.5146	-3.4125	254.412	138.674	184.793	275.308	-18.188	248.755	-23.441	240.038	-32.574	299.272	291.706	268.895	101.104	219.301	179.508	268.135	0.00069514	0.00043982	0.00012879	665.84	7.4893e-06	6.1063e-06	1006.4	235.12	7.4092e-06	4.6894e-06	470.53	191.94	87.508	38.512	1.0012e-05	95.545	0.00083231	0.00074832	0.00022008	637.39	7.618e-06	7.9634e-06	965.68	225.87	7.278e-06	7.9812e-06	451.2	185.54	84.712	37.303	8.7822e-06	92.947	-50.755	52.244	47.677	-43.686	96.641	113.695	-43.718	-38.754	141.682	100.810	-39.421	-35.769	-35.371	-31.077	115.195	-32.224	-8191	255	
855.676	1	1	0	0	0.18114	0.23387	0.35881	0.095174	0.14232	0.092932	0.14365	0.10759	0.11758	0.090109	0.11122	0.16837	0.11917	0.27063	0.3162	0.25703	-3.0792	-3.4333	-3.1479	-3.5917	-3.2167	-3.275	-3.7292	-3.2229	-3.4229	-3.3688	-3.2208	-3.7146	-3.2542	-3.4021	-3.5021	-3.3604	166.394	268.023	-51.677	102.500	-48.248	9.971	156.124	299.752	67.629	25.258	287.377	252.084	2.661	287.337	-52.642	247.284	0.00070543	0.00061912	0.00013769	666.1	6.155e-06	5.6824e-06	1007.4	237.76	5.0673e-06	5.9508e-06	470.93	192.47	87.781	38.482	1.1092e-05	96.112	0.00078788	0.00075312	0.00022072	637.47	7.2575e-06	8.6182e-06	966.92	227.61	7.278e-06	8.4521e-06	452.79	186.15	85.033	37.289	8.5679e-06	93.371	-48.863	43.058	43.413	-43.818	100.726	98.427	-43.557	-38.372	114.142	85.144	-39.218	-35.472	-35.370	-31.166	101.850	-32.354	-8191	255	
855.772	1	1	0	0	0.083262	0.22483	0.12914	0.34453	0.094425	0.064295	0.2114	0.18265	0.13077	0.16117	0.14459	0.13991	0.10277	0.29696	0.035347	0.30978	-3.1375	-3.5062	-3.1917	-3.6625	-3.4938	-3.1042	-3.6771	-3.475	-3.2417	-3.5271	-3.2604	-3.7021	-3.3937	-3.3375	-3.45	-3.3854	238.711	8.972	164.744	273.868	177.024	94.918	258.260	261.477	181.080	247.286	135.242	-35.310	211.148	297.507	223.527	267.310	0.00068478	0.00075931	0.00014412	669.43	8.6254e-06	5.2212e-06	1020	238.86	7.128e-06	5.1019e-06	477.24	193.12	88.887	39.058	1.1186e-05	96.874	0.00079447	0.00078264	0.0002208	643.33	7.0932e-06	8.4241e-06	975.3	230.11	7.005e-06	8.4986e-06	457.43	187.45	86.076	37.798	8.4298e-06	94.52	-45.359	27.080	46.494	-43.632	111.414	93.217	-43.575	-38.763	153.833	88.455	-39.761	-35.373	-35.345	-31.138	108.413	-32.239	-8191	255	
855.868	1	1	0	0	0.14805	0.10568	0.10248	0.4324	0.26114	0.14711	0.13589	0.37152	0.08933	0.0821	0.14559	0.23214	0.050508	0.12677	0.24642	0.27621	-3.075	-3.3438	-3.1229	-3.6896	-3.2938	-3.2313	-3.6021	-3.3917	-3.2979	-3.575	-3.2313	-3.7208	-3.5625	-3.4042	-3.4396	-3.4437	278.962	8.927	135.987	251.480	266.428	64.893	202.386	283.911	52.404	-43.008	-7.527	272.180	300.188	185.995	86.425	297.376	0.00072222	0.00060881	0.00015525	675.94	8.2095e-06	5.235e-06	1022.7	240.68	7.3934e-06	6.7961e-06	476.24	194.79	89.649	39.33	9.3485e-06	98.823	0.00081948	0.0007864	0.00021869	647.71	7.1344e-06	8.876e-06	978.81	230.85	7.0201e-06	8.8301e-06	459.33	188.95	86.529	38.231	8.0692e-06	96.023	-49.104	32.648	41.716	-43.837	117.023	86.342	-43.623	-38.713	155.599	69.797	-39.590	-35.232	-35.281	-31.217	81.651	-32.217	-8191	255	
855.964	1	1	0	0	0.26084	0.2047	0.081008	0.22658	0.17373	0.1122	0.045006	0.020012	0.19744	0.068588	0.078712	0.091991	0.14875	0.11365	0.081167	0.23003	-2.8875	-3.5312	-3.1625	-3.4188	-3.5125	-3.1958	-3.6292	-3.2958	-3.2042	-3.4708	-3.3708	-3.3854	-3.4	-3.2417	-3.3812	-3.5417	40.706	228.092	-31.222	162.423	204.337	-16.072	204.508	30.756	8.407	181.851	17.066	260.282	122.704	91.750	61.536	232.498	0.00068999	0.00070414	0.00012501	676.27	6.6953e-06	3.1556e-06	1024.4	239.21	6.5239e-06	5.339e-06	474.72	193.6	89.218	38.914	9.8929e-06	97.465	0.00082734	0.00077505	0.00020384	646.77	7.4282e-06	8.6421e-06	978.97	230.08	7.4394e-06	8.2214e-06	456.82	187.77	85.974	37.889	8.1149e-06	94.825	-48.214	27.791	35.744	-43.735	111.821	107.810	-43.574	-38.737	181.180	88.962	-39.324	-35.453	-35.553	-31.122	103.177	-32.477	-8191	255	
856.085	1	1	0	0	0.06064	0.24644	0.19817	0.10035	0.075165	0.27568	0.26531	0.022092	0.061191	0.15753	0.29004	0.28122	0.11218	0.18958	0.036132	0.39076	-2.85	-3.5542	-3.1271	-3.3792	-3.4167	-3.1333	-3.4792	-3.3604	-3.3458	-3.5312	-3.1604	-3.65	-3.4646	-3.2812	-3.4437	-3.4979	174.391	-35.714	145.737	-46.167	13.882	83.791	227.103	238.210	264.138	242.148	252.149	251.527	114.950	-34.734	48.746	244.804	0.00074897	0.00074446	0.00015096	673.37	8.0909e-06	5.8896e-06	1019	238.74	7.4904e-06	6.0922e-06	473.58	193.82	88.604	39	9.5591e-06	97.747	0.00085146	0.0007882	0.00020187	643.24	7.8765e-06	8.5808e-06	973.4	229.38	7.6639e-06	8.5891e-06	455.33	187.66	85.779	37.864	7.5267e-06	94.887	-49.910	33.511	30.801	-43.513	102.827	71.534	-43.794	-39.056	144.056	82.448	-39.453	-35.479	-35.429	-31.080	109.198	-32.452	-8191	255	
856.181	1	1	0	0	0.099704	0.11589	0.26072	0.20955	0.16786	0.33322	0.22368	0.081	0.046791	0.10052	0.22134	0.13998	0.088318	0.12131	0.17605	0.19415	-2.8604	-3.3896	-3.2021	-3.4875	-3.5208	-3.1813	-3.6792	-3.5458	-3.0708	-3.475	-3.3438	-3.4167	-3.6292	-3.1583	-3.5042	-3.6125	41.978	199.432	87.687	293.997	-17.376	85.256	208.456	294.815	57.557	17.547	286.709	20.683	104.237	-30.960	183.136	283.637	0.00068417	0.00092789	0.00016203	670.01	1.0108e-05	5.4077e-06	1014.1	237.21	6.3427e-06	6.9267e-06	471.51	194.16	88.696	39.219	7.0684e-06	98.093	0.00084264	0.0007976	0.00020467	641.18	8.0185e-06	8.4336e-06	970.41	228.07	7.8133e-06	8.3489e-06	454.52	188.35	85.685	38.053	7.8285e-06	95.522	-50.801	26.039	49.655	-43.636	114.861	106.999	-43.581	-38.627	149.586	77.621	-39.734	-35.318	-35.481	-31.092	116.596	-32.231	-8191	255	
856.253	1	1	0	0	0.073705	0.28197	0.092229	0.13855	0.16323	0.11462	0.25407	0.10977	0.17778	0.36496	0.10045	0.32859	0.21522	0.1811	0.17184	0.089954	-2.7667	-3.5646	-3.2458	-3.4167	-3.5687	-3.0917	-3.6083	-3.5708	-3.1208	-3.3604	-3.4062	-3.4771	-3.6188	-3.4167	-3.4875	-3.85	57.768	184.274	119.540	87.839	180.507	189.988	199.717	95.201	269.955	-12.654	238.118	266.033	242.989	275.055	-50.530	153.199	0.00072412	0.00076959	0.00013762	669.64	5.4172e-06	6.6441e-06	1019.3	238.13	1.0065e-05	6.5101e-06	474.77	195.03	89.015	39.522	1.0609e-05	98.765	0.0008447	0.00075326	0.00020132	641.88	7.7489e-06	8.2029e-06	975.53	229.68	7.6147e-06	7.9592e-06	456.92	189.33	86.083	38.287	8.083e-06	96.119	-48.317	29.803	50.916	-43.443	116.459	86.594	-43.575	-38.618	145.263	59.660	-39.525	-35.404	-35.374	-31.135	112.572	-32.142	-8191	255	
856.372	1	1	0	0	0.27394	0.2638	0.15229	0.22085	0.23041	0.37941	0.12376	0.15568	0.30679	0.075138	0.1339	0.2224	0.05108	0.23549	0.2105	0.18698	-2.7	-3.5812	-3.3063	-3.1229	-3.5229	-3.1333	-3.4542	-3.4458	-3.1208	-3.5292	-3.3792	-3.45	-3.6063	-3.2833	-3.3479	-3.5917	138.604	183.564	125.001	279.306	290.696	247.042	-42.876	198.385	1.993	33.352	280.742	228.828	67.218	281.227	72.637	245.109	0.00070315	0.00075405	0.00022783	671.67	5.5961e-06	5.4192e-06	1024.2	240.75	7.7317e-06	5.8599e-06	476.92	195.14	89.104	39.149	9.3118e-06	98.238	0.00084748	0.0007273	0.00021765	643.41	7.8889e-06	7.8926e-06	980.57	231.19	7.2938e-06	8.1844e-06	460.05	189.12	86.359	38.072	7.9693e-06	95.318	-51.956	23.459	19.856	-43.875	95.086	106.733	-43.542	-38.711	162.202	94.968	-39.201	-35.424	-35.302	-31.402	108.501	-32.211	-8191	255	
856.468	1	1	0	0	0.1762	0.17382	0.22058	0.12296	0.15864	0.016873	0.21767	0.16643	0.13819	0.1792	0.10601	0.29375	0.19777	0.3247	0.101	0.38692	-2.7521	-3.2521	-3.4458	-3.2875	-3.4562	-3.2687	-3.4479	-3.6813	-3.2271	-3.5104	-3.3708	-3.3812	-3.5833	-3.2792	-3.2313	-3.7687	143.371	-27.469	286.092	-38.094	301.980	299.840	-47.454	95.645	46.877	219.653	215.788	287.492	231.413	219.275	154.244	279.283	0.00072161	0.00073225	0.00018612	669.23	5.9581e-06	5.4179e-06	1011.5	238.53	6.6406e-06	6.009e-06	473.36	193.58	87.973	38.853	1.039e-05	96.939	0.0008306	0.00070879	0.00021513	641.39	7.1331e-06	7.9451e-06	969.24	228.55	7.4186e-06	7.6434e-06	453.75	186.88	85.132	37.655	8.5665e-06	94.44	-48.719	34.476	36.745	-43.543	110.149	95.399	-43.533	-38.671	150.118	88.133	-39.546	-35.391	-35.427	-31.079	114.444	-32.357	-8191	255	
856.564	1	1	0	0	0.13346	0.034707	0.094622	0.16595	0.23737	0.070335	0.10371	0.29361	0.12261	0.39576	0.24166	0.27681	0.1251	0.15039	0.1366	0.060224	-2.7687	-3.4271	-3.4104	-3.2396	-3.6167	-3.2208	-3.4896	-3.5271	-3.3292	-3.4188	-3.4479	-3.3417	-3.6104	-3.35	-3.3479	-3.7812	139.697	196.567	270.410	10.285	274.429	174.363	236.494	227.510	42.818	113.575	-21.676	222.821	-44.532	-11.673	159.016	63.927	0.00076482	0.00058335	0.0001455	662.99	7.9016e-06	5.5242e-06	1005.2	234.07	7.6688e-06	5.1961e-06	468.08	193.56	87.974	38.794	5.6609e-06	97.808	0.00081101	0.00073127	0.00022004	635.19	7.1462e-06	8.7336e-06	962.75	225.99	6.9533e-06	8.5718e-06	452.49	186.93	85.198	37.772	8.4763e-06	95.025	-48.276	53.352	40.049	-43.811	106.166	107.325	-43.651	-38.539	157.282	96.807	-39.354	-35.288	-35.394	-31.038	119.917	-32.288	-8191	255	
856.660	1	1	0	0	0.11917	0.18183	0.14757	0.11005	0.099762	0.049495	0.078209	0.12964	0.18425	0.037716	0.094277	0.32366	0.15141	0.12332	0.29076	0.2697	-2.9708	-3.3083	-3.45	-3.1854	-3.6083	-3.55	-3.3937	-3.7208	-3.2792	-3.4646	-3.5625	-3.4167	-3.6625	-3.5896	-3.1833	-3.7333	143.645	295.452	184.244	41.773	273.783	125.786	258.704	127.355	103.451	37.637	145.825	236.658	191.078	177.420	94.213	227.119	0.00073918	0.00062239	0.00020628	657.3	6.8512e-06	7.0634e-06	1002.1	231.73	7.2647e-06	6.6635e-06	466.26	193.39	87.56	39.02	9.3119e-06	98.081	0.00079022	0.00080498	0.00024087	630.8	7.2398e-06	8.7217e-06	958.41	223.3	6.9583e-06	8.9159e-06	448.3	186.88	84.718	37.872	8.5977e-06	95.35	-50.593	35.843	27.536	-43.795	108.209	100.564	-43.494	-38.356	138.662	107.871	-39.581	-35.445	-35.172	-31.306	91.657	-32.341	-8191	255	
856.781	1	1	0	0	0.1737	0.073185	0.067843	0.093002	0.090542	0.1153	0.28694	0.23934	0.19149	0.20413	0.12212	0.033582	0.23413	0.18977	0.088956	0.24285	-3.0021	-3.2896	-3.5667	-3.2938	-3.4	-3.4833	-3.3771	-3.6792	-3.2875	-3.2938	-3.5833	-3.3208	-3.3688	-3.5375	-3.3229	-3.7667	28.549	9.527	59.448	269.984	219.789	76.397	300.091	273.807	33.089	65.427	191.169	218.367	301.274	19.153	29.368	238.288	0.00078294	0.000537	0.00015185	656.13	7.3948e-06	4.9496e-06	1004.3	232.53	5.5877e-06	5.6985e-06	466.41	192.45	87.077	38.445	8.3599e-06	96.296	0.00080984	0.00080463	0.00023438	629.98	7.2555e-06	9.1339e-06	959.52	224.05	7.2622e-06	9.2293e-06	450.02	186.62	84.268	37.376	8.2641e-06	93.522	-50.757	25.634	20.193	-43.477	124.103	67.196	-43.115	-38.871	166.058	75.747	-39.338	-35.390	-35.458	-31.135	113.257	-32.069	-8191	255	
856.852	1	1	0	0	0.14837	0.24541	0.12092	0.32742	0.066777	0.083969	0.26295	0.18792	0.14979	0.16244	0.060912	0.14829	0.27262	0.1286	0.26222	0.098637	-3.1312	-3.1271	-3.4854	-3.3667	-3.4062	-3.5854	-3.4313	-3.65	-3.2375	-3.1958	-3.6583	-3.5354	-3.4396	-3.4146	-3.225	-3.8125	148.090	141.535	49.427	197.140	125.499	205.410	257.604	247.660	266.219	217.473	225.839	66.213	296.081	218.655	119.639	-47.866	0.00071947	0.00056578	0.00018803	654.22	8.3941e-06	6.9359e-06	1007.3	234.05	6.9544e-06	5.8623e-06	469.1	191.96	87.076	38.197	7.6162e-06	96.181	0.00082315	0.00080825	0.0002246	628.79	8.0473e-06	9.2978e-06	962.23	224.76	7.4356e-06	8.7537e-06	451.31	185.92	84.41	37.116	7.9852e-06	93.377	-48.096	38.854	22.935	-43.667	107.395	97.132	-43.658	-38.799	135.095	102.217	-39.475	-35.588	-35.247	-31.299	103.909	-32.277	-8191	255	
856.949	1	1	0	0	0.097581	0.12204	0.070698	0.044977	0.05699	0.032781	0.39102	0.26691	0.07217	0.098119	0.22454	0.032638	0.30768	0.07489	0.1558	0.33846	-2.9792	-3.3063	-3.6083	-3.3187	-3.1708	-3.3479	-3.2542	-3.5083	-3.4583	-3.2479	-3.6479	-3.25	-3.2938	-3.5875	-3.1688	-3.6896	129.846	22.407	104.904	191.956	88.986	-6.499	221.303	3.536	235.892	245.734	-23.265	195.113	-45.689	-28.105	119.816	192.101	0.0007224	0.00049411	0.00017996	667.84	7.8131e-06	5.5512e-06	1013	238.37	7.3451e-06	5.8586e-06	473.75	192.73	87.912	38.689	9.5521e-06	96.379	0.00083125	0.0008095	0.00021218	638.45	7.6723e-06	9.0877e-06	973.99	229.11	7.9464e-06	8.8663e-06	456.34	186.68	85.259	37.476	8.0359e-06	93.735	-52.681	47.517	40.550	-44.042	92.376	111.258	-43.342	-38.389	147.005	103.440	-39.426	-35.300	-35.318	-31.024	123.439	-32.122	-8191	255	
857.045	1	1	0	0	0.062172	0.031582	0.21807	0.1241	0.057918	0.098412	0.3685	0.26507	0.13777	0.11554	0.1321	0.15827	0.28732	0.17848	0.16696	0.27061	-3.0583	-3.3146	-3.5208	-3.2854	-3.325	-3.5083	-3.4458	-3.6542	-3.4083	-3.1667	-3.4313	-3.5229	-3.275	-3.5271	-3.1813	-3.4562	172.643	288.591	234.480	-27.722	183.556	277.012	266.659	270.756	63.422	0.561	238.755	-44.504	243.384	202.994	101.689	260.115	0.00071224	0.00058159	0.00012497	666.62	9.0001e-06	5.9426e-06	1016.4	235.45	5.9248e-06	6.6543e-06	468.39	191.91	87.179	38.277	7.1098e-06	96.254	0.0008438	0.00080693	0.00021034	638.28	8.1788e-06	9.2922e-06	971.35	226.8	8.2995e-06	9.0757e-06	452.44	185.58	84.398	37.124	8.1794e-06	93.476	-46.245	22.297	43.996	-43.645	90.607	103.956	-43.444	-38.610	128.050	93.306	-39.557	-35.449	-35.352	-30.865	87.300	-32.127	-8191	255	
857.165	1	1	0	0	0.21172	0.14468	0.23218	0.30568	0.1876	0.26223	0.034324	0.12411	0.068756	0.092548	0.24843	0.095138	0.094428	0.29762	0.19988	0.31292	-2.9	-2.9667	-3.4	-3.3021	-3.2667	-3.6271	-3.2375	-3.3292	-3.4938	-3.1271	-3.5667	-3.4604	-3.325	-3.7792	-3.2167	-3.4354	153.843	85.852	198.420	169.254	94.531	141.019	80.488	54.087	102.860	297.789	261.920	214.933	186.729	258.758	-48.508	205.255	0.00076735	0.00064907	0.00015193	661.52	5.5903e-06	5.8502e-06	1003.8	234.36	9.4442e-06	4.2997e-06	464.62	191.99	86.809	38.269	5.2861e-06	95.896	0.0008718	0.00077338	0.00020353	633.35	8.2109e-06	8.6731e-06	961.97	224.99	8.3607e-06	8.5883e-06	449.38	185.84	84.215	37.15	8.622e-06	93.181	-52.167	38.141	38.909	-43.974	89.591	81.549	-43.693	-38.557	160.886	63.660	-39.477	-35.136	-35.491	-31.100	116.629	-32.125	-8191	255	
857.262	1	1	0	0	0.22424	0.081296	0.2384	0.17084	0.1151	0.1594	0.21516	0.18696	0.10695	0.17233	0.14057	0.21581	0.088441	0.202	0.03094	0.25479	-3.0583	-3.1188	-3.3375	-3.4437	-3.2729	-3.6	-3.5062	-3.4562	-3.575	-3.3104	-3.5917	-3.5812	-3.2	-3.6417	-3.3708	-3.5521	194.294	89.298	232.660	17.584	36.342	-34.234	205.556	256.444	268.659	232.295	224.818	253.673	275.238	229.459	166.719	211.695	0.00066079	0.00051434	0.00017032	656.26	8.6199e-06	4.3378e-06	994.75	232.43	8.5674e-06	5.4748e-06	463.38	187.66	85.001	37.328	7.996e-06	93.487	0.00086511	0.00076496	0.00022262	628.96	7.7849e-06	8.5753e-06	954.01	223.81	7.8644e-06	8.3812e-06	445.27	181.69	82.716	36.144	8.452e-06	90.725	-48.102	16.955	40.538	-43.942	102.305	108.857	-43.524	-38.555	160.834	107.931	-39.720	-35.441	-35.549	-30.976	115.470	-32.444	-8191	255	
857.358	1	1	0	0	0.19503	0.25241	0.27209	0.25288	0.19249	0.12561	0.10604	0.37576	0.086909	0.0945	0.083086	0.22283	0.2567	0.15035	0.097677	0.29544	-3.1063	-3.2375	-3.3292	-3.5812	-3.3354	-3.3354	-3.3917	-3.4	-3.4771	-3.3208	-3.4458	-3.5187	-3.175	-3.5646	-3.2938	-3.475	285.919	42.493	248.123	261.095	28.396	181.353	42.370	213.197	165.922	-12.847	244.339	266.167	211.806	280.334	44.985	212.662	0.00070432	0.00057291	0.00015232	649.37	8.4089e-06	5.7085e-06	996.45	232.55	5.3888e-06	6.798e-06	467.79	189.13	86.502	37.734	7.5364e-06	94.607	0.00081742	0.00078333	0.00023021	623.08	7.5218e-06	8.6636e-06	955.65	224.63	7.7238e-06	8.2285e-06	450.02	183.39	83.824	36.567	8.7399e-06	91.866	-45.761	29.758	29.537	-43.743	108.337	99.392	-43.286	-38.555	131.763	85.884	-39.488	-35.656	-35.432	-31.019	93.928	-32.077	-8191	255	
857.454	1	1	0	0	0.19748	0.13598	0.053188	0.11531	0.11329	0.3128	0.25966	0.036478	0.16232	0.077646	0.22984	0.17776	0.20892	0.18934	0.24786	0.20188	-3.2021	-3.1771	-3.2438	-3.5458	-3.1833	-3.4938	-3.5104	-3.1813	-3.4167	-3.1979	-3.3375	-3.7417	-3.3333	-3.5854	-3.425	-3.45	29.224	262.401	8.885	206.818	-34.664	26.227	191.318	274.218	146.945	22.178	251.130	-49.848	262.534	-29.457	276.293	302.962	0.00070083	0.00060485	0.00017274	661.01	1.0811e-05	6.0054e-06	1008.1	234.74	7.0451e-06	5.9242e-06	469.36	192.11	87.74	38.219	5.4953e-06	96.414	0.00081842	0.00076544	0.00023455	633.35	7.5074e-06	8.6127e-06	965.86	227.38	7.3663e-06	8.5025e-06	453.8	185.87	84.783	37.208	8.1878e-06	93.639	-52.121	28.192	45.072	-43.716	105.630	83.729	-43.716	-38.836	137.453	81.583	-39.121	-35.471	-35.261	-30.911	106.617	-32.247	-8191	255	
857.548	1	1	0	0	0.14176	0.07887	0.28205	0.25016	0.23055	0.078203	0.17487	0.18434	0.13583	0.071606	0.15482	0.25888	0.18137	0.19624	0.12639	0.2146	-3.1604	-3.3354	-3.2938	-3.6167	-3.2896	-3.4625	-3.7313	-3.3146	-3.5979	-3.3292	-3.5417	-3.5979	-3.3021	-3.4417	-3.4562	-3.4437	35.293	146.548	123.715	210.874	117.094	31.256	199.595	-17.610	108.603	-55.857	220.165	238.279	298.563	200.389	168.501	301.165	0.00064231	0.00066129	0.00021542	668.66	8.2821e-06	6.6552e-06	1020.8	239	7.8377e-06	6.8043e-06	472.35	192.9	88.396	38.574	9.6827e-06	96.356	0.00079354	0.00078145	0.00022802	639.45	7.3144e-06	9.3352e-06	976.27	229.92	7.1424e-06	8.6584e-06	456.7	187.03	85.414	37.45	8.5443e-06	93.747	-50.438	21.280	27.896	-43.447	101.418	71.657	-43.625	-38.710	144.062	79.658	-39.524	-35.359	-35.387	-31.097	128.044	-32.313	-8191	255	
857.646	1	1	0	0	0.036921	0.17038	0.08609	0.11674	0.10582	0.19826	0.11388	0.20183	0.13055	0.21101	0.075842	0.011507	0.10643	0.16	0.10501	0.20321	-3.0917	-3.2125	-3.275	-3.5687	-3.1083	-3.4896	-3.5312	-3.3083	-3.5479	-3.2792	-3.2417	-3.8125	-3.4646	-3.525	-3.4458	-3.2979	271.745	257.598	-11.146	67.567	-15.147	143.455	288.157	276.274	165.385	-44.772	275.102	-19.825	281.951	259.562	59.166	-55.439	0.00071323	0.00080771	0.00017244	657.81	8.0104e-06	7.6669e-06	998.34	232.54	7.025e-06	4.8826e-06	462.65	188.63	85.169	37.251	9.1811e-06	93.273	0.00079797	0.00078737	0.00023252	631.36	7.8124e-06	9.2779e-06	958.89	224.07	7.8506e-06	9.1175e-06	445.74	182.8	82.494	36.178	8.5991e-06	90.409	-49.333	38.987	44.673	-43.803	110.745	84.512	-43.682	-38.636	145.954	97.775	-39.751	-35.527	-35.363	-30.993	102.257	-32.495	-8191	255	
857.765	1	1	0	0	0.10122	0.067803	0.15071	0.05637	0.1815	0.15956	0.3058	0.12503	0.099613	0.11036	0.10598	0.21032	0.16217	0.23788	0.16127	0.19402	-3.0687	-3.4521	-3.0604	-3.7521	-3.2938	-3.4229	-3.7313	-3.3354	-3.3854	-3.4	-3.1917	-3.6937	-3.3604	-3.3646	-3.3854	-3.4583	175.514	129.904	-3.891	63.396	80.380	172.612	-45.592	281.916	162.656	50.258	234.188	286.522	-26.098	240.144	61.394	200.915	0.00069219	0.00051157	0.00015654	642.22	6.7072e-06	4.4838e-06	975.72	226.58	6.0867e-06	5.4618e-06	450.62	183.74	83.161	35.757	5.952e-06	89.391	0.00081509	0.00084619	0.00023447	614.53	8.2082e-06	9.3988e-06	936.83	217.52	8.5139e-06	1.0146e-05	435.09	177.78	80.065	34.687	9.0631e-06	86.815	-53.783	32.565	46.877	-43.615	103.503	105.926	-43.828	-38.858	165.833	83.860	-39.509	-35.400	-35.399	-31.042	121.259	-32.082	-8191	255	
857.861	1	1	0	0	0.034634	0.13975	0.025659	0.063531	0.10396	0.14227	0.070755	0.10527	0.066901	0.1178	0.17938	0.39414	0.31518	0.074176	0.075702	0.1169	-2.9708	-3.525	-3.1521	-3.6375	-3.2042	-3.2583	-3.8167	-3.3979	-3.4125	-3.2083	-3.4	-3.7375	-3.5438	-3.2521	-3.4188	-3.2042	299.595	38.825	53.859	-55.462	97.875	291.392	148.342	293.888	202.460	83.434	54.132	288.683	-47.818	300.747	232.408	225.742	0.00067331	0.00068272	0.00016251	614.36	8.4978e-06	5.7659e-06	944.68	217.41	8.242e-06	4.6613e-06	442.66	181.3	80.752	34.82	5.3083e-06	88.09	0.00088552	0.00092519	0.00025088	590.26	9.4221e-06	1.0368e-05	905.77	208.62	9.1621e-06	1.0894e-05	426.08	175.38	78.274	33.867	9.342e-06	85.56	-53.676	27.851	45.460	-43.433	140.546	102.859	-43.443	-38.455	165.910	102.871	-39.588	-35.430	-35.433	-30.692	90.984	-32.131	-8191	255	
857.957	1	1	0	0	0.12417	0.19889	0.16857	0.36756	0.11875	0.10259	0.042962	0.050551	0.12799	0.2762	0.11061	0.088923	0.33092	0.12885	0.019932	0.24854	-2.9083	-3.3729	-3.1646	-3.4354	-3.4375	-3.3271	-3.6542	-3.2687	-3.1521	-3.5333	-3.25	-3.7438	-3.4271	-3.2896	-3.6458	-3.4875	148.267	104.098	-16.105	-34.062	-31.918	116.501	19.745	-6.077	107.151	104.165	66.631	302.509	253.621	264.119	290.280	221.440	0.00064013	0.00067364	0.00017348	601.92	8.7295e-06	6.4327e-06	934.86	213.3	9.1209e-06	6.6333e-06	442.76	183.62	81.476	35.288	6.6795e-06	89.677	0.00090124	0.00096674	0.00024952	578.1	9.3108e-06	1.046e-05	898.25	205.87	9.2056e-06	1.0256e-05	428.05	177.64	78.974	34.255	9.0715e-06	87.105	300.327	13.123	37.047	-43.722	142.661	102.469	-43.486	-38.583	164.933	108.072	-39.228	-35.360	-35.393	-30.726	141.046	-32.007	-8191	255	
858.078	1	1	0	0	0.026737	0.21172	0.10091	0.11491	0.16609	0.092862	0.07276	0.22321	0.12561	0.11213	0.081329	0.14423	0.20909	0.2999	0.1465	0.17719	-2.9562	-3.5208	-2.9688	-3.4771	-3.45	-3.1229	-3.75	-3.5187	-3.2708	-3.6417	-3.1125	-3.5854	-3.4375	-3.3729	-3.5042	-3.3937	236.504	29.237	205.452	276.987	-23.779	9.796	133.439	114.223	174.640	155.211	159.731	216.795	-46.427	280.023	36.070	244.867	0.00069279	0.00071834	0.0001479	623.22	3.1721e-06	4.397e-06	957	220.86	5.5334e-06	5.6646e-06	446.89	184.09	82.087	35.285	5.4295e-06	88.972	0.00089527	0.00094315	0.00024466	596.14	9.2029e-06	1.0068e-05	919.28	212.07	9.3292e-06	9.4545e-06	432.1	177.72	79.419	34.262	9.0125e-06	86.548	-52.029	7.909	56.730	-43.519	104.142	88.211	-43.498	-38.623	150.946	83.711	-39.591	-35.470	-35.310	-30.820	105.749	-31.853	-8191	255	
858.150	1	1	0	0	0.18853	0.26596	0.067975	0.41018	0.13327	0.17297	0.032105	0.32553	0.10585	0.21156	0.085622	0.099506	0.056024	0.14692	0.18139	0.15095	-2.7375	-3.425	-3.125	-3.4333	-3.4646	-3.0625	-3.6562	-3.3979	-3.1708	-3.5	-3.3583	-3.3958	-3.5042	-3.1562	-3.4354	-3.5563	74.363	-50.546	125.591	274.213	237.953	138.597	250.270	-12.748	178.142	-47.719	154.969	-23.497	8.384	-9.741	-14.155	182.325	0.00066389	0.0006235	0.00019038	620.08	7.8017e-06	8.1494e-06	960.93	223.46	7.0177e-06	6.4305e-06	449.58	183.79	83.584	35.754	1.0738e-05	89.946	0.00086978	0.0008283	0.00024036	595.51	8.9195e-06	9.079e-06	921.17	214.25	8.1469e-06	9.2238e-06	434.82	178.15	80.591	34.704	9.0701e-06	87.616	-51.103	41.697	25.066	-43.807	98.939	64.346	-43.490	-38.909	137.776	89.447	-39.783	-35.314	-35.560	-30.898	113.769	-32.318	-8191	255	
858.246	1	1	0	0	0.483	0.11481	0.094185	0.10263	0.26666	0.052185	0.28489	0.11531	0.31988	0.17442	0.28598	0.32382	0.24019	0.20281	0.17358	0.26827	-2.8604	-3.4958	-3.2917	-3.3604	-3.3583	-3.25	-3.6771	-3.4188	-3.2146	-3.5083	-3.3604	-3.4854	-3.7	-3.2708	-3.5312	-3.5479	301.998	-40.380	7.101	267.346	232.472	-53.708	300.417	274.621	212.943	58.580	214.493	282.932	-31.458	-46.318	205.370	270.102	0.00060043	0.00052661	0.00014796	634.66	8.4683e-06	7.0042e-06	980.69	226.03	8.6009e-06	4.7378e-06	457.79	186.36	84.507	36.194	5.9607e-06	91.506	0.00083622	0.00079983	0.00023868	608.25	8.0361e-06	8.8944e-06	936.73	217.73	7.8859e-06	8.4804e-06	441.09	180.37	81.381	35.098	8.8981e-06	88.873	-49.643	20.658	32.341	-43.678	115.142	97.475	-43.706	-38.715	124.184	88.899	-39.713	-35.765	-35.320	-31.204	89.844	-32.023	-8191	255	
858.342	1	1	0	0	0.23046	0.16536	0.13027	0.20085	0.15621	0.10207	0.1084	0.24267	0.22435	0.095225	0.082976	0.1112	0.16953	0.13891	0.18369	0.21491	-2.6063	-3.45	-3.1896	-3.4271	-3.4604	-3.2062	-3.5312	-3.5333	-3.0292	-3.5667	-3.3896	-3.3563	-3.6708	-3.2583	-3.35	-3.7104	54.642	252.097	40.154	259.620	115.859	180.590	29.256	226.468	300.841	3.915	186.456	230.224	275.504	222.601	136.717	185.465	0.00066505	0.00052426	0.00016841	645.33	5.443e-06	7.9618e-06	988.21	227.37	9.936e-06	7.8427e-06	458.6	187.49	84.453	36.61	5.4271e-06	92.351	0.00081773	0.00080213	0.00024324	616.66	7.3249e-06	9.0909e-06	945.72	219.34	7.7074e-06	9.5222e-06	443.07	181.51	81.757	35.518	9.2248e-06	89.621	-51.500	15.074	62.388	-43.687	122.887	77.682	-43.688	-39.100	155.616	94.057	-39.634	-35.410	-35.561	-30.980	91.874	-31.933	-8191	255	
858.461	1	1	0	0	0.12418	0.13906	0.22851	0.23846	0.20534	0.24862	0.26601	0.097221	0.1551	0.16838	0.2931	0.086205	0.19619	0.097681	0.16345	0.26538	-2.8646	-3.3812	-3.3104	-3.2875	-3.5438	-3.2854	-3.5479	-3.5333	-3.3458	-3.6333	-3.3646	-3.2729	-3.5812	-3.3063	-3.4458	-3.6562	301.903	216.915	-27.454	265.530	-3.903	193.081	238.505	33.131	254.618	237.441	277.270	249.963	-35.732	226.615	37.890	283.263	0.00065124	0.00081432	0.00018618	640.37	8.3885e-06	5.8919e-06	981.94	226.1	8.552e-06	8.4094e-06	457.15	184.76	82.259	35.641	5.1852e-06	89.74	0.00080792	0.00086442	0.00024261	615.15	7.7103e-06	9.2254e-06	940.6	217.67	7.7768e-06	9.571e-06	439.76	178.81	80.187	34.639	9.3191e-06	87.207	-51.923	16.477	29.162	-43.708	105.619	98.902	-43.498	-38.595	161.588	98.863	-39.305	-35.472	-35.187	-31.341	157.804	-32.204	-8191	255	
858.557	1	1	0	0	0.081091	0.073322	0.10448	0.35465	0.36292	0.24922	0.14742	0.16885	0.12809	0.091588	0.11183	0.12091	0.15592	0.13294	0.16762	0.2287	-2.7208	-3.4021	-3.3917	-3.3396	-3.6229	-3.3771	-3.4729	-3.6625	-3.0958	-3.4188	-3.4083	-3.1896	-3.7313	-3.4854	-3.1875	-3.9958	60.688	60.784	85.369	228.824	268.848	60.375	188.653	196.346	241.088	120.254	-12.978	187.691	32.266	262.924	245.552	204.600	0.00066808	0.00051887	0.00021995	623.44	5.7713e-06	5.113e-06	958.16	221.99	8.718e-06	6.2051e-06	445.68	181.45	81.882	35.059	8.7427e-06	88.584	0.00080469	0.00088461	0.00024232	598	7.9884e-06	9.7227e-06	917.33	213.09	7.9388e-06	1.001e-05	430.06	175.48	79.197	34.098	9.3108e-06	86.034	-52.759	32.092	46.721	-43.906	127.101	89.814	-43.474	-38.781	170.600	82.694	-39.595	-35.346	-35.256	-30.910	122.208	-32.059	-8191	255	
858.653	1	1	0	0	0.062107	0.24597	0.15034	0.20559	0.12605	0.13118	0.37308	0.12693	0.054308	0.15169	0.13545	0.21442	0.1111	0.20939	0.16795	0.24937	-2.8583	-3.4437	-3.3833	-3.0917	-3.5563	-3.3583	-3.4521	-3.775	-3.0667	-3.4583	-3.5125	-3.3646	-3.5854	-3.4021	-3.2896	-3.6458	142.569	67.690	150.352	15.761	28.274	270.883	249.467	220.826	-31.851	168.819	194.156	200.976	-28.232	25.050	265.246	249.909	0.00064927	0.0007712	0.00016884	616.03	6.3847e-06	5.3975e-06	948.48	219.4	7.3118e-06	6.1789e-06	442.06	181.61	81.505	35.298	1.0507e-05	89.667	0.00081746	0.00093744	0.0002566	592.25	8.0656e-06	1.0269e-05	908.15	211.22	8.2901e-06	9.7797e-06	427.6	176.19	78.981	34.333	9.1505e-06	86.856	-48.860	32.658	34.241	-43.598	111.138	98.694	-43.691	-38.591	140.041	112.576	-39.544	-35.519	-35.174	-30.902	99.214	-31.940	-8191	255	
858.726	1	1	0	0	0.33701	0.14917	0.16854	0.039854	0.17582	0.068037	0.079561	0.24237	0.15903	0.19469	0.22391	0.25037	0.26825	0.030187	0.093083	0.37277	-2.8354	-3.2771	-3.2292	-3.4146	-3.4979	-3.3021	-3.4375	-3.5312	-3.3688	-3.1875	-3.4542	-3.4167	-3.4521	-3.3438	-3.2687	-3.65	237.127	121.116	148.724	133.170	124.795	60.422	-53.583	292.489	63.424	206.156	302.567	292.768	-55.704	-40.429	81.580	221.843	0.00067563	0.00075245	0.00018931	621.05	6.9575e-06	6.9685e-06	961.17	222.63	7.5047e-06	7.2461e-06	447.23	183.29	82.259	35.621	4.0478e-06	89.829	0.00084669	0.00088565	0.00023266	596.05	8.9496e-06	9.7274e-06	919.83	213.8	8.6659e-06	1.0257e-05	432.5	177.48	79.72	34.623	8.6705e-06	87.655	-45.189	37.755	19.284	-43.671	129.201	102.630	-43.722	-38.816	130.889	87.080	-39.324	-35.482	-35.234	-30.923	125.484	-31.962	-8191	255	
858.845	1	1	0	0	0.066676	0.067678	0.080035	0.16721	0.2565	0.137	0.16585	0.040521	0.15211	0.10113	0.139	0.2915	0.18743	0.17249	0.24692	0.13367	-2.9604	-3.2375	-3.3271	-3.2292	-3.3875	-3.4875	-3.1917	-3.5729	-3.2667	-3.3375	-3.6562	-3.3104	-3.5833	-3.4833	-3.0729	-3.4583	63.414	275.532	208.273	-21.499	-29.561	167.539	90.418	226.529	261.989	37.175	239.664	264.325	288.250	-3.574	67.415	230.970	0.00069129	0.00053737	0.00017613	620.65	6.6485e-06	5.5847e-06	948.23	217.93	2.9568e-06	5.0087e-06	439.24	181.14	80.876	35.151	7.1963e-06	88.304	0.00086559	0.00090953	0.00024095	594.83	9.017e-06	1.0176e-05	910.42	210.01	8.9414e-06	9.8064e-06	423	175.22	78.351	34.15	8.6699e-06	85.916	-51.650	14.020	29.481	-43.576	89.893	61.289	-43.501	-38.706	149.876	88.831	-39.690	-35.346	-35.109	-30.952	86.232	-32.106	-8191	255	
858.942	1	1	0	0	0.22399	0.28886	0.24817	0.20575	0.15903	0.18185	0.35122	0.10687	0.12985	0.23493	0.15814	0.20212	0.18152	0.51866	0.12858	0.17923	-2.725	-3.2562	-3.5458	-3.4083	-3.3083	-3.35	-3.3271	-3.7104	-3.4437	-3.1854	-3.5625	-3.1708	-3.3875	-3.5917	-3.1792	-3.6271	63.941	202.624	100.271	222.168	261.634	111.478	260.365	-28.634	272.234	35.135	204.782	290.277	215.565	260.391	-55.973	277.777	0.00065988	0.00072543	0.00014338	590.5	6.3627e-06	5.6854e-06	914.88	212.61	5.0144e-06	5.273e-06	434.53	179.17	80.124	34.977	6.6816e-06	88.586	0.00088367	0.00087438	0.00022591	565.84	9.0596e-06	9.5389e-06	875.35	204.15	8.6886e-06	9.3057e-06	418.18	173.18	77.646	34.018	8.6962e-06	86.234	-51.233	26.809	49.285	-43.457	117.366	79.747	-43.593	-38.605	141.221	96.866	-39.369	-35.639	-35.145	-30.840	96.095	-32.055	-8191	255	
859.038	1	1	0	0	0.17809	0.31085	0.081054	0.21983	0.17361	0.084132	0.2708	0.22791	0.10075	0.20957	0.28049	0.12673	0.24664	0.13335	0.09016	0.17151	-2.85	-3.2104	-3.6813	-3.325	-3.2938	-3.6312	-3.275	-3.5979	-3.3688	-3.2479	-3.5042	-3.3854	-3.3833	-3.6583	-3.2729	-3.6625	178.009	-22.421	-37.061	259.859	-3.492	295.629	199.957	269.566	40.014	301.154	250.509	89.609	0.946	-27.140	138.182	250.649	0.00064529	0.00061805	0.00012849	608.29	8.2592e-06	5.1477e-06	946.02	222.89	8.7706e-06	6.1664e-06	451.28	183.81	82.903	35.992	6.5966e-06	90.916	0.00084109	0.00080776	0.0002279	582.79	8.1297e-06	8.9954e-06	907.25	214.08	8.3481e-06	8.4529e-06	435.16	177.89	80.371	34.98	8.5228e-06	88.691	-47.661	39.574	46.125	-43.782	104.339	119.636	-43.802	-38.587	141.251	93.261	-39.618	-35.574	-35.738	-31.054	111.802	-32.098	-8191	255	
859.158	1	1	0	0	0.069774	0.15349	0.098016	0.16243	0.12862	0.063225	0.34096	0.23171	0.088001	0.17227	0.08439	0.11396	0.21088	0.27905	0.083479	0.52817	-3.0708	-3.3438	-3.4646	-3.4167	-3.275	-3.4625	-3.4833	-3.6958	-3.3979	-3.2458	-3.5083	-3.5479	-3.3167	-3.5729	-3.4833	-3.4188	168.353	-23.383	39.991	214.226	140.033	264.818	204.188	228.666	30.211	154.349	70.644	19.280	8.094	268.464	206.180	263.050	0.00066705	0.00088965	0.00017444	643.4	4.0094e-06	5.4615e-06	988.99	232.31	1.2204e-05	5.3821e-06	463.36	189	85.712	37.495	8.0394e-06	94.256	0.00084881	0.00077616	0.00023109	614.34	7.9877e-06	9.0217e-06	947.95	223.17	7.976e-06	8.6348e-06	449.49	183.03	83.009	36.228	8.4243e-06	91.667	-50.970	19.745	31.896	-43.391	136.985	94.096	-43.598	-38.947	138.005	89.415	-39.459	-35.597	-35.111	-31.116	100.970	-32.190	-8191	255	
859.254	1	1	0	0	0.10294	0.064587	0.067357	0.019799	0.31758	0.064332	0.43304	0.16112	0.071364	0.094694	0.14191	0.14933	0.064297	0.076467	0.37541	0.12822	-3.1208	-3.225	-3.4833	-3.4542	-3.1875	-3.6167	-3.375	-3.6	-3.5833	-3.0938	-3.5604	-3.575	-3.2333	-3.7208	-3.2542	-3.6125	36.983	60.671	280.849	41.051	67.199	113.650	204.836	173.325	-28.627	184.442	-7.704	280.127	281.219	65.318	298.925	-26.605	0.00072489	0.00056279	0.00015052	654.61	9.0306e-06	5.0233e-06	1004.8	235.19	3.8378e-06	5.8066e-06	472.45	189.32	86.206	37.218	8.0241e-06	93.301	0.00080589	0.00077073	0.00023066	626.14	7.5356e-06	8.5888e-06	961.03	226.51	7.6677e-06	8.8182e-06	453.47	183.37	83.321	36.176	9.2796e-06	90.698	-48.795	31.583	26.620	-43.783	125.691	83.676	-43.757	-38.762	133.499	93.807	-39.751	-35.223	-35.470	-31.196	117.626	-32.464	-8191	255	
859.349	1	1	0	0	0.085704	0.16339	0.36247	0.1343	0.13004	0.28982	0.23353	0.21059	0.17183	0.21268	0.33608	0.050311	0.18809	0.030322	0.14505	0.086342	-3.0812	-3.2083	-3.6146	-3.4521	-3.3458	-3.4583	-3.4229	-3.4813	-3.4979	-3.3104	-3.6937	-3.7458	-3.3063	-3.5958	-3.2979	-3.5229	22.102	206.883	73.055	-21.041	-34.130	15.333	291.007	249.492	-8.404	-51.540	16.557	189.702	211.814	160.931	164.751	261.121	0.00068062	0.00056299	0.00018357	621.1	8.2925e-06	3.2709e-06	928.81	213.61	5.5427e-06	5.7378e-06	429.83	179.97	79.549	35.127	4.8896e-06	88.722	0.00080648	0.00085217	0.00025036	593.97	7.8451e-06	1.0348e-05	891.58	206.24	7.988e-06	1.0088e-05	414.34	174.06	77.197	34.226	1.0179e-05	86.222	-50.506	23.602	52.763	-43.789	115.982	92.854	-43.585	-38.523	153.199	87.228	-39.102	-35.558	-35.480	-31.109	113.763	-32.141	-8191	255	
859.447	1	1	0	0	0.13459	0.07693	0.15994	0.18357	0.12261	0.23353	0.057895	0.13866	0.045615	0.14705	0.35562	0.41422	0.11059	0.33019	0.3398	0.1764	-3.2604	-3.2292	-3.4396	-3.5771	-3.1813	-3.5083	-3.2896	-3.2333	-3.5458	-3.3208	-3.3646	-3.6854	-3.2625	-3.6292	-3.2896	-3.5854	272.803	38.100	288.890	301.815	13.296	-9.077	282.484	260.043	101.661	168.370	230.536	258.402	237.551	-35.540	83.864	-38.066	0.000602	0.00062145	9.8463e-05	598.94	6.1506e-06	6.8837e-06	938.63	219.04	4.4883e-06	6.4837e-06	444.72	179.43	80.808	35.092	7.4953e-06	88.138	0.00086847	0.0009854	0.00028826	571.79	9.4751e-06	1.143e-05	897	210.53	9.1445e-06	1.1497e-05	429.75	173.67	78.438	33.977	1.1071e-05	85.498	-53.684	29.104	17.191	-43.819	93.414	101.757	-43.796	-38.825	154.414	114.619	-39.586	-35.439	-35.056	-30.892	109.669	-32.302	-8191	255	
859.541	1	1	0	0	0.12888	0.19843	0.20714	0.064111	0.19878	0.15826	0.38449	0.17374	0.3237	0.15861	0.20435	0.29343	0.13394	0.13372	0.070882	0.078638	-3.2687	-3.2792	-3.3854	-3.5354	-3.0938	-3.3271	-3.5396	-3.3625	-3.4062	-3.3438	-3.2438	-3.6396	-3.1146	-3.4167	-3.4479	-3.2625	1.482	279.802	112.600	55.800	-36.601	27.468	-35.906	264.865	3.577	273.653	200.457	-48.274	255.236	-28.573	36.135	279.940	0.0006577	0.00084041	0.00012225	628.39	3.1026e-06	6.151e-06	974	225.77	7.2292e-06	7.9289e-06	447.37	177.67	80.855	34.956	7.4735e-06	87.422	0.00092415	0.001084	0.00029839	604.34	9.8926e-06	1.2528e-05	930.51	217.68	1.0276e-05	1.2636e-05	433.01	172.67	78.222	33.789	1.1418e-05	84.866	-55.476	34.351	30.976	-43.792	104.636	63.553	-43.596	-38.665	141.842	72.819	-39.958	-35.330	-35.256	-30.864	139.663	-32.143	-8191	255	
859.637	1	1	0	0	0.072278	0.16456	0.23917	0.27105	0.16735	0.047424	0.14608	0.30282	0.041012	0.11608	0.093303	0.14682	0.19834	0.13842	0.10599	0.085595	-3.1958	-3.2979	-3.2083	-3.5208	-3.1562	-3.5896	-3.4521	-3.3229	-3.3438	-3.45	-3.3792	-3.6396	-3.2271	-3.3563	-3.4271	-3.1417	57.626	199.696	14.637	157.488	115.387	45.794	123.452	168.095	211.526	-12.166	51.664	247.159	-38.897	-25.022	-1.626	222.508	0.00060014	0.00093195	0.00018196	619.69	7.7263e-06	5.7019e-06	954.56	221.96	8.6724e-06	5.1589e-06	442.02	176.52	78.819	33.88	1.0183e-05	84.701	0.00099939	0.0011976	0.0003166	597.36	1.1503e-05	1.3837e-05	919.72	212.97	1.1609e-05	1.4317e-05	427.56	170.9	76.664	32.907	1.1919e-05	82.163	-53.418	8.463	58.977	-43.544	125.695	102.584	-43.586	-38.839	159.441	94.566	-39.347	-35.474	-35.266	-31.205	119.221	-32.061	-8191	255	
859.758	1	1	0	0	0.16797	0.055263	0.16988	0.081119	0.18488	0.13563	0.24242	0.13698	0.10886	0.17442	0.2263	0.15769	0.080034	0.17837	0.055905	0.2277	-2.9917	-3.2333	-2.9333	-3.3896	-3.1208	-3.1979	-3.4813	-3.0583	-3.5646	-3.2146	-3.325	-3.6833	-3.3208	-3.3167	-3.5292	-3.2458	70.515	137.740	6.212	73.540	249.738	229.605	212.078	274.308	204.311	128.828	-39.897	143.849	127.132	203.540	-49.967	284.408	0.00071427	0.000204	0.00018993	623.15	3.1365e-06	5.3633e-06	958.14	220.12	6.3729e-06	6.7663e-06	435.22	168.2	76.735	32.873	6.2129e-06	83.887	0.0010153	0.0012871	0.00033663	594.97	1.2528e-05	1.4297e-05	916.89	211.56	1.2152e-05	1.3664e-05	420.92	163.23	74.43	31.959	1.0749e-05	81.322	-51.165	32.036	38.257	-43.519	98.016	86.645	-43.657	-39.013	144.468	42.801	-39.794	-35.440	-35.408	-30.460	105.760	-31.836	-8191	255	
859.854	1	1	0	0	0.056804	0.085362	0.15052	0.19191	0.11208	0.069511	0.061757	0.067724	0.20685	0.19543	0.21173	0.090962	0.1399	0.024682	0.14827	0.23718	-2.9313	-3.2104	-2.9938	-3.4562	-3.2188	-3.1396	-3.6333	-3.3604	-3.5854	-3.5563	-3.2167	-3.5958	-3.2958	-3.3042	-3.5146	-3.3167	52.613	44.633	47.040	-32.130	195.596	-10.660	230.382	93.031	152.118	-29.379	266.972	253.761	235.988	279.806	14.724	279.458	0.00063065	0.00059409	0.00020225	636.02	5.8178e-06	4.8743e-06	973.28	224.09	5.2812e-06	7.5958e-06	443.22	172.38	77.831	33.349	8.5527e-06	83.945	0.00096622	0.001142	0.00031361	609.08	1.1347e-05	1.3092e-05	936.94	215.3	1.1334e-05	1.237e-05	429.39	166.99	75.635	32.401	1.1732e-05	81.769	-44.589	29.992	28.628	-43.917	109.362	82.182	-43.781	-38.767	174.166	83.438	-39.779	-35.483	-35.092	-30.729	134.030	-31.794	-8191	255	
859.950	1	1	0	0	0.14413	0.17798	0.054946	0.25267	0.1918	0.10626	0.25024	0.072937	0.23529	0.12763	0.075816	0.22573	0.2312	0.26127	0.2611	0.072261	-2.9708	-3.325	-3.0875	-3.6292	-3.3146	-3.3333	-3.6979	-3.1479	-3.375	-3.4604	-3.2354	-3.675	-3.3958	-3.2333	-3.5229	-3.4125	166.719	5.422	149.471	246.175	130.693	79.610	250.933	-28.229	279.970	139.732	240.122	287.939	-11.226	166.352	78.476	180.716	0.0005886	0.00089497	0.00013361	638.54	4.9741e-06	4.5957e-06	974.06	223.1	5.7193e-06	5.7544e-06	440.7	170.82	77.157	32.9	7.578e-06	83.141	0.00098735	0.0011206	0.00031999	610.03	1.1913e-05	1.2857e-05	935.4	214.84	1.1249e-05	1.3058e-05	426.99	165.61	74.965	31.92	1.3319e-05	80.948	-50.278	24.852	30.932	-43.545	110.404	74.060	-43.877	-38.586	143.725	95.782	-39.455	-35.339	-35.258	-31.206	107.531	-31.989	-8191	255	
860.022	1	1	0	0	0.24567	0.20419	0.3264	0.32105	0.066799	0.11483	0.076174	0.35358	0.28087	0.2904	0.14372	0.30617	0.1932	0.11877	0.23267	0.1284	-2.7708	-3.3583	-3.1729	-3.4396	-3.3312	-3.2708	-3.7042	-3.25	-3.1521	-3.5229	-3.2979	-3.5042	-3.4479	-3.1229	-3.5938	-3.3542	282.885	57.030	270.169	285.459	279.376	41.818	21.775	276.652	30.184	10.590	3.616	257.000	-38.225	214.754	251.792	223.708	0.00062663	0.00044043	0.00012348	623.75	7.6264e-06	4.627e-06	960.8	217.47	5.3241e-06	4.9194e-06	432.29	167.98	75.786	32.294	5.228e-06	82.019	0.0010584	0.0013016	0.00036593	600.51	1.3244e-05	1.4799e-05	920.93	210.25	1.3357e-05	1.6008e-05	418.62	163.12	73.746	31.449	1.7442e-05	79.84	-47.895	8.769	25.524	-43.653	101.733	118.115	-43.799	-38.763	146.513	88.010	-39.566	-35.376	-35.196	-30.537	114.780	-32.009	-8191	255	
860.143	1	1	0	0	0.045892	0.21208	0.04147	0.13533	0.089108	0.044843	0.138	0.19894	0.19443	0.10352	0.03497	0.186	0.34219	0.085554	0.21655	0.22595	-2.9208	-3.3625	-3.3458	-3.4417	-3.375	-3.2687	-3.5042	-3.325	-3.3521	-3.5187	-3.2396	-3.6917	-3.3896	-3.3083	-3.4604	-3.4062	178.492	128.657	51.691	169.478	299.623	127.343	261.604	219.909	-50.655	128.766	101.621	199.076	11.858	175.645	130.197	240.131	0.00061158	0.000278	0.00018007	582.05	6.6919e-06	4.0944e-06	867.43	195.04	9.9653e-06	5.64e-06	400.89	164.05	71.87	30.125	1.0083e-05	76.837	0.0012062	0.0017332	0.00054329	558.89	1.785e-05	2.1805e-05	834.42	189.24	2.003e-05	2.5978e-05	391.06	159.5	70.396	29.549	2.7586e-05	75.336	-52.864	3.140	12.800	-43.752	126.192	116.435	-43.445	-39.038	99.287	94.905	-39.697	-35.419	-35.920	-30.616	109.891	-31.623	-8191	255	
860.239	1	1	0	0	0.20424	0.18442	0.22907	0.19039	0.066693	0.23157	0.060633	0.11149	0.20529	0.1679	0.22825	0.16325	0.18937	0.070023	0.046939	0.19474	-2.8896	-3.5792	-3.1813	-3.4979	-3.5271	-3.1792	-3.6688	-3.4667	-3.2667	-3.7	-3.3979	-3.5229	-3.325	-3.2812	-3.5083	-3.5229	218.256	48.960	29.102	11.090	221.173	46.541	190.840	-51.194	51.976	94.434	165.785	300.490	288.775	96.970	-2.648	205.819	0.00057908	0.00052492	9.0157e-05	482.77	6.3768e-06	4.6289e-06	778.12	173.88	5.4328e-06	3.4522e-06	383.17	157.59	68.217	28.682	4.1385e-06	75.168	0.0015984	0.002643	0.00076292	467.49	2.4117e-05	3.0508e-05	749.47	168.78	2.391e-05	3.0993e-05	374.11	153.51	66.869	28.08	2.7597e-05	73.344	-52.054	48.030	11.467	-43.379	100.996	76.977	-43.592	-38.824	167.355	94.741	-39.989	-35.614	-35.686	-30.914	45.099	-32.060	-8191	255	
860.335	1	1	0	0	0.11441	0.23969	0.19162	0.2836	0.098273	0.058533	0.080158	0.21741	0.16032	0.2975	0.13637	0.033363	0.23166	0.15002	0.18074	0.14219	-3.0458	-3.4792	-3.1583	-3.375	-3.475	-3.1833	-3.7146	-3.5542	-3.2333	-3.5312	-3.3854	-3.4875	-3.5167	-3.2083	-3.6833	-3.5812	267.082	13.103	136.024	11.863	266.142	-54.341	178.090	202.895	61.611	101.627	-27.502	137.083	-43.611	236.545	39.522	247.570	0.0005684	0.00040843	7.738e-05	477.88	7.9028e-06	9.3324e-06	797.79	182.56	6.8366e-06	2.6795e-06	397.97	160.35	70.352	29.348	7.2422e-06	75.802	0.0015797	0.0028379	0.00079236	463.19	2.5583e-05	3.3034e-05	768.48	177.21	2.7143e-05	3.684e-05	390.31	156.05	69.429	28.873	3.4594e-05	74.045	298.457	16.030	36.579	-43.296	124.003	80.406	-43.426	-39.274	212.978	77.410	-39.985	-35.742	-35.385	-30.896	92.357	-31.614	-8191	255	
860.431	1	1	0	0	0.08206	0.059385	0.11447	0.096893	0.18505	0.13075	0.083435	0.059251	0.34475	0.15822	0.04713	0.28269	0.1945	0.23748	0.063008	0.25621	-2.6896	-3.4896	-3.2375	-3.3792	-3.5125	-3.1521	-3.4896	-3.3688	-3.0458	-3.4729	-3.5438	-3.5062	-3.5021	-3.3875	-3.4417	-3.575	64.146	17.123	78.775	203.287	-30.866	301.260	290.950	222.092	-39.373	236.973	5.290	240.220	154.206	-54.812	83.232	223.620	0.00061354	0.00097477	0.00020662	527.16	4.7009e-06	6.0185e-06	839.56	192.2	5.7512e-06	3.303e-06	404.88	167.62	75.195	32.661	8.2691e-06	82.599	0.0020024	0.0036329	0.00098149	512.43	3.3028e-05	3.9694e-05	813.62	186.16	2.8841e-05	3.5547e-05	394.85	162.64	73.303	31.91	2.8527e-05	80.772	294.800	40.769	80.124	-43.633	160.566	91.130	-43.635	-38.806	142.034	-6.780	-39.586	-35.689	-35.061	-31.152	163.699	-32.189	-8191	255	
860.527	1	1	0	0	0.25822	0.18395	0.15472	0.15234	0.19293	0.19227	0.25597	0.10242	0.17858	0.29581	0.080697	0.22094	0.13851	0.076685	0.086746	0.24562	-2.5854	-3.3729	-3.3042	-3.2062	-3.5208	-3.3542	-3.4437	-3.4167	-3.2479	-3.6208	-3.3	-3.3896	-3.6396	-3.4417	-3.3146	-3.7229	79.574	7.307	29.647	148.466	65.385	-14.899	216.041	241.916	236.908	9.518	113.227	279.233	288.946	20.611	13.151	246.818	0.00060095	0.00068991	0.00015237	567.94	1.1389e-05	5.8673e-06	873.87	199.84	3.3882e-06	5.3607e-06	408.9	170.14	75.073	32.438	8.4687e-06	81.7	0.0018115	0.0029243	0.00077065	550.82	2.6657e-05	3.0963e-05	843.2	193.35	2.4149e-05	2.9922e-05	397.24	165.5	73.257	31.868	2.6753e-05	79.719	-53.387	38.815	29.483	-43.551	77.623	85.833	-43.594	-38.677	94.621	117.644	-39.369	-35.540	-35.420	-31.159	122.838	-32.005	-8191	255	
860.622	1	1	0	0	0.2116	0.034156	0.017314	0.21411	0.061143	0.15151	0.1079	0.11451	0.26659	0.17546	0.40285	0.14452	0.1222	0.21392	0.3296	0.10334	-2.9188	-3.5021	-3.35	-3.2333	-3.5625	-3.3458	-3.4333	-3.6146	-3.0333	-3.4729	-3.3833	-3.3312	-3.4104	-3.1167	-3.1958	-3.55	90.917	140.946	72.090	-56.037	204.197	48.256	238.493	77.894	219.543	237.896	300.034	175.038	14.596	251.932	-51.866	212.441	0.00066325	0.00049528	0.00013764	526.37	7.6503e-06	3.7943e-06	827.34	188.98	4.6044e-06	8.0779e-06	393.9	163.93	73.094	31.752	5.3399e-06	81.842	0.001767	0.0029027	0.00077247	509.63	2.8553e-05	3.4931e-05	801.99	183.04	3.19e-05	4.071e-05	385.74	160.61	71.908	31.243	3.5278e-05	80.345	-53.984	46.619	40.596	-43.666	144.248	64.855	-43.625	-38.678	213.006	71.025	-39.414	-35.419	-35.556	-30.757	159.430	-31.982	-8191	255	
860.719	1	1	0	0	0.21675	0.2383	0.039723	0.062976	0.028597	0.25847	0.17452	0.083684	0.14208	0.088051	0.12529	0.07321	0.31236	0.11321	0.18418	0.19578	-2.6917	-3.3812	-3.5	-3.0708	-3.5208	-3.2292	-3.2938	-3.5354	-3.1813	-3.3083	-3.5229	-3.1562	-3.5542	-3.3208	-3.3083	-3.8021	153.574	121.458	-21.533	-8.861	222.119	205.234	245.127	159.849	246.829	122.978	4.021	253.984	241.663	86.520	-29.163	258.114	0.0006422	0.00088787	0.00021253	560	3.5357e-06	2.8761e-06	872.22	199.01	3.9321e-06	6.3821e-06	393.46	162.99	73.176	33.766	1.1661e-05	84.839	0.0020994	0.0034413	0.00095249	545.71	3.6327e-05	4.5217e-05	848.22	194.97	5.3138e-05	7.4978e-05	393.43	160.58	74.491	34.306	0.00012597	84.667	-47.014	21.711	37.664	-43.423	97.002	99.642	-43.450	-38.316	173.804	63.737	-39.288	-35.026	-35.023	-31.422	108.139	-32.426	-8191	255	
860.838	1	1	0	0	0.1494	0.50593	0.23521	0.036214	0.059445	0.030689	0.16833	0.11858	0.11929	0.19254	0.026115	0.29428	0.21257	0.14611	0.28328	0.2021	-2.8792	-3.1604	-3.3146	-3.1229	-3.4333	-3.3854	-3.3146	-3.6271	-3.2625	-3.1813	-3.4562	-3.2021	-3.4938	-3.4208	-3.1604	-3.6063	262.464	277.258	75.452	302.169	235.550	-22.207	245.209	295.574	103.445	251.709	-49.747	-43.029	290.131	187.730	98.587	290.056	0.00063694	0.0013907	0.00023149	593.11	2.7482e-06	5.6237e-06	880.68	196.64	1.4219e-05	7.9342e-06	400.23	172.18	77.367	37.072	6.195e-06	94.624	0.0069448	0.012433	0.0032575	591.67	8.812e-05	8.7737e-05	857.59	192.57	4.9749e-05	5.3772e-05	394.51	168.66	75.83	36.191	3.3946e-05	92.195	-55.813	54.868	47.264	-43.478	92.695	67.975	-43.356	-38.201	165.921	114.072	-39.017	-35.068	-34.881	-31.148	94.373	-31.974	-8191	255	
860.934	1	1	0	0	0.2761	0.20471	0.10385	0.11534	0.14692	0.20521	0.20583	0.12127	0.10105	0.12556	0.031497	0.40256	0.19761	0.3324	0.1646	0.33588	-2.825	-3.2167	-3.4083	-3.2125	-3.5292	-3.2625	-3.3146	-3.6958	-3.3417	-3.3271	-3.4729	-3.2917	-3.3104	-3.45	-3.1167	-3.5146	236.302	243.334	56.559	213.594	-50.674	71.026	238.043	6.709	258.384	112.289	301.143	250.189	38.572	234.000	277.141	262.381	0.00073078	0.00038136	0.00019438	595.4	7.9888e-06	4.8965e-06	910.02	208.99	6.9081e-06	4.8267e-06	424.17	179.51	80.506	37.533	7.231e-06	93.436	0.0019853	0.0029462	0.00084063	575.68	2.7259e-05	3.0203e-05	877.18	202.51	2.4958e-05	2.9117e-05	412.81	174.81	78.775	36.667	2.8307e-05	91.278	-54.472	53.082	78.893	-43.839	90.353	66.686	-43.349	-38.355	159.603	103.930	-39.091	-35.324	-35.211	-31.413	151.543	-32.422	-8191	255	
861.031	1	1	0	0	0.30716	0.16538	0.08805	0.076433	0.15519	0.13859	0.47777	0.097323	0.10788	0.05375	0.053374	0.10108	0.054299	0.25932	0.099646	0.048952	-2.825	-3.2729	-3.5771	-3.1896	-3.3	-3.3104	-3.2542	-3.5292	-3.3479	-3.3021	-3.5062	-3.3812	-3.2479	-3.3896	-3.1521	-3.5708	158.155	124.746	128.762	11.948	88.344	26.716	280.590	-20.454	210.090	-3.050	241.174	16.443	-21.899	271.235	286.485	175.522	0.0007041	0.00068113	0.00011566	582.33	1.0613e-05	7.4037e-06	886.61	200.37	9.5156e-06	8.5973e-06	412.74	176.48	78.125	35.472	6.2962e-06	88.341	0.0017369	0.0026967	0.00080233	563.03	2.5718e-05	3.1494e-05	851.29	193.98	2.5576e-05	3.1527e-05	398.91	171.63	76.111	34.614	3.0167e-05	86.586	-46.552	37.770	79.933	-43.424	91.231	93.254	-43.481	-38.753	162.159	107.132	-39.167	-35.379	-35.191	-31.241	121.701	-32.215	-8191	255	
861.127	1	1	0	0	0.20471	0.30556	0.017055	0.10199	0.079902	0.25025	0.31742	0.076806	0.27057	0.28495	0.0898	0.17863	0.021773	0.039367	0.08792	0.099125	-2.9229	-3.275	-3.3771	-3.4354	-3.3792	-3.4729	-3.1813	-3.5875	-3.3563	-3.1042	-3.5646	-3.3604	-3.4104	-3.55	-3.1417	-3.6937	90.957	255.544	162.517	296.684	117.568	-33.165	233.599	239.368	95.624	41.117	240.835	229.117	237.803	286.780	189.278	-41.235	0.00063048	0.00068844	0.00011514	550.44	1.0757e-05	4.9092e-06	849.47	193.04	7.341e-06	7.1014e-06	404.45	172.96	77.164	34.513	7.0409e-06	88.642	0.0018669	0.0030311	0.00090095	533.7	2.9689e-05	3.7425e-05	823.54	187.74	2.9476e-05	3.71e-05	395	168.67	75.228	33.813	3.1841e-05	86.61	-51.880	31.651	66.802	-43.491	97.411	67.509	-43.272	-38.494	136.005	92.218	-39.688	-35.129	-35.422	-30.993	113.035	-32.150	-8191	255	
861.247	1	1	0	0	0.12091	0.083445	0.19614	0.016052	0.019	0.27922	0.14624	0.38036	0.13184	0.048135	0.28288	0.17668	0.17158	0.073221	0.17901	0.090207	-2.9	-3.1437	-3.3542	-3.2188	-3.4729	-3.6417	-3.2667	-3.4875	-3.4771	-3.1604	-3.5479	-3.4354	-3.3875	-3.6937	-3.3563	-3.5917	99.464	-0.696	21.497	229.125	-52.132	260.892	222.211	281.116	63.904	-47.444	268.781	45.700	262.421	160.931	121.918	184.636	0.00062589	0.00056789	0.00022718	561.19	6.6822e-06	3.5597e-06	873.71	200.03	5.1621e-06	1.4036e-06	417.46	178.65	79.546	36.49	3.8764e-06	92.388	0.0017999	0.0029625	0.00081814	541.43	2.4907e-05	3.1406e-05	840.19	193.66	2.2555e-05	2.8719e-05	405.69	173.81	77.604	35.769	2.5527e-05	90.153	-49.528	15.807	29.759	-43.597	144.769	155.753	-43.324	-38.683	190.497	85.453	-39.635	-35.360	-35.215	-31.150	67.534	-32.276	-8191	255	
861.319	1	1	0	0	0.19317	0.142	0.044104	0.12346	0.19309	0.19179	0.058477	0.023845	0.14023	0.082739	0.19812	0.3263	0.33789	0.062676	0.097758	0.25087	-3.0604	-3.0521	-3.4271	-3.4938	-3.2687	-3.5271	-3.4104	-3.4042	-3.5396	-3.0687	-3.6688	-3.7208	-3.3854	-3.6646	-3.2833	-3.525	85.631	124.914	60.421	302.558	294.731	33.406	192.849	181.171	-2.529	66.791	75.146	234.032	213.047	207.321	70.863	249.366	0.00069265	0.00064652	0.00019687	550.45	7.0059e-06	5.4729e-06	859.04	191.53	8.6795e-06	6.2795e-06	406.81	176.03	76.423	34.52	9.0943e-06	87.423	0.0016695	0.0026661	0.00076777	531.09	2.3802e-05	2.8723e-05	822.3	185.3	2.2519e-05	2.7328e-05	395.16	171.06	74.74	33.653	2.3053e-05	85.305	-53.079	63.915	6.676	-43.343	96.251	97.223	-43.239	-38.566	149.533	76.855	-39.334	-35.533	-35.330	-31.159	105.533	-32.257	-8191	255	
861.440	1	1	0	0	0.063799	0.086881	0.20294	0.28958	0.053603	0.090902	0.30878	0.094105	0.18462	0.18515	0.18919	0.35708	0.065304	0.32395	0.063993	0.046264	-3.1375	-3.1542	-3.3521	-3.575	-3.4562	-3.6896	-3.3958	-3.3729	-3.55	-3.2042	-3.6042	-3.5583	-3.2583	-3.5687	-3.1646	-3.4958	233.403	11.122	275.796	15.533	10.853	162.807	219.057	-37.510	190.269	257.914	18.236	231.508	14.917	288.559	214.275	291.373	0.00065151	0.00045786	0.00011244	526.81	8.3821e-06	5.3966e-06	839.03	187.76	4.4987e-06	5.0356e-06	402.33	171.13	74.161	32.458	5.9355e-06	83.24	0.0015438	0.0022135	0.00060762	509.26	2.034e-05	2.4193e-05	806.1	182.21	1.9104e-05	2.3252e-05	389.24	166.48	72.32	31.73	1.9326e-05	81.202	-46.066	35.659	35.530	-43.344	118.222	86.791	-43.344	-38.388	128.298	47.208	-39.236	-35.525	-35.481	-30.870	139.346	-32.079	-8191	255	
861.534	1	1	0	0	0.1491	0.14711	0.17598	0.097564	0.19873	0.16523	0.1586	0.28383	0.12724	0.13057	0.14785	0.292	0.25096	0.22826	0.18638	0.26751	-2.9479	-3.2562	-3.2771	-3.5187	-3.2292	-3.6729	-3.4292	-3.4875	-3.6	-3.325	-3.4146	-3.5187	-3.1354	-3.5979	-3.3542	-3.4271	82.775	249.047	234.532	294.732	-2.571	123.404	281.744	-45.220	288.111	189.602	265.539	284.589	266.153	-49.112	169.290	267.891	0.00068284	0.00071872	0.00013625	510.04	8.3168e-06	5.6931e-06	829.13	185.48	7.9244e-06	4.4522e-06	401.09	173.86	75.49	34.55	5.8478e-06	88.459	0.0014323	0.0020362	0.00055532	493.82	1.9598e-05	2.4367e-05	795.85	179.45	1.9546e-05	2.321e-05	389.93	168.91	73.929	33.702	1.9381e-05	86.371	-56.314	6.552	32.028	-43.673	128.432	109.433	-43.243	-38.817	167.031	65.674	-39.397	-35.395	-35.322	-31.021	123.234	-32.211	-8191	255	
861.630	1	1	0	0	0.19534	0.23324	0.21439	0.10666	0.031049	0.18421	0.044608	0.057881	0.16596	0.085607	0.1755	0.2167	0.13862	0.18538	0.11571	0.20205	-3.2396	-3.1625	-3.4979	-3.5771	-3.2146	-3.5333	-3.4854	-3.3792	-3.5417	-3.1917	-3.675	-3.6208	-3.1188	-3.3667	-3.2896	-3.4062	34.431	10.141	-45.532	268.697	280.921	-41.287	2.189	-44.249	-29.429	74.660	211.673	241.627	-45.659	249.154	99.361	294.041	0.00063048	0.00083317	0.00011357	544.96	5.3597e-06	5.251e-06	862.83	196.45	9.2174e-06	8.8248e-06	409.69	176.74	77.781	35.961	4.3208e-06	92.38	0.0014063	0.0019731	0.00053664	525.59	1.8774e-05	2.1125e-05	829.37	189.57	1.6957e-05	1.8445e-05	396.94	171.76	75.524	35.028	1.6038e-05	89.979	-44.333	34.101	37.578	-43.530	128.723	86.886	-43.264	-38.378	142.230	94.565	-39.289	-35.390	-34.920	-31.063	79.283	-32.033	-8191	255	
861.726	1	1	0	0	0.18105	0.10536	0.23781	0.10016	0.19026	0.11304	0.016606	0.097981	0.26412	0.17271	0.13233	0.16371	0.19047	0.14359	0.063347	0.21107	-3.1271	-3.3104	-3.2917	-3.525	-3.1646	-3.4167	-3.5812	-3.3229	-3.4375	-3.2792	-3.3917	-3.6875	-3.275	-3.6083	-3.5208	-3.2562	-25.952	50.317	226.870	195.460	273.148	-14.878	246.269	-52.064	-4.970	-1.021	211.390	242.821	225.265	281.651	-4.373	242.142	0.00063217	0.00069266	9.0752e-05	580.05	7.4776e-06	5.9672e-06	895.5	204.64	7.4898e-06	6.3015e-06	418.79	179.73	78.898	36.861	9.9945e-06	93.746	0.0012247	0.0015099	0.00041123	556.85	1.4525e-05	1.6524e-05	859.16	197.81	1.4139e-05	1.5478e-05	405.07	174.4	76.806	35.906	1.386e-05	91.389	-45.877	28.076	33.264	-43.555	107.925	105.948	-43.537	-38.402	133.801	114.695	-39.473	-35.280	-35.228	-31.176	91.152	-32.434	-8191	255	
861.847	1	1	0	0	0.11979	0.15065	0.18298	0.050572	0.10684	0.12445	0.15591	0.15852	0.27873	0.22534	0.14682	0.32912	0.21529	0.083388	0.18406	0.24009	-3.1583	-3.4271	-3.4167	-3.7042	-3.3021	-3.475	-3.5792	-3.3417	-3.5083	-3.4771	-3.2792	-3.6083	-3.2729	-3.4938	-3.5083	-3.4354	157.150	110.198	177.312	56.995	254.609	55.460	261.958	-27.393	-43.018	177.930	-26.404	238.789	291.703	235.605	176.523	243.864	0.00073089	0.00036377	0.00012362	569.16	9.3416e-06	2.6188e-06	862.31	194.2	8.1186e-06	5.7807e-06	404.14	174.91	77.083	37.122	8.6933e-06	94.944	0.0011342	0.0012863	0.00039357	545.58	1.3313e-05	1.5649e-05	832.5	187.75	1.3333e-05	1.5947e-05	390.73	169.8	74.968	36.125	1.3819e-05	92.525	-44.668	-10.682	46.257	-43.713	107.189	88.306	-43.423	-38.397	151.070	98.337	-39.310	-35.356	-34.964	-31.175	126.269	-32.500	-8191	255	
861.919	1	1	0	0	0.23805	0.10868	0.081961	0.10564	0.020171	0.18394	0.11513	0.12797	0.16779	0.18224	0.27308	0.17738	0.11128	0.085561	0.22567	0.22139	-3.1771	-3.3458	-3.1437	-3.6146	-3.2896	-3.4458	-3.7625	-3.2938	-3.4271	-3.3937	-3.2979	-3.6958	-3.3917	-3.4125	-3.5187	-3.4271	294.432	62.468	53.667	-24.372	63.454	-43.132	278.369	-18.475	86.839	29.259	181.707	282.955	44.147	259.862	223.885	289.895	0.00069714	0.00060879	0.00012622	589.93	8.1586e-06	6.2147e-06	909.57	210.74	8.0719e-06	5.3558e-06	425.19	180.43	81.462	38.524	8.535e-06	97.57	0.0010777	0.0012682	0.00035684	567.14	1.1631e-05	1.3235e-05	871.57	202.78	1.0653e-05	1.2971e-05	411.81	175.06	78.776	37.478	1.2007e-05	94.846	-47.863	19.086	34.063	-43.438	101.788	99.113	-43.742	-38.779	153.870	93.728	-39.501	-35.290	-35.381	-31.195	100.800	-32.610	-8191	255	
862.015	1	1	0	0	0.27042	0.091191	0.2125	0.17087	0.079636	0.21724	0.13275	0.085967	0.20957	0.12207	0.1843	0.29676	0.20225	0.38651	0.19572	0.45152	-2.9979	-3.4437	-3.0938	-3.5542	-3.2604	-3.2333	-3.6583	-3.3708	-3.3896	-3.525	-3.125	-3.6	-3.4021	-3.3604	-3.5167	-3.3625	32.300	247.671	59.357	204.436	-22.022	95.737	-16.937	200.719	-45.016	15.235	208.570	239.946	271.554	-21.116	64.357	198.575	0.00078927	0.00041692	0.00019729	611.87	8.9171e-06	6.6722e-06	937.27	217.22	5.9189e-06	4.1441e-06	433.84	182.46	81.886	38.82	8.8233e-06	98.246	0.00098159	0.0011387	0.00031506	587.56	1.0548e-05	1.2629e-05	898.88	208.98	1.029e-05	1.3015e-05	418.11	177.06	79.474	37.805	1.1878e-05	95.424	-47.423	55.788	25.014	-43.443	109.266	123.587	-43.594	-38.332	137.071	68.122	-39.293	-35.435	-35.255	-31.440	114.101	-32.507	-8191	255	
862.111	1	1	0	0	0.21853	0.081586	0.078665	0.13926	0.11556	0.27787	0.18555	0.18652	0.072372	0.080829	0.2649	0.17329	0.063355	0.10381	0.18971	0.42041	-3.15	-3.5938	-3.1063	-3.6146	-3.5229	-3.2292	-3.8167	-3.3667	-3.4917	-3.6667	-3.3312	-3.7042	-3.4479	-3.4125	-3.6875	-3.5667	292.648	35.732	-43.184	259.436	110.454	142.230	252.207	278.896	188.267	-46.363	300.662	247.025	-8.856	274.760	89.060	263.905	0.00073266	0.00063485	0.0002047	609.9	6.0064e-06	7.2784e-06	923.19	210.02	5.7675e-06	2.9211e-06	419.91	176.64	78.599	37.562	1.1943e-05	95.153	0.0010258	0.0011352	0.00033884	582.45	1.0425e-05	1.368e-05	888.3	202.67	9.9976e-06	1.2744e-05	405.22	171.96	76.158	36.624	1.2497e-05	92.824	-48.914	20.297	38.488	-43.648	131.503	99.207	-43.490	-38.683	136.916	95.504	-39.558	-35.298	-34.902	-31.067	95.498	-32.593	-8191	255	
862.207	1	1	0	0	0.093639	0.050912	0.222	0.23979	0.082486	0.14322	0.24064	0.1232	0.11335	0.19909	0.15394	0.11694	0.071611	0.15767	0.048371	0.16546	-2.9146	-3.5375	-3.1958	-3.5687	-3.3667	-3.3521	-3.6479	-3.3292	-3.4792	-3.4854	-3.2167	-3.6104	-3.6083	-3.1354	-3.5563	-3.4792	297.339	277.373	267.184	299.990	49.083	105.526	99.167	179.983	138.941	88.138	250.421	29.755	54.096	103.014	257.281	189.999	0.00066333	0.00049748	0.00016137	590.9	1.038e-05	8.0731e-06	904.01	205.02	9.4105e-06	8.5863e-06	417.52	177.73	78.735	37.673	6.4203e-06	95.474	0.0010023	0.0012125	0.00033207	566.72	1.1297e-05	1.3351e-05	865.22	198.19	1.0733e-05	1.3083e-05	403.59	171.58	76.468	36.711	1.173e-05	92.868	-49.025	38.387	49.532	-43.423	90.906	73.206	-43.503	-38.568	141.677	80.537	-39.219	-35.358	-35.307	-31.318	118.937	-32.441	-8191	255	
862.328	1	1	0	0	0.047304	0.2181	0.050048	0.090743	0.080547	0.025993	0.17965	0.32965	0.099406	0.20725	0.2495	0.20839	0.088067	0.19347	0.35268	0.13097	-2.8688	-3.4083	-3.1708	-3.5354	-3.3646	-3.3104	-3.7938	-3.2292	-3.2917	-3.5333	-3.2875	-3.4417	-3.3917	-3.5417	-3.5646	-3.7083	253.055	291.171	176.693	176.791	22.097	99.552	259.023	267.112	269.905	197.279	202.109	99.842	224.194	248.646	96.933	196.461	0.00074993	0.00048581	0.00019879	595.07	1.1845e-05	7.1671e-06	904.11	205.61	3.4719e-06	4.3788e-06	415.71	175.52	77.972	37.263	6.5112e-06	94.378	0.0010056	0.0011482	0.00031255	569.92	1.0676e-05	1.2986e-05	868.47	197.48	1.0453e-05	1.2651e-05	400.13	170.31	75.673	36.191	1.135e-05	92.042	-48.521	19.186	53.688	-43.529	117.224	100.145	-43.444	-38.287	188.627	83.397	-39.272	-35.107	-34.980	-31.242	106.228	-32.483	-8191	255	
862.422	1	1	0	0	0.15788	0.030372	0.010341	0.24211	0.024988	0.24867	0.2065	0.29794	0.065352	0.22405	0.22199	0.15346	0.092015	0.016879	0.14611	0.21959	-2.8896	-3.525	-3.1958	-3.5208	-3.6354	-3.1063	-3.5104	-3.5375	-3.2583	-3.625	-3.3375	-3.5771	-3.4375	-3.2917	-3.4208	-3.7625	-54.366	39.592	149.712	189.030	2.211	139.825	233.438	-1.103	223.109	265.260	227.954	271.240	-7.265	51.583	76.660	219.792	0.00061669	0.00074036	9.4523e-05	599.21	5.5439e-06	3.7341e-06	918.41	208.06	4.7537e-06	4.8096e-06	424.49	179.48	79.868	37.903	8.288e-06	96.106	0.0010048	0.0011802	0.00030011	573.3	1.115e-05	1.2489e-05	879.4	200.59	1.0815e-05	1.2743e-05	409.22	174.1	77.652	36.754	1.1413e-05	93.143	-50.308	33.341	1.058	-43.502	104.128	98.042	-43.289	-38.546	153.052	91.620	-39.300	-35.349	-35.042	-31.094	137.397	-32.481	-8191	255	
862.520	1	1	0	0	0.20722	0.1997	0.11842	0.23308	0.22121	0.21565	0.29145	0.13201	0.12497	0.12654	0.056688	0.0905	0.099853	0.32412	0.1514	0.30477	-2.7167	-3.6146	-3.3	-3.4125	-3.6479	-3.1188	-3.4625	-3.3812	-3.1688	-3.6146	-3.4562	-3.6833	-3.5896	-3.1958	-3.3854	-3.6125	103.646	-50.305	151.807	-11.122	110.571	10.361	221.637	90.788	230.979	227.492	163.464	-49.245	-22.598	-45.588	96.941	232.118	0.00074239	0.00069298	0.00011832	603.42	9.2679e-06	6.0853e-06	926.48	212.49	6.5326e-06	6.9131e-06	431.98	181.48	81.042	37.713	8.4551e-06	95.228	0.0010097	0.0011134	0.00029284	580.15	1.0963e-05	1.2291e-05	887.48	204.69	1.0535e-05	1.1983e-05	415.07	175.81	78.443	36.686	1.093e-05	92.817	-47.648	37.298	29.856	-43.456	107.695	80.971	-43.572	-38.406	135.376	91.645	-39.112	-35.003	-35.303	-31.302	120.137	-32.374	-8191	255	
862.614	1	1	0	0	0.23026	0.089548	0.15272	0.42642	0.21563	0.14942	0.070514	0.36303	0.09752	0.057941	0.091539	0.16786	0.029389	0.11971	0.0208	0.18352	-2.8333	-3.5062	-3.4167	-3.3	-3.6625	-3.4208	-3.5521	-3.5563	-3.2125	-3.4729	-3.5	-3.2854	-3.4792	-3.2854	-3.3271	-3.6917	-12.878	265.827	-53.109	260.015	-43.039	77.458	154.776	114.366	133.725	-53.765	-48.307	240.179	250.057	198.578	69.503	270.339	0.00069765	0.00060684	0.00016602	600.33	6.4088e-06	5.5905e-06	909.37	208.1	4.621e-06	2.5256e-06	414.71	175.99	78.478	36.849	8.3289e-06	92.582	0.00096769	0.0010174	0.00028934	574.23	1.0157e-05	1.1452e-05	871.46	200.07	9.9926e-06	1.1121e-05	402.38	170.71	75.956	35.719	1.1052e-05	90.346	-51.189	12.871	35.165	-43.559	124.254	84.097	-43.324	-38.494	163.124	94.927	-38.946	-35.366	-35.171	-31.402	131.720	-32.394	-8191	255	
862.711	1	1	0	0	0.12294	0.15149	0.082395	0.24276	0.12653	0.14536	0.21583	0.12337	0.028119	0.27856	0.20581	0.21916	0.16767	0.067809	0.16499	0.32464	-2.8563	-3.4437	-3.2333	-3.2625	-3.5917	-3.3854	-3.6208	-3.5021	-3.2667	-3.5792	-3.375	-3.4521	-3.6458	-3.5583	-3.3979	-3.8208	185.036	2.232	17.110	236.521	-2.621	76.955	221.402	5.958	240.275	146.746	-17.552	222.518	98.131	3.041	75.764	225.346	0.00071301	0.00039573	0.00016661	585.76	3.6702e-06	4.4574e-06	893.17	200.28	7.0721e-06	5.0644e-06	407.65	172.1	75.789	35.792	7.9259e-06	90.583	0.00094649	0.0010415	0.00030307	561.53	1.0729e-05	1.2181e-05	855.25	193.54	1.0448e-05	1.1957e-05	391.6	166.64	73.382	34.732	1.215e-05	88.208	-44.223	47.712	54.917	-43.431	136.613	93.485	-43.479	-38.774	154.280	73.011	-39.229	-35.234	-35.115	-30.932	97.612	-32.173	-8191	255	
862.807	1	1	0	0	0.38842	0.2597	0.19823	0.35951	0.13264	0.11263	0.060243	0.34979	0.21719	0.081748	0.24786	0.11248	0.19194	0.16904	0.10917	0.36627	-2.8854	-3.4562	-3.3875	-3.3083	-3.6229	-3.4208	-3.6229	-3.6312	-3.2271	-3.425	-3.5208	-3.2708	-3.5792	-3.5729	-3.2375	-3.5917	184.994	272.541	76.153	272.939	0.546	153.338	-54.005	271.606	242.248	199.025	224.725	246.660	-2.993	-36.793	28.784	218.957	0.0007406	0.00067422	0.00020175	573.41	8.2786e-06	4.9534e-06	875.26	193.41	7.2569e-06	5.4565e-06	400.58	170.78	74.398	35.51	9.7974e-06	90.519	0.00098159	0.0011271	0.00032805	547.68	1.1218e-05	1.2781e-05	838.94	187.56	1.0991e-05	1.2839e-05	387.79	165.95	72.673	34.413	1.2567e-05	88.135	-48.931	42.773	24.776	-43.730	111.187	78.221	-43.722	-38.385	125.163	88.091	-39.224	-35.275	-35.227	-31.045	114.747	-32.259	-8191	255	
862.927	1	1	0	0	0.12372	0.1383	0.20371	0.2075	0.1199	0.11241	0.21616	0.21364	0.027596	0.16983	0.096555	0.16292	0.069057	0.17038	0.22273	0.044571	-2.9417	-3.3812	-3.2687	-3.4083	-3.575	-3.5729	-3.4667	-3.6042	-3.3063	-3.3625	-3.6417	-3.4042	-3.6063	-3.5	-3.1917	-3.8479	292.459	160.910	33.668	176.822	0.699	77.794	-55.142	153.465	276.760	93.584	242.227	18.586	231.119	264.318	-33.287	243.315	0.00069449	0.0007562	0.00010176	578.18	1.0796e-05	6.0392e-06	898.68	199.94	5.9619e-06	5.1593e-06	411.3	175.16	76.848	36.201	8.8456e-06	91.547	0.00096776	0.0011493	0.00033614	555.43	1.071e-05	1.2586e-05	859.92	192.4	9.903e-06	1.2149e-05	398.5	170.22	74.715	35.099	1.1886e-05	89.333	-52.221	27.301	27.128	-43.600	109.526	115.978	-43.391	-38.448	158.661	112.879	-39.432	-35.103	-34.998	-31.058	116.421	-32.225	-8191	255	
863.024	1	1	0	0	0.088504	0.046649	0.09873	0.037406	0.22459	0.37391	0.20476	0.17354	0.09162	0.10876	0.14852	0.054187	0.26379	0.25244	0.036641	0.28229	-2.8812	-3.2729	-3.4958	-3.1458	-3.3729	-3.3167	-3.3187	-3.7271	-3.3875	-3.2708	-3.6667	-3.2979	-3.5292	-3.4292	-3.3063	-3.8688	142.101	73.212	134.463	57.408	-33.221	15.880	254.404	-15.288	226.701	141.840	182.621	-37.172	258.788	302.168	12.833	269.852	0.00065227	0.00091703	0.00017967	580.58	1.0291e-05	5.1399e-06	886.46	196.79	4.9306e-06	3.0487e-06	402.31	172.24	75.262	35.233	9.65e-06	90.069	0.00095016	0.0010989	0.00031711	557.18	1.0539e-05	1.2256e-05	852.29	188.75	1.0182e-05	1.2643e-05	389.88	167.17	73.096	34.151	1.1385e-05	87.563	-49.942	20.707	36.793	-43.622	101.805	110.446	-43.439	-38.378	163.001	107.944	-39.362	-35.232	-35.180	-30.982	93.720	-32.254	-8191	255	
863.120	1	1	0	0	0.21481	0.025877	0.2216	0.23568	0.10495	0.19144	0.19844	0.18859	0.14832	0.26232	0.14445	0.030879	0.067192	0.34204	0.079261	0.22368	-2.9229	-3.4333	-3.6271	-3.2542	-3.5187	-3.5667	-3.5563	-3.6688	-3.3896	-3.3917	-3.6375	-3.4833	-3.3937	-3.5271	-3.2125	-3.6792	72.671	165.284	68.787	266.644	277.708	138.172	-52.922	225.948	137.855	267.536	163.245	128.390	215.479	274.561	59.332	283.247	0.00064364	0.00047553	0.00012658	575.64	6.2409e-06	4.5782e-06	884.83	196.41	6.8383e-06	5.2351e-06	404.17	173.16	75.683	35.367	7.9207e-06	90.405	0.00093421	0.001118	0.00030043	552.04	9.7067e-06	1.2255e-05	851.16	188.53	9.7675e-06	1.234e-05	390.51	167.24	73.33	34.327	1.1007e-05	87.901	-54.099	5.790	27.283	-43.939	111.131	97.931	-43.334	-38.378	136.615	105.925	-39.213	-35.108	-35.172	-31.029	91.397	-32.030	-8191	255	
863.216	1	1	0	0	0.18114	0.12577	0.098379	0.20896	0.26052	0.17489	0.22608	0.29846	0.035042	0.20222	0.2493	0.092424	0.10776	0.10807	0.080123	0.182	-2.9125	-3.3958	-3.5458	-3.3333	-3.5146	-3.4688	-3.1937	-3.6562	-3.4833	-3.0583	-3.6167	-3.3771	-3.4271	-3.7271	-3.2958	-3.7021	195.696	102.568	80.512	201.502	61.878	173.842	227.140	234.870	76.706	205.449	-18.509	284.892	9.457	294.194	21.384	265.479	0.00065285	0.0005412	0.00017177	578.35	4.0562e-06	4.5628e-06	890.52	196.33	5.3654e-06	3.4877e-06	407.84	172.45	75.927	35.591	5.5622e-06	91.026	0.0009222	0.0011158	0.00030356	555.75	1.0241e-05	1.2139e-05	852.22	188.34	1.0157e-05	1.2121e-05	390.75	167.85	73.562	34.574	1.0487e-05	88.63	-44.469	21.234	56.275	-43.760	98.752	72.645	-43.361	-38.409	140.862	108.444	-39.054	-35.109	-35.258	-31.165	110.977	-32.069	-8191	255	
#DATA ENDS
