BOXY.EXE: ISS Imagent and Oximeter Data Acquisition Program Version 0.80
Ascii Record File

#ACQ INFORMATION
2  Detector Channels 
16  External MUX Channels 
1  Auxiliary Channels 
5000  Waveform (CCF) Frequency (Hz)
1  Waveforms Skipped 
30  Waveforms Averaged 
1  Cycles Averaged 
16  Acquisitions per Waveform 
10.0806  Updata Rate (Hz) 

#FILE INFORMATION
TRUE -- External MUX Channel results are PARSED.
FALSE -- AC DC and Phase are NOT grouped.
TRUE -- Companion Program Settings File CREATED.
FALSE -- AC data not excluded
FALSE -- DC data not excluded
FALSE -- Phase data not excluded
FALSE -- Auxillary Chn. data not excluded
Tab delimiters

#CALIBRATION STATE
TRUE -- Waveform Calibration Values APPLIED.


#AUX CALIBRATION VALUES
Val Type	aux-1	

Term	1.0000e+00	
Factor	0.0000e+00	


#WF CALIBRATION VALUES
A = Detector Channel
Val Type	A-AC1	A-AC2	A-AC3	A-AC4	A-AC5	A-AC6	A-AC7	A-AC8	A-AC9	A-AC10	A-AC11	A-AC12	A-AC13	A-AC14	A-AC15	A-AC16	A-DC1	A-DC2	A-DC3	A-DC4	A-DC5	A-DC6	A-DC7	A-DC8	A-DC9	A-DC10	A-DC11	A-DC12	A-DC13	A-DC14	A-DC15	A-DC16	A-Ph1	A-Ph2	A-Ph3	A-Ph4	A-Ph5	A-Ph6	A-Ph7	A-Ph8	A-Ph9	A-Ph10	A-Ph11	A-Ph12	A-Ph13	A-Ph14	A-Ph15	A-Ph16	

Term	0.00000e+00	0.00000e+00	0.00000e+00	0.00000e+00	0.00000e+00	0.00000e+00	0.00000e+00	0.00000e+00	0.00000e+00	0.00000e+00	0.00000e+00	0.00000e+00	0.00000e+00	0.00000e+00	0.00000e+00	0.00000e+00	0.00000e+00	0.00000e+00	0.00000e+00	0.00000e+00	0.00000e+00	0.00000e+00	0.00000e+00	0.00000e+00	0.00000e+00	0.00000e+00	0.00000e+00	0.00000e+00	0.00000e+00	0.00000e+00	0.00000e+00	0.00000e+00	0.00000e+00	0.00000e+00	0.00000e+00	0.00000e+00	0.00000e+00	0.00000e+00	0.00000e+00	0.00000e+00	0.00000e+00	0.00000e+00	0.00000e+00	0.00000e+00	0.00000e+00	0.00000e+00	0.00000e+00	0.00000e+00	
Factor	1.00000e+00	1.00000e+00	1.00000e+00	1.00000e+00	1.00000e+00	1.00000e+00	1.00000e+00	1.00000e+00	1.00000e+00	1.00000e+00	1.00000e+00	1.00000e+00	1.00000e+00	1.00000e+00	1.00000e+00	1.00000e+00	1.00000e+00	1.00000e+00	1.00000e+00	1.00000e+00	1.00000e+00	1.00000e+00	1.00000e+00	1.00000e+00	1.00000e+00	1.00000e+00	1.00000e+00	1.00000e+00	1.00000e+00	1.00000e+00	1.00000e+00	1.00000e+00	X	X	X	X	X	X	X	X	X	X	X	X	X	X	X	X	

B = Detector Channel
Val Type	B-AC1	B-AC2	B-AC3	B-AC4	B-AC5	B-AC6	B-AC7	B-AC8	B-AC9	B-AC10	B-AC11	B-AC12	B-AC13	B-AC14	B-AC15	B-AC16	B-DC1	B-DC2	B-DC3	B-DC4	B-DC5	B-DC6	B-DC7	B-DC8	B-DC9	B-DC10	B-DC11	B-DC12	B-DC13	B-DC14	B-DC15	B-DC16	B-Ph1	B-Ph2	B-Ph3	B-Ph4	B-Ph5	B-Ph6	B-Ph7	B-Ph8	B-Ph9	B-Ph10	B-Ph11	B-Ph12	B-Ph13	B-Ph14	B-Ph15	B-Ph16	

Term	0.00000e+00	0.00000e+00	0.00000e+00	0.00000e+00	0.00000e+00	0.00000e+00	0.00000e+00	0.00000e+00	0.00000e+00	0.00000e+00	0.00000e+00	0.00000e+00	0.00000e+00	0.00000e+00	0.00000e+00	0.00000e+00	0.00000e+00	0.00000e+00	0.00000e+00	0.00000e+00	0.00000e+00	0.00000e+00	0.00000e+00	0.00000e+00	0.00000e+00	0.00000e+00	0.00000e+00	0.00000e+00	0.00000e+00	0.00000e+00	0.00000e+00	0.00000e+00	-1.52259e+01	-1.21314e+02	-1.23051e+02	-1.84901e+02	-5.91357e+01	-7.46805e+01	-1.57730e+02	-1.62015e+02	-3.40933e+01	-6.62299e+01	-1.71524e+02	-1.72147e+02	-1.80048e+02	-1.78167e+02	-4.40745e+01	-1.50823e+02	
Factor	2.76434e-05	1.26985e-04	3.54059e-05	1.59654e-01	1.74063e-06	1.45815e-06	1.52443e-01	4.95556e-02	1.43490e-06	1.07965e-06	1.17551e-01	2.58781e-02	2.28946e-02	8.02273e-03	1.27440e-06	1.15230e-02	1.86249e-06	1.97404e-06	5.49644e-07	8.35806e-02	2.14999e-08	2.16645e-08	7.48903e-02	2.60166e-02	2.14823e-08	2.17078e-08	5.86460e-02	1.31064e-02	1.20647e-02	4.22979e-03	2.15515e-08	5.85250e-03	X	X	X	X	X	X	X	X	X	X	X	X	X	X	X	X	



#DISTANCE SETTINGS
A = Detector Channel
A-1	A-2	A-3	A-4	A-5	A-6	A-7	A-8	A-9	A-10	A-11	A-12	A-13	A-14	A-15	A-16	

2.5000e+00	3.0000e+00	2.5000e+00	3.0000e+00	2.0000e+00	3.0000e+00	1.5000e+00	3.0000e+00	3.0000e+00	3.0000e+00	3.0000e+00	3.0000e+00	3.0000e+00	3.0000e+00	1.5000e+00	3.0000e+00	

B = Detector Channel
B-1	B-2	B-3	B-4	B-5	B-6	B-7	B-8	B-9	B-10	B-11	B-12	B-13	B-14	B-15	B-16	

1.0000e+01	1.0000e+01	1.0000e+01	1.4400e+00	1.0000e+01	1.0000e+01	1.5100e+00	1.9400e+00	1.0000e+01	1.0000e+01	1.9900e+00	2.4900e+00	2.4100e+00	2.9000e+00	1.0000e+01	2.9800e+00	




#DATA BEGINS
time	group	step	mark	flag	A-AC1	A-AC2	A-AC3	A-AC4	A-AC5	A-AC6	A-AC7	A-AC8	A-AC9	A-AC10	A-AC11	A-AC12	A-AC13	A-AC14	A-AC15	A-AC16	A-DC1	A-DC2	A-DC3	A-DC4	A-DC5	A-DC6	A-DC7	A-DC8	A-DC9	A-DC10	A-DC11	A-DC12	A-DC13	A-DC14	A-DC15	A-DC16	A-Ph1	A-Ph2	A-Ph3	A-Ph4	A-Ph5	A-Ph6	A-Ph7	A-Ph8	A-Ph9	A-Ph10	A-Ph11	A-Ph12	A-Ph13	A-Ph14	A-Ph15	A-Ph16	B-AC1	B-AC2	B-AC3	B-AC4	B-AC5	B-AC6	B-AC7	B-AC8	B-AC9	B-AC10	B-AC11	B-AC12	B-AC13	B-AC14	B-AC15	B-AC16	B-DC1	B-DC2	B-DC3	B-DC4	B-DC5	B-DC6	B-DC7	B-DC8	B-DC9	B-DC10	B-DC11	B-DC12	B-DC13	B-DC14	B-DC15	B-DC16	B-Ph1	B-Ph2	B-Ph3	B-Ph4	B-Ph5	B-Ph6	B-Ph7	B-Ph8	B-Ph9	B-Ph10	B-Ph11	B-Ph12	B-Ph13	B-Ph14	B-Ph15	B-Ph16	aux-1	digaux	

1107.371	1	1	0	768	0.17159	0.14431	0.13745	0.16658	0.10368	0.2392	0.1282	0.12386	0.17935	0.09628	0.12884	0.19896	0.22704	0.26998	0.14357	0.32929	-3.3917	-3.2	-3.3063	-3.8521	-2.9083	-3.7417	-3.5771	-3.0938	-3.8625	-3.0917	-3.1688	-3.7271	-3.1208	-3.6229	-3.4313	-3.0042	329.366	319.059	526.682	489.956	288.801	396.235	504.967	488.072	369.956	284.923	429.853	459.650	513.052	236.701	370.728	369.242	0.00090608	0.000226	0.00011318	1367.6	7.9683e-06	6.3769e-06	1359.5	378.23	3.475e-06	6.041e-06	427.17	144.12	126.09	43.484	4.9526e-06	53.309	0.00038019	0.00035149	9.7822e-05	1380.2	3.9048e-06	3.8361e-06	1370.9	380.77	3.8959e-06	3.8287e-06	428.3	145.75	127.03	44.217	3.8876e-06	54.244	305.749	445.065	269.004	181.880	306.675	332.879	181.332	186.738	305.987	329.780	185.936	190.246	191.022	195.442	343.644	194.369	-8191	255	
1107.467	1	1	0	0	0.16356	0.15154	0.14839	0.25239	0.086391	0.23537	0.22496	0.20773	0.21036	0.090114	0.073789	0.038116	0.3744	0.17603	0.24537	0.1361	-3.4208	-3.2167	-3.1813	-3.9562	-2.9688	-3.6521	-3.6688	-3.1396	-3.6667	-3.1688	-3.1104	-3.7687	-3.0354	-3.5167	-3.6042	-2.9437	195.923	455.203	307.475	434.639	413.079	328.772	442.233	214.316	355.647	523.557	172.883	170.790	443.440	259.798	397.377	526.317	0.00091051	0.00051611	0.00020685	1370.2	8.5062e-06	6.0524e-06	1358	377.42	4.7407e-06	4.8335e-06	426.3	144.25	125.89	43.333	6.7444e-06	53.47	0.00036852	0.00034617	9.6694e-05	1380.3	3.7787e-06	3.7528e-06	1370.6	380.32	3.8203e-06	3.7163e-06	428.15	145.97	126.97	44.086	3.7275e-06	54.275	305.884	276.208	278.384	181.629	358.994	345.934	181.639	186.526	346.618	323.689	185.962	190.113	190.700	195.465	327.620	194.355	-8191	255	
1107.563	1	1	0	0	0.25339	0.16024	0.16047	0.24525	0.12648	0.17173	0.31253	0.1858	0.091265	0.15602	0.1435	0.1342	0.22116	0.04504	0.25816	0.1241	-3.2646	-3.2542	-3.0146	-3.8625	-3.0708	-3.3917	-3.725	-3.1729	-3.7208	-3.5479	-3.1667	-3.8458	-3.0208	-3.4729	-3.6917	-3.0667	199.757	335.615	396.702	451.737	295.359	358.946	493.674	468.476	492.628	218.199	506.643	233.512	283.999	456.535	251.866	367.610	0.00097457	0.00031166	0.00014929	1363.6	6.8228e-06	4.7842e-06	1354.7	375.52	9.8054e-06	2.8545e-06	424.53	143.75	125.97	43.125	4.7981e-06	53.529	0.00036899	0.00034126	9.4715e-05	1375.9	3.7505e-06	3.6955e-06	1367.5	379.57	3.7213e-06	3.6884e-06	427.39	145.6	126.89	44.092	3.693e-06	54.372	310.017	217.862	269.789	181.990	363.775	377.918	181.529	186.889	315.142	339.782	186.059	190.191	190.589	195.482	345.532	194.341	-8191	255	
1107.659	1	1	0	0	0.084222	0.27815	0.10486	0.037926	0.16746	0.072158	0.32775	0.21264	0.088124	0.18638	0.19224	0.17584	0.19938	0.21953	0.068184	0.056406	-3.2833	-3.5083	-2.8667	-3.8479	-3.1458	-3.1542	-4.0042	-3.0938	-3.6958	-3.6333	-2.9167	-3.95	-3.325	-3.3771	-3.8479	-3.1458	389.799	190.328	204.167	258.873	186.645	169.687	456.719	463.184	415.366	360.602	264.921	250.891	400.670	173.389	426.141	365.219	0.00093265	0.00032148	0.0002084	1362.6	7.8709e-06	5.4568e-06	1358.6	376.69	6.4781e-06	4.6184e-06	427.52	144.79	126.22	43.499	8.1677e-07	53.64	0.0003599	0.00034027	9.2484e-05	1375.4	3.7471e-06	3.6638e-06	1369.5	380.22	3.7901e-06	3.7254e-06	428.15	145.91	127.14	44.128	3.8417e-06	54.315	309.717	213.228	261.853	181.956	334.154	307.233	181.316	186.585	361.113	328.618	186.062	190.309	190.820	195.389	384.908	194.311	-8191	255	
1107.756	1	1	0	0	0.21052	0.25743	0.17355	0.19278	0.09663	0.24294	0.089287	0.11278	0.19666	0.095614	0.20283	0.28474	0.31071	0.10727	0.14174	0.23775	-3.2458	-3.4042	-2.8479	-3.9208	-3.2771	-3.0687	-4.0229	-3.0333	-3.4313	-3.6354	-2.8958	-3.8083	-3.3792	-3.1333	-3.7125	-3.2021	295.774	473.509	295.709	470.862	224.080	404.950	467.491	433.832	414.770	429.042	504.036	450.006	486.583	465.806	290.313	477.471	0.00097174	0.00070336	0.00025396	1370	8.0364e-06	3.5452e-06	1363.2	377.3	4.3627e-06	4.6165e-06	427.55	143.78	124.97	43.395	4.887e-06	53.158	0.00036984	0.00035131	9.6645e-05	1380.5	3.8071e-06	3.7868e-06	1370.6	380.2	3.8758e-06	3.6968e-06	428.02	145.56	126.47	44.028	3.7051e-06	54.189	307.167	255.228	241.419	181.911	258.085	360.020	181.572	186.573	317.105	312.922	185.761	190.410	190.979	195.723	319.378	194.359	-8191	255	
1107.852	1	1	0	0	0.16023	0.2574	0.15425	0.10349	0.21737	0.16165	0.17991	0.29791	0.024715	0.027819	0.22554	0.14639	0.23914	0.4289	0.12213	0.054673	-2.8688	-3.8417	-3.0208	-3.7979	-3.4146	-3.0563	-4.0667	-3.2875	-3.1708	-3.6958	-3.0375	-3.8146	-3.4479	-3.1125	-3.7458	-3.175	301.037	176.431	270.609	473.103	355.727	223.855	450.453	483.736	484.790	334.285	415.908	482.789	430.907	467.178	361.391	483.948	0.00092277	0.00046948	0.00011941	1366.7	8.0144e-06	4.055e-06	1355.3	376.83	3.9757e-06	2.6806e-06	425.48	143.67	125.55	43.12	8.4481e-06	53.512	0.00036691	0.00034403	9.5583e-05	1378	3.7787e-06	3.7215e-06	1369.7	379.54	3.7888e-06	3.7391e-06	427.6	145.59	126.85	43.939	3.786e-06	54.275	315.086	249.796	278.219	182.010	327.093	300.152	181.614	186.515	333.419	326.743	186.324	190.387	190.820	195.368	330.977	194.220	-8191	255	
1107.972	1	1	0	0	0.12701	0.23584	0.10131	0.16337	0.070283	0.16739	0.41103	0.20036	0.066779	0.058897	0.28969	0.13953	0.40626	0.18053	0.057463	0.26112	-2.9604	-3.6937	-2.8729	-3.7292	-3.4354	-2.925	-3.9229	-3.4042	-3.0667	-3.8896	-3.2938	-3.5354	-3.675	-2.8625	-3.6333	-3.4792	438.898	409.160	408.026	211.466	181.241	435.468	445.016	463.304	379.475	386.912	213.338	439.577	447.907	476.608	463.463	435.811	0.00092271	0.00047074	8.9444e-05	1366.1	8.1485e-06	4.8662e-06	1361.4	375.4	6.2224e-06	4.4474e-06	426.73	144.19	126.09	43.321	3.8908e-06	53.313	0.00036319	0.00034297	9.5072e-05	1375.5	3.7643e-06	3.755e-06	1368.6	380.01	3.7463e-06	3.7645e-06	427.62	145.7	126.98	44.07	3.7366e-06	54.318	310.507	277.624	279.874	182.187	316.670	318.639	181.704	186.533	323.882	351.145	185.989	190.510	191.085	195.772	363.025	194.412	-8191	255	
1108.067	1	1	0	0	0.36656	0.0019982	0.079403	0.20087	0.07789	0.17218	0.13239	0.22771	0.17286	0.32405	0.29144	0.3515	0.23558	0.27693	0.12141	0.11423	-2.6688	-3.9042	-2.9333	-3.6042	-3.6646	-2.8917	-3.8021	-3.3312	-2.8917	-3.7958	-3.2375	-3.3792	-3.8187	-2.9729	-3.5792	-3.5458	404.152	180.000	449.612	467.983	393.649	497.895	439.633	203.487	256.489	437.919	456.465	477.999	511.533	171.541	324.632	435.022	0.00087506	0.00042759	0.00014539	1363.8	6.5827e-06	2.1788e-06	1360.2	377.2	3.3035e-06	5.2864e-06	426.75	144.4	125.98	43.135	3.3146e-06	53.45	0.00036851	0.00034048	9.4623e-05	1378.2	3.6956e-06	3.6977e-06	1371.5	380.37	3.7278e-06	3.6485e-06	427.52	145.51	126.72	44.002	3.7041e-06	54.268	312.903	232.361	280.668	182.119	268.665	274.587	181.806	186.601	291.802	326.317	185.817	190.490	191.144	195.578	371.389	194.506	-8191	255	
1108.163	1	1	0	0	0.17131	0.14553	0.20882	0.18967	0.23281	0.27682	0.35213	0.071768	0.25963	0.17355	0.14551	0.18565	0.15486	0.21451	0.17588	0.08829	-2.4708	-3.5563	-3.1583	-3.4417	-3.7229	-2.9167	-3.8229	-3.6708	-2.8917	-3.7417	-3.3604	-3.3688	-3.8083	-3.1188	-3.6625	-3.6729	365.692	430.660	525.008	169.188	229.045	349.953	418.763	207.715	207.671	502.013	445.315	440.850	250.609	426.127	315.203	508.801	0.00096753	0.00071847	3.1058e-05	1361.9	8.1377e-06	5.9625e-06	1356	375.49	9.1048e-06	3.6416e-06	424.98	144.23	125.33	43.11	9.6744e-06	53.407	0.00036528	0.00033845	9.4641e-05	1373.8	3.7674e-06	3.729e-06	1366.5	379.51	3.7526e-06	3.6896e-06	426.49	145.38	126.58	43.964	3.6496e-06	54.211	313.711	257.651	270.395	182.305	338.147	316.579	181.654	186.594	352.697	321.773	186.325	190.858	191.089	195.425	309.523	194.614	-8191	255	
1108.259	1	1	0	0	0.27117	0.19473	0.13404	0.33353	0.19365	0.10206	0.21504	0.21563	0.10015	0.11155	0.099663	0.15309	0.035748	0.1033	0.016859	0.17118	-2.4938	-3.7875	-3.0479	-3.4437	-3.6479	-2.7958	-3.75	-3.6833	-3.0375	-3.7896	-3.3563	-3.2229	-3.7083	-3.0333	-3.4646	-3.7146	306.323	209.607	235.125	192.484	187.660	265.213	452.672	492.879	386.372	502.421	181.672	277.351	266.438	443.342	206.936	458.617	0.00093207	0.00043827	0.00010791	1356	5.7331e-06	9.2469e-06	1351.7	376.4	5.1626e-06	1.6896e-06	423.69	144.79	126.04	43.34	7.5739e-06	53.598	0.00035403	0.00032466	9.1429e-05	1370.6	3.6131e-06	3.5328e-06	1366.6	378.8	3.5562e-06	3.4354e-06	425.79	145.68	126.77	44.088	3.4431e-06	54.305	313.863	295.129	311.550	182.248	313.660	349.913	181.681	186.519	325.902	357.389	185.862	190.459	191.067	195.653	396.315	194.622	-8191	255	
1108.355	1	1	0	0	0.28296	0.025482	0.14918	0.29938	0.06079	0.09694	0.24946	0.23549	0.20855	0.18805	0.12651	0.12607	0.31174	0.097514	0.092324	0.16592	-2.375	-3.3937	-3.0542	-3.0563	-3.6979	-2.9458	-3.5479	-3.9521	-2.7708	-3.5292	-3.5625	-3.1458	-3.8208	-3.1292	-3.3854	-3.6562	358.245	454.876	428.372	482.030	512.473	329.130	498.743	476.049	393.652	291.396	455.276	392.081	496.892	526.862	254.237	463.320	0.00089328	0.00026499	0.00015364	1358.8	3.6006e-06	5.7716e-06	1356.3	374.54	8.1991e-06	1.2278e-06	426.86	144.71	125.82	43.276	3.6704e-06	53.418	0.00033877	0.00031793	8.8181e-05	1370.7	3.479e-06	3.4882e-06	1364.7	378.22	3.5131e-06	3.4982e-06	426.82	145.65	126.63	43.924	3.5185e-06	54.227	308.672	244.113	271.736	182.221	225.625	302.698	181.910	186.734	345.964	341.032	185.937	190.478	191.176	195.848	372.047	194.499	-8191	255	
1108.451	1	1	0	0	0.10914	0.070979	0.14068	0.20093	0.22912	0.16296	0.27594	0.22441	0.17281	0.12441	0.11325	0.17105	0.14865	0.18369	0.13489	0.037284	-2.4542	-3.5	-3.3792	-3.2188	-3.8396	-3.3167	-3.475	-3.9854	-3.0062	-3.5438	-3.7188	-3.0167	-3.9646	-3.2458	-3.1771	-3.7833	441.513	187.699	327.149	440.975	348.360	454.705	444.916	470.906	374.165	225.938	174.197	190.493	251.327	193.078	197.107	516.750	0.00090154	0.00032399	9.4041e-05	1359	5.2739e-06	5.6161e-06	1348.8	375.17	8.0814e-06	5.5542e-06	426.66	143.58	124.91	43.012	7.4273e-06	53.239	0.00034314	0.00032243	9.0304e-05	1370.1	3.5732e-06	3.5812e-06	1361.9	377.83	3.6124e-06	3.5484e-06	426.41	144.64	126.02	43.7	3.5906e-06	54.014	308.269	325.289	223.779	182.263	265.634	325.920	181.764	186.661	334.500	309.088	186.186	190.399	191.226	195.565	344.006	194.552	-8191	255	
1108.572	1	1	0	0	0.29747	0.09772	0.14326	0.32982	0.13186	0.20311	0.41091	0.30131	0.31975	0.22207	0.36059	0.16215	0.24833	0.16085	0.074331	0.018025	-2.5687	-3.4333	-3.5354	-3.0458	-3.7333	-3.0375	-3.3688	-4	-2.9417	-3.325	-3.5479	-3.2188	-3.8229	-3.425	-3.25	-3.8167	415.579	226.201	241.718	508.893	173.799	416.333	455.205	483.983	292.124	220.170	402.900	482.667	310.550	499.729	391.718	329.227	0.00097176	0.00039909	0.00018152	1353.3	9.8584e-06	2.2859e-06	1352	374.28	5.5551e-06	3.603e-06	423.05	143.2	125.44	42.98	4.7182e-06	52.947	0.00035008	0.00032491	8.9019e-05	1366	3.5354e-06	3.5301e-06	1359.6	377.53	3.6235e-06	3.5433e-06	423.48	144.37	126.17	43.649	3.5233e-06	53.873	311.324	273.590	241.572	182.151	310.006	357.924	181.854	186.723	308.118	339.650	186.261	190.490	191.235	195.570	370.389	194.558	-8191	255	
1108.668	1	1	0	0	0.16477	0.11168	0.18971	0.23429	0.044949	0.16743	0.43571	0.19323	0.16088	0.21185	0.10174	0.33338	0.11322	0.18078	0.088475	0.08967	-2.6188	-3.3104	-3.625	-3.1479	-3.65	-3.3937	-3.1917	-3.9375	-2.9667	-3.1458	-3.6833	-2.9479	-3.6625	-3.5979	-2.8688	-4.0167	366.525	426.281	482.345	507.623	405.991	488.973	500.327	471.743	477.940	251.919	458.379	475.216	425.403	191.724	374.702	497.501	0.00090442	0.00067997	0.00010179	1355	1.9155e-06	1.5134e-06	1341.8	371.51	6.2237e-06	4.1304e-06	421.94	142.67	124.04	42.981	6.822e-06	52.766	0.00034738	0.00032508	9.0626e-05	1360.5	3.6298e-06	3.6167e-06	1351.5	375.4	3.6923e-06	3.6155e-06	423.22	144.05	125.69	43.517	3.73e-06	53.657	303.308	266.592	313.685	182.116	328.844	331.768	181.729	186.899	302.957	335.927	186.052	190.261	191.312	195.497	322.207	194.467	-8191	255	
1108.764	1	1	0	0	0.1694	0.12567	0.049325	0.30185	0.078186	0.2273	0.13274	0.23694	0.14967	0.12865	0.21297	0.48619	0.25137	0.28423	0.24159	0.077842	-2.7979	-3.1875	-3.7896	-3.1979	-3.5979	-3.5021	-3.2562	-3.8563	-3.0312	-3.1979	-3.6604	-3.2188	-3.6042	-3.5896	-2.8479	-3.8042	320.679	269.429	255.350	455.427	277.254	426.667	392.199	476.250	234.482	296.820	481.675	475.409	467.615	442.095	243.251	451.401	0.00098165	0.00071	0.00017586	1342.6	4.6196e-06	6.5494e-06	1330.9	368.32	2.6021e-06	4.3357e-06	420.23	140.94	123.25	42.307	7.6167e-06	52.021	0.00036055	0.00033627	9.5522e-05	1353.9	3.8221e-06	3.8201e-06	1343.2	372.5	4.0133e-06	3.9999e-06	421.18	142.77	124.5	43.12	4.1236e-06	53.191	307.931	252.118	224.006	182.415	333.903	281.419	181.993	186.880	269.263	304.037	186.057	190.661	191.150	195.690	357.248	194.814	-8191	255	
1108.860	1	1	0	0	0.16105	0.28516	0.15776	0.1988	0.094619	0.2277	0.28657	0.35223	0.15588	0.094056	0.1302	0.086639	0.35225	0.21988	0.18035	0.12254	-2.775	-3.1146	-3.7896	-3.2583	-3.4708	-3.7687	-3.1458	-3.7417	-3.2625	-3.0583	-3.8937	-3.0021	-3.3771	-3.6562	-2.8667	-3.65	427.993	452.970	526.971	490.376	184.777	417.024	443.173	474.668	440.941	326.548	507.325	372.372	483.006	452.113	321.421	497.131	0.00097791	0.00055161	0.00012149	1343.3	8.609e-06	5.8233e-06	1333.9	367.6	7.0314e-06	2.0101e-06	418.03	139.97	122.63	41.874	1.7571e-06	52.229	0.00040544	0.00038521	0.00010887	1354.4	4.3028e-06	4.2831e-06	1346.9	371.52	4.4013e-06	4.4323e-06	419.56	142.44	124.1	42.879	4.5965e-06	53.171	308.161	231.618	310.753	182.217	327.285	344.014	181.909	186.827	288.141	232.344	186.673	190.446	191.375	195.754	487.465	194.899	-8191	255	
1108.932	1	1	0	0	0.15451	0.23836	0.24734	0.2532	0.10416	0.037808	0.18523	0.10635	0.098937	0.12728	0.10951	0.067892	0.21307	0.13828	0.20086	0.074999	-2.9521	-2.7812	-3.6625	-3.1937	-3.1167	-3.6833	-3.0771	-3.6833	-3.525	-3.1104	-3.8937	-3.1292	-3.3563	-3.8083	-2.9917	-3.4771	311.532	286.418	295.668	527.327	450.095	413.117	410.051	395.032	359.098	314.504	228.714	427.013	230.425	497.756	250.078	392.155	0.00081843	0.00075405	8.3335e-05	1339.7	1.217e-05	7.1333e-06	1334.1	367.26	6.2826e-06	2.9959e-06	414.88	140.07	122.79	42.055	8.1187e-06	51.642	0.00043497	0.00042588	0.00011677	1356.1	4.6606e-06	4.6355e-06	1350.4	371.87	4.7263e-06	4.7328e-06	420.54	142.27	124.04	42.889	4.8206e-06	53.138	313.150	290.533	205.306	182.138	311.969	287.644	181.976	186.927	329.749	252.048	186.463	190.701	191.329	195.921	317.199	194.882	-8191	255	
1109.051	1	1	0	0	0.14218	0.23166	0.074979	0.19995	0.15674	0.089097	0.19441	0.29048	0.065086	0.22247	0.15254	0.26857	0.29934	0.20214	0.15583	0.21798	-3.0583	-2.7896	-3.6271	-3.2812	-3.0354	-3.8792	-2.9	-3.75	-3.6021	-2.8937	-3.6688	-3.3438	-3.0229	-3.7313	-2.9729	-3.2687	293.666	387.901	237.972	453.572	523.909	500.388	278.117	492.226	382.119	343.068	347.668	425.872	457.502	260.991	466.192	270.010	0.00088955	0.00081919	0.00019531	1342.2	1.0033e-05	7.3267e-06	1335.2	367.96	4.4408e-06	8.3248e-07	415.32	140.36	122.39	42.045	7.9259e-06	52.025	0.0004539	0.00044062	0.00012148	1357.9	4.8068e-06	4.8328e-06	1351	372.15	4.8062e-06	4.8664e-06	420.89	142.59	124.1	43.021	4.91e-06	53.245	319.706	262.039	267.018	182.377	307.152	266.030	181.838	187.074	352.398	388.138	186.174	190.700	191.222	195.865	369.518	195.133	-8191	255	
1109.147	1	1	0	0	0.15571	0.19001	0.18699	0.1581	0.11742	0.20277	0.13331	0.13239	0.061061	0.13927	0.098785	0.13928	0.24074	0.15478	0.15776	0.18714	-3.175	-2.9938	-3.4208	-3.325	-3.0333	-3.675	-3.3312	-3.5542	-3.5854	-2.9333	-3.775	-3.4979	-2.9688	-3.8292	-2.8771	-3.3542	458.107	246.029	339.007	485.362	330.383	198.827	503.519	458.647	279.831	214.793	174.989	334.238	477.267	451.028	410.876	435.813	0.00075879	0.00033214	0.00019403	1348.1	1.333e-05	1.0179e-06	1342	367.85	1.0605e-05	4.1615e-06	416.99	139.99	123.19	42.187	4.8427e-06	51.783	0.00046156	0.00045179	0.0001263	1365.8	4.996e-06	5.0644e-06	1355.4	373.23	5.0843e-06	5.1713e-06	421.64	142.78	124.46	43.147	5.2088e-06	53.329	312.641	229.286	274.698	182.219	318.297	314.334	182.118	186.912	324.165	341.787	186.725	190.605	191.372	195.838	327.965	194.887	-8191	255	
1109.243	1	1	0	0	0.13374	0.11815	0.25787	0.2266	0.083544	0.37441	0.23459	0.20718	0.10797	0.2445	0.14708	0.23435	0.07921	0.13321	0.10944	0.1693	-3.2438	-2.6437	-3.4604	-3.5062	-2.7583	-3.6375	-3.3729	-3.3688	-3.7146	-2.7521	-3.6292	-3.4958	-3.0375	-3.8583	-3.15	-3.3125	378.816	460.964	340.593	181.560	455.534	230.205	520.460	433.771	427.791	380.799	183.476	401.518	367.077	192.801	320.166	449.152	0.00098588	0.00038511	0.00013708	1351.3	7.9449e-06	3.5345e-06	1346.3	369.89	9.5172e-06	3.9212e-06	416.9	140.61	122.75	42.049	1.019e-05	52.299	0.00049619	0.00048024	0.00013541	1370.1	5.278e-06	5.3128e-06	1364.3	374.43	5.3358e-06	5.4162e-06	423.41	142.82	124.71	43.215	5.3781e-06	53.602	309.020	261.298	323.314	182.435	273.751	348.809	181.853	186.870	346.526	361.329	186.294	190.584	191.152	195.704	364.862	194.808	-8191	255	
1109.364	1	1	0	0	0.053589	0.20509	0.13843	0.40277	0.11372	0.087439	0.39191	0.24238	0.17813	0.16418	0.2973	0.092675	0.033043	0.13693	0.13243	0.14393	-3.3583	-2.9188	-3.4479	-3.6354	-3.1312	-3.7562	-3.4146	-3.1333	-3.7521	-2.7854	-3.4979	-3.6375	-2.7979	-3.7125	-3.1208	-3.0333	458.458	392.652	406.772	189.950	295.851	341.841	476.954	427.263	215.283	380.056	434.034	187.113	178.741	187.535	500.005	181.625	0.00094568	0.00048542	0.00016642	1355.9	7.2381e-06	2.9769e-06	1355.4	367.94	5.6015e-06	2.7526e-06	416.95	140.4	123.29	41.877	6.9886e-06	52.387	0.00051095	0.00049441	0.00013679	1375	5.4762e-06	5.4541e-06	1368.2	373.68	5.5613e-06	5.5259e-06	423.64	143.21	124.9	43.232	5.5701e-06	53.656	313.685	241.570	283.688	182.155	316.924	276.742	181.904	186.817	313.030	309.705	186.647	190.735	191.234	196.021	366.116	194.721	-8191	255	
1109.460	1	1	0	0	0.07981	0.30246	0.21738	0.17673	0.21761	0.13874	0.12183	0.22171	0.21038	0.18241	0.098603	0.23459	0.43401	0.15492	0.20897	0.095989	-3.1958	-2.9437	-3.3854	-3.9062	-2.7667	-3.4292	-3.4958	-3.1625	-3.8292	-3.1271	-3.1333	-3.7958	-3.0146	-3.6479	-3.3688	-3.1333	185.999	222.209	429.504	181.276	306.702	395.365	473.296	176.496	259.629	515.807	522.573	505.134	507.361	508.039	358.711	456.509	0.00088892	0.00063155	5.4695e-05	1357.4	7.1232e-06	7.0575e-06	1353.2	369.65	1.1572e-05	4.2337e-06	417.98	140.06	122.76	42.065	3.7739e-06	52.464	0.00051721	0.00050514	0.00014135	1376.7	5.5498e-06	5.6113e-06	1368.8	374.79	5.6179e-06	5.6448e-06	424.16	143.07	124.95	43.327	5.6296e-06	53.715	312.305	292.903	258.834	182.074	282.679	290.347	181.693	186.727	331.941	360.582	186.350	190.365	191.383	195.826	330.801	194.604	-8191	255	
1109.532	1	1	0	0	0.17254	0.29294	0.36294	0.16291	0.03678	0.10187	0.31883	0.21629	0.076449	0.15173	0.047363	0.028316	0.12966	0.072855	0.19937	0.53961	-3.3021	-3.2625	-3.1292	-3.8625	-2.8063	-3.4875	-3.7417	-3.0875	-3.8667	-3.2438	-3.1917	-3.7979	-3.025	-3.5583	-3.6646	-3.0625	181.024	501.293	197.149	208.108	348.358	295.473	501.295	169.694	285.543	451.246	373.568	440.838	231.784	212.095	457.571	374.849	0.00078486	0.0004613	2.244e-05	1362	9.6496e-06	7.0642e-06	1355.8	369.41	1.2517e-06	3.8053e-06	420	140.9	122.66	42.426	5.0859e-06	52.267	0.00052935	0.00051816	0.00014466	1380.3	5.7054e-06	5.6282e-06	1371.1	375.18	5.7386e-06	5.6698e-06	425.84	143.39	124.96	43.427	5.6221e-06	53.818	316.356	229.256	525.600	182.039	308.637	302.702	181.710	186.700	355.852	495.077	186.120	190.425	191.195	196.030	340.234	194.713	-8191	255	
1109.652	1	1	0	0	0.14995	0.20119	0.29818	0.099164	0.18895	0.19076	0.19029	0.26052	0.099845	0.099377	0.097445	0.33596	0.36491	0.1312	0.07558	0.17601	-3.4396	-3.1583	-3	-3.8063	-3.1375	-3.5187	-3.9604	-3.0229	-3.6312	-3.3875	-3.1854	-3.7958	-3.1333	-3.3	-3.6479	-3.0812	237.651	471.169	347.397	430.924	224.413	516.832	477.759	455.513	239.201	415.725	238.407	505.737	208.193	333.936	221.729	390.001	0.00080393	0.00069904	0.00013533	1363.6	1.0382e-05	1.4682e-06	1351.7	370.75	4.987e-06	4.9355e-06	418.55	141.92	122.93	42.251	4.0277e-06	52.372	0.00052804	0.00050903	0.00014326	1381.6	5.6197e-06	5.5944e-06	1370.8	376.14	5.6352e-06	5.5853e-06	425	143.75	125	43.429	5.5701e-06	53.72	307.138	243.837	375.861	182.066	289.886	336.666	181.716	186.754	332.223	293.747	186.347	190.826	191.155	196.071	300.378	194.685	-8191	255	
1109.749	1	1	0	0	0.16218	0.12743	0.26989	0.19987	0.062259	0.21046	0.2787	0.37797	0.17809	0.071597	0.031715	0.053921	0.063092	0.15062	0.19673	0.14494	-3.1917	-3.3688	-2.9062	-3.9188	-3.1437	-3.3792	-3.8167	-2.9292	-3.5208	-3.4083	-3.0312	-3.8917	-3.2979	-3.2583	-3.6896	-3.1063	180.762	246.177	526.841	482.675	395.017	321.237	460.321	494.381	265.515	379.258	351.703	476.334	483.633	327.824	487.023	515.320	0.0009006	0.00033324	0.00012346	1359.6	5.7184e-06	8.2514e-06	1352.4	368.36	9.2997e-06	3.4417e-06	419.88	140.96	123.04	42.242	5.8458e-06	52.114	0.00052712	0.00051025	0.00014268	1379.5	5.6223e-06	5.6392e-06	1369.5	374.68	5.6192e-06	5.6306e-06	426.48	143.53	125.11	43.389	5.669e-06	53.661	314.251	267.833	289.530	182.250	372.824	287.947	181.946	187.054	326.747	367.371	186.228	190.437	191.163	195.935	321.305	195.015	-8191	255	
1109.845	1	1	0	0	0.13887	0.22532	0.11581	0.35756	0.1047	0.24579	0.19224	0.26129	0.17198	0.092997	0.037112	0.073482	0.10406	0.088802	0.10075	0.1201	-3.1937	-3.4083	-2.8792	-3.9896	-3.1604	-3.1833	-3.8063	-3.2021	-3.4042	-3.5687	-3.1708	-3.8021	-3.3521	-3.0604	-3.5333	-2.9917	467.605	456.752	456.468	188.749	285.032	189.943	462.717	514.131	383.068	483.491	487.889	519.986	433.496	481.847	305.763	197.740	0.00090842	0.00037931	0.00014181	1357.5	7.6166e-06	6.5976e-06	1354.4	370.56	6.5933e-06	1.4501e-06	420.27	140.42	123.16	42.531	7.3648e-06	52.219	0.00052264	0.00051052	0.00014347	1381.3	5.6351e-06	5.6405e-06	1368.9	375.73	5.7133e-06	5.627e-06	426.6	143.47	125.15	43.471	5.6969e-06	53.683	314.049	231.621	252.886	182.444	332.205	304.271	181.928	186.773	371.373	363.182	186.462	190.354	191.066	195.683	336.305	194.617	-8191	255	
1109.965	1	1	0	0	0.20492	0.1684	0.16828	0.29612	0.18411	0.16267	0.35916	0.13901	0.11901	0.055535	0.23002	0.16744	0.18097	0.10536	0.032776	0.065132	-2.9688	-3.5396	-2.7604	-3.7542	-3.2104	-3.0458	-3.8646	-3.3479	-3.2729	-3.7521	-3.0438	-3.6458	-3.4938	-3.0104	-3.6104	-3.1417	424.278	364.771	336.052	187.214	175.163	174.926	446.563	407.665	381.825	306.316	488.347	492.756	194.103	232.063	457.666	430.869	0.00099708	0.00055325	7.7406e-05	1359.9	3.0006e-06	7.8279e-06	1353.1	370.79	7.2675e-06	5.8634e-06	419.28	140.42	123.21	42.166	1.0343e-05	52.611	0.0005283	0.00051543	0.00014428	1380.9	5.664e-06	5.6097e-06	1370.4	375.6	5.6793e-06	5.6532e-06	426.05	143.44	125.25	43.395	5.64e-06	53.768	306.583	268.583	308.115	182.236	260.922	299.221	181.944	186.841	309.161	377.652	186.051	190.658	190.876	195.854	362.446	194.676	-8191	255	
1110.060	1	1	0	0	0.20903	0.18124	0.18077	0.20133	0.29624	0.17822	0.20732	0.30428	0.20019	0.081201	0.10357	0.077896	0.18871	0.1557	0.30089	0.14204	-2.7896	-3.65	-2.8104	-3.7521	-3.3167	-2.7938	-3.9271	-3.1958	-3.1854	-3.6437	-3.1063	-3.5583	-3.5833	-3.0354	-3.6896	-3.225	302.685	466.110	307.042	489.819	479.099	477.593	446.183	459.672	234.607	338.076	180.058	362.218	289.176	449.750	202.542	326.920	0.00089807	0.0003813	8.9566e-05	1360.1	9.7319e-06	6.6757e-06	1354.3	368.12	3.4414e-06	8.2599e-06	418.55	141.32	123.24	42.09	4.3712e-06	52.468	0.00052468	0.0005135	0.0001426	1381.1	5.69e-06	5.6389e-06	1369.6	374.99	5.6019e-06	5.6266e-06	425.56	143.63	124.97	43.405	5.661e-06	53.798	309.381	315.160	303.985	182.172	297.105	262.307	181.398	186.581	289.892	356.002	185.770	190.382	190.819	195.504	348.609	194.499	-8191	255	
1110.156	1	1	0	0	0.17256	0.2339	0.02185	0.22761	0.052372	0.11232	0.19672	0.40788	0.20314	0.18501	0.2747	0.035955	0.25946	0.15567	0.24796	0.12144	-2.9354	-3.5542	-3.0187	-3.6437	-3.3396	-2.8625	-3.7687	-3.2479	-3.1562	-3.825	-3.1042	-3.4417	-3.6937	-2.9188	-3.6188	-3.4562	442.716	508.393	187.507	439.460	293.702	423.232	461.521	485.977	193.803	419.848	443.918	271.697	494.743	509.779	272.793	168.909	0.00082479	0.00091533	0.0002344	1360.3	8.1561e-06	5.7725e-06	1353.7	369.19	4.3319e-06	2.6308e-06	417.3	141.19	123	42.155	8.9054e-06	52.249	0.00052772	0.00051764	0.00014388	1380.7	5.6043e-06	5.7132e-06	1370.1	375.82	5.6746e-06	5.6996e-06	424.97	143.73	124.97	43.368	5.7612e-06	53.704	319.252	278.993	242.027	181.907	347.278	322.980	181.558	186.428	287.794	356.398	185.612	190.481	190.824	195.585	335.663	194.549	-8191	255	
1110.228	1	1	0	0	0.21725	0.16474	0.21838	0.41852	0.012111	0.098633	0.13656	0.10012	0.1154	0.14727	0.18578	0.1096	0.056512	0.035292	0.068956	0.21705	-2.9	-3.7687	-3.0396	-3.6	-3.7146	-2.8146	-3.8771	-3.5333	-3	-3.9208	-3.175	-3.3063	-3.7417	-2.9958	-3.5271	-3.6208	303.182	292.032	225.639	486.190	445.848	182.706	411.452	419.262	349.384	219.894	184.572	170.519	285.896	376.039	343.696	433.930	0.00092291	0.00084556	0.00014338	1354.8	2.9173e-06	6.0646e-06	1352.8	371.09	6.1991e-06	7.8495e-06	417.04	140.91	123.15	42.428	3.8498e-06	52.133	0.00052736	0.00052031	0.00014317	1378.6	5.7214e-06	5.7067e-06	1369.7	375.5	5.6537e-06	5.6785e-06	425	143.46	125.27	43.496	5.7318e-06	53.63	305.332	311.929	223.672	182.066	282.582	357.924	181.718	186.547	366.602	354.018	186.125	190.289	190.866	195.335	245.420	194.310	-8191	255	
1110.348	1	1	0	0	0.24004	0.089768	0.19707	0.083248	0.028567	0.10532	0.35535	0.27079	0.11952	0.086268	0.37329	0.016772	0.24626	0.21712	0.27112	0.11498	-2.4667	-3.6479	-3.1875	-3.4104	-3.6729	-2.8917	-3.7104	-3.5979	-2.9542	-3.6375	-3.1896	-3.3312	-3.8354	-2.8354	-3.4854	-3.6375	430.336	480.519	265.985	292.440	184.253	255.321	487.175	487.366	400.762	434.660	490.324	248.194	474.082	511.848	400.667	418.347	0.00089543	0.00086256	0.00018549	1360.6	2.3353e-06	1.8387e-06	1349.6	368.57	1.1208e-05	4.0718e-06	418.12	140.83	122.55	42.369	7.7164e-06	51.93	0.00053422	0.00051795	0.00014575	1381	5.7914e-06	5.7666e-06	1368.9	375.22	5.8061e-06	5.724e-06	424.93	143.39	125.01	43.405	5.7929e-06	53.605	312.827	310.007	305.053	181.953	483.387	279.639	181.682	186.572	295.049	271.111	186.073	190.571	190.986	195.651	337.937	194.113	-8191	255	
1110.444	1	1	0	0	0.10846	0.1003	0.17715	0.081546	0.19895	0.12013	0.31193	0.23827	0.092257	0.029916	0.11751	0.044685	0.26103	0.37969	0.18198	0.24338	-2.3563	-3.6896	-3.2125	-3.2125	-3.7687	-2.7979	-3.6375	-3.6875	-2.7604	-3.6979	-3.2333	-3.1625	-3.8542	-3.0792	-3.4125	-3.7104	375.628	359.866	461.402	465.297	271.239	460.215	472.056	473.340	397.183	234.464	329.064	505.065	507.118	469.374	417.396	396.609	0.00086776	0.00037875	0.00013501	1350.3	8.9447e-06	7.4363e-06	1349	369.5	5.8368e-06	4.9045e-06	417.19	140.33	122.66	42.179	8.2274e-06	52.226	0.0005384	0.00052718	0.00014599	1375.2	5.7862e-06	5.7456e-06	1366.9	375.49	5.8105e-06	5.8311e-06	425.15	143.23	124.96	43.338	5.8954e-06	53.607	310.129	262.573	255.980	182.101	321.305	310.629	181.631	186.605	381.927	348.536	186.123	190.367	190.882	195.596	303.698	194.580	-8191	255	
1110.540	1	1	0	0	0.27895	0.21785	0.099429	0.39089	0.11423	0.10403	0.071303	0.18449	0.022923	0.22588	0.17936	0.035557	0.29562	0.18277	0.093926	0.090831	-2.4979	-3.4667	-3.3708	-3.2167	-3.7812	-3.0583	-3.4354	-3.9042	-2.9813	-3.5479	-3.4271	-3.2188	-3.7375	-3.2583	-3.0958	-3.8792	453.047	249.512	219.223	518.482	337.531	303.459	461.244	395.366	406.477	279.687	213.482	236.332	171.227	457.349	271.982	435.775	0.00085546	0.00040959	0.00018934	1360.9	4.5078e-06	2.7929e-06	1347.1	368.9	5.8037e-06	9.4046e-07	417.39	141.01	121.86	42.213	4.971e-06	52.035	0.00054724	0.00054017	0.00014993	1378	5.8438e-06	5.8537e-06	1365.9	375.68	5.8411e-06	5.8243e-06	425.13	143.63	124.89	43.427	5.6866e-06	53.727	310.130	241.837	214.818	181.921	285.572	334.684	181.777	186.601	345.568	415.377	185.904	190.328	191.188	195.583	355.402	194.614	-8191	255	
1110.637	1	1	0	0	0.10837	0.13187	0.091013	0.31365	0.1464	0.20236	0.26486	0.30118	0.27822	0.17236	0.10662	0.17618	0.14053	0.20312	0.12243	0.41559	-2.4667	-3.2542	-3.4542	-3.1	-3.6792	-3.125	-3.3104	-4.05	-3.0208	-3.5208	-3.6042	-2.8438	-3.8979	-3.3021	-2.925	-3.8833	349.116	241.137	527.821	488.867	475.635	234.307	501.256	419.245	191.278	460.265	441.011	195.133	498.255	482.302	229.771	473.161	0.00075487	0.00051393	0.00010859	1351.6	1.253e-05	5.0716e-06	1347.3	369.09	3.6684e-06	2.1567e-06	417.1	141.07	122.61	42.219	4.3879e-06	52.171	0.00053074	0.00051878	0.00014346	1377.1	5.5813e-06	5.5458e-06	1366.6	375.33	5.5641e-06	5.5833e-06	423.82	143.46	124.88	43.368	5.4883e-06	53.721	308.779	251.347	250.606	182.020	275.181	313.930	181.511	186.755	299.064	260.464	186.181	190.581	191.014	195.544	323.507	194.690	-8191	255	
1110.757	1	1	0	0	0.20144	0.13903	0.14368	0.23239	0.082239	0.0058753	0.15764	0.26109	0.09985	0.18226	0.16616	0.084919	0.16808	0.12631	0.24126	0.054597	-2.5875	-3.5125	-3.7562	-3.0208	-3.7	-3.2062	-3.3667	-3.7792	-3.0667	-3.3063	-3.6833	-3.0458	-3.7333	-3.3729	-2.9667	-3.9042	386.931	187.308	308.655	465.338	222.374	201.600	446.404	455.076	490.003	396.425	518.179	171.775	524.235	522.582	516.315	485.579	0.00086602	0.00022484	0.00022191	1353.8	4.2523e-06	5.4769e-06	1348.2	369.89	1.0465e-05	4.9644e-06	417.5	140.75	123.05	42.406	4.1626e-06	52.437	0.00051878	0.00050427	0.00014176	1375	5.6418e-06	5.6455e-06	1367.2	375.38	5.7518e-06	5.7967e-06	424.8	143.63	125.01	43.456	5.7706e-06	53.829	311.890	453.482	269.887	182.152	301.309	336.949	182.073	186.873	360.599	344.443	186.267	190.390	191.037	195.207	297.286	194.500	-8191	255	
1110.829	1	1	0	0	0.077176	0.059964	0.15077	0.054283	0.024823	0.11149	0.32431	0.24966	0.24381	0.11079	0.28586	0.31025	0.1823	0.14187	0.11511	0.26466	-2.6437	-3.1417	-3.7375	-3.1271	-3.4188	-3.4146	-3.0854	-3.9021	-3.0521	-3.3646	-3.7562	-3.025	-3.7708	-3.8042	-2.85	-3.8521	262.517	220.655	223.733	218.424	322.485	253.742	490.974	465.619	202.078	396.802	463.693	469.999	522.731	393.424	394.936	515.710	0.00088177	0.00033168	0.00018569	1358	9.134e-06	3.703e-06	1346.5	369.73	3.2876e-06	3.9834e-06	419.82	140.96	123.53	42.278	3.463e-06	52.622	0.00053444	0.00052133	0.00014431	1378.2	5.6992e-06	5.713e-06	1367.5	376.03	5.6832e-06	5.626e-06	426.13	143.48	125.34	43.486	5.5908e-06	53.907	311.162	260.512	267.182	181.845	300.684	380.369	181.523	186.799	276.483	270.668	186.378	190.283	191.024	195.627	261.879	194.908	-8191	255	
1110.925	1	1	0	0	0.24863	0.19805	0.14826	0.099916	0.02799	0.084175	0.44366	0.28638	0.10704	0.053447	0.12323	0.06331	0.38727	0.18423	0.21229	0.19598	-2.7292	-3.0854	-3.6312	-3.1021	-3.4042	-3.5958	-3.1729	-3.75	-3.225	-3.2292	-3.7938	-3.0521	-3.4667	-3.7208	-2.9583	-3.6521	172.995	380.832	310.995	202.899	242.166	448.518	482.292	500.704	310.163	325.402	380.064	499.393	487.712	525.525	295.140	417.929	0.00084696	0.00046591	2.4031e-05	1358.7	1.1178e-05	5.4445e-06	1353.5	370.67	7.5667e-06	3.3868e-06	419.62	141	122.65	42.312	9.3547e-06	52.555	0.00052516	0.00050853	0.00014086	1378.2	5.5339e-06	5.519e-06	1371.1	375.71	5.5316e-06	5.4723e-06	425.65	143.59	124.95	43.462	5.3529e-06	53.781	311.417	244.714	398.990	181.984	316.789	305.006	181.885	186.451	363.020	328.920	185.867	190.653	191.122	195.758	291.904	194.587	-8191	255	
1111.046	1	1	0	0	0.1815	0.075534	0.054207	0.2626	0.059478	0.29841	0.48022	0.096125	0.033671	0.072655	0.14824	0.23329	0.14564	0.25434	0.24775	0.19462	-2.9958	-2.9208	-3.7854	-3.2667	-3.2521	-3.6354	-2.9938	-3.8021	-3.2812	-3.025	-3.9104	-3.3417	-3.2687	-3.7562	-2.8583	-3.6271	331.175	337.591	254.305	503.778	298.808	310.464	474.644	491.775	229.623	303.022	493.874	518.212	288.767	506.242	328.361	486.086	0.00088598	0.00072756	0.00023998	1360.5	3.6326e-06	5.2384e-06	1355	370.31	9.5023e-06	7.3259e-06	420.31	142.27	124.23	42.898	2.9666e-06	52.789	0.0004942	0.00047288	0.00013069	1379.9	5.0477e-06	5.0023e-06	1369.4	375.84	4.9721e-06	4.877e-06	425.24	144.02	125.62	43.798	4.8801e-06	54.07	316.090	233.690	302.514	182.114	308.218	311.044	181.618	186.924	296.615	360.317	186.337	190.610	191.060	195.770	333.332	194.849	-8191	255	
1111.140	1	1	0	0	0.075664	0.25975	0.2863	0.18761	0.088978	0.077441	0.077345	0.12132	0.053172	0.042613	0.23808	0.22178	0.12004	0.19444	0.028817	0.0047679	-3.0042	-2.8708	-3.7729	-3.4167	-3.0687	-3.7938	-3.3354	-3.6271	-3.5583	-2.8292	-3.7188	-3.325	-3.0708	-3.7917	-2.7938	-3.5104	466.620	376.617	264.645	481.181	365.701	398.182	493.607	489.393	270.369	191.225	198.284	186.245	511.328	231.917	468.240	323.952	0.00091594	0.00064409	4.1765e-05	1362.2	4.5281e-06	5.8958e-06	1359.7	370.36	7.4258e-06	4.2463e-06	420.16	141.59	123.65	42.604	4.6781e-06	52.818	0.00045278	0.00043933	0.00012312	1380.8	4.892e-06	4.9179e-06	1373	375.98	4.9016e-06	4.948e-06	425.68	143.79	125.6	43.667	4.9977e-06	54.089	311.066	303.274	340.545	182.112	221.776	347.360	182.021	186.943	330.715	354.075	186.356	190.492	191.285	195.730	371.711	194.980	-8191	255	
1111.236	1	1	0	0	0.17469	0.10326	0.11619	0.23707	0.15098	0.15571	0.25988	0.089764	0.04113	0.22306	0.021237	0.15761	0.18231	0.0196	0.10471	0.13038	-2.9104	-2.8875	-3.6625	-3.4396	-2.9542	-3.8833	-3.3042	-3.6542	-3.625	-2.9396	-3.6646	-3.4396	-3.1875	-3.8917	-2.9854	-3.5146	245.139	376.677	288.201	502.369	301.818	390.735	518.628	187.748	294.543	305.937	475.189	501.328	181.425	285.206	508.694	176.435	0.00081713	0.00067127	0.00023372	1362.3	9.5957e-06	6.1624e-06	1357.6	372.3	1.0812e-05	5.4044e-06	422.6	141.49	123.31	42.544	3.4197e-06	52.743	0.00047001	0.00045297	0.00012568	1380.1	4.9837e-06	4.9195e-06	1373.4	376.27	4.89e-06	4.8985e-06	426.45	143.76	125.52	43.642	4.9323e-06	54.042	308.582	250.204	280.824	182.058	303.201	284.258	181.751	186.793	338.349	323.835	186.180	190.415	191.256	195.636	237.343	194.806	-8191	255	
1111.332	1	1	0	0	0.17863	0.16092	0.19948	0.34317	0.11821	0.1035	0.45739	0.099615	0.067305	0.088114	0.18954	0.22052	0.21446	0.25085	0.23815	0.056719	-3.1667	-2.8458	-3.6583	-3.5042	-2.9125	-3.6417	-3.2667	-3.4562	-3.5479	-2.7354	-3.5771	-3.5396	-3.0729	-3.7979	-3.2062	-3.1604	454.997	305.675	343.152	491.256	404.485	234.107	484.458	449.942	472.732	249.253	457.874	428.545	497.163	193.076	270.155	417.178	0.00083271	0.00059764	0.00016628	1362.8	7.0832e-06	1.0476e-06	1358.8	370.1	5.3009e-06	2.1736e-06	422.93	142.04	123.68	42.619	1.5313e-06	52.858	0.00045988	0.00045506	0.00012745	1379.9	4.9942e-06	4.9613e-06	1371.5	375.7	4.9373e-06	4.9062e-06	426.09	144.04	125.48	43.637	4.9498e-06	54.093	311.623	261.890	239.207	182.088	344.874	303.624	181.626	186.878	328.450	244.894	186.322	190.477	191.013	195.807	513.175	194.357	-8191	255	
1111.429	1	1	0	0	0.074758	0.28161	0.14901	0.092627	0.12379	0.23638	0.24235	0.26519	0.21753	0.087294	0.16131	0.23477	0.057413	0.18114	0.026422	0.28685	-3.3208	-2.8854	-3.5417	-3.7292	-2.8646	-3.7271	-3.2938	-3.2021	-3.6875	-3.0521	-3.5229	-3.6583	-2.9562	-3.8167	-3.3146	-3.1937	495.480	286.264	243.169	419.397	442.150	260.169	437.080	445.024	441.687	261.090	505.765	201.217	451.312	402.038	298.049	421.862	0.00091621	0.00048658	6.5182e-05	1368.1	2.6078e-06	3.5201e-06	1356.2	370.63	6.7885e-06	5.5768e-06	419.17	142.2	123.43	42.636	5.0682e-06	52.599	0.00047005	0.00045734	0.00012605	1383	5.0061e-06	4.9692e-06	1370.3	375.37	5.0086e-06	5.0245e-06	424.96	144.09	125.39	43.651	5.0354e-06	53.865	314.211	270.205	283.376	181.826	229.034	328.624	181.679	186.906	332.080	314.612	186.025	190.269	190.656	195.328	278.851	194.822	-8191	255	
1111.525	1	1	0	0	0.20696	0.10326	0.26671	0.13649	0.034847	0.052488	0.14029	0.24309	0.066482	0.35256	0.21864	0.10965	0.22863	0.33616	0.071938	0.041708	-3.1917	-2.8229	-3.2313	-3.7562	-2.9625	-3.625	-3.4667	-2.9542	-3.8042	-3.0208	-3.3479	-3.7562	-2.9896	-3.8521	-3.325	-3.0042	410.528	501.692	202.903	512.542	428.285	347.976	459.224	497.651	429.555	471.664	440.307	356.045	436.197	409.491	337.644	342.073	0.00073846	0.00088636	0.00010209	1361.8	5.3908e-06	4.2491e-06	1356.4	370.04	1.0121e-05	3.5068e-06	422.61	141.43	123.66	42.514	7.4783e-06	52.482	0.00047682	0.00046374	0.00012871	1380.2	5.1221e-06	5.0395e-06	1370.1	374.95	5.1187e-06	5.1409e-06	426.09	143.85	125.56	43.639	5.1407e-06	53.869	305.829	280.506	212.742	181.826	322.430	366.377	181.674	186.581	347.360	305.176	186.179	190.320	191.006	195.355	340.409	194.627	-8191	255	
1111.645	1	1	0	0	0.39364	0.09591	0.06073	0.19864	0.13306	0.085969	0.35824	0.26376	0.10311	0.088049	0.18767	0.05579	0.16655	0.22403	0.45184	0.17431	-3.2792	-3.0104	-3.1208	-3.6375	-2.8792	-3.6146	-3.5938	-3.2562	-3.8396	-3.0833	-3.3479	-3.7917	-2.9542	-3.5104	-3.625	-3.0958	315.256	338.642	249.464	473.966	246.187	457.354	456.765	488.402	303.095	407.099	237.496	419.032	361.353	195.065	491.705	457.280	0.0008354	0.00053166	0.00017662	1362.5	6.9803e-06	9.783e-06	1355	368.58	1.1465e-05	2.8836e-06	419.84	141.07	123.53	42.737	5.174e-06	52.85	0.00048757	0.00046825	0.00013158	1381.4	5.2427e-06	5.2117e-06	1370	375.1	5.2277e-06	5.2337e-06	425.65	143.83	125.39	43.731	5.0959e-06	54.044	313.458	291.982	185.969	182.015	249.519	288.924	181.782	186.691	333.615	342.649	185.975	190.131	191.248	195.836	338.533	194.401	-8191	255	
1111.741	1	1	0	0	0.26707	0.042559	0.13957	0.11021	0.18164	0.13274	0.10301	0.13878	0.23098	0.14946	0.1189	0.1771	0.15464	0.14949	0.13831	0.071886	-3.3208	-3.1833	-3.1063	-3.7771	-3.0146	-3.3042	-3.6417	-3.0354	-3.8438	-3.1354	-3.0979	-3.9375	-3.0812	-3.4229	-3.5208	-3.0958	478.535	314.002	494.637	504.421	395.835	250.012	339.211	418.985	178.174	205.365	288.186	520.487	360.339	185.395	252.006	412.264	0.00092414	0.0008464	0.00011673	1362.6	9.8677e-06	6.764e-06	1350.9	369.48	7.1967e-06	4.2382e-06	419.4	142.12	123.54	42.709	3.5537e-06	52.879	0.00047863	0.00046619	0.00012916	1381.4	5.1314e-06	5.0518e-06	1370.1	375.43	5.0555e-06	5.0462e-06	425.65	143.78	125.23	43.623	4.9915e-06	53.943	308.068	238.063	346.816	182.106	329.654	355.547	181.781	186.617	351.005	323.225	186.045	190.412	191.108	195.954	317.684	194.480	-8191	255	
1111.838	1	1	0	0	0.062139	0.038427	0.081566	0.13899	0.063439	0.10532	0.12683	0.25449	0.061777	0.03077	0.24943	0.051687	0.14873	0.32236	0.054285	0.061103	-3.3854	-3.1646	-2.9771	-3.7562	-2.9083	-3.1813	-3.9271	-3.0583	-3.6229	-3.3479	-3.2	-3.8771	-3.2208	-3.4375	-3.5667	-3.1354	396.865	181.054	312.372	430.384	382.751	220.427	498.885	496.215	360.576	308.916	511.120	395.843	494.650	195.948	305.032	463.563	0.0009889	0.00017397	0.00023219	1362.9	5.5381e-06	6.2581e-06	1355.5	369.94	9.6446e-06	4.285e-06	424.39	141.42	123.39	42.698	5.2423e-06	52.478	0.00047389	0.00045919	0.00012785	1380.4	5.0671e-06	5.0811e-06	1370.6	374.7	5.0322e-06	4.9872e-06	426.1	143.91	125.31	43.651	4.9523e-06	53.88	310.229	228.474	235.908	182.163	351.069	271.257	181.920	186.851	335.477	313.586	186.348	190.678	190.980	195.884	363.908	194.741	-8191	255	
1111.934	1	1	0	0	0.19521	0.060692	0.088112	0.36692	0.14083	0.11391	0.27319	0.050178	0.17453	0.14073	0.14073	0.1942	0.23	0.1543	0.14191	0.058743	-3.0479	-3.2521	-2.8958	-3.9562	-3.1625	-3.1396	-3.7438	-3.0771	-3.4604	-3.3312	-3.0292	-3.8354	-3.2771	-3.3208	-3.7	-3.0792	428.839	520.610	287.633	199.918	197.617	223.952	445.192	500.415	528.413	218.211	461.121	512.344	220.563	274.530	498.368	386.511	0.00093341	0.00019099	0.00018549	1360.2	9.4774e-06	4.6011e-06	1349.5	368.29	5.9712e-06	7.2961e-07	420.49	141.91	123.36	42.481	9.1936e-06	52.466	0.00047037	0.00044909	0.00012659	1378.2	4.9459e-06	4.9318e-06	1367.8	373.8	4.9675e-06	4.8632e-06	424.43	143.71	125.24	43.514	4.8921e-06	53.864	314.340	313.196	282.450	182.015	345.905	289.523	181.930	186.858	356.647	420.253	186.548	190.512	190.897	195.740	313.375	194.583	-8191	255	
1112.053	1	1	0	0	0.14436	0.14808	0.14577	0.097872	0.25068	0.15507	0.3121	0.16207	0.08404	0.065417	0.10756	0.10281	0.19326	0.2714	0.14097	0.1892	-3.1625	-3.5417	-2.8417	-3.9104	-3.3312	-2.9021	-4.0354	-3.2208	-3.3688	-3.5083	-2.9104	-3.7542	-3.3063	-3.1063	-3.7667	-3.0458	520.412	266.787	404.421	525.504	468.321	286.834	474.175	432.445	333.272	370.647	505.020	520.425	183.870	491.267	213.812	475.358	0.00084161	0.0003841	0.00018815	1359.4	7.0593e-06	3.5661e-06	1351.2	369.78	7.5354e-06	6.1684e-06	416.74	142.19	123.43	42.464	5.2146e-06	52.655	0.00045758	0.00044281	0.00012155	1376	4.8465e-06	4.8554e-06	1365.1	374.34	4.8241e-06	4.8303e-06	424.02	143.79	124.93	43.517	4.8781e-06	53.843	304.178	314.259	294.401	182.074	392.069	392.490	181.915	186.891	386.900	346.314	186.620	190.731	191.253	195.951	332.810	194.581	-8191	255	
1112.124	1	1	0	0	0.041109	0.29129	0.30435	0.21153	0.13499	0.17004	0.36638	0.35843	0.10769	0.10562	0.21836	0.10968	0.19089	0.19233	0.053116	0.046968	-2.9979	-3.5646	-2.7542	-3.8812	-3.3104	-3	-4.0042	-3.1896	-3.2188	-3.6708	-2.9542	-3.6042	-3.525	-3.0042	-3.6229	-3.1813	277.284	310.882	323.609	476.702	389.769	215.691	475.504	496.428	200.526	485.976	412.827	380.634	517.686	186.726	509.226	197.466	0.00088814	0.00028541	0.00020877	1354.9	9.2874e-06	6.2349e-06	1349.3	368.9	6.2041e-06	6.5064e-06	422.18	141.3	123.61	42.568	1.6642e-06	52.876	0.00046769	0.00044755	0.00012305	1373.4	4.8476e-06	4.9738e-06	1366	374.05	4.8974e-06	4.8781e-06	424.97	143.48	125.1	43.532	4.8964e-06	53.873	312.078	306.577	272.150	182.344	365.901	252.009	181.731	186.971	340.907	321.054	186.141	190.611	191.057	196.047	433.202	194.600	-8191	255	
1112.220	1	1	0	0	0.097003	0.13775	0.2196	0.25743	0.14022	0.16317	0.29552	0.32586	0.18104	0.23562	0.048957	0.06979	0.16086	0.11548	0.06648	0.34546	-2.8	-3.6917	-3.0542	-3.7646	-3.4938	-2.8333	-4.0146	-3.2479	-3.2771	-3.8354	-2.9979	-3.5812	-3.6437	-2.9458	-3.5792	-3.2333	476.333	520.881	402.810	525.037	465.529	447.381	493.196	486.243	511.064	512.799	466.499	401.104	450.002	248.257	375.013	443.852	0.00087154	0.00072897	6.0473e-05	1356.5	2.2636e-06	2.5938e-06	1346.3	369.27	1.0069e-05	5.0977e-06	419.45	141.13	122.95	42.455	5.0286e-06	52.555	0.00046128	0.0004528	0.000125	1375.2	4.9981e-06	4.8912e-06	1365.4	374.24	5.0358e-06	4.9271e-06	423.08	143.55	124.81	43.433	4.9554e-06	53.754	308.103	269.514	294.218	182.383	304.768	258.557	181.740	186.810	322.868	377.084	186.147	190.618	191.083	195.649	295.388	194.691	-8191	255	
1112.317	1	1	0	0	0.063676	0.092254	0.016292	0.25903	0.015887	0.20651	0.1828	0.31281	0.17346	0.12818	0.30723	0.087954	0.11374	0.15415	0.14851	0.21032	-2.9104	-3.8604	-2.8812	-3.5667	-3.4938	-2.8354	-3.75	-3.5312	-2.8729	-3.7062	-3.0563	-3.5146	-3.8604	-3.0875	-3.5042	-3.3542	305.699	298.363	214.313	527.841	242.410	421.738	425.278	502.553	326.053	384.275	177.901	437.437	228.127	464.669	206.051	475.120	0.00090553	0.00047482	0.00018495	1358	1.0412e-05	6.361e-06	1347.2	368.71	1.0653e-05	8.7235e-07	419.44	140.52	123	42.283	4.354e-06	52.348	0.00047149	0.00045206	0.00012647	1375	4.9534e-06	5.054e-06	1364.5	373.59	5.0602e-06	5.088e-06	423.59	143.26	124.79	43.42	5.1102e-06	53.684	309.361	258.247	269.009	182.336	324.043	311.717	181.962	186.793	321.513	468.606	186.111	190.709	191.346	196.031	366.399	194.713	-8191	255	
1112.413	1	1	0	0	0.099642	0.095625	0.17019	0.19235	0.068295	0.28968	0.091139	0.11198	0.15299	0.22469	0.13854	0.068122	0.081626	0.32976	0.085531	0.322	-2.5375	-3.7292	-3.0146	-3.4	-3.7229	-2.85	-3.6979	-3.5396	-2.9146	-3.5583	-3.1083	-3.1792	-3.725	-2.9375	-3.5062	-3.6583	451.295	207.323	192.539	445.471	330.840	433.222	467.247	439.605	323.786	508.324	371.120	207.801	467.166	486.602	428.959	514.975	0.00098428	0.00046434	0.0002131	1361.9	3.1161e-06	2.4046e-06	1348.6	367.97	4.9486e-06	8.3077e-06	419.17	141.28	122.68	42.482	8.2559e-06	52.401	0.000482	0.00045529	0.00012854	1375.8	5.1193e-06	5.0872e-06	1365.3	373.27	5.0964e-06	5.1045e-06	423.96	143.51	124.78	43.395	5.1266e-06	53.743	310.225	266.871	306.082	182.453	342.852	310.445	181.943	186.978	417.504	316.548	186.208	190.741	191.075	195.818	310.827	194.661	-8191	255	
1112.533	1	1	0	0	0.11363	0.074253	0.1548	0.10335	0.21557	0.11635	0.0034971	0.12153	0.057499	0.24159	0.16497	0.30798	0.26797	0.16402	0.31912	0.32036	-2.5021	-3.7333	-2.9458	-3.3229	-3.8187	-2.9	-3.7	-3.8521	-2.7729	-3.6688	-3.35	-3.1646	-3.7667	-3.0792	-3.3146	-3.4813	465.672	247.801	260.032	264.352	381.792	346.848	356.670	503.034	244.026	215.324	496.854	423.099	507.067	181.012	185.769	471.493	0.00094634	0.00035278	6.5687e-05	1354.3	6.5929e-06	7.2853e-06	1351.4	368.73	7.4883e-06	4.2825e-06	418.53	140.62	123.19	42.318	3.734e-06	52.374	0.00048803	0.00046763	0.00012911	1372.7	5.1607e-06	5.133e-06	1366.1	373.77	5.1813e-06	5.224e-06	422.95	143.13	124.8	43.377	5.1877e-06	53.66	313.703	245.279	265.275	182.399	267.206	358.564	182.116	186.736	329.081	280.242	186.293	190.850	191.225	196.063	302.795	194.652	-8191	255	
1112.630	1	1	0	0	0.24211	0.13193	0.13889	0.13404	0.064487	0.096298	0.46832	0.2597	0.18362	0.22516	0.25963	0.22026	0.14758	0.15973	0.054274	0.28179	-2.5125	-3.4771	-3.4042	-3.1042	-3.675	-3.0875	-3.4292	-3.8	-2.9146	-3.4771	-3.4292	-3.0438	-3.6542	-3.0687	-3.15	-3.7417	478.321	514.464	188.652	500.700	488.315	229.582	453.428	498.882	315.574	516.780	507.445	525.507	474.182	204.814	450.566	196.935	0.00084216	0.0002193	0.00014035	1362.2	4.1168e-06	2.2998e-06	1353	369.31	4.4848e-06	6.8711e-06	417.82	140.78	122.68	42.49	3.2978e-06	52.398	0.0004882	0.00047792	0.00012922	1376.2	5.1709e-06	5.151e-06	1366.8	373.87	5.1947e-06	5.1192e-06	423.01	143.06	124.7	43.393	5.1385e-06	53.667	305.906	225.182	267.049	182.354	222.613	311.321	181.898	186.925	324.827	300.067	186.255	190.846	191.283	195.810	365.204	194.579	-8191	255	
1112.726	1	1	0	0	0.14568	0.14344	0.14934	0.28711	0.20979	0.048749	0.27404	0.21142	0.32892	0.068118	0.20103	0.12433	0.15553	0.14077	0.16183	0.30521	-2.6125	-3.5229	-3.2687	-3.225	-3.65	-3.1042	-3.2896	-3.6479	-2.8937	-3.525	-3.5646	-2.9229	-3.8208	-3.1875	-3.2458	-3.9083	499.973	341.650	430.299	493.268	418.201	333.934	508.267	483.282	373.277	396.904	458.136	520.923	184.329	502.548	333.025	378.430	0.00084888	0.00063283	7.4611e-05	1357.5	4.4929e-06	2.7288e-06	1348.6	368.53	9.2483e-06	2.5878e-06	414.86	140.54	122.69	42.373	6.6248e-06	52.587	0.00048414	0.00046923	0.00013071	1375.6	5.1432e-06	5.1086e-06	1364.4	373.26	5.2328e-06	5.1353e-06	422.2	142.98	124.69	43.391	5.1124e-06	53.744	309.684	296.765	274.404	182.475	358.334	250.475	181.998	186.973	304.532	362.344	186.537	190.687	191.303	195.606	377.075	194.575	-8191	255	
1112.822	1	1	0	0	0.2034	0.19489	0.20371	0.28428	0.12281	0.2322	0.16319	0.39333	0.23137	0.067335	0.37759	0.067911	0.24753	0.18303	0.28782	0.21373	-2.5312	-3.1583	-3.6083	-3.1437	-3.6625	-3.1896	-3.1521	-3.8396	-3.0042	-3.2313	-3.8	-3.0083	-3.8479	-3.3792	-2.9979	-3.7771	342.647	489.794	454.596	452.718	396.472	498.657	482.179	472.297	463.695	244.731	499.604	489.680	461.564	505.240	234.889	175.788	0.00088933	0.00036108	0.00026126	1355.1	6.4566e-06	4.0618e-06	1347.1	369.27	6.7521e-06	1.7954e-06	419.29	141.49	122.97	42.529	7.8274e-06	52.761	0.00048909	0.00048171	0.00013092	1374.6	5.1697e-06	5.2069e-06	1364.8	373.5	5.3205e-06	5.2655e-06	424.02	143.29	124.98	43.43	5.2844e-06	53.847	308.550	316.568	242.628	182.236	360.753	332.375	182.097	186.739	307.671	275.287	186.646	190.486	191.274	195.674	364.775	194.851	-8191	255	
1112.918	1	1	0	0	0.33412	0.12913	0.20184	0.13433	0.20032	0.036061	0.266	0.19883	0.013561	0.2153	0.1669	0.26959	0.16689	0.14106	0.16264	0.092413	-2.6625	-3.175	-3.5875	-3.2146	-3.5271	-3.2542	-3.275	-3.8542	-2.9417	-3.2188	-3.6958	-2.9958	-3.7708	-3.2917	-2.9625	-3.9458	218.967	306.555	478.961	471.737	171.002	410.002	494.972	174.616	450.919	285.468	310.060	523.772	241.652	189.642	273.923	246.565	0.00090431	0.00048928	0.00014855	1353.8	1.1053e-05	2.6394e-06	1345.8	368.5	5.9987e-06	6.328e-06	419.77	140.6	122.86	42.242	6.2659e-06	52.461	0.00049251	0.00048046	0.00013318	1373.7	5.3842e-06	5.1913e-06	1364.4	374.08	5.3474e-06	5.2934e-06	424.24	142.99	124.88	43.333	5.298e-06	53.727	307.877	321.456	255.806	182.133	321.535	335.766	181.830	186.794	341.771	348.414	186.362	190.592	191.196	195.809	320.951	194.892	-8191	255	
1113.014	1	1	0	0	0.2295	0.13272	0.057952	0.21639	0.17594	0.04249	0.027121	0.18571	0.16328	0.032037	0.23761	0.1686	0.18765	0.1427	0.14419	0.066735	-2.9854	-3.05	-3.8021	-3.0125	-3.5604	-3.6375	-3.1937	-3.7896	-3.1437	-3.1104	-3.8375	-3.025	-3.525	-3.8021	-2.75	-3.65	290.411	463.055	380.516	440.244	433.290	437.273	183.493	480.160	254.781	181.330	493.452	470.653	459.148	191.811	484.282	195.412	0.00083166	0.00068026	6.6225e-05	1359.6	3.6676e-06	3.6242e-06	1343.3	368.28	1.118e-05	4.5833e-06	416.47	140.99	122.45	42.245	9.4688e-06	52.609	0.00049851	0.00048842	0.00013512	1376.9	5.2553e-06	5.2735e-06	1363.6	373.85	5.3008e-06	5.2786e-06	423.9	142.9	124.54	43.346	5.2547e-06	53.84	312.605	261.877	246.153	182.157	350.448	295.478	182.033	186.861	329.625	330.230	186.227	190.561	191.176	195.859	328.666	194.964	-8191	255	
1113.133	1	1	0	0	0.054348	0.12159	0.23197	0.29664	0.1381	0.18247	0.37689	0.30307	0.10143	0.1316	0.16351	0.28343	0.19526	0.043075	0.12083	0.1344	-2.7396	-2.8104	-3.8417	-3.0812	-3.5104	-3.6792	-3.1604	-3.825	-3.1896	-2.9313	-3.675	-3.2313	-3.3312	-3.7833	-2.7729	-3.5938	311.736	233.258	255.780	456.108	506.456	198.601	456.853	460.448	300.115	382.096	284.419	485.919	461.493	184.277	291.644	458.048	0.00089022	0.00021591	0.00020883	1354.8	7.3485e-06	7.9878e-06	1343.2	368.31	4.1314e-06	4.6446e-06	416.36	140.34	123.27	42.309	2.6016e-06	52.452	0.00050116	0.00048496	0.00013516	1374	5.3658e-06	5.3004e-06	1361.2	373.6	5.2946e-06	5.3523e-06	423.85	142.99	124.88	43.373	5.4012e-06	53.711	313.291	238.986	291.003	182.314	312.990	296.584	182.072	186.866	311.062	344.959	186.275	190.692	191.024	195.867	281.907	194.735	-8191	255	
1113.229	1	1	0	0	0.11943	0.067161	0.10439	0.32075	0.067344	0.20357	0.14262	0.24355	0.1423	0.23904	0.17196	0.18672	0.25341	0.10255	0.20268	0.1569	-2.9792	-3.0292	-3.6354	-3.3021	-3.3937	-3.6833	-3.1271	-3.7417	-3.5687	-2.8896	-3.7	-3.2146	-3.2687	-3.7896	-2.8187	-3.5042	424.189	320.740	323.453	435.836	446.675	392.861	176.928	462.661	440.131	173.123	496.353	314.509	522.976	178.646	311.508	171.450	0.00089413	0.00019252	0.00019793	1356.4	3.4235e-06	9.214e-06	1345.6	368.66	9.5457e-06	5.2702e-06	419.11	140.36	123.08	42.457	7.4076e-06	52.363	0.00049782	0.00048614	0.00013607	1372.5	5.3379e-06	5.2362e-06	1364.4	374.52	5.2718e-06	5.2653e-06	423.77	142.96	124.85	43.383	5.2275e-06	53.748	307.738	228.460	300.233	182.361	307.993	305.613	181.851	186.922	347.978	326.150	186.495	190.510	191.283	195.759	312.529	195.068	-8191	255	
1113.325	1	1	0	0	0.068247	0.057179	0.048096	0.39088	0.18126	0.19329	0.22696	0.17966	0.039254	0.34868	0.061458	0.29164	0.066713	0.13411	0.12069	0.08849	-3.0854	-2.8958	-3.6937	-3.4833	-3.1917	-3.6625	-3.2125	-3.4458	-3.5417	-2.7875	-3.7479	-3.4167	-3.1896	-3.7917	-2.8833	-3.2771	419.051	384.449	420.207	460.611	508.767	318.197	455.719	505.514	465.235	404.123	199.250	495.879	240.027	367.036	358.479	206.862	0.00083474	0.00045275	0.00021256	1349.3	7.6196e-06	9.6612e-06	1344.8	368.02	7.3442e-06	5.8043e-06	418.66	140.64	122.93	41.992	7.0229e-06	52.467	0.00049522	0.00047876	0.00013365	1368.5	5.2513e-06	5.1884e-06	1362.1	373.92	5.2306e-06	5.2059e-06	424.23	143.08	124.72	43.3	5.241e-06	53.687	312.341	216.736	229.537	182.274	329.438	280.367	181.857	187.120	312.713	301.545	186.385	190.776	191.488	195.956	299.690	194.853	-8191	255	
1113.421	1	1	0	0	0.096113	0.11611	0.31086	0.16671	0.11445	0.13607	0.25507	0.18474	0.18136	0.20149	0.13093	0.056426	0.14521	0.08753	0.13634	0.12249	-3.1437	-2.8292	-3.6792	-3.6104	-3.0062	-3.8021	-3.3479	-3.425	-3.6312	-2.7146	-3.8208	-3.3563	-3.1646	-3.9229	-3.1688	-3.3333	209.865	171.226	498.951	421.516	397.247	413.026	434.972	465.199	374.714	492.960	333.160	203.310	200.323	222.525	469.280	405.893	0.00088234	0.00079425	9.446e-05	1352	6.575e-06	6.5409e-06	1346.2	369	6.7382e-06	2.7746e-06	417.78	140.36	122.53	42.366	3.267e-06	52.366	0.00049146	0.00048026	0.00013453	1370.5	5.3121e-06	5.3161e-06	1361.7	373.94	5.3694e-06	5.3999e-06	423.96	142.95	124.7	43.438	5.2859e-06	53.696	316.237	242.586	264.124	182.397	205.064	329.113	181.903	186.865	332.031	323.956	186.477	190.546	191.591	196.094	296.562	194.733	-8191	255	
1113.518	1	1	0	0	0.25498	0.25713	0.08759	0.2412	0.092887	0.26935	0.23251	0.20537	0.025906	0.1108	0.21974	0.28655	0.084101	0.027032	0.022547	0.17338	-3.4104	-2.9333	-3.4854	-3.8021	-2.8771	-3.6625	-3.4354	-3.4	-3.6562	-2.7062	-3.6437	-3.55	-2.9458	-3.8312	-3.1437	-3.1875	425.482	397.279	199.202	492.651	192.127	209.162	470.301	516.935	429.548	391.172	487.111	178.951	212.517	524.325	243.458	442.331	0.00095551	0.00067314	0.00016613	1353.8	6.4218e-06	8.6987e-06	1342.8	368.27	8.1759e-06	5.9209e-06	418.63	140.31	122.6	42.197	2.0989e-06	52.439	0.0004997	0.00049017	0.00013477	1371.8	5.2932e-06	5.3328e-06	1363.1	373.92	5.3333e-06	5.3421e-06	424.13	142.85	124.56	43.4	5.352e-06	53.757	315.769	260.861	227.976	182.209	292.587	315.452	181.928	187.087	323.742	333.112	186.393	190.709	191.421	195.928	397.229	194.969	-8191	255	
1113.614	1	1	0	0	0.25382	0.31946	0.20485	0.11177	0.15491	0.13496	0.17754	0.084038	0.13694	0.22012	0.15959	0.24295	0.1158	0.15547	0.16145	0.22724	-3.2667	-2.9167	-3.3063	-3.6708	-2.975	-3.7271	-3.4813	-3.1292	-3.8125	-3.1479	-3.6188	-3.9604	-3.0896	-3.8187	-3.3792	-3.2604	317.895	437.475	475.712	480.855	319.676	403.467	515.930	501.961	466.983	184.905	516.704	474.893	509.309	476.183	250.299	492.333	0.00090821	0.00087923	0.00018026	1357.4	8.2803e-06	4.3498e-06	1351	367.81	6.38e-06	2.6076e-06	419.81	140.23	122.9	42.376	3.1376e-06	52.597	0.0005037	0.00049279	0.00013749	1372.9	5.3585e-06	5.4166e-06	1364.6	373.67	5.44e-06	5.4639e-06	423.96	142.98	124.77	43.428	5.4665e-06	53.79	311.560	283.421	238.960	182.383	310.250	378.529	181.927	187.078	317.083	237.465	186.488	190.836	191.233	196.081	398.138	194.901	-8191	255	
1113.734	1	1	0	0	0.38568	0.19579	0.084809	0.31484	0.049245	0.27398	0.077394	0.12908	0.078986	0.24476	0.073991	0.072254	0.11981	0.2433	0.14075	0.25068	-3.375	-3.0083	-3.2417	-3.7229	-2.9958	-3.7167	-3.5	-3.1208	-3.5563	-3.0646	-3.3833	-3.7792	-3.0292	-3.7271	-3.35	-3.15	488.676	253.615	296.544	517.138	253.754	374.077	270.895	491.496	524.818	327.065	418.454	329.135	466.506	187.632	524.233	440.418	0.00091288	0.00054038	0.00015169	1356.3	1.0208e-05	4.5813e-06	1341.4	367.74	1.1374e-05	4.5277e-06	419.45	140.09	122.15	42.46	6.4409e-06	52.469	0.00051282	0.00049925	0.00014167	1373	5.4987e-06	5.5461e-06	1362.4	374.01	5.5927e-06	5.5485e-06	424.64	143.24	124.73	43.458	5.5538e-06	53.815	307.276	264.366	200.916	182.134	292.378	271.067	181.757	187.057	345.444	330.004	186.277	190.468	191.254	195.749	265.726	194.660	-8191	255	
1113.831	1	1	0	0	0.15465	0.18964	0.1755	0.20007	0.097592	0.11286	0.31811	0.19103	0.17769	0.1595	0.26133	0.27452	0.18832	0.19062	0.20448	0.2337	-3.4208	-3.1917	-3.1208	-3.8979	-2.8604	-3.3563	-3.5646	-3.0771	-3.6042	-3.0604	-3.0687	-3.9562	-2.9813	-3.4	-3.5833	-3.0104	330.384	224.658	490.417	386.172	522.882	206.053	502.964	437.390	412.384	299.175	465.335	511.766	427.574	510.862	271.727	467.254	0.00086425	0.00057646	0.00015533	1351.6	5.9603e-06	5.0198e-06	1337.8	369.12	1.0886e-05	4.2929e-07	417.53	140.76	123.31	42.187	5.3474e-06	52.326	0.00052585	0.00051153	0.00014321	1371.4	5.6497e-06	5.6015e-06	1359.8	374.29	5.6349e-06	5.5873e-06	425.04	143.2	124.89	43.326	5.6262e-06	53.812	309.967	227.533	293.651	182.062	293.881	293.803	181.754	186.972	311.637	255.882	186.376	190.595	191.149	195.872	363.715	194.851	-8191	255	
1113.925	1	1	0	0	0.048888	0.14742	0.1556	0.29436	0.1727	0.1149	0.32184	0.11134	0.18007	0.25689	0.1776	0.21072	0.071211	0.15801	0.19764	0.096927	-3.3021	-3.3125	-3.1333	-4.0229	-2.9021	-3.5771	-3.7812	-2.7792	-3.6708	-3.2062	-3.125	-3.8375	-2.9396	-3.2521	-3.5979	-3.0479	282.218	204.438	391.043	526.206	524.392	409.459	457.722	414.401	190.259	193.871	280.239	223.851	376.928	234.160	337.786	479.047	0.00090597	0.00082155	0.00011601	1354.4	7.1148e-06	1.3713e-06	1342.6	368.33	3.8645e-06	2.5935e-06	416.68	140.38	123.39	42.27	5.4796e-06	52.208	0.00052986	0.00051108	0.00014257	1374.3	5.5993e-06	5.587e-06	1362.1	374.23	5.6458e-06	5.6391e-06	424.79	143.27	125.05	43.46	5.6411e-06	53.785	309.735	239.897	229.148	182.022	278.478	250.360	181.695	186.833	342.642	265.012	186.346	190.207	191.048	195.604	322.880	194.794	-8191	255	
1113.998	1	1	0	0	0.20799	0.2322	0.0045822	0.31814	0.095968	0.14084	0.15976	0.21169	0.17228	0.25817	0.12147	0.041665	0.065169	0.12163	0.13668	0.22154	-3.0146	-3.2687	-2.9625	-3.8312	-2.9458	-3.2896	-3.7729	-2.9062	-3.4313	-3.4167	-3.1396	-3.8083	-3.2458	-3.3458	-3.6875	-2.9521	316.817	261.058	356.636	482.833	274.460	449.006	450.119	460.788	318.738	511.058	226.511	510.789	494.397	423.443	214.656	483.000	0.00091606	0.00072883	0.00020605	1349.7	8.1783e-06	6.0208e-06	1348.5	369.57	5.2652e-06	2.5216e-06	417.56	140.98	122.6	42.172	5.6362e-06	52.561	0.00052548	0.00051096	0.00014132	1373.5	5.6156e-06	5.5971e-06	1365	374.56	5.6035e-06	5.625e-06	424.96	143.42	124.73	43.463	5.6081e-06	53.876	312.596	274.632	246.197	181.962	282.545	340.405	181.651	186.456	285.110	350.122	186.109	190.405	190.787	195.645	272.295	194.409	-8191	255	
1114.117	1	1	0	0	0.081909	0.095897	0.13333	0.12445	0.024091	0.19194	0.23681	0.224	0.2124	0.17422	0.17665	0.095022	0.12644	0.18114	0.1139	0.24667	-3.0708	-3.4729	-2.8646	-3.9042	-3.0687	-3.0354	-4.0042	-3.175	-3.1854	-3.5229	-3.0125	-3.7812	-3.3	-3.2646	-3.6667	-3.1	332.288	409.423	329.093	491.114	278.665	204.863	431.772	508.109	491.635	498.706	523.619	479.011	438.394	191.982	195.481	506.608	0.00089479	0.00070549	0.00012665	1351.8	7.9062e-06	2.5184e-06	1348	369.05	7.0515e-06	5.2428e-06	416.58	141.36	122.91	42.36	7.659e-06	52.463	0.00053082	0.00051362	0.00014361	1374.7	5.6185e-06	5.6201e-06	1365.4	374.39	5.7001e-06	5.6194e-06	424.69	143.47	124.74	43.524	5.7098e-06	53.798	314.734	232.852	254.211	182.226	315.535	373.523	181.713	186.899	321.365	325.495	186.278	190.567	191.012	195.732	310.937	194.439	-8191	255	
1114.213	1	1	0	0	0.15733	0.19424	0.23007	0.06573	0.073971	0.13751	0.17913	0.25982	0.075484	0.073204	0.021714	0.26293	0.24851	0.12166	0.23036	0.076068	-3.0917	-3.5292	-2.7562	-3.7333	-3.4458	-3.0542	-3.9354	-3.125	-3.1937	-3.7979	-2.8979	-3.6875	-3.4938	-2.9688	-3.9604	-3.2042	504.642	378.916	311.805	489.686	346.849	285.909	185.555	423.042	244.975	342.876	440.140	444.959	412.436	261.866	281.286	422.131	0.00095771	7.9484e-05	0.00012231	1357	6.5981e-06	6.9914e-06	1342.8	368.61	4.2229e-06	4.5747e-06	417.49	141.05	122.7	42.059	4.122e-06	52.449	0.00053079	0.000518	0.00014254	1375.9	5.6681e-06	5.6312e-06	1364.2	375	5.6363e-06	5.6237e-06	424.59	143.32	124.85	43.392	5.6073e-06	53.786	308.028	218.710	282.466	182.076	302.681	320.507	181.676	186.892	360.111	303.592	185.941	190.199	190.885	195.715	404.681	194.630	-8191	255	
1114.310	1	1	0	0	0.097312	0.02921	0.055204	0.21382	0.19597	0.14164	0.32672	0.078502	0.17369	0.24507	0.16897	0.30469	0.30275	0.27249	0.05628	0.27829	-2.9167	-3.675	-2.8875	-3.5521	-3.4854	-2.8917	-3.9417	-3.1417	-2.9854	-3.6937	-2.8708	-3.4646	-3.5979	-3.1146	-3.6604	-3.4437	505.884	260.087	306.299	441.800	227.662	518.402	480.994	473.586	227.893	426.804	409.968	485.875	507.057	268.348	300.383	464.108	0.00085439	0.00029895	0.00022594	1354.2	8.617e-06	2.4723e-06	1347	369.4	7.3443e-06	5.6026e-06	418.56	140.51	122.25	42.369	7.3452e-06	52.245	0.00051939	0.00051328	0.00014248	1375	5.5985e-06	5.5534e-06	1364.3	374.09	5.6059e-06	5.6035e-06	425.16	143.21	124.65	43.46	5.6058e-06	53.719	310.387	242.657	258.301	181.976	305.969	272.567	181.788	186.542	301.808	326.177	186.074	190.563	191.086	195.848	272.478	194.855	-8191	255	
1114.406	1	1	0	0	0.046851	0.27429	0.20635	0.44019	0.13322	0.024945	0.18881	0.20763	0.13413	0.10421	0.11868	0.25856	0.16026	0.19675	0.048339	0.18244	-2.675	-3.6833	-2.7708	-3.5125	-3.6083	-2.8875	-3.9167	-3.4	-3.0646	-3.7042	-3.1458	-3.5104	-3.6479	-3.0354	-3.6104	-3.3479	511.842	223.434	257.194	501.768	326.392	393.959	527.976	498.332	426.070	183.456	471.684	510.185	520.407	394.472	492.278	188.370	0.00088342	0.00044621	6.6309e-05	1358.4	6.7661e-06	9.887e-07	1346.1	368.77	7.536e-06	6.7905e-06	417.41	140.56	122.62	42.34	5.8182e-06	52.512	0.00052199	0.00051432	0.0001437	1374.9	5.6375e-06	5.65e-06	1365.2	374.3	5.5818e-06	5.7189e-06	424.67	143.23	124.71	43.455	5.6884e-06	53.893	302.257	364.750	212.868	182.187	328.445	227.957	181.914	186.854	294.221	318.054	186.263	190.520	191.247	195.970	322.274	194.725	-8191	255	
1114.526	1	1	0	0	0.12914	0.32289	0.2969	0.2766	0.29293	0.18584	0.12515	0.31041	0.23368	0.050458	0.48763	0.26032	0.17496	0.15493	0.11483	0.11923	-2.525	-3.675	-3.0312	-3.5125	-3.7271	-3.0208	-3.8396	-3.5208	-3.1104	-3.7604	-3.0875	-3.2896	-3.7812	-2.875	-3.5458	-3.65	461.468	369.993	523.236	494.853	224.962	233.821	327.365	453.576	503.966	416.483	460.583	497.045	499.319	523.138	480.306	520.598	0.00087348	0.00052874	9.6807e-05	1355.8	4.9745e-06	4.9041e-06	1346.7	368.47	3.6376e-06	5.9889e-06	415.72	141.02	122.73	42.431	3.9197e-06	52.432	0.00053299	0.00051726	0.00014316	1374.9	5.6607e-06	5.6829e-06	1364.6	374.22	5.7079e-06	5.7355e-06	424.84	143.59	124.96	43.496	5.7471e-06	53.772	308.139	341.041	195.586	182.450	350.639	264.221	181.755	186.683	245.884	332.836	185.742	190.654	191.200	195.868	363.970	194.406	-8191	255	
1114.598	1	1	0	0	0.081178	0.22112	0.17417	0.062738	0.21721	0.27925	0.16336	0.24139	0.11875	0.12965	0.06633	0.27424	0.15264	0.23865	0.1672	0.26027	-2.6125	-3.7375	-3.1792	-3.2083	-3.7083	-2.8833	-3.6312	-3.4917	-2.8771	-3.675	-3.3104	-3.1479	-3.8146	-3.1542	-3.3542	-3.6646	415.193	269.388	389.007	527.403	506.930	384.689	451.356	493.825	216.392	523.966	398.533	519.480	517.808	188.284	411.499	492.620	0.00095889	0.00052771	6.0246e-05	1355.1	6.5654e-06	6.2275e-06	1344.4	367.82	6.7922e-06	3.4439e-06	416.93	140.36	122.75	42.399	3.5336e-06	52.506	0.00053854	0.00052117	0.00014486	1375.1	5.7716e-06	5.7228e-06	1364	373.94	5.795e-06	5.8019e-06	424.18	143.12	124.86	43.437	5.7418e-06	53.847	305.914	240.204	471.453	182.118	366.454	344.683	181.881	186.701	376.509	322.831	186.214	190.542	191.029	195.524	368.066	194.833	-8191	255	
1114.694	1	1	0	0	0.044109	0.15552	0.20291	0.31215	0.098446	0.12714	0.32837	0.20703	0.11375	0.12993	0.3731	0.03195	0.13049	0.066089	0.16843	0.18265	-2.4375	-3.6146	-3.1542	-3.3063	-3.7979	-3.0187	-3.4896	-3.6604	-2.7021	-3.4854	-3.2625	-3.0375	-3.9021	-3.1063	-3.2333	-3.7729	344.218	398.149	209.034	492.885	193.678	497.847	463.084	192.283	436.681	214.414	518.755	266.134	454.131	421.614	302.813	212.531	0.00090721	0.00033036	0.00018633	1350.1	5.4145e-06	5.5782e-06	1349.2	369.17	9.2627e-06	5.8318e-06	417.19	140.68	122.72	42.311	3.4852e-06	52.182	0.00053475	0.00052217	0.00014449	1372.8	5.7656e-06	5.7327e-06	1364.5	375.07	5.7194e-06	5.7151e-06	424.03	143.22	124.82	43.389	5.6843e-06	53.682	306.047	207.158	285.546	182.022	337.056	388.701	181.804	186.719	338.694	357.104	186.310	190.786	190.867	195.747	298.206	194.429	-8191	255	
1114.815	1	1	0	0	0.070055	0.18863	0.073405	0.28733	0.25987	0.18968	0.14795	0.045539	0.25548	0.16848	0.043654	0.097906	0.257	0.093767	0.13208	0.023211	-2.5521	-3.4188	-3.3875	-2.9625	-3.6146	-3.0229	-3.2646	-3.6771	-2.725	-3.5542	-3.5771	-2.9083	-3.8625	-3.0583	-3.175	-3.9458	460.000	198.522	438.492	440.364	439.736	397.702	430.391	426.661	230.321	385.850	235.550	197.145	493.692	425.196	443.320	431.461	0.00092302	0.00030369	2.1821e-05	1350.6	9.2985e-06	2.3693e-06	1341.3	368.03	8.9155e-06	5.9328e-06	419.56	140.38	122.9	42.307	4.7521e-06	52.36	0.00053623	0.00052134	0.00014296	1371.3	5.6997e-06	5.7159e-06	1363.5	374.35	5.6439e-06	5.5605e-06	425.25	143.15	124.93	43.394	5.7711e-06	53.877	308.763	262.327	480.770	181.930	300.067	225.226	181.927	186.933	345.034	309.334	186.266	190.335	191.148	195.673	305.726	194.525	-8191	255	
1114.911	1	1	0	0	0.12966	0.32275	0.13005	0.25929	0.11784	0.1561	0.26044	0.25985	0.12907	0.16966	0.15912	0.087492	0.10921	0.087312	0.21598	0.038722	-2.4417	-3.3792	-3.5021	-3.1833	-3.6521	-3.2958	-3.3729	-4.0062	-2.8604	-3.4458	-3.5396	-3.1125	-3.7917	-3.2917	-3.0687	-3.9354	221.962	264.035	380.205	216.609	271.530	174.833	447.769	477.283	277.933	439.810	525.623	280.693	235.785	202.114	359.467	382.647	0.0009494	0.00046717	0.00017497	1354	5.7319e-06	1.1761e-06	1348.6	368.83	3.1547e-06	2.0691e-06	417.82	140.98	122.47	42.503	6.2928e-06	52.187	0.00053094	0.00052433	0.00014497	1372.4	5.6555e-06	5.6997e-06	1364.9	374.5	5.6611e-06	5.6497e-06	424.4	143.12	124.77	43.487	5.6805e-06	53.701	310.176	251.680	301.472	182.055	300.300	417.610	182.027	186.920	314.134	482.695	186.107	190.629	191.039	195.691	286.562	194.477	-8191	255	
1115.005	1	1	0	0	0.03244	0.031561	0.11434	0.16592	0.3004	0.32338	0.21873	0.090742	0.19688	0.076341	0.206	0.14623	0.21896	0.22366	0.2586	0.25698	-2.7479	-3.4708	-3.5958	-2.9938	-3.5458	-3.2812	-3.15	-3.9958	-3.2979	-3.2542	-3.6729	-3.1021	-3.7729	-3.3583	-2.8354	-3.8521	383.496	221.716	505.057	517.411	218.238	274.801	201.883	404.941	286.348	520.016	446.238	525.617	223.109	472.999	212.087	474.595	0.00091616	0.00090718	3.1885e-05	1353.1	6.2037e-06	4.6502e-06	1343.8	368.62	9.808e-06	1.9253e-06	418.13	140.9	122.82	42.436	3.7231e-06	52.335	0.00052405	0.00051229	0.00014074	1372.6	5.6126e-06	5.6399e-06	1362.2	374.35	5.59e-06	5.507e-06	424.92	143.06	124.85	43.451	5.4939e-06	53.694	308.682	264.877	232.154	181.975	305.953	344.688	181.704	186.912	332.957	343.525	185.921	190.462	191.110	195.550	310.055	194.690	-8191	255	
1115.126	1	1	0	0	0.20843	0.17523	0.18809	0.16874	0.20535	0.047592	0.16605	0.42811	0.13022	0.15004	0.10011	0.35323	0.10331	0.36831	0.13603	0.068353	-2.6479	-3.2313	-3.5812	-2.95	-3.4875	-3.5333	-2.9958	-3.7562	-3.15	-3.2479	-3.8917	-3.0083	-3.5312	-3.45	-2.8521	-3.8	528.173	307.878	318.105	468.649	454.768	311.244	479.192	500.986	341.276	368.814	194.815	505.108	325.871	181.896	485.189	436.369	0.00075586	0.00072779	5.7747e-05	1348.9	7.4705e-06	1.209e-05	1343.4	368.5	8.251e-06	3.8997e-06	417.37	140.87	122.45	42.358	2.8463e-06	52.408	0.00051595	0.00050354	0.00014029	1373.4	5.6193e-06	5.5234e-06	1363	374.33	5.5088e-06	5.5075e-06	423.3	143.4	124.71	43.461	5.5795e-06	53.787	302.552	269.513	200.039	182.054	295.950	296.262	181.899	187.040	327.522	353.678	186.228	190.803	191.354	195.660	329.432	194.822	-8191	255	
1115.222	1	1	0	0	0.081082	0.2765	0.14405	0.33121	0.060854	0.086135	0.12633	0.26575	0.20109	0.032209	0.32298	0.12085	0.16643	0.18042	0.34571	0.23244	-2.7875	-3.1562	-3.8042	-3.1229	-3.3542	-3.3542	-3.3063	-3.7708	-3.225	-3.1042	-3.9688	-2.8958	-3.4042	-3.6813	-2.9146	-3.8125	481.883	214.418	287.243	491.084	525.987	250.800	177.119	478.510	414.502	422.921	497.701	229.677	512.471	508.807	312.288	450.108	0.00089205	0.00012391	0.00015832	1352.7	9.8355e-06	6.6606e-06	1344.2	370.46	9.8625e-06	8.5323e-06	419.1	140.42	123.11	42.294	4.561e-06	52.187	0.00051527	0.00049834	0.00014092	1374.4	5.5272e-06	5.5473e-06	1361.6	374.83	5.5251e-06	5.4771e-06	425.12	143.17	124.81	43.416	5.5462e-06	53.8	310.701	229.718	299.433	182.221	274.563	294.913	182.052	186.925	333.037	356.387	186.543	190.696	191.263	195.695	317.627	194.846	-8191	255	
1115.294	1	1	0	0	0.11142	0.18133	0.15137	0.32848	0.15488	0.047689	0.09876	0.14916	0.14159	0.18683	0.2355	0.14588	0.07441	0.13914	0.12277	0.084339	-3.1063	-3.1333	-3.7125	-3.4104	-3.3937	-3.5792	-3.1021	-3.6542	-3.0333	-3.0333	-3.7833	-3.0062	-3.1958	-3.9333	-2.9208	-3.5396	417.528	406.543	455.977	447.546	492.188	357.020	497.630	473.440	207.473	529.211	468.822	404.395	202.808	182.631	368.808	492.239	0.00081573	0.00080717	0.00017589	1348.7	7.0331e-06	8.439e-06	1342.8	368.66	9.0526e-06	2.1303e-06	417.14	141.26	122.78	42.372	7.9817e-06	52.505	0.00052338	0.00050171	0.00014041	1372	5.5524e-06	5.5426e-06	1361.6	374.13	5.4791e-06	5.4246e-06	424.64	143.28	124.95	43.448	5.522e-06	53.893	310.139	264.164	241.643	182.225	319.614	359.512	181.827	187.198	324.809	292.563	186.364	190.602	191.518	195.790	315.901	194.835	-8191	255	
1115.414	1	1	0	0	0.15248	0.023466	0.26342	0.25633	0.19307	0.20348	0.074932	0.20592	0.085801	0.25842	0.30493	0.09605	0.22948	0.22314	0.072719	0.26386	-3.1375	-2.9604	-3.7313	-3.2812	-2.9313	-3.6271	-3.0354	-3.5979	-3.3396	-2.9979	-3.9521	-3.2812	-3.2042	-3.6896	-2.9354	-3.4313	329.217	208.143	200.037	194.066	348.124	408.149	453.590	381.634	304.862	414.717	427.017	526.443	493.514	502.845	213.276	451.906	0.00092833	0.00032583	1.9451e-05	1356.7	7.5083e-06	3.9725e-06	1341	368.58	5.7368e-06	2.4064e-06	416.86	140.05	122.74	42.363	7.9897e-06	52.537	0.00051122	0.00051059	0.00014118	1372.1	5.5099e-06	5.4764e-06	1361.3	374.71	5.4094e-06	5.5213e-06	423.54	142.99	124.82	43.422	5.528e-06	53.756	314.605	174.350	346.220	182.319	318.629	439.235	181.859	186.731	331.521	299.727	186.103	190.376	190.990	195.683	297.713	194.436	-8191	255	
1115.511	1	1	0	0	0.1651	0.28033	0.03311	0.030252	0.16261	0.12658	0.092409	0.19614	0.098183	0.17478	0.076847	0.17158	0.17065	0.1531	0.17075	0.1235	-3.1271	-2.8187	-3.6312	-3.5417	-3.1562	-3.6771	-3.1688	-3.6021	-3.7833	-3.0479	-3.7833	-3.3792	-3.1479	-3.7542	-2.9833	-3.45	347.429	193.099	224.083	180.964	224.270	368.381	492.483	475.913	273.355	406.047	277.971	454.319	173.743	487.007	497.444	391.986	0.0008692	0.00055276	6.8227e-05	1354.4	3.5263e-06	4.9193e-06	1345.5	367.54	9.7636e-06	6.261e-06	414.56	140.31	122.34	42.163	6.8497e-06	52.314	0.00051042	0.00049907	0.00013819	1373.1	5.4711e-06	5.503e-06	1362.4	373.92	5.4293e-06	5.4727e-06	424.12	143.17	124.56	43.388	5.4522e-06	53.696	306.247	250.563	269.325	181.955	361.339	220.974	181.744	186.792	311.202	321.508	185.935	190.375	190.892	195.588	374.458	194.575	-8191	255	
1115.607	1	1	0	0	0.053006	0.14349	0.2199	0.10013	0.086752	0.15498	0.14362	0.2943	0.082027	0.19449	0.084884	0.091291	0.3099	0.25381	0.10928	0.10761	-3.1292	-2.9104	-3.7042	-3.5062	-3.0396	-3.6688	-3.1833	-3.3354	-3.7167	-2.8625	-3.7062	-3.4854	-3.0229	-3.7313	-3.1167	-3.2604	475.591	454.583	377.372	235.776	474.959	497.019	457.118	219.178	341.749	209.366	436.430	363.807	474.768	469.721	362.894	501.512	0.00086775	0.00044235	0.00016928	1356.3	4.3834e-06	5.5691e-06	1341.3	368.4	9.4709e-06	2.6758e-06	418.23	140.69	121.98	42.247	5.9996e-06	52.403	0.00051425	0.00049503	0.00013962	1372.1	5.373e-06	5.3984e-06	1359.3	373.83	5.4175e-06	5.4362e-06	424.97	143.05	124.44	43.42	5.3799e-06	53.798	309.098	326.275	282.293	181.842	376.882	279.995	181.485	186.773	349.350	356.572	185.830	190.003	190.349	195.025	337.322	194.262	-8191	255	
1115.703	1	1	0	0	0.24248	0.10837	0.24668	0.27968	0.081241	0.33819	0.32005	0.1076	0.14773	0.11381	0.15801	0.10505	0.39617	0.13057	0.062697	0.30866	-3.3229	-2.8958	-3.3604	-3.6729	-2.8792	-3.6708	-3.5438	-3.3063	-3.5	-3.0417	-3.4021	-3.4354	-2.8708	-3.6312	-3.2167	-2.9646	467.004	377.861	276.424	501.497	302.467	344.934	502.874	476.085	510.846	313.943	194.134	387.374	488.288	261.954	259.875	430.354	0.00097822	0.00083916	0.00017374	1349.2	1.2615e-05	1.6357e-06	1342.1	368.98	6.9877e-06	6.3899e-07	415.96	140.27	123.03	42.334	1.0895e-05	52.314	0.00050259	0.00049628	0.00013679	1369.7	5.4676e-06	5.3935e-06	1359.7	374.61	5.372e-06	5.379e-06	423.6	142.98	124.73	43.433	5.3364e-06	53.715	312.282	268.674	255.568	181.351	323.641	387.387	181.155	186.298	361.807	307.595	185.841	190.013	190.735	195.276	328.195	194.195	-8191	255	
1115.799	1	1	0	0	0.18077	0.15622	0.049088	0.25901	0.29781	0.14081	0.36167	0.2341	0.097698	0.096898	0.21717	0.24468	0.19295	0.12705	0.24217	0.30751	-3.3708	-2.8958	-3.2833	-3.7208	-2.7792	-3.5208	-3.4354	-2.9208	-3.6417	-2.9979	-3.5021	-3.5542	-2.9104	-3.6833	-3.2062	-3.1729	352.187	421.162	230.445	524.353	418.531	284.002	446.453	171.049	355.656	198.508	507.601	471.254	443.825	524.712	293.314	407.356	0.00087231	0.00046128	0.00012123	1352.9	1.5796e-06	2.2344e-06	1344.2	367.58	8.1692e-06	2.7321e-06	416.89	140.61	122.54	42.38	7.185e-06	52.424	0.00050771	0.00049187	0.00013563	1369.1	5.3076e-06	5.3253e-06	1359.8	373.55	5.325e-06	5.3219e-06	423.48	142.95	124.59	43.394	5.3002e-06	53.787	308.958	250.322	411.225	181.882	401.086	253.847	181.333	186.470	352.625	286.998	185.820	190.131	190.413	195.319	321.090	194.355	-8191	255	
1115.895	1	1	0	0	0.24286	0.23655	0.055723	0.34726	0.05046	0.05116	0.22183	0.14782	0.17929	0.12455	0.048945	0.27465	0.28722	0.21289	0.064976	0.11056	-3.3688	-2.9396	-3.2313	-3.6458	-2.925	-3.4333	-3.4792	-3.0125	-3.4729	-2.9667	-3.2146	-3.7417	-2.8438	-3.5958	-3.2354	-2.9167	176.420	467.938	488.627	496.102	371.565	318.823	500.620	459.561	237.794	315.505	256.941	200.303	187.699	490.324	268.758	196.477	0.00084595	0.0005698	0.0001046	1352.1	4.845e-06	5.2397e-06	1341.7	367.84	3.9412e-06	1.4667e-06	417.4	140.2	122.61	42.132	2.0819e-06	52.406	0.0004955	0.00047831	0.00013511	1369.8	5.3272e-06	5.2244e-06	1359.6	373.52	5.3041e-06	5.2961e-06	423.85	142.82	124.6	43.327	5.2931e-06	53.677	307.755	518.623	287.047	181.700	305.926	274.512	181.316	186.516	292.923	398.144	185.912	190.010	190.745	195.548	483.821	194.296	-8191	255	
1115.991	1	1	0	0	0.15661	0.13417	0.11435	0.20891	0.10383	0.21472	0.1714	0.068104	0.13878	0.21599	0.095501	0.11542	0.2059	0.022392	0.14929	0.23953	-3.2958	-3.0792	-3.0729	-3.7292	-2.7104	-3.2417	-3.5271	-2.9417	-3.5375	-3.3771	-2.8354	-3.9375	-2.9667	-3.0896	-3.6583	-2.7646	169.761	477.259	331.936	495.989	289.085	421.957	401.277	412.352	496.036	292.004	307.728	509.601	175.296	213.492	478.875	444.882	0.00097192	0.00047804	0.00018824	1350.8	7.914e-06	9.8671e-06	1338.2	367.42	5.824e-06	4.9499e-06	417.3	139.99	122.51	42.133	6.3169e-06	52.095	0.0005005	0.00048399	0.00013427	1368.9	5.2849e-06	5.178e-06	1356.9	373.3	5.3165e-06	5.2786e-06	423.24	142.81	124.35	43.296	5.315e-06	53.613	309.187	280.850	296.496	181.824	317.339	269.310	181.398	186.347	356.739	293.890	185.901	190.154	190.377	195.319	333.556	194.413	-8191	255	
1116.087	1	1	0	0	0.21579	0.12178	0.21472	0.1764	0.083577	0.255	0.063152	0.37082	0.13947	0.029747	0.30869	0.21057	0.282	0.066762	0.093176	0.15293	-3.0604	-3.1479	-2.7979	-4.0458	-2.8667	-3.1229	-3.7542	-2.8563	-3.5542	-3.3354	-3.1333	-3.8521	-3.125	-3.3708	-3.7	-2.75	362.349	335.031	514.347	490.302	361.343	218.096	514.154	517.467	230.256	300.873	178.667	485.897	497.383	502.154	280.297	476.973	0.00086635	0.00096466	0.00020665	1344.1	3.6571e-06	3.0466e-06	1341.8	368.01	7.1908e-06	5.081e-07	418.46	140.29	122.4	42.267	7.8272e-06	52.272	0.00050151	0.00048063	0.0001359	1365.2	5.3271e-06	5.3401e-06	1358.3	373.85	5.3594e-06	5.3411e-06	424.63	142.99	124.38	43.392	5.3629e-06	53.665	310.647	266.482	266.369	181.857	262.995	308.064	181.318	186.378	348.313	282.097	185.963	190.412	190.771	195.467	330.666	194.256	-8191	255	
1116.206	1	1	0	0	0.18034	0.13527	0.2437	0.15864	0.1081	0.077897	0.12211	0.19148	0.1845	0.11408	0.098197	0.23088	0.088432	0.24014	0.17476	0.27982	-3.1667	-3.5354	-2.8312	-3.8521	-3.2271	-3.1896	-3.8937	-3.1354	-3.3375	-3.4292	-2.9583	-3.65	-3.2021	-3.1417	-3.425	-2.9062	406.385	356.642	507.773	424.375	461.715	445.042	518.101	169.107	501.453	460.997	495.778	486.123	524.425	444.790	431.425	198.617	0.001005	0.0002539	0.00013149	1351.3	5.1893e-06	4.2446e-06	1336.9	367.95	6.0095e-06	5.7041e-06	418.38	140.55	122.89	42.315	4.3376e-06	52.28	0.00050836	0.00048895	0.00013677	1368.6	5.3846e-06	5.361e-06	1357.3	373.55	5.2885e-06	5.354e-06	424.03	142.99	124.57	43.377	5.4017e-06	53.615	311.134	321.282	287.839	181.799	409.673	299.684	181.471	186.588	342.109	329.332	185.728	189.928	190.980	195.388	268.635	194.250	-8191	255	
1116.302	1	1	0	0	0.095654	0.12566	0.097479	0.19152	0.30903	0.070487	0.092601	0.21029	0.090537	0.21072	0.086921	0.19025	0.01928	0.17935	0.23957	0.082854	-2.8167	-3.4292	-2.9	-3.7438	-3.1958	-3.1604	-3.7125	-2.9208	-3.2396	-3.3396	-2.9062	-3.7188	-3.4729	-3.0354	-3.5292	-2.9604	340.213	410.221	215.176	239.546	469.573	402.213	476.284	501.599	468.598	390.428	326.417	415.030	362.952	482.236	408.077	173.611	0.00077628	0.00069308	0.00016756	1351.9	6.2663e-06	6.0177e-06	1342.2	368.22	7.3929e-06	5.1126e-06	417.2	140.2	122.34	42.395	2.2036e-06	52.024	0.000503	0.00048834	0.00013811	1369.3	5.4064e-06	5.3547e-06	1358.7	373.91	5.3921e-06	5.4406e-06	423.8	142.83	124.15	43.365	5.4217e-06	53.617	310.719	254.894	250.780	182.064	320.506	323.901	181.447	186.613	279.863	328.155	186.044	190.310	191.002	195.709	231.577	194.604	-8191	255	
1116.399	1	1	0	0	0.21372	0.13251	0.10057	0.10134	0.18046	0.31129	0.25362	0.32864	0.18965	0.1095	0.079226	0.22499	0.1225	0.11949	0.083285	0.073299	-2.9083	-3.5646	-2.7042	-3.5729	-3.1729	-2.8417	-3.8625	-3.0979	-3.2208	-3.5896	-3.0021	-3.5542	-3.375	-3.0312	-3.6771	-3.1937	393.360	204.424	493.937	370.655	464.801	487.582	518.002	505.176	305.320	287.016	301.791	500.994	394.351	266.894	247.401	495.137	0.00091037	0.00039523	0.00024882	1351.9	4.0102e-06	9.763e-06	1343	366.66	5.4501e-06	5.4114e-06	415.92	140.12	122.3	42.208	1.0197e-05	52.471	0.00050448	0.00049054	0.00013797	1369.7	5.4121e-06	5.3487e-06	1358.2	373.4	5.4862e-06	5.3836e-06	423.69	142.87	124.37	43.315	5.3831e-06	53.672	311.609	303.709	255.213	182.022	278.085	313.761	181.967	186.550	344.269	336.451	185.882	190.528	191.014	195.781	285.957	194.468	-8191	255	
1116.495	1	1	0	0	0.16178	0.20617	0.14963	0.20233	0.18547	0.11508	0.3348	0.17614	0.37145	0.19249	0.1221	0.052981	0.14754	0.22853	0.073651	0.25674	-2.8729	-3.6542	-2.9729	-3.5563	-3.5292	-2.7521	-3.6437	-3.3063	-2.8792	-3.7	-3.025	-3.4271	-3.6271	-2.8958	-3.7062	-3.2292	326.973	457.649	400.410	182.287	228.189	394.413	504.548	512.735	347.365	449.641	411.350	271.425	502.365	468.883	219.963	374.447	0.00098146	0.00065685	0.0001689	1354.7	4.4206e-06	6.9153e-06	1342.9	369.12	5.8423e-06	4.4491e-06	418.51	140.5	122.42	42.332	6.3886e-06	52.687	0.00050087	0.00048137	0.00013622	1368.6	5.2982e-06	5.3756e-06	1358.9	374.13	5.2452e-06	5.3543e-06	423.81	142.91	124.4	43.386	5.271e-06	53.827	311.154	312.252	252.253	182.130	244.970	316.897	181.922	186.879	366.406	390.017	186.066	190.692	191.151	195.742	325.250	194.780	-8191	255	
1116.591	1	1	0	0	0.097602	0.12908	0.22651	0.43852	0.075203	0.23283	0.36423	0.31461	0.22031	0.17117	0.24302	0.26997	0.27533	0.15847	0.18707	0.10342	-2.5896	-3.6437	-2.8979	-3.3708	-3.5729	-2.8042	-3.8	-3.4604	-2.8354	-3.7208	-3.15	-3.2771	-3.7417	-3.0583	-3.5083	-3.425	455.668	364.694	478.664	499.203	322.060	207.455	440.508	429.940	289.195	305.422	170.658	510.208	179.530	208.448	355.099	517.838	0.00086515	0.00084404	3.9427e-05	1351.9	8.3942e-06	8.6015e-06	1343.5	368.76	8.4944e-06	4.9859e-06	416.57	141.44	122.67	42.241	3.2778e-06	52.694	0.00049013	0.0004672	0.00013194	1368	5.1882e-06	5.1737e-06	1358.8	372.75	5.1261e-06	5.1979e-06	423.09	143.09	124.57	43.335	5.1502e-06	53.781	306.343	250.991	462.851	181.998	328.663	310.049	181.657	186.672	300.106	333.846	186.019	190.695	190.740	195.613	347.443	194.534	-8191	255	
1116.687	1	1	0	0	0.19563	0.14112	0.057283	0.33584	0.14948	0.35841	0.20208	0.33248	0.22161	0.18461	0.29525	0.1631	0.2494	0.16738	0.19966	0.19541	-2.5229	-3.7458	-2.9646	-3.3937	-3.6104	-3.0167	-3.6333	-3.6604	-2.9354	-3.5958	-3.1396	-3.2021	-4.0021	-2.9854	-3.4917	-3.6	218.549	383.353	478.792	459.821	430.139	414.350	428.003	406.093	308.493	415.185	512.014	174.731	508.721	218.907	348.358	435.388	0.0010271	0.00066051	0.00014938	1345.7	1.0984e-05	4.0855e-06	1339.9	366.94	7.1929e-06	6.7858e-06	418.71	140.3	122.72	42.311	3.6198e-06	52.504	0.00048245	0.0004652	0.00013043	1367	5.191e-06	5.1712e-06	1356.5	372.9	5.202e-06	5.2416e-06	423.99	142.77	124.56	43.315	5.2033e-06	53.623	307.440	236.265	275.702	182.092	265.741	335.638	182.132	187.127	362.565	297.578	186.357	190.831	191.314	195.866	402.204	194.976	-8191	255	
1116.808	1	1	0	0	0.064676	0.22655	0.17867	0.32394	0.1903	0.19228	0.33083	0.19727	0.044796	0.13658	0.077397	0.076851	0.11584	0.22791	0.10784	0.10066	-2.4917	-3.5312	-3.1437	-3.3604	-3.4208	-2.8479	-3.6208	-3.6667	-2.8521	-3.5125	-3.35	-3.1458	-3.8167	-2.9708	-3.2875	-3.7958	352.312	255.453	485.080	493.567	484.494	519.418	485.340	219.377	514.097	432.758	519.984	276.630	373.963	390.880	268.814	394.148	0.00097883	0.00088421	0.00010881	1351.2	9.7526e-06	9.8505e-06	1347	368.98	6.0522e-06	5.4466e-06	419.48	140.9	122.96	42.196	7.6211e-06	52.205	0.00049434	0.00048107	0.00013364	1369.3	5.2084e-06	5.1867e-06	1359.4	373.28	5.2126e-06	5.2511e-06	424	142.94	124.79	43.241	5.1516e-06	53.556	308.836	264.635	216.561	182.542	316.179	319.196	183.394	187.261	350.004	301.390	186.019	190.871	191.201	195.684	376.515	194.495	-8191	255	
1116.904	1	1	0	0	0.31282	0.083137	0.16347	0.1137	0.16553	0.17651	0.19331	0.2441	0.076742	0.15595	0.25797	0.042653	0.15288	0.25341	0.22034	0.30557	-2.3917	-3.5396	-3.2458	-3.1292	-3.8479	-3.0771	-3.3375	-3.7313	-2.825	-3.3896	-3.2396	-3.1479	-3.7646	-3.0708	-3.1833	-3.6688	464.512	280.615	270.402	498.533	212.571	224.642	445.542	471.224	450.894	369.606	505.140	425.911	379.465	185.658	361.324	453.803	0.00081597	0.00051043	5.5333e-05	1351.5	3.6162e-06	1.6577e-06	1336.5	367.86	9.7331e-06	3.4252e-06	416.54	140.39	122.89	42.293	4.6412e-06	52.5	0.00048113	0.00046197	0.000129	1367.5	5.0368e-06	5.0804e-06	1355.7	372.79	5.0995e-06	5.0351e-06	422.45	142.82	124.59	43.37	5.0836e-06	53.745	311.762	277.945	308.339	182.155	253.093	265.097	181.671	186.487	362.411	371.705	185.824	190.272	190.870	195.569	334.665	194.720	-8191	255	
1116.998	1	1	0	0	0.11497	0.29566	0.14518	0.34673	0.18534	0.16212	0.20686	0.10865	0.040366	0.17406	0.11645	0.46222	0.03366	0.047886	0.19911	0.30954	-2.5792	-3.2854	-3.5625	-3.1271	-3.675	-3.1854	-3.2812	-3.8187	-2.7875	-3.4437	-3.5312	-2.8875	-3.8333	-3.5042	-2.9708	-3.7979	181.021	253.511	384.977	489.111	242.036	362.859	504.913	488.993	426.740	239.368	282.553	195.536	236.283	503.297	319.294	476.046	0.00082096	0.00077901	5.8333e-05	1352	9.0409e-06	6.5641e-06	1340.8	368.07	3.7849e-06	4.5979e-06	419.09	141.13	122.9	42.405	7.8003e-06	52.516	0.00048	0.00045803	0.00012678	1368.5	5.0176e-06	4.938e-06	1356.2	373.39	4.9946e-06	4.9834e-06	423.32	143.41	124.71	43.343	5.0524e-06	53.756	310.725	288.650	241.172	182.206	283.901	322.151	182.186	186.785	325.896	290.252	186.127	190.567	191.165	195.901	352.535	194.702	-8191	255	
1117.094	1	1	0	0	0.27485	0.11058	0.059029	0.30426	0.12527	0.10506	0.40809	0.21197	0.16033	0.38042	0.012146	0.27112	0.026315	0.10656	0.10373	0.10531	-2.6021	-3.2417	-3.5729	-3.0312	-3.6312	-3.3833	-3.15	-3.9813	-2.8833	-3.1271	-3.625	-2.9938	-3.7417	-3.3604	-2.7979	-3.6875	318.449	215.168	186.406	500.108	424.947	405.210	506.549	524.864	365.400	248.310	465.333	487.339	425.579	514.036	395.318	476.458	0.00092775	0.00072624	0.00020408	1349.4	3.2645e-06	1.157e-05	1342.1	368.09	5.6723e-06	5.3633e-06	417.98	140.4	122.61	42.366	1.9908e-06	52.309	0.00047179	0.00045646	0.00012647	1367.6	5.0646e-06	4.9135e-06	1356.3	373.09	5.0335e-06	4.9338e-06	422.62	143.05	124.67	43.395	4.9338e-06	53.752	311.180	258.524	299.141	182.093	244.282	288.457	181.566	186.385	450.783	288.153	185.607	190.108	190.723	195.341	360.874	194.420	-8191	255	
1117.191	1	1	0	0	0.05892	0.16283	0.1132	0.076801	0.2096	0.17116	0.41694	0.24141	0.14957	0.070999	0.19816	0.058358	0.071026	0.059049	0.11859	0.15352	-2.3812	-3.375	-3.5896	-2.8104	-3.5604	-3.3104	-3.1958	-3.7417	-3.125	-3.0604	-3.7667	-2.9729	-3.6583	-3.5292	-2.6458	-3.6729	327.455	366.628	330.765	225.590	326.080	449.602	477.162	524.923	522.620	223.951	463.353	449.717	240.328	518.915	325.236	195.091	0.00079553	0.00046719	9.6445e-05	1352	6.4975e-06	1.0896e-05	1341.2	367.46	8.1415e-06	4.7256e-06	416.3	140.76	122.54	42.407	5.6198e-06	52.414	0.00046267	0.00044356	0.00012252	1369.4	4.8849e-06	4.8223e-06	1359.6	372.86	4.8857e-06	4.8131e-06	422.89	142.95	124.65	43.393	4.8603e-06	53.725	307.731	287.120	239.592	181.785	356.430	284.308	181.601	186.687	367.200	304.598	185.864	190.159	191.021	195.062	355.448	194.433	-8191	255	
#DATA ENDS
