BOXY.EXE: ISS Imagent and Oximeter Data Acquisition Program Version 0.80
Ascii Record File

#ACQ INFORMATION
2  Detector Channels 
16  External MUX Channels 
1  Auxiliary Channels 
5000  Waveform (CCF) Frequency (Hz)
1  Waveforms Skipped 
30  Waveforms Averaged 
1  Cycles Averaged 
16  Acquisitions per Waveform 
10.0806  Updata Rate (Hz) 

#FILE INFORMATION
TRUE -- External MUX Channel results are PARSED.
FALSE -- AC DC and Phase are NOT grouped.
TRUE -- Companion Program Settings File CREATED.
FALSE -- AC data not excluded
FALSE -- DC data not excluded
FALSE -- Phase data not excluded
FALSE -- Auxillary Chn. data not excluded
Tab delimiters

#CALIBRATION STATE
TRUE -- Waveform Calibration Values APPLIED.


#AUX CALIBRATION VALUES
Val Type	aux-1	

Term	1.0000e+00	
Factor	0.0000e+00	


#WF CALIBRATION VALUES
A = Detector Channel
Val Type	A-AC1	A-AC2	A-AC3	A-AC4	A-AC5	A-AC6	A-AC7	A-AC8	A-AC9	A-AC10	A-AC11	A-AC12	A-AC13	A-AC14	A-AC15	A-AC16	A-DC1	A-DC2	A-DC3	A-DC4	A-DC5	A-DC6	A-DC7	A-DC8	A-DC9	A-DC10	A-DC11	A-DC12	A-DC13	A-DC14	A-DC15	A-DC16	A-Ph1	A-Ph2	A-Ph3	A-Ph4	A-Ph5	A-Ph6	A-Ph7	A-Ph8	A-Ph9	A-Ph10	A-Ph11	A-Ph12	A-Ph13	A-Ph14	A-Ph15	A-Ph16	

Term	0.00000e+00	0.00000e+00	0.00000e+00	0.00000e+00	0.00000e+00	0.00000e+00	0.00000e+00	0.00000e+00	0.00000e+00	0.00000e+00	0.00000e+00	0.00000e+00	0.00000e+00	0.00000e+00	0.00000e+00	0.00000e+00	0.00000e+00	0.00000e+00	0.00000e+00	0.00000e+00	0.00000e+00	0.00000e+00	0.00000e+00	0.00000e+00	0.00000e+00	0.00000e+00	0.00000e+00	0.00000e+00	0.00000e+00	0.00000e+00	0.00000e+00	0.00000e+00	0.00000e+00	0.00000e+00	0.00000e+00	0.00000e+00	0.00000e+00	0.00000e+00	0.00000e+00	0.00000e+00	0.00000e+00	0.00000e+00	0.00000e+00	0.00000e+00	0.00000e+00	0.00000e+00	0.00000e+00	0.00000e+00	
Factor	1.00000e+00	1.00000e+00	1.00000e+00	1.00000e+00	1.00000e+00	1.00000e+00	1.00000e+00	1.00000e+00	1.00000e+00	1.00000e+00	1.00000e+00	1.00000e+00	1.00000e+00	1.00000e+00	1.00000e+00	1.00000e+00	1.00000e+00	1.00000e+00	1.00000e+00	1.00000e+00	1.00000e+00	1.00000e+00	1.00000e+00	1.00000e+00	1.00000e+00	1.00000e+00	1.00000e+00	1.00000e+00	1.00000e+00	1.00000e+00	1.00000e+00	1.00000e+00	X	X	X	X	X	X	X	X	X	X	X	X	X	X	X	X	

B = Detector Channel
Val Type	B-AC1	B-AC2	B-AC3	B-AC4	B-AC5	B-AC6	B-AC7	B-AC8	B-AC9	B-AC10	B-AC11	B-AC12	B-AC13	B-AC14	B-AC15	B-AC16	B-DC1	B-DC2	B-DC3	B-DC4	B-DC5	B-DC6	B-DC7	B-DC8	B-DC9	B-DC10	B-DC11	B-DC12	B-DC13	B-DC14	B-DC15	B-DC16	B-Ph1	B-Ph2	B-Ph3	B-Ph4	B-Ph5	B-Ph6	B-Ph7	B-Ph8	B-Ph9	B-Ph10	B-Ph11	B-Ph12	B-Ph13	B-Ph14	B-Ph15	B-Ph16	

Term	0.00000e+00	0.00000e+00	0.00000e+00	0.00000e+00	0.00000e+00	0.00000e+00	0.00000e+00	0.00000e+00	0.00000e+00	0.00000e+00	0.00000e+00	0.00000e+00	0.00000e+00	0.00000e+00	0.00000e+00	0.00000e+00	0.00000e+00	0.00000e+00	0.00000e+00	0.00000e+00	0.00000e+00	0.00000e+00	0.00000e+00	0.00000e+00	0.00000e+00	0.00000e+00	0.00000e+00	0.00000e+00	0.00000e+00	0.00000e+00	0.00000e+00	0.00000e+00	-1.52259e+01	-1.21314e+02	-1.23051e+02	-1.84901e+02	-5.91357e+01	-7.46805e+01	-1.57730e+02	-1.62015e+02	-3.40933e+01	-6.62299e+01	-1.71524e+02	-1.72147e+02	-1.80048e+02	-1.78167e+02	-4.40745e+01	-1.50823e+02	
Factor	2.76434e-05	1.26985e-04	3.54059e-05	1.59654e-01	1.74063e-06	1.45815e-06	1.52443e-01	4.95556e-02	1.43490e-06	1.07965e-06	1.17551e-01	2.58781e-02	2.28946e-02	8.02273e-03	1.27440e-06	1.15230e-02	1.86249e-06	1.97404e-06	5.49644e-07	8.35806e-02	2.14999e-08	2.16645e-08	7.48903e-02	2.60166e-02	2.14823e-08	2.17078e-08	5.86460e-02	1.31064e-02	1.20647e-02	4.22979e-03	2.15515e-08	5.85250e-03	X	X	X	X	X	X	X	X	X	X	X	X	X	X	X	X	



#DISTANCE SETTINGS
A = Detector Channel
A-1	A-2	A-3	A-4	A-5	A-6	A-7	A-8	A-9	A-10	A-11	A-12	A-13	A-14	A-15	A-16	

2.5000e+00	3.0000e+00	2.5000e+00	3.0000e+00	2.0000e+00	3.0000e+00	1.5000e+00	3.0000e+00	3.0000e+00	3.0000e+00	3.0000e+00	3.0000e+00	3.0000e+00	3.0000e+00	1.5000e+00	3.0000e+00	

B = Detector Channel
B-1	B-2	B-3	B-4	B-5	B-6	B-7	B-8	B-9	B-10	B-11	B-12	B-13	B-14	B-15	B-16	

1.0000e+01	1.0000e+01	1.0000e+01	1.4400e+00	1.0000e+01	1.0000e+01	1.5100e+00	1.9400e+00	1.0000e+01	1.0000e+01	1.9900e+00	2.4900e+00	2.4100e+00	2.9000e+00	1.0000e+01	2.9800e+00	




#DATA BEGINS
time	group	step	mark	flag	A-AC1	A-AC2	A-AC3	A-AC4	A-AC5	A-AC6	A-AC7	A-AC8	A-AC9	A-AC10	A-AC11	A-AC12	A-AC13	A-AC14	A-AC15	A-AC16	A-DC1	A-DC2	A-DC3	A-DC4	A-DC5	A-DC6	A-DC7	A-DC8	A-DC9	A-DC10	A-DC11	A-DC12	A-DC13	A-DC14	A-DC15	A-DC16	A-Ph1	A-Ph2	A-Ph3	A-Ph4	A-Ph5	A-Ph6	A-Ph7	A-Ph8	A-Ph9	A-Ph10	A-Ph11	A-Ph12	A-Ph13	A-Ph14	A-Ph15	A-Ph16	B-AC1	B-AC2	B-AC3	B-AC4	B-AC5	B-AC6	B-AC7	B-AC8	B-AC9	B-AC10	B-AC11	B-AC12	B-AC13	B-AC14	B-AC15	B-AC16	B-DC1	B-DC2	B-DC3	B-DC4	B-DC5	B-DC6	B-DC7	B-DC8	B-DC9	B-DC10	B-DC11	B-DC12	B-DC13	B-DC14	B-DC15	B-DC16	B-Ph1	B-Ph2	B-Ph3	B-Ph4	B-Ph5	B-Ph6	B-Ph7	B-Ph8	B-Ph9	B-Ph10	B-Ph11	B-Ph12	B-Ph13	B-Ph14	B-Ph15	B-Ph16	aux-1	digaux	

1126.314	1	1	0	256	0.17636	0.040691	0.20172	0.078451	0.082868	0.060698	0.37076	0.11982	0.092187	0.093756	0.055727	0.079528	0.13537	0.40672	0.042987	0.12005	-3.5417	-2.8729	-3.3812	-3.8271	-2.725	-3.6271	-3.3812	-3.0521	-3.8833	-3.0125	-3.3979	-3.6042	-2.9313	-3.6042	-3.4229	-3.0792	274.048	189.152	302.380	240.064	507.028	226.981	480.517	240.471	383.229	323.196	424.988	291.246	202.607	367.694	382.159	522.021	0.00039727	0.00014966	0.00015812	940.99	3.4672e-06	3.6413e-06	1057.5	206.84	2.0662e-06	3.2603e-06	267.98	75.228	57.557	16.947	4.4973e-06	24.353	0.00014257	0.0001332	3.556e-05	924.65	1.4206e-06	1.3817e-06	1038.3	203.4	1.4079e-06	1.4283e-06	261.24	74.673	57.005	17.152	1.3945e-06	24.458	318.951	284.835	247.495	183.797	308.037	308.815	183.777	191.634	342.488	343.414	191.148	197.743	197.775	205.458	319.598	204.176	-8191	255	
1126.410	1	1	0	0	0.054147	0.10566	0.27478	0.14482	0.13319	0.1472	0.26104	0.34543	0.10721	0.030875	0.20182	0.29609	0.17557	0.11939	0.30053	0.37361	-3.4583	-3.0646	-3.1562	-3.8458	-2.8854	-3.5458	-3.5521	-3.0375	-3.6729	-3.1125	-3.3	-3.7708	-2.9688	-3.45	-3.375	-2.9708	378.813	396.754	288.654	246.423	450.877	395.822	375.262	516.820	323.076	434.347	458.468	525.640	312.301	275.792	434.286	355.251	0.00039987	0.00029232	4.7725e-05	947.71	3.3079e-06	5.8694e-06	1061.4	206.44	5.5193e-06	6.3122e-07	267.98	75.523	57.584	17.179	3.9392e-06	24.432	0.00013985	0.00012904	3.5317e-05	927.59	1.4483e-06	1.4237e-06	1041.9	203.7	1.4331e-06	1.3801e-06	261.21	74.852	57.097	17.275	1.367e-06	24.477	311.272	269.113	330.348	183.796	313.911	312.177	183.719	191.015	338.141	356.494	191.034	197.756	198.142	205.286	301.629	204.651	-8191	255	
1126.529	1	1	0	0	0.20476	0.098763	0.058314	0.21367	0.13723	0.16937	0.19406	0.12029	0.023378	0.019989	0.17899	0.18495	0.084761	0.29502	0.20223	0.36834	-3.3688	-3.1833	-3.0729	-3.8563	-2.8396	-3.5854	-3.6021	-2.8958	-3.7646	-3.1312	-3.1917	-3.8833	-2.9896	-3.4146	-3.625	-2.8167	493.224	338.067	474.188	241.477	513.285	525.875	335.287	470.929	419.398	436.302	481.714	515.230	473.015	474.083	324.714	532.357	0.00041376	0.0002471	0.00013449	945.17	2.4697e-06	1.8891e-06	1059.7	206.57	4.9884e-06	8.1932e-07	266.23	75.632	57.503	16.959	1.78e-06	24.214	0.00013404	0.00012453	3.4713e-05	926.06	1.3788e-06	1.3106e-06	1041.3	203.32	1.3635e-06	1.362e-06	260.02	74.67	56.86	17.14	1.3391e-06	24.417	312.947	233.262	314.098	183.815	359.079	327.649	183.476	191.432	329.889	384.204	190.802	197.613	198.026	205.088	323.094	204.383	-8191	255	
1126.626	1	1	0	0	0.0063128	0.12603	0.1364	0.11696	0.10713	0.22593	0.21496	0.22493	0.066578	0.18605	0.13017	0.17411	0.17542	0.296	0.10489	0.12723	-3.2104	-3.1937	-3.0604	-3.8063	-3.1063	-3.525	-3.7771	-2.9333	-3.6417	-3.2833	-2.95	-3.7271	-3.15	-3.2188	-3.5542	-2.8125	272.066	189.318	249.004	417.414	324.002	218.965	453.529	525.982	458.339	287.491	407.883	261.377	202.546	394.317	488.220	501.925	0.00034026	0.00027493	1.5337e-05	943.35	4.8632e-06	1.8866e-06	1051.7	205.16	2.8429e-06	4.0141e-06	265.69	75.272	57.268	17.042	2.4201e-06	24.292	0.0001334	0.00012389	3.5173e-05	921.74	1.3698e-06	1.3404e-06	1034.7	202.57	1.403e-06	1.3752e-06	259.4	74.383	56.503	17.147	1.3362e-06	24.297	315.328	274.734	316.720	183.728	320.763	207.006	183.552	191.032	349.085	334.794	190.786	197.391	198.041	205.615	257.040	204.397	-8191	255	
1126.699	1	1	0	0	0.084324	0.27575	0.3461	0.037957	0.19416	0.18252	0.32089	0.44282	0.13061	0.084362	0.088485	0.096201	0.12069	0.096103	0.25876	0.18088	-3.3187	-3.4604	-2.7542	-3.7542	-2.9604	-3.1437	-3.7687	-2.8479	-3.4292	-3.5646	-3.0375	-3.6271	-3.1063	-3.1979	-3.6083	-3.0563	434.725	175.534	284.680	348.757	273.513	295.471	447.787	506.481	423.427	265.750	364.460	244.207	517.288	474.473	438.811	496.617	0.00033704	0.00040888	9.5891e-05	942.46	4.3408e-06	4.131e-06	1058	206.67	2.3695e-06	2.1852e-06	266.1	75.183	57.399	17.034	3.7117e-06	24.289	0.00013159	0.00012028	3.3303e-05	921.74	1.3196e-06	1.3354e-06	1034	202.71	1.3267e-06	1.3017e-06	258.81	74.489	56.694	17.077	1.2854e-06	24.34	318.752	307.764	242.428	183.646	306.320	318.818	183.505	191.175	312.913	324.814	190.920	197.937	197.939	205.435	290.060	203.931	-8191	255	
1126.818	1	1	0	0	0.28059	0.017136	0.20165	0.24067	0.21032	0.1371	0.17728	0.13381	0.10048	0.025724	0.10372	0.13277	0.1205	0.23349	0.096492	0.3048	-3.0625	-3.6292	-2.8083	-3.9104	-3.2271	-3.0229	-3.8792	-2.9771	-3.3167	-3.5208	-2.9583	-3.6146	-3.25	-2.9813	-3.8458	-3.0125	369.618	233.196	341.001	449.450	205.016	484.057	418.876	522.455	209.058	355.773	499.704	482.548	312.577	464.663	410.227	419.801	0.00039221	0.00041712	0.00010762	937.65	7.8918e-07	3.1841e-06	1047.9	206.58	5.7005e-06	2.6596e-06	265.88	74.542	56.915	16.982	2.2106e-06	24.211	0.00012771	0.00011739	3.2422e-05	918.68	1.2972e-06	1.2636e-06	1031.9	202.1	1.2763e-06	1.2512e-06	258.8	74.094	56.493	17.061	1.2619e-06	24.3	318.018	313.577	346.847	183.516	516.945	358.602	183.537	191.568	354.846	324.415	190.740	197.672	198.085	205.366	377.115	204.869	-8191	255	
1126.914	1	1	0	0	0.20177	0.10931	0.16298	0.17865	0.083473	0.13197	0.24915	0.083249	0.093827	0.0679	0.086755	0.17093	0.06895	0.20842	0.27399	0.064008	-2.9583	-3.7188	-2.8771	-3.6708	-3.3083	-3.1604	-4.0396	-3.1042	-3.2208	-3.8417	-2.8875	-3.5854	-3.3896	-3.0187	-3.7875	-3.2292	469.856	420.445	455.396	509.114	209.104	254.930	420.324	494.062	307.177	518.017	205.493	354.493	392.012	464.481	469.684	475.877	0.0003796	0.00029618	0.00010817	936.05	3.0885e-06	3.0109e-06	1053	205.77	3.8687e-06	3.2493e-06	265.34	74.909	57.159	17.065	4.9018e-06	23.878	0.00012814	0.00011362	3.2241e-05	917.61	1.2667e-06	1.202e-06	1032.5	201.97	1.25e-06	1.2136e-06	258.36	74.169	56.575	17.044	1.2081e-06	24.212	315.029	322.593	231.624	183.719	283.608	300.639	183.561	191.211	356.553	347.042	191.055	197.754	198.221	205.381	306.204	204.287	-8191	255	
1127.010	1	1	0	0	0.22454	0.21065	0.25312	0.2565	0.074038	0.11857	0.23947	0.11684	0.29745	0.053384	0.13397	0.14268	0.19944	0.14052	0.16204	0.124	-2.8187	-3.775	-3.0187	-3.5208	-3.6312	-2.8729	-3.9521	-3.4104	-2.9875	-3.8229	-2.8292	-3.45	-3.5146	-3.0563	-3.725	-3.4	299.906	294.795	215.225	502.448	213.351	357.114	512.953	421.480	451.499	175.341	501.874	268.785	386.373	237.534	400.573	432.213	0.00039922	0.00018537	0.0001083	938.73	2.4434e-06	3.3253e-06	1053.5	206.35	5.0716e-06	2.6376e-06	264.25	75.134	57.737	16.901	1.7972e-06	23.97	0.00012314	0.00010521	3.028e-05	916.28	1.2116e-06	1.1762e-06	1029.5	201.65	1.1792e-06	1.1273e-06	257.04	73.935	56.375	17.002	1.0809e-06	24.085	311.682	228.018	330.534	183.804	370.705	316.584	183.647	191.003	317.557	324.608	191.241	197.437	198.336	205.063	317.550	204.478	-8191	255	
1127.131	1	1	0	0	0.1364	0.095079	0.040854	0.21532	0.09853	0.094632	0.25882	0.051915	0.12212	0.13207	0.17901	0.098817	0.13544	0.10601	0.063339	0.12406	-2.6437	-3.9229	-2.9708	-3.4542	-3.6396	-2.9771	-3.7771	-3.3833	-3.0417	-3.7917	-3.1396	-3.55	-3.6208	-2.825	-3.55	-3.3646	276.332	214.825	509.792	182.124	348.817	278.944	426.328	434.850	219.591	200.430	221.162	525.839	233.900	417.030	427.276	283.250	0.00034827	0.00026252	8.3895e-05	933.95	2.6846e-06	1.4396e-06	1042.1	202.79	2.4607e-06	2.4705e-06	260.69	73.569	56.031	16.788	3.6071e-06	23.772	0.00011135	9.47e-05	2.6786e-05	913.56	1.0515e-06	1.0544e-06	1022.1	199.15	1.0746e-06	1.012e-06	254.15	72.809	55.503	16.705	1.0337e-06	23.811	308.511	305.334	238.098	183.740	307.397	494.392	183.699	191.511	315.315	289.493	191.087	198.008	198.329	205.486	351.386	204.543	-8191	255	
1127.227	1	1	0	0	0.24391	0.14363	0.10837	0.33719	0.13521	0.26343	0.060837	0.097446	0.039154	0.091531	0.19268	0.13671	0.047048	0.12788	0.22604	0.20383	-2.5208	-3.5438	-3.0854	-3.4479	-3.7313	-2.8229	-3.7313	-3.6042	-2.825	-3.5938	-2.9667	-3.0917	-3.8104	-2.8292	-3.4938	-3.5042	220.476	446.363	341.785	201.372	374.446	286.326	458.004	219.489	272.433	473.429	507.547	319.676	506.831	427.054	516.367	465.952	0.00044386	0.00034245	6.6554e-05	920.91	4.2889e-06	1.4846e-06	1034.1	200.6	5.287e-06	1.3782e-06	257.58	73.374	55.741	16.37	4.4985e-06	23.494	0.00010676	9.0419e-05	2.5379e-05	901.98	1.0505e-06	1.0229e-06	1012.1	197.17	1.0536e-06	1.0125e-06	251.77	72.392	54.914	16.513	1.0543e-06	23.495	307.810	285.851	192.170	184.209	324.760	272.671	183.860	191.294	358.999	313.573	190.890	197.548	198.136	205.953	303.012	204.720	-8191	255	
1127.299	1	1	0	0	0.1578	0.23451	0.23423	0.15692	0.17835	0.056686	0.38	0.2982	0.18807	0.073429	0.14673	0.14119	0.30551	0.21504	0.087321	0.24948	-2.5	-3.7646	-3.1292	-3.0792	-3.6833	-3.0792	-3.6146	-3.5542	-2.9646	-3.6042	-3.5604	-3.1083	-3.7104	-3.1562	-3.4333	-3.6354	477.916	270.120	315.508	198.795	277.100	474.713	458.835	531.291	468.628	237.658	264.688	421.013	248.858	397.874	393.050	469.846	0.00029594	0.00026255	0.00013656	912.11	5.7069e-06	2.5033e-06	1027.5	199.42	5.0822e-06	2.068e-06	257.01	72.519	55.236	16.452	4.4353e-06	23.295	0.00011207	9.7287e-05	2.7804e-05	893.1	1.1226e-06	1.1363e-06	1001.6	195.71	1.1359e-06	1.1085e-06	249.6	71.737	54.692	16.394	1.152e-06	23.408	320.435	240.121	261.435	183.825	320.688	279.255	183.663	191.499	334.947	303.865	191.023	197.748	198.485	205.901	338.116	204.605	-8191	255	
1127.419	1	1	0	0	0.18804	0.11294	0.1404	0.05294	0.13132	0.13715	0.086344	0.076441	0.14104	0.13949	0.032268	0.18709	0.06551	0.039405	0.21664	0.26597	-2.3667	-3.8104	-3.275	-3.1354	-3.7	-3.0542	-3.3854	-3.7354	-3.0938	-3.6333	-3.55	-2.9958	-3.9667	-3.1771	-3.1708	-3.6604	463.265	311.319	468.264	403.863	321.993	394.386	453.144	213.463	236.434	184.053	439.077	200.972	330.005	329.093	393.968	414.807	0.00040352	0.00037164	1.6012e-05	909.29	3.3882e-06	2.7417e-06	1014.9	198.07	3.057e-06	1.2357e-06	253.69	72.024	55.065	16.272	3.204e-06	23.277	0.00011459	0.00010206	2.8197e-05	887.53	1.1018e-06	1.0777e-06	997.31	194.16	1.1069e-06	1.0944e-06	248.19	71.464	54.49	16.367	1.1085e-06	23.37	309.394	272.210	266.413	183.912	288.367	341.555	184.123	191.363	329.344	374.489	190.846	197.901	198.418	205.609	259.405	204.765	-8191	255	
1127.514	1	1	0	0	0.19747	0.12218	0.092064	0.24616	0.035735	0.14984	0.40926	0.29566	0.13991	0.14296	0.23626	0.33078	0.045475	0.072509	0.10164	0.24407	-2.5458	-3.6333	-3.4229	-3.0125	-3.65	-3.0812	-3.1958	-3.7167	-2.9458	-3.5187	-3.6042	-2.6583	-3.8167	-3.4	-3.0667	-3.7687	247.967	376.807	527.355	508.130	505.026	341.388	486.928	420.195	199.847	206.203	450.722	314.689	216.291	503.604	321.941	224.464	0.00039555	0.00032617	3.0824e-05	904.47	4.2986e-06	1.5466e-06	1021.6	196.3	6.0382e-06	1.8086e-06	255.47	71.805	55.199	16.397	2.6315e-06	23.339	0.00011386	0.00010108	2.7372e-05	885.13	1.1024e-06	1.0752e-06	997.87	193.31	1.1218e-06	1.0846e-06	248.5	71.363	54.539	16.432	1.103e-06	23.441	314.760	291.163	330.193	184.080	277.145	336.113	183.580	191.511	350.789	381.512	190.743	197.719	198.166	205.577	357.156	204.998	-8191	255	
1127.610	1	1	0	0	0.22735	0.076783	0.26675	0.19955	0.10418	0.12444	0.061875	0.10617	0.21292	0.20028	0.15716	0.14477	0.13868	0.051588	0.36232	0.052398	-2.5687	-3.2229	-3.5354	-2.9792	-3.6833	-3.0875	-3.075	-3.6667	-2.9146	-3.3771	-3.4833	-2.8667	-3.5479	-3.3667	-3.1042	-3.7583	442.055	486.354	395.566	217.318	453.692	333.859	466.170	528.223	451.572	275.972	221.407	219.675	489.306	531.727	373.929	486.005	0.0004026	0.00038332	7.027e-05	901.72	3.4083e-06	2.4252e-06	1016.1	198.22	2.7836e-06	1.9567e-06	255.44	72.027	55.389	16.319	3.4077e-06	23.422	0.00011103	0.00010101	2.6963e-05	884.27	1.1042e-06	1.0933e-06	995.89	194.16	1.0942e-06	1.1015e-06	249.19	71.544	54.644	16.414	1.0901e-06	23.468	318.850	256.497	258.792	184.233	254.943	298.020	183.910	191.471	337.446	298.246	191.424	198.313	198.461	205.235	307.551	205.071	-8191	255	
1127.706	1	1	0	0	0.15793	0.29032	0.22279	0.09942	0.13402	0.20268	0.23533	0.35726	0.10978	0.16213	0.1483	0.19244	0.23237	0.229	0.11828	0.30606	-2.7	-3.2625	-3.7417	-2.8792	-3.5583	-3.4188	-3.2104	-3.8396	-3.0833	-3.3229	-3.7417	-2.8646	-3.6271	-3.4917	-2.9813	-3.8167	447.174	290.981	450.436	199.512	432.371	476.556	454.514	438.512	259.529	449.643	492.716	387.798	463.049	277.144	467.507	439.623	0.00038973	0.00030606	0.00012466	906.84	3.3054e-06	6.0528e-06	1020.2	198.75	3.5008e-06	1.7295e-06	255.69	72.477	55.593	16.327	2.4319e-06	23.496	0.00011076	9.3179e-05	2.648e-05	888.89	1.0531e-06	1.0013e-06	997.62	194.97	1.0869e-06	1.0169e-06	249.46	71.741	54.8	16.465	1.0295e-06	23.511	316.416	296.214	293.749	183.816	297.817	321.205	183.548	191.434	337.665	343.301	190.511	197.661	198.328	205.337	355.722	204.688	-8191	255	
1127.802	1	1	0	0	0.17835	0.29304	0.036743	0.26274	0.19607	0.3179	0.16857	0.19167	0.23349	0.15354	0.15585	0.20599	0.082372	0.069486	0.26387	0.15552	-2.7521	-3.0604	-3.6417	-3.0563	-3.5583	-3.5563	-3.1854	-3.8479	-3.1708	-3.1312	-3.7521	-3.0938	-3.3292	-3.6417	-2.8083	-3.6458	456.281	185.337	364.313	508.232	355.753	506.238	192.211	415.614	305.793	351.400	176.510	419.064	219.659	176.911	371.804	303.358	0.00035613	0.00022101	6.368e-05	904.92	5.5664e-06	5.0889e-06	1019.3	197.88	2.9925e-06	1.5036e-06	255.61	72.622	55.411	16.508	2.8476e-06	23.451	0.00010605	9.8867e-05	2.5823e-05	886.7	1.0627e-06	1.0397e-06	998.11	194.59	1.1206e-06	1.0609e-06	249.6	71.873	54.808	16.515	1.0699e-06	23.424	318.382	327.587	313.488	183.920	304.667	388.995	183.822	191.394	276.291	330.743	190.799	197.906	198.161	205.567	360.518	204.854	-8191	255	
1127.923	1	1	0	0	0.12601	0.10387	0.28008	0.32902	0.2524	0.1894	0.15613	0.25506	0.072736	0.13219	0.030351	0.040942	0.090843	0.18151	0.23298	0.11692	-2.9729	-2.8396	-3.6917	-3.0312	-3.3604	-3.7958	-3.1917	-3.7375	-3.3396	-3.0354	-3.7562	-3.1208	-3.2188	-3.7646	-2.8563	-3.6521	387.565	376.805	314.057	458.998	413.300	227.367	430.733	388.996	445.349	320.892	175.217	486.031	210.227	452.693	376.156	373.255	0.0003182	0.00034753	3.1448e-05	903.13	1.9394e-06	4.1272e-06	1017.9	199.3	3.994e-06	4.6665e-07	255.79	72.519	55.897	16.417	2.8152e-06	23.36	0.00010921	9.5881e-05	2.6265e-05	885.24	1.0406e-06	9.9927e-07	997.09	195.45	1.0538e-06	1.0394e-06	249.97	71.908	54.97	16.478	1.0366e-06	23.484	309.395	257.605	286.592	183.955	260.683	366.356	183.818	191.321	285.519	332.519	191.003	197.538	198.397	205.684	358.067	204.848	-8191	255	
1127.994	1	1	0	0	0.25016	0.095893	0.086216	0.071894	0.2146	0.14709	0.12062	0.12336	0.21441	0.14034	0.14536	0.14215	0.2101	0.10472	0.12519	0.25361	-3.1354	-2.8458	-3.6625	-3.2292	-3.2292	-3.6688	-3.0208	-3.6583	-3.3917	-3.0417	-3.8333	-3.0854	-3.1375	-3.65	-2.9146	-3.6521	227.035	356.082	510.700	514.038	379.914	261.482	187.125	520.899	431.897	514.813	507.693	518.511	519.755	255.361	518.871	492.962	0.00040055	0.00044552	7.6701e-05	904.73	1.7768e-06	1.9107e-06	1020	199.02	3.0297e-06	2.5273e-06	256.4	72.713	55.553	16.553	2.8044e-06	23.422	0.00010669	9.5252e-05	2.6224e-05	886.32	1.0582e-06	1.0125e-06	995.5	195.46	1.0463e-06	1.0132e-06	250.47	71.94	54.976	16.497	1.0505e-06	23.503	313.564	283.639	295.687	183.970	232.534	342.218	183.821	191.832	331.456	360.851	191.580	197.963	198.077	205.361	316.706	204.941	-8191	255	
1128.090	1	1	0	0	0.18103	0.13627	0.17949	0.11516	0.21896	0.090297	0.12858	0.19558	0.16048	0.12834	0.16512	0.23832	0.092084	0.16977	0.13284	0.11294	-2.9458	-2.9083	-3.7333	-3.1562	-2.8854	-3.7604	-3.0708	-3.5687	-3.4896	-3.0458	-3.6646	-3.4021	-3.0312	-3.8396	-2.9437	-3.2667	501.097	511.328	325.882	444.681	436.762	247.842	443.747	447.653	373.594	363.574	187.156	474.245	372.252	398.747	319.883	485.784	0.00039876	0.00020964	0.00015522	907.36	4.326e-06	4.6015e-06	1020.7	199.15	9.7715e-07	1.3289e-06	256.33	72.316	55.228	16.433	3.1378e-06	23.338	0.00011013	9.4244e-05	2.6663e-05	887.12	1.0869e-06	1.0236e-06	997.19	195.5	1.0564e-06	1.0226e-06	251.13	71.803	55.004	16.527	1.0505e-06	23.487	315.161	273.968	262.584	183.854	350.379	323.496	183.725	191.631	343.430	338.169	190.977	197.453	198.616	205.207	299.798	204.839	-8191	255	
1128.211	1	1	0	0	0.28159	0.12247	0.13211	0.032061	0.083768	0.069014	0.15399	0.07739	0.21168	0.1182	0.15892	0.13406	0.081501	0.23941	0.19084	0.12294	-3.2542	-2.8563	-3.6729	-3.5917	-2.8708	-3.7958	-3.1542	-3.3604	-3.6375	-3.0875	-3.8083	-3.4896	-3.0229	-3.7792	-3.1604	-3.275	351.673	365.119	317.271	278.062	324.243	259.726	476.440	350.497	447.388	361.799	333.951	254.607	210.636	419.980	415.431	277.666	0.00037398	0.00023784	9.6056e-05	906.14	2.527e-06	1.518e-06	1018.8	199.28	2.6628e-06	3.6248e-06	257.82	72.896	55.48	16.466	1.177e-06	23.421	0.00010274	9.2644e-05	2.5759e-05	886.78	1.0528e-06	1.0066e-06	997.68	195.6	1.0035e-06	1.0355e-06	250.56	72.1	54.746	16.472	1.0237e-06	23.453	312.221	288.912	232.560	184.010	296.207	299.103	183.825	191.583	349.888	309.893	191.303	197.506	198.262	205.659	342.779	205.146	-8191	255	
1128.307	1	1	0	0	0.085805	0.24436	0.21097	0.30594	0.2159	0.31899	0.3247	0.083309	0.079308	0.033675	0.069548	0.067276	0.1838	0.29514	0.11243	0.094063	-3.4417	-2.975	-3.5563	-3.6521	-2.9271	-3.7854	-3.2938	-3.2438	-3.8375	-3.0458	-3.4062	-3.7	-2.8354	-3.7292	-3.2	-3.0312	314.802	409.223	328.223	485.169	427.042	469.835	498.016	328.707	250.042	336.499	202.406	479.206	208.504	464.243	264.822	485.106	0.00037395	0.00022179	2.2826e-05	907.7	1.2334e-06	1.9396e-06	1018.7	199.11	3.2161e-06	2.1397e-06	256.91	72.436	55.241	16.389	2.6801e-06	23.298	0.00010549	9.4774e-05	2.6248e-05	886.04	1.0802e-06	1.0367e-06	995.83	195.24	1.0408e-06	1.0416e-06	250.27	71.666	54.583	16.461	1.0385e-06	23.468	311.060	283.022	340.952	183.641	492.539	293.279	184.014	191.474	385.720	290.972	190.816	197.747	197.668	206.070	358.956	205.061	-8191	255	
1128.403	1	1	0	0	0.097177	0.10666	0.17032	0.40012	0.14497	0.2278	0.33749	0.11927	0.13544	0.13266	0.15694	0.18519	0.26285	0.10677	0.08814	0.051089	-3.3146	-2.85	-3.4542	-3.6792	-2.925	-3.7042	-3.3021	-2.9375	-3.6833	-3.1167	-3.4521	-3.5292	-2.9021	-3.6792	-3.3667	-2.9938	347.840	363.465	217.935	485.617	290.003	360.275	437.145	465.190	483.640	465.891	217.666	182.051	243.357	444.297	516.603	391.090	0.00041269	0.00034157	7.6329e-05	906.41	5.9043e-06	2.9603e-06	1010.8	198.73	4.8156e-06	3.6184e-06	257.26	72.85	55.278	16.348	4.4829e-06	23.602	0.00010501	9.2599e-05	2.5296e-05	885.9	1.0993e-06	1.0213e-06	994.11	195.18	1.0597e-06	1.0162e-06	250.71	72.017	54.706	16.434	1.012e-06	23.551	310.375	228.934	255.160	183.662	279.793	316.848	183.643	191.429	363.522	283.549	191.200	197.947	198.401	205.719	340.239	205.076	-8191	255	
1128.500	1	1	0	0	0.11853	0.2645	0.25436	0.064937	0.12356	0.17823	0.19245	0.095202	0.079118	0.053916	0.29177	0.11958	0.061589	0.078476	0.038411	0.11227	-3.2875	-2.8896	-3.25	-3.7479	-3.0438	-3.5042	-3.4896	-3.025	-3.8375	-3.1208	-3.2479	-3.6937	-2.7792	-3.5333	-3.2646	-2.9813	237.926	429.143	211.724	254.582	482.510	329.195	433.823	180.264	507.812	530.659	314.114	403.198	321.650	424.081	459.916	527.851	0.0003623	0.00026325	5.1373e-05	905.62	4.2749e-06	2.4905e-06	1016.1	198.17	3.7873e-06	1.5241e-06	257.12	72.465	55.031	16.406	2.1208e-06	23.263	0.00010598	9.4659e-05	2.5326e-05	884.54	1.0753e-06	1.0278e-06	995.45	195.31	1.0835e-06	1.0505e-06	250.6	71.694	54.46	16.449	1.058e-06	23.399	306.868	380.316	277.089	183.694	330.464	342.670	183.702	191.386	320.176	351.262	191.191	198.183	198.271	205.656	369.642	204.989	-8191	255	
1128.594	1	1	0	0	0.096794	0.15465	0.23418	0.16719	0.12428	0.12715	0.34849	0.21561	0.13723	0.10412	0.05717	0.35904	0.084827	0.13408	0.22129	0.062636	-3.3625	-2.9313	-3.0604	-3.9188	-2.9333	-3.4854	-3.5208	-2.825	-3.5917	-3.275	-3.0604	-3.8375	-2.9229	-3.3354	-3.7646	-2.9437	389.327	329.956	341.878	443.932	212.907	450.993	458.087	202.566	403.416	268.267	349.074	281.835	178.165	505.200	500.073	467.443	0.00041667	0.00024777	4.9475e-05	903.04	5.0145e-06	4.2519e-06	1015.6	196.87	1.1711e-06	1.1451e-06	256.08	72.596	55.666	16.452	1.0939e-06	23.325	0.00010766	9.8435e-05	2.6848e-05	882.4	1.0691e-06	1.0324e-06	993.19	194.96	1.0487e-06	9.925e-07	249.17	71.628	54.618	16.45	9.9258e-07	23.381	305.056	235.791	305.671	184.007	303.396	355.604	183.720	191.313	348.437	422.330	190.597	198.044	198.521	205.578	369.749	204.275	-8191	255	
1128.690	1	1	0	0	0.054883	0.049855	0.094032	0.14415	0.2216	0.11459	0.26463	0.088275	0.1132	0.13041	0.27503	0.11873	0.074568	0.2653	0.23584	0.17329	-3.3729	-3.1375	-3.1437	-3.6292	-2.9604	-3.2625	-3.7938	-2.8792	-3.7104	-3.4188	-2.9458	-3.9375	-3.2521	-3.2625	-3.5646	-2.8646	473.854	260.716	369.908	527.220	211.306	202.453	486.247	489.530	460.404	297.062	390.626	407.868	498.074	397.965	377.876	199.972	0.00037703	0.00039008	6.9811e-05	904.29	3.649e-06	2.5912e-06	1015.6	198.46	2.9669e-06	1.8002e-06	256.62	72.374	55.149	16.511	4.1958e-06	23.577	0.00010483	9.375e-05	2.568e-05	882.64	1.0141e-06	1.0031e-06	994.2	194.88	1.0536e-06	9.9964e-07	250.1	71.559	54.431	16.477	1.0075e-06	23.5	320.007	282.628	205.562	183.999	330.415	237.619	183.862	191.582	303.303	381.495	191.218	198.107	197.896	206.064	342.718	204.739	-8191	255	
1128.811	1	1	0	0	0.42702	0.073906	0.13588	0.098706	0.06525	0.18197	0.29791	0.20411	0.092287	0.070138	0.13055	0.1289	0.12441	0.21397	0.30649	0.18184	-3.3792	-3.4042	-2.8667	-3.7958	-3.1729	-3.1063	-3.95	-2.9771	-3.6208	-3.3875	-3.0146	-3.7667	-3.2771	-3.1396	-3.8312	-2.9396	314.695	326.520	236.612	478.189	398.647	490.016	418.390	177.077	376.085	333.248	302.116	506.991	433.859	448.326	369.517	506.633	0.00043675	0.00019376	4.2596e-05	901.66	4.4733e-06	1.7783e-06	1012.2	197.98	7.7855e-07	1.6587e-06	257.78	72.283	55.47	16.5	2.6882e-06	23.183	0.00010729	9.3936e-05	2.6116e-05	881.88	1.0079e-06	1.0032e-06	992.52	195	1.0079e-06	9.9738e-07	249.45	71.498	54.534	16.449	1.0059e-06	23.374	305.493	291.313	460.750	184.177	322.914	294.967	183.745	191.678	313.603	440.312	191.525	197.883	198.644	205.499	351.823	204.814	-8191	255	
1128.907	1	1	0	0	0.086654	0.20153	0.20663	0.18895	0.29736	0.090908	0.17083	0.20285	0.042232	0.15918	0.20291	0.16486	0.21294	0.079304	0.089954	0.13112	-3.0375	-3.4938	-2.8229	-3.7458	-3.0833	-2.9625	-3.9292	-2.9208	-3.2792	-3.4896	-2.8583	-3.5625	-3.4125	-2.8937	-3.7083	-3.0833	533.563	351.072	254.849	507.673	500.894	263.601	218.083	454.518	453.664	174.675	392.751	389.870	424.061	497.069	328.151	176.274	0.00039726	0.0003449	0.00014004	901.7	3.4529e-06	3.3749e-06	1010.8	197.73	9.5508e-07	2.0376e-06	256.93	72.262	54.986	16.322	3.3988e-06	23.277	0.0001065	9.241e-05	2.5714e-05	880.76	1.0243e-06	1.0379e-06	991.03	194.22	1.0305e-06	1.0409e-06	249.4	71.41	54.278	16.292	1.0347e-06	23.351	312.049	265.683	262.081	183.924	351.275	336.262	183.691	191.723	517.272	303.103	191.045	198.139	198.450	206.329	336.987	204.977	-8191	255	
1129.003	1	1	0	0	0.0964	0.18362	0.26698	0.19388	0.083089	0.31108	0.29995	0.25522	0.037459	0.096642	0.14111	0.052756	0.17225	0.16556	0.099994	0.079822	-2.8729	-3.475	-2.7896	-3.6917	-3.3042	-3.0104	-3.8458	-3.0229	-3.2313	-3.6708	-2.9125	-3.4646	-3.3875	-2.7646	-3.7792	-3.1958	531.923	373.448	364.450	272.939	248.085	461.259	488.757	442.476	499.808	399.628	379.547	479.490	225.143	395.395	347.615	504.320	0.00033198	0.00028738	7.9998e-05	901.36	6.3247e-06	3.2614e-06	1009.5	198.99	4.0968e-06	4.8937e-07	256.96	72.732	55.373	16.435	4.1491e-06	23.323	0.00010591	9.3088e-05	2.5689e-05	882.2	1.0488e-06	9.9932e-07	990.85	194.3	1.0273e-06	9.9214e-07	249.34	71.459	54.382	16.351	1.0339e-06	23.32	303.312	318.767	293.254	184.224	324.810	333.841	184.057	191.835	367.595	269.673	190.974	197.421	198.580	205.829	321.396	204.782	-8191	255	
1129.099	1	1	0	0	0.25598	0.18163	0.035555	0.19162	0.10506	0.27972	0.12462	0.20461	0.13678	0.10527	0.16672	0.25957	0.36064	0.14728	0.11601	0.34913	-2.6646	-3.7104	-2.8875	-3.5958	-3.4542	-2.9771	-3.8229	-3.3	-2.9854	-3.7146	-2.8063	-3.5	-3.6833	-2.9229	-3.7354	-3.1896	461.091	243.779	270.943	421.259	192.297	530.239	478.111	197.176	254.660	427.323	431.667	466.587	470.943	357.375	388.307	428.135	0.00041203	0.00051613	7.616e-05	900.61	6.0094e-06	1.0412e-06	1012.4	198.51	2.0928e-06	2.2148e-06	255.72	72.003	55.49	16.24	1.9486e-06	23.474	0.00010362	9.2669e-05	2.5585e-05	881.07	9.976e-07	1.0084e-06	992.04	194.69	1.0292e-06	9.8662e-07	249.02	71.418	54.491	16.404	9.8827e-07	23.397	307.449	286.856	212.161	183.977	337.004	308.289	183.868	191.408	320.977	326.679	191.246	197.880	198.497	206.125	379.867	204.723	-8191	255	
1129.220	1	1	0	0	0.13822	0.19447	0.09845	0.17297	0.093309	0.31039	0.40086	0.29344	0.077767	0.17111	0.16208	0.088457	0.247	0.093895	0.13326	0.23331	-2.675	-3.7771	-2.9667	-3.4188	-3.5521	-3.0833	-3.6708	-3.2583	-3.0021	-3.7938	-3.0667	-3.1458	-3.6688	-3.0271	-3.6604	-3.3333	325.756	444.932	309.338	499.976	322.600	432.491	423.028	198.822	501.993	341.127	336.881	310.208	411.059	336.056	274.804	321.791	0.00034817	0.0003333	6.7171e-05	905.05	2.8686e-06	6.8095e-07	1013.6	199.43	4.8697e-06	1.9572e-06	257.11	72.102	55.265	16.586	1.6264e-06	23.331	0.0001039	8.8573e-05	2.5602e-05	881.96	1.0221e-06	1.0021e-06	992.13	194.52	1.0262e-06	1.0069e-06	249.82	71.636	54.413	16.477	1.0271e-06	23.419	315.991	282.014	262.224	184.328	352.841	364.501	183.975	191.627	356.464	253.438	190.938	197.911	198.475	205.611	349.153	204.955	-8191	255	
1129.291	1	1	0	0	0.28269	0.16895	0.093574	0.20315	0.058742	0.15123	0.064443	0.041182	0.24695	0.21847	0.19142	0.1119	0.26042	0.10394	0.11235	0.1948	-2.6667	-3.7958	-3.0542	-3.3896	-3.5604	-2.9042	-3.7	-3.5167	-2.7271	-3.7438	-3.0417	-3.1458	-3.5438	-2.9083	-3.4437	-3.4292	390.633	488.555	529.642	463.115	514.972	336.312	402.469	233.900	372.446	224.709	391.720	463.130	192.057	418.104	440.732	179.372	0.00040513	0.00036067	0.000126	902.12	5.5114e-07	3.6664e-06	1015.6	196.95	2.8352e-06	1.2622e-06	255.35	72.423	55.673	16.484	2.7051e-06	23.356	0.00010625	9.0896e-05	2.4708e-05	880.62	1.012e-06	1.0314e-06	991.7	194.32	1.0446e-06	1.0408e-06	249.68	71.44	54.521	16.424	9.8683e-07	23.351	309.300	230.858	253.016	184.393	378.236	281.017	183.950	191.739	359.845	315.316	191.141	198.305	198.614	205.804	297.363	204.797	-8191	255	
1129.388	1	1	0	0	0.047182	0.22955	0.12381	0.069861	0.23259	0.078873	0.12716	0.21034	0.094804	0.1082	0.061914	0.036025	0.16221	0.044811	0.087317	0.12672	-2.3458	-3.6625	-3.1104	-3.1875	-3.6917	-2.8833	-3.5458	-3.525	-2.8083	-3.6604	-3.2917	-3.0333	-3.6875	-2.9417	-3.325	-3.5333	310.787	219.547	260.658	245.212	286.184	293.979	508.817	433.578	248.182	277.907	260.084	247.423	493.570	431.236	502.956	407.659	0.00034902	0.00018114	0.00010664	905.39	5.4571e-06	3.7682e-06	1014.6	197.64	4.1637e-06	1.9886e-06	257.66	72.477	55.481	16.485	2.9635e-06	23.386	9.9888e-05	9.0288e-05	2.4852e-05	881.91	1.0181e-06	9.7125e-07	991.49	194.32	1.0173e-06	9.6722e-07	250.18	71.634	54.617	16.458	1.0097e-06	23.475	324.655	199.357	264.708	184.071	313.007	204.200	184.444	191.603	330.041	296.579	191.453	198.079	198.591	205.764	328.110	204.537	-8191	255	
1129.484	1	1	0	0	0.073542	0.22627	0.13397	0.14543	0.022527	0.27733	0.15662	0.033083	0.0654	0.11682	0.23987	0.18356	0.11649	0.073422	0.27801	0.25973	-2.475	-3.5292	-3.1521	-2.9625	-3.6083	-3.1167	-3.3333	-3.6271	-2.9917	-3.3646	-3.4104	-3.0146	-3.6937	-2.9938	-3.2833	-3.7812	450.675	244.674	280.637	200.996	292.008	518.766	458.123	464.196	277.964	425.978	516.623	264.454	491.410	264.483	268.279	234.223	0.00039848	0.00033802	4.628e-05	901.68	2.724e-06	1.9832e-06	1017.3	198.14	3.8784e-06	1.8274e-06	255.29	72.542	55.443	16.412	1.2774e-06	23.48	0.00010424	8.9239e-05	2.4314e-05	882.29	9.825e-07	9.9395e-07	992.77	194.67	1.0047e-06	9.7029e-07	249.75	71.577	54.619	16.424	9.9361e-07	23.459	313.888	278.021	205.589	184.294	332.923	319.593	184.119	191.664	335.150	399.690	191.380	197.838	198.581	205.629	240.659	204.959	-8191	255	
1129.603	1	1	0	0	0.16352	0.092742	0.36966	0.27554	0.22984	0.086286	0.017424	0.13583	0.17306	0.12607	0.24912	0.22937	0.092878	0.095333	0.18017	0.13073	-2.5042	-3.4542	-3.3812	-3.0646	-3.8042	-3.05	-3.2271	-3.7812	-2.7833	-3.3979	-3.4625	-2.8937	-3.6688	-3.3521	-2.9917	-3.65	396.667	346.794	315.972	449.500	341.645	427.379	526.583	416.454	464.383	440.682	380.300	453.081	501.518	390.846	313.054	519.957	0.00039074	5.824e-05	7.2342e-05	900.98	5.5203e-06	1.3208e-06	1015.3	198.86	3.4054e-06	1.9021e-06	258.22	72.745	55.623	16.423	2.4013e-06	23.344	0.00010471	8.9214e-05	2.3762e-05	882.51	1.0068e-06	9.4322e-07	994.76	195.27	9.791e-07	9.4655e-07	250.12	71.831	54.703	16.464	1.0022e-06	23.414	313.786	220.625	271.136	184.327	319.147	335.606	183.939	191.531	331.751	358.276	191.509	197.886	198.117	205.655	394.062	205.115	-8191	255	
1129.699	1	1	0	0	0.12472	0.21546	0.28497	0.12182	0.11521	0.29817	0.26206	0.19788	0.27515	0.081909	0.27078	0.13427	0.050375	0.13294	0.15416	0.078205	-2.5	-3.525	-3.5938	-2.9188	-3.625	-3.0708	-3.1604	-3.8	-2.8771	-3.3104	-3.5792	-2.9	-3.7938	-3.2771	-3.0563	-3.8063	335.097	481.709	489.290	192.973	207.922	513.957	445.768	195.552	382.177	303.773	487.553	497.431	302.348	344.674	191.963	274.729	0.00033632	0.0001837	9.4713e-05	904.65	4.3494e-06	2.8769e-06	1013.3	198.28	5.0738e-06	2.2037e-06	255.88	72.543	55.714	16.655	3.6274e-06	23.608	0.00010554	8.7758e-05	2.4198e-05	885.63	9.8031e-07	9.7874e-07	990.7	194.91	9.8631e-07	9.5786e-07	249.63	71.646	54.736	16.509	9.6286e-07	23.447	311.954	223.294	279.705	184.238	314.977	339.648	184.005	191.751	333.149	388.983	191.516	198.196	198.730	205.134	310.991	205.671	-8191	255	
1129.795	1	1	0	0	0.24135	0.16859	0.24933	0.21695	0.12942	0.15123	0.17852	0.076742	0.28572	0.13028	0.091723	0.16955	0.30275	0.21343	0.030559	0.1115	-2.5917	-3.2167	-3.5438	-2.9854	-3.4813	-3.2938	-3.1083	-3.9729	-2.9125	-3.175	-3.6375	-3.025	-3.4792	-3.4854	-2.9625	-3.8479	326.261	295.602	333.602	235.010	256.579	334.754	445.530	509.696	476.830	228.210	423.234	250.673	183.520	526.588	378.781	398.728	0.00039333	0.00030845	3.4758e-05	902.77	4.6139e-06	3.8282e-06	1018.3	200.1	3.5015e-06	2.7028e-06	256.07	72.413	55.944	16.484	2.4523e-06	23.453	0.00010186	8.5998e-05	2.4654e-05	882.6	1.0387e-06	9.5283e-07	994.97	195.8	9.8568e-07	9.4542e-07	249.15	71.724	54.73	16.458	9.7817e-07	23.436	307.835	234.519	298.258	184.181	323.804	388.748	184.387	191.805	305.016	324.786	191.164	198.159	198.721	206.061	327.534	204.813	-8191	255	
1129.891	1	1	0	0	0.17664	0.1555	0.077505	0.049537	0.1668	0.10285	0.077778	0.017086	0.1148	0.071671	0.047497	0.19104	0.20644	0.053907	0.067067	0.17018	-2.675	-3.1917	-3.75	-2.8542	-3.4958	-3.4521	-2.8042	-3.7083	-3.1312	-3.0812	-3.6521	-2.9062	-3.5	-3.6437	-2.8542	-3.8187	329.828	373.775	296.132	241.585	446.918	223.061	350.731	373.887	396.151	440.351	182.920	366.668	413.354	343.767	476.988	283.381	0.00034436	7.0509e-06	3.8259e-05	906.83	3.7758e-06	2.7935e-06	1010.9	199.18	3.9829e-06	3.3476e-06	256.57	72.261	55.3	16.376	4.4528e-06	23.328	0.00010131	8.7022e-05	2.4195e-05	883.03	1.0269e-06	9.9941e-07	991.15	195.11	1.0144e-06	9.8165e-07	249.19	71.689	54.349	16.418	1.0005e-06	23.342	309.826	242.901	519.244	183.980	321.959	338.118	183.910	192.150	337.393	333.396	191.160	198.290	198.461	205.899	343.275	204.867	-8191	255	
1129.987	1	1	0	0	0.049598	0.087408	0.049904	0.11845	0.20523	0.11567	0.1132	0.12041	0.19468	0.1617	0.17562	0.095585	0.1104	0.036246	0.19702	0.27347	-2.95	-2.9125	-3.6542	-2.7917	-3.2542	-3.6521	-2.9938	-3.6583	-3.2104	-2.9562	-3.8833	-3.1104	-3.3271	-3.5479	-2.8354	-3.5708	526.717	231.558	507.188	207.611	382.612	401.604	456.176	395.868	291.401	435.695	369.161	357.388	277.352	268.648	263.526	306.545	0.00036837	0.00018726	6.1908e-05	891.76	7.5124e-06	2.7437e-06	1012.2	198.05	4.1606e-06	2.8883e-06	256.77	72.247	55.247	16.422	2.2659e-06	23.272	0.00010365	8.9584e-05	2.5388e-05	876.08	1.0669e-06	9.7978e-07	987.2	193.91	1.0455e-06	1.0247e-06	249.16	71.23	54.469	16.393	1.0409e-06	23.35	314.480	268.932	290.688	183.849	280.770	338.371	184.220	191.878	344.942	372.713	191.167	198.333	198.645	206.285	299.789	204.948	-8191	255	
1130.083	1	1	0	0	0.08856	0.13376	0.081829	0.046718	0.090303	0.21721	0.34756	0.10939	0.18676	0.061662	0.082926	0.1135	0.32199	0.1643	0.26298	0.13466	-3.0042	-2.9437	-3.7146	-3.0875	-3.2125	-3.6188	-3.2458	-3.4229	-3.5208	-2.975	-3.8438	-3.2562	-3.1583	-3.5833	-2.6937	-3.4917	352.007	291.271	451.543	506.174	296.762	224.202	481.817	518.038	505.603	240.428	343.463	239.994	458.218	503.308	245.915	446.445	0.00041065	6.516e-05	2.7513e-05	890.32	3.3772e-06	1.5638e-06	1005.3	197.45	2.1302e-06	2.6544e-06	253.97	72.222	55.18	16.311	2.2326e-06	23.343	0.0001058	9.4705e-05	2.5719e-05	872.72	1.0779e-06	9.9553e-07	982.85	193.47	1.0633e-06	1.0286e-06	247.37	70.986	54.103	16.309	1.0555e-06	23.25	306.219	525.516	409.631	184.340	319.624	330.941	184.184	192.214	347.947	295.308	191.313	198.363	198.560	205.803	327.816	205.334	-8191	255	
1130.180	1	1	0	0	0.079008	0.14201	0.1748	0.098978	0.17775	0.33452	0.2392	0.24259	0.092627	0.1757	0.097894	0.094767	0.054421	0.024515	0.066763	0.18962	-3.1688	-3.0125	-3.7979	-3.1708	-3.0417	-3.8333	-3.1292	-3.2354	-3.5833	-2.8958	-3.5687	-3.4021	-3.125	-3.725	-3.0042	-3.1562	429.490	527.493	276.520	194.695	193.431	301.770	457.279	424.985	331.030	472.864	454.041	316.578	228.327	468.428	444.681	206.774	0.00040511	0.00021225	5.1837e-05	892.09	6.0082e-06	3.0662e-06	1002.6	197.06	3.828e-06	1.4611e-06	254.63	71.533	54.655	16.222	9.5158e-07	23.217	0.00010551	9.3347e-05	2.5154e-05	874.3	1.0649e-06	1.0051e-06	979.68	193.16	1.0666e-06	1.083e-06	247.5	70.661	54.075	16.207	1.0514e-06	23.191	313.562	244.217	254.802	184.264	297.561	314.752	184.023	191.927	310.200	376.912	191.334	198.058	198.748	206.244	181.168	204.813	-8191	255	
1130.300	1	1	0	0	0.105	0.14062	0.19768	0.29689	0.14271	0.15603	0.12961	0.19297	0.17949	0.32516	0.21263	0.083598	0.034192	0.063038	0.10403	0.073103	-3.2083	-2.9313	-3.6604	-3.25	-3.0187	-3.6729	-3.1604	-3.375	-3.7	-2.9062	-3.5438	-3.5083	-2.7667	-3.8438	-3.1771	-3.2396	332.408	453.553	294.754	179.518	243.187	189.659	437.285	522.702	331.904	180.430	178.396	234.459	222.034	409.580	516.355	429.404	0.00034558	0.00020518	5.6002e-05	894.47	4.5059e-06	4.9851e-06	998.49	194.62	4.3174e-07	9.96e-07	250.84	70.994	54.617	16.096	1.372e-06	23.094	0.00011048	0.00010135	2.6295e-05	871.37	1.0712e-06	1.0665e-06	978.79	191.78	1.1003e-06	1.0766e-06	244.86	70.383	53.633	16.098	1.0735e-06	23.02	313.231	231.656	212.290	184.222	266.762	315.124	184.188	192.118	345.617	346.837	191.506	198.437	198.850	205.933	318.723	205.254	-8191	255	
1130.396	1	1	0	0	0.12541	0.1999	0.067587	0.11385	0.098858	0.17646	0.30646	0.17337	0.035572	0.055154	0.069208	0.1398	0.18028	0.093399	0.2049	0.19544	-3.4	-2.8292	-3.4208	-3.4437	-2.9792	-3.6375	-3.2188	-3.3229	-3.575	-2.9333	-3.4771	-3.4604	-2.8792	-3.7271	-3.2083	-3.2333	213.257	249.643	376.140	209.146	304.900	492.563	505.141	414.917	450.247	326.402	510.824	444.966	257.483	287.862	324.052	263.719	0.00038164	0.00026717	0.00013258	887.51	2.565e-06	3.6606e-06	993.72	194.57	4.5995e-06	1.0526e-06	249.5	71.238	54.167	15.942	1.8231e-06	22.805	0.00011104	9.9459e-05	2.7084e-05	868.1	1.1179e-06	1.0619e-06	975.24	190.07	1.0807e-06	1.0755e-06	244.21	70.145	53.403	16.01	1.0821e-06	22.965	313.101	294.877	258.237	184.263	324.032	387.324	184.358	192.008	346.115	334.686	191.530	198.228	198.867	206.067	336.118	204.918	-8191	255	
1130.493	1	1	0	0	0.26471	0.25301	0.092864	0.25195	0.12254	0.12823	0.23417	0.081721	0.069574	0.043458	0.24242	0.048314	0.25967	0.21605	0.11898	0.13721	-3.4	-2.9938	-3.4521	-3.6813	-2.6458	-3.6333	-3.3396	-3.0917	-3.9062	-3.0917	-3.4	-3.6083	-2.8833	-3.3979	-3.1875	-2.9958	233.380	409.697	299.256	496.572	206.779	201.416	445.352	265.719	333.268	460.811	175.085	200.702	199.251	181.032	335.358	177.391	0.00037645	0.00025739	8.2916e-05	888.16	2.4704e-06	2.1536e-06	995.67	193.85	4.2709e-06	2.2685e-06	251.19	70.882	53.969	16.077	2.0633e-06	22.788	0.00011043	9.9056e-05	2.7466e-05	868.3	1.151e-06	1.101e-06	975.2	189.74	1.1206e-06	1.1164e-06	243.71	70.095	53.283	16.026	1.128e-06	22.813	311.202	309.644	278.392	184.326	314.160	323.993	184.190	191.784	332.109	304.227	191.822	198.751	198.475	205.629	344.185	205.129	-8191	255	
1130.587	1	1	0	0	0.2912	0.11179	0.10901	0.25135	0.38	0.15636	0.29894	0.13785	0.28298	0.10694	0.10123	0.21952	0.13052	0.22608	0.076681	0.063672	-3.2854	-3.0104	-3.2083	-3.7875	-2.7625	-3.5375	-3.5021	-2.8979	-3.75	-3.0375	-3.3333	-3.7125	-2.8896	-3.5125	-3.3396	-3.0312	401.394	474.275	239.955	195.662	341.125	224.948	478.925	464.864	301.918	358.981	432.815	303.686	320.395	228.363	466.732	396.254	0.00036718	0.00022916	9.5114e-05	886.89	2.9823e-06	2.3471e-06	998.11	191.48	4.3745e-06	2.1901e-06	250.09	70.873	54.342	16.059	2.0453e-06	22.887	0.0001115	9.9673e-05	2.8186e-05	866.42	1.1442e-06	1.1017e-06	974.62	188.81	1.1125e-06	1.063e-06	243.99	69.834	53.263	16.043	1.1411e-06	22.871	316.227	257.163	298.530	184.592	292.277	293.229	184.382	192.439	334.436	299.104	192.133	198.236	198.719	206.182	432.521	205.309	-8191	255	
1130.683	1	1	0	0	0.010131	0.084997	0.079827	0.052786	0.057041	0.012568	0.25537	0.11314	0.15855	0.16494	0.25721	0.057624	0.08767	0.12472	0.12321	0.2402	-3.4625	-2.9875	-2.9917	-3.8917	-2.8937	-3.5479	-3.6667	-2.7979	-3.7333	-3.0958	-3.0375	-3.7479	-2.9125	-3.4083	-3.5292	-2.7	265.037	189.284	516.186	257.211	528.691	369.478	476.121	472.615	383.858	263.914	314.700	198.948	349.428	191.331	180.551	318.644	0.00043475	0.00034436	5.5062e-05	884.87	3.4538e-06	3.1664e-06	989.96	192.21	2.6942e-06	9.112e-07	250.5	70.686	54.045	15.982	3.4431e-06	22.864	0.00011207	0.00010052	2.8248e-05	864.83	1.167e-06	1.1009e-06	971.84	188.61	1.08e-06	1.091e-06	243.64	69.717	53.214	15.984	1.1375e-06	22.811	314.743	266.647	282.884	184.326	269.904	348.874	184.320	192.202	333.520	253.749	191.668	198.396	198.801	206.578	304.008	204.794	-8191	255	
1130.779	1	1	0	0	0.16505	0.2652	0.26956	0.065939	0.15359	0.16647	0.050225	0.032494	0.10907	0.20853	0.057289	0.14147	0.24666	0.075348	0.11906	0.25768	-3.1437	-3.1833	-2.9667	-3.7583	-3.0208	-3.325	-3.8417	-2.9604	-3.4958	-3.4479	-2.85	-3.7729	-2.9854	-3.2646	-3.6229	-3.1979	510.927	361.121	459.005	491.588	483.202	309.329	316.643	261.044	267.911	407.779	337.218	430.559	176.643	306.486	186.290	490.745	0.000405	0.00040136	9.8189e-05	882.92	2.503e-06	1.5666e-06	994.45	192.57	1.6999e-06	1.8723e-06	250.75	70.457	53.867	15.939	1.9234e-06	22.822	0.00011327	0.0001024	2.8281e-05	864.35	1.1869e-06	1.1029e-06	972.29	188.62	1.1591e-06	1.0938e-06	243.3	69.659	53.037	16.009	1.098e-06	22.847	312.037	256.239	280.928	183.976	291.315	338.143	184.004	191.584	365.544	326.966	191.404	198.396	198.010	206.020	371.707	204.915	-8191	255	
1130.900	1	1	0	0	0.1898	0.16849	0.1356	0.085089	0.35722	0.059348	0.39792	0.1498	0.098454	0.044543	0.18297	0.24548	0.18663	0.22833	0.061966	0.15535	-2.9688	-3.4	-2.9813	-3.9375	-2.9833	-3.1833	-3.8146	-3.0312	-3.5792	-3.4688	-2.8625	-3.6312	-3.1	-3.2542	-3.6229	-2.9917	221.010	240.042	252.872	183.528	234.238	218.274	481.873	329.973	468.833	477.573	339.733	437.730	437.682	511.024	476.212	424.770	0.00036637	0.00021019	7.0588e-05	884.07	2.159e-06	4.3596e-06	995.23	191.44	3.0136e-06	1.1204e-06	249.44	70.045	53.861	15.866	2.8672e-06	22.827	0.00011664	0.0001037	2.8927e-05	863.95	1.1608e-06	1.1331e-06	974.81	188.56	1.1425e-06	1.1254e-06	242.91	69.526	53.251	15.926	1.1312e-06	22.845	304.975	305.248	263.849	184.113	362.248	347.437	184.099	191.691	332.177	316.256	191.512	198.172	198.522	206.063	349.611	205.062	-8191	255	
1130.996	1	1	0	0	0.069089	0.26511	0.23017	0.27771	0.16297	0.10874	0.21742	0.15663	0.030618	0.1727	0.066291	0.17662	0.35139	0.059616	0.22156	0.082126	-3.0625	-3.5083	-2.8937	-3.7771	-3.2938	-3.0542	-3.7938	-2.8875	-3.3812	-3.6562	-2.9417	-3.75	-3.325	-3.0458	-3.6937	-2.9437	313.499	176.456	220.788	524.324	250.392	195.787	192.901	371.819	528.709	215.519	210.812	196.849	234.183	439.850	473.762	225.708	0.00034115	0.00031158	4.0809e-05	885.2	2.1995e-06	3.1512e-06	994.15	191.84	5.5802e-06	2.2931e-06	249.07	70.724	53.98	15.963	3.4505e-06	22.818	0.00011528	0.0001034	2.9025e-05	866.95	1.1698e-06	1.1649e-06	972.43	188.23	1.1644e-06	1.1284e-06	242.95	69.85	53.143	15.986	1.1457e-06	22.85	317.072	238.047	318.821	184.058	348.254	325.485	183.936	191.574	288.665	287.902	191.767	198.085	198.402	205.998	372.917	204.758	-8191	255	
1131.092	1	1	0	0	0.099022	0.045729	0.16098	0.10974	0.24325	0.079163	0.26612	0.097585	0.19678	0.14602	0.24519	0.10008	0.16521	0.087712	0.11899	0.21234	-2.9813	-3.5687	-2.8917	-3.6667	-3.4208	-3.0708	-3.7708	-3.0958	-3.1688	-3.6521	-2.8438	-3.5917	-3.4437	-2.7875	-3.6667	-3.0625	273.195	333.636	412.200	460.450	389.268	200.264	174.152	431.449	269.420	420.113	199.945	436.832	275.256	189.938	373.424	206.079	0.00035048	0.00052738	6.6966e-05	889.91	4.8938e-06	2.5084e-06	997.58	192.68	5.3877e-06	2.3357e-06	247.86	70.795	53.773	16.085	3.4749e-06	22.868	0.00011297	0.0001049	2.9903e-05	867.75	1.1755e-06	1.1425e-06	975.46	188.68	1.1683e-06	1.129e-06	243.02	69.963	53.004	16.033	1.155e-06	22.88	314.220	256.605	286.039	184.038	326.592	341.957	183.746	191.597	313.095	301.970	190.833	198.218	198.650	206.098	317.064	205.294	-8191	255	
1131.164	1	1	0	0	0.17617	0.093682	0.13328	0.26606	0.025298	0.070986	0.42806	0.21294	0.075564	0.26673	0.099231	0.10917	0.052446	0.13348	0.015552	0.08169	-2.8563	-3.7812	-2.825	-3.5708	-3.3438	-2.9583	-3.8354	-3.1708	-3.05	-3.8042	-2.9021	-3.3896	-3.4292	-2.9021	-3.6896	-3.4042	321.245	259.382	179.973	502.895	520.608	453.482	477.486	200.872	444.379	404.792	178.914	199.318	492.505	241.057	439.379	500.104	0.00038138	0.00030818	4.9973e-05	889.41	3.4288e-06	9.897e-07	995.78	192.6	1.8588e-06	1.7834e-07	248.18	70.525	53.658	15.957	1.3245e-06	22.943	0.00011741	0.00010405	2.961e-05	866.93	1.1609e-06	1.1484e-06	974.44	188.64	1.1805e-06	1.1138e-06	242.35	69.805	53.01	15.956	1.147e-06	22.879	310.661	260.295	423.644	184.150	324.271	373.053	184.121	191.643	285.114	477.081	191.399	198.084	198.433	206.496	291.313	205.261	-8191	255	
1131.284	1	1	0	0	0.15228	0.14574	0.22445	0.1723	0.12427	0.040691	0.16816	0.25846	0.15471	0.022669	0.13259	0.16614	0.19512	0.14534	0.072674	0.29516	-2.7729	-3.8833	-2.9146	-3.6104	-3.8521	-2.7958	-3.8542	-3.4979	-2.9542	-3.8354	-2.8979	-3.2	-3.7042	-2.8521	-3.6271	-3.3937	442.659	399.742	455.000	510.127	505.071	371.336	427.938	507.104	444.059	511.281	393.343	502.108	386.857	252.960	504.777	463.715	0.00038132	0.00038769	0.00011047	885.26	3.2301e-06	3.5215e-06	998.09	191.22	5.9728e-06	2.2768e-06	249.35	70.764	53.917	15.965	1.1846e-06	23.036	0.00011785	0.00010319	2.8307e-05	866.65	1.1291e-06	1.1568e-06	975.66	188.39	1.175e-06	1.1342e-06	242.68	69.851	53.199	16.011	1.1493e-06	22.931	308.712	307.836	266.255	183.967	276.037	318.141	183.794	191.907	337.688	312.359	190.765	198.085	198.359	205.961	281.046	204.476	-8191	255	
1131.381	1	1	0	0	0.17115	0.15243	0.19605	0.26256	0.12211	0.10742	0.32202	0.1684	0.080067	0.31795	0.21768	0.029118	0.16923	0.12313	0.2264	0.14512	-2.5812	-3.5187	-3.1875	-3.2479	-3.6625	-2.9583	-3.5917	-3.5375	-3.0771	-3.7833	-3.1333	-3.0792	-3.925	-2.9542	-3.4167	-3.5812	483.051	451.718	457.046	510.137	275.831	471.189	474.915	450.389	487.645	438.065	204.973	410.641	194.985	349.619	314.445	418.802	0.00039545	0.00023169	8.8106e-05	894.79	5.1052e-06	3.3952e-06	998.25	191.17	4.0781e-06	2.643e-06	248.34	70.797	53.735	15.886	2.3336e-06	22.908	0.00011861	0.00010096	2.9536e-05	872.29	1.1763e-06	1.1157e-06	977.38	188.59	1.1719e-06	1.1379e-06	242.45	69.761	53.232	15.975	1.1334e-06	22.953	310.541	243.026	327.905	184.048	285.268	319.364	183.979	191.462	321.533	325.711	190.835	197.957	198.106	205.658	344.901	204.944	-8191	255	
1131.477	1	1	0	0	0.12711	0.035901	0.053206	0.26201	0.14128	0.089471	0.28027	0.11697	0.21073	0.039288	0.13838	0.16077	0.20241	0.070182	0.23449	0.24244	-2.3625	-3.6042	-3.1312	-3.2417	-3.7979	-2.9729	-3.6229	-3.6167	-2.8042	-3.6229	-3.1479	-3.0062	-3.6458	-3	-3.2333	-3.7146	220.681	253.589	227.557	504.401	448.375	437.971	460.418	520.680	175.913	457.104	279.011	307.280	198.177	242.940	519.668	415.395	0.00038006	0.00011899	9.7395e-05	886.9	2.8285e-06	2.6192e-06	998.96	192.27	2.9175e-06	2.7703e-06	250.32	71.103	54.056	15.941	2.1737e-06	22.959	0.00011608	0.00010141	2.8649e-05	869.28	1.1666e-06	1.1462e-06	978.53	188.76	1.194e-06	1.1277e-06	243.65	70.139	53.278	15.997	1.1634e-06	22.973	318.014	196.323	387.825	183.879	317.703	350.807	183.817	191.553	406.970	279.048	190.996	198.101	198.468	205.883	323.733	204.589	-8191	255	
1131.573	1	1	0	0	0.069511	0.10499	0.11361	0.27397	0.11219	0.16932	0.44132	0.16991	0.22186	0.082774	0.094377	0.08259	0.055641	0.14205	0.18016	0.13462	-2.3667	-3.7125	-3.1229	-3.0438	-3.6688	-3.0417	-3.4354	-3.4854	-2.7729	-3.5917	-3.3417	-3.0062	-3.8063	-3.0958	-3.0979	-3.8083	204.514	326.808	274.431	516.285	329.340	514.966	489.506	485.217	316.996	515.950	481.360	299.987	448.740	435.825	420.354	208.248	0.00038244	0.00021162	6.9198e-05	887.68	4.1341e-06	1.9136e-06	997.03	191.85	2.9326e-06	1.7135e-06	252.46	69.604	53.795	15.935	2.0048e-06	22.882	0.00011427	0.00010103	2.8543e-05	868.51	1.156e-06	1.1239e-06	978.08	188.28	1.1551e-06	1.1143e-06	243.87	69.415	53.194	15.986	1.1415e-06	22.912	306.246	309.525	213.970	184.107	307.361	343.826	184.038	191.286	346.058	380.801	191.290	197.928	198.362	205.760	365.657	204.990	-8191	255	
1131.692	1	1	0	0	0.15369	0.16883	0.16	0.46241	0.15212	0.1895	0.33295	0.017633	0.20388	0.047409	0.12033	0.051006	0.040434	0.036128	0.084693	0.29152	-2.4354	-3.4021	-3.5354	-2.9938	-3.6208	-3.1583	-3.2354	-3.6875	-3.0771	-3.5146	-3.7062	-2.9729	-3.6646	-3.2917	-3.2917	-3.8542	392.850	453.851	497.539	428.076	292.048	174.452	503.922	327.873	268.331	429.810	506.066	483.574	355.470	507.368	272.276	304.425	0.0003966	0.00026233	0.00010466	891.4	3.4361e-06	1.8031e-06	1000.3	189.87	1.938e-06	2.8608e-06	249.24	70.35	54.172	16.029	3.3688e-06	22.658	0.00011578	0.00010185	2.8399e-05	869.37	1.1189e-06	1.1338e-06	977.88	187.72	1.1265e-06	1.1056e-06	242.8	69.824	53.185	16.008	1.1443e-06	22.818	314.902	245.568	318.451	183.832	347.961	321.790	183.925	191.457	381.514	365.504	191.303	198.338	197.976	205.719	355.338	205.149	-8191	255	
1131.763	1	1	0	0	0.18534	0.17427	0.21276	0.30468	0.36704	0.03869	0.15523	0.15318	0.15482	0.062841	0.043519	0.19189	0.052858	0.12299	0.24456	0.21897	-2.4292	-3.3167	-3.5896	-2.8708	-3.7521	-3.075	-3.1375	-3.7417	-2.7812	-3.4813	-3.675	-2.9667	-3.5667	-3.2083	-3.1083	-3.7938	304.100	195.243	229.933	494.433	486.565	490.710	512.516	524.401	430.592	312.377	299.676	468.133	299.881	464.792	180.530	491.370	0.00035359	0.00034616	0.00010123	886.95	6.0653e-06	2.5255e-06	998.95	191.61	4.2264e-06	3.8866e-06	248.11	69.855	54.203	15.749	2.9792e-06	22.675	0.00011516	0.00010054	2.8298e-05	870.65	1.1163e-06	1.1234e-06	979.27	188.73	1.1453e-06	1.1175e-06	243.48	69.588	53.166	15.917	1.127e-06	22.838	317.632	295.073	298.605	183.815	302.147	233.427	183.861	191.480	361.760	316.108	191.386	197.807	198.332	205.699	316.764	205.095	-8191	255	
1131.861	1	1	0	0	0.054427	0.089777	0.16439	0.024435	0.31849	0.11246	0.2957	0.21407	0.26543	0.081832	0.049005	0.075259	0.16213	0.26563	0.084623	0.008044	-2.5833	-3.3438	-3.4833	-2.9375	-3.4292	-3.3604	-3.0958	-3.85	-3.1479	-3.2646	-3.5458	-3.0625	-3.5042	-3.2375	-2.9688	-3.6958	392.088	486.905	497.570	469.447	187.472	285.166	445.753	389.905	311.811	190.657	431.200	243.234	176.827	451.553	225.420	494.613	0.00039552	0.00030853	6.3646e-05	891.79	1.7124e-06	3.0091e-06	1002.2	191.36	5.3138e-06	2.7557e-06	248.99	70.379	53.295	15.919	1.5845e-06	22.798	0.00011663	0.00010279	2.873e-05	870.8	1.1826e-06	1.1369e-06	979.1	188.23	1.188e-06	1.1534e-06	242.07	69.521	53.008	15.949	1.1588e-06	22.901	310.138	302.032	300.964	183.630	221.004	330.358	183.645	191.209	295.843	353.537	190.547	197.964	198.259	205.427	307.443	205.187	-8191	255	
1131.980	1	1	0	0	0.10157	0.27718	0.23434	0.24347	0.19574	0.12796	0.16388	0.04157	0.18405	0.025008	0.19253	0.25911	0.090989	0.27776	0.18157	0.083887	-2.7458	-3.1104	-3.5396	-2.9458	-3.3083	-3.45	-2.9917	-3.75	-3.1479	-3.0708	-3.8563	-3.1167	-3.4625	-3.3833	-2.7521	-3.5563	317.222	306.398	332.757	459.071	265.073	185.105	209.713	369.110	221.353	388.674	459.883	399.002	493.097	449.063	351.142	484.333	0.00038238	0.00022056	7.713e-05	890.42	3.1683e-06	2.6022e-06	996.45	190.52	4.5226e-06	3.7128e-06	248.51	69.728	53.703	15.97	3.3264e-06	22.895	0.00011385	0.00010082	2.7763e-05	869.3	1.1761e-06	1.1231e-06	976.97	188.15	1.1456e-06	1.1378e-06	242.78	69.669	52.887	15.958	1.1846e-06	22.888	315.076	192.659	298.375	183.839	312.240	316.031	183.915	191.803	383.203	329.993	190.858	198.100	198.153	206.154	328.577	204.297	-8191	255	
1132.076	1	1	0	0	0.0081347	0.13585	0.05984	0.042798	0.089749	0.17218	0.10269	0.073639	0.11677	0.28631	0.1899	0.10213	0.048814	0.29459	0.051605	0.11724	-2.9625	-2.9875	-3.6917	-2.9542	-3.3542	-3.6375	-3.0625	-3.7354	-3.2771	-2.9979	-3.6875	-3.0062	-3.4229	-3.6937	-2.9104	-3.5396	513.442	323.685	397.094	418.040	232.346	326.631	509.225	415.781	209.195	279.836	453.142	532.655	466.466	201.104	378.781	451.445	0.00033363	0.00023428	1.2225e-05	889.89	5.6699e-06	3.5645e-06	995.58	192.42	2.551e-06	5.1114e-07	249	70.31	54.113	15.925	2.9311e-06	23.091	0.00011917	0.00010439	2.8881e-05	869.85	1.1358e-06	1.1438e-06	976.99	188.34	1.154e-06	1.123e-06	242.94	69.689	53.284	16.001	1.1402e-06	22.947	305.985	285.302	269.858	183.638	292.060	357.719	183.810	191.474	278.390	268.750	190.826	197.549	198.366	205.109	271.642	204.272	-8191	255	
1132.173	1	1	0	0	0.18834	0.082273	0.18935	0.029749	0.19012	0.15677	0.13177	0.1712	0.038763	0.15294	0.040499	0.25828	0.2995	0.19493	0.14969	0.18698	-2.9646	-2.9667	-3.6854	-3.275	-3.2562	-3.6	-3.0896	-3.7146	-3.4688	-2.8521	-3.7812	-3.1771	-3.2417	-3.7354	-2.8604	-3.5917	291.186	334.610	227.802	209.490	288.038	484.806	451.196	275.379	391.362	177.025	501.547	465.329	475.062	181.303	305.148	530.360	0.0003542	0.00028816	3.2386e-05	887.96	3.5497e-06	4.807e-06	998.95	192.25	3.4693e-06	1.434e-06	250.02	70.934	54.258	15.994	2.7615e-06	23.04	0.00011799	0.00010175	2.8657e-05	870.74	1.1576e-06	1.0976e-06	978.4	188.58	1.149e-06	1.0956e-06	242.55	69.829	53.276	16.01	1.1812e-06	23.046	314.151	322.167	340.713	183.643	347.664	258.743	183.689	191.463	308.684	246.570	190.940	197.969	198.164	205.611	408.580	204.906	-8191	255	
1132.293	1	1	0	0	0.079721	0.059324	0.17532	0.020002	0.096618	0.14646	0.15978	0.13866	0.071558	0.1917	0.14509	0.13285	0.33261	0.12884	0.17413	0.13214	-3.25	-2.9417	-3.6354	-3.1542	-3.1354	-3.7938	-3.0021	-3.3979	-3.4854	-2.8958	-3.6521	-3.3479	-3.1292	-3.7125	-2.8875	-3.4125	381.004	248.116	251.276	199.888	261.015	333.686	525.130	471.422	509.940	446.653	223.205	501.156	460.789	431.922	308.423	501.121	0.00041071	0.00026417	6.1666e-05	885.99	4.6754e-06	2.9756e-06	995.72	191.54	3.205e-06	7.021e-07	248.69	70.124	54.169	15.836	3.1689e-06	22.916	0.00011639	0.00010469	2.9223e-05	869.38	1.1591e-06	1.1047e-06	977.46	188.36	1.1355e-06	1.1204e-06	242.81	69.706	53.354	15.97	1.0998e-06	22.912	313.037	228.065	248.115	183.800	292.979	334.565	183.678	191.694	341.971	449.202	191.241	197.929	198.431	206.217	400.443	205.167	-8191	255	
1132.388	1	1	0	0	0.10423	0.14507	0.16994	0.18406	0.044842	0.1013	0.16186	0.14123	0.059996	0.15439	0.13078	0.09371	0.31649	0.20662	0.24164	0.10494	-3.2687	-2.9833	-3.6833	-3.3458	-2.9188	-3.9042	-3.2375	-3.5	-3.5583	-2.9458	-3.675	-3.4917	-2.9562	-3.7729	-2.9917	-3.0625	477.492	354.595	364.491	475.657	319.674	292.460	449.241	454.244	255.505	523.023	182.847	520.466	326.280	401.913	477.353	407.168	0.00032445	2.8774e-05	6.0974e-05	890.63	1.449e-06	3.5518e-06	996.66	192.66	2.1839e-06	1.1479e-06	250.25	70.605	53.764	15.865	1.7698e-06	22.827	0.00011587	0.00010531	2.8638e-05	871.06	1.1716e-06	1.1094e-06	978.56	188.73	1.1173e-06	1.1222e-06	242.47	69.789	53.185	16.005	1.1369e-06	22.942	313.896	199.580	327.317	183.675	331.689	309.509	183.768	191.707	300.001	449.349	191.087	197.686	198.028	205.790	283.118	204.953	-8191	255	
1132.461	1	1	0	0	0.15971	0.25179	0.1244	0.064699	0.1531	0.072785	0.15251	0.30638	0.10088	0.1744	0.18698	0.0897	0.24633	0.14892	0.18389	0.21191	-3.3333	-2.825	-3.2708	-3.5667	-2.7896	-3.6646	-3.0687	-2.8667	-3.8458	-2.8354	-3.5187	-3.6292	-3.0062	-3.6333	-3.0917	-3	412.924	310.777	255.964	388.452	488.118	299.763	352.661	174.896	404.907	275.790	493.835	471.242	448.774	294.973	363.821	431.014	0.00034383	0.00032457	8.5519e-05	891.32	4.863e-06	1.1373e-06	1000	192.44	2.5484e-06	1.1887e-06	250.02	70.616	53.815	15.987	2.7482e-06	22.765	0.00011391	0.00010326	2.8641e-05	871.27	1.1612e-06	1.139e-06	978.23	188.34	1.1255e-06	1.1587e-06	243.31	69.709	53.031	16.028	1.1449e-06	22.918	309.764	284.879	255.379	184.040	324.830	366.964	183.759	191.458	357.707	363.862	191.038	197.993	198.448	205.766	343.804	204.901	-8191	255	
1132.582	1	1	0	0	0.21208	0.31219	0.22546	0.13	0.1589	0.21195	0.10553	0.35889	0.077469	0.095992	0.09507	0.082434	0.089715	0.066444	0.23358	0.15696	-3.4708	-2.9625	-3.2562	-3.5812	-2.8937	-3.6354	-3.4667	-2.9708	-3.6979	-2.8479	-3.2875	-3.6667	-2.9979	-3.6937	-3.375	-2.875	375.056	377.591	189.159	481.394	266.362	374.570	249.460	489.259	516.372	315.413	486.241	237.552	464.972	301.737	460.578	336.453	0.00040508	0.00040866	3.1251e-05	889.95	5.1179e-06	1.7081e-06	995.59	191.75	2.614e-06	2.3125e-06	251.62	71.24	53.994	16.218	1.9663e-06	22.909	0.00011497	0.0001004	2.7634e-05	870.58	1.1235e-06	1.0735e-06	979.34	188.59	1.1433e-06	1.1274e-06	244.27	70.084	53.272	16.07	1.1399e-06	22.958	314.752	267.824	343.339	183.816	335.964	332.136	183.809	191.542	348.840	358.351	191.025	197.824	198.281	206.061	347.425	205.251	-8191	255	
1132.676	1	1	0	0	0.072912	0.080178	0.24814	0.022643	0.089536	0.1393	0.23553	0.11432	0.18003	0.094263	0.16488	0.026689	0.29432	0.17237	0.23821	0.085782	-3.2958	-2.8229	-3.2438	-3.6875	-2.8729	-3.5604	-3.4479	-3.0146	-3.8146	-3.1771	-3.0583	-3.8146	-2.8729	-3.5062	-3.4875	-2.9979	323.979	422.788	278.828	388.861	530.772	368.634	485.836	499.764	505.798	494.419	261.851	240.163	237.873	301.698	452.608	438.041	0.00035512	0.00023226	8.5221e-05	891.25	3.8501e-06	3.0438e-06	1002.6	192.57	9.7167e-07	9.3128e-07	249.54	71.11	53.913	15.942	1.8102e-06	22.938	0.00011393	0.00010119	2.7621e-05	873.01	1.1365e-06	1.1002e-06	981.42	188.78	1.1311e-06	1.1022e-06	243.08	70.107	53.289	16.002	1.114e-06	23.001	318.040	309.164	321.328	183.948	250.871	281.768	183.613	191.855	361.635	292.897	191.147	197.901	198.412	205.846	392.481	204.679	-8191	255	
1132.772	1	1	0	0	0.23731	0.21643	0.19145	0.27153	0.20406	0.026819	0.13305	0.23823	0.11949	0.19583	0.2085	0.25392	0.10511	0.035073	0.072704	0.10205	-3.1896	-3.2438	-3.1875	-3.7771	-2.8271	-3.5229	-3.7729	-3.0375	-3.6833	-3.2292	-3.1042	-3.775	-3.0667	-3.3438	-3.4229	-3.0396	325.792	458.165	195.162	500.737	505.275	417.182	404.169	355.779	456.299	301.987	489.991	480.824	279.502	399.087	247.504	350.880	0.00037621	0.00015847	0.00010001	894.91	3.4831e-06	1.8166e-06	1001.7	192.24	3.0594e-06	1.2833e-06	249.38	70.67	53.672	15.974	3.5713e-06	22.753	0.00011481	9.9882e-05	2.8019e-05	873	1.1397e-06	1.1063e-06	980.65	188.85	1.1484e-06	1.077e-06	242.74	69.806	53.13	16.032	1.1118e-06	22.944	305.706	275.554	314.844	183.744	296.262	358.204	183.903	191.621	355.817	377.081	191.431	197.955	198.715	205.773	391.891	204.548	-8191	255	
1132.868	1	1	0	0	0.19185	0.15052	0.22814	0.16591	0.070165	0.062725	0.045757	0.25307	0.2222	0.18174	0.01909	0.11844	0.12146	0.32753	0.16703	0.078391	-3.1625	-2.9792	-2.8896	-3.8208	-2.9729	-3.2917	-3.8312	-3.0187	-3.5021	-3.2604	-2.8729	-3.7687	-3.1792	-3.2104	-3.5167	-2.9729	207.253	339.159	394.750	514.721	276.952	375.266	321.404	493.960	458.544	317.823	386.313	212.779	409.682	179.331	177.767	314.930	0.00033525	0.0002436	5.9381e-05	892.37	5.32e-06	2.6007e-06	1003.2	191.29	4.0395e-06	1.2139e-06	252.2	71.216	53.488	16.043	2.4265e-06	22.931	0.00011417	0.00010252	2.8027e-05	871.75	1.0925e-06	1.1114e-06	980.44	188.88	1.1344e-06	1.0733e-06	244.23	70.093	53.299	16.049	1.0771e-06	22.999	315.693	253.182	246.339	183.990	274.360	262.036	183.871	191.490	353.286	281.336	190.812	197.754	197.963	205.898	392.970	204.674	-8191	255	
1132.989	1	1	0	0	0.15548	0.056416	0.17058	0.046991	0.12816	0.34662	0.1791	0.21024	0.12815	0.064979	0.11457	0.087129	0.21507	0.16861	0.089505	0.27962	-3.225	-3.3563	-2.8937	-3.6708	-3.1104	-3.1125	-3.8646	-2.8458	-3.4313	-3.5125	-2.9104	-3.5979	-2.9896	-2.9521	-3.7313	-2.825	288.818	232.199	211.505	377.456	192.346	224.837	523.948	416.111	377.755	282.871	205.263	479.078	465.325	193.711	173.995	473.705	0.00031115	0.00015633	7.9438e-05	895.8	1.7047e-06	2.9332e-06	1004.8	192.63	2.5113e-06	2.6824e-06	251.26	70.723	53.987	16.125	3.3111e-06	23.306	0.00011151	0.00010026	2.7376e-05	874.05	1.1179e-06	1.1445e-06	983.33	189.09	1.1108e-06	1.0699e-06	243.63	70.093	53.406	16.137	1.0996e-06	23.127	306.078	353.407	293.951	183.909	310.726	269.456	183.691	191.444	305.716	263.794	191.082	197.829	198.524	205.878	335.025	204.858	-8191	255	
1133.061	1	1	0	0	0.15515	0.13814	0.11767	0.25029	0.075899	0.11605	0.12758	0.051467	0.10333	0.14423	0.23155	0.05657	0.13841	0.20172	0.13973	0.24905	-2.975	-3.375	-2.6521	-3.8292	-3.1417	-3.0583	-3.7771	-2.9833	-3.3271	-3.3625	-3.0604	-3.7604	-3.2521	-2.9562	-3.7333	-3.0646	203.011	434.053	367.404	493.020	311.923	357.406	190.932	338.110	412.628	473.077	246.780	255.002	228.841	301.334	316.652	420.750	0.00036716	0.00024536	4.5705e-05	893.08	1.0705e-06	2.9988e-06	1007.6	192.46	2.9264e-06	5.2182e-07	249.9	70.412	53.981	16.093	2.2043e-06	22.931	0.00011339	9.9566e-05	2.7892e-05	875.04	1.1519e-06	1.1317e-06	984.9	189.06	1.1425e-06	1.0933e-06	243.91	70.198	53.303	16.122	1.0655e-06	22.995	310.770	237.387	300.443	184.013	344.870	290.870	183.964	191.690	317.589	202.838	191.607	198.048	198.481	205.993	319.885	204.552	-8191	255	
1133.157	1	1	0	0	0.039194	0.045019	0.22124	0.20453	0.21455	0.2778	0.06395	0.11207	0.060492	0.18842	0.23943	0.020651	0.22163	0.25192	0.033736	0.17222	-2.9	-3.4083	-2.6479	-3.6667	-3.4021	-3.0042	-3.8604	-3.05	-3.0917	-3.7604	-2.9938	-3.6188	-3.2708	-2.8708	-3.6042	-3.0042	294.670	463.543	504.767	411.925	207.121	261.794	426.238	350.766	260.298	375.919	214.718	444.112	381.758	196.497	443.417	329.665	0.00037613	0.00016593	1.9208e-05	898.47	1.4047e-06	3.1457e-06	1007.2	191.27	2.415e-06	3.2598e-07	249.54	71.373	53.64	16.175	3.2495e-06	22.81	0.00011008	9.9035e-05	2.842e-05	876.29	1.1314e-06	1.0851e-06	984.66	188.64	1.1242e-06	1.0793e-06	243.14	70.351	53.383	16.119	1.0645e-06	22.956	316.142	259.686	307.616	183.917	285.212	327.814	184.003	191.582	305.092	457.507	191.097	198.114	198.177	205.855	366.745	204.764	-8191	255	
1133.253	1	1	0	0	0.13793	0.1496	0.16401	0.26525	0.10052	0.076243	0.21735	0.23549	0.12811	0.13284	0.1815	0.064335	0.1201	0.10589	0.14876	0.065644	-2.6646	-3.6208	-2.8688	-3.5521	-3.3875	-2.9146	-3.8	-3.0917	-3.1562	-3.9	-2.9854	-3.5375	-3.5021	-2.9917	-3.6083	-3.4062	353.865	522.244	420.357	482.693	451.977	245.210	509.363	482.889	175.255	510.965	324.248	274.796	446.255	521.490	388.042	418.771	0.00033932	0.00020158	7.6503e-05	902.1	1.4561e-06	2.4725e-06	1003.8	191.88	2.8454e-06	1.273e-06	247.75	71.048	53.948	16.164	4.5752e-06	23.208	0.00011139	9.7168e-05	2.7668e-05	878.58	1.0948e-06	1.0963e-06	983.06	188.94	1.0879e-06	1.0586e-06	243.01	70.157	53.34	16.111	1.0629e-06	23.071	312.087	297.535	247.669	183.907	390.679	383.043	183.964	191.441	327.298	524.685	191.133	198.042	198.130	205.639	282.834	205.048	-8191	255	
1133.374	1	1	0	0	0.31502	0.2554	0.28217	0.085528	0.154	0.19973	0.17784	0.13668	0.14633	0.0993	0.16532	0.18036	0.10919	0.32046	0.12899	0.17096	-2.5271	-3.7188	-2.9104	-3.3646	-3.4333	-2.8542	-3.6958	-3.2229	-2.9188	-3.9792	-2.75	-3.2313	-3.6208	-2.8646	-3.6813	-3.4083	197.617	322.326	410.149	532.467	242.446	314.883	481.988	452.099	264.498	506.022	372.293	217.332	176.112	473.680	327.606	296.699	0.00039114	0.00013079	7.4963e-06	896.81	3.8959e-06	2.3552e-06	1003.5	192.41	3.0434e-06	2.2174e-06	251.57	70.477	54.217	16.15	2.2062e-06	23.012	0.00011168	9.6929e-05	2.7549e-05	876.33	1.0871e-06	1.0716e-06	983.58	189.06	1.1267e-06	1.1137e-06	244.19	70.111	53.44	16.151	1.0988e-06	23.076	320.753	363.729	395.370	184.088	328.182	326.806	184.021	191.646	283.291	320.731	191.378	198.548	198.588	206.289	352.897	205.102	-8191	255	
1133.470	1	1	0	0	0.15825	0.088326	0.14166	0.26675	0.13071	0.21946	0.092295	0.1868	0.32736	0.11409	0.11786	0.17948	0.035971	0.21349	0.14541	0.14914	-2.6437	-3.7208	-3.025	-3.2979	-3.6125	-2.9125	-3.5646	-3.4813	-3.0729	-3.775	-3.1292	-3.0687	-3.8229	-3.1229	-3.6063	-3.6208	210.549	323.115	443.047	245.661	210.836	348.214	444.626	401.415	225.864	244.199	211.356	235.050	475.629	363.981	260.187	401.886	0.00037124	0.00021019	6.7329e-05	897.02	5.1677e-06	3.0731e-06	1010.1	193.2	4.1492e-06	2.0663e-06	249.8	70.844	54.222	16.111	3.9777e-06	23.168	0.00011026	9.6407e-05	2.7517e-05	876.92	1.1158e-06	1.079e-06	986.21	189.44	1.1081e-06	1.0583e-06	243.38	70.354	53.462	16.14	1.0883e-06	23.09	318.092	289.565	301.865	184.409	329.759	296.624	184.196	191.999	361.325	410.091	191.225	198.337	198.581	206.266	300.564	205.054	-8191	255	
1133.564	1	1	0	0	0.073496	0.19251	0.13298	0.23391	0.057666	0.19549	0.15187	0.065607	0.019455	0.14932	0.14733	0.080227	0.23686	0.22164	0.2662	0.012351	-2.4875	-3.6479	-3.2125	-3.075	-3.6479	-3.0187	-3.6333	-3.55	-2.7938	-3.7417	-3.2417	-3.1229	-3.7958	-2.8625	-3.4167	-3.6792	251.112	253.728	282.283	200.987	188.284	325.091	333.298	515.928	413.386	320.388	471.708	229.451	316.445	335.950	531.613	343.713	0.00040503	0.0001101	5.094e-05	902.3	4.4423e-06	4.2786e-06	1004.6	192.06	4.8644e-06	1.1187e-06	249.34	71.223	54.232	16.161	3.9672e-06	22.984	0.00010929	9.5729e-05	2.7762e-05	879.33	1.0853e-06	1.0843e-06	985.56	189.18	1.0729e-06	1.0078e-06	243.29	70.363	53.454	16.138	1.0741e-06	23.064	310.263	238.683	238.245	184.076	307.544	281.385	184.078	191.842	308.406	257.170	191.344	198.609	198.473	205.939	352.573	204.692	-8191	255	
1133.662	1	1	0	0	0.12851	0.11858	0.063336	0.077972	0.13985	0.099805	0.33954	0.095507	0.19701	0.099588	0.11446	0.22783	0.19445	0.090446	0.11947	0.052301	-2.5625	-3.7667	-3.4292	-3.2646	-3.7854	-3.0625	-3.5854	-3.7479	-2.9583	-3.6771	-3.4896	-2.8708	-3.575	-2.9813	-3.0854	-3.6854	453.513	312.537	519.006	425.902	352.838	186.785	451.229	433.516	197.319	263.506	497.812	524.246	372.170	429.564	397.742	288.725	0.00036236	0.00028414	9.8588e-05	901.02	6.3125e-06	1.2484e-06	1007.9	192.37	5.325e-06	1.8488e-06	249.09	70.839	53.971	16.016	9.7422e-07	22.978	0.00011231	9.952e-05	2.6638e-05	877.73	1.117e-06	1.0493e-06	984.63	188.89	1.0717e-06	1.061e-06	244.65	70.275	53.391	16.088	1.0971e-06	23.01	320.179	254.977	245.996	184.487	307.235	317.824	184.119	191.865	351.458	343.988	191.253	198.422	198.493	205.998	272.354	205.264	-8191	255	
1133.756	1	1	0	0	0.16401	0.16444	0.051735	0.18877	0.12419	0.046541	0.15476	0.17312	0.12966	0.12272	0.21181	0.24224	0.027269	0.20209	0.055411	0.19357	-2.4062	-3.4542	-3.5396	-3.0271	-3.6479	-3.2208	-3.3063	-3.7125	-2.9375	-3.4458	-3.4958	-2.8708	-3.725	-3.1333	-2.7292	-3.6333	239.362	443.553	505.303	498.808	267.562	498.037	398.875	336.813	449.437	291.287	496.317	424.321	504.102	497.135	309.200	280.546	0.00035762	0.00043812	8.4803e-05	897.08	4.204e-06	1.937e-06	1002	192.6	4.8608e-06	9.8779e-07	250.9	70.957	54.061	16.249	2.3174e-06	22.914	0.00011113	9.8949e-05	2.7925e-05	877.33	1.0759e-06	1.0467e-06	984.59	189.45	1.142e-06	1.0663e-06	243.68	70.277	53.743	16.177	1.0562e-06	23.011	314.029	225.445	231.809	184.044	332.414	295.512	184.171	191.672	349.846	267.588	191.274	198.356	199.109	206.223	361.633	205.266	-8191	255	
1133.853	1	1	0	0	0.079413	0.18151	0.1226	0.37289	0.093579	0.23616	0.4061	0.08477	0.24347	0.18618	0.25412	0.067619	0.094942	0.13373	0.058665	0.18639	-2.5292	-3.3292	-3.4292	-2.9313	-3.6458	-3.2958	-3.1208	-3.7146	-3.1854	-3.2771	-3.6104	-2.9583	-3.6625	-3.3	-3.0438	-3.8021	324.458	391.381	274.654	513.786	364.092	452.177	481.587	470.220	264.090	372.272	402.719	444.635	393.100	247.401	257.540	311.292	0.00038581	0.00021272	2.7568e-05	897.77	3.1033e-06	3.9617e-06	1010.4	193.18	4.2036e-06	1.1994e-07	249.98	71.093	53.852	16.097	3.6454e-06	23.173	0.00010907	9.6239e-05	2.6983e-05	878.33	1.0784e-06	1.0501e-06	988.2	189.45	1.0814e-06	1.0597e-06	244.53	70.335	53.538	16.117	1.0861e-06	23.18	311.789	200.376	222.360	184.164	343.299	351.928	184.316	191.685	285.096	449.952	191.617	198.304	198.597	206.355	260.710	205.628	-8191	255	
1133.973	1	1	0	0	0.090515	0.19682	0.12336	0.1553	0.32669	0.092801	0.27038	0.17563	0.23372	0.10945	0.22137	0.024766	0.16099	0.14148	0.12279	0.086266	-2.5854	-3.2188	-3.5563	-2.8063	-3.4604	-3.4729	-3.0917	-3.7604	-3.1292	-3.2708	-3.6583	-2.8229	-3.5958	-3.4896	-2.8396	-3.625	291.217	420.921	347.283	521.449	377.675	305.743	493.330	273.113	462.627	273.962	469.343	268.351	326.370	210.493	305.466	405.728	0.00036064	9.9796e-05	0.00011235	906.71	8.937e-07	7.5527e-06	1008.5	193.69	3.583e-06	1.103e-06	250.76	70.746	54.187	16.096	3.4026e-06	23.065	0.00010975	9.5581e-05	2.6844e-05	881.71	1.1162e-06	1.0638e-06	989.76	189.69	1.1124e-06	1.0626e-06	244.08	70.143	53.589	16.131	1.1011e-06	23.121	314.510	295.992	293.982	184.267	305.390	315.217	184.372	191.866	301.366	183.990	191.705	198.583	198.604	205.541	295.293	205.781	-8191	255	
1134.069	1	1	0	0	0.15407	0.2478	0.2174	0.12955	0.1804	0.24746	0.19836	0.15928	0.18872	0.05908	0.22205	0.21505	0.097125	0.06158	0.22828	0.090722	-2.5958	-2.9917	-3.7625	-2.9042	-3.5042	-3.5104	-2.8708	-3.8146	-3.25	-2.9958	-3.6958	-3.0104	-3.4562	-3.4792	-2.7229	-3.6604	363.668	449.559	526.254	324.205	401.450	311.397	469.277	434.704	366.525	431.569	409.970	364.338	206.144	416.834	451.662	489.621	0.00038925	0.00014676	5.2738e-05	901.85	1.2102e-06	2.5032e-06	1012.3	191.63	2.1331e-06	2.6062e-06	251.64	71.367	54.698	16.142	2.3564e-06	23.187	0.00010931	9.7378e-05	2.636e-05	878.98	1.0732e-06	1.052e-06	988.26	188.84	1.0802e-06	1.0482e-06	244.76	70.304	53.707	16.117	1.1121e-06	23.139	319.648	236.510	233.851	184.215	363.927	398.386	184.442	192.154	331.117	295.189	191.600	198.653	198.830	206.260	312.334	205.030	-8191	255	
1134.165	1	1	0	0	0.15349	0.08595	0.16821	0.080841	0.11752	0.19307	0.19586	0.12377	0.17732	0.13985	0.22596	0.042955	0.15346	0.16648	0.095309	0.054614	-2.9792	-3.0458	-3.6875	-2.9646	-3.3583	-3.4688	-3.1042	-3.5854	-3.1312	-2.9458	-3.6833	-3.1	-3.4313	-3.625	-3.0021	-3.6167	300.387	242.105	337.681	211.044	350.246	432.147	402.983	374.329	193.262	408.547	393.729	228.465	529.378	367.441	296.165	325.580	0.00040616	0.00013767	3.4988e-05	896.6	2.9289e-06	2.2859e-06	1009.7	191.42	4.2458e-06	3.0064e-06	250.99	71.691	54.266	16.101	1.8917e-06	23.057	0.00011062	9.7061e-05	2.669e-05	878.03	1.0872e-06	1.0637e-06	987.44	188.82	1.1372e-06	1.0853e-06	244.49	70.351	53.513	16.086	1.1002e-06	23.07	320.170	320.886	189.056	184.386	333.302	379.192	184.447	192.259	303.972	340.663	191.806	198.435	199.093	206.165	385.887	205.300	-8191	255	
1134.262	1	1	0	0	0.23018	0.10047	0.057849	0.02683	0.1366	0.15991	0.018134	0.10461	0.21047	0.066443	0.19363	0.17398	0.23387	0.2448	0.23018	0.23024	-2.85	-2.8792	-3.6958	-3.0292	-3.1083	-3.6437	-3.0687	-3.5438	-3.3875	-2.7542	-3.8229	-3.0125	-3.0083	-3.5417	-2.7875	-3.4208	176.190	181.380	282.791	463.387	175.591	196.957	279.621	321.396	421.306	434.491	339.602	252.162	467.543	340.423	290.623	481.514	0.00035425	0.00019753	4.1477e-05	901.9	4.6363e-06	4.0635e-06	1010.8	192.68	3.1008e-06	2.9493e-06	251.71	70.852	54.051	16.091	3.8896e-06	23.115	0.00010862	9.8283e-05	2.7394e-05	879.61	1.1468e-06	1.0618e-06	987.03	189.35	1.1025e-06	1.1114e-06	243.68	70.008	53.44	16.119	1.0912e-06	23.036	319.641	210.235	330.163	184.536	337.185	326.302	184.250	192.319	344.215	303.921	191.148	198.579	198.442	205.842	310.877	205.351	-8191	255	
1134.358	1	1	0	0	0.17024	0.28071	0.069142	0.096222	0.068906	0.23714	0.16921	0.079904	0.1284	0.15242	0.13125	0.20025	0.12926	0.093961	0.11844	0.2201	-3.0667	-2.9458	-3.6125	-2.975	-2.8937	-3.6437	-2.9729	-3.525	-3.6188	-2.775	-3.6958	-3.15	-2.9938	-3.7417	-2.8021	-3.4042	428.854	360.536	311.648	350.497	330.956	228.030	444.527	472.705	241.303	301.049	302.203	197.918	444.832	181.158	359.620	484.143	0.00036779	0.0003428	9.1583e-05	898.75	3.5169e-06	3.4166e-06	1005.6	193.38	3.5919e-07	2.5976e-06	251.21	70.285	54.046	16.135	2.644e-06	23.011	0.00010962	9.9451e-05	2.6704e-05	876.75	1.127e-06	1.0862e-06	986.21	189.34	1.0761e-06	1.092e-06	244.25	70.068	53.353	16.096	1.0604e-06	23.03	312.636	274.424	236.974	183.998	288.005	322.867	184.368	192.017	403.138	348.206	191.291	198.618	198.607	206.100	304.256	205.236	-8191	255	
1134.454	1	1	0	0	0.018348	0.18246	0.13964	0.29533	0.24656	0.22365	0.21095	0.21415	0.20759	0.086441	0.24763	0.41091	0.23972	0.15013	0.091176	0.20904	-3.1021	-2.7479	-3.5708	-3.2812	-2.9042	-3.7042	-3.1521	-3.1937	-3.6583	-2.9771	-3.6437	-3.3563	-2.8167	-3.7104	-3.1021	-3.1583	478.426	328.029	389.527	178.561	365.162	179.352	452.506	511.717	409.123	468.092	243.728	509.093	195.787	447.002	367.959	354.255	0.00036184	0.00030781	0.0001082	897.86	1.8964e-06	8.8622e-07	1013.6	192.64	5.8874e-06	1.4599e-06	252.12	70.952	53.649	16.205	1.6473e-06	23.037	0.00011267	9.9981e-05	2.7523e-05	878.2	1.1078e-06	1.0436e-06	988.9	189.11	1.0683e-06	1.0732e-06	244.28	70.185	53.349	16.104	1.0712e-06	23.089	307.225	297.703	287.638	184.099	339.192	280.388	184.246	192.022	328.421	395.590	191.286	197.883	198.633	206.290	296.763	205.568	-8191	255	
1134.550	1	1	0	0	0.18137	0.13518	0.21854	0.085665	0.14509	0.16927	0.2911	0.099383	0.017318	0.1312	0.1857	0.1258	0.31708	0.38563	0.069359	0.19146	-3.4292	-2.875	-3.4708	-3.6063	-2.9	-3.6792	-3.1979	-3.2521	-3.6917	-2.8979	-3.5583	-3.3042	-2.9104	-3.6188	-3.2708	-2.9729	267.618	300.004	484.373	528.996	281.918	333.027	178.541	463.326	440.171	271.390	422.059	473.121	400.816	363.339	439.489	452.994	0.00034691	0.00010664	7.3448e-05	902.15	2.0604e-06	5.1128e-06	1000.6	194.73	5.4672e-06	3.1065e-06	251.21	70.843	54.287	16.271	1.7585e-06	22.946	0.00010634	9.6354e-05	2.5629e-05	880.58	1.1057e-06	1.0487e-06	985.46	189.67	1.0957e-06	1.0505e-06	244.76	70.208	53.595	16.19	1.0693e-06	22.975	316.190	194.356	245.576	184.221	314.251	275.924	183.983	192.264	359.629	270.057	191.636	198.202	198.494	206.360	359.040	205.450	-8191	255	
1134.669	1	1	0	0	0.20399	0.16597	0.26957	0.37988	0.31699	0.1364	0.034031	0.13723	0.1373	0.086226	0.18832	0.25454	0.14809	0.17061	0.13731	0.23307	-3.1667	-2.8312	-3.1937	-3.4646	-2.8375	-3.7417	-3.4479	-2.9083	-3.7458	-3.0354	-3.375	-3.6729	-2.9	-3.6125	-3.2271	-2.95	350.486	432.608	265.154	181.006	273.262	177.189	437.384	532.395	235.693	481.275	532.795	440.003	347.075	207.332	245.554	212.874	0.00040048	0.00016204	9.9614e-05	890.83	4.6944e-06	4.3804e-06	1014.3	192.77	3.2092e-06	2.2641e-06	251.25	70.758	54.928	16.008	3.3784e-06	23.028	0.0001117	9.7991e-05	2.6194e-05	875.1	1.1272e-06	1.0505e-06	988.03	189.35	1.1459e-06	1.0639e-06	244.38	69.992	53.61	16.094	1.0937e-06	23.073	315.027	275.480	254.405	184.332	303.635	246.740	184.200	191.833	314.390	340.895	191.636	198.368	199.045	206.228	379.178	205.524	-8191	255	
1134.765	1	1	0	0	0.16083	0.051254	0.2078	0.05825	0.18306	0.23134	0.21013	0.14292	0.18889	0.19212	0.10262	0.23364	0.24959	0.18132	0.036907	0.079085	-3.4292	-2.9229	-3.2229	-3.75	-2.9458	-3.5021	-3.6333	-3.1542	-3.6604	-3.1937	-3.3333	-3.7313	-2.9792	-3.5229	-3.35	-3.0104	321.144	194.699	282.642	342.108	320.998	348.206	461.767	395.411	386.284	317.685	477.379	392.703	342.439	532.856	461.372	481.571	0.00035867	0.00012838	3.1131e-05	901.43	3.2209e-06	4.2336e-06	1007.3	193.37	4.084e-06	3.5011e-06	251.84	70.974	54.24	15.909	1.8261e-06	23.037	0.00011354	0.00010049	2.7962e-05	877.94	1.1444e-06	1.089e-06	985.78	189.34	1.0651e-06	1.0695e-06	244.2	70.119	53.207	16.029	1.0655e-06	23.034	312.215	317.297	225.550	184.280	320.995	223.224	184.378	191.893	290.895	332.513	191.919	198.100	198.715	206.118	348.342	205.366	-8191	255	
1134.861	1	1	0	0	0.31668	0.11968	0.10429	0.28723	0.13186	0.21266	0.12887	0.13659	0.095619	0.27579	0.056664	0.12127	0.1602	0.12839	0.11779	0.22809	-3.3917	-3.0833	-3.075	-3.9188	-2.8458	-3.4375	-3.6562	-3.1542	-3.5438	-3.1167	-2.9146	-3.8354	-2.9	-3.2854	-3.4792	-2.6917	454.218	201.793	445.238	441.697	314.502	519.912	181.391	448.443	403.481	341.710	297.565	243.884	495.074	211.830	387.283	515.990	0.00040848	0.00027219	5.5941e-05	895.79	5.285e-06	1.051e-06	1002.5	191.8	2.8138e-06	3.1524e-06	251.46	71.006	54.252	16.014	3.6037e-06	23.043	0.00011025	9.776e-05	2.7404e-05	876.05	1.067e-06	1.0186e-06	983.28	189.08	1.0692e-06	1.068e-06	243.6	70.119	53.3	16.06	1.0886e-06	23.022	311.989	268.668	322.473	184.332	299.002	320.237	184.184	192.073	366.474	330.848	191.357	198.494	198.973	206.436	358.544	205.339	-8191	255	
1134.935	1	1	0	0	0.15258	0.023312	0.17489	0.3692	0.19069	0.088717	0.28417	0.22152	0.11177	0.23965	0.15385	0.30646	0.03755	0.20897	0.089825	0.22467	-3.2854	-3.2104	-2.9792	-3.8792	-2.9417	-3.4146	-3.625	-2.8229	-3.4333	-3.25	-2.8958	-3.7958	-3.1104	-3.2417	-3.5438	-2.95	495.986	377.017	279.472	464.076	335.880	183.889	470.072	449.460	418.650	477.729	475.600	485.828	329.680	483.714	272.447	512.007	0.00038743	0.00035256	7.6802e-05	895.29	4.7702e-06	1.1662e-06	999.11	190.94	4.4988e-06	3.262e-06	250.17	70.591	53.983	15.884	1.6271e-06	22.665	0.00011014	9.8052e-05	2.7725e-05	876.28	1.0989e-06	1.0853e-06	981.02	188.45	1.0971e-06	1.0701e-06	244.17	69.985	53.278	16.036	1.0597e-06	22.893	308.450	300.634	277.528	184.609	308.933	328.741	184.225	191.665	320.539	281.783	191.512	198.173	198.591	206.242	374.385	204.970	-8191	255	
1135.054	1	1	0	0	0.038922	0.17973	0.10299	0.0346	0.28492	0.10988	0.12991	0.23688	0.072002	0.1382	0.074353	0.071565	0.10282	0.24309	0.14959	0.17379	-3.1813	-3.3167	-2.9333	-3.8083	-3.0938	-3.1917	-3.8729	-3.0354	-3.5292	-3.4354	-2.9042	-3.5312	-3.0583	-3.0812	-3.45	-2.8	429.563	326.660	273.432	465.975	350.918	221.244	392.255	444.946	246.119	389.508	496.057	516.912	532.918	514.952	532.272	459.532	0.00035307	0.00015413	3.8477e-05	896.81	5.953e-06	3.2228e-06	1007.2	192.05	3.557e-06	1.4057e-06	252.1	70.579	53.724	16.031	1.4858e-06	22.716	0.00010995	9.9882e-05	2.6934e-05	874.68	1.1132e-06	1.0812e-06	983.72	188.61	1.1015e-06	1.0815e-06	243.68	69.731	53.153	16.007	1.0793e-06	22.894	313.457	485.076	227.616	184.433	295.996	279.652	184.365	191.834	358.016	210.258	191.464	198.280	198.715	206.504	323.218	205.069	-8191	255	
1135.150	1	1	0	0	0.14697	0.026454	0.26142	0.22369	0.10921	0.1262	0.11255	0.32352	0.082494	0.25016	0.04288	0.29629	0.17654	0.27661	0.24742	0.054824	-3.0563	-3.4917	-2.7583	-3.6312	-3.1771	-2.9	-3.9104	-2.9292	-3.2583	-3.3354	-2.9958	-3.6875	-3.2083	-2.9458	-3.6813	-3.0646	359.667	339.925	374.928	524.266	369.678	335.353	513.329	511.774	302.701	324.739	397.480	196.403	474.070	481.142	301.346	333.977	0.00036643	0.00037271	4.0511e-05	896.57	3.7196e-06	2.6802e-06	999.63	191.93	3.5558e-06	2.5901e-06	248.95	70.206	54.239	15.989	5.2692e-06	22.958	0.00011016	9.9689e-05	2.7329e-05	876.24	1.12e-06	1.066e-06	981.06	188.69	1.1325e-06	1.0955e-06	243.29	69.617	53.127	16.016	1.0974e-06	22.899	316.073	247.120	271.420	184.469	272.543	180.906	184.314	191.834	387.368	317.279	191.240	198.374	198.959	206.351	362.918	205.410	-8191	255	
1135.246	1	1	0	0	0.27153	0.10786	0.14185	0.045878	0.21652	0.045662	0.34941	0.11604	0.2547	0.41885	0.07587	0.15469	0.1707	0.18658	0.22688	0.11138	-2.9125	-3.5479	-2.7687	-3.6958	-3.2667	-2.9167	-3.8312	-3.1646	-3.1333	-3.7313	-2.9375	-3.5375	-3.4813	-2.9583	-3.525	-3.3396	268.278	412.746	336.200	459.046	373.820	419.603	479.937	414.197	353.501	342.578	350.811	445.577	398.649	236.099	408.864	381.559	0.00035101	0.00011881	7.8617e-05	895.74	4.2563e-06	4.779e-06	1004.2	191.72	4.5397e-06	1.2095e-06	250.39	70.269	53.956	15.945	1.9979e-06	22.726	0.00011437	0.00010002	2.83e-05	873.95	1.0927e-06	1.0946e-06	981.98	188.13	1.1089e-06	1.099e-06	244.03	69.565	52.97	16	1.0876e-06	22.889	304.414	228.655	245.589	184.264	302.961	306.547	184.730	192.082	364.771	358.921	191.676	198.294	199.214	206.377	338.712	205.610	-8191	255	
1135.342	1	1	0	0	0.14636	0.2298	0.12477	0.20282	0.078967	0.28087	0.21988	0.023025	0.029048	0.13117	0.2507	0.27688	0.093686	0.12795	0.18957	0.47876	-2.8667	-3.5979	-2.8438	-3.6042	-3.4437	-2.8979	-3.8292	-3.2042	-2.9375	-3.6188	-2.8083	-3.5833	-3.4562	-2.7042	-3.6	-3.1937	325.996	322.875	334.724	442.541	183.735	411.263	465.854	428.994	508.916	405.845	511.306	524.510	183.085	364.416	274.844	479.564	0.00041454	0.00025794	9.8494e-05	895.84	5.756e-06	4.1335e-06	1003.4	190.52	3.8218e-06	5.6446e-07	249.42	70.445	54.061	16.058	3.5507e-06	22.783	0.00011113	9.9039e-05	2.7375e-05	873.55	1.1148e-06	1.0715e-06	981.35	187.91	1.1323e-06	1.0361e-06	242.51	69.539	53.157	16.044	1.0962e-06	22.914	313.356	311.644	295.018	184.360	324.774	301.367	184.371	192.260	364.942	372.284	191.619	198.622	199.071	205.786	333.086	205.234	-8191	255	
1135.463	1	1	0	0	0.31327	0.049066	0.074155	0.17591	0.22063	0.30756	0.12144	0.028552	0.17746	0.1731	0.021182	0.052522	0.26041	0.084639	0.30899	0.13985	-2.4729	-3.5563	-2.7708	-3.2604	-3.6333	-2.7042	-3.7438	-3.4104	-2.9354	-3.6229	-3.0354	-3.3208	-3.6375	-2.8208	-3.4708	-3.2708	459.931	303.125	249.523	474.790	349.757	520.787	515.010	465.404	240.681	215.828	480.491	523.647	446.865	411.101	493.304	227.506	0.00041739	0.00028435	0.00010646	896.07	3.0055e-06	4.3695e-06	1001.8	192.63	4.428e-06	2.0065e-06	250.15	70.602	54.015	15.965	1.3909e-06	22.931	0.00010989	9.7407e-05	2.7388e-05	873.14	1.0951e-06	1.0898e-06	981.21	188.58	1.1183e-06	1.0702e-06	242.83	69.792	53.225	15.989	1.0674e-06	22.893	319.550	219.362	280.102	184.395	294.630	303.362	183.988	192.313	313.000	352.204	191.800	198.458	198.945	206.877	336.512	205.466	-8191	255	
1135.557	1	1	0	0	0.1305	0.10122	0.25861	0.15048	0.26973	0.2578	0.30428	0.38742	0.080762	0.15596	0.12588	0.057707	0.16619	0.17486	0.052871	0.17761	-2.4521	-3.6063	-3.1292	-3.3979	-3.7	-2.8312	-3.5875	-3.4688	-2.9729	-3.6146	-3.1688	-3.0854	-3.5646	-2.8396	-3.4688	-3.4646	475.183	380.510	415.353	494.796	315.379	312.242	473.083	477.586	273.934	349.628	238.834	478.913	519.992	189.017	234.473	471.662	0.00033235	0.00017754	0.0001547	890.15	4.1539e-06	3.041e-06	1002.7	191.63	3.599e-06	2.8317e-06	247.2	70.695	54.128	15.926	5.3537e-07	23.025	0.00011425	9.7805e-05	2.6868e-05	874.37	1.1008e-06	1.0569e-06	981.63	188.4	1.119e-06	1.0682e-06	242.06	69.997	53.216	16.015	1.0729e-06	22.939	315.482	243.868	263.397	184.529	352.519	247.742	184.253	192.072	279.085	285.862	192.335	198.354	199.182	206.685	416.137	205.392	-8191	255	
1135.655	1	1	0	0	0.10093	0.079158	0.33252	0.15267	0.17815	0.06409	0.099075	0.17028	0.19102	0.10768	0.15652	0.036781	0.24099	0.15777	0.10631	0.075349	-2.5958	-3.675	-3.1458	-3.2396	-3.6125	-2.8833	-3.3688	-3.5104	-2.9437	-3.5896	-3.2417	-3.0979	-3.7313	-2.8542	-3.4167	-3.5708	188.629	306.539	483.118	394.568	457.677	458.611	458.867	251.851	260.584	190.950	480.077	431.713	420.346	476.239	325.169	431.187	0.00039123	0.00042836	0.00011834	894.18	2.2158e-06	3.055e-06	1002.7	191.42	3.1104e-06	1.0465e-06	249.08	70.583	54.243	15.973	1.338e-06	22.873	0.00011094	9.6395e-05	2.6668e-05	873.7	1.0723e-06	1.0743e-06	981.37	188.46	1.0803e-06	1.0478e-06	242.95	69.904	53.355	16.013	1.0621e-06	22.984	317.110	288.996	271.126	184.791	337.657	322.796	184.834	192.037	318.709	375.734	191.795	198.366	198.796	206.826	301.686	204.829	-8191	255	
1135.749	1	1	0	0	0.33095	0.13649	0.11454	0.35939	0.17282	0.069808	0.33477	0.12059	0.38618	0.16913	0.11464	0.17137	0.082564	0.16452	0.15753	0.16417	-2.3438	-3.4021	-3.0812	-2.9521	-3.7229	-2.8729	-3.2229	-3.5167	-2.8312	-3.5521	-3.2896	-3.0521	-3.7604	-2.9437	-3.1354	-3.8083	326.281	483.215	502.031	219.596	358.228	475.015	395.375	446.490	176.635	264.241	521.087	193.062	333.029	218.123	261.386	232.037	0.00039011	0.00015675	9.0101e-05	896.3	2.3497e-06	3.8848e-06	1004.3	192.71	3.7604e-06	2.1075e-06	249.5	70.99	53.804	16.219	2.1176e-06	22.969	0.00011134	9.3652e-05	2.6556e-05	874.47	1.0891e-06	1.0666e-06	982.71	188.48	1.0631e-06	1.0348e-06	243.18	69.975	53.162	16.145	1.0391e-06	22.967	313.126	290.877	238.675	184.595	299.620	293.912	184.510	192.083	324.711	311.676	191.720	198.556	199.010	206.817	400.531	205.449	-8191	255	
1135.845	1	1	0	0	0.20528	0.17795	0.14466	0.2407	0.18901	0.068753	0.2462	0.30181	0.27921	0.069569	0.067784	0.15415	0.092276	0.18425	0.18027	0.27558	-2.4313	-3.5042	-3.3729	-2.8917	-3.6583	-2.9938	-3.2875	-3.6708	-2.7687	-3.35	-3.4833	-2.8604	-3.5854	-3.3208	-2.875	-3.6312	523.669	357.556	525.399	444.373	177.548	252.767	463.106	464.516	251.209	188.655	380.078	450.179	474.429	316.464	247.017	242.587	0.00033948	0.00030157	3.3102e-05	898.17	4.6703e-06	1.5261e-06	1008.9	193.18	4.2723e-06	3.0128e-06	250.18	70.65	54.09	15.986	3.0187e-06	23.038	0.00010786	9.7912e-05	2.7097e-05	875.43	1.0794e-06	1.0657e-06	984.56	188.77	1.1054e-06	1.0513e-06	243.46	69.94	53.346	16.048	1.0671e-06	23.013	317.347	266.074	286.363	184.840	281.779	293.792	184.539	192.298	334.864	306.325	191.668	198.509	198.995	206.625	350.756	205.776	-8191	255	
1135.942	1	1	0	0	0.16286	0.10975	0.064806	0.10143	0.066971	0.12042	0.23709	0.18897	0.20448	0.040644	0.016589	0.22537	0.04378	0.1447	0.2584	0.092616	-2.4875	-3.3187	-3.5792	-2.9708	-3.6229	-2.9771	-3.1646	-3.6937	-2.8354	-3.2708	-3.6312	-2.9271	-3.6458	-3.25	-2.8333	-3.7854	296.831	343.382	210.098	459.127	288.162	455.272	405.343	454.879	396.290	279.104	395.752	524.932	358.035	440.022	184.410	298.312	0.00035658	0.0002176	9.3443e-05	894.62	3.9048e-06	3.3562e-06	1008.6	192.92	3.2302e-06	2.4983e-06	252.93	70.424	54.289	15.98	2.9323e-06	22.957	0.0001103	9.4236e-05	2.5948e-05	875.57	1.0864e-06	1.082e-06	985.1	189.14	1.0666e-06	1.0627e-06	243.85	69.874	53.253	16.082	1.0601e-06	22.966	311.406	280.836	231.252	184.638	268.704	375.135	184.814	191.957	331.994	364.895	191.852	198.611	199.038	206.385	325.376	205.414	-8191	255	
1136.062	1	1	0	0	0.14393	0.25662	0.15389	0.075788	0.12399	0.11989	0.2708	0.21659	0.12893	0.11746	0.1124	0.22617	0.17613	0.09398	0.11825	0.13236	-2.4104	-3.1458	-3.625	-3.0187	-3.6208	-3.3854	-2.95	-3.8417	-3.0542	-3.2042	-3.5667	-2.9396	-3.4021	-3.4104	-2.8333	-3.7875	441.329	398.932	417.310	220.957	317.337	253.288	401.335	429.025	361.800	310.951	215.010	436.449	511.394	261.971	303.977	440.876	0.00039053	0.0002516	7.3295e-05	892.71	3.966e-06	3.0967e-06	1003	191.7	4.7137e-06	1.2509e-06	249.1	70.844	53.879	15.87	1.4217e-06	22.81	0.00011114	9.6395e-05	2.6669e-05	873.95	1.0898e-06	1.0402e-06	982.99	188.56	1.0746e-06	1.0382e-06	242.84	69.96	53.261	16.019	1.0636e-06	22.898	306.102	267.627	264.519	184.517	330.658	316.103	184.659	192.297	308.363	299.208	191.733	199.004	199.235	206.642	280.864	205.754	-8191	255	
1136.158	1	1	0	0	0.20473	0.16313	0.21854	0.062436	0.21282	0.2269	0.20313	0.13481	0.30786	0.13759	0.058992	0.23793	0.10326	0.17418	0.083075	0.25648	-2.6333	-2.9562	-3.7562	-3.1083	-3.6188	-3.3479	-3.1646	-3.6896	-3.0792	-3.2125	-3.7729	-2.9583	-3.3354	-3.55	-2.8271	-3.5854	454.819	340.721	462.980	426.042	250.868	489.178	476.152	491.033	317.528	334.472	435.397	528.203	347.235	522.185	379.413	490.301	0.00035724	0.00032799	6.5356e-05	895.81	3.6452e-06	1.0831e-06	1005.1	192.19	1.663e-06	2.9401e-06	251.97	70.277	54.062	16.048	2.9041e-06	22.898	0.00010705	9.7534e-05	2.639e-05	873.91	1.0937e-06	1.0186e-06	982.99	188.83	1.0813e-06	1.0541e-06	243.89	69.797	53.232	16.028	1.0445e-06	23.004	311.472	271.706	337.629	184.485	270.061	374.615	184.551	192.251	347.180	352.227	191.374	198.746	198.944	205.920	375.125	205.611	-8191	255	
#DATA ENDS
