BOXY.EXE: ISS Imagent and Oximeter Data Acquisition Program Version 0.80
Ascii Record File

#ACQ INFORMATION
2  Detector Channels 
16  External MUX Channels 
1  Auxiliary Channels 
5000  Waveform (CCF) Frequency (Hz)
1  Waveforms Skipped 
30  Waveforms Averaged 
1  Cycles Averaged 
16  Acquisitions per Waveform 
10.0806  Updata Rate (Hz) 

#FILE INFORMATION
TRUE -- External MUX Channel results are PARSED.
FALSE -- AC DC and Phase are NOT grouped.
TRUE -- Companion Program Settings File CREATED.
FALSE -- AC data not excluded
FALSE -- DC data not excluded
FALSE -- Phase data not excluded
FALSE -- Auxillary Chn. data not excluded
Tab delimiters

#CALIBRATION STATE
TRUE -- Waveform Calibration Values APPLIED.


#AUX CALIBRATION VALUES
Val Type	aux-1	

Term	1.0000e+00	
Factor	0.0000e+00	


#WF CALIBRATION VALUES
A = Detector Channel
Val Type	A-AC1	A-AC2	A-AC3	A-AC4	A-AC5	A-AC6	A-AC7	A-AC8	A-AC9	A-AC10	A-AC11	A-AC12	A-AC13	A-AC14	A-AC15	A-AC16	A-DC1	A-DC2	A-DC3	A-DC4	A-DC5	A-DC6	A-DC7	A-DC8	A-DC9	A-DC10	A-DC11	A-DC12	A-DC13	A-DC14	A-DC15	A-DC16	A-Ph1	A-Ph2	A-Ph3	A-Ph4	A-Ph5	A-Ph6	A-Ph7	A-Ph8	A-Ph9	A-Ph10	A-Ph11	A-Ph12	A-Ph13	A-Ph14	A-Ph15	A-Ph16	

Term	0.00000e+00	0.00000e+00	0.00000e+00	0.00000e+00	0.00000e+00	0.00000e+00	0.00000e+00	0.00000e+00	0.00000e+00	0.00000e+00	0.00000e+00	0.00000e+00	0.00000e+00	0.00000e+00	0.00000e+00	0.00000e+00	0.00000e+00	0.00000e+00	0.00000e+00	0.00000e+00	0.00000e+00	0.00000e+00	0.00000e+00	0.00000e+00	0.00000e+00	0.00000e+00	0.00000e+00	0.00000e+00	0.00000e+00	0.00000e+00	0.00000e+00	0.00000e+00	0.00000e+00	0.00000e+00	0.00000e+00	0.00000e+00	0.00000e+00	0.00000e+00	0.00000e+00	0.00000e+00	0.00000e+00	0.00000e+00	0.00000e+00	0.00000e+00	0.00000e+00	0.00000e+00	0.00000e+00	0.00000e+00	
Factor	1.00000e+00	1.00000e+00	1.00000e+00	1.00000e+00	1.00000e+00	1.00000e+00	1.00000e+00	1.00000e+00	1.00000e+00	1.00000e+00	1.00000e+00	1.00000e+00	1.00000e+00	1.00000e+00	1.00000e+00	1.00000e+00	1.00000e+00	1.00000e+00	1.00000e+00	1.00000e+00	1.00000e+00	1.00000e+00	1.00000e+00	1.00000e+00	1.00000e+00	1.00000e+00	1.00000e+00	1.00000e+00	1.00000e+00	1.00000e+00	1.00000e+00	1.00000e+00	X	X	X	X	X	X	X	X	X	X	X	X	X	X	X	X	

B = Detector Channel
Val Type	B-AC1	B-AC2	B-AC3	B-AC4	B-AC5	B-AC6	B-AC7	B-AC8	B-AC9	B-AC10	B-AC11	B-AC12	B-AC13	B-AC14	B-AC15	B-AC16	B-DC1	B-DC2	B-DC3	B-DC4	B-DC5	B-DC6	B-DC7	B-DC8	B-DC9	B-DC10	B-DC11	B-DC12	B-DC13	B-DC14	B-DC15	B-DC16	B-Ph1	B-Ph2	B-Ph3	B-Ph4	B-Ph5	B-Ph6	B-Ph7	B-Ph8	B-Ph9	B-Ph10	B-Ph11	B-Ph12	B-Ph13	B-Ph14	B-Ph15	B-Ph16	

Term	0.00000e+00	0.00000e+00	0.00000e+00	0.00000e+00	0.00000e+00	0.00000e+00	0.00000e+00	0.00000e+00	0.00000e+00	0.00000e+00	0.00000e+00	0.00000e+00	0.00000e+00	0.00000e+00	0.00000e+00	0.00000e+00	0.00000e+00	0.00000e+00	0.00000e+00	0.00000e+00	0.00000e+00	0.00000e+00	0.00000e+00	0.00000e+00	0.00000e+00	0.00000e+00	0.00000e+00	0.00000e+00	0.00000e+00	0.00000e+00	0.00000e+00	0.00000e+00	-1.52259e+01	-1.21314e+02	-1.23051e+02	-1.84901e+02	-5.91357e+01	-7.46805e+01	-1.57730e+02	-1.62015e+02	-3.40933e+01	-6.62299e+01	-1.71524e+02	-1.72147e+02	-1.80048e+02	-1.78167e+02	-4.40745e+01	-1.50823e+02	
Factor	2.76434e-05	1.26985e-04	3.54059e-05	1.59654e-01	1.74063e-06	1.45815e-06	1.52443e-01	4.95556e-02	1.43490e-06	1.07965e-06	1.17551e-01	2.58781e-02	2.28946e-02	8.02273e-03	1.27440e-06	1.15230e-02	1.86249e-06	1.97404e-06	5.49644e-07	8.35806e-02	2.14999e-08	2.16645e-08	7.48903e-02	2.60166e-02	2.14823e-08	2.17078e-08	5.86460e-02	1.31064e-02	1.20647e-02	4.22979e-03	2.15515e-08	5.85250e-03	X	X	X	X	X	X	X	X	X	X	X	X	X	X	X	X	



#DISTANCE SETTINGS
A = Detector Channel
A-1	A-2	A-3	A-4	A-5	A-6	A-7	A-8	A-9	A-10	A-11	A-12	A-13	A-14	A-15	A-16	

2.5000e+00	3.0000e+00	2.5000e+00	3.0000e+00	2.0000e+00	3.0000e+00	1.5000e+00	3.0000e+00	3.0000e+00	3.0000e+00	3.0000e+00	3.0000e+00	3.0000e+00	3.0000e+00	1.5000e+00	3.0000e+00	

B = Detector Channel
B-1	B-2	B-3	B-4	B-5	B-6	B-7	B-8	B-9	B-10	B-11	B-12	B-13	B-14	B-15	B-16	

1.0000e+01	1.0000e+01	1.0000e+01	1.4400e+00	1.0000e+01	1.0000e+01	1.5100e+00	1.9400e+00	1.0000e+01	1.0000e+01	1.9900e+00	2.4900e+00	2.4100e+00	2.9000e+00	1.0000e+01	2.9800e+00	




#DATA BEGINS
time	group	step	mark	flag	A-AC1	A-AC2	A-AC3	A-AC4	A-AC5	A-AC6	A-AC7	A-AC8	A-AC9	A-AC10	A-AC11	A-AC12	A-AC13	A-AC14	A-AC15	A-AC16	A-DC1	A-DC2	A-DC3	A-DC4	A-DC5	A-DC6	A-DC7	A-DC8	A-DC9	A-DC10	A-DC11	A-DC12	A-DC13	A-DC14	A-DC15	A-DC16	A-Ph1	A-Ph2	A-Ph3	A-Ph4	A-Ph5	A-Ph6	A-Ph7	A-Ph8	A-Ph9	A-Ph10	A-Ph11	A-Ph12	A-Ph13	A-Ph14	A-Ph15	A-Ph16	B-AC1	B-AC2	B-AC3	B-AC4	B-AC5	B-AC6	B-AC7	B-AC8	B-AC9	B-AC10	B-AC11	B-AC12	B-AC13	B-AC14	B-AC15	B-AC16	B-DC1	B-DC2	B-DC3	B-DC4	B-DC5	B-DC6	B-DC7	B-DC8	B-DC9	B-DC10	B-DC11	B-DC12	B-DC13	B-DC14	B-DC15	B-DC16	B-Ph1	B-Ph2	B-Ph3	B-Ph4	B-Ph5	B-Ph6	B-Ph7	B-Ph8	B-Ph9	B-Ph10	B-Ph11	B-Ph12	B-Ph13	B-Ph14	B-Ph15	B-Ph16	aux-1	digaux	

1974.574	1	1	0	768	0.20728	0.19898	0.09338	0.19951	0.18295	0.10338	0.13744	0.2982	0.21912	0.059372	0.21182	0.28249	0.16991	0.077431	0.18256	0.13251	-3.0375	-2.6437	-3.1312	-3.4313	-2.8312	-3.3792	-3.1229	-2.6333	-3.3521	-2.6562	-3.1042	-3.375	-2.4771	-3.3979	-3.0896	-2.725	158.342	181.875	29.897	181.341	-53.569	138.420	189.079	220.178	223.323	130.799	46.646	181.726	203.219	88.081	13.959	286.820	0.0001293	0.00054514	7.517e-05	119.73	6.3358e-06	4.698e-06	235.71	55.352	3.9746e-06	6.8638e-06	118.12	50.954	24.318	12.266	3.3766e-06	25.163	0.00066816	0.00070287	0.00019646	142.96	7.5653e-06	7.839e-06	249.05	61.901	7.732e-06	7.8619e-06	130.41	52.828	27.426	13.17	7.7191e-06	25.761	267.828	79.312	55.619	-52.336	138.343	-12.627	-54.297	-47.131	119.653	70.385	-51.061	-46.656	-43.866	-40.743	283.194	-44.142	-8191	255	
1974.671	1	1	0	0	0.19795	0.13251	0.10366	0.02729	0.025205	0.16406	0.34431	0.13809	0.050603	0.21781	0.14804	0.13845	0.43897	0.078335	0.16326	0.24134	-3.3042	-2.6167	-3.0854	-3.4437	-2.6958	-3.3375	-3.0333	-2.7062	-3.3104	-2.7687	-2.9562	-3.3958	-2.5125	-3.2687	-3.0479	-2.7812	39.467	53.630	-44.924	218.580	147.180	72.164	66.387	214.059	87.702	250.168	6.304	232.542	131.724	-25.413	128.503	238.199	0.00017802	0.0006702	8.9375e-05	118.12	1.4718e-05	6.0124e-06	238.98	55.744	7.6479e-06	8.1896e-06	117.37	50.666	24.365	12.195	3.1498e-06	25.006	0.00068101	0.00070791	0.00019386	142.38	7.5856e-06	7.6374e-06	249.31	61.643	7.6584e-06	7.545e-06	128.55	52.311	27.157	13.07	7.3463e-06	25.467	214.946	49.405	216.814	-53.229	177.961	190.378	-54.478	-47.080	69.576	156.130	-50.152	-46.576	-43.557	-40.074	266.645	-43.847	-8191	255	
1974.767	1	1	0	0	0.25623	0.093241	0.1132	0.19973	0.16635	0.19839	0.36097	0.31607	0.17057	0.12721	0.030704	0.025301	0.27837	0.33782	0.08733	0.041415	-2.925	-2.8792	-2.8271	-3.3563	-2.4625	-3.3167	-3.0667	-2.6521	-3.3208	-2.8958	-2.6312	-3.4604	-2.8208	-3.2021	-3.1583	-2.3979	-59.001	153.714	59.444	212.258	61.109	292.190	-13.917	185.229	240.649	159.081	21.212	162.484	-60.180	125.355	30.563	117.128	0.00014053	0.00012129	9.2377e-05	119.57	7.0056e-06	7.9303e-06	236.03	55.461	7.2505e-06	2.3043e-06	117.37	50.918	24.357	12.317	5.7223e-06	25.198	0.00063775	0.00065509	0.00018179	140.07	7.0722e-06	7.0142e-06	245.78	61.049	7.0176e-06	7.0332e-06	127.66	52.217	26.999	13.083	7.052e-06	25.548	282.990	286.988	137.104	-53.080	5.501	163.122	-53.634	-47.078	223.978	87.980	-50.519	-46.738	-44.136	-40.792	80.052	-44.408	-8191	255	
1974.863	1	1	0	0	0.15472	0.14382	0.086674	0.023027	0.11433	0.094984	0.11399	0.10228	0.24237	0.096506	0.14246	0.20748	0.1489	0.24991	0.11349	0.11555	-3.1375	-2.9479	-2.7062	-3.5021	-2.6	-3.1542	-3.35	-2.6292	-3.2604	-3.1292	-2.475	-3.4458	-2.6	-2.9333	-3.2521	-2.5812	111.223	32.407	248.665	275.408	72.466	23.643	-64.925	211.837	259.891	43.505	255.503	-56.440	21.215	-56.303	270.054	187.499	0.00015423	0.00025957	8.8498e-05	121.79	3.5498e-06	8.0462e-06	237.85	56.025	7.1308e-06	9.8345e-07	118.85	51.414	24.818	12.43	2.4978e-06	25.418	0.00061533	0.00065303	0.00017615	140.78	6.9349e-06	7.0675e-06	248.56	61.539	6.9424e-06	7.0952e-06	128.33	52.718	27.401	13.199	6.8932e-06	25.852	-26.909	140.446	102.747	-53.446	243.852	-16.662	-54.269	-47.048	199.561	74.567	-51.492	-46.790	-43.848	-40.599	123.045	-44.099	-8191	255	
1974.957	1	1	0	0	0.246	0.29326	0.15579	0.040972	0.043989	0.07831	0.045365	0.030112	0.25665	0.12684	0.1195	0.2189	0.13639	0.053911	0.11528	0.4676	-2.9458	-2.9188	-2.7875	-3.4542	-2.85	-2.8563	-3.3292	-2.6188	-3.1458	-3.1104	-2.5167	-3.3854	-2.8583	-2.825	-3.4292	-2.65	7.558	-7.593	177.206	1.477	-60.663	-10.293	-13.014	0.319	97.776	1.692	104.198	230.135	2.041	7.249	111.421	262.368	0.00016619	0.0002526	0.00023477	119.31	9.6161e-06	1.0985e-06	236.02	56.068	5.8183e-06	2.1996e-06	118.33	51.34	24.926	12.404	1.8437e-06	25.154	0.00061259	0.0006269	0.00017598	140.22	6.8924e-06	6.8238e-06	248.59	61.931	6.875e-06	6.873e-06	128.93	52.848	27.24	13.183	6.77e-06	25.8	291.372	-7.345	-16.000	-52.574	171.357	34.255	-54.612	-47.388	150.327	43.975	-50.423	-47.102	-44.349	-40.339	183.319	-43.988	-8191	255	
1975.055	1	1	0	0	0.11336	0.11706	0.22989	0.21821	0.086182	0.11311	0.30764	0.14537	0.21492	0.14677	0.11314	0.11214	0.057511	0.19769	0.094799	0.10806	-2.7479	-3.1813	-2.7062	-3.2667	-2.7083	-2.9417	-3.5771	-2.7646	-3.1417	-3.4125	-2.6604	-3.6562	-2.9875	-2.8833	-3.6208	-2.7354	112.815	24.100	-63.436	-46.009	137.276	-52.400	136.281	52.420	-0.769	152.305	145.815	-19.456	102.615	-1.189	239.182	215.055	7.032e-05	0.00072335	4.684e-05	121.28	5.4652e-06	4.1703e-06	236.93	56.485	3.7247e-06	3.0222e-06	118.12	50.851	24.839	12.569	3.1271e-06	25.342	0.00059385	0.00061571	0.00017273	140.22	6.7037e-06	6.708e-06	247.07	61.275	6.5769e-06	6.6312e-06	127.03	52.405	27.237	13.209	6.5789e-06	25.664	289.341	265.349	232.476	-52.749	277.714	123.934	-54.150	-46.969	53.708	7.479	-50.170	-46.838	-43.874	-40.680	118.004	-44.678	-8191	255	
1975.174	1	1	0	0	0.11566	0.064373	0.25013	0.21442	0.1843	0.23334	0.2452	0.12348	0.25948	0.16361	0.11338	0.16824	0.20047	0.17301	0.13047	0.2058	-2.8354	-3.35	-2.5312	-3.3688	-3.0312	-2.7896	-3.4771	-2.6729	-3.0875	-3.5625	-2.7958	-3.2729	-3.2062	-2.5729	-3.3521	-2.8979	-31.230	63.510	84.187	69.291	49.456	-34.771	247.688	277.600	233.014	257.825	53.874	60.792	55.961	281.091	124.741	36.035	0.00014917	0.00055183	0.00020651	121.31	2.8269e-06	6.5892e-06	238.84	56.046	1.0741e-05	3.5066e-06	117.23	51.246	24.768	12.6	3.5201e-06	25.172	0.00057048	0.0005902	0.00016613	139.04	6.3027e-06	6.3441e-06	246.65	60.799	6.3146e-06	6.3257e-06	126.56	52.421	27.05	13.24	6.4113e-06	25.742	283.980	-27.778	281.674	-53.540	-1.333	239.840	-54.121	-47.850	114.794	50.129	-50.855	-47.062	-44.399	-40.756	252.427	-44.009	-8191	255	
1975.270	1	1	0	0	0.054245	0.26832	0.15429	0.10514	0.21965	0.28192	0.22544	0.12181	0.15308	0.15153	0.22388	0.15688	0.35435	0.088693	0.05508	0.075672	-2.5083	-3.4646	-2.6312	-3.45	-3.1813	-2.5833	-3.4375	-2.7542	-2.8417	-3.5021	-2.6021	-3.0854	-3.1437	-2.6688	-3.3354	-2.9479	-43.723	82.666	50.619	81.643	271.858	24.065	231.651	177.973	181.893	217.202	86.205	175.866	263.844	48.887	122.898	275.928	4.9637e-05	0.00046639	4.4409e-05	120.94	5.4748e-06	4.9008e-06	238.51	56.496	2.9673e-06	4.9037e-06	120.11	52.257	24.904	12.809	7.1659e-06	25.903	0.00055832	0.00056842	0.00015845	138.28	6.2413e-06	6.2221e-06	246.87	61.224	6.1936e-06	6.3468e-06	127.62	52.944	27.142	13.362	6.1873e-06	26.006	-6.256	-34.159	291.355	-53.071	124.212	87.264	-54.361	-47.391	118.807	53.510	-51.210	-47.854	-44.215	-40.854	247.062	-44.202	-8191	255	
1975.366	1	1	0	0	0.056043	0.051938	0.29455	0.083854	0.18009	0.089783	0.26689	0.10167	0.087548	0.1188	0.21447	0.39578	0.18762	0.18229	0.20709	0.37662	-2.3354	-3.3167	-2.8563	-2.8646	-3.3854	-2.5458	-3.4625	-2.9	-2.8521	-3.5521	-2.6729	-2.9729	-3.4958	-2.7021	-3.3708	-3.1354	48.262	244.650	-12.317	215.486	208.305	-2.536	-6.122	9.831	42.722	45.599	-49.254	271.535	96.039	-50.695	250.318	133.689	0.00013165	0.00055606	0.00012285	122.35	6.7324e-06	3.0803e-06	239.71	56.627	7.6898e-06	3.2317e-06	119.58	52.401	25.205	12.742	6.579e-06	25.683	0.00052359	0.00055153	0.00015018	138.03	5.8501e-06	5.8823e-06	247.1	60.944	5.7282e-06	5.7355e-06	126.54	52.707	26.997	13.252	5.7318e-06	25.851	-56.278	231.987	-30.368	-52.623	37.534	-25.001	-54.401	-48.122	185.471	-28.039	-52.315	-46.926	-43.959	-40.839	168.555	-44.414	-8191	255	
1975.463	1	1	0	0	0.08258	0.11034	0.037693	0.2185	0.020024	0.088469	0.11966	0.11038	0.3256	0.13131	0.16954	0.10509	0.15397	0.13097	0.078621	0.10844	-2.4417	-3.4813	-2.7604	-3.1521	-3.3792	-2.7125	-3.4188	-3.3271	-2.7625	-3.3771	-2.9375	-2.8792	-3.3604	-2.6271	-3.0708	-3.3292	115.293	238.878	240.509	106.330	101.936	277.499	272.750	217.520	83.937	269.623	269.987	149.585	264.456	98.289	21.587	-61.185	0.00014244	0.00017676	0.00023461	121.41	4.5245e-06	4.1224e-06	236.79	56.835	5.7624e-06	2.7742e-06	118.35	52.108	25.317	12.795	4.4553e-07	25.696	0.00049722	0.0005176	0.00014197	136.78	5.542e-06	5.587e-06	243.89	60.352	5.4557e-06	5.4796e-06	124.73	52.374	26.831	13.23	5.351e-06	25.708	-28.887	281.286	148.649	-52.300	115.681	170.090	-54.400	-47.255	224.383	117.181	-50.616	-47.160	-43.952	-40.643	106.940	-44.152	-8191	255	
1975.559	1	1	0	0	0.27246	0.1567	0.15062	0.16847	0.31837	0.18777	0.15393	0.11386	0.1393	0.25457	0.20909	0.23312	0.078463	0.19664	0.055108	0.12229	-2.2854	-3.4854	-2.9396	-2.9833	-3.4938	-2.4562	-3.2188	-3.2917	-2.5396	-3.4375	-3.0208	-2.9083	-3.5583	-2.6604	-3.1979	-3.3229	23.552	16.084	2.745	209.190	139.702	246.174	279.991	56.989	164.176	237.788	260.342	-46.998	224.269	66.372	0.790	176.203	0.0002192	0.00055055	0.00010958	120.3	3.7966e-06	5.1349e-06	236.43	56.08	3.2768e-06	2.2018e-06	119.4	51.842	25.203	12.894	2.9569e-06	25.781	0.0004715	0.00049721	0.0001369	135.28	5.3266e-06	5.3009e-06	242.34	59.703	5.2897e-06	5.3641e-06	124.28	52.124	26.694	13.277	5.2075e-06	25.744	-64.362	-13.119	74.588	-52.915	-23.428	-39.022	-54.336	-47.440	146.769	87.710	-51.248	-46.453	-44.128	-40.987	108.020	-44.116	-8191	255	
1975.655	1	1	0	0	0.067483	0.12278	0.06877	0.047663	0.16744	0.086067	0.11981	0.050705	0.17265	0.11746	0.13451	0.2201	0.19553	0.026914	0.18573	0.25572	-2.1917	-3.3583	-2.8833	-2.7562	-3.4938	-2.6958	-3.0854	-3.2479	-2.5833	-3.5625	-3.2146	-2.6729	-3.5563	-2.9292	-3.0979	-3.4729	-48.663	3.080	-42.471	92.544	-44.866	194.713	291.635	157.773	119.765	126.961	181.564	237.652	201.875	84.687	158.773	216.914	0.0001628	0.00014704	0.00015338	121.58	8.65e-06	6.3606e-06	237.33	57.348	6.163e-06	1.0766e-06	119.35	52.707	25.685	12.9	3.3363e-06	26.064	0.00045454	0.00046501	0.00013166	135.09	5.2018e-06	5.1217e-06	243.54	60.107	5.1202e-06	5.1688e-06	124.91	52.815	27.088	13.347	5.1195e-06	26.077	263.995	194.922	41.670	-52.560	188.163	-21.446	-54.315	-47.477	-47.356	97.594	-50.676	-47.361	-43.935	-41.696	284.174	-44.453	-8191	255	
1975.751	1	1	0	0	0.072607	0.12961	0.1081	0.057808	0.18786	0.22436	0.25889	0.026207	0.13815	0.10643	0.086847	0.22368	0.17192	0.14373	0.084588	0.20161	-2.1229	-3.4	-3.0938	-2.6146	-3.2333	-2.9292	-2.9875	-3.3896	-2.5375	-3.0604	-3.4062	-2.7146	-3.6	-2.9229	-2.9417	-3.5375	181.546	265.731	277.941	199.169	-2.097	-8.816	35.830	17.051	269.930	155.936	252.057	281.443	76.525	-37.098	41.266	249.596	0.00024492	6.1635e-05	0.00010986	123.17	6.9489e-06	3.9727e-06	239.41	57.042	4.1928e-06	3.4983e-06	120.76	52.957	25.624	13.138	4.4348e-06	26.641	0.00045165	0.00046238	0.00012876	136.25	5.1008e-06	5.0631e-06	245.3	60.609	5.0116e-06	5.1366e-06	126.62	53.354	27.266	13.505	5.1346e-06	26.394	273.270	289.710	67.121	-53.178	-18.917	78.797	-54.312	-47.181	194.831	59.157	-50.972	-47.351	-44.080	-41.152	60.713	-44.317	-8191	255	
1975.870	1	1	0	0	0.27809	0.16128	0.058139	0.079767	0.16496	0.14742	0.28134	0.042309	0.2688	0.16437	0.30354	0.21557	0.092002	0.079366	0.23113	0.0133	-2.2854	-3.0646	-3.1625	-2.4625	-3.2625	-2.8917	-2.7354	-3.6292	-2.8583	-3.1625	-3.5167	-2.6562	-3.4313	-3.075	-2.6167	-3.5229	67.914	107.745	165.535	-47.043	175.326	14.336	127.177	134.480	116.059	263.873	-44.971	-13.264	55.655	254.876	272.431	256.965	0.00010296	0.00055141	9.7485e-05	124.02	3.6576e-06	3.0302e-06	241.79	57.746	2.0269e-06	4.6646e-06	122.31	53.381	26.243	13.516	5.9814e-06	27.065	0.00046129	0.00048099	0.00013048	136.91	5.0831e-06	5.1483e-06	246.71	61.355	5.1016e-06	5.1109e-06	127.52	53.79	27.623	13.782	5.0383e-06	26.826	245.925	43.879	129.713	-52.169	119.507	113.657	-54.309	-47.389	259.369	135.519	-51.068	-47.117	-44.422	-40.638	126.810	-44.322	-8191	255	
1975.966	1	1	0	0	0.044863	0.10227	0.25912	0.1199	0.33449	0.24343	0.14412	0.17426	0.099795	0.1466	0.13594	0.21994	0.16038	0.13359	0.18424	0.12767	-2.2188	-3.0708	-3.3854	-2.7708	-3.4417	-3.175	-2.7396	-3.3604	-2.8333	-3.0021	-3.4167	-2.7687	-3.2083	-3.3667	-2.6458	-3.5229	49.444	173.480	103.094	263.836	-52.629	116.073	-44.456	289.276	81.133	126.046	180.089	154.094	287.487	239.045	30.894	228.348	0.00014732	0.00013121	5.5144e-05	125.04	2.9251e-06	1.9395e-06	241.79	59.949	3.6462e-06	4.5916e-06	124.75	54.324	26.929	13.621	4.4464e-06	27.455	0.00044427	0.00045282	0.00012674	137.43	5.0513e-06	4.9713e-06	247.7	62.241	5.0227e-06	4.9843e-06	129.41	54.443	28.143	14.027	4.9267e-06	27.249	-56.245	17.026	261.371	-51.965	12.039	118.909	-54.123	-46.784	112.553	102.527	-51.264	-47.076	-44.187	-40.524	175.446	-44.327	-8191	255	
1976.062	1	1	0	0	0.21666	0.21086	0.21414	0.072369	0.054074	0.13527	0.15926	0.15393	0.16741	0.06781	0.028555	0.21258	0.10668	0.10265	0.055789	0.15872	-2.5375	-2.7417	-3.3583	-2.8063	-3.2021	-3.3187	-2.6208	-3.575	-2.8167	-2.7396	-3.4604	-2.7333	-3.1437	-3.1833	-2.7333	-3.5042	79.902	134.271	142.007	168.989	250.813	192.819	-33.622	108.372	191.543	27.673	34.217	109.064	47.650	-19.733	7.495	264.079	0.00017116	0.00053728	0.00010172	127.57	6.7915e-06	4.8753e-06	245.32	60.199	2.5496e-06	2.4398e-06	125.6	55.207	26.805	13.984	2.2184e-06	27.705	0.00043604	0.00044659	0.000126	138.74	4.9533e-06	4.8808e-06	249.48	62.668	4.9131e-06	4.934e-06	130.51	55.124	28.218	14.265	4.9817e-06	27.618	248.819	8.498	225.528	-53.677	50.541	165.618	-54.592	-47.608	256.375	-51.555	-50.651	-47.197	-43.421	-40.955	290.263	-43.926	-8191	255	
1976.136	1	1	0	0	0.10137	0.052949	0.10987	0.054041	0.18364	0.07873	0.12557	0.17488	0.12614	0.14943	0.17527	0.026921	0.14081	0.21348	0.23401	0.14785	-2.6937	-2.8812	-3.375	-2.7625	-3.0354	-3.4437	-2.7375	-3.3792	-3.1021	-2.8833	-3.4729	-2.7667	-3.1063	-3.4667	-2.7458	-3.3104	236.891	214.253	232.454	20.411	-14.759	266.373	-20.019	256.002	255.143	85.098	160.786	211.655	217.897	147.463	120.205	26.325	0.00011204	0.00031697	8.3678e-05	127.69	4.5802e-06	5.2307e-06	247.03	61.229	3.0478e-06	5.3256e-06	126.5	55.087	27.178	14.186	3.495e-06	27.944	0.00043947	0.00045481	0.00012764	138.67	4.9923e-06	5.0251e-06	251.51	63.594	5.004e-06	4.979e-06	131.16	55.281	28.526	14.406	5.0969e-06	27.677	212.795	262.322	108.843	-53.004	95.672	153.097	-54.941	-47.146	139.668	19.897	-51.237	-47.456	-43.434	-40.777	83.827	-44.261	-8191	255	
1976.254	1	1	0	0	0.22495	0.14952	0.119	0.26994	0.11972	0.10433	0.14936	0.24443	0.19861	0.1067	0.20163	0.097028	0.18214	0.075023	0.155	0.12978	-2.8833	-2.7979	-3.4917	-2.8458	-2.8917	-3.4604	-2.6813	-3.3104	-3.0958	-2.7438	-3.4458	-2.8563	-2.8604	-3.4437	-2.7042	-3.3833	91.324	236.208	179.773	105.410	-27.638	86.672	221.009	264.585	98.757	171.698	-13.144	-24.436	153.708	-44.723	192.279	-37.515	0.00013194	0.0005814	0.00016217	126.28	1.0462e-06	9.1512e-06	245.98	60.218	4.1841e-06	3.0762e-06	125.49	55.231	26.715	14.064	4.6697e-06	27.854	0.00044945	0.00046721	0.00013064	139.1	5.0721e-06	5.195e-06	251.16	63.709	5.0658e-06	5.2617e-06	130.44	55.318	28.537	14.353	5.2564e-06	27.63	249.253	97.507	42.501	-53.052	61.604	60.788	-54.564	-47.444	186.595	22.939	-51.123	-46.890	-43.821	-40.674	277.269	-44.044	-8191	255	
1976.351	1	1	0	0	0.078438	0.16245	0.12263	0.17289	0.06299	0.15537	0.34552	0.12784	0.1052	0.038225	0.16423	0.26981	0.053554	0.3707	0.23661	0.11417	-2.9479	-2.7354	-3.2562	-2.9437	-2.7917	-3.5625	-2.6937	-3.1167	-3.3917	-2.5667	-3.4646	-3.025	-2.7542	-3.5167	-2.7438	-3.1167	16.450	231.258	-0.445	69.624	169.442	41.769	252.209	280.061	141.421	87.514	284.413	208.219	1.354	99.787	118.272	183.041	0.00014553	0.00067258	9.8664e-05	127.01	3.7511e-06	6.7878e-06	243.65	60.627	3.9931e-06	4.4795e-06	126.59	55.433	26.687	13.999	3.3769e-06	27.847	0.00047015	0.00049279	0.00013653	140.56	5.3817e-06	5.493e-06	251.28	64.007	5.4725e-06	5.4919e-06	131.78	55.615	28.755	14.395	5.5582e-06	27.678	-41.216	4.438	-38.587	-52.332	118.561	51.364	-53.668	-47.180	240.522	101.143	-51.150	-47.296	-43.873	-40.912	-10.247	-44.210	-8191	255	
1976.447	1	1	0	0	0.15277	0.27687	0.10806	0.26118	0.35852	0.38128	0.13938	0.112	0.22083	0.16339	0.1735	0.10516	0.065016	0.06492	0.18323	0.13887	-2.9979	-2.7417	-3.2438	-3.3	-2.6375	-3.5812	-2.8708	-3.0479	-3.0438	-2.7188	-3.2979	-3.1188	-2.5563	-3.4833	-2.8229	-2.8312	-50.016	265.486	290.079	198.187	135.289	87.207	18.366	60.725	98.895	111.612	-4.705	80.508	180.030	217.992	-27.156	-28.127	0.00017554	0.00029144	9.1571e-05	125.95	4.4316e-06	3.6815e-06	247.16	61.435	3.1647e-06	2.2721e-06	126.78	55.169	27.133	14.013	7.5408e-06	28.102	0.00048873	0.00050349	0.00014232	141.02	5.5384e-06	5.5818e-06	253	64.811	5.6016e-06	5.6593e-06	133.59	55.854	29.073	14.504	5.7063e-06	27.994	-60.006	47.355	196.836	-52.448	131.846	120.064	-54.548	-47.969	9.300	170.896	-50.599	-47.062	-44.049	-40.285	124.028	-43.955	-8191	255	
1976.567	1	1	0	0	0.028685	0.2452	0.19774	0.13988	0.060843	0.23522	0.11924	0.094341	0.10579	0.058739	0.4132	0.15545	0.15784	0.19011	0.19496	0.049942	-3.1208	-2.4583	-3.2521	-3.0625	-2.6458	-3.4917	-3.0104	-2.7917	-3.3812	-2.6583	-3.1646	-3.3771	-2.7375	-3.3688	-2.95	-2.875	276.514	-28.901	201.004	219.652	44.661	84.109	111.301	250.714	235.060	-7.757	228.048	139.771	-37.214	38.213	62.094	242.089	0.00015297	0.00038939	8.4953e-05	130.61	3.3306e-06	4.8199e-06	247.89	62.196	2.3731e-06	1.3892e-06	128.13	55.747	27.032	14.17	2.1148e-06	28.02	0.00050629	0.00052164	0.00014501	142.91	5.6235e-06	5.8244e-06	254.93	65.165	5.7945e-06	5.8286e-06	134.04	56.171	29.076	14.529	5.7733e-06	28.086	-41.190	198.236	110.803	-52.957	118.237	68.214	-53.817	-47.703	240.671	134.555	-51.429	-46.752	-42.732	-40.524	134.149	-43.801	-8191	255	
1976.664	1	1	0	0	0.070635	0.096264	0.32418	0.22445	0.12486	0.062665	0.19281	0.12703	0.11874	0.13833	0.072365	0.072653	0.24106	0.15388	0.12476	0.2248	-3.0375	-2.6354	-3.1146	-3.3854	-2.7354	-3.4083	-2.9562	-2.8583	-3.5146	-2.6813	-3.1354	-3.4	-2.6292	-3.3021	-3.1042	-2.6729	-12.678	162.047	71.425	176.796	-18.738	96.871	30.241	-41.998	-15.870	219.178	-44.100	240.538	154.142	-55.504	45.271	222.231	4.8139e-05	0.00049473	0.00017904	127.37	2.3608e-06	1.8429e-06	247.01	61.95	2.4822e-06	7.109e-06	125.48	55.037	27.256	14.257	6.7737e-06	27.883	0.00051449	0.00053807	0.00015009	143.82	5.8936e-06	5.8949e-06	255.12	65.232	5.8922e-06	5.9445e-06	132.91	55.843	29.292	14.613	5.9119e-06	27.965	-48.994	48.038	32.642	-52.354	35.459	-33.748	-54.398	-47.483	64.562	99.659	-50.585	-47.235	-43.760	-40.529	205.629	-44.579	-8191	255	
1976.735	1	1	0	0	0.13498	0.15115	0.13487	0.18615	0.069399	0.039857	0.082151	0.16811	0.05104	0.14608	0.013896	0.018365	0.054211	0.079278	0.16033	0.20216	-3.2938	-2.7396	-2.9125	-3.2833	-2.6333	-3.2354	-3.1542	-2.7604	-3.5458	-2.9271	-2.8417	-3.3458	-2.6583	-3.1083	-3.2229	-2.6375	262.232	-43.180	204.937	-26.364	-34.244	113.912	123.138	-15.547	274.754	90.621	122.442	91.040	-44.280	35.649	212.622	200.193	4.6319e-05	0.00080083	8.9723e-05	129.06	1.3065e-06	8.8395e-06	245.28	61.132	2.3311e-06	1.7763e-06	126.86	55.998	27.451	14.252	6.1898e-06	28.136	0.00052337	0.00054387	0.00014989	144.14	5.9685e-06	5.9615e-06	254.62	65.405	6.061e-06	6.0345e-06	134.48	56.31	29.36	14.771	5.9888e-06	28.154	232.453	143.291	30.781	-53.404	174.046	17.073	-53.756	-46.765	249.433	163.995	-50.937	-46.904	-43.429	-40.536	33.982	-44.259	-8191	255	
1976.856	1	1	0	0	0.14534	0.20666	0.087311	0.087802	0.44633	0.29156	0.074613	0.15052	0.041395	0.20326	0.23007	0.49568	0.14621	0.15441	0.18896	0.18037	-3.1208	-2.8042	-2.7417	-3.4625	-2.5604	-3.2125	-3.3146	-2.5167	-3.6396	-2.9917	-2.7125	-3.3042	-2.6896	-3.1375	-3.4062	-2.6625	199.601	184.723	281.525	173.045	-23.959	71.829	-26.901	184.132	135.163	156.765	152.976	110.379	-27.656	157.228	55.592	182.619	0.00016098	0.0006118	0.00011405	128.87	1.0781e-05	2.3414e-06	250.49	62.01	5.9822e-06	4.3221e-06	128.3	55.922	27.553	14.248	4.9672e-06	28.432	0.00053764	0.00055492	0.00015566	144.98	6.1398e-06	6.1343e-06	257.29	66.056	6.2425e-06	6.2364e-06	136.33	56.872	29.673	14.841	6.1774e-06	28.482	259.899	109.751	-31.135	-52.080	130.881	188.113	-54.369	-47.290	175.121	58.346	-50.193	-46.970	-43.775	-41.120	176.263	-43.765	-8191	255	
1976.950	1	1	0	0	0.07351	0.16935	0.10233	0.072647	0.21935	0.035362	0.22808	0.24536	0.2189	0.15058	0.31209	0.087139	0.093165	0.17426	0.11903	0.15225	-2.9083	-3.1271	-2.6542	-3.4125	-2.8771	-2.9708	-3.3063	-2.5917	-3.3458	-3.1333	-2.7333	-3.575	-2.9062	-3.0708	-3.4396	-2.8812	132.625	-18.968	-22.078	133.143	75.674	-28.532	210.751	211.215	81.489	226.314	247.597	176.216	85.876	112.642	81.335	172.161	8.0279e-05	0.00024836	0.00015152	129.56	1.4784e-06	8.4779e-06	250.43	62.618	6.9636e-07	5.6782e-06	128.8	56.473	28.028	14.389	6.6305e-06	28.189	0.00055126	0.00056221	0.00016084	146.31	6.2139e-06	6.2339e-06	258.82	66.471	6.2486e-06	6.3148e-06	136.9	57.188	29.971	14.958	6.314e-06	28.494	240.752	233.746	97.979	-53.044	208.377	-52.790	-54.261	-47.013	24.169	71.749	-51.153	-47.016	-43.519	-40.288	-16.837	-44.216	-8191	255	
1977.046	1	1	0	0	0.12613	0.061639	0.26824	0.12807	0.18334	0.02142	0.079025	0.044429	0.30673	0.17106	0.17426	0.19202	0.061259	0.22251	0.2406	0.25921	-2.9292	-3.3438	-2.6437	-3.3729	-2.7812	-2.7542	-3.3979	-2.6646	-3.3354	-3.1667	-2.6271	-3.5667	-2.9188	-2.8604	-3.3771	-2.8333	292.454	80.666	213.879	219.086	222.742	236.042	130.025	93.717	19.323	110.777	9.047	250.312	230.268	287.653	145.576	242.955	0.00023256	0.00054684	2.2396e-05	130.49	9.0359e-06	1.1881e-06	249.49	62.131	7.0817e-06	1.363e-06	127.84	56.322	27.69	14.585	5.2058e-06	28.2	0.00055798	0.00058409	0.00016378	146.87	6.3088e-06	6.468e-06	258.73	66.556	6.4425e-06	6.5053e-06	136.6	57.255	29.898	14.984	6.4975e-06	28.409	271.108	-30.826	61.780	-52.195	133.245	232.585	-54.400	-47.459	70.757	-5.794	-50.824	-46.428	-43.751	-40.434	-39.154	-44.225	-8191	255	
1977.167	1	1	0	0	0.10004	0.19559	0.12456	0.11756	0.3517	0.13827	0.089135	0.21264	0.1134	0.060918	0.27166	0.11293	0.31819	0.053565	0.1475	0.16233	-2.8729	-3.1458	-2.7542	-3.325	-2.9958	-2.6979	-3.5938	-2.7625	-3.1833	-3.3083	-2.6771	-3.3375	-3.0687	-2.7125	-3.5375	-2.7146	119.029	53.333	79.591	-61.127	214.813	202.601	271.326	177.946	-38.796	-30.022	40.378	234.190	104.712	171.031	-33.725	256.484	0.00012508	0.00057659	0.00011181	130.25	1.0214e-05	2.3846e-06	249.12	62.066	3.863e-06	1.1515e-06	128.11	56.352	27.654	14.235	2.5231e-06	27.946	0.00056927	0.00059898	0.0001672	147.77	6.465e-06	6.5843e-06	257.98	66.652	6.5052e-06	6.6264e-06	136.26	57.139	29.883	14.887	6.6599e-06	28.29	294.084	56.696	106.302	-53.128	17.417	126.378	-53.993	-47.384	294.030	241.137	-51.068	-46.725	-43.926	-41.038	65.895	-44.331	-8191	255	
1977.263	1	1	0	0	0.090442	0.10117	0.079869	0.1342	0.14051	0.13141	0.20082	0.12823	0.078512	0.15367	0.19142	0.15586	0.17759	0.16961	0.22487	0.25614	-2.6583	-3.3146	-2.5833	-3.3021	-3.0083	-2.6937	-3.5417	-2.725	-2.9771	-3.3583	-2.6625	-3.2687	-3.2958	-2.7375	-3.5375	-3.0292	-18.322	-59.460	8.178	-43.538	205.438	169.693	292.778	67.905	127.841	120.226	239.384	-22.336	6.420	54.893	31.001	285.212	3.9318e-05	0.00045533	9.9637e-05	129.86	9.7689e-06	8.6899e-06	250.2	62.212	3.6326e-06	3.1432e-06	128.71	56.724	27.453	14.225	4.0371e-06	27.988	0.00059022	0.00060889	0.00016791	147.89	6.6821e-06	6.7411e-06	259.5	66.866	6.6048e-06	6.7993e-06	137.69	57.382	29.965	14.793	6.8548e-06	28.307	267.616	-62.408	120.484	-52.783	203.774	130.673	-53.632	-48.175	-63.889	135.460	-51.630	-47.534	-44.726	-40.986	1.900	-44.643	-8191	255	
1977.359	1	1	0	0	0.17353	0.051552	0.081861	0.15998	0.078373	0.022955	0.078819	0.0069756	0.052948	0.19332	0.056409	0.24363	0.13575	0.04699	0.15366	0.26257	-2.5875	-3.2896	-2.7208	-3.0625	-3.2062	-2.6479	-3.5083	-3.0667	-2.7604	-3.4917	-2.8333	-3.0062	-3.1937	-2.5521	-3.5375	-3.1063	139.589	140.788	151.793	224.366	-64.193	152.386	72.343	165.104	21.584	31.390	122.073	-57.943	-36.034	218.901	38.368	63.411	0.00017175	0.00012988	0.00011953	129.16	3.9315e-06	7.2132e-06	249.29	61.377	9.6794e-07	6.243e-06	125.56	55.546	27.175	13.85	2.7178e-06	27.717	0.00059427	0.00062044	0.000174	147.59	6.7728e-06	6.8002e-06	259.31	66.197	6.785e-06	6.8913e-06	136.07	56.649	29.5	14.618	6.8135e-06	27.964	-60.892	63.156	37.665	-53.586	82.496	-16.362	-54.866	-47.768	206.058	94.730	-51.791	-47.177	-44.560	-41.278	50.087	-44.569	-8191	255	
1977.431	1	1	0	0	0.17357	0.16291	0.32045	0.10807	0.19263	0.21633	0.10307	0.12888	0.15913	0.22559	0.2342	0.16291	0.21819	0.078546	0.1194	0.13136	-2.3812	-3.4938	-2.7104	-2.9625	-3.075	-2.6396	-3.4979	-3.0875	-2.7354	-3.3937	-2.675	-3.0521	-3.3688	-2.7104	-3.175	-2.9771	-16.765	72.154	45.988	215.695	223.288	-63.977	17.689	46.171	52.765	159.585	98.275	87.189	-62.955	259.555	233.748	26.913	0.00016581	0.00046805	0.00013249	127.32	8.64e-06	1.5519e-06	246.43	60.069	4.6436e-06	6.3989e-06	125.63	54.565	26.557	13.783	2.2366e-06	27.273	0.00059265	0.00062189	0.00017124	146.28	6.7566e-06	6.8065e-06	256.46	65.198	6.7762e-06	6.7331e-06	134.01	55.712	29.104	14.405	6.8123e-06	27.546	264.232	293.402	77.957	-52.738	108.539	37.411	-54.388	-47.789	9.897	128.660	-51.589	-47.893	-43.796	-41.667	81.635	-44.536	-8191	255	
1977.552	1	1	0	0	0.11391	0.19942	0.15261	0.23101	0.099584	0.091732	0.11459	0.33275	0.17401	0.031503	0.18125	0.31562	0.1428	0.069833	0.099129	0.03431	-2.2562	-3.5271	-2.725	-2.9396	-3.2625	-2.6729	-3.225	-3.1125	-2.8354	-3.4062	-2.775	-2.95	-3.1875	-2.6646	-3.05	-3.0958	41.882	147.677	-26.586	228.190	-35.384	238.103	204.702	231.146	8.959	63.892	187.561	211.231	171.571	-58.956	266.987	45.389	8.3249e-06	0.001237	0.00010475	126.58	1.5185e-05	3.6758e-06	245.46	59.764	1.9967e-06	1.2977e-06	121.86	54.069	26.77	13.569	3.6994e-06	26.923	0.00060169	0.00061616	0.00017069	145.97	6.8354e-06	6.8393e-06	255.33	64.762	6.9293e-06	6.9479e-06	133.51	55.312	29.017	14.312	6.9964e-06	27.304	100.933	-54.387	-51.721	-53.416	-12.842	25.892	-54.482	-47.469	104.559	68.296	-50.930	-47.109	-44.382	-40.873	180.457	-44.635	-8191	255	
1977.648	1	1	0	0	0.037328	0.097088	0.28699	0.27205	0.22852	0.21235	0.22837	0.094233	0.18537	0.034457	0.014045	0.11007	0.13052	0.30458	0.0023201	0.093265	-2.1792	-3.4583	-2.9521	-2.7521	-3.3542	-2.9167	-3.2521	-3.2792	-2.7146	-3.3333	-3.075	-2.6354	-3.5458	-2.8229	-2.8063	-3.4354	288.404	274.926	160.156	-31.748	149.053	181.817	274.255	88.675	197.600	-53.523	-20.347	211.588	229.430	293.204	282.064	291.302	0.00013617	0.00030662	0.00012792	124.81	6.3475e-06	6.1424e-06	244.02	59.525	1e-05	3.4838e-06	124.6	54.097	26.45	13.653	5.2359e-06	27.095	0.00061339	0.00065169	0.00017853	145.73	6.9812e-06	7.1376e-06	257.03	64.958	7.0489e-06	7.1687e-06	135.14	55.553	29.166	14.338	7.1135e-06	27.565	292.558	233.961	-57.009	-53.951	110.738	103.600	-54.188	-47.511	-56.731	220.282	-51.148	-47.595	-44.086	-41.006	221.695	-45.272	-8191	255	
1977.744	1	1	0	0	0.13903	0.06107	0.12471	0.17899	0.10765	0.19473	0.098952	0.11818	0.19153	0.16461	0.060395	0.10101	0.15978	0.094608	0.12276	0.14199	-2.3396	-3.1667	-2.9437	-2.6979	-3.4625	-2.9271	-2.9125	-3.2062	-2.7542	-3.2812	-3.1396	-2.5375	-3.2708	-2.8458	-2.7896	-3.5812	5.336	-2.910	19.713	279.089	163.570	191.235	74.802	213.187	144.418	120.895	209.157	199.478	79.694	150.095	-48.138	195.932	8.0581e-05	0.00077245	9.056e-05	127.31	4.7996e-06	3.423e-06	247.99	59.32	2.6516e-06	9.3646e-07	127.02	54.029	26.491	13.499	7.7438e-06	26.752	0.00063745	0.00066673	0.00018408	147.3	7.2178e-06	7.4101e-06	257.32	65.528	7.3524e-06	7.3172e-06	135.51	55.653	29.165	14.297	7.3465e-06	27.37	-55.797	27.140	241.563	-54.033	109.421	-25.106	-54.913	-48.282	268.925	41.594	-51.164	-47.080	-44.076	-40.669	139.177	-44.834	-8191	255	
1977.840	1	1	0	0	0.18325	0.23213	0.25706	0.12529	0.16285	0.032991	0.13973	0.20185	0.12184	0.092759	0.048396	0.12875	0.25507	0.18933	0.10709	0.070657	-2.2396	-3.2354	-3.1708	-2.4875	-3.4188	-3.0187	-2.7917	-3.2917	-2.6125	-3.2875	-3.1146	-2.5583	-3.3854	-2.8979	-2.6625	-3.4938	9.518	185.617	-48.601	17.504	180.632	263.292	35.920	57.070	211.078	244.267	100.847	254.013	80.650	293.726	146.417	265.926	0.00013316	0.00077847	0.0001797	125.18	1.8754e-06	4.6226e-06	246.03	59.73	3.0661e-06	2.2598e-06	123.43	54.336	25.919	13.474	2.4442e-06	26.497	0.00064658	0.0006724	0.0001874	146.45	7.3124e-06	7.2979e-06	256.64	65.51	7.4233e-06	7.3526e-06	134.36	55.287	29.066	14.212	7.3692e-06	27.174	1.238	127.987	0.218	-52.479	-39.277	187.873	-54.183	-47.691	167.386	68.286	-51.382	-47.198	-43.936	-41.009	155.459	-44.257	-8191	255	
1977.959	1	1	0	0	0.2664	0.044522	0.078347	0.12425	0.15039	0.025885	0.13093	0.093507	0.10655	0.093021	0.37968	0.13577	0.15146	0.16229	0.29044	0.18426	-2.1917	-3.1771	-3.3	-2.6875	-3.3187	-3.1917	-2.6979	-3.4333	-2.6188	-3.1479	-3.4167	-2.5604	-3.3729	-3.125	-2.6229	-3.4375	-50.834	77.645	290.462	155.383	-33.617	-57.216	213.362	192.935	-34.285	168.221	223.160	0.169	263.498	-54.757	-54.685	270.696	2.1918e-05	0.00077241	0.00018075	125.47	7.1757e-06	8.855e-06	243.09	58.468	1.1174e-05	1.3009e-06	123.48	53.269	26.184	13.357	2.005e-06	26.42	0.00063758	0.00066005	0.00018403	146.3	7.1326e-06	7.1922e-06	253.78	64.345	7.0858e-06	7.2682e-06	133.55	54.767	28.754	14.067	7.2845e-06	26.944	279.359	128.177	119.562	-54.423	212.410	17.068	-54.388	-48.596	145.144	-53.320	-51.281	-47.508	-44.124	-40.974	120.117	-44.911	-8191	255	
1978.031	1	1	0	0	0.4156	0.30074	0.17764	0.17087	0.23063	0.19884	0.12889	0.14897	0.21911	0.040862	0.19843	0.069687	0.17322	0.090728	0.057731	0.1559	-2.5229	-3.0812	-3.3917	-2.6354	-3.2354	-3.1813	-2.6562	-3.3604	-2.9604	-2.9562	-3.5375	-2.8292	-3.2021	-3.1667	-2.6042	-3.4771	43.182	-35.706	-12.156	122.903	217.831	125.610	-20.425	-42.154	-45.494	55.411	19.295	210.876	243.926	148.349	19.614	193.843	0.00012752	0.0004255	0.00018058	122.86	5.1473e-06	4.0235e-06	241.29	58.178	4.9411e-06	1.6728e-07	121.75	53.617	25.835	13.38	7.4318e-06	26.544	0.00063249	0.00065718	0.00018269	145.31	7.0766e-06	7.1196e-06	253.89	64.14	7.0875e-06	7.2896e-06	133.07	54.949	28.651	14.067	7.1312e-06	27.069	-40.424	109.187	194.194	-53.706	-3.436	-26.996	-55.328	-47.833	241.160	263.108	-51.858	-47.610	-44.748	-40.809	175.878	-44.642	-8191	255	
1978.128	1	1	0	0	0.13245	0.3495	0.096205	0.073591	0.26863	0.30327	0.13695	0.21618	0.091298	0.18214	0.23518	0.17265	0.20006	0.10328	0.0090547	0.27835	-2.3854	-2.6792	-3.4042	-2.7854	-3.1625	-3.3646	-2.6688	-3.4229	-3.0292	-2.6792	-3.5604	-2.7271	-3.1833	-3.4146	-2.4562	-3.3854	276.314	117.834	184.356	-18.335	237.720	15.815	127.716	268.339	41.509	88.346	-36.152	-9.131	-1.372	77.538	-13.323	231.566	0.00014602	0.00054456	0.00020527	124.98	1.1169e-05	1.48e-05	242.07	58.791	2.1625e-06	5.6744e-07	122.83	53.353	25.817	13.237	5.3703e-06	26.555	0.00062413	0.00065174	0.00018142	144.75	7.1196e-06	7.0484e-06	253.99	64.364	7.0479e-06	7.1572e-06	133.19	54.855	28.572	14.037	7.0748e-06	27.041	293.331	80.071	29.213	-53.132	110.601	113.934	-55.056	-48.300	121.659	109.790	-50.972	-47.296	-44.810	-41.428	131.682	-44.868	-8191	255	
1978.247	1	1	0	0	0.20125	0.26052	0.17882	0.093579	0.073001	0.18339	0.070418	0.26526	0.10173	0.043002	0.075747	0.055207	0.18127	0.048346	0.25281	0.32814	-2.7021	-2.6104	-3.4271	-2.8563	-2.9521	-3.3708	-2.5917	-3.4771	-3.1208	-2.6417	-3.55	-2.7354	-2.8771	-3.4604	-2.6979	-3.3063	204.427	-58.919	231.550	266.992	-36.429	122.087	280.224	205.072	110.165	161.091	268.541	242.009	-14.221	39.384	52.131	240.578	0.00012975	0.00030484	0.00020235	124.47	4.0752e-06	1.4379e-05	241.81	58.669	2.5277e-06	4.6277e-06	121.53	52.893	25.856	13.298	6.0544e-06	26.595	0.00061488	0.00065409	0.00018089	144.28	7.0251e-06	7.1089e-06	253.82	64.188	7.1191e-06	7.1102e-06	132.24	54.582	28.494	14.044	7.0809e-06	26.966	-43.924	2.491	80.968	-52.780	222.587	68.853	-54.347	-47.139	196.571	157.168	-51.718	-47.497	-43.439	-40.998	40.675	-44.382	-8191	255	
1978.344	1	1	0	0	0.098011	0.097991	0.068951	0.1919	0.13246	0.11849	0.10638	0.16322	0.15705	0.22509	0.083527	0.09553	0.13217	0.054198	0.10879	0.17673	-2.7083	-2.7021	-3.3458	-2.7792	-2.9042	-3.4375	-2.475	-3.1771	-3.2292	-2.6937	-3.3417	-2.9604	-2.875	-3.5667	-2.6937	-3.0708	192.643	-37.914	148.756	95.728	182.115	180.206	259.964	254.023	57.812	287.694	23.946	67.250	266.103	146.756	268.929	66.637	0.0001447	0.00074683	0.00015565	125.01	6.0151e-06	1.3773e-06	241.02	58.155	4.7785e-06	7.2023e-06	120.93	53.255	25.55	13.324	5.4311e-06	26.642	0.00061805	0.0006396	0.00018012	144.2	7.0951e-06	7.0301e-06	252.93	63.753	7.0575e-06	7.1209e-06	132.06	54.59	28.455	14.007	6.8912e-06	27.032	274.846	79.774	128.669	-53.893	87.190	194.787	-54.914	-47.262	10.993	73.875	-50.903	-47.502	-44.740	-41.438	175.843	-44.972	-8191	255	
1978.440	1	1	0	0	0.087877	0.27056	0.071472	0.049516	0.15168	0.073166	0.21716	0.41438	0.094005	0.20954	0.085592	0.32404	0.21841	0.058147	0.18371	0.13971	-2.8917	-2.7	-3.3812	-2.9646	-2.6437	-3.5896	-2.6104	-3.1458	-3.4479	-2.7042	-3.3146	-3.1229	-2.6937	-3.4437	-2.7208	-3.0312	265.539	122.090	4.193	72.766	49.708	262.634	197.786	149.428	64.328	94.581	225.720	-46.894	256.284	200.717	64.389	171.998	0.00022078	0.00030766	8.9932e-05	124.5	2.638e-06	6.9881e-07	243.7	58.028	5.4927e-06	2.8889e-06	122.5	54.175	26.058	13.321	4.8351e-06	26.829	0.00061302	0.0006419	0.00017566	143.65	6.9351e-06	6.852e-06	253.02	63.998	6.8463e-06	6.9198e-06	132.68	54.988	28.58	14.081	6.7169e-06	27.246	-13.301	274.065	40.534	-53.269	6.973	232.010	-54.468	-47.866	-43.004	98.742	-51.967	-48.089	-43.795	-40.896	252.267	-44.601	-8191	255	
1978.536	1	1	0	0	0.24484	0.079971	0.057681	0.1399	0.14692	0.19353	0.088593	0.13448	0.17623	0.12034	0.028213	0.17257	0.11365	0.10503	0.2619	0.16582	-3.0146	-2.5896	-3.3208	-3.2313	-2.7125	-3.4667	-3.0104	-3.0042	-3.35	-2.7104	-3.1396	-3.2104	-2.6688	-3.3458	-2.7854	-3.0625	68.215	35.105	289.647	228.832	28.726	170.428	262.197	13.118	-11.283	46.768	7.266	245.568	35.048	-58.516	266.739	188.748	0.00022328	0.0003819	0.00011641	121.55	1.3405e-05	7.9223e-06	243.56	59.191	2.4904e-06	3.1408e-06	124.2	53.955	26.077	13.438	7.5678e-06	26.979	0.00058853	0.00061005	0.00017188	142.75	6.7451e-06	6.7294e-06	253.1	64.414	6.495e-06	6.5916e-06	132.94	54.966	28.623	14.14	6.6005e-06	27.217	267.278	142.256	5.721	-53.259	30.695	196.869	-54.526	-48.344	158.320	-2.788	-51.570	-48.080	-44.668	-41.506	254.048	-44.614	-8191	255	
1978.632	1	1	0	0	0.13168	0.16337	0.16431	0.14208	0.083303	0.17626	0.23619	0.033361	0.16142	0.17046	0.17978	0.3729	0.10433	0.31814	0.068572	0.10112	-3.0979	-2.5729	-3.3917	-3.075	-2.7729	-3.4729	-2.7458	-2.6771	-3.4292	-2.6708	-3.1437	-3.4188	-2.8396	-3.2917	-3.0333	-2.9688	34.707	42.445	159.709	-62.491	204.769	-63.912	3.903	273.139	120.610	34.064	255.577	270.077	-11.331	23.498	229.897	-19.806	0.0001496	0.00069545	0.00011296	123.73	6.8784e-06	3.081e-06	241.84	58.349	4.9599e-06	5.6024e-06	123.61	53.454	25.731	13.345	2.5628e-06	26.725	0.00058327	0.00059852	0.00016732	143.06	6.5501e-06	6.6347e-06	252.27	63.355	6.5445e-06	6.6147e-06	132.3	54.381	28.172	14.03	6.6201e-06	27.002	-48.092	111.580	-11.591	-53.770	197.955	215.631	-55.009	-48.013	42.698	21.454	-51.740	-47.753	-44.085	-41.451	-3.461	-44.832	-8191	255	
1978.728	1	1	0	0	0.15493	0.065325	0.24097	0.3055	0.23453	0.092795	0.28136	0.097873	0.10627	0.23198	0.097018	0.10859	0.095112	0.14914	0.11717	0.32665	-3.1354	-2.6354	-3.0687	-3.3021	-2.5458	-3.2771	-3.2896	-2.6	-3.4896	-2.7646	-2.9708	-3.6604	-2.5375	-3.3271	-3.0521	-2.7479	263.531	183.468	85.003	39.892	237.197	81.197	52.702	134.293	-11.596	265.944	-19.936	172.087	137.331	111.181	120.112	159.362	0.00013323	0.0005972	0.00010717	123.95	5.8363e-06	6.306e-06	240.96	58.269	5.7409e-06	9.0784e-06	121.1	53.423	25.685	13.158	3.4731e-06	26.615	0.00058261	0.00061277	0.00016752	143.05	6.6009e-06	6.5817e-06	251.64	63.487	6.5267e-06	6.604e-06	131.41	54.331	28.211	13.98	6.6114e-06	26.876	284.848	-43.157	173.208	-53.185	-24.468	52.692	-54.429	-47.774	173.045	185.700	-51.152	-47.686	-44.627	-41.242	-62.903	-44.370	-8191	255	
1978.849	1	1	0	0	0.10498	0.15458	0.13587	0.094693	0.23812	0.11931	0.067165	0.13104	0.15317	0.13164	0.2458	0.16318	0.23403	0.23854	0.31652	0.1436	-2.8646	-2.8271	-2.7	-3.3604	-2.5875	-3.1708	-3.0938	-2.6771	-3.4479	-2.8729	-2.8208	-3.55	-2.6354	-3.2208	-3.2979	-2.6854	264.996	262.586	-53.344	-26.769	244.900	105.218	167.822	250.710	143.067	-26.045	0.566	265.638	-0.441	16.113	145.001	178.786	4.7638e-05	0.0005827	0.00010998	122.39	5.2103e-06	7.566e-06	241.15	58.634	6.2768e-06	5.22e-06	122.68	52.856	25.937	13.345	3.7484e-06	26.685	0.00058715	0.00060956	0.00016904	142.63	6.6694e-06	6.7952e-06	251.68	63.604	6.7352e-06	6.8074e-06	132.64	54.433	28.5	14.005	6.7349e-06	27.054	121.570	-16.007	-47.362	-54.124	-52.041	163.091	-55.186	-47.429	75.533	258.748	-51.463	-47.370	-45.191	-40.994	242.835	-44.510	-8191	255	
1978.945	1	1	0	0	0.106	0.30306	0.19392	0.074158	0.14349	0.12789	0.11645	0.21215	0.26762	0.14077	0.21176	0.096352	0.1387	0.1251	0.025136	0.20558	-3.0187	-2.9917	-2.9688	-3.4792	-2.8083	-3.0833	-3.425	-2.5833	-3.3521	-3.0104	-2.7708	-3.5187	-2.6667	-3.0958	-3.2104	-2.6021	-44.053	94.294	148.979	12.848	239.598	262.678	29.265	255.088	-63.982	141.148	-43.179	190.449	207.973	179.162	133.527	260.398	0.00010137	0.00058982	0.00014475	123.71	1.1285e-06	7.6065e-06	242.06	58.688	9.0659e-06	7.4928e-06	123.35	53.719	26.104	13.464	2.9207e-06	26.763	0.00059509	0.00061918	0.0001743	143.83	6.7703e-06	6.8303e-06	252	63.855	6.7534e-06	6.8343e-06	132.56	54.987	28.619	14.066	6.8766e-06	27.033	254.581	-30.389	-39.347	-53.428	99.948	12.824	-54.899	-47.737	44.055	77.672	-51.273	-47.631	-44.885	-41.636	218.699	-45.218	-8191	255	
1979.039	1	1	0	0	0.19864	0.11419	0.055352	0.20565	0.2117	0.2226	0.064359	0.34977	0.24175	0.11177	0.014479	0.13218	0.18954	0.17856	0.073749	0.16409	-2.7667	-3.0729	-2.5146	-3.4208	-2.8688	-2.9583	-3.4417	-2.5458	-3.1896	-3.2875	-2.7021	-3.5417	-2.9646	-3.05	-3.4688	-2.6292	-4.307	274.280	248.696	241.197	264.944	107.957	284.466	183.163	209.743	73.387	236.721	257.368	169.775	-5.776	151.311	247.598	6.4874e-05	0.00021486	0.00015052	123.63	5.5047e-06	3.8108e-06	242.29	58.901	3.9878e-06	1.6015e-06	121.91	52.955	25.505	13.124	4.9207e-06	26.5	0.00060308	0.00062487	0.0001741	143.09	6.7824e-06	6.8592e-06	251.68	63.78	6.7579e-06	6.814e-06	131.53	54.228	28.186	13.869	6.7413e-06	26.754	277.784	0.946	30.219	-53.200	87.349	109.925	-54.229	-47.554	115.737	157.412	-52.021	-47.214	-44.812	-40.926	129.970	-44.410	-8191	255	
1979.135	1	1	0	0	0.2173	0.26871	0.092595	0.23055	0.23842	0.080312	0.025544	0.30603	0.092468	0.22576	0.22849	0.15977	0.19604	0.27058	0.064206	0.26537	-2.8333	-3.0312	-2.6542	-3.4833	-2.9313	-2.9583	-3.3979	-2.5708	-3.2188	-3.3271	-2.7583	-3.4292	-3.0854	-2.7292	-3.5875	-2.7208	71.533	279.950	61.014	126.198	256.377	233.881	64.905	7.573	72.802	74.407	-26.647	173.354	121.670	286.069	105.793	139.577	0.00017461	0.00038962	6.1299e-05	121.62	6.7083e-06	4.4432e-06	238.32	58.3	1.9842e-06	4.6703e-06	121.61	53.145	25.762	13.263	4.8514e-06	26.181	0.00059684	0.00061812	0.00017341	142.24	6.8709e-06	7.0503e-06	250.91	63.365	6.9672e-06	7.0138e-06	131.69	54.263	28.329	13.967	7.0621e-06	26.697	-35.086	148.096	-38.944	-52.704	126.049	34.144	-54.703	-48.200	156.775	73.463	-50.799	-47.573	-44.011	-40.616	-8.236	-45.458	-8191	255	
1979.256	1	1	0	0	0.16462	0.10202	0.14318	0.059979	0.21903	0.46848	0.22594	0.15218	0.11335	0.10343	0.059148	0.13085	0.29306	0.12487	0.072423	0.31726	-2.7125	-3.3104	-2.6292	-3.3063	-3.0917	-2.7812	-3.5667	-2.9646	-3.2021	-3.3688	-2.6125	-3.3021	-3.1167	-2.5896	-3.4479	-2.9188	236.839	118.500	45.101	-52.895	170.884	-33.014	-43.178	211.961	250.376	-2.404	80.634	14.259	-2.194	-15.494	197.026	213.165	0.00025566	0.00034499	7.4464e-05	122.76	6.3208e-06	3.5578e-06	241.08	58.137	4.9454e-06	8.7967e-06	121.08	52.907	25.731	13.22	4.5809e-06	26.353	0.00061549	0.00065213	0.00018133	143.18	7.0597e-06	7.1806e-06	251.97	63.685	7.1092e-06	7.2319e-06	131.68	54.546	28.354	13.973	7.2535e-06	26.929	276.267	-27.154	41.667	-53.424	128.222	270.157	-54.161	-47.958	221.330	100.627	-51.011	-47.081	-44.460	-41.010	-64.787	-44.988	-8191	255	
1979.328	1	1	0	0	0.20939	0.31654	0.15722	0.14241	0.13233	0.15512	0.11804	0.038626	0.074202	0.14012	0.094101	0.088247	0.36089	0.20199	0.069905	0.1674	-2.4979	-3.4167	-2.5104	-3.2083	-3.2021	-2.6104	-3.2021	-3.0062	-2.7542	-3.5167	-2.6042	-3.2562	-3.2812	-2.575	-3.425	-2.8937	233.093	55.903	222.001	199.799	106.051	289.793	286.360	-59.700	264.274	222.263	182.460	101.319	217.695	72.923	-9.022	206.758	0.00023898	0.00034312	0.00024035	123.13	2.8803e-06	4.7483e-06	239.42	58.347	7.0954e-06	1.2125e-06	122.81	52.846	26.139	13.082	3.1589e-06	26.557	0.00064081	0.00066285	0.00018457	145.33	7.3187e-06	7.2298e-06	253.03	64.054	7.3768e-06	7.4203e-06	133.69	54.703	28.753	14.018	7.3093e-06	26.987	249.730	40.061	230.472	-52.236	-30.700	288.188	-54.469	-48.446	18.878	78.465	-51.498	-47.128	-44.962	-41.434	137.291	-45.017	-8191	255	
1979.424	1	1	0	0	0.15371	0.096175	0.25499	0.057622	0.1491	0.090247	0.2601	0.14982	0.31507	0.14464	0.20224	0.22556	0.13017	0.12983	0.19965	0.18273	-2.5125	-3.4521	-2.7292	-3.1396	-3.3354	-2.6667	-3.4562	-3.0917	-2.6833	-3.5083	-2.7083	-3.1437	-3.4875	-2.75	-3.3583	-3.1458	47.183	196.589	155.362	97.156	188.089	65.600	202.445	-7.414	205.866	262.132	254.502	222.201	162.223	251.333	137.139	243.098	0.00021009	0.00020074	0.00015664	122.23	1.6933e-05	6.84e-06	239.14	57.863	5.8455e-06	5.2871e-06	122.23	52.735	25.596	13.205	1.2068e-05	26.261	0.00065048	0.00066916	0.00018606	144.63	7.309e-06	7.3433e-06	252.74	63.994	7.3785e-06	7.5169e-06	132.65	54.554	28.578	13.999	7.5056e-06	26.831	274.026	17.677	48.015	-52.792	40.951	166.064	-54.452	-48.202	271.307	155.511	-51.516	-47.562	-44.705	-41.110	107.100	-45.202	-8191	255	
1979.520	1	1	0	0	0.20226	0.084635	0.11647	0.19904	0.18124	0.083677	0.029007	0.12315	0.11656	0.081924	0.21183	0.24715	0.18748	0.047438	0.21327	0.05089	-2.3042	-3.5062	-2.7646	-2.7313	-3.4104	-2.6458	-3.2458	-2.9583	-2.5458	-3.3208	-2.9646	-2.7917	-3.7125	-2.6229	-3.2125	-3.2271	272.870	279.420	228.216	221.274	101.934	124.616	227.375	278.394	153.619	9.724	-14.288	260.072	191.557	270.183	62.907	67.859	0.00014997	0.00083352	0.00020872	120.69	5.226e-06	4.6027e-06	239.73	57.523	5.67e-06	2.1763e-06	120.52	52.936	25.205	13.17	6.9345e-06	26.519	0.00066569	0.00069077	0.00019323	144.12	7.6263e-06	7.5344e-06	252.37	63.974	7.5781e-06	7.7503e-06	133.15	54.688	28.488	14.013	7.6687e-06	27.078	265.611	72.407	143.470	-52.601	175.169	108.697	-54.813	-47.866	103.821	169.644	-50.456	-47.153	-44.774	-40.932	65.801	-44.728	-8191	255	
1979.641	1	1	0	0	0.20898	0.07874	0.12212	0.081451	0.12067	0.078983	0.17944	0.18061	0.050075	0.19331	0.13168	0.12387	0.27968	0.059834	0.10628	0.088661	-2.0708	-3.4771	-2.7792	-2.9583	-3.4542	-2.8063	-3.2771	-3.2542	-2.7	-3.4167	-2.9125	-2.9	-3.6042	-2.7125	-3.1479	-3.3812	199.510	-6.179	266.092	-43.332	260.355	198.871	182.434	221.786	183.994	-46.159	261.389	148.573	255.535	45.525	206.130	230.387	0.00020203	0.00015551	7.1996e-05	123.24	3.9101e-06	1.979e-06	240.11	57.725	4.7999e-06	2.7898e-06	122.25	53.237	25.467	13.314	7.6557e-06	26.612	0.00068628	0.0007126	0.00019721	146.18	7.8606e-06	7.779e-06	254.26	64.456	7.8538e-06	7.9168e-06	134.53	55.062	28.802	14.108	7.8946e-06	27.142	228.190	-63.947	17.526	-53.909	84.295	94.658	-53.798	-47.932	173.336	-43.736	-51.685	-47.935	-44.177	-41.016	140.474	-44.441	-8191	255	
1979.735	1	1	0	0	0.023732	0.16845	0.078427	0.15102	0.061525	0.12514	0.031774	0.17738	0.18709	0.15435	0.15869	0.11165	0.13299	0.19407	0.25847	0.12049	-2.4292	-3.3208	-2.8937	-2.8271	-3.7667	-2.675	-3.0979	-3.3417	-2.5521	-3.25	-3.0854	-2.7354	-3.6729	-2.7292	-2.7521	-3.4458	65.554	27.721	71.834	230.052	217.621	1.339	212.148	110.388	76.890	135.593	219.915	147.381	244.582	157.104	67.007	110.332	4.3813e-05	0.00067015	0.00019074	121.57	9.0921e-06	1.8839e-06	240.53	58.537	6.9892e-06	4.9723e-06	122.75	53.354	25.637	13.061	2.7222e-06	26.592	0.00068612	0.00071925	0.00019842	146.07	7.8156e-06	7.8134e-06	255.74	64.707	7.6715e-06	7.7724e-06	134.72	55.171	28.825	14.058	7.7435e-06	27.149	-49.562	-6.822	-20.393	-53.978	201.702	98.642	-54.598	-47.873	189.624	181.281	-51.024	-47.468	-44.275	-40.902	174.461	-44.372	-8191	255	
1979.831	1	1	0	0	0.28303	0.31314	0.24564	0.072834	0.22324	0.28975	0.097908	0.20548	0.13629	0.15828	0.2403	0.21956	0.25292	0.207	0.09461	0.25529	-2.3979	-3.1854	-3.1021	-2.6521	-3.5625	-2.9583	-2.7	-3.3458	-2.7792	-3.2062	-3.2833	-2.6292	-3.5167	-2.7812	-2.7542	-3.6417	-25.350	207.816	235.364	269.996	208.128	106.634	5.003	209.067	38.385	220.827	243.173	195.822	173.647	193.089	273.553	245.617	0.00017926	0.0004959	0.00017957	122	8.0784e-06	3.1666e-06	242.52	57.998	1.0059e-05	4.3981e-06	121.18	53.378	25.669	13.271	2.43e-06	26.546	0.00067325	0.00071243	0.00019657	145.36	7.6818e-06	7.6313e-06	254.66	64.492	7.6402e-06	7.791e-06	133.02	55.101	28.742	14.061	7.6865e-06	27.046	259.349	-15.851	2.312	-52.494	124.728	281.743	-54.732	-48.244	92.322	166.972	-51.694	-47.446	-44.532	-41.196	26.810	-44.425	-8191	255	
1979.929	1	1	0	0	0.063829	0.20285	0.05375	0.3151	0.16699	0.1897	0.22537	0.25427	0.10903	0.11831	0.049809	0.19445	0.1674	0.036668	0.16685	0.12486	-2.2833	-2.9479	-3.1708	-2.7625	-3.375	-3.0396	-2.7708	-3.3146	-2.875	-3.0833	-3.3958	-2.6146	-3.3187	-3.0146	-2.8042	-3.5292	190.042	226.565	245.681	141.573	146.662	256.377	198.707	239.036	118.013	144.009	233.432	292.436	0.855	269.375	156.347	7.389	0.00015269	0.00090118	8.136e-05	122.71	6.8305e-06	4.1569e-06	241.87	58.641	9.2253e-06	3.2412e-06	122.47	53.177	25.68	13.264	4.4598e-06	26.558	0.00066938	0.00070275	0.00019334	145.3	7.6627e-06	7.7034e-06	255.44	64.508	7.5232e-06	7.6595e-06	134.15	54.726	28.749	14.053	7.6404e-06	27.033	271.901	-65.637	49.122	-53.605	127.821	-53.525	-54.259	-48.015	112.962	44.839	-51.401	-47.223	-43.620	-41.197	-56.769	-45.001	-8191	255	
1980.025	1	1	0	0	0.10075	0.27677	0.046164	0.078434	0.10614	0.094572	0.11669	0.14247	0.16565	0.035911	0.23542	0.098178	0.096135	0.19157	0.036505	0.15329	-2.3271	-2.9708	-3.3438	-2.4917	-3.2146	-3.1042	-2.6875	-3.4875	-2.7167	-3.1437	-3.5958	-2.675	-3.3042	-3.2167	-2.5146	-3.5896	-23.366	-4.345	-1.576	96.727	102.877	9.002	261.317	131.090	-25.539	3.006	243.276	158.466	-59.962	148.126	260.357	202.683	0.0001025	0.00080523	0.00013685	123.28	6.4158e-06	3.2559e-06	240.73	58.737	4.9127e-06	9.487e-06	120.75	53.889	25.598	13.083	1.8084e-06	26.636	0.00067358	0.00070079	0.00019583	144.93	7.5126e-06	7.6446e-06	254.88	64.616	7.6195e-06	7.7162e-06	134.57	55.256	28.651	13.997	7.5776e-06	27.134	271.973	59.699	28.902	-52.818	139.975	266.057	-54.365	-47.724	159.097	118.185	-51.584	-47.592	-44.022	-41.145	32.992	-44.320	-8191	255	
1980.120	1	1	0	0	0.22448	0.085004	0.30615	0.077672	0.07496	0.29463	0.17153	0.08458	0.15097	0.074454	0.065094	0.28559	0.13261	0.073316	0.31563	0.22783	-2.5604	-2.8625	-3.5771	-2.7062	-3.175	-3.4354	-2.7833	-3.5104	-2.9083	-2.9375	-3.4833	-2.7417	-3.3125	-3.4583	-2.5625	-3.5146	253.751	-38.141	33.769	-62.830	148.354	251.718	161.000	-58.606	66.222	44.657	29.797	-60.187	279.125	20.361	102.145	220.941	5.4468e-05	0.0001583	2.5825e-05	119.35	1.4641e-05	6.2404e-06	240.89	58.149	2.9067e-06	1.9848e-06	122.52	53.716	25.538	13.19	5.9712e-06	26.692	0.00067129	0.0007025	0.00019545	144.55	7.605e-06	7.6658e-06	255.26	64.511	7.6118e-06	7.6534e-06	134.68	55.11	28.485	14.005	7.6176e-06	27.203	-56.580	115.924	51.010	-53.768	108.246	188.660	-54.295	-47.203	4.529	259.776	-51.665	-47.674	-44.027	-41.145	175.594	-44.157	-8191	255	
1980.216	1	1	0	0	0.16907	0.26902	0.16871	0.17466	0.23423	0.22025	0.17747	0.24227	0.072265	0.17749	0.17434	0.37187	0.037101	0.21684	0.0033523	0.040357	-2.5062	-2.8	-3.4854	-2.8042	-2.8667	-3.3438	-2.5208	-3.3854	-2.8625	-2.6792	-3.5208	-2.8458	-2.9792	-3.3729	-2.5917	-3.3521	50.034	245.595	228.000	179.045	10.622	-11.930	102.833	-51.030	241.601	164.247	262.726	283.241	-1.438	291.099	160.889	259.991	0.00017501	8.2714e-05	5.6194e-05	123.71	1.3153e-06	3.1263e-06	241.05	57.686	1.215e-06	1.9563e-06	120.63	52.821	25.379	13.124	6.4556e-06	26.24	0.00067008	0.0006987	0.00019369	144.81	7.534e-06	7.5675e-06	253.67	64.056	7.459e-06	7.6621e-06	132.88	54.443	28.497	13.905	7.6763e-06	26.863	167.675	-41.759	7.906	-52.930	77.574	198.072	-54.652	-47.318	137.724	152.724	-50.622	-47.534	-44.213	-41.070	263.033	-44.643	-8191	255	
1980.336	1	1	0	0	0.23222	0.38124	0.38608	0.37576	0.26109	0.1062	0.18658	0.08251	0.074791	0.03595	0.08903	0.24297	0.14721	0.083723	0.13807	0.17402	-2.6083	-2.5958	-3.3042	-2.8396	-2.8604	-3.4188	-2.6146	-3	-3.075	-2.5792	-3.35	-3.0646	-2.9271	-3.4625	-2.6083	-3.2333	125.680	172.760	-32.582	70.323	-6.464	190.643	176.602	233.964	170.882	-45.877	127.084	184.841	-47.052	142.685	11.370	257.482	0.00027303	0.00040129	0.00019129	121.69	5.3426e-06	5.4273e-06	240.55	57.616	3.508e-06	1.6403e-06	121.18	52.419	25.235	13.041	3.7578e-06	26.361	0.00066887	0.00069189	0.00019522	144.25	7.5142e-06	7.5195e-06	252.89	63.329	7.5846e-06	7.5072e-06	132.91	54.09	28.308	13.844	7.3412e-06	26.837	254.349	3.790	197.181	-53.212	212.859	208.255	-54.117	-47.737	94.446	289.377	-51.253	-47.424	-44.135	-41.256	206.367	-44.391	-8191	255	
1980.433	1	1	0	0	0.11135	0.45977	0.18304	0.26041	0.22981	0.12024	0.16174	0.21668	0.15676	0.25727	0.12737	0.15542	0.049727	0.084067	0.12451	0.1744	-2.7562	-2.6562	-3.4375	-2.6896	-2.6562	-3.4125	-2.7208	-3.0625	-3.2521	-2.6833	-3.3937	-3.0833	-2.7104	-3.4021	-2.6979	-3.0542	15.941	213.516	145.534	-41.271	253.855	226.645	40.492	-45.848	266.667	33.340	227.187	258.296	46.364	94.382	4.165	-48.310	6.8668e-05	0.0006779	0.00025406	120.51	6.5775e-06	2.4699e-06	239.55	57.253	3.1187e-06	9.8768e-07	122.44	53.012	25.398	13.097	3.4184e-06	26.546	0.00064935	0.00067907	0.00018709	142.37	7.2787e-06	7.2682e-06	251.79	63.26	7.2031e-06	7.2334e-06	132.76	54.642	28.205	13.853	7.2027e-06	27.005	180.953	144.305	102.626	-53.008	160.477	173.903	-54.810	-47.625	-32.843	186.614	-52.028	-47.760	-44.494	-41.261	-51.598	-44.904	-8191	255	
1980.529	1	1	0	0	0.015449	0.09852	0.059656	0.16863	0.10073	0.2187	0.15882	0.13924	0.067033	0.080093	0.12162	0.13753	0.18201	0.18773	0.13944	0.21637	-2.8125	-2.7604	-3.3271	-2.9896	-2.5458	-3.4104	-2.9958	-2.9521	-3.3396	-2.4771	-3.3083	-3.2042	-2.6667	-3.4167	-2.7729	-3.0812	275.736	-46.181	269.791	262.779	85.633	21.627	211.120	105.942	106.775	61.069	-43.123	105.344	256.343	-23.323	243.486	225.093	0.00012894	0.00011075	9.0635e-05	121.01	5.9712e-06	4.7659e-06	238.11	57.723	1.5106e-06	4.2383e-06	121.55	52.574	25.722	13.101	5.0011e-06	26.268	0.00063788	0.00066095	0.00018487	143.14	7.1262e-06	7.1139e-06	251.16	63.125	7.0948e-06	7.1659e-06	132.48	54.405	28.179	13.833	7.206e-06	26.865	221.770	-34.205	-9.038	-53.035	266.920	87.111	-55.120	-48.181	71.479	209.746	-51.467	-47.683	-45.406	-41.175	291.045	-44.693	-8191	255	
1980.625	1	1	0	0	0.16512	0.10792	0.24118	0.24406	0.20941	0.027383	0.19893	0.15634	0.093029	0.09722	0.3063	0.13922	0.1693	0.06849	0.19795	0.11452	-3.2	-2.3792	-3.2375	-3.2354	-2.6229	-3.5458	-2.8625	-2.7375	-3.3833	-2.5271	-3.1625	-3.1646	-2.6354	-3.3104	-2.9062	-2.8146	242.434	96.896	290.240	151.212	189.363	185.633	109.319	29.860	167.093	-51.922	138.119	-22.331	54.302	-4.524	133.604	284.377	0.00025038	0.00037005	0.00024239	121.39	9.7742e-06	2.3883e-06	238.03	57.688	6.5829e-06	3.0293e-06	120.67	52.793	25.219	12.772	5.0616e-06	26.521	0.00063733	0.00066236	0.00018571	142.58	7.2114e-06	7.2893e-06	251.41	63.203	7.1562e-06	7.2043e-06	132.09	54.237	28.036	13.678	7.1717e-06	26.883	-50.105	169.482	67.538	-53.285	205.085	85.067	-54.965	-47.230	99.341	207.324	-51.663	-47.567	-44.285	-41.142	182.815	-44.935	-8191	255	
1980.721	1	1	0	0	0.11421	0.057175	0.12132	0.059797	0.12927	0.32031	0.15118	0.2658	0.076659	0.12391	0.068732	0.1208	0.17433	0.13195	0.084764	0.30438	-3.0062	-2.6604	-3.1229	-3.3688	-2.5042	-3.4417	-3.1625	-2.8583	-3.5104	-2.8333	-3.0896	-3.4229	-2.4708	-3.3896	-3.1083	-2.7771	-58.681	237.781	-11.429	176.359	259.572	217.909	-19.108	268.975	43.527	129.947	95.524	248.603	32.754	159.921	117.836	187.697	0.0002006	0.00048782	0.0001484	121.32	7.5862e-06	5.8371e-06	239.55	57.732	3.4353e-06	8.754e-06	119.75	52.709	25.169	12.973	4.256e-06	26.213	0.00062333	0.00064707	0.00018387	142.1	7.0733e-06	7.1439e-06	251.21	63.01	7.094e-06	7.1234e-06	131.39	54.054	27.884	13.696	7.1244e-06	26.7	252.756	-34.896	263.427	-53.697	132.169	116.297	-54.807	-47.111	55.671	81.429	-50.097	-47.609	-44.990	-41.309	149.366	-44.928	-8191	255	
1980.817	1	1	0	0	0.32946	0.11562	0.32975	0.092391	0.016348	0.020487	0.12651	0.13881	0.13877	0.09777	0.11141	0.25428	0.11416	0.14352	0.069773	0.04453	-3.0875	-2.8104	-2.8708	-3.3479	-2.5958	-3.1458	-3.275	-2.7562	-3.5333	-2.8146	-2.9396	-3.4521	-2.525	-3.0292	-3.1917	-2.5687	175.195	40.258	169.739	-55.818	-24.032	-40.020	208.961	4.559	0.458	245.680	235.538	226.176	293.106	255.649	-34.225	252.919	8.1415e-05	0.00069824	6.3226e-05	121.32	6.4724e-06	1.0514e-05	238.9	57.454	3.7041e-06	8.3684e-06	121.15	52.962	25.127	13.028	4.5295e-06	26.805	0.00063052	0.00065836	0.00018631	142.38	7.1614e-06	7.2112e-06	251.74	63.15	7.1172e-06	7.3228e-06	132.58	54.456	28.105	13.805	7.1894e-06	27.084	-60.551	115.439	85.135	-53.675	245.519	-45.720	-54.625	-48.102	188.742	54.450	-50.887	-47.633	-43.855	-41.150	-11.109	-44.956	-8191	255	
1980.936	1	1	0	0	0.042914	0.20315	0.098393	0.23683	0.12724	0.31648	0.11587	0.18305	0.22461	0.22671	0.20606	0.11036	0.08601	0.10155	0.14151	0.36614	-2.9542	-2.7812	-2.75	-3.3812	-2.575	-3.1146	-3.2687	-2.5542	-3.3583	-2.9479	-2.9104	-3.4188	-2.6479	-3.075	-3.2875	-2.7417	192.367	59.025	134.415	292.137	142.041	80.746	284.419	198.091	281.571	51.662	-4.911	198.992	47.473	78.002	278.075	198.552	0.00015264	0.00019825	3.6818e-05	120.51	6.356e-06	8.06e-06	242.58	57.281	9.6e-06	3.6124e-06	124.11	53.883	25.529	13.116	5.6979e-06	26.841	0.00063031	0.00065822	0.00018459	142.57	7.2162e-06	7.2825e-06	253.41	63.459	7.1869e-06	7.2681e-06	133.55	55.071	28.337	13.843	7.1279e-06	27.146	240.997	95.792	-19.001	-53.227	42.429	249.474	-54.937	-48.061	106.265	282.828	-51.444	-47.396	-44.805	-41.399	46.597	-44.393	-8191	255	
1981.032	1	1	0	0	0.07203	0.11579	0.20868	0.22151	0.087708	0.13099	0.063803	0.13419	0.021902	0.15565	0.099678	0.19617	0.11403	0.20532	0.19592	0.29587	-3.0167	-3.0812	-2.6896	-3.2021	-2.7604	-3.0917	-3.3167	-2.5583	-3.4729	-3.1292	-2.6917	-3.525	-2.8854	-2.9875	-3.4417	-2.7333	222.292	225.442	293.900	-11.487	170.565	244.137	66.920	237.310	-5.987	199.933	-41.935	119.613	-31.680	256.015	134.352	13.943	0.00012312	0.00042109	0.00015468	121.16	2.1668e-06	2.8627e-06	242.07	57.717	8.5194e-06	4.8237e-06	123.18	53.281	25.647	13.059	3.7957e-06	26.545	0.00062655	0.00064691	0.00017904	142.58	7.0134e-06	6.9888e-06	252.44	63.227	6.9518e-06	6.9301e-06	132.49	54.533	28.074	13.795	6.8472e-06	26.861	249.153	67.992	113.406	-52.494	4.010	54.695	-54.263	-47.398	229.107	-3.669	-50.542	-47.718	-45.158	-41.240	-30.773	-45.226	-8191	255	
1981.128	1	1	0	0	0.4153	0.22734	0.15511	0.11413	0.23761	0.10566	0.019329	0.10365	0.058004	0.30347	0.18237	0.27655	0.13486	0.17643	0.064801	0.099293	-2.8542	-3.2646	-2.5458	-3.4042	-2.825	-2.9583	-3.6646	-2.6833	-3.2729	-3.2	-2.7479	-3.4354	-2.8396	-2.8167	-3.5271	-2.8042	113.745	98.051	246.194	249.672	97.636	260.875	52.996	162.134	287.854	-15.760	128.315	242.748	154.405	-44.319	285.149	-35.692	0.00014631	0.00049784	0.00010096	120.73	7.408e-06	2.0838e-06	240.59	57.978	5.6875e-06	5.9835e-06	122.31	52.691	25.149	12.988	1.7924e-06	26.51	0.00060566	0.00063331	0.000175	142.13	6.9503e-06	7.0346e-06	252.17	63.088	7.0233e-06	6.963e-06	131.79	54.586	28.038	13.721	6.9484e-06	26.877	237.649	54.128	31.685	-52.368	93.346	69.785	-54.333	-47.431	244.842	187.614	-50.653	-47.158	-43.636	-40.490	58.306	-44.099	-8191	255	
1981.200	1	1	0	0	0.11682	0.11444	0.18691	0.17844	0.15946	0.18083	0.26699	0.16691	0.11103	0.38966	0.1489	0.13457	0.17312	0.12377	0.15796	0.19631	-2.5396	-3.4292	-2.6458	-3.5146	-3.0208	-2.8583	-3.5771	-2.8021	-3.1521	-3.3271	-2.65	-3.3792	-3.0792	-2.6604	-3.4062	-2.7458	245.566	248.227	64.679	259.022	184.479	35.706	252.835	-46.581	156.831	10.868	177.188	7.248	169.062	124.026	242.488	225.786	1.8744e-05	0.00046802	0.00010445	122.72	1.3135e-05	8.3751e-06	239.86	57.953	3.5896e-06	5.3776e-06	123.04	53.554	25.439	13.011	2.7098e-06	26.574	0.00062027	0.00063561	0.00017661	142.83	6.9657e-06	7.0822e-06	252.84	63.636	7.0961e-06	7.08e-06	133.15	54.828	28.197	13.852	7.2586e-06	27.06	48.197	147.326	264.577	-53.378	56.352	248.318	-54.123	-47.415	57.378	47.967	-51.127	-46.826	-43.669	-41.016	120.290	-44.357	-8191	255	
1981.296	1	1	0	0	0.18051	0.1847	0.10125	0.19508	0.17812	0.2816	0.058276	0.37282	0.054349	0.016025	0.06727	0.31207	0.12494	0.099665	0.1579	0.10982	-2.4437	-3.2208	-2.5729	-3.2417	-3.0812	-2.6583	-3.4917	-2.8167	-2.9583	-3.4854	-2.6208	-3.1979	-3.1458	-2.5396	-3.3521	-2.8333	248.132	171.242	16.214	205.897	76.695	176.053	61.748	-63.800	289.077	148.664	80.655	13.987	14.209	217.822	86.084	267.790	0.00026246	0.00073375	0.0001784	120.93	4.14e-06	5.4685e-06	242.6	57.472	6.5066e-06	6.3962e-06	124.3	53.804	25.489	13.021	2.9535e-06	26.749	0.00064816	0.0006754	0.0001874	143.42	7.382e-06	7.4146e-06	255.88	63.908	7.505e-06	7.6061e-06	134.89	55.312	28.439	13.924	7.5448e-06	27.228	293.321	234.699	9.746	-52.928	-15.600	-44.627	-54.197	-46.794	130.486	136.243	-50.465	-46.916	-44.465	-40.872	96.763	-44.355	-8191	255	
1981.417	1	1	0	0	0.16677	0.17633	0.10796	0.11905	0.052855	0.26726	0.15644	0.080572	0.2142	0.2323	0.16498	0.066971	0.019291	0.32776	0.045587	0.023848	-2.3646	-3.3375	-2.5167	-3.2667	-3.0292	-2.3688	-3.5021	-2.9188	-2.6542	-3.5521	-2.8042	-3.0042	-3.2125	-2.525	-3.4208	-3.0771	113.410	-50.340	85.502	191.936	54.095	165.898	218.808	125.425	-48.058	272.256	235.777	242.615	53.828	55.302	-14.940	290.387	0.0002156	0.00043156	0.00016209	120.49	3.4273e-06	4.7435e-06	243.67	57.59	2.2673e-06	1.681e-06	122.08	53.037	25.246	13.027	6.943e-06	26.343	0.00066103	0.00068872	0.00019171	144.26	7.4888e-06	7.5226e-06	255.65	63.713	7.4938e-06	7.5385e-06	134.55	54.789	28.303	13.816	7.5879e-06	26.925	237.461	77.940	0.262	-53.187	270.905	82.095	-54.066	-47.846	-1.364	-51.818	-50.757	-47.456	-44.502	-41.041	77.503	-44.561	-8191	255	
1981.513	1	1	0	0	0.098028	0.27022	0.081716	0.10918	0.19805	0.044497	0.10164	0.12634	0.13567	0.05474	0.2053	0.09434	0.15791	0.11238	0.24544	0.16409	-2.4792	-3.3854	-2.6646	-3.0292	-3.2771	-2.675	-3.3708	-3.0708	-2.525	-3.5062	-2.7812	-3.05	-3.3604	-2.525	-3.2646	-3.1542	68.031	27.542	46.727	-14.539	165.311	116.885	79.000	146.105	36.493	162.960	-48.717	167.356	154.299	-64.514	100.384	221.669	0.00024727	0.00021895	0.00016772	121.77	1.1902e-05	4.2299e-06	238.27	57.498	3.7557e-06	5.2012e-06	121.45	53.075	25.541	12.872	7.4953e-06	26.353	0.00066767	0.00068581	0.00019238	144.86	7.5747e-06	7.5966e-06	253.53	63.607	7.4664e-06	7.6147e-06	133.66	54.684	28.369	13.713	7.5934e-06	26.913	262.921	33.289	124.342	-52.866	98.740	256.557	-54.701	-47.377	161.255	26.122	-51.294	-47.466	-44.040	-41.328	40.071	-45.020	-8191	255	
1981.609	1	1	0	0	0.074352	0.054828	0.20303	0.13613	0.2858	0.11789	0.020854	0.0058614	0.26258	0.11275	0.29241	0.1139	0.15196	0.12301	0.058646	0.37945	-2.2062	-3.4146	-2.8708	-2.8792	-3.2812	-2.5833	-3.2354	-3.2229	-2.6375	-3.4458	-2.8083	-2.8812	-3.3438	-2.7917	-3.1792	-3.3521	-10.439	125.454	253.581	20.880	85.343	170.882	85.945	-51.460	-44.986	-22.237	280.900	-1.800	282.481	148.201	255.108	242.066	7.1865e-05	0.00036486	6.1567e-05	121.05	6.3505e-06	6.8877e-06	241.93	57.301	4.9852e-06	1.4624e-06	122.34	53.067	24.914	12.886	5.1679e-06	26.568	0.00065364	0.00068158	0.00019101	143.69	7.3685e-06	7.4806e-06	254.08	63.243	7.3359e-06	7.4231e-06	133.64	54.939	28.226	13.762	7.5115e-06	27.044	244.417	-32.893	-56.122	-53.229	179.890	134.896	-54.210	-47.571	26.685	0.877	-51.688	-47.278	-45.027	-40.810	77.743	-45.212	-8191	255	
1981.730	1	1	0	0	0.071692	0.18678	0.34851	0.23957	0.052706	0.16577	0.14922	0.11868	0.051278	0.18024	0.086687	0.025161	0.2023	0.12687	0.1703	0.14424	-2.3396	-3.3375	-2.975	-2.8542	-3.4062	-2.6667	-3.0479	-3.3333	-2.6125	-3.2812	-3.0208	-2.8208	-3.4917	-2.6917	-2.9771	-3.2917	-52.121	-34.298	102.831	24.023	120.720	148.534	8.923	165.324	144.167	247.409	27.775	228.731	267.016	88.465	105.019	225.632	0.00012304	0.00033551	9.0506e-05	123.39	4.8389e-06	6.3012e-06	241.68	58.325	6.8679e-06	2.4313e-06	123.42	53.484	25.529	12.896	7.6154e-06	26.783	0.00065353	0.00067958	0.00019025	144.03	7.268e-06	7.3351e-06	255.11	63.622	7.2177e-06	7.4035e-06	134.07	55	28.217	13.751	7.1858e-06	27.131	280.635	271.500	231.764	-53.342	101.027	-34.361	-53.818	-47.654	72.021	-35.895	-51.095	-47.356	-44.469	-40.903	15.406	-44.826	-8191	255	
1981.801	1	1	0	0	0.17206	0.091887	0.11404	0.23027	0.21715	0.14196	0.029039	0.073265	0.22046	0.10514	0.134	0.25809	0.10829	0.34374	0.078534	0.22633	-2.2771	-3.2542	-3.0979	-2.6729	-3.4146	-2.675	-3.0729	-3.3375	-2.8125	-3.5333	-3.3063	-2.6188	-3.5604	-3.025	-2.8458	-3.5375	214.915	61.779	102.593	250.653	180.249	-28.534	207.599	162.959	85.119	1.165	255.408	284.409	-11.402	178.848	224.567	-39.608	0.00018761	0.00047038	0.00015684	122.85	6.3706e-06	7.7171e-06	242.15	57.248	5.9768e-06	1.804e-06	122.07	53.026	25.211	12.936	6.5366e-06	26.466	0.00063402	0.00065954	0.00018347	142.7	7.1205e-06	7.1596e-06	253.77	63.112	7.0093e-06	7.0704e-06	132.92	54.469	28.025	13.694	6.9987e-06	26.758	-55.124	-32.959	89.524	-53.059	73.609	49.429	-54.121	-47.693	220.954	-20.868	-51.230	-47.170	-44.207	-42.075	68.993	-44.970	-8191	255	
1981.898	1	1	0	0	0.056492	0.16774	0.15277	0.28543	0.012686	0.13191	0.034406	0.047862	0.036043	0.0396	0.2074	0.0062943	0.14752	0.092059	0.075652	0.12229	-2.2854	-3.05	-3.1708	-2.7104	-3.5167	-3.0375	-2.9604	-3.5271	-2.625	-3.1875	-3.4146	-2.5792	-3.4396	-3.0896	-2.775	-3.5396	84.149	-8.431	60.133	142.739	54.977	235.460	-62.109	153.319	68.045	243.004	24.256	130.462	17.883	-57.126	-35.591	283.605	0.00015431	0.00085062	0.00017157	120.9	5.7957e-06	6.13e-06	240.82	58.021	5.7271e-06	3.5097e-06	122.23	52.721	25.272	12.945	1.7777e-06	26.44	0.00060626	0.00063138	0.00017633	140.9	6.9601e-06	6.8803e-06	252.02	62.958	6.9734e-06	6.985e-06	132.18	54.36	27.832	13.622	6.7052e-06	26.72	279.592	3.287	181.369	-53.223	262.724	222.201	-53.780	-47.202	17.501	-49.341	-50.798	-47.157	-44.261	-41.241	224.026	-44.545	-8191	255	
1982.016	1	1	0	0	0.076126	0.1374	0.32327	0.14461	0.30179	0.10313	0.33407	0.16327	0.1247	0.1388	0.12308	0.12252	0.32251	0.098932	0.25182	0.17836	-2.3792	-3.0833	-3.2958	-2.5354	-3.4104	-3.0208	-2.6813	-3.4729	-2.6292	-2.8958	-3.3708	-2.5	-3.2896	-3.2271	-2.6792	-3.7	239.542	121.373	203.437	193.219	120.526	280.923	211.521	-35.617	213.733	288.931	212.791	192.528	285.450	161.187	85.998	-61.488	0.00012396	0.00042626	0.00017232	120.37	9.7439e-07	5.9182e-06	240.86	56.777	4.575e-06	2.2753e-06	121.75	53.451	25.247	13.059	5.3061e-06	26.525	0.00059813	0.00062176	0.00017072	140.16	6.7893e-06	6.7998e-06	251.24	62.105	6.7258e-06	6.7291e-06	131.39	54.597	27.847	13.662	6.5831e-06	26.854	277.647	273.543	-40.172	-53.711	-7.887	70.890	-53.912	-47.064	-58.193	156.242	-51.556	-47.390	-44.374	-40.883	174.591	-44.694	-8191	255	
1982.113	1	1	0	0	0.10954	0.24933	0.021447	0.078929	0.14665	0.27705	0.17247	0.21002	0.1257	0.04414	0.088816	0.22039	0.048108	0.2155	0.10562	0.12188	-2.4562	-2.8583	-3.3229	-2.7438	-3.3042	-3.1896	-2.6979	-3.4875	-2.8708	-2.8083	-3.5812	-2.4792	-3.1667	-3.2104	-2.4896	-3.4292	205.603	220.688	-50.547	22.754	200.963	54.098	197.479	69.483	132.323	292.575	185.803	240.540	-17.943	94.555	67.729	221.981	0.00017727	0.0002072	6.2333e-05	119.97	6.6684e-06	6.9953e-06	240.25	57.238	2.4851e-06	6.5179e-06	123.34	53.263	25.557	12.913	3.529e-06	26.826	0.00058821	0.00060889	0.00016599	139.85	6.614e-06	6.5977e-06	251.78	62.697	6.5743e-06	6.7509e-06	132.19	54.607	27.776	13.686	6.5339e-06	27.12	257.037	175.111	115.727	-53.758	87.607	248.412	-54.356	-47.736	21.754	192.755	-51.683	-47.103	-44.719	-41.186	190.016	-44.501	-8191	255	
1982.209	1	1	0	0	0.1855	0.19383	0.09408	0.11115	0.35035	0.066776	0.10221	0.057189	0.1193	0.066529	0.30647	0.2669	0.18955	0.13041	0.16072	0.19641	-2.6354	-2.7646	-3.3896	-2.6917	-3.125	-3.2292	-2.6437	-3.4583	-3.0062	-2.8125	-3.4313	-2.7292	-2.8896	-3.2792	-2.7188	-3.3792	179.521	19.455	-14.866	11.273	52.159	32.737	182.549	240.783	251.234	279.914	67.636	62.692	85.408	154.321	290.890	39.442	0.00015867	0.00054316	0.00024312	122.62	5.0846e-06	1.052e-06	243.57	58.364	9.5297e-07	3.0814e-06	121.67	53.63	25.572	12.884	1.5646e-06	26.569	0.00058483	0.0006033	0.00016855	139.5	6.5957e-06	6.6008e-06	251.14	62.546	6.5302e-06	6.5792e-06	131.47	54.726	27.817	13.635	6.4944e-06	26.935	287.949	69.442	197.269	-53.498	-60.096	-1.570	-54.485	-48.341	265.663	47.032	-51.357	-47.691	-44.210	-41.287	94.753	-44.527	-8191	255	
1982.329	1	1	0	0	0.18992	0.3139	0.20892	0.13359	0.047526	0.059135	0.10994	0.076702	0.15903	0.14338	0.185	0.1331	0.21304	0.2512	0.049168	0.10983	-2.7229	-2.8271	-3.3542	-2.8354	-3.05	-3.5167	-2.6583	-3.55	-3.0708	-2.5104	-3.4062	-2.9479	-3	-3.3896	-2.7354	-3.2313	185.807	-39.740	190.028	17.485	-27.604	233.952	255.570	268.335	112.394	33.487	65.416	-1.896	-23.294	196.563	7.652	166.009	0.00010375	0.00094689	5.5384e-05	120.6	1.0081e-05	8.9232e-06	243.99	57.387	2.4682e-06	7.7526e-06	123.06	53.464	25.482	13.109	6.2654e-06	26.735	0.0005684	0.00059331	0.0001638	139.28	6.4169e-06	6.4063e-06	250.94	62.239	6.4541e-06	6.4741e-06	131.51	54.319	27.617	13.669	6.5124e-06	26.934	290.913	71.080	-46.488	-53.834	117.177	84.114	-54.499	-47.864	43.562	91.131	-51.150	-47.728	-44.248	-41.020	41.436	-44.236	-8191	255	
1982.426	1	1	0	0	0.36162	0.32572	0.1197	0.19565	0.15463	0.21314	0.33292	0.13486	0.20611	0.14526	0.14277	0.053063	0.18201	0.12631	0.16884	0.17913	-2.8417	-2.5187	-3.4521	-2.9271	-3.0042	-3.6708	-2.6604	-3.2062	-3.2521	-2.6063	-3.4354	-2.9062	-2.8333	-3.4917	-2.7833	-3.1125	288.251	82.794	5.480	-4.217	280.638	72.745	209.072	76.866	-44.440	284.721	227.927	33.912	74.437	-52.184	151.223	-52.154	3.0057e-05	0.00044704	3.7075e-05	123.33	7.7067e-06	4.7336e-06	240.36	57.989	1.8818e-06	5.6725e-06	123.68	53.499	25.264	12.985	5.455e-06	26.725	0.00057129	0.00059179	0.00016604	140.7	6.5759e-06	6.5494e-06	251.21	63.126	6.5912e-06	6.6609e-06	132.97	54.76	27.799	13.686	6.5908e-06	27.093	96.297	-21.549	51.229	-53.758	150.802	292.744	-54.215	-47.582	227.481	280.573	-51.133	-47.516	-45.211	-41.137	88.905	-44.414	-8191	255	
1982.497	1	1	0	0	0.13734	0.091996	0.23529	0.071186	0.21936	0.077266	0.059988	0.10536	0.076137	0.064917	0.14658	0.28927	0.21257	0.25308	0.10434	0.047862	-2.8917	-2.6896	-3.4313	-3.025	-2.8458	-3.5083	-2.7458	-2.9979	-3.3937	-2.6188	-3.3063	-3.0854	-2.6458	-3.3917	-2.8	-2.9521	210.589	92.648	70.760	224.853	122.729	292.779	107.450	83.061	63.549	166.096	203.544	212.804	36.033	157.987	-18.914	264.908	0.00013635	0.00040136	0.00011893	121.94	4.8523e-06	3.1918e-06	241.17	57.475	4.2696e-06	1.6816e-06	123.65	54.278	25.537	13.043	3.7928e-06	27.005	0.00058461	0.00060869	0.00017125	141.77	6.6999e-06	6.7938e-06	252.89	62.552	6.6164e-06	6.7472e-06	134.09	55.109	27.933	13.779	6.8586e-06	27.238	235.980	-11.541	2.282	-52.669	199.311	185.813	-54.313	-46.942	30.596	116.361	-51.079	-47.516	-43.924	-41.028	23.655	-44.863	-8191	255	
1982.593	1	1	0	0	0.10976	0.059224	0.14535	0.26692	0.1339	0.09816	0.19571	0.25142	0.14283	0.15028	0.10796	0.14793	0.29975	0.086928	0.13629	0.19801	-2.9667	-2.3854	-3.2062	-3.1208	-2.6292	-3.4896	-2.6417	-3.0229	-3.3979	-2.6729	-3.3146	-3.0583	-2.5896	-3.3979	-2.8771	-2.9104	180.657	90.695	106.687	65.949	-13.255	242.533	131.057	-42.091	-32.762	144.573	160.743	23.534	-4.921	281.846	120.055	-34.838	0.00015381	0.00031451	3.1651e-05	122.5	1.5912e-06	9.8284e-06	243.17	57.026	6.3833e-06	4.7676e-06	123.32	53.527	25.685	12.961	2.9514e-06	27.007	0.00059355	0.00063066	0.00017321	141.36	6.8258e-06	6.8795e-06	253.36	62.864	6.7503e-06	6.8193e-06	133.27	54.923	27.971	13.68	6.735e-06	27.028	219.114	165.674	268.172	-53.833	3.121	133.789	-54.964	-47.287	184.427	278.069	-51.318	-48.066	-44.311	-40.905	286.265	-44.755	-8191	255	
1982.714	1	1	0	0	0.11994	0.12416	0.18239	0.089744	0.22596	0.21449	0.077117	0.21575	0.11961	0.24542	0.080402	0.14284	0.39827	0.052125	0.22506	0.10733	-3.0854	-2.6063	-3.0479	-3.2292	-2.5333	-3.3083	-3.1333	-2.6604	-3.3187	-2.6813	-3.1292	-3.3167	-2.4521	-3.2792	-3.0187	-2.6917	241.922	231.252	24.770	62.330	122.749	35.897	144.013	56.456	73.991	149.839	-29.159	148.347	189.856	30.883	17.988	293.576	0.00017807	0.00072204	0.00016623	121.3	1.158e-05	3.2074e-06	243.39	57.13	1.0008e-05	1.4875e-06	122.24	53.367	25.231	13.05	3.2724e-06	26.648	0.00059124	0.00061712	0.00017223	140.84	6.6357e-06	6.739e-06	252.33	62.435	6.8083e-06	6.7887e-06	132	54.533	27.733	13.684	6.7452e-06	26.967	268.276	31.514	6.224	-53.427	145.093	151.438	-54.722	-47.116	108.210	164.355	-50.670	-47.534	-44.365	-41.629	47.131	-44.517	-8191	255	
1982.808	1	1	0	0	0.082371	0.32403	0.15947	0.25509	0.111	0.021214	0.080679	0.33626	0.12189	0.24188	0.18804	0.21345	0.21141	0.17344	0.036729	0.3614	-3.0958	-2.6479	-2.9542	-3.2646	-2.6125	-3.2917	-3.1625	-2.5854	-3.5479	-2.7646	-2.8833	-3.3208	-2.5312	-3.1229	-3.1896	-2.5792	182.243	-25.098	214.904	285.560	79.878	101.157	21.648	182.407	255.049	79.128	90.397	155.447	246.961	241.958	219.528	181.329	0.0001224	0.00069942	0.0001701	119.52	5.5216e-06	1.8281e-06	243.94	56.856	6.8112e-06	7.1277e-06	122.49	52.99	25.292	13.035	3.733e-06	26.598	0.00060004	0.00061716	0.00017109	140.04	6.8035e-06	6.8338e-06	252.83	62.194	6.8067e-06	6.9402e-06	132.22	54.597	27.914	13.682	6.9203e-06	27.05	-33.324	243.208	59.819	-52.835	-15.084	236.856	-54.621	-47.906	125.017	4.556	-50.965	-47.552	-44.423	-40.619	107.277	-44.774	-8191	255	
1982.905	1	1	0	0	0.10542	0.23539	0.21945	0.09009	0.18373	0.26148	0.36337	0.17186	0.063167	0.079993	0.024351	0.1192	0.060402	0.23449	0.066748	0.27892	-2.9542	-2.5854	-2.7313	-3.3854	-2.5521	-3.225	-3.1729	-2.6792	-3.1917	-2.9417	-2.5833	-3.3417	-2.6958	-3.3292	-3.2875	-2.6896	114.673	48.611	-36.816	27.041	23.265	268.467	280.025	171.848	201.964	218.630	196.095	-10.613	25.651	210.230	66.357	90.116	9.3636e-05	0.00055225	0.00017464	121.82	1.4058e-05	3.8997e-06	243.37	57.315	9.5591e-06	1.9492e-06	123.27	53.909	25.384	13.026	3.0996e-06	26.92	0.00061049	0.00063441	0.00018147	141.45	6.9124e-06	7.0745e-06	253.16	62.842	6.956e-06	7.003e-06	133.71	55.112	28.044	13.768	7.0061e-06	27.199	-28.200	182.539	212.981	-51.789	-20.413	276.060	-55.067	-47.577	116.787	192.430	-51.398	-47.516	-44.981	-40.989	47.292	-44.609	-8191	255	
1983.001	1	1	0	0	0.35496	0.19814	0.32824	0.096174	0.030708	0.16271	0.063182	0.247	0.28247	0.34324	0.017305	0.13594	0.23502	0.019169	0.20797	0.29519	-2.9125	-2.7792	-2.7875	-3.4854	-2.7896	-3.0312	-3.3542	-2.7479	-3.4062	-2.9104	-2.6688	-3.3875	-2.6021	-3.1146	-3.4104	-2.7729	196.782	189.010	-36.960	31.764	214.338	245.366	240.236	-52.559	201.475	153.033	249.786	241.031	203.761	6.806	153.158	248.935	0.0001695	0.00073722	0.00014939	123.41	4.7477e-06	2.952e-06	241.37	58.067	9.5957e-06	2.5712e-06	123.63	53.644	25.51	13.024	4.1912e-06	26.757	0.00062103	0.0006356	0.00017738	142.67	6.9976e-06	7.003e-06	254.24	63.152	6.9683e-06	6.9997e-06	133.67	55.25	28.183	13.816	6.9402e-06	27.164	276.642	41.027	-48.441	-53.853	-27.630	281.200	-54.408	-47.735	155.042	161.961	-51.375	-46.723	-44.575	-40.654	70.092	-44.864	-8191	255	
1983.097	1	1	0	0	0.026348	0.039106	0.36787	0.13898	0.1408	0.24729	0.11838	0.14194	0.28748	0.1252	0.22881	0.15467	0.054204	0.22216	0.071554	0.17146	-2.9583	-3.0583	-2.6667	-3.4583	-2.7812	-2.8812	-3.6375	-2.6813	-3.2354	-3.1312	-2.5917	-3.5208	-2.9729	-2.9021	-3.3604	-2.7208	174.803	275.111	256.473	185.375	191.802	190.189	16.333	267.810	217.275	264.551	-51.527	190.537	277.984	183.566	-9.075	-36.493	0.0001303	0.00034057	7.7784e-05	120.46	2.3956e-06	3.3596e-06	241.55	56.964	6.0926e-06	3.1364e-06	122.33	53.249	25.344	13.041	1.9515e-06	26.663	0.00061404	0.0006305	0.00017556	142.05	7.0051e-06	6.9206e-06	253.15	62.796	6.95e-06	7.014e-06	133.37	54.824	27.988	13.76	6.9357e-06	27.068	-35.495	251.930	-31.054	-53.020	156.919	4.488	-54.139	-48.031	178.872	37.323	-51.559	-48.125	-43.817	-40.628	123.575	-44.773	-8191	255	
1983.193	1	1	0	0	0.30208	0.22601	0.015753	0.12225	0.08015	0.10762	0.021804	0.071778	0.09677	0.25923	0.10138	0.036045	0.043351	0.23014	0.14984	0.099308	-2.7792	-3.225	-2.6625	-3.3625	-2.9229	-2.7313	-3.5229	-2.5375	-3.0958	-3.2083	-2.6813	-3.325	-3.0333	-2.6979	-3.3271	-2.7	-9.797	261.236	98.989	153.000	70.797	78.329	259.032	10.141	29.692	30.163	197.646	140.149	174.090	228.123	283.509	33.803	0.00015573	0.00048485	0.00010307	121.71	3.6532e-06	5.0956e-06	244.3	57.795	8.4786e-06	2.564e-06	122.93	53.906	25.606	13.095	7.0853e-06	26.793	0.00061751	0.00063194	0.00017794	141.47	6.9833e-06	7.0209e-06	254	62.997	6.9739e-06	7.0029e-06	133.49	55.274	28.132	13.726	7.0911e-06	27.177	237.899	272.709	84.759	-53.717	57.110	287.083	-54.498	-47.900	159.223	106.745	-51.240	-47.326	-44.313	-40.442	38.058	-44.752	-8191	255	
1983.289	1	1	0	0	0.1848	0.19952	0.13579	0.095682	0.30148	0.103	0.23913	0.20299	0.14039	0.18884	0.26719	0.36416	0.10568	0.21393	0.087142	0.21084	-2.725	-3.1167	-2.5938	-3.3354	-2.9146	-2.7333	-3.4354	-2.7354	-2.9333	-3.4042	-2.7458	-3.3542	-3.0396	-2.675	-3.3688	-2.9083	45.610	272.556	246.520	-11.129	118.534	2.950	189.270	-7.367	125.600	75.391	-6.036	-64.033	53.956	-0.405	223.061	193.746	0.0001073	0.00031183	0.00021163	122.45	8.8403e-06	3.2654e-06	244.22	57.717	7.8843e-06	3.6429e-06	122.89	53.96	25.467	12.99	6.9662e-06	26.645	0.00062213	0.00064487	0.00017963	142.94	7.0702e-06	7.1123e-06	254.5	63.233	7.0981e-06	7.1022e-06	133.74	55.401	27.96	13.796	7.0009e-06	27.192	211.198	-36.001	114.967	-52.808	137.815	223.416	-54.339	-47.774	280.934	20.623	-51.168	-47.145	-44.738	-41.245	263.207	-44.354	-8191	255	
1983.410	1	1	0	0	0.11262	0.20507	0.1587	0.026226	0.36977	0.26412	0.25461	0.07159	0.11907	0.04153	0.19197	0.11089	0.28273	0.096059	0.16182	0.070337	-2.4521	-3.2792	-2.6188	-2.9479	-3.1146	-2.5208	-3.4896	-2.8667	-2.8063	-3.5792	-2.6646	-3.2438	-3.3625	-2.7771	-3.3979	-2.9062	211.648	87.940	119.037	72.232	73.680	251.822	-45.162	82.221	-58.569	71.303	181.924	282.535	265.136	-32.159	151.720	200.823	7.1224e-05	0.0003765	0.00010925	120.98	1.7127e-07	2.6922e-06	243.74	57.485	6.5053e-06	6.9796e-06	121.81	52.755	24.579	12.54	7.2109e-06	25.779	0.0006191	0.00064	0.0001805	141.86	6.9258e-06	7.0217e-06	253.99	62.356	6.8812e-06	6.9618e-06	132.33	54.118	27.181	13.284	6.6954e-06	26.069	194.972	130.129	79.065	-53.244	56.705	282.555	-54.770	-47.743	125.503	105.944	-51.227	-47.474	-44.057	-40.635	-26.060	-44.571	-8191	255	
1983.506	1	1	0	0	0.12886	0.11222	0.15892	0.14578	0.14835	0.24189	0.10728	0.089779	0.22438	0.20183	0.098916	0.042456	0.14998	0.087378	0.25079	0.2843	-2.1875	-3.4729	-2.5854	-3.1625	-3.2687	-2.5667	-3.3896	-2.9583	-2.4979	-3.3708	-2.6688	-3.2583	-3.2542	-2.5271	-3.2917	-3.075	14.193	157.854	57.530	268.883	163.003	49.490	190.648	287.881	66.425	65.758	-38.927	10.622	34.743	104.775	192.848	130.545	0.00015281	0.00096848	5.0381e-05	116.71	3.3232e-06	4.6937e-06	235.89	52.888	3.1202e-06	3.0301e-06	111.36	49.714	22.495	11.586	3.0566e-06	24.178	0.00058171	0.00059762	0.00016335	135.52	6.3719e-06	6.4004e-06	243.24	57.624	6.1636e-06	6.2535e-06	121.36	50.532	24.797	12.219	5.9796e-06	24.403	262.661	35.748	184.192	-52.674	-48.640	266.678	-54.330	-47.060	144.132	-53.601	-50.910	-46.779	-43.114	-40.563	69.634	-43.966	-8191	255	
1983.602	1	1	0	0	0.058292	0.17745	0.06002	0.27792	0.17245	0.044416	0.38982	0.015616	0.39081	0.14945	0.10526	0.1246	0.22474	0.15805	0.043069	0.069433	-2.2188	-3.3583	-2.7354	-2.9833	-3.3063	-2.5938	-3.1104	-3.0167	-2.575	-3.4604	-3	-2.9833	-3.2958	-2.6542	-3.1188	-3.1542	282.988	-11.911	263.503	24.906	45.905	280.527	278.593	127.669	219.132	153.422	250.817	36.667	1.720	9.180	281.716	137.111	5.7688e-05	0.0009059	0.00017714	112.18	1.0148e-05	3.2037e-06	223.23	48.9	4.4374e-06	3.761e-06	105.86	46.846	21.449	10.967	1.2253e-06	23.105	0.00051702	0.00052964	0.00014725	128.43	5.7025e-06	5.6333e-06	233.1	53.338	5.5027e-06	5.5409e-06	114.09	47.657	23.205	11.473	5.4533e-06	23.393	287.537	6.302	20.215	-53.426	89.514	-19.298	-54.469	-47.957	-10.339	116.782	-51.029	-47.197	-43.600	-40.266	92.459	-44.390	-8191	255	
1983.698	1	1	0	0	0.11294	0.064943	0.13223	0.29622	0.17013	0.12335	0.15303	0.14917	0.14267	0.042815	0.15139	0.094028	0.096558	0.066617	0.11245	0.063987	-2.2313	-3.275	-2.7521	-2.6354	-3.4542	-2.5396	-3.0312	-3.1854	-2.5521	-3.3771	-2.925	-2.8	-3.2667	-2.5792	-2.9208	-3.2917	57.199	293.388	-22.603	-19.138	130.207	181.696	-64.794	109.897	108.656	284.403	-39.086	-36.790	6.965	293.805	140.488	141.896	0.0001005	0.00078387	5.8102e-05	111.38	1.0377e-05	3.8313e-06	223.57	47.669	3.03e-06	5.2758e-06	105.96	46.77	20.715	10.938	3.0923e-06	23.043	0.00047716	0.00049029	0.00013607	124.17	5.3341e-06	5.2887e-06	230.31	51.288	5.0785e-06	5.0499e-06	111.56	46.873	22.421	11.258	4.7728e-06	23.139	30.547	45.047	-40.487	-52.849	239.507	30.876	-54.623	-47.294	128.149	291.229	-50.280	-47.184	-43.976	-40.921	121.635	-44.617	-8191	255	
1983.794	1	1	0	0	0.22979	0.060476	0.14356	0.021552	0.11712	0.20989	0.21984	0.086294	0.20329	0.15856	0.026698	0.067017	0.059282	0.22789	0.21257	0.14642	-2.1354	-3.2771	-2.8875	-2.7125	-3.3375	-2.7625	-2.9125	-3.3604	-2.5062	-3.2146	-2.9688	-2.7146	-3.3812	-2.7687	-2.9479	-3.4833	133.997	269.044	70.783	-52.827	113.805	97.180	-46.270	6.273	30.618	62.969	59.024	108.750	97.241	284.961	16.944	0.970	0.0001014	0.00033578	0.00015578	109.4	2.5371e-06	8.2049e-06	226.08	48	2.6947e-06	2.9569e-06	105.29	46.23	20.702	10.943	2.4564e-06	23.201	0.0004186	0.00042279	0.0001166	120.47	4.6215e-06	4.5492e-06	228.64	50.557	4.6364e-06	4.6496e-06	109.99	46.448	22.2	11.206	4.6284e-06	23.124	268.189	209.718	-27.448	-53.387	164.468	-40.402	-54.065	-47.061	192.066	214.212	-51.224	-46.968	-43.812	-41.444	108.600	-44.699	-8191	255	
1983.891	1	1	0	0	0.22203	0.23014	0.028154	0.13453	0.055754	0.084984	0.090876	0.19082	0.20365	0.081685	0.23634	0.13404	0.1919	0.14467	0.091975	0.039462	-1.9937	-3.2104	-2.9458	-2.5646	-3.4313	-2.6042	-2.7812	-3.4958	-2.6021	-3.1021	-3.1396	-2.6917	-3.3542	-2.975	-2.6542	-3.4646	128.643	39.640	196.572	234.333	-35.495	110.308	-21.397	171.431	15.954	-42.233	129.768	-4.540	20.772	140.586	131.728	9.861	9.3833e-05	0.00034526	0.00015262	108.07	7.6972e-06	1.2125e-05	223.46	47.008	2.7897e-06	4.0854e-06	105.46	46.457	20.713	10.826	2.0094e-06	23.185	0.00040521	0.00041625	0.00011141	119.42	4.4365e-06	4.4214e-06	226.84	50.26	4.3186e-06	4.3507e-06	109.39	46.276	22	11.153	4.1689e-06	23.103	-5.049	187.982	-10.841	-52.601	114.780	119.040	-54.446	-47.555	18.405	75.675	-51.186	-46.909	-43.026	-40.715	26.569	-44.665	-8191	255	
1984.009	1	1	0	0	0.43107	0.081804	0.10004	0.22934	0.28195	0.031223	0.17765	0.1585	0.10235	0.15563	0.13881	0.25088	0.21333	0.20529	0.10154	0.085453	-2.2708	-3.0604	-3.2792	-2.5229	-3.375	-2.8854	-2.6667	-3.4833	-2.5938	-3.0021	-3.3271	-2.5708	-3.1729	-2.9354	-2.7021	-3.4	234.432	-43.264	36.806	179.885	124.048	-38.460	-34.988	53.852	-55.920	-4.042	184.481	4.321	113.466	126.467	-3.786	243.193	9.9917e-05	0.00021054	8.7938e-05	108.98	6.2762e-06	6.9896e-06	224.85	47.785	1.8522e-06	1.8883e-06	106.62	46.461	21.039	11.001	1.0093e-06	23.432	0.00037769	0.00039038	0.00010724	119.39	4.2341e-06	4.1079e-06	226.05	50.155	4.156e-06	4.1666e-06	109.85	46.548	22.235	11.345	4.3019e-06	23.417	276.649	282.919	53.589	-53.622	14.371	78.967	-54.815	-47.968	-43.891	138.812	-50.990	-46.865	-44.179	-40.869	215.101	-44.033	-8191	255	
1984.106	1	1	0	0	0.17353	0.20954	0.059961	0.025944	0.30833	0.059871	0.13057	0.12403	0.19385	0.013491	0.16574	0.29977	0.17191	0.060213	0.053278	0.16885	-2.3688	-2.9708	-3.2438	-2.5833	-3.1917	-3.2062	-2.7938	-3.3396	-2.9792	-2.9604	-3.3563	-2.4875	-3.1417	-3.1792	-2.6833	-3.4938	35.521	117.305	156.591	11.157	149.841	-36.869	233.280	277.676	183.790	45.823	154.526	194.168	-16.869	123.425	-43.332	-19.493	9.3694e-05	0.00026537	0.0001525	109.31	2.7473e-06	6.634e-06	223.72	47.624	2.2715e-06	3.6861e-07	107.09	47.232	21.194	11.177	3.2221e-06	24.016	0.00038584	0.00040364	0.00011041	119.9	4.4069e-06	4.3382e-06	227.63	50.714	4.4767e-06	4.4743e-06	111.17	47.178	22.618	11.536	4.7162e-06	23.778	-13.647	54.906	-58.500	-52.941	68.878	177.682	-54.185	-47.961	159.008	-47.530	-50.541	-46.932	-43.517	-40.942	158.680	-44.459	-8191	255	
1984.202	1	1	0	0	0.17826	0.080889	0.058341	0.26852	0.030705	0.45333	0.21899	0.11297	0.19994	0.24278	0.039199	0.095986	0.20157	0.22924	0.14609	0.25977	-2.3438	-2.7479	-3.35	-2.6125	-3.2479	-3.1292	-2.5875	-3.4375	-2.8479	-2.8792	-3.4104	-2.6292	-3.1083	-3.2062	-2.5521	-3.5708	247.059	42.575	267.447	171.055	266.259	94.252	-60.033	164.262	186.032	-1.267	281.032	145.565	-61.495	293.501	-58.437	-10.760	0.00012908	0.00065119	0.00011704	108.12	4.5701e-06	3.9638e-06	225.74	48.397	6.2842e-06	3.5359e-06	108.33	47.233	21.526	11.27	4.7035e-06	23.875	0.00042204	0.00043525	0.00012212	121.58	4.9996e-06	5.0392e-06	231.69	52.307	5.2299e-06	5.3177e-06	114.73	48.137	23.418	11.763	5.5435e-06	24.07	289.415	98.984	43.631	-53.642	165.776	120.159	-54.794	-47.688	14.225	141.161	-50.472	-47.566	-44.013	-41.484	66.086	-44.414	-8191	255	
1984.298	1	1	0	0	0.077415	0.28922	0.27291	0.2849	0.22897	0.10435	0.11409	0.06636	0.099971	0.2237	0.12764	0.051107	0.17944	0.1674	0.12034	0.14724	-2.4729	-2.6083	-3.3604	-2.9021	-2.8833	-3.3583	-2.5833	-3.3688	-3.0458	-2.5917	-3.4375	-2.7521	-3.2	-3.3333	-2.6021	-3.3479	54.086	-32.194	186.137	-60.756	54.423	-15.329	48.317	236.152	245.835	15.032	103.637	138.543	179.205	186.727	81.642	23.449	0.00012361	0.00010388	9.979e-05	110.43	7.1325e-06	7.6563e-06	225.65	49.192	7.3579e-06	3.944e-06	106.69	47.425	21.452	11.284	7.4334e-06	23.752	0.00049966	0.00052745	0.00014671	126.25	5.8349e-06	6.0312e-06	233.02	53.728	5.9485e-06	6.127e-06	115.86	48.631	23.943	12.01	6.3749e-06	24.18	266.322	231.751	198.200	-54.273	41.695	156.458	-54.417	-47.681	-45.679	90.002	-51.272	-46.805	-42.818	-41.488	-39.329	-44.233	-8191	255	
1984.394	1	1	0	0	0.35734	0.19795	0.12181	0.11412	0.033023	0.13635	0.11675	0.27799	0.17323	0.18171	0.25065	0.26296	0.061785	0.076121	0.22431	0.16098	-2.7438	-2.6125	-3.4396	-2.8292	-2.95	-3.3354	-2.7188	-3.1417	-3.1292	-2.6729	-3.3625	-2.8667	-2.8167	-3.45	-2.6042	-3.3146	99.666	75.017	23.268	207.888	-0.175	242.446	263.367	247.284	116.548	121.336	231.006	292.025	75.443	159.396	136.860	-29.253	9.5539e-05	0.00032826	8.0341e-05	110.15	6.1428e-06	6.5534e-06	226.8	48.204	3.7454e-06	7.3683e-07	107.44	47.183	21.21	11.379	1.4234e-06	24.031	0.00055721	0.00057566	0.00016065	128.28	6.1848e-06	6.2255e-06	234.25	53.599	6.2768e-06	6.3346e-06	116.78	48.477	23.932	11.995	6.3331e-06	24.248	-31.587	-29.855	57.172	-52.748	83.867	47.877	-55.141	-47.831	-12.083	96.049	-51.041	-47.485	-43.788	-41.055	-40.629	-44.622	-8191	255	
#DATA ENDS
