BOXY.EXE: ISS Imagent and Oximeter Data Acquisition Program Version 0.80
Ascii Record File

#ACQ INFORMATION
2  Detector Channels 
16  External MUX Channels 
1  Auxiliary Channels 
5000  Waveform (CCF) Frequency (Hz)
1  Waveforms Skipped 
30  Waveforms Averaged 
1  Cycles Averaged 
16  Acquisitions per Waveform 
10.0806  Updata Rate (Hz) 

#FILE INFORMATION
TRUE -- External MUX Channel results are PARSED.
FALSE -- AC DC and Phase are NOT grouped.
TRUE -- Companion Program Settings File CREATED.
FALSE -- AC data not excluded
FALSE -- DC data not excluded
FALSE -- Phase data not excluded
FALSE -- Auxillary Chn. data not excluded
Tab delimiters

#CALIBRATION STATE
TRUE -- Waveform Calibration Values APPLIED.


#AUX CALIBRATION VALUES
Val Type	aux-1	

Term	1.0000e+00	
Factor	0.0000e+00	


#WF CALIBRATION VALUES
A = Detector Channel
Val Type	A-AC1	A-AC2	A-AC3	A-AC4	A-AC5	A-AC6	A-AC7	A-AC8	A-AC9	A-AC10	A-AC11	A-AC12	A-AC13	A-AC14	A-AC15	A-AC16	A-DC1	A-DC2	A-DC3	A-DC4	A-DC5	A-DC6	A-DC7	A-DC8	A-DC9	A-DC10	A-DC11	A-DC12	A-DC13	A-DC14	A-DC15	A-DC16	A-Ph1	A-Ph2	A-Ph3	A-Ph4	A-Ph5	A-Ph6	A-Ph7	A-Ph8	A-Ph9	A-Ph10	A-Ph11	A-Ph12	A-Ph13	A-Ph14	A-Ph15	A-Ph16	

Term	0.00000e+00	0.00000e+00	0.00000e+00	0.00000e+00	0.00000e+00	0.00000e+00	0.00000e+00	0.00000e+00	0.00000e+00	0.00000e+00	0.00000e+00	0.00000e+00	0.00000e+00	0.00000e+00	0.00000e+00	0.00000e+00	0.00000e+00	0.00000e+00	0.00000e+00	0.00000e+00	0.00000e+00	0.00000e+00	0.00000e+00	0.00000e+00	0.00000e+00	0.00000e+00	0.00000e+00	0.00000e+00	0.00000e+00	0.00000e+00	0.00000e+00	0.00000e+00	0.00000e+00	0.00000e+00	0.00000e+00	0.00000e+00	0.00000e+00	0.00000e+00	0.00000e+00	0.00000e+00	0.00000e+00	0.00000e+00	0.00000e+00	0.00000e+00	0.00000e+00	0.00000e+00	0.00000e+00	0.00000e+00	
Factor	1.00000e+00	1.00000e+00	1.00000e+00	1.00000e+00	1.00000e+00	1.00000e+00	1.00000e+00	1.00000e+00	1.00000e+00	1.00000e+00	1.00000e+00	1.00000e+00	1.00000e+00	1.00000e+00	1.00000e+00	1.00000e+00	1.00000e+00	1.00000e+00	1.00000e+00	1.00000e+00	1.00000e+00	1.00000e+00	1.00000e+00	1.00000e+00	1.00000e+00	1.00000e+00	1.00000e+00	1.00000e+00	1.00000e+00	1.00000e+00	1.00000e+00	1.00000e+00	X	X	X	X	X	X	X	X	X	X	X	X	X	X	X	X	

B = Detector Channel
Val Type	B-AC1	B-AC2	B-AC3	B-AC4	B-AC5	B-AC6	B-AC7	B-AC8	B-AC9	B-AC10	B-AC11	B-AC12	B-AC13	B-AC14	B-AC15	B-AC16	B-DC1	B-DC2	B-DC3	B-DC4	B-DC5	B-DC6	B-DC7	B-DC8	B-DC9	B-DC10	B-DC11	B-DC12	B-DC13	B-DC14	B-DC15	B-DC16	B-Ph1	B-Ph2	B-Ph3	B-Ph4	B-Ph5	B-Ph6	B-Ph7	B-Ph8	B-Ph9	B-Ph10	B-Ph11	B-Ph12	B-Ph13	B-Ph14	B-Ph15	B-Ph16	

Term	0.00000e+00	0.00000e+00	0.00000e+00	0.00000e+00	0.00000e+00	0.00000e+00	0.00000e+00	0.00000e+00	0.00000e+00	0.00000e+00	0.00000e+00	0.00000e+00	0.00000e+00	0.00000e+00	0.00000e+00	0.00000e+00	0.00000e+00	0.00000e+00	0.00000e+00	0.00000e+00	0.00000e+00	0.00000e+00	0.00000e+00	0.00000e+00	0.00000e+00	0.00000e+00	0.00000e+00	0.00000e+00	0.00000e+00	0.00000e+00	0.00000e+00	0.00000e+00	-1.52259e+01	-1.21314e+02	-1.23051e+02	-1.84901e+02	-5.91357e+01	-7.46805e+01	-1.57730e+02	-1.62015e+02	-3.40933e+01	-6.62299e+01	-1.71524e+02	-1.72147e+02	-1.80048e+02	-1.78167e+02	-4.40745e+01	-1.50823e+02	
Factor	2.76434e-05	1.26985e-04	3.54059e-05	1.59654e-01	1.74063e-06	1.45815e-06	1.52443e-01	4.95556e-02	1.43490e-06	1.07965e-06	1.17551e-01	2.58781e-02	2.28946e-02	8.02273e-03	1.27440e-06	1.15230e-02	1.86249e-06	1.97404e-06	5.49644e-07	8.35806e-02	2.14999e-08	2.16645e-08	7.48903e-02	2.60166e-02	2.14823e-08	2.17078e-08	5.86460e-02	1.31064e-02	1.20647e-02	4.22979e-03	2.15515e-08	5.85250e-03	X	X	X	X	X	X	X	X	X	X	X	X	X	X	X	X	



#DISTANCE SETTINGS
A = Detector Channel
A-1	A-2	A-3	A-4	A-5	A-6	A-7	A-8	A-9	A-10	A-11	A-12	A-13	A-14	A-15	A-16	

2.5000e+00	3.0000e+00	2.5000e+00	3.0000e+00	2.0000e+00	3.0000e+00	1.5000e+00	3.0000e+00	3.0000e+00	3.0000e+00	3.0000e+00	3.0000e+00	3.0000e+00	3.0000e+00	1.5000e+00	3.0000e+00	

B = Detector Channel
B-1	B-2	B-3	B-4	B-5	B-6	B-7	B-8	B-9	B-10	B-11	B-12	B-13	B-14	B-15	B-16	

1.0000e+01	1.0000e+01	1.0000e+01	1.4400e+00	1.0000e+01	1.0000e+01	1.5100e+00	1.9400e+00	1.0000e+01	1.0000e+01	1.9900e+00	2.4900e+00	2.4100e+00	2.9000e+00	1.0000e+01	2.9800e+00	




#DATA BEGINS
time	group	step	mark	flag	A-AC1	A-AC2	A-AC3	A-AC4	A-AC5	A-AC6	A-AC7	A-AC8	A-AC9	A-AC10	A-AC11	A-AC12	A-AC13	A-AC14	A-AC15	A-AC16	A-DC1	A-DC2	A-DC3	A-DC4	A-DC5	A-DC6	A-DC7	A-DC8	A-DC9	A-DC10	A-DC11	A-DC12	A-DC13	A-DC14	A-DC15	A-DC16	A-Ph1	A-Ph2	A-Ph3	A-Ph4	A-Ph5	A-Ph6	A-Ph7	A-Ph8	A-Ph9	A-Ph10	A-Ph11	A-Ph12	A-Ph13	A-Ph14	A-Ph15	A-Ph16	B-AC1	B-AC2	B-AC3	B-AC4	B-AC5	B-AC6	B-AC7	B-AC8	B-AC9	B-AC10	B-AC11	B-AC12	B-AC13	B-AC14	B-AC15	B-AC16	B-DC1	B-DC2	B-DC3	B-DC4	B-DC5	B-DC6	B-DC7	B-DC8	B-DC9	B-DC10	B-DC11	B-DC12	B-DC13	B-DC14	B-DC15	B-DC16	B-Ph1	B-Ph2	B-Ph3	B-Ph4	B-Ph5	B-Ph6	B-Ph7	B-Ph8	B-Ph9	B-Ph10	B-Ph11	B-Ph12	B-Ph13	B-Ph14	B-Ph15	B-Ph16	aux-1	digaux	

1029.379	1	1	0	256	0.084793	0.20289	0.28358	0.049422	0.24824	0.17761	0.18638	0.18989	0.14521	0.12327	0.13291	0.066398	0.15856	0.19611	0.3136	0.089329	-2.6208	-3.5479	-3.2729	-3.3542	-3.7438	-2.875	-3.8625	-3.5542	-2.9729	-3.8375	-3.2687	-3.2958	-3.825	-2.8812	-3.4979	-3.7021	209.800	36.554	13.120	269.305	-9.176	196.073	232.198	244.391	195.943	-27.810	271.387	271.644	5.633	210.287	193.799	101.856	0.00016292	0.00023724	0.00011219	1107.5	3.6217e-06	1.0086e-05	1194.1	225.31	2.8639e-06	3.5799e-06	281.35	78.787	62.547	18.339	2.3567e-06	25.151	0.00037398	0.00037839	0.00010627	1086.5	4.2013e-06	4.2443e-06	1174.5	225.2	4.1553e-06	4.1958e-06	281.42	79.994	63.395	18.812	4.107e-06	25.79	265.046	37.227	-10.264	-63.194	37.961	72.411	-63.192	-55.755	180.525	35.025	-56.279	-49.298	-48.799	-42.242	-20.460	-43.226	-8191	255	
1029.451	1	1	0	0	0.23898	0.24867	0.20903	0.0088458	0.13722	0.2043	0.21618	0.23129	0.081811	0.17763	0.12655	0.12473	0.081912	0.16621	0.090023	0.025543	-2.5208	-3.8646	-3.1458	-3.2542	-3.7542	-3.1708	-3.5333	-3.7146	-2.9354	-3.8521	-3.3729	-2.9271	-3.8563	-3.0583	-3.4229	-3.5708	284.262	114.078	116.789	-62.110	37.505	241.971	200.288	187.081	174.175	222.477	-63.661	154.035	158.256	223.259	-57.328	180.651	0.00014632	0.00016423	6.212e-05	1100.9	2.69e-06	2.4111e-06	1197.7	227.02	8.0181e-06	5.1248e-06	281.4	79.704	62.663	18.195	1.6441e-06	25.062	0.00036317	0.00037793	0.00010625	1084.4	4.1458e-06	4.1551e-06	1175.6	225.42	4.1412e-06	4.2048e-06	281.29	80.19	63.511	18.756	4.2084e-06	25.824	271.804	25.483	-58.192	-63.449	140.248	221.541	-63.134	-55.911	77.881	66.635	-56.562	-49.044	-48.792	-42.317	241.718	-43.021	-8191	255	
1029.571	1	1	0	0	0.20222	0.14587	0.21339	0.14058	0.20977	0.093055	0.11636	0.23741	0.19354	0.20454	0.11389	0.11526	0.19685	0.22021	0.12458	0.27881	-2.6208	-3.5271	-3.5833	-3.0979	-3.7708	-3.1604	-3.5687	-3.7771	-2.7958	-3.6271	-3.4854	-3.1229	-3.8563	-3.1667	-3.15	-3.6437	11.202	-18.520	13.912	199.839	272.354	59.237	271.190	241.672	159.155	229.318	20.677	171.593	26.725	-66.909	256.186	187.181	0.00010351	0.00066074	0.0001073	1102.8	5.5694e-06	3.6986e-06	1188.9	226.3	3.8187e-06	3.9324e-06	281.25	79.218	62.525	18.368	4.1968e-06	25.268	0.00037957	0.00037789	0.00010631	1084.9	4.2242e-06	4.2249e-06	1174.3	225.71	4.1681e-06	4.1916e-06	280.63	80.209	63.456	18.837	4.1761e-06	25.863	256.276	35.034	29.391	-63.112	67.487	37.759	-63.290	-56.062	11.603	68.960	-56.245	-48.787	-48.690	-41.852	111.035	-42.773	-8191	255	
1029.668	1	1	0	0	0.33707	0.097716	0.28363	0.084444	0.12346	0.17699	0.34128	0.031249	0.1558	0.29662	0.25818	0.049068	0.087941	0.13818	0.18491	0.052752	-2.4896	-3.625	-3.5083	-3.2208	-3.6708	-3.2708	-3.225	-4.0542	-3.0021	-3.5312	-3.6917	-2.8521	-3.7271	-3.4021	-3.1208	-3.6521	123.639	-29.247	260.090	-56.172	168.030	-16.822	200.127	177.151	-52.625	229.095	241.797	-38.344	148.294	9.534	51.826	214.262	0.00014107	0.00037592	1.5133e-05	1107.1	8.9988e-06	8.0798e-06	1201.7	227.01	3.816e-06	4.5598e-06	283.79	79	62.482	18.306	2.1231e-06	25.115	0.00036445	0.00037074	0.00010467	1085.6	4.1042e-06	4.0595e-06	1177.4	225.72	4.1106e-06	4.1827e-06	282.01	80.143	63.594	18.792	4.2262e-06	25.825	-24.177	0.397	100.264	-63.334	134.973	91.864	-63.141	-55.811	169.486	261.164	-55.668	-49.189	-48.846	-42.166	134.380	-42.709	-8191	255	
1029.764	1	1	0	0	0.15981	0.31043	0.3926	0.27211	0.041883	0.28027	0.10366	0.15746	0.18822	0.086916	0.12926	0.069971	0.16716	0.1515	0.16727	0.16927	-2.7542	-3.2396	-3.525	-2.8875	-3.7125	-3.2833	-3.1188	-3.6979	-2.9437	-3.4708	-3.7521	-2.9583	-3.6417	-3.6771	-2.9375	-3.8708	172.934	61.532	-51.289	-22.916	125.273	100.456	129.616	232.240	133.978	114.240	139.483	240.764	194.436	188.491	-22.407	247.354	4.7807e-05	0.00063185	4.5322e-05	1104.3	8.4214e-06	5.3032e-06	1195.3	227.91	3.7535e-06	6.9255e-06	283.85	78.842	63.102	18.364	4.3931e-06	25.128	0.00037812	0.00038996	0.00010665	1085.8	4.2297e-06	4.2067e-06	1176.2	226.39	4.2561e-06	4.2664e-06	282.05	80.208	63.552	18.895	4.2423e-06	25.842	-50.494	51.599	43.653	-63.359	177.034	12.635	-63.227	-55.974	29.443	60.876	-56.269	-49.306	-48.769	-42.393	145.826	-42.796	-8191	255	
1029.883	1	1	0	0	0.15667	0.28918	0.1373	0.355	0.30712	0.074347	0.33527	0.1362	0.32318	0.15472	0.23498	0.20212	0.027398	0.23671	0.077869	0.13764	-2.6271	-3.1688	-3.6625	-2.9896	-3.6458	-3.3896	-3.2042	-3.6937	-3.1708	-3.2687	-3.6417	-3.0708	-3.5208	-3.5771	-2.9396	-3.6646	120.540	256.241	46.886	282.959	268.415	-18.222	214.099	186.713	188.706	10.822	171.159	89.357	-56.643	273.384	2.252	105.610	0.00010776	0.00029293	2.8136e-05	1097.9	6.8309e-06	5.6451e-06	1199	227.32	6.7821e-06	2.0264e-06	280.68	79.05	62.85	18.364	4.3694e-06	25.127	0.00038216	0.00039133	0.00010949	1085.1	4.2441e-06	4.2976e-06	1178.8	226.22	4.4041e-06	4.3156e-06	281.88	80.193	63.681	18.859	4.4233e-06	25.959	276.643	125.147	88.341	-63.318	77.297	180.589	-63.020	-55.872	42.063	31.612	-56.337	-49.313	-48.910	-41.867	121.612	-42.838	-8191	255	
1029.979	1	1	0	0	0.13426	0.21723	0.20943	0.32906	0.30226	0.19462	0.19059	0.093974	0.1225	0.13365	0.15241	0.099737	0.22417	0.27312	0.16405	0.12084	-2.7104	-3.1042	-3.6167	-3.0292	-3.5938	-3.5583	-2.8708	-3.9083	-3.1813	-3.1479	-3.6875	-2.9958	-3.3312	-3.7333	-2.8854	-3.7104	-38.191	259.726	-57.024	-73.846	222.674	-19.478	169.637	-56.838	200.953	191.743	195.814	-28.878	193.858	-55.930	156.415	227.345	5.9155e-05	0.00016207	0.00019108	1102.3	5.9593e-06	5.4906e-06	1194.2	226.62	4.8474e-06	8.5663e-06	280.83	79.136	62.748	18.186	2.6841e-06	24.966	0.00039388	0.00041072	0.00011342	1086.1	4.4199e-06	4.4033e-06	1177.8	226.48	4.4758e-06	4.5453e-06	282.47	80.318	63.937	18.877	4.5942e-06	25.885	237.701	120.046	63.556	-63.369	34.738	66.803	-63.603	-56.127	111.097	38.833	-56.515	-49.411	-48.829	-42.025	94.265	-42.442	-8191	255	
1030.050	1	1	0	0	0.046419	0.3166	0.11421	0.22644	0.10767	0.12409	0.32797	0.25972	0.12135	0.01931	0.12368	0.14715	0.055984	0.29695	0.19835	0.025101	-3.0104	-2.9771	-3.825	-3.1583	-3.425	-3.4125	-3.2083	-3.7	-3.4792	-2.7729	-3.7583	-3.225	-3.2396	-3.7271	-2.9542	-3.7062	-42.181	135.652	85.849	264.863	267.206	160.587	182.640	-0.040	259.902	47.183	249.801	-18.149	-55.591	-19.413	248.155	28.583	0.00011025	0.00044085	0.00013739	1096.9	9.7613e-06	1.3992e-06	1193.4	226.84	8.6326e-06	5.5896e-06	283.53	79.063	62.578	18.265	1.5782e-06	25.077	0.00040921	0.00041967	0.00011633	1085.6	4.6818e-06	4.6227e-06	1178.4	226.44	4.6275e-06	4.7067e-06	283.02	80.33	63.883	18.928	4.6919e-06	25.995	276.469	167.956	-13.169	-63.554	19.609	246.444	-63.387	-55.847	144.599	6.374	-56.406	-49.490	-48.947	-41.763	183.987	-42.829	-8191	255	
1030.171	1	1	0	0	0.1627	0.10655	0.13769	0.17316	0.21696	0.095639	0.063826	0.051376	0.25432	0.18034	0.11613	0.18489	0.24362	0.33256	0.29308	0.1688	-3.2396	-3.0354	-3.6917	-3.3646	-3.2208	-3.75	-3.1625	-3.3979	-3.5292	-2.9292	-3.6458	-3.3438	-3.0646	-3.9771	-2.9625	-3.4813	152.519	23.164	164.011	190.016	265.529	83.537	177.501	179.405	98.332	34.997	-36.005	213.047	227.300	-3.529	-60.358	196.256	9.4122e-06	0.00021779	4.6836e-05	1106.6	4.5013e-07	3.6607e-06	1203.1	226.16	5.6062e-06	4.9133e-06	283.6	78.809	63.035	18.352	5.1166e-06	24.967	0.00040759	0.00043067	0.00011818	1088.4	4.6409e-06	4.6487e-06	1179.9	226.66	4.5313e-06	4.5812e-06	283.17	80.188	63.809	18.894	4.5471e-06	25.884	257.978	153.532	64.710	-63.678	161.070	52.972	-63.421	-55.843	122.774	205.319	-56.195	-49.610	-48.782	-42.286	258.415	-42.434	-8191	255	
1030.267	1	1	0	0	0.17752	0.18668	0.06958	0.1237	0.29844	0.082249	0.34035	0.13015	0.2564	0.092801	0.43875	0.22242	0.24004	0.041177	0.20286	0.065774	-3.2021	-2.8708	-3.7562	-3.4562	-2.9562	-3.7542	-3.2167	-3.4938	-3.6729	-3.1562	-3.6833	-3.3521	-3.1375	-3.8333	-2.8146	-3.2458	80.289	182.866	223.447	23.783	267.020	47.570	223.627	-44.140	91.188	-46.826	218.605	-64.082	245.104	93.824	-44.441	141.567	7.8024e-05	0.00052966	6.9874e-05	1103.7	3.0373e-06	8.8892e-07	1194.6	226.85	1.3129e-06	4.2707e-06	283.46	79.236	62.621	18.241	5.4913e-06	25.079	0.00039297	0.00041818	0.00011379	1088.5	4.4822e-06	4.4558e-06	1177.4	226.61	4.3812e-06	4.3819e-06	282.75	80.192	63.565	18.803	4.2578e-06	25.854	283.568	26.439	57.358	-63.630	228.262	-69.549	-63.384	-55.584	283.176	88.420	-56.087	-49.191	-48.664	-42.200	88.277	-42.546	-8191	255	
1030.363	1	1	0	0	0.26725	0.24703	0.28685	0.047025	0.19905	0.060829	0.11962	0.1421	0.16997	0.052393	0.10351	0.11483	0.005776	0.15371	0.14203	0.27504	-3.2833	-2.9875	-3.4167	-3.6396	-2.8375	-3.7708	-3.3292	-3.2771	-3.875	-2.8979	-3.6667	-3.6042	-2.9458	-3.7938	-3.2896	-3.1063	-24.281	68.710	48.919	-65.154	101.237	55.610	183.714	-59.777	258.385	81.865	24.386	75.233	32.170	-19.993	116.370	220.454	1.7393e-05	0.00024626	5.2205e-05	1105.7	5.7385e-06	8.3577e-07	1199.5	226.31	1.9575e-06	9.6187e-07	283.03	79.274	62.981	18.247	3.0389e-06	25.111	0.00037522	0.00038295	0.00010604	1086.8	4.2178e-06	4.1849e-06	1177.3	225.85	4.0455e-06	4.0589e-06	281.38	79.992	63.595	18.768	3.9743e-06	25.798	242.401	-63.733	-35.948	-63.498	12.447	206.835	-63.432	-55.827	229.162	71.974	-55.727	-49.214	-48.869	-41.796	188.906	-42.807	-8191	255	
1030.460	1	1	0	0	0.067058	0.079539	0.15824	0.19826	0.14038	0.068755	0.35388	0.01883	0.29587	0.12393	0.14435	0.22485	0.1718	0.24812	0.088437	0.11597	-3.4583	-2.7958	-3.3688	-3.6854	-2.8625	-3.4458	-3.4104	-3.0896	-3.7125	-3.0875	-3.4542	-3.7708	-2.6833	-3.7042	-3.3	-2.8917	6.357	203.854	119.784	132.328	168.183	54.693	279.172	17.188	264.332	19.731	-33.436	-55.717	269.218	-55.142	-37.770	-12.814	0.00018819	0.00023254	8.6045e-05	1103.3	4.8969e-06	7.9006e-07	1195.5	226.69	3.0897e-06	3.2851e-06	282.89	79.079	62.833	18.388	1.9564e-06	25.228	0.00035246	0.00036151	0.00010003	1083.7	3.9182e-06	3.8506e-06	1173.8	225.31	3.8456e-06	3.9259e-06	281.46	79.854	63.403	18.741	3.7447e-06	25.654	276.234	35.702	50.888	-63.278	36.855	179.522	-63.084	-55.561	216.605	96.737	-55.927	-48.987	-48.725	-41.554	149.736	-42.794	-8191	255	
1030.556	1	1	0	0	0.14335	0.1797	0.21786	0.23705	0.22113	0.20134	0.38541	0.19872	0.2375	0.33269	0.065458	0.23402	0.10892	0.14267	0.1131	0.13912	-3.4146	-3.1271	-3.3146	-3.8312	-2.9875	-3.7375	-3.5229	-2.9062	-3.6479	-3.1083	-3.1875	-3.7625	-2.9188	-3.5292	-3.3833	-3.0625	178.473	273.104	-61.483	223.406	185.256	42.727	228.257	203.430	49.537	258.299	-44.741	-57.695	183.615	-17.882	271.437	160.589	6.5346e-06	0.00062009	0.00018613	1105.4	3.0238e-06	4.2161e-06	1191.5	226.75	5.5327e-06	1.9884e-06	282.94	79.297	62.937	18.118	5.2818e-06	25.111	0.00033424	0.00034073	9.353e-05	1083	3.7699e-06	3.7027e-06	1172	225.58	3.6417e-06	3.6493e-06	280.57	79.828	63.381	18.654	3.6681e-06	25.651	220.130	35.538	47.790	-63.676	151.047	62.343	-63.270	-55.802	99.318	12.889	-55.820	-48.968	-48.140	-42.116	149.987	-42.621	-8191	255	
1030.675	1	1	0	0	0.21485	0.078296	0.223	0.30894	0.23417	0.097719	0.30135	0.075914	0.19291	0.011887	0.16576	0.20285	0.30736	0.046319	0.18826	0.065903	-3.4917	-3.3	-3.2708	-3.775	-2.9354	-3.4271	-3.6375	-2.9813	-3.5875	-3.1042	-3.1771	-3.7729	-3.1396	-3.3917	-3.5625	-2.9542	99.179	-58.942	1.538	228.342	238.641	44.930	205.359	-48.972	179.200	103.160	255.273	32.320	-34.496	-59.766	203.860	267.317	0.0001531	0.00032068	5.2089e-05	1103.8	3.1075e-06	1.4656e-06	1198.6	227.58	1.628e-06	5.5985e-07	282.56	78.683	62.977	18.24	2.2096e-06	25.028	0.0003392	0.00034537	9.7967e-05	1083.6	3.852e-06	3.8441e-06	1175	225.8	3.8738e-06	3.8851e-06	280.95	79.698	63.418	18.666	3.7987e-06	25.595	254.446	62.070	68.736	-63.473	49.732	148.519	-63.154	-55.662	35.157	80.054	-56.077	-49.409	-48.823	-41.695	140.013	-42.616	-8191	255	
1030.748	1	1	0	0	0.17362	0.20253	0.019287	0.30695	0.13572	0.28179	0.207	0.17599	0.16188	0.29761	0.2953	0.061785	0.26347	0.14547	0.11436	0.14834	-3.0417	-3.3187	-2.9729	-3.9708	-3.1083	-3.3937	-3.5438	-2.9562	-3.5833	-3.5083	-3.0979	-3.7812	-3.1813	-3.2458	-3.7479	-2.9	-72.909	-42.507	133.549	227.350	55.453	227.714	218.409	-59.909	76.913	280.243	238.869	270.735	238.114	124.704	40.740	18.561	8.3994e-05	8.2936e-05	0.00012389	1104.2	3.4864e-06	8.0309e-06	1195.7	226.03	5.2848e-06	1.7993e-06	282.87	79.184	62.423	18.12	4.0393e-06	25.116	0.00033914	0.00034851	9.6373e-05	1082.5	3.8658e-06	3.723e-06	1174.3	225.4	3.7867e-06	3.7169e-06	280.41	79.577	63.177	18.705	3.7084e-06	25.703	230.789	205.933	-5.911	-63.101	-38.901	78.064	-63.134	-55.386	75.977	76.502	-55.591	-49.122	-48.787	-41.695	68.740	-42.660	-8191	255	
1030.844	1	1	0	0	0.08081	0.1076	0.097679	0.25836	0.222	0.091096	0.23176	0.36372	0.063654	0.21864	0.14527	0.13754	0.092143	0.051704	0.113	0.12072	-3.3229	-3.5	-2.9313	-3.9188	-3.0187	-3.2292	-3.8937	-2.9833	-3.5292	-3.6146	-2.9813	-3.8167	-3.3521	-3.2708	-3.8167	-3.0917	279.773	191.271	220.458	274.554	162.669	284.341	247.571	245.942	67.025	215.076	35.155	282.958	171.675	251.610	165.494	188.493	0.00013251	0.00035958	3.8019e-05	1103.9	4.2018e-06	2.6382e-06	1192.7	226.17	9.5806e-06	3.9532e-06	281.43	78.622	62.651	18.167	1.176e-06	25.055	0.00032785	0.00033441	9.3682e-05	1084.2	3.658e-06	3.6008e-06	1172.8	224.74	3.5206e-06	3.5675e-06	279.65	79.524	62.856	18.58	3.5609e-06	25.593	278.194	-42.797	23.549	-63.341	103.223	-16.375	-62.872	-55.705	141.312	19.852	-55.664	-48.794	-48.416	-41.991	70.616	-42.211	-8191	255	
1030.963	1	1	0	0	0.066441	0.10897	0.16119	0.30814	0.29616	0.071685	0.11244	0.20447	0.27877	0.075562	0.041686	0.18409	0.056303	0.14186	0.18518	0.14582	-3.1562	-3.6229	-2.8792	-3.7562	-3.225	-2.9813	-4.0521	-2.8896	-3.3958	-3.6396	-2.6854	-3.6833	-3.3438	-3.1396	-3.825	-3.1625	221.432	31.514	28.008	228.125	236.396	38.303	253.856	209.552	119.853	43.443	-37.222	-58.640	208.302	16.409	242.312	261.952	0.00015061	0.00023396	6.98e-05	1102.9	1.1241e-06	2.2471e-06	1194.1	225.63	3.172e-06	5.0996e-06	280.87	78.918	62.13	18.113	5.3483e-06	25.053	0.00031453	0.0003172	8.9309e-05	1083.2	3.5126e-06	3.5478e-06	1170.3	224.7	3.4831e-06	3.4657e-06	279.81	79.527	63.018	18.574	3.3768e-06	25.503	-52.248	-9.997	-8.336	-63.141	119.401	-40.439	-63.009	-55.466	117.606	54.193	-55.954	-48.864	-48.204	-41.529	127.387	-41.915	-8191	255	
1031.059	1	1	0	0	0.18641	0.13557	0.069143	0.26973	0.078229	0.20296	0.24315	0.15755	0.066237	0.13518	0.062776	0.1605	0.29456	0.20891	0.17938	0.1057	-2.9979	-3.5417	-3.0146	-3.7188	-3.3896	-3.0104	-4.0771	-3.2625	-3.3792	-3.8708	-2.9333	-3.6229	-3.4146	-2.8833	-3.6729	-3.1646	250.230	-37.344	251.843	274.770	233.322	76.681	224.841	283.766	-41.025	113.531	49.217	189.557	204.023	25.167	145.709	27.244	2.815e-06	0.00034735	0.00011048	1106	5.0826e-06	5.9685e-06	1194.4	225.65	3.0063e-06	2.6928e-06	283.36	78.692	62.557	18.245	3.3329e-06	24.957	0.00030627	0.00030747	8.5577e-05	1082.4	3.3765e-06	3.3791e-06	1170.1	224.62	3.3417e-06	3.3864e-06	279.83	79.248	63.042	18.596	3.3918e-06	25.528	65.856	-1.354	58.356	-63.149	79.367	-8.344	-62.877	-55.486	103.050	56.386	-56.059	-49.168	-48.714	-41.464	15.646	-42.039	-8191	255	
1031.155	1	1	0	0	0.10754	0.080973	0.019559	0.15568	0.18935	0.1743	0.12762	0.20051	0.25445	0.053022	0.053216	0.054823	0.02857	0.15188	0.057016	0.23042	-2.8146	-3.6229	-2.875	-3.6292	-3.6042	-2.8896	-3.875	-3.4292	-3.0958	-3.7146	-3.0042	-3.5271	-3.5917	-2.9417	-3.9875	-3.2667	-44.573	266.791	93.436	-35.217	-50.298	170.308	145.571	-56.073	166.679	185.783	-53.361	45.381	-46.448	-40.658	18.307	167.531	7.3583e-05	0.00039599	4.3931e-05	1101	3.2864e-06	2.7176e-06	1197.7	226.02	1.9275e-06	1.7974e-06	283.75	78.991	63.124	18.164	1.8624e-06	25.134	0.00030957	0.00031572	8.8115e-05	1080.6	3.4736e-06	3.4667e-06	1172.9	224.55	3.4514e-06	3.3998e-06	279.36	79.338	62.978	18.538	3.2986e-06	25.519	216.982	32.200	-25.650	-63.038	120.936	161.246	-62.921	-55.289	54.030	81.068	-56.068	-49.085	-48.830	-41.389	99.821	-42.680	-8191	255	
1031.251	1	1	0	0	0.15082	0.03644	0.14501	0.227	0.12013	0.081652	0.16906	0.014695	0.03365	0.17147	0.03368	0.082277	0.078934	0.086699	0.21354	0.18101	-2.6458	-3.8021	-3.025	-3.55	-3.5208	-2.9646	-3.8917	-3.4188	-2.9896	-3.6167	-3.1208	-3.4375	-3.6542	-3.0292	-3.6458	-3.4646	-13.114	104.315	117.819	240.841	66.877	169.206	139.794	77.858	9.673	250.635	125.808	-6.040	277.305	-55.836	94.919	216.923	0.00018951	0.00041102	6.6046e-06	1101.4	6.0801e-06	7.1959e-06	1192.9	225.82	3.2701e-06	1.5126e-06	281.15	78.983	62.161	18.206	1.7053e-06	25.146	0.00029673	0.00029796	8.3683e-05	1081.5	3.3273e-06	3.2813e-06	1172.2	223.5	3.2536e-06	3.2495e-06	278.44	79.383	62.821	18.568	3.2905e-06	25.434	263.331	38.414	76.989	-63.044	104.862	109.607	-63.020	-55.507	63.679	95.946	-56.084	-48.736	-48.811	-41.559	154.727	-42.574	-8191	255	
1031.348	1	1	0	0	0.087807	0.14607	0.23266	0.35618	0.17725	0.20557	0.22197	0.10111	0.12517	0.12179	0.088437	0.22243	0.12199	0.097669	0.0638	0.30277	-2.5375	-3.7146	-3.0625	-3.3146	-3.5375	-3.0062	-3.6188	-3.425	-2.875	-3.7083	-3.325	-3.3208	-3.7146	-2.9	-3.4562	-3.5167	187.320	191.301	126.002	266.678	230.116	80.621	217.880	269.182	68.967	201.590	281.335	204.548	227.528	62.257	-22.558	274.235	0.00012353	0.00013405	6.9584e-05	1100.8	3.7322e-06	2.8208e-06	1197.7	225.71	9.362e-07	3.2159e-06	282.62	79.137	62.223	18.193	3.7515e-06	25.033	0.0002999	0.00029789	8.2182e-05	1082.4	3.2879e-06	3.3099e-06	1172.4	224.2	3.2771e-06	3.2457e-06	278.05	79.408	62.731	18.522	3.2635e-06	25.488	240.673	198.775	-65.976	-63.102	21.918	78.197	-62.687	-55.415	30.554	71.811	-55.953	-49.190	-48.553	-41.959	77.256	-42.579	-8191	255	
1031.444	1	1	0	0	0.27268	0.14692	0.057418	0.07435	0.36269	0.072428	0.23831	0.26736	0.097606	0.18696	0.17816	0.10254	0.07072	0.17747	0.14089	0.082579	-2.5854	-3.6375	-2.9813	-3.1229	-3.8583	-2.9875	-3.6021	-3.5083	-2.8396	-3.5208	-3.2458	-2.875	-3.7646	-3.0292	-3.3646	-3.5958	191.369	4.403	-17.828	100.471	-6.293	259.494	216.453	253.288	140.557	-57.596	100.762	204.458	-60.571	206.326	271.368	-33.112	0.00015287	0.00044226	2.7603e-05	1101.6	3.3638e-06	1.9322e-06	1196.3	225.3	4.7931e-06	3.3009e-06	281.54	78.397	62.37	18.052	4.0424e-06	24.915	0.00029585	0.00030165	8.3143e-05	1081.8	3.3652e-06	3.3298e-06	1171.1	224.04	3.3023e-06	3.3033e-06	278.99	79.29	62.843	18.531	3.3184e-06	25.424	-72.286	40.224	191.777	-63.175	64.572	4.049	-62.875	-55.358	123.297	0.357	-55.657	-48.904	-48.714	-41.522	55.855	-42.180	-8191	255	
1031.564	1	1	0	0	0.077217	0.14306	0.096187	0.17176	0.14016	0.04653	0.04575	0.15468	0.10601	0.16813	0.12252	0.11093	0.19759	0.10538	0.083074	0.19061	-2.5687	-3.6167	-3.3063	-3.0625	-3.7771	-3.0062	-3.5396	-3.7292	-2.8625	-3.6937	-3.4354	-2.9083	-3.8	-3.0854	-3.2188	-3.9833	-21.516	-63.386	155.440	281.909	108.882	134.219	-0.904	72.099	27.014	250.605	136.683	241.004	259.806	271.880	-47.950	0.566	0.00010473	0.00030463	3.5084e-05	1104.5	3.861e-06	7.2222e-06	1192.9	225.97	3.5947e-06	2.4931e-07	279.57	78.728	62.533	18.148	3.8385e-06	25.022	0.00029585	0.00030178	8.4346e-05	1081.9	3.3275e-06	3.2967e-06	1170.8	223.91	3.3662e-06	3.3445e-06	278.15	79.132	63.019	18.569	3.2675e-06	25.505	-33.081	23.666	3.497	-62.947	124.960	280.377	-62.848	-55.183	93.222	-25.284	-55.662	-48.658	-48.458	-41.519	125.548	-41.889	-8191	255	
1031.661	1	1	0	0	0.16568	0.11066	0.11919	0.3887	0.18438	0.11741	0.32093	0.2335	0.19782	0.18746	0.046948	0.24898	0.24782	0.13284	0.069355	0.016492	-2.6667	-3.4188	-3.3563	-2.9833	-3.8771	-3.2583	-3.1	-3.8417	-3.0521	-3.4271	-3.625	-2.7938	-3.7687	-3.3083	-3.1396	-3.7792	-68.008	125.531	217.885	-40.446	-64.609	-1.823	206.766	181.878	221.185	215.604	153.437	-57.867	272.679	-60.930	-20.893	253.262	0.0001831	0.00041161	9.7545e-05	1102.5	5.1241e-06	4.3193e-06	1195.2	224.7	1.9029e-06	2.6875e-06	280.71	79.143	62.626	18.28	4.4338e-07	24.893	0.00029803	0.0003004	8.3183e-05	1082.1	3.2959e-06	3.3542e-06	1171.5	223.9	3.332e-06	3.2804e-06	278.81	79.354	63.086	18.547	3.298e-06	25.488	233.193	81.885	103.046	-62.877	-7.130	82.008	-62.861	-55.445	113.138	43.993	-55.598	-48.983	-48.210	-42.104	258.029	-42.229	-8191	255	
1031.757	1	1	0	0	0.16548	0.14415	0.29258	0.096827	0.063976	0.19465	0.15339	0.16811	0.22164	0.20464	0.18585	0.19206	0.19113	0.26252	0.2883	0.044825	-2.5917	-3.2875	-3.5375	-3.0125	-3.6333	-3.2625	-3.2229	-3.8438	-3.025	-3.2062	-3.6792	-3.1167	-3.7917	-3.4188	-3.1708	-3.8875	110.949	197.509	30.995	255.807	213.969	167.671	178.006	249.011	10.180	235.688	168.068	216.157	-46.805	-29.449	50.095	-6.216	0.00014417	0.00032327	5.4678e-05	1102.2	4.1071e-06	5.084e-06	1187.9	227.31	6.2329e-06	1.9041e-06	280.72	78.76	62.748	18.291	3.8137e-06	25.228	0.00029722	0.00030106	8.4082e-05	1079.7	3.3536e-06	3.3375e-06	1170.4	224.49	3.3523e-06	3.4072e-06	277.97	79.34	63.066	18.584	3.2727e-06	25.562	-63.004	-35.282	182.499	-62.992	92.159	66.361	-62.756	-55.368	80.424	234.176	-55.748	-48.521	-48.115	-41.791	96.931	-42.701	-8191	255	
1031.851	1	1	0	0	0.39822	0.064033	0.16749	0.059872	0.20257	0.18675	0.15632	0.24258	0.1375	0.063115	0.096885	0.093766	0.043823	0.033215	0.0368	0.058341	-2.5667	-3.2021	-3.8208	-2.9271	-3.5938	-3.5104	-3.2292	-3.8625	-3.2333	-3.3312	-3.6875	-3.0833	-3.5021	-3.6271	-2.9729	-3.8333	126.863	174.053	-24.360	234.587	-18.920	223.672	-9.700	219.412	282.946	217.209	144.657	248.161	42.153	-54.616	-9.137	-51.813	0.00016002	0.00036979	4.7844e-05	1099.8	3.3046e-06	9.7716e-07	1195.7	224.69	2.6768e-06	2.7592e-06	280.17	78.948	62.571	18.266	3.9178e-06	25.009	0.00029448	0.0003006	8.3842e-05	1081.8	3.3334e-06	3.3041e-06	1171.1	223.96	3.3737e-06	3.3316e-06	277.72	79.365	63.073	18.577	3.4067e-06	25.481	-63.600	63.443	254.090	-63.179	-63.083	74.830	-62.855	-55.616	137.385	170.344	-56.243	-49.349	-48.326	-42.057	58.630	-42.099	-8191	255	
1031.972	1	1	0	0	0.14147	0.11803	0.064515	0.34542	0.2354	0.31426	0.33071	0.063194	0.064171	0.0085256	0.26113	0.29682	0.27161	0.12714	0.074618	0.11444	-2.6813	-3.0875	-3.6417	-3.0521	-3.3458	-3.6333	-3.0271	-3.7812	-3.2146	-3.075	-3.8833	-2.8646	-3.2521	-3.5708	-2.7958	-3.7521	28.817	-16.733	-57.906	-67.659	93.205	-47.694	252.647	168.159	-24.003	252.395	68.042	-61.394	283.553	-40.635	118.967	202.425	0.00012725	0.00017558	0.00010744	1102.8	7.0619e-06	4.9614e-06	1197.2	225.11	5.1862e-06	2.0253e-06	280.99	78.492	62.754	18.182	3.6691e-06	25.235	0.00029682	0.00030467	8.5117e-05	1081.9	3.3726e-06	3.2196e-06	1170	224.48	3.3056e-06	3.2944e-06	278.46	79.208	62.927	18.549	3.293e-06	25.599	231.758	12.543	49.010	-63.131	127.181	117.603	-62.674	-55.144	195.977	0.211	-55.488	-49.226	-48.484	-41.966	104.357	-42.471	-8191	255	
1032.043	1	1	0	0	0.16144	0.13578	0.03904	0.23093	0.16519	0.15193	0.067727	0.16253	0.080849	0.074316	0.20317	0.081394	0.064031	0.11899	0.11381	0.19918	-3.1167	-3.0875	-3.6896	-3.0938	-3.45	-3.6854	-3.0146	-3.6896	-3.3417	-2.8104	-3.6562	-3.0104	-3.1063	-3.7958	-2.8854	-3.6229	20.730	193.608	239.745	279.230	145.787	121.397	-60.765	-61.716	224.752	7.751	53.379	-55.035	198.821	46.610	192.581	272.305	5.9967e-05	0.00031256	3.979e-05	1104.9	9.3379e-06	2.1528e-06	1197.2	226	1.5402e-06	3.5082e-06	281.27	78.497	62.653	18.288	1.6489e-06	24.797	0.0002903	0.00029549	8.2789e-05	1081.4	3.3174e-06	3.1733e-06	1172.7	224.29	3.1569e-06	3.2619e-06	278.59	79.086	62.854	18.578	3.2839e-06	25.445	-37.022	182.129	223.984	-63.019	102.327	198.060	-62.965	-55.109	-7.059	87.933	-55.434	-48.812	-48.174	-41.522	88.028	-42.341	-8191	255	
1032.140	1	1	0	0	0.18078	0.10448	0.14925	0.14723	0.18438	0.075171	0.1662	0.12449	0.11775	0.063484	0.15809	0.10307	0.36538	0.28981	0.34964	0.094453	-2.9083	-2.9958	-3.7792	-3.1792	-3.0271	-3.6979	-2.9188	-3.5771	-3.5312	-2.9042	-3.6979	-3.1958	-3.175	-3.6833	-2.9083	-3.5542	74.711	247.963	149.291	258.086	47.295	40.912	211.537	133.459	128.972	-19.475	118.609	151.697	183.329	-54.602	61.355	-60.498	0.00016871	0.00058941	0.00014117	1100.5	5.4321e-06	4.0363e-06	1193.4	225.66	3.4618e-06	7.7654e-07	282.24	78.826	62.751	18.13	2.6644e-06	25.035	0.00029111	0.00029728	8.4476e-05	1080.7	3.2503e-06	3.2044e-06	1172.3	224.24	3.2229e-06	3.2298e-06	278.52	79.079	62.933	18.466	3.086e-06	25.478	269.777	10.114	-11.688	-62.976	108.286	37.252	-62.626	-55.234	148.816	155.788	-55.612	-48.782	-48.360	-41.459	165.796	-42.143	-8191	255	
1032.236	1	1	0	0	0.40477	0.093233	0.05183	0.18727	0.16197	0.23503	0.30013	0.17266	0.19656	0.24494	0.2841	0.095677	0.22101	0.10664	0.14962	0.084458	-3.15	-2.7771	-3.55	-3.3146	-2.9688	-3.8354	-3.0687	-3.4104	-3.5792	-2.7625	-3.5542	-3.4458	-2.7875	-3.8833	-2.8792	-3.2646	234.363	69.529	273.138	152.582	251.203	16.483	171.851	132.361	160.431	81.488	222.870	254.349	283.115	32.549	85.937	181.891	6.1903e-05	0.00058897	5.8661e-05	1103.4	4.4174e-06	2.7425e-06	1187.6	226.54	4.0702e-06	6.0491e-06	280.33	78.504	62.429	18.193	4.6821e-06	24.85	0.00027637	0.00028389	7.7721e-05	1080.1	3.0491e-06	3.0287e-06	1167.5	223.97	3.0276e-06	3.0322e-06	277.1	79.175	62.507	18.45	2.8732e-06	25.343	-61.498	-28.232	243.680	-63.199	128.604	161.555	-63.056	-55.257	128.447	56.102	-55.490	-48.899	-48.182	-41.497	46.349	-42.049	-8191	255	
1032.356	1	1	0	0	0.19836	0.30709	0.083552	0.09768	0.062273	0.17071	0.23456	0.17583	0.27622	0.22557	0.059746	0.27871	0.2637	0.11589	0.10661	0.19963	-3.1479	-2.8604	-3.6125	-3.5062	-2.8792	-3.6063	-3.2792	-3.2854	-3.7896	-3.0458	-3.55	-3.5104	-3.0542	-3.7188	-3.1521	-3.175	243.190	-56.241	71.741	117.224	160.798	52.940	152.428	48.580	18.226	225.922	229.991	-39.338	-18.642	84.217	101.170	-60.151	0.00012725	0.00030505	0.00010394	1101.3	4.4734e-06	1.0142e-05	1188.9	225.65	4.1259e-06	1.6146e-06	282.16	78.574	62.341	18.12	4.2748e-06	25.089	0.00026407	0.0002686	7.3587e-05	1077.1	2.996e-06	2.9542e-06	1167.3	223.47	2.9508e-06	2.9685e-06	277.57	78.728	62.71	18.463	3.0406e-06	25.433	-39.826	-36.583	63.622	-63.231	14.201	72.232	-63.119	-55.174	98.058	136.790	-55.270	-48.931	-48.562	-41.302	67.848	-42.097	-8191	255	
1032.452	1	1	0	0	0.151	0.16388	0.20066	0.19823	0.068463	0.058236	0.20076	0.23168	0.21144	0.13704	0.19457	0.096077	0.085377	0.15793	0.0098667	0.21208	-3.2792	-2.8333	-3.4708	-3.7021	-2.9854	-3.8083	-3.4583	-3.2396	-3.5062	-2.8271	-3.475	-3.675	-2.9604	-3.5062	-3.3375	-2.9688	113.355	252.720	17.670	-66.552	24.861	-7.970	266.067	246.127	24.672	-30.982	271.861	-22.373	282.539	-41.264	-45.133	165.065	0.00013138	0.00010714	8.9198e-05	1098.4	5.3545e-06	4.6785e-06	1191.1	224.99	2.8553e-06	4.333e-06	277.76	78.806	62.491	18.235	2.7255e-06	25.184	0.00027124	0.00027746	7.7526e-05	1077.9	3.0493e-06	3.0118e-06	1167.7	223.62	3.0886e-06	3.0637e-06	277.12	79.047	62.684	18.505	3.1023e-06	25.489	257.438	-16.506	-7.613	-62.929	-7.855	102.580	-63.263	-55.260	73.492	83.623	-55.483	-48.934	-48.503	-41.447	219.169	-42.251	-8191	255	
1032.549	1	1	0	0	0.16647	0.11011	0.15423	0.092579	0.21829	0.17933	0.17803	0.15037	0.043561	0.15675	0.14762	0.29473	0.16025	0.078376	0.12133	0.12801	-3.2604	-2.9583	-3.2812	-3.7313	-3.0375	-3.5938	-3.4625	-3.075	-3.6542	-3.0438	-3.2604	-3.7042	-2.9833	-3.4813	-3.4062	-2.8458	83.852	10.569	-17.857	-12.302	-19.989	12.842	120.485	223.010	27.125	-3.570	-21.951	251.120	-57.831	-45.035	35.019	198.076	0.00015234	0.00052393	6.675e-05	1097.2	2.2215e-06	2.9006e-06	1193.8	225.62	2.2727e-06	3.547e-06	281.69	79.105	62.112	18.155	5.3277e-06	25.033	0.00028401	0.00029379	8.1202e-05	1076.2	3.2413e-06	3.1736e-06	1168.2	224.1	3.2856e-06	3.241e-06	277.98	79.303	62.754	18.526	3.3385e-06	25.554	278.309	49.902	33.548	-63.118	101.485	40.135	-62.643	-55.176	78.935	118.466	-55.089	-48.635	-48.438	-41.351	105.097	-42.204	-8191	255	
1032.645	1	1	0	0	0.17313	0.14017	0.2354	0.34193	0.21886	0.26189	0.30806	0.15692	0.12047	0.098398	0.21762	0.39002	0.35319	0.50294	0.10797	0.086415	-3.3042	-3.1521	-3.0792	-3.7229	-2.9562	-3.5042	-3.6083	-2.9021	-3.8125	-3.3021	-2.9437	-3.6896	-3.1021	-3.4333	-3.6396	-2.9375	194.102	101.478	180.357	256.307	103.940	41.656	199.640	156.166	66.348	-63.761	8.488	169.920	276.083	184.426	135.259	133.819	0.00016387	0.00031572	0.0001394	1101.6	6.4561e-06	9.2411e-06	1186.6	226.04	4.637e-06	3.7168e-06	281.55	79.232	62.641	18.225	2.297e-06	25.175	0.00029957	0.00030392	8.6458e-05	1080.7	3.4305e-06	3.407e-06	1167.1	224.33	3.4264e-06	3.3852e-06	278.84	79.322	63.026	18.623	3.2921e-06	25.6	285.916	-51.142	50.090	-63.113	173.997	76.532	-62.897	-55.354	95.728	80.184	-56.006	-49.005	-48.761	-41.233	169.359	-42.224	-8191	255	
1032.741	1	1	0	0	0.44798	0.071449	0.1051	0.21946	0.053595	0.13143	0.18828	0.070502	0.30275	0.25102	0.20578	0.12658	0.20993	0.22786	0.16883	0.13593	-3.4125	-3.1021	-3.0729	-3.7917	-3.0792	-3.4354	-3.5563	-2.9542	-3.4708	-3.4979	-2.9562	-3.6958	-3.1188	-3.4271	-3.6729	-2.9437	64.608	168.017	37.800	279.654	92.812	196.984	198.959	187.455	167.478	-53.330	17.857	-45.769	226.689	-4.000	168.987	252.299	0.00011854	0.00051954	0.00021487	1100.5	2.892e-06	5.535e-06	1191.1	225.76	3.8589e-06	2.7718e-06	282.84	78.418	62.538	18.114	2.2431e-06	25.176	0.00029797	0.00030775	8.6111e-05	1080.3	3.3083e-06	3.2792e-06	1169.6	224.18	3.3197e-06	3.3393e-06	278.52	79.222	63.006	18.518	3.318e-06	25.553	261.594	29.679	5.534	-63.291	105.141	79.799	-62.863	-55.335	27.033	110.782	-55.382	-48.991	-48.295	-41.074	164.717	-41.954	-8191	255	
1032.837	1	1	0	0	0.10592	0.12757	0.26413	0.024215	0.042251	0.21493	0.11054	0.0097678	0.17212	0.06432	0.34509	0.056263	0.16782	0.18807	0.11674	0.16211	-3.0417	-3.4667	-2.7542	-3.7375	-3.0187	-3.3229	-3.8229	-2.9062	-3.5042	-3.6354	-2.9604	-3.5938	-3.2604	-3.0687	-3.7104	-3.0312	160.203	112.999	-24.159	130.700	175.574	-52.523	251.173	255.042	253.956	42.250	204.263	1.874	210.990	137.280	143.117	138.936	6.764e-05	0.00059821	2.6621e-05	1103.8	4.6407e-06	1.5348e-06	1196.2	226.71	3.0981e-06	1.8531e-06	280.52	79.089	62.664	18.363	1.3998e-06	25.03	0.00029662	0.00029998	8.319e-05	1082.4	3.2785e-06	3.3155e-06	1170.7	224.4	3.2608e-06	3.2311e-06	278.01	79.452	63	18.597	3.2096e-06	25.497	252.350	28.538	60.613	-62.751	82.474	0.242	-62.773	-55.284	198.231	28.155	-55.421	-49.116	-48.435	-41.675	175.085	-42.155	-8191	255	
1032.933	1	1	0	0	0.20625	0.32341	0.091676	0.3251	0.046766	0.16419	0.16931	0.22693	0.28163	0.19619	0.088412	0.11266	0.25824	0.16155	0.11244	0.20979	-3.0708	-3.3292	-2.8667	-3.8479	-3.2313	-3.175	-3.9479	-2.9542	-3.3042	-3.5	-3.0729	-3.6562	-3.3292	-2.95	-3.6146	-3.0646	17.394	-24.264	282.633	166.583	187.158	101.927	-68.294	247.773	99.037	270.539	195.525	119.793	257.728	114.926	27.561	215.044	0.00015994	8.3432e-05	9.5538e-05	1109.4	2.5569e-06	4.7761e-06	1193.5	225.02	2.995e-06	1.985e-06	281.48	78.369	62.411	18.178	1.1573e-06	25.009	0.00028893	0.00029731	8.2298e-05	1083.6	3.2206e-06	3.2868e-06	1172.6	223.44	3.2777e-06	3.189e-06	278.45	79.312	62.831	18.573	3.2372e-06	25.535	276.251	40.894	-30.764	-62.902	111.328	164.536	-62.869	-55.249	35.606	36.999	-55.805	-48.904	-48.504	-41.443	140.456	-42.162	-8191	255	
1033.052	1	1	0	0	0.13142	0.061787	0.22502	0.13252	0.23576	0.20407	0.39015	0.15465	0.05186	0.23478	0.044203	0.16276	0.23585	0.24266	0.10433	0.073385	-2.8646	-3.6542	-2.9229	-3.5542	-3.1854	-2.9646	-3.8729	-3.2083	-3.2417	-3.6396	-2.8021	-3.6104	-3.4	-2.9396	-3.8583	-3.1958	-62.289	3.339	117.937	248.162	-15.025	160.627	-69.328	-22.355	182.498	269.979	263.363	262.255	232.846	226.291	258.454	-63.674	0.00013784	0.00061521	0.00013106	1107.1	7.5763e-06	5.5281e-06	1191	224.51	6.4385e-06	1.6636e-06	283.31	78.138	62.46	18.315	2.4519e-06	25.116	0.00028782	0.0002932	8.2141e-05	1083.2	3.1806e-06	3.1842e-06	1172	223.57	3.2199e-06	3.1654e-06	278.54	79.089	63.005	18.575	3.1836e-06	25.505	248.327	45.407	78.448	-62.955	55.093	68.328	-63.123	-55.289	100.331	-68.542	-56.382	-48.645	-48.309	-41.082	104.146	-42.410	-8191	255	
1033.148	1	1	0	0	0.14772	0.14626	0.17541	0.076533	0.15756	0.16529	0.12056	0.19092	0.12402	0.21934	0.11936	0.10111	0.081043	0.18326	0.11558	0.083648	-2.9938	-3.6542	-3.0271	-3.5417	-3.3063	-2.9521	-3.8312	-3.2375	-3.0771	-3.7542	-3.1208	-3.5938	-3.6167	-2.8333	-3.7396	-3.275	-63.556	-54.904	91.390	239.391	183.086	206.043	215.944	-69.179	-58.491	128.401	41.516	155.775	183.824	252.233	196.804	255.018	0.00013332	0.00049539	0.00016894	1104.6	5.2861e-06	3.2349e-06	1193.5	226.98	2.6135e-06	4.4224e-06	284.08	78.562	62.982	18.229	3.0815e-06	25.094	0.00028367	0.00028889	8.1695e-05	1083	3.1844e-06	3.2048e-06	1174.4	224.32	3.1698e-06	3.1487e-06	278.51	79.318	63.036	18.503	3.1727e-06	25.506	241.602	41.259	24.517	-63.040	107.639	85.633	-62.900	-55.429	99.550	138.679	-55.774	-48.782	-48.417	-41.814	141.976	-42.570	-8191	255	
1033.244	1	1	0	0	0.27394	0.17927	0.27567	0.21599	0.039071	0.056031	0.17283	0.24392	0.036542	0.072342	0.13935	0.17664	0.11477	0.068569	0.18636	0.2173	-2.6125	-3.6896	-2.8521	-3.5	-3.6333	-2.875	-3.9521	-3.4062	-3.0292	-3.6729	-3.0208	-3.3833	-3.6208	-3.0354	-3.5875	-3.3104	46.198	64.293	-22.416	266.388	-16.954	64.463	-23.156	232.172	214.109	193.191	-4.261	36.181	-13.463	86.766	-63.486	209.395	0.00014692	0.00058024	0.00018812	1107.2	2.9918e-06	2.092e-06	1196.2	225.91	5.4646e-06	2.7321e-06	279.78	78.946	62.187	18.287	1.017e-06	25.158	0.00028557	0.00028622	8.0458e-05	1084.9	3.1718e-06	3.1781e-06	1174.6	223.96	3.1993e-06	3.1617e-06	277.36	79.271	62.696	18.583	3.1597e-06	25.539	286.322	-13.944	44.438	-62.688	131.481	17.725	-62.928	-55.511	248.244	127.836	-55.822	-48.904	-48.361	-41.453	44.538	-41.977	-8191	255	
1033.341	1	1	0	0	0.045803	0.055799	0.082084	0.19143	0.12411	0.21693	0.24353	0.11054	0.28554	0.31729	0.11602	0.21981	0.17795	0.093017	0.21784	0.072445	-2.5396	-3.6417	-3.0354	-3.4604	-3.6937	-2.9188	-3.7333	-3.4792	-2.9125	-3.8354	-3.0938	-3.1729	-3.6333	-3.0667	-3.3208	-3.4917	113.473	-44.955	-0.001	-67.132	138.868	207.077	147.166	227.310	201.510	131.887	190.660	-66.997	59.632	119.068	91.343	189.701	9.0482e-05	0.00054717	0.00011334	1108.7	3.2296e-06	5.3376e-06	1198.6	225.65	5.5519e-06	4.9202e-06	280.27	78.815	62.377	18.124	3.8788e-06	25.015	0.00028089	0.00028804	7.9825e-05	1085.2	3.1285e-06	3.1848e-06	1175.3	223.93	3.1748e-06	3.2072e-06	277.76	79.29	62.854	18.551	3.195e-06	25.491	-45.098	64.477	14.614	-62.847	156.941	113.023	-62.347	-54.928	125.361	58.434	-55.834	-48.979	-48.246	-41.256	168.203	-42.185	-8191	255	
1033.437	1	1	0	0	0.044096	0.09954	0.31053	0.097022	0.11668	0.16927	0.30631	0.017006	0.18093	0.32924	0.065618	0.053794	0.058022	0.071967	0.022687	0.078189	-2.5125	-3.6875	-3.1167	-3.1521	-3.7292	-2.9354	-3.5229	-3.5375	-2.9813	-3.7062	-3.3292	-3.1021	-3.9417	-3.0125	-3.5917	-3.7	-57.671	-19.493	144.502	199.206	179.360	72.928	231.233	63.142	69.954	4.351	150.648	-28.222	52.799	-25.776	134.944	152.886	0.00012637	0.00051438	0.00012212	1107	5.1295e-06	6.5083e-06	1196.8	225.68	1.6839e-06	5.0893e-07	281.51	78.721	62.218	18.172	3.7873e-06	25.259	0.00028972	0.00029219	8.043e-05	1083.6	3.2499e-06	3.1701e-06	1174.6	223.95	3.1809e-06	3.1826e-06	277.9	79.353	62.675	18.539	3.2007e-06	25.553	279.966	73.630	47.123	-62.878	79.854	91.259	-62.666	-55.455	85.675	111.377	-55.615	-48.895	-48.694	-42.052	84.414	-41.717	-8191	255	
1033.533	1	1	0	0	0.11396	0.072176	0.15427	0.18868	0.13307	0.039466	0.12918	0.15174	0.4111	0.13794	0.13045	0.24233	0.086893	0.21041	0.27502	0.27211	-2.4896	-3.6813	-3.1937	-3.1896	-3.8146	-3.075	-3.4146	-3.8167	-2.7917	-3.6312	-3.3521	-3.2062	-3.7313	-3.2625	-3.125	-3.7729	139.902	257.523	66.994	249.977	-29.273	53.991	241.898	246.133	-8.580	207.428	47.149	253.669	134.748	275.145	253.374	239.882	0.00016588	0.00017127	0.0001105	1108.5	2.5997e-06	3.0049e-06	1199.6	225.06	2.6472e-06	8.9325e-07	279.01	79.213	62.413	18.141	5.0146e-06	24.942	0.00029275	0.00029004	8.2202e-05	1084.4	3.1597e-06	3.2127e-06	1173.6	224.19	3.203e-06	3.2713e-06	277.44	79.503	62.929	18.573	3.3204e-06	25.462	255.400	94.140	42.784	-62.492	152.275	109.084	-62.549	-55.366	110.188	-18.873	-56.034	-48.674	-48.323	-41.766	82.063	-42.147	-8191	255	
1033.653	1	1	0	0	0.051958	0.2402	0.14235	0.35808	0.031313	0.072994	0.34297	0.067001	0.32351	0.14404	0.22911	0.16743	0.060899	0.097314	0.083791	0.26483	-2.4208	-3.4729	-3.6354	-2.8396	-3.8187	-3.1708	-3.3146	-3.775	-2.8333	-3.675	-3.6396	-2.925	-3.6417	-3.2917	-3.2062	-3.8438	280.323	18.002	93.069	255.484	-49.502	-7.984	234.400	115.242	45.249	-9.961	-6.578	283.405	83.490	248.727	213.235	186.066	0.00015124	0.00035825	2.0902e-05	1101.3	4.2863e-06	3.372e-06	1205	227.65	3.0686e-06	2.647e-06	281.52	78.772	62.569	18.202	1.3088e-06	24.961	0.0002989	0.00029913	8.3248e-05	1081	3.2913e-06	3.3144e-06	1173.8	224.75	3.2988e-06	3.2852e-06	277.83	79.268	63.052	18.579	3.2817e-06	25.526	261.298	-64.526	-22.148	-62.919	107.670	68.785	-62.548	-55.210	-38.738	116.745	-55.724	-48.533	-48.423	-41.468	-26.658	-42.469	-8191	255	
1033.748	1	1	0	0	0.12748	0.02682	0.086293	0.11055	0.11227	0.25341	0.19962	0.10335	0.47746	0.11205	0.13169	0.24095	0.15489	0.22122	0.17562	0.080717	-2.4292	-3.2979	-3.6979	-2.9458	-3.7208	-3.2375	-3.2583	-3.8438	-3.1292	-3.4667	-3.6104	-2.7333	-3.7646	-3.3146	-2.9708	-3.8896	-32.391	258.442	-67.077	267.602	234.261	99.781	199.443	198.093	255.756	106.143	65.162	205.157	29.606	194.334	-59.520	-64.615	0.00015132	0.0005912	0.0001818	1104.2	5.1838e-06	3.7596e-06	1200.1	226.01	2.903e-06	4.6108e-06	281.99	79.368	62.724	18.239	4.0947e-06	25.366	0.0002987	0.00030019	8.3207e-05	1083.7	3.3371e-06	3.3369e-06	1175.1	224.31	3.3128e-06	3.3564e-06	278.18	79.468	63.089	18.598	3.3278e-06	25.661	280.502	74.755	-21.316	-62.927	240.417	137.614	-62.707	-55.229	189.431	152.974	-55.719	-48.454	-47.896	-41.605	135.623	-42.540	-8191	255	
1033.844	1	1	0	0	0.14316	0.14574	0.18492	0.099947	0.14901	0.16602	0.23321	0.12976	0.25473	0.25075	0.10517	0.12336	0.28984	0.16207	0.18377	0.1487	-2.7646	-3.3417	-3.7083	-3.1104	-3.5125	-3.4	-3.15	-3.9458	-3.2687	-3.1375	-3.9271	-3	-3.4333	-3.5542	-2.7792	-3.875	50.161	52.048	-59.949	-72.220	283.792	152.409	252.478	245.350	252.083	211.789	243.272	26.904	272.039	-26.736	269.722	200.188	6.15e-05	0.00042745	4.3318e-05	1106.2	1.5209e-06	8.7014e-06	1199	226.17	3.3263e-06	3.13e-06	282.58	78.639	62.775	18.199	3.4902e-06	25.178	0.0002938	0.00030233	8.1568e-05	1084.1	3.2782e-06	3.2469e-06	1174.7	224.52	3.2512e-06	3.2905e-06	278.09	79.197	62.968	18.565	3.1993e-06	25.534	-44.882	78.803	-20.768	-62.971	-7.142	105.980	-62.812	-55.217	45.027	-40.091	-55.410	-48.728	-48.068	-42.187	87.845	-42.767	-8191	255	
1033.917	1	1	0	0	0.099693	0.080957	0.14277	0.17607	0.31729	0.052132	0.30303	0.12952	0.16908	0.38204	0.21478	0.19802	0.20932	0.3838	0.24359	0.12542	-2.7562	-3.125	-3.6583	-3.0833	-3.5	-3.5708	-3.0771	-3.7083	-3.0646	-2.9708	-3.8021	-2.9062	-3.4292	-3.7771	-2.8667	-3.7729	42.558	5.170	164.977	239.836	64.827	261.448	169.646	154.545	257.787	-57.832	50.667	-6.525	-40.446	190.497	168.730	282.319	0.00012618	7.1854e-05	4.066e-05	1104	6.3251e-06	4.1834e-06	1194.4	226.52	5.3988e-07	3.1438e-06	281.39	79.085	62.788	18.176	5.6072e-06	24.931	0.00029104	0.00030317	8.4137e-05	1082	3.2679e-06	3.2558e-06	1173.5	224.4	3.3882e-06	3.3769e-06	278.65	79.412	62.952	18.623	3.2473e-06	25.482	272.654	-67.608	15.446	-63.337	90.629	86.672	-62.982	-55.621	120.661	95.115	-56.367	-49.309	-48.570	-42.141	101.441	-42.614	-8191	255	
1034.036	1	1	0	0	0.015741	0.054267	0.32184	0.21703	0.17438	0.092253	0.23864	0.10452	0.23757	0.010713	0.11731	0.17738	0.051054	0.21509	0.24395	0.12211	-2.85	-3.0208	-3.6104	-3.2208	-3.3438	-3.7083	-3.0333	-3.6146	-3.2833	-2.9479	-3.7583	-3.1479	-3.3875	-3.7188	-2.8896	-3.6	106.659	-13.861	109.983	214.072	150.559	63.625	191.553	284.914	186.843	148.660	74.160	13.743	99.406	-43.029	230.484	-26.634	0.00012561	0.00036155	0.00013089	1100.2	8.4953e-06	7.5421e-06	1201.6	225.95	2.7008e-06	4.0682e-06	281.93	79.139	62.934	18.135	3.9941e-06	25.235	0.0002885	0.00029889	8.3307e-05	1082.3	3.3443e-06	3.2758e-06	1176.5	224.39	3.2774e-06	3.2913e-06	278.77	79.332	63.08	18.596	3.3368e-06	25.695	274.716	7.684	56.663	-63.391	68.797	55.074	-63.319	-55.824	52.734	49.346	-55.966	-49.173	-48.844	-41.933	85.916	-42.535	-8191	255	
1034.132	1	1	0	0	0.17782	0.16788	0.17549	0.10745	0.1745	0.15545	0.20256	0.24833	0.1523	0.24461	0.33702	0.070591	0.12631	0.1127	0.16168	0.020057	-2.8958	-3.025	-3.675	-3.2833	-3.25	-3.6833	-3.1021	-3.55	-3.7375	-2.9688	-3.7646	-3.0604	-3.2125	-3.8563	-2.925	-3.6729	251.949	47.753	51.318	267.770	-16.605	228.495	217.981	224.494	255.502	115.292	263.777	239.389	178.734	103.358	172.456	-52.125	8.241e-05	0.00021081	6.3791e-05	1104.8	5.7273e-06	4.9744e-06	1196.1	224.82	5.2073e-06	3.4893e-06	281.17	78.71	63.301	18.011	2.182e-06	25.244	0.00030013	0.00030625	8.2674e-05	1083.8	3.3151e-06	3.2835e-06	1172.9	224.47	3.2932e-06	3.3249e-06	278.52	79.122	63.163	18.523	3.2721e-06	25.592	245.051	35.466	-23.206	-63.391	200.648	11.298	-63.109	-55.718	119.753	68.982	-56.143	-49.374	-48.667	-41.597	96.197	-42.816	-8191	255	
1034.229	1	1	0	0	0.1507	0.004416	0.27002	0.064143	0.16584	0.2065	0.14554	0.17446	0.20452	0.34786	0.16833	0.046087	0.22984	0.087427	0.2215	0.1078	-3.1583	-2.9562	-3.6104	-3.2687	-2.9667	-3.6354	-3.1437	-3.3167	-3.6188	-2.8854	-3.6625	-3.2604	-3.0396	-3.7729	-2.75	-3.5062	148.571	149.369	10.393	156.150	117.623	185.013	189.749	237.699	145.817	190.005	-46.293	-66.243	254.028	53.777	250.562	248.559	0.00012305	0.00024946	0.00010406	1106	1.879e-06	2.0748e-06	1200.8	226.65	3.7134e-06	3.1013e-06	278.98	78.619	62.595	18.326	2.8852e-06	25.203	0.00029376	0.00030291	8.4832e-05	1083.5	3.327e-06	3.2623e-06	1174.9	224.55	3.2715e-06	3.3257e-06	277.65	79.068	63.09	18.587	3.2635e-06	25.554	265.997	18.674	243.205	-63.279	67.642	33.364	-63.250	-55.442	3.033	8.153	-55.964	-48.862	-48.581	-41.902	98.376	-42.444	-8191	255	
1034.325	1	1	0	0	0.15102	0.18027	0.31667	0.37322	0.14177	0.077507	0.069118	0.060585	0.13266	0.27336	0.26304	0.22994	0.29546	0.28382	0.10777	0.14664	-3.0667	-2.8688	-3.8271	-3.4479	-3.0583	-3.8375	-3.1854	-3.1271	-3.6437	-2.9833	-3.6229	-3.5187	-3.05	-3.8438	-3.2708	-3.1417	273.496	215.328	53.595	273.807	-22.206	180.230	-18.329	48.190	-55.429	-73.516	-34.909	268.625	225.437	146.219	10.234	248.153	9.4285e-05	0.00067653	0.00011958	1101.6	2.2635e-06	7.2588e-06	1194.5	226.06	3.3053e-06	7.9274e-07	281.2	79.021	62.59	18.216	3.945e-06	25.107	0.00029682	0.00030144	8.3498e-05	1083.4	3.3088e-06	3.3124e-06	1173.4	224.29	3.2813e-06	3.3325e-06	279.42	79.458	63	18.597	3.3755e-06	25.581	-67.724	19.586	-51.692	-63.255	-73.374	32.373	-63.332	-55.645	36.783	83.946	-55.774	-49.358	-48.799	-41.916	82.024	-42.357	-8191	255	
1034.445	1	1	0	0	0.085966	0.039105	0.17522	0.32274	0.30012	0.098331	0.12066	0.1673	0.013889	0.11192	0.27038	0.093122	0.063115	0.36041	0.27217	0.30689	-3.3833	-2.825	-3.5146	-3.6813	-2.7292	-3.7167	-3.3458	-3.1542	-3.5875	-3.0104	-3.4313	-3.7188	-3.0521	-3.6583	-3.3167	-3.0312	83.699	-6.722	-1.041	258.951	77.829	71.858	187.987	261.366	135.324	35.259	272.983	178.456	-48.798	103.935	177.448	234.129	6.5626e-05	0.00018757	0.00010565	1101.2	9.153e-06	3.6308e-06	1193.6	225.88	1.4501e-06	1.5428e-06	281.58	79.536	62.709	18.417	4.4237e-06	25.077	0.00030212	0.00030983	8.7119e-05	1083.3	3.4077e-06	3.3507e-06	1173.1	224.68	3.3196e-06	3.3793e-06	278.8	79.481	63.118	18.652	3.3136e-06	25.566	241.869	-27.491	-27.688	-63.379	98.705	90.724	-63.235	-55.540	27.729	45.585	-56.124	-49.322	-48.676	-41.638	65.463	-42.127	-8191	255	
1034.517	1	1	0	0	0.10242	0.253	0.14042	0.1682	0.18193	0.15688	0.11628	0.077903	0.16593	0.043889	0.11791	0.16689	0.041556	0.11819	0.15062	0.34892	-3.375	-3.0625	-3.4229	-3.8958	-2.9854	-3.8021	-3.5333	-2.9458	-3.7375	-3.0625	-3.2771	-3.6937	-2.9437	-3.5854	-3.4688	-3.0021	4.528	269.373	244.232	236.947	32.859	212.122	169.713	84.681	190.648	93.511	-42.118	140.502	113.420	258.481	-71.539	274.927	0.00017149	0.00042098	0.00011433	1104.1	6.166e-06	4.5087e-06	1202.3	226.88	2.5674e-06	3.7081e-06	285.12	78.612	62.34	18.164	2.867e-06	25.003	0.00029931	0.00030657	8.5244e-05	1083.9	3.4422e-06	3.3434e-06	1174.8	224.73	3.3716e-06	3.3726e-06	278.64	79.4	62.929	18.601	3.298e-06	25.55	251.374	282.077	-63.425	-63.263	88.908	117.301	-63.056	-55.637	124.263	56.430	-56.295	-49.442	-48.840	-41.863	151.127	-42.347	-8191	255	
1034.613	1	1	0	0	0.12713	0.12053	0.045487	0.31924	0.16559	0.14925	0.24284	0.21026	0.19017	0.12049	0.085384	0.25842	0.071047	0.40944	0.1157	0.041418	-3.2833	-3.2562	-3.0833	-3.7958	-2.925	-3.4979	-3.7562	-2.9896	-3.8417	-3.1667	-3.0583	-3.6646	-3.0292	-3.3979	-3.5687	-2.8792	250.605	275.584	-9.186	213.058	193.616	62.843	283.623	47.201	8.671	190.975	-56.121	181.096	43.851	159.047	-26.065	55.302	0.00011934	0.00020254	5.2837e-05	1111.3	1.2263e-06	5.8801e-06	1200.4	225.55	7.1555e-06	1.8481e-06	283.08	78.455	63.306	18.138	2.6827e-06	25.118	0.00030198	0.00030999	8.5538e-05	1084.6	3.4012e-06	3.3686e-06	1174.3	224.62	3.3802e-06	3.3693e-06	279.5	79.313	63.247	18.612	3.3525e-06	25.584	259.264	239.550	-9.873	-63.352	206.588	32.876	-63.238	-55.403	-29.891	56.420	-56.190	-48.704	-49.052	-41.593	10.688	-42.366	-8191	255	
1034.734	1	1	0	0	0.036802	0.21415	0.17064	0.18391	0.06279	0.071919	0.24594	0.36797	0.21125	0.074267	0.18486	0.14283	0.12671	0.19706	0.13761	0.096986	-3.475	-3.4417	-3.0687	-4.0104	-3.0438	-3.5208	-3.8625	-2.8958	-3.7708	-3.2354	-2.9938	-3.8937	-3.1417	-3.4688	-3.4958	-2.925	252.079	197.683	155.573	281.850	234.003	-28.452	178.096	235.944	60.057	183.991	246.440	283.638	72.140	190.371	217.771	242.120	0.00018008	0.00044779	9.2071e-05	1103.8	1.8108e-06	4.0872e-06	1200.4	228.12	1.0064e-05	4.7614e-06	282.73	78.726	62.665	18.314	2.4152e-06	25.185	0.00030149	0.00030555	8.4728e-05	1084.7	3.3554e-06	3.3959e-06	1175.6	225.04	3.4099e-06	3.4515e-06	279.45	79.524	62.976	18.563	3.3205e-06	25.625	-41.007	63.817	33.891	-63.095	191.279	283.325	-62.871	-55.840	118.274	61.153	-55.898	-49.096	-48.856	-41.827	-6.099	-42.739	-8191	255	
1034.830	1	1	0	0	0.094793	0.14575	0.09878	0.097693	0.10993	0.22891	0.14936	0.35549	0.30593	0.19999	0.051052	0.21011	0.36534	0.40189	0.071932	0.27144	-3.1896	-3.4813	-3.0625	-3.8146	-3.1917	-3.4208	-3.9125	-3.075	-3.5146	-3.4875	-3.1104	-3.725	-3.4083	-3.2188	-3.7625	-2.8875	-55.771	129.752	-41.192	269.110	141.685	65.996	236.401	260.103	-61.725	-18.933	273.142	257.158	219.526	256.166	45.483	74.808	8.0688e-05	0.0001663	0.00013318	1102.4	3.9434e-06	5.2487e-07	1195.5	225.47	3.0242e-06	3.3305e-06	283.41	78.898	62.732	18.317	6.1224e-06	25.08	0.00030332	0.00030823	8.7496e-05	1083.8	3.4258e-06	3.3349e-06	1173.3	224.43	3.3773e-06	3.3348e-06	279.03	79.385	63.083	18.652	3.3598e-06	25.573	254.697	-31.699	26.183	-63.125	153.416	37.587	-63.024	-55.843	67.652	-20.397	-55.411	-49.295	-48.714	-41.784	87.001	-42.349	-8191	255	
1034.926	1	1	0	0	0.1563	0.13963	0.13599	0.068172	0.085522	0.12036	0.26133	0.31737	0.033032	0.13411	0.14756	0.19454	0.13021	0.13356	0.15673	0.2182	-3.1437	-3.5354	-3.025	-3.9646	-3.1417	-3.2208	-3.9583	-3.1521	-3.4104	-3.6437	-3.1312	-3.8771	-3.3187	-3.1646	-3.6583	-3.1021	170.926	111.855	170.566	227.615	99.754	-71.810	221.907	101.248	-52.064	-43.034	203.362	-56.113	240.353	255.638	194.993	2.249	0.0001188	0.00042677	9.0107e-05	1107.1	2.1502e-06	2.7052e-06	1196.6	226.39	4.9882e-06	1.9437e-06	281.3	79.189	62.443	18.256	3.3394e-06	24.997	0.00030009	0.00030474	8.5875e-05	1085.1	3.4369e-06	3.404e-06	1174.8	224.57	3.4079e-06	3.3133e-06	278.97	79.574	63.025	18.643	3.3464e-06	25.576	-66.195	85.820	37.864	-63.011	149.951	26.662	-62.959	-55.391	278.027	233.587	-55.961	-49.193	-49.069	-42.294	82.148	-42.571	-8191	255	
1035.045	1	1	0	0	0.20338	0.18742	0.2067	0.13475	0.17412	0.18014	0.39555	0.099801	0.011933	0.028879	0.29566	0.10698	0.042685	0.15414	0.20117	0.14679	-3.1708	-3.5729	-3.0042	-3.5625	-3.2604	-2.9417	-3.8063	-3.0792	-3.2979	-3.5792	-3.0312	-3.6104	-3.4125	-3.0125	-3.7854	-3.1917	234.997	-9.502	-39.656	242.818	-3.216	-32.356	235.029	-3.983	272.541	161.550	77.379	283.344	-8.601	-44.597	100.525	250.386	4.4757e-05	0.00042175	7.3204e-05	1104.8	7.3175e-06	2.7065e-06	1200.9	225.89	4.0592e-06	4.7121e-06	282.25	78.559	62.92	18.247	2.8444e-06	25.123	0.00030194	0.00030594	8.5899e-05	1086.3	3.3815e-06	3.3746e-06	1177.9	224.7	3.4465e-06	3.3312e-06	278.65	79.37	63.068	18.582	3.3125e-06	25.592	-47.660	18.828	198.390	-63.050	107.922	-66.493	-63.203	-55.421	64.644	122.752	-55.937	-48.737	-48.700	-41.855	88.540	-42.817	-8191	255	
1035.141	1	1	0	0	0.20635	0.13109	0.085904	0.10895	0.11204	0.07164	0.16069	0.20497	0.14028	0.26805	0.15943	0.19817	0.25119	0.19041	0.13521	0.15457	-2.7854	-3.5229	-2.95	-3.6229	-3.5563	-2.8771	-3.8729	-3.1625	-3.1562	-3.6646	-2.9792	-3.4792	-3.7	-2.8146	-3.675	-3.225	187.809	9.319	-38.752	51.480	145.103	105.211	246.199	200.841	23.680	257.838	178.385	199.006	216.996	226.153	279.086	-18.044	0.00016722	0.00019199	5.4117e-06	1106.8	2.8228e-06	6.4819e-06	1199.5	226.32	6.3483e-06	1.73e-06	281.24	79.007	62.815	18.251	4.6023e-06	24.973	0.00029626	0.00030655	8.6912e-05	1085.6	3.4149e-06	3.3384e-06	1175.5	224.37	3.3676e-06	3.3704e-06	279.35	79.517	63.001	18.578	3.3704e-06	25.568	277.661	120.606	55.056	-63.025	116.679	89.682	-63.081	-55.911	266.759	109.115	-56.212	-49.066	-48.995	-41.993	103.318	-42.137	-8191	255	
1035.213	1	1	0	0	0.31991	0.17975	0.21754	0.097934	0.1644	0.18081	0.12964	0.14663	0.043899	0.14665	0.083772	0.089087	0.026168	0.10709	0.10388	0.30745	-2.65	-3.85	-2.7771	-3.575	-3.5958	-2.9396	-3.8688	-3.3896	-3.0896	-3.8521	-3.025	-3.3396	-3.7208	-2.9729	-3.8229	-3.2771	10.669	41.879	280.903	73.317	-35.565	24.469	189.476	219.742	48.653	142.617	276.648	181.335	109.820	-39.129	90.304	262.540	0.00010793	0.00050685	0.00019174	1111.2	5.8591e-06	7.322e-06	1195.5	225.55	2.9804e-06	3.8951e-06	284.74	78.641	62.387	18.121	8.1782e-06	24.926	0.00030607	0.00030735	8.5965e-05	1086.6	3.3826e-06	3.3325e-06	1175.2	224.33	3.3517e-06	3.3053e-06	279.41	79.191	62.962	18.584	3.3416e-06	25.491	-61.377	9.849	63.575	-62.926	43.333	152.105	-62.925	-55.624	23.653	129.512	-55.584	-48.509	-48.776	-41.950	150.231	-41.922	-8191	255	
1035.333	1	1	0	0	0.079997	0.18491	0.088462	0.22698	0.26654	0.079954	0.18881	0.1209	0.14726	0.21165	0.14956	0.28355	0.14455	0.22845	0.1624	0.25936	-2.7271	-3.5521	-3.1021	-3.4062	-3.5667	-2.8063	-3.7292	-3.525	-3.0083	-3.7396	-3.2729	-3.2979	-3.9771	-3.1	-3.6354	-3.8563	80.816	1.423	151.619	-52.548	44.023	89.454	183.479	173.125	23.557	246.361	136.869	257.834	272.643	237.393	10.235	207.816	6.5951e-05	0.00059257	6.5486e-05	1107.5	3.4571e-06	1.3093e-06	1194	225.98	6.8361e-06	2.3598e-06	281.49	79.071	62.737	18.206	1.7131e-06	25.02	0.00029302	0.0002994	8.4215e-05	1084.8	3.3633e-06	3.3288e-06	1173.7	224.38	3.348e-06	3.3278e-06	278.02	79.423	62.982	18.585	3.3218e-06	25.517	-45.724	76.372	-32.567	-62.805	240.401	-57.435	-63.128	-55.674	150.578	100.897	-55.704	-48.864	-48.151	-41.509	284.987	-42.147	-8191	255	
1035.430	1	1	0	0	0.16687	0.34295	0.067345	0.24781	0.14341	0.1608	0.02657	0.19053	0.24992	0.33572	0.24927	0.31178	0.108	0.44385	0.18285	0.15136	-2.6229	-3.625	-3.1708	-3.3479	-3.8604	-2.9021	-3.6396	-3.4917	-2.8146	-3.8792	-3.3312	-3.275	-3.875	-3.0667	-3.4208	-3.7812	79.316	65.493	9.335	266.784	21.130	-48.559	-34.941	154.927	57.666	99.156	260.618	-60.048	-19.070	177.346	85.202	8.233	7.2341e-05	0.00024191	9.845e-05	1108.2	5.871e-06	3.2424e-06	1197.4	225.47	2.9395e-06	2.8748e-06	281.56	79.2	63.027	18.132	4.7823e-06	25.243	0.00029977	0.00030841	8.4923e-05	1086.3	3.2977e-06	3.3522e-06	1176	224.42	3.3537e-06	3.3494e-06	278.5	79.507	63.07	18.578	3.4979e-06	25.65	244.895	-18.361	31.034	-63.054	114.707	33.137	-62.754	-55.695	96.183	33.523	-56.041	-48.900	-48.666	-42.193	89.283	-42.221	-8191	255	
1035.526	1	1	0	0	0.16265	0.17042	0.1151	0.3362	0.071706	0.16609	0.17394	0.14008	0.05331	0.21302	0.030351	0.28136	0.028952	0.23161	0.33122	0.17891	-2.5812	-3.65	-3.3438	-3.1792	-3.7042	-2.9979	-3.4958	-3.7875	-2.8583	-3.6583	-3.4792	-3.0542	-3.9062	-3.1375	-3.1688	-3.6417	166.828	255.716	49.913	216.322	-50.265	242.634	226.363	161.197	168.280	237.121	-65.021	171.788	261.631	254.567	93.041	68.188	9.2241e-05	0.00029807	9.1504e-05	1101.9	3.6214e-06	6.5713e-06	1208.8	227.4	3.9945e-06	4.142e-06	281.57	78.989	62.441	18.171	6.0399e-06	25.257	0.0003069	0.00031515	8.7368e-05	1086.9	3.5097e-06	3.5255e-06	1178.5	224.77	3.535e-06	3.5535e-06	279.72	79.642	63.225	18.635	3.5542e-06	25.632	-58.764	94.453	36.767	-63.287	206.778	60.717	-62.919	-55.483	69.414	80.634	-56.001	-48.987	-48.367	-41.671	4.445	-42.258	-8191	255	
1035.622	1	1	0	0	0.16086	0.11376	0.30658	0.24968	0.073858	0.1246	0.031097	0.25429	0.1943	0.35824	0.20343	0.11965	0.07029	0.14794	0.2255	0.13085	-2.5646	-3.5625	-3.4875	-3.1958	-3.775	-3.1813	-3.3854	-3.8688	-2.9042	-3.5458	-3.6312	-2.9938	-3.7	-3.3521	-3.1042	-3.7396	-37.169	216.846	163.742	256.030	18.467	254.913	-18.647	262.483	11.640	-23.711	224.087	235.309	-63.420	255.908	126.348	192.967	2.9591e-05	0.00036673	0.00013021	1108.4	3.521e-06	7.4107e-06	1202.2	226.49	3.7025e-06	3.8069e-06	281.42	78.502	62.835	18.295	4.6731e-06	24.998	0.00032161	0.0003299	9.1242e-05	1087.4	3.6301e-06	3.6475e-06	1178.6	224.95	3.6605e-06	3.7371e-06	279.52	79.663	63.349	18.679	3.88e-06	25.746	220.231	178.503	-5.989	-62.906	42.499	17.761	-62.790	-55.552	108.933	85.629	-55.776	-48.948	-48.276	-42.061	280.551	-42.814	-8191	255	
1035.741	1	1	0	0	0.23038	0.056137	0.17443	0.28157	0.23347	0.14341	0.28465	0.19311	0.11276	0.10948	0.45005	0.12768	0.074612	0.12699	0.23504	0.17211	-2.6	-3.5583	-3.6104	-2.9917	-3.8271	-3.1229	-3.1937	-3.9354	-2.9313	-3.4625	-3.85	-2.8104	-3.6688	-3.2667	-2.9771	-3.8958	172.508	193.535	-16.465	203.948	-51.719	174.444	195.100	181.279	212.479	65.313	218.043	197.542	-44.110	205.994	251.619	253.563	0.00012898	0.00071129	6.2306e-05	1112	3.3515e-06	4.9652e-06	1200.5	226.79	2.2749e-06	2.5494e-06	283.21	78.894	62.986	18.291	3.609e-06	25.32	0.00035122	0.00036213	0.00010078	1090.4	4.0822e-06	4.0654e-06	1181	225.69	4.1015e-06	4.1028e-06	281.73	79.911	63.756	18.822	4.2066e-06	25.886	-61.294	5.193	-13.129	-63.283	188.428	-30.474	-62.813	-55.446	142.737	175.795	-55.887	-48.922	-47.975	-41.811	49.143	-42.434	-8191	255	
1035.814	1	1	0	0	0.24288	0.25451	0.23577	0.14351	0.11152	0.32282	0.25108	0.15298	0.037769	0.21983	0.053055	0.1778	0.0067496	0.28253	0.18787	0.086516	-2.5167	-3.2875	-3.7313	-2.9	-3.5917	-3.4375	-3.1	-3.6667	-2.7917	-3.2125	-3.8271	-2.9542	-3.55	-3.625	-3.0187	-3.8958	6.658	95.301	-32.777	-67.357	144.295	46.123	185.133	238.077	120.027	219.087	214.786	250.768	91.761	255.079	261.019	-5.917	0.00013027	0.00075914	0.0001461	1112.5	9.5025e-06	4.1118e-06	1205.4	227.67	4.4071e-06	5.4696e-06	284.41	79.491	62.785	18.401	3.4088e-06	25.174	0.00036931	0.00037948	0.0001045	1093.2	4.1152e-06	4.1366e-06	1184.1	226.76	4.1528e-06	4.1053e-06	282.01	80.187	63.715	18.753	4.1242e-06	25.857	282.423	80.677	9.374	-63.298	92.810	-28.595	-62.521	-55.342	278.828	65.231	-55.729	-49.007	-48.652	-41.520	35.883	-42.096	-8191	255	
1035.910	1	1	0	0	0.081038	0.1556	0.035652	0.1687	0.20819	0.2041	0.18904	0.15545	0.27556	0.1094	0.21857	0.26751	0.15521	0.10229	0.19524	0.078054	-2.8208	-3.1771	-3.8021	-2.9292	-3.4688	-3.6437	-3.1604	-3.8208	-3.2625	-3.0687	-3.8417	-3.075	-3.6	-3.5354	-2.6792	-4	-59.470	222.864	136.166	258.234	-67.348	54.439	212.173	67.887	17.385	182.739	235.674	245.633	218.460	190.912	276.212	261.400	0.00011139	0.00049151	4.1591e-05	1114.2	5.0102e-06	3.4358e-06	1207.8	227.26	3.3722e-06	4.4937e-06	282.08	78.995	62.962	18.302	5.8646e-06	25.094	0.00037424	0.0003783	0.00010711	1095.2	4.1927e-06	4.2115e-06	1185	226.38	4.2539e-06	4.2288e-06	281.72	79.923	63.942	18.869	4.4132e-06	25.935	260.971	-4.933	77.752	-62.984	102.453	116.636	-62.829	-55.389	148.834	39.775	-55.776	-48.736	-48.174	-42.071	64.976	-42.296	-8191	255	
1036.007	1	1	0	0	0.013291	0.068678	0.097917	0.15681	0.25421	0.21035	0.10635	0.12985	0.10992	0.092997	0.072343	0.222	0.36009	0.23111	0.20276	0.033469	-3.0021	-3.0438	-3.675	-3.2917	-3.1479	-3.5646	-3.0854	-3.6292	-3.3438	-3.0833	-3.7521	-3.1792	-3.1979	-3.7667	-2.975	-3.5604	21.883	49.030	150.846	269.471	211.982	223.664	244.069	195.334	142.702	61.116	-51.955	234.385	282.298	282.177	107.794	244.727	0.00013051	0.00038128	9.8496e-05	1118.6	2.384e-06	4.0985e-06	1208.2	228.44	8.0679e-06	3.5948e-06	284.46	78.993	63.012	18.335	9.2948e-07	25.027	0.00039397	0.00040046	0.00011358	1095.1	4.4237e-06	4.3205e-06	1185.5	227.29	4.3315e-06	4.3523e-06	283.46	80.161	63.988	18.841	4.1978e-06	25.872	264.850	133.869	55.986	-63.275	268.322	-13.895	-62.882	-55.397	70.480	74.207	-55.802	-48.750	-48.782	-41.660	109.604	-42.572	-8191	255	
1036.125	1	1	0	0	0.21444	0.082386	0.057531	0.21528	0.39905	0.094449	0.30182	0.1879	0.06193	0.16624	0.19908	0.23441	0.10878	0.19652	0.26011	0.2293	-3.1271	-3.0938	-3.7521	-3.2229	-3.1312	-3.5271	-3.0438	-3.6896	-3.5	-2.8958	-3.7562	-3.3771	-3.0646	-3.6729	-2.9292	-3.5125	-55.482	8.791	272.689	266.641	203.658	168.459	241.485	278.776	204.816	-63.457	268.257	-28.775	53.482	-71.039	-14.423	218.278	8.3975e-05	0.00047911	0.00019056	1110.4	3.7771e-06	2.8233e-06	1204.3	227.88	2.2226e-06	1.4991e-06	282.39	78.832	62.988	18.377	3.6285e-06	25.206	0.00036953	0.00037718	0.00010608	1092.9	4.1121e-06	4.1504e-06	1184	226.9	4.2159e-06	4.2068e-06	282.37	80.036	63.773	18.867	4.2053e-06	25.832	-57.507	61.096	53.768	-63.025	-51.761	128.458	-62.637	-55.365	53.119	105.441	-56.251	-49.124	-48.214	-41.900	-63.654	-42.463	-8191	255	
1036.222	1	1	0	0	0.11996	0.14482	0.023116	0.38007	0.0989	0.040348	0.061283	0.10597	0.055734	0.24583	0.11069	0.064179	0.042359	0.12966	0.20336	0.14352	-3.1896	-2.8229	-3.7042	-3.1771	-2.8854	-3.8	-3.1125	-3.5396	-3.5771	-2.7896	-3.7375	-3.1917	-3.1437	-3.7896	-2.9542	-3.4854	98.404	256.612	-12.370	276.148	-5.679	12.057	86.936	261.937	47.060	143.559	284.219	-51.075	-19.283	136.959	46.925	-9.877	7.0615e-05	0.00017074	4.9044e-05	1112.5	3.9275e-06	4.7574e-06	1208.2	227.22	2.6534e-06	3.0045e-06	281.16	79.079	63.037	18.285	3.3686e-06	25.031	0.00037687	0.00038586	0.00010809	1094.6	4.247e-06	4.2577e-06	1184	226.79	4.2371e-06	4.2331e-06	281.63	80.051	63.808	18.88	4.1866e-06	25.787	-47.802	48.333	91.076	-63.454	109.539	-15.851	-62.878	-55.595	30.342	18.874	-55.689	-49.259	-48.514	-41.566	177.542	-41.879	-8191	255	
1036.318	1	1	0	0	0.12226	0.14906	0.18377	0.23816	0.2589	0.083397	0.27382	0.096569	0.075144	0.20467	0.33353	0.025558	0.081609	0.1363	0.12716	0.12705	-3.3208	-2.9	-3.6333	-3.5625	-3.0312	-3.7354	-3.325	-3.3271	-3.7938	-2.6583	-3.5417	-3.3771	-2.9938	-3.8896	-2.9604	-3.1875	83.268	256.976	152.646	218.612	49.315	178.256	232.847	262.781	37.033	119.291	75.993	252.660	263.134	121.163	102.694	-44.679	0.00020725	0.0005197	0.00017818	1115.7	4.2446e-06	1.8526e-06	1204.7	226.88	1.8115e-06	4.346e-06	283.87	79.131	62.974	18.218	4.5355e-06	25.146	0.00037216	0.0003814	0.00010765	1094.6	4.2921e-06	4.2233e-06	1183.7	226.3	4.2517e-06	4.2186e-06	283.34	80.116	63.944	18.882	4.2832e-06	25.924	286.527	63.435	-15.658	-63.038	164.841	108.743	-63.068	-55.173	80.808	-3.367	-55.480	-49.282	-48.428	-41.466	91.604	-42.225	-8191	255	
1036.414	1	1	0	0	0.14952	0.22027	0.21935	0.18233	0.039175	0.089919	0.17415	0.045881	0.11047	0.25027	0.22924	0.10717	0.076223	0.15919	0.18998	0.20167	-3.4333	-2.9437	-3.5583	-3.6604	-2.8479	-3.6417	-3.3625	-3.3187	-3.7083	-3.0146	-3.5729	-3.6479	-2.9604	-3.7687	-3.1458	-3.075	150.115	122.272	67.270	143.765	212.717	61.884	130.352	244.073	-26.281	69.543	201.475	0.233	179.586	-51.141	89.498	275.794	0.00012984	0.00011857	0.00012859	1109.4	6.5055e-06	7.5102e-06	1199.3	228.6	3.7744e-06	6.4638e-06	282.55	79.607	62.751	18.336	7.1006e-06	25.143	0.00038104	0.00039248	0.00010884	1091.8	4.2594e-06	4.2518e-06	1181.5	227.13	4.2914e-06	4.1778e-06	282.35	80.284	63.78	18.823	4.1968e-06	25.814	247.153	-14.394	75.058	-63.246	50.880	128.808	-63.146	-55.435	12.309	47.775	-56.167	-49.109	-48.333	-41.705	180.230	-42.513	-8191	255	
1036.510	1	1	0	0	0.19537	0.10428	0.092164	0.24246	0.067405	0.082768	0.28469	0.23792	0.13122	0.050021	0.11563	0.063152	0.27689	0.11898	0.17948	0.34765	-3.5042	-2.85	-3.3646	-3.7792	-2.8854	-3.7125	-3.3625	-3	-3.7229	-3.1479	-3.2833	-3.8479	-3.0854	-3.7354	-3.4604	-3.0771	276.539	63.120	232.860	210.730	204.946	96.398	235.123	-14.298	176.452	270.172	-55.265	-57.025	266.782	-55.833	165.728	282.688	8.8359e-05	0.00088271	9.0973e-05	1109.5	1.8033e-06	4.6108e-07	1203.9	226.93	1.4252e-06	2.9914e-06	281.86	79.626	63.228	18.432	3.8862e-06	25.132	0.0003788	0.00038307	0.00010775	1092.8	4.2802e-06	4.2446e-06	1183.4	226.72	4.2587e-06	4.2724e-06	281.9	80.192	63.887	18.911	4.3427e-06	25.851	-68.921	11.718	53.955	-63.043	126.820	21.912	-63.030	-55.297	163.809	196.770	-55.966	-48.736	-48.361	-41.504	94.250	-42.414	-8191	255	
1036.606	1	1	0	0	0.16042	0.1452	0.22723	0.25316	0.35102	0.21715	0.41108	0.11189	0.32307	0.25016	0.24916	0.11019	0.41905	0.035372	0.12391	0.19497	-3.3542	-3.1063	-3.2104	-3.8063	-3.0458	-3.5812	-3.4542	-3.0042	-3.5854	-3.075	-3.2229	-3.7188	-2.7979	-3.5375	-3.45	-2.8292	55.839	179.072	171.774	274.495	92.734	150.282	189.797	-27.148	-37.854	63.511	231.079	181.841	218.297	22.438	-29.072	-48.877	3.5407e-05	0.00067473	5.987e-05	1112.2	8.3695e-06	5.4712e-06	1206.5	227.45	3.2464e-06	3.4256e-06	284.61	79.284	63.201	18.229	3.1609e-06	25.326	0.00037861	0.00039343	0.0001104	1093.4	4.3283e-06	4.2748e-06	1184.9	226.99	4.3053e-06	4.3703e-06	282.93	80.231	64.024	18.882	4.3046e-06	25.945	17.221	65.279	59.690	-63.289	116.955	116.888	-62.997	-55.703	183.341	90.952	-55.431	-48.680	-48.586	-41.656	110.899	-42.331	-8191	255	
1036.727	1	1	0	0	0.11185	0.15025	0.04617	0.16188	0.26174	0.089324	0.23668	0.064108	0.22683	0.2334	0.24583	0.37679	0.12699	0.16007	0.14141	0.25859	-3.3667	-3.3354	-3.0812	-3.8521	-2.8958	-3.3479	-3.8042	-2.9458	-3.6562	-3.3042	-3.0104	-3.7917	-3.0354	-3.4021	-3.7	-3.0646	92.751	110.171	128.315	-9.330	113.704	-47.398	224.049	177.765	89.800	258.620	-64.275	234.372	-29.712	-66.481	46.413	239.981	9.4322e-05	0.00038482	5.4661e-05	1112.8	7.4238e-06	3.1755e-06	1208.7	227.5	1.1158e-06	5.5986e-06	284.44	78.85	62.431	18.246	3.335e-06	25.176	0.00037769	0.00039186	0.00010753	1093.7	4.2926e-06	4.2824e-06	1184.4	226.82	4.2245e-06	4.253e-06	282.54	80.047	63.671	18.847	4.2416e-06	25.855	270.898	52.725	153.748	-63.394	-15.443	110.649	-63.040	-55.474	103.826	97.140	-56.056	-48.717	-48.391	-41.523	179.630	-42.477	-8191	255	
1036.821	1	1	0	0	0.077088	0.03045	0.040331	0.12182	0.12981	0.16662	0.3389	0.23958	0.090587	0.084766	0.19384	0.064466	0.16119	0.07216	0.03238	0.16451	-3.3729	-3.3979	-2.9437	-3.7375	-3.0521	-3.2354	-3.8521	-2.9813	-3.5083	-3.5875	-3.1083	-3.6104	-3.0833	-3.2333	-3.6333	-2.9104	230.506	31.535	-14.866	-2.138	-72.136	46.379	192.829	171.672	103.977	114.070	253.548	227.532	229.483	132.097	-66.823	14.356	0.00019346	0.00040373	2.4348e-05	1113.2	5.4734e-06	5.7003e-06	1201	227.2	3.0026e-06	5.8114e-06	285.35	79.326	63.334	18.278	5.3485e-06	25.031	0.00037991	0.0004008	0.00010956	1094.4	4.3038e-06	4.272e-06	1182.1	226.75	4.2833e-06	4.1733e-06	282.7	80.301	63.924	18.817	4.1874e-06	25.809	-62.554	39.488	-17.257	-63.281	203.753	55.121	-62.920	-55.408	88.258	80.257	-55.720	-48.949	-48.575	-41.563	40.498	-42.618	-8191	255	
1036.917	1	1	0	0	0.12133	0.13011	0.23978	0.13803	0.016392	0.18019	0.2114	0.11757	0.22	0.26874	0.093977	0.12251	0.13477	0.26039	0.015987	0.10866	-3.1771	-3.3563	-2.8729	-3.7146	-3.0458	-3.0729	-3.9854	-2.8542	-3.5292	-3.6104	-2.8854	-3.7646	-3.1729	-3.1125	-3.5875	-3.1208	3.216	235.912	141.436	244.960	229.166	275.869	191.858	206.328	53.436	167.844	264.036	242.594	-63.634	278.049	84.193	122.975	0.00013217	0.00017269	0.00015148	1113.7	9.7272e-06	6.7183e-06	1206.9	227.51	8.3776e-06	5.0322e-06	284.87	78.985	62.93	18.368	2.7564e-06	25.045	0.00037881	0.00038578	0.00010756	1095.9	4.2386e-06	4.189e-06	1185.2	226.91	4.2371e-06	4.231e-06	282.69	80.175	63.869	18.874	4.2335e-06	25.792	249.602	-45.358	77.613	-63.209	77.292	57.574	-63.159	-55.782	148.860	-10.565	-55.761	-49.162	-48.513	-41.856	122.601	-42.252	-8191	255	
1037.013	1	1	0	0	0.28189	0.22355	0.072046	0.16029	0.054872	0.071646	0.20519	0.26905	0.11171	0.2232	0.07808	0.27913	0.24641	0.24947	0.027626	0.29963	-3.1292	-3.5083	-2.9354	-3.8625	-3.2708	-3.0208	-3.8542	-3.2604	-3.4625	-3.65	-2.9521	-3.8104	-3.4188	-3.0854	-3.7062	-3.3937	74.881	235.309	211.591	10.842	95.450	30.566	161.407	210.603	71.170	70.911	-2.337	270.279	220.321	263.030	39.644	243.350	3.7028e-05	0.00074772	0.00014367	1109.5	2.968e-06	7.4579e-06	1202.9	225.61	3.5597e-06	7.6368e-06	282.67	79.337	62.56	18.291	2.4907e-06	24.939	0.00038148	0.00038437	0.00010905	1093.3	4.1792e-06	4.248e-06	1183.3	226.5	4.226e-06	4.2581e-06	282.89	80.259	63.69	18.847	4.2228e-06	25.765	-56.998	-4.145	27.437	-62.949	-20.526	128.253	-63.030	-55.391	67.842	76.946	-55.601	-49.114	-48.519	-41.454	111.967	-42.602	-8191	255	
1037.110	1	1	0	0	0.092617	0.096457	0.16185	0.17	0.3545	0.063576	0.083493	0.13418	0.067925	0.068638	0.12685	0.12508	0.19864	0.25929	0.092148	0.19795	-2.9396	-3.6396	-2.8896	-3.6146	-3.5187	-2.9229	-3.8167	-3.3354	-3.225	-3.6083	-3.1021	-3.4458	-3.4479	-3.0438	-3.6292	-3.3	50.301	-1.013	128.967	269.657	-8.393	125.137	143.584	162.485	243.539	123.918	280.877	271.585	245.460	174.998	264.819	24.394	8.2135e-05	0.00058503	9.1444e-05	1110.5	3.9996e-07	4.5302e-06	1208.8	226.28	6.8116e-06	3.8428e-06	283.41	79.242	62.96	18.299	3.1472e-06	25.17	0.00037246	0.00038356	0.00010795	1093.9	4.1321e-06	4.1942e-06	1185.9	226.56	4.1749e-06	4.147e-06	281.99	79.966	63.752	18.793	4.0164e-06	25.762	-42.123	67.603	-3.014	-62.753	63.813	99.249	-62.825	-55.620	121.456	-16.888	-55.806	-48.962	-48.319	-41.644	-1.277	-42.430	-8191	255	
1037.206	1	1	0	0	0.15028	0.15663	0.082917	0.29556	0.17726	0.12421	0.19958	0.062372	0.28976	0.16931	0.073863	0.20934	0.16248	0.43404	0.2954	0.10988	-2.8479	-3.7208	-2.8042	-3.5104	-3.6312	-2.9562	-3.875	-3.3167	-3.0812	-3.7812	-3.2542	-3.3521	-3.7583	-2.8729	-3.7208	-3.3979	231.318	174.606	111.404	255.814	96.680	-50.404	208.786	232.547	76.782	125.414	80.048	210.315	256.020	252.851	101.751	225.577	0.00013614	0.00012667	0.00012303	1114.7	4.1645e-06	6.6846e-06	1205.3	227.62	2.377e-06	1.6364e-06	281.16	79.522	63.426	18.192	5.1268e-06	25.028	0.00036275	0.00036468	0.00010246	1095.3	3.9239e-06	3.9873e-06	1184.2	226.48	3.958e-06	3.9327e-06	281.13	80.057	63.65	18.77	3.9585e-06	25.722	230.416	62.000	15.484	-63.092	133.787	125.324	-63.190	-55.510	55.986	138.229	-55.886	-48.866	-48.793	-41.949	71.885	-42.514	-8191	255	
1037.302	1	1	0	0	0.10566	0.14164	0.22422	0.35401	0.16473	0.18635	0.26591	0.15011	0.13679	0.17059	0.080654	0.17939	0.2197	0.21438	0.1525	0.15544	-2.6292	-3.8396	-3.0333	-3.3917	-3.5833	-2.9958	-3.7354	-3.4771	-2.95	-3.6188	-3.1312	-3.2604	-3.7292	-2.9479	-3.55	-3.4792	212.886	98.584	185.861	248.006	-62.545	285.837	236.265	240.823	108.522	249.832	155.027	229.543	250.739	98.218	-60.140	272.381	0.00018898	0.00034571	9.9356e-05	1115.9	3.1885e-06	8.5085e-06	1207.3	227.3	6.9484e-06	3.919e-07	284.29	79.178	63.09	18.276	3.0739e-06	25.126	0.00035673	0.00036429	0.0001026	1094.8	4.0476e-06	3.9833e-06	1185.5	226.01	4.0871e-06	4.0094e-06	281.64	80.028	63.713	18.749	4.0355e-06	25.728	244.575	88.855	2.949	-63.158	128.356	80.525	-63.279	-55.669	101.593	6.700	-56.284	-49.016	-48.824	-41.833	-15.093	-42.682	-8191	255	
1037.398	1	1	0	0	0.18565	0.067109	0.14611	0.21978	0.29881	0.13835	0.15587	0.088572	0.034252	0.17595	0.20317	0.12998	0.14207	0.093999	0.068999	0.18963	-2.6	-3.7521	-3.0729	-3.4146	-3.65	-3.125	-3.7583	-3.5667	-2.8875	-3.7792	-3.3479	-3.2021	-3.8187	-2.9354	-3.4	-3.7354	163.227	22.812	90.123	157.226	117.914	201.952	169.541	-38.100	109.660	101.476	283.064	71.748	-58.839	2.780	282.032	74.088	4.2155e-05	0.00032332	5.7938e-05	1113.2	3.6557e-06	7.3977e-06	1204.8	227.43	2.1045e-06	7.0735e-06	284.5	79.635	62.802	18.267	2.0409e-06	25.067	0.00035811	0.00035719	9.9918e-05	1094.4	3.9685e-06	3.9303e-06	1185.4	226.95	3.8953e-06	3.9261e-06	282.21	80.423	63.588	18.795	3.9066e-06	25.751	-19.590	48.099	9.614	-63.149	133.904	72.884	-63.154	-55.687	269.001	4.209	-56.442	-49.581	-48.793	-42.044	91.674	-42.741	-8191	255	
1037.519	1	1	0	0	0.30422	0.31031	0.11227	0.18683	0.084985	0.10092	0.12805	0.18556	0.085536	0.13601	0.12823	0.10515	0.081049	0.060092	0.292	0.036533	-2.6417	-3.7438	-3.3688	-3.1354	-3.775	-2.9854	-3.5729	-3.7875	-2.8646	-3.7104	-3.2479	-2.9938	-3.8771	-3.0604	-3.3312	-4.0146	-43.342	97.577	-55.355	147.163	244.388	-49.854	129.631	207.444	262.686	54.772	-42.085	-10.222	-32.063	27.061	109.001	168.010	8.862e-05	0.00029062	0.00019532	1108.7	7.4645e-06	1.2848e-06	1206.1	227.19	1.7359e-06	4.0592e-06	283.07	79.219	63.111	18.289	7.0847e-07	25.271	0.00034835	0.00036007	0.00010003	1092.5	3.9723e-06	3.9667e-06	1185.3	226.06	3.91e-06	3.9829e-06	281.02	80.136	63.715	18.818	4.0962e-06	25.81	-33.517	18.977	36.315	-63.059	67.166	91.276	-63.269	-55.792	75.437	121.812	-55.958	-49.270	-48.747	-42.528	-55.283	-42.685	-8191	255	
1037.615	1	1	0	0	0.21267	0.082748	0.13262	0.23974	0.13918	0.15989	0.28722	0.092264	0.013746	0.12945	0.3435	0.0096582	0.32194	0.23341	0.12807	0.14029	-2.6354	-3.7125	-3.4854	-3.0896	-3.7667	-3.0521	-3.3167	-3.8563	-2.7979	-3.6271	-3.6708	-3.0396	-3.8271	-3.2479	-3.1604	-3.7125	207.653	64.139	169.537	243.317	184.211	255.318	209.083	129.448	-35.845	-73.161	-71.116	100.279	262.994	10.125	34.945	94.312	4.3804e-05	0.00058071	0.00014438	1113.9	5.0588e-06	3.4335e-06	1207.1	228.26	4.5067e-06	5.5509e-06	282.81	79.247	62.61	18.313	8.4806e-07	25.097	0.00036588	0.00037478	0.00010266	1093.2	4.0258e-06	3.9943e-06	1185.2	226.59	4.0263e-06	3.9813e-06	281.79	79.946	63.575	18.793	3.8709e-06	25.699	249.081	87.896	55.001	-63.786	82.406	197.345	-63.429	-56.077	248.167	114.356	-56.716	-49.861	-48.970	-42.226	228.078	-42.659	-8191	255	
1037.687	1	1	0	0	0.12192	0.066479	0.098261	0.082899	0.22604	0.09957	0.43231	0.2974	0.23039	0.1289	0.27909	0.089053	0.2085	0.1216	0.18652	0.21058	-2.5938	-3.4208	-3.4375	-3.1833	-3.575	-3.2292	-3.2021	-3.7146	-2.8729	-3.3125	-3.5458	-2.7542	-3.4813	-3.2542	-3.1333	-3.8187	241.443	228.839	124.382	172.270	-70.114	87.910	237.377	196.588	116.992	63.222	234.546	-31.087	125.166	267.043	0.486	-62.557	7.2252e-05	0.00017105	8.8914e-05	1111.3	8.3326e-06	5.0988e-06	1201.6	226.91	2.4237e-06	6.8246e-07	282.42	79.604	62.739	18.331	1.6014e-06	25.135	0.00034828	0.00035543	9.858e-05	1092.7	3.9075e-06	3.9149e-06	1183.1	226.12	3.848e-06	3.8572e-06	281.6	79.998	63.549	18.79	3.8206e-06	25.8	252.841	247.105	-4.278	-63.480	41.141	138.841	-63.300	-56.167	205.187	223.643	-56.456	-50.468	-49.448	-42.878	51.817	-42.679	-8191	255	
1037.807	1	1	0	0	0.043767	0.1684	0.098468	0.13954	0.091776	0.38535	0.34436	0.13409	0.11552	0.13297	0.19652	0.11857	0.035983	0.18543	0.2248	0.23158	-2.7021	-3.3167	-3.4333	-3.0792	-3.6562	-3.3792	-3.1083	-3.7167	-3.0771	-3.4771	-3.75	-2.9375	-3.5812	-3.2958	-2.8792	-3.8292	-54.448	146.015	194.424	264.302	68.080	-8.014	176.570	-61.943	-57.842	0.132	253.518	99.131	244.337	138.891	247.581	146.434	8.9182e-05	0.00033095	4.9563e-05	1115.3	2.2896e-06	2.3083e-06	1200	226.39	4.8065e-06	7.6596e-07	282.44	78.959	63.061	18.152	6.1643e-06	25.258	0.00034437	0.00035194	9.8176e-05	1096.3	3.8765e-06	3.8695e-06	1183.5	226	3.8618e-06	3.8798e-06	281.58	79.941	63.725	18.725	3.9558e-06	25.81	224.570	-12.327	53.474	-63.623	252.031	-3.157	-63.677	-56.226	-17.476	189.957	-56.511	-49.471	-49.204	-42.645	44.663	-43.271	-8191	255	
1037.902	1	1	0	0	0.18624	0.066275	0.24309	0.22998	0.15037	0.075161	0.104	0.21756	0.15333	0.22967	0.047082	0.18077	0.13355	0.28934	0.31924	0.081919	-2.7021	-3.1146	-3.775	-2.9875	-3.4708	-3.4208	-3.1188	-3.6354	-3.1229	-3.0667	-3.8146	-3.0687	-3.4958	-3.625	-2.8854	-3.7708	121.462	-67.565	146.774	251.749	273.329	268.209	262.893	-19.691	173.988	199.788	275.500	280.774	263.475	230.596	50.462	121.150	0.00014208	0.00030753	5.7405e-05	1110.9	8.1395e-06	5.5914e-06	1205.7	228.72	5.6067e-06	2.8797e-06	284	79.655	63.332	18.145	2.6925e-06	25.18	0.00034649	0.00035729	9.8161e-05	1093.9	3.9185e-06	3.8221e-06	1186.4	226.69	3.7678e-06	3.7815e-06	282.17	80.135	63.67	18.728	3.7493e-06	25.7	251.180	-42.804	138.818	-63.866	218.575	38.169	-63.545	-55.994	42.085	-56.292	-56.391	-49.589	-49.112	-42.355	31.286	-43.049	-8191	255	
1037.998	1	1	0	0	0.041121	0.23746	0.018382	0.20836	0.097131	0.10286	0.13588	0.063915	0.29115	0.12296	0.16771	0.040922	0.094	0.029363	0.2429	0.026134	-2.8667	-2.9396	-3.725	-3.0792	-3.325	-3.6937	-3.0875	-3.7333	-3.2042	-2.9792	-3.6562	-3.075	-3.2333	-3.7292	-3.0292	-3.6312	97.774	149.750	121.314	-13.802	138.131	-29.878	190.434	158.538	-41.180	169.584	187.819	-52.906	201.508	229.013	-56.340	251.639	0.00017249	0.0002875	4.3264e-05	1113.5	7.4919e-06	5.9151e-06	1207	229.55	6.6482e-06	6.6963e-07	284.13	79.247	62.846	18.152	2.0027e-06	25.191	0.00033347	0.00034381	9.4653e-05	1093	3.7905e-06	3.6926e-06	1185.7	226.76	3.7447e-06	3.7154e-06	281.14	79.847	63.566	18.721	3.7648e-06	25.783	-56.019	165.402	191.473	-64.082	76.807	71.322	-63.790	-55.969	45.241	195.040	-56.775	-49.744	-49.186	-42.473	218.940	-43.379	-8191	255	
1038.096	1	1	0	0	0.078665	0.086298	0.12226	0.25185	0.17746	0.32281	0.10231	0.015592	0.13018	0.43205	0.094806	0.17625	0.076138	0.033832	0.18831	0.078324	-2.9167	-2.7333	-3.7229	-3.0729	-3.1104	-3.5833	-3.0979	-3.5729	-3.3708	-2.8937	-3.8563	-3.1646	-3.3625	-3.6229	-2.8729	-3.5292	145.410	59.398	-13.018	259.302	-0.538	40.905	167.494	116.299	276.609	-2.815	-33.469	-59.716	-2.740	93.133	218.622	171.673	0.00011852	0.0004982	0.00017931	1110.1	2.3847e-06	5.8695e-06	1204.6	228.08	2.3252e-07	4.4959e-06	282.21	79.399	63.012	18.443	3.1747e-06	25.244	0.00033206	0.0003501	9.4822e-05	1093	3.7585e-06	3.7786e-06	1184.3	226.74	3.7944e-06	3.7413e-06	281.1	80.007	63.763	18.797	3.7849e-06	25.784	-72.301	-35.094	-19.664	-63.805	123.204	17.967	-63.850	-56.153	65.835	34.438	-56.410	-49.969	-49.513	-42.580	123.163	-43.356	-8191	255	
1038.215	1	1	0	0	0.2314	0.15709	0.09166	0.094896	0.2674	0.09094	0.16792	0.20317	0.10929	0.33296	0.16894	0.27017	0.16281	0.08897	0.24726	0.11024	-3.0542	-2.8	-3.5396	-3.2292	-2.9896	-3.6646	-2.9958	-3.5792	-3.6625	-2.6792	-3.7458	-3.3042	-3.0187	-3.7812	-3.0438	-3.2583	111.201	96.633	156.920	191.144	-73.734	262.259	231.021	191.474	263.366	182.132	216.853	271.182	226.384	-11.288	243.722	285.070	0.00017847	0.00031531	5.8917e-05	1110.6	2.1505e-06	2.1418e-06	1204.5	228.8	5.5808e-06	3.992e-06	285.11	79.44	62.656	18.169	3.3556e-06	25.041	0.00033072	0.00034298	9.5361e-05	1092.1	3.7516e-06	3.7925e-06	1182.5	226.75	3.6844e-06	3.7209e-06	281.61	80.064	63.521	18.739	3.709e-06	25.71	284.180	-61.322	74.060	-64.074	-67.394	153.225	-64.142	-56.067	91.393	82.073	-56.869	-50.067	-49.231	-43.029	160.677	-43.294	-8191	255	
1038.311	1	1	0	0	0.020763	0.12062	0.065106	0.22925	0.11228	0.19881	0.19186	0.34596	0.18291	0.15039	0.10337	0.2429	0.084287	0.12788	0.11687	0.0252	-3.3021	-2.9521	-3.6979	-3.3979	-2.9646	-3.7708	-3.2354	-3.4688	-3.75	-2.8896	-3.6375	-3.5833	-2.8979	-3.5146	-3.2313	-3.1562	25.738	163.385	188.072	205.485	3.093	112.693	284.397	249.862	0.798	73.281	162.085	285.580	-67.458	90.901	22.323	70.934	0.00013536	0.00079115	0.00012077	1110.5	6.0439e-06	1.2958e-06	1205.5	227.73	2.2883e-06	4.5289e-06	284.11	79.772	62.683	18.308	1.6038e-06	25.324	0.00032811	0.0003348	9.1233e-05	1091.4	3.5968e-06	3.6035e-06	1183	226.54	3.5986e-06	3.5588e-06	281.14	79.84	63.405	18.75	3.505e-06	25.667	247.017	-4.249	12.870	-63.689	91.338	261.140	-63.728	-56.059	-46.442	140.499	-56.588	-49.885	-49.330	-42.998	68.870	-43.755	-8191	255	
1038.407	1	1	0	0	0.28907	0.13542	0.15424	0.086336	0.086261	0.063574	0.13721	0.14884	0.059593	0.14942	0.18974	0.037218	0.053535	0.19025	0.2475	0.13216	-3.4062	-2.9708	-3.5729	-3.6708	-2.8667	-3.7896	-3.4354	-3.2396	-3.6771	-3.0333	-3.6646	-3.7417	-3.0083	-3.6917	-3.3438	-3.0854	104.258	200.933	119.737	83.775	21.281	229.341	236.322	198.928	209.545	-13.604	-67.407	193.294	237.649	262.004	-5.509	156.140	8.4325e-05	0.00021662	4.9034e-05	1108.6	7.5199e-06	4.1061e-06	1203.7	227.84	1.7446e-06	1.9021e-06	284.07	79.137	62.748	18.242	2.6102e-06	25.021	0.00031412	0.00031986	8.7454e-05	1091.5	3.4592e-06	3.5065e-06	1181.1	225.72	3.4354e-06	3.4766e-06	280.66	79.629	63.471	18.679	3.4519e-06	25.628	242.478	7.604	25.349	-63.605	97.197	26.540	-63.730	-56.276	67.762	31.978	-56.800	-50.012	-49.094	-42.232	202.446	-43.096	-8191	255	
1038.503	1	1	0	0	0.13299	0.11036	0.08254	0.088805	0.30187	0.20143	0.34713	0.38583	0.038	0.23939	0.21364	0.14949	0.20706	0.19412	0.0678	0.21239	-3.4083	-2.9958	-3.3896	-3.6104	-2.6396	-3.6521	-3.5187	-2.925	-3.6937	-3.175	-3.3646	-3.6	-2.9958	-3.6896	-3.2896	-3.0833	206.891	204.129	-65.753	203.189	228.232	283.263	245.804	244.727	10.369	6.763	24.094	235.799	245.998	-44.463	118.348	36.650	7.3117e-05	0.00068696	9.8216e-05	1115.3	8.1672e-06	8.6906e-06	1208.4	226.34	7.9246e-07	6.7093e-06	283.46	78.982	62.752	18.313	4.9129e-06	25.056	0.00031292	0.00031841	8.8329e-05	1093.7	3.5887e-06	3.5404e-06	1185.1	225.72	3.5942e-06	3.5638e-06	281	79.573	63.443	18.72	3.6053e-06	25.647	263.794	82.836	90.729	-63.951	62.408	59.549	-63.872	-56.231	-26.780	37.928	-56.374	-49.681	-49.117	-42.541	38.702	-42.968	-8191	255	
1038.599	1	1	0	0	0.067479	0.20871	0.24525	0.09403	0.12907	0.15244	0.030223	0.069308	0.1867	0.2551	0.051686	0.10046	0.18317	0.12621	0.29807	0.11221	-3.4479	-3.0167	-3.4313	-3.7208	-2.8875	-3.5771	-3.6521	-2.8875	-3.65	-3.0792	-3.1896	-3.8312	-2.7917	-3.5896	-3.5062	-2.8688	189.128	-1.157	239.615	-49.419	122.498	-12.292	149.798	235.900	-70.388	3.563	67.820	211.403	276.384	79.957	214.936	183.663	8.0559e-05	0.0004397	4.9526e-05	1111.6	7.4096e-07	9.0867e-06	1211.1	227.64	4.8349e-06	1.2309e-06	282.85	79.562	63.168	18.25	5.3777e-06	25.179	0.00031566	0.00032213	9.227e-05	1093.1	3.5883e-06	3.6065e-06	1185.9	226.07	3.6195e-06	3.6603e-06	280.26	80.046	63.645	18.714	3.6643e-06	25.801	265.184	72.786	140.093	-63.922	21.419	58.444	-63.618	-56.320	123.816	146.892	-56.274	-49.683	-48.896	-42.357	140.100	-43.037	-8191	255	
1038.695	1	1	0	0	0.11838	0.27494	0.26985	0.23586	0.16144	0.34169	0.22416	0.24444	0.14929	0.10478	0.067408	0.1894	0.18088	0.08408	0.0068713	0.10297	-3.4604	-3.1375	-3.2	-3.7438	-2.9229	-3.4979	-3.6979	-2.9979	-3.7917	-3.3229	-3.2646	-3.6813	-3.0333	-3.4521	-3.475	-3.0062	-17.160	168.678	218.103	-61.650	122.535	255.017	238.246	201.170	245.279	95.555	49.961	-40.160	233.451	144.961	-37.230	160.849	0.00014851	0.00015968	8.23e-05	1114.8	5.4816e-06	3.3801e-06	1205.1	227.05	4.5727e-06	4.4191e-06	282.64	78.738	63.289	18.316	2.81e-06	25.124	0.00033258	0.00033441	9.3394e-05	1095.9	3.6991e-06	3.6359e-06	1184.4	226.08	3.645e-06	3.6013e-06	280.05	79.568	63.549	18.741	3.5316e-06	25.644	263.599	-46.266	32.699	-63.841	7.757	190.656	-63.759	-56.137	123.456	210.423	-56.502	-49.806	-49.294	-42.861	103.264	-43.150	-8191	255	
1038.816	1	1	0	0	0.13863	0.1029	0.19992	0.16042	0.19477	0.22308	0.25152	0.2826	0.25874	0.1858	0.14966	0.12061	0.10592	0.1175	0.31399	0.30666	-3.1479	-3.0312	-2.9729	-3.8979	-2.8125	-3.4292	-3.7271	-2.8458	-3.6188	-3.4333	-3.0708	-3.7125	-3.0083	-3.1979	-3.5708	-2.8729	184.095	34.171	-19.034	255.738	216.181	255.327	259.565	238.830	186.290	188.089	238.734	214.453	0.314	149.938	204.804	214.420	4.1778e-05	0.00019572	0.00010319	1117.2	5.3641e-06	2.1262e-06	1204.3	227.34	4.0895e-06	5.1273e-06	282.74	79.35	63.471	18.435	4.6376e-06	25.198	0.00031293	0.00032795	8.9619e-05	1095.3	3.5861e-06	3.5212e-06	1181.7	226.07	3.5375e-06	3.4611e-06	280.05	79.758	63.516	18.744	3.4319e-06	25.634	183.819	26.385	27.156	-63.885	100.946	116.704	-63.764	-56.170	137.036	139.682	-56.268	-49.854	-49.123	-42.216	129.199	-43.327	-8191	255	
1038.910	1	1	0	0	0.089047	0.1137	0.21027	0.34166	0.10645	0.038789	0.2547	0.224	0.04612	0.18075	0.1896	0.26495	0.063862	0.13268	0.13624	0.059004	-3.1854	-3.4125	-2.9688	-3.8	-3.1375	-3.2917	-3.8146	-2.9688	-3.4938	-3.625	-3.0083	-3.5604	-3.1729	-3.1104	-3.7792	-2.8875	254.747	167.504	-37.417	197.121	45.529	-25.155	179.844	208.964	131.224	38.281	207.022	274.497	186.047	-44.766	-10.182	-14.031	0.00012989	0.00045994	0.00012499	1115.2	8.3434e-06	4.7246e-06	1209.2	227.53	3.1549e-06	1.2733e-06	282.05	78.957	62.197	18.194	3.4963e-06	24.99	0.00031997	0.00031738	8.9499e-05	1094.5	3.5348e-06	3.4873e-06	1184.6	226.58	3.4625e-06	3.4225e-06	279.77	79.424	62.93	18.629	3.4547e-06	25.526	-61.066	56.440	261.252	-63.875	70.246	54.109	-63.559	-55.877	22.246	48.484	-56.947	-50.061	-49.505	-42.528	104.663	-42.709	-8191	255	
1038.982	1	1	0	0	0.33444	0.18364	0.11094	0.20755	0.20794	0.24986	0.27108	0.059316	0.034294	0.058854	0.16716	0.033048	0.17047	0.068877	0.25377	0.21173	-3.2042	-3.5479	-2.8979	-3.8937	-3.1937	-3.2313	-3.9229	-3.1271	-3.3521	-3.5271	-3.0417	-3.7604	-3.3729	-3.0375	-3.7896	-3.1292	224.881	202.162	205.091	151.747	149.875	71.484	188.368	117.829	83.549	257.205	9.612	213.777	22.388	-70.617	101.413	194.189	6.2286e-05	0.00057104	0.00019075	1111.5	2.5346e-06	3.5157e-06	1203.3	226.74	4.8641e-06	2.1455e-06	282.73	78.979	62.408	18.087	2.7448e-06	24.92	0.00030456	0.0003104	8.7399e-05	1090.5	3.3727e-06	3.3481e-06	1178.5	224.68	3.3515e-06	3.2843e-06	279.2	79.365	63.087	18.526	3.3679e-06	25.442	284.178	-45.997	36.579	-63.586	-52.092	96.946	-63.725	-55.613	84.376	65.692	-56.385	-49.545	-49.260	-42.087	-6.794	-42.813	-8191	255	
1039.078	1	1	0	0	0.042428	0.070285	0.1714	0.15626	0.17063	0.093473	0.43744	0.12136	0.083573	0.19246	0.18229	0.066059	0.19463	0.14411	0.15262	0.30593	-2.9708	-3.6917	-2.7729	-3.6708	-3.2875	-2.9333	-3.7375	-3.0875	-3.1958	-3.8667	-2.9771	-3.6562	-3.2979	-3.0958	-3.75	-3.2333	63.546	68.643	67.501	246.313	210.991	-62.361	237.942	188.097	161.561	208.483	42.935	97.513	192.301	195.289	112.717	-46.591	0.00015427	0.00035824	0.0001179	1111.7	7.0052e-06	4.1748e-06	1195.8	226.2	1.4872e-07	2.1343e-06	282.96	78.975	62.883	18.142	7.2856e-06	24.863	0.00029872	0.000307	8.6219e-05	1088.8	3.5039e-06	3.4675e-06	1177	224.68	3.4781e-06	3.4843e-06	279.03	79.558	63.255	18.596	3.4632e-06	25.464	-64.218	51.603	32.349	-63.725	118.892	164.217	-63.610	-56.602	280.307	111.498	-56.143	-49.441	-48.979	-42.513	136.720	-43.221	-8191	255	
1039.199	1	1	0	0	0.069144	0.090788	0.11955	0.27762	0.24525	0.13372	0.14469	0.19795	0.24429	0.21853	0.058759	0.12033	0.16871	0.28128	0.099747	0.19754	-2.7958	-3.7104	-2.9729	-3.625	-3.4229	-3.0083	-3.7667	-3.2583	-3.0292	-3.7229	-3.1292	-3.2938	-3.8229	-2.875	-3.6	-3.2521	154.247	158.450	230.685	257.638	-7.020	84.627	119.266	228.640	109.207	144.692	176.598	44.222	224.304	224.412	-51.843	285.848	0.00010949	0.00052244	6.2661e-05	1102.9	6.2025e-06	3.8824e-06	1199.7	225.98	2.6759e-06	4.0949e-06	282.8	79.053	62.423	18.253	2.2419e-06	24.755	0.00031289	0.00031696	8.867e-05	1086.7	3.4769e-06	3.4475e-06	1176.3	224.7	3.4303e-06	3.499e-06	279.18	79.227	62.933	18.597	3.4396e-06	25.376	257.508	-9.020	156.301	-63.710	149.248	167.415	-63.626	-56.043	268.675	54.303	-56.597	-49.570	-48.913	-42.246	89.541	-43.392	-8191	255	
#DATA ENDS
