BOXY.EXE: ISS Imagent and Oximeter Data Acquisition Program Version 0.80
Ascii Record File

#ACQ INFORMATION
2  Detector Channels 
16  External MUX Channels 
1  Auxiliary Channels 
5000  Waveform (CCF) Frequency (Hz)
1  Waveforms Skipped 
30  Waveforms Averaged 
1  Cycles Averaged 
16  Acquisitions per Waveform 
10.0806  Updata Rate (Hz) 

#FILE INFORMATION
TRUE -- External MUX Channel results are PARSED.
FALSE -- AC DC and Phase are NOT grouped.
TRUE -- Companion Program Settings File CREATED.
FALSE -- AC data not excluded
FALSE -- DC data not excluded
FALSE -- Phase data not excluded
FALSE -- Auxillary Chn. data not excluded
Tab delimiters

#CALIBRATION STATE
TRUE -- Waveform Calibration Values APPLIED.


#AUX CALIBRATION VALUES
Val Type	aux-1	

Term	1.0000e+00	
Factor	0.0000e+00	


#WF CALIBRATION VALUES
A = Detector Channel
Val Type	A-AC1	A-AC2	A-AC3	A-AC4	A-AC5	A-AC6	A-AC7	A-AC8	A-AC9	A-AC10	A-AC11	A-AC12	A-AC13	A-AC14	A-AC15	A-AC16	A-DC1	A-DC2	A-DC3	A-DC4	A-DC5	A-DC6	A-DC7	A-DC8	A-DC9	A-DC10	A-DC11	A-DC12	A-DC13	A-DC14	A-DC15	A-DC16	A-Ph1	A-Ph2	A-Ph3	A-Ph4	A-Ph5	A-Ph6	A-Ph7	A-Ph8	A-Ph9	A-Ph10	A-Ph11	A-Ph12	A-Ph13	A-Ph14	A-Ph15	A-Ph16	

Term	0.00000e+00	0.00000e+00	0.00000e+00	0.00000e+00	0.00000e+00	0.00000e+00	0.00000e+00	0.00000e+00	0.00000e+00	0.00000e+00	0.00000e+00	0.00000e+00	0.00000e+00	0.00000e+00	0.00000e+00	0.00000e+00	0.00000e+00	0.00000e+00	0.00000e+00	0.00000e+00	0.00000e+00	0.00000e+00	0.00000e+00	0.00000e+00	0.00000e+00	0.00000e+00	0.00000e+00	0.00000e+00	0.00000e+00	0.00000e+00	0.00000e+00	0.00000e+00	0.00000e+00	0.00000e+00	0.00000e+00	0.00000e+00	0.00000e+00	0.00000e+00	0.00000e+00	0.00000e+00	0.00000e+00	0.00000e+00	0.00000e+00	0.00000e+00	0.00000e+00	0.00000e+00	0.00000e+00	0.00000e+00	
Factor	1.00000e+00	1.00000e+00	1.00000e+00	1.00000e+00	1.00000e+00	1.00000e+00	1.00000e+00	1.00000e+00	1.00000e+00	1.00000e+00	1.00000e+00	1.00000e+00	1.00000e+00	1.00000e+00	1.00000e+00	1.00000e+00	1.00000e+00	1.00000e+00	1.00000e+00	1.00000e+00	1.00000e+00	1.00000e+00	1.00000e+00	1.00000e+00	1.00000e+00	1.00000e+00	1.00000e+00	1.00000e+00	1.00000e+00	1.00000e+00	1.00000e+00	1.00000e+00	X	X	X	X	X	X	X	X	X	X	X	X	X	X	X	X	

B = Detector Channel
Val Type	B-AC1	B-AC2	B-AC3	B-AC4	B-AC5	B-AC6	B-AC7	B-AC8	B-AC9	B-AC10	B-AC11	B-AC12	B-AC13	B-AC14	B-AC15	B-AC16	B-DC1	B-DC2	B-DC3	B-DC4	B-DC5	B-DC6	B-DC7	B-DC8	B-DC9	B-DC10	B-DC11	B-DC12	B-DC13	B-DC14	B-DC15	B-DC16	B-Ph1	B-Ph2	B-Ph3	B-Ph4	B-Ph5	B-Ph6	B-Ph7	B-Ph8	B-Ph9	B-Ph10	B-Ph11	B-Ph12	B-Ph13	B-Ph14	B-Ph15	B-Ph16	

Term	0.00000e+00	0.00000e+00	0.00000e+00	0.00000e+00	0.00000e+00	0.00000e+00	0.00000e+00	0.00000e+00	0.00000e+00	0.00000e+00	0.00000e+00	0.00000e+00	0.00000e+00	0.00000e+00	0.00000e+00	0.00000e+00	0.00000e+00	0.00000e+00	0.00000e+00	0.00000e+00	0.00000e+00	0.00000e+00	0.00000e+00	0.00000e+00	0.00000e+00	0.00000e+00	0.00000e+00	0.00000e+00	0.00000e+00	0.00000e+00	0.00000e+00	0.00000e+00	-2.70192e+02	-1.46154e+02	-1.44971e+02	-1.83982e+02	-8.96959e+01	-7.84589e+01	-1.56979e+02	-1.62015e+02	-1.31917e+02	-8.21254e+01	-1.70881e+02	-1.81594e+02	-1.85791e+02	-1.77433e+02	-8.97468e+01	-1.49719e+02	
Factor	5.01170e-05	1.32014e-04	3.27272e-05	4.14055e-01	1.25435e-06	1.99250e-06	1.53742e-01	4.68002e-02	1.88427e-06	1.45911e-06	8.44637e-02	4.28283e-01	3.92267e-02	8.40360e-03	1.45620e-06	1.23250e-02	1.31062e-06	1.34861e-06	3.74948e-07	2.01947e-01	1.47447e-08	1.47689e-08	7.28953e-02	2.37801e-02	1.46852e-08	1.47755e-08	4.10814e-02	1.28830e-01	1.93371e-02	4.25015e-03	1.47475e-08	5.99750e-03	X	X	X	X	X	X	X	X	X	X	X	X	X	X	X	X	



#DISTANCE SETTINGS
A = Detector Channel
A-1	A-2	A-3	A-4	A-5	A-6	A-7	A-8	A-9	A-10	A-11	A-12	A-13	A-14	A-15	A-16	

2.5000e+00	3.0000e+00	2.5000e+00	3.0000e+00	2.0000e+00	3.0000e+00	1.5000e+00	3.0000e+00	3.0000e+00	3.0000e+00	3.0000e+00	3.0000e+00	3.0000e+00	3.0000e+00	1.5000e+00	3.0000e+00	

B = Detector Channel
B-1	B-2	B-3	B-4	B-5	B-6	B-7	B-8	B-9	B-10	B-11	B-12	B-13	B-14	B-15	B-16	

1.0000e+01	1.0000e+01	1.0000e+01	1.4400e+00	1.0000e+01	1.0000e+01	1.5100e+00	1.9400e+00	1.0000e+01	1.0000e+01	1.9900e+00	2.4900e+00	2.4100e+00	2.9000e+00	1.0000e+01	2.9800e+00	




#DATA BEGINS
time	group	step	mark	flag	A-AC1	A-AC2	A-AC3	A-AC4	A-AC5	A-AC6	A-AC7	A-AC8	A-AC9	A-AC10	A-AC11	A-AC12	A-AC13	A-AC14	A-AC15	A-AC16	A-DC1	A-DC2	A-DC3	A-DC4	A-DC5	A-DC6	A-DC7	A-DC8	A-DC9	A-DC10	A-DC11	A-DC12	A-DC13	A-DC14	A-DC15	A-DC16	A-Ph1	A-Ph2	A-Ph3	A-Ph4	A-Ph5	A-Ph6	A-Ph7	A-Ph8	A-Ph9	A-Ph10	A-Ph11	A-Ph12	A-Ph13	A-Ph14	A-Ph15	A-Ph16	B-AC1	B-AC2	B-AC3	B-AC4	B-AC5	B-AC6	B-AC7	B-AC8	B-AC9	B-AC10	B-AC11	B-AC12	B-AC13	B-AC14	B-AC15	B-AC16	B-DC1	B-DC2	B-DC3	B-DC4	B-DC5	B-DC6	B-DC7	B-DC8	B-DC9	B-DC10	B-DC11	B-DC12	B-DC13	B-DC14	B-DC15	B-DC16	B-Ph1	B-Ph2	B-Ph3	B-Ph4	B-Ph5	B-Ph6	B-Ph7	B-Ph8	B-Ph9	B-Ph10	B-Ph11	B-Ph12	B-Ph13	B-Ph14	B-Ph15	B-Ph16	aux-1	digaux	

1945.387	1	1	0	256	0.23688	0.062822	0.21406	0.24092	0.16217	0.15027	0.18261	0.28929	0.29049	0.084353	0.10984	0.077884	0.23431	0.20618	0.049261	0.22317	-1.6771	-1.9	-2.3104	-2.0104	-1.9208	-2.3979	-2.1458	-2.3042	-2.1375	-1.8813	-2.3729	-1.9937	-1.9333	-2.5083	-1.8958	-2.2167	208.092	201.682	310.581	7.759	262.379	78.106	-7.114	264.477	242.206	323.475	330.159	157.237	310.995	265.181	267.791	284.009	0.00069387	3.3664e-05	0.00011007	1333.2	2.4428e-06	4.2306e-06	1343.2	362.63	2.874e-06	5.6032e-06	415.98	142.2	119.59	40.427	8.0285e-06	50.842	0.00051184	0.00051321	0.00014257	1350.3	5.6533e-06	5.6855e-06	1359.7	369.55	5.5773e-06	5.6321e-06	423.56	138.11	121.96	41.672	5.5162e-06	51.977	-10.135	152.739	29.503	-2.293	232.425	-13.669	-2.431	2.596	71.140	142.616	1.903	8.648	6.756	11.406	133.596	10.586	-8191	255	
1945.506	1	1	0	0	0.22786	0.19388	0.20111	0.24491	0.11497	0.045197	0.41864	0.24506	0.095313	0.18679	0.16561	0.07551	0.10621	0.074177	0.16331	0.20119	-1.8979	-1.7375	-2.0896	-2.225	-1.9937	-2.4604	-2.275	-2.1583	-2.3563	-1.9354	-2.45	-2.0125	-1.8958	-2.5812	-2.0917	-2.275	171.474	330.453	244.596	196.713	185.440	184.136	283.318	273.382	284.181	164.991	134.243	306.230	304.971	274.484	-3.921	265.158	0.00072484	0.00080689	5.5284e-05	1337.1	7.8633e-07	7.1418e-06	1342.8	363.09	8.2573e-06	2.6142e-06	415.76	141.84	119.74	40.558	8.6758e-06	50.599	0.0005122	0.0005103	0.00014156	1350.9	5.5423e-06	5.4801e-06	1357.6	369.19	5.3983e-06	5.3686e-06	422.46	135.39	121.79	41.511	5.3069e-06	51.817	-14.929	38.559	75.926	-2.250	48.725	102.274	-2.231	2.647	94.675	38.921	2.179	8.972	6.958	11.701	164.112	10.569	-8191	255	
1945.577	1	1	0	0	0.1833	0.19609	0.17019	0.20089	0.16832	0.26722	0.2774	0.37684	0.060241	0.23919	0.023905	0.060599	0.09414	0.064247	0.18848	0.24093	-1.9604	-2.0146	-2.1104	-2.1562	-2.0583	-2.35	-2.2729	-2.2333	-2.2687	-1.9125	-2.3917	-2.2729	-1.875	-2.2333	-2.1896	-2.1063	61.829	96.338	254.894	181.170	240.121	149.102	255.378	318.338	256.204	121.417	344.206	179.806	217.578	70.702	145.258	315.864	0.00055177	0.0011538	7.3253e-05	1337.8	6.488e-06	7.6234e-06	1343.9	362.76	1.3896e-05	4.2556e-06	414.3	142.49	119.5	40.388	2.0617e-06	50.274	0.00048124	0.0004833	0.00013365	1344.8	5.2697e-06	5.2678e-06	1353.9	368.56	5.2354e-06	5.2208e-06	421.18	134.02	121.3	41.458	5.2695e-06	51.603	7.457	64.427	45.261	-1.962	82.033	100.279	-2.358	2.453	131.213	96.716	1.857	9.711	6.990	11.525	85.357	10.812	-8191	255	
1945.698	1	1	0	0	0.13486	0.05345	0.33785	0.14674	0.097877	0.074624	0.15148	0.047388	0.12094	0.35445	0.15595	0.39938	0.19173	0.063546	0.30811	0.028553	-1.9854	-1.7708	-2.0167	-2.3083	-2.0521	-2.2875	-2.4708	-1.9979	-2.4125	-1.8542	-2.2667	-2.125	-1.9854	-2.2646	-2.1104	-2.0062	82.774	-13.320	140.806	266.000	-1.480	317.682	320.721	115.532	152.455	176.934	334.551	59.075	214.597	152.755	125.048	303.110	0.00059548	0.00050885	0.00012911	1328.9	3.0298e-06	4.3626e-06	1329.3	361.96	7.2427e-07	5.4101e-06	416.1	143.97	120.44	40.55	1.9824e-06	50.501	0.00048183	0.000477	0.0001333	1341.3	5.2467e-06	5.1978e-06	1350.5	368.07	5.2587e-06	5.2755e-06	421.7	134.92	121.8	41.509	5.2484e-06	51.74	7.322	68.867	21.364	-2.094	92.396	110.335	-2.329	2.554	163.724	158.870	2.131	7.707	6.882	11.523	147.096	10.841	-8191	255	
1945.794	1	1	0	0	0.023492	0.1464	0.19719	0.44398	0.20281	0.29708	0.14043	0.26828	0.025891	0.17999	0.38043	0.064603	0.21927	0.31673	0.068296	0.11705	-1.7979	-1.9312	-2.0229	-2.3646	-2.0333	-2.1937	-2.4875	-2.0458	-2.2625	-2.1562	-2.1875	-2.2833	-1.8	-2.4208	-2.0458	-1.85	165.016	163.854	149.300	302.983	159.319	159.633	254.902	44.581	251.495	82.199	86.420	118.274	257.223	326.809	-3.644	44.956	0.00059584	0.0005606	0.00017976	1335.2	7.8133e-06	1.6909e-05	1335.4	364.07	3.6502e-06	3.4077e-06	415.01	142.76	119.06	40.63	5.0429e-06	50.607	0.00048161	0.00047898	0.00013284	1344.2	5.2191e-06	5.245e-06	1352.7	368.41	5.224e-06	5.2042e-06	421.9	134.51	121.28	41.556	5.2436e-06	51.779	3.986	76.965	24.956	-1.895	118.224	127.689	-2.209	2.530	178.241	113.759	2.043	8.950	6.880	11.555	110.704	10.688	-8191	255	
1945.890	1	1	0	0	0.089706	0.21541	0.14959	0.23582	0.03832	0.21736	0.11345	0.28614	0.10048	0.28035	0.12858	0.097122	0.065179	0.22155	0.043346	0.13978	-1.7437	-2.1396	-1.7875	-2.3438	-1.8646	-2.1854	-2.3646	-1.9688	-2.2167	-2.1042	-2.1688	-2.2417	-1.8729	-2.1646	-2.3979	-1.9896	228.633	185.219	82.631	241.260	50.125	109.965	340.309	295.307	9.697	185.944	319.179	339.464	268.343	335.092	279.339	337.114	0.00067551	0.00061395	0.00019676	1327.1	1.5721e-06	3.8396e-06	1335.8	362.64	3.4484e-06	3.0982e-06	416.08	143.3	119.42	40.481	2.8369e-06	50.578	0.00047577	0.00047923	0.0001318	1341.5	5.211e-06	5.2309e-06	1353.6	368.66	5.1448e-06	5.1499e-06	421.92	134.73	121.13	41.477	5.146e-06	51.737	6.362	73.321	87.530	-2.014	90.241	84.920	-2.275	2.498	53.628	144.596	1.969	8.451	6.948	11.491	137.405	10.594	-8191	255	
1945.986	1	1	0	0	0.36859	0.36452	0.19648	0.24489	0.21983	0.21519	0.44759	0.14204	0.23329	0.093072	0.26216	0.22861	0.3117	0.19797	0.12401	0.20951	-1.8125	-2.1729	-1.8917	-2.5083	-1.9625	-2.0167	-2.2021	-2.0708	-2.4146	-2.0625	-2.2854	-2.2646	-2.1896	-2.1063	-2.3229	-1.9917	271.091	20.933	300.666	-9.569	92.815	274.478	283.574	194.301	17.148	212.908	15.141	193.592	262.811	336.272	298.139	342.133	0.00057984	0.00051382	0.00011249	1327.3	5.9691e-06	6.9203e-06	1331.8	361.49	8.773e-06	6.3614e-06	415.66	143.69	119.47	40.537	3.2692e-06	50.473	0.00047628	0.00046767	0.00013129	1339.6	5.0702e-06	5.0961e-06	1349.7	368.04	5.0993e-06	5.0875e-06	421.51	133.28	121.05	41.474	5.0652e-06	51.641	20.378	60.341	322.008	-2.307	127.741	22.353	-2.401	2.636	108.634	149.021	1.859	7.880	7.030	11.490	124.708	10.582	-8191	255	
1946.107	1	1	0	0	0.19939	0.16317	0.19639	0.021365	0.19042	0.21766	0.25363	0.2054	0.13868	0.13561	0.24364	0.19204	0.18478	0.10141	0.24426	0.21613	-1.7729	-2.1583	-1.775	-2.4729	-1.7396	-2.0167	-2.4813	-2.1854	-2.25	-2.3083	-2.0563	-2.4313	-2.2417	-2.1917	-2.3521	-2.1229	334.720	153.543	295.205	323.708	33.431	305.863	299.913	318.430	207.452	31.222	273.530	337.462	285.516	297.037	315.489	291.539	0.00060344	0.0006319	0.00011993	1333.6	3.615e-06	8.022e-06	1333.8	362.36	4.0011e-06	7.1123e-06	415.19	144.36	119.78	40.555	4.4531e-06	50.771	0.0004622	0.00045742	0.00012733	1338.7	4.9292e-06	4.9275e-06	1348.9	367.78	4.8737e-06	4.8685e-06	419.96	131.47	120.94	41.389	4.8397e-06	51.587	14.359	321.797	8.089	-2.452	47.606	86.594	-2.183	2.565	140.931	176.272	2.045	8.949	6.948	11.559	141.186	10.612	-8191	255	
1946.179	1	1	0	0	0.029245	0.11889	0.25572	0.20232	0.085802	0.13042	0.095701	0.11318	0.30537	0.053517	0.18571	0.18293	0.22028	0.10511	0.34266	0.12488	-1.8104	-2.3542	-2.0938	-2.3292	-2.2604	-1.9771	-2.6667	-2.0062	-2.2354	-2.3229	-2.0708	-2.3396	-2.1312	-2.2938	-2.4417	-2.2479	273.963	221.095	60.709	343.576	322.640	181.147	313.124	288.478	-8.717	148.345	308.353	32.480	236.984	86.195	198.473	232.216	0.00055786	0.00026414	0.00012015	1318.7	1.6367e-06	3.7079e-06	1332	360.99	6.0049e-06	3.0641e-06	413.68	142.3	118.72	40.544	3.7378e-06	50.447	0.00044347	0.00044111	0.00012224	1330.7	4.7892e-06	4.7784e-06	1345.1	366.49	4.8093e-06	4.7928e-06	418.42	130.99	120.42	41.283	4.8042e-06	51.395	12.925	101.093	109.135	-1.937	54.485	80.917	-2.324	2.509	97.983	86.571	2.034	8.168	6.930	11.404	195.324	10.786	-8191	255	
1946.275	1	1	0	0	0.16856	0.050176	0.13678	0.16595	0.25035	0.16655	0.23824	0.20634	0.15102	0.21262	0.065111	0.20144	0.25409	0.28702	0.34036	0.16131	-1.6604	-2.3438	-1.8896	-2.4708	-2.3208	-1.9979	-2.5521	-2.1417	-2.0875	-2.4479	-2.1437	-2.3875	-2.0604	-2.0938	-2.3833	-2.1417	81.572	29.956	319.702	264.613	77.326	112.504	263.569	-11.064	90.213	167.580	6.744	34.321	295.818	-0.333	298.679	56.885	0.00071738	0.00048979	0.00020624	1318.7	7.9085e-06	5.5263e-06	1331.7	361.48	1.6801e-06	2.8117e-06	413.61	139.96	118.94	40.29	6.5246e-06	50.337	0.00044108	0.00043562	0.00012248	1328.3	4.7935e-06	4.7992e-06	1344.4	366.14	4.7754e-06	4.7271e-06	418.44	129.45	120.16	41.199	4.7222e-06	51.259	3.375	110.240	83.808	-2.288	76.893	105.293	-2.173	2.519	-7.376	164.430	2.036	9.643	7.264	11.724	139.372	10.508	-8191	255	
1946.394	1	1	0	0	0.097686	0.033422	0.24011	0.23308	0.099625	0.2105	0.24412	0.16554	0.077107	0.12318	0.17884	0.18594	0.26452	0.26197	0.19102	0.17357	-1.6208	-2.2521	-1.9125	-2.3583	-2.225	-2.0896	-2.7125	-2.1792	-2.1375	-2.3521	-2.1375	-2.0917	-2.3063	-2.1208	-2.2354	-2.3	308.450	230.848	77.623	26.689	148.045	173.447	276.555	261.559	245.960	185.857	187.186	279.253	280.254	75.577	160.511	209.081	0.0006133	0.00069674	0.00018876	1312.8	2.0599e-06	3.603e-06	1327.6	359.11	5.43e-06	6.8004e-06	411.85	144.07	117.83	40.272	4.4798e-06	50.252	0.00043041	0.00042911	0.00011828	1322.8	4.6375e-06	4.6461e-06	1338.5	364.46	4.6244e-06	4.6573e-06	416.84	129.11	119.6	41.129	4.6377e-06	51.157	1.967	97.058	93.303	-2.044	137.835	132.940	-2.070	2.539	69.347	122.092	1.899	7.609	6.808	11.921	122.571	10.657	-8191	255	
1946.490	1	1	0	0	0.12382	0.091735	0.2706	0.27525	0.30246	0.20768	0.41008	0.337	0.060341	0.072977	0.078403	0.092399	0.094171	0.043528	0.068674	0.087796	-1.6104	-2.2917	-1.9708	-2.2917	-2.4688	-1.8625	-2.525	-2.1688	-2.1146	-2.4125	-2.1917	-1.95	-2.4313	-2.0021	-2.2146	-2.3021	110.186	101.056	66.909	313.673	192.045	130.233	294.737	304.690	202.058	70.350	171.765	296.734	159.418	49.327	-9.291	316.840	0.00069762	0.00065245	4.8873e-05	1318.4	6.0818e-06	5.2649e-06	1327.7	358.92	2.9176e-06	7.9325e-06	410.73	143.48	118.03	39.984	7.5271e-06	50.21	0.00042775	0.00042286	0.00011832	1320	4.59e-06	4.6313e-06	1336.7	364.2	4.6405e-06	4.6483e-06	415.89	129.76	119.41	40.979	4.6596e-06	51.089	-10.748	26.720	313.444	-2.263	139.126	37.740	-2.143	2.614	50.122	196.714	1.970	8.127	7.060	12.105	92.410	10.448	-8191	255	
1946.586	1	1	0	0	0.20169	0.078937	0.37383	0.20511	0.13916	0.14374	0.24768	0.1903	0.18199	0.23398	0.12577	0.020544	0.16507	0.11905	0.32154	0.38159	-1.45	-2.4208	-2.0438	-2.15	-2.3354	-1.9208	-2.3479	-2.5854	-1.9792	-2.3812	-2.2292	-2.0375	-2.4646	-2.0292	-2.1979	-2.2375	325.224	246.315	162.372	27.783	76.446	39.424	204.085	284.747	314.420	141.645	4.830	32.778	331.187	287.337	157.662	7.443	0.00070043	0.00061886	0.0001243	1314.5	3.6812e-06	3.0032e-06	1314.7	358.4	6.5912e-06	5.3826e-06	409.43	139.34	118.4	40.037	6.1631e-06	49.987	0.00043168	0.00042352	0.00011821	1319.1	4.6618e-06	4.6701e-06	1334.2	363.58	4.6641e-06	4.6277e-06	415.9	129	119.6	40.88	4.662e-06	50.942	-8.824	75.145	42.169	-2.156	105.355	177.065	-2.010	2.627	59.902	152.419	1.773	8.054	6.970	11.675	59.097	10.624	-8191	255	
1946.682	1	1	0	0	0.18306	0.22973	0.056471	0.13919	0.14338	0.23075	0.37099	0.28482	0.18236	0.055332	0.18983	0.056949	0.16721	0.24584	0.02232	0.26958	-1.3354	-2.2292	-2.1146	-2.0125	-2.3167	-2.0396	-2.3854	-2.4208	-1.8729	-2.3812	-2.2938	-1.9438	-2.3167	-1.9792	-2.0833	-2.3229	78.175	265.840	179.839	300.556	246.232	217.094	270.351	281.572	-14.533	207.904	250.947	205.752	42.421	-13.040	96.817	198.026	0.00053885	0.00044358	0.00018494	1312.4	1.202e-06	2.8907e-06	1314.5	356.33	1.2112e-05	5.7634e-06	409.52	140.86	117.36	40.017	6.9064e-06	49.986	0.00042523	0.00042372	0.0001183	1313.4	4.6127e-06	4.5603e-06	1330.1	362.33	4.5799e-06	4.5034e-06	414.8	127.93	118.75	40.768	4.5019e-06	50.944	-8.953	299.349	57.128	-1.927	22.234	145.168	-2.266	2.595	71.370	166.508	1.916	7.887	6.872	11.684	131.338	10.634	-8191	255	
1946.803	1	1	0	0	0.20909	0.13552	0.11471	0.35724	0.31449	0.13484	0.36508	0.18266	0.13934	0.24428	0.2084	0.10262	0.025309	0.11496	0.098369	0.077786	-1.5312	-2.3042	-2.3187	-2.0521	-2.2938	-1.9312	-2.1667	-2.5167	-1.9396	-2.2625	-2.2958	-1.9667	-2.5354	-2.1312	-2.2479	-2.4396	38.730	55.164	140.323	27.892	216.120	21.545	265.627	254.491	154.325	-9.964	178.689	258.124	180.063	233.883	58.310	314.594	0.00074293	0.0011213	9.3459e-05	1303	2.3315e-06	1.1696e-05	1310.7	356.55	7.203e-06	3.1349e-06	409.79	139.41	117.82	39.985	2.8481e-06	49.911	0.00041492	0.00041116	0.00011334	1307.4	4.4578e-06	4.484e-06	1325.5	361.3	4.4639e-06	4.4284e-06	413.2	125.86	118.65	40.712	4.3693e-06	50.728	9.244	54.881	73.865	-2.117	87.208	118.848	-2.093	2.756	148.100	116.416	1.951	7.769	7.044	11.847	145.513	10.585	-8191	255	
1946.874	1	1	0	0	0.069707	0.084978	0.20665	0.32832	0.161	0.43682	0.3844	0.42071	0.16676	0.22835	0.31943	0.044293	0.077019	0.17394	0.273	0.23867	-1.4562	-2.1896	-2.3271	-1.9021	-2.3708	-2.1667	-2.375	-2.6375	-1.9583	-2.1896	-2.3167	-1.9125	-2.3708	-2.3021	-2.1125	-2.4188	344.436	59.215	61.030	274.024	235.760	143.005	260.023	257.500	46.104	-1.058	294.993	29.573	2.933	313.072	34.383	333.099	0.00060949	0.00054685	0.00013748	1306.8	3.5676e-06	3.3491e-06	1314.6	356.86	1.5221e-06	8.4329e-06	407.91	141.21	117.1	39.853	8.8563e-06	49.96	0.00040211	0.00040016	0.00011055	1304.9	4.3482e-06	4.3446e-06	1323.1	360.84	4.3257e-06	4.3468e-06	413.15	125.72	118.33	40.65	4.2858e-06	50.827	15.204	31.715	32.403	-1.918	148.086	178.665	-2.020	2.653	148.635	58.159	2.028	8.205	7.018	11.796	91.960	10.832	-8191	255	
1946.971	1	1	0	0	0.066442	0.23401	0.19203	0.25108	0.19651	0.301	0.1812	0.18399	0.026048	0.083549	0.017738	0.042779	0.10611	0.12188	0.21937	0.23026	-1.5333	-2.2687	-2.2125	-1.9354	-2.2854	-2.0604	-2.1542	-2.5458	-2.025	-2.0417	-2.5708	-1.8229	-2.3688	-2.2521	-2.025	-2.4917	81.137	285.919	238.120	31.934	114.254	71.271	271.211	32.776	303.597	244.191	167.442	-13.311	63.572	10.050	297.785	307.343	0.00065427	0.00062504	0.00011762	1302.5	2.2751e-06	4.6765e-06	1313.2	356.47	6.3135e-06	5.1777e-06	408.8	142.02	117.53	39.897	9.8498e-06	49.82	0.00040048	0.00039419	0.00010928	1300.7	4.3016e-06	4.293e-06	1321.3	360.52	4.2697e-06	4.2929e-06	412.19	125.8	118.44	40.661	4.2451e-06	50.715	-1.492	27.777	18.971	-2.216	152.222	152.201	-2.036	2.722	119.061	131.283	2.097	9.499	7.087	11.627	123.037	10.611	-8191	255	
1947.067	1	1	0	0	0.21781	0.25536	0.19639	0.28282	0.11083	0.17284	0.41592	0.26331	0.045258	0.15122	0.20127	0.03343	0.24452	0.09831	0.11845	0.4132	-1.6375	-1.8438	-2.2375	-1.9521	-2.3917	-2.1188	-2.15	-2.5958	-2.0833	-2.1875	-2.3979	-1.6938	-2.1854	-2.3208	-1.8958	-2.3438	59.649	278.593	61.562	21.991	30.800	218.029	273.627	278.516	301.918	285.416	310.464	-4.704	27.073	140.304	318.911	317.026	0.00074316	0.0008248	3.669e-05	1297.1	3.9109e-06	4.6431e-06	1313.7	354.97	4.675e-06	2.1129e-06	410.17	142.04	117.2	39.85	2.7917e-06	49.739	0.0003909	0.00038662	0.00010771	1299.8	4.2208e-06	4.2194e-06	1321.5	359.99	4.2471e-06	4.2671e-06	412.01	124.71	118.48	40.706	4.2317e-06	50.707	-6.421	51.719	34.195	-2.172	197.926	96.818	-2.189	2.428	110.407	85.937	2.158	9.077	7.091	11.608	95.518	10.748	-8191	255	
1947.187	1	1	0	0	0.15144	0.27434	0.15551	0.17173	0.12742	0.063594	0.25769	0.0065757	0.13653	0.10546	0.19578	0.11941	0.29025	0.13375	0.10115	0.17826	-1.4667	-1.8479	-2.2792	-2.0167	-2.2083	-2.3729	-2.2417	-2.5	-2.0896	-1.9021	-2.4562	-1.9813	-2.3125	-2.3917	-1.9958	-2.3708	120.487	130.676	-5.237	297.933	198.519	39.950	271.672	256.093	341.218	17.100	282.828	248.851	-1.440	305.006	306.216	203.619	0.00056275	0.00010942	3.4051e-05	1301.1	7.7838e-07	4.043e-06	1306.9	355.9	6.2414e-06	1.7356e-06	409.61	139.94	117.57	40.139	2.249e-06	50.041	0.00038965	0.00038792	0.00010562	1298.1	4.1966e-06	4.174e-06	1319.2	360.29	4.1251e-06	4.1285e-06	412.18	123.41	118.4	40.691	4.1439e-06	50.737	332.437	24.517	127.260	-2.385	136.529	218.223	-2.232	2.929	71.364	180.463	2.258	8.412	6.968	11.794	114.596	10.854	-8191	255	
1947.282	1	1	0	0	0.061757	0.086335	0.21309	0.2256	0.3897	0.097484	0.055708	0.22589	0.19203	0.32522	0.083998	0.17229	0.39347	0.28594	0.38393	0.083744	-1.6667	-1.9708	-2.3792	-1.9125	-1.9854	-2.3479	-2.2521	-2.5062	-2.0917	-1.8396	-2.3958	-1.875	-2.0854	-2.3	-1.9042	-2.2979	104.161	325.886	67.414	61.806	290.584	132.259	-9.807	-4.880	-13.911	-13.055	201.265	227.431	338.522	49.699	101.241	273.349	0.00079699	0.00070178	8.4031e-05	1299.5	3.2427e-06	3.0571e-06	1309.3	356.77	5.5541e-06	4.9312e-06	407.92	139.87	117.37	40.088	6.9328e-06	49.938	0.00038192	0.00037391	0.00010376	1298.1	4.118e-06	4.0482e-06	1318	361.11	4.0805e-06	4.0645e-06	412.07	123.77	118.26	40.733	4.0896e-06	50.792	3.714	99.964	75.633	-1.935	184.792	114.611	-2.074	2.827	67.928	17.248	1.989	8.173	6.745	11.717	93.155	10.990	-8191	255	
1947.380	1	1	0	0	0.032272	0.087039	0.15671	0.076903	0.034864	0.057142	0.33598	0.15913	0.15607	0.2571	0.29298	0.070722	0.093883	0.1907	0.21904	0.25033	-1.6667	-1.7479	-2.3667	-1.9458	-2.0104	-2.2667	-2.1292	-2.4875	-2.2708	-2.0312	-2.4917	-1.8708	-2.2062	-2.3979	-1.9042	-2.4208	218.728	182.285	216.884	1.531	246.713	271.488	247.972	252.394	317.476	191.317	24.453	279.857	231.270	114.047	10.934	70.885	0.00066142	0.00094863	0.00029428	1294.7	1.7272e-06	3.7825e-06	1305.5	355.72	2.0476e-06	2.3271e-06	407.17	139.5	118.38	39.881	2.8702e-06	50.161	0.00038008	0.00037495	0.00010395	1295.4	4.0941e-06	4.0055e-06	1318.2	360.27	4.1195e-06	4.1034e-06	412.2	123.83	118.68	40.691	4.1335e-06	50.802	8.379	68.776	48.169	-2.231	103.159	57.650	-2.268	2.837	52.472	135.714	1.930	8.275	6.935	11.614	151.394	10.860	-8191	255	
1947.476	1	1	0	0	0.062244	0.21291	0.092093	0.36444	0.10946	0.24327	0.46328	0.12207	0.23883	0.22633	0.17525	0.20106	0.12677	0.25931	0.03505	0.405	-1.8354	-1.9083	-2.2583	-2.3083	-2.0167	-2.5042	-2.0438	-2.3833	-2.0771	-1.9292	-2.3396	-2.1083	-2.1458	-2.4583	-2.1	-2.1354	-8.996	131.383	306.995	144.883	180.100	-14.800	327.014	335.583	117.995	58.149	228.792	320.672	19.638	330.379	302.561	22.628	0.00066676	0.00043106	7.7593e-05	1289.8	4.463e-06	6.4658e-06	1309.4	356.55	5.2068e-06	2.6459e-06	408.59	139.87	117.37	40.139	7.7271e-06	50.262	0.0003846	0.00037676	0.00010422	1294.2	4.1025e-06	4.1177e-06	1318.9	360.07	4.0893e-06	4.0434e-06	411.62	123.09	118.16	40.749	4.1054e-06	50.801	20.147	329.593	13.684	-1.915	118.114	120.930	-2.230	2.748	87.615	146.488	1.980	9.257	7.049	11.597	118.983	10.648	-8191	255	
1947.570	1	1	0	0	0.17374	0.20502	0.23703	0.075996	0.11976	0.13959	0.13487	0.20633	0.25129	0.30243	0.26816	0.097527	0.39114	0.1255	0.12796	0.32007	-1.9979	-1.8104	-2.0604	-2.3333	-1.7188	-2.2958	-2.3458	-2.4042	-2.2687	-2	-2.3021	-2.2521	-2.0083	-2.3833	-1.8875	-2.2667	28.201	25.819	113.061	153.667	118.795	51.625	205.643	23.954	228.336	32.582	8.399	72.833	240.077	43.191	313.561	-5.992	0.00059876	0.00034919	9.6932e-05	1294.1	3.5146e-06	5.1415e-06	1312.2	356.44	5.3116e-06	3.6174e-06	407.59	139.61	117.97	40.015	1.9879e-06	49.855	0.00037655	0.00037255	0.00010324	1295.4	4.0945e-06	4.0663e-06	1318.2	360.31	4.0956e-06	4.0887e-06	412	123.25	118.44	40.715	4.0971e-06	50.773	2.955	-0.017	306.861	-1.844	94.613	70.791	-2.276	2.826	73.677	129.397	2.116	8.685	6.903	11.718	189.384	10.719	-8191	255	
1947.666	1	1	0	0	0.12569	0.08104	0.17858	0.092809	0.14766	0.17417	0.36173	0.24683	0.22097	0.13812	0.11847	0.058881	0.17439	0.085365	0.15714	0.035232	-1.8833	-1.9021	-2.2917	-2.2979	-2.05	-2.3333	-2.3937	-2.1833	-2.3729	-2.0938	-2.4646	-2.1958	-1.8271	-2.5396	-2.1063	-2.2042	237.590	315.918	252.203	309.033	317.301	199.265	257.300	321.730	175.823	97.267	312.494	143.875	269.728	252.446	243.292	-11.621	0.00072988	0.00035931	0.00022337	1293.1	1.5768e-06	1.047e-05	1308.8	355.36	9.2778e-06	3.9315e-06	409.24	140.5	118.5	40.139	1.7664e-06	50.089	0.00037709	0.0003697	0.00010259	1295.4	4.0378e-06	4.0192e-06	1318.3	360.13	3.9912e-06	4.0196e-06	412.51	123.3	118.31	40.781	3.9994e-06	50.775	9.997	51.226	89.912	-2.092	99.907	127.342	-2.090	2.455	86.753	51.508	2.015	9.742	7.120	11.831	119.630	10.770	-8191	255	
1947.787	1	1	0	0	0.0064379	0.016232	0.11568	0.11096	0.16464	0.13318	0.34024	0.090524	0.19334	0.15727	0.077007	0.1709	0.044009	0.29955	0.13322	0.12645	-1.8729	-1.8125	-2.1854	-2.2854	-1.9083	-2.425	-2.3021	-2.1854	-2.2479	-1.95	-2.1792	-2.3458	-1.8896	-2.3667	-2.2271	-1.9604	64.459	317.941	321.066	259.624	41.308	242.098	304.165	250.730	326.459	292.957	250.782	105.855	98.402	124.009	269.736	136.836	0.00078107	7.2026e-05	7.6918e-05	1295.5	4.5923e-06	4.753e-06	1304.9	356.49	8.5214e-06	6.3072e-06	408.9	141.28	118.38	39.93	8.918e-07	50.057	0.00037157	0.00036663	0.00010038	1293	3.9642e-06	4.0021e-06	1316.5	360.12	3.9954e-06	3.9792e-06	412.15	123.09	118.24	40.707	3.9367e-06	50.729	-8.206	83.390	90.942	-2.281	146.142	86.718	-2.028	2.768	76.755	102.698	2.160	8.593	7.087	11.890	323.627	10.682	-8191	255	
1947.883	1	1	0	0	0.012947	0.21039	0.15216	0.094946	0.12656	0.18011	0.13581	0.38978	0.047185	0.025812	0.085522	0.092798	0.37378	0.1741	0.149	0.10833	-1.9521	-2.0396	-2.075	-2.4042	-1.9875	-2.2354	-2.3063	-2.1521	-2.4792	-2.1312	-2.2333	-2.0583	-2.1188	-2.3125	-2.1458	-2.0438	8.674	284.290	327.711	290.629	297.457	86.409	325.685	298.977	280.176	-12.740	97.400	143.645	299.619	1.387	-5.848	2.601	0.00072609	0.00048398	8.5487e-05	1300.4	1.3505e-06	8.1657e-06	1308.8	356.58	5.9167e-06	1.8162e-06	409.89	142.91	117.8	40.091	2.8498e-06	50.091	0.00036477	0.00036356	0.00010083	1293.1	3.9549e-06	3.9706e-06	1316.5	359.91	3.9848e-06	3.9446e-06	412.66	122.05	118.27	40.746	3.9643e-06	50.739	-10.322	13.448	36.511	-2.050	104.850	54.073	-2.259	2.601	121.374	191.377	2.232	8.825	7.110	11.643	5.546	10.900	-8191	255	
1947.979	1	1	0	0	0.03678	0.15691	0.20069	0.080003	0.077965	0.045074	0.26974	0.069036	0.091244	0.16334	0.24833	0.098302	0.15645	0.23309	0.11707	0.41578	-1.8354	-2.1146	-2.0917	-2.3521	-1.9396	-2.1937	-2.6125	-2.1729	-2.3167	-2.2812	-2.2458	-2.4646	-2.0563	-2.3375	-2.3438	-2.0042	99.199	110.882	65.531	-8.149	233.378	258.226	283.475	301.076	173.780	238.823	265.909	65.075	54.455	306.621	158.430	214.679	0.00072993	0.00068484	2.6165e-05	1290.1	4.9758e-06	5.1475e-06	1302.4	356.16	8.0429e-06	5.5395e-06	408.1	140.05	117.96	40.194	1.0139e-06	50.069	0.00036996	0.00035636	0.00010025	1289.6	3.944e-06	3.9572e-06	1314.7	359.63	3.9278e-06	3.9486e-06	411.54	122.43	118.19	40.761	3.9708e-06	50.733	0.676	1.289	192.794	-2.165	135.936	221.282	-2.232	2.748	96.990	139.267	2.073	7.832	7.154	11.548	100.912	10.628	-8191	255	
1948.100	1	1	0	0	0.018566	0.10286	0.19092	0.21899	0.037333	0.11567	0.29583	0.3566	0.13719	0.067075	0.066862	0.090351	0.049054	0.15002	0.10788	0.096239	-1.8875	-2.1188	-1.9375	-2.4208	-1.9646	-2.1	-2.5	-2.075	-2.1167	-2.1354	-2.0375	-2.3104	-2.1167	-2.2396	-2.3563	-1.8896	310.764	274.751	280.094	298.134	250.177	247.033	254.940	231.368	236.885	129.042	269.364	158.062	231.726	249.923	261.194	262.428	0.00067817	0.0005086	0.00010769	1294.6	5.5741e-06	8.4816e-06	1305.7	355.61	5.4656e-06	4.1005e-06	409.09	139.74	117.21	40.08	3.1504e-06	50.04	0.00036911	0.00036496	0.00010234	1294.3	3.9784e-06	4.0263e-06	1316.6	360.04	4.0186e-06	3.9724e-06	411.86	122.97	118.17	40.718	4.015e-06	50.824	8.006	50.591	54.995	-2.310	163.274	192.051	-2.164	2.460	136.497	99.259	2.139	9.055	7.175	11.374	93.814	10.730	-8191	255	
1948.172	1	1	0	0	0.087456	0.14053	0.17932	0.14048	0.14654	0.31332	0.21324	0.25203	0.25662	0.22924	0.11735	0.193	0.076215	0.018348	0.19277	0.095904	-1.875	-2.3646	-1.85	-2.4	-2.05	-2.1229	-2.5667	-2.0646	-2.125	-2.3125	-1.8042	-2.5083	-2.2292	-2.1979	-2.4417	-2.2292	305.805	314.101	37.175	143.612	177.778	93.163	266.278	42.008	132.680	77.756	335.514	125.466	200.717	45.435	196.356	104.923	0.00061938	0.00036831	8.6414e-05	1301.6	4.8764e-06	6.0809e-06	1307	356.37	4.8397e-06	3.2302e-06	409	138.77	117.48	40.031	3.4508e-06	50.044	0.00037279	0.00036826	0.00010268	1295.4	4.0029e-06	4.0196e-06	1318.6	359.92	3.9911e-06	4.0099e-06	412.15	122.69	118.25	40.701	4.0351e-06	50.793	4.883	48.194	60.626	-1.935	128.710	53.877	-2.222	2.635	93.244	166.195	2.009	8.130	6.978	11.613	130.617	10.802	-8191	255	
1948.268	1	1	0	0	0.17644	0.18415	0.30272	0.25295	0.39186	0.19181	0.33831	0.20296	0.04605	0.12641	0.23582	0.21168	0.54873	0.17387	0.21585	0.086804	-1.8042	-2.3438	-2.0875	-2.4875	-2.0771	-2.0854	-2.6542	-2.1104	-2.3125	-2.3312	-2.0146	-2.4542	-2.2083	-2.0625	-2.3729	-2.0854	217.695	233.322	342.897	327.548	52.389	261.196	286.639	291.696	27.344	202.023	333.153	321.538	305.816	25.091	108.255	204.035	0.00062673	0.00064101	8.1412e-05	1300.7	2.2537e-06	2.4836e-06	1309.9	356.96	7.5531e-06	7.4319e-06	409.07	140.5	118.38	40.069	2.0821e-06	50.087	0.00037776	0.0003679	0.0001017	1295.2	3.9842e-06	4.0238e-06	1320.8	360.4	3.9968e-06	3.9481e-06	412.79	123.6	118.42	40.833	4.0105e-06	50.84	6.070	52.942	78.821	-2.255	185.364	256.739	-2.214	2.692	114.502	151.144	2.124	8.353	7.178	11.829	292.285	10.542	-8191	255	
1948.362	1	1	0	0	0.12619	0.069274	0.27821	0.11881	0.052306	0.073244	0.14535	0.31391	0.15846	0.14474	0.33157	0.041259	0.18106	0.065625	0.34805	0.25888	-1.6271	-2.1875	-1.8229	-2.3771	-2.2667	-1.9667	-2.6646	-2.2938	-2.1417	-2.2083	-2.0479	-2.4625	-2.2938	-2.1229	-2.5854	-2.1875	148.162	-3.171	-11.609	283.443	113.161	307.770	99.648	276.305	231.627	336.371	332.765	238.989	140.470	49.400	103.002	216.161	0.00056489	0.00029238	0.00012399	1304.8	6.4907e-06	4.5676e-06	1308.9	356.85	5.3809e-06	2.2679e-06	409.65	139.64	117.62	40.271	2.66e-06	50.222	0.00037588	0.00036909	0.0001018	1299.6	4.0266e-06	4.015e-06	1321.3	360.7	4.0328e-06	3.9986e-06	412.44	123.61	118.24	40.848	3.9984e-06	50.817	-5.711	85.332	26.436	-2.221	112.135	119.001	-2.295	2.642	115.543	91.154	2.191	8.003	6.835	11.292	94.132	10.640	-8191	255	
1948.483	1	1	0	0	0.18266	0.096751	0.12019	0.034408	0.17155	0.25829	0.052014	0.21453	0.06008	0.33917	0.19136	0.087724	0.082032	0.17718	0.17859	0.054488	-1.75	-2.3104	-1.7771	-2.4167	-2.3542	-2.1021	-2.75	-2.1625	-2.0583	-2.2708	-2.1583	-2.3167	-2.4542	-1.9125	-2.3812	-2.2646	139.372	189.341	112.406	287.528	44.411	48.024	265.475	273.011	82.222	88.861	221.311	296.177	119.686	294.245	89.290	311.154	0.00056426	0.00053725	0.00020443	1304.4	3.0132e-06	8.5698e-06	1308	357.43	5.1899e-06	6.1377e-06	409.28	141.95	118.24	40.106	7.6734e-06	50.411	0.00037012	0.00036452	0.00010053	1298.5	3.9833e-06	3.9099e-06	1319.9	360.53	3.9269e-06	3.8606e-06	411.91	122.45	118.48	40.813	3.8879e-06	50.889	0.313	17.747	63.878	-2.052	5.810	167.163	-2.153	2.640	77.841	133.108	2.271	8.826	7.076	11.865	144.582	10.442	-8191	255	
1948.579	1	1	0	0	0.11153	0.26876	0.12347	0.16324	0.14435	0.1009	0.24455	0.47977	0.068603	0.071842	0.18782	0.37944	0.1654	0.26081	0.1586	0.033553	-1.5979	-2.4104	-1.9479	-2.2792	-2.3646	-2.0083	-2.5687	-2.3479	-2.0938	-2.3479	-2.1312	-2.1646	-2.5396	-2.2021	-2.3438	-2.5167	124.598	12.154	176.225	266.257	116.532	168.476	205.761	321.249	136.562	292.625	99.541	68.065	6.194	277.513	23.699	136.062	0.00072584	0.00065169	0.00016751	1289.9	2.1667e-06	4.0123e-06	1310.8	355.93	2.6013e-06	2.0635e-06	408.57	139.68	118.33	40.482	5.2926e-06	50.117	0.0003557	0.00034683	9.8552e-05	1291.4	3.8198e-06	3.8089e-06	1316.7	359.37	3.8836e-06	3.8853e-06	411.19	122	118.45	40.881	3.8824e-06	50.929	9.914	63.321	60.844	-2.246	24.145	248.848	-2.218	2.716	6.319	-2.252	1.993	8.544	6.979	11.340	34.618	10.615	-8191	255	
1948.675	1	1	0	0	0.071776	0.19977	0.091695	0.12397	0.032627	0.11273	0.30662	0.27941	0.25775	0.1907	0.15613	0.062093	0.13308	0.29427	0.19772	0.10925	-1.7021	-2.4792	-2.0938	-2.2146	-2.2708	-2.1104	-2.6396	-2.3271	-1.9375	-2.3688	-2.2833	-2.1833	-2.4813	-1.9458	-2.3937	-2.2792	35.691	83.802	161.760	208.117	138.111	158.085	289.506	255.044	100.253	178.217	265.874	81.544	301.795	306.712	150.994	233.860	0.00079275	0.00044278	3.7481e-05	1299.3	2.3538e-06	7.3908e-06	1313.2	357.7	8.4061e-06	4.1707e-06	409.22	142.26	118.97	40.385	4.8817e-06	50.269	0.00035921	0.00035896	9.9531e-05	1294.6	3.9231e-06	3.9143e-06	1322.9	360.7	3.916e-06	3.9224e-06	412.35	122.91	118.73	40.898	3.9358e-06	50.938	-1.112	55.986	212.549	-1.912	42.712	106.715	-2.213	2.746	145.200	140.262	2.134	7.985	6.808	11.531	28.550	10.320	-8191	255	
1948.747	1	1	0	0	0.32579	0.17083	0.057755	0.11863	0.22284	0.24966	0.26489	0.39545	0.10973	0.045369	0.20151	0.14518	0.13026	0.25082	0.064459	0.26402	-1.5125	-2.4062	-2.0687	-2.1708	-2.4208	-2.0208	-2.4125	-2.5938	-1.9521	-2.4896	-2.3604	-2.1813	-2.5417	-2.0479	-2.1292	-2.2604	113.098	92.123	7.391	281.117	255.712	109.704	282.706	225.542	124.258	170.979	325.515	77.370	319.026	-11.991	160.323	251.840	0.00061678	0.00018043	0.00015511	1300.6	6.6813e-07	9.3233e-06	1314.4	356.52	4.2066e-06	4.3092e-06	408.79	139.27	118.35	40.383	3.9218e-06	50.274	0.00036427	0.00035985	9.992e-05	1297.5	3.9383e-06	3.9144e-06	1322.8	359.98	3.926e-06	3.8958e-06	411.87	122.35	118.56	41.001	3.8926e-06	50.977	1.860	109.889	67.853	-1.936	91.006	111.127	-2.176	2.680	82.873	20.191	2.065	7.979	7.096	11.611	211.345	10.719	-8191	255	
1948.867	1	1	0	0	0.086214	0.14317	0.28614	0.082352	0.25432	0.16553	0.35298	0.14886	0.23507	0.2366	0.35573	0.16568	0.1966	0.21161	0.091069	0.14893	-1.5312	-2.4188	-1.9875	-1.8854	-2.3146	-2.0417	-2.3104	-2.4688	-1.9667	-2.1813	-2.0521	-2.0979	-2.1958	-1.9708	-2.025	-2.4688	28.713	295.429	41.883	7.786	303.422	210.054	-6.538	-9.609	95.537	231.459	333.456	102.066	22.172	279.279	300.743	270.533	0.00051446	0.00064983	0.00015668	1299.2	7.009e-06	8.3593e-06	1309.1	355.67	2.4137e-06	3.9574e-06	408.87	141.79	118.01	40.174	1.0454e-05	50.36	0.00036234	0.00035301	9.9112e-05	1296	3.8711e-06	3.9092e-06	1321.3	359.83	3.9195e-06	3.9096e-06	411.42	122.79	118.61	40.873	3.919e-06	50.983	2.570	31.792	51.147	-1.603	111.426	90.952	-2.165	2.531	148.340	133.980	2.215	8.237	7.156	11.826	140.682	10.564	-8191	255	
1948.964	1	1	0	0	0.23393	0.4324	0.12561	0.29597	0.27055	0.21144	0.3497	0.34067	0.27748	0.14699	0.23644	0.17827	0.075791	0.017798	0.050927	0.23843	-1.4688	-2.2083	-1.9979	-2	-2.3708	-1.9813	-2.3417	-2.25	-1.8979	-2.25	-2.3083	-1.9146	-2.3417	-2.2854	-2.0375	-2.3771	293.247	169.487	95.763	212.275	290.132	224.334	286.410	316.191	318.431	160.475	330.147	28.746	252.835	268.462	16.401	209.987	0.00062252	0.0005839	6.1218e-06	1307	7.8698e-06	9.6172e-06	1315.4	355.9	6.1411e-06	4.5386e-06	409.67	140.64	118.51	40.57	3.5882e-06	50.327	0.00036231	0.00036172	9.9024e-05	1299.8	3.9345e-06	3.9306e-06	1323.8	360.24	3.9843e-06	3.9378e-06	412.57	122.46	118.82	41.051	3.9709e-06	51.038	9.670	109.691	293.584	-2.167	112.952	157.686	-2.181	2.644	127.046	84.246	1.964	8.048	6.777	11.665	140.360	10.524	-8191	255	
1949.060	1	1	0	0	0.25037	0.12225	0.11144	0.04998	0.14483	0.1466	0.39979	0.28047	0.22148	0.16619	0.30507	0.32453	0.073781	0.10865	0.053122	0.16043	-1.3333	-2.0938	-2.3563	-1.8833	-2.1792	-2.1479	-2.2375	-2.6083	-1.9479	-2.1292	-2.375	-1.7604	-2.2917	-2.1625	-1.8875	-2.5271	-12.857	11.584	220.187	159.163	128.812	325.525	288.485	287.448	327.216	53.124	279.918	280.596	245.549	306.309	196.662	322.753	0.00049709	0.00075322	0.00017853	1306.3	4.5091e-06	8.8069e-06	1318	356.76	9.8584e-06	6.5493e-06	409.81	141.32	119.5	40.371	3.2883e-06	50.839	0.00036355	0.00036041	9.9932e-05	1301.6	3.9113e-06	3.8683e-06	1326.6	361.15	3.8596e-06	3.8474e-06	413.14	122.76	119.19	40.999	3.891e-06	51.116	4.622	81.576	85.643	-2.201	110.676	212.426	-2.137	2.538	37.589	99.566	2.179	8.901	6.991	11.610	149.159	10.727	-8191	255	
1949.180	1	1	0	0	0.1305	0.14506	0.16352	0.013159	0.15328	0.091083	0.10562	0.33113	0.10717	0.15716	0.18718	0.025794	0.2596	0.068344	0.073244	0.13945	-1.4958	-2.0938	-2.2396	-2.1521	-2.3	-2.0708	-2.2062	-2.5812	-2.1271	-2.0104	-2.4917	-1.9229	-2.4292	-2.0958	-1.8854	-2.4583	141.421	138.804	93.777	124.289	198.269	299.394	320.962	283.358	103.627	33.977	294.907	249.719	312.756	41.966	223.942	223.376	0.00050127	0.00022739	3.6632e-05	1304.7	2.2579e-06	7.2497e-06	1320	357.26	8.0331e-06	1.632e-06	408.72	140.76	118.53	40.369	3.6251e-06	50.529	0.00036282	0.00035546	9.936e-05	1301.1	3.8838e-06	3.8901e-06	1328.2	360.66	3.8729e-06	3.8246e-06	412.31	123.09	119.04	41.029	3.8848e-06	51.108	-4.891	136.002	14.207	-2.144	155.679	127.389	-2.129	2.719	112.244	-3.323	2.056	8.844	6.791	11.583	173.213	10.517	-8191	255	
1949.275	1	1	0	0	0.21052	0.082715	0.20494	0.069556	0.1281	0.16279	0.14798	0.30128	0.34154	0.05622	0.2227	0.09103	0.3337	0.17803	0.07661	0.12525	-1.4083	-2.0542	-2.2875	-1.9292	-2.1333	-2.1625	-2.1208	-2.4021	-1.85	-1.8875	-2.4896	-1.8292	-2.3042	-2.3792	-1.7708	-2.3312	230.111	210.196	256.811	311.660	252.046	318.667	287.861	293.325	15.019	19.817	233.578	328.234	57.604	13.162	-3.911	261.425	0.00052724	0.00021753	9.3697e-05	1307.1	7.413e-06	3.4252e-06	1316.5	356.16	4.0082e-06	3.4318e-06	408.88	143.48	118.88	40.326	4.001e-06	50.406	0.00035926	0.0003486	9.7233e-05	1299	3.8328e-06	3.8664e-06	1325.3	360.24	3.8992e-06	3.8795e-06	412.17	122.5	118.71	40.976	3.8863e-06	51.071	6.038	-13.149	63.522	-2.079	146.002	126.950	-2.334	2.490	160.132	164.215	2.095	8.463	6.965	11.661	46.007	10.756	-8191	255	
1949.348	1	1	0	0	0.18963	0.13796	0.21894	0.20033	0.15613	0.25567	0.32142	0.11917	0.2003	0.14186	0.3894	0.09932	0.27482	0.072326	0.31169	0.15981	-1.6167	-2.0896	-2.2479	-1.9604	-2.1875	-2.2604	-2.0083	-2.3854	-2.0833	-1.9333	-2.2438	-1.7437	-2.1229	-2.3312	-1.9521	-2.4958	120.551	293.893	326.663	220.558	31.158	308.670	257.773	340.519	-6.041	173.254	246.426	20.625	273.708	-11.637	107.437	333.376	0.00073711	0.0003871	7.1262e-05	1301.9	3.1062e-06	1.018e-06	1319.3	356.77	2.4669e-06	2.4674e-06	410.78	144.17	119.29	40.62	3.7801e-06	50.455	0.00036231	0.00035075	9.7331e-05	1299.7	3.8783e-06	3.8433e-06	1325.4	359.72	3.8018e-06	3.7883e-06	411.51	121.84	119.19	41.127	3.7841e-06	51.14	9.010	101.156	71.993	-1.753	110.995	114.964	-2.386	2.663	218.292	183.770	2.048	9.055	6.903	11.710	74.663	10.808	-8191	255	
1949.467	1	1	0	0	0.27337	0.1256	0.23466	0.29722	0.10956	0.24654	0.15089	0.44263	0.16271	0.19308	0.42175	0.058453	0.28634	0.29177	0.14413	0.27207	-1.8979	-1.975	-2.0896	-2.0438	-2.0792	-2.3604	-2.1271	-2.3667	-2.3667	-2.0812	-2.4458	-2.1021	-2.1271	-2.3458	-1.8833	-2.3958	145.812	19.854	320.391	313.358	262.442	37.288	285.366	331.934	97.820	6.600	270.174	202.693	313.531	287.408	309.633	339.633	0.00055598	0.00057355	0.00015154	1309.6	7.8695e-06	1.292e-05	1317	358.66	2.0681e-06	1.595e-06	408.66	141.26	119.42	40.936	3.8435e-06	50.959	0.00034709	0.00034045	9.4744e-05	1299.4	3.7325e-06	3.7148e-06	1324.2	361.09	3.687e-06	3.6552e-06	411.39	120.85	119.19	41.378	3.6521e-06	51.366	8.239	58.639	26.093	-2.112	109.988	173.493	-2.176	2.596	108.631	150.501	1.917	7.746	7.102	11.419	158.717	10.758	-8191	255	
1949.563	1	1	0	0	0.23109	0.23311	0.076721	0.091671	0.12576	0.11022	0.10116	0.22492	0.30477	0.21493	0.26567	0.10875	0.12485	0.11114	0.15514	0.098004	-1.5917	-1.7604	-2.1813	-2.0979	-1.8521	-2.3167	-2.2188	-2.3729	-2.0792	-1.9292	-2.5062	-1.9729	-2.1792	-2.25	-1.8958	-2.1271	338.302	24.609	239.863	156.383	23.089	296.500	311.223	277.397	292.511	272.545	284.389	270.052	202.456	226.496	161.492	161.242	0.00065251	0.00068928	0.00016098	1311.3	7.8388e-06	8.9386e-06	1323.5	358.38	3.8075e-06	8.4292e-06	410.83	143.34	119.77	40.993	7.1187e-06	50.912	0.00033781	0.00033148	9.1428e-05	1299.6	3.6624e-06	3.6525e-06	1328.5	361.59	3.6605e-06	3.6607e-06	413.66	121.45	119.85	41.502	3.667e-06	51.506	4.876	36.970	19.909	-2.087	103.806	89.997	-1.992	2.662	71.844	119.455	2.215	8.502	6.854	11.488	35.983	10.351	-8191	255	
1949.659	1	1	0	0	0.20149	0.30466	0.12293	0.32361	0.26408	0.16216	0.35046	0.26988	0.1742	0.082676	0.12944	0.027151	0.087606	0.16569	0.069227	0.22921	-1.7958	-1.7771	-2.3604	-2.0938	-1.8896	-2.2062	-2.1917	-2.1458	-2.1083	-1.9771	-2.25	-2.0958	-2.0146	-2.3854	-2.125	-2.2542	86.922	-1.073	144.539	325.957	15.024	60.770	296.978	276.204	76.712	328.472	6.139	184.595	205.423	235.075	240.873	317.812	0.00044048	0.00049459	0.00010771	1311.3	2.9316e-06	2.4145e-06	1323.9	358.84	2.4366e-06	1.7295e-06	412.88	143.23	120.03	40.982	8.7186e-06	51.155	0.00034196	0.00033511	9.2995e-05	1303.7	3.6832e-06	3.6375e-06	1331.7	362.46	3.6675e-06	3.6529e-06	414.71	121.72	120.18	41.518	3.6452e-06	51.615	29.522	85.492	75.810	-2.261	89.173	74.609	-2.322	2.663	42.279	43.016	2.051	8.012	7.219	11.424	21.959	10.657	-8191	255	
1949.780	1	1	0	0	0.038714	0.19399	0.15982	0.10804	0.23022	0.19599	0.15683	0.42994	0.23827	0.28204	0.11329	0.12652	0.27833	0.15963	0.20894	0.12149	-1.7729	-1.7646	-2.2417	-2.1542	-2.0021	-2.2625	-2.3146	-2.2333	-2.3896	-1.875	-2.3312	-2.2417	-1.8708	-2.3229	-2.0896	-2.0687	0.325	311.939	229.933	221.320	102.389	292.423	243.223	260.138	316.170	305.929	282.300	112.809	284.121	237.697	257.012	80.246	0.000601	0.00072573	0.00014461	1312	4.8732e-06	8.9509e-06	1325.9	359.3	3.0886e-06	5.5097e-06	410.75	142.68	119.48	41.036	7.4858e-06	51.042	0.00034289	0.00033607	9.2592e-05	1304.6	3.6434e-06	3.6966e-06	1331.8	362.09	3.7002e-06	3.6622e-06	413.24	121.51	120.02	41.529	3.6808e-06	51.562	-10.552	33.958	47.057	-1.958	119.980	113.951	-2.247	2.645	26.822	85.298	2.056	8.545	7.030	11.620	143.968	10.805	-8191	255	
1949.876	1	1	0	0	0.21703	0.19759	0.12433	0.28317	0.1774	0.29161	0.080211	0.34376	0.30456	0.21886	0.21921	0.27474	0.24136	0.17239	0.25665	0.26264	-1.8188	-1.9167	-2.0396	-2.1937	-1.8729	-2.1604	-2.3208	-2.0521	-2.3167	-1.975	-2.0563	-2.125	-1.875	-2.2833	-1.9813	-2.075	139.199	143.635	56.453	-10.510	242.170	53.773	225.139	303.289	154.517	284.686	291.773	15.088	-15.127	11.933	249.419	287.555	0.00070486	0.00063849	0.00011696	1311.2	2.4087e-06	7.3839e-06	1326.6	358.82	8.3854e-06	8.8595e-06	411.59	145.4	119.88	40.982	3.9158e-06	50.684	0.00034417	0.00033726	9.389e-05	1305.7	3.6821e-06	3.713e-06	1333	362.09	3.6883e-06	3.6663e-06	414.44	121.48	120.11	41.493	3.6877e-06	51.537	11.470	56.906	44.213	-2.170	163.786	114.266	-2.310	2.633	62.437	116.547	1.858	9.034	6.897	11.630	117.806	10.719	-8191	255	
1949.972	1	1	0	0	0.20692	0.033691	0.27267	0.12937	0.049282	0.34836	0.22687	0.065714	0.1119	0.10492	0.14967	0.15167	0.16928	0.095693	0.073288	0.11639	-1.9667	-1.9583	-2.0583	-2.3104	-1.7938	-2.1188	-2.35	-1.9333	-2.2333	-1.925	-2.1604	-2.275	-1.9104	-2.45	-2.1354	-2.0667	280.651	327.395	160.049	133.781	179.752	340.225	240.768	12.316	317.809	278.689	308.692	323.208	278.462	35.825	92.901	81.130	0.00072015	0.000794	0.00017988	1315.1	6.2787e-06	1.0683e-05	1327.1	360.13	7.9955e-06	3.8359e-06	411.68	143.81	120.15	41.231	6.4331e-06	50.967	0.00034431	0.00033571	9.3345e-05	1306.9	3.7136e-06	3.6867e-06	1335.9	363.13	3.6748e-06	3.6424e-06	413.84	121.69	120.25	41.613	3.661e-06	51.605	0.042	42.209	37.485	-1.807	144.515	81.340	-2.274	2.431	12.062	57.044	2.107	7.161	6.842	11.782	85.888	10.791	-8191	255	
1950.044	1	1	0	0	0.11749	0.030266	0.1244	0.10431	0.13745	0.05204	0.28219	0.16549	0.14092	0.12603	0.16156	0.24351	0.14758	0.19916	0.052769	0.23269	-1.9125	-1.9792	-2.0187	-2.3458	-1.5854	-2.2438	-2.225	-2.0958	-2.2875	-2.1729	-2.1729	-2.3229	-1.9062	-2.4208	-2.3021	-1.8062	4.824	88.559	244.921	119.516	161.925	202.529	321.962	33.257	285.980	117.203	301.187	100.471	143.597	-2.438	72.533	52.354	0.00057613	0.00055769	9.7847e-05	1320.1	4.1615e-06	6.3755e-06	1324.4	358.58	7.9909e-06	4.4386e-06	412.13	142.8	119.53	41.064	3.2986e-06	51.146	0.0003394	0.00033303	9.2493e-05	1308.3	3.6711e-06	3.6388e-06	1334.7	362.37	3.6528e-06	3.6242e-06	413.63	121.07	119.89	41.53	3.5812e-06	51.551	-5.543	319.551	37.630	-2.171	133.001	113.218	-2.182	2.672	110.735	136.082	2.106	8.551	7.095	11.624	58.907	10.650	-8191	255	
1950.165	1	1	0	0	0.14263	0.075816	0.23705	0.2866	0.21313	0.19424	0.25135	0.20811	0.17035	0.19151	0.41046	0.16921	0.29327	0.10609	0.29097	0.2502	-1.7771	-2.1396	-2.0396	-2.1896	-2.0271	-2.1854	-2.5271	-2.0792	-2.2875	-2.0729	-2.0479	-2.3167	-1.9271	-2.2083	-2.2313	-2.0687	297.094	210.673	23.223	4.027	207.730	227.853	219.736	261.345	284.859	19.172	289.842	195.821	58.319	0.279	263.477	277.710	0.00056735	0.00083347	4.4536e-05	1313.9	5.4841e-06	7.6651e-06	1320.6	358.54	1.8913e-06	7.147e-06	411.06	143.76	120.62	41.025	3.855e-06	51.082	0.00033356	0.00032642	9.1098e-05	1302.5	3.583e-06	3.6163e-06	1332.2	361.97	3.6118e-06	3.6099e-06	413.33	121.18	120.17	41.554	3.6861e-06	51.592	0.435	40.018	2.111	-1.737	115.753	144.184	-2.130	2.623	90.464	97.165	1.928	9.023	7.105	11.445	161.839	10.618	-8191	255	
1950.259	1	1	0	0	0.10405	0.24022	0.12305	0.18789	0.11899	0.15649	0.14567	0.24815	0.18037	0.092041	0.13395	0.17652	0.15788	0.33451	0.07419	0.053724	-1.75	-2.0062	-1.7854	-2.4146	-2.0167	-2.0271	-2.5	-1.9	-2.2333	-2.2542	-2.0708	-2.2188	-1.9729	-2.0938	-2.1625	-1.8833	4.853	273.836	58.899	19.787	335.838	328.982	318.078	266.045	-7.694	325.828	311.197	44.552	31.346	-4.224	248.271	252.904	0.0005671	0.00055349	7.738e-05	1316.1	5.2801e-06	1.7867e-07	1324	359.67	8.2867e-06	9.5627e-06	412.88	145.28	120.24	41.063	3.7897e-06	51.094	0.00033669	0.00032621	9.1592e-05	1306.9	3.624e-06	3.5967e-06	1333.6	362.46	3.5893e-06	3.5738e-06	413.74	121.66	120.06	41.558	3.6152e-06	51.56	12.433	68.192	55.796	-2.339	144.001	157.916	-1.973	2.799	89.199	122.140	2.123	8.594	6.993	11.720	147.178	10.494	-8191	255	
1950.355	1	1	0	0	0.040951	0.056269	0.13493	0.17231	0.18438	0.25552	0.09734	0.11702	0.20712	0.17129	0.24698	0.093715	0.16776	0.20885	0.19294	0.18109	-1.7625	-2.1708	-1.9667	-2.3167	-1.8271	-1.9979	-2.3875	-1.9854	-2.2083	-2.1396	-2.0333	-2.2729	-2.1229	-2.0271	-2.3604	-2.0083	159.416	115.324	179.973	193.581	7.537	215.434	230.847	279.667	200.789	298.461	7.627	189.730	-5.080	32.445	-9.495	278.421	0.00066305	0.00029231	5.7565e-05	1313.3	5.4558e-06	6.6784e-06	1326.1	359.43	7.5941e-06	4.3816e-06	413.04	143.61	120.45	40.866	4.7084e-06	51.214	0.00033835	0.00032579	9.0275e-05	1303.9	3.6084e-06	3.5873e-06	1333.3	362.22	3.6159e-06	3.593e-06	413.26	120.4	120	41.471	3.6302e-06	51.475	4.082	19.393	25.637	-2.001	165.435	133.139	-2.125	2.641	88.280	136.764	2.171	8.723	7.076	11.524	76.183	10.779	-8191	255	
1950.451	1	1	0	0	0.24436	0.1577	0.16027	0.13857	0.2388	0.32319	0.1851	0.25015	0.36491	0.18861	0.3244	0.039954	0.28559	0.17873	0.049309	0.20709	-1.7396	-2.0187	-1.8708	-2.4375	-1.9167	-2.0583	-2.6396	-2.0062	-1.9521	-2.3542	-1.9979	-2.2438	-2.3	-2.0479	-2.3583	-1.9042	13.346	-15.025	130.545	274.774	268.561	41.166	274.437	325.512	96.810	144.717	198.097	7.601	40.869	337.318	232.945	221.926	0.00077833	0.00055036	0.0001684	1310.8	6.7282e-06	2.6923e-06	1323.3	358.84	3.9291e-06	3.9108e-06	409.63	144.5	119.93	40.93	4.1966e-06	50.909	0.00033655	0.00033229	9.2607e-05	1302.9	3.6152e-06	3.5459e-06	1331.1	361.82	3.6303e-06	3.566e-06	412.82	120.86	119.77	41.409	3.5736e-06	51.43	3.414	79.614	64.971	-1.908	112.151	164.051	-2.149	2.760	83.942	318.560	2.102	8.181	7.104	11.643	165.676	10.472	-8191	255	
1950.549	1	1	0	0	0.19925	0.086853	0.28338	0.18334	0.18652	0.026087	0.25887	0.17256	0.30353	0.23752	0.060808	0.1783	0.25732	0.33144	0.23566	0.12612	-1.5063	-2.4583	-1.7938	-2.2208	-2.1292	-1.8729	-2.4688	-2.0583	-2.1271	-2.2667	-2.0833	-2.2	-2.1917	-1.9167	-2.2875	-2.1042	33.280	148.575	26.330	54.840	283.240	265.185	237.655	318.960	239.125	26.551	20.338	153.152	290.261	-6.584	29.478	264.939	0.0006641	0.00065844	3.6335e-05	1311.1	4.8889e-06	1.261e-05	1322.5	358.17	4.4429e-06	1.0889e-06	410.08	147	121.08	41.036	6.1395e-06	51.16	0.00033435	0.00032545	9.0361e-05	1301.9	3.5619e-06	3.5295e-06	1332.2	362.07	3.5129e-06	3.518e-06	413.09	120.57	120.56	41.605	3.5463e-06	51.71	-4.466	42.308	45.820	-1.778	187.736	112.785	-2.356	2.698	83.271	255.452	2.032	8.136	6.810	11.502	139.659	10.674	-8191	255	
1950.644	1	1	0	0	0.2038	0.15786	0.33927	0.36252	0.18472	0.050175	0.013104	0.12616	0.058071	0.28789	0.16345	0.2044	0.058748	0.13599	0.11952	0.37963	-1.5771	-2.2792	-1.8604	-2.0375	-2.1	-2.0771	-2.6729	-2.2125	-2.05	-2.3229	-1.8667	-2.0917	-2.35	-1.9521	-2.2771	-2.2438	11.862	158.883	336.275	231.487	301.440	229.807	299.010	202.763	44.712	274.780	254.209	52.651	50.241	97.418	53.983	327.712	0.00073917	0.00044763	0.00015933	1313.9	8.2411e-07	7.4464e-06	1330	359.85	5.8136e-06	2.9749e-06	413.1	147.07	120.7	41.137	4.6549e-06	51.482	0.00032511	0.00031662	8.8481e-05	1303.2	3.4733e-06	3.4656e-06	1334.8	362.68	3.4683e-06	3.4509e-06	414.46	120.14	120.43	41.694	3.4166e-06	51.877	11.259	80.435	69.300	-2.097	118.012	141.132	-2.284	2.497	116.229	171.693	2.399	8.279	7.024	11.474	132.663	10.416	-8191	255	
1950.740	1	1	0	0	0.071966	0.13614	0.1704	0.27047	0.010135	0.061133	0.13963	0.29803	0.12383	0.2002	0.24723	0.23339	0.11336	0.48611	0.17795	0.093991	-1.3438	-2.2729	-1.85	-2.0167	-2.1146	-1.9042	-2.3438	-2.2479	-1.8375	-2.3125	-2.1562	-2.05	-2.4042	-1.9333	-2.0542	-2.1312	43.681	0.418	320.323	272.408	68.151	257.768	5.881	38.273	279.689	337.293	31.724	177.846	175.447	307.594	206.778	178.879	0.00067333	0.00059768	0.00010522	1314.6	1.8465e-06	8.2013e-06	1328.4	360.69	4.3958e-06	3.9748e-06	414.41	145.3	121.47	41.461	9.3004e-06	51.576	0.00032166	0.00030869	8.618e-05	1307.8	3.3981e-06	3.4376e-06	1335.3	363.18	3.4579e-06	3.4138e-06	414.46	120.33	120.51	41.883	3.3809e-06	51.906	1.393	44.778	9.204	-2.329	160.551	127.552	-2.224	2.586	89.587	124.952	2.173	8.716	6.959	11.631	222.318	10.764	-8191	255	
1950.860	1	1	0	0	0.035034	0.063166	0.03648	0.26454	0.21251	0.23299	0.30706	0.16594	0.23667	0.47581	0.19072	0.059788	0.35645	0.33252	0.34525	0.36454	-1.4729	-2.2562	-1.8542	-2.0542	-2.2979	-1.825	-2.5333	-2.4354	-1.8271	-2.2604	-2.2	-1.9208	-2.3937	-1.9562	-2.1354	-2.1146	183.713	103.650	254.123	337.071	200.634	73.355	304.398	308.389	-2.078	73.599	-8.411	208.666	314.719	253.905	56.235	219.931	0.00058794	0.00025277	0.00011208	1314	2.3025e-06	1.3106e-05	1324.8	359.53	9.0776e-06	7.1285e-06	412.44	142.3	121.53	41.245	3.7924e-06	51.855	0.00031854	0.00031131	8.5998e-05	1303	3.3809e-06	3.4026e-06	1334.3	362.79	3.3889e-06	3.4156e-06	414.54	119.5	120.75	41.857	3.403e-06	52.038	1.700	45.820	48.018	-2.148	26.478	126.368	-2.045	2.717	124.921	106.287	2.018	8.211	6.599	11.559	138.563	10.486	-8191	255	
1950.956	1	1	0	0	0.19139	0.16474	0.26389	0.16412	0.10184	0.47239	0.28657	0.16012	0.13194	0.30062	0.096043	0.10837	0.19654	0.17957	0.10001	0.016881	-1.2979	-2.2708	-1.8354	-2.0979	-2.3312	-2.2708	-2.4417	-2.6229	-2.0604	-2.1542	-2.3708	-2.0146	-2.5438	-1.8813	-2.2875	-2.3896	81.366	321.140	-6.933	216.639	-13.965	100.375	307.396	251.176	68.803	198.976	296.254	70.859	57.244	1.741	47.951	18.679	0.0006754	0.00045343	0.00015879	1313.9	6.5138e-06	6.9431e-06	1327.8	360.16	1.0669e-05	6.2178e-06	412.6	144.02	121.33	41.417	7.3431e-06	51.782	0.00031835	0.00031012	8.624e-05	1305.8	3.3867e-06	3.3884e-06	1335.6	363.21	3.4186e-06	3.3845e-06	414.88	119.8	120.76	41.911	3.4049e-06	52.085	16.816	92.786	104.270	-2.045	171.912	165.679	-2.181	2.663	122.806	133.993	2.016	9.266	6.967	11.475	90.275	10.225	-8191	255	
1951.053	1	1	0	0	0.38287	0.17505	0.15423	0.13273	0.18895	0.077852	0.31564	0.20669	0.084483	0.075414	0.21653	0.066122	0.14607	0.31477	0.32166	0.28262	-1.2458	-2.2	-2.0292	-2.1396	-2.3	-1.9458	-2.2875	-2.4188	-1.9458	-2.325	-2.2229	-2.0167	-2.4708	-1.8167	-2.0208	-2.3083	155.810	6.531	22.710	325.921	282.884	129.078	307.757	265.397	-12.654	207.193	285.309	279.910	146.731	0.870	96.681	-9.731	0.00071977	0.0004987	7.0505e-05	1318.8	9.6742e-07	9.0586e-06	1329.6	362.04	1.6418e-06	8.0973e-06	412.93	143.07	122.16	41.472	5.6053e-06	51.96	0.00031773	0.00030864	8.6623e-05	1303.8	3.3969e-06	3.3814e-06	1337.9	364.26	3.4311e-06	3.3891e-06	415.27	120.41	121.25	42.06	3.3603e-06	52.299	-8.581	62.579	134.890	-1.860	164.687	124.611	-2.095	2.693	120.308	115.165	2.014	7.735	6.444	11.532	93.794	10.748	-8191	255	
1951.149	1	1	0	0	0.11132	0.10659	0.13309	0.28134	0.12969	0.14751	0.17387	0.026689	0.057857	0.1122	0.11044	0.13194	0.27999	0.36507	0.28888	0.39441	-1.4479	-2.2042	-1.925	-1.9813	-2.2854	-2.0583	-2.225	-2.4437	-2.0062	-2.2604	-2.2687	-1.625	-2.1854	-2.1729	-2.0083	-2.6063	30.464	50.180	43.084	311.314	226.742	194.144	275.870	225.112	27.508	183.198	330.248	215.252	75.384	329.608	255.993	323.538	0.00062893	0.00024719	0.00012869	1323	2.2347e-06	6.689e-06	1334.5	362.15	5.1502e-06	6.9437e-06	414.77	144.01	121.82	41.656	3.3776e-06	51.917	0.00031649	0.00030896	8.6048e-05	1310.1	3.3895e-06	3.3769e-06	1341.7	365.22	3.3859e-06	3.392e-06	416.43	119.83	121.53	42.139	3.3609e-06	52.206	-6.323	156.513	98.502	-2.267	221.320	116.553	-2.189	2.685	94.362	127.012	2.217	8.672	6.542	11.464	116.799	10.502	-8191	255	
1951.269	1	1	0	0	0.086593	0.041304	0.14755	0.28249	0.10839	0.17087	0.24744	0.22543	0.057096	0.16658	0.20912	0.11956	0.062128	0.16316	0.22962	0.095795	-1.4688	-2.1813	-2.125	-1.9542	-2.2979	-1.9896	-2.1958	-2.3937	-1.8937	-2.1625	-2.3729	-1.8312	-2.3021	-2.2313	-2.0312	-2.5417	240.153	291.658	274.028	-14.246	49.812	153.715	312.275	273.136	60.000	40.517	278.477	219.414	191.901	42.314	185.824	308.142	0.00066882	0.00018328	0.0001299	1320.4	3.5648e-06	7.0453e-06	1333	359.45	7.4053e-06	3.4429e-06	413.42	145.14	121.49	41.633	1.6145e-06	51.721	0.0003156	0.00031077	8.5717e-05	1307.2	3.3853e-06	3.4124e-06	1336.5	363.15	3.4292e-06	3.4205e-06	414.52	119.9	120.89	41.968	3.4108e-06	52.158	-2.769	264.699	18.861	-1.906	155.953	81.709	-2.178	2.737	68.595	75.742	2.249	7.598	6.676	11.460	35.853	10.636	-8191	255	
1951.339	1	1	0	0	0.095305	0.070784	0.065614	0.26771	0.24998	0.16126	0.33863	0.23182	0.10981	0.18978	0.16257	0.19933	0.062672	0.26516	0.17672	0.23038	-1.4229	-1.9354	-2.2042	-1.8396	-2.1146	-1.9104	-2.1375	-2.4562	-1.9813	-2.1021	-2.2625	-1.8667	-2.2313	-2.2625	-1.7667	-2.4979	80.174	25.933	108.910	300.757	251.129	89.319	271.280	69.883	49.282	27.049	332.367	226.175	101.701	340.716	335.782	246.768	0.00064465	0.00075297	3.7627e-05	1325.4	4.7321e-06	1.2216e-05	1333.6	363.51	4.6198e-06	6.5761e-06	415.4	146.29	122.57	41.911	4.9059e-06	52.177	0.00031554	0.00030552	8.3673e-05	1305.3	3.2937e-06	3.3141e-06	1340.3	365.4	3.2788e-06	3.2832e-06	416.15	119.75	121.71	42.284	3.3305e-06	52.371	2.671	13.307	100.581	-2.365	76.164	112.579	-2.393	2.515	122.341	113.351	2.112	8.384	6.679	11.396	79.418	10.654	-8191	255	
1951.460	1	1	0	0	0.046762	0.032967	0.11943	0.22356	0.10151	0.45479	0.27135	0.08752	0.20258	0.12415	0.13784	0.16357	0.16411	0.2386	0.19351	0.24709	-1.3729	-1.8917	-2.3854	-1.9312	-2.1937	-2.0396	-2.1729	-2.4688	-1.9708	-2.1437	-2.4208	-1.8188	-2.1729	-2.3125	-1.8979	-2.3417	202.537	99.888	75.806	340.172	89.414	308.832	273.313	229.960	167.063	281.040	314.473	63.322	-12.224	-14.815	48.873	18.348	0.00078266	0.00046857	8.4251e-05	1325.2	3.7828e-06	1.385e-05	1328.3	362.35	1.3202e-05	1.9723e-06	416.14	145.8	122.41	41.956	3.9788e-06	52.123	0.00030926	0.00029639	8.373e-05	1306.3	3.2499e-06	3.2602e-06	1339.4	365.39	3.2679e-06	3.2524e-06	417.18	119.85	121.76	42.402	3.3058e-06	52.356	13.157	44.344	39.969	-2.151	187.676	126.550	-2.155	2.569	84.860	162.199	2.027	7.947	6.882	11.319	67.284	10.693	-8191	255	
1951.556	1	1	0	0	0.080281	0.12701	0.12612	0.08572	0.052764	0.099917	0.29742	0.26229	0.13682	0.16606	0.098346	0.12941	0.14235	0.16311	0.21726	0.33579	-1.625	-1.8396	-2.2375	-2.0438	-2.1396	-2.2313	-2.0542	-2.3958	-2.0521	-1.9667	-2.5187	-1.6896	-2.3229	-2.3208	-1.7563	-2.3604	48.049	153.827	292.365	302.365	297.337	340.771	307.791	54.786	65.695	203.375	279.004	267.412	263.764	105.747	197.108	285.495	0.00071695	0.00020458	0.00015628	1321.3	3.1352e-06	4.8534e-06	1337	361.91	3.5833e-06	3.5028e-06	416.3	145.78	122.19	41.8	6.7089e-06	52.228	0.00031747	0.00030769	8.619e-05	1308.5	3.4029e-06	3.4328e-06	1342.3	364.79	3.4118e-06	3.4524e-06	417.16	120.59	121.71	42.359	3.4263e-06	52.519	-4.195	46.707	11.834	-2.101	108.384	170.840	-2.335	2.615	54.982	98.991	2.234	8.646	6.879	11.407	103.292	10.810	-8191	255	
1951.652	1	1	0	0	0.072847	0.046522	0.35658	0.062989	0.14982	0.079528	0.21617	0.35972	0.13619	0.31572	0.39575	0.22201	0.35174	0.26158	0.17789	0.3092	-1.6396	-1.9125	-2.4354	-1.9208	-2.0896	-2.3563	-2.0104	-2.3896	-2.2625	-1.7229	-2.4583	-2.1021	-1.925	-2.5104	-1.7667	-2.3271	43.207	344.405	214.683	210.318	268.470	84.356	314.025	304.386	45.531	269.232	299.779	140.761	262.453	320.364	208.372	324.771	0.00074418	0.00012538	9.4223e-05	1330.1	5.8233e-06	3.654e-06	1333.2	363.56	5.9138e-06	6.9028e-06	416.64	148.22	123.08	42.079	4.1725e-06	52.448	0.00031709	0.00030495	8.4013e-05	1311.1	3.3136e-06	3.2285e-06	1341.7	366.3	3.2298e-06	3.2285e-06	416.84	119.23	122.17	42.463	3.2072e-06	52.669	-4.162	-8.679	35.597	-1.929	129.310	162.208	-2.034	2.485	335.982	87.197	2.017	9.539	6.633	11.411	154.821	10.702	-8191	255	
1951.748	1	1	0	0	0.048975	0.18097	0.15041	0.054384	0.15243	0.043814	0.10597	0.084744	0.15216	0.26305	0.33272	0.10935	0.26135	0.12656	0.22127	0.070191	-1.7417	-1.7521	-2.2354	-1.9396	-1.8917	-2.3396	-2.05	-2.4146	-2.2	-1.9188	-2.4208	-2.1646	-1.8979	-2.5667	-1.9708	-2.1688	180.679	-12.618	316.342	286.922	209.323	311.027	28.977	113.518	146.033	324.744	278.731	42.516	263.248	102.799	311.610	343.532	0.00070194	0.00043056	9.9243e-05	1327	4.0371e-06	4.0245e-06	1339.7	365.73	7.6248e-06	6.1701e-06	419.33	146.55	123.41	42.484	4.6808e-06	52.64	0.00029923	0.00029343	8.1429e-05	1307.1	3.1808e-06	3.1524e-06	1345.1	367.81	3.2083e-06	3.1513e-06	418.97	119.65	122.87	42.862	3.2207e-06	52.967	-1.342	128.782	26.802	-2.448	139.432	152.517	-2.415	2.710	111.911	58.847	2.001	8.212	7.054	11.229	89.533	10.544	-8191	255	
1951.869	1	1	0	0	0.12164	0.12724	0.2469	0.064157	0.082825	0.023235	0.040333	0.28187	0.045839	0.056013	0.070059	0.14916	0.10966	0.14575	0.15719	0.20168	-1.6708	-1.7875	-2.3167	-2.175	-1.9021	-2.4042	-2.2646	-2.1771	-2.375	-1.7583	-2.0917	-2.1333	-1.9438	-2.2917	-2.0042	-2.0729	271.612	82.632	262.889	25.299	307.192	300.871	88.867	-8.789	289.354	69.489	126.194	245.187	214.075	82.330	147.554	9.670	0.00066163	0.00046692	6.6087e-05	1334.3	4.7478e-06	3.4858e-06	1344.8	365.09	1.0533e-05	2.1645e-06	420.69	146.97	123.34	42.275	6.5704e-06	52.725	0.00029957	0.00029308	8.1707e-05	1316.4	3.2041e-06	3.2113e-06	1349	368.14	3.2249e-06	3.1979e-06	419.69	120.03	122.43	42.664	3.2101e-06	52.741	-6.743	78.523	141.071	-1.886	90.991	122.161	-2.161	2.657	70.389	104.120	1.968	8.846	6.868	11.409	128.941	10.668	-8191	255	
1951.941	1	1	0	0	0.036617	0.011009	0.099701	0.4134	0.118	0.26209	0.099445	0.36639	0.25778	0.13042	0.16779	0.15594	0.099686	0.30844	0.14963	0.22374	-1.8458	-1.8375	-2.2042	-2.3	-1.9104	-2.3729	-2.2542	-2.1792	-2.2125	-2.0146	-2.3542	-2.2188	-1.9021	-2.2812	-2.0958	-2.0771	266.626	241.817	263.035	196.741	91.752	7.274	222.247	295.670	117.162	159.215	238.162	172.285	94.334	308.689	50.685	208.923	0.00066112	0.00035913	0.00013838	1324.2	4.9846e-06	4.7276e-06	1338.2	363.43	1.0574e-06	3.9442e-06	417.36	144.55	123.18	42.137	5.4461e-06	52.444	0.00030038	0.00029476	8.1686e-05	1310.9	3.2786e-06	3.1594e-06	1343	366.37	3.2398e-06	3.2341e-06	418.05	119.85	122.45	42.586	3.233e-06	52.809	3.314	145.276	108.310	-2.091	108.185	104.306	-2.182	2.683	332.754	128.468	2.376	7.365	6.675	11.383	113.802	10.369	-8191	255	
1952.037	1	1	0	0	0.13769	0.19896	0.20481	0.28682	0.379	0.22936	0.41409	0.40427	0.045814	0.25921	0.20133	0.12822	0.23853	0.20239	0.01681	0.16571	-1.8896	-1.7625	-2.2812	-2.4604	-1.7771	-2.3271	-2.3208	-2.0333	-2.2792	-2.1479	-2.2771	-2.3417	-2.0292	-2.4854	-2.05	-2.0208	186.871	185.951	305.605	13.220	40.809	164.010	298.755	268.412	-7.914	279.514	343.439	329.707	154.275	334.712	0.011	129.192	0.00060892	0.00047079	7.2301e-05	1324.3	4.6978e-06	8.9471e-06	1339.1	364.82	7.4392e-06	2.5808e-06	417.64	145.89	123.9	42.45	7.5548e-06	52.39	0.00030275	0.0002934	8.1737e-05	1311.3	3.2209e-06	3.2315e-06	1345.8	366.55	3.2337e-06	3.2185e-06	418.08	119.84	122.63	42.748	3.1641e-06	52.693	-3.780	46.229	338.122	-2.300	130.928	111.912	-1.977	2.565	107.307	86.661	1.966	7.865	6.683	11.194	166.337	10.628	-8191	255	
1952.133	1	1	0	0	0.14967	0.15246	0.12796	0.26048	0.20614	0.10172	0.3518	0.35244	0.24884	0.21799	0.34273	0.14539	0.10565	0.16566	0.22331	0.083514	-1.8875	-1.8438	-2.175	-2.2229	-1.8854	-2.1854	-2.5792	-1.8771	-2.3042	-1.9896	-2.0521	-2.3125	-1.9833	-2.4167	-1.9958	-2.0417	312.005	81.411	8.089	328.450	224.833	334.510	284.873	315.347	257.770	14.888	251.795	154.623	-9.905	241.894	272.792	261.682	0.00063433	0.00077905	0.00012636	1326	4.228e-06	5.3331e-06	1336.3	364.55	9.2941e-06	2.6952e-06	418.28	150.81	123.48	42.384	3.0754e-06	52.397	0.0003029	0.00029161	8.0592e-05	1310.6	3.217e-06	3.1802e-06	1343.9	367.18	3.2595e-06	3.2148e-06	418.53	120.83	122.68	42.659	3.2513e-06	52.74	5.958	4.206	50.244	-2.108	104.424	126.773	-2.117	2.798	116.881	121.467	2.147	7.032	6.907	10.936	13.270	10.590	-8191	255	
1952.229	1	1	0	0	0.12896	0.15238	0.018314	0.1364	0.13294	0.16657	0.18131	0.24042	0.090226	0.14637	0.10221	0.16581	0.090002	0.072686	0.18101	0.089847	-1.8917	-2.0354	-2.0229	-2.4313	-2.0271	-2.325	-2.4813	-2.1521	-2.25	-1.8771	-1.9688	-2.2812	-1.9771	-2.1833	-2.2771	-1.9937	337.153	252.290	9.633	219.648	196.625	-0.835	274.907	290.227	61.785	9.993	50.379	259.380	78.662	282.546	68.680	267.640	0.00063301	0.00030042	2.6849e-05	1324.9	6.2596e-06	2.7319e-06	1342.4	364.44	8.4415e-07	1.0158e-05	418.29	148.44	123.39	42.177	4.7684e-06	52.211	0.00030597	0.00029831	8.2368e-05	1311.3	3.2498e-06	3.2263e-06	1346.7	366.54	3.2514e-06	3.2628e-06	418.02	120.57	122.49	42.574	3.2848e-06	52.705	5.140	120.242	337.548	-2.076	92.617	164.482	-2.192	2.656	-3.532	161.611	2.212	7.582	6.751	11.231	145.857	10.518	-8191	255	
1952.348	1	1	0	0	0.07602	0.076353	0.062976	0.093196	0.22769	0.37198	0.2617	0.168	0.020006	0.09377	0.080077	0.11888	0.1783	0.22233	0.10055	0.093417	-1.7292	-2.0292	-2.0312	-2.3083	-1.9312	-2.2854	-2.4229	-1.9875	-2.1896	-2.2146	-2.0187	-2.4708	-2.0208	-2.2146	-2.2521	-1.9167	28.327	73.861	249.987	36.853	51.871	298.643	257.965	146.492	270.698	70.688	254.611	63.741	269.611	293.937	-12.624	279.778	0.00069523	0.0006908	0.00011775	1330.9	5.9102e-06	1.3045e-06	1338.4	364.09	8.409e-06	4.0465e-06	417.36	145.72	123.08	42.078	4.6073e-06	52.451	0.00030529	0.00029704	8.3105e-05	1311.9	3.2737e-06	3.2529e-06	1344.3	366.73	3.2662e-06	3.2216e-06	417.84	120.29	122.41	42.515	3.2668e-06	52.763	-9.803	-5.063	77.357	-2.009	93.462	246.291	-2.196	2.337	75.090	101.654	2.045	7.814	6.807	11.532	144.383	10.406	-8191	255	
1952.444	1	1	0	0	0.2097	0.075938	0.22094	0.23517	0.047376	0.11999	0.21089	0.28708	0.2158	0.23706	0.3387	0.10361	0.1703	0.15259	0.088648	0.17355	-1.6958	-2.1479	-2.1125	-2.1813	-1.8521	-1.9958	-2.5979	-2.2292	-2.2375	-2.0708	-1.9562	-2.3979	-2.1312	-2.2021	-2.3792	-2.0583	335.864	303.367	212.509	293.979	320.421	244.211	341.468	329.180	314.463	210.190	285.556	85.517	33.946	30.500	1.138	295.401	0.00070256	0.0003326	0.00017649	1319.9	4.4837e-06	1.1909e-05	1337.6	364.41	4.9998e-06	1.9566e-06	417.66	149.09	122.84	42.078	6.2168e-06	52.278	0.00030554	0.00030034	8.3884e-05	1310	3.3124e-06	3.2809e-06	1344.9	366.33	3.2639e-06	3.2354e-06	417.63	120.8	122.27	42.474	3.2679e-06	52.6	-5.112	1.253	58.998	-1.894	158.111	125.224	-2.440	2.655	114.159	147.482	1.973	9.027	6.893	11.185	153.775	10.539	-8191	255	
1952.540	1	1	0	0	0.072646	0.29429	0.15827	0.12369	0.10242	0.08413	0.16468	0.028351	0.082707	0.22879	0.11586	0.13131	0.11317	0.30291	0.25488	0.50933	-1.575	-2.1979	-1.9396	-2.475	-2.1521	-1.9813	-2.6271	-2.0354	-2.1104	-2.2771	-1.9146	-2.0979	-2.2417	-1.9542	-2.325	-1.9625	334.882	150.899	245.116	132.531	118.291	-5.853	277.400	14.545	326.763	17.023	85.881	185.991	17.002	325.634	282.296	290.411	0.00054892	0.00052711	8.8964e-05	1325.4	7.6208e-07	8.6928e-06	1333.2	363.89	5.5645e-06	4.8408e-06	416.38	146.64	122.84	42.416	4.2169e-06	52.604	0.00030664	0.00029453	8.1561e-05	1309.2	3.1696e-06	3.2043e-06	1343.3	366.52	3.1947e-06	3.1661e-06	417.6	120.12	122.33	42.752	3.191e-06	52.924	15.076	56.966	47.454	-2.376	221.870	67.121	-2.356	2.666	125.646	151.442	2.250	8.171	6.821	11.380	58.410	10.353	-8191	255	
1952.636	1	1	0	0	0.19212	0.21353	0.19394	0.064617	0.13951	0.21809	0.10125	0.36858	0.10183	0.042288	0.26663	0.097251	0.20153	0.035901	0.18298	0.29982	-1.5208	-2.3	-1.9438	-2.4604	-2.0771	-1.8729	-2.6312	-2.05	-2.0583	-2.3021	-2.0917	-2.1125	-2.1271	-2.1229	-2.15	-1.875	289.566	329.008	57.992	38.625	72.342	335.958	-1.621	326.630	333.200	6.749	-12.145	22.718	211.542	237.254	169.371	276.615	0.00054267	0.0005861	0.00017975	1325.9	2.2908e-06	2.1198e-06	1344	366.98	5.9972e-06	4.3903e-06	420.96	152.38	124.74	42.75	2.7371e-06	52.982	0.00029737	0.00028603	8.057e-05	1312.8	3.1646e-06	3.1358e-06	1348.4	368.82	3.1203e-06	3.1005e-06	420.55	120.71	123.58	43.099	3.0997e-06	53.19	-13.165	86.787	19.721	-1.884	105.415	140.514	-2.180	2.487	108.705	101.849	1.925	7.468	6.722	11.220	132.161	10.199	-8191	255	
1952.733	1	1	0	0	0.079011	0.11379	0.084497	0.088327	0.15626	0.12882	0.28366	0.25236	0.025901	0.02878	0.13076	0.068008	0.16337	0.15791	0.38651	0.18992	-1.5354	-2.2896	-1.8521	-2.2854	-2.3958	-1.7437	-2.5604	-2.2625	-2.2562	-2.3021	-2.0958	-2.1417	-2.3729	-1.9104	-2.4125	-2.1583	40.309	171.960	5.464	31.016	5.408	6.405	269.607	9.249	210.764	262.008	305.000	14.257	42.496	152.295	80.850	84.868	0.00050208	0.00072845	0.00013267	1329.3	4.0322e-06	4.0169e-06	1342.2	366.68	6.4134e-06	5.2472e-06	417.31	149.12	123.38	42.635	3.5378e-06	52.668	0.00029299	0.00028451	7.9518e-05	1313.7	3.1103e-06	3.1082e-06	1348.2	368.35	3.1296e-06	3.1044e-06	418.46	119.87	122.88	43.005	3.151e-06	52.971	7.951	60.444	91.961	-2.171	51.808	88.320	-2.154	2.467	119.599	123.210	2.187	7.902	6.727	11.320	119.850	10.399	-8191	255	
1952.829	1	1	0	0	0.18051	0.2538	0.30978	0.15362	0.096273	0.15443	0.096804	0.036109	0.1275	0.21367	0.30033	0.17409	0.13531	0.30178	0.063884	0.23366	-1.3667	-2.4083	-1.9562	-2.075	-2.325	-1.8229	-2.3896	-2.3646	-2.0438	-2.3167	-2.2062	-2.2083	-2.4479	-1.9021	-2.2521	-2.1688	211.233	230.059	158.032	317.056	11.079	279.231	254.764	305.815	138.009	173.919	278.399	-2.113	124.101	328.170	273.825	244.281	0.00050491	0.00028746	6.1056e-05	1326.2	4.2569e-06	5.462e-06	1338.7	365.78	7.3383e-06	4.6801e-06	417.45	149.31	123.78	42.713	2.782e-06	52.655	0.00029075	0.00028078	7.8293e-05	1310.6	3.0707e-06	3.0913e-06	1345.2	367.43	3.0438e-06	3.0492e-06	418.5	119.29	122.89	42.973	3.0865e-06	53.05	14.257	60.525	72.407	-2.154	96.171	125.972	-2.025	2.482	85.574	91.818	2.181	8.593	6.660	11.408	120.253	10.463	-8191	255	
1952.949	1	1	0	0	0.11206	0.43496	0.1892	0.28322	0.11636	0.23678	0.30152	0.17208	0.16362	0.27278	0.28622	0.065025	0.045526	0.13759	0.18222	0.04834	-1.5562	-2.1083	-1.9438	-2.025	-2.0583	-1.8625	-2.4042	-2.2792	-1.9937	-2.2375	-2.1813	-2.0646	-2.2792	-2.0521	-2.2625	-2.4583	52.274	334.523	123.310	208.725	228.341	256.504	242.959	322.582	174.337	303.915	247.700	117.269	324.192	250.664	224.025	78.876	0.00078012	0.00045117	0.00011157	1320.6	2.1655e-06	5.54e-06	1339.7	365.04	6.0389e-06	9.8093e-07	418.51	147.81	124.5	42.521	4.7949e-06	52.827	0.00029087	0.00028199	7.9255e-05	1308.8	3.0805e-06	3.077e-06	1344.5	366.84	3.113e-06	3.0654e-06	418	118.88	123.07	42.855	3.1112e-06	52.931	3.713	47.116	16.708	-2.190	57.093	163.735	-2.063	2.557	57.738	101.537	2.158	7.581	7.151	11.345	110.358	10.461	-8191	255	
1953.046	1	1	0	0	0.12693	0.053504	0.11839	0.14822	0.14412	0.27778	0.2638	0.20863	0.03335	0.1377	0.2066	0.11805	0.28492	0.22141	0.074947	0.34384	-1.45	-2.3167	-1.75	-2.1208	-2.3625	-1.7771	-2.2542	-2.2771	-1.8375	-2.2521	-2.2562	-2.0354	-2.5875	-2.1083	-2.1396	-2.2958	194.758	269.191	173.966	280.957	154.542	259.651	-5.109	273.757	314.001	251.776	222.927	65.701	5.339	341.324	285.830	310.472	0.0007422	0.00027821	8.6731e-05	1339	3.0486e-06	6.8346e-06	1338.4	365.83	6.3213e-06	1.6497e-06	416.23	150	123.93	42.549	1.1567e-06	52.829	0.00029451	0.00028292	7.7518e-05	1311.3	3.1246e-06	3.1474e-06	1344.3	367.18	3.1827e-06	3.0761e-06	417.87	118.93	122.84	42.9	3.0882e-06	53.059	-2.673	67.203	21.804	-2.125	115.953	139.496	-2.045	2.568	96.708	176.595	1.885	7.909	6.751	11.440	115.045	10.292	-8191	255	
1953.142	1	1	0	0	0.20781	0.30175	0.40873	0.12903	0.062323	0.099337	0.16062	0.14364	0.16487	0.051479	0.030655	0.064503	0.18978	0.098583	0.057465	0.12163	-1.4875	-2.2021	-2.05	-2.0167	-2.4792	-2.1333	-2.1167	-2.4104	-1.9396	-2.4417	-2.2521	-2.0896	-2.4229	-2.0604	-2.0771	-2.3667	201.579	79.783	262.046	195.314	58.864	289.182	252.563	338.644	313.910	64.333	101.192	236.145	245.181	224.361	191.158	16.110	0.00071357	0.0002208	1.436e-05	1332.5	3.4582e-06	1.0785e-05	1341.1	366.13	2.2736e-06	7.354e-06	416.68	146.91	124.09	42.434	4.3164e-06	52.482	0.00028971	0.00028236	7.7466e-05	1311.8	3.0422e-06	3.0517e-06	1346.5	367.6	3.0683e-06	2.9994e-06	417.99	118.72	122.67	42.771	3.0583e-06	52.862	-7.595	23.805	313.351	-2.016	135.892	110.708	-2.231	2.603	309.881	152.110	2.006	7.870	6.724	11.254	144.912	10.408	-8191	255	
1953.238	1	1	0	0	0.22316	0.1506	0.12174	0.26296	0.1256	0.066837	0.17408	0.23689	0.18954	0.11906	0.20835	0.16765	0.17779	0.049419	0.06838	0.12258	-1.5688	-2.1646	-2.2354	-2.1396	-2.4188	-2.075	-2.3937	-2.5292	-1.9292	-2.1417	-2.2917	-1.975	-2.5854	-2.2542	-1.9708	-2.6	164.007	288.626	50.617	307.244	120.222	250.817	-10.544	335.937	267.492	308.152	-1.861	4.458	197.668	97.152	235.398	219.374	0.00054008	0.00025341	0.00016487	1328.3	4.4475e-06	1.0614e-05	1333.4	364.9	2.4356e-06	7.7747e-06	417.64	146.31	124.26	42.365	4.3475e-06	52.414	0.00029204	0.00028331	7.807e-05	1308.9	3.0747e-06	3.0923e-06	1342.7	366.51	3.0946e-06	3.1014e-06	417.11	119.2	122.85	42.647	3.1372e-06	52.686	-8.515	133.535	22.034	-2.265	87.439	136.983	-2.219	2.717	10.641	125.480	1.866	8.601	6.500	11.376	25.847	10.555	-8191	255	
1953.332	1	1	0	0	0.072685	0.037676	0.15839	0.21521	0.10699	0.27361	0.27008	0.25339	0.12731	0.22905	0.29196	0.17095	0.15604	0.37171	0.17217	0.1432	-1.5646	-2.1667	-2.325	-1.9271	-2.2375	-2.2792	-2.1583	-2.5708	-1.9562	-2.0854	-2.4146	-1.8687	-2.3208	-2.1792	-1.9562	-2.5187	248.485	227.121	188.958	306.513	258.189	110.420	219.310	226.671	288.731	115.429	291.004	325.310	24.144	263.440	158.302	233.108	0.0007496	0.00053839	3.3665e-05	1324.2	3.0157e-06	3.9497e-06	1338.5	364.41	7.1515e-06	4.4829e-06	416.85	146.53	123.61	42.3	3.1109e-06	52.487	0.00029416	0.00028518	8.0515e-05	1307.8	3.1043e-06	3.1304e-06	1342.9	366.28	3.1221e-06	3.1162e-06	417.03	120.3	122.44	42.653	3.1294e-06	52.82	3.205	50.403	46.976	-2.095	189.510	83.481	-2.132	2.490	117.654	89.106	2.039	8.029	6.497	11.180	105.247	10.570	-8191	255	
1953.428	1	1	0	0	0.18006	0.11279	0.11264	0.2472	0.23107	0.21879	0.26509	0.18348	0.1778	0.17065	0.36477	0.18673	0.14166	0.26979	0.18138	0.061063	-1.5042	-1.9771	-2.1604	-2.0958	-2.2542	-2.3625	-1.9208	-2.5542	-1.9188	-2.0792	-2.5646	-1.8125	-2.1208	-2.1021	-1.9	-2.4375	12.446	332.385	260.628	150.736	41.069	161.648	267.001	325.714	191.661	97.696	-7.404	137.498	318.722	331.134	266.241	113.775	0.00063377	0.00021952	0.00010673	1329.5	4.5355e-06	3.5031e-06	1338	363.43	3.3567e-06	6.6609e-06	416.11	149.57	122.87	42.324	5.6569e-06	52.626	0.00029912	0.00028482	7.9746e-05	1312.8	3.1442e-06	3.0906e-06	1344.8	366.29	3.1179e-06	3.1077e-06	417.35	119.2	122.34	42.728	3.126e-06	52.716	-12.373	114.001	43.248	-2.176	132.665	102.935	-2.122	2.599	92.328	113.800	2.028	7.037	6.790	11.181	143.013	10.407	-8191	255	
1953.525	1	1	0	0	0.24036	0.20305	0.050905	0.098756	0.14768	0.12285	0.15503	0.38475	0.11559	0.26667	0.061422	0.12239	0.051315	0.183	0.16635	0.17869	-1.4562	-1.8646	-2.3354	-1.9083	-2.2792	-2.1458	-2.0167	-2.5	-2.2542	-2.0438	-2.5083	-1.8542	-2.3083	-2.2417	-1.9333	-2.4229	13.373	166.218	204.251	50.241	-0.910	226.156	301.618	237.512	97.168	310.124	249.944	202.340	18.957	340.887	223.086	238.447	0.00076464	0.00035169	0.00013555	1324.9	5.6235e-06	9.6204e-06	1341	363.38	3.383e-06	6.1135e-06	418.23	146.53	122.94	42.238	3.6932e-06	52.561	0.00029453	0.00027994	7.9233e-05	1310	3.1368e-06	3.098e-06	1345.5	366.07	3.1307e-06	3.1361e-06	417.88	119.31	122.46	42.664	3.1329e-06	52.8	-0.114	54.422	53.477	-1.895	86.689	96.374	-2.012	2.544	-2.368	107.958	2.207	8.441	7.150	11.483	63.860	10.433	-8191	255	
1953.645	1	1	0	0	0.24717	0.24387	0.12013	0.22474	0.035963	0.069689	0.40648	0.29139	0.1183	0.054851	0.28846	0.25515	0.076715	0.13009	0.24603	0.12139	-1.6521	-1.8813	-2.4333	-1.9062	-2.075	-2.3438	-2.2042	-2.55	-2.25	-2.0208	-2.6813	-1.9833	-2.1896	-2.2521	-1.7687	-2.4083	49.784	276.326	72.021	98.715	188.227	86.478	249.927	336.779	268.246	33.202	41.572	-11.022	31.421	291.969	15.214	331.179	0.00070491	0.00054744	7.6437e-05	1333.4	4.5348e-06	8.0414e-06	1342.9	363.1	2.8222e-06	3.6041e-07	417.03	146.22	122.66	42.049	4.4348e-06	52.107	0.00029075	0.00028332	7.8986e-05	1311.8	3.1379e-06	3.1205e-06	1344	365.59	3.1459e-06	3.1284e-06	416.47	118.67	121.74	42.498	3.146e-06	52.477	4.039	54.796	104.737	-1.738	99.973	96.921	-2.050	2.725	55.523	122.914	1.930	7.813	6.700	11.293	117.726	10.353	-8191	255	
1953.741	1	1	0	0	0.29027	0.11168	0.1085	0.33725	0.16318	0.1584	0.24622	0.098249	0.085189	0.139	0.23958	0.073802	0.30532	0.2209	0.32974	0.13293	-1.5458	-1.8167	-2.2604	-1.9937	-2.125	-2.2354	-2.1479	-2.3667	-2.2583	-1.9958	-2.5646	-1.9625	-1.9792	-2.3583	-1.9438	-2.475	234.754	286.631	83.737	305.665	-6.100	25.945	309.367	205.571	101.188	265.926	232.142	67.468	280.805	193.258	188.537	329.421	0.00076278	0.00025355	9.8342e-05	1325.7	5.1685e-06	4.9552e-06	1343.6	363.23	5.5186e-06	9.2383e-06	416.45	149.31	122.3	41.978	4.2517e-06	52.408	0.00029576	0.00028527	7.8811e-05	1305.6	3.1166e-06	3.1526e-06	1342	365.71	3.1387e-06	3.1001e-06	416.31	119.75	121.98	42.458	3.1738e-06	52.622	16.611	69.078	54.752	-2.531	137.840	138.291	-2.166	2.746	-1.529	127.022	2.113	8.568	6.866	11.495	143.202	10.598	-8191	255	
1953.813	1	1	0	0	0.19768	0.37498	0.046344	0.21851	0.42837	0.048747	0.10328	0.16213	0.15254	0.3502	0.17375	0.068617	0.048837	0.066602	0.072523	0.26589	-1.7812	-1.8729	-2.2562	-2.2646	-2.1208	-2.3354	-2.0979	-2.4396	-2.4521	-1.9271	-2.4125	-2.0771	-2.1583	-2.4562	-1.9562	-2.2667	199.528	105.961	309.101	49.979	328.956	291.058	281.655	59.493	210.912	290.195	326.709	175.903	17.400	114.784	-3.122	6.137	0.00062399	0.00046405	0.00013712	1321	2.0773e-06	6.858e-06	1333.1	363	7.2067e-06	4.8457e-06	415.67	149.23	122.84	41.836	3.5889e-06	51.973	0.00029615	0.00028895	7.9608e-05	1306.1	3.1478e-06	3.1512e-06	1341	365.27	3.1505e-06	3.1426e-06	416.21	119.46	121.78	42.395	3.1658e-06	52.435	1.390	78.204	76.231	-1.966	115.182	146.803	-2.095	2.518	50.133	129.229	2.135	8.007	6.727	11.498	118.314	10.671	-8191	255	
1953.909	1	1	0	0	0.097365	0.18438	0.12319	0.40361	0.11505	0.20146	0.20292	0.03072	0.19681	0.1502	0.16001	0.14633	0.24728	0.22599	0.22967	0.31285	-1.625	-1.9604	-2.2271	-2.1375	-1.8958	-2.3187	-2.1625	-2.4354	-2.4104	-1.8	-2.4771	-2.2396	-2.0104	-2.5333	-1.9937	-2.2479	325.941	274.107	205.557	290.921	171.116	68.499	200.255	154.970	294.618	58.380	335.356	272.599	14.140	316.220	29.535	27.730	0.00060882	0.0003706	0.00015284	1319.3	3.7411e-06	6.843e-06	1333.7	362.46	6.7389e-06	5.0659e-06	415.66	147.54	122.43	41.899	5.6673e-06	52.255	0.00029409	0.00028825	7.9645e-05	1308.5	3.1881e-06	3.1467e-06	1339.1	365.02	3.2132e-06	3.1533e-06	416.38	119.47	122.02	42.376	3.1636e-06	52.579	1.492	-8.325	64.026	-2.288	56.524	86.627	-2.248	2.650	93.510	47.926	1.990	7.646	6.899	11.232	116.821	10.509	-8191	255	
1954.030	1	1	0	0	0.13239	0.37409	0.041066	0.27276	0.061687	0.19918	0.1689	0.24178	0.14499	0.10255	0.17994	0.24004	0.13182	0.32496	0.19917	0.28347	-1.9479	-1.7479	-2.2792	-2.1979	-1.9271	-2.3187	-2.2167	-2.1875	-2.2917	-1.7854	-2.2729	-2.25	-1.8062	-2.3312	-1.9375	-2.1042	257.926	55.549	94.637	0.504	124.811	123.652	223.448	293.399	17.415	257.221	251.324	336.916	19.622	295.546	92.843	315.509	0.00082432	0.00035291	7.9783e-05	1326.4	2.589e-06	6.995e-06	1331.5	363.12	1.048e-05	3.1257e-06	416.74	146.99	123.44	42.431	6.3537e-06	52.351	0.00029677	0.0002895	7.9479e-05	1308.4	3.1497e-06	3.1488e-06	1340.8	365.55	3.1579e-06	3.1444e-06	417.09	119.34	122.31	42.666	3.1663e-06	52.741	-3.123	13.313	88.412	-2.136	171.128	156.344	-2.234	2.644	62.729	90.396	2.000	8.244	6.838	11.474	106.517	10.546	-8191	255	
1954.126	1	1	0	0	0.21255	0.087973	0.14966	0.15168	0.098618	0.22342	0.33455	0.17125	0.080786	0.11293	0.18889	0.17544	0.16413	0.045213	0.091004	0.21916	-1.8583	-1.9125	-2.1	-2.1792	-1.9354	-2.2438	-2.2417	-2.3146	-2.4813	-2.1604	-2.1271	-2.0854	-1.9146	-2.2875	-1.9792	-2.0396	229.677	81.064	320.331	43.727	335.497	114.279	289.130	224.300	256.147	279.523	25.374	327.954	317.966	325.851	170.826	331.942	0.00060921	0.00078063	0.00014768	1327.8	6.2433e-06	3.9428e-06	1339.1	364.58	7.3282e-06	7.6859e-06	416.91	146.13	123.34	42.107	2.6524e-06	52.325	0.00029139	0.00028506	7.8648e-05	1308.2	3.1647e-06	3.0904e-06	1343.9	366.43	3.1282e-06	3.1059e-06	417.37	119.18	122.51	42.652	3.1652e-06	52.667	3.075	35.128	39.188	-2.225	116.960	125.417	-2.096	2.573	148.302	107.416	2.196	7.932	7.120	11.589	115.155	10.432	-8191	255	
1954.222	1	1	0	0	0.24514	0.16822	0.15417	0.1762	0.11629	0.1782	0.2017	0.51474	0.12361	0.18312	0.047103	0.12307	0.10421	0.13412	0.23501	0.023892	-1.9167	-1.9229	-2.0229	-2.3521	-1.7646	-2.3667	-2.425	-2.0104	-2.3812	-2.0687	-2.3917	-2.3937	-1.9542	-2.3438	-2.2354	-1.9833	267.082	183.499	-11.602	250.420	241.468	254.067	246.180	295.922	307.592	206.960	94.797	188.591	124.930	2.037	203.824	319.963	0.00077076	0.00013408	8.598e-05	1322.9	2.9648e-06	5.3874e-06	1337.5	363.55	3.2423e-06	7.5614e-06	415.81	147.21	122.92	42.287	6.2946e-06	52.216	0.00029093	0.00028475	7.938e-05	1306.5	3.1173e-06	3.1066e-06	1345	365.68	3.1365e-06	3.1118e-06	416.16	119.34	122.2	42.571	3.1503e-06	52.569	7.414	308.446	71.150	-2.226	67.297	147.862	-2.271	2.538	320.734	89.552	1.948	8.935	6.564	11.435	93.823	10.549	-8191	255	
1954.341	1	1	0	0	0.2981	0.14133	0.062576	0.019346	0.19614	0.022004	0.33016	0.1882	0.25429	0.19507	0.099203	0.1337	0.19653	0.028188	0.23809	0.16831	-1.8583	-2.0104	-2.2083	-2.1146	-1.8646	-2.225	-2.3958	-2.0896	-2.4562	-2.3021	-2.2313	-2.3	-2.075	-2.3	-2.0646	-1.9604	246.668	87.249	0.697	261.947	62.594	251.500	304.167	262.497	-9.679	80.869	146.316	162.666	-3.367	142.955	176.577	283.900	0.00073514	0.00089581	0.00010224	1323.4	3.4182e-06	8.8808e-06	1337.7	361.88	4.9833e-06	2.1884e-06	414.42	149.56	122.53	41.911	2.3789e-06	52.35	0.00029322	0.00028898	7.8955e-05	1309.6	3.1539e-06	3.1191e-06	1342.7	365.06	3.1427e-06	3.125e-06	416.41	119.78	121.91	42.426	3.1204e-06	52.464	3.246	42.168	93.978	-1.924	151.397	118.074	-2.210	2.728	77.566	152.287	2.235	8.354	6.818	11.348	120.817	10.575	-8191	255	
1954.437	1	1	0	0	0.13337	0.22092	0.26787	0.048425	0.165	0.11366	0.34538	0.077785	0.22223	0.043687	0.17884	0.12342	0.24799	0.12876	0.11238	0.13225	-1.9458	-2.0938	-1.9917	-2.2438	-2.1042	-2.1396	-2.5771	-2.1229	-2.1604	-2.1958	-1.9958	-2.2833	-1.9771	-2.2354	-2.3	-2.1021	206.137	57.210	323.575	270.231	95.380	95.855	299.181	312.456	289.948	328.320	331.380	175.753	336.422	237.056	60.659	310.994	0.00065539	0.00056058	0.0001374	1319.5	2.4602e-06	5.4471e-06	1335	362.64	4.3398e-06	7.6935e-06	416.31	146.46	122.07	41.972	3.5176e-06	52.046	0.00029715	0.00028741	7.955e-05	1306.1	3.1083e-06	3.0714e-06	1340.2	365.08	3.1146e-06	3.0912e-06	415.84	119.02	121.5	42.287	3.1546e-06	52.389	2.260	87.640	17.669	-2.114	91.560	116.594	-2.113	2.821	76.152	126.098	2.031	8.658	6.857	11.207	103.647	10.888	-8191	255	
1954.511	1	1	0	0	0.21815	0.23446	0.11778	0.37794	0.086991	0.34059	0.30132	0.26766	0.13876	0.27086	0.10831	0.15226	0.09677	0.28199	0.12568	0.25103	-1.7729	-2.25	-1.8188	-2.3458	-2.1063	-2.1333	-2.4542	-2.0958	-2.2875	-2.2042	-2.1146	-2.3583	-2.1437	-1.9396	-2.3083	-2.0396	299.222	279.671	6.121	315.586	16.628	311.168	245.041	235.518	32.412	65.609	245.011	162.534	-2.673	334.445	11.618	243.337	0.00082081	0.00059235	2.2501e-05	1320.4	2.4574e-06	7.6817e-06	1330.8	361.86	4.6286e-06	3.4003e-06	417.99	147.81	123.27	41.929	4.5052e-06	52.139	0.00029276	0.00028466	7.9104e-05	1305	3.0994e-06	3.0965e-06	1339.1	364.18	3.1137e-06	3.1198e-06	416.86	119.11	122.25	42.456	3.1168e-06	52.415	-3.193	43.434	56.498	-1.989	103.857	105.634	-2.194	2.682	65.358	102.554	2.140	7.946	6.861	11.320	161.851	10.423	-8191	255	
1954.629	1	1	0	0	0.13796	0.13891	0.21881	0.18652	0.12447	0.0976	0.12839	0.33816	0.34382	0.33612	0.12822	0.17017	0.30936	0.43164	0.21704	0.29207	-1.7479	-2.1688	-1.9188	-2.2042	-2.0312	-2.0542	-2.6521	-2.0375	-2.0812	-2.3	-2.1146	-2.2667	-2.1271	-2.0771	-2.2917	-1.9896	78.927	234.591	280.819	289.408	176.135	65.340	219.145	293.716	329.102	283.329	226.549	249.420	330.315	340.679	255.451	317.278	0.00071304	0.000411	0.000191	1323.3	2.1962e-06	4.3226e-06	1335	361.68	3.8539e-06	5.2255e-06	415.47	146.2	122.71	42.19	9.2672e-06	52.219	0.00029348	0.00028352	7.9137e-05	1306.8	3.0987e-06	3.0894e-06	1340.1	364.46	3.098e-06	3.0825e-06	416.24	118.31	121.95	42.476	3.088e-06	52.562	-1.584	50.315	38.422	-1.934	95.389	110.522	-2.035	2.666	92.799	144.191	2.101	8.156	6.868	11.495	124.366	10.402	-8191	255	
1954.726	1	1	0	0	0.28781	0.16757	0.18711	0.062398	0.13991	0.1331	0.27294	0.49118	0.089863	0.15118	0.17868	0.20746	0.24004	0.24668	0.039702	0.13469	-1.7062	-2.3063	-1.8292	-2.4458	-2.2667	-2.0833	-2.6813	-2.2646	-2.0458	-2.1646	-2.0458	-2.3333	-2.2687	-1.9583	-2.2479	-1.9854	224.915	227.282	49.706	301.315	90.761	332.330	327.967	283.413	296.809	266.635	274.387	91.813	339.324	321.479	79.599	268.844	0.00064127	0.00030635	0.00010231	1316.8	5.6689e-06	6.1818e-06	1333.3	362.11	1.5923e-06	3.8425e-06	417.37	151.11	124.03	42.282	4.0748e-06	52.428	0.0002892	0.00027741	7.8767e-05	1301.9	3.0213e-06	3.0647e-06	1339.5	365.38	3.0982e-06	3.0813e-06	417.02	119.41	122.38	42.579	3.0685e-06	52.739	9.025	-6.518	34.606	-1.883	150.857	144.667	-2.007	2.762	146.772	192.698	2.016	7.434	7.010	11.544	97.207	10.587	-8191	255	
1954.822	1	1	0	0	0.14407	0.24011	0.1116	0.29709	0.052852	0.12476	0.18382	0.37688	0.076434	0.1732	0.2085	0.17068	0.25929	0.13786	0.2386	0.15063	-1.5958	-2.15	-1.7625	-2.1792	-2.3438	-1.9042	-2.5125	-1.9312	-2.1354	-2.4396	-2.0396	-2.0958	-2.1813	-2.0083	-2.2583	-2.0917	89.447	333.181	80.896	320.149	320.949	312.097	210.421	308.942	190.330	236.464	326.994	13.136	220.649	309.022	220.263	5.924	0.000727	0.00066947	2.9263e-05	1322.6	3.5139e-06	7.4353e-06	1339.5	362.89	3.6492e-06	4.9877e-06	416.82	147.92	123.76	42.39	2.8166e-06	52.453	0.00029029	0.00027967	7.8646e-05	1305.9	3.0431e-06	3.0268e-06	1341	366.08	3.0569e-06	3.038e-06	417.01	118.86	122.45	42.746	3.0155e-06	52.79	-6.729	117.505	58.004	-1.997	163.358	97.480	-2.085	2.699	52.409	104.627	1.845	8.421	7.065	11.435	17.641	10.251	-8191	255	
1954.942	1	1	0	0	0.12241	0.2622	0.064276	0.14292	0.19007	0.17108	0.094983	0.18207	0.32563	0.30263	0.21664	0.055118	0.12539	0.13334	0.087445	0.12323	-1.5812	-2.2542	-1.9625	-2.2833	-2.1042	-1.7729	-2.3625	-2.1729	-2.1	-2.2646	-1.9729	-2.0021	-2.2896	-1.7604	-2.2146	-2.0979	210.722	330.542	199.118	16.764	231.132	258.206	201.273	260.544	2.192	81.583	311.511	308.952	246.990	252.576	186.783	195.080	0.00064447	0.00016694	0.0001511	1321.9	2.1196e-06	4.8161e-06	1334.9	364.43	3.3918e-06	3.9944e-06	416.8	145.5	123.53	42.455	6.3414e-06	52.527	0.00028563	0.00027471	7.6538e-05	1308.2	3.0254e-06	2.9901e-06	1339.2	366.34	2.9866e-06	2.9952e-06	417.28	118.52	122.48	42.796	2.9763e-06	52.844	7.271	147.833	70.167	-2.145	54.318	138.918	-2.100	2.595	323.301	179.654	2.192	7.915	6.531	11.262	76.924	10.505	-8191	255	
1955.038	1	1	0	0	0.19624	0.048019	0.13476	0.30031	0.046034	0.14215	0.17568	0.39002	0.055159	0.20517	0.20469	0.12065	0.17631	0.089162	0.11662	0.051909	-1.1938	-2.3583	-1.9167	-2.0667	-2.2583	-1.8729	-2.4542	-2.2229	-1.9417	-2.1896	-2.1146	-2.0729	-2.3583	-1.9646	-2.1167	-2.3	259.823	293.752	117.914	208.191	57.587	38.103	301.644	286.223	224.381	325.386	295.708	135.797	277.133	83.728	53.963	306.843	0.00077087	0.0004396	2.5228e-05	1322.1	3.304e-06	6.1643e-06	1336.8	362.76	3.5181e-06	5.7053e-06	417.62	146.88	123.55	42.303	8.638e-06	52.66	0.00028131	0.00027227	7.5639e-05	1304.8	3.0226e-06	3.0273e-06	1341.5	365.58	3.0007e-06	2.9642e-06	417.05	118.22	122.55	42.731	3.0114e-06	52.783	1.759	94.066	31.406	-2.048	123.433	116.053	-2.080	2.654	1.355	106.003	2.036	9.130	7.032	11.301	126.209	10.640	-8191	255	
1955.110	1	1	0	0	0.050199	0.21628	0.1997	0.24985	0.27821	0.042	0.23898	0.13207	0.040802	0.13259	0.044933	0.14855	0.17082	0.28293	0.087784	0.20163	-1.4771	-2.2021	-1.9271	-2.0187	-2.3521	-1.9	-2.4458	-2.3854	-1.7896	-2.2562	-2.2146	-2.0354	-2.1937	-2.0667	-2.0771	-2.2	148.263	156.488	206.076	268.086	273.293	48.151	264.424	253.718	249.206	53.065	274.839	278.306	320.884	0.855	320.593	278.954	0.00072499	0.00041913	6.3409e-05	1326.7	3.8531e-06	1.1158e-05	1336.5	364.15	5.301e-06	3.9776e-06	415.88	147.16	123.5	42.373	9.0129e-06	52.7	0.00028291	0.00027523	7.7026e-05	1306.5	2.9875e-06	2.9885e-06	1338.5	365.35	3.0144e-06	3.0247e-06	416.42	118.69	122.36	42.735	3.0041e-06	52.802	7.288	83.210	-14.470	-1.806	201.002	151.558	-2.359	2.752	113.954	147.345	2.012	8.330	6.924	11.544	94.208	10.564	-8191	255	
1955.206	1	1	0	0	0.17494	0.22536	0.15239	0.28333	0.22194	0.18371	0.51394	0.3255	0.047967	0.13557	0.074496	0.086843	0.15181	0.19476	0.053156	0.12407	-1.2271	-2.4125	-2.0979	-2.1063	-2.2333	-2.0583	-2.3417	-2.3375	-1.9813	-2.2479	-2.2167	-1.9521	-2.3958	-2.0563	-2.0792	-2.4146	168.860	321.293	66.976	336.977	58.149	89.110	311.793	307.405	269.843	342.475	241.207	50.460	30.613	327.517	104.435	156.923	0.00061802	0.00043237	0.000139	1323.5	5.2264e-06	2.2887e-06	1334.8	363.06	1.0655e-06	2.5271e-06	416.5	147.15	123.64	42.495	8.9741e-06	52.799	0.00028182	0.00027481	7.6048e-05	1305.5	2.9749e-06	2.9798e-06	1340.5	365.87	2.9727e-06	2.9273e-06	417.05	118.44	122.67	42.853	2.9751e-06	52.987	1.294	97.866	29.923	-2.061	119.801	4.449	-2.095	2.587	113.508	15.841	1.979	10.008	6.902	11.300	168.166	10.437	-8191	255	
#DATA ENDS
