BOXY.EXE: ISS Imagent and Oximeter Data Acquisition Program Version 0.80
Ascii Record File

#ACQ INFORMATION
2  Detector Channels 
16  External MUX Channels 
1  Auxiliary Channels 
5000  Waveform (CCF) Frequency (Hz)
1  Waveforms Skipped 
30  Waveforms Averaged 
1  Cycles Averaged 
16  Acquisitions per Waveform 
10.0806  Updata Rate (Hz) 

#FILE INFORMATION
TRUE -- External MUX Channel results are PARSED.
FALSE -- AC DC and Phase are NOT grouped.
TRUE -- Companion Program Settings File CREATED.
FALSE -- AC data not excluded
FALSE -- DC data not excluded
FALSE -- Phase data not excluded
FALSE -- Auxillary Chn. data not excluded
Tab delimiters

#CALIBRATION STATE
TRUE -- Waveform Calibration Values APPLIED.


#AUX CALIBRATION VALUES
Val Type	aux-1	

Term	1.0000e+00	
Factor	0.0000e+00	


#WF CALIBRATION VALUES
A = Detector Channel
Val Type	A-AC1	A-AC2	A-AC3	A-AC4	A-AC5	A-AC6	A-AC7	A-AC8	A-AC9	A-AC10	A-AC11	A-AC12	A-AC13	A-AC14	A-AC15	A-AC16	A-DC1	A-DC2	A-DC3	A-DC4	A-DC5	A-DC6	A-DC7	A-DC8	A-DC9	A-DC10	A-DC11	A-DC12	A-DC13	A-DC14	A-DC15	A-DC16	A-Ph1	A-Ph2	A-Ph3	A-Ph4	A-Ph5	A-Ph6	A-Ph7	A-Ph8	A-Ph9	A-Ph10	A-Ph11	A-Ph12	A-Ph13	A-Ph14	A-Ph15	A-Ph16	

Term	0.00000e+00	0.00000e+00	0.00000e+00	0.00000e+00	0.00000e+00	0.00000e+00	0.00000e+00	0.00000e+00	0.00000e+00	0.00000e+00	0.00000e+00	0.00000e+00	0.00000e+00	0.00000e+00	0.00000e+00	0.00000e+00	0.00000e+00	0.00000e+00	0.00000e+00	0.00000e+00	0.00000e+00	0.00000e+00	0.00000e+00	0.00000e+00	0.00000e+00	0.00000e+00	0.00000e+00	0.00000e+00	0.00000e+00	0.00000e+00	0.00000e+00	0.00000e+00	0.00000e+00	0.00000e+00	0.00000e+00	0.00000e+00	0.00000e+00	0.00000e+00	0.00000e+00	0.00000e+00	0.00000e+00	0.00000e+00	0.00000e+00	0.00000e+00	0.00000e+00	0.00000e+00	0.00000e+00	0.00000e+00	
Factor	1.00000e+00	1.00000e+00	1.00000e+00	1.00000e+00	1.00000e+00	1.00000e+00	1.00000e+00	1.00000e+00	1.00000e+00	1.00000e+00	1.00000e+00	1.00000e+00	1.00000e+00	1.00000e+00	1.00000e+00	1.00000e+00	1.00000e+00	1.00000e+00	1.00000e+00	1.00000e+00	1.00000e+00	1.00000e+00	1.00000e+00	1.00000e+00	1.00000e+00	1.00000e+00	1.00000e+00	1.00000e+00	1.00000e+00	1.00000e+00	1.00000e+00	1.00000e+00	X	X	X	X	X	X	X	X	X	X	X	X	X	X	X	X	

B = Detector Channel
Val Type	B-AC1	B-AC2	B-AC3	B-AC4	B-AC5	B-AC6	B-AC7	B-AC8	B-AC9	B-AC10	B-AC11	B-AC12	B-AC13	B-AC14	B-AC15	B-AC16	B-DC1	B-DC2	B-DC3	B-DC4	B-DC5	B-DC6	B-DC7	B-DC8	B-DC9	B-DC10	B-DC11	B-DC12	B-DC13	B-DC14	B-DC15	B-DC16	B-Ph1	B-Ph2	B-Ph3	B-Ph4	B-Ph5	B-Ph6	B-Ph7	B-Ph8	B-Ph9	B-Ph10	B-Ph11	B-Ph12	B-Ph13	B-Ph14	B-Ph15	B-Ph16	

Term	0.00000e+00	0.00000e+00	0.00000e+00	0.00000e+00	0.00000e+00	0.00000e+00	0.00000e+00	0.00000e+00	0.00000e+00	0.00000e+00	0.00000e+00	0.00000e+00	0.00000e+00	0.00000e+00	0.00000e+00	0.00000e+00	0.00000e+00	0.00000e+00	0.00000e+00	0.00000e+00	0.00000e+00	0.00000e+00	0.00000e+00	0.00000e+00	0.00000e+00	0.00000e+00	0.00000e+00	0.00000e+00	0.00000e+00	0.00000e+00	0.00000e+00	0.00000e+00	-1.16980e+02	-1.32328e+02	-1.32277e+02	-1.83910e+02	-6.67987e+01	-7.58324e+01	-1.56815e+02	-1.62015e+02	-8.26205e+01	-8.62239e+01	-1.70791e+02	-1.80255e+02	-1.84392e+02	-1.77318e+02	-1.01691e+02	-1.49554e+02	
Factor	1.69986e-05	1.12958e-04	2.83194e-05	4.49987e-01	9.58156e-07	1.11733e-06	1.61498e-01	4.84305e-02	9.82000e-07	9.25093e-07	8.83326e-02	3.31604e-01	3.19523e-02	8.98047e-03	1.16501e-06	1.28554e-02	6.59400e-07	6.75626e-07	1.87782e-07	2.03162e-01	7.38237e-09	7.40106e-09	7.42972e-02	2.38121e-02	7.39093e-09	7.40699e-09	4.08703e-02	8.77627e-02	1.50293e-02	4.30878e-03	7.39308e-09	5.90837e-03	X	X	X	X	X	X	X	X	X	X	X	X	X	X	X	X	



#DISTANCE SETTINGS
A = Detector Channel
A-1	A-2	A-3	A-4	A-5	A-6	A-7	A-8	A-9	A-10	A-11	A-12	A-13	A-14	A-15	A-16	

2.5000e+00	3.0000e+00	2.5000e+00	3.0000e+00	2.0000e+00	3.0000e+00	1.5000e+00	3.0000e+00	3.0000e+00	3.0000e+00	3.0000e+00	3.0000e+00	3.0000e+00	3.0000e+00	1.5000e+00	3.0000e+00	

B = Detector Channel
B-1	B-2	B-3	B-4	B-5	B-6	B-7	B-8	B-9	B-10	B-11	B-12	B-13	B-14	B-15	B-16	

1.0000e+01	1.0000e+01	1.0000e+01	1.4400e+00	1.0000e+01	1.0000e+01	1.5100e+00	1.9400e+00	1.0000e+01	1.0000e+01	1.9900e+00	2.4900e+00	2.4100e+00	2.9000e+00	1.0000e+01	2.9800e+00	




#DATA BEGINS
time	group	step	mark	flag	A-AC1	A-AC2	A-AC3	A-AC4	A-AC5	A-AC6	A-AC7	A-AC8	A-AC9	A-AC10	A-AC11	A-AC12	A-AC13	A-AC14	A-AC15	A-AC16	A-DC1	A-DC2	A-DC3	A-DC4	A-DC5	A-DC6	A-DC7	A-DC8	A-DC9	A-DC10	A-DC11	A-DC12	A-DC13	A-DC14	A-DC15	A-DC16	A-Ph1	A-Ph2	A-Ph3	A-Ph4	A-Ph5	A-Ph6	A-Ph7	A-Ph8	A-Ph9	A-Ph10	A-Ph11	A-Ph12	A-Ph13	A-Ph14	A-Ph15	A-Ph16	B-AC1	B-AC2	B-AC3	B-AC4	B-AC5	B-AC6	B-AC7	B-AC8	B-AC9	B-AC10	B-AC11	B-AC12	B-AC13	B-AC14	B-AC15	B-AC16	B-DC1	B-DC2	B-DC3	B-DC4	B-DC5	B-DC6	B-DC7	B-DC8	B-DC9	B-DC10	B-DC11	B-DC12	B-DC13	B-DC14	B-DC15	B-DC16	B-Ph1	B-Ph2	B-Ph3	B-Ph4	B-Ph5	B-Ph6	B-Ph7	B-Ph8	B-Ph9	B-Ph10	B-Ph11	B-Ph12	B-Ph13	B-Ph14	B-Ph15	B-Ph16	aux-1	digaux	

3145.214	1	1	0	512	0.030361	0.19712	0.14027	0.2141	0.12771	0.16256	0.11131	0.13703	0.12771	0.18238	0.23659	0.13079	0.21429	0.46701	0.08451	0.20804	-2.2875	-2.3021	-2.7292	-2.5896	-2.625	-2.9521	-2.4021	-2.55	-2.8042	-2.6021	-2.65	-2.5354	-2.3729	-2.9167	-2.4917	-2.7562	203.326	370.188	140.892	347.135	434.678	414.461	328.875	437.409	460.974	190.004	466.371	383.896	434.516	454.979	204.663	152.920	0.00078069	0.00032747	0.00014765	474.16	5.3834e-06	2.7133e-06	843.54	147.03	3.9931e-06	5.1265e-06	339.54	154.07	54.953	27.935	1.698e-06	81.69	0.00028937	0.00027522	7.7573e-05	494.84	3.0135e-06	3.0603e-06	828.63	147.62	3.0245e-06	3.0487e-06	327.9	114.3	55.768	27.504	3.0249e-06	77.308	202.914	226.266	256.144	148.589	324.688	276.551	148.258	153.972	325.200	315.267	153.277	155.799	159.094	163.825	242.404	161.826	-8191	255	
3145.310	1	1	0	0	0.33712	0.23504	0.18932	0.24981	0.083514	0.22671	0.045018	0.1412	0.14366	0.12496	0.11486	0.13131	0.10137	0.2639	0.16325	0.25024	-2.4271	-2.2375	-2.675	-2.6688	-2.3812	-2.7208	-2.625	-2.5375	-3.0125	-2.4208	-2.4958	-2.7125	-2.3083	-2.7625	-2.5896	-2.5854	482.764	482.073	174.809	403.041	278.687	359.853	392.536	465.264	278.796	291.015	152.491	263.235	489.999	481.360	421.150	430.176	0.00084714	0.00048751	4.9354e-05	474.65	5.6738e-07	5.446e-06	838.01	145.96	5.4983e-06	5.2804e-06	339.21	156.81	55.12	27.726	8.2728e-06	81.448	0.00029378	0.00027861	7.8195e-05	493.7	3.0537e-06	3.0505e-06	824.17	147.02	3.0716e-06	3.1073e-06	326.78	114.34	55.886	27.496	3.0462e-06	77.152	201.128	158.718	323.263	148.796	233.353	203.112	148.408	154.190	308.284	249.653	153.011	156.111	158.749	163.424	287.686	161.717	-8191	255	
3145.406	1	1	0	0	0.24999	0.10562	0.13913	0.16579	0.45883	0.17768	0.17347	0.056672	0.38402	0.38174	0.35531	0.15897	0.091545	0.18206	0.18066	0.13587	-2.2687	-2.2771	-2.3729	-2.625	-2.4854	-2.7333	-2.7562	-2.4021	-2.7687	-2.4396	-2.6833	-2.7354	-2.2333	-2.7896	-2.7	-2.3583	138.768	426.541	184.065	161.366	484.619	155.720	478.348	184.628	407.670	173.169	495.438	255.176	437.971	387.162	251.374	414.977	0.00085109	0.00058026	0.00013251	473.26	1.3277e-06	2.6743e-06	847.08	147.53	5.796e-06	3.3479e-06	340.02	154.17	54.923	27.8	8.1551e-06	81.786	0.00029257	0.00027892	7.7367e-05	494.58	3.0105e-06	3.0387e-06	828.36	148.04	3.0637e-06	3.0866e-06	328.12	114.4	55.8	27.472	3.0771e-06	77.205	197.279	157.286	268.685	148.863	289.225	446.844	148.072	154.166	262.396	404.710	153.041	155.660	158.977	163.583	255.163	161.881	-8191	255	
3145.502	1	1	0	0	0.15366	0.14835	0.29172	0.14814	0.12614	0.17285	0.25695	0.11194	0.16897	0.34189	0.16808	0.26153	0.212	0.18467	0.27975	0.25168	-2.3438	-2.4854	-2.4042	-2.8208	-2.4542	-2.7292	-2.7458	-2.4375	-2.7687	-2.4313	-2.4458	-2.7812	-2.275	-2.6417	-2.6437	-2.4562	396.449	450.367	195.893	254.844	252.281	369.240	372.107	450.165	452.045	292.755	317.565	175.551	438.516	403.066	440.824	489.176	0.00077485	0.00036025	5.514e-05	487.48	2.65e-06	2.2043e-06	851.08	147.86	5.8363e-06	8.6651e-07	340.92	154.26	55.265	27.723	4.9471e-06	81.196	0.00029512	0.00028007	7.7405e-05	500.62	3.062e-06	3.0967e-06	834.83	148.53	3.0984e-06	3.1163e-06	329	115.67	55.877	27.456	3.1106e-06	77.082	200.997	291.393	477.411	148.938	413.125	264.004	148.417	153.874	222.767	350.979	153.052	155.390	159.391	163.774	200.960	161.611	-8191	255	
3145.599	1	1	0	0	0.14532	0.16025	0.078936	0.10788	0.32124	0.041337	0.30471	0.21975	0.14624	0.27383	0.26957	0.28621	0.085641	0.23544	0.0505	0.24693	-2.2604	-2.5292	-2.3875	-3.0438	-2.3208	-2.5458	-2.8875	-2.2438	-2.7562	-2.5479	-2.55	-2.9083	-2.5021	-2.6229	-2.5375	-2.6083	412.674	242.093	395.456	367.311	328.410	486.297	414.302	406.292	483.643	315.886	405.160	304.922	215.059	471.952	256.669	462.108	0.00074482	0.00015024	0.00010435	480.18	4.6864e-06	4.7268e-06	849	147.28	4.3245e-06	2.465e-06	339.44	151.91	54.618	27.719	1.3209e-06	80.97	0.00029943	0.00028548	7.8967e-05	500.63	3.1194e-06	3.1011e-06	831.19	148.14	3.0869e-06	3.0975e-06	327.77	114.72	55.408	27.329	3.1114e-06	76.739	205.184	365.781	286.676	148.340	324.476	314.771	148.134	154.090	315.621	261.674	153.344	155.677	158.833	163.811	178.931	162.230	-8191	255	
3145.719	1	1	0	0	0.1327	0.17222	0.17573	0.15767	0.14389	0.2384	0.30995	0.11871	0.13286	0.21998	0.23589	0.12838	0.14067	0.13153	0.19368	0.14626	-2.2062	-2.5646	-2.4062	-2.7583	-2.4292	-2.5438	-2.9604	-2.225	-2.7458	-2.55	-2.4625	-2.7896	-2.5146	-2.6271	-2.7313	-2.6604	432.930	326.209	292.643	441.035	164.488	392.888	381.266	312.389	267.694	203.849	481.186	141.024	248.018	292.461	274.511	392.351	0.00072719	0.00020128	9.4679e-05	480.35	5.0779e-06	1.7045e-06	850.81	146.85	1.8227e-06	3.0115e-06	338.59	153.94	54.965	27.59	1.5046e-06	81.177	0.00029469	0.0002782	7.7833e-05	499.78	3.0504e-06	3.025e-06	833.78	147.72	3.025e-06	3.0705e-06	327.07	114.46	55.407	27.2	2.9919e-06	76.892	195.413	269.399	215.034	148.375	249.453	380.503	148.305	153.669	144.932	287.752	153.127	154.916	159.130	163.736	366.419	161.992	-8191	255	
3145.814	1	1	0	0	0.14827	0.33722	0.030466	0.15259	0.20777	0.10645	0.12457	0.28077	0.11643	0.21734	0.25842	0.10086	0.14286	0.077474	0.21074	0.26074	-2.2667	-2.6688	-2.325	-2.8937	-2.5396	-2.6104	-2.9208	-2.4542	-2.6833	-2.6625	-2.4271	-2.7646	-2.4354	-2.4604	-2.8417	-2.5187	230.383	377.227	387.870	173.523	438.973	381.358	391.292	438.284	446.560	493.301	384.018	434.753	453.015	353.739	219.503	484.776	0.000803	0.00031638	4.6878e-05	478.08	2.7479e-06	2.4105e-06	850.29	145.98	3.5341e-06	5.814e-06	342.02	154.38	55.651	27.834	4.3204e-06	81.679	0.00028613	0.00027266	7.6094e-05	494.99	2.9615e-06	3.0019e-06	832.05	147.4	2.9881e-06	2.9851e-06	328.05	113.98	55.721	27.466	3.0223e-06	77.279	199.239	322.492	142.762	148.928	484.664	376.308	148.435	153.906	209.130	238.496	153.018	155.632	159.301	163.823	176.327	161.786	-8191	255	
3145.910	1	1	0	0	0.22987	0.065468	0.12161	0.32753	0.10662	0.23462	0.091877	0.27341	0.13156	0.1419	0.38528	0.15954	0.15244	0.20316	0.22441	0.24983	-2.2438	-2.45	-2.3771	-2.7687	-2.4979	-2.3979	-2.9146	-2.4813	-2.5479	-2.7208	-2.4604	-2.7229	-2.6042	-2.525	-2.7188	-2.6375	479.006	262.751	145.364	362.089	259.210	221.811	327.695	490.138	276.165	467.978	460.009	324.540	374.582	462.352	494.169	402.308	0.00078978	0.00022614	7.0961e-05	478.37	5.2807e-06	4.8374e-06	851.05	146.4	2.7751e-06	3.2022e-06	339.04	153.05	55.2	27.986	4.4208e-06	81.941	0.00028959	0.0002757	7.6414e-05	496.35	2.9957e-06	2.9998e-06	829.28	146.74	2.981e-06	3.0108e-06	327.36	113.43	55.624	27.564	2.9754e-06	77.431	198.142	215.750	191.695	148.553	226.846	222.407	148.031	153.867	224.622	241.700	153.307	154.735	159.026	163.738	222.067	161.579	-8191	255	
3146.006	1	1	0	0	0.16956	0.1731	0.21081	0.17628	0.053268	0.10698	0.40632	0.039082	0.21551	0.057375	0.15775	0.14779	0.12821	0.11665	0.30562	0.21872	-1.9583	-2.6333	-2.2146	-2.7771	-2.4562	-2.4	-2.9542	-2.6021	-2.6396	-2.9021	-2.4125	-2.6146	-2.85	-2.375	-2.4792	-2.6729	400.518	263.514	140.619	398.400	324.485	473.190	433.024	476.429	413.307	458.684	152.600	230.419	389.183	154.688	475.419	474.067	0.00077123	0.00049415	4.6477e-05	471.58	3.6273e-06	3.0461e-06	840.48	146.06	4.6099e-06	4.8318e-06	339.76	156.59	55.449	27.868	3.3687e-06	81.276	0.00028072	0.00026904	7.4517e-05	488.86	2.9052e-06	2.9032e-06	824.62	146.09	2.863e-06	2.8642e-06	326.71	112.49	55.537	27.351	2.8925e-06	76.887	200.496	175.685	261.789	148.627	162.336	257.735	148.494	153.474	226.154	279.532	153.325	154.641	158.545	163.720	232.606	161.719	-8191	255	
3146.102	1	1	0	0	0.048194	0.15681	0.19963	0.22378	0.18487	0.058392	0.25079	0.028654	0.10532	0.026387	0.18426	0.12621	0.25337	0.016944	0.17597	0.23357	-2.0667	-2.6979	-2.4396	-2.4708	-2.6979	-2.2896	-2.8583	-2.4813	-2.5021	-2.7896	-2.3438	-2.7875	-2.6188	-2.3187	-2.8812	-2.7313	231.954	300.899	431.844	301.850	429.881	435.783	466.020	442.182	404.020	258.182	481.939	456.157	493.052	473.883	333.598	387.171	0.00079077	0.00030376	0.00011465	474.35	6.9089e-06	6.1444e-06	845.62	145.63	2.5125e-06	5.0026e-06	336.89	151.56	54.657	27.733	7.8106e-06	80.98	0.00028058	0.00026719	7.4523e-05	491.4	2.9515e-06	2.97e-06	824.48	146.19	2.9948e-06	3.0044e-06	325.38	113.19	55.456	27.421	3.0465e-06	76.819	203.375	491.539	321.037	148.764	301.577	287.519	148.475	153.977	328.181	266.161	153.213	156.922	158.837	163.993	212.753	161.739	-8191	255	
3146.198	1	1	0	0	0.22689	0.088012	0.096589	0.22789	0.24041	0.1082	0.093526	0.28792	0.30961	0.19654	0.27296	0.14454	0.24111	0.047763	0.36008	0.5277	-1.7146	-2.7687	-2.5	-2.4729	-2.7604	-2.3146	-2.7188	-2.4979	-2.1937	-2.8479	-2.6729	-2.6604	-2.7104	-2.1958	-2.625	-2.6042	223.694	489.839	410.149	363.961	210.771	490.906	141.706	379.288	476.915	261.231	456.414	436.498	434.394	414.520	349.645	422.315	0.00068673	0.00052652	3.2665e-05	475.13	4.5694e-06	3.2668e-06	836.86	144.92	1.5528e-06	8.6211e-07	336.95	154.8	54.81	27.751	7.4077e-06	81.223	0.00029315	0.00027806	7.8091e-05	491.86	3.092e-06	3.12e-06	820.44	146.09	3.1314e-06	3.1165e-06	325.36	114.98	55.677	27.47	3.1042e-06	76.933	203.304	232.398	279.014	149.032	306.562	222.120	148.392	153.767	245.348	212.954	153.341	154.743	159.167	163.820	280.523	161.647	-8191	255	
3146.294	1	1	0	0	0.22863	0.23529	0.2747	0.14245	0.13008	0.154	0.15506	0.061366	0.23823	0.35367	0.24986	0.10762	0.10916	0.12067	0.25968	0.16061	-1.7625	-2.6146	-2.3417	-2.4354	-2.6667	-2.2208	-2.8563	-2.6792	-2.2396	-2.55	-2.5938	-2.3083	-2.725	-2.2146	-2.5708	-2.7375	445.009	298.413	245.726	293.477	158.126	373.597	473.333	298.269	316.387	187.415	192.039	404.247	424.570	473.809	377.094	147.573	0.00079552	0.00033501	0.00015108	462.72	3.7296e-06	3.154e-06	833.16	143.4	7.7366e-06	4.8948e-06	336.45	153.43	55.182	27.37	3.6083e-06	80.598	0.00029894	0.0002825	7.7776e-05	489.61	3.0932e-06	3.1146e-06	818.44	145.21	3.0572e-06	3.055e-06	324.65	114.02	55.603	27.212	3.0252e-06	76.327	196.815	199.240	492.464	148.678	286.134	322.362	148.153	153.650	261.597	238.775	153.090	154.536	158.770	163.910	205.497	161.599	-8191	255	
3146.415	1	1	0	0	0.07919	0.1131	0.10292	0.18861	0.20597	0.1852	0.15416	0.3599	0.13119	0.18151	0.33587	0.075577	0.048579	0.1495	0.065077	0.34541	-1.7375	-2.6188	-2.5375	-2.2333	-2.8583	-2.5667	-2.5917	-2.6083	-2.3021	-2.9771	-2.5125	-2.4479	-2.7646	-2.3104	-2.4396	-2.8271	314.898	284.538	389.738	154.894	324.002	453.242	383.810	494.568	475.396	200.210	432.470	287.434	136.339	389.417	468.881	473.793	0.00071331	0.00016188	6.7076e-05	471.2	4.4004e-06	3.9024e-06	835.76	145.18	3.8445e-06	7.3398e-06	334.88	154.58	54.667	27.407	8.587e-06	80.125	0.00029032	0.00027587	7.7123e-05	490.79	3.0407e-06	3.019e-06	822.01	145.92	3.0074e-06	3.0395e-06	323.97	113.68	55.291	27.142	3.0107e-06	76.153	199.118	256.137	303.989	148.755	194.296	194.459	148.364	154.162	312.952	281.780	152.978	156.567	158.994	163.679	235.890	161.724	-8191	255	
3146.509	1	1	0	0	0.060279	0.052145	0.25189	0.084976	0.2209	0.24664	0.17703	0.1504	0.12053	0.28761	0.26013	0.11573	0.14973	0.19323	0.12853	0.055068	-1.6729	-2.7083	-2.5438	-2.2771	-2.6167	-2.6021	-2.725	-2.7354	-2.1937	-2.6208	-2.7354	-2.225	-2.7792	-2.4729	-2.5042	-2.7896	300.489	332.553	413.482	375.788	264.212	265.898	468.102	383.982	263.641	398.971	432.232	451.931	139.653	189.336	450.694	364.985	0.00081556	0.0007202	4.3327e-05	477.52	3.918e-06	5.5723e-06	845.97	145.29	4.5081e-06	3.0018e-06	337.23	156.13	54.499	27.386	5.0571e-06	80.584	0.00029	0.00027733	7.6923e-05	497.02	3.0474e-06	3.03e-06	826.64	146.32	3.0896e-06	3.1035e-06	324.67	115.03	55.317	27.161	3.0963e-06	76.228	205.052	209.800	188.598	148.980	295.888	282.203	148.513	154.219	288.843	240.241	153.279	156.900	159.186	163.900	166.022	161.718	-8191	255	
3146.606	1	1	0	0	0.1792	0.30016	0.1374	0.18657	0.11791	0.14768	0.13681	0.12832	0.29611	0.13753	0.097078	0.10129	0.15294	0.14389	0.21669	0.10314	-1.8563	-2.5646	-2.3979	-2.4333	-2.8937	-2.6396	-2.75	-2.6542	-2.2146	-2.6104	-2.7125	-2.4042	-2.5958	-2.6458	-2.4417	-3.0438	299.981	412.848	234.946	427.251	346.824	248.140	404.869	213.175	142.555	227.163	492.966	422.360	427.773	378.593	450.320	315.121	0.00078344	0.00013141	0.00014387	477.14	5.0537e-06	4.8442e-06	843.56	145.38	5.9725e-06	2.5988e-06	336.18	151.02	54.035	27.398	3.6342e-06	80.111	0.00029793	0.00027985	7.8949e-05	499.05	3.1173e-06	3.1106e-06	828.44	146.28	3.1087e-06	3.1211e-06	325.07	114.14	55.079	27.151	3.167e-06	76.065	196.627	277.242	251.952	148.718	262.435	293.473	148.732	153.821	272.251	276.037	153.383	155.593	158.872	163.466	204.917	161.886	-8191	255	
3146.679	1	1	0	0	0.21922	0.087015	0.2464	0.31708	0.24	0.1304	0.25164	0.23846	0.2316	0.1361	0.019763	0.18023	0.40541	0.17121	0.26991	0.14799	-2.0354	-2.6083	-2.6896	-2.4042	-2.5917	-2.5687	-2.4979	-2.8042	-2.5167	-2.5854	-2.775	-2.2104	-2.6354	-2.6792	-2.3646	-2.8	205.893	303.652	272.496	321.856	255.490	227.563	458.258	412.529	163.091	199.702	279.755	328.114	479.096	471.116	262.495	431.738	0.00077265	8.8165e-05	0.00010435	479.47	5.4191e-06	4.9477e-06	840.21	145.52	5.8928e-06	1.6721e-06	333.76	152.5	54.644	27.335	6.1423e-06	79.978	0.00030042	0.00028538	8.0324e-05	498.03	3.1122e-06	3.1718e-06	822.92	145.69	3.1399e-06	3.1259e-06	322.94	114.58	55.276	27.022	3.1091e-06	75.776	201.773	407.553	184.981	148.446	222.270	395.709	148.273	153.880	306.242	297.148	153.246	156.354	159.119	164.213	232.625	161.812	-8191	255	
3146.800	1	1	0	0	0.18693	0.21845	0.044258	0.34837	0.31212	0.19438	0.19374	0.06944	0.036997	0.085037	0.18659	0.081285	0.054844	0.098185	0.15497	0.22897	-1.8687	-2.5625	-2.6917	-2.3208	-2.5229	-2.5187	-2.45	-2.9583	-2.4958	-2.55	-2.7208	-2.3417	-2.8625	-2.7687	-2.2729	-2.9188	143.812	140.750	452.428	179.820	313.145	146.357	439.887	206.817	481.103	440.619	162.376	334.469	386.246	199.604	393.051	420.889	0.0006954	0.00038947	5.8329e-05	473.71	6.3632e-06	3.6066e-06	836.14	144.63	2.5209e-06	1.3007e-06	335.19	149.98	54.628	27.461	4.4306e-06	80.135	0.00029356	0.0002824	7.7572e-05	492.5	3.0474e-06	3.0599e-06	821.91	145.5	3.0269e-06	3.0385e-06	323.88	113.59	55.001	27.117	3.0472e-06	76.253	199.261	228.100	149.393	148.759	271.726	193.340	148.422	153.965	287.792	260.708	153.261	154.791	158.768	163.696	263.775	161.902	-8191	255	
3146.894	1	1	0	0	0.11251	0.21153	0.27227	0.21112	0.12962	0.098197	0.20296	0.21572	0.078506	0.25212	0.10817	0.15496	0.11764	0.20262	0.11873	0.37886	-2.1833	-2.4667	-2.65	-2.3042	-2.4583	-2.5583	-2.2729	-2.9104	-2.4354	-2.4646	-2.775	-2.3458	-2.6375	-2.7604	-2.3438	-2.8937	277.258	154.920	293.130	491.809	383.132	205.123	426.842	474.436	177.249	295.770	468.367	192.627	239.370	273.201	476.120	443.666	0.00076951	0.00013524	8.6193e-05	468.51	5.9702e-06	3.2083e-06	843.89	145.24	6.5598e-06	3.8438e-06	337.45	151.96	54.877	27.711	5.2922e-06	80.79	0.00028813	0.00027458	7.6007e-05	490.91	2.9848e-06	2.9792e-06	823.86	145.66	3.0109e-06	3.0234e-06	324.98	113.26	55.436	27.286	3.0411e-06	76.622	200.877	203.118	220.048	148.441	359.890	264.655	148.205	153.936	298.569	314.322	153.158	154.502	159.339	163.561	226.308	161.693	-8191	255	
3146.990	1	1	0	0	0.27658	0.10334	0.29841	0.072616	0.14464	0.24862	0.31912	0.07391	0.11629	0.13919	0.054125	0.081763	0.097666	0.053047	0.23765	0.31064	-1.9021	-2.1583	-2.5875	-2.4625	-2.575	-2.5604	-2.3875	-2.5896	-2.6542	-2.3187	-2.8729	-2.1188	-2.3563	-2.7479	-2.2167	-2.8396	163.503	219.596	200.722	486.630	403.138	391.801	446.686	243.718	387.921	366.295	140.118	247.608	281.924	195.089	163.785	443.745	0.00078747	0.00019679	2.5159e-05	471.37	4.2787e-06	7.4207e-06	839.07	146.16	6.3703e-06	1.4864e-06	336.29	154.32	54.575	27.481	7.6593e-06	79.736	0.00028936	0.00027314	7.6886e-05	491.42	3.031e-06	3.0394e-06	823.31	146.64	3.0092e-06	3.0355e-06	324.18	113.14	55.161	27.161	3.0566e-06	75.869	201.101	300.635	471.835	148.470	267.938	269.557	148.075	153.742	308.591	177.092	153.211	155.428	158.988	163.949	231.158	161.563	-8191	255	
3147.086	1	1	0	0	0.31721	0.032729	0.16937	0.2055	0.061533	0.22991	0.26498	0.31462	0.24295	0.13882	0.13575	0.036851	0.20368	0.12656	0.15256	0.28308	-2.2458	-2.1188	-2.7354	-2.4729	-2.6625	-2.6771	-2.4854	-2.6583	-2.6479	-2.4021	-2.9562	-2.3875	-2.4292	-2.7375	-2.2	-2.8063	342.266	460.255	330.184	464.675	168.023	244.142	407.395	456.058	183.516	339.574	287.618	300.357	454.006	203.291	144.623	404.564	0.00075098	0.00047409	0.00016959	473.78	5.2722e-06	4.7799e-06	832.53	143.94	2.2592e-06	2.7271e-06	332.25	151.45	54.515	27.456	8.2196e-06	79.773	0.00029538	0.00028041	7.7878e-05	491.26	3.0873e-06	3.108e-06	818.18	145.64	3.1217e-06	3.1241e-06	322.34	113.62	55.115	27.121	3.1318e-06	75.649	197.135	138.942	210.467	149.082	290.429	273.004	148.626	153.655	325.466	199.008	153.096	156.311	158.992	163.941	239.343	161.791	-8191	255	
3147.207	1	1	0	0	0.16959	0.047986	0.20854	0.16943	0.23395	0.27167	0.23313	0.29615	0.12591	0.2096	0.21462	0.094728	0.33657	0.22015	0.11735	0.34355	-2.1167	-2.2833	-2.6521	-2.3875	-2.3396	-2.7625	-2.6333	-2.5958	-2.7375	-2.4458	-2.8375	-2.4521	-2.2979	-2.7	-2.3625	-2.6792	444.582	222.781	169.483	492.094	361.607	318.070	431.434	453.322	244.693	393.654	463.049	444.533	282.542	188.408	402.525	483.007	0.00068014	0.00044796	0.00013531	472.27	3.1982e-06	7.4112e-07	833.42	144.95	3.1649e-06	3.9145e-06	334.35	149.66	54.49	27.512	1.2994e-06	79.806	0.00029871	0.00028465	7.8632e-05	493.76	3.0908e-06	3.0798e-06	819.23	146.45	3.1232e-06	3.1013e-06	323.61	113.47	55.27	27.16	3.0984e-06	75.598	199.623	221.580	264.403	148.311	430.742	295.668	148.590	154.001	324.940	276.942	153.673	157.160	159.617	163.633	301.860	161.643	-8191	255	
3147.303	1	1	0	0	0.26283	0.20915	0.13903	0.1115	0.1374	0.14304	0.34321	0.22762	0.014471	0.10047	0.18448	0.20149	0.10082	0.13969	0.35084	0.17271	-2.1104	-2.0583	-2.675	-2.5667	-2.4646	-2.5687	-2.3896	-2.5104	-2.5625	-2.0479	-2.5729	-2.6729	-2.4625	-2.8563	-2.3375	-2.525	194.098	154.623	141.396	336.574	433.327	259.650	478.145	318.859	269.936	400.046	426.784	146.048	342.266	487.517	350.462	492.296	0.00068779	0.00076231	0.00016649	479.12	4.1032e-06	6.1234e-06	840.47	145.2	3.1441e-06	7.2337e-06	334.52	152.03	54.523	27.5	4.1174e-06	79.799	0.00029472	0.00028594	7.9066e-05	496.61	3.1584e-06	3.1578e-06	822.48	146.78	3.1887e-06	3.2059e-06	324.47	114.66	55.529	27.249	3.2268e-06	75.628	201.960	170.326	275.917	148.186	276.596	196.444	148.613	154.134	165.073	252.241	152.913	155.944	159.219	163.639	157.064	161.423	-8191	255	
3147.399	1	1	0	0	0.098575	0.045874	0.19195	0.18244	0.20954	0.062792	0.35403	0.091098	0.071902	0.32509	0.22998	0.14782	0.19428	0.099388	0.11113	0.2004	-2.2542	-2.2083	-2.6063	-2.5604	-2.2542	-2.8146	-2.6104	-2.6708	-2.6583	-2.3104	-2.6875	-2.5167	-2.2375	-2.6958	-2.3812	-2.5875	388.588	444.213	158.875	211.788	319.263	292.948	480.221	379.145	202.111	190.862	176.662	257.164	385.503	493.531	394.310	422.618	0.00072573	0.00030811	1.3546e-05	475.57	2.1746e-06	6.1255e-06	836.22	144.94	5.2078e-06	2.9579e-06	333.13	151.05	54.203	27.409	4.615e-06	79.346	0.00030327	0.00029157	8.1264e-05	498.71	3.16e-06	3.146e-06	822.26	146.61	3.1668e-06	3.1667e-06	322.93	113.78	55.162	27.004	3.1234e-06	75.088	199.038	258.276	292.561	148.183	432.813	309.594	148.241	153.821	353.091	239.886	153.250	156.078	159.045	163.899	282.004	161.910	-8191	255	
3147.495	1	1	0	0	0.039462	0.11922	0.016643	0.14635	0.21612	0.17911	0.22731	0.062079	0.20406	0.084707	0.35621	0.11615	0.10735	0.1471	0.31863	0.086744	-2.3	-2.2333	-2.5125	-2.5271	-2.4562	-2.6729	-2.5375	-2.5646	-2.7833	-2.4875	-2.65	-2.6188	-2.4042	-2.7146	-2.3271	-2.4	300.730	177.381	415.029	235.922	288.599	232.789	445.210	301.117	337.887	427.431	179.614	247.131	230.470	423.390	193.440	422.455	0.00082593	0.00030492	9.7158e-05	478.13	1.2326e-06	6.0974e-06	846.72	147.35	7.0092e-06	4.2304e-06	334.57	151.42	54.558	27.151	7.1404e-06	79.167	0.0002982	0.00028493	7.911e-05	499.32	3.0889e-06	3.0897e-06	826.23	147.82	3.0916e-06	3.0959e-06	324.64	113.8	55.131	26.963	3.0612e-06	75.182	197.076	183.627	452.351	148.273	469.490	253.995	148.058	153.986	226.161	279.965	153.153	156.142	158.955	163.866	235.912	161.509	-8191	255	
3147.592	1	1	0	0	0.16205	0.24789	0.13615	0.24094	0.25666	0.16353	0.35633	0.059741	0.26858	0.23474	0.46225	0.17328	0.1982	0.042504	0.021517	0.21222	-2.2229	-2.4167	-2.5583	-2.7812	-2.2917	-2.6917	-2.7271	-2.4917	-2.8792	-2.3792	-2.4062	-2.8021	-2.3042	-2.7479	-2.5396	-2.2687	383.299	212.403	142.185	410.270	336.477	426.746	399.849	185.714	453.768	382.383	167.422	335.693	432.912	188.219	262.303	430.065	0.00076249	0.0005799	0.00019484	484.63	4.1146e-06	1.6576e-06	847.98	146.31	4.3959e-06	1.6426e-06	334.5	152.62	54.416	27.366	7.5569e-06	79.875	0.00029056	0.00027973	7.7785e-05	499.26	3.0415e-06	3.0464e-06	828.37	147.51	3.0485e-06	3.0238e-06	324.09	113.59	55.149	27.069	3.0454e-06	75.716	207.712	253.934	246.004	148.781	256.040	140.105	148.493	154.011	322.936	284.404	153.246	156.095	159.116	163.892	260.388	161.803	-8191	255	
3147.688	1	1	0	0	0.25439	0.11138	0.17028	0.2571	0.099527	0.25325	0.036386	0.19423	0.047886	0.22976	0.15199	0.26097	0.22561	0.23088	0.26899	0.094515	-2.2417	-2.5667	-2.2938	-2.7771	-2.3958	-2.675	-2.7646	-2.2854	-2.7438	-2.4854	-2.4083	-2.8271	-2.5271	-2.55	-2.55	-2.4646	260.148	457.710	408.783	475.885	472.146	374.401	347.063	430.778	276.721	419.142	265.196	316.143	483.200	153.047	352.177	290.444	0.00084108	0.00068503	0.00011854	479.03	4.2846e-06	3.2645e-06	847.49	146.88	3.2394e-06	5.9745e-06	336.24	151.06	54.387	27.602	5.8651e-06	80.052	0.0002911	0.000277	7.7276e-05	498.5	3.0466e-06	3.0361e-06	827.68	147.18	3.0187e-06	3.027e-06	324.22	112.76	55.168	27.149	2.9758e-06	75.737	196.665	241.290	217.190	149.284	340.512	373.298	148.631	153.840	204.498	214.388	153.541	155.340	159.587	163.471	270.056	161.886	-8191	255	
3147.807	1	1	0	0	0.229	0.17175	0.071656	0.14455	0.11877	0.31154	0.33203	0.19633	0.12387	0.23761	0.2277	0.043888	0.085772	0.10411	0.16852	0.21916	-2.2292	-2.4313	-2.6792	-2.7771	-2.225	-2.5479	-2.6458	-2.3	-2.6979	-2.5062	-2.4229	-2.725	-2.4229	-2.4771	-2.6042	-2.4604	209.806	220.060	458.744	193.840	419.207	161.750	480.794	182.580	182.970	241.489	491.364	201.176	261.623	329.403	299.428	437.485	0.00079486	0.00067338	0.00015596	481.42	1.2233e-06	5.5072e-06	840.51	146.44	6.9178e-06	3.4746e-06	334.5	151.98	54.52	27.564	7.7901e-06	80.035	0.00028336	0.00027131	7.4845e-05	494.52	2.9182e-06	2.9222e-06	822.78	146.94	2.9099e-06	2.9009e-06	323.39	111.77	54.971	27.128	2.9298e-06	75.657	197.179	278.246	241.658	148.739	273.880	296.120	148.501	153.650	280.087	137.758	153.460	155.406	159.291	163.682	249.843	161.407	-8191	255	
3147.903	1	1	0	0	0.25906	0.20373	0.17126	0.13354	0.018297	0.17618	0.091949	0.097635	0.11157	0.11482	0.16467	0.025897	0.2585	0.21639	0.25191	0.3543	-2.1083	-2.5167	-2.4042	-2.7771	-2.4979	-2.3375	-2.9688	-2.3063	-2.6125	-2.7125	-2.4375	-2.575	-2.5563	-2.5	-2.6188	-2.4854	242.563	299.459	304.626	157.418	365.635	257.628	377.369	482.671	182.213	340.713	198.858	484.060	405.723	382.125	335.880	421.279	0.00071473	0.0001653	0.00011326	478.59	4.4644e-06	5.0542e-06	838.87	145.31	3.7978e-06	2.1044e-06	333.2	153.59	54.743	27.414	5.8542e-06	79.361	0.000283	0.00026718	7.4504e-05	491.54	2.94e-06	2.9556e-06	820.7	146.36	2.9497e-06	2.9676e-06	322.87	112.68	55.113	27.201	3.0478e-06	75.392	201.236	214.722	405.401	148.721	366.076	351.327	148.333	154.119	329.588	483.391	153.352	156.540	158.956	163.986	323.678	161.990	-8191	255	
3147.974	1	1	0	0	0.13564	0.032306	0.11526	0.21166	0.1369	0.19261	0.15116	0.21085	0.16401	0.20097	0.23791	0.081071	0.20064	0.18178	0.014253	0.069665	-1.9875	-2.4771	-2.2542	-2.7812	-2.3958	-2.3563	-2.8708	-2.2687	-2.5917	-2.5979	-2.4479	-2.5938	-2.4146	-2.4104	-2.725	-2.4375	209.748	244.508	348.089	144.513	308.773	471.644	479.815	466.926	161.499	421.547	455.429	490.015	140.910	469.921	361.453	482.120	0.00072438	0.00062452	6.2481e-05	478.9	3.8114e-06	6.2648e-06	841.13	145.48	2.3183e-06	1.8956e-06	332.92	152.28	54.138	27.516	1.1422e-05	79.568	0.00029505	0.00027703	7.8648e-05	496.96	3.0663e-06	3.047e-06	822.47	146.56	3.064e-06	3.0455e-06	322.75	113.13	55.056	27.198	3.0467e-06	75.517	197.590	239.993	216.784	148.382	140.389	314.290	148.352	154.068	299.867	349.723	153.216	156.044	159.222	163.821	256.124	161.934	-8191	255	
3148.071	1	1	0	0	0.14429	0.18247	0.15572	0.17231	0.2644	0.077995	0.16694	0.33258	0.094047	0.32029	0.29384	0.12784	0.11362	0.19584	0.22097	0.31897	-1.8771	-2.7229	-2.2292	-2.6875	-2.4604	-2.5208	-2.8854	-2.3229	-2.5312	-2.7188	-2.4771	-2.7458	-2.6021	-2.5042	-2.5563	-2.6354	397.428	346.868	486.144	340.040	453.240	383.931	393.569	455.819	305.942	151.375	417.607	482.511	261.312	336.869	260.027	395.999	0.0007249	0.00063457	9.9967e-05	476.5	3.0438e-06	4.3022e-06	837.15	145.28	5.1169e-06	1.8691e-06	335.44	151.9	54.308	27.3	6.7747e-06	79.351	0.00029274	0.00028044	7.7594e-05	496.22	3.0215e-06	3.0458e-06	821.59	146.61	3.0485e-06	3.053e-06	322.54	112.71	54.901	27.048	3.0268e-06	75.032	199.054	166.626	495.090	148.347	270.877	243.064	148.321	154.028	275.058	221.357	153.210	154.987	159.234	164.003	324.631	162.016	-8191	255	
3148.191	1	1	0	0	0.090088	0.13378	0.11265	0.10639	0.33686	0.24505	0.29762	0.25615	0.18257	0.080558	0.059383	0.25691	0.28843	0.094638	0.32944	0.22972	-2.05	-2.625	-2.1729	-2.7667	-2.7417	-2.4208	-2.7167	-2.3563	-2.3375	-2.7687	-2.3625	-2.6333	-2.5375	-2.2812	-2.6562	-2.5729	297.513	150.587	270.289	449.257	436.111	405.029	467.962	177.392	322.606	428.987	293.987	238.411	453.037	327.074	136.763	336.811	0.00087885	0.00050101	5.2091e-05	478.77	4.9396e-06	3.1312e-06	833.18	145.33	3.4696e-06	3.8679e-06	332.1	148.17	54.483	27.445	4.2725e-06	79.077	0.00029013	0.00028024	7.7653e-05	496.69	3.0836e-06	3.0807e-06	819.16	146.02	3.0786e-06	3.0594e-06	321.44	113.43	55.012	27.104	3.1005e-06	74.857	198.762	260.043	373.574	148.507	236.065	314.849	148.336	153.569	262.804	323.389	153.171	155.666	159.350	163.788	290.410	161.799	-8191	255	
3148.287	1	1	0	0	0.29703	0.046902	0.059505	0.29011	0.22893	0.21612	0.095939	0.14938	0.085987	0.21541	0.16182	0.12482	0.22879	0.15409	0.088299	0.34881	-1.9229	-2.6979	-2.3583	-2.7229	-2.4083	-2.45	-2.8854	-2.4771	-2.3396	-2.9229	-2.4938	-2.4854	-2.7896	-2.2958	-2.7146	-2.6396	429.142	345.152	389.711	217.825	479.102	201.590	361.278	138.060	464.081	420.257	453.430	250.111	158.008	173.210	295.962	415.745	0.00079141	0.00039548	7.9126e-05	480.2	4.6323e-06	5.4525e-06	840.6	145.88	4.9003e-06	2.4765e-06	333.04	148.1	53.785	27.527	5.0038e-06	79.158	0.00029597	0.00028373	7.8299e-05	498.58	3.1263e-06	3.0885e-06	822.37	146.79	3.0964e-06	3.09e-06	322.7	113.16	55.011	27.189	3.1485e-06	75.064	200.240	204.891	220.777	148.968	297.102	212.828	148.224	153.845	219.518	163.180	153.549	156.138	159.722	163.888	302.233	161.837	-8191	255	
3148.383	1	1	0	0	0.12524	0.14262	0.12352	0.25109	0.1227	0.13289	0.22817	0.29019	0.30542	0.12931	0.12459	0.14358	0.067228	0.17992	0.091824	0.24043	-1.7583	-2.7542	-2.3521	-2.425	-2.6937	-2.2875	-2.9333	-2.3917	-2.0979	-2.7396	-2.4583	-2.4896	-2.7208	-2.1708	-2.7188	-2.8438	258.760	254.280	411.947	197.707	414.698	270.353	376.784	447.590	480.933	435.069	346.100	179.139	481.643	307.702	162.643	404.807	0.00069784	0.00020478	8.9221e-05	481.51	4.6256e-06	5.8512e-06	844.86	147.37	4.7641e-06	2.8507e-06	335.46	151.83	54.102	27.208	4.8616e-06	78.944	0.00029935	0.00028345	7.8475e-05	503.16	3.0604e-06	3.0937e-06	827.76	147.84	3.0707e-06	3.0612e-06	324.13	113.55	54.777	26.97	3.0704e-06	74.871	194.756	494.128	296.603	148.845	237.317	329.165	148.668	153.895	234.493	303.373	153.337	155.482	159.330	163.946	243.425	161.933	-8191	255	
3148.480	1	1	0	0	0.2125	0.11941	0.16807	0.26228	0.19738	0.25654	0.087287	0.17739	0.43119	0.21941	0.077325	0.1435	0.15021	0.16847	0.084288	0.19292	-1.8813	-2.7687	-2.4146	-2.3812	-2.6083	-2.2521	-2.7396	-2.7	-2.1937	-2.8229	-2.5417	-2.4083	-2.8167	-2.3417	-2.5687	-2.9375	207.841	437.222	325.257	203.950	172.689	150.069	425.152	287.776	181.509	301.067	406.680	352.628	322.321	473.786	284.400	372.014	0.00075045	0.00029737	6.9219e-05	482.98	5.2531e-06	2.6022e-06	840.83	147.16	3.8776e-06	5.698e-06	334.24	149.85	53.776	27.233	3.945e-06	78.551	0.00029645	0.00028004	7.84e-05	503.63	3.0797e-06	3.0805e-06	826.39	147.41	3.1054e-06	3.0945e-06	322.64	112.88	54.832	26.954	3.0971e-06	74.551	199.438	234.268	242.862	149.117	338.845	378.633	148.403	154.129	260.147	309.739	153.731	155.244	159.381	164.039	272.152	161.801	-8191	255	
3148.576	1	1	0	0	0.097699	0.16342	0.20115	0.10818	0.17575	0.18276	0.10852	0.2056	0.066334	0.23404	0.14311	0.25053	0.14586	0.18835	0.2798	0.08961	-1.8563	-2.8312	-2.5021	-2.3396	-2.7396	-2.5771	-2.725	-2.7542	-2.375	-2.8937	-2.5729	-2.3708	-2.7875	-2.4729	-2.7083	-2.8688	202.522	330.491	451.389	339.720	164.563	179.411	207.399	396.200	203.546	489.055	413.985	350.638	283.771	478.695	487.553	400.930	0.0008019	0.00034011	0.00022448	480.37	6.5803e-06	8.3488e-06	840.37	145.22	6.5983e-06	1.137e-06	333.53	151.55	54.558	27.313	4.0612e-06	78.955	0.00029734	0.00028371	7.894e-05	501.59	3.0922e-06	3.1091e-06	824.08	146.76	3.0586e-06	3.0545e-06	322.45	112.83	54.852	26.906	3.0193e-06	74.929	198.993	257.829	212.124	148.566	337.561	292.039	148.378	154.004	309.936	229.751	153.206	156.929	159.607	163.969	189.746	161.777	-8191	255	
3148.672	1	1	0	0	0.048656	0.23621	0.093973	0.17058	0.080158	0.25752	0.16999	0.23534	0.15659	0.085329	0.18356	0.09242	0.097181	0.2203	0.27476	0.21381	-1.9854	-2.7	-2.5208	-2.2687	-2.8333	-2.4146	-2.8438	-2.8625	-2.1583	-2.8167	-2.9167	-2.2458	-2.7917	-2.5292	-2.4271	-2.925	342.346	296.785	461.860	335.239	358.284	160.620	344.306	415.277	263.927	320.156	386.473	227.076	389.146	170.298	202.931	460.941	0.00074768	0.0008144	0.00018989	475.23	2.4049e-06	3.1608e-06	849.41	146.37	1.692e-06	5.8e-06	333.48	151.92	54.607	27.392	5.869e-06	79.34	0.00028844	0.0002744	7.6597e-05	497.57	2.9935e-06	3.0252e-06	827.51	146.74	2.9815e-06	3.001e-06	323.07	112.25	54.982	27.006	2.976e-06	75.365	197.345	215.582	199.649	148.656	328.569	298.175	148.380	154.180	488.042	347.002	153.678	155.478	159.210	163.875	313.438	161.818	-8191	255	
3148.768	1	1	0	0	0.24948	0.18728	0.075712	0.07158	0.10924	0.24959	0.13728	0.14276	0.22952	0.18983	0.08304	0.13271	0.18346	0.1245	0.2095	0.42056	-1.9021	-2.4792	-2.6417	-2.3083	-2.6271	-2.4583	-2.475	-2.9562	-2.225	-2.75	-2.8104	-2.2583	-2.8375	-2.5438	-2.4729	-2.9375	145.196	427.708	284.277	153.613	163.096	212.869	171.957	192.078	293.700	396.740	375.791	341.251	449.602	449.930	161.859	419.647	0.00074696	6.8843e-05	9.328e-05	482.2	4.3594e-06	5.7389e-06	844.12	146.06	5.1894e-06	1.7913e-06	332.11	150.86	54.397	27.508	1.5566e-06	79.327	0.0002835	0.00027189	7.4983e-05	499.29	2.9561e-06	2.9733e-06	824.97	146.45	2.9752e-06	2.9726e-06	321.36	111.99	55.04	27.049	3.009e-06	75.091	199.509	202.772	228.032	149.974	236.546	369.076	148.458	154.278	300.271	243.409	153.379	155.112	159.419	163.469	224.065	161.951	-8191	255	
3148.887	1	1	0	0	0.077637	0.11095	0.19517	0.21648	0.13192	0.17821	0.11619	0.38801	0.16516	0.086997	0.33317	0.10294	0.071265	0.072048	0.096738	0.21351	-1.8208	-2.2271	-2.8167	-2.2562	-2.7229	-2.8104	-2.4542	-2.9396	-2.1312	-2.5417	-2.9667	-2.1625	-2.8229	-2.7646	-2.4062	-2.9979	303.359	412.030	297.269	456.374	460.334	365.042	413.540	454.190	448.879	315.223	445.139	400.153	425.829	440.496	481.412	494.093	0.00076636	0.00022035	1.3032e-05	476.39	4.2234e-06	5.2964e-06	832.93	143.97	3.6217e-06	1.4109e-06	328.66	149.51	54.168	27.221	5.2082e-06	79.101	0.00029	0.00027751	7.6468e-05	494.6	3.0362e-06	3.0626e-06	815.22	144.92	3.078e-06	3.1045e-06	319.33	112.89	54.899	26.974	3.1359e-06	74.706	201.245	314.046	251.931	149.275	314.891	377.255	148.353	153.654	299.405	238.717	153.239	155.977	159.271	163.739	253.219	161.668	-8191	255	
3148.983	1	1	0	0	0.15991	0.16846	0.089066	0.19214	0.26246	0.18403	0.20111	0.088253	0.019059	0.10998	0.19966	0.081424	0.20083	0.17462	0.19598	0.064022	-2.1458	-2.6458	-2.7667	-2.2292	-2.6896	-2.6188	-2.3292	-2.7229	-2.4021	-2.4062	-2.8438	-2.425	-2.5896	-2.6208	-2.4479	-2.9125	200.021	167.361	179.838	171.704	342.158	450.738	439.893	448.948	287.474	194.114	448.649	358.448	188.292	437.068	137.992	156.797	0.00072563	0.00014564	8.1439e-06	476.76	2.8963e-06	3.6932e-06	832.65	144.73	3.8464e-06	2.6741e-06	329.17	151.37	54.179	27.056	2.7071e-06	78.317	0.0002972	0.00028283	7.887e-05	496.41	3.1049e-06	3.0745e-06	818.65	145.36	3.0592e-06	3.0704e-06	319.65	113.13	54.772	26.841	3.0704e-06	74.506	200.254	441.793	454.383	148.831	204.290	352.885	148.316	154.003	233.840	227.334	153.158	156.631	159.267	164.050	252.036	161.831	-8191	255	
3149.079	1	1	0	0	0.13791	0.017122	0.065461	0.18358	0.27358	0.12771	0.22476	0.09465	0.098367	0.17428	0.066064	0.088404	0.11568	0.07514	0.066711	0.11017	-1.8729	-2.6	-2.7917	-2.325	-2.575	-2.6875	-2.2333	-2.7292	-2.7125	-2.3583	-2.7271	-2.4667	-2.5104	-2.8417	-2.1208	-2.9354	234.153	211.802	322.960	451.208	463.213	266.095	146.595	433.924	429.519	240.887	160.226	170.472	147.094	431.569	346.450	416.946	0.00072347	0.00077199	0.0001562	480.97	2.5137e-06	4.3668e-07	838.55	144.31	2.7335e-06	3.8579e-06	331.41	148.31	53.68	27.285	3.7626e-06	78.238	0.00029531	0.00028451	7.9101e-05	498.96	3.1179e-06	3.1014e-06	821.53	145.69	3.0837e-06	3.1006e-06	320.37	112.16	54.73	26.895	3.1004e-06	74.48	198.351	189.828	150.388	148.642	255.937	364.499	148.364	154.232	485.100	284.361	153.408	155.065	159.681	163.927	244.471	161.930	-8191	255	
3149.200	1	1	0	0	0.18541	0.12444	0.25704	0.1953	0.10585	0.014435	0.43485	0.30052	0.07065	0.12068	0.16686	0.11382	0.19319	0.39072	0.097017	0.2639	-2.1667	-2.3396	-2.6937	-2.3937	-2.4917	-2.7146	-2.4333	-2.7292	-2.6083	-2.3146	-2.8042	-2.2792	-2.5	-2.7229	-2.4313	-2.7875	464.041	250.287	253.783	451.580	170.484	416.262	476.272	160.630	300.899	153.338	394.671	191.754	486.395	191.299	357.838	441.808	0.00084662	0.00051319	0.00010158	474.92	1.1923e-06	3.5749e-06	833.31	143.91	4.9774e-06	6.6887e-06	331.13	149.98	53.85	27.064	5.4105e-06	78.093	0.00029965	0.00028766	7.8436e-05	498.19	3.1366e-06	3.1367e-06	818.06	145.31	3.1021e-06	3.1159e-06	319.49	112.84	54.737	26.719	3.089e-06	74.059	200.778	256.626	250.462	148.710	354.068	276.795	148.603	153.990	259.623	271.392	153.116	155.181	159.619	163.797	309.781	161.794	-8191	255	
3149.272	1	1	0	0	0.051059	0.12476	0.060169	0.074233	0.054045	0.38136	0.098725	0.18825	0.32519	0.15275	0.036062	0.22548	0.19135	0.24702	0.069322	0.20273	-2.2229	-2.2812	-2.7354	-2.4146	-2.4375	-2.6688	-2.6646	-2.6188	-2.6917	-2.2229	-2.7917	-2.5583	-2.4021	-2.8458	-2.2104	-2.5083	415.698	304.176	462.892	300.158	305.773	491.073	419.139	193.860	296.283	211.337	242.811	481.506	464.954	237.888	265.620	463.702	0.00077506	0.00049594	5.4322e-05	474.04	5.4729e-06	2.9485e-06	834.43	143.48	2.8219e-06	3.3707e-06	331.11	148.02	53.057	26.895	6.6492e-06	77.822	0.00029595	0.00028189	7.8721e-05	496.93	3.0915e-06	3.0801e-06	816.58	144.99	3.1365e-06	3.1245e-06	319.57	112.61	54.486	26.65	3.1427e-06	73.854	197.700	207.128	457.381	149.195	326.831	298.135	148.474	154.387	493.516	204.998	152.937	155.784	159.458	163.902	294.328	161.859	-8191	255	
3149.368	1	1	0	0	0.045889	0.24603	0.11728	0.076984	0.088888	0.14781	0.28823	0.20247	0.22069	0.16398	0.35862	0.17922	0.13426	0.31641	0.17796	0.33857	-2.3292	-2.225	-2.8417	-2.4188	-2.2854	-2.8604	-2.3167	-2.5708	-2.6729	-2.3604	-2.7083	-2.6271	-2.4125	-2.7687	-2.4042	-2.7167	182.452	427.018	476.980	354.960	212.072	358.970	495.362	421.467	300.526	487.364	364.934	314.056	278.639	176.780	421.142	429.531	0.00076482	0.00027629	0.00024399	484.89	3.1075e-06	2.8558e-06	835.15	144.35	2.8016e-06	4.1177e-06	330.41	147.36	54.292	27.073	6.0604e-06	78.017	0.00029879	0.0002879	7.9325e-05	503.13	3.1208e-06	3.1481e-06	819.04	145.32	3.1601e-06	3.1883e-06	319.99	112.79	54.716	26.712	3.1558e-06	73.911	196.060	186.947	185.957	149.577	240.595	346.934	148.807	153.900	182.003	269.302	152.920	156.592	159.517	163.994	203.962	161.939	-8191	255	
3149.488	1	1	0	0	0.14101	0.19183	0.071701	0.0050225	0.097263	0.29803	0.052942	0.1195	0.34648	0.16941	0.24468	0.071307	0.11789	0.22626	0.17766	0.53721	-2.225	-2.3167	-2.5396	-2.7333	-2.3438	-2.8125	-2.5687	-2.5708	-2.7354	-2.3896	-2.8417	-2.5667	-2.0687	-2.8417	-2.4271	-2.6375	450.410	177.154	381.785	489.773	369.970	439.689	415.381	333.654	310.519	434.153	407.663	137.776	224.596	479.575	247.876	411.197	0.00069293	0.00069614	0.00023574	480.92	6.487e-06	3.3475e-06	843.15	145	6.0033e-06	3.6683e-06	332.18	148.68	53.975	27.04	9.1975e-06	77.843	0.0002995	0.00028963	8.0292e-05	500.23	3.1537e-06	3.1444e-06	823.85	145.89	3.1421e-06	3.1499e-06	320.5	112.76	54.543	26.659	3.1044e-06	74.003	205.026	191.449	296.695	148.908	323.637	237.762	148.575	153.982	331.410	324.838	153.006	154.817	159.168	164.151	231.931	162.046	-8191	255	
3149.583	1	1	0	0	0.26763	0.096219	0.12634	0.33382	0.1826	0.15162	0.1171	0.12738	0.20689	0.019201	0.32701	0.14329	0.046405	0.30095	0.3403	0.2275	-2.4313	-2.4354	-2.5167	-2.4375	-2.2229	-2.6917	-2.5833	-2.4625	-2.8292	-2.4958	-2.5875	-2.7042	-2.1917	-2.9021	-2.4813	-2.5583	479.768	278.243	254.084	375.935	189.695	197.801	336.747	300.726	493.307	138.721	400.177	145.793	189.117	437.460	431.797	196.842	0.00078768	6.9412e-05	0.00014909	477.83	9.2894e-07	2.4691e-06	840.8	144.29	4.3245e-06	3.3918e-06	329.1	149.58	54.105	26.877	5.7766e-06	77.985	0.00029996	0.00028585	7.8372e-05	497.67	3.0615e-06	3.0838e-06	818.99	144.94	3.0434e-06	3.0298e-06	319.24	112.48	54.441	26.598	3.0339e-06	73.985	199.901	481.189	245.889	148.985	457.246	336.289	148.501	154.269	283.919	378.170	153.556	155.764	159.143	164.143	226.552	162.186	-8191	255	
3149.679	1	1	0	0	0.072297	0.29642	0.46654	0.23351	0.032427	0.10836	0.49348	0.16489	0.099743	0.09339	0.209	0.11268	0.39997	0.20226	0.16952	0.19065	-2.25	-2.2729	-2.475	-2.5938	-2.2042	-2.6917	-2.8438	-2.4292	-2.6896	-2.4729	-2.5104	-2.5771	-2.3958	-2.6792	-2.5167	-2.5854	137.526	468.707	418.686	352.178	210.385	490.592	433.968	332.424	259.042	425.882	478.535	217.144	217.912	377.171	462.767	428.514	0.00076705	0.00016073	4.7417e-05	477.39	4.1852e-06	6.8649e-06	829.39	144.05	5.0897e-06	4.0438e-06	328.96	150.62	54.034	27.198	4.1188e-06	78.439	0.00029135	0.00027791	7.7209e-05	496.21	3.015e-06	3.0258e-06	815.84	144.89	3.0319e-06	3.0759e-06	319.1	112.41	54.776	26.911	3.0485e-06	74.481	197.763	421.713	213.048	148.491	278.790	372.876	148.419	154.063	206.432	243.205	153.178	155.837	158.901	163.979	196.076	161.935	-8191	255	
3149.775	1	1	0	0	0.20928	0.094103	0.0478	0.16555	0.16233	0.26439	0.10519	0.12582	0.11648	0.21394	0.25933	0.17102	0.07523	0.12665	0.18342	0.10593	-2.4604	-2.3229	-2.4375	-2.7375	-2.4104	-2.7375	-2.5979	-2.3896	-2.7146	-2.6562	-2.4979	-2.7354	-2.2438	-2.7625	-2.7313	-2.5312	443.708	493.438	226.495	223.722	353.416	318.388	400.590	459.953	279.270	143.425	390.282	336.306	275.552	137.017	158.882	449.206	0.00077775	0.00016131	9.1338e-05	475.42	3.2674e-06	6.9385e-06	832.4	143.81	2.9039e-06	5.0232e-06	331.87	150.12	54.422	27.387	5.5263e-06	79.279	0.00029771	0.00028217	7.8467e-05	493.85	3.1016e-06	3.1057e-06	814.59	144.58	3.1108e-06	3.0716e-06	320.08	112.94	55.123	27.14	3.0972e-06	74.985	197.539	266.665	214.099	148.713	278.278	193.783	148.444	153.864	267.266	254.416	153.050	156.217	159.157	163.948	280.724	161.841	-8191	255	
3149.871	1	1	0	0	0.14206	0.26468	0.16016	0.050824	0.084605	0.22561	0.41366	0.062925	0.22914	0.15291	0.30421	0.085311	0.35417	0.23847	0.19824	0.09251	-2.2375	-2.4083	-2.5708	-2.7188	-2.4688	-2.5771	-2.9479	-2.5042	-2.6792	-2.5563	-2.575	-2.8479	-2.4292	-2.6063	-2.8208	-2.5375	159.988	274.027	343.229	205.120	459.644	315.925	368.155	150.142	468.285	229.127	402.905	297.009	244.261	421.156	295.590	436.522	0.00077132	0.00040906	8.7632e-05	470.54	1.9331e-06	3.0065e-06	830.12	143.44	3.7171e-06	4.8269e-06	330.09	150.23	53.66	27.385	5.2398e-06	78.398	0.00029634	0.00028479	7.909e-05	492.88	3.1197e-06	3.0846e-06	814.31	144.47	3.1515e-06	3.163e-06	319.38	113.52	54.825	27.025	3.1283e-06	74.357	197.691	241.067	227.766	148.473	488.796	341.022	148.478	154.294	304.130	393.450	153.113	155.021	159.910	163.863	241.831	161.775	-8191	255	
3149.967	1	1	0	0	0.12755	0.24636	0.19882	0.23411	0.18434	0.29496	0.18278	0.18718	0.15209	0.086868	0.28156	0.070502	0.34782	0.0241	0.22653	0.19753	-2.3208	-2.4813	-2.3083	-2.75	-2.2271	-2.3917	-2.8521	-2.4	-2.6729	-2.7625	-2.4583	-2.8937	-2.475	-2.6521	-2.7687	-2.4333	440.966	487.113	468.398	394.776	165.471	412.669	456.247	235.998	319.050	289.006	427.540	370.574	485.893	347.025	206.159	163.614	0.00077451	0.00011037	0.00015785	471.9	4.3201e-06	1.8044e-06	826.94	142.57	3.5804e-06	5.536e-06	327.39	147.12	53.642	27.384	1.028e-05	77.897	0.00030085	0.0002902	8.0599e-05	494.83	3.1827e-06	3.1833e-06	811.08	144.77	3.1818e-06	3.1489e-06	317.99	113.51	54.836	26.989	3.1831e-06	73.969	198.533	286.859	168.201	148.591	269.648	343.218	148.362	154.016	287.873	340.595	153.321	155.811	158.622	163.907	323.087	161.921	-8191	255	
3150.064	1	1	0	0	0.21699	0.11496	0.13593	0.092511	0.17542	0.20464	0.1415	0.21116	0.070663	0.31686	0.16335	0.12763	0.13215	0.14605	0.2194	0.3096	-2.3021	-2.5375	-2.2729	-2.8271	-2.5	-2.5625	-2.8854	-2.3187	-2.65	-2.7812	-2.4271	-2.9104	-2.625	-2.5604	-2.7583	-2.5333	177.881	472.191	460.491	450.327	288.934	241.603	400.722	475.765	480.208	384.898	287.381	340.703	455.329	221.704	445.090	477.285	0.00077448	0.00046789	0.00018034	470.37	3.6234e-06	2.8586e-06	824.65	143.44	3.0228e-06	4.1663e-07	328.94	146.25	53.6	27.322	6.1487e-06	77.624	0.00030756	0.00029723	8.2971e-05	500.02	3.236e-06	3.2588e-06	811.88	145.24	3.2899e-06	3.2746e-06	318.78	114.8	55.11	27.04	3.2919e-06	73.899	195.020	190.225	188.101	148.558	196.181	234.479	148.194	153.820	296.348	182.520	153.066	155.913	159.194	164.209	257.420	162.012	-8191	255	
3150.160	1	1	0	0	0.12461	0.14067	0.43487	0.20719	0.32669	0.16898	0.21511	0.12149	0.20728	0.24094	0.1836	0.1738	0.056457	0.11339	0.38285	0.48128	-2.1188	-2.5417	-2.1396	-2.7583	-2.3667	-2.4104	-2.8063	-2.4688	-2.3771	-2.6437	-2.2687	-2.7229	-2.6396	-2.3521	-2.8292	-2.4917	139.379	137.916	181.562	186.806	172.757	492.841	430.332	363.991	141.717	224.515	385.870	420.087	166.832	327.512	221.947	442.585	0.00069907	0.00023738	0.00012229	478.66	1.4119e-06	1.631e-06	831.27	144.37	6.4473e-06	4.5591e-06	330.38	148.81	53.828	27.179	2.4496e-06	78.069	0.00031391	0.00030476	8.3736e-05	500.28	3.3053e-06	3.2888e-06	816.47	145.67	3.2484e-06	3.2336e-06	320.39	114.08	54.975	27.09	3.2518e-06	74.274	199.955	355.403	204.814	148.602	252.973	317.108	148.139	153.624	266.861	279.771	153.532	155.687	159.655	163.412	240.696	161.957	-8191	255	
3150.280	1	1	0	0	0.10659	0.22998	0.29471	0.13674	0.10183	0.18405	0.29313	0.071417	0.078995	0.18033	0.19895	0.20856	0.095678	0.17756	0.14429	0.12918	-2.2104	-2.5875	-2.1979	-2.7021	-2.5271	-2.3875	-2.8625	-2.4708	-2.4125	-2.625	-2.5396	-2.5438	-2.5938	-2.5875	-2.7354	-2.5167	387.364	389.967	439.469	430.216	413.964	361.034	401.682	467.998	339.962	402.459	373.518	420.552	410.418	175.351	143.556	373.949	0.000751	0.00095675	0.00018193	475.64	8.915e-06	6.0692e-06	829.49	144.52	2.4277e-06	3.2768e-06	329.46	146.28	54.313	27.024	4.8835e-06	77.313	0.00030464	0.00029118	8.2412e-05	500.71	3.2213e-06	3.2131e-06	817.71	146.28	3.2145e-06	3.2021e-06	319.8	113	54.781	26.875	3.2011e-06	73.649	199.956	266.660	192.655	148.400	267.161	307.119	148.197	154.229	258.460	242.902	153.322	154.830	158.960	163.677	299.906	161.765	-8191	255	
3150.376	1	1	0	0	0.075967	0.19442	0.083652	0.19552	0.24349	0.071974	0.33669	0.2019	0.081663	0.060954	0.19457	0.16096	0.16388	0.17236	0.15424	0.51147	-1.9458	-2.7875	-2.2708	-2.65	-2.4813	-2.4583	-2.8	-2.6562	-2.5208	-2.8229	-2.4125	-2.5312	-2.6271	-2.3333	-2.7146	-2.6708	393.350	266.447	191.265	438.868	178.041	283.202	419.135	194.073	404.127	388.427	142.156	263.766	365.701	220.627	479.443	408.368	0.00071507	0.00026176	5.4129e-05	476.15	1.9636e-06	4.5577e-06	831.15	145.43	2.0643e-06	9.6749e-06	330.51	148.69	54.17	27.093	5.4267e-06	77.42	0.00030646	0.00029383	8.1073e-05	499.18	3.2266e-06	3.2064e-06	816.42	146.36	3.2724e-06	3.2331e-06	319.89	113.9	54.997	26.902	3.2632e-06	73.682	194.753	467.813	175.133	149.063	258.683	337.663	148.307	154.227	354.368	305.468	153.092	155.822	159.349	164.064	323.768	161.813	-8191	255	
3150.473	1	1	0	0	0.035882	0.10092	0.10193	0.21606	0.21234	0.084196	0.40522	0.23394	0.10978	0.073138	0.30384	0.054173	0.08934	0.066989	0.17693	0.59075	-1.9396	-2.7833	-2.4729	-2.4583	-2.7438	-2.1729	-2.7438	-2.6229	-2.3542	-2.8771	-2.4396	-2.3896	-2.5979	-2.2292	-2.7458	-2.5875	447.996	467.691	358.400	272.820	181.395	367.202	454.714	457.215	294.516	216.358	177.740	355.055	223.528	142.248	386.805	461.033	0.00069045	0.00053301	0.0001799	480.59	6.5979e-06	4.4029e-06	830.56	145.38	8.2816e-06	1.7049e-06	333.14	147.01	53.519	27.27	5.1114e-06	78.181	0.0003089	0.00029618	8.1699e-05	503.21	3.2015e-06	3.2637e-06	818.03	146.52	3.2461e-06	3.2421e-06	321.22	113.11	54.813	27.014	3.1872e-06	74.184	192.791	277.786	246.082	148.847	295.915	205.754	148.659	154.179	240.819	352.702	153.079	156.174	159.362	163.689	197.595	161.885	-8191	255	
3150.569	1	1	0	0	0.25547	0.065595	0.27615	0.063089	0.25209	0.081114	0.062217	0.24707	0.18796	0.11104	0.24657	0.1888	0.28099	0.17194	0.16055	0.13827	-1.9438	-2.7979	-2.4042	-2.4354	-2.7104	-2.1792	-2.7	-2.5792	-2.2229	-2.7708	-2.3646	-2.1708	-2.775	-2.1083	-2.6958	-2.7396	164.897	390.562	199.998	403.187	429.250	339.190	273.586	493.463	476.754	177.946	219.614	461.404	313.815	417.231	232.503	396.475	0.00076178	0.00035715	6.0919e-05	477.62	3.0982e-06	4.1664e-06	837.81	145.89	5.8975e-06	5.1675e-06	331.64	145.98	54.394	27.395	1.7559e-07	78.446	0.00030517	0.00029147	8.0852e-05	501.23	3.1666e-06	3.1366e-06	820.63	146.93	3.1317e-06	3.1449e-06	321.36	112.24	55.055	27.115	3.0781e-06	74.407	196.891	328.284	341.696	148.958	375.314	325.280	148.416	153.885	264.214	296.970	153.083	155.922	159.391	163.863	480.434	161.485	-8191	255	
3150.665	1	1	0	0	0.14604	0.14546	0.081859	0.049975	0.17851	0.055991	0.1793	0.099979	0.13332	0.15615	0.28873	0.19063	0.20517	0.14448	0.080762	0.30271	-1.5292	-2.5542	-2.4625	-2.4104	-2.7854	-2.2146	-2.5542	-2.7625	-2.1771	-2.5083	-2.5812	-2.4104	-2.5854	-2.4729	-2.5292	-2.7979	320.208	300.462	277.902	475.937	318.473	386.509	405.886	389.106	491.702	261.747	394.456	480.789	147.728	172.112	303.854	362.051	0.00078203	0.00073579	0.00013609	478.35	3.007e-06	2.7334e-06	830.8	145.25	6.4794e-06	2.5003e-06	331.9	150.27	54.114	27.596	3.8926e-06	78.465	0.00029456	0.00028111	7.753e-05	497.7	3.0749e-06	3.0729e-06	814.56	146.24	3.073e-06	3.0749e-06	320.3	112.76	54.804	27.176	3.1012e-06	74.396	194.092	189.557	255.422	148.797	269.368	339.510	148.301	153.939	244.401	166.471	153.319	155.499	159.756	163.676	203.445	161.671	-8191	255	
3150.761	1	1	0	0	0.16663	0.15405	0.14114	0.19733	0.11325	0.15008	0.15383	0.18911	0.17193	0.079447	0.15539	0.19076	0.28878	0.092241	0.10231	0.043958	-1.7708	-2.7188	-2.5687	-2.3042	-2.7771	-2.3625	-2.3958	-2.6292	-2.1437	-2.7292	-2.6083	-2.3146	-2.6979	-2.5479	-2.4562	-3.0292	300.307	341.752	264.078	137.542	368.555	401.342	186.386	198.014	153.494	265.524	479.741	196.210	153.972	180.971	365.693	355.273	0.00069659	0.00040225	0.00020255	471.57	5.2859e-06	4.5289e-06	827.75	143.72	4.4081e-06	2.126e-06	330.77	150.31	54.271	27.335	3.8464e-06	77.88	0.00029466	0.00028025	7.8454e-05	491.34	3.0723e-06	3.108e-06	809.09	145.15	3.0854e-06	3.0601e-06	319.17	112.2	54.876	27.063	3.0792e-06	74.258	194.659	221.899	287.139	148.404	216.113	256.381	148.318	153.821	276.813	296.933	153.184	156.267	159.378	163.880	160.232	161.774	-8191	255	
3150.880	1	1	0	0	0.17469	0.28826	0.037078	0.34524	0.097191	0.14928	0.29929	0.32743	0.25091	0.1914	0.26169	0.17228	0.16324	0.13354	0.1629	0.18623	-1.8479	-2.5979	-2.4896	-2.2938	-2.5812	-2.7438	-2.6104	-2.7229	-2.3833	-2.7354	-2.5354	-2.1937	-2.7188	-2.5771	-2.4292	-2.8979	439.292	337.946	303.194	212.579	332.563	279.469	369.531	480.279	143.296	469.717	492.591	153.896	308.404	167.472	318.364	451.687	0.00073644	0.00042463	0.00012065	477.21	3.6621e-06	4.7942e-06	834.2	145.13	3.2101e-06	2.9729e-06	331.25	147.54	54.166	27.324	4.0189e-06	78.098	0.00029164	0.00027706	7.7206e-05	494.42	3.0571e-06	3.0534e-06	815.88	145.78	3.0748e-06	3.0938e-06	319.57	112.55	54.943	27.131	3.1586e-06	74.197	203.752	482.801	313.223	147.974	232.709	323.114	148.165	153.768	495.477	287.057	152.844	154.460	159.160	163.860	254.028	161.944	-8191	255	
3150.976	1	1	0	0	0.18352	0.24466	0.1425	0.23064	0.20406	0.1124	0.22136	0.18928	0.27926	0.061155	0.14775	0.068742	0.12063	0.20017	0.19687	0.22979	-1.8146	-2.5896	-2.7875	-2.2625	-2.6979	-2.4688	-2.6437	-2.7958	-2.4562	-2.6646	-2.8063	-2.0187	-2.7	-2.6146	-2.4292	-2.9437	426.745	385.419	157.627	443.995	274.538	462.090	361.083	149.270	262.751	371.559	455.056	479.766	489.275	398.131	326.183	490.102	0.00071912	0.0005699	0.00013577	473.4	5.7355e-06	5.5402e-06	830.47	144.31	2.7152e-06	6.3187e-06	326.85	146.43	54.075	27.395	4.621e-06	77.515	0.00030109	0.00028791	8.0501e-05	497.43	3.1302e-06	3.1542e-06	813.54	145.19	3.1877e-06	3.1771e-06	317.49	113.36	54.859	27.053	3.2223e-06	73.727	201.963	283.127	209.204	148.315	254.470	277.301	148.299	153.998	242.167	268.394	153.365	156.856	159.091	164.063	487.465	161.695	-8191	255	
3151.072	1	1	0	0	0.22798	0.0067284	0.10357	0.16431	0.31183	0.25436	0.3454	0.089622	0.33817	0.076326	0.065586	0.042808	0.094526	0.26333	0.095158	0.23578	-1.8833	-2.5312	-2.7542	-2.3083	-2.7479	-2.5729	-2.4208	-2.7583	-2.2208	-2.5104	-2.8396	-2.3083	-2.5812	-2.675	-2.5354	-3.0125	473.347	284.653	309.036	249.389	422.389	417.472	422.479	465.190	458.004	169.442	289.743	323.108	253.413	210.216	493.959	423.109	0.00072207	0.0010687	0.00023421	478.27	3.8744e-06	3.5151e-06	823.17	144.81	5.2523e-06	3.2349e-06	327.44	146.55	53.997	27.175	4.4349e-06	77.281	0.00030281	0.00029097	8.1294e-05	496.96	3.1884e-06	3.1949e-06	809.71	145.46	3.1292e-06	3.1603e-06	317.15	111.94	54.697	26.937	3.1472e-06	73.406	202.191	193.294	192.308	148.957	319.177	337.090	148.543	154.278	310.208	318.567	153.206	155.369	159.333	163.706	262.950	161.730	-8191	255	
3151.168	1	1	0	0	0.082187	0.23443	0.41762	0.097839	0.10246	0.072416	0.19931	0.033683	0.17925	0.23874	0.17841	0.16305	0.22863	0.047605	0.11702	0.18432	-1.9625	-2.25	-2.6688	-2.2208	-2.5667	-2.5833	-2.375	-2.5438	-2.3937	-2.5604	-2.85	-2.475	-2.725	-2.675	-2.4021	-2.7917	294.631	253.733	167.027	451.367	342.567	419.152	383.476	408.173	459.179	270.186	325.926	144.361	392.553	293.839	181.837	451.111	0.00078315	0.00013246	0.0001004	479.77	1.0415e-06	5.9945e-06	833.22	144.15	3.4275e-06	2.5032e-06	326.76	148.72	53.534	27.301	7.5498e-06	77.352	0.00029668	0.00028699	7.938e-05	498.87	3.1596e-06	3.112e-06	814.16	145.79	3.1652e-06	3.1403e-06	318.05	113.1	54.756	26.965	3.1846e-06	73.57	199.116	229.258	145.904	149.115	143.722	257.786	148.692	153.547	374.317	400.464	153.425	156.137	159.563	164.043	220.266	161.564	-8191	255	
3151.265	1	1	0	0	0.18647	0.07332	0.31269	0.30022	0.059354	0.04424	0.36603	0.095978	0.16567	0.049712	0.097733	0.12571	0.13796	0.093835	0.12119	0.21806	-2.15	-2.3708	-2.7729	-2.5563	-2.5521	-2.8604	-2.3521	-2.7438	-2.5229	-2.3812	-2.975	-2.4896	-2.575	-2.7917	-2.35	-2.7438	339.012	390.567	389.086	481.981	202.871	366.297	373.594	412.963	232.995	251.867	302.807	311.714	287.367	164.278	427.381	423.022	0.00071392	0.00031524	0.00013907	476.91	4.5638e-06	2.6939e-06	833.44	144.27	4.5684e-06	1.1154e-06	327.88	148.96	53.863	27.122	8.9494e-07	77.168	0.00030466	0.00029348	8.1672e-05	501.7	3.2086e-06	3.2379e-06	816.75	146.2	3.2204e-06	3.2607e-06	319.3	112.91	55.002	27.001	3.2583e-06	73.53	205.719	185.452	241.298	148.769	222.982	295.506	148.347	153.960	227.954	160.767	152.962	156.025	158.992	163.970	155.639	161.752	-8191	255	
3151.361	1	1	0	0	0.17999	0.04011	0.26598	0.13483	0.20705	0.28162	0.37293	0.25769	0.12411	0.099913	0.091649	0.15468	0.10009	0.018145	0.022719	0.10278	-2	-2.3729	-2.6375	-2.4479	-2.55	-2.7646	-2.3896	-2.725	-2.6583	-2.4667	-2.8354	-2.3292	-2.5604	-2.7479	-2.1771	-2.8979	203.761	194.623	360.735	153.970	468.458	260.043	167.844	385.085	267.507	465.433	389.956	286.012	187.371	167.184	160.289	366.539	0.00074612	0.00033962	7.9474e-05	480.15	2.0548e-06	3.8074e-06	833.71	144.75	4.346e-06	6.2296e-06	327.96	145.64	53.361	27.14	2.3652e-06	77.026	0.00031022	0.00029995	8.2567e-05	502.81	3.272e-06	3.2471e-06	816.82	146.59	3.2477e-06	3.2812e-06	318.14	113.11	54.64	26.832	3.1947e-06	73.124	205.092	215.796	218.731	148.550	163.414	433.399	148.378	154.021	185.975	242.773	153.201	155.287	159.040	164.147	291.400	161.816	-8191	255	
3151.457	1	1	0	0	0.24409	0.23053	0.063144	0.10047	0.19649	0.25827	0.029612	0.21682	0.20327	0.30411	0.16094	0.23704	0.11459	0.093598	0.095937	0.15945	-2.2396	-2.3583	-2.7771	-2.5229	-2.5271	-2.9688	-2.3625	-2.6146	-2.7896	-2.3583	-2.7771	-2.5625	-2.3438	-2.775	-2.4667	-2.6979	375.263	390.472	179.249	168.022	490.405	390.246	314.683	471.093	345.028	312.583	299.470	145.434	301.474	485.198	224.021	483.743	0.0007587	0.00027627	0.00016851	476.93	4.9653e-06	6.5662e-06	831.77	144.55	4.3255e-06	3.9709e-06	329.37	148.51	53.978	26.981	1.0316e-05	77.491	0.00030233	0.00028792	8.0327e-05	501.85	3.1538e-06	3.1444e-06	816.19	146.41	3.1084e-06	3.1387e-06	318.95	111.82	54.695	26.812	3.1055e-06	73.45	195.636	148.746	255.250	148.652	285.337	331.101	148.529	154.112	241.284	233.275	153.190	155.917	159.278	164.098	251.528	161.780	-8191	255	
3151.576	1	1	0	0	0.13699	0.11975	0.23629	0.26933	0.24609	0.15689	0.23606	0.19608	0.027987	0.19137	0.22397	0.062825	0.14066	0.28498	0.10789	0.2628	-2.2	-2.1146	-2.5625	-2.6146	-2.4188	-2.7167	-2.6292	-2.4146	-2.6292	-2.1792	-2.6771	-2.6125	-2.2354	-2.8292	-2.6292	-2.575	369.718	283.179	211.298	265.677	317.471	144.162	422.357	406.431	234.444	456.562	252.062	487.044	478.913	452.306	143.170	440.438	0.00075943	0.00010777	7.2356e-05	478.16	1.415e-06	8.2741e-06	832.39	145.71	2.8838e-06	5.0765e-06	330.24	148.53	54.161	27.384	6.273e-06	78.242	0.00029831	0.00028342	8.0372e-05	499.54	3.0942e-06	3.0847e-06	815.56	146.52	3.0914e-06	3.0817e-06	319.23	111.82	54.739	27.047	3.0174e-06	74.157	192.683	276.168	159.564	149.498	350.935	248.666	148.694	153.739	234.539	206.692	153.027	156.044	159.107	163.820	240.949	161.824	-8191	255	
3151.672	1	1	0	0	0.22363	0.16945	0.11727	0.10361	0.049164	0.1192	0.12922	0.24817	0.10296	0.32717	0.047295	0.1483	0.32427	0.027902	0.20316	0.088851	-2.2667	-2.2042	-2.6042	-2.5542	-2.4271	-2.7188	-2.4521	-2.4813	-3.0708	-2.3937	-2.7708	-2.5458	-2.1042	-2.7458	-2.3104	-2.6167	157.883	259.404	231.075	435.585	214.585	144.632	287.457	394.446	435.027	211.833	414.824	144.849	141.388	400.362	236.364	402.734	0.0008103	0.00041288	9.673e-05	475.61	1.47e-06	5.9258e-06	833.89	145.01	2.0295e-06	5.4537e-06	330.96	148.74	54.634	27.576	5.9037e-06	77.922	0.00029116	0.00027618	7.6758e-05	496.17	3.0163e-06	3.0113e-06	817.49	146.19	2.9778e-06	2.9687e-06	320.31	111.13	54.935	27.14	2.9555e-06	73.987	198.725	304.144	201.542	149.239	352.949	300.588	148.362	154.066	198.518	278.928	153.675	156.293	159.129	163.929	228.369	161.726	-8191	255	
3151.745	1	1	0	0	0.068482	0.098294	0.083777	0.036635	0.26711	0.15332	0.30848	0.17566	0.078534	0.16459	0.20736	0.13792	0.062923	0.26273	0.1152	0.31271	-2.1188	-2.3812	-2.6312	-2.8563	-2.2521	-2.7729	-2.675	-2.3063	-2.9562	-2.2938	-2.6375	-2.8083	-2.3604	-2.7313	-2.6479	-2.4688	398.174	296.653	484.094	441.059	275.387	425.302	465.172	386.833	255.488	405.426	439.007	465.578	215.822	373.147	148.255	434.040	0.00078721	0.00039816	6.3116e-05	476.53	2.1484e-06	9.0176e-07	827.52	144.14	5.263e-06	3.977e-06	328.62	148.26	53.733	27.385	3.0651e-06	77.617	0.00028475	0.00026971	7.5314e-05	493.24	2.9728e-06	2.9867e-06	810.06	145.06	2.9575e-06	2.9907e-06	316.98	110.28	54.676	27.074	2.9999e-06	73.582	199.709	198.391	223.521	148.888	266.275	288.519	148.256	154.278	197.420	231.644	153.315	155.806	159.289	163.951	455.357	161.741	-8191	255	
3151.841	1	1	0	0	0.20915	0.092328	0.075229	0.2857	0.16172	0.39434	0.32653	0.14895	0.051156	0.22622	0.13422	0.13851	0.074206	0.2373	0.12173	0.33391	-2.2833	-2.4333	-2.5417	-2.7958	-2.3708	-2.6771	-2.5812	-2.4188	-2.9646	-2.4813	-2.4437	-2.7146	-2.4938	-2.5125	-2.8021	-2.4813	209.430	428.442	473.238	236.932	269.709	168.875	490.759	417.921	463.344	397.657	262.220	162.276	252.437	165.905	374.484	432.119	0.00068401	0.00082727	0.00010516	471.65	1.3029e-06	4.9313e-06	825.57	143.98	4.7642e-06	4.8235e-06	326.93	146.68	54.012	27.23	2.639e-06	77.198	0.00029203	0.00027939	7.6693e-05	492.29	3.0749e-06	3.1249e-06	808.01	144.93	3.1193e-06	3.1572e-06	315.77	112.11	54.909	27.032	3.1577e-06	73.488	196.526	199.044	416.230	148.576	241.529	319.883	148.284	154.123	317.209	258.889	153.118	155.185	158.949	163.717	200.241	161.792	-8191	255	
3151.960	1	1	0	0	0.17204	0.10521	0.12843	0.2673	0.20975	0.36349	0.034963	0.23381	0.10446	0.16564	0.048214	0.11293	0.26169	0.11881	0.1686	0.24456	-2.1875	-2.4708	-2.4229	-2.7833	-2.2625	-2.6604	-2.9021	-2.1979	-2.6042	-2.3792	-2.4521	-2.8063	-2.425	-2.7167	-2.6354	-2.5542	277.828	276.565	343.199	300.341	474.287	386.917	450.987	460.585	148.536	137.891	432.860	223.178	346.887	446.958	183.576	474.535	0.00076601	0.00018197	0.00024499	471.46	5.1059e-06	2.5893e-06	820.14	142.15	6.1e-06	2.9082e-06	325.09	145.36	54.044	27.188	3.5637e-06	76.962	0.00030166	0.00028797	8.0031e-05	494.42	3.1409e-06	3.1627e-06	807.97	144.25	3.1414e-06	3.1815e-06	316.07	112.9	54.753	26.947	3.1882e-06	73.287	197.573	267.267	198.607	148.415	289.139	288.705	148.397	154.488	224.392	177.044	153.332	155.174	159.291	163.711	224.435	161.770	-8191	255	
3152.056	1	1	0	0	0.11742	0.11138	0.099134	0.22592	0.054319	0.21343	0.29139	0.23654	0.12044	0.2105	0.1349	0.11039	0.15455	0.029119	0.18333	0.073917	-2.3438	-2.4875	-2.1667	-2.9625	-2.4917	-2.5583	-2.9458	-2.3417	-2.9	-2.5583	-2.2438	-2.6354	-2.4375	-2.4208	-2.5854	-2.4021	255.868	164.401	440.559	309.519	142.464	168.986	437.939	177.635	297.962	203.449	138.426	262.754	382.986	168.544	295.642	390.457	0.00077973	0.00028479	0.00010822	471.49	4.1696e-06	3.0024e-06	823.09	142.95	3.855e-06	1.3475e-06	324.6	148.61	53.916	27.241	2.0038e-06	76.969	0.00030258	0.00028892	8.0366e-05	494.68	3.1459e-06	3.1851e-06	807.46	144.16	3.1485e-06	3.1461e-06	314.97	111.93	54.731	26.99	3.217e-06	73.063	199.934	230.093	206.762	148.448	183.643	310.122	148.641	154.185	264.147	328.764	153.400	156.086	159.310	163.831	258.134	161.804	-8191	255	
3152.153	1	1	0	0	0.3853	0.16755	0.19012	0.23534	0.25841	0.23784	0.2022	0.20601	0.1534	0.27913	0.31846	0.27629	0.084366	0.23273	0.16268	0.13034	-2.1042	-2.6125	-2.3812	-2.725	-2.2729	-2.575	-2.7646	-2.3146	-2.625	-2.7271	-2.4104	-2.7167	-2.4375	-2.375	-2.6646	-2.3521	419.450	494.112	347.995	379.310	465.905	476.225	455.685	162.964	476.761	196.848	471.621	347.286	418.964	490.966	447.846	460.627	0.00070461	0.00018341	9.44e-05	465.29	2.0012e-06	2.9769e-06	817.61	142	4.1605e-06	1.9339e-06	324.85	149.57	53.429	26.978	6.0536e-06	76.568	0.00030436	0.00029018	8.1225e-05	491.15	3.2221e-06	3.2298e-06	802.11	143.5	3.2065e-06	3.1903e-06	314.41	112.74	54.706	26.885	3.2178e-06	72.687	198.570	471.284	243.613	148.644	471.062	270.070	148.235	153.729	305.999	216.677	153.261	155.418	159.526	163.809	197.538	161.797	-8191	255	
3152.249	1	1	0	0	0.24658	0.23938	0.075991	0.20306	0.13767	0.16058	0.080758	0.193	0.20218	0.1139	0.21206	0.26359	0.1059	0.25066	0.061838	0.19469	-2.0208	-2.6604	-2.1625	-2.6458	-2.3458	-2.5312	-2.8292	-2.3646	-2.4458	-2.7042	-2.2	-2.7167	-2.5833	-2.4083	-2.6125	-2.5521	157.214	240.415	333.676	415.429	386.953	467.156	152.473	285.716	148.854	280.498	430.681	409.024	371.705	445.745	462.121	391.618	0.00074796	0.00010655	5.4741e-05	469.48	1.6654e-06	5.3309e-06	820.33	141.84	3.5139e-06	6.014e-06	326.27	145.71	53.522	26.931	5.84e-06	76.895	0.00031011	0.00029839	8.2715e-05	495.41	3.2541e-06	3.2681e-06	806.46	143.84	3.235e-06	3.24e-06	315.35	112.17	54.515	26.797	3.1851e-06	72.82	198.133	295.916	388.051	148.513	225.108	347.801	148.327	154.593	248.323	273.813	153.377	157.146	159.149	164.282	213.793	161.747	-8191	255	
3152.369	1	1	0	0	0.1745	0.036858	0.10647	0.23449	0.33861	0.1726	0.39399	0.26849	0.29245	0.31365	0.17864	0.1267	0.1845	0.12008	0.24605	0.35644	-1.9188	-2.6771	-2.2104	-2.7333	-2.4208	-2.2958	-2.8958	-2.4208	-2.5333	-2.6063	-2.3292	-2.6333	-2.5438	-2.3271	-2.6583	-2.4562	415.863	289.573	219.952	384.964	262.705	225.325	410.025	205.042	368.404	138.816	365.680	432.029	421.660	441.578	388.487	406.389	0.00078373	0.00054748	0.0001667	466.29	7.9167e-06	4.94e-06	830.55	142.14	3.3655e-06	4.9138e-06	326.9	147.52	53.376	27.023	4.6188e-06	76.833	0.00030604	0.00029235	8.2018e-05	495.38	3.1759e-06	3.2082e-06	809.64	144.28	3.1963e-06	3.1733e-06	316.31	112.4	54.872	26.891	3.129e-06	73.119	199.653	170.746	143.342	148.354	226.002	326.593	148.407	153.769	233.482	339.150	153.061	153.617	159.366	163.916	345.453	161.608	-8191	255	
3152.441	1	1	0	0	0.16389	0.033024	0.19984	0.042138	0.14435	0.078192	0.20205	0.027926	0.10523	0.12179	0.18065	0.051393	0.23506	0.19876	0.30161	0.45216	-1.8479	-2.6833	-2.1667	-2.6042	-2.4437	-2.1437	-2.9167	-2.4479	-2.3167	-2.6854	-2.3	-2.5292	-2.4938	-2.2167	-2.6917	-2.6813	217.372	435.122	147.049	236.300	443.566	276.294	446.889	479.794	277.069	437.529	385.970	478.927	297.385	479.266	231.900	464.495	0.00077422	0.00032527	7.5701e-05	474.06	3.1321e-06	2.2615e-06	822.81	143.8	1.8108e-06	3.3858e-06	327.6	148.75	54.051	27.208	4.9606e-06	77.159	0.00029742	0.00029008	7.9479e-05	495.98	3.1039e-06	3.1386e-06	809.23	144.21	3.0584e-06	3.084e-06	315.88	111.17	54.734	26.87	3.0788e-06	73.063	196.935	329.859	216.433	148.308	163.018	271.502	148.353	154.236	360.486	289.589	153.363	155.478	158.884	164.150	249.979	161.664	-8191	255	
3152.562	1	1	0	0	0.19759	0.14706	0.18604	0.061203	0.27471	0.25571	0.20977	0.078035	0.18006	0.14203	0.067675	0.1183	0.17226	0.22064	0.13061	0.3127	-2.0229	-2.725	-2.2604	-2.5125	-2.475	-2.1167	-2.6979	-2.6292	-2.2521	-2.7313	-2.4896	-2.55	-2.5625	-2.175	-2.5917	-2.5875	377.125	198.573	292.948	433.344	363.597	348.190	174.169	142.847	231.071	337.004	318.672	165.457	365.467	458.538	456.889	391.384	0.00075368	0.00045199	9.6077e-05	473.32	6.8454e-06	9.3099e-07	816.9	142.35	6.1186e-06	1.8609e-06	325.97	148.35	54.209	27.332	2.009e-06	77.358	0.00029411	0.00028345	7.8141e-05	492.56	3.0877e-06	3.1224e-06	805.24	143.97	3.1389e-06	3.1423e-06	316.02	112.19	54.947	27.054	3.1787e-06	73.382	192.828	192.092	259.840	148.641	232.491	456.963	148.484	153.862	241.267	282.421	153.296	155.376	159.344	163.902	171.397	161.686	-8191	255	
3152.656	1	1	0	0	0.15551	0.25264	0.10226	0.065833	0.09925	0.27749	0.17976	0.10151	0.23986	0.28089	0.22571	0.26609	0.2408	0.23709	0.20263	0.23474	-1.7375	-2.6063	-2.4875	-2.45	-2.6417	-2.2979	-2.7396	-2.7354	-2.2833	-2.8125	-2.5979	-2.3146	-2.6667	-2.2583	-2.625	-2.8563	442.505	482.590	177.162	274.900	247.068	314.799	462.338	445.884	420.072	428.020	434.324	441.067	460.126	493.132	205.213	413.346	0.00084417	0.00022159	0.00011231	467.45	4.0744e-06	1.5473e-06	817.3	142.03	5.157e-06	5.6281e-06	324.83	148.95	54.149	27.388	6.9584e-06	77.542	0.00030214	0.00028726	8.0505e-05	490.52	3.1497e-06	3.1391e-06	802.99	143.63	3.1169e-06	3.1267e-06	315.13	112.68	55.117	27.151	3.1124e-06	73.56	194.399	306.239	305.168	148.381	203.071	299.640	148.711	153.872	288.225	233.165	153.497	155.573	158.737	163.823	218.892	161.745	-8191	255	
3152.752	1	1	0	0	0.24309	0.053808	0.050984	0.16272	0.059287	0.31683	0.088209	0.11444	0.1214	0.079126	0.104	0.31112	0.29619	0.26999	0.039049	0.11883	-1.7729	-2.7313	-2.3333	-2.4417	-2.5208	-2.3208	-2.7167	-2.575	-2.2979	-2.9958	-2.6792	-2.2833	-2.6583	-2.3583	-2.4625	-2.5875	404.205	156.417	419.730	226.403	337.054	253.443	356.477	205.651	179.983	188.101	424.858	148.769	383.122	154.745	350.412	186.254	0.00081134	0.00039803	0.00012054	463.9	2.0498e-06	1.2256e-06	816.75	141.01	3.0964e-06	3.2236e-06	327.08	146.66	54.094	27.418	4.4467e-06	77.566	0.00030065	0.00028876	7.9153e-05	487.5	3.125e-06	3.1456e-06	800.52	143.02	3.1385e-06	3.1348e-06	316	112.82	55.257	27.209	3.1472e-06	73.674	195.052	262.841	365.331	149.344	426.540	312.050	148.359	154.006	295.587	303.009	153.200	157.021	158.932	163.852	373.830	161.695	-8191	255	
3152.848	1	1	0	0	0.08749	0.17169	0.22949	0.14744	0.2304	0.23094	0.27906	0.2142	0.21144	0.18782	0.26409	0.22223	0.27899	0.053437	0.083696	0.41312	-1.6187	-2.6833	-2.5354	-2.2083	-2.9021	-2.2708	-2.5896	-2.5146	-2.4125	-2.6937	-2.5854	-2.2313	-2.8354	-2.4667	-2.5583	-2.7167	367.780	355.479	249.627	333.215	298.051	493.770	308.897	484.048	177.183	407.237	387.965	391.776	376.160	401.006	227.091	469.968	0.0006961	0.00061202	9.7612e-05	460.4	5.1033e-06	3.5534e-06	812.26	141.78	1.9557e-06	6.7985e-06	322.83	142.98	53.905	27.168	5.2181e-06	76.505	0.00029934	0.0002873	8.0396e-05	486.27	3.1756e-06	3.1833e-06	797.49	142.86	3.2024e-06	3.2124e-06	314	112.18	54.851	27.013	3.2086e-06	72.892	200.746	196.781	168.477	148.711	196.605	268.549	148.330	154.137	159.756	268.852	153.076	155.177	159.291	164.013	287.657	161.613	-8191	255	
3152.969	1	1	0	0	0.19977	0.14297	0.12527	0.33498	0.1172	0.19523	0.17352	0.12619	0.36757	0.20331	0.26297	0.25799	0.30112	0.38528	0.075721	0.23927	-1.7958	-2.4521	-2.6667	-2.1917	-2.7188	-2.5375	-2.4708	-2.6771	-2.3563	-2.4604	-2.5812	-2.3271	-2.4833	-2.5062	-2.2625	-2.9021	269.089	194.755	407.125	205.713	184.555	482.167	495.719	463.964	237.152	423.144	481.533	348.587	235.421	376.960	213.825	458.241	0.00077202	0.00050887	4.7987e-05	458.48	7.1869e-06	3.8116e-06	811.19	141.32	3.9922e-06	5.6459e-06	321.98	145.25	54.161	27.237	3.5086e-06	76.46	0.00030817	0.00029076	8.1819e-05	487.65	3.1852e-06	3.1874e-06	795.96	142.46	3.2486e-06	3.2406e-06	313.32	112.5	54.931	27.043	3.2462e-06	72.802	200.683	196.759	162.914	148.370	240.124	260.644	148.454	153.822	236.162	280.291	152.974	157.366	159.481	163.743	332.281	161.743	-8191	255	
3153.041	1	1	0	0	0.2614	0.19234	0.09753	0.062803	0.097358	0.28733	0.15086	0.043044	0.18208	0.19135	0.29192	0.091694	0.08813	0.26811	0.16842	0.20581	-1.8146	-2.5563	-2.6792	-2.25	-2.6854	-2.3688	-2.4646	-2.9208	-2.2687	-2.5875	-2.7958	-2.1479	-2.5354	-2.45	-2.3042	-2.8312	307.911	242.030	380.522	142.653	481.296	333.636	484.796	425.844	495.381	302.943	157.062	371.285	225.861	444.318	229.688	448.813	0.0007486	0.00085276	0.00021501	470.08	7.352e-06	1.7973e-06	812.32	141.99	3.8987e-06	1.5852e-06	323.88	147.21	54.117	27.197	6.1531e-06	76.793	0.00030988	0.00029793	8.2467e-05	490.99	3.2811e-06	3.3001e-06	800.36	143.63	3.2717e-06	3.3029e-06	314.96	113.97	55.021	27.123	3.2552e-06	73.129	201.378	215.589	236.438	148.087	283.973	341.048	148.472	154.049	342.112	246.148	153.245	155.861	159.284	164.107	173.099	161.732	-8191	255	
3153.137	1	1	0	0	0.11406	0.22646	0.075992	0.062789	0.21515	0.084356	0.065	0.11824	0.22376	0.086929	0.23117	0.17423	0.12034	0.21879	0.22441	0.023518	-1.8146	-2.4062	-2.65	-2.3042	-2.5583	-2.475	-2.4479	-2.7562	-2.3896	-2.6042	-2.7583	-2.0604	-2.5187	-2.6792	-2.1708	-2.8375	428.688	417.908	223.031	135.874	262.672	267.797	385.138	158.255	468.437	374.738	151.838	488.482	324.287	202.708	170.990	288.585	0.00079731	0.00065157	0.0001876	469.02	3.465e-06	3.8316e-06	818.39	142.47	8.1794e-06	5.3087e-06	323.84	145.44	53.885	27.203	4.6607e-06	76.978	0.00031252	0.00029678	8.2213e-05	493.9	3.2345e-06	3.2465e-06	805.34	144.17	3.236e-06	3.2541e-06	315.74	112.93	55.013	27.07	3.2539e-06	72.997	203.303	244.448	249.323	149.066	338.725	418.419	148.299	153.744	257.613	254.104	153.187	154.733	159.021	163.985	316.181	161.612	-8191	255	
3153.257	1	1	0	0	0.19659	0.19584	0.10411	0.22445	0.31568	0.21567	0.068251	0.087867	0.35544	0.16168	0.40778	0.39074	0.099958	0.10536	0.14762	0.35242	-1.7667	-2.2771	-2.6521	-2.1125	-2.4708	-2.6562	-2.3875	-2.7438	-2.4688	-2.2604	-2.5896	-2.15	-2.6125	-2.6417	-2.3021	-2.9354	255.484	302.608	294.794	248.216	469.251	361.189	320.769	186.665	278.146	148.089	423.366	371.508	253.437	269.711	309.202	138.139	0.00071183	0.00065745	0.00023587	466.4	7.0031e-06	5.2218e-06	814.61	141.29	6.8347e-06	1.9314e-06	323.26	146.71	53.699	27.194	2.9426e-06	76.335	0.00030981	0.00030007	8.2711e-05	495.68	3.2984e-06	3.323e-06	801.22	143.72	3.3527e-06	3.3712e-06	314.19	114.13	54.936	27.039	3.3841e-06	72.73	194.710	199.302	186.537	148.677	434.241	196.996	148.683	154.146	251.886	286.898	153.194	156.142	159.752	163.830	175.237	161.712	-8191	255	
3153.354	1	1	0	0	0.044371	0.15575	0.11711	0.1367	0.079006	0.048177	0.24367	0.072474	0.13275	0.11951	0.16834	0.21282	0.19941	0.076637	0.19447	0.22424	-2.0896	-2.0542	-2.8042	-2.2396	-2.4479	-2.8083	-2.3812	-2.7708	-2.5104	-2.3542	-2.9458	-2.3208	-2.4188	-2.6125	-2.1813	-2.7146	432.124	207.928	257.305	458.345	224.493	464.089	419.554	485.312	471.058	372.761	437.267	483.088	487.073	439.687	354.341	480.762	0.0006816	0.00011476	8.5951e-05	467.32	5.7561e-06	1.4513e-06	816.34	142.49	4.1316e-06	3.7413e-06	323.26	146.74	53.525	27.354	4.8394e-06	76.848	0.00032146	0.00030934	8.4891e-05	495.52	3.3292e-06	3.3313e-06	802.5	144.09	3.3146e-06	3.2891e-06	314.45	113.94	55.071	27.113	3.2419e-06	73.046	193.981	278.693	168.548	148.816	278.600	406.527	148.283	154.223	244.379	254.697	153.173	155.299	159.439	164.162	216.963	161.798	-8191	255	
3153.450	1	1	0	0	0.21802	0.16225	0.13833	0.14001	0.10062	0.21698	0.17472	0.085236	0.11006	0.0648	0.25518	0.1053	0.29872	0.23206	0.22476	0.29113	-2.1354	-2.2521	-2.6604	-2.3792	-2.4938	-2.7146	-2.2583	-2.7208	-2.6229	-2.4521	-2.8563	-2.4354	-2.2917	-2.7104	-2.5125	-2.6354	347.062	150.177	195.521	422.606	356.154	338.591	140.190	150.659	264.804	284.560	139.079	485.568	490.315	490.934	204.516	186.357	0.00062549	0.00044258	0.00014685	474.64	3.05e-06	9.1807e-06	826.26	143.17	4.8362e-06	3.6087e-06	328.69	146.02	54.526	27.488	3.7917e-06	77.281	0.00030706	0.00029733	8.1845e-05	497.13	3.2107e-06	3.2127e-06	810.51	145.18	3.2082e-06	3.2126e-06	317.67	113.26	55.313	27.342	3.2773e-06	73.558	202.417	165.560	254.070	149.044	426.602	327.775	148.532	154.213	321.833	369.018	152.895	155.666	159.438	163.943	397.928	161.776	-8191	255	
3153.546	1	1	0	0	0.17658	0.14213	0.085526	0.15234	0.093499	0.27969	0.12957	0.11322	0.037901	0.05938	0.10663	0.26931	0.090542	0.10481	0.037012	0.20592	-2.1542	-2.2167	-2.8604	-2.3854	-2.3854	-2.8063	-2.4375	-2.5958	-2.4542	-2.2542	-2.7687	-2.3729	-2.3646	-2.8292	-2.4229	-2.6271	412.623	324.553	159.763	184.150	419.832	190.049	375.307	460.528	417.243	202.021	452.664	197.574	317.200	326.929	488.069	140.289	0.00079973	0.0007448	0.00018356	471.63	9.4299e-07	6.8285e-06	823.26	144.18	5.6942e-06	3.0597e-06	329.02	150.29	54.863	27.622	6.8804e-06	77.331	0.00031095	0.00029506	8.3034e-05	496.37	3.2359e-06	3.2292e-06	808.63	145.6	3.2317e-06	3.2145e-06	318	113.03	55.326	27.358	3.1586e-06	73.675	204.708	247.479	315.730	149.084	393.503	400.965	148.536	154.016	306.847	165.490	152.916	156.264	158.775	163.674	219.913	161.666	-8191	255	
3153.642	1	1	0	0	0.073339	0.23293	0.061926	0.061995	0.020936	0.17763	0.20333	0.083134	0.26243	0.13805	0.23823	0.11876	0.14868	0.24453	0.071562	0.3865	-2.3458	-2.3125	-2.7854	-2.5333	-2.4896	-2.85	-2.3937	-2.4979	-2.7271	-2.2083	-2.6583	-2.525	-2.1813	-2.725	-2.4083	-2.6792	455.273	495.349	393.296	487.798	440.478	393.763	494.631	430.993	420.802	406.786	175.007	453.225	481.012	455.039	139.098	447.676	0.0007566	0.00080168	6.3287e-05	467.45	5.1029e-06	7.8392e-06	815.6	143.92	4.5699e-06	2.479e-06	326.1	145.82	54.839	27.66	4.2809e-06	77.637	0.00030136	0.00028983	8.0459e-05	493.69	3.1755e-06	3.2043e-06	802.61	145.61	3.1949e-06	3.1953e-06	316.2	113.05	55.396	27.44	3.2264e-06	73.736	199.097	224.396	276.434	148.698	409.908	332.447	148.336	154.018	377.509	279.265	153.214	156.454	158.999	163.627	477.481	161.797	-8191	255	
3153.736	1	1	0	0	0.16454	0.35211	0.1595	0.25929	0.20017	0.15962	0.20849	0.12719	0.079942	0.22033	0.21605	0.07186	0.28306	0.21697	0.23719	0.1789	-2.3646	-2.1417	-2.5187	-2.5458	-2.2333	-2.4854	-2.4104	-2.3625	-2.5854	-2.4208	-2.6479	-2.4271	-2.3146	-2.6813	-2.475	-2.5146	323.433	323.742	410.079	321.122	162.568	471.004	409.018	324.564	466.614	405.346	439.979	171.857	361.634	472.373	154.636	385.484	0.00075629	0.00085901	0.00014826	469.68	5.9444e-06	1.7547e-06	821.67	144	4.3159e-06	5.4288e-06	327.24	146.2	54.203	27.612	3.3944e-06	77.298	0.00030654	0.00029182	8.1328e-05	492.06	3.2135e-06	3.214e-06	806.26	145.52	3.1742e-06	3.2083e-06	317.17	113.49	55.332	27.345	3.2217e-06	73.693	199.327	230.733	238.353	148.882	281.175	254.744	148.605	154.118	310.175	317.349	153.070	155.338	159.330	163.858	328.638	161.710	-8191	255	
3153.833	1	1	0	0	0.26861	0.20677	0.076888	0.044856	0.073138	0.19129	0.21618	0.17037	0.19222	0.081283	0.20583	0.23667	0.23938	0.39346	0.22172	0.19759	-2.2146	-2.1688	-2.6458	-2.6604	-2.1104	-2.8604	-2.6937	-2.4583	-2.6875	-2.1583	-2.4896	-2.5667	-2.3271	-2.8104	-2.4125	-2.35	424.473	149.470	146.520	323.318	441.098	210.235	450.591	308.290	283.007	484.635	467.678	294.533	408.366	476.819	234.763	432.641	0.00081273	0.00093155	3.0781e-06	470.29	3.7951e-06	2.8569e-06	821.34	142.97	6.561e-06	7.4736e-06	326.66	145.74	54.169	27.618	1.0076e-06	77.509	0.00030762	0.00029646	8.3114e-05	496.72	3.2911e-06	3.2684e-06	807.13	145.24	3.2787e-06	3.3005e-06	317.27	113.41	55.452	27.409	3.2385e-06	73.549	201.102	185.064	475.777	148.429	312.354	286.444	148.252	153.974	295.051	280.310	153.070	155.911	159.179	164.010	361.017	161.614	-8191	255	
3153.953	1	1	0	0	0.039192	0.11032	0.094612	0.12157	0.13302	0.22029	0.34786	0.10174	0.2046	0.15274	0.19644	0.063138	0.10336	0.14989	0.13236	0.093116	-2.2896	-2.2229	-2.2542	-2.5646	-2.3458	-2.6333	-2.5729	-2.4146	-2.8417	-2.6146	-2.4104	-2.6792	-2.2042	-2.5646	-2.5396	-2.3542	407.771	285.431	291.165	219.325	243.944	248.483	400.399	298.417	436.386	320.530	325.682	169.785	197.409	139.485	138.358	330.174	0.0007819	0.00057694	0.00019534	468.71	5.1377e-06	4.6727e-06	822.28	143.41	4.2278e-06	9.6989e-07	327.76	148.5	54.266	27.37	6.6771e-06	77.231	0.00030578	0.00029003	8.2227e-05	495.76	3.1818e-06	3.2052e-06	806.61	145.36	3.1155e-06	3.0884e-06	316.17	111.64	54.946	27.182	3.0735e-06	73.353	195.488	285.224	238.616	149.141	305.161	356.417	148.238	153.913	256.849	263.811	153.389	155.820	159.148	164.112	258.785	161.761	-8191	255	
3154.049	1	1	0	0	0.044329	0.051566	0.24746	0.011084	0.13909	0.055831	0.084473	0.19323	0.11639	0.23574	0.33746	0.33728	0.20434	0.4058	0.11639	0.21428	-2.3521	-2.3875	-2.3271	-2.7479	-2.3792	-2.4771	-2.7396	-2.2938	-2.7	-2.5229	-2.4208	-2.7542	-2.1917	-2.3521	-2.5125	-2.3042	342.202	432.785	332.393	296.885	340.491	157.387	145.351	453.119	338.679	271.887	138.721	342.845	212.357	478.027	376.634	424.633	0.00078662	0.00041199	7.3076e-05	470.64	3.8428e-06	6.3874e-06	826.68	144.38	4.0984e-06	5.1645e-06	325.49	148.27	54.533	27.596	8.4251e-06	77.133	0.00029556	0.00028173	7.8357e-05	492.22	3.0918e-06	3.0913e-06	808.6	145.49	3.0919e-06	3.1336e-06	315.85	111.75	55.129	27.261	3.1381e-06	73.271	200.360	206.812	157.710	148.704	275.999	255.792	148.572	154.013	286.820	471.186	153.498	156.046	159.548	164.184	273.668	162.048	-8191	255	
3154.144	1	1	0	0	0.16779	0.1658	0.15958	0.39581	0.19843	0.1714	0.081738	0.21155	0.032797	0.31868	0.22475	0.096726	0.13293	0.22898	0.17037	0.030597	-2.2521	-2.4062	-2.2	-2.8375	-2.1917	-2.325	-2.6646	-2.4125	-2.6063	-2.5312	-2.525	-2.6792	-2.4125	-2.6458	-2.725	-2.4979	340.841	437.637	440.062	153.418	246.749	273.518	462.021	440.022	219.836	163.342	142.242	253.571	468.920	416.345	244.613	369.254	0.00079918	0.00050404	9.1853e-05	475.6	5.2632e-06	2.3225e-06	821.02	143.8	3.2739e-06	4.738e-06	326.61	147.21	54.125	27.479	2.8908e-06	77.324	0.00029976	0.0002886	8.0165e-05	496.8	3.1496e-06	3.182e-06	807.99	145.14	3.1775e-06	3.187e-06	316.14	112.35	55.101	27.253	3.1756e-06	73.546	201.920	243.331	464.386	149.053	182.848	237.023	148.479	154.190	308.760	270.077	153.162	156.593	159.396	164.335	296.970	161.652	-8191	255	
3154.242	1	1	0	0	0.14442	0.24061	0.21199	0.081293	0.15247	0.10085	0.29894	0.19018	0.18986	0.15222	0.3406	0.17023	0.25371	0.15492	0.22892	0.15731	-2.0792	-2.4125	-2.2625	-2.5833	-2.3083	-2.3458	-2.7687	-2.2396	-2.6104	-2.6583	-2.375	-2.75	-2.35	-2.3375	-2.7292	-2.2604	338.625	271.305	309.178	438.659	404.444	310.350	321.823	175.335	392.094	364.869	477.060	309.636	462.722	480.862	145.713	155.936	0.00074446	7.4543e-05	8.2502e-05	478.55	2.3603e-06	4.4771e-06	832.55	144.65	4.4643e-06	4.3094e-06	328.47	150.09	54.28	27.348	2.1004e-06	77.37	0.00030146	0.00029098	8.0691e-05	497.78	3.1695e-06	3.1536e-06	814.82	145.84	3.1001e-06	3.1328e-06	317.54	112.48	54.909	27.196	3.0888e-06	73.491	204.941	288.396	171.260	148.831	380.911	299.929	148.452	153.632	199.622	452.670	153.366	156.091	159.176	164.144	140.547	161.860	-8191	255	
3154.336	1	1	0	0	0.12474	0.28164	0.081094	0.11598	0.20815	0.10799	0.12583	0.18932	0.15345	0.1628	0.20648	0.11136	0.22793	0.14449	0.20363	0.24908	-2.1437	-2.4208	-2.2146	-2.65	-2.45	-2.2938	-2.7438	-2.4167	-2.5875	-2.575	-2.3042	-2.6	-2.475	-2.5229	-2.7521	-2.6042	175.334	440.627	264.165	163.472	304.461	416.848	482.651	481.699	167.163	233.093	163.335	186.008	215.825	332.732	160.555	472.541	0.00073666	0.00056148	0.00017874	479.83	3.2293e-06	5.2276e-06	834.35	145.91	4.2011e-06	4.8225e-06	328.9	148.75	54.596	27.732	2.9625e-06	77.87	0.00029342	0.00027914	7.7819e-05	496.67	3.0487e-06	3.0139e-06	813.23	146.1	3.0311e-06	3.0393e-06	316.82	111.16	55.067	27.269	3.0037e-06	73.702	197.099	241.223	233.597	148.677	194.895	272.191	148.346	153.971	288.297	241.053	153.365	155.686	159.228	164.611	282.814	161.947	-8191	255	
3154.432	1	1	0	0	0.20709	0.18653	0.33845	0.25055	0.07069	0.058401	0.2783	0.19426	0.20616	0.22533	0.14832	0.068358	0.057873	0.27954	0.22899	0.17149	-2.0417	-2.6521	-2.2188	-2.6937	-2.3937	-2.3333	-2.8792	-2.4833	-2.4354	-2.6792	-2.4458	-2.4437	-2.425	-2.3667	-2.7875	-2.4729	149.678	342.540	342.660	324.659	341.066	441.678	141.588	449.227	473.602	179.659	427.690	348.715	478.589	275.832	366.948	432.163	0.00076341	0.00036716	4.9936e-05	484.27	6.2041e-06	8.4196e-06	831.43	144.89	3.4695e-06	1.3376e-06	329.78	147.67	54.711	27.556	2.5719e-06	78.237	0.00028868	0.00027456	7.5943e-05	495.03	2.9898e-06	2.9964e-06	813.14	146.04	3.0016e-06	3.0014e-06	318.24	111.16	55.141	27.331	3.0268e-06	74.108	192.993	252.788	166.741	148.274	298.303	309.982	148.525	153.985	261.695	152.246	153.104	155.444	159.434	164.349	247.369	161.826	-8191	255	
3154.553	1	1	0	0	0.22835	0.14159	0.074217	0.055304	0.1321	0.18972	0.14958	0.16681	0.028081	0.11446	0.39912	0.16008	0.17965	0.11363	0.19098	0.18965	-1.9146	-2.5104	-2.2188	-2.4396	-2.5625	-2.1312	-2.7708	-2.5354	-2.3917	-2.7875	-2.4271	-2.5	-2.7729	-2.275	-2.7208	-2.7042	353.226	422.391	401.535	451.343	374.003	156.208	259.645	140.731	162.134	334.412	474.151	167.360	443.507	429.292	361.410	234.959	0.00073774	0.00021324	7.4677e-05	474.53	2.5235e-06	3.1179e-06	829.59	145.66	2.8399e-06	3.1262e-06	329.97	152.43	54.566	28.075	4.6225e-06	78.814	0.00028989	0.00027417	7.5965e-05	493.06	2.9957e-06	3.0236e-06	811.67	146.2	3.0316e-06	3.0464e-06	318.82	111.93	55.417	27.55	2.993e-06	74.607	199.726	331.914	463.981	148.549	369.099	286.728	148.549	153.881	298.489	235.959	153.165	155.391	159.217	163.759	259.818	161.955	-8191	255	
3154.649	1	1	0	0	0.083647	0.042714	0.28075	0.032011	0.27041	0.22887	0.24267	0.43982	0.10746	0.24267	0.10428	0.10925	0.28475	0.25893	0.10205	0.29024	-1.8438	-2.6	-2.2313	-2.4708	-2.5792	-2.3063	-2.7708	-2.5167	-2.3375	-2.8937	-2.5896	-2.6208	-2.6688	-2.3	-2.625	-2.5354	211.013	292.039	452.988	275.235	182.295	185.429	352.634	384.114	343.627	275.444	314.521	212.843	155.901	419.988	339.494	450.667	0.00080571	0.00056447	6.9566e-05	472.56	2.4383e-06	6.4198e-06	828.41	145.58	6.8089e-06	1.5791e-06	330.01	148.53	54.983	27.801	7.1677e-06	77.936	0.00028679	0.00027434	7.5597e-05	490.53	2.9961e-06	2.9632e-06	810.54	146.12	2.9667e-06	2.9605e-06	317.83	110.3	55.19	27.389	2.9786e-06	73.883	199.362	150.053	221.005	148.520	209.536	248.542	148.448	153.716	258.566	248.801	153.121	155.128	159.546	163.933	485.224	161.790	-8191	255	
3154.745	1	1	0	0	0.082805	0.052917	0.123	0.13793	0.18479	0.13413	0.13517	0.13781	0.27249	0.3463	0.12887	0.18115	0.15898	0.061463	0.16439	0.19976	-1.6479	-2.7	-2.1646	-2.4833	-2.8479	-2.4437	-2.7333	-2.7146	-2.3667	-2.7375	-2.4854	-2.5458	-2.5875	-2.1312	-2.6188	-2.775	440.302	419.510	457.389	188.255	338.091	304.202	185.810	327.308	320.710	303.823	400.579	137.907	201.577	276.686	172.480	471.065	0.00083987	0.00016589	0.00014578	474.72	2.7577e-06	1.8117e-06	823.51	143.99	4.4154e-06	4.7977e-06	327.16	146.92	54.851	27.642	3.9116e-06	77.805	0.00028613	0.00027437	7.6219e-05	493.55	3.0352e-06	3.0076e-06	806.34	145.31	3.0594e-06	3.063e-06	316.81	111.4	55.247	27.387	3.0423e-06	73.82	199.480	295.828	228.694	148.877	262.017	230.245	148.568	154.268	221.007	194.616	153.490	155.850	159.443	163.858	244.430	161.711	-8191	255	
3154.841	1	1	0	0	0.26711	0.3086	0.15167	0.24565	0.13335	0.068197	0.2001	0.12768	0.25459	0.13758	0.10921	0.051683	0.088096	0.16466	0.2301	0.17295	-1.7875	-2.6042	-2.3438	-2.4771	-2.7313	-2.1729	-2.7208	-2.7542	-2.2583	-2.725	-2.6083	-2.3812	-2.7875	-2.4104	-2.4688	-2.775	386.838	417.940	417.484	415.312	347.212	355.776	439.470	399.273	335.221	403.504	170.135	155.291	382.013	398.005	436.296	186.484	0.00072685	6.5898e-05	7.1463e-05	475.78	2.6229e-06	5.1583e-06	825.88	144.18	6.5816e-06	1.5471e-06	329.95	150.51	54.675	27.777	5.1793e-06	77.878	0.00029464	0.00027753	7.7956e-05	494.33	3.0742e-06	3.0383e-06	808.53	145.48	3.0626e-06	3.0816e-06	317.99	112.12	55.2	27.418	3.0855e-06	73.869	200.888	335.439	267.741	148.600	182.200	378.729	148.659	154.183	283.206	406.345	153.595	156.858	159.676	164.319	337.240	161.719	-8191	255	
3154.913	1	1	0	0	0.2215	0.43283	0.080934	0.11761	0.074702	0.071437	0.30238	0.11583	0.35925	0.067109	0.14928	0.18003	0.084467	0.16238	0.1463	0.40349	-1.9729	-2.7521	-2.3458	-2.425	-2.7792	-2.4521	-2.7833	-2.7188	-2.1083	-2.5583	-2.5354	-2.3688	-2.8021	-2.2396	-2.3958	-2.8063	381.584	179.391	190.693	475.094	469.536	419.420	429.583	362.646	237.147	248.172	467.111	451.718	456.294	373.695	228.050	447.115	0.00064516	0.00033425	0.0001206	475.39	5.2817e-06	3.8402e-06	828.69	144.38	7.1546e-06	1.738e-06	327.24	148.84	54.83	27.831	6.2355e-06	77.87	0.00029579	0.0002827	7.7932e-05	496.05	3.1015e-06	3.1208e-06	810.99	146.04	3.0793e-06	3.1115e-06	316.9	111.8	55.352	27.424	3.1038e-06	73.855	195.969	171.430	243.892	148.513	336.400	304.049	148.414	154.164	276.130	278.481	153.329	157.154	159.376	163.958	214.538	161.896	-8191	255	
3155.034	1	1	0	0	0.058923	0.082062	0.057705	0.11559	0.19976	0.24082	0.15606	0.29297	0.11197	0.11637	0.10145	0.11741	0.3119	0.11877	0.18573	0.17568	-1.6833	-2.4458	-2.3979	-2.3312	-2.8583	-2.2583	-2.5583	-2.7729	-2.2396	-2.4458	-2.7104	-2.4271	-2.7417	-2.4583	-2.3583	-2.7896	448.763	244.453	257.467	142.807	389.033	365.920	409.608	433.873	265.391	228.357	447.004	277.772	456.731	460.066	337.409	462.544	0.00078821	0.00037	8.1355e-05	473.98	1.8524e-06	5.7692e-06	824.51	143.85	2.5902e-06	4.3897e-06	326.72	146.4	54.67	27.617	2.3244e-06	77.533	0.00029669	0.00027912	7.8076e-05	495.68	3.1053e-06	3.1185e-06	806.95	145.25	3.1345e-06	3.1453e-06	315.77	112.2	54.982	27.229	3.144e-06	73.345	200.325	204.461	219.448	148.970	142.462	327.300	148.255	153.898	277.592	262.027	153.361	154.566	159.611	164.111	161.587	161.550	-8191	255	
#DATA ENDS
