BOXY.EXE: ISS Imagent and Oximeter Data Acquisition Program Version 0.80
Ascii Record File

#ACQ INFORMATION
2  Detector Channels 
16  External MUX Channels 
1  Auxiliary Channels 
5000  Waveform (CCF) Frequency (Hz)
1  Waveforms Skipped 
30  Waveforms Averaged 
1  Cycles Averaged 
16  Acquisitions per Waveform 
10.0806  Updata Rate (Hz) 

#FILE INFORMATION
TRUE -- External MUX Channel results are PARSED.
FALSE -- AC DC and Phase are NOT grouped.
TRUE -- Companion Program Settings File CREATED.
FALSE -- AC data not excluded
FALSE -- DC data not excluded
FALSE -- Phase data not excluded
FALSE -- Auxillary Chn. data not excluded
Tab delimiters

#CALIBRATION STATE
TRUE -- Waveform Calibration Values APPLIED.


#AUX CALIBRATION VALUES
Val Type	aux-1	

Term	1.0000e+00	
Factor	0.0000e+00	


#WF CALIBRATION VALUES
A = Detector Channel
Val Type	A-AC1	A-AC2	A-AC3	A-AC4	A-AC5	A-AC6	A-AC7	A-AC8	A-AC9	A-AC10	A-AC11	A-AC12	A-AC13	A-AC14	A-AC15	A-AC16	A-DC1	A-DC2	A-DC3	A-DC4	A-DC5	A-DC6	A-DC7	A-DC8	A-DC9	A-DC10	A-DC11	A-DC12	A-DC13	A-DC14	A-DC15	A-DC16	A-Ph1	A-Ph2	A-Ph3	A-Ph4	A-Ph5	A-Ph6	A-Ph7	A-Ph8	A-Ph9	A-Ph10	A-Ph11	A-Ph12	A-Ph13	A-Ph14	A-Ph15	A-Ph16	

Term	0.00000e+00	0.00000e+00	0.00000e+00	0.00000e+00	0.00000e+00	0.00000e+00	0.00000e+00	0.00000e+00	0.00000e+00	0.00000e+00	0.00000e+00	0.00000e+00	0.00000e+00	0.00000e+00	0.00000e+00	0.00000e+00	0.00000e+00	0.00000e+00	0.00000e+00	0.00000e+00	0.00000e+00	0.00000e+00	0.00000e+00	0.00000e+00	0.00000e+00	0.00000e+00	0.00000e+00	0.00000e+00	0.00000e+00	0.00000e+00	0.00000e+00	0.00000e+00	0.00000e+00	0.00000e+00	0.00000e+00	0.00000e+00	0.00000e+00	0.00000e+00	0.00000e+00	0.00000e+00	0.00000e+00	0.00000e+00	0.00000e+00	0.00000e+00	0.00000e+00	0.00000e+00	0.00000e+00	0.00000e+00	
Factor	1.00000e+00	1.00000e+00	1.00000e+00	1.00000e+00	1.00000e+00	1.00000e+00	1.00000e+00	1.00000e+00	1.00000e+00	1.00000e+00	1.00000e+00	1.00000e+00	1.00000e+00	1.00000e+00	1.00000e+00	1.00000e+00	1.00000e+00	1.00000e+00	1.00000e+00	1.00000e+00	1.00000e+00	1.00000e+00	1.00000e+00	1.00000e+00	1.00000e+00	1.00000e+00	1.00000e+00	1.00000e+00	1.00000e+00	1.00000e+00	1.00000e+00	1.00000e+00	X	X	X	X	X	X	X	X	X	X	X	X	X	X	X	X	

B = Detector Channel
Val Type	B-AC1	B-AC2	B-AC3	B-AC4	B-AC5	B-AC6	B-AC7	B-AC8	B-AC9	B-AC10	B-AC11	B-AC12	B-AC13	B-AC14	B-AC15	B-AC16	B-DC1	B-DC2	B-DC3	B-DC4	B-DC5	B-DC6	B-DC7	B-DC8	B-DC9	B-DC10	B-DC11	B-DC12	B-DC13	B-DC14	B-DC15	B-DC16	B-Ph1	B-Ph2	B-Ph3	B-Ph4	B-Ph5	B-Ph6	B-Ph7	B-Ph8	B-Ph9	B-Ph10	B-Ph11	B-Ph12	B-Ph13	B-Ph14	B-Ph15	B-Ph16	

Term	0.00000e+00	0.00000e+00	0.00000e+00	0.00000e+00	0.00000e+00	0.00000e+00	0.00000e+00	0.00000e+00	0.00000e+00	0.00000e+00	0.00000e+00	0.00000e+00	0.00000e+00	0.00000e+00	0.00000e+00	0.00000e+00	0.00000e+00	0.00000e+00	0.00000e+00	0.00000e+00	0.00000e+00	0.00000e+00	0.00000e+00	0.00000e+00	0.00000e+00	0.00000e+00	0.00000e+00	0.00000e+00	0.00000e+00	0.00000e+00	0.00000e+00	0.00000e+00	-2.70192e+02	-1.46154e+02	-1.44971e+02	-1.83982e+02	-8.96959e+01	-7.84589e+01	-1.56979e+02	-1.62015e+02	-1.31917e+02	-8.21254e+01	-1.70881e+02	-1.81594e+02	-1.85791e+02	-1.77433e+02	-8.97468e+01	-1.49719e+02	
Factor	5.01170e-05	1.32014e-04	3.27272e-05	4.14055e-01	1.25435e-06	1.99250e-06	1.53742e-01	4.68002e-02	1.88427e-06	1.45911e-06	8.44637e-02	4.28283e-01	3.92267e-02	8.40360e-03	1.45620e-06	1.23250e-02	1.31062e-06	1.34861e-06	3.74948e-07	2.01947e-01	1.47447e-08	1.47689e-08	7.28953e-02	2.37801e-02	1.46852e-08	1.47755e-08	4.10814e-02	1.28830e-01	1.93371e-02	4.25015e-03	1.47475e-08	5.99750e-03	X	X	X	X	X	X	X	X	X	X	X	X	X	X	X	X	



#DISTANCE SETTINGS
A = Detector Channel
A-1	A-2	A-3	A-4	A-5	A-6	A-7	A-8	A-9	A-10	A-11	A-12	A-13	A-14	A-15	A-16	

2.5000e+00	3.0000e+00	2.5000e+00	3.0000e+00	2.0000e+00	3.0000e+00	1.5000e+00	3.0000e+00	3.0000e+00	3.0000e+00	3.0000e+00	3.0000e+00	3.0000e+00	3.0000e+00	1.5000e+00	3.0000e+00	

B = Detector Channel
B-1	B-2	B-3	B-4	B-5	B-6	B-7	B-8	B-9	B-10	B-11	B-12	B-13	B-14	B-15	B-16	

1.0000e+01	1.0000e+01	1.0000e+01	1.4400e+00	1.0000e+01	1.0000e+01	1.5100e+00	1.9400e+00	1.0000e+01	1.0000e+01	1.9900e+00	2.4900e+00	2.4100e+00	2.9000e+00	1.0000e+01	2.9800e+00	




#DATA BEGINS
time	group	step	mark	flag	A-AC1	A-AC2	A-AC3	A-AC4	A-AC5	A-AC6	A-AC7	A-AC8	A-AC9	A-AC10	A-AC11	A-AC12	A-AC13	A-AC14	A-AC15	A-AC16	A-DC1	A-DC2	A-DC3	A-DC4	A-DC5	A-DC6	A-DC7	A-DC8	A-DC9	A-DC10	A-DC11	A-DC12	A-DC13	A-DC14	A-DC15	A-DC16	A-Ph1	A-Ph2	A-Ph3	A-Ph4	A-Ph5	A-Ph6	A-Ph7	A-Ph8	A-Ph9	A-Ph10	A-Ph11	A-Ph12	A-Ph13	A-Ph14	A-Ph15	A-Ph16	B-AC1	B-AC2	B-AC3	B-AC4	B-AC5	B-AC6	B-AC7	B-AC8	B-AC9	B-AC10	B-AC11	B-AC12	B-AC13	B-AC14	B-AC15	B-AC16	B-DC1	B-DC2	B-DC3	B-DC4	B-DC5	B-DC6	B-DC7	B-DC8	B-DC9	B-DC10	B-DC11	B-DC12	B-DC13	B-DC14	B-DC15	B-DC16	B-Ph1	B-Ph2	B-Ph3	B-Ph4	B-Ph5	B-Ph6	B-Ph7	B-Ph8	B-Ph9	B-Ph10	B-Ph11	B-Ph12	B-Ph13	B-Ph14	B-Ph15	B-Ph16	aux-1	digaux	

1991.841	1	1	0	256	0.2994	0.047527	0.15397	0.038973	0.37709	0.098742	0.14332	0.10699	0.16351	0.041423	0.1631	0.31796	0.048208	0.09751	0.1109	0.17709	-1.7604	-1.5521	-2.0875	-2.225	-1.7271	-2.1479	-2.2125	-2.1792	-2.1667	-1.8854	-2.3333	-1.8354	-1.6229	-2.1229	-1.775	-2.0354	117.937	188.013	77.475	333.080	0.307	159.435	237.220	324.631	22.859	190.157	308.796	211.591	86.593	210.559	244.088	303.615	0.00056867	0.00022132	4.656e-05	1296.2	3.8289e-06	5.9569e-06	1312	351.75	9.5359e-06	2.7509e-06	403.24	137.58	115.8	39.062	1.001e-05	49.079	0.00077087	0.00077547	0.0002142	1354.1	8.4824e-06	8.4698e-06	1343.3	362.71	8.4629e-06	8.421e-06	419.76	159.57	121.92	41.035	8.4487e-06	51.654	13.964	82.300	127.795	-1.670	181.390	140.986	-1.977	2.770	137.308	269.022	2.207	8.452	7.250	11.774	163.364	11.245	-8191	255	
1991.915	1	1	0	0	0.20198	0.043382	0.10827	0.28262	0.09515	0.25435	0.36477	0.058841	0.092939	0.25574	0.15525	0.25698	0.1326	0.099034	0.25598	0.054772	-1.8375	-1.6708	-2.1021	-2.0354	-1.7104	-2.1729	-2.1	-2.1208	-2.2146	-1.8792	-2.2438	-2.0583	-1.6479	-2.2479	-2.0146	-1.8	86.836	-2.363	149.843	306.813	287.844	277.609	260.459	217.162	109.475	324.483	167.221	227.586	9.142	331.781	158.518	291.307	0.00076262	0.00044517	0.00029513	1292.5	4.4383e-06	9.2669e-06	1309.8	349.68	8.1086e-06	4.2624e-06	402.31	139.43	115.12	38.875	8.451e-06	49.048	0.00076691	0.00077288	0.00021584	1348.6	8.5153e-06	8.4111e-06	1338.8	361.31	8.3882e-06	8.3812e-06	419.04	159.31	121.41	40.938	8.4072e-06	51.618	-1.894	111.670	7.798	-2.071	110.746	151.734	-1.959	2.953	279.293	93.172	2.505	9.847	7.103	11.906	59.186	10.986	-8191	255	
1992.034	1	1	0	0	0.11872	0.26919	0.25534	0.17775	0.31681	0.026232	0.24684	0.26143	0.1195	0.10695	0.15109	0.2151	0.30794	0.11699	0.38645	0.043703	-1.8896	-1.8521	-2.0292	-2.175	-1.8563	-2.0458	-2.1479	-2.0292	-2.2438	-2.0125	-2.2146	-2.1208	-1.8062	-2.2208	-2.1125	-2.0042	226.651	16.864	88.557	220.717	301.812	224.529	312.232	335.601	74.190	31.239	333.030	89.078	282.558	304.100	126.738	-3.914	0.00074804	0.00051942	6.5212e-05	1284.9	1.7923e-06	3.5715e-06	1299.2	350.07	9.2164e-06	5.5837e-06	402.6	138.54	115.13	38.911	5.0081e-06	48.948	0.00076082	0.0007618	0.00021254	1345	8.3956e-06	8.3825e-06	1333.7	361.47	8.3473e-06	8.3714e-06	418.28	159.38	121.38	40.857	8.3616e-06	51.392	3.353	42.177	334.205	-1.864	-0.339	285.212	-2.165	2.828	120.978	67.720	2.302	8.230	7.162	12.069	127.076	11.136	-8191	255	
1992.130	1	1	0	0	0.23061	0.20317	0.24062	0.10003	0.14612	0.11564	0.53029	0.27542	0.24442	0.093396	0.084851	0.0761	0.18598	0.047764	0.27775	0.24441	-1.6646	-1.8271	-1.7313	-2.0354	-1.6688	-1.9042	-2.1458	-1.8021	-2.1729	-2.0229	-2.0042	-2.3771	-1.7062	-2.075	-2.1125	-1.9312	269.614	218.749	155.950	183.550	193.300	134.441	293.673	334.277	18.938	15.752	215.278	180.265	241.787	145.438	200.256	155.059	0.00062612	0.0005239	0.0001923	1287.8	8.3734e-06	2.5214e-06	1304.5	349.26	1.0656e-05	4.553e-06	403.2	138.66	114.34	39.043	7.3964e-06	48.773	0.00075839	0.00076745	0.00021361	1344.6	8.5168e-06	8.5405e-06	1336.2	361.11	8.4711e-06	8.5505e-06	418.72	161.29	121.33	40.992	8.5798e-06	51.448	2.183	128.703	76.483	-2.139	175.649	186.170	-2.163	3.087	152.745	100.782	2.265	7.303	7.373	11.797	304.433	10.968	-8191	255	
1992.226	1	1	0	0	0.12806	0.060404	0.19466	0.16978	0.16284	0.16415	0.22903	0.35134	0.17266	0.14916	0.048736	0.082966	0.20132	0.032072	0.069108	0.11646	-1.7146	-1.7833	-1.8646	-2.2417	-1.8188	-2.0271	-2.4542	-1.9813	-2.1688	-1.8021	-2.1562	-2.3583	-1.9646	-2.0812	-2.0854	-1.8042	229.571	81.443	71.823	251.540	147.486	94.028	270.739	295.783	298.478	163.854	321.445	209.183	12.338	238.217	-0.045	8.218	0.00060123	0.00079888	0.00018584	1280.3	1.2664e-05	5.9732e-06	1299	348.65	8.1217e-06	8.0986e-06	402.02	138.34	114.61	38.644	1.7923e-07	48.683	0.00077471	0.0007801	0.00021723	1338.8	8.4981e-06	8.4775e-06	1330.5	360.19	8.5255e-06	8.569e-06	417.21	160.48	121.4	40.725	8.5154e-06	51.302	6.635	10.824	75.708	-1.874	101.443	132.819	-2.108	2.847	126.326	192.436	2.616	9.367	7.320	11.850	96.398	11.123	-8191	255	
1992.346	1	1	0	0	0.11673	0.17821	0.3696	0.11451	0.2723	0.06342	0.17741	0.36422	0.17064	0.05152	0.23096	0.237	0.12004	0.34204	0.2697	0.22493	-1.7375	-1.8708	-1.75	-2.3063	-1.7729	-2.125	-2.2917	-1.7854	-2.2146	-2.0417	-1.975	-2.3187	-1.95	-1.9375	-2.1312	-1.7604	141.451	68.908	331.434	120.620	336.551	-5.750	30.476	298.299	277.541	242.739	239.267	93.822	206.251	0.493	-7.035	148.250	0.0004697	0.00028623	0.00015756	1266.4	6.1461e-06	1.1833e-05	1291.3	347.85	8.9658e-06	1.2433e-05	399.71	135.6	113.57	38.636	7.9051e-06	48.467	0.00077313	0.00077884	0.00021678	1331.7	8.5823e-06	8.4879e-06	1322.7	358.27	8.3817e-06	8.434e-06	415.32	158.82	120.26	40.565	8.3409e-06	51.009	-9.540	58.606	179.869	-1.739	83.767	133.610	-1.955	2.868	124.594	59.601	2.489	7.963	7.096	11.556	152.963	11.188	-8191	255	
1992.443	1	1	0	0	0.16477	0.20816	0.27969	0.18228	0.19285	0.11021	0.28121	0.17875	0.1238	0.19783	0.43038	0.16357	0.187	0.28093	0.34149	0.12512	-1.5979	-1.9458	-1.8312	-2.1625	-1.9125	-1.9125	-2.3688	-1.8167	-2.0438	-2.1979	-2.025	-2.2729	-2.0229	-2.0396	-2.1708	-1.9396	39.499	265.776	117.091	145.925	99.827	163.127	296.725	235.213	18.839	104.631	265.748	314.979	81.505	311.290	141.389	21.693	0.00010179	0.00045421	0.00011288	1265.3	5.9115e-06	4.0316e-06	1280	345.95	8.5974e-07	4.0691e-06	399.14	136.23	113.36	38.508	7.6663e-06	48.175	0.00075564	0.00075799	0.00021211	1322.6	8.3535e-06	8.3494e-06	1313.2	356.54	8.2674e-06	8.2975e-06	412.83	156.3	119.29	40.339	8.0767e-06	50.709	21.839	97.527	71.887	-1.991	56.481	141.625	-2.006	2.857	16.404	61.661	2.628	10.490	7.374	11.554	172.346	11.340	-8191	255	
1992.539	1	1	0	0	0.19124	0.13015	0.049751	0.26569	0.18372	0.015486	0.17621	0.16114	0.16978	0.12449	0.42789	0.18812	0.070541	0.21262	0.13638	0.33742	-1.7042	-2.0083	-1.7958	-2.0667	-1.8	-1.7875	-2.3708	-1.8542	-1.9688	-2.1271	-1.9	-2.0979	-1.9292	-2.0479	-2.1521	-1.9854	74.370	82.854	42.824	330.437	314.647	113.498	-0.788	15.509	328.025	74.064	310.809	137.397	253.307	-3.318	256.950	325.387	0.00061417	0.00061194	0.00028408	1260.1	4.2234e-06	5.7289e-06	1272.5	343.01	4.9174e-06	9.9536e-06	394.53	134.78	113.11	38.34	8.0377e-06	48.219	0.00073154	0.00072365	0.00020116	1309	7.9345e-06	7.8784e-06	1302.2	353.78	7.8997e-06	7.867e-06	408.67	152.01	118.61	40.056	7.8288e-06	50.543	-4.436	24.737	72.711	-1.917	72.459	218.166	-2.139	3.145	127.633	122.057	2.447	6.928	7.584	12.114	109.561	10.796	-8191	255	
1992.635	1	1	0	0	0.29995	0.15289	0.17565	0.22222	0.033241	0.20354	0.28679	0.078165	0.054358	0.20885	0.21065	0.18975	0.079945	0.32772	0.043807	0.19841	-1.55	-2.1208	-1.55	-2.0687	-2.05	-1.675	-2.4354	-2.1542	-1.9771	-2.2354	-1.8708	-1.975	-2.0875	-1.9354	-2.2208	-1.9917	87.615	162.914	79.351	264.413	323.390	63.779	260.038	41.327	244.835	256.490	283.312	121.613	111.763	294.363	186.339	258.459	0.00078226	0.00029238	0.00011009	1249	4.2483e-06	6.7065e-06	1264.4	340.05	1.3386e-05	6.7453e-06	394.32	134.99	112.39	38.348	2.8417e-06	48.068	0.00070519	0.00070903	0.00019815	1299.9	7.8218e-06	7.8084e-06	1292.1	351.5	7.7651e-06	7.805e-06	407.83	151.78	118	39.988	7.7444e-06	50.284	-5.138	8.540	318.076	-1.935	121.450	73.917	-2.037	2.922	138.240	138.673	2.548	8.344	7.294	11.987	164.995	11.115	-8191	255	
1992.731	1	1	0	0	0.096241	0.21545	0.32291	0.046721	0.18535	0.13874	0.5067	0.18251	0.065175	0.15496	0.064434	0.25065	0.14309	0.36746	0.40849	0.22553	-1.3687	-2.1167	-1.8625	-2.2	-1.9167	-1.9292	-2.2833	-1.9354	-1.8479	-2.2271	-2.1625	-1.8813	-2.0708	-1.8	-2.2417	-2.0875	89.237	159.543	259.329	32.895	185.530	-8.672	284.421	22.277	124.983	104.204	287.210	51.251	169.209	253.608	126.392	-13.890	0.00061035	9.0842e-05	0.00011743	1242.5	2.5838e-06	1.668e-05	1259.3	340.21	6.6296e-06	6.8806e-06	391.08	134.62	112.6	38.111	1.8304e-06	47.935	0.00070399	0.00070422	0.00019379	1294.9	7.5956e-06	7.7159e-06	1287.7	350.55	7.61e-06	7.5896e-06	405.55	150.57	117.74	39.852	7.5912e-06	50.158	-1.459	127.780	81.835	-1.671	272.215	159.455	-1.909	3.213	205.839	86.630	2.416	9.737	7.264	11.632	79.035	11.350	-8191	255	
1992.825	1	1	0	0	0.21562	0.058322	0.15474	0.060871	0.30995	0.30785	0.43307	0.15324	0.205	0.028357	0.022341	0.088556	0.24383	0.033599	0.23545	0.20999	-1.3188	-2.2771	-1.8208	-2.1958	-2.1813	-1.7812	-2.2958	-2.1604	-1.8792	-2.1625	-2.0417	-1.9104	-2.1937	-1.8396	-2.075	-2.1333	341.694	186.379	224.751	139.728	343.142	149.436	225.762	209.003	193.240	128.406	231.407	278.306	344.399	322.544	238.586	230.181	0.00085115	0.00046593	0.00012524	1242.2	3.647e-06	1.2993e-05	1256.5	339.22	5.6757e-06	9.215e-06	391.67	133.38	111.84	38.075	4.9721e-06	47.804	0.00069143	0.00069295	0.00019211	1289	7.5741e-06	7.5391e-06	1286.6	349.4	7.4907e-06	7.5278e-06	405.07	149.37	117.33	39.728	7.449e-06	50.001	4.105	60.114	65.718	-2.032	23.284	166.903	-1.783	3.113	132.926	132.769	2.369	8.818	7.303	11.946	126.141	11.115	-8191	255	
1992.946	1	1	0	0	0.1773	0.19201	0.17413	0.29544	0.13876	0.086125	0.40764	0.23575	0.21515	0.13246	0.37667	0.23556	0.11336	0.26593	0.10888	0.20287	-1.3125	-2.2188	-2.0375	-2.0708	-2.2354	-1.7708	-2.4	-2.35	-1.7729	-2.2896	-2.0333	-1.8354	-2.2104	-1.8188	-2.0271	-2.2687	34.277	223.516	150.066	281.645	335.993	5.231	311.214	287.461	154.357	266.465	-2.745	107.273	33.975	62.176	261.385	29.110	0.00047238	0.00030756	7.0337e-05	1240.9	9.2187e-06	3.334e-06	1254.6	339.94	9.2822e-06	7.8385e-06	392.06	134.8	112.06	37.97	4.877e-06	47.83	0.00068142	0.00068194	0.00019163	1285.4	7.4246e-06	7.4522e-06	1284.3	349.28	7.4119e-06	7.4874e-06	404.82	149.28	117.22	39.707	7.4837e-06	49.978	-10.727	67.197	26.273	-1.734	149.371	69.123	-1.738	3.054	63.149	97.247	2.337	9.615	7.362	11.949	258.564	11.295	-8191	255	
1993.042	1	1	0	0	0.17141	0.2598	0.08115	0.088263	0.24217	0.21005	0.21115	0.20813	0.14121	0.28622	0.43615	0.20485	0.13632	0.06001	0.19033	0.11898	-1.2354	-2.0021	-1.95	-2.0583	-2.1583	-1.7729	-2.2062	-2.2271	-1.8854	-2.1146	-1.975	-1.7646	-2.2896	-1.8188	-1.9062	-2.1146	136.646	246.564	194.412	291.116	58.944	26.540	342.145	-7.418	203.171	240.258	305.001	243.535	310.175	272.592	146.621	294.948	0.00058838	0.0007833	9.2218e-05	1233.5	7.3017e-06	8.9169e-06	1250.1	340.02	5.2108e-07	2.8909e-06	390.34	133.09	111.87	38.042	8.7024e-06	47.888	0.00067969	0.00068378	0.00019054	1281.7	7.5237e-06	7.4852e-06	1281.8	348.92	7.4351e-06	7.5071e-06	403.78	148.64	117.22	39.713	7.5655e-06	50.066	5.562	94.106	63.332	-1.879	146.121	103.584	-1.720	3.059	3.456	69.805	2.344	7.954	7.570	12.024	108.891	10.950	-8191	255	
1993.138	1	1	0	0	0.19193	0.12568	0.19306	0.23894	0.12849	0.078105	0.25545	0.095496	0.085067	0.08116	0.27627	0.23673	0.25646	0.069768	0.17951	0.16943	-1.25	-1.9979	-1.6958	-1.7646	-2.2917	-1.8333	-2.2583	-2.2958	-1.7583	-2.1583	-2.0125	-1.6104	-2.2333	-1.95	-1.7833	-2.3729	127.427	179.456	122.607	16.354	96.068	77.337	260.111	300.012	189.990	65.778	258.132	-9.045	262.884	331.793	239.342	133.308	0.00057851	0.00012338	7.0691e-05	1240.4	2.6082e-06	6.6333e-06	1257.2	338.43	7.9993e-06	5.8061e-06	390.09	132.93	111.9	38.076	6.1804e-06	47.928	0.00067976	0.00068681	0.00019133	1285.4	7.5306e-06	7.4521e-06	1282.9	348.8	7.4473e-06	7.4089e-06	403.82	148.98	117.17	39.659	7.4402e-06	50.035	16.843	21.691	189.555	-1.760	59.649	152.254	-1.893	2.990	100.370	59.902	2.471	8.453	7.045	12.237	103.527	11.120	-8191	255	
1993.210	1	1	0	0	0.016375	0.34572	0.071297	0.15873	0.1454	0.22343	0.14442	0.10441	0.24239	0.17298	0.24088	0.18206	0.08096	0.23743	0.22196	0.18682	-1.2938	-2.1354	-2.1104	-1.8042	-2.1063	-2.0729	-1.9646	-2.2896	-1.7854	-2.1708	-2.0979	-1.9479	-2.2458	-2.1958	-1.8875	-2.3021	178.691	142.319	84.029	204.102	79.663	182.931	342.870	235.064	122.399	191.871	284.123	153.864	327.381	-1.620	12.093	189.950	0.00049173	0.00018396	0.00013961	1236.2	3.7385e-06	1.2133e-05	1249.9	337.68	1.1508e-06	2.8997e-06	389	134.54	111.95	37.982	5.6884e-06	47.626	0.00067635	0.0006852	0.00018869	1280.1	7.4472e-06	7.4029e-06	1282.2	348.64	7.389e-06	7.45e-06	403.55	148.96	116.95	39.589	7.488e-06	49.8	-9.783	130.951	70.347	-1.426	32.911	90.768	-2.101	3.108	249.322	143.485	2.513	9.091	7.102	11.878	133.691	11.034	-8191	255	
1993.306	1	1	0	0	0.32085	0.14593	0.067886	0.12417	0.085144	0.22173	0.080737	0.23535	0.15645	0.22349	0.15651	0.14043	0.21179	0.27399	0.16966	0.046407	-1.4042	-2.0083	-2.1875	-1.8188	-2.0625	-1.9062	-2.0479	-2.4188	-1.7938	-1.9271	-2.1813	-1.7604	-2.2208	-2.0667	-1.9167	-2.3271	288.661	135.448	238.756	-6.244	284.051	266.030	299.882	317.649	111.877	75.756	331.136	122.421	39.029	328.811	33.099	221.346	0.00082748	0.0004926	0.0001062	1227.8	4.3973e-06	4.4958e-06	1249.4	339.27	1.5185e-05	3.3191e-06	390.34	131.15	111.38	37.864	6.5024e-06	47.729	0.00068082	0.00068558	0.0001901	1279.8	7.5097e-06	7.5189e-06	1279.1	348.77	7.4828e-06	7.5691e-06	403.87	149.52	117.11	39.644	7.6098e-06	49.879	4.755	23.435	5.572	-1.443	102.352	221.387	-1.862	3.009	125.803	150.447	2.408	10.231	7.590	12.072	117.801	10.813	-8191	255	
1993.427	1	1	0	0	0.06179	0.3301	0.088352	0.1754	0.05316	0.22058	0.1916	0.16303	0.19339	0.091594	0.072909	0.051044	0.15697	0.13968	0.089826	0.17953	-1.3271	-1.9729	-2.0292	-1.8833	-2.3167	-2.0542	-2.025	-2.0146	-1.925	-1.9125	-2.1646	-1.6187	-2.0312	-2.0042	-1.8375	-2.4042	91.122	216.723	302.357	5.181	132.207	312.532	309.996	323.772	38.699	315.490	246.606	210.161	344.030	294.981	194.885	51.433	0.00044013	0.00060714	7.9531e-05	1238.3	7.584e-06	1.0516e-05	1253.2	338.47	1.2142e-05	7.3333e-06	391.35	131.51	111.18	37.949	3.7383e-06	47.844	0.00069307	0.00069742	0.00019318	1284	7.605e-06	7.5811e-06	1281.1	348.4	7.5241e-06	7.5335e-06	404.43	148.68	116.67	39.627	7.4746e-06	49.934	2.666	95.097	87.967	-2.029	15.172	153.376	-1.947	3.008	146.038	192.316	2.495	9.293	7.237	11.822	195.510	10.991	-8191	255	
1993.523	1	1	0	0	0.22896	0.20995	0.26263	0.20232	0.18914	0.35659	0.23084	0.136	0.18648	0.23986	0.29682	0.073205	0.25912	0.22828	0.14081	0.19871	-1.4813	-1.925	-2.2521	-1.9396	-2.1625	-2.1354	-2.0604	-2.4042	-2.0417	-2.0479	-2.4708	-1.8167	-2.1188	-2.3187	-1.9375	-2.3438	243.615	144.562	17.380	-4.868	191.412	76.611	248.864	301.676	176.174	16.290	4.440	37.238	320.249	44.154	144.970	273.971	0.00081669	0.00087924	2.517e-05	1237.3	1.0635e-05	1.1591e-05	1250.5	339.18	3.0317e-06	2.1771e-06	388.93	132.02	111.86	37.834	1.3308e-06	47.676	0.00067998	0.00068339	0.00018894	1282	7.5208e-06	7.493e-06	1279.1	349.04	7.3928e-06	7.4768e-06	403.21	149.09	116.85	39.581	7.4587e-06	49.73	-2.733	69.261	137.668	-1.780	131.366	99.415	-2.175	3.095	25.577	161.846	2.308	8.415	7.032	12.062	222.771	11.485	-8191	255	
1993.619	1	1	0	0	0.14098	0.43688	0.11158	0.14847	0.093354	0.13785	0.1644	0.2593	0.090881	0.24408	0.10532	0.18947	0.14671	0.055083	0.12318	0.067434	-1.5187	-1.8875	-2.3438	-1.8125	-2.0812	-2.3646	-1.875	-2.2125	-2.1042	-1.7437	-2.3042	-1.875	-1.8875	-2.3417	-1.725	-2.2938	140.863	-1.764	19.208	280.352	119.917	162.395	263.514	305.122	146.592	71.690	-2.664	104.424	303.863	200.647	309.902	191.062	0.00071978	0.00032067	7.3397e-05	1237.7	2.977e-06	5.9931e-06	1252	339.83	1.6406e-05	3.8602e-06	388.74	133.46	111.03	37.694	3.0324e-06	47.442	0.0006793	0.00068669	0.0001924	1283.5	7.5156e-06	7.5074e-06	1279.5	348.49	7.473e-06	7.4736e-06	402.88	148.3	116.5	39.485	7.5172e-06	49.774	33.863	327.268	301.571	-1.826	169.852	177.667	-1.935	2.727	72.382	83.233	2.227	7.781	7.144	11.504	205.368	11.066	-8191	255	
1993.715	1	1	0	0	0.094079	0.14023	0.21737	0.17811	0.14444	0.18121	0.34187	0.10725	0.27256	0.28862	0.09712	0.13718	0.24503	0.1577	0.14196	0.4005	-1.5812	-1.7583	-2.2438	-1.9833	-1.9188	-2.1771	-2.0438	-2.4437	-2.3083	-1.8146	-2.35	-1.6917	-2.0187	-2.3063	-1.7854	-2.1208	255.587	318.578	339.792	302.413	93.665	318.861	335.334	2.966	128.089	-8.858	342.254	308.113	337.404	1.987	-0.352	301.984	0.00079918	0.0005949	0.000192	1232.9	6.2304e-06	9.6531e-06	1247	338.55	7.2242e-06	7.3608e-06	390.57	134.72	110.58	37.846	6.71e-06	47.591	0.00068101	0.00068196	0.0001896	1282	7.4619e-06	7.4671e-06	1276.9	348.06	7.4212e-06	7.4274e-06	403.77	149.21	116.3	39.534	7.3995e-06	49.732	343.300	48.943	5.215	-1.603	88.079	173.764	-2.150	2.971	58.085	179.023	2.339	8.109	7.429	12.222	63.182	10.944	-8191	255	
1993.811	1	1	0	0	0.12642	0.28897	0.24577	0.20318	0.24146	0.10665	0.29917	0.37795	0.19696	0.016744	0.17584	0.13731	0.21364	0.21674	0.18953	0.43673	-1.8333	-1.7771	-2.1479	-1.8083	-1.9438	-2.3667	-2.1208	-2.3354	-2.1458	-1.8	-2.3208	-1.8792	-1.9229	-2.3729	-1.9625	-2.2438	292.055	128.110	331.385	35.079	32.402	157.514	262.837	268.984	58.969	149.408	-12.026	281.777	-10.483	98.678	186.839	270.595	0.00070692	0.00077977	0.0003004	1233.4	1.8002e-06	9.1716e-06	1248.7	337.75	3.4368e-06	1.4023e-06	387.89	132.67	110.95	37.848	1.4508e-06	47.505	0.00068211	0.00067849	0.00018792	1279.4	7.399e-06	7.4286e-06	1276.4	347.51	7.3654e-06	7.4203e-06	402.35	147.72	116.5	39.427	7.3954e-06	49.598	14.704	329.147	97.561	-1.886	108.618	112.449	-2.001	2.995	108.807	116.568	2.486	8.407	7.239	12.218	-8.024	10.846	-8191	255	
1993.908	1	1	0	0	0.090526	0.07504	0.083218	0.27752	0.1608	0.071386	0.35023	0.1321	0.17382	0.16503	0.3439	0.16868	0.20806	0.30333	0.092237	0.23979	-1.6729	-1.7292	-2.0521	-2.0104	-1.75	-2.2021	-2.0292	-2.2354	-2.3729	-1.7979	-2.3729	-2.2042	-1.9208	-2.2375	-1.8729	-2.0979	45.419	262.038	11.468	19.375	68.415	342.272	300.872	4.220	191.039	173.702	318.671	151.672	36.108	-13.079	155.787	323.203	0.00058772	0.00074105	0.00012302	1230.7	4.0316e-06	9.3864e-06	1247.2	336.78	9.591e-06	7.1556e-06	390.02	132.07	111.08	37.723	2.2563e-06	47.669	0.00066663	0.00067604	0.00018743	1278.4	7.4176e-06	7.3907e-06	1275.9	347.21	7.3425e-06	7.4149e-06	402.56	148.35	116.6	39.405	7.3568e-06	49.656	20.298	42.787	71.620	-1.687	120.341	45.833	-2.027	3.080	87.968	9.097	2.433	9.149	7.901	12.053	148.775	11.208	-8191	255	
1994.027	1	1	0	0	0.19208	0.13242	0.29274	0.12188	0.17069	0.17309	0.28367	0.32182	0.048715	0.21959	0.1969	0.27364	0.15849	0.070226	0.25952	0.10629	-1.6833	-1.6979	-2.0583	-2.1208	-1.7667	-2.3375	-2.2333	-2.1896	-2.2417	-1.8021	-2.2958	-2.0917	-1.9917	-2.5312	-1.7771	-2.0563	-1.930	17.521	15.186	-13.608	66.652	262.720	295.062	282.398	-14.514	272.153	265.550	207.353	234.744	329.271	2.815	1.693	0.00052765	0.00056974	0.00010279	1221.9	1.4703e-06	4.5232e-06	1244	337.26	6.7501e-06	1.2875e-05	388.48	134.41	111.05	37.676	3.5446e-06	47.724	0.00067126	0.00067176	0.0001872	1274.2	7.357e-06	7.3001e-06	1273.8	346.96	7.3136e-06	7.3341e-06	401.66	147.63	116.29	39.409	7.2567e-06	49.652	4.396	167.288	18.448	-1.896	187.068	38.060	-2.064	2.791	113.916	91.385	2.491	9.376	7.136	11.724	153.318	11.098	-8191	255	
1994.123	1	1	0	0	0.11854	0.16977	0.064912	0.14041	0.19918	0.13027	0.031086	0.23896	0.16847	0.33281	0.36953	0.013674	0.3376	0.18589	0.25496	0.28229	-1.7854	-1.85	-1.9667	-2.2479	-1.8312	-2.3125	-2.1396	-2.1104	-2.2	-1.8271	-2.1333	-2.1542	-1.8271	-2.4146	-2.1208	-1.8438	153.648	270.959	47.982	279.232	316.702	257.540	156.516	305.062	316.926	334.975	241.416	95.451	289.076	0.247	340.016	-11.110	0.00056981	0.00042696	0.00016121	1235	4.3461e-06	7.2628e-06	1251.6	337.62	1.346e-05	6.939e-06	389.94	131.94	111.06	37.953	5.9277e-06	47.354	0.00066374	0.00066412	0.00018504	1279.7	7.2782e-06	7.2225e-06	1277.8	347	7.2534e-06	7.2876e-06	401.47	146.42	116.27	39.485	7.2381e-06	49.541	-7.949	36.621	83.536	-1.673	161.555	120.172	-1.907	3.025	84.926	125.530	2.573	9.319	7.317	12.250	151.852	11.325	-8191	255	
1994.219	1	1	0	0	0.088967	0.15636	0.082483	0.25451	0.26191	0.21642	0.18865	0.27596	0.13515	0.22086	0.095344	0.16874	0.32708	0.064	0.11606	0.13973	-2.0646	-1.9333	-2.1312	-2.2292	-1.8	-2.2854	-2.3812	-2.125	-2.2375	-1.8563	-2.1875	-2.0708	-1.7521	-2.2708	-2.1708	-1.9625	312.140	49.347	32.009	69.184	148.050	42.268	282.964	342.293	85.933	63.275	280.409	34.953	323.144	247.228	-14.159	297.386	0.0004705	0.00066615	0.00018106	1236.3	1.8475e-06	1.0057e-05	1248.4	336.99	4.4098e-06	1.9549e-06	389.41	131.46	111.59	37.581	6.5e-06	47.246	0.0006593	0.00065788	0.00018612	1277.2	7.2977e-06	7.2565e-06	1273.8	347.1	7.2383e-06	7.2976e-06	401.56	147.21	116.28	39.333	7.272e-06	49.507	17.972	32.491	20.305	-1.864	35.798	119.917	-2.077	2.955	169.001	229.175	2.523	8.950	7.274	12.152	96.588	11.270	-8191	255	
1994.315	1	1	0	0	0.19424	0.1326	0.094547	0.23034	0.13233	0.093141	0.29151	0.18117	0.11114	0.042706	0.202	0.053039	0.20793	0.23754	0.11034	0.1178	-1.8438	-1.8771	-1.95	-2.2938	-1.8813	-2.225	-2.2354	-1.925	-2.2792	-1.8979	-1.9458	-2.2375	-1.9708	-2.2208	-2.0979	-1.9271	95.553	292.296	301.577	280.409	207.716	293.049	306.290	322.137	264.498	208.270	-5.488	144.115	245.429	333.766	272.763	254.149	0.00050954	0.00046418	0.00014379	1227.3	3.5031e-06	9.5772e-06	1247.6	337.65	2.5285e-06	4.0018e-06	388.09	133.48	110.46	37.606	3.2146e-06	47.657	0.00067032	0.00066985	0.00018736	1275.4	7.4036e-06	7.4251e-06	1276.4	347.27	7.3985e-06	7.4216e-06	401.67	148.89	116.24	39.36	7.5083e-06	49.624	0.328	8.590	82.256	-1.841	125.124	284.247	-1.855	3.143	28.924	131.669	2.317	9.309	7.261	12.023	101.613	10.934	-8191	255	
1994.436	1	1	0	0	0.19719	0.14308	0.30038	0.1039	0.31968	0.01514	0.31981	0.30582	0.12622	0.23716	0.20548	0.041533	0.17298	0.29051	0.04609	0.12046	-1.7896	-2.0563	-1.9333	-2.3229	-1.7708	-1.9417	-2.4167	-1.9229	-2.3146	-2.0958	-1.9688	-2.2583	-1.9771	-2.1146	-2.2458	-1.8229	82.745	48.661	139.822	65.157	254.963	238.811	242.591	283.140	242.320	98.074	272.933	65.335	39.716	13.125	-12.311	219.121	0.00071435	0.00038379	0.00015168	1235.1	5.2159e-06	9.2676e-06	1249.4	337.83	4.8577e-06	1.1057e-05	389.08	132.97	110.92	37.769	3.277e-06	47.329	0.00068193	0.0006826	0.00019038	1280.2	7.4745e-06	7.4962e-06	1279	347.84	7.4441e-06	7.482e-06	402.81	148.85	116.36	39.436	7.5095e-06	49.638	2.706	335.433	36.285	-1.701	152.912	46.254	-1.868	3.247	26.983	188.206	2.249	8.877	7.470	12.029	224.642	11.339	-8191	255	
1994.507	1	1	0	0	0.19216	0.24332	0.10188	0.0992	0.23078	0.27437	0.25407	0.11017	0.21411	0.047362	0.23558	0.092176	0.12894	0.23217	0.049663	0.18657	-1.8813	-2.1292	-1.8292	-2.425	-1.9937	-1.9937	-2.4646	-1.8417	-2.0354	-2.2833	-1.9167	-2.1875	-2.0125	-1.9854	-2.3646	-1.7833	227.312	113.941	313.218	211.042	97.115	234.015	291.788	283.006	120.757	6.092	187.115	311.043	-3.431	37.423	343.999	288.136	0.00059769	0.0012053	2.5482e-05	1237.2	3.4874e-06	5.6914e-06	1247.5	337.38	1.0055e-05	9.1383e-06	386.94	133.35	110.9	37.807	4.8513e-06	47.358	0.00068525	0.00068738	0.00019058	1282.5	7.5093e-06	7.4817e-06	1278.5	347.47	7.5094e-06	7.5009e-06	402.52	149.44	116.66	39.495	7.5393e-06	49.678	15.407	51.634	68.781	-1.747	194.444	316.526	-1.822	3.117	80.466	92.799	2.252	8.311	7.490	12.168	169.981	11.124	-8191	255	
1994.603	1	1	0	0	0.12766	0.13036	0.29572	0.054758	0.068053	0.3022	0.22697	0.36043	0.25704	0.019817	0.17841	0.35194	0.22049	0.16907	0.19595	0.2241	-1.5562	-2.1146	-1.7792	-2.3208	-1.8479	-2.0438	-2.3063	-2.0917	-2.175	-2.0771	-1.9208	-2.175	-1.9813	-2.0104	-2.1792	-1.9188	262.104	298.979	-7.694	19.030	189.336	324.028	335.982	323.127	246.151	314.230	44.575	150.262	225.901	320.136	139.370	247.834	0.00077824	0.00030609	0.00015837	1233.4	4.0789e-06	8.5975e-06	1251.5	337.9	1.0239e-05	5.5607e-06	390.69	130.33	110.63	37.785	4.8363e-06	47.467	0.00068613	0.00068952	0.00019299	1282.2	7.5999e-06	7.63e-06	1281.2	348.09	7.5711e-06	7.6575e-06	403.6	149.89	116.58	39.467	7.6773e-06	49.76	9.313	14.188	1.406	-1.374	116.055	98.441	-2.179	2.781	55.162	54.489	2.550	8.918	7.426	11.808	176.979	11.065	-8191	255	
1994.724	1	1	0	0	0.12509	0.13016	0.073677	0.16006	0.16341	0.027935	0.23046	0.054097	0.071521	0.11184	0.29032	0.085976	0.055286	0.27411	0.088757	0.19503	-1.5625	-2.0333	-1.5542	-2.2167	-2.0833	-1.9146	-2.6	-2.0958	-1.9542	-2.0875	-1.8458	-2.2729	-2.1625	-1.8521	-2.3479	-2.0687	176.087	83.958	319.491	173.559	110.485	44.100	307.509	35.996	57.206	332.787	308.030	252.336	320.310	326.855	299.648	259.510	0.0005354	0.0007822	6.4601e-05	1237.7	3.1346e-06	9.7952e-06	1257	338.09	4.328e-06	3.046e-06	390.18	134.73	111.29	37.789	1.3927e-05	47.414	0.00069464	0.00069948	0.00019479	1284.5	7.6495e-06	7.6213e-06	1282.5	348.02	7.6213e-06	7.6502e-06	402.92	150.67	116.89	39.595	7.6232e-06	49.737	-8.811	30.052	3.136	-1.966	238.602	69.783	-1.987	2.978	47.992	343.720	2.323	9.480	7.450	12.036	108.500	11.009	-8191	255	
1994.818	1	1	0	0	0.33239	0.11658	0.14392	0.2818	0.29689	0.2094	0.049598	0.36421	0.23458	0.13184	0.092989	0.077672	0.094853	0.20428	0.23579	0.092975	-1.4708	-2.1729	-1.8271	-2.3354	-2.2229	-1.8542	-2.5312	-2.0875	-1.9479	-2.4208	-2.0104	-2.1188	-2.1396	-1.7812	-2.1083	-2.0687	272.750	85.776	4.012	327.997	11.365	82.222	275.980	276.689	260.718	285.065	259.745	92.722	-13.647	272.128	215.233	255.851	0.00058749	0.00095336	0.00018538	1235.9	6.5332e-06	7.2956e-06	1250.2	337.09	3.749e-06	5.1056e-06	390.72	133.69	111.25	37.686	4.738e-06	47.432	0.00069347	0.00069791	0.0001928	1283.7	7.6332e-06	7.6043e-06	1278	347.25	7.5077e-06	7.5053e-06	402.83	149.12	116.56	39.352	7.4793e-06	49.738	8.548	43.622	66.801	-1.991	134.181	303.599	-1.926	3.110	113.582	167.150	2.489	9.843	7.454	12.040	123.681	10.969	-8191	255	
1994.915	1	1	0	0	0.23801	0.29251	0.26546	0.19925	0.095182	0.22358	0.28452	0.40488	0.28977	0.16358	0.21982	0.18248	0.06672	0.28637	0.17114	0.21548	-1.3958	-2.25	-2.0021	-2.1833	-2.0208	-1.9083	-2.3604	-2.0875	-1.9813	-2.2583	-2.1437	-2.1521	-2.2062	-2.0167	-2.1792	-2.3312	152.942	-6.581	169.396	153.120	41.194	115.664	255.666	294.978	29.370	86.076	320.278	124.708	15.884	0.645	234.994	204.933	0.00065288	0.0010166	7.8316e-05	1234.6	4.854e-06	6.7052e-06	1249.2	337.7	6.4681e-06	5.2748e-06	390.07	133.18	111.42	37.819	2.0032e-06	47.628	0.00068367	0.00068857	0.000191	1283.2	7.5571e-06	7.5564e-06	1277.8	347.58	7.5461e-06	7.467e-06	402.58	149.71	116.55	39.497	7.4802e-06	49.799	11.933	62.880	-13.842	-1.959	36.398	131.127	-2.068	3.029	17.768	130.668	2.583	8.463	7.211	12.038	198.979	11.193	-8191	255	
1995.011	1	1	0	0	0.32786	0.26916	0.097219	0.16069	0.13671	0.1888	0.11059	0.30469	0.12685	0.10142	0.25452	0.16915	0.19635	0.20305	0.25258	0.19522	-1.3458	-2.1729	-1.925	-2.0333	-2.3542	-1.7708	-2.2729	-2.3438	-1.9688	-2.3708	-2.075	-2.075	-2.475	-1.8979	-2.3688	-2.2583	74.318	123.756	-0.109	158.075	144.371	240.760	212.986	234.237	113.985	32.341	226.090	14.074	38.129	336.787	258.936	189.646	0.00066314	0.00028511	6.6895e-05	1226.2	6.8489e-06	9.4071e-06	1249	338.22	5.918e-06	1.1244e-05	389.07	132.64	111.68	37.805	5.136e-06	47.703	0.00068148	0.00068731	0.00019132	1278	7.5392e-06	7.5364e-06	1280.1	347.52	7.4671e-06	7.471e-06	402.42	149.14	116.62	39.457	7.529e-06	49.762	-8.068	57.260	101.317	-1.570	190.832	64.157	-1.870	3.152	211.700	116.184	2.617	7.854	7.322	11.841	79.466	11.377	-8191	255	
1995.107	1	1	0	0	0.26701	0.11292	0.10886	0.061938	0.12986	0.11123	0.23169	0.061863	0.23259	0.20008	0.15183	0.22122	0.23544	0.35543	0.08653	0.30512	-1.1187	-2.1667	-2.075	-1.9958	-2.2812	-1.9292	-2.3229	-2.3063	-1.7313	-2.2667	-2.1542	-1.8479	-2.35	-2.0187	-2.1917	-2.2396	88.118	111.369	305.227	217.586	17.398	276.369	256.808	60.737	183.691	69.496	297.502	33.367	14.162	294.564	138.506	308.585	0.00063499	0.00024349	0.00016859	1227.2	8.8632e-06	1.8218e-06	1250.9	337.5	9.7823e-06	6.6201e-06	387.77	134.31	111.02	37.77	1.1269e-05	47.711	0.00067494	0.00068906	0.00019135	1278.8	7.5188e-06	7.4981e-06	1278.2	347.42	7.4682e-06	7.5257e-06	402.32	148.92	116.59	39.448	7.4777e-06	49.765	-5.169	110.289	85.507	-1.443	59.844	104.128	-1.708	3.076	174.655	107.153	2.704	8.584	7.444	11.774	82.072	11.062	-8191	255	
1995.203	1	1	0	0	0.32013	0.35718	0.21928	0.043425	0.29004	0.21827	0.5024	0.31112	0.24341	0.13438	0.16193	0.1003	0.082569	0.26301	0.034345	0.085974	-1.1833	-2.2083	-1.8083	-2.0083	-2.2562	-1.9312	-2.1125	-2.3729	-1.6625	-2.25	-2.1167	-1.7604	-2.3354	-1.9542	-2.0458	-2.4396	-4.432	153.170	132.217	58.861	327.683	166.026	308.455	278.272	49.470	329.588	226.845	145.979	267.649	14.687	145.844	-0.460	0.00058153	0.0005859	0.00017858	1224.3	1.7501e-06	5.3492e-06	1254.2	337.35	6.8386e-07	2.1843e-06	390.51	133.3	111.18	37.816	9.8381e-06	47.488	0.00068355	0.00068421	0.00019133	1279.3	7.4774e-06	7.523e-06	1278.4	347.24	7.4226e-06	7.467e-06	402.39	148.36	116.41	39.473	7.5253e-06	49.645	-14.268	20.737	71.246	-1.822	254.971	243.405	-2.050	2.930	134.472	62.681	2.410	10.038	7.021	12.059	120.693	11.128	-8191	255	
1995.299	1	1	0	0	0.20228	0.10454	0.0039263	0.11551	0.15827	0.14968	0.081052	0.19621	0.27805	0.11349	0.34054	0.13637	0.049288	0.18055	0.13364	0.081967	-1.2104	-2.1146	-2.075	-1.675	-2.3167	-2.0896	-2.3646	-2.3187	-1.8521	-1.8958	-2.2771	-1.7479	-2.2521	-1.9521	-1.9208	-2.3646	46.586	265.723	47.465	-9.590	157.425	202.323	21.241	327.666	256.070	235.555	-5.681	250.556	186.854	188.456	6.470	220.630	0.00071321	0.0011547	0.00026213	1236.7	3.4299e-06	6.5234e-06	1251.6	337.53	9.505e-06	3.5343e-06	387.36	132.59	111.67	37.576	1.0879e-05	47.57	0.0006825	0.00068599	0.0001899	1279.8	7.5263e-06	7.5124e-06	1276.8	347.41	7.4988e-06	7.5532e-06	402.26	148.98	116.63	39.431	7.5336e-06	49.673	-7.578	36.150	88.690	-1.538	206.957	293.537	-1.912	3.002	-9.785	152.660	2.466	8.484	7.449	11.981	131.075	11.016	-8191	255	
1995.395	1	1	0	0	0.32543	0.10368	0.29448	0.15947	0.31851	0.13947	0.20388	0.60536	0.26038	0.25115	0.14028	0.2446	0.33689	0.31182	0.61463	0.067754	-1.0875	-2.1875	-2.0604	-1.7479	-2.1583	-2.0021	-2.0167	-2.4021	-1.9854	-2.0875	-2.4	-1.7	-2.2812	-2.1292	-1.7938	-2.3479	199.234	210.778	222.089	226.340	198.116	60.229	205.235	273.425	254.653	168.241	32.123	94.792	285.674	36.864	17.994	61.795	0.00041858	0.00039334	9.4019e-05	1237.3	3.4244e-06	1.0387e-05	1248.8	337.65	1.4852e-06	5.1601e-07	389.59	134.67	110.51	37.681	1.2718e-06	47.405	0.00068608	0.00068606	0.00019143	1280	7.5108e-06	7.4921e-06	1275.2	347.38	7.5117e-06	7.5341e-06	402.77	148.87	116.38	39.412	7.4724e-06	49.71	23.812	103.509	311.517	-1.916	-11.373	75.718	-1.957	2.956	107.256	23.490	2.455	7.787	7.438	11.769	275.549	11.143	-8191	255	
1995.516	1	1	0	0	0.20744	0.15574	0.13251	0.19602	0.10011	0.096588	0.14566	0.13987	0.16476	0.29269	0.13963	0.1429	0.077288	0.39976	0.19808	0.17457	-1.2563	-1.9271	-2.1542	-1.8854	-2.1833	-2.0187	-2.05	-2.4208	-1.7896	-2.0167	-2.0875	-1.7146	-2.1229	-2.0625	-1.7354	-2.2854	286.702	41.888	45.250	74.918	115.398	273.593	305.214	322.196	278.152	248.840	343.259	58.783	228.701	331.201	44.167	256.969	0.00092614	0.00040291	7.295e-05	1222.3	7.5359e-06	5.4889e-06	1249.5	337.45	5.1092e-06	6.0444e-06	387.55	131.31	111.45	37.63	1.0907e-05	47.39	0.0006778	0.00068778	0.00019222	1276.3	7.4856e-06	7.4619e-06	1276.4	347.29	7.4664e-06	7.4831e-06	401.57	148.23	116.3	39.402	7.4463e-06	49.579	7.617	8.922	229.743	-1.860	102.013	157.884	-1.714	2.958	86.012	123.627	2.491	8.076	7.336	11.925	132.240	11.073	-8191	255	
1995.612	1	1	0	0	0.10535	0.05827	0.2358	0.24153	0.18106	0.030385	0.29045	0.40496	0.31741	0.20821	0.16802	0.049748	0.12343	0.27257	0.16001	0.12377	-1.525	-1.9396	-2.2208	-1.9021	-2.1417	-2.1646	-1.9271	-2.35	-2.0708	-1.9542	-2.3479	-1.7812	-2.1667	-2.2917	-1.775	-2.5563	106.879	85.691	11.827	219.335	202.588	11.677	184.438	322.100	89.156	266.923	287.208	192.753	71.799	21.280	278.431	240.463	0.00060382	0.00022686	5.7819e-05	1224.5	3.7685e-06	5.2843e-06	1245.4	337.05	2.7673e-06	4.6219e-06	386.82	133.71	110.72	37.711	6.8432e-06	47.396	0.0006719	0.00067568	0.00018757	1275.9	7.4323e-06	7.4166e-06	1272.8	347.2	7.3488e-06	7.4833e-06	401.35	148.22	116.34	39.398	7.481e-06	49.715	4.906	34.898	99.380	-1.719	116.784	149.526	-1.934	2.858	298.891	10.217	2.320	9.328	7.481	11.889	176.636	11.406	-8191	255	
1995.708	1	1	0	0	0.27337	0.23481	0.15244	0.095165	0.27043	0.16702	0.58532	0.38721	0.13425	0.058454	0.28183	0.14842	0.2384	0.088547	0.10487	0.13911	-1.4896	-2.0167	-2.1896	-2.1792	-2.0458	-2.2021	-2.0854	-2.1771	-2	-1.825	-2.2896	-1.7917	-2.2771	-2.2042	-1.7292	-2.1875	155.930	266.462	315.496	24.156	335.316	92.813	315.479	326.772	53.101	120.483	291.264	108.496	236.996	-8.527	319.454	114.856	0.00053701	0.00058666	8.0185e-05	1229.2	5.6956e-06	4.5937e-06	1247.3	337.41	6.5801e-06	9.7101e-06	388.5	135.41	110.78	37.565	2.4881e-06	47.213	0.00067853	0.00068132	0.00018797	1275.3	7.4679e-06	7.4378e-06	1273.2	346.61	7.4063e-06	7.4466e-06	401.59	148.26	116.46	39.376	7.4193e-06	49.567	7.683	318.948	332.852	-1.597	48.017	29.658	-2.071	2.968	115.572	139.725	2.604	8.164	7.318	11.917	238.622	11.194	-8191	255	
1995.804	1	1	0	0	0.37988	0.13527	0.29157	0.28934	0.14387	0.073772	0.254	0.19936	0.22925	0.18495	0.2404	0.12487	0.17817	0.17684	0.27483	0.21042	-1.3708	-1.775	-2.0271	-1.8708	-1.825	-2.1833	-2.1292	-2.1125	-2.0375	-2.0083	-2.3479	-1.9208	-2.0833	-2.3271	-1.9062	-2.2	259.961	162.366	95.188	252.620	72.977	14.430	327.631	153.256	46.260	243.013	262.642	207.295	283.025	329.634	246.200	273.003	0.00039261	0.00081983	0.00019515	1227.1	1.7009e-06	2.1774e-06	1243.4	337.24	1.5529e-05	4.9873e-06	389.04	134.38	111.43	37.706	8.5046e-06	47.452	0.00067548	0.0006775	0.00019004	1275.4	7.4742e-06	7.4413e-06	1272.9	346.75	7.3752e-06	7.4343e-06	401.6	148.07	116.52	39.44	7.4323e-06	49.629	15.589	31.271	-8.179	-1.639	118.008	182.119	-1.872	2.873	65.816	246.629	2.444	9.134	7.102	12.312	93.805	10.844	-8191	255	
1995.899	1	1	0	0	0.14872	0.20201	0.29169	0.27527	0.1097	0.14948	0.179	0.34425	0.21284	0.16129	0.27647	0.051431	0.15337	0.27653	0.071242	0.15512	-1.6104	-1.7646	-2.1562	-1.9604	-1.9562	-2.3563	-2.0812	-2.2604	-2.1875	-1.9042	-2.3563	-1.9146	-2.0062	-2.475	-1.85	-2.1208	216.562	100.606	231.368	261.595	168.517	40.298	289.447	271.179	16.623	60.267	310.366	174.650	99.784	204.125	155.279	116.992	0.0004403	0.00031114	0.00016104	1226.8	1.5451e-06	6.1881e-06	1244.6	336.97	2.9674e-07	5.7204e-06	390.05	132.72	110.69	37.929	5.1015e-06	47.548	0.00067724	0.00067941	0.00018979	1274.5	7.458e-06	7.4177e-06	1273.3	346.76	7.3986e-06	7.4141e-06	402.12	148.31	116.02	39.448	7.4118e-06	49.674	31.593	51.018	81.569	-1.779	137.500	282.183	-1.818	3.038	121.668	273.620	2.269	8.623	7.682	12.072	41.638	10.990	-8191	255	
1995.997	1	1	0	0	0.31696	0.24329	0.20489	0.11098	0.13161	0.20762	0.24036	0.21655	0.13915	0.22634	0.27914	0.3133	0.27327	0.27078	0.042245	0.19564	-1.7667	-1.625	-2.1937	-2.1688	-1.7958	-2.2687	-2.1562	-1.9917	-2.3771	-1.9042	-2.3396	-2.0146	-1.7167	-2.2458	-1.9896	-2.0646	-0.617	225.180	172.694	10.375	30.060	208.137	267.781	-11.882	304.332	5.585	298.812	150.476	70.819	34.914	274.026	166.875	0.00062294	0.00067796	0.00014932	1232.4	3.0986e-06	3.8963e-06	1244	338.35	1.105e-05	1.741e-06	387.88	135.18	110.54	37.618	1.0077e-05	47.42	0.00067222	0.00067668	0.00018829	1278.2	7.4161e-06	7.4411e-06	1273.1	346.98	7.4147e-06	7.4183e-06	401.71	148.44	116.26	39.398	7.4545e-06	49.58	14.789	131.013	44.315	-1.698	133.272	158.365	-1.812	2.881	115.210	156.228	2.466	9.317	7.732	12.076	152.925	11.102	-8191	255	
1996.116	1	1	0	0	0.33205	0.11483	0.082588	0.084315	0.11851	0.11751	0.083853	0.24607	0.29177	0.29156	0.20385	0.21605	0.22504	0.045516	0.051809	0.20567	-1.6021	-1.7604	-2.3063	-2.1813	-1.7333	-2.3542	-2.0729	-1.9917	-2.1104	-1.9312	-2.1583	-2.1792	-1.8312	-2.375	-1.9062	-2.1125	252.809	76.742	49.454	173.340	15.346	342.462	234.042	278.692	229.947	259.808	331.440	36.078	341.359	330.351	209.150	225.234	0.00039589	0.00066781	6.7435e-05	1222.2	5.5058e-06	5.8733e-06	1249.3	336.92	1.4985e-06	4.0886e-06	388.29	133.93	110.94	37.722	4.1757e-06	47.51	0.00067855	0.00067959	0.00019031	1274.4	7.4503e-06	7.3866e-06	1275.9	346.92	7.4072e-06	7.4427e-06	401.21	147.62	116.25	39.392	7.4047e-06	49.654	16.975	105.553	15.345	-1.747	165.295	253.093	-2.064	2.949	18.191	140.608	2.402	9.523	7.437	12.198	78.472	11.236	-8191	255	
1996.212	1	1	0	0	0.18613	0.026715	0.11363	0.12502	0.12582	0.11262	0.2737	0.39453	0.18052	0.18875	0.33878	0.039515	0.23407	0.24899	0.085719	0.56601	-1.7708	-1.7958	-1.8625	-2.2562	-1.8021	-2.0875	-2.2583	-2.1271	-2.3979	-1.9875	-2.1208	-2.0312	-1.7563	-2.3958	-2.0042	-1.7458	82.174	166.487	165.186	340.216	286.958	127.607	249.882	292.692	331.692	344.012	324.589	183.052	339.587	319.948	284.167	319.721	0.00065635	0.00050326	0.0001702	1226.3	2.0388e-06	5.39e-06	1241.5	336.75	1.2963e-05	7.0351e-06	388.61	133.65	110.71	37.915	3.9945e-06	47.863	0.00067518	0.00067743	0.00018876	1273.2	7.4226e-06	7.4013e-06	1272.4	346.38	7.375e-06	7.4845e-06	401.92	147.31	116.19	39.485	7.4379e-06	49.656	12.063	79.373	74.933	-1.595	158.341	200.557	-1.962	3.131	76.384	216.765	2.496	8.193	7.376	12.310	67.838	11.022	-8191	255	
1996.308	1	1	0	0	0.17913	0.24034	0.13201	0.077152	0.23743	0.26429	0.12106	0.15321	0.14558	0.13501	0.33276	0.12501	0.1423	0.13481	0.30852	0.44041	-1.8417	-2.0104	-1.8771	-2.2479	-1.7729	-2.2438	-2.3438	-1.9979	-2.0979	-1.9708	-1.9937	-2.1771	-2.0167	-2.0187	-1.9771	-1.7938	231.265	75.198	238.230	9.565	186.996	223.458	331.429	320.658	200.948	75.095	305.549	290.223	219.468	229.003	180.679	261.211	0.00036836	0.00045034	7.8215e-05	1229	6.603e-06	1.1942e-05	1240.2	336.26	8.9495e-06	9.8877e-06	389.09	134.16	111.23	37.702	1.0423e-05	47.622	0.00067274	0.00068111	0.00018943	1274.5	7.4238e-06	7.3804e-06	1270.7	346.64	7.398e-06	7.3688e-06	401.34	148.26	116.2	39.348	7.4465e-06	49.585	0.092	46.779	4.506	-1.512	65.884	85.696	-2.004	2.965	-11.320	142.402	2.545	8.863	7.391	11.848	168.129	11.092	-8191	255	
1996.404	1	1	0	0	0.16704	0.079763	0.082928	0.11312	0.12187	0.14211	0.1069	0.24746	0.30028	0.097694	0.18937	0.05839	0.17791	0.33109	0.12553	0.30246	-1.6708	-1.8708	-1.7792	-2.2146	-1.5625	-2.1437	-2.375	-1.7396	-2.0375	-2.0792	-2.0479	-2.2771	-1.9979	-2.1813	-2.2562	-1.8083	336.108	215.206	97.433	344.190	298.091	239.533	309.373	291.124	90.369	4.633	255.892	-3.374	325.765	286.113	148.188	39.564	0.00057798	0.00014811	6.868e-05	1223	9.5003e-06	9.2663e-06	1242.6	336.41	4.822e-06	1.2559e-05	387.71	135.67	111.11	37.612	3.0893e-06	47.541	0.00067809	0.00068288	0.00018802	1272.2	7.4745e-06	7.4792e-06	1271.1	346.34	7.3886e-06	7.467e-06	401.29	148.12	116.51	39.414	7.4493e-06	49.689	344.581	184.545	113.423	-1.659	147.198	140.382	-1.924	2.741	105.451	165.020	2.350	8.889	7.345	12.205	144.233	11.095	-8191	255	
1996.500	1	1	0	0	0.10996	0.19378	0.093422	0.010759	0.057926	0.099793	0.31426	0.18183	0.063628	0.10208	0.17757	0.22874	0.14817	0.17564	0.10411	0.37292	-1.5208	-2.0729	-1.8667	-2.2562	-1.8312	-1.9479	-2.2938	-1.9	-2.3187	-2.0854	-1.8583	-2.2333	-1.6562	-1.8792	-2.2917	-1.6688	23.526	-6.804	34.135	-0.210	294.832	20.521	298.717	251.301	312.483	220.004	298.807	202.606	323.387	41.719	54.008	276.537	0.00074998	0.00060448	9.8504e-05	1223.4	2.4728e-06	8.3087e-06	1244.9	337.15	3.3468e-06	3.7609e-06	387.79	131.42	111.11	37.799	7.6846e-06	47.592	0.00067603	0.00068244	0.00019044	1272.1	7.5032e-06	7.4609e-06	1273.5	346.67	7.4255e-06	7.4843e-06	401.31	147.33	116.34	39.436	7.366e-06	49.614	27.808	69.204	10.288	-1.826	90.390	23.961	-2.031	3.005	27.013	199.976	2.424	8.343	7.241	11.842	208.405	11.246	-8191	255	
1996.596	1	1	0	0	0.22045	0.18172	0.24176	0.23784	0.2953	0.20428	0.23816	0.29948	0.091198	0.074052	0.29377	0.087275	0.40791	0.2983	0.2138	0.23438	-1.6333	-2.0896	-1.6063	-2.2167	-1.8062	-1.8958	-2.3771	-1.8917	-2.175	-2.0729	-1.9271	-2.0375	-1.9583	-1.8583	-2.2438	-1.8188	328.559	140.675	295.788	93.720	284.539	193.708	250.826	322.412	187.407	14.206	278.779	213.512	26.442	5.902	48.154	140.741	0.00049031	0.00071101	9.8673e-05	1224.6	4.1798e-06	1.5077e-05	1244.6	337.34	7.7389e-06	8.7988e-06	387.63	137.85	111.07	37.834	3.2753e-06	47.611	0.00067336	0.00067361	0.00018893	1273.8	7.4429e-06	7.4495e-06	1274	346.77	7.4186e-06	7.4466e-06	401.53	148.5	116.36	39.457	7.4002e-06	49.695	19.001	80.372	328.966	-1.709	57.387	110.787	-1.898	2.998	198.931	74.081	2.320	8.520	7.353	11.943	179.673	11.384	-8191	255	
1996.692	1	1	0	0	0.061278	0.029647	0.42656	0.19815	0.13345	0.1931	0.34092	0.4309	0.19335	0.13579	0.075919	0.23723	0.13573	0.12573	0.35204	0.21067	-1.6854	-2.0729	-1.7563	-2.1708	-1.9083	-1.95	-2.3812	-1.9354	-2.0938	-2.1917	-1.8771	-2.0771	-2.075	-2.0312	-2.3896	-1.9021	168.481	237.072	55.354	71.569	102.773	108.694	300.675	310.337	126.362	197.103	239.041	331.566	263.139	8.352	226.474	313.133	0.00065635	0.00038201	7.0507e-05	1233.1	5.1826e-06	1.4891e-05	1240.4	336.51	3.9988e-07	1.7578e-06	389.8	133.2	111.11	37.979	3.4949e-06	47.655	0.00067512	0.00067419	0.00018882	1274.7	7.466e-06	7.4519e-06	1271.9	346.53	7.4423e-06	7.4844e-06	401.54	148.72	116.51	39.523	7.4173e-06	49.697	9.595	27.389	208.872	-1.911	110.030	121.168	-1.876	3.076	328.802	56.151	2.367	8.808	7.009	11.890	190.250	11.085	-8191	255	
1996.789	1	1	0	0	0.23464	0.10997	0.18241	0.059298	0.1474	0.19792	0.28243	0.21758	0.17535	0.061068	0.064013	0.17142	0.14949	0.063272	0.39246	0.15603	-1.4312	-2.0083	-1.8312	-2.0687	-2.0208	-1.8354	-2.3792	-1.9688	-1.7062	-2.1	-2.0021	-2.0917	-2.1771	-2.0292	-2.1604	-2.0333	77.215	183.645	185.224	275.385	288.679	200.565	287.972	337.052	229.155	53.941	40.619	26.882	50.816	262.615	216.388	247.254	0.00060565	0.00071514	0.00016321	1225	6.7414e-06	3.1004e-06	1244.1	336.1	9.0819e-06	8.2189e-06	388.56	131.87	111.35	37.783	4.954e-06	47.659	0.00068021	0.00068125	0.00018973	1274.6	7.51e-06	7.5097e-06	1273.8	346.25	7.4383e-06	7.4555e-06	401.86	148.6	116.66	39.487	7.5081e-06	49.811	-4.463	20.783	123.084	-1.729	244.491	91.991	-1.958	2.881	145.028	72.424	2.481	9.558	7.530	12.296	40.947	11.192	-8191	255	
1996.908	1	1	0	0	0.32245	0.19966	0.09891	0.14197	0.038513	0.13063	0.32207	0.30114	0.10804	0.10684	0.098329	0.12024	0.21263	0.31182	0.084872	0.087379	-1.5042	-2.2792	-1.7229	-2.2208	-2.0312	-2.0021	-2.4896	-2.0958	-1.9937	-2.3771	-1.9042	-2.0042	-2.1875	-1.9396	-2.0375	-2.1729	51.753	342.813	199.867	343.706	200.414	2.068	318.650	281.151	7.875	107.121	89.901	281.010	22.872	-1.423	199.145	323.411	0.00051474	0.00064617	7.4418e-05	1228.5	5.5777e-06	1.4389e-06	1243.5	336.63	8.0649e-06	6.5925e-06	388.4	134.17	111.66	37.853	1.0926e-06	47.646	0.00068124	0.00068265	0.00018941	1276.3	7.5046e-06	7.4061e-06	1274.4	346.33	7.4278e-06	7.495e-06	402	148.8	116.62	39.499	7.4769e-06	49.715	341.543	80.628	105.065	-1.923	121.419	13.007	-1.955	3.108	163.291	105.883	2.479	7.923	7.615	12.223	153.364	10.913	-8191	255	
1996.979	1	1	0	0	0.13851	0.16106	0.23522	0.12917	0.085941	0.235	0.36005	0.10459	0.17194	0.17401	0.28999	0.15304	0.22688	0.16419	0.11568	0.039442	-1.2167	-2.0854	-1.7812	-2.0146	-2.125	-1.6562	-2.4896	-2.3708	-1.8354	-2.2875	-1.9542	-2.0229	-2.25	-1.9813	-2.3	-2.0479	313.828	263.535	20.246	-14.120	257.079	196.175	261.351	293.567	277.598	127.764	238.331	174.268	229.466	2.368	107.882	267.642	0.00073813	0.00082916	0.0002464	1224.5	3.4192e-06	5.9506e-06	1248.9	336.84	5.3176e-06	4.9496e-06	388.15	131.32	110.51	37.847	6.5782e-06	47.6	0.00067994	0.00068233	0.00019014	1270.2	7.4913e-06	7.4827e-06	1274.1	346.48	7.4817e-06	7.4977e-06	401.43	148.57	116.34	39.523	7.4607e-06	49.721	-10.838	89.285	10.913	-1.955	113.234	309.305	-1.790	3.014	82.677	197.224	2.402	8.951	7.482	11.955	149.926	10.996	-8191	255	
1997.077	1	1	0	0	0.10888	0.1233	0.16234	0.10924	0.22891	0.15002	0.21459	0.16866	0.093157	0.18589	0.11529	0.20368	0.23446	0.2859	0.13584	0.18399	-1.3583	-2.375	-1.8583	-2.1625	-2.2729	-1.7646	-2.2938	-2.3771	-1.9667	-2.3292	-2.1333	-2	-2.3479	-2.0042	-2.1667	-2.3771	142.722	143.981	17.751	54.171	343.139	289.402	245.605	309.353	331.427	259.290	255.210	335.231	331.667	46.986	130.386	77.634	0.00064115	0.00037618	0.00012189	1230	4.5442e-06	8.3188e-06	1243.3	336.56	6.1686e-06	8.0645e-06	387.62	130.4	111.01	37.91	1.3141e-06	47.54	0.00067604	0.00068084	0.00019001	1277.1	7.4525e-06	7.4986e-06	1274.3	346.28	7.4369e-06	7.5013e-06	401.7	148.23	116.71	39.58	7.5333e-06	49.739	-4.320	126.171	129.524	-1.510	72.156	136.848	-1.886	2.995	91.993	229.566	2.520	8.469	7.327	11.958	167.500	11.103	-8191	255	
1997.196	1	1	0	0	0.048809	0.26852	0.15239	0.036566	0.13783	0.26685	0.14279	0.17552	0.40398	0.18655	0.17686	0.19115	0.041607	0.47769	0.15763	0.19592	-1.5646	-2.2229	-1.9646	-2.0625	-2.2375	-1.8104	-2.4167	-2.3708	-1.6646	-2.3917	-2.1083	-1.9604	-2.2583	-2.1021	-1.9792	-2.3125	318.882	178.507	7.552	279.729	204.820	-14.268	280.174	30.650	335.344	177.421	308.495	263.275	292.532	-8.180	228.112	324.351	0.00048875	0.00060791	0.00011426	1227.2	4.4985e-06	1.0784e-05	1242.7	336.12	8.6581e-06	7.9863e-06	387.04	134.18	111.39	37.777	2.9715e-06	47.704	0.00068231	0.00068694	0.00019152	1276.7	7.5021e-06	7.481e-06	1273.5	346.38	7.4509e-06	7.4983e-06	401.61	148.77	116.92	39.529	7.4935e-06	49.863	1.806	69.805	24.585	-1.712	118.689	129.937	-1.916	3.059	112.884	104.880	2.269	8.625	7.461	12.158	117.760	10.867	-8191	255	
1997.292	1	1	0	0	0.033209	0.27243	0.40364	0.24563	0.21988	0.22223	0.22648	0.2777	0.2292	0.18303	0.20393	0.24918	0.14358	0.18849	0.3578	0.075132	-1.3583	-2.1937	-1.8667	-2.0104	-2.5708	-1.8854	-2.1958	-2.2271	-1.7229	-2.1083	-2.1937	-1.9333	-2.2333	-1.7479	-2.1042	-2.1562	90.610	232.565	127.490	331.376	63.751	341.157	315.791	264.912	3.857	58.542	264.866	103.025	190.155	19.904	151.840	174.676	0.00057306	9.1768e-05	0.00015106	1236.9	6.9068e-07	1.1494e-05	1250.5	337	4.2479e-06	5.7924e-06	389.55	132.74	111.43	37.634	8.2529e-06	47.711	0.00067994	0.00067896	0.00019004	1279.7	7.4417e-06	7.48e-06	1275.4	346.79	7.4378e-06	7.4847e-06	402.06	148.91	116.62	39.52	7.43e-06	49.829	16.996	18.293	84.322	-1.962	318.070	83.392	-1.896	3.255	153.580	125.071	2.561	9.997	7.320	12.198	157.246	11.008	-8191	255	
1997.388	1	1	0	0	0.24443	0.13296	0.14037	0.079723	0.14199	0.1926	0.34379	0.090923	0.19977	0.16156	0.30554	0.059943	0.063626	0.11071	0.17058	0.12365	-1.1583	-2.1437	-1.9813	-1.7042	-2.1625	-2.0521	-2.1292	-2.3479	-1.6833	-2.1896	-2.2292	-1.8708	-2.2896	-2.0042	-1.8	-2.2396	341.286	327.360	235.743	111.613	-4.654	193.148	306.949	308.844	85.002	47.272	310.607	-5.597	6.994	-5.220	175.516	273.449	0.00063668	0.00075747	4.8571e-05	1233.5	7.6388e-06	6.8012e-06	1244.7	335.75	6.9671e-06	3.499e-06	388.91	132.42	111.44	37.771	3.8582e-06	47.748	0.00067326	0.00067965	0.00018929	1278.3	7.4034e-06	7.4089e-06	1273.8	346.33	7.4468e-06	7.4556e-06	402.37	148.66	116.79	39.535	7.4849e-06	49.803	-14.836	44.006	36.578	-1.597	119.536	45.608	-1.833	3.007	54.531	157.897	2.493	8.524	7.266	12.238	124.408	11.103	-8191	255	
1997.509	1	1	0	0	0.21909	0.24873	0.31258	0.086629	0.070015	0.08027	0.055249	0.15404	0.10627	0.064061	0.14771	0.1697	0.078118	0.24522	0.059578	0.16506	-1.4646	-2.1375	-2.1854	-2.0146	-2.0917	-2.1979	-2.3042	-2.3917	-1.7854	-2.0938	-2.3208	-1.8188	-2.2667	-2.1958	-1.9813	-2.3417	-9.367	341.492	257.824	316.501	260.679	174.216	85.098	229.332	312.013	202.818	206.356	327.845	227.514	-8.098	265.771	342.970	0.00061259	0.00063988	3.1989e-05	1230.1	4.204e-06	1.1837e-05	1241.3	336.79	1.0318e-06	2.0233e-06	388.18	129.7	111.59	37.587	9.093e-07	47.764	0.00068459	0.00068711	0.00019124	1277.3	7.5202e-06	7.6038e-06	1275.6	346.43	7.5945e-06	7.5813e-06	401.99	149.19	116.98	39.511	7.4917e-06	49.828	-2.168	85.984	138.490	-2.130	68.150	163.264	-1.857	3.147	68.647	265.453	2.543	8.726	7.348	11.948	290.918	11.037	-8191	255	
1997.605	1	1	0	0	0.26865	0.1511	0.17368	0.052188	0.093384	0.17097	0.33802	0.31199	0.18978	0.16029	0.21339	0.13083	0.053819	0.099362	0.2025	0.12519	-1.4479	-2.1146	-2.3458	-1.7479	-2.2604	-2.1063	-2.1271	-2.4396	-1.7042	-2.0208	-2.2229	-1.8521	-2.1646	-2.225	-1.8417	-2.3021	29.926	-8.211	112.421	-8.812	46.306	-7.246	337.768	218.206	234.881	162.686	203.246	118.456	-5.154	95.661	161.114	191.228	0.00056509	0.00020978	1.4359e-05	1230.6	3.9005e-06	1.1179e-05	1244.4	336.56	8.1174e-06	4.3461e-06	387.71	130.32	110.95	37.724	4.0139e-06	47.431	0.00068584	0.00068889	0.00019135	1278.8	7.5479e-06	7.609e-06	1277.8	347.21	7.5472e-06	7.5765e-06	402.43	148.65	116.57	39.541	7.5722e-06	49.78	-4.925	154.193	125.150	-1.801	195.725	67.420	-1.807	2.987	182.102	156.599	2.528	8.891	7.408	12.032	61.125	11.170	-8191	255	
1997.677	1	1	0	0	0.16411	0.19377	0.25423	0.088369	0.30302	0.25633	0.23066	0.24867	0.15983	0.15786	0.089082	0.017941	0.35857	0.1769	0.027583	0.1401	-1.6417	-1.8771	-2.1229	-2.0042	-2.0771	-2.1521	-2.1271	-2.3917	-1.8937	-2.0854	-2.3312	-1.9729	-2.1833	-2.3208	-1.7062	-2.2729	60.413	236.099	327.006	163.157	78.301	335.892	252.460	326.161	15.035	69.020	319.997	263.788	52.432	304.413	307.575	172.904	0.00050526	0.00099933	0.00016849	1233.6	5.8629e-06	8.2519e-06	1248.5	336.94	4.9716e-06	4.7439e-06	389.3	132.63	112.15	37.912	9.1408e-07	47.72	0.0006837	0.0006885	0.00019156	1280.2	7.5525e-06	7.4746e-06	1279.5	346.76	7.5719e-06	7.5289e-06	402.97	148.82	117.22	39.577	7.5679e-06	49.845	-9.989	49.566	165.406	-1.528	135.980	147.139	-1.841	2.841	-7.065	95.243	2.612	8.932	7.239	12.173	158.861	11.063	-8191	255	
1997.797	1	1	0	0	0.052035	0.081494	0.17123	0.028252	0.23107	0.042834	0.1462	0.37276	0.14911	0.17895	0.30456	0.29827	0.28498	0.37362	0.027845	0.21345	-1.5021	-1.7792	-2.2188	-1.9458	-2.0104	-2.0667	-2.1417	-2.2917	-2.0854	-2.075	-2.2938	-1.7479	-2.1354	-2.2271	-1.8979	-2.3063	279.061	327.041	177.151	209.043	278.332	332.371	253.470	293.845	165.988	32.136	230.583	29.923	327.753	298.602	283.770	62.177	0.00057596	0.00050467	0.00011291	1228.3	9.7035e-06	1.6816e-05	1244.5	336.47	5.1618e-06	1.0217e-05	388.44	136.1	111.64	37.837	7.0486e-06	47.875	0.00068333	0.00069122	0.00019202	1281.8	7.5341e-06	7.5873e-06	1279.7	346.67	7.5566e-06	7.538e-06	403.05	149.74	117	39.579	7.5464e-06	49.943	13.815	152.958	-13.932	-2.032	144.157	105.241	-1.583	3.052	36.477	43.903	2.616	8.577	7.558	12.047	75.440	11.340	-8191	255	
1997.892	1	1	0	0	0.22705	0.091334	0.077462	0.079751	0.092687	0.092401	0.2971	0.11319	0.19829	0.1199	0.16207	0.20456	0.31772	0.3624	0.15859	0.12545	-1.4896	-1.7125	-2.1604	-2.0104	-2.0667	-2.2604	-1.8896	-2.1896	-2.0708	-2.025	-2.1833	-1.9854	-1.9333	-2.2833	-1.8458	-2.2458	-0.761	93.476	268.975	155.737	63.315	268.132	275.504	278.600	75.977	339.828	161.137	83.399	59.948	336.962	29.396	190.663	0.00068385	0.000415	0.00013279	1230.8	4.5036e-06	6.7138e-06	1246.7	336.27	9.1564e-06	4.444e-06	390.22	133.59	111.84	37.874	6.2663e-06	47.453	0.00068844	0.00069096	0.00019393	1280.2	7.6082e-06	7.6263e-06	1277.4	347.04	7.6039e-06	7.6543e-06	403.68	149.89	117.09	39.602	7.5557e-06	49.802	3.225	151.282	49.183	-1.681	50.202	162.257	-1.841	3.192	91.324	155.881	2.495	9.254	7.254	12.099	110.279	11.104	-8191	255	
1997.988	1	1	0	0	0.38813	0.026995	0.1075	0.10402	0.27089	0.062199	0.25471	0.3117	0.32763	0.19558	0.19672	0.14887	0.032562	0.28092	0.26904	0.35541	-1.4542	-1.9417	-2.3208	-1.9979	-1.9188	-2.2979	-1.9604	-2.2	-2.1583	-1.8521	-2.35	-2.0208	-1.95	-2.4042	-2.0833	-2.2042	27.431	178.587	298.250	250.161	183.284	268.561	235.818	-12.123	135.691	236.600	239.608	83.031	339.048	164.909	192.781	275.330	0.00051863	0.000523	0.0001711	1225.8	6.1561e-06	5.1728e-06	1248.2	337.58	5.8143e-06	2.5726e-06	391.21	131.75	111.2	37.945	5.6799e-06	47.49	0.00068331	0.00069154	0.00019252	1280.1	7.5486e-06	7.5513e-06	1278.8	347.5	7.4905e-06	7.5435e-06	402.99	149.23	116.94	39.574	7.5267e-06	49.728	340.065	170.649	236.066	-1.741	124.915	136.964	-1.893	3.113	27.947	128.231	2.500	8.792	7.277	12.010	102.054	11.028	-8191	255	
1998.084	1	1	0	0	0.055011	0.23787	0.33788	0.12324	0.23621	0.1418	0.14593	0.23117	0.34733	0.039663	0.30134	0.26644	0.4247	0.046302	0.36595	0.18738	-1.7167	-1.6354	-2.1312	-1.9708	-1.7687	-2.1646	-2.2104	-2.1375	-1.9979	-1.7042	-2.3688	-2.0375	-1.8396	-2.3312	-1.8125	-2.1292	103.440	100.136	186.673	40.640	48.625	332.293	280.344	250.334	223.202	1.509	309.624	5.693	335.176	63.114	99.184	190.525	0.00048973	0.0004766	8.662e-05	1227.5	3.792e-06	5.647e-06	1250.3	337.94	8.9094e-06	1.3589e-05	389.36	133.96	111.32	37.91	3.0842e-06	47.905	0.00068273	0.00068889	0.00019133	1278.8	7.4771e-06	7.4859e-06	1277.9	347.22	7.4623e-06	7.5039e-06	402.15	149.13	116.81	39.56	7.4124e-06	49.916	6.151	-13.266	254.411	-1.717	215.344	119.039	-1.807	2.989	248.640	158.070	2.554	8.648	7.463	12.011	94.828	11.478	-8191	255	
1998.205	1	1	0	0	0.23242	0.153	0.19243	0.43182	0.16875	0.17306	0.26255	0.29405	0.057257	0.26637	0.24053	0.052508	0.40608	0.080726	0.2172	0.15831	-1.6604	-1.7083	-2.1813	-2.0938	-1.7375	-2.3646	-2.0125	-1.9646	-2.3125	-1.9458	-2.225	-1.9354	-1.675	-2.1979	-2.1854	-1.9979	176.395	104.840	68.082	297.113	10.424	148.062	128.839	322.260	50.125	121.850	306.650	267.742	286.868	296.374	0.200	109.405	0.00074126	0.00045344	0.00011655	1231.3	4.2504e-06	5.7962e-06	1246.7	337.73	1.2064e-05	1.1276e-05	388.97	131.78	111.51	37.829	5.2749e-06	47.632	0.00067635	0.00068196	0.00018747	1275.8	7.4487e-06	7.4119e-06	1275.3	347.24	7.4631e-06	7.4825e-06	402.39	148.49	117.07	39.583	7.4334e-06	49.764	4.469	115.215	28.042	-1.632	99.958	236.028	-2.016	3.139	121.934	162.092	2.666	9.653	7.100	11.903	171.425	11.164	-8191	255	
1998.276	1	1	0	0	0.11248	0.061697	0.26681	0.27866	0.43907	0.20426	0.28762	0.2495	0.10243	0.1791	0.23787	0.17153	0.20825	0.0983	0.19162	0.12005	-1.9417	-1.9854	-1.8813	-2.2521	-1.5229	-2.1188	-2.2208	-2.0333	-2.1354	-1.9771	-2.075	-2.0792	-1.8521	-2.0687	-2.0708	-1.9604	-13.342	239.901	206.998	338.046	214.161	153.883	296.258	295.726	292.087	204.493	333.498	-5.135	148.932	255.170	322.028	118.569	0.0006363	0.0002555	6.3853e-05	1233	4.1463e-06	7.1586e-06	1248.3	335.69	1.5071e-05	4.3038e-06	388.68	133.07	111	37.936	5.0033e-06	47.77	0.00066874	0.000677	0.0001873	1275.4	7.3614e-06	7.3356e-06	1275.2	346.29	7.381e-06	7.4441e-06	402.11	148.34	116.65	39.664	7.4538e-06	49.821	9.042	88.892	95.187	-1.677	164.727	170.801	-1.788	2.939	149.145	221.416	2.397	8.322	7.395	11.989	110.861	11.141	-8191	255	
1998.372	1	1	0	0	0.106	0.13124	0.21409	0.248	0.10493	0.20047	0.28243	0.16446	0.2098	0.12374	0.22827	0.3097	0.24636	0.12376	0.17148	0.2252	-1.8146	-1.8062	-1.9292	-2.1896	-1.925	-2.1813	-2.2792	-2.0667	-2.1583	-1.8937	-2.2687	-2.2521	-1.9604	-2.1625	-1.9292	-1.8771	149.060	327.933	15.856	253.917	259.456	174.910	245.900	307.801	150.669	184.174	251.707	249.181	-5.975	184.441	250.882	280.966	0.00047023	0.00039385	0.00013992	1227.1	5.7696e-06	9.7275e-06	1249.8	337.22	1.052e-05	8.5023e-06	389.8	133.19	111.53	37.78	2.2105e-06	47.473	0.00067447	0.00068265	0.00018982	1278.7	7.5287e-06	7.5118e-06	1278.1	346.85	7.5034e-06	7.5296e-06	403.09	148.65	116.94	39.568	7.4537e-06	49.778	332.085	13.594	216.965	-1.925	147.944	167.318	-1.951	3.209	40.990	105.212	2.425	8.973	7.390	12.051	125.736	10.987	-8191	255	
1998.469	1	1	0	0	0.21365	0.056341	0.15913	0.26207	0.028212	0.22345	0.19041	0.2464	0.10888	0.27992	0.14412	0.29271	0.25969	0.16604	0.074104	0.18651	-1.8292	-1.9646	-1.7625	-2.2354	-1.8813	-2.3563	-2.3521	-1.9646	-2.1	-2.0417	-1.9708	-2.1896	-1.8854	-2.0708	-2.25	-1.7417	-13.945	137.000	63.562	7.446	66.528	258.345	307.149	28.517	70.945	213.629	308.325	90.074	244.578	27.810	258.954	251.502	0.00040039	0.00044908	0.00017309	1231.9	7.4719e-06	8.0491e-06	1248.1	336.04	8.8694e-06	2.332e-06	389.97	136.04	111.47	38.023	5.9047e-06	47.676	0.00068182	0.00068321	0.00019141	1280.6	7.4609e-06	7.5545e-06	1276.9	346.62	7.4765e-06	7.5047e-06	403.17	148.82	117.08	39.639	7.55e-06	49.875	4.832	27.781	80.348	-1.940	160.824	125.382	-1.814	3.097	66.204	248.660	2.450	9.051	7.357	12.044	227.110	10.672	-8191	255	
1998.589	1	1	0	0	0.17642	0.22614	0.082634	0.21904	0.14352	0.18769	0.40438	0.25037	0.077998	0.083772	0.095532	0.1586	0.24189	0.21349	0.062809	0.15694	-1.9062	-2.0042	-1.7854	-2.3875	-1.9396	-2.2812	-2.4	-1.8083	-2.1292	-2.1021	-1.8979	-2.2604	-1.8917	-2.125	-2.1604	-1.9042	252.614	158.127	-3.848	317.857	174.757	106.065	282.802	301.911	214.073	265.579	142.076	271.757	3.684	-0.400	194.668	-12.087	0.00062034	0.00041587	0.00012353	1228.9	2.0084e-06	1.5295e-06	1247	336.34	9.1623e-06	4.1439e-06	389.36	136.32	110.9	37.793	5.5961e-06	47.624	0.00068444	0.0006942	0.00019382	1278.4	7.612e-06	7.5862e-06	1278	347.14	7.5855e-06	7.577e-06	402.87	149.73	117.11	39.59	7.6026e-06	49.899	18.468	120.410	73.281	-1.630	62.391	88.916	-1.905	3.044	120.009	132.379	2.334	8.832	7.225	12.202	118.263	10.901	-8191	255	
1998.685	1	1	0	0	0.10551	0.36442	0.26321	0.25192	0.13663	0.17398	0.1741	0.13021	0.10403	0.22365	0.16574	0.14472	0.046869	0.040313	0.16604	0.15608	-1.6896	-2.1021	-1.7979	-2.2687	-1.9188	-2.0417	-2.3396	-2.0146	-2.1562	-2.1458	-1.8229	-2.1562	-2.05	-1.9854	-2.0938	-1.8937	9.925	294.912	3.521	274.401	165.501	182.494	280.819	-11.618	-9.485	40.162	278.624	234.553	141.733	89.339	77.606	340.719	0.00046526	0.0011542	7.7963e-05	1234.1	2.0052e-06	7.9167e-06	1247	338.64	1.0228e-05	7.3807e-06	389.29	132.63	111.8	38.044	1.1085e-05	47.624	0.0006904	0.00069379	0.00019394	1281.1	7.5167e-06	7.5378e-06	1276.3	347.62	7.5091e-06	7.5393e-06	402.61	149.09	116.95	39.721	7.5043e-06	49.834	5.830	110.029	37.510	-1.686	94.398	128.736	-1.826	2.958	38.478	186.454	2.498	9.398	7.374	12.129	108.313	11.125	-8191	255	
1998.782	1	1	0	0	0.26023	0.046138	0.17651	0.15849	0.075889	0.26028	0.19935	0.17938	0.18588	0.13736	0.13971	0.090379	0.14882	0.18758	0.08883	0.29729	-1.5958	-2.1667	-1.7896	-2.1771	-1.9104	-1.8583	-2.4	-2.0812	-2.1396	-2.1354	-1.9375	-2.2458	-2.0646	-1.9271	-2.2333	-1.9729	48.088	226.221	29.545	326.525	90.338	-2.256	280.500	283.127	144.006	42.401	61.801	34.965	258.164	275.981	317.222	203.945	0.00081377	0.00075854	5.5517e-05	1225.4	2.5227e-06	1.2916e-05	1247.4	337.06	8.3623e-06	6.932e-06	389.02	134.25	111.82	37.956	3.4864e-06	47.883	0.00068163	0.000689	0.00019226	1280.4	7.5041e-06	7.5584e-06	1276.8	346.89	7.379e-06	7.448e-06	402.96	148.07	116.92	39.674	7.4321e-06	49.96	7.838	29.703	238.166	-1.789	6.958	78.127	-1.918	3.306	148.728	100.972	2.459	9.545	7.480	11.803	308.638	10.757	-8191	255	
1998.878	1	1	0	0	0.12985	0.20692	0.14392	0.17417	0.29123	0.27805	0.47723	0.14601	0.18102	0.212	0.20176	0.10194	0.10141	0.25508	0.32642	0.26913	-1.5271	-2.2313	-1.6375	-2.3604	-2.0646	-1.9604	-2.5479	-2.0687	-2.1437	-2.4604	-1.9958	-2.0938	-2.0292	-1.8813	-2.225	-1.9937	237.015	284.979	101.357	66.046	14.439	80.054	311.200	68.430	179.690	28.850	215.651	303.469	-5.467	292.949	242.330	312.902	0.00088172	0.00040524	0.00021634	1229.3	3.0306e-06	7.8712e-06	1251.1	337.04	4.9152e-06	1.2586e-06	387.31	134.72	112.04	38.099	3.6152e-06	47.777	0.00067346	0.00067454	0.00018828	1279.2	7.4439e-06	7.4487e-06	1279.2	347.13	7.3665e-06	7.4013e-06	402.83	149.33	117.18	39.714	7.4593e-06	49.85	18.358	102.206	-14.753	-1.432	128.315	109.306	-1.975	3.113	146.410	208.413	2.464	8.355	7.094	12.081	82.968	11.230	-8191	255	
1998.972	1	1	0	0	0.14	0.26322	0.36801	0.13524	0.064345	0.22157	0.17727	0.23006	0.089511	0.17128	0.095519	0.34867	0.11706	0.11632	0.080237	0.23932	-1.4729	-2.2125	-1.7271	-2.0979	-2.0708	-1.9708	-2.6042	-1.9833	-1.9729	-2.3271	-2.0396	-2.1188	-2.2271	-1.9792	-2.2521	-2.0396	295.568	-0.642	290.431	66.485	73.390	253.072	234.095	317.072	232.826	293.439	229.060	-0.528	239.604	264.519	63.288	-9.332	0.00067439	0.00055293	9.0123e-05	1232.4	5.0238e-06	1.0229e-05	1249	336.92	4.1822e-06	6.5215e-06	390.84	135.72	111.13	37.839	4.0215e-06	47.721	0.00068116	0.00067904	0.00018938	1276.8	7.4809e-06	7.443e-06	1276.3	347.08	7.488e-06	7.4526e-06	403.68	148.83	117	39.655	7.4693e-06	49.951	344.143	116.039	87.399	-2.126	136.320	156.111	-2.013	2.981	92.079	79.744	2.485	8.758	7.648	12.097	152.600	11.264	-8191	255	
1999.070	1	1	0	0	0.10651	0.25181	0.13014	0.22933	0.21334	0.31125	0.28001	0.34603	0.25937	0.3451	0.11324	0.25202	0.051321	0.25386	0.094457	0.23595	-1.3354	-2.3042	-1.6208	-2.3333	-2.1542	-1.7771	-2.4208	-2.2646	-1.9958	-2.4042	-2.0854	-2.1	-2.2396	-2.0062	-2.3438	-2.0625	313.842	47.926	32.897	294.454	219.963	258.884	222.680	-13.744	254.328	70.086	180.221	135.387	292.040	309.882	230.273	303.710	0.0006556	0.00040858	8.863e-05	1225.4	4.1692e-06	7.1306e-06	1254.8	337.36	8.1879e-06	1.4941e-06	390.87	133.08	111.47	37.83	6.0456e-06	47.787	0.0006754	0.00068319	0.00018984	1277.1	7.4865e-06	7.4463e-06	1278.5	347.14	7.389e-06	7.4991e-06	403.89	149.16	117.05	39.613	7.4452e-06	49.873	3.847	338.416	28.656	-1.733	133.514	178.347	-1.945	3.017	102.783	55.349	2.413	10.149	7.435	11.799	65.703	11.389	-8191	255	
1999.189	1	1	0	0	0.17085	0.13029	0.17141	0.077456	0.09651	0.18781	0.35901	0.095089	0.21857	0.2436	0.45948	0.10222	0.20913	0.15513	0.28988	0.11347	-1.3646	-2.175	-1.9562	-2.0354	-2.2938	-2.0583	-2.25	-2.1646	-1.7083	-2.2021	-1.9521	-1.8604	-2.2792	-1.9667	-2.1958	-2.2646	204.879	296.019	173.465	126.375	33.994	39.224	340.853	137.520	193.513	306.686	298.348	110.300	321.620	334.790	260.893	97.304	0.00045457	0.00051519	0.00017655	1237.2	8.9715e-06	1.1043e-05	1249.2	337.29	4.2104e-06	2.5266e-06	390.44	134.97	111.99	37.939	8.4175e-06	47.958	0.0006869	0.0006847	0.00019068	1280.7	7.5181e-06	7.5271e-06	1277.9	347.39	7.4655e-06	7.5085e-06	403.8	149.64	117.28	39.622	7.5272e-06	49.963	-0.317	55.937	146.404	-1.779	132.515	119.232	-1.915	2.876	54.194	15.817	2.339	8.154	7.666	12.086	121.477	11.141	-8191	255	
1999.285	1	1	0	0	0.098646	0.21515	0.12565	0.17311	0.10403	0.20054	0.035959	0.1816	0.33111	0.28564	0.20197	0.098442	0.10654	0.029483	0.11008	0.25438	-1.2958	-2.2854	-2.1188	-2.075	-2.2375	-2.0854	-2.4437	-2.1833	-1.8542	-2.2458	-1.9562	-1.8833	-2.2292	-1.8583	-2.1521	-2.3063	196.407	321.848	232.959	135.442	231.532	291.851	155.461	222.977	238.342	333.303	312.670	143.947	238.069	315.636	275.584	280.018	0.00045575	0.00074421	0.00010365	1232.8	4.8637e-06	1.0524e-05	1248.7	337.42	7.2266e-06	9.6171e-06	388.77	133.51	111.77	37.943	3.0782e-06	47.696	0.00068073	0.0006878	0.00019331	1279.8	7.5679e-06	7.585e-06	1279.6	347.37	7.5585e-06	7.4649e-06	403.46	150.33	117.39	39.698	7.5368e-06	49.884	4.749	66.299	78.802	-1.914	161.138	234.111	-1.827	3.052	106.153	100.555	2.205	8.585	7.371	11.712	222.073	11.123	-8191	255	
1999.381	1	1	0	0	0.098229	0.17484	0.10583	0.2628	0.081852	0.15483	0.1565	0.27341	0.094724	0.16988	0.18733	0.21375	0.12742	0.16291	0.21196	0.019718	-1.3188	-2.2625	-2.175	-1.9646	-2.1833	-1.7583	-2.5021	-2.4167	-1.8687	-2.1667	-2.0979	-1.9042	-2.4313	-2.0042	-2.0438	-2.5375	134.036	268.194	39.764	65.217	203.188	51.704	285.967	8.407	168.346	291.873	37.496	269.786	264.787	-10.625	204.612	24.708	0.00055014	0.0006611	0.00021271	1228.5	5.0179e-06	5.168e-06	1252.5	338.3	6.7982e-06	3.0056e-06	390.68	131.17	111.73	37.902	4.8578e-06	47.781	0.00068324	0.0006894	0.00019296	1281.1	7.5612e-06	7.5379e-06	1278.5	347.7	7.4984e-06	7.4935e-06	404.2	149.24	117.27	39.674	7.5553e-06	49.968	3.851	2.605	12.099	-1.595	161.408	290.727	-1.841	2.976	147.338	109.258	2.413	9.781	7.276	12.131	177.627	11.085	-8191	255	
1999.477	1	1	0	0	0.22276	0.24607	0.14351	0.21679	0.085786	0.12329	0.26069	0.36158	0.21322	0.25673	0.1489	0.1812	0.046888	0.20524	0.15086	0.070837	-1.3458	-2.1125	-2.2146	-1.8271	-2.3125	-1.9042	-2.2479	-2.4542	-1.9083	-2.2687	-2.1479	-1.8625	-2.2917	-2.1188	-2.05	-2.4292	249.778	180.566	161.114	164.608	220.763	30.578	285.755	284.286	30.039	167.478	85.653	152.783	254.025	290.615	342.071	285.060	0.00046606	0.00028822	0.00014344	1236.7	3.1311e-06	8.0271e-06	1249	337.53	7.0264e-06	9.5098e-06	391.52	134.53	111.85	37.974	6.1012e-06	47.777	0.00068367	0.00068159	0.00018921	1279	7.4164e-06	7.4337e-06	1279.4	347.52	7.4002e-06	7.4651e-06	404.09	149	117.2	39.643	7.4355e-06	49.898	-6.252	77.881	53.270	-1.607	121.548	19.603	-2.012	2.956	130.530	319.955	2.396	8.671	7.238	12.113	189.186	10.949	-8191	255	
1999.573	1	1	0	0	0.12432	0.21737	0.2761	0.25513	0.20882	0.12739	0.37069	0.14225	0.033279	0.099658	0.21501	0.056277	0.26924	0.20317	0.31606	0.46638	-1.3167	-1.9521	-2.1208	-1.7313	-2.3187	-2.0687	-2.1167	-2.7062	-1.8104	-2.0979	-2.2479	-1.7062	-2.4333	-2.1437	-2.0062	-2.5208	223.920	91.412	343.077	294.453	32.835	73.254	298.768	325.823	186.702	-6.884	312.228	310.488	297.530	268.635	118.596	183.778	0.00057539	0.00036628	0.00015037	1230.1	4.8457e-06	4.2066e-06	1245.1	337.27	2.1175e-06	4.8652e-06	392.03	134.08	112.24	38.039	5.6118e-06	47.587	0.000672	0.00067977	0.00018856	1279.9	7.3715e-06	7.4377e-06	1277.5	347.17	7.4077e-06	7.3481e-06	404.28	148.12	117.24	39.687	7.4145e-06	50.008	4.451	36.261	31.177	-1.831	120.067	164.767	-1.825	3.088	103.746	73.747	2.540	8.432	7.125	12.239	199.956	11.353	-8191	255	
1999.670	1	1	0	0	0.040167	0.14511	0.1194	0.15014	0.13532	0.18149	0.3212	0.090173	0.21087	0.036753	0.13037	0.16387	0.31589	0.17209	0.1126	0.27776	-1.725	-2.1083	-2.2687	-1.9	-2.1958	-2.0687	-2.0771	-2.4688	-2.0396	-2.1667	-2.3167	-1.9917	-2.3646	-2.2313	-1.8396	-2.4083	114.036	194.521	-3.875	58.667	323.151	222.626	299.003	241.155	217.333	-13.726	271.646	45.808	323.004	232.023	303.899	76.221	0.00066508	0.00045648	0.00015071	1226.6	4.8945e-06	1.1979e-05	1255.2	337.8	9.2812e-06	5.9282e-06	391.04	135.5	112.07	38.082	3.2062e-06	47.793	0.00067121	0.00068038	0.0001905	1280.4	7.4577e-06	7.4844e-06	1281.2	348.06	7.4514e-06	7.4685e-06	404.3	149.43	117.24	39.725	7.43e-06	49.936	1.801	92.335	78.338	-1.528	59.910	188.156	-1.943	2.956	133.275	147.459	2.424	8.237	7.168	11.875	120.920	10.982	-8191	255	
1999.766	1	1	0	0	0.17415	0.15979	0.093106	0.28308	0.15714	0.35388	0.22694	0.04349	0.18464	0.05415	0.31311	0.41812	0.19419	0.017861	0.2862	0.13865	-1.4	-1.9521	-2.3438	-1.7437	-2.2771	-2.1813	-2.2146	-2.2833	-1.8792	-1.8021	-2.3083	-1.9937	-2.3604	-2.3542	-1.6646	-2.275	-7.713	268.228	146.719	256.946	183.906	96.596	299.490	248.689	164.382	33.757	7.082	219.117	312.185	36.942	250.810	39.475	0.00071399	0.00041399	5.2708e-05	1233.6	2.9357e-06	4.9547e-06	1249.7	338.12	5.6031e-06	6.2655e-06	392.39	134.35	111.73	38.026	6.682e-06	48.072	0.00066944	0.00067609	0.00018752	1278.5	7.3712e-06	7.4698e-06	1279.7	347.86	7.391e-06	7.3953e-06	404.5	148.71	117.15	39.697	7.4376e-06	49.986	-3.932	40.780	250.686	-2.080	171.299	105.270	-1.942	3.110	176.997	105.072	2.375	9.412	7.358	12.042	133.897	10.919	-8191	255	
1999.885	1	1	0	0	0.24661	0.12829	0.21729	0.015037	0.27903	0.061112	0.18237	0.16131	0.41507	0.17066	0.36208	0.17896	0.1692	0.099802	0.22597	0.084512	-1.4021	-1.9771	-2.1583	-1.9792	-2.1292	-2.2583	-2.0708	-2.4562	-1.9542	-1.85	-2.375	-1.8875	-2.0458	-1.9854	-1.8833	-2.1958	212.406	111.572	16.819	177.779	-8.619	1.135	280.747	295.108	29.523	337.722	309.159	309.456	167.257	293.598	303.854	310.676	0.00049664	0.00038558	0.0001528	1236.9	4.5282e-06	1.3735e-05	1254.3	338.68	4.7786e-06	3.7819e-06	389.31	133.27	110.94	37.845	2.6704e-06	47.683	0.00067201	0.00067966	0.00018955	1281.1	7.426e-06	7.4277e-06	1279.1	347.54	7.4131e-06	7.5297e-06	403.34	149.23	117.04	39.678	7.5202e-06	49.915	-2.515	27.472	106.817	-1.879	101.119	102.535	-1.820	2.834	134.859	118.143	2.356	9.579	7.480	11.944	168.575	11.076	-8191	255	
1999.981	1	1	0	0	0.24526	0.096975	0.20071	0.17137	0.2664	0.11935	0.34923	0.29289	0.074613	0.088323	0.28757	0.23446	0.12577	0.30726	0.14964	0.26262	-1.4188	-1.6812	-2.3312	-1.9354	-2.0292	-2.2687	-1.8604	-2.3167	-2.0083	-1.7771	-2.3854	-1.95	-2.0687	-2.2354	-1.5917	-2.2417	98.652	-5.866	321.986	260.639	136.688	195.396	308.155	296.840	57.561	117.158	336.144	25.737	283.700	291.310	2.354	328.455	0.00072778	0.0006	6.1598e-05	1227.9	5.0878e-06	5.9868e-06	1250.9	337.53	1.6994e-06	2.3081e-06	391.25	134.7	112.88	37.951	7.9729e-06	47.966	0.00068453	0.00068302	0.00019009	1276.9	7.4836e-06	7.5543e-06	1279.3	347.69	7.4521e-06	7.5182e-06	404.3	149.16	117.36	39.668	7.4803e-06	49.974	12.919	85.040	135.840	-1.888	91.572	234.592	-1.979	2.933	180.091	214.387	2.538	8.675	7.167	12.071	161.297	11.103	-8191	255	
2000.077	1	1	0	0	0.23428	0.19107	0.13462	0.12499	0.2063	0.17065	0.1012	0.1389	0.23171	0.13267	0.18865	0.022238	0.055219	0.42052	0.068443	0.13041	-1.6854	-1.8396	-2.2042	-1.9333	-1.8792	-2.3292	-1.9979	-2.3	-2.1917	-1.8646	-2.1979	-2.0104	-1.8958	-2.3771	-1.9375	-2.2708	224.304	287.499	-4.463	93.133	25.055	207.716	-4.817	-9.268	320.593	180.145	327.147	-3.573	327.428	323.931	42.078	313.227	0.00065846	0.00024149	3.5359e-05	1235.3	3.1917e-06	1.173e-05	1246.7	337.57	5.5186e-06	5.8661e-06	392.55	133.02	111.53	37.978	9.496e-06	47.878	0.00067792	0.00067784	0.00018888	1280	7.4257e-06	7.4173e-06	1278	347.51	7.4085e-06	7.4194e-06	404.4	148.16	116.92	39.639	7.3884e-06	49.891	-1.879	100.904	308.889	-1.617	121.880	17.178	-1.833	2.995	264.399	60.607	2.594	9.395	7.439	11.916	234.421	10.936	-8191	255	
2000.150	1	1	0	0	0.14288	0.17425	0.092388	0.21687	0.16945	0.29455	0.20071	0.22382	0.322	0.27037	0.34957	0.15401	0.12785	0.18032	0.070966	0.21399	-1.7	-1.9083	-2.2229	-2.1125	-1.9125	-2.4479	-2.1729	-2.325	-2.2875	-1.7833	-2.4146	-2.1375	-1.8604	-2.3229	-2.0333	-1.9958	135.591	11.739	175.512	94.357	303.121	240.693	266.947	308.785	298.482	269.815	285.077	343.629	0.186	278.447	207.350	278.030	0.00085465	0.0005431	0.00012422	1228.4	7.3399e-06	6.2493e-06	1248.7	338.21	1.0873e-05	6.897e-07	387.13	134.02	111.42	38.037	1.404e-06	47.697	0.00067555	0.00067392	0.00018891	1276.5	7.4464e-06	7.4558e-06	1279.3	347.52	7.4636e-06	7.4396e-06	403.24	148.44	116.91	39.605	7.4175e-06	49.841	6.091	17.846	101.772	-2.061	66.032	210.560	-1.759	3.137	27.119	130.599	2.239	9.210	7.264	12.260	145.786	11.187	-8191	255	
2000.269	1	1	0	0	0.34964	0.071633	0.079783	0.05409	0.16219	0.058575	0.24271	0.14012	0.13245	0.13431	0.23482	0.023185	0.083442	0.10772	0.19013	0.23846	-1.6063	-1.7417	-2.1958	-2.1854	-1.9667	-2.4083	-2.1625	-2.05	-2.2771	-1.8917	-2.2167	-2.0167	-2.0042	-2.3771	-1.8833	-2.1271	-4.149	341.355	101.787	3.830	79.392	310.622	342.271	248.752	210.331	282.485	269.322	316.996	325.277	324.719	30.113	309.879	0.00074316	0.00033119	0.00020979	1231.4	2.7265e-06	3.2368e-06	1253.7	337.83	6.3685e-06	1.1903e-06	390.88	134.48	111.81	38.059	3.2586e-06	47.943	0.00067251	0.00068262	0.00018873	1278.1	7.4508e-06	7.4223e-06	1278.6	347.78	7.4265e-06	7.4401e-06	403.07	148.28	116.79	39.654	7.3769e-06	49.948	343.589	57.578	48.184	-1.716	20.055	264.872	-1.953	2.996	6.118	15.031	2.290	8.220	7.178	12.038	103.135	11.021	-8191	255	
2000.365	1	1	0	0	0.078167	0.13173	0.23356	0.20119	0.054912	0.10255	0.21156	0.26739	0.048013	0.084196	0.17437	0.055136	0.31124	0.20254	0.12847	0.21027	-1.5667	-1.8229	-2.0792	-2.1833	-1.8521	-2.1729	-2.2438	-2.0917	-2.2979	-2.0354	-2.3438	-2.2562	-1.9375	-2.2979	-2.0208	-2.1604	-11.733	145.617	330.809	5.037	306.864	341.574	315.927	258.232	69.063	9.440	313.124	165.979	275.124	264.404	62.784	81.198	0.00066549	0.00022847	0.00012894	1230.8	3.7593e-06	4.735e-06	1250.8	336.79	1.452e-05	9.7742e-06	389.21	132.01	111.9	37.877	4.6341e-06	47.807	0.000669	0.00067107	0.00018788	1278.2	7.3733e-06	7.3779e-06	1278.2	347.44	7.3633e-06	7.38e-06	403.01	147.98	116.88	39.668	7.3723e-06	49.938	8.216	131.947	37.233	-1.775	156.172	235.709	-2.014	2.995	100.419	52.512	2.301	7.471	7.654	12.067	143.180	11.158	-8191	255	
2000.462	1	1	0	0	0.096911	0.231	0.13606	0.22641	0.12728	0.072222	0.37549	0.24617	0.04808	0.34356	0.23533	0.24167	0.16525	0.21023	0.17861	0.092314	-1.7667	-1.8708	-2.0917	-2.1625	-1.8083	-2.2062	-2.3729	-2.1646	-2.3396	-1.9271	-2.1437	-2.375	-1.9333	-2.1833	-2.175	-1.8917	109.811	197.890	247.205	202.551	126.857	83.491	295.361	14.558	157.751	253.494	345.038	116.156	316.692	314.843	265.388	166.557	0.0008916	0.00042938	0.00018669	1229.6	4.2158e-06	1.0846e-05	1252.3	338.29	4.0249e-06	5.489e-06	390.38	134.46	111.12	37.841	4.8252e-06	47.664	0.00067835	0.00068437	0.00018945	1279.4	7.4897e-06	7.4758e-06	1281.6	347.88	7.4786e-06	7.5294e-06	403.28	148.78	116.98	39.613	7.5464e-06	49.918	5.112	92.786	87.705	-2.369	77.749	118.340	-1.980	3.106	173.056	162.457	2.510	7.458	7.395	12.005	103.198	10.945	-8191	255	
2000.558	1	1	0	0	0.15497	0.3463	0.17383	0.071861	0.14187	0.073321	0.29527	0.043524	0.16773	0.074063	0.19305	0.19261	0.19753	0.22834	0.16604	0.059191	-1.7104	-2.0167	-1.9646	-2.2771	-1.9062	-2.1896	-2.2604	-1.8687	-2.3271	-1.85	-2.0083	-2.4146	-1.8937	-2.4292	-2.0812	-2.1688	68.356	323.973	275.812	231.321	322.123	318.074	251.289	164.181	60.581	48.259	44.588	51.456	328.994	266.883	319.497	307.344	0.00059744	0.00065917	2.5022e-05	1239.1	9.1042e-07	6.3316e-06	1250.3	338.12	6.2017e-06	4.6629e-06	391.02	135.53	111.27	37.955	3.538e-06	47.687	0.00069055	0.00068557	0.00019277	1286.1	7.5446e-06	7.5461e-06	1279.2	347.84	7.478e-06	7.5267e-06	404.12	149.66	117.23	39.601	7.5245e-06	49.918	18.821	10.938	88.150	-1.798	281.125	118.720	-1.970	2.865	73.187	55.383	2.591	8.705	7.494	12.214	108.410	11.118	-8191	255	
2000.678	1	1	0	0	0.29731	0.21663	0.081231	0.13664	0.21411	0.13853	0.14789	0.049287	0.098712	0.31199	0.14967	0.092748	0.16489	0.23744	0.15724	0.064417	-1.5417	-2.0479	-1.8708	-2.2708	-1.9625	-2.0771	-2.4833	-1.925	-2.2646	-2.05	-2.1312	-2.2708	-1.8792	-2.3	-2.2292	-1.95	109.804	160.036	42.995	16.737	197.255	114.311	-0.603	229.174	102.125	-4.781	244.583	4.586	340.548	277.802	4.908	53.234	0.00047969	0.00015997	0.00015004	1235.4	1.0373e-05	4.9995e-06	1251	337.82	8.1563e-06	1.7827e-06	388.78	136.36	111.92	37.964	6.6598e-06	47.811	0.00068024	0.00068506	0.0001919	1280.9	7.5192e-06	7.5759e-06	1281.2	347.77	7.5024e-06	7.5804e-06	403.62	149.31	117.31	39.732	7.5644e-06	49.944	17.562	110.330	0.790	-1.915	171.551	248.148	-2.050	2.838	48.269	115.349	2.580	9.111	7.160	12.166	104.699	11.273	-8191	255	
2000.773	1	1	0	0	0.093288	0.25095	0.19171	0.10799	0.17338	0.076387	0.081069	0.29305	0.40965	0.23324	0.10834	0.13192	0.18944	0.22616	0.046501	0.028521	-1.7333	-1.9792	-1.7625	-2.2896	-1.9917	-2.0625	-2.4562	-2.0542	-2.1167	-2.2417	-2.0208	-2.1667	-2.0021	-2.3167	-2.3625	-1.8687	311.769	15.880	109.260	316.460	129.594	298.580	313.362	295.182	258.447	126.639	165.369	-8.669	114.035	310.390	219.854	203.425	0.00052665	0.00051886	0.00016542	1239.1	5.8055e-06	4.841e-06	1250.7	337.55	1.3967e-05	3.1535e-06	390.77	134.79	110.57	37.881	6.9681e-06	47.664	0.00069415	0.00069141	0.00019301	1284	7.6198e-06	7.6385e-06	1281.9	347.61	7.577e-06	7.6555e-06	404.57	149.88	116.87	39.657	7.5694e-06	49.941	-12.808	112.691	66.168	-1.817	165.435	69.229	-1.871	3.074	101.451	24.439	2.504	8.994	7.273	12.176	144.716	11.054	-8191	255	
2000.871	1	1	0	0	0.088863	0.069489	0.21765	0.3539	0.25177	0.066376	0.29908	0.27097	0.11581	0.14437	0.37814	0.20576	0.28774	0.1177	0.14733	0.32025	-1.7125	-2.2646	-1.8312	-2.3937	-1.9208	-1.7917	-2.3604	-2.0062	-2.1646	-2.2521	-1.9	-2.0438	-2.1	-1.8875	-2.2167	-2.1208	87.377	237.385	274.425	285.646	323.239	226.594	319.443	276.552	187.111	7.056	334.109	339.310	273.820	241.674	48.429	280.985	0.0008507	0.00045109	8.0084e-05	1236.9	7.8398e-07	4.5016e-06	1258.4	338.9	8.2723e-06	6.5784e-07	390.35	132.32	112.07	37.87	5.6663e-06	47.644	0.00068286	0.00068878	0.00019074	1283.8	7.4785e-06	7.4511e-06	1284	348.15	7.4341e-06	7.4829e-06	403.73	149.19	117.19	39.633	7.4408e-06	49.914	8.377	90.111	291.487	-1.780	285.601	136.556	-1.877	3.021	40.054	109.216	2.548	8.188	7.261	11.976	7.037	11.148	-8191	255	
2000.965	1	1	0	0	0.15585	0.15383	0.10696	0.22024	0.030157	0.29783	0.33253	0.079483	0.17555	0.14645	0.12859	0.2009	0.16607	0.17839	0.29066	0.036067	-1.6167	-2.1229	-1.7646	-2.1167	-2.0146	-1.8146	-2.5375	-2.1125	-2.1437	-2.2021	-1.9625	-2.1604	-2.05	-2.0917	-2.3438	-2.025	113.400	326.071	40.678	278.659	156.624	125.941	320.258	225.975	207.042	107.880	254.114	85.358	321.332	4.367	283.096	119.664	0.00065501	0.00066611	0.00015374	1236.3	1.6956e-06	1.3173e-06	1251.2	337.54	2.2065e-06	4.3313e-06	389.12	135.8	111.59	37.936	1.0106e-05	47.816	0.00066858	0.00067922	0.0001888	1282	7.3563e-06	7.4107e-06	1280.6	347.65	7.3443e-06	7.3643e-06	403.04	148.21	116.88	39.609	7.3933e-06	49.849	7.147	39.322	93.138	-1.666	190.997	56.126	-1.959	2.986	313.640	158.777	2.443	8.123	7.489	12.011	145.201	10.761	-8191	255	
2001.061	1	1	0	0	0.10648	0.13253	0.19736	0.21759	0.080724	0.13314	0.23021	0.32715	0.20179	0.1404	0.17103	0.082949	0.15055	0.046339	0.17933	0.27398	-1.4937	-2.1271	-1.9854	-2.1875	-2.1562	-1.8229	-2.4208	-2.0438	-1.9	-2.2021	-1.7354	-2.1146	-2.2417	-1.8792	-2.2479	-1.9479	192.224	34.213	170.494	-9.410	193.712	161.257	273.191	325.733	330.105	78.966	16.944	283.072	204.778	18.588	127.711	-7.393	0.00037296	0.00050843	0.00012513	1234.2	8.6804e-06	1.3229e-05	1254.3	336.9	9.1287e-06	5.607e-06	390.53	132.75	111.4	37.922	8.5586e-06	47.954	0.00067334	0.00067455	0.00018881	1282.1	7.4934e-06	7.5138e-06	1281.4	347.67	7.4481e-06	7.4945e-06	404.55	149.27	117.08	39.678	7.4884e-06	49.963	2.104	119.383	95.948	-1.657	90.772	151.417	-1.908	2.895	-3.313	132.965	2.612	9.963	6.907	11.750	296.787	10.969	-8191	255	
2001.157	1	1	0	0	0.099745	0.11482	0.14275	0.11969	0.10321	0.16345	0.1596	0.10049	0.090318	0.27017	0.23236	0.16685	0.16833	0.31762	0.15826	0.27495	-1.55	-2.2917	-1.7917	-2.1688	-2.1271	-1.7729	-2.475	-2.1354	-1.7563	-2.4021	-1.8062	-1.9312	-2.0771	-1.7437	-2.1188	-2.1729	105.252	341.738	125.919	48.672	82.621	250.253	219.823	-0.902	96.763	156.083	264.261	274.855	277.812	64.603	91.956	308.374	0.00053857	0.00052118	9.3829e-05	1230.2	5.4269e-06	1.1433e-05	1251.1	336.28	5.0605e-06	9.8205e-07	390.11	134.3	111.58	37.887	6.4159e-06	47.688	0.00067988	0.00068937	0.00019086	1281.9	7.4774e-06	7.5006e-06	1280	347.69	7.4279e-06	7.4885e-06	403.19	148.61	117.05	39.649	7.5013e-06	49.897	9.283	258.819	15.319	-1.841	99.455	47.753	-1.968	3.079	107.267	240.019	2.512	8.661	7.137	12.246	114.355	11.030	-8191	255	
2001.278	1	1	0	0	0.16461	0.19135	0.21549	0.11323	0.019977	0.22272	0.2764	0.19442	0.13189	0.084374	0.43695	0.58277	0.15729	0.13202	0.21415	0.27467	-1.375	-2.4521	-1.8167	-2.0687	-2.3083	-1.6542	-2.3271	-2.1396	-1.7458	-2.3937	-2.0896	-1.85	-2.3667	-2.0563	-2.1646	-2.1667	195.694	0.110	313.711	276.718	211.242	343.846	284.520	205.363	271.728	308.125	-2.132	93.066	216.861	169.812	198.935	5.792	0.00065586	0.00041574	0.00012663	1229.7	8.0336e-06	1.476e-05	1254.1	338.71	7.443e-06	6.0285e-06	391.33	133.07	111.82	37.99	2.731e-06	47.883	0.00067791	0.00068319	0.00018977	1279.4	7.4838e-06	7.491e-06	1281.3	347.96	7.4664e-06	7.4503e-06	403.78	148.91	117.07	39.615	7.5203e-06	49.896	5.486	3.615	32.053	-1.894	42.486	64.354	-1.864	2.988	176.685	157.270	2.310	8.834	7.508	12.025	43.687	11.003	-8191	255	
2001.374	1	1	0	0	0.19714	0.27403	0.1109	0.09535	0.08206	0.18144	0.29494	0.11618	0.046688	0.15753	0.20571	0.36214	0.18415	0.31665	0.15122	0.28539	-1.5396	-2.2917	-2.0292	-2.1417	-2.1146	-1.7021	-2.2188	-2.3063	-1.8813	-2.3146	-1.9833	-1.9354	-2.2771	-1.9458	-2.0167	-2.2	318.433	217.376	22.436	264.398	118.973	237.165	245.888	271.276	116.512	178.837	206.545	56.002	27.855	233.715	321.969	258.620	0.00059686	0.00069059	5.0734e-05	1226.7	5.3691e-06	9.1849e-06	1250.5	337.22	7.1657e-06	6.7454e-06	389.97	133.68	112.15	37.835	3.6995e-06	47.592	0.00068501	0.00068999	0.00019053	1282.8	7.5228e-06	7.5703e-06	1281.8	347.56	7.5577e-06	7.5589e-06	403.75	149.62	117.29	39.56	7.5598e-06	49.935	341.616	82.180	103.243	-1.673	115.620	111.924	-1.908	2.849	93.225	138.632	2.456	8.356	7.304	11.926	120.498	11.001	-8191	255	
2001.446	1	1	0	0	0.41716	0.1065	0.16645	0.1261	0.082709	0.30661	0.35983	0.29665	0.087007	0.17178	0.20207	0.22974	0.16591	0.15633	0.26666	0.11314	-1.2792	-2.4167	-2.0542	-1.7042	-2.2562	-1.8625	-2.2229	-2.4521	-1.875	-2.1083	-2.15	-1.9917	-2.2229	-1.8833	-1.9708	-2.2917	179.775	170.839	115.957	65.757	145.544	86.971	308.655	296.035	-5.401	157.436	-14.026	325.052	60.853	15.006	328.587	278.383	0.00066717	0.00013935	0.00010966	1237.5	4.2934e-06	2.6491e-06	1250	337.49	6.1307e-06	9.9304e-06	389.73	134.65	112.2	37.79	3.0526e-06	47.686	0.00068403	0.00068313	0.00019112	1284.5	7.4957e-06	7.4573e-06	1280.2	347.55	7.4385e-06	7.4414e-06	403.17	148.82	117.2	39.632	7.4517e-06	49.872	-12.284	241.201	15.879	-1.765	149.294	331.670	-1.905	3.095	112.942	161.202	2.363	9.165	7.100	12.218	-3.625	10.955	-8191	255	
2001.566	1	1	0	0	0.14105	0.10257	0.041267	0.21256	0.069851	0.10064	0.22188	0.21105	0.16626	0.16003	0.19647	0.091026	0.21162	0.29717	0.27731	0.20899	-1.4062	-2.1375	-2.1063	-1.7833	-2.3875	-1.8958	-2.3104	-2.5667	-1.875	-2.0354	-2.2708	-1.9521	-2.3708	-2.0375	-1.9979	-2.3583	-13.034	207.160	288.926	249.726	134.296	-11.236	191.103	265.990	147.341	179.201	274.419	57.608	310.749	306.738	319.397	62.756	0.0010307	0.00016003	0.00024272	1229.6	2.6979e-06	1.085e-05	1254.5	337.85	1.3626e-05	4.0611e-06	389.02	135.55	111.07	37.926	7.5995e-06	47.981	0.00068341	0.00068568	0.00018911	1280.8	7.4325e-06	7.4222e-06	1281.7	347.71	7.4184e-06	7.4482e-06	403.14	148.51	116.73	39.644	7.4931e-06	49.938	19.609	117.906	102.687	-1.775	192.420	71.902	-1.907	2.883	111.600	102.171	2.212	9.033	7.363	12.057	67.095	11.018	-8191	255	
2001.663	1	1	0	0	0.09814	0.1217	0.063452	0.19014	0.14406	0.17874	0.3893	0.29097	0.13402	0.1444	0.069052	0.21211	0.30753	0.12425	0.14505	0.26633	-1.4542	-2.2417	-2.1583	-1.8813	-2.3042	-1.9333	-2.1333	-2.4292	-2.0833	-2.2083	-2.4437	-1.6083	-2.2313	-2.2333	-1.9792	-2.4354	297.864	159.020	11.544	126.614	156.794	257.943	272.392	272.966	122.104	258.190	96.257	176.457	20.750	168.627	22.396	248.066	0.00075853	6.9278e-05	6.2209e-05	1230.5	7.0034e-06	1.0594e-05	1254.2	338.43	9.7783e-06	2.5264e-06	391.43	135.84	111.25	37.938	6.097e-06	47.792	0.00067955	0.00068477	0.00018989	1279	7.4702e-06	7.5067e-06	1279.8	347.78	7.443e-06	7.4804e-06	403.63	148.9	116.77	39.674	7.4431e-06	49.871	-7.669	65.141	131.613	-2.007	129.225	175.502	-1.821	3.075	89.316	123.675	2.591	9.151	7.432	12.183	223.879	11.158	-8191	255	
#DATA ENDS
