BOXY.EXE: ISS Imagent and Oximeter Data Acquisition Program Version 0.80
Ascii Record File

#ACQ INFORMATION
2  Detector Channels 
16  External MUX Channels 
1  Auxiliary Channels 
5000  Waveform (CCF) Frequency (Hz)
1  Waveforms Skipped 
30  Waveforms Averaged 
1  Cycles Averaged 
16  Acquisitions per Waveform 
10.0806  Updata Rate (Hz) 

#FILE INFORMATION
TRUE -- External MUX Channel results are PARSED.
FALSE -- AC DC and Phase are NOT grouped.
TRUE -- Companion Program Settings File CREATED.
FALSE -- AC data not excluded
FALSE -- DC data not excluded
FALSE -- Phase data not excluded
FALSE -- Auxillary Chn. data not excluded
Tab delimiters

#CALIBRATION STATE
TRUE -- Waveform Calibration Values APPLIED.


#AUX CALIBRATION VALUES
Val Type	aux-1	

Term	1.0000e+00	
Factor	0.0000e+00	


#WF CALIBRATION VALUES
A = Detector Channel
Val Type	A-AC1	A-AC2	A-AC3	A-AC4	A-AC5	A-AC6	A-AC7	A-AC8	A-AC9	A-AC10	A-AC11	A-AC12	A-AC13	A-AC14	A-AC15	A-AC16	A-DC1	A-DC2	A-DC3	A-DC4	A-DC5	A-DC6	A-DC7	A-DC8	A-DC9	A-DC10	A-DC11	A-DC12	A-DC13	A-DC14	A-DC15	A-DC16	A-Ph1	A-Ph2	A-Ph3	A-Ph4	A-Ph5	A-Ph6	A-Ph7	A-Ph8	A-Ph9	A-Ph10	A-Ph11	A-Ph12	A-Ph13	A-Ph14	A-Ph15	A-Ph16	

Term	0.00000e+00	0.00000e+00	0.00000e+00	0.00000e+00	0.00000e+00	0.00000e+00	0.00000e+00	0.00000e+00	0.00000e+00	0.00000e+00	0.00000e+00	0.00000e+00	0.00000e+00	0.00000e+00	0.00000e+00	0.00000e+00	0.00000e+00	0.00000e+00	0.00000e+00	0.00000e+00	0.00000e+00	0.00000e+00	0.00000e+00	0.00000e+00	0.00000e+00	0.00000e+00	0.00000e+00	0.00000e+00	0.00000e+00	0.00000e+00	0.00000e+00	0.00000e+00	0.00000e+00	0.00000e+00	0.00000e+00	0.00000e+00	0.00000e+00	0.00000e+00	0.00000e+00	0.00000e+00	0.00000e+00	0.00000e+00	0.00000e+00	0.00000e+00	0.00000e+00	0.00000e+00	0.00000e+00	0.00000e+00	
Factor	1.00000e+00	1.00000e+00	1.00000e+00	1.00000e+00	1.00000e+00	1.00000e+00	1.00000e+00	1.00000e+00	1.00000e+00	1.00000e+00	1.00000e+00	1.00000e+00	1.00000e+00	1.00000e+00	1.00000e+00	1.00000e+00	1.00000e+00	1.00000e+00	1.00000e+00	1.00000e+00	1.00000e+00	1.00000e+00	1.00000e+00	1.00000e+00	1.00000e+00	1.00000e+00	1.00000e+00	1.00000e+00	1.00000e+00	1.00000e+00	1.00000e+00	1.00000e+00	X	X	X	X	X	X	X	X	X	X	X	X	X	X	X	X	

B = Detector Channel
Val Type	B-AC1	B-AC2	B-AC3	B-AC4	B-AC5	B-AC6	B-AC7	B-AC8	B-AC9	B-AC10	B-AC11	B-AC12	B-AC13	B-AC14	B-AC15	B-AC16	B-DC1	B-DC2	B-DC3	B-DC4	B-DC5	B-DC6	B-DC7	B-DC8	B-DC9	B-DC10	B-DC11	B-DC12	B-DC13	B-DC14	B-DC15	B-DC16	B-Ph1	B-Ph2	B-Ph3	B-Ph4	B-Ph5	B-Ph6	B-Ph7	B-Ph8	B-Ph9	B-Ph10	B-Ph11	B-Ph12	B-Ph13	B-Ph14	B-Ph15	B-Ph16	

Term	0.00000e+00	0.00000e+00	0.00000e+00	0.00000e+00	0.00000e+00	0.00000e+00	0.00000e+00	0.00000e+00	0.00000e+00	0.00000e+00	0.00000e+00	0.00000e+00	0.00000e+00	0.00000e+00	0.00000e+00	0.00000e+00	0.00000e+00	0.00000e+00	0.00000e+00	0.00000e+00	0.00000e+00	0.00000e+00	0.00000e+00	0.00000e+00	0.00000e+00	0.00000e+00	0.00000e+00	0.00000e+00	0.00000e+00	0.00000e+00	0.00000e+00	0.00000e+00	-1.16980e+02	-1.32328e+02	-1.32277e+02	-1.83910e+02	-6.67987e+01	-7.58324e+01	-1.56815e+02	-1.62015e+02	-8.26205e+01	-8.62239e+01	-1.70791e+02	-1.80255e+02	-1.84392e+02	-1.77318e+02	-1.01691e+02	-1.49554e+02	
Factor	1.69986e-05	1.12958e-04	2.83194e-05	4.49987e-01	9.58156e-07	1.11733e-06	1.61498e-01	4.84305e-02	9.82000e-07	9.25093e-07	8.83326e-02	3.31604e-01	3.19523e-02	8.98047e-03	1.16501e-06	1.28554e-02	6.59400e-07	6.75626e-07	1.87782e-07	2.03162e-01	7.38237e-09	7.40106e-09	7.42972e-02	2.38121e-02	7.39093e-09	7.40699e-09	4.08703e-02	8.77627e-02	1.50293e-02	4.30878e-03	7.39308e-09	5.90837e-03	X	X	X	X	X	X	X	X	X	X	X	X	X	X	X	X	



#DISTANCE SETTINGS
A = Detector Channel
A-1	A-2	A-3	A-4	A-5	A-6	A-7	A-8	A-9	A-10	A-11	A-12	A-13	A-14	A-15	A-16	

2.5000e+00	3.0000e+00	2.5000e+00	3.0000e+00	2.0000e+00	3.0000e+00	1.5000e+00	3.0000e+00	3.0000e+00	3.0000e+00	3.0000e+00	3.0000e+00	3.0000e+00	3.0000e+00	1.5000e+00	3.0000e+00	

B = Detector Channel
B-1	B-2	B-3	B-4	B-5	B-6	B-7	B-8	B-9	B-10	B-11	B-12	B-13	B-14	B-15	B-16	

1.0000e+01	1.0000e+01	1.0000e+01	1.4400e+00	1.0000e+01	1.0000e+01	1.5100e+00	1.9400e+00	1.0000e+01	1.0000e+01	1.9900e+00	2.4900e+00	2.4100e+00	2.9000e+00	1.0000e+01	2.9800e+00	




#DATA BEGINS
time	group	step	mark	flag	A-AC1	A-AC2	A-AC3	A-AC4	A-AC5	A-AC6	A-AC7	A-AC8	A-AC9	A-AC10	A-AC11	A-AC12	A-AC13	A-AC14	A-AC15	A-AC16	A-DC1	A-DC2	A-DC3	A-DC4	A-DC5	A-DC6	A-DC7	A-DC8	A-DC9	A-DC10	A-DC11	A-DC12	A-DC13	A-DC14	A-DC15	A-DC16	A-Ph1	A-Ph2	A-Ph3	A-Ph4	A-Ph5	A-Ph6	A-Ph7	A-Ph8	A-Ph9	A-Ph10	A-Ph11	A-Ph12	A-Ph13	A-Ph14	A-Ph15	A-Ph16	B-AC1	B-AC2	B-AC3	B-AC4	B-AC5	B-AC6	B-AC7	B-AC8	B-AC9	B-AC10	B-AC11	B-AC12	B-AC13	B-AC14	B-AC15	B-AC16	B-DC1	B-DC2	B-DC3	B-DC4	B-DC5	B-DC6	B-DC7	B-DC8	B-DC9	B-DC10	B-DC11	B-DC12	B-DC13	B-DC14	B-DC15	B-DC16	B-Ph1	B-Ph2	B-Ph3	B-Ph4	B-Ph5	B-Ph6	B-Ph7	B-Ph8	B-Ph9	B-Ph10	B-Ph11	B-Ph12	B-Ph13	B-Ph14	B-Ph15	B-Ph16	aux-1	digaux	

2793.839	1	1	0	256	0.101	0.063007	0.19792	0.17542	0.2026	0.17283	0.11929	0.28067	0.15338	0.10553	0.1576	0.091853	0.13013	0.14325	0.26327	0.12035	-1.9312	-2.5333	-2.625	-2.2708	-2.5354	-2.6771	-2.4396	-2.6937	-2.3667	-2.2521	-2.8146	-2.4771	-2.6458	-2.7271	-2.3812	-2.725	161.456	218.684	211.271	-81.225	237.609	80.738	-1.041	210.000	-79.582	79.207	206.124	28.877	55.471	184.342	41.451	272.457	6.6989e-05	0.00028853	9.6735e-05	1140.8	5.5476e-06	4.7766e-06	1213.9	232.74	3.7262e-06	2.4808e-06	298.11	72.756	64.21	18.567	4.7483e-06	25.925	0.00031717	0.00031766	8.9463e-05	1074.3	3.551e-06	3.5527e-06	1171.7	230.1	3.6099e-06	3.6298e-06	290.64	83.821	65.155	19.396	3.7094e-06	26.719	211.204	33.593	167.485	-75.994	203.246	40.472	-75.776	-68.517	97.999	15.077	-68.805	-64.372	-61.915	-54.957	100.837	-55.099	-8191	255	
2793.935	1	1	0	0	0.18186	0.17328	0.027336	0.13184	0.098729	0.23519	0.45443	0.21537	0.14884	0.16797	0.27922	0.14576	0.18562	0.17919	0.04991	0.30612	-2.1021	-2.3229	-2.75	-2.3979	-2.4167	-2.6146	-2.5208	-2.5833	-2.4229	-2.3354	-2.7708	-2.5229	-2.4021	-2.675	-2.3	-2.5875	173.430	244.909	96.803	-41.158	184.319	192.305	230.042	214.641	146.815	223.622	130.598	63.245	244.091	-48.695	223.084	228.185	0.00014477	0.00037115	0.00023242	1141.2	3.5882e-06	2.934e-06	1213.7	233.52	2.8759e-06	4.2821e-06	296.36	72.852	64.63	18.627	2.609e-06	26.172	0.00034034	0.00034434	9.6945e-05	1084.4	3.8356e-06	3.8581e-06	1176.5	231.81	3.9262e-06	3.9258e-06	291.87	87.692	65.873	19.556	3.983e-06	27.089	123.133	23.903	-7.070	-75.556	2.124	95.339	-75.611	-68.587	270.598	17.065	-68.954	-63.909	-62.261	-55.036	-54.043	-55.265	-8191	255	
2794.056	1	1	0	0	0.1702	0.098537	0.21551	0.18746	0.36113	0.10852	0.18718	0.17376	0.24665	0.31764	0.28946	0.01832	0.21717	0.046109	0.049026	0.0872	-2.025	-2.1729	-2.6604	-2.4229	-2.3875	-2.6437	-2.4688	-2.6312	-2.5104	-2.1188	-2.7417	-2.4021	-2.4062	-2.525	-2.2687	-2.7188	-39.441	57.770	158.162	37.933	34.863	159.659	198.993	66.541	78.197	-8.743	248.374	-42.681	138.402	175.573	184.133	-17.125	4.8961e-05	0.00050515	0.00010853	1149.8	2.8042e-06	3.6271e-06	1211.8	233.35	4.7159e-06	4.9118e-06	297.22	73.487	65.019	18.9	4.2166e-06	26.254	0.00035638	0.00036665	0.00010059	1094.3	3.9291e-06	3.9508e-06	1178.5	232.01	3.9108e-06	3.9633e-06	292.83	87.541	65.944	19.689	3.9822e-06	27.076	118.829	203.272	191.102	-75.838	194.406	228.063	-75.768	-68.487	-75.678	62.049	-68.751	-62.905	-62.243	-54.821	45.046	-54.815	-8191	255	
2794.152	1	1	0	0	0.21237	0.14431	0.021985	0.15245	0.23343	0.065202	0.013857	0.22922	0.18949	0.20733	0.12816	0.19087	0.25045	0.2244	0.21966	0.24185	-2.3396	-2.0479	-2.6896	-2.4458	-2.3958	-2.6813	-2.5104	-2.7	-2.6417	-2.1417	-2.7125	-2.4437	-2.3604	-2.7083	-2.5	-2.4833	162.295	209.548	37.517	244.399	74.512	177.136	-53.904	130.041	182.644	17.304	170.685	182.366	251.069	5.399	117.103	212.108	5.5081e-05	0.00060484	0.00019884	1142.3	3.2219e-06	6.1812e-06	1213.5	233.91	6.2183e-06	4.8167e-06	297.39	74.528	64.873	18.708	2.5354e-06	25.971	0.0003611	0.00036998	0.00010095	1091.2	3.9441e-06	3.9476e-06	1178.2	232.05	3.8534e-06	3.8329e-06	292.04	85.502	65.441	19.372	3.6711e-06	26.776	227.654	95.839	24.767	-75.902	238.464	30.845	-75.810	-68.373	-69.511	87.062	-68.769	-63.058	-62.243	-55.021	137.266	-54.585	-8191	255	
2794.248	1	1	0	0	0.10365	0.10017	0.061089	0.11677	0.091729	0.25678	0.077128	0.13272	0.22173	0.095862	0.10682	0.06614	0.15452	0.1039	0.17599	0.29473	-2.0625	-2.2	-2.4188	-2.5146	-2.1583	-2.5333	-2.6688	-2.5271	-2.7042	-2.2458	-2.8042	-2.3979	-2.3271	-2.6375	-2.4708	-2.4771	-47.037	59.114	200.622	33.037	73.529	246.608	94.223	203.210	9.025	21.739	-39.455	129.044	-77.077	50.861	3.797	-78.850	3.5419e-05	0.00040209	0.00013693	1149.6	4.3093e-06	7.2222e-06	1210	232.22	1.3816e-06	1.1681e-06	295.97	73.049	64.792	18.675	5.6143e-06	25.965	0.00032911	0.00032978	9.1329e-05	1082.1	3.572e-06	3.5443e-06	1172.1	229.78	3.5484e-06	3.5454e-06	289.35	82.413	64.808	19.236	3.5645e-06	26.615	234.059	29.578	100.349	-76.083	101.695	59.345	-75.847	-68.472	124.536	-71.541	-68.652	-62.567	-62.045	-54.566	53.906	-55.183	-8191	255	
2794.344	1	1	0	0	0.14639	0.1142	0.029126	0.12916	0.15995	0.14189	0.2084	0.09751	0.13098	0.271	0.27771	0.11407	0.27228	0.087221	0.18212	0.22074	-2.2083	-2.3458	-2.4646	-2.7104	-2.1833	-2.6104	-2.6729	-2.4167	-2.725	-2.3042	-2.5062	-2.3896	-2.1625	-2.6896	-2.5812	-2.2583	-52.882	250.125	161.402	189.066	213.515	-56.869	208.108	66.814	19.492	14.037	270.695	-80.308	139.430	176.211	-52.650	97.537	0.0001164	0.00090908	7.8734e-05	1139.3	2.1635e-06	3.5672e-06	1211.4	232.26	6.0052e-06	5.3827e-06	296.44	72.467	64.39	18.635	2.3436e-06	25.754	0.00031828	0.00032631	9.205e-05	1080.2	3.6109e-06	3.616e-06	1169.2	229.61	3.6014e-06	3.6167e-06	289.35	82.959	64.89	19.273	3.5821e-06	26.513	224.239	-0.036	-40.274	-75.761	-36.824	-57.331	-75.647	-68.310	96.490	19.862	-68.696	-63.764	-62.005	-54.810	187.924	-54.916	-8191	255	
2794.440	1	1	0	0	0.073015	0.052146	0.2457	0.23451	0.072599	0.092677	0.29525	0.36186	0.076804	0.22079	0.34099	0.066952	0.21705	0.15253	0.23081	0.014832	-2.2875	-2.3854	-2.3833	-2.5667	-2.1583	-2.5667	-2.6521	-2.4958	-2.6958	-2.3458	-2.7375	-2.3187	-2.1937	-2.7812	-2.5312	-2.2125	56.597	78.171	-5.418	-73.444	-51.851	57.546	163.541	260.553	170.071	103.231	111.744	-61.856	222.130	208.553	78.679	46.350	0.00010773	0.00021074	0.00012346	1140.2	7.148e-06	5.7799e-06	1206.9	231.73	2.2677e-06	5.7529e-07	296.92	75.013	63.733	18.612	4.6255e-06	25.853	0.00031899	0.0003219	8.9954e-05	1075	3.4994e-06	3.5114e-06	1168.3	229.23	3.5017e-06	3.5018e-06	288.86	82.055	64.531	19.159	3.5184e-06	26.431	204.507	100.955	-33.468	-75.700	26.861	-19.375	-75.559	-68.226	52.497	253.148	-68.855	-61.446	-61.590	-54.390	224.000	-55.090	-8191	255	
2794.537	1	1	0	0	0.21767	0.22269	0.2827	0.28149	0.064798	0.25581	0.20239	0.2949	0.059478	0.081618	0.10633	0.24984	0.13014	0.057939	0.25369	0.29643	-2.3021	-2.375	-2.4917	-2.7167	-2.4042	-2.6167	-2.725	-2.2521	-2.7875	-2.4562	-2.5958	-2.5125	-2.3604	-2.6125	-2.5604	-2.2125	263.950	271.519	-53.007	171.585	270.089	168.853	227.448	204.004	96.151	92.050	77.270	44.960	82.398	-73.719	167.774	46.229	3.5011e-05	0.00035653	9.1184e-05	1140.8	4.8591e-06	1.37e-06	1204.3	231.97	7.4712e-06	6.0503e-07	295.89	74.004	64.478	18.498	4.2529e-06	25.875	0.00031853	0.00032511	9.0114e-05	1076.2	3.5553e-06	3.6078e-06	1168.1	229.51	3.606e-06	3.6027e-06	288.73	83.295	65.096	19.267	3.615e-06	26.613	162.506	157.458	-69.930	-75.856	39.378	142.593	-75.703	-68.337	18.550	2.989	-68.980	-64.451	-61.893	-54.711	124.181	-55.293	-8191	255	
2794.633	1	1	0	0	0.19742	0.19854	0.02787	0.17882	0.088098	0.063241	0.48405	0.46279	0.11967	0.17762	0.23018	0.16292	0.15157	0.1397	0.23299	0.17657	-2.1646	-2.3312	-2.3937	-2.7958	-2.3021	-2.4062	-2.6917	-2.4	-2.7708	-2.5542	-2.4542	-2.7396	-2.4417	-2.4417	-2.7167	-2.2958	245.741	93.387	182.963	269.781	97.050	255.713	205.407	195.793	120.623	13.258	-73.101	54.487	167.281	77.229	44.517	56.315	0.00012132	0.00017124	8.2112e-05	1147.3	4.2036e-06	1.3934e-06	1211.9	232.21	7.1245e-06	3.1018e-06	295.48	73.674	64.33	18.619	6.9993e-06	25.681	0.00032987	0.00033389	9.3048e-05	1084.4	3.6507e-06	3.663e-06	1174.8	229.78	3.6599e-06	3.662e-06	289.8	83.507	64.98	19.316	3.6295e-06	26.569	260.812	11.463	52.321	-76.046	6.309	-7.871	-75.703	-68.675	-16.713	-16.165	-68.789	-62.726	-61.994	-54.687	153.588	-55.234	-8191	255	
2794.753	1	1	0	0	0.066092	0.15068	0.067001	0.15073	0.18408	0.17521	0.27117	0.1143	0.063943	0.19605	0.16721	0.1129	0.076879	0.27756	0.12785	0.084351	-2.0604	-2.4667	-2.3104	-2.6312	-2.4354	-2.6063	-2.9854	-2.3271	-2.6917	-2.4083	-2.4083	-2.7562	-2.4146	-2.3833	-2.65	-2.3563	167.954	183.506	109.029	-26.414	-21.191	55.522	162.663	225.280	159.652	221.230	57.298	252.190	-6.257	241.096	53.451	109.253	0.00010633	0.00049557	0.00010972	1143.1	3.6677e-06	3.7646e-06	1213.9	231.6	3.3324e-06	5.9403e-06	295.46	70.142	64.383	18.684	2.5956e-06	25.91	0.00032646	0.00032568	9.15e-05	1081.1	3.5642e-06	3.5676e-06	1172.7	229.36	3.5804e-06	3.6224e-06	288.85	82.776	64.855	19.311	3.6215e-06	26.603	220.459	-35.873	-42.946	-75.539	-23.011	11.095	-75.551	-68.687	251.156	176.288	-68.545	-63.167	-61.970	-54.813	8.198	-55.254	-8191	255	
2794.848	1	1	0	0	0.12584	0.21181	0.30526	0.13121	0.2903	0.14833	0.45081	0.24638	0.052186	0.16318	0.44856	0.17959	0.15616	0.068185	0.080325	0.10026	-2.0458	-2.4833	-2.1458	-2.675	-2.5146	-2.3479	-3.075	-2.3708	-2.5208	-2.5875	-2.25	-2.6708	-2.4458	-2.4437	-2.7708	-2.4813	-62.673	156.215	40.334	20.127	-50.904	22.100	205.637	181.649	26.058	124.427	3.457	243.841	-77.632	259.123	52.890	-7.249	9.6349e-05	0.00053203	0.00017443	1146.4	8.3038e-07	6.909e-06	1212.3	231.67	3.1524e-06	6.7922e-06	295.64	74.886	64.292	18.558	3.7512e-06	25.917	0.00032566	0.00033111	9.2226e-05	1081.5	3.6466e-06	3.6651e-06	1172.7	230.25	3.7173e-06	3.7276e-06	290.65	85.145	65.215	19.359	3.7116e-06	26.703	191.555	229.059	25.352	-76.044	112.734	243.442	-75.732	-68.378	213.222	9.303	-68.534	-64.066	-61.579	-54.791	69.243	-55.016	-8191	255	
2794.944	1	1	0	0	0.29431	0.18057	0.13803	0.14809	0.28266	0.20492	0.24265	0.11913	0.21121	0.064574	0.097571	0.026592	0.16611	0.1514	0.24677	0.099874	-2.0729	-2.8063	-2.2125	-2.5375	-2.4833	-2.2208	-2.8688	-2.3146	-2.5417	-2.7271	-2.2958	-2.4646	-2.4979	-2.3917	-2.8542	-2.4042	229.398	-64.392	-65.355	263.504	90.968	11.205	187.458	172.663	56.998	245.504	-76.147	19.144	227.562	219.745	67.137	271.821	0.0001752	0.00029007	0.000166	1137.2	2.0529e-06	3.9644e-06	1213.4	232.06	2.0113e-06	3.0182e-06	296.93	72.143	63.956	18.593	2.0759e-06	26.037	0.00033296	0.00033285	9.261e-05	1082.6	3.5976e-06	3.6006e-06	1173.1	229.02	3.5441e-06	3.551e-06	289.02	83.034	64.546	19.234	3.5724e-06	26.571	172.723	98.919	-0.833	-75.652	118.543	123.425	-75.669	-68.160	-44.598	-43.004	-68.701	-63.022	-61.713	-54.913	121.538	-55.398	-8191	255	
2795.065	1	1	0	0	0.14981	0.11838	0.10032	0.26774	0.0818	0.080522	0.3524	0.21988	0.18846	0.24972	0.14611	0.18524	0.020798	0.15436	0.054093	0.23373	-1.9708	-2.5604	-2.3875	-2.6021	-2.4042	-2.1375	-2.7646	-2.5333	-2.1792	-2.6833	-2.2583	-2.5021	-2.4854	-2.4271	-2.7208	-2.5625	235.461	-28.712	257.039	246.541	30.268	220.009	203.370	121.534	148.905	189.714	140.843	211.862	262.318	59.563	34.706	37.035	8.5009e-05	0.00032408	0.00013907	1143.7	3.7249e-06	2.5599e-06	1214.2	232.82	3.5341e-06	4.9588e-06	294.33	74.996	64.241	18.621	5.837e-06	25.697	0.00032029	0.00032147	8.9316e-05	1077.2	3.5043e-06	3.5117e-06	1172.3	229.04	3.4978e-06	3.4293e-06	287.49	81.399	64.437	19.098	3.3944e-06	26.363	37.533	-65.761	69.850	-75.976	-16.568	35.787	-75.654	-68.390	97.664	33.760	-68.710	-62.995	-61.709	-55.140	107.602	-54.934	-8191	255	
2795.136	1	1	0	0	0.14318	0.098116	0.31055	0.17687	0.22587	0.15956	0.35455	0.38052	0.3371	0.28553	0.057922	0.21884	0.28328	0.30116	0.0033083	0.34371	-1.8771	-2.675	-2.3583	-2.4688	-2.6292	-2.4042	-2.9583	-2.45	-2.3542	-2.8812	-2.3979	-2.5458	-2.8729	-2.2292	-2.55	-2.5687	258.345	-75.575	18.954	208.676	34.859	69.413	-72.439	265.802	-82.200	41.804	-79.167	190.824	-59.324	53.402	258.760	110.225	9.3347e-05	0.00067589	0.00018003	1144.7	4.0709e-06	2.9773e-06	1206	230.07	2.1522e-06	2.6139e-06	294.33	70.828	63.454	18.705	3.7891e-06	25.724	0.00030678	0.00031154	8.6589e-05	1072.7	3.4151e-06	3.4236e-06	1166.7	227.91	3.4711e-06	3.4684e-06	287.62	80.795	64.262	19.206	3.3717e-06	26.381	181.209	28.467	-23.682	-75.870	198.746	223.944	-75.672	-68.384	243.810	-17.767	-68.999	-62.435	-62.178	-54.691	104.195	-55.170	-8191	255	
2795.232	1	1	0	0	0.11535	0.28709	0.20285	0.36893	0.083638	0.26449	0.19616	0.2229	0.10742	0.098182	0.29148	0.20145	0.087673	0.13873	0.31856	0.19223	-1.8021	-2.6229	-2.4458	-2.5146	-2.6521	-2.3917	-2.6917	-2.4833	-2.0167	-2.65	-2.4667	-2.5208	-2.8229	-2.3187	-2.5625	-2.6875	-13.773	255.372	-22.412	171.812	271.772	103.283	257.048	196.318	41.912	19.652	192.655	111.701	-8.807	-69.375	101.162	109.788	0.00016761	0.00042631	3.4026e-05	1136.4	8.2797e-06	1.9794e-06	1207.2	231.04	3.8151e-06	2.6928e-06	293.81	73.407	63.926	18.685	1.0518e-05	25.826	0.0003087	0.00031002	8.5807e-05	1069.8	3.3737e-06	3.3948e-06	1166.9	227.97	3.4685e-06	3.4572e-06	287.48	81.555	64.354	19.235	3.5416e-06	26.459	205.062	58.101	229.704	-75.762	53.309	29.872	-75.637	-68.199	263.364	12.721	-68.732	-62.139	-61.646	-54.735	37.642	-55.258	-8191	255	
2795.353	1	1	0	0	0.1704	0.11669	0.11517	0.19137	0.17173	0.17103	0.2388	0.28289	0.16866	0.087966	0.11325	0.17403	0.065624	0.27772	0.30796	0.083916	-2.0042	-2.7958	-2.1729	-2.4104	-2.8396	-2.3542	-2.7771	-2.8563	-2.4688	-2.5958	-2.4396	-2.5083	-2.7833	-2.3396	-2.5646	-2.6	-61.157	106.451	164.441	73.967	237.749	-1.395	73.042	168.756	204.581	209.180	190.229	2.478	-15.801	252.141	6.872	30.421	8.7956e-05	0.00063653	7.6777e-05	1133.9	4.1572e-06	3.6677e-06	1207.4	231.74	3.5891e-06	5.4505e-06	294.5	73.448	63.463	18.628	1.1101e-05	25.953	0.0003212	0.00032776	9.0682e-05	1078.3	3.5745e-06	3.5675e-06	1169.8	229.24	3.6168e-06	3.59e-06	288.21	83.051	64.626	19.324	3.6502e-06	26.6	186.187	-4.658	-55.569	-75.766	11.788	188.611	-75.724	-68.424	-44.252	-15.781	-68.549	-65.152	-62.075	-55.042	-42.082	-55.450	-8191	255	
2795.449	1	1	0	0	0.2179	0.13604	0.12604	0.06717	0.22477	0.083554	0.28628	0.17802	0.13599	0.36645	0.16193	0.047627	0.1862	0.30248	0.099411	0.036088	-1.6667	-2.6771	-2.375	-2.4083	-2.8979	-2.2646	-2.6292	-2.8	-2.2083	-2.7354	-2.5417	-2.3146	-2.8396	-2.3417	-2.4583	-2.7833	4.532	49.919	118.370	-15.601	229.543	205.788	195.890	176.051	54.565	20.758	145.085	4.872	267.269	-83.734	147.296	98.379	1.2595e-05	0.00021206	0.00012756	1144.7	2.9542e-06	4.5466e-06	1208.4	233.33	2.88e-06	3.0795e-06	295.2	72.301	64.036	18.598	5.5343e-06	25.751	0.00033179	0.00033464	9.3466e-05	1080.7	3.691e-06	3.6847e-06	1171.2	229.86	3.6732e-06	3.6671e-06	289.65	84.279	65.036	19.345	3.6731e-06	26.622	-39.717	-78.793	-51.208	-75.769	-1.997	4.398	-75.863	-68.621	140.697	54.862	-68.465	-62.845	-62.016	-54.629	58.431	-55.073	-8191	255	
2795.544	1	1	0	0	0.18395	0.15409	0.096583	0.1446	0.074588	0.30306	0.44064	0.12018	0.13952	0.28251	0.095589	0.18974	0.29674	0.075631	0.11197	0.011422	-1.8792	-2.65	-2.5375	-2.2604	-2.8021	-2.4583	-2.5563	-2.875	-2.2562	-2.4354	-2.7396	-2.2271	-2.7083	-2.475	-2.3771	-2.5979	241.951	25.665	-77.200	-29.781	66.943	186.465	248.199	208.779	231.439	81.887	44.418	239.383	134.694	-12.277	107.996	-6.894	2.9332e-05	0.00041808	7.2358e-05	1144.7	4.5595e-06	2.6154e-06	1207.9	231.25	5.2254e-07	2.2329e-06	297.07	71.763	64.03	18.563	7.0039e-06	25.837	0.00033093	0.0003357	9.2756e-05	1082.6	3.6136e-06	3.5917e-06	1171.3	229.15	3.593e-06	3.5642e-06	289.45	82.828	64.81	19.253	3.5959e-06	26.616	238.972	-39.763	214.411	-75.894	28.887	30.622	-75.493	-68.467	60.075	6.578	-68.700	-61.243	-61.732	-54.226	-5.601	-55.388	-8191	255	
2795.640	1	1	0	0	0.10099	0.046876	0.18532	0.31471	0.12004	0.03693	0.47813	0.10357	0.20253	0.17127	0.17982	0.096555	0.10605	0.10574	0.095351	0.10071	-2.0521	-2.4729	-2.5479	-2.2438	-2.7042	-2.3667	-2.4479	-2.7417	-2.4479	-2.5021	-2.6437	-2.2167	-2.7417	-2.5938	-2.2292	-2.6792	23.917	175.924	89.027	254.816	246.310	-37.539	-54.191	227.039	42.293	190.610	207.473	182.290	48.292	186.968	-40.246	147.805	3.8399e-05	0.00019373	1.5845e-05	1142.3	5.0831e-06	4.8822e-06	1208.5	233.03	4.1025e-06	5.1373e-07	294.85	71.226	64.153	18.697	3.1015e-06	26.021	0.00032522	0.00033172	9.1939e-05	1080	3.6205e-06	3.6681e-06	1170.3	229.73	3.6171e-06	3.5951e-06	288.7	83.073	64.778	19.349	3.5544e-06	26.581	215.752	-72.611	159.616	-76.111	73.677	132.465	-75.816	-68.532	8.570	167.631	-68.704	-63.252	-62.072	-55.123	168.492	-55.068	-8191	255	
2795.736	1	1	0	0	0.28545	0.12935	0.23974	0.19386	0.18449	0.036452	0.082082	0.25376	0.2708	0.24434	0.2054	0.1531	0.23312	0.33309	0.2035	0.18544	-1.7687	-2.4688	-2.4125	-2.3458	-2.4771	-2.7146	-2.5729	-2.7562	-2.5146	-2.5271	-2.6875	-2.2062	-2.7188	-2.3563	-2.3208	-2.7938	111.893	246.108	94.313	-64.758	-77.662	-64.412	-73.299	132.717	165.358	249.618	-75.671	133.443	92.241	175.944	199.137	-19.597	0.00012034	0.00021542	4.388e-05	1137.1	3.1672e-06	7.5475e-06	1205.6	232.79	3.8088e-06	2.9589e-06	296.24	70.016	63.892	18.608	3.8934e-07	25.985	0.00031761	0.00032026	8.9461e-05	1075.8	3.5411e-06	3.4754e-06	1168.3	228.96	3.5295e-06	3.4737e-06	288.38	81.752	64.525	19.223	3.4988e-06	26.451	257.708	-12.635	-68.154	-76.100	273.147	-9.345	-75.760	-68.422	-31.541	30.303	-68.598	-64.053	-61.572	-54.992	64.504	-55.168	-8191	255	
2795.832	1	1	0	0	0.22244	0.11306	0.23959	0.033735	0.26429	0.2496	0.22137	0.24116	0.20909	0.096917	0.19902	0.092766	0.44341	0.19069	0.23552	0.096666	-1.9312	-2.4604	-2.7333	-2.3083	-2.5375	-2.7125	-2.5875	-2.5479	-2.4896	-2.3833	-2.8563	-2.45	-2.6542	-2.5417	-2.2875	-2.7188	-70.080	68.227	209.632	72.832	-23.449	-29.926	242.128	231.935	241.420	157.584	66.757	126.078	-37.912	171.387	104.972	228.129	1.7074e-05	0.00034556	6.5819e-05	1145	3.3796e-06	4.4799e-06	1207.7	231.48	2.0373e-06	3.9167e-06	294.82	71.733	63.497	18.598	6.7539e-07	25.636	0.00031501	0.00031885	8.9377e-05	1074.1	3.4509e-06	3.4799e-06	1168.9	228.08	3.4751e-06	3.4557e-06	287.67	81.581	64.124	19.141	3.4719e-06	26.392	262.049	139.392	82.659	-75.775	-22.282	41.006	-75.655	-68.477	75.509	25.246	-68.575	-63.632	-61.746	-54.531	-83.707	-55.387	-8191	255	
2795.928	1	1	0	0	0.050623	0.10008	0.27987	0.32694	0.033176	0.28415	0.16321	0.1276	0.088743	0.036835	0.25368	0.16216	0.019682	0.056044	0.24392	0.22381	-1.8312	-2.2896	-2.625	-2.3854	-2.6792	-2.6937	-2.3729	-2.6375	-2.5375	-2.375	-2.7708	-2.3063	-2.4667	-2.55	-2.1292	-2.5375	-9.872	158.370	236.415	264.516	55.879	237.336	268.962	160.544	230.065	161.262	221.985	107.290	87.850	186.256	61.807	216.401	2.1325e-05	0.00021481	0.00019519	1134	5.0134e-06	3.7356e-06	1205.3	232.6	1.7386e-06	2.1684e-06	293.94	74.727	63.995	18.42	6.2758e-06	26.054	0.00031495	0.00032019	8.9159e-05	1075.3	3.5336e-06	3.5223e-06	1168.8	228.85	3.5542e-06	3.5196e-06	287.32	82.155	64.16	19.103	3.4738e-06	26.427	269.080	12.255	-0.247	-75.908	22.016	173.358	-75.631	-68.321	147.487	79.292	-68.972	-61.985	-61.573	-54.690	-78.906	-54.679	-8191	255	
2796.024	1	1	0	0	0.13317	0.13414	0.2691	0.19279	0.10671	0.11123	0.27461	0.075251	0.028859	0.050599	0.31499	0.027064	0.08565	0.13735	0.17924	0.27942	-2.0229	-2.2438	-2.7792	-2.4083	-2.3083	-2.6854	-2.275	-2.4813	-2.5396	-2.2458	-2.9104	-2.4313	-2.5104	-2.6833	-2.2687	-2.5396	-46.070	20.780	51.248	150.199	208.773	80.706	169.152	147.445	169.147	18.218	221.613	6.300	-42.037	-18.929	226.081	201.241	1.7811e-05	0.00044116	9.2654e-05	1135.7	3.8908e-06	5.5616e-06	1201.8	230.92	1.2548e-06	4.5474e-06	293.59	71.413	63.403	18.47	4.2736e-06	25.839	0.00031347	0.00032369	8.8808e-05	1071.1	3.509e-06	3.4612e-06	1163	227.78	3.4537e-06	3.4712e-06	286.26	81.548	63.974	19.16	3.4745e-06	26.324	34.939	-81.017	-52.110	-75.986	188.391	35.474	-75.484	-67.957	87.206	62.132	-68.651	-62.568	-62.158	-54.378	120.802	-54.706	-8191	255	
2796.145	1	1	0	0	0.25751	0.14596	0.016558	0.052046	0.25049	0.0053522	0.26805	0.32121	0.20504	0.14293	0.10905	0.031556	0.12044	0.077628	0.3177	0.11869	-1.9438	-2.3208	-2.5917	-2.4979	-2.5125	-2.8063	-2.325	-2.4833	-2.7438	-2.4354	-2.8354	-2.5854	-2.4083	-2.7479	-2.2583	-2.6063	249.846	96.908	19.319	250.349	137.360	24.641	199.563	166.825	130.070	112.832	230.769	191.743	-48.112	16.585	-66.210	200.279	6.5667e-05	0.00074598	9.5238e-05	1131.3	6.6439e-06	3.898e-06	1193.2	228.63	4.1663e-06	3.0207e-06	291.1	72.622	63.078	18.322	5.9048e-06	25.835	0.00031203	0.00031621	8.7505e-05	1067.1	3.4354e-06	3.4507e-06	1157.8	226.28	3.4172e-06	3.4349e-06	284.41	80.601	63.602	18.942	3.4317e-06	26.222	242.778	68.890	32.790	-75.552	90.025	153.164	-75.750	-68.142	-15.905	46.836	-68.620	-61.600	-61.923	-54.420	81.014	-54.919	-8191	255	
2796.241	1	1	0	0	0.44262	0.23166	0.23373	0.14194	0.19642	0.20295	0.042504	0.096645	0.046227	0.24587	0.06822	0.19699	0.21257	0.4037	0.18089	0.16513	-2.2938	-2.2917	-2.3812	-2.4521	-2.2104	-2.675	-2.6333	-2.525	-2.7188	-2.1229	-2.5917	-2.4938	-2.2875	-2.6375	-2.4562	-2.4188	-6.520	-21.882	-69.883	109.867	258.452	162.740	131.828	242.221	-80.132	104.367	193.493	143.785	-73.980	-27.497	-45.347	-19.142	8.02e-05	0.00020429	4.6189e-05	1126.5	1.5571e-06	4.7521e-06	1195.1	228.7	2.167e-06	1.8207e-06	291.85	72.007	63.225	18.354	5.4292e-06	25.902	0.00031121	0.00031437	8.733e-05	1062.9	3.4734e-06	3.4512e-06	1159.3	226.28	3.4671e-06	3.4793e-06	284.85	81.313	63.828	19.06	3.5381e-06	26.366	-58.793	-39.452	-65.629	-76.253	169.863	17.742	-75.543	-68.626	155.262	203.038	-69.045	-63.086	-61.955	-54.607	-42.400	-55.370	-8191	255	
2796.337	1	1	0	0	0.047214	0.188	0.087417	0.11163	0.24809	0.22452	0.064115	0.3166	0.012363	0.36457	0.086239	0.33158	0.16934	0.15335	0.18336	0.13868	-2.2604	-2.2208	-2.6146	-2.5083	-2.1542	-2.5021	-2.5667	-2.4042	-2.7333	-2.2417	-2.6667	-2.5729	-2.2771	-2.6604	-2.3542	-2.4375	230.631	-82.692	236.128	238.742	71.852	176.870	201.527	241.209	110.081	216.448	138.652	243.909	-6.888	-22.321	-25.602	192.361	8.6919e-05	0.00057661	3.1225e-05	1133.1	2.9638e-06	1.3841e-06	1201.5	229.91	4.2185e-06	6.7511e-06	290.92	73.519	63.656	18.577	6.8245e-06	25.447	0.0003187	0.00032491	8.9596e-05	1070.9	3.5714e-06	3.5802e-06	1162.7	226.35	3.5974e-06	3.6021e-06	285.82	82.528	64.346	19.164	3.5861e-06	26.258	250.637	63.393	242.583	-76.127	22.563	-84.905	-75.593	-68.380	-20.799	-7.358	-68.507	-64.709	-61.603	-54.611	41.409	-55.141	-8191	255	
2796.433	1	1	0	0	0.084155	0.20956	0.21378	0.12102	0.065193	0.13282	0.14916	0.42758	0.12149	0.17205	0.35992	0.34313	0.19673	0.13686	0.10728	0.11441	-2.3812	-2.2875	-2.3104	-2.7458	-2.2708	-2.5687	-2.6437	-2.2417	-2.7646	-2.2833	-2.5521	-2.6125	-2.1333	-2.6521	-2.4104	-2.4646	-25.575	5.713	-76.060	-34.429	200.155	210.886	206.408	253.728	52.060	185.843	-37.351	257.291	-40.280	-11.373	-86.057	-27.818	0.00018052	0.00055622	6.1286e-05	1144.8	4.0846e-06	7.2858e-06	1198.2	227.92	4.647e-06	3.7689e-07	291.74	70.83	63.178	18.406	3.3695e-06	25.798	0.00031734	0.00031782	8.7919e-05	1072.6	3.4308e-06	3.4092e-06	1162	225.31	3.3953e-06	3.3478e-06	284	79.996	63.629	19.022	3.3914e-06	26.158	198.580	47.467	221.934	-75.792	-23.363	75.643	-75.890	-68.233	9.987	-82.308	-68.526	-62.766	-62.324	-54.856	-73.839	-54.978	-8191	255	
2796.530	1	1	0	0	0.24809	0.06686	0.17735	0.12126	0.13497	0.15369	0.13392	0.23017	0.15288	0.077086	0.14077	0.12807	0.24019	0.28598	0.25362	0.22931	-2.2021	-2.4313	-2.375	-2.7562	-2.3312	-2.6312	-2.675	-2.3667	-2.775	-2.3438	-2.3958	-2.6958	-2.2812	-2.65	-2.55	-2.2875	-21.514	195.644	246.562	-47.691	83.980	235.625	192.387	260.708	245.737	234.805	115.473	228.541	14.311	-79.026	114.507	-67.380	0.0001325	0.00022093	0.00010015	1142.5	2.9453e-06	2.9638e-06	1201.9	229.67	3.7618e-06	3.6328e-06	293.46	72.599	62.813	18.521	1.5335e-06	25.729	0.0003046	0.00031006	8.6191e-05	1071.4	3.3742e-06	3.3596e-06	1162.2	225.51	3.3111e-06	3.2831e-06	284.28	79.183	63.426	18.896	3.2569e-06	26.134	192.415	28.514	58.922	-75.898	41.492	99.500	-75.513	-68.520	72.833	240.199	-68.558	-61.496	-61.801	-54.800	272.360	-54.866	-8191	255	
2796.626	1	1	0	0	0.13833	0.073356	0.16995	0.46401	0.22484	0.18171	0.23111	0.078785	0.14647	0.2384	0.17946	0.20566	0.089643	0.11507	0.15949	0.19368	-2.2208	-2.4458	-2.3563	-2.7396	-2.3167	-2.5208	-2.6937	-2.2188	-2.6646	-2.3875	-2.4667	-2.6021	-2.3937	-2.4854	-2.5125	-2.4646	53.214	31.391	158.615	219.841	200.842	-19.643	186.434	-48.479	15.777	-29.932	-30.165	20.692	50.251	63.034	-2.039	264.141	8.393e-05	0.00072218	4.7883e-05	1138.8	2.7179e-06	6.0603e-06	1203.7	229.07	3.8934e-06	1.0167e-06	291.6	72.287	63.062	18.419	8.4052e-06	25.574	0.00030027	0.00030415	8.6524e-05	1071.2	3.3748e-06	3.4184e-06	1164	225.95	3.4691e-06	3.4239e-06	284.63	80.97	63.675	18.986	3.3889e-06	26.132	176.772	-6.370	19.275	-76.014	-50.922	17.813	-75.739	-68.185	115.348	159.281	-68.617	-62.650	-61.663	-54.668	-11.948	-54.491	-8191	255	
2796.745	1	1	0	0	0.18974	0.22746	0.24425	0.04183	0.1239	0.30169	0.071676	0.20659	0.031563	0.18892	0.11167	0.22979	0.21466	0.084259	0.22068	0.30674	-2.2208	-2.2625	-2.2562	-2.7938	-2.4125	-2.5271	-2.7938	-2.2604	-2.825	-2.4958	-2.3875	-2.6063	-2.3792	-2.4167	-2.6437	-2.3083	94.293	-35.664	87.201	178.425	45.374	4.417	25.111	235.652	198.322	210.826	48.460	167.115	230.133	82.457	98.028	248.442	0.00010189	0.00046277	0.00019909	1135.6	3.3761e-06	6.9612e-06	1196.1	227.5	2.2906e-06	4.0517e-06	291.4	71.39	63.374	18.457	2.6296e-06	25.493	0.00030444	0.0003063	8.5528e-05	1066.9	3.3565e-06	3.3461e-06	1158.8	225.15	3.3417e-06	3.3621e-06	283.68	80.076	63.619	18.997	3.4402e-06	26.148	199.223	111.059	88.100	-75.577	176.025	19.548	-75.743	-68.090	119.979	172.618	-68.548	-62.502	-61.552	-54.898	8.234	-54.730	-8191	255	
2796.841	1	1	0	0	0.16473	0.16083	0.044671	0.13418	0.17414	0.15592	0.30612	0.20619	0.09921	0.075668	0.2915	0.16746	0.13947	0.18845	0.29632	0.13915	-2.0021	-2.5687	-2.2896	-2.7917	-2.2646	-2.3604	-2.9313	-2.2062	-2.5125	-2.7458	-2.2833	-2.6604	-2.4792	-2.4875	-2.8479	-2.35	13.176	-55.583	124.743	182.231	-15.689	-10.739	212.284	126.084	254.154	264.198	145.688	208.146	107.121	-47.198	4.981	261.500	2.7761e-05	0.00046391	7.3407e-05	1146.2	4.9943e-06	5.543e-06	1201.7	228.06	1.8901e-06	2.4968e-06	290.03	73.365	63.142	18.481	4.0102e-06	25.686	0.00030723	0.00031479	8.6922e-05	1073.3	3.4058e-06	3.4077e-06	1161.7	224.97	3.4144e-06	3.4046e-06	283.57	80.128	63.399	18.996	3.4022e-06	26.126	214.860	-53.250	255.592	-76.009	92.119	186.279	-75.644	-68.094	269.535	-47.558	-68.851	-63.488	-62.247	-54.762	124.677	-55.181	-8191	255	
2796.937	1	1	0	0	0.3808	0.030605	0.16551	0.17306	0.23367	0.18855	0.15121	0.22619	0.15085	0.13366	0.0751	0.070541	0.21308	0.13511	0.10414	0.067101	-2.0417	-2.4729	-2.2271	-2.7167	-2.4104	-2.2375	-2.8667	-2.3021	-2.5375	-2.6063	-2.3771	-2.7292	-2.4167	-2.4271	-2.7458	-2.4104	60.167	69.522	-68.750	52.460	96.509	-30.018	-54.950	226.900	32.243	160.175	224.566	-40.167	226.080	61.981	-40.731	-68.695	0.00013831	0.0002856	0.0002483	1135.5	1.5357e-06	4.1117e-06	1199.7	228.36	1.7043e-06	4.0821e-06	289.73	70.864	63.163	18.583	5.4379e-06	25.642	0.00030447	0.00030802	8.4961e-05	1068	3.3358e-06	3.3351e-06	1160.5	224.43	3.3126e-06	3.3133e-06	283.08	79.36	63.354	18.955	3.2964e-06	25.969	165.111	221.589	1.631	-75.906	93.724	131.745	-75.624	-68.325	207.025	71.896	-68.375	-63.633	-61.672	-54.549	125.776	-55.248	-8191	255	
2797.033	1	1	0	0	0.10562	0.070296	0.029421	0.27985	0.14623	0.21181	0.37006	0.13348	0.13324	0.17878	0.13742	0.33261	0.38775	0.080833	0.27181	0.22761	-2.125	-2.8479	-2.3625	-2.5312	-2.5479	-2.2188	-2.8708	-2.4146	-2.4896	-2.8083	-2.3958	-2.5812	-2.7354	-2.5083	-2.8417	-2.6021	31.893	178.934	-74.082	182.765	186.972	-67.266	195.636	214.064	266.510	185.726	248.020	54.684	8.392	-78.494	209.768	242.051	9.8602e-05	0.00043893	8.7666e-05	1138	4.5963e-06	1.5255e-06	1205.4	227.9	2.2703e-06	1.5212e-06	290.86	70.639	63.051	18.461	4.7504e-06	25.629	0.00030023	0.00029934	8.3684e-05	1066.1	3.288e-06	3.2721e-06	1161.5	224.98	3.3213e-06	3.2811e-06	282.29	78.104	63.212	18.855	3.2149e-06	25.905	180.071	-44.313	-65.107	-76.125	88.750	187.818	-75.743	-68.315	64.543	12.597	-68.586	-62.015	-61.682	-54.543	216.577	-55.497	-8191	255	
2797.129	1	1	0	0	0.12424	0.21463	0.15145	0.072557	0.11132	0.26713	0.34602	0.17006	0.11	0.20501	0.18854	0.14729	0.30373	0.22548	0.19802	0.049262	-2.0667	-2.65	-2.3125	-2.6771	-2.5479	-2.1542	-2.9625	-2.4708	-2.3458	-2.7729	-2.3	-2.6229	-2.7917	-2.2021	-2.75	-2.3812	242.833	27.174	64.747	-9.953	107.489	261.457	222.658	201.255	146.878	36.706	260.600	30.495	-3.281	231.818	19.960	187.033	8.7945e-05	0.00046582	5.4137e-05	1138.3	2.694e-06	3.749e-06	1197.7	227.83	2.2234e-06	3.2416e-06	288.57	70.742	62.533	18.27	9.9169e-06	25.537	0.00028955	0.00029202	8.0842e-05	1062.2	3.1742e-06	3.1214e-06	1155.3	223.6	3.1417e-06	3.1047e-06	280.69	76.914	62.694	18.751	3.099e-06	25.793	213.088	180.832	207.547	-76.035	194.110	219.338	-75.956	-68.362	158.153	27.548	-68.716	-63.936	-62.023	-54.181	0.540	-55.267	-8191	255	
2797.225	1	1	0	0	0.097543	0.31465	0.069081	0.13294	0.12883	0.19567	0.29924	0.041972	0.21665	0.23331	0.20875	0.060789	0.10411	0.15969	0.37605	0.061099	-1.9958	-2.7687	-2.3063	-2.6271	-2.6813	-2.3167	-2.7729	-2.6562	-2.2333	-2.9188	-2.65	-2.5375	-2.7833	-2.3333	-2.6375	-2.5125	-33.916	-19.091	-78.958	119.118	16.304	-82.340	241.415	48.188	46.440	78.381	271.969	-82.436	38.508	-82.859	104.631	218.657	8.8019e-05	0.0004774	0.00015816	1134	7.1104e-06	4.4937e-06	1197.5	226.95	3.8804e-06	2.0992e-06	289.07	71.742	62.927	18.414	2.8455e-06	25.508	0.00027749	0.0002867	7.9e-05	1058.8	3.1311e-06	3.1447e-06	1155.4	223.33	3.2024e-06	3.2069e-06	281.66	78.426	63.275	18.873	3.2744e-06	25.946	180.491	13.160	18.078	-75.967	84.941	157.184	-75.549	-68.435	53.056	255.024	-68.777	-62.972	-61.755	-54.698	99.532	-55.266	-8191	255	
2797.322	1	1	0	0	0.05283	0.12622	0.19756	0.16609	0.22345	0.42792	0.079613	0.083415	0.20461	0.17766	0.31587	0.23034	0.17225	0.26438	0.26805	0.083429	-1.7479	-2.6937	-2.3104	-2.3271	-2.875	-2.4125	-2.825	-2.7583	-2.1875	-2.65	-2.3729	-2.2375	-2.9646	-2.3854	-2.4125	-2.6979	246.698	3.070	97.192	222.967	47.099	93.660	237.786	176.864	169.838	47.528	194.273	-36.773	-34.947	-0.344	46.106	256.338	9.0801e-05	0.00071074	0.0001136	1136.5	1.7105e-06	3.9206e-06	1196.6	228.39	2.3647e-06	3.7652e-06	290.67	71.465	63.594	18.554	2.9198e-06	25.398	0.00029187	0.00030066	8.3136e-05	1062.7	3.2764e-06	3.3039e-06	1157.5	224.44	3.2929e-06	3.2875e-06	282.48	78.899	63.337	18.956	3.2931e-06	25.983	202.481	22.332	-82.940	-75.986	-10.660	266.196	-75.500	-68.214	-55.573	250.920	-68.455	-63.220	-62.068	-54.334	226.842	-55.095	-8191	255	
2797.418	1	1	0	0	0.17532	0.11298	0.18066	0.17946	0.16819	0.23749	0.23591	0.30449	0.12803	0.064621	0.28513	0.037385	0.093032	0.20505	0.12453	0.099315	-1.7	-2.6771	-2.5	-2.3271	-2.7583	-2.4854	-2.675	-2.7188	-2.1625	-2.7646	-2.5167	-2.225	-2.8042	-2.3937	-2.625	-2.8583	166.035	-61.464	203.518	231.497	124.621	17.233	225.122	184.229	-23.958	90.118	264.434	218.505	-7.502	-28.189	242.689	-19.957	7.3992e-05	0.00021455	5.1443e-05	1139.4	1.8768e-06	8.8695e-06	1198.1	228.07	4.1175e-06	2.4985e-06	290.21	69.035	63.219	18.336	4.3138e-06	25.568	0.00029729	0.00030428	8.4749e-05	1067.5	3.3597e-06	3.3496e-06	1161	224.51	3.3263e-06	3.306e-06	282.51	79.268	63.432	18.87	3.283e-06	26.092	208.494	231.854	-19.950	-76.227	-70.350	78.550	-75.853	-68.323	97.211	129.884	-68.810	-64.514	-61.941	-54.915	26.186	-54.766	-8191	255	
2797.537	1	1	0	0	0.02178	0.33556	0.28535	0.12004	0.048441	0.27988	0.53391	0.10606	0.033304	0.054201	0.17131	0.15999	0.10165	0.2353	0.21283	0.1784	-1.8417	-2.7417	-2.6271	-2.3333	-2.8646	-2.425	-2.7208	-2.7292	-2.3875	-2.6458	-2.5479	-2.1958	-2.8292	-2.325	-2.4771	-2.7438	-29.066	77.931	109.258	169.928	-82.008	11.119	210.428	180.193	-19.848	-85.239	83.484	-82.780	-64.977	4.149	-78.572	142.471	0.00014055	4.5494e-05	3.8724e-05	1145.7	2.1127e-06	5.1073e-06	1203.2	226.76	2.8641e-07	1.918e-06	290.23	71.106	63.352	18.442	7.9335e-07	25.669	0.00029742	0.00029926	8.3671e-05	1068.3	3.241e-06	3.3036e-06	1161.9	224.01	3.3011e-06	3.2985e-06	282.56	79.49	63.379	18.975	3.4163e-06	26.112	203.987	-74.195	258.363	-75.573	115.695	15.741	-75.690	-68.249	128.641	70.982	-68.587	-63.331	-62.315	-54.604	209.557	-54.951	-8191	255	
2797.610	1	1	0	0	0.22236	0.22116	0.14987	0.22166	0.16688	0.40763	0.17312	0.13771	0.26938	0.030059	0.13928	0.16714	0.18921	0.016728	0.25793	0.16799	-1.8583	-2.7667	-2.5021	-2.3458	-2.7458	-2.4688	-2.5875	-2.8417	-2.2771	-2.4854	-2.8229	-2.2271	-2.825	-2.5125	-2.5271	-2.7875	-78.708	268.707	72.483	-66.800	-14.986	174.142	254.954	238.949	245.454	32.919	236.296	191.161	259.941	73.184	-4.778	23.426	6.8796e-05	0.00016349	6.4618e-05	1137.7	4.0705e-07	6.49e-06	1205.4	227.79	2.1627e-06	1.9516e-06	289.23	71.529	63.573	18.452	1.899e-06	25.589	0.00030908	0.00031418	8.7143e-05	1072.4	3.4033e-06	3.4452e-06	1165.3	225.26	3.417e-06	3.4358e-06	283.37	80.213	63.741	18.976	3.3986e-06	26.114	270.827	103.076	-82.936	-75.815	204.005	112.673	-75.673	-68.348	17.576	114.674	-68.533	-64.505	-62.190	-54.805	26.493	-55.130	-8191	255	
2797.706	1	1	0	0	0.41772	0.22923	0.10969	0.17475	0.07706	0.16595	0.059687	0.10969	0.37307	0.18304	0.13827	0.2017	0.24462	0.27784	0.33239	0.12685	-1.8708	-2.5917	-2.5917	-2.3167	-2.8083	-2.5604	-2.6417	-2.825	-2.4667	-2.45	-2.8021	-2.0646	-2.6271	-2.6375	-2.325	-2.8458	181.129	197.075	144.475	225.519	213.262	130.991	38.756	-83.235	121.686	257.832	208.584	16.444	-25.186	110.954	69.967	167.795	0.00010934	0.00047378	6.3245e-05	1133	3.4937e-06	4.2516e-06	1201.5	227.4	3.1842e-06	2.3297e-06	292.21	71.997	63.25	18.513	1.4853e-06	25.434	0.00030798	0.0003093	8.6096e-05	1066.9	3.3305e-06	3.3512e-06	1163.9	224.2	3.2861e-06	3.2946e-06	283.08	78.706	63.227	18.895	3.2591e-06	25.962	149.206	-9.616	-5.763	-76.189	44.671	41.245	-75.657	-68.513	123.396	46.071	-68.845	-62.943	-62.102	-54.790	-68.051	-54.809	-8191	255	
2797.825	1	1	0	0	0.10199	0.077963	0.10704	0.26283	0.17221	0.18211	0.12268	0.13941	0.11714	0.14345	0.070244	0.28371	0.19321	0.0065645	0.12246	0.26989	-1.9917	-2.5125	-2.6875	-2.3063	-2.6083	-2.6792	-2.5354	-2.9813	-2.4292	-2.5021	-2.9146	-2.3354	-2.7458	-2.6562	-2.3625	-2.9375	191.202	166.703	56.787	236.063	242.034	22.041	144.448	247.141	8.810	-38.198	239.218	-75.395	115.215	31.382	126.989	192.311	6.9927e-05	0.00013275	6.9059e-05	1139.8	4.1554e-06	4.2444e-06	1203.2	227.08	6.5583e-06	4.6463e-07	289	71.152	63.42	18.482	4.295e-06	25.485	0.00029479	0.00029639	8.2642e-05	1064.6	3.2618e-06	3.2764e-06	1163.2	223.89	3.2658e-06	3.2795e-06	282.18	78.783	63.509	18.942	3.2984e-06	25.927	156.090	226.899	-50.460	-76.095	-42.286	33.694	-75.799	-68.405	104.628	36.721	-68.823	-64.400	-61.733	-55.013	-6.027	-54.662	-8191	255	
2797.921	1	1	0	0	0.22546	0.18946	0.11818	0.32811	0.10192	0.13772	0.13392	0.25491	0.13308	0.30818	0.069596	0.18929	0.095799	0.23341	0.3963	0.41064	-2.0271	-2.5792	-2.6625	-2.4	-2.5875	-2.6354	-2.5812	-2.7833	-2.4854	-2.3854	-3.0771	-2.4708	-2.4208	-2.7687	-2.3312	-2.9292	209.265	-42.270	182.875	225.900	179.225	230.866	-77.719	123.783	208.669	19.822	-64.312	93.789	247.460	-34.255	-15.800	-74.574	6.0336e-05	0.00014189	0.00012441	1140.8	1.1225e-06	3.4576e-06	1203.9	226.91	3.2419e-06	1.1215e-06	289.8	72.943	63.339	18.568	6.4341e-06	25.453	0.00029679	0.00029935	8.2943e-05	1068.9	3.2488e-06	3.3143e-06	1162.7	224.12	3.2903e-06	3.2997e-06	283.04	79.381	63.466	19.014	3.3153e-06	26.029	197.225	96.330	-61.328	-75.956	115.563	135.750	-75.653	-68.462	-11.953	63.522	-68.549	-62.348	-61.863	-55.262	167.923	-55.189	-8191	255	
2798.017	1	1	0	0	0.17835	0.20531	0.27834	0.23737	0.20302	0.24639	0.10111	0.051375	0.2558	0.15838	0.16434	0.1674	0.051285	0.3041	0.18504	0.16052	-2.0958	-2.2458	-2.6875	-2.3812	-2.6688	-2.7458	-2.3646	-2.6375	-2.5396	-2.4792	-2.9146	-2.3729	-2.5938	-3.0312	-2.3312	-2.6375	-34.841	162.440	254.354	270.708	-56.376	7.784	207.316	206.165	37.992	177.224	266.933	249.943	-85.190	-64.670	245.215	-81.594	0.00010995	0.00029077	0.0001005	1143.8	2.0737e-07	3.6017e-06	1200.7	228.2	1.1668e-06	2.0307e-06	288.81	71.605	63.291	18.508	8.7988e-06	25.624	0.00029698	0.00030074	8.2128e-05	1067.8	3.2067e-06	3.1927e-06	1159.7	223.84	3.1427e-06	3.1447e-06	281.34	76.817	62.968	18.869	3.1504e-06	25.894	231.367	62.416	78.806	-75.855	-57.322	139.569	-75.904	-68.081	58.320	-23.051	-68.818	-62.478	-62.042	-54.922	-9.347	-55.168	-8191	255	
2798.113	1	1	0	0	0.09176	0.26534	0.11913	0.12294	0.073974	0.13146	0.31465	0.077474	0.26151	0.28971	0.027492	0.072615	0.21876	0.25932	0.17808	0.19324	-2.0771	-2.1437	-2.7625	-2.6125	-2.3521	-2.9396	-2.5667	-2.7229	-2.5	-2.3917	-2.7	-2.45	-2.5375	-2.8	-2.3083	-2.6437	-8.374	239.046	-6.790	-71.574	-39.478	88.165	210.210	145.031	141.446	264.477	116.869	-26.131	-8.663	238.799	245.117	215.065	0.0001145	0.00079946	0.00021783	1132.7	1.6325e-06	6.4038e-06	1200.1	228.12	3.6104e-06	2.4579e-06	289.67	70.523	63.126	18.406	1.5386e-06	25.55	0.00028873	0.00029403	8.16e-05	1064.6	3.2235e-06	3.251e-06	1158.8	224.46	3.2129e-06	3.2475e-06	282.05	78.106	63.213	18.871	3.1529e-06	25.907	195.478	-11.692	24.141	-75.874	1.098	94.439	-75.710	-68.129	147.053	-47.788	-68.365	-62.556	-61.880	-54.672	17.569	-54.813	-8191	255	
2798.234	1	1	0	0	0.14807	0.26526	0.021892	0.095227	0.24162	0.095969	0.30446	0.24552	0.085747	0.25907	0.14239	0.18593	0.11336	0.11945	0.26248	0.31928	-2.125	-2.3917	-2.9625	-2.4521	-2.4688	-2.8021	-2.5458	-2.4625	-2.6125	-2.4417	-2.8333	-2.5396	-2.4667	-2.8542	-2.2875	-2.6375	214.565	-7.809	260.131	255.529	241.801	115.585	190.481	164.007	199.976	130.313	198.153	74.962	-6.052	69.306	179.001	184.238	5.6298e-05	0.00065692	0.0001337	1131.1	4.7331e-06	1.5169e-06	1203.5	228.31	1.9854e-06	6.499e-06	291.11	72.705	63.641	18.358	9.3433e-06	25.565	0.00028394	0.00028935	7.9699e-05	1063.4	3.1136e-06	3.1337e-06	1160.6	223.88	3.1234e-06	3.1007e-06	281.84	77.062	63.136	18.908	3.1957e-06	25.964	68.882	53.811	131.947	-75.785	202.946	219.985	-75.731	-68.283	262.279	64.562	-68.532	-63.048	-62.135	-54.696	120.938	-55.435	-8191	255	
2798.306	1	1	0	0	0.0091257	0.048902	0.058117	0.04879	0.20264	0.20888	0.11932	0.36812	0.12747	0.057527	0.061049	0.046791	0.094701	0.2056	0.23512	0.23924	-2.3167	-2.1667	-2.7125	-2.7229	-2.4938	-2.9313	-2.8625	-2.5563	-2.6646	-2.3688	-2.7417	-2.6375	-2.4333	-2.7521	-2.4458	-2.4021	183.396	-61.891	194.240	204.389	226.334	45.610	243.961	247.947	7.538	19.928	-46.644	53.911	209.513	214.959	177.141	47.091	8.133e-05	0.00068578	7.8663e-05	1131.3	4.3683e-06	2.5898e-06	1204.7	228.06	2.2882e-06	6.4491e-07	292.36	72.814	63.416	18.493	1.3936e-06	25.769	0.00029045	0.00029843	8.3061e-05	1065.6	3.2924e-06	3.3527e-06	1163.7	224.47	3.4093e-06	3.4312e-06	284.26	81.467	63.856	19.143	3.4708e-06	26.309	-37.531	71.599	77.201	-75.863	-39.888	-75.827	-75.718	-68.390	150.263	111.090	-68.696	-64.411	-61.867	-55.063	-4.649	-55.070	-8191	255	
2798.426	1	1	0	0	0.35222	0.27599	0.11754	0.12873	0.19076	0.34679	0.23369	0.26856	0.21754	0.25068	0.044681	0.13678	0.29957	0.31805	0.1058	0.19951	-2.3875	-2.3792	-2.4271	-2.7458	-2.3063	-2.7938	-2.8042	-2.4938	-2.6792	-2.5812	-2.8042	-2.6625	-2.3792	-2.8042	-2.4521	-2.4229	-43.868	66.898	224.307	-0.435	172.678	-46.908	257.942	258.462	130.936	-52.010	98.184	21.196	87.653	-33.230	-31.932	174.669	5.9554e-05	0.00023967	0.00013118	1139.2	7.0873e-06	5.7349e-06	1206.8	228.71	2.4174e-06	2.143e-06	290.95	72.014	63.57	18.511	9.5283e-06	25.698	0.00031273	0.00031604	8.8017e-05	1075.3	3.3932e-06	3.3859e-06	1165.1	225.44	3.3499e-06	3.3414e-06	283.29	79.547	63.519	19.015	3.2825e-06	26.101	134.882	-67.112	16.659	-75.780	-60.248	42.348	-75.267	-68.398	263.575	158.088	-68.845	-64.097	-61.792	-54.968	-26.646	-54.724	-8191	255	
2798.523	1	1	0	0	0.084573	0.2741	0.12988	0.019581	0.13754	0.29516	0.26412	0.12601	0.10812	0.30218	0.19902	0.1679	0.15236	0.22833	0.28227	0.094217	-2.1437	-2.4125	-2.6896	-2.8146	-2.2562	-2.8333	-2.7	-2.5125	-2.7208	-2.3875	-2.6125	-2.675	-2.2875	-2.775	-2.7125	-2.4292	229.915	201.280	61.837	-3.688	74.239	152.415	250.375	183.226	270.313	105.015	68.600	218.117	236.274	260.456	-23.053	107.575	7.7179e-05	0.00055614	2.4773e-05	1136	3.1241e-06	4.3637e-06	1200.2	227.49	4.2164e-06	5.3875e-07	289.78	70.515	63.079	18.403	3.3444e-06	25.611	0.00029959	0.00030124	8.3625e-05	1064.6	3.2426e-06	3.2509e-06	1158	223.92	3.2317e-06	3.2411e-06	282.01	78.267	63.215	18.972	3.2497e-06	25.946	172.335	-59.055	23.297	-75.930	82.794	136.980	-75.602	-68.207	47.811	72.269	-68.777	-66.885	-61.830	-54.677	219.588	-54.968	-8191	255	
2798.617	1	1	0	0	0.15439	0.18783	0.16725	0.054956	0.1263	0.33085	0.24305	0.34397	0.19632	0.24076	0.13342	0.15005	0.26973	0.26874	0.069002	0.24198	-2.3146	-2.3625	-2.325	-2.6437	-2.3063	-2.6396	-2.8104	-2.3542	-2.7417	-2.4479	-2.6937	-2.7167	-2.3667	-2.6042	-2.6417	-2.2958	-63.245	189.025	24.365	-28.442	-55.209	-17.353	243.828	-83.194	-60.591	186.910	253.236	39.619	225.410	200.221	100.688	250.559	8.2048e-05	0.00038931	0.00016964	1133.7	4.4696e-06	2.6525e-06	1199.7	228.17	1.7447e-06	4.396e-06	290.05	71.899	63.241	18.546	2.5131e-06	25.745	0.00029371	0.00029557	8.3272e-05	1064.7	3.2525e-06	3.2651e-06	1160.1	224.26	3.2455e-06	3.2454e-06	281.98	78.789	63.231	18.994	3.2504e-06	26.061	124.416	-3.527	159.658	-75.565	106.180	40.588	-75.621	-68.184	-48.301	39.480	-68.423	-64.115	-61.683	-54.736	46.099	-55.304	-8191	255	
2798.715	1	1	0	0	0.10255	0.21978	0.12306	0.16506	0.078257	0.41441	0.12865	0.1004	0.11645	0.10174	0.039271	0.19504	0.06829	0.038148	0.12801	0.09746	-2.275	-2.6104	-2.5354	-2.9292	-2.4021	-2.5563	-2.7188	-2.3563	-2.7687	-2.5125	-2.3542	-2.7021	-2.3	-2.5021	-2.8604	-2.4271	65.235	-51.986	141.191	259.717	77.439	-22.036	44.569	-62.258	113.472	-52.646	188.313	48.015	270.788	-39.354	133.118	-86.055	0.00014754	0.00047128	4.8745e-05	1136.8	3.8212e-06	3.5602e-06	1204.3	226.77	3.5901e-06	2.4805e-06	291.39	71.147	62.664	18.667	3.3784e-06	25.778	0.00029538	0.00030042	8.3918e-05	1068.8	3.3055e-06	3.3453e-06	1163.8	224.61	3.3594e-06	3.3784e-06	283.35	79.896	63.492	19.118	3.4007e-06	26.178	200.049	-0.467	40.940	-75.550	-53.067	1.744	-75.640	-68.241	52.195	-57.728	-68.593	-64.603	-62.180	-54.520	-71.311	-55.065	-8191	255	
2798.834	1	1	0	0	0.20285	0.076381	0.042586	0.18109	0.19528	0.34918	0.32432	0.052907	0.2135	0.19157	0.2002	0.16839	0.092135	0.096126	0.12835	0.24189	-2.1667	-2.4562	-2.4521	-2.8229	-2.4167	-2.7438	-2.725	-2.4062	-2.6542	-2.7062	-2.4208	-2.9292	-2.4833	-2.4854	-2.7438	-2.2479	106.734	68.526	271.050	-6.226	72.242	-47.793	213.029	235.136	-65.587	106.962	197.078	-63.757	70.232	79.199	63.359	-50.635	0.00013228	0.00056861	0.00012132	1149	5.3665e-06	6.3389e-07	1204.7	227.6	4.1101e-06	4.4884e-06	290.38	72.129	62.79	18.463	5.4264e-06	25.599	0.00030404	0.00030823	8.5033e-05	1071	3.3424e-06	3.3177e-06	1163.1	224.46	3.3329e-06	3.3224e-06	282.86	78.956	63.526	19.018	3.3061e-06	26.049	241.064	260.662	69.520	-76.001	259.830	169.846	-75.911	-68.234	-60.917	101.863	-69.002	-64.387	-62.157	-54.715	33.116	-54.913	-8191	255	
2798.905	1	1	0	0	0.20537	0.19983	0.31734	0.068314	0.17844	0.097596	0.29385	0.15218	0.11089	0.18924	0.089166	0.2878	0.14791	0.11118	0.16442	0.2167	-2.3396	-2.475	-2.2375	-2.6771	-2.4062	-2.5104	-2.8542	-2.3063	-2.5187	-2.7208	-2.3167	-2.5458	-2.575	-2.2729	-2.8417	-2.4521	-85.962	-53.242	217.561	-49.844	19.002	70.642	242.148	157.215	151.541	-75.073	28.500	-19.711	33.032	201.185	208.796	228.683	0.00012794	0.00040169	6.953e-05	1136.7	3.4021e-06	2.1626e-06	1203.5	227.01	7.5443e-07	3.0955e-06	288.45	70.359	63.274	18.403	9.1272e-07	25.661	0.00029754	0.00029957	8.3873e-05	1066.6	3.2884e-06	3.2322e-06	1161.2	223.8	3.2258e-06	3.2262e-06	282.25	78.372	63.219	18.944	3.2654e-06	25.984	190.185	-62.088	145.855	-76.064	151.865	-43.102	-75.493	-68.293	107.941	-27.506	-68.518	-62.825	-62.145	-54.734	236.682	-55.004	-8191	255	
2799.002	1	1	0	0	0.16363	0.17316	0.15781	0.32764	0.11662	0.32231	0.33704	0.23409	0.075337	0.15609	0.16737	0.044047	0.26347	0.097762	0.11909	0.058855	-2.0333	-2.7896	-2.2729	-2.6625	-2.5271	-2.4729	-2.8937	-2.5417	-2.5271	-2.7854	-2.3438	-2.5375	-2.3896	-2.5333	-2.8187	-2.6333	124.777	-40.765	75.731	200.257	122.157	199.097	241.302	209.563	222.938	-41.019	-84.152	250.258	259.562	181.775	-39.743	-73.902	2.4413e-05	0.00036678	0.00017277	1134.3	2.6248e-06	3.2933e-06	1203.5	227.18	6.6673e-06	1.5797e-06	289.18	71	63.406	18.64	2.4389e-06	25.63	0.00029421	0.00029781	8.2895e-05	1066.9	3.2723e-06	3.2945e-06	1163.4	224.21	3.3109e-06	3.3213e-06	282.33	79.1	63.441	19.118	3.3396e-06	26.117	-51.431	36.920	164.126	-75.778	71.619	173.873	-75.604	-68.188	96.094	186.995	-68.615	-61.943	-62.183	-55.166	63.673	-55.081	-8191	255	
2799.098	1	1	0	0	0.1755	0.12735	0.14192	0.031409	0.11577	0.1433	0.1683	0.18289	0.087945	0.20219	0.29368	0.17674	0.27728	0.19928	0.126	0.13196	-2.0687	-2.7583	-2.3583	-2.7125	-2.6708	-2.4146	-2.9646	-2.4104	-2.4938	-2.7583	-2.3854	-2.7687	-2.6854	-2.3812	-2.7958	-2.4729	-21.661	171.072	-18.223	-62.943	267.946	82.270	190.050	269.664	15.419	137.390	56.537	57.866	-5.686	210.565	-44.592	183.981	0.0001187	0.00077306	8.5813e-05	1140.5	4.0823e-06	3.6654e-06	1210.5	227.79	3.7761e-06	4.8293e-06	289.29	70.12	63.249	18.623	2.4384e-06	25.597	0.00029942	0.00030753	8.5355e-05	1072.3	3.3742e-06	3.369e-06	1167.8	225.09	3.4234e-06	3.4095e-06	282.68	80.179	63.729	19.078	3.3343e-06	26.079	101.594	38.433	39.286	-76.012	124.166	191.118	-75.689	-68.444	147.775	-2.447	-68.554	-63.614	-61.200	-55.119	-46.556	-55.372	-8191	255	
2799.218	1	1	0	0	0.21717	0.071795	0.21479	0.23246	0.14533	0.19316	0.10915	0.08408	0.041914	0.099579	0.087568	0.25645	0.15211	0.14436	0.26215	0.28805	-1.9562	-2.7708	-2.1125	-2.6146	-2.8312	-2.4646	-2.6875	-2.7229	-2.4604	-2.7167	-2.4583	-2.5146	-2.5729	-2.4167	-2.7458	-2.4833	118.116	126.881	100.632	243.683	34.975	-7.542	-49.781	-52.173	133.307	26.821	167.903	105.715	243.151	256.065	100.280	198.885	0.000154	0.00040292	0.0001252	1139.9	3.2784e-06	4.2794e-06	1205.4	228.2	4.5747e-06	4.0753e-06	289.63	69.99	63.115	18.626	3.8466e-06	25.523	0.00029915	0.00029989	8.3125e-05	1068.9	3.2619e-06	3.2454e-06	1162.4	224.26	3.2391e-06	3.2415e-06	282.02	78.595	63.454	19.046	3.3112e-06	26.005	187.559	12.324	96.193	-76.072	-14.826	265.592	-75.582	-68.295	88.442	-9.179	-68.218	-63.669	-61.779	-54.667	74.619	-55.566	-8191	255	
2799.314	1	1	0	0	0.2628	0.1712	0.19247	0.14491	0.017182	0.12735	0.082826	0.3163	0.089063	0.14224	0.2294	0.19715	0.031955	0.16349	0.04475	0.15114	-1.925	-2.9208	-2.3417	-2.4813	-2.6292	-2.2958	-2.7792	-2.6021	-2.3917	-2.8563	-2.4833	-2.5292	-2.7521	-2.2646	-2.8375	-2.7625	197.317	-4.373	272.153	150.039	61.279	-6.241	171.056	129.055	151.941	240.775	-60.827	180.501	132.953	59.907	26.926	-43.203	0.00010069	0.00044132	0.00011356	1134.7	4.9191e-06	4.1913e-06	1203.7	227.5	2.271e-06	2.6989e-06	290.11	70.641	63.117	18.404	9.8662e-07	25.46	0.00029978	0.00030477	8.4722e-05	1072.2	3.349e-06	3.3696e-06	1163.5	224.62	3.3709e-06	3.3659e-06	282.95	79.97	63.642	19.11	3.4179e-06	26.126	139.831	144.924	34.585	-75.815	243.684	59.394	-75.673	-68.620	131.438	233.255	-68.936	-64.236	-62.185	-55.012	249.326	-55.209	-8191	255	
2799.411	1	1	0	0	0.40225	0.066099	0.23221	0.15998	0.20212	0.0075076	0.31035	0.39989	0.16443	0.25342	0.060978	0.051353	0.064665	0.063851	0.2925	0.15003	-1.8271	-2.7396	-2.5667	-2.6437	-2.9167	-2.3583	-2.7833	-2.6333	-2.2354	-2.6604	-2.6	-2.5333	-2.7896	-2.4458	-2.6	-2.7958	-39.084	239.467	170.687	120.832	117.520	259.558	180.281	240.318	246.937	121.394	-47.722	166.271	185.520	250.530	24.348	242.403	5.7877e-05	0.0004403	2.6235e-05	1139.5	2.5186e-06	3.6336e-06	1206.3	228.42	5.8602e-06	2.0194e-06	289.82	71.608	63.491	18.549	6.2704e-06	25.74	0.00030897	0.00031104	8.668e-05	1073	3.3846e-06	3.399e-06	1166.4	225.02	3.4085e-06	3.4238e-06	283.6	80.214	63.704	19.054	3.3719e-06	26.089	180.538	113.558	-23.844	-75.941	-23.719	148.669	-75.591	-68.306	154.802	107.664	-68.384	-63.247	-61.763	-54.908	-71.523	-54.851	-8191	255	
2799.507	1	1	0	0	0.35637	0.02748	0.12457	0.14987	0.064859	0.17249	0.22069	0.33983	0.24765	0.15694	0.071931	0.035849	0.057847	0.024543	0.21434	0.15078	-1.9896	-2.9313	-2.5812	-2.4208	-3.0104	-2.4479	-2.8167	-2.8	-2.6	-2.8563	-2.625	-2.4271	-2.8917	-2.5979	-2.6375	-2.8312	172.884	-4.142	236.343	259.001	178.062	64.271	269.760	138.695	76.677	206.354	130.260	90.816	-67.393	34.193	214.158	-73.819	0.00012711	0.00037793	9.0652e-05	1143.6	6.4234e-06	1.9932e-06	1207.5	227.61	2.7677e-06	3.0613e-06	291.96	72.565	63.359	18.518	1.5955e-06	25.359	0.00030314	0.00030478	8.4368e-05	1069.1	3.3145e-06	3.3078e-06	1164.5	224.03	3.3092e-06	3.3199e-06	282.93	79.139	63.539	19.005	3.2815e-06	26.01	182.626	91.957	-1.533	-76.062	16.523	114.501	-75.774	-68.417	-75.306	4.926	-68.733	-63.146	-61.379	-54.793	201.881	-55.115	-8191	255	
2799.601	1	1	0	0	0.12375	0.10444	0.15054	0.13459	0.16558	0.11999	0.32023	0.28402	0.13735	0.17036	0.051596	0.06163	0.12597	0.31175	0.13433	0.20322	-1.8833	-2.6542	-2.6854	-2.3625	-2.8333	-2.5729	-2.4479	-2.7729	-2.3438	-2.7042	-2.625	-2.3417	-2.8458	-2.6667	-2.5292	-2.7083	-48.378	181.224	128.303	-11.043	150.132	110.978	255.269	225.909	252.450	212.504	149.047	-3.115	201.082	23.078	65.911	196.237	5.5076e-05	0.00033442	0.00012338	1133.9	1.4401e-06	9.7912e-06	1210.1	228.62	3.1794e-06	5.2222e-06	290.59	71.146	63.244	18.44	2.1769e-06	25.446	0.00029504	0.00029935	8.3051e-05	1067	3.3111e-06	3.2663e-06	1164	224.61	3.3123e-06	3.3566e-06	282.43	79.225	63.384	18.994	3.2897e-06	26.024	204.820	106.527	-80.966	-76.154	-37.625	70.290	-75.634	-68.426	78.312	119.747	-68.683	-62.321	-61.787	-54.317	218.339	-54.981	-8191	255	
2799.697	1	1	0	0	0.09723	0.073587	0.16219	0.077056	0.16883	0.16465	0.21318	0.19446	0.29395	0.13979	0.18275	0.3978	0.19217	0.23796	0.072261	0.12536	-1.9208	-2.7583	-2.75	-2.5417	-2.8667	-2.6458	-2.6708	-2.8667	-2.4062	-2.6188	-2.8125	-2.1875	-2.7333	-2.5812	-2.3708	-3.0396	188.107	152.754	143.178	-75.986	234.625	50.903	194.429	126.574	-49.919	215.871	-83.834	232.097	-20.174	-48.785	236.264	194.423	0.00021669	0.00051226	0.00010138	1138.9	2.5633e-06	6.9996e-06	1204.7	226.77	9.5785e-07	2.7378e-06	289.16	72.986	62.957	18.428	3.9363e-06	25.733	0.00030187	0.00030404	8.3629e-05	1071.1	3.2785e-06	3.3184e-06	1163.3	224.09	3.3134e-06	3.3187e-06	282.66	78.921	63.438	19.031	3.2644e-06	26.073	176.514	9.376	195.660	-75.857	175.213	94.112	-75.637	-68.427	-44.744	54.647	-68.836	-63.045	-62.255	-54.539	99.752	-55.071	-8191	255	
2799.818	1	1	0	0	0.15518	0.025083	0.22019	0.22577	0.18421	0.21632	0.24118	0.1476	0.27764	0.27667	0.42953	0.092146	0.2006	0.097742	0.24567	0.065157	-1.9083	-2.3875	-2.425	-2.2854	-2.6354	-2.4646	-2.4625	-2.825	-2.2833	-2.575	-2.8542	-2.2167	-2.8937	-2.4688	-2.4229	-2.7	-69.560	136.285	-74.915	-50.782	58.283	-48.285	222.198	177.781	-21.667	-45.255	251.167	44.654	146.630	261.663	60.740	80.205	2.5509e-05	0.00036617	9.4208e-05	1140.5	1.3108e-06	3.0017e-06	1202.3	227.64	3.0758e-06	2.8285e-06	289.93	70.993	63.31	18.476	3.6906e-06	25.521	0.00029712	0.00029979	8.3543e-05	1070.3	3.2775e-06	3.2656e-06	1161.6	224.2	3.258e-06	3.2542e-06	282.12	78.687	63.404	19.017	3.2899e-06	25.985	185.883	46.787	-38.613	-76.058	35.159	137.983	-75.641	-68.332	242.314	264.295	-68.513	-63.509	-61.963	-54.642	-77.151	-55.022	-8191	255	
2799.914	1	1	0	0	0.091309	0.053268	0.20393	0.1056	0.12755	0.19184	0.25018	0.1448	0.064911	0.11747	0.14029	0.22825	0.16214	0.19806	0.15437	0.21177	-2.0146	-2.5167	-2.725	-2.5375	-2.6375	-2.7479	-2.3438	-2.7812	-2.5438	-2.1688	-2.9167	-2.2354	-2.8063	-2.7771	-2.0875	-2.6792	116.403	26.124	3.263	89.716	78.139	253.016	-79.058	184.470	17.432	159.579	194.042	-7.658	122.278	102.999	-10.957	243.655	0.00010453	0.00016636	0.00013051	1135.9	5.1267e-06	7.0433e-06	1205.1	228.03	3.3137e-06	1.0277e-06	290.07	72.44	63.422	18.604	4.0299e-06	25.607	0.00029667	0.00030214	8.3942e-05	1069.5	3.3146e-06	3.3178e-06	1164.7	224.42	3.3516e-06	3.36e-06	282.88	79.811	63.381	19.074	3.3469e-06	26.052	238.956	93.199	-12.260	-75.736	75.755	-6.055	-75.739	-68.391	248.415	13.426	-68.772	-61.969	-61.777	-54.828	96.150	-55.078	-8191	255	
2800.010	1	1	0	0	0.12108	0.054999	0.15295	0.091757	0.082226	0.079111	0.15923	0.23328	0.05684	0.26593	0.058776	0.26452	0.13581	0.14751	0.13996	0.17281	-1.9562	-2.3417	-2.8458	-2.425	-2.5042	-2.7646	-2.5	-2.8167	-2.5792	-2.4667	-2.8438	-2.4562	-2.6021	-2.7062	-2.4042	-2.7708	157.324	250.113	121.577	24.435	229.405	270.302	223.388	191.131	170.772	77.907	50.845	131.697	34.877	249.985	243.529	154.729	7.5743e-05	0.00038731	8.8175e-05	1150.6	3.7541e-06	1.1616e-05	1199.1	227.24	1.5678e-06	1.1923e-06	289.17	69.631	63.156	18.584	4.9558e-06	25.396	0.00030155	0.00030467	8.506e-05	1075.2	3.3445e-06	3.3438e-06	1164.4	224.48	3.3485e-06	3.3541e-06	282.56	79.449	63.563	19.105	3.3645e-06	26.059	156.486	27.753	45.799	-75.887	127.830	113.483	-75.758	-68.342	264.658	203.982	-68.772	-62.509	-62.166	-55.054	79.131	-54.991	-8191	255	
2800.106	1	1	0	0	0.037928	0.13251	0.15934	0.24088	0.11311	0.13114	0.19288	0.17412	0.094524	0.23427	0.083797	0.17667	0.13518	0.17287	0.1966	0.11294	-2.2687	-2.4292	-2.7625	-2.6021	-2.5542	-2.8042	-2.6813	-2.5875	-2.5917	-2.3625	-2.7313	-2.5167	-2.5458	-2.8583	-2.3563	-2.6625	-5.000	31.468	-81.701	189.337	189.814	98.185	171.744	271.154	255.537	264.041	153.408	171.256	20.181	-31.393	248.332	197.790	0.00010889	0.00048842	7.6738e-05	1146.9	5.0421e-06	3.059e-06	1205.4	228.21	4.4406e-06	5.083e-06	289.53	73.57	63.136	18.483	7.9602e-06	25.451	0.00030608	0.00031123	8.5808e-05	1075.6	3.3881e-06	3.3945e-06	1164.6	224.88	3.3659e-06	3.3818e-06	282.74	80.11	63.578	19.103	3.3842e-06	26.11	245.150	92.142	33.580	-75.900	20.069	88.104	-75.650	-68.184	0.590	72.066	-68.946	-64.244	-61.871	-54.389	5.080	-55.333	-8191	255	
2800.201	1	1	0	0	0.13582	0.25983	0.20326	0.16156	0.17361	0.20382	0.11257	0.049411	0.13292	0.26513	0.3524	0.28122	0.080384	0.24343	0.14185	0.16586	-2.3438	-2.2042	-2.8354	-2.4625	-2.4625	-2.5958	-2.3833	-2.625	-2.5771	-2.2833	-2.7438	-2.4854	-2.3979	-2.8542	-2.4083	-2.7	-5.384	-7.104	113.214	248.945	177.638	50.655	203.241	-45.377	272.807	177.122	-4.770	102.881	-28.042	269.179	250.252	233.373	5.1655e-05	0.00032825	0.00013022	1132.5	2.5146e-06	4.2902e-06	1209.4	227.91	5.0882e-06	3.203e-06	291.86	72.261	63.238	18.438	2.2122e-06	25.517	0.00030785	0.00031055	8.7482e-05	1073.3	3.4432e-06	3.4343e-06	1167	224.84	3.4217e-06	3.4069e-06	284	80.856	63.616	19.143	3.4219e-06	26.124	166.797	58.813	232.477	-75.979	45.959	80.570	-75.615	-68.549	-58.642	162.429	-68.895	-63.576	-61.940	-54.644	233.473	-55.108	-8191	255	
2800.297	1	1	0	0	0.12928	0.31211	0.18264	0.050236	0.27379	0.25705	0.33591	0.26186	0.17356	0.24466	0.30772	0.23661	0.21176	0.24997	0.1355	0.27482	-2.1188	-2.3063	-2.7021	-2.5979	-2.4146	-2.8417	-2.4813	-2.4938	-2.8417	-2.3083	-2.6146	-2.6229	-2.5354	-2.7438	-2.3208	-2.5583	135.472	98.172	88.561	119.494	-62.051	-70.413	206.224	211.328	-79.439	81.878	-81.133	-2.405	228.542	148.336	26.930	-72.102	4.3853e-05	0.00038771	0.00019672	1139.9	3.478e-06	4.4663e-06	1210.6	227.37	2.9476e-06	3.6591e-07	290.97	72.686	63.205	18.516	1.3054e-06	25.467	0.00030978	0.00031346	8.7974e-05	1074.7	3.4231e-06	3.451e-06	1168	224.95	3.4463e-06	3.4318e-06	283.83	81.527	63.855	19.159	3.4518e-06	26.136	205.560	-3.574	-36.492	-75.935	-1.002	126.765	-75.762	-68.328	-77.488	-6.577	-68.694	-64.363	-61.911	-54.458	-27.963	-54.818	-8191	255	
2800.393	1	1	0	0	0.11027	0.28509	0.22988	0.15244	0.09162	0.044897	0.40424	0.2307	0.029351	0.13141	0.2463	0.089341	0.27391	0.048966	0.17792	0.14583	-2.3854	-2.625	-2.7771	-2.6875	-2.4062	-2.6833	-2.6979	-2.5312	-2.8125	-2.2479	-2.7354	-2.5333	-2.4729	-2.7021	-2.3937	-2.65	182.732	-55.238	232.521	18.308	38.293	93.617	209.744	240.147	234.099	63.956	-15.799	133.469	158.606	88.218	153.378	-71.075	7.0358e-05	9.8133e-05	0.00010309	1144.2	4.684e-06	3.7454e-06	1209	228.42	5.5831e-07	5.1793e-06	290.1	71.069	62.962	18.558	3.9061e-06	25.626	0.0003148	0.00031733	8.837e-05	1078.9	3.4531e-06	3.4307e-06	1168.4	225.3	3.4375e-06	3.4487e-06	283.66	80.72	63.788	19.188	3.4946e-06	26.155	159.963	141.728	-43.433	-75.722	72.164	100.943	-75.845	-68.432	-64.113	102.446	-68.712	-62.850	-62.031	-55.028	-41.721	-55.308	-8191	255	
2800.514	1	1	0	0	0.15851	0.2013	0.13934	0.12105	0.33369	0.13958	0.16986	0.22829	0.074371	0.085833	0.22491	0.18361	0.13606	0.14072	0.14058	0.13081	-2.2229	-2.3875	-2.6771	-2.7875	-2.3708	-2.7646	-2.6375	-2.5958	-2.8292	-2.4104	-2.6792	-2.7062	-2.4042	-2.7521	-2.6437	-2.4208	89.339	37.428	164.579	-62.638	-64.187	218.396	242.659	204.315	-0.978	125.545	190.689	72.020	-58.438	155.483	-56.247	221.487	0.00011506	0.00020258	2.8855e-05	1146.7	3.1328e-06	3.3247e-06	1206.5	228.58	3.2226e-06	1.5608e-06	291.75	72.665	63.327	18.562	2.1513e-06	25.548	0.00031389	0.00032119	8.8631e-05	1078.2	3.4575e-06	3.4641e-06	1166.8	225.51	3.4848e-06	3.4639e-06	283.98	81.21	63.722	19.144	3.4233e-06	26.089	209.745	52.219	27.511	-75.662	151.738	59.044	-75.765	-68.420	-51.000	21.602	-68.687	-62.972	-61.684	-54.874	-8.877	-55.064	-8191	255	
2800.610	1	1	0	0	0.039564	0.054402	0.046973	0.053367	0.31114	0.092768	0.16953	0.13498	0.092212	0.15338	0.17467	0.13815	0.039254	0.041351	0.30611	0.11884	-2.3271	-2.5042	-2.4	-2.525	-2.15	-2.6604	-2.5917	-2.2979	-2.7271	-2.3354	-2.4854	-2.6458	-2.3833	-2.5542	-2.5583	-2.3729	201.405	-80.641	-60.536	133.099	61.597	70.910	224.129	239.817	174.345	-64.131	197.257	145.200	258.966	172.098	229.592	-77.397	0.00010396	0.00016197	8.9949e-05	1140.6	5.0015e-06	5.3375e-06	1208.7	228.48	6.3823e-07	5.365e-06	289.95	69.9	63.199	18.608	7.0851e-06	25.596	0.00030993	0.00031789	8.8298e-05	1076.5	3.4592e-06	3.4779e-06	1167.9	225.25	3.4766e-06	3.4695e-06	283.74	80.739	63.688	19.116	3.4061e-06	26.122	188.291	80.461	-21.535	-76.120	93.147	256.971	-75.698	-68.273	203.682	44.059	-68.846	-64.615	-62.006	-54.955	100.822	-54.729	-8191	255	
2800.706	1	1	0	0	0.12457	0.20173	0.16206	0.20828	0.048351	0.24094	0.17883	0.073658	0.19626	0.20993	0.23476	0.13395	0.34075	0.26714	0.086575	0.14408	-2.3646	-2.3979	-2.2271	-2.6521	-2.3563	-2.5479	-2.8604	-2.4417	-2.5729	-2.5146	-2.4083	-2.7625	-2.5292	-2.5625	-2.5958	-2.2687	129.021	103.566	184.706	97.282	33.217	-24.543	222.448	119.064	212.891	127.043	-13.817	91.402	-76.676	244.526	87.445	172.936	0.0001255	0.00024093	0.00011045	1149.6	6.6419e-06	4.3156e-06	1203.7	227.38	3.6698e-06	3.8574e-06	290.38	73.422	63.124	18.418	9.6803e-06	25.619	0.00030799	0.0003079	8.5481e-05	1075	3.3615e-06	3.366e-06	1164.7	225.02	3.4241e-06	3.4124e-06	283.19	80.211	63.683	19.06	3.4169e-06	26.139	210.329	-13.593	-86.258	-76.069	43.928	-84.631	-75.763	-68.296	155.312	3.717	-68.790	-60.826	-62.121	-54.580	30.136	-55.340	-8191	255	
2800.778	1	1	0	0	0.099667	0.27444	0.21114	0.16867	0.1352	0.20425	0.14188	0.16238	0.16279	0.12344	0.081633	0.096287	0.053551	0.050705	0.080298	0.17103	-2.1521	-2.4833	-2.3604	-2.7583	-2.5667	-2.6	-2.7458	-2.2562	-2.6583	-2.55	-2.4292	-2.8125	-2.4042	-2.4167	-2.6333	-2.4458	-68.651	227.931	-11.271	33.307	207.798	201.081	207.688	70.570	225.304	22.060	-8.403	190.633	-64.875	139.829	-65.845	195.848	7.2397e-05	0.00063735	6.2114e-05	1151	4.6397e-06	2.8542e-06	1206.3	227.96	3.5912e-06	4.9567e-06	289.43	73.289	63.541	18.514	2.4253e-06	25.62	0.00030732	0.00031179	8.805e-05	1076.7	3.4666e-06	3.4569e-06	1168	225.07	3.5119e-06	3.461e-06	284.28	81.861	63.919	19.174	3.5188e-06	26.183	183.717	246.067	96.817	-75.820	79.357	235.755	-75.705	-68.588	-22.167	-36.949	-68.344	-63.711	-62.028	-54.433	-81.827	-55.225	-8191	255	
2800.898	1	1	0	0	0.038108	0.18234	0.22266	0.16553	0.040268	0.11401	0.29405	0.18334	0.15418	0.20548	0.28784	0.041152	0.26269	0.08292	0.11506	0.02594	-2.3583	-2.4521	-2.2792	-2.9062	-2.3937	-2.4188	-2.8583	-2.4625	-2.7146	-2.5187	-2.4771	-2.8854	-2.4167	-2.3563	-2.6792	-2.4062	207.058	-4.821	-39.365	260.720	5.050	178.557	193.100	183.653	43.875	116.116	-82.123	254.876	21.863	21.975	132.329	234.788	8.6599e-06	0.00057921	0.00014184	1145.1	4.1655e-06	8.4489e-06	1202.3	227.04	9.0941e-07	5.3181e-06	290.89	70.998	63.081	18.72	5.1355e-06	25.514	0.00031586	0.00031986	8.9424e-05	1078.5	3.507e-06	3.5503e-06	1167.2	225.29	3.5643e-06	3.5436e-06	284.82	82.039	64.157	19.225	3.5328e-06	26.288	270.941	252.927	185.155	-75.901	11.327	28.209	-75.729	-68.210	43.386	228.747	-68.904	-61.303	-61.543	-54.802	58.801	-55.000	-8191	255	
2800.994	1	1	0	0	0.24153	0.10737	0.15432	0.12457	0.028159	0.11808	0.36655	0.30237	0.41301	0.1753	0.24243	0.25072	0.13534	0.11713	0.13048	0.13062	-2.1292	-2.6021	-2.3083	-2.7708	-2.4271	-2.3417	-3.075	-2.5604	-2.5917	-2.5625	-2.1417	-2.6625	-2.6729	-2.5583	-2.8187	-2.4958	67.159	115.530	247.023	272.481	255.256	34.942	200.701	239.143	36.163	134.184	214.921	-72.800	141.056	-23.351	22.045	158.931	7.8711e-05	0.00013057	3.2156e-05	1142.7	4.6032e-06	8.6757e-07	1211.1	227.87	4.6077e-06	2.2034e-06	289.68	71.366	62.924	18.648	4.0748e-06	25.451	0.00032046	0.00032193	9.0339e-05	1079.7	3.5031e-06	3.5538e-06	1170.1	225.89	3.5066e-06	3.5248e-06	283.97	81.667	63.978	19.269	3.5731e-06	26.253	255.667	53.443	51.827	-75.951	214.139	69.463	-75.661	-68.456	70.923	56.821	-68.705	-64.538	-62.347	-54.462	109.988	-55.741	-8191	255	
2801.091	1	1	0	0	0.097727	0.045565	0.24305	0.20369	0.16234	0.1946	0.19821	0.38303	0.20077	0.18327	0.2868	0.13718	0.17794	0.071017	0.21336	0.038903	-2.0646	-2.6396	-2.25	-2.7188	-2.4562	-2.4229	-2.8896	-2.5417	-2.6208	-2.575	-2.2146	-2.6458	-2.6792	-2.3396	-2.4938	-2.5187	200.865	-27.667	-18.896	60.179	156.889	186.442	182.033	135.080	215.008	42.357	227.948	192.456	-76.471	-75.603	-27.261	-0.020	7.6733e-05	0.00049576	3.9679e-05	1141.6	4.5523e-06	2.505e-06	1205.9	228.43	1.4727e-06	3.2912e-06	290.34	69.034	63.21	18.713	3.3311e-06	25.727	0.00032428	0.00032579	9.1086e-05	1080.9	3.5631e-06	3.5934e-06	1167.8	225.62	3.6051e-06	3.5565e-06	284.62	82.788	64.047	19.269	3.5917e-06	26.306	191.865	23.819	258.793	-75.959	82.731	-47.151	-75.633	-68.416	264.822	81.456	-68.740	-61.166	-61.796	-55.304	22.748	-54.977	-8191	255	
2801.187	1	1	0	0	0.087891	0.063809	0.12817	0.19242	0.24762	0.18841	0.16743	0.42715	0.075708	0.26259	0.29822	0.11201	0.15657	0.1686	0.28226	0.10026	-2.1771	-2.7708	-2.4229	-2.6625	-2.4854	-2.3646	-2.8812	-2.4813	-2.4979	-2.6813	-2.2979	-2.5438	-2.8979	-2.4167	-2.7313	-2.6167	118.262	64.521	-14.977	-40.264	-11.729	159.331	190.288	260.951	-21.258	162.266	256.032	267.214	-83.450	209.246	13.164	-85.931	6.6837e-05	0.00089909	0.00012244	1154.5	3.9419e-06	3.3332e-06	1206.6	228.11	1.1954e-06	3.3644e-06	290.51	69.611	63.261	18.717	4.0906e-06	25.501	0.00032128	0.00032604	9.068e-05	1081.5	3.5517e-06	3.5281e-06	1169.8	225.59	3.5143e-06	3.5291e-06	284.49	81.447	63.91	19.199	3.4682e-06	26.113	202.942	-81.162	-46.818	-76.037	155.696	-0.590	-75.672	-68.352	110.312	58.840	-68.363	-63.146	-62.013	-54.838	136.166	-55.400	-8191	255	
2801.306	1	1	0	0	0.13768	0.029524	0.17811	0.21246	0.17526	0.21852	0.33559	0.36211	0.044901	0.12159	0.097572	0.18166	0.23544	0.17367	0.068853	0.075857	-1.7687	-2.8104	-2.225	-2.525	-2.5271	-2.375	-2.8479	-2.7125	-2.375	-2.7562	-2.3937	-2.4021	-2.6521	-2.3354	-2.675	-2.5958	42.975	186.987	63.832	241.857	85.550	210.750	197.185	156.133	137.856	251.484	219.198	184.931	94.329	219.330	-4.027	202.222	6.6958e-05	0.00055761	5.3757e-05	1145.5	3.7795e-06	6.2625e-06	1207	227.39	5.0475e-06	3.2137e-06	289.87	70.52	63.148	18.587	8.2111e-06	25.655	0.00031135	0.00031386	8.7942e-05	1079.1	3.4209e-06	3.4225e-06	1165.9	224.76	3.3935e-06	3.3816e-06	283.03	80.008	63.385	19.125	3.3607e-06	26.094	141.961	213.807	67.005	-76.041	38.340	61.942	-75.691	-68.597	194.001	219.206	-68.509	-62.480	-62.239	-54.638	33.302	-54.843	-8191	255	
2801.402	1	1	0	0	0.15986	0.28457	0.16638	0.20758	0.15516	0.0691	0.47957	0.087949	0.030797	0.14918	0.031633	0.063037	0.20338	0.17635	0.12564	0.22004	-1.9625	-2.7229	-2.6583	-2.3542	-2.6521	-2.3625	-2.875	-2.8771	-2.25	-2.8063	-2.5604	-2.4813	-2.8563	-2.4021	-2.6146	-2.7875	130.510	252.085	-16.239	232.855	269.772	-31.530	214.762	102.359	254.227	57.291	258.563	271.125	255.736	-33.915	-80.030	181.845	4.405e-05	0.00056967	0.00011747	1149	2.3882e-06	7.3586e-06	1203.2	228.3	9.1437e-07	4.5641e-06	290.51	70.226	63.373	18.668	5.9168e-06	25.422	0.00030374	0.00030826	8.5354e-05	1076.2	3.3575e-06	3.4107e-06	1166.1	225.29	3.4477e-06	3.4372e-06	284.03	81.31	63.824	19.181	3.5133e-06	26.206	248.313	108.838	160.903	-75.799	117.275	-68.877	-75.475	-68.198	170.342	71.016	-68.749	-63.373	-61.882	-54.413	74.238	-55.335	-8191	255	
2801.498	1	1	0	0	0.1118	0.11537	0.058089	0.18556	0.16464	0.18621	0.1535	0.2464	0.069046	0.023909	0.093525	0.29045	0.24288	0.21354	0.22253	0.12478	-1.8333	-2.7396	-2.6375	-2.5875	-2.6333	-2.3354	-2.7479	-2.6292	-2.4729	-2.6917	-2.4292	-2.3146	-2.7646	-2.1667	-2.6125	-2.7687	154.919	245.846	27.636	90.447	-20.904	231.860	179.182	264.865	203.966	134.316	233.601	214.037	-60.374	-69.856	159.813	217.134	0.00012073	0.00049186	9.3027e-05	1143.1	2.915e-06	4.7264e-06	1202.5	227.58	2.9744e-06	3.5661e-06	291.22	74.266	63.668	18.589	2.0802e-06	25.609	0.00031781	0.00032596	9.0225e-05	1082.8	3.5666e-06	3.5993e-06	1168.1	225.16	3.5764e-06	3.526e-06	284.01	82.128	63.961	19.207	3.5102e-06	26.198	208.615	-13.954	39.531	-75.795	43.755	-32.049	-75.630	-68.684	-30.801	-25.522	-68.711	-63.773	-61.770	-54.854	103.525	-55.113	-8191	255	
2801.594	1	1	0	0	0.16037	0.32134	0.056918	0.14708	0.2295	0.20824	0.25704	0.18124	0.21464	0.26947	0.23155	0.3438	0.20977	0.1399	0.1706	0.29381	-1.9292	-2.6417	-2.4146	-2.3187	-2.8604	-2.5271	-2.6229	-2.85	-2.4271	-2.8042	-2.7354	-2.3292	-2.9313	-2.5375	-2.5333	-2.9375	-16.860	150.851	123.400	15.668	68.636	182.586	192.769	205.924	70.298	29.159	233.341	200.116	246.372	-62.773	2.889	127.608	0.00015681	1.495e-05	0.00023274	1137.9	3.9482e-06	3.7071e-06	1208.6	226.68	3.2485e-06	1.089e-06	291.97	71.5	62.837	18.504	6.043e-06	25.493	0.00031698	0.00032212	8.868e-05	1075.9	3.4803e-06	3.4875e-06	1168.1	224.74	3.4505e-06	3.3948e-06	283.84	80.494	63.592	19.022	3.3809e-06	25.999	188.174	-76.101	69.467	-75.793	-21.205	-23.111	-75.657	-68.489	198.783	40.440	-68.489	-62.543	-62.039	-54.445	37.768	-55.436	-8191	255	
2801.690	1	1	0	0	0.032035	0.20889	0.25336	0.14292	0.17161	0.1441	0.37064	0.19711	0.21373	0.14857	0.19255	0.15706	0.19786	0.27958	0.19741	0.10421	-1.9604	-2.5729	-2.6063	-2.3458	-2.8229	-2.4	-2.7896	-2.9625	-2.2979	-2.7125	-2.6688	-2.2854	-2.8375	-2.6437	-2.3354	-2.7583	168.577	-44.575	54.973	-80.755	77.636	92.611	270.871	198.734	39.294	172.707	-40.221	20.465	8.061	63.333	20.138	91.262	8.5274e-05	0.00018108	0.00013203	1138.8	4.9732e-06	8.2675e-06	1201.2	226.88	2.841e-06	9.0784e-07	289.02	70.823	63.115	18.695	7.0465e-06	25.46	0.00030425	0.00030788	8.6518e-05	1071.6	3.3822e-06	3.397e-06	1163.2	224.18	3.4132e-06	3.4229e-06	282.31	80.505	63.446	19.129	3.3395e-06	26.03	243.385	44.149	-66.665	-75.627	118.884	-68.505	-75.678	-68.312	-37.691	-29.422	-68.551	-62.381	-62.000	-54.577	-63.197	-55.103	-8191	255	
2801.786	1	1	0	0	0.047855	0.14722	0.31529	0.078573	0.053004	0.023655	0.1747	0.25641	0.26559	0.042281	0.21393	0.066993	0.33254	0.26605	0.20204	0.22201	-1.8854	-2.4417	-2.5854	-2.2292	-2.7208	-2.5167	-2.5958	-2.8521	-2.5042	-2.6521	-2.8979	-2.1667	-2.7938	-2.7812	-2.4062	-2.9417	54.354	218.415	-83.684	-76.938	105.751	252.590	179.713	223.382	-52.591	172.729	-13.369	-60.015	249.886	136.185	102.706	176.175	0.00015007	0.00011398	8.2796e-05	1140.1	3.7357e-06	2.978e-06	1201.8	226.83	6.984e-06	2.7797e-06	289.82	70.433	63.313	18.54	2.9697e-06	25.297	0.0003046	0.00030972	8.521e-05	1071.1	3.3565e-06	3.3573e-06	1162	224.26	3.375e-06	3.3531e-06	283.19	79.582	63.506	19.082	3.3718e-06	25.977	170.900	-66.186	7.554	-75.868	13.240	66.267	-75.541	-68.341	-24.887	-52.063	-68.460	-61.968	-61.892	-54.780	-30.815	-55.046	-8191	255	
2801.907	1	1	0	0	0.11697	0.16169	0.17325	0.33149	0.06857	0.24643	0.19725	0.17599	0.0261	0.20278	0.099314	0.22043	0.28171	0.28525	0.30796	0.30388	-1.9688	-2.5521	-2.6312	-2.2458	-2.7583	-2.525	-2.4375	-2.9771	-2.4938	-2.6229	-2.7979	-2.3958	-2.6646	-2.6396	-2.3042	-2.9042	-57.260	48.480	192.162	166.677	66.935	-35.608	214.700	188.977	24.100	229.339	-83.378	197.235	158.728	-18.961	147.164	-45.021	0.00011274	6.5022e-05	4.1653e-05	1144.1	6.8948e-06	6.4217e-07	1206.4	227.96	4.9069e-06	2.4531e-06	290.62	70.38	63.107	18.568	7.5705e-06	25.61	0.00030047	0.00030455	8.4511e-05	1071.7	3.3677e-06	3.3312e-06	1163.8	224.33	3.3501e-06	3.3813e-06	282.63	79.747	63.498	19.044	3.3166e-06	26.051	133.818	153.486	-36.655	-75.851	50.489	110.793	-75.497	-68.437	212.094	59.749	-68.906	-62.287	-61.907	-55.012	33.669	-54.874	-8191	255	
2802.001	1	1	0	0	0.023816	0.2683	0.18765	0.15778	0.3082	0.0728	0.050212	0.2876	0.066708	0.17243	0.22218	0.19708	0.098623	0.2093	0.11657	0.060455	-1.8813	-2.5646	-2.7229	-2.5083	-2.7125	-2.7792	-2.3187	-2.7646	-2.5042	-2.5312	-2.9896	-2.2917	-2.5417	-2.7396	-2.2833	-2.8271	95.668	61.660	-74.277	227.943	146.981	102.786	166.220	207.402	239.782	143.073	128.518	-33.453	241.015	51.450	265.638	-78.279	2.035e-05	0.00014727	2.991e-05	1137.6	5.7207e-06	9.4551e-07	1206.8	228.18	1.7669e-06	4.5068e-06	289	70.482	63.092	18.663	5.6461e-06	25.514	0.00030138	0.00030518	8.4355e-05	1069.1	3.2941e-06	3.2889e-06	1162.1	224.25	3.297e-06	3.3294e-06	281.7	78.522	63.457	19.044	3.3056e-06	25.969	-35.397	237.272	13.623	-76.094	12.896	135.164	-75.700	-68.467	244.969	188.424	-68.421	-62.075	-61.925	-54.822	-19.181	-55.344	-8191	255	
2802.075	1	1	0	0	0.10166	0.16237	0.14845	0.17054	0.050753	0.15402	0.15007	0.14365	0.16077	0.15328	0.11157	0.25608	0.20253	0.14981	0.16515	0.033728	-2.0479	-2.2542	-2.8479	-2.3	-2.6542	-2.8542	-2.3854	-2.8292	-2.6042	-2.4833	-3.075	-2.5583	-2.7646	-2.9208	-2.3292	-2.7313	-10.650	77.910	-55.802	97.828	25.495	-82.885	225.499	162.991	18.530	145.168	231.043	94.124	229.816	-12.901	-58.122	259.554	0.00012494	0.00063045	0.00013826	1140.3	4.266e-06	9.1569e-06	1202	227.2	2.9987e-06	3.2552e-06	288.6	71.553	63.512	18.543	1.6864e-06	25.641	0.00029416	0.00029906	8.2921e-05	1069.4	3.2739e-06	3.2817e-06	1161.4	224.06	3.3346e-06	3.3412e-06	282.29	80.168	63.476	19.099	3.3969e-06	26.089	198.452	-75.581	52.185	-76.125	32.778	82.368	-75.767	-68.365	63.130	-24.079	-68.709	-65.652	-61.757	-54.868	188.765	-55.199	-8191	255	
2802.195	1	1	0	0	0.10309	0.039176	0.13384	0.083207	0.19619	0.26258	0.1927	0.2184	0.11335	0.20908	0.23334	0.058345	0.25826	0.09611	0.24145	0.18952	-2.1396	-2.2292	-2.8583	-2.5021	-2.5354	-2.7875	-2.6	-2.6396	-2.7167	-2.3896	-2.8688	-2.4146	-2.525	-2.7938	-2.3417	-2.7375	31.723	-50.109	72.208	87.113	6.753	76.350	230.530	191.853	16.572	214.458	229.880	-30.553	-27.005	-46.213	-20.067	12.617	1.9737e-05	0.00027163	1.4511e-05	1146.2	4.0255e-06	6.4155e-06	1208.5	227.07	6.8668e-06	1.4476e-06	289.91	72.791	63.141	18.645	7.2281e-06	25.73	0.00030216	0.00030888	8.5797e-05	1073.6	3.3495e-06	3.3136e-06	1165.3	223.98	3.3265e-06	3.3603e-06	282.43	79.521	63.513	19.129	3.3357e-06	26.062	243.535	143.738	41.148	-75.739	255.103	68.359	-75.742	-68.340	35.290	82.240	-68.794	-61.868	-62.047	-54.858	209.675	-55.339	-8191	255	
2802.290	1	1	0	0	0.19512	0.1312	0.15252	0.16336	0.14847	0.19852	0.38817	0.14428	0.080105	0.1595	0.21147	0.11776	0.22403	0.38935	0.066833	0.1865	-2.1479	-2.3771	-2.8021	-2.7083	-2.5229	-2.7917	-2.6188	-2.6583	-2.7167	-2.3375	-2.8104	-2.3771	-2.375	-2.975	-2.475	-2.6333	54.933	57.188	241.108	-7.571	-47.475	106.599	185.779	-56.652	67.017	127.485	96.341	80.645	77.271	-39.631	48.109	169.640	8.0606e-05	0.00052875	9.0463e-05	1142.7	3.1498e-06	2.7915e-06	1207.6	227.76	5.1606e-06	7.4052e-06	288.96	68.704	62.758	18.634	6.9047e-06	25.503	0.00029576	0.00030137	8.3513e-05	1071	3.2786e-06	3.287e-06	1163.6	224.32	3.279e-06	3.3013e-06	282.08	79.045	63.309	19.067	3.3215e-06	26.03	145.586	19.549	85.733	-76.038	68.888	-36.222	-75.586	-68.338	100.349	-12.385	-68.642	-60.854	-62.151	-54.643	63.655	-55.403	-8191	255	
2802.386	1	1	0	0	0.075393	0.26033	0.19237	0.11993	0.22281	0.092907	0.10381	0.16121	0.38492	0.34872	0.075122	0.095552	0.14052	0.2749	0.20982	0.14925	-2.325	-2.1375	-2.7542	-2.6104	-2.375	-2.8063	-2.6729	-2.5854	-2.7458	-2.4396	-2.7083	-2.7062	-2.5479	-2.95	-2.5146	-2.4542	199.029	123.872	142.241	-23.059	66.310	-74.124	-72.856	263.205	140.230	-36.733	62.535	176.910	215.209	-78.934	97.611	55.714	0.00014776	0.00033105	8.1321e-05	1132.5	2.5068e-06	6.7467e-06	1202.9	227	2.6798e-06	2.4595e-06	289.28	71.419	63.398	18.464	3.472e-06	25.513	0.00029751	0.00030409	8.5153e-05	1068.3	3.3505e-06	3.2961e-06	1161.9	224.1	3.3547e-06	3.3299e-06	282.19	79.32	63.475	19.032	3.3523e-06	25.991	177.298	-60.426	66.902	-76.115	-2.157	40.264	-75.522	-68.485	49.503	21.409	-68.510	-63.631	-61.835	-54.810	78.311	-54.973	-8191	255	
2802.482	1	1	0	0	0.11795	0.19518	0.30633	0.1362	0.27083	0.11888	0.33334	0.093864	0.18068	0.15485	0.12545	0.33069	0.29636	0.10623	0.13982	0.14135	-2.3063	-2.2042	-2.3979	-2.7604	-2.3396	-2.9479	-2.8042	-2.5187	-2.825	-2.3354	-2.5312	-2.6667	-2.2375	-2.7021	-2.5	-2.3646	-5.243	251.159	9.946	201.171	189.174	208.263	197.819	50.332	83.156	137.420	-42.144	142.147	-78.423	239.176	-45.543	220.640	8.2386e-05	0.00080745	0.00013483	1138.5	4.6688e-06	4.0994e-06	1198.3	227.7	1.2357e-06	3.0318e-06	290.59	70.944	63.098	18.629	1.0253e-05	25.532	0.00030046	0.00030634	8.4432e-05	1070.5	3.3176e-06	3.3076e-06	1162.1	224.03	3.2794e-06	3.2635e-06	282.46	78.28	63.172	19.08	3.2519e-06	25.925	157.743	0.995	29.033	-75.674	38.929	81.536	-75.802	-68.471	168.042	201.264	-68.758	-63.331	-61.988	-55.097	-51.652	-55.023	-8191	255	
2802.603	1	1	0	0	0.017933	0.16319	0.15743	0.10869	0.3304	0.19158	0.12899	0.2575	0.083668	0.20316	0.26119	0.1375	0.23993	0.14486	0.029506	0.18901	-2.2333	-2.375	-2.6208	-2.7812	-2.3458	-2.7479	-2.7583	-2.3354	-2.8063	-2.4729	-2.4979	-2.7979	-2.3604	-2.775	-2.6625	-2.3729	-68.305	115.701	194.112	261.161	247.292	81.996	244.046	214.036	82.957	105.312	177.206	111.440	236.853	4.135	127.922	272.014	8.9081e-05	0.00035908	5.5517e-05	1148.5	2.7915e-06	5.7211e-06	1205.1	228.19	4.6645e-06	4.4999e-06	291.03	73.256	63.22	18.517	5.0039e-06	25.422	0.00029542	0.00030019	8.3674e-05	1075	3.3026e-06	3.2697e-06	1162.1	224.32	3.2771e-06	3.2984e-06	282.56	79.011	63.182	19.065	3.283e-06	25.971	184.739	40.041	82.464	-75.771	254.979	-47.526	-75.796	-68.452	207.394	227.372	-68.850	-63.185	-61.971	-53.991	80.525	-55.414	-8191	255	
2802.699	1	1	0	0	0.2482	0.14152	0.23777	0.10425	0.083734	0.16279	0.16314	0.23742	0.065018	0.18932	0.12614	0.045818	0.1512	0.15593	0.05767	0.15267	-2.4583	-2.4813	-2.4646	-2.7313	-2.1875	-2.5646	-2.6854	-2.3688	-2.7708	-2.3917	-2.6875	-2.8333	-2.375	-2.6729	-2.6437	-2.4167	46.218	-50.948	-2.003	245.625	99.779	-6.481	243.363	163.327	132.726	54.084	224.717	237.724	242.582	-59.888	149.129	-79.640	0.00010633	0.00026153	4.6416e-05	1145.1	8.3956e-07	3.1186e-06	1201.7	225.84	3.3844e-06	3.0968e-06	289.73	69.73	63.063	18.634	3.8723e-07	25.606	0.00029796	0.00029915	8.4068e-05	1072.8	3.3013e-06	3.2946e-06	1164.9	223.8	3.3542e-06	3.3098e-06	282.08	78.962	63.363	19.122	3.3517e-06	26.041	184.230	-24.380	-29.413	-76.264	58.224	45.314	-75.749	-68.229	49.882	94.590	-68.964	-62.847	-62.022	-54.459	117.950	-55.030	-8191	255	
2802.771	1	1	0	0	0.33104	0.11618	0.12493	0.23465	0.11497	0.11972	0.16472	0.093279	0.15866	0.2003	0.071817	0.14652	0.12312	0.31538	0.038983	0.08828	-2.3	-2.5333	-2.3271	-2.6625	-2.4667	-2.675	-2.9604	-2.3812	-2.7167	-2.4708	-2.6	-2.7792	-2.4896	-2.8271	-2.875	-2.2854	-1.149	197.862	176.621	219.554	85.072	245.852	234.202	142.731	78.158	-57.527	-45.332	220.938	72.361	-61.373	38.667	-24.961	9.5245e-05	0.00061437	0.00012266	1145.6	2.7854e-06	4.4561e-06	1207.3	227.41	1.9182e-06	1.5617e-06	289.28	70.704	63.102	18.608	2.9532e-06	25.733	0.00029997	0.00030676	8.4873e-05	1073.8	3.3016e-06	3.3112e-06	1165.2	224.51	3.3131e-06	3.3253e-06	282.48	79.029	63.295	19.128	3.3335e-06	26.063	213.979	-68.385	185.741	-75.963	171.024	154.044	-75.753	-68.428	204.559	67.586	-68.685	-62.552	-61.560	-54.944	51.773	-55.021	-8191	255	
2802.867	1	1	0	0	0.28827	0.12736	0.31465	0.16347	0.19534	0.12343	0.16399	0.24372	0.39423	0.039081	0.064346	0.27926	0.29162	0.09919	0.2752	0.20167	-2.1667	-2.5354	-2.4271	-2.7271	-2.4146	-2.4688	-2.8563	-2.4104	-2.7896	-2.6708	-2.5292	-2.8771	-2.6854	-2.625	-2.8792	-2.4667	141.943	104.186	237.413	135.844	-42.494	-69.517	254.165	202.148	172.174	233.788	161.861	13.230	-62.770	202.590	173.123	243.935	0.00012041	0.00011214	0.00023546	1141.6	4.9384e-06	1.8603e-06	1204.6	227.21	2.8443e-06	2.915e-06	289.85	71.047	63.133	18.604	8.7922e-06	25.57	0.0003035	0.0003044	8.4356e-05	1072.6	3.3425e-06	3.3472e-06	1164.9	224.13	3.3179e-06	3.3794e-06	282.94	79.836	63.39	19.108	3.3654e-06	26.087	170.119	129.401	-13.466	-75.692	84.517	96.320	-75.622	-68.312	-32.445	-11.228	-68.639	-63.312	-61.897	-54.302	72.582	-54.940	-8191	255	
2802.987	1	1	0	0	0.10954	0.22466	0.18017	0.12307	0.27771	0.23654	0.25366	0.062731	0.18429	0.19722	0.065139	0.085908	0.3811	0.1134	0.29973	0.23024	-2.2729	-2.75	-2.3896	-2.8708	-2.3375	-2.4625	-2.9979	-2.4771	-2.7292	-2.7062	-2.475	-2.6271	-2.6292	-2.4354	-2.8479	-2.3312	-77.693	-69.584	64.196	-34.423	32.071	219.300	214.796	186.850	10.429	243.766	118.329	73.804	210.938	42.428	-57.997	15.789	3.1771e-05	0.0004395	4.848e-05	1138.7	7.8751e-06	5.4244e-06	1206.5	228.04	2.9526e-06	4.4601e-06	289.89	71.166	63.367	18.511	7.2835e-07	25.317	0.00030447	0.00030969	8.5743e-05	1073.6	3.3468e-06	3.341e-06	1163.2	224.62	3.3086e-06	3.2996e-06	282.13	79.553	63.296	19.043	3.2671e-06	25.943	137.591	49.375	34.977	-76.212	100.847	-20.214	-75.731	-68.361	217.277	9.708	-68.894	-62.220	-62.167	-54.881	106.379	-55.367	-8191	255	
2803.084	1	1	0	0	0.23974	0.18193	0.1959	0.18211	0.26471	0.082412	0.1187	0.23958	0.10172	0.1052	0.22891	0.27484	0.24803	0.052232	0.19356	0.18926	-2.2271	-2.6646	-2.2812	-2.7604	-2.6271	-2.375	-3.0979	-2.5167	-2.6354	-2.8312	-2.4146	-2.7188	-2.5625	-2.45	-2.6833	-2.4042	243.743	-15.725	49.223	142.924	96.799	82.015	168.515	166.080	236.376	-12.740	-64.795	54.659	221.035	172.924	155.413	7.513	7.0729e-05	0.000233	0.00018017	1146.2	4.434e-06	3.2154e-06	1196.2	227.77	5.0795e-06	2.6132e-06	288.93	71.029	63.217	18.606	3.2091e-06	25.473	0.000294	0.00029595	8.1874e-05	1070	3.2206e-06	3.2102e-06	1157.7	223.67	3.1713e-06	3.1544e-06	280.92	77.39	62.904	18.993	3.181e-06	25.897	101.566	32.406	-4.799	-75.895	54.901	109.502	-75.709	-68.322	269.075	126.799	-68.706	-59.682	-61.603	-54.663	171.725	-55.099	-8191	255	
2803.180	1	1	0	0	0.062795	0.12597	0.055915	0.079149	0.09824	0.10865	0.32273	0.21151	0.11237	0.1372	0.11303	0.1204	0.21097	0.17286	0.10475	0.061001	-2.2417	-2.7438	-2.2313	-2.6854	-2.3417	-2.4521	-2.8875	-2.6354	-2.4896	-2.7583	-2.5167	-2.6208	-2.5604	-2.2292	-2.6667	-2.5271	122.076	137.530	134.137	239.485	181.412	13.356	-66.481	111.003	51.340	179.724	198.172	-63.325	36.754	99.549	224.787	151.381	6.3708e-05	0.00026011	0.00015345	1138.1	6.2312e-06	5.51e-06	1199.8	226.16	6.3544e-07	8.8635e-07	289.52	70.569	62.826	18.558	2.8058e-06	25.505	0.00028577	0.0002915	8.0346e-05	1067.2	3.1806e-06	3.1629e-06	1159.1	223.02	3.1772e-06	3.1661e-06	281.22	77.166	62.724	18.987	3.1499e-06	25.828	-83.066	-48.470	-39.028	-75.980	110.480	172.347	-75.805	-68.417	4.452	159.891	-68.454	-62.661	-62.022	-54.805	236.411	-55.326	-8191	255	
2803.299	1	1	0	0	0.20923	0.080151	0.19966	0.15421	0.16602	0.24138	0.055826	0.075107	0.27979	0.07377	0.19692	0.23817	0.26214	0.15391	0.16614	0.046359	-1.9958	-2.7875	-2.4146	-2.5729	-2.6375	-2.3771	-2.8042	-2.5417	-2.5	-2.7854	-2.6083	-2.5271	-2.5896	-2.3396	-2.6854	-2.8042	-22.148	164.604	116.935	215.984	-29.041	143.764	262.200	155.988	-29.785	240.406	227.302	185.586	-11.197	228.789	134.500	269.726	1.3111e-05	0.00010476	8.7791e-05	1144.4	1.7054e-06	6.4112e-06	1195.4	226.44	4.1869e-06	1.9256e-06	288.9	70.628	62.618	18.538	3.3354e-07	25.36	0.00028579	0.00028855	8.0374e-05	1067.6	3.1728e-06	3.1608e-06	1158.6	223.14	3.2002e-06	3.1907e-06	281.43	78.24	62.957	19.055	3.2343e-06	25.901	-20.948	-3.661	58.304	-75.730	26.533	105.239	-75.728	-68.243	-49.032	24.187	-68.454	-64.185	-61.373	-54.672	164.119	-55.158	-8191	255	
2803.370	1	1	0	0	0.116	0.19528	0.17759	0.17076	0.0564	0.43266	0.28168	0.26079	0.091826	0.11436	0.1407	0.090201	0.1639	0.037793	0.081507	0.027384	-2.0271	-2.7104	-2.4167	-2.6479	-2.6458	-2.3021	-2.9021	-2.5687	-2.5	-2.7125	-2.5104	-2.4229	-2.6542	-2.3833	-2.6875	-2.5062	260.905	220.578	68.829	260.751	211.141	13.647	172.633	214.256	-3.546	-53.779	174.237	-53.777	-67.978	-74.754	184.975	-54.060	0.00010471	0.00049623	2.5729e-05	1143.4	4.4354e-06	3.2963e-06	1201.4	227.36	2.0726e-06	2.232e-06	287.95	70.561	63.466	18.564	1.9696e-06	25.397	0.00029019	0.00029312	8.1575e-05	1066.3	3.2119e-06	3.2329e-06	1159.4	223.67	3.2614e-06	3.2614e-06	281.24	78.818	63.422	19.118	3.317e-06	25.938	163.829	-36.131	152.169	-76.045	171.901	-82.302	-75.567	-68.261	265.351	90.662	-68.526	-63.427	-62.038	-54.765	-33.204	-55.103	-8191	255	
2803.466	1	1	0	0	0.15466	0.2447	0.32854	0.056901	0.065276	0.33121	0.40515	0.16235	0.21258	0.08432	0.082583	0.10218	0.18448	0.0096203	0.19665	0.14966	-1.8271	-2.8167	-2.4917	-2.5083	-2.7771	-2.3271	-2.9208	-2.7292	-2.3625	-2.725	-2.45	-2.4583	-2.7438	-2.3646	-2.5271	-2.6479	-23.875	38.983	44.560	146.739	16.661	-48.047	223.192	199.073	272.691	31.056	-74.012	-60.809	200.832	-56.425	-69.880	204.261	5.5096e-05	0.00030259	2.3521e-05	1141.4	9.3422e-07	4.3553e-06	1202	226.94	2.1181e-06	2.3371e-06	288.52	70.498	62.87	18.579	1.9106e-06	25.507	0.00030024	0.00030117	8.3609e-05	1069.2	3.3066e-06	3.3194e-06	1161.9	223.88	3.3201e-06	3.3057e-06	281.86	79.149	63.139	19.131	3.3064e-06	25.96	177.805	254.462	-81.975	-75.752	230.676	-52.002	-75.556	-68.287	17.807	63.880	-68.871	-64.363	-61.418	-54.732	209.746	-55.297	-8191	255	
2803.587	1	1	0	0	0.1622	0.20396	0.16285	0.26611	0.053821	0.15251	0.23037	0.3589	0.15198	0.13679	0.23118	0.20748	0.12993	0.22398	0.22088	0.16252	-1.8167	-2.7333	-2.3833	-2.3354	-2.8229	-2.4042	-2.7792	-2.7896	-2.4	-2.7938	-2.7896	-2.3438	-2.8708	-2.2125	-2.4979	-2.7646	206.650	63.714	196.190	13.215	242.352	170.033	269.038	221.400	200.904	164.329	158.225	89.852	231.540	-17.356	126.278	120.121	0.00015672	0.00081975	5.6904e-05	1136.4	3.2675e-06	7.2857e-06	1203.9	227.78	4.5684e-06	3.9459e-06	287.39	68.957	63.075	18.616	5.4793e-06	25.564	0.00029751	0.00029975	8.2868e-05	1067.6	3.213e-06	3.2023e-06	1159.2	223.67	3.1492e-06	3.1455e-06	280.66	76.245	62.726	18.929	3.0443e-06	25.714	173.111	20.678	-13.530	-75.965	216.931	41.621	-75.844	-68.449	-50.345	-43.980	-68.548	-62.438	-61.667	-54.661	207.875	-55.183	-8191	255	
2803.683	1	1	0	0	0.24376	0.13431	0.17786	0.26717	0.26442	0.30016	0.18226	0.17656	0.24507	0.07127	0.092402	0.10193	0.16391	0.047129	0.11891	0.151	-1.8521	-2.5417	-2.5312	-2.5187	-2.8375	-2.5229	-2.7979	-2.6937	-2.4646	-2.6083	-2.6208	-2.3063	-2.7792	-2.5812	-2.4708	-2.6854	69.899	51.880	58.183	201.043	65.732	-47.113	95.360	57.148	99.955	-67.974	129.631	-9.119	-58.615	103.483	236.672	-11.911	8.032e-05	0.00030707	0.00021637	1140.4	5.3447e-06	4.1981e-06	1198	226.87	1.9619e-06	1.7332e-06	287.31	72.181	63.261	18.561	2.2735e-06	25.564	0.00027225	0.00027433	7.6427e-05	1061.1	2.9987e-06	3.0027e-06	1154.6	222.37	2.997e-06	3.0124e-06	279.33	76.075	62.668	18.936	3.0314e-06	25.778	165.607	-67.790	9.665	-75.561	101.538	-67.659	-75.534	-68.311	190.616	121.361	-68.741	-63.013	-62.056	-54.808	258.624	-55.166	-8191	255	
#DATA ENDS
