BOXY.EXE: ISS Imagent and Oximeter Data Acquisition Program Version 0.80
Ascii Record File

#ACQ INFORMATION
2  Detector Channels 
16  External MUX Channels 
1  Auxiliary Channels 
5000  Waveform (CCF) Frequency (Hz)
1  Waveforms Skipped 
30  Waveforms Averaged 
1  Cycles Averaged 
16  Acquisitions per Waveform 
10.0806  Updata Rate (Hz) 

#FILE INFORMATION
TRUE -- External MUX Channel results are PARSED.
FALSE -- AC DC and Phase are NOT grouped.
TRUE -- Companion Program Settings File CREATED.
FALSE -- AC data not excluded
FALSE -- DC data not excluded
FALSE -- Phase data not excluded
FALSE -- Auxillary Chn. data not excluded
Tab delimiters

#CALIBRATION STATE
TRUE -- Waveform Calibration Values APPLIED.


#AUX CALIBRATION VALUES
Val Type	aux-1	

Term	1.0000e+00	
Factor	0.0000e+00	


#WF CALIBRATION VALUES
A = Detector Channel
Val Type	A-AC1	A-AC2	A-AC3	A-AC4	A-AC5	A-AC6	A-AC7	A-AC8	A-AC9	A-AC10	A-AC11	A-AC12	A-AC13	A-AC14	A-AC15	A-AC16	A-DC1	A-DC2	A-DC3	A-DC4	A-DC5	A-DC6	A-DC7	A-DC8	A-DC9	A-DC10	A-DC11	A-DC12	A-DC13	A-DC14	A-DC15	A-DC16	A-Ph1	A-Ph2	A-Ph3	A-Ph4	A-Ph5	A-Ph6	A-Ph7	A-Ph8	A-Ph9	A-Ph10	A-Ph11	A-Ph12	A-Ph13	A-Ph14	A-Ph15	A-Ph16	

Term	0.00000e+00	0.00000e+00	0.00000e+00	0.00000e+00	0.00000e+00	0.00000e+00	0.00000e+00	0.00000e+00	0.00000e+00	0.00000e+00	0.00000e+00	0.00000e+00	0.00000e+00	0.00000e+00	0.00000e+00	0.00000e+00	0.00000e+00	0.00000e+00	0.00000e+00	0.00000e+00	0.00000e+00	0.00000e+00	0.00000e+00	0.00000e+00	0.00000e+00	0.00000e+00	0.00000e+00	0.00000e+00	0.00000e+00	0.00000e+00	0.00000e+00	0.00000e+00	0.00000e+00	0.00000e+00	0.00000e+00	0.00000e+00	0.00000e+00	0.00000e+00	0.00000e+00	0.00000e+00	0.00000e+00	0.00000e+00	0.00000e+00	0.00000e+00	0.00000e+00	0.00000e+00	0.00000e+00	0.00000e+00	
Factor	1.00000e+00	1.00000e+00	1.00000e+00	1.00000e+00	1.00000e+00	1.00000e+00	1.00000e+00	1.00000e+00	1.00000e+00	1.00000e+00	1.00000e+00	1.00000e+00	1.00000e+00	1.00000e+00	1.00000e+00	1.00000e+00	1.00000e+00	1.00000e+00	1.00000e+00	1.00000e+00	1.00000e+00	1.00000e+00	1.00000e+00	1.00000e+00	1.00000e+00	1.00000e+00	1.00000e+00	1.00000e+00	1.00000e+00	1.00000e+00	1.00000e+00	1.00000e+00	X	X	X	X	X	X	X	X	X	X	X	X	X	X	X	X	

B = Detector Channel
Val Type	B-AC1	B-AC2	B-AC3	B-AC4	B-AC5	B-AC6	B-AC7	B-AC8	B-AC9	B-AC10	B-AC11	B-AC12	B-AC13	B-AC14	B-AC15	B-AC16	B-DC1	B-DC2	B-DC3	B-DC4	B-DC5	B-DC6	B-DC7	B-DC8	B-DC9	B-DC10	B-DC11	B-DC12	B-DC13	B-DC14	B-DC15	B-DC16	B-Ph1	B-Ph2	B-Ph3	B-Ph4	B-Ph5	B-Ph6	B-Ph7	B-Ph8	B-Ph9	B-Ph10	B-Ph11	B-Ph12	B-Ph13	B-Ph14	B-Ph15	B-Ph16	

Term	0.00000e+00	0.00000e+00	0.00000e+00	0.00000e+00	0.00000e+00	0.00000e+00	0.00000e+00	0.00000e+00	0.00000e+00	0.00000e+00	0.00000e+00	0.00000e+00	0.00000e+00	0.00000e+00	0.00000e+00	0.00000e+00	0.00000e+00	0.00000e+00	0.00000e+00	0.00000e+00	0.00000e+00	0.00000e+00	0.00000e+00	0.00000e+00	0.00000e+00	0.00000e+00	0.00000e+00	0.00000e+00	0.00000e+00	0.00000e+00	0.00000e+00	0.00000e+00	-1.16980e+02	-1.32328e+02	-1.32277e+02	-1.83910e+02	-6.67987e+01	-7.58324e+01	-1.56815e+02	-1.62015e+02	-8.26205e+01	-8.62239e+01	-1.70791e+02	-1.80255e+02	-1.84392e+02	-1.77318e+02	-1.01691e+02	-1.49554e+02	
Factor	1.69986e-05	1.12958e-04	2.83194e-05	4.49987e-01	9.58156e-07	1.11733e-06	1.61498e-01	4.84305e-02	9.82000e-07	9.25093e-07	8.83326e-02	3.31604e-01	3.19523e-02	8.98047e-03	1.16501e-06	1.28554e-02	6.59400e-07	6.75626e-07	1.87782e-07	2.03162e-01	7.38237e-09	7.40106e-09	7.42972e-02	2.38121e-02	7.39093e-09	7.40699e-09	4.08703e-02	8.77627e-02	1.50293e-02	4.30878e-03	7.39308e-09	5.90837e-03	X	X	X	X	X	X	X	X	X	X	X	X	X	X	X	X	



#DISTANCE SETTINGS
A = Detector Channel
A-1	A-2	A-3	A-4	A-5	A-6	A-7	A-8	A-9	A-10	A-11	A-12	A-13	A-14	A-15	A-16	

2.5000e+00	3.0000e+00	2.5000e+00	3.0000e+00	2.0000e+00	3.0000e+00	1.5000e+00	3.0000e+00	3.0000e+00	3.0000e+00	3.0000e+00	3.0000e+00	3.0000e+00	3.0000e+00	1.5000e+00	3.0000e+00	

B = Detector Channel
B-1	B-2	B-3	B-4	B-5	B-6	B-7	B-8	B-9	B-10	B-11	B-12	B-13	B-14	B-15	B-16	

1.0000e+01	1.0000e+01	1.0000e+01	1.4400e+00	1.0000e+01	1.0000e+01	1.5100e+00	1.9400e+00	1.0000e+01	1.0000e+01	1.9900e+00	2.4900e+00	2.4100e+00	2.9000e+00	1.0000e+01	2.9800e+00	




#DATA BEGINS
time	group	step	mark	flag	A-AC1	A-AC2	A-AC3	A-AC4	A-AC5	A-AC6	A-AC7	A-AC8	A-AC9	A-AC10	A-AC11	A-AC12	A-AC13	A-AC14	A-AC15	A-AC16	A-DC1	A-DC2	A-DC3	A-DC4	A-DC5	A-DC6	A-DC7	A-DC8	A-DC9	A-DC10	A-DC11	A-DC12	A-DC13	A-DC14	A-DC15	A-DC16	A-Ph1	A-Ph2	A-Ph3	A-Ph4	A-Ph5	A-Ph6	A-Ph7	A-Ph8	A-Ph9	A-Ph10	A-Ph11	A-Ph12	A-Ph13	A-Ph14	A-Ph15	A-Ph16	B-AC1	B-AC2	B-AC3	B-AC4	B-AC5	B-AC6	B-AC7	B-AC8	B-AC9	B-AC10	B-AC11	B-AC12	B-AC13	B-AC14	B-AC15	B-AC16	B-DC1	B-DC2	B-DC3	B-DC4	B-DC5	B-DC6	B-DC7	B-DC8	B-DC9	B-DC10	B-DC11	B-DC12	B-DC13	B-DC14	B-DC15	B-DC16	B-Ph1	B-Ph2	B-Ph3	B-Ph4	B-Ph5	B-Ph6	B-Ph7	B-Ph8	B-Ph9	B-Ph10	B-Ph11	B-Ph12	B-Ph13	B-Ph14	B-Ph15	B-Ph16	aux-1	digaux	

2764.980	1	1	0	768	0.28043	0.25477	0.15116	0.40233	0.039821	0.20769	0.3048	0.24536	0.015655	0.25848	0.15317	0.080692	0.029296	0.49708	0.28134	0.1719	-1.9417	-2.7188	-2.3958	-2.4896	-2.8083	-2.4667	-2.7938	-2.9562	-2.3229	-2.8458	-2.5062	-2.4188	-2.7646	-2.5354	-2.6979	-2.9146	239.255	267.922	34.578	216.817	177.449	241.968	264.883	198.389	85.662	-7.324	261.145	20.496	240.307	-85.017	33.620	154.891	0.00017686	0.00073914	0.00022229	1370.5	3.7148e-06	5.8225e-06	1358.9	367.03	1.6813e-06	3.8277e-06	421.29	125.89	122.85	41.673	8.8997e-06	52.256	0.0005311	0.00054018	0.00015003	1368.3	5.8463e-06	5.934e-06	1367	371.97	5.9223e-06	5.9361e-06	424.79	140.01	123.74	42.471	5.8928e-06	52.906	236.955	68.970	5.238	-78.321	-0.379	-48.153	-78.067	-73.558	165.988	-54.018	-73.988	-71.122	-69.438	-64.759	-17.782	-65.396	-8191	255	
2765.076	1	1	0	0	0.28233	0.18757	0.2334	0.13852	0.1216	0.14476	0.2749	0.31005	0.3013	0.20843	0.23213	0.11106	0.18201	0.39635	0.080709	0.19946	-1.9042	-2.7625	-2.5792	-2.5771	-2.8271	-2.4521	-2.7042	-2.9062	-2.2438	-2.7708	-2.8021	-2.575	-3.0417	-2.6354	-2.3896	-2.9917	236.186	5.550	-6.030	238.224	104.709	-7.818	-80.882	238.166	117.707	-66.546	245.691	198.521	230.096	139.525	-15.489	136.648	0.00015998	5.9719e-05	0.00013232	1373.1	5.0287e-06	2.1974e-06	1355.7	368.14	5.7876e-06	4.9707e-06	422.42	125.6	122.14	41.793	2.7186e-06	51.865	0.00053885	0.00054295	0.00015095	1370.1	5.9706e-06	5.987e-06	1368.6	372.35	6.0035e-06	6.0098e-06	425.69	141.43	123.83	42.585	5.9872e-06	53.072	167.687	-43.293	-39.934	-77.987	-9.914	180.830	-78.112	-73.418	90.276	48.507	-73.933	-70.926	-69.314	-64.828	127.206	-65.091	-8191	255	
2765.174	1	1	0	0	0.17428	0.0043727	0.23966	0.28121	0.19902	0.12066	0.34063	0.18571	0.17261	0.31059	0.40453	0.11108	0.098224	0.10889	0.15877	0.24185	-1.7563	-2.5792	-2.5958	-2.4938	-2.9125	-2.6688	-2.6562	-2.9396	-2.3083	-2.7625	-2.6917	-2.5042	-2.7438	-2.5333	-2.4354	-3.0708	24.928	154.814	2.420	187.831	89.807	156.459	246.184	251.911	105.240	121.968	220.847	-23.706	-58.106	-39.507	190.936	194.176	0.00013136	0.00069809	4.5572e-05	1366.7	5.5362e-06	8.4523e-06	1354.2	368.8	4.5511e-07	1.7964e-06	423.02	123.07	122.83	41.961	2.7205e-06	52.176	0.00054315	0.00054802	0.00015316	1368.4	6.014e-06	6.0364e-06	1367.8	372.59	6.0158e-06	6.0151e-06	426.31	141.31	124.07	42.542	5.9569e-06	53.068	241.229	3.987	-64.815	-78.081	79.773	-24.666	-78.183	-73.489	210.726	116.229	-74.129	-70.513	-69.296	-64.782	255.006	-65.371	-8191	255	
2765.269	1	1	0	0	0.12164	0.12705	0.10399	0.24993	0.039614	0.38139	0.42537	0.034637	0.13164	0.23942	0.14235	0.084625	0.3111	0.1718	0.14463	0.20268	-2.0021	-2.6833	-2.6771	-2.4333	-2.7271	-2.5458	-2.5583	-2.8271	-2.3688	-2.5792	-2.7646	-2.475	-2.8271	-2.6	-2.1312	-2.8917	-81.884	-43.659	124.261	196.690	4.021	-2.169	164.766	-59.012	-1.712	250.500	-78.960	4.550	-79.319	249.104	93.528	134.511	0.0002367	0.0001853	9.4123e-05	1361.9	3.7107e-06	1.0416e-05	1353	367.43	6.6913e-06	9.5343e-06	419.75	122.28	122.08	41.651	5.462e-06	51.994	0.00054261	0.00054632	0.00015166	1370.3	5.967e-06	6.0228e-06	1367.1	372.35	6.0061e-06	6.0424e-06	425.41	141.4	123.97	42.526	6.048e-06	53.075	198.132	141.282	38.553	-77.704	146.934	53.736	-78.036	-73.513	71.867	30.779	-73.893	-69.813	-69.102	-64.601	109.002	-65.291	-8191	255	
2765.365	1	1	0	0	0.15523	0.12334	0.085621	0.37684	0.040338	0.12146	0.33182	0.32115	0.20269	0.15822	0.1743	0.19183	0.19466	0.26577	0.25732	0.21076	-1.9229	-2.4625	-2.8563	-2.3958	-2.5062	-2.5938	-2.6625	-2.9417	-2.5042	-2.4979	-2.9521	-2.5167	-2.7479	-2.7687	-2.6292	-2.9104	185.013	79.344	11.340	160.774	-60.624	173.256	225.699	209.638	-79.971	193.888	72.938	182.993	167.647	229.866	-72.251	222.514	0.00026894	0.00067421	0.00011727	1369.9	1.2895e-06	3.7651e-06	1355.5	366.75	5.1578e-06	5.1135e-06	419.96	125.11	122.33	41.666	1.1608e-06	52.304	0.00054239	0.00055092	0.00015232	1372	5.9824e-06	5.9533e-06	1368.1	371.65	5.9456e-06	5.9628e-06	424.09	140.91	123.74	42.474	5.9411e-06	52.995	193.008	252.825	25.449	-78.089	93.137	108.939	-78.234	-73.443	141.561	138.205	-74.099	-70.459	-69.272	-64.448	138.878	-65.084	-8191	255	
2765.461	1	1	0	0	0.17323	0.30704	0.10084	0.089866	0.16034	0.11022	0.019672	0.3556	0.015332	0.1385	0.28545	0.45649	0.28076	0.074601	0.051441	0.1368	-2.0687	-2.3625	-2.6167	-2.3563	-2.525	-2.7875	-2.5021	-2.8542	-2.7062	-2.3854	-2.8854	-2.5354	-2.6771	-2.8333	-2.4396	-2.7875	23.441	36.130	47.282	238.634	250.991	234.134	176.264	211.232	190.520	-24.828	220.826	21.539	-91.455	126.318	-68.123	224.454	0.00013248	0.00022867	0.00013541	1362.8	9.3837e-06	1.6021e-06	1360.6	366.22	5.9556e-06	4.3131e-06	421.04	124.17	121.95	41.602	6.6351e-06	52.199	0.00053264	0.00053875	0.00014996	1364.4	5.8465e-06	5.858e-06	1367.2	370.97	5.8596e-06	5.9016e-06	424.53	139.39	123.44	42.407	5.8888e-06	52.971	171.634	35.611	98.089	-78.046	38.871	1.383	-78.111	-73.578	-13.897	82.468	-74.035	-70.795	-69.191	-64.821	161.544	-65.036	-8191	255	
2765.581	1	1	0	0	0.34914	0.19739	0.015575	0.16635	0.15153	0.064632	0.16017	0.3956	0.096798	0.11811	0.37294	0.42697	0.22235	0.18047	0.21362	0.27612	-2.2354	-2.3542	-2.9208	-2.3333	-2.7938	-2.7667	-2.5458	-2.8771	-2.6021	-2.4521	-2.8146	-2.5438	-2.5729	-2.9854	-2.4667	-2.7896	18.746	155.294	266.623	174.291	-90.711	78.891	131.574	-89.437	82.249	25.676	235.822	121.891	210.774	174.351	-82.474	171.901	0.00017252	0.00051779	0.00010618	1360.3	5.0136e-06	1.5766e-06	1354.6	367.61	1.9023e-06	2.7006e-06	421.48	123.51	122.58	41.554	5.226e-07	51.882	0.00053213	0.00053952	0.00014937	1363.8	5.8844e-06	5.8992e-06	1363.1	371.34	5.8701e-06	5.8648e-06	424.88	139.09	123.71	42.339	5.8165e-06	52.842	200.156	32.784	-19.141	-78.015	131.368	165.187	-78.112	-73.336	86.395	117.426	-73.845	-71.683	-69.269	-64.866	259.291	-65.308	-8191	255	
2765.678	1	1	0	0	0.28102	0.21711	0.15735	0.14773	0.091824	0.28461	0.16275	0.30005	0.10498	0.095741	0.20717	0.098005	0.40487	0.19999	0.094736	0.086453	-2.3625	-2.3125	-2.7375	-2.5625	-2.3979	-2.7938	-2.6417	-2.8375	-2.6458	-2.2417	-2.9396	-2.4458	-2.5375	-3.0771	-2.2833	-2.7104	126.993	-47.570	172.588	257.798	-53.286	124.877	196.715	-90.607	111.671	46.825	162.158	111.520	235.021	-77.593	225.152	-62.643	0.00017665	0.00094661	4.3969e-05	1362.9	3.8884e-06	2.1806e-06	1358.4	367.1	3.8762e-06	7.0063e-06	420	122.12	122.42	41.587	5.0431e-06	52.138	0.0005267	0.00053394	0.00014761	1363.1	5.8391e-06	5.8537e-06	1365.7	371.1	5.8424e-06	5.826e-06	423.5	139.12	123.42	42.307	5.8312e-06	52.817	193.079	-31.017	87.580	-78.077	53.949	13.779	-78.077	-73.447	183.026	35.640	-74.058	-70.504	-69.193	-64.835	-46.047	-65.397	-8191	255	
2765.774	1	1	0	0	0.11417	0.11558	0.18998	0.090306	0.11276	0.13879	0.46178	0.0859	0.12702	0.11154	0.2913	0.28097	0.14175	0.1067	0.24725	0.21435	-2.2979	-2.4333	-2.825	-2.7062	-2.4958	-2.8063	-2.6333	-2.7354	-2.7917	-2.4188	-2.9604	-2.4583	-2.5542	-2.9229	-2.6875	-2.6729	142.574	72.394	46.957	-39.162	49.167	90.845	181.346	-18.714	129.056	39.629	207.587	214.912	236.204	12.249	-63.380	224.684	0.00015772	0.00029119	5.904e-05	1368.6	4.3657e-06	3.3566e-06	1353.5	367.26	6.0941e-06	2.2505e-06	421.2	122.76	121.96	41.45	6.5437e-06	52.221	0.00052244	0.00053268	0.00014789	1363.9	5.7834e-06	5.7985e-06	1363.1	370.88	5.8216e-06	5.8133e-06	423.64	138.79	123.27	42.313	5.8009e-06	52.798	187.340	-33.110	90.337	-78.282	38.931	79.855	-78.071	-73.314	96.488	30.405	-73.983	-70.628	-69.175	-64.764	66.342	-65.160	-8191	255	
2765.870	1	1	0	0	0.17285	0.31278	0.23494	0.1222	0.11781	0.36914	0.31041	0.20934	0.06606	0.063863	0.16822	0.23855	0.18593	0.046891	0.2525	0.067838	-2.1979	-2.2729	-2.7167	-2.9729	-2.3688	-2.9354	-2.775	-2.7479	-2.7333	-2.5187	-2.7938	-2.4917	-2.2792	-3.0187	-2.5792	-2.6396	196.928	156.930	-62.510	209.898	0.780	-30.145	243.681	234.361	130.432	71.744	219.044	133.231	-84.769	-20.968	240.939	198.055	5.6914e-05	0.00018218	8.1564e-05	1367.1	7.8462e-06	7.7197e-06	1350.5	366.33	3.217e-06	6.2854e-06	421.84	122.87	121.59	41.502	8.8473e-06	52.111	0.00052444	0.00052966	0.00014734	1361.7	5.7765e-06	5.823e-06	1362.6	370.56	5.8399e-06	5.8377e-06	424.19	138.85	123.28	42.273	5.7999e-06	52.867	211.048	-37.521	200.084	-77.916	56.654	108.024	-78.255	-73.419	118.650	22.058	-74.105	-72.692	-69.667	-64.658	74.954	-65.048	-8191	255	
2765.966	1	1	0	0	0.094768	0.17477	0.24298	0.048711	0.099967	0.14746	0.078431	0.35107	0.087916	0.097098	0.24647	0.14788	0.17484	0.24796	0.17985	0.25047	-2.2562	-2.2854	-2.6667	-2.8479	-2.4396	-2.9292	-2.7	-2.5375	-2.8063	-2.4271	-2.7646	-2.7167	-2.4229	-2.9771	-2.6896	-2.6479	193.550	-12.038	78.706	34.977	23.445	-72.280	-90.321	221.680	-0.649	223.383	-65.425	252.719	-58.664	253.277	138.863	229.290	0.00014721	0.00051753	5.5021e-05	1355.1	2.7198e-06	5.3137e-06	1348.2	365.95	5.5215e-06	1.9215e-06	417.54	123.76	121.72	41.615	1.1622e-05	52.099	0.00052595	0.00053401	0.00014648	1362.3	5.7809e-06	5.8266e-06	1359.7	370.36	5.805e-06	5.8039e-06	422.07	138.43	123.2	42.197	5.8334e-06	52.754	227.927	27.256	-43.110	-78.134	255.841	-32.760	-78.192	-73.510	34.881	17.366	-74.260	-70.200	-69.225	-64.526	-73.832	-65.308	-8191	255	
2766.062	1	1	0	0	0.028542	0.13729	0.18599	0.051553	0.38329	0.23661	0.28087	0.14288	0.071671	0.079482	0.072477	0.049766	0.24845	0.37253	0.19135	0.1345	-2.3271	-2.5187	-2.7208	-2.7479	-2.3937	-2.7938	-2.8292	-2.4896	-2.9313	-2.525	-2.9083	-2.7771	-2.4542	-2.8521	-2.7062	-2.75	259.818	-70.930	260.270	104.801	132.893	147.975	236.774	254.894	1.449	88.211	236.773	75.167	242.956	-71.632	-53.472	213.371	0.00016345	0.0011319	6.8205e-05	1364.3	6.5927e-06	4.4768e-06	1352.3	365.62	6.7284e-06	8.4406e-06	420.41	121.99	122.27	41.372	3.1444e-06	51.771	0.00052682	0.00052854	0.00014698	1360.2	5.8086e-06	5.8177e-06	1359.2	370.06	5.7927e-06	5.8159e-06	422.83	137.79	123.26	42.163	5.7777e-06	52.696	217.479	37.790	244.986	-78.260	172.458	42.946	-78.073	-73.292	8.460	35.648	-73.952	-71.483	-69.364	-64.646	15.774	-64.985	-8191	255	
2766.157	1	1	0	0	0.19929	0.09756	0.14515	0.33828	0.17405	0.23208	0.20378	0.50193	0.037296	0.11804	0.12018	0.025851	0.24523	0.049646	0.11564	0.072813	-2.4813	-2.4208	-2.4875	-2.9062	-2.3833	-2.7729	-2.8417	-2.4021	-2.9146	-2.5521	-2.6562	-2.9208	-2.5687	-2.6208	-2.6771	-2.5229	-75.044	182.549	266.885	-81.757	236.901	181.016	202.156	226.783	28.477	43.358	163.200	251.887	210.932	176.813	-6.566	-37.256	0.00016475	0.0004246	0.00010143	1358.1	2.5676e-06	7.1788e-06	1351.2	366.5	8.1038e-07	3.9438e-06	420.21	122.53	121.41	41.74	8.3685e-06	51.933	0.00051946	0.00052725	0.00014674	1356.4	5.8295e-06	5.7963e-06	1358.7	370.15	5.8122e-06	5.8013e-06	423.38	138.49	122.96	42.279	5.8105e-06	52.758	196.790	34.534	41.829	-77.873	72.779	31.726	-78.219	-73.407	63.847	80.686	-74.109	-70.538	-69.200	-64.582	-14.061	-65.274	-8191	255	
2766.277	1	1	0	0	0.091093	0.068231	0.1629	0.056322	0.17653	0.25007	0.15329	0.0098656	0.31698	0.075381	0.14791	0.11401	0.16899	0.074271	0.11452	0.19493	-2.2979	-2.5417	-2.3646	-3.0667	-2.4375	-2.7021	-2.9229	-2.5542	-2.6229	-2.4625	-2.4625	-2.8771	-2.4813	-2.5354	-2.6333	-2.3979	110.637	221.778	160.802	58.277	-39.242	137.756	-65.290	240.647	225.261	25.150	242.392	261.714	49.967	-44.453	-21.882	211.940	0.00019309	3.8686e-05	0.00014767	1360.6	6.3474e-06	5.3515e-06	1351.4	367.2	4.079e-06	1.2794e-06	420.38	123.46	121.6	41.414	1.8616e-06	51.778	0.00052709	0.00053116	0.00014737	1359.5	5.8094e-06	5.8332e-06	1359.3	370.26	5.7681e-06	5.7933e-06	422.97	138.36	123	42.142	5.7398e-06	52.638	178.075	120.907	-10.674	-78.073	0.987	69.762	-78.158	-73.435	-67.508	137.220	-74.016	-71.469	-69.186	-64.588	-84.164	-65.318	-8191	255	
2766.373	1	1	0	0	0.21873	0.049963	0.29148	0.017282	0.13848	0.24067	0.39697	0.30743	0.10787	0.24415	0.26149	0.13375	0.2268	0.072293	0.17058	0.10771	-2.0771	-2.4188	-2.2979	-2.7917	-2.4229	-2.6562	-3.0312	-2.5312	-2.5542	-2.5583	-2.4896	-2.9062	-2.4354	-2.7146	-2.7354	-2.4292	60.623	-83.352	-85.526	6.093	235.341	-72.319	221.289	222.073	246.660	166.625	218.667	-8.253	226.092	256.374	257.369	169.384	0.00014021	0.00066075	0.00013224	1364.1	3.6525e-06	4.0917e-06	1349.1	366.77	2.8473e-06	4.0785e-06	421.94	125.56	121.37	41.611	5.2713e-06	52.082	0.00052179	0.00052424	0.00014683	1359.6	5.7415e-06	5.8095e-06	1359.3	370.1	5.7739e-06	5.8451e-06	423.28	138.33	123.05	42.28	5.74e-06	52.738	223.200	-44.142	-67.752	-77.944	139.991	32.131	-78.127	-73.476	245.860	172.374	-73.919	-70.203	-69.217	-64.617	204.194	-65.095	-8191	255	
2766.470	1	1	0	0	0.12881	0.1033	0.038019	0.1793	0.21209	0.11944	0.32231	0.25293	0.10824	0.059497	0.32112	0.19176	0.13186	0.17584	0.1371	0.27928	-2.1208	-2.4583	-2.3688	-2.7646	-2.3542	-2.5833	-3.0021	-2.4646	-2.6667	-2.7625	-2.4729	-2.6292	-2.6646	-2.4354	-2.8021	-2.3812	-89.669	91.303	44.055	172.238	226.756	-89.759	212.473	267.093	259.869	30.167	259.209	108.391	-57.267	266.396	75.391	108.424	0.00014409	0.00037519	0.0001356	1364.2	4.9149e-06	5.1477e-06	1350.4	366.43	3.2467e-06	5.9339e-06	420.85	124.19	122.1	41.521	4.5133e-06	51.931	0.00052044	0.00052411	0.0001454	1356.6	5.7511e-06	5.7595e-06	1358.2	369.89	5.7393e-06	5.7899e-06	422.48	138.67	122.95	42.204	5.7508e-06	52.686	212.012	44.991	19.907	-78.404	15.611	91.566	-78.147	-73.580	211.553	135.774	-74.045	-71.372	-69.274	-64.453	88.289	-65.173	-8191	255	
2766.541	1	1	0	0	0.14634	0.093761	0.11827	0.169	0.044878	0.095666	0.15037	0.3896	0.17379	0.23693	0.21781	0.11462	0.12252	0.024708	0.16245	0.2613	-2.2979	-2.7792	-2.1708	-2.6729	-2.4958	-2.425	-2.8396	-2.575	-2.7792	-2.8229	-2.4792	-2.7271	-2.7125	-2.5646	-2.7375	-2.4813	216.856	217.854	206.753	173.453	153.571	86.168	144.006	196.793	186.205	190.336	201.475	-29.547	-18.819	164.057	2.704	91.345	0.00019328	0.00049206	7.8189e-05	1368.2	3.342e-06	1.1401e-05	1346.6	365.37	4.3082e-06	6.2314e-06	420.6	124.79	121.8	41.478	8.2732e-06	51.942	0.00052157	0.00052445	0.00014587	1360.4	5.7568e-06	5.774e-06	1358.6	369.66	5.779e-06	5.83e-06	423	138.35	122.92	42.213	5.8346e-06	52.781	219.186	-12.510	-20.127	-77.788	11.919	-14.844	-78.138	-73.321	147.115	2.475	-73.747	-70.640	-69.123	-64.491	10.279	-65.269	-8191	255	
2766.662	1	1	0	0	0.24208	0.13351	0.14199	0.10585	0.29549	0.08704	0.12333	0.19994	0.22571	0.090079	0.089185	0.091781	0.18637	0.16127	0.053784	0.049013	-2.0583	-2.7375	-2.4229	-2.8479	-2.5292	-2.4896	-3.1333	-2.65	-2.3667	-3.0604	-2.3208	-2.6125	-2.7042	-2.3438	-2.8604	-2.7208	-9.254	-90.413	166.622	200.353	133.115	110.394	140.377	231.205	42.888	-81.637	-75.091	-79.480	268.406	216.847	260.572	109.707	5.6978e-05	0.0008254	6.6557e-05	1364.5	3.6855e-06	5.118e-06	1352.6	366.93	1.9777e-06	5.327e-06	420.64	123.6	122.08	41.448	5.4729e-06	52.007	0.00053088	0.00053933	0.00014981	1362.1	5.8757e-06	5.8708e-06	1359.3	370.29	5.8485e-06	5.8609e-06	423.17	138.96	123.31	42.351	5.864e-06	52.757	-87.576	-2.385	74.876	-77.982	258.680	42.390	-78.064	-73.317	198.656	12.945	-74.127	-70.414	-69.365	-64.698	207.670	-65.432	-8191	255	
2766.758	1	1	0	0	0.087008	0.18145	0.10394	0.31853	0.15612	0.082621	0.10355	0.21576	0.057421	0.22964	0.015201	0.29085	0.16705	0.21019	0.18799	0.39236	-1.9208	-2.6354	-2.3958	-2.6854	-2.7188	-2.2479	-2.9313	-2.6188	-2.5438	-2.9167	-2.4708	-2.4458	-2.6125	-2.4	-2.6688	-2.7458	169.869	16.186	107.025	205.959	112.568	257.900	254.883	239.252	107.644	120.026	177.975	-78.574	186.328	262.029	23.281	253.020	0.00014897	0.00036471	6.5055e-05	1366.3	2.5744e-06	4.6832e-06	1353.6	366.08	8.9418e-06	4.8417e-06	419.68	122.67	121.52	41.49	4.7586e-06	51.999	0.00053131	0.00053556	0.00014983	1362.3	5.851e-06	5.8755e-06	1361.2	370.56	5.8791e-06	5.898e-06	424.17	139.34	123.29	42.255	5.8728e-06	52.866	179.100	29.296	52.754	-77.941	27.619	60.935	-78.073	-73.468	-2.343	127.687	-74.045	-70.320	-69.164	-64.767	27.058	-65.249	-8191	255	
2766.854	1	1	0	0	0.10665	0.28055	0.32321	0.094592	0.032034	0.030458	0.23729	0.15442	0.20353	0.17899	0.14587	0.090245	0.28816	0.20367	0.19534	0.14493	-2	-2.7896	-2.3958	-2.7417	-2.9	-2.2625	-2.8667	-2.8875	-2.5792	-2.8396	-2.4875	-2.4688	-2.8187	-2.3438	-2.5396	-2.6937	100.893	85.147	-15.529	217.472	141.879	28.681	234.757	-72.492	20.235	-71.616	198.157	256.341	247.762	-8.101	-40.404	218.000	0.00013151	0.00046643	9.7486e-05	1363.1	5.1261e-06	3.7356e-06	1351.5	364.74	3.1728e-06	3.9284e-06	420.71	127.53	122.07	41.333	5.8141e-06	51.917	0.00053118	0.00053601	0.00014973	1362.7	5.8561e-06	5.8637e-06	1363.4	370	5.8529e-06	5.8716e-06	423.54	139.44	123.3	42.221	5.8746e-06	52.839	201.278	99.729	2.512	-78.306	39.170	101.379	-77.930	-73.510	222.539	-9.086	-74.000	-72.514	-69.504	-64.484	104.074	-65.306	-8191	255	
2766.975	1	1	0	0	0.035378	0.11752	0.31961	0.1876	0.14091	0.07113	0.32682	0.22104	0.045712	0.19309	0.10468	0.11761	0.20378	0.24468	0.15091	0.11672	-1.9813	-3.0417	-2.3333	-2.5083	-2.6583	-2.4729	-2.7583	-2.9146	-2.2396	-2.7354	-2.7521	-2.3667	-2.8708	-2.4729	-2.4854	-2.7896	101.180	185.194	199.009	236.944	38.409	31.193	205.620	249.174	68.576	115.015	231.973	139.552	-22.260	242.918	242.525	-24.439	0.00020703	0.0014572	8.9996e-05	1369.5	2.0131e-06	3.9437e-06	1353.3	367.84	5.4461e-06	4.2581e-06	420.66	123.68	122.02	41.576	7.3531e-06	51.847	0.00053026	0.00053784	0.00015021	1365.5	5.8766e-06	5.9097e-06	1365	371.07	5.9509e-06	5.9759e-06	424.47	140.61	123.46	42.351	5.9509e-06	52.836	179.922	-8.261	-20.985	-77.877	-61.082	40.992	-78.064	-73.420	62.606	-70.232	-73.888	-71.104	-69.522	-64.593	66.679	-65.332	-8191	255	
2767.069	1	1	0	0	0.36577	0.21458	0.19839	0.34018	0.29108	0.18668	0.22804	0.078389	0.090848	0.17662	0.1212	0.059414	0.085478	0.093664	0.18022	0.18148	-1.9208	-2.6917	-2.5104	-2.4167	-2.725	-2.3937	-2.725	-2.7917	-2.3292	-2.7188	-2.7458	-2.3771	-2.7313	-2.5208	-2.3438	-2.825	-85.467	151.339	-81.454	-73.783	267.951	196.446	-77.042	33.270	61.011	231.259	198.582	186.778	-13.467	154.409	-27.845	45.162	0.00014674	0.00050068	9.2884e-05	1361.6	4.123e-07	6.2622e-06	1350.7	366.67	4.0392e-06	2.1765e-06	419.19	126.03	122.63	41.523	5.3855e-06	51.94	0.00053885	0.00054391	0.00015163	1369.4	5.9459e-06	5.9714e-06	1363.5	371.23	6.0082e-06	6.028e-06	423.99	141.56	123.83	42.358	5.9861e-06	52.928	179.501	47.084	-1.892	-78.021	-4.287	102.156	-78.288	-73.390	110.914	213.457	-73.976	-71.278	-69.313	-64.426	-42.782	-65.038	-8191	255	
2767.143	1	1	0	0	0.19732	0.028472	0.08903	0.15617	0.1733	0.19703	0.19175	0.25704	0.17069	0.04917	0.1137	0.33836	0.53215	0.17718	0.11511	0.0607	-1.7271	-2.7646	-2.7188	-2.4313	-2.9437	-2.6	-2.8854	-2.7708	-2.4813	-2.7208	-2.7083	-2.2896	-2.7542	-2.575	-2.4833	-2.9083	187.687	259.374	186.745	178.582	239.478	187.372	238.762	230.266	160.508	81.421	244.875	227.356	197.849	186.574	235.846	-19.396	0.00017901	0.00018134	0.00010098	1369.2	4.9653e-06	5.1765e-06	1354.3	366.68	3.7628e-06	4.6788e-06	420.46	122.8	122.09	41.431	8.1633e-06	51.97	0.00054067	0.00054486	0.00015235	1369.9	6.0019e-06	5.9851e-06	1365.5	371.5	6.0486e-06	6.0784e-06	424.59	141.88	123.88	42.407	6.0505e-06	52.965	223.550	-35.596	-0.490	-77.965	130.353	86.231	-78.224	-73.448	-63.402	37.086	-74.173	-71.385	-69.193	-64.497	34.965	-65.051	-8191	255	
2767.261	1	1	0	0	0.20259	0.20553	0.077315	0.14566	0.098382	0.29152	0.25125	0.25454	0.052588	0.16618	0.38119	0.04106	0.37578	0.060109	0.069684	0.11128	-1.8312	-2.4521	-2.6208	-2.2625	-2.5062	-2.4917	-2.6104	-2.95	-2.3333	-2.4729	-2.9167	-2.5438	-2.8417	-2.6937	-2.3646	-2.8583	256.849	100.857	85.559	111.784	64.191	105.161	252.400	211.989	-48.618	-11.634	158.938	147.171	252.696	229.757	182.837	186.772	0.00020329	0.00063356	0.0001872	1362.7	1.6781e-06	3.7663e-06	1352.6	367.29	1.9097e-06	3.911e-06	421.49	124.62	121.52	41.602	2.1203e-06	52.073	0.00054911	0.00055459	0.00015422	1370.9	6.0599e-06	6.0689e-06	1367	371.57	6.0588e-06	6.0529e-06	424.79	140.85	123.64	42.445	6.0108e-06	53.028	193.555	65.109	-49.395	-77.560	190.149	96.630	-78.168	-73.292	213.770	6.988	-74.113	-71.542	-69.211	-64.681	-56.499	-65.378	-8191	255	
2767.358	1	1	0	0	0.10877	0.12328	0.138	0.12748	0.067541	0.20216	0.11234	0.084946	0.049161	0.056288	0.22584	0.17652	0.23889	0.11032	0.15313	0.16782	-1.9125	-2.3958	-2.7104	-2.3271	-2.6083	-2.6792	-2.6	-2.8229	-2.5312	-2.6083	-2.8646	-2.4042	-2.5521	-2.5333	-2.4646	-2.8354	-52.764	-26.253	157.457	-29.426	252.176	116.415	209.446	140.711	12.903	61.232	-64.176	-81.776	253.476	9.555	169.514	152.535	0.00014882	0.00037928	0.00012512	1362.8	5.8485e-06	7.0976e-06	1357.2	366.92	3.2668e-06	5.5552e-06	420.18	125.29	122.12	41.506	1.7992e-06	51.776	0.00054495	0.00054862	0.00015261	1370.6	5.9791e-06	6.0345e-06	1368.9	371.29	5.9805e-06	5.9589e-06	424.73	140.27	123.42	42.274	5.889e-06	52.907	204.092	203.494	28.684	-78.314	125.677	5.653	-78.156	-73.309	175.455	-30.789	-73.744	-72.096	-69.588	-64.638	185.567	-64.982	-8191	255	
2767.454	1	1	0	0	0.020219	0.15534	0.21427	0.2046	0.10605	0.091372	0.25143	0.16602	0.054743	0.18201	0.18028	0.1095	0.076051	0.1895	0.10379	0.22727	-1.8854	-2.2604	-2.6958	-2.2438	-2.6292	-2.4896	-2.5667	-2.9792	-2.5958	-2.5062	-2.8187	-2.3479	-2.625	-2.6	-2.3708	-2.8771	76.086	219.510	72.726	129.614	-22.193	-34.026	165.720	-5.662	59.761	192.213	160.332	-16.970	141.424	-56.307	206.122	175.356	0.00014311	0.00056801	7.0085e-05	1360.6	3.0392e-06	1.3607e-06	1358.4	366.94	4.676e-06	1.2877e-06	421.73	123.59	121.97	41.616	4.5227e-06	51.843	0.00053394	0.00053674	0.00014949	1367	5.8689e-06	5.9177e-06	1366.7	371.1	5.8929e-06	5.8792e-06	424.6	139.9	123.53	42.37	5.8568e-06	52.775	193.471	40.509	259.275	-78.011	56.507	199.999	-78.058	-73.400	-22.976	21.301	-73.997	-71.410	-69.250	-64.704	191.315	-65.120	-8191	255	
2767.574	1	1	0	0	0.12779	0.084521	0.10942	0.34747	0.21818	0.30949	0.3021	0.10033	0.035912	0.21285	0.16075	0.23048	0.079903	0.3167	0.16604	0.11279	-1.95	-2.4792	-2.7146	-2.375	-2.5583	-2.6708	-2.5125	-2.7792	-2.575	-2.3063	-2.925	-2.4708	-2.7687	-2.85	-2.3104	-2.6813	9.188	248.112	6.070	134.414	203.290	142.952	239.685	266.043	45.686	133.225	118.872	-1.936	240.904	217.778	-48.240	256.928	0.0001936	0.00038718	9.2404e-05	1366.8	3.4307e-06	1.528e-06	1359.6	366.58	6.4133e-06	2.9604e-06	420.82	121.82	121.93	41.43	6.4706e-06	51.843	0.00052795	0.00053025	0.00014732	1362.3	5.7785e-06	5.7515e-06	1364.8	370.38	5.7036e-06	5.7679e-06	422.99	138.37	123.05	42.21	5.7613e-06	52.716	198.923	69.769	66.886	-77.967	101.337	231.696	-78.102	-73.520	38.570	16.267	-74.137	-71.183	-69.056	-64.868	-22.924	-65.137	-8191	255	
2767.671	1	1	0	0	0.21812	0.082379	0.22764	0.13713	0.22062	0.047602	0.334	0.44823	0.20746	0.11839	0.092035	0.16358	0.042955	0.17211	0.22489	0.13527	-2.1979	-2.225	-2.7812	-2.3208	-2.4583	-2.75	-2.3979	-2.7958	-2.65	-2.3333	-3.0208	-2.3979	-2.5312	-2.8354	-2.4042	-2.7062	99.553	220.947	72.771	219.829	82.828	230.415	228.736	257.620	-16.251	188.177	173.942	159.286	-18.432	-43.904	-11.722	177.908	0.00019927	0.00052195	4.6669e-05	1372.2	2.7463e-06	5.2633e-06	1354.5	367.19	2.5012e-06	1.9877e-06	420	125.08	121.64	41.576	7.2301e-06	52.088	0.00052209	0.0005257	0.00014554	1362.7	5.7499e-06	5.7522e-06	1364	370.83	5.7127e-06	5.7841e-06	423.62	138.02	123.09	42.133	5.7651e-06	52.808	219.058	56.682	-44.291	-77.861	160.338	33.429	-78.088	-73.589	113.776	-31.174	-74.080	-71.156	-69.130	-64.828	32.260	-65.155	-8191	255	
2767.767	1	1	0	0	0.15874	0.0669	0.2202	0.26168	0.078569	0.18307	0.064232	0.21402	0.18536	0.16599	0.20931	0.24725	0.091946	0.051549	0.22212	0.17792	-2.0687	-2.3979	-2.8167	-2.5979	-2.5312	-2.7333	-2.8021	-2.6417	-2.7438	-2.1979	-2.7021	-2.3896	-2.4875	-2.7667	-2.3104	-2.7708	222.896	136.851	83.466	-81.886	154.944	255.828	263.663	229.333	-14.642	-31.518	181.651	253.923	-53.772	228.177	122.307	251.581	0.00029151	0.00044965	0.00017915	1358.6	3.5561e-06	9.4109e-06	1354.5	367.16	3.3135e-06	5.1944e-06	419.88	124.76	122.22	41.556	2.713e-06	52.086	0.0005211	0.00052606	0.00014592	1364.5	5.8161e-06	5.8038e-06	1364.8	370.84	5.788e-06	5.825e-06	423.71	139.08	123.37	42.266	5.824e-06	52.849	228.472	-71.863	-29.306	-78.378	51.084	59.341	-77.876	-73.529	96.971	7.534	-73.776	-70.703	-69.147	-64.599	142.902	-65.134	-8191	255	
2767.838	1	1	0	0	0.13985	0.093066	0.058453	0.025619	0.26665	0.32217	0.36755	0.14488	0.3003	0.24325	0.37042	0.11948	0.087697	0.28292	0.2408	0.083214	-2.3375	-2.3208	-2.6896	-2.5208	-2.3812	-2.8937	-2.5271	-2.6333	-2.6333	-2.4167	-2.675	-2.5583	-2.5208	-3.0312	-2.4604	-2.5687	63.267	-4.481	-42.236	91.245	172.361	241.117	219.473	-90.956	214.181	117.523	221.170	-61.276	173.459	199.662	78.270	123.610	0.00015093	0.00021629	6.9945e-05	1372.8	3.5579e-06	2.3375e-06	1358.1	366.56	4.6643e-06	2.8448e-06	421.13	126.41	121.98	41.569	4.7718e-06	52.147	0.00052581	0.00053123	0.00014703	1363.7	5.7113e-06	5.7314e-06	1365.9	370.4	5.6738e-06	5.7065e-06	423.15	137.53	123.05	42.143	5.715e-06	52.727	222.928	-51.472	-61.821	-77.728	104.549	55.340	-78.168	-73.515	90.694	116.123	-74.237	-71.782	-69.386	-64.640	-17.356	-65.271	-8191	255	
2767.959	1	1	0	0	0.10688	0.046803	0.26776	0.12357	0.10352	0.23536	0.1841	0.15375	0.12811	0.10345	0.41178	0.16447	0.14696	0.23729	0.21697	0.20955	-2.4792	-2.3354	-2.5583	-2.7021	-2.2979	-2.7271	-2.6354	-2.6104	-2.7833	-2.3125	-2.6562	-2.6646	-2.3854	-2.7896	-2.5521	-2.6188	180.535	177.810	84.935	88.495	157.889	196.242	150.824	258.805	146.798	-82.939	232.508	104.161	184.646	-47.437	209.399	202.046	0.00016053	0.00061528	0.00010035	1367.2	2.6174e-06	2.5151e-06	1353.6	366.23	4.3944e-06	5.4469e-06	419.47	123.54	121.31	41.381	9.9561e-07	51.854	0.00051321	0.00051696	0.00014296	1358.2	5.5672e-06	5.6224e-06	1361	369.95	5.5767e-06	5.5852e-06	421.27	136.74	122.61	42.001	5.6142e-06	52.548	215.810	-85.480	-45.390	-77.748	136.385	3.864	-78.067	-73.425	43.292	34.971	-73.947	-70.034	-69.364	-64.697	152.172	-65.233	-8191	255	
2768.053	1	1	0	0	0.13027	0.040384	0.074555	0.46895	0.27875	0.043013	0.15694	0.11587	0.043199	0.43242	0.2616	0.22501	0.31264	0.28337	0.16368	0.27705	-2.425	-2.4396	-2.7167	-2.6437	-2.3542	-2.6708	-2.7062	-2.4979	-2.8375	-2.4021	-2.5062	-2.7729	-2.5271	-2.8271	-2.475	-2.6583	-47.786	84.229	-73.339	-85.808	12.653	200.836	160.218	64.535	136.675	198.366	235.436	-58.492	-20.481	-80.538	149.897	96.322	0.000217	0.00042883	0.00016899	1367.4	5.3238e-06	1.8639e-06	1350.2	367.3	6.8278e-06	6.6521e-06	418.27	122.83	121.92	41.482	8.1424e-07	51.991	0.00050983	0.00051241	0.00014345	1358.9	5.6611e-06	5.5952e-06	1359	369.44	5.5857e-06	5.5806e-06	420.79	134.99	122.56	41.957	5.4956e-06	52.522	184.416	14.549	-42.896	-78.072	57.000	-16.180	-78.086	-73.284	15.537	110.089	-73.810	-71.246	-69.071	-64.556	58.951	-65.165	-8191	255	
2768.150	1	1	0	0	0.14838	0.26263	0.28401	0.15705	0.073684	0.061463	0.17167	0.19589	0.14053	0.0048402	0.34507	0.10148	0.44152	0.17014	0.25019	0.13429	-2.4	-2.425	-2.5604	-2.6583	-2.5333	-2.7854	-2.8875	-2.6833	-2.775	-2.5542	-2.6979	-2.9	-2.3708	-2.7188	-2.6979	-2.4271	91.632	183.900	19.578	57.856	192.030	-55.571	224.486	256.062	130.835	231.459	248.321	178.069	-75.272	-91.144	3.711	69.362	0.00011667	0.00050847	5.208e-05	1360.6	2.2828e-06	2.514e-06	1354.6	365.73	6.8082e-06	3.1985e-06	420.91	122.27	121.92	41.58	4.7866e-06	51.751	0.00049884	0.00050346	0.00013961	1354.3	5.4845e-06	5.4968e-06	1359.1	368.82	5.4649e-06	5.4967e-06	420.96	133.8	122.08	41.903	5.3854e-06	52.26	184.121	-80.698	254.016	-77.964	196.186	66.086	-78.228	-73.443	-33.908	82.952	-74.000	-71.422	-69.188	-64.737	-33.862	-65.337	-8191	255	
2768.246	1	1	0	0	0.15619	0.049185	0.17052	0.16671	0.33131	0.1777	0.21685	0.2818	0.15827	0.28632	0.16121	0.28677	0.22194	0.26345	0.12794	0.18174	-2.2917	-2.4875	-2.4375	-2.8417	-2.4042	-2.5854	-2.95	-2.4583	-2.7271	-2.5479	-2.3854	-2.6625	-2.3396	-2.5167	-2.75	-2.2875	112.793	-37.571	114.334	250.098	-53.677	127.272	-87.098	165.558	107.598	236.564	113.642	135.219	-44.429	221.708	154.728	-85.052	0.00018033	0.0007228	0.00021434	1356.2	3.0752e-06	1.2562e-06	1343.7	365.15	4.9919e-06	1.4755e-06	418.95	122.65	121.62	41.226	7.7262e-06	51.57	0.00048613	0.00048646	0.00013525	1344.4	5.2953e-06	5.2934e-06	1350.1	367.15	5.2666e-06	5.2927e-06	418.7	132.19	121.49	41.655	5.2613e-06	52.063	200.330	-79.116	-24.913	-77.865	62.271	-52.631	-78.004	-73.248	66.288	101.818	-73.969	-71.140	-69.238	-64.493	75.022	-65.053	-8191	255	
2768.366	1	1	0	0	0.12677	0.24082	0.045121	0.112	0.16717	0.15444	0.20721	0.25379	0.13799	0.22942	0.18454	0.45418	0.23749	0.10173	0.37088	0.068269	-2.2917	-2.325	-2.1875	-2.6937	-2.4458	-2.5854	-2.9	-2.3187	-2.6333	-2.4854	-2.4437	-2.7313	-2.5333	-2.5417	-2.6792	-2.475	141.278	-4.498	267.836	-24.465	229.740	237.976	-86.081	252.555	63.843	-0.390	28.365	-44.586	202.141	-74.006	257.742	205.592	0.0001474	0.00095788	7.2812e-05	1356.7	3.6728e-06	3.368e-06	1344.4	364.54	4.6565e-06	5.1019e-06	418.94	124.05	120.99	41.235	7.0871e-06	51.789	0.00047508	0.0004777	0.00013257	1339.9	5.1917e-06	5.1928e-06	1348	366.59	5.1924e-06	5.1873e-06	417.56	130.32	121.28	41.524	5.1168e-06	52.101	202.678	7.189	68.413	-78.096	99.527	72.821	-77.851	-73.545	-65.471	49.045	-74.095	-69.969	-69.057	-64.615	82.468	-65.102	-8191	255	
2768.438	1	1	0	0	0.13769	0.20553	0.18928	0.35082	0.098023	0.34926	0.27729	0.13163	0.31139	0.24864	0.2947	0.15185	0.16585	0.14251	0.074272	0.10096	-2.1833	-2.5396	-2.3792	-2.8354	-2.5958	-2.575	-2.7438	-2.3875	-2.7375	-2.6688	-2.4292	-2.9938	-2.6917	-2.5062	-2.9083	-2.4521	101.971	80.758	7.745	257.089	247.948	58.814	251.295	264.474	141.559	35.352	-69.830	-76.065	97.495	247.638	-86.345	256.416	0.00021686	0.00019806	0.00019444	1360.2	2.1288e-06	7.6418e-06	1343.3	363.61	6.582e-06	5.0864e-06	418.36	124.54	121.3	41.192	9.9518e-06	51.588	0.00046576	0.00046773	0.00012988	1337.7	5.0547e-06	5.1135e-06	1344.8	366.18	5.0827e-06	5.097e-06	417.28	129.98	121.21	41.488	5.0785e-06	51.9	200.595	-20.240	13.286	-77.974	68.153	38.745	-77.950	-73.280	-69.364	56.419	-73.916	-70.746	-69.235	-64.659	55.639	-65.301	-8191	255	
2768.534	1	1	0	0	0.22196	0.087003	0.082559	0.31516	0.22826	0.16833	0.21529	0.13783	0.32233	0.15466	0.2314	0.094497	0.16458	0.39887	0.21055	0.22847	-2.1063	-2.8937	-2.2229	-2.8354	-2.5104	-2.3979	-3.0646	-2.6271	-2.5312	-2.8333	-2.3937	-2.5812	-2.6875	-2.4083	-2.7229	-2.5146	-16.318	53.387	21.103	177.642	252.306	52.243	249.053	254.555	168.766	261.896	205.641	23.214	179.325	237.541	55.291	161.777	0.00026759	0.00023796	0.00011788	1352.6	3.8493e-06	7.7245e-06	1343.7	363.51	2.9723e-06	3.5656e-06	416.79	121.88	121.09	41.244	6.0737e-06	51.71	0.00045992	0.00046258	0.000129	1332.7	5.0887e-06	5.087e-06	1344.2	365.42	5.0996e-06	5.1231e-06	416.46	129.5	121.05	41.5	5.1022e-06	51.962	209.992	81.120	27.283	-77.913	184.118	136.054	-77.971	-73.384	41.523	79.883	-74.069	-70.019	-69.324	-64.770	-4.874	-65.382	-8191	255	
2768.655	1	1	0	0	0.041017	0.085193	0.14781	0.2132	0.19135	0.099346	0.11715	0.22316	0.035494	0.27278	0.16258	0.19615	0.20715	0.18401	0.082414	0.027518	-2.1583	-2.7542	-2.3479	-2.7271	-2.6208	-2.2729	-2.8688	-2.5062	-2.4979	-2.5896	-2.4458	-2.6833	-2.5292	-2.2771	-2.6562	-2.6813	55.016	236.248	-9.040	231.136	214.689	151.292	186.116	-80.172	-64.114	60.660	222.184	-16.387	228.524	-19.066	164.940	-50.945	0.00014599	0.00037353	0.00013598	1353.5	3.6624e-06	2.2693e-06	1345.5	364.63	2.6781e-06	2.0161e-06	417.05	121.43	121.66	41.151	5.603e-06	51.621	0.00046199	0.00046231	0.00012999	1333.6	5.0827e-06	5.0957e-06	1345.8	365.82	5.0763e-06	5.0725e-06	417.04	129.64	121.13	41.457	5.0533e-06	51.902	213.173	-42.508	-5.821	-78.189	198.676	-14.725	-78.135	-73.499	245.880	25.216	-73.780	-71.518	-69.104	-64.616	-4.917	-65.105	-8191	255	
2768.751	1	1	0	0	0.29408	0.16156	0.057396	0.26561	0.18035	0.13144	0.17134	0.24583	0.15705	0.26295	0.18331	0.074112	0.33038	0.12096	0.099234	0.044195	-2.0687	-2.7083	-2.4875	-2.7354	-2.6625	-2.4062	-2.9271	-2.6333	-2.5104	-2.7812	-2.3979	-2.6396	-2.7354	-2.4625	-2.6	-2.6458	0.562	173.402	82.509	267.924	-10.410	72.057	217.268	241.773	98.895	55.498	-71.541	205.350	265.297	209.293	166.581	85.283	0.00015605	0.00054076	7.0315e-05	1356.2	5.7274e-06	3.2735e-06	1341.2	364.15	1.1662e-06	2.7452e-06	418.22	123.07	120.64	41.293	5.3311e-06	51.853	0.00045969	0.00046398	0.0001282	1333.1	5.0702e-06	5.0666e-06	1344.4	365.54	5.0434e-06	5.0382e-06	416.75	129.4	120.76	41.487	5.0616e-06	51.955	213.402	-50.354	260.577	-78.265	78.490	119.482	-77.983	-73.377	-18.582	38.927	-73.927	-71.611	-69.155	-64.680	158.601	-65.270	-8191	255	
2768.847	1	1	0	0	0.11108	0.31901	0.13958	0.22656	0.13085	0.060196	0.21896	0.31111	0.16077	0.15275	0.14233	0.3169	0.17487	0.16602	0.156	0.12186	-1.7958	-2.8688	-2.3333	-2.5104	-2.625	-2.3208	-2.8312	-2.7604	-2.5062	-2.8604	-2.4646	-2.5646	-2.7958	-2.3479	-2.6813	-2.7229	212.971	125.352	70.522	241.269	95.351	65.722	205.272	174.086	-38.735	265.974	183.851	249.034	137.511	-66.569	143.245	267.464	0.00013509	0.0001654	2.6058e-05	1353.3	1.5354e-06	3.4544e-06	1344.5	364.06	3.4163e-06	1.256e-06	418.25	121.38	122.15	41.224	3.6267e-06	51.719	0.00046542	0.00046874	0.00013	1334.4	5.1221e-06	5.1968e-06	1346.7	366.12	5.1749e-06	5.1675e-06	417.56	130.24	121.3	41.546	5.1408e-06	52.005	184.462	203.671	144.111	-78.022	59.195	14.456	-78.074	-73.493	247.665	130.315	-73.978	-71.113	-69.548	-64.433	177.636	-65.276	-8191	255	
2768.943	1	1	0	0	0.11328	0.075737	0.087623	0.16977	0.13311	0.085064	0.51172	0.33616	0.13042	0.098399	0.11942	0.18714	0.35375	0.10947	0.11417	0.25859	-1.9188	-2.6229	-2.6	-2.5271	-2.8125	-2.4	-2.8104	-2.8667	-2.2229	-2.85	-2.4833	-2.3792	-2.7792	-2.3396	-2.525	-2.6896	-29.706	58.151	148.067	-54.939	80.827	249.076	210.460	240.662	194.651	117.943	230.587	-4.542	230.205	153.136	111.693	186.379	0.00017715	0.00056392	9.2949e-05	1352.1	4.0319e-06	6.6138e-06	1349.9	363.49	2.9558e-06	4.377e-06	419.74	120.71	121.42	41.235	6.9732e-06	51.967	0.000463	0.00047156	0.00013096	1337.7	5.112e-06	5.112e-06	1348.7	366.07	5.14e-06	5.1128e-06	417.74	130.64	121.32	41.485	5.1155e-06	52.044	202.184	-11.207	-33.563	-78.110	27.409	40.030	-77.995	-73.467	63.718	3.382	-74.001	-70.763	-69.160	-64.967	10.976	-65.058	-8191	255	
2769.039	1	1	0	0	0.023659	0.36089	0.13236	0.21803	0.086784	0.053512	0.2818	0.052172	0.33332	0.13	0.30142	0.44137	0.17444	0.16366	0.087356	0.034549	-1.9479	-2.7979	-2.425	-2.5292	-2.6146	-2.5104	-2.8667	-2.8229	-2.4646	-2.6667	-2.6521	-2.4771	-2.7313	-2.4188	-2.4021	-2.6479	216.796	196.193	176.730	129.356	202.734	160.647	239.316	268.271	192.804	234.577	113.433	263.875	245.213	168.341	104.785	201.359	0.00022575	0.00043823	0.00013525	1354.1	4.0826e-06	9.2666e-07	1343.4	364.67	1.8228e-06	2.554e-06	419.35	123.35	121.17	41.196	1.1988e-06	51.8	0.00046109	0.00046362	0.00012863	1332.2	5.0532e-06	5.0473e-06	1343.4	365.92	5.0294e-06	5.0179e-06	416.56	129.45	120.77	41.436	5.0342e-06	51.93	201.753	18.594	-37.463	-78.130	109.699	-65.141	-78.160	-73.468	177.893	98.144	-74.157	-70.224	-69.269	-64.701	17.734	-65.135	-8191	255	
2769.134	1	1	0	0	0.095637	0.11538	0.22989	0.24191	0.10097	0.17745	0.060596	0.15842	0.21814	0.10683	0.12749	0.051472	0.02055	0.1895	0.15904	0.083361	-1.8458	-2.6042	-2.5167	-2.4	-2.7917	-2.4167	-2.6542	-2.9854	-2.4	-2.7896	-2.7687	-2.4229	-3.0187	-2.2875	-2.6271	-2.7708	242.313	136.284	47.411	213.749	230.372	153.757	134.387	235.744	87.159	128.913	236.062	182.404	72.517	188.837	251.767	23.098	0.00015931	0.00033316	0.00010765	1351.9	1.4612e-06	1.1951e-05	1342.2	364.07	1.0117e-05	4.4732e-06	417.54	119.98	121.03	41.126	3.1315e-06	51.822	0.00045399	0.0004588	0.00012682	1332.3	4.9956e-06	5.0072e-06	1343	364.9	5.0343e-06	5.0168e-06	415.98	128.64	120.76	41.399	4.963e-06	51.892	197.392	36.506	12.823	-77.797	-22.030	31.572	-78.031	-73.427	48.395	10.022	-73.864	-71.313	-69.326	-64.817	-55.751	-65.130	-8191	255	
2769.254	1	1	0	0	0.19381	0.10612	0.148	0.14449	0.085987	0.061067	0.35977	0.23805	0.18963	0.077842	0.085878	0.19025	0.2362	0.23297	0.093301	0.29231	-1.7979	-2.5542	-2.4917	-2.3438	-2.7375	-2.4771	-2.5583	-2.9708	-2.4958	-2.7042	-2.8125	-2.3792	-2.8937	-2.7146	-2.35	-2.9042	143.533	107.982	-67.333	248.875	78.567	-2.546	226.299	161.222	235.581	259.794	-54.878	211.120	13.792	-67.473	183.764	117.079	0.00017624	0.00090361	0.00012297	1351.1	6.004e-06	7.2114e-06	1342.2	364.12	4.78e-06	6.2489e-06	420.06	120.08	121.38	40.991	3.2657e-06	51.561	0.0004513	0.00045438	0.00012522	1329.9	4.9546e-06	4.959e-06	1342.3	365.42	4.9387e-06	4.9303e-06	416.55	127.63	120.64	41.276	4.9256e-06	51.714	225.780	40.839	39.978	-78.218	29.484	31.012	-78.237	-73.491	-83.517	-7.534	-74.154	-71.681	-69.263	-64.630	127.789	-65.008	-8191	255	
2769.351	1	1	0	0	0.11329	0.19305	0.083532	0.20282	0.098207	0.14315	0.18047	0.2985	0.32756	0.24621	0.10785	0.087587	0.17575	0.31741	0.27104	0.23332	-1.8937	-2.5125	-2.8063	-2.5187	-2.6667	-2.3958	-2.4625	-2.9333	-2.45	-2.5	-2.8229	-2.2812	-2.8479	-2.6875	-2.375	-2.9437	46.836	230.042	-29.014	-57.458	177.661	12.527	-69.022	250.713	-62.064	-83.007	211.902	-81.098	226.350	-72.168	266.891	31.981	0.00020074	0.00060076	0.00010995	1348.2	1.5399e-06	2.694e-06	1339.7	363.41	4.0437e-06	4.6415e-06	416.2	122.77	121.41	41.104	8.0144e-06	51.469	0.00044475	0.00044893	0.00012456	1326.2	4.898e-06	4.9136e-06	1341.6	364.52	4.9368e-06	4.9535e-06	415.6	128.1	120.58	41.293	4.9108e-06	51.705	201.225	-49.915	-4.954	-78.181	-16.710	-7.855	-77.969	-73.403	54.849	138.164	-73.771	-69.998	-69.338	-64.625	-49.649	-64.964	-8191	255	
2769.447	1	1	0	0	0.14025	0.17457	0.22087	0.35094	0.11208	0.087062	0.097735	0.50749	0.26265	0.059499	0.29137	0.31178	0.36488	0.22475	0.16351	0.18583	-2.0146	-2.5271	-2.7708	-2.3854	-2.5833	-2.6396	-2.6417	-2.8583	-2.5104	-2.7188	-2.6896	-2.2854	-2.8708	-2.8125	-2.2458	-2.9333	233.530	-33.617	115.722	240.758	35.237	159.546	202.685	233.761	106.386	58.221	-67.470	-68.749	259.243	225.806	7.061	-27.568	9.9734e-05	0.00038483	7.4425e-05	1347.2	4.5616e-06	2.51e-06	1339.2	364.57	4.299e-06	4.6082e-06	418.48	122.12	121.36	41.057	1.2389e-06	51.494	0.00044435	0.00044663	0.00012486	1324.2	4.8689e-06	4.9123e-06	1341.6	364.84	4.8883e-06	4.8797e-06	415.39	127.36	120.51	41.285	4.8472e-06	51.715	193.779	-3.565	30.076	-77.889	260.636	114.273	-77.890	-73.407	23.914	-70.799	-73.798	-70.866	-69.078	-64.687	59.973	-65.300	-8191	255	
2769.543	1	1	0	0	0.025376	0.092774	0.031066	0.08611	0.1418	0.15272	0.025348	0.41921	0.13556	0.32986	0.21028	0.10731	0.031816	0.046434	0.14321	0.10827	-2.0417	-2.4	-2.6729	-2.4604	-2.5563	-2.6354	-2.5167	-2.8667	-2.7188	-2.4083	-2.9938	-2.375	-2.7646	-2.8187	-2.2854	-2.6937	251.404	236.206	0.380	97.311	164.010	-53.570	217.810	220.229	242.022	-85.906	170.888	12.880	158.280	57.619	-81.802	261.965	0.00014752	0.00052284	0.0001837	1358.2	3.3856e-06	4.6433e-06	1343	362.89	5.0765e-06	4.6474e-06	417.94	122.46	120.78	41.051	7.162e-07	51.701	0.00044233	0.0004453	0.00012365	1329.7	4.8874e-06	4.8931e-06	1342.2	364.74	4.9295e-06	4.9295e-06	415.6	127.97	120.59	41.325	4.9041e-06	51.727	239.547	81.781	-51.427	-77.988	52.101	246.771	-77.979	-73.548	64.512	-0.152	-73.892	-72.171	-68.813	-64.660	-23.713	-65.217	-8191	255	
2769.663	1	1	0	0	0.14137	0.18873	0.096761	0.25585	0.05938	0.31282	0.17523	0.30086	0.31626	0.074938	0.29503	0.18239	0.091358	0.10985	0.19765	0.30051	-2.0521	-2.3937	-2.6479	-2.4667	-2.3667	-2.7979	-2.6583	-2.8187	-2.8021	-2.2792	-2.9938	-2.35	-2.6333	-2.9229	-2.4917	-2.65	165.171	-82.243	212.025	237.784	69.177	87.989	208.775	190.727	-35.865	217.129	170.805	-85.810	229.248	16.870	70.358	-18.668	0.00023923	0.00052538	3.0284e-05	1354	1.6207e-06	7.5789e-06	1341.4	363.98	5.6405e-06	3.0638e-06	415.15	123.65	120.77	41.001	3.9057e-06	51.633	0.0004447	0.00044592	0.00012469	1329	4.8774e-06	4.9145e-06	1341.3	365.16	4.9302e-06	4.9444e-06	415.27	128.2	120.55	41.239	4.9262e-06	51.719	221.695	-82.639	246.804	-78.010	16.196	-48.689	-77.891	-73.317	131.045	-76.431	-73.971	-69.334	-69.059	-64.628	4.593	-65.256	-8191	255	
2769.735	1	1	0	0	0.0852	0.03483	0.26257	0.22222	0.074572	0.24486	0.080687	0.091915	0.1435	0.1101	0.095589	0.050443	0.15947	0.23866	0.38618	0.23961	-2.0396	-2.2833	-2.8563	-2.7125	-2.4375	-2.7146	-2.5042	-2.8104	-2.6708	-2.3354	-2.825	-2.5833	-2.3792	-2.8896	-2.4667	-2.5479	15.472	-9.971	202.075	-59.195	-90.849	31.891	224.047	-90.600	249.835	261.857	231.288	183.934	136.959	253.528	267.446	162.887	0.00022373	0.00035088	6.7164e-05	1352.1	5.0739e-06	5.506e-06	1341.6	363.14	3.2081e-06	2.231e-06	417.39	122.61	120.51	40.986	5.8485e-06	51.666	0.00044745	0.0004482	0.00012405	1326.1	4.8778e-06	4.8262e-06	1339.2	364.26	4.8309e-06	4.8168e-06	415.02	126.1	120.45	41.215	4.8724e-06	51.725	214.546	15.580	-35.659	-77.751	54.191	-7.310	-77.864	-73.456	-2.361	79.415	-74.134	-71.193	-69.252	-64.766	12.102	-65.028	-8191	255	
2769.831	1	1	0	0	0.13784	0.15612	0.1844	0.067073	0.13198	0.12588	0.22554	0.12431	0.12564	0.29698	0.18142	0.084516	0.25749	0.20018	0.18028	0.2543	-2.1042	-2.2687	-2.7354	-2.6562	-2.3896	-2.7375	-2.7021	-2.9271	-2.8646	-2.3292	-3.05	-2.5312	-2.5646	-2.6854	-2.5417	-2.6729	224.665	185.643	64.388	130.279	110.984	11.208	236.120	258.850	11.925	93.819	244.638	219.930	204.998	231.729	150.835	-28.141	0.00012059	0.0010185	0.00014759	1346.7	6.2721e-06	2.8927e-06	1338.6	362.71	1.1909e-06	6.7867e-06	416.4	121.77	121.45	41.068	5.2348e-06	51.239	0.00044115	0.0004423	0.00012245	1325.7	4.8239e-06	4.8075e-06	1339.7	364.41	4.8188e-06	4.8045e-06	414.2	126.08	120.42	41.156	4.8422e-06	51.576	192.256	56.990	-43.225	-78.037	114.355	20.274	-78.029	-73.349	13.333	62.963	-73.948	-71.062	-69.202	-64.548	-4.512	-64.972	-8191	255	
2769.927	1	1	0	0	0.15391	0.22207	0.15521	0.26542	0.033102	0.24314	0.15255	0.24318	0.055499	0.11789	0.21369	0.10823	0.17661	0.10999	0.17962	0.071258	-2.2021	-2.5312	-2.6729	-2.6562	-2.3771	-2.8146	-2.6917	-2.6208	-2.6125	-2.4042	-2.5396	-2.5958	-2.3854	-2.6917	-2.5563	-2.5375	-40.348	98.630	-10.405	-34.245	175.537	53.064	174.705	195.639	86.266	-41.531	261.932	-45.706	178.813	248.934	-41.286	79.382	0.00012908	0.00083429	0.00013124	1348.5	1.5954e-06	7.3416e-06	1341.6	363.21	4.7086e-06	2.4133e-06	417	121.2	120.79	41.167	1.1479e-06	51.594	0.00044053	0.00044658	0.00012367	1324.1	4.8753e-06	4.872e-06	1338.5	364.44	4.8665e-06	4.8334e-06	414.35	126.76	120.1	41.226	4.8855e-06	51.742	219.955	6.106	-30.408	-78.114	88.752	-28.678	-77.960	-73.039	85.542	59.217	-73.940	-71.587	-69.077	-64.726	239.341	-65.103	-8191	255	
2770.046	1	1	0	0	0.30792	0.16651	0.040191	0.053353	0.20182	0.21748	0.34144	0.16506	0.2523	0.069746	0.21309	0.12396	0.1917	0.29238	0.35024	0.28621	-2.3083	-2.3646	-2.5563	-2.7771	-2.4042	-2.725	-2.725	-2.6521	-2.7375	-2.5812	-2.7396	-2.6271	-2.4396	-2.8167	-2.5312	-2.5917	265.389	70.569	235.401	-9.003	150.599	140.099	213.282	200.092	90.733	126.311	213.233	165.858	241.100	266.479	240.705	226.101	0.00016558	0.000246	0.00015487	1339.2	6.9275e-06	1.2949e-05	1342.8	361.89	2.6045e-06	5.8117e-06	417.19	123.83	121.34	41.126	1.7924e-06	51.689	0.0004418	0.00044256	0.00012355	1325.8	4.8719e-06	4.9036e-06	1340.8	364.34	4.8309e-06	4.8875e-06	414.87	126.73	120.36	41.223	4.8802e-06	51.637	231.058	-46.452	3.945	-78.183	109.164	64.661	-78.190	-73.364	-69.423	69.223	-73.947	-70.371	-69.138	-64.632	126.885	-65.065	-8191	255	
2770.142	1	1	0	0	0.22687	0.20966	0.04028	0.16486	0.1895	0.10704	0.077231	0.27949	0.013311	0.11217	0.10971	0.075268	0.43346	0.20204	0.26142	0.21625	-2.2646	-2.3479	-2.5583	-2.8667	-2.2687	-2.7833	-2.7188	-2.525	-2.7792	-2.4271	-2.6063	-2.8979	-2.3521	-2.6854	-2.5812	-2.4646	268.379	111.821	-71.828	251.759	21.306	-35.606	194.903	-79.551	29.649	52.616	117.764	184.129	192.826	210.275	191.638	266.494	0.0001305	0.0010176	0.00013191	1349	6.3004e-07	3.7924e-06	1340.1	363.2	4.2892e-06	8.787e-06	418.28	121.73	120.97	41.116	6.7398e-06	51.832	0.00044357	0.0004459	0.00012533	1328.1	4.897e-06	4.9547e-06	1341.9	364.47	4.9364e-06	4.9539e-06	416.48	127.85	120.57	41.333	4.9493e-06	51.851	180.070	-21.379	-50.338	-78.126	173.200	35.717	-78.291	-73.434	73.595	33.467	-74.233	-70.901	-69.224	-64.806	-51.276	-65.254	-8191	255	
2770.239	1	1	0	0	0.099843	0.071546	0.20878	0.019345	0.21936	0.1155	0.2668	0.246	0.13673	0.18139	0.10363	0.13217	0.12997	0.16183	0.20342	0.23202	-2.3458	-2.2979	-2.3083	-2.8417	-2.15	-2.525	-2.7854	-2.3604	-2.8208	-2.5708	-2.4729	-2.8187	-2.6562	-2.6458	-2.7479	-2.3312	193.943	215.490	123.143	196.117	49.128	182.508	204.157	150.899	68.253	-72.401	265.963	207.718	-88.974	216.312	261.936	176.539	0.00018072	0.0005896	9.4638e-05	1352.8	1.6439e-06	5.3069e-06	1343.3	363.05	7.7398e-06	4.1298e-06	416.31	122.93	120.85	41.073	2.6624e-06	51.741	0.00044938	0.00045291	0.00012604	1331.7	4.9976e-06	4.9657e-06	1343.7	364.93	4.9622e-06	5.0135e-06	416.25	128.27	120.82	41.35	4.9577e-06	51.795	199.550	34.701	-50.949	-78.332	167.801	193.728	-78.012	-73.317	85.130	122.613	-73.861	-71.141	-69.276	-64.833	12.644	-65.156	-8191	255	
2770.335	1	1	0	0	0.24933	0.11477	0.2593	0.23018	0.19265	0.26743	0.34677	0.18296	0.040901	0.11885	0.16669	0.19898	0.22769	0.20201	0.33348	0.098821	-2.4042	-2.3479	-2.4229	-2.6167	-2.3396	-2.7083	-2.9083	-2.3396	-2.4708	-2.7313	-2.6125	-2.8979	-2.4646	-2.5896	-2.5812	-2.4437	223.100	102.002	267.607	224.622	60.493	196.397	223.291	158.302	91.294	13.913	-47.110	86.632	250.517	258.849	194.971	-59.827	0.00021243	6.5066e-06	0.00018254	1354.4	3.5567e-06	4.8755e-07	1339.1	364.35	4.0607e-06	1.1386e-06	417.1	122.09	120.91	41.126	5.3419e-06	51.861	0.00044933	0.00045266	0.00012652	1330.8	4.9328e-06	4.9417e-06	1341.2	365.41	4.9247e-06	4.9097e-06	415.64	126.76	120.43	41.277	4.9046e-06	51.774	180.268	233.376	-43.590	-77.832	51.733	35.377	-78.089	-73.074	-62.127	19.413	-73.918	-71.414	-69.206	-64.597	-12.050	-65.145	-8191	255	
2770.431	1	1	0	0	0.093401	0.15919	0.052874	0.21217	0.22248	0.28111	0.19834	0.35004	0.10012	0.13164	0.06329	0.13743	0.08028	0.18907	0.1284	0.14872	-2.1063	-2.5938	-2.2812	-2.9188	-2.3958	-2.5438	-2.9292	-2.5771	-2.8	-2.7208	-2.4833	-2.5438	-2.5771	-2.4167	-2.8146	-2.5771	234.013	-16.669	39.816	234.199	162.210	113.118	168.729	260.314	-88.981	34.551	209.509	132.012	57.897	243.127	-85.684	266.351	0.0001806	0.00055971	5.5312e-05	1358.2	6.8726e-06	3.567e-06	1341.2	362.57	1.0885e-06	4.5656e-06	418.3	125.55	120.79	41.118	1.0353e-06	51.63	0.00044614	0.0004478	0.00012542	1330.7	4.9115e-06	4.9119e-06	1340.4	364.44	4.9293e-06	4.9558e-06	415.67	128.84	120.56	41.276	5.0021e-06	51.751	205.292	66.166	39.924	-77.863	81.491	28.313	-77.913	-73.340	1.308	116.811	-74.147	-71.164	-69.426	-64.677	95.012	-65.010	-8191	255	
2770.527	1	1	0	0	0.22629	0.4037	0.21355	0.051764	0.081643	0.20296	0.091081	0.15952	0.148	0.12251	0.1645	0.20489	0.05412	0.41721	0.15208	0.06849	-2.2958	-2.6625	-2.1667	-2.7958	-2.5771	-2.4083	-2.9104	-2.525	-2.6229	-2.6729	-2.4188	-2.6229	-2.7375	-2.6875	-2.6	-2.4646	-84.419	9.034	193.387	-25.307	-18.156	150.985	221.370	145.951	-9.293	-87.096	-27.956	250.044	216.891	222.396	119.370	223.411	0.00012188	0.00037009	5.4855e-05	1352.2	4.7508e-06	3.1235e-06	1341.7	362.45	6.7837e-06	1.921e-06	418.46	124.51	120.89	41.006	6.8493e-06	51.516	0.0004544	0.00045759	0.00012754	1330.7	5.03e-06	4.9964e-06	1341.8	364.87	4.9911e-06	5.003e-06	416.13	128.71	120.77	41.315	5.0526e-06	51.887	184.163	-0.857	229.115	-77.808	-8.847	89.062	-78.088	-73.532	-17.876	27.192	-74.354	-70.665	-69.309	-64.538	89.401	-65.171	-8191	255	
2770.623	1	1	0	0	0.072882	0.082909	0.24945	0.072581	0.07021	0.043253	0.13449	0.34792	0.053521	0.14876	0.033877	0.072328	0.16241	0.10104	0.1091	0.1928	-2.0375	-2.6813	-2.4062	-2.7271	-2.5187	-2.4729	-3.1917	-2.7104	-2.4104	-2.5958	-2.4542	-2.6625	-2.7958	-2.3854	-2.8167	-2.5125	133.423	-16.069	132.587	-60.939	267.434	65.295	153.334	212.001	157.571	142.033	-20.684	31.030	265.802	231.676	44.524	161.956	6.5869e-05	0.00043449	0.00010065	1352.2	3.1646e-06	2.1322e-06	1346.8	364.06	4.1668e-06	4.5415e-06	416.97	122.81	120.95	41.321	3.9499e-06	51.761	0.00045853	0.00046311	0.00012919	1336.4	5.1015e-06	5.068e-06	1347	365.56	5.0732e-06	5.0552e-06	417.18	129.34	120.99	41.467	5.0391e-06	51.933	202.745	8.643	-18.382	-78.177	116.135	-66.753	-78.013	-73.365	161.788	68.809	-73.659	-70.460	-69.078	-64.575	53.106	-65.152	-8191	255	
2770.744	1	1	0	0	0.15035	0.22578	0.072168	0.143	0.058668	0.20567	0.25886	0.2144	0.095157	0.21488	0.012707	0.12527	0.21213	0.083711	0.2166	0.1582	-1.8646	-2.7792	-2.2167	-2.6604	-2.7812	-2.3771	-3	-2.6771	-2.6271	-2.7229	-2.5604	-2.6146	-2.7958	-2.2562	-2.7104	-2.6104	158.584	-82.493	96.282	-75.415	139.235	64.465	182.108	243.143	62.395	260.374	-66.068	-43.382	63.033	222.740	112.826	138.254	0.00018661	0.00012073	0.00014123	1360.1	3.6098e-06	5.187e-06	1344.4	363.65	4.9541e-06	3.4645e-06	417.69	123.39	120.98	41.15	6.4696e-06	51.723	0.00045716	0.00046246	0.0001282	1336.3	5.0448e-06	5.0901e-06	1345	365.63	5.0154e-06	5.0919e-06	417.36	128.9	120.71	41.415	5.0194e-06	51.854	202.247	43.971	8.154	-78.184	100.256	141.204	-78.026	-73.455	31.939	241.856	-73.867	-70.811	-69.131	-64.601	32.361	-64.974	-8191	255	
2770.840	1	1	0	0	0.26703	0.046295	0.047884	0.21815	0.24164	0.12829	0.19537	0.068764	0.062009	0.12075	0.091465	0.37387	0.18998	0.087652	0.062369	0.1162	-2.0542	-2.5563	-2.2729	-2.7479	-2.7333	-2.2208	-2.9125	-2.6667	-2.3479	-2.9375	-2.3833	-2.5229	-2.8479	-2.2792	-2.6	-2.6458	184.545	9.076	220.764	264.461	-25.770	213.046	244.874	245.816	-20.668	-49.302	146.448	157.893	-78.617	173.731	252.537	-70.200	0.00020009	0.00035684	8.5601e-05	1351.8	5.3741e-06	6.3467e-06	1342	363.97	4.6265e-06	9.4313e-07	418.14	124.43	121.05	41.124	6.3139e-06	51.426	0.00045338	0.00045761	0.00012748	1332.4	4.991e-06	5.0088e-06	1345.3	365.7	5.0355e-06	4.9622e-06	416.7	129.14	120.84	41.381	5.0027e-06	51.794	169.641	177.624	201.732	-78.034	42.125	21.127	-78.081	-73.471	48.605	92.153	-73.949	-72.223	-68.997	-64.603	125.867	-64.915	-8191	255	
2770.936	1	1	0	0	0.054127	0.17552	0.13147	0.3418	0.05591	0.10788	0.075581	0.12037	0.1825	0.2777	0.077168	0.13677	0.017024	0.23011	0.25557	0.14019	-1.9375	-2.8229	-2.475	-2.5604	-2.7542	-2.4125	-2.8604	-2.8875	-2.4208	-2.7375	-2.6479	-2.2583	-2.9292	-2.4979	-2.6708	-2.7375	80.934	-36.886	168.823	-29.526	81.768	229.878	143.736	-69.889	79.720	79.372	-52.931	168.414	20.738	218.904	150.914	-49.661	0.00013902	0.00052	0.00011051	1352.4	7.7381e-06	1.9429e-06	1341.1	364.36	7.8965e-06	3.5374e-06	416.48	122.8	121.32	41.011	9.3687e-06	51.802	0.00045148	0.00045476	0.00012571	1334.8	4.9645e-06	4.9645e-06	1344.4	365.21	4.963e-06	4.9623e-06	416.9	128.03	120.86	41.289	4.9092e-06	51.823	207.169	45.877	8.781	-78.319	70.504	16.347	-77.919	-73.490	-25.365	-69.267	-73.865	-70.472	-69.174	-64.550	-2.293	-65.256	-8191	255	
2771.032	1	1	0	0	0.30146	0.21316	0.21986	0.24962	0.094122	0.32401	0.21657	0.20469	0.12542	0.13235	0.44371	0.25174	0.17175	0.091594	0.20928	0.10148	-2.0167	-2.6688	-2.4792	-2.4896	-2.8646	-2.4542	-2.7125	-2.8542	-2.3812	-2.7958	-2.7438	-2.3667	-2.95	-2.4583	-2.4333	-2.7	-41.252	16.935	176.980	230.432	-54.173	62.993	228.258	179.113	118.371	92.122	232.159	223.944	178.160	7.760	160.535	153.726	8.1061e-05	0.00048897	0.00012231	1367.4	3.3387e-06	5.3825e-06	1343.8	363.43	1.178e-06	4.899e-06	417.37	121.02	120.46	41.059	3.4015e-06	51.761	0.00044706	0.00044941	0.00012461	1330.8	4.9323e-06	4.9028e-06	1343.6	364.73	4.8871e-06	4.9511e-06	415.6	127.61	120.43	41.292	4.9062e-06	51.787	224.077	-75.889	35.924	-77.978	-6.740	87.509	-78.143	-73.450	-73.900	-50.565	-73.950	-69.680	-69.227	-64.510	-3.849	-65.193	-8191	255	
2771.127	1	1	0	0	0.1416	0.29252	0.15516	0.070115	0.057315	0.20912	0.17086	0.074613	0.16102	0.21362	0.22301	0.10839	0.015268	0.28179	0.21105	0.33922	-1.8417	-2.7292	-2.5583	-2.4875	-2.7938	-2.6083	-2.8688	-3.0167	-2.25	-2.6583	-2.7792	-2.3187	-2.95	-2.475	-2.4792	-2.7208	158.233	-81.010	181.843	180.829	17.909	131.886	268.537	-63.283	135.319	-37.081	-33.724	37.760	160.843	196.233	83.993	223.227	4.8585e-05	0.00027643	0.00014245	1358.1	7.7535e-06	5.8587e-06	1341.4	364.17	3.23e-07	4.4575e-06	418.22	123.54	121.05	40.946	1.1508e-05	51.65	0.00044164	0.00044296	0.00012281	1328.8	4.8241e-06	4.8037e-06	1338	364.37	4.7515e-06	4.8023e-06	414.9	126.27	120.28	41.121	4.7566e-06	51.567	234.646	9.916	-57.341	-78.077	96.539	93.517	-78.106	-73.330	25.998	141.751	-74.057	-71.160	-69.283	-64.659	8.685	-65.292	-8191	255	
2771.223	1	1	0	0	0.099383	0.090392	0.12599	0.1368	0.059688	0.13598	0.1001	0.16866	0.15167	0.060219	0.13934	0.14615	0.2377	0.2098	0.21183	0.10834	-1.725	-2.6312	-2.575	-2.275	-2.6792	-2.4875	-2.5958	-2.9688	-2.3229	-2.6188	-2.7354	-2.3167	-2.8333	-2.5917	-2.425	-2.9354	-67.908	-37.361	39.529	168.304	10.766	258.034	243.656	238.499	103.196	-28.993	247.447	10.178	205.394	234.835	239.734	211.907	0.00011757	0.0007521	5.7069e-05	1356.2	1.1979e-06	3.6416e-06	1334.1	362.62	3.3578e-06	1.676e-06	415.19	123.44	121.07	40.999	4.7112e-06	51.578	0.00042949	0.00043271	0.00011956	1322.5	4.7114e-06	4.7116e-06	1337	363.38	4.7142e-06	4.7601e-06	413.75	125.56	120.23	41.115	4.7876e-06	51.657	200.947	-49.054	55.740	-77.690	111.265	-15.245	-78.087	-73.458	-29.219	79.302	-74.174	-69.825	-69.456	-64.636	132.915	-65.033	-8191	255	
2771.343	1	1	0	0	0.24013	0.10757	0.26817	0.23676	0.097765	0.18744	0.13041	0.10564	0.33618	0.15161	0.16583	0.14469	0.16317	0.36307	0.1423	0.2582	-1.7146	-2.4708	-2.6604	-2.4104	-2.6792	-2.5208	-2.5979	-2.7729	-2.2667	-2.5062	-2.6375	-2.2021	-2.7938	-2.575	-2.3312	-2.7729	136.327	190.832	64.400	198.418	264.575	99.151	177.892	198.585	146.936	-21.725	233.336	21.281	243.409	234.535	72.435	-76.734	0.00019562	0.00046623	0.00013204	1347.9	7.8086e-06	3.4685e-06	1336.5	363.98	2.0624e-06	5.8199e-06	417.98	122.85	121.08	40.891	4.97e-06	51.614	0.00043718	0.00043553	0.00012142	1324.7	4.7531e-06	4.7956e-06	1339.7	364.19	4.7751e-06	4.8379e-06	415.01	126.55	120.28	41.08	4.7778e-06	51.73	200.364	-80.089	-0.221	-78.036	104.781	180.870	-77.902	-73.375	92.961	24.508	-74.000	-70.972	-69.207	-64.764	74.148	-65.219	-8191	255	
2771.440	1	1	0	0	0.14366	0.11153	0.050931	0.27275	0.17057	0.11423	0.21105	0.14758	0.066368	0.13408	0.14611	0.086615	0.21677	0.016762	0.12079	0.13588	-2.0271	-2.5458	-2.7646	-2.3625	-2.675	-2.5896	-2.5292	-2.9125	-2.3563	-2.5062	-2.8875	-2.1875	-2.9125	-2.7812	-2.1792	-2.875	137.317	92.756	50.074	221.354	-60.935	25.942	252.363	244.483	38.052	222.634	263.306	38.102	191.952	-1.093	176.827	172.395	0.00012433	0.00049597	0.00010726	1355.3	6.6989e-06	6.0668e-06	1337.5	362.84	6.6503e-06	2.2427e-06	416.07	125.07	120.66	41.013	5.1281e-06	51.624	0.00043563	0.00043639	0.00012203	1326.4	4.7819e-06	4.7744e-06	1339.3	363.82	4.7457e-06	4.7629e-06	413.73	125.48	120.13	41.094	4.7297e-06	51.566	216.651	18.607	-42.803	-77.907	52.515	111.018	-78.229	-73.605	235.334	-51.255	-74.228	-70.717	-69.060	-64.537	21.001	-65.094	-8191	255	
2771.536	1	1	0	0	0.062589	0.077279	0.12452	0.21883	0.24013	0.26607	0.30249	0.018042	0.26562	0.16347	0.23061	0.18186	0.21322	0.242	0.28059	0.23122	-2.0938	-2.4313	-2.7042	-2.3896	-2.6771	-2.6188	-2.6479	-2.8563	-2.5875	-2.4229	-2.7396	-2.2458	-2.7521	-2.8187	-2.15	-2.8458	162.219	-74.041	76.924	231.197	97.719	116.825	214.534	81.990	219.355	-10.180	196.288	-51.407	14.543	214.158	151.875	243.139	0.00020724	0.00051391	6.6864e-05	1343.6	5.951e-06	4.501e-06	1341	363.56	1.7508e-06	1.1186e-06	416.9	123.26	121.41	41.125	1.0315e-05	51.704	0.0004288	0.00043446	0.00012002	1321.7	4.7306e-06	4.7502e-06	1338.8	364.19	4.8006e-06	4.7814e-06	414.1	126.47	120.19	41.15	4.7676e-06	51.586	187.397	8.565	-24.190	-77.960	23.192	83.492	-78.104	-73.334	64.064	25.937	-74.127	-71.483	-69.277	-64.852	3.697	-65.170	-8191	255	
2771.607	1	1	0	0	0.24263	0.13781	0.047641	0.11599	0.047491	0.17654	0.41312	0.1462	0.1213	0.064326	0.27062	0.079982	0.19654	0.1087	0.1647	0.25754	-1.8521	-2.3708	-2.6333	-2.4083	-2.5583	-2.7167	-2.6604	-2.8979	-2.55	-2.3958	-2.6979	-2.4813	-2.4458	-2.8917	-2.3521	-2.6167	-25.652	-7.095	75.503	246.755	-45.174	-10.892	205.660	-85.718	12.554	148.343	256.194	63.202	202.244	-17.161	263.181	246.682	0.00012272	0.0010571	0.0001359	1353.9	3.6672e-06	3.2532e-06	1345.6	362.71	1.103e-06	1.2541e-06	418.36	121.58	121.1	40.826	2.7019e-06	51.53	0.00043289	0.00043683	0.00012017	1323	4.7761e-06	4.7452e-06	1340.7	363.86	4.7745e-06	4.7353e-06	414.51	125.82	120.21	41.079	4.7233e-06	51.532	199.628	-53.557	10.328	-78.144	-8.714	1.503	-78.071	-73.285	97.152	70.777	-73.984	-71.775	-69.166	-64.886	152.845	-65.304	-8191	255	
2771.704	1	1	0	0	0.21629	0.0063342	0.023272	0.361	0.21346	0.15463	0.15017	0.30802	0.25979	0.18681	0.25315	0.13114	0.15252	0.047204	0.15054	0.16544	-2.1104	-2.1521	-2.65	-2.4104	-2.5375	-2.6604	-2.425	-2.6667	-2.7125	-2.3896	-2.8	-2.4146	-2.4208	-2.7208	-2.2646	-2.7917	162.705	122.516	-81.880	223.494	262.257	118.775	226.598	-89.504	40.943	249.028	-75.626	-51.855	181.280	50.567	95.180	256.071	0.00016239	0.00043033	0.00015221	1351.2	7.1717e-06	2.8239e-06	1342	362.26	3.2224e-06	3.9241e-06	418.39	121.46	120.98	41.003	2.9226e-06	51.7	0.00042791	0.00043088	0.00012016	1323.3	4.7126e-06	4.7095e-06	1338	363.73	4.6702e-06	4.6737e-06	414.81	124.75	119.93	41.034	4.6772e-06	51.611	176.948	76.913	81.445	-78.141	32.523	93.468	-77.978	-73.438	198.647	91.262	-73.812	-72.044	-69.177	-64.718	136.373	-65.293	-8191	255	
2771.824	1	1	0	0	0.14295	0.11477	0.21204	0.066012	0.207	0.20572	0.37892	0.35037	0.1434	0.11982	0.21954	0.14013	0.2958	0.3078	0.16595	0.33921	-2.3417	-2.2	-2.8333	-2.5417	-2.6854	-2.9625	-2.5292	-2.725	-2.7146	-2.3958	-2.8042	-2.6083	-2.55	-2.875	-2.3604	-2.6625	-52.679	205.494	113.222	72.460	-66.632	-13.009	178.821	233.152	168.309	142.042	-34.980	235.197	230.894	258.827	232.584	234.813	0.00024486	0.001162	6.9398e-05	1354.3	6.1806e-06	8.0903e-06	1337.8	363.55	1.5524e-06	1.4625e-06	416.28	124.67	120.81	41.211	3.904e-06	51.575	0.00042316	0.00042975	0.00011831	1322	4.677e-06	4.6875e-06	1338.1	363.38	4.6861e-06	4.6781e-06	413.57	124.77	119.92	41.088	4.6714e-06	51.51	186.880	-29.696	-74.933	-77.763	93.956	91.358	-78.247	-73.373	13.028	266.348	-73.873	-71.827	-69.177	-64.629	-88.665	-64.920	-8191	255	
2771.920	1	1	0	0	0.28966	0.077591	0.11974	0.10781	0.16309	0.19799	0.12686	0.17156	0.086223	0.45912	0.09316	0.081608	0.11661	0.18738	0.12882	0.18923	-2.2042	-2.2271	-2.5854	-2.4479	-2.3646	-2.7438	-2.7417	-2.6146	-2.7479	-2.175	-2.5812	-2.5854	-2.4	-2.825	-2.4396	-2.6167	154.370	-14.715	108.405	129.736	10.225	213.918	220.649	-42.059	243.510	91.599	-87.990	184.192	260.508	261.810	100.675	-90.492	0.00016014	0.00035707	0.00012345	1348.8	1.2091e-06	3.0582e-06	1340.9	362.91	2.2823e-06	3.9901e-06	415.99	120.76	120.64	40.973	1.9993e-06	51.696	0.00042238	0.00042154	0.00011682	1316.8	4.5711e-06	4.6136e-06	1335.4	362.68	4.5284e-06	4.574e-06	412.32	122.53	119.69	40.931	4.564e-06	51.398	207.831	-51.310	-18.174	-77.668	100.149	83.849	-78.056	-73.336	12.874	162.043	-73.958	-70.259	-69.075	-64.585	87.600	-65.126	-8191	255	
2772.017	1	1	0	0	0.11678	0.25908	0.018841	0.13162	0.23666	0.038231	0.052967	0.25924	0.091821	0.30785	0.13438	0.10349	0.1065	0.49816	0.063223	0.1244	-2.2521	-2.2854	-2.7396	-2.6958	-2.2271	-2.6542	-2.6937	-2.5354	-2.8771	-2.5958	-2.65	-2.4729	-2.3896	-2.8479	-2.6562	-2.4958	123.272	96.476	-68.336	108.189	-70.928	190.959	172.354	207.975	-12.554	-27.662	212.943	153.324	-43.577	248.423	108.579	201.106	0.00011072	0.00054253	0.0002026	1351.1	8.1197e-06	9.7589e-06	1332.9	362.88	4.7813e-06	2.1469e-06	415.9	121.23	120.86	41.006	4.2537e-06	51.54	0.00041088	0.00041491	0.00011453	1315.2	4.4851e-06	4.5069e-06	1330.7	362.38	4.514e-06	4.5117e-06	412.41	123.55	119.7	40.947	4.6465e-06	51.439	214.856	-9.472	4.405	-77.895	48.739	50.346	-78.063	-73.424	54.235	75.292	-74.138	-71.063	-69.198	-64.659	50.417	-65.102	-8191	255	
2772.135	1	1	0	0	0.080239	0.36247	0.31316	0.31002	0.3571	0.1235	0.2654	0.25108	0.20249	0.18841	0.15318	0.39691	0.15061	0.042489	0.11137	0.15803	-2.2313	-2.3792	-2.4771	-2.7521	-2.4771	-2.6271	-2.5958	-2.55	-2.925	-2.5896	-2.5896	-2.7333	-2.2833	-2.7562	-2.5542	-2.4646	12.280	208.657	84.753	166.934	-69.606	58.680	178.978	160.707	-88.785	-25.396	146.901	42.482	218.351	97.382	235.904	15.989	0.00024886	0.0001419	9.3395e-05	1351.1	3.2226e-06	6.2932e-06	1333.4	363.04	4.2055e-06	5.2646e-06	417.39	124.69	120.99	40.793	5.3555e-06	51.518	0.00042203	0.00042627	0.00011867	1320.4	4.6553e-06	4.6282e-06	1332.4	362.97	4.6623e-06	4.6504e-06	412.79	124.04	119.81	40.994	4.6349e-06	51.443	201.571	118.641	34.848	-77.801	64.650	111.674	-77.876	-73.416	-19.384	69.671	-73.890	-70.048	-69.279	-64.634	49.795	-65.455	-8191	255	
2772.207	1	1	0	0	0.16626	0.17619	0.1631	0.17681	0.076405	0.18761	0.18536	0.11882	0.030709	0.16794	0.25436	0.12152	0.11865	0.055934	0.054668	0.036977	-2.5479	-2.5583	-2.5083	-2.8333	-2.3229	-2.8125	-2.9333	-2.4333	-2.7354	-2.4542	-2.6146	-2.8229	-2.4333	-2.6708	-2.4729	-2.4938	208.967	187.368	262.052	27.005	182.951	5.633	187.527	-17.190	170.344	33.789	203.947	-29.515	260.517	-8.064	251.352	-3.414	0.0001571	0.00059647	0.00016077	1347.6	6.1846e-06	7.4021e-06	1337.4	362.22	2.7971e-06	3.0156e-06	415.93	121.47	120.57	41.137	2.2802e-06	51.615	0.00042256	0.00042562	0.0001181	1317.7	4.6451e-06	4.6117e-06	1334	362.39	4.6449e-06	4.6533e-06	412.76	124.25	119.66	41.053	4.6416e-06	51.421	200.093	-17.260	-21.568	-77.928	43.628	58.495	-78.080	-73.232	144.395	4.806	-73.932	-71.989	-69.098	-64.545	69.208	-64.784	-8191	255	
2772.305	1	1	0	0	0.24495	0.25129	0.16285	0.28587	0.17659	0.079568	0.21351	0.27431	0.10254	0.082433	0.37067	0.0080004	0.20093	0.21736	0.095553	0.1767	-2.0917	-2.4979	-2.2146	-2.7104	-2.4604	-2.7	-2.9521	-2.3854	-2.7229	-2.4875	-2.5708	-2.7479	-2.4958	-2.7562	-2.6042	-2.3792	150.117	213.441	64.621	222.184	208.805	154.422	213.267	209.019	190.670	-36.266	231.933	199.768	247.713	-90.333	-77.640	126.099	0.00018875	0.00065956	9.7165e-05	1342.3	4.0829e-06	6.7662e-06	1338.1	362.33	3.9073e-06	3.6472e-06	416.29	121.14	120.78	41.003	2.8225e-06	51.95	0.00042235	0.00042571	0.00011758	1315.6	4.64e-06	4.6997e-06	1334.6	362.9	4.7114e-06	4.7148e-06	413.6	124.53	119.9	41.077	4.6796e-06	51.613	208.015	-34.727	133.984	-78.067	91.352	52.438	-78.146	-73.261	-62.514	1.607	-74.167	-71.425	-69.237	-64.464	-46.232	-65.043	-8191	255	
2772.424	1	1	0	0	0.26723	0.11576	0.19425	0.18261	0.03324	0.05251	0.23762	0.19351	0.076772	0.066496	0.046119	0.034505	0.51243	0.18145	0.117	0.1946	-2.2833	-2.6167	-2.4646	-2.7104	-2.4479	-2.6188	-2.8125	-2.4667	-2.6354	-2.7104	-2.5229	-2.9896	-2.5271	-2.5604	-2.7208	-2.35	-63.327	-7.601	-62.509	-75.890	-69.987	149.403	205.418	155.216	-86.302	12.647	146.172	22.786	-73.888	-29.306	100.808	173.569	0.00020267	0.00029758	7.2376e-05	1345	4.145e-06	6.0759e-06	1334.8	361.31	4.2333e-06	3.9412e-06	417.11	120.45	120.74	41.119	2.9246e-06	51.554	0.00042685	0.00042916	0.00012017	1318.7	4.7279e-06	4.7308e-06	1334.1	363	4.7257e-06	4.7231e-06	414.21	124.84	120	41.144	4.6895e-06	51.462	215.324	-68.677	-43.073	-77.953	15.884	76.421	-78.015	-73.483	267.378	54.164	-73.985	-71.001	-69.106	-64.763	163.621	-64.813	-8191	255	
2772.520	1	1	0	0	0.075284	0.19241	0.18361	0.27862	0.21411	0.05946	0.3549	0.21355	0.095645	0.17818	0.13411	0.073696	0.30178	0.076269	0.031936	0.21731	-2.2083	-2.4042	-2.3479	-2.8667	-2.5125	-2.3063	-2.8937	-2.6167	-2.4437	-2.7812	-2.3979	-2.8854	-2.4375	-2.5833	-2.875	-2.5833	-36.851	163.703	-54.076	-44.248	79.052	130.625	143.748	159.802	211.780	238.242	225.935	-38.169	-55.150	124.341	-60.991	-32.849	0.00022979	0.00072168	0.00010703	1345.5	1.8604e-06	4.6874e-06	1337.9	362.16	6.707e-06	1.7881e-06	414.14	122.12	120.9	41.059	8.545e-07	51.607	0.00042376	0.00042638	0.00011839	1316.9	4.6337e-06	4.6248e-06	1336.1	362.73	4.6376e-06	4.6126e-06	412.4	124.52	119.8	41.077	4.6432e-06	51.498	229.407	-27.955	207.285	-78.173	125.461	34.610	-78.165	-73.323	90.817	57.946	-73.883	-70.916	-69.445	-64.733	165.753	-65.085	-8191	255	
2772.616	1	1	0	0	0.2065	0.12051	0.084684	0.226	0.24487	0.16946	0.115	0.28333	0.057002	0.20741	0.40736	0.11277	0.078396	0.12615	0.30692	0.26137	-2.0292	-2.6229	-2.3146	-2.9229	-2.4437	-2.5292	-2.9667	-2.5542	-2.4813	-2.7562	-2.3333	-2.5979	-2.6292	-2.6208	-2.7562	-2.4708	-6.335	102.803	-60.800	195.965	-46.878	78.724	239.115	220.540	-2.908	120.640	-86.218	30.819	253.997	132.726	-72.560	164.124	0.0001818	0.00014023	0.00016722	1346	1.2939e-06	9.7648e-06	1336.1	362.26	3.6965e-06	5.7096e-06	415.2	123.53	121.38	41.089	4.5277e-06	51.656	0.00042542	0.00042369	0.00011783	1317.7	4.6887e-06	4.6686e-06	1334.3	362.77	4.7055e-06	4.7266e-06	412.74	125.61	120.01	41.075	4.7276e-06	51.466	193.142	-47.056	1.811	-78.394	215.663	57.202	-78.038	-73.254	110.210	146.919	-73.760	-71.200	-69.314	-64.741	14.965	-65.150	-8191	255	
2772.737	1	1	0	0	0.12749	0.016363	0.047712	0.22391	0.14014	0.077412	0.33955	0.196	0.14464	0.045591	0.27932	0.13087	0.25276	0.053836	0.091663	0.18348	-2.1521	-2.7792	-2.3063	-2.6521	-2.5458	-2.325	-3.0125	-2.4833	-2.4958	-2.6896	-2.4354	-2.4417	-2.7604	-2.475	-2.7	-2.4271	114.491	239.416	-86.627	212.176	-11.634	-44.035	218.849	-72.808	-37.795	195.046	237.839	253.329	143.108	184.378	203.196	-47.408	0.00016956	0.00019687	6.9578e-05	1354.1	7.6795e-06	4.1394e-06	1336.3	361.79	3.5055e-06	4.8001e-06	415.66	120.63	120.82	40.754	4.7861e-06	51.647	0.00042699	0.0004282	0.00011887	1319.9	4.6865e-06	4.6933e-06	1332	362.65	4.673e-06	4.6506e-06	412.05	124.03	119.52	41	4.6428e-06	51.459	199.234	190.455	243.033	-77.837	8.770	91.503	-77.968	-73.281	97.265	-36.795	-74.116	-69.601	-69.244	-64.532	52.210	-65.153	-8191	255	
2772.833	1	1	0	0	0.18606	0.14112	0.16376	0.15665	0.080033	0.076128	0.16263	0.086072	0.19785	0.2567	0.22466	0.078141	0.27825	0.19845	0.16114	0.22977	-1.9292	-2.7562	-2.3667	-2.7812	-2.6667	-2.25	-2.9896	-2.5208	-2.2458	-2.7958	-2.3729	-2.5729	-2.7979	-2.6146	-2.8438	-2.7625	206.549	199.536	102.055	229.576	-61.807	36.725	176.432	176.466	255.764	2.894	42.368	163.024	-72.057	248.651	179.373	142.649	0.00016068	0.00028069	0.00012239	1348.6	4.2334e-06	5.9167e-06	1332.5	361.24	2.9041e-06	3.0259e-06	416.16	121.31	120.5	40.809	5.6405e-06	51.405	0.00042467	0.0004225	0.00011792	1316.3	4.6446e-06	4.6495e-06	1331.7	362.47	4.661e-06	4.6483e-06	412.72	124.21	119.91	41.049	4.7186e-06	51.412	189.101	39.088	28.458	-77.770	71.200	110.822	-78.093	-73.186	116.864	43.403	-73.903	-71.358	-69.147	-64.626	52.307	-65.209	-8191	255	
2772.905	1	1	0	0	0.24623	0.052915	0.16646	0.19988	0.086191	0.28347	0.37118	0.21641	0.15102	0.21164	0.17136	0.12125	0.17045	0.34274	0.049043	0.30798	-1.8792	-2.8375	-2.425	-2.5917	-2.7188	-2.3896	-2.8583	-2.8208	-2.4979	-2.7792	-2.8125	-2.7438	-2.875	-2.3896	-2.7146	-2.8187	152.080	197.996	84.978	-84.399	164.141	256.068	196.688	203.528	76.780	103.783	224.065	10.944	140.603	200.422	140.127	194.896	0.00017837	0.00056266	9.1636e-05	1354.1	3.5161e-06	1.9485e-06	1337.6	361.82	2.6338e-06	3.7016e-06	416.29	122.69	121.02	40.889	3.6472e-06	51.435	0.00042422	0.00043193	0.00011919	1319.5	4.6562e-06	4.7393e-06	1333.5	362.24	4.7438e-06	4.6953e-06	413.74	125.06	120	41.113	4.7408e-06	51.503	185.880	-12.753	38.323	-78.109	129.755	14.942	-77.944	-73.486	130.774	23.371	-73.934	-72.232	-69.185	-64.661	-76.547	-65.215	-8191	255	
2773.001	1	1	0	0	0.12299	0.16771	0.26281	0.12699	0.25649	0.2604	0.037781	0.23861	0.16809	0.34972	0.087384	0.24797	0.20668	0.20832	0.11254	0.070121	-1.7917	-2.7396	-2.6188	-2.7292	-2.6625	-2.3438	-2.7083	-2.8	-2.2771	-2.8083	-2.6833	-2.5396	-2.7042	-2.3812	-2.65	-2.85	12.680	29.022	130.487	180.086	-11.981	10.881	-1.946	-84.406	-38.645	205.131	204.086	247.464	-0.801	256.457	61.607	181.393	9.3983e-05	0.00047292	0.00012493	1348	2.0283e-06	3.2021e-06	1336.6	361.81	8.4542e-06	3.3273e-06	415.21	121.01	120.66	41.042	4.0753e-06	51.783	0.0004286	0.00043072	0.00012026	1321.1	4.7522e-06	4.748e-06	1334.6	363.29	4.739e-06	4.7358e-06	414.05	125.54	119.91	41.158	4.7617e-06	51.667	225.726	-0.133	-8.677	-78.277	159.442	-22.101	-77.946	-73.470	-13.057	157.121	-73.867	-70.812	-69.181	-64.848	-56.464	-65.020	-8191	255	
2773.120	1	1	0	0	0.13967	0.12566	0.27428	0.16806	0.078714	0.010749	0.072112	0.15999	0.16479	0.18226	0.1115	0.22276	0.28739	0.1281	0.28045	0.11595	-1.775	-2.6042	-2.4042	-2.5521	-2.7625	-2.3854	-2.8417	-2.9167	-2.2208	-2.6604	-2.7208	-2.3438	-2.7625	-2.5062	-2.6771	-2.6792	126.331	235.778	-16.546	127.204	14.408	-84.795	182.659	253.310	196.095	-55.329	204.181	-83.187	223.560	69.971	49.175	248.584	0.00024767	0.00041407	2.2794e-05	1345	8.9555e-07	3.1949e-06	1335.4	362.71	6.4217e-06	1.7788e-06	417.17	122.88	121.26	40.977	4.1468e-07	51.895	0.00043149	0.00043602	0.0001209	1321.4	4.7983e-06	4.7729e-06	1335.1	363.56	4.8032e-06	4.8271e-06	414.83	126.6	120.44	41.167	4.8759e-06	51.822	191.632	30.184	69.960	-78.107	-26.754	251.964	-78.091	-73.272	-50.613	-6.721	-74.109	-70.449	-69.166	-64.437	109.223	-65.543	-8191	255	
2773.216	1	1	0	0	0.21362	0.10908	0.20493	0.158	0.19155	0.24045	0.35619	0.45086	0.1311	0.0938	0.1904	0.20264	0.17706	0.12797	0.24382	0.22336	-1.8646	-2.5875	-2.5604	-2.5333	-2.7562	-2.5563	-2.6292	-2.8854	-2.3375	-2.65	-2.7729	-2.2792	-2.7208	-2.45	-2.4583	-2.9104	152.242	103.890	47.556	31.295	136.703	60.662	229.504	223.707	115.553	57.863	-86.619	237.140	-75.092	226.265	224.101	-48.162	0.0001859	0.0004801	8.6645e-05	1347.8	1.9532e-06	2.6344e-06	1337.8	362.95	1.8707e-06	2.2001e-06	415.38	123.26	120.89	41.167	3.314e-06	51.451	0.00044064	0.00044536	0.00012382	1325.6	4.8689e-06	4.8624e-06	1338.9	364.3	4.8857e-06	4.8293e-06	414.6	127.33	120.44	41.308	4.8721e-06	51.686	219.238	-18.592	98.984	-77.915	-15.945	2.188	-77.978	-73.395	85.988	-67.498	-73.880	-70.982	-69.348	-64.646	21.805	-65.399	-8191	255	
2773.312	1	1	0	0	0.21523	0.21212	0.084454	0.1032	0.11608	0.046381	0.15971	0.17831	0.27823	0.05474	0.14921	0.18481	0.015151	0.14497	0.15318	0.14544	-1.8021	-2.5646	-2.6854	-2.4021	-2.7083	-2.6146	-2.65	-3.0729	-2.4167	-2.5875	-2.8979	-2.4354	-2.7104	-2.4667	-2.3583	-2.9	170.410	47.796	-53.858	250.457	35.713	-52.077	214.139	249.527	-79.422	152.765	229.482	-60.037	-6.782	-84.160	-40.671	200.786	0.00014921	0.00068506	0.00010086	1359.8	4.3276e-06	6.8852e-06	1335.5	363.99	1.8264e-06	2.568e-06	416.73	123.34	121.17	40.982	4.103e-06	51.606	0.00043731	0.00044138	0.00012288	1328.4	4.8439e-06	4.8393e-06	1336.5	364.08	4.8251e-06	4.8444e-06	414.9	126.79	120.15	41.205	4.8088e-06	51.657	198.465	4.098	13.202	-77.607	5.294	14.676	-78.059	-73.450	-49.180	243.376	-74.030	-70.297	-69.185	-64.581	90.687	-65.286	-8191	255	
2773.408	1	1	0	0	0.12184	0.13535	0.24575	0.33628	0.14223	0.24555	0.20566	0.2418	0.14835	0.12732	0.035562	0.12456	0.39611	0.11737	0.088167	0.18481	-1.7083	-2.4521	-2.7771	-2.2333	-2.7438	-2.55	-2.5125	-2.8375	-2.4646	-2.5354	-2.8333	-2.2062	-2.7729	-2.6688	-2.4229	-2.8667	142.523	18.667	41.774	218.342	189.000	260.169	120.801	187.587	1.797	91.788	227.452	130.072	-84.895	-69.552	-1.033	-61.141	0.00024213	0.00021024	3.3878e-05	1353.3	4.758e-06	5.0165e-06	1333.1	363.67	8.8594e-06	2.454e-06	416.01	121.96	120.1	41.022	1.0594e-05	51.795	0.00043308	0.00043873	0.00012138	1321.9	4.7614e-06	4.7769e-06	1335.4	363.86	4.7748e-06	4.7778e-06	414.14	125.94	119.86	41.212	4.7833e-06	51.648	181.605	-91.247	96.698	-77.992	111.383	70.392	-78.080	-73.271	21.085	-35.461	-74.010	-70.922	-69.242	-64.810	-57.088	-64.892	-8191	255	
2773.504	1	1	0	0	0.048562	0.11697	0.029752	0.33485	0.10603	0.22989	0.19641	0.2382	0.24767	0.1477	0.32399	0.21033	0.1406	0.37695	0.13713	0.25846	-1.875	-2.3042	-2.7396	-2.5521	-2.525	-2.675	-2.5333	-2.9979	-2.5146	-2.3958	-2.9375	-2.3187	-2.5708	-2.6771	-2.2729	-2.7833	216.312	118.776	-4.633	256.105	94.145	-18.502	184.614	216.738	-43.593	-60.616	202.745	97.146	214.781	256.150	-78.787	163.123	0.00012813	0.00039845	0.00024244	1353.6	4.4965e-06	4.021e-06	1337.1	362.37	1.1042e-06	1.3232e-06	414.18	122.9	120.8	41.103	3.2689e-06	51.731	0.00042897	0.00043753	0.00012109	1324.8	4.7604e-06	4.7255e-06	1333	363.02	4.6789e-06	4.7707e-06	412.63	125.66	119.98	41.157	4.7325e-06	51.641	210.668	-26.637	0.625	-77.956	60.334	-4.921	-78.025	-73.098	31.359	32.970	-73.705	-70.875	-69.152	-64.780	0.749	-65.063	-8191	255	
2773.600	1	1	0	0	0.11751	0.13373	0.37028	0.10553	0.29434	0.1222	0.27043	0.20533	0.14508	0.27679	0.38673	0.23489	0.16095	0.025053	0.31819	0.041973	-1.8646	-2.2854	-2.6229	-2.2667	-2.3625	-2.6125	-2.7188	-2.9375	-2.425	-2.2625	-2.8146	-2.6042	-2.8917	-2.8771	-2.25	-2.7583	179.474	2.426	-2.860	-10.612	84.526	41.320	206.645	180.103	-34.442	92.751	259.874	-2.279	244.566	-17.013	16.809	26.973	0.00014664	0.00016028	0.00011585	1352.5	4.2773e-06	2.311e-06	1333.8	362.32	3.4552e-06	3.6966e-06	415.06	125.11	120.59	41.065	4.5314e-06	51.505	0.00042705	0.00042959	0.00011945	1321.1	4.6713e-06	4.6755e-06	1334.5	362.89	4.6749e-06	4.6954e-06	412.49	125.38	119.86	41.188	4.7351e-06	51.587	249.592	59.696	-43.327	-77.730	71.612	-73.550	-78.164	-73.322	-30.608	118.493	-73.884	-70.525	-69.123	-64.610	-25.491	-65.192	-8191	255	
2773.697	1	1	0	0	0.093532	0.251	0.21326	0.12999	0.15564	0.13769	0.13194	0.19586	0.082699	0.19891	0.12426	0.18032	0.098356	0.17522	0.21758	0.20172	-1.9792	-2.1	-2.8063	-2.5917	-2.7188	-2.6583	-2.6188	-2.9125	-2.6729	-2.4667	-3.0417	-2.4125	-2.675	-2.7042	-2.4313	-2.7875	184.457	-55.430	195.677	-46.444	208.671	182.299	221.917	-17.809	1.153	23.373	184.116	192.996	168.659	162.312	246.691	242.991	0.00017388	0.00073357	0.00012374	1347.1	3.7058e-06	2.8506e-06	1338.7	362.84	5.0521e-06	3.2053e-06	418.12	123.01	120.79	41.021	5.0827e-06	51.546	0.00042558	0.00042983	0.0001195	1320	4.6915e-06	4.6701e-06	1332.9	363.21	4.63e-06	4.6175e-06	413.61	123.82	119.79	41.139	4.6072e-06	51.535	226.732	261.010	95.179	-77.912	39.441	-53.506	-77.956	-73.336	-38.886	39.928	-73.872	-70.669	-69.066	-64.483	-7.411	-64.907	-8191	255	
2773.817	1	1	0	0	0.32169	0.042459	0.06192	0.075707	0.094851	0.15093	0.26298	0.10067	0.28177	0.13242	0.19083	0.1575	0.18108	0.12669	0.026559	0.14433	-2.3479	-2.2146	-2.7938	-2.5187	-2.3958	-2.7062	-2.6729	-2.6375	-2.6542	-2.3604	-2.9854	-2.5271	-2.3146	-2.9896	-2.4188	-2.7	19.576	-26.034	92.956	-12.202	265.065	9.556	240.709	-87.227	40.428	158.495	176.736	97.761	199.722	226.869	136.545	180.054	9.7684e-05	0.00037729	0.00011197	1340.5	6.2449e-06	5.4597e-06	1337.8	362.24	3.3483e-06	3.4111e-06	416.16	123.82	120.53	41.09	1.767e-06	51.38	0.00041914	0.00042304	0.00011786	1314.6	4.6389e-06	4.6294e-06	1332.4	362.55	4.6029e-06	4.6369e-06	412.91	123.57	119.71	41.067	4.6205e-06	51.362	202.219	-44.733	-40.591	-77.943	95.364	41.491	-78.113	-73.309	62.373	47.594	-73.981	-70.539	-68.994	-64.667	-70.137	-65.084	-8191	255	
2773.913	1	1	0	0	0.11467	0.050769	0.29362	0.047815	0.026322	0.22334	0.19163	0.036983	0.071044	0.14841	0.25786	0.062235	0.034431	0.22875	0.12243	0.43361	-2.3396	-2.3875	-2.7375	-2.4771	-2.2583	-2.7229	-2.6208	-2.5833	-2.8375	-2.3438	-2.975	-2.6521	-2.4062	-2.95	-2.4479	-2.7667	78.882	71.815	105.524	7.932	4.245	160.348	155.710	245.908	-73.876	63.864	218.689	218.542	-20.158	4.352	-36.491	251.799	0.0001678	0.00053758	8.8694e-05	1350.7	5.2196e-06	1.5139e-06	1335.1	361.62	4.1549e-07	2.6789e-07	414.28	121.93	120.93	40.961	7.7606e-06	51.809	0.00041916	0.00042219	0.00011783	1318.1	4.604e-06	4.6078e-06	1332.9	362.31	4.619e-06	4.6584e-06	412.01	124.03	119.63	41.093	4.6127e-06	51.512	203.316	-73.912	262.135	-78.077	71.857	10.134	-77.934	-73.306	29.410	241.063	-73.892	-71.638	-69.306	-64.579	119.283	-65.096	-8191	255	
2774.009	1	1	0	0	0.38682	0.18277	0.11685	0.073482	0.22873	0.086714	0.1627	0.31858	0.12411	0.091368	0.10971	0.13082	0.087724	0.2945	0.21025	0.086309	-2.2729	-2.4375	-2.6375	-2.6542	-2.3125	-2.7521	-2.8271	-2.6917	-2.6354	-2.3646	-2.8312	-2.5458	-2.3792	-2.9667	-2.3563	-2.3812	-5.714	-64.312	193.285	64.127	163.681	-88.188	207.474	-62.573	140.595	240.420	-54.848	7.798	194.928	-77.124	120.169	-31.525	0.00019611	0.00024408	3.1787e-05	1356.3	3.971e-06	2.9973e-06	1336.1	362.34	1.8111e-06	5.6731e-06	416.28	123.4	120.61	41.058	9.1077e-06	51.667	0.00041876	0.00042184	0.00011704	1317.5	4.6381e-06	4.6105e-06	1335.1	362.35	4.6164e-06	4.6285e-06	412.58	124.54	119.45	41.015	4.5858e-06	51.496	180.514	58.341	-2.790	-77.752	105.516	3.158	-77.926	-73.502	233.851	168.974	-73.666	-71.289	-68.951	-64.584	23.539	-65.067	-8191	255	
2774.106	1	1	0	0	0.17561	0.2726	0.20986	0.099325	0.06445	0.15174	0.18583	0.060588	0.27144	0.09816	0.16982	0.18634	0.13332	0.21333	0.17772	0.22292	-2.3875	-2.3083	-2.5792	-2.7729	-2.3042	-2.8521	-2.625	-2.5542	-2.8875	-2.2292	-2.7313	-2.7042	-2.4188	-2.8104	-2.4875	-2.4938	229.871	178.458	102.406	228.253	41.536	263.247	207.371	203.519	163.099	160.142	0.810	110.332	0.908	192.597	266.558	228.988	0.0002537	0.00038123	0.00017094	1346.7	1.7826e-06	3.6515e-06	1335.2	361.2	3.5988e-06	4.9961e-06	413.93	123.83	120.96	41.023	2.1162e-06	51.685	0.00041642	0.0004197	0.00011745	1314.1	4.643e-06	4.623e-06	1331.8	362.18	4.61e-06	4.5971e-06	412.02	123.98	119.61	41.061	4.5952e-06	51.511	185.620	85.539	242.985	-77.668	-59.513	51.355	-77.994	-73.437	-44.840	-8.248	-73.985	-71.769	-69.051	-64.608	65.656	-65.096	-8191	255	
2774.200	1	1	0	0	0.12468	0.082658	0.090694	0.24588	0.057165	0.18073	0.096818	0.059232	0.22643	0.14569	0.24228	0.24307	0.15691	0.37642	0.092788	0.19479	-2.2521	-2.35	-2.5917	-2.7438	-2.2583	-2.7687	-2.6208	-2.5417	-2.7271	-2.55	-2.6896	-2.7625	-2.4729	-2.6688	-2.6396	-2.275	42.738	230.519	137.855	207.442	226.293	174.152	110.272	-68.423	103.277	-25.711	221.447	228.824	142.240	206.361	140.186	43.502	0.00016718	0.00044914	0.00019328	1345	4.0973e-06	5.0255e-06	1333.6	362.39	4.684e-06	6.1527e-06	414.36	123.48	120.9	40.895	3.1248e-06	51.644	0.00041695	0.00041922	0.0001169	1316.3	4.5992e-06	4.604e-06	1332	362.49	4.6349e-06	4.6294e-06	412.68	124.24	119.61	41.108	4.6325e-06	51.569	197.288	127.164	-22.412	-78.081	74.117	31.654	-77.881	-73.455	135.128	-41.494	-73.734	-70.854	-69.312	-64.655	130.424	-65.117	-8191	255	
2774.296	1	1	0	0	0.3215	0.18828	0.20401	0.14636	0.11836	0.19985	0.11726	0.050523	0.11316	0.15922	0.088473	0.23025	0.28093	0.22929	0.21691	0.23124	-2.3	-2.2771	-2.3333	-2.8812	-2.35	-2.5792	-2.7562	-2.5292	-2.7875	-2.5979	-2.5875	-2.7146	-2.3229	-2.6208	-2.5646	-2.4062	-23.658	-80.202	13.353	56.894	-12.794	259.448	218.341	-86.729	24.707	-81.737	232.113	137.117	222.496	248.883	234.117	226.564	0.00017372	0.0001437	7.8238e-05	1355.3	3.0234e-06	1.1672e-06	1332.5	361.03	2.0724e-06	3.4358e-06	416.49	121.95	120.44	40.936	5.0078e-06	51.6	0.00042019	0.00042317	0.00011741	1316.5	4.5761e-06	4.5785e-06	1330	361.51	4.5643e-06	4.5562e-06	412.63	122.92	119.5	41.006	4.5293e-06	51.388	205.473	4.935	20.687	-78.262	9.202	79.351	-77.864	-73.243	158.599	28.804	-73.956	-71.119	-69.274	-64.659	-83.709	-65.265	-8191	255	
2774.417	1	1	0	0	0.041329	0.19712	0.063923	0.26722	0.27636	0.21632	0.23699	0.19465	0.090689	0.21155	0.34315	0.10926	0.11276	0.23772	0.2744	0.19859	-2.25	-2.4833	-2.3875	-2.6312	-2.3583	-2.5375	-2.8104	-2.3458	-2.4729	-2.5458	-2.5521	-2.7167	-2.4375	-2.3438	-2.6688	-2.6	40.322	-87.937	-61.209	183.201	43.028	188.981	-79.221	186.587	155.254	212.360	260.023	148.114	-82.537	261.586	-26.996	-76.256	0.00019614	0.00088016	3.7557e-05	1347.4	3.7345e-06	3.8789e-06	1329.4	360.68	3.405e-06	2.4431e-06	416.54	124.77	120.61	41.026	5.6804e-06	51.45	0.00041248	0.00041364	0.00011487	1312.3	4.5193e-06	4.4849e-06	1329.6	361.45	4.4834e-06	4.4559e-06	412.04	122.6	119.26	41.003	4.525e-06	51.352	193.757	-36.384	24.379	-77.926	81.002	133.791	-78.065	-73.382	-47.357	-83.768	-73.462	-72.083	-69.416	-64.580	-36.914	-65.402	-8191	255	
2774.513	1	1	0	0	0.19132	0.12706	0.237	0.13642	0.015396	0.093507	0.053248	0.2047	0.067459	0.11986	0.18876	0.13663	0.15307	0.34591	0.20566	0.14984	-2.1667	-2.4167	-2.3187	-2.7354	-2.4437	-2.4708	-2.9021	-2.3354	-2.525	-2.725	-2.275	-2.6667	-2.5396	-2.5271	-2.7188	-2.5229	-20.014	175.302	41.591	159.703	-47.044	204.608	81.260	56.669	220.409	131.498	161.166	60.410	78.291	250.059	-67.199	222.655	0.00019597	0.00073606	0.00014717	1341.3	4.3962e-06	4.7789e-06	1337.1	362.44	5.8778e-06	3.8339e-06	415.46	124.73	120.86	40.983	4.9151e-06	51.434	0.00041207	0.00041445	0.00011531	1314.7	4.5376e-06	4.5495e-06	1330.3	361.94	4.5487e-06	4.5499e-06	411.61	122.9	119.39	41.032	4.5352e-06	51.371	200.538	-24.527	91.931	-78.232	154.073	176.116	-78.064	-73.375	-39.817	57.785	-74.239	-70.695	-69.015	-64.676	-15.003	-65.364	-8191	255	
2774.609	1	1	0	0	0.19697	0.3085	0.19037	0.24258	0.1648	0.10547	0.33546	0.064653	0.16936	0.1087	0.075412	0.21285	0.22565	0.26786	0.18669	0.14821	-2.1771	-2.725	-2.3104	-2.7313	-2.5208	-2.5146	-2.9667	-2.475	-2.5583	-2.7271	-2.4854	-2.7083	-2.6437	-2.5187	-2.6937	-2.5792	177.967	-65.768	-50.900	17.285	-9.425	81.116	250.169	-60.941	42.430	231.030	153.181	38.391	246.721	169.763	-18.827	68.601	0.00015114	0.00037083	5.7288e-05	1346.4	3.8384e-06	2.4187e-06	1339	360.67	3.4821e-06	8.3546e-06	416.67	122.28	120.89	41.102	7.1222e-06	51.415	0.00041517	0.00041977	0.00011581	1314.5	4.6259e-06	4.6203e-06	1332.9	361.99	4.6024e-06	4.6054e-06	412.89	123.76	119.5	40.992	4.6021e-06	51.408	197.774	31.880	35.487	-78.144	86.102	10.589	-78.034	-73.403	81.659	85.337	-73.884	-71.364	-69.288	-64.769	201.972	-65.415	-8191	255	
2774.705	1	1	0	0	0.10348	0.19785	0.33289	0.090546	0.11068	0.31385	0.37502	0.11184	0.19833	0.18108	0.1474	0.15391	0.2302	0.2863	0.040195	0.096505	-2.0292	-2.5833	-2.3229	-2.7396	-2.6604	-2.3979	-2.9917	-2.5062	-2.3583	-2.9083	-2.4458	-2.4583	-2.5625	-2.4125	-2.6937	-2.3958	82.412	-17.966	71.590	268.706	50.264	203.032	190.655	228.177	-18.079	256.552	-35.661	53.863	-84.899	-81.936	59.324	157.230	0.00012439	0.0010672	8.0126e-05	1349.1	4.0152e-06	5.0533e-06	1335.6	362.98	5.1366e-06	6.8154e-07	412.9	123.81	120.15	41.041	8.5077e-06	51.697	0.00042127	0.00042038	0.00011845	1316.2	4.6388e-06	4.6448e-06	1333.1	362.79	4.6469e-06	4.6618e-06	412.59	124.4	119.66	41.058	4.6617e-06	51.445	204.908	-52.277	-26.958	-77.953	193.021	114.403	-78.003	-73.179	98.714	236.858	-74.199	-70.827	-69.239	-64.724	13.580	-65.001	-8191	255	
2774.801	1	1	0	0	0.23716	0.10979	0.15019	0.20323	0.22715	0.13499	0.21311	0.32007	0.11369	0.20409	0.33669	0.021002	0.033696	0.25679	0.14982	0.27137	-2.0729	-2.7812	-2.2833	-2.7292	-2.4604	-2.1896	-3.0604	-2.8875	-2.6771	-2.825	-2.4042	-2.6667	-2.65	-2.4813	-2.6125	-2.4708	255.799	-65.107	128.260	-47.629	256.997	213.805	242.855	244.814	239.423	114.198	207.555	230.403	215.845	209.392	158.715	250.622	0.00014263	0.00015999	9.7975e-05	1347.9	8.3501e-07	5.8221e-06	1335.2	361.54	1.1274e-06	5.2304e-06	414.61	124.87	120.28	40.976	5.4909e-06	51.491	0.00042454	0.00042196	0.00011777	1318.3	4.6182e-06	4.6664e-06	1331.6	362.52	4.6693e-06	4.65e-06	412.35	125.17	119.54	41.036	4.632e-06	51.449	248.683	-64.168	-53.212	-77.877	268.224	-26.829	-78.057	-73.360	-52.106	6.714	-73.786	-70.155	-69.246	-64.696	-33.940	-65.099	-8191	255	
#DATA ENDS
