BOXY.EXE: ISS Imagent and Oximeter Data Acquisition Program Version 0.80
Ascii Record File

#ACQ INFORMATION
2  Detector Channels 
16  External MUX Channels 
1  Auxiliary Channels 
5000  Waveform (CCF) Frequency (Hz)
1  Waveforms Skipped 
30  Waveforms Averaged 
1  Cycles Averaged 
16  Acquisitions per Waveform 
10.0806  Updata Rate (Hz) 

#FILE INFORMATION
TRUE -- External MUX Channel results are PARSED.
FALSE -- AC DC and Phase are NOT grouped.
TRUE -- Companion Program Settings File CREATED.
FALSE -- AC data not excluded
FALSE -- DC data not excluded
FALSE -- Phase data not excluded
FALSE -- Auxillary Chn. data not excluded
Tab delimiters

#CALIBRATION STATE
TRUE -- Waveform Calibration Values APPLIED.


#AUX CALIBRATION VALUES
Val Type	aux-1	

Term	1.0000e+00	
Factor	0.0000e+00	


#WF CALIBRATION VALUES
A = Detector Channel
Val Type	A-AC1	A-AC2	A-AC3	A-AC4	A-AC5	A-AC6	A-AC7	A-AC8	A-AC9	A-AC10	A-AC11	A-AC12	A-AC13	A-AC14	A-AC15	A-AC16	A-DC1	A-DC2	A-DC3	A-DC4	A-DC5	A-DC6	A-DC7	A-DC8	A-DC9	A-DC10	A-DC11	A-DC12	A-DC13	A-DC14	A-DC15	A-DC16	A-Ph1	A-Ph2	A-Ph3	A-Ph4	A-Ph5	A-Ph6	A-Ph7	A-Ph8	A-Ph9	A-Ph10	A-Ph11	A-Ph12	A-Ph13	A-Ph14	A-Ph15	A-Ph16	

Term	0.00000e+00	0.00000e+00	0.00000e+00	0.00000e+00	0.00000e+00	0.00000e+00	0.00000e+00	0.00000e+00	0.00000e+00	0.00000e+00	0.00000e+00	0.00000e+00	0.00000e+00	0.00000e+00	0.00000e+00	0.00000e+00	0.00000e+00	0.00000e+00	0.00000e+00	0.00000e+00	0.00000e+00	0.00000e+00	0.00000e+00	0.00000e+00	0.00000e+00	0.00000e+00	0.00000e+00	0.00000e+00	0.00000e+00	0.00000e+00	0.00000e+00	0.00000e+00	0.00000e+00	0.00000e+00	0.00000e+00	0.00000e+00	0.00000e+00	0.00000e+00	0.00000e+00	0.00000e+00	0.00000e+00	0.00000e+00	0.00000e+00	0.00000e+00	0.00000e+00	0.00000e+00	0.00000e+00	0.00000e+00	
Factor	1.00000e+00	1.00000e+00	1.00000e+00	1.00000e+00	1.00000e+00	1.00000e+00	1.00000e+00	1.00000e+00	1.00000e+00	1.00000e+00	1.00000e+00	1.00000e+00	1.00000e+00	1.00000e+00	1.00000e+00	1.00000e+00	1.00000e+00	1.00000e+00	1.00000e+00	1.00000e+00	1.00000e+00	1.00000e+00	1.00000e+00	1.00000e+00	1.00000e+00	1.00000e+00	1.00000e+00	1.00000e+00	1.00000e+00	1.00000e+00	1.00000e+00	1.00000e+00	X	X	X	X	X	X	X	X	X	X	X	X	X	X	X	X	

B = Detector Channel
Val Type	B-AC1	B-AC2	B-AC3	B-AC4	B-AC5	B-AC6	B-AC7	B-AC8	B-AC9	B-AC10	B-AC11	B-AC12	B-AC13	B-AC14	B-AC15	B-AC16	B-DC1	B-DC2	B-DC3	B-DC4	B-DC5	B-DC6	B-DC7	B-DC8	B-DC9	B-DC10	B-DC11	B-DC12	B-DC13	B-DC14	B-DC15	B-DC16	B-Ph1	B-Ph2	B-Ph3	B-Ph4	B-Ph5	B-Ph6	B-Ph7	B-Ph8	B-Ph9	B-Ph10	B-Ph11	B-Ph12	B-Ph13	B-Ph14	B-Ph15	B-Ph16	

Term	0.00000e+00	0.00000e+00	0.00000e+00	0.00000e+00	0.00000e+00	0.00000e+00	0.00000e+00	0.00000e+00	0.00000e+00	0.00000e+00	0.00000e+00	0.00000e+00	0.00000e+00	0.00000e+00	0.00000e+00	0.00000e+00	0.00000e+00	0.00000e+00	0.00000e+00	0.00000e+00	0.00000e+00	0.00000e+00	0.00000e+00	0.00000e+00	0.00000e+00	0.00000e+00	0.00000e+00	0.00000e+00	0.00000e+00	0.00000e+00	0.00000e+00	0.00000e+00	-1.16980e+02	-1.32328e+02	-1.32277e+02	-1.83910e+02	-6.67987e+01	-7.58324e+01	-1.56815e+02	-1.62015e+02	-8.26205e+01	-8.62239e+01	-1.70791e+02	-1.80255e+02	-1.84392e+02	-1.77318e+02	-1.01691e+02	-1.49554e+02	
Factor	1.69986e-05	1.12958e-04	2.83194e-05	4.49987e-01	9.58156e-07	1.11733e-06	1.61498e-01	4.84305e-02	9.82000e-07	9.25093e-07	8.83326e-02	3.31604e-01	3.19523e-02	8.98047e-03	1.16501e-06	1.28554e-02	6.59400e-07	6.75626e-07	1.87782e-07	2.03162e-01	7.38237e-09	7.40106e-09	7.42972e-02	2.38121e-02	7.39093e-09	7.40699e-09	4.08703e-02	8.77627e-02	1.50293e-02	4.30878e-03	7.39308e-09	5.90837e-03	X	X	X	X	X	X	X	X	X	X	X	X	X	X	X	X	



#DISTANCE SETTINGS
A = Detector Channel
A-1	A-2	A-3	A-4	A-5	A-6	A-7	A-8	A-9	A-10	A-11	A-12	A-13	A-14	A-15	A-16	

2.5000e+00	3.0000e+00	2.5000e+00	3.0000e+00	2.0000e+00	3.0000e+00	1.5000e+00	3.0000e+00	3.0000e+00	3.0000e+00	3.0000e+00	3.0000e+00	3.0000e+00	3.0000e+00	1.5000e+00	3.0000e+00	

B = Detector Channel
B-1	B-2	B-3	B-4	B-5	B-6	B-7	B-8	B-9	B-10	B-11	B-12	B-13	B-14	B-15	B-16	

1.0000e+01	1.0000e+01	1.0000e+01	1.4400e+00	1.0000e+01	1.0000e+01	1.5100e+00	1.9400e+00	1.0000e+01	1.0000e+01	1.9900e+00	2.4900e+00	2.4100e+00	2.9000e+00	1.0000e+01	2.9800e+00	




#DATA BEGINS
time	group	step	mark	flag	A-AC1	A-AC2	A-AC3	A-AC4	A-AC5	A-AC6	A-AC7	A-AC8	A-AC9	A-AC10	A-AC11	A-AC12	A-AC13	A-AC14	A-AC15	A-AC16	A-DC1	A-DC2	A-DC3	A-DC4	A-DC5	A-DC6	A-DC7	A-DC8	A-DC9	A-DC10	A-DC11	A-DC12	A-DC13	A-DC14	A-DC15	A-DC16	A-Ph1	A-Ph2	A-Ph3	A-Ph4	A-Ph5	A-Ph6	A-Ph7	A-Ph8	A-Ph9	A-Ph10	A-Ph11	A-Ph12	A-Ph13	A-Ph14	A-Ph15	A-Ph16	B-AC1	B-AC2	B-AC3	B-AC4	B-AC5	B-AC6	B-AC7	B-AC8	B-AC9	B-AC10	B-AC11	B-AC12	B-AC13	B-AC14	B-AC15	B-AC16	B-DC1	B-DC2	B-DC3	B-DC4	B-DC5	B-DC6	B-DC7	B-DC8	B-DC9	B-DC10	B-DC11	B-DC12	B-DC13	B-DC14	B-DC15	B-DC16	B-Ph1	B-Ph2	B-Ph3	B-Ph4	B-Ph5	B-Ph6	B-Ph7	B-Ph8	B-Ph9	B-Ph10	B-Ph11	B-Ph12	B-Ph13	B-Ph14	B-Ph15	B-Ph16	aux-1	digaux	

3010.983	1	1	0	512	0.047572	0.1139	0.14975	0.25019	0.16839	0.21402	0.27367	0.26934	0.14722	0.13264	0.27623	0.13336	0.18052	0.040829	0.12396	0.39232	-2.3438	-2.2146	-2.5333	-2.7417	-2.225	-2.6562	-2.6146	-2.3771	-2.725	-2.4875	-2.6375	-2.7562	-2.2375	-2.8125	-2.5938	-2.5354	161.815	130.673	242.767	343.171	309.491	214.046	271.292	348.195	137.119	90.190	237.976	281.585	9.725	20.474	334.442	322.890	0.00054524	0.00028077	0.00018028	582.89	4.5041e-06	2.0579e-06	953.85	208	1.9554e-06	3.2614e-06	454.51	175.86	74.612	34.267	3.9677e-07	103.61	0.0002696	0.0002608	7.3507e-05	579.66	2.8764e-06	2.8697e-06	923.43	204.08	2.8834e-06	2.8612e-06	428.38	128.19	72.343	33.187	2.7608e-06	96.331	162.280	114.294	83.861	7.521	188.357	182.737	7.168	11.606	198.935	170.170	10.917	17.164	16.408	22.213	117.913	20.173	-8191	255	
3011.079	1	1	0	0	0.1589	0.069815	0.083397	0.021448	0.070084	0.1563	0.10476	0.19689	0.094546	0.12741	0.17815	0.077817	0.022416	0.13569	0.15733	0.28759	-2.3792	-2.2729	-2.3625	-2.8063	-2.1417	-2.6083	-2.5146	-2.3854	-2.6937	-2.4708	-2.5563	-2.65	-2.4583	-2.5458	-2.5563	-2.4333	271.830	350.725	80.935	158.531	67.209	37.645	231.095	319.570	312.638	62.885	349.665	97.429	1.118	133.959	65.575	227.483	0.00043283	0.00020991	3.2225e-05	580.15	1.6354e-06	1.4001e-06	955.31	207.58	3.5546e-06	4.8117e-06	453.36	177.19	74.926	34.457	8.4507e-06	103.9	0.00026114	0.00025241	6.9829e-05	576.57	2.7845e-06	2.7792e-06	921.05	203.72	2.7904e-06	2.7759e-06	427.51	126.98	72.455	33.242	2.7818e-06	96.425	163.589	134.853	76.502	6.496	243.287	84.703	6.955	11.670	109.284	111.057	10.873	17.365	16.490	22.060	109.080	20.429	-8191	255	
3011.151	1	1	0	0	0.068349	0.1173	0.025279	0.08973	0.062703	0.068319	0.24352	0.13279	0.16347	0.04633	0.15147	0.089644	0.21146	0.046816	0.15451	0.24985	-2.3688	-2.4771	-2.1583	-2.6646	-2.1729	-2.5396	-2.7646	-2.275	-2.8208	-2.6542	-2.4583	-2.7583	-2.4792	-2.4167	-2.6333	-2.4854	284.134	197.770	350.021	155.084	46.004	178.706	263.907	243.844	101.910	251.985	96.067	38.278	315.662	340.329	182.489	254.273	0.00044067	9.7877e-05	8.5944e-05	580.94	4.1364e-06	6.2293e-06	953.8	207.47	5.1205e-06	4.264e-06	452.2	176.42	75.582	34.376	2.7231e-06	104.2	0.00026376	0.00025502	7.0506e-05	575.31	2.7496e-06	2.7846e-06	921.44	203.33	2.7619e-06	2.7213e-06	428.91	127.49	72.904	33.308	2.6953e-06	96.943	160.389	259.139	338.315	6.610	189.715	134.714	6.698	11.607	202.197	135.716	10.950	16.370	16.376	22.268	88.676	20.295	-8191	255	
3011.247	1	1	0	0	0.22473	0.11618	0.061582	0.071698	0.26548	0.12938	0.33152	0.051274	0.043718	0.12955	0.23475	0.10863	0.21312	0.10252	0.1502	0.27591	-1.8979	-2.2958	-2.2771	-2.6646	-2.2042	-2.4875	-2.9542	-2.3146	-2.6688	-2.6479	-2.2604	-2.6083	-2.3688	-2.3229	-2.6604	-2.3146	150.830	339.236	107.814	317.066	200.764	189.453	305.497	159.447	266.326	32.658	284.544	344.187	67.864	18.543	53.539	332.925	0.00039364	0.00055473	0.00015956	587.34	2.8727e-06	5.0128e-06	958.3	208.26	2.2457e-06	3.8923e-06	456.06	181.3	75.389	34.63	5.3297e-06	104.86	0.00025599	0.00024622	6.7528e-05	575.05	2.6586e-06	2.6539e-06	925.8	203.65	2.6846e-06	2.6822e-06	431.01	127.93	72.875	33.505	2.7213e-06	97.297	150.472	68.387	57.181	7.170	161.351	135.634	6.844	11.881	71.986	154.523	10.747	16.669	16.459	22.129	90.705	20.245	-8191	255	
3011.343	1	1	0	0	0.081342	0.12357	0.14838	0.48638	0.1836	0.13027	0.17232	0.070687	0.097447	0.21331	0.21353	0.18475	0.29159	0.19313	0.11551	0.23847	-2.0958	-2.3937	-2.1292	-2.7083	-2.4875	-2.4437	-2.8375	-2.2917	-2.5396	-2.5771	-2.4375	-2.5229	-2.4042	-2.3854	-2.6271	-2.5854	123.071	77.941	6.479	330.603	38.940	129.357	291.795	33.104	-4.608	32.016	298.094	346.712	27.243	76.521	199.999	1.773	0.00045002	0.00048069	0.00017974	578.2	4.415e-06	9.3337e-06	952.85	206.76	5.2921e-06	8.6558e-07	452.66	180.13	74.767	34.342	3.468e-06	103.26	0.00026044	0.00025004	6.9223e-05	572.81	2.7171e-06	2.7127e-06	923.45	201.75	2.7059e-06	2.7047e-06	426.7	127.83	72.611	33.193	2.821e-06	96.217	164.514	79.022	19.356	7.241	168.831	170.149	7.082	11.467	100.692	196.867	10.643	17.201	16.589	22.455	149.784	20.272	-8191	255	
3011.464	1	1	0	0	0.022108	0.19151	0.18332	0.1429	0.13997	0.16635	0.18602	0.15162	0.1138	0.1861	0.0055584	0.25465	0.083305	0.14526	0.15845	0.17876	-2.0521	-2.3667	-2.2313	-2.4771	-2.4938	-2.1958	-2.8646	-2.3771	-2.5771	-2.7354	-2.2271	-2.6833	-2.5438	-2.4042	-2.6688	-2.4292	202.275	43.964	145.520	283.386	14.512	202.073	5.637	320.688	80.426	193.235	106.711	82.551	307.875	34.659	9.910	353.416	0.00037827	0.00056238	0.00016792	573.25	4.3583e-06	4.8494e-06	939.91	202.01	1.8571e-06	2.0799e-06	447.52	177.6	73.65	33.998	4.2916e-06	101.79	0.00027747	0.0002724	7.6871e-05	576.26	3.044e-06	3.0882e-06	911.84	198.96	3.0528e-06	3.0407e-06	423.41	130.04	72.319	32.903	3.1288e-06	95.113	180.610	150.236	143.994	7.118	189.670	112.220	7.040	11.743	114.712	218.142	10.711	16.570	16.513	22.169	202.480	20.209	-8191	255	
3011.560	1	1	0	0	0.05404	0.2166	0.02919	0.053413	0.31344	0.10817	0.23933	0.01853	0.11683	0.018056	0.17551	0.099608	0.31479	0.18083	0.15013	0.10509	-1.875	-2.6417	-2.1667	-2.725	-2.35	-2.1437	-2.6229	-2.35	-2.2333	-2.5083	-2.325	-2.6771	-2.6417	-2.3229	-2.9354	-2.5125	290.201	73.637	195.119	33.099	150.327	-5.296	341.516	309.953	189.610	231.026	344.080	53.926	138.206	343.112	134.960	5.243	0.00047408	0.00026482	8.3115e-05	575.52	2.8854e-06	2.5275e-06	933.95	202.58	7.8815e-06	2.76e-06	446.8	175.82	73.437	33.615	9.8299e-06	102.15	0.00030338	0.000292	8.1211e-05	577.49	3.1931e-06	3.1607e-06	909.74	199.5	3.2035e-06	3.2296e-06	422.05	131.78	72.181	32.749	3.2014e-06	95.167	151.938	71.330	128.419	6.894	123.720	177.522	7.139	11.596	88.430	106.470	10.743	16.567	16.477	22.625	135.324	20.207	-8191	255	
3011.656	1	1	0	0	0.1625	0.21073	0.18406	0.041841	0.083867	0.14704	0.074401	0.13393	0.24727	0.21262	0.14403	0.37589	0.085487	0.23459	0.15342	0.44286	-1.9917	-2.6854	-2.0979	-2.4062	-2.7438	-2.3125	-2.9604	-2.525	-2.3438	-2.6958	-2.4521	-2.6188	-2.5396	-2.1542	-2.6958	-2.7062	56.547	204.690	305.523	213.611	68.035	0.198	154.530	332.555	218.365	191.321	333.314	97.919	-4.348	347.633	100.380	264.799	0.00035068	0.00013196	5.555e-05	573.71	4.1466e-06	5.5367e-06	938.73	203.19	7.9301e-06	6.5642e-06	443.61	174.25	73.526	33.568	7.1157e-06	102.21	0.00029982	0.00029227	8.1667e-05	578.03	3.1621e-06	3.2018e-06	911.54	199.63	3.1641e-06	3.1728e-06	422.4	131.23	71.985	32.72	3.2059e-06	95.109	162.684	76.147	345.771	6.453	169.285	9.572	7.182	11.707	123.959	2.451	10.909	16.445	16.459	22.164	152.886	20.344	-8191	255	
3011.752	1	1	0	0	0.16484	0.14358	0.11376	0.29222	0.19447	0.13597	0.16907	0.16992	0.24523	0.1294	0.31596	0.24735	0.16688	0.13896	0.086281	0.36671	-1.8417	-2.5417	-2.425	-2.3854	-2.6375	-2.1479	-2.8063	-2.4292	-2.1521	-2.7812	-2.5417	-2.5208	-2.7521	-2.3542	-2.6167	-2.675	51.074	134.462	75.943	309.391	279.689	278.200	28.204	263.452	251.206	254.095	310.826	290.095	343.379	318.789	166.750	316.779	0.0004028	0.00014237	0.00016483	568.17	1.3881e-06	7.5475e-06	937.22	201.67	2.8013e-06	4.3415e-06	444.69	176.29	72.893	33.542	4.5519e-06	101.96	0.00030096	0.00028996	8.0632e-05	576.41	3.1363e-06	3.1074e-06	911.29	199.3	3.0985e-06	3.0586e-06	421.09	129.05	71.525	32.54	3.09e-06	94.641	163.259	326.774	37.542	7.163	21.316	139.496	6.869	12.041	77.464	133.160	10.870	17.166	16.783	22.216	112.698	20.190	-8191	255	
3011.848	1	1	0	0	0.087566	0.11322	0.12988	0.11093	0.12185	0.13665	0.33077	0.089917	0.097565	0.08013	0.12765	0.2732	0.2856	0.24035	0.10919	0.19215	-1.9417	-2.6333	-2.3958	-2.3896	-2.675	-2.4521	-2.7333	-2.5792	-2.1437	-2.6292	-2.3729	-2.3604	-2.7438	-2.3729	-2.4542	-2.7125	108.118	38.130	225.301	22.049	353.560	305.044	317.082	312.468	108.345	165.448	347.168	66.530	311.276	36.163	193.733	306.896	0.00038147	0.00078885	0.00015803	571.58	6.3133e-06	2.1537e-06	939.67	202.44	3.5212e-06	3.0446e-06	445.3	175.58	73.455	33.544	1.4019e-06	101.84	0.00028549	0.00027898	7.7653e-05	576.72	3.0617e-06	3.0624e-06	909.84	199.34	3.0956e-06	3.0708e-06	422.75	129.29	71.597	32.544	3.0464e-06	94.755	152.978	6.735	44.373	6.741	104.422	273.491	7.044	11.746	113.201	181.676	10.588	16.054	16.424	22.222	279.093	20.399	-8191	255	
3011.945	1	1	0	0	0.10501	0.1589	0.055501	0.23698	0.10822	0.21439	0.12162	0.14425	0.13814	0.12156	0.31529	0.13223	0.10303	0.065878	0.13402	0.2739	-1.875	-2.4125	-2.4583	-2.3187	-2.7687	-2.4375	-2.5375	-2.7604	-2.0917	-2.6354	-2.7104	-2.3563	-2.7104	-2.3937	-2.4333	-2.9521	101.303	278.815	21.702	105.758	122.312	175.201	249.290	327.726	157.813	51.633	235.056	275.568	52.901	210.093	230.340	261.804	0.00045679	0.0003948	0.00015478	571.69	7.3946e-06	8.7442e-06	946.33	204.35	3.2395e-06	5.4924e-06	449.22	176.6	73.818	33.613	6.4899e-06	102.48	0.00028449	0.00027582	7.6419e-05	574.12	3.0167e-06	3.0031e-06	915.13	200.4	3.0028e-06	3.0267e-06	424.52	130.18	72.125	32.739	3.0526e-06	95.572	157.107	120.078	97.013	7.244	143.404	186.152	6.940	11.468	144.696	117.577	10.790	16.521	16.568	22.258	53.996	20.241	-8191	255	
3012.063	1	1	0	0	0.16057	0.19612	0.14746	0.15762	0.15072	0.16377	0.052468	0.13648	0.18206	0.2038	0.12883	0.31633	0.0016665	0.22989	0.29814	0.15414	-1.7646	-2.7542	-2.45	-2.0396	-2.8167	-2.4417	-2.4917	-2.8521	-2.4354	-2.4167	-2.875	-2.1688	-2.8417	-2.5062	-2.4667	-3.0062	87.689	70.876	61.673	321.019	-5.171	220.964	19.724	287.131	45.896	98.189	-3.562	305.425	180.000	17.007	55.452	315.007	0.0004398	0.00058057	0.00017381	574.65	9.8447e-07	3.9343e-06	946.8	204.27	6.9614e-06	4.9387e-06	448.78	175.85	73.94	33.634	4.3863e-06	102.47	0.00028971	0.00027706	7.6952e-05	576.32	2.9892e-06	2.9962e-06	916.27	200.63	2.9496e-06	2.9059e-06	424.16	127.48	71.676	32.65	2.845e-06	95.575	151.949	152.003	5.502	6.291	267.573	156.240	7.059	11.702	82.790	162.551	10.955	16.575	16.899	22.064	199.369	20.246	-8191	255	
3012.160	1	1	0	0	0.16751	0.20829	0.16622	0.09135	0.068373	0.11252	0.23705	0.27881	0.12716	0.20034	0.054457	0.11848	0.098997	0.19407	0.052757	0.1279	-1.8563	-2.425	-2.6188	-2.3125	-2.7771	-2.4417	-2.6875	-2.9708	-2.4688	-2.6146	-2.8479	-2.2521	-2.5167	-2.5438	-2.3021	-2.7833	91.733	297.537	56.075	70.487	164.340	266.940	285.864	311.667	159.850	98.510	238.969	294.987	327.220	135.129	103.878	281.732	0.00042029	0.00036379	1.2716e-05	574.15	4.6756e-06	5.5869e-06	941.98	202.89	4.7767e-06	6.0037e-06	446.85	174.93	73.53	33.659	1.9816e-06	102.27	0.00026743	0.00025694	7.0992e-05	569.27	2.7558e-06	2.785e-06	911.06	199.29	2.7675e-06	2.7573e-06	421.94	126.25	71.387	32.636	2.7606e-06	95.225	166.800	159.433	32.525	7.064	125.399	74.827	6.731	12.142	129.475	77.654	10.942	17.053	16.484	22.517	123.290	20.364	-8191	255	
3012.256	1	1	0	0	0.21165	0.24124	0.16567	0.094683	0.10092	0.12469	0.25771	0.030546	0.139	0.12612	0.22076	0.23992	0.22084	0.28415	0.20534	0.27728	-1.8396	-2.3563	-2.5729	-2.4208	-2.6917	-2.3625	-2.4917	-2.7625	-2.4167	-2.4208	-2.8458	-2.2667	-2.7354	-2.45	-2.425	-2.8208	83.304	29.467	336.921	160.627	241.330	302.903	332.302	134.929	110.967	328.083	333.645	196.346	66.256	30.013	108.801	-5.269	0.00042558	0.00044235	0.00012443	576.58	3.4684e-06	2.489e-07	944.55	203.86	4.8975e-06	5.1285e-06	447.15	178.46	73.524	33.622	4.4407e-06	102.62	0.00026018	0.00024962	6.9249e-05	569.18	2.7332e-06	2.722e-06	912.13	199.45	2.7437e-06	2.7462e-06	422.34	126.76	71.111	32.508	2.7536e-06	95.051	173.423	29.225	63.731	7.417	146.720	8.231	7.305	11.707	141.102	78.230	11.013	16.908	16.876	21.978	91.818	20.300	-8191	255	
3012.352	1	1	0	0	0.28341	0.086984	0.30872	0.30724	0.18378	0.24514	0.072161	0.19831	0.17364	0.15674	0.18657	0.10321	0.15652	0.32605	0.08732	0.36689	-2.0042	-2.225	-2.6146	-2.2	-2.6333	-2.6083	-2.325	-2.9146	-2.2604	-2.4229	-2.875	-2.4354	-2.575	-2.7375	-2.0812	-2.8208	31.193	72.531	191.865	26.108	302.392	266.654	314.470	273.640	88.712	11.065	348.206	348.993	134.810	204.573	43.776	350.389	0.00033155	0.0006657	8.9333e-05	581.01	4.6756e-06	4.4564e-06	944.36	204.26	2.0632e-06	4.2767e-06	447.16	176.24	73.032	33.861	1.8243e-06	102.25	0.00026226	0.0002504	6.9562e-05	571.26	2.7483e-06	2.7703e-06	912.09	200.27	2.7764e-06	2.7752e-06	423.49	126.81	70.904	32.65	2.8085e-06	95.063	162.087	63.504	66.681	6.859	161.940	206.896	6.821	11.853	160.050	107.322	10.664	17.117	16.726	22.247	122.192	20.354	-8191	255	
3012.448	1	1	0	0	0.2688	0.1551	0.24306	0.20065	0.095612	0.12846	0.091931	0.28738	0.1502	0.092	0.201	0.26151	0.22281	0.1069	0.14112	0.26543	-2.1063	-2.3458	-2.5625	-2.3896	-2.5	-2.6208	-2.4854	-2.7146	-2.425	-2.3042	-2.7583	-2.2667	-2.6229	-2.9813	-2.2271	-2.8896	352.781	310.946	82.109	133.260	260.483	69.237	-5.694	108.192	189.313	157.953	302.956	119.591	157.595	248.239	312.998	285.883	0.00043909	0.00032292	0.00025052	575.12	3.4289e-06	4.377e-06	937.95	204.16	2.297e-06	2.3674e-06	446.2	173.84	73.049	33.517	5.9189e-06	101.14	0.00026595	0.00025728	7.0661e-05	569.65	2.7799e-06	2.7796e-06	908.88	199.63	2.72e-06	2.7272e-06	420.73	125.4	70.758	32.341	2.7081e-06	94.024	156.879	109.208	74.562	6.879	304.369	178.401	7.184	11.994	171.008	268.900	10.874	18.028	16.380	22.348	109.116	20.377	-8191	255	
3012.544	1	1	0	0	0.16439	0.25168	0.22614	0.18167	0.06504	0.093229	0.12718	0.20285	0.24868	0.14099	0.13497	0.18279	0.035459	0.14876	0.17874	0.1609	-2.0854	-2.2104	-2.6188	-2.3833	-2.6667	-2.925	-2.4333	-2.7354	-2.7104	-2.2458	-2.8854	-2.5521	-2.5687	-2.8333	-2.1521	-2.7	208.102	125.077	117.083	293.018	99.948	131.749	233.773	173.905	36.918	24.711	153.488	-6.067	77.121	80.885	178.363	324.662	0.00040877	0.00030008	7.6925e-05	575.42	1.9285e-06	4.1315e-06	935.8	204.01	2.7038e-06	3.924e-06	447.25	175.57	73.12	33.404	5.5642e-06	101.16	0.00026089	0.00024899	6.8161e-05	568.49	2.6856e-06	2.6874e-06	902.62	199.88	2.7415e-06	2.7228e-06	420.77	125.08	70.623	32.228	2.7689e-06	94.003	157.369	205.374	13.731	7.151	100.613	226.138	7.127	11.640	108.829	96.695	10.950	16.891	16.571	22.225	92.611	20.280	-8191	255	
3012.640	1	1	0	0	0.1237	0.13953	0.13324	0.18476	0.083062	0.096735	0.16723	0.24752	0.2472	0.06949	0.15775	0.13086	0.25506	0.1068	0.17881	0.39616	-2.125	-2.275	-2.4958	-2.4688	-2.3146	-2.5708	-2.475	-2.3896	-2.7062	-2.0667	-2.7292	-2.2667	-2.3771	-2.8021	-2.4188	-2.5896	277.054	259.506	-4.779	255.007	201.936	102.718	30.403	349.583	194.973	199.582	20.072	69.169	318.552	212.885	106.812	286.793	0.00046484	0.00022152	0.00022806	571.99	5.8144e-06	4.158e-06	938.22	203.97	2.9019e-06	3.3928e-06	446.68	173.23	73.105	33.345	5.9819e-06	101.2	0.00026058	0.00025178	6.9271e-05	570.83	2.748e-06	2.763e-06	906.8	200.18	2.6937e-06	2.6919e-06	421.46	124.9	70.45	32.197	2.6636e-06	94.067	159.791	140.886	31.977	6.799	181.568	194.314	6.933	11.757	121.528	138.384	10.914	17.225	16.851	22.323	102.080	20.396	-8191	255	
3012.761	1	1	0	0	0.16689	0.10334	0.15724	0.052464	0.045413	0.053246	0.06021	0.12319	0.16255	0.15095	0.0088783	0.18012	0.032755	0.21622	0.20373	0.14782	-1.8792	-2.1979	-2.5396	-2.5229	-2.2958	-2.575	-2.6	-2.5792	-2.6958	-2.1729	-2.7875	-2.6667	-2.3021	-2.7042	-2.2625	-2.5167	201.055	304.554	353.517	322.389	203.501	47.792	224.314	288.989	172.641	321.841	242.452	91.864	278.251	311.874	-4.071	253.828	0.00046405	0.00045834	0.00010257	577.36	2.1251e-06	1.8303e-06	937.89	206.27	6.1566e-06	2.163e-06	448.29	174.29	72.871	33.379	7.3184e-06	101.8	0.00025219	0.00023999	6.6354e-05	568.91	2.6214e-06	2.5989e-06	907.32	200.95	2.5622e-06	2.5649e-06	422.21	123.21	70.307	32.119	2.478e-06	94.061	162.299	73.627	94.024	7.360	51.680	126.793	6.854	11.875	103.497	100.179	11.331	17.318	16.505	22.202	81.036	20.348	-8191	255	
3012.855	1	1	0	0	0.23674	0.29382	0.13697	0.18777	0.080257	0.031969	0.16719	0.036402	0.26843	0.15898	0.058492	0.22266	0.26882	0.15387	0.17681	0.11625	-2.2625	-2.2021	-2.6	-2.7062	-2.1937	-2.7125	-2.6479	-2.4271	-2.7833	-2.275	-2.75	-2.6625	-2.3937	-2.8604	-2.3979	-2.4354	74.393	233.364	110.254	87.449	264.546	153.934	195.282	298.176	106.423	314.603	260.099	334.477	26.336	209.469	101.939	265.618	0.00037942	0.00053672	0.00010399	588.56	5.0408e-06	3.4711e-06	936.04	208.3	1.8431e-06	5.5759e-06	452.22	175.14	72.703	33.451	3.8474e-06	101.34	0.00023399	0.00022293	6.1688e-05	568.18	2.4536e-06	2.429e-06	904.99	202.51	2.3964e-06	2.408e-06	423.13	121.72	69.909	32.092	2.4142e-06	93.896	162.504	78.237	86.817	7.493	136.082	243.075	7.353	11.999	142.259	55.512	10.819	17.071	16.664	22.236	62.403	20.336	-8191	255	
3012.952	1	1	0	0	0.078151	0.21135	0.1703	0.34419	0.20431	0.14385	0.1697	0.41832	0.17156	0.1729	0.05735	0.30728	0.11918	0.36371	0.20392	0.087641	-2.2062	-2.2687	-2.3896	-2.6312	-2.2604	-2.5208	-2.5896	-2.4771	-2.6208	-2.25	-2.6021	-2.6917	-2.2854	-2.7104	-2.3792	-2.4771	234.907	71.686	20.807	46.644	322.535	273.032	75.212	342.741	23.135	2.250	338.879	142.150	-3.945	217.616	224.268	257.854	0.00038932	0.00031701	6.1055e-05	582.73	2.4255e-06	2.4448e-06	946.13	209.4	2.1192e-06	5.6029e-06	451.25	173.63	73.342	33.653	2.2631e-06	102.22	0.00023236	0.00022314	6.1683e-05	567.34	2.4321e-06	2.4067e-06	908.49	202.42	2.4203e-06	2.4032e-06	423.96	121.05	70.289	32.224	2.375e-06	94.245	160.953	95.501	95.979	6.224	255.247	57.583	6.935	11.923	302.150	139.300	10.866	17.945	16.802	22.209	36.758	20.237	-8191	255	
3013.025	1	1	0	0	0.18467	0.091611	0.1301	0.17905	0.16564	0.041136	0.059211	0.25898	0.2094	0.022787	0.39362	0.052417	0.20543	0.20747	0.192	0.20984	-2.0792	-2.3979	-2.3854	-2.7771	-2.2542	-2.5833	-2.7687	-2.2375	-2.8063	-2.5	-2.4292	-2.7042	-2.2854	-2.4896	-2.5583	-2.3833	98.010	286.770	183.826	37.671	172.591	11.728	152.447	274.026	235.271	213.469	19.110	63.974	53.300	310.949	143.773	53.823	0.00047784	0.00074418	2.4352e-05	587.86	5.2062e-06	1.3207e-06	945.53	207.98	4.6153e-06	5.4983e-06	452.43	175.33	74.165	33.788	4.6404e-06	102.06	0.00022896	0.00021674	6.104e-05	568.63	2.4159e-06	2.38e-06	911.95	202.41	2.3796e-06	2.3761e-06	424.77	121.45	70.693	32.466	2.3486e-06	94.836	157.054	34.008	139.331	6.673	154.328	60.596	7.173	11.926	127.240	128.830	10.932	17.484	16.902	22.367	37.060	20.432	-8191	255	
3013.144	1	1	0	0	0.33	0.31639	0.026499	0.54947	0.17766	0.090772	0.15173	0.17228	0.054287	0.11147	0.20476	0.087333	0.090814	0.078845	0.10943	0.34738	-1.975	-2.325	-2.4958	-2.725	-2.3063	-2.4417	-2.7708	-2.1958	-2.5521	-2.5083	-2.6042	-2.675	-2.325	-2.4458	-2.5125	-2.3125	80.809	271.185	44.648	48.475	300.084	330.693	171.969	294.713	290.784	108.588	337.236	82.193	262.418	14.914	283.996	306.905	0.00046919	0.0010344	0.0001195	591.68	3.3484e-06	7.3554e-07	945.65	206.97	5.9454e-06	3.4577e-06	449.91	175.52	73.057	33.582	4.6023e-06	101.91	0.0002273	0.0002165	6.0138e-05	567.86	2.3568e-06	2.3514e-06	910.95	201.23	2.3709e-06	2.3506e-06	422.8	121.28	70.102	32.296	2.3676e-06	94.38	155.732	80.763	95.312	6.917	144.598	-2.308	6.789	11.988	146.395	73.879	10.861	17.187	16.813	22.220	135.954	20.221	-8191	255	
3013.240	1	1	0	0	0.13777	0.12095	0.090721	0.15217	0.17282	0.041723	0.10876	0.07635	0.15997	0.10382	0.18949	0.11234	0.21739	0.093572	0.19008	0.16249	-2.2125	-2.3458	-2.2146	-2.7	-2.4125	-2.5146	-2.9	-2.3937	-2.5875	-2.5896	-2.4083	-2.5062	-2.2	-2.625	-2.7167	-2.3458	329.227	86.904	300.705	309.199	67.189	146.065	310.679	202.602	-0.180	132.610	295.659	96.035	85.956	256.453	204.330	-4.197	0.00049414	0.00034725	8.6174e-05	587.88	6.6306e-06	3.522e-06	939.66	207.12	6.5951e-06	7.0804e-06	448.01	176.13	72.861	33.381	6.7832e-06	101.27	0.00022719	0.00021713	6.0152e-05	565.83	2.3758e-06	2.3722e-06	903.55	200.44	2.351e-06	2.349e-06	420.04	120.08	69.7	32.009	2.3422e-06	93.547	150.070	194.955	70.282	7.000	129.043	40.660	6.981	11.811	161.348	141.868	11.182	17.117	16.456	22.209	116.888	20.227	-8191	255	
3013.336	1	1	0	0	0.17089	0.059006	0.14944	0.20305	0.10665	0.15141	0.13728	0.04938	0.22961	0.050557	0.21292	0.090597	0.37163	0.015582	0.38821	0.18306	-2.1437	-2.4542	-2.2646	-2.7167	-2.475	-2.4313	-2.7917	-2.5583	-2.6896	-2.5812	-2.4604	-2.7604	-2.4313	-2.3104	-2.6083	-2.3563	311.472	220.388	326.856	313.668	281.697	242.489	230.385	248.871	156.301	49.802	32.698	239.378	328.458	315.098	87.404	246.123	0.00036981	0.00048653	7.7707e-05	584.25	5.5299e-06	1.7885e-06	935.75	205.89	2.7031e-06	7.8423e-06	445.46	171.46	72.63	33.167	3.9163e-06	100.95	0.00022385	0.00021345	5.9392e-05	564.22	2.3352e-06	2.3641e-06	900.19	200.35	2.3613e-06	2.3685e-06	419.42	119.92	69.539	31.907	2.3533e-06	93.41	147.975	54.709	88.096	6.902	156.256	261.146	7.085	11.686	158.940	171.800	10.940	16.396	16.696	22.132	165.084	20.340	-8191	255	
3013.457	1	1	0	0	0.10024	0.21606	0.33298	0.050853	0.099904	0.12937	0.2539	0.088669	0.52009	0.02693	0.14878	0.060786	0.20921	0.2627	0.18221	0.18776	-2.0479	-2.3875	-2.3146	-2.875	-2.5187	-2.2062	-2.9271	-2.2208	-2.4188	-2.6208	-2.375	-2.6417	-2.5104	-2.4729	-2.6312	-2.5167	23.637	165.048	142.129	78.870	335.537	125.353	299.864	253.249	119.634	57.044	293.601	28.364	65.414	190.878	223.545	272.258	0.00039643	0.00033048	6.7457e-05	578.18	2.2623e-06	2.3092e-06	935.78	206.12	4.456e-06	2.2841e-06	447.9	175.56	72.046	33.074	7.6998e-06	100.8	0.00022737	0.00021857	6.1321e-05	564.83	2.4123e-06	2.468e-06	901.76	200.43	2.4682e-06	2.4811e-06	420.85	121.87	69.896	31.945	2.506e-06	93.518	159.788	182.554	192.211	6.885	68.211	146.531	7.093	12.115	76.296	150.470	10.917	17.098	16.792	22.173	129.188	20.362	-8191	255	
3013.553	1	1	0	0	0.22179	0.050658	0.2268	0.16376	0.16575	0.23886	0.3351	0.11453	0.17008	0.10663	0.25261	0.2293	0.2193	0.18663	0.068879	0.28268	-1.9708	-2.7354	-2.2604	-2.4104	-2.5417	-2.1104	-2.875	-2.5083	-2.5542	-2.6729	-2.3854	-2.6125	-2.55	-2.2604	-2.7458	-2.5229	178.427	135.623	208.098	291.094	243.535	53.281	243.157	192.363	192.673	192.974	317.362	41.296	92.915	22.335	13.414	306.715	0.00052158	0.00069665	9.1609e-05	582.46	5.918e-06	1.7204e-06	933.92	204.15	1.7747e-06	3.7955e-06	444.17	171.32	72.073	32.793	4.985e-06	99.903	0.00024157	0.00023352	6.5714e-05	570.1	2.6048e-06	2.6215e-06	901.57	200.17	2.6789e-06	2.7038e-06	418.65	123.22	69.687	31.663	2.6737e-06	92.586	155.742	64.779	88.356	7.500	156.350	133.440	7.198	11.885	113.181	125.181	10.977	16.959	16.746	22.248	122.709	20.447	-8191	255	
3013.625	1	1	0	0	0.063376	0.055613	0.016439	0.148	0.28231	0.022143	0.033774	0.087689	0.12165	0.18392	0.17558	0.277	0.10616	0.098827	0.11768	0.14904	-2.0146	-2.6167	-2.2188	-2.5729	-2.7229	-2.1833	-2.7542	-2.65	-2.4375	-2.6979	-2.5792	-2.3771	-2.75	-2.3292	-2.7708	-2.575	63.382	280.102	29.783	67.982	34.722	350.599	313.460	130.464	335.555	62.681	321.355	27.185	250.037	302.545	72.793	203.554	0.00041088	0.00076823	8.3812e-05	575.61	3.002e-06	2.5202e-06	927.56	204.04	2.887e-06	9.8758e-07	442.02	169.92	71.453	32.712	4.601e-06	98.954	0.00025494	0.00024459	6.7657e-05	567.83	2.6808e-06	2.6721e-06	896.5	199.76	2.6478e-06	2.6421e-06	417.13	122.68	69.52	31.548	2.6875e-06	92.231	172.851	54.762	88.672	7.115	167.118	77.999	7.105	11.843	191.906	227.090	10.973	16.594	16.789	22.493	206.640	20.373	-8191	255	
3013.745	1	1	0	0	0.24638	0.085791	0.32803	0.24447	0.31991	0.10251	0.079244	0.21999	0.1074	0.23395	0.1411	0.08446	0.24892	0.20774	0.12586	0.26639	-1.8229	-2.8187	-2.0521	-2.35	-2.7958	-2.1771	-2.7812	-2.5521	-2.5354	-2.7417	-2.4729	-2.3958	-2.7125	-2.2854	-2.5604	-2.65	13.170	102.406	126.268	298.085	290.238	27.231	293.678	314.361	94.796	321.200	313.253	145.333	321.621	17.855	39.146	300.473	0.00043227	0.00029537	0.00013891	574.96	1.1688e-06	6.0829e-06	926.66	206.11	4.7295e-06	3.5701e-06	444.33	171.87	72.076	32.764	7.9294e-06	100	0.00025229	0.00024767	6.7753e-05	567.14	2.6047e-06	2.6487e-06	896.58	200.96	2.6758e-06	2.6235e-06	418.68	123.84	69.624	31.683	2.6872e-06	93.013	153.291	98.885	97.011	7.051	105.280	153.100	7.205	12.080	47.372	113.623	10.973	16.863	16.961	22.439	108.621	20.471	-8191	255	
3013.841	1	1	0	0	0.26053	0.15818	0.17773	0.11364	0.068437	0.040933	0.1681	0.17734	0.10952	0.17673	0.38712	0.13755	0.12361	0.030817	0.19231	0.2769	-1.7854	-2.6542	-2.375	-2.5333	-2.6833	-2.3354	-2.8125	-2.6542	-2.1937	-2.5896	-2.6604	-2.2833	-2.7667	-2.3542	-2.6271	-3.0167	126.350	67.616	201.973	23.357	264.128	304.574	271.273	278.084	233.723	295.890	297.687	105.935	46.653	353.878	289.548	265.083	0.0004905	0.00021391	0.0001436	582.86	3.2389e-06	1.8907e-06	937.4	204.79	1.8622e-06	4.2976e-06	444.91	172.26	71.465	32.856	3.6579e-06	100.51	0.00025522	0.00024734	6.9075e-05	571.45	2.7053e-06	2.7246e-06	905.33	200.26	2.7494e-06	2.767e-06	420.66	124.7	69.801	31.877	2.7736e-06	93.408	162.166	341.532	109.537	7.366	153.130	133.883	6.900	11.974	215.176	215.379	11.040	17.476	16.550	22.409	110.101	20.452	-8191	255	
3013.937	1	1	0	0	0.10367	0.16668	0.1993	0.28408	0.18562	0.12306	0.21487	0.25178	0.18014	0.18669	0.28158	0.16145	0.15963	0.31318	0.081714	0.30791	-1.5396	-2.5021	-2.3688	-2.2833	-2.5271	-2.4167	-2.6958	-2.7083	-2.2104	-2.5687	-2.5875	-2.1958	-2.5042	-2.3104	-2.4354	-2.7562	19.237	154.541	70.423	217.058	337.865	38.109	297.692	302.662	281.273	272.632	306.227	230.072	220.663	306.843	149.108	279.555	0.00047119	0.00035953	0.00015012	573.32	9.3463e-07	1.155e-06	931.48	202.83	5.4993e-06	3.9609e-06	444	173.47	71.306	32.762	1.3837e-06	99.609	0.00026046	0.00025045	6.911e-05	568.43	2.7193e-06	2.6951e-06	900.14	199.06	2.702e-06	2.6912e-06	417.3	124.34	69.402	31.758	2.716e-06	92.754	163.890	151.925	61.255	7.486	156.212	110.467	7.161	12.012	145.905	75.616	10.935	16.214	16.804	22.128	187.925	20.296	-8191	255	
3014.056	1	1	0	0	0.071751	0.27529	0.054533	0.19659	0.19482	0.2188	0.12822	0.15228	0.13316	0.061276	0.19167	0.24599	0.12341	0.24678	0.11106	0.35697	-1.9708	-2.6104	-2.5042	-2.35	-2.6625	-2.3354	-2.5917	-2.7604	-2.1229	-2.6937	-2.9229	-2.1375	-2.825	-2.4333	-2.2	-2.9729	206.350	319.411	338.819	56.646	200.003	290.452	249.533	221.076	288.721	266.469	250.005	3.170	131.176	40.677	173.567	294.230	0.00039082	0.00031299	9.2446e-05	570.95	4.8488e-06	2.5791e-06	923.45	201.45	2.7814e-06	3.694e-06	442.2	170.55	71.667	32.591	5.31e-06	99.744	0.00025793	0.00024937	6.8916e-05	565.57	2.7129e-06	2.7296e-06	894.29	197.27	2.6939e-06	2.7184e-06	415.4	123.19	69.259	31.546	2.7499e-06	92.658	165.163	128.061	142.268	7.025	91.579	66.720	6.982	11.851	184.686	4.131	10.996	16.927	16.679	21.997	134.010	20.589	-8191	255	
3014.153	1	1	0	0	0.20014	0.13883	0.2295	0.096284	0.19856	0.13054	0.24762	0.32181	0.30918	0.23737	0.083493	0.45842	0.24462	0.1402	0.13161	0.32871	-1.725	-2.5729	-2.6188	-2.3	-2.775	-2.4625	-2.45	-2.7583	-2.2896	-2.6604	-2.8708	-2.2083	-2.6875	-2.5938	-2.3708	-2.8896	2.155	328.787	52.371	17.464	138.771	214.106	269.346	243.896	39.103	152.673	309.660	23.393	321.054	125.007	149.375	321.449	0.00041474	0.00062887	0.00015871	577.75	3.0616e-06	1.2448e-05	927.21	201.91	3.6654e-06	1.7844e-06	441.04	175.57	71.813	32.586	3.0961e-06	99.404	0.00025996	0.00024854	6.9709e-05	567.84	2.7401e-06	2.7251e-06	897.02	197.64	2.7672e-06	2.7437e-06	415.78	124.65	69.401	31.557	2.7667e-06	92.513	156.023	136.571	74.758	6.833	-4.240	154.056	6.907	12.517	55.407	47.091	11.308	17.352	16.690	22.135	175.680	20.580	-8191	255	
3014.249	1	1	0	0	0.034148	0.10785	0.059771	0.14517	0.10029	0.16287	0.1102	0.18657	0.24844	0.18274	0.085029	0.022017	0.052261	0.15919	0.14137	0.38933	-2.0229	-2.4708	-2.7833	-2.4	-2.7958	-2.3563	-2.2896	-2.925	-2.3292	-2.4833	-2.825	-2.3896	-2.65	-2.5854	-2.3271	-2.8229	313.133	148.729	272.274	193.985	61.027	297.401	235.141	33.238	340.662	238.080	17.639	164.988	345.037	58.510	208.396	315.203	0.00041187	0.00073366	0.00017252	571.62	4.6195e-06	8.3732e-06	927.76	202.36	4.2342e-06	3.327e-07	438.39	172.55	71.332	32.362	4.6009e-06	99.244	0.00026132	0.00025076	7.013e-05	569.77	2.7586e-06	2.7545e-06	896.36	197.4	2.7777e-06	2.7577e-06	414.74	123.4	69.182	31.4	2.7554e-06	92.094	155.959	67.627	125.378	7.179	142.907	138.519	7.192	11.780	253.520	9.805	11.007	16.931	17.131	22.438	115.235	20.482	-8191	255	
3014.320	1	1	0	0	0.3389	0.1215	0.18273	0.27229	0.15581	0.13608	0.32096	0.16507	0.28586	0.14326	0.35057	0.27988	0.094845	0.15623	0.26652	0.10549	-2.0938	-2.3688	-2.6958	-2.2479	-2.6667	-2.7125	-2.6042	-2.9146	-2.3833	-2.5187	-3.0417	-2.2854	-2.6542	-2.8583	-2.2812	-3.0104	137.057	9.449	-1.518	156.624	246.820	71.730	284.641	14.736	35.010	11.966	343.272	46.912	175.710	236.681	259.275	299.876	0.000367	0.00031496	0.00010649	575.06	3.8933e-06	6.4721e-06	924.34	200.7	5.8418e-06	4.3116e-06	439.92	171.86	71.096	32.355	3.9976e-06	98.39	0.00026105	0.00024883	6.9013e-05	566.51	2.7266e-06	2.7105e-06	891.26	196.47	2.728e-06	2.6705e-06	413.5	123.13	68.787	31.256	2.7412e-06	91.571	167.038	87.556	47.419	7.095	61.513	75.488	6.925	12.211	107.148	112.898	11.064	17.030	16.693	22.100	109.527	20.507	-8191	255	
3014.441	1	1	0	0	0.28619	0.13656	0.033399	0.16663	0.12711	0.075854	0.20903	0.13644	0.20943	0.20695	0.064312	0.11922	0.096523	0.27763	0.15682	0.40271	-2.0167	-1.9688	-2.7417	-2.2833	-2.5292	-2.8438	-2.4896	-2.6958	-2.525	-2.5167	-2.9042	-2.4917	-2.5354	-2.6833	-2.3333	-2.8	247.276	30.828	88.838	291.894	169.034	69.286	249.447	233.380	74.307	271.157	148.869	203.597	308.296	317.411	20.159	299.549	0.00043459	0.00074602	0.00019436	569.76	2.0436e-06	3.888e-06	915.14	200.65	3.7323e-06	4.4064e-06	435.77	168.3	71.005	32.521	4.2135e-06	99.035	0.00025814	0.00025417	7.0203e-05	564.81	2.7469e-06	2.7927e-06	890.63	196.68	2.812e-06	2.7511e-06	413.27	123.2	68.96	31.384	2.6907e-06	91.756	155.098	110.121	20.820	7.363	252.835	162.696	7.201	12.043	191.117	144.301	11.102	17.513	16.742	22.331	293.684	20.582	-8191	255	
3014.537	1	1	0	0	0.022398	0.28608	0.098768	0.18825	0.20167	0.045896	0.41395	0.077331	0.15861	0.22056	0.038523	0.021688	0.17337	0.22123	0.17004	0.35058	-2.0833	-2.2917	-2.6708	-2.5104	-2.4021	-2.6937	-2.3063	-2.6042	-2.6146	-2.3833	-2.7938	-2.3312	-2.2938	-2.9292	-2.3021	-2.5917	71.147	208.114	256.502	348.318	287.249	11.765	299.568	155.685	335.140	39.034	87.393	97.882	-0.490	341.472	196.591	349.572	0.00042557	0.00043085	4.0395e-05	569.36	5.0765e-06	1.1537e-06	923.76	202.1	3.9796e-06	3.8627e-06	437.9	170.26	70.391	32.21	5.8229e-06	98.497	0.00025688	0.00024526	6.8041e-05	563.97	2.6494e-06	2.701e-06	891.9	197.82	2.675e-06	2.7053e-06	414.21	122.27	68.653	31.238	2.713e-06	91.687	154.597	213.804	110.637	6.640	142.561	278.012	7.160	11.970	189.625	136.765	10.829	17.027	16.837	22.514	139.814	20.494	-8191	255	
3014.633	1	1	0	0	0.32696	0.14108	0.13953	0.14766	0.19535	0.17915	0.29092	0.13661	0.16808	0.16285	0.19809	0.071401	0.010467	0.24403	0.22564	0.077034	-2.1021	-2.0292	-2.5792	-2.3146	-2.3771	-2.7667	-2.3875	-2.6208	-2.5375	-2.2833	-2.7313	-2.575	-2.4146	-2.6729	-2.425	-2.7542	309.493	132.632	269.234	278.871	163.145	12.509	196.089	330.707	191.141	292.761	303.714	69.179	292.829	22.528	145.373	339.608	0.00039954	0.00037054	5.5974e-05	570.58	1.3112e-06	6.4255e-06	924.1	204.26	3.4096e-06	2.4573e-06	438.9	171.47	70.773	32.247	5.0925e-06	98.149	0.00025677	0.00024489	6.7839e-05	566.82	2.6505e-06	2.6522e-06	891.82	198.56	2.6375e-06	2.6139e-06	414.1	120.8	68.381	31.105	2.6113e-06	91.156	174.332	81.177	97.070	6.957	43.645	84.557	7.297	12.269	72.122	61.886	11.172	17.140	16.913	22.649	157.053	20.515	-8191	255	
3014.729	1	1	0	0	0.12485	0.054676	0.21736	0.30725	0.1469	0.11416	0.36736	0.30944	0.20729	0.20472	0.22002	0.13453	0.053568	0.17267	0.18781	0.37915	-2.0208	-2.1375	-2.6021	-2.3875	-2.2854	-2.8167	-2.2958	-2.5417	-2.7	-2.2562	-2.7083	-2.5896	-2.3458	-2.6562	-2.5542	-2.4729	100.947	165.285	325.434	339.688	243.078	200.083	337.184	290.053	162.588	122.581	334.029	7.431	118.772	250.124	16.878	297.724	0.00040714	0.00013881	0.00012967	576.53	1.7926e-06	6.69e-07	918.71	202.24	2.2259e-06	5.5235e-06	438.14	168.51	70.64	32.307	4.2447e-06	98.394	0.00024788	0.0002398	6.7289e-05	563.5	2.5972e-06	2.5762e-06	889.33	197.97	2.5991e-06	2.5814e-06	413.37	121.04	68.355	31.165	2.5586e-06	91.4	162.436	346.978	99.484	6.792	198.904	346.946	7.051	11.921	117.288	128.503	10.939	16.984	17.148	22.159	121.413	20.449	-8191	255	
3014.848	1	1	0	0	0.086492	0.28087	0.12226	0.092466	0.062648	0.02676	0.13964	0.29921	0.15878	0.25669	0.17757	0.13643	0.17389	0.071694	0.061849	0.21007	-2.1271	-2.1979	-2.5667	-2.5125	-2.3083	-2.7104	-2.6792	-2.4729	-2.7667	-2.2583	-2.6083	-2.5687	-2.1458	-2.8396	-2.4062	-2.4458	238.564	308.468	146.577	187.814	70.367	334.536	263.184	317.735	249.549	331.917	294.477	284.900	122.353	277.300	31.453	251.891	0.00040323	0.0003714	6.2829e-05	581.45	6.4688e-06	4.122e-06	923.98	203.18	5.572e-06	2.7555e-06	442.68	170.12	71.194	32.493	6.4524e-06	99.077	0.00024339	0.00023239	6.4701e-05	566.74	2.5419e-06	2.5394e-06	892.84	198.42	2.5573e-06	2.5228e-06	416.11	121.44	68.654	31.328	2.5426e-06	92.002	164.262	39.182	159.220	7.341	97.982	142.836	7.229	11.994	148.355	140.579	10.955	17.240	16.866	22.453	152.780	20.413	-8191	255	
3014.922	1	1	0	0	0.1756	0.18876	0.25236	0.1228	0.08026	0.033734	0.32991	0.22062	0.095593	0.3295	0.13382	0.15386	0.19531	0.39814	0.14787	0.21747	-2.3021	-2.3438	-2.4104	-2.5042	-2.2417	-2.525	-2.4167	-2.1229	-2.6	-2.3625	-2.6542	-2.5521	-2.3521	-2.6083	-2.475	-2.4542	330.684	91.926	17.136	323.520	125.485	196.822	236.284	48.078	82.071	118.522	346.820	40.704	265.584	23.486	3.451	280.865	0.00047534	0.00042993	0.0001213	576.4	2.9696e-06	3.6754e-06	930.15	203.59	4.5315e-06	3.596e-06	443.51	170.21	71.811	32.696	3.1267e-06	100.19	0.00024275	0.00022979	6.3416e-05	564.15	2.5101e-06	2.519e-06	898.11	198.49	2.4976e-06	2.5197e-06	417.29	120.97	69.209	31.591	2.5338e-06	92.998	162.027	145.249	72.977	6.428	90.145	92.404	7.208	12.297	139.929	69.979	10.973	17.337	16.987	22.577	135.321	20.405	-8191	255	
3015.018	1	1	0	0	0.037845	0.070601	0.18176	0.22876	0.12654	0.10277	0.11404	0.18147	0.1184	0.23214	0.24274	0.047254	0.11897	0.32899	0.17214	0.23662	-2.1979	-2.2375	-2.2854	-2.5062	-2.25	-2.6854	-2.6479	-2.2812	-2.7208	-2.3979	-2.375	-2.5187	-2.3146	-2.5812	-2.4417	-2.2479	175.512	-2.634	264.393	345.374	205.401	167.509	263.104	297.101	270.647	343.277	252.488	232.364	194.965	13.613	15.125	316.892	0.00042025	0.0003429	0.00013379	579.04	2.0162e-06	4.4867e-06	929.15	202.65	5.9817e-06	2.0312e-06	439.99	170.88	71.274	32.247	2.3508e-06	99.089	0.0002426	0.00023329	6.4856e-05	565.46	2.5316e-06	2.5411e-06	897.22	197.12	2.5576e-06	2.5315e-06	414.42	121.06	68.795	31.257	2.5138e-06	91.786	158.791	115.310	-1.772	6.847	97.995	158.796	7.088	11.971	138.129	13.227	10.993	17.895	16.735	22.648	90.677	20.732	-8191	255	
3015.137	1	1	0	0	0.26114	0.23921	0.21652	0.11438	0.26492	0.26903	0.21624	0.30595	0.031798	0.17791	0.060405	0.20226	0.13705	0.18834	0.14647	0.41508	-2.0958	-2.3104	-2.3	-2.6917	-2.1917	-2.5	-2.6729	-2.2583	-2.5979	-2.6792	-2.4083	-2.575	-2.2083	-2.5292	-2.5229	-2.2292	33.656	246.543	14.785	309.301	137.679	-1.220	31.420	327.422	251.162	2.081	11.962	340.924	327.061	32.912	178.120	319.666	0.00039646	0.00034674	0.00016911	567.94	3.9806e-06	5.1723e-06	924.12	201.59	5.886e-06	1.4546e-06	436.49	169.04	70.725	32.28	2.4256e-06	98.215	0.00024144	0.00023171	6.4373e-05	561.69	2.5276e-06	2.5345e-06	889.22	196.68	2.5388e-06	2.5329e-06	411.54	121.09	68.497	31.191	2.5784e-06	91.327	146.259	122.392	48.888	7.357	96.988	92.640	7.096	11.906	150.716	312.259	10.959	16.553	17.076	22.595	158.404	20.389	-8191	255	
3015.233	1	1	0	0	0.29926	0.10586	0.19572	0.19263	0.16475	0.29909	0.27802	0.26523	0.23108	0.24474	0.053878	0.13072	0.064947	0.20027	0.048247	0.36401	-2.0354	-2.4042	-2.1437	-2.6708	-2.2792	-2.5187	-2.5938	-2.25	-2.5563	-2.6521	-2.4688	-2.7396	-2.2979	-2.3979	-2.65	-2.3708	286.620	234.892	151.412	59.032	6.459	178.344	293.678	31.562	27.533	123.754	178.184	144.659	329.671	54.148	15.920	313.221	0.00038977	0.00038852	2.2865e-05	569.52	2.0737e-06	3.8433e-06	922.11	202.12	5.2724e-06	4.3095e-06	438.14	171.19	70.989	32.37	3.898e-06	98.496	0.0002424	0.00023559	6.5072e-05	562.37	2.5621e-06	2.6059e-06	889.4	197.11	2.628e-06	2.6361e-06	412.86	121.91	68.664	31.219	2.6445e-06	91.499	161.882	82.956	334.349	7.335	295.178	59.500	7.215	12.029	113.445	134.985	11.069	17.972	16.901	22.293	117.132	20.448	-8191	255	
3015.329	1	1	0	0	0.1461	0.027282	0.2467	0.19194	0.037751	0.26673	0.21463	0.14593	0.13243	0.1125	0.16267	0.054771	0.085676	0.27871	0.066033	0.36151	-2.1833	-2.4208	-2.3021	-2.7333	-2.3646	-2.3792	-2.8104	-2.4521	-2.8042	-2.6042	-2.5208	-2.6625	-2.7167	-2.4	-2.8792	-2.4375	270.548	184.923	323.425	114.041	306.620	196.412	295.618	342.564	131.669	217.896	276.027	211.149	261.276	302.005	117.100	238.488	0.00037061	0.00026231	0.00010003	578.83	5.0088e-06	1.3679e-06	929.31	202.88	5.8462e-06	4.5605e-06	438.7	171.49	71.187	32.303	5.2646e-06	98.457	0.00025094	0.00024248	6.7793e-05	568.57	2.6883e-06	2.6781e-06	894.49	197.73	2.6793e-06	2.6527e-06	413.84	122.32	68.8	31.228	2.6495e-06	91.449	167.247	156.410	124.198	7.441	141.794	146.605	7.169	12.066	151.466	109.017	10.997	18.033	17.130	22.406	93.216	20.561	-8191	255	
3015.425	1	1	0	0	0.14923	0.17654	0.042154	0.2339	0.058796	0.3148	0.062042	0.31804	0.11333	0.34506	0.2035	0.0367	0.19153	0.13488	0.12498	0.12055	-2.1521	-2.6417	-2.2771	-2.825	-2.4958	-2.3417	-2.7854	-2.2875	-2.6042	-2.6	-2.4292	-2.7375	-2.5062	-2.3146	-2.7146	-2.5458	275.838	199.654	75.846	69.529	339.424	271.996	4.590	325.767	184.777	117.499	116.360	242.211	340.866	323.737	142.588	282.544	0.00046259	0.00054634	0.00010634	571.88	1.7449e-06	6.6392e-06	919.16	201.02	5.9811e-06	5.9476e-06	436.26	169.15	70.165	32.07	4.9408e-06	97.523	0.00025406	0.00024287	6.7576e-05	565.03	2.6748e-06	2.675e-06	890.25	197.02	2.6839e-06	2.6804e-06	411.71	120.84	67.991	30.876	2.5969e-06	90.475	146.373	70.299	35.040	7.051	164.241	172.795	7.132	12.112	67.887	83.059	11.127	17.044	16.694	22.299	56.067	20.520	-8191	255	
3015.521	1	1	0	0	0.16592	0.026868	0.11921	0.22836	0.10025	0.068411	0.20341	0.06162	0.037795	0.047766	0.090796	0.20759	0.30487	0.23148	0.15857	0.15684	-2.1542	-2.6583	-2.3083	-2.7438	-2.5333	-2.1208	-2.8187	-2.4708	-2.4583	-2.7521	-2.3958	-2.5667	-2.625	-2.5042	-2.7167	-2.5958	352.746	14.877	96.618	152.603	40.622	142.092	279.254	151.543	168.905	134.875	174.165	296.087	70.633	253.659	-3.983	227.289	0.00039506	0.00031481	5.1581e-05	574.51	3.7165e-06	1.344e-06	917.55	202.25	1.5499e-06	5.7702e-06	435.63	164.95	70.322	31.921	6.2874e-06	97.465	0.00024698	0.00023695	6.5793e-05	560.3	2.5751e-06	2.6152e-06	884.9	198.01	2.6198e-06	2.62e-06	411.97	120.97	68.155	30.822	2.6608e-06	90.423	166.523	191.445	108.845	6.837	183.994	192.920	7.157	12.145	104.011	64.670	11.398	17.870	16.833	22.683	128.431	20.650	-8191	255	
3015.618	1	1	0	0	0.23953	0.16671	0.17189	0.18272	0.26923	0.14836	0.11828	0.24536	0.011514	0.044767	0.32478	0.07242	0.15134	0.11723	0.062353	0.25439	-2.0125	-2.8229	-2.3312	-2.4979	-2.6562	-2.3458	-2.8583	-2.5875	-2.3187	-2.7792	-2.4646	-2.6667	-2.7396	-2.3688	-2.5958	-2.7333	0.343	317.089	323.775	31.331	183.143	93.797	63.169	229.941	157.212	21.963	276.670	121.160	301.349	336.388	340.049	269.395	0.00046591	0.00050029	4.2108e-05	576.09	3.0856e-06	5.5807e-06	920.21	203.26	5.4083e-07	6.4194e-06	439.78	169.94	70.645	32.073	8.9333e-06	97.906	0.00025019	0.0002433	6.6962e-05	565.33	2.6193e-06	2.6216e-06	888.73	198.55	2.6266e-06	2.6284e-06	414.16	121.57	68.385	31.08	2.6633e-06	91.043	156.359	157.438	264.433	6.905	143.240	72.788	7.145	11.890	245.035	42.141	10.822	17.399	17.134	22.340	44.550	20.676	-8191	255	
3015.738	1	1	0	0	0.15155	0.043059	0.16505	0.071775	0.19741	0.10583	0.17449	0.23734	0.15941	0.23159	0.16375	0.12729	0.24628	0.21415	0.22415	0.35154	-2.0208	-2.7604	-2.2708	-2.4875	-2.5479	-2.2438	-2.85	-2.5146	-2.3458	-2.8125	-2.5667	-2.4062	-2.6917	-2.3208	-2.5062	-2.7917	106.903	36.870	325.857	-1.554	345.897	-3.497	262.441	272.620	320.353	262.470	76.577	100.576	0.355	44.284	94.200	280.177	0.00047031	0.00042202	0.00012504	582.05	3.9218e-06	1.4668e-06	920.76	203.06	3.425e-06	3.5647e-06	439.43	170.65	70.554	32.19	6.6544e-06	98.627	0.00025192	0.00024282	6.7766e-05	569	2.6329e-06	2.6519e-06	890.81	198.55	2.5718e-06	2.4946e-06	415.11	120.3	68.228	31.058	2.4544e-06	91.332	160.972	351.985	72.934	6.811	88.256	167.147	6.961	11.861	105.813	117.163	11.366	17.607	16.994	22.441	105.931	20.445	-8191	255	
3015.834	1	1	0	0	0.15509	0.18025	0.18239	0.20015	0.14813	0.046387	0.12119	0.18666	0.055425	0.050682	0.17912	0.36562	0.2758	0.030094	0.10607	0.030217	-1.8104	-2.8479	-2.4417	-2.5479	-2.6792	-2.3146	-2.8021	-2.6354	-2.2833	-2.6917	-2.6083	-2.4	-2.6354	-2.3042	-2.7917	-2.8333	258.084	345.197	22.614	297.346	226.120	353.458	23.164	41.191	229.016	36.130	328.944	107.113	208.914	348.070	264.046	287.127	0.00038576	0.00011869	0.00012136	577.16	2.6603e-06	9.6282e-06	918.95	203.51	3.4872e-06	1.9328e-06	440.47	168.21	70.852	32.336	1.604e-06	98.387	0.00023288	0.00022105	6.1227e-05	560.84	2.3898e-06	2.3937e-06	886.05	198.75	2.4077e-06	2.3763e-06	414.02	118.51	68.182	31.031	2.407e-06	91.239	162.662	102.186	133.783	6.758	209.193	64.857	7.258	12.091	142.051	275.908	10.868	18.233	16.985	22.181	159.449	20.540	-8191	255	
3015.929	1	1	0	0	0.184	0.039724	0.23959	0.076067	0.14436	0.31843	0.24609	0.1251	0.13396	0.12956	0.34539	0.078147	0.15975	0.27724	0.23258	0.13596	-1.7125	-2.5729	-2.2938	-2.4021	-2.7167	-2.3604	-2.7812	-2.6771	-2.1958	-2.5917	-2.6792	-2.2479	-2.6708	-2.2208	-2.5312	-2.6667	296.287	63.262	251.906	253.203	310.708	46.023	221.217	317.848	194.831	112.138	316.387	197.960	295.827	2.043	72.779	217.152	0.00044566	0.00075183	0.00013473	580.69	2.4912e-06	4.6923e-06	924.57	204.99	1.8953e-06	1.2708e-06	443.27	174.4	71.04	32.433	3.4799e-06	98.999	0.00022662	0.00021532	6.0649e-05	560.51	2.3759e-06	2.3544e-06	887.81	199.05	2.3833e-06	2.3717e-06	415.14	119.48	68.137	31.156	2.4088e-06	91.7	169.319	46.196	5.622	7.477	190.714	24.676	7.148	12.219	141.637	325.557	11.275	18.178	16.841	22.547	149.393	20.513	-8191	255	
3016.025	1	1	0	0	0.16833	0.060069	0.098721	0.17436	0.12661	0.13917	0.035207	0.19112	0.091203	0.20066	0.13452	0.30268	0.24112	0.1277	0.099462	0.28852	-1.8833	-2.5333	-2.5687	-2.3708	-2.7167	-2.2562	-2.4354	-2.6312	-2.1937	-2.575	-2.5812	-2.3438	-2.7375	-2.4562	-2.3688	-2.7167	61.616	277.460	185.628	70.639	1.328	286.350	216.506	339.830	243.715	303.520	314.216	268.084	318.086	70.919	139.956	316.783	0.00046043	0.00082938	6.9777e-05	575.38	2.4842e-06	3.5642e-06	926.1	203.98	8.4215e-07	3.5863e-06	440.95	172.27	69.973	32.165	2.4536e-06	98.283	0.00023303	0.00022366	6.2175e-05	562.45	2.4435e-06	2.4567e-06	892.55	198.74	2.4914e-06	2.4686e-06	414.54	120.57	68.232	31.076	2.6146e-06	91.406	163.473	56.298	70.085	7.162	205.989	128.240	7.189	12.159	140.794	157.839	10.923	17.361	16.802	22.657	87.800	20.376	-8191	255	
3016.145	1	1	0	0	0.24567	0.18929	0.03781	0.26279	0.054802	0.1389	0.30964	0.11982	0.15777	0.24745	0.18634	0.11331	0.23654	0.25624	0.10556	0.13784	-1.7188	-2.4646	-2.5354	-2.1854	-2.6521	-2.4021	-2.5375	-2.9104	-2.475	-2.5042	-2.7021	-2.1875	-2.8021	-2.4188	-2.2021	-2.7479	179.866	61.351	139.326	53.143	103.729	144.030	10.480	43.378	141.833	98.328	176.349	143.937	57.061	0.064	308.214	251.095	0.00039265	0.00015239	6.212e-05	568	6.819e-07	9.4423e-06	917.45	200	3.7236e-06	4.428e-06	434.11	163.96	69.63	31.685	3.3462e-06	96.697	0.00025104	0.00024359	6.7733e-05	563.95	2.6576e-06	2.6742e-06	885.78	197.06	2.6668e-06	2.6572e-06	409.51	120.46	67.562	30.601	2.6355e-06	89.883	161.859	110.295	6.459	7.215	93.469	188.372	7.133	11.811	125.190	144.512	11.082	17.706	17.240	22.677	80.417	20.420	-8191	255	
3016.217	1	1	0	0	0.27808	0.08133	0.12489	0.14985	0.010674	0.27752	0.22106	0.24048	0.18565	0.037483	0.17842	0.14196	0.094036	0.051426	0.058776	0.17478	-1.6562	-2.4188	-2.5542	-2.3958	-2.5729	-2.65	-2.3771	-2.8479	-2.4167	-2.4625	-2.7062	-2.25	-2.4479	-2.5875	-2.2854	-2.7562	189.360	163.485	263.435	340.116	24.456	112.413	65.543	220.990	260.226	293.103	281.604	102.637	55.232	83.350	13.491	316.382	0.00038615	0.00050783	9.3246e-05	569.28	2.7169e-06	7.2295e-06	907.66	199.32	6.3224e-06	3.6133e-06	431.83	165.89	69.463	31.447	4.7344e-06	96.763	0.00025019	0.00023983	6.62e-05	559.96	2.6085e-06	2.6316e-06	878.51	196.04	2.6821e-06	2.6789e-06	407.99	121.12	67.687	30.58	2.7466e-06	89.967	160.963	114.484	41.568	6.687	152.581	87.382	7.081	12.219	125.258	165.935	11.149	16.682	16.807	22.371	91.660	20.618	-8191	255	
3016.313	1	1	0	0	0.19788	0.39485	0.30961	0.17556	0.20784	0.27767	0.038935	0.03147	0.15403	0.15018	0.20976	0.21404	0.15407	0.2339	0.23183	0.30357	-1.9208	-2.3063	-2.425	-2.2479	-2.5771	-2.5146	-2.3625	-2.7625	-2.4646	-2.4292	-2.675	-2.1562	-2.3958	-2.6021	-2.1875	-2.8708	-3.219	338.356	302.010	172.328	103.755	167.827	345.232	40.587	270.392	99.117	-4.909	240.124	336.738	313.463	116.727	297.024	0.00040664	0.00028801	1.7134e-05	566.7	3.5988e-06	2.9233e-06	910.26	200.33	9.0324e-07	2.0414e-06	432.45	166.56	69.983	31.88	5.5378e-06	97.214	0.0002596	0.00024808	6.9159e-05	562.94	2.668e-06	2.7091e-06	880.67	196.37	2.6427e-06	2.6333e-06	409.12	120.32	67.647	30.732	2.5711e-06	90.241	159.339	115.390	136.982	6.662	90.131	103.306	7.046	11.672	196.459	119.830	11.206	17.474	16.779	22.577	117.494	20.840	-8191	255	
3016.409	1	1	0	0	0.12102	0.20142	0.17822	0.15778	0.41367	0.075831	0.24716	0.15839	0.087683	0.09509	0.24189	0.08373	0.2218	0.27155	0.07695	0.2936	-2.0833	-2.375	-2.7583	-2.2729	-2.4896	-2.6312	-2.4542	-2.8187	-2.4104	-2.5417	-2.9417	-2.2708	-2.4833	-2.725	-2.3333	-2.8167	314.810	94.097	247.517	41.304	247.042	281.374	265.477	14.202	269.105	334.649	274.866	144.525	242.297	-2.324	172.191	257.062	0.00041263	0.00021745	0.00016021	571.22	2.942e-06	6.0608e-06	912.51	202.58	3.8923e-06	1.7175e-07	436.58	166.99	69.869	31.557	1.5867e-06	97.018	0.00024728	0.00023953	6.6791e-05	562.1	2.608e-06	2.6005e-06	881.84	197.49	2.6048e-06	2.6054e-06	411.07	119.97	67.77	30.638	2.5935e-06	90.04	163.201	89.007	77.307	7.375	216.819	176.311	7.059	12.005	115.810	351.354	11.073	17.207	16.926	22.411	310.102	20.640	-8191	255	
3016.530	1	1	0	0	0.057885	0.04671	0.27783	0.38498	0.29293	0.23225	0.253	0.16562	0.21744	0.015332	0.084848	0.082016	0.36344	0.1423	0.049124	0.318	-2.1542	-2.2125	-2.625	-2.4917	-2.4208	-2.825	-2.4583	-2.7625	-2.7313	-2.3937	-2.6917	-2.3583	-2.3937	-2.8292	-2.2562	-2.8104	352.096	340.042	322.399	268.449	238.100	320.039	324.571	280.802	298.551	180.858	25.347	202.993	-1.019	142.665	202.622	283.623	0.00036076	0.00050754	0.00011664	567.73	6.3363e-07	2.4393e-06	908.05	201.5	6.2732e-06	3.3938e-06	432.14	164.69	69.783	31.553	4.6882e-06	96.077	0.00024439	0.00023348	6.476e-05	558.94	2.5216e-06	2.5506e-06	875.16	196.75	2.5369e-06	2.5768e-06	407.67	119.04	67.242	30.472	2.5755e-06	89.231	158.626	116.400	68.882	7.342	169.497	26.060	7.355	12.158	139.869	110.549	10.902	17.255	17.316	22.568	237.046	20.752	-8191	255	
3016.626	1	1	0	0	0.24598	0.10393	0.15675	0.37505	0.17576	0.22428	0.074211	0.16856	0.1982	0.088557	0.065239	0.093976	0.15723	0.29252	0.31569	0.3172	-2.0187	-2.0583	-2.6896	-2.4229	-2.3521	-2.5771	-2.5938	-2.6333	-2.7	-2.375	-2.9188	-2.4104	-2.1396	-2.8688	-2.2958	-2.7188	89.808	29.826	279.528	292.962	26.560	197.775	12.209	287.767	326.580	53.704	84.424	247.011	48.822	326.088	271.113	334.767	0.00039072	0.00047046	9.9519e-05	571.81	3.9477e-06	4.2688e-06	903.31	202.62	6.0335e-06	3.38e-06	432.76	168.34	69.423	31.582	4.3297e-06	96.538	0.00024439	0.00023684	6.5652e-05	559.81	2.5966e-06	2.6102e-06	874.2	197.66	2.602e-06	2.6471e-06	408.75	119.82	67.53	30.476	2.6431e-06	89.575	160.048	123.554	95.840	7.428	111.694	191.120	7.161	12.369	123.384	165.820	10.988	16.584	17.036	22.744	206.309	20.684	-8191	255	
3016.722	1	1	0	0	0.089893	0.072752	0.27255	0.13275	0.13369	0.26039	0.19853	0.27641	0.060435	0.033135	0.32939	0.15582	0.010229	0.1919	0.053045	0.17756	-2.2375	-2.1875	-2.6979	-2.5438	-2.3438	-2.8312	-2.5458	-2.7229	-2.7208	-2.1729	-2.8729	-2.5	-2.4313	-2.8146	-2.4062	-2.6042	201.767	256.203	19.083	330.073	148.125	101.799	248.529	286.553	73.369	68.408	286.664	176.098	218.442	253.576	5.726	271.657	0.00041132	0.00061399	8.8121e-05	570.09	3.8025e-06	2.7236e-06	906.83	202.54	6.0292e-06	2.0236e-06	435.3	169.78	69.361	31.622	5.9818e-06	96.665	0.00024833	0.00023923	6.6438e-05	562.15	2.5811e-06	2.5512e-06	876.58	197.75	2.567e-06	2.5456e-06	410.09	119.16	67.388	30.488	2.5407e-06	89.848	160.103	67.292	68.861	6.939	116.647	147.710	7.355	12.286	170.504	117.274	11.114	17.198	16.893	22.335	170.061	20.735	-8191	255	
3016.819	1	1	0	0	0.22353	0.039935	0.085489	0.17127	0.097506	0.12943	0.23811	0.24515	0.19396	0.22585	0.11117	0.13816	0.18063	0.046824	0.036625	0.37236	-2.2583	-2.3083	-2.725	-2.475	-2.1708	-2.8146	-2.5833	-2.3583	-2.725	-2.5167	-2.8521	-2.6354	-2.2438	-2.7875	-2.525	-2.675	140.042	125.133	9.873	287.146	52.534	235.170	20.350	15.580	-5.404	190.641	55.310	210.549	34.420	121.793	4.263	286.928	0.00037377	0.00048839	0.00016381	578.03	6.8954e-06	8.3563e-07	913.17	202.89	5.8519e-06	7.3495e-06	433.78	167.42	70.011	31.746	2.4495e-06	96.822	0.00024117	0.00023165	6.4223e-05	562.87	2.5394e-06	2.5036e-06	881.16	198.84	2.5171e-06	2.5054e-06	410.46	118.06	67.572	30.582	2.4761e-06	90.069	155.952	78.344	76.646	7.510	84.848	199.969	7.454	12.406	138.290	114.541	11.060	17.297	16.971	22.669	115.322	20.671	-8191	255	
3016.915	1	1	0	0	0.086504	0.039888	0.23278	0.16741	0.18757	0.38515	0.15101	0.23286	0.16654	0.13083	0.28883	0.065579	0.18255	0.14692	0.26269	0.36411	-2.2313	-2.3833	-2.5687	-2.5979	-2.1167	-2.6875	-2.6604	-2.4667	-2.6646	-2.3375	-2.5812	-2.8125	-2.4021	-2.8187	-2.6146	-2.5687	36.664	191.479	148.973	95.107	335.220	85.151	309.875	316.656	92.023	229.453	307.994	173.114	220.546	11.528	191.669	336.786	0.00036263	0.00043076	4.9583e-05	572.83	3.1695e-06	8.0249e-06	907.24	202.49	3.1846e-06	1.5894e-06	435.92	170.05	69.56	31.859	2.702e-06	96.724	0.00023492	0.00022758	6.3287e-05	558.96	2.5129e-06	2.476e-06	878.59	197.31	2.4615e-06	2.4661e-06	409.61	118.45	67.273	30.579	2.4274e-06	89.746	169.899	148.985	52.263	6.719	332.298	97.436	7.117	11.909	259.693	77.797	11.385	16.425	17.038	22.522	263.130	20.621	-8191	255	
3017.009	1	1	0	0	0.098471	0.02664	0.28123	0.37513	0.028893	0.27305	0.18767	0.19228	0.32593	0.051279	0.17111	0.13091	0.15521	0.15755	0.19869	0.25818	-2.2188	-2.2562	-2.3479	-2.6521	-2.3458	-2.3917	-2.4979	-2.3312	-2.6896	-2.3375	-2.6479	-2.6021	-2.2979	-2.6167	-2.7896	-2.4792	103.838	15.778	72.825	18.595	181.429	46.499	348.089	211.964	121.323	161.442	239.249	48.165	25.579	337.402	9.132	254.842	0.00035665	0.00012714	9.6158e-05	575.88	3.3158e-06	6.0375e-06	911.98	203.11	5.3841e-06	6.63e-06	434.81	167.6	69.935	31.811	4.5136e-06	97.025	0.00023107	0.00022058	6.1049e-05	559.03	2.4187e-06	2.3889e-06	880.49	197.69	2.437e-06	2.4509e-06	409.25	117.56	67.253	30.62	2.4333e-06	90.196	177.267	86.884	99.467	6.860	98.918	100.554	7.244	12.064	149.918	104.940	11.199	17.755	17.134	22.771	179.932	20.455	-8191	255	
3017.107	1	1	0	0	0.040616	0.14626	0.25113	0.1319	0.14938	0.1598	0.3764	0.05353	0.25892	0.11693	0.3109	0.28131	0.1476	0.25516	0.2932	0.079388	-2.5625	-2.4417	-2.3917	-2.5375	-2.1958	-2.5792	-2.9375	-2.4062	-2.7083	-2.4521	-2.3063	-2.7396	-2.4604	-2.6021	-2.5729	-2.3771	256.617	271.005	13.029	26.336	142.541	218.437	352.328	346.668	164.722	81.101	338.562	150.026	320.150	50.560	14.313	245.785	0.0004287	0.00070551	0.00015382	573.2	3.5301e-06	4.2323e-06	917.78	202.85	2.6778e-06	2.8623e-06	437.23	164.68	70.077	31.818	4.8982e-06	96.897	0.00022852	0.00021828	6.0443e-05	558.67	2.3681e-06	2.3972e-06	882	197.82	2.41e-06	2.4513e-06	410.76	118.13	67.398	30.678	2.5062e-06	90.219	153.726	83.648	33.514	7.732	161.411	139.375	7.256	11.850	71.462	143.520	11.121	17.747	17.028	22.327	69.163	20.462	-8191	255	
3017.226	1	1	0	0	0.17196	0.18543	0.12446	0.17145	0.12362	0.086628	0.074801	0.076264	0.1982	0.035447	0.1404	0.17235	0.089166	0.089438	0.086393	0.098773	-2.1625	-2.45	-2.2167	-2.7458	-2.2396	-2.4313	-2.8979	-2.3104	-2.6688	-2.3792	-2.3521	-2.6875	-2.4208	-2.5375	-2.8417	-2.3833	-2.342	177.773	235.538	195.913	159.284	298.091	186.224	-0.212	72.132	326.383	273.874	333.036	8.213	257.490	64.455	246.181	0.00036468	0.00087615	0.00018376	572.84	8.1069e-06	6.1715e-06	908.3	200.52	2.9347e-06	7.1421e-07	432.06	168.64	69.245	31.623	5.4983e-06	96.195	0.00023819	0.00022812	6.3683e-05	559.21	2.5215e-06	2.5176e-06	877.83	195.94	2.5387e-06	2.5187e-06	407.39	119.26	67.075	30.466	2.5482e-06	89.46	162.425	86.173	112.762	7.052	135.194	105.171	7.022	12.064	125.053	223.909	11.211	17.843	17.145	22.614	183.977	20.519	-8191	255	
3017.322	1	1	0	0	0.05679	0.23625	0.15091	0.12508	0.41076	0.20014	0.1964	0.28122	0.17933	0.11909	0.058652	0.18568	0.29108	0.025966	0.1206	0.2312	-2.2021	-2.5917	-2.2271	-2.7104	-2.6146	-2.55	-2.8312	-2.2271	-2.5438	-2.5438	-2.4521	-2.6583	-2.5208	-2.4562	-2.7521	-2.4833	138.417	47.870	278.016	173.301	90.738	56.546	297.818	37.828	46.418	102.017	237.678	38.825	229.763	194.975	143.007	190.951	0.00047911	2.5857e-05	0.00018871	569.38	1.4136e-06	7.4314e-07	900.83	200.04	4.1788e-06	3.7358e-06	431.49	166.62	69.185	31.507	7.6932e-06	95.882	0.00024342	0.00023475	6.5884e-05	558.22	2.5479e-06	2.5792e-06	871.39	195.28	2.5381e-06	2.5611e-06	406.22	118.84	66.918	30.404	2.5359e-06	89.146	166.851	81.200	69.060	7.210	37.886	212.379	7.281	12.164	187.684	82.151	11.119	18.058	17.284	22.598	98.243	20.638	-8191	255	
3017.418	1	1	0	0	0.12786	0.30271	0.36206	0.17522	0.052956	0.132	0.080516	0.17773	0.11519	0.078866	0.023224	0.051821	0.28473	0.25185	0.12174	0.034252	-2.1417	-2.5667	-2.3021	-2.6979	-2.3312	-2.35	-2.8854	-2.4604	-2.4979	-2.6979	-2.1792	-2.525	-2.5646	-2.35	-2.7958	-2.4771	341.091	227.345	25.062	172.606	105.417	41.266	220.646	257.740	115.712	27.837	255.485	345.306	320.496	296.598	210.439	257.941	0.00041662	0.00035015	4.6213e-05	569.95	3.0508e-06	8.1023e-06	903.74	200.32	1.4905e-06	5.6211e-06	431.21	166.57	69.397	31.458	5.482e-06	96.297	0.00024211	0.00022845	6.4479e-05	556.35	2.5201e-06	2.532e-06	872.37	196.06	2.5653e-06	2.5398e-06	406.38	118.94	67.028	30.41	2.5373e-06	89.341	158.888	90.073	43.816	7.040	118.132	148.050	7.214	12.173	153.962	168.132	10.994	17.615	16.888	22.373	102.648	20.808	-8191	255	
3017.514	1	1	0	0	0.22547	0.24587	0.26224	0.14741	0.21553	0.16678	0.21774	0.1238	0.22271	0.18702	0.25654	0.11847	0.10564	0.25159	0.23214	0.16705	-2.0083	-2.7125	-2.1979	-2.7375	-2.5	-2.3521	-2.9417	-2.4354	-2.3438	-2.6396	-2.3083	-2.6813	-2.4938	-2.4208	-2.5479	-2.6396	55.668	59.545	272.466	341.503	38.693	189.541	302.961	199.980	119.191	69.676	232.701	314.949	211.385	293.075	105.016	242.257	0.00045297	0.00061859	8.4565e-05	569.85	2.2028e-06	7.1101e-06	907.36	201.57	4.4239e-06	4.5015e-06	432.92	167.22	69.42	31.452	6.8228e-06	96.037	0.00024402	0.00023404	6.5477e-05	561.1	2.5949e-06	2.6066e-06	878.05	196.6	2.6337e-06	2.6311e-06	408.02	120.1	67.261	30.512	2.6343e-06	89.224	152.864	119.313	17.380	7.588	194.377	119.548	7.268	12.098	128.087	64.948	11.172	16.681	17.298	22.702	154.357	20.596	-8191	255	
3017.610	1	1	0	0	0.29302	0.22902	0.10386	0.097224	0.050863	0.23602	0.14817	0.19273	0.08004	0.2394	0.057549	0.43747	0.097909	0.13896	0.22136	0.3039	-1.7833	-2.6479	-2.3146	-2.4813	-2.4958	-2.2208	-2.7188	-2.6937	-2.25	-2.7396	-2.5958	-2.5292	-2.6333	-2.3104	-2.5563	-2.6312	75.192	153.507	106.850	343.301	152.101	264.187	335.015	76.985	268.244	189.982	88.234	295.943	67.630	353.747	196.244	288.553	0.00040082	0.00056627	0.00015794	567.93	4.9703e-06	3.3406e-06	906.18	200.94	3.5101e-06	5.847e-06	430.66	166.26	68.952	31.363	6.7848e-06	96.109	0.0002495	0.00023965	6.615e-05	559.85	2.5973e-06	2.6041e-06	872.64	196.08	2.5875e-06	2.5768e-06	406.53	119.33	67.12	30.336	2.6329e-06	89.08	158.074	135.355	134.894	7.387	169.203	224.953	7.296	11.973	318.589	101.164	10.844	17.595	17.165	22.627	112.718	20.663	-8191	255	
3017.707	1	1	0	0	0.17888	0.066281	0.35912	0.14566	0.1291	0.042484	0.09426	0.22984	0.028522	0.0077317	0.060134	0.2341	0.12849	0.16047	0.39485	0.22069	-1.7437	-2.9083	-2.1792	-2.4479	-2.6521	-2.0208	-2.8333	-2.6	-2.3438	-2.7542	-2.4833	-2.4271	-2.5687	-2.3292	-2.6542	-2.7333	329.897	12.453	53.558	23.928	9.747	28.491	269.845	306.520	130.090	88.426	275.397	334.468	284.377	304.410	322.643	295.934	0.00035805	0.00076585	0.00012797	567.4	4.3544e-06	4.6707e-06	907.43	200.73	3.0752e-06	2.7544e-06	434.21	170.78	69.502	31.454	1.3058e-05	96.248	0.0002488	0.00023853	6.5592e-05	559.88	2.5848e-06	2.6081e-06	873.94	196.19	2.5973e-06	2.5728e-06	407.63	119.12	67.285	30.404	2.5404e-06	89.48	154.305	120.045	60.135	6.978	133.549	45.539	7.238	12.200	164.110	77.557	11.094	17.942	16.529	22.447	127.568	20.763	-8191	255	
3017.827	1	1	0	0	0.22087	0.29786	0.18457	0.15178	0.16918	0.21445	0.30993	0.14322	0.19557	0.22287	0.13332	0.17716	0.19105	0.35251	0.14966	0.30926	-1.775	-2.6875	-2.4125	-2.3292	-2.6208	-2.0083	-2.7542	-2.6021	-2.2625	-2.5812	-2.5687	-2.3333	-2.7042	-2.2021	-2.6125	-2.8333	77.850	292.837	84.801	63.931	181.740	95.248	255.711	266.665	233.021	139.187	340.300	250.658	244.966	344.602	252.885	322.782	0.00042958	0.00045073	0.00016407	572.16	1.1129e-06	5.4262e-06	911.24	201.7	3.1161e-06	7.6635e-07	436.01	169.05	69.803	31.529	3.3839e-06	97.47	0.00024276	0.00023342	6.5331e-05	563.21	2.5798e-06	2.5861e-06	879.24	197.29	2.5973e-06	2.6152e-06	409.98	120.32	67.682	30.658	2.5666e-06	90.392	155.663	31.583	17.311	7.464	133.683	72.385	7.095	12.237	119.045	177.190	11.122	18.104	16.971	22.489	141.284	20.796	-8191	255	
3017.922	1	1	0	0	0.03316	0.052383	0.13893	0.067564	0.13145	0.21778	0.078452	0.11795	0.3606	0.061808	0.21187	0.3221	0.084541	0.19804	0.33572	0.3024	-1.6271	-2.6333	-2.5104	-2.3479	-2.8021	-2.5083	-2.7	-2.5583	-2.3854	-2.7021	-2.6958	-2.3417	-2.6625	-2.5333	-2.4917	-2.9729	79.662	209.173	-5.489	263.157	161.310	292.363	339.490	303.101	261.145	323.258	222.320	322.776	262.308	254.785	247.618	91.305	0.00043778	0.00049277	0.00015239	575.02	2.2612e-06	5.4907e-06	913.85	202.79	3.655e-06	1.8911e-06	435.24	171	69.563	31.747	4.8946e-06	97.009	0.00024671	0.00023769	6.5667e-05	565.67	2.5893e-06	2.5697e-06	884.12	197.74	2.5944e-06	2.5806e-06	410.51	120.09	67.582	30.714	2.6142e-06	90.348	158.024	146.886	24.336	6.708	322.831	0.680	7.209	11.903	171.549	80.656	11.110	16.907	16.962	22.358	116.936	20.663	-8191	255	
3018.018	1	1	0	0	0.18613	0.077549	0.29409	0.23361	0.077563	0.022094	0.17756	0.32907	0.15721	0.041082	0.24442	0.067056	0.21526	0.25982	0.22448	0.29003	-1.7208	-2.6	-2.5042	-2.3896	-2.7229	-2.3417	-2.5292	-2.6813	-2.275	-2.6521	-2.675	-2.3479	-2.7479	-2.5854	-2.2917	-2.9125	221.717	307.665	275.494	53.573	142.084	81.193	324.243	229.523	120.286	57.953	289.628	94.977	308.819	330.530	58.593	345.884	0.00042013	0.00054199	0.0001255	573.26	4.5402e-06	2.0995e-06	909.91	201.05	6.5168e-06	4.4049e-06	431.7	169.22	69.994	31.555	5.8924e-06	96.911	0.00024823	0.00023403	6.4801e-05	562.32	2.5585e-06	2.5597e-06	879.13	195.91	2.5483e-06	2.5514e-06	407.31	119.12	67.528	30.598	2.5646e-06	89.932	165.939	34.313	70.253	6.917	258.776	119.757	7.252	11.748	73.337	218.126	11.104	16.869	16.816	22.396	139.385	20.501	-8191	255	
3018.089	1	1	0	0	0.17634	0.14461	0.20469	0.35692	0.12524	0.48121	0.22573	0.098312	0.32327	0.14915	0.25238	0.074815	0.33462	0.17011	0.10308	0.25569	-1.7521	-2.4604	-2.6125	-2.1958	-2.8187	-2.4271	-2.4271	-2.6333	-2.4271	-2.6271	-2.7958	-2.1417	-2.7354	-2.5229	-2.3375	-3.0438	109.428	242.819	80.346	71.602	131.979	278.525	332.429	229.316	97.854	225.184	322.387	145.098	292.615	264.571	159.538	296.221	0.00032984	0.00032591	0.00010654	566.7	2.5654e-06	2.0055e-06	906.32	199.61	2.9671e-06	2.8491e-06	432.47	168.94	69.729	31.768	4.4805e-06	96.777	0.00024555	0.00023688	6.551e-05	560.29	2.5974e-06	2.5867e-06	878.42	195.22	2.566e-06	2.5713e-06	407.82	119.76	67.666	30.763	2.6039e-06	90.18	172.726	41.404	42.738	7.679	281.356	85.777	7.340	11.736	218.678	175.770	10.814	17.645	16.995	22.276	84.531	20.359	-8191	255	
3018.187	1	1	0	0	0.17619	0.11831	0.062434	0.085261	0.093061	0.22734	0.12245	0.1385	0.25404	0.18013	0.22211	0.11519	0.09847	0.26866	0.17437	0.1944	-1.7667	-2.4521	-2.5312	-2.3021	-2.7917	-2.6979	-2.5396	-2.6667	-2.3667	-2.6083	-2.7792	-2.1771	-2.6688	-2.5	-2.3438	-2.8458	218.007	196.706	199.957	135.114	125.544	191.739	339.100	290.089	184.020	236.085	323.183	178.897	47.271	310.496	116.524	315.944	0.00045352	0.00044916	0.00020408	571.75	2.52e-06	5.8772e-06	910.06	200.04	3.0391e-06	5.7605e-06	431.43	164.51	69.724	31.807	4.1792e-06	97.3	0.00025193	0.00024246	6.7192e-05	564.11	2.6449e-06	2.6535e-06	881	195.66	2.5921e-06	2.6021e-06	408.05	119.07	67.379	30.652	2.5605e-06	90.166	151.278	106.245	89.218	6.921	96.633	152.579	7.074	12.238	120.593	141.392	11.354	17.457	16.698	22.933	155.755	20.534	-8191	255	
3018.306	1	1	0	0	0.33828	0.22337	0.29447	0.14279	0.25165	0.14314	0.24365	0.36643	0.24005	0.13273	0.096067	0.056131	0.079736	0.26043	0.085127	0.21107	-1.7896	-2.5104	-2.6458	-2.275	-2.5958	-2.525	-2.4396	-2.8625	-2.45	-2.3542	-2.7562	-2.3229	-2.525	-2.5708	-2.3438	-2.7833	288.329	29.251	71.546	272.329	257.058	33.195	305.211	293.443	132.910	297.459	348.923	5.820	294.792	287.763	247.358	179.729	0.00044404	0.00044491	0.00012938	568.93	2.9982e-06	3.8676e-06	901.67	200.1	3.253e-06	4.7236e-06	427.68	167.25	68.474	31.301	5.0739e-06	95.365	0.00024544	0.00023377	6.4766e-05	560.57	2.5699e-06	2.5756e-06	872.61	194.71	2.5375e-06	2.5132e-06	403.5	117	66.461	30.175	2.451e-06	88.528	170.780	81.954	37.030	7.324	118.943	130.712	7.489	12.215	99.421	127.150	11.210	16.972	16.704	22.433	178.508	20.522	-8191	255	
3018.402	1	1	0	0	0.17997	0.10874	0.11083	0.24289	0.095365	0.16993	0.3191	0.098033	0.25262	0.2547	0.27805	0.095314	0.36711	0.17418	0.24077	0.30471	-1.9083	-2.3208	-2.7771	-2.3708	-2.6021	-2.6708	-2.2396	-2.7167	-2.4479	-2.4896	-2.8812	-2.4042	-2.4229	-2.6625	-2.0312	-2.8042	15.676	151.564	69.600	193.562	141.510	110.218	247.858	335.052	228.872	217.906	44.845	168.799	-5.593	3.560	256.817	312.262	0.00037405	0.0003683	4.4497e-05	568.68	1.7682e-06	2.9718e-06	893.23	200.78	7.0304e-06	3.1704e-06	432.3	165.02	68.607	31.069	6.3599e-07	94.721	0.00023284	0.00022137	6.1746e-05	551.91	2.4312e-06	2.4369e-06	864.81	194.89	2.4333e-06	2.4262e-06	403.46	116.69	66.405	29.923	2.4396e-06	87.907	155.147	72.322	74.381	7.839	317.171	145.182	7.157	12.158	134.790	46.063	11.034	17.520	17.336	22.530	72.432	20.664	-8191	255	
3018.499	1	1	0	0	0.21231	0.020202	0.1401	0.31897	0.19485	0.071437	0.17727	0.28479	0.1237	0.25912	0.19914	0.34196	0.34831	0.1853	0.112	0.38492	-2.1542	-2.125	-2.7354	-2.3396	-2.45	-2.5958	-2.3688	-2.8063	-2.5438	-2.4521	-2.8875	-2.325	-2.3583	-2.8896	-2.2354	-2.8854	292.897	156.717	136.311	349.930	76.290	54.930	260.236	269.048	85.648	99.923	264.141	172.650	264.444	19.223	158.305	343.730	0.00044472	0.00032488	3.8287e-05	570.61	9.9145e-07	4.9243e-06	896.06	201.66	4.3568e-06	2.6329e-06	430.82	166.81	68.881	31.139	3.1184e-06	94.984	0.00022949	0.00022108	6.143e-05	554.43	2.4183e-06	2.4134e-06	865.84	196.17	2.4361e-06	2.455e-06	405.33	116.76	66.573	30.035	2.4797e-06	88.404	151.879	136.081	61.572	7.427	10.777	185.258	7.645	12.242	140.849	116.323	11.138	16.955	16.944	22.716	203.087	20.647	-8191	255	
3018.619	1	1	0	0	0.15594	0.12778	0.20993	0.20982	0.14205	0.16964	0.058469	0.053384	0.13213	0.065839	0.16776	0.13055	0.17434	0.31964	0.10195	0.21742	-2.1208	-2.0542	-2.6125	-2.2812	-2.2271	-2.5833	-2.4542	-2.6333	-2.6021	-2.2417	-2.675	-2.3979	-2.4333	-2.8458	-2.3854	-2.7375	28.465	260.596	275.555	152.180	311.826	127.037	324.769	234.867	48.209	301.241	327.214	9.907	331.908	315.063	115.011	347.211	0.00041558	0.00069488	0.00024845	564.24	3.2432e-06	3.1077e-06	899.59	200.85	1.232e-06	5.1639e-06	431.32	165.98	69.075	31.131	1.168e-05	95.347	0.00023437	0.00022472	6.3284e-05	556.28	2.473e-06	2.4848e-06	868.98	196.71	2.4973e-06	2.4829e-06	406.09	117.73	66.771	30.038	2.4637e-06	88.288	157.227	98.330	71.810	7.047	96.443	261.100	7.164	12.195	219.739	154.927	10.950	17.067	16.918	22.713	134.559	20.806	-8191	255	
3018.691	1	1	0	0	0.16149	0.2291	0.31251	0.058315	0.19744	0.056619	0.36523	0.2861	0.31063	0.15266	0.29504	0.1906	0.21609	0.088923	0.13882	0.31521	-2.3688	-2.1792	-2.4583	-2.3104	-2.2938	-2.8625	-2.4	-2.6521	-2.8063	-2.3125	-2.6417	-2.4021	-2.2896	-2.7146	-2.375	-2.65	140.462	192.614	266.260	346.527	278.524	103.895	223.394	39.896	143.100	240.948	308.637	42.802	24.100	39.152	155.677	7.155	0.00047764	0.00073247	6.2811e-05	575.34	3.2447e-06	8.3111e-06	895.99	201.85	7.0502e-06	3.5272e-06	430.62	165.04	68.883	30.907	2.6671e-06	94.891	0.00023211	0.00022197	6.1572e-05	554.17	2.4129e-06	2.4219e-06	864.65	197.14	2.4099e-06	2.419e-06	404.97	116.62	66.633	29.926	2.4815e-06	88.152	148.345	67.938	4.373	7.264	113.321	109.274	7.419	12.389	105.463	64.551	10.928	17.098	17.151	22.632	-3.158	20.738	-8191	255	
3018.787	1	1	0	0	0.053798	0.13264	0.14327	0.23141	0.13855	0.13108	0.31621	0.21215	0.32409	0.11448	0.109	0.20846	0.21587	0.24025	0.13956	0.092176	-2.3937	-2.1188	-2.5646	-2.4917	-2.2417	-2.6604	-2.4333	-2.5625	-2.5521	-2.2125	-2.7542	-2.4667	-2.2479	-2.7854	-2.4729	-2.5187	176.500	314.627	167.250	113.022	145.198	79.726	261.125	219.689	79.680	26.366	344.337	128.037	341.017	77.350	307.998	-1.093	0.00034552	0.00020045	3.7085e-05	565.99	3.2139e-06	1.4539e-06	898.66	202.45	3.8318e-06	1.53e-06	432.03	166.69	69.266	31.195	7.7867e-06	95.589	0.00023505	0.00022656	6.3064e-05	556.17	2.497e-06	2.4659e-06	868.49	196.81	2.4964e-06	2.4916e-06	407.1	118.23	67.124	30.215	2.5088e-06	88.771	166.962	161.569	143.876	7.328	74.284	163.313	7.346	12.193	61.232	110.622	11.353	16.659	17.183	22.526	77.328	20.599	-8191	255	
3018.908	1	1	0	0	0.30252	0.1806	0.14501	0.11614	0.36822	0.16708	0.15746	0.097626	0.067152	0.29165	0.14591	0.1872	0.11103	0.29027	0.044884	0.015384	-2.1667	-2.3625	-2.4792	-2.675	-2.3333	-2.8	-2.4271	-2.5292	-2.65	-2.3625	-2.7979	-2.6292	-2.3021	-2.5208	-2.4958	-2.35	339.273	167.426	110.880	210.465	281.499	101.495	248.011	318.047	105.485	132.627	7.112	81.582	75.601	311.475	228.179	231.154	0.00045074	0.00035275	8.5048e-05	575.99	4.5871e-06	4.293e-06	901.4	204.55	1.5981e-06	2.1606e-06	434.89	165.29	69.892	31.301	1.553e-06	96.006	0.00023674	0.00022674	6.3723e-05	559.87	2.49e-06	2.5053e-06	871.87	198.51	2.5075e-06	2.532e-06	408.84	118.18	67.321	30.212	2.495e-06	89.096	158.974	117.020	337.613	8.083	194.503	87.210	7.455	11.943	99.862	4.004	11.033	17.001	16.801	22.723	225.630	20.797	-8191	255	
3019.002	1	1	0	0	0.21806	0.17544	0.22149	0.22632	0.1437	0.24251	0.44444	0.17093	0.12141	0.039416	0.1986	0.2047	0.19141	0.11842	0.087429	0.050996	-2.2083	-2.0979	-2.4062	-2.5521	-2.1292	-2.5875	-2.5792	-2.5438	-2.7375	-2.5375	-2.5458	-2.6854	-2.3771	-2.5646	-2.4146	-2.525	279.175	107.886	17.983	292.950	258.479	98.035	283.833	21.498	348.699	351.644	236.431	18.149	33.619	205.555	283.934	268.520	0.00042389	0.00035257	9.2534e-05	569.86	1.7819e-07	7.8108e-07	903.34	205.94	7.67e-06	7.7705e-06	435.49	166.38	69.423	31.348	5.7865e-06	95.697	0.0002352	0.00022412	6.2137e-05	558.53	2.4278e-06	2.4117e-06	873.25	199.5	2.4048e-06	2.4082e-06	408.83	117.3	66.902	30.13	2.4163e-06	88.617	163.407	153.677	103.825	7.470	129.618	194.774	7.423	12.359	101.110	115.806	11.338	17.427	17.025	22.681	33.980	20.781	-8191	255	
3019.098	1	1	0	0	0.10669	0.27406	0.25061	0.18636	0.1131	0.13897	0.2436	0.16571	0.24791	0.1642	0.2667	0.1356	0.21754	0.1906	0.09551	0.23503	-2.2375	-2.2604	-2.4	-2.8708	-2.3333	-2.5021	-2.8604	-2.2375	-2.5083	-2.4188	-2.6125	-2.7042	-2.5083	-2.5771	-2.525	-2.4125	71.402	71.569	219.452	121.467	70.713	9.213	280.111	313.800	242.743	215.623	349.848	224.233	19.902	349.150	348.091	323.431	0.00042412	0.00030911	9.7216e-05	578.76	4.7765e-06	4.891e-06	903.52	201.86	4.6386e-06	5.5146e-06	429.79	165.35	69.108	31.218	2.6882e-06	94.967	0.00023345	0.00022369	6.2174e-05	556.99	2.4435e-06	2.4365e-06	869.11	196.72	2.4322e-06	2.4683e-06	405.27	117.29	66.555	30.09	2.499e-06	88.319	157.704	24.490	88.667	7.055	148.307	180.328	7.202	12.314	247.175	293.849	11.376	16.621	17.077	22.409	310.179	20.513	-8191	255	
3019.219	1	1	0	0	0.12339	0.19514	0.51262	0.048644	0.16026	0.21993	0.10096	0.25018	0.10189	0.07987	0.091771	0.17842	0.10653	0.17975	0.084183	0.29109	-2.0812	-2.5479	-2.1271	-2.6458	-2.3312	-2.4562	-2.6771	-2.2396	-2.725	-2.6667	-2.3479	-2.8	-2.3771	-2.6625	-2.4771	-2.3542	153.875	39.448	118.148	204.901	294.456	112.248	251.047	28.986	212.796	283.862	43.093	12.940	301.720	268.250	323.949	273.335	0.00041214	0.00057962	0.00015797	570.53	4.1478e-06	5.6353e-06	893.46	201.91	2.7749e-06	1.279e-06	430.8	165.08	67.668	31.168	5.7107e-06	95.413	0.00023397	0.00022984	6.3163e-05	557.16	2.5307e-06	2.4986e-06	867.1	196.32	2.5035e-06	2.5069e-06	405.22	117.77	66.561	30.114	2.5172e-06	88.647	149.060	2.138	106.465	7.339	123.950	131.713	7.541	12.382	179.620	314.176	11.350	17.625	17.329	22.287	163.447	20.647	-8191	255	
3019.315	1	1	0	0	0.23679	0.27419	0.23601	0.098668	0.10429	0.22042	0.3552	0.40333	0.091397	0.19703	0.22429	0.23405	0.091161	0.097254	0.25886	0.070751	-2.1083	-2.3312	-2.3104	-2.6854	-2.425	-2.4771	-3.0479	-2.5271	-2.4542	-2.6042	-2.5271	-2.6875	-2.3917	-2.3396	-2.7812	-2.5229	1.681	138.020	143.786	252.683	1.881	340.344	254.799	337.175	280.665	126.817	160.477	32.185	41.965	225.609	146.060	-2.782	0.00039538	0.00039542	2.3278e-05	574.93	2.8654e-06	7.3085e-06	894.95	200.53	3.9155e-06	5.8351e-07	432.01	165.2	69.283	31.272	2.66e-06	95.056	0.0002396	0.00022787	6.3209e-05	559.39	2.5056e-06	2.465e-06	866.12	196.64	2.4763e-06	2.4905e-06	406.34	117.78	66.917	30.065	2.4955e-06	88.428	170.412	118.080	55.325	7.410	140.698	155.161	7.185	12.361	122.775	65.505	11.102	17.487	17.321	22.759	161.986	20.927	-8191	255	
3019.387	1	1	0	0	0.25718	0.21052	0.2033	0.037064	0.13312	0.19944	0.22969	0.22064	0.033113	0.16423	0.26439	0.25762	0.16838	0.048907	0.12657	0.52609	-2.0187	-2.55	-2.1188	-2.7562	-2.425	-2.3937	-2.7146	-2.2812	-2.5896	-2.7188	-2.4646	-2.5625	-2.5958	-2.3229	-2.7479	-2.425	207.123	293.984	11.588	75.696	135.631	166.708	-1.481	273.725	258.108	187.747	315.438	332.964	257.391	294.561	133.560	289.847	0.00033468	0.00011257	0.00021169	565.13	3.8671e-06	5.1387e-06	895.55	200.47	2.7121e-06	5.1266e-06	427.71	162.7	68.435	30.92	1.4293e-06	94.525	0.0002382	0.00022998	6.4355e-05	556.67	2.553e-06	2.5373e-06	863.88	196.07	2.567e-06	2.5489e-06	403.58	117.47	66.484	29.902	2.5587e-06	87.871	158.992	5.401	85.892	7.363	156.077	153.286	7.532	12.311	156.441	117.967	11.364	17.162	17.183	22.870	264.446	20.444	-8191	255	
3019.483	1	1	0	0	0.13114	0.22253	0.028025	0.15693	0.18533	0.10654	0.081392	0.099032	0.16262	0.16226	0.064217	0.13027	0.083698	0.30788	0.36178	0.033782	-1.9021	-2.7375	-2.1042	-2.6542	-2.3167	-2.3646	-2.8	-2.4917	-2.4896	-2.8271	-2.1604	-2.6229	-2.6	-2.3896	-2.6875	-2.5625	284.481	348.810	301.751	-0.459	180.090	167.796	284.669	304.150	346.172	220.163	-3.532	172.166	314.843	296.435	345.644	277.600	0.00035799	0.00029855	6.1013e-05	565.92	2.9921e-06	5.4542e-06	892.36	200.11	3.9868e-06	4.3443e-06	428.8	163.99	67.998	30.944	4.5003e-06	94.177	0.00024129	0.00023401	6.5342e-05	554.76	2.5515e-06	2.5959e-06	862.93	195.59	2.6061e-06	2.6068e-06	403.43	118.04	66.4	29.842	2.6083e-06	87.574	159.774	34.095	83.148	6.969	69.452	156.843	7.450	12.519	179.050	110.251	11.508	16.781	17.298	22.739	81.083	20.656	-8191	255	
3019.603	1	1	0	0	0.12387	0.18999	0.061608	0.17696	0.35296	0.22673	0.17742	0.041261	0.20661	0.39058	0.22936	0.2071	0.099109	0.33265	0.23775	0.19164	-1.975	-2.4729	-2.1437	-2.7062	-2.575	-2.2229	-2.7313	-2.3542	-2.1979	-2.6917	-2.3646	-2.5896	-2.7333	-2.275	-2.8167	-2.7	230.450	2.891	187.502	68.369	223.571	269.949	275.943	129.053	160.419	15.257	236.619	157.873	274.023	351.320	73.081	310.816	0.00034711	0.00016155	3.6426e-05	568.51	3.0799e-06	6.8421e-06	895.29	201.04	4.7861e-06	1.9736e-06	427.28	164.31	68.704	30.617	5.3738e-06	94.574	0.00024614	0.00024021	6.6381e-05	558.51	2.5732e-06	2.587e-06	862.9	196.28	2.5848e-06	2.5993e-06	404.9	117.71	66.572	29.765	2.629e-06	87.817	163.923	200.990	108.844	7.601	301.440	132.800	7.314	12.332	157.282	179.605	11.102	17.158	16.966	22.653	194.490	20.720	-8191	255	
3019.700	1	1	0	0	0.22881	0.2552	0.11138	0.16532	0.26979	0.29872	0.092831	0.19061	0.094133	0.25418	0.32219	0.20644	0.13419	0.053413	0.10117	0.32875	-1.95	-2.7375	-2.2958	-2.5833	-2.7396	-2.3458	-2.95	-2.5729	-2.4188	-2.8146	-2.5187	-2.3979	-2.6688	-2.2896	-2.5042	-2.7188	129.174	233.292	237.293	28.992	237.195	55.177	269.495	260.948	107.452	240.837	283.837	337.271	218.868	228.892	64.933	269.224	0.00035249	0.00083737	0.00013849	571.43	8.0038e-06	3.1552e-06	899.81	202.1	2.5658e-06	2.398e-06	433.13	165.23	69.198	30.925	6.7545e-06	94.713	0.0002472	0.00023813	6.7247e-05	559.47	2.6297e-06	2.6459e-06	868.04	197.76	2.658e-06	2.6128e-06	408.04	119.25	67.01	29.88	2.6644e-06	88.104	163.771	126.093	85.606	7.648	85.012	180.761	7.348	12.182	168.109	264.665	11.332	17.352	17.092	22.851	126.091	20.727	-8191	255	
3019.796	1	1	0	0	0.1161	0.10518	0.049263	0.17895	0.26408	0.071327	0.15281	0.039913	0.07153	0.122	0.11163	0.11686	0.10771	0.080568	0.067596	0.36631	-1.8667	-2.5875	-2.3167	-2.4917	-2.5667	-2.3417	-2.7625	-2.6708	-2.2521	-2.7521	-2.6625	-2.4188	-2.9417	-2.2354	-2.5208	-2.7604	210.491	90.714	311.757	138.441	96.390	182.124	279.907	68.320	200.617	202.347	294.264	103.717	3.864	161.312	155.995	201.883	0.00038635	0.00072322	0.0001324	567.82	5.8263e-06	5.6305e-06	897.36	202.88	3.6287e-06	2.8827e-06	430.45	164.44	68.641	30.834	2.4362e-06	94.732	0.00024824	0.00023867	6.7012e-05	559.76	2.602e-06	2.6238e-06	867.3	197.69	2.5906e-06	2.5966e-06	406.06	118.4	66.492	29.817	2.5422e-06	87.874	154.670	66.046	5.386	7.449	129.653	145.176	7.348	12.245	144.908	139.311	10.978	17.116	17.170	22.982	228.379	20.789	-8191	255	
3019.892	1	1	0	0	0.14784	0.086414	0.2738	0.33103	0.14358	0.2362	0.1724	0.22429	0.12434	0.17996	0.24889	0.13374	0.052008	0.30985	0.092882	0.31947	-1.6562	-2.7792	-2.4104	-2.3854	-2.6	-2.1125	-2.5729	-2.7354	-2.4	-2.5417	-2.5583	-2.5	-2.6854	-2.4125	-2.5625	-2.8521	181.827	180.349	63.096	249.070	252.280	127.350	150.793	322.968	118.543	296.932	40.021	132.006	126.275	39.958	66.270	338.904	0.00041956	0.00031187	4.5293e-05	562.25	2.0189e-06	4.2883e-06	897.33	203.01	7.4201e-07	7.184e-06	432.78	166.33	69.061	31.027	1.5322e-05	95.27	0.00024237	0.00023379	6.3975e-05	556.38	2.5236e-06	2.532e-06	866.63	198.37	2.4962e-06	2.5005e-06	407.57	117.66	66.807	30.027	2.4446e-06	88.532	168.060	20.349	120.382	7.638	52.857	147.742	7.458	12.179	337.374	76.680	11.039	16.976	17.233	22.720	124.763	20.668	-8191	255	
3019.988	1	1	0	0	0.24559	0.16792	0.03975	0.17052	0.18345	0.12392	0.11422	0.22858	0.2736	0.16282	0.26202	0.044508	0.16363	0.30326	0.12167	0.21484	-1.75	-2.6833	-2.375	-2.3229	-2.7938	-2.5229	-2.5187	-2.9396	-2.3167	-2.6167	-2.65	-2.3854	-2.6458	-2.5396	-2.3646	-2.7438	72.469	17.391	-4.094	101.912	26.344	70.409	107.154	307.135	115.489	192.109	184.390	5.302	63.914	345.068	15.270	301.200	0.00042115	0.00020978	0.00016746	574.31	1.4424e-06	6.5734e-06	902.74	203.88	4.8739e-06	2.5974e-06	435.01	168.12	69.629	31.474	2.0492e-07	96.097	0.00023154	0.00022467	6.1882e-05	560.1	2.4635e-06	2.4894e-06	870.48	198.76	2.5119e-06	2.5146e-06	409.57	119.17	67.401	30.373	2.5999e-06	89.725	147.654	88.006	146.599	7.210	180.379	148.595	7.459	12.421	103.262	84.467	11.182	17.371	16.848	22.552	88.725	20.683	-8191	255	
3020.082	1	1	0	0	0.12555	0.13253	0.31786	0.14266	0.15607	0.17362	0.1749	0.10532	0.034422	0.1798	0.45768	0.025037	0.21121	0.15298	0.030638	0.10489	-1.8667	-2.675	-2.3563	-2.3542	-2.8208	-2.3312	-2.3875	-2.6729	-2.2479	-2.3604	-2.6667	-2.1667	-2.7188	-2.2062	-2.4646	-2.9896	353.319	224.070	25.520	321.235	324.284	152.336	176.567	124.461	345.823	102.880	320.577	149.588	347.306	255.841	331.171	327.387	0.00038748	0.00031182	0.00010979	575.93	9.8825e-07	8.1619e-07	911.54	202.31	6.3298e-06	2.8263e-06	432.81	171.42	69.481	31.505	1.0619e-05	96.585	0.0002458	0.00023801	6.6468e-05	567.37	2.6257e-06	2.6408e-06	879.94	197.92	2.6821e-06	2.6668e-06	408.19	121.28	67.663	30.498	2.7534e-06	89.573	155.804	171.570	147.844	7.434	33.784	319.804	7.285	12.294	177.499	39.371	11.285	18.049	17.254	22.610	117.447	20.434	-8191	255	
3020.180	1	1	0	0	0.22159	0.14849	0.22332	0.074706	0.075806	0.19696	0.20828	0.18654	0.18054	0.073971	0.025529	0.06698	0.068649	0.10781	0.28731	0.18971	-1.9604	-2.4104	-2.6875	-2.1333	-2.6979	-2.3937	-2.6083	-2.6375	-2.4542	-2.5125	-2.8146	-2.4208	-2.6063	-2.6937	-2.3563	-2.925	319.257	231.340	42.227	84.954	184.011	301.114	315.477	308.801	266.939	188.071	67.871	253.127	281.513	247.395	179.911	348.510	0.00039841	0.00010108	4.2749e-05	573.22	1.717e-06	3.3705e-06	905.16	200.73	4.5793e-06	3.9267e-06	430.65	166.43	68.935	31.109	5.2113e-06	95.094	0.00025963	0.0002546	7.0405e-05	566.35	2.7472e-06	2.7332e-06	874.32	195.72	2.7912e-06	2.7594e-06	405.52	121.32	67.086	30.237	2.7963e-06	88.708	154.769	268.256	76.090	7.045	121.694	154.400	7.449	11.884	85.750	66.303	11.098	17.425	17.021	22.782	47.114	20.612	-8191	255	
3020.299	1	1	0	0	0.31291	0.14541	0.16877	0.38889	0.13608	0.13579	0.13742	0.27032	0.12181	0.31443	0.062658	0.13181	0.17058	0.29796	0.1809	0.067057	-1.9083	-2.4604	-2.6167	-2.325	-2.7208	-2.4479	-2.4833	-2.6896	-2.2979	-2.4979	-2.8583	-2.4562	-2.5854	-2.6375	-2.2396	-2.9437	180.062	16.900	104.354	30.666	166.231	283.189	41.869	304.849	223.652	234.041	273.390	57.726	122.935	342.681	169.256	268.095	0.00042743	0.00038691	0.00012262	568.53	2.9168e-06	1.8227e-06	898.13	199.21	1.0134e-06	3.7814e-06	430.6	165.63	68.394	31.128	6.0249e-06	95.469	0.00026171	0.00025701	7.0368e-05	563.35	2.8013e-06	2.7776e-06	868.75	195.24	2.7798e-06	2.7731e-06	405.1	121.03	66.967	30.224	2.848e-06	88.731	153.965	54.588	27.065	7.246	166.296	196.801	7.376	12.121	231.838	200.023	11.031	17.068	17.156	22.745	120.327	20.646	-8191	255	
3020.395	1	1	0	0	0.41931	0.33626	0.057809	0.047813	0.086626	0.15084	0.21786	0.19685	0.21633	0.08522	0.20512	0.35822	0.13639	0.31368	0.10062	0.029273	-1.7104	-2.5062	-2.6333	-2.3021	-2.4229	-2.6625	-2.4667	-2.8667	-2.4146	-2.3771	-2.8187	-2.2854	-2.8417	-2.5938	-2.2479	-2.8667	259.623	144.010	293.084	112.639	285.257	348.164	234.962	259.504	78.492	246.374	349.324	245.749	269.500	286.538	27.982	308.739	0.00042149	0.00030527	0.00014205	562.45	1.0619e-05	2.9845e-06	896.66	200.07	1.3321e-06	5.6909e-06	429.24	163.29	68.875	31.194	5.1937e-06	95.61	0.00027332	0.00026531	7.3897e-05	564.93	2.9338e-06	2.9238e-06	869.87	196.31	2.939e-06	2.9159e-06	405.5	122.74	67.373	30.292	2.9212e-06	88.978	164.406	151.052	-0.889	7.228	183.584	157.566	7.205	12.204	80.585	117.748	11.352	17.951	17.454	22.599	103.923	20.591	-8191	255	
3020.491	1	1	0	0	0.149	0.10604	0.14423	0.10691	0.14328	0.11354	0.22727	0.32394	0.15946	0.22084	0.080321	0.34128	0.12359	0.27775	0.087154	0.12384	-1.9708	-2.375	-2.5396	-2.4	-2.4	-2.6146	-2.4021	-2.7208	-2.425	-2.175	-2.8542	-2.2271	-2.5729	-2.7021	-2.2042	-2.7604	281.964	289.257	105.156	43.774	240.389	213.501	309.742	351.409	113.262	277.010	319.842	266.800	321.524	350.668	146.626	226.691	0.00039589	0.0002144	7.7694e-05	568.88	1.9983e-06	2.1959e-06	896.76	199.38	4.5219e-06	3.1854e-06	426.33	163.44	68.655	30.76	7.639e-06	94.179	0.00027602	0.00026612	7.5001e-05	568.12	2.9542e-06	2.9158e-06	870.25	196.13	2.8973e-06	2.8981e-06	403.9	121.33	66.862	29.948	2.8514e-06	87.874	167.120	282.952	43.647	7.493	118.659	153.955	7.341	12.316	190.968	104.746	11.190	17.999	17.010	22.922	174.944	20.830	-8191	255	
3020.588	1	1	0	0	0.24597	0.16294	0.058002	0.16975	0.050008	0.20168	0.11008	0.12862	0.2615	0.1425	0.31843	0.029385	0.002438	0.038541	0.23882	0.30105	-2.0833	-2.1625	-2.6833	-2.4625	-2.3187	-2.6229	-2.3187	-2.6479	-2.4042	-2.2604	-2.8354	-2.4833	-2.4104	-2.7729	-2.2938	-2.7833	351.516	45.891	95.921	227.099	175.574	320.737	279.444	230.887	162.560	90.705	312.255	187.396	180.000	79.514	299.310	337.673	0.00040861	2.3772e-05	0.00013964	570.04	6.1625e-06	3.0131e-06	889.67	200.6	3.177e-06	2.0456e-06	428.31	166.19	68.806	30.575	7.1452e-06	93.682	0.00026411	0.00025398	6.9979e-05	563.36	2.7714e-06	2.7208e-06	863.77	196.27	2.6947e-06	2.681e-06	403.49	118.73	66.6	29.693	2.6244e-06	87.226	157.774	228.954	70.175	6.902	108.193	114.470	7.491	12.104	209.419	121.979	11.334	18.238	17.266	22.536	115.054	20.839	-8191	255	
3020.682	1	1	0	0	0.18229	0.22126	0.13212	0.20651	0.18541	0.083289	0.11341	0.33044	0.13057	0.23078	0.19922	0.13427	0.26304	0.046814	0.16477	0.4336	-2.1021	-2.2729	-2.6042	-2.4833	-2.3	-2.7	-2.4062	-2.475	-2.5083	-2.3583	-2.7396	-2.4625	-2.3333	-2.6562	-2.3667	-2.6667	290.917	241.491	194.540	295.379	209.094	35.238	265.713	285.717	333.917	43.904	327.783	66.084	1.236	102.706	95.265	302.218	0.00037433	0.00082979	2.0756e-05	568.76	3.333e-06	8.9374e-06	892	200.44	2.5847e-06	1.0744e-06	428.59	163.92	68.444	30.675	3.8188e-06	94.586	0.00024565	0.00023364	6.4501e-05	556.59	2.525e-06	2.5026e-06	860.82	196.87	2.5222e-06	2.521e-06	403.62	117.16	66.336	29.718	2.4955e-06	87.594	165.000	103.540	240.307	7.312	195.687	121.752	7.400	12.649	100.365	160.820	11.327	17.105	17.078	22.756	144.830	20.851	-8191	255	
3020.778	1	1	0	0	0.12184	0.36603	0.10918	0.15197	0.21194	0.18086	0.046173	0.28493	0.19898	0.17401	0.45675	0.10406	0.12856	0.14696	0.069998	0.36306	-2.3812	-2.1708	-2.6896	-2.3979	-2.2021	-2.6854	-2.7021	-2.3333	-2.5083	-2.2875	-2.8	-2.5	-2.1354	-2.7	-2.5896	-2.6125	24.828	146.886	240.268	320.430	241.590	326.343	298.700	267.309	220.717	43.129	305.057	225.566	335.994	187.099	60.129	255.753	0.00036087	0.00023493	0.00020497	566.39	3.9914e-06	4.4301e-06	895.74	200.23	2.1861e-06	4.2343e-06	429.19	165.89	69.189	30.631	1.9187e-06	94.315	0.00023755	0.00022958	6.2974e-05	552.92	2.4566e-06	2.4603e-06	861.17	196.1	2.4299e-06	2.4312e-06	404.52	115.95	66.403	29.519	2.3785e-06	87.464	170.123	109.547	110.691	7.606	155.855	65.748	7.542	12.351	66.629	148.345	11.408	16.854	17.476	22.686	127.408	20.931	-8191	255	
#DATA ENDS
