BOXY.EXE: ISS Imagent and Oximeter Data Acquisition Program Version 0.80
Ascii Record File

#ACQ INFORMATION
2  Detector Channels 
16  External MUX Channels 
1  Auxiliary Channels 
5000  Waveform (CCF) Frequency (Hz)
1  Waveforms Skipped 
30  Waveforms Averaged 
1  Cycles Averaged 
16  Acquisitions per Waveform 
10.0806  Updata Rate (Hz) 

#FILE INFORMATION
TRUE -- External MUX Channel results are PARSED.
FALSE -- AC DC and Phase are NOT grouped.
TRUE -- Companion Program Settings File CREATED.
FALSE -- AC data not excluded
FALSE -- DC data not excluded
FALSE -- Phase data not excluded
FALSE -- Auxillary Chn. data not excluded
Tab delimiters

#CALIBRATION STATE
TRUE -- Waveform Calibration Values APPLIED.


#AUX CALIBRATION VALUES
Val Type	aux-1	

Term	1.0000e+00	
Factor	0.0000e+00	


#WF CALIBRATION VALUES
A = Detector Channel
Val Type	A-AC1	A-AC2	A-AC3	A-AC4	A-AC5	A-AC6	A-AC7	A-AC8	A-AC9	A-AC10	A-AC11	A-AC12	A-AC13	A-AC14	A-AC15	A-AC16	A-DC1	A-DC2	A-DC3	A-DC4	A-DC5	A-DC6	A-DC7	A-DC8	A-DC9	A-DC10	A-DC11	A-DC12	A-DC13	A-DC14	A-DC15	A-DC16	A-Ph1	A-Ph2	A-Ph3	A-Ph4	A-Ph5	A-Ph6	A-Ph7	A-Ph8	A-Ph9	A-Ph10	A-Ph11	A-Ph12	A-Ph13	A-Ph14	A-Ph15	A-Ph16	

Term	0.00000e+00	0.00000e+00	0.00000e+00	0.00000e+00	0.00000e+00	0.00000e+00	0.00000e+00	0.00000e+00	0.00000e+00	0.00000e+00	0.00000e+00	0.00000e+00	0.00000e+00	0.00000e+00	0.00000e+00	0.00000e+00	0.00000e+00	0.00000e+00	0.00000e+00	0.00000e+00	0.00000e+00	0.00000e+00	0.00000e+00	0.00000e+00	0.00000e+00	0.00000e+00	0.00000e+00	0.00000e+00	0.00000e+00	0.00000e+00	0.00000e+00	0.00000e+00	0.00000e+00	0.00000e+00	0.00000e+00	0.00000e+00	0.00000e+00	0.00000e+00	0.00000e+00	0.00000e+00	0.00000e+00	0.00000e+00	0.00000e+00	0.00000e+00	0.00000e+00	0.00000e+00	0.00000e+00	0.00000e+00	
Factor	1.00000e+00	1.00000e+00	1.00000e+00	1.00000e+00	1.00000e+00	1.00000e+00	1.00000e+00	1.00000e+00	1.00000e+00	1.00000e+00	1.00000e+00	1.00000e+00	1.00000e+00	1.00000e+00	1.00000e+00	1.00000e+00	1.00000e+00	1.00000e+00	1.00000e+00	1.00000e+00	1.00000e+00	1.00000e+00	1.00000e+00	1.00000e+00	1.00000e+00	1.00000e+00	1.00000e+00	1.00000e+00	1.00000e+00	1.00000e+00	1.00000e+00	1.00000e+00	X	X	X	X	X	X	X	X	X	X	X	X	X	X	X	X	

B = Detector Channel
Val Type	B-AC1	B-AC2	B-AC3	B-AC4	B-AC5	B-AC6	B-AC7	B-AC8	B-AC9	B-AC10	B-AC11	B-AC12	B-AC13	B-AC14	B-AC15	B-AC16	B-DC1	B-DC2	B-DC3	B-DC4	B-DC5	B-DC6	B-DC7	B-DC8	B-DC9	B-DC10	B-DC11	B-DC12	B-DC13	B-DC14	B-DC15	B-DC16	B-Ph1	B-Ph2	B-Ph3	B-Ph4	B-Ph5	B-Ph6	B-Ph7	B-Ph8	B-Ph9	B-Ph10	B-Ph11	B-Ph12	B-Ph13	B-Ph14	B-Ph15	B-Ph16	

Term	0.00000e+00	0.00000e+00	0.00000e+00	0.00000e+00	0.00000e+00	0.00000e+00	0.00000e+00	0.00000e+00	0.00000e+00	0.00000e+00	0.00000e+00	0.00000e+00	0.00000e+00	0.00000e+00	0.00000e+00	0.00000e+00	0.00000e+00	0.00000e+00	0.00000e+00	0.00000e+00	0.00000e+00	0.00000e+00	0.00000e+00	0.00000e+00	0.00000e+00	0.00000e+00	0.00000e+00	0.00000e+00	0.00000e+00	0.00000e+00	0.00000e+00	0.00000e+00	-2.70192e+02	-1.46154e+02	-1.44971e+02	-1.83982e+02	-8.96959e+01	-7.84589e+01	-1.56979e+02	-1.62015e+02	-1.31917e+02	-8.21254e+01	-1.70881e+02	-1.81594e+02	-1.85791e+02	-1.77433e+02	-8.97468e+01	-1.49719e+02	
Factor	5.01170e-05	1.32014e-04	3.27272e-05	4.14055e-01	1.25435e-06	1.99250e-06	1.53742e-01	4.68002e-02	1.88427e-06	1.45911e-06	8.44637e-02	4.28283e-01	3.92267e-02	8.40360e-03	1.45620e-06	1.23250e-02	1.31062e-06	1.34861e-06	3.74948e-07	2.01947e-01	1.47447e-08	1.47689e-08	7.28953e-02	2.37801e-02	1.46852e-08	1.47755e-08	4.10814e-02	1.28830e-01	1.93371e-02	4.25015e-03	1.47475e-08	5.99750e-03	X	X	X	X	X	X	X	X	X	X	X	X	X	X	X	X	



#DISTANCE SETTINGS
A = Detector Channel
A-1	A-2	A-3	A-4	A-5	A-6	A-7	A-8	A-9	A-10	A-11	A-12	A-13	A-14	A-15	A-16	

2.5000e+00	3.0000e+00	2.5000e+00	3.0000e+00	2.0000e+00	3.0000e+00	1.5000e+00	3.0000e+00	3.0000e+00	3.0000e+00	3.0000e+00	3.0000e+00	3.0000e+00	3.0000e+00	1.5000e+00	3.0000e+00	

B = Detector Channel
B-1	B-2	B-3	B-4	B-5	B-6	B-7	B-8	B-9	B-10	B-11	B-12	B-13	B-14	B-15	B-16	

1.0000e+01	1.0000e+01	1.0000e+01	1.4400e+00	1.0000e+01	1.0000e+01	1.5100e+00	1.9400e+00	1.0000e+01	1.0000e+01	1.9900e+00	2.4900e+00	2.4100e+00	2.9000e+00	1.0000e+01	2.9800e+00	




#DATA BEGINS
time	group	step	mark	flag	A-AC1	A-AC2	A-AC3	A-AC4	A-AC5	A-AC6	A-AC7	A-AC8	A-AC9	A-AC10	A-AC11	A-AC12	A-AC13	A-AC14	A-AC15	A-AC16	A-DC1	A-DC2	A-DC3	A-DC4	A-DC5	A-DC6	A-DC7	A-DC8	A-DC9	A-DC10	A-DC11	A-DC12	A-DC13	A-DC14	A-DC15	A-DC16	A-Ph1	A-Ph2	A-Ph3	A-Ph4	A-Ph5	A-Ph6	A-Ph7	A-Ph8	A-Ph9	A-Ph10	A-Ph11	A-Ph12	A-Ph13	A-Ph14	A-Ph15	A-Ph16	B-AC1	B-AC2	B-AC3	B-AC4	B-AC5	B-AC6	B-AC7	B-AC8	B-AC9	B-AC10	B-AC11	B-AC12	B-AC13	B-AC14	B-AC15	B-AC16	B-DC1	B-DC2	B-DC3	B-DC4	B-DC5	B-DC6	B-DC7	B-DC8	B-DC9	B-DC10	B-DC11	B-DC12	B-DC13	B-DC14	B-DC15	B-DC16	B-Ph1	B-Ph2	B-Ph3	B-Ph4	B-Ph5	B-Ph6	B-Ph7	B-Ph8	B-Ph9	B-Ph10	B-Ph11	B-Ph12	B-Ph13	B-Ph14	B-Ph15	B-Ph16	aux-1	digaux	

2309.207	1	1	0	512	0.12176	0.014697	0.17925	0.04847	0.26501	0.20873	0.23642	0.18636	0.084009	0.058134	0.12719	0.11664	0.067359	0.37729	0.27943	0.23821	-1.4042	-2.25	-2.425	-2.1104	-2.5229	-2.0958	-2.2708	-2.4833	-2.1042	-2.3271	-2.4896	-2.1604	-2.375	-2.2083	-2.1167	-2.5208	197.448	11.894	289.208	44.124	216.770	-47.317	283.491	207.126	126.879	90.391	172.849	287.710	67.855	257.624	235.915	284.723	0.00088049	0.00060059	0.00023368	498.71	2.1427e-06	3.5652e-06	746.27	197.08	2.8793e-06	6.5682e-06	342.8	171.11	92.09	45.793	3.0008e-06	89.846	0.00015	0.00012989	3.5775e-05	475.68	1.4057e-06	1.3919e-06	723.14	190.89	1.447e-06	1.437e-06	329.97	116.81	87.334	44.367	1.4561e-06	86.262	15.363	38.588	13.381	-38.537	32.067	95.406	-38.602	-33.747	216.363	81.919	-34.999	-32.080	-31.087	-26.285	57.591	-27.829	-8191	255	
2309.303	1	1	0	0	0.31147	0.30814	0.42323	0.29927	0.15209	0.21769	0.1696	0.24317	0.30407	0.15172	0.23127	0.28278	0.20509	0.23283	0.17085	0.3301	-1.7583	-2.3625	-2.575	-2.0938	-2.4458	-2.3542	-2.1333	-2.3792	-2.0375	-2.1958	-2.6042	-1.9625	-2.6146	-2.3792	-2.0646	-2.4854	7.382	202.244	-7.481	209.526	163.528	277.540	37.300	247.202	117.265	190.170	186.146	36.835	199.408	264.529	288.786	231.562	0.00082558	0.00037435	9.9339e-05	502.11	4.5205e-06	3.4289e-06	752.31	198.13	7.939e-06	2.9838e-06	343.49	170.29	92.205	46.069	2.8812e-06	90.195	0.000155	0.00013139	3.6204e-05	479.71	1.4088e-06	1.4706e-06	728.2	192.47	1.4626e-06	1.4375e-06	330.91	117.94	87.512	44.492	1.4529e-06	86.543	19.552	51.253	48.397	-37.941	99.847	83.403	-38.686	-33.863	19.389	110.593	-34.815	-30.463	-30.990	-26.399	71.814	-27.665	-8191	255	
2309.399	1	1	0	0	0.03416	0.30781	0.12499	0.217	0.41255	0.30637	0.33285	0.23855	0.27415	0.23287	0.23595	0.20215	0.16977	0.4775	0.15387	0.41614	-1.6375	-2.2562	-2.4354	-1.9583	-2.5	-2.2354	-2.3187	-2.4958	-2.2271	-2.2333	-2.4854	-1.9229	-2.4354	-2.55	-1.9646	-2.5354	-16.925	94.614	118.317	280.235	232.429	56.687	213.166	-35.127	1.773	296.600	49.131	-28.453	220.759	278.208	261.636	273.015	0.00087732	0.0004243	4.7758e-05	500.46	3.5705e-06	6.5698e-06	749.37	199.31	4.6122e-06	4.8343e-06	345.27	170.74	91.683	45.919	4.7645e-06	89.201	0.00015499	0.00013279	3.6656e-05	479.4	1.4418e-06	1.4306e-06	727.85	193.1	1.4492e-06	1.4511e-06	331.27	116.62	86.967	44.358	1.487e-06	85.909	14.957	43.503	57.041	-38.365	59.896	98.672	-38.873	-33.609	-15.921	93.124	-34.654	-30.491	-31.521	-26.302	65.189	-27.595	-8191	255	
2309.495	1	1	0	0	0.23128	0.073314	0.35666	0.064021	0.12437	0.084168	0.16535	0.32427	0.11021	0.11045	0.038462	0.25974	0.27994	0.17082	0.10513	0.21545	-1.8125	-1.9854	-2.6896	-2.2604	-2.3688	-2.3917	-2.4208	-2.5521	-2.2521	-2.0604	-2.5583	-2.1312	-2.1833	-2.4833	-2.0938	-2.8063	154.799	29.693	237.807	237.650	263.003	196.508	307.398	307.497	-32.792	293.255	-43.297	16.400	111.478	171.758	232.029	187.180	0.00077028	0.00033815	6.5055e-05	493.65	5.1983e-06	4.6265e-06	742.11	194.75	5.3888e-06	2.3989e-06	338.36	165.92	90.162	45.53	5.6303e-06	89.233	0.00015326	0.00012973	3.5182e-05	475.65	1.4703e-06	1.4237e-06	719.33	189.36	1.4426e-06	1.4122e-06	325.68	114.9	85.669	43.948	1.4521e-06	85.463	13.680	13.577	55.785	-37.777	75.568	94.395	-38.429	-33.767	3.889	93.143	-34.944	-31.518	-31.048	-26.583	79.403	-27.756	-8191	255	
2309.616	1	1	0	0	0.14838	0.12548	0.089549	0.12065	0.16465	0.20224	0.26311	0.078537	0.15227	0.25292	0.203	0.2293	0.091668	0.1473	0.2237	0.24677	-1.8896	-1.9771	-2.3979	-2.1333	-2.2562	-2.325	-2.1	-2.4917	-2.3604	-2.0979	-2.5146	-2.0854	-2.2667	-2.4708	-2.0354	-2.5479	100.028	246.463	38.779	231.991	94.137	273.036	212.886	172.462	11.205	48.571	302.397	139.796	-51.127	248.014	233.840	267.504	0.00081515	0.00049821	4.9872e-05	489.17	5.8863e-06	4.7297e-06	740.62	192.9	6.5571e-06	3.8907e-06	337.91	169.01	89.613	45.228	3.251e-06	88.85	0.00015291	0.00012966	3.6156e-05	472.23	1.4163e-06	1.4114e-06	719.27	188.31	1.4245e-06	1.423e-06	324.96	115.1	85.522	43.793	1.4602e-06	85.211	16.900	35.133	73.063	-38.384	84.755	41.011	-38.825	-33.621	12.413	63.888	-34.766	-31.534	-31.082	-26.295	37.983	-27.764	-8191	255	
2309.710	1	1	0	0	0.10257	0.28991	0.081382	0.057268	0.1276	0.16977	0.34576	0.10977	0.19126	0.13634	0.20336	0.042245	0.12297	0.21498	0.078798	0.32779	-1.8104	-1.9271	-2.3875	-2.375	-1.9667	-2.4771	-2.0812	-2.4771	-2.3667	-2.1437	-2.4542	-2.2313	-2.2396	-2.6063	-1.8	-2.4208	225.945	78.403	11.071	203.181	31.842	299.914	275.040	-48.704	-50.877	167.191	308.101	127.785	262.820	261.007	63.319	184.481	0.00085216	0.00049647	8.707e-05	490.41	4.0594e-06	1.0958e-05	742.3	193.78	5.8253e-06	3.5909e-06	337.79	170.45	90.201	45.327	3.6109e-06	88.822	0.0001506	0.00012917	3.5618e-05	471.84	1.3983e-06	1.412e-06	718.98	188.11	1.4319e-06	1.4245e-06	324.41	115.33	85.571	43.865	1.4208e-06	85.361	20.377	24.397	4.522	-39.233	79.889	86.891	-38.491	-33.609	69.863	98.741	-35.137	-31.393	-31.024	-26.361	66.525	-27.627	-8191	255	
2309.807	1	1	0	0	0.27754	0.28496	0.21444	0.064863	0.20059	0.1573	0.25024	0.32856	0.18023	0.28434	0.21316	0.40683	0.1581	0.13577	0.14225	0.10515	-1.7979	-1.7958	-2.3354	-2.075	-2.1063	-2.5563	-2.2771	-2.1875	-2.3771	-1.9792	-2.5167	-2.2854	-2.0875	-2.5812	-2.1562	-2.4521	76.514	79.543	95.275	172.631	260.501	-6.581	219.468	282.706	296.826	149.279	303.287	56.107	259.004	63.731	269.757	-3.839	0.00073477	0.00051677	8.6079e-05	489.45	5.2763e-06	5.3074e-06	735.86	191.31	4.3176e-06	3.5553e-06	335.76	170.07	90.592	45.404	6.8704e-06	88.688	0.00015161	0.00012785	3.6034e-05	469.69	1.3868e-06	1.3973e-06	712.99	186.05	1.4124e-06	1.4063e-06	322.82	115.34	85.851	43.827	1.4374e-06	85.279	16.892	-14.898	-38.513	-37.939	75.529	71.569	-38.502	-33.821	66.044	41.136	-34.926	-32.043	-31.263	-26.603	56.104	-27.563	-8191	255	
2309.878	1	1	0	0	0.27056	0.11311	0.11101	0.071198	0.097403	0.3303	0.0789	0.17846	0.24871	0.15244	0.21901	0.30048	0.30493	0.10556	0.23758	0.17461	-2.0042	-2.0771	-2.4146	-2.3167	-1.9146	-2.4229	-2.2021	-2.2083	-2.3083	-2.025	-2.2958	-2.0208	-2.1083	-2.3542	-2.1396	-2.3667	163.150	13.184	51.084	282.094	-44.724	242.071	-28.325	217.287	116.207	83.751	-18.467	25.065	21.443	197.564	180.182	188.899	0.00072455	0.00056304	9.8081e-05	490.79	2.1355e-06	4.1015e-06	741.76	194.42	5.5509e-06	2.2187e-06	342.19	168.27	91.164	45.561	4.1739e-06	89.177	0.00015007	0.00013009	3.5531e-05	471.17	1.3979e-06	1.3927e-06	719.83	189.2	1.4327e-06	1.4344e-06	328.29	115.39	86.496	44.008	1.4569e-06	85.613	24.120	32.316	10.920	-37.436	59.818	114.664	-38.408	-33.833	18.493	306.227	-34.910	-31.414	-31.029	-26.180	72.591	-27.744	-8191	255	
2309.976	1	1	0	0	0.13771	0.14732	0.054105	0.22333	0.31103	0.34096	0.25567	0.17578	0.081294	0.14856	0.2358	0.15144	0.031665	0.25365	0.1885	0.24008	-1.9042	-2	-2.3563	-2.4708	-2.025	-2.5167	-2.1396	-2.1646	-2.5292	-2.0229	-2.4042	-2.1229	-2.1167	-2.5438	-2.1312	-2.225	-33.408	278.812	224.835	240.701	203.474	272.635	194.730	-19.133	136.032	266.104	219.256	214.573	111.375	306.062	254.470	194.383	0.00077053	0.00050166	0.00013333	492.53	2.1168e-06	4.2531e-06	749.03	198.33	7.2724e-06	4.876e-06	343.6	168.29	92.092	46.032	3.6785e-06	89.948	0.00015085	0.00012898	3.6096e-05	476.56	1.4103e-06	1.4418e-06	727.78	192.87	1.4502e-06	1.4027e-06	330.96	116.28	87.225	44.367	1.4625e-06	86.173	15.789	69.294	19.882	-38.026	154.711	95.232	-38.537	-33.814	87.488	93.922	-34.556	-32.420	-30.851	-26.227	117.877	-27.650	-8191	255	
2310.095	1	1	0	0	0.24813	0.076397	0.18523	0.14069	0.13819	0.17507	0.20422	0.24496	0.21715	0.18426	0.17178	0.18145	0.11023	0.15425	0.25351	0.32799	-1.9917	-2.0354	-2.3063	-2.3583	-2.1688	-2.3354	-2.3979	-2.025	-2.5375	-2.1688	-2.2833	-2.3458	-1.9354	-2.3125	-2.1188	-2.125	89.622	72.389	266.797	43.424	111.880	198.269	195.731	189.222	33.398	125.745	1.723	262.470	304.076	295.648	-44.626	234.104	0.0007054	0.00041692	0.00017881	495.84	3.5278e-06	7.2581e-06	751.37	199.33	1.8479e-06	3.4171e-06	344.88	170.07	91.463	45.833	1.7024e-06	89.776	0.00015133	0.00013283	3.626e-05	477.65	1.4158e-06	1.4128e-06	728.92	193.22	1.426e-06	1.4134e-06	331.6	116.94	87.299	44.308	1.4194e-06	86.149	14.806	-2.489	32.434	-38.508	104.153	76.764	-38.545	-33.536	89.736	74.993	-34.906	-32.576	-31.034	-26.251	53.092	-27.801	-8191	255	
2310.191	1	1	0	0	0.056073	0.1146	0.028808	0.30915	0.02211	0.065624	0.13461	0.21582	0.28676	0.2225	0.13347	0.19357	0.16497	0.17776	0.053885	0.0931	-2.2583	-2.2979	-2.0792	-2.4	-2.0312	-2.3667	-2.3	-2.0938	-2.5563	-2.0604	-2.2646	-2.4208	-2.15	-2.3854	-2.4833	-2.35	245.832	55.836	267.382	259.333	56.329	-29.364	221.725	285.890	175.034	214.062	176.037	292.614	-8.331	291.892	162.397	60.935	0.00075539	0.00055856	0.00012293	496.83	4.2803e-06	5.7433e-06	743.95	196.84	6.9414e-06	6.6636e-06	342.93	167.58	91.137	45.582	2.1122e-06	88.955	0.00015041	0.00013134	3.5548e-05	475.73	1.4034e-06	1.3999e-06	723.89	190.94	1.4026e-06	1.4374e-06	328.18	115.76	86.241	43.981	1.4151e-06	85.312	8.328	26.481	26.645	-38.521	108.420	106.976	-38.346	-33.562	109.939	60.951	-35.149	-31.711	-31.277	-26.429	96.273	-27.614	-8191	255	
2310.287	1	1	0	0	0.076127	0.2637	0.10295	0.26838	0.049145	0.2177	0.27574	0.22207	0.090796	0.11053	0.19627	0.22324	0.19534	0.28804	0.19187	0.15333	-1.975	-2.1229	-2.1437	-2.4938	-2.0687	-2.0812	-2.4104	-2.0604	-2.4208	-2.1521	-2.1	-2.3312	-2.2646	-2.3333	-2.2729	-2.075	267.133	265.833	77.165	249.465	78.268	182.921	282.248	201.050	5.945	16.189	295.055	138.859	145.946	267.561	86.572	272.448	0.00080558	0.0004227	8.9705e-05	492.72	2.427e-06	5.2983e-06	739.91	194.97	2.4544e-06	3.2355e-06	341.4	169.11	90.275	45.548	8.2325e-06	89.426	0.00015262	0.00013126	3.602e-05	473.05	1.4055e-06	1.3969e-06	719.12	188.97	1.4088e-06	1.4293e-06	327.42	116.38	85.731	44.028	1.4317e-06	85.866	15.474	-3.626	27.436	-37.875	70.136	43.882	-38.541	-33.528	35.156	53.548	-34.895	-31.712	-30.970	-26.214	75.710	-27.802	-8191	255	
2310.408	1	1	0	0	0.1964	0.24888	0.13059	0.34631	0.2704	0.20173	0.17011	0.11684	0.26325	0.10061	0.13044	0.10597	0.038251	0.27218	0.075972	0.13179	-1.8354	-2.0896	-1.8917	-2.4542	-2.0604	-2.0708	-2.6375	-2.0104	-2.4521	-2.2292	-2.0208	-2.3875	-2.1708	-2.2917	-2.55	-2.1917	163.781	133.394	236.450	249.494	214.378	13.541	265.416	193.592	256.014	99.666	38.469	189.792	285.831	269.007	166.132	253.141	0.0008332	0.00039866	5.931e-05	495.11	3.1931e-06	6.1081e-06	743.03	193.51	4.6172e-06	7.801e-06	337.83	169.86	91.101	45.994	5.0148e-06	90.374	0.00015119	0.00012867	3.6168e-05	475.19	1.3883e-06	1.4447e-06	720.54	188.8	1.4047e-06	1.4527e-06	326.75	116.2	86.392	44.477	1.4538e-06	86.652	19.913	41.641	32.456	-37.875	99.374	83.596	-38.321	-33.793	6.915	98.851	-34.805	-31.752	-30.949	-26.216	84.184	-27.807	-8191	255	
2310.480	1	1	0	0	0.035273	0.17972	0.099618	0.2019	0.16113	0.053885	0.089561	0.060832	0.16459	0.10985	0.25274	0.11942	0.1672	0.13174	0.35424	0.43838	-1.8042	-2.4313	-2.0625	-2.3667	-1.9479	-2.1188	-2.5625	-2.0312	-2.2729	-2.525	-2.1396	-2.1375	-2.1083	-2.2062	-2.4708	-2.4167	-3.810	250.190	221.395	299.093	295.066	51.438	254.237	236.453	209.379	57.329	264.053	133.311	223.695	11.112	-1.721	239.985	0.00089657	0.00042503	0.00010072	495.62	4.909e-06	4.1112e-06	741.81	193.87	2.9566e-06	4.5053e-06	340.53	171.35	91.184	46.056	4.1373e-06	90.077	0.00015005	0.00012812	3.5868e-05	473.67	1.4066e-06	1.399e-06	720.02	188.78	1.4572e-06	1.4341e-06	326.91	116.19	86.497	44.471	1.4395e-06	86.614	15.801	8.762	23.077	-38.419	34.994	19.198	-38.433	-33.696	5.904	81.189	-34.506	-31.390	-31.367	-26.461	150.838	-27.759	-8191	255	
2310.576	1	1	0	0	0.29053	0.078764	0.14079	0.14181	0.1556	0.16251	0.23411	0.23678	0.075249	0.22651	0.098591	0.10737	0.14678	0.27153	0.26916	0.25051	-1.8375	-2.4354	-1.9833	-2.4083	-2.1208	-2.2	-2.5458	-2.1604	-2.3125	-2.3563	-1.9542	-2.4458	-2.0854	-2.0521	-2.4083	-2.3042	144.977	62.412	303.696	304.372	195.062	164.386	258.035	249.398	-28.551	132.340	84.460	207.110	26.763	219.268	226.764	205.429	0.00077043	0.00060308	5.8249e-05	498.17	2.599e-06	9.9238e-06	743.07	196.47	5.401e-06	7.0923e-06	345.52	176.17	93.468	46.977	4.3976e-06	91.801	0.00015201	0.00012975	3.6409e-05	475.05	1.4108e-06	1.4378e-06	722.48	190.89	1.4281e-06	1.4143e-06	331.35	118.58	88.661	45.448	1.4321e-06	88.071	21.344	35.074	16.278	-38.184	40.441	79.552	-38.289	-33.799	74.790	85.655	-34.911	-31.296	-30.845	-26.237	89.498	-27.769	-8191	255	
2310.696	1	1	0	0	0.22002	0.15755	0.21151	0.36635	0.19045	0.072041	0.064579	0.30857	0.13427	0.19278	0.19605	0.12916	0.24236	0.5435	0.099894	0.24833	-1.675	-2.4479	-1.9438	-2.2104	-2.2188	-1.875	-2.5042	-2.2521	-2.0375	-2.1917	-2.1583	-2.3833	-2.4542	-2.0625	-2.2313	-2.3312	300.675	7.812	171.678	299.436	-41.326	-19.077	284.701	181.469	237.001	-47.364	276.012	160.457	206.707	292.216	59.839	271.927	0.00098086	0.00074725	0.00011533	492.48	9.1105e-06	4.6193e-06	759.04	203.3	6.3345e-06	3.2743e-06	353.26	174.05	95.954	47.54	1.7644e-06	92.997	0.0001537	0.00013128	3.6532e-05	479.05	1.4566e-06	1.4511e-06	736.55	196.97	1.4648e-06	1.4294e-06	338.94	119.58	90.836	46.017	1.4671e-06	89.215	21.511	7.904	3.183	-38.393	100.673	62.152	-38.578	-33.642	-2.505	89.737	-34.706	-31.406	-31.338	-26.480	-3.706	-27.681	-8191	255	
2310.791	1	1	0	0	0.12626	0.069963	0.31281	0.076286	0.18004	0.11339	0.18763	0.26394	0.13442	0.19813	0.19086	0.21698	0.30511	0.4333	0.2153	0.12679	-1.8167	-2.45	-1.9604	-2.1479	-2.2979	-2.0646	-2.5354	-2.3292	-1.9458	-2.4417	-2.2542	-2.4604	-2.3958	-2.1104	-2.3125	-2.375	174.727	248.345	151.394	256.116	185.091	24.033	-31.655	279.673	271.118	285.633	250.244	210.859	-35.979	-30.815	224.589	217.106	0.00088597	0.00054505	0.00012575	509.52	4.3154e-07	2.8053e-06	776.17	207.5	5.1479e-06	6.431e-07	358.55	179.28	96.896	48.229	6.6347e-06	93.495	0.00015528	0.00013441	3.7413e-05	488.98	1.4651e-06	1.4626e-06	749.35	201.16	1.4818e-06	1.4668e-06	344.86	121.99	91.982	46.619	1.5028e-06	89.827	25.326	59.109	-17.517	-38.640	64.213	152.870	-38.263	-33.924	27.491	59.527	-34.988	-32.704	-30.888	-26.537	31.056	-28.050	-8191	255	
2310.889	1	1	0	0	0.19485	0.16616	0.24166	0.28165	0.10715	0.16478	0.059064	0.095988	0.14177	0.075421	0.22095	0.1082	0.033609	0.11398	0.036145	0.18465	-1.7958	-2.3812	-2.1896	-2.0542	-2.4521	-2.0125	-2.2229	-2.3604	-1.9208	-2.475	-2.1646	-2.1583	-2.4062	-2.2042	-2.3896	-2.4521	-2.707	44.171	52.876	289.058	104.800	271.762	164.212	247.203	27.175	124.030	268.549	257.979	249.216	-47.458	297.065	268.854	0.00087528	0.00061288	0.00010131	505.05	3.2666e-06	3.8722e-06	769.55	207.03	4.1553e-06	5.3362e-06	357.92	175.49	97.464	47.799	3.7718e-06	92.61	0.00015847	0.00013382	3.6644e-05	487.14	1.4565e-06	1.4752e-06	745.76	200.67	1.4854e-06	1.4314e-06	344.24	121.33	91.965	46.36	1.4843e-06	89.093	23.705	-1.539	6.924	-38.737	122.207	122.340	-38.421	-33.820	74.051	88.436	-35.003	-31.031	-31.218	-26.078	53.356	-27.954	-8191	255	
2311.008	1	1	0	0	0.24268	0.096821	0.079061	0.24758	0.054744	0.34117	0.14899	0.062324	0.12034	0.10682	0.14167	0.2278	0.05905	0.24527	0.10803	0.11563	-1.5604	-2.5375	-2.3583	-2.0854	-2.6937	-2.1604	-2.3812	-2.4333	-2.2125	-2.5083	-2.3	-2.2229	-2.5729	-2.2417	-2.4292	-2.6042	166.464	119.510	22.578	209.520	88.792	109.260	-51.291	272.545	298.963	306.610	194.453	-40.953	-23.990	294.255	134.741	197.338	0.0008103	0.00038306	0.00010844	500.38	3.0778e-06	8.1257e-06	757.79	200.72	6.1021e-06	3.9036e-06	350.57	175.17	95.031	47.161	5.3022e-06	91.864	0.00015534	0.00013428	3.6871e-05	482.07	1.4546e-06	1.4558e-06	735.22	195.57	1.451e-06	1.4341e-06	336.09	118.81	89.511	45.605	1.4903e-06	88.201	27.716	11.470	-14.346	-38.896	39.832	92.399	-38.699	-33.741	44.377	59.029	-34.864	-30.950	-30.915	-26.518	95.530	-27.822	-8191	255	
2311.104	1	1	0	0	0.42418	0.1186	0.14823	0.17623	0.20308	0.2839	0.058989	0.2057	0.24141	0.25665	0.22226	0.21426	0.19032	0.035189	0.28657	0.077295	-1.3854	-2.3854	-2.05	-2.1167	-2.5375	-2.2	-2.2604	-2.2729	-1.9479	-2.3417	-2.2792	-1.9958	-2.5729	-2.2271	-2.0625	-2.7729	115.577	87.596	81.079	-48.682	189.224	212.597	155.187	243.968	267.424	66.298	268.171	244.473	282.364	5.428	48.017	221.907	0.00087767	0.00082429	0.00013792	505.24	6.0824e-06	6.1865e-06	761.13	204.99	5.5705e-06	3.5342e-06	351.51	174.37	94.813	46.738	3.7982e-06	91.517	0.0001569	0.00013504	3.6746e-05	484.69	1.4758e-06	1.4661e-06	738.95	198.69	1.4963e-06	1.4657e-06	339.32	119.01	89.581	45.355	1.4885e-06	87.961	21.124	26.170	8.714	-38.365	90.918	18.643	-38.154	-33.934	59.072	70.460	-34.920	-31.265	-30.841	-26.105	62.549	-27.949	-8191	255	
2311.175	1	1	0	0	0.16321	0.050907	0.15649	0.18183	0.27962	0.16523	0.15781	0.18777	0.13623	0.33829	0.23348	0.18112	0.33483	0.1686	0.18743	0.11342	-1.6625	-2.4313	-2.2646	-2.0458	-2.4833	-2.2229	-2.3208	-2.4313	-1.9167	-2.4333	-2.4062	-2.1646	-2.5396	-2.2875	-2.125	-2.7271	268.910	179.082	14.351	183.167	102.737	304.240	203.269	269.565	83.145	-32.513	4.382	75.519	266.544	207.989	107.241	262.551	0.00068468	0.00036411	0.00017557	499.07	2.5029e-06	4.8116e-06	762.08	202.98	5.3493e-06	7.0984e-06	353.97	173.62	94.512	46.799	2.3594e-06	91.551	0.00015872	0.00013182	3.7195e-05	483.87	1.4468e-06	1.4679e-06	738.94	197.45	1.4597e-06	1.4643e-06	339.41	119.48	89.625	45.386	1.4881e-06	87.811	15.416	17.758	56.216	-38.754	88.370	61.365	-38.320	-33.890	-37.602	78.750	-35.003	-32.363	-30.953	-26.609	93.018	-27.725	-8191	255	
2311.296	1	1	0	0	0.25102	0.19011	0.2597	0.11944	0.18967	0.26033	0.39742	0.1768	0.18027	0.077596	0.064862	0.33285	0.28069	0.28841	0.21138	0.28456	-1.4062	-2.1917	-2.0854	-1.9937	-2.4792	-2.2729	-2.1562	-2.4813	-2.2646	-2.0458	-2.3104	-2.05	-2.4833	-2.0479	-1.9042	-2.6104	-22.885	223.224	106.560	214.214	56.245	208.035	235.602	72.901	-0.124	147.319	-49.080	-51.433	41.008	260.055	142.817	219.574	0.00078172	0.00066767	7.7688e-05	506.31	4.7827e-06	3.4227e-06	757.44	201.85	3.7589e-06	4.787e-06	349.57	171.87	93.858	46.599	2.3135e-06	90.974	0.00015775	0.00013398	3.7966e-05	482.58	1.4442e-06	1.4236e-06	733.55	195.97	1.4698e-06	1.4463e-06	336.3	118.47	89.062	45.152	1.4813e-06	87.322	23.664	-4.838	41.398	-38.142	65.139	77.483	-38.209	-33.572	151.150	113.062	-34.616	-30.802	-31.017	-26.242	70.654	-27.784	-8191	255	
2311.392	1	1	0	0	0.23314	0.19482	0.074324	0.19385	0.16724	0.23832	0.11911	0.31437	0.091604	0.12715	0.26159	0.39177	0.18101	0.24942	0.057326	0.29667	-1.6187	-2.1021	-2.3063	-2	-2.3021	-2.2021	-2.0833	-2.5292	-2.0187	-2.2062	-2.4625	-1.9354	-2.425	-2.375	-2.1667	-2.6042	308.112	-29.536	52.470	122.915	266.514	-30.757	-39.815	248.940	-46.807	146.089	226.241	-1.372	270.210	-28.363	287.915	240.980	0.00086584	0.000313	0.00012296	495.19	2.4016e-06	3.5998e-06	755.65	203.12	6.679e-06	2.0836e-06	351.73	175.94	94.016	47.002	3.6481e-06	91.044	0.00015585	0.00013078	3.6938e-05	478.56	1.424e-06	1.4143e-06	733.65	197.21	1.4742e-06	1.4142e-06	338.76	119.23	89.438	45.313	1.4713e-06	87.516	16.003	34.724	51.419	-38.567	124.441	161.353	-38.569	-33.722	44.165	107.313	-34.689	-31.270	-30.968	-26.399	91.369	-27.558	-8191	255	
2311.488	1	1	0	0	0.37575	0.18274	0.12982	0.27523	0.032718	0.265	0.022018	0.20835	0.29489	0.10706	0.19226	0.31085	0.18863	0.19794	0.18688	0.047936	-1.5292	-2.0708	-2.225	-2.0792	-2.2708	-2.2875	-2.1167	-2.625	-2.1688	-2.2438	-2.45	-2.0042	-2.5271	-2.3	-1.85	-2.5833	106.047	39.236	234.807	306.438	-19.301	123.796	256.015	139.231	87.683	135.882	42.289	31.693	113.134	194.716	-27.128	237.194	0.00077923	0.00016705	4.0607e-05	501.64	5.9445e-06	1.0922e-05	763.05	205.07	6.0399e-06	6.5701e-06	357.7	173.46	95.34	47	3.7095e-06	92.28	0.00015688	0.00013226	3.6504e-05	481.27	1.4365e-06	1.4369e-06	740.34	199.43	1.4756e-06	1.4628e-06	341.86	119.81	90.143	45.569	1.4865e-06	88.397	18.934	28.991	53.444	-38.171	125.016	50.495	-38.210	-33.703	63.598	70.550	-34.997	-31.056	-30.935	-26.273	86.022	-27.850	-8191	255	
2311.585	1	1	0	0	0.15922	0.1729	0.22119	0.098201	0.30528	0.17374	0.22333	0.099198	0.12393	0.21601	0.11549	0.13488	0.038132	0.063996	0.19703	0.35878	-1.9583	-2.0354	-2.3146	-2.1896	-2.3771	-2.2583	-2.0042	-2.4	-2.2708	-2.1562	-2.4542	-2.1417	-2.2625	-2.3833	-2.1063	-2.6521	137.446	38.669	66.233	270.907	295.239	-38.050	100.991	270.994	115.253	-4.351	201.144	213.980	76.218	248.207	244.649	301.522	0.00090508	0.00021227	2.5207e-05	507.02	1.7909e-06	1.0475e-05	764.04	203.63	3.6495e-06	4.8771e-06	352.29	175.32	94.733	47.01	3.6159e-06	92.141	0.00015364	0.00013061	3.6697e-05	483.74	1.4488e-06	1.4174e-06	738.26	198.03	1.4659e-06	1.4336e-06	339.9	119.65	89.867	45.57	1.4755e-06	88.268	22.585	42.918	84.041	-38.337	89.075	54.587	-38.409	-33.741	17.195	133.899	-34.784	-31.996	-31.209	-26.266	55.482	-27.862	-8191	255	
2311.705	1	1	0	0	0.28788	0.2442	0.14118	0.28247	0.027522	0.043675	0.11759	0.40585	0.086704	0.052861	0.1385	0.1327	0.087655	0.11495	0.11523	0.40264	-1.7812	-2.0229	-2.675	-2.2875	-2.4229	-2.5917	-2.1208	-2.6417	-2.3187	-2.075	-2.7333	-2.0208	-2.2625	-2.4833	-1.9167	-2.5042	215.149	-5.620	237.009	-31.120	146.420	53.544	293.846	200.305	127.589	83.164	6.241	71.205	24.787	-35.810	260.648	-38.448	0.00075531	0.00050209	7.2311e-05	500.48	4.3811e-06	7.0424e-06	765.19	206.06	7.1986e-06	5.0752e-06	356.27	173.33	95.971	47.262	2.0732e-06	92.431	0.00015562	0.00013185	3.6819e-05	483.52	1.4609e-06	1.4282e-06	741.75	199.64	1.4766e-06	1.4302e-06	341.93	119.47	90.786	45.821	1.4895e-06	88.707	19.499	16.497	11.254	-38.024	48.394	60.994	-38.731	-33.861	45.213	98.216	-34.864	-31.633	-31.380	-26.243	33.637	-27.600	-8191	255	
2311.775	1	1	0	0	0.11834	0.28634	0.28095	0.1366	0.16355	0.14622	0.37159	0.14987	0.16597	0.20342	0.1313	0.27279	0.14555	0.2199	0.1436	0.16459	-2.0771	-1.925	-2.5583	-2.2208	-2.2687	-2.4875	-2.1312	-2.5729	-2.5146	-2.1875	-2.5687	-2.3375	-2.1937	-2.6042	-2.0833	-2.4958	92.477	14.092	171.568	247.661	124.440	200.411	-43.018	168.672	-13.132	-20.966	203.683	235.486	47.856	288.696	166.557	217.385	0.00089289	0.00055349	0.00014643	500.06	3.1022e-06	9.6989e-06	761.1	203.29	6.8148e-06	2.57e-06	348.62	173.85	94.166	47.192	4.7124e-06	92.57	0.00015608	0.0001357	3.7246e-05	483.26	1.4653e-06	1.4548e-06	739.46	197.51	1.4966e-06	1.4491e-06	336.41	119.5	89.523	45.708	1.4784e-06	88.665	18.886	0.382	43.702	-38.421	148.895	88.357	-38.466	-33.681	40.153	54.611	-34.816	-31.950	-30.962	-26.228	105.820	-27.750	-8191	255	
2311.871	1	1	0	0	0.10994	0.16206	0.093341	0.13313	0.077081	0.08003	0.21894	0.16372	0.089695	0.097912	0.36626	0.28885	0.28946	0.34012	0.1361	0.27174	-1.9667	-1.95	-2.3583	-2.2687	-2.1437	-2.575	-2.1208	-2.3854	-2.5062	-2.1	-2.4979	-2.2812	-2.2375	-2.5021	-2.0229	-2.4688	99.913	9.712	178.444	267.505	266.478	-10.858	303.794	263.549	90.211	109.022	-27.646	70.450	-23.909	-26.835	131.609	207.723	0.00089414	0.00067027	0.00014164	494.24	5.2806e-06	9.9943e-06	755.87	201.17	2.1205e-06	3.3869e-06	347.35	174.91	94.41	47.265	1.6363e-06	92.46	0.00015894	0.00013263	3.7012e-05	479.9	1.4716e-06	1.4589e-06	735.18	194.97	1.449e-06	1.4531e-06	335.2	119.38	89.513	45.667	1.4728e-06	88.671	18.793	19.319	16.484	-38.670	73.480	112.368	-38.286	-33.978	183.354	77.325	-34.856	-32.820	-31.097	-26.534	-5.640	-27.668	-8191	255	
2311.969	1	1	0	0	0.16333	0.14443	0.25664	0.38341	0.14046	0.11102	0.24987	0.16424	0.095665	0.089545	0.34642	0.26048	0.11437	0.32119	0.021217	0.36439	-1.9604	-1.9125	-2.4354	-2.3	-2.15	-2.45	-2.2979	-2.1562	-2.5312	-2.1479	-2.3083	-2.4604	-1.8917	-2.7167	-2.1958	-2.2708	59.622	273.423	-7.145	295.677	208.251	130.964	-45.641	217.912	147.480	-32.210	276.359	116.971	5.720	273.073	271.167	197.792	0.00089578	0.00063982	0.00012468	500.24	6.9987e-06	3.6077e-06	755.47	201.37	6.5106e-06	3.1281e-06	353.31	174.05	95.752	47.454	5.3781e-06	92.768	0.00015592	0.00013374	3.6667e-05	481.57	1.4615e-06	1.4772e-06	734.45	195.9	1.4861e-06	1.4707e-06	337.39	120.14	90.493	46.006	1.5187e-06	88.999	18.647	16.315	3.803	-37.790	49.645	80.903	-38.566	-33.754	19.413	86.956	-35.052	-31.353	-30.933	-26.388	114.620	-27.658	-8191	255	
2312.088	1	1	0	0	0.27274	0.11908	0.3436	0.11595	0.22072	0.080307	0.29718	0.12618	0.076646	0.20835	0.19441	0.27171	0.18522	0.34006	0.093502	0.18725	-1.975	-2.0167	-2.45	-2.35	-1.9083	-2.4313	-2.2979	-2.2625	-2.6167	-1.8458	-2.3688	-2.3583	-2.0563	-2.4479	-2.1875	-2.3104	248.618	65.496	305.395	124.220	3.326	285.003	229.958	-31.749	269.472	206.699	271.444	42.617	-34.534	5.284	12.103	256.125	0.0008095	0.00032372	3.1589e-05	505.78	4.5481e-06	9.0314e-06	765.62	204.86	8.6775e-06	4.7309e-06	358.98	176.85	95.88	47.895	8.9517e-07	93.535	0.00015507	0.00013282	3.8055e-05	486.1	1.4624e-06	1.4879e-06	744.18	200.02	1.5006e-06	1.5005e-06	344.5	121.23	91.471	46.449	1.5134e-06	89.614	11.152	21.773	19.147	-38.684	43.073	108.404	-38.348	-33.919	44.059	93.502	-35.159	-32.004	-31.132	-26.618	236.110	-27.779	-8191	255	
2312.184	1	1	0	0	0.12778	0.073515	0.070998	0.10546	0.1075	0.1997	0.3646	0.10402	0.081575	0.084692	0.17302	0.067722	0.14621	0.31402	0.23118	0.30296	-2.2667	-2.0167	-2.5021	-2.2896	-2.0375	-2.3375	-2.6542	-2.2583	-2.625	-2.15	-2.3875	-2.5729	-1.9958	-2.5917	-2.2938	-2.3292	199.632	217.901	201.883	190.304	285.575	57.559	-33.271	291.116	60.632	53.808	164.515	173.837	71.222	238.686	21.353	226.778	0.00078537	0.00042718	0.00016355	508.07	3.5197e-06	1.0255e-05	766.49	205.78	4.1817e-06	5.3419e-06	358.47	180.64	96.724	47.951	3.7457e-06	93.366	0.00015755	0.00013641	3.852e-05	486.76	1.4862e-06	1.4658e-06	745.3	199.75	1.4872e-06	1.4905e-06	343.33	121.61	91.711	46.488	1.494e-06	89.783	20.349	36.382	52.641	-38.314	63.187	75.260	-38.319	-33.955	116.439	55.636	-35.002	-31.490	-31.435	-26.338	96.624	-27.809	-8191	255	
2312.280	1	1	0	0	0.21359	0.18271	0.165	0.037223	0.32838	0.11893	0.13374	0.23429	0.27046	0.18049	0.22884	0.22485	0.29119	0.1803	0.024413	0.14109	-2.0062	-2.125	-2.375	-2.5417	-2.2188	-2.3167	-2.5708	-2.1292	-2.6292	-2.2521	-2.0896	-2.5438	-2.1979	-2.4083	-2.4208	-2.2792	70.983	250.107	-11.306	288.857	233.258	276.661	271.745	56.226	51.747	227.235	-3.820	286.391	163.245	248.908	-13.134	233.556	0.00096535	0.00042491	6.5306e-05	510.07	4.3955e-06	6.9877e-06	767.64	205.23	3.3439e-06	4.0956e-06	356.17	178.53	96.73	47.917	4.6602e-06	93.704	0.00015778	0.00013631	3.7491e-05	488.61	1.486e-06	1.484e-06	745.01	199.55	1.4943e-06	1.4839e-06	341.26	121.61	91.869	46.419	1.4783e-06	89.847	18.590	23.105	12.328	-38.256	74.193	155.196	-38.528	-34.040	13.442	-13.760	-34.916	-30.913	-31.158	-26.057	104.223	-27.914	-8191	255	
2312.376	1	1	0	0	0.24302	0.1519	0.34065	0.078694	0.084421	0.20796	0.37041	0.28754	0.02314	0.096189	0.27716	0.16565	0.18219	0.16091	0.19224	0.17176	-1.9479	-2.275	-2.0458	-2.525	-2.175	-2.3875	-2.5625	-2.1833	-2.4708	-2.0458	-2.0729	-2.5396	-2.3625	-2.5563	-2.2417	-2.3042	93.150	-14.909	1.721	295.757	57.314	-7.052	289.299	277.371	-23.768	137.594	300.727	69.052	-34.734	240.876	25.511	231.278	0.00078668	0.00052135	0.0001091	509.49	3.1731e-06	4.2401e-07	767.42	205.04	2.6103e-06	6.2925e-06	357.23	178.04	97.35	48.05	7.2802e-06	93.549	0.00015744	0.00013598	3.7795e-05	487.27	1.4591e-06	1.451e-06	744.61	199.69	1.4755e-06	1.4756e-06	343	121.97	92.107	46.574	1.4876e-06	89.885	18.232	3.773	-2.014	-38.439	63.634	25.945	-38.398	-33.720	82.346	69.454	-34.751	-30.793	-30.985	-26.185	96.259	-27.587	-8191	255	
2312.473	1	1	0	0	0.060564	0.15033	0.20744	0.17248	0.053427	0.049125	0.23734	0.062536	0.1093	0.2455	0.041999	0.26174	0.256	0.20032	0.15449	0.29917	-1.925	-2.3438	-1.9833	-2.4104	-2.1167	-2.3333	-2.7167	-2.0104	-2.2896	-2.3042	-1.9708	-2.375	-2.2729	-2.3042	-2.5	-2.1688	48.495	246.278	8.693	137.137	-31.121	12.869	258.828	45.688	-41.038	201.443	-48.471	-3.306	294.155	272.670	99.986	263.176	0.00081734	0.00062788	0.00010191	503.42	6.7371e-06	3.3581e-06	766.98	205.57	4.0963e-06	5.4066e-06	356.59	178.02	96.126	47.826	5.4371e-06	93.088	0.00015787	0.00013627	3.809e-05	484.89	1.4817e-06	1.4745e-06	744.34	199.74	1.504e-06	1.4546e-06	342.35	121.79	91.345	46.233	1.5002e-06	89.651	21.510	19.345	5.417	-38.087	106.923	79.916	-38.385	-33.613	61.627	98.065	-34.852	-32.211	-30.946	-26.030	81.929	-27.719	-8191	255	
2312.569	1	1	0	0	0.1042	0.13609	0.25762	0.11095	0.24282	0.19993	0.40034	0.16498	0.23254	0.087147	0.21895	0.12091	0.11044	0.3965	0.30413	0.22501	-1.6437	-2.1708	-2.1083	-2.3688	-2.0958	-2.2292	-2.5354	-1.8271	-2.2188	-2.4354	-2.075	-2.3521	-2.1646	-2.2479	-2.3333	-2.0812	9.330	98.871	0.080	0.817	-11.571	194.939	256.151	287.380	-37.088	295.138	-20.913	124.269	209.904	257.718	42.720	291.293	0.00071158	0.00020325	4.715e-05	496.97	4.0775e-06	5.9421e-06	764.24	201.15	7.0455e-06	5.5565e-06	351.44	176.16	94.389	47.539	4.9343e-06	92.793	0.00015585	0.00013246	3.7075e-05	481.47	1.4756e-06	1.4714e-06	739.87	195.65	1.4678e-06	1.4414e-06	337.07	120.3	90.117	46.123	1.4624e-06	89.246	20.437	-4.285	-36.990	-38.359	86.920	61.351	-38.472	-33.772	20.597	82.778	-34.930	-31.053	-30.891	-26.274	113.169	-27.552	-8191	255	
2312.689	1	1	0	0	0.060462	0.18534	0.091854	0.048037	0.37046	0.17123	0.24444	0.087301	0.018963	0.26265	0.20399	0.1901	0.12913	0.12096	0.25461	0.21733	-1.9896	-2.4396	-1.9625	-2.4375	-2.2625	-2.2271	-2.5292	-2.1667	-2.1375	-2.3792	-2.1646	-2.4708	-2.4167	-2.1646	-2.5938	-2.3812	121.512	225.169	-7.855	81.744	208.706	65.793	242.728	190.470	267.440	246.376	113.983	70.634	293.176	-45.596	164.841	220.380	0.00089025	0.00053286	0.00017193	498	3.6285e-06	1.0168e-05	748.45	195.45	2.723e-06	6.3323e-06	343.9	171.79	93.861	47.278	1.6552e-06	92.361	0.00015569	0.00013485	3.6615e-05	477.79	1.425e-06	1.4562e-06	725.41	190.23	1.4726e-06	1.432e-06	330.01	118.32	89.13	45.74	1.4532e-06	88.879	19.666	20.641	47.633	-38.328	98.735	72.928	-38.331	-33.829	151.754	114.416	-34.688	-32.329	-30.973	-26.291	129.724	-27.744	-8191	255	
2312.786	1	1	0	0	0.17041	0.14213	0.20217	0.029155	0.0206	0.01717	0.07875	0.14473	0.26569	0.27398	0.17514	0.1562	0.15853	0.36073	0.19427	0.19613	-1.6417	-2.2979	-1.8521	-2.4042	-2.4062	-2.1354	-2.5583	-2.25	-2.125	-2.4833	-2.1875	-2.3167	-2.3833	-2.15	-2.5167	-2.2854	85.965	13.875	277.505	-7.197	50.936	219.492	145.302	295.439	229.168	79.268	172.709	15.150	79.479	-48.832	83.308	175.851	0.00081279	0.00037545	0.00017862	498.9	3.5021e-06	7.9616e-06	753.54	197.08	8.9901e-06	1.4171e-06	347.71	174.14	93.415	47.293	3.9504e-06	92.372	0.00015406	0.00013088	3.6401e-05	478.76	1.4378e-06	1.4733e-06	728.06	191.96	1.462e-06	1.431e-06	333.3	119.69	89.033	45.691	1.4857e-06	88.729	26.322	-6.320	17.702	-38.236	49.353	71.530	-38.680	-33.726	93.980	145.825	-35.012	-31.047	-31.255	-26.321	135.877	-27.550	-8191	255	
2312.880	1	1	0	0	0.27856	0.13147	0.25023	0.11381	0.20672	0.22445	0.1361	0.10707	0.26044	0.32394	0.11932	0.14537	0.118	0.13872	0.36338	0.2183	-1.7667	-2.3563	-1.8208	-2.3896	-2.3458	-2.0625	-2.5563	-2.4333	-1.9688	-2.625	-2.2771	-2.3771	-2.4938	-1.8563	-2.2417	-2.2896	24.199	285.502	239.944	261.655	209.722	-50.968	66.494	202.772	112.129	126.760	240.797	193.068	101.114	285.725	83.261	187.479	0.00089426	0.00069458	0.00013783	498.21	3.2879e-06	4.6018e-06	751.15	196.96	3.5636e-06	5.1807e-06	346.58	174.59	92.743	46.689	5.0286e-06	91.783	0.00015612	0.00013007	3.6493e-05	476.93	1.4274e-06	1.4056e-06	727.66	190.97	1.4527e-06	1.4414e-06	331.42	118.11	88.006	45.139	1.4439e-06	88.235	23.344	5.563	-14.500	-38.838	83.089	98.480	-38.346	-33.582	44.171	82.313	-34.574	-31.012	-30.905	-26.245	95.287	-27.588	-8191	255	
2312.976	1	1	0	0	0.14681	0.09162	0.19185	0.12119	0.11055	0.14843	0.23865	0.042474	0.08726	0.013305	0.10574	0.33243	0.24763	0.11287	0.099439	0.36295	-1.6875	-2.7458	-2.2146	-2.3458	-2.4479	-2.075	-2.4292	-2.4708	-2.0083	-2.4417	-2.1271	-2.2354	-2.2521	-1.9688	-2.1688	-2.4896	-37.667	289.110	22.238	75.518	189.682	176.021	286.988	202.504	3.836	16.882	66.004	200.405	-41.065	-34.633	200.872	285.195	0.00086303	0.00037988	0.0001349	495	3.9727e-06	6.1701e-06	754.25	197.5	5.2428e-06	3.5706e-06	348.22	177.75	93.614	46.973	4.8628e-06	92.462	0.00015505	0.00013305	3.6247e-05	476.68	1.4177e-06	1.4519e-06	729	191.75	1.4396e-06	1.41e-06	333.48	119.25	88.825	45.449	1.4264e-06	88.771	16.584	-9.748	24.788	-38.475	103.107	73.145	-38.479	-33.836	6.956	66.080	-35.001	-31.663	-30.797	-26.410	29.343	-27.687	-8191	255	
2313.072	1	1	0	0	0.2303	0.039797	0.20237	0.29201	0.18484	0.26007	0.15153	0.39047	0.12265	0.16527	0.25996	0.051853	0.19362	0.092538	0.25959	0.31334	-1.4875	-2.3958	-2.1792	-2.3417	-2.6146	-2.0396	-2.3958	-2.2458	-2.0792	-2.4646	-2.2938	-2.1167	-2.4375	-1.9375	-2.1667	-2.4042	257.940	21.932	146.444	1.760	43.428	83.109	241.024	253.860	-11.629	256.688	293.199	48.893	226.640	-51.402	303.103	277.894	0.00081836	0.00032715	5.7538e-05	499.01	2.9198e-06	4.0612e-06	757.03	199.32	3.379e-06	2.7721e-06	350.77	175.93	93.907	47.094	3.0411e-06	92.32	0.00015442	0.00013084	3.6479e-05	480.14	1.4418e-06	1.4166e-06	733.8	194.46	1.4278e-06	1.4047e-06	336.05	119.18	89.031	45.478	1.4391e-06	88.668	19.747	-5.807	6.171	-38.228	95.595	106.695	-38.500	-33.515	69.769	69.831	-35.084	-31.053	-31.151	-26.308	82.849	-27.839	-8191	255	
2313.168	1	1	0	0	0.11812	0.14198	0.051916	0.36141	0.18285	0.15751	0.30338	0.33346	0.11412	0.032633	0.083592	0.23352	0.16981	0.3073	0.18636	0.23198	-1.3667	-2.4229	-2.2146	-2.2021	-2.4708	-2.1521	-2.4354	-2.5	-2.1083	-2.3771	-2.4125	-2.1771	-2.4917	-2.3312	-2.2667	-2.5792	105.669	216.900	141.074	294.554	233.549	188.845	269.850	254.159	44.108	276.598	46.490	296.795	229.612	305.290	-17.686	227.168	0.00082815	0.0003649	0.00011569	500.94	3.0444e-06	1.0385e-05	752.35	200.56	8.0496e-07	5.0163e-06	348.27	172.72	93.153	46.917	3.0271e-06	91.976	0.00015521	0.00013068	3.6908e-05	478.2	1.4396e-06	1.4696e-06	731.58	194.19	1.4378e-06	1.433e-06	334.76	119.06	88.69	45.311	1.454e-06	88.539	15.534	39.172	-6.838	-38.299	94.524	85.752	-38.545	-33.573	84.031	80.177	-34.558	-31.711	-30.880	-26.251	95.216	-27.515	-8191	255	
2313.265	1	1	0	0	0.1708	0.25569	0.22337	0.10725	0.17986	0.16472	0.24787	0.28635	0.3035	0.17487	0.11462	0.12937	0.22662	0.27099	0.12974	0.22002	-1.7229	-2.4667	-2.3063	-1.8167	-2.3958	-2.0312	-2.2062	-2.4458	-2.025	-2.425	-2.2125	-1.925	-2.4833	-2.2021	-2.1688	-2.6292	292.788	288.351	284.481	237.521	245.928	227.378	216.845	216.478	-2.575	-22.979	123.414	-35.311	261.119	259.690	153.501	197.103	0.00071144	0.00037383	0.00013069	497.86	3.7363e-06	7.0365e-06	754.56	198.28	5.7378e-06	2.2933e-06	349.13	173.31	93.222	46.815	4.9383e-06	91.836	0.0001554	0.00012905	3.7028e-05	478.29	1.4047e-06	1.4152e-06	730.77	192.63	1.4352e-06	1.4373e-06	334.51	118.39	88.363	45.156	1.4512e-06	88.337	14.760	7.156	63.432	-37.664	80.978	103.135	-38.148	-33.601	82.270	56.223	-34.690	-31.748	-31.568	-26.121	93.476	-27.702	-8191	255	
2313.361	1	1	0	0	0.095874	0.15127	0.17099	0.15584	0.038146	0.20277	0.22119	0.23298	0.13364	0.14471	0.17449	0.19032	0.30823	0.05426	0.11988	0.20393	-1.4792	-2.4083	-2.2125	-1.9562	-2.4271	-2.1646	-2.1896	-2.4208	-2.1375	-2.3771	-2.4104	-1.8958	-2.3771	-2.3	-2.1458	-2.675	252.933	15.714	299.213	238.603	274.288	48.715	269.891	192.696	240.776	-27.526	263.851	55.392	261.157	114.596	83.165	203.911	0.00081813	0.00020758	6.5627e-05	496.83	5.9614e-06	5.1014e-06	756.48	198.82	3.6316e-06	4.2558e-06	345.95	170.19	91.459	45.77	3.9241e-06	90.594	0.00015226	0.00012856	3.6953e-05	477.81	1.4012e-06	1.4025e-06	731.19	193.63	1.4184e-06	1.4128e-06	332.98	116.26	86.669	44.407	1.4432e-06	87.174	23.387	74.465	9.330	-37.788	101.665	91.741	-38.312	-33.920	102.776	70.758	-34.702	-31.858	-31.022	-26.318	32.663	-27.571	-8191	255	
2313.481	1	1	0	0	0.27936	0.24975	0.36313	0.18967	0.06797	0.27866	0.088165	0.18594	0.14334	0.40758	0.35354	0.013487	0.15552	0.092526	0.1339	0.22336	-1.4188	-2.2042	-2.4271	-1.9542	-2.3875	-2.1396	-2.1979	-2.5604	-2.1271	-2.2958	-2.6292	-1.8813	-2.3	-2.4167	-1.9979	-2.6229	83.988	195.074	179.449	68.684	-42.237	297.768	286.789	-48.821	52.792	10.213	234.368	275.433	200.967	281.153	21.102	236.838	0.00084617	0.00032615	0.00014336	496.02	3.3748e-06	3.1472e-06	743.3	196.16	6.4536e-06	3.3831e-06	342.9	169.51	89.031	44.889	3.4208e-06	89.844	0.00015319	0.00012777	3.5256e-05	476.06	1.3918e-06	1.371e-06	722.02	190.74	1.4042e-06	1.401e-06	328.39	115.01	84.439	43.534	1.416e-06	86.121	21.027	31.404	64.622	-37.641	60.389	160.498	-38.540	-33.803	17.192	114.133	-35.017	-31.452	-30.887	-26.320	103.956	-27.501	-8191	255	
2313.577	1	1	0	0	0.17379	0.14541	0.057851	0.17232	0.17207	0.25914	0.26573	0.15225	0.076536	0.11481	0.22152	0.1106	0.21869	0.28553	0.029734	0.26169	-1.7729	-2.1167	-2.3958	-2.025	-2.2542	-2.3271	-2.0625	-2.3854	-2.0083	-2.1375	-2.5062	-2.0375	-2.4583	-2.4875	-1.9729	-2.6375	246.563	193.935	239.347	-0.848	88.637	23.402	220.532	20.156	6.915	102.363	203.347	132.899	281.419	306.545	-39.180	252.297	0.00076413	0.00042046	1.9727e-05	491.91	2.4362e-06	6.8658e-06	742.73	194.2	8.6435e-07	3.4267e-06	341.2	170.22	88.693	45.33	6.0921e-06	90.259	0.00015066	0.00012706	3.4494e-05	471.39	1.3765e-06	1.4029e-06	719.47	188.77	1.4098e-06	1.4002e-06	327.86	115.67	84.732	43.811	1.4272e-06	86.936	31.124	-2.584	70.033	-38.513	67.680	73.731	-38.308	-34.013	58.655	67.674	-34.550	-31.791	-30.777	-26.332	77.025	-27.352	-8191	255	
2313.649	1	1	0	0	0.1196	0.26782	0.17173	0.11944	0.19481	0.11826	0.1718	0.18831	0.14035	0.27731	0.047441	0.22244	0.34282	0.095716	0.19754	0.35707	-1.6354	-2.0458	-2.5417	-2.0146	-2.1417	-2.4646	-2.2896	-2.5042	-2.1396	-2.0021	-2.5729	-2.0896	-2.3937	-2.4625	-1.9729	-2.5917	22.531	133.494	261.700	171.727	-32.570	115.167	195.923	287.298	175.056	182.736	233.204	280.278	178.372	39.269	185.194	273.055	0.00077652	0.00049397	4.924e-05	496.91	2.6833e-06	6.4895e-06	744.36	193.37	3.1537e-06	3.8182e-06	339.77	167.2	89.939	45.3	5.9205e-06	90.551	0.00015093	0.00012928	3.4962e-05	472.35	1.4026e-06	1.3925e-06	720.31	187.97	1.3977e-06	1.4146e-06	326.69	115.01	85.205	43.952	1.4293e-06	86.86	12.131	-22.248	18.440	-38.209	118.909	88.057	-38.432	-33.645	6.056	84.594	-35.166	-31.262	-31.066	-26.309	76.682	-27.590	-8191	255	
2313.770	1	1	0	0	0.23947	0.14502	0.1394	0.10933	0.29397	0.14404	0.23699	0.29472	0.18818	0.13698	0.14917	0.33689	0.1514	0.14073	0.19064	0.27673	-1.7208	-1.8958	-2.3979	-2.1958	-2.3521	-2.4479	-2.1229	-2.475	-2.3354	-2.2104	-2.4729	-1.9521	-2.1188	-2.4813	-2.0792	-2.5833	77.400	198.200	87.263	132.532	242.844	168.869	155.324	41.834	151.694	284.831	196.686	247.287	289.471	29.320	23.340	293.457	0.00082796	0.00029217	0.00013772	484.21	5.1912e-06	7.0904e-06	739.76	193.67	4.5741e-06	2.0536e-06	339.48	168.63	89.543	45.274	4.7964e-06	90.463	0.00015041	0.00012889	3.4972e-05	467.91	1.4203e-06	1.3849e-06	718.56	187.9	1.3814e-06	1.3979e-06	327.05	115.13	85.013	43.8	1.4072e-06	86.599	22.026	308.119	-14.385	-38.484	61.016	43.752	-38.584	-33.696	47.667	55.803	-34.916	-31.707	-31.316	-26.314	106.403	-27.531	-8191	255	
2313.864	1	1	0	0	0.075524	0.20911	0.035774	0.11504	0.13889	0.032381	0.24905	0.32337	0.14417	0.11318	0.16419	0.25071	0.11277	0.16648	0.1398	0.57859	-1.8021	-2.0667	-2.4979	-2.1229	-2.1021	-2.3604	-2.0792	-2.4167	-2.1896	-1.875	-2.4917	-2.1375	-2.0104	-2.5875	-2.1125	-2.2771	121.542	234.119	224.461	24.595	54.878	-0.011	212.957	238.500	100.148	259.132	225.955	-31.458	282.135	-49.133	62.034	222.760	0.00068858	0.00018233	0.00013912	490.83	4.4458e-06	7.3366e-06	736.86	192.91	3.9967e-06	4.6653e-06	342.48	167.67	90.109	45.617	6.1024e-06	90.654	0.00014939	0.00012734	3.524e-05	467.83	1.3624e-06	1.397e-06	717.19	187.55	1.3938e-06	1.3989e-06	328.54	115.67	85.317	43.953	1.422e-06	87.051	14.441	60.309	6.482	-38.918	79.209	80.307	-38.406	-33.811	42.977	92.116	-34.895	-31.391	-31.171	-26.412	59.554	-27.336	-8191	255	
2313.960	1	1	0	0	0.1301	0.038818	0.39412	0.21816	0.20595	0.13262	0.060269	0.13087	0.04127	0.11468	0.36706	0.2298	0.086806	0.1941	0.1603	0.4337	-1.8896	-2.0271	-2.2833	-2.2729	-2.0958	-2.6396	-2.0896	-2.2687	-2.3646	-2.1896	-2.3937	-2.0667	-2.1333	-2.5062	-2.1167	-2.3312	30.618	21.325	282.408	229.169	187.916	109.776	269.132	58.231	-1.346	166.674	307.293	225.114	261.163	262.649	282.971	196.666	0.0008408	0.000804	0.00010812	487.26	3.0035e-06	9.2799e-06	745.69	194.68	4.0694e-06	8.6057e-06	344.73	170.42	90.998	45.893	2.7316e-06	90.983	0.00014778	0.00012942	3.5157e-05	468.96	1.3844e-06	1.3773e-06	723.81	189.68	1.3613e-06	1.4209e-06	330.38	116.16	85.869	44.159	1.4119e-06	87.595	25.495	16.403	63.121	-38.431	85.777	98.980	-38.664	-33.413	66.686	64.536	-34.605	-30.280	-31.076	-26.232	112.085	-27.601	-8191	255	
2314.056	1	1	0	0	0.057219	0.29043	0.19635	0.29519	0.088555	0.046695	0.22954	0.21484	0.18832	0.30096	0.092733	0.22173	0.14143	0.16986	0.16637	0.25696	-1.8917	-2.0146	-2.3771	-2.3042	-2.075	-2.4292	-2.1625	-2.3312	-2.4875	-1.9917	-2.45	-2.2146	-2.1792	-2.6479	-2.1625	-2.3	197.618	296.607	104.040	269.436	-17.292	14.738	163.368	245.080	-42.252	-48.884	-40.373	48.172	141.739	292.257	216.212	275.137	0.00074089	0.00042453	9.821e-05	490.34	2.9621e-06	7.2568e-06	747.59	196.26	2.78e-06	5.9071e-06	343.68	171.2	90.407	45.754	2.9165e-06	90.519	0.00014916	0.00012628	3.4997e-05	472.14	1.3897e-06	1.3689e-06	724.63	190.18	1.3999e-06	1.3804e-06	330.72	116.23	86.002	44.261	1.4009e-06	87.313	26.652	19.215	32.035	-38.249	96.204	114.984	-38.500	-33.734	10.185	117.178	-34.634	-32.497	-30.991	-26.082	55.613	-27.588	-8191	255	
2314.177	1	1	0	0	0.28503	0.16258	0.13391	0.13382	0.10242	0.29365	0.23337	0.037454	0.20547	0.1149	0.19051	0.11461	0.28456	0.48628	0.080167	0.19831	-2.1833	-1.8687	-2.2021	-2.3708	-2.0417	-2.6021	-2.4083	-2.1958	-2.3625	-1.9292	-2.2229	-2.3583	-2.0229	-2.3354	-2.1229	-2.3438	137.087	193.174	15.671	227.527	224.018	203.752	-22.422	269.725	45.998	55.567	275.725	130.937	-22.139	267.481	192.365	271.680	0.00082014	0.00065375	0.00010043	497.62	4.9961e-06	3.7834e-06	746.18	195.04	5.7756e-06	2.9971e-06	344.36	169.05	90.851	45.845	4.2396e-06	91.309	0.00015153	0.00012631	3.422e-05	472.45	1.3513e-06	1.3552e-06	722.05	189.81	1.3995e-06	1.3617e-06	331.04	116.2	86.409	44.371	1.4251e-06	87.706	20.213	-35.766	0.018	-38.313	61.086	112.627	-38.419	-33.760	39.497	86.184	-34.615	-32.024	-31.167	-26.439	98.515	-27.458	-8191	255	
2314.273	1	1	0	0	0.094235	0.13383	0.1666	0.03938	0.11135	0.1704	0.30483	0.2205	0.34179	0.18455	0.20814	0.1401	0.15301	0.11867	0.13807	0.42967	-2.1437	-2.0938	-2.1	-2.3979	-1.9604	-2.3	-2.3271	-2.0604	-2.4979	-2.1125	-2.2708	-2.2333	-1.95	-2.3854	-2.2375	-2.1604	37.768	129.160	137.774	7.550	10.496	205.502	-20.677	299.290	-48.132	238.495	262.482	224.142	267.878	270.670	165.730	-32.189	0.00083066	0.00066743	6.7906e-05	494.88	4.3303e-07	8.5493e-06	743.75	195.62	5.0863e-06	8.2414e-06	343.23	171.59	90.037	45.621	1.8119e-06	91.769	0.00014936	0.00012654	3.5e-05	469.46	1.3654e-06	1.3674e-06	723.47	190.52	1.3972e-06	1.3721e-06	329.76	115.95	85.667	44.231	1.399e-06	87.861	22.391	28.204	28.082	-38.399	-19.111	81.566	-38.465	-33.861	69.839	114.260	-34.691	-30.732	-31.316	-26.226	49.714	-27.713	-8191	255	
2314.369	1	1	0	0	0.30017	0.078792	0.34685	0.26056	0.14974	0.1306	0.23617	0.23106	0.1696	0.16184	0.088872	0.10505	0.06855	0.1006	0.21708	0.20783	-2.0625	-2.0771	-2.1896	-2.4813	-2.1188	-2.2646	-2.2958	-2.1417	-2.5125	-2.2146	-2.3937	-2.3896	-2.0958	-2.4667	-2.3083	-2.2083	123.067	107.506	213.373	229.630	-45.619	91.209	-50.764	236.194	279.323	-3.454	223.268	-11.464	181.998	-47.016	63.879	-12.138	0.00088121	0.00037015	0.00013691	488.59	3.1542e-06	4.3293e-06	736.59	191.36	4.5041e-06	6.0022e-06	338.62	166.2	87.941	44.809	2.8247e-06	89.753	0.00014917	0.0001289	3.5268e-05	468.56	1.3472e-06	1.3663e-06	715.43	185.83	1.3832e-06	1.3867e-06	324.42	113.99	83.483	43.269	1.3585e-06	86.265	16.714	-21.935	21.768	-38.518	54.289	47.883	-38.454	-33.787	97.452	85.118	-34.555	-33.015	-31.178	-26.234	53.040	-27.619	-8191	255	
2314.466	1	1	0	0	0.19108	0.26803	0.36423	0.21463	0.16214	0.26133	0.26855	0.063822	0.11289	0.035138	0.27479	0.26755	0.21923	0.10485	0.28955	0.078409	-1.8583	-2.1375	-2.0229	-2.4521	-2.05	-2.5167	-2.4854	-1.9125	-2.4792	-2.325	-2.1583	-2.4625	-2.0917	-2.4313	-2.3417	-1.9562	49.486	270.678	262.676	-7.197	280.926	256.914	298.404	159.110	9.011	-26.676	306.930	287.695	190.146	214.742	45.483	240.775	0.0009146	0.00034602	8.7752e-05	485.29	4.3224e-06	6.3215e-06	733.5	190.53	2.8823e-06	4.2569e-06	337.63	166.85	87.472	44.59	2.7264e-06	89.675	0.00014654	0.00012596	3.4565e-05	464.64	1.3719e-06	1.3316e-06	711.23	185.11	1.3627e-06	1.3537e-06	324.66	113.38	83.375	43.094	1.3742e-06	86.078	19.281	-26.253	2.030	-38.063	56.492	99.057	-38.418	-33.662	-50.229	62.601	-34.616	-31.292	-30.911	-26.289	71.385	-27.642	-8191	255	
2314.562	1	1	0	0	0.22173	0.1507	0.22019	0.16403	0.17298	0.30574	0.15084	0.037377	0.15463	0.24667	0.18198	0.18354	0.08153	0.32017	0.15196	0.3206	-1.8542	-2.2125	-1.8687	-2.3604	-2.1354	-2.3396	-2.4354	-1.9917	-2.4479	-2.0229	-1.9667	-2.3167	-2.1167	-2.2062	-2.4208	-2.1688	283.337	160.120	146.801	304.611	212.221	135.924	285.295	-0.542	92.416	-13.443	-9.245	296.016	44.253	231.170	134.948	299.561	0.00073191	0.00012238	8.5197e-05	484.41	5.7543e-06	6.0377e-06	729.71	188.37	1.1428e-06	1.1845e-06	336.23	164.34	87.196	44.619	2.1911e-06	89.598	0.00014564	0.00012303	3.4091e-05	462.94	1.3384e-06	1.3353e-06	708.17	183.38	1.3419e-06	1.3217e-06	322.88	114.09	82.932	43.028	1.3658e-06	86.062	19.738	290.171	28.900	-38.206	63.212	35.784	-38.215	-33.430	163.930	37.675	-34.776	-32.041	-31.134	-26.311	15.930	-27.745	-8191	255	
2314.658	1	1	0	0	0.3046	0.099365	0.035885	0.18169	0.13647	0.097761	0.045173	0.12002	0.2434	0.20474	0.1293	0.23933	0.33476	0.23277	0.24187	0.27544	-1.9604	-2.0938	-1.8125	-2.3771	-2.1729	-2.1604	-2.3521	-2.1437	-2.2083	-2.4062	-2.2271	-2.2625	-2.3187	-2.2771	-2.4354	-2.275	77.306	247.365	-50.042	73.229	226.389	203.233	241.792	-32.506	260.554	268.251	258.133	-28.871	294.365	-29.400	181.851	281.693	0.00079841	0.00022031	6.224e-05	480.08	4.9989e-06	7.3955e-06	728.52	189.4	4.9551e-06	4.0881e-06	336.88	168.61	87.346	44.569	4.3781e-06	89.993	0.00014313	0.0001229	3.3887e-05	462.22	1.3415e-06	1.3552e-06	707.92	183.42	1.3653e-06	1.3406e-06	322.54	113.82	82.718	43.087	1.386e-06	86.407	13.095	-34.811	57.562	-37.684	108.034	78.604	-38.304	-33.863	53.923	26.881	-34.590	-31.495	-31.105	-26.465	100.399	-27.620	-8191	255	
2314.777	1	1	0	0	0.067801	0.28321	0.17119	0.089157	0.16887	0.30565	0.056889	0.25363	0.20271	0.34467	0.16893	0.12592	0.12462	0.32519	0.22489	0.31659	-1.875	-2.4562	-1.9771	-2.4917	-2.1	-1.9979	-2.3896	-2.2188	-2.2521	-2.7292	-2.15	-2.2167	-2.3792	-2.2271	-2.6479	-2.5187	300.539	185.415	294.359	232.551	67.510	244.216	263.293	245.378	45.339	305.931	190.906	144.171	14.307	246.598	275.007	270.280	0.0007724	0.00030603	4.7934e-05	481.72	2.143e-06	6.2791e-06	734.44	188.51	6.4906e-06	5.2972e-06	336.3	168.11	87.44	44.482	7.3079e-06	89.953	0.00014637	0.00012436	3.4117e-05	463.31	1.3385e-06	1.3353e-06	711.06	183.88	1.3436e-06	1.3159e-06	322.55	113.9	82.935	43.152	1.3578e-06	86.362	25.603	-35.897	45.944	-38.187	72.301	65.729	-38.176	-33.632	2.027	112.929	-34.803	-31.632	-30.991	-26.174	65.272	-27.514	-8191	255	
2314.873	1	1	0	0	0.23219	0.33249	0.039726	0.10898	0.055406	0.063232	0.11034	0.085978	0.097856	0.049097	0.3261	0.17561	0.25816	0.091735	0.21731	0.065457	-1.8083	-2.3771	-1.9813	-2.3375	-2.4646	-2.2708	-2.4542	-2.2625	-2.2417	-2.4292	-2.0938	-2.3688	-2.3333	-2.2083	-2.3625	-2.4	-35.370	171.239	279.166	264.830	268.227	83.569	160.978	253.192	229.717	41.710	182.353	90.495	188.120	258.405	203.230	223.131	0.00078928	0.00058734	0.00011934	486.13	3.8709e-06	2.6845e-06	728.72	190.5	3.4926e-06	1.6328e-06	337.89	165.19	86.907	44.44	6.2062e-06	89.629	0.00014311	0.00012064	3.4322e-05	463.78	1.3685e-06	1.3317e-06	710.39	184.77	1.3321e-06	1.3507e-06	324.44	113.46	82.806	42.933	1.3642e-06	85.896	15.526	-5.356	36.323	-38.137	35.007	67.620	-38.559	-33.554	26.173	-18.286	-34.819	-31.529	-31.276	-26.418	18.432	-27.341	-8191	255	
2314.945	1	1	0	0	0.29059	0.12273	0.23112	0.36866	0.22499	0.17207	0.16241	0.19603	0.27702	0.15296	0.061096	0.1721	0.19157	0.063069	0.13557	0.12357	-1.8521	-2.3917	-2.0125	-2.2375	-2.4083	-2.0146	-2.5208	-2.3312	-2.025	-2.575	-2.1729	-2.2583	-2.3229	-2.1396	-2.3854	-2.4917	282.778	33.737	117.900	267.443	123.919	240.221	256.976	184.347	109.751	3.057	-4.202	99.365	109.837	199.296	41.912	72.874	0.00076473	0.0004177	4.6897e-05	483.51	3.7029e-06	2.8882e-06	732.32	189.9	6.5026e-06	4.3891e-06	339.91	169.03	86.489	44.395	3.2881e-06	89.389	0.00014233	0.00011925	3.2871e-05	461.32	1.3405e-06	1.3155e-06	710.25	183.99	1.3269e-06	1.318e-06	325.73	113.2	82.535	42.829	1.3544e-06	85.968	16.621	18.289	-5.352	-38.019	82.631	164.974	-38.550	-33.736	49.831	91.325	-34.656	-30.739	-31.274	-26.111	126.576	-27.475	-8191	255	
2315.041	1	1	0	0	0.085495	0.2238	0.13709	0.17488	0.049216	0.18532	0.29438	0.19774	0.055837	0.18528	0.11644	0.078294	0.32169	0.2625	0.072603	0.20158	-1.5854	-2.4458	-1.9813	-2.1708	-2.4542	-1.9604	-2.3563	-2.3708	-1.8312	-2.5958	-2.0708	-2.4292	-2.4167	-1.9854	-2.15	-2.5917	246.590	138.002	288.998	307.036	248.136	269.004	267.537	281.133	223.830	95.181	210.123	78.021	12.040	144.532	91.521	204.293	0.0007989	0.00053801	0.00011694	481.99	1.9831e-06	7.2912e-06	734.95	190.14	2.2623e-06	3.0438e-06	337.31	164.79	85.978	43.818	3.0169e-06	88.894	0.00014208	0.00012198	3.4066e-05	462.49	1.3109e-06	1.326e-06	712.62	184.52	1.3404e-06	1.2942e-06	324.97	112.36	81.565	42.231	1.329e-06	85.125	17.582	25.008	12.986	-38.148	159.321	73.472	-38.458	-33.864	171.600	98.991	-34.991	-32.072	-31.129	-26.152	58.303	-27.298	-8191	255	
2315.139	1	1	0	0	0.039	0.098548	0.17299	0.13024	0.1293	0.11557	0.15	0.18774	0.14075	0.068435	0.17643	0.17202	0.12589	0.30214	0.35699	0.21758	-1.3937	-2.2458	-2.0875	-2.0208	-2.3688	-2.1417	-2.3625	-2.3396	-2.1354	-2.4604	-2.2583	-2.2938	-2.4958	-2.0646	-2.2188	-2.5	168.414	198.575	101.189	280.075	290.350	75.325	184.941	290.508	67.430	221.637	51.527	27.792	285.216	228.812	27.745	-46.508	0.00075764	0.00031993	0.00017629	479.75	4.0971e-06	7.3404e-06	725.1	184.94	7.7779e-06	3.4759e-06	327.44	159.42	82.425	42.621	4.9152e-06	86.746	0.00014368	0.00012121	3.3261e-05	458.37	1.3098e-06	1.3193e-06	701.86	179.34	1.3054e-06	1.2723e-06	314.71	108.84	78.628	41.205	1.3315e-06	83.425	17.495	-3.385	39.464	-38.487	91.335	73.285	-38.591	-33.837	2.548	89.864	-34.950	-30.966	-30.776	-26.361	44.989	-27.466	-8191	255	
2315.257	1	1	0	0	0.16754	0.18119	0.28733	0.076829	0.20567	0.078175	0.19135	0.052386	0.18045	0.27491	0.084865	0.29435	0.22131	0.22472	0.13612	0.097683	-1.4146	-2.3271	-2.2229	-1.9875	-2.55	-2.1542	-2.25	-2.5208	-1.9958	-2.4792	-2.2729	-1.8729	-2.5375	-2.0396	-2.1625	-2.5	8.636	16.102	230.582	287.575	178.972	188.876	267.445	-48.755	200.819	270.692	121.267	128.896	278.038	-47.224	163.595	-43.825	0.00084796	0.00034836	3.0842e-05	475.95	3.9064e-06	3.5924e-06	715.97	181.78	9.3475e-06	7.0416e-06	324.2	162.83	82.67	42.41	1.415e-06	86.958	0.00013695	0.00011645	3.2384e-05	453.48	1.2648e-06	1.2853e-06	694.16	175.86	1.2899e-06	1.286e-06	311.48	108.98	78.552	41.045	1.2644e-06	83.358	14.185	49.148	61.793	-38.531	78.379	155.868	-38.364	-33.951	5.726	69.254	-34.633	-30.497	-30.907	-26.302	87.056	-27.639	-8191	255	
2315.354	1	1	0	0	0.32697	0.07592	0.065927	0.15654	0.21303	0.20275	0.2128	0.16591	0.13973	0.18895	0.10376	0.039458	0.016375	0.1881	0.057287	0.2413	-1.5562	-2.4375	-2.2229	-2.0646	-2.5833	-2.2771	-2.4146	-2.6375	-2.1458	-2.4208	-2.3792	-2.0312	-2.6208	-2.2229	-2.0521	-2.6229	44.510	80.148	92.054	280.547	285.992	210.756	254.991	155.368	69.755	225.332	171.941	73.364	24.430	-43.972	31.383	215.921	0.00074698	0.00069282	2.0518e-06	472.13	3.243e-06	3.2141e-06	713.57	181.48	5.6024e-06	4.005e-06	326.66	158.57	82.75	42.596	4.8228e-06	86.934	0.00013916	0.00011502	3.1958e-05	453.29	1.2653e-06	1.2786e-06	694.89	176.21	1.2615e-06	1.2445e-06	313.5	108.83	78.703	41.135	1.3081e-06	83.426	22.548	23.506	-44.765	-38.370	72.174	81.760	-38.486	-33.660	47.329	73.722	-34.807	-31.776	-30.846	-26.225	89.813	-27.468	-8191	255	
2315.450	1	1	0	0	0.10773	0.22875	0.28998	0.19743	0.23578	0.13581	0.050965	0.15309	0.27657	0.22951	0.14287	0.049297	0.19338	0.19218	0.07173	0.22905	-1.6125	-2.2292	-2.3167	-2.0521	-2.5187	-2.2896	-2.4458	-2.3937	-2.0104	-2.3833	-2.4667	-2.0292	-2.5729	-2.4271	-2.1229	-2.5604	69.397	179.708	98.947	245.091	21.426	132.155	50.880	171.638	258.196	88.228	-17.337	78.799	287.596	-6.635	216.018	244.886	0.00083046	0.0003252	0.00011647	472.1	3.1517e-06	4.8858e-06	717.11	182.11	8.0268e-06	4.8636e-06	325.27	163.2	83.377	42.535	1.5925e-06	86.438	0.00014244	0.00011661	3.2816e-05	455	1.2618e-06	1.2773e-06	696.58	176.48	1.297e-06	1.2731e-06	313.05	109.58	78.819	40.981	1.2926e-06	83.25	23.504	-15.862	-1.002	-38.718	92.356	97.851	-38.372	-34.052	44.058	73.568	-34.946	-31.229	-30.821	-26.410	118.623	-27.651	-8191	255	
2315.569	1	1	0	0	0.083617	0.17974	0.31909	0.18288	0.1507	0.28994	0.077075	0.398	0.099018	0.35421	0.16304	0.06771	0.01714	0.21161	0.14176	0.070452	-1.6979	-2.3	-2.3	-1.9875	-2.3167	-2.3625	-2.2625	-2.4271	-2.1125	-2.2854	-2.7	-1.9583	-2.575	-2.3333	-2.2396	-2.7021	-21.857	-6.245	163.976	290.592	21.265	224.768	51.936	-33.878	250.995	187.231	34.888	-27.285	194.402	-21.949	279.585	-13.026	0.00079035	0.00041293	6.4186e-05	473.43	4.7954e-06	4.1657e-06	720.58	183.25	9.6415e-07	8.9611e-06	328.46	159.67	83.453	42.49	4.9928e-06	87.421	0.0001404	0.00011747	3.317e-05	454.78	1.2903e-06	1.2755e-06	697.59	178.17	1.2927e-06	1.2686e-06	314.5	108.99	79.112	41.185	1.2999e-06	83.696	12.869	-1.261	-3.232	-38.579	103.094	79.276	-38.357	-33.912	43.102	80.724	-35.100	-32.010	-31.069	-26.467	106.498	-27.639	-8191	255	
2315.642	1	1	0	0	0.22173	0.11797	0.15978	0.1504	0.15865	0.099149	0.40044	0.17213	0.062029	0.13697	0.19581	0.24185	0.097413	0.046102	0.12492	0.099625	-1.7	-2.2438	-2.3625	-1.8417	-2.3167	-2.3604	-2.2646	-2.6875	-2.1208	-2.2687	-2.75	-2.0271	-2.4	-2.4375	-1.9542	-2.725	-2.021	182.014	227.507	91.812	221.000	224.453	207.300	27.137	50.104	-20.759	272.415	256.657	130.755	12.093	33.647	235.783	0.00073933	0.00045087	9.081e-05	482.24	4.8931e-06	5.7244e-06	728.1	187.41	3.722e-06	3.1382e-06	335.01	161.77	85.839	43.327	2.4856e-06	88.164	0.00013936	0.00011605	3.2461e-05	457.19	1.2879e-06	1.2797e-06	705.28	181.88	1.289e-06	1.2816e-06	321.74	110.92	81.288	41.873	1.3172e-06	84.677	22.383	55.869	-40.989	-38.321	70.062	42.101	-38.544	-33.838	58.098	130.825	-35.114	-32.255	-31.583	-26.481	136.138	-27.494	-8191	255	
2315.738	1	1	0	0	0.2847	0.10982	0.029909	0.37447	0.23198	0.14031	0.336	0.064132	0.33451	0.042659	0.12441	0.2265	0.097527	0.25408	0.21129	0.12218	-1.6271	-2.2	-2.5563	-1.9937	-2.1688	-2.2313	-1.8417	-2.4562	-2.2604	-2.3354	-2.5563	-2.1813	-2.4313	-2.3604	-2.025	-2.5333	69.287	99.703	284.076	2.996	2.240	82.452	1.236	249.548	297.800	57.391	6.625	242.963	-43.212	155.045	33.958	254.630	0.00076145	0.00056961	0.00014297	479.32	4.6359e-06	8.7781e-06	738.73	189.21	4.727e-06	5.2783e-06	338.51	166.19	86.059	43.52	4.0175e-06	88.826	0.00013933	0.000118	3.3859e-05	461.85	1.3191e-06	1.2954e-06	710.33	183.92	1.3088e-06	1.2888e-06	324.89	112.4	81.591	42.1	1.3268e-06	85.307	15.931	-17.894	-14.249	-38.117	76.478	99.846	-38.628	-33.917	-33.692	25.166	-34.884	-30.341	-31.041	-26.245	81.660	-27.743	-8191	255	
2315.859	1	1	0	0	0.22055	0.14185	0.09844	0.14912	0.12588	0.16013	0.10611	0.08819	0.17819	0.06496	0.12293	0.22678	0.12321	0.1717	0.27397	0.2102	-1.7104	-2.125	-2.4125	-1.975	-2.3667	-2.4167	-1.9604	-2.4042	-2.1792	-1.8687	-2.4542	-2.1146	-2.2021	-2.7062	-2.0229	-2.5958	2.372	154.722	184.714	288.094	173.548	223.549	211.369	226.480	12.282	90.501	-37.957	33.799	-26.095	151.296	201.606	284.539	0.0007198	0.00028342	3.223e-05	484.43	7.0957e-07	3.6819e-06	735.09	190.24	7.8705e-06	5.6349e-06	338.34	165.83	87.083	43.747	6.7563e-06	89.399	0.00014313	0.00012156	3.2457e-05	462.68	1.2996e-06	1.2947e-06	712.15	185.04	1.3245e-06	1.31e-06	324.98	113.01	82.38	42.365	1.3405e-06	85.683	18.886	0.315	45.181	-38.850	72.316	101.834	-38.351	-33.703	47.020	86.335	-34.977	-30.778	-31.107	-26.533	62.423	-27.557	-8191	255	
2315.953	1	1	0	0	0.4644	0.095495	0.31597	0.15312	0.13783	0.25414	0.11472	0.02499	0.10888	0.076328	0.2261	0.1694	0.24952	0.084354	0.058418	0.32501	-1.8146	-2.1271	-2.5104	-2.2833	-2.3937	-2.5771	-2.1542	-2.5417	-2.3104	-2.0333	-2.4646	-2.3292	-2.3604	-2.475	-1.8125	-2.4792	12.650	307.389	102.982	195.063	-17.145	139.016	16.738	189.293	161.814	307.312	264.054	126.776	278.102	214.029	57.474	251.266	0.00072048	0.00047869	1.4875e-05	489.04	5.5906e-06	3.8218e-06	743.6	191.48	3.7134e-06	2.5019e-06	340.23	166.47	87.978	44.21	3.1758e-06	89.634	0.00014148	0.0001195	3.3259e-05	466.05	1.3367e-06	1.3052e-06	717.15	186.18	1.3175e-06	1.3296e-06	326.25	113.01	83.185	42.741	1.3472e-06	86.198	26.796	3.393	282.496	-38.393	111.912	167.632	-38.100	-33.884	63.194	91.778	-34.711	-32.008	-31.076	-26.438	71.388	-27.513	-8191	255	
2316.049	1	1	0	0	0.19053	0.2639	0.2249	0.10857	0.19413	0.13632	0.22746	0.21176	0.31158	0.17029	0.26085	0.12549	0.24318	0.24575	0.094617	0.2482	-1.9354	-2.0729	-2.5625	-2.1188	-2.15	-2.5229	-2.2458	-2.3979	-2.3896	-2.1854	-2.5187	-2.2938	-2.0833	-2.7229	-2.2229	-2.2833	97.218	46.572	127.237	11.481	95.188	186.837	164.021	-29.447	184.212	197.077	249.085	161.536	-43.853	294.618	282.602	280.671	0.00079924	0.0004986	6.3067e-05	487.43	2.2529e-06	1.0807e-06	736.5	190.72	4.1111e-06	3.2809e-06	340.99	166.22	88.156	44.334	2.7398e-06	89.732	0.0001429	0.00012327	3.413e-05	464.84	1.3311e-06	1.3154e-06	714.9	185.65	1.3639e-06	1.301e-06	326.54	113.57	83.195	42.914	1.3407e-06	86.325	23.060	77.896	-36.663	-38.968	57.802	141.320	-38.320	-33.865	5.790	90.574	-35.182	-31.738	-31.190	-26.321	115.955	-27.579	-8191	255	
2316.170	1	1	0	0	0.12012	0.17347	0.039654	0.1736	0.058764	0.15315	0.14766	0.35359	0.11759	0.20288	0.22001	0.1833	0.19652	0.050659	0.085866	0.35848	-1.8833	-1.9708	-2.2458	-2.4083	-2.1792	-2.4729	-2.2771	-2.3104	-2.4062	-2.075	-2.4	-2.2792	-1.975	-2.575	-2.3125	-2.2208	86.867	38.948	251.357	54.738	6.972	116.530	209.729	155.318	62.318	244.942	239.543	255.900	39.508	202.961	274.410	265.164	0.00082083	0.00048765	9.5417e-05	480.65	4.1992e-06	6.2955e-06	726.49	186.33	5.6418e-06	2.0588e-06	335.15	166.79	86.55	44.155	8.1246e-06	89.606	0.00014259	0.00012074	3.3443e-05	459.86	1.3532e-06	1.2934e-06	706.55	180.06	1.2967e-06	1.2976e-06	321.24	112.17	81.887	42.543	1.3339e-06	86.208	26.498	4.532	61.775	-38.267	25.085	81.890	-38.556	-33.764	50.140	84.143	-35.088	-30.573	-31.316	-26.449	80.336	-27.542	-8191	255	
2316.242	1	1	0	0	0.057744	0.086717	0.28264	0.29044	0.025924	0.17272	0.13103	0.16275	0.20815	0.17156	0.29406	0.11293	0.16975	0.37326	0.18792	0.28819	-1.9813	-2.0625	-2.5167	-2.3458	-1.9458	-2.475	-2.3417	-2.1688	-2.4729	-2.0458	-2.325	-2.525	-2.1729	-2.6917	-2.2896	-2.3187	-37.977	122.998	26.830	13.499	219.749	-6.457	154.222	233.705	31.760	120.264	0.604	53.668	39.408	216.894	104.878	296.798	0.00076928	0.00026985	7.6995e-05	479.48	1.3119e-06	4.0259e-06	731.3	186.18	2.745e-06	4.4324e-06	333.8	170.98	86.453	44.168	4.768e-06	89.736	0.00014215	0.00012142	3.3424e-05	461.34	1.3396e-06	1.3341e-06	708.44	181.13	1.339e-06	1.3142e-06	320.58	113.76	82.27	42.67	1.3417e-06	86.053	17.153	36.235	-20.875	-38.579	57.595	71.119	-38.427	-34.069	35.386	86.698	-34.808	-32.400	-30.837	-26.294	100.720	-27.868	-8191	255	
2316.338	1	1	0	0	0.054975	0.19818	0.034582	0.15841	0.33621	0.16053	0.27945	0.11938	0.048753	0.15363	0.14612	0.098398	0.048791	0.24068	0.055551	0.31213	-2.0333	-2.0125	-2.2396	-2.5083	-1.9146	-2.6479	-2.3458	-2.1542	-2.5104	-2.1708	-2.2958	-2.4292	-1.9271	-2.5292	-2.3812	-2.1875	32.367	136.944	264.251	24.402	40.788	211.744	305.065	90.356	178.600	212.980	197.300	176.598	89.734	284.643	10.105	246.914	0.00078943	0.00046558	0.0001575	475.51	2.044e-06	5.5797e-06	731.96	189.65	7.0769e-06	4.3106e-06	338.26	169.6	88.795	44.636	2.3776e-06	90.709	0.00014216	0.00012284	3.3614e-05	460.12	1.3311e-06	1.3165e-06	711.83	183.9	1.3406e-06	1.3161e-06	324.1	114.46	83.751	43.213	1.366e-06	86.97	8.333	-18.353	25.024	-38.257	60.695	129.626	-38.460	-33.763	-2.086	77.654	-34.650	-32.141	-31.305	-26.532	-9.825	-27.623	-8191	255	
2316.458	1	1	0	0	0.032974	0.15783	0.13602	0.10063	0.069928	0.097215	0.32484	0.14381	0.1886	0.17962	0.069346	0.083907	0.031847	0.028775	0.2206	0.22611	-2.0687	-2.1063	-2.2438	-2.4854	-1.9896	-2.4875	-2.2792	-2.0938	-2.4062	-2.2188	-2.1458	-2.2979	-1.8333	-2.3208	-2.3521	-2.2313	278.921	291.534	290.498	73.970	229.418	167.145	231.762	-3.910	296.211	21.649	236.694	33.198	19.527	14.857	91.887	245.878	0.00070664	0.00018397	0.00013479	487.4	5.135e-06	7.3335e-06	748.91	194.42	4.9957e-06	3.8296e-06	347.45	173.03	89.728	45.437	4.7272e-06	91.889	0.00014717	0.00012359	3.3591e-05	466.78	1.3581e-06	1.3414e-06	726.34	189	1.348e-06	1.3645e-06	333.05	116.74	85.704	43.919	1.3924e-06	88.328	15.888	30.204	27.794	-38.601	94.552	64.160	-38.591	-33.821	10.760	68.509	-34.813	-31.878	-31.154	-26.720	83.121	-27.737	-8191	255	
2316.555	1	1	0	0	0.30599	0.30074	0.1282	0.12903	0.22643	0.081041	0.17767	0.18121	0.22624	0.19731	0.17735	0.096653	0.023387	0.23927	0.13972	0.29439	-1.9021	-2.3	-2.0563	-2.5083	-2.0458	-2.3833	-2.4458	-1.9167	-2.3937	-2.3083	-2.1792	-2.5083	-2.2958	-2.2479	-2.5333	-2.2521	230.541	95.804	98.864	-13.252	263.677	16.811	274.860	301.487	23.112	71.055	-22.158	189.258	41.439	273.505	32.376	278.035	0.00089246	0.00050409	0.00012393	488.85	4.793e-06	8.6639e-06	752.01	196.6	2.5501e-06	4.3135e-06	349.86	174.47	92.607	45.893	4.8635e-06	92.736	0.00014601	0.00012482	3.5393e-05	470.22	1.391e-06	1.3584e-06	729.99	190.68	1.3587e-06	1.3856e-06	335.68	117.62	87.338	44.426	1.3892e-06	88.881	22.358	-14.265	18.213	-38.482	95.590	92.274	-38.330	-33.528	6.700	72.371	-34.858	-31.392	-31.290	-26.614	57.166	-27.769	-8191	255	
2316.651	1	1	0	0	0.17603	0.072427	0.11752	0.098758	0.15247	0.12908	0.16324	0.095002	0.10209	0.11459	0.14227	0.085592	0.16266	0.22764	0.072447	0.12275	-2.1312	-2.3208	-2.1229	-2.6958	-2.2667	-2.2313	-2.5417	-2.0729	-2.0979	-2.4125	-2.1125	-2.3833	-2.2458	-2.3604	-2.5646	-2.1271	158.018	59.894	247.575	156.122	275.061	160.407	137.433	-31.582	-14.334	67.489	104.811	-19.447	202.162	-19.796	10.997	250.599	0.0007869	0.00033246	0.00012063	495.07	4.4513e-06	3.2341e-06	754.17	196.22	3.9321e-06	4.1338e-06	351.02	175.5	92.243	46.344	7.3493e-06	93.261	0.00014934	0.00012429	3.4675e-05	473.57	1.3635e-06	1.359e-06	731.03	191	1.3344e-06	1.3739e-06	336.63	118.61	87.318	44.794	1.3797e-06	89.437	19.834	32.229	36.535	-38.653	71.436	122.255	-38.506	-33.909	28.733	94.325	-34.951	-31.760	-31.187	-26.697	86.072	-27.854	-8191	255	
2316.745	1	1	0	0	0.19309	0.1393	0.21583	0.25695	0.091001	0.12346	0.25629	0.18663	0.14185	0.10156	0.086684	0.15572	0.082374	0.17153	0.019933	0.18352	-1.8146	-2.3646	-2.05	-2.3208	-2.1729	-2.2354	-2.4167	-2.1292	-2.3792	-2.4917	-2.2062	-2.5312	-2.125	-2.2062	-2.4146	-2.2729	12.280	133.029	249.975	272.465	274.230	264.144	251.874	137.668	122.625	191.664	44.519	268.192	40.402	28.702	241.389	147.057	0.00092513	0.00026592	0.00015801	492.5	6.7481e-06	5.0657e-06	753.05	195.46	1.0573e-05	3.6927e-06	347.07	172.09	90.354	45.468	5.8762e-06	92.123	0.00014764	0.00012313	3.5416e-05	472.15	1.3738e-06	1.3515e-06	728.98	189.63	1.3693e-06	1.3326e-06	332.12	117.44	85.686	44.011	1.3629e-06	88.326	22.240	-44.619	37.354	-38.694	20.264	-9.773	-38.566	-33.972	29.636	23.870	-34.669	-32.447	-31.117	-26.585	108.923	-27.850	-8191	255	
2316.819	1	1	0	0	0.23317	0.25856	0.14778	0.17284	0.24783	0.074318	0.22411	0.04718	0.34258	0.18392	0.30217	0.11138	0.13059	0.30948	0.15343	0.19752	-1.8167	-2.2583	-1.9417	-2.2	-2.3229	-2.1792	-2.6458	-2.0812	-2.1146	-2.5042	-1.9229	-2.2729	-2.2479	-2.2417	-2.4188	-2.25	-17.681	-16.627	15.644	122.023	-35.037	60.750	238.236	83.289	10.508	229.681	236.255	246.269	298.343	300.100	-46.751	278.030	0.00086603	0.00045369	0.00012268	493.26	2.8458e-06	9.0498e-06	751.46	195.42	4.7443e-06	3.2092e-06	348.38	175.45	91.093	45.649	3.8537e-06	92.809	0.00014798	0.00012442	3.4451e-05	469.87	1.3729e-06	1.381e-06	727.21	189.84	1.3891e-06	1.3715e-06	334.9	118.36	86.109	44.227	1.3758e-06	88.629	22.769	33.708	37.496	-38.334	124.594	49.012	-38.650	-33.747	1.543	72.879	-34.795	-32.079	-31.439	-26.565	34.596	-27.648	-8191	255	
2316.937	1	1	0	0	0.33569	0.28812	0.16865	0.14829	0.12892	0.082369	0.20014	0.18141	0.26547	0.12008	0.16734	0.052871	0.15361	0.27191	0.15643	0.16171	-1.7437	-2.3417	-1.9979	-2.3854	-2.1792	-2.1	-2.5917	-2.1042	-2.1833	-2.4417	-2.2479	-2.3812	-2.4688	-2.0792	-2.3292	-2.3688	-4.280	241.572	290.679	304.405	219.679	119.446	-21.900	45.790	296.042	25.116	223.139	3.421	162.061	66.291	153.027	179.861	0.0007691	0.00038105	7.3275e-05	490.76	1.7284e-06	6.8744e-06	748.31	194.67	8.4187e-06	4.8612e-06	345.33	168.38	89.895	45.47	5.3237e-06	91.732	0.00014817	0.00012367	3.4859e-05	471.08	1.3476e-06	1.3451e-06	726.34	189.08	1.3778e-06	1.3827e-06	332.08	116.33	85.607	43.96	1.4046e-06	88.091	19.148	57.966	28.004	-38.153	157.325	79.433	-38.707	-33.547	46.502	92.682	-34.846	-32.482	-31.432	-26.722	80.825	-27.772	-8191	255	
2317.034	1	1	0	0	0.28201	0.070611	0.066922	0.14289	0.033521	0.11482	0.033583	0.093104	0.1583	0.42501	0.30774	0.20737	0.3153	0.18594	0.22576	0.20769	-1.6646	-2.5229	-1.7854	-2.4396	-2.5062	-2.1292	-2.5542	-2.275	-2.1875	-2.4854	-2.1104	-2.2521	-2.4583	-1.9021	-2.2896	-2.2646	87.220	307.108	136.574	252.454	225.362	-17.609	-47.671	115.354	285.629	131.858	272.284	220.768	-25.206	-26.548	130.444	265.822	0.00084062	0.0004442	0.00014807	487.98	4.3711e-06	5.6616e-06	751.08	194.27	3.4748e-06	6.3052e-06	346.28	172.15	91.163	45.901	5.9322e-06	92.638	0.00014956	0.00012791	3.5018e-05	468.58	1.388e-06	1.3698e-06	725.62	188.31	1.3706e-06	1.3328e-06	331.75	117.13	86.34	44.38	1.3923e-06	88.686	17.074	47.735	54.229	-38.158	53.724	139.649	-38.696	-33.679	65.121	56.487	-34.912	-31.116	-31.590	-26.751	89.030	-28.112	-8191	255	
2317.130	1	1	0	0	0.22387	0.14487	0.27257	0.24438	0.088011	0.21906	0.13365	0.33565	0.33815	0.26051	0.090458	0.28989	0.16855	0.16725	0.068949	0.043282	-1.5604	-2.7083	-2.1354	-2.2354	-2.3854	-1.9583	-2.4104	-2.2729	-2.2417	-2.5812	-2.35	-2.175	-2.6146	-2.0875	-2.3333	-2.3792	88.774	202.677	23.982	240.967	-5.265	198.514	89.927	279.959	41.853	148.894	301.384	-30.433	10.218	284.235	6.793	204.244	0.00076949	0.00036426	8.4075e-05	488.24	5.0224e-06	5.051e-06	755.94	199.12	4.7041e-06	4.7403e-06	355.33	176.12	93.712	46.466	6.2005e-06	93.267	0.0001517	0.00012483	3.524e-05	470.41	1.3862e-06	1.3738e-06	734.07	193.01	1.4161e-06	1.3672e-06	341.05	119.48	88.686	44.979	1.3949e-06	89.603	25.181	43.424	0.406	-38.755	65.682	107.302	-38.391	-34.304	15.699	60.334	-35.028	-32.424	-30.932	-26.666	100.174	-28.060	-8191	255	
2317.250	1	1	0	0	0.17746	0.18079	0.090596	0.28281	0.12681	0.048048	0.27861	0.10484	0.083467	0.32402	0.077976	0.086129	0.050669	0.16989	0.1644	0.54092	-1.5354	-2.5083	-1.9937	-2.1729	-2.5271	-1.8479	-2.4188	-2.1729	-2.1146	-2.4938	-2.3271	-2.0396	-2.5854	-2.0792	-2.3187	-2.5104	15.284	80.183	18.641	65.825	62.039	238.749	260.282	6.285	95.270	216.280	-37.986	-47.492	145.308	214.711	-19.584	253.075	0.00079381	0.00045957	7.3682e-05	484.5	2.3894e-06	7.1938e-06	753.38	194.66	6.7975e-06	2.8847e-06	349.32	174.02	91.88	45.771	4.9551e-06	92.278	0.00014895	0.00012328	3.4128e-05	469.59	1.3282e-06	1.3547e-06	730.82	188.89	1.3675e-06	1.324e-06	334.21	117.99	86.734	44.34	1.3165e-06	88.665	24.647	53.384	26.033	-38.664	65.281	100.960	-38.736	-33.694	72.320	82.888	-34.926	-31.158	-31.190	-26.619	94.366	-27.855	-8191	255	
2317.347	1	1	0	0	0.30784	0.22776	0.18871	0.31135	0.22519	0.44408	0.1718	0.27392	0.078479	0.20203	0.25751	0.35206	0.08312	0.18505	0.091835	0.15263	-1.4417	-2.5021	-2.1104	-2.2979	-2.3812	-2.1229	-2.3771	-2.3937	-1.9875	-2.4333	-2.1625	-1.9417	-2.4167	-2.1937	-2.0708	-2.7542	118.116	12.953	23.603	225.186	-7.052	156.385	245.687	295.915	266.580	97.783	-14.432	55.876	229.930	-45.605	183.540	23.653	0.00085875	0.00073985	0.00010679	487.35	4.5701e-06	5.8212e-06	740.9	188.55	6.4842e-06	4.12e-06	337.79	173.43	89.503	45.42	5.1816e-06	91.855	0.00014387	0.00011917	3.2895e-05	465.08	1.3028e-06	1.3139e-06	717.41	182.85	1.3121e-06	1.2795e-06	323.48	116.08	84.788	43.914	1.3311e-06	88.062	16.630	4.626	1.321	-38.921	41.914	129.218	-38.368	-33.868	41.150	60.980	-35.079	-31.543	-31.778	-26.433	69.516	-27.884	-8191	255	
2317.443	1	1	0	0	0.1901	0.15644	0.22264	0.22883	0.050507	0.15493	0.083905	0.098182	0.13977	0.25922	0.25759	0.15136	0.21548	0.19258	0.10466	0.24084	-1.55	-2.4146	-2.3125	-2.1083	-2.3458	-2.0354	-2.2917	-2.5729	-2.1792	-2.4167	-2.4667	-2.0271	-2.5271	-2.2125	-2.1646	-2.6188	75.100	43.370	5.921	270.804	128.891	49.416	278.369	283.159	59.672	281.313	209.179	27.507	6.394	60.280	97.954	210.137	0.00071491	9.948e-05	9.8062e-05	485.2	3.6111e-06	8.5675e-06	732.43	184.46	6.1913e-06	3.3702e-06	331.57	168.6	87.244	44.459	1.9087e-06	90.171	0.0001416	0.00011708	3.2621e-05	461.81	1.289e-06	1.2868e-06	709.63	179.35	1.2969e-06	1.2739e-06	317.7	113.4	82.258	42.784	1.2802e-06	86.469	7.898	27.455	-1.568	-38.526	98.977	93.481	-38.578	-33.984	23.149	73.987	-34.795	-31.822	-31.167	-26.740	19.825	-27.919	-8191	255	
2317.539	1	1	0	0	0.10287	0.10823	0.1734	0.19585	0.065356	0.17523	0.15505	0.060548	0.14109	0.13629	0.19159	0.16546	0.14455	0.14168	0.06139	0.32827	-1.6917	-2.4083	-2.2229	-2.0771	-2.5125	-2.1208	-2.1937	-2.4917	-1.9562	-2.1708	-2.4583	-1.9937	-2.4229	-2.2938	-2.3146	-2.6542	-13.295	292.356	109.597	289.173	-48.738	134.410	-3.559	151.413	90.397	130.833	-50.442	6.522	108.706	209.576	158.827	-44.008	0.00081199	0.00031582	0.00010624	479	1.2682e-06	5.0701e-06	727.61	180.98	6.2889e-07	6.819e-06	326.88	163.73	86.551	44.305	4.6473e-06	90.68	0.00013772	0.0001166	3.1891e-05	452.71	1.2595e-06	1.2689e-06	702.17	175.76	1.2772e-06	1.2524e-06	315.13	112.72	82.256	42.899	1.312e-06	86.981	20.073	300.266	64.200	-38.279	58.192	71.839	-38.391	-33.987	-22.214	133.665	-34.832	-31.563	-30.926	-26.544	75.933	-27.745	-8191	255	
2317.635	1	1	0	0	0.10832	0.29917	0.083003	0.17626	0.19743	0.12571	0.164	0.21497	0.083991	0.28778	0.0070342	0.25075	0.13604	0.16783	0.10806	0.077061	-1.4042	-2.3354	-2.2375	-2.0563	-2.55	-2.2896	-2.3292	-2.425	-2.0271	-2.0146	-2.5312	-1.8604	-2.3792	-2.425	-1.9937	-2.5771	38.540	120.178	106.654	236.972	304.891	40.724	10.509	-38.518	218.296	33.180	54.255	36.998	9.135	242.726	7.238	282.610	0.00077684	4.1348e-05	0.0001034	477.03	3.5784e-06	7.276e-06	724.64	182	2.7199e-06	3.698e-06	332.7	170.26	87.68	44.552	2.674e-06	91.28	0.00014163	0.00011461	3.188e-05	457.23	1.2853e-06	1.2661e-06	703.92	176.69	1.2937e-06	1.2723e-06	318.12	113.88	83.036	43.224	1.29e-06	87.331	19.096	90.846	-6.664	-37.948	57.230	65.803	-38.471	-33.704	73.683	62.511	-34.843	-31.203	-31.383	-26.503	69.491	-27.955	-8191	255	
2317.731	1	1	0	0	0.023863	0.21581	0.26396	0.24249	0.18009	0.42823	0.19396	0.24153	0.29783	0.26338	0.064157	0.18846	0.14269	0.17461	0.13786	0.28454	-1.5292	-2.0146	-2.4792	-1.9667	-2.3708	-2.4208	-2.2979	-2.6042	-1.9917	-2.1854	-2.7146	-2.1417	-2.2938	-2.5042	-2.0625	-2.7	114.125	-14.775	73.662	-50.341	223.948	-1.046	260.538	226.404	-50.125	281.745	-12.294	-33.265	304.978	284.920	25.081	209.699	0.00078933	0.00061632	6.3585e-05	479.06	1.6838e-06	3.2037e-06	725.35	181.95	1.0071e-05	3.7019e-06	326.13	168.19	86.228	44.368	6.6107e-06	90.253	0.00013949	0.00011784	3.2706e-05	458.9	1.2902e-06	1.2636e-06	702.78	176.42	1.2917e-06	1.2565e-06	313.33	113.06	81.575	42.721	1.2742e-06	86.589	21.900	35.182	25.608	-39.104	22.755	71.281	-38.447	-33.768	17.924	78.695	-34.937	-32.129	-31.199	-26.928	85.996	-28.079	-8191	255	
2317.850	1	1	0	0	0.16143	0.03718	0.12353	0.018467	0.16033	0.23997	0.3614	0.074093	0.25087	0.15317	0.17778	0.055293	0.21488	0.3303	0.15447	0.14542	-1.6	-1.9729	-2.4	-1.9625	-2.3771	-2.3396	-2.1813	-2.4562	-2.1833	-2.0625	-2.5146	-2.1083	-2.4479	-2.5771	-1.9146	-2.7208	86.654	28.436	34.873	117.048	166.886	206.639	162.129	256.235	217.777	284.509	202.573	136.906	-34.327	254.305	87.574	212.522	0.00084942	0.00051902	0.00016159	471.44	2.7856e-06	7.0975e-06	723.91	179.99	4.1653e-06	4.069e-06	328.46	169.15	86.854	44.784	1.6417e-06	91.099	0.00013766	0.00011535	3.2014e-05	452.98	1.2671e-06	1.2387e-06	699.27	174.33	1.2856e-06	1.2838e-06	313.95	114.07	82.471	43.257	1.2988e-06	87.47	29.189	-0.288	38.911	-38.226	65.605	110.160	-38.278	-33.897	40.944	69.818	-34.742	-31.059	-31.112	-26.743	93.615	-27.795	-8191	255	
2317.946	1	1	0	0	0.13825	0.061486	0.17695	0.22542	0.056778	0.1986	0.084138	0.2369	0.19657	0.11534	0.38692	0.061173	0.26473	0.047438	0.063045	0.42954	-1.7083	-2.0875	-2.6479	-1.8458	-2.2792	-2.5167	-2.1188	-2.5167	-2.175	-2.1542	-2.5062	-2.2417	-2.3312	-2.3979	-1.9333	-2.5146	112.447	235.590	67.439	189.238	149.956	-48.008	159.438	4.208	87.227	-43.909	211.676	103.130	199.977	234.552	176.176	263.971	0.00089131	0.00055625	2.7993e-05	480.13	4.5919e-06	6.816e-06	732.39	183.63	5.7745e-06	4.1259e-06	334.15	170.99	89.219	45.192	1.629e-06	91.737	0.00013834	0.00011649	3.2449e-05	457.91	1.2557e-06	1.2683e-06	707.59	177.91	1.2765e-06	1.2578e-06	320.62	115.66	84.331	43.728	1.3057e-06	88.013	17.043	-5.619	-28.721	-38.741	86.092	90.238	-38.624	-33.966	60.826	87.900	-34.797	-31.967	-31.263	-26.640	94.044	-27.866	-8191	255	
2318.042	1	1	0	0	0.21757	0.27451	0.22951	0.17203	0.34067	0.14061	0.084426	0.097531	0.24969	0.12444	0.018212	0.086115	0.2956	0.17703	0.26466	0.33766	-1.9188	-2.0479	-2.4333	-2.1688	-2.0625	-2.3812	-2.0542	-2.3667	-2.3812	-2.1063	-2.6354	-2.1562	-2.1333	-2.6125	-2.1042	-2.4396	274.268	291.904	277.433	66.289	243.049	62.065	129.064	98.401	34.608	161.347	10.735	-43.827	245.699	273.436	247.859	253.081	0.00079582	0.00045468	0.00011598	483.58	4.61e-06	5.2679e-06	732.12	183.22	2.2869e-06	5.5863e-06	331.29	168.02	87.634	44.642	1.6045e-06	90.632	0.00013964	0.00011703	3.1613e-05	459.35	1.2689e-06	1.2291e-06	706.31	178.16	1.2659e-06	1.23e-06	319.42	114.03	83.376	43.193	1.3034e-06	87.049	27.078	38.182	-2.286	-38.835	58.232	81.130	-38.555	-33.904	80.286	82.090	-34.913	-32.083	-31.475	-26.724	72.340	-27.791	-8191	255	
2318.114	1	1	0	0	0.073149	0.2676	0.21778	0.056899	0.11641	0.1951	0.14571	0.10122	0.086079	0.16891	0.16298	0.28713	0.23029	0.30238	0.20292	0.19046	-1.9333	-2.1021	-2.4521	-2.3292	-2.2313	-2.575	-2.0604	-2.4292	-2.4292	-2.0875	-2.6042	-2.2125	-2.1646	-2.6146	-2.0979	-2.3792	74.138	135.095	92.441	43.056	5.637	245.010	5.280	261.750	147.349	53.239	283.839	250.205	22.460	275.383	245.600	-45.531	0.00077758	0.00049165	6.2705e-05	480.14	8.2949e-07	4.134e-06	727.05	182.21	5.5071e-06	2.792e-06	332.52	167.82	87.824	44.292	4.6406e-06	90.746	0.00013911	0.00011598	3.1713e-05	458.13	1.2631e-06	1.2488e-06	703.12	177.44	1.2669e-06	1.2585e-06	318.32	113.22	82.883	42.879	1.2509e-06	86.863	19.649	-24.128	54.268	-37.999	28.267	136.164	-38.476	-33.913	11.457	48.769	-34.892	-30.781	-30.974	-26.671	82.381	-27.837	-8191	255	
2318.235	1	1	0	0	0.13369	0.15983	0.12361	0.39004	0.077469	0.074703	0.1673	0.20011	0.15559	0.15093	0.27825	0.095649	0.11967	0.28022	0.091402	0.1197	-2.1458	-1.7833	-2.3875	-2.3792	-2.1542	-2.6042	-2.1417	-2.3604	-2.4542	-1.9771	-2.3292	-2.3833	-2.1063	-2.4667	-2.2042	-2.4521	171.198	56.645	18.712	231.227	-20.211	187.662	243.313	266.219	54.383	20.951	130.788	34.138	272.321	257.582	280.914	272.293	0.00081917	0.00067265	0.00012475	478.7	2.5564e-06	7.1397e-06	724.16	182.89	5.5505e-06	2.4916e-06	330.95	171.29	87.503	44.48	2.6441e-06	91.07	0.00013895	0.00011613	3.1336e-05	455.69	1.257e-06	1.2458e-06	704.59	177.44	1.2684e-06	1.2596e-06	319.07	114.03	83.016	43.131	1.2804e-06	87.378	15.048	31.641	11.559	-38.236	84.481	65.629	-38.500	-33.800	19.504	96.978	-34.863	-30.983	-31.172	-26.703	107.005	-27.882	-8191	255	
2318.331	1	1	0	0	0.075376	0.14488	0.052777	0.026607	0.18787	0.15287	0.40892	0.35269	0.17392	0.14662	0.34413	0.095602	0.034415	0.23096	0.16998	0.235	-2.0187	-2.2458	-2.4125	-2.4313	-2.0083	-2.3604	-2.3854	-2.3604	-2.5	-2.1771	-2.4125	-2.5833	-1.9813	-2.4708	-2.2708	-2.3729	-43.397	163.838	121.081	40.719	280.159	128.359	244.048	-17.267	91.399	213.437	-34.297	72.256	8.996	266.693	95.215	266.888	0.00073841	0.00038351	0.00012714	477.93	4.0021e-06	5.7877e-06	726.74	182	6.8041e-06	2.0492e-06	335.34	165.17	87.804	44.414	4.9092e-06	91.301	0.00013902	0.00011582	3.1323e-05	456.05	1.2704e-06	1.263e-06	706.1	177.37	1.2547e-06	1.2465e-06	320.47	113.38	83.163	43.105	1.2922e-06	87.248	20.138	-4.854	31.529	-39.628	91.733	95.368	-38.623	-33.541	38.681	27.137	-34.897	-31.120	-31.491	-26.557	76.240	-28.035	-8191	255	
2318.427	1	1	0	0	0.24158	0.23795	0.18858	0.12706	0.051166	0.13207	0.24637	0.027673	0.16743	0.15687	0.15231	0.15903	0.23257	0.1818	0.2379	0.23419	-2.1729	-2.1292	-2.3333	-2.4125	-2.0021	-2.4688	-2.0521	-2.1958	-2.6333	-2.3667	-2.3063	-2.4229	-2.0229	-2.4229	-2.3063	-1.9479	200.628	220.508	17.894	306.821	141.694	137.713	304.939	276.863	152.795	-48.098	235.930	-14.296	280.795	251.694	171.182	289.522	0.00073461	6.6517e-05	7.4661e-05	473.65	2.1812e-06	8.1109e-06	719.55	180.04	5.9839e-06	5.7984e-06	325.57	165.32	85.497	43.912	3.8456e-06	89.218	0.00013932	0.00011878	3.1945e-05	453.58	1.2503e-06	1.2589e-06	697.48	174.66	1.2463e-06	1.2542e-06	313.02	111.85	81.101	42.374	1.2902e-06	85.628	17.964	22.669	44.310	-38.491	71.747	58.897	-38.316	-33.746	51.647	107.108	-35.039	-31.212	-30.994	-26.464	25.698	-27.931	-8191	255	
2318.523	1	1	0	0	0.11814	0.055182	0.27818	0.060409	0.16793	0.23993	0.30259	0.18041	0.22305	0.13389	0.26835	0.11817	0.11927	0.12592	0.17362	0.067223	-2.0167	-1.9958	-2.0583	-2.4167	-1.9583	-2.3	-2.3104	-2.2	-2.5875	-2.2771	-2.3021	-2.6958	-1.9604	-2.4542	-2.2646	-2.1896	215.698	-10.705	-24.984	233.390	291.511	290.978	-44.605	288.637	36.163	204.617	224.605	204.858	-45.275	259.452	1.917	283.083	0.00077711	0.00047782	0.00010966	474.56	2.4604e-06	7.3462e-06	718.68	179.53	2.8913e-06	3.5376e-06	326.49	164.29	85.268	43.493	3.2854e-06	88.909	0.00013767	0.00011546	3.2374e-05	450.7	1.2651e-06	1.2512e-06	697.55	174.51	1.2685e-06	1.2389e-06	313.13	111.8	80.509	42.09	1.2585e-06	85.431	14.016	30.509	13.251	-39.169	32.647	60.546	-38.359	-33.710	20.398	100.264	-34.764	-32.092	-30.849	-26.307	55.019	-27.721	-8191	255	
2318.642	1	1	0	0	0.29508	0.083272	0.18533	0.2136	0.094918	0.057213	0.096268	0.28536	0.29873	0.11436	0.17218	0.23811	0.1577	0.26529	0.29145	0.1081	-1.8792	-2.175	-2.1188	-2.5292	-2.0625	-2.1833	-2.3792	-2.0708	-2.4375	-2.3604	-2.1833	-2.6479	-2.0875	-2.3708	-2.3729	-2.3583	110.957	174.923	93.631	142.058	264.463	-9.107	298.637	-20.960	69.995	201.706	85.216	117.782	-6.682	265.466	163.982	277.795	0.00078654	0.00037373	0.00015833	474.67	5.2251e-06	6.0851e-06	721.15	179.78	7.898e-06	2.4005e-06	327.08	164.93	85.97	44.04	8.6572e-07	90.03	0.00013715	0.00011387	3.1618e-05	450.8	1.275e-06	1.2556e-06	697.43	174.38	1.2647e-06	1.2554e-06	314.4	112.03	81.728	42.615	1.2937e-06	86.473	4.888	55.044	23.310	-38.476	53.407	83.460	-38.441	-33.948	42.386	104.433	-35.064	-32.056	-31.113	-26.449	-19.470	-27.832	-8191	255	
2318.738	1	1	0	0	0.42383	0.35045	0.31198	0.26546	0.081573	0.30869	0.079999	0.083772	0.16911	0.28472	0.090794	0.10739	0.3012	0.24012	0.38064	0.11111	-1.9771	-2.4188	-1.9729	-2.5208	-1.9625	-2.3542	-2.5771	-2.0917	-2.3354	-2.2667	-2.3458	-2.5271	-2.1437	-2.2708	-2.4021	-2.1917	-48.267	45.337	295.927	31.834	305.656	3.578	306.069	198.427	13.693	188.660	-25.806	238.809	-2.527	-25.090	207.518	248.141	0.00090395	0.00027983	0.00011569	472.88	6.3748e-06	9.6288e-06	722.85	180.92	4.6425e-06	3.2259e-06	328.36	165.04	86.123	43.962	3.4698e-06	89.487	0.00014225	0.00011804	3.2988e-05	453.79	1.2874e-06	1.2978e-06	701.97	175.31	1.2906e-06	1.2688e-06	314.84	112.24	81.52	42.568	1.2916e-06	86.03	14.164	37.485	4.119	-38.592	78.785	71.463	-38.279	-33.807	61.024	123.124	-34.670	-31.351	-31.081	-26.697	91.021	-28.229	-8191	255	
2318.812	1	1	0	0	0.094287	0.18359	0.24054	0.036294	0.1047	0.17437	0.25647	0.15208	0.18939	0.38344	0.14535	0.20114	0.12713	0.27568	0.18811	0.10499	-1.7958	-2.3146	-1.9292	-2.3354	-2.1625	-2.1312	-2.5396	-2.0833	-2.4104	-2.3479	-2.1604	-2.2854	-2.3729	-2.2208	-2.2792	-2.4625	-3.708	59.993	23.593	15.570	63.908	257.483	4.899	237.266	253.920	135.045	295.980	108.309	224.887	306.744	63.813	34.084	0.00083886	0.00028508	0.00011064	471.11	5.5386e-06	6.3908e-06	721.04	181.54	1.846e-06	3.9383e-06	329.59	169.54	86.399	44.051	3.5107e-06	89.895	0.00013738	0.0001149	3.2409e-05	451.98	1.2599e-06	1.2578e-06	699	175.96	1.26e-06	1.2416e-06	316.36	113.65	81.898	42.664	1.2768e-06	86.065	19.750	-3.912	52.091	-38.079	55.844	82.451	-38.458	-33.488	305.579	101.260	-35.038	-31.902	-31.748	-26.574	64.610	-28.157	-8191	255	
2318.930	1	1	0	0	0.11987	0.23522	0.085398	0.23498	0.18389	0.10867	0.1921	0.27046	0.20864	0.099604	0.24269	0.24431	0.12378	0.056355	0.26473	0.16972	-1.8104	-2.2083	-1.9979	-2.425	-2.3354	-2.1333	-2.4229	-2.2125	-2.3792	-2.4667	-1.9937	-2.4604	-2.3167	-2.1375	-2.6271	-2.3333	91.683	8.116	170.985	-15.756	104.079	165.176	255.381	-43.186	227.292	157.134	159.428	162.600	240.338	-48.394	263.093	220.947	0.00081764	0.00021099	9.3279e-05	478.53	4.7683e-06	6.7753e-06	724.28	182.73	3.0013e-06	8.7598e-06	333.45	169.7	86.985	44.324	4.7815e-06	90.285	0.00013812	0.00011437	3.2562e-05	456.23	1.271e-06	1.2527e-06	703.16	177.69	1.3003e-06	1.2745e-06	320.53	113.27	82.889	42.745	1.3052e-06	86.504	20.655	72.677	17.278	-37.937	94.029	110.426	-38.164	-33.696	103.852	58.981	-34.861	-31.824	-31.449	-26.588	92.361	-27.804	-8191	255	
2319.027	1	1	0	0	0.070907	0.21198	0.069696	0.10724	0.17397	0.12187	0.065619	0.066033	0.081202	0.10795	0.15297	0.13427	0.17645	0.11112	0.13865	0.33876	-1.7583	-2.5104	-2.0146	-2.15	-2.3229	-2.3312	-2.4458	-2.2667	-2.2438	-2.5062	-2.0021	-2.1604	-2.2625	-2.0625	-2.3375	-2.3771	95.217	69.618	272.825	82.992	52.275	54.002	69.365	162.508	33.682	234.994	177.980	279.219	156.054	270.577	271.853	248.752	0.00085532	0.00050738	0.00017387	477.71	1.7431e-06	6.535e-06	736.12	185.42	3.2993e-06	3.5145e-06	338.18	168.12	87.815	44.464	4.8937e-06	90.383	0.00013755	0.00011728	3.2933e-05	458.27	1.2653e-06	1.2769e-06	712.17	180.63	1.301e-06	1.2713e-06	324.18	114.46	83.471	43.002	1.3115e-06	86.903	21.551	5.186	19.185	-38.367	71.469	114.421	-38.463	-33.800	31.459	91.180	-34.959	-31.229	-30.830	-26.575	92.233	-27.825	-8191	255	
#DATA ENDS
