BOXY.EXE: ISS Imagent and Oximeter Data Acquisition Program Version 0.80
Ascii Record File

#ACQ INFORMATION
2  Detector Channels 
16  External MUX Channels 
1  Auxiliary Channels 
5000  Waveform (CCF) Frequency (Hz)
1  Waveforms Skipped 
30  Waveforms Averaged 
1  Cycles Averaged 
16  Acquisitions per Waveform 
10.0806  Updata Rate (Hz) 

#FILE INFORMATION
TRUE -- External MUX Channel results are PARSED.
FALSE -- AC DC and Phase are NOT grouped.
TRUE -- Companion Program Settings File CREATED.
FALSE -- AC data not excluded
FALSE -- DC data not excluded
FALSE -- Phase data not excluded
FALSE -- Auxillary Chn. data not excluded
Tab delimiters

#CALIBRATION STATE
TRUE -- Waveform Calibration Values APPLIED.


#AUX CALIBRATION VALUES
Val Type	aux-1	

Term	1.0000e+00	
Factor	0.0000e+00	


#WF CALIBRATION VALUES
A = Detector Channel
Val Type	A-AC1	A-AC2	A-AC3	A-AC4	A-AC5	A-AC6	A-AC7	A-AC8	A-AC9	A-AC10	A-AC11	A-AC12	A-AC13	A-AC14	A-AC15	A-AC16	A-DC1	A-DC2	A-DC3	A-DC4	A-DC5	A-DC6	A-DC7	A-DC8	A-DC9	A-DC10	A-DC11	A-DC12	A-DC13	A-DC14	A-DC15	A-DC16	A-Ph1	A-Ph2	A-Ph3	A-Ph4	A-Ph5	A-Ph6	A-Ph7	A-Ph8	A-Ph9	A-Ph10	A-Ph11	A-Ph12	A-Ph13	A-Ph14	A-Ph15	A-Ph16	

Term	0.00000e+00	0.00000e+00	0.00000e+00	0.00000e+00	0.00000e+00	0.00000e+00	0.00000e+00	0.00000e+00	0.00000e+00	0.00000e+00	0.00000e+00	0.00000e+00	0.00000e+00	0.00000e+00	0.00000e+00	0.00000e+00	0.00000e+00	0.00000e+00	0.00000e+00	0.00000e+00	0.00000e+00	0.00000e+00	0.00000e+00	0.00000e+00	0.00000e+00	0.00000e+00	0.00000e+00	0.00000e+00	0.00000e+00	0.00000e+00	0.00000e+00	0.00000e+00	0.00000e+00	0.00000e+00	0.00000e+00	0.00000e+00	0.00000e+00	0.00000e+00	0.00000e+00	0.00000e+00	0.00000e+00	0.00000e+00	0.00000e+00	0.00000e+00	0.00000e+00	0.00000e+00	0.00000e+00	0.00000e+00	
Factor	1.00000e+00	1.00000e+00	1.00000e+00	1.00000e+00	1.00000e+00	1.00000e+00	1.00000e+00	1.00000e+00	1.00000e+00	1.00000e+00	1.00000e+00	1.00000e+00	1.00000e+00	1.00000e+00	1.00000e+00	1.00000e+00	1.00000e+00	1.00000e+00	1.00000e+00	1.00000e+00	1.00000e+00	1.00000e+00	1.00000e+00	1.00000e+00	1.00000e+00	1.00000e+00	1.00000e+00	1.00000e+00	1.00000e+00	1.00000e+00	1.00000e+00	1.00000e+00	X	X	X	X	X	X	X	X	X	X	X	X	X	X	X	X	

B = Detector Channel
Val Type	B-AC1	B-AC2	B-AC3	B-AC4	B-AC5	B-AC6	B-AC7	B-AC8	B-AC9	B-AC10	B-AC11	B-AC12	B-AC13	B-AC14	B-AC15	B-AC16	B-DC1	B-DC2	B-DC3	B-DC4	B-DC5	B-DC6	B-DC7	B-DC8	B-DC9	B-DC10	B-DC11	B-DC12	B-DC13	B-DC14	B-DC15	B-DC16	B-Ph1	B-Ph2	B-Ph3	B-Ph4	B-Ph5	B-Ph6	B-Ph7	B-Ph8	B-Ph9	B-Ph10	B-Ph11	B-Ph12	B-Ph13	B-Ph14	B-Ph15	B-Ph16	

Term	0.00000e+00	0.00000e+00	0.00000e+00	0.00000e+00	0.00000e+00	0.00000e+00	0.00000e+00	0.00000e+00	0.00000e+00	0.00000e+00	0.00000e+00	0.00000e+00	0.00000e+00	0.00000e+00	0.00000e+00	0.00000e+00	0.00000e+00	0.00000e+00	0.00000e+00	0.00000e+00	0.00000e+00	0.00000e+00	0.00000e+00	0.00000e+00	0.00000e+00	0.00000e+00	0.00000e+00	0.00000e+00	0.00000e+00	0.00000e+00	0.00000e+00	0.00000e+00	-2.70192e+02	-1.46154e+02	-1.44971e+02	-1.83982e+02	-8.96959e+01	-7.84589e+01	-1.56979e+02	-1.62015e+02	-1.31917e+02	-8.21254e+01	-1.70881e+02	-1.81594e+02	-1.85791e+02	-1.77433e+02	-8.97468e+01	-1.49719e+02	
Factor	5.01170e-05	1.32014e-04	3.27272e-05	4.14055e-01	1.25435e-06	1.99250e-06	1.53742e-01	4.68002e-02	1.88427e-06	1.45911e-06	8.44637e-02	4.28283e-01	3.92267e-02	8.40360e-03	1.45620e-06	1.23250e-02	1.31062e-06	1.34861e-06	3.74948e-07	2.01947e-01	1.47447e-08	1.47689e-08	7.28953e-02	2.37801e-02	1.46852e-08	1.47755e-08	4.10814e-02	1.28830e-01	1.93371e-02	4.25015e-03	1.47475e-08	5.99750e-03	X	X	X	X	X	X	X	X	X	X	X	X	X	X	X	X	



#DISTANCE SETTINGS
A = Detector Channel
A-1	A-2	A-3	A-4	A-5	A-6	A-7	A-8	A-9	A-10	A-11	A-12	A-13	A-14	A-15	A-16	

2.5000e+00	3.0000e+00	2.5000e+00	3.0000e+00	2.0000e+00	3.0000e+00	1.5000e+00	3.0000e+00	3.0000e+00	3.0000e+00	3.0000e+00	3.0000e+00	3.0000e+00	3.0000e+00	1.5000e+00	3.0000e+00	

B = Detector Channel
B-1	B-2	B-3	B-4	B-5	B-6	B-7	B-8	B-9	B-10	B-11	B-12	B-13	B-14	B-15	B-16	

1.0000e+01	1.0000e+01	1.0000e+01	1.4400e+00	1.0000e+01	1.0000e+01	1.5100e+00	1.9400e+00	1.0000e+01	1.0000e+01	1.9900e+00	2.4900e+00	2.4100e+00	2.9000e+00	1.0000e+01	2.9800e+00	




#DATA BEGINS
time	group	step	mark	flag	A-AC1	A-AC2	A-AC3	A-AC4	A-AC5	A-AC6	A-AC7	A-AC8	A-AC9	A-AC10	A-AC11	A-AC12	A-AC13	A-AC14	A-AC15	A-AC16	A-DC1	A-DC2	A-DC3	A-DC4	A-DC5	A-DC6	A-DC7	A-DC8	A-DC9	A-DC10	A-DC11	A-DC12	A-DC13	A-DC14	A-DC15	A-DC16	A-Ph1	A-Ph2	A-Ph3	A-Ph4	A-Ph5	A-Ph6	A-Ph7	A-Ph8	A-Ph9	A-Ph10	A-Ph11	A-Ph12	A-Ph13	A-Ph14	A-Ph15	A-Ph16	B-AC1	B-AC2	B-AC3	B-AC4	B-AC5	B-AC6	B-AC7	B-AC8	B-AC9	B-AC10	B-AC11	B-AC12	B-AC13	B-AC14	B-AC15	B-AC16	B-DC1	B-DC2	B-DC3	B-DC4	B-DC5	B-DC6	B-DC7	B-DC8	B-DC9	B-DC10	B-DC11	B-DC12	B-DC13	B-DC14	B-DC15	B-DC16	B-Ph1	B-Ph2	B-Ph3	B-Ph4	B-Ph5	B-Ph6	B-Ph7	B-Ph8	B-Ph9	B-Ph10	B-Ph11	B-Ph12	B-Ph13	B-Ph14	B-Ph15	B-Ph16	aux-1	digaux	

1925.555	1	1	0	256	0.23243	0.26751	0.23792	0.3333	0.14948	0.11367	0.4694	0.29971	0.19557	0.24187	0.12981	0.074665	0.29895	0.090517	0.1311	0.055111	-1.4	-2.1271	-2.1729	-1.9146	-2.3083	-2.225	-2.0104	-2.5083	-2.1708	-2.05	-2.3187	-1.9146	-2.2896	-2.1188	-2.1625	-2.5104	5.933	-2.582	40.484	6.272	197.096	39.509	293.970	296.930	218.035	335.499	300.929	2.326	337.770	237.508	119.105	5.739	0.00049719	0.00045859	0.00012213	1110.1	2.3422e-06	6.4518e-06	1192.9	231.42	6.77e-06	5.5846e-06	293.47	86.544	63.968	18.516	4.8866e-06	25.612	0.00034348	0.00034191	9.5214e-05	1083.7	3.7556e-06	3.7533e-06	1174.6	231.5	3.7334e-06	3.7641e-06	290.46	84.645	65.095	19.134	3.7152e-06	26.386	346.263	66.858	35.949	-0.344	20.479	57.319	-0.077	7.184	38.489	196.334	7.061	17.274	13.653	20.820	77.274	20.064	-8191	255	
1925.651	1	1	0	0	0.19894	0.17557	0.068201	0.037908	0.11016	0.14952	0.19354	0.19408	0.13766	0.201	0.032822	0.29874	0.14144	0.081964	0.14004	0.12514	-1.5688	-2.1583	-2.2521	-2.1	-2.2354	-2.1333	-1.9542	-2.4292	-2.1833	-1.9604	-2.3042	-1.8771	-2.1646	-2.1833	-1.9979	-2.2229	-1.271	204.310	141.502	17.534	329.535	225.673	314.586	262.387	90.947	158.043	195.012	228.283	323.817	22.769	252.525	84.527	0.00050314	0.00029223	5.5284e-05	1112.7	1.8943e-06	5.7716e-06	1196.9	232.57	1.1152e-05	2.1912e-06	293.58	83.332	63.694	18.457	5.0481e-06	25.464	0.00033216	0.00033561	9.1799e-05	1078.9	3.6436e-06	3.6705e-06	1173.5	231.47	3.6892e-06	3.6477e-06	290.56	84.208	64.764	19.089	3.6822e-06	26.284	-0.730	16.988	122.021	-0.106	91.853	131.659	-0.092	7.271	41.606	197.791	6.839	16.328	13.931	20.878	47.819	20.452	-8191	255	
1925.746	1	1	0	0	0.2535	0.057604	0.16295	0.042087	0.25709	0.055337	0.43894	0.13459	0.090465	0.25368	0.28175	0.070749	0.098201	0.026212	0.13193	0.22608	-1.5875	-1.9896	-2.4562	-1.8229	-2.125	-2.3271	-2.0729	-2.3229	-2.1937	-1.9792	-2.325	-1.7729	-1.9792	-2.2479	-1.7458	-2.1063	272.869	309.291	181.935	134.695	103.336	50.189	318.670	243.471	259.869	284.836	273.400	202.544	289.762	77.770	2.407	165.170	0.00025922	0.00046259	9.9729e-05	1105.1	7.234e-06	3.3281e-06	1192.9	232.39	5.2758e-06	1.1343e-06	292.65	83.731	64.03	18.53	2.9531e-06	25.451	0.0003344	0.00033235	9.4491e-05	1079.2	3.6991e-06	3.6476e-06	1174	231.57	3.7224e-06	3.6501e-06	290.75	84.948	65.095	19.064	3.6262e-06	26.252	5.160	93.919	17.333	-0.350	179.647	133.377	-0.258	7.341	102.400	45.051	7.002	17.272	13.996	20.612	322.585	20.392	-8191	255	
1925.866	1	1	0	0	0.12131	0.15382	0.24068	0.18949	0.11882	0.21977	0.28027	0.37411	0.10389	0.21277	0.13186	0.1764	0.24813	0.18922	0.15689	0.26807	-1.5167	-1.9292	-2.2979	-2.0479	-2.0854	-2.2313	-2.0458	-2.5292	-2.1292	-1.8104	-2.4396	-2.1083	-1.9854	-2.425	-2.0833	-2.3604	199.836	264.527	5.031	301.300	143.729	231.819	226.477	17.140	284.856	253.192	272.977	266.792	225.719	222.959	24.905	41.136	0.00034692	0.00028038	0.00015743	1097.3	8.913e-06	3.2094e-06	1193.9	231.36	4.8215e-06	5.9167e-06	290.25	85.769	63.759	18.413	3.0261e-06	25.402	0.00033272	0.0003326	9.0712e-05	1074.3	3.6442e-06	3.5852e-06	1171.8	231.02	3.5522e-06	3.5628e-06	289.49	82.848	64.771	19.037	3.5363e-06	26.202	1.495	94.448	50.935	-0.267	158.475	140.983	-0.036	7.212	168.547	153.852	6.998	16.694	13.485	20.892	102.780	20.208	-8191	255	
1925.938	1	1	0	0	0.12927	0.043108	0.024836	0.12497	0.3094	0.39165	0.12887	0.13558	0.13037	0.12389	0.14959	0.17968	0.24349	0.27319	0.22996	0.12685	-1.7229	-1.9729	-2.3479	-2.1479	-2.0125	-2.3375	-2.2208	-2.2375	-2.2292	-1.9708	-2.3521	-2.0708	-1.8958	-2.3021	-2.1479	-2.2396	294.226	333.495	148.604	250.637	289.183	287.549	312.148	8.738	18.626	108.017	334.349	288.942	75.186	90.142	111.430	263.044	0.00049055	0.00066771	2.9779e-05	1106.9	4.5745e-06	5.786e-06	1192.9	230.6	3.6479e-06	7.6278e-06	289.71	82.675	64.061	18.398	4.4036e-06	25.571	0.00032358	0.00032322	8.9816e-05	1075	3.5436e-06	3.5131e-06	1170.6	230.52	3.5722e-06	3.5349e-06	288.96	82.292	64.472	18.936	3.5718e-06	26.171	-6.604	1.324	94.123	-0.317	94.960	115.757	0.020	7.536	112.552	103.185	6.724	17.928	13.705	20.727	178.276	20.709	-8191	255	
1926.034	1	1	0	0	0.38822	0.11681	0.080629	0.12501	0.1574	0.10334	0.30008	0.022489	0.10218	0.061973	0.10662	0.085387	0.19045	0.1339	0.14881	0.14516	-1.9562	-1.825	-2.1375	-2.1708	-2.0062	-2.4083	-1.9542	-2.1688	-2.3958	-1.9937	-2.4	-2.2146	-2	-2.5104	-2.0812	-2.2	323.109	160.979	73.832	97.010	202.773	30.133	88.589	175.336	166.039	151.292	155.152	-5.740	286.873	297.586	88.140	348.740	0.00045108	0.00030613	9.127e-05	1099	3.9183e-06	2.956e-06	1189.4	231.46	1.113e-05	7.8457e-06	291	84.505	63.809	18.415	1.2377e-06	25.418	0.00032229	0.00031969	8.8235e-05	1072.8	3.4684e-06	3.4736e-06	1169.2	230.34	3.4656e-06	3.4309e-06	288.19	81.87	64.553	18.924	3.4461e-06	26.022	9.791	51.248	50.288	-0.388	271.739	90.028	-0.001	7.515	117.569	126.965	7.024	14.477	13.784	20.803	224.870	20.663	-8191	255	
1926.130	1	1	0	0	0.043749	0.1472	0.19055	0.072689	0.024217	0.31795	0.30401	0.13093	0.16621	0.11336	0.20396	0.039154	0.11189	0.069512	0.021266	0.16612	-1.7313	-1.7271	-2.3479	-2.225	-1.8354	-2.3708	-2.2792	-1.9979	-2.2875	-1.9333	-2.1	-2.075	-1.8208	-2.4062	-2.1708	-1.9625	165.377	120.274	337.128	17.109	227.658	77.600	341.084	48.924	59.937	253.206	139.169	343.332	301.896	23.894	177.638	4.522	0.00042183	0.00022844	0.00016924	1093.1	4.0132e-06	1.7389e-06	1189.8	230.86	4.4922e-06	5.5203e-06	290.6	84.039	63.552	18.427	1.366e-06	25.172	0.00031061	0.00031387	8.5578e-05	1068.5	3.3465e-06	3.3284e-06	1164.7	229.74	3.3608e-06	3.315e-06	287.24	80.28	63.972	18.863	3.3195e-06	25.912	2.620	71.229	74.791	-0.237	221.749	115.202	-0.026	7.524	103.721	233.953	7.165	16.043	13.399	20.751	62.540	20.631	-8191	255	
1926.251	1	1	0	0	0.24151	0.16756	0.22607	0.25089	0.23255	0.066121	0.21621	0.21259	0.12999	0.11793	0.031809	0.24295	0.1588	0.22646	0.097521	0.057262	-1.9458	-1.9958	-2.1042	-2.1813	-1.7938	-2.5229	-2.0271	-2.1667	-2.3771	-1.9521	-2.1521	-2.3	-1.8854	-2.3021	-2.0875	-2.0083	53.420	139.856	122.742	143.403	80.771	53.909	301.669	254.582	71.960	27.165	278.091	65.408	81.774	262.784	8.422	314.492	0.00025493	0.00030117	6.4759e-05	1090.1	5.0299e-06	4.2092e-06	1180.9	231.56	2.8305e-06	5.9872e-06	289.33	82.564	63.206	18.43	2.05e-06	25.227	0.00030113	0.00030776	8.2929e-05	1064.3	3.3009e-06	3.3053e-06	1164	229.44	3.2808e-06	3.3203e-06	287.2	80.746	63.961	18.88	3.3253e-06	26.002	320.845	84.112	74.634	-0.312	192.466	32.333	-0.107	7.362	56.571	145.126	6.989	15.738	13.494	21.116	265.602	20.348	-8191	255	
1926.347	1	1	0	0	0.06812	0.19447	0.22747	0.49532	0.12971	0.13438	0.37247	0.029053	0.12478	0.22643	0.21587	0.16428	0.17111	0.13928	0.3611	0.067403	-1.8188	-1.95	-2.1333	-2.1896	-1.8333	-2.3229	-2.3458	-1.975	-2.375	-1.8854	-1.8021	-2.3646	-1.9583	-2.2625	-2.1167	-1.9146	148.752	84.404	181.343	272.408	195.485	102.843	282.221	205.269	161.375	246.290	165.897	116.399	248.206	207.814	126.459	3.965	0.00039778	8.5212e-05	5.6171e-05	1099.8	5.3682e-06	5.2168e-06	1186.7	231.16	5.935e-06	4.1668e-06	289.76	82.906	63.079	18.298	2.9526e-06	25.633	0.00030998	0.00030825	8.457e-05	1067.2	3.3704e-06	3.3284e-06	1165.9	229.54	3.3543e-06	3.3667e-06	287.64	81.243	63.819	18.815	3.3396e-06	26.014	-10.289	221.991	142.524	-0.171	84.432	251.438	-0.140	7.568	128.432	255.230	6.664	16.975	13.950	20.683	-7.730	20.529	-8191	255	
1926.443	1	1	0	0	0.032146	0.09627	0.17175	0.37587	0.32879	0.44398	0.24514	0.069979	0.26382	0.10753	0.226	0.15709	0.4175	0.13209	0.11548	0.32285	-1.7542	-1.8604	-2.05	-2.3563	-1.9188	-2.2771	-2.2333	-2.0854	-2.3083	-1.9667	-2.1917	-2.2667	-1.9208	-2.1667	-2.2979	-1.8917	11.509	37.468	282.806	263.301	165.279	89.629	268.746	304.994	300.557	95.542	101.567	270.059	327.933	92.645	148.654	136.729	0.00034903	0.00039482	6.0565e-05	1105.1	2.4883e-06	9.8556e-06	1188	229.98	7.324e-07	6.8123e-06	290.49	84.64	63.828	18.435	4.463e-06	25.184	0.00031001	0.00030988	8.6125e-05	1069.5	3.3516e-06	3.3498e-06	1165.7	229.21	3.3578e-06	3.3774e-06	287.59	80.767	64.109	18.888	3.3538e-06	25.965	339.340	348.854	25.622	-0.267	292.943	65.377	-0.288	7.320	22.053	81.819	7.402	15.246	14.127	20.774	44.457	20.429	-8191	255	
1926.540	1	1	0	0	0.14623	0.16895	0.44203	0.079638	0.23739	0.47599	0.23367	0.18969	0.14868	0.082059	0.015888	0.11984	0.31583	0.1328	0.06713	0.1604	-1.8146	-1.95	-1.9354	-2.4542	-1.925	-2.1813	-2.4458	-1.9979	-2.2646	-2.05	-1.8813	-2.3937	-2.0354	-1.9917	-2.2708	-2.0396	142.011	28.267	165.706	285.203	30.128	221.450	313.656	314.246	252.934	289.696	152.470	111.675	340.298	85.834	281.156	4.356	0.00028858	0.00031847	0.00011429	1098.4	2.0288e-06	3.119e-06	1186.4	230.29	8.3199e-06	3.9013e-06	288.38	83.299	63.338	18.22	2.667e-06	25.146	0.0003096	0.00030854	8.5558e-05	1069.8	3.3678e-06	3.314e-06	1164.5	229.23	3.3322e-06	3.4045e-06	287.79	80.742	63.932	18.796	3.3854e-06	25.888	339.466	98.632	67.707	-0.295	260.839	97.235	-0.036	7.401	92.707	52.271	6.854	16.116	14.036	21.185	175.614	20.354	-8191	255	
1926.636	1	1	0	0	0.18225	0.19048	0.12733	0.28029	0.13296	0.21866	0.24062	0.13451	0.12297	0.15211	0.24325	0.036629	0.36501	0.066174	0.15155	0.11036	-1.7521	-1.9583	-1.775	-2.4104	-1.8271	-2.0062	-2.2812	-1.8208	-2.275	-2.0938	-1.8062	-2.3104	-2.0708	-2.0542	-2.2208	-2.0062	98.940	287.513	285.328	283.729	311.411	74.531	279.908	289.399	14.055	37.605	267.162	257.887	328.289	299.070	315.884	67.773	0.0003824	0.00055133	1.5896e-05	1104.3	9.8474e-06	1.038e-05	1185.2	230.66	5.4986e-06	3.8425e-06	291.27	83.851	63.063	18.366	1.3168e-06	25.294	0.00031071	0.00030865	8.594e-05	1068	3.3468e-06	3.3744e-06	1164.7	229.03	3.3983e-06	3.3542e-06	287.9	80.851	63.931	18.855	3.3753e-06	25.937	2.731	77.130	19.031	-0.459	138.979	128.607	0.063	7.332	67.462	207.508	6.985	16.356	14.134	21.385	188.946	20.385	-8191	255	
1926.732	1	1	0	0	0.062825	0.15703	0.2109	0.23894	0.012176	0.078605	0.10892	0.13006	0.11207	0.10341	0.4877	0.33641	0.18829	0.19027	0.31183	0.30833	-1.7771	-2.1229	-1.7375	-2.2854	-2.0396	-1.9646	-2.4458	-2.0521	-2.2542	-2.375	-1.8646	-2.1437	-2.15	-1.9917	-2.1854	-1.975	15.734	113.407	184.856	22.981	50.397	216.655	80.294	281.409	46.883	-1.786	316.010	264.842	264.484	248.570	292.750	335.774	0.00053729	6.9117e-05	0.00013504	1092.6	9.6548e-07	4.0877e-06	1184.7	229.4	3.1996e-06	2.332e-06	289.8	82.383	63.227	18.31	7.6426e-06	25.183	0.00030681	0.00030741	8.5611e-05	1066.9	3.3774e-06	3.3496e-06	1163.9	228.71	3.3862e-06	3.3498e-06	287.63	80.881	63.892	18.841	3.3918e-06	25.869	-6.855	265.176	58.637	-0.034	35.762	149.017	0.005	7.402	17.283	173.456	6.778	17.704	13.887	20.811	151.203	20.431	-8191	255	
1926.828	1	1	0	0	0.078481	0.27827	0.20637	0.34552	0.23444	0.1672	0.18015	0.12212	0.14761	0.20194	0.45744	0.26761	0.2257	0.31018	0.21069	0.22951	-1.65	-2.0875	-1.95	-2.2458	-1.9312	-1.9604	-2.4229	-2.0083	-2.0979	-2.3563	-2.0312	-2.3937	-2.2125	-1.8271	-2.4208	-2.1813	291.191	42.269	146.676	16.573	72.498	260.283	345.392	236.073	238.411	142.741	306.596	312.440	123.414	-8.818	220.739	100.797	0.00049609	0.00023126	5.303e-05	1093.1	4.5256e-06	5.7536e-06	1183.5	231	5.4007e-06	2.6924e-06	287.83	84.049	62.616	18.164	5.5292e-06	25.269	0.00030995	0.00030916	8.6768e-05	1067	3.3803e-06	3.3207e-06	1161.6	228.94	3.3065e-06	3.3307e-06	286.34	80.254	63.671	18.794	3.3264e-06	25.915	-0.273	345.204	35.659	-0.297	90.897	123.079	-0.202	7.374	219.363	229.494	6.775	17.199	13.974	20.785	114.064	20.089	-8191	255	
1926.947	1	1	0	0	0.080018	0.0929	0.069759	0.29357	0.35944	0.18454	0.099852	0.059183	0.15405	0.26721	0.17023	0.068854	0.079976	0.23079	0.23015	0.17055	-1.4896	-2.2479	-1.8208	-2.2021	-2.0187	-2.0042	-2.4479	-1.8979	-1.9021	-2.4125	-1.9688	-2.2271	-2.1562	-1.8417	-2.4375	-1.9	28.368	114.948	32.392	32.088	145.288	305.224	305.057	79.874	109.860	289.656	214.602	307.921	32.364	-7.529	332.890	146.756	0.00038842	0.00031257	7.7174e-05	1094.4	4.8342e-06	2.1763e-06	1184	228.94	3.2244e-06	3.3998e-06	287.6	82.282	62.987	18.202	6.6179e-07	25.192	0.00030108	0.00030575	8.3063e-05	1064	3.3138e-06	3.2747e-06	1162	228.1	3.2513e-06	3.2679e-06	286.3	79.7	63.647	18.75	3.2256e-06	25.818	-9.387	25.600	159.077	-0.279	203.629	296.521	-0.229	7.580	81.719	44.458	7.128	14.483	14.547	20.605	248.027	20.413	-8191	255	
1927.043	1	1	0	0	0.27416	0.050729	0.086626	0.048453	0.22482	0.13613	0.28609	0.27877	0.020978	0.20743	0.23775	0.2284	0.19384	0.10047	0.21431	0.20339	-1.5125	-2.2083	-1.8271	-2.1813	-2.1688	-1.9667	-2.4396	-2.2229	-1.9208	-2.35	-1.9125	-2.0479	-2.1354	-1.7812	-2.2333	-2.2562	109.756	-6.800	154.776	17.114	300.170	90.553	247.098	342.544	262.794	32.438	271.448	211.029	52.633	4.016	272.857	172.947	0.00045261	0.00019394	0.00014547	1098.4	3.8532e-06	4.0866e-06	1187.6	229.08	5.7405e-06	7.5891e-07	288.45	83.26	62.822	18.182	1.6353e-06	25.259	0.00029632	0.00029411	8.0502e-05	1063.1	3.2521e-06	3.1957e-06	1161.4	228.08	3.2367e-06	3.2349e-06	285.98	79.319	63.598	18.71	3.2523e-06	25.789	-9.421	119.826	175.151	-0.544	140.161	208.536	0.056	7.392	94.262	101.049	7.281	15.423	13.821	20.794	265.926	20.132	-8191	255	
1927.139	1	1	0	0	0.14951	0.17945	0.16438	0.091164	0.22743	0.24575	0.23574	0.11523	0.14999	0.035105	0.25175	0.19472	0.29973	0.0616	0.082197	0.05434	-1.3937	-2.3458	-1.8813	-2.2104	-2.2521	-1.8396	-2.3917	-2.2313	-1.9333	-2.2917	-2.125	-1.9188	-2.1771	-1.7021	-2.0042	-2.2167	171.432	333.214	22.454	207.477	300.467	164.809	285.654	1.205	148.073	267.927	271.926	267.657	346.157	61.376	51.026	210.253	0.00040762	0.00012174	0.00011425	1091	6.531e-06	4.334e-06	1179.9	229.86	6.4591e-06	1.2953e-06	288.51	80.829	63.002	18.21	2.6987e-06	25.268	0.0002984	0.00029531	8.282e-05	1063.7	3.2495e-06	3.2481e-06	1158.7	228.26	3.2278e-06	3.2273e-06	285.87	79.113	63.525	18.725	3.2774e-06	25.853	10.073	1.381	107.767	-0.277	81.373	30.874	-0.201	7.305	53.570	89.939	6.755	15.887	14.076	21.051	228.424	20.257	-8191	255	
1927.235	1	1	0	0	0.24315	0.26814	0.27938	0.22971	0.038616	0.14579	0.17859	0.3001	0.16229	0.13151	0.10685	0.22744	0.37399	0.26094	0.15974	0.25418	-1.2729	-2.2229	-1.9125	-2.0521	-2.3271	-1.9375	-2.3979	-2.3104	-1.9375	-2.2833	-2.0333	-1.8625	-2.2396	-1.9125	-2.0542	-1.9688	300.449	274.600	317.542	269.640	143.305	166.176	314.222	330.158	149.163	296.662	345.072	175.152	308.094	340.531	251.359	12.440	0.0003759	0.0004779	6.6944e-05	1094	1.4405e-06	8.2861e-06	1182.6	229.9	4.3925e-06	6.0461e-06	286.78	83.51	62.68	18.322	4.8725e-06	25.149	0.00029419	0.00029597	8.2133e-05	1061	3.1909e-06	3.2353e-06	1160.7	228.09	3.2187e-06	3.1968e-06	285.61	79.29	63.454	18.723	3.2372e-06	25.762	347.409	16.615	318.731	0.011	132.259	65.969	-0.032	7.392	45.715	236.776	7.096	16.627	13.970	20.836	43.850	20.242	-8191	255	
1927.331	1	1	0	0	0.11676	0.054877	0.22576	0.092331	0.14666	0.07931	0.18031	0.12341	0.13634	0.12925	0.24818	0.12739	0.11072	0.15941	0.12071	0.1494	-1.3354	-2.2146	-2.0583	-2.1396	-2.3917	-1.9042	-2.2854	-2.2208	-1.8042	-2.275	-2.1479	-1.7062	-2.3292	-2.0146	-2.0896	-2.2333	204.639	271.690	346.567	-3.909	133.769	-1.346	240.650	35.306	23.565	60.296	287.834	106.565	102.746	57.112	185.137	256.540	0.00032839	0.00020665	1.7471e-05	1102.7	3.7977e-06	9.7447e-06	1181.9	229.29	8.5324e-07	7.2423e-06	288.9	84.612	63.151	18.213	4.6167e-06	25.256	0.00029815	0.0002952	8.3597e-05	1064	3.2645e-06	3.2445e-06	1160.2	227.94	3.2688e-06	3.2665e-06	285.81	79.452	63.537	18.698	3.2654e-06	25.773	-6.725	203.743	-6.734	-0.367	212.473	132.978	0.010	7.122	109.378	152.200	6.720	16.906	13.691	21.064	54.124	20.414	-8191	255	
1927.428	1	1	0	0	0.082741	0.12498	0.07895	0.11489	0.23498	0.13755	0.27428	0.13591	0.082488	0.35333	0.11535	0.10117	0.30505	0.0091991	0.30196	0.14784	-1.4083	-2.2479	-2.0375	-2.0833	-2.2333	-1.9458	-2.2812	-2.2521	-2.1042	-2.3146	-2.2	-1.9312	-2.3438	-2.0438	-2.2062	-2.4062	106.914	226.302	325.208	-5.451	11.527	134.885	290.522	238.334	150.805	101.450	184.943	158.353	319.430	181.520	176.716	39.171	0.00019221	0.00067182	5.9754e-06	1096.9	4.6281e-06	9.3991e-06	1179.8	228.38	5.8255e-06	5.6843e-06	288.96	83.279	62.941	18.168	3.9473e-07	25.247	0.00029673	0.00029867	8.2715e-05	1062.6	3.2523e-06	3.2239e-06	1158.2	227.74	3.2653e-06	3.2268e-06	286.27	79.316	63.401	18.666	3.1888e-06	25.772	319.633	91.991	62.974	0.078	70.997	140.089	-0.204	7.096	181.453	212.370	6.803	15.395	13.876	20.786	327.835	20.724	-8191	255	
1927.548	1	1	0	0	0.080955	0.16979	0.094946	0.054356	0.046602	0.042335	0.40465	0.020986	0.12949	0.15513	0.37408	0.27942	0.18812	0.13118	0.20822	0.065657	-1.45	-2.3167	-2.3187	-2	-2.4	-2.0229	-2.2	-2.3187	-1.8771	-2.1813	-2.3167	-1.825	-2.3688	-2.1021	-2.1479	-2.35	12.158	215.782	87.733	224.566	9.114	116.975	290.506	157.267	199.494	143.181	285.696	83.491	156.414	110.168	9.104	276.740	0.00042345	0.00072666	0.00014102	1091.6	2.6127e-06	7.9292e-06	1178.3	228.94	5.9542e-06	2.3564e-06	288.08	83.102	63.013	18.152	5.0781e-07	25.182	0.00029409	0.00029125	8.1441e-05	1059.8	3.1929e-06	3.1889e-06	1156.4	227.72	3.1469e-06	3.1576e-06	285.26	78.797	63.23	18.636	3.1352e-06	25.682	-7.111	25.900	37.926	-0.023	231.666	315.670	-0.113	7.299	51.154	186.238	7.222	15.477	14.490	20.971	211.889	20.497	-8191	255	
1927.643	1	1	0	0	0.0793	0.12422	0.34566	0.033756	0.13143	0.16602	0.13884	0.18386	0.21838	0.32159	0.11179	0.1769	0.12373	0.064462	0.27522	0.056293	-1.5042	-2.0875	-2.1167	-2.1042	-2.1396	-2.1562	-2.0375	-2.4146	-1.9979	-2.1958	-2.3583	-1.775	-2.1375	-2.1104	-2.1292	-2.2958	198.511	209.549	19.080	289.368	6.241	83.682	319.900	312.647	295.109	212.191	171.245	305.213	-6.024	112.728	187.918	306.933	0.00033593	0.00049213	4.845e-05	1098.6	1.61e-06	5.7445e-06	1181	229.47	7.5331e-07	2.1465e-06	288.92	83.253	62.424	18.074	3.7014e-06	25.167	0.00029046	0.00028963	7.9923e-05	1062.1	3.117e-06	3.1555e-06	1157.6	227.61	3.0954e-06	3.1628e-06	285.11	78.563	63.105	18.643	3.1283e-06	25.686	14.666	93.143	26.419	-0.427	95.987	126.664	-0.082	7.568	229.629	84.052	6.899	16.654	14.141	20.744	105.247	20.229	-8191	255	
1927.739	1	1	0	0	0.111	0.20633	0.15888	0.090932	0.18916	0.14837	0.30545	0.073367	0.13059	0.33927	0.15743	0.25114	0.076326	0.22187	0.21954	0.21764	-1.5146	-2.1521	-2.1833	-2.0125	-2.2562	-2.3354	-2.075	-2.4083	-1.9521	-1.9583	-2.3979	-1.9125	-2.1437	-2.2875	-1.9	-2.3438	81.819	258.674	2.980	317.382	0.133	32.366	291.066	140.992	301.995	338.677	255.659	2.428	1.733	6.598	72.762	263.261	0.00035403	0.00034853	9.5428e-05	1096.4	5.2851e-06	7.8661e-06	1178.5	229.53	8.9073e-06	7.8633e-06	288.37	85.642	62.397	18.23	5.2468e-06	25.365	0.0002856	0.00028507	7.8354e-05	1058.2	3.0921e-06	3.1807e-06	1155.1	227.51	3.1267e-06	3.123e-06	285.14	79.023	63.026	18.634	3.1285e-06	25.734	-4.423	336.079	49.687	-0.244	233.955	248.943	-0.203	7.632	171.474	160.152	7.222	15.055	13.873	21.177	268.666	20.672	-8191	255	
1927.812	1	1	0	0	0.1257	0.3221	0.11206	0.22694	0.12134	0.16292	0.30289	0.10181	0.37368	0.16122	0.25022	0.042662	0.19442	0.15649	0.17999	0.18216	-1.4896	-1.9604	-2.1854	-2.0708	-1.9875	-2.125	-2.1479	-2.2729	-2.1292	-1.9854	-2.4271	-1.9146	-1.9562	-2.1625	-2.025	-2.2458	164.653	272.459	313.497	44.026	73.688	206.395	311.755	266.704	43.299	346.885	33.180	146.668	134.603	242.071	260.988	28.228	0.00024885	0.00049817	0.000177	1084.8	2.7983e-06	4.2269e-06	1175.6	228.28	1.9932e-06	6.2096e-06	286.92	83.521	62.507	18.257	6.7232e-06	25.162	0.00028817	0.00028034	7.9654e-05	1053.2	3.1418e-06	3.1281e-06	1155.2	226.96	3.0779e-06	3.1149e-06	284.25	78.346	62.873	18.667	3.0915e-06	25.716	348.602	10.725	70.808	0.000	38.906	133.769	0.053	7.027	330.257	174.213	6.783	15.831	14.307	20.773	121.054	19.887	-8191	255	
1927.931	1	1	0	0	0.12561	0.11073	0.10194	0.11054	0.095385	0.15144	0.12916	0.26192	0.13367	0.32444	0.20343	0.37846	0.19254	0.24318	0.081186	0.32009	-1.4125	-1.8417	-2.25	-2.0687	-2.1125	-2.2958	-2.0354	-2.4396	-1.9854	-1.8375	-2.2771	-2.1167	-2.1417	-2.1708	-1.8125	-2.1396	259.943	210.545	112.356	200.358	207.601	131.686	300.815	331.766	290.310	159.557	293.734	112.744	33.120	99.413	251.124	313.826	0.00056428	0.00021041	6.8415e-05	1084.7	2.414e-06	3.4135e-06	1183.3	228.77	2.0455e-06	4.5284e-06	287.73	83.583	62.595	18.096	3.4056e-06	25.153	0.00028562	0.00028442	7.7788e-05	1055.1	3.1384e-06	3.0698e-06	1156	227.05	3.048e-06	3.1145e-06	285.09	78.536	63.04	18.59	3.108e-06	25.674	5.415	97.738	36.058	-0.509	114.913	324.134	-0.025	7.229	246.722	145.410	7.076	15.629	13.517	21.242	193.185	20.307	-8191	255	
1928.027	1	1	0	0	0.3201	0.20847	0.10979	0.23979	0.020511	0.22703	0.3697	0.137	0.13846	0.20147	0.072949	0.14866	0.25326	0.057606	0.10719	0.053352	-1.5979	-1.7437	-2.2979	-2.0583	-2.1	-2.4292	-1.95	-2.1792	-2.1792	-1.8479	-2.4854	-1.9708	-1.7646	-2.2104	-2.0187	-2.2458	74.443	166.284	32.058	234.554	224.027	236.907	296.198	-1.196	-1.336	164.161	2.144	341.925	189.717	29.497	101.808	124.376	0.00042329	0.00054573	0.00020292	1096.7	2.9453e-06	5.2483e-06	1178.4	228.76	5.1503e-06	1.9785e-06	287.89	84.501	62.297	18.209	1.9122e-06	25.29	0.00028228	0.00028548	7.7817e-05	1056.7	3.0525e-06	3.0653e-06	1154.4	226.87	3.0847e-06	3.0415e-06	284.65	77.911	63.2	18.59	3.0557e-06	25.71	-6.351	50.520	11.718	-0.157	52.681	76.991	-0.162	7.334	128.141	137.208	6.827	17.014	13.895	21.116	335.889	20.500	-8191	255	
1928.123	1	1	0	0	0.083149	0.087197	0.075449	0.092086	0.1581	0.12683	0.20372	0.15648	0.15636	0.14537	0.0893	0.049425	0.39789	0.20712	0.14012	0.18889	-1.6625	-1.8479	-2.2188	-1.9917	-1.9896	-2.1375	-2.2146	-2.2396	-2.0271	-1.8917	-2.1667	-2.1479	-1.8854	-2.3875	-1.8771	-2.2354	101.092	83.175	268.489	163.077	143.813	-3.583	276.785	278.393	35.842	264.463	346.117	180.712	308.383	39.191	81.336	334.292	0.00038874	0.00032408	5.5701e-05	1096.4	1.9912e-06	4.2342e-07	1176.8	228.92	6.727e-06	6.0718e-06	287.36	85.31	62.247	18.199	1.0295e-06	25.222	0.00028369	0.00028198	7.7481e-05	1058.1	3.033e-06	2.9912e-06	1154.5	226.94	3.0237e-06	2.9936e-06	284.4	78.086	62.877	18.59	2.9575e-06	25.574	8.516	153.807	45.165	-0.321	185.278	299.025	-0.111	7.423	62.572	143.828	7.175	16.119	14.043	21.046	106.483	20.556	-8191	255	
1928.220	1	1	0	0	0.1917	0.087828	0.051658	0.1822	0.094803	0.13071	0.27756	0.25425	0.17659	0.3358	0.095399	0.16411	0.053112	0.19003	0.23371	0.22299	-1.8125	-1.9917	-2.1771	-2.1271	-1.9583	-2.3937	-2.0958	-2.0521	-2.2354	-1.7646	-2.4188	-2.1688	-1.9188	-2.3	-1.8646	-2.0563	106.019	303.591	124.873	241.164	342.852	3.694	335.550	330.162	312.887	221.759	16.123	278.541	161.194	309.509	37.359	46.648	0.00017847	0.00072122	9.3257e-05	1088.8	2.8148e-07	7.0103e-06	1177	228.36	2.1468e-06	2.6227e-06	288.27	81.988	62.522	18.114	1.3934e-06	25.282	0.00027118	0.00027153	7.5077e-05	1053.3	2.965e-06	2.9823e-06	1153.6	226.83	3.012e-06	2.9432e-06	284.04	77.028	62.786	18.541	2.9135e-06	25.554	-4.603	66.928	27.722	-0.251	69.422	57.866	0.131	7.472	12.710	87.695	7.174	16.856	14.088	21.435	176.308	20.727	-8191	255	
1928.340	1	1	0	0	0.29012	0.04377	0.30021	0.23405	0.16197	0.16222	0.26909	0.31275	0.25199	0.32411	0.15315	0.12861	0.16474	0.11536	0.037213	0.15202	-1.6896	-1.7729	-2.2021	-2.1229	-1.8	-2.325	-2.2146	-2.0458	-2.4542	-2.0042	-2.0958	-2.0417	-1.775	-2.4	-2.0792	-1.9792	160.690	144.609	69.847	63.001	343.680	169.282	311.615	283.307	49.023	142.107	66.373	90.950	257.193	318.370	244.336	340.588	0.00037973	0.00044916	3.4148e-05	1084.7	2.4508e-06	3.6122e-06	1180.1	228.33	7.1424e-06	2.2995e-06	287.62	85.185	62.561	18.211	4.9467e-06	25.049	0.00027049	0.00026809	7.4201e-05	1050.8	2.9125e-06	2.9045e-06	1154	226.36	2.8816e-06	2.8577e-06	283.54	76.787	62.783	18.534	2.8983e-06	25.583	-1.050	82.315	271.707	-0.290	19.819	94.827	-0.101	7.479	93.606	43.664	6.883	15.567	13.573	21.298	138.073	20.696	-8191	255	
1928.412	1	1	0	0	0.29655	0.29015	0.10273	0.030475	0.19051	0.1992	0.13431	0.11054	0.21346	0.17252	0.090682	0.10449	0.25187	0.1356	0.3279	0.26339	-1.9188	-1.7771	-2.0271	-2.3	-1.7729	-2.3375	-2.3104	-2.0042	-2.3542	-1.8958	-2.1958	-2.1583	-1.7458	-2.1396	-2.2021	-1.8312	258.359	215.676	187.084	288.146	348.694	333.405	234.876	238.739	256.220	338.034	12.710	45.437	295.192	79.227	92.882	347.751	0.00036506	0.00028762	0.00012934	1083.2	1.7712e-06	4.5616e-06	1174.8	227.85	7.2277e-06	2.6043e-06	288.2	82.49	61.808	18.06	3.7193e-06	24.913	0.00027078	0.00026617	7.3586e-05	1051.8	2.9326e-06	2.9185e-06	1152	226.32	2.9145e-06	2.9376e-06	284.08	76.361	62.422	18.532	2.9375e-06	25.47	0.133	338.633	47.834	-0.226	153.321	307.079	0.003	7.355	167.772	156.703	7.131	17.069	13.553	20.895	99.574	20.312	-8191	255	
1928.508	1	1	0	0	0.24292	0.33384	0.27455	0.1202	0.10549	0.095809	0.23416	0.15776	0.1431	0.23486	0.21083	0.1511	0.16112	0.10787	0.15628	0.26945	-1.7437	-1.9896	-2.0792	-2.3042	-1.8667	-2.2583	-2.2229	-1.9625	-2.3458	-1.9667	-2.1188	-2.3063	-1.9458	-2.2167	-1.9771	-1.9146	287.116	127.408	82.538	193.889	263.135	64.525	337.998	-7.733	12.993	47.170	337.607	38.263	10.961	66.934	110.024	312.894	0.00037557	0.00036836	9.3849e-05	1094.8	2.4513e-07	4.2437e-06	1176.8	228.97	2.4451e-06	4.7142e-06	287.51	81.869	62.15	18.127	3.0782e-06	25.112	0.00027187	0.00026808	7.4101e-05	1053.7	2.9994e-06	2.915e-06	1152.2	226.53	2.9365e-06	2.9839e-06	283.74	76.667	62.764	18.548	2.9961e-06	25.579	341.817	39.958	60.106	-0.163	235.929	177.415	-0.152	7.383	117.902	214.443	7.207	15.759	13.737	20.867	247.251	20.744	-8191	255	
1928.629	1	1	0	0	0.21439	0.1366	0.096689	0.12058	0.070503	0.1257	0.31338	0.20335	0.17678	0.04245	0.18928	0.28875	0.25768	0.24789	0.17394	0.26704	-1.8438	-2.125	-1.8833	-2.3833	-1.9167	-2.0667	-2.2646	-1.925	-2.3354	-2.1646	-2.0771	-2.3292	-1.8958	-2.2	-2.2167	-1.7792	284.862	203.335	309.580	257.517	120.772	223.332	281.556	32.069	28.954	133.773	229.386	307.908	229.431	329.441	276.372	246.180	0.00031716	0.000405	6.6648e-05	1088.1	5.8957e-06	4.1771e-06	1176.2	227.49	5.1612e-06	2.7605e-06	285.14	82.949	62.252	18.144	2.6784e-06	25.112	0.00027402	0.00026696	7.6159e-05	1052.8	2.9259e-06	2.9505e-06	1150.7	226.01	2.9548e-06	2.9717e-06	283.31	77.504	62.63	18.526	2.9983e-06	25.6	3.737	107.010	-5.055	-0.228	78.048	146.548	-0.079	7.500	118.680	66.859	6.957	16.613	14.106	21.391	81.381	20.529	-8191	255	
1928.725	1	1	0	0	0.16634	0.18545	0.22409	0.2033	0.18611	0.28715	0.17416	0.17174	0.062302	0.14184	0.13533	0.15074	0.14746	0.10076	0.21702	0.24569	-1.75	-2.0104	-2.0167	-2.4208	-1.8292	-2.0354	-2.3542	-1.825	-2.3875	-1.8083	-2.0896	-2.2917	-2.0021	-2.1208	-2.2875	-1.7771	84.576	186.152	212.368	273.437	168.370	0.118	336.679	269.416	319.029	116.431	39.443	-4.969	256.157	313.380	277.291	266.387	0.00035144	0.00026272	8.2007e-05	1097.9	4.4302e-06	2.4872e-06	1169.9	226.97	4.0462e-06	7.0149e-06	286.78	82.912	62.501	18.146	9.78e-07	25.155	0.00027313	0.00027201	7.5189e-05	1055.2	2.9645e-06	2.9613e-06	1150.6	226.05	2.9446e-06	2.9658e-06	283.75	76.624	62.831	18.537	2.9934e-06	25.562	338.406	104.517	200.470	0.088	-7.141	155.905	-0.162	7.413	56.706	141.549	6.652	17.188	13.534	20.946	312.028	20.546	-8191	255	
1928.821	1	1	0	0	0.31709	0.13216	0.16269	0.057376	0.16758	0.23367	0.22374	0.10651	0.058296	0.09626	0.16021	0.099705	0.1827	0.052349	0.10918	0.093665	-1.7833	-2.075	-1.8646	-2.3937	-2.0458	-1.925	-2.4958	-1.8875	-2.2104	-2.1917	-1.7917	-2.3125	-1.975	-2.0021	-2.0708	-1.9417	193.273	60.652	35.444	266.126	178.133	198.393	283.450	288.010	202.979	324.623	85.403	240.625	332.654	12.589	275.765	260.705	0.0004281	0.0002131	9.6188e-05	1089	4.8125e-06	2.696e-06	1177.6	228.11	3.4714e-06	6.128e-06	286.23	85.261	62.692	18.083	4.4165e-06	24.944	0.00027992	0.00027542	7.6152e-05	1054.6	2.9836e-06	2.9868e-06	1152.8	225.95	2.9799e-06	2.974e-06	283.26	76.958	62.71	18.516	2.9537e-06	25.537	340.255	127.175	59.221	0.027	164.714	276.312	0.147	7.286	71.367	27.027	6.890	16.716	13.945	20.932	101.035	20.487	-8191	255	
1928.940	1	1	0	0	0.13771	0.35754	0.056188	0.41207	0.19904	0.1909	0.049098	0.21973	0.074881	0.1602	0.41152	0.1178	0.079019	0.1418	0.36162	0.23817	-1.4854	-2.2812	-1.7417	-2.25	-2.0583	-2	-2.35	-1.9229	-2.0333	-2.2292	-1.8771	-2.2583	-2.2188	-1.9521	-2.2	-1.8583	179.702	131.712	166.527	6.686	61.693	249.868	287.931	277.240	111.581	42.898	348.062	85.868	113.994	66.791	193.857	-1.100	0.00044123	0.00033959	8.0924e-05	1092.1	8.4785e-06	1.5046e-06	1171.1	227.83	9.23e-06	6.8073e-06	287.31	80.17	62.821	18.142	4.3454e-06	25.19	0.00027178	0.00026823	7.4756e-05	1054.6	2.9339e-06	2.9402e-06	1149.9	226.37	2.9205e-06	2.9817e-06	283.77	76.239	62.582	18.457	2.9303e-06	25.551	-4.989	115.533	104.114	0.032	104.023	343.254	-0.100	7.291	121.101	158.431	6.867	16.088	13.800	21.178	198.990	20.615	-8191	255	
1929.036	1	1	0	0	0.17919	0.24499	0.081887	0.14683	0.10964	0.069564	0.10938	0.055764	0.24304	0.16651	0.28479	0.085694	0.10985	0.47392	0.044689	0.07597	-1.3188	-2.0354	-1.7021	-2.3021	-1.975	-1.9312	-2.4813	-1.9854	-2.0271	-2.2938	-2.0187	-2.0396	-2.2062	-2.0583	-2.2354	-1.8729	139.667	-6.400	250.553	248.188	40.395	322.299	292.931	-10.099	240.734	328.675	311.008	311.491	157.122	284.561	217.058	17.495	0.00042789	8.3495e-05	8.4109e-05	1085.1	1.9996e-06	6.2874e-06	1177.2	227.35	6.8738e-06	1.7956e-06	286.72	86.193	62.543	18.04	3.4123e-06	25.129	0.00027156	0.00026665	7.4501e-05	1050.1	2.9212e-06	2.9111e-06	1152.2	225.63	2.9376e-06	2.9602e-06	283.2	76.696	62.687	18.424	2.8721e-06	25.509	348.602	143.761	71.481	-0.030	35.499	115.957	-0.029	7.518	321.391	327.451	6.910	17.523	13.977	20.761	204.128	20.491	-8191	255	
1929.108	1	1	0	0	0.30435	0.21044	0.07277	0.048443	0.051918	0.26821	0.28738	0.051657	0.12655	0.29385	0.16184	0.20177	0.175	0.28624	0.086163	0.083655	-1.5688	-2.1771	-1.7458	-2.1958	-2.3333	-1.9021	-2.5062	-2.075	-1.9625	-2.4854	-1.9396	-2.0563	-2.2125	-1.8917	-2.2062	-2.1063	138.036	54.943	236.402	252.104	346.308	87.369	20.198	64.892	293.372	20.202	37.344	158.495	323.300	18.455	329.763	265.719	0.00027428	0.00060274	9.4604e-05	1090.9	3.6837e-06	8.1471e-06	1176.7	228.28	6.7144e-06	2.9794e-06	286.11	82.462	61.735	18.198	3.1121e-06	25.026	0.00026604	0.00026583	7.3972e-05	1051.1	2.9273e-06	2.9464e-06	1150.9	225.59	2.9507e-06	2.9281e-06	282.69	76.289	62.408	18.464	2.9262e-06	25.468	16.157	118.400	140.357	0.175	100.976	17.476	-0.176	7.401	313.002	84.996	7.225	14.823	14.190	20.931	92.740	20.621	-8191	255	
1929.228	1	1	0	0	0.12892	0.21347	0.2502	0.36502	0.23832	0.093709	0.27089	0.22673	0.16421	0.069382	0.039473	0.32697	0.047524	0.41245	0.10779	0.13227	-1.4125	-2.2833	-1.675	-2.1312	-2.3417	-1.7	-2.5792	-2.0958	-2.0271	-2.4729	-1.9458	-2.2021	-2.2917	-1.7875	-2.3521	-2.1833	166.283	148.260	299.991	277.147	22.397	228.832	321.826	2.746	-4.234	188.630	137.694	323.032	71.133	24.948	-1.773	50.657	0.00040707	0.00056228	0.00012185	1091	5.3549e-06	5.6788e-06	1172.3	228.16	8.644e-06	4.2978e-06	287.85	82.619	62.048	18.073	1.2768e-06	25.128	0.00027028	0.00026781	7.406e-05	1052.1	2.9231e-06	2.9634e-06	1149.3	226.03	2.9238e-06	2.9169e-06	282.41	76.582	62.289	18.427	2.9237e-06	25.515	-9.940	52.795	-2.888	-0.295	134.033	126.882	-0.389	7.280	145.560	75.204	7.045	15.779	13.724	20.931	148.827	20.962	-8191	255	
1929.324	1	1	0	0	0.090229	0.084271	0.2487	0.10004	0.20687	0.18149	0.13207	0.12186	0.004908	0.38474	0.1322	0.27375	0.26594	0.082095	0.23507	0.096794	-1.5208	-2.2333	-1.8854	-2.1792	-2.2333	-2.0521	-2.5146	-2.1229	-1.9167	-2.2854	-2.1312	-2.0438	-2.4708	-1.8479	-2.1312	-2.2229	37.904	203.991	156.056	231.541	147.175	332.794	338.073	4.467	201.036	26.800	221.386	182.675	256.408	77.687	272.730	286.463	0.00037255	0.00099472	4.5143e-05	1088.4	1.4613e-06	8.6841e-06	1174	226.67	8.6405e-06	5.6883e-06	283.69	82.821	62.571	18.127	5.4242e-06	24.937	0.00027035	0.00026843	7.4815e-05	1050.8	2.9307e-06	2.9368e-06	1149	225.13	2.9676e-06	2.8904e-06	282.28	76.304	62.33	18.482	2.9106e-06	25.43	-9.991	7.364	75.488	-0.336	142.262	141.780	-0.163	7.537	67.633	88.287	7.129	14.759	13.969	21.260	105.906	20.866	-8191	255	
1929.421	1	1	0	0	0.030486	0.072974	0.15118	0.087897	0.21464	0.18462	0.22023	0.37007	0.2729	0.098903	0.21362	0.1007	0.23565	0.43729	0.046764	0.22854	-1.2667	-2.1479	-1.8979	-2.0312	-2.4938	-1.8312	-2.3729	-2.2979	-1.9229	-2.3438	-2.0458	-2.0167	-2.3937	-1.7708	-2.1167	-2.075	91.090	161.290	148.844	91.773	24.292	65.020	15.377	29.074	44.298	135.478	348.441	137.339	153.683	32.818	39.416	321.022	0.00032676	0.00022242	4.4789e-05	1085.8	6.8337e-06	5.7214e-06	1171.2	227.22	5.8678e-06	7.0993e-06	285.6	81.516	62.229	17.984	1.4193e-06	25.078	0.00026618	0.00026625	7.4134e-05	1049.9	2.8629e-06	2.9222e-06	1148.1	225.12	2.8931e-06	2.8441e-06	282.27	75.906	62.438	18.382	2.8997e-06	25.443	39.954	196.206	119.284	0.019	56.494	156.131	-0.160	7.602	32.794	169.105	6.966	17.357	13.973	21.373	174.156	20.990	-8191	255	
1929.517	1	1	0	0	0.04576	0.30541	0.18095	0.078497	0.15332	0.16954	0.20693	0.090323	0.12334	0.1436	0.35779	0.1202	0.031717	0.16434	0.095236	0.094576	-1.2646	-2.1396	-2.0083	-2.0104	-2.5104	-1.9375	-2.1271	-2.3667	-1.9562	-2.4604	-2.1292	-1.9458	-2.5292	-2.1125	-2.0583	-2.3417	299.870	134.797	118.376	277.615	124.538	290.281	290.621	235.315	346.305	22.065	63.841	348.554	205.483	88.268	321.690	190.461	0.00044775	0.00030458	0.00015515	1088.2	7.223e-06	7.7331e-06	1169.3	225.99	3.6245e-06	1.9073e-06	286.39	81.543	61.825	18.106	2.6311e-06	25.018	0.00026353	0.00025825	7.3112e-05	1050.6	2.8445e-06	2.8488e-06	1146.3	224.7	2.896e-06	2.8994e-06	282.17	76.148	62.252	18.391	2.8899e-06	25.409	348.591	342.487	41.331	-0.454	148.971	111.268	-0.146	7.432	-8.668	232.763	7.005	18.480	13.851	21.098	333.334	20.623	-8191	255	
1929.636	1	1	0	0	0.24572	0.2968	0.13267	0.098759	0.16871	0.22805	0.067134	0.22041	0.12164	0.21906	0.14733	0.28414	0.14187	0.064598	0.13221	0.079505	-1.35	-2.125	-2.1229	-1.85	-2.2958	-1.9896	-2.2729	-2.3104	-1.9021	-2.2438	-2.1458	-2.0604	-2.2708	-2.1979	-2.0875	-2.1312	225.319	-5.291	329.008	58.759	114.315	307.631	210.125	348.328	330.482	290.043	311.057	191.610	313.334	52.900	292.402	143.237	0.00041364	0.00015205	0.00012461	1082.8	2.4671e-06	8.1549e-06	1172.2	226.46	4.4247e-06	3.4852e-06	285.74	83.799	61.925	17.989	3.0914e-06	24.909	0.00026132	0.00025812	7.2099e-05	1044.7	2.8726e-06	2.8794e-06	1148.6	224.62	2.8625e-06	2.878e-06	281.45	75.502	62.326	18.379	2.844e-06	25.352	9.807	217.016	41.651	0.137	98.851	134.062	-0.116	7.107	36.462	67.849	7.120	16.568	13.768	21.230	131.407	20.909	-8191	255	
1929.709	1	1	0	0	0.25611	0.12649	0.094764	0.19283	0.063726	0.22137	0.16325	0.2084	0.055453	0.053216	0.31124	0.33552	0.23754	0.077845	0.17068	0.13289	-1.6271	-2.325	-2.2125	-1.9792	-2.4646	-2.2125	-2.2896	-2.55	-1.8604	-2.1312	-2.3396	-1.875	-2.2458	-2.2146	-1.8813	-2.4562	223.664	232.429	243.922	19.238	317.216	17.182	241.008	281.375	137.926	83.711	6.657	234.207	25.789	-7.047	314.695	58.087	0.00040388	0.00043997	7.9187e-05	1088.3	5.19e-06	5.65e-06	1171.2	226.23	4.32e-06	5.7829e-06	285.87	84.366	61.92	18.099	4.1305e-06	24.972	0.00026131	0.00026452	7.2098e-05	1048	2.8658e-06	2.8418e-06	1147.9	224.43	2.8343e-06	2.8708e-06	281.75	75.722	62.168	18.424	2.8763e-06	25.363	13.188	84.791	-4.068	-0.178	38.143	136.915	-0.008	7.696	260.462	38.174	7.072	15.136	14.248	21.003	168.911	20.490	-8191	255	
1929.805	1	1	0	0	0.25617	0.075151	0.23582	0.053022	0.19384	0.11206	0.28088	0.45797	0.057135	0.27523	0.18851	0.1748	0.13547	0.17732	0.096576	0.072633	-1.4625	-2.1479	-2.2812	-2.0583	-2.2208	-2.2833	-2.25	-2.5167	-2.1083	-2.0646	-2.3563	-1.6667	-2.2896	-2.2979	-2.0646	-2.5625	338.932	86.130	69.147	78.226	83.790	127.620	292.330	315.985	224.790	333.676	287.698	176.919	272.839	222.516	326.356	145.052	0.0002954	6.5947e-05	5.4031e-05	1089	4.0793e-06	1.1384e-05	1168.8	227.46	5.2949e-06	8.5929e-07	286.08	82.6	62.315	18.065	3.8385e-06	25.065	0.00026506	0.00026358	7.278e-05	1047.9	2.8854e-06	2.8435e-06	1146.5	224.9	2.8821e-06	2.8977e-06	281.67	75.406	62.116	18.391	2.8958e-06	25.406	347.617	26.454	70.574	0.076	128.502	215.119	0.113	7.508	49.397	129.451	7.014	17.107	14.230	21.033	343.256	20.720	-8191	255	
1929.901	1	1	0	0	0.076416	0.11418	0.018759	0.14549	0.16773	0.075214	0.24914	0.22996	0.19701	0.24223	0.22634	0.2024	0.29961	0.073232	0.15049	0.11261	-1.6208	-1.9271	-2.4979	-1.9771	-2.4542	-2.2375	-1.9771	-2.4896	-1.9854	-2.1229	-2.3354	-1.8146	-2.275	-2.3812	-1.7896	-2.3812	92.011	189.287	178.019	287.508	319.927	223.010	242.307	296.869	35.829	27.619	239.398	302.212	298.966	346.108	158.116	283.335	0.00014745	0.0002021	5.0958e-05	1080.5	4.5255e-06	4.2957e-06	1166.4	227.74	5.2106e-06	3.3949e-06	285.52	84.025	61.619	18.199	7.2414e-06	24.895	0.00026244	0.00026072	7.3104e-05	1048.5	2.8827e-06	2.8544e-06	1145.6	224.94	2.9443e-06	2.8736e-06	281.51	76.202	62.054	18.413	2.8709e-06	25.386	10.078	131.304	328.055	0.112	88.784	177.113	0.062	7.381	53.598	57.200	6.822	17.251	13.366	20.737	131.853	20.682	-8191	255	
1930.020	1	1	0	0	0.11422	0.11264	0.32406	0.1256	0.27497	0.38756	0.42447	0.47159	0.10753	0.29605	0.20479	0.28875	0.25763	0.054744	0.21163	0.25026	-1.7958	-1.9542	-2.2958	-1.8563	-2.1437	-2.0396	-2.0854	-2.4188	-1.9562	-1.9792	-2.1854	-1.9167	-2.275	-2.0396	-1.8083	-2.1958	99.814	104.885	258.547	-8.751	102.438	33.916	280.759	309.728	262.527	102.469	290.117	333.566	36.517	-9.194	308.215	242.386	0.00048009	0.00047829	4.1849e-05	1085.7	1.5729e-06	8.1231e-06	1168.8	227.21	1.9872e-06	3.9671e-06	285.69	84.877	62.185	18.09	2.7876e-06	25.05	0.00026673	0.0002617	7.2834e-05	1049.5	2.8948e-06	2.882e-06	1147.1	225.2	2.9115e-06	2.8764e-06	282.03	76.58	62.311	18.406	2.9289e-06	25.452	23.235	85.411	265.612	-0.187	100.324	132.528	-0.116	7.349	92.199	171.949	7.066	15.202	14.286	21.253	98.841	20.691	-8191	255	
1930.116	1	1	0	0	0.12818	0.077985	0.13249	0.20656	0.15492	0.25617	0.13501	0.21873	0.43245	0.2913	0.28541	0.16955	0.19979	0.12778	0.22399	0.1043	-1.6167	-1.8958	-2.0312	-2.1521	-2.1125	-2.3104	-2.1167	-2.3875	-2.1896	-1.9958	-2.5625	-1.9604	-2.0771	-2.3146	-1.8604	-2.3875	267.360	209.938	255.628	196.465	22.854	294.771	255.981	292.485	-3.255	42.873	279.318	21.400	114.191	306.722	53.536	110.280	0.00041829	0.00029586	0.00013732	1086.4	3.3112e-06	6.669e-06	1165	226.64	2.9466e-06	5.2898e-06	286.39	84.421	61.756	18.007	2.7765e-06	25.008	0.00026501	0.00026542	7.3266e-05	1047.9	2.9078e-06	2.86e-06	1144.2	224.68	2.939e-06	2.9207e-06	282.44	75.969	62.141	18.364	2.9278e-06	25.336	21.110	183.892	32.239	-0.058	219.632	241.521	-0.062	7.421	290.583	158.079	7.063	15.740	14.253	21.526	122.578	20.885	-8191	255	
1930.212	1	1	0	0	0.14325	0.023524	0.14253	0.17409	0.060306	0.17078	0.12546	0.22432	0.16911	0.19337	0.17415	0.21714	0.084077	0.023872	0.13777	0.049756	-1.6583	-2.0271	-2.3333	-2.1708	-2.0875	-2.4646	-2.2375	-2.2833	-2.2083	-2.0438	-2.3292	-2.0458	-1.9375	-2.4875	-2.0729	-2.175	313.002	93.593	154.784	334.454	264.669	331.668	77.125	343.266	283.913	157.928	2.579	104.582	221.864	52.416	94.605	4.763	0.00035703	0.00031445	9.6428e-05	1077.2	3.604e-06	7.4404e-06	1170.6	226.31	5.9083e-06	7.7429e-06	285.41	82.396	62.292	17.994	1.5584e-06	24.929	0.00026532	0.00026539	7.469e-05	1045	2.8761e-06	2.8873e-06	1146	224.29	2.8845e-06	2.8875e-06	281.67	75.861	62.28	18.345	2.895e-06	25.317	1.557	67.398	3.701	-0.254	106.766	119.279	-0.124	7.641	96.846	147.715	6.754	16.392	14.081	20.774	113.135	20.724	-8191	255	
1930.309	1	1	0	0	0.16379	0.28588	0.14583	0.0722	0.17767	0.35377	0.19241	0.034807	0.12926	0.10787	0.11527	0.38801	0.17884	0.25576	0.12897	0.2098	-1.8625	-1.7771	-2.2479	-1.9875	-1.9771	-2.3604	-2.0896	-2.225	-2.45	-2.0896	-2.3292	-2.2896	-2.1	-2.7188	-1.9979	-2.1896	21.532	302.623	210.772	328.702	14.366	42.739	347.664	302.659	69.607	255.417	304.552	309.606	26.766	331.674	244.452	71.052	0.00044443	0.00016783	6.7596e-05	1083.3	4.1851e-06	6.4046e-06	1169.5	226.81	2.5227e-06	4.9906e-06	286.05	82.44	61.483	17.983	2.6646e-06	25.015	0.00026497	0.00026548	7.2784e-05	1047.2	2.8956e-06	2.8739e-06	1147.5	224.59	2.8817e-06	2.8389e-06	281.64	75.995	62.005	18.377	2.8821e-06	25.398	23.236	162.677	22.217	0.027	176.029	69.322	-0.297	7.527	93.512	41.104	7.373	16.548	14.009	21.189	115.437	20.654	-8191	255	
1930.405	1	1	0	0	0.10955	0.3909	0.1263	0.18764	0.11314	0.096286	0.044829	0.055883	0.20832	0.10042	0.24373	0.17654	0.11812	0.087146	0.17341	0.35311	-1.75	-1.875	-2.2667	-2.3354	-2.0104	-2.3458	-2.35	-1.9896	-2.3875	-2.0312	-2.3104	-2.3021	-1.9042	-2.4146	-2.0604	-2.1271	242.468	54.457	256.674	339.184	315.169	111.653	145.209	119.023	331.774	239.448	311.144	317.283	306.009	274.565	145.362	-6.107	0.00018945	0.00022507	6.6507e-05	1084.3	1.4141e-06	2.954e-06	1173.6	225.26	4.3523e-06	5.9134e-06	286.33	80.764	62.1	17.841	9.6131e-06	24.996	0.00026484	0.0002625	7.2477e-05	1045.3	2.8805e-06	2.8938e-06	1146.5	224.29	2.8168e-06	2.8864e-06	282.02	75.341	62.113	18.336	2.8353e-06	25.31	16.227	349.431	39.230	-0.187	127.874	43.519	-0.031	7.445	81.706	203.373	7.022	17.490	13.758	21.410	85.509	21.083	-8191	255	
1930.501	1	1	0	0	0.2595	0.14616	0.17362	0.20243	0.054311	0.056244	0.28305	0.15137	0.077847	0.24223	0.051389	0.26866	0.058492	0.13339	0.20703	0.17027	-1.9604	-1.6521	-2.2646	-2.0646	-1.8833	-2.4021	-2.3	-1.8937	-2.3896	-1.9292	-2.3937	-2.25	-1.9	-2.2958	-2.1063	-1.9875	340.072	166.226	283.009	309.809	177.352	136.121	275.853	256.558	170.714	239.006	29.870	225.859	200.051	203.077	32.752	302.277	0.00030807	0.00019042	6.2053e-05	1078.8	2.8364e-06	4.5331e-06	1169.2	225.95	3.0133e-06	3.8539e-06	285.59	82.872	61.901	18.009	5.414e-06	24.997	0.00026123	0.00026254	7.2127e-05	1046.5	2.8456e-06	2.8339e-06	1144.2	224.46	2.8388e-06	2.8145e-06	280.86	75.529	62.055	18.356	2.8934e-06	25.342	12.186	71.570	10.177	-0.384	135.797	119.915	0.002	7.328	102.562	139.630	7.118	16.718	14.135	21.065	83.781	20.432	-8191	255	
1930.622	1	1	0	0	0.23412	0.22858	0.079834	0.2039	0.20968	0.25476	0.29242	0.18197	0.067129	0.35286	0.31604	0.12757	0.15901	0.18167	0.13887	0.21794	-1.8	-1.7458	-2.1	-2.1042	-1.725	-2.4208	-2.3312	-1.8896	-2.4854	-2.0042	-2.0167	-2.2625	-1.8667	-2.2771	-2.225	-2.0167	328.483	10.671	160.533	25.988	320.397	270.603	252.639	8.839	210.402	56.010	342.265	341.909	176.993	-10.571	235.213	129.627	0.00026275	0.00042326	0.00016252	1084.2	3.8241e-06	3.7912e-06	1163.9	227.3	8.3545e-06	2.468e-06	285.36	82.715	61.902	17.902	5.5693e-06	24.908	0.00026235	0.00025682	7.2816e-05	1047.6	2.8482e-06	2.8078e-06	1144.4	224.67	2.8739e-06	2.8931e-06	281.11	75.263	62.138	18.34	2.8434e-06	25.309	330.487	32.300	142.559	-0.086	111.979	177.733	-0.081	7.401	158.613	16.876	6.827	16.585	13.898	21.206	72.641	20.597	-8191	255	
1930.718	1	1	0	0	0.23259	0.17673	0.19652	0.29488	0.30655	0.20267	0.19606	0.055424	0.24721	0.03914	0.26904	0.237	0.067712	0.13003	0.064743	0.19997	-1.8125	-1.9813	-1.9396	-2.3042	-1.9083	-2.1771	-2.3042	-2.0417	-2.2646	-2.1167	-2.075	-2.2292	-1.9354	-2.2042	-2.3708	-2.0167	27.720	310.257	188.927	28.936	295.150	135.426	277.203	97.577	43.933	174.531	182.288	248.809	69.325	288.384	118.994	234.787	0.00035481	0.00044246	2.0737e-05	1085.7	6.3978e-06	3.0102e-06	1165.6	228.04	4.3919e-06	3.4293e-06	283.9	81.211	61.838	17.992	3.1864e-06	24.98	0.00026131	0.00025896	7.1855e-05	1046.7	2.8244e-06	2.7911e-06	1145.5	224.47	2.7937e-06	2.7845e-06	280.85	74.683	61.955	18.325	2.7745e-06	25.364	0.845	117.553	96.621	-0.033	127.625	189.669	-0.065	7.406	27.632	266.045	7.085	16.661	14.517	20.782	150.372	20.347	-8191	255	
1930.812	1	1	0	0	0.27141	0.29779	0.091	0.29051	0.1681	0.049921	0.14311	0.33775	0.17522	0.1042	0.15749	0.075223	0.11944	0.37021	0.11822	0.14625	-1.8271	-1.8687	-1.8854	-2.3979	-1.9354	-2.2229	-2.4146	-1.8417	-2.1854	-2.1354	-1.9375	-2.2417	-2.0479	-2.025	-2.3063	-1.9104	131.092	208.720	143.495	259.681	234.238	309.298	254.614	266.426	41.699	29.256	13.278	286.637	251.867	323.137	76.857	296.493	0.00032115	0.00017152	6.6651e-05	1081.1	5.9123e-06	4.1112e-06	1171.2	225.33	1.1807e-06	1.7063e-06	285.18	83.002	61.917	17.938	3.0378e-06	24.955	0.00025473	0.00025744	7.1259e-05	1045	2.8022e-06	2.7795e-06	1144.7	223.91	2.7585e-06	2.7841e-06	281.03	74.593	61.996	18.301	2.78e-06	25.341	8.424	343.188	184.354	-0.056	118.093	134.239	-0.050	7.659	300.354	227.786	6.957	16.336	14.048	20.975	124.274	20.528	-8191	255	
1930.910	1	1	0	0	0.07787	0.23896	0.16405	0.030798	0.12849	0.056229	0.018627	0.14202	0.18882	0.089567	0.02652	0.21026	0.2934	0.11862	0.063715	0.13187	-1.8146	-2.1083	-1.8979	-2.4104	-2.1063	-2.1646	-2.4167	-2.0479	-2.2771	-2.1188	-1.8687	-2.2896	-1.9104	-2.2062	-2.3917	-2.0062	145.235	128.598	323.558	63.381	240.626	2.892	4.060	324.841	299.271	99.221	45.505	308.879	253.701	306.677	110.958	296.728	0.0001866	7.9877e-05	0.00016026	1089.2	6.5796e-07	5.5775e-06	1171.2	224.95	3.0595e-06	5.3605e-06	284.76	82.858	61.406	17.928	2.7682e-06	24.914	0.00025955	0.00025316	7.201e-05	1045.5	2.8268e-06	2.7697e-06	1144.7	223.75	2.8206e-06	2.7853e-06	281.43	75.319	61.905	18.306	2.7612e-06	25.277	-6.830	168.886	103.309	0.006	37.216	197.443	0.171	7.434	315.864	122.181	6.959	15.131	14.272	21.060	41.381	20.723	-8191	255	
1931.004	1	1	0	0	0.1096	0.20329	0.20824	0.41526	0.18277	0.40322	0.053281	0.10138	0.069716	0.11968	0.26075	0.14809	0.12037	0.27685	0.10932	0.13705	-1.8229	-2.0333	-1.8208	-2.4417	-2.0625	-2.0604	-2.3604	-2.0417	-2.2062	-2.2479	-1.8792	-2.2479	-2.1312	-2.0125	-2.4375	-2.0979	105.630	189.776	115.674	317.215	256.838	282.313	255.966	188.931	241.379	184.537	213.376	334.199	-3.747	102.511	319.013	4.552	0.00036259	0.00011701	1.2133e-05	1081.1	2.2679e-06	1.898e-06	1170.6	225.75	6.007e-06	1.7365e-06	285.04	82.776	62.124	17.988	4.5876e-06	24.996	0.00025908	0.00025447	7.0387e-05	1045.6	2.795e-06	2.8306e-06	1144.1	223.93	2.7775e-06	2.8034e-06	281.14	74.697	61.962	18.295	2.8222e-06	25.345	342.486	-1.673	342.974	-0.280	86.447	34.757	-0.118	7.305	44.033	252.892	7.335	17.928	13.966	21.355	191.425	20.564	-8191	255	
1931.101	1	1	0	0	0.27241	0.20859	0.28451	0.088181	0.19822	0.33407	0.23571	0.16412	0.24682	0.25848	0.080797	0.082098	0.04781	0.21682	0.18275	0.20385	-1.6042	-2.3167	-1.8208	-2.3187	-2.1437	-2.1792	-2.4729	-1.9854	-2.0687	-2.4458	-1.925	-2.25	-1.9479	-2.0604	-2.2417	-1.9896	215.480	160.080	174.405	214.572	134.940	348.839	287.382	341.975	162.311	-3.811	46.430	77.422	-0.817	44.981	251.127	255.299	0.00040675	0.00036901	0.00013983	1080.8	3.414e-06	4.7376e-06	1169.4	225.6	4.607e-06	2.9586e-06	286.19	87.471	61.861	17.896	7.6176e-07	25.123	0.0002579	0.00025716	7.1225e-05	1046.5	2.8374e-06	2.8192e-06	1146.3	224.22	2.8318e-06	2.8067e-06	281.25	76.273	62.038	18.369	2.8036e-06	25.378	-10.130	118.359	103.564	-0.348	291.184	90.284	0.048	7.322	101.205	119.408	6.840	17.915	13.845	21.187	267.064	20.855	-8191	255	
1931.197	1	1	0	0	0.065226	0.10239	0.2117	0.066437	0.32441	0.29134	0.26602	0.1463	0.17294	0.24813	0.27148	0.12121	0.048254	0.20055	0.32857	0.19733	-1.4604	-2.2833	-1.7812	-2.1708	-1.9937	-1.9562	-2.5146	-2.2083	-2.0333	-2.2104	-2.0062	-2.1979	-2.1625	-2.0083	-2.1979	-2.2417	83.013	327.126	277.022	176.090	315.993	268.137	258.569	314.720	-6.784	299.637	-5.942	197.316	246.046	208.623	30.188	303.563	0.00040986	0.00027237	9.2221e-05	1083.7	1.2686e-06	1.926e-06	1169.3	225.44	3.3579e-06	4.8975e-06	285.51	83.181	61.832	17.949	2.8366e-06	24.836	0.00026086	0.00026089	7.1583e-05	1048	2.8163e-06	2.8106e-06	1146.8	223.96	2.7814e-06	2.7736e-06	281.52	75.664	61.882	18.328	2.8033e-06	25.342	5.123	45.285	92.710	-0.534	244.224	149.078	-0.182	7.254	200.755	195.127	6.897	14.118	13.811	21.333	191.843	20.705	-8191	255	
1931.293	1	1	0	0	0.13705	0.15121	0.30241	0.18666	0.078205	0.059309	0.25248	0.097572	0.13565	0.29661	0.14438	0.1214	0.090363	0.13022	0.35418	0.11849	-1.5458	-2.3979	-1.7208	-2.1083	-2.2521	-1.8604	-2.5271	-1.9042	-2.0229	-2.4688	-1.9479	-2.2562	-2.3917	-2.0542	-2.4813	-2.2188	295.706	49.389	103.123	253.078	115.948	133.138	290.281	3.781	134.116	43.914	219.487	336.789	213.273	234.061	174.080	279.973	0.00022577	0.00044006	0.00011962	1081.8	7.1141e-07	9.1217e-06	1168.3	226.34	9.309e-06	5.0089e-06	284.81	82.962	61.675	17.897	2.744e-06	24.768	0.00025693	0.00025504	7.1266e-05	1045.9	2.8016e-06	2.794e-06	1145.3	224.03	2.8208e-06	2.8261e-06	281.1	75.436	61.847	18.319	2.8217e-06	25.261	4.886	12.808	136.070	-0.422	235.137	116.523	0.014	7.668	71.281	140.732	7.059	15.819	14.191	21.179	258.943	20.381	-8191	255	
1931.413	1	1	0	0	0.2002	0.15011	0.18442	0.069111	0.12857	0.33925	0.27132	0.03157	0.10535	0.087877	0.0416	0.27729	0.16863	0.20908	0.027273	0.084382	-1.5167	-2.3979	-1.9708	-2.4437	-2.2333	-2.0438	-2.7292	-2.3375	-2.0979	-2.3104	-2.1458	-2.05	-2.225	-1.9958	-2.3042	-2.1542	33.258	169.619	348.106	282.549	347.417	189.281	298.390	226.291	35.576	292.462	95.990	96.585	121.508	58.640	45.812	261.657	0.00027273	0.00035611	7.4398e-05	1081.6	2.7979e-06	1.7834e-06	1171.1	226.6	3.7898e-06	1.653e-06	284.94	82.273	62.004	17.941	4.3244e-06	24.946	0.000258	0.00025333	7.1206e-05	1045.3	2.799e-06	2.7762e-06	1145.4	223.86	2.8384e-06	2.7762e-06	281.33	75.099	62.015	18.292	2.7426e-06	25.329	16.782	35.077	22.676	-0.216	173.439	196.134	-0.108	7.495	141.220	334.573	6.839	15.756	13.988	21.388	250.981	20.625	-8191	255	
1931.510	1	1	0	0	0.099763	0.093729	0.15249	0.090042	0.13977	0.03616	0.229	0.10419	0.12379	0.2002	0.16485	0.22525	0.062795	0.20424	0.12564	0.0062322	-1.3479	-2.4521	-1.8792	-2.2229	-2.1896	-1.8771	-2.4125	-2.4208	-2.0333	-2.3937	-2.1979	-1.8792	-2.3771	-1.8375	-2.0396	-2.3438	288.518	226.621	16.518	62.016	15.613	68.553	263.594	207.548	256.159	335.616	223.817	347.800	192.939	315.519	81.782	259.756	0.00041403	0.00032495	9.6326e-05	1082.6	6.6154e-06	2.6025e-06	1172.5	225.73	3.1368e-06	1.1354e-06	284.51	83.72	61.528	17.937	3.8e-06	24.771	0.00025339	0.00025444	6.979e-05	1044.8	2.7859e-06	2.7887e-06	1145.5	223.47	2.7773e-06	2.7804e-06	280.63	74.556	61.895	18.238	2.7389e-06	25.208	7.678	342.759	47.878	-0.362	154.981	103.042	-0.238	7.400	88.783	148.909	7.187	15.478	13.822	20.902	101.914	20.379	-8191	255	
1931.581	1	1	0	0	0.094007	0.14206	0.14712	0.27421	0.098942	0.21964	0.16956	0.10327	0.27676	0.14323	0.099774	0.083728	0.064728	0.28971	0.10328	0.17342	-1.4062	-2.3021	-2.0604	-2.1125	-2.1917	-1.9917	-2.3812	-2.2708	-1.9354	-2.425	-2.2292	-1.7396	-2.5167	-2.05	-2.3292	-2.2062	19.312	145.373	245.197	336.525	127.436	224.294	293.115	215.759	229.740	38.256	288.416	122.620	66.634	348.259	301.385	196.024	0.00031969	0.0005638	7.0124e-05	1084.5	2.613e-06	1.7684e-06	1166.8	226.07	3.5956e-06	4.3038e-06	283.62	84.56	61.98	17.966	4.0103e-06	24.774	0.00025027	0.00024764	6.9796e-05	1046.3	2.7555e-06	2.7311e-06	1141.7	223.46	2.7324e-06	2.7446e-06	280.14	74.946	61.801	18.231	2.745e-06	25.292	28.187	329.655	323.261	0.105	141.449	229.333	0.012	7.571	4.181	154.184	6.939	15.077	13.843	21.019	152.593	20.386	-8191	255	
1931.702	1	1	0	0	0.13248	0.14877	0.2209	0.12199	0.037464	0.095229	0.23885	0.1822	0.11557	0.23765	0.017277	0.055314	0.13539	0.11497	0.087985	0.10906	-1.4625	-2.2271	-2.1437	-2.2062	-2.2979	-1.9813	-2.2792	-2.45	-1.8937	-2.2812	-2.275	-1.8583	-2.2333	-2.0479	-2.0729	-2.275	26.252	278.717	182.743	-8.346	241.553	56.787	324.129	307.814	284.947	127.019	19.503	305.678	230.205	-3.794	186.603	265.213	0.0002248	0.00028072	9.3081e-05	1080	2.1827e-06	4.932e-06	1159.8	225.88	4.8819e-06	5.5825e-06	284.25	81.807	61.83	17.996	5.9872e-06	24.698	0.00025874	0.00025276	7.0354e-05	1042.8	2.7828e-06	2.7835e-06	1140.2	223.25	2.7795e-06	2.8149e-06	280.31	74.875	61.68	18.259	2.7869e-06	25.195	13.726	25.361	1.006	-0.219	142.047	232.208	-0.157	7.505	104.157	199.614	7.006	16.277	13.991	20.641	37.552	20.626	-8191	255	
1931.798	1	1	0	0	0.13593	0.21182	0.30438	0.10455	0.2033	0.16905	0.137	0.22216	0.12398	0.19555	0.22879	0.11425	0.020872	0.19029	0.096164	0.16649	-1.65	-2.2542	-2.1896	-2.0187	-2.5292	-2.0479	-2.3688	-2.35	-1.9167	-2.0146	-2.3333	-1.8375	-2.2708	-2.0625	-2.0583	-2.2771	310.324	7.638	5.374	119.138	302.870	213.423	57.217	344.949	117.179	64.773	342.895	347.030	35.388	287.664	278.934	126.579	0.00048337	0.00020051	0.0001842	1074.9	2.9621e-06	5.8359e-06	1162.4	224.62	5.3921e-06	4.7108e-06	282.5	81.633	61.977	17.811	2.7045e-06	24.896	0.00025248	0.00025003	6.9035e-05	1042.1	2.7537e-06	2.7547e-06	1138.1	223.26	2.7294e-06	2.737e-06	279.33	74.147	61.813	18.224	2.7073e-06	25.224	0.869	32.480	54.207	0.084	58.301	109.361	0.118	7.429	245.568	145.922	6.594	18.638	14.165	21.354	71.183	20.771	-8191	255	
1931.892	1	1	0	0	0.30478	0.17915	0.33768	0.12315	0.16627	0.15216	0.17842	0.20844	0.17303	0.12282	0.17145	0.20633	0.20666	0.034739	0.2461	0.15026	-1.1979	-2.1792	-2.4021	-1.8854	-2.5104	-2.1625	-2.2104	-2.5208	-1.8917	-2.2208	-2.2729	-1.8208	-2.275	-2.2917	-1.975	-2.4875	109.822	95.775	286.241	333.497	104.585	187.643	322.842	320.706	-6.430	321.553	274.983	243.680	316.559	53.324	61.925	8.959	0.00046244	0.00021119	9.0868e-05	1074.5	3.8593e-06	5.6454e-06	1164.2	224.05	3.4813e-06	6.0765e-06	283.98	82.912	61.036	17.867	1.2239e-06	24.712	0.00025225	0.00024875	6.9192e-05	1039.6	2.7496e-06	2.7262e-06	1139.4	222.8	2.7534e-06	2.6978e-06	279.72	74.476	61.519	18.229	2.741e-06	25.16	-1.599	144.704	100.574	0.062	126.667	171.714	0.055	7.331	124.999	143.365	6.886	15.896	14.349	21.450	13.497	20.358	-8191	255	
1931.990	1	1	0	0	0.34108	0.16643	0.26054	0.19471	0.29081	0.10012	0.1642	0.20055	0.17736	0.19977	0.30997	0.12524	0.12149	0.19297	0.012867	0.34598	-1.5104	-1.9583	-2.2354	-1.8438	-2.1792	-2.0229	-2.0271	-2.3667	-1.9729	-1.9479	-2.3812	-1.875	-2.4104	-2.3125	-1.9979	-2.4583	59.053	50.293	87.046	258.116	159.839	97.696	314.321	323.292	24.951	11.341	36.743	30.348	216.984	266.971	73.798	295.690	0.00041991	0.0001846	0.00014397	1075.6	1.3734e-06	2.3063e-06	1162.7	225.49	1.0368e-05	5.7779e-06	284.72	81.403	61.758	17.867	6.4323e-06	24.81	0.00025309	0.0002516	7.0192e-05	1037.4	2.761e-06	2.729e-06	1138.9	223.14	2.7512e-06	2.7193e-06	280.22	74.096	61.547	18.201	2.7452e-06	25.173	1.848	296.620	85.894	0.149	47.092	183.282	-0.107	7.385	132.900	86.624	6.783	16.472	14.066	21.310	122.822	20.762	-8191	255	
1932.109	1	1	0	0	0.29953	0.1984	0.22043	0.16709	0.16274	0.2288	0.47946	0.26666	0.01141	0.11551	0.045258	0.25212	0.17007	0.27292	0.27634	0.12047	-1.6354	-1.7875	-2.3521	-2.1104	-2.3458	-2.2833	-2.0104	-2.4042	-2.1792	-2.1708	-2.4688	-1.8958	-2.1917	-2.3708	-2.0083	-2.4292	174.387	262.095	142.104	149.523	71.579	36.219	278.904	345.073	152.817	-9.748	227.136	70.431	295.593	246.959	180.776	128.096	0.00040524	0.00062769	6.6355e-05	1072.8	1.68e-06	4.8697e-06	1164.6	225.75	8.0657e-06	8.9486e-07	282.45	81.901	61.805	17.925	9.769e-06	25.001	0.00024834	0.00024937	6.813e-05	1039.7	2.7371e-06	2.7109e-06	1138.4	222.81	2.706e-06	2.6939e-06	278.8	74.274	61.489	18.206	2.7224e-06	25.182	30.740	98.304	164.640	-0.141	24.725	255.227	-0.139	7.465	149.460	154.212	6.927	15.938	13.758	21.206	102.414	20.332	-8191	255	
1932.205	1	1	0	0	0.1817	0.20987	0.24548	0.14176	0.22835	0.22607	0.07638	0.12793	0.17636	0.13073	0.13551	0.17049	0.1892	0.09824	0.094551	0.19079	-1.5229	-1.9896	-2.2458	-2.0021	-2.1937	-2.2833	-1.9917	-2.4021	-2.1083	-1.9333	-2.3417	-1.9083	-2.2021	-2.2458	-2.0708	-2.4042	29.149	232.016	247.205	285.037	213.724	149.165	274.692	240.648	98.835	0.701	216.778	266.850	323.346	40.820	130.426	223.334	0.00038303	0.00090752	1.2983e-05	1082.4	1.4202e-06	3.1411e-06	1162	224.28	5.7357e-06	6.2577e-07	282.64	83.94	61.301	17.881	4.9995e-06	24.73	0.0002488	0.00024653	6.7579e-05	1041.1	2.6543e-06	2.6922e-06	1139.4	222.31	2.7197e-06	2.6996e-06	279.23	73.879	61.422	18.163	2.6828e-06	25.167	41.925	346.107	103.093	-0.128	196.579	43.614	0.069	7.372	179.955	68.076	6.930	17.375	14.184	20.967	148.664	20.724	-8191	255	
1932.302	1	1	0	0	0.094534	0.066597	0.19877	0.3403	0.21143	0.10868	0.25196	0.18043	0.14845	0.10047	0.021746	0.034826	0.096833	0.15308	0.0088376	0.090607	-1.6625	-1.8896	-2.4771	-2.0312	-2.2479	-2.4	-2.0583	-2.2812	-2.2542	-1.9792	-2.3729	-1.9354	-2.1396	-2.3667	-1.9667	-2.1854	146.401	75.022	149.909	345.123	73.637	44.317	1.763	343.494	325.162	133.049	5.838	133.140	287.986	48.777	167.899	272.206	0.00053312	0.00044104	7.4995e-05	1082.9	2.8966e-06	5.9187e-06	1163.7	224.17	2.7612e-06	6.1098e-06	283.27	79.829	61.431	17.805	2.82e-06	24.768	0.00024672	0.00024655	6.8316e-05	1038	2.6878e-06	2.6894e-06	1140.6	222.32	2.6919e-06	2.7034e-06	279.07	72.995	61.541	18.14	2.6764e-06	25.167	5.132	69.411	248.779	-0.291	329.651	167.032	0.204	7.601	87.658	120.541	7.020	16.293	14.099	20.927	138.541	20.803	-8191	255	
1932.398	1	1	0	0	0.11701	0.20873	0.087663	0.36973	0.15688	0.21725	0.21492	0.21805	0.10741	0.17286	0.11302	0.16766	0.14176	0.16384	0.079878	0.047622	-1.7	-1.925	-2.3167	-2.1021	-1.8875	-2.4833	-2.0917	-2.3542	-2.2687	-1.9833	-2.2792	-1.9521	-1.8625	-2.5854	-1.9625	-2.2292	223.485	44.803	10.469	294.179	85.641	275.837	277.737	299.502	71.496	271.110	332.276	28.764	250.041	13.331	314.289	35.380	0.00040921	0.00036486	0.00017917	1074.9	7.3785e-06	6.4831e-06	1164.7	224.54	6.5129e-06	5.4632e-06	284.54	79.599	61.527	17.845	9.8456e-07	24.625	0.00024312	0.00024323	6.8236e-05	1036	2.7056e-06	2.6837e-06	1139	222.62	2.6695e-06	2.6787e-06	279.28	73.535	61.305	18.186	2.6657e-06	25.042	7.651	64.752	54.370	-0.446	151.355	186.219	0.048	7.598	104.947	76.347	6.876	18.022	14.037	21.186	76.848	20.477	-8191	255	
1932.494	1	1	0	0	0.21084	0.11229	0.18164	0.18018	0.11388	0.25195	0.21651	0.35419	0.044261	0.18222	0.18827	0.04012	0.33142	0.38896	0.13284	0.21213	-1.8292	-1.8854	-2.3229	-2.1833	-2.05	-2.3292	-2.1542	-2.1937	-2.2062	-1.9625	-2.3229	-1.9937	-2.1042	-2.4313	-1.8937	-1.9667	296.336	344.557	325.820	261.308	299.269	83.283	264.662	288.217	29.272	205.824	217.284	344.402	329.258	34.798	10.251	285.755	0.00041336	0.00028886	3.5103e-05	1069.1	2.3435e-06	8.7814e-06	1163.3	223.96	7.7515e-06	6.0653e-06	283.54	84.451	61.537	17.821	3.319e-06	24.779	0.00024525	0.00024473	6.7814e-05	1034.8	2.6686e-06	2.6634e-06	1138	222.29	2.6529e-06	2.6855e-06	279.17	74.852	61.48	18.127	2.6803e-06	25.124	19.883	86.939	99.622	-0.046	118.278	147.735	-0.166	7.245	17.923	176.952	7.257	16.864	14.004	21.447	144.908	20.925	-8191	255	
1932.590	1	1	0	0	0.020689	0.11149	0.11341	0.075951	0.20838	0.14011	0.19313	0.27239	0.26619	0.082254	0.30907	0.041067	0.11714	0.16375	0.033282	0.21744	-1.7625	-1.9521	-2.2125	-2.2354	-1.9833	-2.4188	-2.2104	-2.2625	-2.3479	-1.9312	-2.4104	-2.175	-1.9104	-2.3312	-2.0104	-2.1063	115.873	13.464	46.647	198.828	258.200	301.739	274.556	313.061	101.366	260.858	348.269	70.425	35.732	228.782	230.073	26.808	0.00046141	0.00036313	0.00012791	1078.5	4.78e-07	3.7593e-06	1160	223.76	5.2411e-06	4.6455e-07	283.73	80.804	61.565	17.886	2.2312e-06	24.725	0.00024504	0.00024304	6.7577e-05	1036.6	2.6521e-06	2.6342e-06	1136.2	222.13	2.6624e-06	2.6286e-06	278.97	73.612	61.485	18.173	2.648e-06	25.096	5.851	323.485	49.140	-0.052	220.997	225.355	-0.161	7.615	40.347	158.918	7.412	15.230	14.083	21.276	339.973	20.800	-8191	255	
1932.711	1	1	0	0	0.015656	0.10406	0.17319	0.089689	0.16722	0.24961	0.28874	0.014508	0.20049	0.33482	0.16929	0.10156	0.24499	0.048821	0.080085	0.10768	-2.0187	-1.9125	-2.0833	-2.25	-1.6896	-2.0583	-2.3646	-1.9583	-2.3958	-2.0187	-2.1937	-2.0896	-1.9708	-2.3438	-2.2521	-2.0521	86.415	306.173	297.676	98.581	258.260	311.708	280.986	283.569	135.936	283.370	191.396	3.637	253.833	125.069	19.893	289.777	0.0002949	0.00035148	0.00013377	1070	1.3473e-06	3.9721e-06	1159.9	223.94	9.3801e-07	7.8117e-06	283.72	81.084	61.192	17.838	2.8049e-06	24.676	0.00024708	0.00024186	6.7528e-05	1034.5	2.6619e-06	2.6193e-06	1136.2	222.06	2.6239e-06	2.667e-06	278.78	73.14	61.441	18.176	2.6891e-06	25.14	341.973	88.854	16.882	-0.351	-6.035	85.195	-0.107	7.652	133.349	179.996	6.835	18.272	14.025	21.001	93.718	21.021	-8191	255	
1932.805	1	1	0	0	0.13948	0.18302	0.03759	0.11731	0.34228	0.29653	0.097992	0.27225	0.142	0.017998	0.078329	0.067336	0.099716	0.19367	0.18631	0.14951	-1.7	-1.9417	-2.1167	-2.2771	-1.8979	-2.125	-2.4125	-1.9875	-2.3208	-2.1167	-2.3063	-2.2146	-1.7708	-2.3	-2.0521	-1.9333	61.951	307.133	-3.680	287.418	232.959	3.810	260.406	309.736	128.874	339.349	303.174	106.419	169.127	334.623	338.923	320.145	0.00041421	0.00019384	0.00010849	1077.8	4.2114e-06	6.2495e-06	1166.3	224.88	6.4156e-06	2.5678e-06	282.34	82.155	61.897	17.815	3.7009e-06	24.788	0.00024454	0.0002448	6.7605e-05	1036.2	2.6694e-06	2.6242e-06	1137.9	222.26	2.6381e-06	2.6561e-06	278.42	73.486	61.473	18.141	2.6868e-06	25.076	3.913	79.357	335.604	-0.235	199.060	144.500	0.023	7.655	38.815	230.600	7.287	15.887	13.856	21.424	163.630	20.575	-8191	255	
1932.878	1	1	0	0	0.033481	0.16881	0.32188	0.22269	0.12479	0.25875	0.12857	0.28767	0.13209	0.22972	0.1348	0.25969	0.066017	0.32336	0.33936	0.13566	-1.9125	-2.0042	-1.9625	-2.2896	-1.9062	-2.0687	-2.0646	-1.9542	-2.2396	-1.8583	-2.0312	-2.2625	-2.0458	-2.1188	-2.2917	-1.9625	59.175	252.059	245.818	299.695	336.050	317.165	4.035	314.842	135.953	91.357	-2.579	115.148	123.909	1.876	231.651	344.814	0.0002149	0.00016313	6.2475e-05	1072.6	2.8338e-06	2.6114e-06	1161.4	224.83	3.7756e-06	2.2563e-06	283.99	83.417	61.615	17.874	2.3969e-06	24.876	0.00024287	0.00024136	6.657e-05	1036.7	2.6324e-06	2.6349e-06	1135.3	222.15	2.6815e-06	2.6609e-06	278.77	73.307	61.327	18.164	2.6477e-06	25.122	335.672	132.857	-6.650	-0.154	93.521	92.868	-0.074	7.292	121.757	10.226	6.979	17.424	14.074	21.044	151.286	20.157	-8191	255	
1932.973	1	1	0	0	0.10096	0.34131	0.33839	0.14238	0.20139	0.12279	0.084216	0.1241	0.15876	0.21075	0.10221	0.14046	0.2074	0.14791	0.087445	0.15511	-2.0417	-2.1188	-1.9729	-2.3292	-1.8333	-2.0958	-2.3833	-1.9708	-2.3792	-2.1854	-1.9937	-2.1479	-1.9937	-2.1646	-2.4229	-1.9292	63.292	31.642	26.097	342.348	114.537	15.006	214.883	54.619	314.415	149.654	105.148	52.501	329.118	11.965	283.346	239.313	0.00029283	0.00034178	0.00010666	1079.7	3.1718e-06	8.3089e-06	1161.4	224.74	3.9999e-06	6.8388e-06	280.74	81.889	61.934	17.829	7.5757e-06	24.733	0.00024601	0.00024403	6.7658e-05	1038.1	2.6518e-06	2.6661e-06	1137.6	222.28	2.6772e-06	2.7032e-06	278.49	73.863	61.439	18.137	2.6872e-06	25.141	30.197	43.253	106.367	-0.145	21.514	116.782	0.092	7.308	71.973	100.688	7.152	17.061	14.089	21.562	77.384	20.789	-8191	255	
1933.093	1	1	0	0	0.15196	0.14511	0.13498	0.33472	0.17789	0.072377	0.19188	0.067098	0.17184	0.15496	0.14612	0.022466	0.20931	0.12968	0.05904	0.1541	-1.7333	-2.125	-1.9229	-2.175	-2.0687	-2.0521	-2.45	-1.9417	-2.2938	-2.2417	-1.9312	-2.35	-2.1292	-2.0396	-2.2979	-2.1479	232.705	223.931	250.823	275.131	21.716	107.105	341.625	20.814	76.187	79.346	307.122	101.834	314.194	198.686	307.499	77.518	0.00036855	0.00029047	9.9022e-05	1080.8	3.8907e-06	5.0028e-06	1164.5	225.16	3.8281e-06	9.0884e-07	284.55	83.158	61.836	17.78	6.9517e-07	24.595	0.00024542	0.00024494	6.7512e-05	1040.1	2.6634e-06	2.6729e-06	1138	222.56	2.6961e-06	2.6875e-06	279	73.754	61.409	18.172	2.6745e-06	25.059	11.758	80.806	62.436	-0.138	172.570	101.329	-0.092	7.640	12.549	25.210	6.796	15.951	14.461	21.302	125.899	20.826	-8191	255	
1933.190	1	1	0	0	0.17968	0.068889	0.32686	0.16871	0.051408	0.12448	0.21015	0.097475	0.1775	0.19379	0.077743	0.1861	0.099628	0.19928	0.14777	0.25045	-1.6417	-2.0292	-1.9458	-2.4625	-2.2208	-2.0938	-2.4271	-1.8333	-2.2167	-2.3396	-1.9729	-2.2292	-2.0438	-2.0229	-2.3479	-2.0542	123.192	231.153	43.553	331.080	29.831	246.065	240.489	290.092	224.616	224.284	302.787	337.606	34.640	347.199	333.769	256.842	0.00020952	0.00057191	3.4749e-05	1076.6	3.6017e-06	4.9652e-06	1159.4	224.32	2.4548e-06	4.8937e-06	282.81	82.467	61.155	17.915	3.9929e-06	24.816	0.00024586	0.00024238	6.7062e-05	1037.3	2.6602e-06	2.667e-06	1137.7	222.17	2.6302e-06	2.641e-06	278.77	73.106	61.131	18.156	2.5974e-06	25.051	14.877	39.860	14.224	-0.222	148.076	100.991	-0.016	7.228	338.674	148.405	7.316	15.575	13.906	20.849	47.604	20.343	-8191	255	
1933.286	1	1	0	0	0.079943	0.1544	0.13709	0.18474	0.33892	0.23837	0.16649	0.034735	0.03459	0.26183	0.093534	0.22899	0.11156	0.22471	0.30859	0.37279	-1.7313	-2.2438	-1.8563	-1.9958	-2.1021	-1.7854	-2.4646	-2.1688	-2.3021	-2.2625	-1.7812	-2.2208	-2.1521	-2.0208	-2.3583	-1.8813	173.908	143.811	105.883	316.541	34.316	172.518	344.118	333.590	115.092	115.263	43.889	264.263	81.605	-3.360	171.139	281.701	0.0003168	0.00030566	0.00013556	1073.2	1.4794e-06	7.0039e-06	1165.8	224.28	1.313e-06	6.7459e-06	281.08	81.257	61.142	17.678	3.1643e-06	24.663	0.00023635	0.00023173	6.4907e-05	1033	2.5305e-06	2.5385e-06	1136.8	221.42	2.526e-06	2.5237e-06	277.2	72.25	61.026	18.062	2.5159e-06	25.041	6.350	92.627	52.352	-0.152	243.019	135.674	0.069	7.474	299.402	130.162	7.174	17.464	14.136	20.928	128.343	20.576	-8191	255	
1933.382	1	1	0	0	0.13969	0.19377	0.10364	0.15724	0.28741	0.3688	0.3145	0.18419	0.1183	0.18425	0.26208	0.10398	0.081327	0.077316	0.37185	0.25611	-1.4958	-2.0167	-1.9688	-2.3812	-2.2438	-2.0646	-2.4625	-2.0458	-2.0833	-2.525	-2.0187	-2.2021	-2.3479	-1.8729	-2.2417	-1.9917	183.231	128.475	73.170	315.066	119.470	49.420	310.986	244.533	255.847	179.373	-4.310	0.600	344.217	259.494	83.168	210.407	0.0004407	0.00034339	3.3672e-05	1076.8	1.6679e-06	5.8465e-06	1159	223.19	3.9536e-06	3.4649e-06	281.54	82.52	61.305	17.809	4.0642e-06	24.792	0.00023659	0.00023185	6.4394e-05	1035.5	2.5761e-06	2.5999e-06	1137.2	221.67	2.5798e-06	2.6128e-06	278.65	73.157	61.282	18.075	2.6121e-06	25.1	18.214	115.108	45.620	-0.274	57.683	176.162	-0.072	7.349	4.991	300.944	7.062	15.865	13.948	20.995	160.619	20.530	-8191	255	
1933.478	1	1	0	0	0.23848	0.14448	0.071874	0.33427	0.21535	0.073749	0.20277	0.18174	0.056896	0.1371	0.16625	0.23737	0.14478	0.20125	0.16102	0.15921	-1.55	-2.2771	-1.875	-2.2354	-2.2542	-1.9375	-2.4083	-2.0979	-1.9562	-2.475	-1.9208	-2.1437	-2.2833	-1.9875	-2.2583	-2.0479	237.554	231.441	327.505	304.359	220.878	90.266	329.625	287.938	221.135	1.553	340.573	33.892	79.714	216.618	54.854	295.499	0.00038725	0.00027961	4.5051e-05	1079.5	2.5529e-06	3.6705e-06	1162	224.79	8.7191e-06	2.7847e-06	281.51	82.849	61.552	17.801	4.472e-06	24.81	0.00023998	0.00023562	6.5214e-05	1034.7	2.5969e-06	2.5892e-06	1136.2	222.05	2.5908e-06	2.544e-06	278.48	73.27	61.402	18.076	2.5802e-06	25.04	346.158	81.957	307.698	-0.021	40.555	218.586	-0.062	7.439	120.202	188.938	6.678	16.477	14.311	21.345	166.095	20.820	-8191	255	
1933.574	1	1	0	0	0.26296	0.16274	0.24523	0.23724	0.14026	0.34194	0.16776	0.26982	0.040559	0.18113	0.036007	0.24606	0.1014	0.16439	0.12304	0.26806	-1.4688	-2.2188	-1.8229	-1.8896	-2.3458	-1.8479	-2.3646	-2.1292	-1.9188	-2.3563	-1.9875	-2.1354	-2.3271	-2.0292	-2.2146	-2.125	254.448	126.385	98.292	117.715	37.806	200.728	25.963	343.580	98.254	303.306	255.550	239.771	333.157	253.698	303.821	63.066	0.00034699	0.00025987	6.1384e-05	1070.8	3.2294e-06	1.4732e-06	1160.7	223.73	3.7339e-06	8.9487e-06	282.15	81.804	61.076	17.773	1.9798e-06	24.736	0.00023924	0.0002355	6.5267e-05	1034.3	2.5674e-06	2.5716e-06	1135.1	221.75	2.5887e-06	2.5894e-06	278.44	72.486	61.081	18.065	2.5511e-06	25.039	14.526	66.774	330.336	-0.134	120.782	95.485	0.017	7.494	219.710	77.713	7.060	17.746	13.872	21.304	101.790	20.673	-8191	255	
1933.670	1	1	0	0	0.12524	0.11296	0.18597	0.20395	0.10306	0.13314	0.069862	0.16823	0.17966	0.23934	0.18777	0.31064	0.089589	0.085696	0.1384	0.17293	-1.5021	-2.475	-1.9875	-2.0938	-2.55	-2.0083	-2.4104	-2.3688	-2.0479	-2.2792	-2.125	-2.0438	-2.5146	-2.0687	-2.1708	-2.2708	337.798	348.420	218.506	24.734	186.166	138.079	319.160	323.710	295.132	130.958	333.534	232.604	301.019	312.417	298.700	330.185	0.00040553	0.00040347	9.2004e-05	1076.1	5.5264e-06	5.3744e-06	1165.7	224.88	2.6472e-06	2.8222e-06	281.89	83.398	62.06	17.745	3.3428e-06	24.795	0.00023704	0.00023678	6.4828e-05	1036.3	2.589e-06	2.5865e-06	1137.3	222.17	2.5666e-06	2.5577e-06	278.07	73.017	61.374	18.128	2.5983e-06	25.061	22.039	334.927	131.802	-0.397	186.820	1.937	0.171	7.672	345.297	153.927	7.090	16.015	13.848	21.490	138.998	20.663	-8191	255	
1933.791	1	1	0	0	0.2053	0.34001	0.12502	0.21661	0.033924	0.16105	0.15368	0.29164	0.2385	0.040441	0.20628	0.014933	0.16364	0.32976	0.023003	0.19725	-1.3979	-2.4271	-2.0417	-2.1083	-2.4375	-1.9104	-2.3563	-2.2562	-2	-2.5	-2.0979	-1.9438	-2.4813	-2.0938	-2.1604	-2.2562	183.652	139.048	39.685	322.420	231.837	72.420	-1.038	345.533	338.296	157.916	230.710	200.970	6.775	75.775	265.990	257.564	0.0003858	0.00062516	7.665e-05	1072.6	5.103e-06	3.9495e-06	1161.6	223.83	5.2115e-06	2.4691e-06	282.42	82.406	61.237	17.832	7.0949e-06	24.856	0.00023756	0.00023981	6.6181e-05	1034.4	2.6163e-06	2.5919e-06	1136.8	221.54	2.5797e-06	2.5656e-06	277.93	72.023	61.058	18.103	2.5889e-06	25.037	-1.076	20.788	93.276	-0.084	112.271	194.424	0.005	7.557	38.583	145.886	7.205	15.217	13.632	21.331	141.355	20.840	-8191	255	
1933.885	1	1	0	0	0.2365	0.11831	0.10117	0.036688	0.20168	0.11918	0.040464	0.29298	0.13498	0.041206	0.40248	0.0888	0.38325	0.12404	0.14756	0.22764	-1.4833	-2.1063	-2.1229	-2.05	-2.2438	-1.9021	-2.4354	-2.2875	-1.925	-2.375	-2.3021	-1.8188	-2.3354	-2.1792	-2.1354	-2.4854	7.633	277.562	237.978	303.320	48.976	247.572	289.369	306.430	346.284	209.461	54.949	331.504	324.383	100.019	254.890	277.779	0.0003751	0.00025496	8.2311e-05	1078.7	3.0135e-06	2.8757e-06	1156.1	224.92	1.965e-06	3.7152e-06	281.57	81.617	61.116	17.851	4.8263e-06	24.76	0.00023669	0.00023835	6.5307e-05	1037.6	2.5593e-06	2.5667e-06	1135.7	221.92	2.5798e-06	2.559e-06	278.38	72.078	60.855	18.059	2.5422e-06	25.029	1.470	299.884	196.158	0.108	178.203	101.038	0.060	7.522	133.104	113.995	6.807	17.901	14.131	21.594	182.214	20.833	-8191	255	
1933.982	1	1	0	0	0.022185	0.094547	0.097574	0.2392	0.51824	0.090076	0.1959	0.3195	0.072651	0.24359	0.23751	0.25368	0.33921	0.082171	0.21855	0.35067	-1.5542	-2.2313	-2.3812	-1.8604	-2.2646	-1.8479	-2.2729	-2.4	-1.9458	-2.1646	-2.2833	-1.9937	-2.4062	-2	-1.9333	-2.3208	64.600	-9.118	48.923	19.725	276.063	49.049	311.083	50.643	170.409	118.756	307.652	275.385	175.247	11.418	239.246	328.915	0.00035365	0.00042811	6.1857e-05	1079.3	2.8448e-06	1.154e-06	1160.7	223.87	1.1006e-07	1.7674e-06	282.35	81.853	61.339	17.849	4.1222e-06	24.794	0.00023378	0.00023119	6.5046e-05	1037.3	2.5592e-06	2.5435e-06	1135.6	221.96	2.5652e-06	2.5488e-06	277.37	72.401	61.087	18.092	2.5616e-06	25.056	7.771	103.848	159.112	-0.281	119.529	106.979	-0.098	7.619	293.051	310.401	6.917	16.389	14.033	21.297	130.460	20.653	-8191	255	
1934.102	1	1	0	0	0.10789	0.24317	0.16611	0.10654	0.089455	0.034615	0.3344	0.14009	0.047926	0.18704	0.13602	0.18786	0.16786	0.11917	0.19354	0.2212	-1.4208	-2.1917	-2.1667	-2.0417	-2.2146	-2.0021	-2.1771	-2.5146	-2.075	-2.125	-2.4104	-2.0187	-2.2208	-2.3812	-2.0167	-2.3312	-7.064	141.401	305.118	45.378	51.872	323.831	259.493	205.557	260.617	141.650	316.894	15.460	81.194	-4.939	153.914	9.591	0.00029097	0.00069419	7.8593e-05	1071.6	3.285e-07	3.3115e-06	1166.5	222.91	1.9123e-06	5.793e-06	281.02	81.599	61.63	17.726	3.1003e-06	24.833	0.00023618	0.00023082	6.4172e-05	1032.6	2.5884e-06	2.5516e-06	1136.2	221.54	2.5906e-06	2.6002e-06	277.91	72.673	61.16	18.064	2.6148e-06	25.04	14.634	63.803	16.305	-0.314	280.142	229.157	-0.051	7.843	219.120	67.703	7.050	15.471	13.853	20.946	82.913	20.784	-8191	255	
1934.174	1	1	0	0	0.33925	0.24072	0.14181	0.052963	0.15988	0.11269	0.13893	0.2758	0.19817	0.35932	0.062498	0.050714	0.2725	0.1483	0.18225	0.18237	-1.4375	-2.0521	-2.1854	-1.9146	-2.2479	-2.2375	-2.1229	-2.6375	-1.9	-2.1188	-2.3083	-2.0333	-2.0542	-2.1396	-1.8875	-2.2417	218.996	139.990	182.062	233.164	274.301	307.094	314.575	279.805	268.844	194.631	262.022	244.991	-3.848	64.720	300.200	252.616	0.00035789	0.00023672	8.241e-05	1080.2	1.2318e-06	6.2623e-06	1163.3	224.46	1.7986e-06	9.586e-07	281.63	81.291	61.607	17.854	4.4123e-06	24.785	0.00023891	0.00023418	6.5968e-05	1036.2	2.5886e-06	2.6185e-06	1135	221.63	2.6006e-06	2.5634e-06	277.99	72.132	61.147	18.091	2.5376e-06	25.051	21.293	22.214	80.993	-0.058	186.881	116.511	-0.031	7.413	81.324	302.454	7.274	14.983	13.919	21.121	165.277	20.761	-8191	255	
1934.270	1	1	0	0	0.20119	0.25387	0.24161	0.2403	0.18868	0.19845	0.18384	0.35493	0.12145	0.19443	0.20462	0.25203	0.086526	0.16425	0.14864	0.16766	-1.5625	-2.1958	-2.3375	-1.9896	-2.2604	-2.2604	-2.2313	-2.3854	-2.1292	-2.0208	-2.4729	-1.95	-2.2083	-2.2729	-2.0167	-2.3187	128.117	93.763	233.281	52.867	9.252	27.630	257.079	338.787	313.331	207.274	252.726	248.328	221.662	38.358	324.218	339.448	0.00024936	0.00024285	2.172e-05	1076.1	2.6131e-06	6.6843e-06	1160.5	224.01	6.1303e-06	3.9967e-06	282.4	80.895	61.132	17.821	2.2387e-06	24.738	0.00023765	0.00023768	6.6183e-05	1035.6	2.6209e-06	2.5839e-06	1137.4	221.58	2.5978e-06	2.6015e-06	278.03	72.885	61.242	18.09	2.5805e-06	25.056	17.314	89.510	63.743	-0.020	99.606	124.309	0.090	7.360	-7.617	-2.139	6.823	16.780	13.972	21.295	122.511	20.924	-8191	255	
1934.391	1	1	0	0	0.10327	0.2052	0.12426	0.13466	0.20746	0.23111	0.31412	0.2897	0.13913	0.28699	0.25032	0.15958	0.28003	0.1678	0.18695	0.080495	-1.6917	-2.1042	-2.3708	-2.0479	-2.2042	-2.3854	-2.1958	-2.3021	-2.3125	-2.1625	-2.2438	-1.9042	-2.1104	-2.275	-2.0354	-2.3812	115.605	158.659	297.552	104.277	259.377	316.880	312.974	280.645	13.164	281.768	235.584	262.021	343.579	291.811	62.424	35.128	0.00039956	0.00035106	0.00011048	1079.7	1.8863e-06	3.5252e-06	1165.6	224.66	1.3205e-06	4.9527e-07	282.71	81.871	61.818	17.737	5.4388e-06	24.662	0.00023734	0.00024025	6.5922e-05	1036.7	2.5767e-06	2.5517e-06	1137.2	222	2.6239e-06	2.6056e-06	278.83	72.869	61.35	18.086	2.6046e-06	25.085	7.504	71.493	60.483	-0.709	149.770	145.043	0.211	7.462	93.829	214.843	7.391	17.087	14.096	21.119	134.783	20.683	-8191	255	
1934.487	1	1	0	0	0.22943	0.12918	0.087167	0.1784	0.17087	0.16526	0.20593	0.27375	0.077389	0.057562	0.29031	0.095826	0.13657	0.12371	0.13197	0.075843	-1.7979	-1.8625	-2.2625	-1.8937	-2.0438	-2.3208	-1.95	-2.2438	-2.1937	-1.7292	-2.5083	-2.1562	-2.0083	-2.4	-1.8479	-2.2938	267.877	97.081	197.557	197.555	53.638	77.195	16.770	169.570	272.951	237.802	246.235	144.953	240.384	123.849	40.158	167.831	0.00034866	8.3734e-05	3.4982e-05	1076	2.0146e-06	4.9497e-06	1161.2	224.51	3.5755e-06	4.5464e-06	281.72	81.772	61.798	17.862	1.9571e-06	24.732	0.00023753	0.00023941	6.5769e-05	1036.8	2.6085e-06	2.6178e-06	1135.9	222.06	2.591e-06	2.596e-06	278.54	73.201	61.265	18.137	2.5971e-06	25.125	-5.626	305.795	65.112	-0.210	153.113	168.204	-0.038	7.373	29.044	135.002	6.641	16.850	14.306	21.020	102.131	20.240	-8191	255	
1934.583	1	1	0	0	0.084442	0.089667	0.3077	0.027169	0.22667	0.10219	0.24761	0.21945	0.1041	0.13129	0.09276	0.09516	0.059578	0.23704	0.090347	0.11911	-1.5667	-2.0146	-2.2417	-2.0438	-1.9229	-2.4437	-2.1729	-2.1708	-2.2167	-1.9542	-2.3417	-2.1021	-1.9104	-2.5083	-2.0167	-2.2417	314.930	16.440	15.829	216.208	2.679	286.662	191.574	310.817	326.879	304.640	335.547	278.346	101.439	320.939	289.571	265.912	0.00036735	0.0005599	7.9289e-05	1071.9	4.3907e-06	4.2885e-06	1159.5	223.66	2.6833e-06	1.3395e-06	282.69	80.099	61.205	17.708	3.7829e-06	24.898	0.00023738	0.00023622	6.6114e-05	1034.1	2.621e-06	2.5779e-06	1136.5	221.69	2.6462e-06	2.6023e-06	278.82	72.91	61.314	18.09	2.6358e-06	25.074	15.266	27.065	81.357	-0.252	162.535	115.598	-0.201	7.587	176.772	148.334	7.306	16.172	14.262	21.325	59.352	20.439	-8191	255	
1934.679	1	1	0	0	0.38701	0.041026	0.070516	0.17713	0.14262	0.15372	0.3913	0.43617	0.19577	0.18829	0.18283	0.06635	0.1886	0.14337	0.16176	0.027298	-1.7333	-1.7208	-2.3083	-2.2417	-1.8646	-2.3917	-2.1875	-2.3333	-2.3479	-1.9562	-2.2708	-2.1833	-2.0021	-2.3	-2.0271	-2.1271	17.086	280.036	76.717	93.636	46.509	172.331	293.541	207.997	242.415	50.533	-7.484	50.996	245.915	319.130	94.511	174.921	0.00043801	0.00064803	0.00013388	1076.6	2.597e-06	7.5478e-06	1159	223.92	6.0096e-06	1.0221e-06	283.93	81.669	61.522	17.898	2.8453e-06	24.742	0.00023813	0.00024253	6.7056e-05	1037.3	2.6199e-06	2.6221e-06	1136.6	222	2.6276e-06	2.5783e-06	278.78	72.908	61.262	18.096	2.6716e-06	25.049	7.000	88.113	137.787	-0.293	77.636	113.556	-0.134	7.608	173.664	280.092	7.017	17.000	14.422	21.255	160.182	20.572	-8191	255	
1934.775	1	1	0	0	0.16489	0.14556	0.10663	0.11955	0.31663	0.21639	0.25189	0.18475	0.05062	0.18141	0.18055	0.14452	0.15832	0.15386	0.1964	0.094297	-1.8875	-1.9188	-2.2062	-2.0646	-1.8479	-2.1896	-2.2271	-2.0938	-2.2833	-1.8687	-2.3937	-2.1833	-1.8542	-2.3333	-1.9542	-2.0667	-6.947	277.235	140.571	181.773	316.844	282.292	209.573	43.973	266.470	43.982	99.700	238.822	218.901	249.993	96.648	253.388	0.00040867	0.00031168	7.7335e-05	1076.8	6.6517e-07	6.2538e-06	1159.6	224.35	4.0428e-06	8.1493e-06	282.77	82.238	61.405	17.89	3.6881e-06	24.686	0.00024246	0.00024278	6.6604e-05	1036	2.6468e-06	2.6277e-06	1135.5	221.76	2.6468e-06	2.6135e-06	278.16	73.24	61.223	18.139	2.644e-06	25.056	3.517	38.936	172.221	0.006	123.354	83.529	-0.130	7.522	96.458	118.956	6.929	14.994	13.957	20.773	114.903	20.471	-8191	255	
1934.870	1	1	0	0	0.10598	0.31576	0.18551	0.086261	0.20626	0.11118	0.27178	0.17582	0.19767	0.22654	0.069584	0.14775	0.11185	0.14526	0.17329	0.295	-1.9271	-1.8542	-2.1646	-2.3812	-1.7313	-2.1917	-2.0521	-2.1667	-2.3354	-1.7667	-2.0687	-2.1792	-1.9271	-2.2938	-2.1542	-2.1437	68.847	113.585	183.079	189.759	71.955	311.269	3.439	275.946	166.011	341.372	50.379	295.624	214.778	105.449	128.016	192.897	0.00014837	0.00024342	4.0515e-05	1076.5	4.0108e-06	4.8054e-06	1163.6	223.14	3.3045e-06	2.4813e-06	281.4	83.223	61.369	17.917	4.2879e-06	24.923	0.00024268	0.00024149	6.7058e-05	1036.6	2.6369e-06	2.5938e-06	1136.4	221.57	2.6149e-06	2.6224e-06	277.7	73.266	61.036	18.153	2.6059e-06	25.076	340.339	336.233	213.773	-0.372	129.676	15.463	-0.076	7.311	119.695	157.704	7.156	15.782	14.145	21.230	182.065	20.462	-8191	255	
1934.966	1	1	0	0	0.04768	0.090876	0.059228	0.24851	0.31236	0.11181	0.25599	0.11237	0.23447	0.16795	0.18843	0.30545	0.024258	0.25409	0.10235	0.025935	-1.9229	-1.9771	-2.0646	-2.3187	-1.8125	-2.3958	-2.2854	-1.9438	-2.3521	-2.0687	-2.1625	-2.2479	-1.8521	-2.2771	-2.025	-2.0667	347.676	227.150	309.471	312.877	308.959	259.739	297.680	335.270	266.792	235.271	314.222	63.305	349.128	144.964	64.521	228.673	0.00039969	0.00034754	6.3256e-05	1079.8	1.424e-06	4.8874e-06	1161.4	224.26	6.6499e-06	3.3861e-06	282.93	82.025	61.525	17.869	4.1165e-06	24.787	0.00023967	0.00023834	6.6884e-05	1035.8	2.5891e-06	2.5678e-06	1135.9	222.27	2.6154e-06	2.5976e-06	277.85	72.529	61.237	18.153	2.6257e-06	25.091	-2.116	27.619	88.037	-0.272	50.028	4.177	-0.172	7.481	94.889	145.678	7.055	14.960	14.245	21.205	88.881	20.682	-8191	255	
1935.064	1	1	0	0	0.24053	0.14451	0.066097	0.061798	0.17946	0.26949	0.33209	0.26012	0.078545	0.21391	0.24185	0.20479	0.10478	0.16564	0.19057	0.096918	-1.7812	-2.1562	-1.9667	-2.425	-1.7604	-2.2896	-2.35	-1.9062	-2.2583	-2.0062	-2.0812	-2.2646	-1.9292	-2.25	-2.1667	-1.8792	30.067	346.888	198.272	152.154	28.753	216.605	305.725	258.249	7.132	131.497	269.594	224.585	336.507	278.241	108.053	243.468	0.00030698	9.3428e-05	7.3934e-05	1076.7	4.4196e-06	4.5015e-06	1158.6	225.04	3.5074e-06	7.1916e-06	282.76	83.441	61.225	17.725	4.5866e-06	24.843	0.00024244	0.00023934	6.6217e-05	1034.2	2.596e-06	2.5742e-06	1135.3	221.99	2.6324e-06	2.6421e-06	278.11	72.866	61.055	18.097	2.6153e-06	25.033	-7.491	162.238	74.677	-0.042	29.134	116.972	0.094	7.214	128.230	158.077	7.214	17.700	14.172	21.445	57.148	20.474	-8191	255	
1935.183	1	1	0	0	0.11037	0.21173	0.11283	0.10546	0.13567	0.22926	0.27728	0.019891	0.059146	0.34266	0.12429	0.028102	0.25701	0.16651	0.18675	0.19362	-1.7729	-1.975	-2.0146	-2.6667	-1.7771	-1.8583	-2.4938	-1.8813	-2.2542	-2.0167	-1.9708	-2.2729	-2	-2.1458	-2.4792	-1.9896	68.720	100.208	300.426	343.664	125.812	288.151	220.718	314.190	53.303	174.015	253.859	272.176	137.088	326.980	25.535	42.251	0.00038308	0.00015249	0.00017169	1075.3	2.5814e-06	1.4129e-06	1158.7	223.44	3.0248e-06	5.4557e-06	282.4	82.023	61.471	17.808	6.9167e-06	24.599	0.00023958	0.00023834	6.5855e-05	1034.6	2.5869e-06	2.5541e-06	1134.8	221.8	2.5951e-06	2.5784e-06	278.39	72.491	61.177	18.079	2.5821e-06	25.104	336.667	60.725	42.266	-0.398	187.624	133.407	-0.029	7.420	200.437	130.849	7.273	16.937	13.649	21.790	105.234	20.552	-8191	255	
1935.279	1	1	0	0	0.039498	0.21333	0.072173	0.23608	0.15163	0.049424	0.43584	0.2328	0.13595	0.27918	0.14846	0.31718	0.22719	0.1981	0.17697	0.13614	-1.8312	-2.2438	-1.8625	-2.3146	-1.9813	-1.9792	-2.5104	-1.9604	-2.0354	-2.1063	-2.1542	-2.1813	-2.0708	-2.1333	-2.3375	-1.9333	52.055	14.518	222.123	188.156	274.825	-1.706	328.850	-10.286	181.100	29.167	16.567	69.701	328.454	122.856	140.923	300.492	0.00033022	0.00058645	5.3677e-05	1073.2	3.3103e-06	5.2953e-06	1158.9	223.82	4.3572e-06	6.4593e-06	280.66	80.659	61.016	17.862	3.394e-06	24.656	0.00023795	0.00023309	6.5318e-05	1032.8	2.5908e-06	2.5909e-06	1135.5	221.57	2.5911e-06	2.5912e-06	278.25	72.721	61.209	18.133	2.6254e-06	25.028	7.366	60.430	80.965	-0.133	107.817	115.527	-0.095	7.367	96.368	64.360	7.316	15.556	13.914	21.203	17.067	21.190	-8191	255	
1935.375	1	1	0	0	0.22859	0.21743	0.031343	0.16432	0.16019	0.35768	0.2988	0.1444	0.15489	0.13741	0.40793	0.071437	0.076239	0.080903	0.031621	0.079543	-1.8563	-1.9438	-1.8875	-2.3937	-2.2292	-1.9396	-2.4	-2.0479	-2.1937	-2.2812	-2.0167	-2.2917	-2.0354	-1.8875	-2.4437	-2.0687	274.683	152.448	287.891	307.537	41.696	280.249	257.398	307.601	36.896	9.737	240.183	211.625	217.091	306.692	184.879	15.082	0.00028474	0.00019246	0.0001268	1075.2	6.752e-07	3.1037e-06	1163.7	224.73	8.7625e-06	6.2753e-06	282.03	84.723	61.331	17.791	3.0218e-06	24.714	0.00023703	0.00023698	6.6165e-05	1035.6	2.6126e-06	2.5941e-06	1136.6	221.87	2.6047e-06	2.5627e-06	278.57	73.226	61.109	18.083	2.5932e-06	25.026	13.434	-1.204	161.565	-0.413	116.505	174.270	-0.101	7.216	128.235	145.429	6.747	16.928	14.262	21.165	209.521	20.678	-8191	255	
#DATA ENDS
