BOXY.EXE: ISS Imagent and Oximeter Data Acquisition Program Version 0.80
Ascii Record File

#ACQ INFORMATION
2  Detector Channels 
16  External MUX Channels 
1  Auxiliary Channels 
5000  Waveform (CCF) Frequency (Hz)
1  Waveforms Skipped 
30  Waveforms Averaged 
1  Cycles Averaged 
16  Acquisitions per Waveform 
10.0806  Updata Rate (Hz) 

#FILE INFORMATION
TRUE -- External MUX Channel results are PARSED.
FALSE -- AC DC and Phase are NOT grouped.
TRUE -- Companion Program Settings File CREATED.
FALSE -- AC data not excluded
FALSE -- DC data not excluded
FALSE -- Phase data not excluded
FALSE -- Auxillary Chn. data not excluded
Tab delimiters

#CALIBRATION STATE
TRUE -- Waveform Calibration Values APPLIED.


#AUX CALIBRATION VALUES
Val Type	aux-1	

Term	1.0000e+00	
Factor	0.0000e+00	


#WF CALIBRATION VALUES
A = Detector Channel
Val Type	A-AC1	A-AC2	A-AC3	A-AC4	A-AC5	A-AC6	A-AC7	A-AC8	A-AC9	A-AC10	A-AC11	A-AC12	A-AC13	A-AC14	A-AC15	A-AC16	A-DC1	A-DC2	A-DC3	A-DC4	A-DC5	A-DC6	A-DC7	A-DC8	A-DC9	A-DC10	A-DC11	A-DC12	A-DC13	A-DC14	A-DC15	A-DC16	A-Ph1	A-Ph2	A-Ph3	A-Ph4	A-Ph5	A-Ph6	A-Ph7	A-Ph8	A-Ph9	A-Ph10	A-Ph11	A-Ph12	A-Ph13	A-Ph14	A-Ph15	A-Ph16	

Term	0.00000e+00	0.00000e+00	0.00000e+00	0.00000e+00	0.00000e+00	0.00000e+00	0.00000e+00	0.00000e+00	0.00000e+00	0.00000e+00	0.00000e+00	0.00000e+00	0.00000e+00	0.00000e+00	0.00000e+00	0.00000e+00	0.00000e+00	0.00000e+00	0.00000e+00	0.00000e+00	0.00000e+00	0.00000e+00	0.00000e+00	0.00000e+00	0.00000e+00	0.00000e+00	0.00000e+00	0.00000e+00	0.00000e+00	0.00000e+00	0.00000e+00	0.00000e+00	0.00000e+00	0.00000e+00	0.00000e+00	0.00000e+00	0.00000e+00	0.00000e+00	0.00000e+00	0.00000e+00	0.00000e+00	0.00000e+00	0.00000e+00	0.00000e+00	0.00000e+00	0.00000e+00	0.00000e+00	0.00000e+00	
Factor	1.00000e+00	1.00000e+00	1.00000e+00	1.00000e+00	1.00000e+00	1.00000e+00	1.00000e+00	1.00000e+00	1.00000e+00	1.00000e+00	1.00000e+00	1.00000e+00	1.00000e+00	1.00000e+00	1.00000e+00	1.00000e+00	1.00000e+00	1.00000e+00	1.00000e+00	1.00000e+00	1.00000e+00	1.00000e+00	1.00000e+00	1.00000e+00	1.00000e+00	1.00000e+00	1.00000e+00	1.00000e+00	1.00000e+00	1.00000e+00	1.00000e+00	1.00000e+00	X	X	X	X	X	X	X	X	X	X	X	X	X	X	X	X	

B = Detector Channel
Val Type	B-AC1	B-AC2	B-AC3	B-AC4	B-AC5	B-AC6	B-AC7	B-AC8	B-AC9	B-AC10	B-AC11	B-AC12	B-AC13	B-AC14	B-AC15	B-AC16	B-DC1	B-DC2	B-DC3	B-DC4	B-DC5	B-DC6	B-DC7	B-DC8	B-DC9	B-DC10	B-DC11	B-DC12	B-DC13	B-DC14	B-DC15	B-DC16	B-Ph1	B-Ph2	B-Ph3	B-Ph4	B-Ph5	B-Ph6	B-Ph7	B-Ph8	B-Ph9	B-Ph10	B-Ph11	B-Ph12	B-Ph13	B-Ph14	B-Ph15	B-Ph16	

Term	0.00000e+00	0.00000e+00	0.00000e+00	0.00000e+00	0.00000e+00	0.00000e+00	0.00000e+00	0.00000e+00	0.00000e+00	0.00000e+00	0.00000e+00	0.00000e+00	0.00000e+00	0.00000e+00	0.00000e+00	0.00000e+00	0.00000e+00	0.00000e+00	0.00000e+00	0.00000e+00	0.00000e+00	0.00000e+00	0.00000e+00	0.00000e+00	0.00000e+00	0.00000e+00	0.00000e+00	0.00000e+00	0.00000e+00	0.00000e+00	0.00000e+00	0.00000e+00	-2.42741e+02	-1.55801e+02	-1.30442e+02	-1.82481e+02	-9.91373e+01	-5.97705e+01	-1.57793e+02	-1.62015e+02	-9.26830e+01	-6.05605e+01	-1.71410e+02	-1.70576e+02	-1.81136e+02	-1.76213e+02	-8.41416e+01	-1.49482e+02	
Factor	4.89592e-05	1.01473e-04	2.92524e-05	1.62080e-01	9.51960e-07	1.04877e-06	1.53107e-01	3.99569e-02	1.07762e-06	9.79278e-07	7.00297e-02	2.41918e-02	1.94195e-02	6.96819e-03	1.13135e-06	1.01434e-02	1.01517e-06	1.04419e-06	2.90279e-07	8.40594e-02	1.13893e-08	1.14537e-08	7.45432e-02	2.08403e-02	1.13918e-08	1.14551e-08	3.47523e-02	1.20131e-02	1.01154e-02	3.62274e-03	1.14149e-08	5.06097e-03	X	X	X	X	X	X	X	X	X	X	X	X	X	X	X	X	



#DISTANCE SETTINGS
A = Detector Channel
A-1	A-2	A-3	A-4	A-5	A-6	A-7	A-8	A-9	A-10	A-11	A-12	A-13	A-14	A-15	A-16	

2.5000e+00	3.0000e+00	2.5000e+00	3.0000e+00	2.0000e+00	3.0000e+00	1.5000e+00	3.0000e+00	3.0000e+00	3.0000e+00	3.0000e+00	3.0000e+00	3.0000e+00	3.0000e+00	1.5000e+00	3.0000e+00	

B = Detector Channel
B-1	B-2	B-3	B-4	B-5	B-6	B-7	B-8	B-9	B-10	B-11	B-12	B-13	B-14	B-15	B-16	

1.0000e+01	1.0000e+01	1.0000e+01	1.4400e+00	1.0000e+01	1.0000e+01	1.5100e+00	1.9400e+00	1.0000e+01	1.0000e+01	1.9900e+00	2.4900e+00	2.4100e+00	2.9000e+00	1.0000e+01	2.9800e+00	




#DATA BEGINS
time	group	step	mark	flag	A-AC1	A-AC2	A-AC3	A-AC4	A-AC5	A-AC6	A-AC7	A-AC8	A-AC9	A-AC10	A-AC11	A-AC12	A-AC13	A-AC14	A-AC15	A-AC16	A-DC1	A-DC2	A-DC3	A-DC4	A-DC5	A-DC6	A-DC7	A-DC8	A-DC9	A-DC10	A-DC11	A-DC12	A-DC13	A-DC14	A-DC15	A-DC16	A-Ph1	A-Ph2	A-Ph3	A-Ph4	A-Ph5	A-Ph6	A-Ph7	A-Ph8	A-Ph9	A-Ph10	A-Ph11	A-Ph12	A-Ph13	A-Ph14	A-Ph15	A-Ph16	B-AC1	B-AC2	B-AC3	B-AC4	B-AC5	B-AC6	B-AC7	B-AC8	B-AC9	B-AC10	B-AC11	B-AC12	B-AC13	B-AC14	B-AC15	B-AC16	B-DC1	B-DC2	B-DC3	B-DC4	B-DC5	B-DC6	B-DC7	B-DC8	B-DC9	B-DC10	B-DC11	B-DC12	B-DC13	B-DC14	B-DC15	B-DC16	B-Ph1	B-Ph2	B-Ph3	B-Ph4	B-Ph5	B-Ph6	B-Ph7	B-Ph8	B-Ph9	B-Ph10	B-Ph11	B-Ph12	B-Ph13	B-Ph14	B-Ph15	B-Ph16	aux-1	digaux	

2217.282	1	1	0	768	0.22916	0.211	0.17493	0.22713	0.23673	0.16271	0.13953	0.14713	0.11949	0.22036	0.039367	0.35391	0.22107	0.46587	0.14844	0.17661	-1.6646	-1.275	-1.2	-1.8062	-1.0792	-1.3708	-1.8833	-1.0146	-1.8604	-1.5479	-1.0354	-1.9958	-1.1938	-1.7771	-1.7417	-1.1812	252.315	21.802	-43.638	148.857	138.735	-50.219	223.862	256.049	-34.437	124.998	205.982	273.877	-65.638	260.329	70.497	251.070	0.00075473	0.00086352	0.00017527	430.43	4.2513e-06	3.1089e-06	682.62	199.94	2.8207e-06	5.9843e-06	329.5	158.63	99.234	54.724	4.9991e-06	84.398	0.00050201	0.00048164	0.00013631	425.8	5.3489e-06	5.4518e-06	647.07	192.07	5.5479e-06	5.4239e-06	310.66	148.1	94.305	51.062	5.5005e-06	77.716	65.838	26.725	-29.666	-64.273	76.069	107.399	-65.447	-58.595	-72.576	82.917	-61.326	-58.224	-54.578	-50.799	-1.530	-54.952	-8191	255	
2217.377	1	1	0	0	0.11856	0.069931	0.12952	0.15725	0.24266	0.11547	0.18576	0.17654	0.078162	0.1857	0.23366	0.31163	0.12137	0.32145	0.04288	0.28265	-1.3438	-1.5146	-1.0417	-1.9042	-1.1917	-1.5083	-1.9271	-1.2333	-1.7021	-1.4729	-1.0833	-1.9792	-1.2417	-1.4583	-1.9021	-1.2958	-36.565	165.549	156.081	-50.395	1.829	-36.918	116.339	-49.121	180.399	90.666	200.645	175.974	277.666	-64.832	124.092	223.370	0.00069982	0.00053748	0.00010963	429.97	3.2862e-06	1.1561e-05	680.95	202.16	3.5162e-06	2.7653e-06	330.74	159.69	99.07	54.422	4.6696e-06	83.527	0.00051229	0.00049773	0.000138	426.72	5.4088e-06	5.4608e-06	648.17	192.84	5.445e-06	5.4137e-06	312.28	148.07	94.289	50.904	5.5589e-06	77.085	64.735	15.833	-28.019	-64.149	-5.921	70.612	-66.026	-58.572	43.301	109.091	-62.013	-58.076	-54.500	-50.489	94.110	-55.018	-8191	255	
2217.474	1	1	0	0	0.21871	0.11226	0.26052	0.28127	0.20008	0.13274	0.4895	0.11085	0.27634	0.052825	0.04622	0.14907	0.23438	0.17129	0.077424	0.31219	-1.5604	-1.5625	-0.95417	-2.0104	-1.3979	-1.0271	-2.075	-1.325	-1.7458	-1.7958	-1.2188	-2.1333	-1.4792	-1.3083	-1.725	-1.2563	205.843	167.793	18.231	269.277	232.726	227.375	265.903	-60.538	279.856	7.633	57.543	222.026	174.809	253.191	72.140	161.885	0.0007106	0.00035577	8.6211e-05	435.3	2.6504e-06	8.554e-06	681.62	202.97	8.3218e-06	4.4901e-06	330.29	159.7	100.03	54.457	2.3274e-06	84.207	0.00050602	0.00050078	0.0001374	428.28	5.3224e-06	5.3977e-06	647.16	192.73	5.5155e-06	5.4255e-06	311.37	147.95	94.275	50.846	5.4253e-06	77.168	89.965	-53.139	70.263	-64.194	-59.884	102.468	-65.867	-58.540	75.490	-43.010	-61.640	-58.126	-54.608	-50.775	-7.475	-54.986	-8191	255	
2217.571	1	1	0	0	0.26607	0.19874	0.21361	0.19481	0.13794	0.32523	0.12207	0.22448	0.18168	0.28585	0.20485	0.14099	0.045598	0.33995	0.077263	0.27453	-1.0688	-1.7667	-0.88958	-1.7333	-1.3333	-0.93333	-2.1917	-1.3021	-1.4188	-1.8229	-1.1229	-2.0542	-1.5375	-1.4875	-1.8813	-1.3667	174.505	-72.762	-1.311	241.830	153.454	248.992	76.445	-23.897	93.417	235.058	229.675	-66.283	-69.126	268.647	84.935	264.680	0.00088717	0.00092998	0.00025154	433.68	8.6102e-06	6.5058e-06	673.96	202.44	1.0526e-05	4.9705e-06	331.82	159.92	99.759	54.738	5.0942e-06	84.119	0.00050513	0.00049696	0.00013624	428.01	5.3682e-06	5.3754e-06	644.51	193.05	5.3583e-06	5.3697e-06	311	147.93	94.146	51.078	5.339e-06	77.45	76.486	-67.343	-11.808	-63.941	43.418	129.436	-65.715	-58.629	21.655	174.418	-61.662	-57.932	-54.920	-50.735	92.261	-55.333	-8191	255	
2217.665	1	1	0	0	0.29001	0.16806	0.34096	0.19945	0.085618	0.22526	0.15015	0.15656	0.1547	0.25301	0.15297	0.23434	0.29426	0.51061	0.2041	0.22086	-1.2896	-1.8625	-0.97917	-1.8438	-1.7771	-1.0458	-2.0521	-1.3104	-1.3333	-2.0417	-1.0625	-1.7896	-1.8	-1.2417	-1.8729	-1.4062	88.519	197.504	-43.271	-71.517	24.381	-39.069	156.190	-66.173	231.284	77.280	194.946	213.150	-39.203	254.733	112.184	207.807	0.00075052	0.0010088	5.3029e-05	435	2.6565e-06	4.8002e-06	682.22	201.15	1.7694e-06	2.5121e-06	333.07	160.87	99.839	55.172	8.1256e-06	84.998	0.00049649	0.00049438	0.00013473	428.09	5.2645e-06	5.2623e-06	647.38	192.45	5.3483e-06	5.3319e-06	312.79	149.02	94.541	51.31	5.4311e-06	78.129	66.434	236.855	6.717	-64.269	-49.491	174.509	-65.954	-58.692	130.774	220.780	-61.878	-58.474	-55.313	-50.993	-16.647	-55.199	-8191	255	
2217.761	1	1	0	0	0.11992	0.16233	0.01419	0.21956	0.087769	0.20686	0.11256	0.28537	0.056672	0.17144	0.21826	0.29937	0.052687	0.21484	0.17075	0.14427	-1.0479	-1.8229	-1.1396	-1.5438	-1.7833	-1.1479	-1.9208	-1.2854	-1.1146	-2.1813	-1.0958	-1.7	-2.0563	-1.1833	-1.5042	-1.4458	238.978	-47.643	-2.742	282.554	38.610	279.959	49.678	4.453	210.556	-37.741	271.588	163.265	-4.775	241.623	-35.087	198.194	0.00082953	0.00091132	0.00021331	433.55	3.137e-06	3.6276e-06	688.19	202.99	4.5196e-06	8.5301e-06	333.63	161.03	100.64	55.289	4.3404e-06	85.989	0.00049822	0.00049265	0.00013365	426.84	5.3664e-06	5.2673e-06	650.34	193.26	5.2354e-06	5.3461e-06	313.44	149.72	95.172	51.515	5.3955e-06	78.837	46.321	267.287	33.736	-63.928	-27.546	38.988	-65.850	-58.668	59.950	62.835	-61.991	-58.115	-54.752	-51.225	43.552	-55.316	-8191	255	
2217.882	1	1	0	0	0.26726	0.098991	0.12268	0.20335	0.024002	0.32191	0.18517	0.41753	0.11187	0.18064	0.10169	0.33963	0.16248	0.13963	0.2528	0.33711	-0.73333	-1.8417	-1.0208	-1.4937	-1.8083	-0.96667	-1.9188	-1.6104	-1.0542	-1.9062	-1.3604	-1.3396	-1.9562	-1.2271	-1.6125	-1.8646	2.981	159.309	101.550	147.018	-41.246	-3.093	-58.454	217.273	-45.930	88.871	85.414	-71.285	262.553	258.669	103.846	217.587	0.00083347	0.00080505	0.00013039	431.33	9.9462e-06	4.7247e-06	680.92	202.87	4.0046e-06	3.1574e-06	334.4	160.5	99.925	55.242	4.8091e-06	85.226	0.00048875	0.00049433	0.00013271	426.75	5.2658e-06	5.2487e-06	648.21	192.74	5.2909e-06	5.3138e-06	313.38	149.14	94.579	51.413	5.3028e-06	78.306	66.351	21.433	109.581	-63.893	261.296	33.182	-65.777	-58.766	78.978	72.626	-61.514	-58.287	-54.706	-51.035	32.801	-55.386	-8191	255	
2217.978	1	1	0	0	0.2944	0.10578	0.15021	0.31904	0.1556	0.13957	0.16057	0.39534	0.38968	0.10362	0.073989	0.16675	0.042558	0.41191	0.094993	0.24093	-0.54375	-1.8333	-1.2687	-1.3833	-1.9125	-1.2	-1.8854	-1.8042	-1.0312	-2.0208	-1.3479	-1.5688	-1.9354	-1.1583	-1.3937	-1.9479	61.869	275.258	-46.693	277.025	31.090	62.794	203.708	248.732	165.698	-73.816	13.176	205.743	171.510	268.541	195.282	153.402	0.0006928	0.00041082	3.7359e-05	433.29	2.3245e-06	4.4474e-06	679.36	202.3	1.2905e-05	3.8715e-06	331.56	160.19	99.653	55.028	1.7334e-06	84.844	0.00048508	0.00048715	0.0001328	428.05	5.2745e-06	5.2452e-06	646.31	193.09	5.1823e-06	5.2559e-06	311.04	148.54	94.308	51.417	5.2125e-06	78.079	51.685	270.344	28.531	-64.568	70.222	47.223	-66.075	-58.604	19.836	78.471	-61.908	-58.012	-55.221	-50.989	-42.398	-55.203	-8191	255	
2218.074	1	1	0	0	0.058838	0.22248	0.15382	0.18006	0.16357	0.13577	0.14399	0.056683	0.038478	0.17717	0.047936	0.35879	0.24765	0.034686	0.026905	0.24191	-0.55625	-1.8	-1.4396	-1.1208	-1.8375	-1.2437	-1.7292	-1.8542	-1.0417	-1.9875	-1.5875	-1.1854	-2.1771	-1.2271	-1.3771	-2.1083	207.610	45.650	-9.934	-64.329	-5.758	-61.736	182.973	190.868	131.350	163.805	128.586	272.912	265.148	60.759	259.462	175.363	0.00091986	0.00067542	5.1881e-05	432.4	4.1028e-06	8.2623e-06	676.38	202.28	9.125e-06	3.7033e-06	332.22	159.68	99.636	55.227	2.9397e-06	85.336	0.00048236	0.00048094	0.00013204	426.85	5.3243e-06	5.1974e-06	645.25	192.76	5.2069e-06	5.2403e-06	311.65	148.02	94.418	51.307	5.2809e-06	78.165	52.749	-17.197	7.516	-64.335	0.824	0.741	-65.704	-58.736	11.766	26.745	-61.767	-58.210	-55.260	-51.140	1.425	-55.524	-8191	255	
2218.170	1	1	0	0	0.23038	0.30499	0.098341	0.3724	0.05038	0.31852	0.39624	0.4616	0.16525	0.12716	0.17304	0.32687	0.1946	0.27801	0.090187	0.46486	-0.65625	-1.6042	-1.6354	-0.93333	-1.975	-1.1	-1.4813	-2.0646	-0.91875	-1.5271	-1.6646	-1.0958	-2.0729	-1.5688	-1.4125	-2.1208	238.668	52.015	156.394	238.148	114.016	177.130	185.884	231.191	136.785	134.484	96.985	154.666	-46.295	214.081	-27.650	220.800	0.00080952	0.00049751	0.00018531	432.25	2.1397e-06	1.1563e-05	679.37	202.46	5.9338e-06	2.0595e-06	333.71	160.25	100.11	55.073	1.0567e-05	86.014	0.00047619	0.00048336	0.0001326	426.85	5.2174e-06	5.174e-06	646.46	192.72	5.1473e-06	5.3091e-06	313.07	148.59	94.618	51.433	5.2496e-06	78.772	59.984	-4.272	-45.280	-64.101	116.313	135.217	-65.413	-58.936	238.041	1.275	-61.555	-58.202	-54.717	-51.024	38.535	-55.111	-8191	255	
2218.266	1	1	0	0	0.030218	0.3585	0.13115	0.13911	0.13635	0.20383	0.18103	0.16439	0.27835	0.012595	0.15242	0.29063	0.21267	0.19781	0.14311	0.32699	-0.4625	-1.7458	-1.6	-0.93542	-1.8875	-1.4354	-1.2437	-2.2208	-0.96875	-1.6896	-1.8813	-1.2104	-2.1417	-1.7146	-1.0312	-2.2292	-4.639	1.854	-28.134	165.285	-23.537	239.651	16.942	243.833	22.300	208.452	248.406	-32.292	244.491	279.146	151.889	246.948	0.00095136	0.00034037	0.00013412	433.5	6.0526e-06	2.1288e-06	681.66	201.93	4.4297e-06	1.0526e-05	332.24	161.08	99.84	55.25	1.1993e-05	86.151	0.00047809	0.00048234	0.0001333	427.16	5.3223e-06	5.1901e-06	648.33	193.08	5.2028e-06	5.1999e-06	313.39	149.23	94.698	51.488	5.2406e-06	78.807	81.837	-29.162	-60.453	-64.673	-30.108	98.840	-65.729	-58.558	81.191	30.649	-61.880	-58.265	-54.614	-50.765	61.696	-55.040	-8191	255	
2218.362	1	1	0	0	0.087273	0.059936	0.28676	0.10258	0.41043	0.15313	0.18064	0.1757	0.32449	0.15428	0.098042	0.075592	0.053341	0.35134	0.17422	0.24325	-0.76667	-1.5604	-1.7042	-1.1083	-1.7687	-1.5083	-1.3229	-2.0396	-1.1771	-1.65	-2.0979	-1.0167	-1.9396	-1.6396	-1.0917	-2.1646	173.638	148.099	31.930	-36.826	112.550	44.780	-50.382	-64.916	-39.435	-28.176	-19.821	273.361	281.908	241.739	15.126	236.240	0.000566	0.00054689	0.00034048	430.65	7.036e-06	2.0901e-06	676.84	202.73	4.1597e-06	3.108e-06	333.24	160.19	99.564	55.082	7.5247e-06	85.39	0.00047824	0.00047599	0.00013327	425.05	5.2434e-06	5.2714e-06	644.38	192.28	5.0839e-06	5.2277e-06	311.8	148.56	94.485	51.354	5.236e-06	78.472	93.359	82.747	10.967	-64.319	-10.325	78.890	-65.690	-58.769	17.276	48.810	-61.650	-58.284	-54.661	-51.034	61.598	-55.118	-8191	255	
2218.459	1	1	0	0	0.41258	0.084609	0.11055	0.3381	0.28297	0.18924	0.19113	0.17676	0.046466	0.11828	0.18602	0.24759	0.14008	0.19111	0.35884	0.15459	-0.75	-1.5688	-1.8917	-1.3583	-1.6063	-1.5354	-0.97708	-1.8042	-1.3188	-1.5083	-1.9729	-1.0562	-1.5812	-1.8333	-1.2417	-2	-52.222	79.984	227.318	270.779	251.975	195.974	-42.181	175.085	182.185	-34.004	273.018	246.278	70.850	197.206	58.263	-41.448	0.00077324	0.00095651	0.00013297	432.85	7.0455e-06	6.692e-06	678.36	201.75	4.9386e-06	8.751e-06	334.19	160.66	99.53	55.224	6.3752e-06	85.778	0.00047573	0.0004755	0.00013205	426.36	5.1878e-06	5.1849e-06	644.26	192.47	5.1222e-06	5.2159e-06	312.12	148.59	94.346	51.45	5.1514e-06	78.532	49.582	-18.408	-25.983	-64.205	21.052	54.479	-66.076	-58.626	1.444	58.539	-62.308	-58.581	-54.882	-50.895	116.556	-55.387	-8191	255	
2218.578	1	1	0	0	0.37098	0.11212	0.39757	0.20885	0.18629	0.19503	0.23519	0.075946	0.21143	0.3298	0.27593	0.25397	0.28062	0.062184	0.44753	0.227	-0.83958	-1.1896	-1.8604	-1.2563	-1.5375	-1.7521	-1.2896	-1.9167	-1.2792	-1.2167	-2.0938	-1.1854	-1.5875	-1.9125	-0.90625	-2.1479	176.101	276.314	-14.260	223.103	5.339	6.934	259.380	27.107	138.355	189.520	-36.033	220.659	268.975	-62.549	-13.732	233.116	0.00067878	0.0013858	1.144e-05	431.17	6.4131e-06	5.4685e-06	685.92	201.41	7.9368e-06	6.3922e-06	333.6	159.9	99.549	54.872	6.9647e-06	86.123	0.0004807	0.00047498	0.00013277	425.32	5.1937e-06	5.2145e-06	646.06	192.15	5.1423e-06	5.2119e-06	311.61	148.34	94.269	51.242	5.0799e-06	78.82	74.323	38.526	214.705	-64.361	150.401	32.011	-66.081	-58.603	6.891	39.651	-61.685	-58.356	-54.766	-51.066	61.426	-55.115	-8191	255	
2218.674	1	1	0	0	0.22709	0.31476	0.084889	0.28243	0.067539	0.19998	0.17192	0.1476	0.30345	0.17933	0.46071	0.18032	0.20426	0.36025	0.097223	0.36638	-1.0438	-0.99792	-1.8896	-1.3771	-1.4542	-1.6792	-1.0083	-1.8146	-1.575	-1.1125	-2.0958	-1.3312	-1.5729	-1.9	-1.05	-1.975	2.970	147.922	-17.348	-11.853	-67.394	278.432	177.686	207.425	93.322	76.458	235.250	238.844	220.975	-59.285	196.348	246.426	0.00095322	0.00063072	0.00036149	431.95	4.7713e-06	7.533e-06	676.59	201.25	5.3914e-06	6.7917e-06	332.66	161.28	99.934	55.084	6.3106e-06	85.95	0.00048412	0.00047349	0.00013182	426.31	5.1781e-06	5.2613e-06	643.8	192.13	5.1265e-06	5.1243e-06	312.63	148.8	94.274	51.28	5.113e-06	78.904	62.982	-39.029	19.867	-64.398	267.629	112.763	-66.015	-58.611	27.092	105.001	-62.017	-58.465	-55.005	-50.976	241.060	-55.114	-8191	255	
2218.770	1	1	0	0	0.2046	0.017532	0.1937	0.090542	0.16613	0.38054	0.20458	0.13217	0.091299	0.2088	0.22796	0.27903	0.25015	0.2141	0.18319	0.30616	-1.2479	-0.97292	-1.9771	-1.4271	-1.4188	-2.0646	-0.99583	-1.7979	-1.6458	-1.1	-2.1917	-1.5812	-1.325	-2.0625	-1.0833	-1.7771	94.299	1.952	52.255	226.413	3.569	-53.349	139.577	108.610	-53.890	131.388	246.088	112.604	192.404	236.743	109.321	232.230	0.00063378	0.0005349	0.00028965	432.85	9.7261e-06	2.9858e-06	681.12	202.24	6.9031e-06	1.2878e-05	331.87	160.61	98.998	55.072	2.4538e-06	85	0.00048241	0.00046739	0.000132	426	5.096e-06	5.2006e-06	645.38	192.24	5.1173e-06	5.0973e-06	311.98	148.45	93.894	51.22	5.0804e-06	78.347	53.862	75.558	-5.058	-64.316	28.212	150.728	-65.799	-58.758	53.677	57.443	-61.818	-58.325	-54.889	-50.976	200.304	-55.103	-8191	255	
2218.841	1	1	0	0	0.24111	0.26326	0.20034	0.21329	0.19818	0.15443	0.2606	0.24058	0.066168	0.13791	0.40138	0.20184	0.10699	0.1064	0.14266	0.50294	-1.3208	-1.0229	-1.9021	-1.3396	-1.0458	-2.0729	-1.1437	-1.6417	-1.8792	-1.0521	-1.8917	-1.6604	-1.3125	-1.9062	-1.1854	-1.5938	107.634	242.401	158.456	201.385	-55.226	-9.257	236.227	251.058	240.725	162.575	233.245	210.272	-61.533	217.061	71.682	236.861	0.0009802	0.00085914	0.00011491	435.27	8.2984e-06	9.69e-06	677.59	202.2	2.3538e-06	1.0308e-05	332.25	158.99	98.9	54.856	1.0891e-05	85.024	0.00047525	0.00045894	0.00013019	427.37	5.0735e-06	5.2141e-06	642.03	191.74	5.1488e-06	5.0768e-06	311.14	147.63	93.642	51.317	5.1029e-06	78.219	88.245	231.879	5.518	-64.046	-6.541	127.403	-65.340	-58.102	188.486	45.171	-61.492	-57.947	-54.838	-50.788	94.918	-55.171	-8191	255	
2218.962	1	1	0	0	0.13487	0.033806	0.040372	0.016908	0.19886	0.032401	0.19642	0.25387	0.06723	0.12657	0.38882	0.12186	0.30089	0.28241	0.12408	0.25995	-1.425	-0.9375	-1.6063	-1.475	-1.0458	-1.9833	-1.4354	-1.5083	-1.9792	-1.1146	-1.8875	-1.9	-1.125	-2.0833	-1.2625	-1.5	-40.051	179.893	-46.059	148.560	51.636	64.310	-74.098	242.742	2.894	163.394	181.344	-66.516	199.657	242.571	26.972	170.891	0.00090271	0.00026746	6.9087e-05	435.84	9.1613e-06	1.9004e-06	676.68	200.71	4.2766e-06	9.7611e-06	334.74	160.59	99.719	55.189	6.7464e-06	85.692	0.00047773	0.0004595	0.00013182	426.65	5.1216e-06	5.2057e-06	641.45	191.35	5.2091e-06	5.0919e-06	312.03	148.22	93.885	51.403	5.1044e-06	78.827	51.211	-30.377	39.075	-64.570	105.142	232.703	-65.873	-58.664	101.095	77.042	-61.874	-57.866	-54.800	-50.962	117.331	-55.099	-8191	255	
2219.058	1	1	0	0	0.069065	0.17726	0.17878	0.169	0.31655	0.099042	0.13563	0.19665	0.21753	0.21304	0.09766	0.31	0.064166	0.11268	0.086489	0.36794	-1.5333	-1.0562	-1.55	-1.625	-0.97917	-1.8375	-1.3771	-1.2708	-1.7771	-1.1	-1.7479	-1.8271	-0.85625	-1.9625	-1.4146	-1.3875	148.720	75.023	235.152	207.150	114.772	-59.989	-64.897	198.139	-13.264	175.262	52.642	43.293	239.152	207.156	124.426	269.055	0.00070627	0.00037503	9.9932e-05	432.03	3.8778e-06	3.3409e-06	678.64	201.22	3.0604e-06	1.1626e-05	333.67	161.39	99.206	55.344	5.1731e-06	86.558	0.00047622	0.0004672	0.00013091	425.32	5.1017e-06	5.1647e-06	643.85	191.78	5.1794e-06	5.0826e-06	311.75	148.89	93.976	51.687	5.1894e-06	79.325	71.604	21.465	-64.037	-64.363	97.099	177.829	-65.655	-58.626	54.235	74.554	-61.839	-58.401	-54.521	-50.746	14.930	-55.012	-8191	255	
2219.154	1	1	0	0	0.24767	0.20107	0.14597	0.23019	0.2692	0.15921	0.19815	0.12348	0.33018	0.23343	0.25394	0.20169	0.3739	0.36369	0.19055	0.1963	-1.5917	-1.0625	-1.3083	-1.95	-1.0396	-1.85	-1.7521	-1.4062	-1.9833	-1.1354	-1.5208	-2.025	-1.0875	-1.7896	-1.5312	-1.2729	-21.663	170.469	9.934	-11.191	-24.079	-16.717	271.612	16.545	12.477	123.324	269.911	-50.960	201.029	240.724	199.871	126.890	0.00067213	0.00045338	0.00012211	433.93	6.548e-06	1.2053e-05	677.77	200.87	7.9372e-06	4.18e-06	334	161.21	99.742	55.525	2.2892e-06	86.771	0.00048701	0.00046845	0.00013204	426.91	5.1286e-06	5.2176e-06	643.24	191.47	5.082e-06	5.1028e-06	312.53	149.3	94.052	51.795	5.1529e-06	79.642	66.234	-12.889	46.767	-64.125	53.992	16.765	-65.700	-58.861	101.502	123.890	-61.407	-58.287	-54.454	-50.904	223.769	-55.222	-8191	255	
2219.275	1	1	0	0	0.12505	0.096069	0.069078	0.2176	0.27457	0.15853	0.27499	0.20742	0.26821	0.17486	0.17819	0.35228	0.13566	0.03544	0.095673	0.38519	-1.55	-1.1979	-1.3604	-2.0312	-0.95833	-1.7229	-1.7458	-1.2437	-1.9979	-1.1083	-1.2708	-2.2458	-1.2479	-1.775	-1.7021	-1.3563	127.729	150.527	66.366	206.641	85.894	-43.922	185.327	72.802	25.310	280.036	-67.018	239.929	225.704	139.979	102.713	255.748	0.00060853	0.00012069	0.00022486	434.93	7.093e-06	7.375e-06	675.77	201.84	4.8764e-06	7.1813e-06	333.64	160.86	99.579	55.53	8.8221e-06	86.316	0.0004781	0.00045964	0.0001297	426.01	5.0215e-06	5.1715e-06	643.73	191.29	5.0564e-06	5.1124e-06	311.96	149.05	93.998	51.76	5.1277e-06	79.403	61.782	-63.575	39.515	-64.354	68.901	90.449	-65.750	-58.652	117.197	13.808	-61.881	-58.378	-54.698	-50.924	59.782	-55.191	-8191	255	
2219.369	1	1	0	0	0.25822	0.17681	0.062673	0.43164	0.25572	0.25366	0.11187	0.14474	0.14982	0.46322	0.30339	0.19963	0.15979	0.27873	0.13411	0.059294	-1.5417	-1.5542	-1.0479	-2.0396	-0.97292	-1.7437	-1.9125	-1.1646	-1.9417	-1.3875	-1.2708	-2.1521	-1.3729	-1.7104	-1.7854	-1.0583	133.640	231.712	-34.441	10.161	-64.440	257.586	99.746	253.952	166.793	-3.773	247.523	256.665	181.405	254.110	116.576	212.359	0.00071547	0.00050552	9.1733e-05	428.9	4.3737e-06	7.5492e-06	676.76	200.59	3.8651e-06	5.2445e-06	329.68	159.64	98.567	55.214	1.0519e-06	85.848	0.00047982	0.00046593	0.00012989	423.62	5.0828e-06	5.1039e-06	640.49	190.9	5.1315e-06	5.1358e-06	310.12	147.98	93.463	51.564	5.1403e-06	78.863	69.576	-52.878	44.635	-64.218	24.050	-31.710	-65.885	-59.132	54.009	34.954	-61.694	-58.267	-54.949	-50.792	-7.531	-55.411	-8191	255	
2219.443	1	1	0	0	0.17704	0.1945	0.091995	0.27047	0.054064	0.18739	0.094256	0.2596	0.16316	0.15308	0.19933	0.34929	0.12478	0.17128	0.21366	0.39529	-1.4729	-1.4479	-0.93542	-2.1167	-1.1021	-1.3687	-1.9271	-1.1917	-1.8021	-1.5729	-1.1354	-1.9583	-1.3042	-1.5042	-1.8292	-1.275	106.543	-37.875	191.945	250.562	236.498	-10.989	118.545	-54.535	27.552	11.961	230.156	232.438	217.787	261.127	193.825	228.554	0.00064574	0.00083553	5.4705e-05	432.75	5.4189e-06	6.7042e-06	676.5	201.58	7.9272e-06	7.489e-06	329.49	160.16	98.758	55.318	6.5549e-06	85.754	0.00047928	0.00046536	0.00012876	424.84	5.0446e-06	5.1701e-06	641.66	191.28	5.1099e-06	5.1093e-06	310.03	148.67	93.682	51.609	5.155e-06	78.989	87.017	275.859	104.748	-64.290	18.779	95.365	-65.828	-58.705	9.164	65.068	-61.907	-58.184	-55.100	-50.885	81.763	-55.168	-8191	255	
2219.563	1	1	0	0	0.40535	0.21068	0.1324	0.22803	0.21309	0.10698	0.24684	0.16167	0.184	0.065921	0.3731	0.11746	0.14813	0.11034	0.25187	0.34725	-1.3792	-1.7521	-1.1167	-2.0563	-1.2542	-1.3771	-2.3208	-1.2229	-1.5917	-1.7479	-1.2167	-2.0667	-1.4771	-1.3729	-1.6583	-1.3167	281.774	248.268	76.976	-16.432	245.744	273.644	266.436	212.946	199.391	-36.893	257.953	-40.715	278.901	96.695	167.482	199.823	0.00052451	0.0008789	0.00015533	428.48	7.0126e-06	1.1332e-06	678.57	201	9.1608e-06	1.0176e-05	331.46	160.7	99.237	55.542	1.4949e-05	86.504	0.00047768	0.00047364	0.00012903	425.19	5.1183e-06	5.136e-06	642.65	191.39	5.1592e-06	5.1355e-06	311.33	149.05	94.004	51.783	5.2453e-06	79.444	69.837	-31.443	-14.293	-64.335	-13.673	76.615	-65.649	-58.779	122.233	141.481	-61.666	-58.213	-54.966	-50.842	58.480	-55.414	-8191	255	
2219.658	1	1	0	0	0.094089	0.1973	0.0072421	0.39142	0.23056	0.27439	0.063004	0.15824	0.047989	0.16488	0.23655	0.2145	0.096169	0.44824	0.029531	0.15091	-1.2687	-1.7333	-0.82917	-1.9667	-1.2229	-1.3104	-2.1271	-1.1479	-1.4562	-1.7958	-1.0333	-2.0125	-1.5354	-1.1896	-1.8583	-1.1667	113.501	165.223	36.848	-72.489	168.468	247.785	235.428	108.135	-34.823	5.216	186.967	209.420	83.504	252.824	84.384	-55.755	0.0006118	0.00081689	0.00034109	432.38	3.9457e-06	1.0236e-05	675.91	200.72	1.3687e-05	5.9831e-06	331.94	160.66	99.188	55.324	3.9907e-06	86.381	0.0004811	0.00047538	0.00012848	425.47	5.0986e-06	5.181e-06	643.22	191.28	5.161e-06	5.061e-06	312.1	149.43	93.912	51.641	5.1814e-06	79.213	33.958	-7.481	-24.363	-64.353	211.427	114.358	-65.563	-58.946	40.493	72.111	-61.606	-58.050	-54.660	-50.875	-11.237	-55.263	-8191	255	
2219.754	1	1	0	0	0.039834	0.27968	0.27276	0.12918	0.13875	0.24823	0.35985	0.14042	0.06741	0.21249	0.046203	0.041813	0.38926	0.38047	0.11167	0.4379	-1.1187	-1.9	-1.0146	-1.9521	-1.575	-1.0333	-2.3271	-1.35	-1.4208	-1.8563	-1.1792	-2.1104	-1.9083	-1.2771	-1.9458	-1.6583	-51.619	81.195	247.263	38.388	156.906	263.131	202.719	-29.104	-74.226	179.138	-16.420	106.899	253.768	240.839	83.932	227.871	0.00084295	0.0008127	9.911e-05	432.94	1.0019e-05	1.4765e-05	673.39	200.96	1.9653e-06	8.8288e-06	330.77	160.81	99.418	55.35	7.4635e-06	85.829	0.0004754	0.00046568	0.00012816	427.7	5.127e-06	5.0391e-06	642.08	191.78	5.1103e-06	5.0771e-06	311.14	148.93	93.996	51.67	5.2121e-06	79.028	72.426	-24.582	238.062	-65.047	60.262	61.659	-66.402	-59.425	2.281	12.338	-62.474	-58.648	-55.122	-51.339	-11.458	-55.746	-8191	255	
2219.875	1	1	0	0	0.20366	0.2248	0.14208	0.26177	0.29023	0.11235	0.2802	0.22634	0.19073	0.082999	0.27223	0.27172	0.32161	0.16064	0.11439	0.031462	-0.90208	-1.7875	-1.2083	-1.7812	-1.6833	-1.0792	-2.1479	-1.3479	-1.2771	-1.9083	-1.3417	-1.5542	-1.8854	-1.0667	-1.7979	-1.9042	245.635	113.823	220.832	237.045	-55.499	110.451	140.716	-73.243	132.963	125.952	199.258	-10.338	228.058	-43.110	171.081	176.525	0.00095198	0.00069676	0.00020846	431.03	5.6269e-06	8.3629e-06	667.88	198.63	4.5023e-06	7.6145e-06	330.03	159.92	98.968	54.984	7.3436e-06	85.856	0.00047126	0.00046109	0.00012755	425.73	5.1238e-06	5.01e-06	640.54	190.16	5.0873e-06	5.1166e-06	310.24	148.57	93.871	51.601	5.1418e-06	79.27	53.435	-12.079	-36.718	-65.263	42.191	92.064	-66.093	-59.305	-53.080	63.060	-62.493	-58.624	-55.713	-51.310	47.122	-55.598	-8191	255	
2219.971	1	1	0	0	0.1208	0.33266	0.051403	0.025921	0.24411	0.22149	0.14091	0.28193	0.18675	0.089219	0.32529	0.24312	0.18904	0.18329	0.32066	0.34065	-0.70417	-1.8667	-1.1333	-1.5646	-1.7375	-1.2396	-1.6542	-1.6625	-1.075	-1.9083	-1.3125	-1.4646	-2.125	-1.1875	-1.7271	-1.7167	9.828	125.624	98.418	-32.177	182.289	65.309	216.190	281.781	53.463	215.330	-71.706	239.160	186.773	188.218	277.300	168.371	0.00088082	0.0015203	0.00013102	429.59	6.5196e-06	8.6205e-06	663.37	196.33	5.6558e-06	3.5069e-06	332.91	160.96	99.028	55.809	1.2435e-05	87.025	0.00047248	0.00046872	0.00012852	424.61	5.045e-06	5.0024e-06	639.75	190.17	5.0531e-06	5.0929e-06	312.26	149.32	94.089	51.858	5.1375e-06	79.923	52.548	-49.856	70.586	-64.709	-22.749	95.730	-66.768	-59.723	-49.629	13.627	-62.485	-58.584	-55.311	-51.266	37.027	-55.526	-8191	255	
2220.067	1	1	0	0	0.24692	0.22417	0.33134	0.55487	0.2415	0.078834	0.29447	0.11108	0.29124	0.063953	0.070858	0.13515	0.19003	0.2706	0.27503	0.23398	-0.71875	-1.9396	-1.175	-1.2979	-1.9583	-1.0396	-1.9771	-1.8813	-1.1208	-1.7563	-1.575	-1.4688	-1.9833	-1.1833	-1.5708	-1.8	-26.672	250.073	247.401	-75.515	174.620	26.038	116.238	255.245	-41.654	-68.708	69.873	234.525	-18.723	-70.419	259.866	262.052	0.00061067	0.00036567	0.00013479	432.85	2.9693e-06	7.4237e-06	680.01	199.84	3.8902e-06	2.8668e-06	331.41	160.82	98.775	55.241	6.2214e-06	86.486	0.00047103	0.00046791	0.00012914	424.76	5.1175e-06	5.1083e-06	645.81	191.27	5.0196e-06	5.1831e-06	312.93	150.05	94.036	51.852	5.1628e-06	80.224	78.416	274.234	22.795	-64.416	50.244	119.430	-65.879	-59.173	94.595	114.339	-62.328	-58.329	-55.633	-51.501	-10.823	-55.871	-8191	255	
2220.139	1	1	0	0	0.12382	0.21414	0.27338	0.20891	0.12302	0.19267	0.16057	0.29519	0.22955	0.16144	0.24378	0.24967	0.10844	0.18418	0.30717	0.26994	-0.78333	-1.9937	-1.4	-1.2083	-2.0083	-0.92917	-1.6063	-1.8146	-1.075	-1.8563	-1.8062	-1.4813	-2.0458	-1.3375	-1.3458	-2.0667	67.136	25.777	221.533	228.914	29.142	-64.628	225.612	259.742	-55.205	-49.674	276.835	280.825	199.288	86.209	-51.238	203.117	0.00092537	0.00019056	0.0002741	429.05	2.4556e-06	5.5216e-06	669.06	198.65	7.0451e-06	5.1614e-06	327.03	159.09	97.979	54.77	3.6578e-06	85.78	0.00046598	0.00047088	0.00013029	425.02	5.1012e-06	5.0711e-06	642.43	190.53	4.9957e-06	5.1901e-06	310.65	149.16	93.946	51.762	5.144e-06	79.689	52.091	-71.022	-5.420	-64.438	44.523	157.967	-66.355	-59.104	65.714	52.845	-62.260	-58.823	-55.696	-51.437	37.367	-55.966	-8191	255	
2220.259	1	1	0	0	0.16194	0.049678	0.15493	0.21828	0.20845	0.093859	0.041109	0.29618	0.14724	0.18717	0.22313	0.36609	0.25798	0.26441	0.2009	0.0331	-0.69375	-1.9521	-1.6354	-1.2646	-1.7333	-1.2	-1.3979	-1.9229	-1.0167	-1.8563	-1.6021	-1.3354	-2.05	-1.4042	-1.1479	-2.1229	140.056	197.448	145.338	224.027	170.484	138.043	153.978	235.989	188.445	100.097	190.744	231.177	217.789	241.508	-38.829	238.218	0.00090567	0.00078774	0.00025174	427.66	1.6729e-06	8.8017e-06	668.24	198.39	1.1086e-05	1.917e-06	326.89	159.12	97.477	54.843	6.8404e-06	85.382	0.00046411	0.00046488	0.00012857	423.51	5.0201e-06	4.9875e-06	637.77	190.61	4.9211e-06	5.0846e-06	309.5	148.3	93.494	51.64	5.0535e-06	79.327	50.274	-65.361	5.450	-65.059	99.640	84.058	-66.169	-59.053	-31.508	221.999	-62.135	-58.884	-55.074	-51.490	13.498	-55.933	-8191	255	
2220.355	1	1	0	0	0.21294	0.20291	0.16553	0.1739	0.10486	0.2356	0.053277	0.24778	0.10893	0.18839	0.3077	0.33873	0.40316	0.26147	0.077584	0.28479	-0.81667	-1.6667	-1.5229	-1.1167	-1.7875	-1.5542	-1.3375	-2.0854	-1.2521	-1.5438	-1.9229	-1.0583	-2.0208	-1.4438	-1.1063	-2.1708	-4.112	131.724	234.543	202.580	36.320	91.909	119.155	234.926	-59.563	35.659	267.436	184.822	217.253	-68.815	0.663	237.173	0.00080511	0.00039869	0.00026593	425.61	2.1676e-06	6.4781e-06	670.42	199.41	1.3411e-06	3.4591e-06	329.22	158.24	98.045	54.674	1.0726e-05	85.747	0.0004661	0.00047143	0.00012739	423.2	5.055e-06	5.091e-06	638.56	190.54	4.9695e-06	5.1574e-06	310.58	148.45	93.61	51.557	5.0841e-06	79.312	76.980	68.724	5.244	-64.752	84.297	118.134	-66.209	-59.102	-9.377	28.178	-62.362	-58.351	-55.139	-51.304	1.491	-55.688	-8191	255	
2220.450	1	1	0	0	0.18931	0.22727	0.16727	0.016886	0.065172	0.0083349	0.23208	0.16123	0.15571	0.1949	0.14413	0.16099	0.34575	0.086	0.24062	0.29542	-0.9	-1.5104	-1.7333	-1	-1.9479	-1.4167	-1.2646	-2.075	-1.2583	-1.45	-1.9188	-1.1042	-1.7792	-1.8042	-1.1875	-2.0375	218.653	101.601	262.736	252.364	96.157	194.219	211.121	-68.007	131.320	181.727	247.890	257.309	231.116	235.026	224.594	281.669	0.00098232	0.00091066	4.6345e-05	427.05	4.919e-06	4.4974e-06	667.61	197.9	5.1287e-06	4.5195e-06	331.89	159.95	98.535	55.019	1.3498e-05	86.13	0.0004753	0.00046866	0.00013127	423.69	5.129e-06	5.1132e-06	639.77	190.55	5.0629e-06	5.0606e-06	311.79	148.95	93.977	51.673	5.1346e-06	79.634	71.954	-40.899	-59.689	-64.765	29.762	193.706	-66.295	-59.024	81.432	71.978	-62.188	-58.469	-55.199	-51.594	59.416	-55.649	-8191	255	
2220.546	1	1	0	0	0.10227	0.11919	0.19467	0.096189	0.20809	0.23032	0.2952	0.45944	0.36255	0.41276	0.27691	0.17088	0.19988	0.080119	0.26757	0.28725	-0.8	-1.1875	-1.9708	-1.1021	-1.6708	-1.4854	-1.0875	-1.8604	-1.3417	-1.3896	-1.8563	-1.3062	-1.7458	-1.7583	-1.1187	-2.1479	211.806	162.896	259.437	-58.968	-65.666	162.522	105.794	162.613	175.738	-64.842	206.053	228.931	170.967	-62.606	46.058	217.446	0.00088693	0.001166	0.00026739	428.03	2.8194e-06	4.6062e-06	673.46	200.77	8.5713e-06	5.7023e-06	331.15	160.15	98.583	55.387	2.7076e-06	86.129	0.0004845	0.00047092	0.00013271	424.51	5.2501e-06	5.0801e-06	642.68	192.17	5.1882e-06	5.1716e-06	312.42	149.39	94.303	51.875	5.0817e-06	79.826	55.484	-22.451	-21.859	-64.511	146.979	71.588	-65.644	-59.113	16.198	80.285	-62.325	-58.649	-55.366	-51.414	54.853	-55.377	-8191	255	
2220.667	1	1	0	0	0.295	0.36065	0.10106	0.34949	0.05387	0.043997	0.35255	0.1464	0.14848	0.13815	0.20494	0.11956	0.060665	0.36763	0.38827	0.072015	-0.8875	-1.1875	-2.05	-1.0271	-1.4688	-1.7104	-1.1292	-1.9	-1.3375	-1.0938	-2.0833	-1.3375	-1.7021	-1.7667	-1.0771	-2.1042	-19.942	244.889	248.053	268.480	-29.981	165.592	243.887	189.177	-74.856	-58.393	248.378	208.044	-30.091	-44.750	29.500	244.273	0.0010775	0.00031488	0.0003459	428.81	9.7699e-06	5.9821e-06	664.94	199.2	4.4153e-06	7.3759e-06	332.58	160.16	98.438	54.927	4.4629e-06	85.766	0.00048125	0.0004698	0.00013001	424.2	5.1949e-06	5.0922e-06	638.83	191.59	5.1318e-06	5.164e-06	313.51	149.25	94.122	51.694	5.0684e-06	79.373	75.739	136.615	-33.603	-64.885	58.344	36.895	-65.764	-59.026	0.157	29.734	-62.147	-58.504	-55.208	-51.256	8.486	-55.799	-8191	255	
2220.738	1	1	0	0	0.22889	0.10899	0.28899	0.4696	0.19698	0.07216	0.020187	0.21312	0.13158	0.079631	0.24183	0.33284	0.087812	0.15258	0.17358	0.22537	-1.0354	-0.92292	-1.8	-1.1187	-1.5458	-2.0646	-1.3021	-1.8458	-1.3521	-1.0583	-2.1771	-1.3083	-1.4792	-2.1083	-1.1292	-1.8833	202.188	15.587	254.067	231.177	-45.847	36.800	212.631	272.700	169.983	183.550	186.692	242.528	214.976	264.367	228.937	158.014	0.00068682	0.00060461	0.00030336	422.91	8.6694e-06	8.1613e-06	663.28	199.09	7.2741e-06	1.9368e-06	327.87	157.7	97.42	54.992	2.5199e-06	85.819	0.00047218	0.00046649	0.00013123	423.39	5.1585e-06	5.1018e-06	637.9	191.16	5.0898e-06	5.0218e-06	312.44	148.83	93.843	51.742	5.0178e-06	79.579	47.376	262.094	2.558	-64.921	-41.274	121.277	-66.222	-58.526	1.595	29.516	-62.402	-58.566	-55.384	-51.216	172.890	-55.496	-8191	255	
2220.834	1	1	0	0	0.19605	0.20611	0.23284	0.21464	0.23494	0.13706	0.20102	0.32514	0.063987	0.11949	0.29395	0.39556	0.45185	0.404	0.18493	0.37472	-1.2229	-1.1146	-1.9771	-1.4167	-1.3687	-2.0729	-1.0479	-1.7208	-1.7188	-1.0917	-2.0125	-1.5604	-1.4	-2.1646	-0.98958	-1.825	-51.941	12.521	207.129	191.837	252.030	0.754	240.946	-44.031	-39.268	2.831	212.449	185.509	251.812	267.709	21.464	173.993	0.00097871	0.00033551	0.00025441	423.29	1.2841e-05	6.4203e-06	664.7	198.35	2.0626e-06	1.1792e-05	330.56	159.61	98.441	54.687	7.5164e-06	85.471	0.00047695	0.00045952	0.00012954	422.77	5.1041e-06	5.1578e-06	639.11	190.98	5.1131e-06	4.997e-06	313.56	149.44	94.143	51.789	5.015e-06	79.777	59.075	-52.355	21.494	-64.756	89.130	-6.189	-65.912	-59.095	217.878	79.034	-62.603	-58.720	-55.262	-51.321	112.310	-55.515	-8191	255	
2220.955	1	1	0	0	0.1136	0.053444	0.13359	0.10214	0.3567	0.16371	0.12425	0.23513	0.21121	0.19658	0.23059	0.070087	0.4034	0.49231	0.10809	0.31288	-1.3479	-1.0667	-2	-1.4312	-1.0458	-1.8937	-1.275	-1.5625	-1.775	-1.0229	-2.0375	-1.7458	-1.1729	-2.1063	-1.3333	-1.6688	11.528	141.080	135.719	218.675	277.432	272.411	-67.598	-64.974	43.828	-28.221	-38.507	130.039	249.601	243.893	118.940	266.699	0.00035504	0.00056875	0.00017593	422.96	1.0039e-05	4.2578e-06	676.11	198.34	5.5679e-06	6.9854e-06	331.36	160.63	97.804	54.873	2.7075e-06	86.561	0.00047226	0.00046642	0.0001312	422.34	5.0435e-06	5.1446e-06	641.74	191.02	5.1302e-06	5.0658e-06	314.24	150.24	94.29	51.948	5.1444e-06	80.304	53.179	-38.129	41.664	-64.704	54.673	142.373	-66.239	-58.842	-70.113	75.043	-62.258	-58.874	-55.243	-51.377	71.136	-55.473	-8191	255	
2221.051	1	1	0	0	0.17985	0.29218	0.080502	0.1559	0.14081	0.21375	0.091704	0.27366	0.16186	0.01897	0.51117	0.15026	0.29946	0.29046	0.18699	0.3655	-1.3646	-1.0625	-1.6375	-1.3708	-0.95833	-1.9333	-1.3271	-1.2083	-1.7729	-1.0063	-1.7292	-1.5833	-1.0771	-2.0896	-1.2625	-1.3333	-52.151	-29.243	219.101	139.930	-62.550	251.256	210.547	241.344	126.868	145.105	-69.944	233.636	276.509	264.391	271.205	220.277	0.00097984	0.00054105	0.00025723	437.48	4.9428e-06	2.4289e-06	678.3	200.63	6.0196e-06	7.1212e-06	336.24	162.08	99.924	56.379	1.4623e-06	87.459	0.00047921	0.00046077	0.00013186	426.82	5.0378e-06	5.2203e-06	644.61	192.01	5.1774e-06	5.0993e-06	315.3	150.61	94.713	52.424	5.1075e-06	80.529	44.203	6.447	31.586	-64.796	16.217	134.326	-65.914	-58.469	-13.700	31.948	-61.880	-58.198	-54.800	-51.009	283.425	-55.154	-8191	255	
2221.147	1	1	0	0	0.098791	0.33763	0.24643	0.2073	0.21181	0.1432	0.26068	0.08284	0.07016	0.12026	0.47575	0.17072	0.31171	0.35033	0.28307	0.52096	-1.575	-1.0063	-1.525	-1.7771	-1.1313	-1.9542	-1.5187	-1.3083	-1.9167	-1.0375	-1.775	-1.8479	-1	-1.625	-1.5562	-1.0729	-61.495	100.195	245.479	-0.014	206.947	229.528	-76.410	215.144	212.662	218.103	234.058	-54.431	256.378	233.374	223.408	223.273	0.0010451	0.00060944	0.00013737	433.81	7.1508e-06	4.3502e-06	675.89	201.45	5.9463e-06	8.3236e-06	335.91	162.43	100.26	55.661	5.2713e-06	86.592	0.00047616	0.0004664	0.00013207	424.36	4.9346e-06	5.1339e-06	642.42	191.86	5.1281e-06	5.0185e-06	315.1	150.25	94.459	52.068	5.0775e-06	79.629	60.031	-59.429	-19.809	-64.252	-0.734	130.131	-65.951	-58.615	-14.973	63.356	-61.338	-58.247	-54.816	-50.812	-18.171	-55.234	-8191	255	
2221.243	1	1	0	0	0.19751	0.14725	0.16089	0.23882	0.068994	0.015163	0.22344	0.27714	0.022208	0.082728	0.23766	0.15794	0.34197	0.43397	0.24052	0.20049	-1.5438	-0.94583	-1.2646	-1.9979	-1.0125	-1.7875	-1.5771	-1.275	-1.8521	-1.2292	-1.6667	-1.8896	-1.3687	-2.0583	-1.6208	-1.3062	160.396	137.152	-75.923	244.876	157.986	49.574	165.717	268.979	-38.342	52.606	-63.814	281.536	256.763	235.690	183.376	194.699	0.00083981	0.00032648	0.00012725	429.76	3.3096e-06	5.3108e-06	675.08	200.09	3.7537e-06	6.0769e-06	334.16	161.73	99.889	55.652	3.6399e-06	86.92	0.00047533	0.00046022	0.00012924	425.42	4.9946e-06	5.1894e-06	641.07	191.34	5.1482e-06	5.0589e-06	313.16	149.86	94.31	51.997	5.133e-06	79.766	85.328	267.293	29.506	-64.073	235.936	37.241	-66.517	-59.078	163.611	111.172	-61.896	-58.197	-54.718	-50.760	102.689	-55.399	-8191	255	
2221.340	1	1	0	0	0.059954	0.17446	0.10687	0.22177	0.16285	0.085759	0.34321	0.24907	0.11649	0.080601	0.3484	0.25938	0.17947	0.23986	0.16517	0.058694	-1.6063	-1.3417	-1.4083	-2.0104	-1.1042	-1.6604	-1.8417	-1.0812	-1.925	-1.2167	-1.4458	-1.9937	-0.94792	-1.725	-1.6875	-1.3	-53.102	188.854	106.789	233.840	137.897	207.469	222.860	187.026	91.184	-6.337	-41.302	273.036	263.853	244.089	174.341	199.926	0.0007262	0.00066407	0.00018799	436.52	2.4221e-06	1.0691e-05	679.07	199.98	5.5862e-06	2.5941e-06	334.21	161.66	99.224	55.714	3.1908e-06	86.563	0.0004792	0.00046008	0.00012944	426.81	4.9851e-06	5.1742e-06	642.92	191.58	5.1829e-06	5.1039e-06	313.67	149.78	94.054	52.071	5.108e-06	79.725	78.970	-17.319	23.144	-64.038	83.972	113.756	-65.898	-58.655	106.393	19.509	-61.759	-58.260	-54.775	-51.057	75.602	-55.396	-8191	255	
2221.436	1	1	0	0	0.21273	0.15301	0.23606	0.055421	0.045369	0.31499	0.052835	0.25888	0.20108	0.30235	0.13175	0.22517	0.20276	0.28114	0.17896	0.43212	-1.6583	-1.4896	-1.2687	-2.0625	-0.99583	-1.65	-1.8729	-1.1167	-2.0083	-1.6125	-1.2687	-2.1958	-1.225	-1.5667	-1.7771	-1.2104	161.851	224.068	23.505	-70.756	151.873	269.934	128.739	245.932	152.951	87.685	-56.907	257.881	211.602	-71.607	-44.079	265.507	0.00098336	1.1996e-05	0.0003767	430.36	9.0329e-06	2.6707e-06	670.91	200.17	1.9079e-06	5.6404e-06	332.71	161.73	99.206	55.321	1.4164e-05	86.649	0.00047599	0.00046765	0.00012885	427.3	5.0924e-06	5.1389e-06	641.58	192	5.1864e-06	5.1463e-06	314.28	150.8	94.479	52.042	5.1206e-06	80.057	58.694	43.969	5.052	-64.494	-33.544	95.664	-66.029	-58.918	184.509	-0.642	-61.613	-58.450	-54.966	-50.902	34.635	-55.512	-8191	255	
2221.555	1	1	0	0	0.084105	0.48301	0.29039	0.1483	0.21928	0.094578	0.28986	0.19077	0.18005	0.12775	0.36133	0.28017	0.2997	0.24562	0.18803	0.39901	-1.4333	-1.3292	-1.0667	-1.9458	-1.1938	-1.2479	-1.8854	-0.92917	-1.6771	-1.6896	-1.1437	-2.1542	-1.2458	-1.3833	-1.8896	-1.1521	-19.041	2.675	90.427	227.660	-75.616	135.280	81.001	276.049	165.668	42.912	-59.789	255.513	-15.552	282.969	138.405	193.967	0.00074977	0.00063474	0.00012879	430.17	3.4401e-06	6.2997e-06	677.59	200.48	6.1469e-06	7.7237e-06	335.14	163.18	99.183	55.466	8.1309e-06	86.298	0.00048808	0.00046804	0.00012933	425.68	5.0884e-06	5.1516e-06	646.11	192.02	5.1915e-06	5.1954e-06	315.93	151.39	94.681	52.041	5.1273e-06	79.922	66.774	3.536	263.167	-64.454	190.291	22.913	-66.246	-58.963	39.115	155.851	-62.063	-58.496	-55.250	-50.962	56.250	-55.463	-8191	255	
2221.651	1	1	0	0	0.060901	0.34193	0.35909	0.13496	0.13203	0.25224	0.17679	0.158	0.034722	0.1022	0.098098	0.060427	0.20444	0.20808	0.25315	0.14827	-1.225	-1.4854	-1.0396	-2.0708	-1.2938	-1.2958	-2.0583	-0.85208	-1.5167	-1.5542	-1.05	-2.0021	-1.3458	-1.3771	-1.825	-1.2958	129.614	242.652	263.009	232.954	213.713	125.835	182.717	129.245	69.400	9.232	180.041	268.102	-47.482	227.998	189.959	265.758	0.0010641	0.0014195	0.00022026	430.7	5.9563e-06	4.9481e-06	674.81	199.8	3.5486e-06	2.5937e-06	333.47	162.58	99.305	55.488	4.1586e-06	86.067	0.00048523	0.00046878	0.00012807	425.57	5.0958e-06	5.108e-06	644.87	192.18	5.1548e-06	5.0666e-06	315.52	150.83	94.559	52.107	5.1627e-06	79.612	57.541	-17.305	7.725	-64.456	44.494	87.291	-66.017	-58.883	62.945	263.550	-62.144	-58.149	-54.867	-50.933	75.875	-55.597	-8191	255	
2221.747	1	1	0	0	0.10293	0.099047	0.16864	0.069004	0.22758	0.22875	0.33046	0.15253	0.052312	0.19449	0.22712	0.41306	0.13395	0.2421	0.10207	0.31814	-1.0833	-1.7313	-1.1125	-2.0312	-1.4292	-0.93333	-2.0938	-1.2104	-1.6167	-1.9438	-1.3125	-1.9292	-1.6896	-1.2396	-1.9979	-1.4	275.618	59.806	-7.988	98.641	229.714	-30.001	151.743	-24.564	96.442	83.506	276.624	229.097	239.295	225.042	-37.824	244.420	0.00069838	0.00041013	0.00011602	427.51	9.3075e-06	2.6819e-06	673.27	200.45	1.1506e-05	9.0197e-06	333.24	161.81	99.72	55.763	2.7899e-06	86.396	0.00048001	0.00047011	0.00012765	425.82	5.0946e-06	5.0779e-06	643.68	192.26	5.1618e-06	5.0844e-06	315.55	151.09	94.801	52.126	5.1649e-06	79.996	54.918	-36.528	20.466	-64.494	61.218	129.459	-65.963	-58.887	36.760	96.798	-61.822	-58.828	-55.158	-51.049	68.975	-55.340	-8191	255	
2221.843	1	1	0	0	0.2285	0.26737	0.30186	0.059967	0.18713	0.19682	0.20312	0.13366	0.060743	0.25237	0.07037	0.14268	0.20642	0.05468	0.1726	0.24535	-0.92292	-1.8708	-0.98958	-2.025	-1.6979	-1.3354	-2.1	-1.3875	-1.2646	-2.0917	-1.2938	-1.8521	-1.8937	-1.3333	-1.7833	-1.5063	224.115	76.192	-55.933	141.724	280.361	172.174	258.265	-8.334	88.665	-72.956	81.473	94.048	194.610	-61.950	176.604	256.203	0.0006075	0.0011534	0.00023759	432.53	5.7211e-06	8.3299e-06	681.78	200.88	5.5905e-06	6.106e-06	333.25	161.85	98.835	55.337	6.8595e-06	86.822	0.00047305	0.00046995	0.00012905	426.85	5.0572e-06	5.0333e-06	648.77	192.8	5.0341e-06	5.1263e-06	314.93	151.34	94.632	52.147	5.2569e-06	80.329	46.403	7.848	66.274	-64.747	-14.078	56.919	-66.094	-59.271	33.260	86.641	-61.760	-58.463	-55.429	-51.232	-13.355	-55.595	-8191	255	
2221.964	1	1	0	0	0.23472	0.11575	0.37132	0.2585	0.18859	0.1105	0.24216	0.15248	0.25603	0.10301	0.089845	0.33177	0.049143	0.3125	0.25999	0.43435	-0.7625	-1.8583	-1.0208	-1.6229	-1.7229	-1.1333	-1.925	-1.4958	-1.4229	-1.9583	-1.3208	-1.6146	-1.95	-1.1646	-1.7687	-1.7771	56.516	69.598	10.993	227.473	-38.031	73.630	120.840	169.530	259.374	49.597	231.161	240.325	129.188	172.578	-42.866	204.086	0.00073185	0.00050832	0.00016207	430.89	1.6102e-06	3.9078e-06	673.52	199.35	8.5228e-06	2.7591e-06	334.12	162.04	100.16	55.818	3.2366e-06	87.246	0.00047829	0.00047247	0.00013094	427.26	5.1326e-06	5.143e-06	646.88	192.14	5.0791e-06	5.2192e-06	317.22	151.91	95.224	52.334	5.1924e-06	80.51	68.416	78.916	-23.222	-64.677	248.506	48.011	-66.197	-59.200	21.875	122.298	-62.057	-58.437	-54.956	-51.106	103.945	-55.487	-8191	255	
2222.035	1	1	0	0	0.36277	0.27574	0.16962	0.091538	0.17312	0.13066	0.24181	0.16965	0.11853	0.036579	0.29944	0.29408	0.27016	0.35771	0.26941	0.24542	-0.65	-1.9562	-0.93958	-1.4312	-1.7604	-0.81875	-1.825	-1.7646	-1.1396	-1.8021	-1.2521	-1.3729	-1.9021	-1.3083	-1.8104	-1.9146	123.672	-56.151	259.870	231.746	270.183	13.184	238.053	19.417	43.256	-11.904	160.724	251.848	182.287	258.906	175.412	226.052	0.00048616	0.0005983	4.3266e-05	426.37	3.7861e-06	4.3478e-06	679.3	202.73	5.396e-06	5.4659e-06	336.28	162.41	99.469	55.198	1.3132e-05	85.85	0.00047633	0.00047445	0.00012822	425.4	5.1087e-06	5.0727e-06	649.3	192.96	5.0575e-06	5.1834e-06	316.53	151.57	94.884	52.152	5.1189e-06	80.092	27.746	12.666	3.893	-64.717	102.677	116.584	-65.709	-58.756	34.047	95.911	-62.228	-58.342	-55.023	-51.399	50.264	-55.654	-8191	255	
2222.132	1	1	0	0	0.22936	0.12924	0.11561	0.3597	0.21786	0.20917	0.14109	0.22839	0.20259	0.153	0.17952	0.17597	0.070005	0.18011	0.22895	0.12054	-0.63333	-1.8208	-1.1	-1.2479	-1.775	-0.975	-1.8813	-1.7271	-1.0125	-1.8625	-1.6208	-1.3625	-2.0771	-1.45	-1.7062	-2.0167	224.054	81.596	184.298	210.621	195.499	149.928	33.858	65.409	-68.151	-15.663	192.012	-39.350	-23.366	180.647	279.971	-52.133	0.00051034	0.00067374	5.7321e-05	427.84	3.4697e-06	4.2831e-06	670.09	199.26	6.2501e-06	5.6795e-06	333.85	160.82	99.459	55.272	8.7696e-06	86.141	0.00046964	0.00047547	0.00012765	425.72	5.0602e-06	5.1476e-06	643.94	191.86	5.1e-06	5.2252e-06	314.78	150.49	94.907	51.993	5.2003e-06	79.575	95.581	-48.755	40.531	-64.589	22.874	253.376	-66.069	-59.276	64.291	93.047	-62.069	-58.388	-54.954	-50.829	35.993	-55.456	-8191	255	
2222.228	1	1	0	0	0.067429	0.15531	0.10983	0.21231	0.15136	0.081624	0.079735	0.16576	0.048413	0.17082	0.26522	0.15465	0.24687	0.19187	0.12542	0.58233	-0.62917	-1.8375	-1.375	-1.3667	-1.9542	-0.86458	-1.6458	-2	-1.0271	-1.6771	-1.55	-1.3646	-2.0563	-1.2792	-1.3563	-2.0958	166.339	13.286	157.365	-75.156	263.821	176.941	-41.684	28.125	254.705	-22.683	-63.327	216.439	178.682	-75.046	16.083	250.152	0.00098202	0.0009393	0.00025674	429.41	3.6138e-06	1.9349e-06	675.66	201.08	4.8073e-06	1.231e-05	336.55	161.74	100.13	55.858	8.3993e-06	86.854	0.000478	0.00047653	0.00012855	425.7	5.1053e-06	5.1527e-06	645.36	192.54	5.1104e-06	5.2666e-06	315.93	150.43	94.975	52.074	5.2339e-06	79.798	38.468	-38.750	4.817	-64.499	-43.188	69.897	-66.111	-58.806	-38.406	51.262	-61.839	-57.844	-54.600	-50.804	-4.434	-55.040	-8191	255	
2222.347	1	1	0	0	0.065004	0.38172	0.1514	0.28406	0.19453	0.045669	0.23026	0.2575	0.25428	0.12945	0.23669	0.14563	0.10788	0.36441	0.22221	0.065212	-0.50417	-1.7604	-1.6917	-1.1354	-2.0479	-1.2958	-1.7437	-1.9438	-0.87292	-1.7667	-1.6542	-1.1437	-2.0896	-1.3687	-1.15	-2.1021	-39.261	89.711	-42.068	183.300	-76.153	42.085	174.687	257.966	-2.793	69.747	-41.527	239.745	-22.287	173.141	-73.423	-57.954	0.00041068	0.00051609	0.0002512	430.99	2.1307e-06	5.1623e-06	684.76	203.66	8.1077e-06	2.3116e-06	339.43	164.04	100.75	56.033	7.5784e-06	87.88	0.0004755	0.00048113	0.00012946	424.73	5.2368e-06	5.1187e-06	647.87	193.56	5.0914e-06	5.3096e-06	317.82	151.93	95.357	52.218	5.1408e-06	80.585	81.376	-24.393	-19.920	-64.259	10.678	32.062	-65.949	-58.613	106.730	113.897	-61.846	-57.895	-54.587	-51.212	-1.880	-56.144	-8191	255	
2222.443	1	1	0	0	0.010549	0.18822	0.057855	0.20947	0.04	0.13005	0.27641	0.19497	0.13415	0.12756	0.060699	0.18989	0.25515	0.10793	0.1696	0.31989	-0.77708	-1.7083	-1.7167	-1.2292	-1.8813	-1.0812	-1.4062	-2.0854	-1.0958	-1.7271	-1.7812	-1.2583	-1.7667	-1.5187	-1.25	-2.0646	107.363	-30.228	193.517	1.321	241.137	164.184	152.965	209.439	227.626	-26.897	2.799	228.046	231.177	256.326	191.674	215.826	0.0010073	0.00058666	0.00015878	429.36	1.3919e-05	8.066e-06	684.87	203.99	1.2136e-06	6.361e-06	340.18	164.21	100.8	56.194	1.0446e-05	87.938	0.0004804	0.00047872	0.00013066	424.91	5.1996e-06	5.1261e-06	649.67	193.85	5.1277e-06	5.2392e-06	318.37	152.44	95.721	52.416	5.1253e-06	81.024	66.177	-71.278	-15.930	-65.258	57.149	230.264	-66.458	-59.615	184.288	18.169	-63.012	-58.746	-55.934	-51.785	-19.903	-56.268	-8191	255	
2222.539	1	1	0	0	0.006119	0.09075	0.087218	0.16817	0.18153	0.18667	0.22337	0.1398	0.51005	0.094618	0.32926	0.058355	0.033973	0.03553	0.24726	0.26192	-0.72708	-1.2542	-1.8042	-1.0042	-1.8188	-1.375	-1.1479	-1.9875	-1.1583	-1.3208	-1.8333	-1.0562	-1.9375	-1.6979	-1.0771	-2.0854	104.459	-30.655	242.746	242.147	41.656	113.192	213.019	256.580	199.278	259.614	161.612	13.839	231.923	14.672	65.035	190.108	0.0010174	0.0013518	7.5603e-05	435.94	4.6995e-06	2.5168e-06	684.11	201.72	2.5081e-06	3.7741e-06	338.93	163.73	100.33	55.951	3.9754e-06	87.533	0.00048004	0.00047881	0.00013316	427.37	5.2542e-06	5.1442e-06	649.01	192.89	5.1755e-06	5.2284e-06	318.03	152.16	95.458	52.312	5.101e-06	80.576	44.846	-11.780	28.314	-65.124	7.513	7.172	-66.501	-59.744	51.266	93.172	-62.606	-59.139	-55.885	-51.675	-18.218	-56.050	-8191	255	
2222.635	1	1	0	0	0.21359	0.28498	0.1706	0.084229	0.06285	0.11602	0.24024	0.19571	0.27583	0.13212	0.16369	0.28455	0.3381	0.11237	0.12768	0.15882	-0.82708	-1.2771	-1.8687	-1.0229	-1.8583	-1.4729	-1.1708	-2	-1.2812	-0.99792	-2.0792	-1.275	-1.7104	-1.9417	-1.1104	-1.9771	201.939	75.439	-51.568	-69.194	199.177	119.027	251.820	255.044	280.015	-4.845	273.394	235.779	223.226	278.242	142.696	248.142	0.00077992	0.00033316	8.4828e-05	432.17	8.5402e-06	8.8596e-06	680.91	203.29	4.3944e-06	1.0176e-05	338.35	163.27	100.88	56.148	1.3802e-05	87.271	0.00047927	0.00047328	0.0001324	425.98	5.2196e-06	5.1684e-06	647.89	193.39	5.2045e-06	5.1255e-06	317.58	151.6	95.448	52.295	5.1229e-06	80.309	69.155	26.410	96.206	-64.995	42.477	92.635	-66.838	-59.255	59.898	105.291	-62.848	-59.394	-55.856	-51.823	31.253	-55.854	-8191	255	
2222.731	1	1	0	0	0.15658	0.23577	0.045855	0.10633	0.1013	0.15451	0.13062	0.1628	0.10631	0.0037863	0.43002	0.16404	0.23837	0.075427	0.093461	0.3578	-0.85417	-1.2604	-1.9208	-1.0042	-1.5417	-1.6562	-1.0625	-1.8771	-1.1271	-0.86458	-2.0896	-1.1521	-1.4646	-1.8542	-0.84583	-1.9062	-73.251	-43.393	179.037	-76.006	193.008	116.540	196.977	246.533	61.351	-37.268	211.823	167.965	281.104	-19.442	185.122	216.470	0.00074845	0.00066265	0.00025023	431.89	7.5587e-06	1.0336e-05	676.46	202.68	8.4748e-06	5.8947e-07	338.8	163.26	100.52	55.803	5.7219e-06	86.811	0.00047509	0.00047091	0.00013448	425.73	5.1309e-06	5.1596e-06	645.07	193.17	5.1656e-06	5.0766e-06	317.56	151.09	95.138	52.16	5.0768e-06	80.089	67.936	6.563	22.354	-64.936	-27.556	50.987	-66.761	-59.550	-18.107	260.478	-62.307	-59.434	-55.895	-51.594	86.439	-55.989	-8191	255	
2222.827	1	1	0	0	0.10194	0.20347	0.21043	0.23766	0.23659	0.21444	0.3995	0.41538	0.29514	0.11345	0.2763	0.4258	0.39409	0.097131	0.17054	0.12246	-1.1437	-0.87292	-1.8438	-1.15	-1.45	-1.8042	-1.3	-1.7812	-1.5667	-1.0875	-1.8208	-1.425	-1.5333	-1.9333	-1.3333	-1.8604	140.405	13.562	28.030	-67.492	-18.343	171.386	208.274	214.202	-56.774	-24.104	222.228	216.826	-53.691	-47.236	84.323	242.944	0.0010992	0.00016393	0.00028707	434.78	1.6107e-06	7.3316e-06	684.15	203.72	9.927e-06	5.1382e-06	337.08	162.49	99.893	56.157	9.1889e-06	87.613	0.00047434	0.00046428	0.00013221	426.17	5.1518e-06	5.1562e-06	648.38	193.23	5.1112e-06	5.1151e-06	316.58	151.35	95.017	52.276	5.0996e-06	80.529	79.511	-18.261	-18.422	-64.961	-0.634	44.617	-66.138	-59.454	57.284	134.088	-62.553	-59.163	-55.567	-51.800	69.697	-55.573	-8191	255	
2222.923	1	1	0	0	0.21292	0.07451	0.17732	0.21648	0.24903	0.12688	0.30564	0.066213	0.028511	0.2936	0.13037	0.17244	0.21119	0.33099	0.2004	0.26723	-1.3312	-1.0875	-1.9146	-1.3146	-1.2229	-1.8813	-1.3021	-1.7458	-1.6396	-1.1208	-2.0854	-1.3813	-1.3458	-2.0375	-1.2958	-1.7083	55.759	132.421	-74.829	214.422	237.273	96.703	164.637	267.065	108.164	278.678	234.215	276.465	118.898	-41.365	-1.687	217.473	0.00070064	0.00066056	0.00012601	430.85	7.9023e-06	9.5258e-06	680.97	202.02	5.5793e-06	8.363e-06	340.29	163.3	100.59	56.119	2.93e-06	87.891	0.00047869	0.00046633	0.00013323	425.99	5.1267e-06	5.2127e-06	648.93	193.42	5.0609e-06	5.0558e-06	318.85	151.74	95.204	52.334	5.0657e-06	80.588	53.125	-15.773	-54.594	-65.181	62.677	126.072	-66.798	-59.354	-1.499	145.389	-62.413	-59.094	-55.785	-51.746	101.688	-56.029	-8191	255	
2223.044	1	1	0	0	0.014925	0.18732	0.14575	0.10207	0.24369	0.08933	0.24681	0.089705	0.15848	0.038613	0.1392	0.05992	0.23213	0.22924	0.22636	0.05854	-1.3167	-0.93958	-1.6187	-1.4688	-1.1125	-2.0125	-1.1104	-1.6479	-1.7292	-0.94792	-1.8563	-1.6187	-1.1	-2.0979	-1.1187	-1.4958	38.582	268.178	36.613	89.260	-8.249	199.020	176.868	-37.202	59.725	178.522	200.593	-9.218	277.794	194.773	59.949	-66.769	0.00086297	0.0001286	0.00025073	430.58	1.7267e-06	7.3275e-06	679.61	201.74	9.4184e-06	4.8692e-06	337.51	163.12	100.16	56.065	5.8705e-06	87.24	0.00048248	0.00046233	0.00013237	425.67	5.0221e-06	5.2139e-06	647.69	192.81	5.0659e-06	5.0705e-06	317.44	151.07	94.888	52.339	5.0223e-06	80.057	49.748	6.912	26.594	-65.122	102.154	116.290	-66.874	-59.503	-14.680	-4.309	-62.667	-58.923	-55.740	-51.676	107.055	-55.948	-8191	255	
2223.140	1	1	0	0	0.2465	0.22054	0.12797	0.20186	0.031596	0.086557	0.22925	0.18309	0.11357	0.21621	0.050103	0.42578	0.16206	0.4076	0.023861	0.27498	-1.3438	-0.91667	-1.7833	-1.5562	-0.94167	-1.9813	-1.0833	-1.2437	-1.8604	-1.0125	-1.8583	-1.6583	-1.0771	-1.9146	-1.1604	-1.5292	198.750	-30.426	281.393	149.413	186.965	115.834	-57.233	243.327	89.638	118.603	8.540	218.645	228.620	247.143	220.247	231.286	0.00053528	0.00095608	6.87e-05	431.37	2.8968e-06	1.1566e-05	679.4	200.48	3.9848e-06	9.315e-06	337.9	161.84	100.24	55.618	3.8557e-06	86.726	0.00047996	0.00046365	0.00013062	426.62	5.0551e-06	5.1188e-06	644.56	191.82	5.1306e-06	5.1147e-06	316.92	150.52	94.954	52.015	5.1108e-06	79.885	55.848	-11.473	-30.885	-65.610	-6.659	79.533	-66.951	-59.236	62.534	117.319	-62.631	-59.184	-55.954	-51.704	69.285	-56.188	-8191	255	
2223.236	1	1	0	0	0.12349	0.24051	0.3848	0.066458	0.045573	0.098433	0.31563	0.15929	0.03443	0.20245	0.18215	0.15033	0.13206	0.23868	0.10251	0.22415	-1.6896	-1.2125	-1.5208	-1.8208	-0.95417	-1.8667	-1.4	-1.2104	-1.8125	-1.0896	-1.7854	-1.9937	-1.0771	-1.85	-1.5292	-1.4042	205.335	-76.009	111.809	224.475	47.221	186.812	157.142	164.822	-37.158	92.636	-23.319	193.642	249.799	250.166	138.891	185.327	0.00053881	0.00047173	0.00016012	432.13	2.8837e-06	4.5233e-06	670.94	200.39	1.3967e-06	5.3515e-06	339.35	163.46	99.335	55.67	9.0675e-06	86.959	0.00047687	0.00046399	0.00013154	425.65	5.0591e-06	5.1602e-06	642.63	192.16	5.2036e-06	5.1366e-06	317.23	151.12	94.635	52.199	5.0486e-06	80.114	67.701	13.797	8.447	-65.089	-1.594	253.749	-66.619	-59.526	31.489	263.804	-62.562	-59.416	-55.775	-51.673	11.808	-55.995	-8191	255	
2223.333	1	1	0	0	0.11041	0.20003	0.17123	0.15916	0.1297	0.074258	0.16181	0.13271	0.18344	0.1451	0.23259	0.16264	0.171	0.033738	0.11881	0.1893	-1.5271	-1.2667	-1.3229	-1.8958	-0.9875	-1.7687	-1.55	-1.1375	-1.9292	-1.1854	-1.3979	-1.9688	-1.1688	-1.6812	-1.3958	-1.0417	44.084	256.674	144.583	275.860	-51.759	113.464	178.098	274.052	-18.515	258.723	216.718	263.207	-67.936	195.247	262.466	-52.095	0.00082868	0.00013301	0.00012371	435.15	1.0494e-05	3.2569e-06	681.37	201.01	1.0942e-05	7.3316e-06	335.2	162.38	99.581	55.322	4.5671e-06	86.671	0.00048238	0.00046426	0.00012977	428.24	5.1046e-06	5.1636e-06	647.19	191.97	5.2648e-06	5.1159e-06	316.38	151.38	94.734	52.08	5.1792e-06	80.349	45.491	84.797	-60.560	-65.162	18.596	47.409	-66.719	-59.995	13.969	15.951	-62.870	-59.162	-55.836	-52.003	20.514	-56.301	-8191	255	
2223.429	1	1	0	0	0.045944	0.14967	0.21521	0.04867	0.20355	0.21489	0.18624	0.14293	0.073062	0.082432	0.47783	0.17113	0.17907	0.26141	0.078472	0.14442	-1.4708	-1.1458	-1.3229	-1.9021	-1.0958	-1.6271	-1.8333	-1.1167	-1.8958	-1.0771	-1.3542	-2.075	-1.1042	-1.675	-1.4729	-1.1104	223.544	59.281	-30.843	-50.699	74.622	118.890	262.553	-69.712	213.045	15.695	189.350	198.586	202.686	279.045	279.535	227.717	0.00073727	0.00036511	0.00018496	425.14	8.6985e-06	4.3666e-06	670.84	200.32	8.6811e-06	3.8158e-06	335.06	161.44	98.926	54.96	7.8754e-06	86.49	0.00049	0.00046671	0.00013069	425.9	5.0251e-06	5.2096e-06	645.31	192.49	5.1992e-06	5.1351e-06	317.14	151.72	94.905	52.13	5.138e-06	80.541	39.089	-51.120	-12.434	-65.639	53.608	280.289	-67.105	-59.985	126.007	180.219	-63.308	-59.550	-55.907	-51.927	88.401	-56.579	-8191	255	
2223.523	1	1	0	0	0.27731	0.14627	0.10141	0.12075	0.098169	0.14777	0.3087	0.39231	0.19067	0.22259	0.24461	0.18754	0.18511	0.21449	0.20852	0.0896	-1.3208	-1.2583	-0.96667	-1.9708	-1.1729	-1.3833	-1.8687	-0.89583	-1.8292	-1.3083	-1.1792	-2.0604	-1.2396	-1.4354	-1.7625	-1.2771	269.622	165.701	80.008	265.471	172.198	-60.425	-29.171	174.406	-30.847	100.316	203.856	-54.370	-66.340	242.107	122.571	128.470	0.00093993	0.00043476	0.00014273	427.22	1.0363e-06	9.8737e-06	675.99	198.65	9.7999e-06	4.8349e-06	334.73	159.63	99.264	55.092	4.4959e-06	86.27	0.00047341	0.00046105	0.00012959	424.92	5.0273e-06	5.1088e-06	646.93	191.89	5.1122e-06	4.9964e-06	316.75	150.69	94.559	51.967	5.0723e-06	79.812	67.836	-3.281	28.947	-65.656	115.541	45.631	-66.813	-60.128	77.226	80.643	-62.919	-59.428	-55.911	-51.844	113.194	-56.355	-8191	255	
2223.644	1	1	0	0	0.2297	0.12515	0.24262	0.15838	0.09522	0.20874	0.046753	0.2907	0.090382	0.13722	0.44763	0.26161	0.075253	0.18605	0.037396	0.10761	-1.2458	-1.4688	-1.0104	-1.8396	-0.94583	-1.2896	-2.1271	-1.0917	-1.8375	-1.6063	-1.2229	-2.0417	-1.2292	-1.4688	-1.7396	-1.125	42.944	121.103	48.227	276.364	75.865	176.258	-44.840	250.938	-48.970	190.194	270.391	191.363	190.166	270.561	86.485	244.920	0.00076063	0.00027951	0.00023295	432.95	4.4298e-06	3.2328e-06	674.83	200.92	7.6797e-06	7.002e-06	332.91	160.35	98.643	54.892	1.9151e-07	85.539	0.00047336	0.00046391	0.00012727	426.83	4.9295e-06	5.0093e-06	646.02	192.06	5.046e-06	5.0006e-06	314.01	149.8	94.33	51.852	5.0638e-06	79.277	45.928	11.789	9.369	-65.179	-1.894	44.876	-66.791	-60.067	34.735	64.603	-62.927	-59.269	-56.063	-51.967	-14.394	-56.272	-8191	255	
2223.740	1	1	0	0	0.057006	0.055816	0.037815	0.15224	0.12667	0.13594	0.013068	0.29178	0.24825	0.21384	0.083009	0.17481	0.12338	0.19199	0.34073	0.083409	-1.3062	-1.5396	-0.975	-1.8229	-1.3417	-1.3354	-1.9792	-1.2167	-1.3854	-1.6042	-1.2542	-2.0208	-1.5187	-1.3333	-1.9354	-1.1896	-24.944	55.891	216.413	247.212	162.932	135.966	120.786	241.312	-61.812	198.728	-36.897	265.792	28.164	233.777	-63.606	206.353	0.0010945	0.0010978	0.00012681	424.94	6.6022e-06	8.7265e-06	670.91	197.48	2.2338e-06	4.7014e-06	329.92	159.7	98.338	54.994	8.7449e-06	85.827	0.0004595	0.00045556	0.00012499	423.76	4.9417e-06	5.0217e-06	643.19	190.56	4.9621e-06	4.979e-06	313.27	149.36	94.109	51.801	5.0109e-06	79.412	68.834	15.881	70.624	-65.624	33.123	161.531	-67.406	-59.909	129.012	-1.574	-63.083	-59.504	-55.817	-52.195	-21.009	-56.298	-8191	255	
2223.836	1	1	0	0	0.36488	0.0092655	0.14114	0.15553	0.027449	0.21023	0.26075	0.45822	0.11221	0.095758	0.15589	0.18326	0.061828	0.16213	0.30601	0.20467	-1.0875	-1.7229	-0.82292	-1.8771	-1.4125	-0.9375	-2.0563	-1.2833	-1.35	-1.7646	-1.1396	-1.7729	-1.6229	-1.2667	-1.8083	-1.3271	161.801	30.676	234.524	206.164	40.404	67.764	150.634	248.415	-50.951	197.216	-25.931	114.842	-51.631	-9.377	-5.810	137.161	0.00085411	0.00056911	0.00010137	428.97	9.1737e-06	5.9488e-06	668.33	197.42	2.9857e-06	8.7488e-06	329.89	159.13	97.839	55.064	4.1726e-06	86.223	0.00046933	0.0004563	0.00012693	424.46	4.9312e-06	4.9603e-06	643.23	190.96	5.0199e-06	5.0367e-06	313.33	149.43	93.692	51.809	5.1128e-06	79.591	75.542	-55.501	188.629	-65.192	65.715	68.005	-67.218	-60.195	73.491	98.213	-63.002	-59.037	-55.935	-51.696	-1.481	-55.918	-8191	255	
2223.908	1	1	0	0	0.27436	0.093594	0.16297	0.2316	0.11805	0.13576	0.088966	0.34545	0.20783	0.17523	0.2132	0.25112	0.11947	0.39353	0.040051	0.20042	-1.0521	-1.8042	-1.2021	-1.8125	-1.4208	-0.97708	-1.9438	-1.4146	-1.225	-1.8875	-1.1229	-1.8542	-1.6875	-1.1854	-1.8396	-1.5187	268.817	205.629	-34.166	112.448	207.078	254.574	39.225	225.661	152.424	29.077	168.150	-50.932	207.749	275.325	81.200	182.396	0.00063709	0.00080848	0.00021702	436.39	8.1213e-07	5.6219e-06	682	200.79	5.8699e-06	7.2337e-06	332.01	161.72	98.654	55.506	1.1157e-06	86.165	0.00046533	0.00046205	0.00012694	428.5	5.001e-06	5.0192e-06	647.42	191.89	4.9962e-06	5.0815e-06	313.78	150.13	94.016	51.837	5.0727e-06	79.816	69.498	-43.311	-51.291	-64.810	113.760	19.811	-66.651	-59.706	39.626	-40.282	-62.961	-58.855	-55.739	-52.127	188.015	-56.263	-8191	255	
2224.004	1	1	0	0	0.049056	0.069954	0.12916	0.13739	0.21624	0.16423	0.10382	0.10132	0.39776	0.16321	0.2323	0.31075	0.091467	0.39315	0.16142	0.14232	-0.62083	-1.7667	-1.1313	-1.5562	-1.6354	-1.1458	-1.8396	-1.4979	-1.2	-1.9333	-1.15	-1.5646	-2.0167	-1.2437	-1.6833	-1.6104	-72.146	18.191	22.013	212.501	257.382	242.698	23.637	213.222	-76.155	264.464	129.971	-68.820	161.092	257.664	-75.578	-70.927	0.00077197	0.0011917	0.0002818	430.93	5.1612e-06	8.6488e-06	671.89	199.2	2.7599e-06	1.2895e-05	329.05	159.06	97.757	54.313	6.9965e-06	84.846	0.00045941	0.00045932	0.00012566	425.56	4.9555e-06	4.967e-06	644.31	190.71	4.9482e-06	5.0928e-06	312.95	149.34	93.564	51.495	5.0491e-06	79.103	86.323	-0.810	-14.346	-64.918	126.493	104.233	-66.610	-59.553	-19.159	48.003	-62.681	-59.329	-56.181	-52.095	96.924	-56.484	-8191	255	
2224.125	1	1	0	0	0.20915	0.30312	0.13066	0.053382	0.20499	0.15947	0.41794	0.15266	0.088053	0.13493	0.1833	0.23926	0.32973	0.27715	0.18354	0.28065	-0.70208	-1.6896	-1.0292	-1.475	-1.7646	-1.075	-1.7313	-1.6688	-1.1354	-1.775	-1.1729	-1.4396	-1.8583	-1.2125	-1.5271	-1.7104	49.838	-59.859	150.925	59.819	274.573	-73.082	187.292	-58.558	217.818	159.392	195.722	237.060	247.808	247.416	137.906	197.013	0.00081657	0.00040442	0.00012339	430.99	6.8591e-06	4.8193e-06	674.71	198.04	5.7789e-06	5.3365e-06	326.24	158.21	98.076	55.158	1.0277e-05	85.802	0.00045836	0.00046106	0.00012615	425.48	5.0008e-06	5.0247e-06	643.9	190.29	4.9605e-06	5.0363e-06	311.21	148.25	93.737	51.632	5.0028e-06	79.042	48.067	-8.950	-25.626	-65.509	57.340	58.772	-66.842	-60.071	54.572	33.828	-63.127	-58.944	-55.737	-51.592	65.703	-56.394	-8191	255	
2224.221	1	1	0	0	0.19245	0.13439	0.018523	0.20895	0.082819	0.11608	0.1738	0.31963	0.3335	0.10402	0.11442	0.058395	0.092136	0.29518	0.17214	0.15716	-0.57083	-1.7271	-1.1562	-1.2521	-1.7271	-0.85833	-1.6708	-1.7479	-0.90833	-1.7938	-1.4229	-1.2229	-2.0125	-1.0771	-1.7604	-1.8375	31.655	-16.364	17.730	229.689	115.169	-1.791	261.745	-53.453	75.030	267.887	276.610	180.657	206.592	234.105	-29.289	-29.545	0.00066328	0.00084153	0.00025354	433.89	6.0526e-06	4.742e-06	680.68	199.88	6e-06	4.2989e-06	329.27	158.14	97.886	54.916	4.1812e-06	85.729	0.0004608	0.00046121	0.00012513	425.62	5.0597e-06	4.9373e-06	644.81	191.18	4.9515e-06	5.0372e-06	312.2	148.43	93.683	51.683	4.9508e-06	79.464	75.016	-15.657	3.282	-65.373	46.245	115.385	-66.893	-59.818	56.835	118.708	-62.755	-59.449	-56.102	-52.327	96.046	-56.244	-8191	255	
2224.317	1	1	0	0	0.31724	0.11243	0.32644	0.068132	0.21085	0.10112	0.22722	0.046724	0.15082	0.076684	0.045119	0.37467	0.1661	0.24263	0.22085	0.25674	-0.57917	-1.9042	-1.3125	-1.0625	-1.7021	-1.1187	-1.5875	-1.8208	-1.0458	-1.9021	-1.4979	-1.1313	-1.8104	-1.2833	-1.4083	-1.8979	88.938	12.766	97.869	202.479	271.749	8.186	258.738	-51.175	269.299	-66.778	61.098	-47.056	269.793	266.802	124.848	210.662	0.00086807	0.00083785	0.00018261	430.63	6.2089e-06	6.703e-06	680.22	199.16	4.3371e-06	2.177e-06	332.08	160.36	98.635	55.342	3.7446e-06	86.497	0.00045497	0.00045905	0.0001255	424.76	5.0688e-06	4.9627e-06	646.73	191.06	4.9492e-06	5.062e-06	313.1	149.08	94.019	51.778	5.0271e-06	79.868	65.994	-12.855	72.074	-65.188	48.417	76.398	-66.681	-59.551	50.122	14.910	-62.686	-58.855	-55.970	-51.958	26.047	-56.381	-8191	255	
2224.436	1	1	0	0	0.070059	0.28422	0.22224	0.21437	0.20342	0.27742	0.27781	0.14313	0.19344	0.13346	0.28399	0.2238	0.16348	0.33082	0.173	0.18567	-0.38333	-1.6812	-1.5229	-1.0229	-1.8479	-1.1104	-1.4937	-2.0438	-0.97917	-1.8625	-1.65	-1.2854	-2.1354	-1.3583	-1.1854	-2.0771	279.226	100.241	220.718	277.347	163.234	99.081	226.496	216.890	7.552	22.192	120.691	177.854	180.789	-56.872	-48.860	228.161	0.0007275	0.00035434	7.9307e-05	430.45	6.6179e-06	6.8204e-06	670.15	197.98	1.7734e-06	5.4375e-06	330.35	160.53	98.213	54.597	5.6846e-06	85.879	0.00046204	0.000459	0.00012473	425.84	5.1e-06	4.9049e-06	643.28	190.46	4.913e-06	5.0165e-06	312.63	149.49	93.756	51.663	4.9655e-06	79.556	55.993	20.663	25.182	-64.971	49.249	36.736	-66.969	-59.723	56.871	109.974	-63.365	-59.366	-55.452	-52.070	114.072	-56.409	-8191	255	
2224.509	1	1	0	0	0.1824	0.27813	0.073226	0.14382	0.32412	0.36161	0.08941	0.090571	0.28655	0.18488	0.15695	0.13868	0.17807	0.26064	0.22374	0.061014	-0.45625	-1.4979	-1.4937	-0.93125	-1.8917	-1.3438	-1.2667	-1.9333	-1.0708	-1.4354	-1.9667	-1.1979	-1.9333	-1.6729	-0.99375	-2.0333	-7.921	-73.652	93.773	273.785	128.919	65.896	-60.183	242.417	-5.670	243.034	185.569	-9.936	-63.713	248.641	27.761	180.808	0.00089823	0.00089523	0.00023235	427.83	2.6165e-06	6.5351e-06	670.99	199.74	6.0534e-06	7.2452e-06	328.53	159.54	98.633	55.039	4.6046e-06	85.546	0.00045672	0.00045719	0.00012583	424.3	4.9551e-06	4.9169e-06	643.16	191.18	4.8498e-06	4.9085e-06	310.58	148.25	93.561	51.545	4.9411e-06	79.128	63.531	-45.528	23.896	-65.526	1.587	121.716	-66.562	-59.951	60.028	86.788	-63.102	-59.346	-55.603	-51.842	83.358	-56.217	-8191	255	
2224.605	1	1	0	0	0.13257	0.03471	0.098849	0.15023	0.22863	0.32777	0.047392	0.11696	0.1244	0.13529	0.029684	0.19411	0.29887	0.28632	0.19816	0.22431	-0.62708	-1.4188	-1.6	-1.0042	-1.8438	-1.3687	-1.1021	-1.9167	-1.1729	-1.3438	-1.8729	-1.2083	-1.7167	-1.8104	-0.87083	-2.0646	27.822	-55.076	48.258	128.263	-64.913	139.057	-32.420	260.752	-12.902	55.706	8.003	258.328	-44.078	272.374	132.347	267.049	0.00083139	0.00093992	0.00014305	429.18	3.4704e-06	7.6153e-06	666.27	196.47	3.637e-06	3.8384e-06	324.36	157.37	97.854	54.814	6.1955e-06	84.407	0.00045872	0.00045471	0.00012582	424.5	4.9314e-06	4.9319e-06	641.84	189.91	4.9408e-06	4.9717e-06	310.38	147.4	93.404	51.604	5.0021e-06	78.673	48.746	33.355	14.373	-65.042	20.414	90.188	-66.735	-59.930	55.787	45.184	-63.252	-59.350	-55.940	-51.908	113.722	-56.416	-8191	255	
2224.724	1	1	0	0	0.22373	0.15457	0.31012	0.10249	0.15122	0.11657	0.11498	0.056299	0.16115	0.084804	0.34019	0.17426	0.31302	0.27707	0.072182	0.3598	-0.90417	-1.2271	-1.7333	-0.94792	-1.7437	-1.5812	-1.0688	-2.0542	-1.3479	-1.0542	-1.8042	-1.0521	-1.5604	-1.6083	-0.89583	-2.0542	-55.113	265.754	89.586	233.655	132.361	178.832	-43.898	177.993	-66.823	139.555	231.567	190.262	225.484	249.033	101.570	190.776	0.0008236	0.00056571	0.00020139	426.83	4.7752e-06	1.6024e-06	665.87	196.56	1.0694e-05	9.6131e-06	329.9	157.52	98.309	54.983	1.279e-05	86.181	0.00045842	0.0004497	0.00012796	422.4	4.8831e-06	4.939e-06	639.87	190.31	4.8364e-06	4.972e-06	312.21	147.89	93.61	51.56	4.9479e-06	79.288	92.972	-24.239	-11.429	-65.395	20.345	-46.790	-66.380	-59.639	80.744	89.981	-62.681	-59.239	-55.472	-51.626	56.600	-55.653	-8191	255	
2224.820	1	1	0	0	0.17359	0.097688	0.19064	0.073777	0.13688	0.10965	0.14409	0.11551	0.236	0.11717	0.26058	0.35818	0.22149	0.26236	0.085067	0.24796	-0.88958	-1.2229	-1.8771	-1.0708	-1.4562	-1.7979	-0.95	-1.8667	-1.4688	-1.0896	-2.1813	-1.2146	-1.5063	-1.9417	-0.83125	-1.8521	-74.560	-12.296	87.669	69.052	71.001	20.539	211.028	274.578	39.122	10.239	-39.617	237.731	-55.148	241.459	254.053	249.439	0.0009162	0.00095022	0.00024445	431.77	7.6743e-06	3.1741e-06	682.34	200.56	4.6937e-06	1.1182e-06	336.35	161.94	99.274	55.718	3.2591e-06	87.076	0.0004508	0.00045613	0.00012721	423.59	5.0147e-06	4.9576e-06	645.24	191.33	5.0244e-06	4.9757e-06	314.76	149.49	94.128	51.986	5.0378e-06	79.879	85.845	24.037	22.149	-65.207	89.824	3.378	-66.388	-59.244	197.226	91.508	-62.554	-59.148	-55.608	-51.809	9.533	-55.897	-8191	255	
2224.916	1	1	0	0	0.1334	0.01802	0.080592	0.25861	0.16665	0.12371	0.39128	0.074703	0.16044	0.38056	0.091198	0.13047	0.32106	0.25354	0.17725	0.22414	-0.97083	-1.0417	-1.9917	-1.2687	-1.3312	-2.0146	-1.2146	-1.8563	-1.4833	-0.98958	-1.9521	-1.3229	-1.3146	-1.9917	-1.1458	-1.8708	248.908	97.623	160.581	-16.369	-57.463	128.949	-65.886	161.627	-18.241	4.776	199.550	257.733	241.681	253.800	31.895	224.475	0.00054823	0.00086873	0.00025874	429.44	8.8095e-06	7.1852e-06	679.62	201.47	6.4881e-06	2.671e-06	337.16	162.38	99.804	55.766	6.9943e-06	87.365	0.00046494	0.00045349	0.00012907	425.05	4.9897e-06	5.0943e-06	645.69	192.03	4.9655e-06	4.9864e-06	315.13	149.94	94.21	52.006	4.9592e-06	80.198	65.203	-36.080	-12.386	-64.991	-16.568	111.342	-66.657	-59.397	70.065	-63.750	-62.630	-58.888	-55.737	-51.713	101.630	-55.957	-8191	255	
2225.037	1	1	0	0	0.4786	0.23583	0.25691	0.15664	0.044775	0.22258	0.38341	0.29439	0.37227	0.16975	0.2316	0.092205	0.12261	0.31948	0.038941	0.13819	-1.1646	-1.0208	-1.9667	-1.3292	-1.3229	-1.6479	-0.89583	-1.7792	-1.4583	-0.91875	-1.8896	-1.475	-1.2208	-1.9729	-1.25	-1.6917	93.704	223.582	207.916	85.142	-72.830	118.335	147.816	184.970	165.200	51.580	173.569	223.649	-76.323	-54.155	-71.237	210.505	0.00094618	0.00087964	0.00017051	434.59	1.7687e-06	5.976e-06	681.67	200.83	7.9064e-06	3.5089e-06	334.62	160.33	99.113	55.703	7.8604e-06	86.28	0.00046821	0.00045273	0.00012812	425.77	5.0032e-06	5.0354e-06	645.35	190.94	4.9743e-06	4.9089e-06	313.36	148.66	93.902	51.944	4.8975e-06	79.275	48.568	-7.361	-4.464	-64.955	57.404	85.847	-66.627	-59.161	56.653	85.416	-62.261	-59.148	-55.842	-51.700	90.066	-55.889	-8191	255	
2225.133	1	1	0	0	0.27323	0.12603	0.15377	0.026709	0.058196	0.21531	0.20167	0.085255	0.16614	0.21462	0.035284	0.25342	0.090326	0.2273	0.060996	0.31278	-1.3208	-0.85833	-1.8396	-1.3646	-1.0375	-1.9688	-0.9375	-1.6333	-1.7917	-1.0625	-2.0625	-1.5458	-1.0438	-2.0417	-1.1354	-1.5896	165.255	155.992	35.179	-4.874	267.567	-27.492	142.179	-58.300	-37.954	190.016	262.953	165.659	116.210	235.183	-30.668	269.311	0.0010274	0.00082275	0.00019126	434.93	5.3997e-06	5.1123e-06	671.81	199.07	5.8193e-06	9.3146e-06	330.59	157.69	98.119	54.946	8.6751e-06	84.844	0.00045863	0.00045046	0.00012619	425.61	4.9169e-06	4.972e-06	641.8	190.75	4.9556e-06	4.9291e-06	312.13	147.95	93.397	51.548	4.8579e-06	78.678	79.989	-55.064	-8.703	-64.783	147.098	139.107	-67.092	-59.662	56.080	81.117	-63.184	-59.554	-56.129	-51.880	22.460	-55.970	-8191	255	
2225.205	1	1	0	0	0.23526	0.18849	0.24133	0.15179	0.27415	0.21298	0.15169	0.12344	0.076585	0.20785	0.20095	0.37498	0.34804	0.10483	0.12707	0.43092	-1.5854	-0.96042	-1.775	-1.3875	-1.2146	-1.925	-1.1292	-1.4479	-1.8354	-1.0292	-1.6417	-1.7521	-1.0854	-2.1979	-1.2146	-1.4146	-15.147	-57.603	-15.159	-52.604	33.100	-27.017	13.395	164.415	184.788	-64.315	165.128	226.071	273.053	215.540	2.972	191.694	0.00091352	0.00062315	0.00015744	431.91	5.4913e-06	1.9502e-06	673.75	198.85	5.7862e-06	7.7704e-06	331.54	158.48	98.173	54.804	6.3004e-06	85.805	0.00046051	0.00044575	0.0001265	423.84	4.917e-06	4.9953e-06	642.97	190.36	4.9895e-06	4.8861e-06	311.79	147.99	93.457	51.473	4.9133e-06	79.075	62.427	227.411	144.208	-65.128	7.550	137.651	-66.642	-59.431	48.353	96.195	-62.457	-59.121	-55.701	-51.796	56.820	-56.064	-8191	255	
2225.326	1	1	0	0	0.13802	0.15214	0.16301	0.25335	0.23399	0.26715	0.044386	0.3251	0.18087	0.096049	0.18708	0.17619	0.12774	0.15315	0.19641	0.24268	-1.5896	-0.83958	-1.6125	-1.6083	-0.94167	-1.7271	-1.4417	-1.3	-1.9875	-0.89583	-1.4375	-1.8917	-1.1104	-1.9438	-1.4583	-1.3542	-45.919	36.056	62.568	-46.703	-58.739	17.756	182.634	219.939	235.302	218.989	-63.483	-66.387	-71.159	-40.807	186.444	228.128	0.00099618	0.00067399	0.00024826	427.93	6.0394e-07	4.984e-06	675.43	199.54	1.2912e-05	6.0669e-06	332.85	159.95	98.274	55.23	2.0313e-06	85.806	0.00046035	0.00044245	0.00012611	424.06	4.8596e-06	5.0356e-06	643.1	190.99	4.9828e-06	4.9141e-06	313.51	148.62	93.499	51.771	4.8889e-06	79.496	58.997	26.193	7.323	-65.100	-36.646	246.404	-66.976	-59.446	31.934	101.343	-62.815	-59.031	-55.762	-51.610	-25.710	-55.887	-8191	255	
2225.420	1	1	0	0	0.0722	0.18668	0.14969	0.22874	0.12909	0.066872	0.13166	0.17683	0.18374	0.19117	0.4432	0.16325	0.1535	0.27604	0.24159	0.17004	-1.6479	-0.99375	-1.4417	-1.5938	-0.89167	-1.7062	-1.4875	-1.1437	-1.9958	-1.3188	-1.5417	-2.1354	-1.1542	-1.7708	-1.7458	-1.2875	-1.923	-52.767	217.482	44.564	229.186	188.462	-65.922	218.500	244.169	178.412	240.473	245.665	-63.296	229.879	130.831	167.781	0.00076822	0.00032103	0.0001761	432.09	1.8238e-06	5.6162e-06	677.26	198.95	6.6564e-06	4.709e-06	331.52	159.37	98.616	55.233	3.2687e-06	86.457	0.0004626	0.00044544	0.000127	424.62	4.9159e-06	5.0202e-06	644.78	190.95	5.0039e-06	4.8861e-06	313.21	148.84	93.665	51.713	4.9531e-06	79.453	68.937	139.437	-54.327	-65.600	35.614	81.573	-66.711	-59.705	208.403	134.278	-62.793	-58.952	-55.587	-51.724	24.596	-56.028	-8191	255	
2225.516	1	1	0	0	0.1361	0.08178	0.30822	0.22478	0.25577	0.21875	0.37716	0.12146	0.19937	0.18471	0.28705	0.10642	0.40647	0.19095	0.33523	0.13464	-1.5458	-1.2313	-1.2479	-2.1021	-0.9125	-1.7125	-1.8354	-1.0375	-1.8438	-1.1562	-1.3062	-2.1083	-1.2042	-1.75	-1.7208	-1.2583	-30.873	-72.083	115.485	-11.150	203.717	229.792	222.284	39.650	212.416	46.069	277.452	213.871	197.040	178.783	26.847	-2.174	0.00088922	4.9279e-05	0.0002125	429.38	4.822e-06	7.7895e-06	675.83	200.53	5.473e-06	2.5019e-06	332.46	158.37	98.126	54.986	7.8273e-06	85.016	0.00046439	0.00044756	0.00012518	423.72	4.853e-06	5.0236e-06	643.08	191.08	4.9065e-06	4.9222e-06	312.45	147.66	93.41	51.631	4.9585e-06	78.816	79.740	122.958	13.144	-64.630	20.516	63.174	-66.799	-59.825	8.924	19.178	-62.706	-59.364	-55.573	-51.652	41.295	-56.154	-8191	255	
2225.612	1	1	0	0	0.18188	0.16501	0.23695	0.29651	0.13165	0.29789	0.18894	0.29399	0.25319	0.35579	0.22312	0.14743	0.1597	0.40754	0.14071	0.26567	-1.1875	-1.3479	-1.0729	-2.0896	-1	-1.4937	-1.7188	-1.0229	-1.7229	-1.6437	-1.1833	-2.1063	-1.3479	-1.5646	-1.8417	-1.1271	184.330	11.920	272.333	14.153	149.338	157.557	224.472	205.533	136.872	244.045	211.168	212.284	203.364	210.968	53.390	25.632	0.00060537	0.00037024	0.00015145	427.85	3.623e-06	4.4544e-06	676.04	199.16	1.5321e-05	5.3992e-06	331.8	159.22	97.85	54.976	5.2966e-06	85.609	0.00046059	0.00045394	0.00012455	424.45	4.865e-06	5.0262e-06	644.62	190.37	5.0244e-06	4.9957e-06	312.06	147.92	93.273	51.617	4.9312e-06	79.039	67.844	-30.164	-47.462	-65.224	41.196	84.642	-66.930	-59.750	-13.107	-24.197	-62.571	-59.143	-55.709	-51.714	74.421	-55.803	-8191	255	
2225.708	1	1	0	0	0.11275	0.11084	0.20454	0.083747	0.24904	0.24274	0.23299	0.36255	0.32852	0.093209	0.0098057	0.13102	0.20338	0.24852	0.19019	0.16143	-1.525	-1.6125	-1.0688	-2.0979	-1.1229	-1.5083	-2.0438	-1.1583	-1.6042	-1.7271	-1.1562	-1.9792	-1.3687	-1.3292	-1.9021	-1.2333	198.847	247.980	228.774	10.818	97.769	-48.580	217.466	216.692	-25.169	125.777	-20.737	199.141	192.021	271.572	188.019	-41.488	0.00090932	0.0011233	0.00027332	429.77	9.0157e-06	9.0504e-06	671.73	199.08	2.152e-06	5.0391e-06	331.08	158.64	97.971	55.109	5.9441e-06	85.835	0.00046596	0.00044504	0.00012599	423.78	4.8515e-06	5.0432e-06	642.83	190.19	4.9071e-06	4.9516e-06	312.13	148.17	93.016	51.709	4.9317e-06	79.416	87.319	4.538	-23.504	-64.870	75.079	24.944	-66.836	-59.444	-22.398	68.576	-62.540	-59.088	-55.833	-51.758	243.897	-55.808	-8191	255	
2225.805	1	1	0	0	0.19315	0.018577	0.23598	0.11907	0.096701	0.1783	0.18893	0.19332	0.21233	0.23213	0.20078	0.32505	0.11149	0.087041	0.18511	0.36808	-1.2125	-1.7417	-0.92708	-1.9708	-1.1812	-1.1417	-2.1437	-1.0729	-1.4354	-1.7104	-1.0354	-1.9792	-1.3563	-1.4521	-1.6583	-1.3312	-38.253	180.740	-26.877	265.142	144.243	48.327	222.008	4.946	-71.723	-17.130	149.914	-43.275	160.910	-60.264	267.976	224.805	0.00068465	0.00092963	0.00010359	427.98	2.315e-06	4.6431e-06	676.52	198.92	1.8438e-06	5.2158e-06	332.97	160.03	98.04	55.414	8.9628e-06	86.303	0.00046493	0.00045764	0.00012579	424.15	4.9267e-06	5.0471e-06	645.02	190.02	4.992e-06	4.9856e-06	313.32	149.17	93.309	51.899	5.0132e-06	79.875	76.801	-55.260	-11.781	-64.862	270.367	-4.379	-66.597	-59.690	-3.109	-24.403	-62.737	-59.156	-55.909	-51.741	29.012	-55.955	-8191	255	
2225.901	1	1	0	0	0.20259	0.16793	0.3612	0.17732	0.073539	0.28542	0.35184	0.3005	0.16235	0.1653	0.057196	0.27463	0.21084	0.17792	0.19344	0.18806	-1.1375	-1.8375	-1.0688	-1.9833	-1.5938	-1.1167	-1.8542	-1.2708	-1.5979	-2.0646	-1.0521	-1.9333	-1.7646	-1.1125	-1.9688	-1.3833	126.935	2.906	175.691	-29.729	100.973	159.506	230.589	229.966	70.486	200.671	262.038	261.985	250.935	-28.750	169.906	-17.177	0.00063695	0.00053532	0.00014089	429.97	4.3993e-06	4.8051e-06	676.01	197.9	1.1297e-05	2.9111e-06	329.9	159.12	97.926	54.703	8.2894e-06	84.869	0.00046403	0.00045425	0.00012494	423.59	4.9844e-06	4.9337e-06	644.43	190.48	4.9749e-06	4.9161e-06	311.86	148.76	93.341	51.697	4.9279e-06	79.391	69.238	9.371	102.628	-64.942	176.760	50.593	-66.751	-59.613	33.871	48.751	-62.878	-59.491	-55.752	-51.971	60.396	-56.264	-8191	255	
2225.997	1	1	0	0	0.11936	0.19473	0.26869	0.2264	0.21568	0.25787	0.11244	0.13482	0.062004	0.18243	0.153	0.082354	0.23214	0.23931	0.1275	0.27369	-0.98958	-1.9208	-0.83333	-1.9042	-1.4896	-1.0583	-2.1146	-1.3937	-1.2729	-1.8833	-1.175	-1.7896	-1.7083	-1.1688	-1.8563	-1.3937	19.630	209.160	-12.259	35.588	191.172	-17.856	-52.672	235.172	72.918	-15.087	-52.361	151.209	224.089	183.891	262.581	152.175	0.00086861	0.00025512	0.0002455	432.37	8.6973e-06	5.5983e-06	669.6	197.77	7.5616e-06	5.0242e-06	327.66	157.93	97.258	55.119	3.7839e-06	85.134	0.00045963	0.0004516	0.00012229	425.13	4.8378e-06	4.8325e-06	642.12	190.03	4.8578e-06	4.9278e-06	310.27	147.66	92.971	51.625	4.9608e-06	78.912	59.160	261.105	24.427	-64.856	67.508	11.051	-66.832	-59.818	56.195	83.936	-62.947	-58.936	-56.294	-51.705	134.363	-56.094	-8191	255	
2226.117	1	1	0	0	0.068792	0.11435	0.26054	0.041011	0.25939	0.16185	0.18574	0.45078	0.1373	0.15443	0.067722	0.28615	0.22894	0.12381	0.088169	0.52616	-0.80833	-1.9813	-1.2271	-1.5021	-1.7125	-1.0229	-1.825	-1.5	-1.1	-1.7583	-1.4312	-1.6812	-1.8625	-1.0917	-1.7563	-1.5417	123.576	194.567	90.133	164.607	-38.511	109.035	236.193	271.405	268.177	142.216	229.771	271.727	145.134	-59.640	234.679	241.621	0.00061327	0.00084581	0.00027343	434.48	5.4925e-06	5.0486e-06	670.66	197.66	6.362e-06	8.233e-06	330.1	156.57	97.534	54.546	4.4586e-06	84.511	0.00045734	0.0004555	0.00012441	426.08	4.9349e-06	4.865e-06	640.84	189.56	4.8584e-06	4.9481e-06	311.59	146.85	93.04	51.438	4.8983e-06	78.744	81.993	12.246	7.254	-65.031	61.705	105.309	-66.769	-59.732	-18.403	-20.772	-62.820	-59.180	-55.790	-52.234	58.180	-56.535	-8191	255	
2226.214	1	1	0	0	0.25598	0.11257	0.21665	0.18216	0.10167	0.18259	0.1469	0.16476	0.26045	0.22146	0.097817	0.42339	0.15188	0.33601	0.2137	0.086472	-0.78333	-1.8667	-1.0708	-1.3083	-1.7188	-0.97083	-2.0208	-1.7	-1.0021	-1.95	-1.1	-1.3771	-1.8104	-1.1	-1.5812	-1.8708	273.622	101.278	239.033	-56.732	143.565	229.180	-65.332	181.532	230.421	195.222	-77.221	245.473	196.460	-63.039	180.747	245.793	0.00072022	0.00079025	0.00013125	423.04	9.5205e-06	1.0848e-05	672.04	197.42	9.4275e-06	5.4568e-06	328.65	156.99	96.753	54.677	6.4372e-07	85.163	0.00046013	0.00045655	0.0001238	423	4.92e-06	4.8857e-06	642.28	190.07	4.8545e-06	4.9044e-06	310.84	147.51	92.782	51.4	4.9891e-06	78.954	64.562	-28.217	11.897	-65.340	84.629	45.440	-66.944	-60.112	98.330	133.734	-63.249	-59.044	-56.040	-52.142	165.381	-56.121	-8191	255	
2226.310	1	1	0	0	0.12612	0.080329	0.23579	0.076742	0.29412	0.21824	0.25485	0.056679	0.12192	0.076506	0.32519	0.098256	0.069872	0.16902	0.064509	0.45787	-0.58958	-1.7896	-1.2125	-1.525	-1.9208	-1.0604	-1.6	-1.6667	-0.86042	-1.7479	-1.5229	-1.3667	-2.0542	-1.2271	-1.5667	-1.8271	82.410	181.366	-77.629	272.418	-75.714	160.961	245.840	181.794	229.260	-53.624	276.582	18.089	59.710	270.632	72.116	255.508	0.00057808	0.00068895	0.00010408	428.21	1.0081e-05	1.6668e-06	680.76	199.56	1.2398e-05	7.6598e-06	332.02	159.71	97.84	55.258	2.7308e-06	85.92	0.00045476	0.00045195	0.0001238	423.42	4.981e-06	4.8785e-06	645.66	190.79	4.9129e-06	5.0012e-06	311.86	148.52	93.094	51.775	4.9596e-06	79.524	58.792	6.344	-48.215	-65.428	112.218	48.152	-66.263	-59.823	88.860	110.843	-62.971	-58.772	-55.505	-52.050	-31.793	-56.136	-8191	255	
2226.406	1	1	0	0	0.42331	0.12134	0.119	0.2656	0.13788	0.14268	0.21022	0.23756	0.1498	0.08389	0.26634	0.103	0.1306	0.24987	0.25368	0.15264	-0.45417	-1.6812	-1.2875	-1.2271	-2.0167	-1.0083	-1.6125	-1.7708	-0.7875	-1.9083	-1.4625	-1.1688	-2.0521	-1.4729	-1.3958	-2.0292	-68.636	88.816	-54.842	-70.918	235.393	223.297	186.764	262.555	-9.420	-32.549	209.844	227.625	212.698	264.708	-57.134	233.582	0.00071383	0.00020992	0.0001746	429.6	3.6248e-06	9.3036e-06	667.69	196.28	3.4319e-06	6.2184e-06	325.42	158.23	96.865	54.93	1.114e-05	85.424	0.00046033	0.00045271	0.00012511	425.22	4.8578e-06	4.8375e-06	641.45	189	4.8428e-06	4.9623e-06	310.2	147.9	93.019	51.659	4.9867e-06	79.381	37.893	2.572	32.741	-65.018	121.886	58.922	-66.614	-59.549	171.167	49.450	-63.043	-59.409	-56.056	-52.325	-7.819	-56.300	-8191	255	
2226.500	1	1	0	0	0.15008	0.13036	0.18561	0.19778	0.12648	0.050731	0.09796	0.16266	0.16712	0.24437	0.23103	0.1952	0.19331	0.20131	0.16871	0.047081	-0.57083	-1.7521	-1.2542	-1.0479	-1.7792	-1.2458	-1.6146	-1.9271	-1.0167	-1.6083	-1.8188	-1.0562	-1.95	-1.4625	-1.2958	-2.2438	183.183	43.062	42.269	161.578	254.055	-72.929	186.502	224.130	187.373	-13.889	-76.688	249.738	243.113	256.739	116.274	-70.934	0.00079785	0.00038274	0.00019413	425.27	4.3119e-06	4.9315e-06	665.24	196.14	9.2494e-06	7.9743e-06	322.54	155.46	96.126	54.49	7.6894e-06	84.69	0.00045093	0.00045535	0.00012404	422.68	4.9304e-06	4.9019e-06	638.25	188.8	4.8392e-06	4.9436e-06	307.72	146.67	92.157	51.482	4.9341e-06	79.017	71.767	-19.907	74.780	-65.635	0.520	97.723	-66.713	-59.793	122.590	96.673	-62.963	-58.975	-56.007	-52.100	20.738	-56.610	-8191	255	
2226.596	1	1	0	0	0.27631	0.22957	0.051933	0.51535	0.16459	0.13013	0.1867	0.034973	0.15924	0.33961	0.13146	0.39731	0.22916	0.30063	0.032097	0.041862	-0.66042	-1.5396	-1.7333	-1.0312	-1.7854	-1.2687	-1.3312	-2.0542	-1.1521	-1.2771	-1.8875	-1.2729	-2.0229	-1.4208	-1.1458	-2.2083	87.537	92.316	77.507	213.253	143.805	25.013	171.195	83.331	-39.911	197.356	268.598	241.764	206.469	240.080	127.763	-55.514	0.00088656	0.00095884	0.00012824	427.22	8.7559e-06	2.6255e-06	655.01	194.96	4.229e-06	3.9363e-06	326.38	155.4	95.877	54.63	9.3683e-06	84.996	0.00045262	0.00045615	0.00012642	422.71	4.9954e-06	4.9727e-06	634.51	188.15	4.85e-06	4.9383e-06	307.99	145.82	92.023	51.574	4.8416e-06	79.255	64.138	-0.914	-0.826	-65.477	18.900	34.581	-67.193	-59.743	111.435	102.035	-63.261	-59.423	-55.833	-52.392	34.840	-56.644	-8191	255	
2226.717	1	1	0	0	0.20488	0.16136	0.10167	0.2967	0.22277	0.15651	0.079532	0.098584	0.27425	0.037491	0.39885	0.1618	0.086422	0.16459	0.15364	0.035332	-0.85208	-1.4625	-1.7188	-1.0792	-1.7479	-1.3875	-1.1271	-1.8354	-1.0458	-1.2167	-1.8396	-1.2188	-1.7146	-1.6417	-0.91042	-2.2167	219.861	59.622	254.849	-15.845	137.197	173.892	-55.393	170.607	171.736	245.940	205.399	243.866	220.790	83.418	264.747	202.277	0.00077181	0.00032043	0.00021161	425.94	3.4489e-06	1.0067e-05	669.68	196.73	1.8399e-06	8.9638e-06	324.8	155.86	96.565	55.024	8.894e-06	85.495	0.00044911	0.00044494	0.00012367	421.15	4.9325e-06	4.8263e-06	637.87	188.85	4.8425e-06	4.8525e-06	307.72	146.34	92.227	51.773	4.7816e-06	79.575	58.260	247.235	24.628	-65.802	194.932	134.344	-66.838	-59.935	31.338	62.827	-62.766	-59.452	-56.211	-52.288	82.674	-56.636	-8191	255	
2226.813	1	1	0	0	0.26345	0.25039	0.13857	0.17159	0.1618	0.16525	0.2069	0.094317	0.27046	0.080791	0.30876	0.21751	0.12418	0.37946	0.20882	0.27007	-0.93542	-1.3979	-1.8667	-1.1583	-1.6708	-1.5938	-1.2521	-2.0104	-1.2396	-1.1208	-1.8062	-1.1979	-1.6521	-2.0938	-1.0125	-2.1125	229.027	272.606	42.877	193.507	244.788	-17.588	196.436	209.484	-0.066	128.599	228.573	158.868	-11.548	276.549	239.542	242.252	0.00078404	0.00038705	0.00024133	431	1.1559e-05	1.1986e-05	679.61	199.15	4.498e-06	7.3245e-06	328.44	159.86	98.121	55.939	7.2433e-06	87.177	0.00045057	0.00044327	0.00012501	423.28	4.9316e-06	4.88e-06	640.25	189.23	4.8872e-06	4.8229e-06	308.85	147.55	92.734	52.021	4.7595e-06	80.023	67.765	281.356	0.060	-64.794	55.454	112.530	-66.447	-59.395	45.309	104.978	-62.541	-58.773	-55.797	-51.918	49.358	-55.809	-8191	255	
2226.909	1	1	0	0	0.071651	0.21306	0.32185	0.25077	0.18538	0.01147	0.21481	0.16069	0.16459	0.15972	0.25494	0.37363	0.4049	0.27112	0.08352	0.21878	-1.0375	-1.0708	-1.8062	-0.98542	-1.6625	-1.5938	-1.0312	-1.8125	-1.2271	-0.92083	-1.9021	-1.1125	-1.5146	-2.0479	-1.0333	-1.9312	159.162	147.596	101.844	183.219	244.169	265.561	-43.001	271.207	183.337	-59.356	196.641	197.352	-53.196	-43.093	-51.410	191.678	0.00056677	0.0011686	0.00010142	433.83	9.6495e-06	6.1766e-06	674.09	200.62	1.7338e-06	6.3664e-06	331.66	158.83	97.535	55.791	6.3336e-06	86.082	0.00045223	0.00044355	0.00012205	422.98	4.8229e-06	4.8254e-06	639.99	189.91	4.7826e-06	4.7727e-06	308.27	146.57	92.171	51.853	4.6871e-06	79.08	51.392	-45.710	-2.971	-64.878	51.056	-11.508	-66.248	-59.253	77.374	110.243	-62.870	-58.975	-55.487	-51.525	142.726	-55.947	-8191	255	
2227.006	1	1	0	0	0.16433	0.12937	0.10661	0.13894	0.035722	0.09807	0.10913	0.34184	0.30609	0.31732	0.25534	0.088581	0.08668	0.2239	0.16484	0.40591	-1.0958	-0.98958	-1.8542	-1.1562	-1.4312	-1.7667	-0.83333	-1.6542	-1.4146	-1.175	-1.9438	-1.4292	-1.45	-1.8354	-0.93125	-1.9125	171.644	114.554	17.674	155.032	14.716	-55.279	50.481	235.716	211.644	-18.567	-65.244	-74.171	253.964	255.548	99.419	199.913	0.00083719	0.0006397	0.00034297	433.95	5.2991e-06	1.1268e-05	673.66	198.54	3.3837e-06	4.4848e-06	329.1	156.7	97.774	55.27	5.1178e-06	85.605	0.00044604	0.00043206	0.00012248	422.59	4.809e-06	4.822e-06	636.49	188.73	4.7403e-06	4.714e-06	307.21	145.33	92.209	51.567	4.6753e-06	78.795	90.667	5.058	-31.370	-65.093	78.077	69.714	-66.541	-59.492	236.090	102.152	-62.533	-59.326	-55.331	-51.763	69.534	-56.079	-8191	255	
2227.102	1	1	0	0	0.11624	0.17566	0.15934	0.25273	0.21813	0.37062	0.093341	0.29358	0.090953	0.14234	0.054283	0.022561	0.33603	0.16024	0.28441	0.12307	-1.2437	-0.85833	-1.725	-1.2833	-1.0812	-1.6792	-1.1708	-1.6646	-1.6063	-1.0542	-2.0563	-1.5562	-1.3833	-1.8583	-0.93542	-1.7458	14.763	-19.152	215.828	-47.330	-47.219	74.392	230.259	-60.836	154.626	17.915	-76.762	45.651	-50.067	278.808	-30.560	59.003	0.00075805	0.00080006	0.00029267	432.27	7.9656e-06	6.3513e-06	677.59	199.98	7.1186e-06	7.0832e-06	328.72	156.9	96.921	54.63	6.6961e-06	83.483	0.0004459	0.00043242	0.00012279	423.49	4.7624e-06	4.83e-06	637.23	188.97	4.7364e-06	4.7215e-06	306.93	145.23	91.883	51.175	4.6946e-06	78.073	65.922	-48.447	-15.660	-65.358	52.807	77.283	-66.651	-59.776	27.051	42.231	-62.676	-59.335	-55.534	-51.561	16.343	-56.586	-8191	255	
#DATA ENDS
