BOXY.EXE: ISS Imagent and Oximeter Data Acquisition Program Version 0.80
Ascii Record File

#ACQ INFORMATION
2  Detector Channels 
16  External MUX Channels 
1  Auxiliary Channels 
5000  Waveform (CCF) Frequency (Hz)
1  Waveforms Skipped 
30  Waveforms Averaged 
1  Cycles Averaged 
16  Acquisitions per Waveform 
10.0806  Updata Rate (Hz) 

#FILE INFORMATION
TRUE -- External MUX Channel results are PARSED.
FALSE -- AC DC and Phase are NOT grouped.
TRUE -- Companion Program Settings File CREATED.
FALSE -- AC data not excluded
FALSE -- DC data not excluded
FALSE -- Phase data not excluded
FALSE -- Auxillary Chn. data not excluded
Tab delimiters

#CALIBRATION STATE
TRUE -- Waveform Calibration Values APPLIED.


#AUX CALIBRATION VALUES
Val Type	aux-1	

Term	1.0000e+00	
Factor	0.0000e+00	


#WF CALIBRATION VALUES
A = Detector Channel
Val Type	A-AC1	A-AC2	A-AC3	A-AC4	A-AC5	A-AC6	A-AC7	A-AC8	A-AC9	A-AC10	A-AC11	A-AC12	A-AC13	A-AC14	A-AC15	A-AC16	A-DC1	A-DC2	A-DC3	A-DC4	A-DC5	A-DC6	A-DC7	A-DC8	A-DC9	A-DC10	A-DC11	A-DC12	A-DC13	A-DC14	A-DC15	A-DC16	A-Ph1	A-Ph2	A-Ph3	A-Ph4	A-Ph5	A-Ph6	A-Ph7	A-Ph8	A-Ph9	A-Ph10	A-Ph11	A-Ph12	A-Ph13	A-Ph14	A-Ph15	A-Ph16	

Term	0.00000e+00	0.00000e+00	0.00000e+00	0.00000e+00	0.00000e+00	0.00000e+00	0.00000e+00	0.00000e+00	0.00000e+00	0.00000e+00	0.00000e+00	0.00000e+00	0.00000e+00	0.00000e+00	0.00000e+00	0.00000e+00	0.00000e+00	0.00000e+00	0.00000e+00	0.00000e+00	0.00000e+00	0.00000e+00	0.00000e+00	0.00000e+00	0.00000e+00	0.00000e+00	0.00000e+00	0.00000e+00	0.00000e+00	0.00000e+00	0.00000e+00	0.00000e+00	0.00000e+00	0.00000e+00	0.00000e+00	0.00000e+00	0.00000e+00	0.00000e+00	0.00000e+00	0.00000e+00	0.00000e+00	0.00000e+00	0.00000e+00	0.00000e+00	0.00000e+00	0.00000e+00	0.00000e+00	0.00000e+00	
Factor	1.00000e+00	1.00000e+00	1.00000e+00	1.00000e+00	1.00000e+00	1.00000e+00	1.00000e+00	1.00000e+00	1.00000e+00	1.00000e+00	1.00000e+00	1.00000e+00	1.00000e+00	1.00000e+00	1.00000e+00	1.00000e+00	1.00000e+00	1.00000e+00	1.00000e+00	1.00000e+00	1.00000e+00	1.00000e+00	1.00000e+00	1.00000e+00	1.00000e+00	1.00000e+00	1.00000e+00	1.00000e+00	1.00000e+00	1.00000e+00	1.00000e+00	1.00000e+00	X	X	X	X	X	X	X	X	X	X	X	X	X	X	X	X	

B = Detector Channel
Val Type	B-AC1	B-AC2	B-AC3	B-AC4	B-AC5	B-AC6	B-AC7	B-AC8	B-AC9	B-AC10	B-AC11	B-AC12	B-AC13	B-AC14	B-AC15	B-AC16	B-DC1	B-DC2	B-DC3	B-DC4	B-DC5	B-DC6	B-DC7	B-DC8	B-DC9	B-DC10	B-DC11	B-DC12	B-DC13	B-DC14	B-DC15	B-DC16	B-Ph1	B-Ph2	B-Ph3	B-Ph4	B-Ph5	B-Ph6	B-Ph7	B-Ph8	B-Ph9	B-Ph10	B-Ph11	B-Ph12	B-Ph13	B-Ph14	B-Ph15	B-Ph16	

Term	0.00000e+00	0.00000e+00	0.00000e+00	0.00000e+00	0.00000e+00	0.00000e+00	0.00000e+00	0.00000e+00	0.00000e+00	0.00000e+00	0.00000e+00	0.00000e+00	0.00000e+00	0.00000e+00	0.00000e+00	0.00000e+00	0.00000e+00	0.00000e+00	0.00000e+00	0.00000e+00	0.00000e+00	0.00000e+00	0.00000e+00	0.00000e+00	0.00000e+00	0.00000e+00	0.00000e+00	0.00000e+00	0.00000e+00	0.00000e+00	0.00000e+00	0.00000e+00	-2.42741e+02	-1.55801e+02	-1.30442e+02	-1.82481e+02	-9.91373e+01	-5.97705e+01	-1.57793e+02	-1.62015e+02	-9.26830e+01	-6.05605e+01	-1.71410e+02	-1.70576e+02	-1.81136e+02	-1.76213e+02	-8.41416e+01	-1.49482e+02	
Factor	4.89592e-05	1.01473e-04	2.92524e-05	1.62080e-01	9.51960e-07	1.04877e-06	1.53107e-01	3.99569e-02	1.07762e-06	9.79278e-07	7.00297e-02	2.41918e-02	1.94195e-02	6.96819e-03	1.13135e-06	1.01434e-02	1.01517e-06	1.04419e-06	2.90279e-07	8.40594e-02	1.13893e-08	1.14537e-08	7.45432e-02	2.08403e-02	1.13918e-08	1.14551e-08	3.47523e-02	1.20131e-02	1.01154e-02	3.62274e-03	1.14149e-08	5.06097e-03	X	X	X	X	X	X	X	X	X	X	X	X	X	X	X	X	



#DISTANCE SETTINGS
A = Detector Channel
A-1	A-2	A-3	A-4	A-5	A-6	A-7	A-8	A-9	A-10	A-11	A-12	A-13	A-14	A-15	A-16	

2.5000e+00	3.0000e+00	2.5000e+00	3.0000e+00	2.0000e+00	3.0000e+00	1.5000e+00	3.0000e+00	3.0000e+00	3.0000e+00	3.0000e+00	3.0000e+00	3.0000e+00	3.0000e+00	1.5000e+00	3.0000e+00	

B = Detector Channel
B-1	B-2	B-3	B-4	B-5	B-6	B-7	B-8	B-9	B-10	B-11	B-12	B-13	B-14	B-15	B-16	

1.0000e+01	1.0000e+01	1.0000e+01	1.4400e+00	1.0000e+01	1.0000e+01	1.5100e+00	1.9400e+00	1.0000e+01	1.0000e+01	1.9900e+00	2.4900e+00	2.4100e+00	2.9000e+00	1.0000e+01	2.9800e+00	




#DATA BEGINS
time	group	step	mark	flag	A-AC1	A-AC2	A-AC3	A-AC4	A-AC5	A-AC6	A-AC7	A-AC8	A-AC9	A-AC10	A-AC11	A-AC12	A-AC13	A-AC14	A-AC15	A-AC16	A-DC1	A-DC2	A-DC3	A-DC4	A-DC5	A-DC6	A-DC7	A-DC8	A-DC9	A-DC10	A-DC11	A-DC12	A-DC13	A-DC14	A-DC15	A-DC16	A-Ph1	A-Ph2	A-Ph3	A-Ph4	A-Ph5	A-Ph6	A-Ph7	A-Ph8	A-Ph9	A-Ph10	A-Ph11	A-Ph12	A-Ph13	A-Ph14	A-Ph15	A-Ph16	B-AC1	B-AC2	B-AC3	B-AC4	B-AC5	B-AC6	B-AC7	B-AC8	B-AC9	B-AC10	B-AC11	B-AC12	B-AC13	B-AC14	B-AC15	B-AC16	B-DC1	B-DC2	B-DC3	B-DC4	B-DC5	B-DC6	B-DC7	B-DC8	B-DC9	B-DC10	B-DC11	B-DC12	B-DC13	B-DC14	B-DC15	B-DC16	B-Ph1	B-Ph2	B-Ph3	B-Ph4	B-Ph5	B-Ph6	B-Ph7	B-Ph8	B-Ph9	B-Ph10	B-Ph11	B-Ph12	B-Ph13	B-Ph14	B-Ph15	B-Ph16	aux-1	digaux	

1012.600	1	1	0	768	0.13334	0.2121	0.21107	0.26906	0.28819	0.099365	0.11346	0.32804	0.25181	0.088414	0.14619	0.38413	0.26014	0.25403	0.41955	0.34913	-1.5396	-1.7396	-1.1917	-2.5229	-1.6917	-1.5187	-2.5312	-1.3583	-1.9875	-2.1375	-1.2042	-2.3833	-1.8896	-1.6125	-2.3063	-1.5208	290.485	112.951	101.050	182.812	151.548	123.537	168.636	210.120	3.805	76.617	148.820	258.742	31.492	-35.615	15.820	252.710	0.00051679	0.00012614	8.8725e-05	1361.7	6.8822e-06	4.5391e-06	1358.9	367.18	2.869e-06	6.9387e-06	417.41	139.39	121.45	41.781	9.5601e-06	51.639	0.00053841	0.00054367	0.00015015	1379.2	5.9066e-06	5.9332e-06	1376.8	372.88	5.9037e-06	5.8882e-06	425.77	142.86	124.19	42.913	5.9641e-06	53.081	43.292	146.189	286.981	-50.214	115.617	55.788	-50.422	-45.710	294.004	105.101	-46.588	-41.662	-41.338	-36.945	87.788	-37.927	-8191	255	
1012.696	1	1	0	0	0.18508	0.066034	0.18235	0.2502	0.30106	0.14968	0.16081	0.25833	0.20246	0.01853	0.11912	0.21589	0.25501	0.25578	0.091277	0.14929	-1.5271	-1.9833	-1.1958	-2.3688	-1.6646	-1.5812	-2.5438	-1.775	-1.7958	-2.1792	-1.5021	-2.2812	-2.0021	-1.6479	-2.325	-1.5104	161.631	85.596	0.878	-36.413	97.904	296.033	183.881	180.274	-0.446	-35.201	295.805	189.237	273.980	275.842	129.884	255.475	0.0005645	0.00057412	0.0002651	1364.3	9.0371e-06	6.3082e-06	1361.3	367.2	4.0132e-06	9.122e-06	417.69	139.36	122.18	41.661	2.5831e-06	51.53	0.0005414	0.00054092	0.00014978	1378.4	5.8999e-06	5.9165e-06	1377.3	373.35	5.9227e-06	5.9203e-06	425.5	142.79	124.15	42.872	5.9483e-06	53.067	45.992	-24.850	-10.019	-50.323	63.520	63.727	-50.434	-45.870	171.836	82.845	-46.349	-41.952	-41.505	-36.830	33.651	-37.578	-8191	255	
1012.791	1	1	0	0	0.29703	0.1293	0.08691	0.2844	0.10005	0.29495	0.069769	0.16783	0.13395	0.21608	0.36813	0.26351	0.06726	0.22839	0.19726	0.2852	-1.4646	-2.0563	-1.4396	-2.5271	-2.0167	-1.3792	-2.4604	-1.8312	-1.7792	-2.3312	-1.6167	-2.1625	-2.0208	-1.3813	-2.1021	-1.7604	200.535	181.032	215.253	274.934	104.760	150.253	261.273	212.923	293.571	159.162	-60.252	281.526	274.410	227.540	180.308	201.326	0.00028207	0.00051292	9.1216e-05	1368.5	3.528e-06	4.0492e-06	1368.6	367.26	4.6339e-06	7.9272e-06	418.86	140.28	122.18	41.949	4.3267e-06	51.924	0.00054546	0.00055236	0.00015475	1379.7	5.9844e-06	6.0354e-06	1378.1	372.65	5.9393e-06	5.9436e-06	426.18	143.06	124.17	42.928	5.9509e-06	53.102	40.253	-43.600	45.293	-50.065	270.860	19.316	-50.483	-45.671	74.982	110.495	-46.105	-41.831	-41.239	-36.523	8.905	-37.233	-8191	255	
1012.887	1	1	0	0	0.1203	0.055707	0.25027	0.069716	0.088056	0.12621	0.066701	0.25481	0.19081	0.18612	0.15868	0.20082	0.26235	0.22927	0.15756	0.0791	-1.0562	-2.3021	-1.2979	-2.1188	-1.9521	-1.1812	-2.4042	-1.9396	-1.4542	-2.0083	-1.4937	-1.9479	-2.2313	-1.3146	-1.9458	-2.0604	26.676	195.473	16.376	-35.084	-45.552	-41.436	258.336	255.882	201.553	-24.193	-47.620	249.696	-54.555	105.785	42.715	251.905	0.00037644	0.00057803	0.0001545	1361.3	2.4517e-06	3.5604e-06	1364.6	367.15	4.2447e-06	3.4035e-06	419.8	140.4	121.9	42.005	4.8799e-06	51.774	0.00054518	0.00055013	0.00015202	1378.1	5.9769e-06	5.972e-06	1377.5	372.73	5.9599e-06	6.0027e-06	425.66	142.93	124.43	42.917	5.9489e-06	53.077	40.101	18.183	-13.865	-49.969	112.529	46.191	-50.355	-45.411	76.708	114.656	-46.311	-41.669	-41.428	-36.498	76.553	-37.305	-8191	255	
1012.983	1	1	0	0	0.070337	0.10199	0.13775	0.26263	0.14179	0.22457	0.32763	0.14932	0.15866	0.2402	0.40836	0.26829	0.22622	0.20853	0.030049	0.061275	-1.0208	-2.2708	-1.25	-1.9896	-2.1437	-1.3458	-2.3375	-1.95	-1.4229	-2.3042	-1.6063	-1.9146	-2.1979	-1.3813	-1.9146	-2.1833	254.070	36.497	64.655	13.683	222.676	-3.706	254.445	229.353	198.149	-20.687	262.276	272.484	-31.346	139.245	280.142	258.495	0.00070247	0.00037615	0.00021397	1367.6	6.3583e-07	5.2829e-06	1368.3	368.71	6.2644e-06	2.8161e-06	419.12	140	121.77	42.015	9.0279e-06	51.978	0.00055282	0.00054992	0.00015215	1379.4	6.0197e-06	6.0959e-06	1376.9	373.57	6.0459e-06	6.0753e-06	426.08	142.84	124.47	42.945	6.0843e-06	53.126	41.776	-35.626	29.553	-50.226	134.691	132.602	-50.427	-45.936	-0.055	122.664	-46.411	-41.847	-41.425	-36.767	14.516	-37.770	-8191	255	
1013.079	1	1	0	0	0.20058	0.20287	0.34661	0.40201	0.23052	0.19546	0.12192	0.29053	0.26279	0.075025	0.17224	0.1451	0.18223	0.18973	0.10696	0.23434	-0.97708	-2.2583	-1.5812	-1.9	-2.2208	-1.4021	-2.2083	-2.2083	-1.3125	-2.0563	-1.7687	-1.6437	-2.1854	-1.5146	-1.9833	-2.0958	30.451	165.056	-57.234	233.183	185.988	189.687	220.636	243.853	-61.613	195.850	231.664	151.815	293.018	291.524	103.126	221.544	0.0002506	0.0008623	6.9886e-05	1363.8	6.2088e-06	8.0173e-06	1367	368.02	4.1952e-06	5.3601e-06	420.31	140.35	122.2	42.044	5.6306e-06	51.665	0.0005602	0.00055542	0.00015479	1379.9	6.0657e-06	6.0894e-06	1380.2	373.42	6.0829e-06	6.0709e-06	426.81	142.95	124.29	42.912	6.0837e-06	53.111	60.706	-57.182	108.686	-50.406	60.184	96.052	-50.279	-45.949	39.454	89.053	-46.446	-42.007	-41.210	-36.979	134.251	-37.482	-8191	255	
1013.200	1	1	0	0	0.11602	0.040764	0.043182	0.14728	0.22371	0.081993	0.20702	0.23767	0.29248	0.11911	0.31836	0.25218	0.11051	0.21624	0.070992	0.083003	-0.89167	-1.8875	-1.6688	-1.5792	-2.25	-1.3833	-2.05	-2.475	-1.1917	-2.0708	-1.9646	-1.4937	-2.2562	-1.5021	-1.6667	-2.2625	28.334	117.695	47.451	269.156	176.203	182.935	246.013	219.725	112.795	93.513	280.268	256.719	240.549	240.309	80.125	-44.088	0.0005698	0.00065542	0.00010199	1366.8	5.6048e-06	1.0337e-05	1363.6	368.32	5.1981e-06	6.7768e-06	419	139.71	122.58	41.969	1.621e-06	52.11	0.00055211	0.00054988	0.00015422	1379.9	6.0483e-06	6.0447e-06	1377.4	373.18	6.0267e-06	6.042e-06	425.56	143.06	124.44	42.853	5.9774e-06	53.153	56.981	-45.608	65.925	-50.144	39.933	88.783	-50.356	-45.660	188.805	96.293	-46.332	-41.695	-41.280	-36.914	-13.400	-37.613	-8191	255	
1013.296	1	1	0	0	0.25819	0.25172	0.38899	0.1714	0.20901	0.17813	0.4421	0.3784	0.12286	0.093691	0.28095	0.18153	0.29819	0.44035	0.16626	0.29342	-0.79583	-2.1208	-1.9	-1.6458	-2.2771	-1.3417	-1.8958	-2.3146	-1.4021	-2.0479	-1.775	-1.4833	-2.4042	-1.7646	-1.5167	-2.3667	-37.914	-7.469	58.529	-57.691	205.191	58.092	250.122	247.313	-13.544	203.702	265.925	221.382	266.158	285.582	263.502	-47.770	0.00035094	0.00051687	0.00021345	1368.6	8.7995e-07	2.6284e-06	1366.3	368.43	8.9222e-06	7.9577e-06	422.71	140.46	121.98	41.893	5.3656e-06	52.026	0.00054203	0.00054263	0.00015128	1380.8	5.9594e-06	5.9428e-06	1376.3	372.89	5.9299e-06	6.0055e-06	426.87	142.74	124.46	42.783	5.9818e-06	53.082	50.699	20.024	65.272	-50.172	62.016	132.080	-50.516	-45.718	22.174	77.579	-46.413	-41.954	-41.308	-36.944	105.485	-37.683	-8191	255	
1013.392	1	1	0	0	0.23576	0.016608	0.2891	0.22559	0.18675	0.11941	0.15859	0.18777	0.019703	0.30125	0.17141	0.4553	0.31583	0.3212	0.19508	0.21003	-0.8375	-1.8396	-1.9146	-1.4854	-2.0729	-1.65	-1.875	-2.5729	-1.3583	-1.875	-2.0958	-1.4375	-2.4042	-1.6688	-1.3646	-2.3812	-43.584	51.005	129.820	265.440	198.126	258.323	224.399	233.172	-22.229	92.853	232.629	256.320	280.454	278.864	118.828	-27.704	0.00044419	0.00037574	0.00015405	1360.9	3.0004e-06	5.5841e-06	1366.9	368.59	3.9649e-06	4.0564e-06	419.91	139.9	121.77	41.895	5.4433e-06	51.796	0.00054105	0.00054543	0.00015171	1376	5.9468e-06	5.9075e-06	1376.6	373.18	6.0007e-06	5.9528e-06	425.96	142.62	124.44	42.875	6e-06	53.067	36.111	288.708	75.659	-50.343	14.231	52.048	-50.288	-45.902	100.649	61.069	-46.251	-41.844	-41.043	-36.762	89.007	-37.225	-8191	255	
1013.488	1	1	0	0	0.24545	0.36565	0.10148	0.23312	0.057539	0.17162	0.1681	0.077081	0.065884	0.16165	0.06427	0.15576	0.29678	0.32527	0.443	0.1179	-0.925	-1.7875	-1.8875	-1.4125	-2.0687	-1.7896	-1.7292	-2.4146	-1.4521	-1.7708	-2.0729	-1.3479	-2.2958	-2.125	-1.3833	-2.4604	121.267	240.686	40.324	210.570	69.881	73.856	230.230	230.059	174.453	-28.311	244.426	195.602	252.155	271.821	161.995	177.924	0.00054602	0.001042	0.00015827	1365.1	4.039e-06	1.2031e-05	1365.6	368.87	1.3828e-06	3.6395e-06	420.54	139.96	122.4	42.169	3.2055e-06	51.948	0.00054568	0.00054822	0.00015351	1377.9	6.0061e-06	5.9538e-06	1375.9	373.41	5.9673e-06	5.9714e-06	426.71	142.73	124.49	42.885	5.9854e-06	53.06	36.912	-8.891	65.204	-50.319	118.517	101.847	-50.331	-45.520	8.023	132.970	-46.586	-42.120	-41.253	-36.981	55.457	-37.110	-8191	255	
1013.584	1	1	0	0	0.13102	0.33597	0.051243	0.038996	0.1425	0.29024	0.21996	0.1785	0.15422	0.19057	0.16798	0.17415	0.34277	0.23596	0.16264	0.17654	-1.3083	-1.6417	-2.0833	-1.3771	-1.9646	-1.9646	-1.6812	-2.5979	-1.6458	-1.5958	-2.4646	-1.5479	-2.0938	-2.2604	-1.3208	-2.4354	89.435	139.086	-33.289	180.052	90.341	293.068	63.490	202.656	52.678	161.227	288.683	-16.138	276.416	-54.503	99.821	266.456	0.00049553	4.0025e-05	0.00019139	1366.2	7.0484e-06	7.8269e-06	1367.5	368.8	1.4949e-06	5.0701e-06	421.99	140.58	122.21	42.047	5.6691e-07	51.761	0.00054489	0.00054248	0.00015167	1379	5.9586e-06	5.9463e-06	1378	373.45	6.0021e-06	5.993e-06	426.24	142.89	124.2	42.881	5.9818e-06	53.058	16.780	66.965	3.321	-50.198	34.372	97.334	-50.465	-45.605	122.277	72.309	-46.256	-41.792	-41.297	-36.502	159.846	-37.813	-8191	255	
1013.680	1	1	0	0	0.35192	0.13049	0.18112	0.3071	0.10114	0.21987	0.13142	0.14921	0.21658	0.32785	0.19304	0.11558	0.31793	0.27454	0.29321	0.21346	-1.3021	-1.7458	-2.1562	-1.6667	-1.5667	-1.7833	-1.7062	-2.3563	-1.7667	-1.4333	-2.3438	-1.6708	-2.15	-2.1625	-1.5271	-2.2896	-50.413	210.569	122.927	230.494	191.017	-21.082	280.709	-62.840	105.313	172.973	227.972	235.009	253.656	286.796	175.148	235.039	0.00020581	0.00067413	0.00027934	1363.1	5.7508e-06	6.5967e-06	1364.5	369.28	3.3337e-06	6.2978e-06	421.71	140.76	122.64	42.01	3.0706e-06	52.03	0.00054737	0.0005455	0.00015255	1378.6	6.0005e-06	5.9964e-06	1377.4	374.02	5.9932e-06	5.9982e-06	426.62	143.04	124.5	42.915	6.0279e-06	53.031	25.059	26.057	-2.836	-50.123	-55.651	49.841	-50.240	-45.394	4.182	57.684	-46.086	-41.693	-40.830	-36.385	110.884	-37.365	-8191	255	
1013.777	1	1	0	0	0.3716	0.24852	0.084001	0.24441	0.25804	0.24473	0.42867	0.24857	0.14244	0.12699	0.25298	0.18478	0.25655	0.11299	0.1858	0.32783	-1.5229	-1.3729	-2.0458	-1.5812	-1.8417	-2.2	-1.7563	-2.2438	-1.7563	-1.4625	-2.4896	-1.5792	-1.8354	-2.3458	-1.1063	-2.2625	165.807	41.608	84.548	256.430	51.445	36.692	247.718	238.095	81.055	91.268	268.142	216.681	286.705	27.807	-25.939	219.189	0.00038061	0.00015275	9.3019e-05	1370	5.7858e-07	2.929e-06	1358.8	367.66	1.6245e-06	3.4196e-06	421.94	140.36	122.07	42.124	8.3716e-06	51.79	0.00055428	0.00055459	0.00015447	1380.9	6.0559e-06	6.1007e-06	1375.5	373.45	6.1251e-06	6.099e-06	426.65	142.89	124.3	42.928	6.0434e-06	52.962	-12.029	24.733	58.697	-50.159	230.016	30.902	-50.226	-45.381	264.305	62.723	-45.868	-41.812	-40.963	-36.851	95.426	-37.377	-8191	255	
1013.895	1	1	0	0	0.14542	0.11268	0.26396	0.33178	0.22058	0.25176	0.16389	0.10605	0.31469	0.12835	0.25134	0.14819	0.19508	0.24384	0.10851	0.29318	-1.4708	-1.1729	-2.2125	-1.6542	-1.6417	-2.3292	-1.5583	-2.225	-2.025	-1.3542	-2.3333	-1.5667	-1.7	-2.2583	-1.3167	-1.9792	72.285	117.197	172.669	264.172	-29.954	110.921	226.330	279.515	5.858	-12.594	-46.623	2.474	214.169	-9.596	25.822	294.068	0.00041555	0.00072485	0.0002203	1367.2	4.8741e-06	6.9301e-06	1363.4	368.48	9.8692e-07	5.5794e-06	421.04	140.41	121.92	41.969	4.5314e-06	52.021	0.00055226	0.00055085	0.00015307	1377.6	6.0124e-06	5.9978e-06	1376.3	373.41	5.9447e-06	6.0354e-06	426.83	143.11	124.28	42.893	5.9374e-06	53.079	44.410	-45.692	94.770	-50.276	79.342	73.572	-50.461	-45.427	20.564	77.764	-45.972	-41.965	-41.298	-36.459	23.130	-37.219	-8191	255	
1013.992	1	1	0	0	0.13549	0.069071	0.1375	0.41806	0.040169	0.12572	0.11328	0.40527	0.08583	0.34137	0.11888	0.39516	0.13628	0.097368	0.15525	0.34366	-1.6771	-1.2458	-2.0875	-1.9104	-1.4271	-2.1479	-1.9167	-2.0458	-2.1625	-1.225	-2.3417	-1.8958	-1.5479	-2.4313	-1.2812	-1.8542	103.386	11.762	245.278	232.185	155.753	126.655	264.484	273.493	-22.436	91.006	176.604	208.502	276.419	-9.224	81.312	172.933	0.00041712	0.00026791	0.00016283	1366.5	2.7984e-06	9.5685e-06	1366.7	369.55	2.4574e-06	3.8855e-06	421.77	140.53	122.08	42.049	9.5848e-06	52.176	0.00054649	0.00054109	0.00015127	1378.6	5.9727e-06	5.9657e-06	1376.8	373.22	5.8854e-06	5.9421e-06	426.06	142.91	124.23	42.929	5.9285e-06	53.1	60.475	-39.725	35.077	-50.318	269.388	65.127	-50.337	-45.340	21.889	40.711	-45.940	-41.767	-41.002	-36.551	112.920	-37.309	-8191	255	
1014.088	1	1	0	0	0.033827	0.029982	0.055236	0.22923	0.36172	0.25012	0.22658	0.4516	0.20671	0.21302	0.16085	0.081575	0.41512	0.25207	0.093794	0.24032	-1.6562	-1.1354	-2.0687	-2.1396	-1.3146	-2.5354	-1.6771	-1.7167	-2.15	-1.45	-2.1958	-1.9604	-1.5333	-2.3812	-1.5125	-1.6917	277.171	-21.752	136.823	181.495	135.522	254.431	223.214	233.937	-18.675	-16.544	268.689	142.812	268.097	221.367	266.722	277.504	0.00066713	0.0010034	0.00014737	1365.9	1.6272e-06	7.446e-06	1365.7	368.78	1.6285e-06	1.8779e-06	420.05	140.47	122.27	42.088	1.8156e-06	52.088	0.00054183	0.0005424	0.00015129	1376.7	5.9563e-06	5.9298e-06	1374.2	373.18	5.9511e-06	5.9145e-06	426.2	142.79	124.32	42.981	5.9076e-06	53.156	42.211	-31.170	-0.340	-50.128	70.243	147.106	-50.465	-45.521	107.726	16.693	-46.121	-41.683	-40.837	-36.454	59.971	-37.327	-8191	255	
1014.159	1	1	0	0	0.12934	0.12971	0.11319	0.22019	0.13578	0.22458	0.31233	0.43092	0.13018	0.14255	0.10892	0.092581	0.24898	0.2825	0.30967	0.074966	-1.9479	-1.3813	-1.9312	-2.1771	-1.2313	-2.2771	-1.7854	-1.7083	-2.2313	-1.4	-1.9688	-2.2042	-1.4312	-2.1479	-1.7437	-1.8	93.808	30.988	197.766	219.093	181.106	266.049	247.160	238.617	251.060	278.945	203.858	183.073	191.413	-16.310	8.908	-35.794	0.00034545	0.00046751	3.871e-05	1366	8.7044e-06	1.1792e-05	1364.7	368.11	7.1908e-06	5.5851e-06	421.3	140.47	121.74	42.024	3.699e-06	51.961	0.00053942	0.00054019	0.0001495	1379.5	5.8815e-06	5.882e-06	1375.9	373.06	5.8722e-06	5.8763e-06	426.49	142.89	124.24	42.837	5.8526e-06	53.118	44.342	52.733	16.277	-50.453	78.148	87.549	-50.704	-45.929	79.289	47.342	-46.555	-42.070	-41.331	-36.664	73.204	-37.564	-8191	255	
1014.280	1	1	0	0	0.18124	0.23892	0.081097	0.14735	0.26599	0.080823	0.23152	0.25232	0.15661	0.21056	0.29105	0.26266	0.26072	0.24914	0.11953	0.091471	-1.6812	-1.3312	-1.8229	-2.1854	-1.2479	-2.1146	-1.8833	-1.575	-2.0625	-1.3125	-1.9979	-2.1708	-1.3229	-2.4167	-1.7333	-1.4	178.166	189.461	21.786	261.096	96.676	185.666	251.241	248.060	5.229	102.723	277.867	241.752	-56.249	252.919	168.339	-11.166	0.00043382	0.00095379	0.00017197	1360.9	3.7174e-06	8.0021e-06	1360.3	365.56	4.2047e-06	4.6064e-06	419.92	140.06	121.87	41.983	2.6951e-06	51.837	0.00053639	0.00053337	0.00014816	1376.7	5.8877e-06	5.8483e-06	1373.5	372.45	5.796e-06	5.7847e-06	425.95	142.85	124.38	42.948	5.8038e-06	53.04	62.463	-25.032	31.175	-50.376	137.152	107.373	-50.608	-45.777	114.835	164.001	-46.177	-42.114	-41.508	-36.558	82.328	-37.625	-8191	255	
1014.376	1	1	0	0	0.24382	0.2605	0.18021	0.24974	0.065197	0.088513	0.35547	0.36288	0.16983	0.35608	0.38592	0.27723	0.22516	0.19285	0.14588	0.27923	-1.7896	-1.4062	-1.7062	-2.4167	-1.4062	-1.925	-2.3312	-1.6667	-2.1729	-1.6313	-1.625	-2.525	-1.5396	-2	-1.9667	-1.5729	267.831	-16.048	256.707	278.365	-33.281	280.846	274.061	208.676	249.497	16.251	220.565	208.495	-34.667	269.341	168.308	277.615	0.00047534	0.00041975	0.00016312	1359.9	6.8299e-06	4.23e-06	1355.9	366.54	2.2808e-06	4.9219e-06	417.17	139.79	122.08	42.154	7.0595e-06	51.626	0.00052936	0.00053596	0.00014701	1375.6	5.8153e-06	5.838e-06	1372.8	372.77	5.8688e-06	5.8753e-06	425.25	142.72	124.12	42.896	5.8996e-06	52.961	40.934	-13.982	16.887	-50.409	74.992	34.206	-50.448	-45.745	249.033	134.555	-46.517	-42.095	-41.150	-36.829	137.362	-37.531	-8191	255	
1014.472	1	1	0	0	0.11179	0.11681	0.10601	0.13357	0.088338	0.087939	0.18635	0.31075	0.30681	0.10264	0.18609	0.17642	0.13008	0.44874	0.296	0.1793	-1.8021	-1.5812	-1.3958	-2.3667	-1.5938	-2.0542	-2.3	-1.4896	-2.2313	-1.8	-1.6208	-2.45	-1.5125	-1.8146	-2.0417	-1.4979	-22.891	39.646	168.383	258.082	-19.192	212.040	272.625	258.436	206.043	237.230	252.198	258.017	-56.950	276.240	163.571	-38.800	0.00062963	0.00060382	0.00016783	1359.4	7.3261e-07	1.3224e-06	1359.1	365.63	8.6486e-07	5.721e-06	417.18	139.93	121.39	42.059	4.4608e-06	51.934	0.00053476	0.00053635	0.00014933	1377.3	5.8744e-06	5.8482e-06	1373.2	372.17	5.83e-06	5.8533e-06	425.57	142.94	124.08	42.88	5.8329e-06	53.105	60.202	37.245	13.511	-50.463	149.766	80.614	-50.716	-45.859	91.260	65.798	-46.231	-42.028	-41.321	-36.770	185.268	-37.579	-8191	255	
1014.569	1	1	0	0	0.15099	0.27992	0.093491	0.12731	0.15576	0.14786	0.13185	0.21264	0.24364	0.14901	0.05628	0.043114	0.15514	0.37425	0.006877	0.16634	-1.9771	-1.925	-1.5229	-2.35	-1.3438	-1.9562	-2.4708	-1.5896	-2.0812	-1.7479	-1.5354	-2.3125	-1.7917	-1.7521	-2.1	-1.3438	133.466	-8.359	-34.200	279.225	-5.056	56.690	241.377	-56.106	231.711	212.740	230.768	148.229	231.144	237.321	-44.208	-32.502	0.00044004	0.00055375	7.1363e-05	1355.8	2.1669e-06	4.3123e-06	1348.1	364.73	6.0625e-06	4.9999e-06	417.72	139.61	122.39	41.858	3.5512e-06	51.862	0.00053911	0.00053664	0.00014913	1375	5.9278e-06	5.8809e-06	1371.7	372.13	5.8751e-06	5.8334e-06	425.01	142.68	124.23	42.859	5.7955e-06	53.005	21.569	6.123	125.214	-50.643	-48.355	98.581	-50.651	-45.851	61.736	150.311	-46.297	-41.981	-41.203	-36.609	158.418	-37.661	-8191	255	
1014.687	1	1	0	0	0.086912	0.15024	0.044846	0.14227	0.12199	0.29604	0.2384	0.24397	0.36771	0.12999	0.048924	0.29918	0.22986	0.13514	0.067817	0.26139	-1.5688	-1.9875	-1.0812	-2.4917	-1.45	-1.6479	-2.6229	-1.6938	-1.7771	-1.8917	-1.4167	-2.2938	-1.7875	-1.6792	-2.2479	-1.3438	-55.891	-56.947	-45.686	125.282	4.639	286.569	222.685	264.112	13.407	43.266	240.877	196.207	185.762	172.697	262.194	212.658	0.00055979	0.00026681	7.559e-05	1356.6	3.657e-06	8.8459e-07	1356.8	366.75	5.8918e-06	7.3268e-06	420.16	140.15	121.73	42.045	9.577e-06	51.96	0.00053627	0.00053399	0.0001469	1374	5.7922e-06	5.8717e-06	1370.9	371.95	5.7646e-06	5.8304e-06	425.52	142.77	123.99	42.851	5.8162e-06	53.034	66.243	28.219	93.575	-50.157	108.220	134.963	-50.385	-45.801	210.551	104.143	-46.442	-41.623	-41.401	-36.643	85.983	-37.416	-8191	255	
1014.761	1	1	0	0	0.19652	0.18273	0.051647	0.22097	0.098234	0.080081	0.16584	0.20628	0.10544	0.1301	0.33378	0.19236	0.16919	0.23228	0.25524	0.093301	-1.5104	-2.1437	-1.15	-2.2917	-1.775	-1.4583	-2.6437	-1.6333	-1.7521	-1.9917	-1.3333	-2.2104	-2	-1.4875	-2.1813	-1.5688	107.997	59.852	184.090	234.379	94.646	77.448	267.876	237.037	249.215	33.726	-45.359	266.677	285.124	243.296	258.188	277.379	0.00024951	0.00073517	4.279e-05	1365.1	1.3489e-06	7.0555e-06	1361.1	366.16	4.1562e-06	7.5171e-06	417.37	140.26	122.33	41.935	2.0328e-06	52.179	0.00053124	0.00053401	0.00014871	1375.9	5.8238e-06	5.8047e-06	1372.2	371.96	5.836e-06	5.7767e-06	424.02	142.66	124.1	42.801	5.7559e-06	52.992	65.269	-46.386	288.605	-50.031	13.646	47.639	-50.422	-45.560	-42.045	98.245	-45.965	-41.741	-41.149	-36.666	69.317	-37.698	-8191	255	
1014.880	1	1	0	0	0.13988	0.18938	0.29887	0.29146	0.17106	0.17601	0.11293	0.22094	0.20271	0.16772	0.45864	0.15415	0.1934	0.15154	0.12972	0.061078	-1.2687	-2.1729	-1.3042	-2.3146	-1.9688	-1.1854	-2.5417	-1.7	-1.6104	-2.0708	-1.5125	-2	-2.0021	-1.6125	-2.1	-1.6958	187.953	218.358	2.872	221.643	252.068	169.511	238.951	-39.869	199.669	202.382	236.433	261.044	247.707	252.814	187.096	171.129	0.00053661	0.00033528	0.00016032	1365.1	3.1443e-06	1.0098e-05	1355.4	366	3.3284e-06	7.0951e-06	417.46	140.09	121.85	41.857	1.8118e-06	51.781	0.00052575	0.0005223	0.0001459	1375	5.7459e-06	5.774e-06	1371.6	371.53	5.709e-06	5.7369e-06	424.3	142.84	124.09	42.831	5.7694e-06	52.963	47.484	0.226	55.424	-50.216	-18.198	121.775	-50.517	-45.663	156.834	131.005	-46.100	-41.597	-41.194	-36.656	89.408	-37.652	-8191	255	
1014.976	1	1	0	0	0.084572	0.14194	0.2058	0.27216	0.29757	0.31274	0.21775	0.042528	0.22975	0.17476	0.14491	0.20379	0.22392	0.32466	0.23983	0.39333	-1.2104	-2.275	-1.35	-2.0312	-1.9833	-1.275	-2.3896	-2.0354	-1.4354	-2.1771	-1.5271	-1.875	-2.3187	-1.5146	-2.0375	-1.7771	98.885	145.345	178.446	-37.883	237.888	45.966	-42.787	59.733	-17.965	-57.015	246.129	206.353	228.197	273.654	110.063	221.960	0.00050488	0.0005278	0.00016239	1357.1	6.7091e-06	9.9833e-06	1356.7	364.97	3.9715e-06	9.8015e-06	418.06	139.44	122.25	41.939	7.0333e-06	51.646	0.00052884	0.00052694	0.00014753	1372.2	5.8434e-06	5.7852e-06	1371.6	371.4	5.7643e-06	5.789e-06	424.68	142.48	124.05	42.819	5.8404e-06	52.851	43.476	1.111	36.063	-50.056	61.830	133.920	-50.322	-45.815	100.680	101.618	-46.131	-41.725	-41.466	-36.658	60.485	-37.720	-8191	255	
1015.072	1	1	0	0	0.23278	0.24484	0.080241	0.23079	0.21442	0.21566	0.23186	0.30134	0.17226	0.223	0.22375	0.31131	0.1446	0.21314	0.29123	0.21425	-0.97292	-2.2313	-1.3979	-1.75	-1.8958	-1.2292	-2.3833	-1.9896	-1.2646	-2.3333	-1.4604	-1.5938	-2.0667	-1.4271	-2.0458	-1.7708	56.342	118.907	-25.068	-58.799	4.722	-4.886	214.985	258.435	-63.662	97.987	222.872	273.538	56.596	252.592	291.667	219.781	0.00066936	0.00043373	0.00017332	1362.3	7.2365e-06	8.7729e-06	1356.3	367.06	5.2017e-07	1.148e-06	418.86	140.7	122.13	42.075	2.4838e-06	51.949	0.00052646	0.0005269	0.00014615	1372.7	5.7405e-06	5.7964e-06	1370.6	371.48	5.7869e-06	5.7393e-06	423.97	142.72	123.94	42.859	5.7655e-06	52.977	42.881	30.137	3.278	-50.325	47.601	100.012	-50.743	-45.886	143.913	216.439	-46.467	-42.081	-41.686	-36.799	27.516	-37.513	-8191	255	
1015.168	1	1	0	0	0.12246	0.15164	0.042541	0.18357	0.30813	0.20367	0.21126	0.16307	0.14102	0.22656	0.21357	0.30033	0.22869	0.04549	0.27825	0.39335	-0.85	-2.0604	-1.3417	-1.7563	-2.0917	-1.1604	-2.2562	-2.0875	-1.2938	-2.2375	-1.4792	-1.4854	-2.5083	-1.4583	-1.9729	-2.2146	67.786	-25.381	166.169	-50.024	-18.998	294.510	185.865	225.536	153.410	-2.898	293.943	235.857	253.813	2.989	-12.635	273.129	0.00047822	0.00064689	0.00012336	1366.7	2.5558e-06	3.6656e-06	1367	367.61	2.0054e-06	4.5505e-06	421.44	140.88	122.58	42.076	7.6401e-06	52.05	0.00053289	0.00052412	0.00014631	1375.6	5.7453e-06	5.7686e-06	1373.9	371.96	5.7757e-06	5.7658e-06	425.64	142.8	124.13	42.868	5.7608e-06	53.102	41.370	16.111	-29.141	-50.262	40.533	102.250	-50.279	-45.590	120.268	67.068	-46.136	-41.839	-41.322	-36.803	62.706	-37.471	-8191	255	
1015.289	1	1	0	0	0.24592	0.045138	0.26506	0.16479	0.18057	0.13967	0.085318	0.12083	0.2513	0.1031	0.24546	0.26261	0.076963	0.24242	0.27403	0.21459	-0.92083	-2.15	-1.65	-1.8708	-2.35	-1.2104	-1.9479	-2.3417	-1.1833	-2.1604	-1.8312	-1.4667	-2.4104	-1.3979	-1.6208	-2.2146	38.840	61.956	49.609	222.100	-2.934	-32.608	286.821	293.342	49.941	-46.579	239.156	187.349	211.903	257.441	267.195	166.587	0.00024025	0.00039012	0.00023026	1364.4	9.0341e-06	5.8825e-06	1368.6	366.45	2.3859e-06	3.2814e-06	417.93	140.84	122.85	42.164	1.2627e-06	52.413	0.00053251	0.0005323	0.00014712	1373.2	5.8145e-06	5.7961e-06	1374.9	372.03	5.7599e-06	5.7769e-06	424.53	142.71	124.25	42.899	5.7877e-06	53.14	62.174	-10.549	82.862	-50.103	116.156	105.589	-50.340	-45.519	-49.212	44.856	-46.229	-41.703	-41.138	-36.736	34.098	-37.740	-8191	255	
1015.385	1	1	0	0	0.23486	0.11301	0.18869	0.26534	0.1232	0.094303	0.28463	0.28855	0.17301	0.12675	0.23704	0.051233	0.37908	0.097151	0.17072	0.11342	-0.79583	-2.075	-1.7083	-1.5896	-2.175	-1.4458	-1.9375	-2.1479	-1.2625	-2.0958	-1.9354	-1.4833	-2.3625	-1.6229	-1.5021	-2.2833	22.376	277.762	54.961	263.423	15.536	-6.481	234.781	235.178	206.447	107.769	238.683	17.676	259.618	-47.453	140.290	-55.165	0.00059835	0.00033975	0.00014773	1366	2.4349e-06	7.1315e-06	1366.4	367.85	9.855e-06	4.7905e-06	420.96	140.45	122.57	42.106	5.9656e-06	52.182	0.0005276	0.00052303	0.00014555	1375.2	5.7303e-06	5.7538e-06	1372.9	372.29	5.7407e-06	5.8457e-06	425.26	142.94	124.33	42.873	5.8361e-06	53.106	39.847	-32.000	56.586	-50.361	63.807	76.358	-50.253	-45.590	116.929	60.665	-46.367	-41.798	-41.130	-36.701	68.227	-37.322	-8191	255	
1015.457	1	1	0	0	0.17979	0.20511	0.13287	0.21398	0.33959	0.22014	0.42528	0.052633	0.30255	0.20628	0.087065	0.13882	0.22791	0.28279	0.22964	0.17932	-0.91667	-1.8417	-1.8521	-1.6063	-2.2125	-1.6083	-1.8167	-2.575	-1.3104	-1.875	-2.0938	-1.3354	-2.3271	-1.8021	-1.3896	-2.4542	144.699	47.475	130.250	270.588	98.733	-19.813	232.822	-47.133	27.889	244.687	-26.639	286.010	-23.461	275.667	-32.858	-56.064	0.00053478	0.00037425	0.00025343	1371.4	4.7716e-06	5.2526e-06	1363.4	367.79	2.187e-06	3.6891e-06	420.25	141.33	122.96	42.245	9.4346e-06	52.092	0.00052937	0.00052544	0.00014729	1376.1	5.7688e-06	5.8065e-06	1372.4	372.52	5.7993e-06	5.8349e-06	424.97	142.96	124.35	42.97	5.8738e-06	53.06	50.522	-32.186	16.817	-50.084	95.663	99.539	-50.148	-45.613	173.378	56.757	-46.300	-41.739	-41.278	-36.832	71.433	-37.380	-8191	255	
1015.577	1	1	0	0	0.16931	0.24612	0.11503	0.18344	0.05834	0.31405	0.26667	0.26281	0.14521	0.078787	0.065204	0.2481	0.19582	0.18052	0.083195	0.44177	-0.96042	-1.7	-2.0854	-1.3958	-2.0625	-1.6354	-1.6167	-2.5687	-1.2542	-1.5854	-2.2313	-1.425	-2.05	-2.0021	-1.2437	-2.3187	264.132	-9.300	86.817	278.671	120.962	113.782	249.284	235.869	170.948	97.684	198.138	293.829	238.551	289.690	234.212	261.395	0.00062272	0.0006234	0.0001716	1362.5	4.8372e-06	7.5959e-06	1361.2	367.54	4.4328e-06	5.1545e-06	419.43	139.36	121.72	41.65	2.2681e-06	51.752	0.00053251	0.00053354	0.00014647	1372.8	5.7456e-06	5.8283e-06	1371.6	372.29	5.7589e-06	5.7912e-06	424.88	142.39	124.14	42.769	5.7926e-06	52.98	10.620	26.107	47.963	-50.361	100.061	135.375	-50.507	-45.812	115.393	56.696	-46.304	-41.729	-41.254	-37.137	127.580	-37.785	-8191	255	
1015.673	1	1	0	0	0.40175	0.18911	0.18665	0.24529	0.20841	0.33025	0.31122	0.075863	0.31091	0.12244	0.20724	0.22925	0.055889	0.27634	0.047416	0.33685	-1.0354	-1.5854	-2.3438	-1.5458	-2.1417	-2.0229	-1.7979	-2.3125	-1.6375	-1.6667	-2.3104	-1.5646	-2	-2.225	-1.2146	-2.3646	153.482	-11.083	-50.222	-50.170	216.583	66.085	276.806	264.167	138.781	-63.474	282.865	222.302	267.352	271.464	218.302	244.327	0.00032688	0.0004448	0.0001493	1354.6	4.8106e-06	8.5789e-06	1354.9	365.67	3.6922e-06	7.5372e-07	418.41	139.82	121.78	41.681	3.4372e-06	51.641	0.00053767	0.00053079	0.00014848	1374.1	5.8285e-06	5.8541e-06	1371.4	372.35	5.8465e-06	5.8291e-06	424.55	142.59	124.11	42.751	5.8566e-06	53.055	75.834	121.373	86.457	-50.625	60.775	60.470	-50.616	-45.800	-1.250	286.231	-46.337	-41.822	-41.359	-36.871	162.947	-37.537	-8191	255	
1015.768	1	1	0	0	0.15313	0.069136	0.11597	0.11573	0.030678	0.028315	0.12613	0.25437	0.17846	0.24882	0.19047	0.15525	0.15144	0.11097	0.14688	0.2378	-1.4146	-1.4875	-2.15	-1.4292	-1.8375	-2.0729	-1.6667	-2.525	-1.7521	-1.8417	-2.3979	-1.4625	-1.9188	-2.2458	-1.2771	-2.2708	42.254	128.742	64.240	162.841	4.469	241.751	212.636	273.477	134.920	67.723	249.962	235.207	-52.541	270.489	146.798	189.623	0.00049931	0.0007021	0.00018299	1356.9	3.478e-06	7.7031e-06	1362.8	366.46	4.0449e-06	1.6246e-06	419.48	139.18	121.63	41.908	3.7364e-06	51.555	0.00054105	0.00054314	0.00015046	1374.6	5.9606e-06	5.9409e-06	1372.6	371.99	5.9825e-06	5.9925e-06	425.03	142.56	123.95	42.824	5.9869e-06	53.029	8.064	8.206	-14.881	-50.393	128.323	74.940	-50.664	-45.508	119.596	66.961	-46.295	-41.910	-41.201	-36.694	120.754	-37.572	-8191	255	
1015.888	1	1	0	0	0.10387	0.11429	0.25919	0.38032	0.22555	0.24808	0.26633	0.31692	0.13089	0.044896	0.18759	0.15867	0.089026	0.18901	0.22955	0.25881	-1.4125	-1.2687	-2.1813	-1.7167	-1.7729	-2.0042	-1.4312	-2.4292	-1.9083	-1.2437	-2.5812	-1.7563	-1.9583	-2.3083	-1.2417	-2.225	-43.073	93.980	142.674	233.828	197.741	185.285	266.804	254.076	117.473	95.072	233.126	176.333	133.638	6.440	161.904	-44.543	0.00035962	0.00053658	6.4784e-05	1355.8	6.0321e-06	3.7109e-06	1359.4	367.27	1.4703e-06	4.5256e-06	419.64	139.35	121.49	41.794	5.1289e-06	51.577	0.00054341	0.00054429	0.0001523	1374.1	5.9388e-06	5.9085e-06	1373.8	372.77	5.9975e-06	6.0294e-06	425.98	142.48	124.05	42.829	5.987e-06	52.969	42.597	-29.979	29.872	-50.278	105.462	44.629	-50.401	-45.440	36.498	140.350	-46.008	-41.943	-41.054	-36.602	139.998	-37.446	-8191	255	
1015.985	1	1	0	0	0.13203	0.52266	0.12725	0.1703	0.39265	0.058727	0.18867	0.28658	0.03608	0.36144	0.33934	0.19096	0.46255	0.033628	0.22276	0.17968	-1.6542	-1.2104	-2.2854	-1.9	-1.5562	-2.2083	-1.4542	-2.0438	-2.0292	-1.3188	-2.3604	-1.725	-1.7812	-2.3396	-1.3604	-2.1146	14.486	134.254	102.881	-57.831	212.278	198.974	251.560	255.574	258.167	294.308	-47.453	-54.391	-61.229	197.545	145.567	-30.381	0.00024276	0.00023227	0.00031502	1354.2	7.3032e-07	4.7951e-06	1358.3	365.32	3.4523e-06	6.1427e-06	417.75	139.38	121.67	41.561	8.493e-06	51.31	0.00055258	0.00055536	0.00015424	1377	6.1681e-06	6.1118e-06	1375.9	372.46	6.1681e-06	6.2055e-06	426.28	142.57	124.23	42.817	6.3405e-06	52.977	49.383	259.353	47.886	-50.133	180.279	68.619	-50.147	-45.545	103.028	62.547	-46.158	-41.806	-40.977	-36.640	38.303	-37.477	-8191	255	
1016.056	1	1	0	0	0.22051	0.0834	0.28957	0.23586	0.24987	0.20932	0.21481	0.32152	0.058013	0.17246	0.057133	0.26223	0.38114	0.26423	0.23735	0.16926	-1.6875	-1.2417	-2.0104	-1.9312	-1.2646	-2.3792	-1.7188	-2.15	-2.1917	-1.4104	-2.2854	-1.8958	-1.525	-2.3146	-1.3875	-1.8021	25.063	215.849	148.406	288.546	134.529	156.369	231.278	208.554	39.101	204.383	103.418	211.248	-51.319	-25.900	76.270	272.432	0.00023665	0.00052569	0.000355	1359.1	7.4053e-06	4.5003e-06	1358	365.42	4.4438e-06	6.9368e-06	419.59	139.64	121.13	41.507	5.5023e-06	51.348	0.00057873	0.00058328	0.00016295	1377.8	6.3637e-06	6.3566e-06	1377.7	373.11	6.353e-06	6.3886e-06	427.25	142.7	124.02	42.716	6.3658e-06	52.991	37.439	-41.328	10.982	-50.133	3.040	108.093	-50.449	-45.725	26.014	117.446	-45.955	-41.814	-41.124	-36.683	49.962	-37.534	-8191	255	
1016.152	1	1	0	0	0.2286	0.053588	0.11019	0.26589	0.031998	0.1707	0.18323	0.34551	0.43944	0.22467	0.28923	0.24326	0.25754	0.21004	0.27219	0.17391	-1.7563	-1.3354	-1.9542	-2.3625	-1.3896	-2.1646	-1.7687	-1.7479	-2.1646	-1.1021	-2.0687	-1.95	-1.325	-2.3521	-1.6104	-1.6646	164.803	-60.247	126.553	269.849	147.104	103.857	267.399	275.372	51.844	256.141	267.420	271.340	19.834	-60.401	48.596	200.044	0.0004212	0.00097055	0.00013648	1354	4.7026e-06	8.4903e-06	1360.4	365.93	6.1934e-06	1.0511e-06	416.58	139.48	120.98	41.368	4.4701e-06	51.041	0.00057827	0.00058387	0.00016202	1379.8	6.3358e-06	6.3426e-06	1379	373.4	6.3006e-06	6.3157e-06	426.19	142.6	124.05	42.711	6.2969e-06	52.96	43.643	-33.352	21.024	-50.354	125.021	118.872	-50.593	-45.529	106.373	151.375	-46.124	-41.932	-41.284	-36.738	123.919	-37.644	-8191	255	
1016.249	1	1	0	0	0.20745	0.10878	0.26453	0.31978	0.17863	0.17452	0.27529	0.25725	0.28387	0.15432	0.44781	0.30286	0.46592	0.091907	0.25218	0.1842	-1.8833	-1.1708	-1.9667	-2.3521	-1.3208	-2.1917	-1.8917	-1.6437	-2.2458	-1.5396	-1.9542	-2.2896	-1.6896	-2.25	-1.7542	-1.4833	-37.551	228.491	284.339	275.110	241.834	173.107	235.896	220.122	79.740	146.012	199.858	-63.122	248.721	-35.112	-11.293	243.038	0.0005011	0.00069627	0.0002596	1356.9	6.0108e-06	1.044e-05	1357.7	365.79	3.6995e-06	5.6027e-06	416.75	138.95	122.16	41.87	9.7702e-06	51.434	0.00056882	0.00057354	0.00015794	1380.4	6.2606e-06	6.2299e-06	1376.3	373.3	6.2056e-06	6.1847e-06	425.45	142.49	124.26	42.855	6.1129e-06	52.989	56.464	18.327	36.221	-50.356	96.815	161.665	-50.542	-45.654	-8.864	66.964	-46.326	-41.681	-41.239	-36.545	92.702	-37.793	-8191	255	
1016.369	1	1	0	0	0.11609	0.2431	0.25412	0.2987	0.18104	0.16315	0.059968	0.40008	0.16551	0.21767	0.19035	0.14072	0.25119	0.20121	0.10748	0.28326	-1.875	-1.4333	-1.7333	-2.2062	-1.3375	-2.1125	-2.15	-1.7458	-2.3438	-1.4229	-1.8375	-2.2438	-1.5375	-2.2208	-1.7771	-1.4146	-33.366	103.752	39.641	241.027	8.349	-48.182	-42.531	214.508	261.825	105.211	265.921	197.414	275.425	248.982	207.685	-56.708	0.00037294	0.00079667	5.8829e-05	1356.5	8.9497e-06	3.9351e-06	1368.4	368.19	3.3782e-06	4.6103e-06	418.61	140.6	122.17	41.738	8.1601e-06	51.611	0.00055515	0.00055847	0.00015463	1379.6	6.0599e-06	5.9693e-06	1379.1	373.44	6.0552e-06	6.0258e-06	426.27	142.79	124.43	42.821	5.9849e-06	52.982	25.320	-19.863	96.449	-50.404	54.452	139.650	-50.348	-45.588	58.344	147.448	-46.208	-41.983	-41.132	-36.765	139.480	-37.637	-8191	255	
1016.465	1	1	0	0	0.18222	0.064294	0.1241	0.14698	0.19372	0.12293	0.21118	0.22675	0.15067	0.093103	0.082424	0.12549	0.188	0.2523	0.1125	0.15217	-1.8417	-1.3937	-1.6104	-2.4938	-1.125	-2.1229	-1.9104	-1.5187	-2.1708	-1.4688	-1.8229	-2.3563	-1.4771	-1.975	-2.0167	-1.4333	35.530	223.738	237.639	-52.512	-55.470	-46.947	264.579	174.470	-20.021	274.685	-58.692	159.544	207.633	256.551	194.842	182.916	0.00041828	0.00040263	5.6044e-05	1358.3	5.336e-06	4.901e-06	1353.2	366.04	5.522e-06	8.5093e-06	418.25	139.83	121.91	41.729	4.585e-06	51.686	0.00054785	0.00054629	0.00015224	1377.9	5.9705e-06	5.9987e-06	1376.1	373.13	6.0766e-06	6.1154e-06	425.63	142.73	124.31	42.86	6.1359e-06	53.054	30.485	-57.784	239.524	-50.461	120.033	104.389	-50.796	-45.899	103.728	103.197	-46.116	-41.877	-41.476	-37.078	99.199	-37.562	-8191	255	
1016.561	1	1	0	0	0.056936	0.054786	0.26534	0.35697	0.065242	0.12355	0.087975	0.13527	0.10108	0.12456	0.13161	0.36266	0.27395	0.24797	0.22459	0.47085	-1.9	-1.5146	-1.4312	-2.475	-1.1583	-1.7646	-2.2542	-1.5104	-2.2146	-1.8042	-1.4771	-2.1729	-1.5125	-1.9167	-2.2146	-1.2563	-18.896	231.081	204.268	200.966	19.620	144.841	243.021	-41.446	-15.886	258.114	234.981	232.125	-54.261	287.690	-47.519	197.522	0.00030802	0.00024637	0.00013914	1363.1	7.5705e-06	5.8853e-06	1352.4	365.57	4.9739e-06	4.4231e-06	417.38	138.64	120.78	41.847	4.8215e-06	51.57	0.00056361	0.0005614	0.00015742	1379.8	6.2104e-06	6.2683e-06	1376.3	372.73	6.2531e-06	6.2281e-06	425.73	142.51	124.16	42.926	6.2143e-06	53.043	93.102	258.021	-6.626	-50.184	51.820	133.515	-50.600	-45.619	94.935	96.978	-46.387	-42.099	-41.342	-36.874	64.745	-37.608	-8191	255	
1016.658	1	1	0	0	0.080964	0.10313	0.19297	0.34772	0.2839	0.18412	0.19986	0.28237	0.36348	0.18792	0.14654	0.12816	0.18022	0.20616	0.16805	0.26164	-1.5771	-1.6688	-1.2583	-2.4375	-1.4333	-1.5875	-2.2333	-1.3417	-2.0208	-1.9396	-1.4208	-2.3583	-1.6375	-1.7333	-2.2542	-1.3396	144.736	99.508	183.009	-51.306	7.029	-57.188	257.712	253.160	182.461	-52.378	286.973	275.400	268.615	256.558	172.540	246.411	0.00059565	0.00078766	9.1688e-05	1362.6	4.4777e-06	6.7962e-06	1364	367.12	3.2609e-06	1.2612e-05	417.25	139.36	121.01	41.825	2.1821e-06	51.612	0.00056615	0.00056666	0.00015796	1382.7	6.2074e-06	6.1925e-06	1381.5	373.47	6.215e-06	6.2177e-06	426.53	143.16	124.44	43.025	6.2528e-06	53.2	50.608	39.947	-58.312	-50.281	110.555	108.818	-50.379	-45.703	51.848	97.699	-46.403	-42.155	-41.408	-36.851	68.043	-37.834	-8191	255	
1016.754	1	1	0	0	0.068712	0.12458	0.12365	0.34202	0.25421	0.031885	0.37175	0.32524	0.19049	0.10603	0.17772	0.19397	0.30266	0.45557	0.11257	0.15523	-1.4813	-1.8229	-1.3896	-2.4167	-1.6792	-1.5167	-2.4062	-1.4958	-1.9271	-1.9438	-1.3438	-2.3563	-1.7979	-1.6	-2.1646	-1.4292	144.568	264.454	86.675	258.804	-10.849	278.613	217.750	201.416	39.950	51.986	287.887	-60.336	244.991	265.879	200.139	94.810	0.00049662	0.00060632	0.00017207	1365.8	4.4502e-06	1.2419e-05	1366.8	367.23	2.6623e-06	8.4643e-06	419.67	139.95	121.59	42.003	6.0777e-06	51.935	0.00057778	0.00058238	0.00016294	1387	6.3816e-06	6.4966e-06	1388.5	375.35	6.4846e-06	6.5252e-06	429.22	143.83	125.16	43.15	6.5587e-06	53.478	53.769	22.012	49.664	-50.165	43.871	63.084	-50.399	-45.846	79.242	91.814	-46.247	-41.717	-41.209	-36.815	-3.164	-37.511	-8191	255	
1016.850	1	1	0	0	0.30704	0.34872	0.14575	0.43798	0.10445	0.19656	0.18131	0.32552	0.089693	0.34795	0.21977	0.3316	0.41326	0.19265	0.13939	0.13111	-1.4438	-1.8958	-1.2229	-2.25	-1.6646	-1.5042	-2.4958	-1.3813	-1.7292	-2.2	-1.4875	-2.3125	-2.1271	-1.4688	-2.2104	-1.5771	104.357	232.320	293.427	258.932	-52.953	153.690	236.402	252.093	291.281	242.816	201.357	286.873	260.924	-4.228	35.506	210.520	0.00068829	0.00038073	0.00029423	1375.2	2.2876e-06	8.3154e-06	1373.8	369.84	7.5425e-06	1.8072e-06	423.2	141.74	123.15	42.245	5.223e-06	52.468	0.00059975	0.00059413	0.00016709	1396.3	6.5372e-06	6.5878e-06	1396.8	377.28	6.6158e-06	6.6581e-06	431.99	145.07	126.25	43.547	6.7968e-06	53.991	38.709	10.679	14.206	-50.395	63.784	200.444	-50.612	-45.571	93.808	6.790	-46.138	-41.774	-41.413	-36.669	43.687	-37.818	-8191	255	
1016.969	1	1	0	0	0.076319	0.21287	0.1349	0.41599	0.11965	0.32893	0.28687	0.25793	0.13065	0.22242	0.21123	0.38044	0.26266	0.50668	0.24093	0.095622	-1.4583	-2.075	-1.2042	-2.1771	-1.8833	-1.2875	-2.6292	-1.7437	-1.5521	-2.0083	-1.3625	-2.1979	-2.0542	-1.5312	-2.2104	-1.8792	156.067	188.895	292.734	251.500	-29.335	267.192	212.633	248.228	-42.677	218.824	275.047	-61.634	-47.564	-48.332	140.019	-0.064	0.00031602	0.00094592	4.192e-05	1393.5	3.9941e-06	6.1631e-06	1391.7	374.7	6.1021e-06	9.0084e-06	426.02	142.76	124.71	42.829	1.058e-05	52.905	0.00063699	0.00064315	0.00018116	1416.6	7.2692e-06	7.4985e-06	1415	382.84	7.598e-06	7.7787e-06	439.1	147.75	128.86	44.473	8.2127e-06	55.127	30.362	-31.333	-7.736	-50.139	58.875	94.968	-50.535	-45.870	169.862	140.562	-46.547	-41.961	-41.598	-36.713	26.494	-37.679	-8191	255	
1017.065	1	1	0	0	0.10024	0.23647	0.096651	0.21662	0.072281	0.11012	0.15934	0.10292	0.082168	0.21138	0.35714	0.23268	0.27921	0.27715	0.17471	0.21703	-1.3417	-2.3063	-1.4146	-2.0042	-2.0875	-1.4562	-2.3042	-1.9188	-1.3583	-2.3417	-1.3937	-1.9167	-2.2771	-1.3813	-2.1375	-1.9729	10.171	218.457	42.047	249.995	130.822	172.061	154.623	253.796	249.870	214.515	260.659	271.252	229.653	293.130	11.178	-36.603	0.00062289	0.00055348	0.0001475	1422.2	2.0032e-06	4.8318e-06	1413.3	379.92	2.5885e-06	5.3219e-06	430.96	144.89	126.17	43.505	9.5738e-06	53.417	0.00076147	0.00076659	0.00021526	1450.1	8.5805e-06	8.5771e-06	1443.7	389.49	8.5592e-06	8.6901e-06	446.43	150.1	130.93	45.28	8.7532e-06	55.88	52.327	-42.401	81.785	-50.242	171.397	87.508	-50.400	-45.883	132.866	166.176	-46.401	-41.886	-41.311	-36.902	62.454	-37.542	-8191	255	
1017.161	1	1	0	0	0.22886	0.18581	0.10566	0.28314	0.14602	0.34747	0.023513	0.32933	0.060175	0.20585	0.13836	0.21201	0.1461	0.26083	0.21031	0.17155	-1.0187	-2.1417	-1.4354	-1.9083	-2.1354	-1.3521	-2.2604	-2.0083	-1.3958	-2.3063	-1.65	-1.5875	-2.4562	-1.5688	-1.8646	-2.1813	36.304	96.994	-14.586	238.099	282.409	283.955	164.739	271.224	285.267	82.623	106.638	-8.612	287.049	21.739	248.508	237.040	0.00055341	0.00099235	4.1875e-05	1428.4	5.6276e-06	3.5847e-06	1428.1	383.39	5.5541e-06	3.0005e-06	435.01	145.95	127.73	43.854	3.3683e-06	53.583	0.00081269	0.00082379	0.00023088	1463.2	9.235e-06	9.3724e-06	1460	394.76	9.5426e-06	9.7151e-06	452.81	152.59	133.14	46.051	9.763e-06	56.761	64.548	27.062	135.872	-50.343	143.805	169.427	-50.542	-46.078	52.694	11.776	-46.279	-42.129	-41.485	-37.177	63.820	-37.922	-8191	255	
1017.282	1	1	0	0	0.16846	0.15439	0.2014	0.097256	0.12115	0.3224	0.39244	0.39309	0.070101	0.050493	0.2112	0.34328	0.37759	0.28815	0.32912	0.15852	-0.86667	-2.2292	-1.6063	-1.7875	-2.0833	-1.3646	-2.2375	-2.1167	-1.4125	-2.2417	-1.6292	-1.7625	-2.2542	-1.4021	-1.9062	-2.1625	126.404	-51.943	58.290	272.552	-28.658	245.599	236.514	245.648	42.259	-40.551	261.885	275.291	193.225	-33.578	-36.518	229.424	0.00092543	0.00085521	0.00014959	1440.2	1.7746e-06	9.6687e-06	1430.2	385.67	8.8693e-06	1.015e-05	438.16	147.48	129.43	44.243	1.4853e-06	54.266	0.00089397	0.00090205	0.00025123	1480.1	9.8557e-06	1.0023e-05	1471.5	398.4	1.0116e-05	1.0246e-05	457.35	154.31	135.1	46.72	1.0533e-05	57.497	30.953	-43.663	60.554	-50.305	151.074	61.709	-50.284	-45.877	30.537	95.563	-46.548	-42.190	-41.589	-37.094	60.306	-37.744	-8191	255	
1017.353	1	1	0	0	0.27103	0.22502	0.13623	0.28058	0.30714	0.16383	0.30077	0.36381	0.38151	0.12092	0.37154	0.08111	0.25904	0.16013	0.065845	0.19803	-0.83125	-1.9875	-1.4792	-1.6812	-2.1854	-1.3708	-2.2229	-2.3625	-1.1542	-2.3042	-1.7521	-1.375	-2.4458	-1.6458	-1.7333	-2.2583	65.185	87.860	284.090	-40.690	98.608	130.141	227.436	218.440	161.345	204.685	201.841	-50.543	291.444	157.956	212.815	204.470	0.00030289	0.00039103	0.00018459	1444.2	7.1518e-06	7.8095e-06	1441.5	387.71	4.5146e-06	4.8075e-06	439.16	148.02	130.09	44.808	4.82e-06	54.743	0.00095149	0.00096058	0.00026636	1487.9	1.0424e-05	1.0433e-05	1481.1	400.71	1.0217e-05	1.0183e-05	457.78	154.79	135.4	46.92	9.7874e-06	57.469	33.813	7.854	63.899	-50.395	102.117	130.735	-50.427	-45.947	-25.618	53.113	-46.429	-42.060	-41.276	-36.972	137.023	-37.728	-8191	255	
1017.450	1	1	0	0	0.054979	0.2818	0.20015	0.28841	0.058808	0.20467	0.17584	0.46804	0.1947	0.17471	0.04712	0.31437	0.21805	0.13857	0.14613	0.29922	-0.78333	-2.0187	-1.8542	-1.4896	-2.2958	-1.425	-1.9146	-2.3021	-1.2771	-1.9688	-2.0208	-1.5354	-2.4896	-1.5333	-1.4333	-2.2875	-24.031	159.001	-30.921	225.235	-10.508	122.682	276.838	235.208	273.172	163.743	259.138	280.823	215.144	-61.499	119.374	286.770	0.00078198	0.00060221	0.00011831	1446.4	1.16e-06	1.0471e-05	1438.6	388.48	2.8167e-06	5.6897e-06	438.78	148.49	130.41	44.716	1.409e-05	54.599	0.00087857	0.00088475	0.00024435	1484.7	9.4698e-06	9.3652e-06	1473.9	399.15	9.1965e-06	9.1854e-06	454.33	153.97	134.83	46.69	8.9727e-06	57.237	44.722	-25.651	55.443	-50.378	270.803	117.696	-50.403	-45.932	97.216	88.352	-46.364	-42.211	-41.166	-37.047	108.565	-37.820	-8191	255	
1017.546	1	1	0	0	0.30191	0.072737	0.42166	0.31191	0.092314	0.11149	0.2285	0.31936	0.13219	0.054321	0.11002	0.27304	0.21521	0.30696	0.09972	0.22713	-0.82292	-1.7625	-1.9729	-1.4083	-2.1896	-1.6688	-1.7458	-2.4792	-1.2792	-1.7	-2.325	-1.3667	-2.3812	-1.9813	-1.3292	-2.3333	-36.854	287.583	90.734	241.524	232.976	168.598	262.559	274.142	-40.494	277.906	-54.250	249.534	286.405	197.680	168.271	-29.635	0.00047575	0.0013174	0.00023976	1451.6	2.7436e-06	3.7359e-06	1435.6	386.38	1.142e-05	5.2456e-06	439.84	148.82	129.95	44.632	9.4185e-06	54.703	0.00081126	0.00082416	0.00022781	1479.8	8.9709e-06	9.0083e-06	1470.2	397.98	8.958e-06	9.0197e-06	453.95	153.95	134.67	46.621	8.891e-06	57.229	47.460	7.412	3.095	-50.405	16.559	63.622	-50.372	-45.867	63.146	37.788	-46.502	-42.020	-41.314	-36.916	45.879	-37.626	-8191	255	
1017.665	1	1	0	0	0.17277	0.1032	0.10894	0.12783	0.072555	0.073267	0.17883	0.40095	0.36285	0.16028	0.25791	0.34152	0.23253	0.16105	0.21654	0.23564	-1.0688	-1.75	-2.2271	-1.4792	-1.9958	-1.9312	-1.4312	-2.5521	-1.3583	-1.7042	-2.4	-1.45	-2.3792	-1.9208	-1.2167	-2.3521	208.374	280.031	228.639	-46.419	-57.915	-45.689	-63.815	248.301	107.538	-49.182	215.418	255.313	276.758	-35.810	214.971	208.913	0.0006252	0.00019292	0.00019264	1441.7	3.2477e-07	2.9102e-06	1438.9	388.01	5.0974e-06	1.8843e-06	442.16	148.67	129.82	44.617	2.3715e-06	54.75	0.0008076	0.0008159	0.00022837	1478.6	9.0552e-06	9.081e-06	1470.8	399.03	9.1845e-06	9.3352e-06	456.55	154.55	135.13	46.71	9.8136e-06	57.545	74.193	274.948	-37.641	-50.185	111.828	59.038	-50.738	-46.048	137.458	80.572	-46.672	-42.085	-41.566	-37.168	50.758	-37.734	-8191	255	
1017.761	1	1	0	0	0.041207	0.2518	0.17659	0.17721	0.31937	0.15561	0.38	0.28186	0.19635	0.18681	0.21038	0.22285	0.15527	0.069987	0.17122	0.19182	-1.1063	-1.6542	-2.2896	-1.4917	-1.95	-2.15	-1.5812	-2.5958	-1.7	-1.7062	-2.4021	-1.4646	-2.1063	-2.2479	-1.5021	-2.2646	116.606	-58.626	131.222	-43.481	-5.231	44.404	208.041	153.215	2.483	-18.136	262.229	-5.005	216.217	210.438	67.348	91.515	0.00071701	0.00091343	0.0002951	1442.7	2.9964e-07	4.9993e-06	1444.9	389.22	6.5508e-06	7.0431e-06	439.16	148.21	129.83	44.38	2.6676e-06	54.398	0.0008985	0.0009182	0.00025521	1486.7	1.0142e-05	1.0215e-05	1480.2	401.11	1.0221e-05	1.0393e-05	459	155.01	135.59	46.686	1.0443e-05	57.594	44.901	14.855	-43.331	-50.677	192.058	186.687	-50.478	-46.128	59.884	207.891	-46.481	-42.212	-41.411	-37.112	-27.610	-37.792	-8191	255	
1017.857	1	1	0	0	0.098454	0.11296	0.047354	0.19443	0.14107	0.14489	0.27213	0.10952	0.14931	0.13349	0.11724	0.14267	0.39979	0.21428	0.052736	0.073691	-1.2292	-1.4854	-2.35	-1.6437	-1.7	-1.9521	-1.4583	-2.5021	-1.5625	-1.3875	-2.3208	-1.6104	-2.0333	-2.3563	-1.5042	-2.5062	178.008	181.927	-62.925	290.492	263.970	-1.247	258.719	186.498	224.125	124.301	236.717	128.951	239.396	258.603	189.068	282.632	0.00060559	0.00071753	0.00026683	1445.2	3.0457e-06	7.3723e-06	1443.9	388.99	4.4273e-06	4.1702e-06	439.22	147.98	129.58	44.365	2.4371e-06	54.314	0.0009379	0.00095763	0.000267	1489.5	1.0495e-05	1.0486e-05	1481.5	401.6	1.0479e-05	1.0534e-05	459.79	155.05	135.67	46.749	1.0494e-05	57.712	50.248	-18.720	-1.354	-50.398	4.606	97.706	-50.469	-45.857	163.220	17.414	-46.281	-41.850	-41.477	-36.900	286.329	-37.684	-8191	255	
1017.930	1	1	0	0	0.10265	0.28882	0.20096	0.28674	0.27941	0.18084	0.52419	0.085085	0.19339	0.12789	0.040694	0.15982	0.25625	0.14773	0.12209	0.33122	-1.3208	-1.2896	-2.2167	-1.7625	-1.4562	-2.0875	-1.575	-2.2167	-1.7938	-1.4229	-2.4062	-1.7958	-1.85	-2.3	-1.525	-2.15	-22.136	55.683	211.840	231.105	140.501	120.888	238.517	-12.059	146.861	74.981	121.584	285.384	213.281	288.092	32.372	247.709	0.00062869	0.00033958	8.2234e-05	1458	8.7762e-07	1.1285e-05	1443.5	388.96	5.7266e-06	2.7767e-06	441.93	148.58	129.81	44.513	7.645e-06	54.456	0.0009413	0.00095176	0.00026463	1494.1	1.0318e-05	1.0386e-05	1481.4	401.26	1.0207e-05	1.0235e-05	459.67	154.99	135.31	46.661	1.0048e-05	57.433	31.348	61.624	50.853	-50.468	105.160	92.393	-50.562	-45.735	19.924	55.240	-46.150	-42.136	-41.272	-37.131	78.929	-37.401	-8191	255	
1018.049	1	1	0	0	0.099111	0.15897	0.41841	0.30632	0.059637	0.011471	0.17795	0.14127	0.019921	0.071453	0.19098	0.13091	0.194	0.21776	0.31736	0.22964	-1.4917	-1.2708	-2.1875	-1.8062	-1.4562	-2.1708	-1.525	-2.1792	-2.0875	-1.3583	-2.3979	-1.7896	-1.5667	-2.3792	-1.375	-2.0062	291.171	152.100	72.470	264.102	172.817	209.893	200.695	278.852	293.304	211.857	269.759	-60.449	-31.181	259.066	109.607	267.003	0.00056555	0.00035797	0.00016515	1452.1	4.1857e-06	7.9293e-06	1446.4	388.36	9.0447e-06	2.3985e-06	440.68	147.35	129.33	44.392	1.0114e-05	54.271	0.00090604	0.00091444	0.0002527	1489.3	9.8559e-06	9.8686e-06	1478.2	399.94	9.7569e-06	9.8224e-06	457.61	153.98	134.52	46.436	9.6887e-06	57.119	20.396	257.002	-30.287	-50.031	223.479	116.744	-50.499	-45.735	165.068	79.720	-46.102	-41.829	-41.124	-36.701	4.129	-37.376	-8191	255	
1018.145	1	1	0	0	0.15342	0.28342	0.08926	0.091662	0.014395	0.22774	0.43749	0.26219	0.19347	0.15265	0.11409	0.40371	0.088679	0.22029	0.18924	0.083519	-1.7625	-1.3271	-2.1708	-1.9188	-1.2042	-2.1979	-1.6583	-2.1333	-2.1583	-1.3125	-2.1063	-2.1	-1.45	-2.2938	-1.3917	-1.6625	-6.198	15.292	180.070	94.089	226.170	3.416	263.633	244.621	26.020	0.575	153.712	232.323	278.092	279.645	76.097	-10.670	0.00050816	0.00081679	0.00020471	1439.1	2.1655e-06	6.7604e-06	1432.8	389.2	3.508e-06	7.0991e-06	439.97	147.2	128.36	43.989	8.0719e-06	54.102	0.00086785	0.00087679	0.00024433	1482.8	9.6499e-06	9.6657e-06	1472.7	399.91	9.6936e-06	9.8084e-06	456.9	153.52	133.93	46.108	9.5853e-06	56.769	60.854	29.244	-18.167	-49.993	15.750	11.474	-50.435	-45.435	154.961	161.216	-46.540	-42.089	-41.189	-36.980	105.827	-37.350	-8191	255	
1018.241	1	1	0	0	0.13427	0.031925	0.055417	0.25257	0.13237	0.030233	0.16305	0.12208	0.1062	0.19348	0.21664	0.10181	0.26251	0.11965	0.24581	0.086934	-1.7833	-1.2479	-2.2104	-2.2292	-1.4771	-2.2021	-1.8833	-1.7833	-2.1375	-1.3813	-2.0417	-2.0458	-1.5438	-2.3479	-1.5104	-1.7854	229.890	184.397	63.741	259.435	195.694	7.431	219.083	262.488	6.980	264.981	223.430	-37.391	249.723	-10.504	288.710	291.140	0.00048548	0.00025258	0.00024593	1442.9	5.9966e-06	6.8942e-06	1435.5	386.93	2.8877e-06	1.2185e-06	438.74	146.88	128.12	43.958	5.4148e-06	53.755	0.00084842	0.00085342	0.00023586	1475.1	9.1652e-06	9.1947e-06	1464.2	396.97	8.9129e-06	8.9198e-06	452.81	152.16	132.77	45.726	8.598e-06	56.242	19.263	5.632	135.177	-50.398	19.809	97.045	-50.495	-45.689	269.204	137.837	-45.985	-42.187	-41.200	-36.608	67.026	-37.356	-8191	255	
1018.362	1	1	0	0	0.018027	0.064057	0.066391	0.11881	0.24781	0.082898	0.33936	0.29528	0.12284	0.31004	0.29518	0.063641	0.16496	0.22011	0.10677	0.24104	-1.9562	-1.3042	-1.7146	-2.2729	-1.2917	-2.0542	-1.8438	-1.8729	-2.4	-1.3354	-2.0687	-2.2354	-1.5771	-2.3396	-1.6896	-1.6167	37.215	-3.296	229.488	237.193	278.176	19.514	226.694	229.362	1.443	247.034	278.277	45.554	149.699	291.524	294.346	-45.214	0.00056149	0.00033999	0.00021058	1435.1	2.2743e-06	1.5178e-06	1430.1	386.38	1.5194e-06	4.9289e-06	438.24	146.33	128.11	44.068	1.0636e-05	54.217	0.00077458	0.00078589	0.0002191	1464.7	8.4487e-06	8.4735e-06	1457.3	394.69	8.3565e-06	8.3166e-06	450.16	151.12	132.24	45.619	8.2258e-06	56.063	26.504	-10.213	52.503	-50.299	-5.793	83.888	-50.205	-45.402	3.527	116.198	-46.076	-41.946	-41.234	-36.483	134.106	-37.405	-8191	255	
1018.458	1	1	0	0	0.064764	0.0094156	0.36068	0.39856	0.070123	0.03348	0.099772	0.39364	0.13488	0.15874	0.18034	0.10294	0.026586	0.2601	0.28341	0.15356	-1.9771	-1.4208	-1.6437	-2.2667	-1.2917	-2.0604	-2.0521	-1.5417	-2.3667	-1.5292	-1.7542	-2.1917	-1.4542	-2.25	-1.9333	-1.4729	158.742	200.571	258.007	214.843	25.119	-10.806	203.479	-53.521	23.379	194.708	186.770	227.013	-17.097	-46.340	17.453	-41.860	0.00041001	0.00041108	0.00014735	1440.2	4.5635e-06	2.6449e-06	1428.9	387.75	7.9038e-06	4.6903e-06	438.41	146.26	128.46	44.024	4.7497e-06	53.895	0.00074917	0.00075026	0.00021	1467.8	8.2738e-06	8.3771e-06	1455.6	394.98	8.3308e-06	8.4001e-06	450.27	151.38	132.55	45.652	8.3496e-06	56.118	31.508	-16.260	70.062	-50.050	-4.412	151.610	-50.569	-45.533	46.616	108.573	-45.751	-41.827	-41.020	-36.379	77.469	-37.172	-8191	255	
1018.554	1	1	0	0	0.37237	0.23774	0.090852	0.27153	0.031468	0.26265	0.1327	0.18345	0.27935	0.11125	0.082057	0.29901	0.18991	0.12882	0.038443	0.044964	-1.9958	-1.5792	-1.5958	-2.4625	-1.3937	-1.975	-2.3417	-1.6208	-2.0521	-1.6375	-1.6396	-2.4167	-1.5875	-2.0479	-2.05	-1.5312	289.823	255.010	203.643	214.711	56.688	68.803	240.758	252.573	37.391	93.512	-11.651	-60.161	235.722	250.185	165.419	129.053	0.0004394	0.00062824	1.3678e-05	1440.1	5.1275e-06	5.0702e-06	1430.5	385.84	5.8985e-06	3.997e-06	438.23	146.3	128.64	44.076	1.4375e-06	54.167	0.00076034	0.00077132	0.00021247	1465.8	8.3456e-06	8.3637e-06	1456	394.65	8.3106e-06	8.3912e-06	450.37	151.47	132.42	45.677	8.303e-06	56.182	62.483	-51.962	262.395	-49.957	166.361	46.072	-50.452	-45.477	1.867	141.243	-46.027	-41.783	-41.243	-36.522	36.285	-37.249	-8191	255	
1018.651	1	1	0	0	0.09905	0.084089	0.13602	0.3394	0.10788	0.17319	0.25682	0.32076	0.25575	0.15922	0.41883	0.20005	0.24611	0.33526	0.12173	0.07154	-1.8229	-1.6729	-1.3542	-2.4771	-1.4312	-1.8021	-2.275	-1.6313	-2.1479	-2.1896	-1.575	-2.5042	-1.6854	-1.8771	-2.275	-1.5354	-38.768	27.661	-44.527	263.403	207.856	123.563	244.529	289.659	126.256	92.867	-45.892	295.755	290.700	207.258	227.149	146.771	0.00034323	0.00066457	0.0002276	1443.5	1.3128e-06	8.2509e-06	1433.2	384.23	3.1663e-06	3.381e-06	437.52	146.7	128.26	44.1	1.1686e-05	53.884	0.00075832	0.00076229	0.00021132	1468.7	8.2685e-06	8.3176e-06	1456.6	394.39	8.2305e-06	8.2123e-06	450.11	151.55	132.12	45.585	8.1896e-06	56.086	51.149	33.515	22.628	-50.049	24.546	79.075	-50.201	-45.501	35.014	-44.002	-45.981	-41.610	-41.175	-36.612	114.636	-37.526	-8191	255	
1018.745	1	1	0	0	0.14004	0.14485	0.06263	0.13691	0.15951	0.050348	0.52236	0.26841	0.15924	0.27704	0.039574	0.15651	0.15217	0.26149	0.32426	0.17625	-1.8479	-1.8854	-1.3917	-2.4479	-1.5229	-1.6708	-2.6146	-1.7083	-2.0875	-1.9604	-1.7458	-2.6417	-1.7062	-1.8729	-2.3208	-1.675	80.725	234.265	196.345	240.886	217.998	-54.437	254.986	276.354	110.111	290.450	62.921	-59.444	262.357	244.988	211.397	240.563	0.00034916	0.00036359	0.00017442	1432.2	9.9851e-06	4.3663e-06	1430.8	383.28	2.8666e-06	2.178e-06	438.35	145.84	127.83	43.826	8.8388e-06	53.872	0.00074065	0.00074667	0.0002079	1461.4	8.1478e-06	8.2094e-06	1455.8	393.24	8.2176e-06	8.2386e-06	450.08	151.24	132.22	45.542	8.3531e-06	56.141	60.491	-14.675	28.150	-50.016	43.883	131.325	-50.515	-45.533	166.675	141.214	-46.066	-41.935	-41.377	-36.774	43.727	-37.743	-8191	255	
1018.841	1	1	0	0	0.23278	0.21036	0.29902	0.19926	0.1028	0.26536	0.3578	0.4172	0.17928	0.082163	0.032678	0.13782	0.21325	0.25458	0.054547	0.12926	-1.5896	-2.0708	-1.3854	-2.4375	-1.6333	-1.5146	-2.525	-1.6708	-1.9854	-2.1437	-1.4646	-2.3708	-2.0458	-1.3958	-2.2854	-1.3875	199.791	285.644	-50.374	3.744	87.901	80.508	279.028	211.421	148.988	240.117	131.453	216.778	-49.442	-35.891	-58.418	218.344	0.0006295	0.00031082	0.00022172	1435.7	7.628e-06	2.7465e-06	1426.5	383.39	6.7569e-06	8.0963e-06	436.48	145.94	128.09	43.795	5.336e-06	53.597	0.00075784	0.000757	0.00021204	1466.1	8.3242e-06	8.2862e-06	1454.6	394.02	8.2395e-06	8.2763e-06	449.5	151.39	132.25	45.616	8.3438e-06	56.02	23.849	286.663	8.440	-50.139	120.234	285.102	-50.506	-45.648	-28.280	44.743	-46.369	-41.783	-41.120	-36.786	63.558	-37.465	-8191	255	
1018.962	1	1	0	0	0.069053	0.10369	0.033521	0.092067	0.15679	0.12375	0.12374	0.12686	0.24352	0.19959	0.20832	0.24491	0.22968	0.21787	0.30895	0.16304	-1.3292	-1.9917	-1.2854	-2.2125	-1.7437	-1.3875	-2.5458	-1.6292	-1.7708	-2.0563	-1.5688	-2.2229	-2.1167	-1.5458	-2.275	-1.7188	46.514	65.650	223.696	233.813	130.194	-27.593	295.390	187.907	258.298	35.526	279.969	264.043	292.117	159.138	266.470	229.885	0.00053088	0.00050999	0.00021427	1435.7	4.1872e-06	1.0455e-05	1432.5	383.84	5.2738e-06	2.4197e-06	436.12	145.17	128.02	43.889	2.2967e-06	54.107	0.00075759	0.00076515	0.00021192	1466.9	8.2912e-06	8.3684e-06	1457.6	393.8	8.3148e-06	8.2577e-06	450.12	151.27	132.36	45.589	8.2576e-06	56.155	57.106	19.880	33.891	-50.144	-13.002	105.123	-50.334	-45.466	34.968	292.218	-45.951	-41.876	-41.373	-36.714	90.785	-37.370	-8191	255	
1019.058	1	1	0	0	0.11035	0.20433	0.1255	0.43479	0.11629	0.22754	0.12833	0.20152	0.044506	0.2537	0.11715	0.24938	0.20994	0.1405	0.23653	0.38984	-1.2188	-2.1917	-1.4208	-2.3208	-1.8854	-1.4417	-2.4958	-1.8542	-1.4417	-2.2958	-1.3937	-2.1958	-2.2583	-1.6021	-2.125	-1.7125	9.185	-30.129	-47.452	216.398	231.603	14.360	-40.725	225.246	223.205	255.225	260.487	257.699	190.496	-45.315	125.469	287.835	0.00029662	0.00043785	0.00022953	1439.7	2.1939e-06	6.309e-06	1426	384.17	7.8103e-06	4.6859e-06	436.83	147.54	128.42	43.964	1.0549e-05	53.847	0.00075506	0.00075278	0.00020915	1467	8.2247e-06	8.2155e-06	1458	394.22	8.2051e-06	8.2109e-06	450.52	151.57	132.39	45.612	8.1987e-06	56.105	25.226	2.042	-16.432	-50.221	122.517	83.212	-50.302	-45.823	133.174	20.648	-46.464	-41.685	-41.338	-36.642	86.736	-37.552	-8191	255	
1019.154	1	1	0	0	0.26118	0.16803	0.2339	0.12915	0.24727	0.085628	0.17975	0.28711	0.10789	0.067604	0.29748	0.27601	0.18362	0.22024	0.097404	0.089945	-1.1292	-2.2833	-1.2396	-2.1312	-2.3083	-1.2729	-2.3563	-2.0396	-1.4146	-2.3438	-1.7667	-1.975	-2.2521	-1.4646	-2.225	-1.9104	200.286	177.901	108.228	45.518	228.908	19.228	230.690	268.411	20.338	280.676	280.651	-47.267	115.173	265.048	13.750	259.161	0.00052463	0.00094715	0.0001862	1436.7	5.089e-06	5.4287e-06	1433.7	384.77	8.7159e-06	5.5299e-06	437.86	145.88	128.11	43.996	5.3696e-06	53.817	0.00073814	0.00074417	0.00020622	1466.2	8.0946e-06	8.1111e-06	1457.6	393.81	8.0793e-06	8.2053e-06	450.32	151.29	132.39	45.608	8.287e-06	56.141	29.496	25.560	-15.359	-50.107	12.847	109.078	-50.219	-45.596	119.730	116.513	-46.214	-41.747	-41.550	-36.491	75.643	-37.583	-8191	255	
1019.226	1	1	0	0	0.20274	0.053342	0.31156	0.30816	0.066624	0.29503	0.11624	0.082036	0.20051	0.10016	0.37526	0.1609	0.32225	0.23528	0.26512	0.2652	-0.99583	-2.4562	-1.4604	-1.8312	-2.1229	-1.2646	-2.4125	-2.0396	-1.4208	-2.2833	-1.6646	-1.8646	-2.3063	-1.4979	-1.9438	-2.2104	169.370	174.358	172.020	254.329	100.398	115.107	193.796	216.973	35.767	-27.286	178.353	24.291	265.256	-53.161	77.208	194.420	0.00072771	0.00035073	6.2375e-05	1442.8	5.2034e-06	7.1357e-06	1442.4	386.41	4.9855e-06	3.9293e-06	437.9	146.49	128.1	43.967	4.3273e-06	53.764	0.0007587	0.00076742	0.00021216	1466.6	8.3819e-06	8.4172e-06	1461.2	395.08	8.3117e-06	8.3196e-06	449.06	151.73	132.51	45.636	8.0597e-06	56.153	13.554	63.627	40.466	-50.123	42.876	79.796	-50.187	-45.609	6.589	163.928	-46.023	-41.689	-41.532	-36.897	95.210	-37.819	-8191	255	
1019.346	1	1	0	0	0.016969	0.18531	0.26482	0.28796	0.14878	0.19923	0.27594	0.046261	0.30825	0.010858	0.1724	0.39403	0.11419	0.25697	0.083652	0.28934	-0.97708	-2.0771	-1.5604	-1.5854	-2.2125	-1.3771	-2.1271	-2.1875	-1.4438	-2.1958	-1.8563	-1.6938	-2.3979	-1.3937	-2.0583	-2.2167	142.076	191.055	60.002	275.202	272.270	205.455	243.607	-61.024	134.114	147.445	243.330	253.214	285.835	272.738	197.548	212.527	0.00054131	6.8858e-05	0.00016783	1443.7	2.3814e-06	4.4937e-06	1430.9	383.62	2.2397e-06	5.397e-06	437.86	147.23	128.97	44.301	5.7445e-06	54.399	0.00072827	0.00072686	0.00020159	1465.8	7.8516e-06	7.8224e-06	1454.8	394.02	7.7534e-06	7.7325e-06	448.95	151.95	132.4	45.765	7.4975e-06	56.172	65.165	132.894	27.553	-50.151	61.930	85.748	-50.164	-45.453	-49.728	177.617	-46.169	-41.737	-41.199	-36.649	127.879	-37.628	-8191	255	
1019.442	1	1	0	0	0.32274	0.22969	0.11015	0.11292	0.16645	0.14488	0.3023	0.26421	0.19008	0.035249	0.054624	0.23312	0.093995	0.11508	0.1002	0.16083	-0.7875	-1.9042	-1.8188	-1.6021	-2.1667	-1.4625	-2.05	-2.2458	-1.2917	-2.1021	-2	-1.6375	-2.2625	-1.6125	-1.5854	-2.4208	-28.077	287.561	-50.567	192.027	188.831	-42.317	258.344	250.836	296.454	205.147	286.798	257.266	10.779	236.594	-56.881	233.971	0.00053249	0.00085086	0.00012544	1431.2	9.3173e-07	7.3044e-06	1429.6	383.58	3.619e-06	3.0005e-06	437.24	147.43	129.65	44.641	4.7422e-06	54.783	0.00067909	0.00068254	0.00018732	1458.1	7.4558e-06	7.4428e-06	1451.5	392.74	7.4923e-06	7.5872e-06	448.16	151.78	132.57	45.837	7.6324e-06	56.271	43.740	-13.498	28.656	-50.114	110.729	106.386	-50.291	-45.485	60.750	52.500	-46.450	-41.749	-41.328	-36.839	30.713	-37.118	-8191	255	
1019.539	1	1	0	0	0.11024	0.089115	0.061358	0.16923	0.14719	0.11579	0.11837	0.28863	0.33889	0.20817	0.10005	0.18181	0.11715	0.38895	0.18207	0.034184	-0.91667	-2.0563	-1.6562	-1.5458	-2.1458	-1.4625	-1.9125	-2.4437	-1.2167	-2.0167	-2.2104	-1.5771	-2.3667	-1.6833	-1.6229	-2.5625	59.199	221.577	27.660	253.681	143.416	53.510	-63.078	198.620	-59.376	-53.835	-4.872	292.600	221.506	197.184	3.365	-35.675	0.00041958	0.00097644	0.00016425	1446.3	3.4376e-06	5.4974e-06	1442	388.55	4.5955e-06	4.1801e-06	440.46	148.23	130.11	44.572	6.7362e-06	54.757	0.00070198	0.00070924	0.00019717	1462.1	7.8016e-06	7.7821e-06	1454.6	395.31	7.7932e-06	7.8148e-06	448.87	152.09	132.93	45.783	7.7925e-06	56.331	53.337	-26.167	287.196	-50.024	135.688	14.996	-50.144	-45.539	-14.972	163.963	-45.937	-41.413	-40.959	-36.453	13.214	-37.481	-8191	255	
1019.635	1	1	0	0	0.11181	0.14954	0.092018	0.20305	0.39712	0.21589	0.2224	0.36482	0.25537	0.19142	0.24759	0.21167	0.15915	0.2939	0.29435	0.15197	-1.1083	-1.8833	-1.9583	-1.5812	-2.2188	-1.9271	-1.8	-2.6188	-1.3542	-1.6271	-2.3146	-1.4458	-2.2354	-1.7667	-1.3	-2.3396	-22.756	142.712	137.366	282.266	278.674	230.510	227.986	274.929	148.239	283.878	248.023	283.491	195.127	235.538	37.011	174.177	0.00050241	0.00058691	0.0001621	1446.4	7.0351e-06	7.4674e-06	1441.2	389.84	9.1144e-07	3.2006e-06	442.19	148.31	130.36	44.538	1.0762e-05	54.827	0.00071178	0.00070744	0.00019696	1463.1	7.6945e-06	7.7808e-06	1456.3	395.06	7.7591e-06	7.7844e-06	450.12	151.75	132.83	45.815	7.744e-06	56.362	44.105	-8.691	15.084	-50.009	3.532	145.568	-50.023	-45.122	190.082	-0.298	-46.001	-41.395	-40.920	-36.536	64.928	-37.171	-8191	255	
1019.754	1	1	0	0	0.033174	0.062321	0.13797	0.097433	0.16911	0.12345	0.3	0.50192	0.14088	0.17409	0.23666	0.32978	0.22526	0.11969	0.24012	0.26264	-1.2771	-1.7708	-2.2292	-1.2792	-2.0229	-1.8646	-1.7125	-2.3667	-1.5	-1.6333	-2.4208	-1.6542	-2.1312	-1.9958	-1.3271	-2.3458	127.294	19.462	70.925	225.924	61.662	32.670	244.670	241.131	84.367	78.638	276.016	-41.065	-31.692	204.502	97.708	293.719	0.00073551	0.00062786	0.00011923	1448.8	3.6849e-06	3.2145e-06	1439.8	388.33	1.0852e-06	2.3225e-06	442.72	147.97	129.79	44.61	1.2444e-05	54.443	0.00070729	0.00071189	0.00019868	1465.6	7.7955e-06	7.7973e-06	1456.5	394.29	7.8045e-06	7.8135e-06	450.26	151.71	132.82	45.821	7.8368e-06	56.23	19.710	54.447	85.487	-49.943	29.865	143.020	-49.900	-45.347	52.013	231.312	-45.840	-41.352	-40.962	-36.578	99.837	-37.286	-8191	255	
1019.825	1	1	0	0	0.065131	0.035325	0.20438	0.14312	0.18805	0.079882	0.19215	0.090218	0.22295	0.1143	0.12359	0.17426	0.11807	0.079372	0.11365	0.1913	-1.1646	-1.3646	-2.0625	-1.5771	-1.8854	-2.0417	-1.5688	-2.5687	-1.625	-1.3708	-2.3521	-1.4396	-2.0833	-2.2333	-1.25	-2.3125	196.511	231.901	212.322	290.789	24.540	85.680	173.267	-26.497	11.306	220.630	-55.361	244.094	214.546	238.509	-17.480	242.225	0.00067019	0.0012724	0.00010307	1444.4	2.3649e-06	1.2238e-05	1439	388.83	1.6745e-06	2.5066e-06	441.49	147.73	129.56	44.324	5.5073e-06	54.395	0.00071642	0.0007217	0.00020111	1464.6	7.949e-06	7.9448e-06	1457.6	394.93	7.9107e-06	7.9122e-06	449.99	151.74	132.6	45.794	7.9167e-06	56.157	41.823	24.877	266.577	-49.790	136.549	46.686	-50.135	-45.175	88.616	51.019	-45.830	-41.608	-40.828	-36.895	91.003	-37.315	-8191	255	
1019.923	1	1	0	0	0.14844	0.11462	0.14468	0.16648	0.16647	0.0088485	0.068323	0.1437	0.24872	0.13149	0.097759	0.3658	0.13262	0.1533	0.10762	0.29487	-1.3771	-1.625	-2.2083	-1.5271	-1.6646	-2.0708	-1.6812	-2.3958	-1.8875	-1.3229	-2.4271	-1.6271	-1.8708	-2.3604	-1.2521	-2.2021	272.451	-39.855	-52.164	116.839	-49.813	69.635	6.254	266.150	119.639	202.086	-63.824	264.799	-39.461	170.335	240.669	233.285	0.00050994	0.00050857	0.00035051	1445.5	8.4884e-06	5.5144e-06	1437.8	388.52	8.3393e-06	7.2903e-07	439.35	148.51	129.24	44.417	1.1655e-05	54.595	0.00072062	0.00071956	0.00020095	1464.4	7.8644e-06	7.9341e-06	1455.3	394.82	7.9098e-06	7.9124e-06	449.7	151.99	132.52	45.772	7.9321e-06	56.349	52.327	6.860	35.093	-50.150	85.474	121.447	-50.756	-46.027	121.359	51.417	-46.666	-42.494	-41.679	-37.155	67.443	-37.841	-8191	255	
1020.042	1	1	0	0	0.1208	0.059143	0.14552	0.22284	0.10881	0.10361	0.099446	0.23824	0.31423	0.13135	0.093191	0.31915	0.23448	0.27133	0.12468	0.20959	-1.5229	-1.1896	-2.1146	-1.7271	-1.4146	-2.2208	-1.5625	-2.2938	-1.8833	-1.3563	-2.2896	-1.6625	-1.8083	-2.4979	-1.2396	-2.0854	-19.636	87.039	82.079	210.146	7.006	240.435	187.524	260.768	-25.805	120.221	280.196	-59.987	273.943	25.558	252.132	49.101	0.0006689	0.00080645	0.00032008	1450.9	5.0444e-06	6.1878e-06	1439.6	388.33	7.4907e-06	9.2201e-06	440.35	148.23	130.15	44.427	6.6372e-06	54.456	0.0007216	0.00072991	0.00020119	1464.3	7.9719e-06	8.0498e-06	1457.9	394.39	7.9946e-06	8.1028e-06	449.53	152.1	132.65	45.741	7.9301e-06	56.274	46.918	9.386	25.470	-50.854	99.741	68.200	-50.997	-46.129	-38.960	81.575	-46.846	-42.369	-41.824	-37.362	104.887	-37.801	-8191	255	
1020.138	1	1	0	0	0.21386	0.23445	0.087619	0.30072	0.3715	0.19539	0.36445	0.3028	0.13739	0.16655	0.16062	0.31186	0.17551	0.22589	0.34796	0.31822	-1.5771	-1.2333	-2.2687	-1.7437	-1.3563	-2.1271	-1.3958	-2.2104	-1.9208	-1.2687	-2.3292	-1.8333	-1.7458	-2.275	-1.2771	-1.9771	194.499	-62.371	218.000	273.657	104.744	43.270	167.026	225.850	-46.647	218.644	216.802	230.362	-62.211	238.129	97.876	247.702	0.0007501	0.000399	8.6001e-05	1443.4	2.2709e-06	1.6116e-06	1443.6	389.2	7.9451e-06	4.0274e-06	442.86	148	129.18	44.226	7.2386e-06	54.671	0.00071405	0.00072325	0.0002013	1460.7	7.8384e-06	7.8469e-06	1454.1	394.19	7.7647e-06	7.7549e-06	449.45	151.58	132.33	45.651	7.7422e-06	56.162	60.430	257.183	68.121	-50.760	48.080	114.328	-50.962	-46.036	13.007	11.379	-46.849	-42.276	-41.732	-37.419	113.096	-37.711	-8191	255	
1020.234	1	1	0	0	0.11837	0.15575	0.18148	0.22869	0.20136	0.11212	0.43086	0.2746	0.17714	0.18122	0.097457	0.020898	0.19098	0.051754	0.081804	0.33805	-1.7062	-1.2	-2.0312	-1.8458	-1.3813	-2.3729	-1.6333	-1.9896	-2.1583	-1.5396	-2.1188	-2.0438	-1.5479	-2.3146	-1.4583	-1.7292	220.361	97.824	111.985	219.165	74.210	-23.873	239.562	233.939	293.427	219.305	-53.616	69.890	290.251	271.596	240.468	220.746	0.00031415	0.00063369	0.0002584	1450	2.8348e-06	4.731e-06	1442.4	388.28	3.0561e-06	4.326e-06	439.07	147.17	129.55	44.467	1.0352e-05	54.402	0.00070596	0.00071561	0.00019857	1462.1	7.8521e-06	7.8408e-06	1454.8	394.36	7.8593e-06	7.847e-06	449.07	151.17	132.3	45.73	7.8304e-06	56.03	54.130	-36.452	41.377	-50.792	55.100	63.888	-50.799	-45.923	291.746	82.043	-46.699	-42.330	-41.740	-37.274	21.897	-37.857	-8191	255	
1020.331	1	1	0	0	0.10774	0.045859	0.27812	0.24029	0.33449	0.21497	0.25051	0.24727	0.22125	0.11392	0.17475	0.14713	0.30324	0.27917	0.30147	0.2482	-1.8021	-1.2313	-1.8917	-2.0646	-1.3917	-2.225	-1.6958	-1.7792	-2.2604	-1.3958	-2.1937	-2.1229	-1.6208	-2.5125	-1.9229	-1.5771	223.684	173.135	208.445	267.255	251.575	-63.775	270.198	214.069	68.839	39.969	-52.850	9.100	-48.076	267.267	-39.752	262.715	0.00065569	0.0002756	0.00021297	1444.8	7.1602e-06	4.2403e-06	1434.7	387.72	5.2729e-06	4.339e-06	440.71	147.97	129.4	44.296	2.4369e-06	54.658	0.00070898	0.00071898	0.000198	1459.6	7.7688e-06	7.8263e-06	1451.5	393.52	7.7598e-06	7.7394e-06	448.82	151.39	132.35	45.661	7.6862e-06	56.046	19.915	15.253	40.130	-50.563	85.572	186.020	-50.600	-45.993	143.782	106.080	-46.727	-42.167	-41.639	-36.869	51.561	-37.964	-8191	255	
1020.451	1	1	0	0	0.031147	0.32106	0.2064	0.028814	0.19874	0.11225	0.20308	0.27755	0.15844	0.07752	0.2756	0.13431	0.23736	0.37867	0.10835	0.36167	-1.7729	-1.3188	-1.9625	-2.4125	-1.2021	-2.0604	-1.95	-1.6	-2.2521	-1.4021	-1.8583	-2.3333	-1.4021	-2.2375	-1.8292	-1.5375	-37.072	256.772	261.298	159.875	148.655	197.206	235.485	206.716	79.155	40.422	262.572	251.537	229.778	261.664	96.784	215.611	0.00057744	0.00031019	0.0001334	1445.2	1.8834e-06	4.6687e-06	1433.8	388.4	3.9489e-06	1.0185e-05	441.96	147.65	129.52	44.478	8.2682e-06	54.38	0.00069458	0.0006949	0.00019454	1461.3	7.6202e-06	7.6395e-06	1450.7	393.37	7.5927e-06	7.5578e-06	448.63	151.01	132.13	45.648	7.6279e-06	56.079	52.213	89.423	-2.639	-50.295	138.397	132.792	-50.778	-45.708	84.605	119.185	-46.488	-42.145	-41.384	-37.274	88.575	-37.710	-8191	255	
1020.523	1	1	0	0	0.16237	0.20662	0.38789	0.21986	0.16606	0.18467	0.15885	0.056035	0.11027	0.16522	0.21555	0.31568	0.072579	0.38134	0.15134	0.039608	-2.0896	-1.1792	-1.575	-2.4333	-1.2125	-2.0875	-2.025	-1.45	-2	-1.4083	-1.7229	-2.3542	-1.5042	-2.2875	-1.9104	-1.3604	-61.217	119.801	-25.265	205.098	206.422	129.354	177.765	212.597	131.006	175.346	-49.883	-56.471	292.005	280.016	126.308	204.393	0.00038541	0.00040742	3.8761e-05	1445.9	6.179e-06	1.1602e-05	1443.2	386.94	4.7646e-06	3.6442e-06	438.03	148.12	129.55	44.289	5.7328e-06	54.539	0.00070026	0.00070743	0.00019674	1462.8	7.7235e-06	7.797e-06	1454	393.34	7.7391e-06	7.8429e-06	448.52	151.37	132.1	45.554	7.75e-06	56.116	36.273	5.407	37.675	-50.415	43.524	77.529	-50.643	-45.656	202.894	117.860	-46.442	-42.454	-41.264	-36.942	-36.427	-37.827	-8191	255	
1020.643	1	1	0	0	0.13312	0.38206	0.17009	0.47902	0.037529	0.046329	0.12991	0.35858	0.16755	0.073876	0.17396	0.1368	0.14094	0.27618	0.082356	0.22311	-1.6833	-1.4396	-1.325	-2.6479	-1.2479	-1.8625	-2.175	-1.4771	-2.1417	-1.5896	-1.6917	-2.2896	-1.3813	-1.9771	-1.9729	-1.5812	4.857	182.318	31.403	250.607	288.059	147.097	215.960	218.950	-5.451	204.016	-61.006	174.591	22.477	234.189	93.397	190.698	0.00044584	0.00077	0.00015892	1445.8	1.0684e-06	7.4648e-06	1442.8	388.29	4.8977e-06	3.8311e-06	440.93	147.56	129.35	44.579	5.9867e-06	54.414	0.00070396	0.00071019	0.00019738	1463	7.7536e-06	7.7881e-06	1454.8	393.64	7.783e-06	7.7555e-06	448.17	151.18	132.13	45.674	7.7479e-06	55.989	42.005	1.576	-0.486	-50.335	47.540	83.899	-50.763	-45.746	55.531	27.735	-46.280	-41.750	-41.570	-36.739	140.185	-37.633	-8191	255	
1020.738	1	1	0	0	0.074607	0.080884	0.096701	0.38519	0.022543	0.16057	0.22242	0.48032	0.12053	0.17569	0.29123	0.14091	0.24048	0.32324	0.080497	0.33233	-1.9833	-1.8396	-1.3917	-2.5146	-1.4667	-1.6521	-2.4104	-1.5646	-2.2271	-1.8271	-1.5333	-2.2375	-1.6562	-1.6792	-2.1792	-1.4188	203.347	204.406	-46.972	267.328	-17.818	252.510	253.944	246.350	34.196	51.505	262.815	-44.420	276.975	235.377	250.308	162.489	0.00028154	0.0010463	0.00015981	1451.5	5.5309e-06	8.3855e-06	1441.5	388.61	7.8071e-06	2.0814e-06	440.38	147.3	129.52	44.486	5.4123e-06	54.344	0.00070409	0.00070615	0.00019766	1462.5	7.749e-06	7.8209e-06	1452.9	393.3	7.8225e-06	7.8965e-06	449.28	150.95	132.19	45.554	7.8242e-06	56.028	45.677	-10.996	79.235	-50.372	-18.375	42.655	-50.604	-45.886	120.454	14.717	-46.355	-41.985	-41.522	-36.648	100.538	-37.617	-8191	255	
1020.834	1	1	0	0	0.036649	0.15922	0.17717	0.29518	0.089358	0.39109	0.18373	0.18253	0.062747	0.23318	0.41767	0.20265	0.11038	0.14233	0.064104	0.048568	-1.6521	-1.9312	-1.2313	-2.2646	-1.6417	-1.4937	-2.5187	-1.5917	-1.9708	-2.0646	-1.4958	-2.2792	-1.8375	-1.6938	-2.1521	-1.6437	1.676	50.371	279.672	234.377	-63.374	286.035	130.912	243.987	268.932	18.731	250.816	274.227	247.478	5.581	110.974	-42.189	0.00052656	0.00062293	3.1007e-05	1443.6	2.2673e-06	6.8084e-06	1438.5	388.3	3.1038e-06	8.0394e-06	441.46	147.71	128.93	44.24	4.4416e-06	54.593	0.00071254	0.00071998	0.00020147	1462	7.8171e-06	7.884e-06	1452.5	393.69	7.877e-06	7.8419e-06	448.71	151.32	132.16	45.584	7.7871e-06	56.096	3.081	54.442	172.245	-50.343	88.791	153.982	-50.579	-45.945	155.176	30.142	-46.202	-41.904	-41.428	-36.717	151.490	-37.716	-8191	255	
1020.930	1	1	0	0	0.14724	0.2034	0.086417	0.14111	0.18246	0.078857	0.48244	0.073397	0.12523	0.32595	0.02384	0.22917	0.20192	0.072409	0.17292	0.2298	-1.4333	-1.9521	-1.1938	-2.3375	-1.7	-1.4042	-2.3375	-1.5208	-1.7271	-1.9937	-1.4854	-2.1854	-1.9021	-1.525	-2.35	-1.5396	32.528	117.882	42.874	-59.569	-61.525	120.574	230.101	126.060	70.026	202.787	92.357	272.321	234.991	216.426	158.155	212.666	0.00055898	0.00029103	0.00019947	1449.2	4.0317e-06	3.6783e-06	1437.6	388.73	9.421e-07	1.2567e-05	439.96	148.12	129.2	44.228	3.6478e-06	54.605	0.00070724	0.00070887	0.00019721	1461.7	7.6984e-06	7.7406e-06	1453.3	393.44	7.663e-06	7.6777e-06	448.53	151.22	131.83	45.472	7.6309e-06	56.04	57.050	-38.419	-11.089	-50.426	18.711	216.281	-50.336	-45.623	99.871	87.394	-46.577	-41.973	-41.565	-37.042	131.751	-37.648	-8191	255	
1021.026	1	1	0	0	0.074732	0.32707	0.096326	0.20204	0.39059	0.092529	0.23569	0.26648	0.058002	0.20766	0.263	0.37606	0.37791	0.10963	0.073343	0.22002	-1.2833	-2.1146	-1.1875	-2.2333	-1.9167	-1.3771	-2.6125	-1.5667	-1.5021	-2.1521	-1.6833	-2.2396	-2.0542	-1.5063	-2.1354	-1.7729	261.882	198.452	231.656	-27.224	251.106	201.777	291.277	216.773	225.909	295.668	281.713	190.765	248.571	-34.633	46.040	-11.303	0.00040464	0.00081068	4.6577e-05	1447.1	4.6846e-06	6.5851e-06	1440.7	388.66	6.4204e-06	3.2936e-06	440.47	147.37	129.09	44.319	4.6275e-06	54.32	0.00069346	0.00069786	0.00019512	1460.3	7.5971e-06	7.6076e-06	1452.6	393.24	7.5864e-06	7.5305e-06	447.53	150.91	131.6	45.515	7.5082e-06	55.877	50.833	278.323	125.244	-50.293	53.393	97.881	-50.434	-45.659	-13.348	104.245	-46.239	-41.925	-41.731	-36.641	36.604	-37.798	-8191	255	
1021.122	1	1	0	0	0.1053	0.11015	0.24303	0.11024	0.2807	0.11495	0.30599	0.47047	0.12357	0.16158	0.39522	0.098069	0.04212	0.34514	0.225	0.37171	-1.2917	-2.2958	-1.3375	-2.075	-2.0312	-1.4042	-2.5083	-1.825	-1.3875	-2.4021	-1.5896	-1.9688	-2.1854	-1.2604	-2.2271	-1.9792	78.858	260.015	194.366	16.335	157.709	61.414	259.371	243.000	125.789	160.899	276.144	243.092	25.625	237.988	237.206	194.360	0.00042554	0.0010802	0.00020765	1447.2	2.0321e-06	6.2895e-06	1438.2	388.39	7.481e-06	3.9696e-06	440.53	147.85	129.21	44.475	3.8293e-06	54.683	0.00068134	0.00068307	0.00019085	1460.5	7.5222e-06	7.5765e-06	1451.6	392.77	7.6013e-06	7.6015e-06	447.7	151.06	131.73	45.467	7.5527e-06	55.994	38.762	16.159	50.779	-50.082	111.480	90.757	-50.392	-45.685	94.179	103.164	-46.301	-41.842	-41.423	-36.802	-15.776	-37.412	-8191	255	
1021.219	1	1	0	0	0.054301	0.27664	0.064848	0.28578	0.20606	0.15003	0.14302	0.30736	0.3255	0.21867	0.12497	0.11259	0.32579	0.26746	0.17005	0.37315	-0.98333	-2.2333	-1.35	-2.0271	-2.0229	-1.1979	-2.5396	-1.8937	-1.2667	-2.2583	-1.575	-1.9854	-2.2333	-1.45	-2.0833	-2.0396	82.558	293.915	-59.673	219.559	105.396	247.414	-59.604	180.539	144.551	204.464	141.447	185.295	258.054	277.955	-43.257	234.898	0.00082441	0.00093057	0.00013989	1442.4	1.0793e-06	6.1541e-06	1444.7	388.09	5.4094e-06	8.9065e-06	440.01	147.98	129.3	44.632	7.667e-06	54.628	0.00068577	0.00068657	0.00019051	1456.9	7.449e-06	7.443e-06	1453	392.78	7.3554e-06	7.3794e-06	446.71	150.9	131.67	45.527	7.2795e-06	55.913	36.613	-4.044	230.157	-50.179	28.071	78.838	-50.280	-45.711	114.563	103.585	-46.160	-41.979	-41.329	-36.563	131.845	-37.489	-8191	255	
1021.315	1	1	0	0	0.22975	0.10391	0.20241	0.26195	0.11517	0.26492	0.35186	0.38384	0.29585	0.030905	0.21049	0.36148	0.1488	0.2541	0.18256	0.19415	-1.0438	-2.2521	-1.5812	-2.1437	-1.9958	-1.3833	-2.1688	-2.3438	-1.3479	-2.1792	-1.8729	-1.9042	-2.3083	-1.5438	-1.9354	-2.125	119.925	285.702	69.979	253.213	74.775	-10.521	220.845	261.079	7.387	118.547	42.011	278.410	272.761	287.097	69.450	251.087	0.00049027	0.00031126	0.00017987	1443.4	5.8105e-06	6.0558e-06	1436.8	388.19	6.0414e-06	7.38e-06	440.42	148.3	129.35	44.304	6.5846e-06	54.202	0.00066037	0.00066454	0.00018489	1455.3	7.3169e-06	7.3363e-06	1448.4	392.71	7.2823e-06	7.3452e-06	446.62	151.03	131.78	45.437	7.4149e-06	55.798	73.333	-32.989	33.377	-50.235	0.094	122.068	-50.417	-45.766	4.569	58.149	-46.553	-41.951	-41.414	-36.941	2.472	-37.856	-8191	255	
1021.411	1	1	0	0	0.087741	0.10439	0.16686	0.20634	0.18544	0.29917	0.17255	0.48147	0.29492	0.16697	0.18773	0.1225	0.24923	0.1532	0.12873	0.3172	-1.0562	-2.0938	-1.6729	-1.65	-2.1604	-1.2958	-1.9604	-2.0792	-1.325	-2.2208	-1.9542	-1.475	-2.5729	-1.4958	-1.7958	-2.1604	-35.226	236.406	153.739	225.684	133.238	147.447	149.735	252.773	159.821	77.800	289.549	221.362	247.180	-18.155	128.724	268.758	0.00067978	0.00066774	0.00019222	1442	6.44e-06	4.9333e-06	1437.6	389	1.532e-06	6.0521e-06	440.37	147.55	129.62	44.479	4.7037e-06	54.406	0.00067471	0.00068278	0.00019025	1455.3	7.4582e-06	7.4461e-06	1449.5	392.68	7.4613e-06	7.4243e-06	446.53	150.7	131.84	45.467	7.3993e-06	55.875	12.334	-2.422	-7.138	-50.089	3.192	54.293	-50.375	-45.755	-57.851	112.434	-46.310	-41.714	-41.147	-37.157	81.441	-37.619	-8191	255	
1021.532	1	1	0	0	0.28409	0.14907	0.15979	0.44874	0.19424	0.23889	0.34484	0.45132	0.28516	0.30294	0.2418	0.050647	0.18476	0.21083	0.034775	0.10411	-0.99792	-2.1021	-1.6521	-1.7146	-2.2708	-1.5479	-2.05	-2.3583	-1.6021	-1.9562	-2.0604	-1.4417	-2.3125	-1.7417	-1.6708	-2.5312	260.428	14.494	196.811	249.158	31.029	127.583	218.089	239.630	134.881	197.061	-47.403	91.015	218.448	221.973	151.706	198.179	0.0003572	0.0012421	7.1862e-05	1439.8	3.3133e-06	1.1309e-05	1442.3	387.65	7.303e-06	3.2775e-06	440.22	147.91	128.78	44.256	8.921e-06	54.455	0.00067141	0.00067576	0.00018696	1456.1	7.3627e-06	7.4049e-06	1451.1	392.21	7.3228e-06	7.3904e-06	446.88	150.78	131.74	45.466	7.3974e-06	55.948	45.304	30.441	25.507	-50.119	39.501	110.304	-50.493	-45.794	122.124	106.207	-46.345	-41.894	-41.191	-36.809	62.787	-37.415	-8191	255	
1021.628	1	1	0	0	0.17599	0.082833	0.07829	0.19739	0.12057	0.10093	0.30333	0.29177	0.27086	0.09528	0.069709	0.13729	0.3194	0.13824	0.24103	0.30129	-0.95625	-2.0854	-1.9458	-1.5396	-2.1188	-1.7208	-1.9042	-2.5917	-1.3375	-1.9646	-2.1312	-1.5667	-2.4771	-2.05	-1.6104	-2.5625	92.912	148.981	70.727	224.009	172.490	294.754	236.899	261.725	241.067	94.149	-11.207	-38.969	-62.553	264.379	205.597	221.645	0.00015824	0.00034501	5.6702e-05	1446.7	8.0216e-06	3.8384e-06	1439.2	387.75	5.685e-06	6.973e-06	440.36	148.31	129.41	44.422	4.3252e-06	54.493	0.00067525	0.00067722	0.00018772	1457.9	7.45e-06	7.3772e-06	1449.4	393.09	7.4484e-06	7.5207e-06	447.1	151.19	131.93	45.552	7.4235e-06	55.889	59.097	26.449	-42.813	-50.167	187.343	35.316	-50.350	-45.582	63.023	48.694	-46.307	-41.747	-41.167	-36.981	116.414	-37.715	-8191	255	
1021.724	1	1	0	0	0.20836	0.37443	0.21019	0.21897	0.20173	0.11227	0.43192	0.2288	0.25557	0.16087	0.22396	0.1429	0.18746	0.24297	0.029753	0.22459	-1.0667	-1.8396	-2.1042	-1.5438	-2.1979	-1.7917	-1.7646	-2.5146	-1.575	-1.6063	-2.4562	-1.6271	-2.3167	-2.0438	-1.4583	-2.3292	99.400	257.831	282.118	292.644	206.332	195.188	183.947	255.702	217.578	134.097	267.240	-11.864	135.566	279.285	160.352	230.886	0.00046493	0.00068414	0.00011015	1443.2	9.5323e-06	3.4117e-06	1438.6	386.72	2.5825e-06	6.6166e-06	439.86	148.16	129.09	44.302	5.3377e-07	54.438	0.00066923	0.00067538	0.00018751	1456.8	7.3562e-06	7.4144e-06	1450.3	392.3	7.3646e-06	7.4694e-06	447.35	150.89	131.71	45.449	7.4255e-06	55.975	39.192	270.760	85.864	-50.266	77.164	127.511	-50.016	-45.615	106.738	132.866	-46.361	-41.912	-41.425	-36.925	-18.547	-38.057	-8191	255	
1021.820	1	1	0	0	0.30065	0.017291	0.12038	0.2352	0.067271	0.06446	0.38789	0.33114	0.1596	0.088304	0.16283	0.17555	0.24991	0.079716	0.18466	0.13556	-1.3	-1.7646	-1.9958	-1.5604	-2.0896	-1.9958	-1.6792	-2.425	-1.5792	-1.5708	-2.3729	-1.4937	-2.1063	-2.1479	-1.4354	-2.3625	255.414	295.265	-34.800	223.543	275.119	202.479	213.674	243.240	-48.131	53.383	237.365	-10.421	-41.902	241.342	197.036	290.413	0.00055556	0.00067818	0.00013706	1444.4	4.4856e-06	3.2862e-06	1435.6	387.57	7.1937e-06	5.736e-06	438.71	148.54	129.52	44.319	1.9824e-06	54.355	0.00067717	0.00067569	0.00018894	1456.7	7.3671e-06	7.4289e-06	1447.6	392.27	7.3588e-06	7.399e-06	446.25	150.94	132.06	45.477	7.3951e-06	55.887	56.575	-12.336	123.433	-50.341	-47.051	105.764	-50.486	-45.597	47.162	125.466	-46.218	-41.908	-41.329	-36.935	133.155	-37.512	-8191	255	
1021.914	1	1	0	0	0.30614	0.10318	0.070529	0.15197	0.11801	0.11597	0.28404	0.1783	0.123	0.068031	0.36901	0.13536	0.3345	0.15153	0.19022	0.16598	-1.3146	-1.6063	-2.2792	-1.5729	-1.8271	-2.1354	-1.5292	-2.6146	-1.7104	-1.5438	-2.5104	-1.5417	-2.0542	-2.2188	-1.3042	-2.3896	166.796	147.894	258.998	258.256	6.533	257.060	209.701	-44.576	76.073	66.946	259.994	-18.558	279.480	-52.202	5.947	216.515	0.00039212	0.00063235	0.00028712	1437.6	3.8714e-06	1.0617e-05	1431.8	386.95	4.5283e-06	2.3987e-06	441.09	147.63	129.76	44.372	2.8108e-06	54.507	0.00066617	0.00067337	0.00018731	1454.5	7.3053e-06	7.3962e-06	1446.5	392.08	7.304e-06	7.3307e-06	447.72	150.79	131.9	45.508	7.3339e-06	55.904	101.848	53.955	31.575	-50.404	-43.882	88.472	-50.490	-45.688	65.482	82.310	-46.336	-41.826	-41.422	-37.037	88.500	-37.400	-8191	255	
1022.012	1	1	0	0	0.14117	0.19142	0.2223	0.24905	0.19997	0.11589	0.122	0.13785	0.28354	0.17618	0.23228	0.11259	0.21281	0.39687	0.2374	0.1536	-1.3542	-1.5396	-2.1583	-1.6771	-1.7229	-2.2333	-1.2542	-2.2833	-1.8583	-1.3396	-2.4271	-1.6667	-1.8917	-2.3646	-1.3229	-2.1958	244.276	80.319	43.089	290.796	74.928	204.391	223.386	240.559	216.152	33.071	237.385	-23.021	168.796	269.192	246.756	271.421	0.00056973	0.00088777	0.00014919	1447.2	4.522e-06	6.5596e-06	1439.4	387.43	1.8115e-06	7.9273e-06	439.27	147.87	129.32	44.5	1.6844e-06	54.593	0.00066503	0.00066415	0.00018584	1456.1	7.3428e-06	7.3041e-06	1447.8	391.85	7.1817e-06	7.2153e-06	446.11	151.02	131.67	45.497	7.2254e-06	55.91	39.009	-35.742	21.397	-50.171	76.009	88.502	-50.458	-45.749	213.370	91.427	-46.296	-41.919	-41.423	-36.966	-45.724	-37.551	-8191	255	
1022.131	1	1	0	0	0.05791	0.17847	0.13373	0.32341	0.08891	0.12921	0.45533	0.35419	0.27113	0.21477	0.18177	0.04989	0.20436	0.23092	0.11265	0.22179	-1.5896	-1.3146	-2.3	-1.7229	-1.4646	-2.1521	-1.7771	-2.3312	-2.1167	-1.4125	-2.3333	-1.6958	-1.7979	-2.4188	-1.3188	-2.0458	172.719	42.566	89.466	273.122	38.767	172.649	241.704	260.324	284.154	199.179	264.847	40.329	287.894	6.656	248.429	226.015	0.00032163	0.00093381	8.8562e-05	1446.4	6.9481e-06	3.1982e-06	1438.7	386.31	5.4049e-06	3.4725e-06	439.3	147.83	129.03	44.526	6.0209e-06	54.352	0.00065467	0.00065671	0.00018416	1456	7.1872e-06	7.204e-06	1449.1	391.98	7.1426e-06	7.1624e-06	446.16	150.53	131.65	45.495	7.1528e-06	55.792	58.633	-17.814	45.742	-50.513	87.834	102.695	-50.423	-45.618	102.376	136.190	-46.229	-42.084	-41.327	-36.731	138.607	-37.816	-8191	255	
1022.227	1	1	0	0	0.20109	0.26072	0.18948	0.32104	0.41185	0.13691	0.35778	0.21558	0.23311	0.42375	0.35315	0.18159	0.12671	0.3026	0.086878	0.18043	-1.75	-1.3729	-2.1646	-1.8583	-1.6042	-2.45	-1.525	-2.1688	-2.2542	-1.5542	-2.3792	-2.0667	-1.7708	-2.6375	-1.4375	-1.9104	-30.298	-19.945	-62.686	201.630	158.077	-6.468	247.209	281.926	196.234	94.404	274.286	163.503	-19.126	-54.147	182.791	229.712	0.00048068	0.00027493	0.00014986	1444.4	4.921e-06	8.0338e-06	1431.7	385.57	7.705e-06	4.6246e-06	438.1	146.96	128.95	44.139	1.1676e-07	54.205	0.00065135	0.00066005	0.00018385	1454.5	7.2545e-06	7.3067e-06	1444.9	391.41	7.3015e-06	7.3404e-06	445.95	150.39	131.54	45.341	7.235e-06	55.775	51.505	94.171	55.452	-50.334	41.483	122.306	-50.427	-45.454	58.929	211.346	-46.052	-42.004	-41.408	-37.162	93.579	-37.334	-8191	255	
1022.323	1	1	0	0	0.027035	0.19438	0.18932	0.27047	0.16148	0.17159	0.16308	0.17145	0.12308	0.19369	0.15779	0.069895	0.30063	0.19929	0.1742	0.16657	-1.8958	-1.2437	-2.0625	-2.0687	-1.5438	-2.4396	-1.75	-1.9188	-2.1708	-1.5021	-2.3583	-2.2542	-1.375	-2.4396	-1.7208	-1.7083	228.263	112.765	273.353	271.054	110.196	180.215	69.348	-44.868	278.749	65.244	-39.936	-36.898	273.406	262.843	-53.498	226.307	0.00045491	0.00072995	0.00028432	1428.8	7.8535e-06	4.7843e-06	1426.6	384.95	6.867e-06	8.4276e-06	437.27	147.24	128.43	44.268	1.6701e-06	54.075	0.00065858	0.0006593	0.00018336	1451.3	7.1807e-06	7.2489e-06	1443.9	391.3	7.2124e-06	7.2054e-06	445.08	150.43	131.39	45.496	7.2593e-06	55.816	27.417	-9.347	32.458	-50.269	73.729	74.307	-50.723	-45.615	37.417	52.533	-46.239	-42.104	-41.258	-36.981	126.149	-37.387	-8191	255	
1022.420	1	1	0	0	0.27949	0.1718	0.19428	0.38323	0.24105	0.21466	0.19963	0.348	0.14556	0.11484	0.17145	0.16781	0.17778	0.24483	0.25979	0.077246	-1.9708	-1.3479	-1.8813	-2.2604	-1.3708	-2.2854	-1.9333	-1.7667	-2.0646	-1.2042	-2.0167	-2.1396	-1.4562	-2.2375	-1.5646	-1.7979	35.432	7.647	27.854	267.323	106.604	191.124	171.665	274.623	-4.610	-31.070	277.633	279.657	216.162	259.450	120.793	165.041	0.00040295	0.00051126	0.0002282	1433.4	6.2072e-06	4.9517e-06	1433.7	386.4	3.5424e-06	3.5979e-06	438.79	146.98	128.26	44.229	9.0782e-06	54.305	0.00065748	0.00066772	0.00018558	1452.3	7.2913e-06	7.3344e-06	1448.4	391.89	7.3566e-06	7.3886e-06	446.56	150.59	131.3	45.446	7.3744e-06	55.817	33.160	5.637	35.489	-50.336	99.545	128.917	-50.329	-45.527	6.883	57.778	-46.206	-41.863	-41.192	-36.729	79.860	-37.752	-8191	255	
#DATA ENDS
