BOXY.EXE: ISS Imagent and Oximeter Data Acquisition Program Version 0.80
Ascii Record File

#ACQ INFORMATION
2  Detector Channels 
16  External MUX Channels 
1  Auxiliary Channels 
5000  Waveform (CCF) Frequency (Hz)
1  Waveforms Skipped 
30  Waveforms Averaged 
1  Cycles Averaged 
16  Acquisitions per Waveform 
10.0806  Updata Rate (Hz) 

#FILE INFORMATION
TRUE -- External MUX Channel results are PARSED.
FALSE -- AC DC and Phase are NOT grouped.
TRUE -- Companion Program Settings File CREATED.
FALSE -- AC data not excluded
FALSE -- DC data not excluded
FALSE -- Phase data not excluded
FALSE -- Auxillary Chn. data not excluded
Tab delimiters

#CALIBRATION STATE
TRUE -- Waveform Calibration Values APPLIED.


#AUX CALIBRATION VALUES
Val Type	aux-1	

Term	1.0000e+00	
Factor	0.0000e+00	


#WF CALIBRATION VALUES
A = Detector Channel
Val Type	A-AC1	A-AC2	A-AC3	A-AC4	A-AC5	A-AC6	A-AC7	A-AC8	A-AC9	A-AC10	A-AC11	A-AC12	A-AC13	A-AC14	A-AC15	A-AC16	A-DC1	A-DC2	A-DC3	A-DC4	A-DC5	A-DC6	A-DC7	A-DC8	A-DC9	A-DC10	A-DC11	A-DC12	A-DC13	A-DC14	A-DC15	A-DC16	A-Ph1	A-Ph2	A-Ph3	A-Ph4	A-Ph5	A-Ph6	A-Ph7	A-Ph8	A-Ph9	A-Ph10	A-Ph11	A-Ph12	A-Ph13	A-Ph14	A-Ph15	A-Ph16	

Term	0.00000e+00	0.00000e+00	0.00000e+00	0.00000e+00	0.00000e+00	0.00000e+00	0.00000e+00	0.00000e+00	0.00000e+00	0.00000e+00	0.00000e+00	0.00000e+00	0.00000e+00	0.00000e+00	0.00000e+00	0.00000e+00	0.00000e+00	0.00000e+00	0.00000e+00	0.00000e+00	0.00000e+00	0.00000e+00	0.00000e+00	0.00000e+00	0.00000e+00	0.00000e+00	0.00000e+00	0.00000e+00	0.00000e+00	0.00000e+00	0.00000e+00	0.00000e+00	0.00000e+00	0.00000e+00	0.00000e+00	0.00000e+00	0.00000e+00	0.00000e+00	0.00000e+00	0.00000e+00	0.00000e+00	0.00000e+00	0.00000e+00	0.00000e+00	0.00000e+00	0.00000e+00	0.00000e+00	0.00000e+00	
Factor	1.00000e+00	1.00000e+00	1.00000e+00	1.00000e+00	1.00000e+00	1.00000e+00	1.00000e+00	1.00000e+00	1.00000e+00	1.00000e+00	1.00000e+00	1.00000e+00	1.00000e+00	1.00000e+00	1.00000e+00	1.00000e+00	1.00000e+00	1.00000e+00	1.00000e+00	1.00000e+00	1.00000e+00	1.00000e+00	1.00000e+00	1.00000e+00	1.00000e+00	1.00000e+00	1.00000e+00	1.00000e+00	1.00000e+00	1.00000e+00	1.00000e+00	1.00000e+00	X	X	X	X	X	X	X	X	X	X	X	X	X	X	X	X	

B = Detector Channel
Val Type	B-AC1	B-AC2	B-AC3	B-AC4	B-AC5	B-AC6	B-AC7	B-AC8	B-AC9	B-AC10	B-AC11	B-AC12	B-AC13	B-AC14	B-AC15	B-AC16	B-DC1	B-DC2	B-DC3	B-DC4	B-DC5	B-DC6	B-DC7	B-DC8	B-DC9	B-DC10	B-DC11	B-DC12	B-DC13	B-DC14	B-DC15	B-DC16	B-Ph1	B-Ph2	B-Ph3	B-Ph4	B-Ph5	B-Ph6	B-Ph7	B-Ph8	B-Ph9	B-Ph10	B-Ph11	B-Ph12	B-Ph13	B-Ph14	B-Ph15	B-Ph16	

Term	0.00000e+00	0.00000e+00	0.00000e+00	0.00000e+00	0.00000e+00	0.00000e+00	0.00000e+00	0.00000e+00	0.00000e+00	0.00000e+00	0.00000e+00	0.00000e+00	0.00000e+00	0.00000e+00	0.00000e+00	0.00000e+00	0.00000e+00	0.00000e+00	0.00000e+00	0.00000e+00	0.00000e+00	0.00000e+00	0.00000e+00	0.00000e+00	0.00000e+00	0.00000e+00	0.00000e+00	0.00000e+00	0.00000e+00	0.00000e+00	0.00000e+00	0.00000e+00	-2.42741e+02	-1.55801e+02	-1.30442e+02	-1.82481e+02	-9.91373e+01	-5.97705e+01	-1.57793e+02	-1.62015e+02	-9.26830e+01	-6.05605e+01	-1.71410e+02	-1.70576e+02	-1.81136e+02	-1.76213e+02	-8.41416e+01	-1.49482e+02	
Factor	4.89592e-05	1.01473e-04	2.92524e-05	1.62080e-01	9.51960e-07	1.04877e-06	1.53107e-01	3.99569e-02	1.07762e-06	9.79278e-07	7.00297e-02	2.41918e-02	1.94195e-02	6.96819e-03	1.13135e-06	1.01434e-02	1.01517e-06	1.04419e-06	2.90279e-07	8.40594e-02	1.13893e-08	1.14537e-08	7.45432e-02	2.08403e-02	1.13918e-08	1.14551e-08	3.47523e-02	1.20131e-02	1.01154e-02	3.62274e-03	1.14149e-08	5.06097e-03	X	X	X	X	X	X	X	X	X	X	X	X	X	X	X	X	



#DISTANCE SETTINGS
A = Detector Channel
A-1	A-2	A-3	A-4	A-5	A-6	A-7	A-8	A-9	A-10	A-11	A-12	A-13	A-14	A-15	A-16	

2.5000e+00	3.0000e+00	2.5000e+00	3.0000e+00	2.0000e+00	3.0000e+00	1.5000e+00	3.0000e+00	3.0000e+00	3.0000e+00	3.0000e+00	3.0000e+00	3.0000e+00	3.0000e+00	1.5000e+00	3.0000e+00	

B = Detector Channel
B-1	B-2	B-3	B-4	B-5	B-6	B-7	B-8	B-9	B-10	B-11	B-12	B-13	B-14	B-15	B-16	

1.0000e+01	1.0000e+01	1.0000e+01	1.4400e+00	1.0000e+01	1.0000e+01	1.5100e+00	1.9400e+00	1.0000e+01	1.0000e+01	1.9900e+00	2.4900e+00	2.4100e+00	2.9000e+00	1.0000e+01	2.9800e+00	




#DATA BEGINS
time	group	step	mark	flag	A-AC1	A-AC2	A-AC3	A-AC4	A-AC5	A-AC6	A-AC7	A-AC8	A-AC9	A-AC10	A-AC11	A-AC12	A-AC13	A-AC14	A-AC15	A-AC16	A-DC1	A-DC2	A-DC3	A-DC4	A-DC5	A-DC6	A-DC7	A-DC8	A-DC9	A-DC10	A-DC11	A-DC12	A-DC13	A-DC14	A-DC15	A-DC16	A-Ph1	A-Ph2	A-Ph3	A-Ph4	A-Ph5	A-Ph6	A-Ph7	A-Ph8	A-Ph9	A-Ph10	A-Ph11	A-Ph12	A-Ph13	A-Ph14	A-Ph15	A-Ph16	B-AC1	B-AC2	B-AC3	B-AC4	B-AC5	B-AC6	B-AC7	B-AC8	B-AC9	B-AC10	B-AC11	B-AC12	B-AC13	B-AC14	B-AC15	B-AC16	B-DC1	B-DC2	B-DC3	B-DC4	B-DC5	B-DC6	B-DC7	B-DC8	B-DC9	B-DC10	B-DC11	B-DC12	B-DC13	B-DC14	B-DC15	B-DC16	B-Ph1	B-Ph2	B-Ph3	B-Ph4	B-Ph5	B-Ph6	B-Ph7	B-Ph8	B-Ph9	B-Ph10	B-Ph11	B-Ph12	B-Ph13	B-Ph14	B-Ph15	B-Ph16	aux-1	digaux	

1580.150	1	1	0	768	0.23793	0.12142	0.030612	0.03133	0.06334	0.28898	0.43904	0.14558	0.15333	0.36575	0.21916	0.18445	0.13006	0.22535	0.19941	0.21981	-1.5917	-1.1292	-2.0125	-1.6	-1.3813	-2.35	-1.4333	-1.7021	-2.1604	-1.0979	-2.075	-1.6542	-1.3188	-2.1667	-1.3833	-1.5479	26.053	37.752	-3.708	150.995	168.443	188.916	230.482	-24.762	-78.083	182.642	257.210	75.712	-17.584	192.179	115.492	218.826	0.00017797	0.00031643	4.754e-05	370.85	1.2153e-06	3.2079e-06	422.07	113.34	3.4977e-06	2.5852e-06	141.62	38.679	30.837	7.723	1.5292e-06	10.004	0.00018775	0.00018817	5.3301e-05	374.3	2.0246e-06	2.1178e-06	420.94	114.65	2.0903e-06	2.0661e-06	141.94	39.343	31.823	8.1461	2.0777e-06	10.503	107.134	142.527	-12.357	-83.542	222.240	-44.190	-85.848	-78.148	56.902	93.185	-81.724	-77.478	-73.821	-68.551	8.267	-72.536	-8191	255	
1580.247	1	1	0	0	0.14513	0.1928	0.17997	0.14864	0.031005	0.19282	0.15032	0.24435	0.11702	0.11015	0.15827	0.28166	0.26011	0.36159	0.14661	0.17928	-1.7167	-1.2896	-1.9125	-1.7958	-1.1542	-2.0521	-1.5667	-1.6812	-2.1813	-1.25	-2.0312	-1.8604	-1.225	-2.2042	-1.4708	-1.4583	204.982	192.393	174.746	249.660	152.847	167.628	219.315	188.727	78.840	15.225	-45.876	198.585	9.647	-78.847	142.360	122.207	0.00022044	0.0006013	7.7046e-05	373.42	2.4674e-06	3.4691e-06	421.05	114	2.586e-06	1.2106e-06	143.4	39.19	31.333	7.7705	2.587e-06	10.137	0.00018824	0.0001905	5.3025e-05	375.84	2.0686e-06	2.1296e-06	423.14	114.95	2.101e-06	2.0831e-06	143.34	39.803	32.122	8.2344	2.112e-06	10.678	58.368	-66.617	50.102	-83.504	56.209	38.331	-85.485	-77.706	-75.590	-39.785	-82.175	-77.739	-73.551	-67.965	-60.195	-72.349	-8191	255	
1580.343	1	1	0	0	0.10425	0.2432	0.15623	0.32272	0.061934	0.13954	0.16795	0.21858	0.22516	0.082251	0.1962	0.18548	0.34511	0.13717	0.16305	0.2198	-1.8062	-1.2687	-1.7854	-2.0542	-1.1562	-1.9813	-1.5708	-1.3542	-1.9979	-1.3521	-1.9146	-2.0938	-1.2062	-2.2313	-1.6208	-1.325	252.218	134.766	-51.513	37.588	-84.713	-83.045	208.053	234.508	206.975	107.756	190.410	182.298	214.457	-25.719	256.982	128.902	0.0002454	0.00025316	8.8851e-05	374.29	1.9989e-06	1.3334e-06	427.92	114.85	2.1551e-06	2.0984e-06	144.4	39.19	31.682	7.7801	4.8118e-06	10.143	0.00019028	0.00019024	5.4041e-05	377.81	2.1032e-06	2.1331e-06	428.76	115.8	2.1518e-06	2.1051e-06	144.98	39.972	32.346	8.2252	2.1176e-06	10.699	69.695	-15.972	-34.563	-83.940	-94.113	214.571	-85.936	-78.085	189.553	27.841	-81.847	-77.190	-73.696	-68.289	52.099	-72.243	-8191	255	
1580.439	1	1	0	0	0.051489	0.17988	0.22772	0.18269	0.071676	0.18882	0.25931	0.47379	0.030245	0.13093	0.19546	0.35058	0.19863	0.3245	0.1477	0.27275	-1.8479	-1.2354	-1.6083	-2.1375	-1.3417	-2.0146	-1.7458	-1.3146	-2.2667	-1.5167	-1.5458	-1.9104	-1.0875	-2.0312	-1.8062	-1.2583	19.572	-43.910	20.946	-53.836	-60.647	106.289	219.628	213.438	12.470	79.597	225.136	158.342	-16.216	-27.159	232.482	25.524	0.00024	0.00045241	3.6633e-05	375.09	2.4344e-06	2.078e-06	423.3	115.17	1.666e-06	1.284e-06	142.68	39.333	31.325	7.7098	2.7244e-06	10.018	0.00019226	0.00019265	5.3541e-05	377.48	2.0844e-06	2.1355e-06	426.36	115.91	2.1173e-06	2.1091e-06	144.03	39.912	32.284	8.1936	2.0762e-06	10.501	109.423	-12.618	-79.411	-83.515	141.196	170.044	-85.811	-77.951	16.973	196.281	-81.293	-77.710	-73.497	-68.451	-18.234	-72.211	-8191	255	
1580.535	1	1	0	0	0.15302	0.17842	0.13038	0.18539	0.30731	0.10761	0.17777	0.25442	0.042771	0.24321	0.16943	0.24442	0.13576	0.13371	0.042083	0.11823	-1.7833	-1.3979	-1.4479	-2.25	-1.1146	-1.8854	-1.8312	-1.3667	-1.9271	-1.4771	-1.6396	-2.1479	-1.2917	-1.7687	-1.9083	-1.1604	46.975	137.561	163.197	229.972	172.406	49.286	49.354	251.491	95.165	38.368	246.318	258.010	96.050	45.057	239.214	220.167	0.00017983	0.00017185	3.5439e-05	374.62	5.0072e-06	4.9541e-06	425.18	114.67	1.7902e-06	2.3836e-06	141.2	38.939	31.218	7.784	3.5869e-06	10	0.00019147	0.00019092	5.3264e-05	376.38	2.0699e-06	2.1115e-06	424.3	115.57	2.1305e-06	2.1081e-06	142.66	39.74	32.196	8.1614	2.0999e-06	10.506	99.731	-9.286	-34.092	-83.474	-25.806	65.344	-86.003	-78.145	58.780	50.812	-81.599	-77.628	-73.900	-68.173	75.496	-72.807	-8191	255	
1580.631	1	1	0	0	0.16485	0.098195	0.35609	0.25548	0.094276	0.021717	0.13733	0.15983	0.29401	0.17055	0.233	0.18391	0.24867	0.16478	0.37009	0.11237	-1.7125	-1.4083	-1.3896	-2.0979	-1.5146	-1.5938	-2.0646	-1.1771	-1.9583	-1.65	-1.35	-2.0521	-1.2958	-1.5375	-2.0667	-1.2687	227.390	9.304	-18.252	-32.862	62.270	24.933	119.252	163.515	85.378	52.842	137.886	101.752	-34.012	-91.214	197.011	145.849	0.00012161	0.00034691	6.4616e-05	374.85	2.309e-06	5.5849e-06	424.51	115.04	3.6712e-06	7.8457e-07	143.43	39.422	31.197	7.7495	1.6728e-06	10.105	0.00018987	0.00018872	5.2779e-05	378.27	2.0799e-06	2.1067e-06	424.35	116.11	2.1278e-06	2.0813e-06	144.21	40.033	32.233	8.1778	2.1081e-06	10.623	38.501	-82.448	230.724	-83.839	24.962	10.450	-85.967	-78.096	-78.877	116.580	-81.432	-77.523	-73.141	-67.976	36.187	-72.930	-8191	255	
1580.752	1	1	0	0	0.14911	0.15103	0.15883	0.25988	0.26283	0.16195	0.074682	0.24522	0.085347	0.15552	0.32359	0.022376	0.24927	0.32639	0.22944	0.24364	-1.675	-1.7979	-1.1021	-2.3375	-1.4729	-1.5083	-2.0917	-1.25	-1.775	-1.7833	-1.2437	-2.0875	-1.4521	-1.4104	-2.1292	-1.3208	97.453	105.738	-95.237	244.692	228.668	68.162	31.378	84.761	69.566	216.012	47.884	-90.484	-77.406	233.702	-91.405	237.444	0.00019807	0.00022483	0.00011431	374.79	1.5723e-06	2.976e-06	425.99	115.01	6.3242e-07	4.2216e-06	144.33	39.646	31.466	7.7816	1.2387e-06	10.168	0.00019482	0.00019288	5.2913e-05	378.77	2.0922e-06	2.1179e-06	428.77	116.18	2.1115e-06	2.1124e-06	144.91	40.402	32.347	8.2515	2.1061e-06	10.723	151.942	-48.873	-79.510	-83.635	247.898	-43.766	-85.578	-78.355	214.411	171.684	-81.621	-77.327	-73.202	-67.974	27.408	-72.562	-8191	255	
1580.846	1	1	0	0	0.10248	0.25405	0.14858	0.12153	0.32767	0.21501	0.25145	0.27957	0.27667	0.064933	0.1601	0.042379	0.12856	0.091914	0.079797	0.29564	-1.475	-1.7208	-1.1625	-2.2396	-1.4771	-1.3833	-2.0979	-1.2812	-1.8396	-1.8854	-1.2833	-2.1458	-1.5854	-1.0771	-2.2062	-1.3792	-69.063	101.830	101.251	212.573	116.387	-2.428	184.699	215.242	128.822	109.352	48.435	127.412	100.577	-38.543	-9.293	249.146	8.5841e-05	0.00029777	7.2866e-05	373.54	1.9608e-06	5.915e-07	429.68	116.1	2.3528e-06	2.8814e-06	144.13	39.392	31.347	7.7008	3.0191e-06	9.9809	0.00019159	0.00019011	5.2663e-05	379.08	2.0874e-06	2.102e-06	429.16	116.36	2.1438e-06	2.1035e-06	144.19	40.054	32.257	8.1657	2.0895e-06	10.56	-20.286	-29.285	-77.087	-83.762	5.518	95.748	-85.602	-77.901	184.124	175.347	-81.807	-77.573	-73.747	-68.391	86.413	-73.053	-8191	255	
1580.942	1	1	0	0	0.039632	0.2489	0.10762	0.094713	0.16831	0.30016	0.28078	0.17605	0.23548	0.22111	0.22174	0.17336	0.1099	0.27056	0.2719	0.23434	-1.25	-1.775	-1.0917	-1.9542	-1.6729	-1.175	-2.3563	-1.2938	-1.7646	-2.0042	-1.0396	-1.8667	-1.8583	-1.225	-2.1958	-1.4479	44.696	263.189	-40.802	90.789	174.457	-10.951	123.548	-5.887	-33.619	147.331	186.412	119.990	-79.849	-94.050	-61.267	46.389	8.2475e-05	0.00020004	8.6881e-05	376.92	1.8591e-06	3.8646e-06	424.85	115.55	1.4912e-06	3.0545e-06	143.23	39.22	31.542	7.7914	2.8116e-06	10.049	0.00018817	0.00019013	5.2614e-05	378.59	2.075e-06	2.0566e-06	424.96	116.26	2.0702e-06	2.0863e-06	143.87	39.886	32.314	8.1886	2.1206e-06	10.542	80.582	199.879	-79.030	-83.962	32.474	40.743	-85.901	-77.898	-74.554	168.331	-81.798	-77.156	-73.649	-68.030	-17.053	-72.873	-8191	255	
1581.039	1	1	0	0	0.26987	0.11323	0.069753	0.099409	0.49227	0.081163	0.33614	0.28036	0.13498	0.26138	0.24793	0.092988	0.20119	0.15617	0.24199	0.27843	-1.1958	-2.1	-1.375	-1.9271	-1.8771	-1.3438	-2.0667	-1.5125	-1.4333	-2.0292	-1.3125	-1.7625	-1.8792	-1.2687	-1.8438	-1.4458	-57.120	227.618	-77.019	214.971	198.102	151.520	261.504	142.788	39.691	96.470	207.569	239.381	-20.098	103.001	22.443	-44.140	6.8698e-05	0.00032934	7.5547e-05	372.95	2.5098e-06	3.086e-06	428.83	115.98	3.8371e-06	4.2956e-06	145.25	39.304	31.439	7.6856	1.346e-06	10.07	0.00018798	0.00019168	5.2965e-05	377.92	2.0873e-06	2.0589e-06	427.89	116.42	2.0769e-06	2.099e-06	144.84	40.115	32.253	8.159	2.1015e-06	10.65	149.949	-43.130	-12.817	-83.386	44.245	137.649	-85.908	-78.361	16.338	71.913	-81.614	-77.180	-73.330	-68.446	-71.102	-72.900	-8191	255	
1581.135	1	1	0	0	0.11783	0.17963	0.24715	0.095952	0.19158	0.18493	0.20164	0.18448	0.19267	0.02757	0.28155	0.33987	0.24504	0.23648	0.22384	0.1064	-0.93958	-1.9625	-1.2625	-1.6875	-1.8833	-1.3438	-1.9792	-1.4854	-1.3542	-2.0708	-1.4646	-1.7938	-2.0354	-1.0312	-1.925	-1.6604	98.956	25.514	78.544	31.758	11.431	19.253	103.140	262.008	85.631	206.539	-27.245	5.400	-36.163	94.887	-27.546	-42.683	0.00024078	0.0004102	3.3661e-05	376.64	3.657e-06	4.2137e-06	430.61	115.22	2.1209e-06	2.0821e-06	145.31	39.72	31.685	7.7717	3.7275e-06	10.065	0.00018876	0.00019412	5.2469e-05	379.52	2.1091e-06	2.0913e-06	429.77	116	2.0822e-06	2.1023e-06	144.99	40.171	32.356	8.1883	2.1196e-06	10.654	101.252	-56.385	199.469	-83.380	-67.811	-12.285	-85.552	-78.367	8.584	42.047	-81.549	-77.415	-73.596	-68.183	35.131	-72.749	-8191	255	
1581.231	1	1	0	0	0.24897	0.038581	0.13519	0.1002	0.089407	0.34646	0.061379	0.047834	0.21171	0.11879	0.095409	0.16535	0.04026	0.069193	0.041521	0.021849	-0.93958	-1.9813	-1.2771	-1.6979	-1.975	-1.3667	-1.9979	-1.8021	-1.2792	-2.1292	-1.4958	-1.5854	-2.0542	-1.1479	-1.9146	-1.8354	16.076	215.711	209.908	16.219	130.109	246.784	-84.309	234.053	150.551	38.828	150.198	-2.896	261.866	-89.407	139.762	190.931	0.00014502	0.00046792	8.9106e-05	378.34	2.7502e-06	9.2401e-07	429.04	114.6	1.7405e-06	4.2577e-06	143.63	39.089	31.209	7.7265	1.9242e-06	9.9141	0.00018874	0.00019336	5.2148e-05	379.39	2.1014e-06	2.1162e-06	428.5	115.86	2.0578e-06	2.1282e-06	143.65	39.72	32.017	8.08	2.0991e-06	10.428	43.963	-28.775	24.932	-83.514	30.910	-82.809	-85.431	-78.373	10.736	79.070	-81.754	-77.344	-73.989	-68.184	184.330	-72.793	-8191	255	
1581.327	1	1	0	0	0.045567	0.33522	0.12029	0.10938	0.12454	0.28552	0.10082	0.17044	0.16182	0.29218	0.15614	0.14956	0.085596	0.18118	0.18334	0.15606	-0.76042	-1.9729	-1.3563	-1.4854	-2.1896	-1.2854	-1.975	-1.85	-1.0958	-2.0833	-1.5208	-1.2563	-2.1437	-1.2979	-1.6167	-1.8729	70.246	48.411	257.946	166.105	82.111	211.694	246.290	224.521	260.008	-57.684	188.172	138.568	115.445	131.994	114.892	166.223	0.00021525	0.0003818	9.0807e-05	375.35	3.9497e-06	2.3224e-06	423.81	113.6	2.9824e-06	3.9875e-07	141.67	38.271	30.901	7.5681	3.9913e-06	9.8833	0.00018621	0.00019118	5.239e-05	377.51	2.1113e-06	2.0656e-06	423.69	114.75	2.0289e-06	2.0808e-06	142.17	39.167	31.727	7.9755	2.0763e-06	10.346	21.657	-59.726	-11.093	-83.633	-40.865	74.953	-85.723	-78.589	11.889	23.808	-81.529	-77.320	-73.756	-68.340	38.327	-72.407	-8191	255	
1581.448	1	1	0	0	0.12637	0.15033	0.14874	0.22347	0.16302	0.13383	0.21663	0.30534	0.15479	0.30645	0.2704	0.17166	0.35138	0.056351	0.23339	0.2123	-0.64167	-2.1646	-1.7875	-1.3438	-2.1792	-1.375	-1.8125	-1.9958	-1.1208	-1.7687	-1.6375	-1.1854	-2.0146	-1.3146	-1.9146	-2.1104	-33.572	31.476	59.641	-87.205	-59.997	-7.556	231.201	32.195	243.539	-66.912	-56.132	187.673	149.293	246.248	-51.388	149.674	0.00033162	0.00030313	0.00011325	374.05	2.0297e-06	6.0604e-06	425.51	114.52	1.1962e-06	4.6346e-07	143.05	38.517	30.889	7.6602	1.2835e-06	9.9803	0.00018589	0.00018975	5.235e-05	376.65	2.0918e-06	2.0286e-06	424.11	114.54	2.0469e-06	2.1063e-06	142.91	39.313	31.781	8.0585	2.098e-06	10.489	114.583	118.734	28.408	-83.211	-72.546	105.238	-85.445	-78.098	219.156	172.207	-81.731	-77.319	-73.170	-68.022	154.583	-72.573	-8191	255	
1581.544	1	1	0	0	0.10889	0.13844	0.094571	0.28318	0.24084	0.26561	0.18191	0.1214	0.28778	0.097087	0.19577	0.076386	0.17245	0.15441	0.19295	0.18328	-0.78542	-1.9667	-1.7146	-1.2542	-2.0438	-1.3312	-1.3604	-2.0167	-1.1125	-2.0292	-1.7792	-1.3646	-2.1208	-1.3312	-1.3396	-1.95	-68.862	2.303	42.292	186.414	-43.870	218.893	-50.467	72.588	-92.920	25.413	120.089	203.411	225.593	-89.957	254.250	154.098	0.00018282	0.00023476	1.6213e-05	372.76	2.9394e-06	4.0633e-06	428.82	114.24	2.8855e-06	8.5918e-07	144.46	39.105	31.032	7.7076	2.9007e-06	10.081	0.00018993	0.00019118	5.2192e-05	377.37	2.0933e-06	2.0302e-06	427.54	115.26	2.0562e-06	2.1221e-06	144.02	39.855	31.934	8.1185	2.0778e-06	10.695	65.459	164.232	219.858	-83.418	97.266	31.166	-85.594	-78.313	5.058	14.710	-81.581	-77.187	-73.663	-68.684	-18.395	-72.567	-8191	255	
1581.640	1	1	0	0	0.11771	0.10116	0.018428	0.064065	0.39664	0.23859	0.22852	0.29421	0.17799	0.1078	0.18482	0.065882	0.13232	0.21017	0.1361	0.03641	-0.87708	-1.825	-1.8104	-1.3396	-1.9125	-1.5729	-1.5396	-2.2083	-1.175	-1.8167	-2.0146	-1.2583	-2.0563	-1.5104	-1.4396	-2.2479	150.976	46.295	240.958	62.417	-63.119	-76.184	-57.987	-71.238	-0.107	-82.721	-73.516	-75.419	119.364	-64.800	180.928	53.123	9.2592e-05	0.00022014	6.3339e-05	377.61	6.9375e-07	3.7044e-06	427.6	114.81	3.5024e-06	2.1777e-06	143.52	38.955	31.329	7.6739	2.5194e-06	10.023	0.00018924	0.00019402	5.296e-05	379.54	2.1136e-06	2.0906e-06	429.2	115.45	2.0749e-06	2.0947e-06	143.75	39.799	31.992	8.084	2.0624e-06	10.544	102.625	180.854	258.728	-83.827	255.324	56.190	-85.488	-78.326	10.784	43.601	-81.496	-77.309	-74.108	-67.912	84.611	-72.967	-8191	255	
1581.712	1	1	0	0	0.28534	0.21896	0.26772	0.22261	0.15376	0.063901	0.063805	0.063502	0.27249	0.35072	0.28822	0.11646	0.29092	0.22626	0.14943	0.085249	-1.0458	-1.7271	-1.9937	-1.0771	-1.9604	-1.5208	-1.3021	-2.1458	-1.3104	-1.3146	-2.1396	-1.2917	-1.9958	-1.8458	-1.25	-2.1271	198.834	-41.321	0.751	248.177	13.383	-71.279	159.227	-95.172	79.660	215.171	230.046	103.668	-24.095	243.349	-25.486	-11.162	9.5511e-05	0.00033458	5.4955e-05	374.67	6.232e-07	1.8726e-06	425.43	113.44	2.0037e-06	2.7851e-06	142.92	38.685	31.337	7.6289	4.2316e-06	9.8744	0.00018576	0.00019156	5.2759e-05	377.43	2.0764e-06	2.0655e-06	425.51	115.15	2.0737e-06	2.0598e-06	142.7	39.49	32.093	8.0859	2.0849e-06	10.463	8.827	-34.890	-35.966	-83.481	48.580	-67.781	-85.349	-77.932	93.858	133.876	-81.348	-76.914	-73.458	-68.084	9.202	-72.587	-8191	255	
1581.830	1	1	0	0	0.1271	0.16782	0.05848	0.24572	0.29452	0.14401	0.086453	0.15306	0.23311	0.078737	0.20674	0.17838	0.20906	0.2461	0.061578	0.067573	-0.92917	-1.4542	-1.9833	-1.1625	-1.9396	-1.7021	-1.2792	-2.0583	-1.3792	-1.5271	-2.0208	-1.1708	-1.8021	-2.0375	-1.1729	-2.2042	141.399	-23.736	248.964	-52.056	111.337	242.072	251.495	221.067	52.481	54.345	-47.753	236.791	193.705	182.445	152.891	-31.483	0.00022725	0.0002194	0.00011098	375.78	2.8681e-06	1.7721e-06	425.57	113.93	4.2247e-07	3.0311e-07	144.02	39.067	31.243	7.6435	2.1173e-06	9.9048	0.00018653	0.00018936	5.3306e-05	377.77	2.1041e-06	2.1049e-06	425.74	115.31	2.0564e-06	2.0589e-06	143.44	39.697	32.034	8.0747	2.0582e-06	10.489	71.062	17.214	-60.027	-83.134	-48.088	63.393	-85.364	-78.265	5.655	133.755	-81.323	-77.255	-73.496	-68.285	91.271	-72.773	-8191	255	
1581.927	1	1	0	0	0.29099	0.19124	0.029823	0.086367	0.18036	0.16126	0.3003	0.22422	0.24915	0.16385	0.086599	0.14128	0.31674	0.075141	0.17342	0.3539	-1.2542	-1.1479	-1.9917	-1.1229	-1.6917	-1.9833	-1.3104	-1.8167	-1.4688	-1.1896	-2.2521	-1.2833	-1.6979	-1.9542	-1.0958	-1.9312	1.611	212.251	53.058	53.288	-9.941	-29.320	212.505	66.182	195.725	-19.652	170.542	-86.465	-55.141	190.227	252.013	-57.315	9.5208e-05	0.00026565	0.00014706	374.44	1.8331e-06	6.5633e-07	428.6	114.65	1.0277e-06	3.1495e-06	144.42	39.102	31.349	7.627	4.9845e-06	10.231	0.00018534	0.00018746	5.3235e-05	378.39	2.1055e-06	2.0642e-06	428.33	115.66	2.1044e-06	2.077e-06	144.73	40.002	32.027	8.1267	2.0882e-06	10.71	209.147	249.429	-17.489	-83.556	19.304	204.381	-85.186	-78.249	175.632	12.308	-81.490	-77.570	-73.233	-68.435	-56.732	-71.918	-8191	255	
1582.023	1	1	0	0	0.11153	0.12147	0.077098	0.046977	0.17502	0.27909	0.15746	0.020128	0.027909	0.068992	0.3256	0.1559	0.049654	0.072977	0.29251	0.21427	-1.0979	-1.0604	-1.9875	-1.2979	-1.6146	-1.9312	-1.325	-1.9792	-1.5104	-1.1917	-1.9375	-1.4688	-1.5104	-2.0292	-1.1646	-1.9646	124.286	-3.410	207.716	200.636	37.548	-29.629	260.453	-14.021	70.741	11.053	161.606	198.625	12.289	125.659	225.718	8.716	6.8431e-05	0.0002494	6.4905e-05	375.17	1.3573e-06	4.6299e-06	428.37	114.98	2.1434e-06	2.0626e-06	144.64	39.029	31.365	7.757	1.4247e-06	9.9937	0.00018915	0.00018903	5.4123e-05	379.75	2.0691e-06	2.0765e-06	429.37	116.11	2.0986e-06	2.0486e-06	144.8	39.946	32.107	8.1618	2.0877e-06	10.556	-3.230	16.079	-41.616	-83.451	100.461	51.988	-85.633	-78.431	67.225	92.749	-81.746	-77.244	-73.968	-67.917	41.479	-72.628	-8191	255	
1582.119	1	1	0	0	0.23606	0.10902	0.29778	0.288	0.43361	0.136	0.18804	0.044918	0.18748	0.10218	0.11322	0.31608	0.012491	0.062641	0.1823	0.071206	-1.3604	-1.2375	-1.8979	-1.4979	-1.3833	-2.2313	-1.3146	-1.8062	-1.8312	-1.1833	-2.1479	-1.5604	-1.325	-2.1813	-1.1812	-1.7521	129.101	236.091	39.121	64.347	120.734	-25.742	-39.584	187.730	38.766	201.965	204.076	229.638	45.988	135.502	165.440	-67.356	0.00015618	0.00015879	3.8118e-05	377.66	1.2111e-06	1.2469e-06	426.96	113.91	2.1417e-06	5.7651e-07	144.01	38.97	30.982	7.6099	3.6853e-06	9.9164	0.00018758	0.00018821	5.3928e-05	378.84	2.0686e-06	2.1105e-06	426.27	115.39	2.065e-06	2.056e-06	143.76	39.501	31.874	8.0713	2.0729e-06	10.483	92.122	-36.337	4.129	-83.799	77.277	76.402	-85.639	-77.884	241.225	2.301	-81.850	-77.632	-73.116	-67.618	40.458	-72.731	-8191	255	
1582.240	1	1	0	0	0.12894	0.33047	0.037733	0.068124	0.13615	0.25198	0.033425	0.016172	0.33747	0.31097	0.21009	0.17281	0.17818	0.12428	0.20209	0.15551	-1.5292	-1.3083	-1.8687	-1.7146	-1.2396	-1.9688	-1.5125	-1.6042	-2.0833	-1.1292	-2.1208	-1.8104	-1.3521	-2.0958	-1.2771	-1.7375	107.355	218.070	-93.763	22.673	18.335	96.261	63.013	37.520	191.584	160.396	150.935	175.541	13.536	167.298	162.802	-28.558	4.9854e-05	0.00030235	9.6973e-06	375.47	1.4837e-06	1.8927e-06	423.03	114.29	4.1161e-06	2.3705e-06	144.06	38.973	31.016	7.7159	1.0512e-06	10.121	0.000189	0.00018823	5.2732e-05	378.14	2.082e-06	2.0982e-06	426.01	115.15	2.0854e-06	2.0874e-06	144.16	39.833	32.041	8.1547	2.069e-06	10.659	120.164	227.579	133.042	-83.333	98.082	102.737	-85.802	-78.189	-36.270	-61.012	-81.388	-77.335	-73.477	-67.876	-55.095	-72.529	-8191	255	
1582.311	1	1	0	0	0.21694	0.39086	0.11096	0.07222	0.23923	0.088638	0.17269	0.23083	0.30076	0.14467	0.029149	0.09837	0.22591	0.15978	0.28023	0.10054	-1.9521	-1.2188	-1.9042	-1.8104	-1.2271	-2.1188	-1.4875	-1.5896	-1.9479	-1.3271	-1.8583	-1.8396	-1.1417	-2.1375	-1.4375	-1.4062	132.548	-38.688	245.611	180.837	164.388	-77.028	105.189	198.722	145.610	125.794	171.913	-22.605	205.957	222.443	193.641	77.034	8.7581e-05	0.00027152	1.5483e-05	374.65	2.8099e-06	2.4982e-06	427.48	114.88	1.146e-06	3.2231e-06	145.5	39.26	31.58	7.7777	4.5485e-06	10.172	0.00019021	0.00019131	5.3322e-05	378.89	2.1149e-06	2.1085e-06	429.31	115.95	2.1165e-06	2.0823e-06	145.53	40.245	32.29	8.2137	2.098e-06	10.745	184.780	-67.496	238.836	-83.327	56.452	-53.027	-85.157	-78.196	-63.873	46.333	-81.277	-77.111	-73.392	-68.080	41.732	-72.659	-8191	255	
1582.432	1	1	0	0	0.26709	0.37627	0.071049	0.37526	0.051357	0.29457	0.14761	0.28227	0.048444	0.080061	0.099712	0.22818	0.11949	0.0622	0.16139	0.14839	-1.7083	-1.1167	-1.7292	-1.8354	-1.2083	-1.9438	-1.6688	-1.4917	-2.1208	-1.4958	-1.8917	-2.15	-1.2938	-2.0292	-1.5583	-1.4438	212.395	96.953	-61.812	234.730	225.394	19.066	55.104	248.389	-56.793	-25.226	127.078	9.568	259.747	151.130	26.948	161.054	9.1764e-05	0.00014097	4.8941e-05	374.5	4.934e-06	2.5237e-06	431.93	114.22	2.5301e-06	2.0148e-06	144.15	39.734	31.406	7.6873	4.5068e-06	10.015	0.00019427	0.00019296	5.3874e-05	378.56	2.1067e-06	2.1758e-06	430.02	115.9	2.1298e-06	2.1074e-06	144.68	40.155	32.198	8.1303	2.0868e-06	10.553	86.909	29.711	18.484	-83.647	-4.562	83.935	-85.420	-78.211	-40.971	19.610	-81.048	-77.285	-73.924	-68.012	-0.382	-72.849	-8191	255	
1582.528	1	1	0	0	0.096499	0.12856	0.10308	0.27291	0.18733	0.11617	0.15578	0.11229	0.19451	0.058659	0.40563	0.12412	0.078445	0.18373	0.2528	0.24163	-1.7604	-1.2604	-1.5812	-2.0563	-1.3813	-1.9104	-1.6396	-1.2146	-2.0021	-1.2479	-1.6938	-1.9562	-1.1104	-1.875	-1.6104	-1.3021	18.945	95.658	212.705	46.759	-87.794	262.181	198.666	248.512	193.726	90.421	76.179	260.418	76.491	-12.320	204.743	25.362	0.00024664	0.00038076	6.5004e-05	372.21	2.3813e-06	7.4712e-07	424.62	114.87	3.8492e-06	3.9461e-07	141.29	38.672	30.895	7.6492	4.1076e-06	9.8962	0.00019095	0.00018993	5.2811e-05	376.95	2.0676e-06	2.1037e-06	424.71	115.18	2.107e-06	2.0576e-06	142.27	39.578	31.76	8.0738	2.0771e-06	10.43	106.326	-44.486	173.732	-83.562	50.098	-5.223	-85.527	-78.153	-70.519	106.111	-81.541	-77.711	-73.406	-67.715	42.278	-72.349	-8191	255	
1582.624	1	1	0	0	0.091721	0.33904	0.29704	0.12664	0.13178	0.1036	0.20113	0.12836	0.19249	0.042575	0.1306	0.19551	0.21154	0.14004	0.14776	0.29878	-1.5521	-1.4688	-1.2667	-2.0271	-1.2458	-1.6458	-1.8271	-1.075	-2.05	-1.4083	-1.4417	-2.125	-1.1417	-1.75	-1.8687	-1.2563	22.133	102.662	164.334	-86.900	93.292	111.049	81.482	108.943	107.192	94.998	77.429	227.379	159.264	-54.970	258.497	251.948	0.00010443	0.00020924	6.584e-05	373.67	3.3518e-06	3.1882e-06	422.68	114.02	2.3527e-06	2.7553e-06	142.84	38.69	31.459	7.6596	1.8082e-06	10.12	0.00019199	0.00018692	5.2212e-05	376.98	2.0314e-06	2.1087e-06	423.56	115.01	2.0917e-06	2.0773e-06	143.09	39.635	32.062	8.0846	2.0981e-06	10.574	148.697	-80.203	18.344	-83.575	-58.135	31.188	-85.930	-78.446	43.824	183.972	-81.468	-77.427	-73.833	-68.118	-69.497	-71.819	-8191	255	
1582.720	1	1	0	0	0.15217	0.10198	0.27745	0.08413	0.1654	0.037095	0.21308	0.073649	0.12223	0.2481	0.12264	0.23398	0.23	0.25483	0.21744	0.084592	-1.6396	-1.5229	-1.4104	-2.0687	-1.225	-1.6042	-1.9229	-1.2354	-2.0104	-1.5021	-1.3458	-2.2271	-1.5688	-1.5083	-2.0229	-1.0812	178.930	4.581	236.877	204.875	99.696	217.670	192.316	256.218	227.533	73.248	-76.618	243.982	-20.981	207.642	61.482	67.021	0.00013782	3.6102e-05	2.3288e-05	377.07	4.5417e-07	1.7353e-06	427.22	113.58	2.1835e-06	1.706e-06	144.33	39.556	31.563	7.8185	3.1827e-06	10.239	0.0001905	0.00018966	5.2298e-05	379.53	2.0636e-06	2.0987e-06	429.14	115.3	2.1043e-06	2.0658e-06	144.87	40.318	32.292	8.2185	2.1227e-06	10.773	49.909	42.252	-25.373	-83.508	84.809	227.305	-85.200	-78.135	-77.906	-18.868	-80.853	-77.348	-73.548	-68.026	-57.122	-72.142	-8191	255	
1582.839	1	1	0	0	0.17533	0.067806	0.16819	0.13443	0.16428	0.11356	0.072793	0.34896	0.04224	0.078047	0.15039	0.26342	0.12613	0.066928	0.0018896	0.11862	-1.55	-1.7271	-1.0875	-1.9792	-1.35	-1.5583	-1.9688	-1.3146	-1.8042	-1.7812	-1.3146	-2.1146	-1.3979	-1.2708	-2.0833	-1.1354	254.009	46.159	-54.400	232.494	166.144	29.300	243.175	227.646	153.599	-17.873	156.569	67.439	34.453	49.296	180.000	232.202	0.00022259	0.0002539	7.5807e-05	380.29	1.0717e-06	2.7204e-06	433.94	115.29	3.0866e-06	1.1119e-06	146.3	39.835	31.82	7.8408	1.8831e-06	10.139	0.00019274	0.00019045	5.2662e-05	381.66	2.0825e-06	2.1158e-06	433.68	116.64	2.1078e-06	2.0999e-06	145.99	40.591	32.6	8.2678	2.1032e-06	10.735	106.566	126.501	45.329	-83.207	43.235	170.683	-85.680	-78.472	142.217	60.934	-81.776	-77.601	-73.320	-68.270	-22.617	-72.314	-8191	255	
1582.935	1	1	0	0	0.10869	0.12491	0.21041	0.31401	0.26988	0.20156	0.17715	0.27487	0.11407	0.11547	0.15647	0.22078	0.03603	0.30469	0.15442	0.30619	-1.5854	-1.7542	-1.1396	-2.1833	-1.2417	-1.3167	-2.0958	-1.1875	-1.6583	-1.8667	-1.2792	-2.2021	-1.675	-1.4062	-2.1542	-1.4479	52.945	229.955	127.520	-73.377	187.403	62.272	-80.227	258.796	-70.100	184.476	262.899	4.684	150.176	222.852	257.389	122.253	0.00011775	0.0005347	0.00010139	377.11	2.1995e-06	2.9747e-07	428.72	115.52	1.3439e-06	1.6405e-06	144.04	39.594	31.549	7.7639	4.1447e-06	9.9768	0.00019442	0.00019283	5.2314e-05	380.61	2.0828e-06	2.0863e-06	429.24	116.24	2.1128e-06	2.0856e-06	144.24	40.151	32.344	8.2168	2.0825e-06	10.573	146.783	-36.113	259.213	-83.262	78.683	-76.369	-85.101	-78.379	-14.871	-53.415	-81.477	-76.962	-73.557	-68.220	89.290	-72.960	-8191	255	
1583.007	1	1	0	0	0.24006	0.14814	0.2369	0.19089	0.14078	0.16353	0.34044	0.36466	0.18784	0.27144	0.2787	0.36233	0.42073	0.19117	0.065684	0.19631	-1.3042	-1.9625	-1.1375	-2.1792	-1.7021	-1.1396	-2.3208	-1.3438	-1.6	-2.0375	-1.2229	-1.7771	-1.7437	-1.3396	-2.0729	-1.3292	-11.517	102.625	48.109	197.835	40.543	59.700	179.925	46.471	22.308	6.869	-57.185	-85.313	34.496	-43.958	150.959	28.777	0.00014082	0.00038462	3.1623e-05	376.67	3.6284e-06	3.1817e-06	424.65	115.29	2.4268e-06	2.8129e-06	144.77	39.694	31.557	7.8083	4.7238e-06	10.23	0.000189	0.0001883	5.2931e-05	379.34	2.0717e-06	2.085e-06	427.6	116.31	2.0917e-06	2.1022e-06	144.63	40.377	32.417	8.2427	2.0989e-06	10.689	115.156	132.802	-4.437	-83.260	177.127	60.392	-85.132	-78.225	71.179	108.142	-81.134	-76.914	-73.368	-67.759	102.537	-72.446	-8191	255	
1583.128	1	1	0	0	0.40503	0.23161	0.20333	0.1677	0.031196	0.069752	0.24204	0.19151	0.17743	0.049956	0.15583	0.33326	0.12395	0.18738	0.18725	0.079556	-1.0688	-2.0646	-1.5854	-2.0083	-1.9208	-1.05	-2.2229	-1.5979	-1.4	-2.0375	-1.3958	-1.8708	-1.75	-1.1125	-2.0958	-1.6521	-95.380	-45.874	-79.710	194.145	17.740	254.365	192.847	214.911	20.626	220.168	164.876	-72.667	-57.807	81.913	-11.651	-79.207	0.0001152	8.9252e-05	4.8616e-05	377.83	1.401e-06	4.0763e-06	430.74	116.08	3.1416e-06	1.9845e-06	146.57	40.15	31.853	7.8568	5.1207e-06	10.305	0.00018974	0.00019262	5.246e-05	381.06	2.089e-06	2.0643e-06	431.06	116.92	2.0915e-06	2.0914e-06	146.31	40.771	32.757	8.2879	2.1456e-06	10.829	143.340	14.838	-22.557	-83.663	58.089	26.283	-85.500	-77.873	-56.736	25.800	-81.265	-77.161	-73.670	-68.497	118.968	-72.369	-8191	255	
1583.224	1	1	0	0	0.062244	0.025444	0.12705	0.044573	0.13006	0.19492	0.24603	0.14428	0.15747	0.16838	0.20296	0.13294	0.081971	0.06563	0.26447	0.32185	-1.1938	-2.1437	-1.175	-1.6688	-1.8083	-1.3646	-2.2042	-1.3604	-1.1938	-2.0979	-1.2583	-1.7292	-2.0271	-1.2021	-1.9937	-1.6833	30.376	177.620	173.306	235.708	-87.975	112.551	-71.231	220.191	-31.622	203.464	232.398	258.826	-30.023	130.912	-29.315	-45.011	0.00014761	0.00016423	0.0001388	377.62	2.3561e-06	6.6773e-07	435.15	115.53	2.6667e-06	1.1907e-06	145.61	39.582	31.696	7.8433	3.0911e-06	10.229	0.00018899	0.00019499	5.3436e-05	381.52	2.1314e-06	2.1197e-06	435.01	116.81	2.1167e-06	2.1489e-06	146.27	40.597	32.627	8.2566	2.1214e-06	10.759	72.467	261.536	-18.922	-82.955	-30.738	-48.904	-85.246	-77.779	15.846	86.764	-81.393	-77.099	-73.807	-68.301	-22.004	-72.242	-8191	255	
1583.320	1	1	0	0	0.14947	0.22152	0.16995	0.10171	0.067052	0.31712	0.12057	0.25868	0.26604	0.13459	0.16963	0.35769	0.1922	0.046996	0.032005	0.05547	-0.81875	-2.1021	-1.35	-1.7146	-1.9354	-1.1625	-1.9333	-1.7417	-1.1833	-2.1292	-1.5104	-1.5521	-2.0042	-1.2625	-1.8229	-1.7396	179.803	-80.895	35.319	49.618	-38.027	28.101	-81.523	-91.435	125.222	263.253	194.303	153.579	249.358	-52.192	234.284	113.580	0.00015856	0.00035962	0.00012251	376.82	2.1299e-06	3.1795e-06	430.3	115.28	9.0589e-07	2.9937e-06	144.26	39.3	31.748	7.702	3.1001e-06	10.081	0.00018923	0.00019247	5.2544e-05	381.1	2.0905e-06	2.0991e-06	430.07	116.37	2.0601e-06	2.1214e-06	144.45	40.147	32.499	8.187	2.0992e-06	10.572	64.050	48.538	-19.448	-83.581	22.341	172.001	-85.449	-78.391	235.556	23.259	-81.828	-76.937	-73.175	-68.531	34.824	-73.229	-8191	255	
1583.416	1	1	0	0	0.12745	0.13554	0.44294	0.16227	0.26232	0.12863	0.15236	0.017503	0.34259	0.28281	0.0967	0.39179	0.2592	0.18424	0.18456	0.31409	-0.92917	-1.9979	-1.4667	-1.4042	-2.1104	-1.1792	-1.8833	-2.0333	-1.3146	-1.9583	-1.5479	-1.2625	-2.0021	-1.0208	-1.5458	-2.0229	-37.634	223.279	50.646	-82.909	-81.292	198.450	185.297	238.638	86.829	79.749	-46.630	98.307	-2.069	-49.347	195.209	-77.597	0.00023696	0.00024449	4.2874e-05	376.89	2.2682e-06	2.9536e-06	425.81	115.99	1.4881e-06	5.4299e-07	144.32	39.723	31.909	7.7471	1.1139e-06	10.184	0.00018748	0.00019373	5.2609e-05	379.63	2.106e-06	2.0891e-06	427.16	116.44	2.0877e-06	2.1036e-06	144.77	40.242	32.538	8.1947	2.0803e-06	10.665	98.963	-93.391	158.933	-83.193	-5.285	-59.960	-85.484	-78.217	-38.006	261.702	-81.326	-77.309	-73.969	-67.869	-30.087	-72.727	-8191	255	
1583.537	1	1	0	0	0.09061	0.22274	0.20024	0.060589	0.053539	0.13381	0.23533	0.12513	0.10177	0.24954	0.24985	0.29108	0.16035	0.33047	0.1814	0.16181	-0.75	-2.0625	-1.6854	-1.3167	-2.1229	-1.3792	-1.6	-1.8479	-1.3042	-1.9792	-1.725	-1.1729	-2.2021	-1.2708	-1.4958	-1.9146	-83.579	-17.163	256.314	201.784	121.866	208.436	-1.974	251.401	46.714	-85.674	137.390	146.238	262.810	192.215	-64.448	-67.027	6.1742e-05	0.0001494	3.7572e-05	374.53	1.4881e-06	2.6952e-06	430.18	115.42	3.3679e-06	2.148e-06	145.83	40.102	31.548	7.88	2.9989e-06	10.246	0.00018887	0.00019297	5.3095e-05	379.56	2.1128e-06	2.0804e-06	429.82	116.23	2.1187e-06	2.1281e-06	145.44	40.49	32.459	8.2619	2.1295e-06	10.802	75.685	16.932	-54.535	-83.705	124.550	9.145	-85.482	-77.860	-35.135	60.041	-81.631	-77.235	-73.928	-68.328	147.843	-72.625	-8191	255	
1583.608	1	1	0	0	0.08952	0.24433	0.15689	0.33521	0.21656	0.15617	0.19607	0.19334	0.058898	0.05711	0.13666	0.20415	0.23108	0.12379	0.26047	0.2043	-0.73542	-1.8729	-1.6479	-1.2917	-2.0354	-1.3583	-1.5125	-2.0312	-0.97083	-1.7375	-1.9375	-1.1125	-2.2771	-1.5479	-1.4188	-2.2542	34.138	47.985	229.461	-76.931	65.085	6.185	203.876	-20.461	138.745	-40.015	260.271	-75.778	241.033	215.485	193.708	102.233	9.1006e-05	0.00012201	4.5685e-05	375.75	3.2616e-06	3.067e-06	434.35	116.28	1.4636e-06	1.1247e-06	146.34	40.014	31.405	7.8396	1.666e-06	10.359	0.00018883	0.00019521	5.4306e-05	380.34	2.1312e-06	2.08e-06	435.88	117.07	2.1476e-06	2.1251e-06	146.94	40.787	32.524	8.2891	2.1112e-06	10.879	10.850	223.889	21.262	-83.256	60.567	240.838	-85.365	-77.899	158.438	11.372	-81.744	-77.267	-73.253	-68.544	7.656	-72.761	-8191	255	
1583.705	1	1	0	0	0.13302	0.20373	0.024733	0.26297	0.10247	0.22843	0.14621	0.026366	0.33748	0.060638	0.20629	0.078797	0.087845	0.097736	0.1391	0.16794	-0.84583	-1.6875	-1.7938	-1.1479	-2.0417	-1.4479	-1.325	-2.1479	-1.1521	-1.7062	-1.9979	-1.1896	-1.8875	-1.5271	-1.25	-2.1917	40.054	163.710	175.316	196.034	168.125	130.105	150.600	84.768	74.321	85.697	181.774	182.564	118.964	96.569	13.642	124.526	7.7918e-05	0.00067555	0.00012981	379.29	5.4107e-06	2.1484e-06	426.87	114.52	1.7957e-06	1.6424e-06	144.09	39.013	31.559	7.5977	3.2335e-06	10.077	0.00019172	0.0001953	5.3984e-05	382.04	2.1571e-06	2.1034e-06	430.93	115.57	2.1297e-06	2.1201e-06	144.04	39.945	32.245	8.1675	2.1211e-06	10.628	66.046	-42.534	-25.972	-83.459	97.002	17.489	-85.415	-77.832	-53.152	211.005	-81.316	-76.928	-73.616	-67.936	41.030	-72.690	-8191	255	
1583.801	1	1	0	0	0.27725	0.29867	0.13425	0.33244	0.28047	0.25477	0.15309	0.10137	0.29202	0.18281	0.13205	0.10684	0.05464	0.31911	0.20287	0.21217	-0.85833	-1.6792	-1.8542	-1.0479	-1.9438	-1.6333	-1.3458	-2.1083	-1.2708	-1.5833	-2.1979	-1.2437	-2.0083	-1.75	-1.2938	-2.0667	80.062	-50.233	79.423	-7.206	3.451	-51.540	226.272	-17.219	-44.048	253.473	0.929	-48.950	214.759	-46.074	232.532	53.443	0.00011578	0.00034164	1.887e-05	374.29	4.235e-07	2.6115e-06	426.31	114.01	6.1636e-07	2.0445e-06	142.17	38.739	31.17	7.8159	1.3699e-06	10.088	0.00018966	0.00019631	5.394e-05	378.29	2.1523e-06	2.1091e-06	426.39	115.3	2.1101e-06	2.1531e-06	142.69	39.724	32.212	8.2484	2.0888e-06	10.668	109.115	180.010	127.709	-83.355	7.069	231.143	-85.733	-77.843	-21.854	68.720	-81.548	-76.915	-72.831	-68.352	86.211	-72.162	-8191	255	
1583.920	1	1	0	0	0.02001	0.083173	0.15204	0.20635	0.047249	0.11652	0.18465	0.090185	0.19161	0.094131	0.1618	0.095692	0.12357	0.040961	0.081639	0.12619	-1.0688	-1.5458	-1.9792	-1.2542	-1.75	-1.6667	-1.1958	-2.0979	-1.4375	-1.3833	-2.0167	-1.1875	-1.7812	-1.7583	-1.1729	-2.0604	243.714	-60.672	-5.498	208.855	-9.820	233.710	-76.511	122.894	-27.354	201.151	126.142	-47.670	-81.741	30.183	139.325	234.229	7.7136e-05	0.00030569	8.8062e-05	374.4	1.8933e-06	3.3249e-06	430.88	115.21	2.963e-06	1.5403e-06	145.2	39.847	31.894	7.9491	4.0196e-06	10.476	0.00019177	0.00019467	5.3755e-05	379.53	2.1189e-06	2.0926e-06	430.01	116.44	2.0868e-06	2.1098e-06	145.16	40.435	32.751	8.3504	2.1007e-06	10.894	48.863	18.626	60.683	-83.534	190.986	-32.180	-85.679	-77.893	68.080	18.334	-81.697	-77.189	-73.586	-67.975	30.644	-72.138	-8191	255	
1584.016	1	1	0	0	0.20172	0.13814	0.094126	0.18494	0.19869	0.061713	0.22779	0.14338	0.12236	0.19354	0.11947	0.17815	0.4117	0.13594	0.32517	0.14366	-0.9625	-1.2812	-1.9146	-1.2667	-1.6938	-1.9354	-1.225	-2.0583	-1.5792	-1.2917	-2.0958	-1.1646	-1.6042	-2.0167	-1.0896	-1.9083	-5.791	173.679	-62.012	216.276	226.515	257.952	164.951	104.911	-31.626	21.244	30.000	-34.045	242.426	31.991	-15.553	14.259	0.00023565	0.00017101	0.00011106	380.09	8.6699e-07	1.849e-06	435.98	115.62	2.9054e-06	1.885e-06	147.49	40.017	31.558	7.8945	2.7444e-06	10.365	0.00018922	0.00019126	5.3866e-05	382.23	2.1184e-06	2.12e-06	434.9	116.9	2.0858e-06	2.112e-06	146.79	40.712	32.538	8.3598	2.0913e-06	10.918	61.176	-29.421	45.019	-83.063	234.312	248.212	-85.476	-77.715	-56.203	88.032	-81.714	-76.605	-73.551	-68.342	-13.973	-72.367	-8191	255	
1584.112	1	1	0	0	0.11275	0.16611	0.068796	0.10672	0.41425	0.061527	0.067755	0.15044	0.15436	0.36789	0.28678	0.10229	0.075715	0.19084	0.092431	0.060848	-1.2458	-1.2062	-2.0521	-1.3333	-1.6375	-1.925	-1.2292	-2.1146	-1.8375	-1.2354	-2.2333	-1.2604	-1.4458	-2.0333	-1.1792	-1.8104	42.656	89.329	-82.823	191.961	173.876	15.330	38.282	-47.682	1.438	5.605	230.819	139.819	164.725	-61.916	0.969	182.261	0.00013332	0.00024726	4.8185e-05	378.01	3.0769e-06	4.202e-06	432.24	114.89	2.3845e-06	2.0942e-06	144.09	39.086	31.48	7.7992	3.1135e-06	10.274	0.0001907	0.00019476	5.4345e-05	381.04	2.1106e-06	2.1351e-06	432.94	116.21	2.1191e-06	2.1058e-06	144.74	39.972	32.26	8.2635	2.0838e-06	10.685	78.687	62.235	45.714	-83.488	46.821	43.475	-85.359	-77.979	150.802	52.143	-81.262	-76.993	-73.378	-67.881	7.124	-71.700	-8191	255	
1584.208	1	1	0	0	0.12434	0.25554	0.19276	0.21024	0.10265	0.12619	0.066321	0.067009	0.064227	0.27219	0.04437	0.25175	0.08735	0.10651	0.083223	0.10412	-1.5938	-1.2625	-1.9396	-1.4375	-1.4521	-2.2021	-1.275	-1.9542	-1.8062	-1.1854	-2.1271	-1.6458	-1.1979	-1.9083	-1.075	-1.6875	164.935	-34.506	39.476	-95.209	-46.850	-34.207	16.123	179.875	67.874	239.089	29.224	6.189	-43.272	196.518	91.012	-22.387	0.00011863	0.00052777	9.0258e-05	379.05	2.9456e-06	5.4847e-06	426.73	113.84	3.611e-06	2.4459e-06	142.1	38.501	31.12	7.8539	5.7591e-06	10.189	0.00019026	0.00019215	5.5175e-05	379.89	2.1343e-06	2.1607e-06	427.59	114.94	2.1417e-06	2.1166e-06	142.99	39.566	32.112	8.2854	2.132e-06	10.708	238.565	223.523	183.385	-83.321	-3.384	-6.396	-85.496	-77.959	-33.655	11.228	-81.498	-77.295	-73.133	-68.199	3.524	-72.500	-8191	255	
1584.304	1	1	0	0	0.13127	0.14739	0.22362	0.12138	0.30367	0.10819	0.19869	0.072359	0.13272	0.2135	0.16619	0.382	0.076774	0.070325	0.26929	0.26634	-1.5104	-1.0604	-2.0896	-1.875	-1.2208	-2.1979	-1.3188	-1.7125	-1.8854	-1.1396	-1.9083	-1.4354	-1.2479	-2.1792	-1.3917	-1.3833	155.699	-1.014	-73.300	46.222	260.583	48.655	171.037	152.772	162.365	180.077	-88.110	-40.768	-84.772	-61.250	82.848	-33.074	9.4963e-05	0.00013249	9.0868e-05	375.55	2.4792e-06	2.3676e-06	429.02	114.36	1.375e-06	1.5946e-06	142.56	39.176	31.539	7.8674	2.5736e-06	10.409	0.00019275	0.00019223	5.4937e-05	379.69	2.1127e-06	2.1592e-06	428.57	115.15	2.1576e-06	2.1129e-06	143.23	39.843	32.329	8.3212	2.1278e-06	10.859	144.234	183.444	-12.162	-83.752	27.594	99.764	-85.335	-77.744	-41.684	-0.404	-81.050	-76.858	-73.024	-67.949	74.801	-71.271	-8191	255	
1584.400	1	1	0	0	0.19164	0.096344	0.34072	0.23279	0.096359	0.22209	0.094837	0.30246	0.039947	0.12005	0.13211	0.14006	0.16627	0.17509	0.17287	0.20506	-1.8021	-1.2188	-1.7604	-1.5792	-1.2167	-2.1083	-1.5292	-1.5042	-1.9396	-1.0938	-1.975	-1.925	-1.2021	-2.075	-1.2396	-1.4104	87.562	98.703	260.903	-92.779	111.239	71.602	217.305	254.236	-41.276	245.756	251.144	-33.116	155.104	182.216	84.282	214.827	0.00019436	4.1367e-05	3.0246e-05	378	2.1045e-06	4.8513e-06	430.51	114.25	3.8536e-06	2.4373e-06	144.32	39.481	31.578	7.9093	2.0653e-06	10.448	0.00019367	0.00019341	5.5205e-05	380.41	2.1242e-06	2.1583e-06	432.27	115.51	2.177e-06	2.1353e-06	144.85	40.19	32.419	8.3686	2.1463e-06	10.962	123.968	-94.958	38.544	-83.373	4.667	61.566	-85.457	-77.720	-71.574	38.732	-81.099	-77.280	-73.412	-67.760	29.600	-71.937	-8191	255	
1584.521	1	1	0	0	0.14867	0.11029	0.14911	0.19521	0.013834	0.14183	0.054151	0.33689	0.10792	0.20564	0.19806	0.13476	0.13393	0.16657	0.28743	0.20114	-1.6562	-1.3229	-1.5583	-1.7479	-0.98333	-1.9542	-1.6604	-1.1792	-2.0542	-0.99375	-1.7812	-1.9062	-1.2583	-1.7917	-1.475	-1.3146	107.781	-53.490	194.166	-92.638	7.195	-56.002	-1.715	212.552	76.673	6.812	98.558	188.692	166.714	193.394	211.625	251.185	0.0001212	0.00023382	1.9873e-05	378.91	2.8386e-06	7.9873e-07	426.45	114.7	2.2877e-06	5.6784e-06	143.41	38.605	31.409	7.762	2.5977e-06	10.143	0.00019476	0.00019317	5.4465e-05	381.75	2.0991e-06	2.1729e-06	430.41	115.46	2.1239e-06	2.0933e-06	143.72	39.806	32.158	8.2764	2.1121e-06	10.706	35.376	195.806	5.065	-83.274	82.607	107.019	-85.404	-77.933	-46.982	82.296	-81.090	-76.715	-72.714	-68.135	1.406	-72.744	-8191	255	
1584.617	1	1	0	0	0.033628	0.1999	0.047045	0.12634	0.14582	0.14355	0.1253	0.079679	0.047617	0.043564	0.2247	0.22706	0.14573	0.034785	0.14095	0.12443	-1.6063	-1.2396	-1.4896	-1.9271	-1.0396	-1.9396	-1.7708	-1.2021	-1.9562	-1.4583	-1.5375	-2.1042	-1.0542	-1.7708	-1.6938	-1.2021	69.584	20.040	96.369	153.731	-3.783	8.687	157.582	-47.573	92.103	109.419	153.834	-25.017	165.938	259.612	-74.646	228.324	0.00016201	0.00013807	8.5697e-05	377.25	3.7576e-07	5.8744e-07	426.29	113.44	4.4657e-07	6.3306e-07	142.62	38.836	31.376	7.8232	4.8742e-06	10.097	0.00019153	0.00019318	5.4385e-05	380.35	2.0876e-06	2.1167e-06	426.97	114.87	2.1804e-06	2.1005e-06	142.88	39.759	32.132	8.2786	2.1009e-06	10.64	242.055	-46.507	-51.036	-83.120	-82.674	205.878	-85.384	-78.197	13.908	84.044	-80.955	-77.063	-73.550	-67.664	34.899	-72.557	-8191	255	
1584.713	1	1	0	0	0.18218	0.14769	0.24144	0.18032	0.13881	0.21497	0.067329	0.11047	0.087865	0.28735	0.3333	0.17727	0.053132	0.29081	0.174	0.38695	-1.675	-1.4729	-1.3729	-2.1146	-1.1187	-1.8604	-1.8396	-1.1229	-2.0292	-1.4417	-1.2833	-2.1167	-1.2437	-1.7271	-1.7083	-1.2062	226.000	109.213	113.695	260.789	230.223	-60.007	-1.661	25.844	-13.238	-70.535	-53.513	79.842	86.560	179.805	4.533	234.702	3.4953e-05	0.00010194	0.00011881	377.95	1.4864e-06	2.421e-06	427.7	114.34	3.3395e-06	3.2549e-06	143.15	39.263	31.836	7.8652	3.555e-07	10.22	0.00019132	0.00019354	5.3522e-05	379.87	2.1103e-06	2.1272e-06	427.61	115.32	2.1226e-06	2.0799e-06	144.03	40.003	32.396	8.3194	2.1434e-06	10.806	8.147	47.487	-27.683	-83.443	-8.683	22.804	-85.691	-77.766	-38.562	56.312	-81.388	-77.144	-73.239	-67.843	86.141	-72.381	-8191	255	
1584.832	1	1	0	0	0.42792	0.1957	0.1292	0.10986	0.11406	0.111	0.35537	0.18304	0.11586	0.34139	0.20877	0.16273	0.15561	0.17783	0.16508	0.070835	-1.625	-1.5583	-1.2604	-2.1354	-1.3375	-1.3896	-2.0333	-1.075	-1.8708	-1.5604	-1.3458	-1.9708	-1.1375	-1.6771	-2.0958	-1.3188	-15.449	189.910	127.263	-54.264	194.315	112.192	-95.702	209.577	126.854	175.964	-68.720	-40.884	94.488	10.537	191.146	247.894	0.00028565	0.00025741	7.7953e-05	377.62	1.5583e-06	2.4533e-06	433.44	115.06	3.1854e-06	2.1425e-06	145.07	40.195	31.768	7.9589	2.4076e-06	10.658	0.00019252	0.00019365	5.4115e-05	381.73	2.0904e-06	2.1277e-06	433.63	116.32	2.158e-06	2.1454e-06	145.84	40.806	32.603	8.4264	2.1648e-06	11.123	105.914	241.235	-4.798	-82.932	263.871	153.393	-85.649	-77.823	107.534	121.837	-81.299	-76.913	-73.221	-67.118	-41.325	-72.273	-8191	255	
1584.904	1	1	0	0	0.084666	0.23448	0.24836	0.045106	0.089211	0.15558	0.10955	0.16263	0.20882	0.29941	0.4071	0.19305	0.0074726	0.086908	0.12476	0.074718	-1.5979	-1.7708	-1.1417	-2.2083	-1.3833	-1.5229	-1.9792	-0.96042	-1.8729	-1.6667	-1.1125	-2.2146	-1.5771	-1.5312	-2.0146	-1.2521	237.284	22.733	52.001	208.696	-47.372	227.776	143.169	-80.633	170.685	-85.891	-84.431	-71.636	180.199	139.284	-30.099	145.985	0.00023701	0.00035272	6.1098e-05	380.48	2.6172e-06	2.7683e-06	435.29	115.73	2.5294e-06	1.7318e-06	145.82	39.114	31.787	7.9783	2.4158e-06	10.418	0.00019389	0.00019271	5.3631e-05	383.25	2.1145e-06	2.1266e-06	436.08	116.34	2.1715e-06	2.1294e-06	145.86	40.472	32.599	8.4091	2.1321e-06	10.89	137.069	-55.581	-35.530	-83.683	-15.484	36.904	-85.565	-77.963	200.586	130.452	-81.101	-76.446	-73.691	-68.184	244.307	-72.394	-8191	255	
1585.000	1	1	0	0	0.3179	0.13097	0.25248	0.093485	0.056859	0.38484	0.12988	0.13107	0.44351	0.13969	0.064767	0.085034	0.10598	0.15923	0.08537	0.20828	-1.4396	-1.7875	-1.1208	-1.8563	-1.4771	-1.4229	-2.1771	-1.4146	-1.4333	-1.9562	-1.0875	-2.0229	-1.4042	-1.225	-1.9604	-1.3813	264.162	4.623	149.022	-38.009	115.386	-84.888	201.719	-1.450	82.841	159.312	59.016	-72.908	-70.898	156.900	-84.315	-57.531	9.3694e-05	0.00011108	2.4943e-05	381.03	1.6424e-06	4.1739e-06	430.26	114.79	2.4917e-06	3.6231e-06	143.13	39.278	31.735	7.8927	5.3237e-06	10.257	0.00019316	0.00019305	5.3202e-05	382.41	2.0774e-06	2.1223e-06	431.02	115.57	2.1349e-06	2.1097e-06	143.74	39.984	32.455	8.3006	2.1208e-06	10.78	133.112	74.936	-50.546	-83.242	59.280	83.611	-85.534	-77.592	60.990	74.488	-81.334	-76.834	-73.661	-68.283	40.054	-72.511	-8191	255	
1585.096	1	1	0	0	0.081788	0.042427	0.24963	0.18404	0.27023	0.14156	0.16638	0.044226	0.014442	0.070936	0.16418	0.18984	0.32655	0.19638	0.071625	0.21984	-1.2396	-1.975	-1.1458	-1.9792	-1.5625	-1.4396	-2.1771	-1.2958	-1.8417	-1.7812	-1.2646	-2.0354	-1.6542	-1.0667	-2.1646	-1.4208	109.799	-73.816	174.755	-80.680	231.265	-79.182	97.380	-84.577	16.929	187.648	220.608	101.121	-9.610	98.290	20.913	155.652	6.2664e-05	0.00046739	7.1584e-05	378.47	2.753e-06	1.4052e-06	431.3	114.34	3.0214e-06	5.2226e-06	144.84	39.632	31.859	7.8721	3.4787e-06	10.342	0.00019413	0.0001938	5.2309e-05	381.33	2.1123e-06	2.0982e-06	429.61	115.94	2.102e-06	2.1121e-06	144.44	40.34	32.565	8.3209	2.0865e-06	10.884	93.073	-65.053	20.785	-83.353	61.136	106.322	-85.300	-77.916	58.205	124.539	-81.347	-76.373	-72.828	-68.382	127.066	-71.847	-8191	255	
1585.217	1	1	0	0	0.14861	0.25125	0.20681	0.21688	0.22476	0.05272	0.091248	0.24341	0.25651	0.18787	0.28645	0.26973	0.25834	0.38943	0.12801	0.44024	-1.0792	-2.0271	-1.2167	-1.8792	-1.7208	-1.2437	-1.9979	-1.4625	-1.3937	-1.9438	-1.4167	-1.6771	-1.7625	-1.3542	-2.0854	-1.5125	50.523	238.449	249.431	148.165	-84.948	250.306	187.888	159.636	54.697	200.705	255.466	-19.063	173.587	-91.451	-80.054	158.494	0.00012872	1.6688e-05	5.3503e-05	380.41	2.6744e-06	1.1525e-06	432.58	116	3.6157e-06	3.7172e-07	146.01	40.338	32.029	7.9858	4.047e-06	10.6	0.00018976	0.00019208	5.1225e-05	383.53	2.1061e-06	2.0875e-06	434.89	116.99	2.1176e-06	2.084e-06	146.95	41.124	32.982	8.4666	2.1186e-06	11.093	116.251	220.289	-27.539	-83.174	25.117	-11.093	-85.142	-78.033	-36.657	121.874	-81.629	-76.701	-73.486	-67.624	30.973	-72.258	-8191	255	
1585.313	1	1	0	0	0.19123	0.051937	0.10891	0.16809	0.22341	0.18906	0.13077	0.086528	0.40276	0.31254	0.20685	0.3475	0.1544	0.077625	0.11357	0.12203	-0.9875	-2.0083	-1.2792	-1.7896	-1.7917	-1.1958	-2.1354	-1.6125	-1.3312	-1.8979	-1.3021	-1.8417	-2.1604	-0.975	-1.9562	-1.6021	24.163	48.810	-51.488	-29.505	65.445	74.084	229.756	213.869	-69.990	-54.371	232.890	-44.340	169.949	-79.871	42.245	263.352	0.00016382	0.00041873	3.3429e-05	382.65	4.8915e-06	1.1718e-06	436.73	115.86	1.4744e-06	1.7782e-06	146.71	40.503	32.196	8.0099	4.1493e-06	10.625	0.00019017	0.00019381	5.2767e-05	385.19	2.0909e-06	2.0954e-06	438.83	117.62	2.1232e-06	2.1159e-06	147.57	41.146	33.096	8.4876	2.1034e-06	11.037	107.038	-71.515	127.872	-82.821	-1.376	115.919	-85.074	-77.783	253.938	110.922	-81.041	-76.746	-73.239	-67.981	90.776	-72.576	-8191	255	
1585.409	1	1	0	0	0.18497	0.053152	0.079522	0.051404	0.20349	0.023656	0.074918	0.12271	0.215	0.046052	0.24867	0.13949	0.10004	0.24062	0.16351	0.29069	-0.98333	-1.975	-1.3333	-1.6125	-2.1417	-1.3104	-2.0708	-1.6375	-1.2771	-1.9958	-1.6063	-1.6063	-2.0542	-1.1896	-1.8937	-1.6875	192.241	108.804	65.838	165.190	159.169	-91.032	15.845	229.168	-12.564	121.355	186.839	255.644	27.399	130.725	100.142	111.004	0.00016414	0.00032871	2.3571e-05	380.95	2.651e-06	3.6872e-06	434.64	116.38	3.2368e-06	2.4162e-06	146.7	39.74	31.989	8.039	3.8532e-06	10.458	0.00019255	0.00019239	5.2358e-05	384.96	2.0827e-06	2.0677e-06	435.21	117.37	2.0791e-06	2.1136e-06	146.61	40.53	32.987	8.4826	2.1198e-06	11.007	84.094	-78.681	-86.343	-83.193	20.500	127.717	-85.265	-78.138	-52.691	40.306	-81.164	-76.578	-73.306	-68.522	0.217	-72.290	-8191	255	
1585.481	1	1	0	0	0.089844	0.17336	0.10624	0.11034	0.2663	0.042098	0.13107	0.30586	0.26142	0.24175	0.091267	0.035625	0.1842	0.16038	0.16641	0.32223	-0.72917	-1.9062	-1.4354	-1.6521	-2.1312	-1.1083	-1.9292	-1.8458	-1.2333	-1.9771	-1.6792	-1.4083	-2.2208	-1.3	-1.5792	-2.0042	101.370	-52.085	158.432	-71.483	-54.071	214.856	-79.953	148.864	-92.876	106.372	-8.671	91.530	-80.957	258.479	-69.339	-37.995	0.00019554	0.00021145	7.0617e-05	383.76	1.5019e-06	1.0309e-06	436.91	116.05	1.9866e-06	7.2339e-07	147.29	40.304	32.339	8.2173	6.6424e-07	10.696	0.00018781	0.000192	5.3222e-05	385.97	2.1062e-06	2.0815e-06	436.22	117.37	2.0665e-06	2.1108e-06	146.99	40.915	33.226	8.5522	2.105e-06	11.132	87.554	25.253	-6.550	-83.303	6.354	46.919	-85.340	-77.805	6.532	188.599	-81.338	-76.772	-73.190	-68.144	215.625	-72.564	-8191	255	
1585.601	1	1	0	0	0.26537	0.16926	0.40731	0.21047	0.18214	0.18705	0.184	0.14953	0.050928	0.37101	0.15425	0.16156	0.43333	0.016924	0.27996	0.11201	-0.92917	-1.9458	-1.7021	-1.425	-2.075	-1.3438	-1.7208	-2.2292	-1.2917	-1.9167	-1.6625	-1.4583	-2.1625	-1.4208	-1.8083	-2.0146	61.212	-1.602	-2.320	26.369	117.912	-83.879	185.190	243.123	-76.836	36.408	95.607	111.545	-67.999	-64.606	-82.545	88.239	0.00012305	0.00028033	3.2292e-05	383.52	5.9944e-07	3.0024e-06	436.7	116.66	3.772e-06	2.9865e-06	149.38	40.948	32.576	8.2296	1.3797e-06	10.897	0.00019071	0.00019494	5.3759e-05	386.91	2.1375e-06	2.0974e-06	438.32	118.1	2.1108e-06	2.1316e-06	148.72	41.477	33.488	8.6441	2.1117e-06	11.308	132.032	172.700	15.306	-83.121	54.879	117.793	-85.177	-77.965	41.498	106.018	-81.314	-77.153	-73.370	-68.070	107.837	-72.274	-8191	255	
1585.697	1	1	0	0	0.040759	0.041805	0.34205	0.28595	0.055274	0.092759	0.32723	0.16133	0.23623	0.25845	0.22025	0.13783	0.10371	0.2401	0.073854	0.068347	-0.95417	-1.9021	-1.6979	-1.2875	-2.1354	-1.5646	-1.6021	-2.2875	-1.25	-1.8896	-1.9354	-1.4625	-2.0875	-1.3646	-1.3521	-2.1583	1.271	39.404	-66.856	163.158	94.582	231.791	95.113	165.027	50.747	246.185	-2.373	202.883	214.215	253.149	-53.504	-75.856	0.00013292	0.00033765	5.1794e-05	387.49	2.2324e-06	4.7414e-06	444.21	117.82	2.8031e-06	3.4826e-06	149.65	41.011	32.997	8.2819	1.9643e-07	10.677	0.00019354	0.00019615	5.4018e-05	388.85	2.1182e-06	2.0966e-06	444.65	118.9	2.1019e-06	2.1362e-06	149.48	41.738	33.656	8.6801	2.0787e-06	11.201	110.216	-75.887	56.759	-83.297	-1.746	53.833	-85.469	-78.125	229.153	69.745	-81.283	-77.181	-73.422	-68.043	208.250	-72.136	-8191	255	
1585.794	1	1	0	0	0.064407	0.1608	0.23273	0.12086	0.2731	0.17886	0.37602	0.084466	0.30262	0.2529	0.34453	0.30608	0.31626	0.16415	0.066085	0.13831	-0.86875	-1.8458	-1.8937	-1.1875	-2.0187	-1.55	-1.5271	-2.2125	-1.2646	-1.7292	-2.0542	-1.2167	-1.9958	-1.4979	-1.1792	-2.1896	149.940	170.935	19.783	115.226	-80.366	-23.610	159.051	86.421	35.172	69.125	198.407	-41.035	242.285	-54.328	244.456	83.390	0.00015779	0.00021981	6.1757e-05	386.39	2.4329e-06	7.0957e-07	440.41	117.94	4.3782e-07	9.5965e-07	147.56	40.414	32.73	8.1456	2.1015e-06	10.424	0.00018995	0.00019675	5.386e-05	389.13	2.1292e-06	2.1328e-06	439.35	118.73	2.0547e-06	2.1293e-06	147.56	41.025	33.462	8.5748	2.0931e-06	10.989	37.532	24.847	37.444	-83.210	149.909	-81.576	-85.278	-77.787	26.394	-85.173	-81.499	-76.795	-72.822	-68.216	21.607	-71.922	-8191	255	
1585.912	1	1	0	0	0.10599	0.057117	0.038757	0.15833	0.23854	0.14798	0.20321	0.17556	0.12939	0.18363	0.22917	0.084503	0.17775	0.20972	0.14866	0.021678	-0.98333	-1.7708	-1.9542	-1.1479	-2.0083	-1.5729	-1.3937	-1.9396	-1.3479	-1.6938	-1.9042	-1.3042	-2.1	-1.7583	-1.1146	-2.0604	164.955	0.178	21.343	-50.406	-22.649	-47.692	139.640	190.604	211.645	23.953	-10.037	112.325	-31.418	198.404	103.530	250.556	7.1082e-05	0.00022141	0.00017164	384.38	6.9476e-07	2.7993e-06	436.52	116.36	3.5381e-06	1.145e-06	146.15	39.904	32.417	8.1733	1.4114e-06	10.647	0.00018626	0.00019304	5.3452e-05	387.63	2.1314e-06	2.0994e-06	436.43	117.62	2.0947e-06	2.1283e-06	146.74	40.679	33.276	8.5811	2.075e-06	11.132	157.516	103.668	-24.462	-83.194	190.909	49.369	-85.557	-77.658	-15.028	144.759	-80.851	-76.714	-73.131	-67.575	33.893	-72.120	-8191	255	
1586.009	1	1	0	0	0.10762	0.1045	0.22655	0.12318	0.12762	0.1513	0.035634	0.20709	0.16239	0.2978	0.22345	0.10518	0.20408	0.071403	0.1549	0.081927	-0.96458	-1.5	-2.0375	-1.2812	-1.7667	-1.4708	-1.2563	-1.9917	-1.3687	-1.2917	-1.9417	-1.2458	-1.6104	-1.7979	-1.075	-2.1333	31.787	156.188	166.956	133.267	162.053	-51.949	62.004	90.295	-27.031	-38.568	146.565	33.837	-31.461	88.087	1.563	97.928	0.00015708	0.00015759	0.00010128	386.19	8.8491e-07	2.8249e-06	442.29	116.72	4.6487e-06	1.4996e-06	147.12	40.075	32.15	8.211	5.5191e-07	10.782	0.00018851	0.00019349	5.3578e-05	387.62	2.1094e-06	2.121e-06	440.98	117.42	2.1209e-06	2.1378e-06	147.08	40.779	33.069	8.6554	2.0959e-06	11.32	101.640	234.039	12.591	-83.175	138.728	152.653	-84.816	-77.655	40.843	104.886	-81.338	-76.532	-72.967	-68.163	184.811	-72.129	-8191	255	
1586.105	1	1	0	0	0.19598	0.078741	0.098751	0.14509	0.15931	0.1423	0.1616	0.22837	0.29531	0.26293	0.18256	0.35371	0.18815	0.1221	0.15954	0.093149	-1.0417	-1.4646	-1.9312	-1.2979	-1.7313	-1.9125	-1.3292	-2.0917	-1.6146	-1.4125	-2.1667	-1.3937	-1.6104	-1.8563	-1.0562	-2.05	104.693	168.257	81.823	147.345	132.168	126.513	204.783	-92.890	-42.686	72.077	228.331	115.424	-68.769	75.838	110.787	5.901	0.00013822	0.00040454	0.00010859	386.6	1.1496e-06	2.7757e-06	442.48	116.68	2.4489e-06	3.8528e-06	149.37	40.516	32.391	8.2273	2.1547e-06	10.815	0.00019321	0.00019483	5.4551e-05	389.22	2.138e-06	2.1402e-06	444.67	117.84	2.1441e-06	2.1709e-06	148.9	41.333	33.403	8.7011	2.0831e-06	11.359	98.599	-1.499	230.338	-83.682	89.068	-24.955	-85.250	-77.706	21.097	103.815	-80.977	-76.834	-72.977	-67.474	-43.923	-72.058	-8191	255	
1586.201	1	1	0	0	0.098694	0.34035	0.10923	0.15281	0.11485	0.17034	0.26624	0.091812	0.25261	0.15897	0.14729	0.28221	0.092068	0.27861	0.12209	0.095431	-1.1896	-1.2188	-2.0604	-1.3	-1.6688	-2.0979	-1.3479	-2.0417	-1.8833	-1.3687	-2.0042	-1.3583	-1.6292	-2.0208	-1.3771	-2.0583	122.626	49.072	75.315	-2.615	232.708	186.795	-44.054	249.187	192.186	123.288	71.398	124.054	246.599	233.861	235.705	40.993	0.00016028	0.00055725	4.6658e-05	386.8	1.1871e-06	1.7241e-06	441.8	117.94	2.1385e-06	1.9698e-06	148.07	40.571	32.802	8.2237	3.4973e-06	10.658	0.00019395	0.00019439	5.3902e-05	388.89	2.129e-06	2.1415e-06	443.09	118.72	2.1149e-06	2.0731e-06	148.97	41.315	33.594	8.6778	2.0852e-06	11.162	79.479	44.025	-47.482	-83.246	-73.977	131.091	-85.199	-77.479	-94.521	74.301	-81.228	-76.637	-72.894	-67.981	125.909	-72.082	-8191	255	
1586.297	1	1	0	0	0.1203	0.35672	0.18742	0.26711	0.081008	0.031539	0.20994	0.15253	0.24818	0.045099	0.24323	0.30784	0.10641	0.16346	0.13102	0.31667	-1.2604	-1.1604	-2.0917	-1.3604	-1.475	-2.1792	-1.5042	-1.8375	-1.9292	-1.15	-2.0917	-1.5938	-1.425	-2.125	-1.1854	-1.7583	202.991	136.540	44.465	24.655	-77.628	72.349	199.150	200.689	139.751	97.308	-86.100	194.747	32.763	254.436	-18.262	242.895	0.00013812	0.00026134	1.4346e-05	388.72	3.7557e-06	4.9149e-06	441.66	117.33	3.3368e-06	2.0189e-06	148.94	40.835	32.729	8.2515	1.8622e-06	10.613	0.00019213	0.00018718	5.3763e-05	390.78	2.0782e-06	2.1018e-06	441.35	118.66	2.0756e-06	2.0546e-06	148.62	41.464	33.689	8.6471	2.0957e-06	11.153	77.570	214.126	53.544	-83.360	39.563	98.872	-85.018	-77.617	76.416	-46.740	-81.082	-76.798	-73.343	-67.793	62.769	-72.771	-8191	255	
1586.393	1	1	0	0	0.23855	0.090677	0.086325	0.12858	0.21128	0.2946	0.20933	0.10316	0.11927	0.18253	0.24247	0.20277	0.14508	0.095867	0.44545	0.12952	-1.5667	-1.0542	-1.9708	-1.7042	-1.4021	-2.0583	-1.3563	-1.5979	-1.9646	-1.2125	-2.1125	-1.7229	-1.4396	-2.0729	-1.25	-1.5312	132.178	80.205	179.830	215.334	-93.316	42.447	227.404	-42.851	59.344	-41.533	173.962	136.017	0.830	-84.855	-30.688	204.898	6.4271e-05	0.00024882	2.5851e-05	389.53	3.1937e-06	2.0982e-06	441.99	117.88	4.7904e-06	5.1738e-06	149.43	41.127	32.655	8.1922	1.3021e-06	10.858	0.00018994	0.00018957	5.3838e-05	390.55	2.1099e-06	2.089e-06	442.89	119.1	2.0997e-06	2.0806e-06	149.15	41.698	33.624	8.6907	2.0831e-06	11.344	102.696	-42.924	151.186	-83.209	127.263	106.936	-85.264	-77.768	-87.412	97.920	-80.824	-76.354	-72.755	-67.318	188.499	-72.113	-8191	255	
1586.514	1	1	0	0	0.11795	0.19948	0.12967	0.073513	0.22758	0.049288	0.046318	0.073207	0.13852	0.22195	0.02653	0.26688	0.19999	0.28167	0.037898	0.43267	-1.5083	-1.3125	-1.8896	-1.8042	-1.2375	-2.1583	-1.4583	-1.5417	-2.0833	-1.1646	-1.8042	-1.8146	-1.2792	-2.1583	-1.4625	-1.4188	54.019	150.201	84.306	133.277	193.943	6.233	1.224	-80.920	237.563	-89.033	255.285	137.704	193.227	199.102	233.086	214.938	0.00019804	0.00032554	0.00012767	388.92	3.8204e-06	3.5134e-06	446.48	117.92	2.3735e-06	1.7064e-06	150.67	40.85	32.819	8.1803	1.1845e-06	10.735	0.00019011	0.00018882	5.3902e-05	392.2	2.0717e-06	2.1292e-06	446.87	119.19	2.1432e-06	2.0894e-06	150.4	41.84	33.669	8.6795	2.0913e-06	11.263	64.434	44.791	-37.895	-82.921	-41.507	85.238	-85.337	-77.665	78.263	178.498	-81.275	-76.827	-72.798	-67.968	143.348	-72.159	-8191	255	
1586.610	1	1	0	0	0.28383	0.20974	0.40885	0.071024	0.13986	0.13812	0.12676	0.051239	0.11442	0.079514	0.038346	0.14699	0.19613	0.10999	0.10996	0.25135	-1.6167	-1.2375	-1.6646	-1.6354	-1.0688	-2.1042	-1.4792	-1.3604	-2.0896	-1.3417	-1.7292	-2	-1.2333	-2.1021	-1.375	-1.3604	61.878	17.709	229.721	-19.716	213.152	187.152	134.955	93.098	-50.019	-3.587	161.332	-88.440	158.720	111.155	-32.345	162.343	0.00015388	0.00028123	6.7879e-05	388.36	2.2987e-06	4.1022e-06	444.22	117.72	1.6899e-06	9.9028e-07	149.25	40.497	32.959	8.2042	3.3098e-06	10.642	0.00019057	0.00019165	5.4059e-05	391.25	2.0917e-06	2.1149e-06	443.47	118.83	2.1072e-06	2.0908e-06	148.98	41.313	33.664	8.626	2.097e-06	11.088	70.194	28.233	41.743	-83.235	-89.232	108.093	-85.267	-77.505	145.225	165.579	-80.934	-76.541	-73.377	-68.274	75.348	-72.060	-8191	255	
1586.704	1	1	0	0	0.22972	0.079865	0.057293	0.21678	0.27871	0.032669	0.17387	0.032359	0.17356	0.078183	0.025207	0.13752	0.11812	0.063793	0.15717	0.08487	-1.5229	-1.3667	-1.5792	-2.0125	-1.2333	-2.0917	-1.7437	-1.3521	-2.1771	-1.2083	-1.6104	-1.9958	-1.1729	-1.9188	-1.6437	-1.2771	-41.188	-13.043	-91.548	259.400	167.115	176.537	196.816	70.607	-24.485	44.910	232.758	156.324	56.766	82.577	156.757	-6.488	0.00017311	0.00028116	9.41e-05	387.21	5.3905e-07	1.6329e-06	438.08	117.86	1.3657e-06	2.008e-06	148.78	40.1	32.476	8.1734	7.8569e-07	10.68	0.00018956	0.00019129	5.3216e-05	390.51	2.0486e-06	2.1195e-06	439.93	118.61	2.1266e-06	2.0882e-06	148.22	41.061	33.378	8.6016	2.1041e-06	11.081	71.896	-67.694	56.319	-83.122	133.886	47.013	-85.227	-77.858	252.282	194.812	-80.925	-77.094	-73.504	-68.255	136.930	-71.825	-8191	255	
1586.778	1	1	0	0	0.06062	0.24427	0.31479	0.15531	0.15887	0.17944	0.1265	0.089873	0.14865	0.29783	0.3215	0.36475	0.12935	0.045613	0.20563	0.33051	-1.6021	-1.5146	-1.425	-2.1042	-1.15	-1.7667	-1.8542	-1.2167	-2.1	-1.4229	-1.2792	-2.2083	-1.3396	-1.6646	-1.8917	-1.3687	256.621	166.621	-25.664	224.744	86.052	40.213	-51.058	240.297	-80.591	228.682	-90.352	65.113	182.426	100.062	32.570	156.830	0.00016933	0.00024097	0.00012848	389.39	1.7137e-06	5.0151e-06	442.5	117.5	6.6644e-07	3.1887e-06	147.62	40.265	32.559	8.1275	6.6221e-06	10.651	0.00018936	0.0001909	5.2949e-05	389.89	2.0761e-06	2.1125e-06	441.03	118.4	2.105e-06	2.0992e-06	148.03	41.153	33.291	8.5605	2.0649e-06	11.124	80.497	-33.565	50.236	-83.117	125.617	123.755	-85.051	-78.019	240.697	49.159	-81.001	-76.508	-73.301	-67.385	-26.351	-71.936	-8191	255	
1586.897	1	1	0	0	0.34735	0.07663	0.071357	0.039311	0.057683	0.25329	0.16011	0.21075	0.23158	0.073179	0.2631	0.11445	0.14076	0.030296	0.30607	0.26009	-1.6604	-1.5063	-1.2458	-2.0438	-1.2125	-1.4562	-1.9125	-1.2771	-2.0417	-1.5604	-1.3813	-2.1021	-1.2	-1.8062	-1.8146	-1.1333	-40.700	38.608	85.462	53.155	92.234	25.292	60.249	229.588	147.539	91.241	190.267	128.403	150.973	169.107	239.319	158.229	0.00018676	3.6221e-05	7.001e-05	388.53	1.4255e-06	4.7561e-06	446.23	117.56	3.0235e-06	1.1817e-06	149.07	40.527	32.796	8.2301	8.7157e-07	10.631	0.00019164	0.00019093	5.345e-05	390.53	2.0778e-06	2.1099e-06	443.96	118.45	2.1092e-06	2.0863e-06	149.16	41.46	33.422	8.6063	2.088e-06	11.153	77.814	234.015	9.457	-83.115	47.910	17.905	-85.121	-77.710	-76.020	39.900	-81.022	-76.543	-73.481	-67.919	211.897	-72.241	-8191	255	
1586.993	1	1	0	0	0.14889	0.032684	0.16565	0.21565	0.10447	0.33332	0.24135	0.21312	0.17857	0.15568	0.21767	0.27055	0.094715	0.19077	0.12326	0.10881	-1.6333	-1.6833	-1.1042	-2.2667	-1.3563	-1.5438	-2.0333	-1.2437	-2.0792	-1.8167	-1.2292	-2.1375	-1.3583	-1.4292	-2.1646	-1.3875	113.167	-48.050	-80.961	69.030	-6.361	198.591	208.230	204.500	115.368	34.214	77.269	-32.751	77.292	-36.794	172.046	62.180	0.00028147	9.3778e-05	3.7127e-05	390.94	2.588e-06	2.5283e-06	442.94	117.87	4.2744e-07	1.438e-06	147.25	40.161	32.184	8.0355	1.7915e-06	10.406	0.00019193	0.00018983	5.2218e-05	391.3	2.0764e-06	2.082e-06	441.9	118.71	2.0773e-06	2.0701e-06	147.28	40.827	33.107	8.4696	2.0681e-06	10.9	122.257	182.434	23.940	-82.992	-28.159	174.008	-85.146	-77.679	160.005	207.251	-81.159	-76.795	-73.300	-67.709	80.587	-72.215	-8191	255	
1587.089	1	1	0	0	0.215	0.11236	0.083375	0.091174	0.056511	0.24894	0.16835	0.20631	0.27965	0.063542	0.10402	0.30563	0.31999	0.037518	0.090232	0.17754	-1.6167	-1.8375	-1.1396	-2.1813	-1.4875	-1.6187	-2.1896	-1.25	-1.8604	-2.0021	-1.0688	-2.05	-1.575	-1.4625	-2.1146	-1.225	90.312	41.110	-3.453	195.626	80.566	77.068	172.997	89.581	205.342	157.981	246.063	-84.960	240.083	183.320	120.488	238.259	0.00020904	7.5485e-05	4.4574e-05	386.67	1.1212e-06	1.2875e-06	437.55	116.59	4.9246e-06	1.7242e-06	145.96	40.034	32.1	7.9863	2.5483e-06	10.322	0.00018602	0.00018793	5.2426e-05	388.73	2.0964e-06	2.0575e-06	438.08	117.54	2.0628e-06	2.0679e-06	145.95	40.488	32.945	8.3988	2.1011e-06	10.851	96.781	177.044	198.931	-83.203	50.687	248.471	-85.465	-77.671	33.584	185.608	-81.241	-76.643	-73.142	-67.499	18.629	-72.213	-8191	255	
1587.185	1	1	0	0	0.13126	0.18034	0.02783	0.45681	0.12883	0.14601	0.10936	0.19921	0.19014	0.080843	0.030319	0.16641	0.1616	0.064702	0.062884	0.31209	-1.3208	-1.8417	-1.0542	-2.1708	-1.5792	-1.4021	-2.1208	-1.4833	-1.7021	-2.1	-1.1083	-1.8687	-1.6354	-1.2521	-2.1292	-1.2625	77.776	103.808	211.626	155.886	121.848	139.752	-78.585	22.004	134.752	-92.000	112.149	112.998	255.574	41.688	235.155	7.426	4.7037e-05	9.3084e-05	0.00014033	384.9	3.7667e-06	1.4616e-06	438.06	115.6	3.0441e-06	2.7213e-06	146	39.868	31.914	8.021	1.193e-06	10.412	0.0001917	0.00019189	5.2447e-05	387.3	2.0777e-06	2.0804e-06	436.53	117.08	2.1094e-06	2.1014e-06	145.71	40.471	32.702	8.4305	2.1284e-06	10.959	103.643	189.267	-7.041	-82.943	-53.104	17.337	-85.182	-77.633	22.536	115.046	-81.056	-76.642	-73.026	-67.945	76.121	-71.879	-8191	255	
1587.281	1	1	0	0	0.12214	0.077521	0.19131	0.086113	0.10478	0.27996	0.24261	0.059471	0.1849	0.27907	0.062453	0.13377	0.28089	0.29241	0.27807	0.21235	-1.0771	-2.1521	-1.1688	-1.8958	-1.7646	-1.1854	-2.1958	-1.4062	-1.4229	-2.1083	-1.2708	-1.9021	-1.7417	-1.1521	-2.05	-1.5187	44.405	217.990	169.721	145.484	1.940	106.565	231.197	-87.589	123.225	255.890	-38.961	-76.422	28.358	186.023	-23.627	260.199	0.0002334	4.805e-05	0.00015654	386.37	4.3806e-06	3.3161e-06	440.61	116.62	2.2596e-06	4.18e-06	147.85	40.194	31.997	7.9932	3.7373e-06	10.738	0.00018888	0.0001909	5.2608e-05	389.01	2.1179e-06	2.0929e-06	441.3	117.61	2.1035e-06	2.1248e-06	148.16	41.131	32.988	8.5138	2.1491e-06	11.218	77.770	-60.799	84.243	-83.072	50.427	83.153	-84.966	-77.902	-26.205	90.608	-80.989	-76.389	-73.166	-67.464	61.528	-72.343	-8191	255	
1587.377	1	1	0	0	0.27995	0.060646	0.025264	0.15485	0.17334	0.1779	0.23577	0.15607	0.087686	0.1881	0.043591	0.38184	0.052383	0.18605	0.11659	0.12619	-1.0146	-2.1125	-1.2104	-1.8667	-2.0521	-1.1896	-1.9042	-1.3875	-1.2854	-2.0875	-1.2979	-1.6938	-2.0438	-1.2833	-1.8958	-1.7021	258.337	51.524	110.821	-34.902	88.335	68.441	188.178	-0.825	32.919	225.353	167.035	205.676	202.919	30.453	223.129	31.291	0.0001985	0.00028543	2.9625e-05	385.9	2.8854e-06	1.7761e-06	442.45	117.9	2.759e-06	3.315e-06	148.27	40.685	32.787	8.0743	1.4992e-06	10.604	0.00018823	0.00019443	5.351e-05	389.25	2.1248e-06	2.0881e-06	443.53	118.61	2.1145e-06	2.1351e-06	148.57	41.251	33.357	8.5363	2.1338e-06	11.006	101.027	2.924	159.601	-83.382	48.329	80.211	-85.117	-77.548	258.316	34.147	-81.267	-76.992	-73.263	-68.441	-71.424	-72.643	-8191	255	
1587.474	1	1	0	0	0.20351	0.11129	0.017273	0.28397	0.053495	0.15347	0.54951	0.15565	0.28292	0.12478	0.20918	0.088764	0.060935	0.16572	0.080287	0.34145	-0.9125	-2.0167	-1.2687	-1.5979	-1.8479	-1.0021	-1.8667	-1.7542	-1.1667	-1.9479	-1.4542	-1.4979	-1.9521	-0.99583	-2.0438	-1.8813	254.030	-79.162	-27.404	46.493	-13.036	119.316	197.713	151.981	-32.142	193.780	178.676	-31.492	-0.528	-69.142	135.089	171.157	0.00014909	0.00040635	9.493e-05	385.49	1.1546e-06	2.9206e-06	437.72	116.69	3.4038e-06	7.5313e-07	146.8	40.041	32.403	7.9876	1.0338e-06	10.395	0.000188	0.00019349	5.289e-05	388.35	2.0821e-06	2.0894e-06	437.45	117.92	2.0933e-06	2.1168e-06	146.97	40.712	33.225	8.4667	2.102e-06	10.871	50.253	-49.287	-16.830	-83.023	64.853	96.568	-84.830	-78.003	-34.969	202.299	-81.043	-76.883	-73.242	-67.283	73.987	-72.099	-8191	255	
1587.594	1	1	0	0	0.10523	0.10413	0.33303	0.21941	0.13534	0.25651	0.30242	0.092253	0.26945	0.15356	0.28586	0.17586	0.15797	0.20879	0.27731	0.13329	-0.88542	-1.9208	-1.2938	-1.5479	-2.0896	-1.2896	-1.6729	-1.7812	-1.4062	-1.9646	-1.6187	-1.5479	-2.2354	-1.3062	-1.8021	-2.0292	-44.887	223.773	-31.651	214.371	262.690	147.676	137.624	-67.531	30.896	119.760	87.048	187.536	155.700	59.783	92.602	-47.755	4.7236e-05	0.00013916	0.00017906	383.81	1.2157e-06	9.8217e-07	437.13	116.89	3.363e-06	1.1797e-06	145.91	40.498	32.673	8.0126	2.2826e-06	10.517	0.00018651	0.00019269	5.3261e-05	387.63	2.0749e-06	2.0877e-06	437.63	117.87	2.0835e-06	2.1231e-06	146.55	40.933	33.348	8.5192	2.1354e-06	10.973	2.762	0.439	-14.132	-83.000	197.294	84.150	-85.213	-77.947	187.588	126.928	-81.354	-76.847	-73.135	-67.861	86.194	-72.751	-8191	255	
1587.690	1	1	0	0	0.094209	0.1365	0.02572	0.21139	0.061943	0.14468	0.14646	0.14753	0.26398	0.44887	0.20339	0.071559	0.33687	0.37434	0.19436	0.19508	-0.95625	-2.1792	-1.5625	-1.3771	-2.0708	-1.4583	-1.8458	-2.0458	-1.1	-2.1583	-1.7271	-1.2604	-2.1333	-1.2604	-1.6042	-1.8625	76.435	197.502	109.811	159.268	177.368	-87.707	-21.855	224.791	163.735	165.154	158.435	165.798	130.925	68.223	48.774	106.445	0.00017954	0.00034279	1.6971e-05	385.55	1.57e-06	3.2692e-06	439.9	117.38	1.1308e-06	1.6521e-06	146.9	40.805	32.505	8.1721	1.2459e-06	10.728	0.00018901	0.00019183	5.3255e-05	388.71	2.124e-06	2.0817e-06	439.94	118.31	2.0804e-06	2.1383e-06	148	41.372	33.51	8.5741	2.1155e-06	11.18	104.299	-51.904	5.134	-83.179	-20.453	68.566	-84.999	-78.043	-8.481	5.046	-80.987	-76.541	-73.509	-68.250	123.720	-71.958	-8191	255	
1587.785	1	1	0	0	0.17274	0.33951	0.32655	0.12272	0.14461	0.17971	0.3412	0.13753	0.12883	0.21424	0.25329	0.20642	0.2501	0.18305	0.082205	0.18357	-0.88333	-1.8146	-1.7375	-1.1646	-2.1021	-1.4125	-1.5	-1.9813	-1.1625	-1.7417	-1.9354	-1.4333	-2.0938	-1.4729	-1.4646	-2.1625	142.158	78.252	176.476	172.341	130.746	191.804	246.247	92.799	74.583	229.696	251.294	-43.618	-54.537	99.548	-42.002	157.890	0.00011744	0.0001907	8.3907e-05	388.72	8.4842e-08	1.5977e-06	443.74	118.02	5.47e-06	2.9643e-06	148.26	40.642	32.728	8.1316	1.3841e-06	10.574	0.00019027	0.00019666	5.296e-05	390.44	2.1183e-06	2.11e-06	444.4	118.82	2.1113e-06	2.1517e-06	148.21	41.391	33.627	8.5958	2.0575e-06	11.088	116.571	-0.113	68.841	-83.276	113.458	27.294	-85.074	-78.030	-64.844	108.355	-80.848	-76.760	-73.375	-68.058	136.008	-72.428	-8191	255	
1587.883	1	1	0	0	0.23838	0.11772	0.092211	0.044586	0.11277	0.099858	0.26984	0.26162	0.26211	0.19722	0.14134	0.043547	0.21935	0.014178	0.13542	0.1926	-0.95	-1.8458	-1.7708	-1.2625	-2.075	-1.3687	-1.4354	-2.1	-1.2146	-1.8813	-1.8854	-1.25	-1.8896	-1.6646	-1.2458	-2.0938	132.387	142.249	136.164	53.490	203.443	91.722	244.679	-88.641	-59.551	221.842	-45.287	-93.400	168.938	209.769	93.834	109.187	7.1944e-05	0.00035377	2.1485e-05	384.54	1.5404e-06	2.3184e-06	439.95	118.12	1.1094e-06	2.1566e-06	147.43	40.246	33.097	8.1744	1.0513e-06	10.498	0.00018726	0.00019196	5.2837e-05	388.48	2.1411e-06	2.0772e-06	439.11	118.71	2.08e-06	2.079e-06	147.53	41.163	33.721	8.5928	2.0688e-06	11.024	86.761	-68.517	108.262	-83.261	56.662	185.040	-85.017	-77.847	23.744	35.593	-81.225	-76.947	-73.319	-67.580	-9.884	-72.552	-8191	255	
1588.002	1	1	0	0	0.18873	0.17235	0.037376	0.20202	0.12156	0.19945	0.10635	0.14872	0.10349	0.26052	0.078814	0.3623	0.19516	0.13068	0.09865	0.32286	-0.88125	-1.7354	-1.9875	-1.2958	-1.9396	-1.6646	-1.4417	-2.2167	-1.3021	-1.8271	-1.9688	-1.1792	-1.8646	-1.7104	-1.2146	-2.0354	14.588	201.847	211.603	-23.818	-24.348	-73.963	214.309	-71.993	96.207	-82.711	-15.024	194.169	198.159	101.236	-51.622	180.296	7.8916e-05	9.3019e-05	8.6406e-05	387.49	3.9294e-06	1.9737e-06	439.75	117.45	3.3081e-06	5.1569e-06	147.95	40.844	33.114	8.2428	4.5547e-06	10.557	0.00018947	0.00019088	5.2888e-05	389.7	2.1218e-06	2.075e-06	439.59	118.77	2.104e-06	2.1011e-06	148.54	41.354	33.83	8.637	2.0821e-06	11.082	51.360	145.049	0.605	-83.206	-9.378	66.601	-85.146	-77.947	251.269	47.060	-81.075	-76.797	-72.964	-68.265	107.293	-72.375	-8191	255	
1588.073	1	1	0	0	0.2374	0.11372	0.042753	0.066271	0.050232	0.27597	0.29008	0.044985	0.19664	0.16297	0.1939	0.049217	0.15214	0.30227	0.084247	0.060816	-1.1562	-1.5042	-1.9042	-1.1479	-1.8958	-1.9854	-1.2313	-2.1771	-1.475	-1.4542	-2.1125	-1.2771	-1.7667	-1.9062	-1.1187	-2.0417	89.605	-41.908	35.947	99.337	261.320	-19.359	163.799	59.559	108.155	-70.299	108.551	-72.970	-37.847	40.335	89.460	-38.285	4.9178e-05	5.3222e-05	0.0001757	386.48	2.9115e-06	2.9865e-06	443.68	117.87	2.0281e-06	1.9099e-06	148.76	41.033	33.121	8.3233	2.0066e-06	10.81	0.00019143	0.00019228	5.3176e-05	390.3	2.0961e-06	2.0748e-06	442.25	119.18	2.1245e-06	2.1009e-06	149.35	41.74	33.957	8.6922	2.1e-06	11.279	95.705	-24.281	-30.717	-83.296	-13.581	74.374	-85.114	-77.640	238.362	54.409	-80.909	-76.686	-73.091	-67.981	-5.083	-72.113	-8191	255	
1588.194	1	1	0	0	0.26698	0.13631	0.25165	0.17778	0.1664	0.10104	0.23172	0.12908	0.084845	0.073638	0.36315	0.28565	0.28033	0.11513	0.071218	0.13571	-1.0042	-1.3292	-2.0458	-1.4396	-1.7583	-1.9	-1.2667	-2.2021	-1.6125	-1.0958	-2.0812	-1.4208	-1.5417	-1.8625	-1.1083	-2.1625	-22.441	232.516	185.123	-90.119	-86.217	246.557	72.715	147.951	153.375	-72.818	227.846	256.013	91.209	-56.798	-81.108	16.301	8.8908e-05	0.00012214	6.0877e-05	389.15	2.0915e-06	6.1559e-06	442.96	119.51	2.1688e-06	1.7114e-06	149.65	41.314	33.424	8.2751	2.2845e-06	10.675	0.00018737	0.00018954	5.4222e-05	391.14	2.0879e-06	2.1031e-06	443.98	120.48	2.0902e-06	2.0902e-06	149.93	41.989	34.242	8.7287	2.0633e-06	11.169	-22.538	247.978	32.102	-83.191	-94.079	36.211	-85.174	-77.818	-29.280	156.918	-81.288	-76.582	-73.206	-67.188	125.361	-71.976	-8191	255	
1588.290	1	1	0	0	0.17597	0.18017	0.12619	0.2109	0.1832	0.20214	0.16177	0.18802	0.20731	0.22988	0.10345	0.21058	0.17094	0.077785	0.13314	0.1527	-1.2146	-1.0917	-1.9958	-1.3979	-1.6708	-2.2375	-1.1542	-2.0312	-1.7	-1.1625	-2.1417	-1.4146	-1.5792	-1.8833	-1.1604	-1.7875	-68.251	-76.339	-58.821	229.857	125.069	223.710	153.606	-48.476	13.150	-20.190	-76.805	247.507	226.313	175.821	61.431	173.349	0.00018675	0.00040995	7.7619e-05	387.96	3.7273e-07	1.3281e-06	438.91	118.55	1.5159e-06	1.7508e-06	148.45	40.593	33.228	8.2304	4.6048e-07	10.484	0.00018757	0.00019086	5.396e-05	391.82	2.0909e-06	2.1124e-06	440.03	119.89	2.097e-06	2.0643e-06	148.54	41.461	33.954	8.6368	2.0805e-06	10.993	41.063	215.761	71.589	-83.644	0.806	111.967	-85.316	-77.842	98.512	85.671	-81.576	-77.200	-73.595	-67.719	-53.090	-71.867	-8191	255	
1588.386	1	1	0	0	0.2236	0.13256	0.15465	0.21274	0.15974	0.25817	0.25622	0.18671	0.14477	0.12716	0.10566	0.044681	0.1328	0.13847	0.16193	0.12925	-1.3958	-1.0833	-2.1542	-1.5625	-1.4125	-2.0792	-1.2583	-1.7229	-1.7979	-1.1396	-2.2104	-1.5208	-1.2375	-2.15	-1.2021	-1.8792	64.381	-88.582	123.304	212.809	248.901	133.935	145.698	-82.342	-40.778	104.140	-47.620	-52.632	-90.586	227.318	92.455	95.272	0.00020962	4.0372e-05	7.2819e-05	388.88	9.4198e-07	1.618e-06	438.24	118.51	1.0932e-06	3.3059e-07	148.78	40.358	33.043	8.1765	9.7636e-07	10.487	0.00018737	0.00019096	5.3844e-05	391	2.049e-06	2.0927e-06	439	119.5	2.1083e-06	2.0701e-06	148.63	41.264	34.003	8.667	2.0879e-06	11.017	61.917	-36.407	-46.898	-83.600	4.649	129.820	-85.475	-77.875	69.594	97.308	-81.385	-76.962	-73.350	-68.164	-68.234	-72.211	-8191	255	
1588.482	1	1	0	0	0.12375	0.28344	0.13144	0.11609	0.038842	0.14192	0.090106	0.12394	0.15835	0.16388	0.20729	0.12143	0.36706	0.0839	0.11843	0.063938	-1.5521	-1.1104	-2.0458	-1.6562	-1.3229	-1.9396	-1.6292	-1.6458	-2.0021	-1.2687	-2.0208	-1.7917	-1.225	-1.9854	-1.1125	-1.6979	127.596	84.869	191.365	-54.003	229.747	9.788	201.205	72.382	-30.778	214.638	-49.514	30.194	-49.938	208.868	31.688	118.453	0.00021051	0.00012097	9.2064e-05	387.2	1.7772e-06	5.4051e-07	439.57	118.09	2.487e-06	6.0321e-07	149.78	41.282	33.248	8.3411	1.4498e-06	10.816	0.00018783	0.00018964	5.3467e-05	389.99	2.0879e-06	2.1353e-06	441.56	119.84	2.1157e-06	2.0816e-06	149.74	41.854	34.133	8.7548	2.0811e-06	11.281	98.444	51.117	18.747	-83.720	-27.330	237.248	-85.364	-77.533	-88.626	148.490	-81.287	-77.188	-73.554	-68.258	-43.345	-72.088	-8191	255	
1588.578	1	1	0	0	0.30469	0.16986	0.1511	0.16129	0.070852	0.25841	0.072952	0.13609	0.111	0.26628	0.27721	0.20547	0.23313	0.03051	0.085218	0.07763	-1.6479	-1.1333	-2.0187	-1.8875	-0.96875	-2.1188	-1.4292	-1.5417	-2.0354	-1.1583	-1.9	-1.8813	-1.3333	-2.2229	-1.5208	-1.4104	23.114	251.795	176.020	158.135	174.968	205.983	-85.783	-45.752	227.170	156.978	49.700	181.254	258.877	172.087	71.591	187.388	0.00016381	0.00011235	5.3423e-05	388.89	1.6952e-06	2.1527e-06	444.55	119.46	2.1011e-06	3.2526e-06	150.62	41.351	33.168	8.3607	8.7082e-07	10.625	0.00019053	0.00019218	5.4618e-05	392.04	2.1172e-06	2.1639e-06	445.25	120.19	2.1303e-06	2.0971e-06	150.53	42.001	34.124	8.7606	2.1068e-06	11.175	56.989	-7.587	-36.620	-83.132	128.829	139.364	-85.690	-78.032	186.061	35.356	-81.116	-76.572	-73.430	-68.172	10.403	-71.664	-8191	255	
1588.675	1	1	0	0	0.14012	0.20277	0.090739	0.26458	0.06115	0.13233	0.068501	0.16065	0.060469	0.36523	0.19514	0.25747	0.458	0.12732	0.14256	0.20268	-1.5063	-1.2625	-1.6375	-1.7792	-1.1313	-2.1417	-1.3979	-1.4396	-2.1479	-1.3312	-1.8125	-1.9646	-1.0917	-2.1146	-1.6958	-1.3813	200.328	52.394	157.203	-70.739	-28.181	130.265	168.861	-78.726	55.647	224.460	201.702	-54.639	262.118	230.613	128.737	120.135	0.00020735	0.00028965	0.00011208	390.51	2.4366e-06	1.9433e-06	441.25	118.19	1.4018e-06	4.6784e-06	148.96	40.897	33.267	8.2452	6.7054e-06	10.418	0.00019109	0.0001903	5.3371e-05	391.56	2.0872e-06	2.1189e-06	440.58	119.56	2.1358e-06	2.0698e-06	148.29	41.329	34.026	8.6453	2.0723e-06	10.911	10.721	218.165	-13.294	-83.988	75.379	17.531	-85.193	-78.003	-6.903	81.741	-81.165	-77.336	-73.754	-68.184	53.231	-72.901	-8191	255	
1588.771	1	1	0	0	0.1109	0.080221	0.19695	0.14658	0.19383	0.20942	0.49492	0.267	0.092258	0.12026	0.10111	0.1807	0.24567	0.22315	0.36249	0.18393	-1.8396	-1.3708	-1.7083	-2.1167	-1.2708	-1.8813	-1.8563	-1.3854	-2.1125	-1.4167	-1.5333	-2.1021	-1.2771	-1.8833	-1.9083	-1.1354	225.391	186.649	77.068	127.258	102.523	-31.531	234.922	30.510	217.752	160.474	179.893	206.554	18.825	-5.243	213.791	-15.060	0.00018607	0.00020413	0.00010199	386.3	3.4438e-06	4.1397e-06	438.15	118.33	5.6998e-06	3.0312e-06	148.34	40.512	33.057	8.0972	1.9459e-06	10.492	0.00019112	0.00019107	5.2336e-05	389.95	2.0971e-06	2.1126e-06	439.19	119.63	2.1188e-06	2.0837e-06	148.2	41.262	33.687	8.5765	2.0645e-06	10.928	103.681	113.952	125.078	-83.685	-9.476	-7.587	-85.107	-77.773	-74.750	124.751	-81.205	-76.818	-73.530	-67.373	-6.510	-72.589	-8191	255	
1588.867	1	1	0	0	0.20273	0.11016	0.048334	0.21643	0.24194	0.1056	0.25629	0.24957	0.082906	0.20685	0.044597	0.11314	0.18485	0.091864	0.36657	0.089047	-1.6958	-1.3521	-1.7271	-2.125	-1.1437	-1.8792	-1.9542	-1.4354	-2.0167	-1.2938	-1.4833	-2.1083	-1.2104	-1.6417	-1.9271	-1.2146	172.908	188.619	184.605	211.660	230.397	150.894	203.789	-37.342	34.957	135.312	167.863	189.039	212.194	231.919	-61.769	54.606	0.00015053	0.00021071	2.0848e-05	382.91	1.2982e-06	7.0435e-07	440.33	117.6	1.3295e-06	3.357e-06	147.44	40.325	33.123	8.1799	2.1946e-06	10.58	0.00019362	0.00018733	5.2494e-05	389.82	2.1053e-06	2.1283e-06	440.2	118.83	2.1212e-06	2.0814e-06	148.17	41.263	33.753	8.5815	2.0831e-06	11.061	143.143	-72.561	-9.958	-83.366	9.113	175.591	-85.446	-77.733	141.707	153.658	-81.417	-76.794	-73.311	-67.627	-15.700	-72.308	-8191	255	
1588.963	1	1	0	0	0.064546	0.18301	0.2614	0.19172	0.14355	0.24161	0.36572	0.083063	0.11195	0.17598	0.21558	0.23244	0.28751	0.24927	0.17071	0.055523	-1.9125	-1.5438	-1.4583	-2.1896	-1.3292	-1.8125	-1.9979	-1.3708	-2.0583	-1.5521	-1.3854	-2.0583	-1.3521	-1.6625	-1.8667	-1.4083	169.889	218.850	70.980	119.084	247.555	125.249	176.909	40.671	77.202	124.253	52.606	252.165	216.619	-57.601	64.088	109.250	0.00017276	0.0003103	3.5621e-05	386.99	3.1205e-06	3.1458e-06	442.19	119.03	3.6853e-06	2.34e-06	149.32	40.755	33.092	8.1284	1.9082e-06	10.535	0.00019127	0.00018961	5.2915e-05	390.26	2.0798e-06	2.1021e-06	442.99	119.47	2.1204e-06	2.0896e-06	149.48	41.598	33.9	8.6248	2.0763e-06	11.079	103.619	-67.884	-4.295	-83.249	41.463	64.883	-85.138	-78.015	59.862	68.818	-81.129	-76.588	-73.523	-67.936	177.317	-72.042	-8191	255	
1589.082	1	1	0	0	0.37108	0.48054	0.15687	0.052232	0.040717	0.24137	0.32256	0.31156	0.14441	0.16604	0.28374	0.27294	0.35814	0.33342	0.14895	0.073458	-1.8229	-1.7854	-1.3229	-2.2521	-1.3438	-1.6042	-2.1813	-1.2979	-1.9937	-1.7729	-1.2208	-2.1125	-1.4396	-1.4854	-1.9875	-1.2604	148.874	238.282	208.745	-5.269	220.717	7.561	149.838	-81.457	106.288	135.382	255.875	168.110	198.943	157.604	27.781	245.385	0.00029797	0.00020297	1.9699e-05	388.77	3.0632e-06	2.8979e-06	441.03	118.17	3.8062e-06	1.6754e-06	147.31	40.271	33.161	8.2056	4.9343e-06	10.306	0.00019106	0.00018804	5.2764e-05	391.82	2.088e-06	2.0774e-06	440.41	119.07	2.1176e-06	2.0787e-06	147.61	41.082	33.923	8.5991	2.1194e-06	10.897	140.347	190.284	238.165	-83.497	81.535	196.116	-85.224	-77.837	68.619	-9.098	-81.125	-76.996	-73.421	-68.211	84.667	-73.295	-8191	255	
1589.178	1	1	0	0	0.13486	0.082064	0.1911	0.076681	0.12188	0.18818	0.10957	0.244	0.10178	0.39441	0.047825	0.18192	0.46238	0.23961	0.31035	0.22412	-1.55	-1.9646	-1.2604	-2.0104	-1.4104	-1.6583	-2.0604	-1.1917	-1.9542	-1.8708	-1.2292	-2.1979	-1.6875	-1.5271	-2.2708	-1.4042	178.078	-56.641	-40.474	159.323	222.291	-22.638	221.936	-67.119	183.808	131.627	165.489	-15.437	-73.745	-25.595	216.872	255.034	0.00010131	0.00038375	3.2259e-05	388.01	1.0798e-06	3.1113e-06	439.43	118.15	5.8348e-06	2.2223e-06	146.99	40.272	32.624	8.1591	2.987e-07	10.504	0.00018955	0.00019016	5.3064e-05	389.51	2.0628e-06	2.082e-06	438.55	119.03	2.0862e-06	2.0465e-06	147.11	41	33.674	8.5987	2.1265e-06	10.941	143.944	-26.377	-21.811	-83.544	-95.878	105.510	-85.441	-77.906	-20.660	-21.932	-81.092	-77.093	-73.445	-67.943	201.715	-72.702	-8191	255	
1589.274	1	1	0	0	0.17432	0.26573	0.12138	0.12518	0.21231	0.10583	0.17187	0.1118	0.27637	0.46213	0.16396	0.10581	0.24241	0.099812	0.088198	0.2634	-1.3687	-1.9875	-1.1625	-1.9562	-1.75	-1.2812	-2.1875	-1.325	-1.675	-1.9958	-1.4396	-1.8521	-1.6125	-1.3563	-2.0187	-1.4083	236.022	176.658	253.844	-77.008	168.843	124.230	108.182	133.237	256.938	-24.505	149.563	234.951	-1.411	253.581	241.925	238.310	9.4634e-05	0.00021049	4.7475e-05	388.19	2.5474e-06	6.6862e-07	439.22	118.76	1.8009e-06	3.0597e-06	148	40.555	33.107	8.2323	4.5157e-07	10.546	0.00018971	0.00019153	5.259e-05	389.84	2.0621e-06	2.0959e-06	439.68	119.78	2.1098e-06	2.0735e-06	147.86	41.297	33.791	8.6217	2.1084e-06	11.012	-15.766	-76.430	-70.393	-83.115	-47.551	245.787	-85.060	-78.124	190.621	91.900	-81.409	-76.776	-73.254	-68.105	-70.126	-72.935	-8191	255	
1589.370	1	1	0	0	0.17804	0.092095	0.15638	0.063955	0.075347	0.10092	0.078661	0.35366	0.26679	0.26807	0.19041	0.056897	0.11726	0.22613	0.28493	0.21392	-1.2167	-1.9708	-1.125	-1.9292	-1.8208	-1.325	-2.2271	-1.6333	-1.4958	-2.1708	-1.3854	-1.8396	-2.0229	-1.4167	-2.0646	-1.5	-94.986	256.778	185.210	263.581	81.743	54.563	172.603	179.898	218.360	3.156	98.299	158.693	-93.298	104.237	21.389	96.637	0.00015365	0.00033797	6.1315e-05	387.75	3.1271e-06	3.5575e-06	444.91	119.65	1.3749e-06	1.5205e-07	148.52	40.658	32.969	8.1634	2.6043e-06	10.595	0.00019089	0.00019429	5.2475e-05	391.74	2.1034e-06	2.1042e-06	442.29	119.95	2.1057e-06	2.1297e-06	148.94	41.426	33.807	8.5929	2.1186e-06	11.023	36.669	-15.752	129.756	-83.594	53.414	-36.159	-85.276	-77.842	27.351	-58.901	-81.032	-76.715	-73.505	-67.758	35.158	-72.689	-8191	255	
1589.467	1	1	0	0	0.40263	0.0846	0.34102	0.014547	0.052036	0.28593	0.0509	0.17073	0.11507	0.20796	0.11171	0.20313	0.14056	0.12337	0.12186	0.15991	-1.0208	-2.1271	-1.2021	-1.7396	-1.9583	-1.1833	-2.3354	-1.7396	-1.3937	-2.0938	-1.3833	-1.7687	-2.1271	-1.175	-2.05	-1.6729	-32.740	-45.114	93.942	-88.933	246.851	136.035	-54.913	211.175	107.036	246.496	200.466	165.075	185.472	199.263	135.801	150.325	8.8997e-05	0.00020394	4.2703e-05	384.61	1.0695e-06	1.6367e-06	441.44	117.96	5.474e-06	3.7868e-06	146.4	40.32	32.992	8.0636	3.2768e-06	10.331	0.00018864	0.00019433	5.2888e-05	390.33	2.0393e-06	2.0635e-06	440.11	119.39	2.076e-06	2.073e-06	146.92	40.944	33.689	8.5033	2.0783e-06	10.806	81.657	10.969	-83.491	-83.260	20.778	252.906	-85.299	-77.997	51.897	67.673	-81.266	-76.772	-73.559	-68.158	256.228	-72.856	-8191	255	
1589.563	1	1	0	0	0.13492	0.084006	0.24107	0.12352	0.078098	0.26357	0.25946	0.22519	0.338	0.24358	0.12369	0.18249	0.17304	0.21516	0.20254	0.054327	-0.97292	-2.1229	-1.3	-1.5854	-1.8875	-1.2375	-1.9292	-1.6958	-1.175	-2.0146	-1.4854	-1.4813	-1.9292	-1.2812	-2.0479	-1.8813	38.279	107.236	254.720	-75.704	130.440	256.446	208.167	125.609	138.468	113.533	-39.746	204.743	253.435	65.292	-80.356	-61.658	0.00013594	0.00043815	6.9288e-05	387.93	3.6657e-06	2.4097e-06	438.12	118.33	3.0132e-06	3.1843e-06	146.73	40.338	32.839	8.0754	2.9386e-06	10.294	0.00018783	0.00019257	5.204e-05	389.77	2.1023e-06	2.0809e-06	436.13	119.07	2.0479e-06	2.1042e-06	146.65	40.905	33.62	8.5335	2.0808e-06	10.827	45.644	-16.107	98.919	-83.215	24.008	122.657	-85.956	-78.267	137.546	188.277	-81.211	-76.876	-73.257	-68.048	-8.882	-73.299	-8191	255	
1589.683	1	1	0	0	0.31231	0.049095	0.10388	0.10453	0.16945	0.056056	0.33548	0.2951	0.085814	0.19131	0.29227	0.17668	0.13832	0.20306	0.10028	0.26159	-0.70625	-2.1188	-1.2958	-1.4208	-2.1875	-1.2854	-1.8792	-1.9479	-1.1021	-2.1708	-1.7208	-1.55	-2.2062	-1.3958	-1.7771	-1.9271	35.105	257.782	146.647	5.286	237.330	-51.355	221.670	174.539	-24.806	-31.177	102.095	193.050	-91.549	24.534	160.472	206.435	4.8943e-05	0.00033357	0.00010324	385	2.7818e-06	2.3997e-06	437.06	118.31	3.152e-06	2.7737e-06	148.51	40.27	32.984	8.1835	2.7937e-06	10.604	0.0001885	0.00019045	5.2333e-05	388.89	2.0813e-06	2.0286e-06	438.62	119.34	2.0629e-06	2.1084e-06	148.08	41.122	33.896	8.5743	2.107e-06	10.997	-38.293	-61.755	-25.012	-83.438	-78.195	147.863	-85.124	-77.961	-2.167	60.173	-81.231	-76.426	-73.208	-68.207	70.416	-72.141	-8191	255	
1589.778	1	1	0	0	0.28389	0.10901	0.14831	0.211	0.24499	0.070576	0.14621	0.095509	0.18887	0.094019	0.11928	0.12559	0.17576	0.11035	0.075298	0.26938	-0.89583	-2.0312	-1.4083	-1.3958	-2.0083	-1.3146	-1.8292	-1.8833	-1.0562	-1.9521	-1.6313	-1.4583	-2.1375	-1.425	-1.4813	-1.8062	26.723	187.362	202.880	115.354	205.627	-49.009	139.483	46.979	-71.941	227.171	-76.032	257.960	120.855	-22.768	-41.732	189.499	0.00019742	0.00021334	8.3247e-05	388.52	2.1427e-06	1.5736e-06	444.33	118.83	1.6972e-06	1.7808e-06	148.36	41.124	32.957	8.2629	1.2626e-06	10.596	0.00018822	0.0001935	5.1899e-05	390.66	2.1139e-06	2.0768e-06	443.12	120.05	2.0979e-06	2.1045e-06	149.16	41.724	33.9	8.6696	2.0857e-06	11.132	75.853	-69.919	15.493	-83.067	6.644	-82.431	-84.948	-77.904	-7.112	217.680	-81.432	-76.672	-73.430	-67.775	87.878	-72.239	-8191	255	
1589.874	1	1	0	0	0.09762	0.15913	0.061192	0.24477	0.058811	0.13933	0.13481	0.12799	0.14715	0.25277	0.13982	0.024678	0.045874	0.13725	0.095518	0.24661	-0.725	-1.9021	-1.7687	-1.3021	-2.1854	-1.4875	-1.625	-1.85	-1.2062	-2.0687	-1.9521	-1.0896	-2.1208	-1.3958	-1.4312	-2.0083	-50.077	80.621	65.658	184.169	-70.350	67.502	17.907	242.482	199.759	158.780	86.423	154.375	238.968	106.598	18.406	218.261	0.0001766	0.0002901	9.8346e-05	388.56	1.7405e-06	2.4781e-06	444.7	119.2	1.3454e-06	2.8598e-06	148.78	40.775	33.173	8.1714	1.5009e-06	10.413	0.00018989	0.00019394	5.3019e-05	392.09	2.1399e-06	2.0319e-06	444.13	120.31	2.0662e-06	2.1022e-06	148.88	41.37	34.053	8.5935	2.0835e-06	10.904	89.073	-31.426	-7.507	-83.203	-10.131	47.997	-85.435	-77.786	-58.775	8.227	-80.957	-76.613	-73.328	-67.920	-75.110	-72.690	-8191	255	
1589.970	1	1	0	0	0.22577	0.26461	0.10019	0.15314	0.094157	0.089389	0.19301	0.17526	0.10846	0.068438	0.12287	0.076754	0.023669	0.21806	0.24231	0.26482	-0.9875	-1.9125	-1.8937	-1.2625	-2.05	-1.4292	-1.3583	-1.9521	-1.2875	-1.7917	-2.0167	-1.3083	-2.0021	-1.5354	-1.2854	-2.2396	193.137	30.428	-77.465	204.418	137.360	39.248	209.887	-75.065	73.513	254.283	213.466	206.356	-34.197	-78.740	20.096	60.000	0.00022928	8.3563e-05	0.00011756	388.7	1.5148e-06	3.3892e-06	441.39	119.37	4.8876e-06	1.1923e-06	147.12	40.267	33.297	8.1367	3.8406e-06	10.309	0.00018784	0.00019005	5.2484e-05	390.09	2.0887e-06	2.0653e-06	439.88	120.18	2.0879e-06	2.0963e-06	147.52	41.118	34.06	8.5686	2.0864e-06	10.878	46.888	-34.381	-61.216	-82.951	-80.694	62.219	-85.291	-77.890	126.268	62.326	-81.064	-76.758	-73.264	-68.587	-26.032	-72.222	-8191	255	
#DATA ENDS
