BOXY.EXE: ISS Imagent and Oximeter Data Acquisition Program Version 0.80
Ascii Record File

#ACQ INFORMATION
2  Detector Channels 
16  External MUX Channels 
1  Auxiliary Channels 
5000  Waveform (CCF) Frequency (Hz)
1  Waveforms Skipped 
30  Waveforms Averaged 
1  Cycles Averaged 
16  Acquisitions per Waveform 
10.0806  Updata Rate (Hz) 

#FILE INFORMATION
TRUE -- External MUX Channel results are PARSED.
FALSE -- AC DC and Phase are NOT grouped.
TRUE -- Companion Program Settings File CREATED.
FALSE -- AC data not excluded
FALSE -- DC data not excluded
FALSE -- Phase data not excluded
FALSE -- Auxillary Chn. data not excluded
Tab delimiters

#CALIBRATION STATE
TRUE -- Waveform Calibration Values APPLIED.


#AUX CALIBRATION VALUES
Val Type	aux-1	

Term	1.0000e+00	
Factor	0.0000e+00	


#WF CALIBRATION VALUES
A = Detector Channel
Val Type	A-AC1	A-AC2	A-AC3	A-AC4	A-AC5	A-AC6	A-AC7	A-AC8	A-AC9	A-AC10	A-AC11	A-AC12	A-AC13	A-AC14	A-AC15	A-AC16	A-DC1	A-DC2	A-DC3	A-DC4	A-DC5	A-DC6	A-DC7	A-DC8	A-DC9	A-DC10	A-DC11	A-DC12	A-DC13	A-DC14	A-DC15	A-DC16	A-Ph1	A-Ph2	A-Ph3	A-Ph4	A-Ph5	A-Ph6	A-Ph7	A-Ph8	A-Ph9	A-Ph10	A-Ph11	A-Ph12	A-Ph13	A-Ph14	A-Ph15	A-Ph16	

Term	0.00000e+00	0.00000e+00	0.00000e+00	0.00000e+00	0.00000e+00	0.00000e+00	0.00000e+00	0.00000e+00	0.00000e+00	0.00000e+00	0.00000e+00	0.00000e+00	0.00000e+00	0.00000e+00	0.00000e+00	0.00000e+00	0.00000e+00	0.00000e+00	0.00000e+00	0.00000e+00	0.00000e+00	0.00000e+00	0.00000e+00	0.00000e+00	0.00000e+00	0.00000e+00	0.00000e+00	0.00000e+00	0.00000e+00	0.00000e+00	0.00000e+00	0.00000e+00	0.00000e+00	0.00000e+00	0.00000e+00	0.00000e+00	0.00000e+00	0.00000e+00	0.00000e+00	0.00000e+00	0.00000e+00	0.00000e+00	0.00000e+00	0.00000e+00	0.00000e+00	0.00000e+00	0.00000e+00	0.00000e+00	
Factor	1.00000e+00	1.00000e+00	1.00000e+00	1.00000e+00	1.00000e+00	1.00000e+00	1.00000e+00	1.00000e+00	1.00000e+00	1.00000e+00	1.00000e+00	1.00000e+00	1.00000e+00	1.00000e+00	1.00000e+00	1.00000e+00	1.00000e+00	1.00000e+00	1.00000e+00	1.00000e+00	1.00000e+00	1.00000e+00	1.00000e+00	1.00000e+00	1.00000e+00	1.00000e+00	1.00000e+00	1.00000e+00	1.00000e+00	1.00000e+00	1.00000e+00	1.00000e+00	X	X	X	X	X	X	X	X	X	X	X	X	X	X	X	X	

B = Detector Channel
Val Type	B-AC1	B-AC2	B-AC3	B-AC4	B-AC5	B-AC6	B-AC7	B-AC8	B-AC9	B-AC10	B-AC11	B-AC12	B-AC13	B-AC14	B-AC15	B-AC16	B-DC1	B-DC2	B-DC3	B-DC4	B-DC5	B-DC6	B-DC7	B-DC8	B-DC9	B-DC10	B-DC11	B-DC12	B-DC13	B-DC14	B-DC15	B-DC16	B-Ph1	B-Ph2	B-Ph3	B-Ph4	B-Ph5	B-Ph6	B-Ph7	B-Ph8	B-Ph9	B-Ph10	B-Ph11	B-Ph12	B-Ph13	B-Ph14	B-Ph15	B-Ph16	

Term	0.00000e+00	0.00000e+00	0.00000e+00	0.00000e+00	0.00000e+00	0.00000e+00	0.00000e+00	0.00000e+00	0.00000e+00	0.00000e+00	0.00000e+00	0.00000e+00	0.00000e+00	0.00000e+00	0.00000e+00	0.00000e+00	0.00000e+00	0.00000e+00	0.00000e+00	0.00000e+00	0.00000e+00	0.00000e+00	0.00000e+00	0.00000e+00	0.00000e+00	0.00000e+00	0.00000e+00	0.00000e+00	0.00000e+00	0.00000e+00	0.00000e+00	0.00000e+00	-2.42741e+02	-1.55801e+02	-1.30442e+02	-1.82481e+02	-9.91373e+01	-5.97705e+01	-1.57793e+02	-1.62015e+02	-9.26830e+01	-6.05605e+01	-1.71410e+02	-1.70576e+02	-1.81136e+02	-1.76213e+02	-8.41416e+01	-1.49482e+02	
Factor	4.89592e-05	1.01473e-04	2.92524e-05	1.62080e-01	9.51960e-07	1.04877e-06	1.53107e-01	3.99569e-02	1.07762e-06	9.79278e-07	7.00297e-02	2.41918e-02	1.94195e-02	6.96819e-03	1.13135e-06	1.01434e-02	1.01517e-06	1.04419e-06	2.90279e-07	8.40594e-02	1.13893e-08	1.14537e-08	7.45432e-02	2.08403e-02	1.13918e-08	1.14551e-08	3.47523e-02	1.20131e-02	1.01154e-02	3.62274e-03	1.14149e-08	5.06097e-03	X	X	X	X	X	X	X	X	X	X	X	X	X	X	X	X	



#DISTANCE SETTINGS
A = Detector Channel
A-1	A-2	A-3	A-4	A-5	A-6	A-7	A-8	A-9	A-10	A-11	A-12	A-13	A-14	A-15	A-16	

2.5000e+00	3.0000e+00	2.5000e+00	3.0000e+00	2.0000e+00	3.0000e+00	1.5000e+00	3.0000e+00	3.0000e+00	3.0000e+00	3.0000e+00	3.0000e+00	3.0000e+00	3.0000e+00	1.5000e+00	3.0000e+00	

B = Detector Channel
B-1	B-2	B-3	B-4	B-5	B-6	B-7	B-8	B-9	B-10	B-11	B-12	B-13	B-14	B-15	B-16	

1.0000e+01	1.0000e+01	1.0000e+01	1.4400e+00	1.0000e+01	1.0000e+01	1.5100e+00	1.9400e+00	1.0000e+01	1.0000e+01	1.9900e+00	2.4900e+00	2.4100e+00	2.9000e+00	1.0000e+01	2.9800e+00	




#DATA BEGINS
time	group	step	mark	flag	A-AC1	A-AC2	A-AC3	A-AC4	A-AC5	A-AC6	A-AC7	A-AC8	A-AC9	A-AC10	A-AC11	A-AC12	A-AC13	A-AC14	A-AC15	A-AC16	A-DC1	A-DC2	A-DC3	A-DC4	A-DC5	A-DC6	A-DC7	A-DC8	A-DC9	A-DC10	A-DC11	A-DC12	A-DC13	A-DC14	A-DC15	A-DC16	A-Ph1	A-Ph2	A-Ph3	A-Ph4	A-Ph5	A-Ph6	A-Ph7	A-Ph8	A-Ph9	A-Ph10	A-Ph11	A-Ph12	A-Ph13	A-Ph14	A-Ph15	A-Ph16	B-AC1	B-AC2	B-AC3	B-AC4	B-AC5	B-AC6	B-AC7	B-AC8	B-AC9	B-AC10	B-AC11	B-AC12	B-AC13	B-AC14	B-AC15	B-AC16	B-DC1	B-DC2	B-DC3	B-DC4	B-DC5	B-DC6	B-DC7	B-DC8	B-DC9	B-DC10	B-DC11	B-DC12	B-DC13	B-DC14	B-DC15	B-DC16	B-Ph1	B-Ph2	B-Ph3	B-Ph4	B-Ph5	B-Ph6	B-Ph7	B-Ph8	B-Ph9	B-Ph10	B-Ph11	B-Ph12	B-Ph13	B-Ph14	B-Ph15	B-Ph16	aux-1	digaux	

1113.514	1	1	0	256	0.17821	0.22812	0.16547	0.36377	0.39266	0.20342	0.37226	0.23686	0.27425	0.16886	0.26059	0.16329	0.010866	0.30753	0.044027	0.13214	-0.8625	-2.0812	-1.4208	-1.7938	-2.0896	-1.175	-2.15	-1.8563	-1.2771	-2.2417	-1.7062	-1.3729	-2.1188	-1.4188	-1.7146	-2.0417	134.736	-79.212	71.613	182.060	99.648	11.109	138.654	141.483	86.525	144.986	163.887	77.852	-13.696	142.331	-19.009	-150.326	0.0014588	0.00076891	0.00018121	1361.2	6.9391e-06	1.0763e-05	1358.5	362.02	6.2248e-06	3.8985e-06	411.32	136.8	119.31	40.856	5.5435e-06	50.433	0.0012813	0.0012955	0.00035761	1430.5	1.408e-05	1.4244e-05	1418.1	380.38	1.4075e-05	1.4175e-05	442.12	147.42	127.81	44.275	1.4184e-05	55.302	82.683	-41.179	-36.721	-149.862	-45.307	3.530	-150.392	-145.668	-134.701	-37.177	-146.245	-141.833	-141.235	-136.464	18.000	-137.467	-8191	255	
1113.635	1	1	0	0	0.13699	0.21334	0.27602	0.30911	0.19397	0.14574	0.34039	0.47612	0.10262	0.099309	0.17499	0.22589	0.15009	0.33093	0.14607	0.16448	-0.79583	-2.2375	-1.5667	-1.7938	-2.2729	-1.1833	-1.9979	-2.1083	-0.91458	-2.0687	-1.7896	-1.5292	-2.3771	-1.3958	-1.7542	-2.0271	-117.758	104.087	-58.612	162.230	49.697	8.975	159.694	140.426	96.601	130.502	-88.134	144.947	130.118	166.358	-153.098	122.314	0.0015867	0.0012805	0.00012399	1363.2	2.2284e-06	5.485e-06	1351.2	363.41	1.1048e-05	4.585e-06	411.24	137.14	119.01	40.866	9.8316e-06	50.286	0.0012896	0.0013087	0.00036523	1430.5	1.4306e-05	1.436e-05	1418.1	381.18	1.4354e-05	1.4419e-05	442.36	147.67	127.91	44.384	1.4386e-05	55.267	83.475	-92.483	-92.666	-150.065	1.263	7.483	-150.490	-145.793	-40.025	-114.325	-146.062	-141.913	-141.321	-136.453	-33.295	-137.442	-8191	255	
1113.731	1	1	0	0	0.13653	0.32105	0.060957	0.20886	0.097588	0.086181	0.3025	0.31757	0.068014	0.22062	0.16826	0.27597	0.20515	0.12197	0.2955	0.30851	-0.86458	-1.975	-1.7792	-1.4292	-2.2646	-1.4	-2.0458	-2.2479	-1.2229	-2.0646	-1.9354	-1.4396	-2.2438	-1.6146	-1.7229	-2.1312	-141.249	-93.279	-134.228	124.380	170.917	125.838	143.218	133.350	-128.014	-80.874	-67.164	-83.776	186.488	-137.638	88.011	112.946	0.001738	0.00068945	0.00022069	1358.4	5.2364e-06	8.205e-06	1355	361.31	6.7672e-06	8.1159e-06	412.33	137.13	118.85	40.696	7.2286e-06	50.456	0.0013118	0.0013218	0.00036507	1430.8	1.4319e-05	1.443e-05	1416	379.92	1.4219e-05	1.4387e-05	442.07	147.37	127.82	44.193	1.425e-05	55.195	84.219	-50.380	-45.656	-150.072	-133.575	6.197	-150.412	-145.554	-78.057	36.818	-145.924	-141.908	-141.416	-136.532	-13.080	-137.201	-8191	255	
1113.827	1	1	0	0	0.20729	0.2336	0.27813	0.41652	0.22997	0.20718	0.22481	0.17484	0.27701	0.1053	0.31888	0.09607	0.42792	0.22379	0.14009	0.31651	-0.88333	-2.0583	-1.8792	-1.5021	-2.0896	-1.4583	-1.7479	-2.4104	-1.2667	-1.8062	-2.1292	-1.2687	-2.4396	-1.7458	-1.5396	-2.3125	-49.383	77.922	77.779	184.123	-88.482	24.007	78.335	108.396	148.716	96.940	177.848	68.740	82.190	136.582	68.519	151.953	0.0014715	0.00052983	7.3845e-06	1358.7	6.9205e-06	5.0782e-06	1349.7	359.88	4.7183e-06	4.7491e-06	410.53	136.34	118.85	40.672	9.8475e-06	50.177	0.0012823	0.00129	0.00036187	1426.5	1.4043e-05	1.4059e-05	1411.6	379.32	1.4054e-05	1.4176e-05	440.3	146.88	127.61	44.151	1.4097e-05	55.179	88.327	9.349	47.286	-150.012	10.306	-28.724	-150.371	-145.650	-8.489	-41.486	-146.052	-142.009	-141.127	-136.216	-69.361	-137.569	-8191	255	
1113.899	1	1	0	0	0.044843	0.092192	0.1807	0.30913	0.28677	0.14979	0.33207	0.24431	0.11131	0.10029	0.39132	0.18182	0.21355	0.1379	0.23279	0.057393	-0.93125	-1.7396	-2.0938	-1.3604	-2.05	-1.3771	-1.6104	-2.2854	-1.375	-1.8896	-2.1937	-1.5021	-2.3333	-1.7687	-1.3729	-2.2083	-113.707	127.512	-43.561	152.503	-106.879	-76.957	164.642	163.640	-147.975	-100.569	109.450	118.823	126.196	-148.129	175.764	-115.785	0.0017474	0.0012678	0.00018125	1351.6	5.4685e-06	1.6905e-05	1344.2	360.36	1.1807e-05	1.0587e-05	409.83	135.98	118.67	40.77	7.5349e-06	50.35	0.00128	0.0012868	0.00035815	1421.8	1.4023e-05	1.405e-05	1407.5	378.46	1.3872e-05	1.4021e-05	439.52	146.63	127.32	44.14	1.3921e-05	55.095	101.766	-125.344	38.402	-150.047	51.285	16.725	-150.478	-145.490	-114.473	32.466	-146.050	-142.121	-141.123	-136.411	-59.852	-137.146	-8191	255	
1114.019	1	1	0	0	0.1889	0.13915	0.25882	0.45653	0.10234	0.2462	0.18521	0.43681	0.21124	0.24818	0.11758	0.25593	0.22799	0.26802	0.2792	0.14975	-0.94792	-1.6938	-1.9229	-1.4688	-1.8583	-1.975	-1.5083	-2.4625	-1.4229	-1.4542	-2.0854	-1.3917	-2.125	-2.1167	-1.2646	-2.4958	-75.440	99.961	38.952	187.845	166.308	177.339	161.038	136.886	-25.311	-82.503	90.636	132.433	-154.399	184.309	-141.584	155.644	0.001687	0.00098911	0.00015366	1355	1.1616e-05	6.035e-06	1345.1	359.78	1.5199e-05	1.1363e-05	408.72	136.9	118.68	40.668	7.1623e-06	50.188	0.0012557	0.0012741	0.00035253	1419.6	1.3852e-05	1.385e-05	1406.7	378.7	1.3621e-05	1.3725e-05	439.2	146.58	127.16	44.008	1.3634e-05	54.985	88.061	-88.303	8.756	-150.036	-92.184	137.805	-150.510	-145.592	-75.420	15.884	-146.098	-142.066	-141.097	-136.471	-58.071	-137.488	-8191	255	
1114.115	1	1	0	0	0.024456	0.2675	0.026988	0.22971	0.049243	0.19637	0.051697	0.25602	0.27649	0.030439	0.35761	0.051915	0.35838	0.27833	0.10458	0.090382	-1.1187	-1.4875	-2.3542	-1.2708	-1.8083	-2.0208	-1.4896	-2.4604	-1.5104	-1.5104	-2.2208	-1.6292	-1.9646	-2.1521	-1.0958	-2.1646	50.934	11.138	75.135	144.823	113.660	29.376	72.225	51.814	150.036	130.611	-144.324	-92.025	181.201	155.617	-54.874	96.231	0.0018388	0.00045981	0.00028601	1353.4	1.2751e-05	1.0551e-05	1347.6	360	9.1561e-06	5.0855e-06	410.98	136.21	118.8	40.803	7.263e-06	50.49	0.0012352	0.0012365	0.00034579	1418.1	1.3639e-05	1.3573e-05	1405.7	377.85	1.3558e-05	1.3635e-05	439.29	146.4	127.12	43.992	1.3585e-05	54.984	94.641	85.652	-60.080	-150.055	-51.287	-36.550	-150.538	-145.548	-62.590	-12.865	-146.014	-142.047	-141.050	-136.264	-19.823	-137.178	-8191	255	
1114.212	1	1	0	0	0.12387	0.15863	0.21243	0.37591	0.16791	0.21212	0.24284	0.20323	0.25149	0.011109	0.13374	0.19876	0.17578	0.041634	0.40734	0.046076	-1.2271	-1.45	-2.1417	-1.6042	-1.725	-2.1896	-1.3521	-2.2333	-1.8375	-1.3937	-2.3563	-1.6042	-2.025	-2.1521	-1.2979	-2.1333	-16.964	192.390	-159.035	143.611	53.334	32.874	140.755	166.171	145.778	-127.722	172.286	114.905	191.845	-51.509	31.243	119.555	0.0013324	0.00089737	8.3939e-05	1352.7	6.5849e-06	4.6499e-06	1343.6	358.98	4.3207e-06	1.1609e-05	410.78	136.13	118.29	40.756	1.1181e-05	50.375	0.0012327	0.0012386	0.00034547	1417.8	1.3558e-05	1.3537e-05	1405	377.86	1.3456e-05	1.3509e-05	438.17	146.09	126.97	43.95	1.335e-05	54.939	85.623	-43.271	-27.525	-149.819	18.163	33.661	-150.435	-145.377	-136.775	-12.978	-146.004	-142.145	-141.408	-136.655	-93.349	-137.393	-8191	255	
1114.332	1	1	0	0	0.3039	0.040487	0.21015	0.089529	0.061261	0.38571	0.45488	0.4388	0.31248	0.30372	0.22166	0.20785	0.13915	0.38251	0.1516	0.40586	-1.5271	-1.1979	-2.1	-1.6313	-1.5125	-2.3	-1.4083	-2.175	-1.9458	-1.2313	-2.2583	-1.8	-1.7854	-2.2188	-1.2188	-1.9729	145.454	119.167	97.442	185.091	-116.571	96.768	128.386	112.694	32.159	62.178	100.466	135.744	118.462	163.818	34.166	104.076	0.0011253	0.00049866	0.00026019	1354.1	3.8083e-06	5.5818e-06	1348	358.81	9.8007e-06	2.4455e-06	410.69	136.68	118.47	40.913	1.1839e-06	50.475	0.0012052	0.0012172	0.00033748	1415.8	1.3228e-05	1.3275e-05	1402.9	377	1.3201e-05	1.3276e-05	437.96	146.03	126.76	43.988	1.3269e-05	54.923	108.017	-27.857	-42.325	-150.107	-46.358	36.504	-150.533	-145.560	-35.210	66.483	-146.221	-142.187	-141.244	-136.691	-118.791	-137.392	-8191	255	
1114.428	1	1	0	0	0.046331	0.096521	0.31033	0.10706	0.15078	0.21749	0.25425	0.23064	0.10612	0.19183	0.15886	0.16065	0.13766	0.025921	0.10316	0.13532	-1.4729	-1.3687	-1.9979	-1.7625	-1.4167	-2.1604	-1.2812	-1.9542	-1.9646	-1.2188	-2.35	-1.7812	-1.5208	-2.4562	-1.225	-1.8438	-89.200	29.450	88.488	-93.613	9.593	118.117	134.518	170.685	4.404	-84.128	138.213	113.412	-154.993	143.196	-124.880	108.311	0.0013563	0.0011674	3.9906e-05	1354.7	6.7325e-06	4.8074e-06	1348.3	360.43	1.1952e-05	5.1822e-06	413.35	136.07	118.52	40.684	6.5688e-06	50.399	0.0012145	0.0012242	0.00034345	1418	1.3471e-05	1.3514e-05	1405.2	377.94	1.3384e-05	1.3479e-05	439.64	145.92	126.85	44.011	1.3468e-05	54.828	89.082	171.349	-59.254	-150.129	-56.033	98.667	-150.528	-145.577	-66.398	134.679	-146.083	-142.185	-141.781	-137.038	-34.763	-137.787	-8191	255	
1114.500	1	1	0	0	0.11922	0.18263	0.039189	0.39325	0.21751	0.13924	0.31504	0.13328	0.041579	0.30953	0.091059	0.34904	0.15566	0.15679	0.17063	0.21125	-1.6187	-1.1125	-2.0875	-1.8729	-1.4188	-2.075	-1.8042	-1.7875	-1.9583	-1.3708	-2.1688	-2.1333	-1.5562	-2.0646	-1.4083	-1.6437	13.994	-27.802	-56.825	177.266	-53.827	-57.414	123.473	171.318	-29.966	-28.848	-114.322	122.805	98.500	123.919	-102.689	-137.841	0.0014972	0.0002383	7.9116e-05	1347.5	2.0946e-06	5.7367e-06	1341.4	359.18	9.9074e-06	4.6053e-06	410.11	136.45	118.71	40.659	2.33e-06	50.349	0.0012137	0.0012291	0.00034143	1413.7	1.3431e-05	1.3498e-05	1400.7	378.04	1.3433e-05	1.3513e-05	438.8	146.14	127.12	44.076	1.3668e-05	55.021	91.543	179.287	131.178	-150.598	-24.793	34.069	-150.826	-145.943	-30.332	-70.388	-146.542	-142.533	-141.865	-136.978	25.776	-137.700	-8191	255	
1114.619	1	1	0	0	0.05977	0.089016	0.17873	0.37939	0.12785	0.046119	0.22177	0.19366	0.061693	0.066501	0.10984	0.245	0.19633	0.26799	0.19696	0.073439	-1.7479	-1.3438	-1.9208	-2.275	-1.3792	-2.1167	-1.7354	-1.6125	-2.2062	-1.4354	-2.1063	-2.0771	-1.3542	-2.1437	-1.4688	-1.5125	120.838	-44.123	18.692	156.069	179.515	33.847	189.190	175.591	140.447	143.932	-161.452	76.414	106.953	176.204	-116.563	130.538	0.0014625	0.00036805	3.4117e-05	1352.6	7.4144e-06	3.8236e-06	1343.6	359.57	7.9587e-06	2.8632e-06	411.45	137.13	118.66	40.704	4.7203e-06	50.651	0.0012411	0.0012597	0.00035063	1419	1.378e-05	1.3948e-05	1406.9	378.69	1.3901e-05	1.4008e-05	440.33	146.91	127.52	44.172	1.411e-05	55.307	83.141	-83.744	191.900	-150.926	19.540	-125.974	-150.928	-145.841	-34.785	186.828	-146.548	-142.409	-141.800	-136.764	-81.580	-137.967	-8191	255	
1114.715	1	1	0	0	0.28574	0.35058	0.22373	0.16439	0.12721	0.1172	0.44987	0.024886	0.13737	0.080104	0.18306	0.30743	0.36255	0.03107	0.17547	0.080597	-1.8958	-1.2062	-1.6833	-2.0333	-1.1479	-2.0042	-1.9688	-1.5854	-2.1104	-1.2896	-1.9042	-2.1813	-1.3937	-1.9375	-1.6125	-1.3687	-150.063	124.499	-85.191	-152.870	-100.569	136.263	126.962	121.616	-81.700	-46.698	-21.561	187.462	161.066	124.385	-3.659	167.448	0.0015419	0.00040028	0.00010987	1355.3	8.329e-06	4.5224e-07	1346.5	358.74	6.7042e-06	5.2034e-06	410.39	136.16	118.73	40.657	9.2787e-06	50.518	0.0012682	0.0012807	0.00035873	1421.9	1.388e-05	1.3957e-05	1407.8	378.22	1.3726e-05	1.3851e-05	440.18	146.53	127.34	44.097	1.3586e-05	54.999	101.332	-76.516	-41.788	-150.704	-143.650	-156.356	-151.060	-146.060	-61.838	158.373	-146.447	-142.492	-141.626	-136.801	-5.507	-137.767	-8191	255	
1114.811	1	1	0	0	0.37691	0.14116	0.16588	0.14439	0.24141	0.084156	0.21857	0.081088	0.20108	0.20911	0.20204	0.057655	0.11356	0.36751	0.070928	0.1889	-1.9646	-1.2958	-1.4396	-2.4104	-1.0458	-1.9333	-2.075	-1.4479	-2.2417	-1.4833	-1.7563	-2.3083	-1.3583	-1.9458	-1.9333	-1.4167	-9.903	-159.462	30.973	143.565	111.545	171.604	90.946	-44.939	166.405	96.555	-130.890	194.533	152.909	-153.099	8.801	-131.769	0.0017405	0.0012262	9.8174e-05	1353.5	5.7065e-06	5.9318e-06	1342.4	359.51	4.0739e-06	3.8314e-06	409.24	136.43	118.42	40.673	1.0412e-05	50.141	0.0012364	0.0012433	0.00034557	1419.9	1.3622e-05	1.3714e-05	1407.8	378.44	1.3655e-05	1.3803e-05	439.39	146.47	127.09	44.089	1.3756e-05	54.964	96.841	183.443	195.882	-150.503	0.849	4.878	-150.973	-146.109	-61.038	-64.027	-146.430	-142.272	-141.631	-136.846	-45.642	-137.946	-8191	255	
1114.932	1	1	0	0	0.20181	0.1313	0.31264	0.289	0.26607	0.29896	0.29071	0.17491	0.17139	0.0917	0.11814	0.28788	0.30418	0.20586	0.16829	0.2873	-1.8958	-1.5688	-1.475	-2.3083	-1.2896	-1.7146	-2.0083	-1.3271	-2	-1.5625	-1.6167	-2.3125	-1.4896	-1.9562	-1.9896	-1.1938	152.790	-99.810	-56.361	-126.002	154.591	38.763	161.004	-4.762	-18.015	51.509	135.105	149.371	-162.972	-131.543	120.135	139.581	0.0014162	0.00038347	7.9642e-05	1352.5	4.7147e-06	7.4209e-06	1345.5	359.04	4.9477e-06	7.3393e-06	411.6	136.74	118.02	40.901	8.8359e-06	50.352	0.0012488	0.0012699	0.00035326	1420.4	1.3742e-05	1.3861e-05	1409.8	378.85	1.3809e-05	1.3884e-05	440.56	146.31	127.08	44.209	1.3756e-05	55.096	85.632	169.799	162.383	-150.492	22.503	-95.869	-151.042	-145.931	-92.759	-16.114	-146.385	-142.348	-141.765	-136.581	-25.430	-137.449	-8191	255	
1115.028	1	1	0	0	0.10412	0.18177	0.15963	0.22951	0.12467	0.1432	0.28095	0.20196	0.098826	0.34551	0.27933	0.29598	0.29243	0.15952	0.092294	0.054646	-1.5312	-1.7875	-1.1875	-2.4792	-1.2646	-1.7292	-2.2396	-1.3312	-1.9667	-1.8604	-1.4125	-2.4542	-1.7479	-1.6938	-2.2	-1.3813	117.306	167.358	167.672	179.852	-67.451	-112.242	64.201	167.129	-84.500	82.601	81.444	174.870	144.370	169.533	112.990	114.044	0.0016738	0.0010931	0.00010995	1355.9	1.9164e-06	3.289e-06	1349.2	360.59	1.1138e-05	8.3114e-07	411.25	136.51	119.06	40.903	9.3254e-06	50.346	0.0012555	0.0012759	0.00035405	1422.8	1.3902e-05	1.4008e-05	1410.1	378.86	1.3825e-05	1.3953e-05	440.11	146.57	127.37	44.171	1.3797e-05	55.031	95.407	-76.019	-55.359	-150.295	32.279	-8.972	-150.895	-145.955	-44.056	-64.935	-146.250	-142.433	-141.657	-136.926	-70.566	-137.706	-8191	255	
1115.124	1	1	0	0	0.1877	0.21611	0.10097	0.31224	0.17583	0.26676	0.1213	0.096078	0.076479	0.10546	0.088683	0.29899	0.33229	0.34265	0.024156	0.17089	-1.5021	-1.7875	-1.4167	-2.3458	-1.4833	-1.55	-2.4729	-1.5312	-1.9	-1.8208	-1.2479	-2.3063	-1.7021	-1.6479	-2.2229	-1.3292	-30.219	184.002	84.246	140.876	181.482	173.298	-147.121	126.767	74.921	33.574	132.058	132.954	164.572	151.913	48.709	176.455	0.0011943	0.00067967	0.00028541	1352.4	6.7072e-06	5.5563e-07	1340.2	360.68	3.6623e-06	7.8944e-06	409.81	136.57	119.12	40.763	3.128e-06	50.233	0.001245	0.0012587	0.0003494	1418.6	1.3638e-05	1.3617e-05	1405.2	378.37	1.3502e-05	1.3586e-05	438.59	146.27	127.03	44.017	1.3568e-05	54.811	86.315	-69.376	-44.573	-150.608	-107.243	159.972	-150.787	-145.797	-34.403	-93.064	-146.303	-142.565	-141.604	-136.577	-1.922	-137.845	-8191	255	
1115.196	1	1	0	0	0.067648	0.037959	0.10116	0.2262	0.17396	0.14987	0.25377	0.27335	0.1589	0.044419	0.06962	0.051996	0.17679	0.094184	0.075744	0.21876	-1.4271	-2.0354	-1.3958	-2.2833	-1.7729	-1.3875	-2.3958	-1.4542	-1.5833	-2.1312	-1.3646	-2.2083	-1.8729	-1.4188	-2.1958	-1.5333	-51.753	172.341	50.506	160.750	148.590	107.969	188.863	-147.908	-124.877	75.867	16.695	137.365	-138.351	193.981	82.156	163.499	0.0014503	0.0007907	0.00015861	1354.2	5.9764e-06	5.6925e-06	1340.7	360.53	6.8648e-06	5.3903e-06	412.23	136.3	118.59	40.754	8.0194e-06	50.5	0.0012308	0.0012473	0.00034574	1419.7	1.3596e-05	1.3729e-05	1406.4	378.51	1.3654e-05	1.3784e-05	439.43	146.41	127.09	44.116	1.3653e-05	55.02	68.722	-107.524	76.311	-150.394	-15.050	181.115	-150.627	-145.968	165.478	28.971	-146.530	-142.285	-141.394	-136.715	-6.793	-137.648	-8191	255	
1115.292	1	1	0	0	0.29936	0.19334	0.29872	0.29005	0.18629	0.22136	0.19903	0.33335	0.12151	0.29981	0.24856	0.11834	0.1699	0.12256	0.049121	0.015419	-1.125	-1.8417	-1.3125	-2.0854	-1.7563	-1.2333	-2.3792	-1.5396	-1.6667	-2.0979	-1.3833	-2.1063	-2.0167	-1.2979	-2.2104	-1.725	-134.935	-5.960	135.651	193.020	-109.559	130.223	108.766	139.209	-23.157	-125.885	-143.441	143.242	192.551	-156.526	101.454	5.627	0.0013842	0.00033069	0.00013731	1355.7	2.8948e-06	7.2875e-06	1342.4	360.21	3.8964e-06	6.4764e-06	409.53	136.2	119.01	40.899	1.2342e-05	50.498	0.00123	0.0012331	0.00034389	1418.7	1.3356e-05	1.3431e-05	1403	376.99	1.3186e-05	1.3227e-05	437.96	146.02	126.68	43.975	1.3126e-05	54.86	90.113	-146.886	-54.651	-150.386	-65.390	26.826	-150.936	-146.011	15.342	-29.721	-146.323	-142.225	-141.399	-136.567	51.647	-137.713	-8191	255	
1115.413	1	1	0	0	0.40769	0.049796	0.11417	0.22051	0.33883	0.15877	0.29107	0.36742	0.1592	0.012867	0.072073	0.43319	0.17833	0.18071	0.19516	0.27201	-1.2437	-2.1604	-1.2042	-2.1917	-1.975	-1.2417	-2.2521	-1.8729	-1.5104	-2.1937	-1.4917	-1.8062	-2.0167	-1.3	-2.0021	-1.8292	181.701	132.404	-103.530	98.782	93.834	117.406	-159.431	124.017	119.303	-8.225	71.672	182.630	152.179	12.253	25.617	82.469	0.0017593	0.0013715	9.3912e-05	1350	2.2261e-06	7.3854e-06	1341.5	358.98	7.4362e-06	7.8074e-06	409.7	136.79	118.29	40.752	3.7895e-06	50.52	0.0011901	0.0012042	0.00033728	1412.7	1.3183e-05	1.3158e-05	1399.1	376.63	1.3211e-05	1.3178e-05	436.83	146.05	126.52	43.86	1.3103e-05	54.848	85.972	-135.653	184.110	-150.319	111.398	-4.019	-150.685	-145.918	-163.423	-10.750	-146.288	-142.306	-141.537	-136.694	83.447	-137.515	-8191	255	
1115.507	1	1	0	0	0.093314	0.17038	0.061811	0.2796	0.1239	0.22734	0.097806	0.33074	0.12791	0.2166	0.2003	0.40389	0.28609	0.25853	0.17423	0.10003	-0.88958	-2.2458	-1.3979	-1.975	-2.3146	-1.1208	-2.2396	-1.875	-1.2146	-2.0312	-1.6833	-1.8104	-2.0312	-1.4979	-2.0979	-2.0333	-31.637	-84.015	78.631	169.946	-146.304	87.487	142.829	179.770	146.043	-156.969	-135.835	-126.505	115.736	175.448	69.454	107.316	0.0013155	0.00051528	0.00031573	1349.3	1.2286e-05	5.2301e-06	1348.2	359.32	4.0822e-06	7.601e-06	409.68	136.35	118.24	40.802	5.2817e-06	50.397	0.0011815	0.0011926	0.00033222	1412.1	1.2957e-05	1.3069e-05	1401.8	375.99	1.2893e-05	1.3019e-05	436.73	145.7	126.34	43.865	1.3028e-05	54.77	100.779	-82.315	-44.284	-150.379	-8.856	-28.089	-150.690	-146.052	-88.778	-84.372	-146.332	-142.109	-141.486	-136.582	-102.346	-137.395	-8191	255	
1115.603	1	1	0	0	0.16711	0.029562	0.24395	0.017869	0.21515	0.14396	0.19489	0.30102	0.14838	0.13109	0.21557	0.030535	0.19775	0.29374	0.20509	0.15309	-0.79167	-2.1	-1.3729	-1.7062	-2.1917	-1.2812	-2.1188	-2.0042	-1.0896	-2.0667	-1.7104	-1.4854	-2.3271	-1.2687	-1.9021	-2.0896	95.149	-115.978	-144.436	-151.831	-16.061	-69.484	123.268	150.123	-127.860	67.378	-47.811	110.190	21.114	-142.555	149.071	-102.470	0.0014554	0.00074705	0.00026496	1352.1	6.0393e-06	5.6442e-06	1342.1	358.96	1.1813e-05	4.1994e-06	409.97	136.23	118.31	40.775	5.7878e-06	50.42	0.0011735	0.0011946	0.00033208	1412.8	1.2925e-05	1.2993e-05	1399.1	375.91	1.2971e-05	1.3032e-05	436.69	145.74	126.45	43.862	1.298e-05	54.809	86.876	-112.124	-31.814	-150.138	-85.501	38.537	-150.591	-145.785	-73.104	-19.402	-146.369	-142.180	-141.542	-136.511	59.254	-137.443	-8191	255	
1115.699	1	1	0	0	0.42355	0.16646	0.15746	0.20729	0.093816	0.15493	0.44154	0.48583	0.16951	0.10107	0.23387	0.093227	0.045948	0.014081	0.087417	0.12513	-0.86042	-2.0792	-1.4917	-1.4729	-2.125	-1.2333	-2.0125	-2.2167	-1.0042	-1.8875	-1.6646	-1.5375	-2.3458	-1.5542	-1.5812	-2.2292	-38.483	-93.342	183.500	137.061	-102.719	77.861	101.130	192.099	-73.505	-28.569	162.506	-28.890	71.116	190.402	133.934	54.520	0.0012986	0.00047244	0.00029187	1351.2	3.3534e-06	5.4003e-06	1343.6	360.42	1.8607e-06	6.0671e-06	409.44	136.87	118.26	40.688	5.256e-06	50.376	0.0011766	0.001193	0.00033218	1412.8	1.2961e-05	1.3056e-05	1401.3	376.82	1.3015e-05	1.3156e-05	436.66	145.96	126.6	43.88	1.3018e-05	54.769	93.050	-68.317	-38.100	-150.311	-40.254	56.256	-150.441	-145.625	145.643	30.197	-146.328	-141.996	-141.612	-136.538	33.615	-137.241	-8191	255	
1115.796	1	1	0	0	0.069263	0.11386	0.12467	0.23156	0.17015	0.21083	0.2854	0.19986	0.14813	0.22273	0.020302	0.23444	0.34321	0.17375	0.208	0.037322	-0.85625	-1.9792	-1.8292	-1.3354	-2.0271	-1.4708	-1.7833	-2.3417	-1.0229	-2.0292	-1.8937	-1.3438	-2.2583	-1.3833	-1.3188	-2.1937	29.159	-24.526	114.374	190.092	102.168	-13.628	143.517	151.296	-58.643	18.024	190.179	128.610	-151.156	-126.888	98.040	72.393	0.0013596	0.00020965	0.00029492	1351.4	3.6318e-06	6.4419e-06	1339.3	359.61	3.6364e-06	1.2789e-06	408.77	136.32	118.85	40.632	4.617e-06	50.275	0.0011796	0.0012009	0.00033229	1412.5	1.3052e-05	1.3185e-05	1399.2	377.08	1.3156e-05	1.3284e-05	437.51	145.93	126.89	43.932	1.3272e-05	54.881	87.144	21.246	-49.272	-150.313	51.707	50.111	-150.623	-145.819	-69.597	-114.580	-146.348	-142.232	-141.476	-136.478	-52.157	-137.309	-8191	255	
1115.892	1	1	0	0	0.08064	0.28021	0.14526	0.079562	0.2301	0.2504	0.30359	0.11347	0.18962	0.075711	0.18241	0.21841	0.21386	0.13184	0.053865	0.28228	-0.78125	-1.6812	-1.9896	-1.3104	-2.0104	-1.2854	-1.4458	-2.2562	-0.91458	-1.6896	-2.1396	-1.3479	-2.2583	-1.6646	-1.4021	-2.2	43.038	-74.173	-104.307	192.170	194.553	6.501	149.625	165.304	-5.496	193.715	-144.439	143.169	64.163	-155.302	-146.291	-64.055	0.0014715	0.001208	0.00024206	1352.1	5.2029e-06	2.8513e-06	1344.6	359.26	5.3106e-06	6.8722e-06	408.86	136.07	118.98	40.771	8.4063e-06	50.28	0.0012074	0.0012129	0.00033956	1414.3	1.3296e-05	1.339e-05	1401.9	376.84	1.3086e-05	1.3175e-05	436.22	145.88	126.83	43.884	1.3114e-05	54.762	102.508	-75.473	-78.729	-149.952	-29.086	20.754	-150.542	-145.756	-23.106	84.585	-146.103	-142.000	-141.298	-136.471	103.462	-137.279	-8191	255	
1116.012	1	1	0	0	0.1591	0.20843	0.080922	0.16846	0.25549	0.2894	0.25688	0.26176	0.17219	0.16146	0.29668	0.34088	0.079955	0.090138	0.082761	0.2833	-0.91042	-1.7792	-1.9562	-1.475	-2.0312	-1.5854	-1.4875	-2.3042	-1.3188	-1.4062	-2.1813	-1.3521	-1.9708	-1.9625	-0.92083	-2.1083	80.570	138.075	54.689	-138.247	-157.780	194.038	155.672	163.714	8.069	-94.243	188.075	170.267	177.251	-55.588	40.367	83.765	0.0016678	0.00040352	0.000148	1351.9	7.3039e-06	2.0477e-06	1343.9	359.31	1.1547e-05	4.7128e-06	409.47	136.44	118.85	40.644	1.6149e-06	50.545	0.0011844	0.0012015	0.00033237	1412.7	1.3126e-05	1.3148e-05	1400.5	376.83	1.3062e-05	1.3163e-05	436.79	145.85	126.66	43.941	1.312e-05	54.819	88.815	46.584	-62.537	-150.123	-35.327	-74.875	-150.567	-145.804	-121.226	150.151	-146.191	-142.082	-141.279	-136.521	-93.949	-137.808	-8191	255	
1116.108	1	1	0	0	0.061333	0.26779	0.25551	0.36818	0.2303	0.17822	0.1214	0.19014	0.033885	0.31437	0.24803	0.29673	0.47648	0.40231	0.22279	0.095435	-0.89167	-1.4562	-2.0458	-1.3667	-1.7563	-1.7625	-1.4104	-2.3896	-1.5562	-1.5375	-2.4396	-1.525	-2.1188	-2.0083	-1.2375	-2.2146	-86.065	177.116	59.169	112.779	177.868	112.540	162.063	174.939	137.052	-34.609	109.548	99.107	-145.124	175.960	189.072	108.369	0.0014662	0.00070103	0.00014427	1348.4	3.1191e-06	1.3614e-05	1341.8	358.86	1.3805e-06	6.7254e-06	408.92	136.82	118.84	40.796	5.0825e-06	50.667	0.0011856	0.0012008	0.00033349	1411.9	1.2984e-05	1.3087e-05	1398.7	376.61	1.3027e-05	1.3019e-05	436.1	145.81	126.48	43.878	1.2791e-05	54.742	101.470	-128.603	3.894	-150.420	-51.927	-26.142	-150.592	-145.729	-94.949	87.323	-146.220	-142.275	-141.601	-136.384	-54.581	-137.386	-8191	255	
1116.205	1	1	0	0	0.39465	0.21289	0.16828	0.22151	0.16502	0.12918	0.20726	0.21504	0.0045752	0.073575	0.28169	0.24642	0.23362	0.24791	0.080791	0.22695	-1.1042	-1.1833	-2.1188	-1.7667	-2.0146	-1.8854	-1.5979	-2.1542	-1.5333	-1.3	-2.3333	-1.5042	-2.0042	-2.4646	-1.15	-2.1562	89.071	-113.208	33.820	122.599	-13.089	-24.252	56.039	141.982	48.648	-53.993	153.006	103.346	180.643	-77.348	-62.431	124.514	0.0015001	0.00049117	0.00027142	1346.6	8.7625e-06	6.2048e-06	1337.7	360.69	1.0392e-05	5.4478e-06	410.65	137.03	119.05	40.88	9.3645e-06	50.625	0.0011548	0.0011746	0.00032616	1406.5	1.269e-05	1.2654e-05	1396.5	376.25	1.2517e-05	1.2501e-05	435.54	145.47	126.36	43.8	1.2462e-05	54.59	102.382	-96.609	-93.620	-150.255	184.311	-80.842	-150.399	-145.387	-74.114	-11.213	-146.052	-142.222	-141.476	-136.327	-59.723	-137.355	-8191	255	
1116.301	1	1	0	0	0.17641	0.38479	0.0096972	0.1478	0.13009	0.13004	0.21173	0.19313	0.13708	0.16292	0.25541	0.3314	0.23175	0.11661	0.22626	0.14334	-1.2333	-1.2479	-2.325	-1.4479	-1.7375	-2.0771	-1.3854	-2.2417	-1.8458	-1.0125	-2.3479	-1.5333	-1.4562	-2.3688	-0.99375	-1.9667	-88.859	105.670	181.419	189.008	-18.699	-61.827	177.035	155.297	68.938	-132.601	89.766	-142.623	174.951	-132.688	78.881	94.178	0.0019226	0.00058609	0.00019938	1351	7.6848e-06	8.4587e-06	1339.8	360.51	1.0861e-05	8.9645e-06	408.7	136.68	119.21	41.196	6.0596e-06	50.799	0.001133	0.0011376	0.00031734	1405.6	1.2466e-05	1.239e-05	1394.2	375.8	1.251e-05	1.2405e-05	435.19	145.42	126.25	43.908	1.2283e-05	54.719	88.580	-110.433	-65.177	-150.154	-43.769	48.380	-150.643	-145.981	-67.526	34.867	-146.047	-142.248	-141.325	-136.558	42.046	-137.357	-8191	255	
1116.420	1	1	0	0	0.081416	0.29839	0.33712	0.3072	0.17659	0.23508	0.29941	0.07391	0.34148	0.19933	0.25926	0.10528	0.10366	0.27558	0.10212	0.095873	-1.4604	-1.1042	-2.2188	-1.6917	-1.5667	-2.1042	-1.3292	-2.0875	-1.8229	-1.3146	-2.2917	-1.5583	-1.6125	-2.2667	-1.2458	-1.8125	63.038	92.045	46.656	99.892	84.579	185.971	178.599	61.157	-45.828	-50.507	67.728	-151.552	154.115	150.997	115.887	148.595	0.0014654	0.00074716	0.00035727	1356	4.595e-06	6.4416e-06	1341.7	359.74	1.1014e-05	7.886e-06	409.43	136.32	118.85	41.093	9.2538e-06	50.612	0.0011102	0.0011198	0.00031054	1404.8	1.2146e-05	1.2209e-05	1393.2	374.86	1.2082e-05	1.2166e-05	433.7	145.08	126.04	43.874	1.2178e-05	54.587	91.047	-102.603	-108.567	-150.174	-57.954	24.044	-150.486	-145.624	-39.426	5.499	-146.022	-142.309	-141.068	-136.351	-130.000	-137.227	-8191	255	
1116.491	1	1	0	0	0.12141	0.24301	0.016119	0.39493	0.084786	0.31839	0.30903	0.30866	0.14057	0.12524	0.12971	0.075912	0.33783	0.11403	0.20181	0.11961	-1.5333	-1.1021	-1.8729	-1.8333	-1.5104	-2.1458	-1.6208	-1.8062	-2.0417	-1.1042	-2.0521	-1.7542	-1.4396	-2.3729	-1.2917	-1.6479	-107.668	-1.419	-32.293	161.377	47.347	32.081	144.205	169.581	-71.896	-118.139	-85.521	101.386	183.224	-118.705	192.274	67.124	0.0015774	0.0009084	0.00017478	1349.2	3.8862e-06	3.9568e-06	1339.2	358.43	6.2772e-06	6.7242e-06	408.69	137.18	119.08	41.07	7.3865e-06	50.596	0.0011013	0.0011064	0.0003107	1403.7	1.211e-05	1.2139e-05	1392.6	374.63	1.2119e-05	1.2178e-05	433.38	145.33	126.1	43.844	1.2056e-05	54.563	79.659	-119.441	-153.794	-150.262	181.783	2.865	-150.618	-145.541	-38.554	-117.769	-146.193	-141.956	-141.341	-136.621	-35.746	-137.563	-8191	255	
1116.612	1	1	0	0	0.051303	0.24681	0.084176	0.34903	0.14273	0.24376	0.075776	0.43683	0.16453	0.15738	0.092281	0.080423	0.16371	0.25534	0.15934	0.40021	-1.725	-1.4562	-1.8208	-2.0083	-1.2271	-2.15	-1.8167	-1.7437	-2.175	-1.2167	-2.0563	-1.9188	-1.4458	-2.2188	-1.5896	-1.5292	-55.159	71.765	166.434	145.643	-112.301	-92.794	108.613	175.710	-112.844	-35.935	-78.287	-150.207	66.139	70.025	42.187	98.896	0.0013943	0.00059401	0.00012698	1342.3	6.5406e-06	4.5568e-06	1340.4	359.73	5.8161e-06	8.8073e-06	409.87	136.27	118.35	41.054	9.0977e-06	50.651	0.0010986	0.001101	0.00030727	1398.5	1.196e-05	1.2122e-05	1390.1	375.15	1.2032e-05	1.2105e-05	433.41	144.93	125.78	43.805	1.203e-05	54.678	100.791	-120.661	-66.531	-150.370	-87.866	11.574	-150.604	-145.438	111.988	-20.428	-146.004	-142.182	-141.306	-136.475	-17.592	-137.468	-8191	255	
1116.708	1	1	0	0	0.20108	0.25302	0.16226	0.32288	0.25871	0.11151	0.38795	0.32072	0.13694	0.21382	0.02448	0.044178	0.16901	0.22738	0.38289	0.29828	-1.8833	-1.1542	-1.7896	-1.875	-1.3312	-2.0729	-1.9375	-1.4312	-2.0875	-1.375	-1.8646	-2.1188	-1.3354	-2.1833	-1.7917	-1.6417	-40.114	-49.853	-122.586	147.464	-30.011	-34.355	139.288	-134.182	-132.753	-16.167	154.170	117.063	178.424	-92.872	14.268	175.927	0.0012818	0.00049929	0.00023577	1344.7	1.2212e-05	7.3081e-06	1333	358.95	1.5262e-05	3.6725e-06	407.73	136.33	118.62	40.94	2.6445e-06	50.528	0.0011011	0.0011122	0.00030877	1401.9	1.2107e-05	1.2108e-05	1388.9	373.78	1.2077e-05	1.2132e-05	432.72	144.84	125.8	43.793	1.208e-05	54.517	93.463	144.377	-97.620	-150.342	-77.274	86.453	-150.649	-145.573	-77.624	18.276	-146.124	-142.329	-141.371	-136.512	27.261	-137.364	-8191	255	
1116.804	1	1	0	0	0.19986	0.082854	0.16317	0.29146	0.065859	0.136	0.17256	0.19393	0.26494	0.09236	0.31315	0.34401	0.30878	0.18739	0.13766	0.039547	-1.7687	-1.3125	-1.5562	-2.1813	-1.2062	-2.0687	-1.9688	-1.4854	-2.2167	-1.3542	-1.8354	-2.275	-1.4479	-2.0771	-1.6729	-1.4188	174.589	-132.984	-110.983	166.642	-45.850	163.076	146.240	181.987	116.857	-88.996	-163.218	189.162	179.348	196.294	165.038	161.520	0.001695	0.00079921	0.00016006	1343.2	1.034e-06	9.5066e-06	1337.6	359.36	1.5477e-05	3.77e-06	408.76	136.95	118.67	41.165	4.9202e-06	50.723	0.0011097	0.001108	0.00030796	1401.1	1.2133e-05	1.2206e-05	1389.1	374.5	1.2008e-05	1.2135e-05	433.01	145.21	125.83	43.867	1.2017e-05	54.506	87.166	-57.628	-118.671	-150.252	136.140	23.821	-150.690	-145.692	-25.732	-14.974	-145.969	-142.273	-141.298	-136.293	-75.511	-137.341	-8191	255	
1116.900	1	1	0	0	0.28156	0.13865	0.077694	0.27529	0.022163	0.26678	0.2402	0.16503	0.21974	0.045408	0.45778	0.21736	0.21089	0.18349	0.039543	0.28272	-1.7792	-1.7354	-1.4583	-2.3937	-1.3188	-2.0083	-2.1604	-1.5104	-2.0896	-1.4729	-1.6375	-2.1917	-1.3646	-1.8062	-1.9917	-1.1708	-64.566	-131.931	-130.954	182.104	67.521	-120.300	70.845	118.648	-24.574	30.718	135.277	-125.996	147.948	110.283	-29.034	163.121	0.0016235	0.00056495	0.00029478	1349.4	9.8518e-06	9.2875e-06	1344.2	358.22	1.0203e-05	5.2514e-06	409.47	137.09	118.9	41.061	5.6128e-06	50.732	0.0010895	0.0010935	0.00030597	1402.3	1.1981e-05	1.2029e-05	1391.7	373.95	1.2022e-05	1.2036e-05	433.37	145.2	125.98	43.839	1.1949e-05	54.567	83.290	-92.141	-122.309	-150.351	-60.120	-101.984	-150.313	-145.847	-78.170	78.224	-146.172	-141.856	-141.424	-136.617	-100.172	-137.214	-8191	255	
1116.997	1	1	0	0	0.20291	0.14125	0.01938	0.27513	0.088882	0.18246	0.2456	0.12928	0.27754	0.23524	0.25758	0.20907	0.17205	0.18748	0.20421	0.28751	-1.5854	-1.4604	-1.4271	-2.4646	-1.3896	-1.8312	-2.2417	-1.4667	-1.9188	-1.5771	-1.6313	-2.0792	-1.425	-2.0646	-2.1188	-1.3333	147.550	88.980	-123.305	177.850	115.542	-142.208	154.136	147.475	-72.557	-158.599	167.422	176.802	145.778	188.638	63.707	139.253	0.0014711	0.00073995	0.0001232	1354.4	6.9159e-06	1.2199e-05	1342.3	360.28	5.0572e-06	3.9076e-06	410.44	138.13	118.61	41.055	1.2748e-05	50.581	0.001085	0.001101	0.00030557	1402	1.195e-05	1.206e-05	1390.9	374.16	1.1996e-05	1.2136e-05	433.06	145.39	125.77	43.828	1.1995e-05	54.566	99.146	-101.128	2.586	-150.098	-26.803	-23.949	-150.566	-145.679	125.941	-31.927	-146.274	-142.198	-141.281	-136.577	-88.257	-137.173	-8191	255	
1117.093	1	1	0	0	0.11999	0.092972	0.085723	0.47001	0.10403	0.15083	0.12365	0.1034	0.12003	0.12919	0.15519	0.31285	0.28196	0.20167	0.0010635	0.19628	-1.6375	-1.7563	-1.3188	-2.4813	-1.2854	-1.675	-2.4646	-1.3458	-1.8104	-1.8979	-1.5375	-2.3708	-1.6583	-1.7062	-2.3063	-1.3083	169.563	32.478	78.135	139.146	-132.217	190.192	180.141	131.816	49.384	41.522	-116.497	-159.405	169.648	182.472	180.000	172.227	0.0013695	0.00076171	0.00016901	1350.8	6.3294e-06	8.9654e-06	1339.9	359.61	1.4372e-05	8.5944e-06	410.72	137.77	118.72	41.223	8.2752e-06	50.824	0.0010908	0.0011044	0.00030735	1402.7	1.2147e-05	1.2179e-05	1390.8	375.05	1.2102e-05	1.2124e-05	433.93	145.37	125.87	43.888	1.2092e-05	54.651	96.902	-45.766	187.279	-150.102	-9.823	35.215	-150.613	-145.503	-88.320	-147.155	-146.066	-141.855	-141.388	-136.227	-4.010	-137.588	-8191	255	
1117.189	1	1	0	0	0.1342	0.12185	0.16275	0.26992	0.11659	0.075252	0.28353	0.34183	0.11847	0.2896	0.26426	0.22527	0.2132	0.0098095	0.15357	0.12898	-1.5292	-1.8854	-1.2583	-2.5	-1.3354	-1.4062	-2.3417	-1.4521	-1.8729	-1.85	-1.4021	-2.1813	-1.65	-1.4813	-2.1042	-1.525	-57.418	-93.269	5.794	114.571	171.307	-50.390	117.925	184.150	29.338	-146.288	174.576	173.421	-160.845	-11.062	-103.548	173.293	0.0012909	0.00066266	0.00022061	1349.6	5.6324e-06	1.0254e-05	1344.8	359.29	6.4063e-06	6.842e-06	409.28	137.37	119.02	41.033	8.1961e-06	50.778	0.001092	0.0011068	0.00030765	1402.1	1.2078e-05	1.2072e-05	1391.3	374.63	1.2006e-05	1.2192e-05	433.47	145.47	125.82	43.791	1.209e-05	54.669	92.199	141.819	-16.151	-150.180	-4.991	-7.455	-150.387	-145.590	-35.366	47.201	-146.165	-141.823	-141.312	-136.272	38.255	-137.085	-8191	255	
1117.285	1	1	0	0	0.32264	0.075786	0.26335	0.15465	0.10839	0.33573	0.35157	0.31255	0.11172	0.12924	0.1734	0.11784	0.20329	0.30228	0.17161	0.34448	-1.4146	-2.0646	-1.225	-2.275	-1.5896	-1.4229	-2.4375	-1.6229	-1.6604	-1.9792	-1.3542	-2.1104	-1.9688	-1.4646	-2.0521	-1.5729	-80.612	49.537	191.210	190.664	-60.569	182.417	179.222	82.049	-71.149	65.071	-126.752	156.049	188.889	105.132	33.657	115.386	0.0014262	0.00084051	6.3207e-05	1350.1	4.5708e-06	2.9536e-06	1345.1	359.53	4.7856e-06	6.2799e-06	410.29	136.42	118.97	41.049	3.8116e-06	50.562	0.0011002	0.0011104	0.00031081	1402.4	1.2118e-05	1.2183e-05	1393.4	374	1.2154e-05	1.2175e-05	434.07	145.16	126.11	43.815	1.2227e-05	54.553	84.733	-129.148	-26.203	-149.916	59.807	-55.298	-150.484	-145.592	35.076	196.332	-146.161	-141.695	-141.330	-136.116	-149.466	-137.257	-8191	255	
1117.381	1	1	0	0	0.1241	0.21823	0.13553	0.28071	0.24872	0.13712	0.36942	0.1585	0.090529	0.15336	0.27317	0.25899	0.1202	0.10712	0.1177	0.2464	-1.1833	-2.1208	-1.2729	-2.1729	-1.6583	-1.2854	-2.2146	-1.6354	-1.65	-2.2958	-1.4125	-1.8917	-2.1792	-1.3396	-2.0187	-1.6333	30.027	146.701	32.042	-160.928	70.129	170.489	132.242	113.194	38.747	104.480	172.683	-77.548	181.721	-52.607	172.095	102.416	0.0015007	0.00094948	0.00020173	1352.1	8.4613e-06	6.1029e-06	1346.8	358.79	2.6606e-06	7.0978e-06	409.11	136.55	119.19	41.063	1.0937e-05	50.755	0.0010966	0.0011117	0.0003113	1402.8	1.2086e-05	1.2191e-05	1392.5	373.53	1.2105e-05	1.2145e-05	432.7	145.15	125.88	43.792	1.2068e-05	54.578	69.656	-67.585	-62.436	-149.920	-69.863	104.370	-150.376	-145.639	-46.953	19.558	-145.986	-141.918	-141.524	-136.497	25.980	-137.360	-8191	255	
1117.500	1	1	0	0	0.14187	0.20156	0.28421	0.20646	0.16645	0.11449	0.1654	0.30495	0.16623	0.20371	0.29396	0.30664	0.22827	0.050712	0.20591	0.33154	-1.1417	-2.1958	-1.2208	-1.9542	-2.0542	-1.1333	-2.2104	-1.8354	-1.1875	-2.2188	-1.5688	-1.9333	-2.2771	-1.4021	-1.9396	-1.8646	-146.155	143.561	-52.632	180.072	-81.383	170.356	105.799	170.733	78.774	54.247	-134.421	131.986	143.790	-127.249	43.824	146.618	0.0015669	0.00032343	0.000304	1349	2.5074e-06	5.0233e-06	1341.2	359.04	1.2554e-05	1.044e-05	407.35	137.02	119	41.299	3.4684e-06	50.715	0.0010958	0.0011076	0.00030611	1402.4	1.1988e-05	1.2167e-05	1390.6	374.34	1.1955e-05	1.2072e-05	432.45	145.03	125.64	43.812	1.2034e-05	54.548	86.437	1.102	-21.893	-150.103	-145.436	-6.054	-150.394	-145.561	-92.965	2.035	-145.743	-141.698	-141.368	-136.193	-68.236	-137.163	-8191	255	
1117.596	1	1	0	0	0.15913	0.17015	0.21176	0.1868	0.18357	0.32268	0.32766	0.18678	0.21939	0.17915	0.37101	0.22522	0.066276	0.37804	0.2266	0.029133	-0.84375	-2.1167	-1.375	-1.9312	-2.1188	-1.2188	-2.2542	-1.9688	-1.1708	-2.1771	-1.7292	-1.9646	-2.3208	-1.3979	-1.9021	-2.0208	130.230	-99.978	120.479	191.794	-28.495	145.969	160.349	177.008	173.545	-24.839	131.924	-5.218	-43.684	151.406	-55.590	-96.204	0.0015503	0.00065565	0.00038421	1344.3	9.3863e-06	1.041e-05	1335.3	358.87	6.7207e-06	4.779e-06	408.77	137.59	119.11	40.992	9.0238e-06	50.692	0.0010842	0.0010879	0.00030235	1397.8	1.1847e-05	1.19e-05	1385.9	373.31	1.1633e-05	1.172e-05	432.05	144.78	125.49	43.654	1.1615e-05	54.337	87.908	-83.591	-51.171	-150.073	-67.450	9.902	-150.111	-145.467	-48.944	1.226	-146.031	-141.736	-141.156	-136.444	-48.197	-137.193	-8191	255	
1117.692	1	1	0	0	0.15205	0.37623	0.092292	0.3815	0.15526	0.061375	0.30193	0.14047	0.19256	0.066151	0.16824	0.28832	0.12375	0.19234	0.071783	0.13128	-0.97708	-2.15	-1.5542	-1.725	-2.0542	-1.2208	-2.0542	-2.0667	-1.2896	-1.8854	-1.7938	-1.4792	-2.4292	-1.3563	-1.8	-2.2479	109.383	-49.494	-54.631	183.612	186.636	123.552	133.014	118.389	91.092	-17.676	87.609	169.279	172.128	149.797	-39.486	118.116	0.0015659	0.00027484	0.00020273	1353.3	6.546e-06	4.9987e-06	1339.8	359.27	4.3059e-06	9.6319e-06	411.28	137.41	119.38	41.076	4.7407e-06	50.607	0.0010513	0.0010627	0.00029598	1398.4	1.1602e-05	1.1691e-05	1386	373.21	1.1575e-05	1.1735e-05	431.92	144.88	125.45	43.643	1.1685e-05	54.328	100.518	120.643	-82.445	-149.961	20.018	-42.079	-150.223	-145.587	-78.372	-97.661	-145.888	-141.629	-141.243	-136.344	-89.484	-137.530	-8191	255	
1117.788	1	1	0	0	0.35301	0.14488	0.0092445	0.16092	0.2999	0.32733	0.2545	0.43304	0.36366	0.13652	0.14006	0.18054	0.36808	0.1224	0.13776	0.11193	-0.73958	-2.1125	-1.5187	-1.4521	-2.1063	-1.3667	-1.9229	-2.2833	-1.1146	-2.1521	-1.8188	-1.5063	-2.4646	-1.5208	-1.6271	-2.2021	30.591	135.355	177.091	173.107	132.890	38.973	87.730	162.781	-143.446	-130.156	151.815	177.525	75.207	-41.040	90.095	194.971	0.0017414	0.00033576	0.0001486	1350.9	8.609e-06	8.0004e-06	1338.3	359.4	1.209e-05	1.011e-05	409.42	136.64	118.9	41.117	6.4e-07	50.657	0.0010603	0.0010646	0.00029396	1396.4	1.1576e-05	1.1635e-05	1385.9	372.86	1.1549e-05	1.1626e-05	430.2	144.58	125.29	43.655	1.1462e-05	54.348	87.845	38.813	-45.058	-149.817	-58.401	-138.750	-150.123	-145.371	-91.169	4.127	-145.855	-141.859	-141.250	-136.215	-59.182	-137.320	-8191	255	
1117.885	1	1	0	0	0.079554	0.083527	0.22313	0.20837	0.20899	0.13827	0.23563	0.32616	0.1715	0.088651	0.18083	0.19789	0.12974	0.3047	0.16815	0.17734	-0.71458	-2.1688	-2.0187	-1.5375	-2.2479	-1.6396	-1.8396	-2.4313	-1.2333	-2.0229	-1.9667	-1.2604	-2.1625	-1.8312	-1.5167	-2.2208	-104.255	-136.836	-83.545	97.020	161.263	-131.079	173.928	164.481	-109.198	-139.295	113.523	61.734	-79.450	128.061	-76.424	85.743	0.0018015	0.0002461	0.00034334	1346.4	4.407e-06	3.3061e-06	1343	358.95	1.1426e-05	9.6688e-06	409.37	137.28	118.86	41.082	1.0893e-05	50.74	0.0010486	0.0010555	0.00029409	1393.2	1.1637e-05	1.1627e-05	1385.2	373.09	1.1611e-05	1.1751e-05	430.81	144.72	125.52	43.671	1.1816e-05	54.373	93.895	-104.079	-81.921	-149.813	-38.675	-97.727	-150.191	-145.491	-32.392	37.599	-146.188	-141.953	-141.162	-136.611	-64.379	-137.169	-8191	255	
1117.981	1	1	0	0	0.19545	0.24307	0.1537	0.27281	0.14531	0.095284	0.070018	0.097064	0.20072	0.29345	0.072451	0.048563	0.2968	0.13729	0.18883	0.42595	-0.75	-1.9854	-1.8687	-1.4354	-1.9208	-1.6854	-1.5771	-2.4458	-1.2188	-1.7375	-2.0438	-1.3417	-2.1479	-1.7667	-1.3375	-2.1771	13.972	-58.678	-116.115	-140.655	-14.228	-49.276	46.569	159.050	190.342	184.973	163.104	-143.513	171.433	-130.867	-50.307	119.115	0.0012668	0.00049299	0.00010034	1348.9	9.1797e-06	3.4743e-06	1341.4	358.74	1.5277e-05	8.1238e-06	410.66	137.78	119.2	41.175	6.3812e-06	50.654	0.0010722	0.0010855	0.00030058	1395.7	1.1715e-05	1.1845e-05	1386.7	373.26	1.1723e-05	1.185e-05	432.24	144.88	125.82	43.687	1.1781e-05	54.479	95.145	-88.324	18.019	-150.099	-52.021	-31.282	-150.246	-145.658	-63.076	-20.707	-146.144	-141.809	-141.275	-136.120	-73.035	-137.235	-8191	255	
1118.101	1	1	0	0	0.29719	0.19113	0.024977	0.25518	0.097644	0.24211	0.23388	0.051636	0.10307	0.046694	0.16467	0.26652	0.026042	0.090916	0.1036	0.18411	-1.0208	-1.5479	-2.0563	-1.2979	-1.7958	-1.8	-1.4062	-2.4562	-1.3167	-1.4917	-2.1417	-1.2083	-2.2458	-1.8937	-1.2313	-2.3979	82.262	2.064	108.063	-120.963	58.915	-127.043	-133.081	126.455	-34.852	46.459	142.575	173.747	-107.698	-49.767	-44.900	119.015	0.0014789	0.00027795	0.00039481	1347.8	6.1157e-06	1.2977e-05	1344.2	356.74	5.214e-06	6.3589e-06	410.86	136.73	119.48	41.169	6.9684e-06	50.432	0.0010712	0.0010802	0.00029977	1397.6	1.1711e-05	1.1786e-05	1387.8	372.22	1.1635e-05	1.1787e-05	432.39	144.68	125.61	43.705	1.1772e-05	54.386	87.514	-47.235	-94.158	-150.066	-137.958	-52.106	-150.259	-145.482	-24.575	24.423	-145.813	-142.016	-141.149	-136.326	-65.205	-137.063	-8191	255	
1118.198	1	1	0	0	0.24561	0.17732	0.16427	0.22765	0.35219	0.50449	0.027286	0.45345	0.062227	0.26394	0.17845	0.21625	0.24598	0.33282	0.17646	0.25969	-1.2104	-1.6292	-2.1417	-1.5063	-1.9312	-1.9708	-1.3875	-2.3167	-1.6125	-1.4083	-2.3146	-1.4438	-2.1125	-2.0479	-1.1	-2.1208	-102.310	71.234	40.758	143.596	4.377	11.240	119.192	160.162	31.188	53.406	183.652	137.675	145.497	149.770	-139.042	121.141	0.0014701	0.00029627	0.00019091	1349.5	2.1151e-06	3.14e-06	1341.8	358.82	4.1779e-06	4.2711e-06	411.07	136.86	118.6	41.125	1.2947e-06	50.828	0.0010634	0.0010843	0.00030065	1398.1	1.181e-05	1.1877e-05	1389.1	373.66	1.1837e-05	1.1864e-05	432.5	144.68	125.56	43.708	1.1816e-05	54.544	92.355	53.120	-71.331	-150.008	86.534	16.579	-150.284	-145.345	72.461	83.056	-145.927	-141.739	-141.077	-136.327	-42.868	-136.946	-8191	255	
1118.294	1	1	0	0	0.11081	0.14095	0.051584	0.16832	0.07159	0.094753	0.60064	0.4346	0.12236	0.13281	0.24885	0.080026	0.11811	0.14205	0.14435	0.32833	-1.1667	-1.3229	-2.2313	-1.4646	-1.8271	-1.8917	-1.5417	-2.3021	-1.7625	-1.35	-2.3667	-1.4875	-1.7437	-2.125	-0.98125	-2.0062	-1.149	58.005	145.219	114.053	-13.439	-128.814	125.960	186.598	-75.042	189.601	-159.664	171.835	-140.381	150.622	-132.856	-160.612	0.0016578	0.00046791	0.00031692	1349.2	9.5061e-06	9.0089e-06	1344.4	359.64	1.0786e-05	7.0595e-06	408.03	136.84	118.95	41.061	4.9895e-06	50.801	0.0010745	0.0010779	0.00029953	1397.9	1.1677e-05	1.1828e-05	1387.1	373.53	1.161e-05	1.1749e-05	431.15	144.52	125.44	43.658	1.1678e-05	54.346	71.174	-46.862	-65.551	-149.966	-120.920	75.339	-150.436	-145.242	-34.009	-49.879	-146.141	-142.095	-141.471	-136.536	-34.425	-137.650	-8191	255	
1118.390	1	1	0	0	0.19617	0.18713	0.20907	0.24237	0.13079	0.044832	0.22293	0.22468	0.091	0.24447	0.13707	0.12754	0.18901	0.37985	0.21489	0.079155	-1.4438	-1.1771	-2.1125	-1.5708	-1.4458	-2.0146	-1.6646	-2.1875	-1.8479	-1.2167	-2.3917	-1.6833	-1.5729	-2.3042	-1.1021	-2.0938	-132.755	-10.833	52.125	189.040	-2.770	-37.581	60.043	144.250	-130.512	27.818	-156.823	-125.937	116.116	-133.341	56.756	88.601	0.0018345	0.0003873	0.00030232	1343.1	3.0632e-06	2.754e-06	1340.5	359.41	4.6096e-06	6.759e-06	409.66	137.66	119.03	41.113	1.3055e-05	50.761	0.0010633	0.001076	0.00029931	1396.9	1.1682e-05	1.1846e-05	1386.6	373.62	1.1667e-05	1.18e-05	431.54	144.75	125.59	43.661	1.168e-05	54.486	71.846	-85.770	-114.767	-150.217	-99.091	-150.391	-150.476	-145.823	-54.927	9.571	-146.245	-142.431	-141.497	-136.558	-7.659	-137.434	-8191	255	
1118.484	1	1	0	0	0.091688	0.20385	0.076662	0.2307	0.1498	0.10756	0.28787	0.24571	0.34282	0.012196	0.48074	0.089469	0.36311	0.25841	0.15067	0.17079	-1.5938	-1.0896	-1.9979	-1.7	-1.3708	-2.0938	-1.5667	-1.9646	-2.0292	-1.3354	-2.4229	-1.6688	-1.6333	-2.3292	-1.3583	-1.7104	-69.868	8.011	141.286	148.780	-140.284	-57.164	111.459	154.444	-109.944	-94.123	153.988	65.034	-129.117	172.279	-71.702	169.677	0.0016847	0.0005596	0.00012473	1343.1	6.1348e-06	4.9451e-06	1345.4	359.39	1.2587e-05	6.7454e-06	410.68	136.79	119	40.861	5.7041e-06	50.984	0.0010618	0.0010701	0.00029799	1395.1	1.1675e-05	1.1721e-05	1387.5	373.14	1.1701e-05	1.1683e-05	431.97	144.7	125.54	43.628	1.167e-05	54.514	90.869	-116.379	-80.205	-150.305	-11.939	67.558	-150.439	-145.597	-60.428	62.172	-146.436	-142.294	-141.284	-136.715	-88.180	-137.364	-8191	255	
1118.580	1	1	0	0	0.09568	0.11173	0.048213	0.17617	0.31412	0.37078	0.24652	0.28892	0.16636	0.17177	0.2831	0.12938	0.22702	0.10723	0.038735	0.12278	-1.5979	-1.1896	-1.9854	-1.725	-1.2354	-2.2125	-1.5667	-2.0292	-2.025	-1.1292	-2.2146	-1.9937	-1.2375	-2.1896	-1.4562	-1.6896	-81.482	-35.567	52.130	156.722	53.740	114.473	147.321	55.648	68.266	99.535	187.436	-140.435	156.951	150.762	8.522	-121.599	0.0014008	0.00073267	0.00019377	1346.5	2.3163e-06	1.4019e-05	1339.9	359.21	2.4873e-06	8.0474e-06	409.66	136.78	118.59	41.11	2.016e-05	50.89	0.00106	0.0010727	0.0002988	1395.8	1.1715e-05	1.1833e-05	1387.4	373.05	1.1701e-05	1.1722e-05	431.74	144.55	125.26	43.727	1.1642e-05	54.413	80.382	191.352	-89.539	-150.453	-12.569	-4.131	-150.720	-145.597	-73.564	-36.335	-146.087	-142.210	-141.376	-136.506	-61.572	-137.331	-8191	255	
1118.677	1	1	0	0	0.14642	0.13049	0.08245	0.354	0.092371	0.2905	0.3929	0.42079	0.10608	0.097754	0.20068	0.27632	0.23682	0.18722	0.20083	0.22493	-1.8083	-1.2333	-1.7625	-1.8875	-1.0667	-2.2146	-1.625	-1.7	-2.175	-1.0625	-1.9375	-2.0521	-1.15	-2.2708	-1.5187	-1.5292	-33.165	173.102	66.639	153.010	54.535	-53.830	99.304	103.899	-142.658	54.274	90.917	162.087	143.519	123.623	-153.030	102.369	0.0018965	0.0010923	0.0002717	1343.3	3.5027e-06	8.0373e-06	1340.4	359.23	8.1952e-06	3.6273e-06	409.39	137.23	118.61	41.11	2.2748e-06	50.857	0.0010604	0.0010708	0.00029733	1393.9	1.1631e-05	1.169e-05	1387.6	373.07	1.1627e-05	1.1697e-05	431.37	144.73	125.15	43.707	1.1652e-05	54.425	90.752	-85.587	-78.132	-150.095	162.140	-29.771	-150.626	-145.645	-60.013	22.650	-145.985	-142.167	-141.370	-136.432	-80.609	-137.314	-8191	255	
1118.797	1	1	0	0	0.14251	0.13784	0.10594	0.26324	0.19582	0.17414	0.27334	0.19488	0.16654	0.12323	0.13295	0.30261	0.021013	0.098494	0.16974	0.23439	-1.8604	-1.275	-1.6979	-2.0875	-1.2271	-1.925	-1.8833	-1.6375	-2.0104	-1.3542	-1.9062	-2.2292	-1.2417	-2.1583	-1.5375	-1.3583	126.032	-0.767	-75.279	159.404	-90.865	-25.611	162.798	144.608	10.864	147.452	23.882	91.909	-22.245	58.988	170.847	66.048	0.0014357	0.00061454	0.00017325	1348.1	5.1216e-06	1.1039e-05	1339.8	359.11	9.8476e-06	8.7887e-06	409.54	137.44	118.62	41.313	4.4937e-06	50.801	0.0010507	0.0010628	0.0002942	1397.7	1.1563e-05	1.1618e-05	1383.8	372.73	1.1554e-05	1.1533e-05	431.78	144.78	125.3	43.773	1.1469e-05	54.391	94.963	-154.646	-138.458	-150.287	-92.879	-95.436	-150.411	-145.593	-55.099	36.603	-146.202	-141.935	-141.448	-136.587	20.616	-137.387	-8191	255	
1118.893	1	1	0	0	0.079925	0.28095	0.16891	0.045764	0.012484	0.19862	0.22557	0.18325	0.16774	0.30434	0.19429	0.19452	0.26383	0.22105	0.14964	0.046208	-1.8104	-1.2833	-1.6167	-2.2708	-1.0438	-1.8896	-2.2562	-1.45	-2.1	-1.4771	-1.7542	-2.2229	-1.375	-2.2229	-1.8062	-1.4396	187.746	126.502	-136.037	119.660	-149.504	26.687	63.105	161.307	-23.344	126.706	155.161	171.629	136.208	140.530	-9.331	147.087	0.0012691	0.00082627	0.00023035	1349.1	1.3812e-05	6.836e-06	1341.3	358.7	2.9387e-06	1.0591e-05	409.3	137.37	118.77	41.206	5.6438e-06	50.547	0.0010483	0.001055	0.00029614	1397	1.1583e-05	1.1578e-05	1386.5	373.1	1.1541e-05	1.156e-05	431.16	144.82	125.56	43.709	1.1581e-05	54.328	81.262	-94.154	-124.156	-150.173	-42.171	-93.198	-150.626	-145.633	-70.295	-19.963	-146.073	-142.237	-141.312	-136.570	-55.073	-137.294	-8191	255	
1118.965	1	1	0	0	0.039396	0.04968	0.1722	0.23279	0.36498	0.10251	0.41775	0.15449	0.16695	0.28823	0.19765	0.45406	0.21367	0.3579	0.27414	0.26324	-1.7417	-1.3917	-1.5125	-2.4604	-1.2604	-1.8521	-2.1042	-1.2146	-2.2854	-1.5583	-1.4667	-2.3021	-1.6354	-1.9292	-2.0167	-1.2646	65.527	-27.486	-77.448	135.336	-75.477	156.079	160.652	84.674	-150.302	-153.839	147.209	-158.050	103.913	185.437	194.166	188.845	0.0016517	0.0010576	0.00010467	1345.7	1.0272e-05	6.2898e-06	1342.7	358.66	1.0568e-05	7.0652e-06	409.8	136.89	118.86	41.186	8.7897e-06	50.456	0.0010483	0.001062	0.00029471	1397.7	1.1569e-05	1.1682e-05	1386	372.99	1.1605e-05	1.1632e-05	432.04	144.6	125.44	43.749	1.1599e-05	54.345	92.663	-137.046	126.996	-150.195	-49.959	36.260	-150.653	-145.541	-42.808	-67.547	-146.030	-142.312	-141.399	-136.418	-34.111	-137.570	-8191	255	
1119.061	1	1	0	0	0.03828	0.13926	0.25389	0.093036	0.098204	0.12793	0.22912	0.46119	0.21446	0.094703	0.18558	0.38298	0.30879	0.28063	0.12058	0.44996	-1.7396	-1.5333	-1.4542	-2.2729	-1.1604	-1.7167	-2.1854	-1.5292	-1.8833	-1.6583	-1.4542	-2.3167	-1.5396	-1.6125	-2.0875	-1.2792	-133.983	103.263	166.513	141.865	79.650	-38.660	109.986	162.543	99.713	-101.543	84.379	132.856	141.356	171.859	177.792	146.491	0.0011804	0.00044439	0.00040666	1348.3	2.8338e-06	6.0758e-06	1339.5	358.63	4.9386e-06	9.983e-06	409.11	136.81	118.81	41.157	6.5927e-06	50.699	0.0010602	0.0010656	0.00029723	1396.6	1.1614e-05	1.1762e-05	1385.3	372.71	1.1672e-05	1.1723e-05	431.09	144.74	125.16	43.659	1.1747e-05	54.352	86.011	-122.857	-85.430	-149.988	-153.513	-72.598	-150.688	-145.738	170.386	28.543	-146.350	-141.837	-141.158	-136.588	-84.186	-137.369	-8191	255	
1119.182	1	1	0	0	0.18379	0.29346	0.12127	0.22798	0.093747	0.16456	0.18158	0.46183	0.22065	0.30161	0.28978	0.073064	0.13036	0.21323	0.13612	0.17236	-1.5354	-1.7208	-1.1521	-2.3625	-1.4042	-1.4771	-2.5271	-1.4937	-1.7437	-1.6479	-1.3667	-2.1542	-1.5646	-1.5646	-2.0542	-1.2687	-159.390	-149.674	110.711	130.830	74.756	-12.085	168.205	138.529	-26.617	82.802	140.909	150.349	-151.043	164.575	137.173	92.149	0.0014801	0.00020138	6.166e-05	1350.3	4.5489e-06	7.9632e-06	1343.9	357.75	2.0836e-06	8.9895e-06	409.78	137.06	118.77	41.019	2.8588e-06	50.752	0.0010632	0.0010705	0.00029883	1395.9	1.165e-05	1.177e-05	1386.9	373.2	1.1746e-05	1.1844e-05	432.44	144.79	125.63	43.697	1.179e-05	54.473	87.600	-62.832	-39.180	-150.043	-20.913	-10.034	-150.605	-145.782	26.324	-39.469	-146.054	-141.705	-141.399	-136.186	91.829	-137.585	-8191	255	
1119.278	1	1	0	0	0.074348	0.11823	0.19091	0.22128	0.20546	0.075467	0.26317	0.29024	0.050619	0.13374	0.27215	0.10695	0.21386	0.23791	0.030401	0.11139	-1.4417	-1.9813	-1.0271	-2.1958	-1.4896	-1.3687	-2.3688	-1.4271	-1.7062	-1.9729	-1.3646	-2.0729	-1.7583	-1.6063	-2.3625	-1.3854	-117.470	-92.272	84.759	170.703	8.510	61.236	137.290	184.835	-1.025	-97.115	163.748	168.842	135.042	97.078	-139.879	-125.201	0.0014168	0.00073216	0.00016094	1352	2.196e-06	6.921e-06	1342.9	358.89	4.0764e-06	7.1163e-06	409.51	136.89	118.29	41.015	3.9948e-06	50.72	0.0010752	0.0010787	0.00030156	1400.8	1.18e-05	1.1941e-05	1389.2	372.98	1.1783e-05	1.1878e-05	432.07	144.56	125.42	43.699	1.181e-05	54.425	86.098	-78.352	-129.902	-150.046	83.004	39.021	-150.592	-145.552	-71.919	73.774	-145.994	-141.798	-141.146	-136.181	-50.644	-137.484	-8191	255	
1119.374	1	1	0	0	0.18909	0.06487	0.25213	0.22171	0.21977	0.22609	0.1903	0.3584	0.13286	0.25017	0.30559	0.11913	0.33804	0.20241	0.037296	0.34135	-1.1042	-2.0125	-1.1375	-2.0979	-1.7333	-1.2854	-2.4917	-1.6688	-1.4292	-2.0854	-1.4417	-2.0583	-1.9833	-1.1812	-2.0458	-1.7021	64.120	-108.604	-34.781	-110.041	-141.362	151.138	100.159	194.612	159.866	88.983	139.546	1.908	170.331	159.186	-90.163	156.381	0.0015089	0.00028502	0.00024922	1351.1	1.5617e-05	1.6104e-05	1342.4	359	5.5609e-06	1.0436e-06	410.26	137	118.58	40.931	4.573e-06	50.668	0.0010702	0.0010811	0.0003014	1401.2	1.1788e-05	1.177e-05	1390	373.42	1.1782e-05	1.1831e-05	432.7	145	125.49	43.668	1.1787e-05	54.452	92.899	91.355	-106.029	-150.159	-65.929	-68.582	-150.627	-145.524	-96.189	71.018	-146.008	-141.954	-141.110	-136.447	-12.290	-137.274	-8191	255	
1119.493	1	1	0	0	0.13207	0.15492	0.083376	0.30654	0.16121	0.072618	0.25096	0.11578	0.13605	0.17438	0.053571	0.11379	0.20767	0.31573	0.11824	0.12647	-1.0771	-2.0917	-1.1812	-2.0208	-1.9979	-0.97917	-2.1521	-1.9271	-1.2687	-2.125	-1.5458	-2.0021	-2.1417	-1.2771	-2.0396	-1.7229	-62.321	-29.389	-20.409	193.240	-149.362	76.771	174.953	170.859	4.543	-21.540	72.735	169.500	126.558	143.886	11.694	-111.826	0.0016697	0.00071355	8.6193e-05	1349.6	1.0684e-05	5.7074e-06	1338.4	359.23	1.0141e-05	1.61e-06	409.31	136.77	119.13	41.173	3.2305e-06	50.574	0.0010678	0.0010766	0.00030158	1397.7	1.1859e-05	1.1881e-05	1388.4	373.22	1.1882e-05	1.1887e-05	431.68	144.71	125.48	43.752	1.1909e-05	54.421	84.095	119.016	-81.357	-149.950	-56.889	141.337	-150.202	-145.566	-85.164	97.627	-145.626	-141.892	-141.240	-136.311	-18.513	-137.397	-8191	255	
1119.589	1	1	0	0	0.21977	0.25862	0.24074	0.067957	0.16427	0.16313	0.23908	0.28077	0.28505	0.10468	0.37464	0.28289	0.17127	0.092514	0.38621	0.18081	-1.0854	-2.2062	-1.2062	-1.8167	-1.8604	-1.1521	-2.0187	-1.8229	-1.2771	-2.1937	-1.6083	-1.7646	-2.2417	-1.5833	-2.0354	-1.975	78.496	-95.267	-41.048	131.391	-101.092	27.706	192.543	99.637	-92.773	110.326	155.966	193.166	104.096	193.862	93.110	170.201	0.0014288	0.00089119	3.613e-05	1344.4	8.9752e-06	7.9745e-06	1343.7	359.07	1.2433e-05	3.1159e-06	410.37	136.65	118.6	41.184	7.5011e-06	50.649	0.0010761	0.0010914	0.0003024	1398	1.1831e-05	1.1907e-05	1388.7	372.86	1.1872e-05	1.1929e-05	432.01	144.41	125.46	43.762	1.1893e-05	54.398	85.817	-116.541	-129.341	-149.875	-73.325	-22.250	-150.246	-145.548	-112.559	-114.361	-145.999	-142.015	-141.382	-136.331	14.784	-137.314	-8191	255	
1119.662	1	1	0	0	0.027147	0.20596	0.10477	0.19574	0.18571	0.13748	0.13742	0.4094	0.18319	0.15402	0.35932	0.14647	0.096101	0.14352	0.20406	0.23478	-0.84792	-1.7792	-1.4458	-1.9062	-1.9312	-1.1771	-2.0938	-2.0438	-1.2479	-2.1688	-1.575	-1.6021	-2.3812	-1.3542	-1.8188	-1.8833	-135.725	121.570	-142.608	190.421	-15.112	30.787	-151.811	108.057	33.531	-153.797	102.582	-107.549	157.634	-126.681	59.649	98.443	0.0015893	0.00040493	0.00027418	1346.3	1.7349e-06	1.1219e-05	1339.4	357.94	2.335e-06	7.191e-06	409.23	136.8	119	41.204	1.1117e-05	50.736	0.0010769	0.0010824	0.00029969	1396.4	1.1776e-05	1.1889e-05	1388	372.86	1.1788e-05	1.1874e-05	431.65	144.73	125.52	43.646	1.1774e-05	54.45	84.779	-9.033	-73.349	-149.773	-82.677	-24.248	-150.173	-145.551	75.473	35.612	-145.969	-141.880	-141.284	-136.212	-49.731	-136.950	-8191	255	
1119.781	1	1	0	0	0.090538	0.11226	0.18189	0.12585	0.11916	0.17737	0.34679	0.097115	0.016147	0.10098	0.11877	0.33438	0.25232	0.059787	0.12723	0.13962	-0.96042	-2.1333	-1.4104	-1.5458	-2.2167	-1.3771	-2.0146	-2.4062	-1.2062	-2.1562	-1.9229	-1.3396	-2.3271	-1.4708	-1.75	-2.1333	26.354	-124.523	-14.621	-28.418	-91.242	-10.015	169.091	56.136	42.401	-0.734	136.477	144.961	148.544	44.017	167.000	74.223	0.0015207	0.00033464	9.129e-05	1346	2.9239e-06	6.3664e-06	1341.5	359.89	2.0262e-06	6.9034e-06	408.34	137.72	118.78	41.249	8.3533e-06	50.947	0.0010676	0.0010779	0.00029877	1396.1	1.1703e-05	1.1767e-05	1387.9	373.24	1.1671e-05	1.1659e-05	431.26	144.82	125.64	43.72	1.1682e-05	54.461	102.979	-17.189	-59.541	-150.035	43.710	-115.089	-150.323	-145.655	-94.545	12.956	-145.697	-141.708	-141.177	-136.262	-47.860	-137.194	-8191	255	
1119.878	1	1	0	0	0.30745	0.054634	0.12982	0.16855	0.049821	0.067827	0.35475	0.41417	0.058143	0.23708	0.19544	0.24352	0.40307	0.12078	0.18898	0.28105	-0.83125	-2.05	-1.6521	-1.4208	-1.9583	-1.3813	-1.7792	-2.3146	-1.1979	-1.9104	-1.7521	-1.4458	-2.2167	-1.4979	-1.5458	-2.225	54.066	-9.006	-131.910	125.523	17.214	46.660	163.787	154.086	-123.121	-156.259	-149.398	142.255	169.265	-148.813	92.845	136.230	0.0016015	0.00058109	5.0223e-05	1346.4	5.7567e-06	6.963e-06	1341.5	360.67	5.3991e-06	1.7132e-06	409.04	137.55	118.98	41.231	5.8865e-06	51.066	0.0010515	0.0010605	0.00029558	1396.2	1.1645e-05	1.1636e-05	1387.9	373.15	1.1629e-05	1.167e-05	431.34	145.02	125.62	43.734	1.1589e-05	54.548	94.730	-87.402	174.754	-149.883	-33.271	-35.665	-150.118	-145.786	-103.412	134.363	-145.905	-141.873	-141.144	-136.481	-119.528	-137.054	-8191	255	
1119.974	1	1	0	0	0.42712	0.18256	0.16095	0.32631	0.13501	0.21648	0.33621	0.13892	0.29016	0.12676	0.17885	0.26508	0.17348	0.085383	0.25366	0.26996	-0.94583	-1.7583	-1.8167	-1.5396	-2.1979	-1.4813	-1.7875	-2.4313	-1.1917	-1.6917	-1.925	-1.3937	-2.1292	-1.7479	-1.3708	-2.5146	158.485	31.794	116.782	115.708	180.167	-17.974	145.543	133.172	9.410	-20.604	137.172	64.415	103.133	110.357	-65.683	145.560	0.0016005	0.00053214	6.3195e-05	1346.6	8.2354e-06	2.0658e-06	1340.5	358.68	7.6942e-06	5.9759e-06	409.48	137.41	119.41	41.132	3.2646e-06	51.239	0.0010561	0.0010689	0.00029499	1398.4	1.164e-05	1.1713e-05	1389.9	373.23	1.1592e-05	1.1715e-05	431.7	145.2	125.88	43.74	1.1648e-05	54.551	77.100	-63.339	-6.383	-150.051	-114.378	98.462	-150.318	-145.572	-118.576	-43.831	-146.037	-141.740	-141.271	-136.462	-159.894	-137.401	-8191	255	
1120.094	1	1	0	0	0.16622	0.1595	0.14944	0.30025	0.038787	0.42916	0.32293	0.51027	0.26972	0.1842	0.33403	0.46726	0.18742	0.25118	0.19371	0.14903	-1.1646	-1.7625	-2.0917	-1.3271	-1.8687	-1.4875	-1.5458	-2.35	-1.0167	-1.9	-2.2604	-1.3292	-2.075	-1.9792	-1.2583	-2.3896	-28.277	105.647	162.731	176.863	-94.156	-96.464	187.129	141.468	52.013	-84.357	174.946	140.558	-143.077	116.665	185.272	105.774	0.0013476	0.00075177	0.00011613	1356.9	9.1538e-06	6.2591e-06	1347.4	359.72	6.8437e-06	2.5882e-06	408.94	137.1	120.15	41.229	1.4455e-05	50.866	0.0010529	0.001081	0.00029552	1402	1.163e-05	1.1623e-05	1389.8	374.22	1.158e-05	1.176e-05	432.08	144.9	125.8	43.762	1.1677e-05	54.467	91.205	-112.389	-94.490	-149.917	-45.380	-6.335	-150.235	-145.367	-56.292	-27.998	-146.234	-141.880	-141.179	-136.512	-62.317	-137.171	-8191	255	
1120.190	1	1	0	0	0.29032	0.1448	0.04614	0.27627	0.15609	0.14525	0.31754	0.07971	0.13016	0.23944	0.12544	0.18432	0.1621	0.15758	0.050637	0.11514	-1.0042	-1.4979	-2.0187	-1.4417	-1.8292	-1.7042	-1.4042	-2.3292	-1.3792	-1.5604	-2.4354	-1.2646	-1.9708	-2.0021	-1.0667	-2.3812	104.304	-89.301	78.455	162.601	-78.625	-64.901	145.492	48.972	-118.667	20.541	179.765	-106.518	185.877	148.937	63.797	62.564	0.0017849	0.00075868	0.00025988	1347.1	1.042e-06	7.3174e-06	1342.6	359.06	1.3515e-06	3.3739e-06	409.56	137.21	119.23	41.151	7.6034e-06	50.832	0.0010578	0.0010678	0.00029725	1399.4	1.1689e-05	1.1682e-05	1389.4	373.83	1.1657e-05	1.1753e-05	432.36	144.92	125.93	43.73	1.1814e-05	54.616	86.919	-111.773	-161.719	-149.719	-107.170	-45.180	-150.467	-145.418	78.149	-2.854	-146.062	-141.850	-141.243	-136.458	-6.292	-137.042	-8191	255	
1120.262	1	1	0	0	0.080102	0.22527	0.13665	0.35996	0.048059	0.22531	0.30836	0.20703	0.026726	0.32337	0.024242	0.21813	0.32742	0.25932	0.058885	0.14679	-1.0646	-1.4771	-2.1042	-1.4312	-1.8458	-1.7042	-1.4542	-2.2833	-1.475	-1.2604	-2.2708	-1.3167	-1.8958	-2.1437	-1.1896	-2.2333	49.266	-111.051	-121.162	126.933	-22.799	107.263	123.869	135.529	66.474	87.011	178.893	174.357	48.816	-81.553	76.085	184.614	0.0011199	0.00034107	0.00012251	1350.4	3.1214e-06	7.1634e-06	1340.6	360.34	1.0477e-05	2.571e-06	409.76	137.04	119.32	41.209	3.7571e-06	50.774	0.001072	0.0010815	0.00030169	1401.4	1.1858e-05	1.1963e-05	1390.2	373.93	1.1821e-05	1.1991e-05	432.67	145.01	126.11	43.823	1.1894e-05	54.547	88.700	-50.512	-54.909	-149.976	-157.707	-28.175	-150.307	-145.237	-1.191	174.778	-145.968	-141.728	-141.032	-136.441	111.638	-137.214	-8191	255	
1120.358	1	1	0	0	0.14904	0.10447	0.053728	0.22571	0.17123	0.15768	0.52461	0.068496	0.1794	0.23138	0.22817	0.30319	0.41672	0.15175	0.21321	0.1051	-1.3188	-1.3271	-2.2125	-1.7396	-1.5208	-2.1125	-1.4958	-2.0229	-1.8354	-1.1875	-2.2354	-1.4292	-1.6313	-2.2896	-1.2188	-2.0896	-15.770	-74.732	-65.100	136.331	-101.808	-51.373	138.900	-40.212	-79.238	-5.820	130.037	-130.110	-107.223	162.868	-131.576	101.925	0.0015273	0.0011467	0.0002633	1354.8	9.5825e-06	8.2906e-06	1348.4	359.54	1.311e-05	7.661e-06	409.81	137.29	119.19	40.995	3.5294e-06	50.795	0.00108	0.0010835	0.00030105	1402.7	1.1884e-05	1.1888e-05	1390.9	374.39	1.1831e-05	1.1884e-05	432.32	144.89	125.82	43.81	1.1825e-05	54.571	87.088	-68.688	-110.679	-150.015	-118.668	41.239	-150.359	-145.374	-67.238	22.471	-145.941	-141.638	-140.874	-136.407	77.751	-137.560	-8191	255	
1120.477	1	1	0	0	0.426	0.032903	0.07192	0.070638	0.19137	0.18248	0.37329	0.33291	0.10707	0.18493	0.26387	0.19558	0.22314	0.32249	0.15423	0.20955	-1.5375	-1.2771	-2.1875	-1.6896	-1.4042	-2.0146	-1.3062	-2.1063	-1.8438	-1.0583	-2.125	-1.8292	-1.6417	-2.3438	-1.3271	-1.8292	25.646	95.641	-150.227	120.177	-76.467	-35.385	129.143	147.382	44.432	106.645	-111.413	155.625	156.478	-155.838	7.991	112.124	0.0014741	0.00019726	0.00010529	1349.3	1.3747e-06	5.7259e-06	1345.9	358.72	1.0354e-05	1.2413e-06	410.45	136.83	119.07	41.195	5.098e-06	50.695	0.0010807	0.0010864	0.0003025	1400.5	1.1832e-05	1.1854e-05	1389.8	373.47	1.1734e-05	1.181e-05	432.35	144.91	125.8	43.83	1.1733e-05	54.44	74.175	-3.153	-141.930	-149.914	-149.505	-65.592	-150.224	-145.335	-51.238	47.631	-145.683	-141.804	-140.971	-136.087	30.532	-137.245	-8191	255	
1120.573	1	1	0	0	0.045554	0.042723	0.086819	0.50331	0.2723	0.17006	0.1681	0.053946	0.54325	0.24889	0.32129	0.26002	0.097673	0.30058	0.18138	0.12506	-1.6812	-1.1958	-2.0354	-1.6729	-1.4667	-2.0354	-1.5021	-1.9792	-2.0625	-1.3958	-2.0208	-1.8667	-1.4146	-2.1896	-1.3771	-1.7271	82.834	-119.463	170.828	189.695	-85.285	76.820	155.501	-143.463	-31.341	-153.116	167.699	-114.098	113.081	144.386	-6.455	149.575	0.0015738	0.00044584	0.00013437	1349.8	2.9812e-06	4.4442e-06	1338.6	357.99	7.6553e-06	2.8332e-06	411.62	137.61	119.03	41.118	2.0906e-06	50.781	0.0010649	0.0010683	0.00029861	1398.2	1.1602e-05	1.1649e-05	1387.6	373.24	1.1629e-05	1.1635e-05	432.04	144.88	125.65	43.766	1.1586e-05	54.537	91.694	167.397	-66.523	-150.215	-76.983	44.174	-150.191	-145.298	-124.293	-12.614	-145.567	-141.695	-141.084	-136.269	-62.652	-136.962	-8191	255	
1120.669	1	1	0	0	0.11044	0.053827	0.27742	0.2203	0.21195	0.17566	0.16409	0.1332	0.32203	0.28878	0.087164	0.21828	0.21167	0.41183	0.17462	0.071198	-1.7042	-1.3771	-1.9438	-1.7833	-1.2188	-2.1417	-1.5021	-1.7208	-2.1042	-1.2167	-2.1521	-2.1042	-1.3	-2.3396	-1.4646	-1.6708	133.695	43.144	-35.851	136.404	-51.079	42.718	115.730	145.571	153.380	35.778	124.532	144.983	192.162	-119.564	27.636	30.345	0.0012855	0.00029152	2.4937e-05	1348.4	7.8445e-06	5.1426e-06	1340.5	359.33	1.9591e-06	5.1832e-06	408.49	137.38	119.95	41.226	6.0791e-06	51.155	0.0010508	0.001067	0.00029643	1398.7	1.1613e-05	1.1653e-05	1388.7	373.19	1.1611e-05	1.1667e-05	431.39	144.8	125.88	43.684	1.1617e-05	54.607	95.121	-94.070	-31.506	-150.035	-30.195	-163.048	-150.240	-145.299	-92.117	8.410	-145.864	-142.014	-141.012	-135.957	-15.389	-137.115	-8191	255	
1120.766	1	1	0	0	0.29304	0.22567	0.23112	0.22277	0.044434	0.27498	0.36006	0.10441	0.03837	0.27609	0.17803	0.30226	0.13816	0.20081	0.19884	0.20944	-1.6875	-1.2313	-1.7667	-2.0521	-1.1125	-2.1333	-1.7812	-1.5042	-2.1229	-1.3625	-1.8563	-2.1125	-1.6583	-2.2271	-1.5208	-1.5562	-37.312	-23.641	-129.867	164.171	158.505	-128.393	135.266	96.707	153.159	-158.527	195.486	128.408	-69.182	141.460	155.292	170.588	0.0015483	0.00027963	0.00016732	1347.7	5.4568e-06	2.4623e-06	1346.7	359	1.036e-05	6.9413e-06	408.09	137.43	118.96	41.146	7.5127e-06	50.77	0.0010539	0.0010661	0.00029798	1398.5	1.1642e-05	1.169e-05	1388.1	373.14	1.1607e-05	1.1688e-05	431.31	144.94	125.52	43.764	1.1647e-05	54.567	82.484	-90.031	59.841	-150.023	-160.575	7.097	-150.422	-145.352	-8.126	-161.125	-145.755	-141.902	-141.156	-136.187	-26.215	-137.006	-8191	255	
1120.862	1	1	0	0	0.020276	0.11477	0.081453	0.17167	0.17197	0.12222	0.32129	0.35729	0.18715	0.24706	0.23182	0.20887	0.42966	0.18254	0.13922	0.19695	-1.7583	-1.1604	-1.6938	-2.2083	-1.3062	-1.9708	-2.0229	-1.425	-2.0438	-1.425	-1.8312	-2.35	-1.3333	-2.0729	-1.7729	-1.1875	-122.054	99.783	-75.525	100.864	92.605	-41.007	139.990	51.996	-110.248	19.093	169.431	170.702	-160.508	-140.206	124.721	-42.208	0.0014676	0.00034663	0.00017907	1348.7	7.6705e-06	1.4351e-05	1343.1	359.48	7.1056e-06	9.2615e-06	408.45	136.68	119.5	41.222	8.662e-06	50.923	0.0010643	0.001069	0.00029621	1399.5	1.1635e-05	1.1692e-05	1389.9	373.45	1.1602e-05	1.1742e-05	430.7	144.8	125.7	43.765	1.1632e-05	54.606	107.657	-106.971	-121.989	-149.934	-25.749	10.653	-150.363	-145.401	-15.155	0.514	-145.839	-142.042	-141.304	-136.184	89.870	-137.108	-8191	255	
1120.958	1	1	0	0	0.033823	0.16426	0.17074	0.15306	0.029853	0.03671	0.1374	0.34225	0.13599	0.099904	0.23652	0.27142	0.21593	0.15452	0.26372	0.15195	-1.8208	-1.3792	-1.4688	-2.3521	-1.4042	-2.0479	-2.1729	-1.5646	-2.3229	-1.5021	-1.4667	-2.4083	-1.4396	-2.1333	-2.0021	-1.4688	56.362	35.832	84.944	146.551	186.037	-42.436	-47.735	149.744	185.500	58.017	-158.525	103.030	174.291	-46.494	-76.335	-87.679	0.0017621	0.00089108	0.00018455	1345.5	4.3168e-06	1.0533e-05	1342	361.1	7.1016e-06	1.1412e-06	409.4	137.16	119.41	41.243	7.1414e-06	51.065	0.0010579	0.001069	0.00029562	1397.9	1.1701e-05	1.1725e-05	1389.5	373.54	1.1705e-05	1.1779e-05	431.71	144.77	125.68	43.788	1.1768e-05	54.5	92.574	-124.359	191.388	-150.121	26.719	-15.961	-150.303	-145.280	-98.695	-25.465	-145.567	-142.000	-141.156	-136.093	-6.729	-137.136	-8191	255	
1121.054	1	1	0	0	0.048367	0.15362	0.35776	0.48358	0.35716	0.049185	0.37038	0.3561	0.11759	0.23816	0.31359	0.1763	0.24559	0.14732	0.10153	0.11193	-1.725	-1.4688	-1.375	-2.2313	-1.1354	-1.725	-2.2896	-1.2292	-2.075	-1.5667	-1.4062	-2.35	-1.3083	-1.6958	-2.1021	-1.3271	14.994	107.632	164.360	131.505	95.625	-5.937	153.192	136.427	-36.631	-158.306	125.698	-124.620	181.848	-127.682	67.661	99.105	0.0011882	0.00075728	0.00012583	1351.7	4.2008e-06	8.0159e-06	1342	359.61	1.0832e-05	6.1773e-06	409.49	137.57	119.46	41.13	1.2883e-05	50.782	0.0010714	0.0010782	0.00029786	1398.6	1.1699e-05	1.1794e-05	1390.7	373.55	1.174e-05	1.1744e-05	432.39	145.07	125.63	43.744	1.1668e-05	54.459	92.722	-75.721	181.760	-150.037	-60.597	71.362	-150.409	-145.313	-49.346	-13.675	-145.869	-141.688	-141.100	-136.274	-28.005	-137.148	-8191	255	
1121.175	1	1	0	0	0.19524	0.25111	0.1212	0.35043	0.20035	0.18169	0.26046	0.3327	0.23574	0.08281	0.27785	0.28994	0.11914	0.23695	0.09068	0.079691	-1.7896	-1.8146	-1.1958	-2.3292	-1.3792	-1.5063	-2.4	-1.3188	-1.9854	-1.6437	-1.4229	-2.4313	-1.6	-1.5854	-2.1937	-1.3083	3.051	133.758	99.613	-143.082	-60.281	175.946	174.002	-154.223	2.204	38.413	178.154	128.462	124.679	-138.242	-12.985	169.073	0.0016515	0.00091198	9.0534e-05	1355.8	1.5734e-06	2.9236e-06	1342.1	358.35	7.5443e-06	1.0615e-05	410.25	137.12	118.87	41.372	6.5412e-06	51.01	0.0010635	0.0010756	0.00029787	1401.4	1.1637e-05	1.1705e-05	1388.6	372.63	1.1626e-05	1.1676e-05	431.99	144.73	125.4	43.772	1.1629e-05	54.477	93.741	21.437	-142.449	-150.234	35.220	-103.518	-150.664	-145.690	-100.779	-49.276	-146.055	-142.166	-141.367	-136.618	-2.111	-137.394	-8191	255	
1121.269	1	1	0	0	0.24503	0.16791	0.084084	0.30564	0.27195	0.26636	0.36165	0.049087	0.24533	0.041216	0.29056	0.30019	0.18999	0.28772	0.095303	0.14763	-1.6958	-1.7958	-1.5729	-2.5604	-1.5417	-1.3833	-2.3688	-1.5042	-1.7958	-1.9438	-1.4562	-2.2771	-1.7938	-1.4375	-2.3875	-1.5354	36.523	60.521	-31.186	167.153	-22.762	148.032	148.182	143.644	100.754	-26.725	129.426	111.801	147.355	166.751	-58.934	107.351	0.0012809	0.0010749	0.00024945	1350.5	6.7632e-06	3.1486e-06	1344.9	358.52	4.8751e-06	6.9825e-06	408.51	137.22	119.32	41.085	3.0507e-06	50.983	0.00105	0.0010561	0.00029435	1397.1	1.1537e-05	1.1664e-05	1390	372.69	1.1596e-05	1.1611e-05	431.33	144.98	125.41	43.768	1.1623e-05	54.418	70.906	-105.015	-54.649	-150.050	-77.859	-63.262	-150.561	-145.715	-2.080	-1.421	-146.197	-142.052	-141.532	-136.342	-93.863	-137.295	-8191	255	
1121.365	1	1	0	0	0.11287	0.12304	0.1361	0.08546	0.17969	0.31419	0.34636	0.4021	0.26579	0.18897	0.30411	0.1999	0.093231	0.19821	0.18376	0.25704	-1.4	-2.0521	-1.2271	-2.3583	-1.6708	-1.3479	-2.5583	-1.6354	-1.7563	-1.9813	-1.3687	-2.1583	-1.925	-1.4688	-2.2021	-1.6729	99.575	55.125	-15.884	90.715	-64.384	113.226	139.883	147.382	80.824	-4.504	125.317	164.678	-53.042	-120.427	-147.787	169.064	0.0014108	0.00049505	8.2845e-05	1347.5	5.4903e-06	1.0536e-05	1339.8	358.14	1.6772e-05	3.0511e-06	408.38	137.19	118.92	41.29	6.9964e-06	50.919	0.0010615	0.0010719	0.00029858	1399.2	1.1719e-05	1.1789e-05	1388	372.39	1.1682e-05	1.1777e-05	430.56	144.66	125.22	43.746	1.1662e-05	54.424	95.284	-3.261	5.141	-150.141	-109.920	38.702	-150.458	-145.588	-131.043	27.607	-146.072	-141.973	-141.579	-136.578	-15.399	-137.484	-8191	255	
1121.461	1	1	0	0	0.19269	0.11492	0.013286	0.53423	0.022694	0.24272	0.37867	0.32734	0.17142	0.19545	0.3677	0.41461	0.27822	0.15582	0.051958	0.072337	-1.1521	-2.0354	-1.2729	-2.2062	-1.7917	-1.1417	-2.4292	-1.6938	-1.4542	-1.9542	-1.3813	-2.1	-1.9333	-1.3417	-2.0583	-1.5604	-146.821	79.741	138.836	150.691	152.983	-54.248	130.130	159.597	-47.886	-104.389	160.546	160.291	-136.197	150.503	13.515	-142.620	0.0014007	0.00042965	0.00029617	1346	6.9552e-06	6.6324e-06	1340.2	358.66	1.1549e-05	6.9206e-07	408.16	136.82	118.3	41.053	1.7799e-05	50.456	0.0010599	0.0010626	0.0002953	1397.1	1.1635e-05	1.1723e-05	1386.9	372.56	1.1611e-05	1.1681e-05	431.25	144.55	125.31	43.687	1.1716e-05	54.399	82.280	-129.329	-14.779	-150.306	13.717	-120.464	-150.442	-145.904	-50.769	160.100	-146.187	-142.136	-141.441	-136.643	-79.209	-137.726	-8191	255	
1121.558	1	1	0	0	0.075954	0.21788	0.057477	0.22531	0.15132	0.28324	0.16073	0.42677	0.26328	0.30706	0.06882	0.10469	0.036068	0.0872	0.092593	0.39884	-1.05	-2.0812	-1.0229	-2.0062	-2.1042	-1.1771	-2.1771	-1.6875	-1.2062	-2.1042	-1.4896	-1.9208	-2.0771	-1.3521	-1.9333	-1.9396	186.340	46.482	-65.234	-80.699	117.850	20.992	189.108	150.179	-25.350	149.057	126.266	-114.484	55.743	-151.416	-156.542	-111.041	0.0017081	0.00045383	0.00025654	1350.6	7.5379e-06	5.4505e-06	1346	357.15	1.092e-05	6.6652e-06	408.98	136.82	118.78	41.016	1.0854e-05	50.458	0.0010601	0.0010747	0.00029702	1400.4	1.1736e-05	1.1691e-05	1389.9	371.87	1.1631e-05	1.1657e-05	430.83	144.46	125.19	43.61	1.1636e-05	54.262	82.486	-109.349	-98.602	-150.131	-136.353	26.458	-150.687	-145.873	-36.724	-50.498	-146.110	-142.131	-141.508	-136.551	-40.815	-137.391	-8191	255	
1121.654	1	1	0	0	0.19358	0.043215	0.08683	0.41661	0.29607	0.38401	0.11017	0.14825	0.050042	0.041819	0.10781	0.090842	0.14905	0.15404	0.20718	0.12106	-0.89375	-2.1292	-1.625	-1.9625	-2.1646	-1.1229	-2.1562	-1.875	-1.3479	-2.1646	-1.475	-1.6167	-2.1292	-1.1437	-1.8896	-1.9521	139.406	31.476	32.990	163.865	-135.741	131.232	118.605	121.032	-149.258	118.945	107.327	129.633	-113.326	111.424	-129.831	115.038	0.0016601	0.00097477	0.00014746	1344.3	9.6624e-06	2.426e-06	1341.3	358.28	2.502e-06	8.4311e-06	407.56	137.5	118.83	41.133	4.7368e-06	50.464	0.0010548	0.0010677	0.00029718	1395.6	1.1558e-05	1.163e-05	1385.9	372.43	1.1596e-05	1.1659e-05	430.42	144.5	125.07	43.602	1.1473e-05	54.322	82.358	-153.041	-145.158	-150.027	-29.311	115.231	-150.408	-145.790	125.403	15.693	-146.278	-141.782	-141.248	-136.363	-83.953	-137.445	-8191	255	
1121.774	1	1	0	0	0.31953	0.099112	0.14301	0.264	0.29119	0.19119	0.43295	0.17988	0.27905	0.020759	0.12145	0.15326	0.096789	0.37245	0.28104	0.074868	-0.74792	-2.0979	-1.4562	-1.6437	-2.1958	-1.3479	-2.0875	-2.2479	-1.2583	-2.0667	-1.8083	-1.5646	-2.3688	-1.4312	-1.875	-2.2125	59.095	78.215	116.810	-111.104	-2.834	76.607	120.716	171.547	158.916	-6.113	175.284	103.694	84.660	-136.534	3.325	68.598	0.0014167	0.00073661	0.00014782	1347	6.3454e-06	6.2288e-06	1342	357.71	7.717e-06	2.6397e-06	409.82	137.13	118.84	41.24	1.105e-06	50.559	0.0010424	0.0010498	0.00029317	1397.1	1.1467e-05	1.1573e-05	1387.9	372.03	1.1609e-05	1.1578e-05	430.8	144.35	125.48	43.652	1.1627e-05	54.36	84.889	-46.904	-4.613	-149.964	-41.678	8.397	-150.358	-145.892	-93.555	-45.112	-146.486	-142.101	-141.273	-136.508	168.561	-137.382	-8191	255	
1121.869	1	1	0	0	0.19293	0.1981	0.16192	0.4025	0.08172	0.059266	0.19606	0.16242	0.39262	0.40458	0.022317	0.20147	0.13772	0.12711	0.30618	0.17762	-0.75625	-1.8979	-1.5854	-1.6646	-2.0833	-1.2146	-1.8958	-2.0979	-1.0708	-1.95	-1.8062	-1.5167	-2.2979	-1.45	-1.5917	-2.1792	-75.157	-93.554	79.957	179.177	88.431	-3.884	137.054	82.640	181.865	143.940	-89.418	121.164	157.719	177.438	-79.604	193.931	0.0012427	0.00087025	0.00013211	1344.5	1.872e-06	7.0379e-06	1347	358	1.5769e-05	1.3732e-05	409.14	136.71	118.65	40.983	7.5153e-06	50.542	0.0010475	0.0010577	0.00029338	1394.2	1.1521e-05	1.1556e-05	1387.6	372.09	1.1509e-05	1.1625e-05	431.03	144.3	125.08	43.596	1.147e-05	54.279	71.597	-72.974	-58.744	-150.101	69.992	-5.883	-150.332	-145.697	-96.358	2.260	-146.099	-141.900	-141.250	-136.408	166.006	-137.174	-8191	255	
1121.965	1	1	0	0	0.22935	0.16537	0.063022	0.23079	0.10478	0.44234	0.039633	0.37017	0.30525	0.21085	0.16626	0.13632	0.24058	0.19682	0.11635	0.33601	-0.94375	-2.0542	-1.8708	-1.4937	-2.1083	-1.5146	-1.9312	-2.3688	-1.0938	-1.95	-1.8521	-1.4521	-2.2542	-1.425	-1.2417	-2.3521	71.253	-43.386	5.826	-145.862	86.274	12.835	-30.724	137.433	-40.726	187.768	108.461	108.169	177.440	152.869	-38.410	95.373	0.0012855	0.00070361	0.00026683	1341.3	1.0859e-05	3.3673e-06	1340.3	358.96	9.9233e-06	3.6875e-06	408.6	136.56	118.73	41.042	6.1653e-06	50.829	0.001043	0.001055	0.00029267	1393.9	1.1486e-05	1.1472e-05	1384.7	372.41	1.1429e-05	1.1536e-05	430.19	144.48	125.16	43.654	1.1482e-05	54.398	96.566	-73.831	-125.511	-150.183	-97.928	-16.049	-150.267	-145.806	-84.673	25.444	-145.897	-141.872	-141.230	-136.351	-110.815	-137.133	-8191	255	
1122.061	1	1	0	0	0.18907	0.18904	0.013761	0.11132	0.11365	0.069234	0.031403	0.22929	0.19198	0.35028	0.08289	0.15798	0.20346	0.022713	0.046978	0.066806	-0.97083	-1.8917	-2.0354	-1.5958	-2.1063	-1.4833	-1.725	-2.3937	-1.2812	-1.8667	-2.1375	-1.5083	-2.1437	-1.8354	-1.35	-2.2875	-49.603	47.928	-138.371	154.508	150.366	29.358	17.371	156.259	-10.773	-91.918	154.670	152.688	79.288	-4.275	58.441	161.223	0.0017027	0.00033773	0.00022918	1349.9	5.4087e-06	6.7501e-06	1339.7	359.25	6.5983e-06	1.3924e-05	409.96	137.4	119.2	41.257	6.1321e-06	50.728	0.0010414	0.0010514	0.00029183	1395	1.1389e-05	1.1497e-05	1385.8	372.2	1.1423e-05	1.1472e-05	430.98	144.62	125.57	43.758	1.1423e-05	54.302	81.744	170.014	-147.273	-150.071	-114.013	-32.458	-150.292	-145.455	-86.722	6.938	-146.067	-142.110	-141.064	-136.210	-73.155	-137.260	-8191	255	
1122.134	1	1	0	0	0.12953	0.17147	0.2961	0.18797	0.23846	0.069851	0.30361	0.34514	0.20392	0.12253	0.22991	0.29844	0.024216	0.28099	0.24674	0.094265	-0.86667	-1.8625	-2.1	-1.4521	-1.9917	-1.7313	-1.425	-2.15	-1.5	-1.4562	-2.1792	-1.2188	-2.0917	-2.0625	-1.1896	-2.4917	3.364	-37.810	-128.983	-136.971	83.674	66.548	100.606	104.261	137.713	170.313	160.066	182.542	-161.645	167.753	80.507	143.411	0.0014862	0.0003197	1.1458e-05	1349.3	5.1479e-06	1.0855e-05	1348.3	358.96	1.9997e-06	7.1372e-06	408.08	137.34	119.39	41.175	5.3679e-06	50.68	0.001035	0.00104	0.00028858	1396.4	1.1375e-05	1.1394e-05	1389.8	372.63	1.1338e-05	1.1489e-05	430.37	144.62	125.57	43.694	1.1375e-05	54.411	82.546	-109.764	58.990	-150.093	-87.894	36.508	-150.528	-145.579	183.280	-36.779	-146.467	-142.175	-141.238	-136.678	28.696	-137.515	-8191	255	
1122.253	1	1	0	0	0.1818	0.15618	0.29607	0.14013	0.21213	0.1012	0.22578	0.16762	0.25843	0.11949	0.17432	0.18287	0.42872	0.30571	0.10799	0.22659	-0.875	-1.4833	-1.9917	-1.3354	-1.7292	-1.8167	-1.5	-2.5333	-1.6396	-1.5708	-2.4458	-1.3417	-1.8667	-2.0687	-1.2021	-2.0708	29.024	-60.088	8.788	186.207	-114.249	-6.784	-162.619	68.180	147.491	179.581	-146.590	163.832	103.145	107.418	-138.182	-85.641	0.0016034	0.00066575	3.5208e-05	1347.7	1.0176e-05	1.3323e-05	1342.4	358.33	9.548e-06	4.4366e-06	408.36	137.42	119.05	41.395	9.3211e-06	50.882	0.0010389	0.0010454	0.00029107	1395.2	1.1368e-05	1.1408e-05	1388.6	372.3	1.1326e-05	1.136e-05	430.2	144.71	125.35	43.778	1.1312e-05	54.37	91.495	-45.623	-89.250	-150.280	-74.138	-54.257	-150.319	-145.326	-123.896	40.619	-146.077	-142.116	-141.290	-136.351	-66.626	-137.310	-8191	255	
1122.349	1	1	0	0	0.070887	0.089979	0.16842	0.42938	0.18289	0.12352	0.42587	0.22485	0.24592	0.14308	0.15005	0.17008	0.45701	0.43938	0.1231	0.11953	-1.1292	-1.45	-2.0792	-1.4479	-1.8062	-2.0896	-1.5729	-2.0375	-1.6021	-1.4229	-2.2104	-1.4438	-1.9458	-2.1333	-1.275	-2.1562	-135.792	23.327	132.734	146.155	-144.670	135.223	139.431	143.412	-88.514	-94.078	165.988	138.345	-162.798	161.478	167.798	190.664	0.001203	0.00056988	0.00025049	1346.3	2e-06	9.865e-06	1348.7	360.13	5.5224e-06	8.8865e-06	406.85	137.7	119.1	41.392	1.0665e-05	50.909	0.0010326	0.0010409	0.00028849	1396.8	1.1324e-05	1.1375e-05	1389.9	372.95	1.1271e-05	1.1355e-05	429.95	144.81	125.44	43.791	1.1172e-05	54.376	83.389	-113.944	-73.857	-149.874	-27.786	-19.323	-150.563	-145.508	7.592	47.544	-146.153	-142.064	-141.146	-136.507	16.537	-137.324	-8191	255	
1122.446	1	1	0	0	0.14492	0.14427	0.20419	0.4361	0.10937	0.12673	0.13675	0.20654	0.062901	0.40381	0.13584	0.25273	0.30125	0.12104	0.02518	0.15925	-1.3792	-1.4937	-2.1333	-1.6229	-1.3375	-2.075	-1.4375	-2.3146	-1.8875	-1.1042	-2.375	-1.6083	-1.6271	-2.35	-1.2333	-2.15	-18.165	135.398	-155.637	162.377	99.558	71.489	-34.338	179.038	-153.310	-91.394	154.787	105.232	-129.784	134.501	163.516	23.181	0.0016095	0.00061617	0.00016674	1349.3	2.2477e-06	2.4268e-06	1343.3	358.6	3.9092e-06	4.6912e-06	410.56	137.55	119.56	41.12	3.3053e-06	51.105	0.0010201	0.0010298	0.00028635	1396.2	1.1309e-05	1.1406e-05	1387.4	372.86	1.1333e-05	1.1458e-05	431.72	144.77	125.63	43.796	1.1386e-05	54.59	94.391	-108.746	-25.989	-150.069	25.873	111.565	-150.538	-145.429	-41.771	68.973	-146.129	-141.887	-141.104	-136.400	-92.643	-137.050	-8191	255	
1122.542	1	1	0	0	0.20723	0.12497	0.29457	0.25421	0.075609	0.20795	0.059053	0.36302	0.22294	0.30181	0.29103	0.097978	0.45199	0.1432	0.06242	0.10691	-1.6375	-1.3021	-2.2938	-1.6354	-1.2979	-2.1417	-1.6854	-1.9708	-2.0687	-1.3062	-2.3042	-1.6812	-1.7333	-2.3333	-1.2854	-1.9896	-65.347	-123.484	184.967	122.209	-46.411	-134.559	51.455	150.705	-129.322	-76.582	147.349	65.148	-154.276	176.297	-36.591	-11.990	0.0015859	0.00019678	0.00021592	1354.2	5.1459e-06	5.0046e-06	1346.1	359.25	5.2068e-06	7.9342e-06	408.12	137.02	120.06	41.204	4.0225e-06	50.954	0.0010335	0.0010464	0.00029028	1400	1.1438e-05	1.1506e-05	1389.3	373.02	1.1348e-05	1.1438e-05	430.38	144.68	125.68	43.736	1.1426e-05	54.434	89.497	-126.194	-41.019	-150.036	-156.095	-34.872	-150.243	-145.462	-45.266	-8.241	-146.053	-141.787	-141.094	-136.596	-47.527	-137.272	-8191	255	
1122.662	1	1	0	0	0.28205	0.15003	0.16683	0.34086	0.17408	0.23445	0.61564	0.093168	0.46648	0.11779	0.052489	0.2069	0.054992	0.059043	0.046826	0.27861	-1.7042	-1.3083	-2.0667	-1.8979	-1.4021	-2.2667	-1.575	-1.8188	-2.1167	-1.0063	-2.1708	-1.8583	-1.4125	-2.2438	-1.3458	-1.55	-114.982	109.455	131.860	171.479	-4.915	99.100	134.104	129.295	130.194	-132.334	186.519	162.710	0.847	37.659	67.126	97.540	0.0012561	0.00015504	0.00023358	1353.9	7.6959e-06	2.57e-06	1345	358.65	7.2959e-06	7.8531e-06	410.1	137.66	119.57	41.239	1.3114e-05	50.767	0.0010421	0.0010494	0.00029235	1399.2	1.1497e-05	1.1557e-05	1390.9	373.03	1.153e-05	1.1534e-05	431.55	144.92	125.74	43.823	1.1545e-05	54.554	88.237	-100.144	-92.071	-150.152	-105.626	-14.775	-150.255	-145.461	-40.916	-6.924	-146.099	-142.135	-141.037	-136.383	4.199	-137.175	-8191	255	
1122.759	1	1	0	0	0.16331	0.21231	0.10381	0.21445	0.1323	0.26249	0.41541	0.41365	0.19245	0.13381	0.27364	0.28681	0.087967	0.20779	0.17444	0.17109	-1.6583	-1.0708	-1.9042	-2.0187	-1.0625	-1.975	-1.7313	-1.7	-1.9417	-1.2938	-2.1021	-2.1688	-1.2625	-2.2542	-1.275	-1.3333	-13.221	-86.765	-109.478	187.103	149.875	137.836	149.737	119.419	147.512	190.147	171.119	122.092	-124.192	133.315	-15.884	53.334	0.0013081	0.0006581	0.00019521	1353.7	1.3097e-05	4.1123e-06	1350.7	358.57	1.1713e-05	5.4097e-06	409.18	137.79	118.85	41.077	4.9642e-06	51.005	0.0010453	0.0010624	0.00029462	1401.1	1.1544e-05	1.1557e-05	1390.5	373	1.1517e-05	1.1595e-05	431.22	145.02	125.62	43.72	1.1511e-05	54.46	95.211	-141.519	-78.671	-149.823	-77.429	-37.260	-150.272	-145.480	-92.858	-19.746	-145.678	-141.952	-140.948	-136.323	-7.595	-136.948	-8191	255	
1122.855	1	1	0	0	0.11138	0.11711	0.286	0.37533	0.28271	0.24686	0.36311	0.26643	0.23752	0.080737	0.50073	0.15852	0.14921	0.29386	0.24873	0.26619	-1.8375	-1.2979	-1.7271	-2.1437	-1.3521	-2.0438	-1.7896	-1.3354	-2.2062	-1.2417	-1.9292	-2.1521	-1.1729	-2.1417	-1.6354	-1.4146	-76.737	17.381	-87.425	179.355	18.155	52.138	136.590	109.523	53.437	194.811	157.801	155.236	186.094	-147.081	123.767	64.269	0.0012698	0.00027265	0.00013595	1353.5	5.4124e-06	3.9636e-06	1342.9	360.4	1.3008e-06	3.4703e-06	411.44	138.51	119.28	41.258	5.7e-06	50.841	0.0010464	0.0010562	0.0002946	1402.9	1.1479e-05	1.1542e-05	1393.3	374.22	1.1418e-05	1.1553e-05	432.34	145.18	125.9	43.839	1.1535e-05	54.477	94.634	153.095	-91.384	-149.841	-35.969	-106.863	-150.564	-145.503	-139.976	-18.538	-145.651	-141.734	-141.242	-136.397	-68.602	-137.318	-8191	255	
1122.949	1	1	0	0	0.040152	0.06352	0.15717	0.25335	0.14478	0.049605	0.11551	0.054207	0.22728	0.3095	0.16257	0.093916	0.28582	0.029026	0.10946	0.22737	-1.7854	-1.2188	-1.6875	-2.1729	-1.3208	-1.8521	-1.9854	-1.4333	-2.2062	-1.5562	-1.7771	-2.2687	-1.2458	-2.0917	-1.8479	-1.3083	24.490	182.213	-2.789	120.905	75.909	159.587	-138.878	-160.211	-120.047	72.515	189.579	-128.287	173.063	49.619	174.220	82.282	0.0013965	0.00037246	9.4947e-05	1360.4	5.0856e-06	4.7705e-06	1353.8	360.78	1.1233e-05	8.5528e-06	410.96	138.19	119.79	41.372	3.949e-06	51.12	0.0010413	0.0010521	0.0002926	1404.3	1.1508e-05	1.1524e-05	1395.5	374.28	1.147e-05	1.1545e-05	432.51	145.35	125.96	43.927	1.1453e-05	54.689	81.672	-97.944	-84.202	-149.977	175.165	108.791	-150.370	-145.398	-69.581	-35.462	-145.885	-141.783	-141.211	-136.399	30.470	-137.025	-8191	255	
1123.045	1	1	0	0	0.22678	0.30464	0.10445	0.1727	0.032386	0.12337	0.2632	0.33132	0.07086	0.090989	0.31187	0.21401	0.10804	0.37023	0.34001	0.13199	-1.9146	-1.7188	-1.475	-2.3771	-1.2083	-1.9875	-2.2042	-1.4917	-2.1833	-1.6125	-1.6479	-2.1542	-1.425	-1.975	-1.8021	-1.2417	154.930	155.505	89.788	-140.586	68.245	-154.526	165.128	176.888	33.609	133.762	-159.210	-136.141	-138.208	-129.265	-72.807	119.239	0.0014224	0.00040399	0.00029377	1362.1	5.273e-06	1.4931e-05	1347.1	360.1	2.5446e-06	7.6583e-06	410.2	137.7	119.58	41.394	2.9239e-06	50.979	0.0010449	0.0010529	0.0002925	1405.9	1.1479e-05	1.1517e-05	1395.7	374.24	1.1437e-05	1.151e-05	432.44	145.38	125.81	43.862	1.1462e-05	54.524	95.469	-101.849	-99.809	-149.847	-127.818	40.130	-150.362	-145.431	-88.722	-35.978	-146.176	-142.262	-141.460	-136.560	-81.919	-137.532	-8191	255	
1123.141	1	1	0	0	0.21817	0.22749	0.14063	0.3253	0.1622	0.063507	0.08463	0.11945	0.179	0.091255	0.23443	0.40273	0.1656	0.19979	0.13658	0.26446	-1.7083	-1.5312	-1.3125	-2.4417	-1.3604	-1.6063	-2.3292	-1.5312	-1.8292	-1.8771	-1.4312	-2.3312	-1.5854	-1.7563	-2.0958	-1.3729	168.716	81.908	12.908	172.102	-69.609	130.022	140.839	-134.672	-69.179	-144.572	108.769	168.036	153.190	90.277	87.206	-125.999	0.0013564	0.0010163	0.00023315	1359.8	7.4683e-06	6.9695e-06	1348.1	359.95	5.0424e-06	4.8811e-06	408.67	138.39	119.4	41.363	4.6113e-06	50.976	0.0010414	0.0010527	0.00029372	1404.9	1.1534e-05	1.1464e-05	1393.4	373.91	1.1488e-05	1.1484e-05	431.29	145.38	125.89	43.868	1.1431e-05	54.555	90.014	-67.468	-33.816	-150.370	-18.824	-18.443	-150.675	-145.753	-111.816	-21.009	-146.103	-142.066	-141.635	-136.727	12.011	-137.183	-8191	255	
1123.262	1	1	0	0	0.12934	0.14379	0.13369	0.51708	0.082782	0.43501	0.34674	0.40247	0.22661	0.12786	0.33511	0.19444	0.45473	0.3695	0.046064	0.064435	-1.6667	-1.8083	-1.1708	-2.2729	-1.3083	-1.2812	-2.4417	-1.4792	-2.0021	-1.925	-1.4583	-2.3708	-1.5667	-1.7437	-2.2667	-1.4292	72.788	75.176	-52.824	131.579	26.234	-56.032	119.224	119.588	-59.794	-52.471	180.406	183.965	155.720	-150.245	44.822	-67.178	0.001831	0.00037515	0.00015254	1357	8.3225e-06	9.5053e-06	1348.9	360.02	1.7795e-06	7.78e-06	410.06	137.75	119.82	41.277	4.1875e-06	51.155	0.0010389	0.0010527	0.00029261	1404.1	1.1472e-05	1.1548e-05	1392.8	373.33	1.1385e-05	1.1449e-05	431.63	145.59	125.74	43.871	1.1403e-05	54.587	88.869	-52.446	158.119	-150.272	-59.402	14.679	-150.628	-145.661	-29.503	-107.815	-146.125	-142.028	-141.485	-136.278	-111.159	-137.364	-8191	255	
1123.358	1	1	0	0	0.13591	0.15734	0.20172	0.12256	0.32253	0.3393	0.3454	0.24837	0.16281	0.091945	0.50638	0.098187	0.15532	0.26661	0.25832	0.15493	-1.5438	-1.9646	-0.9375	-2.3271	-1.4562	-1.3	-2.3854	-1.6208	-1.8771	-2.175	-1.4417	-2.2583	-1.85	-1.525	-2.2771	-1.4354	-75.483	-42.044	-140.307	168.104	4.053	-152.551	129.853	60.256	-111.633	-91.509	160.254	70.719	-106.471	179.412	138.796	34.614	0.0014239	0.00075847	0.00022857	1357.3	3.7791e-06	3.1491e-06	1348.6	359.11	8.3188e-06	1.0923e-05	411.28	138.32	119.21	41.379	1.4029e-05	51.095	0.0010393	0.0010401	0.00029248	1402.4	1.1286e-05	1.1438e-05	1392.7	373.27	1.1309e-05	1.1366e-05	431.21	145.33	125.74	43.8	1.1275e-05	54.569	79.876	-90.808	-73.556	-149.908	-57.592	97.520	-150.548	-145.663	-57.830	-3.439	-146.064	-141.922	-141.269	-136.225	-73.376	-137.302	-8191	255	
#DATA ENDS
