BOXY.EXE: ISS Imagent and Oximeter Data Acquisition Program Version 0.80
Ascii Record File

#ACQ INFORMATION
2  Detector Channels 
16  External MUX Channels 
1  Auxiliary Channels 
5000  Waveform (CCF) Frequency (Hz)
1  Waveforms Skipped 
30  Waveforms Averaged 
1  Cycles Averaged 
16  Acquisitions per Waveform 
10.0806  Updata Rate (Hz) 

#FILE INFORMATION
TRUE -- External MUX Channel results are PARSED.
FALSE -- AC DC and Phase are NOT grouped.
TRUE -- Companion Program Settings File CREATED.
FALSE -- AC data not excluded
FALSE -- DC data not excluded
FALSE -- Phase data not excluded
FALSE -- Auxillary Chn. data not excluded
Tab delimiters

#CALIBRATION STATE
TRUE -- Waveform Calibration Values APPLIED.


#AUX CALIBRATION VALUES
Val Type	aux-1	

Term	1.0000e+00	
Factor	0.0000e+00	


#WF CALIBRATION VALUES
A = Detector Channel
Val Type	A-AC1	A-AC2	A-AC3	A-AC4	A-AC5	A-AC6	A-AC7	A-AC8	A-AC9	A-AC10	A-AC11	A-AC12	A-AC13	A-AC14	A-AC15	A-AC16	A-DC1	A-DC2	A-DC3	A-DC4	A-DC5	A-DC6	A-DC7	A-DC8	A-DC9	A-DC10	A-DC11	A-DC12	A-DC13	A-DC14	A-DC15	A-DC16	A-Ph1	A-Ph2	A-Ph3	A-Ph4	A-Ph5	A-Ph6	A-Ph7	A-Ph8	A-Ph9	A-Ph10	A-Ph11	A-Ph12	A-Ph13	A-Ph14	A-Ph15	A-Ph16	

Term	0.00000e+00	0.00000e+00	0.00000e+00	0.00000e+00	0.00000e+00	0.00000e+00	0.00000e+00	0.00000e+00	0.00000e+00	0.00000e+00	0.00000e+00	0.00000e+00	0.00000e+00	0.00000e+00	0.00000e+00	0.00000e+00	0.00000e+00	0.00000e+00	0.00000e+00	0.00000e+00	0.00000e+00	0.00000e+00	0.00000e+00	0.00000e+00	0.00000e+00	0.00000e+00	0.00000e+00	0.00000e+00	0.00000e+00	0.00000e+00	0.00000e+00	0.00000e+00	0.00000e+00	0.00000e+00	0.00000e+00	0.00000e+00	0.00000e+00	0.00000e+00	0.00000e+00	0.00000e+00	0.00000e+00	0.00000e+00	0.00000e+00	0.00000e+00	0.00000e+00	0.00000e+00	0.00000e+00	0.00000e+00	
Factor	1.00000e+00	1.00000e+00	1.00000e+00	1.00000e+00	1.00000e+00	1.00000e+00	1.00000e+00	1.00000e+00	1.00000e+00	1.00000e+00	1.00000e+00	1.00000e+00	1.00000e+00	1.00000e+00	1.00000e+00	1.00000e+00	1.00000e+00	1.00000e+00	1.00000e+00	1.00000e+00	1.00000e+00	1.00000e+00	1.00000e+00	1.00000e+00	1.00000e+00	1.00000e+00	1.00000e+00	1.00000e+00	1.00000e+00	1.00000e+00	1.00000e+00	1.00000e+00	X	X	X	X	X	X	X	X	X	X	X	X	X	X	X	X	

B = Detector Channel
Val Type	B-AC1	B-AC2	B-AC3	B-AC4	B-AC5	B-AC6	B-AC7	B-AC8	B-AC9	B-AC10	B-AC11	B-AC12	B-AC13	B-AC14	B-AC15	B-AC16	B-DC1	B-DC2	B-DC3	B-DC4	B-DC5	B-DC6	B-DC7	B-DC8	B-DC9	B-DC10	B-DC11	B-DC12	B-DC13	B-DC14	B-DC15	B-DC16	B-Ph1	B-Ph2	B-Ph3	B-Ph4	B-Ph5	B-Ph6	B-Ph7	B-Ph8	B-Ph9	B-Ph10	B-Ph11	B-Ph12	B-Ph13	B-Ph14	B-Ph15	B-Ph16	

Term	0.00000e+00	0.00000e+00	0.00000e+00	0.00000e+00	0.00000e+00	0.00000e+00	0.00000e+00	0.00000e+00	0.00000e+00	0.00000e+00	0.00000e+00	0.00000e+00	0.00000e+00	0.00000e+00	0.00000e+00	0.00000e+00	0.00000e+00	0.00000e+00	0.00000e+00	0.00000e+00	0.00000e+00	0.00000e+00	0.00000e+00	0.00000e+00	0.00000e+00	0.00000e+00	0.00000e+00	0.00000e+00	0.00000e+00	0.00000e+00	0.00000e+00	0.00000e+00	-2.42741e+02	-1.55801e+02	-1.30442e+02	-1.82481e+02	-9.91373e+01	-5.97705e+01	-1.57793e+02	-1.62015e+02	-9.26830e+01	-6.05605e+01	-1.71410e+02	-1.70576e+02	-1.81136e+02	-1.76213e+02	-8.41416e+01	-1.49482e+02	
Factor	4.89592e-05	1.01473e-04	2.92524e-05	1.62080e-01	9.51960e-07	1.04877e-06	1.53107e-01	3.99569e-02	1.07762e-06	9.79278e-07	7.00297e-02	2.41918e-02	1.94195e-02	6.96819e-03	1.13135e-06	1.01434e-02	1.01517e-06	1.04419e-06	2.90279e-07	8.40594e-02	1.13893e-08	1.14537e-08	7.45432e-02	2.08403e-02	1.13918e-08	1.14551e-08	3.47523e-02	1.20131e-02	1.01154e-02	3.62274e-03	1.14149e-08	5.06097e-03	X	X	X	X	X	X	X	X	X	X	X	X	X	X	X	X	



#DISTANCE SETTINGS
A = Detector Channel
A-1	A-2	A-3	A-4	A-5	A-6	A-7	A-8	A-9	A-10	A-11	A-12	A-13	A-14	A-15	A-16	

2.5000e+00	3.0000e+00	2.5000e+00	3.0000e+00	2.0000e+00	3.0000e+00	1.5000e+00	3.0000e+00	3.0000e+00	3.0000e+00	3.0000e+00	3.0000e+00	3.0000e+00	3.0000e+00	1.5000e+00	3.0000e+00	

B = Detector Channel
B-1	B-2	B-3	B-4	B-5	B-6	B-7	B-8	B-9	B-10	B-11	B-12	B-13	B-14	B-15	B-16	

1.0000e+01	1.0000e+01	1.0000e+01	1.4400e+00	1.0000e+01	1.0000e+01	1.5100e+00	1.9400e+00	1.0000e+01	1.0000e+01	1.9900e+00	2.4900e+00	2.4100e+00	2.9000e+00	1.0000e+01	2.9800e+00	




#DATA BEGINS
time	group	step	mark	flag	A-AC1	A-AC2	A-AC3	A-AC4	A-AC5	A-AC6	A-AC7	A-AC8	A-AC9	A-AC10	A-AC11	A-AC12	A-AC13	A-AC14	A-AC15	A-AC16	A-DC1	A-DC2	A-DC3	A-DC4	A-DC5	A-DC6	A-DC7	A-DC8	A-DC9	A-DC10	A-DC11	A-DC12	A-DC13	A-DC14	A-DC15	A-DC16	A-Ph1	A-Ph2	A-Ph3	A-Ph4	A-Ph5	A-Ph6	A-Ph7	A-Ph8	A-Ph9	A-Ph10	A-Ph11	A-Ph12	A-Ph13	A-Ph14	A-Ph15	A-Ph16	B-AC1	B-AC2	B-AC3	B-AC4	B-AC5	B-AC6	B-AC7	B-AC8	B-AC9	B-AC10	B-AC11	B-AC12	B-AC13	B-AC14	B-AC15	B-AC16	B-DC1	B-DC2	B-DC3	B-DC4	B-DC5	B-DC6	B-DC7	B-DC8	B-DC9	B-DC10	B-DC11	B-DC12	B-DC13	B-DC14	B-DC15	B-DC16	B-Ph1	B-Ph2	B-Ph3	B-Ph4	B-Ph5	B-Ph6	B-Ph7	B-Ph8	B-Ph9	B-Ph10	B-Ph11	B-Ph12	B-Ph13	B-Ph14	B-Ph15	B-Ph16	aux-1	digaux	

2127.812	1	1	0	512	0.20736	0.17331	0.26139	0.12723	0.1557	0.24625	0.14476	0.060193	0.27524	0.34893	0.12628	0.29495	0.20402	0.22589	0.1573	0.22547	-0.76667	-1.2812	-1.9646	-0.98125	-1.7542	-1.3875	-1.1792	-2.0563	-1.25	-1.3542	-1.9958	-1.0146	-1.8542	-1.7979	-1.1688	-2.0229	-113.630	127.453	14.280	84.516	-115.118	-98.037	-119.885	-82.647	-150.415	-83.909	-53.567	196.879	-144.198	-126.481	129.444	54.344	0.0022894	0.00079956	9.1767e-05	371.04	3.904e-06	1.4552e-06	581.11	172.06	2.7203e-07	5.4117e-06	281.09	133.58	82.278	49.358	7.9113e-06	76.069	0.00069786	0.00068155	0.00019357	387.78	7.6398e-06	7.4844e-06	568.88	169.73	7.4407e-06	7.5205e-06	273.28	126.51	80.926	46.964	7.4915e-06	71.23	91.941	-103.653	90.801	-139.245	-61.335	-119.313	-141.087	-133.759	135.324	49.346	-137.184	-134.026	-130.104	-126.407	17.622	-131.341	-8191	255	
2127.932	1	1	0	0	0.26054	0.21491	0.28217	0.029779	0.032082	0.12464	0.20004	0.24296	0.19521	0.063998	0.14994	0.11001	0.094225	0.17173	0.11329	0.15009	-0.94375	-1.4188	-1.925	-1.075	-1.7896	-1.8458	-1.0292	-2.1083	-1.2875	-1.2729	-2.2438	-1.2979	-1.6667	-1.9333	-1.0354	-2.0583	-108.423	48.576	81.414	190.064	154.236	115.015	128.481	187.587	-79.679	-98.730	-100.044	-77.130	-30.376	111.645	-41.446	-98.371	0.0021596	0.00027251	8.277e-05	375.09	9.2224e-06	4.598e-06	578.04	172.41	8.5046e-06	2.3475e-06	279.18	132.43	82.745	49.122	4.0921e-06	75.275	0.00068744	0.0006866	0.00019272	386.86	7.5605e-06	7.5313e-06	569.61	169.39	7.4527e-06	7.5134e-06	271.51	125.84	81	46.749	7.4217e-06	70.625	83.175	198.189	19.518	-138.906	26.004	-85.170	-140.949	-134.024	-100.233	-95.361	-137.285	-133.892	-129.747	-126.183	-141.525	-130.877	-8191	255	
2128.004	1	1	0	0	0.091158	0.15721	0.063778	0.0888	0.18376	0.21085	0.21504	0.26714	0.13731	0.0686	0.25061	0.15114	0.19605	0.1377	0.16093	0.26512	-1.0521	-1.0521	-1.9083	-1.1771	-1.4542	-1.8292	-1.2542	-1.9312	-1.5833	-1.1583	-2.0583	-1.4042	-1.6375	-2.1167	-0.92292	-1.9771	-49.513	171.980	70.563	132.875	36.567	-122.143	47.536	-99.459	181.544	178.123	196.783	117.783	206.749	173.630	8.053	179.810	0.0021851	0.00053234	0.00022538	370.35	1.2066e-06	1.6041e-07	572.68	172.21	7.5441e-06	8.0045e-06	278	132.07	82.879	48.966	4.6288e-06	75.192	0.00069374	0.00068132	0.00019306	385.74	7.4588e-06	7.5907e-06	566.96	169.32	7.4717e-06	7.4818e-06	270.87	125.27	80.64	46.727	7.4142e-06	70.619	95.472	-96.661	-87.831	-139.502	-105.504	185.400	-141.510	-134.098	37.317	-27.953	-136.942	-133.880	-129.846	-125.902	-62.822	-131.202	-8191	255	
2128.100	1	1	0	0	0.1519	0.31291	0.038267	0.36697	0.11219	0.13481	0.16856	0.073655	0.15506	0.16992	0.2897	0.15337	0.25861	0.23528	0.13933	0.25621	-1.2042	-1.0771	-1.9937	-1.1958	-1.3875	-1.9521	-1.3083	-1.8292	-1.7458	-0.91875	-2.0979	-1.2625	-1.3854	-2.1625	-0.93125	-1.9458	-86.149	114.888	17.111	-129.523	68.909	166.168	147.607	90.515	147.956	177.497	200.383	150.404	182.757	-146.854	-134.119	-146.030	0.0021616	0.0004843	0.00034845	371.79	9.8541e-06	4.9582e-06	577.7	170.62	3.5495e-06	9.0396e-06	278	131.82	82.918	49.287	7.7426e-06	76.151	0.00069177	0.00068211	0.00019293	386.49	7.3991e-06	7.624e-06	566.84	168.71	7.4326e-06	7.439e-06	270.71	125.05	80.654	46.847	7.4841e-06	70.905	98.703	-112.327	-52.583	-139.517	-49.486	92.212	-140.646	-133.722	-131.831	8.732	-137.027	-133.716	-130.085	-125.973	-77.053	-130.725	-8191	255	
2128.221	1	1	0	0	0.067495	0.30715	0.15521	0.2057	0.065544	0.14148	0.36526	0.28097	0.10595	0.1048	0.28352	0.16422	0.26476	0.18221	0.31681	0.17132	-1.35	-1.0896	-1.9208	-1.4958	-1.1812	-2.1021	-1.2542	-1.7375	-1.9104	-1.1938	-2.0167	-1.4583	-1.2521	-2.2396	-1.1063	-1.7979	53.789	-83.161	-85.946	-29.206	-18.222	-6.811	166.207	204.664	-55.662	182.315	-132.886	85.709	141.651	135.208	-64.375	101.467	0.0022142	0.0010847	8.7103e-05	369.21	1.1108e-05	2.5759e-06	579.7	171.78	3.8074e-06	1.0339e-05	279.23	132.81	83.478	49.27	1.1686e-05	75.789	0.0006936	0.00067957	0.0001931	387	7.5374e-06	7.6243e-06	568.11	169.42	7.502e-06	7.5358e-06	272.38	125.96	81.206	47.008	7.47e-06	71.213	82.443	-84.023	-13.937	-139.862	-83.175	-89.274	-141.508	-134.100	-44.372	-17.854	-137.182	-133.927	-129.959	-125.790	-106.250	-130.566	-8191	255	
2128.315	1	1	0	0	0.32751	0.038565	0.20727	0.21018	0.19271	0.11463	0.011404	0.13243	0.12542	0.19119	0.047997	0.23463	0.078956	0.32581	0.08495	0.13767	-1.5	-1.1958	-1.8188	-1.5417	-1.1333	-1.9083	-1.2938	-1.3792	-2.025	-1.0396	-2.0938	-1.5833	-1.0833	-2.0812	-1.0896	-1.7583	120.456	-125.767	77.051	144.610	-140.138	85.557	137.255	155.713	136.396	-4.756	-54.448	143.494	154.973	196.401	22.469	173.103	0.0019764	0.00064636	0.00013378	368.62	1.2238e-05	6.2125e-06	579.22	173.54	8.676e-06	1.9642e-06	281.67	133.01	83.185	49.87	1.1613e-06	76.18	0.00070067	0.00067875	0.00019229	386.41	7.4698e-06	7.6048e-06	569.76	170.41	7.5782e-06	7.4497e-06	272.85	126.3	81.274	47.266	7.4731e-06	71.398	80.111	-62.802	-56.751	-139.551	-77.550	43.429	-141.471	-133.978	-3.055	0.469	-136.922	-133.471	-129.958	-126.055	-5.396	-130.901	-8191	255	
2128.411	1	1	0	0	0.23623	0.22856	0.17903	0.10681	0.057812	0.17498	0.17264	0.21348	0.23336	0.10245	0.14666	0.10853	0.1435	0.32475	0.11203	0.3326	-1.3833	-1.0229	-1.8958	-1.6271	-1.0708	-1.9458	-1.4917	-1.2771	-1.9688	-1.0479	-1.9042	-1.975	-1.1063	-2.125	-1.2292	-1.5271	116.714	53.559	-148.781	157.207	97.814	92.083	-121.446	-128.399	72.414	119.478	125.187	-88.873	144.981	-117.872	79.135	147.862	0.0019274	0.0011179	0.00029263	370.33	7.7186e-06	1.2578e-05	579.99	173.78	4.6478e-07	4.0779e-06	280.19	132.83	83.431	49.705	1.4207e-06	75.861	0.00069479	0.00068258	0.00019225	386.2	7.4526e-06	7.6671e-06	569.29	169.89	7.5394e-06	7.5312e-06	272.46	126.13	81.273	47.2	7.4325e-06	71.071	76.431	-57.520	20.620	-139.575	-55.917	-8.062	-141.160	-134.051	188.819	42.212	-136.846	-133.934	-129.859	-126.438	32.712	-130.994	-8191	255	
2128.532	1	1	0	0	0.14073	0.27776	0.18684	0.1886	0.18766	0.19084	0.085017	0.17086	0.1829	0.1903	0.039653	0.089762	0.16777	0.25775	0.14817	0.24907	-1.6437	-1.1146	-1.5271	-1.9917	-0.93125	-2.0646	-1.5479	-1.2687	-2.125	-1.2042	-1.7646	-2.0375	-0.98125	-2.0333	-1.4542	-1.4083	-65.757	-81.580	149.101	-101.903	158.398	-65.677	100.910	79.591	-84.536	157.284	45.027	8.588	120.139	-137.790	146.452	173.654	0.0019617	0.00028332	0.00026451	367.76	1.7722e-06	9.414e-06	580.95	171.39	1.0866e-05	1.2088e-05	280.42	132.79	82.8	49.834	2.4438e-06	75.381	0.00070747	0.00068171	0.00018962	386.69	7.3528e-06	7.5928e-06	569.87	169.06	7.4601e-06	7.3753e-06	271.48	125.82	80.985	47.237	7.5153e-06	70.938	88.253	-115.451	-93.172	-139.614	168.193	95.965	-141.900	-133.783	-13.169	6.987	-137.590	-133.853	-129.903	-125.972	-97.251	-130.967	-8191	255	
2128.604	1	1	0	0	0.12617	0.11889	0.24454	0.03095	0.049431	0.02143	0.20055	0.18824	0.23847	0.24307	0.047043	0.3306	0.23054	0.62899	0.0083417	0.16358	-1.5375	-1.2792	-1.3667	-1.8896	-0.95417	-1.9583	-1.7083	-1.2271	-2.075	-1.2958	-1.5417	-1.9979	-1.1708	-1.8729	-1.8208	-1.25	-27.894	-28.544	-22.698	76.568	161.010	4.988	-18.810	-90.737	179.415	49.623	176.320	183.382	-47.534	200.225	98.143	29.785	0.0020869	0.00083095	0.00032961	365.27	7.9167e-06	1.1606e-05	569.73	171.24	8.2968e-06	9.0337e-06	279.26	131.99	82.858	49.918	5.5082e-06	75.714	0.00070901	0.00067694	0.00018891	385.97	7.4227e-06	7.5844e-06	564.77	168.82	7.5573e-06	7.4251e-06	270.84	125.82	80.934	47.33	7.481e-06	71.005	93.789	-18.562	-91.677	-139.798	16.332	16.060	-141.104	-134.022	19.054	-132.989	-136.859	-133.950	-129.578	-126.239	133.426	-131.058	-8191	255	
2128.700	1	1	0	0	0.078782	0.27093	0.095888	0.19267	0.19806	0.18867	0.38647	0.24249	0.25601	0.16871	0.27086	0.065326	0.30431	0.45579	0.2047	0.19381	-1.5396	-1.4167	-1.2792	-2.025	-1.1042	-1.7042	-1.7896	-1.2062	-2.0187	-1.275	-1.2042	-2.0896	-1.2708	-1.7313	-1.9333	-1.2646	154.417	97.529	73.115	-22.092	-40.700	73.382	73.885	-136.240	184.691	-105.512	141.224	123.062	101.806	132.223	128.962	100.547	0.0016715	0.00073525	0.00010572	371.63	5.0886e-06	6.5928e-06	577.41	172.21	2.5278e-06	4.2532e-06	280.73	132.99	82.894	49.743	3.7438e-06	75.906	0.00070561	0.00067676	0.00018911	388.08	7.404e-06	7.4834e-06	567.94	169.46	7.585e-06	7.4269e-06	271.24	126.15	81.016	47.191	7.5505e-06	71.119	83.219	198.925	-61.150	-139.485	-98.261	205.702	-141.126	-134.120	51.654	-9.215	-137.443	-133.849	-129.962	-125.875	42.593	-131.015	-8191	255	
2128.820	1	1	0	0	0.1565	0.14933	0.08701	0.12157	0.17952	0.14522	0.098148	0.26756	0.1657	0.22862	0.39845	0.21474	0.31745	0.19112	0.082111	0.45793	-1.6479	-1.5312	-1.0875	-2.0229	-1.225	-1.5312	-2.0125	-1.0812	-1.8625	-1.6854	-1.2771	-2.0687	-1.4042	-1.6063	-1.8563	-1.1083	104.094	-145.319	4.197	-21.747	61.931	183.579	-109.656	41.540	107.778	110.786	171.638	-147.369	-98.146	159.775	168.981	187.444	0.0021929	0.00026415	0.00025837	371.12	6.5352e-06	8.3186e-06	578.79	171.8	1.1108e-05	1.0383e-05	278.27	132.01	83.368	49.67	1.0738e-05	75.555	0.00069355	0.0006757	0.00018932	388.63	7.3579e-06	7.536e-06	569.31	169.26	7.52e-06	7.4282e-06	270.8	125.59	81.098	47.174	7.51e-06	70.837	82.807	-90.838	-23.458	-139.147	38.892	16.626	-141.028	-133.818	17.012	23.604	-137.255	-133.700	-129.887	-126.260	-129.332	-131.045	-8191	255	
2128.917	1	1	0	0	0.32205	0.091427	0.15113	0.2373	0.26001	0.11702	0.10324	0.15324	0.28952	0.35582	0.28622	0.19339	0.16006	0.16634	0.069742	0.36948	-1.6417	-1.6833	-1.0375	-2.0312	-1.1688	-1.3521	-2.075	-1.1375	-1.6167	-1.8229	-1.1	-2.0229	-1.5729	-1.3021	-1.8146	-1.2917	129.106	-19.567	127.363	179.422	-80.310	-87.240	157.226	176.959	-3.041	117.180	-134.243	117.979	110.116	183.743	136.476	118.984	0.0022812	0.00055686	7.2448e-05	372.46	4.3804e-06	1.117e-05	574.55	172.62	5.8576e-06	4.1617e-06	275.84	131.33	83.153	49.58	4.0151e-07	74.872	0.00068817	0.00067611	0.00018638	389.07	7.3094e-06	7.4067e-06	564.71	169	7.4066e-06	7.3361e-06	267.97	124.58	80.714	47.112	7.4975e-06	70.303	90.936	162.525	-98.396	-139.397	34.571	-69.596	-141.282	-134.057	-87.875	-7.956	-137.194	-133.850	-129.931	-126.084	105.409	-131.282	-8191	255	
2129.013	1	1	0	0	0.15059	0.12457	0.07493	0.35219	0.11992	0.29672	0.2733	0.23143	0.13106	0.053639	0.095219	0.25598	0.19423	0.15656	0.27952	0.36475	-1.1313	-1.6875	-1.1396	-1.9521	-1.2375	-1.2208	-1.9583	-1.2979	-1.6875	-1.7354	-1.1979	-1.9125	-1.5854	-1.4625	-2.0229	-1.1688	-34.624	129.256	76.475	99.933	-105.844	71.847	60.419	125.320	145.365	-131.468	176.685	180.987	159.027	-136.221	148.860	99.044	0.0020158	0.00059759	0.00024132	369.55	1.0092e-05	8.5116e-06	578.55	171.32	8.9817e-07	1.3651e-06	277.05	131.1	82.731	49.606	6.475e-06	75.468	0.00068259	0.00067542	0.00018764	388.4	7.3463e-06	7.4573e-06	566.04	168.38	7.3819e-06	7.4501e-06	269.29	124.54	80.832	46.949	7.4799e-06	70.468	84.814	-126.397	-82.493	-139.093	-45.844	98.913	-141.054	-133.803	-50.992	106.320	-137.179	-133.690	-129.944	-125.848	-73.206	-131.405	-8191	255	
2129.107	1	1	0	0	0.11374	0.12139	0.16505	0.2285	0.13224	0.13771	0.022664	0.064989	0.20618	0.19619	0.35667	0.35978	0.20403	0.063332	0.25165	0.14369	-1.2229	-1.7229	-0.95625	-1.8667	-1.4188	-1.1771	-2.0958	-1.2958	-1.4854	-1.9125	-1.2854	-1.7792	-1.5979	-1.2396	-1.9354	-1.4396	194.048	-129.271	121.390	146.310	26.368	-35.264	-96.224	-140.830	-115.414	-80.479	161.343	134.029	159.174	97.061	-43.859	-85.141	0.0019767	0.00031364	0.00030331	372.55	5.0598e-06	1.0269e-05	577.06	171.22	9.0915e-06	2.4223e-06	278.93	132.67	83.134	49.79	8.7816e-06	75.505	0.00068439	0.00068197	0.00018598	387.74	7.3652e-06	7.457e-06	566.04	168.79	7.4193e-06	7.49e-06	269.67	126.05	81.056	47.341	7.5805e-06	70.93	83.151	185.614	-38.242	-139.678	15.860	27.606	-141.433	-134.170	-88.156	-12.418	-136.937	-133.462	-130.098	-126.412	-78.432	-130.920	-8191	255	
2129.228	1	1	0	0	0.074924	0.12117	0.020205	0.065908	0.10606	0.14426	0.38341	0.088514	0.20283	0.11742	0.19793	0.29395	0.18991	0.10937	0.3045	0.21303	-0.77708	-1.8708	-1.2021	-1.6604	-1.7604	-1.1812	-1.9771	-1.2792	-1.2125	-1.9396	-1.2729	-1.6021	-1.9771	-0.93333	-1.8875	-1.6938	124.457	-12.681	118.659	60.749	-41.322	-136.147	140.753	171.766	-111.292	167.280	202.196	-135.198	-106.872	113.260	97.520	166.337	0.0020044	0.00068211	0.00016651	375.19	5.2045e-06	1.2437e-05	579.84	172.8	1.3405e-06	8.4697e-07	279.97	133.95	83.064	49.866	9.9326e-06	75.881	0.00069884	0.00068897	0.00019003	387.97	7.4684e-06	7.4126e-06	569.93	169.56	7.432e-06	7.5272e-06	271.27	126.4	81.347	47.405	7.4714e-06	71.096	76.684	-26.947	-37.172	-139.731	51.739	-32.868	-141.398	-134.267	2.735	64.787	-136.936	-133.506	-129.979	-126.431	-63.620	-131.257	-8191	255	
2129.299	1	1	0	0	0.064462	0.14022	0.12246	0.088491	0.076659	0.34954	0.21475	0.027586	0.2939	0.30679	0.12834	0.072427	0.10396	0.070721	0.19629	0.081398	-0.71458	-2.1292	-1.1396	-1.8042	-1.8312	-1.0729	-1.7896	-1.575	-1.0625	-1.9479	-1.2792	-1.5021	-1.8667	-1.1896	-1.6938	-1.6292	173.168	29.096	-129.545	-138.449	157.130	48.739	135.911	80.371	-23.302	-32.535	201.526	103.980	140.636	207.152	195.592	44.344	0.0017016	6.0955e-05	0.00036607	369.22	7.745e-06	9.3615e-06	580.33	171.46	1.3902e-05	6.9477e-06	280.54	132.05	82.741	49.823	3.9357e-06	75.785	0.00068375	0.00068727	0.0001859	386.08	7.4647e-06	7.3282e-06	568.29	169.22	7.3893e-06	7.5143e-06	270.21	125.33	81.109	47.211	7.5008e-06	70.686	88.044	184.551	21.255	-139.493	-49.405	-15.324	-141.483	-133.941	-46.581	-58.782	-137.015	-133.854	-130.273	-125.894	-2.406	-131.257	-8191	255	
2129.396	1	1	0	0	0.15184	0.013486	0.25375	0.3345	0.1571	0.10265	0.012869	0.079407	0.1278	0.079575	0.079988	0.17278	0.078455	0.16481	0.21013	0.12464	-0.85833	-1.9646	-1.2375	-1.3396	-1.9104	-1.0729	-1.7437	-1.7917	-1.0375	-2.0646	-1.4333	-1.4271	-2.1125	-0.97917	-1.6458	-2.0958	56.157	147.014	106.897	-145.574	-83.273	101.027	-41.953	202.389	1.887	103.417	-44.204	198.680	135.771	154.105	3.712	114.187	0.0019065	8.5719e-05	0.00012547	370.22	6.2614e-06	1.5193e-06	575.38	172.27	1.4801e-05	4.4862e-06	276.45	131.8	83.294	50.242	1.5837e-05	75.189	0.00067759	0.00068747	0.00018598	386.9	7.4362e-06	7.3356e-06	565.36	169.43	7.2448e-06	7.4832e-06	268.73	124.92	81.132	47.289	7.3439e-06	70.459	92.092	-99.736	173.369	-139.883	-90.772	-37.029	-141.431	-133.859	-47.857	7.859	-137.477	-133.459	-130.161	-126.355	-56.518	-131.225	-8191	255	
2129.492	1	1	0	0	0.2488	0.1833	0.30731	0.19849	0.18478	0.16994	0.19976	0.42556	0.25538	0.30852	0.21088	0.30765	0.38836	0.23687	0.10551	0.4489	-0.625	-1.9958	-1.3792	-1.4125	-1.9542	-1.1063	-1.5688	-1.9	-1.1792	-1.9792	-1.7083	-1.1854	-2.1188	-1.5	-1.625	-2.0187	-114.544	190.276	134.951	136.892	64.527	0.022	169.822	100.053	137.334	20.913	-87.656	163.698	139.706	-120.344	20.819	152.769	0.0020389	0.00035547	0.00014303	371.62	1.3219e-05	3.9538e-06	574.46	172.27	1.0055e-05	9.2553e-07	275.38	132.55	82.951	49.514	2.4358e-06	75.243	0.00067475	0.00067837	0.00018591	386.86	7.3647e-06	7.3095e-06	564.86	168.78	7.2308e-06	7.4404e-06	268.29	125.17	81.085	47.071	7.3723e-06	70.639	87.703	-76.730	-33.471	-139.695	-50.588	63.572	-141.253	-133.845	-103.013	88.198	-137.308	-133.543	-130.074	-126.325	136.548	-131.173	-8191	255	
2129.612	1	1	0	0	0.10305	0.16975	0.066524	0.10319	0.29443	0.10724	0.32438	0.29237	0.13055	0.21206	0.37591	0.074533	0.13597	0.13127	0.36831	0.30417	-0.64583	-1.7604	-1.4875	-1.0833	-1.8604	-1.45	-1.5771	-1.9417	-1.2417	-1.9458	-1.8667	-1.225	-2.125	-1.4458	-1.2833	-2.1021	-51.484	97.131	171.395	-15.718	193.987	-69.176	184.966	172.377	77.019	-48.725	174.349	5.066	-139.958	158.787	204.575	157.930	0.0015449	0.00058232	0.00015742	370.86	2.5553e-06	5.6693e-06	575.54	172.42	9.8434e-06	6.6641e-06	276.19	131.41	82.276	49.593	7.7764e-06	75.845	0.00067851	0.0006807	0.00018743	385.82	7.4745e-06	7.3544e-06	568.01	169.52	7.2917e-06	7.517e-06	269.4	124.97	81.111	47.167	7.5002e-06	70.866	83.261	-100.662	13.824	-139.025	-150.886	-5.515	-141.008	-134.208	-76.025	-41.454	-136.950	-133.998	-129.916	-126.015	-20.178	-130.858	-8191	255	
2129.708	1	1	0	0	0.26153	0.11801	0.20072	0.16024	0.058549	0.24199	0.16619	0.26476	0.15611	0.18522	0.42124	0.17062	0.32931	0.52634	0.3869	0.30821	-0.65208	-1.6354	-1.7	-1.1292	-1.95	-1.2583	-1.4042	-2.1625	-1.2292	-1.7333	-2.1292	-1.1875	-2.0563	-1.6063	-1.1542	-2.1833	83.300	-105.191	105.819	154.855	-0.380	-122.840	107.359	135.232	148.460	117.777	174.735	-102.650	164.506	167.242	8.355	145.113	0.0022223	0.0010165	0.00014695	367.64	5.4655e-06	2.0838e-06	579.24	170.96	6.7084e-06	5.6488e-06	277.91	131.26	83.148	49.478	2.0472e-06	75.086	0.00068368	0.00068049	0.00018809	387.63	7.5262e-06	7.4349e-06	567.62	169.47	7.2677e-06	7.45e-06	270.47	124.82	81.268	46.989	7.4688e-06	70.636	83.905	-97.081	-112.337	-139.631	-21.786	150.534	-141.391	-133.769	190.372	54.870	-137.236	-133.636	-129.632	-126.182	-12.627	-131.481	-8191	255	
2129.805	1	1	0	0	0.43985	0.12704	0.016331	0.032599	0.16363	0.19301	0.18581	0.30318	0.079786	0.13896	0.093741	0.1532	0.11585	0.075517	0.057961	0.15128	-0.91458	-1.6167	-1.8062	-1.1938	-1.8125	-1.6667	-1.4292	-2.1854	-1.2708	-1.7208	-2.0917	-1.1938	-1.9958	-1.775	-0.98333	-2.1729	142.874	10.809	31.933	-30.532	-85.999	32.547	188.332	133.365	11.555	101.609	-65.722	133.254	-73.138	23.224	-88.714	136.829	0.0017943	0.00078732	0.00036942	372.14	1.4024e-05	6.5649e-06	579.37	172.78	3.9247e-06	1.7409e-06	277.73	131.93	83.196	49.91	9.7172e-06	75.578	0.00068157	0.00067744	0.00019181	388.17	7.5321e-06	7.4595e-06	568.01	169.92	7.3379e-06	7.4567e-06	269.55	125.02	81.33	47.316	7.3177e-06	70.695	87.599	-87.356	-89.093	-139.138	-40.650	-103.940	-141.337	-133.938	-92.669	198.715	-137.363	-133.453	-129.953	-126.009	-30.660	-131.100	-8191	255	
2129.901	1	1	0	0	0.21891	0.15267	0.3102	0.17067	0.16388	0.12385	0.20638	0.055271	0.13786	0.12371	0.056201	0.030808	0.0034073	0.19682	0.25586	0.21806	-0.88125	-1.5229	-1.9396	-1.1167	-1.7917	-1.7812	-1.1708	-1.9729	-1.1812	-1.2167	-1.9896	-1.2042	-1.8458	-1.8583	-0.99375	-2.225	87.122	-41.996	38.824	-24.558	171.253	-134.597	-145.835	174.927	-40.023	-83.443	50.770	145.981	99.314	145.467	-135.045	151.438	0.0022668	0.00024372	0.00025427	370.42	7.5976e-06	5.0861e-06	579.51	171.61	1.0772e-05	9.8156e-06	276.1	131.73	83.143	49.78	3.9609e-06	75.563	0.00067882	0.00068046	0.0001875	387.03	7.4847e-06	7.4455e-06	567.27	169.3	7.3662e-06	7.5239e-06	269.72	125.07	81.288	47.228	7.4592e-06	70.937	87.563	155.961	-73.078	-139.710	-102.833	-81.427	-141.876	-134.142	-42.074	135.908	-137.267	-133.899	-129.842	-125.807	164.140	-130.766	-8191	255	
2129.997	1	1	0	0	0.15429	0.22482	0.14195	0.20664	0.10708	0.30064	0.24365	0.11863	0.38552	0.1467	0.26849	0.19843	0.37084	0.17869	0.2683	0.094666	-0.99583	-1.2979	-1.8521	-1.1917	-1.8312	-1.9125	-1.2417	-2.0375	-1.2375	-1.2188	-2.1875	-1.2729	-1.6063	-1.875	-0.92917	-1.9937	11.254	-91.321	-67.072	174.985	-130.184	130.433	8.380	-37.466	-13.014	-2.179	115.739	146.306	203.038	173.554	155.624	199.598	0.0016334	0.00026923	0.00027248	373.77	4.9212e-06	5.0599e-06	574.34	173.05	6.4528e-06	1.7589e-06	278.23	132.25	83.341	49.942	7.1963e-06	75.883	0.00068117	0.00068875	0.00019094	388.86	7.5104e-06	7.5011e-06	567.01	170.24	7.4009e-06	7.4504e-06	269.91	125.3	81.468	47.466	7.4017e-06	70.984	80.438	-119.432	-83.822	-139.256	-100.794	-141.871	-141.116	-133.543	-84.972	201.479	-137.355	-133.660	-129.999	-126.057	-40.140	-130.784	-8191	255	
2130.093	1	1	0	0	0.058586	0.49054	0.24425	0.22338	0.26372	0.17011	0.045261	0.10091	0.20737	0.14487	0.062826	0.27693	0.070844	0.24758	0.075273	0.24472	-1.1437	-1.0688	-2.0812	-1.5271	-1.5292	-1.9813	-1.1688	-1.9188	-1.5854	-1.3	-1.8917	-1.3208	-1.5271	-2.0375	-1.1021	-2.1125	-151.196	-102.854	-146.926	147.737	-11.585	80.947	59.002	-115.095	36.156	174.213	-26.195	156.525	179.462	148.491	87.460	94.527	0.0018818	0.00034885	0.00016773	369.32	6.2978e-06	7.1314e-06	572.36	173.48	6.2241e-06	5.6581e-06	280.58	132.59	83.204	50.014	1.7283e-05	76.289	0.00069429	0.0006897	0.0001936	387.03	7.5412e-06	7.594e-06	566.06	170.01	7.539e-06	7.4898e-06	271.64	125.95	81.547	47.519	7.3798e-06	71.652	85.718	-35.063	-98.383	-139.787	-72.213	145.236	-142.052	-134.564	-27.384	52.715	-138.281	-134.932	-130.641	-126.848	-19.445	-131.614	-8191	255	
2130.212	1	1	0	0	0.09462	0.11655	0.27263	0.099285	0.088936	0.053093	0.092206	0.13362	0.19469	0.16017	0.26533	0.21721	0.24546	0.2236	0.14614	0.10965	-1.3375	-1.1437	-1.8083	-1.2313	-1.3417	-1.7479	-1.1083	-1.7896	-1.7396	-1.0479	-2.3042	-1.3813	-1.5354	-2.1833	-1.1063	-1.8917	66.237	1.601	-31.115	24.377	-148.363	-9.265	64.536	-42.241	-73.430	-14.658	61.476	174.266	-130.904	182.179	-66.854	-129.405	0.0017868	0.00060908	0.00021365	370.79	1.043e-05	1.265e-05	581.09	173.24	1.1785e-05	5.4792e-06	278.08	131.94	83.346	49.999	8.5758e-06	75.477	0.00068518	0.00067406	0.00018777	387.67	7.3585e-06	7.499e-06	567.56	169.91	7.3178e-06	7.2701e-06	270	125.19	81.454	47.503	7.1718e-06	70.918	81.447	-86.869	-25.614	-140.462	-35.474	5.731	-141.897	-134.137	-43.452	-98.996	-137.497	-134.580	-130.334	-126.587	-24.268	-131.455	-8191	255	
2130.308	1	1	0	0	0.32476	0.14017	0.07187	0.24482	0.21168	0.16353	0.09102	0.089772	0.14924	0.20783	0.1269	0.28495	0.14785	0.25953	0.085815	0.33263	-1.5833	-0.96667	-1.7479	-1.3813	-1.1688	-2.0792	-1.2354	-1.5667	-1.6729	-1.025	-1.8896	-1.5625	-1.1354	-2.1063	-1.1229	-1.6875	26.572	148.876	-66.030	-103.073	144.782	103.684	131.621	184.930	115.081	144.950	106.652	116.656	-109.894	-149.423	169.772	115.294	0.0020107	0.00076938	0.00016111	373.13	1.0476e-05	9.7974e-06	574.69	171.75	9.1577e-06	1.2957e-05	276.17	131.03	83.134	50.096	8.8338e-06	75.835	0.00068159	0.00066623	0.00018813	386.57	7.2257e-06	7.4397e-06	564.3	169.38	7.3169e-06	7.278e-06	268.53	124.49	81.157	47.541	7.2534e-06	70.803	84.332	179.323	-110.570	-139.910	-83.413	-13.237	-141.794	-134.234	-56.992	-16.044	-137.579	-134.291	-130.139	-126.840	-42.684	-131.480	-8191	255	
2130.404	1	1	0	0	0.22371	0.10061	0.19368	0.11038	0.23198	0.32894	0.28041	0.1705	0.18802	0.048565	0.22035	0.25631	0.26736	0.28265	0.087374	0.32487	-1.5	-1.0417	-1.8729	-1.6667	-1.0333	-1.8771	-1.4917	-1.4646	-1.9292	-1.2167	-2.0021	-1.775	-1.3021	-2.1708	-1.075	-1.3667	69.577	86.496	-10.275	-124.396	-78.396	65.589	201.494	206.905	3.860	-98.612	-136.645	147.707	-111.533	154.497	74.355	183.619	0.0018459	0.0011033	0.00010131	370.92	9.2325e-06	4.9336e-06	575.58	172.89	7.9362e-06	6.698e-06	277.95	131.78	83.446	50.078	6.4032e-06	75.918	0.00068879	0.00066189	0.00018745	387.37	7.2789e-06	7.4336e-06	563.94	169.65	7.4451e-06	7.2888e-06	269.46	124.64	81.363	47.531	7.2589e-06	70.835	90.772	-132.077	176.210	-139.894	-75.040	11.653	-141.541	-133.886	135.645	-52.356	-137.707	-134.562	-130.601	-126.754	12.812	-131.647	-8191	255	
2130.476	1	1	0	0	0.039865	0.13701	0.11143	0.33395	0.1673	0.13648	0.3503	0.053613	0.15129	0.17703	0.23331	0.26365	0.26987	0.081419	0.21204	0.31881	-1.3542	-1.0146	-1.6771	-1.8583	-1.0333	-1.9208	-1.4562	-1.375	-1.925	-1.0354	-1.6292	-2.0417	-1.1437	-2.0812	-1.2292	-1.4625	0.385	-34.986	20.993	-51.032	-113.571	-81.961	122.864	-140.951	189.633	83.579	21.009	173.527	125.201	81.516	-120.583	-109.194	0.001929	0.0011601	4.6408e-05	368.51	8.755e-06	3.5735e-06	572.43	172.55	1.4921e-05	7.4083e-06	278.04	131.98	82.599	50.242	1.0482e-05	76.126	0.00068543	0.00066497	0.00018934	387.36	7.3106e-06	7.4424e-06	564.39	169.32	7.4371e-06	7.3698e-06	270.22	125.47	81.229	47.723	7.3685e-06	71.266	86.898	-118.461	-27.240	-140.017	-105.367	95.848	-141.730	-134.240	31.851	80.569	-137.956	-134.380	-130.555	-126.318	-49.685	-131.708	-8191	255	
2130.597	1	1	0	0	0.092818	0.25642	0.15791	0.19623	0.23451	0.17665	0.22063	0.24392	0.10264	0.13659	0.38101	0.34654	0.10817	0.10074	0.089665	0.15843	-1.7104	-1.0083	-1.6646	-1.8896	-0.73125	-1.7375	-1.4458	-1.2188	-1.8521	-1.2854	-1.2875	-1.9083	-1.0583	-2.1542	-1.5938	-1.2938	-20.742	47.353	-3.298	131.505	159.670	128.754	128.633	-123.240	-4.382	126.994	-76.402	164.573	139.053	88.075	155.503	68.696	0.0019351	0.00073896	0.00023977	374.29	7.3364e-06	5.1027e-06	576.05	172.21	6.2327e-06	6.7869e-06	279.1	133.07	83.773	50.471	7.0667e-06	75.976	0.00069191	0.00066574	0.00019184	388.85	7.3397e-06	7.5617e-06	568.83	169.77	7.466e-06	7.3859e-06	271.19	126.16	81.715	47.744	7.4776e-06	71.234	101.371	-129.606	-48.666	-140.361	78.210	122.101	-141.924	-134.038	-60.757	31.199	-137.631	-134.320	-130.303	-126.493	-85.515	-131.733	-8191	255	
2130.693	1	1	0	0	0.17656	0.073767	0.012981	0.049184	0.17162	0.24016	0.24375	0.18164	0.088705	0.40687	0.17288	0.11796	0.14354	0.21621	0.16905	0.18269	-1.7292	-1.2771	-1.5021	-1.9521	-1.1146	-1.7812	-1.5958	-1.1479	-1.9062	-1.3125	-1.3354	-2.1292	-1.0708	-1.775	-1.6958	-1.0688	113.061	5.154	-83.043	-139.681	-132.850	-23.907	59.449	-66.774	134.190	-92.347	-108.174	155.179	-133.766	-114.953	207.640	111.904	0.0019993	0.00049203	0.00023838	368.66	6.1061e-06	6.5303e-06	575.2	172.78	7.4358e-06	6.4276e-06	279.14	132.22	83.669	50.348	9.1735e-06	75.452	0.00068627	0.00066854	0.00018822	386.79	7.1255e-06	7.4015e-06	567.21	170.08	7.3655e-06	7.2492e-06	269.84	125.47	81.404	47.658	7.3129e-06	70.798	92.412	-44.608	-67.017	-139.659	-40.967	187.055	-141.822	-134.252	-20.035	-13.043	-137.573	-134.138	-130.480	-126.644	-98.160	-131.523	-8191	255	
2130.789	1	1	0	0	0.096605	0.11752	0.10648	0.25568	0.14174	0.19551	0.17435	0.48662	0.18793	0.21395	0.19528	0.17293	0.19555	0.26087	0.11558	0.44634	-1.5917	-1.2792	-1.2	-1.9396	-1.1083	-1.4583	-1.8458	-0.89792	-1.7333	-1.4583	-0.96875	-2.0083	-1.0917	-1.7146	-1.9083	-1.025	-124.220	-12.648	-148.663	89.971	43.661	122.671	114.248	159.204	19.450	-95.580	130.502	171.779	74.054	157.796	153.209	137.752	0.0021638	0.00062314	0.00021826	374.9	3.9102e-06	1.3773e-06	575.35	171.82	4.7334e-06	5.5285e-06	277.99	131.29	83.364	49.931	7.4961e-06	75.283	0.00068624	0.00066626	0.00018592	389.35	7.2347e-06	7.3906e-06	566.64	168.84	7.3582e-06	7.3015e-06	268.49	124.54	81.305	47.429	7.3909e-06	70.278	89.899	-94.149	-95.939	-140.122	-40.263	95.726	-141.786	-134.112	-1.733	-13.827	-137.711	-134.182	-130.183	-126.427	15.707	-131.254	-8191	255	
2130.909	1	1	0	0	0.080913	0.31293	0.19326	0.094688	0.15433	0.1794	0.18158	0.1716	0.13107	0.042886	0.19872	0.33915	0.19927	0.11821	0.13475	0.28506	-1.1833	-1.375	-0.94375	-1.9271	-1.1583	-1.4292	-1.8042	-1.2563	-1.675	-1.6917	-1.0792	-1.8813	-1.4583	-1.4521	-1.7	-1.1437	-60.998	110.274	206.940	163.705	15.586	-34.187	163.950	-146.828	-3.405	20.187	173.493	158.528	200.384	127.246	56.141	112.660	0.0014891	0.00046805	0.00027089	374.55	5.1919e-06	9.0681e-06	573.42	172.22	2.1593e-06	8.8143e-06	277.02	131.01	83.031	50.05	9.9826e-06	74.967	0.0006752	0.00066405	0.00018396	388.24	7.1099e-06	7.3655e-06	564.68	168.39	7.2785e-06	7.313e-06	267.65	124.2	80.929	47.382	7.3375e-06	70.25	86.517	-135.190	-32.615	-139.914	177.746	50.609	-141.868	-134.221	-149.770	-33.496	-137.697	-134.345	-130.244	-126.482	-24.169	-131.300	-8191	255	
2131.004	1	1	0	0	0.12698	0.21227	0.018906	0.22451	0.20887	0.2513	0.12635	0.29713	0.19525	0.22181	0.10701	0.20623	0.29459	0.19808	0.094673	0.21684	-1.4104	-1.3333	-1.0167	-1.9917	-1.3146	-1.2313	-1.9229	-1.0604	-1.7646	-1.6979	-1.0625	-2.1125	-1.4417	-1.225	-1.7938	-1.2646	184.072	-106.284	34.159	-43.107	55.781	20.321	135.998	168.190	-66.844	-117.522	-65.499	160.243	163.331	-144.214	22.906	128.468	0.0021617	0.00046281	0.00013993	374.12	9.3645e-06	1.0298e-05	577.95	171.77	5.04e-06	5.6015e-06	274.63	131.49	83.059	50.097	8.0462e-06	75.397	0.00068122	0.00067154	0.00018412	388.46	7.3459e-06	7.3238e-06	566.88	168.6	7.3798e-06	7.3629e-06	267.58	124.71	81.062	47.507	7.4071e-06	70.756	88.388	-132.718	-70.544	-140.184	98.667	-15.465	-141.707	-134.509	-116.996	151.839	-137.750	-134.197	-130.431	-126.589	-20.660	-131.615	-8191	255	
2131.100	1	1	0	0	0.22314	0.064005	0.09859	0.14454	0.25405	0.15716	0.10072	0.20741	0.10567	0.20916	0.31006	0.16957	0.24139	0.1379	0.28407	0.39286	-1.275	-1.6979	-0.93542	-1.9458	-1.525	-1.2938	-2.0896	-1.2229	-1.5792	-1.7604	-1.1396	-1.8354	-1.4979	-1.1771	-2.0521	-1.3687	22.286	-116.420	160.245	-136.846	174.332	-55.017	144.170	19.657	96.499	-141.029	-120.135	205.897	172.922	41.271	19.312	162.277	0.0022854	0.00076857	0.00010476	368.88	8.1874e-07	6.4696e-06	576.26	172.45	4.907e-06	8.4418e-06	275.55	132.58	83.378	50.166	1.2781e-05	76.031	0.00068493	0.00067589	0.00018503	387.03	7.2476e-06	7.3272e-06	566.51	169.19	7.455e-06	7.4693e-06	267.36	125.37	81.142	47.554	7.3604e-06	71.004	92.224	162.482	-52.947	-139.959	86.939	37.138	-141.506	-134.001	-46.716	44.960	-137.414	-134.162	-130.402	-126.504	-68.106	-131.598	-8191	255	
2131.172	1	1	0	0	0.033391	0.32239	0.19181	0.36892	0.21874	0.16578	0.1586	0.019931	0.040576	0.16637	0.31113	0.22404	0.11928	0.22104	0.25445	0.13916	-1	-1.8146	-0.97708	-1.9833	-1.5167	-1.0458	-2.1667	-1.3417	-1.375	-1.9979	-1.225	-1.7292	-1.5875	-1.0417	-1.9813	-1.4604	65.571	47.152	17.970	67.704	-7.047	0.605	103.762	-113.180	172.144	-47.625	-142.237	-12.736	151.089	170.254	-15.323	130.303	0.0020712	0.0012841	5.3798e-05	371.27	5.8425e-06	3.9349e-06	575.68	172.28	4.8151e-06	5.369e-06	275.5	130.22	83.302	50.006	5.2179e-06	75.342	0.0006855	0.00067472	0.00018351	388.8	7.3005e-06	7.2723e-06	565.41	169.15	7.317e-06	7.3558e-06	267.13	124.36	80.98	47.392	7.3849e-06	70.482	92.735	-90.123	-21.130	-139.914	-12.711	52.606	-141.796	-134.065	178.853	148.757	-137.374	-134.181	-130.699	-126.423	3.435	-131.526	-8191	255	
2131.292	1	1	0	0	0.081184	0.076136	0.11269	0.023324	0.081279	0.0045945	0.027512	0.43479	0.21931	0.097212	0.17497	0.16819	0.15756	0.14957	0.095946	0.098642	-0.82083	-1.9167	-1.125	-1.6521	-1.45	-1.0688	-1.9688	-1.2646	-1.2146	-2.1	-1.3083	-1.5396	-1.8771	-0.98333	-1.8458	-1.5375	38.445	-131.483	-39.146	126.189	-88.249	92.577	-25.821	107.369	168.562	184.476	-120.070	77.414	-133.891	159.214	-139.606	143.167	0.0015515	0.00014775	0.00012063	372.2	8.8057e-06	2.0914e-06	573.63	172.28	1.2609e-05	5.8762e-06	274.72	131.59	83.046	50.117	1.2509e-05	75.151	0.00068141	0.00067568	0.00018528	388.23	7.3046e-06	7.3961e-06	565.05	168.8	7.4177e-06	7.4494e-06	266.91	124.68	80.999	47.51	7.5264e-06	70.412	97.985	-79.697	154.994	-139.648	15.347	124.702	-141.590	-134.207	-13.876	-93.526	-137.458	-133.960	-130.397	-126.332	-84.483	-131.271	-8191	255	
2131.388	1	1	0	0	0.26114	0.23394	0.046165	0.27404	0.16273	0.2253	0.24434	0.18355	0.26085	0.064837	0.33509	0.12208	0.21135	0.30579	0.26734	0.26439	-0.92083	-1.9521	-1.0396	-1.5708	-1.8604	-1.1375	-1.9646	-1.5854	-1.2854	-1.9833	-1.2437	-1.7625	-2.1	-1.2563	-1.875	-1.8417	-38.878	-17.311	21.929	61.085	21.364	155.661	123.727	148.785	203.249	4.390	108.048	193.847	184.839	155.385	83.116	-135.029	0.0017374	0.00051484	0.00028346	375.23	8.2002e-06	2.3862e-06	574.45	171.18	3.7376e-06	4.0869e-06	277.04	130.98	82.877	50.195	6.833e-06	75.679	0.00068308	0.00067071	0.0001865	390.19	7.4089e-06	7.2142e-06	564.84	169.04	7.4244e-06	7.4986e-06	267.24	124.56	81.194	47.547	7.4813e-06	70.806	87.145	-14.088	-100.666	-139.924	-41.393	3.964	-141.584	-134.134	112.918	49.362	-137.798	-134.055	-130.549	-126.701	16.159	-132.074	-8191	255	
2131.485	1	1	0	0	0.067553	0.14653	0.065628	0.42892	0.19614	0.034175	0.19428	0.090377	0.12757	0.12135	0.12829	0.20983	0.31032	0.25068	0.082885	0.15755	-0.72292	-1.875	-1.4	-1.3687	-1.8667	-0.92917	-1.8729	-1.8146	-1.1313	-1.9875	-1.4896	-1.5354	-2.1542	-1.2313	-1.6396	-1.6792	182.029	104.829	21.566	181.347	-85.028	-42.272	159.260	-129.801	-40.032	8.522	172.702	193.969	164.110	151.911	157.581	192.334	0.0018703	0.00109	0.00034843	372.01	9.361e-06	6.7702e-06	575.78	170.51	8.3297e-06	8.2915e-06	275.8	131.98	83.326	50.347	9.205e-06	75.881	0.0006827	0.00068495	0.00018706	388.15	7.4631e-06	7.3476e-06	568.95	168.89	7.3563e-06	7.6164e-06	268.44	124.99	81.36	47.672	7.5591e-06	71.229	88.965	-70.661	-72.491	-140.037	-20.458	54.880	-141.626	-134.359	-121.803	130.354	-138.079	-134.348	-130.498	-126.707	-5.642	-131.721	-8191	255	
2131.581	1	1	0	0	0.050809	0.21471	0.22865	0.050942	0.18241	0.26942	0.2877	0.14048	0.24436	0.28699	0.34689	0.16551	0.36669	0.1968	0.010789	0.31605	-0.70833	-1.8146	-1.4062	-1.2604	-2.0354	-1.1604	-1.6396	-1.7333	-0.79583	-1.9917	-1.4396	-1.2188	-1.8208	-1.1771	-1.5646	-1.8354	191.387	-62.392	81.811	70.182	121.632	-136.443	135.850	-30.966	-18.955	-44.139	160.092	86.403	143.077	181.110	142.766	150.162	0.0019876	0.00040068	0.00038191	369.94	4.7304e-06	9.7623e-06	575.58	171.61	2.8699e-06	7.1615e-06	276	131.98	83.352	50.24	5.0381e-06	75.846	0.00068303	0.00068799	0.00018753	388.1	7.4486e-06	7.4501e-06	567.18	169.37	7.3159e-06	7.5036e-06	269.14	124.94	81.574	47.673	7.4916e-06	71.051	86.668	-36.490	-106.161	-139.758	-45.731	20.508	-142.251	-134.637	95.795	46.961	-137.969	-134.774	-131.050	-127.076	-37.059	-132.071	-8191	255	
2131.700	1	1	0	0	0.18929	0.36877	0.16157	0.30318	0.31806	0.18475	0.10182	0.098809	0.090735	0.088426	0.47342	0.28344	0.15876	0.25462	0.19643	0.29934	-0.68125	-1.7708	-1.6229	-1.2479	-1.9354	-1.1542	-1.3146	-1.9813	-1.0312	-1.725	-1.5771	-1.2542	-2.2062	-1.2708	-1.3229	-2.1417	202.329	-61.503	-132.938	-126.192	99.845	-88.457	168.247	195.698	-107.459	-8.913	107.474	-151.268	-107.371	106.517	40.998	-148.180	0.0010159	0.00048885	0.00011535	368.8	5.5236e-06	1.9834e-06	573.75	171.6	3.952e-06	1.2511e-05	274.08	131.29	82.97	50.182	5.3388e-06	75.508	0.00067906	0.00068662	0.00018815	386.92	7.4037e-06	7.4559e-06	567.1	169.29	7.2773e-06	7.5289e-06	267.53	124.67	81.463	47.71	7.4487e-06	70.851	89.245	-30.540	-6.769	-140.594	-54.831	56.680	-142.004	-134.773	146.036	-48.598	-138.257	-134.612	-131.093	-127.125	152.457	-132.056	-8191	255	
2131.773	1	1	0	0	0.19843	0.082826	0.22304	0.34206	0.20727	0.23955	0.14258	0.17034	0.21016	0.11863	0.23572	0.31224	0.28961	0.25737	0.15825	0.089402	-0.93125	-1.4688	-1.7938	-1.0708	-1.7313	-1.2979	-1.4208	-1.9312	-1.1208	-1.7229	-1.7812	-1.0771	-1.9375	-1.3417	-1.1542	-2.0146	108.619	-55.152	-66.851	19.566	-8.212	189.232	175.674	197.842	-48.791	-70.318	75.459	123.894	-143.557	-150.762	-114.762	80.360	0.0017317	0.0013229	0.0001611	371.35	5.7254e-06	9.6395e-06	573.52	171.19	1.0172e-05	3.7499e-06	275.19	131.34	82.842	49.89	2.8484e-06	75.45	0.00067759	0.00068846	0.00019076	387.08	7.4833e-06	7.3577e-06	564.15	169.13	7.2678e-06	7.4986e-06	267.62	124.2	81.322	47.412	7.3911e-06	70.683	82.513	-69.893	-27.993	-140.521	-44.906	7.149	-142.221	-134.693	-97.271	11.424	-138.499	-134.917	-130.773	-127.088	62.606	-131.949	-8191	255	
2131.892	1	1	0	0	0.14595	0.2098	0.26658	0.15816	0.033645	0.19352	0.31827	0.15486	0.29492	0.16084	0.26364	0.19791	0.39242	0.28963	0.21029	0.52057	-0.74583	-1.4771	-1.8292	-1.1146	-1.7333	-1.3563	-1.1229	-1.9354	-1.0729	-1.6354	-1.7667	-1.2188	-1.8771	-1.5667	-1.1042	-2.1125	127.035	52.224	28.253	-74.846	134.537	-68.128	169.316	-113.444	59.598	116.599	137.414	-117.300	197.681	180.651	188.544	144.074	0.0021395	0.00063684	0.00014473	368.52	7.5579e-06	9.0758e-06	571.56	171.22	5.8055e-06	7.1969e-06	273.98	131.48	83.023	50.129	8.3639e-06	75.832	0.00067638	0.00068539	0.00018844	385.69	7.4608e-06	7.399e-06	562.95	168.88	7.3364e-06	7.4182e-06	267.12	124.4	81.315	47.627	7.3875e-06	71.001	86.975	-35.172	-37.177	-140.458	-60.431	33.897	-142.074	-134.662	-68.021	65.368	-138.243	-134.417	-130.759	-127.132	-125.166	-132.201	-8191	255	
2131.988	1	1	0	0	0.21229	0.25505	0.054737	0.2036	0.11734	0.28361	0.26111	0.42115	0.087154	0.083203	0.28898	0.3578	0.22569	0.24929	0.28565	0.2783	-0.84792	-1.3687	-1.8604	-1.225	-1.7042	-1.5292	-1.2313	-1.9104	-1.0812	-1.3146	-2.0187	-1.05	-1.5917	-1.6896	-0.98333	-2.0083	-106.379	195.021	-92.218	33.346	-118.233	69.859	-78.402	135.848	-7.940	-148.627	163.408	189.070	191.795	-141.202	-146.182	97.407	0.00227	0.00094939	0.00035961	365.12	6.3858e-06	5.2252e-06	577.53	170.98	4.5568e-06	4.9177e-06	275.73	131.69	83.311	50.164	1.4048e-05	75.964	0.00068645	0.00068605	0.00018908	386.01	7.5704e-06	7.4527e-06	566.47	169.29	7.3564e-06	7.4446e-06	269.11	124.73	81.343	47.71	7.2644e-06	71.101	84.089	-78.617	-72.719	-141.034	-93.915	3.546	-142.467	-134.549	23.654	161.130	-138.176	-134.591	-130.932	-126.958	-20.128	-131.721	-8191	255	
2132.084	1	1	0	0	0.021992	0.045087	0.30874	0.13276	0.25561	0.32942	0.34513	0.50389	0.41436	0.15718	0.077324	0.15232	0.18693	0.30062	0.19755	0.29926	-1.1021	-1.1396	-1.8375	-0.90833	-1.6146	-1.6167	-1.0521	-1.8708	-1.4979	-1.2646	-2.1937	-1.3375	-1.7292	-1.725	-1.0063	-2.05	-76.500	-143.715	154.427	-67.968	-105.224	79.651	-131.987	178.142	134.501	9.752	163.763	151.183	-148.967	-70.572	182.683	145.445	0.0015994	0.001202	0.00021942	372.46	4.1319e-06	8.5889e-06	575.95	172.61	2.3109e-06	5.1524e-06	278.48	130.8	83.071	50.136	1.4034e-05	75.261	0.00068202	0.00068027	0.00018729	388.47	7.4661e-06	7.4393e-06	564.51	169.21	7.3259e-06	7.382e-06	268.54	124.23	81.221	47.606	7.2567e-06	70.534	82.004	205.531	-49.699	-140.731	16.798	82.293	-142.200	-134.456	-99.672	195.686	-138.093	-134.643	-130.569	-126.901	-32.532	-131.586	-8191	255	
2132.180	1	1	0	0	0.11596	0.032995	0.15191	0.13514	0.07099	0.32172	0.32055	0.21028	0.18829	0.15747	0.35969	0.30792	0.1293	0.2667	0.13506	0.25177	-0.98958	-1.1313	-2.15	-1.1583	-1.4688	-2.0083	-1.1708	-1.9937	-1.6396	-1.2938	-2.1188	-1.275	-1.5771	-2.1875	-1.0479	-1.8979	-82.593	170.316	57.459	173.284	125.087	84.056	171.745	206.450	131.544	17.204	183.975	165.160	-47.949	170.654	170.544	89.548	0.0020228	0.00031287	0.00012845	374.14	1.1031e-05	3.4428e-06	573.12	171.74	4.6185e-06	9.429e-06	277.18	130.45	83.307	50.17	2.2417e-06	75.205	0.00068148	0.00067435	0.00018955	388.24	7.4295e-06	7.4954e-06	564.37	169.33	7.4107e-06	7.3615e-06	267.97	123.77	81.35	47.604	7.3587e-06	70.632	93.496	-72.238	-33.487	-140.307	-101.996	68.181	-142.494	-134.445	-54.613	32.689	-137.546	-134.392	-130.661	-126.740	7.099	-131.638	-8191	255	
2132.301	1	1	0	0	0.13066	0.3281	0.17812	0.11027	0.18517	0.20383	0.076961	0.29194	0.012876	0.11134	0.072172	0.32491	0.20504	0.27562	0.11784	0.092634	-1.1396	-0.9	-1.95	-1.3854	-1.4896	-2.1646	-1.15	-1.7687	-1.5917	-0.89375	-2.1396	-1.5229	-1.3417	-2.2083	-1.1396	-1.825	103.146	150.186	-135.147	52.433	130.242	159.816	150.325	200.915	120.867	-28.628	100.090	127.572	113.084	-126.842	-88.946	166.394	0.0016023	0.00095276	0.00011796	368.17	1.3336e-05	3.1471e-06	578.16	171.55	1.2711e-06	8.942e-06	274.14	130.1	82.845	50.015	3.8961e-06	75.676	0.00068696	0.00066763	0.00019151	387.24	7.4241e-06	7.341e-06	565.08	169.09	7.4148e-06	7.2733e-06	267.42	124.02	81.42	47.675	7.3513e-06	70.935	96.170	-46.640	-41.361	-140.562	-92.705	33.332	-141.895	-134.319	22.877	-7.991	-137.720	-134.834	-130.702	-126.677	-117.970	-131.409	-8191	255	
2132.395	1	1	0	0	0.226	0.23299	0.33284	0.19863	0.37244	0.226	0.086555	0.29749	0.016343	0.096353	0.19999	0.18867	0.19989	0.40395	0.27769	0.14598	-1.3625	-1.2062	-1.8646	-1.4542	-1.325	-1.9583	-1.2833	-1.7792	-1.4854	-1.0021	-2.1479	-1.6146	-1.2271	-2.2167	-1.2125	-1.7479	44.415	-49.840	113.563	166.972	169.456	11.812	37.199	-149.310	6.111	140.929	143.890	-148.487	194.637	162.677	108.378	-127.945	0.0020498	0.00029622	0.0001412	373.38	2.3867e-06	6.6974e-06	574.83	171.53	9.7367e-06	1.3035e-05	276.33	131.37	83.132	50.408	1.3882e-05	75.721	0.00068622	0.00066804	0.00019126	387.48	7.4564e-06	7.5091e-06	564	169.36	7.4541e-06	7.3609e-06	268.98	124.84	81.559	47.819	7.3316e-06	71.152	76.686	-23.899	-31.292	-140.321	-18.465	0.390	-142.174	-134.485	-70.412	14.530	-137.937	-134.649	-130.275	-126.798	-101.932	-131.739	-8191	255	
2132.469	1	1	0	0	0.035284	0.11169	0.15883	0.099849	0.10413	0.14319	0.31218	0.076907	0.18122	0.2262	0.090519	0.26255	0.18795	0.11734	0.10521	0.17739	-1.3375	-0.78542	-1.7771	-1.6896	-1.2229	-2.1292	-1.1688	-1.3229	-2.0438	-1.1812	-1.8708	-1.6833	-1.1646	-2.2479	-1.3583	-1.5104	67.783	-35.609	-33.696	163.407	88.831	62.023	129.291	173.696	-63.265	61.432	113.260	-147.366	125.298	160.790	154.980	48.176	0.0019485	0.00071686	0.00021593	372.46	3.9217e-06	5.7263e-06	574.41	172.35	8.0183e-06	4.64e-06	275.72	130.67	83.349	50.202	1.3382e-05	76.002	0.00069466	0.00067409	0.00019219	388.27	7.3579e-06	7.5927e-06	565.66	169.76	7.4063e-06	7.3328e-06	269.21	124.78	81.48	47.775	7.3423e-06	71.181	93.064	-131.329	176.618	-140.576	17.647	112.938	-142.247	-134.331	-36.023	6.967	-137.861	-134.511	-130.592	-126.369	26.654	-131.680	-8191	255	
2132.565	1	1	0	0	0.15094	0.1767	0.10928	0.11376	0.12249	0.067623	0.43623	0.15222	0.10373	0.06935	0.040104	0.2584	0.25536	0.13464	0.26164	0.26354	-1.5708	-0.86875	-1.65	-1.6625	-0.91875	-1.8271	-1.3146	-1.45	-1.8458	-1.2083	-1.7229	-1.6354	-1.1187	-1.75	-1.3708	-1.2687	82.588	176.968	-24.592	148.773	-123.118	-127.759	126.497	72.531	171.890	203.399	67.714	98.061	97.447	126.713	172.839	143.641	0.0017386	0.0010659	0.00018775	372.73	1.2913e-05	4.5989e-06	570.76	171.02	5.4842e-06	1.0342e-05	274.99	131.27	83.7	50.399	5.8372e-06	75.443	0.00069027	0.00066756	0.00019007	388.72	7.2715e-06	7.5873e-06	566.56	169.29	7.3735e-06	7.2816e-06	268.62	124.39	81.418	47.71	7.3909e-06	70.646	91.465	-20.248	-83.382	-140.569	-102.923	206.782	-142.139	-134.596	-125.373	80.365	-137.772	-134.483	-130.564	-126.694	37.308	-131.814	-8191	255	
2132.684	1	1	0	0	0.17577	0.10601	0.13351	0.047792	0.11913	0.10918	0.16416	0.060921	0.20618	0.065354	0.073697	0.074012	0.059415	0.45632	0.14805	0.15569	-1.6021	-1.1083	-1.525	-1.8167	-1.1396	-1.9479	-1.5187	-1.1812	-1.8583	-1.1708	-1.6187	-2.0583	-1.0375	-1.9646	-1.5604	-1.375	-144.787	32.392	155.561	21.618	81.125	5.462	-120.683	-126.004	-104.508	162.869	49.105	-99.746	150.049	193.023	-125.038	163.667	0.0020181	0.00017818	0.0002741	374.24	6.24e-06	1.7365e-05	573.27	171.17	1.153e-05	6.4742e-06	274.72	130.24	82.87	50.187	4.1001e-06	75.34	0.00068783	0.00066822	0.00018884	388.38	7.2608e-06	7.5177e-06	563.4	168.76	7.3242e-06	7.3954e-06	267.64	124.07	81.05	47.657	7.3258e-06	70.267	98.995	-96.718	-131.446	-140.357	14.158	-50.191	-142.102	-134.194	-94.229	36.764	-137.716	-134.646	-130.747	-126.961	-44.221	-131.643	-8191	255	
2132.780	1	1	0	0	0.16899	0.18638	0.37325	0.081488	0.065673	0.18598	0.23738	0.10197	0.16449	0.31608	0.057768	0.05073	0.17354	0.11426	0.033091	0.27633	-1.7	-1.2	-1.2938	-1.9083	-0.99792	-1.5771	-1.75	-1.1812	-1.8312	-1.2354	-1.3625	-1.9604	-0.83125	-1.7521	-1.7896	-1.1792	-62.141	197.906	27.741	199.212	89.897	-120.713	102.390	-148.675	22.293	2.696	2.945	35.661	60.471	-20.262	85.697	127.510	0.0020906	0.0005071	0.00010938	372.69	4.5513e-06	1.2826e-05	571.7	171.76	3.7222e-06	4.5271e-06	275.09	129.97	83.116	49.922	9.3099e-06	74.816	0.00069079	0.0006683	0.00018706	388.33	7.2224e-06	7.4273e-06	563.52	169.25	7.3859e-06	7.38e-06	267.21	123.76	81.323	47.563	7.388e-06	70.24	90.465	-1.648	-129.173	-140.016	-41.050	-44.392	-141.819	-134.389	72.371	-30.363	-138.275	-134.759	-130.586	-126.712	-66.635	-131.839	-8191	255	
2132.876	1	1	0	0	0.14825	0.062095	0.18156	0.14067	0.11113	0.24736	0.27216	0.10994	0.16385	0.15427	0.34176	0.18333	0.23582	0.15534	0.081143	0.15049	-1.5333	-1.1271	-1.1437	-1.95	-0.93333	-1.5896	-1.7812	-1.1521	-1.9583	-1.4083	-1.2208	-2.0687	-1.1833	-1.4875	-1.7542	-1.1667	12.598	198.111	-107.044	53.090	152.272	-110.901	70.073	116.654	183.489	127.202	197.689	71.591	184.370	199.503	122.136	93.727	0.0023505	0.00015637	0.00028006	370.91	2.3656e-06	4.056e-06	576.67	171.68	2.5295e-06	2.9978e-06	276.37	131.6	83.585	50.15	4.6409e-06	75.497	0.00069241	0.00067275	0.00018694	388.33	7.2808e-06	7.4324e-06	565.69	169.19	7.4587e-06	7.3568e-06	268.69	124.62	81.7	47.785	7.3864e-06	70.686	88.618	-141.615	-51.449	-140.453	-38.419	-30.542	-142.525	-134.639	-132.438	8.910	-138.033	-134.771	-131.197	-127.014	-1.481	-132.071	-8191	255	
2132.972	1	1	0	0	0.26266	0.10032	0.22056	0.10409	0.065386	0.10814	0.17461	0.25923	0.12066	0.2178	0.083855	0.19129	0.17588	0.42813	0.15284	0.33054	-1.6021	-1.45	-1.1042	-1.9104	-1.1875	-1.4688	-1.9229	-0.87083	-1.7417	-1.5938	-1.1187	-2.0771	-1.2167	-1.5042	-2.0687	-1.1646	26.288	96.889	96.983	-107.953	-13.864	-103.792	53.516	-117.450	145.552	-7.119	-47.804	188.949	175.452	203.778	180.165	171.696	0.0019643	0.00058776	6.0098e-05	376.34	1.3212e-05	1.3164e-05	573.5	171.97	9.1975e-06	8.271e-06	277.29	130.91	82.945	50.027	7.9584e-06	75.553	0.00068755	0.00067265	0.00018546	390.27	7.2763e-06	7.4186e-06	566.79	169.26	7.4786e-06	7.3382e-06	269.2	124.93	81.428	47.648	7.3208e-06	70.625	86.608	-132.477	91.611	-140.713	-12.144	-54.774	-142.344	-135.106	23.453	2.458	-137.909	-135.394	-131.244	-126.732	-72.062	-132.134	-8191	255	
2133.068	1	1	0	0	0.24847	0.073989	0.16352	0.067753	0.066512	0.21723	0.12309	0.15119	0.072287	0.10497	0.25662	0.15977	0.14583	0.35325	0.33271	0.17352	-1.2104	-1.6021	-0.95625	-1.8667	-1.1896	-1.1958	-1.9292	-0.98333	-1.8042	-1.6792	-0.93333	-1.9833	-1.4479	-1.2833	-1.8667	-1.2083	183.669	20.782	142.773	134.003	93.028	151.924	174.389	138.372	47.962	-9.132	104.567	-22.797	-126.726	167.605	-25.910	125.859	0.0019255	0.00064703	0.0001893	372.05	6.6564e-06	3.0757e-06	577.43	171.78	6.0401e-06	2.0245e-06	277.26	130.69	83.477	50.158	2.4524e-06	75.215	0.00068389	0.00066572	0.00018473	388.74	7.283e-06	7.3151e-06	566.54	169.5	7.4149e-06	7.2971e-06	268.44	124.47	81.393	47.656	7.3414e-06	70.508	90.621	-63.685	-63.101	-140.914	-22.045	-110.455	-142.612	-135.051	-41.540	-117.437	-138.262	-135.074	-130.962	-127.312	-34.324	-132.085	-8191	255	
2133.165	1	1	0	0	0.22838	0.31145	0.15789	0.40241	0.23	0.073505	0.072121	0.092015	0.30501	0.27036	0.18648	0.21238	0.23472	0.19784	0.11381	0.3543	-1.2687	-1.6417	-0.87708	-1.8792	-1.3875	-1.2875	-2.0667	-1.0958	-1.6437	-1.9417	-1.1792	-1.7979	-1.7125	-1.2083	-1.9583	-1.1938	-119.308	36.171	206.561	26.667	91.103	-73.623	-139.968	79.598	-23.994	155.306	60.218	150.756	-142.771	148.438	104.798	146.765	0.002147	0.00024629	0.00010579	370.94	8.1439e-06	3.8702e-06	574.2	171.52	8.0461e-06	4.0671e-06	274.92	131.09	83.353	50.272	4.5867e-06	75.1	0.00068701	0.00067031	0.00018374	387.68	7.3006e-06	7.2371e-06	565.1	169.47	7.3243e-06	7.2722e-06	266.58	124.12	81.37	47.623	7.239e-06	70.387	84.660	115.993	-25.218	-140.493	147.205	37.471	-142.200	-134.832	176.086	13.513	-138.063	-134.987	-131.232	-127.284	-117.842	-131.919	-8191	255	
2133.261	1	1	0	0	0.055955	0.20407	0.17711	0.16072	0.20751	0.1018	0.31704	0.14375	0.11795	0.13663	0.31608	0.10043	0.20998	0.28295	0.056188	0.22352	-0.91667	-1.8583	-0.92708	-1.8625	-1.5312	-1.0396	-2.025	-1.1562	-1.3875	-1.8854	-1.0542	-1.7437	-1.6938	-1.3	-1.8896	-1.4792	165.819	-37.847	19.588	-37.226	-126.573	163.599	58.880	193.420	-122.152	112.969	196.761	-3.444	96.854	147.423	82.732	92.768	0.0021634	0.00076309	0.00031338	372.12	9.8226e-06	9.0665e-06	575.74	172.21	1.1557e-06	3.5055e-06	276.16	130.39	82.723	50.279	8.3923e-06	75.225	0.00067571	0.00066508	0.00018389	388.52	7.2539e-06	7.1257e-06	566.42	169.38	7.2438e-06	7.3101e-06	267.75	124.27	81.313	47.54	7.4498e-06	70.648	87.287	-120.718	-150.775	-140.512	-116.546	-17.134	-142.253	-135.495	99.830	7.769	-138.058	-134.721	-130.924	-126.851	-67.691	-132.212	-8191	255	
2133.381	1	1	0	0	0.3198	0.13511	0.05929	0.041208	0.28399	0.10745	0.31271	0.22124	0.12861	0.022785	0.24478	0.093869	0.55054	0.35995	0.23514	0.30645	-0.9125	-1.7563	-0.90833	-1.8292	-1.6896	-1.1479	-1.85	-1.4896	-1.25	-1.8292	-1.25	-1.7167	-1.9458	-1.0792	-1.7396	-1.5583	-33.756	-132.646	119.509	-18.219	-122.877	198.294	107.360	91.870	-95.517	84.378	38.875	97.977	-112.903	140.620	-33.348	164.616	0.0019678	0.0010505	0.00039476	371.46	3.378e-06	3.9988e-06	577.21	171.73	1.129e-05	8.2901e-06	275	131.52	83.662	49.981	8.7832e-06	75.344	0.00067296	0.00067549	0.00018316	388.3	7.2076e-06	7.2476e-06	567.19	169.31	7.1914e-06	7.3924e-06	267.77	124.79	81.512	47.569	7.4067e-06	70.535	83.593	-59.268	-68.733	-140.152	-134.350	124.105	-142.396	-134.848	-120.064	-3.379	-138.483	-134.744	-130.670	-127.235	-16.616	-132.248	-8191	255	
2133.478	1	1	0	0	0.06626	0.16529	0.14075	0.026637	0.082051	0.18001	0.038254	0.17912	0.22281	0.15673	0.14076	0.080689	0.059611	0.10397	0.15169	0.13368	-0.67292	-1.9104	-0.91667	-1.6542	-1.7271	-1.0229	-1.8833	-1.5146	-1.0208	-1.9771	-1.3521	-1.3813	-1.8875	-1.1375	-1.5521	-1.6083	4.188	-56.628	28.556	180.748	-112.233	-89.747	170.697	-135.375	112.745	-55.021	173.500	168.355	-142.693	121.217	93.753	-100.158	0.0017502	0.00088803	0.00011252	370.83	6.6574e-06	6.8388e-06	577.01	171.44	5.701e-06	1.093e-05	273.96	131.27	82.87	49.876	8.5065e-06	74.802	0.00066753	0.00066978	0.00018398	388.36	7.1836e-06	7.2222e-06	566.64	169.16	7.1765e-06	7.3585e-06	267.25	124.11	81.067	47.504	7.3118e-06	70.187	82.943	-50.538	89.157	-140.211	-60.882	-54.550	-142.575	-135.189	-59.130	23.398	-138.183	-134.742	-131.213	-127.343	-29.655	-132.180	-8191	255	
2133.574	1	1	0	0	0.33158	0.28655	0.098915	0.092146	0.12333	0.070994	0.028559	0.11389	0.17333	0.21369	0.092787	0.030652	0.22147	0.17356	0.1162	0.20915	-0.40833	-1.8396	-1.2917	-1.2771	-1.975	-1.0542	-1.8125	-1.7458	-0.95833	-1.8958	-1.5021	-1.4542	-2.0938	-1.1646	-1.5333	-1.8417	84.999	107.814	93.053	49.437	174.180	95.398	68.754	121.220	21.318	134.707	184.096	72.710	-109.242	118.968	-47.080	125.451	0.0017778	6.6014e-05	0.00010099	372.91	4.5903e-06	2.8662e-06	573	171.61	8.903e-06	7.4558e-06	272.81	130.37	83.054	50.111	2.5764e-06	74.76	0.00066953	0.00067053	0.00018468	388.17	7.2637e-06	7.2362e-06	565.42	169.36	7.2562e-06	7.4397e-06	265.85	123.74	81.361	47.593	7.3644e-06	70.163	91.576	-73.154	67.312	-140.424	-114.813	-148.954	-142.253	-134.829	-116.873	-25.562	-138.484	-134.426	-131.048	-127.103	175.013	-132.257	-8191	255	
2133.668	1	1	0	0	0.10469	0.04351	0.12208	0.1469	0.3446	0.084457	0.23863	0.33669	0.51037	0.099338	0.23373	0.12283	0.16798	0.37293	0.12865	0.23307	-0.3875	-1.6917	-1.6479	-1.3208	-1.8625	-1.0938	-1.7563	-1.875	-1.0146	-1.9062	-1.6271	-1.0854	-1.9604	-1.3438	-1.3062	-1.9417	81.098	120.972	113.396	140.066	119.101	80.322	187.759	144.221	-50.660	135.253	194.100	-106.318	-140.746	-140.133	184.825	101.554	0.0022821	0.001143	0.00014141	371.8	3.2367e-06	6.8768e-06	572.66	172.66	1.1511e-05	7.7201e-06	273.98	130.33	83.567	50.348	9.8495e-06	75.069	0.00066992	0.00068167	0.00018622	387.85	7.3154e-06	7.3188e-06	564.95	169.07	7.1951e-06	7.4409e-06	267.14	124.06	81.746	47.64	7.3571e-06	70.478	98.049	-116.900	-82.007	-140.437	94.259	70.737	-142.454	-134.841	-10.554	-6.794	-138.202	-134.767	-130.358	-127.081	6.561	-132.233	-8191	255	
2133.764	1	1	0	0	0.10026	0.19167	0.083221	0.15962	0.12955	0.42142	0.24816	0.046904	0.32506	0.12085	0.078443	0.31046	0.071725	0.21446	0.10847	0.21058	-0.51875	-1.7833	-1.5208	-1.0375	-1.9562	-1.2271	-1.3	-2.0312	-1.0833	-1.9229	-1.6542	-1.1083	-2.0708	-1.3188	-1.2167	-2.1083	-77.418	-113.587	112.081	199.844	-152.673	103.942	33.565	153.867	-133.681	181.388	-120.434	140.091	-141.301	187.316	-94.233	150.615	0.0021511	0.0007029	0.00023276	375.34	8.7602e-06	7.2473e-06	573.13	171.23	1.3064e-06	1.7176e-05	276.96	131.27	83.873	50.305	1.3551e-05	76.069	0.00067816	0.00067905	0.00018468	388.65	7.5134e-06	7.3095e-06	565.85	169.76	7.2963e-06	7.5028e-06	268.26	124.79	81.999	47.791	7.3435e-06	71.192	84.672	-100.356	-44.898	-139.853	-97.011	-11.154	-142.295	-135.055	111.085	40.718	-138.389	-134.826	-130.679	-127.102	78.830	-132.039	-8191	255	
2133.860	1	1	0	0	0.17768	0.19583	0.11888	0.12078	0.099262	0.26083	0.34775	0.12666	0.25556	0.35453	0.06032	0.25637	0.10657	0.19657	0.078932	0.33496	-0.55208	-1.5229	-1.4646	-1.1	-1.7167	-1.1396	-1.4229	-2.2313	-1.0938	-1.7938	-1.9167	-1.2188	-1.8729	-1.6167	-1.1729	-2.1083	4.053	58.201	-114.477	126.295	189.592	102.851	156.881	-119.448	190.643	167.679	84.009	-145.180	-83.345	168.032	32.895	149.225	0.0018509	0.00089004	0.00036394	369.77	7.6564e-07	3.5231e-06	574.71	173.69	2.7834e-06	2.4607e-06	277.04	132.28	83.782	50.235	1.2472e-05	75.609	0.00067837	0.00068538	0.00018565	387.78	7.4827e-06	7.4389e-06	567.57	170.49	7.2648e-06	7.5162e-06	269.4	125.45	81.92	47.823	7.2623e-06	71.071	83.970	-136.954	-14.953	-140.180	-106.571	-71.582	-142.482	-134.677	-83.216	-84.656	-138.543	-134.717	-130.914	-127.108	7.176	-131.963	-8191	255	
2133.981	1	1	0	0	0.2304	0.10815	0.091035	0.064557	0.27001	0.23998	0.27806	0.063639	0.19515	0.30778	0.21738	0.42384	0.36655	0.23874	0.1359	0.0089869	-0.84375	-1.3625	-1.7792	-0.93542	-1.8958	-1.4917	-1.1167	-2.0333	-1.025	-1.3708	-1.7979	-1.3146	-1.7833	-1.6875	-0.91458	-2.1979	-84.056	-9.239	58.961	24.443	-152.119	-34.178	141.550	31.034	-0.738	168.703	94.365	138.054	-15.364	-113.690	73.000	-84.847	0.0020083	7.438e-05	0.000114	371.97	7.6572e-06	4.4176e-06	576.99	172.15	1.1039e-05	4.9419e-06	276.23	131.14	83.993	50.074	4.9026e-06	75.554	0.00068381	0.00067392	0.00018631	387.71	7.4518e-06	7.3511e-06	566.2	169.86	7.2982e-06	7.3673e-06	268.44	124.39	82.108	47.726	7.2976e-06	70.675	89.788	-141.283	19.218	-140.049	-41.471	4.022	-142.095	-134.692	-109.937	19.701	-138.266	-134.852	-130.574	-126.969	-111.317	-131.935	-8191	255	
2134.077	1	1	0	0	0.23463	0.21749	0.080998	0.29968	0.15504	0.13433	0.12096	0.26874	0.16095	0.15355	0.19764	0.50569	0.18085	0.16493	0.14055	0.31316	-0.62708	-1.3375	-1.7271	-1.0792	-1.7812	-1.6354	-1.0854	-2.1521	-1.0812	-1.3563	-2.0042	-1.2104	-1.8042	-1.9062	-0.84583	-2.0708	-128.433	12.974	-98.445	154.853	78.790	-150.808	74.540	146.996	-25.775	-95.054	166.295	170.687	-10.109	136.240	93.449	167.658	0.00218	0.00078447	0.00023407	371.47	8.1546e-07	8.5019e-06	575.32	172.73	6.8207e-06	5.1021e-06	274.78	131.26	83.654	49.78	1.3339e-05	74.92	0.00067639	0.0006743	0.00018714	387.34	7.3686e-06	7.3502e-06	564.34	170.09	7.2681e-06	7.3186e-06	267.06	123.97	81.495	47.596	7.2293e-06	70.595	99.354	-65.495	70.339	-140.782	144.381	62.745	-142.277	-134.804	-63.209	-67.448	-137.960	-134.907	-130.734	-126.853	-66.176	-131.917	-8191	255	
2134.173	1	1	0	0	0.020959	0.066177	0.19101	0.080647	0.06447	0.22699	0.17826	0.18105	0.16093	0.14887	0.16652	0.14886	0.11962	0.078223	0.17277	0.13138	-0.9	-1.175	-1.8458	-1.1375	-1.55	-1.9146	-1.0417	-1.9521	-1.1979	-1.1458	-1.9	-1.2458	-1.4958	-1.8833	-1.1	-2.0521	-128.137	-148.286	141.783	38.085	-126.098	119.528	203.361	93.304	29.292	-44.291	151.858	101.542	152.527	-147.415	-118.253	182.282	0.0020364	0.0012029	5.1131e-05	369.27	1.3693e-05	6.0188e-06	576.53	171.66	5.9272e-06	5.1849e-06	273.81	130.42	83.376	50.202	5.9209e-06	74.961	0.00067914	0.00066613	0.00018907	386.12	7.3226e-06	7.3038e-06	563.8	169.53	7.2491e-06	7.3128e-06	267.49	123.83	81.683	47.636	7.3496e-06	70.466	103.012	-46.097	-74.870	-140.808	-18.865	-64.293	-141.835	-135.152	-24.316	-13.714	-137.845	-134.595	-130.680	-126.655	-59.821	-131.881	-8191	255	
2134.269	1	1	0	0	0.084318	0.10664	0.2806	0.14065	0.032459	0.15065	0.25667	0.12803	0.097119	0.26906	0.075133	0.090973	0.38242	0.30618	0.14514	0.07397	-1.0333	-1.0521	-2.0125	-1.1604	-1.3687	-1.5833	-1.1437	-1.7708	-1.4688	-1.1083	-1.7542	-1.4854	-1.6917	-2.0687	-0.925	-1.8396	43.840	-105.853	-81.515	50.146	44.161	193.842	160.784	104.459	170.072	80.668	105.187	-41.730	182.220	177.972	-149.592	35.458	0.0014764	0.00067003	0.000313	370.03	5.6316e-06	5.1962e-06	572.71	172.94	8.3056e-06	2.6447e-06	275.66	130.96	83.728	50.233	5.0564e-06	75.706	0.00067966	0.00066789	0.00019168	386.81	7.4317e-06	7.4564e-06	563.93	169.48	7.3294e-06	7.4037e-06	268.06	124.33	81.787	47.682	7.3776e-06	70.855	92.354	173.217	23.375	-140.630	-52.403	74.807	-142.494	-134.429	22.853	173.737	-137.809	-134.792	-131.049	-126.864	-3.926	-132.140	-8191	255	
2134.366	1	1	0	0	0.18398	0.22136	0.27707	0.22295	0.30891	0.29924	0.054956	0.038587	0.087632	0.1264	0.16982	0.26504	0.23732	0.20618	0.20911	0.12158	-1.1521	-0.97708	-1.8937	-1.2458	-1.1708	-1.8458	-1.2	-1.7	-1.7188	-0.96042	-2.0104	-1.3333	-1.3188	-1.9542	-1.0417	-1.65	-45.841	64.415	194.476	202.147	-72.906	198.647	17.335	103.917	172.185	-135.374	0.047	-149.630	-84.558	14.303	-104.346	83.215	0.0020171	0.00040878	0.00012567	374.61	2.6322e-06	8.8773e-06	575.89	172.52	1.1932e-05	4.8284e-06	277.35	130.96	83.446	50.494	3.8852e-06	75.157	0.00068819	0.0006761	0.00019261	388.6	7.3459e-06	7.5223e-06	565.57	169.78	7.4093e-06	7.4472e-06	268.4	124.46	81.599	47.786	7.4126e-06	70.758	92.233	-146.961	23.483	-140.641	-82.655	113.837	-142.100	-134.520	-84.761	31.712	-138.176	-134.486	-130.433	-126.965	-95.047	-131.777	-8191	255	
2134.462	1	1	0	0	0.06876	0.28369	0.032312	0.17477	0.018161	0.28933	0.20091	0.30544	0.092756	0.13485	0.049785	0.18362	0.082171	0.49973	0.077753	0.30611	-1.5146	-1.0479	-1.8854	-1.2917	-1.1833	-1.925	-1.2729	-1.575	-1.7667	-1.1417	-2.0687	-1.6083	-1.3104	-2.0833	-1.4208	-1.5354	-146.729	-40.992	-101.759	150.892	134.181	46.853	-133.330	179.724	65.646	96.035	-55.975	1.977	126.718	199.062	-124.275	154.563	0.0022507	0.00032434	0.00016793	368.1	7.1411e-06	7.3869e-06	573.52	171.82	8.9487e-06	2.3813e-06	274.29	130.97	83.982	50.153	5.0131e-06	75.219	0.00068883	0.00067306	0.00019109	386.69	7.3993e-06	7.5963e-06	564.91	169.66	7.3333e-06	7.3154e-06	267.96	124.11	81.596	47.791	7.3582e-06	70.795	90.963	47.516	-83.708	-140.821	-23.759	-9.363	-142.080	-134.447	-32.976	191.687	-137.730	-134.622	-130.614	-127.001	-16.623	-131.501	-8191	255	
2134.558	1	1	0	0	0.21883	0.048641	0.11793	0.29098	0.11924	0.18789	0.18096	0.22151	0.23507	0.28552	0.22039	0.10915	0.38726	0.16962	0.25708	0.33501	-1.5833	-0.94375	-1.8458	-1.6187	-1.0625	-2.1167	-1.3146	-1.3708	-2.0792	-1.1271	-1.8458	-1.8083	-1.1375	-2.2167	-1.1042	-1.4521	76.554	159.837	53.059	197.063	-59.583	183.824	129.289	-106.239	-106.691	-64.676	184.925	110.592	-133.901	-94.606	-68.989	91.465	0.001918	0.0010745	0.00014953	371.02	5.8097e-06	8.072e-06	571.16	171.6	3.0097e-06	7.6304e-06	273.15	130.17	82.982	50.624	1.5552e-06	75.404	0.00068986	0.00067687	0.00019254	387.21	7.2938e-06	7.5119e-06	560.69	169.61	7.4069e-06	7.3592e-06	266.45	123.92	81.196	47.962	7.3661e-06	70.724	86.513	-123.221	-107.810	-140.582	-23.563	76.211	-142.252	-134.386	-70.996	-99.662	-138.082	-134.622	-130.638	-126.741	59.268	-131.899	-8191	255	
2134.654	1	1	0	0	0.084952	0.17046	0.26218	0.1348	0.1452	0.22532	0.10489	0.38118	0.17707	0.1776	0.2497	0.20021	0.17799	0.23872	0.20282	0.27057	-1.4521	-1.0625	-1.525	-1.5875	-1.0063	-1.7583	-1.4458	-1.4083	-2.0333	-1.2021	-1.7062	-1.9896	-1.0458	-1.9312	-1.5812	-1.2354	193.066	187.209	-3.813	-89.979	48.206	94.705	138.615	141.236	163.690	10.623	-134.235	112.226	-65.885	144.852	-135.122	122.669	0.0019321	0.0012076	0.00023576	372.26	6.2479e-06	1.3083e-05	573.38	171.79	4.4774e-06	4.5642e-06	275.14	129.91	83.849	50.533	7.8906e-06	75.17	0.00068823	0.0006706	0.00018575	386.24	7.339e-06	7.4688e-06	563.15	168.87	7.4306e-06	7.3337e-06	267.25	123.97	81.486	47.952	7.3734e-06	70.857	102.014	-64.053	-101.159	-140.356	-35.611	94.891	-142.028	-134.538	-83.031	13.914	-137.943	-134.705	-130.404	-126.324	13.757	-131.347	-8191	255	
2134.773	1	1	0	0	0.0058667	0.072677	0.16764	0.084333	0.11026	0.13913	0.22052	0.20539	0.21868	0.29011	0.08018	0.12706	0.08013	0.20238	0.32648	0.31221	-1.6437	-0.94792	-1.3417	-1.7271	-1.05	-1.7792	-1.6646	-1.2708	-2.0438	-1.4208	-1.5812	-2.0292	-0.97917	-1.7875	-1.3937	-1.3438	-78.567	170.804	41.478	-107.325	62.263	144.453	133.956	129.019	69.009	90.466	-69.569	158.522	119.157	135.904	5.191	-134.529	0.0017919	0.0013582	0.00013327	368.37	1.8743e-06	4.7177e-06	575.93	171.6	9.8255e-06	8.0046e-06	274.08	131.72	83.405	50.182	6.877e-06	75.911	0.00069443	0.00067778	0.00018788	387.75	7.3305e-06	7.5424e-06	565.26	169.22	7.4271e-06	7.3197e-06	267.3	124.63	81.529	47.832	7.4074e-06	71.071	83.050	-69.072	-59.616	-140.043	-100.040	28.712	-142.293	-134.319	-28.835	101.567	-138.025	-134.526	-130.456	-126.414	-58.695	-131.760	-8191	255	
2134.869	1	1	0	0	0.46252	0.14558	0.23496	0.10582	0.20825	0.040073	0.43057	0.09352	0.27162	0.25143	0.12496	0.27241	0.045612	0.21004	0.1989	0.27285	-1.8271	-1.2479	-1.3646	-2.0354	-1.1229	-1.5938	-1.875	-1.2396	-1.8438	-1.2687	-1.3833	-2.1354	-1.2104	-1.8333	-1.5833	-1.1771	34.943	115.747	-44.358	190.438	-111.933	-106.630	143.025	200.354	110.092	177.878	-104.669	195.437	23.861	192.981	138.736	121.153	0.0020682	0.00083291	0.00027948	372.9	2.7861e-06	7.4751e-06	572.01	171.93	3.0853e-06	9.2016e-06	273.23	130.6	82.884	50.392	8.9711e-06	75.29	0.0006964	0.00067115	0.00018604	388.06	7.2717e-06	7.4621e-06	562.75	168.98	7.4795e-06	7.4059e-06	266.27	123.95	81.208	47.746	7.2658e-06	70.56	100.157	-118.077	-14.217	-140.299	34.705	-7.784	-141.847	-134.385	122.616	40.129	-137.517	-134.431	-130.617	-126.574	39.318	-131.576	-8191	255	
2134.943	1	1	0	0	0.12019	0.36923	0.096676	0.30652	0.17185	0.17919	0.027119	0.29876	0.10479	0.22897	0.23416	0.21055	0.054218	0.15213	0.095938	0.058491	-1.5083	-1.1812	-1.0417	-1.9	-1.0958	-1.5208	-1.9521	-1.2042	-1.9979	-1.5812	-1.2667	-2.0396	-1.225	-1.525	-1.8375	-1.0271	-111.520	50.549	-36.420	203.455	-84.472	58.810	90.275	-150.019	54.681	145.058	131.590	105.168	182.058	-118.197	146.958	105.714	0.0019555	0.0011268	0.00027768	372.76	5.0709e-06	1.1432e-06	570.67	172.32	9.3301e-06	1.8761e-06	272.4	129.97	83.269	50.346	6.1911e-06	75.324	0.0006927	0.00067137	0.00018653	389.06	7.3383e-06	7.3936e-06	561.65	169.1	7.4693e-06	7.2601e-06	265.07	123.79	81.261	47.753	7.3833e-06	70.615	87.022	196.585	44.870	-140.295	71.855	-44.781	-142.119	-134.423	-56.405	70.666	-137.647	-134.368	-130.768	-126.368	148.543	-131.801	-8191	255	
2135.061	1	1	0	0	0.16155	0.20859	0.36298	0.12081	0.18737	0.20696	0.31543	0.3676	0.17875	0.24846	0.047398	0.16123	0.095615	0.091398	0.062435	0.22395	-1.475	-1.5271	-1.1375	-1.8687	-1.1979	-1.4583	-1.9229	-1.1042	-1.6792	-1.5042	-1.2125	-2.1479	-1.45	-1.5312	-1.9	-1.1812	-106.991	153.110	-100.799	26.189	143.075	97.372	119.075	202.322	87.583	-89.460	-37.211	158.833	-6.563	174.373	-63.780	198.164	0.0015937	0.00064425	4.491e-05	368.75	7.3892e-06	4.5798e-06	571.48	171.81	1.2889e-05	5.1332e-06	275.3	130.55	83.419	50.572	8.7141e-07	75.644	0.00069461	0.00067378	0.00018595	387.71	7.2491e-06	7.3121e-06	560.96	168.7	7.4163e-06	7.3052e-06	266.9	123.96	81.34	47.885	7.4528e-06	70.777	87.626	-56.745	94.497	-140.029	-31.218	150.618	-141.956	-134.543	21.199	25.262	-137.988	-134.223	-130.593	-126.401	164.385	-131.803	-8191	255	
2135.158	1	1	0	0	0.23746	0.26901	0.031671	0.25334	0.20696	0.15698	0.12366	0.27832	0.24225	0.13199	0.19103	0.17914	0.11319	0.15853	0.18727	0.17199	-1.3125	-1.8667	-1.1292	-2.0021	-1.2625	-1.15	-2.0687	-1.3646	-1.5292	-1.7667	-1.175	-1.8917	-1.5167	-1.3438	-1.9354	-1.0542	45.652	138.093	152.942	-117.025	-29.635	2.326	-74.092	160.013	-27.289	49.140	-62.436	165.702	-69.800	156.598	-46.966	190.667	0.0021711	0.0010915	0.00012219	372.31	6.8568e-06	2.8067e-06	572.55	171.47	6.7049e-06	7.4081e-06	274.36	131.01	83.709	50.643	6.5996e-06	76.335	0.00069215	0.00067749	0.00018438	387.3	7.2879e-06	7.3436e-06	563.34	168.99	7.393e-06	7.4245e-06	266.62	124.76	81.436	48.003	7.4935e-06	71.29	96.290	-118.427	-31.148	-140.057	-37.183	-49.323	-141.991	-134.408	-79.256	124.655	-137.938	-134.198	-130.516	-126.634	-85.711	-131.496	-8191	255	
2135.254	1	1	0	0	0.10394	0.18171	0.064481	0.33592	0.3142	0.16586	0.28388	0.26451	0.05507	0.13755	0.2034	0.2197	0.11499	0.20443	0.056123	0.41005	-1.1812	-1.7083	-0.87917	-2.0896	-1.4792	-1.3583	-2.2354	-1.3021	-1.4937	-1.7583	-0.98542	-1.8875	-1.6083	-1.1812	-1.95	-1.3875	-31.019	15.871	139.391	171.753	-87.028	21.482	108.526	-106.945	199.173	166.079	188.879	74.457	-83.322	198.788	-66.051	156.635	0.0017722	0.00074865	0.00025223	373.49	7.0656e-06	8.8997e-06	571.97	171.42	8.3564e-06	1.7955e-06	275.02	132.01	83.644	50.376	4.42e-06	75.825	0.00068088	0.00067593	0.00018557	389.47	7.2639e-06	7.4175e-06	562.78	168.86	7.3818e-06	7.5021e-06	267.19	125.01	81.475	47.902	7.4972e-06	71.174	81.038	0.554	-38.736	-140.343	-47.728	6.713	-142.042	-134.448	-12.608	38.063	-137.867	-134.150	-130.814	-126.470	-90.271	-131.813	-8191	255	
2135.374	1	1	0	0	0.18364	0.1232	0.30828	0.091787	0.27968	0.20993	0.13561	0.21172	0.35688	0.049789	0.3327	0.20541	0.42524	0.19442	0.24288	0.48563	-0.825	-1.8458	-0.98958	-1.8	-1.5729	-0.76042	-2.125	-1.3042	-1.4062	-1.9583	-1.2771	-1.9125	-1.7	-1.0438	-1.8896	-1.3646	204.320	5.556	-134.118	-80.197	105.762	-107.726	-95.119	63.417	153.223	-100.272	157.015	-67.008	117.927	173.632	172.117	135.577	0.0019518	0.00051703	0.00015694	373.36	5.4246e-06	5.4683e-06	570.07	170.62	2.8758e-06	3.9872e-07	273.84	131.01	83.366	50.299	4.2927e-06	75.683	0.00068425	0.0006771	0.00018679	388.73	7.2622e-06	7.2677e-06	561.79	168.18	7.2731e-06	7.4454e-06	265.08	123.88	81.406	47.845	7.3409e-06	70.6	85.573	-111.246	182.795	-139.960	-24.691	13.749	-141.799	-134.538	-100.073	-34.744	-137.631	-134.350	-130.166	-126.364	-150.888	-132.049	-8191	255	
2135.470	1	1	0	0	0.13562	0.47819	0.067462	0.005376	0.16276	0.39719	0.11352	0.12645	0.093611	0.1344	0.24844	0.30627	0.16946	0.1697	0.25921	0.02927	-0.93125	-1.8292	-1.025	-1.5229	-1.6146	-1.0354	-1.9333	-1.2062	-1.0896	-1.9021	-1.1479	-1.6063	-1.8438	-1.0125	-1.9292	-1.5479	134.975	83.382	-19.815	38.987	-27.568	-2.541	169.293	-76.721	-74.717	74.303	-128.579	154.400	118.573	169.633	75.557	-139.615	0.0016426	0.00055546	4.1325e-05	372.63	8.4783e-06	9.3185e-06	572.26	170.63	3.0854e-06	4.4887e-06	271.35	130.69	83.074	50.35	5.0674e-06	74.791	0.00067823	0.00067309	0.00018488	386.91	7.1981e-06	7.1814e-06	560.5	167.78	7.1518e-06	7.4018e-06	264.44	123.32	81.148	47.682	7.2362e-06	70.4	94.965	-87.751	-76.716	-139.925	-81.044	52.179	-141.412	-134.453	-123.282	-37.213	-137.552	-133.999	-130.498	-126.657	2.437	-131.846	-8191	255	
2135.565	1	1	0	0	0.21367	0.25135	0.16501	0.15079	0.23821	0.098744	0.19018	0.24234	0.13917	0.085999	0.15619	0.30034	0.17581	0.23915	0.28311	0.34093	-0.76875	-2.0125	-1.0625	-1.7625	-1.8458	-0.95	-2.0271	-1.6562	-0.88542	-1.8083	-1.1833	-1.4375	-1.8583	-1.0562	-1.8	-1.7208	90.180	149.824	98.985	-91.867	-119.795	131.561	157.006	149.417	-5.281	-59.391	99.167	174.560	133.700	-99.905	125.023	126.412	0.0017817	0.00047015	0.00035661	373.53	3.1497e-06	6.7729e-06	569.27	171.98	8.4736e-06	9.7492e-06	272.28	129.93	82.968	50.228	9.0297e-06	74.886	0.00066343	0.00066882	0.00018331	386	7.2436e-06	7.2496e-06	558.46	168.33	7.2033e-06	7.3565e-06	264.24	123.13	81.021	47.704	7.3354e-06	70.529	84.783	-108.688	-134.072	-140.253	-98.559	-53.928	-141.786	-134.558	-67.940	25.066	-137.952	-134.141	-130.810	-126.673	-55.374	-132.165	-8191	255	
2135.663	1	1	0	0	0.33203	0.38458	0.16637	0.13099	0.10183	0.25034	0.14768	0.038692	0.097566	0.11581	0.28302	0.1294	0.32675	0.17194	0.16431	0.11392	-0.54167	-1.8729	-1.2833	-1.3542	-1.9729	-0.98542	-1.6917	-1.6229	-1.1187	-1.8333	-1.3292	-1.4792	-1.9438	-1.0917	-1.6354	-1.8813	-44.337	-38.430	-132.189	117.342	-136.856	70.104	47.162	197.451	-12.444	-125.680	131.992	159.374	77.708	141.863	-67.037	10.931	0.0020372	0.00055641	0.00018928	376.25	5.8153e-06	7.7138e-06	569.92	171.13	8.2746e-06	1.1678e-05	273.2	131.18	83.272	50.458	4.2587e-06	76.013	0.00067141	0.00067484	0.00018365	387.48	7.3272e-06	7.228e-06	560.02	168.61	7.2328e-06	7.3746e-06	265.51	124	81.376	47.763	7.3717e-06	71.11	91.793	-130.756	-10.938	-140.076	13.774	85.316	-142.069	-134.155	2.664	15.926	-137.714	-134.396	-130.526	-126.599	50.697	-131.931	-8191	255	
2135.757	1	1	0	0	0.15695	0.16063	0.28978	0.13937	0.13461	0.054771	0.17774	0.23602	0.13343	0.26484	0.037385	0.10565	0.21914	0.1384	0.30062	0.11802	-0.6625	-1.9083	-1.425	-1.2042	-2.0104	-1.1562	-1.5229	-1.9312	-1.0604	-1.8625	-1.4417	-1.0542	-2.1583	-1.3146	-1.5646	-1.8	174.971	-40.703	-114.422	90.671	-9.633	-38.697	-152.509	-139.387	-46.719	33.866	-85.895	174.268	170.493	202.586	-78.720	136.647	0.0017479	0.00059628	0.0001453	369.95	4.8625e-06	5.3375e-06	571.56	169.95	1.1529e-05	8.903e-06	274.63	130.77	83.219	50.356	1.6197e-05	75.608	0.00066689	0.00067784	0.0001849	386.85	7.3585e-06	7.2745e-06	560.32	168.21	7.2023e-06	7.4359e-06	265.5	124	81.308	47.75	7.1192e-06	70.877	78.305	-48.393	-96.580	-140.112	-46.160	-45.058	-141.757	-134.554	-50.208	9.675	-138.070	-133.968	-130.610	-126.571	-19.195	-131.756	-8191	255	
2135.853	1	1	0	0	0.2519	0.19445	0.15021	0.1784	0.12263	0.015631	0.24869	0.36553	0.31878	0.23004	0.12759	0.22101	0.25161	0.20793	0.32909	0.10986	-0.52292	-1.7083	-1.5562	-1.0667	-1.9167	-1.2687	-1.5979	-2.0854	-0.98958	-1.55	-1.7458	-0.95625	-2.0917	-1.3188	-1.2833	-2.0875	31.032	-40.942	1.127	-116.762	112.451	94.789	184.054	175.399	-56.897	-23.770	-100.273	93.916	142.107	146.519	151.824	133.762	0.0018501	0.00049446	0.00032042	371.71	2.4068e-06	6.76e-06	570.81	171.74	5.0826e-06	3.6651e-06	272.3	130.87	83.395	50.276	1.2929e-05	75.472	0.00067646	0.00067528	0.00018365	387.52	7.4232e-06	7.1714e-06	560.24	168.54	7.2462e-06	7.3894e-06	264.9	123.73	81.531	47.75	7.2757e-06	70.949	89.616	-59.071	-58.199	-140.105	-76.381	-67.502	-141.994	-134.546	-25.673	-51.109	-137.932	-134.125	-130.675	-126.387	-20.597	-131.622	-8191	255	
2135.949	1	1	0	0	0.345	0.13843	0.1405	0.3338	0.23685	0.14528	0.093971	0.13595	0.17069	0.12051	0.17064	0.21143	0.16605	0.093222	0.085878	0.31115	-0.65208	-1.6708	-1.7021	-0.96458	-1.875	-1.3292	-1.3479	-2.1979	-1.0938	-1.7479	-1.7542	-1.1167	-1.9229	-1.4688	-1.2833	-2.1125	-74.901	0.588	36.090	174.540	-81.319	79.937	176.795	-92.789	61.636	17.496	163.480	193.002	199.053	34.582	-149.818	142.758	0.0017708	0.0014827	0.00012782	374.16	9.0354e-06	8.3658e-06	571	171.93	3.5644e-06	6.3713e-06	274.14	130.81	83.373	50.434	1.0372e-05	75.359	0.00067468	0.00066221	0.00018356	386.4	7.3724e-06	7.2605e-06	559.79	168.9	7.1847e-06	7.2384e-06	265.49	123.64	81.339	47.806	7.279e-06	70.726	85.710	-81.381	-86.016	-140.162	-62.410	15.474	-142.007	-134.739	-116.965	37.002	-137.911	-134.447	-130.636	-126.604	-67.781	-131.809	-8191	255	
2136.070	1	1	0	0	0.24978	0.080506	0.30166	0.22851	0.12862	0.23098	0.28889	0.051021	0.16273	0.038662	0.29157	0.2051	0.083234	0.20955	0.27643	0.4296	-0.77292	-1.6021	-1.7333	-1.0875	-1.9917	-1.425	-1.225	-2.0708	-1.1	-1.5438	-1.7917	-1.1521	-1.8917	-1.6562	-1.0458	-2.1604	67.788	60.535	143.128	-117.395	183.359	132.606	166.318	112.972	-67.197	-135.089	-136.605	67.998	81.243	159.663	10.265	133.676	0.0020819	0.00036136	0.00017346	367.65	5.2336e-06	1.2074e-06	568.27	170.19	1.3853e-05	6.4986e-06	272.78	130.04	83.553	50.428	4.2764e-06	76.369	0.00066865	0.00067379	0.00018506	384.59	7.2878e-06	7.2401e-06	559.75	168.54	7.1944e-06	7.2787e-06	265.47	123.8	81.29	47.846	7.3641e-06	71.227	81.424	195.255	-0.643	-140.345	46.663	30.984	-141.781	-134.263	-40.215	-48.931	-137.792	-134.481	-129.968	-126.561	-71.423	-131.477	-8191	255	
2136.166	1	1	0	0	0.11523	0.15354	0.098671	0.18755	0.099566	0.29281	0.037282	0.13911	0.16904	0.12196	0.10999	0.065972	0.23427	0.30527	0.23329	0.14257	-0.95	-1.35	-2.0021	-1.0458	-1.6292	-1.7333	-1.2313	-2.1	-1.4	-1.4083	-1.9708	-1.1313	-1.6688	-1.8979	-1.0896	-2.1542	40.901	-24.486	65.522	-1.731	-121.730	166.870	94.816	128.397	108.950	-130.185	128.934	148.640	-133.377	161.344	117.669	100.034	0.002251	0.00012964	0.0002855	371.07	2.9757e-06	9.6401e-07	573.1	171.15	4.3533e-06	2.9396e-06	275.68	130.96	83.619	50.31	3.5039e-06	76.369	0.00067365	0.00066702	0.0001903	386.95	7.3154e-06	7.346e-06	561.68	169.27	7.222e-06	7.3638e-06	267.05	124.01	81.537	47.795	7.2651e-06	71.319	93.259	23.013	-19.847	-140.155	-73.904	72.182	-141.896	-134.469	38.977	-13.731	-137.699	-134.504	-129.898	-126.544	11.552	-131.515	-8191	255	
2136.238	1	1	0	0	0.16689	0.17339	0.048854	0.18656	0.17841	0.13742	0.20566	0.082215	0.26778	0.13782	0.17229	0.18981	0.18534	0.23786	0.19452	0.22235	-0.94167	-1.2542	-1.9312	-0.97083	-1.7021	-1.9042	-1.2479	-1.9375	-1.6688	-1.2958	-2.0083	-1.2229	-1.5875	-1.85	-1.1667	-2.1417	121.981	-115.302	152.680	187.960	-40.227	25.681	93.138	19.089	157.057	0.920	116.155	152.880	170.856	62.721	44.079	125.854	0.0022036	0.00010916	0.00021269	369.31	4.7092e-06	7.7484e-06	571.26	170.77	3.1993e-06	1.6713e-05	271.96	130.19	83.215	50.074	1.1399e-05	75.654	0.00067128	0.00066219	0.00018719	386.21	7.2609e-06	7.4079e-06	561.6	168.54	7.2699e-06	7.3417e-06	264.87	123.53	81.2	47.667	7.1795e-06	70.58	91.795	-89.494	-17.902	-140.134	-1.811	-27.562	-141.571	-134.423	56.034	72.692	-137.676	-134.458	-130.270	-126.609	-66.180	-131.349	-8191	255	
2136.334	1	1	0	0	0.24235	0.20048	0.1444	0.086048	0.15528	0.04565	0.16198	0.22564	0.17322	0.073879	0.27089	0.15199	0.45031	0.11083	0.21067	0.34157	-1.0271	-1.1167	-1.9292	-1.2833	-1.5208	-1.8333	-1.2625	-2.0187	-1.5187	-1.0292	-2.275	-1.3208	-1.4625	-1.9833	-0.96667	-1.9604	11.316	97.183	-91.025	-53.814	75.750	-43.829	127.273	-110.814	29.479	2.247	146.010	129.560	201.742	116.470	-44.666	185.133	0.0018039	0.00096008	0.00019505	369.24	6.743e-06	7.0386e-07	569.27	170.96	1.3715e-05	5.801e-06	272.26	129.95	83.105	50.266	4.4346e-06	75.71	0.00066703	0.00066654	0.0001874	384.81	7.2765e-06	7.3374e-06	558.99	168.78	7.272e-06	7.2753e-06	265.31	123.34	81.446	47.733	7.2044e-06	70.715	92.033	-48.188	1.387	-140.488	-10.506	-62.468	-142.492	-134.802	-73.766	17.635	-138.435	-134.821	-130.714	-127.019	-128.463	-132.329	-8191	255	
2136.455	1	1	0	0	0.19229	0.16413	0.22159	0.14346	0.19904	0.15653	0.09821	0.20477	0.13209	0.10709	0.1274	0.14784	0.12936	0.10543	0.15649	0.39775	-1.4354	-1.0333	-1.7979	-1.3542	-1.3083	-1.975	-0.83333	-1.7958	-1.6938	-1.0625	-2.1125	-1.3792	-1.2687	-2.1771	-1.0708	-1.8271	181.141	-60.203	136.264	-57.627	-142.673	-59.969	129.790	195.735	1.512	-151.261	137.587	103.736	20.692	127.776	116.050	199.612	0.0023365	0.00036493	0.00011253	372.42	8.765e-06	6.2755e-06	569.93	170.76	6.1156e-06	5.4158e-06	274.46	129.4	83.618	50.214	4.6264e-06	75.338	0.00067666	0.00066731	0.00018648	386.64	7.2296e-06	7.4109e-06	558.48	168.77	7.3214e-06	7.3116e-06	266.49	123.16	81.455	47.763	7.1609e-06	70.854	100.514	8.084	-84.974	-141.171	-54.885	88.129	-142.763	-134.514	6.754	173.229	-138.490	-135.089	-130.618	-127.149	3.119	-132.069	-8191	255	
2136.551	1	1	0	0	0.35124	0.060127	0.1876	0.16683	0.11786	0.19293	0.2761	0.027008	0.12869	0.17524	0.21038	0.17538	0.26274	0.086367	0.17104	0.17852	-1.4062	-0.99583	-1.9917	-1.5187	-1.0729	-2.0604	-1.1583	-1.5167	-1.7417	-1.0375	-1.8937	-1.5604	-1.2083	-2.175	-1.0667	-1.4	-23.603	24.658	122.438	-149.715	116.807	-60.590	120.673	130.757	-2.827	196.299	119.228	189.646	117.241	-87.404	62.790	96.581	0.001795	0.00072346	0.00026183	371.29	1.1139e-05	5.7018e-06	571.76	171.92	7.6814e-06	1.1349e-05	272.89	131.04	83.084	50.421	6.2155e-06	76.396	0.00068219	0.00066384	0.00018879	385.64	7.3411e-06	7.4655e-06	561.04	169.52	7.4274e-06	7.3009e-06	267.05	124.71	81.701	47.999	7.3266e-06	71.549	91.011	-32.660	-83.726	-140.495	-9.275	63.470	-142.473	-134.847	-127.219	72.531	-138.390	-135.191	-130.785	-126.928	177.065	-132.242	-8191	255	
2136.645	1	1	0	0	0.010232	0.32898	0.1091	0.047315	0.1825	0.14207	0.12229	0.2041	0.16041	0.20524	0.28512	0.135	0.075433	0.16989	0.24094	0.35793	-1.6625	-1.2208	-1.9333	-1.7667	-1.1208	-2.0958	-1.3937	-1.5104	-1.875	-1.1479	-1.7271	-1.6313	-1.2271	-2.0021	-1.3021	-1.325	202.710	8.814	-54.985	-87.740	160.667	18.284	165.816	52.797	-46.177	15.143	-145.717	133.873	-61.412	-127.195	137.818	114.742	0.0020847	0.00065017	0.00016315	369.95	6.7473e-06	5.5674e-06	572.44	172.73	7.311e-06	1.5936e-06	275.92	131.4	83.782	50.925	1.0841e-05	76.189	0.0006918	0.00066462	0.00018961	387.27	7.342e-06	7.5085e-06	563.61	169.08	7.438e-06	7.2712e-06	268.25	125.01	81.656	48.182	7.2638e-06	71.481	85.375	-102.920	41.727	-140.830	-38.128	-149.187	-142.860	-134.835	0.145	129.377	-137.751	-134.803	-130.679	-127.044	-22.687	-131.813	-8191	255	
2136.743	1	1	0	0	0.12877	0.075374	0.074951	0.21409	0.39714	0.2473	0.14722	0.26318	0.061184	0.073496	0.23546	0.35895	0.13454	0.14084	0.16048	0.30413	-1.4917	-1.0375	-1.675	-1.7625	-1.0875	-1.85	-1.3354	-1.2396	-2.1208	-1.0333	-1.6875	-1.6646	-1.1958	-2.0438	-1.5354	-1.2917	131.792	172.343	52.388	-60.611	167.848	-3.933	180.988	174.663	-132.009	85.055	127.921	-102.129	154.138	197.541	199.099	162.083	0.001877	0.00097617	0.00011374	370.55	4.8654e-06	7.7909e-06	572.05	171.71	6.414e-07	9.103e-06	275.23	131.16	83.101	50.735	6.5114e-06	75.626	0.00068672	0.00067007	0.00018749	388.65	7.2279e-06	7.438e-06	560.87	168.93	7.4062e-06	7.231e-06	266.8	124.25	81.446	48.015	7.3366e-06	70.899	84.627	-85.366	199.603	-140.559	8.231	41.649	-142.677	-134.966	20.694	41.946	-138.130	-134.971	-130.778	-126.835	-51.497	-132.008	-8191	255	
2136.838	1	1	0	0	0.10853	0.058073	0.039064	0.19705	0.18178	0.15605	0.10855	0.12995	0.12861	0.16138	0.28471	0.10012	0.10697	0.40757	0.031507	0.18737	-1.7729	-1.0979	-1.4208	-1.9854	-0.99792	-1.9438	-1.6021	-1.2458	-1.9604	-1.1479	-1.5125	-2.1	-1.3396	-1.85	-1.6688	-1.3854	143.798	182.582	165.844	163.453	-92.837	120.863	-132.396	61.276	-109.485	53.801	116.712	182.236	-134.706	148.982	20.581	143.548	0.0017399	0.00013894	0.00028877	368.74	5.0515e-06	1.5125e-05	566.68	171.48	1.2084e-05	1.2407e-05	271.55	130.48	83.274	50.13	1.1156e-05	75.698	0.00068276	0.00066097	0.00018609	387.43	7.1868e-06	7.335e-06	559.49	168.17	7.3857e-06	7.1951e-06	265.49	124	81.272	47.767	7.211e-06	70.722	91.675	88.126	-89.213	-140.438	-115.767	22.770	-142.765	-134.721	-112.770	2.081	-138.406	-134.853	-130.950	-127.378	-57.618	-131.965	-8191	255	
2136.934	1	1	0	0	0.16643	0.22113	0.24869	0.033479	0.10297	0.098709	0.066911	0.31659	0.096307	0.10145	0.58822	0.1768	0.031417	0.1512	0.12559	0.061208	-1.4375	-1.3167	-1.3104	-1.9062	-1.0938	-1.7687	-1.8646	-1.0896	-2.0438	-1.2271	-1.3458	-2.1021	-1.0146	-1.7854	-1.7792	-1.35	-112.378	-130.783	-41.982	-18.675	30.243	-107.291	175.333	-139.408	94.423	-103.337	130.776	44.844	-112.139	-59.140	100.015	137.660	0.0020942	0.0011764	0.00035491	367.38	9.2734e-06	3.0135e-06	568.8	170.54	6.4868e-06	2.3901e-06	271.51	129.79	83.105	50.2	7.6552e-06	75.661	0.00068495	0.0006622	0.00018614	384.64	7.1917e-06	7.3177e-06	559.15	168.26	7.3278e-06	7.1962e-06	264.25	123.53	81.06	47.724	7.3318e-06	70.886	92.087	-85.522	-48.722	-141.024	-9.468	-119.788	-142.544	-135.009	-83.158	-10.416	-138.378	-135.090	-130.683	-126.831	-35.483	-132.090	-8191	255	
2137.054	1	1	0	0	0.39436	0.21228	0.13977	0.12102	0.045605	0.30022	0.22111	0.086953	0.023928	0.25969	0.20518	0.25102	0.20553	0.16927	0.11252	0.19171	-1.5354	-1.1479	-1.2417	-2.0583	-1.1458	-1.5396	-1.7875	-1.1833	-1.9813	-1.4917	-1.3396	-2.1396	-1.1875	-1.7229	-1.8896	-1.0896	-82.684	-139.209	180.909	-33.254	-4.811	93.388	88.174	178.409	28.322	200.980	88.485	167.775	-134.982	192.794	-0.700	-104.459	0.0020283	0.00019229	8.462e-05	370.23	6.0418e-06	9.5734e-06	569.89	170.38	8.9231e-06	4.0497e-07	274.29	131.07	83.075	50.217	1.4543e-05	75.987	0.00068975	0.00066971	0.00018619	388.23	7.2098e-06	7.4215e-06	562.41	168.52	7.4248e-06	7.4197e-06	266.92	124.35	81.189	47.816	7.3286e-06	71.19	84.364	-65.403	30.550	-140.850	-115.042	-11.373	-142.353	-134.863	54.113	54.954	-138.271	-134.865	-130.543	-126.769	-57.732	-131.984	-8191	255	
2137.150	1	1	0	0	0.079437	0.017517	0.37942	0.29274	0.32471	0.042316	0.19886	0.21148	0.23036	0.17671	0.20298	0.10751	0.14522	0.4071	0.14097	0.090308	-1.5354	-1.4771	-1.1896	-1.9188	-1.2458	-1.4854	-2.1896	-1.0438	-1.6125	-1.5562	-1.3062	-2.1104	-1.3125	-1.6	-2.0667	-1.2875	38.169	-143.021	122.457	64.286	-28.258	180.544	108.210	160.420	82.593	34.001	182.737	183.476	135.718	171.723	167.102	-133.753	0.0022354	0.00061546	0.00033859	369.46	3.4695e-06	1.1824e-05	573.61	171.4	4.664e-06	1.1523e-05	275.15	130.96	82.872	50.278	8.573e-06	75.913	0.00068694	0.00067707	0.00018669	386.77	7.1579e-06	7.3514e-06	563.01	168.82	7.3782e-06	7.3015e-06	267.14	124.48	81.198	47.761	7.4021e-06	71.06	98.277	-115.566	-69.016	-140.370	-11.218	9.393	-142.583	-134.636	113.548	-35.178	-138.039	-134.837	-130.831	-126.926	6.955	-131.915	-8191	255	
2137.247	1	1	0	0	0.14726	0.23434	0.26507	0.16799	0.15435	0.17185	0.11808	0.099048	0.052457	0.18522	0.097106	0.23884	0.12855	0.01717	0.15948	0.21727	-1.3979	-1.6313	-0.95	-2.0396	-1.3563	-1.1812	-1.9917	-1.2771	-1.6542	-1.8813	-1.1917	-1.8479	-1.4667	-1.4292	-1.9562	-1.1	-70.669	149.393	56.525	71.931	-83.943	190.730	184.444	-69.687	24.639	-15.429	158.300	182.668	190.579	32.200	152.513	127.601	0.0017364	0.00064471	0.00027782	371.75	5.9363e-06	3.0617e-06	568.53	172.25	5.0168e-06	9.814e-06	274.75	130.18	82.739	50.475	6.5494e-06	75.721	0.00069173	0.00067221	0.00018664	386.14	7.294e-06	7.2949e-06	560.43	168.5	7.3996e-06	7.4135e-06	266.41	124.25	81.244	47.887	7.4435e-06	70.823	84.561	-101.506	-77.737	-140.354	-32.689	109.928	-142.245	-134.711	43.102	17.055	-138.140	-134.791	-130.737	-127.032	-30.176	-132.105	-8191	255	
2137.343	1	1	0	0	0.070579	0.38365	0.225	0.21142	0.20519	0.036872	0.4256	0.38635	0.1316	0.18342	0.23836	0.15351	0.13783	0.46798	0.18363	0.29027	-1.3646	-1.9917	-1.0542	-1.7729	-1.5792	-1.3083	-2.1437	-1.2104	-1.5125	-2.0125	-1.225	-1.9979	-1.7542	-1.2625	-1.9333	-1.3917	129.448	136.864	92.012	164.535	29.516	-123.097	13.490	164.666	-140.986	177.366	156.226	-94.119	106.318	177.732	9.649	128.975	0.0018504	0.0003873	0.00012646	372.68	9.0037e-06	1.3788e-05	568.54	170.83	7.1946e-06	1.0327e-05	273.2	130.5	83.039	50.576	3.5738e-06	75.802	0.00069006	0.00067911	0.00018512	388.02	7.2831e-06	7.3707e-06	561.32	168.58	7.3869e-06	7.4098e-06	265.6	124.07	81.277	47.904	7.4012e-06	70.95	87.957	8.518	111.184	-140.767	-56.892	33.649	-142.904	-134.520	-114.701	16.149	-138.561	-135.010	-130.985	-127.085	27.178	-132.123	-8191	255	
2137.463	1	1	0	0	0.034956	0.19235	0.16472	0.23662	0.20685	0.18703	0.11989	0.078719	0.087447	0.20991	0.17222	0.20235	0.1737	0.059889	0.046299	0.51832	-0.82292	-1.925	-0.87917	-1.7375	-1.5146	-0.98958	-1.9708	-1.5208	-1.3813	-2.0438	-1.2854	-2.0792	-1.7083	-1.2292	-1.9438	-1.4917	66.382	-129.267	13.681	-118.949	90.429	186.307	175.779	38.541	-78.999	54.416	-117.473	188.296	158.239	-135.515	121.463	104.732	0.001971	0.00093411	9.5172e-05	369.73	6.5885e-06	7.8475e-06	569.69	171.35	7.1261e-06	1.041e-05	271.9	130.62	82.728	50.227	1.2935e-05	75.571	0.00068094	0.00067805	0.000184	386.14	7.374e-06	7.3422e-06	562.33	168.51	7.3945e-06	7.4565e-06	265.52	124.12	81.072	47.706	7.4287e-06	71.064	75.457	-57.408	-145.584	-140.359	-30.924	9.468	-142.279	-134.912	-23.743	-24.811	-138.262	-134.547	-130.882	-126.946	-7.399	-132.034	-8191	255	
2137.535	1	1	0	0	0.26238	0.14304	0.29317	0.28014	0.37101	0.21451	0.27167	0.31688	0.058938	0.14658	0.04706	0.21442	0.12187	0.23525	0.097878	0.32296	-0.79167	-1.8312	-1.0125	-1.7	-1.8	-0.95208	-1.9604	-1.4271	-1.2417	-1.8833	-1.3833	-1.6729	-1.9125	-1.1396	-1.8083	-1.5979	-35.317	22.379	165.925	-132.916	-95.809	-81.798	94.096	105.137	-74.343	169.353	74.471	-130.213	121.692	165.884	175.033	119.411	0.0024128	0.00038788	0.00027713	369.9	7.125e-06	8.2403e-06	570.36	171.62	1.01e-05	3.6804e-06	274.13	131.01	83.071	50.256	4.5831e-06	75.838	0.00068044	0.00067348	0.00018605	385.74	7.3808e-06	7.3135e-06	560.94	168.46	7.302e-06	7.3789e-06	265.94	124.49	81.186	47.704	7.3814e-06	71.18	87.084	-122.167	-68.634	-140.539	36.956	46.162	-142.206	-134.859	-5.075	6.949	-138.476	-134.325	-131.024	-127.011	-77.292	-132.061	-8191	255	
2137.631	1	1	0	0	0.21576	0.17269	0.17046	0.26523	0.19621	0.11591	0.22186	0.28631	0.061565	0.078244	0.26011	0.13842	0.26539	0.20199	0.21949	0.14889	-0.92083	-1.9104	-0.90208	-1.5229	-1.7542	-1.1146	-2.1292	-1.7833	-1.0042	-2	-1.425	-1.3146	-2.1458	-1.2604	-1.7979	-1.8375	133.729	193.795	-0.939	-135.758	64.390	189.250	166.057	73.662	-74.359	126.959	97.876	159.328	141.864	177.306	115.425	121.185	0.0023563	0.00035772	2.913e-05	369.93	5.8734e-06	1.4767e-05	569.63	171.01	6.2944e-06	4.5376e-06	272.29	130.2	82.803	49.966	1.499e-05	75.505	0.00067356	0.00067677	0.0001827	385.85	7.3358e-06	7.1463e-06	560.18	168.28	7.2701e-06	7.3121e-06	264.8	123.9	80.999	47.431	7.3529e-06	70.583	86.741	-17.041	147.600	-140.397	32.168	1.978	-142.005	-134.970	-16.983	-11.003	-138.075	-134.467	-130.582	-127.082	48.451	-131.960	-8191	255	
#DATA ENDS
