BOXY.EXE: ISS Imagent and Oximeter Data Acquisition Program Version 0.80
Ascii Record File

#ACQ INFORMATION
2  Detector Channels 
16  External MUX Channels 
1  Auxiliary Channels 
5000  Waveform (CCF) Frequency (Hz)
1  Waveforms Skipped 
30  Waveforms Averaged 
1  Cycles Averaged 
16  Acquisitions per Waveform 
10.0806  Updata Rate (Hz) 

#FILE INFORMATION
TRUE -- External MUX Channel results are PARSED.
FALSE -- AC DC and Phase are NOT grouped.
TRUE -- Companion Program Settings File CREATED.
FALSE -- AC data not excluded
FALSE -- DC data not excluded
FALSE -- Phase data not excluded
FALSE -- Auxillary Chn. data not excluded
Tab delimiters

#CALIBRATION STATE
TRUE -- Waveform Calibration Values APPLIED.


#AUX CALIBRATION VALUES
Val Type	aux-1	

Term	1.0000e+00	
Factor	0.0000e+00	


#WF CALIBRATION VALUES
A = Detector Channel
Val Type	A-AC1	A-AC2	A-AC3	A-AC4	A-AC5	A-AC6	A-AC7	A-AC8	A-AC9	A-AC10	A-AC11	A-AC12	A-AC13	A-AC14	A-AC15	A-AC16	A-DC1	A-DC2	A-DC3	A-DC4	A-DC5	A-DC6	A-DC7	A-DC8	A-DC9	A-DC10	A-DC11	A-DC12	A-DC13	A-DC14	A-DC15	A-DC16	A-Ph1	A-Ph2	A-Ph3	A-Ph4	A-Ph5	A-Ph6	A-Ph7	A-Ph8	A-Ph9	A-Ph10	A-Ph11	A-Ph12	A-Ph13	A-Ph14	A-Ph15	A-Ph16	

Term	0.00000e+00	0.00000e+00	0.00000e+00	0.00000e+00	0.00000e+00	0.00000e+00	0.00000e+00	0.00000e+00	0.00000e+00	0.00000e+00	0.00000e+00	0.00000e+00	0.00000e+00	0.00000e+00	0.00000e+00	0.00000e+00	0.00000e+00	0.00000e+00	0.00000e+00	0.00000e+00	0.00000e+00	0.00000e+00	0.00000e+00	0.00000e+00	0.00000e+00	0.00000e+00	0.00000e+00	0.00000e+00	0.00000e+00	0.00000e+00	0.00000e+00	0.00000e+00	0.00000e+00	0.00000e+00	0.00000e+00	0.00000e+00	0.00000e+00	0.00000e+00	0.00000e+00	0.00000e+00	0.00000e+00	0.00000e+00	0.00000e+00	0.00000e+00	0.00000e+00	0.00000e+00	0.00000e+00	0.00000e+00	
Factor	1.00000e+00	1.00000e+00	1.00000e+00	1.00000e+00	1.00000e+00	1.00000e+00	1.00000e+00	1.00000e+00	1.00000e+00	1.00000e+00	1.00000e+00	1.00000e+00	1.00000e+00	1.00000e+00	1.00000e+00	1.00000e+00	1.00000e+00	1.00000e+00	1.00000e+00	1.00000e+00	1.00000e+00	1.00000e+00	1.00000e+00	1.00000e+00	1.00000e+00	1.00000e+00	1.00000e+00	1.00000e+00	1.00000e+00	1.00000e+00	1.00000e+00	1.00000e+00	X	X	X	X	X	X	X	X	X	X	X	X	X	X	X	X	

B = Detector Channel
Val Type	B-AC1	B-AC2	B-AC3	B-AC4	B-AC5	B-AC6	B-AC7	B-AC8	B-AC9	B-AC10	B-AC11	B-AC12	B-AC13	B-AC14	B-AC15	B-AC16	B-DC1	B-DC2	B-DC3	B-DC4	B-DC5	B-DC6	B-DC7	B-DC8	B-DC9	B-DC10	B-DC11	B-DC12	B-DC13	B-DC14	B-DC15	B-DC16	B-Ph1	B-Ph2	B-Ph3	B-Ph4	B-Ph5	B-Ph6	B-Ph7	B-Ph8	B-Ph9	B-Ph10	B-Ph11	B-Ph12	B-Ph13	B-Ph14	B-Ph15	B-Ph16	

Term	0.00000e+00	0.00000e+00	0.00000e+00	0.00000e+00	0.00000e+00	0.00000e+00	0.00000e+00	0.00000e+00	0.00000e+00	0.00000e+00	0.00000e+00	0.00000e+00	0.00000e+00	0.00000e+00	0.00000e+00	0.00000e+00	0.00000e+00	0.00000e+00	0.00000e+00	0.00000e+00	0.00000e+00	0.00000e+00	0.00000e+00	0.00000e+00	0.00000e+00	0.00000e+00	0.00000e+00	0.00000e+00	0.00000e+00	0.00000e+00	0.00000e+00	0.00000e+00	-2.42741e+02	-1.55801e+02	-1.30442e+02	-1.82481e+02	-9.91373e+01	-5.97705e+01	-1.57793e+02	-1.62015e+02	-9.26830e+01	-6.05605e+01	-1.71410e+02	-1.70576e+02	-1.81136e+02	-1.76213e+02	-8.41416e+01	-1.49482e+02	
Factor	4.89592e-05	1.01473e-04	2.92524e-05	1.62080e-01	9.51960e-07	1.04877e-06	1.53107e-01	3.99569e-02	1.07762e-06	9.79278e-07	7.00297e-02	2.41918e-02	1.94195e-02	6.96819e-03	1.13135e-06	1.01434e-02	1.01517e-06	1.04419e-06	2.90279e-07	8.40594e-02	1.13893e-08	1.14537e-08	7.45432e-02	2.08403e-02	1.13918e-08	1.14551e-08	3.47523e-02	1.20131e-02	1.01154e-02	3.62274e-03	1.14149e-08	5.06097e-03	X	X	X	X	X	X	X	X	X	X	X	X	X	X	X	X	



#DISTANCE SETTINGS
A = Detector Channel
A-1	A-2	A-3	A-4	A-5	A-6	A-7	A-8	A-9	A-10	A-11	A-12	A-13	A-14	A-15	A-16	

2.5000e+00	3.0000e+00	2.5000e+00	3.0000e+00	2.0000e+00	3.0000e+00	1.5000e+00	3.0000e+00	3.0000e+00	3.0000e+00	3.0000e+00	3.0000e+00	3.0000e+00	3.0000e+00	1.5000e+00	3.0000e+00	

B = Detector Channel
B-1	B-2	B-3	B-4	B-5	B-6	B-7	B-8	B-9	B-10	B-11	B-12	B-13	B-14	B-15	B-16	

1.0000e+01	1.0000e+01	1.0000e+01	1.4400e+00	1.0000e+01	1.0000e+01	1.5100e+00	1.9400e+00	1.0000e+01	1.0000e+01	1.9900e+00	2.4900e+00	2.4100e+00	2.9000e+00	1.0000e+01	2.9800e+00	




#DATA BEGINS
time	group	step	mark	flag	A-AC1	A-AC2	A-AC3	A-AC4	A-AC5	A-AC6	A-AC7	A-AC8	A-AC9	A-AC10	A-AC11	A-AC12	A-AC13	A-AC14	A-AC15	A-AC16	A-DC1	A-DC2	A-DC3	A-DC4	A-DC5	A-DC6	A-DC7	A-DC8	A-DC9	A-DC10	A-DC11	A-DC12	A-DC13	A-DC14	A-DC15	A-DC16	A-Ph1	A-Ph2	A-Ph3	A-Ph4	A-Ph5	A-Ph6	A-Ph7	A-Ph8	A-Ph9	A-Ph10	A-Ph11	A-Ph12	A-Ph13	A-Ph14	A-Ph15	A-Ph16	B-AC1	B-AC2	B-AC3	B-AC4	B-AC5	B-AC6	B-AC7	B-AC8	B-AC9	B-AC10	B-AC11	B-AC12	B-AC13	B-AC14	B-AC15	B-AC16	B-DC1	B-DC2	B-DC3	B-DC4	B-DC5	B-DC6	B-DC7	B-DC8	B-DC9	B-DC10	B-DC11	B-DC12	B-DC13	B-DC14	B-DC15	B-DC16	B-Ph1	B-Ph2	B-Ph3	B-Ph4	B-Ph5	B-Ph6	B-Ph7	B-Ph8	B-Ph9	B-Ph10	B-Ph11	B-Ph12	B-Ph13	B-Ph14	B-Ph15	B-Ph16	aux-1	digaux	

2147.379	1	1	0	256	0.098239	0.34208	0.13599	0.20903	0.17367	0.23092	0.24795	0.084665	0.13148	0.21231	0.057186	0.13522	0.24347	0.23621	0.38317	0.18134	-1.6313	-1.2583	-1.2667	-1.9854	-0.95208	-1.6958	-1.7687	-1.0167	-1.9333	-1.3042	-1.2917	-1.9167	-0.96042	-1.7917	-1.5729	-1.2938	166.365	190.980	39.638	60.623	-25.629	-18.509	-100.667	71.327	-117.334	-57.228	-151.094	-90.362	-111.414	-140.192	129.566	99.839	0.0020811	0.00074558	7.8122e-05	358.46	1.2811e-05	1.4213e-06	530.84	160.52	9.295e-06	8.7154e-06	248.8	116.71	77.635	47.015	1.1011e-05	68.285	0.00066624	0.00065071	0.00018146	372.8	7.1503e-06	7.1839e-06	524.97	159.07	7.3336e-06	7.106e-06	244.19	111.55	75.91	44.835	7.1507e-06	64.168	87.383	11.005	16.007	-140.593	-71.750	122.290	-142.036	-134.610	-37.832	8.371	-137.948	-134.570	-130.676	-126.811	-54.107	-131.624	-8191	255	
2147.475	1	1	0	0	0.26134	0.068751	0.34994	0.35554	0.36292	0.055728	0.19215	0.20378	0.14362	0.31981	0.28635	0.050211	0.32148	0.12267	0.19243	0.22492	-1.4333	-1.1583	-1.0333	-1.9062	-1.0083	-1.4875	-1.95	-1.0708	-1.8896	-1.425	-1.3604	-2.0854	-1.3604	-1.4604	-1.85	-1.1562	7.565	41.229	156.123	135.451	84.696	78.254	170.520	-151.579	-78.396	178.350	-120.404	168.923	185.942	176.750	-47.073	94.815	0.0016707	0.001053	8.2285e-05	356.55	8.8549e-06	5.8459e-06	531.52	161.55	1.1654e-05	1.3434e-05	250.33	117.24	77.581	47.081	1.2821e-05	67.976	0.00067272	0.00065258	0.00018128	372.41	7.0394e-06	7.198e-06	526.58	159.55	7.2196e-06	7.1635e-06	244.43	111.67	75.815	44.802	7.1328e-06	63.808	89.117	-79.783	146.370	-140.738	-47.847	-20.896	-141.729	-134.426	-106.600	42.474	-137.857	-134.505	-130.613	-126.390	-16.828	-131.535	-8191	255	
2147.571	1	1	0	0	0.28536	0.36117	0.25735	0.31369	0.25004	0.12394	0.2977	0.31093	0.12624	0.36068	0.22282	0.25456	0.20489	0.27556	0.16041	0.3232	-1.5063	-1.4292	-1.1917	-2.1562	-0.96458	-1.4562	-1.7375	-0.89583	-1.7062	-1.6396	-1.1313	-1.85	-1.1479	-1.4667	-1.8687	-1.2625	199.346	-57.452	-13.349	137.715	-117.820	-144.955	-1.042	137.125	-57.536	33.578	125.670	150.130	-122.502	192.990	106.855	176.993	0.0017319	0.00019506	0.00013606	357.21	3.6418e-06	3.6606e-06	532.48	161.1	2.18e-06	4.6602e-06	250.61	116.38	77.438	47.067	1.9137e-06	67.683	0.00066872	0.00064757	0.00018078	373.68	6.9917e-06	7.0908e-06	526.41	159.06	7.1928e-06	7.0601e-06	243.6	111.25	75.792	44.695	7.1252e-06	63.56	90.575	-72.086	-127.766	-140.238	-36.865	-79.017	-141.644	-134.175	23.891	7.205	-137.826	-134.478	-130.384	-126.665	-20.477	-131.444	-8191	255	
2147.668	1	1	0	0	0.1522	0.19382	0.11083	0.39107	0.011573	0.23409	0.15097	0.24562	0.16348	0.19393	0.23905	0.23334	0.12685	0.16025	0.31515	0.44351	-1.4458	-1.5833	-1.0854	-1.9438	-1.1708	-1.2938	-2.0146	-1.1292	-1.4208	-1.5792	-1.0292	-2.0458	-1.4083	-1.3729	-2.0271	-1.1167	-60.639	29.366	-146.067	143.080	-21.990	-130.599	-135.655	110.222	1.170	55.066	195.106	155.334	147.331	100.782	-125.021	172.350	0.0017298	4.4477e-05	8.7065e-05	359.99	2.562e-06	5.2459e-06	535.3	160.37	3.5029e-06	8.23e-06	248.2	115.51	77.153	47.107	1.0809e-05	67.58	0.00066365	0.00064037	0.00017879	373.68	7.0176e-06	7.1053e-06	525.47	158.87	7.0636e-06	7.0728e-06	243.12	110.76	75.559	44.587	7.1348e-06	63.488	88.299	-97.671	103.381	-139.946	-89.973	-32.925	-141.909	-134.425	50.091	-11.847	-137.404	-134.312	-130.457	-126.540	-34.530	-132.035	-8191	255	
2147.762	1	1	0	0	0.20321	0.19863	0.25661	0.028437	0.073946	0.21614	0.24355	0.24683	0.26754	0.21615	0.16996	0.26483	0.16486	0.16708	0.097976	0.26565	-1.0604	-1.6875	-0.80417	-1.9042	-1.4896	-1.0708	-2.0604	-1.0542	-1.6208	-1.9021	-1.0375	-1.9042	-1.4562	-1.2667	-1.975	-1.2646	147.531	106.997	-113.126	189.923	133.774	187.172	59.811	185.154	28.419	174.098	73.994	191.836	131.016	36.961	154.098	-149.201	0.0020938	0.00059552	0.00039	357.55	5.7415e-06	6.7843e-06	535.36	160.7	8.6182e-06	1.9708e-06	250.72	116.37	76.992	47.104	6.4085e-06	67.994	0.00066402	0.00064655	0.00017845	373.73	7.1265e-06	7.0763e-06	525	158.72	7.0957e-06	7.1438e-06	244.15	111.14	75.499	44.692	7.2453e-06	63.941	90.803	-110.369	-127.924	-139.803	205.786	36.326	-142.041	-134.630	205.975	-38.742	-138.027	-134.297	-130.509	-126.845	72.887	-131.838	-8191	255	
2147.858	1	1	0	0	0.11874	0.073576	0.20248	0.17036	0.11633	0.22407	0.23821	0.23123	0.36131	0.13375	0.38172	0.25813	0.030271	0.077661	0.093169	0.28355	-1.0063	-1.8375	-0.95208	-1.725	-1.6271	-1.2229	-1.9688	-1.2396	-1.2771	-1.7958	-1.0667	-1.8875	-1.6792	-1.1063	-1.725	-1.2375	23.972	132.271	65.362	5.576	-49.802	-63.660	66.796	-6.987	33.508	-145.045	82.046	166.191	95.824	-78.429	-139.532	172.684	0.0018543	0.0004208	0.00013508	358.88	3.276e-06	1.0492e-05	533.19	159.46	1.8939e-06	9.2094e-06	251.63	117.16	77.019	46.957	1.9294e-06	68.102	0.00065997	0.00065465	0.00018023	373.1	7.0976e-06	7.1345e-06	526.93	158.75	7.1811e-06	7.2449e-06	244.95	111.95	75.757	44.796	7.262e-06	63.983	93.187	-130.340	-124.311	-139.599	57.740	-80.533	-141.939	-134.427	-114.270	29.731	-137.693	-134.222	-130.317	-126.424	-108.737	-131.805	-8191	255	
2147.954	1	1	0	0	0.15931	0.16333	0.15895	0.21936	0.12868	0.21197	0.24121	0.072358	0.088262	0.16965	0.12659	0.11653	0.076239	0.053407	0.36521	0.013328	-0.76042	-1.8312	-0.97708	-1.3771	-1.6063	-0.76875	-1.9167	-1.3479	-0.88542	-1.775	-1.0938	-1.6896	-1.6688	-1.1354	-1.825	-1.5125	-63.733	90.637	62.056	169.407	26.503	-150.127	132.043	146.827	-104.322	89.720	-107.332	170.293	207.107	-96.076	-76.189	179.911	0.0018216	0.00015684	0.00023306	357.54	3.7659e-06	1.0612e-05	531.95	160.26	3.0438e-06	7.3115e-06	249.53	116.6	77.039	47.172	2.851e-06	67.69	0.000659	0.00066086	0.00017995	372.68	7.1317e-06	7.0862e-06	527.76	158.84	7.0556e-06	7.2878e-06	243.82	111.38	75.863	44.678	7.2069e-06	63.786	95.133	154.340	-23.887	-139.924	37.178	12.790	-141.767	-134.402	103.645	10.925	-138.151	-134.466	-130.502	-126.575	-138.645	-131.966	-8191	255	
2148.075	1	1	0	0	0.265	0.10435	0.26249	0.17423	0.069451	0.14567	0.13605	0.14524	0.24364	0.12513	0.23763	0.35597	0.12921	0.059518	0.2903	0.33374	-0.69583	-1.8646	-1.0979	-1.4083	-1.7167	-1.0271	-1.6917	-1.5375	-1.0292	-1.8813	-1.3667	-1.3292	-1.7896	-1.0479	-1.7313	-1.6583	-101.754	150.727	-119.725	203.408	15.876	189.145	55.484	152.574	-81.202	-150.747	-136.385	174.347	167.888	45.788	135.037	188.166	0.0010308	0.00031838	0.00016047	357.81	6.035e-06	1.3358e-06	535.19	160.7	2.404e-06	7.7519e-06	250.09	116.69	77.847	47.302	7.2087e-06	67.91	0.0006479	0.00066713	0.0001789	372.43	7.1679e-06	7.1465e-06	526.4	159.32	7.0819e-06	7.2487e-06	243.65	111.64	76.025	44.933	7.1449e-06	63.906	77.671	-40.397	61.515	-139.857	-57.505	39.883	-141.733	-134.417	40.475	-67.526	-137.897	-134.495	-130.495	-126.607	-122.416	-132.168	-8191	255	
2148.171	1	1	0	0	0.29751	0.039283	0.075188	0.19643	0.15266	0.23502	0.042914	0.11424	0.12253	0.065822	0.2788	0.099004	0.083647	0.012247	0.24886	0.289	-0.72917	-1.9292	-1.1583	-1.1208	-1.6896	-0.99167	-1.8312	-1.7521	-0.90208	-1.75	-1.3729	-1.275	-2.0917	-1.2167	-1.4792	-1.8896	-61.524	105.315	150.480	76.606	-61.884	-29.949	108.438	155.361	111.119	-99.849	174.570	128.100	-60.298	-120.559	-22.284	166.066	0.0017661	0.00028567	0.00014677	355.09	3.6082e-06	4.7677e-06	536.27	161.22	3.9898e-06	1.0728e-05	249.74	116.95	77.507	47.278	1.021e-05	68.481	0.00065117	0.00065926	0.00018082	371.63	7.2433e-06	7.0773e-06	527.4	159.27	7.0698e-06	7.3002e-06	244.74	111.96	76.399	44.964	7.1391e-06	64.434	93.728	-109.736	-35.391	-140.083	-99.851	-66.888	-141.695	-134.448	48.285	-11.467	-137.583	-133.728	-130.478	-126.792	-21.392	-131.906	-8191	255	
2148.267	1	1	0	0	0.16196	0.094688	0.045687	0.24396	0.26375	0.30575	0.34921	0.21124	0.19407	0.14658	0.070227	0.23788	0.035448	0.17324	0.18097	0.1935	-0.4625	-1.7792	-1.25	-1.2354	-1.9167	-1.0208	-1.4312	-1.8188	-1.1396	-1.9146	-1.7292	-1.0812	-1.8104	-1.1771	-1.4458	-1.9646	-53.822	45.703	57.542	171.301	-58.156	-19.701	109.782	169.012	47.709	140.142	162.344	196.862	-105.193	194.964	202.687	186.875	0.0018132	0.00081065	0.00031913	354.74	4.906e-06	2.9372e-06	532.58	160.76	7.9382e-06	2.6375e-06	250.89	118.26	78.246	47.518	4.9544e-06	69.05	0.00065939	0.00066615	0.00018228	371.99	7.2784e-06	7.1463e-06	527.93	159.79	7.1473e-06	7.3019e-06	245.94	112.87	76.754	45.152	7.2366e-06	64.816	82.851	-138.065	-100.096	-139.682	-23.468	-55.914	-141.616	-134.311	-41.142	82.942	-137.463	-134.094	-129.909	-126.491	151.846	-131.743	-8191	255	
2148.339	1	1	0	0	0.15114	0.12495	0.19396	0.25328	0.2852	0.28834	0.38567	0.28952	0.080651	0.23449	0.17797	0.1127	0.19662	0.078875	0.24647	0.17321	-0.36667	-1.8396	-1.5875	-1.2229	-1.9937	-1.0625	-1.4646	-1.875	-1.1333	-1.7	-1.8396	-1.1812	-2.0333	-1.3396	-1.2646	-2.05	-14.333	2.683	-92.494	80.736	-48.335	-30.340	187.733	199.204	-98.957	-107.453	184.142	-99.624	202.131	-142.377	-102.752	165.948	0.0022915	0.0010043	0.00027639	355.53	2.8609e-06	4.9979e-06	538.67	161.59	1.8956e-06	5.9674e-06	253.62	118.12	78.02	47.223	6.8396e-06	68.967	0.00066232	0.00066589	0.00018236	372.34	7.2653e-06	7.1105e-06	530.89	160.06	7.0876e-06	7.2434e-06	247.06	112.76	76.437	45.066	7.1344e-06	64.757	79.281	-59.869	18.726	-140.482	134.081	10.728	-141.869	-134.692	-53.033	-37.522	-138.208	-133.915	-130.457	-126.480	-0.521	-131.711	-8191	255	
2148.460	1	1	0	0	0.14822	0.10731	0.1043	0.13257	0.061185	0.30169	0.244	0.40171	0.073744	0.18475	0.17979	0.24536	0.24769	0.10557	0.17351	0.36398	-0.77917	-1.6083	-1.7229	-1.0125	-1.8312	-1.3438	-1.2188	-1.9021	-0.94792	-1.5271	-1.6917	-1.1083	-1.8021	-1.4729	-0.95	-1.9896	-106.506	-115.187	4.879	-61.375	-42.049	-29.676	99.531	-132.638	136.643	-137.962	-138.546	168.288	110.228	185.522	54.967	136.783	0.0019511	0.00076961	0.00020207	354.13	8.4327e-06	1.2021e-05	534.27	160.83	1.3538e-05	9.0729e-06	250.51	117.84	77.657	47.135	7.4252e-07	68.877	0.00065177	0.00065181	0.00017961	371.12	7.2192e-06	7.0601e-06	526.27	159.53	7.1234e-06	7.1172e-06	244.68	112.03	76.101	44.98	7.0246e-06	64.438	82.158	205.892	65.693	-139.873	-54.511	35.509	-141.700	-134.260	-50.897	-47.944	-138.345	-134.399	-130.024	-126.711	129.962	-131.790	-8191	255	
2148.556	1	1	0	0	0.071372	0.13321	0.25513	0.15639	0.29898	0.082446	0.11369	0.11586	0.25341	0.20143	0.16092	0.26495	0.081812	0.21464	0.040081	0.13634	-0.83125	-1.3917	-1.6479	-0.81875	-1.7667	-1.4167	-1.2938	-2.0333	-1.0187	-1.4354	-1.7167	-0.99583	-2.0833	-1.6458	-1.0396	-1.9438	-64.736	-91.676	-151.842	159.517	-41.731	139.818	180.918	-121.731	68.124	33.800	-18.069	122.754	10.047	176.888	138.867	-108.922	0.0018038	0.00061362	6.535e-05	357	4.5722e-06	5.1616e-06	535.06	161.69	3.8793e-06	1.1712e-05	250.4	117.51	77.359	47.416	1.1717e-05	68.679	0.00066341	0.00064885	0.00018077	371.89	7.2199e-06	7.0937e-06	527.25	159.79	7.0312e-06	7.0919e-06	245.13	112.13	76.269	45.022	7.1669e-06	64.575	85.455	-99.482	-40.007	-140.545	-143.789	-97.703	-141.822	-134.394	65.965	-43.917	-137.595	-134.221	-129.839	-126.886	-121.409	-131.638	-8191	255	
2148.650	1	1	0	0	0.16951	0.31952	0.2531	0.065482	0.030658	0.059343	0.078908	0.25699	0.12902	0.096216	0.070353	0.17061	0.27401	0.066125	0.29601	0.20109	-0.75625	-1.2854	-1.7979	-0.94167	-1.7188	-1.7	-1.1417	-2.0375	-1.2583	-1.3104	-1.95	-1.1229	-1.8167	-1.9146	-0.99792	-2.0187	-45.746	-125.723	-100.944	-52.040	127.986	27.108	172.104	40.324	-15.581	180.665	177.818	114.853	132.260	-105.846	137.485	124.023	0.0015466	0.00054987	0.00020428	353.96	4.859e-06	1.9775e-06	535.01	161.65	3.5369e-06	2.3583e-06	251.31	118.11	78.385	47.414	5.0864e-06	69.329	0.00065992	0.00065777	0.0001833	371.02	7.2449e-06	7.1029e-06	526.93	160.11	7.0429e-06	7.0996e-06	245.72	112.43	76.618	45.102	7.1794e-06	64.902	109.092	-1.324	-22.283	-140.016	-0.144	35.811	-141.963	-134.073	-48.477	-92.129	-137.935	-134.307	-130.181	-126.789	19.507	-131.789	-8191	255	
2148.771	1	1	0	0	0.067287	0.24347	0.15428	0.20112	0.072771	0.22512	0.14755	0.23473	0.31325	0.31506	0.25498	0.090763	0.11262	0.1249	0.074678	0.043061	-0.96042	-1.0875	-1.8438	-0.93333	-1.6479	-1.675	-0.92292	-1.7479	-1.3896	-1.0854	-1.9083	-1.2021	-1.4354	-1.9333	-1.05	-1.9312	56.944	-60.739	3.699	49.332	74.398	37.641	169.789	199.322	33.058	-106.128	137.950	164.016	121.972	84.494	93.464	-124.125	0.0018253	0.0011594	0.00020091	356.52	2.8674e-06	1.581e-05	538.34	161.96	8.456e-06	5.143e-06	252.52	119.33	78.66	47.882	1.7965e-06	69.497	0.00066369	0.00065638	0.00018726	373.48	7.2835e-06	7.2533e-06	530.4	160.58	7.1905e-06	7.272e-06	247.33	113.39	77.076	45.453	7.2596e-06	65.423	87.889	-120.453	-142.241	-140.464	55.479	60.408	-141.845	-134.019	-64.120	-1.555	-137.839	-134.463	-130.384	-126.499	16.999	-131.643	-8191	255	
2148.867	1	1	0	0	0.18705	0.13807	0.24899	0.1296	0.17883	0.19829	0.34645	0.21115	0.06412	0.3168	0.096172	0.35313	0.25408	0.29901	0.27109	0.32755	-1.1604	-1.0333	-1.7625	-0.99375	-1.4792	-1.8542	-1.0604	-1.6917	-1.5417	-1.1458	-1.9729	-1.1812	-1.3563	-1.9875	-0.92917	-1.7979	69.871	186.578	-72.167	106.515	-135.740	-29.525	58.407	-82.431	202.905	151.549	-141.618	190.161	-142.662	132.509	121.085	-138.700	0.0019311	0.00025344	7.5681e-05	356.85	6.9659e-06	5.8563e-06	541.59	162.18	2.3225e-06	6.5102e-06	253.05	118.67	78.48	47.577	2.1668e-06	69.887	0.00066127	0.00066129	0.00018866	371.88	7.285e-06	7.2967e-06	532.98	160.68	7.3085e-06	7.2142e-06	247.82	113.55	76.773	45.36	7.1816e-06	65.379	91.490	-15.271	26.409	-140.113	-138.833	143.755	-142.191	-134.599	-29.108	-52.235	-137.834	-134.402	-130.274	-126.465	-123.556	-131.549	-8191	255	
2148.939	1	1	0	0	0.20897	0.17771	0.061468	0.16705	0.063855	0.060535	0.075604	0.033284	0.062481	0.2494	0.074954	0.61049	0.04492	0.27293	0.23258	0.041661	-1.3583	-1.0167	-1.9583	-1.3333	-1.2521	-1.9125	-1.1104	-1.6729	-1.4833	-1.1083	-1.8312	-1.3125	-1.2729	-2.1292	-1.0854	-1.8062	-109.160	71.269	-127.653	121.882	-64.306	-146.582	78.159	140.486	-150.612	9.342	124.683	184.773	-142.120	-145.507	91.053	68.490	0.0018403	0.0010622	0.00027425	359.72	5.0791e-06	4.1059e-06	536.81	162.72	3.9682e-06	7.6699e-06	252.37	118.52	77.997	47.479	7.4776e-06	69.066	0.00066688	0.00065646	0.000187	373.41	7.1285e-06	7.2634e-06	530.17	160.43	7.1747e-06	7.1245e-06	247.13	112.77	76.53	45.114	7.1166e-06	64.718	85.867	-47.162	-20.513	-140.281	-66.652	46.538	-141.985	-133.949	-142.647	-4.078	-137.536	-134.450	-130.343	-126.522	-73.049	-131.746	-8191	255	
2149.059	1	1	0	0	0.34841	0.18809	0.18308	0.16662	0.12779	0.23086	0.090982	0.15896	0.12467	0.26045	0.024342	0.16875	0.37958	0.2164	0.13721	0.4255	-1.2792	-0.90833	-1.7583	-1.3958	-1.0417	-1.875	-1.1417	-1.4937	-1.7958	-1.0938	-1.8542	-1.4562	-1.2	-2.2188	-1.25	-1.7667	56.438	13.084	-129.165	183.240	39.852	64.061	47.127	165.284	-141.522	11.160	-112.079	90.339	188.091	71.186	-105.339	156.034	0.0013816	0.00079323	0.00014388	356.89	4.3874e-06	7.347e-06	538.05	162.45	2.4488e-06	3.6098e-06	249.9	117.35	77.279	47.139	3.2022e-06	68.408	0.00066019	0.00065152	0.00018489	372.79	7.1425e-06	7.2858e-06	527.97	160.4	7.1528e-06	7.1245e-06	245.04	111.91	76.037	44.916	7.0969e-06	64.373	83.224	205.365	144.189	-140.097	71.826	-34.355	-142.014	-134.416	-59.656	-86.421	-137.640	-134.339	-129.997	-126.393	27.634	-131.820	-8191	255	
2149.154	1	1	0	0	0.22018	0.32622	0.16684	0.09901	0.1023	0.056756	0.15248	0.016305	0.35806	0.17965	0.24086	0.44887	0.33716	0.2254	0.10754	0.40017	-1.4042	-0.81667	-1.6437	-1.5646	-1.1646	-2.0271	-1.3229	-1.2333	-1.8354	-1.1042	-1.7521	-1.6083	-1.0021	-1.9146	-1.1646	-1.2812	173.261	-79.941	-52.760	-31.367	-61.697	-128.641	149.158	102.099	-70.909	112.829	198.429	149.155	197.608	-131.517	29.373	183.038	0.0017808	0.00092276	0.00013302	353.41	3.3888e-06	3.3509e-06	533.05	160.83	9.6143e-06	3.2514e-06	250.08	115.92	77.256	46.992	4.8058e-06	68.169	0.00066816	0.00065593	0.00018496	370.98	7.1513e-06	7.2247e-06	527.05	159.02	7.1394e-06	7.2018e-06	244.69	111.45	75.611	44.885	7.1125e-06	64.358	99.691	-56.841	119.156	-139.894	135.240	20.126	-141.989	-134.083	-29.137	-23.736	-137.419	-134.432	-130.415	-126.712	-79.372	-131.680	-8191	255	
2149.250	1	1	0	0	0.053478	0.14626	0.062278	0.14532	0.11894	0.23971	0.058375	0.19947	0.22032	0.11475	0.16359	0.30964	0.050088	0.27287	0.10097	0.31001	-1.4458	-0.9	-1.6333	-1.8125	-1.0979	-1.8687	-1.5312	-1.1396	-2.0625	-1.1792	-1.7208	-1.6354	-1.0229	-2.0021	-1.2708	-1.2458	173.843	-9.189	-20.019	-41.951	-7.653	-75.295	18.181	-147.676	-34.458	-85.393	158.759	206.726	-125.112	169.891	160.199	142.038	0.0016873	0.00056757	0.00020973	356.29	5.3178e-06	1.4339e-06	531.95	160.94	4.8347e-06	7.4704e-06	252.07	117.32	76.593	47.02	2.2042e-06	69.016	0.00067214	0.0006542	0.00018219	373.52	7.1593e-06	7.3826e-06	527.51	158.76	7.2536e-06	7.1546e-06	246.41	112.19	75.426	44.853	7.1e-06	64.837	95.576	-112.048	-54.309	-140.085	42.328	202.104	-142.324	-134.225	-24.060	44.997	-137.999	-134.375	-130.330	-126.476	-70.358	-131.457	-8191	255	
2149.370	1	1	0	0	0.25611	0.16617	0.12114	0.15587	0.136	0.077484	0.16083	0.13401	0.26826	0.1472	0.035472	0.22819	0.018878	0.18006	0.27831	0.10644	-1.7083	-1.2542	-1.5667	-1.825	-0.82917	-1.8062	-1.7396	-1.2729	-1.95	-1.2417	-1.5792	-1.8333	-1.1646	-1.9396	-1.4667	-1.1792	-108.396	-132.569	107.127	33.763	32.607	-127.915	-107.982	173.146	110.812	-53.559	40.268	61.176	194.469	-132.154	105.032	206.464	0.0022107	0.00054572	0.00016771	356.22	5.2354e-06	3.8469e-06	537.54	163.88	3.047e-06	3.6729e-06	252.67	117.89	78.112	47.307	5.2239e-06	69.137	0.00066764	0.00065214	0.00018239	372	7.0884e-06	7.2337e-06	528.79	160.04	7.2341e-06	7.0058e-06	246.81	112.7	76.465	45.125	7.0527e-06	64.801	94.866	-85.951	-72.496	-140.361	-12.351	128.270	-141.773	-134.309	-76.954	-31.058	-137.765	-134.278	-130.028	-126.462	13.836	-131.549	-8191	255	
2149.466	1	1	0	0	0.12408	0.12471	0.069418	0.1469	0.098996	0.20859	0.091812	0.13746	0.17092	0.24505	0.28958	0.14253	0.10198	0.21757	0.11549	0.17762	-1.5354	-1.2521	-1.1187	-1.8958	-0.90208	-1.5542	-1.7521	-0.94792	-1.7333	-1.3646	-1.5625	-2.1437	-0.94583	-1.8208	-1.5688	-1.1083	84.644	-70.650	141.886	21.798	-56.169	180.936	187.646	176.431	198.822	106.876	166.486	-114.559	25.626	199.475	-55.374	117.488	0.0017842	0.00093572	9.7303e-05	355.57	8.8575e-06	8.1443e-06	535.19	162.7	1.2443e-05	4.7014e-06	255.75	119.18	78.188	47.446	9.355e-06	69.263	0.00066091	0.00063431	0.00018017	372.1	7.0316e-06	7.18e-06	528.61	159.8	7.2112e-06	7.0938e-06	248.08	113.44	76.576	45.263	7.0775e-06	65.226	89.990	-32.448	44.216	-140.102	-77.983	102.493	-142.032	-134.359	-48.459	-21.879	-137.517	-134.302	-130.166	-126.318	-84.944	-131.745	-8191	255	
2149.538	1	1	0	0	0.099499	0.014305	0.055379	0.10481	0.18089	0.2121	0.13551	0.19249	0.15806	0.36584	0.17089	0.081182	0.079615	0.31933	0.22377	0.28682	-1.5667	-1.2604	-1.0354	-1.9083	-0.94167	-1.4542	-1.8312	-1.2458	-1.8875	-1.4396	-1.4271	-2.0208	-1.125	-1.5771	-2	-1.1604	-5.713	-121.753	-14.686	66.852	-134.665	-1.915	187.555	190.423	-35.599	4.336	-112.347	-109.967	-46.510	-134.269	-49.318	113.415	0.0018151	0.00036243	0.00031748	357.21	1.8072e-06	9.8343e-06	538.49	162.8	1.4522e-05	4.6659e-06	254.82	119.85	79.097	47.755	5.3968e-06	69.859	0.00066797	0.00064631	0.00018114	373.19	7.0259e-06	7.1216e-06	530.94	160.64	7.1793e-06	7.0494e-06	248.34	114.37	77.028	45.529	7.1499e-06	65.451	90.977	2.715	-73.762	-140.362	-1.397	24.033	-142.082	-134.588	42.878	108.575	-137.892	-134.112	-130.260	-126.484	0.547	-131.656	-8191	255	
2149.634	1	1	0	0	0.17452	0.093224	0.31989	0.19473	0.21829	0.18232	0.31151	0.20175	0.24133	0.074328	0.35257	0.26286	0.25043	0.27289	0.21467	0.44053	-1.3042	-1.325	-1.0771	-1.8708	-1.0771	-1.4958	-1.9958	-1.05	-1.675	-1.5292	-1.3146	-2.1354	-1.15	-1.4667	-1.7917	-1.2542	39.937	39.866	-19.599	129.042	188.152	54.888	180.979	78.119	-24.195	159.992	177.458	74.584	141.713	181.410	163.606	100.168	0.001754	0.00080362	0.00033307	354.71	3.2189e-06	3.8554e-06	539.88	163.66	1.5865e-05	9.041e-06	254.08	120.55	78.137	48.16	1.7302e-05	70.15	0.00066462	0.00065207	0.0001813	373.61	7.0901e-06	7.1279e-06	531.01	160.99	7.183e-06	7.1623e-06	248.65	114.82	76.785	45.707	7.1622e-06	65.938	81.614	-48.225	-93.925	-140.192	168.381	24.033	-141.766	-134.521	-23.735	-123.635	-137.591	-134.513	-130.216	-126.628	28.269	-131.975	-8191	255	
2149.755	1	1	0	0	0.22503	0.093547	0.25434	0.074776	0.21756	0.27314	0.12928	0.11041	0.091408	0.13912	0.063539	0.25089	0.049029	0.20104	0.093959	0.26891	-1.2583	-1.75	-0.89792	-2.0542	-1.25	-1.1396	-2.0021	-1.225	-1.8354	-1.6187	-1.1854	-2.0167	-1.4104	-1.2042	-1.9104	-1.1771	-53.453	200.749	108.699	154.518	48.110	104.862	100.165	32.224	29.128	31.257	153.505	140.466	-150.284	154.930	-140.551	128.007	0.0014496	0.00065783	7.5233e-05	355.76	7.6414e-06	6.8938e-06	537.13	162.24	3.6497e-06	6.0986e-06	255.4	120	78.753	48.11	3.4832e-06	70.456	0.0006683	0.00065625	0.00018055	374.43	7.0449e-06	7.1848e-06	531.85	160.16	7.223e-06	7.1582e-06	248.76	114.78	76.834	45.679	7.1644e-06	66.084	87.730	-133.738	-1.232	-140.014	-27.574	-72.159	-141.854	-134.195	57.455	105.547	-138.003	-134.249	-130.437	-126.467	175.266	-131.870	-8191	255	
2149.851	1	1	0	0	0.24705	0.095363	0.21767	0.089528	0.10265	0.27388	0.16669	0.30067	0.032526	0.10819	0.17657	0.11159	0.065639	0.25097	0.16491	0.21819	-1.2	-1.7958	-0.9125	-1.8958	-1.4729	-1.1375	-1.8771	-1.1708	-1.5729	-1.85	-1.1646	-1.9688	-1.5375	-1.0458	-2.0438	-1.1917	-38.270	-142.862	-89.722	125.796	-125.645	75.296	120.556	-104.414	82.576	-98.501	-64.522	-113.016	121.449	141.341	-63.120	192.128	0.00181	0.0009097	0.00015557	356.41	5.266e-06	5.3215e-06	542.63	161.88	4.0594e-06	5.3132e-06	250.38	119.18	78.282	47.925	1.3114e-06	70.028	0.00065975	0.00065318	0.00017808	373.5	6.9924e-06	7.1027e-06	530.77	159.26	7.1676e-06	7.1174e-06	246.71	113.38	76.3	45.304	7.1486e-06	65.442	72.213	13.705	-89.408	-140.500	-75.443	42.324	-142.237	-134.907	48.872	39.325	-137.353	-134.004	-130.289	-126.763	-21.622	-131.899	-8191	255	
2149.947	1	1	0	0	0.11965	0.15737	0.18762	0.20136	0.20639	0.16442	0.036944	0.21253	0.11475	0.16544	0.047342	0.0084344	0.14973	0.09749	0.1244	0.45955	-0.99375	-1.7833	-0.9625	-1.8708	-1.725	-0.95417	-1.9854	-1.3479	-1.225	-1.6938	-0.91875	-1.8188	-1.6521	-1.05	-1.9896	-1.3438	-35.894	-30.884	192.184	122.569	152.649	139.664	12.360	200.078	-102.097	156.426	-151.193	159.419	75.985	155.019	163.596	126.708	0.0014913	0.00071197	0.00019469	355.37	4.0769e-06	1.1501e-05	537.35	161.63	6.0854e-06	3.834e-06	252.52	118.55	78.324	47.625	3.6817e-06	69.358	0.00065691	0.00064491	0.00017885	372	7.0923e-06	7.0466e-06	529.61	159.15	7.101e-06	7.2083e-06	246.26	113.1	76.381	45.241	7.1412e-06	65.27	90.087	-57.520	4.934	-140.357	-13.717	-20.770	-141.792	-134.362	131.179	-127.154	-137.562	-133.783	-130.337	-126.413	-141.267	-131.695	-8191	255	
2150.043	1	1	0	0	0.12675	0.073045	0.17015	0.22089	0.24627	0.11695	0.25531	0.096156	0.10239	0.11156	0.3117	0.10388	0.10555	0.31567	0.22618	0.058307	-0.81458	-2.0167	-1.0729	-1.7083	-1.5	-1.2208	-2.1146	-1.5792	-1.2604	-1.8625	-1.1667	-1.6583	-1.6625	-1.2583	-1.8771	-1.4479	191.959	67.248	109.284	177.356	-94.680	99.709	197.173	196.395	106.674	58.420	-145.394	163.634	143.769	-101.644	-120.397	188.777	0.0017935	0.0008851	0.0001668	357.6	5.5655e-06	1.0568e-05	534.61	161.82	5.228e-06	4.2213e-06	252.26	119.52	77.959	47.697	1.8731e-06	69.428	0.00064913	0.00065647	0.00017773	372.51	7.0716e-06	7.0331e-06	527.6	158.97	7.0962e-06	7.1968e-06	245.76	113.34	76.12	45.316	7.1075e-06	65.458	101.009	-68.848	-81.849	-140.127	23.578	3.506	-141.953	-134.337	22.906	-5.335	-137.546	-133.997	-130.012	-126.563	-39.507	-131.729	-8191	255	
2150.140	1	1	0	0	0.14599	0.03361	0.29059	0.12604	0.19157	0.081918	0.061189	0.19702	0.20772	0.18179	0.26402	0.071692	0.063195	0.23523	0.063792	0.29904	-0.67083	-2.0396	-1.1958	-1.5542	-1.7104	-1.1708	-2.0042	-1.7	-1	-1.8875	-1.1313	-1.5167	-1.9271	-0.99167	-1.8625	-1.7354	-133.052	111.933	188.784	182.274	81.005	34.219	136.975	-49.636	169.478	190.984	-114.664	197.541	93.060	-78.706	-89.852	168.348	0.0017436	0.00068722	2.632e-05	358.98	8.4105e-06	7.4005e-06	537.79	161.04	7.9833e-06	1.4226e-05	251.06	119.99	78.796	47.67	1.0864e-05	70.32	0.00065145	0.00065536	0.00017815	372.84	7.1428e-06	7.0466e-06	528.45	159.03	6.9933e-06	7.1467e-06	246.43	114.09	76.66	45.495	7.1023e-06	66.204	77.766	-101.637	-50.798	-139.689	-132.853	2.979	-141.658	-134.315	-103.981	51.537	-137.693	-134.303	-130.552	-126.460	-94.406	-132.182	-8191	255	
2150.234	1	1	0	0	0.22381	0.089231	0.058932	0.067296	0.10321	0.24962	0.14324	0.26496	0.16416	0.13397	0.17461	0.13353	0.3081	0.030311	0.25424	0.28946	-0.67292	-1.9312	-1.2938	-1.6458	-2.075	-0.98333	-1.9083	-1.6396	-1.0917	-1.8146	-1.3458	-1.1771	-2.025	-1.1021	-1.5438	-2.0104	-140.066	-114.826	-20.068	-108.025	-118.551	206.615	64.230	177.266	12.019	156.781	70.391	-119.281	138.240	184.064	116.632	168.290	0.001922	0.00022767	0.00016689	355.86	7.0456e-06	2.5247e-06	542.24	162.41	4.3095e-06	3.0225e-06	252.22	120.5	78.328	48.116	5.2455e-06	70.914	0.00064994	0.00064977	0.00017767	372.86	7.1156e-06	6.9881e-06	531.73	159.61	6.9793e-06	7.1208e-06	247.46	114.6	76.497	45.65	7.0183e-06	66.497	90.524	195.032	-82.961	-140.156	-30.186	68.682	-141.911	-134.747	154.809	-54.814	-138.006	-134.242	-130.667	-126.847	-151.046	-131.908	-8191	255	
2150.332	1	1	0	0	0.27777	0.18822	0.21585	0.081567	0.15281	0.072351	0.19514	0.10394	0.10551	0.22109	0.21576	0.07024	0.24238	0.043975	0.1331	0.33396	-0.54375	-1.7896	-1.4125	-1.025	-1.9375	-1.2188	-1.6187	-1.9188	-1.1521	-1.9521	-1.5792	-1.25	-1.9813	-1.1646	-1.4104	-2.0458	-133.816	-35.671	-144.773	175.567	125.814	-141.146	119.410	-138.931	50.896	169.973	127.217	111.567	118.130	200.475	-63.450	116.478	0.0023593	0.0013027	0.00014443	358.14	2.0628e-06	3.2346e-06	540.66	162.52	5.3285e-06	1.2621e-05	253.82	120.87	78.646	48.041	7.2618e-06	70.862	0.00064034	0.00064738	0.00017669	370.91	7.0809e-06	6.9271e-06	530.16	159.97	6.9272e-06	7.1347e-06	248.24	114.72	76.975	45.544	7.001e-06	66.488	86.767	-60.090	-16.087	-140.480	49.930	1.697	-141.702	-134.662	-68.839	-2.553	-138.540	-134.306	-130.477	-126.908	-57.857	-132.010	-8191	255	
2150.451	1	1	0	0	0.036141	0.13699	0.13687	0.4283	0.17147	0.076775	0.28129	0.30534	0.16221	0.14137	0.13196	0.23442	0.21797	0.39556	0.15356	0.20812	-0.85208	-1.9146	-1.4229	-1.1646	-1.875	-1.0396	-1.5979	-1.9167	-1.1417	-1.7083	-1.6792	-0.98333	-2.0229	-1.3438	-1.1333	-1.9625	165.040	-112.330	1.512	175.715	-59.082	32.333	82.709	82.671	29.927	118.609	197.071	151.669	201.198	159.684	146.515	26.860	0.0022067	0.0012676	6.7802e-05	359.87	3.6604e-06	7.1177e-06	541.53	163.01	1.273e-05	6.062e-06	255.1	120.19	78.353	48.179	9.4309e-06	70.41	0.00063903	0.0006447	0.00017816	372.08	7.0866e-06	6.9045e-06	531.16	160.27	6.8962e-06	7.0086e-06	247.48	114.45	76.63	45.616	6.9528e-06	66.198	84.385	-62.617	125.145	-140.523	-68.315	103.681	-141.912	-134.764	-43.425	11.810	-138.123	-134.696	-130.289	-127.136	-54.560	-132.040	-8191	255	
2150.547	1	1	0	0	0.094052	0.059768	0.21498	0.091745	0.11092	0.1724	0.040022	0.24686	0.18572	0.32767	0.15708	0.21282	0.41031	0.10657	0.087418	0.36715	-0.66042	-1.7333	-1.4417	-0.975	-1.9375	-1.275	-1.4625	-2.125	-0.94583	-1.4458	-1.7771	-1.0521	-2.0125	-1.4042	-1.1521	-2.1667	93.202	125.413	-68.904	107.995	10.838	173.162	80.901	67.119	-56.143	198.722	-140.855	144.879	173.502	-5.129	25.905	137.139	0.0018748	0.00035494	0.00019631	355.8	9.5139e-06	5.4724e-06	536.3	162.75	6.6678e-06	4.8852e-06	253.6	119.17	77.691	48.083	1.7463e-06	70.883	0.00064238	0.00064246	0.00017586	369.86	6.9049e-06	6.9106e-06	528.16	159.55	6.7165e-06	6.9566e-06	247.65	113.87	76.373	45.538	6.9417e-06	66.343	77.866	-151.593	-32.987	-140.589	-84.692	19.831	-142.295	-134.988	38.114	157.118	-138.232	-134.333	-130.694	-126.889	53.563	-132.032	-8191	255	
2150.643	1	1	0	0	0.12787	0.048584	0.28083	0.29023	0.18059	0.1409	0.16742	0.083811	0.17558	0.21606	0.26077	0.19377	0.1079	0.19666	0.10349	0.078901	-0.68542	-1.4167	-1.4979	-1.1417	-1.775	-1.5	-1.2229	-2.0542	-1.125	-1.5625	-1.9562	-1.1375	-1.9771	-1.4958	-1.1437	-1.9646	-40.960	-152.393	56.173	31.944	-49.217	-72.551	158.552	-67.997	41.325	-76.841	134.796	17.096	-111.283	-105.904	-4.888	166.659	0.0023069	0.0006879	0.00020066	359.04	6.1704e-06	5.058e-06	541.54	163.08	6.358e-06	7.3168e-06	256.4	121.45	78.824	48.248	3.4244e-06	71.331	0.00063741	0.00063311	0.00017559	372.45	6.9492e-06	6.9285e-06	532.66	160.58	6.8825e-06	6.903e-06	250.4	115.32	77.081	45.78	6.9549e-06	66.927	97.246	-116.191	-62.036	-140.231	-96.167	46.608	-141.803	-134.494	-49.048	-55.612	-137.864	-134.610	-129.907	-127.175	-33.583	-131.832	-8191	255	
2150.739	1	1	0	0	0.19833	0.10386	0.35958	0.32162	0.064332	0.13082	0.088647	0.18319	0.19421	0.19794	0.20191	0.088018	0.22141	0.14677	0.34369	0.34804	-0.75	-1.3083	-1.6688	-1.0396	-1.5458	-1.6333	-1.1646	-2.0208	-1.3646	-1.1437	-2.0792	-1.3375	-1.5812	-1.6167	-1.0167	-2.0854	127.131	-80.063	2.766	172.043	135.217	53.875	173.220	164.939	-141.977	193.939	152.794	180.740	185.197	84.178	-125.871	150.761	0.0020373	0.0010164	0.00023084	355.13	4.513e-06	2.8412e-06	542.39	163.44	1.1177e-06	6.2606e-06	257.13	120.67	78.451	47.924	7.6773e-06	70.669	0.00064094	0.00064003	0.00017868	369.6	6.9914e-06	6.9759e-06	533.74	160.51	6.9073e-06	6.9828e-06	250.06	114.94	76.8	45.475	6.8795e-06	66.317	89.483	-95.066	-118.604	-140.459	12.490	204.937	-142.171	-134.668	90.966	1.511	-138.295	-134.208	-130.434	-126.795	-89.318	-131.781	-8191	255	
2150.835	1	1	0	0	0.064671	0.091427	0.028448	0.12384	0.15242	0.19984	0.13926	0.21401	0.10501	0.074114	0.26394	0.31073	0.054556	0.38722	0.4329	0.30414	-0.98958	-1.3625	-1.85	-1.0042	-1.6063	-1.5896	-0.98333	-1.9667	-1.1646	-1.1812	-2.0771	-1.0979	-1.6958	-1.825	-0.925	-2.0083	-95.839	-103.615	-88.869	206.683	54.644	113.450	26.346	133.220	2.377	-95.674	-81.432	184.817	196.709	158.704	87.228	147.448	0.0018606	0.00076338	8.2942e-05	355.28	9.196e-06	6.5261e-06	538.86	162.22	3.7185e-06	9.6857e-06	254.05	119.73	77.785	47.294	5.2519e-06	69.731	0.00063967	0.00063149	0.00017816	369.94	7.0263e-06	7.004e-06	531.79	159.92	6.896e-06	7.0034e-06	247.55	113.48	75.922	44.893	6.7713e-06	65.305	89.841	-106.734	-24.141	-140.758	-85.496	-100.646	-142.212	-134.533	-50.002	-23.412	-137.713	-134.425	-130.428	-126.846	147.783	-132.036	-8191	255	
2150.931	1	1	0	0	0.070682	0.34022	0.23739	0.2505	0.25641	0.51402	0.16971	0.32645	0.11471	0.073237	0.23066	0.04742	0.11935	0.12533	0.030979	0.26456	-1.2062	-1.1771	-1.7854	-0.97083	-1.3813	-1.8042	-1.125	-1.7042	-1.5896	-1.2417	-2.1146	-1.3396	-1.5271	-1.7979	-1.2	-1.7125	136.958	160.121	94.133	114.088	170.544	63.795	131.336	121.212	19.372	64.795	174.025	0.695	-85.666	45.353	-11.796	194.146	0.0015677	0.00088339	0.00033865	357.11	6.3472e-06	4.7437e-06	532.73	160.54	1.9708e-07	7.2779e-06	252.01	116.84	76.313	46.998	4.0149e-06	68.6	0.00063772	0.00063414	0.00017927	370.37	6.9836e-06	7.0518e-06	525.41	158.31	6.9829e-06	6.9467e-06	244.34	111.7	74.909	44.481	6.8484e-06	64.581	87.484	-82.172	-57.235	-140.189	-15.653	194.738	-142.370	-134.221	66.102	87.691	-137.741	-134.325	-130.282	-126.843	11.702	-131.703	-8191	255	
2151.052	1	1	0	0	0.27405	0.047098	0.087171	0.23843	0.18225	0.076518	0.036551	0.19838	0.2586	0.030376	0.18662	0.20688	0.050825	0.071266	0.12868	0.20007	-1.3292	-1.0562	-1.9458	-1.3188	-1.3937	-2.1167	-1.1187	-1.775	-1.5583	-1.15	-2.1792	-1.5	-1.2854	-2.2229	-1.1542	-1.8396	-142.908	37.371	137.694	203.130	-136.786	58.932	69.561	145.325	-25.391	-131.513	158.118	113.894	190.688	-151.599	178.098	178.823	0.0016901	0.00041366	0.00023308	352.89	6.9623e-06	1.0409e-05	534.66	159.5	6.0638e-06	1.385e-06	251.4	117.23	76.425	46.923	1.0165e-05	69.017	0.00064495	0.000627	0.00017672	368.16	6.8898e-06	6.9573e-06	524.65	157.81	6.9263e-06	6.9723e-06	245.62	112.15	75.22	44.691	6.9381e-06	64.982	83.877	-100.749	-81.180	-140.902	23.904	28.897	-142.228	-134.553	-46.382	-61.348	-138.160	-134.603	-130.829	-126.957	-73.211	-131.943	-8191	255	
2151.148	1	1	0	0	0.15471	0.18496	0.036127	0.082025	0.18862	0.29793	0.10222	0.24238	0.2385	0.33767	0.25071	0.2909	0.15979	0.38577	0.16536	0.28133	-1.4188	-0.925	-2.0229	-1.5021	-1.2167	-1.9625	-1.0229	-1.6479	-1.7542	-0.81667	-1.8792	-1.5604	-1.1479	-2.0729	-1.0479	-1.5521	-142.831	119.881	-118.401	10.103	-89.292	-121.953	-78.366	133.567	188.032	-129.634	138.237	114.420	152.363	-139.672	112.183	171.865	0.001455	0.00058896	0.00028165	358.87	1.9352e-06	5.8271e-06	538.42	160.71	5.4779e-06	3.5843e-06	252.37	118.66	77.304	47.546	8.0257e-06	70.135	0.00064931	0.00063474	0.00018078	371.18	6.9738e-06	7.0421e-06	529.49	158.82	7.0283e-06	6.9227e-06	247.15	113.25	75.595	44.931	6.9879e-06	65.897	97.907	107.090	-38.293	-140.504	26.116	85.016	-142.561	-134.491	-62.591	-27.521	-137.840	-134.499	-130.506	-126.798	-39.916	-131.564	-8191	255	
2151.243	1	1	0	0	0.03061	0.17872	0.11429	0.067861	0.074611	0.17107	0.065012	0.19194	0.074491	0.38966	0.16773	0.15974	0.27112	0.47973	0.2367	0.065228	-1.3167	-1.0229	-1.7687	-1.6437	-0.95833	-2.0104	-1.1729	-1.3625	-1.8896	-0.92292	-1.8604	-1.6583	-1.3458	-2.1208	-1.3458	-1.3229	-33.374	-88.783	60.213	187.074	-142.651	10.293	96.624	161.189	-6.731	26.792	-9.355	-120.275	167.578	148.681	-18.048	99.662	0.0014855	0.001162	0.00037425	355.67	2.6637e-06	6.1809e-06	535.4	161.31	1.1696e-05	5.4271e-06	255.82	119.19	77.817	47.472	5.0835e-06	69.809	0.00064876	0.00063089	0.00017877	371.26	6.9707e-06	7.0921e-06	528.93	158.85	6.9951e-06	6.8841e-06	248.35	113.5	75.767	44.909	6.8999e-06	65.487	95.629	-76.215	-37.300	-140.722	-13.673	-58.160	-142.138	-134.583	-90.480	16.518	-137.993	-134.512	-130.516	-126.772	-59.633	-131.657	-8191	255	
2151.339	1	1	0	0	0.26656	0.28594	0.11884	0.19492	0.26722	0.14243	0.17718	0.21279	0.22318	0.05538	0.24143	0.23064	0.1842	0.044362	0.19745	0.30434	-1.4458	-1.0187	-1.6313	-1.975	-1.1938	-2.0104	-1.4021	-1.2229	-1.8771	-1.0979	-1.625	-1.8979	-1.0771	-1.9771	-1.4667	-1.3979	-34.142	-1.965	97.653	129.735	7.379	160.660	-76.419	-98.482	59.354	-64.273	63.369	204.732	172.943	194.097	10.478	-90.306	0.0016829	0.00049719	0.00039403	353.67	3.6951e-06	1.8566e-06	533.58	162.07	8.6399e-06	4.7312e-06	253.46	118.79	77.04	47.201	2.6336e-06	69.685	0.0006499	0.00062846	0.00017824	368.98	6.8268e-06	7.0223e-06	527.57	159.02	7.0008e-06	6.8733e-06	247.34	113.26	75.391	44.838	6.8763e-06	65.394	96.984	-60.738	-85.673	-139.755	-63.710	12.320	-142.516	-134.440	-30.701	131.063	-137.626	-134.434	-130.560	-126.732	22.453	-131.923	-8191	255	
2151.459	1	1	0	0	0.040621	0.20991	0.20899	0.25889	0.26184	0.34621	0.21389	0.21801	0.17215	0.057872	0.20929	0.09983	0.4194	0.23663	0.12151	0.053405	-1.6292	-0.83125	-1.5125	-1.6083	-0.95208	-1.7979	-1.6562	-1.2396	-1.9354	-1.2229	-1.5458	-2.0792	-1.0417	-1.7167	-1.725	-1.2646	43.358	87.325	191.748	90.114	-56.123	14.846	134.089	80.070	-15.342	-138.843	-102.294	-147.392	112.759	-148.707	-130.489	37.683	0.0019096	0.0011836	0.00029175	357.04	8.2137e-06	4.4854e-06	537.13	160.72	5.5839e-06	2.2088e-06	254.29	119.31	77.047	47.307	6.4746e-06	69.612	0.00065139	0.00062284	0.00017706	369.2	6.7815e-06	6.9466e-06	528.53	158.55	6.9459e-06	6.8995e-06	247.5	113.32	75.408	44.853	6.8852e-06	65.359	93.671	-135.592	-61.027	-140.374	24.544	-22.871	-142.059	-134.736	196.777	52.461	-137.825	-134.071	-129.817	-126.959	-35.239	-131.669	-8191	255	
2151.531	1	1	0	0	0.14902	0.14781	0.12297	0.13009	0.24455	0.19679	0.10318	0.3364	0.27161	0.09834	0.23215	0.22939	0.15384	0.099776	0.33487	0.24202	-1.3542	-1.125	-1.2958	-2.0021	-1.1875	-1.8792	-1.7687	-1.1917	-1.8333	-1.2396	-1.2896	-1.9229	-1.0146	-1.6729	-1.6396	-1.0396	104.130	186.402	-76.974	94.192	125.099	-127.244	145.280	-143.396	-24.055	-133.626	145.673	-108.730	-145.776	156.167	-7.034	114.323	0.0018455	0.0002984	0.00015509	354.83	2.3108e-06	1.294e-05	539.03	160.92	5.8328e-06	3.7754e-06	253.68	120.33	78.128	46.96	6.0736e-06	70.377	0.00064552	0.00062954	0.00017641	369.69	6.7666e-06	6.9335e-06	530.56	158.49	7.0216e-06	6.9405e-06	248.18	114.15	75.744	44.814	7.1201e-06	65.789	91.198	-132.861	3.365	-140.263	-118.341	8.490	-142.568	-134.983	-43.777	93.794	-137.737	-134.318	-130.205	-127.005	-35.419	-131.796	-8191	255	
2151.627	1	1	0	0	0.1344	0.19525	0.14257	0.20546	0.02638	0.056795	0.44047	0.19399	0.080685	0.012903	0.16365	0.25435	0.18421	0.093126	0.27789	0.37841	-1.7229	-1.175	-1.1812	-2.0812	-1.0375	-1.6542	-1.7958	-0.95	-1.7958	-1.2646	-1.3042	-1.8625	-1.225	-1.7396	-1.7917	-1.2354	19.696	190.239	-25.926	201.626	-118.078	-52.967	26.101	-101.872	38.777	-56.842	-115.300	44.600	-114.104	-136.001	192.881	195.217	0.002046	0.0004313	0.00021451	357.17	5.0505e-06	1.113e-06	543.56	161.57	4.658e-06	8.9867e-07	256.13	120.91	77.913	47.62	5.5052e-06	70.108	0.00065641	0.00063841	0.00017856	371.82	6.8883e-06	7.0353e-06	534.02	159.19	7.0379e-06	6.9793e-06	249.4	114.68	76.157	45.091	6.9898e-06	65.999	89.227	-96.083	-70.297	-140.487	-45.691	-62.228	-142.055	-134.194	-68.635	-137.775	-137.780	-134.284	-130.073	-126.594	-39.837	-131.820	-8191	255	
2151.723	1	1	0	0	0.18494	0.047097	0.03857	0.13094	0.037344	0.18447	0.16098	0.10416	0.02643	0.1402	0.11109	0.10269	0.082936	0.093965	0.13565	0.1016	-1.375	-1.7208	-1.025	-1.9917	-1.0771	-1.5167	-1.8563	-1.0104	-1.8167	-1.5271	-0.97917	-2.0854	-1.3438	-1.475	-1.7625	-1.0688	-65.682	-111.433	135.766	-143.491	-146.625	134.103	-140.094	84.210	183.460	56.721	-94.120	172.920	-16.379	150.068	150.760	56.051	0.0016996	0.00048823	0.00032647	356.35	1.6554e-06	5.1524e-06	542.94	161.94	4.9719e-06	7.4821e-06	255.17	120.26	78.09	47.308	1.0701e-05	70.381	0.00065261	0.00063296	0.0001758	370.6	6.9099e-06	7.0392e-06	533.05	158.99	6.9249e-06	6.9543e-06	248.78	114.41	75.942	44.991	6.9102e-06	65.792	82.450	-145.435	-64.325	-140.241	-136.481	-110.476	-142.114	-134.542	135.652	16.065	-137.644	-134.639	-130.528	-126.604	-50.865	-131.653	-8191	255	
2151.820	1	1	0	0	0.11014	0.15516	0.19331	0.074781	0.25368	0.16575	0.15689	0.14528	0.20046	0.11615	0.25649	0.22834	0.42508	0.25169	0.20644	0.2475	-1.2625	-1.6542	-0.94583	-2.2292	-1.2396	-1.2188	-1.9604	-1.0125	-1.6458	-1.7208	-1.0688	-2.1292	-1.4625	-1.3604	-1.9146	-1.1583	63.939	-1.403	122.115	8.771	-5.025	170.317	-115.682	100.145	-84.335	189.640	125.039	113.345	-88.412	-127.544	83.511	80.680	0.0019315	0.00044147	0.00020053	356.45	6.9082e-06	4.2495e-06	542.45	161.39	3.7081e-06	3.8207e-06	256.27	120.1	78.163	47.367	6.8647e-06	70.591	0.00065176	0.00063926	0.00017321	371.68	6.8866e-06	7.0139e-06	531.27	159.22	6.9596e-06	6.9781e-06	250.02	115	76.199	45.165	6.8897e-06	66.148	100.857	-2.737	53.693	-140.090	-71.369	123.267	-142.279	-134.478	99.700	-86.993	-137.653	-134.299	-130.902	-126.648	-63.050	-131.784	-8191	255	
2151.940	1	1	0	0	0.10859	0.34456	0.21937	0.10528	0.041258	0.19646	0.086063	0.30537	0.24322	0.24119	0.14199	0.27129	0.18368	0.30407	0.10782	0.30114	-1.3479	-1.5979	-0.88333	-1.8042	-1.4542	-1.3042	-2.1312	-1.475	-1.5146	-1.75	-1.0292	-1.8646	-1.5167	-1.3708	-1.9104	-1.2062	14.689	159.733	-83.288	69.189	170.125	185.897	145.433	108.132	-138.428	-131.414	93.620	145.976	-148.726	178.621	133.031	187.452	0.001536	0.0005745	0.00023464	356.79	2.8524e-06	9.813e-06	546.58	162.57	1.4164e-05	8.5965e-06	256.78	121.19	77.794	47.492	1.5173e-05	71.136	0.00064099	0.0006333	0.00017396	371.78	6.8606e-06	6.896e-06	534.84	159.56	6.9677e-06	6.9669e-06	250.11	115.14	76.164	45.032	6.915e-06	66.415	99.087	85.699	-60.942	-140.757	19.613	-19.189	-141.939	-134.356	-9.348	-101.212	-137.562	-134.555	-130.591	-126.846	-14.310	-131.938	-8191	255	
2152.035	1	1	0	0	0.38577	0.1489	0.16932	0.11056	0.42632	0.21595	0.15875	0.20247	0.099236	0.19352	0.31898	0.35912	0.11517	0.22591	0.09912	0.28384	-1.0375	-1.6187	-0.87708	-1.7313	-1.6104	-1.0146	-2.0021	-1.3708	-1.375	-1.7021	-1.0917	-1.8979	-1.6812	-1.1396	-1.775	-1.4417	-73.200	97.420	202.965	-104.136	-113.781	-147.097	167.501	-47.648	107.714	24.967	139.326	194.176	113.237	84.126	-34.344	177.013	0.001873	0.00026365	0.00012313	356.69	1.9931e-06	2.8833e-06	545.38	162.2	9.1539e-06	4.7194e-06	260.13	122.24	78.836	47.469	1.3708e-05	70.99	0.00064737	0.00063611	0.00017359	371.4	6.8695e-06	6.8949e-06	535.42	159.57	6.9097e-06	6.9405e-06	250.84	116.11	76.422	45.128	6.9459e-06	66.783	86.122	77.446	-35.520	-140.746	-91.054	45.624	-141.980	-134.395	-23.089	-31.770	-137.755	-134.009	-130.617	-126.589	62.470	-131.781	-8191	255	
2152.132	1	1	0	0	0.088125	0.1897	0.22126	0.24251	0.058777	0.27303	0.13952	0.24536	0.16473	0.18481	0.18389	0.50432	0.18977	0.08615	0.12388	0.25735	-0.95208	-2.0042	-1.0063	-1.8021	-1.6792	-1.0958	-2.0708	-1.575	-1.3167	-1.8312	-1.1479	-1.6833	-2.0687	-1.1562	-1.9146	-1.5646	-105.060	-73.864	-72.346	-131.028	48.661	22.852	-69.336	141.243	-128.871	-134.193	179.784	122.502	126.048	169.984	133.189	156.838	0.0020832	3.054e-05	0.00023652	356.78	4.9749e-06	6.2507e-06	547.58	162.65	1.6281e-06	9.2287e-06	259.59	122.35	78.124	47.576	1.3874e-05	71.365	0.00064323	0.00063024	0.00017414	372.13	6.8166e-06	6.7822e-06	538.96	159.52	6.9058e-06	6.9147e-06	251.41	116.03	76.234	45.097	6.9449e-06	66.674	91.878	-6.399	-108.125	-139.890	94.393	-40.754	-142.200	-134.593	-130.684	5.576	-137.693	-134.478	-130.227	-126.496	142.475	-131.615	-8191	255	
2152.229	1	1	0	0	0.28079	0.21641	0.11902	0.18934	0.13516	0.098162	0.1723	0.35495	0.13987	0.088487	0.22998	0.062088	0.34213	0.21236	0.14662	0.11658	-0.78125	-1.8312	-1.1063	-1.4917	-1.9396	-0.97708	-1.8896	-1.7188	-0.93958	-1.8354	-1.25	-1.6479	-1.9333	-1.2104	-1.8646	-1.7938	111.442	-140.265	112.818	80.681	14.532	-9.860	35.436	-152.108	-70.807	101.388	-143.173	115.648	162.699	179.395	-61.572	157.467	0.0015159	0.00020551	7.6609e-05	353.95	3.8948e-06	3.6724e-06	544.51	162.23	1.039e-05	2.7088e-06	258.5	121.32	78.16	47.387	9.0917e-06	70.71	0.00062655	0.00062631	0.00017269	369.6	6.8499e-06	6.7704e-06	535.66	159.18	6.7812e-06	6.9664e-06	250.06	115.18	76.214	44.919	6.8976e-06	66.248	93.851	-95.352	27.662	-139.845	29.145	109.258	-142.279	-134.504	-103.591	-135.875	-138.081	-134.313	-130.523	-126.763	-3.883	-131.679	-8191	255	
2152.323	1	1	0	0	0.11693	0.080455	0.21338	0.065719	0.087687	0.050788	0.13154	0.049766	0.054737	0.15558	0.36955	0.21068	0.1437	0.16803	0.21617	0.29596	-0.52083	-1.8333	-1.2625	-1.4813	-1.9667	-0.98542	-1.8708	-1.6021	-0.86458	-2.0812	-1.2062	-1.3167	-1.8792	-1.2104	-1.5187	-1.7521	-9.540	-46.774	118.445	155.755	13.380	-46.826	-102.786	-110.993	33.675	75.756	138.024	190.217	193.691	126.235	89.752	145.006	0.0018892	0.00025091	0.0001508	356.45	1.1045e-05	1.9753e-06	543.48	160.33	4.9877e-06	4.6938e-06	258.38	121.06	78.05	47.278	7.2e-06	70.667	0.00063115	0.00063166	0.00017399	372.14	6.832e-06	6.7394e-06	534.15	158.84	6.7295e-06	6.9659e-06	250.03	114.87	76.136	44.959	6.9926e-06	66.37	91.523	135.790	-149.396	-140.023	-86.617	-85.487	-141.995	-134.765	-117.899	-71.038	-137.763	-134.263	-130.316	-126.659	-83.556	-132.030	-8191	255	
2152.419	1	1	0	0	0.20222	0.11149	0.17363	0.17585	0.32558	0.097782	0.19198	0.14025	0.11293	0.091931	0.2732	0.17159	0.10221	0.11342	0.37842	0.21012	-0.59792	-1.8563	-1.5521	-1.2417	-2.15	-1.0688	-1.7292	-1.7792	-1.0479	-2.0229	-1.4375	-1.3354	-1.9104	-1.1208	-1.4438	-2.0208	-67.047	-54.035	26.381	96.753	136.020	-62.114	181.749	197.664	42.456	-32.205	184.913	-144.707	8.136	172.019	152.616	-46.261	0.0017526	0.00068977	9.1916e-05	357.97	5.6618e-06	8.3733e-06	541.99	161.36	6.945e-06	4.9488e-06	259.2	121.97	78.085	47.259	7.5321e-06	71.602	0.00063072	0.00062623	0.00017354	368.99	6.8697e-06	6.8063e-06	534.18	159.49	6.7071e-06	6.9871e-06	250.84	115.59	76.263	45.067	6.9205e-06	67.054	84.806	-66.326	19.553	-140.229	162.101	95.118	-141.496	-134.061	-122.068	-31.649	-137.764	-134.400	-130.278	-126.585	6.726	-131.634	-8191	255	
2152.540	1	1	0	0	0.26162	0.1759	0.20395	0.14541	0.093954	0.2318	0.1206	0.14226	0.23255	0.33967	0.046975	0.1208	0.17073	0.096738	0.089396	0.12242	-0.69792	-1.8875	-1.2875	-1.0938	-2.0271	-1.2167	-1.6417	-2.05	-1.1458	-1.6875	-1.5417	-1.1604	-2.025	-1.4	-1.4479	-2.0625	33.904	6.201	-16.460	76.989	-80.112	190.441	165.729	145.160	91.970	172.591	137.186	46.445	104.542	132.627	32.443	-60.469	0.0018188	0.00031049	0.00013475	356.49	9.7979e-06	5.8288e-06	542.86	163.04	5.2127e-06	6.7975e-06	260.74	123.06	78.544	47.676	1.0075e-05	72.04	0.00063174	0.00064075	0.00017998	370.46	6.9792e-06	6.911e-06	536.26	160.24	6.8189e-06	7.0957e-06	252.85	116.77	76.581	45.406	6.9359e-06	67.543	103.800	201.112	-4.592	-139.754	-16.623	16.295	-141.377	-134.551	-31.846	71.288	-137.394	-134.194	-130.421	-126.698	65.080	-131.963	-8191	255	
2152.636	1	1	0	0	0.14254	0.085564	0.13778	0.18776	0.097479	0.16845	0.30129	0.24257	0.18001	0.10313	0.23718	0.034775	0.23157	0.28279	0.15923	0.015257	-0.52917	-1.7104	-1.7271	-0.95208	-1.8417	-1.2583	-1.1583	-1.8792	-1.2125	-1.6667	-1.8438	-1.0438	-2.0146	-1.2271	-1.1542	-2.1708	191.618	135.847	123.505	-108.345	161.920	120.975	115.829	189.256	-102.031	195.725	171.956	-119.361	189.677	191.561	23.475	84.927	0.0017917	0.00073466	7.4272e-05	359.91	2.2431e-06	9.9342e-06	548.84	162.81	4.39e-06	4.8477e-06	258.93	122.6	78.626	48.004	1.1255e-06	71.615	0.00064036	0.00063346	0.00017597	371.7	6.9465e-06	6.9368e-06	537.94	160.01	6.865e-06	6.955e-06	251.46	116.33	76.859	45.351	6.9029e-06	67.254	85.218	-134.797	-87.155	-140.470	18.392	-31.211	-141.977	-135.121	-95.878	44.456	-137.722	-134.379	-130.812	-126.900	86.970	-131.721	-8191	255	
2152.708	1	1	0	0	0.30423	0.15721	0.099875	0.28291	0.07044	0.14607	0.10517	0.1802	0.17287	0.079988	0.54492	0.37014	0.23997	0.074612	0.16394	0.05321	-0.61875	-1.3417	-1.8292	-0.82708	-2.0417	-1.5438	-1.4292	-2.0896	-1.2083	-1.4937	-1.7771	-1.0812	-1.9354	-1.6396	-1.1583	-2.1729	183.112	-135.051	-97.952	5.072	26.863	138.605	60.960	-123.047	-47.405	157.329	-131.134	171.451	112.307	-53.583	41.359	32.335	0.0014225	0.0007143	0.00017121	357.39	2.9672e-06	7.3235e-06	545.18	162.27	5.8218e-06	2.094e-06	260.79	122.36	78.437	47.713	5.8483e-06	71.192	0.00063245	0.00063868	0.00017382	371.15	6.9484e-06	6.8708e-06	535.28	159.76	6.8609e-06	6.8712e-06	251.64	115.98	76.491	45.247	6.7695e-06	66.91	99.518	-150.829	-37.181	-140.643	11.379	14.576	-142.202	-134.797	-41.527	-106.447	-138.014	-134.531	-130.516	-126.956	-43.169	-131.610	-8191	255	
2152.828	1	1	0	0	0.10036	0.1315	0.062835	0.13628	0.29653	0.088739	0.26152	0.18523	0.12144	0.097096	0.24649	0.39126	0.24238	0.073472	0.15846	0.35216	-0.78125	-1.2854	-1.7	-0.92083	-1.7375	-1.5854	-1.2646	-1.8292	-1.3167	-1.2083	-2	-0.97917	-1.6708	-1.6417	-1.0083	-2.0646	132.848	121.720	-8.683	95.691	-51.820	173.887	95.979	-31.094	-147.306	-88.268	39.907	-142.706	187.771	-88.384	116.154	131.062	0.0019781	0.00089476	0.00032743	356.8	6.3238e-06	6.0972e-06	543.48	160.72	4.4499e-06	4.8386e-06	259.55	121.35	78.068	47.3	1.7304e-06	71.452	0.00063337	0.00062637	0.00017358	369.43	6.8778e-06	6.861e-06	534.14	159.06	6.683e-06	6.8368e-06	251.25	115.3	76.161	44.94	6.7498e-06	66.746	98.022	-40.459	-15.339	-140.566	203.561	159.394	-141.934	-134.678	-133.625	13.161	-137.777	-134.049	-130.368	-127.160	147.467	-131.846	-8191	255	
2152.924	1	1	0	0	0.19324	0.19377	0.18672	0.069677	0.11226	0.051464	0.31961	0.2766	0.21669	0.20936	0.20526	0.1648	0.15383	0.34766	0.064241	0.17496	-0.98958	-1.1292	-1.9042	-1.1396	-1.7125	-1.6479	-1.1208	-2.0771	-1.2062	-1.1167	-2.1042	-1.1479	-1.7021	-1.7563	-0.82917	-2.1542	125.551	180.695	-126.242	-20.900	92.645	201.451	171.447	148.165	-44.795	53.920	84.337	100.764	96.871	150.264	-103.406	188.266	0.0016739	0.0004423	6.7553e-05	353.45	8.6335e-06	1.5761e-06	548.2	162.43	7.9155e-06	6.4877e-06	257.78	121.49	78.694	47.286	1.2736e-06	71.454	0.00062769	0.0006189	0.00017334	367.04	6.8329e-06	6.831e-06	534.71	159.28	6.8093e-06	6.7704e-06	251.08	115.75	76.253	44.878	6.8231e-06	66.889	90.017	84.802	31.299	-140.460	-18.476	197.368	-141.847	-134.292	-107.857	30.784	-138.109	-134.480	-130.339	-126.728	-86.845	-131.680	-8191	255	
2153.021	1	1	0	0	0.31464	0.054832	0.39105	0.27439	0.10999	0.08812	0.20292	0.070198	0.083134	0.088392	0.28591	0.28112	0.25903	0.2691	0.32958	0.15667	-1.0292	-1.0438	-1.775	-1.1333	-1.4479	-1.8875	-1.0375	-1.7542	-1.3979	-1.1979	-2.0104	-1.3792	-1.5562	-1.8771	-0.92708	-1.8667	-37.353	67.526	-35.381	63.899	35.490	-142.428	170.737	-65.435	169.170	-127.375	-123.474	-133.155	-135.110	175.303	-137.181	105.749	0.0015591	0.00064095	0.00019726	356.09	6.1792e-06	2.6766e-06	543.01	162.27	1.9598e-06	4.1656e-06	258.49	121.67	77.988	47.201	8.3181e-06	71.385	0.00063433	0.00062009	0.0001777	369.73	6.9388e-06	6.848e-06	534.43	159.52	6.8514e-06	6.7416e-06	251.56	115.45	76.01	44.928	6.7646e-06	66.999	88.276	-121.121	-63.151	-140.077	8.783	-88.351	-141.931	-134.668	146.622	-116.095	-138.184	-134.715	-130.425	-127.144	70.448	-132.056	-8191	255	
2153.117	1	1	0	0	0.0094279	0.10693	0.16923	0.32661	0.1812	0.25446	0.31568	0.2089	0.25352	0.045982	0.22519	0.31806	0.1452	0.10687	0.063348	0.038981	-1.4979	-1.1812	-1.8188	-1.2625	-1.3792	-2.0187	-1.2375	-1.7417	-1.6542	-1.0417	-2.1	-1.3875	-1.2979	-2.0292	-1.0625	-1.6812	177.301	105.094	58.589	157.972	16.062	30.543	196.161	145.774	31.022	-85.016	103.802	124.404	151.040	-103.644	140.907	177.879	0.0016984	0.0013905	7.9983e-05	355.83	7.531e-06	8.8248e-06	542.17	161.23	2.3864e-06	2.8688e-06	256.04	120.76	77.644	47.499	4.1091e-06	71.635	0.0006356	0.00062461	0.00017684	369.61	6.8336e-06	6.9005e-06	533.89	158.79	6.8152e-06	6.7545e-06	250.12	115.06	75.794	44.968	6.8298e-06	67.041	91.363	-129.534	-94.372	-140.150	-12.299	76.808	-142.427	-134.626	76.632	89.764	-137.958	-134.528	-130.279	-127.171	-130.172	-131.773	-8191	255	
2153.236	1	1	0	0	0.13515	0.17249	0.064333	0.21174	0.059919	0.31415	0.22284	0.045286	0.043921	0.072087	0.22896	0.26606	0.092835	0.15584	0.048517	0.14786	-1.1917	-0.75833	-1.8188	-1.3042	-1.0458	-1.9271	-1.2021	-1.5875	-1.7646	-1.0125	-1.8958	-1.4542	-1.3333	-1.9229	-1.2375	-1.4708	-145.376	157.239	82.624	153.891	118.921	-24.084	151.426	-59.830	29.485	189.094	204.842	-148.416	24.105	151.681	154.548	52.449	0.001576	0.00046528	0.00019991	354.57	8.8311e-06	6.78e-06	545.7	162.66	2.8113e-06	4.3067e-06	257.08	121.4	78.146	47.698	8.4728e-06	71.708	0.0006348	0.00061748	0.00017582	369.52	6.8139e-06	6.8871e-06	532.92	159.19	6.7853e-06	6.8116e-06	250.72	115.67	75.926	45.215	6.8341e-06	67.143	84.410	-7.804	-65.871	-140.868	0.721	57.135	-141.917	-134.806	-30.985	-51.221	-137.813	-134.095	-130.595	-127.161	-53.014	-131.771	-8191	255	
2153.332	1	1	0	0	0.19998	0.3114	0.06036	0.2538	0.073281	0.18	0.062232	0.37752	0.16373	0.32959	0.294	0.2649	0.22611	0.18354	0.12958	0.062068	-1.5438	-0.99583	-1.9062	-1.5354	-1.0042	-1.9208	-1.1375	-1.3604	-1.9271	-0.89583	-1.8396	-1.6625	-1.2083	-2.0479	-1.2188	-1.4729	143.532	180.213	-80.216	173.896	206.090	165.338	-10.153	204.552	90.326	188.217	202.623	205.333	146.232	-57.047	1.298	-70.401	0.0018157	0.00079177	0.00026118	358.71	5.9598e-06	3.5636e-06	547.81	161.56	9.4955e-06	7.4881e-06	259	121.56	78.018	47.778	8.2616e-06	72.018	0.00064086	0.00061715	0.00017584	368.42	6.7107e-06	6.9487e-06	535.08	159.01	6.7859e-06	6.8277e-06	251.5	115.55	75.988	45.253	6.787e-06	67.361	83.606	-72.952	-67.439	-140.243	3.222	-142.487	-141.798	-134.680	26.109	33.691	-138.129	-134.863	-130.308	-126.482	-15.146	-131.950	-8191	255	
2153.403	1	1	0	0	0.32634	0.28646	0.13353	0.21332	0.15981	0.064695	0.28247	0.24812	0.23117	0.064101	0.11491	0.1668	0.34508	0.40836	0.31084	0.11331	-1.4771	-0.94583	-1.6208	-1.6771	-1.1708	-1.9917	-1.3708	-1.3896	-1.9792	-1.1208	-1.7083	-1.8021	-0.9125	-1.9708	-1.2	-1.1583	112.751	108.979	200.609	107.286	-143.544	206.658	3.553	98.275	-11.452	-32.682	159.191	205.416	170.804	175.489	131.492	-103.913	0.0020833	0.0010574	0.00014534	353.5	7.4243e-08	8.8045e-06	547.88	162.22	5.3446e-06	8.819e-06	259.53	123.1	78.262	48.02	1.0722e-05	72.052	0.00063234	0.00061881	0.00017547	369.42	6.7348e-06	6.8811e-06	535.7	159.22	6.8759e-06	6.8031e-06	252.32	116.4	75.99	45.354	6.7299e-06	67.638	84.747	-33.850	-147.201	-140.256	-49.000	-59.281	-141.706	-134.687	-58.224	-130.184	-137.924	-134.647	-130.228	-126.639	-73.470	-131.663	-8191	255	
2153.500	1	1	0	0	0.047845	0.27545	0.25995	0.14851	0.14294	0.052285	0.23237	0.24369	0.046585	0.097383	0.12169	0.30931	0.039603	0.020109	0.21486	0.03097	-1.5333	-1.1208	-1.5125	-1.6979	-1.1313	-1.7667	-1.4792	-1.2146	-1.9625	-1.1333	-1.4688	-1.8479	-1.2417	-2.0042	-1.2833	-1.2437	-131.602	0.585	203.047	-66.776	118.962	56.837	57.325	-96.636	-24.054	53.166	-119.432	144.203	2.656	194.532	5.989	-20.264	0.001949	0.00073431	0.00035396	352.99	6.8697e-06	1.5601e-06	544.96	160.97	5.2366e-06	3.2531e-06	259.28	121.84	77.662	47.464	7.5611e-06	72.07	0.00063678	0.00062032	0.00017682	367.74	6.7301e-06	6.9627e-06	534.02	158.56	6.8719e-06	6.8262e-06	251.08	115.64	75.427	45.075	6.7752e-06	67.134	92.110	11.670	-34.747	-140.412	2.990	29.581	-142.190	-134.695	-101.258	94.278	-137.525	-134.244	-130.683	-126.782	-27.151	-131.743	-8191	255	
2153.620	1	1	0	0	0.14724	0.1391	0.13177	0.17271	0.18836	0.038376	0.29843	0.16315	0.21091	0.12143	0.07312	0.31596	0.36071	0.20109	0.25831	0.34057	-1.5771	-1.0438	-1.3333	-1.6938	-0.7	-2.0708	-1.5896	-1.1479	-1.975	-0.91667	-1.2917	-2.1146	-1.1688	-1.9667	-1.6521	-1.1979	130.938	-114.000	181.897	120.567	179.598	-76.659	185.418	199.170	-131.852	141.215	-122.102	54.639	151.824	0.011	173.959	167.100	0.0018212	0.0013874	0.00026744	353.27	8.3543e-06	7.5103e-06	543.98	160.57	9.1777e-06	7.0265e-06	257.1	120.16	77.241	47.209	5.5667e-06	70.629	0.00063097	0.00061776	0.00017292	367.4	6.6719e-06	6.8261e-06	531.36	157.91	6.85e-06	6.7032e-06	249.01	114.53	75.278	44.826	6.7381e-06	66.445	94.219	-51.043	-60.939	-140.590	-73.936	-42.935	-142.106	-134.441	-81.200	47.972	-137.733	-134.454	-130.600	-126.759	128.159	-131.784	-8191	255	
2153.716	1	1	0	0	0.15767	0.24953	0.20939	0.30605	0.28653	0.24101	0.12442	0.27483	0.10081	0.26702	0.23477	0.39679	0.06493	0.23527	0.12254	0.24156	-1.3604	-1.1	-1.3375	-1.9062	-0.98125	-1.6708	-1.85	-1.1646	-1.7604	-1.4	-1.2229	-1.9688	-1.1958	-1.6208	-1.7938	-1.1	-119.085	131.886	-64.573	173.394	-147.111	-129.936	122.670	-113.809	15.057	14.277	-64.636	89.671	148.745	164.211	153.249	122.984	0.001717	0.00042708	0.0002894	356.88	9.2264e-06	5.2429e-06	542.16	160.13	5.6809e-06	5.3298e-06	258.63	120.21	76.736	47.312	7.7185e-06	70.506	0.00062959	0.00061265	0.00017059	369.37	6.7098e-06	6.7735e-06	530.91	156.92	6.9113e-06	6.7734e-06	249.1	114.17	74.933	44.678	6.7262e-06	66.111	85.376	153.759	-7.506	-139.922	-57.529	-135.020	-141.852	-134.849	-71.617	-2.080	-137.454	-134.436	-130.626	-126.824	-69.574	-131.786	-8191	255	
2153.812	1	1	0	0	0.21996	0.3995	0.30349	0.067564	0.087402	0.076114	0.13749	0.41197	0.049405	0.13548	0.11806	0.27112	0.10039	0.34922	0.14178	0.24097	-1.4875	-1.375	-1.0604	-2.0208	-1.0667	-1.5333	-1.8542	-1.0354	-1.8687	-1.4562	-1.2667	-1.9417	-1.25	-1.5646	-1.9042	-1.2125	-136.507	37.577	141.879	-22.874	-69.330	-3.628	-32.615	91.300	-19.384	92.019	79.537	79.135	194.049	151.824	39.692	128.998	0.0017517	0.000332	0.00012608	349.92	5.6437e-06	7.4932e-06	542.14	160.08	8.9856e-06	6.1141e-06	255.86	119.59	76.024	46.903	8.5306e-06	70.651	0.00063116	0.00061247	0.00016925	366.49	6.6822e-06	6.6998e-06	530.16	156.76	6.8041e-06	6.7286e-06	247.81	113.78	74.423	44.515	6.765e-06	66.057	88.625	206.886	-7.616	-140.114	-107.149	-46.879	-142.092	-134.442	-119.879	62.222	-137.635	-134.358	-130.699	-126.584	-120.733	-131.740	-8191	255	
2153.933	1	1	0	0	0.22468	0.33517	0.072453	0.1683	0.28388	0.12998	0.07374	0.14786	0.14965	0.29833	0.30346	0.22642	0.19237	0.19799	0.18434	0.40086	-1.4292	-1.4875	-0.99792	-1.8646	-1.225	-1.1688	-2.0583	-1.2	-1.6792	-1.5938	-1.3438	-2.0187	-1.4729	-1.3792	-1.825	-1.2833	73.852	-30.877	28.388	163.645	-76.789	-95.262	0.139	144.218	-93.122	42.809	186.645	196.867	132.146	206.398	174.327	94.979	0.0017665	0.00021908	0.00036835	355.31	8.5879e-06	3.3545e-06	538.5	160.94	7.1944e-06	6.866e-06	257.71	120.09	75.999	46.885	7.0929e-06	71.242	0.0006351	0.00061572	0.00016958	368.55	6.7163e-06	6.7854e-06	530.93	157.05	6.7894e-06	6.6982e-06	248.06	114.08	74.51	44.426	6.7616e-06	66.456	95.518	-70.182	-82.606	-140.092	30.401	41.968	-142.189	-134.593	-40.556	-61.637	-137.817	-134.069	-130.540	-126.803	-85.950	-131.641	-8191	255	
2154.005	1	1	0	0	0.30878	0.058539	0.15094	0.19486	0.11629	0.16475	0.10539	0.25289	0.15275	0.082593	0.26445	0.088649	0.19098	0.022231	0.1455	0.24877	-1.1667	-1.9125	-1.1646	-1.8937	-1.4104	-1.1479	-2.2542	-1.3729	-1.5875	-1.8833	-1.1146	-2.0625	-1.3062	-1.3583	-1.9333	-1.1979	-23.255	149.645	42.550	142.112	23.141	-97.758	-42.448	156.447	-1.798	5.415	-123.723	135.979	159.917	117.436	-43.835	164.923	0.0020899	0.00039593	0.0003389	354.63	5.4065e-06	1.4218e-05	541.67	159.09	5.5617e-06	5.9676e-06	255.73	119.46	76.008	46.83	8.2947e-06	70.859	0.00062297	0.00061451	0.00016739	368.76	6.5876e-06	6.6677e-06	532.2	156.5	6.6921e-06	6.7038e-06	248.25	113.76	74.466	44.367	6.7829e-06	66.032	95.295	178.522	-39.634	-140.191	45.679	19.612	-142.043	-134.959	-150.349	25.318	-138.142	-134.277	-130.673	-126.660	139.639	-132.037	-8191	255	
2154.101	1	1	0	0	0.22704	0.28511	0.037947	0.090298	0.15349	0.17571	0.1941	0.095087	0.2431	0.085094	0.27339	0.22758	0.14972	0.29592	0.19051	0.1445	-1.0917	-1.5688	-1.025	-1.8687	-1.5042	-1.0833	-1.8958	-1.3521	-1.1583	-1.9042	-1.1229	-1.9083	-1.6646	-1.2271	-1.8813	-1.3	-84.258	-150.156	-50.032	172.206	152.423	-147.129	69.314	-36.207	117.070	-128.375	168.043	178.142	-136.191	202.821	13.067	108.104	0.0018942	0.00094104	0.00011786	351.7	4.6761e-06	5.1232e-06	543.92	160.87	5.5126e-06	9.5626e-06	255.94	119.22	75.604	46.913	4.5371e-06	70.395	0.00062782	0.00060815	0.00016985	365.57	6.6401e-06	6.6584e-06	531.86	156.7	6.6804e-06	6.8208e-06	247.07	113.22	74.202	44.379	6.8319e-06	65.771	88.958	-42.821	19.572	-140.473	130.193	-1.658	-141.869	-134.488	17.254	-79.166	-137.736	-133.746	-130.582	-126.700	-130.401	-131.661	-8191	255	
2154.220	1	1	0	0	0.019019	0.056013	0.11163	0.24977	0.11054	0.1029	0.1249	0.16042	0.15666	0.044179	0.20716	0.2148	0.21789	0.19059	0.17516	0.2465	-0.87083	-1.7687	-1.0917	-1.7875	-1.5521	-1.0333	-2.0792	-1.4104	-1.175	-1.8813	-1.0271	-1.65	-1.6313	-0.99792	-1.7812	-1.4354	-21.653	176.426	117.653	116.016	108.129	128.102	-137.935	126.027	-54.954	-130.593	164.375	98.779	-107.192	150.251	81.230	174.624	0.0018279	0.0011252	0.00032667	354.89	3.8558e-06	5.0614e-06	540.22	159.35	3.6678e-06	9.0876e-06	254.44	119.59	75.723	46.783	2.8799e-06	70.555	0.0006289	0.00061876	0.0001696	367.63	6.6598e-06	6.7438e-06	530.54	156.4	6.6094e-06	6.8105e-06	246.46	113.67	74.213	44.335	6.8476e-06	65.729	94.809	-93.206	167.134	-139.808	104.668	72.804	-141.901	-134.405	91.385	126.501	-137.858	-134.434	-130.345	-126.702	-94.404	-131.836	-8191	255	
2154.316	1	1	0	0	0.15648	0.21353	0.34087	0.26458	0.23964	0.1324	0.22353	0.11532	0.13391	0.23899	0.33283	0.25329	0.18723	0.3041	0.40334	0.1404	-0.53542	-1.9104	-1.15	-1.5354	-1.7792	-1.0104	-1.8667	-1.4979	-1.1271	-1.8958	-1.1292	-1.5583	-1.8521	-1.2375	-1.7479	-1.5021	-55.492	28.072	-44.916	128.518	-131.749	78.426	112.272	49.397	23.100	104.847	-141.894	-136.735	159.950	-145.706	-41.430	73.330	0.0018489	0.00030268	0.00023936	351.33	5.5011e-06	5.5e-06	545.37	160.49	4.6833e-06	1.0494e-06	256.81	120.76	76.441	47.165	5.9873e-06	70.674	0.00062326	0.00062593	0.00017049	365.98	6.6858e-06	6.723e-06	531.89	156.7	6.6458e-06	6.8184e-06	247.66	114.49	74.813	44.485	6.8598e-06	66.348	82.786	-41.499	-19.426	-140.186	-78.390	200.299	-141.654	-135.061	-20.608	37.578	-137.864	-134.048	-130.588	-126.903	-3.812	-131.973	-8191	255	
2154.412	1	1	0	0	0.25717	0.35076	0.2271	0.13826	0.10642	0.15557	0.11251	0.37111	0.042834	0.09357	0.22874	0.15367	0.179	0.04868	0.19242	0.35597	-0.56458	-2.0604	-1.0917	-1.4021	-1.8167	-1.0812	-1.8062	-1.6042	-0.87083	-1.8	-1.3583	-1.1917	-1.975	-1.1042	-1.5375	-1.7167	-9.620	120.807	109.160	152.707	-72.457	48.228	-11.078	152.752	184.108	-18.366	73.421	4.769	141.883	-152.165	-60.558	88.758	0.0015054	0.00037549	0.00021398	354.29	4.2607e-06	1.9168e-06	544.46	159.11	1.8566e-06	3.6064e-06	254.94	120.29	76.195	46.758	9.2729e-06	70.194	0.00062443	0.00063087	0.00017211	366.63	6.8506e-06	6.8288e-06	532.47	156.65	6.7074e-06	6.9803e-06	248.18	114.23	74.31	44.364	6.7634e-06	65.821	76.384	113.185	-78.886	-140.130	-95.838	27.330	-141.535	-134.575	-93.131	203.889	-137.427	-134.186	-130.219	-127.029	50.207	-131.726	-8191	255	
2154.533	1	1	0	0	0.092072	0.21824	0.116	0.12219	0.26389	0.075098	0.34418	0.074476	0.2213	0.19819	0.044983	0.35144	0.18587	0.12225	0.12415	0.059694	-0.53958	-1.9417	-1.2104	-1.1562	-2	-1.3042	-1.6833	-1.7313	-1.1792	-1.8875	-1.4375	-1.4125	-2.0938	-1.0667	-1.4021	-1.9542	191.090	-36.553	-108.178	47.677	165.752	119.810	-109.803	101.144	173.850	78.141	-82.157	-132.613	-93.316	94.800	200.011	62.242	0.0020116	0.00052978	0.00031999	351.34	1.7196e-06	1.3176e-06	536.72	157.88	1.7458e-06	5.4941e-06	252.2	119.36	75.025	46.034	1.0495e-06	69.651	0.0006283	0.00062802	0.00016975	364.85	6.7084e-06	6.6908e-06	529.62	155.29	6.6057e-06	6.7531e-06	244.93	112.47	73.52	43.63	6.6795e-06	64.883	91.166	141.308	1.895	-140.222	-149.826	2.640	-141.988	-134.572	-141.847	98.957	-137.774	-134.111	-130.425	-126.796	-123.674	-131.780	-8191	255	
2154.629	1	1	0	0	0.1396	0.14627	0.18343	0.071368	0.16837	0.063622	0.12907	0.31902	0.19412	0.1881	0.25528	0.0031674	0.43558	0.17574	0.17879	0.16816	-0.62292	-1.6875	-1.3854	-1.1333	-2.0021	-1.2521	-1.35	-1.7292	-0.89792	-1.7938	-1.5979	-1.1437	-1.9354	-1.375	-1.2812	-2.1458	79.163	-38.350	18.269	117.271	182.288	-101.951	164.610	104.617	82.718	63.733	141.678	-31.571	185.289	142.098	-22.970	194.510	0.0019385	0.00076305	0.0003148	351.24	1.1976e-05	7.7101e-06	540.41	156.76	1.169e-05	7.0396e-06	251.57	116.32	74.129	45.395	9.9851e-06	67.99	0.00061034	0.00061721	0.00016898	364.75	6.653e-06	6.642e-06	526.14	154.46	6.5581e-06	6.7691e-06	243.28	110.59	72.987	43.087	6.6847e-06	63.783	86.738	71.946	-72.110	-140.293	-108.725	-12.062	-142.055	-134.459	4.327	62.630	-137.989	-133.891	-130.344	-126.979	-44.896	-131.712	-8191	255	
2154.701	1	1	0	0	0.19625	0.18344	0.27381	0.16187	0.31551	0.34909	0.23699	0.16787	0.14481	0.097057	0.067747	0.21229	0.15912	0.27341	0.15087	0.2459	-0.63958	-1.5458	-1.3333	-0.97708	-2.0729	-1.2687	-1.5375	-2.0187	-0.98542	-1.6167	-1.7604	-1.1	-2.0771	-1.3667	-1.2729	-1.9042	8.196	15.891	-127.272	-74.766	77.076	105.514	70.957	115.354	157.889	110.690	99.270	-8.678	-150.083	180.836	56.371	142.238	0.0013248	0.00057458	0.00019682	353.56	8.7675e-06	6.8659e-06	534.61	157	4.6223e-06	3.3437e-06	249.58	116.3	74.924	45.648	3.2461e-06	68.512	0.00061673	0.00062152	0.00016974	364.8	6.8526e-06	6.6969e-06	524.17	154.69	6.6267e-06	6.8254e-06	243.2	110.62	73.119	43.14	6.6499e-06	63.907	95.812	203.301	-120.706	-139.709	157.869	6.856	-141.888	-134.394	-34.753	-80.432	-137.834	-134.543	-130.444	-126.795	120.190	-131.658	-8191	255	
2154.797	1	1	0	0	0.13775	0.11266	0.21616	0.079365	0.13647	0.30544	0.12624	0.070867	0.22315	0.21947	0.14658	0.31501	0.25188	0.1849	0.19644	0.26474	-0.65833	-1.7188	-1.725	-1	-1.8875	-1.5146	-1.4167	-2.0396	-1.0729	-1.6313	-1.8333	-1.2625	-1.8479	-1.6104	-1.2417	-2.1625	133.006	120.571	-98.539	118.451	186.213	132.756	-15.559	-1.532	-121.064	77.373	130.200	199.901	172.702	174.182	111.176	113.056	0.0017641	0.00075193	0.00019487	351.53	3.4386e-06	7.3374e-06	540.16	156.68	3.0108e-06	1.341e-06	252.08	118.06	75.363	45.787	8.5541e-06	69.248	0.00061326	0.00061615	0.00017087	364.39	6.8243e-06	6.7678e-06	526.98	155.05	6.6178e-06	6.7194e-06	244.83	112.02	73.484	43.387	6.6468e-06	64.655	88.076	-60.859	-121.017	-139.843	-38.076	82.047	-141.815	-134.390	-28.251	-105.838	-137.886	-134.404	-130.310	-126.883	-76.479	-131.641	-8191	255	
2154.917	1	1	0	0	0.13428	0.086239	0.24675	0.11117	0.26066	0.064705	0.17601	0.18038	0.27164	0.16345	0.056606	0.23448	0.14121	0.20207	0.050491	0.34763	-0.75625	-1.4271	-1.6688	-0.875	-1.7188	-1.6604	-1.1063	-1.9688	-1.3271	-1.3604	-1.8229	-1.1292	-1.7292	-1.75	-0.99375	-2.1063	-31.427	-23.301	10.525	27.000	-134.865	152.536	-128.192	98.918	186.603	58.464	-65.433	-114.695	199.399	105.595	21.492	177.850	0.0019254	0.0007505	7.8628e-05	350.87	4.6218e-06	5.2336e-06	536.37	158.58	5.2877e-06	6.663e-06	254.52	118.73	75.57	45.957	1.1829e-06	69.509	0.0006274	0.00061057	0.00017267	364.43	6.8336e-06	6.696e-06	528.21	156.38	6.7381e-06	6.7532e-06	246.82	112.56	73.723	43.525	6.7244e-06	64.843	90.917	-103.175	-5.786	-140.207	-129.946	-58.900	-142.414	-134.528	-40.756	4.046	-137.970	-134.059	-130.035	-127.090	-96.390	-131.606	-8191	255	
2155.013	1	1	0	0	0.17493	0.050469	0.050682	0.16055	0.15342	0.14307	0.15508	0.28853	0.18987	0.051233	0.10704	0.12172	0.12866	0.24167	0.13253	0.49017	-0.78958	-1.4229	-1.8375	-1.3	-1.5479	-1.7417	-1.2313	-1.8062	-1.4062	-1.2563	-2.0812	-1.0854	-1.7625	-1.9875	-0.91042	-2.0187	121.075	-98.375	83.277	-115.125	24.247	169.612	157.288	-151.167	168.013	-149.318	119.261	75.661	50.028	157.322	150.511	127.747	0.0019884	0.00088417	0.00011249	349.21	2.7786e-06	1.5614e-05	538.79	159.28	4.1098e-06	6.1962e-06	254.11	117.97	75.576	45.865	3.0353e-06	68.886	0.00061639	0.00060926	0.00017119	364.98	6.7002e-06	6.7535e-06	528.29	155.71	6.6257e-06	6.724e-06	245.95	111.96	73.686	43.556	6.6482e-06	64.69	88.919	-141.314	-117.419	-140.153	-106.066	3.135	-142.158	-134.775	-131.026	60.573	-137.579	-134.152	-130.374	-126.446	140.429	-131.780	-8191	255	
2155.108	1	1	0	0	0.17896	0.08758	0.18075	0.18976	0.26965	0.19694	0.12843	0.1417	0.33373	0.2182	0.15103	0.19061	0.24052	0.27019	0.12222	0.2064	-0.92708	-0.99583	-1.6771	-1.0833	-1.4875	-1.6771	-1.1104	-1.9354	-1.4896	-1.1396	-2.0792	-1.2583	-1.3875	-1.9542	-1.0938	-1.9021	-36.698	104.834	-85.425	153.189	-36.756	170.989	192.062	84.572	117.908	194.575	125.719	183.637	125.170	144.424	190.692	148.309	0.0017487	0.00086378	0.00011428	351.45	5.7341e-06	4.3991e-06	539.26	158.7	9.9571e-06	6.4351e-06	253.16	118.38	75.128	45.869	1.0805e-05	68.328	0.00061916	0.00061636	0.00017223	364.33	6.6873e-06	6.7101e-06	528.64	156.21	6.6891e-06	6.7235e-06	245.89	112.04	73.595	43.625	6.643e-06	64.443	92.701	-85.552	-68.066	-140.281	-38.625	114.928	-141.685	-134.636	-50.194	-139.983	-137.479	-134.470	-130.166	-126.919	-75.344	-131.786	-8191	255	
2155.204	1	1	0	0	0.096021	0.20196	0.099771	0.099619	0.15221	0.16037	0.14284	0.2762	0.20685	0.18608	0.0050892	0.26746	0.16233	0.12901	0.089095	0.10217	-1.0042	-1.0875	-1.9917	-1.1958	-1.3021	-2.0563	-1.2354	-1.8021	-1.5021	-0.92292	-2.1	-1.3646	-1.5167	-1.9896	-1.0104	-1.7896	75.192	24.515	168.131	47.055	143.604	-62.888	184.239	-151.235	-131.345	128.853	-53.808	189.241	-136.228	165.612	111.996	198.564	0.0015898	0.00084053	7.5418e-05	354.27	3.5481e-06	9.3175e-06	542.66	158.32	9.2868e-06	7.9179e-07	252.15	117.98	75.49	46.015	7.6193e-06	69.36	0.00061983	0.00060607	0.00017415	364.35	6.717e-06	6.6863e-06	528.76	155.44	6.6179e-06	6.6874e-06	245.42	112	73.718	43.521	6.6533e-06	64.802	87.198	-101.183	-0.482	-140.158	-0.912	23.725	-142.091	-134.122	-62.946	-45.604	-137.497	-134.485	-130.362	-126.699	-32.636	-131.623	-8191	255	
2155.302	1	1	0	0	0.04623	0.088431	0.09756	0.13523	0.12099	0.095263	0.060567	0.19809	0.18205	0.21833	0.19307	0.26557	0.14965	0.082623	0.093839	0.087019	-1.3	-0.95417	-1.95	-1.3375	-1.175	-1.7396	-1.0063	-1.7042	-1.6208	-1.1208	-2.0375	-1.2979	-1.3083	-2.0208	-1.0792	-1.6125	167.493	-33.946	193.962	131.171	-121.152	-97.615	-15.332	-23.503	129.568	146.781	160.870	68.253	-125.425	190.819	-27.848	203.463	0.0019612	0.00075353	0.00012351	354.34	3.9155e-06	4.9875e-06	542.64	159.41	3.2281e-06	5.0985e-06	253.23	119.83	75.184	46.233	8.4307e-07	69.241	0.00062777	0.00060737	0.00017282	365.98	6.6933e-06	6.8291e-06	530.58	156.04	6.7057e-06	6.6911e-06	247.22	113.09	73.684	43.783	6.6655e-06	64.947	95.387	-57.663	-115.898	-140.497	-79.426	-74.165	-141.811	-134.196	25.875	12.454	-137.547	-134.757	-130.319	-126.666	-96.715	-131.922	-8191	255	
2155.396	1	1	0	0	0.1163	0.10728	0.027039	0.18262	0.21752	0.11353	0.044527	0.14604	0.033049	0.23843	0.24673	0.23925	0.10703	0.16462	0.040112	0.349	-1.2396	-0.91042	-1.6042	-1.5562	-1.1375	-1.9396	-1.3646	-1.3292	-1.7583	-0.825	-1.7854	-1.4937	-1.0271	-2.0521	-1.2437	-1.4854	47.443	83.662	170.867	55.133	114.358	-49.050	-4.650	82.060	62.468	134.031	188.439	155.218	184.152	98.817	108.473	101.417	0.0016475	0.00032317	0.00018519	349.05	1.6697e-06	3.7429e-06	541.81	159.12	4.5369e-06	3.0507e-06	253.94	118.38	74.94	45.86	8.2439e-06	69.049	0.00062102	0.00061271	0.00017203	363.22	6.6197e-06	6.8071e-06	530.47	155.06	6.7038e-06	6.5857e-06	246.39	112.2	73.272	43.416	6.5518e-06	64.636	82.904	155.305	-71.240	-140.621	78.840	-13.892	-142.124	-134.150	-87.710	-116.604	-138.206	-134.335	-130.189	-126.743	-100.462	-131.897	-8191	255	
2155.492	1	1	0	0	0.10179	0.0729	0.18644	0.28282	0.1369	0.30145	0.10311	0.36194	0.12076	0.18893	0.10992	0.31912	0.12086	0.16505	0.25569	0.418	-1.5667	-1.0125	-1.5688	-1.7917	-0.94792	-1.9562	-1.2062	-1.2167	-1.7583	-1.1833	-1.7458	-1.6667	-1.1187	-1.875	-1.2792	-1.3979	-7.433	-148.131	130.880	155.512	-129.255	184.543	117.579	126.658	17.300	-93.290	181.447	123.323	117.671	-119.180	-84.259	108.423	0.001713	0.00053829	8.1214e-05	352.67	8.2452e-06	5.2178e-06	535.13	158.16	3.4178e-06	6.3854e-06	253.24	118	75.285	45.765	8.8505e-06	68.524	0.00061702	0.00059668	0.00016961	363.86	6.5428e-06	6.6759e-06	525.35	155.5	6.5898e-06	6.5343e-06	244.89	111.6	73.197	43.341	6.4877e-06	64.085	85.139	198.261	-149.174	-139.962	-63.223	-13.022	-141.699	-134.313	19.644	119.803	-137.376	-134.651	-130.216	-126.850	-25.962	-131.604	-8191	255	
2155.613	1	1	0	0	0.21346	0.28327	0.30891	0.29525	0.11877	0.12364	0.34521	0.14224	0.21164	0.17826	0.25179	0.078116	0.17266	0.10032	0.12786	0.12303	-1.5896	-0.90625	-1.6667	-1.7417	-0.88958	-1.7979	-1.4062	-1.0792	-1.8937	-0.99375	-1.5708	-1.8646	-1.1667	-2.0125	-1.325	-1.2833	37.688	-1.978	-138.717	105.474	-1.661	-70.605	-140.983	-99.106	46.075	90.722	180.777	-120.787	154.289	-45.660	193.687	-137.585	0.0016321	0.0011907	6.183e-05	350.25	8.1239e-07	5.9531e-06	540.47	157.95	1.3873e-06	2.7476e-06	252.61	116.86	75.188	45.71	7.9636e-06	68.973	0.00061747	0.00059452	0.00016628	364.87	6.4943e-06	6.6242e-06	527.38	155.24	6.6156e-06	6.4803e-06	244.72	111.36	73.11	43.401	6.4479e-06	64.039	86.187	-122.672	-115.799	-139.973	-34.017	7.036	-142.330	-134.205	-95.046	29.334	-137.802	-134.448	-130.551	-127.144	-113.486	-131.598	-8191	255	
2155.709	1	1	0	0	0.1287	0.17586	0.11819	0.057676	0.12168	0.11153	0.038745	0.16223	0.11113	0.21129	0.1406	0.07161	0.090935	0.42273	0.074384	0.27722	-1.3438	-1.2021	-1.3104	-1.7938	-0.87292	-1.9229	-1.5958	-1.3563	-2.0458	-1.3917	-1.5562	-1.7604	-1.1437	-1.7563	-1.5271	-1.1375	-148.432	-78.250	27.072	-113.296	-11.215	2.776	190.470	-74.935	59.632	-99.715	-21.989	77.550	149.792	156.836	125.726	147.093	0.0016333	0.00078892	0.0001806	352.39	5.6722e-06	1.5466e-05	539.23	157.65	4.8103e-06	7.7366e-06	252.73	117.76	75.512	46.027	4.5037e-06	69.495	0.00060493	0.00059296	0.00016599	364.24	6.505e-06	6.602e-06	526.56	154.74	6.6654e-06	6.5119e-06	244.89	111.93	73.57	43.604	6.5703e-06	64.822	80.746	-73.671	-87.656	-140.989	16.765	24.878	-141.913	-134.564	-67.961	3.537	-137.851	-134.645	-130.371	-126.563	-65.615	-131.680	-8191	255	
2155.805	1	1	0	0	0.092941	0.10355	0.20867	0.23117	0.16171	0.096498	0.14169	0.36348	0.11358	0.15899	0.14393	0.15448	0.21989	0.36661	0.10328	0.079828	-1.6646	-1.1583	-1.1187	-1.9896	-1.1771	-1.7104	-1.8458	-1.1917	-1.7979	-1.3875	-1.2521	-1.9979	-1.2583	-1.7125	-1.7396	-1.0854	-48.104	177.304	128.999	-50.183	73.644	7.118	-53.235	181.860	195.866	-128.326	106.667	141.970	105.967	175.530	113.565	67.516	0.0021443	0.00083098	0.00024982	353.03	3.6053e-06	5.5274e-06	542.87	158.89	5.256e-06	3.5624e-06	254.65	119.23	75.398	46.585	1.0451e-05	69.816	0.00062276	0.00058578	0.00016812	365.45	6.5312e-06	6.6164e-06	529.74	155.54	6.6726e-06	6.5964e-06	246.65	113.15	73.687	43.98	6.6321e-06	65.456	90.562	-108.584	17.602	-140.267	78.800	-38.521	-142.077	-134.297	-86.446	-130.415	-137.501	-134.135	-130.162	-126.710	3.775	-131.720	-8191	255	
2155.902	1	1	0	0	0.19147	0.064285	0.040176	0.11424	0.0501	0.30547	0.24762	0.093939	0.1439	0.38943	0.035022	0.058143	0.26235	0.23533	0.27159	0.45026	-1.525	-1.2604	-1.0125	-1.9625	-1.1146	-1.5479	-1.7917	-0.92917	-1.6729	-1.6688	-1.1812	-2.0083	-1.0333	-1.5333	-1.7667	-1.2521	-70.992	194.431	164.206	40.566	-107.474	71.383	187.364	-138.741	-134.143	-123.225	-66.662	168.547	-122.582	148.691	66.452	190.909	0.0017127	0.00031708	0.00011343	354.28	5.4775e-06	5.8144e-06	544.76	158.5	6.84e-06	5.1506e-06	256.56	118.36	75.281	46.102	4.3744e-06	69.66	0.00062149	0.00059702	0.00016635	365.77	6.4712e-06	6.4771e-06	530.4	155.06	6.5973e-06	6.5163e-06	246.14	112.62	73.52	43.748	6.6499e-06	65.031	90.129	-143.107	-64.614	-140.556	-40.367	38.317	-141.939	-134.505	-1.485	43.563	-137.889	-134.107	-129.862	-126.448	27.248	-131.649	-8191	255	
2155.998	1	1	0	0	0.10035	0.17548	0.15552	0.11932	0.15108	0.23367	0.11199	0.067044	0.15113	0.050093	0.16578	0.17055	0.17232	0.1088	0.31494	0.27532	-1.4625	-1.5604	-0.79583	-2.0875	-1.2479	-1.4417	-2.1042	-1.2	-1.75	-1.5938	-1.2125	-1.8188	-1.3229	-1.5292	-1.8104	-1.0354	170.808	63.735	29.769	17.244	114.793	84.450	-145.472	84.710	192.154	-103.077	-141.128	178.444	96.544	-22.248	-126.235	123.118	0.0016264	0.00091148	0.00028866	356.15	2.8652e-06	8.3726e-06	538.18	158.53	9.6329e-06	4.5167e-06	250.42	117.78	75.685	45.844	1.4192e-05	68.672	0.00061231	0.00059527	0.00016684	364.81	6.5128e-06	6.4959e-06	527.3	155.28	6.5155e-06	6.4906e-06	244.85	111.62	73.509	43.593	6.5868e-06	64.395	87.241	-101.748	-31.100	-140.386	-34.695	11.071	-141.585	-134.720	-44.849	34.026	-137.759	-134.005	-130.778	-126.623	105.712	-131.806	-8191	255	
2156.094	1	1	0	0	0.16861	0.062306	0.11795	0.16332	0.066249	0.31105	0.10291	0.03261	0.12122	0.251	0.25915	0.19557	0.27811	0.25639	0.026474	0.30609	-1.1208	-1.7229	-0.94375	-1.8813	-1.2417	-1.2271	-2.0375	-1.0292	-1.6063	-1.7563	-1.1583	-1.8604	-1.3167	-1.2958	-1.8542	-1.2354	-49.941	30.677	-135.073	148.955	-41.528	-112.728	139.086	-7.646	147.767	69.817	139.732	-125.613	137.450	205.366	-97.119	172.138	0.001323	0.00093817	0.00033222	350.63	2.5418e-06	1.1008e-05	537.96	157.95	7.7007e-06	2.515e-06	251.66	118.01	74.864	45.98	1.4674e-06	69.103	0.00061077	0.00060087	0.0001651	364.56	6.3624e-06	6.447e-06	528.08	154.5	6.5243e-06	6.5781e-06	243.96	111.82	73.153	43.528	6.5433e-06	64.491	85.536	-51.915	-50.396	-140.266	-92.775	0.252	-142.060	-134.643	38.417	187.576	-137.339	-134.247	-130.167	-126.570	35.709	-131.737	-8191	255	
2156.213	1	1	0	0	0.14303	0.29556	0.26578	0.13706	0.10649	0.17245	0.34729	0.13349	0.13495	0.14387	0.32895	0.21695	0.098589	0.17397	0.19404	0.1029	-1.2521	-1.7062	-0.93125	-1.9	-1.4458	-1.2104	-2.0896	-1.1979	-1.3917	-1.9188	-1.0958	-1.8771	-1.7646	-1.0979	-1.875	-1.4271	-45.064	72.450	-6.071	-64.287	141.115	167.082	113.881	199.082	-42.845	71.564	-108.022	-130.095	122.117	66.012	-116.124	-148.858	0.0015592	0.00042619	0.00013171	351.41	6.2567e-06	5.3133e-06	540.06	158.38	8.8787e-06	3.0623e-06	253.36	117.79	75.188	46.031	4.1894e-06	69.201	0.00060294	0.00059559	0.00016449	363.08	6.4315e-06	6.5211e-06	526.62	154.56	6.5035e-06	6.6099e-06	244.4	111.75	73.086	43.582	6.645e-06	64.746	83.633	-70.913	-132.656	-140.515	-115.148	85.956	-141.756	-134.264	-15.979	70.144	-137.785	-133.972	-130.478	-126.815	-52.168	-131.692	-8191	255	
2156.309	1	1	0	0	0.22777	0.29016	0.27225	0.097264	0.22552	0.16133	0.1786	0.072404	0.26956	0.14038	0.14457	0.18789	0.25883	0.28785	0.096876	0.12626	-0.97083	-1.7938	-1.0667	-1.7062	-1.775	-1.0333	-1.9354	-1.2604	-1.3083	-1.95	-1.1771	-1.925	-1.6812	-1.1021	-1.8312	-1.4083	-40.372	164.570	146.711	89.115	-140.642	-54.718	194.743	188.395	40.143	-131.089	24.598	-126.492	168.304	188.012	-78.179	155.364	0.0017929	0.0012704	0.00013001	351.58	5.0226e-06	2.4119e-06	540.75	156.72	4.6056e-06	2.329e-06	250.97	118.75	75.019	46.104	8.0647e-06	68.825	0.00060863	0.00060146	0.00016414	362.96	6.53e-06	6.5158e-06	528.11	154.44	6.5773e-06	6.5789e-06	244.98	112.16	73.301	43.613	6.6164e-06	64.599	88.788	-140.183	-73.065	-140.101	-66.375	-24.084	-141.611	-134.625	-98.504	-98.310	-137.699	-134.063	-130.586	-126.642	-89.609	-131.787	-8191	255	
2156.405	1	1	0	0	0.13745	0.049023	0.20967	0.23646	0.31638	0.068505	0.066615	0.13165	0.11944	0.15809	0.15563	0.19983	0.29859	0.33545	0.21277	0.21851	-0.75417	-2.0333	-1.0375	-1.525	-1.75	-1.1	-2.0792	-1.4208	-1.0292	-2.1312	-1.0438	-1.5729	-1.9312	-1.1187	-1.65	-1.4292	-103.664	-44.274	130.100	175.947	114.841	-92.070	144.582	185.798	-21.342	197.559	190.092	106.199	139.109	129.534	-9.548	145.205	0.001804	0.0010582	0.00039227	356.51	6.8741e-06	4.3723e-07	537.16	157.19	4.2331e-06	2.5598e-06	250.04	117.73	74.875	45.992	5.9579e-06	68.401	0.0006041	0.0005999	0.00016405	364.7	6.5328e-06	6.4192e-06	527.36	154.47	6.4698e-06	6.5849e-06	243.02	111.34	73.182	43.54	6.5283e-06	64.34	74.225	-52.114	-101.631	-140.309	-94.818	40.610	-141.316	-135.049	-137.120	104.218	-138.337	-134.780	-130.499	-126.954	54.848	-132.092	-8191	255	
2156.501	1	1	0	0	0.10911	0.087214	0.042589	0.023869	0.25672	0.084139	0.20175	0.16366	0.12092	0.17869	0.17784	0.22775	0.052604	0.23507	0.1953	0.26527	-0.7	-1.8937	-1.0792	-1.3188	-1.9146	-1.0417	-1.7208	-1.3958	-0.89167	-2.0312	-1.2625	-1.4896	-1.9229	-1.0354	-1.8146	-1.6688	89.258	111.227	206.364	-115.596	42.646	35.994	183.081	99.907	-147.039	-15.556	144.684	187.592	70.661	113.573	109.683	190.194	0.0019403	0.00050518	0.00010885	348.27	5.7371e-06	8.9238e-06	535.68	157.1	1.3039e-06	5.8462e-06	251.92	118.08	75.111	46.323	4.2777e-06	68.878	0.00059914	0.00060004	0.00016254	362.89	6.5674e-06	6.4513e-06	525.61	154.88	6.4332e-06	6.626e-06	243.57	111.6	73.554	43.776	6.456e-06	64.58	85.521	-95.936	-25.559	-140.549	-70.167	46.864	-142.144	-134.768	-20.483	-2.257	-138.217	-134.361	-131.006	-126.973	-58.569	-132.112	-8191	255	
2156.597	1	1	0	0	0.33817	0.24956	0.53826	0.26862	0.15052	0.13043	0.065482	0.12196	0.15705	0.27791	0.014812	0.035651	0.19477	0.32519	0.31711	0.17432	-0.68333	-1.8542	-1.1792	-1.1521	-1.7417	-1.1125	-1.7292	-1.8167	-0.79167	-1.9271	-1.3167	-1.4229	-1.8542	-1.0146	-1.3646	-1.9021	169.112	-152.429	131.496	45.328	34.241	-72.298	122.587	-94.739	-79.869	-40.761	-122.494	-59.086	192.137	166.142	-63.201	188.759	0.0018436	0.0011708	7.6152e-05	353.84	7.593e-06	8.7e-06	540.03	157.86	6.658e-06	8.2215e-06	250.97	118.05	74.345	46.2	1.4999e-06	69.775	0.0006023	0.00059881	0.00016516	363.76	6.549e-06	6.4654e-06	527.24	155.28	6.5407e-06	6.6639e-06	244.15	112.31	73.393	43.754	6.5143e-06	65.167	82.894	-146.857	-46.775	-140.966	-37.867	-14.301	-142.755	-135.230	-33.646	-46.180	-138.637	-134.852	-131.056	-127.298	163.717	-132.117	-8191	255	
2156.693	1	1	0	0	0.24162	0.12874	0.1941	0.30871	0.094973	0.24989	0.15401	0.20624	0.086744	0.35001	0.36341	0.1106	0.050462	0.12559	0.17702	0.18748	-0.6375	-1.775	-1.2188	-1.0312	-1.9146	-0.95625	-1.5979	-1.875	-0.875	-1.7208	-1.5083	-1.1604	-2.0208	-1.2583	-1.4208	-2.1	-87.217	123.227	179.317	-88.517	38.127	42.555	73.321	144.109	21.005	2.142	-141.587	-91.348	165.495	186.163	73.833	140.361	0.0016937	0.0010893	0.00033509	349.87	5.5263e-06	6.0639e-06	541.64	158.45	9.515e-06	3.0084e-06	253.94	118.61	76.286	46.245	7.5727e-06	70.15	0.00060624	0.00060274	0.00016578	362.94	6.5975e-06	6.4061e-06	529.41	155.39	6.483e-06	6.6495e-06	246.41	112.96	74.117	43.951	6.5488e-06	65.534	91.840	-61.426	188.068	-140.628	121.634	25.936	-142.411	-135.229	200.731	-110.641	-138.230	-134.921	-131.427	-127.409	-40.732	-132.390	-8191	255	
2156.790	1	1	0	0	0.20267	0.33541	0.20499	0.24167	0.29739	0.29043	0.20851	0.2229	0.30347	0.13018	0.16618	0.099814	0.26101	0.013456	0.046737	0.13007	-0.775	-1.8667	-1.6333	-1.1396	-1.9604	-1.2083	-1.3354	-2.0938	-0.98958	-1.7417	-1.875	-1.0604	-1.8937	-1.5708	-1.3188	-2.1688	9.191	-115.944	163.025	137.046	163.238	43.241	2.988	136.317	46.071	192.583	175.141	-101.814	144.006	-143.767	10.238	204.623	0.0018931	0.0010396	0.00034758	351.74	2.6673e-06	7.1858e-06	542.65	158.06	7.5884e-06	6.0738e-06	253.3	119.23	75.549	46.189	1.0469e-05	69.646	0.000607	0.00060426	0.00016655	363.55	6.5729e-06	6.5092e-06	530.18	155.47	6.4058e-06	6.61e-06	245.68	112.72	73.93	43.879	6.5114e-06	65.131	75.372	-104.093	-45.967	-140.571	-144.442	-14.775	-142.398	-135.216	-87.832	98.200	-138.621	-134.703	-130.948	-127.394	-10.443	-132.255	-8191	255	
2156.886	1	1	0	0	0.12016	0.17027	0.092236	0.099122	0.15104	0.32315	0.091477	0.11604	0.13891	0.26626	0.23836	0.22026	0.16477	0.21443	0.14767	0.23228	-0.59167	-1.7188	-1.7333	-0.925	-1.7521	-1.2458	-1.3813	-1.85	-1.0271	-1.7354	-1.7646	-0.875	-1.9813	-1.5083	-1.0917	-2.1208	-74.997	170.309	68.233	75.987	-68.681	14.633	76.456	-18.794	158.219	-147.288	166.464	118.317	73.388	147.426	69.379	180.237	0.0015035	0.00076319	0.00013796	352.35	6.6723e-06	8.1858e-06	540.17	158.02	3.1678e-06	2.9754e-06	252.23	117.95	75.925	46.401	5.8348e-06	68.978	0.00059415	0.00059731	0.00016625	362.47	6.4749e-06	6.5154e-06	529.57	155.75	6.4248e-06	6.5467e-06	244.79	112.2	73.989	43.774	6.4733e-06	64.695	91.078	7.528	-70.696	-141.110	-78.213	-61.882	-142.207	-135.157	-115.251	105.050	-138.656	-135.218	-130.658	-127.592	19.039	-132.187	-8191	255	
2156.982	1	1	0	0	0.19109	0.1191	0.086933	0.16882	0.27437	0.053263	0.21934	0.30208	0.13877	0.27572	0.25293	0.12467	0.17112	0.36046	0.32383	0.21512	-0.70833	-1.4375	-1.7938	-0.925	-1.8208	-1.4729	-1.2354	-1.9479	-1.1333	-1.4417	-1.9937	-0.99583	-1.75	-1.5667	-1.0604	-2.1562	-81.980	-29.297	100.738	103.938	-93.374	190.909	-137.364	157.788	196.910	-94.995	182.578	-103.087	-135.754	125.711	33.298	147.534	0.0016862	0.00067076	0.00020768	351.76	2.7419e-06	1.8519e-06	539.78	157.96	6.7192e-06	2.8151e-06	252.3	118.14	75.052	45.975	5.7298e-06	68.681	0.00059411	0.00059216	0.00016457	362.52	6.4664e-06	6.4523e-06	526.63	155.1	6.3421e-06	6.4832e-06	244.63	111.69	73.411	43.607	6.3653e-06	64.44	80.344	-108.447	-135.440	-140.628	-50.208	-23.741	-142.951	-135.292	-58.488	-68.341	-138.762	-135.108	-130.832	-127.373	-12.740	-131.984	-8191	255	
2157.101	1	1	0	0	0.36198	0.22484	0.1363	0.37099	0.26549	0.16708	0.13722	0.34362	0.30379	0.10701	0.15511	0.12096	0.2646	0.25075	0.18597	0.17629	-0.90833	-1.2625	-2.0229	-0.92708	-1.65	-1.6375	-1.125	-1.8604	-0.98958	-1.2437	-1.9	-1.05	-1.7458	-1.8021	-1.025	-2.0667	-142.286	-29.479	61.162	-60.975	16.933	-23.099	-121.247	178.136	44.417	26.911	143.018	-55.448	160.309	180.483	117.375	175.297	0.0016676	0.00016899	6.3374e-05	350.45	1.013e-05	8.2537e-06	541.19	158.68	7.1508e-06	7.1697e-06	252.13	117.54	75.312	46.039	6.4761e-06	69.127	0.00059054	0.00059531	0.00016564	361.2	6.4758e-06	6.4613e-06	527.7	154.9	6.4092e-06	6.4507e-06	243.89	111.52	73.5	43.67	6.4052e-06	64.645	87.648	-126.415	103.839	-141.057	-81.423	-76.020	-142.898	-135.128	-90.124	-110.769	-138.151	-135.026	-130.992	-127.279	79.585	-132.334	-8191	255	
2157.174	1	1	0	0	0.25606	0.053649	0.23375	0.18323	0.25035	0.32769	0.083121	0.39284	0.10415	0.12555	0.22579	0.13108	0.053158	0.048003	0.19969	0.051351	-0.99167	-1.2812	-1.9688	-1.1729	-1.6479	-1.7208	-1.0917	-1.9438	-1.4208	-1.0042	-2.0625	-1.2833	-1.2833	-2.0396	-1.0229	-1.8146	160.325	-78.752	-116.826	25.621	169.768	120.598	-72.862	196.557	172.398	176.800	179.149	156.964	-117.011	-46.736	-94.465	64.987	0.0018315	0.00075736	0.0001085	347.93	9.5825e-06	1.6959e-06	538.14	158.86	9.3677e-06	4.1851e-06	254.37	118.36	75.722	46.508	4.1948e-06	69.592	0.00060194	0.00059603	0.00016535	362.14	6.4842e-06	6.5846e-06	527.81	155.52	6.5222e-06	6.488e-06	245.45	112.13	73.701	43.967	6.3379e-06	65.087	72.962	138.731	33.844	-140.258	-13.744	-39.915	-142.533	-135.098	-86.650	-151.316	-138.450	-134.369	-130.838	-127.406	-34.172	-132.443	-8191	255	
#DATA ENDS
