BOXY.EXE: ISS Imagent and Oximeter Data Acquisition Program Version 0.80
Ascii Record File

#ACQ INFORMATION
2  Detector Channels 
16  External MUX Channels 
1  Auxiliary Channels 
5000  Waveform (CCF) Frequency (Hz)
1  Waveforms Skipped 
30  Waveforms Averaged 
1  Cycles Averaged 
16  Acquisitions per Waveform 
10.0806  Updata Rate (Hz) 

#FILE INFORMATION
TRUE -- External MUX Channel results are PARSED.
FALSE -- AC DC and Phase are NOT grouped.
TRUE -- Companion Program Settings File CREATED.
FALSE -- AC data not excluded
FALSE -- DC data not excluded
FALSE -- Phase data not excluded
FALSE -- Auxillary Chn. data not excluded
Tab delimiters

#CALIBRATION STATE
TRUE -- Waveform Calibration Values APPLIED.


#AUX CALIBRATION VALUES
Val Type	aux-1	

Term	1.0000e+00	
Factor	0.0000e+00	


#WF CALIBRATION VALUES
A = Detector Channel
Val Type	A-AC1	A-AC2	A-AC3	A-AC4	A-AC5	A-AC6	A-AC7	A-AC8	A-AC9	A-AC10	A-AC11	A-AC12	A-AC13	A-AC14	A-AC15	A-AC16	A-DC1	A-DC2	A-DC3	A-DC4	A-DC5	A-DC6	A-DC7	A-DC8	A-DC9	A-DC10	A-DC11	A-DC12	A-DC13	A-DC14	A-DC15	A-DC16	A-Ph1	A-Ph2	A-Ph3	A-Ph4	A-Ph5	A-Ph6	A-Ph7	A-Ph8	A-Ph9	A-Ph10	A-Ph11	A-Ph12	A-Ph13	A-Ph14	A-Ph15	A-Ph16	

Term	0.00000e+00	0.00000e+00	0.00000e+00	0.00000e+00	0.00000e+00	0.00000e+00	0.00000e+00	0.00000e+00	0.00000e+00	0.00000e+00	0.00000e+00	0.00000e+00	0.00000e+00	0.00000e+00	0.00000e+00	0.00000e+00	0.00000e+00	0.00000e+00	0.00000e+00	0.00000e+00	0.00000e+00	0.00000e+00	0.00000e+00	0.00000e+00	0.00000e+00	0.00000e+00	0.00000e+00	0.00000e+00	0.00000e+00	0.00000e+00	0.00000e+00	0.00000e+00	0.00000e+00	0.00000e+00	0.00000e+00	0.00000e+00	0.00000e+00	0.00000e+00	0.00000e+00	0.00000e+00	0.00000e+00	0.00000e+00	0.00000e+00	0.00000e+00	0.00000e+00	0.00000e+00	0.00000e+00	0.00000e+00	
Factor	1.00000e+00	1.00000e+00	1.00000e+00	1.00000e+00	1.00000e+00	1.00000e+00	1.00000e+00	1.00000e+00	1.00000e+00	1.00000e+00	1.00000e+00	1.00000e+00	1.00000e+00	1.00000e+00	1.00000e+00	1.00000e+00	1.00000e+00	1.00000e+00	1.00000e+00	1.00000e+00	1.00000e+00	1.00000e+00	1.00000e+00	1.00000e+00	1.00000e+00	1.00000e+00	1.00000e+00	1.00000e+00	1.00000e+00	1.00000e+00	1.00000e+00	1.00000e+00	X	X	X	X	X	X	X	X	X	X	X	X	X	X	X	X	

B = Detector Channel
Val Type	B-AC1	B-AC2	B-AC3	B-AC4	B-AC5	B-AC6	B-AC7	B-AC8	B-AC9	B-AC10	B-AC11	B-AC12	B-AC13	B-AC14	B-AC15	B-AC16	B-DC1	B-DC2	B-DC3	B-DC4	B-DC5	B-DC6	B-DC7	B-DC8	B-DC9	B-DC10	B-DC11	B-DC12	B-DC13	B-DC14	B-DC15	B-DC16	B-Ph1	B-Ph2	B-Ph3	B-Ph4	B-Ph5	B-Ph6	B-Ph7	B-Ph8	B-Ph9	B-Ph10	B-Ph11	B-Ph12	B-Ph13	B-Ph14	B-Ph15	B-Ph16	

Term	0.00000e+00	0.00000e+00	0.00000e+00	0.00000e+00	0.00000e+00	0.00000e+00	0.00000e+00	0.00000e+00	0.00000e+00	0.00000e+00	0.00000e+00	0.00000e+00	0.00000e+00	0.00000e+00	0.00000e+00	0.00000e+00	0.00000e+00	0.00000e+00	0.00000e+00	0.00000e+00	0.00000e+00	0.00000e+00	0.00000e+00	0.00000e+00	0.00000e+00	0.00000e+00	0.00000e+00	0.00000e+00	0.00000e+00	0.00000e+00	0.00000e+00	0.00000e+00	-2.42741e+02	-1.55801e+02	-1.30442e+02	-1.82481e+02	-9.91373e+01	-5.97705e+01	-1.57793e+02	-1.62015e+02	-9.26830e+01	-6.05605e+01	-1.71410e+02	-1.70576e+02	-1.81136e+02	-1.76213e+02	-8.41416e+01	-1.49482e+02	
Factor	4.89592e-05	1.01473e-04	2.92524e-05	1.62080e-01	9.51960e-07	1.04877e-06	1.53107e-01	3.99569e-02	1.07762e-06	9.79278e-07	7.00297e-02	2.41918e-02	1.94195e-02	6.96819e-03	1.13135e-06	1.01434e-02	1.01517e-06	1.04419e-06	2.90279e-07	8.40594e-02	1.13893e-08	1.14537e-08	7.45432e-02	2.08403e-02	1.13918e-08	1.14551e-08	3.47523e-02	1.20131e-02	1.01154e-02	3.62274e-03	1.14149e-08	5.06097e-03	X	X	X	X	X	X	X	X	X	X	X	X	X	X	X	X	



#DISTANCE SETTINGS
A = Detector Channel
A-1	A-2	A-3	A-4	A-5	A-6	A-7	A-8	A-9	A-10	A-11	A-12	A-13	A-14	A-15	A-16	

2.5000e+00	3.0000e+00	2.5000e+00	3.0000e+00	2.0000e+00	3.0000e+00	1.5000e+00	3.0000e+00	3.0000e+00	3.0000e+00	3.0000e+00	3.0000e+00	3.0000e+00	3.0000e+00	1.5000e+00	3.0000e+00	

B = Detector Channel
B-1	B-2	B-3	B-4	B-5	B-6	B-7	B-8	B-9	B-10	B-11	B-12	B-13	B-14	B-15	B-16	

1.0000e+01	1.0000e+01	1.0000e+01	1.4400e+00	1.0000e+01	1.0000e+01	1.5100e+00	1.9400e+00	1.0000e+01	1.0000e+01	1.9900e+00	2.4900e+00	2.4100e+00	2.9000e+00	1.0000e+01	2.9800e+00	




#DATA BEGINS
time	group	step	mark	flag	A-AC1	A-AC2	A-AC3	A-AC4	A-AC5	A-AC6	A-AC7	A-AC8	A-AC9	A-AC10	A-AC11	A-AC12	A-AC13	A-AC14	A-AC15	A-AC16	A-DC1	A-DC2	A-DC3	A-DC4	A-DC5	A-DC6	A-DC7	A-DC8	A-DC9	A-DC10	A-DC11	A-DC12	A-DC13	A-DC14	A-DC15	A-DC16	A-Ph1	A-Ph2	A-Ph3	A-Ph4	A-Ph5	A-Ph6	A-Ph7	A-Ph8	A-Ph9	A-Ph10	A-Ph11	A-Ph12	A-Ph13	A-Ph14	A-Ph15	A-Ph16	B-AC1	B-AC2	B-AC3	B-AC4	B-AC5	B-AC6	B-AC7	B-AC8	B-AC9	B-AC10	B-AC11	B-AC12	B-AC13	B-AC14	B-AC15	B-AC16	B-DC1	B-DC2	B-DC3	B-DC4	B-DC5	B-DC6	B-DC7	B-DC8	B-DC9	B-DC10	B-DC11	B-DC12	B-DC13	B-DC14	B-DC15	B-DC16	B-Ph1	B-Ph2	B-Ph3	B-Ph4	B-Ph5	B-Ph6	B-Ph7	B-Ph8	B-Ph9	B-Ph10	B-Ph11	B-Ph12	B-Ph13	B-Ph14	B-Ph15	B-Ph16	aux-1	digaux	

1626.892	1	1	0	512	0.3097	0.26255	0.15427	0.22284	0.32622	0.14389	0.19056	0.14133	0.16343	0.51621	0.18283	0.25893	0.24234	0.03856	0.33685	0.25818	-0.975	-2.0187	-1.5229	-1.5187	-2.0771	-1.275	-1.7875	-1.9062	-1.1479	-2.1854	-1.4771	-1.4354	-1.9083	-1.3542	-1.7062	-2.0542	-41.879	96.260	51.617	181.341	149.771	63.958	63.114	229.001	30.399	256.900	4.745	86.652	246.166	64.010	73.040	149.958	3.041e-05	0.00028882	5.0362e-05	328.26	1.0564e-06	4.5376e-06	351.67	99.578	2.3899e-06	4.2078e-06	113.96	33.28	28.09	8.1709	4.4855e-06	10.232	0.00021547	0.00022352	6.1796e-05	333.02	2.4727e-06	2.4613e-06	357.02	101.73	2.4247e-06	2.482e-06	116.7	34.604	29.44	8.6974	2.455e-06	10.874	76.292	5.908	135.388	-62.452	96.022	77.775	-64.366	-57.218	95.805	-58.969	-60.431	-55.913	-52.501	-47.165	127.928	-51.985	-8191	255	
1626.986	1	1	0	0	0.40433	0.23997	0.2458	0.36145	0.061531	0.039382	0.23925	0.1543	0.11828	0.30569	0.12745	0.21275	0.22304	0.29089	0.17808	0.11521	-0.69375	-2.0125	-1.6437	-1.1458	-2.0333	-1.3604	-1.8125	-1.8958	-1.2375	-2.0667	-1.7563	-1.2625	-2.1542	-1.3292	-1.5812	-2.1417	185.356	224.434	-10.711	281.325	282.301	-13.845	149.138	228.552	264.391	119.534	-64.986	203.191	246.294	226.412	180.648	-41.583	0.00011501	0.00032827	0.00014607	325.52	2.3135e-06	9.8756e-07	350.29	100.01	2.1146e-06	3.2467e-06	114.43	32.7	28.292	8.1061	5.0822e-06	10.04	0.00021623	0.00022577	6.1529e-05	334.3	2.4428e-06	2.4041e-06	354.71	102	2.3863e-06	2.4605e-06	116.64	34.328	29.541	8.6687	2.4284e-06	10.711	-26.260	-22.104	-12.851	-62.801	155.487	4.731	-64.576	-57.403	-42.320	77.422	-61.121	-56.205	-52.402	-47.244	58.872	-52.137	-8191	255	
1627.084	1	1	0	0	0.10278	0.03941	0.13975	0.28332	0.21166	0.12597	0.098161	0.11732	0.26749	0.17009	0.10963	0.40491	0.1936	0.46593	0.18696	0.27533	-0.72917	-1.9479	-1.7042	-1.3312	-2.0479	-1.275	-1.3667	-2.2604	-1.1896	-1.775	-1.8604	-1.3146	-2.0021	-1.5333	-1.4875	-2.2229	103.998	-58.571	68.218	256.680	122.589	-2.350	-48.748	163.456	194.050	266.027	209.812	-28.759	216.388	-74.427	210.669	-68.825	0.00010539	0.00022847	4.2633e-05	327.92	5.0234e-06	2.7214e-06	349.96	100.15	3.975e-06	1.4833e-06	114.73	33.251	28.504	8.197	4.4981e-07	10.184	0.00021769	0.0002227	6.1636e-05	334.77	2.4352e-06	2.408e-06	354.34	102.36	2.4054e-06	2.4487e-06	117.37	34.493	29.811	8.7437	2.4601e-06	10.839	99.058	-2.358	104.428	-62.800	47.576	-7.201	-64.487	-57.110	150.257	87.327	-60.780	-56.146	-52.428	-47.132	61.034	-51.997	-8191	255	
1627.203	1	1	0	0	0.10167	0.093318	0.037062	0.29233	0.28851	0.053098	0.2454	0.076628	0.14062	0.14773	0.095824	0.31662	0.14278	0.14622	0.21461	0.17322	-0.91875	-1.7062	-1.8854	-1.3188	-2.0417	-1.6313	-1.3625	-1.9708	-1.4208	-1.6979	-1.9125	-1.3042	-2.2188	-1.6375	-1.2375	-2.0979	48.341	31.199	196.723	245.703	43.704	-25.687	282.906	-37.024	221.543	167.698	248.832	268.143	200.909	-51.369	-23.584	262.688	0.00016659	9.5354e-05	5.0305e-05	332.7	5.7592e-06	2.3405e-06	354.22	101.66	2.794e-06	1.8048e-06	116.39	33.819	28.91	8.305	6.9884e-06	10.352	0.00021616	0.00022379	6.1745e-05	336.88	2.45e-06	2.4337e-06	358.83	103.58	2.4065e-06	2.5071e-06	119.45	35.185	30.049	8.8639	2.4349e-06	11.075	49.843	262.260	-23.661	-62.902	18.561	9.647	-64.716	-57.136	36.610	89.258	-60.661	-56.219	-52.583	-47.360	136.884	-51.388	-8191	255	
1627.275	1	1	0	0	0.12778	0.1232	0.29617	0.096417	0.22249	0.15185	0.16941	0.13683	0.19359	0.26381	0.20039	0.1293	0.036842	0.21714	0.20569	0.14294	-0.92917	-1.6104	-1.9708	-1.2521	-1.7729	-1.575	-1.4042	-2.1604	-1.5104	-1.6104	-2.0687	-1.3042	-1.9062	-1.7938	-1.0708	-2.2354	274.577	174.022	56.958	22.817	-15.163	274.023	223.788	217.946	117.440	241.884	-55.382	22.279	210.207	198.710	19.657	-10.495	8.8441e-05	0.00027978	2.8838e-05	330.22	1.1019e-06	1.399e-06	359.88	101.87	3.4937e-06	3.2778e-06	116.35	34.01	28.809	8.4281	1.3091e-07	10.432	0.00022274	0.00022546	6.2258e-05	339.01	2.4992e-06	2.4752e-06	364.33	104.39	2.4218e-06	2.5092e-06	119.64	35.397	30.281	8.9311	2.4614e-06	11.037	216.701	-6.037	-30.636	-62.906	167.098	81.772	-64.734	-56.851	237.924	99.178	-60.245	-56.247	-52.502	-47.245	268.187	-51.727	-8191	255	
1627.371	1	1	0	0	0.17192	0.055373	0.12424	0.30523	0.075979	0.13645	0.094567	0.2556	0.30352	0.15904	0.23859	0.079992	0.23596	0.19488	0.12157	0.177	-1.0458	-1.5083	-2.0104	-1.2458	-1.7	-1.7938	-1.2583	-2.1958	-1.5292	-1.3333	-2.1583	-1.3	-1.775	-2.0417	-1.2521	-2.1333	50.286	-33.518	169.321	79.737	120.239	-37.139	164.973	-61.464	186.984	235.804	47.461	173.099	197.221	-28.415	283.038	141.125	0.00010212	0.00019446	4.7685e-05	333.2	4.0479e-06	2.1914e-06	359.66	101.78	1.884e-06	3.4343e-06	115.53	33.807	28.939	8.312	4.7839e-06	10.091	0.00022231	0.00022621	6.3228e-05	340.17	2.5172e-06	2.4652e-06	361.67	103.75	2.469e-06	2.4657e-06	118.72	35.03	30.008	8.8171	2.4124e-06	10.778	11.664	14.784	159.874	-62.507	119.839	189.350	-64.346	-56.617	270.387	80.715	-60.413	-56.237	-51.776	-47.330	82.992	-52.013	-8191	255	
1627.491	1	1	0	0	0.22842	0.068814	0.04117	0.17747	0.1934	0.21399	0.096989	0.34963	0.11395	0.039327	0.12501	0.14747	0.20706	0.058597	0.24597	0.1845	-1.2563	-1.1437	-2.275	-1.2417	-1.7292	-1.9292	-1.2583	-2.0833	-1.7396	-1.2375	-2.1562	-1.3875	-1.7729	-2.0438	-1.1313	-2.0208	127.560	156.733	92.288	101.840	267.939	250.253	32.916	19.806	146.080	82.534	-37.009	25.828	236.997	181.678	139.836	266.666	5.9395e-05	0.00012256	3.5582e-05	331.63	5.4059e-07	2.2681e-06	356.26	101.41	2.9788e-06	1.7799e-06	114.05	33.416	28.76	8.2122	2.4956e-06	10.095	0.00022018	0.00022419	6.2824e-05	338.88	2.4758e-06	2.4803e-06	358.69	103.55	2.4481e-06	2.4645e-06	117.82	34.857	29.968	8.7723	2.4407e-06	10.747	-63.450	255.736	112.206	-62.679	22.980	128.247	-64.763	-57.013	26.398	86.693	-60.598	-56.289	-52.451	-46.815	134.608	-51.661	-8191	255	
1627.587	1	1	0	0	0.22873	0.078265	0.15058	0.11949	0.1331	0.076369	0.12552	0.27606	0.14635	0.080658	0.05345	0.17338	0.15806	0.21513	0.24722	0.3001	-1.3438	-1.1187	-2.1396	-1.5021	-1.6375	-2.0708	-1.3875	-1.9396	-1.8542	-1.2792	-2.1625	-1.5833	-1.6083	-2.1146	-1.2833	-1.8125	156.617	254.314	10.505	124.847	-26.146	272.424	235.916	-69.588	192.103	183.150	154.331	265.310	-2.944	39.687	173.005	202.334	0.0001944	0.00033148	4.5912e-05	332.51	2.8133e-06	1.8212e-06	357.79	101.43	6.0488e-06	2.7461e-06	114.71	33.62	28.495	8.1607	1.4868e-06	10.168	0.0002239	0.00022558	6.3581e-05	338.96	2.4857e-06	2.4693e-06	360.3	103.48	2.4946e-06	2.4653e-06	118.11	34.886	29.887	8.7744	2.4491e-06	10.854	11.293	16.268	-28.585	-63.117	222.525	62.258	-64.446	-57.141	177.655	115.901	-60.762	-56.268	-52.289	-47.245	218.711	-51.262	-8191	255	
1627.684	1	1	0	0	0.13314	0.22018	0.1289	0.32437	0.17583	0.089382	0.29607	0.24404	0.10614	0.085546	0.21091	0.24073	0.17498	0.24233	0.18538	0.27341	-1.5125	-1.2021	-2.0187	-1.5	-1.3417	-2.0438	-1.3271	-2	-2.1437	-1.4542	-2.1667	-1.725	-1.1479	-2.0125	-1.2375	-1.7188	7.046	175.565	234.107	-60.610	55.008	-34.358	251.180	79.247	88.728	175.252	148.998	17.353	229.709	114.984	130.593	-40.858	0.00011827	0.00024138	8.6894e-05	332.15	1.689e-06	3.0839e-06	355.64	100.81	9.4068e-07	4.6525e-07	115.52	33.427	28.549	8.142	4.5902e-06	10.071	0.00022302	0.00022422	6.3391e-05	338.72	2.5038e-06	2.5186e-06	361.21	103.2	2.4914e-06	2.4973e-06	118.59	34.904	29.716	8.7348	2.4656e-06	10.784	33.824	8.018	188.364	-62.778	34.634	157.550	-64.325	-57.155	153.526	-32.478	-60.479	-56.395	-52.073	-46.812	174.013	-51.667	-8191	255	
1627.780	1	1	0	0	0.12991	0.19591	0.12459	0.09978	0.035078	0.12278	0.10569	0.14391	0.41708	0.31061	0.35961	0.17072	0.070364	0.079141	0.19295	0.19318	-1.6979	-1.1625	-1.9708	-1.4771	-1.2271	-2.0521	-1.2792	-1.55	-2.0792	-1.2979	-2.0042	-1.5625	-1.4	-2.0438	-1.3125	-1.4458	-39.912	245.215	119.534	258.718	98.896	19.319	-72.690	162.262	162.991	23.895	263.906	232.644	141.095	264.177	190.644	238.482	0.00017973	0.00015451	9.8763e-05	331.12	1.8905e-06	2.4651e-06	356.9	101.01	3.3523e-06	2.4608e-06	115.24	33.517	28.425	8.1487	5.1832e-06	9.926	0.00022372	0.00022857	6.401e-05	338.42	2.5154e-06	2.5137e-06	360.47	103.02	2.4614e-06	2.4582e-06	117.53	34.848	29.725	8.7049	2.4446e-06	10.626	-44.640	62.916	58.833	-62.967	243.799	71.667	-64.952	-57.106	111.304	67.526	-60.919	-56.107	-52.510	-46.992	121.081	-51.583	-8191	255	
1627.851	1	1	0	0	0.16728	0.086765	0.33333	0.13926	0.1626	0.016358	0.30073	0.21573	0.26897	0.27191	0.14013	0.2511	0.24682	0.017175	0.034091	0.17618	-1.65	-0.91458	-1.8937	-1.6708	-1.1063	-2.2625	-1.3771	-1.5417	-2.1	-0.95833	-2.0104	-1.7229	-1.2396	-2.0062	-1.3521	-1.5958	123.380	52.299	46.101	90.514	263.494	185.023	195.503	191.256	-50.290	170.786	118.332	260.942	273.293	266.722	-47.865	156.992	0.00010461	0.00041813	8.6634e-05	330.28	2.7095e-06	1.1422e-06	353.71	101.37	1.6623e-06	3.2911e-06	115.26	33.429	28.81	8.2033	1.9194e-06	10.023	0.000227	0.00022389	6.3044e-05	338.15	2.4675e-06	2.5266e-06	357.99	103.23	2.5065e-06	2.4553e-06	117.45	34.737	29.867	8.7657	2.4749e-06	10.722	34.640	-3.580	193.694	-63.143	-5.444	104.793	-64.873	-57.284	-7.618	63.296	-60.830	-56.337	-52.294	-47.320	143.565	-51.587	-8191	255	
1627.972	1	1	0	0	0.07138	0.15063	0.15493	0.18048	0.15119	0.14647	0.22993	0.16098	0.20301	0.061478	0.31048	0.2877	0.42931	0.27527	0.17043	0.19845	-1.7875	-1.0312	-1.725	-1.75	-1.2708	-2.0458	-1.6333	-1.4083	-2.1729	-1.3083	-1.5208	-1.9271	-1.2521	-1.9125	-1.6542	-1.375	226.552	75.853	270.140	207.404	48.590	22.768	264.094	-27.515	163.024	146.005	275.938	220.509	265.282	270.760	165.427	69.837	0.0001392	0.00028266	7.9301e-05	332.27	7.5731e-07	2.1581e-06	354.8	101.81	2.9872e-06	2.5992e-06	117.27	33.858	28.882	8.2046	3.6636e-06	10.131	0.00022694	0.00022613	6.4308e-05	340.26	2.4632e-06	2.5337e-06	360.49	103.86	2.5236e-06	2.5037e-06	119.26	35.216	30.141	8.8185	2.5051e-06	10.861	34.858	-21.727	102.414	-62.496	86.491	54.883	-64.871	-56.959	57.670	113.065	-60.398	-55.786	-52.259	-46.997	124.138	-51.864	-8191	255	
1628.066	1	1	0	0	0.12287	0.13427	0.14486	0.18852	0.020754	0.27062	0.11205	0.22744	0.12678	0.037523	0.29926	0.21367	0.20837	0.11847	0.13068	0.15361	-1.9271	-1.4396	-1.6417	-2.0375	-1.2563	-2.0625	-1.9375	-1.2812	-2.0604	-1.4104	-1.4021	-2.0167	-1.3354	-1.9896	-2.0396	-1.2458	86.431	22.936	240.719	138.088	45.268	-47.590	59.819	272.704	78.271	51.608	-69.079	177.594	204.977	-61.545	279.568	278.027	0.00010805	0.0003761	0.00011624	335.79	1.5066e-06	2.9086e-06	358.29	101.32	1.5088e-06	2.2716e-06	115.48	34.139	28.903	8.2418	2.9842e-06	10.276	0.00022868	0.00022802	6.3922e-05	342.39	2.5048e-06	2.5553e-06	363.76	103.95	2.5467e-06	2.4695e-06	119.54	35.438	30.197	8.8371	2.5149e-06	10.853	13.455	88.773	-4.257	-62.747	58.758	-6.091	-64.770	-56.777	68.485	-38.229	-60.554	-56.341	-51.534	-46.928	77.929	-51.792	-8191	255	
1628.164	1	1	0	0	0.067912	0.13343	0.30428	0.060669	0.095126	0.16318	0.2093	0.048613	0.1164	0.17135	0.18011	0.28973	0.13365	0.23338	0.10467	0.087715	-1.7667	-1.4396	-1.4042	-2.1937	-1.3979	-1.7979	-2.0271	-1.1583	-2.05	-1.5604	-1.4688	-2.0875	-1.2687	-1.7	-1.9417	-1.2229	43.329	228.747	-17.039	191.105	-12.837	124.822	268.269	274.304	151.976	193.553	167.824	220.134	90.189	-19.952	-67.844	259.628	4.5323e-05	0.00011639	6.4903e-05	333.7	2.9067e-06	6.5327e-06	355.02	102.12	3.3526e-06	2.5867e-06	114.96	33.215	28.818	8.162	1.2111e-06	9.919	0.00022993	0.00022727	6.3609e-05	342.03	2.4876e-06	2.5313e-06	360.57	103.86	2.5242e-06	2.478e-06	117.87	34.698	29.945	8.7419	2.4798e-06	10.557	-31.832	34.676	55.560	-62.686	18.548	158.278	-64.335	-57.051	82.857	73.522	-60.432	-56.223	-52.875	-47.504	35.198	-51.622	-8191	255	
1628.283	1	1	0	0	0.1714	0.13326	0.025258	0.18661	0.16863	0.32237	0.47607	0.027405	0.27815	0.16501	0.028757	0.44295	0.065694	0.067308	0.42272	0.26435	-1.5625	-1.5583	-1.3833	-2.1729	-1.4042	-1.5917	-2.0708	-1.2854	-1.9542	-1.575	-1.3188	-2.1229	-1.525	-1.6833	-2.1708	-1.3729	234.059	195.958	175.171	-3.515	257.194	8.997	-18.740	144.201	-41.044	-33.335	-59.482	245.297	95.840	-27.184	-20.517	-23.623	0.00018931	0.00022617	0.00020852	332.92	4.5343e-06	3.0032e-06	354.52	101.42	2.4991e-06	2.7301e-06	114.34	33.179	28.715	8.2687	1.7455e-06	9.9571	0.00022493	0.00022615	6.2536e-05	340.61	2.4578e-06	2.5026e-06	358.66	103.6	2.5015e-06	2.5054e-06	117.74	34.742	29.954	8.7732	2.4979e-06	10.658	52.522	-51.151	2.471	-62.579	21.151	-3.352	-64.407	-56.911	55.798	64.305	-60.333	-55.997	-52.182	-47.298	186.239	-51.810	-8191	255	
1628.379	1	1	0	0	0.13666	0.17879	0.26133	0.34733	0.061584	0.10039	0.18325	0.14716	0.48631	0.17951	0.15073	0.080814	0.20084	0.13717	0.14434	0.19976	-1.6812	-1.8979	-1.2333	-2.3812	-1.6083	-1.5083	-2.2542	-1.2104	-1.9604	-1.8646	-1.7062	-2.2104	-1.7229	-1.5021	-2.2562	-1.325	234.469	251.145	238.568	282.194	107.693	257.916	157.589	180.603	-65.102	166.663	261.489	37.034	-60.366	136.131	271.825	183.879	0.00020534	0.00011268	8.2764e-05	334.12	2.7098e-06	3.8399e-06	354.14	103.17	1.2807e-06	3.2208e-06	116.78	33.984	29.33	8.3652	1.7773e-06	10.157	0.0002235	0.00022634	6.2188e-05	341.66	2.4528e-06	2.4776e-06	360.24	104.95	2.5487e-06	2.5367e-06	119.44	35.345	30.512	8.9228	2.5114e-06	10.921	15.545	46.175	88.414	-62.536	229.993	34.670	-64.721	-56.711	267.821	219.946	-60.645	-55.925	-52.201	-46.466	-71.434	-51.923	-8191	255	
1628.476	1	1	0	0	0.13283	0.087312	0.090668	0.012014	0.2183	0.35695	0.18631	0.20824	0.20296	0.2038	0.31005	0.19132	0.18904	0.12385	0.17003	0.045667	-1.4583	-2.0271	-1.2	-2.075	-1.4771	-1.3667	-2.2438	-1.2521	-1.7833	-1.9167	-1.2667	-2.0563	-1.8479	-1.4417	-2.0229	-1.4042	194.073	240.718	189.062	83.753	92.989	217.388	204.971	166.189	70.778	120.520	232.552	227.117	219.560	26.240	171.966	142.631	0.0001257	0.0005292	0.00013319	335.45	8.2704e-07	2.8506e-06	361.67	104.91	1.2331e-06	2.5056e-06	119.28	35.071	29.779	8.5639	1.8347e-06	10.447	0.00022822	0.0002313	6.2932e-05	343.57	2.4735e-06	2.4624e-06	366.65	106.79	2.5428e-06	2.5085e-06	122.07	36.313	31.177	9.0809	2.5093e-06	11.121	3.892	55.279	225.145	-62.202	114.829	273.509	-64.545	-57.155	164.854	100.424	-60.526	-56.170	-52.636	-47.156	35.434	-51.950	-8191	255	
1628.572	1	1	0	0	0.061989	0.18142	0.11803	0.24563	0.11115	0.16807	0.12496	0.31544	0.035997	0.12316	0.24581	0.25429	0.11055	0.013479	0.43516	0.11517	-1.3062	-2.1375	-1.5042	-2.1771	-1.8271	-1.3396	-2.2687	-1.475	-1.6896	-2.0396	-1.3083	-2.1417	-1.8646	-1.2458	-2.1604	-1.5771	71.282	218.365	48.906	-55.123	208.963	-59.443	183.386	216.285	-73.900	121.490	278.088	-60.044	154.270	114.210	109.445	-22.566	5.7303e-05	0.00016309	0.00011865	338.53	2.9769e-06	1.7469e-06	367.27	105.48	2.9155e-06	2.5165e-06	120.14	34.851	30.216	8.5696	2.4612e-06	10.284	0.00022716	0.00023211	6.2796e-05	346.71	2.4947e-06	2.471e-06	369.89	107.78	2.4975e-06	2.5273e-06	123.09	36.392	31.474	9.1281	2.5426e-06	10.974	87.122	52.503	48.020	-62.880	90.545	195.857	-64.511	-57.039	4.771	118.132	-60.574	-56.207	-52.614	-47.262	59.999	-51.928	-8191	255	
1628.668	1	1	0	0	0.16335	0.143	0.13056	0.31306	0.14682	0.043903	0.2539	0.14725	0.22085	0.15009	0.14487	0.15191	0.2132	0.20999	0.27044	0.26183	-1.2521	-2.1937	-1.3875	-1.7729	-1.8729	-1.3208	-2.2042	-1.5812	-1.6625	-2.3521	-1.5729	-1.9771	-2.1354	-1.4021	-2.1583	-1.7042	-25.167	149.571	178.571	220.676	123.037	-13.951	151.717	236.322	43.266	52.228	23.161	181.014	259.376	201.211	272.929	-65.940	0.00026675	0.00024043	3.1159e-05	338.89	2.5159e-06	2.6033e-06	362.25	106.15	4.9125e-06	3.0744e-06	120.66	35.258	30.027	8.612	3.4059e-06	10.247	0.00022722	0.00023126	6.3155e-05	346.52	2.4776e-06	2.4824e-06	366.86	108.08	2.4995e-06	2.4909e-06	122.57	36.316	31.41	9.1	2.5063e-06	10.961	54.995	-15.479	-68.312	-62.355	72.010	44.237	-64.769	-57.119	25.910	-30.238	-60.580	-55.785	-52.046	-46.288	-14.648	-52.281	-8191	255	
1628.764	1	1	0	0	0.20391	0.15629	0.278	0.20616	0.044289	0.34975	0.017143	0.097535	0.05448	0.20173	0.16169	0.18361	0.29057	0.24412	0.34406	0.17548	-1.1604	-2.2625	-1.5958	-1.8354	-2.0229	-1.3375	-2.1813	-1.8354	-1.3771	-2.2479	-1.325	-1.6292	-2.0438	-1.3188	-2.0521	-1.9104	-4.638	253.426	-23.245	-31.148	1.427	-26.700	173.080	128.365	33.562	70.534	261.486	-5.472	-22.890	147.192	269.581	188.701	0.00011431	0.00024233	3.0137e-05	341.45	2.6701e-06	3.5473e-06	362.7	107.58	2.3266e-06	2.6731e-06	120.69	35.21	30.309	8.6287	3.3046e-06	10.524	0.00022246	0.00022615	6.2977e-05	347.22	2.4957e-06	2.4531e-06	367.44	109.16	2.4597e-06	2.5178e-06	123.04	36.49	31.74	9.1751	2.5131e-06	11.138	95.984	17.373	50.981	-62.104	84.273	-9.134	-64.650	-56.870	135.998	229.057	-60.368	-56.204	-52.145	-47.459	264.191	-52.184	-8191	255	
1628.885	1	1	0	0	0.22984	0.11205	0.082829	0.20589	0.21199	0.038158	0.16706	0.1638	0.18459	0.035896	0.081879	0.17005	0.082449	0.13585	0.13914	0.1979	-1.1667	-2.1542	-1.5646	-1.7521	-2.2521	-1.1917	-2.1458	-2.0333	-1.1812	-2.2979	-1.7271	-1.475	-2.1688	-1.2458	-1.9896	-1.9917	187.031	88.370	82.999	200.682	264.711	169.535	215.466	-49.844	94.123	253.093	146.783	152.959	106.717	204.398	-14.981	126.259	0.00015035	0.00041842	0.00010515	343.38	1.9206e-06	7.6198e-07	366.93	107.81	3.5729e-06	4.4751e-07	123.08	35.546	30.663	8.7465	3.7703e-06	10.581	0.00022146	0.00022971	6.2228e-05	349.32	2.4869e-06	2.4666e-06	371.14	109.72	2.469e-06	2.5319e-06	124.86	36.834	31.984	9.2449	2.5376e-06	11.266	3.629	23.878	57.143	-62.200	-1.968	71.677	-64.719	-56.998	56.645	105.821	-59.922	-55.740	-52.264	-47.077	119.436	-52.352	-8191	255	
1628.981	1	1	0	0	0.078234	0.34621	0.31135	0.15211	0.15042	0.22551	0.37117	0.20624	0.1601	0.27517	0.025335	0.10058	0.040833	0.1927	0.29296	0.16945	-1.0125	-2.225	-1.8312	-1.6583	-2.3396	-1.3604	-1.9479	-2.2021	-1.2417	-2.125	-1.8125	-1.5396	-2.2313	-1.6479	-1.9333	-2.1437	256.350	176.953	118.732	158.237	85.250	171.615	261.033	151.257	46.174	-26.996	148.439	40.501	208.787	83.073	181.119	-71.814	0.00013933	0.00027014	9.9168e-05	342.54	3.3265e-06	1.5682e-06	370.01	108.66	2.7485e-06	1.131e-06	121.83	35.309	30.647	8.7822	6.0914e-06	10.332	0.00022181	0.00023107	6.3284e-05	349.95	2.4914e-06	2.4971e-06	373.13	110.23	2.4506e-06	2.5309e-06	124.07	36.662	31.959	9.2887	2.5265e-06	11.081	82.655	215.663	26.168	-62.460	-29.667	-17.554	-64.218	-56.876	0.169	94.894	-60.441	-56.058	-52.388	-47.016	178.758	-52.436	-8191	255	
1629.075	1	1	0	0	0.1134	0.25035	0.27004	0.20613	0.25488	0.099391	0.19652	0.23417	0.14107	0.11371	0.17077	0.11639	0.16875	0.033649	0.37742	0.085998	-0.98958	-2.0062	-1.6833	-1.5708	-2.2146	-1.5	-1.8229	-2.1521	-1.3042	-2.1833	-1.8125	-1.35	-2.2208	-1.4125	-1.5854	-2.3542	241.587	5.056	113.945	-71.789	184.490	-51.033	-7.954	191.939	278.450	-14.977	210.343	-36.992	135.810	-45.990	-10.369	259.626	0.00021527	0.00041397	7.1973e-06	341.23	1.1951e-06	3.5264e-06	362.42	108.84	3.7055e-06	4.0526e-06	120.27	35.055	30.54	8.7354	1.3444e-06	10.375	0.00022118	0.00022796	6.3264e-05	349.53	2.5194e-06	2.471e-06	367.63	109.89	2.433e-06	2.5285e-06	123.02	36.309	31.849	9.2283	2.4722e-06	10.997	53.845	20.017	271.322	-62.317	115.329	154.173	-64.573	-56.984	244.537	112.062	-60.637	-55.774	-51.870	-46.648	233.687	-51.968	-8191	255	
1629.147	1	1	0	0	0.18821	0.15309	0.27498	0.2419	0.10176	0.17454	0.31902	0.28853	0.20707	0.10648	0.10556	0.10309	0.052797	0.11063	0.36095	0.048789	-0.82292	-1.9792	-1.9458	-1.4771	-2.0667	-1.6354	-1.6313	-2.2021	-1.3188	-2.0208	-2.0667	-1.3125	-2.15	-1.5063	-1.5042	-2.2896	-46.423	35.790	127.190	274.398	-11.479	223.772	-63.205	241.193	47.966	249.831	169.237	8.414	123.806	71.545	128.940	253.895	7.1696e-05	0.0006262	4.0715e-05	341.6	2.7247e-06	1.1128e-06	364.04	108.15	5.4573e-07	6.6383e-06	120.8	35.413	30.625	8.745	1.5807e-06	10.571	0.00022203	0.00022923	6.3342e-05	348.96	2.543e-06	2.5106e-06	368.42	110.1	2.4815e-06	2.5229e-06	123.62	36.631	32.088	9.3304	2.478e-06	11.259	108.119	38.713	154.675	-62.958	94.084	213.218	-64.440	-57.572	27.289	96.808	-60.999	-56.105	-52.223	-47.885	-7.698	-52.258	-8191	255	
1629.267	1	1	0	0	0.076524	0.20259	0.31543	0.16124	0.19076	0.069858	0.16408	0.21517	0.33586	0.35827	0.15565	0.14824	0.12058	0.41678	0.14844	0.28675	-1.0583	-1.9021	-1.7687	-1.1646	-2.2146	-1.8375	-1.4562	-2.1104	-1.4458	-1.7104	-2.15	-1.3	-1.9208	-1.8458	-1.5083	-2.3521	-16.499	229.127	109.423	100.944	25.023	67.066	-32.856	177.420	-63.549	41.246	100.989	60.804	-5.986	84.653	267.934	-45.561	0.00012292	0.00025142	0.00013073	346.37	4.128e-06	3.8811e-06	369.73	108.81	3.6274e-06	3.7506e-06	122.87	36.126	31.246	8.8356	6.6776e-06	10.768	0.00022149	0.00022929	6.3876e-05	351.23	2.518e-06	2.5384e-06	372.81	111.12	2.5175e-06	2.5116e-06	125.67	37.244	32.435	9.4188	2.5322e-06	11.456	35.456	10.107	-3.447	-62.481	55.092	88.735	-64.352	-56.880	21.831	217.170	-60.733	-55.377	-52.402	-47.190	80.380	-51.447	-8191	255	
1629.364	1	1	0	0	0.12087	0.070666	0.16828	0.2265	0.089451	0.20757	0.12171	0.079578	0.071691	0.19885	0.11482	0.25611	0.29848	0.16438	0.22832	0.1816	-1.0521	-1.6271	-2.1188	-1.1938	-2.0125	-1.8937	-1.3458	-2.3458	-1.45	-1.625	-2.1667	-1.3708	-1.8271	-1.9042	-1.2979	-2.1708	248.992	33.012	91.229	194.213	-0.855	116.235	38.522	262.712	148.518	-36.068	260.528	-26.775	246.826	282.810	239.122	-45.922	0.00012996	0.00040874	6.6722e-05	345.91	2.7442e-06	5.1876e-07	368.77	108.83	2.2795e-06	1.3592e-06	123.19	36.097	31.386	8.8589	2.5725e-06	10.464	0.00022833	0.00023418	6.3459e-05	352.15	2.5476e-06	2.5382e-06	373.79	111.31	2.5271e-06	2.5353e-06	125.78	37.297	32.492	9.3971	2.507e-06	11.231	160.681	47.662	-17.040	-62.718	31.686	156.198	-64.674	-57.373	167.547	-12.752	-60.318	-56.195	-51.977	-47.590	-60.624	-52.056	-8191	255	
1629.460	1	1	0	0	0.1508	0.23369	0.16448	0.12035	0.075873	0.27009	0.22929	0.24655	0.10788	0.23065	0.12269	0.2099	0.091733	0.18958	0.17805	0.26721	-1.0833	-1.5396	-2.1896	-1.3604	-1.8771	-1.8937	-1.5063	-2.0667	-1.5229	-1.4438	-2.2229	-1.3312	-1.9688	-1.9937	-1.3375	-2.1229	249.451	140.927	85.808	212.732	144.438	67.365	-73.589	224.087	262.005	284.074	102.944	284.262	-37.966	140.920	-44.696	83.506	8.8827e-05	0.00014704	5.4963e-05	344.27	3.3294e-06	2.8152e-07	363.62	108.27	3.7277e-06	2.0339e-06	122.62	35.592	31.008	8.8333	2.7375e-06	10.36	0.00022933	0.00022831	6.4581e-05	351.97	2.5323e-06	2.5034e-06	370.09	110.65	2.5089e-06	2.5004e-06	124.23	36.776	32.196	9.3462	2.4812e-06	11.102	6.064	76.967	-15.061	-62.746	81.501	-33.622	-64.521	-57.076	-52.104	144.917	-60.831	-56.064	-52.346	-47.088	120.964	-52.332	-8191	255	
1629.556	1	1	0	0	0.14956	0.19808	0.33507	0.25622	0.30743	0.10093	0.044598	0.21106	0.15123	0.25438	0.081934	0.1934	0.15741	0.21176	0.31664	0.18742	-1.4062	-1.2875	-2.1979	-1.65	-1.6	-2.0333	-1.4479	-2.1417	-1.8083	-1.4167	-2.0417	-1.3	-1.7667	-2.1542	-1.1083	-2.1521	109.874	138.482	-16.089	275.755	197.680	65.329	227.841	271.536	101.549	64.151	-72.301	-13.628	84.413	203.714	-16.551	5.542	0.00010065	0.0003931	7.5175e-05	341.52	2.1542e-06	2.1233e-06	361.54	106.53	3.7115e-06	2.2313e-06	117.97	34.647	30.04	8.4394	1.4856e-06	10.194	0.00022491	0.00022787	6.3974e-05	348.82	2.4871e-06	2.5352e-06	366.02	108.56	2.4994e-06	2.4819e-06	120.83	35.812	31.195	9.017	2.5243e-06	10.829	61.774	274.016	-58.150	-62.576	245.042	-39.682	-64.957	-57.299	152.215	99.813	-60.961	-55.880	-52.688	-47.552	3.743	-51.624	-8191	255	
1629.677	1	1	0	0	0.22083	0.12123	0.072105	0.037577	0.21678	0.26481	0.085184	0.046214	0.090698	0.042665	0.056465	0.092876	0.057759	0.20217	0.29923	0.21033	-1.3062	-1.3333	-2.1354	-1.5521	-1.3958	-2.1292	-1.5063	-2.1625	-1.8958	-1.2687	-2.2458	-1.4292	-1.4375	-2.0396	-1.2771	-1.9396	222.349	219.259	202.649	234.003	166.508	97.065	270.161	273.062	222.329	-55.285	59.363	203.414	13.142	262.684	246.274	218.959	8.6723e-05	0.00012606	4.675e-05	340.74	1.9132e-06	1.3821e-06	360.04	105.54	2.4703e-06	1.2956e-06	117.67	34.337	29.536	8.4282	3.363e-06	10.215	0.00022705	0.0002276	6.4952e-05	346.7	2.484e-06	2.5412e-06	365.9	107.49	2.5587e-06	2.5301e-06	121.16	35.76	30.883	8.9652	2.5474e-06	10.852	91.305	-20.841	169.943	-62.383	2.311	-7.771	-64.683	-56.588	147.009	242.377	-60.141	-56.161	-51.870	-47.375	26.453	-51.631	-8191	255	
1629.773	1	1	0	0	0.15671	0.24504	0.28931	0.23202	0.1215	0.1156	0.47015	0.28902	0.049531	0.25616	0.27686	0.3161	0.32601	0.13877	0.21885	0.0488	-1.5729	-1.1896	-2.1688	-1.6979	-1.4625	-2.0896	-1.3292	-1.8479	-1.8229	-1.2854	-2.1125	-1.725	-1.3646	-2.3063	-1.3458	-1.8583	165.641	175.946	41.316	-65.942	188.296	-17.841	230.734	210.082	1.479	272.064	166.161	240.351	-73.878	26.364	261.521	69.770	0.00016007	0.00039577	0.00010929	335.86	1.6226e-06	2.6453e-06	357.52	102.99	1.8649e-06	2.3255e-06	114.8	32.92	28.577	8.1174	2.0645e-06	9.7055	0.00022697	0.00023055	6.6237e-05	343.75	2.5466e-06	2.5788e-06	362.96	104.65	2.5415e-06	2.4983e-06	118.3	34.563	29.801	8.6381	2.5034e-06	10.452	108.266	-35.647	49.553	-62.800	5.464	0.667	-65.076	-57.106	-52.777	70.853	-59.982	-56.151	-52.249	-47.424	100.929	-51.989	-8191	255	
1629.844	1	1	0	0	0.059333	0.30044	0.22171	0.087723	0.27146	0.15853	0.23544	0.19197	0.27637	0.055518	0.16836	0.13898	0.10829	0.34068	0.13326	0.49202	-1.8312	-1.3458	-2.1271	-1.6417	-1.2896	-2.2521	-1.5896	-1.8771	-2.225	-1.25	-1.9896	-1.9312	-1.3104	-1.9979	-1.5292	-1.6167	222.950	37.881	40.548	94.715	-3.643	55.634	-32.596	184.997	-43.485	250.099	38.328	122.362	26.993	-58.485	96.154	273.724	0.00023661	0.00039747	4.4205e-05	334.13	9.1889e-07	3.8599e-06	352.58	102.32	3.357e-06	2.7546e-06	115.33	33.171	28.74	8.0211	3.3268e-06	9.8154	0.00022543	0.00022761	6.412e-05	342.3	2.4515e-06	2.4978e-06	357.59	104.42	2.473e-06	2.4374e-06	118.05	34.546	29.999	8.6907	2.4254e-06	10.424	49.144	-28.507	40.760	-62.859	-19.524	-37.581	-64.591	-56.776	30.005	126.452	-60.075	-56.581	-52.322	-47.295	165.328	-52.071	-8191	255	
1629.965	1	1	0	0	0.17696	0.10885	0.098898	0.10621	0.12089	0.057813	0.13529	0.23414	0.083424	0.24567	0.15899	0.20272	0.22204	0.029935	0.098989	0.055526	-1.8646	-1.3292	-2.0042	-2.0646	-1.4542	-2.3229	-1.5542	-1.5	-2.1271	-1.55	-1.9521	-1.8521	-1.5125	-2.1813	-1.6792	-1.3521	-52.340	254.503	212.668	-64.638	246.758	187.325	276.862	151.159	12.751	274.911	259.697	281.428	63.368	54.504	51.043	-11.783	0.00017024	0.00029131	6.1592e-05	334.72	1.7258e-06	1.0671e-06	352.77	103.41	9.2146e-07	5.1012e-06	115.57	33.429	29.239	8.2955	4.2109e-06	9.9203	0.00022243	0.00022267	6.2852e-05	342.15	2.4366e-06	2.4622e-06	358.58	105.2	2.4732e-06	2.4248e-06	118.37	34.766	30.418	8.8202	2.4457e-06	10.621	-47.470	-37.855	190.314	-62.708	266.942	109.297	-65.031	-56.824	-35.373	92.006	-60.519	-56.013	-52.209	-46.559	153.052	-51.688	-8191	255	
1630.059	1	1	0	0	0.1509	0.37439	0.33768	0.21803	0.12019	0.067323	0.16943	0.21579	0.19427	0.17137	0.10613	0.14775	0.43382	0.20006	0.18497	0.27365	-1.8813	-1.2938	-1.65	-1.9583	-1.3062	-2.1229	-1.6292	-1.4188	-2.2354	-1.2979	-1.7229	-2.2625	-1.2729	-1.9917	-1.8021	-1.4167	32.552	244.958	111.991	-32.883	279.845	99.533	218.771	63.441	-11.213	115.126	276.389	73.707	-54.231	252.912	-1.278	263.409	9.1284e-05	0.00030022	9.891e-06	335.46	1.6154e-06	1.132e-06	360.46	105.89	7.9901e-07	6.8195e-06	119.23	34.597	29.734	8.4224	4.1909e-07	10.278	0.00022284	0.00022181	6.2271e-05	344.18	2.3879e-06	2.4482e-06	364.76	107.37	2.4934e-06	2.454e-06	121.91	35.844	31.033	8.995	2.4481e-06	10.915	-39.167	-40.370	200.115	-62.380	0.107	96.780	-64.659	-57.034	186.277	244.498	-60.095	-55.751	-51.840	-46.714	94.523	-51.845	-8191	255	
1630.156	1	1	0	0	0.29603	0.054738	0.12318	0.25941	0.12053	0.09675	0.17317	0.069648	0.064871	0.22755	0.18358	0.15311	0.23996	0.32725	0.12742	0.10419	-1.6562	-1.2938	-1.6521	-2.0917	-1.2729	-2.0312	-2.0062	-1.3146	-1.9854	-1.4146	-1.5458	-2.0938	-1.2604	-1.8625	-1.8333	-1.2563	261.071	-61.148	13.134	252.088	-57.863	82.827	173.346	182.503	119.877	75.962	280.334	64.883	-38.629	261.930	217.117	116.471	6.8972e-05	0.00010195	9.5357e-05	341.26	2.4743e-06	2.657e-06	364.51	106.83	2.548e-06	4.5209e-06	122.13	35.113	30.343	8.5243	4.7076e-06	10.285	0.00022401	0.00022102	6.1759e-05	347.92	2.4161e-06	2.4765e-06	368.94	108.66	2.4737e-06	2.4216e-06	123.51	36.317	31.476	9.09	2.4062e-06	10.869	-32.874	100.326	257.369	-62.915	12.789	36.466	-64.936	-56.743	203.681	61.223	-60.588	-56.312	-52.604	-47.017	48.079	-52.330	-8191	255	
1630.252	1	1	0	0	0.094626	0.073596	0.25062	0.20536	0.14887	0.034901	0.21788	0.37077	0.063375	0.10906	0.019366	0.15356	0.14773	0.013526	0.1268	0.131	-2.0542	-1.5708	-1.375	-2.2958	-1.3875	-1.7583	-2.0396	-1.2	-1.9792	-1.5	-1.5146	-2.1688	-1.4312	-1.9062	-1.9813	-1.3708	118.836	21.029	189.534	220.702	273.991	13.921	-28.038	267.134	221.509	73.348	-69.980	-39.559	-48.638	222.889	244.719	26.888	0.00022902	0.00037163	8.1589e-05	341.61	2.8028e-06	2.2451e-06	361.39	106.89	1.7274e-06	1.2404e-06	118.95	34.099	29.082	8.1088	3.3374e-06	9.735	0.00022124	0.00021722	6.0618e-05	348.27	2.3785e-06	2.4053e-06	366.27	108.34	2.3864e-06	2.3698e-06	120.74	35.153	30.289	8.6555	2.3206e-06	10.325	12.993	-33.081	-61.720	-62.952	100.163	111.316	-64.514	-57.728	264.239	2.520	-60.248	-56.102	-52.591	-47.032	-12.662	-52.443	-8191	255	
1630.372	1	1	0	0	0.14069	0.10384	0.11893	0.09025	0.10723	0.11144	0.028671	0.090259	0.11798	0.15285	0.2188	0.30714	0.17173	0.2631	0.15041	0.31772	-1.6229	-1.7417	-1.2917	-2.2021	-1.3958	-1.7458	-2.275	-1.3833	-2.2021	-1.7604	-1.5042	-2.2479	-1.5875	-1.525	-2.1958	-1.2938	222.014	-49.732	135.011	270.312	79.901	-0.832	86.424	97.650	65.844	-29.560	170.891	198.512	102.697	54.603	227.419	-11.145	0.00015479	0.00036558	1.1316e-05	338.94	3.5937e-06	1.8022e-06	357.14	104.87	1.5428e-06	1.5275e-06	117.29	33.079	28.617	8.1014	2.638e-06	9.6479	0.00021349	0.00021084	5.8059e-05	345.45	2.3007e-06	2.3318e-06	361.62	106.35	2.3636e-06	2.2822e-06	118.88	34.512	29.833	8.5767	2.3145e-06	10.29	101.824	54.872	136.857	-62.892	21.678	257.458	-64.697	-57.673	154.226	163.858	-61.353	-56.652	-52.182	-46.913	102.566	-52.195	-8191	255	
1630.444	1	1	0	0	0.19523	0.29977	0.20714	0.028467	0.15771	0.23603	0.27378	0.19975	0.19074	0.08885	0.14808	0.096168	0.21806	0.11907	0.27343	0.098822	-1.6896	-1.7542	-1.3375	-2.1917	-1.575	-1.6	-2.0979	-1.1812	-1.6854	-1.9354	-1.2188	-2.3312	-1.7021	-1.4667	-2.2562	-1.5396	-60.463	-39.759	-61.569	-43.814	249.852	233.622	190.627	136.172	117.299	236.428	227.683	133.372	-58.415	-11.748	43.446	51.976	4.938e-05	0.00016787	2.9723e-05	342	9.5672e-07	1.125e-06	356.31	104.66	3.2725e-06	5.5049e-06	116.87	33.398	28.769	8.0458	2.3115e-06	9.866	0.00021007	0.00020817	5.7937e-05	347.56	2.292e-06	2.2957e-06	361.77	106.03	2.2944e-06	2.2958e-06	119.06	34.452	29.719	8.5506	2.3172e-06	10.419	56.306	-13.021	-66.065	-63.384	1.787	-35.974	-64.890	-57.287	-71.040	64.685	-60.722	-56.211	-53.151	-47.568	99.189	-51.843	-8191	255	
1630.565	1	1	0	0	0.028786	0.23324	0.26447	0.068536	0.053039	0.059823	0.099556	0.25298	0.19356	0.43811	0.20713	0.075946	0.16501	0.14083	0.13612	0.095529	-1.3854	-1.9438	-1.2042	-2.1646	-1.5917	-1.4875	-2.2458	-1.6292	-1.7167	-2.0604	-1.1167	-2.1583	-1.6167	-1.3708	-2.075	-1.4583	99.600	152.514	276.330	275.329	255.081	113.434	16.187	199.478	231.585	124.254	221.875	-31.547	233.291	-41.327	40.139	246.677	0.00021466	0.00041555	8.518e-05	342.15	1.132e-06	2.8052e-07	360.92	104.23	4.6716e-06	6.7843e-07	118.67	33.736	28.739	8.0836	2.2563e-06	9.8985	0.00021036	0.0002114	5.8695e-05	347.55	2.2919e-06	2.3244e-06	365.97	106.3	2.3371e-06	2.3322e-06	120.86	34.995	29.961	8.6539	2.3657e-06	10.532	120.925	-10.959	63.486	-62.751	38.727	185.523	-64.561	-57.323	229.611	89.676	-60.505	-56.566	-52.128	-46.704	-34.914	-52.174	-8191	255	
1630.661	1	1	0	0	0.40687	0.28145	0.28795	0.15566	0.14517	0.1356	0.14141	0.17655	0.092726	0.17322	0.25451	0.3356	0.22854	0.24269	0.098878	0.14166	-1.4625	-1.925	-1.2771	-1.9875	-1.7583	-1.3208	-2.2271	-1.4438	-1.6042	-2.2083	-1.2896	-2.025	-2.0479	-1.0979	-2.1792	-1.6688	-73.341	184.904	40.488	-29.800	272.411	95.518	-46.951	156.658	137.118	26.011	-54.287	271.273	11.981	-66.340	67.087	155.425	7.2576e-05	0.00022239	8.8945e-05	342.31	4.7534e-06	8.3438e-07	361.88	105.36	2.6134e-06	1.1984e-07	118.61	34.103	29.331	8.2055	1.0689e-06	9.7943	0.00021122	0.00021133	5.9296e-05	348.32	2.2997e-06	2.329e-06	365.96	106.95	2.3331e-06	2.3448e-06	120.43	35.095	30.272	8.686	2.3282e-06	10.418	128.198	30.661	15.452	-62.528	74.417	-17.334	-64.357	-57.166	-14.752	113.535	-60.879	-56.262	-52.789	-46.970	65.258	-51.597	-8191	255	
1630.757	1	1	0	0	0.22995	0.18027	0.26125	0.17215	0.098868	0.17669	0.26617	0.35165	0.11204	0.17981	0.29218	0.1368	0.093477	0.1986	0.095288	0.12129	-1.3021	-2.3208	-1.3417	-2.0417	-2.0875	-1.4125	-2.3604	-1.6313	-1.4146	-2.125	-1.3646	-1.9583	-2.0458	-1.2333	-2.15	-1.6729	-70.246	190.284	32.927	242.848	249.608	277.467	224.115	150.444	-11.602	33.327	195.517	211.897	140.267	60.935	138.516	101.485	4.3518e-05	0.00013094	1.7282e-05	343.99	1.3874e-06	3.3108e-06	360.55	106.23	5.936e-06	1.671e-06	119.59	33.653	29.351	8.1839	1.712e-06	9.7675	0.00020706	0.00021132	5.7376e-05	348.85	2.276e-06	2.3011e-06	365.04	107.81	2.2916e-06	2.3568e-06	121.15	34.872	30.466	8.6894	2.3213e-06	10.399	81.010	281.661	70.993	-62.822	51.275	160.015	-64.881	-57.119	97.664	115.492	-60.675	-56.564	-52.202	-47.251	258.742	-51.984	-8191	255	
1630.853	1	1	0	0	0.35167	0.13308	0.12144	0.070402	0.14662	0.17965	0.20298	0.25313	0.092172	0.22548	0.17555	0.075024	0.084914	0.041616	0.07904	0.12509	-1.1625	-2.3396	-1.2896	-1.9292	-2.025	-1.3271	-2.1604	-1.75	-1.4792	-2.0667	-1.4625	-1.6437	-2.0271	-1.2375	-2.0875	-1.7542	263.861	167.342	188.581	145.480	67.478	235.636	226.228	77.057	-38.178	253.871	231.356	72.506	214.763	103.666	246.530	-51.505	7.8728e-05	0.00024539	3.9203e-05	344.28	2.878e-06	2.2427e-06	359.73	106.96	8.7843e-06	2.8554e-06	119.54	34.007	29.435	8.2983	3.9375e-06	9.8587	0.00020571	0.00021147	5.7715e-05	348.79	2.3144e-06	2.2614e-06	364.74	108.01	2.2974e-06	2.3196e-06	121.14	35.129	30.534	8.7734	2.3197e-06	10.471	169.442	-31.120	129.278	-62.712	255.087	38.241	-64.672	-57.403	16.249	21.758	-60.470	-55.631	-52.598	-46.881	139.797	-51.370	-8191	255	
1630.972	1	1	0	0	0.36665	0.25354	0.13614	0.16232	0.26388	0.33507	0.22667	0.055785	0.26773	0.1818	0.049593	0.32256	0.24066	0.094784	0.25562	0.15065	-0.97917	-2.2667	-1.4021	-1.2812	-2.125	-1.3104	-1.9542	-2.0021	-1.4229	-2.1063	-1.6104	-1.2938	-2.0917	-1.2271	-1.7333	-1.8104	-40.608	-50.868	100.848	188.439	-5.835	19.092	196.969	52.712	200.962	-54.576	276.466	226.350	-6.270	111.018	184.232	30.754	2.0221e-05	0.00025365	4.8777e-05	343.23	4.1648e-06	3.1787e-06	362.4	106.6	4.6198e-06	1.6174e-06	119.89	34.459	29.502	8.3117	3.5847e-06	9.9972	0.00020394	0.00021507	5.8774e-05	349.47	2.3379e-06	2.2817e-06	367.45	108.42	2.3101e-06	2.3783e-06	122.53	35.503	30.581	8.7963	2.3518e-06	10.637	180.600	2.983	10.590	-62.721	-35.813	164.476	-64.846	-56.839	33.740	195.353	-60.083	-56.130	-52.162	-47.035	53.207	-51.717	-8191	255	
1631.045	1	1	0	0	0.46068	0.12746	0.12569	0.26024	0.081866	0.085814	0.23545	0.11309	0.14018	0.088746	0.12556	0.035409	0.18674	0.30302	0.20059	0.21099	-0.875	-2.175	-1.6792	-1.5042	-2.2458	-1.3792	-1.8958	-2.075	-1.2583	-2.1	-1.6083	-1.6	-2.175	-1.3188	-1.7708	-2.0646	52.013	201.015	228.894	68.486	-1.508	245.268	-19.679	-20.336	242.699	29.796	-3.501	-4.613	253.834	115.233	277.434	1.740	9.1337e-05	0.0003307	0.00010146	342.96	3.1787e-06	3.4174e-07	362.09	106.75	1.7354e-06	8.1339e-07	119.51	33.988	29.476	8.3039	6.1184e-07	9.913	0.00020777	0.00021341	5.8421e-05	349.29	2.3273e-06	2.3043e-06	367.67	108.12	2.3072e-06	2.3807e-06	121.24	35.112	30.522	8.73	2.3424e-06	10.467	118.042	-59.788	35.979	-62.720	97.661	123.729	-64.651	-56.995	-32.264	20.293	-60.285	-55.891	-51.901	-46.948	119.141	-52.113	-8191	255	
1631.140	1	1	0	0	0.057013	0.10469	0.23233	0.2137	0.22176	0.24782	0.123	0.23881	0.18196	0.11984	0.047959	0.30032	0.31662	0.19985	0.20831	0.36954	-1.0271	-1.9729	-1.7729	-1.5104	-2.1875	-1.3813	-1.7208	-2.2646	-1.2437	-2.0396	-1.8	-1.25	-2.1833	-1.4146	-1.6437	-2.1458	171.461	170.483	84.163	204.510	167.506	40.046	-11.634	73.749	179.104	-54.557	16.892	146.767	97.076	151.269	227.639	229.121	0.00017504	0.00046615	6.0063e-05	340.99	1.8788e-06	1.3796e-06	358.2	104.54	2.5344e-06	1.1466e-06	116.7	32.861	28.852	8.0873	2.2288e-06	9.5649	0.00020742	0.00021387	5.902e-05	346.68	2.3739e-06	2.3479e-06	361.68	106.06	2.352e-06	2.363e-06	118.76	34.317	29.842	8.5873	2.3616e-06	10.272	53.621	-0.257	18.692	-62.447	164.821	140.548	-64.531	-57.510	198.628	249.217	-61.087	-56.033	-52.393	-46.995	54.458	-52.616	-8191	255	
1631.236	1	1	0	0	0.15137	0.10954	0.40842	0.22708	0.23564	0.083374	0.30057	0.28443	0.24368	0.18124	0.11021	0.25384	0.049876	0.082701	0.070486	0.0344	-1.0438	-1.8937	-1.875	-1.2375	-2.1333	-1.75	-1.8229	-2.0729	-1.2396	-1.9542	-1.9896	-1.2396	-2.0458	-1.6896	-1.3667	-2.3417	268.985	272.721	112.542	224.387	73.864	226.914	270.081	-69.945	249.547	109.960	220.563	258.424	109.722	53.784	206.484	205.569	0.00013994	0.00024078	3.8374e-05	337.13	1.7716e-06	3.3143e-06	355.48	103.34	2.7007e-06	4.3659e-06	116.01	33.085	28.63	8.0737	1.6836e-06	9.7777	0.00021121	0.00021716	5.9474e-05	343.34	2.3938e-06	2.3786e-06	359.16	105.28	2.3909e-06	2.4106e-06	118.79	34.52	29.876	8.6226	2.3801e-06	10.458	-50.140	23.321	-60.617	-63.065	261.814	160.155	-64.450	-57.205	133.095	80.595	-60.858	-56.010	-52.748	-47.311	84.244	-52.328	-8191	255	
1631.355	1	1	0	0	0.20213	0.22807	0.2251	0.17843	0.1538	0.18977	0.026074	0.25002	0.081532	0.21939	0.034907	0.17568	0.098555	0.17737	0.15472	0.14964	-0.79792	-1.7708	-1.9896	-1.2583	-2.0771	-1.7938	-1.5125	-1.9542	-1.3854	-1.6063	-2.0062	-1.2687	-2.0167	-1.8521	-1.3438	-2.0958	26.916	207.349	148.924	237.141	246.290	134.284	-41.656	271.124	-5.613	122.674	54.574	44.724	269.515	-55.811	230.753	240.181	0.00013752	0.00032182	2.9215e-05	339.46	3.0435e-06	3.6871e-06	357.75	104	5.8173e-06	1.4568e-06	117.39	33.471	28.739	8.1122	4.9305e-06	10.051	0.0002143	0.00021673	6.0956e-05	344.16	2.4319e-06	2.3792e-06	363.57	105.59	2.4005e-06	2.4054e-06	120.31	34.833	30.027	8.6669	2.4217e-06	10.708	52.462	-64.187	52.092	-62.531	43.356	65.991	-64.484	-57.024	63.034	63.034	-60.316	-56.149	-52.345	-46.677	128.510	-51.326	-8191	255	
1631.451	1	1	0	0	0.014177	0.054865	0.42896	0.11639	0.078012	0.14652	0.34988	0.15218	0.24497	0.20898	0.084204	0.14429	0.23882	0.3436	0.25102	0.18611	-1.2229	-1.5396	-2.0167	-1.375	-2.2333	-1.8312	-1.3583	-1.9792	-1.6104	-1.5396	-2.0292	-1.2271	-1.975	-1.825	-1.3271	-2.1792	13.426	121.754	224.172	-34.828	80.751	159.960	193.186	155.560	257.423	235.823	83.165	106.803	-71.144	250.035	57.908	265.956	0.00011657	0.00017088	3.8355e-05	338.5	4.8291e-06	8.8879e-07	365.63	104.55	3.0116e-06	8.8412e-07	118.71	33.55	29.025	8.0019	1.895e-06	9.7448	0.00021708	0.00022529	6.2138e-05	344.76	2.4223e-06	2.4292e-06	367.67	106.43	2.4008e-06	2.428e-06	120.58	34.877	30.033	8.6206	2.3803e-06	10.436	15.454	273.987	52.525	-62.888	43.860	-64.420	-64.798	-57.368	-11.088	218.261	-60.825	-56.047	-52.575	-47.001	-45.965	-51.640	-8191	255	
1631.547	1	1	0	0	0.253	0.12458	0.36038	0.069744	0.021301	0.14363	0.14169	0.14334	0.2437	0.079706	0.1913	0.17788	0.16657	0.033959	0.010157	0.28131	-1.1208	-1.6417	-2.2979	-1.4583	-1.8604	-1.8875	-1.45	-2.0667	-1.7437	-1.6583	-2.0229	-1.4479	-1.8729	-1.9	-1.3479	-2.0875	68.537	230.525	111.350	11.849	99.163	143.548	105.043	39.560	164.135	213.079	222.208	205.616	98.469	-10.431	98.127	242.009	0.00012955	0.00026125	7.168e-05	340.14	2.5752e-06	2.5983e-06	360	104.35	8.2399e-07	4.4858e-07	117.4	33.393	28.608	8.0818	4.1218e-06	9.6144	0.00021506	0.00021726	6.1965e-05	344.9	2.3988e-06	2.3989e-06	363.14	105.92	2.4049e-06	2.3863e-06	119.53	34.523	29.799	8.5734	2.37e-06	10.279	164.897	-57.545	-27.163	-62.705	-47.068	185.812	-64.599	-56.967	114.607	59.651	-60.501	-56.462	-52.106	-46.762	27.930	-51.454	-8191	255	
1631.643	1	1	0	0	0.07834	0.073107	0.2519	0.23138	0.061668	0.30802	0.3392	0.24883	0.22798	0.10733	0.14433	0.16985	0.29712	0.077735	0.12622	0.040137	-1.4958	-1.5	-2.1229	-1.5167	-1.7542	-2.0354	-1.375	-2.1667	-1.8604	-1.425	-2.1188	-1.65	-1.6708	-2.1708	-1.2563	-2.0833	60.153	-20.470	-45.405	244.865	-66.303	242.255	248.713	236.021	131.178	162.861	230.530	235.028	-32.615	211.767	-2.120	251.938	0.00022195	0.00024294	0.00011817	336.53	1.5177e-06	4.6173e-06	357.62	103.7	1.2079e-06	1.9279e-06	115.95	32.98	28.593	7.9782	2.7422e-06	9.7847	0.00021156	0.00021441	6.1005e-05	344.23	2.3703e-06	2.3845e-06	360.82	105.36	2.3973e-06	2.3836e-06	118.57	34.214	29.698	8.5669	2.358e-06	10.35	122.582	-46.970	58.610	-62.170	106.690	283.038	-64.506	-56.769	156.640	110.992	-59.882	-55.849	-52.039	-46.709	102.363	-51.575	-8191	255	
1631.739	1	1	0	0	0.1555	0.14751	0.24693	0.16216	0.32723	0.2718	0.21184	0.19478	0.23735	0.30313	0.14107	0.092236	0.19507	0.3597	0.28331	0.15407	-1.5417	-1.3604	-2.3417	-1.7771	-1.5104	-2.2125	-1.5063	-2.0042	-1.9521	-1.4021	-2.1917	-1.7292	-1.7167	-2.1375	-1.2521	-2.0479	-55.249	5.793	18.370	148.054	175.747	88.580	82.564	-8.353	77.625	122.071	77.638	40.411	225.926	229.919	54.337	104.041	0.0002677	0.00013149	4.9837e-05	335.25	2.9687e-06	1.7315e-06	359.05	104.25	2.4387e-06	1.3323e-06	117.27	33.364	28.444	8.1306	1.8061e-06	9.9102	0.00021334	0.0002163	6.0726e-05	342.7	2.3867e-06	2.4335e-06	362.03	105.93	2.3669e-06	2.3642e-06	120.12	34.684	29.886	8.6722	2.3788e-06	10.571	-33.566	-60.966	69.068	-62.410	-37.050	246.332	-64.185	-56.895	191.845	91.061	-60.567	-55.688	-51.495	-46.580	153.925	-52.016	-8191	255	
1631.836	1	1	0	0	0.14848	0.089552	0.071718	0.19606	0.072758	0.2034	0.12963	0.17958	0.047664	0.33991	0.206	0.27312	0.10868	0.065928	0.20782	0.16036	-1.6917	-1.3188	-2.0396	-1.5917	-1.4271	-2.3312	-1.6583	-1.7917	-1.9958	-1.3521	-2.1333	-1.7833	-1.5187	-2.1813	-1.4188	-1.9042	160.575	250.957	235.344	49.681	155.769	250.773	81.084	118.350	-40.118	32.874	25.319	4.343	261.696	-67.100	-40.023	161.665	6.8092e-05	0.00022746	1.7277e-05	338.98	3.2946e-06	3.0345e-06	361.29	104.9	3.1839e-06	1.5651e-06	118.71	33.766	28.815	8.1713	6.6762e-07	9.7987	0.00021485	0.00021643	6.1469e-05	345.15	2.3754e-06	2.4168e-06	365.09	106.45	2.3922e-06	2.3868e-06	120.61	34.942	30.147	8.6853	2.3073e-06	10.485	90.607	75.050	119.938	-62.362	69.877	12.628	-64.444	-56.645	195.673	179.235	-60.747	-56.319	-52.306	-46.703	199.375	-51.635	-8191	255	
1631.932	1	1	0	0	0.28437	0.19314	0.046809	0.072216	0.11614	0.16753	0.2156	0.21433	0.1907	0.14416	0.23028	0.098271	0.088356	0.26178	0.17616	0.19247	-1.8438	-1.2583	-2.0896	-1.95	-1.3937	-2.1937	-1.4271	-1.6104	-2.1854	-1.4729	-2.1813	-2.0708	-1.3583	-2.3104	-1.7083	-1.7604	147.255	216.282	-47.134	97.060	-47.475	-51.720	180.687	36.993	188.090	29.070	-26.345	216.779	207.481	-54.066	263.485	-24.555	0.00022845	0.00019009	4.8034e-05	339.34	1.2161e-06	2.7588e-06	359.56	105.34	3.6443e-06	1.1883e-07	117.27	33.317	28.93	8.1778	8.8402e-06	9.7523	0.00021714	0.00021432	5.9732e-05	345.81	2.3547e-06	2.4263e-06	362.81	106.6	2.36e-06	2.3453e-06	119.43	34.614	30.046	8.6974	2.3639e-06	10.406	167.078	-31.534	-51.627	-62.476	-47.750	-18.708	-63.986	-56.874	42.033	173.779	-60.062	-56.009	-51.849	-46.896	136.681	-51.521	-8191	255	
1632.052	1	1	0	0	0.16061	0.23787	0.38285	0.20324	0.069439	0.10355	0.094612	0.031949	0.042444	0.14309	0.20649	0.2072	0.14832	0.31045	0.13392	0.26105	-1.8854	-1.3188	-1.9833	-1.9542	-1.3083	-2.2687	-1.7667	-1.55	-2.1083	-1.3146	-2.075	-1.9646	-1.3646	-2.0979	-1.4667	-1.4312	67.720	126.423	226.612	262.460	258.354	74.553	225.294	124.976	-67.990	146.534	108.243	51.709	26.091	8.380	-36.540	-10.245	0.00018779	0.00030202	4.8969e-05	339.21	2.6526e-06	3.1916e-06	358.01	105.24	1.5784e-06	1.5219e-06	117.07	33.448	29.163	8.1793	2.7703e-06	9.8396	0.00021368	0.00021319	6.0429e-05	345.5	2.3414e-06	2.4056e-06	361.75	106.61	2.4059e-06	2.3471e-06	119.41	34.723	30.25	8.7433	2.3632e-06	10.457	90.416	209.512	-49.486	-62.548	-10.852	164.097	-64.630	-56.601	-69.260	110.134	-60.535	-55.987	-52.114	-46.771	123.279	-51.301	-8191	255	
1632.148	1	1	0	0	0.10452	0.31798	0.17145	0.42	0.2988	0.15974	0.09975	0.15199	0.23609	0.05403	0.13423	0.1588	0.028995	0.18966	0.31225	0.10341	-1.7062	-1.2771	-1.6583	-2.0333	-1.2646	-2.3167	-1.8042	-1.5417	-2.0417	-1.3792	-1.6375	-2.0083	-1.2917	-2.05	-1.775	-1.3021	283.553	235.715	235.364	209.020	185.008	254.437	41.197	258.096	18.021	49.370	-56.870	160.834	214.041	234.900	238.755	228.695	7.6627e-05	0.00055595	0.00016769	338.67	1.9267e-06	3.5652e-06	357.59	105.41	1.7489e-06	3.136e-06	118.07	33.664	29.256	8.2988	1.6468e-06	9.8132	0.00021866	0.00021895	6.1421e-05	346.45	2.395e-06	2.4375e-06	362.77	106.69	2.4359e-06	2.4279e-06	120.37	35.037	30.388	8.803	2.4086e-06	10.575	12.551	275.074	2.709	-62.688	207.927	8.926	-64.307	-56.523	-18.856	46.195	-60.044	-56.213	-52.046	-46.530	233.268	-50.752	-8191	255	
1632.245	1	1	0	0	0.19285	0.075871	0.10496	0.19538	0.23028	0.064246	0.13285	0.2044	0.08891	0.081782	0.20326	0.11797	0.020451	0.22346	0.24979	0.13686	-1.5958	-1.5708	-1.6812	-2.2667	-1.2333	-1.9604	-1.9	-1.5229	-2.1729	-1.5312	-1.7333	-2.2917	-1.4375	-1.9771	-2.0292	-1.4438	149.614	194.899	153.516	239.505	223.902	259.756	278.523	-66.713	187.595	60.213	-63.668	248.216	34.708	-74.117	205.907	98.401	0.00014875	0.00035224	1.5567e-05	343	2.1475e-06	4.4375e-06	362.11	105.65	1.3517e-06	1.1686e-06	120.42	33.848	29.493	8.3901	3.402e-07	10.007	0.0002204	0.00022008	6.1207e-05	348.16	2.4153e-06	2.4519e-06	367.02	107.28	2.482e-06	2.3941e-06	121.89	35.247	30.543	8.864	2.4339e-06	10.623	-13.160	-11.237	71.917	-62.235	27.683	82.554	-64.396	-56.628	154.821	260.556	-59.747	-55.420	-52.043	-47.170	86.881	-51.549	-8191	255	
1632.341	1	1	0	0	0.29167	0.043662	0.10491	0.23495	0.2524	0.05901	0.14673	0.13562	0.33384	0.078613	0.22287	0.060957	0.18212	0.15998	0.20161	0.55752	-1.9271	-1.6146	-1.6187	-2.1479	-1.2167	-1.8771	-2.1583	-1.3292	-2.1688	-1.8104	-1.5438	-2.1312	-1.4896	-1.7	-2.15	-1.2833	280.467	102.507	169.454	78.921	161.700	249.630	194.538	47.190	234.369	-9.529	280.745	17.278	222.966	18.414	183.724	88.679	9.2906e-05	0.00023539	9.2239e-05	340.08	2.077e-06	7.434e-07	358.05	105.25	2.9112e-06	3.0519e-06	118.3	33.927	29.245	8.3259	2.8256e-06	9.752	0.00022135	0.00022087	6.0552e-05	347.78	2.3923e-06	2.4438e-06	363.12	107.04	2.4517e-06	2.4026e-06	120.18	34.939	30.428	8.8146	2.4327e-06	10.424	88.800	94.318	64.626	-62.595	1.890	107.236	-64.261	-57.174	189.754	72.514	-59.705	-55.927	-51.940	-46.818	204.463	-51.244	-8191	255	
1632.435	1	1	0	0	0.10483	0.19069	0.065231	0.27686	0.1303	0.16043	0.20051	0.45529	0.34543	0.25562	0.21094	0.18333	0.22295	0.18667	0.10947	0.066312	-1.7667	-1.7417	-1.3979	-2.1667	-1.4625	-1.7812	-2.1937	-1.3396	-2.3292	-1.9604	-1.5042	-2.2292	-1.7188	-1.5521	-2.2188	-1.5229	-6.314	41.131	18.025	274.314	206.112	-25.127	17.221	208.380	-62.999	-45.962	257.382	254.062	276.264	220.331	270.316	-69.817	0.00012824	0.00034197	2.0945e-05	340.36	2.5094e-06	5.1641e-06	355.02	105.6	2.656e-06	6.1905e-06	117.57	33.719	29.387	8.2638	2.0145e-06	9.9145	0.00021791	0.00021497	5.9888e-05	346.17	2.3742e-06	2.4105e-06	360.78	106.97	2.3926e-06	2.3803e-06	120.17	34.764	30.462	8.804	2.3954e-06	10.506	160.366	113.852	145.955	-62.401	-7.536	32.969	-64.611	-56.867	97.746	150.420	-60.146	-55.641	-51.694	-46.136	168.755	-51.547	-8191	255	
1632.531	1	1	0	0	0.13454	0.13745	0.28013	0.027414	0.072672	0.21723	0.12056	0.023043	0.040577	0.14868	0.31958	0.16576	0.18262	0.28459	0.21316	0.11843	-1.4937	-1.7042	-1.1375	-2.2125	-1.3208	-1.4521	-2.1188	-1.5375	-1.8854	-1.8021	-1.1812	-2.2271	-1.625	-1.4229	-2.1208	-1.3271	108.837	-48.805	-3.135	129.498	99.896	222.304	53.460	-38.063	225.265	262.736	263.784	64.909	-37.240	186.942	222.989	55.895	0.00014069	9.268e-05	5.8405e-05	338.27	8.8348e-07	2.0249e-06	360.13	105.75	2.8658e-06	1.5156e-06	119.56	34.293	29.907	8.4104	4.146e-06	10.091	0.0002173	0.00021699	6.0703e-05	346.12	2.3834e-06	2.4171e-06	362.61	107.57	2.3896e-06	2.4139e-06	121.23	35.333	30.834	8.8838	2.4574e-06	10.73	101.182	-43.651	248.851	-62.514	266.934	143.164	-64.111	-56.592	-61.380	117.937	-59.779	-55.592	-51.847	-46.335	-64.887	-51.459	-8191	255	
1632.652	1	1	0	0	0.032225	0.074005	0.085634	0.20931	0.25864	0.054191	0.10209	0.082709	0.19761	0.27193	0.32167	0.16094	0.015608	0.2231	0.062861	0.10426	-1.5271	-2.0312	-1.1604	-2.2083	-1.75	-1.4333	-2.3042	-1.2854	-1.6	-2.0771	-1.2375	-1.9146	-1.6833	-1.2333	-2.1646	-1.1542	-16.337	131.339	207.092	4.363	-19.950	278.321	215.376	-35.376	-26.620	50.091	163.474	272.772	106.313	-62.648	-50.631	240.629	3.4889e-05	0.00018272	4.6281e-05	344.14	3.3613e-06	4.0839e-06	362.55	105.94	2.2418e-06	7.1328e-07	121.59	34.763	29.878	8.4161	4.3028e-06	10.14	0.00021833	0.00022225	6.0931e-05	348.78	2.4056e-06	2.4419e-06	368.12	108.19	2.4296e-06	2.4242e-06	123.5	35.99	31.004	8.9707	2.4491e-06	10.815	16.128	105.082	-17.823	-62.149	-11.164	176.169	-63.929	-56.503	228.337	-50.164	-59.976	-55.893	-51.777	-46.368	-44.774	-51.136	-8191	255	
1632.748	1	1	0	0	0.062166	0.17699	0.19597	0.31198	0.19586	0.28294	0.28752	0.37794	0.084552	0.070037	0.37021	0.26689	0.31882	0.31339	0.22316	0.063053	-1.3188	-2.0021	-1.1688	-2.0854	-1.8354	-1.3458	-2.4625	-1.7458	-1.8625	-2.1875	-1.3667	-2.0646	-1.9625	-1.3979	-2.2562	-1.7104	187.206	194.038	-45.133	-29.588	-70.679	257.344	234.924	243.022	99.512	167.929	107.398	158.692	224.558	176.768	0.943	250.308	8.424e-05	0.00045296	4.1695e-05	342.99	2.4318e-06	4.2571e-06	362.53	106.93	1.0742e-06	1.534e-06	120.21	34.367	29.8	8.3306	1.5424e-06	9.9689	0.00022025	0.00022172	6.0836e-05	349.49	2.4191e-06	2.4358e-06	366.95	108.44	2.404e-06	2.4455e-06	122.39	35.625	30.944	8.9088	2.4015e-06	10.567	-65.941	21.941	15.418	-62.259	134.553	30.646	-64.415	-56.773	120.752	136.407	-60.233	-55.501	-51.782	-46.414	146.584	-51.874	-8191	255	
1632.844	1	1	0	0	0.054902	0.16742	0.1864	0.27266	0.10119	0.10433	0.17336	0.11642	0.087195	0.31305	0.24937	0.076879	0.21907	0.082257	0.24616	0.10618	-1.1	-2.1875	-1.1938	-1.9479	-2.0375	-1.4208	-2.3312	-1.8417	-1.4646	-1.9875	-1.5833	-1.8917	-1.8792	-1.3854	-2.1646	-1.5187	208.992	87.305	-1.222	280.036	231.324	236.818	132.480	31.291	192.118	103.249	-72.441	-36.055	190.252	239.469	3.672	120.789	0.00014842	0.00046635	0.00010374	340.92	3.0092e-06	1.3188e-06	357	106.43	2.6932e-07	4.3445e-06	119.69	33.912	29.314	8.2988	6.5186e-07	9.8751	0.00021317	0.00022125	6.1409e-05	347.69	2.3754e-06	2.3756e-06	363.49	108.04	2.4082e-06	2.423e-06	120.98	35.081	30.646	8.8449	2.4245e-06	10.512	134.966	-18.253	-45.684	-62.707	141.831	75.654	-64.377	-56.717	24.678	144.366	-59.930	-55.633	-51.807	-46.617	68.540	-51.560	-8191	255	
1632.940	1	1	0	0	0.34095	0.21565	0.20598	0.042373	0.16494	0.20078	0.21713	0.15641	0.15113	0.021208	0.26222	0.11179	0.24273	0.3316	0.20097	0.23315	-1.0229	-2.0938	-1.1896	-1.7437	-2.2729	-1.1375	-2.2396	-2.0021	-1.3708	-2.3208	-1.6208	-1.6833	-2.1375	-1.1583	-1.9937	-1.8833	201.489	32.709	148.546	241.943	-53.483	56.945	59.687	-15.733	-5.966	-16.330	224.349	262.466	61.458	-19.804	254.519	-50.056	0.00018946	0.00024045	9.0936e-05	339.21	1.2539e-06	1.8545e-06	357.75	105.9	1.5379e-06	2.9319e-06	119.19	33.982	29.678	8.2851	1.9554e-06	9.9631	0.00021371	0.00022026	5.9955e-05	347.22	2.4027e-06	2.3667e-06	363.87	107.85	2.3967e-06	2.4274e-06	121.23	35.28	30.811	8.8496	2.3948e-06	10.663	22.259	184.824	21.780	-62.716	8.774	139.507	-64.167	-57.218	260.587	185.436	-60.546	-55.631	-52.250	-46.448	6.639	-51.559	-8191	255	
1633.037	1	1	0	0	0.081343	0.11727	0.30184	0.19588	0.20489	0.088032	0.24778	0.081397	0.17076	0.072303	0.14262	0.12578	0.11495	0.26472	0.17769	0.25994	-0.82708	-2.1833	-1.4188	-1.6292	-1.9667	-1.1437	-1.9792	-1.9479	-1.3687	-2.2292	-1.6125	-1.6271	-2.3396	-1.4937	-1.8521	-2.0708	106.015	161.720	15.818	-56.405	134.787	-30.946	264.374	161.955	-67.299	66.860	-0.342	120.997	276.168	195.325	63.668	167.174	0.00011623	0.00036462	0.00012217	342.39	2.8819e-06	2.4943e-06	364.06	106.52	4.2709e-07	3.706e-06	121.02	35.011	30.027	8.4937	3.7177e-06	10.314	0.00021337	0.00022143	6.0855e-05	348.09	2.4089e-06	2.3768e-06	367.24	108.44	2.3877e-06	2.42e-06	122.84	35.927	31.179	8.9995	2.4265e-06	10.9	14.562	-61.974	87.153	-62.350	64.618	3.732	-64.704	-57.406	225.796	212.688	-60.495	-55.806	-51.800	-46.806	0.841	-51.804	-8191	255	
1633.133	1	1	0	0	0.23055	0.17245	0.38141	0.16424	0.15438	0.14058	0.27357	0.18614	0.19217	0.14415	0.014365	0.10461	0.17232	0.043996	0.17111	0.17439	-0.80625	-1.9042	-1.4375	-1.3667	-2.1979	-1.2271	-1.8646	-2.0208	-1.4229	-2.2125	-1.6229	-1.625	-2.4458	-1.3229	-1.6792	-2.1437	-35.301	63.274	280.020	15.650	149.732	267.905	192.622	-15.885	256.523	148.210	112.523	255.685	164.163	284.863	12.948	168.398	0.00020582	0.00032708	0.00015189	344.8	3.8626e-06	2.6257e-06	365.36	107.69	1.7723e-06	2.7681e-06	121.11	34.839	30.343	8.5139	1.3797e-06	10.196	0.00021594	0.00022117	6.0994e-05	350.3	2.4515e-06	2.3625e-06	369.84	109.62	2.3955e-06	2.4308e-06	123.44	36.224	31.374	9.062	2.4155e-06	10.816	54.647	-20.148	78.580	-62.304	65.806	37.959	-65.020	-56.959	116.968	29.310	-60.509	-56.411	-51.836	-47.285	185.301	-51.790	-8191	255	
1633.229	1	1	0	0	0.099733	0.32267	0.10362	0.43873	0.13255	0.39325	0.13456	0.16678	0.29695	0.30154	0.21116	0.15835	0.055744	0.25513	0.037029	0.14018	-0.90833	-2.0958	-1.6479	-1.2896	-2.2521	-1.6333	-1.8896	-2.2771	-1.2729	-2.3104	-2.0021	-1.2542	-2.2625	-1.4667	-1.6542	-2.1958	106.211	141.002	236.761	-23.655	133.676	153.223	90.204	31.060	15.312	-33.982	-32.980	160.013	270.771	228.085	69.715	-34.929	0.00015366	0.00027276	5.3195e-05	339.23	2.8079e-06	1.6339e-06	362.5	108.31	3.3971e-06	2.5427e-06	120.39	34.688	30.367	8.5844	2.8632e-06	10.213	0.00021425	0.0002207	6.0646e-05	348.05	2.4069e-06	2.3436e-06	365.74	109.87	2.3895e-06	2.4158e-06	122.96	35.934	31.662	9.1	2.4116e-06	10.815	65.719	24.316	-17.068	-62.776	4.442	109.709	-64.466	-57.366	54.438	48.845	-60.745	-55.671	-52.539	-46.955	13.354	-51.751	-8191	255	
1633.325	1	1	0	0	0.27641	0.12961	0.19971	0.20789	0.20141	0.087917	0.070561	0.11256	0.20339	0.098693	0.17287	0.25357	0.21021	0.10154	0.24144	0.12853	-1.0562	-1.9708	-1.8521	-1.2104	-2.2708	-1.6771	-1.6604	-2.1167	-1.2521	-1.7938	-1.9771	-1.2292	-2.2083	-1.5604	-1.4979	-2.1417	-22.670	4.830	246.867	264.993	-19.026	73.619	55.584	51.219	276.926	-52.720	197.682	177.670	156.473	195.925	281.898	101.463	0.00013999	0.00037503	7.7624e-05	345.33	3.6774e-06	2.9515e-06	364.42	108.63	3.5715e-06	2.5843e-06	120.39	34.863	30.758	8.6823	2.2658e-06	10.403	0.0002136	0.00021958	6.0911e-05	350.93	2.4018e-06	2.4009e-06	367.64	110.47	2.4174e-06	2.425e-06	123.61	36.193	31.812	9.1641	2.3841e-06	10.975	108.811	-43.854	178.016	-62.620	8.983	-73.020	-64.607	-56.908	63.397	180.265	-60.644	-56.733	-51.907	-47.262	-14.476	-52.520	-8191	255	
1633.444	1	1	0	0	0.25087	0.3875	0.094982	0.08868	0.2389	0.20116	0.20382	0.2079	0.013915	0.16661	0.061094	0.16123	0.26003	0.11595	0.26707	0.22469	-1	-1.6833	-2.0708	-1.1938	-2.1729	-1.8687	-1.7771	-2.2729	-1.3479	-1.8854	-2.1813	-1.4354	-1.9458	-1.9292	-1.2854	-2.2083	-55.319	219.530	187.111	235.158	263.883	177.546	233.573	107.122	130.508	-68.300	157.548	-38.777	200.964	101.585	189.822	2.996	0.00018629	0.00022519	7.9605e-05	344.88	4.1493e-06	2.043e-06	368.68	109.16	4.8281e-06	1.9962e-06	122.87	35.414	30.968	8.7498	1.9158e-06	10.45	0.00021484	0.00022471	6.0699e-05	351.75	2.4293e-06	2.3984e-06	371.05	111.2	2.3928e-06	2.4368e-06	125.05	36.668	32	9.256	2.3985e-06	11.118	10.715	228.215	10.669	-63.054	18.581	90.218	-64.710	-56.945	-0.161	274.366	-60.561	-55.812	-52.323	-47.452	228.683	-51.317	-8191	255	
1633.540	1	1	0	0	0.21408	0.090812	0.19594	0.026915	0.1738	0.20305	0.15311	0.28573	0.159	0.19251	0.29784	0.32797	0.2469	0.11642	0.24143	0.10131	-0.99792	-1.6208	-2.25	-1.3167	-1.9937	-1.9875	-1.4771	-2.2021	-1.5958	-1.4021	-2.0604	-1.4979	-1.8083	-2.075	-1.2354	-2.0438	24.389	272.832	235.633	197.276	129.635	-47.288	125.667	225.371	61.232	105.539	247.184	-24.436	43.109	224.410	235.982	-46.793	0.00015006	9.5545e-05	9.0412e-05	346.98	4.1716e-06	1.1001e-06	369.75	109.96	2.4942e-06	2.2654e-06	123.36	35.708	31.044	8.6986	1.4523e-06	10.356	0.00021784	0.00022022	6.1513e-05	353.94	2.4456e-06	2.4109e-06	373.46	111.87	2.3927e-06	2.4131e-06	125.66	36.72	32.153	9.2475	2.3804e-06	11.009	-17.066	56.774	68.290	-62.485	41.352	-3.835	-64.564	-56.805	105.518	49.746	-60.621	-55.889	-52.048	-47.061	123.898	-52.431	-8191	255	
1633.613	1	1	0	0	0.3045	0.23206	0.35834	0.046083	0.13922	0.15563	0.22657	0.1878	0.088708	0.10916	0.26004	0.21278	0.081587	0.15171	0.071621	0.34189	-1.0979	-1.4229	-2.1083	-1.3729	-1.875	-1.9958	-1.2771	-2.3375	-1.7604	-1.4208	-2.3	-1.6313	-1.875	-2.0958	-1.3583	-2.1937	105.560	167.336	4.511	245.229	229.355	20.520	237.483	58.745	245.180	60.056	212.144	-49.003	34.076	228.756	72.111	187.499	5.1573e-05	5.7574e-05	3.1967e-05	345.22	4.272e-06	1.6868e-06	363.79	109.92	8.9552e-07	1.8721e-06	122.37	35.329	31.018	8.6944	1.9728e-06	10.183	0.00021678	0.0002172	6.1858e-05	351.37	2.4012e-06	2.3994e-06	368.64	111.56	2.3881e-06	2.3747e-06	124.73	36.469	31.991	9.2142	2.3228e-06	10.853	106.912	69.276	95.191	-62.718	281.120	64.305	-64.707	-56.934	265.749	27.708	-60.222	-56.197	-52.231	-47.295	-7.909	-51.968	-8191	255	
1633.732	1	1	0	0	0.13305	0.13936	0.070815	0.085228	0.16805	0.12688	0.31082	0.16854	0.13393	0.11205	0.18671	0.2985	0.098755	0.1311	0.14145	0.18967	-1.5333	-1.25	-2.2958	-1.4875	-1.6562	-2.1021	-1.25	-1.9354	-1.8687	-1.2396	-2.2208	-1.3083	-1.6458	-2.1437	-1.1688	-1.9312	177.190	233.791	235.300	-2.246	-58.726	186.446	231.367	-18.928	256.980	165.691	-51.238	185.550	-20.286	256.081	218.286	172.935	0.00030465	0.0003982	1.4877e-05	345.11	3.8385e-06	8.6563e-07	364.07	109.18	1.0673e-06	1.4099e-06	122.78	35.397	30.64	8.69	4.5151e-06	10.355	0.00021246	0.00021638	6.0689e-05	351.27	2.381e-06	2.4009e-06	368.23	111.18	2.3715e-06	2.3483e-06	125.16	36.429	32.019	9.2581	2.3381e-06	11.006	25.457	61.061	6.254	-62.845	12.556	-37.532	-64.501	-56.763	47.748	171.159	-60.247	-56.116	-51.927	-46.692	38.154	-51.591	-8191	255	
1633.828	1	1	0	0	0.094029	0.16571	0.2309	0.0059914	0.19476	0.24327	0.14323	0.16217	0.2229	0.20129	0.15274	0.30468	0.13198	0.23231	0.27867	0.2896	-1.3875	-1.2479	-2.1667	-1.5438	-1.6104	-2.0875	-1.3625	-1.8188	-1.9021	-1.225	-2.0083	-1.5125	-1.375	-2.1437	-1.2604	-1.8062	159.885	70.201	-17.309	267.896	-52.438	177.949	78.320	131.325	15.590	282.945	110.466	239.000	-45.409	159.371	26.230	253.296	6.8862e-05	0.00015328	3.097e-05	347.56	2.3799e-06	1.8635e-06	366.39	111.23	1.6602e-06	3.9054e-06	125.44	36.212	31.876	8.8513	2.0865e-06	10.605	0.00021211	0.0002157	6.123e-05	352.73	2.3984e-06	2.3798e-06	371.72	112.63	2.4077e-06	2.3886e-06	127.19	37.292	32.664	9.4017	2.3555e-06	11.264	138.630	-46.695	-40.101	-62.695	7.388	120.619	-64.391	-56.814	38.908	170.949	-60.473	-56.193	-52.313	-47.325	97.844	-51.698	-8191	255	
1633.925	1	1	0	0	0.18132	0.10376	0.15568	0.12591	0.1568	0.11676	0.20481	0.34138	0.22039	0.039384	0.18611	0.023925	0.12812	0.12766	0.079919	0.1004	-1.5583	-1.2167	-2.1437	-1.625	-1.3479	-2.2208	-1.5292	-1.8958	-2.1937	-1.4271	-1.9458	-1.7229	-1.2667	-2.2083	-1.4312	-1.9167	79.683	217.453	45.825	165.945	-5.348	216.855	140.156	280.379	-12.597	93.962	140.153	183.651	54.059	112.634	257.744	275.851	0.00020695	0.00016953	0.0001227	348.22	1.0886e-06	3.651e-06	372.8	111.94	2.0621e-06	2.9036e-06	126.16	36.401	31.842	8.9506	1.5334e-06	10.576	0.00021863	0.00021662	6.1679e-05	354.9	2.4051e-06	2.428e-06	377.83	113.34	2.4261e-06	2.3839e-06	128.29	37.479	32.801	9.4672	2.3415e-06	11.218	5.612	98.938	-21.913	-62.442	117.071	61.677	-64.792	-57.327	197.141	-18.093	-60.450	-56.111	-52.299	-46.704	16.281	-51.347	-8191	255	
1634.045	1	1	0	0	0.23221	0.24595	0.11958	0.081417	0.12731	0.3984	0.17212	0.06985	0.087706	0.035932	0.15427	0.0459	0.14931	0.2332	0.23526	0.12488	-1.6729	-1.3687	-1.9958	-1.7542	-1.2125	-2.1604	-1.4604	-1.6896	-2.1271	-1.3354	-2.0354	-1.9	-1.2687	-1.9625	-1.375	-1.4458	38.605	-42.311	276.465	177.230	259.172	-62.131	137.762	235.374	241.864	130.850	239.625	159.704	-40.978	247.706	81.917	235.978	8.5807e-05	0.00041586	2.4908e-05	350.79	9.2703e-07	1.5083e-06	369.89	111.58	2.9734e-06	1.436e-06	125.17	35.35	31.641	8.8843	2.2364e-06	10.274	0.00021847	0.00021741	6.0848e-05	356.76	2.3929e-06	2.3945e-06	373.64	113.18	2.3872e-06	2.3462e-06	126.66	36.866	32.621	9.3808	2.3763e-06	10.979	19.328	207.187	206.371	-62.882	-14.382	214.544	-64.767	-56.821	-39.017	103.909	-59.694	-56.591	-52.217	-47.074	244.754	-52.441	-8191	255	
1634.141	1	1	0	0	0.12114	0.20141	0.24391	0.11623	0.26161	0.20525	0.2482	0.081524	0.13307	0.074791	0.18183	0.30017	0.17149	0.20141	0.25456	0.20531	-1.7375	-1.2563	-1.8208	-2.0667	-1.2042	-2.1458	-1.5854	-1.625	-2.1958	-1.325	-2	-2.0312	-1.1875	-2.3375	-1.7958	-1.45	198.388	28.646	161.658	32.702	-18.474	73.311	256.689	206.942	225.403	71.491	59.436	158.409	179.276	230.807	274.285	185.088	0.00013519	0.00013667	3.2066e-05	349.7	1.9117e-06	3.2488e-06	365.21	111.29	1.8352e-06	5.1125e-06	124.46	35.827	31.541	8.8367	1.5323e-06	10.367	0.00021378	0.0002133	6.043e-05	355.46	2.3684e-06	2.3945e-06	369.43	113.11	2.392e-06	2.3413e-06	126.21	36.912	32.528	9.346	2.3821e-06	10.991	40.890	-25.339	135.845	-62.270	172.504	141.863	-64.682	-56.890	2.726	66.255	-60.377	-55.741	-52.464	-47.433	105.031	-51.763	-8191	255	
1634.213	1	1	0	0	0.11913	0.20958	0.078674	0.20494	0.15819	0.065798	0.077583	0.12601	0.19677	0.01766	0.18804	0.096103	0.21118	0.31976	0.066246	0.35067	-1.8875	-1.2729	-1.8792	-2.1146	-1.325	-2.2104	-1.7854	-1.4813	-2.0812	-1.2896	-1.7437	-2.1229	-1.2875	-2.175	-1.7313	-1.3104	28.719	262.192	-23.982	108.017	181.760	72.913	-44.800	190.947	-71.965	136.612	64.935	270.555	74.264	98.644	131.364	242.336	0.00014003	0.00040735	9.2244e-05	349.37	2.5838e-06	3.4382e-06	369.63	112.3	1.3037e-06	1.6331e-06	124.91	36.083	31.592	8.8703	1.5855e-07	10.597	0.00021466	0.00021487	6.0509e-05	355.63	2.3317e-06	2.3794e-06	373.02	113.75	2.3743e-06	2.3471e-06	127.16	37.25	32.638	9.3857	2.3923e-06	11.141	56.736	30.679	52.110	-62.447	-20.414	198.263	-64.655	-56.785	207.995	23.715	-60.267	-56.267	-51.970	-46.921	279.592	-51.855	-8191	255	
1634.334	1	1	0	0	0.19609	0.36176	0.14186	0.36647	0.21152	0.28806	0.12201	0.096262	0.15866	0.024241	0.27872	0.16059	0.24536	0.11765	0.44202	0.29737	-1.8583	-1.6417	-1.4479	-2.2208	-1.3937	-1.9396	-1.7521	-1.4625	-2.5042	-1.5625	-1.6375	-2.0458	-1.2354	-1.7437	-2.1437	-1.2021	232.561	-11.248	111.770	-36.265	224.830	-43.152	-50.274	35.754	157.882	178.773	280.249	214.180	277.729	268.104	2.607	107.956	8.9686e-05	0.00023661	7.0367e-05	350.98	3.8102e-06	2.1363e-06	370.79	113.02	1.3631e-06	3.1062e-06	127.06	36.607	31.992	8.9892	2.0887e-07	10.65	0.00021803	0.00021529	6.1403e-05	357.46	2.3771e-06	2.4181e-06	376.43	114.66	2.432e-06	2.3975e-06	128.8	37.674	33.044	9.5057	2.4272e-06	11.215	78.891	240.714	38.232	-62.473	66.611	266.513	-64.686	-56.474	269.892	132.952	-60.416	-55.473	-51.791	-46.828	229.891	-51.799	-8191	255	
1634.428	1	1	0	0	0.18641	0.15374	0.25409	0.12623	0.25218	0.1507	0.11209	0.085931	0.11515	0.058365	0.24302	0.14057	0.22088	0.09717	0.054249	0.22125	-1.7708	-1.7167	-1.3646	-2.1688	-1.4479	-1.8646	-2.1521	-1.3729	-2.1875	-1.8083	-1.3958	-2.4313	-1.4354	-1.6771	-2.0417	-1.2604	160.752	174.982	218.451	174.684	102.354	29.080	103.497	234.448	108.963	161.067	164.214	57.695	-73.295	-32.447	213.546	259.484	0.00022667	0.00025676	5.9738e-05	352.87	1.1066e-06	5.4069e-07	372.15	115.81	1.3858e-06	2.3422e-06	127.93	37.028	33.052	9.4447	2.569e-06	10.792	0.00021988	0.00021573	6.1159e-05	359.12	2.3816e-06	2.4341e-06	377.1	116.95	2.4421e-06	2.3782e-06	130.11	38.243	34.167	9.8822	2.3983e-06	11.383	85.479	-27.489	-37.102	-62.365	50.388	64.298	-64.169	-56.773	147.512	41.877	-60.295	-55.793	-52.023	-47.137	-53.155	-51.892	-8191	255	
1634.524	1	1	0	0	0.088732	0.19703	0.23376	0.073751	0.049823	0.12269	0.2235	0.34996	0.16783	0.16471	0.036049	0.11799	0.27501	0.12443	0.087395	0.28334	-1.6854	-1.8417	-1.3542	-2.3688	-1.4792	-1.6292	-2.2104	-1.3813	-1.9271	-1.8729	-1.2687	-2.3063	-1.5646	-1.5708	-2.2104	-1.2604	-30.880	187.479	203.662	119.859	-73.550	86.868	75.613	243.311	73.952	86.639	240.595	-63.882	-58.531	254.642	96.417	-51.368	0.00020496	0.00011675	6.3714e-05	355.42	3.0706e-06	2.7153e-06	375.47	116.96	2.7981e-06	2.291e-06	129.38	37.42	33.156	9.3432	2.8644e-06	10.799	0.00021631	0.00021541	6.0657e-05	361.01	2.3659e-06	2.3571e-06	378.13	118.23	2.4095e-06	2.4029e-06	130.78	38.574	34.163	9.8668	2.4055e-06	11.422	56.091	-57.430	-9.308	-62.138	124.642	39.507	-64.204	-57.344	96.419	112.039	-60.290	-55.197	-52.326	-46.929	276.832	-51.843	-8191	255	
1634.620	1	1	0	0	0.21172	0.069384	0.1459	0.22644	0.20042	0.070353	0.12369	0.30454	0.10264	0.29653	0.11048	0.25039	0.038466	0.13956	0.23418	0.15446	-1.5875	-1.9771	-1.3354	-2.1917	-1.7188	-1.5479	-2.3688	-1.4479	-1.9729	-1.9438	-1.2646	-2.2167	-1.7125	-1.6521	-2.2646	-1.4438	46.595	160.423	272.271	119.827	220.301	199.722	83.269	267.688	-26.493	34.568	268.016	217.836	82.260	224.214	156.672	255.340	5.2561e-05	0.00043058	0.00012441	352.42	5.4252e-06	4.103e-06	376.9	115.68	3.1008e-06	4.3502e-06	128.89	37.178	33.16	9.3168	4.7509e-06	10.785	0.00021839	0.00021962	5.9529e-05	361.57	2.3778e-06	2.4179e-06	380.25	117.5	2.4107e-06	2.3807e-06	130.43	38.329	34.09	9.8166	2.4451e-06	11.454	-8.674	283.772	-30.342	-62.697	55.389	69.508	-64.418	-56.626	-17.003	54.088	-60.408	-56.793	-52.393	-48.253	50.700	-52.752	-8191	255	
1634.741	1	1	0	0	0.30938	0.20071	0.11077	0.26098	0.051082	0.10642	0.095071	0.19688	0.063554	0.1226	0.22452	0.31734	0.10305	0.24789	0.15666	0.036778	-1.5271	-2.1021	-1.4646	-2.2375	-1.6604	-1.3167	-2.1479	-1.3062	-1.7458	-2.1417	-1.3104	-1.9646	-1.7146	-1.4937	-2.1583	-1.3833	262.222	144.631	232.705	-48.312	21.839	116.832	247.816	171.021	-6.195	156.905	282.762	261.825	186.578	262.100	154.847	111.397	0.00014199	0.00012197	7.6189e-05	355.06	3.7129e-06	3.5381e-06	373.32	115.15	3.3355e-06	3.0843e-06	129.1	37.521	32.947	9.3819	1.7333e-06	10.892	0.0002195	0.0002203	6.0339e-05	361.48	2.4149e-06	2.3941e-06	379.82	117.01	2.4364e-06	2.4246e-06	130.64	38.669	34.068	9.8764	2.4761e-06	11.54	23.923	103.144	-21.846	-62.840	9.989	65.534	-64.995	-57.416	275.217	14.218	-60.705	-56.773	-52.866	-47.761	181.360	-52.418	-8191	255	
1634.837	1	1	0	0	0.2747	0.11413	0.18503	0.1559	0.28158	0.15807	0.17955	0.20148	0.15569	0.14654	0.13511	0.1818	0.14706	0.36102	0.18813	0.25362	-1.2646	-2.0375	-1.2646	-2.1208	-1.9208	-1.3896	-2.325	-1.5896	-1.4667	-2.2	-1.125	-1.8375	-1.6938	-1.2812	-2.1354	-1.5354	203.756	271.704	-14.841	-4.367	192.581	252.613	133.153	281.404	111.440	111.359	-43.308	244.585	216.504	271.924	15.734	47.738	7.5267e-05	9.2857e-05	6.1459e-05	357.67	8.5969e-07	2.9029e-06	380.23	116.29	2.8087e-06	3.0809e-06	128.68	37.373	33.261	9.3088	7.9633e-07	10.552	0.0002186	0.00022079	6.0787e-05	362.56	2.4026e-06	2.4082e-06	381.2	117.9	2.4015e-06	2.4245e-06	130.31	38.424	34.175	9.8046	2.4315e-06	11.286	68.784	-38.573	-73.322	-62.937	0.809	278.428	-65.464	-57.850	-3.501	66.157	-61.406	-56.663	-52.784	-47.520	17.444	-52.648	-8191	255	
1634.909	1	1	0	0	0.1711	0.067773	0.1274	0.16279	0.29567	0.065743	0.14614	0.12862	0.10123	0.23734	0.20363	0.30506	0.28541	0.10466	0.058458	0.2166	-0.95417	-2.0979	-1.1271	-1.7042	-1.9667	-1.3188	-2.1583	-1.6417	-1.2771	-2.2833	-1.2417	-1.8	-1.8479	-1.2125	-2.1	-1.7354	161.010	-72.053	228.246	109.734	50.265	-30.945	82.916	-72.198	41.032	-39.337	228.776	-11.639	-43.863	89.591	-26.133	216.024	9.1357e-05	0.00037712	3.264e-05	354.57	1.8486e-06	5.095e-06	373.18	115.46	4.4929e-06	2.4836e-06	127.83	36.537	32.455	9.1526	3.9857e-06	10.5	0.00021696	0.00022076	6.0137e-05	360.52	2.4318e-06	2.3578e-06	377.14	117.22	2.3988e-06	2.422e-06	129.25	37.838	33.634	9.6228	2.4256e-06	11.128	-24.100	-20.197	203.459	-62.873	12.678	44.019	-65.191	-57.668	-5.080	68.471	-61.137	-56.530	-52.906	-47.520	-5.942	-52.910	-8191	255	
1635.005	1	1	0	0	0.055975	0.14043	0.093856	0.11634	0.12309	0.091806	0.20997	0.11053	0.21882	0.14696	0.18254	0.20567	0.18058	0.1311	0.058476	0.27486	-1.0375	-2.0312	-1.4542	-1.6125	-2.1437	-1.2188	-2.1125	-1.8771	-1.3	-2.1958	-1.35	-1.5187	-2.1625	-1.2708	-1.9958	-1.8958	99.418	148.948	192.933	248.460	181.059	103.790	270.143	277.385	-59.862	222.102	17.344	266.911	226.858	10.023	115.400	0.013	0.00015498	1.6367e-05	4.1591e-05	356.35	3.9326e-06	3.2431e-06	369.73	115.24	1.9292e-06	3.6887e-06	127.77	36.652	32.219	9.0562	1.816e-06	10.598	0.00021525	0.00021995	6.016e-05	360.69	2.4079e-06	2.3717e-06	375.13	116.71	2.3912e-06	2.4205e-06	129.26	37.812	33.53	9.5601	2.4159e-06	11.205	107.476	242.286	278.207	-63.236	107.323	-4.006	-65.123	-57.443	50.795	39.625	-60.956	-56.571	-52.874	-47.867	214.106	-52.822	-8191	255	
1635.126	1	1	0	0	0.094147	0.15278	0.093449	0.16207	0.19762	0.13398	0.07186	0.20839	0.04341	0.14584	0.32222	0.10442	0.25033	0.04341	0.23302	0.074371	-1.0063	-2.1208	-1.5229	-1.5958	-1.9875	-1.1354	-1.95	-1.8979	-1.2417	-2.1937	-1.575	-1.4604	-2.3146	-1.3729	-1.9125	-2.0792	251.999	146.272	154.341	-32.487	-11.186	-28.855	174.359	218.030	-24.183	236.895	-58.865	15.744	146.388	-55.255	204.426	146.918	6.4764e-05	0.00020384	4.1803e-05	353.38	8.5994e-07	1.7897e-06	373.46	114.94	5.492e-06	4.2184e-07	128.91	37.21	32.859	9.3565	6.6397e-06	10.84	0.00021656	0.00021895	6.0683e-05	360.4	2.4148e-06	2.365e-06	378.12	116.65	2.3998e-06	2.4316e-06	130.65	38.395	33.861	9.781	2.421e-06	11.453	55.808	56.511	7.535	-62.758	156.206	29.385	-64.860	-57.695	7.965	34.983	-60.902	-56.565	-53.162	-48.281	1.783	-53.064	-8191	255	
1635.222	1	1	0	0	0.24381	0.041978	0.19931	0.10725	0.086283	0.10805	0.11754	0.054043	0.1526	0.13938	0.27072	0.080743	0.20856	0.017515	0.088144	0.17747	-0.98958	-2.0396	-1.4625	-1.275	-2.2771	-1.2292	-1.6979	-2.0229	-1.3438	-1.8708	-1.7042	-1.3208	-2.275	-1.4292	-1.6125	-1.9792	260.788	145.076	-11.390	189.273	-25.381	240.485	173.784	250.299	261.717	-45.602	118.603	201.485	-18.926	219.895	230.073	152.758	0.00016509	0.00010211	3.9589e-05	354.76	2.4216e-06	2.2915e-06	375.43	115.65	4.4548e-06	1.8822e-06	128.36	37.24	32.59	9.2389	2.7755e-06	10.642	0.00021204	0.00022265	6.1702e-05	361.78	2.4546e-06	2.3902e-06	379.98	117.29	2.3637e-06	2.4289e-06	130.48	38.172	33.802	9.71	2.3465e-06	11.257	75.454	232.264	32.328	-63.432	-52.941	129.600	-64.946	-57.453	73.431	141.242	-60.829	-56.496	-52.360	-47.542	25.911	-52.543	-8191	255	
1635.318	1	1	0	0	0.31499	0.27743	0.13259	0.14237	0.11574	0.21405	0.12119	0.15694	0.075275	0.19275	0.10781	0.15614	0.3725	0.31263	0.18479	0.032527	-0.94792	-2.1021	-1.8104	-1.3417	-2.2833	-1.4708	-1.5438	-2.1625	-1.3167	-1.9896	-1.8438	-1.2396	-2.05	-1.5187	-1.6042	-2.2042	36.052	54.696	-65.449	261.356	-62.696	119.839	181.668	23.619	14.163	-36.935	-45.833	-25.068	-36.405	6.909	4.506	122.042	0.00022502	0.00010239	0.00012468	354.71	8.5219e-07	8.1742e-07	368.62	114.96	1.1745e-06	3.1795e-06	125.89	36.439	32.645	9.1333	2.9029e-06	10.52	0.00021049	0.00021885	6.0598e-05	360.4	2.4076e-06	2.3778e-06	374.54	116.44	2.3465e-06	2.411e-06	128.91	37.684	33.658	9.6328	2.3776e-06	11.233	36.591	117.180	28.061	-63.065	-9.023	4.481	-65.139	-57.752	155.149	156.806	-60.723	-56.641	-52.724	-47.617	180.849	-52.126	-8191	255	
1635.414	1	1	0	0	0.27807	0.20971	0.17504	0.049527	0.32892	0.25801	0.21166	0.09746	0.1728	0.074959	0.17568	0.21594	0.11137	0.21444	0.28234	0.17367	-0.89167	-1.9417	-2.0125	-1.3375	-2.25	-1.4729	-1.425	-2.2542	-1.4146	-1.9292	-1.9417	-1.4208	-2.1104	-1.6354	-1.3229	-2.0938	89.458	228.144	260.248	177.073	7.267	157.829	224.806	249.966	119.279	128.072	60.501	282.823	40.045	142.812	49.193	180.380	4.4704e-05	0.00015743	2.3422e-05	353.16	1.0496e-06	1.3029e-06	376.49	114.25	2.425e-06	1.9687e-06	127.38	36.813	32.615	9.1438	2.5234e-06	10.623	0.00021261	0.00021904	6.1067e-05	360.28	2.4078e-06	2.3723e-06	377.51	116.36	2.4086e-06	2.4304e-06	129.15	37.785	33.707	9.705	2.4021e-06	11.268	105.404	17.978	164.033	-62.920	-62.582	102.555	-64.985	-57.642	169.827	101.176	-61.283	-56.948	-52.651	-48.039	54.946	-52.362	-8191	255	
1635.508	1	1	0	0	0.18249	0.24335	0.30353	0.14229	0.2528	0.17089	0.21746	0.23234	0.20783	0.20394	0.13647	0.089912	0.17528	0.11693	0.31484	0.27529	-1.0458	-1.8771	-2.0396	-1.2437	-2.0896	-1.8062	-1.5771	-2.2417	-1.4042	-1.6562	-2.1667	-1.3917	-2.0167	-1.9479	-1.4958	-2.1708	54.632	240.195	51.756	235.904	69.851	60.971	248.614	218.931	80.949	232.122	-21.667	12.745	-13.199	254.258	-24.483	120.951	0.00015442	0.00023325	0.00018497	352.82	6.2668e-07	2.339e-06	373.01	114.9	5.5536e-06	2.7911e-06	126.47	36.481	32.187	9.0589	1.9291e-06	10.648	0.00021389	0.00022269	6.1419e-05	359.95	2.4718e-06	2.4402e-06	376.85	115.98	2.4285e-06	2.4625e-06	128.71	37.623	33.252	9.5998	2.4288e-06	11.339	54.147	-47.982	-75.781	-62.920	154.733	281.649	-64.888	-57.910	101.074	197.628	-60.981	-56.261	-52.823	-48.023	97.222	-51.904	-8191	255	
1635.606	1	1	0	0	0.033356	0.097041	0.091744	0.14248	0.23104	0.25203	0.11954	0.088064	0.33798	0.079893	0.11915	0.32466	0.32442	0.1201	0.15095	0.14613	-1.1396	-1.6208	-2.0625	-1.2854	-1.9854	-1.8708	-1.675	-2.25	-1.5917	-1.6792	-2.1625	-1.5146	-2.0438	-1.925	-1.1917	-2.1188	17.726	149.048	26.069	141.184	24.728	111.614	1.339	-6.587	77.986	183.154	29.158	242.362	-66.831	-60.084	-1.923	60.183	6.4812e-05	0.00020968	9.6238e-05	355.44	2.0164e-06	1.5434e-06	372.86	114.21	4.2616e-06	2.377e-06	126.5	36.367	31.811	9.0727	1.244e-06	10.443	0.00021988	0.0002243	6.1746e-05	360.04	2.464e-06	2.4463e-06	377.12	115.35	2.4319e-06	2.3959e-06	128.38	37.507	33.095	9.5333	2.3676e-06	11.065	95.176	15.413	-1.023	-63.197	45.702	105.800	-64.805	-57.463	22.770	80.257	-61.239	-56.816	-52.914	-47.826	-5.364	-52.494	-8191	255	
1635.725	1	1	0	0	0.18463	0.16805	0.12791	0.18356	0.19399	0.13696	0.23065	0.077287	0.10001	0.19463	0.077713	0.057429	0.14714	0.13229	0.11624	0.19179	-1.2979	-1.4188	-2.3042	-1.3604	-1.7812	-2.1167	-1.3208	-2.2542	-1.7771	-1.4	-2.1646	-1.4104	-1.7021	-2.0083	-1.2958	-2.0458	150.352	206.341	21.291	-51.541	136.381	-58.002	148.701	221.124	228.486	151.261	31.110	209.165	74.063	282.179	73.875	284.066	8.7134e-05	0.00029353	8.8821e-05	354.37	2.9017e-06	3.7075e-06	369.45	113.4	1.8298e-06	3.1483e-06	125.05	35.802	31.976	8.9122	5.2431e-06	10.439	0.00021201	0.00021744	6.0481e-05	358.76	2.3735e-06	2.3935e-06	373.89	114.87	2.373e-06	2.394e-06	126.73	37.021	33.008	9.4569	2.3305e-06	10.99	50.279	-57.040	-35.981	-62.842	4.020	61.577	-64.894	-57.838	116.010	49.047	-60.938	-56.721	-53.148	-47.696	6.354	-52.166	-8191	255	
1635.821	1	1	0	0	0.23015	0.030843	0.077327	0.19732	0.098381	0.19278	0.08074	0.17632	0.27583	0.18577	0.096022	0.13235	0.21217	0.029544	0.23757	0.13215	-1.3188	-1.4354	-2.1312	-1.3813	-1.4688	-2.1104	-1.3937	-2.0458	-2.0146	-1.3708	-1.975	-1.4688	-1.8104	-2.2687	-1.2104	-2.0812	-15.765	170.684	99.972	75.932	259.486	-42.962	198.376	237.733	190.106	148.424	259.705	166.359	-61.584	40.827	224.922	107.495	0.00017164	3.1392e-05	7.1693e-05	350.84	1.3565e-06	3.9165e-06	368.3	112.85	1.6572e-06	3.8991e-06	124.47	35.487	31.772	8.9051	4.4458e-06	10.423	0.00021443	0.00021587	6.0809e-05	357.25	2.393e-06	2.3631e-06	372.11	114.55	2.3813e-06	2.3405e-06	126.34	36.977	32.918	9.4652	2.3946e-06	11.052	19.105	215.537	88.718	-63.132	127.775	74.477	-65.269	-57.689	36.446	118.741	-61.303	-57.083	-52.661	-48.023	49.936	-52.447	-8191	255	
1635.918	1	1	0	0	0.17555	0.15085	0.23356	0.27472	0.30984	0.16578	0.16685	0.064012	0.2626	0.15475	0.074927	0.18332	0.20804	0.40325	0.26262	0.12798	-1.5125	-1.2979	-2.0062	-1.8271	-1.5333	-2.1792	-1.5958	-1.9896	-2.0271	-1.425	-2.1375	-1.7042	-1.5	-2.2125	-1.4979	-1.7375	250.939	201.080	75.271	42.213	220.108	238.194	-10.510	190.214	10.888	139.421	240.806	-20.388	260.151	-64.556	98.617	65.349	0.0001022	0.00049281	4.9116e-05	353.05	3.0871e-06	4.3514e-06	370.55	113.54	2.5299e-06	3.8197e-06	127	36.346	31.773	8.9774	2.5518e-06	10.652	0.00021546	0.00021734	6.2102e-05	358.34	2.4266e-06	2.3977e-06	374.39	114.96	2.4338e-06	2.3765e-06	128.26	37.399	32.969	9.5571	2.3747e-06	11.272	61.553	36.405	20.520	-62.957	99.312	169.317	-65.154	-57.991	267.352	-30.472	-60.853	-56.933	-52.710	-47.656	84.599	-52.206	-8191	255	
1636.014	1	1	0	0	0.072576	0.24953	0.16089	0.074873	0.22487	0.30227	0.21263	0.11048	0.29333	0.18077	0.20418	0.085825	0.11477	0.17962	0.25125	0.1532	-1.7354	-1.1646	-1.9542	-1.6729	-1.3937	-2.0396	-1.3896	-1.7896	-2.1042	-1.2875	-2.2313	-1.7917	-1.325	-2.1771	-1.4917	-1.6938	-23.078	146.645	160.961	-44.917	172.165	-64.448	50.649	-37.350	159.604	-20.181	258.529	211.318	-65.033	200.092	77.714	17.197	0.00011702	0.00024785	9.3731e-05	353.34	3.8602e-06	1.7285e-06	372.23	113.51	2.0406e-06	3.8376e-06	126.02	36.434	31.937	8.9746	3.0421e-06	10.482	0.00021625	0.00021982	6.2154e-05	359.27	2.392e-06	2.4361e-06	376.53	115.02	2.4239e-06	2.4078e-06	128.18	37.424	33.046	9.5671	2.3754e-06	11.136	129.622	228.185	67.878	-63.503	47.322	33.873	-64.667	-57.615	83.211	22.402	-60.779	-56.654	-52.447	-47.620	105.786	-52.739	-8191	255	
1636.134	1	1	0	0	0.096492	0.18781	0.34755	0.096954	0.13889	0.29202	0.17312	0.39692	0.15417	0.27422	0.15761	0.092029	0.071695	0.14311	0.15141	0.081774	-1.6812	-1.4104	-2.0563	-1.8792	-1.4458	-2.2646	-1.5896	-1.6271	-2.1042	-1.2	-1.9875	-2.0292	-1.1875	-2.2438	-1.4458	-1.5917	268.327	156.882	236.313	28.861	-25.257	269.652	162.814	270.673	-60.011	209.454	-32.313	246.741	171.027	60.024	103.573	275.419	0.00016993	0.00033541	6.9011e-05	353.05	1.0186e-06	3.9896e-07	366.82	113.17	2.5658e-06	2.2597e-06	123.99	35.441	31.38	8.8392	6.1176e-06	10.155	0.00021874	0.00021717	6.1886e-05	358.99	2.35e-06	2.428e-06	373.18	114.43	2.408e-06	2.3963e-06	126.38	36.806	32.607	9.3761	2.385e-06	10.845	104.570	20.829	2.089	-63.159	104.887	-41.299	-65.010	-57.292	14.355	18.376	-60.821	-56.549	-52.766	-47.445	95.238	-52.971	-8191	255	
1636.206	1	1	0	0	0.17949	0.1123	0.35597	0.18039	0.14692	0.13172	0.10018	0.24762	0.15805	0.14081	0.14918	0.20206	0.0766	0.15201	0.21209	0.10203	-1.9479	-1.1292	-1.6979	-1.9958	-1.4667	-2.1479	-1.7479	-1.5229	-2.1792	-1.5562	-1.9104	-2.0458	-1.3854	-2.1271	-1.6708	-1.5375	167.413	-30.769	195.210	102.942	254.241	-57.284	44.360	276.576	230.512	20.885	-17.769	227.310	155.303	203.012	61.787	274.279	0.00011474	0.00011079	0.00013778	351.01	4.8064e-06	2.1467e-06	362.2	112.03	2.5864e-06	2.501e-06	123.65	35.469	31.07	8.8035	5.6285e-06	10.125	0.00021513	0.00021641	6.1039e-05	356.66	2.3545e-06	2.3817e-06	368.46	113.39	2.3985e-06	2.3679e-06	125.11	36.398	32.276	9.2949	2.3723e-06	10.754	88.574	56.255	-4.306	-63.335	33.625	-30.896	-65.068	-57.247	148.059	90.103	-60.505	-56.675	-53.162	-47.656	-20.249	-52.346	-8191	255	
1636.302	1	1	0	0	0.23649	0.22269	0.082183	0.26217	0.078085	0.049341	0.14241	0.21678	0.086005	0.031866	0.19683	0.23499	0.25248	0.055666	0.085825	0.13554	-1.8208	-1.5063	-1.6042	-2.1063	-1.5438	-2.1583	-1.9792	-1.3479	-2.1479	-1.5708	-1.6771	-2.1542	-1.4792	-2.0438	-1.8167	-1.4167	45.870	239.171	121.359	196.189	137.429	-15.611	220.041	173.364	-58.146	-20.659	242.234	181.675	256.830	206.404	283.632	169.553	0.00018643	0.00030873	6.9017e-05	351.89	2.316e-06	5.2138e-06	366.03	111.4	5.1941e-06	3.5299e-06	123.07	35.458	31.092	8.8566	2.1868e-06	10.229	0.00021663	0.00021448	6.0619e-05	356.51	2.3398e-06	2.388e-06	369.69	113.3	2.4152e-06	2.3837e-06	125.25	36.619	32.235	9.3636	2.4077e-06	10.937	170.183	186.117	-38.064	-63.096	140.379	135.954	-64.723	-57.496	132.514	140.918	-61.187	-56.939	-52.841	-47.758	52.302	-52.702	-8191	255	
1636.398	1	1	0	0	0.34045	0.27926	0.061817	0.17894	0.072324	0.20052	0.27421	0.082019	0.12472	0.10693	0.11818	0.18301	0.17088	0.037484	0.17055	0.045421	-1.9562	-1.4146	-1.3542	-2.3396	-1.3771	-2.0417	-1.8708	-1.2229	-2.2375	-1.5417	-1.5354	-2.2708	-1.3	-1.8271	-1.7958	-1.4146	30.663	247.120	138.205	269.656	54.161	165.962	199.634	195.293	229.338	13.393	183.468	34.937	180.620	235.601	50.955	208.151	0.00011308	0.00029481	0.00017176	350.89	2.7415e-06	3.4036e-06	370.96	111.98	5.0232e-06	3.243e-06	123.74	35.655	31.559	8.7701	3.8776e-06	10.282	0.0002206	0.00021762	6.016e-05	358.18	2.3515e-06	2.4195e-06	373.98	113.51	2.4565e-06	2.3702e-06	126.39	36.879	32.537	9.3511	2.3611e-06	10.965	145.492	57.555	83.663	-63.049	30.654	54.279	-65.468	-57.704	67.184	47.938	-61.240	-56.524	-52.673	-47.883	199.776	-52.734	-8191	255	
1636.517	1	1	0	0	0.38648	0.28692	0.26219	0.149	0.089615	0.19074	0.2313	0.27138	0.19471	0.15327	0.12032	0.1533	0.16281	0.38652	0.12095	0.166	-1.675	-1.65	-1.4896	-2.2875	-1.2271	-1.6646	-2.225	-1.3188	-2.2479	-1.6396	-1.2646	-2.0458	-1.475	-1.5354	-2.0958	-1.1021	0.301	10.482	-1.319	86.526	272.112	73.080	-65.880	-68.189	50.471	279.247	-10.008	128.447	36.892	208.834	275.422	-3.574	0.00013022	0.00039364	9.5842e-05	351.02	3.082e-06	2.7035e-06	368.13	112.02	3.2206e-06	3.7631e-06	123.69	35.178	31.159	8.7401	3.5155e-06	10.146	0.00021826	0.00022061	5.9966e-05	357.65	2.4321e-06	2.4234e-06	371.58	113.55	2.4155e-06	2.3903e-06	125.59	36.498	32.278	9.3024	2.374e-06	10.791	69.624	-1.125	183.072	-63.234	57.425	29.734	-65.245	-57.619	8.428	109.851	-60.681	-56.821	-52.904	-47.629	116.602	-52.567	-8191	255	
1636.613	1	1	0	0	0.13837	0.16935	0.39895	0.065303	0.31994	0.074992	0.034567	0.25948	0.078104	0.091925	0.19027	0.22213	0.17524	0.153	0.27401	0.28154	-1.5542	-1.7563	-1.1854	-2.3271	-1.3729	-1.7	-2.2729	-1.4042	-1.9562	-1.8875	-1.2938	-2.1667	-1.5146	-1.3896	-2.0958	-1.3146	151.262	191.664	94.149	17.724	252.757	99.845	71.534	26.694	-46.210	132.692	-67.825	271.763	61.787	275.944	63.128	-56.894	0.00010603	0.00017683	5.0001e-05	351.48	4.657e-06	2.5728e-06	366.86	112.17	3.5422e-06	8.9225e-07	122.71	35.091	31.295	8.8559	2.1083e-06	10.266	0.00021672	0.0002163	5.9824e-05	357	2.3555e-06	2.3874e-06	369.22	113.52	2.3912e-06	2.3585e-06	125.09	36.513	32.421	9.3249	2.3755e-06	10.861	52.500	104.276	-57.976	-63.476	129.397	217.303	-65.278	-58.139	53.032	59.234	-61.011	-56.605	-52.753	-47.373	266.873	-52.576	-8191	255	
1636.710	1	1	0	0	0.054776	0.36142	0.076554	0.17205	0.14836	0.13827	0.26414	0.18191	0.17357	0.27075	0.07383	0.077502	0.13981	0.036282	0.14774	0.19568	-1.5229	-1.7479	-1.3813	-2.275	-1.625	-1.5104	-2.3521	-1.5208	-1.7208	-1.9229	-1.3458	-2.1125	-1.7104	-1.4729	-2.2729	-1.2896	186.298	-74.961	83.224	-63.250	276.280	259.833	222.276	147.205	231.989	-34.647	142.375	141.933	170.725	26.538	114.319	183.217	8.3894e-05	0.00022465	6.3623e-05	349.36	9.3197e-07	3.0251e-06	366.87	112.31	8.6281e-07	2.3561e-06	124.64	36.133	31.8	8.9193	3.2364e-06	10.264	0.00021647	0.00022016	5.9917e-05	356.26	2.3866e-06	2.3791e-06	371.64	114.01	2.4422e-06	2.4101e-06	126.53	37.201	32.723	9.4387	2.4487e-06	11.032	-27.603	68.173	38.929	-63.348	173.222	127.402	-64.873	-57.411	39.095	21.279	-61.298	-56.608	-53.057	-48.289	-31.945	-52.070	-8191	255	
#DATA ENDS
