BOXY.EXE: ISS Imagent and Oximeter Data Acquisition Program Version 0.80
Ascii Record File

#ACQ INFORMATION
2  Detector Channels 
16  External MUX Channels 
1  Auxiliary Channels 
5000  Waveform (CCF) Frequency (Hz)
1  Waveforms Skipped 
30  Waveforms Averaged 
1  Cycles Averaged 
16  Acquisitions per Waveform 
10.0806  Updata Rate (Hz) 

#FILE INFORMATION
TRUE -- External MUX Channel results are PARSED.
FALSE -- AC DC and Phase are NOT grouped.
TRUE -- Companion Program Settings File CREATED.
FALSE -- AC data not excluded
FALSE -- DC data not excluded
FALSE -- Phase data not excluded
FALSE -- Auxillary Chn. data not excluded
Tab delimiters

#CALIBRATION STATE
TRUE -- Waveform Calibration Values APPLIED.


#AUX CALIBRATION VALUES
Val Type	aux-1	

Term	1.0000e+00	
Factor	0.0000e+00	


#WF CALIBRATION VALUES
A = Detector Channel
Val Type	A-AC1	A-AC2	A-AC3	A-AC4	A-AC5	A-AC6	A-AC7	A-AC8	A-AC9	A-AC10	A-AC11	A-AC12	A-AC13	A-AC14	A-AC15	A-AC16	A-DC1	A-DC2	A-DC3	A-DC4	A-DC5	A-DC6	A-DC7	A-DC8	A-DC9	A-DC10	A-DC11	A-DC12	A-DC13	A-DC14	A-DC15	A-DC16	A-Ph1	A-Ph2	A-Ph3	A-Ph4	A-Ph5	A-Ph6	A-Ph7	A-Ph8	A-Ph9	A-Ph10	A-Ph11	A-Ph12	A-Ph13	A-Ph14	A-Ph15	A-Ph16	

Term	0.00000e+00	0.00000e+00	0.00000e+00	0.00000e+00	0.00000e+00	0.00000e+00	0.00000e+00	0.00000e+00	0.00000e+00	0.00000e+00	0.00000e+00	0.00000e+00	0.00000e+00	0.00000e+00	0.00000e+00	0.00000e+00	0.00000e+00	0.00000e+00	0.00000e+00	0.00000e+00	0.00000e+00	0.00000e+00	0.00000e+00	0.00000e+00	0.00000e+00	0.00000e+00	0.00000e+00	0.00000e+00	0.00000e+00	0.00000e+00	0.00000e+00	0.00000e+00	0.00000e+00	0.00000e+00	0.00000e+00	0.00000e+00	0.00000e+00	0.00000e+00	0.00000e+00	0.00000e+00	0.00000e+00	0.00000e+00	0.00000e+00	0.00000e+00	0.00000e+00	0.00000e+00	0.00000e+00	0.00000e+00	
Factor	1.00000e+00	1.00000e+00	1.00000e+00	1.00000e+00	1.00000e+00	1.00000e+00	1.00000e+00	1.00000e+00	1.00000e+00	1.00000e+00	1.00000e+00	1.00000e+00	1.00000e+00	1.00000e+00	1.00000e+00	1.00000e+00	1.00000e+00	1.00000e+00	1.00000e+00	1.00000e+00	1.00000e+00	1.00000e+00	1.00000e+00	1.00000e+00	1.00000e+00	1.00000e+00	1.00000e+00	1.00000e+00	1.00000e+00	1.00000e+00	1.00000e+00	1.00000e+00	X	X	X	X	X	X	X	X	X	X	X	X	X	X	X	X	

B = Detector Channel
Val Type	B-AC1	B-AC2	B-AC3	B-AC4	B-AC5	B-AC6	B-AC7	B-AC8	B-AC9	B-AC10	B-AC11	B-AC12	B-AC13	B-AC14	B-AC15	B-AC16	B-DC1	B-DC2	B-DC3	B-DC4	B-DC5	B-DC6	B-DC7	B-DC8	B-DC9	B-DC10	B-DC11	B-DC12	B-DC13	B-DC14	B-DC15	B-DC16	B-Ph1	B-Ph2	B-Ph3	B-Ph4	B-Ph5	B-Ph6	B-Ph7	B-Ph8	B-Ph9	B-Ph10	B-Ph11	B-Ph12	B-Ph13	B-Ph14	B-Ph15	B-Ph16	

Term	0.00000e+00	0.00000e+00	0.00000e+00	0.00000e+00	0.00000e+00	0.00000e+00	0.00000e+00	0.00000e+00	0.00000e+00	0.00000e+00	0.00000e+00	0.00000e+00	0.00000e+00	0.00000e+00	0.00000e+00	0.00000e+00	0.00000e+00	0.00000e+00	0.00000e+00	0.00000e+00	0.00000e+00	0.00000e+00	0.00000e+00	0.00000e+00	0.00000e+00	0.00000e+00	0.00000e+00	0.00000e+00	0.00000e+00	0.00000e+00	0.00000e+00	0.00000e+00	-1.62475e+02	-1.30028e+02	-1.29081e+02	-1.82568e+02	-7.08570e+01	-6.63597e+01	-1.57125e+02	-1.62015e+02	-8.01052e+01	-6.56729e+01	-1.70653e+02	-1.69026e+02	-1.81905e+02	-1.76426e+02	-7.59934e+01	-1.49739e+02	
Factor	2.48014e-05	1.38066e-04	4.13928e-05	1.81409e-01	1.37938e-06	1.71112e-06	1.66522e-01	5.10113e-02	1.39629e-06	1.55553e-06	7.91198e-02	2.75910e-02	2.90947e-02	8.83143e-03	1.46968e-06	1.26923e-02	9.30207e-06	1.30508e-05	3.64333e-06	9.51287e-02	1.35613e-07	1.44845e-07	8.22480e-02	2.69387e-02	1.34931e-07	1.44256e-07	4.04368e-02	1.41989e-02	1.54998e-02	4.70142e-03	1.38599e-07	6.55128e-03	X	X	X	X	X	X	X	X	X	X	X	X	X	X	X	X	



#DISTANCE SETTINGS
A = Detector Channel
A-1	A-2	A-3	A-4	A-5	A-6	A-7	A-8	A-9	A-10	A-11	A-12	A-13	A-14	A-15	A-16	

2.5000e+00	3.0000e+00	2.5000e+00	3.0000e+00	2.0000e+00	3.0000e+00	1.5000e+00	3.0000e+00	3.0000e+00	3.0000e+00	3.0000e+00	3.0000e+00	3.0000e+00	3.0000e+00	1.5000e+00	3.0000e+00	

B = Detector Channel
B-1	B-2	B-3	B-4	B-5	B-6	B-7	B-8	B-9	B-10	B-11	B-12	B-13	B-14	B-15	B-16	

1.0000e+01	1.0000e+01	1.0000e+01	1.4400e+00	1.0000e+01	1.0000e+01	1.5100e+00	1.9400e+00	1.0000e+01	1.0000e+01	1.9900e+00	2.4900e+00	2.4100e+00	2.9000e+00	1.0000e+01	2.9800e+00	




#DATA BEGINS
time	group	step	mark	flag	A-AC1	A-AC2	A-AC3	A-AC4	A-AC5	A-AC6	A-AC7	A-AC8	A-AC9	A-AC10	A-AC11	A-AC12	A-AC13	A-AC14	A-AC15	A-AC16	A-DC1	A-DC2	A-DC3	A-DC4	A-DC5	A-DC6	A-DC7	A-DC8	A-DC9	A-DC10	A-DC11	A-DC12	A-DC13	A-DC14	A-DC15	A-DC16	A-Ph1	A-Ph2	A-Ph3	A-Ph4	A-Ph5	A-Ph6	A-Ph7	A-Ph8	A-Ph9	A-Ph10	A-Ph11	A-Ph12	A-Ph13	A-Ph14	A-Ph15	A-Ph16	B-AC1	B-AC2	B-AC3	B-AC4	B-AC5	B-AC6	B-AC7	B-AC8	B-AC9	B-AC10	B-AC11	B-AC12	B-AC13	B-AC14	B-AC15	B-AC16	B-DC1	B-DC2	B-DC3	B-DC4	B-DC5	B-DC6	B-DC7	B-DC8	B-DC9	B-DC10	B-DC11	B-DC12	B-DC13	B-DC14	B-DC15	B-DC16	B-Ph1	B-Ph2	B-Ph3	B-Ph4	B-Ph5	B-Ph6	B-Ph7	B-Ph8	B-Ph9	B-Ph10	B-Ph11	B-Ph12	B-Ph13	B-Ph14	B-Ph15	B-Ph16	aux-1	digaux	

1712.149	1	1	0	512	0.10532	0.18035	0.12318	0.16777	0.017506	0.12332	0.065812	0.24317	0.20125	0.18459	0.082371	0.19062	0.17065	0.34485	0.18146	0.13503	0.31875	-0.070833	-0.60208	0.11875	-0.50625	-0.55417	0.054167	-0.59375	-0.23958	-0.19792	-0.83333	0.029167	-0.33958	-0.60208	0.21875	-0.73125	-10.112	234.726	34.597	255.198	145.433	180.266	292.926	229.229	200.528	114.771	37.101	181.783	206.083	269.158	-3.846	63.196	0.00018503	0.0006287	0.00017305	888.14	1.8163e-06	4.5213e-06	751.06	331.19	2.1121e-06	5.9629e-06	309.64	107.88	97.799	46.693	3.2978e-06	51.212	0.00042164	0.00046488	0.00012228	828.1	4.5738e-06	4.814e-06	699.16	308.38	4.8359e-06	5.0318e-06	287.37	101.52	92.566	44.18	4.8804e-06	48.073	115.089	29.428	52.077	-46.357	93.331	80.897	-47.227	-41.471	111.945	83.750	-43.553	-39.998	-35.884	-33.324	78.025	-36.172	-8191	255	
1712.245	1	1	0	0	0.15888	0.12932	0.27491	0.10028	0.17337	0.18631	0.29043	0.014835	0.18956	0.099945	0.10001	0.16243	0.20069	0.11364	0.29338	0.12852	0.058333	-0.075	-0.54792	-0.045833	-0.39375	-0.49375	0.17083	-0.83125	-0.34375	0.066667	-0.975	0.05625	-0.325	-0.72292	-0.0083333	-0.76875	183.154	-55.827	162.451	257.532	224.096	49.192	247.205	165.559	233.892	79.356	201.220	244.406	286.689	-10.143	-58.023	140.389	0.00021346	0.00049259	6.7337e-05	893.76	3.4657e-06	3.9634e-06	762.15	330.57	3.3278e-06	5.9308e-06	310.26	108.47	98.409	47.224	3.8289e-06	51.879	0.00040854	0.00043636	0.00011861	833.8	4.6787e-06	4.7277e-06	707.56	308.91	4.8356e-06	4.8428e-06	290.05	102.43	92.977	44.622	4.8267e-06	48.789	110.552	24.534	30.044	-46.501	75.058	107.407	-47.291	-41.493	64.502	61.563	-43.258	-39.970	-35.920	-33.408	125.136	-35.997	-8191	255	
1712.366	1	1	0	0	0.18129	0.076855	0.18441	0.16901	0.11186	0.10574	0.098208	0.10063	0.23752	0.19955	0.33121	0.11439	0.35635	0.15516	0.17163	0.26027	-0.1875	0.01875	-0.82917	-0.0875	-0.00625	-0.70208	-0.025	-0.56667	-0.33333	0.14375	-0.83542	0.05	-0.083333	-0.71458	0.0875	-0.5125	188.841	13.388	72.706	183.402	-28.789	130.359	42.459	156.957	111.317	93.432	228.524	266.731	267.368	200.550	-2.143	227.843	0.0001468	0.00040494	0.00016236	905.68	4.6235e-06	5.6699e-06	760.85	332.22	4.6547e-06	5.5043e-06	313.04	110.57	98.902	47.635	3.2958e-06	52.516	0.0004096	0.00045795	0.00012111	841.27	4.9728e-06	4.8743e-06	713.51	310.91	4.95e-06	5.1259e-06	293.29	103.62	93.503	44.89	5.0618e-06	49.436	112.966	61.266	38.936	-46.316	125.477	89.239	-47.140	-41.643	63.571	71.953	-43.522	-39.732	-35.768	-33.359	86.892	-35.762	-8191	255	
1712.460	1	1	0	0	0.41886	0.032253	0.1036	0.016313	0.12784	0.11688	0.089224	0.2009	0.15714	0.19404	0.089092	0.35934	0.14893	0.091335	0.27008	0.22002	-0.26042	0.12708	-0.6	-0.2	-0.0875	-0.71458	0.014583	-0.45417	-0.77083	0.23542	-0.78542	-0.38958	-0.09375	-0.93542	0.12292	-0.64167	287.954	68.818	119.039	-51.235	-46.462	96.605	298.818	267.306	146.416	63.494	68.342	-46.119	255.271	39.021	251.423	229.355	0.00014784	0.00030502	0.00014318	914.99	1.0443e-06	7.3835e-06	778.06	335.94	4.8154e-06	5.3076e-06	317.55	111.44	99.726	47.62	2.8557e-06	52.593	0.00043687	0.00047771	0.00012843	848.63	5.107e-06	5.1109e-06	725.47	314.5	5.0051e-06	5.2701e-06	297.18	104.74	94.16	44.986	5.1978e-06	49.361	104.862	-0.091	17.876	-46.496	178.084	91.859	-47.096	-41.730	112.767	90.696	-43.147	-39.771	-35.486	-32.972	105.425	-35.572	-8191	255	
1712.556	1	1	0	0	0.11067	0.28673	0.14834	0.09015	0.2642	0.29024	0.044031	0.10623	0.14932	0.12056	0.11447	0.19349	0.20441	0.050567	0.32866	0.13775	-0.23125	0.38333	-0.71875	-0.26042	0.0125	-0.67083	-0.19792	-0.47708	-0.68958	0.175	-0.73542	-0.50625	0.2	-0.91458	-0.041667	-0.18333	248.591	80.808	144.460	46.860	278.394	252.366	95.262	132.849	180.468	7.194	-51.410	59.181	-21.806	-22.910	55.026	225.453	0.00015858	0.00027894	0.0001082	919.46	3.9208e-06	4.916e-06	775.85	336.18	3.8005e-06	8.1181e-06	316.31	109.9	99.286	47.278	6.1594e-06	51.562	0.0004351	0.00047282	0.00012991	856.65	5.051e-06	5.1281e-06	727.14	313.84	5.0683e-06	5.2398e-06	295.1	103.49	93.758	44.604	5.1466e-06	48.619	112.966	57.497	39.720	-46.336	92.343	100.904	-47.335	-41.489	83.976	107.990	-43.252	-39.391	-35.610	-33.267	78.827	-35.990	-8191	255	
1712.630	1	1	0	0	0.32097	0.19534	0.12416	0.20768	0.13144	0.13754	0.18933	0.25424	0.23271	0.10735	0.056515	0.17204	0.31172	0.53567	0.19296	0.35395	-0.55833	0.23125	-0.55417	-0.3875	0.10833	-0.61458	-0.10417	-0.175	-0.67083	0.1	-0.57708	-0.675	0.33333	-0.79167	-0.16042	-0.13542	90.073	245.709	205.191	289.702	246.762	26.159	216.770	295.720	-55.128	273.767	140.599	218.613	260.638	277.186	6.275	249.940	0.00017726	0.00055032	0.00013572	921.17	3.2873e-06	7.6108e-06	778.62	336.65	7.8769e-07	6.5049e-06	314.02	108.57	99.553	47.065	3.9977e-06	51.443	0.0004264	0.00045672	0.00012768	857.05	5.0476e-06	5.081e-06	726.22	313.88	5.1482e-06	5.1079e-06	293.34	102.57	93.908	44.476	5.0505e-06	48.304	119.012	-8.303	1.136	-46.325	118.898	124.484	-47.423	-41.497	57.253	78.883	-43.146	-39.889	-35.430	-33.166	93.091	-36.126	-8191	255	
1712.749	1	1	0	0	0.30039	0.24426	0.10938	0.26115	0.083251	0.40362	0.24283	0.15826	0.10016	0.19004	0.13297	0.11018	0.16029	0.26396	0.2207	0.089857	-0.41875	0.035417	-0.35417	-0.675	0.21667	-0.81042	-0.23125	-0.25833	-0.72083	-0.033333	-0.33542	-0.8375	0.2125	-0.71042	-0.20833	-0.05	244.861	26.234	58.962	287.021	57.162	158.024	6.090	222.555	265.321	137.681	293.960	169.215	188.623	227.316	-16.926	191.519	0.00020649	0.00030503	0.00016441	919.23	3.6725e-06	4.7557e-06	778.49	336.59	2.7373e-06	5.573e-06	317.19	109.31	99.269	47.524	4.3575e-06	51.45	0.00043501	0.0004735	0.00012866	856.61	5.0211e-06	5.1827e-06	725.59	314.44	5.0028e-06	5.0793e-06	294.39	102.94	93.815	44.699	5.0294e-06	48.714	110.674	29.034	27.152	-46.262	55.443	65.522	-47.373	-41.553	118.768	102.219	-43.252	-39.971	-35.828	-33.008	70.523	-35.789	-8191	255	
1712.845	1	1	0	0	0.35858	0.1124	0.031231	0.14962	0.24883	0.25233	0.16245	0.25007	0.08106	0.12368	0.35473	0.15659	0.15273	0.26275	0.32566	0.19889	-0.22708	-0.060417	-0.37292	-0.7125	0.28125	-0.76458	-0.61667	-0.022917	-0.97292	-0.18958	-0.21875	-0.96458	0.11875	-0.71875	-0.45417	0.25208	85.969	94.262	-52.882	252.250	158.371	219.211	185.121	-34.216	289.478	162.511	253.799	226.354	269.144	255.755	124.776	45.744	0.00021527	0.00070053	0.0001038	930.32	3.667e-06	6.5393e-06	788.85	339.02	4.5453e-06	5.1457e-06	319.28	110.79	99.869	47.879	3.7443e-06	52.569	0.00043038	0.00046928	0.00012821	860.82	5.1437e-06	5.1492e-06	734.1	316.63	5.0953e-06	5.2278e-06	297.3	104.35	94.56	45.169	5.2229e-06	49.393	112.653	26.055	38.035	-46.264	80.780	93.482	-47.153	-41.250	65.807	106.415	-43.488	-39.764	-35.714	-33.145	88.579	-36.028	-8191	255	
1712.941	1	1	0	0	0.2056	0.18535	0.28004	0.23929	0.092372	0.11112	0.34484	0.096512	0.12049	0.26124	0.17431	0.136	0.11309	0.28125	0.18196	0.054408	-0.45833	-0.045833	-0.1625	-0.95	0.060417	-0.51667	-0.63125	-0.070833	-0.75	-0.23542	-0.020833	-1.0792	0.12292	-0.50208	-0.46667	0.095833	21.817	110.059	-41.989	125.623	254.037	-53.661	281.987	248.869	148.098	126.872	260.708	27.951	23.064	-45.049	122.751	210.646	0.00017392	0.00068708	0.00010469	935.84	4.3206e-06	5.3339e-06	788.54	338.98	3.4135e-06	4.3322e-06	323	111.84	99.84	48.194	4.3359e-06	53.034	0.00043921	0.00049046	0.00013395	864.84	5.2344e-06	5.1755e-06	736.58	318.13	5.2471e-06	5.18e-06	300.82	105.33	95.172	45.429	5.2552e-06	49.796	107.534	12.203	56.592	-46.175	102.101	63.224	-47.110	-41.561	14.485	95.214	-43.387	-39.844	-35.535	-32.970	102.356	-35.609	-8191	255	
1713.037	1	1	0	0	0.13137	0.19797	0.13317	0.48442	0.064956	0.12989	0.35768	0.4553	0.17079	0.26777	0.1628	0.23682	0.21036	0.12025	0.28475	0.20172	-0.3125	-0.047917	-0.033333	-0.97292	-0.0125	-0.34167	-0.99167	0.14792	-0.58958	-0.31875	-0.13958	-0.975	-0.0375	-0.47708	-0.83958	0.035417	67.501	75.188	248.251	274.688	275.971	294.283	222.245	230.273	187.765	201.394	250.489	-6.832	196.831	-55.668	73.087	-4.027	0.00020257	0.00058892	0.00014594	930.1	2.3501e-06	2.3289e-06	788.97	339.68	1.833e-06	3.7866e-06	321.5	111.22	100.73	48.518	1.0976e-06	52.667	0.00042067	0.00048698	0.0001365	865.67	5.3016e-06	5.3677e-06	734.96	318.83	5.2522e-06	5.391e-06	299.27	105.01	95.021	45.587	5.3655e-06	49.768	110.883	9.543	35.130	-46.383	108.039	71.054	-47.293	-41.363	128.042	84.657	-43.372	-39.679	-35.966	-33.300	105.466	-35.786	-8191	255	
1713.158	1	1	0	0	0.093951	0.018897	0.34765	0.20382	0.097833	0.20868	0.48009	0.38455	0.046684	0.26364	0.22976	0.36457	0.22566	0.2333	0.093189	0.28192	-0.52708	-0.37917	0.0083333	-0.75833	-0.27917	-0.03125	-0.975	-0.14792	-0.37708	-0.83333	0.13958	-1.1021	-0.13125	-0.26458	-0.61458	-0.12083	190.235	51.915	115.300	192.219	216.755	296.322	213.991	211.379	246.427	232.849	264.860	-51.455	202.400	193.594	68.788	237.635	0.00016814	0.00057725	9.9036e-05	929.54	4.2672e-06	6.7807e-06	786.59	343.01	3.5899e-06	3.8705e-06	322.22	112.12	100.56	48.671	4.4785e-06	53.843	0.00044758	0.00047051	0.00013464	863.39	5.2892e-06	5.3013e-06	732.92	319.85	5.2064e-06	5.2254e-06	300.4	106.2	95.545	45.876	5.2795e-06	50.491	108.162	-9.666	31.529	-46.114	84.636	63.850	-47.194	-41.067	62.841	112.070	-43.469	-39.866	-35.580	-32.953	88.589	-36.026	-8191	255	
1713.229	1	1	0	0	0.30695	0.11544	0.11671	0.26333	0.15785	0.15085	0.34463	0.22294	0.35372	0.14304	0.15989	0.16282	0.071493	0.10979	0.086287	0.047469	-0.225	-0.4875	0.25208	-0.84375	-0.25417	-0.125	-0.83542	-0.085417	-0.46667	-0.43542	0.029167	-0.89583	-0.43958	-0.12292	-0.91875	-0.21042	174.806	31.519	134.336	-31.333	175.103	65.466	274.533	282.439	203.434	122.368	195.235	270.828	237.127	-13.691	-35.020	76.480	0.00014318	0.00028795	0.00017047	931.24	2.687e-06	5.9106e-06	787.88	343.36	3.1886e-06	6.165e-06	327.18	114.04	102.15	49.338	1.2276e-06	54.787	0.00045762	0.00048565	0.00014177	865.49	5.1344e-06	5.2672e-06	736.57	320.98	5.6002e-06	5.497e-06	305.25	107.76	96.641	46.438	5.315e-06	51.518	116.443	-16.653	25.618	-46.115	79.395	69.342	-47.030	-41.771	104.992	65.727	-43.079	-39.729	-35.641	-32.845	39.184	-35.757	-8191	255	
1713.326	1	1	0	0	0.14517	0.19018	0.25583	0.27888	0.10257	0.12	0.31277	0.318	0.15771	0.32594	0.18685	0.30419	0.3693	0.042553	0.2137	0.28423	0.014583	-0.69792	0.27292	-0.70208	-0.025	0.020833	-0.975	0.08125	-0.31875	-0.7125	0.085417	-0.80417	-0.33333	0.041667	-0.875	-0.21875	266.626	44.095	280.538	242.623	-1.198	201.327	233.448	235.920	234.341	137.246	-38.228	-11.984	165.701	-51.186	291.338	-40.070	0.00019025	0.00020674	0.00010937	929.95	3.5578e-06	6.9226e-06	791.65	345.64	3.0034e-06	4.5254e-06	329.7	115.31	103.46	50.315	3.5937e-06	56.098	0.0004682	0.00049571	0.00013822	865.88	5.296e-06	5.53e-06	739.83	322.65	5.5566e-06	5.592e-06	307.92	108.7	98.001	47.444	5.4966e-06	52.619	120.174	-5.971	35.672	-46.204	33.858	69.152	-46.890	-41.379	40.589	66.558	-43.569	-39.357	-35.594	-33.042	114.770	-36.153	-8191	255	
1713.446	1	1	0	0	0.196	0.14103	0.18524	0.071838	0.19074	0.15923	0.10807	0.33358	0.27129	0.14863	0.25515	0.27898	0.12787	0.27989	0.12329	0.095774	0.14167	-0.87708	0.033333	-0.56042	-0.37083	0.070833	-0.73333	-0.33542	-0.05625	-0.87083	0.18333	-0.54167	-0.57292	0.15208	-0.59583	-0.35417	94.442	44.805	223.880	296.465	91.577	191.159	296.274	232.097	291.668	229.535	215.887	-54.514	62.259	206.849	228.422	4.881	0.00019519	0.00050379	0.00017726	926.82	1.2737e-06	6.3897e-06	793.05	348.74	5.1202e-06	5.6485e-06	331.48	118.14	105.38	51.639	4.8838e-06	57.386	0.0004702	0.00049974	0.00014267	864.53	5.5339e-06	5.6094e-06	738.42	325.19	5.9653e-06	5.8231e-06	310.01	111.5	99.754	48.606	5.6352e-06	54.116	121.622	7.486	16.733	-46.049	125.624	92.840	-47.185	-41.377	90.301	83.141	-43.470	-39.732	-35.797	-33.013	94.492	-36.343	-8191	255	
1713.541	1	1	0	0	0.16591	0.25781	0.10967	0.34463	0.076181	0.35113	0.16294	0.18395	0.19406	0.07509	0.15356	0.16865	0.23971	0.11779	0.092464	0.21582	0.22708	-0.79583	0.095833	-0.45417	-0.65208	0.41042	-0.82083	-0.26458	0.010417	-0.80417	-0.10625	-0.50417	-0.59375	-0.03125	-0.67708	-0.325	192.885	-10.190	136.034	195.606	226.290	1.255	-15.190	9.750	14.089	6.434	178.391	246.097	17.498	-41.227	214.324	184.932	0.00014467	0.00041142	0.00010163	932.84	3.116e-06	5.8941e-06	794.1	351.35	2.485e-06	1.1233e-06	336.54	120.49	107.07	52.388	4.7126e-06	58.707	0.00048481	0.00051708	0.00014586	866.23	5.5712e-06	5.8194e-06	739.28	328.52	5.7225e-06	5.8601e-06	314.69	113.44	101.25	49.423	5.807e-06	55.153	113.071	12.927	39.730	-46.058	96.484	104.492	-46.871	-41.537	60.104	97.548	-43.428	-39.603	-35.802	-33.361	80.277	-36.152	-8191	255	
1713.638	1	1	0	0	0.40049	0.13154	0.19473	0.10497	0.069951	0.15674	0.2037	0.11961	0.12183	0.060081	0.11708	0.1249	0.29876	0.10149	0.25251	0.37546	0.46042	-0.64583	-0.022917	-0.37292	-0.70417	0.17083	-0.7625	-0.48542	0.21667	-0.74375	-0.016667	-0.13958	-0.66458	-0.066667	-0.61458	-0.56667	101.265	102.907	77.442	-19.498	210.027	129.736	214.889	-48.372	110.303	246.701	-49.909	-34.754	294.608	-40.550	202.256	233.045	0.00017485	0.000597	9.7188e-05	926	2.7133e-06	3.8234e-06	795.45	352.65	3.0788e-06	5.2419e-06	338.91	121.57	108.16	52.997	4.5234e-06	59.46	0.00049663	0.00051194	0.00014588	863.09	5.6296e-06	5.8562e-06	742.46	330.31	5.8313e-06	5.8826e-06	316.5	114.75	102.13	49.806	5.9029e-06	55.993	128.574	30.009	27.603	-46.069	100.917	65.728	-47.047	-41.311	28.796	102.227	-43.853	-39.818	-36.095	-33.146	91.374	-36.296	-8191	255	
1713.757	1	1	0	0	0.1702	0.095745	0.23557	0.080522	0.057899	0.086115	0.12298	0.23357	0.26288	0.1091	0.25356	0.13596	0.40529	0.26809	0.11255	0.16436	0.42083	-0.78958	-0.12292	-0.25833	-0.75	-0.070833	-0.525	-0.60833	0.43958	-0.67708	-0.36042	-0.10417	-0.70208	-0.010417	-0.12917	-0.6875	72.667	272.798	147.867	210.057	-22.220	235.995	258.121	271.716	10.033	20.865	280.288	227.534	236.844	222.764	218.617	229.185	0.0001901	0.00032449	0.00019989	925.49	3.4614e-06	5.2268e-06	789.5	354.99	4.3749e-06	3.5605e-06	336.24	120.66	107.95	52.838	3.333e-06	58.652	0.00051173	0.00051211	0.00015077	861.23	5.4918e-06	5.6133e-06	739.09	330.92	5.7109e-06	5.5863e-06	314.82	114.01	101.89	49.715	5.6355e-06	55.296	124.802	59.180	28.670	-46.102	69.228	83.803	-46.913	-41.642	74.337	118.223	-43.298	-39.734	-35.797	-33.507	55.884	-35.970	-8191	255	
1713.853	1	1	0	0	0.12552	0.10024	0.060024	0.28345	0.16017	0.30525	0.15062	0.17012	0.027313	0.08233	0.084633	0.1795	0.098268	0.25262	0.048261	0.18563	0.47917	-0.56458	-0.20208	-0.13958	-0.82917	0.027083	-0.45625	-0.84375	-0.014583	-0.61667	-0.50417	0.033333	-0.88958	-0.08125	-0.33958	-0.63542	46.540	25.736	-25.915	251.544	231.943	14.495	180.447	288.222	12.439	195.486	92.830	174.833	162.320	226.757	-48.143	200.338	0.00022778	0.0006153	0.00015889	918.24	2.5844e-06	6.0588e-06	779.89	353.55	2.1478e-06	3.113e-06	335.17	120.88	108.09	53.047	5.3168e-06	58.938	0.00049307	0.00052122	0.0001458	853.41	5.1567e-06	5.7135e-06	728.08	329.46	5.7146e-06	5.6251e-06	313.24	113.96	101.99	49.936	5.6938e-06	55.554	123.927	27.965	30.729	-46.202	75.689	81.204	-46.866	-41.647	90.598	71.523	-43.788	-39.775	-35.689	-32.971	85.358	-35.825	-8191	255	
1713.925	1	1	0	0	0.21409	0.13344	0.05985	0.16448	0.15924	0.13712	0.051491	0.27864	0.1132	0.16509	0.18237	0.16545	0.10844	0.21265	0.076179	0.062809	0.63125	-0.55833	-0.31667	0.033333	-0.92292	-0.14583	-0.40833	-0.90833	0.225	-0.47917	-0.5625	-0.10208	-0.71875	-0.33542	-0.045833	-0.97083	-57.120	-55.440	137.840	280.584	85.816	267.160	169.329	211.539	250.179	143.521	-22.181	193.374	-48.650	243.526	233.227	254.167	0.0001895	0.00044461	0.00017519	909.87	3.1159e-06	2.6543e-06	778.12	352.1	5.8686e-06	4.3436e-06	336.21	120.36	108.48	52.829	4.3001e-06	59.279	0.00049402	0.00050749	0.00014033	847.33	5.4477e-06	5.4875e-06	725.35	328.68	5.4908e-06	5.5764e-06	313.05	113.68	102.11	49.878	5.6589e-06	55.742	98.266	19.047	28.567	-46.058	40.096	77.276	-47.006	-41.347	70.891	88.513	-43.249	-39.684	-36.004	-33.392	76.476	-36.153	-8191	255	
1714.046	1	1	0	0	0.089486	0.16094	0.098361	0.11643	0.081141	0.084605	0.12707	0.27584	0.083559	0.25501	0.24129	0.13146	0.26424	0.073751	0.14082	0.29869	0.41667	-0.37917	-0.52708	0.16875	-0.71458	-0.18125	-0.14583	-0.94167	0.04375	-0.47708	-0.57917	0.10417	-0.72917	-0.46875	0.1625	-0.9625	90.234	16.707	160.096	158.411	291.837	202.616	193.839	257.660	45.829	200.481	190.131	-7.561	200.002	295.949	281.915	220.641	0.00018773	0.00050587	0.00016403	911.22	3.4637e-06	6.7251e-06	773.85	350.2	3.644e-06	6.3968e-06	336.89	121.01	107.58	52.985	3.8331e-06	59.254	0.00048125	0.00050672	0.00013751	844.85	5.3499e-06	5.403e-06	721.44	328.21	5.5367e-06	5.3979e-06	314	113.91	101.68	49.971	5.5786e-06	55.79	113.577	33.159	36.811	-46.362	118.853	99.870	-47.032	-41.495	79.981	105.824	-43.450	-39.791	-35.561	-33.281	110.405	-36.324	-8191	255	
1714.142	1	1	0	0	0.047652	0.22449	0.17946	0.08135	0.2492	0.15847	0.090246	0.23223	0.17607	0.16508	0.26069	0.12661	0.15474	0.1903	0.10749	0.028161	0.25417	-0.34583	-0.77292	0.0375	-0.54792	-0.45	-0.22083	-0.95625	-0.054167	-0.26667	-0.92083	0.18542	-0.525	-0.54167	0.18542	-0.78125	-40.087	55.049	135.300	139.557	-20.862	13.109	104.090	-52.823	83.138	-8.099	256.237	42.452	214.817	270.737	248.339	32.568	0.00023111	0.00028784	0.0001459	899.34	3.435e-06	8.4792e-06	768.76	349.67	2.3616e-06	5.6597e-06	332.88	119.65	106.52	53.168	6.2493e-06	59.137	0.00047923	0.0004865	0.00013706	839.59	5.2508e-06	5.4615e-06	716.65	326.61	5.499e-06	5.3928e-06	310.44	113.14	101.25	50.078	5.5564e-06	55.865	112.375	53.713	44.551	-46.294	89.711	84.245	-46.958	-41.617	79.663	111.925	-43.655	-40.005	-35.805	-33.459	91.731	-36.129	-8191	255	
1714.238	1	1	0	0	0.13396	0.10557	0.22416	0.29424	0.075937	0.20259	0.20254	0.047208	0.24328	0.065074	0.1296	0.075528	0.035859	0.17899	0.17293	0.44805	0.40625	0	-0.74167	0.11667	-0.46042	-0.39792	0.04375	-1.0021	0.029167	0.029167	-0.89792	0.11875	-0.5125	-0.50625	0.041667	-0.82292	39.227	248.831	257.485	272.268	-18.073	-4.172	224.448	273.331	241.601	276.467	239.481	3.287	87.707	-35.943	158.160	272.322	0.00020768	0.00050043	0.00014831	903.87	3.3528e-06	4.7831e-06	764.85	348.72	1.422e-06	4.5073e-06	333.57	120.51	107.72	53.475	5.9985e-06	60.122	0.00046103	0.00050939	0.00013436	839.96	5.2375e-06	5.3686e-06	714.13	326.17	5.3801e-06	5.549e-06	311.56	114.04	101.96	50.433	5.4943e-06	56.603	104.290	23.113	28.228	-46.226	108.453	75.995	-46.983	-41.534	38.008	96.016	-43.364	-40.019	-35.585	-33.341	88.175	-36.104	-8191	255	
1714.334	1	1	0	0	0.23194	0.20076	0.057144	0.046712	0.31765	0.12496	0.22606	0.20519	0.23893	0.20481	0.1484	0.047146	0.38752	0.37825	0.11289	0.144	0.18958	0.14167	-0.67292	0.11667	-0.28333	-0.42708	0.00625	-0.88333	0.0875	-0.091667	-0.86458	0.035417	-0.31875	-0.6875	0.35625	-0.67708	73.938	286.770	-36.241	86.188	183.395	260.056	238.412	194.337	-58.309	-44.016	-28.963	136.508	-35.191	272.284	158.758	-46.649	0.00018639	0.00030676	0.00011325	898.18	2.9542e-06	5.4301e-06	770.17	351.11	9.0909e-07	4.7717e-06	338.39	121.89	107.81	54.08	4.2054e-06	60.902	0.00047619	0.00049634	0.0001333	835.73	5.3293e-06	5.4824e-06	718.3	327.3	5.6137e-06	5.4496e-06	315.04	114.91	102.35	50.917	5.451e-06	57.284	124.424	71.338	29.251	-46.104	104.039	65.295	-46.885	-41.481	97.631	51.478	-43.448	-40.296	-35.809	-33.322	83.601	-36.231	-8191	255	
1714.453	1	1	0	0	0.15988	0.05	0.25982	0.3278	0.36807	0.06206	0.23006	0.19242	0.24961	0.26244	0.18812	0.19453	0.058865	0.14952	0.21547	0.15598	0.10833	0.175	-0.74792	-0.16875	0.029167	-0.7125	0.23125	-0.52917	-0.23958	0.022917	-0.775	-0.15208	-0.27917	-0.82292	0.12708	-0.50417	-47.420	179.939	65.871	218.493	163.844	-48.141	230.267	278.480	199.782	119.506	286.499	135.529	259.836	242.967	246.076	-15.903	0.00021374	0.0005197	0.00012187	899.41	4.2624e-06	7.4787e-06	771.35	352.59	3.881e-06	4.459e-06	340.42	123.55	109.44	54.347	2.6843e-06	61.687	0.00047776	0.00049675	0.00013733	837.9	5.4189e-06	5.4926e-06	721.33	328.9	5.6117e-06	5.5599e-06	317.06	116.19	103.16	51.112	5.5061e-06	57.817	120.544	31.933	26.672	-46.266	91.289	81.619	-46.985	-41.371	59.127	81.511	-43.145	-39.748	-35.515	-33.422	40.361	-36.147	-8191	255	
1714.527	1	1	0	0	0.47133	0.08193	0.099363	0.15772	0.069026	0.25319	0.30084	0.15647	0.047893	0.12276	0.17645	0.12562	0.064606	0.11635	0.19934	0.27487	-0.066667	0.0625	-0.73333	-0.17708	-0.079167	-0.60208	0.21042	-0.82083	-0.47292	0.3125	-0.77083	-0.175	-0.10208	-0.6125	0.016667	-0.51667	271.090	-54.057	212.218	-2.074	63.214	245.761	-45.037	-48.929	60.622	205.180	-43.873	233.191	270.662	162.575	114.454	257.470	0.00020192	0.00056757	0.00011345	902.11	4.0751e-06	6.9188e-06	770.5	353.87	5.6654e-06	6.4103e-06	339.36	123.99	109.97	54.879	4.4753e-06	61.7	0.00048113	0.00049468	0.00013442	837.81	5.5011e-06	5.5994e-06	720.2	330.16	5.5291e-06	5.5217e-06	317.73	116.92	103.76	51.665	5.6202e-06	58.261	106.861	27.771	22.570	-46.337	92.126	84.073	-46.895	-41.486	73.261	77.231	-43.313	-40.117	-35.843	-32.732	55.974	-36.191	-8191	255	
1714.623	1	1	0	0	0.24926	0.21319	0.16201	0.28824	0.12278	0.17142	0.13071	0.35964	0.050794	0.12497	0.23828	0.27445	0.064628	0.17141	0.075937	0.15529	-0.25833	0.13125	-0.79792	-0.29167	-0.070833	-0.81042	0.14167	-0.60833	-0.4625	0.20417	-0.6125	-0.23333	0.05	-0.91458	0.0083333	-0.26667	229.303	263.298	26.010	18.113	-58.532	-16.537	179.166	236.068	197.712	19.144	252.191	127.457	74.262	-20.626	-41.188	281.016	0.00023298	0.00058077	0.00017593	907.43	3.9473e-06	5.3251e-06	781.32	355.85	3.2224e-06	3.2098e-06	344.29	126.29	110.8	55.109	3.9832e-06	62.626	0.00048125	0.00051178	0.00014397	843.84	5.3813e-06	5.4317e-06	728.34	332.08	5.5504e-06	5.7501e-06	320.68	118.61	104.82	52.022	5.6996e-06	58.979	120.103	48.515	42.194	-46.406	93.801	86.012	-47.338	-41.218	81.690	91.354	-43.344	-39.898	-35.825	-33.044	81.216	-36.216	-8191	255	
1714.719	1	1	0	0	0.15343	0.069306	0.10864	0.33627	0.20857	0.033804	0.080176	0.29716	0.10968	0.06639	0.12534	0.11571	0.13765	0.22956	0.17144	0.28154	-0.29792	0.33542	-0.6625	-0.5375	0.075	-0.7125	-0.025	-0.18125	-0.8625	0.27083	-0.64375	-0.525	0.14167	-0.66875	-0.0375	-0.1125	-46.671	137.840	257.345	246.078	-25.851	-33.741	281.958	-39.850	232.844	275.286	123.362	75.343	210.001	192.376	-52.316	213.443	0.00019635	0.00033856	0.00010753	912.77	7.1808e-07	7.6833e-06	785.33	357.21	2.1531e-06	3.3141e-06	346.24	126.61	110.82	55.431	3.715e-06	62.829	0.00048206	0.00049286	0.00013719	850.04	5.5525e-06	5.5397e-06	734.51	333.46	5.4726e-06	5.7107e-06	324.55	119.28	105.07	52.094	5.7686e-06	59.099	126.601	7.538	0.987	-46.271	124.305	86.538	-47.140	-41.301	97.486	77.346	-43.245	-39.849	-35.813	-33.242	89.271	-35.885	-8191	255	
1714.838	1	1	0	0	0.21879	0.067808	0.15098	0.21737	0.22906	0.10106	0.1887	0.22058	0.10614	0.27743	0.48031	0.25321	0.15775	0.21457	0.051385	0.24036	-0.57292	0.28333	-0.45	-0.62708	0.070833	-0.65625	-0.25	0.0083333	-0.94583	0.15625	-0.43958	-0.75208	0.17917	-0.6875	-0.05	-0.054167	76.082	-52.179	-42.109	288.605	286.623	10.446	225.833	239.235	164.293	222.536	295.052	-54.158	296.310	284.684	80.559	-30.242	0.00020604	0.00031296	0.00014202	918.39	3.2661e-06	7.0625e-06	792.82	357.93	2.9137e-06	5.4506e-06	348.45	127.73	111.29	55.837	4.2259e-06	63.709	0.00048716	0.00054169	0.00014038	854.02	5.5638e-06	5.7539e-06	738.98	334.32	5.4237e-06	5.7173e-06	324.94	119.46	105.22	52.386	5.5581e-06	59.979	122.458	43.451	17.763	-46.086	86.383	97.176	-46.925	-41.317	48.016	100.725	-43.395	-39.892	-35.727	-33.191	91.425	-36.186	-8191	255	
1714.934	1	1	0	0	0.042795	0.18776	0.12136	0.034021	0.10063	0.29375	0.29386	0.21709	0.15594	0.27757	0.10571	0.29228	0.29884	0.095008	0.063961	0.23136	-0.51042	0.22708	-0.30417	-0.65625	0.17708	-0.66667	-0.4625	-0.033333	-0.89583	0.097917	-0.31875	-0.80208	0.35625	-0.71667	-0.45833	0.10208	-17.250	187.751	33.532	207.291	-2.273	-25.111	164.519	196.767	-38.320	102.369	295.946	194.980	262.043	261.915	92.572	285.378	0.00023367	0.00043489	0.0001563	925.93	4.0437e-06	5.9195e-06	809.11	367.05	1.619e-06	6.7573e-06	361.48	135.24	117.43	59.473	5.4548e-06	68.962	0.00049522	0.00052845	0.000145	860.19	5.6593e-06	5.5865e-06	751.69	343.13	5.7807e-06	6.0663e-06	337.84	127.32	110.82	56.247	5.952e-06	64.956	107.628	25.775	24.296	-46.053	102.101	97.915	-46.910	-41.349	171.663	90.519	-42.960	-39.863	-35.226	-33.229	74.969	-36.022	-8191	255	
1715.030	1	1	0	0	0.063133	0.16459	0.11749	0.11226	0.15326	0.12269	0.40097	0.20247	0.31999	0.10021	0.33999	0.20252	0.2069	0.50557	0.18272	0.16023	-0.39375	-0.14375	-0.01875	-0.87292	0.27083	-0.475	-0.56042	0.083333	-0.64583	-0.15833	-0.23125	-0.76667	0.075	-0.38958	-0.44792	0.11042	198.974	108.962	298.879	296.919	81.061	167.442	209.777	-44.452	256.963	121.184	131.391	91.612	10.179	295.597	175.433	223.953	0.00020574	0.00056287	0.00013774	935.39	5.7445e-06	6.8655e-06	826.18	373.5	4.849e-06	3.1511e-06	370.92	139.97	118.86	61.606	3.5659e-06	71.687	0.00053623	0.00056466	0.00015647	869.49	5.9444e-06	5.6462e-06	768.32	349.18	5.9443e-06	5.9686e-06	347.84	131.77	113.21	57.937	5.9225e-06	67.633	125.412	46.643	36.491	-46.317	79.647	71.307	-46.903	-41.303	87.060	70.343	-43.157	-40.057	-35.532	-33.066	99.913	-35.890	-8191	255	
1715.126	1	1	0	0	0.20747	0.33218	0.003017	0.33397	0.1765	0.23521	0.19311	0.33017	0.088582	0.17776	0.36104	0.14986	0.22862	0.15041	0.044445	0.098103	-0.2625	-0.0375	-0.010417	-0.77708	-0.072917	-0.45833	-0.69792	-0.25833	-0.63958	-0.32917	-0.14792	-0.83958	0.072917	-0.37083	-0.41042	0.20208	261.204	91.499	178.029	21.465	139.270	125.859	247.471	234.935	86.336	41.301	275.533	251.492	232.406	253.559	-25.845	7.426	0.00023367	0.00068876	0.00016164	951.92	4.222e-06	7.2653e-06	840.65	381.74	2.3299e-06	5.8415e-06	382.31	144.35	122.25	63.361	5.0031e-06	74.165	0.00052933	0.00057168	0.00015637	885.1	5.9729e-06	6.0095e-06	786.34	356.01	6.0022e-06	6.2367e-06	357.54	136.12	116.04	59.907	6.3317e-06	69.863	114.672	17.411	6.563	-46.094	102.628	80.951	-46.975	-41.295	68.508	103.552	-42.901	-39.692	-35.821	-32.807	94.610	-35.887	-8191	255	
1715.222	1	1	0	0	0.18975	0.097629	0.0661	0.1954	0.25649	0.091194	0.24206	0.34679	0.15655	0.093675	0.32812	0.31412	0.058137	0.25507	0.25205	0.21857	-0.40625	-0.24375	0.26667	-0.84583	-0.04375	0.03125	-1.1417	0.26458	-0.63958	-0.22917	0.077083	-0.75625	-0.029167	-0.072917	-0.70208	-0.052083	67.678	-42.939	49.151	-57.270	7.912	154.268	-49.113	261.595	137.547	123.120	211.917	208.664	182.975	295.662	-40.543	-47.965	0.00024019	0.00064184	0.00018692	959.36	3.3573e-06	6.0374e-06	851.11	384.95	4.4624e-06	4.3713e-06	384.26	146.17	123.25	64.242	5.6853e-06	75.462	0.00055402	0.00054938	0.00015977	892.61	6.0014e-06	6.2956e-06	792.93	358.87	6.0713e-06	5.9875e-06	360.45	137.99	117.51	60.593	6.1209e-06	71.021	132.534	26.327	23.353	-46.313	50.851	99.240	-46.610	-40.956	88.963	91.366	-42.976	-39.478	-35.863	-33.007	108.950	-35.921	-8191	255	
1715.318	1	1	0	0	0.3734	0.14682	0.11229	0.33704	0.18933	0.22391	0.17185	0.16515	0.25233	0.19427	0.13243	0.26219	0.040166	0.19443	0.075473	0.036876	-0.16667	-0.37083	0.17917	-0.81458	0.1375	-0.04375	-0.76667	-0.10833	-0.33542	-0.52083	-0.06875	-0.81875	-0.2625	-0.19167	-0.65417	-0.22083	-52.461	159.360	-5.838	249.205	164.560	245.564	73.091	256.341	26.571	217.026	162.043	-39.765	227.170	249.732	273.338	293.345	0.00025373	0.00068497	0.00020189	964.06	5.0888e-06	5.9061e-06	856.75	387.62	3.9515e-06	3.4554e-06	393.72	149.29	126.65	65.564	2.6851e-06	77.369	0.00055539	0.00056572	0.00016258	898.39	6.156e-06	6.4981e-06	802.94	363.02	5.9797e-06	6.087e-06	368.84	141.31	120.17	62.102	6.4388e-06	72.873	120.034	9.429	43.148	-45.783	75.154	77.819	-46.800	-41.461	72.460	95.498	-43.112	-39.643	-35.525	-33.022	121.596	-35.980	-8191	255	
1715.439	1	1	0	0	0.11803	0.2284	0.04068	0.10052	0.20746	0.081374	0.18558	0.17774	0.13795	0.10039	0.54914	0.16105	0.20298	0.63621	0.1193	0.24871	0.041667	-0.61042	0.12917	-0.74375	-0.3875	-0.125	-0.64583	-0.089583	-0.35833	-0.6625	0.014583	-0.53542	-0.35417	0.17292	-0.61042	-0.0625	240.286	19.237	136.613	277.084	175.004	45.344	224.439	223.459	49.360	171.702	296.322	283.909	275.682	274.705	160.083	275.206	0.00020183	0.00070556	0.00019287	974.23	5.4826e-06	9.8544e-06	872.69	393.21	6.2739e-06	6.1504e-06	396.77	149.6	125.66	65.018	1.0664e-06	76.132	0.00056686	0.0005722	0.00015811	906.02	6.1145e-06	6.5518e-06	809.8	368.03	6.4432e-06	6.1294e-06	370.46	141.73	119.62	61.193	6.3603e-06	71.607	121.193	-14.609	40.181	-45.912	86.567	102.263	-47.025	-41.176	90.374	87.735	-43.180	-39.743	-35.391	-32.921	70.175	-35.922	-8191	255	
1715.533	1	1	0	0	0.061668	0.25188	0.22533	0.39369	0.22638	0.14846	0.078599	0.4995	0.13671	0.24976	0.18686	0.10209	0.26051	0.22689	0.24564	0.36565	0.28333	-0.57708	0.25625	-0.86458	-0.40625	0.1625	-0.78125	-0.28958	-0.20417	-0.81042	0.04375	-0.61875	-0.62917	0.085417	-0.86458	-0.12292	-50.291	-36.708	-26.272	283.778	233.306	15.618	-18.357	-51.375	70.313	256.772	145.579	186.700	-22.763	3.247	-49.271	197.959	0.00026788	0.00059519	0.00021725	977.29	4.3306e-06	4.937e-06	872.13	390.4	3.3182e-06	9.1327e-06	393.89	147.75	124.92	63.783	4.4332e-06	73.727	0.0005689	0.00057929	0.00016859	908.74	6.2577e-06	6.4972e-06	811.94	365.41	6.4635e-06	6.3593e-06	367.6	139.72	118.24	60.191	6.6533e-06	69.711	118.366	21.377	11.975	-45.845	109.824	109.493	-46.442	-41.186	95.583	104.287	-42.946	-39.664	-35.746	-33.018	92.934	-35.946	-8191	255	
1715.630	1	1	0	0	0.092642	0.15988	0.089478	0.058945	0.11367	0.088937	0.32727	0.12317	0.28384	0.12673	0.17394	0.15527	0.017789	0.38639	0.185	0.11368	0.18542	-0.67917	0.28542	-0.45417	-0.56875	0.20625	-0.87708	-0.35	0.075	-0.92292	0.035417	-0.25208	-0.61667	0.17917	-0.56667	-0.31875	292.765	224.653	229.020	4.613	-19.373	119.887	187.214	260.130	201.080	-0.737	230.991	274.418	-1.526	267.681	257.540	-59.376	0.00028082	0.00057493	0.00014861	975.97	5.2188e-06	4.4802e-06	864.26	385.13	4.129e-06	4.3638e-06	385.6	144.45	123.05	62.599	1.4774e-06	72.545	0.00056037	0.00058149	0.0001625	907.85	6.2071e-06	6.7323e-06	803.54	361.11	6.4972e-06	6.1642e-06	360.38	136.3	116.45	59.023	6.3187e-06	68.377	120.307	40.205	3.229	-45.943	118.205	104.350	-46.899	-41.477	48.953	90.316	-42.924	-39.535	-35.513	-32.922	72.970	-35.717	-8191	255	
1715.750	1	1	0	0	0.31657	0.26677	0.20798	0.124	0.26334	0.18628	0.41945	0.38915	0.15583	0.17153	0.198	0.096663	0.15259	0.32896	0.18298	0.21437	0.62917	-0.79375	0.15	-0.33333	-0.59792	0.29583	-0.55	-0.43125	0.26875	-0.85	0.035417	-0.38333	-0.86042	0.1	-0.48542	-0.5375	117.200	230.383	47.162	39.237	-40.461	246.152	244.845	243.142	41.742	-53.742	228.907	114.018	212.071	252.863	145.436	212.185	0.00024749	0.00062506	0.00024217	973.19	5.8255e-06	7.2269e-06	859.28	385.7	4.1801e-06	6.4259e-06	385.16	143.28	122.09	61.486	6.5694e-06	71.668	0.00057107	0.00057317	0.0001645	908.35	6.2975e-06	6.4631e-06	802.71	360.49	6.3842e-06	6.2664e-06	358.72	135.27	115.6	58.218	6.5575e-06	67.432	122.470	35.499	31.407	-45.585	84.557	69.468	-46.677	-40.943	77.211	103.322	-42.851	-39.507	-35.703	-33.014	75.781	-36.165	-8191	255	
1715.822	1	1	0	0	0.19133	0.19505	0.0811	0.10465	0.30978	0.21702	0.23923	0.35104	0.18528	0.20746	0.35772	0.058629	0.29481	0.27394	0.087197	0.2735	0.57917	-0.75208	-0.0875	-0.34167	-0.65	-0.029167	-0.61875	-0.45833	0.17083	-0.69167	-0.2375	-0.17292	-0.71667	-0.066667	-0.32083	-0.4625	243.886	3.824	95.298	246.599	164.258	151.278	265.372	274.551	-13.396	-18.252	184.258	122.951	247.824	232.336	148.252	118.852	0.00023288	0.00034181	0.00018285	975.69	4.8795e-06	6.6057e-06	861.9	384.07	1.1113e-06	7.0702e-06	383.03	143.1	121.63	61.026	3.4022e-06	70.834	0.00056551	0.0005794	0.00015747	906.95	6.1356e-06	6.4869e-06	803.58	359.98	6.3533e-06	6.2114e-06	359.22	134.59	115.12	57.523	6.5378e-06	66.756	117.889	22.192	-7.024	-45.953	106.273	96.827	-47.009	-41.082	65.947	110.375	-43.231	-39.612	-35.456	-33.126	122.163	-35.761	-8191	255	
1715.918	1	1	0	0	0.22121	0.28429	0.11864	0.21344	0.048919	0.035216	0.15896	0.29619	0.16118	0.0069989	0.19151	0.15081	0.46271	0.11765	0.17768	0.3773	0.71042	-0.77083	-0.025	0.15	-0.88958	0.29167	-0.50833	-0.53542	0.18542	-0.76042	-0.40833	-0.10833	-0.76042	-0.17917	-0.17917	-0.55	30.696	-58.128	189.327	241.769	22.700	-41.246	280.299	225.781	-30.695	10.789	-3.491	-57.129	249.681	162.981	43.030	263.906	0.00021285	0.0006621	3.4103e-05	979.24	3.1093e-06	7.0029e-06	856.64	384.5	2.2577e-06	6.7258e-06	381.11	139.91	119.9	60.353	5.9849e-06	70.427	0.00055795	0.00057116	0.00015898	908.8	6.1532e-06	6.4468e-06	801.44	358.12	6.4657e-06	6.1654e-06	355.49	132.57	113.87	57.028	6.2248e-06	65.979	109.627	20.372	25.425	-46.210	78.646	99.068	-46.789	-41.427	87.714	91.541	-43.360	-39.610	-35.633	-33.181	88.673	-35.936	-8191	255	
1716.014	1	1	0	0	0.17078	0.1112	0.23119	0.063257	0.28452	0.16786	0.17269	0.10392	0.24598	0.26032	0.41088	0.3241	0.32351	0.26701	0.17222	0.1346	0.63125	-0.47083	-0.39583	0.10417	-0.99375	0.060417	-0.22292	-0.76875	0.26667	-0.62917	-0.325	0.0041667	-0.6875	-0.06875	-0.089583	-0.80833	116.327	2.388	-5.956	-45.590	-34.525	36.197	-40.794	-46.948	101.540	132.619	238.696	260.207	241.673	237.218	209.101	172.316	0.00024593	0.00052502	0.00010992	970.86	3.7426e-06	3.4241e-06	850.49	380.71	1.6342e-06	5.9614e-06	378.02	140.63	119.87	60.539	4.5127e-06	70.282	0.00054169	0.00057211	0.00016052	902.6	6.0164e-06	6.1858e-06	795.48	356.79	6.0935e-06	5.8321e-06	353.29	132.54	113.68	57.115	6.2514e-06	66.138	120.355	24.105	72.289	-45.955	79.343	89.836	-46.662	-41.400	91.074	74.812	-43.214	-39.690	-35.557	-33.023	58.025	-35.597	-8191	255	
1716.110	1	1	0	0	0.23118	0.33787	0.24136	0.26779	0.21379	0.31851	0.10158	0.042515	0.17285	0.13659	0.22223	0.26071	0.31841	0.26325	0.25448	0.32056	0.42083	-0.58333	-0.45	-0.26458	-1.1271	0.039583	-0.10417	-0.74792	0.1	-0.49792	-0.54375	0.32708	-0.78125	-0.20417	0.11875	-0.87917	-14.394	128.454	-40.405	-29.057	-48.363	31.732	272.785	236.448	-3.653	103.756	139.558	203.931	-55.659	297.455	156.655	250.662	0.00025031	0.00032998	0.00012733	966.53	4.0576e-06	6.7578e-06	856.83	380.04	5.2899e-06	5.4822e-06	378.42	141.17	120.33	60.286	4.4026e-06	70.147	0.00054952	0.00056708	0.00015381	902.16	5.9904e-06	6.0189e-06	797.18	356.34	5.9549e-06	5.8889e-06	354.52	132.69	113.77	56.85	6.3002e-06	66.05	113.440	28.236	41.007	-46.214	106.904	82.310	-46.931	-41.121	71.283	111.713	-43.320	-39.725	-35.568	-33.092	73.183	-36.217	-8191	255	
1716.229	1	1	0	0	0.30171	0.17328	0.1966	0.04412	0.14893	0.13597	0.14821	0.22638	0.099073	0.17118	0.22866	0.064372	0.2277	0.2133	0.13269	0.12226	0.37292	-0.21042	-0.55833	0.09375	-0.87917	-0.29167	0.0020833	-0.81667	0.11667	-0.375	-0.66667	0.010417	-0.60417	-0.45833	0.12708	-0.88125	223.916	49.128	73.262	120.104	-26.225	70.824	242.813	254.176	281.125	74.719	187.446	-15.814	280.902	268.807	145.758	-48.319	0.00021677	0.00057742	0.00012704	971.11	4.8699e-06	4.6586e-06	853.94	379.32	4.9453e-06	5.1673e-06	381.11	140.87	120.23	60.561	4.7381e-06	70.157	0.00053531	0.00054609	0.00015256	900.66	5.7893e-06	6.0445e-06	796.99	355.64	5.9552e-06	5.879e-06	356.07	133.09	113.75	56.957	6.1272e-06	66.27	118.611	36.195	44.359	-45.980	99.269	116.388	-46.641	-41.313	71.236	120.155	-43.260	-39.648	-35.569	-33.289	61.121	-35.849	-8191	255	
1716.325	1	1	0	0	0.22087	0.12441	0.14139	0.24991	0.41731	0.092717	0.1256	0.21657	0.21683	0.1422	0.09758	0.16151	0.18909	0.52019	0.20293	0.020666	0.18542	-0.16875	-0.81667	0.15	-0.60625	-0.3375	0.11042	-0.6875	-0.06875	-0.039583	-0.88125	0.19167	-0.63958	-0.47917	0.24792	-0.74583	189.899	128.394	-41.589	279.577	12.730	42.284	-42.687	-5.904	233.992	51.747	263.304	258.525	262.348	232.211	-11.766	276.076	0.00022405	0.00047523	0.00015379	961.48	4.5363e-06	8.847e-06	853.46	381.21	5.8626e-06	7.8621e-06	381.86	142.93	120.99	61.188	5.4631e-06	71.502	0.00053543	0.00055656	0.00014761	899.76	5.7353e-06	5.7911e-06	795.41	355.88	5.8521e-06	5.818e-06	356.43	134.27	114.47	57.709	6.2476e-06	67.51	114.055	23.990	21.442	-46.072	88.749	90.728	-46.838	-41.263	94.582	116.856	-42.912	-39.691	-35.563	-33.296	88.274	-35.831	-8191	255	
1716.397	1	1	0	0	0.14504	0.11733	0.14766	0.01465	0.23473	0.069459	0.096932	0.16988	0.1346	0.087519	0.146	0.17761	0.088132	0.34204	0.31648	0.47313	0.16667	0.066667	-0.70625	0.072917	-0.30625	-0.61042	0.35	-0.9125	-0.097917	0.03125	-0.83958	0.033333	-0.55	-0.7625	0.35	-0.63333	60.628	148.600	-3.352	208.624	57.422	228.371	244.707	263.044	297.251	208.935	-57.348	248.325	63.034	-54.187	199.608	281.936	0.00022726	0.00060718	0.00018978	969.62	1.3649e-06	8.3224e-06	862.1	385.71	6.3679e-06	8.5694e-06	389.76	145.81	123.4	62.753	2.778e-06	73.734	0.00051516	0.00057021	0.00014702	902.5	5.9608e-06	5.8816e-06	804.36	361.01	6.0365e-06	6.3779e-06	364.07	137.93	117.15	59.361	6.198e-06	69.67	119.726	47.270	16.596	-45.895	105.089	94.750	-46.745	-41.310	92.383	79.390	-43.249	-39.697	-35.823	-33.058	106.841	-35.982	-8191	255	
1716.518	1	1	0	0	0.15017	0.29032	0.13647	0.075143	0.05769	0.24038	0.17092	0.07921	0.059447	0.067478	0.10579	0.2562	0.064606	0.042033	0.056192	0.083784	0.070833	0.075	-0.62292	-0.097917	0.085417	-0.6125	-0.058333	-0.75208	-0.48333	0.13125	-0.72083	-0.26667	-0.33333	-0.74167	0.13125	-0.525	234.447	28.343	221.059	31.396	219.154	-8.173	112.950	257.279	168.057	241.130	-15.834	234.609	155.518	294.823	223.886	28.822	0.00027272	0.00049609	0.00020971	976.61	3.432e-06	8.2946e-06	871.73	390.16	6.3977e-06	7.5163e-06	397.5	150.63	126.89	64.745	4.7572e-06	76.379	0.00057285	0.00057037	0.00016202	909.32	6.1266e-06	6.0983e-06	812.64	364.62	6.1509e-06	6.4023e-06	371.28	141.82	119.89	61.085	6.5832e-06	71.977	113.843	3.702	21.145	-46.404	72.413	61.767	-46.746	-41.302	71.071	93.291	-43.214	-39.710	-35.878	-33.195	104.978	-35.877	-8191	255	
1716.614	1	1	0	0	0.15777	0.336	0.1204	0.21584	0.062854	0.16507	0.021334	0.1818	0.24446	0.20771	0.23314	0.24163	0.22028	0.084477	0.31163	0.21766	0.070833	0.16875	-0.5625	-0.24583	-0.1125	-0.45833	0.14167	-0.58542	-0.425	-0.016667	-0.82292	-0.17083	-0.12083	-0.94375	0.29167	-0.41042	103.788	207.414	29.061	268.501	71.859	131.781	113.583	264.866	61.561	-12.512	198.205	249.128	253.252	8.074	299.051	224.598	0.00027055	0.00066009	0.00023963	980.26	5.1538e-06	5.4121e-06	877.68	389.56	4.3928e-06	6.1022e-06	396.7	150.03	125.97	64.182	5.2486e-06	75.882	0.00055429	0.00057225	0.00015751	911.87	6.0127e-06	6.1987e-06	820.81	364.1	6.0918e-06	6.1507e-06	370.58	141.23	118.79	60.522	6.651e-06	71.252	118.059	34.698	36.398	-45.946	88.169	53.966	-46.575	-41.220	38.586	109.965	-42.967	-39.840	-35.228	-33.040	88.521	-35.869	-8191	255	
1716.710	1	1	0	0	0.10127	0.1423	0.22871	0.28895	0.29649	0.22543	0.084941	0.30358	0.060424	0.23069	0.38138	0.25116	0.20814	0.27343	0.22212	0.19329	-0.31458	0.39167	-0.58542	-0.28958	-0.04375	-0.81875	-0.025	-0.44792	-0.42292	0.12083	-1.0833	-0.35	-0.039583	-0.86458	0.05	-0.29375	180.081	181.801	80.118	192.682	212.147	-38.089	126.035	-14.396	-22.404	100.644	262.032	219.093	252.171	289.887	31.761	163.931	0.00024819	0.00076088	0.00025997	981.69	4.6695e-06	5.2799e-06	874.04	387.91	6.086e-06	5.2825e-06	392.57	148.52	125.31	63.595	2.7194e-06	74.57	0.0005471	0.00055694	0.00016261	912.34	5.9043e-06	6.0213e-06	815.78	364.14	6.1037e-06	6.0981e-06	366.96	139.67	118.05	59.817	6.5098e-06	70.304	115.531	31.710	26.797	-46.032	87.828	93.330	-46.720	-41.214	68.035	82.502	-42.887	-39.849	-35.366	-33.051	69.903	-35.703	-8191	255	
1716.831	1	1	0	0	0.34903	0.31353	0.06159	0.15737	0.086861	0.37945	0.56308	0.27497	0.21288	0.19711	0.23244	0.2314	0.14542	0.14262	0.046716	0.28701	-0.05	0.1875	-0.53958	-0.24792	0.28958	-0.825	-0.2	-0.23333	-0.84792	0.22292	-0.68125	-0.27917	0.085417	-0.80625	-0.0125	-0.21042	105.827	15.857	91.908	256.289	108.846	50.341	229.349	207.153	71.817	256.255	239.331	225.148	-57.620	295.382	189.046	248.324	0.00026333	0.0004275	0.0001761	977.68	5.36e-06	6.2275e-06	873.83	389.55	6.2607e-06	5.6149e-06	394.81	148.1	124.72	63.196	6.3849e-06	74.731	0.00055281	0.00056801	0.00016158	912.21	5.9438e-06	6.0774e-06	814.21	364.86	6.129e-06	6.2679e-06	368.26	139.79	118.18	59.696	6.3242e-06	70.357	111.746	67.803	27.953	-46.286	83.994	98.588	-47.011	-41.178	98.381	102.053	-43.168	-40.064	-35.419	-33.099	80.401	-35.905	-8191	255	
1716.927	1	1	0	0	0.31542	0.072337	0.063893	0.27512	0.14397	0.16003	0.35914	0.19028	0.24442	0.12389	0.158	0.095112	0.36815	0.31027	0.1019	0.17466	-0.41042	0.16042	-0.22708	-0.56875	0.16458	-0.72917	-0.054167	-0.14375	-0.65417	0.23333	-0.60208	-0.57917	0.1875	-0.54375	0.045833	0.0020833	88.147	186.373	26.968	210.207	149.048	123.369	268.274	283.645	243.960	80.838	261.821	36.369	286.485	284.693	256.858	213.299	0.00020962	0.00055806	0.00023886	979.64	6.8949e-06	7.9614e-06	878.46	390.4	4.251e-06	3.8879e-06	397.01	148.71	124.79	63.632	3.5567e-06	75.452	0.00055256	0.00057124	0.00015672	912.35	6.0919e-06	6.0011e-06	819.86	365.2	5.9223e-06	6.2607e-06	371.12	140.54	118.63	60.093	6.3322e-06	71.013	126.431	18.604	45.774	-46.242	85.350	106.083	-46.947	-41.261	67.487	134.264	-43.084	-39.773	-35.476	-32.942	79.230	-35.708	-8191	255	
1717.021	1	1	0	0	0.13162	0.10307	0.056028	0.40861	0.13704	0.035625	0.21921	0.37213	0.050796	0.10528	0.28829	0.41092	0.24502	0.14414	0.041621	0.20744	-0.44792	0.029167	0.0125	-0.67708	0.29792	-0.52917	-0.32708	0.11667	-0.92917	0.12708	-0.2375	-0.64583	0.24583	-0.55208	-0.375	-0.025	8.054	229.026	225.234	270.785	-43.836	296.540	265.659	298.251	262.753	-7.613	258.768	-36.333	-22.037	-46.127	53.304	263.810	0.00024201	0.00047052	0.00013511	979.92	6.6388e-06	3.2976e-06	879.74	393.15	4.5767e-06	5.3143e-06	395.99	149.68	125.33	63.898	4.3512e-06	75.386	0.0005414	0.00055121	0.00015775	915.61	6.2569e-06	6.4061e-06	820.67	366.5	5.9372e-06	6.2814e-06	370.82	140.84	118.61	60.294	6.239e-06	70.835	129.952	22.869	5.718	-46.158	78.195	137.683	-47.033	-41.134	84.326	98.503	-42.981	-40.095	-35.509	-33.116	68.098	-35.932	-8191	255	
1717.119	1	1	0	0	0.32502	0.28061	0.21168	0.096474	0.19159	0.1441	0.21105	0.087624	0.17291	0.21622	0.069642	0.38723	0.26874	0.23243	0.20529	0.22682	-0.45	0.11667	0.070833	-0.78542	0.30833	-0.68542	-0.525	0.15417	-0.69375	-0.058333	-0.12708	-0.71875	0.14375	-0.74792	-0.44167	0.020833	-31.020	287.220	292.552	-13.294	104.880	294.121	220.166	251.987	253.556	138.206	259.955	277.196	-11.432	-56.148	261.252	151.068	0.00024447	0.00060028	0.00018666	985.47	6.3388e-06	5.7032e-06	875.14	388.95	3.7211e-06	5.8738e-06	396.56	150.35	125.49	64.461	6.7886e-06	76.354	0.00054185	0.00056624	0.00016078	916.3	6.1241e-06	6.129e-06	818.04	365.29	6.0978e-06	6.2998e-06	371.01	141.52	119.12	60.85	6.4108e-06	72.172	123.740	49.398	44.037	-46.148	78.678	99.859	-47.146	-40.933	76.858	95.655	-43.096	-39.931	-35.561	-32.949	70.337	-35.703	-8191	255	
1717.213	1	1	0	0	0.045628	0.071411	0.32317	0.16465	0.24283	0.088965	0.14004	0.14617	0.22723	0.17378	0.28149	0.25411	0.25693	0.12263	0.19783	0.16494	-0.28958	-0.1125	-0.0875	-0.9875	0.035417	-0.48333	-0.58333	0.1125	-0.57917	-0.11667	0.13333	-0.82708	0.0125	-0.17708	-0.71875	0.1125	131.619	152.390	146.608	-26.129	-36.100	289.934	224.203	126.777	240.142	85.382	250.782	-43.423	-45.346	194.444	68.081	242.586	0.00028063	0.00042512	0.00015595	982.09	5.5522e-06	5.5887e-06	881.27	396.49	3.9749e-06	8.1556e-06	404.36	152.66	127.27	65.669	3.2738e-06	78.126	0.00056097	0.00057986	0.00015963	917.37	6.0995e-06	6.3949e-06	825.81	369.95	6.0769e-06	6.2036e-06	377.19	144.34	120.84	61.965	6.3966e-06	73.681	122.668	39.525	5.619	-46.131	78.312	95.664	-46.496	-41.472	97.562	62.263	-43.126	-39.645	-35.638	-33.095	91.370	-35.736	-8191	255	
1717.310	1	1	0	0	0.13779	0.2491	0.061809	0.20384	0.12302	0.15465	0.10388	0.12793	0.08542	0.08269	0.19533	0.16292	0.078646	0.21945	0.26415	0.19911	-0.21458	-0.28958	0.20625	-0.93333	0.1125	-0.36875	-0.81667	0.17708	-0.49792	-0.3875	0.1625	-0.86042	-0.072917	-0.13542	-0.71458	0.15417	59.000	29.935	262.454	144.962	259.537	173.322	266.025	53.858	226.430	227.432	300.409	-1.531	296.788	-27.629	160.482	209.641	0.00028671	0.00068245	0.00014887	992.87	4.2403e-06	6.4111e-06	895.49	397.93	4.2488e-06	4.4528e-06	407.61	154.44	127.44	65.55	5.8325e-06	78.095	0.0005732	0.00057445	0.00016675	923.83	6.3216e-06	6.3692e-06	834.9	371.63	6.4143e-06	6.4843e-06	381.58	146.17	121.3	61.932	6.4723e-06	73.376	124.363	27.113	37.794	-46.087	77.728	82.455	-46.862	-41.267	75.609	77.576	-43.145	-39.539	-35.618	-32.813	99.476	-35.915	-8191	255	
1717.430	1	1	0	0	0.15843	0.2305	0.031119	0.017711	0.14778	0.090303	0.17255	0.14426	0.46863	0.1824	0.1427	0.24313	0.46201	0.25266	0.21283	0.28159	-0.21875	-0.25208	0.15208	-0.72917	0.0375	-0.18125	-0.80417	0.19167	-0.46875	-0.375	0.25417	-0.80208	-0.10417	-0.21458	-0.87917	-0.025	105.941	-23.531	-52.537	-56.159	299.405	68.034	-53.011	221.361	156.705	-38.238	213.219	228.256	282.563	231.478	66.006	264.012	0.00028667	0.00079935	0.00018378	996.35	6.4771e-06	8.6088e-06	892.53	398.34	5.9801e-06	6.6029e-06	404.62	154.54	127.9	65.829	4.3578e-06	77.377	0.00056528	0.00058313	0.00016633	928.32	6.3518e-06	6.387e-06	834.35	371.79	6.2734e-06	6.3944e-06	379.5	145.32	121.29	61.985	6.4861e-06	72.933	125.027	27.949	27.893	-46.173	95.209	91.201	-46.899	-41.237	101.049	84.447	-43.147	-39.557	-35.715	-32.981	57.916	-35.894	-8191	255	
1717.526	1	1	0	0	0.31022	0.059801	0.26133	0.23381	0.085348	0.30877	0.2164	0.20907	0.047048	0.082698	0.25071	0.27439	0.25506	0.33632	0.20493	0.17156	-0.10417	-0.30625	0.41458	-0.84583	-0.15417	0.09375	-0.78542	-0.0041667	-0.17917	-0.74583	0.3	-0.56458	-0.25208	-0.16667	-0.7	-0.14375	82.616	258.308	181.589	251.189	14.812	228.453	291.127	242.874	-38.251	24.427	281.278	251.714	253.158	274.444	294.823	265.081	0.00026893	0.00060261	0.00015066	992.91	4.4129e-06	5.6094e-06	888.53	395.64	6.2003e-06	4.5654e-06	403.5	153.55	128.11	65.304	3.9203e-06	76.965	0.00056214	0.00057361	0.00016559	926.45	6.082e-06	6.5053e-06	831.88	370.13	6.3401e-06	6.2875e-06	377.99	144.64	120.93	61.708	6.3987e-06	72.793	120.371	24.010	6.286	-45.830	102.150	78.128	-47.027	-41.251	74.791	83.397	-43.035	-39.709	-35.542	-32.836	81.303	-35.634	-8191	255	
1717.623	1	1	0	0	0.060911	0.2645	0.064595	0.077156	0.082132	0.26876	0.37646	0.18724	0.076678	0.33484	0.30781	0.2061	0.10953	0.2517	0.11809	0.19371	0.275	-0.725	0.1625	-0.41458	-0.26458	0.18125	-0.8125	-0.13542	-0.13125	-0.825	0.054167	-0.61458	-0.4375	-0.060417	-0.74583	-0.14583	65.661	-32.003	215.582	261.529	200.381	163.200	277.330	246.766	241.340	-46.747	244.374	274.760	184.130	-30.369	-41.246	-19.643	0.00033244	0.00062681	0.00016543	992.37	3.872e-06	9.0033e-06	894.63	398.35	4.004e-06	6.3632e-06	409.14	154.17	127.81	65.436	2.2195e-06	77.638	0.00058504	0.00058419	0.00016557	924.83	6.1227e-06	6.3813e-06	834.06	371.35	6.3744e-06	6.2965e-06	380.79	145.13	121.04	61.794	6.392e-06	73.112	123.967	22.881	34.597	-46.217	93.903	79.060	-46.819	-41.321	104.163	98.788	-43.117	-39.726	-35.707	-33.034	221.745	-35.643	-8191	255	
1717.694	1	1	0	0	0.19732	0.16283	0.20875	0.21635	0.21135	0.31917	0.16858	0.14963	0.17988	0.19145	0.35361	0.2735	0.27608	0.22521	0.12215	0.51232	0.15417	-0.52708	0.27708	-0.37292	-0.3875	0.15833	-0.77292	-0.08125	0.16667	-0.69583	0.24583	-0.48542	-0.55	0.0875	-0.67083	-0.51667	271.321	70.485	9.212	294.427	247.076	174.799	293.743	-46.241	239.824	255.180	218.159	296.351	287.786	-37.846	-45.973	199.350	0.0002811	0.00069966	0.00020106	999.46	5.615e-06	7.3893e-06	892.86	397.29	4.8699e-06	5.8871e-06	408.16	155.03	128.33	65.625	4.4246e-06	78.028	0.00056466	0.00056665	0.00016255	928.57	6.0814e-06	6.4051e-06	836.59	371.98	6.2808e-06	6.1937e-06	380.87	145.76	121.12	61.805	6.4483e-06	73.339	116.800	27.985	41.243	-45.860	100.264	99.130	-46.713	-41.485	72.757	111.255	-42.958	-39.765	-35.612	-33.061	102.057	-35.910	-8191	255	
1717.790	1	1	0	0	0.1909	0.016369	0.099386	0.27078	0.12918	0.16519	0.32491	0.11959	0.20199	0.23359	0.28264	0.15028	0.21346	0.29598	0.08854	0.33424	0.44792	-0.875	0.18958	-0.41667	-0.62292	0.13333	-0.93333	-0.37917	0.23958	-0.56875	-0.2625	-0.19583	-0.80208	0.21667	-0.49375	-0.38542	181.658	135.327	229.915	242.563	159.731	268.445	214.244	259.591	216.343	23.291	233.636	246.190	123.915	283.441	-3.776	198.723	0.00024301	0.00065686	0.00016345	999.56	2.1055e-06	6.0337e-06	898.05	397.08	2.6349e-06	7.2783e-06	407.93	154.85	127.41	65.511	6.2583e-06	77.826	0.00057237	0.00058468	0.00016196	928.17	6.1029e-06	6.3306e-06	837.37	371.2	6.3839e-06	6.3184e-06	379.99	145.59	121.23	61.837	6.552e-06	73.604	121.387	13.644	22.322	-45.855	76.334	86.727	-46.710	-41.553	86.870	86.250	-43.131	-39.875	-35.798	-33.086	104.845	-35.815	-8191	255	
1717.909	1	1	0	0	0.066707	0.042127	0.059663	0.10932	0.1702	0.26929	0.20897	0.4382	0.038082	0.022619	0.31798	0.31838	0.18046	0.43762	0.022771	0.21201	0.55	-0.77083	0.054167	-0.17292	-0.31667	0.25625	-0.53333	-0.46458	0.33333	-0.90417	-0.16875	-0.022917	-0.89167	0.21042	-0.40625	-0.64583	140.209	-35.317	282.533	134.884	-10.069	0.428	46.000	203.176	169.406	48.350	203.151	-14.107	132.373	-20.373	-56.713	219.262	0.00029324	0.00077418	0.00018403	999.79	6.9141e-06	9.4747e-06	900.65	396.44	5.0572e-06	9.5346e-06	410.97	156.49	129.55	67.091	7.0118e-06	80.116	0.00057359	0.00058253	0.00016	927.71	6.0461e-06	6.3197e-06	839.12	372.83	6.4548e-06	6.481e-06	383.84	148.01	122.87	63.156	6.5321e-06	75.403	117.749	30.498	11.338	-45.765	84.782	99.172	-46.731	-41.320	88.914	91.066	-43.117	-39.777	-35.588	-32.972	89.871	-35.660	-8191	255	
1718.005	1	1	0	0	0.19529	0.18597	0.067614	0.22514	0.18943	0.23964	0.16913	0.18157	0.071022	0.041001	0.53001	0.1496	0.24202	0.24536	0.050709	0.36865	0.56667	-0.50833	-0.045833	-0.14792	-0.7375	0.10417	-0.41875	-0.68125	0.26458	-0.61667	-0.175	-0.15	-0.78958	0	-0.25417	-0.69167	202.739	249.234	215.862	-56.881	-59.155	204.267	276.335	245.892	-25.904	94.708	233.041	288.618	208.581	227.691	267.687	-52.015	0.00027273	0.00071181	0.00015301	1001	4.2396e-06	5.8464e-06	905.47	403.29	5.0433e-06	6.2292e-06	415.37	160.24	131.48	68.327	5.1738e-06	81.817	0.0005912	0.00057799	0.00016734	930.45	6.2286e-06	6.3798e-06	846.47	376.54	6.4168e-06	6.4215e-06	389.87	151.06	124.66	64.337	6.6805e-06	77.147	118.555	45.115	25.263	-46.086	76.686	74.153	-47.000	-41.494	107.891	85.654	-43.361	-39.759	-35.449	-33.071	109.023	-36.040	-8191	255	
1718.102	1	1	0	0	0.20719	0.20542	0.072975	0.15643	0.15574	0.2163	0.30354	0.34398	0.19118	0.27036	0.17304	0.10539	0.1272	0.2131	0.24106	0.17311	0.48958	-0.34792	-0.28542	0.045833	-0.73125	-0.00625	-0.30417	-0.75417	0.41875	-0.70833	-0.32708	-0.10625	-0.85625	-0.19167	0.035417	-0.7875	148.841	186.314	204.816	-55.083	56.095	165.354	271.786	284.750	285.890	231.956	200.010	261.955	211.381	291.367	-42.359	281.643	0.00026313	0.0007363	0.0001888	1003	6.6148e-06	4.1272e-06	914.48	403.76	6.6596e-07	4.6698e-06	420.72	159.68	131.88	67.817	6.3987e-06	81.55	0.00059229	0.00059612	0.00016795	934.81	6.3656e-06	6.4893e-06	853.86	377.77	6.5439e-06	6.4861e-06	392.38	151.23	124.51	63.984	6.5401e-06	76.635	107.334	18.686	29.079	-45.744	105.520	112.885	-46.560	-41.228	86.703	90.542	-43.126	-39.598	-35.452	-33.285	109.671	-35.945	-8191	255	
1718.199	1	1	0	0	0.099957	0.27172	0.056563	0.11756	0.10749	0.16155	0.11017	0.047251	0.12377	0.072961	0.20779	0.20946	0.10087	0.18653	0.061392	0.19139	0.45417	-0.57708	-0.31458	0.2625	-0.65625	-0.15833	-0.17083	-0.98125	0.32083	-0.575	-0.77292	0.35208	-0.75625	-0.047917	-0.16667	-0.94167	41.961	285.076	27.045	-10.282	9.261	72.578	245.096	18.402	71.089	22.762	-12.054	223.562	266.760	290.123	-10.266	177.347	0.00028127	0.00057457	0.00017725	1005.5	4.4823e-06	1.0352e-05	911.44	403.4	3.7147e-06	8.2355e-06	414.38	159.06	130.7	66.984	3.6372e-06	80.614	0.00058117	0.00061341	0.00016563	936.12	6.2752e-06	6.6707e-06	848.79	376.93	6.3879e-06	6.5435e-06	387.54	149.82	123.7	63.399	6.4677e-06	75.845	107.015	14.476	4.310	-45.920	81.483	88.062	-46.533	-41.215	75.000	92.882	-43.099	-39.621	-35.296	-32.934	109.698	-35.853	-8191	255	
1718.294	1	1	0	0	0.039653	0.1688	0.16512	0.22178	0.19282	0.19062	0.25151	0.35001	0.10956	0.19092	0.090115	0.25781	0.068212	0.20813	0.18287	0.057457	0.56875	-0.26042	-0.64167	0.2125	-0.54792	-0.4125	0.05625	-0.925	0.17083	-0.16667	-0.60625	0.23333	-0.66667	-0.28125	0.22083	-1.0312	180.770	9.693	87.391	248.810	7.270	17.607	156.759	-30.506	281.698	278.994	188.966	-39.891	92.252	-3.928	125.466	87.043	0.00020763	0.00045992	0.00011894	997.4	5.2753e-06	4.4002e-06	906.08	402.96	3.7141e-06	3.8757e-06	415.51	158.5	130.78	66.863	3.0435e-06	80.518	0.00058376	0.00059729	0.00016115	932.82	6.1803e-06	6.3526e-06	846.69	376.58	6.4559e-06	6.3764e-06	388.18	149.87	123.6	63.309	6.5534e-06	75.976	123.794	20.031	36.399	-45.512	92.588	71.215	-46.987	-41.387	68.016	64.531	-42.880	-39.477	-35.696	-33.024	86.136	-35.476	-8191	255	
1718.390	1	1	0	0	0.24135	0.39969	0.072476	0.22596	0.1787	0.14954	0.19877	0.19084	0.31922	0.27157	0.03627	0.1688	0.17277	0.26753	0.042156	0.13059	0.48542	-0.23125	-0.70833	0.14583	-0.43958	-0.34167	0.0875	-0.65208	-0.12917	-0.0083333	-0.72917	-0.03125	-0.63125	-0.66458	0.25417	-0.99583	90.022	227.373	200.453	268.871	-45.983	166.433	-33.155	217.910	9.085	168.054	165.306	190.221	244.559	252.091	108.543	210.285	0.00024444	0.00056526	0.00018591	1001.4	3.5676e-06	4.5692e-06	908.1	402.95	4.0215e-06	4.4859e-06	418.63	159.65	130.6	67.715	4.4853e-06	81.473	0.00056993	0.0005797	0.00015723	932.62	6.2309e-06	6.375e-06	848.69	376.95	6.466e-06	6.5811e-06	390.4	150.35	123.83	63.696	6.5803e-06	76.536	110.185	49.746	34.566	-46.056	112.085	68.331	-46.487	-41.256	66.731	80.836	-43.228	-39.709	-35.430	-33.126	67.758	-35.601	-8191	255	
1718.511	1	1	0	0	0.12364	0.29763	0.092	0.25626	0.16748	0.2188	0.069258	0.17053	0.055499	0.049243	0.31787	0.19637	0.13376	0.32533	0.11886	0.35151	0.097917	0.016667	-0.83542	0.18542	-0.66458	-0.27292	-0.09375	-0.82708	-0.20208	-0.14167	-0.79167	0.0625	-0.50208	-0.7875	0.25417	-1.0438	-39.544	-41.994	147.034	223.868	204.076	254.052	-37.280	203.478	128.732	3.871	237.597	-7.504	180.269	235.885	107.429	249.090	0.0002757	0.00061929	0.00011685	1004.2	5.221e-06	7.3365e-06	912.85	401.75	2.2915e-06	9.0244e-06	417.66	160.93	131.19	67.731	7.0597e-06	81.595	0.00058793	0.00059367	0.00016856	934.37	6.0924e-06	6.3958e-06	854	377.05	6.2147e-06	6.5925e-06	391.91	151.43	124.05	63.788	6.5479e-06	76.809	110.355	30.003	52.934	-45.951	88.645	68.736	-46.773	-41.278	92.596	92.475	-43.033	-39.694	-35.529	-33.286	92.453	-35.762	-8191	255	
1718.607	1	1	0	0	0.21448	0.19583	0.17663	0.26731	0.19853	0.15026	0.17305	0.40925	0.059684	0.20544	0.20574	0.16469	0.12249	0.29269	0.16993	0.24363	0.18125	0.0375	-0.83125	-0.091667	-0.43542	-0.63125	0.058333	-0.80625	-0.25417	0.25833	-0.77708	-0.083333	-0.275	-0.69583	0.0875	-0.62083	164.779	-26.304	13.081	238.794	266.238	167.940	-51.118	280.795	227.092	93.523	-41.711	152.271	70.752	278.047	38.871	234.301	0.00024577	0.0005474	0.0002041	1007.3	4.5729e-06	7.9297e-06	913.24	404.83	4.2233e-06	7.8959e-06	420	160.72	131.78	68.601	7.0956e-06	83.175	0.0005971	0.00059196	0.00016517	936.23	6.3574e-06	6.4836e-06	853.07	378.86	6.588e-06	6.3737e-06	394	152.3	125	64.758	6.6441e-06	78.174	104.745	16.445	18.274	-46.048	99.923	96.079	-46.200	-41.345	49.054	85.001	-43.356	-39.806	-35.939	-33.298	109.165	-35.759	-8191	255	
1718.703	1	1	0	0	0.28862	0.24361	0.045534	0.14938	0.12148	0.050292	0.39612	0.13242	0.30783	0.13962	0.28708	0.20325	0.22116	0.051756	0.027471	0.12825	0.027083	0.01875	-0.87917	-0.175	-0.16458	-0.58542	0.26667	-0.76458	-0.45625	0.054167	-0.92708	0.020833	-0.31667	-0.85417	0.0875	-0.68542	177.286	178.517	168.879	188.300	84.173	243.495	244.402	212.659	188.697	260.829	292.320	-44.440	245.102	195.908	188.111	218.052	0.0002454	0.00072461	0.00021476	1004.9	5.0123e-06	6.0651e-06	911.73	409.18	2.5313e-06	4.7958e-06	424.18	164.92	133.02	69.387	6.1997e-06	83.62	0.00059847	0.00060202	0.00016327	935.63	6.3108e-06	6.5292e-06	855.85	382.43	6.5883e-06	6.5666e-06	398.5	155.22	126.21	65.463	6.6066e-06	78.972	118.226	20.167	31.398	-46.177	89.268	101.424	-46.566	-41.284	152.454	74.505	-43.067	-39.733	-35.479	-33.233	82.091	-35.876	-8191	255	
1718.799	1	1	0	0	0.076772	0.018341	0.13275	0.30837	0.11195	0.1339	0.097189	0.19341	0.11487	0.1671	0.41313	0.17644	0.19549	0.34526	0.092092	0.12546	-0.14792	0.23958	-0.68542	-0.25208	0	-0.70833	0.025	-0.67917	-0.60417	0.060417	-0.82292	-0.37917	-0.097917	-0.95417	0.11875	-0.56458	248.382	11.825	-19.747	-38.586	143.090	140.953	233.393	260.971	148.744	-27.093	200.971	-10.028	279.849	-52.025	130.589	274.730	0.00033944	0.00062945	0.00019665	1006.5	4.2871e-06	8.0966e-06	920.04	406.31	9.5526e-07	6.1004e-06	424.97	162.45	131.98	68.491	5.023e-06	83.156	0.00060351	0.0006164	0.00016651	938.02	6.4461e-06	6.4797e-06	858.41	380.44	6.3454e-06	6.5177e-06	397.7	153.75	125.32	64.817	6.6588e-06	78.3	127.030	20.656	52.421	-45.929	87.510	86.133	-46.757	-41.318	77.420	71.440	-43.061	-39.867	-35.713	-33.066	72.443	-35.887	-8191	255	
1718.920	1	1	0	0	0.30589	0.050818	0.11592	0.070407	0.10323	0.13895	0.28261	0.27098	0.089677	0.31455	0.27506	0.18958	0.34647	0.12722	0.33426	0.19179	-0.175	0.1625	-0.56458	-0.4875	0.32917	-0.82083	-0.027083	-0.44583	-0.68542	0.28125	-0.76667	-0.61667	-0.091667	-0.90833	-0.225	-0.36875	262.449	-44.058	115.658	173.937	-1.505	201.818	245.474	241.072	6.679	-54.415	273.563	233.457	238.665	262.350	99.135	170.460	0.00026937	0.00085436	0.00018773	1007.8	3.6757e-06	5.9228e-06	918.92	404.45	6.1439e-06	6.0748e-06	422.86	161.6	129.83	67.128	4.9429e-06	80.803	0.00058361	0.00061298	0.00016592	938.31	6.4642e-06	6.521e-06	859.09	379.28	6.4019e-06	6.5901e-06	394.69	151.82	123.31	63.345	6.6562e-06	76.143	123.871	26.247	51.291	-45.723	80.602	91.049	-46.684	-41.093	104.203	80.263	-43.099	-39.783	-35.769	-33.087	83.419	-35.784	-8191	255	
1718.991	1	1	0	0	0.053758	0.16653	0.22582	0.11724	0.10471	0.28307	0.035147	0.30994	0.20961	0.16783	0.13457	0.099482	0.20684	0.35237	0.085702	0.14128	-0.35208	0.29583	-0.4625	-0.46458	0.079167	-0.6625	-0.25417	-0.066667	-0.76458	0.15208	-0.6875	-0.49167	0.18125	-0.875	-0.064583	-0.18333	-18.557	3.866	-6.495	-52.329	236.303	159.239	256.797	-51.172	259.314	168.876	201.580	131.025	249.393	270.128	199.243	203.536	0.00029809	0.00040963	0.00019738	1003.4	6.7189e-06	8.1907e-06	908.68	399.86	1.8616e-06	8.3332e-06	416.26	157.54	128.59	65.804	5.9319e-06	78.935	0.00058256	0.00059177	0.0001654	934.06	6.3741e-06	6.4652e-06	849.04	374.02	6.468e-06	6.23e-06	388.24	148.88	121.51	62.264	6.3536e-06	74.665	116.477	26.234	27.539	-46.221	81.716	97.977	-46.667	-41.021	122.496	73.338	-43.183	-39.744	-35.660	-33.048	77.182	-36.197	-8191	255	
1719.086	1	1	0	0	0.24206	0.088355	0.10963	0.28265	0.20019	0.29686	0.12305	0.19291	0.25162	0.08675	0.067541	0.20302	0.29377	0.18461	0.13279	0.23706	-0.35	0.016667	-0.28125	-0.6625	0.21875	-0.63125	-0.25208	0.11458	-0.81667	0.03125	-0.48542	-0.70625	0.125	-0.66875	-0.27917	0.01875	154.903	207.934	183.618	151.531	-54.557	-27.915	267.879	249.940	123.702	9.141	299.261	43.530	290.116	294.805	57.444	-47.845	0.00027346	0.00071119	0.0002236	995.91	6.9463e-06	7.6603e-06	909.62	396.72	4.8652e-06	5.599e-06	412.62	156.73	127.13	65.766	4.9374e-06	79.548	0.00057526	0.00060238	0.00016533	928.36	6.1331e-06	6.3234e-06	846.97	371.05	6.2223e-06	6.4245e-06	386.09	148.03	120.8	61.868	6.5913e-06	74.566	124.306	45.758	24.846	-45.923	91.230	60.793	-46.831	-41.140	91.898	74.212	-43.163	-39.789	-35.301	-32.908	127.702	-35.773	-8191	255	
1719.206	1	1	0	0	0.23936	0.12069	0.042205	0.16787	0.3299	0.1316	0.06794	0.16428	0.16615	0.012151	0.050189	0.050296	0.24585	0.18555	0.3742	0.21202	-0.3	-0.025	-0.35833	-0.78542	0.20417	-0.725	-0.5	0.027083	-0.76875	0.10625	-0.4375	-0.79583	0.19583	-0.59792	-0.30208	-0.072917	276.688	-18.707	145.609	276.227	-40.008	214.089	290.817	-26.453	273.899	-30.124	-51.409	85.583	3.316	227.274	210.450	249.490	0.00025372	0.00039952	0.00018261	993.81	6.3126e-06	8.1399e-06	909.73	398.6	4.0378e-06	6.0714e-06	412.82	157.23	127.64	65.202	2.9054e-06	79.027	0.00056547	0.00059726	0.00016594	925.94	6.273e-06	6.3016e-06	845.9	372.17	6.4129e-06	6.3521e-06	386.66	148.39	121.02	61.697	6.4905e-06	74.517	119.535	57.500	22.416	-46.293	93.911	82.996	-47.028	-41.383	108.505	58.318	-43.013	-39.751	-35.745	-33.093	52.924	-35.715	-8191	255	
1719.303	1	1	0	0	0.22387	0.17798	0.11872	0.21053	0.11756	0.077528	0.14483	0.37016	0.15859	0.1044	0.3452	0.1173	0.23507	0.108	0.095698	0.043875	-0.35417	-0.20417	0.12708	-0.9375	0.125	-0.44167	-0.67292	0.12083	-0.5875	-0.175	-0.15625	-1.0333	0.022917	-0.5625	-0.53125	0.19792	145.515	264.807	262.123	6.793	199.944	107.522	-38.462	246.530	254.985	139.663	250.484	149.048	292.488	281.718	159.012	50.888	0.00025794	0.00052074	0.00020376	995.84	5.2918e-06	4.0987e-06	905.03	396.05	5.0614e-06	4.5246e-06	413.14	155.86	126.35	64.859	3.3125e-06	78.109	0.00056572	0.00059898	0.00016419	926.93	6.3235e-06	6.2742e-06	846.51	370.42	6.3024e-06	6.2589e-06	385.56	147	119.54	61.092	6.2534e-06	73.482	119.704	24.196	42.621	-46.276	105.020	72.343	-46.906	-41.021	59.990	90.355	-43.104	-39.721	-35.606	-33.094	92.771	-35.921	-8191	255	
1719.399	1	1	0	0	0.047395	0.23807	0.18139	0.054035	0.06391	0.12498	0.11301	0.15546	0.15449	0.19826	0.20449	0.2875	0.048793	0.15114	0.40258	0.175	-0.45417	-0.19375	-0.0083333	-0.9625	0.0875	-0.39583	-0.72917	0.20625	-0.45625	-0.30208	-0.022917	-0.93542	0.0020833	-0.36458	-0.69792	0.15833	36.729	83.130	238.701	285.712	186.458	85.329	240.684	227.231	43.409	-19.401	275.240	222.546	92.615	-49.571	222.465	280.618	0.00026865	0.0004822	0.0001347	985.5	3.1341e-06	6.7522e-06	899.14	393.82	3.4394e-06	5.6131e-06	409.67	154.21	125.22	64.486	5.24e-06	78.149	0.00056431	0.00057032	0.00015921	918.73	6.1162e-06	6.1858e-06	838.5	367.4	6.224e-06	6.3298e-06	382.01	145.84	118.87	60.92	6.3741e-06	73.546	128.166	49.093	40.704	-45.939	70.879	89.568	-46.999	-41.310	43.427	84.062	-43.093	-39.856	-35.601	-33.135	95.573	-35.894	-8191	255	
1719.495	1	1	0	0	0.09448	0.31474	0.12275	0.19445	0.069353	0.096323	0.061024	0.38047	0.20738	0.24793	0.15999	0.32317	0.1075	0.16742	0.073904	0.21464	-0.10417	-0.23542	0.13125	-0.88125	-0.1875	-0.16458	-1.0354	-0.19792	-0.4875	-0.6	0.064583	-0.75625	-0.079167	-0.17292	-0.71875	-0.08125	-34.553	-43.549	130.598	287.781	72.788	148.673	111.050	250.580	299.498	219.103	17.449	178.632	232.930	-59.021	107.509	-46.692	0.0002347	0.00046302	0.00024299	987.19	6.5229e-06	7.0784e-06	898.35	394.52	6.6654e-06	6.6759e-06	413.03	156.63	126.96	65.869	3.8916e-06	79.664	0.00057326	0.00057839	0.00015962	920.26	6.2574e-06	6.423e-06	839.61	368.23	6.367e-06	6.2126e-06	385.84	148.28	120.38	61.995	6.3961e-06	74.803	106.053	14.332	17.807	-46.064	87.137	80.399	-46.862	-41.368	62.388	99.159	-42.935	-39.654	-35.930	-33.198	79.920	-36.284	-8191	255	
1719.591	1	1	0	0	0.26252	0.18649	0.25562	0.27077	0.13499	0.11342	0.25188	0.22753	0.069376	0.33493	0.18185	0.0067439	0.11838	0.37089	0.23975	0.23715	-0.22917	-0.6125	0.072917	-0.97292	-0.31458	0.085417	-0.93125	0.0083333	-0.44583	-0.6375	0.064583	-0.87083	-0.41042	-0.025	-0.77917	-0.054167	43.481	76.035	298.943	250.103	150.209	276.896	257.327	256.404	211.707	44.041	270.799	210.636	20.034	287.897	235.323	201.647	0.00026994	0.000763	0.00023829	986.36	3.8877e-06	8.5721e-06	909.39	396.27	4.0065e-06	3.8991e-06	416.9	159.59	128.54	66.578	5.6841e-06	81.199	0.00058956	0.00057627	0.00016977	921.96	6.2156e-06	6.5968e-06	849.04	370.59	6.5995e-06	6.4146e-06	390.63	150.79	121.96	62.936	6.4651e-06	76.665	121.552	38.528	27.210	-46.014	81.795	72.753	-46.713	-41.195	89.680	99.105	-43.447	-39.660	-35.431	-33.238	98.298	-35.868	-8191	255	
1719.687	1	1	0	0	0.088178	0.049583	0.066635	0.29865	0.029185	0.13963	0.2515	0.11357	0.1808	0.098285	0.27908	0.46002	0.17101	0.11613	0.27061	0.078395	-0.01875	-0.71458	0.18958	-0.60208	-0.37083	0.041667	-1.0333	-0.17917	-0.43125	-0.77917	0.035417	-0.6375	-0.68333	-0.045833	-0.67708	-0.23333	11.492	160.771	262.983	222.204	42.502	266.759	222.790	234.357	206.976	248.526	37.305	240.211	283.660	259.785	33.273	148.764	0.00028358	0.00062029	0.00014962	1000.9	4.2409e-06	7.9703e-06	915.74	397.81	5.0064e-06	4.8841e-06	421.21	160.39	128.78	66.134	6.7564e-06	80.558	0.00059681	0.00059585	0.00016245	930.81	6.3054e-06	6.5581e-06	856.58	372.61	6.4058e-06	6.5032e-06	393.47	151.06	122.12	62.503	6.3299e-06	75.79	116.267	30.517	51.136	-45.957	97.786	85.414	-46.502	-41.463	77.056	62.867	-43.193	-39.550	-36.087	-32.971	65.933	-35.798	-8191	255	
1719.783	1	1	0	0	0.21711	0.077438	0.041353	0.30236	0.33613	0.1541	0.2048	0.24861	0.27573	0.22876	0.17788	0.093023	0.19053	0.22635	0.22572	0.1489	0.15208	-0.75417	0.17292	-0.80833	-0.53125	0.15625	-0.85625	-0.25625	-0.23333	-0.73958	-0.077083	-0.7125	-0.43125	0.10625	-0.77083	-0.12083	275.016	75.018	166.294	139.929	222.296	180.731	285.198	241.728	-45.745	238.069	148.359	283.939	101.304	244.689	128.103	121.039	0.00027264	0.00049675	0.00015373	999.86	4.0585e-06	9.9169e-06	912.44	396.28	2.0281e-06	8.8335e-06	412.6	157.92	126.79	65.375	3.8058e-06	79.665	0.00058671	0.00060129	0.00016399	927.49	6.1195e-06	6.502e-06	850.86	369.82	6.2771e-06	6.4461e-06	387.8	149.03	120.53	61.795	6.5531e-06	74.985	119.429	22.351	26.496	-46.181	85.653	110.255	-47.012	-41.408	42.047	96.615	-43.196	-39.523	-35.203	-33.046	69.071	-35.959	-8191	255	
1719.879	1	1	0	0	0.10272	0.098083	0.23266	0.28269	0.092413	0.070359	0.20005	0.25186	0.11585	0.29402	0.27613	0.32566	0.068104	0.34408	0.29177	0.16186	0.29583	-0.76458	0.064583	-0.49583	-0.62083	0.30208	-0.8	-0.35	0.010417	-0.79792	0.027083	-0.53333	-0.60833	0.095833	-0.57708	-0.48958	210.001	115.122	172.082	1.458	-56.606	-38.366	267.487	244.213	151.928	282.634	247.116	128.254	186.201	275.153	-21.767	239.196	0.00026709	0.00043948	0.00021576	990.87	4.5291e-06	8.8175e-06	912.57	393.98	5.558e-06	6.8799e-06	415.4	158.86	128.03	65.561	4.4861e-06	79.541	0.00056586	0.00057108	0.00016736	923.31	6.2235e-06	6.2609e-06	849.3	368.65	6.2481e-06	6.3758e-06	388.19	149.63	120.91	61.948	6.5133e-06	75.029	121.629	55.121	4.789	-45.896	68.574	121.206	-46.933	-41.437	61.526	118.342	-43.139	-39.461	-35.848	-33.210	66.233	-36.005	-8191	255	
1719.998	1	1	0	0	0.094687	0.31867	0.16745	0.13811	0.22628	0.2525	0.35678	0.18803	0.16803	0.18738	0.16947	0.25617	0.19125	0.13098	0.098701	0.22663	0.36042	-0.7875	-0.060417	-0.26875	-0.99167	0.15	-0.77292	-0.49583	0.15	-0.675	-0.054167	-0.16667	-0.8	0.041667	-0.49375	-0.51042	153.465	-57.966	170.004	225.068	291.089	215.834	-36.603	-25.979	-41.464	149.202	-26.607	275.577	262.541	289.275	52.795	155.653	0.00020825	0.00048493	0.00019531	992.75	5.2874e-06	7.5587e-06	915.24	395.48	4.1477e-06	5.5565e-06	415.85	158.97	127.28	65.549	5.2127e-06	80.374	0.00057553	0.00057307	0.00016085	924.28	5.9192e-06	6.3439e-06	852.57	370.18	6.2293e-06	6.2117e-06	389.53	150.06	121.14	61.968	6.3536e-06	75.532	119.635	0.963	34.091	-45.873	133.778	68.925	-46.710	-41.269	100.481	83.488	-43.137	-39.673	-35.658	-33.050	71.428	-35.829	-8191	255	
1720.094	1	1	0	0	0.13718	0.078985	0.40203	0.39769	0.10849	0.12378	0.16718	0.35063	0.13084	0.36627	0.15325	0.20021	0.22455	0.28288	0.071986	0.32444	0.53542	-0.63333	0.041667	-0.21458	-0.62708	-0.075	-0.58125	-0.775	0.26667	-0.74583	-0.40208	-0.20417	-0.82292	-0.072917	-0.32917	-0.75208	119.937	114.812	81.634	-36.051	195.156	171.646	236.695	200.683	222.800	230.850	297.752	-37.036	298.565	221.179	263.940	236.097	0.00025463	0.00072165	0.00017348	1001.7	3.9065e-06	7.1013e-06	920.23	396.17	5.5524e-06	5.2201e-06	416.21	159.38	128.59	65.854	6.9867e-06	80.311	0.00059539	0.00057709	0.00016977	928.95	6.0235e-06	6.4767e-06	856.82	371.21	6.4286e-06	6.4984e-06	390.16	150.37	121.45	62.234	6.4527e-06	75.847	118.556	29.872	10.636	-46.047	105.350	113.755	-46.682	-41.210	73.904	74.965	-42.920	-39.372	-35.990	-33.428	84.804	-35.922	-8191	255	
1720.191	1	1	0	0	0.037594	0.16594	0.38153	0.089207	0.061052	0.12531	0.04287	0.28615	0.11319	0.073349	0.24248	0.14215	0.29476	0.13325	0.12915	0.11189	0.44167	-0.50833	-0.15417	-0.033333	-0.75417	0.15833	-0.36458	-0.71667	0.225	-0.44583	-0.45833	0.041667	-0.9125	-0.14583	-0.25833	-0.8375	3.408	103.405	178.542	281.957	235.614	20.777	69.202	236.948	211.538	9.367	258.560	117.067	254.606	193.958	109.337	271.517	0.00025734	0.00046203	0.00019179	1001.3	3.5806e-06	9.9041e-06	918.36	397.94	2.4222e-06	8.4532e-06	418.12	159.67	128.37	66.313	5.9082e-06	80.562	0.00058847	0.00058451	0.00016743	927.56	6.1187e-06	6.3686e-06	854.59	371.86	6.4978e-06	6.3959e-06	391.03	150.97	122.02	62.632	6.5425e-06	76.138	121.653	8.205	29.319	-45.945	95.531	64.289	-46.661	-41.231	66.113	91.843	-43.092	-39.678	-35.611	-33.179	88.352	-35.654	-8191	255	
1720.287	1	1	0	0	0.1004	0.18771	0.10928	0.32699	0.16615	0.052955	0.088925	0.12512	0.061141	0.29339	0.17468	0.29165	0.25737	0.2458	0.21238	0.24648	0.42292	-0.53542	-0.15208	0.10833	-0.75208	-0.035417	-0.43958	-0.83542	0.058333	-0.59792	-0.93125	0.070833	-0.83958	-0.425	-0.05625	-1.0333	88.411	288.593	110.173	191.947	267.624	179.725	195.848	-56.874	185.842	113.929	109.133	283.595	-43.721	-49.282	185.503	-30.116	0.00027259	0.00053239	0.00022451	992.24	4.553e-06	7.8135e-06	916.32	398.44	1.4437e-06	5.9746e-06	419.53	161.36	128.96	66.743	4.1412e-06	81.104	0.00057938	0.00059033	0.00016296	926.23	6.2156e-06	6.2274e-06	856.77	373.02	6.4983e-06	6.695e-06	393.56	152.07	122.31	62.833	6.7527e-06	76.47	112.176	9.003	54.228	-46.224	97.926	83.944	-46.843	-41.067	111.116	96.330	-43.203	-40.014	-35.726	-33.145	84.627	-35.960	-8191	255	
1720.383	1	1	0	0	0.13064	0.14832	0.23018	0.28078	0.29225	0.18294	0.029449	0.27404	0.25084	0.18356	0.13865	0.006838	0.45475	0.042715	0.12523	0.26145	0.52917	-0.28958	-0.46875	0.26875	-0.86667	-0.29792	-0.12292	-0.87917	0.24375	-0.61875	-0.51667	0.070833	-0.58125	-0.30417	0.1125	-1.0729	141.302	-20.561	29.418	276.454	220.858	55.807	80.095	209.902	170.260	100.456	187.604	190.995	-30.170	11.323	49.993	289.416	0.00023203	0.00057245	0.00010188	998.84	7.3008e-06	7.213e-06	921.13	398.53	5.5876e-06	4.1369e-06	419.93	162.31	129.59	67.004	4.7777e-06	81.373	0.00058388	0.00061562	0.00016184	929.05	6.0503e-06	6.5648e-06	862.96	373.18	6.4772e-06	6.5017e-06	394.58	152.64	122.59	63.114	6.5393e-06	76.947	124.517	42.318	12.571	-46.162	72.528	88.702	-46.585	-41.217	92.933	81.042	-43.065	-39.583	-35.514	-33.175	82.547	-35.635	-8191	255	
1720.479	1	1	0	0	0.074074	0.067711	0.13044	0.23921	0.066043	0.093416	0.20682	0.28553	0.064453	0.094871	0.11937	0.10084	0.2243	0.11389	0.080515	0.13366	0.55417	-0.22083	-0.65208	0.11875	-0.61042	-0.51458	0.11042	-1.0146	-0.020833	-0.3875	-0.75833	-0.047917	-0.44167	-0.59375	0.09375	-1.0646	214.785	-46.641	-40.189	285.333	-49.141	26.297	167.245	246.763	-13.072	175.954	242.559	254.703	252.643	269.883	89.476	117.301	0.00027013	0.00038995	0.00018071	1000.6	4.9819e-06	8.6833e-06	928.78	399.85	3.974e-06	7.9304e-06	423.35	160.86	128.42	66.461	3.5097e-06	81.106	0.00058795	0.00061268	0.00017223	930.02	6.1325e-06	6.4181e-06	864.5	374.49	6.2611e-06	6.6541e-06	395.27	151.72	122.12	62.677	6.7827e-06	76.201	122.097	24.058	38.397	-45.914	78.758	71.151	-46.500	-40.952	64.403	76.314	-43.240	-39.572	-35.890	-33.266	102.839	-35.640	-8191	255	
1720.600	1	1	0	0	0.20704	0.22337	0.12627	0.31578	0.12941	0.10069	0.20318	0.5348	0.041934	0.066237	0.24387	0.1424	0.155	0.34947	0.077496	0.16178	0.23333	-0.085417	-0.56875	0.24792	-0.44167	-0.42292	0.12083	-0.90417	-0.075	-0.17292	-0.70417	0.020833	-0.575	-0.63333	0.070833	-0.68958	271.639	294.218	40.497	-37.030	-37.314	269.534	265.999	227.821	100.450	154.932	163.523	270.401	-26.076	294.724	51.734	164.580	0.00028822	0.00058678	0.00019565	992.57	4.6252e-06	6.7749e-06	915.93	397.23	2.977e-06	5.8907e-06	418.93	160.05	129.03	66.453	5.9058e-06	80.504	0.00058471	0.00056994	0.00016211	925.12	6.1599e-06	6.4555e-06	854.83	371.56	6.4171e-06	6.5153e-06	391.77	150.55	121.96	62.577	6.6787e-06	76.073	114.432	14.678	33.461	-45.790	74.741	85.138	-46.900	-41.198	51.972	106.639	-43.024	-39.719	-35.487	-33.240	55.838	-35.843	-8191	255	
1720.696	1	1	0	0	0.20635	0.067227	0.1107	0.030135	0.19571	0.067386	0.21977	0.22931	0.069853	0.12509	0.16532	0.25222	0.1509	0.33372	0.14478	0.36116	0	0.17292	-0.825	0.047917	-0.30208	-0.52083	0.16875	-0.75833	-0.11875	0.125	-0.88125	-0.095833	-0.37083	-0.78958	-0.05625	-0.84375	16.957	137.740	-2.392	0.186	79.038	-25.269	173.476	277.037	92.933	272.141	84.111	282.571	240.958	276.401	98.189	239.874	0.00031378	0.00082179	0.00021247	996.4	4.6115e-06	4.5084e-06	919.47	384.03	5.8219e-06	7.6752e-06	476.54	181.37	147.18	75.695	8.837e-06	91.976	0.00057309	0.00058544	0.00016022	927.39	6.0373e-06	6.3804e-06	855.87	350.25	7.0364e-06	7.0451e-06	437.72	168.56	136.54	70.288	7.4468e-06	85.788	121.050	35.577	26.967	-46.205	99.714	105.606	-46.721	-51.948	57.464	95.447	-44.927	-41.275	-36.941	-34.657	84.916	-37.264	-8191	255	
1720.792	1	1	0	0	0.31478	0.15339	0.15038	0.16735	0.17546	0.082823	0.18601	0.095602	0.31136	0.38448	0.53539	0.25771	0.27271	0.2777	0.15222	0.16239	-0.05	0.2625	-0.78125	-0.079167	-0.21458	-0.59167	-0.025	-0.82917	-0.49583	0.085417	-1.0354	-0.079167	-0.052083	-0.91042	0.039583	-0.42917	95.953	-14.826	68.313	249.559	125.695	185.010	165.036	289.355	98.309	23.694	233.965	254.708	-53.172	259.038	89.367	176.643	0.00029219	0.00078005	0.00018285	1119.6	8.1292e-06	4.0178e-06	1041.1	452.03	5.162e-06	5.1924e-06	482.14	184.18	147.76	76.295	2.8233e-06	94.547	0.00063607	0.00064175	0.00018351	1028.8	6.8629e-06	7.2836e-06	959.91	416.65	7.0136e-06	7.223e-06	444.42	171.11	137.88	70.914	7.1615e-06	87.353	105.492	25.069	5.710	-47.574	66.876	111.251	-48.492	-42.594	60.788	78.701	-44.803	-41.316	-37.339	-34.715	87.301	-37.341	-8191	255	
1720.888	1	1	0	0	0.10593	0.33551	0.32922	0.29002	0.080266	0.15083	0.27809	0.3071	0.17512	0.27825	0.28087	0.22473	0.31068	0.27488	0.062711	0.293	-0.22917	0.15208	-0.74583	-0.29583	-0.22917	-0.7625	-0.072917	-0.64792	-0.6	0.2375	-0.99792	-0.47917	-0.041667	-0.98125	0.24167	-0.71667	165.447	44.240	-28.551	-49.665	166.242	283.263	180.547	248.285	17.350	225.151	274.944	271.433	-40.674	285.688	128.528	226.525	0.00031468	0.00078484	0.00023666	1197	1.0499e-05	1.0906e-05	1183.4	516.02	4.1749e-06	8.472e-06	548.72	209.88	167.07	86.917	4.4198e-06	106.52	0.00066099	0.00065036	0.00019486	1060.2	7.7825e-06	8.0223e-06	1073.3	466.85	7.8819e-06	8.0985e-06	496.73	191.58	153.29	79.236	8.322e-06	97.227	117.589	3.827	29.572	-57.101	91.855	67.812	-49.550	-44.261	77.077	86.804	-45.801	-42.985	-39.041	-36.293	85.341	-38.918	-8191	255	
1720.983	1	1	0	0	0.29766	0.091942	0.049525	0.15817	0.12578	0.35818	0.25573	0.20486	0.16344	0.14482	0.18745	0.26855	0.29004	0.41387	0.15229	0.25433	-0.15	0.16667	-0.55417	-0.65625	0.15625	-0.89792	-0.11458	-0.33958	-0.81458	0.29583	-0.73542	-0.5375	-0.16875	-1.0438	-0.095833	-0.51667	231.136	-4.940	84.168	-34.919	260.218	59.895	257.827	295.637	60.704	181.688	281.254	269.976	262.831	236.829	1.311	229.833	0.00033274	0.00062305	0.00022066	1276.9	5.4486e-06	1.0655e-05	1183	514.27	4.8578e-06	9.0779e-06	545.73	208.34	167.37	86.952	5.2166e-06	106.59	0.0007214	0.00075841	0.00019398	1148.2	7.752e-06	7.9921e-06	1067.3	464.93	7.8184e-06	8.1715e-06	493.75	190.92	153.23	79.372	8.018e-06	97.124	130.583	32.248	1.538	-49.036	90.005	112.227	-49.739	-44.105	110.062	83.658	-45.958	-42.631	-38.928	-36.235	51.742	-38.427	-8191	255	
1721.079	1	1	0	0	0.12472	0.15552	0.060903	0.19423	0.41386	0.20019	0.28271	0.15645	0.16716	0.16661	0.21321	0.072797	0.14596	0.26172	0.18878	0.23161	-0.25625	0.03125	-0.54792	-0.69167	0.19167	-0.67708	-0.34583	-0.43542	-0.72708	-0.10208	-0.77083	-0.79792	0.014583	-1.0479	-0.064583	-0.41042	175.692	-19.092	258.188	278.573	4.136	39.098	280.600	202.701	270.279	271.107	25.831	-13.714	-19.907	-56.922	31.974	209.026	0.00030953	0.0008384	0.00024794	1272	4.2142e-06	1.3293e-05	1186.2	514.13	3.8336e-06	8.8103e-06	545.9	210.15	167.1	86.979	4.2047e-06	106.91	0.00071258	0.00073296	0.00020155	1146.8	7.8913e-06	7.7845e-06	1067.6	465.87	7.8932e-06	8.109e-06	494.33	191.37	153.05	79.484	7.925e-06	97.221	119.522	35.943	22.991	-49.211	92.488	73.751	-49.278	-44.213	44.869	93.791	-45.914	-42.732	-38.530	-35.866	76.937	-38.824	-8191	255	
1721.175	1	1	0	0	0.11236	0.1236	0.16921	0.41364	0.0044717	0.095054	0.29806	0.036286	0.15888	0.11562	0.15004	0.354	0.043299	0.42051	0.079662	0.2506	-0.38333	0.08125	-0.39167	-0.94583	0.15833	-1.0542	-0.35208	-0.46875	-0.9375	-0.11667	-0.58542	-0.76458	0.16875	-0.89375	-0.28333	-0.16458	170.410	238.152	164.445	234.644	144.143	90.371	244.975	244.635	109.309	38.672	264.942	263.069	242.080	286.832	61.577	228.675	0.00033437	0.00098835	0.00029886	1273.8	6.2414e-06	8.9644e-06	1186.9	515.76	5.3919e-06	8.4845e-06	551.09	210.54	168.39	87.749	6.953e-06	107.04	0.00069362	0.00074036	0.00020296	1149.3	7.6285e-06	7.7975e-06	1070.5	466.91	7.8409e-06	7.7192e-06	497.43	192.46	154.11	79.956	8.1075e-06	97.832	121.635	17.135	26.275	-48.725	119.221	88.779	-49.615	-44.292	88.676	97.193	-45.922	-42.827	-38.833	-36.319	79.678	-38.772	-8191	255	
1721.271	1	1	0	0	0.17631	0.1232	0.028121	0.055369	0.2242	0.13455	0.39844	0.4591	0.25603	0.029092	0.32228	0.25065	0.06143	0.36725	0.24416	0.10492	-0.72083	0.041667	-0.21042	-0.88333	0.21875	-0.68958	-0.52917	-0.25208	-0.78958	-0.029167	-0.40417	-0.925	-0.035417	-0.80208	-0.425	-0.13542	30.971	-7.289	58.221	259.388	165.932	260.976	194.211	280.775	187.546	192.856	-48.212	288.077	-17.947	289.581	80.489	222.264	0.00032189	0.00089602	0.00024047	1278.5	4.0615e-06	8.2017e-06	1195.4	514.86	4.9017e-06	9.0695e-06	546.27	210.23	168.04	87.405	8.9857e-06	107.13	0.0007106	0.00070537	0.00020677	1151.3	7.9125e-06	8.0395e-06	1074.3	466.49	7.5975e-06	7.864e-06	495.94	192.07	154	79.864	7.86e-06	97.762	115.000	5.860	27.275	-49.122	94.449	92.024	-49.827	-44.198	97.074	82.635	-45.891	-42.778	-39.029	-36.110	75.803	-38.775	-8191	255	
1721.392	1	1	0	0	0.023504	0.21185	0.080969	0.27174	0.15409	0.022082	0.24833	0.13733	0.26866	0.12718	0.20348	0.056578	0.1495	0.27684	0.215	0.15728	-0.21458	0.06875	-0.010417	-0.94583	0.091667	-0.6125	-0.59167	-0.1	-0.84375	-0.19792	-0.22708	-1.1458	0.091667	-0.68958	-0.70833	0.16667	285.830	20.111	-25.800	-60.786	27.545	-23.577	208.424	238.906	174.847	290.057	271.113	179.036	-54.436	247.028	141.306	-19.907	0.00036804	0.00093708	0.00028873	1278.6	6.3966e-06	7.2584e-06	1180	515.37	6.2345e-06	8.0514e-06	548.19	212.23	169.36	88.608	5.1402e-06	108.11	0.00071341	0.00073604	0.00020382	1148.5	7.7212e-06	7.7736e-06	1067.7	467.77	7.6534e-06	7.8893e-06	496.83	193.34	155.26	80.809	7.8577e-06	98.881	110.357	17.992	29.326	-48.977	87.419	89.023	-49.754	-44.191	74.060	82.161	-45.955	-42.779	-38.911	-36.171	92.584	-38.669	-8191	255	
1721.463	1	1	0	0	0.20378	0.1431	0.36361	0.18054	0.14195	0.0055411	0.29871	0.098005	0.22184	0.11473	0.32371	0.28522	0.080414	0.32096	0.26718	0.24287	-0.68125	-0.20208	0.00625	-0.96667	0.16667	-0.39792	-0.69375	0.052083	-0.82083	-0.14583	-0.16458	-0.8125	-0.14375	-0.4125	-0.87708	0.01875	26.855	171.136	226.362	-18.327	-19.034	204.786	2.354	271.015	58.252	112.349	-28.053	262.595	260.881	282.572	164.841	219.389	0.00039225	0.00082989	0.00021734	1271.7	1.0192e-05	1.2383e-05	1188.6	517.36	1.8523e-06	1.0639e-05	550.5	211.72	169.83	88.795	6.2451e-06	109.05	0.00073814	0.00071676	0.00020453	1147.4	7.9418e-06	7.9692e-06	1072.8	468.34	7.72e-06	7.7015e-06	498.89	194	155.5	80.962	8.1153e-06	99.167	110.480	28.974	28.387	-49.173	86.930	65.768	-49.476	-44.215	3.715	73.441	-46.027	-42.731	-38.850	-36.075	84.833	-38.954	-8191	255	
1721.559	1	1	0	0	0.11009	0.31641	0.078047	0.094031	0.17522	0.10013	0.3225	0.24462	0.12295	0.093133	0.13332	0.41243	0.24378	0.45183	0.19169	0.36459	-0.32292	-0.37708	0.077083	-1.0708	0.0041667	-0.24167	-0.84375	-0.0875	-0.55	-0.475	0.16042	-0.98958	-0.18333	-0.43542	-0.77917	-0.18333	251.823	128.571	191.618	-15.140	107.149	258.384	-58.795	207.603	-9.041	215.291	237.763	288.819	204.618	245.191	235.345	244.385	0.00033618	0.00083406	0.00024153	1283.7	6.3257e-06	8.2537e-06	1194.4	518.85	5.1415e-06	1.0128e-05	555.18	214.79	170.27	89.387	6.2013e-06	109.25	0.00072758	0.00072834	0.00021001	1153.8	7.7616e-06	8.0995e-06	1075.5	470.3	7.867e-06	7.5533e-06	501.88	195.48	156.52	81.425	7.8118e-06	99.886	127.850	9.786	26.252	-49.250	59.785	96.915	-49.584	-44.469	50.979	105.968	-46.194	-42.649	-38.994	-36.088	69.281	-38.993	-8191	255	
1721.680	1	1	0	0	0.23496	0.078004	0.22723	0.12617	0.31608	0.33358	0.14997	0.28404	0.057086	0.10328	0.36608	0.16105	0.084422	0.56621	0.2022	0.35621	-0.20208	-0.54792	0.1625	-0.72083	-0.11458	-0.16667	-0.83958	-0.01875	-0.42292	-0.71875	0.027083	-0.90208	-0.25833	-0.40625	-0.96875	-0.20833	38.423	146.820	-42.581	284.268	133.980	290.536	232.211	249.997	12.636	74.174	249.048	227.361	34.411	266.156	-38.528	254.946	0.00036518	0.00098261	0.0002448	1280.5	8.7193e-06	9.196e-06	1187.3	516.29	8.8342e-06	6.5487e-06	551.32	211.9	168.3	88.306	5.0122e-06	107.96	0.00071572	0.00071703	0.00020348	1153.8	7.9461e-06	8.0362e-06	1074.8	469.04	7.6261e-06	7.5873e-06	499.87	193.56	154.86	80.627	8.0278e-06	98.4	114.813	14.373	25.568	-49.072	117.934	99.198	-49.975	-44.385	78.591	80.128	-46.185	-42.684	-38.969	-36.021	79.952	-38.814	-8191	255	
1721.776	1	1	0	0	0.41365	0.083377	0.0094204	0.23107	0.10982	0.39807	0.32523	0.31469	0.044234	0.26296	0.17128	0.28791	0.36278	0.33581	0.20281	0.3776	0.11042	-0.86667	0.33542	-0.82292	-0.48958	0.052083	-1.2271	-0.070833	-0.40625	-0.5375	-0.09375	-0.54583	-0.60625	-0.17083	-0.84792	-0.14375	213.832	-24.977	-54.573	289.440	275.887	262.455	275.432	199.401	223.680	-1.892	283.940	281.906	-60.357	260.715	-20.803	208.895	0.00034765	0.00084917	0.00019235	1269.6	6.4858e-06	6.4937e-06	1176.8	515.61	4.0397e-06	5.8934e-06	548.21	211.17	168.99	87.938	4.7938e-06	107.29	0.00074279	0.00071921	0.00019041	1146.8	7.906e-06	7.8792e-06	1066	466.28	7.9025e-06	7.7405e-06	496.5	192.68	154.54	80.35	7.9885e-06	98.18	112.550	23.318	44.674	-49.048	81.572	74.146	-49.703	-44.461	89.045	102.830	-46.190	-42.781	-38.979	-36.041	50.164	-38.722	-8191	255	
1721.872	1	1	0	0	0.23224	0.19826	0.10757	0.18793	0.13377	0.21112	0.38121	0.36234	0.25352	0.02644	0.32857	0.31089	0.062088	0.31668	0.37365	0.25569	0.13958	-0.67083	0.13125	-0.54167	-0.50833	0.1375	-1.1042	-0.39792	-0.11875	-0.94375	-0.020833	-0.73333	-0.43958	-0.085417	-0.75	-0.29583	184.619	124.375	39.502	247.890	74.543	207.340	250.157	243.002	257.868	-59.962	260.928	225.897	256.310	276.260	-25.880	-43.597	0.00030478	0.00072441	0.00021537	1275.1	7.5607e-06	1.0442e-05	1180.3	515.04	5.1035e-06	9.0532e-06	552.77	213.08	169.42	88.676	5.974e-06	109.19	0.00071174	0.00073161	0.00019977	1148.3	7.4898e-06	7.9833e-06	1071.2	468.09	8.0804e-06	7.8535e-06	500.21	194.47	155.43	80.911	8.0936e-06	99.308	131.359	19.349	24.982	-49.197	78.414	108.205	-49.924	-44.374	91.998	92.973	-46.264	-42.651	-38.862	-36.163	60.804	-38.850	-8191	255	
1721.993	1	1	0	0	0.045441	0.15842	0.18506	0.35303	0.030798	0.11069	0.11327	0.28442	0.092592	0.11662	0.087981	0.051043	0.46818	0.19962	0.22404	0.24136	0.14167	-0.86458	-0.18958	-0.73125	-0.62708	0.20417	-0.85625	-0.26458	-0.29792	-0.83125	-0.27083	-0.37917	-0.88958	-0.17708	-0.725	-0.4375	274.584	-28.619	185.980	243.216	-47.111	-28.630	88.493	257.549	218.851	248.518	-39.608	201.940	-58.596	-44.424	113.856	279.284	0.00034647	0.00079435	0.00014583	1282.1	4.6028e-06	1.2158e-05	1194.3	517.34	1.7906e-06	7.4023e-06	556.85	216	171.19	89.904	1.0657e-05	110.6	0.0007363	0.00071021	0.00020484	1151.8	7.6034e-06	8.2163e-06	1080	470.19	8.0357e-06	8.1261e-06	505.12	197.15	157.01	81.979	8.2689e-06	101.01	117.381	28.470	14.267	-48.926	71.087	91.790	-49.563	-44.298	115.908	104.541	-45.862	-42.694	-38.812	-36.012	79.808	-38.864	-8191	255	
#DATA ENDS
