BOXY.EXE: ISS Imagent and Oximeter Data Acquisition Program Version 0.80
Ascii Record File

#ACQ INFORMATION
2  Detector Channels 
16  External MUX Channels 
1  Auxiliary Channels 
5000  Waveform (CCF) Frequency (Hz)
1  Waveforms Skipped 
30  Waveforms Averaged 
1  Cycles Averaged 
16  Acquisitions per Waveform 
10.0806  Updata Rate (Hz) 

#FILE INFORMATION
TRUE -- External MUX Channel results are PARSED.
FALSE -- AC DC and Phase are NOT grouped.
TRUE -- Companion Program Settings File CREATED.
FALSE -- AC data not excluded
FALSE -- DC data not excluded
FALSE -- Phase data not excluded
FALSE -- Auxillary Chn. data not excluded
Tab delimiters

#CALIBRATION STATE
TRUE -- Waveform Calibration Values APPLIED.


#AUX CALIBRATION VALUES
Val Type	aux-1	

Term	1.0000e+00	
Factor	0.0000e+00	


#WF CALIBRATION VALUES
A = Detector Channel
Val Type	A-AC1	A-AC2	A-AC3	A-AC4	A-AC5	A-AC6	A-AC7	A-AC8	A-AC9	A-AC10	A-AC11	A-AC12	A-AC13	A-AC14	A-AC15	A-AC16	A-DC1	A-DC2	A-DC3	A-DC4	A-DC5	A-DC6	A-DC7	A-DC8	A-DC9	A-DC10	A-DC11	A-DC12	A-DC13	A-DC14	A-DC15	A-DC16	A-Ph1	A-Ph2	A-Ph3	A-Ph4	A-Ph5	A-Ph6	A-Ph7	A-Ph8	A-Ph9	A-Ph10	A-Ph11	A-Ph12	A-Ph13	A-Ph14	A-Ph15	A-Ph16	

Term	0.00000e+00	0.00000e+00	0.00000e+00	0.00000e+00	0.00000e+00	0.00000e+00	0.00000e+00	0.00000e+00	0.00000e+00	0.00000e+00	0.00000e+00	0.00000e+00	0.00000e+00	0.00000e+00	0.00000e+00	0.00000e+00	0.00000e+00	0.00000e+00	0.00000e+00	0.00000e+00	0.00000e+00	0.00000e+00	0.00000e+00	0.00000e+00	0.00000e+00	0.00000e+00	0.00000e+00	0.00000e+00	0.00000e+00	0.00000e+00	0.00000e+00	0.00000e+00	0.00000e+00	0.00000e+00	0.00000e+00	0.00000e+00	0.00000e+00	0.00000e+00	0.00000e+00	0.00000e+00	0.00000e+00	0.00000e+00	0.00000e+00	0.00000e+00	0.00000e+00	0.00000e+00	0.00000e+00	0.00000e+00	
Factor	1.00000e+00	1.00000e+00	1.00000e+00	1.00000e+00	1.00000e+00	1.00000e+00	1.00000e+00	1.00000e+00	1.00000e+00	1.00000e+00	1.00000e+00	1.00000e+00	1.00000e+00	1.00000e+00	1.00000e+00	1.00000e+00	1.00000e+00	1.00000e+00	1.00000e+00	1.00000e+00	1.00000e+00	1.00000e+00	1.00000e+00	1.00000e+00	1.00000e+00	1.00000e+00	1.00000e+00	1.00000e+00	1.00000e+00	1.00000e+00	1.00000e+00	1.00000e+00	X	X	X	X	X	X	X	X	X	X	X	X	X	X	X	X	

B = Detector Channel
Val Type	B-AC1	B-AC2	B-AC3	B-AC4	B-AC5	B-AC6	B-AC7	B-AC8	B-AC9	B-AC10	B-AC11	B-AC12	B-AC13	B-AC14	B-AC15	B-AC16	B-DC1	B-DC2	B-DC3	B-DC4	B-DC5	B-DC6	B-DC7	B-DC8	B-DC9	B-DC10	B-DC11	B-DC12	B-DC13	B-DC14	B-DC15	B-DC16	B-Ph1	B-Ph2	B-Ph3	B-Ph4	B-Ph5	B-Ph6	B-Ph7	B-Ph8	B-Ph9	B-Ph10	B-Ph11	B-Ph12	B-Ph13	B-Ph14	B-Ph15	B-Ph16	

Term	0.00000e+00	0.00000e+00	0.00000e+00	0.00000e+00	0.00000e+00	0.00000e+00	0.00000e+00	0.00000e+00	0.00000e+00	0.00000e+00	0.00000e+00	0.00000e+00	0.00000e+00	0.00000e+00	0.00000e+00	0.00000e+00	0.00000e+00	0.00000e+00	0.00000e+00	0.00000e+00	0.00000e+00	0.00000e+00	0.00000e+00	0.00000e+00	0.00000e+00	0.00000e+00	0.00000e+00	0.00000e+00	0.00000e+00	0.00000e+00	0.00000e+00	0.00000e+00	-1.73704e+02	-1.32310e+02	-1.30523e+02	-1.83574e+02	-7.60477e+01	-6.70359e+01	-1.55495e+02	-1.62015e+02	-7.99824e+01	-6.07535e+01	-1.70946e+02	-1.70640e+02	-1.80572e+02	-1.76431e+02	-8.06021e+01	-1.49822e+02	
Factor	2.81431e-05	1.40646e-04	3.83973e-05	2.01100e-01	1.36085e-06	1.58655e-06	1.53996e-01	4.82859e-02	1.48335e-06	1.59777e-06	8.17184e-02	2.79086e-02	4.74001e-02	8.75135e-03	1.44834e-06	1.23503e-02	7.47231e-06	9.38387e-06	2.59553e-06	1.05508e-01	9.95022e-08	1.03510e-07	7.64957e-02	2.55268e-02	9.80276e-08	1.03065e-07	4.19575e-02	1.43083e-02	2.51944e-02	4.66655e-03	1.00170e-07	6.38590e-03	X	X	X	X	X	X	X	X	X	X	X	X	X	X	X	X	



#DISTANCE SETTINGS
A = Detector Channel
A-1	A-2	A-3	A-4	A-5	A-6	A-7	A-8	A-9	A-10	A-11	A-12	A-13	A-14	A-15	A-16	

2.5000e+00	3.0000e+00	2.5000e+00	3.0000e+00	2.0000e+00	3.0000e+00	1.5000e+00	3.0000e+00	3.0000e+00	3.0000e+00	3.0000e+00	3.0000e+00	3.0000e+00	3.0000e+00	1.5000e+00	3.0000e+00	

B = Detector Channel
B-1	B-2	B-3	B-4	B-5	B-6	B-7	B-8	B-9	B-10	B-11	B-12	B-13	B-14	B-15	B-16	

1.0000e+01	1.0000e+01	1.0000e+01	1.4400e+00	1.0000e+01	1.0000e+01	1.5100e+00	1.9400e+00	1.0000e+01	1.0000e+01	1.9900e+00	2.4900e+00	2.4100e+00	2.9000e+00	1.0000e+01	2.9800e+00	




#DATA BEGINS
time	group	step	mark	flag	A-AC1	A-AC2	A-AC3	A-AC4	A-AC5	A-AC6	A-AC7	A-AC8	A-AC9	A-AC10	A-AC11	A-AC12	A-AC13	A-AC14	A-AC15	A-AC16	A-DC1	A-DC2	A-DC3	A-DC4	A-DC5	A-DC6	A-DC7	A-DC8	A-DC9	A-DC10	A-DC11	A-DC12	A-DC13	A-DC14	A-DC15	A-DC16	A-Ph1	A-Ph2	A-Ph3	A-Ph4	A-Ph5	A-Ph6	A-Ph7	A-Ph8	A-Ph9	A-Ph10	A-Ph11	A-Ph12	A-Ph13	A-Ph14	A-Ph15	A-Ph16	B-AC1	B-AC2	B-AC3	B-AC4	B-AC5	B-AC6	B-AC7	B-AC8	B-AC9	B-AC10	B-AC11	B-AC12	B-AC13	B-AC14	B-AC15	B-AC16	B-DC1	B-DC2	B-DC3	B-DC4	B-DC5	B-DC6	B-DC7	B-DC8	B-DC9	B-DC10	B-DC11	B-DC12	B-DC13	B-DC14	B-DC15	B-DC16	B-Ph1	B-Ph2	B-Ph3	B-Ph4	B-Ph5	B-Ph6	B-Ph7	B-Ph8	B-Ph9	B-Ph10	B-Ph11	B-Ph12	B-Ph13	B-Ph14	B-Ph15	B-Ph16	aux-1	digaux	

4121.803	1	1	0	256	0.30138	0.14489	0.23363	0.16218	0.02444	0.087972	0.32985	0.12912	0.18719	0.22086	0.15747	0.23173	0.04366	0.16867	0.20442	0.12727	-2.7521	-2.3187	-3.1229	-2.65	-2.5687	-3.3292	-2.6396	-2.875	-3.2062	-2.4375	-3.3396	-2.8625	-2.5604	-3.3521	-2.5062	-2.9896	481.687	323.650	232.250	415.325	233.101	264.482	382.828	465.524	366.497	155.041	437.912	440.924	201.253	476.980	268.763	428.947	0.0013938	0.0002932	0.00010767	376.97	1.9952e-06	8.1217e-06	944.65	107.86	3.3654e-06	6.0841e-06	387.14	167.7	45.828	21.72	6.3563e-06	89.155	0.00054577	0.00039856	0.00010124	329.54	4.0916e-06	4.0554e-06	821.41	94.569	3.9534e-06	4.224e-06	340.51	146.55	39.923	19.105	4.1276e-06	78.865	143.758	242.977	191.896	155.203	286.653	307.636	155.093	160.551	281.669	275.774	159.982	163.125	162.977	168.474	262.392	166.854	-8191	255	
4121.922	1	1	0	0	0.14522	0.1214	0.13332	0.043648	0.20958	0.081088	0.14628	0.34519	0.072344	0.30228	0.12386	0.031989	0.2017	0.1619	0.18825	0.17899	-3.0187	-2.4208	-3.2104	-3.0354	-2.625	-3.3208	-2.6646	-2.7562	-3.1083	-2.5	-3.3042	-3.0646	-2.5646	-3.3083	-2.7812	-2.7562	421.727	469.746	212.570	399.191	203.034	497.655	359.411	171.850	346.211	316.044	484.065	351.911	187.852	212.973	367.555	437.099	0.0012686	0.0002355	0.00010189	380.17	8.2347e-06	3.8808e-06	936.98	107.88	7.0037e-06	5.5156e-06	386.32	165.91	46	21.598	3.1322e-06	88.623	0.00054275	0.00040149	9.9701e-05	329.95	3.9579e-06	3.8452e-06	816.07	94.575	3.7479e-06	3.9661e-06	338.98	145.93	40.002	19.084	4.011e-06	78.395	143.972	177.930	181.040	155.257	269.052	294.739	155.398	160.356	249.085	315.514	159.959	163.329	163.473	168.166	241.228	166.791	-8191	255	
4122.018	1	1	0	0	0.16375	0.075384	0.27792	0.049332	0.17162	0.27977	0.23369	0.18124	0.34752	0.30574	0.17589	0.092121	0.14569	0.24998	0.17029	0.13402	-2.7208	-2.5583	-3.0271	-3.1083	-2.5792	-3.3167	-2.9188	-2.8417	-3.1083	-2.4417	-3.0375	-2.9729	-2.5125	-3.2062	-2.7917	-2.7875	237.257	368.503	313.041	423.330	487.202	296.618	439.603	149.358	270.107	364.042	359.068	502.769	161.485	358.971	396.523	156.550	0.0013579	0.00053225	0.00020636	374.69	5.3243e-06	6.7075e-06	933.25	108.2	4.5809e-06	4.7679e-06	388.3	166.71	45.78	21.609	1.0396e-05	88.806	0.00052934	0.00036382	9.9701e-05	329.76	4.006e-06	3.9261e-06	816.39	94.709	3.7965e-06	4.0028e-06	339.59	146.23	39.874	19.065	4.011e-06	78.538	146.587	221.779	208.775	155.371	257.649	314.618	155.387	160.754	273.160	287.056	159.983	163.264	163.007	168.690	269.888	167.291	-8191	255	
4122.114	1	1	0	0	0.16994	0.16693	0.17672	0.041368	0.092078	0.20789	0.48021	0.1947	0.066666	0.12917	0.09515	0.16369	0.13139	0.04521	0.094229	0.12685	-2.7833	-2.2667	-2.8875	-3.2521	-2.5146	-3.2354	-2.8875	-2.5417	-3.3271	-2.6604	-2.975	-3.5021	-2.2562	-3.1021	-2.8333	-2.7812	177.623	422.728	455.863	181.161	235.626	346.985	472.803	447.737	484.763	209.641	425.038	155.150	438.032	146.594	315.758	481.953	0.0014122	0.00055646	0.00024519	378.47	5.5591e-06	5.7063e-06	942.62	108.07	4.5298e-06	2.6709e-06	390.29	168.44	45.838	21.61	4.3082e-06	88.77	0.00054929	0.00035862	0.00010213	331.38	4.1003e-06	4.2306e-06	820.63	94.27	3.8833e-06	3.9781e-06	341.84	147.35	39.702	19.119	3.93e-06	78.696	144.245	236.663	207.689	155.401	271.839	263.957	155.313	160.664	290.918	291.479	159.832	163.406	163.122	168.471	248.933	167.429	-8191	255	
4122.188	1	1	0	0	0.12108	0.10169	0.14211	0.3821	0.18895	0.19431	0.33833	0.014362	0.096631	0.10365	0.21932	0.11737	0.28458	0.22277	0.12253	0.14428	-2.7708	-2.6021	-2.7375	-3.3187	-2.5396	-3.1312	-3.0542	-2.425	-3.0229	-2.4542	-2.9167	-3.5333	-2.6042	-3.1771	-2.9896	-2.5563	501.735	237.459	254.865	153.596	216.258	186.288	439.768	166.104	296.428	265.903	151.939	193.799	259.531	449.812	223.460	423.551	0.0013369	0.00092918	0.00013309	374.03	4.3675e-06	5.0884e-06	939.42	107.11	2.9041e-06	5.9858e-06	387.69	167.77	45.293	21.516	4.2275e-06	89.179	0.00055178	0.00039051	0.00010233	330.8	4.1341e-06	3.8957e-06	822.36	94.742	3.7391e-06	4.1561e-06	339.49	147.04	39.833	19.062	4.0264e-06	78.655	500.075	247.250	278.899	155.379	293.399	288.213	155.231	160.690	262.780	290.800	160.233	163.596	163.826	168.475	264.830	167.093	-8191	255	
4122.307	1	1	0	0	0.26899	0.12322	0.089078	0.15055	0.063404	0.046732	0.038805	0.18243	0.084866	0.16024	0.22305	0.18437	0.093096	0.041943	0.042461	0.14153	-2.9021	-2.6542	-2.6542	-3.2854	-2.525	-3.075	-3.2729	-2.4667	-3.1875	-2.7875	-2.8125	-3.3625	-2.5458	-3.025	-3.0667	-2.6792	244.128	339.749	290.221	200.928	470.802	303.754	220.791	234.224	189.040	473.538	402.307	201.875	221.626	447.382	253.480	436.187	0.0013689	0.0007308	0.0001846	373.71	3.311e-06	1.4066e-06	930.22	108.41	5.2343e-06	7.0044e-06	387.45	167.75	45.523	21.522	3.2207e-06	89.131	0.00053178	0.00036804	0.00010628	329.05	3.7825e-06	4.1296e-06	815.97	94.826	3.9564e-06	4.2467e-06	339.45	147.04	39.975	19.01	3.8192e-06	78.905	145.111	215.176	255.594	155.508	267.890	239.111	155.059	160.847	282.834	305.490	160.150	163.388	163.685	168.696	306.819	167.049	-8191	255	
4122.403	1	1	0	0	0.16436	0.12406	0.23265	0.05123	0.22593	0.086347	0.2312	0.20706	0.098738	0.062774	0.10416	0.1146	0.14287	0.18569	0.048093	0.31715	-2.9125	-2.8187	-2.6333	-3.1792	-2.6229	-2.9729	-3.45	-2.3937	-3.1104	-2.9813	-2.7479	-3.5354	-2.6292	-2.8583	-2.9437	-2.4792	235.451	318.592	168.968	263.717	458.319	187.190	455.724	361.579	265.717	166.327	415.078	225.364	218.668	448.289	466.446	418.466	0.0014334	0.00058483	6.0305e-05	376.71	1.5413e-06	6.275e-06	935.93	108.44	4.9391e-06	5.2076e-06	389.51	168.15	45.936	21.571	3.6677e-06	89.301	0.00055639	0.00037747	0.00010143	330.06	4.0319e-06	4.2055e-06	820.6	94.977	3.8833e-06	4.0152e-06	341.85	147.49	39.962	19.111	4.1099e-06	78.872	148.146	228.256	200.311	155.584	292.381	298.132	155.320	160.816	320.326	356.842	159.787	163.342	162.824	167.880	269.784	166.706	-8191	255	
4122.499	1	1	0	0	0.16077	0.11577	0.25539	0.34438	0.099782	0.089916	0.19226	0.29164	0.30784	0.13439	0.38737	0.1693	0.10526	0.19472	0.38636	0.30772	-2.7042	-2.9375	-2.6021	-3.2979	-2.8229	-2.6937	-3.2729	-2.3958	-3.1937	-2.9417	-2.6479	-3.3688	-2.7062	-2.7062	-3.3083	-2.7146	209.568	418.493	295.292	172.280	152.885	239.531	436.255	215.862	144.291	284.364	498.434	385.221	299.143	193.182	445.621	435.172	0.0013649	0.00055744	0.0001847	382.33	7.8388e-06	7.9497e-06	942.5	109.02	3.2678e-07	3.7658e-06	392.66	168.71	46.407	21.677	2.7004e-06	89.328	0.00052902	0.00039318	9.8592e-05	332.53	4.1146e-06	4.1018e-06	823.63	95.111	3.9938e-06	3.9882e-06	342.98	147.65	40.525	19.155	4.0085e-06	79.081	501.727	273.055	258.043	155.472	257.104	295.579	155.508	160.689	493.473	271.381	160.082	163.469	162.856	167.938	329.548	166.774	-8191	255	
4122.620	1	1	0	0	0.060778	0.14728	0.30994	0.19784	0.36251	0.32289	0.20444	0.26599	0.055989	0.26776	0.11874	0.25917	0.12339	0.31717	0.019094	0.20026	-2.5229	-2.9479	-2.5292	-3.2208	-2.6792	-2.5271	-3.3354	-2.5896	-2.875	-3.2083	-2.6896	-3.2062	-2.9062	-2.8167	-3.4021	-2.7917	284.844	419.924	146.246	366.083	234.474	267.440	467.763	449.390	335.079	320.387	331.655	455.258	176.322	465.652	340.967	404.873	0.0014071	0.00042132	0.0002038	376.71	5.3111e-06	4.969e-06	936.69	107.8	7.0719e-06	6.9683e-06	388.62	166.99	45.457	21.81	5.4913e-06	89.943	0.00055596	0.00038566	0.00010791	331.1	4.2301e-06	4.1484e-06	820.98	94.646	4.1202e-06	4.1179e-06	341.07	146.87	39.724	19.213	3.9786e-06	79.163	145.931	146.407	254.963	155.406	271.976	300.414	155.498	160.820	300.024	331.175	160.140	163.756	162.980	168.787	269.895	166.922	-8191	255	
4122.716	1	1	0	0	0.17627	0.24693	0.22594	0.085845	0.095683	0.11398	0.25083	0.15974	0.11326	0.17845	0.29843	0.21815	0.042555	0.053354	0.14904	0.2712	-2.5292	-3.1667	-2.4354	-3.2542	-2.9708	-2.6167	-3.4208	-2.7125	-2.7521	-3.3063	-2.7167	-3.2333	-2.825	-2.6792	-3.3208	-2.9188	379.210	401.675	240.881	429.576	249.066	381.743	435.315	146.975	307.032	249.942	188.950	452.884	290.880	409.907	371.765	483.694	0.0013344	0.0007595	0.0001954	374.76	3.703e-06	7.1969e-06	933.43	108.02	5.6462e-06	5.69e-06	390.48	169.06	46.611	21.57	8.6456e-06	89.251	0.00056419	0.00037833	0.0001034	328.12	3.9102e-06	4.1154e-06	818.01	94.867	4.198e-06	4.1555e-06	342.37	148.19	40.057	19.099	4.1789e-06	79.031	143.498	247.057	223.792	155.116	270.975	344.780	155.637	161.066	277.229	336.338	160.306	163.742	164.029	169.017	282.810	167.132	-8191	255	
4122.787	1	1	0	0	0.18233	0.13834	0.15961	0.2218	0.36936	0.18756	0.18501	0.25326	0.033254	0.13127	0.20145	0.20949	0.17517	0.11565	0.14064	0.3509	-2.3958	-3.325	-2.45	-3.0396	-3.025	-2.6396	-3.3792	-2.6104	-2.7354	-3.1688	-2.6604	-3.1292	-3.3042	-2.3417	-3.1896	-2.8667	166.130	196.844	400.188	338.119	293.754	235.116	363.632	172.340	329.722	300.810	374.121	401.210	314.178	152.054	199.443	496.136	0.001338	0.00064655	0.00011055	376.53	4.0691e-06	2.9285e-06	939.39	107.65	2.2119e-06	5.4046e-06	390.05	168.56	45.692	21.613	2.9993e-06	89.728	0.00053573	0.00035305	0.0001096	331.11	4.0589e-06	4.2103e-06	824.2	95.018	4.111e-06	4.2783e-06	343.6	147.72	40.133	19.153	3.9657e-06	79.233	147.194	204.823	266.897	155.364	281.106	293.724	155.592	161.131	253.949	330.245	159.945	163.598	163.101	168.420	301.592	167.078	-8191	255	
4122.908	1	1	0	0	0.23408	0.2109	0.026276	0.070019	0.17211	0.11118	0.23804	0.14391	0.18328	0.055515	0.18684	0.074633	0.18308	0.16136	0.053924	0.045166	-2.1875	-3.1292	-2.3937	-2.8854	-3.2125	-2.6125	-3.3708	-2.9354	-2.5521	-3.2792	-2.7792	-3	-3.15	-2.3979	-3.1104	-3.0271	178.359	442.041	178.089	472.181	354.725	354.830	412.094	496.030	477.593	443.395	430.242	469.833	217.368	489.716	161.383	333.336	0.0014915	0.00073022	0.00011917	375.41	5.0218e-06	6.8465e-06	947.75	108.92	5.2353e-06	4.5731e-06	393.04	168.98	46.467	21.893	4.2837e-06	89.399	0.00058455	0.00040087	0.0001016	329.28	3.9952e-06	4.104e-06	826.68	95.317	4.3026e-06	4.0642e-06	343.25	147.99	40.411	19.185	4.0379e-06	79.125	143.290	189.018	201.241	156.170	288.379	292.790	155.799	160.995	262.275	321.724	160.241	163.509	162.352	168.625	280.036	167.260	-8191	255	
4123.002	1	1	0	0	0.27041	0.28227	0.26773	0.14881	0.2016	0.21479	0.30762	0.3342	0.27959	0.30403	0.33974	0.20597	0.15827	0.096595	0.20065	0.15542	-1.9688	-3.1937	-2.6708	-2.7229	-3.2146	-2.425	-3.0687	-2.9354	-2.5958	-3.3125	-2.7021	-2.8688	-3.4125	-2.5542	-3.0771	-3.2542	461.653	212.295	430.941	501.424	362.775	195.567	455.736	471.802	255.271	206.038	463.073	479.319	153.558	395.269	318.493	382.332	0.0014278	0.00042117	0.00015159	381.06	2.8699e-06	8.9518e-06	939.79	109.22	3.8125e-06	4.5264e-06	390.1	167.58	46.094	21.805	4.9191e-06	89.488	0.00056646	0.00039598	0.00010113	331.03	3.9281e-06	4.3101e-06	820.72	95.477	4.0841e-06	4.0584e-06	342.69	147.45	40.203	19.215	4.0277e-06	79.145	146.618	253.946	249.953	155.749	232.306	304.475	155.789	161.035	240.166	303.679	159.798	163.646	163.960	168.573	253.973	167.022	-8191	255	
4123.099	1	1	0	0	0.21986	0.23232	0.327	0.069904	0.13816	0.13317	0.12919	0.094908	0.36382	0.08702	0.13463	0.15668	0.051617	0.23687	0.084289	0.20483	-2.2042	-3.225	-2.975	-2.6729	-3.3021	-2.4833	-3.0292	-3.0583	-2.5729	-3.2438	-2.9896	-2.5458	-3.2792	-2.3542	-2.9979	-3.2875	368.384	236.400	202.108	168.020	220.667	331.914	476.257	216.622	377.036	452.729	376.732	177.310	372.139	488.629	278.693	460.125	0.0014095	0.00036816	0.00020603	375.77	4.3327e-06	3.152e-06	940.04	107.36	9.037e-06	6.4835e-06	388.81	168.83	46.17	21.831	8.35e-06	89.818	0.00056687	0.00038701	0.00010576	329.66	4.0433e-06	4.2081e-06	823.83	94.818	4.1112e-06	3.8478e-06	343.08	147.88	40.057	19.228	4.2641e-06	79.527	144.834	270.197	202.357	155.724	297.597	262.179	156.023	160.410	270.519	290.058	159.870	163.924	163.938	168.304	277.429	167.307	-8191	255	
4123.219	1	1	0	0	0.14296	0.17055	0.064373	0.16683	0.021406	0.20847	0.18578	0.10832	0.23938	0.066845	0.30508	0.12302	0.16042	0.26874	0.26731	0.091634	-2.1792	-3.0729	-2.8896	-2.6292	-3.25	-2.7062	-2.9604	-3.1562	-2.3958	-2.9458	-3.0312	-2.5979	-3.1	-2.55	-2.7917	-3.3	484.073	151.353	255.789	247.561	436.953	420.708	393.038	148.601	442.288	160.701	466.013	151.648	440.432	231.390	386.338	457.894	0.001327	0.00073142	0.00019371	377.96	5.7894e-06	6.895e-06	938.83	109.39	6.3656e-06	5.5038e-06	394.37	168.48	45.88	21.792	8.5084e-06	90.004	0.0005546	0.00037889	0.00010093	331.69	3.7672e-06	4.0378e-06	825.92	95.044	4.1315e-06	4.1074e-06	344.45	148.03	40.221	19.227	4.118e-06	79.416	145.791	212.037	217.966	154.972	261.489	285.404	155.374	160.838	272.274	295.887	159.945	163.443	163.282	168.567	309.872	166.809	-8191	255	
4123.315	1	1	0	0	0.0561	0.23173	0.21745	0.1724	0.058317	0.15122	0.19656	0.34965	0.1878	0.22967	0.14188	0.38115	0.21372	0.2905	0.1929	0.21487	-2.0375	-3.0625	-2.925	-2.4062	-3.2208	-2.6229	-2.8063	-3.2208	-2.4188	-2.9333	-3.2542	-2.6063	-3.2562	-2.6813	-2.5312	-3.1792	496.768	171.235	333.156	229.038	359.833	448.509	407.136	437.003	263.460	447.414	479.533	150.010	453.792	396.570	478.192	483.345	0.001404	0.00082187	0.00014155	378.08	5.7433e-06	5.0364e-06	942.36	107.48	4.4029e-06	5.4803e-06	386.87	167.63	45.441	21.355	5.3213e-06	89.073	0.00056741	0.00036124	0.00010379	331.16	4.062e-06	4.0304e-06	822.71	94.408	4.0667e-06	3.8372e-06	341	147	40.03	18.971	4.0819e-06	78.798	143.988	239.638	234.716	155.490	309.888	246.401	155.167	160.614	333.251	297.267	159.371	163.590	163.366	168.642	257.509	167.122	-8191	255	
4123.412	1	1	0	0	0.085786	0.03726	0.091352	0.16906	0.11432	0.035389	0.24681	0.10419	0.13812	0.030845	0.25969	0.049474	0.15632	0.14533	0.16811	0.3273	-2.1042	-2.7417	-3.0771	-2.4688	-3.3083	-2.7667	-2.7396	-3.3667	-2.5646	-2.8917	-3.3771	-2.6562	-3.1688	-2.9729	-2.5104	-3.4833	200.772	498.642	341.705	145.765	251.216	462.327	468.916	484.991	229.481	278.844	475.882	248.522	253.391	488.251	393.539	455.820	0.0014308	0.00032747	0.00014203	371.33	7.7076e-06	3.9657e-06	944.82	108.36	5.3503e-06	6.1677e-06	388.89	167.74	45.483	21.046	6.9509e-06	88.797	0.00056716	0.00038478	0.0001028	325.98	4.1169e-06	4.3343e-06	823.48	94.267	4.1384e-06	3.9985e-06	340.77	146.56	39.543	18.748	4.2278e-06	78.509	145.071	247.795	218.772	155.501	297.496	302.248	155.602	160.501	262.960	273.972	159.896	163.156	163.383	168.286	284.064	166.529	-8191	255	
4123.508	1	1	0	0	0.021685	0.15998	0.19301	0.038157	0.18868	0.090291	0.1544	0.086521	0.10593	0.044547	0.21223	0.17682	0.35856	0.31826	0.12532	0.28907	-2.2604	-2.5938	-3.3479	-2.5792	-3.1875	-2.9729	-2.6521	-3.3167	-2.6125	-2.6562	-3.4729	-2.6104	-3.1479	-3.075	-2.3292	-3.3667	291.750	444.067	331.212	428.912	253.073	423.966	436.858	272.459	190.741	392.733	443.788	466.443	473.275	189.145	276.381	412.715	0.0013157	0.00043091	0.00021264	373.1	5.0473e-06	5.3156e-06	943.27	107.81	3.8509e-06	2.4191e-06	386.39	166.94	45.972	21.374	6.3997e-06	88.723	0.00054173	0.0003776	0.00010362	326.46	3.7085e-06	4.1219e-06	822.89	93.791	3.956e-06	3.8349e-06	339.97	146.53	39.518	18.743	4.05e-06	78.322	145.763	236.169	241.536	154.920	294.849	294.508	155.442	161.033	321.469	249.839	159.776	163.156	162.550	168.586	285.552	167.151	-8191	255	
4123.604	1	1	0	0	0.18478	0.2413	0.094386	0.19417	0.30322	0.10836	0.34188	0.15003	0.16542	0.13462	0.27943	0.35175	0.18302	0.26011	0.11752	0.22237	-2.4688	-2.8063	-3.3604	-2.4521	-3.0208	-3.1542	-2.6333	-3.2896	-2.875	-2.7521	-3.4625	-2.6917	-3.0125	-3.1583	-2.5021	-3.3479	351.185	366.728	382.886	263.184	348.158	288.364	401.379	430.331	218.769	163.591	479.029	472.964	210.779	393.855	476.488	375.859	0.0013802	0.00067772	0.00016557	371.43	4.401e-06	5.4059e-06	939.36	108.35	9.4996e-06	4.9028e-06	386.17	166.2	44.02	21.099	5.1604e-06	88.858	0.00054774	0.00037252	0.00010739	327.14	3.9492e-06	4.0796e-06	821.34	94.585	3.925e-06	4.0706e-06	339.54	145.8	39.002	18.65	4.1783e-06	78.204	145.347	199.732	219.072	156.391	255.832	305.072	155.132	160.412	246.845	309.322	159.824	163.197	162.480	168.191	283.584	166.928	-8191	255	
4123.700	1	1	0	0	0.084358	0.04357	0.12013	0.22235	0.099701	0.022343	0.29689	0.22907	0.11312	0.11595	0.16727	0.10663	0.093872	0.20532	0.27232	0.22904	-2.4083	-2.3792	-3.3979	-2.6354	-2.875	-3.1833	-2.6958	-3.3083	-2.8146	-2.8187	-3.4833	-2.7354	-2.9062	-3.1667	-2.5021	-3.3646	319.580	144.950	309.211	476.289	195.967	377.628	367.455	486.710	297.278	401.669	453.551	472.117	208.182	472.692	410.745	448.299	0.0012874	0.00060394	0.00013609	371.82	5.0891e-06	1.0156e-05	935.61	105.05	4.0101e-06	5.6123e-06	382.48	165.94	44.906	20.879	2.5478e-06	87.876	0.00052532	0.00036773	0.00010005	326.19	4.0371e-06	4.0099e-06	816.1	92.453	3.9005e-06	4.0397e-06	336.8	145.54	39.215	18.534	4.0153e-06	77.736	147.525	251.000	244.006	155.652	286.233	320.802	155.575	161.013	249.807	259.979	159.889	163.105	163.168	168.026	320.822	167.090	-8191	255	
4123.796	1	1	0	0	0.16385	0.15937	0.053502	0.18762	0.14188	0.13516	0.04996	0.31	0.21099	0.19981	0.16107	0.19482	0.10695	0.2123	0.20189	0.37398	-2.6104	-2.4083	-3.4083	-2.6521	-2.6292	-3.2625	-2.5083	-3.0271	-2.9146	-2.6208	-3.4042	-2.8729	-2.4917	-3.3292	-2.5396	-3.1583	466.125	423.875	151.607	199.248	309.678	199.666	249.729	166.751	491.948	339.084	476.062	442.694	173.896	440.597	436.712	459.939	0.0013768	0.00044024	7.9578e-05	374.23	2.1103e-06	6.3021e-06	931.83	106.25	6.1738e-06	4.7827e-06	387.95	167.09	45.042	20.923	4.9973e-06	88.029	0.0005461	0.00039156	9.531e-05	325.93	3.9469e-06	4.022e-06	816.04	93.132	4.0016e-06	4.0919e-06	339.64	145.73	39.27	18.601	3.8864e-06	78.184	144.837	219.046	203.230	155.155	309.177	307.979	155.275	160.798	278.111	312.417	159.715	163.422	162.915	168.232	278.199	166.951	-8191	255	
4123.892	1	1	0	0	0.24001	0.027608	0.18156	0.16703	0.021295	0.17908	0.19683	0.31513	0.30782	0.31422	0.41036	0.34738	0.22737	0.12921	0.13971	0.28441	-2.6021	-2.5125	-3.0625	-2.7271	-2.6583	-3.3375	-2.6583	-2.8333	-2.95	-2.5292	-3.2875	-3.0312	-2.6813	-3.2979	-2.5083	-3.0271	207.579	387.739	395.682	309.978	326.411	469.208	457.743	205.348	376.418	453.969	152.588	168.725	211.049	489.806	204.892	381.750	0.0013579	0.00079035	0.00012772	374.85	1.136e-06	3.9422e-06	941.36	106.94	5.6214e-06	3.2651e-06	391.71	167.04	45.408	21.263	7.921e-06	88.042	0.00056224	0.00038597	0.00010643	327.27	4.0363e-06	3.8814e-06	822.11	93.953	3.9242e-06	4.0432e-06	342.47	146.33	39.585	18.776	4.0383e-06	78.441	143.888	236.708	225.523	154.382	225.020	241.159	155.373	160.733	260.897	313.332	160.227	163.425	163.688	168.445	250.193	167.033	-8191	255	
4124.011	1	1	0	0	0.22631	0.24085	0.16919	0.13377	0.028407	0.22341	0.2439	0.1849	0.20436	0.17651	0.13981	0.3172	0.19456	0.18941	0.39113	0.26252	-2.8542	-2.5312	-3.0646	-2.9521	-2.6188	-3.3812	-2.6708	-2.8187	-3.2542	-2.6813	-2.9958	-2.9979	-2.5	-3.3875	-2.6396	-2.8396	335.135	341.648	275.049	423.048	370.360	183.942	425.898	345.626	345.801	355.874	462.816	478.115	235.676	250.882	469.169	409.553	0.0013437	0.00040888	0.0001638	375.97	3.6987e-06	4.6045e-06	943.05	106.82	5.3253e-06	6.9763e-06	388.26	166.61	45.648	21.134	5.749e-06	88.786	0.00054964	0.00037696	0.0001067	328.35	4.2438e-06	4.1452e-06	824.77	93.906	4.0681e-06	4.3588e-06	341.96	146.59	39.585	18.75	3.9221e-06	78.635	145.341	232.870	233.175	155.403	287.586	312.584	155.550	160.626	258.764	276.436	159.920	163.456	163.270	168.403	274.682	167.042	-8191	255	
4124.083	1	1	0	0	0.2057	0.12718	0.098652	0.11854	0.1855	0.10054	0.21944	0.33145	0.080302	0.019013	0.25451	0.28738	0.46023	0.23708	0.33056	0.19503	-2.9521	-2.5312	-3.1417	-3.1521	-2.5604	-3.2333	-2.8792	-2.6229	-3.3375	-2.5521	-3.125	-3.0979	-2.4854	-3.2083	-2.6958	-2.9354	197.440	246.616	210.899	329.243	380.698	372.663	386.365	143.720	280.518	476.890	376.550	439.624	412.815	421.284	207.718	432.910	0.0013497	0.00066031	0.00011546	377.21	6.3134e-06	1.0202e-05	940.23	107.36	7.2213e-06	2.4541e-06	389.88	167.23	45.882	21.425	5.0647e-06	88.612	0.00053693	0.00037625	0.00010538	328.68	4.0085e-06	4.071e-06	821.36	93.76	3.8374e-06	4.321e-06	342.22	146.86	39.676	18.829	3.9066e-06	78.62	143.944	227.039	202.566	155.515	257.752	311.294	155.234	160.653	273.386	209.639	160.274	163.282	162.837	168.178	278.898	167.190	-8191	255	
4124.181	1	1	0	0	0.040864	0.19818	0.20743	0.054825	0.17846	0.19292	0.086847	0.08285	0.22357	0.053147	0.37409	0.34922	0.11737	0.11865	0.027203	0.21166	-2.6917	-2.425	-2.8563	-3.2854	-2.2562	-3.1979	-3.125	-2.575	-3.2229	-2.5604	-2.8854	-3.2333	-2.4062	-3.1063	-2.8167	-2.6875	445.125	445.703	250.420	493.347	372.498	280.333	475.827	235.159	196.992	411.404	446.728	501.892	183.123	166.608	417.487	159.056	0.0014497	0.00035442	0.00015605	378.47	4.9325e-06	5.2241e-06	953.19	108.99	5.6211e-06	6.9748e-06	390.02	168.39	45.766	21.453	5.2538e-06	89.383	0.00056734	0.00035819	0.00010866	329.01	4.0723e-06	4.1022e-06	826.6	94.419	4.005e-06	4.2222e-06	343.73	147.66	39.743	18.927	3.9957e-06	79.099	145.937	215.370	227.535	155.467	315.106	301.914	155.348	161.005	233.518	301.444	160.038	163.726	163.226	168.363	309.802	167.105	-8191	255	
4124.300	1	1	0	0	0.14685	0.32176	0.087819	0.17832	0.12122	0.047191	0.23313	0.28221	0.20394	0.27975	0.24895	0.13423	0.12238	0.10343	0.2481	0.19441	-2.9417	-2.6937	-2.6208	-3.2271	-2.4521	-3.0604	-3.1479	-2.4396	-3.1583	-2.7854	-2.625	-3.2979	-2.4875	-2.8708	-3.1021	-2.6146	472.425	288.298	319.553	275.510	413.760	326.969	387.926	334.684	480.832	449.358	457.817	413.549	317.306	389.296	255.609	146.006	0.0013625	9.0235e-05	9.6621e-05	373.82	3.6548e-06	1.366e-06	947.76	108.5	3.2503e-06	5.7474e-06	391.71	168.71	44.921	21.611	2.5019e-06	89.115	0.00056077	0.00037958	0.00010439	328.34	4.2689e-06	4.1652e-06	829.99	94.731	4.0569e-06	4.0584e-06	344.5	147.86	39.705	19.077	4.2261e-06	79.133	144.588	460.085	237.001	155.766	274.676	326.646	155.420	161.078	271.654	256.969	159.928	163.372	162.726	168.169	253.278	167.171	-8191	255	
4124.396	1	1	0	0	0.37623	0.2916	0.16819	0.18386	0.16244	0.24593	0.22138	0.25554	0.1448	0.13456	0.15023	0.24031	0.13782	0.079661	0.063698	0.21468	-2.7729	-2.7333	-2.4458	-3.3479	-2.5687	-3.0479	-3.1333	-2.4542	-3.2083	-2.9667	-2.7812	-3.3125	-2.3187	-2.9562	-3.1813	-2.6542	280.659	489.121	263.018	460.717	322.508	350.014	381.435	501.447	228.210	420.468	175.570	429.145	378.029	253.101	342.053	451.933	0.0013531	0.00053946	6.9142e-05	377.2	4.197e-06	5.8798e-06	943.55	106.5	3.3661e-06	3.4197e-06	390.62	169.05	46.076	21.451	6.4248e-06	89.087	0.00054349	0.0003752	0.00010787	328.53	4.1507e-06	4.1482e-06	822.49	93.961	4.1554e-06	4.0661e-06	343.98	148.04	40.072	18.953	4.229e-06	79.104	143.579	291.470	288.169	155.125	240.958	280.607	155.416	160.214	246.853	308.451	159.959	163.546	162.924	167.956	280.874	166.983	-8191	255	
4124.492	1	1	0	0	0.18	0.14293	0.11775	0.14599	0.15623	0.045071	0.20729	0.079175	0.036209	0.28964	0.216	0.090547	0.096201	0.27401	0.25304	0.16415	-2.7104	-2.7208	-2.6354	-3.3896	-2.5729	-2.7229	-3.2438	-2.4208	-3.1354	-2.9771	-2.4375	-3.4917	-2.6583	-2.7854	-3.0292	-2.5375	340.936	430.733	277.426	222.866	263.003	284.274	359.474	419.331	383.605	333.289	393.032	470.696	355.606	245.443	462.542	320.472	0.0014313	0.00029212	0.0001232	371.12	3.1705e-06	1.6348e-06	940.71	108.73	7.6742e-06	5.9969e-06	393.07	168.58	45.614	21.567	3.9585e-06	89.227	0.00056654	0.0003657	0.00010959	327.62	3.9631e-06	4.3278e-06	824.41	94.651	4.2087e-06	4.3631e-06	344.22	148.21	39.881	19.046	4.184e-06	79.227	143.504	272.285	228.376	155.012	321.301	349.367	155.439	160.292	287.381	294.306	160.017	163.478	162.867	168.409	216.477	167.415	-8191	255	
4124.588	1	1	0	0	0.051473	0.11544	0.11595	0.20427	0.24731	0.053208	0.45152	0.042562	0.15216	0.11236	0.24016	0.18108	0.059094	0.23619	0.13636	0.23421	-2.6292	-2.9875	-2.3667	-3.1625	-2.7417	-2.5354	-3.45	-2.4292	-3.0646	-3.1417	-2.6229	-3.1583	-2.6271	-2.4938	-3.1646	-2.5271	179.820	390.746	362.468	437.322	477.177	291.120	458.348	389.910	332.616	486.993	442.708	179.918	234.604	165.180	258.755	158.891	0.0014377	0.00037481	0.00013305	371.73	1.9958e-06	6.2249e-06	951.69	108.44	5.1417e-06	8.8334e-06	390.45	169.81	46.125	21.367	5.9373e-06	90.092	0.00056646	0.00038753	0.00010663	328.6	4.1969e-06	4.192e-06	829.64	94.47	4.0479e-06	4.169e-06	344.61	148.83	40.156	18.967	4.2405e-06	79.655	143.014	237.280	201.178	155.598	209.424	292.302	155.433	160.489	290.864	299.997	160.059	163.479	163.996	168.579	271.507	167.057	-8191	255	
4124.684	1	1	0	0	0.086244	0.20504	0.33338	0.1233	0.3303	0.22888	0.48665	0.16952	0.2954	0.10544	0.19589	0.13209	0.26592	0.14379	0.073061	0.13786	-2.4917	-2.9146	-2.4229	-3.2479	-2.8604	-2.7125	-3.3438	-2.7104	-2.7958	-3.1833	-2.3	-3.2917	-2.8	-2.575	-3.2896	-2.6042	342.072	330.353	325.765	349.456	494.606	352.208	434.163	495.070	289.777	380.974	473.901	209.809	458.939	283.250	225.004	277.537	0.0013937	0.00062854	0.00012209	380.31	4.47e-06	4.8225e-06	953.7	108.85	4.3648e-06	2.8459e-06	389.86	169.61	46.184	21.655	6.8537e-06	89.702	0.00055818	0.00039375	0.00010715	330.19	4.1007e-06	4.2444e-06	830.35	94.829	4.207e-06	4.3674e-06	344.14	148.8	40.057	19.11	4.1326e-06	79.447	146.495	241.955	200.287	155.173	275.238	269.933	155.539	161.303	254.464	289.504	160.051	163.530	162.979	168.178	286.365	167.200	-8191	255	
4124.780	1	1	0	0	0.078558	0.19997	0.3429	0.052501	0.17431	0.11707	0.13028	0.10972	0.18724	0.18137	0.1251	0.20388	0.17339	0.18682	0.057201	0.29192	-2.4729	-3.0812	-2.4562	-3.075	-2.9583	-2.5604	-3.2438	-2.6312	-2.5708	-3.3375	-2.4396	-3.0646	-3.0375	-2.5479	-3.2354	-2.6792	499.778	437.309	252.699	239.847	470.888	211.782	404.895	312.567	302.222	498.084	368.600	175.871	272.127	195.062	199.724	147.734	0.0014019	0.00060892	0.00024559	377.34	2.979e-06	9.4667e-06	946.56	108.48	7.9101e-06	7.3124e-06	394.45	170.31	46.42	21.489	7.5354e-06	90.291	0.00056877	0.00039627	0.00010425	327.71	4.028e-06	4.3817e-06	828.18	94.625	4.2313e-06	3.9066e-06	345.73	148.8	40.074	19.033	4.0884e-06	79.643	501.770	205.397	234.516	155.088	272.974	281.476	155.859	161.203	287.247	280.618	159.938	163.671	163.656	168.639	284.187	166.842	-8191	255	
4124.901	1	1	0	0	0.065607	0.14231	0.10369	0.12964	0.2965	0.029805	0.14535	0.11857	0.1796	0.064303	0.12183	0.1629	0.029513	0.27326	0.22355	0.35113	-2.1625	-3.1729	-2.4104	-3.0875	-3.0458	-2.5125	-3.275	-2.8042	-2.6521	-3.2604	-2.5812	-2.9833	-3.0979	-2.6146	-3.1083	-2.9583	392.744	244.578	224.807	462.350	170.899	317.469	395.028	333.305	426.169	479.802	468.543	451.939	210.274	492.826	342.230	430.590	0.0013771	0.000314	0.00016354	376.56	4.2433e-06	3.1166e-06	947.89	108.72	2.4312e-06	7.2026e-06	394.53	170.36	46.111	21.644	2.5891e-06	90.17	0.00056433	0.00036108	0.00010419	329.62	4.0172e-06	4.1251e-06	829.61	94.932	3.8582e-06	4.2967e-06	346.25	148.93	39.947	19.116	4.0051e-06	79.797	146.291	215.422	198.663	155.664	255.769	339.766	155.851	161.066	292.956	279.250	160.034	163.859	163.572	168.333	315.671	167.465	-8191	255	
4124.997	1	1	0	0	0.15976	0.13988	0.13836	0.085313	0.22765	0.15788	0.33384	0.24405	0.10144	0.06851	0.19499	0.099123	0.11101	0.35441	0.16107	0.28982	-2.0271	-3.2104	-2.5292	-2.8625	-3.325	-2.4979	-3.0854	-2.8812	-2.2854	-3.2958	-2.6688	-2.8563	-3.0792	-2.4729	-3.0146	-3.2562	343.364	451.998	204.614	404.034	261.621	481.096	446.722	167.634	178.113	433.982	394.422	442.702	211.874	492.416	217.188	458.976	0.0012982	0.00042596	0.00013253	375.44	3.4857e-06	1.0218e-05	956.25	108.37	2.4144e-06	4.6954e-06	392.94	170.26	46.563	21.989	4.5029e-06	90.842	0.00055216	0.0003813	0.00011124	329.28	3.9229e-06	4.3319e-06	834.67	94.674	4.1786e-06	3.9908e-06	345.74	149.57	40.203	19.231	4.3417e-06	80.157	147.274	266.900	286.128	156.152	336.170	318.033	156.156	161.133	321.286	287.623	160.371	163.633	163.517	168.885	254.267	167.172	-8191	255	
4125.092	1	1	0	0	0.14565	0.34551	0.27514	0.030801	0.13982	0.086227	0.2511	0.37269	0.10064	0.052125	0.14418	0.18996	0.16115	0.10621	0.26603	0.35707	-2.0125	-3.1729	-2.5583	-2.7	-3.2625	-2.6229	-3.1354	-3.1104	-2.2708	-3.3604	-2.85	-2.6583	-3.2333	-2.5875	-2.7875	-3.3229	331.593	374.205	236.347	497.310	389.884	502.741	488.964	378.405	209.864	473.342	477.802	392.671	400.608	199.056	156.926	475.603	0.0014194	0.00079706	0.00017545	374.93	3.361e-06	4.6999e-06	945.61	108.45	9.6482e-06	8.0456e-06	391.77	170.95	46.393	21.528	6.1304e-06	90.219	0.0005713	0.00039142	0.00010812	327.89	4.1434e-06	4.2912e-06	828.75	94.83	4.3367e-06	4.0625e-06	345.15	149.43	40.309	19.078	4.2151e-06	79.831	145.753	213.492	228.822	155.516	284.818	290.809	155.680	161.115	266.141	301.005	159.742	163.463	164.087	168.547	287.145	167.003	-8191	255	
4125.188	1	1	0	0	0.23295	0.18477	0.21729	0.12819	0.18198	0.20105	0.13949	0.053786	0.34645	0.02563	0.27014	0.22224	0.17784	0.3482	0.27661	0.28986	-2.0542	-3.2833	-2.7812	-2.6979	-3.4792	-2.4188	-3.1771	-3.0417	-2.3125	-3.0854	-3.0146	-2.5833	-3.1792	-2.6021	-2.7604	-3.2812	443.722	186.672	146.762	483.362	219.921	427.044	383.268	279.377	366.133	352.657	388.785	383.199	474.553	469.190	261.210	466.496	0.0014468	0.00074196	0.00012774	375.94	7.2543e-06	3.496e-06	944.13	108.33	2.5996e-06	3.8743e-06	393.85	170.08	45.788	21.84	6.983e-06	90.86	0.00056928	0.00037956	0.00010464	328.74	4.0019e-06	4.2122e-06	829.5	94.86	4.2438e-06	4.271e-06	344.95	149.31	40.163	19.16	4.2612e-06	80.118	143.921	218.912	223.746	155.525	281.878	269.980	155.402	160.170	256.263	295.378	159.928	163.592	163.610	168.549	274.135	167.362	-8191	255	
4125.308	1	1	0	0	0.076159	0.29965	0.23259	0.078984	0.12064	0.1944	0.091603	0.15214	0.16103	0.13174	0.17023	0.36084	0.14562	0.28904	0.25549	0.18679	-2.2562	-3.1396	-2.975	-2.4146	-3.2354	-2.7167	-2.8833	-3.1625	-2.5583	-3.0875	-2.9396	-2.5729	-3.0875	-2.75	-2.6667	-3.3333	153.983	465.836	169.065	398.857	185.307	492.143	442.400	412.139	314.573	232.207	481.981	454.815	497.788	245.425	278.310	398.200	0.0012989	0.00074615	9.0368e-05	372.05	6.0368e-06	8.8835e-06	953.03	109.32	1.1727e-05	8.1184e-06	393.93	170.19	45.633	21.624	3.0724e-06	91.082	0.00055846	0.00037227	0.00010278	328.91	4.0788e-06	4.2004e-06	832.13	95.047	4.1198e-06	4.1688e-06	345.57	149.42	39.888	19.188	4.232e-06	80.58	143.882	266.541	239.581	155.613	290.417	291.403	155.801	161.632	292.550	262.403	160.173	163.378	164.435	168.410	277.080	167.051	-8191	255	
4125.380	1	1	0	0	0.18711	0.11843	0.043342	0.22075	0.33193	0.15152	0.22471	0.1393	0.10561	0.40621	0.27635	0.049447	0.23262	0.30947	0.13033	0.19628	-2.0125	-2.9625	-2.95	-2.4625	-3.1271	-2.7417	-2.6833	-3.1229	-2.4188	-2.9667	-3.0875	-2.4979	-3.1417	-2.7333	-2.6021	-3.3583	243.658	228.337	353.409	342.104	243.126	409.672	434.044	214.265	435.392	315.692	481.493	330.080	149.841	389.037	459.158	425.663	0.0013322	0.00068739	8.0047e-05	378.02	2.6189e-06	5.029e-06	953.99	108.3	5.0764e-06	7.049e-06	394.21	170.25	46.188	21.472	5.4238e-06	90.735	0.00055946	0.00039797	0.00010239	329.59	4.0578e-06	4.1956e-06	833.09	94.849	4.3181e-06	4.3206e-06	346.48	149.35	40.264	19.086	4.291e-06	80.209	147.405	241.708	204.392	155.294	261.457	308.869	155.427	160.802	282.829	289.028	159.993	163.610	162.910	168.135	261.403	167.113	-8191	255	
4125.476	1	1	0	0	0.15574	0.181	0.42133	0.20703	0.079846	0.12943	0.12808	0.074266	0.059806	0.14022	0.2478	0.073606	0.10962	0.16554	0.089976	0.22304	-2.0521	-2.85	-3.2	-2.4562	-3.2646	-2.9292	-2.65	-3.1354	-2.6104	-2.7583	-3.2625	-2.375	-3.0083	-2.8583	-2.6479	-3.2917	322.257	195.297	252.489	274.813	198.193	428.411	385.003	431.704	478.780	418.654	386.915	275.187	478.898	413.037	424.281	499.143	0.0013312	0.00046319	0.00021982	376.45	6.4497e-06	5.1795e-06	949.19	108.56	4.2523e-06	9.3833e-06	391.44	168.52	46.458	21.556	9.9305e-06	90.208	0.00056304	0.00039559	0.00010112	328.85	4.2709e-06	4.2707e-06	827.59	94.815	4.1635e-06	4.3822e-06	345.27	148.31	40.14	19.005	4.2622e-06	79.904	143.848	188.846	218.172	155.764	287.813	334.209	155.653	161.195	256.495	319.642	160.068	163.613	163.154	168.588	268.248	167.223	-8191	255	
4125.572	1	1	0	0	0.060282	0.058045	0.18714	0.074303	0.18918	0.31506	0.34362	0.11247	0.059159	0.1547	0.033529	0.33397	0.15652	0.19027	0.21088	0.05389	-2.2208	-2.775	-3.1063	-2.5083	-2.9875	-2.8583	-2.4729	-3.1604	-2.5687	-2.7333	-3.3104	-2.5104	-2.8937	-2.9313	-2.3563	-3.2375	204.998	324.131	367.980	184.420	302.852	389.332	425.402	235.943	353.315	423.243	181.270	425.446	329.333	389.258	426.238	386.075	0.0014179	0.00077995	6.9483e-05	373.69	4.3909e-06	5.4794e-06	944.18	107.33	2.9858e-06	4.1214e-06	393.3	169.38	46.292	21.687	4.6261e-06	90.134	0.00056125	0.00039782	0.00010676	329.54	4.2266e-06	4.0841e-06	829.11	94.536	4.024e-06	4.2474e-06	345.67	148.73	39.971	19.045	4.2893e-06	79.749	144.189	254.204	215.617	155.477	234.429	340.992	155.591	160.592	301.179	277.677	159.849	163.527	163.037	168.586	253.746	167.105	-8191	255	
4125.693	1	1	0	0	0.17108	0.093056	0.16874	0.16562	0.096444	0.1215	0.27741	0.17329	0.1459	0.29668	0.21548	0.26519	0.25461	0.1674	0.051454	0.030949	-2.2792	-2.5896	-3.0646	-2.4417	-3.0604	-3.0083	-2.5687	-3.2646	-2.8	-2.4833	-3.1458	-2.7333	-2.6958	-3.0312	-2.2854	-3.3646	316.521	170.954	143.116	381.394	203.761	370.286	389.050	346.942	434.279	408.501	441.278	488.886	432.621	461.077	445.863	433.476	0.0014056	0.00032411	0.0001094	373.4	7.2124e-06	1.1232e-06	948.61	109.7	4.3093e-06	5.3998e-06	393.14	169.61	45.856	21.488	4.0949e-06	90.63	0.00056531	0.00038677	0.0001076	327.88	4.2197e-06	4.3024e-06	830.09	95.518	4.1933e-06	4.2315e-06	346.91	148.84	40.019	18.983	4.2038e-06	80.034	143.358	228.919	217.749	155.164	271.506	287.700	155.816	160.951	241.093	320.613	159.808	163.850	163.868	168.443	284.133	167.406	-8191	255	
4125.789	1	1	0	0	0.24577	0.11857	0.22176	0.082793	0.18598	0.14845	0.13795	0.17782	0.055434	0.12442	0.24241	0.11303	0.070576	0.081301	0.25347	0.31765	-2.5563	-2.425	-3.1792	-2.7208	-2.8542	-3.1646	-2.4938	-3.025	-2.9	-2.3646	-3.4667	-2.6188	-2.6375	-3.175	-2.3	-3.325	314.155	159.304	275.269	163.570	488.582	433.061	185.142	327.920	272.139	486.306	432.251	479.550	194.736	324.029	341.574	458.969	0.0013758	0.0008332	0.00020109	379.02	2.5087e-06	6.7924e-06	945.81	107.86	3.6868e-06	7.4549e-06	391.84	169.46	46.693	21.271	6.2123e-06	89.989	0.00056005	0.00038708	0.00010458	330.8	4.2141e-06	4.1904e-06	828.21	94.599	4.0063e-06	4.125e-06	343.97	148.14	40.101	18.971	4.4066e-06	79.632	146.095	227.843	186.071	155.758	253.333	322.920	155.553	161.340	269.736	275.764	160.037	163.432	163.185	168.556	236.213	167.254	-8191	255	
4125.883	1	1	0	0	0.14724	0.16241	0.13612	0.15668	0.092698	0.096177	0.15233	0.20694	0.11138	0.18529	0.041364	0.19415	0.2328	0.080594	0.11563	0.18225	-2.6875	-2.4188	-3.2292	-2.9208	-2.6562	-3.1937	-2.4396	-3.0708	-2.9479	-2.4958	-3.1708	-2.7583	-2.4396	-3.175	-2.6188	-2.9167	375.444	302.694	318.494	166.672	388.727	212.866	435.642	324.989	332.671	341.514	160.265	488.862	303.391	403.186	471.587	444.578	0.0013762	8.6947e-05	0.00017839	377	5.3258e-06	2.6534e-06	949.99	108.3	3.1858e-06	7.0514e-06	387.74	168.26	45.101	21.333	6.0376e-06	90.009	0.00055781	0.00039962	0.00011348	329.16	4.1476e-06	4.352e-06	825.77	94.574	4.0003e-06	4.4917e-06	341.83	147.47	39.827	18.884	4.2376e-06	79.374	143.413	254.125	223.471	156.019	263.862	270.530	155.837	161.149	290.258	294.131	159.780	163.344	163.772	167.786	255.962	167.317	-8191	255	
4125.981	1	1	0	0	0.17181	0.26418	0.26763	0.23792	0.23116	0.23495	0.30604	0.11275	0.11956	0.098265	0.14691	0.18572	0.27157	0.10248	0.20353	0.11961	-2.6771	-2.2938	-3.0687	-2.5958	-2.5563	-3.225	-2.4104	-2.7562	-2.9562	-2.45	-2.9229	-2.8646	-2.5208	-3.1188	-2.525	-2.7438	195.018	329.771	396.704	187.153	493.228	196.719	389.009	146.994	245.608	386.759	208.359	473.826	382.838	144.614	191.665	436.467	0.0013671	0.00024193	0.00015952	380.95	4.1107e-06	2.939e-06	942.59	107.8	4.8293e-06	4.8573e-06	389.36	167.72	45.707	21.306	4.7456e-06	89.569	0.00055856	0.000384	0.00010866	331.22	4.2245e-06	4.2411e-06	822.24	94.492	4.2095e-06	4.3337e-06	341.51	147.11	39.846	18.845	4.3332e-06	79.403	146.453	213.978	233.909	155.759	267.032	328.679	155.698	160.757	318.461	320.480	159.993	163.596	163.264	168.026	239.131	167.009	-8191	255	
4126.078	1	1	0	0	0.28919	0.23018	0.08299	0.20838	0.30645	0.072325	0.15401	0.1473	0.12183	0.027468	0.20962	0.31407	0.03516	0.087891	0.1186	0.2642	-2.7208	-2.3292	-2.9938	-2.8438	-2.4396	-3.175	-2.7562	-2.8271	-3.2896	-2.4146	-3.1229	-3.1708	-2.35	-3.3208	-2.6979	-2.6521	200.725	359.724	188.444	467.988	495.699	394.812	449.863	465.363	304.781	499.053	385.026	475.489	393.042	144.947	326.275	462.390	0.0013504	0.00023757	0.000133	374.61	5.1274e-06	2.6687e-06	946.49	106.81	4.0365e-06	3.2273e-06	387.66	167.29	45.071	21.267	6.5551e-06	89.765	0.00054855	0.00040443	0.00010623	329.91	4.2239e-06	4.2103e-06	825.78	94.391	3.9454e-06	4.339e-06	341.14	147	39.725	18.86	4.0393e-06	79.33	502.265	219.118	244.105	156.034	296.196	234.720	155.478	161.021	280.094	298.097	160.327	163.305	162.648	168.696	269.379	166.444	-8191	255	
4126.172	1	1	0	0	0.070913	0.10533	0.065216	0.085975	0.04537	0.17206	0.50849	0.2839	0.11084	0.11399	0.048905	0.095709	0.1188	0.22945	0.28153	0.21863	-2.6729	-2.5458	-3.0208	-2.9688	-2.3083	-3.0396	-2.7646	-2.575	-3.3396	-2.3292	-2.8396	-3.1583	-2.4875	-3.1104	-2.8125	-2.6708	314.784	444.209	464.916	218.907	208.365	398.545	442.546	181.553	424.548	249.946	466.076	238.959	153.897	241.260	454.815	427.567	0.0013493	0.00052352	7.6611e-05	378.16	6.6093e-06	5.4222e-06	939.8	106.52	6.4058e-06	4.8972e-06	387.77	166.82	45.343	21.155	6.3267e-06	89.42	0.00055362	0.00039702	0.00011109	330.52	4.2409e-06	4.3474e-06	820.76	93.641	4.1721e-06	4.3792e-06	341.91	146.77	39.6	18.771	4.0834e-06	78.819	499.215	211.569	282.100	154.786	294.954	238.086	155.528	161.082	255.503	254.761	159.659	163.453	163.020	168.499	266.902	167.298	-8191	255	
4126.268	1	1	0	0	0.099593	0.21421	0.070112	0.055885	0.052947	0.10863	0.18638	0.36927	0.13606	0.1739	0.20856	0.10171	0.13528	0.10238	0.34832	0.18025	-2.7	-2.5708	-2.7062	-3.2521	-2.45	-3.1	-2.8625	-2.5333	-3.2396	-2.6292	-2.7875	-3.0542	-2.2917	-2.8812	-3.0229	-2.6333	309.988	417.437	154.723	400.609	169.308	498.556	422.702	440.085	437.288	145.592	417.520	481.477	378.794	481.161	173.598	419.282	0.0013989	0.00088334	9.8212e-05	376.22	5.7145e-06	8.7206e-06	940.1	106.83	6.1041e-06	1.0291e-05	389.37	168.2	45.179	21.141	4.2274e-06	88.903	0.00055211	0.0003975	0.00010324	328.94	4.1575e-06	4.1766e-06	823.57	93.724	4.0083e-06	4.0219e-06	341.38	147.02	39.463	18.674	4.1295e-06	78.834	143.085	232.359	195.539	154.939	312.645	317.154	155.066	160.528	274.550	303.797	160.034	163.526	163.704	168.342	267.703	167.398	-8191	255	
4126.389	1	1	0	0	0.21062	0.16099	0.13022	0.074146	0.037228	0.1313	0.41212	0.20052	0.074507	0.20143	0.14938	0.23596	0.36676	0.17773	0.12989	0.20175	-2.8312	-2.5875	-2.6083	-3.2417	-2.3729	-2.9875	-3.1604	-2.4437	-2.9437	-2.6958	-2.5438	-3.3646	-2.3375	-3.0667	-3.1063	-2.4271	191.580	464.783	391.356	445.659	490.985	290.674	467.979	443.016	262.438	339.006	499.865	437.092	143.099	492.972	354.982	490.371	0.0013752	0.00065974	0.00011769	376.64	5.1634e-06	7.5652e-06	949.56	107.13	4.445e-06	8.5354e-07	387.79	167.39	44.518	20.738	7.0444e-06	88.327	0.0005423	0.00039594	0.00010956	329.26	4.1546e-06	4.2927e-06	827.02	94.066	4.1229e-06	4.3796e-06	340.99	147.02	39.147	18.513	4.2516e-06	78.52	147.725	254.249	215.144	154.663	288.494	288.462	155.073	160.993	301.439	313.664	159.733	163.181	163.020	168.419	260.487	166.978	-8191	255	
4126.485	1	1	0	0	0.0404	0.17392	0.14513	0.16018	0.20898	0.18137	0.20474	0.29126	0.17025	0.18101	0.16735	0.039874	0.18238	0.14497	0.13763	0.21037	-2.7646	-2.5812	-2.3646	-3.1854	-2.3812	-2.775	-3.1562	-2.3104	-2.9104	-2.8396	-2.5375	-3.1521	-2.5438	-2.7854	-2.9896	-2.4979	431.039	435.299	480.582	447.297	303.207	175.174	434.894	210.410	411.055	492.174	185.395	324.670	413.248	173.492	160.658	424.198	0.0013295	0.000566	0.00019408	378.25	8.2197e-07	3.8913e-06	940.41	106.72	7.9033e-06	1.0951e-06	386.67	165.17	44.523	20.727	7.0135e-06	87.909	0.00054959	0.00039743	0.00010882	330.82	4.4084e-06	4.1072e-06	822.02	93.189	4.1364e-06	4.1963e-06	338.88	145.52	38.697	18.388	4.0848e-06	77.778	145.025	213.711	233.352	154.911	334.652	290.412	154.911	159.968	274.841	424.126	159.874	163.307	162.677	168.182	273.989	166.743	-8191	255	
4126.581	1	1	0	0	0.14845	0.22418	0.25739	0.11347	0.26025	0.050169	0.14063	0.27083	0.071617	0.37434	0.20439	0.073396	0.19409	0.13731	0.24946	0.12151	-2.6792	-2.8417	-2.3021	-3.0979	-2.5417	-2.5417	-3.1542	-2.2708	-3.0104	-2.7125	-2.5833	-3.3146	-2.5	-2.6229	-3.0667	-2.5208	162.353	174.562	452.954	426.699	351.198	235.893	414.030	425.084	205.425	363.258	424.495	399.850	148.338	242.964	480.097	385.837	0.001366	0.00090065	0.0001689	371.01	5.0147e-06	3.4526e-06	931.12	104.6	3.136e-06	5.1147e-06	382.03	165.71	44.758	20.636	2.5068e-06	87.441	0.00054784	0.00040789	0.00010882	326.85	3.9038e-06	4.2159e-06	812.3	92.342	4.1549e-06	4.269e-06	333.63	144.77	38.867	18.266	4.0452e-06	77.525	145.077	240.068	230.276	155.667	321.595	296.185	155.627	160.425	275.562	265.191	159.398	163.371	162.121	167.896	267.732	166.951	-8191	255	
4126.677	1	1	0	0	0.16155	0.072375	0.14502	0.042202	0.13521	0.083895	0.27688	0.18326	0.082088	0.12393	0.44297	0.26994	0.14229	0.17416	0.032459	0.22839	-2.3646	-2.9042	-2.3333	-3.1312	-2.6813	-2.5917	-3.2729	-2.2062	-2.7667	-3.125	-2.5125	-3.2771	-2.7104	-2.4104	-3.1708	-2.5646	314.092	428.649	370.257	483.779	264.208	334.447	491.377	188.556	160.293	319.600	479.043	168.212	178.817	154.923	354.847	460.380	0.0013408	0.00057295	0.00011379	375.37	6.8728e-06	5.3339e-06	933.48	105.44	3.3365e-06	1.5456e-06	378.81	164.21	43.611	20.454	5.0722e-06	87.538	0.00053155	0.0003854	0.00010667	326.6	3.9956e-06	4.4432e-06	813.28	91.689	4.0933e-06	4.2096e-06	333.26	144.35	38.583	18.15	3.9632e-06	77.493	502.095	242.707	264.322	155.142	277.906	266.105	155.098	160.993	280.771	271.369	159.853	163.499	162.337	168.257	258.994	166.987	-8191	255	
4126.773	1	1	0	0	0.19484	0.090346	0.099601	0.14588	0.12092	0.17221	0.31418	0.0075823	0.19696	0.053706	0.32106	0.082425	0.33602	0.14469	0.072332	0.17606	-2.4979	-2.9521	-2.375	-2.9896	-2.7812	-2.4458	-3.1729	-2.4667	-2.6854	-3.1333	-2.3479	-2.9813	-2.9458	-2.4271	-3.1937	-2.8333	438.727	285.389	195.248	473.553	410.361	284.650	430.435	379.428	389.962	227.856	486.988	189.943	280.198	457.423	164.778	432.711	0.0013621	0.00038197	0.0001904	369.99	8.6227e-06	6.1363e-06	931.83	105.37	6.8384e-06	3.1689e-06	380.39	164.79	44.316	20.633	6.1906e-06	88.137	0.00056114	0.00037983	0.00010847	325.02	4.2832e-06	4.3162e-06	816.52	92.073	4.0283e-06	4.0893e-06	336.22	145.08	38.671	18.249	4.0825e-06	77.911	142.529	209.262	252.586	155.705	281.687	298.877	155.132	160.313	292.959	298.926	159.691	162.933	162.530	168.834	287.458	166.706	-8191	255	
4126.869	1	1	0	0	0.19072	0.091385	0.25202	0.1232	0.22472	0.15344	0.26561	0.19818	0.068546	0.053503	0.19534	0.063757	0.19788	0.073175	0.082623	0.17282	-2.2104	-3.0896	-2.4792	-3.1479	-2.8	-2.3604	-3.2812	-2.6292	-2.3917	-3.375	-2.5917	-3.0479	-3.0458	-2.425	-3.3	-2.8292	183.358	341.709	463.006	470.207	416.712	437.213	458.506	453.243	404.843	353.092	177.668	242.153	225.479	452.408	428.402	416.624	0.0014478	0.00080633	0.00015209	373.56	4.0398e-06	7.6705e-06	932.83	104.59	5.792e-06	5.9683e-06	384.97	165.05	44.303	20.858	5.6902e-06	88.066	0.00056137	0.00037248	0.00010172	326.07	4.1385e-06	4.4613e-06	813.46	92.104	4.0065e-06	4.1217e-06	336.78	145.36	38.565	18.39	3.9963e-06	78.222	149.596	224.406	250.003	154.817	263.284	327.282	155.135	160.588	254.732	283.903	158.939	163.305	162.688	168.150	296.455	166.899	-8191	255	
4126.988	1	1	0	0	0.43704	0.10014	0.23169	0.1068	0.1536	0.18737	0.2015	0.13675	0.17243	0.17022	0.20244	0.099962	0.092798	0.22522	0.13826	0.23839	-2.1312	-3.1854	-2.3708	-2.9271	-3.0396	-2.2958	-3.2146	-2.8625	-2.5208	-3.075	-2.4771	-2.8937	-3.0396	-2.275	-3.0521	-2.9062	352.223	150.588	154.305	237.198	253.285	361.383	438.689	390.326	411.645	327.206	462.209	445.467	477.508	256.038	218.696	461.446	0.0013604	0.0006068	0.00011093	371.85	5.7078e-06	4.2064e-06	932.2	104.86	5.4924e-06	3.3753e-06	386.63	166.96	45.196	20.919	4.5341e-06	88.594	0.0005515	0.00038409	0.00010854	324.51	4.0949e-06	4.2726e-06	815.67	92.438	3.8841e-06	3.9871e-06	339.42	146.55	39.062	18.555	4.0677e-06	78.672	148.718	266.201	208.437	155.409	266.440	317.627	155.056	159.779	273.394	269.073	159.722	163.045	163.005	168.017	295.655	166.962	-8191	255	
4127.084	1	1	0	0	0.035269	0.10524	0.040879	0.14342	0.099058	0.18704	0.10832	0.16414	0.084549	0.26746	0.035973	0.31338	0.11219	0.091364	0.064041	0.29494	-1.7396	-3.1604	-2.475	-2.6708	-3.1125	-2.325	-3.1729	-2.9	-2.3812	-2.9396	-2.4646	-2.8563	-3.1396	-2.5312	-2.8896	-2.9354	448.532	374.495	304.093	444.609	241.476	430.616	486.248	285.363	208.309	227.490	365.747	475.770	208.110	353.561	148.052	477.661	0.0013287	0.00040207	8.0661e-05	370.43	2.938e-06	6.3303e-06	939.48	106.04	4.2801e-06	3.5149e-06	391.01	168.6	44.702	20.917	4.9833e-06	89.119	0.00054375	0.0003862	0.00010851	324.68	3.999e-06	4.0432e-06	825	92.99	4.1012e-06	4.0322e-06	343.99	147.51	39.311	18.548	4.1585e-06	78.997	145.260	190.346	212.539	155.713	328.556	288.879	155.345	160.722	267.151	299.908	159.681	163.245	163.095	168.306	275.782	166.891	-8191	255	
4127.181	1	1	0	0	0.076404	0.018344	0.24414	0.12341	0.34108	0.20968	0.17479	0.16104	0.33103	0.16231	0.29232	0.22199	0.18556	0.10822	0.20404	0.25166	-2.1083	-3.1542	-2.4771	-2.6125	-3.1688	-2.4188	-3.0229	-2.9896	-2.4167	-3.35	-2.8125	-2.4667	-3.1167	-2.3375	-2.9458	-3.1896	449.961	396.942	306.554	458.628	501.153	410.320	434.634	444.909	228.856	377.024	449.265	460.212	232.489	358.069	371.903	499.960	0.0013575	0.00040202	0.0001417	375.56	4.3563e-06	3.0534e-06	940.86	105.43	6.3415e-06	4.8011e-06	387.41	167.07	44.825	21.107	7.4212e-06	88.671	0.00056614	0.0003831	0.00010824	327	4.2069e-06	4.3144e-06	822.77	92.873	4.0677e-06	3.9399e-06	340.72	146.51	39.248	18.66	4.1666e-06	78.93	147.150	235.371	199.192	155.573	264.290	261.141	155.602	160.544	293.191	295.958	159.507	163.244	162.152	168.368	244.469	166.967	-8191	255	
4127.252	1	1	0	0	0.17188	0.055196	0.21273	0.037911	0.081025	0.075732	0.052074	0.18101	0.21316	0.10927	0.18489	0.1783	0.14416	0.19471	0.1166	0.075971	-1.9312	-3.1167	-2.6562	-2.4667	-3.0396	-2.3563	-2.7562	-3.0542	-2.2812	-3.2687	-3.0333	-2.4229	-3.1604	-2.5042	-2.7292	-3.2667	181.681	147.176	415.001	376.357	333.873	187.495	152.224	411.116	410.062	489.563	483.952	248.328	177.957	457.395	249.969	341.544	0.0013398	0.00077769	0.00015931	371.05	7.7038e-06	4.3854e-06	934.08	106.57	5.5209e-06	3.8513e-06	387.24	168.3	44.536	21.015	3.829e-06	88.957	0.00056611	0.00038194	0.00010515	325	4.1762e-06	4.1652e-06	817.13	93.108	4.1492e-06	4.0313e-06	340.33	147.05	39.006	18.532	4.2103e-06	78.726	144.790	214.663	209.029	155.357	268.655	329.028	155.523	160.306	238.139	284.753	160.102	163.462	162.919	168.144	283.030	166.825	-8191	255	
4127.348	1	1	0	0	0.29353	0.14025	0.16548	0.18311	0.18958	0.13611	0.016278	0.28323	0.080673	0.22492	0.092276	0.21329	0.074659	0.14537	0.087251	0.11047	-2.1583	-2.9437	-2.7917	-2.4062	-3.1708	-2.7521	-2.6604	-3.0563	-2.2896	-2.8812	-2.9958	-2.3979	-3.3104	-2.6021	-2.5083	-3.2	284.094	391.388	314.958	363.451	328.292	257.596	491.633	316.619	237.152	450.693	166.943	389.979	236.314	410.213	312.495	177.558	0.0013533	0.00048177	0.00014147	375.79	4.4704e-06	5.9485e-06	942.3	106.44	5.4383e-06	1.593e-06	389.07	168.54	44.813	20.831	3.0823e-06	89.914	0.0005553	0.00038828	0.00010466	327.8	4.0792e-06	4.2217e-06	821.72	93.14	4.1504e-06	4.3038e-06	342.33	147.47	39.167	18.484	4.3106e-06	79.309	143.845	240.501	261.265	155.570	302.204	274.320	155.295	160.659	257.820	231.369	159.778	163.210	163.008	168.341	272.652	167.280	-8191	255	
4127.469	1	1	0	0	0.048067	0.036524	0.14458	0.084732	0.18146	0.14265	0.15973	0.17273	0.057771	0.13051	0.23895	0.18844	0.25623	0.23021	0.041972	0.19871	-1.9917	-3.0187	-2.8833	-2.4458	-3.0896	-2.7583	-2.3979	-3.2354	-2.3563	-2.8458	-3.2521	-2.5625	-3.025	-2.8542	-2.45	-3.5167	285.822	344.470	382.034	366.881	192.639	294.355	415.537	427.654	351.418	214.905	150.568	453.137	161.633	424.978	394.573	363.720	0.0013383	0.00054042	8.6283e-05	377.98	4.0271e-06	4.1239e-06	946.76	106.58	1.2095e-06	5.1679e-06	390.59	168.75	44.633	20.801	7.2566e-06	89.459	0.00055728	0.00039072	0.00010604	327.17	3.8315e-06	4.1874e-06	827.94	93.392	4.1676e-06	4.3702e-06	343.58	148.29	39.197	18.618	4.205e-06	79.208	147.250	225.110	281.511	155.135	329.787	300.402	155.233	160.791	383.438	288.941	159.683	163.300	162.582	167.820	326.427	167.190	-8191	255	
4127.565	1	1	0	0	0.18276	0.08527	0.15062	0.017864	0.16727	0.23188	0.28378	0.13029	0.1495	0.036474	0.12342	0.12241	0.095698	0.058471	0.059538	0.096757	-1.9958	-2.8312	-3.0792	-2.3708	-3.2708	-2.7771	-2.6479	-3.3292	-2.4896	-2.6229	-3.2458	-2.5396	-3.1792	-2.9125	-2.5479	-3.1917	370.940	454.924	147.388	326.589	269.780	448.326	430.095	204.615	467.927	437.081	471.922	461.181	473.981	230.459	280.555	404.918	0.0014016	0.00077021	9.6032e-05	375.36	2.9803e-06	4.0747e-06	945.43	106.98	5.1747e-06	3.3512e-06	387.95	167.53	45.221	20.978	2.9285e-06	89.253	0.0005535	0.00037659	0.00010913	327.52	3.9513e-06	4.2023e-06	826.29	93.584	4.0071e-06	4.1954e-06	341.77	147.35	39.355	18.559	4.0708e-06	79.023	145.597	244.047	242.318	156.143	250.512	304.028	155.486	160.801	282.014	308.667	159.742	163.329	163.201	168.657	324.023	166.898	-8191	255	
4127.661	1	1	0	0	0.23035	0.10283	0.30615	0.11349	0.073077	0.10725	0.27497	0.017375	0.36671	0.25144	0.10805	0.039918	0.20492	0.13249	0.11135	0.18101	-2.225	-2.6125	-3.0438	-2.3021	-3.0792	-2.8708	-2.4667	-3.0708	-2.6312	-2.6729	-3.1562	-2.5229	-2.8271	-2.9083	-2.3708	-3.2562	450.327	341.247	263.410	472.634	247.684	466.570	394.697	186.560	447.050	174.128	441.752	272.678	427.342	385.513	230.448	419.781	0.0013978	0.0004596	0.00017384	373.26	3.3041e-06	5.1395e-06	944.38	106.95	7.6962e-06	6.4489e-06	390.53	168.56	44.827	21.35	2.0255e-06	89.902	0.00056397	0.00039352	0.00010554	326.57	4.2102e-06	4.424e-06	826.73	93.662	4.0645e-06	4.1902e-06	343.71	148	39.303	18.816	4.5544e-06	79.641	144.303	222.808	204.099	154.944	302.000	295.394	155.339	160.446	280.041	301.808	159.678	163.266	163.280	168.370	437.091	167.344	-8191	255	
4127.780	1	1	0	0	0.17736	0.21442	0.15811	0.070421	0.13857	0.11639	0.28002	0.13042	0.14704	0.13889	0.30744	0.13535	0.11404	0.13587	0.20011	0.29782	-2.2792	-2.4583	-3.2104	-2.4333	-2.8583	-3.0125	-2.4771	-3.1688	-2.8083	-2.4542	-3.3458	-2.5375	-2.7917	-3.1021	-2.3875	-3.0458	438.552	443.035	257.519	482.192	215.921	392.162	386.455	175.710	471.043	486.649	468.663	459.207	460.971	188.552	271.003	467.213	0.0012878	0.00083818	0.00015101	370.79	6.3527e-06	6.1066e-06	952.11	107.13	2.2415e-06	3.1975e-06	398.67	169.32	46.101	21.547	4.2901e-06	91.37	0.00056456	0.00039584	0.00011001	325.13	4.2058e-06	4.19e-06	831.26	94.004	4.0888e-06	4.1342e-06	348.29	149.61	40.138	18.982	4.0715e-06	80.865	146.110	221.532	201.233	155.219	293.383	317.364	155.008	161.211	255.226	333.198	159.834	163.308	164.342	168.453	342.637	167.047	-8191	255	
4127.854	1	1	0	0	0.23585	0.1242	0.062218	0.22128	0.10323	0.20935	0.28472	0.19557	0.14068	0.14023	0.10377	0.032391	0.075362	0.052799	0.14354	0.38363	-2.625	-2.3208	-3.1562	-2.3958	-2.5854	-3.175	-2.6083	-2.8896	-2.7979	-2.5958	-3.3479	-2.6625	-2.6833	-3.3104	-2.3937	-3.2271	383.889	296.525	366.825	270.662	428.651	350.640	433.438	431.683	197.570	145.417	467.154	224.303	429.831	314.962	224.834	483.057	0.0013875	0.00034253	0.00021991	367.69	3.9144e-06	2.5393e-06	955.5	106.91	4.6208e-06	4.7862e-06	397.99	171.85	45.73	21.492	6.0639e-06	91.306	0.00055708	0.00038736	0.00010485	321.98	4.0452e-06	4.0427e-06	831.48	93.816	4.0655e-06	4.1969e-06	348.62	150.65	39.8	19.044	4.0256e-06	80.735	146.292	240.878	200.316	155.623	304.556	336.288	155.469	160.446	290.522	275.200	160.015	163.428	162.960	168.206	263.229	167.013	-8191	255	
4127.950	1	1	0	0	0.10452	0.24831	0.051683	0.22591	0.085115	0.029376	0.19042	0.19506	0.26143	0.2942	0.20557	0.24108	0.22126	0.20457	0.19308	0.12846	-2.6396	-2.4083	-3.1771	-2.7458	-2.5583	-3.1958	-2.6792	-2.8729	-3.0354	-2.3354	-3.1958	-2.7417	-2.5417	-3.0542	-2.425	-2.8479	360.664	471.299	433.454	455.434	472.430	246.360	487.441	476.201	347.831	260.759	478.903	172.918	412.856	462.704	160.422	457.541	0.0013523	0.00041492	0.00013642	369.19	5.5613e-06	3.6944e-06	947.94	107.88	5.5066e-06	3.5504e-06	397.16	172.01	45.841	21.627	5.2694e-06	91.432	0.00054633	0.00036824	0.00010585	324.15	4.2125e-06	3.8693e-06	826.69	94.034	4.0342e-06	4.0831e-06	348.31	150.36	39.998	19.068	4.098e-06	81.124	145.689	257.617	240.846	155.163	299.247	329.179	155.586	161.181	258.319	310.289	160.007	163.386	162.524	168.246	267.650	166.890	-8191	255	
4128.069	1	1	0	0	0.24953	0.30458	0.058307	0.15153	0.32245	0.24983	0.2664	0.10453	0.21657	0.27485	0.069506	0.1881	0.17216	0.25328	0.17045	0.02792	-2.5812	-2.3646	-3.0667	-2.7667	-2.4292	-3.3	-2.6813	-2.5875	-3.1958	-2.3729	-3.225	-3.0396	-2.25	-3.3312	-2.7458	-2.9292	164.517	222.694	490.207	357.736	171.090	461.248	464.587	486.026	338.763	497.182	160.088	492.129	279.291	461.617	449.822	150.861	0.0013654	0.00071321	0.0001537	368.39	2.3056e-06	5.4957e-06	943.09	107.31	4.5481e-06	3.7131e-06	398.18	173.48	46.131	21.592	4.0314e-06	91.793	0.00056483	0.0003804	0.00010405	320.81	4.1113e-06	4.0764e-06	827.57	94.173	3.9652e-06	4.1844e-06	349.58	151.68	40.41	19.073	3.9769e-06	81.28	145.498	203.718	203.892	154.714	331.881	282.219	155.396	160.602	249.018	284.006	160.361	163.498	163.753	167.702	222.025	166.888	-8191	255	
4128.165	1	1	0	0	0.070861	0.10113	0.17463	0.32773	0.27954	0.17332	0.22932	0.31189	0.21431	0.26728	0.10618	0.31124	0.19892	0.11987	0.07143	0.15879	-2.8146	-2.3312	-3.0625	-2.9	-2.4479	-3.1896	-2.9167	-2.4708	-3.0875	-2.4313	-3.0771	-3.0708	-2.4083	-3.0917	-2.6208	-2.5458	388.432	493.984	195.497	167.397	402.278	147.334	360.440	187.161	322.425	282.825	392.432	437.730	215.580	150.085	246.071	470.350	0.0013428	0.0003504	0.00018347	365.71	7.6347e-06	6.0029e-06	950.16	107.14	6.3746e-06	3.0769e-06	396.39	173.68	47.381	21.643	5.9399e-06	91.505	0.00055328	0.0003803	0.0001056	319.22	4.1986e-06	4.1814e-06	830.46	93.956	4.0839e-06	4.3219e-06	350.47	151.96	40.64	19.069	4.2142e-06	81.226	143.654	231.561	249.621	155.630	297.119	308.409	155.608	161.062	254.940	263.673	159.624	163.584	163.340	168.464	270.384	167.436	-8191	255	
4128.261	1	1	0	0	0.030181	0.1362	0.028954	0.095207	0.23198	0.15879	0.12807	0.25142	0.22819	0.19979	0.1366	0.38345	0.13154	0.18916	0.030166	0.37208	-2.9417	-2.3292	-2.9104	-3.1646	-2.3229	-3.1146	-3.0042	-2.5229	-2.9021	-2.5812	-2.9437	-3.1146	-2.3417	-3.2167	-2.9583	-2.5583	452.779	364.618	436.002	488.052	246.137	240.479	151.348	189.877	171.366	236.148	426.127	473.260	144.131	455.464	221.099	429.050	0.0013856	0.00072635	0.00013231	367.06	7.5785e-06	2.3396e-06	947.77	107.33	6.6727e-06	8.0353e-06	398.94	171.5	46.311	21.344	8.4945e-06	91.245	0.00055678	0.00040364	0.0001038	321.37	4.1161e-06	4.1859e-06	830.83	93.922	3.9021e-06	4.2124e-06	349.51	150.54	39.985	18.973	4.0212e-06	81.068	143.682	207.369	246.968	155.461	289.306	338.131	155.435	160.614	249.762	292.373	159.805	163.148	162.778	168.297	279.525	166.890	-8191	255	
4128.382	1	1	0	0	0.15247	0.11647	0.30075	0.096885	0.18133	0.093592	0.18139	0.15508	0.21805	0.125	0.14685	0.3306	0.12346	0.16626	0.16154	0.23942	-2.85	-2.6542	-2.8042	-3.2958	-2.3854	-3.2583	-3.0875	-2.5125	-3.125	-2.6688	-2.8708	-3.2604	-2.3479	-2.9479	-3.1625	-2.8208	389.810	501.471	217.141	446.437	246.023	424.827	146.187	174.982	235.573	482.471	234.803	460.676	411.464	387.714	200.226	398.951	0.0013615	0.00059697	0.00012668	367.09	5.6398e-06	3.8905e-06	954.41	107.68	6.0758e-06	5.4611e-06	399.42	171.96	46.046	21.643	8.8093e-06	91.771	0.00055703	0.00038157	0.00011142	321.84	4.1843e-06	4.2564e-06	828.99	94.135	4.2168e-06	4.0344e-06	351.45	151.24	40.072	19.139	4.3803e-06	81.109	144.615	249.752	150.566	154.923	297.652	298.355	155.419	160.536	269.100	290.721	159.681	163.100	162.639	168.315	227.240	167.220	-8191	255	
4128.478	1	1	0	0	0.18564	0.24222	0.058387	0.07037	0.29965	0.19428	0.11841	0.17841	0.10627	0.10846	0.18143	0.21409	0.066911	0.21453	0.1301	0.12897	-2.8312	-2.8438	-2.475	-3.25	-2.2833	-3.1042	-3.2271	-2.4542	-3.0542	-2.7667	-2.7375	-3.2729	-2.6958	-2.8063	-3.0979	-2.6188	339.517	345.460	159.084	211.132	301.081	467.150	180.110	170.131	421.437	214.335	446.834	485.470	233.340	431.274	497.544	225.699	0.0013669	0.00071028	0.00016764	367.8	2.5493e-06	9.907e-06	947.75	108.1	7.8073e-06	5.4358e-06	400.04	172.97	46.48	21.659	1.075e-05	91.747	0.00055636	0.00040243	0.0001114	321.32	4.1399e-06	4.3024e-06	831.59	94.331	4.1986e-06	4.1892e-06	352.44	151.97	40.391	19.201	4.0823e-06	81.476	145.949	231.143	251.233	156.123	261.331	267.514	155.620	160.592	274.569	301.438	159.881	163.415	163.232	168.135	267.723	166.809	-8191	255	
4128.549	1	1	0	0	0.021514	0.24128	0.13889	0.068997	0.080409	0.31045	0.063465	0.22938	0.079972	0.13222	0.25084	0.35373	0.18827	0.1904	0.075373	0.088979	-2.9042	-2.7917	-2.55	-3.3896	-2.5375	-2.8312	-3.2417	-2.3021	-3.1271	-3.0354	-2.6312	-3.2792	-2.5521	-2.8	-3.1792	-2.6604	226.094	311.189	393.251	384.694	190.892	204.657	236.209	437.800	409.901	147.355	400.852	465.633	444.367	481.260	176.303	456.911	0.0013395	0.00039462	9.5698e-05	372.12	5.1749e-06	1.2511e-06	952.52	107.99	4.0491e-06	8.5928e-06	401.73	174.61	46.233	21.731	5.0652e-06	92.093	0.00056087	0.0003994	0.00010723	323.16	4.2243e-06	4.3893e-06	832.83	94.815	3.9599e-06	4.4561e-06	352.28	152.95	40.228	19.231	4.3371e-06	81.645	147.746	201.370	238.962	154.856	270.626	401.481	155.387	160.283	329.462	261.786	159.811	163.159	162.124	167.590	275.177	166.495	-8191	255	
4128.670	1	1	0	0	0.071107	0.1536	0.15727	0.22264	0.23222	0.19246	0.082717	0.2515	0.17013	0.15027	0.16364	0.33757	0.16025	0.21816	0.064056	0.2049	-2.6437	-2.9521	-2.3563	-3.1708	-2.6479	-2.6792	-3.3396	-2.55	-3.05	-3.1771	-2.5229	-3.0583	-2.7313	-2.5812	-3.1625	-2.5812	174.322	286.542	455.583	462.408	213.147	286.451	410.071	241.769	271.022	346.054	491.648	165.285	437.333	180.090	314.598	454.922	0.0014099	0.00040949	0.00010188	371.46	6.3922e-06	8.0471e-06	955.42	109.08	4.311e-06	5.247e-06	397.43	173.18	46.494	21.783	7.4365e-06	92.044	0.0005619	0.00037928	0.00010979	322.39	4.1718e-06	4.5734e-06	833.46	95.001	4.1803e-06	4.1232e-06	350.61	151.82	40.19	19.227	4.161e-06	81.376	149.162	191.880	207.139	155.290	266.732	261.704	155.444	160.430	268.099	312.004	159.657	163.671	163.175	168.283	263.471	166.844	-8191	255	
4128.766	1	1	0	0	0.076664	0.27513	0.10006	0.20438	0.055482	0.11996	0.089674	0.11964	0.14497	0.25738	0.35547	0.28805	0.10301	0.1713	0.28355	0.22266	-2.6458	-3.0917	-2.4396	-3.0521	-2.75	-2.4792	-3.3854	-2.4896	-2.8167	-3.1042	-2.7646	-3.2417	-2.8021	-2.5771	-3.2792	-2.6208	440.411	454.752	437.611	393.463	403.604	385.175	405.523	376.842	317.665	279.284	500.186	492.021	144.200	294.012	439.955	396.197	0.0014114	0.00046484	0.00013903	368.48	3.4942e-06	3.5775e-06	956.88	107.81	4.5615e-06	8.0808e-06	402.18	172.71	46.185	21.832	5.0133e-06	92.169	0.00056075	0.00038325	0.00010745	323.11	4.2158e-06	4.3705e-06	837.06	94.371	4.0798e-06	4.1784e-06	352.44	151.81	40.186	19.179	4.171e-06	81.456	147.266	238.158	222.748	155.619	243.521	277.992	155.119	160.234	243.401	308.675	159.866	163.622	162.657	167.811	319.938	167.023	-8191	255	
4128.861	1	1	0	0	0.10978	0.027548	0.16421	0.066864	0.11101	0.15001	0.20369	0.087215	0.11343	0.29661	0.28236	0.3226	0.23098	0.36566	0.20844	0.25543	-2.2125	-2.9875	-2.3979	-3.2354	-2.975	-2.4771	-3.3563	-2.5229	-2.5563	-3.1958	-2.5792	-3.0146	-2.8854	-2.7438	-3.1917	-2.8229	343.726	202.636	281.643	335.994	198.694	439.964	427.609	245.507	299.779	474.947	450.773	474.442	419.191	163.636	264.338	471.859	0.0014515	0.0005042	0.00013244	371.07	2.8665e-06	6.0987e-06	959.38	106.76	5.1236e-06	5.6065e-06	401.44	172.49	45.892	21.627	1.0671e-06	92.118	0.0005759	0.00040247	0.00011447	323.94	4.2067e-06	4.273e-06	837.58	93.972	4.2803e-06	4.1651e-06	351.68	151.85	40.255	19.197	4.2566e-06	81.55	502.202	231.200	230.632	155.399	287.832	317.152	155.710	160.653	262.749	290.757	159.955	163.350	162.281	168.509	256.735	167.146	-8191	255	
4128.957	1	1	0	0	0.18118	0.16898	0.1923	0.18905	0.073663	0.094808	0.23204	0.42874	0.1108	0.096227	0.36937	0.21881	0.057713	0.11107	0.42384	0.032417	-2.2125	-3.1958	-2.6229	-2.9688	-3.0771	-2.5875	-3.1417	-2.675	-2.4542	-3.2479	-2.6229	-3.0417	-3.1542	-2.4	-3.2271	-2.9167	435.428	245.171	343.522	382.204	424.171	316.763	418.025	429.678	165.966	389.821	314.863	456.743	396.371	465.765	201.075	372.868	0.0014507	0.00063422	0.00014387	374.6	3.3186e-06	5.2179e-06	957.02	107.57	2.606e-06	4.3584e-06	397.59	171.57	45.831	21.699	7.4484e-06	91.483	0.00058731	0.00041043	0.00011473	326.48	4.301e-06	4.5601e-06	837.74	94.256	4.3502e-06	4.1439e-06	349.06	150.87	40.1	19.142	4.3323e-06	80.989	145.302	229.881	233.254	156.100	287.674	269.721	155.219	160.392	280.015	308.224	159.677	163.391	162.518	167.891	276.128	166.756	-8191	255	
4129.053	1	1	0	0	0.20684	0.20598	0.15015	0.10416	0.033977	0.13635	0.032476	0.070918	0.073041	0.04949	0.10127	0.083704	0.12827	0.080867	0.032953	0.12693	-1.9896	-3.1604	-2.5104	-2.8417	-3.0458	-2.3979	-3.1521	-2.6167	-2.5333	-3.1854	-2.65	-2.8146	-3.0604	-2.5396	-2.9896	-3.0396	357.965	341.307	472.637	413.498	173.607	142.705	305.428	475.795	382.113	394.557	437.010	487.461	441.762	464.749	273.555	409.374	0.0014529	0.00027246	0.00014564	371.84	6.8092e-06	4.4819e-06	949.47	108.54	4.5408e-06	5.8288e-06	399.2	172.77	45.527	21.495	5.763e-06	91.818	0.00059003	0.00038669	0.00011273	324.01	4.3986e-06	4.6176e-06	829.71	94.691	4.361e-06	4.3848e-06	350.39	151.2	40.095	19.165	4.3277e-06	81.326	148.115	274.325	222.559	154.925	252.104	282.967	155.096	159.765	268.411	313.146	159.630	163.277	163.036	167.630	225.931	166.921	-8191	255	
4129.149	1	1	0	0	0.049196	0.15476	0.15112	0.18389	0.29596	0.18149	0.13517	0.11869	0.078447	0.15098	0.42645	0.28055	0.081879	0.095732	0.041228	0.28018	-2.0396	-3.1063	-2.5854	-2.6188	-3.0854	-2.5833	-3.0354	-3.0625	-2.5542	-3.1729	-2.8	-2.7062	-3.2625	-2.3667	-2.9792	-3.2458	176.813	303.639	487.653	201.566	420.951	273.156	391.906	500.042	199.328	185.245	481.444	169.395	444.989	265.064	145.749	454.173	0.0013247	0.00091645	1.5237e-05	371.05	6.3499e-06	9.7136e-06	949.75	107.9	5.3194e-06	5.3353e-06	400.42	172.77	46.565	21.713	2.2444e-06	92.572	0.00058314	0.00039817	0.00010607	324.16	4.3615e-06	4.589e-06	831.56	94.352	4.3122e-06	4.4062e-06	349.96	151.03	40.152	19.147	4.5314e-06	81.633	147.420	253.820	175.790	155.506	272.798	298.037	155.459	160.164	329.985	281.839	159.715	163.131	162.958	167.966	240.013	166.733	-8191	255	
4129.245	1	1	0	0	0.24231	0.20751	0.30871	0.13394	0.010041	0.32993	0.24718	0.14136	0.24707	0.043828	0.18166	0.11002	0.093551	0.18754	0.1624	0.22074	-2.1375	-3.1354	-2.7729	-2.6083	-3.1896	-2.4792	-3.2896	-3.1312	-2.3854	-3.1167	-2.9271	-2.4917	-3.1896	-2.5167	-2.7708	-3.2042	387.028	470.919	392.521	178.577	204.854	232.075	419.138	175.892	470.621	417.564	173.855	472.775	313.493	436.509	326.566	481.178	0.0015893	0.00029087	0.00017705	370.1	5.5533e-06	5.9914e-06	951.21	107.14	8.2062e-06	5.5689e-06	401.33	173.07	46.057	21.881	1.0602e-06	91.882	0.00061086	0.00040177	0.00011379	321.98	4.2769e-06	4.4009e-06	834.29	94.777	4.3628e-06	4.4653e-06	352.56	152.04	40.332	19.313	4.3864e-06	81.288	144.566	192.292	202.535	155.664	275.117	286.197	155.271	160.319	291.079	316.433	159.898	163.408	162.951	168.176	205.587	166.643	-8191	255	
4129.343	1	1	0	0	0.20945	0.12854	0.039848	0.024571	0.11892	0.11785	0.051295	0.078864	0.062547	0.19892	0.024183	0.13777	0.21206	0.053546	0.10263	0.27573	-1.9917	-3.2708	-2.7771	-2.5563	-3.1	-2.5	-2.9854	-3.0229	-2.2833	-3.2771	-2.9813	-2.575	-3.1792	-2.5229	-2.65	-3.175	149.522	258.132	251.854	426.668	286.777	191.290	166.118	250.535	295.214	187.017	161.667	396.544	419.201	435.984	316.315	478.924	0.0014412	0.00072382	0.00019846	367.95	4.0288e-06	8.0143e-06	945.11	107.64	3.8927e-06	4.3815e-06	400.29	171.99	46.206	21.621	4.9246e-06	90.991	0.00058734	0.0004167	0.00010885	320.35	4.3157e-06	4.3483e-06	827.19	94.196	4.2084e-06	4.5617e-06	349.99	150.93	40.113	19.106	4.3912e-06	80.68	147.044	229.086	256.510	155.179	286.714	257.138	155.245	160.383	210.861	252.883	159.573	163.267	162.973	167.808	257.607	166.508	-8191	255	
4129.462	1	1	0	0	0.10428	0.24466	0.22079	0.079824	0.081089	0.18571	0.15267	0.25598	0.12431	0.11288	0.24517	0.30375	0.15348	0.042815	0.23537	0.21296	-1.9271	-2.9708	-2.8979	-2.4521	-3.3063	-2.6708	-2.5563	-3.1729	-2.4583	-2.8375	-3.15	-2.475	-3.0042	-2.5083	-2.35	-3.2604	278.550	357.596	400.929	307.088	475.344	451.876	420.596	487.477	396.268	410.873	464.405	154.332	489.693	261.555	369.875	484.932	0.0014102	0.00080846	0.00027009	364.54	3.7299e-06	5.608e-06	945.04	107.69	3.0305e-06	2.2185e-06	400.89	172.69	45.314	21.185	2.8246e-06	92.042	0.00057487	0.00039096	0.00010685	317.76	4.0949e-06	4.278e-06	825.45	93.899	4.131e-06	4.2933e-06	349.17	150.78	39.6	18.84	4.28e-06	80.764	146.639	223.871	264.034	155.764	280.532	325.119	155.364	160.610	246.338	327.885	159.820	163.032	163.331	167.561	273.391	166.584	-8191	255	
4129.558	1	1	0	0	0.26497	0.21162	0.18772	0.1961	0.4023	0.098237	0.20945	0.10632	0.15708	0.124	0.24801	0.12184	0.29948	0.23924	0.29736	0.19094	-2.1292	-2.6083	-3.1729	-2.4896	-3.0104	-2.8167	-2.5958	-3.3583	-2.3167	-2.9229	-3.1375	-2.4229	-3.175	-2.8812	-2.5646	-3.3854	480.792	148.791	273.829	229.066	252.654	300.798	495.949	378.577	185.959	458.913	411.546	376.195	488.572	422.751	256.178	384.085	0.0014911	0.00077094	0.00016804	363.92	5.3891e-06	6.6754e-06	945.37	107.61	5.9955e-06	5.2669e-06	394.82	169.93	44.992	21.129	6.4447e-06	90.757	0.00060362	0.00039447	0.00010845	319.51	4.0906e-06	4.3964e-06	828.48	94.094	4.2846e-06	4.3554e-06	346.46	149.47	39.485	18.74	4.4899e-06	80.2	142.627	190.201	236.071	155.369	282.158	290.114	155.509	160.142	251.736	319.304	159.943	163.672	162.814	167.668	253.508	166.857	-8191	255	
4129.654	1	1	0	0	0.16693	0.37801	0.075646	0.024001	0.18884	0.042226	0.073179	0.16144	0.35132	0.20139	0.15498	0.12703	0.23038	0.40999	0.17964	0.23883	-2.2479	-2.6167	-2.95	-2.4188	-2.9479	-2.9042	-2.7146	-3.2188	-2.5229	-2.6729	-3.2104	-2.4708	-3.0021	-2.9396	-2.4625	-3.2917	208.350	496.682	279.198	154.520	432.372	243.804	405.287	490.016	456.382	468.415	465.217	161.703	196.710	173.269	417.176	435.469	0.0014247	0.00048573	0.00020875	366.03	6.9645e-06	4.343e-06	939.5	104.91	2.5333e-06	6.6389e-06	389.93	169.53	44.471	21.117	4.6078e-06	89.035	0.00058016	0.00040626	0.00010681	320.69	4.296e-06	4.2715e-06	822.41	92.017	4.0929e-06	4.1258e-06	342.74	148.35	39.006	18.639	4.3803e-06	79.128	144.450	192.763	245.579	155.230	298.195	278.830	155.390	160.668	300.361	303.710	159.331	163.310	163.451	168.241	341.405	166.854	-8191	255	
4129.750	1	1	0	0	0.094073	0.309	0.1609	0.21749	0.1263	0.092738	0.12282	0.21609	0.28949	0.076745	0.23284	0.22528	0.11337	0.03088	0.098721	0.13781	-2.2625	-2.6208	-3.1896	-2.3917	-2.9625	-3.1042	-2.5167	-3.2146	-2.85	-2.7104	-3.4042	-2.5271	-2.8042	-3.1083	-2.3979	-3.2604	214.190	476.472	404.545	237.343	478.461	453.966	466.049	197.079	254.394	411.537	435.245	410.906	260.279	399.111	327.223	432.590	0.0013944	0.00053885	0.00015942	360.15	3.5556e-06	2.8104e-06	925.52	104.15	7.098e-06	4.9021e-06	385.42	168.42	45.803	20.726	3.8609e-06	89.802	0.00056368	0.0004134	0.00010622	318.76	4.1853e-06	4.1421e-06	811.76	91.432	4.3869e-06	4.3489e-06	338.64	147.36	39.389	18.465	4.2718e-06	79.268	146.474	236.718	240.368	155.696	335.315	278.067	155.385	160.561	267.199	281.232	159.983	163.633	162.364	167.843	210.657	166.585	-8191	255	
4129.845	1	1	0	0	0.2916	0.14225	0.14797	0.28561	0.11897	0.13643	0.26535	0.094531	0.14338	0.16122	0.29622	0.13992	0.22321	0.15056	0.20107	0.15915	-2.475	-2.5292	-3.2646	-2.6479	-2.7271	-3.1167	-2.4188	-3.0854	-3.0583	-2.5	-3.4542	-2.6917	-2.6167	-3.3229	-2.4396	-3.2042	356.996	266.170	404.199	481.148	432.485	308.894	416.092	384.030	182.356	186.927	477.383	465.204	151.873	488.160	357.881	491.977	0.0014379	0.00023538	0.00019953	364.37	2.4066e-06	2.0329e-06	930.65	105.46	4.5908e-06	5.0562e-06	387.73	167.89	44.567	21.165	5.339e-06	90.031	0.00058021	0.00040779	0.0001088	317.38	4.1944e-06	4.1413e-06	810.47	91.678	4.2405e-06	4.3639e-06	339.51	147.3	39.094	18.622	4.1698e-06	79.554	149.424	195.021	230.015	155.388	295.667	303.995	155.260	160.473	272.641	280.533	159.885	163.197	162.250	167.802	300.106	167.526	-8191	255	
4129.941	1	1	0	0	0.041933	0.086033	0.22153	0.054792	0.10881	0.27475	0.070257	0.044653	0.069651	0.015665	0.26044	0.13913	0.079326	0.2337	0.30214	0.11995	-2.5125	-2.3958	-3.2417	-2.6625	-2.8042	-3.1375	-2.5271	-2.8646	-2.9708	-2.5396	-3.3896	-2.8292	-2.6958	-3.3771	-2.4542	-3.1333	193.643	390.383	433.821	240.939	173.324	161.971	317.925	380.513	479.352	497.221	410.472	209.171	190.887	383.130	257.561	456.018	0.001332	0.000471	0.00013245	362.11	6.3158e-06	2.7419e-06	933.9	106.58	5.0635e-06	1.9879e-06	388.01	168.29	44.815	21.199	5.2378e-06	89.703	0.00055524	0.00041897	0.0001111	319.39	4.3843e-06	4.3028e-06	818.01	92.999	4.0739e-06	4.5351e-06	342.01	147.77	39.43	18.72	4.3353e-06	79.34	501.597	258.477	284.578	155.346	306.675	285.344	155.240	160.835	305.544	319.498	159.689	163.630	162.822	168.347	262.352	166.899	-8191	255	
4130.062	1	1	0	0	0.16188	0.1393	0.11715	0.33709	0.348	0.15139	0.25796	0.20903	0.079746	0.19479	0.057119	0.20353	0.26287	0.22671	0.1694	0.093275	-2.7875	-2.2854	-3.0312	-2.8333	-2.3854	-3.2562	-2.6354	-2.7917	-2.9229	-2.3854	-3.1229	-2.8396	-2.4813	-3.2167	-2.6146	-2.9062	371.792	395.482	402.850	422.522	473.315	454.983	178.405	338.774	276.229	179.013	474.014	454.985	198.114	213.621	492.421	155.306	0.0013738	0.0004324	4.712e-05	363.37	4.3342e-06	6.231e-06	927.18	104.87	7.2165e-06	4.2656e-06	381.59	167.9	45.246	21.291	4.1032e-06	89.324	0.00055978	0.00040044	0.00010816	319.77	4.348e-06	4.2168e-06	809.03	91.834	4.1372e-06	4.368e-06	337.38	147.69	39.18	18.844	4.2449e-06	79.375	147.747	240.905	175.119	155.336	302.899	276.284	155.086	161.603	269.227	309.435	159.599	162.692	162.358	167.861	251.902	166.843	-8191	255	
4130.158	1	1	0	0	0.21101	0.13208	0.16992	0.023774	0.082472	0.16095	0.24151	0.078453	0.14428	0.070717	0.16512	0.24297	0.21288	0.10928	0.0099493	0.13304	-2.7333	-2.3875	-2.9688	-3.0479	-2.2687	-3.1562	-2.7646	-2.8271	-3.1437	-2.5146	-3.0917	-3.0875	-2.5146	-3.2875	-2.5479	-2.8521	385.678	230.907	408.799	393.744	197.235	358.850	445.847	468.766	160.770	353.091	422.939	498.763	215.839	392.457	201.785	143.477	0.001418	0.00064716	9.9698e-05	360.62	4.8507e-06	5.2383e-06	930.47	106.31	6.6017e-06	3.4522e-06	391.76	170.22	45.898	21.167	5.7202e-06	90.578	0.00057999	0.00039717	0.00010511	316	4.1876e-06	3.95e-06	809	92.831	4.0251e-06	4.3186e-06	343.55	149.34	39.961	18.762	4.1865e-06	80.237	143.835	233.475	236.249	155.122	256.303	259.528	155.446	160.081	257.384	263.811	159.399	163.133	163.066	168.094	276.782	166.605	-8191	255	
4130.254	1	1	0	0	0.062856	0.19382	0.22722	0.26606	0.21309	0.11081	0.16525	0.2321	0.17316	0.15237	0.18959	0.069649	0.28928	0.14477	0.074583	0.18637	-2.8604	-2.475	-3	-3.1333	-2.3417	-3.2583	-2.8479	-2.4604	-3.0958	-2.475	-2.9917	-3.2604	-2.2812	-3.1771	-2.6312	-2.5646	219.002	174.023	491.030	478.896	304.572	410.033	179.529	371.244	160.734	206.192	253.424	148.024	460.483	175.742	402.534	430.461	0.001374	0.00028607	0.00018349	365.36	6.4409e-06	7.6001e-06	942.89	107	5.8922e-06	6.6015e-06	394.12	169.93	45.997	21.509	7.9973e-06	90.524	0.00055395	0.00040468	0.00010676	318.95	4.1969e-06	4.2247e-06	824.01	93.459	4.1682e-06	4.2869e-06	346.15	149.77	39.919	18.993	4.319e-06	80.513	143.838	218.357	220.118	155.576	300.710	287.384	154.969	160.601	320.464	300.264	159.506	162.927	162.356	168.406	265.271	166.899	-8191	255	
4130.348	1	1	0	0	0.16276	0.20908	0.058975	0.1112	0.056493	0.16106	0.12597	0.2186	0.2229	0.018909	0.19437	0.27527	0.056835	0.10836	0.054668	0.34799	-2.8042	-2.4792	-2.8875	-3.2208	-2.5417	-2.9729	-2.8438	-2.4229	-3.2146	-2.4792	-2.8854	-3.1854	-2.2521	-3.1396	-2.9062	-2.4708	166.013	446.680	480.957	444.632	381.452	364.585	486.236	158.156	214.160	144.916	195.823	424.554	412.679	234.619	289.441	420.001	0.0014138	0.00067773	0.00015893	364.59	5.5591e-06	6.0138e-06	944.45	108.66	4.6157e-06	7.3345e-06	397.75	171.21	46.261	21.449	5.3242e-06	90.932	0.00056154	0.00039127	0.00011096	320.24	4.2218e-06	4.3569e-06	827.18	93.973	4.1278e-06	3.9566e-06	347.91	150.08	40.176	18.987	3.9801e-06	80.474	143.463	225.318	263.513	155.177	316.689	280.130	155.153	160.987	271.879	328.617	159.666	162.991	162.538	168.080	268.259	166.772	-8191	255	
4130.445	1	1	0	0	0.10319	0.10698	0.051037	0.23894	0.10952	0.16202	0.20713	0.24004	0.24957	0.069551	0.043837	0.25214	0.085741	0.049083	0.10624	0.53618	-2.8688	-2.5187	-2.8229	-3.2083	-2.5875	-2.9646	-3.0375	-2.4896	-3.2646	-2.6583	-2.8125	-3.2687	-2.3479	-2.9958	-3.125	-2.475	172.222	212.293	502.337	424.469	468.913	221.434	448.269	445.126	328.887	409.991	202.121	454.150	386.829	233.177	387.671	429.442	0.0012389	0.00047441	0.00017513	367.3	4.0111e-06	5.0516e-06	942.85	106.93	9.1464e-06	4.3187e-06	395.22	170.2	46.001	21.515	6.476e-06	91.576	0.0005299	0.00040824	0.00011411	319.73	4.454e-06	4.2096e-06	823.36	93.676	4.2446e-06	4.1688e-06	345.93	149.69	39.792	18.999	4.338e-06	80.713	502.690	242.928	183.305	154.753	272.653	281.500	155.087	161.125	303.892	321.657	159.566	163.163	162.823	167.881	265.714	166.692	-8191	255	
4130.541	1	1	0	0	0.12516	0.059889	0.24814	0.072242	0.019903	0.12775	0.37938	0.030218	0.22962	0.31044	0.20812	0.07874	0.23436	0.25344	0.14604	0.33796	-2.9167	-2.525	-2.5146	-3.2562	-2.35	-2.8396	-3.25	-2.3896	-3.0604	-2.5958	-2.5354	-3.3667	-2.5167	-2.7604	-3.1208	-2.5708	348.280	153.606	208.423	468.374	267.971	416.123	483.029	395.064	219.072	206.715	313.948	500.852	245.747	452.999	441.598	215.042	0.0016042	0.00076653	0.00015303	367.24	5.2068e-06	7.059e-06	937.7	107.87	6.2789e-06	4.9689e-06	395.53	169.76	45.677	21.583	3.0091e-06	91.477	0.00058342	0.00039645	0.00011339	321.45	4.3482e-06	4.116e-06	822.12	93.727	4.0463e-06	4.2519e-06	347.04	149.53	39.744	19.063	4.3396e-06	80.822	144.584	208.241	203.852	154.982	315.469	295.908	155.560	160.218	234.126	300.701	159.880	163.016	162.381	168.028	252.871	166.851	-8191	255	
4130.637	1	1	0	0	0.040769	0.13661	0.21364	0.023427	0.071769	0.19806	0.28737	0.1574	0.33168	0.16396	0.1638	0.11319	0.074999	0.11621	0.1469	0.19336	-2.7833	-2.8583	-2.4688	-3.2687	-2.5083	-2.8396	-3.3292	-2.4958	-3.0896	-2.9813	-2.5771	-3.4167	-2.6646	-2.9333	-3.2438	-2.5646	274.219	480.213	371.070	350.050	437.594	356.762	447.771	375.080	147.659	485.613	202.675	177.819	218.001	172.614	160.234	474.381	0.001434	0.00028856	0.00015604	370.46	2.9781e-06	6.2902e-06	945.52	108.1	5.841e-06	7.6146e-06	396.14	171.52	46.137	21.426	8.2509e-06	90.615	0.00057253	0.00040742	0.00011204	323.23	4.1708e-06	4.366e-06	827.8	94.275	4.1527e-06	4.1847e-06	348.16	150.58	40.021	19.069	4.4949e-06	80.45	148.121	200.725	262.991	155.845	281.559	317.400	155.018	160.200	257.685	304.885	159.828	163.104	162.743	168.138	263.846	166.647	-8191	255	
4130.733	1	1	0	0	0.079854	0.03079	0.13577	0.31593	0.11185	0.12546	0.26058	0.057148	0.077887	0.050714	0.21524	0.050295	0.10682	0.17998	0.11127	0.33681	-2.5521	-2.8292	-2.5979	-3.1667	-2.7917	-2.7583	-3.3063	-2.3458	-2.9271	-3.1167	-2.5312	-3.3708	-2.7292	-2.7396	-3.2812	-2.65	171.200	218.622	221.577	143.163	248.517	179.563	459.381	482.697	201.885	354.633	414.224	264.289	397.448	469.107	277.959	492.550	0.0014146	0.00068697	9.3313e-05	370.83	2.975e-06	6.4871e-06	943.98	107.79	5.554e-06	4.2472e-06	389.95	170.33	45.37	21.414	2.7517e-06	90.951	0.00057842	0.00038794	0.00011093	323.7	4.2981e-06	4.3172e-06	823.35	93.814	4.0765e-06	4.0374e-06	344.28	149.56	39.725	19.014	4.1101e-06	80.367	143.162	221.339	229.103	155.504	279.225	274.744	155.264	160.428	303.750	310.943	159.533	163.378	163.074	167.424	298.362	166.627	-8191	255	
4130.854	1	1	0	0	0.20437	0.049917	0.061645	0.062822	0.1293	0.24221	0.25773	0.15687	0.13275	0.12267	0.14076	0.32367	0.20667	0.12384	0.23799	0.15447	-2.6729	-3.1271	-2.2562	-3.2687	-2.7792	-2.5708	-3.3167	-2.4521	-2.9833	-3.1583	-2.5875	-3.1583	-2.8146	-2.5479	-3.2333	-2.7562	291.917	416.423	293.964	161.897	408.040	187.541	427.943	430.422	161.537	341.761	459.186	155.430	230.223	378.320	414.129	440.995	0.0013494	0.00041188	9.5318e-05	372.46	4.8086e-06	5.3387e-06	938.31	107.03	4.8186e-06	5.6964e-06	393.78	169.22	45.754	21.349	6.0504e-06	90.561	0.00055519	0.00041838	0.00010844	323.91	4.164e-06	4.2717e-06	819.41	93.566	4.32e-06	4.3137e-06	344.08	148.86	39.764	18.943	4.0859e-06	80.071	147.289	272.904	235.580	155.250	290.089	290.671	155.291	160.210	289.192	287.246	159.568	163.455	162.963	167.672	270.316	166.549	-8191	255	
4130.950	1	1	0	0	0.11526	0.093641	0.09026	0.31139	0.033021	0.063342	0.34872	0.13528	0.029505	0.19394	0.37126	0.21985	0.28765	0.11722	0.15069	0.2034	-2.425	-3.2792	-2.3146	-2.9917	-3.0229	-2.5167	-3.3458	-2.6312	-2.6562	-3.2729	-2.5687	-3.0604	-3.0542	-2.3896	-3.1667	-2.7354	400.482	434.007	492.624	486.348	290.942	320.594	421.448	306.659	456.495	440.093	469.794	484.245	489.668	451.197	391.700	419.925	0.0013684	0.0005409	9.6872e-05	370.03	8.6652e-06	1.9949e-06	939.46	105.95	2.3437e-06	8.6123e-06	394.99	171	46.365	21.457	4.3452e-06	90.797	0.00056942	0.00039479	0.00011105	322.74	4.0207e-06	4.2239e-06	824.08	93.453	4.0377e-06	4.3118e-06	345.67	149.67	40.032	18.982	4.0016e-06	80.408	145.302	230.651	244.632	155.130	273.833	310.757	155.503	160.484	301.240	267.208	159.760	163.403	163.036	167.837	264.415	166.659	-8191	255	
4131.021	1	1	0	0	0.34096	0.26196	0.16318	0.22345	0.16189	0.135	0.14935	0.081686	0.081167	0.14591	0.10082	0.36512	0.14672	0.28119	0.21463	0.15543	-2.0333	-3.2771	-2.3688	-2.8979	-3.1021	-2.6042	-3.3271	-2.7687	-2.5542	-3.2375	-2.5958	-2.7812	-3.0771	-2.5167	-3.2625	-2.9354	253.329	216.802	412.291	179.875	290.029	185.317	492.275	155.192	431.891	238.558	162.639	426.706	430.438	405.026	367.128	440.419	0.0014066	0.00065227	8.3136e-05	370.01	6.3324e-06	6.7327e-06	946.24	106.39	4.4066e-06	3.0215e-06	388.75	170.25	44.998	21.38	3.4261e-06	90.353	0.00057291	0.00038622	0.00010858	324.03	4.0829e-06	4.3748e-06	825.25	93.352	4.2542e-06	4.2585e-06	342.06	149.11	39.522	18.917	4.1426e-06	80.027	144.496	189.197	184.203	155.438	273.623	264.603	155.425	160.609	265.925	293.612	159.561	163.254	163.229	167.746	262.130	166.556	-8191	255	
4131.142	1	1	0	0	0.22162	0.36839	0.16534	0.19949	0.18374	0.13356	0.21782	0.14865	0.070972	0.14388	0.176	0.46845	0.11224	0.23705	0.12853	0.31348	-2.3458	-3.1646	-2.4208	-2.7646	-3.1708	-2.4792	-3.1146	-2.9167	-2.4604	-3.1625	-2.6229	-2.7792	-3.2104	-2.2979	-3.1208	-2.9583	272.650	404.290	364.486	472.575	454.999	169.244	224.772	374.743	245.651	170.334	474.895	482.908	172.272	331.317	326.226	463.078	0.0013409	0.00032899	0.00011459	370.3	7.0095e-06	4.4962e-06	939.99	106.35	5.9137e-06	5.0008e-06	388.62	170.67	45.529	21.687	5.9975e-06	91.261	0.00055899	0.00038229	0.00010442	322.49	4.1036e-06	4.2394e-06	818.48	93.284	4.1594e-06	4.2001e-06	342.2	149.02	39.666	19.044	4.1917e-06	80.42	144.196	202.369	224.786	155.005	263.078	316.789	155.475	160.618	286.492	261.079	159.389	163.158	162.556	167.596	281.256	166.648	-8191	255	
4131.238	1	1	0	0	0.19529	0.18144	0.23327	0.20331	0.029758	0.26483	0.25132	0.19381	0.23779	0.14557	0.07559	0.15989	0.056373	0.2632	0.040062	0.22124	-2.1333	-3.2083	-2.6229	-2.6	-2.9667	-2.3625	-3.175	-3.0979	-2.5229	-3.4104	-2.8542	-2.8083	-3.2438	-2.5167	-2.9646	-3.425	469.816	236.878	489.831	308.049	357.115	292.635	293.781	260.150	451.460	482.314	353.358	287.354	499.938	285.212	464.463	153.121	0.0013063	0.00049945	0.00015886	366.17	1.2714e-06	1.1701e-05	945.12	106.62	7.6158e-06	4.5811e-06	392.22	169.68	46.606	21.553	9.0016e-06	90.748	0.00056022	0.00038548	0.00010774	322.34	4.1561e-06	4.215e-06	822.09	93.451	4.2121e-06	4.2834e-06	343.6	149.21	40.029	19.028	4.1602e-06	80.272	147.837	202.910	188.324	155.520	252.984	271.566	155.441	160.270	221.808	290.973	159.680	163.100	162.402	167.907	289.713	166.339	-8191	255	
4131.334	1	1	0	0	0.03859	0.15783	0.19376	0.074404	0.179	0.15923	0.11776	0.18661	0.18037	0.19116	0.13084	0.28865	0.14113	0.096012	0.18614	0.097131	-2.1208	-3.1667	-2.8208	-2.5083	-3.1958	-2.4458	-3.0458	-3.1125	-2.4688	-3.3292	-3.0229	-2.8167	-3.3875	-2.4854	-2.8438	-3.2375	398.406	314.010	247.459	253.180	460.810	450.902	175.518	475.662	482.811	244.435	371.549	492.669	146.462	475.680	224.698	420.551	0.0013578	0.00076278	0.00016489	366.2	3.6298e-06	3.2821e-06	944.04	106.52	8.361e-06	6.5447e-06	389.38	170.69	45.602	21.39	4.1652e-06	90.598	0.0005614	0.00039385	0.00011174	321.74	4.17e-06	4.3211e-06	823.34	93.202	4.1745e-06	4.1035e-06	343.51	149.77	39.884	18.969	4.219e-06	80.301	143.988	222.597	221.315	155.100	271.807	323.888	155.535	160.483	304.509	338.440	159.536	163.326	163.037	167.951	306.418	166.797	-8191	255	
4131.430	1	1	0	0	0.111	0.26963	0.11965	0.38029	0.089239	0.07118	0.19169	0.1509	0.29364	0.055526	0.19137	0.25506	0.11021	0.033723	0.13907	0.20843	-2.1958	-3.1667	-3.0646	-2.5271	-3.1771	-2.6937	-2.75	-3.1542	-2.4979	-3	-3.0396	-2.6333	-3.0396	-2.6729	-2.6104	-3.3375	496.053	169.625	169.067	486.014	194.287	392.184	220.150	499.018	464.907	157.964	287.515	408.390	399.472	206.569	171.783	474.491	0.0013352	0.0002967	0.00021254	369.74	3.6586e-06	3.3214e-06	936.53	106.44	5.4722e-06	4.0583e-06	386.74	169.21	45.732	21.389	4.8786e-06	90.259	0.00055815	0.00038859	0.00011071	323.11	4.0141e-06	4.383e-06	818.83	93.06	4.2258e-06	4.3118e-06	340	148.58	39.742	18.962	4.2363e-06	80.081	147.845	232.516	270.577	155.365	253.398	273.936	155.484	160.487	257.353	270.105	159.751	163.655	162.643	167.584	287.692	166.820	-8191	255	
4131.549	1	1	0	0	0.20302	0.045703	0.15516	0.060766	0.19013	0.091091	0.33028	0.1053	0.15776	0.17048	0.10562	0.1999	0.1089	0.079413	0.18771	0.36841	-1.9167	-3.0521	-3.0062	-2.3667	-3.1708	-2.8187	-2.7646	-3.325	-2.4729	-3.0292	-3.2542	-2.5187	-3.3208	-2.7438	-2.5208	-3.4708	324.383	308.290	441.630	491.386	439.712	442.111	466.303	403.594	425.141	172.079	354.846	167.269	404.289	278.861	222.088	428.245	0.0013262	0.00013444	0.00014828	369.17	6.8118e-06	3.0775e-06	933.18	106.47	4.6006e-06	5.7795e-06	385.01	170.5	45.404	21.51	6.5173e-06	90.765	0.00055625	0.0004123	0.0001062	322.89	4.0688e-06	4.137e-06	815.97	93.169	4.1204e-06	4.4599e-06	339.89	148.88	39.636	18.929	4.3993e-06	80.132	146.259	286.925	249.541	155.159	287.595	294.483	155.120	160.417	285.486	298.097	159.239	163.007	162.351	168.080	313.900	166.656	-8191	255	
4131.646	1	1	0	0	0.18921	0.12528	0.082381	0.15706	0.16786	0.21305	0.20196	0.060364	0.14204	0.21756	0.12209	0.25714	0.11161	0.2509	0.099318	0.19511	-2.1562	-2.6917	-3.0438	-2.3333	-3.2812	-2.8708	-2.6854	-3.2083	-2.6417	-2.8167	-3.1146	-2.2146	-3.0062	-2.925	-2.6208	-3.3792	464.952	341.085	474.290	218.859	418.048	360.614	482.671	369.975	224.496	372.494	482.947	468.214	435.080	435.584	197.422	173.941	0.0013844	0.00044285	0.00014975	369.61	3.9216e-06	5.1719e-06	939.47	107.07	8.4578e-06	5.3287e-06	388.71	171.1	46.453	21.356	4.3353e-06	90.733	0.0005631	0.00037721	0.00010657	323.85	4.1368e-06	4.2894e-06	819.95	93.528	4.1872e-06	4.1314e-06	341.31	149.53	39.804	18.961	4.1051e-06	80.42	144.950	257.190	217.004	155.608	268.305	289.968	155.340	160.492	274.327	336.500	159.359	163.233	162.486	167.853	243.048	167.040	-8191	255	
#DATA ENDS
