BOXY.EXE: ISS Imagent and Oximeter Data Acquisition Program Version 0.80
Ascii Record File

#ACQ INFORMATION
2  Detector Channels 
16  External MUX Channels 
1  Auxiliary Channels 
5000  Waveform (CCF) Frequency (Hz)
1  Waveforms Skipped 
30  Waveforms Averaged 
1  Cycles Averaged 
16  Acquisitions per Waveform 
10.0806  Updata Rate (Hz) 

#FILE INFORMATION
TRUE -- External MUX Channel results are PARSED.
FALSE -- AC DC and Phase are NOT grouped.
TRUE -- Companion Program Settings File CREATED.
FALSE -- AC data not excluded
FALSE -- DC data not excluded
FALSE -- Phase data not excluded
FALSE -- Auxillary Chn. data not excluded
Tab delimiters

#CALIBRATION STATE
TRUE -- Waveform Calibration Values APPLIED.


#AUX CALIBRATION VALUES
Val Type	aux-1	

Term	1.0000e+00	
Factor	0.0000e+00	


#WF CALIBRATION VALUES
A = Detector Channel
Val Type	A-AC1	A-AC2	A-AC3	A-AC4	A-AC5	A-AC6	A-AC7	A-AC8	A-AC9	A-AC10	A-AC11	A-AC12	A-AC13	A-AC14	A-AC15	A-AC16	A-DC1	A-DC2	A-DC3	A-DC4	A-DC5	A-DC6	A-DC7	A-DC8	A-DC9	A-DC10	A-DC11	A-DC12	A-DC13	A-DC14	A-DC15	A-DC16	A-Ph1	A-Ph2	A-Ph3	A-Ph4	A-Ph5	A-Ph6	A-Ph7	A-Ph8	A-Ph9	A-Ph10	A-Ph11	A-Ph12	A-Ph13	A-Ph14	A-Ph15	A-Ph16	

Term	0.00000e+00	0.00000e+00	0.00000e+00	0.00000e+00	0.00000e+00	0.00000e+00	0.00000e+00	0.00000e+00	0.00000e+00	0.00000e+00	0.00000e+00	0.00000e+00	0.00000e+00	0.00000e+00	0.00000e+00	0.00000e+00	0.00000e+00	0.00000e+00	0.00000e+00	0.00000e+00	0.00000e+00	0.00000e+00	0.00000e+00	0.00000e+00	0.00000e+00	0.00000e+00	0.00000e+00	0.00000e+00	0.00000e+00	0.00000e+00	0.00000e+00	0.00000e+00	0.00000e+00	0.00000e+00	0.00000e+00	0.00000e+00	0.00000e+00	0.00000e+00	0.00000e+00	0.00000e+00	0.00000e+00	0.00000e+00	0.00000e+00	0.00000e+00	0.00000e+00	0.00000e+00	0.00000e+00	0.00000e+00	
Factor	1.00000e+00	1.00000e+00	1.00000e+00	1.00000e+00	1.00000e+00	1.00000e+00	1.00000e+00	1.00000e+00	1.00000e+00	1.00000e+00	1.00000e+00	1.00000e+00	1.00000e+00	1.00000e+00	1.00000e+00	1.00000e+00	1.00000e+00	1.00000e+00	1.00000e+00	1.00000e+00	1.00000e+00	1.00000e+00	1.00000e+00	1.00000e+00	1.00000e+00	1.00000e+00	1.00000e+00	1.00000e+00	1.00000e+00	1.00000e+00	1.00000e+00	1.00000e+00	X	X	X	X	X	X	X	X	X	X	X	X	X	X	X	X	

B = Detector Channel
Val Type	B-AC1	B-AC2	B-AC3	B-AC4	B-AC5	B-AC6	B-AC7	B-AC8	B-AC9	B-AC10	B-AC11	B-AC12	B-AC13	B-AC14	B-AC15	B-AC16	B-DC1	B-DC2	B-DC3	B-DC4	B-DC5	B-DC6	B-DC7	B-DC8	B-DC9	B-DC10	B-DC11	B-DC12	B-DC13	B-DC14	B-DC15	B-DC16	B-Ph1	B-Ph2	B-Ph3	B-Ph4	B-Ph5	B-Ph6	B-Ph7	B-Ph8	B-Ph9	B-Ph10	B-Ph11	B-Ph12	B-Ph13	B-Ph14	B-Ph15	B-Ph16	

Term	0.00000e+00	0.00000e+00	0.00000e+00	0.00000e+00	0.00000e+00	0.00000e+00	0.00000e+00	0.00000e+00	0.00000e+00	0.00000e+00	0.00000e+00	0.00000e+00	0.00000e+00	0.00000e+00	0.00000e+00	0.00000e+00	0.00000e+00	0.00000e+00	0.00000e+00	0.00000e+00	0.00000e+00	0.00000e+00	0.00000e+00	0.00000e+00	0.00000e+00	0.00000e+00	0.00000e+00	0.00000e+00	0.00000e+00	0.00000e+00	0.00000e+00	0.00000e+00	-1.73704e+02	-1.32310e+02	-1.30523e+02	-1.83574e+02	-7.60477e+01	-6.70359e+01	-1.55495e+02	-1.62015e+02	-7.99824e+01	-6.07535e+01	-1.70946e+02	-1.70640e+02	-1.80572e+02	-1.76431e+02	-8.06021e+01	-1.49822e+02	
Factor	2.81431e-05	1.40646e-04	3.83973e-05	2.01100e-01	1.36085e-06	1.58655e-06	1.53996e-01	4.82859e-02	1.48335e-06	1.59777e-06	8.17184e-02	2.79086e-02	4.74001e-02	8.75135e-03	1.44834e-06	1.23503e-02	7.47231e-06	9.38387e-06	2.59553e-06	1.05508e-01	9.95022e-08	1.03510e-07	7.64957e-02	2.55268e-02	9.80276e-08	1.03065e-07	4.19575e-02	1.43083e-02	2.51944e-02	4.66655e-03	1.00170e-07	6.38590e-03	X	X	X	X	X	X	X	X	X	X	X	X	X	X	X	X	



#DISTANCE SETTINGS
A = Detector Channel
A-1	A-2	A-3	A-4	A-5	A-6	A-7	A-8	A-9	A-10	A-11	A-12	A-13	A-14	A-15	A-16	

2.5000e+00	3.0000e+00	2.5000e+00	3.0000e+00	2.0000e+00	3.0000e+00	1.5000e+00	3.0000e+00	3.0000e+00	3.0000e+00	3.0000e+00	3.0000e+00	3.0000e+00	3.0000e+00	1.5000e+00	3.0000e+00	

B = Detector Channel
B-1	B-2	B-3	B-4	B-5	B-6	B-7	B-8	B-9	B-10	B-11	B-12	B-13	B-14	B-15	B-16	

1.0000e+01	1.0000e+01	1.0000e+01	1.4400e+00	1.0000e+01	1.0000e+01	1.5100e+00	1.9400e+00	1.0000e+01	1.0000e+01	1.9900e+00	2.4900e+00	2.4100e+00	2.9000e+00	1.0000e+01	2.9800e+00	




#DATA BEGINS
time	group	step	mark	flag	A-AC1	A-AC2	A-AC3	A-AC4	A-AC5	A-AC6	A-AC7	A-AC8	A-AC9	A-AC10	A-AC11	A-AC12	A-AC13	A-AC14	A-AC15	A-AC16	A-DC1	A-DC2	A-DC3	A-DC4	A-DC5	A-DC6	A-DC7	A-DC8	A-DC9	A-DC10	A-DC11	A-DC12	A-DC13	A-DC14	A-DC15	A-DC16	A-Ph1	A-Ph2	A-Ph3	A-Ph4	A-Ph5	A-Ph6	A-Ph7	A-Ph8	A-Ph9	A-Ph10	A-Ph11	A-Ph12	A-Ph13	A-Ph14	A-Ph15	A-Ph16	B-AC1	B-AC2	B-AC3	B-AC4	B-AC5	B-AC6	B-AC7	B-AC8	B-AC9	B-AC10	B-AC11	B-AC12	B-AC13	B-AC14	B-AC15	B-AC16	B-DC1	B-DC2	B-DC3	B-DC4	B-DC5	B-DC6	B-DC7	B-DC8	B-DC9	B-DC10	B-DC11	B-DC12	B-DC13	B-DC14	B-DC15	B-DC16	B-Ph1	B-Ph2	B-Ph3	B-Ph4	B-Ph5	B-Ph6	B-Ph7	B-Ph8	B-Ph9	B-Ph10	B-Ph11	B-Ph12	B-Ph13	B-Ph14	B-Ph15	B-Ph16	aux-1	digaux	

4229.568	1	1	0	768	0.080391	0.077565	0.19564	0.3401	0.19419	0.26005	0.13697	0.057966	0.11536	0.25139	0.23799	0.023325	0.1687	0.16204	0.059605	0.18713	-2.8854	-2.3125	-3.1896	-3.0458	-2.6375	-3.4646	-2.8563	-3.1479	-3.2854	-2.5542	-3.4208	-3.0667	-2.4833	-3.1375	-2.7229	-2.8271	187.029	-127.316	-161.286	145.328	-159.228	51.352	-12.802	116.822	191.714	37.662	-140.976	100.426	-24.722	-112.880	-62.623	176.008	0.00074606	0.00090515	0.00019909	528.6	1.1991e-05	4.1949e-06	1174.6	186.48	1.0594e-05	7.4895e-06	465	156.58	60.276	23.73	2.901e-07	74.223	0.0022764	0.0026853	0.00073425	479.88	2.8678e-05	2.8743e-05	1046.4	168.49	2.8185e-05	2.9194e-05	416.72	140.53	59.135	21.995	2.8854e-05	67.231	154.506	-31.221	-71.234	-147.745	18.283	-71.449	-149.194	-144.826	-154.290	-54.593	-145.680	-142.565	-143.029	-138.156	-7.142	-139.392	-8191	255	
4229.665	1	1	0	0	0.19042	0.10241	0.27635	0.028996	0.23481	0.22328	0.050605	0.12823	0.21716	0.14019	0.20444	0.080157	0.10469	0.14153	0.032954	0.12387	-2.9167	-2.3375	-3.0979	-3.0729	-2.5438	-3.3208	-2.9021	-2.8625	-3.3146	-2.7687	-3.1312	-3.4771	-2.5396	-3.4229	-2.7917	-2.8083	130.950	178.744	95.393	-60.020	187.976	-5.872	169.031	124.336	-144.325	26.507	187.590	-7.408	-158.027	-158.290	62.504	99.268	0.0010668	0.00048796	0.00038006	517.87	7.2455e-06	1.3823e-05	1180.8	186.38	8.2689e-06	4.6066e-06	463.59	156.82	60.324	23.995	5.6603e-06	74.561	0.0022728	0.0026157	0.00073081	478.98	2.8499e-05	2.9158e-05	1046.3	168.56	2.7312e-05	2.9433e-05	416.57	141.11	58.599	22.134	2.8231e-05	67.229	167.226	-47.980	-92.388	-148.375	-5.350	-17.120	-148.989	-144.471	61.370	-67.484	-145.600	-142.377	-142.784	-137.782	-29.279	-139.130	-8191	255	
4229.761	1	1	0	0	0.17682	0.099327	0.26081	0.081656	0.099972	0.1339	0.021287	0.35224	0.26965	0.062442	0.051518	0.1611	0.18358	0.18029	0.19228	0.034932	-3.0187	-2.7729	-3.0521	-3.2125	-2.5417	-3.2625	-3.1354	-2.6375	-3.5417	-2.6583	-3.175	-3.3417	-2.5333	-3.2812	-2.8792	-2.7562	-134.827	-159.290	173.433	78.783	-152.273	-29.477	-24.787	100.611	154.433	-127.176	120.209	-144.636	-10.751	12.251	124.433	18.353	0.00082828	0.00032341	0.00024597	520.83	8.9918e-06	1.642e-06	1172.5	187.05	4.5527e-06	7.3386e-06	467	155.99	59.601	23.857	5.5754e-06	75.032	0.0022642	0.0026158	0.00072796	478.02	2.8653e-05	2.9073e-05	1046.5	169.12	2.7608e-05	2.9308e-05	416.61	140.31	58.715	22.151	2.8558e-05	67.575	161.419	-112.501	-53.185	-147.888	-18.302	-97.235	-149.254	-145.163	-25.055	90.445	-145.606	-142.538	-142.188	-137.759	64.590	-138.983	-8191	255	
4229.857	1	1	0	0	0.1825	0.21249	0.12006	0.16282	0.22595	0.10985	0.18447	0.09871	0.20261	0.14993	0.32882	0.13328	0.19334	0.10503	0.034142	0.067541	-3.0792	-2.7313	-2.875	-3.4625	-2.4729	-3.0687	-3.1896	-2.5396	-3.2917	-2.8104	-2.8812	-3.5354	-2.5396	-3.1354	-3.2104	-2.825	162.532	28.217	85.117	120.023	68.145	-1.674	138.015	-102.825	-153.872	66.871	136.512	190.273	78.719	-92.786	-76.874	93.722	0.0009617	0.00021	8.7517e-05	519.91	3.6642e-06	1.9958e-06	1178.5	187.19	2.9456e-06	1.6777e-05	468.23	158.31	60.148	23.993	8.5363e-06	74.921	0.0022668	0.0026456	0.00073988	479.22	2.8617e-05	2.9438e-05	1049.8	169.3	2.8101e-05	2.9436e-05	419.75	141.75	58.72	22.19	2.9009e-05	67.545	161.498	169.512	-129.196	-147.675	-21.332	-116.288	-149.092	-145.008	-34.831	38.545	-145.563	-142.758	-142.212	-138.144	-22.230	-139.425	-8191	255	
4229.953	1	1	0	0	0.1769	0.057776	0.25221	0.18615	0.23143	0.15231	0.37083	0.1776	0.10412	0.13355	0.052057	0.24981	0.06417	0.14869	0.11769	0.27173	-2.9708	-2.8312	-2.7438	-3.4021	-2.5542	-2.9229	-3.3708	-2.7229	-3.2417	-2.85	-2.8396	-3.3187	-2.6833	-3.1646	-3.2521	-2.7062	-161.873	188.264	-154.890	135.036	121.761	66.807	115.970	62.224	111.314	40.090	50.177	-141.634	183.758	-50.624	35.057	-139.938	0.00088104	0.0012198	2.2616e-05	522.51	1.1347e-05	4.1848e-06	1181.8	186.82	6.5009e-06	1.1201e-05	470.71	158.02	60.039	24.012	3.1372e-06	74.463	0.0023036	0.0026484	0.00074321	479.96	2.8454e-05	2.9433e-05	1050.3	168.91	2.7782e-05	2.9152e-05	419.17	141.47	59.15	22.276	2.8402e-05	67.377	163.810	-109.689	93.756	-148.080	82.842	5.784	-148.869	-145.156	-16.390	-27.565	-145.516	-142.444	-141.730	-136.840	48.584	-138.843	-8191	255	
4230.049	1	1	0	0	0.032944	0.13578	0.11151	0.16173	0.20262	0.19671	0.28853	0.26446	0.14677	0.19096	0.13704	0.091458	0.080328	0.10218	0.068981	0.20871	-2.8708	-2.8521	-2.6271	-3.5625	-2.7479	-2.8333	-3.3812	-2.4792	-3.1792	-2.9562	-2.8771	-3.6458	-2.5896	-2.95	-3.5187	-2.6437	171.036	103.329	168.605	-131.990	-77.270	-71.061	122.143	148.479	-15.707	-76.511	114.611	184.032	90.865	183.133	-159.896	134.200	0.00091703	2.282e-05	0.00027191	523.07	1.0847e-05	4.9457e-06	1184.9	186.73	5.2189e-06	1.5488e-05	467.63	157.5	59.863	23.906	7.4009e-06	75.279	0.0022896	0.0027062	0.00073694	479.9	2.8334e-05	2.9394e-05	1050.2	169.28	2.796e-05	2.906e-05	418.54	141.17	58.936	22.21	2.772e-05	67.735	151.672	130.580	-123.186	-148.009	-29.807	-54.354	-149.123	-144.386	142.113	-3.261	-145.781	-142.683	-142.841	-137.084	-39.170	-139.098	-8191	255	
4230.170	1	1	0	0	0.062207	0.34749	0.22609	0.057807	0.15974	0.24595	0.38997	0.11821	0.26479	0.019946	0.31301	0.18299	0.086768	0.2032	0.073544	0.17174	-2.7938	-3.0833	-2.5875	-3.2771	-2.7771	-2.8792	-3.4562	-2.6417	-3.2417	-3.1937	-2.8792	-3.3854	-2.7875	-2.7854	-3.3937	-2.7	129.361	169.341	125.493	127.474	113.679	28.855	191.483	147.945	-40.074	148.302	88.645	90.733	113.883	194.844	-7.967	161.618	0.00075181	0.0013873	9.1658e-05	523.34	1.0471e-05	1.0058e-05	1177	186.95	1.22e-05	9.0521e-06	467.35	159.29	59.357	24.031	8.221e-06	75.413	0.0022818	0.0026226	0.00074037	480.28	2.8811e-05	3.0149e-05	1051.3	169.04	2.7861e-05	2.9143e-05	419.38	142.35	58.85	22.282	2.869e-05	67.776	157.752	-50.862	94.290	-148.382	-77.906	0.875	-149.004	-145.036	-40.992	-48.226	-145.596	-142.274	-142.410	-137.873	-19.069	-139.437	-8191	255	
4230.266	1	1	0	0	0.2707	0.10924	0.3045	0.18453	0.11413	0.17839	0.2318	0.042846	0.23442	0.19691	0.18916	0.21017	0.35607	0.16255	0.31324	0.22608	-2.6979	-3.0854	-2.55	-3.4375	-3.0229	-2.7438	-3.5583	-2.7958	-3.2042	-3.2458	-2.7083	-3.6125	-3.0917	-2.6479	-3.3667	-2.8979	-147.105	-2.329	160.308	153.166	176.186	-107.314	81.937	-154.412	97.635	-58.861	2.843	192.377	180.427	154.134	42.244	95.691	0.00084056	8.4532e-05	0.0001945	525.4	8.5519e-06	1.5231e-05	1187.3	187.15	9.8193e-06	8.2766e-06	470.14	158.81	59.969	23.989	1.3933e-05	75.043	0.0022906	0.0027002	0.00074423	482.99	2.8833e-05	2.9525e-05	1056.5	168.62	2.8635e-05	2.9958e-05	419.82	142	58.847	22.131	2.8594e-05	67.691	162.004	-108.448	192.177	-147.679	-24.617	-3.716	-148.805	-144.734	-13.612	66.265	-145.342	-142.246	-141.871	-137.553	3.274	-139.197	-8191	255	
4230.362	1	1	0	0	0.099546	0.053162	0.29146	0.094216	0.223	0.13209	0.12776	0.22454	0.14817	0.10926	0.26023	0.1915	0.12765	0.17358	0.22751	0.33919	-2.3438	-3.3146	-2.4521	-3.4188	-3.1667	-2.5646	-3.4771	-2.6896	-2.9333	-3.5062	-2.7271	-3.3729	-3.0812	-2.5312	-3.4437	-2.9396	24.912	71.731	107.954	168.815	112.920	-49.350	186.271	131.420	119.138	111.902	119.625	-143.985	-145.821	-141.866	-58.825	141.952	0.00074324	0.00071043	0.0002551	526.15	1.0102e-05	1.1013e-05	1187.3	186.61	7.9325e-06	7.7469e-06	469.03	157.42	60.109	23.89	9.4405e-06	74.706	0.002291	0.002726	0.00074711	481.97	2.9059e-05	2.9872e-05	1054	168.96	2.827e-05	2.9754e-05	418.59	141.45	59.009	22.165	2.8161e-05	67.51	152.350	11.771	-23.932	-147.227	4.767	-129.404	-148.586	-144.496	0.670	-82.988	-145.457	-142.581	-142.489	-137.763	-52.760	-139.077	-8191	255	
4230.458	1	1	0	0	0.17593	0.1307	0.18936	0.071191	0.12297	0.090533	0.14404	0.10863	0.10899	0.17989	0.18794	0.33687	0.25233	0.10997	0.050599	0.30085	-2.5	-3.2771	-2.3667	-3.2625	-3.225	-2.6833	-3.5729	-2.8479	-2.8521	-3.3083	-2.7062	-3.075	-3.2646	-2.6625	-3.4021	-3.0938	19.812	-77.074	187.450	-146.537	192.204	-155.723	186.487	182.298	165.185	122.629	75.835	193.770	128.677	70.813	-85.832	68.324	0.00083007	0.00076241	0.00014365	520.17	1.4906e-05	1.1669e-05	1189.7	187.05	3.4829e-06	3.8684e-06	467.57	157.87	60.474	23.883	6.7827e-06	74.862	0.0023385	0.0026925	0.00073779	479.27	2.8815e-05	2.9509e-05	1055.4	168.69	2.874e-05	2.9007e-05	419.88	141.88	59.181	22.108	2.8761e-05	67.679	154.745	-79.792	-147.235	-147.123	-41.442	-2.308	-148.761	-144.772	-59.930	197.176	-145.951	-142.701	-143.325	-138.036	29.940	-139.799	-8191	255	
4230.553	1	1	0	0	0.33271	0.13285	0.1853	0.20307	0.058753	0.15021	0.14911	0.077974	0.13221	0.11035	0.099903	0.13683	0.16587	0.11163	0.13705	0.2203	-2.1729	-3.3521	-2.6354	-3.0896	-3.3667	-2.6042	-3.425	-3.1188	-2.5958	-3.4271	-2.9875	-2.8604	-3.3187	-2.5979	-3.2167	-3.2021	188.290	122.786	-2.076	55.733	182.278	134.958	-101.697	120.430	-96.599	-22.956	144.540	-13.291	191.884	119.533	-17.009	-138.174	0.00074825	0.00043443	0.00015248	524.02	6.277e-06	1.0117e-05	1190.8	186.63	2.3107e-06	1.0947e-05	470.1	158.3	61.357	23.988	4.6634e-06	74.726	0.0023536	0.0026748	0.00075382	482.89	2.8485e-05	2.962e-05	1058.2	168.83	2.8058e-05	2.8924e-05	420.84	141.94	59.285	22.194	2.9122e-05	67.75	173.749	104.123	22.221	-148.301	-7.288	-7.600	-148.996	-145.175	156.610	-35.501	-145.370	-142.491	-141.645	-137.857	104.399	-139.203	-8191	255	
4230.649	1	1	0	0	0.022056	0.096865	0.045201	0.25963	0.16173	0.15203	0.13356	0.081457	0.17982	0.16041	0.23374	0.26785	0.13827	0.1042	0.13804	0.14741	-2.1167	-3.3958	-2.7917	-2.8708	-3.1833	-2.8229	-3.4542	-3.1875	-2.6229	-3.2917	-2.8729	-2.9354	-3.2479	-2.5396	-3.0708	-3.3146	175.131	-141.275	173.377	196.497	42.854	-52.601	116.916	101.489	129.898	-110.109	-145.994	128.897	122.011	-162.531	194.732	51.795	0.00096539	0.0014191	4.8871e-05	522.51	4.0657e-06	1.0807e-05	1194.5	187.8	1.1557e-05	9.0532e-06	470.22	156.88	59.41	23.911	8.8985e-06	74.697	0.0023461	0.0026582	0.00074879	482.33	2.8453e-05	2.9669e-05	1058.6	169.51	2.8673e-05	2.9605e-05	420.13	141.87	58.989	22.199	2.9317e-05	67.446	162.139	-135.765	-85.513	-148.149	62.564	34.338	-148.587	-144.787	26.102	-6.816	-145.964	-142.073	-142.225	-138.306	-7.439	-139.150	-8191	255	
4230.769	1	1	0	0	0.24024	0.18116	0.20445	0.074542	0.1257	0.096303	0.33005	0.25472	0.10292	0.29485	0.1954	0.16007	0.11789	0.057573	0.12408	0.28261	-2.1729	-3.3292	-2.7458	-2.7104	-3.4542	-2.6833	-3.15	-3.3875	-2.5646	-3.3354	-3.025	-2.6813	-3.3604	-2.6896	-2.7458	-3.3292	-150.429	45.343	66.998	72.630	138.085	-31.838	111.451	109.772	92.558	167.067	175.918	-35.386	-98.257	15.450	-130.462	84.250	0.0009025	0.0012065	0.00015916	524.76	7.6188e-07	3.6275e-06	1192.2	186.37	4.8549e-06	1.1798e-05	467.2	158.02	59.83	23.875	2.2402e-06	75.229	0.0023253	0.0026869	0.00075984	481.81	2.845e-05	3.0217e-05	1057.2	168.82	2.8348e-05	2.9057e-05	419.44	141.42	58.987	22.144	2.9552e-05	67.648	151.927	-27.983	-126.706	-147.318	62.571	45.901	-148.763	-145.232	-82.049	15.977	-145.900	-142.441	-142.844	-137.836	-89.138	-138.940	-8191	255	
4230.866	1	1	0	0	0.065837	0.038275	0.151	0.04142	0.22101	0.21354	0.14154	0.027854	0.26728	0.20039	0.015865	0.20677	0.29624	0.23626	0.19955	0.083909	-2.3208	-3.2729	-2.7938	-2.7917	-3.3646	-2.6125	-3.125	-3.275	-2.5438	-3.1958	-3.1229	-2.6896	-3.5062	-2.9417	-2.9542	-3.4667	89.653	-15.359	102.995	39.297	-114.159	183.402	106.637	142.973	14.872	-38.517	-98.702	148.063	-138.615	147.589	-119.114	43.565	0.00093323	0.00057796	0.00021665	521.49	8.5059e-06	8.1436e-06	1190.5	187.55	9.4727e-06	1.2503e-05	466.05	157.45	59.544	23.887	4.7047e-06	75.264	0.0023485	0.0026822	0.00073835	480.82	2.8683e-05	2.9933e-05	1056.9	168.94	2.8684e-05	3.0014e-05	419.57	141.62	59.028	22.189	2.9669e-05	67.756	154.138	36.665	-76.137	-147.242	-52.164	33.664	-148.704	-144.827	17.883	86.442	-145.222	-142.204	-142.446	-137.447	-25.072	-138.912	-8191	255	
4230.962	1	1	0	0	0.22829	0.13618	0.21237	0.22138	0.096321	0.23082	0.10902	0.19251	0.13715	0.066568	0.20348	0.20895	0.04224	0.36735	0.2551	0.45728	-2.3042	-3.2979	-3.2208	-2.4396	-3.325	-2.8333	-2.9104	-3.4562	-2.7083	-3.3104	-3.2271	-2.8187	-3.3604	-2.9833	-2.7062	-3.5229	43.631	172.543	-18.204	-149.980	95.300	145.964	130.548	149.366	-124.166	-45.690	187.534	164.923	138.451	-123.099	-73.884	133.219	0.0011059	0.00041491	0.0001111	524.3	7.95e-06	8.1347e-06	1197.7	186.85	1.2202e-05	9.5992e-06	470.5	152.7	59.647	23.905	6.1542e-06	71.845	0.0023925	0.002734	0.00076557	483.75	2.9013e-05	3.0252e-05	1060.4	169.65	2.8687e-05	2.9792e-05	421.39	141.11	58.9	22.125	2.8976e-05	67.144	161.721	-76.470	-50.628	-146.877	-36.711	-37.222	-147.658	-144.018	-92.822	8.547	-144.715	-140.348	-141.368	-136.751	-43.438	-137.685	-8191	255	
4231.058	1	1	0	0	0.26133	0.20954	0.09706	0.049808	0.03482	0.19509	0.26364	0.10613	0.20802	0.10653	0.12476	0.23575	0.21056	0.26518	0.11424	0.11971	-2.2896	-2.9813	-3.2625	-2.5687	-3.25	-3.1646	-2.8312	-3.4104	-2.55	-2.8854	-3.3979	-2.7146	-3.2667	-3.0917	-2.7208	-3.4583	170.240	-68.920	56.557	-139.461	95.612	50.791	99.456	102.229	136.121	-80.135	170.960	145.347	34.250	182.507	50.941	179.095	0.00070586	0.00035092	0.00021388	512.49	8.2775e-06	9.8174e-06	1176.5	184.12	6.8976e-06	7.8239e-06	465.65	156.76	59.232	23.635	1.5327e-05	74.083	0.0023092	0.0027302	0.0007424	479.1	2.8683e-05	2.9304e-05	1051.9	168.49	2.8551e-05	3.0167e-05	419.22	141.25	58.715	22.094	2.8337e-05	67.518	153.227	56.076	-44.627	-146.743	50.515	-25.643	-147.328	-143.868	-61.347	87.841	-144.139	-141.319	-141.239	-136.620	-80.347	-137.964	-8191	255	
4231.130	1	1	0	0	0.12576	0.24894	0.08427	0.041	0.036232	0.10051	0.29214	0.098041	0.10168	0.046234	0.23407	0.10073	0.14025	0.20247	0.17242	0.22105	-2.2854	-2.9958	-3.2854	-2.6063	-3.2771	-3.1458	-2.6833	-3.4188	-2.6833	-2.8	-3.425	-2.6146	-3.1458	-3.1479	-2.5417	-3.3167	-94.815	7.300	70.570	-44.482	77.448	-159.600	103.794	140.655	-71.597	-31.816	178.836	-134.178	72.082	150.178	-158.529	13.581	0.00096113	0.0010514	0.00015501	522.57	5.3825e-06	8.4394e-06	1194.5	184.9	6.1263e-06	6.7525e-06	468.28	158.53	60.549	23.843	9.3049e-07	74.726	0.0023035	0.0027628	0.00075262	479.17	2.8766e-05	3.0031e-05	1059.5	168.29	2.9097e-05	3.0276e-05	418.55	141.9	59.193	22.082	2.9094e-05	67.625	165.899	-86.286	-116.429	-146.884	-44.005	13.559	-147.402	-143.523	-132.576	189.906	-144.351	-141.749	-141.994	-137.723	163.744	-139.037	-8191	255	
4231.250	1	1	0	0	0.09958	0.19371	0.17816	0.094537	0.21862	0.022096	0.23063	0.35915	0.28497	0.20193	0.27372	0.35151	0.28218	0.16081	0.14936	0.15453	-2.3479	-2.5708	-3.2875	-2.6667	-3.1167	-3.2	-2.6146	-3.2062	-2.6958	-2.6854	-3.4667	-2.7542	-2.9854	-3.2479	-2.5812	-3.3187	-19.838	129.635	-140.765	119.887	-8.434	117.598	119.756	152.382	-67.549	46.669	148.133	-125.157	-97.122	86.187	29.124	191.757	0.001032	0.00029234	0.00015678	524.61	1.0199e-05	1.2047e-05	1190.6	184.74	6.2207e-06	1.4529e-06	471.5	158.11	60.371	23.765	9.5185e-06	75.049	0.0023272	0.0027404	0.00074681	481.85	2.8722e-05	3.0228e-05	1059.1	168.56	2.8777e-05	3.0444e-05	422.17	141.95	59.352	22.046	2.9182e-05	67.742	156.237	-129.902	151.041	-147.435	-28.671	1.503	-149.087	-144.948	-130.871	-56.267	-145.733	-142.914	-142.059	-138.226	-3.392	-139.611	-8191	255	
4231.346	1	1	0	0	0.23422	0.045171	0.093864	0.20665	0.078461	0.20786	0.21118	0.086777	0.12482	0.21697	0.092954	0.27017	0.15107	0.16414	0.17429	0.2116	-2.5729	-2.4792	-3.3312	-2.7354	-2.7958	-3.3042	-2.7146	-3.4104	-2.8854	-2.6854	-3.4333	-2.7125	-2.9729	-3.4208	-2.6104	-3.2521	33.043	159.687	44.165	108.440	32.953	115.542	133.390	136.263	-158.473	8.939	172.681	186.720	128.641	-63.034	-140.888	120.455	0.00089142	0.001196	0.00019678	529.29	1.4763e-05	5.0695e-06	1188.1	187.56	7.5833e-06	9.7968e-06	468.46	158.58	59.17	24.096	1.249e-05	75.031	0.0023281	0.0027318	0.00075407	483.51	2.9133e-05	2.971e-05	1060.3	169.34	2.8484e-05	3.0016e-05	421.21	141.64	59.01	22.231	2.9436e-05	67.952	161.237	-8.718	-89.102	-148.338	69.935	60.621	-149.174	-145.083	-2.498	24.532	-146.013	-142.987	-142.875	-138.137	-155.344	-139.375	-8191	255	
4231.442	1	1	0	0	0.11469	0.30107	0.17091	0.21262	0.18273	0.26461	0.23055	0.14222	0.26827	0.12866	0.13251	0.09879	0.26586	0.2096	0.11731	0.09831	-2.7458	-2.6458	-3.2979	-2.6792	-2.8937	-3.1396	-2.5187	-3.05	-3.1167	-2.5375	-3.3625	-2.9354	-2.5979	-3.5042	-2.6917	-3.3021	-23.533	-105.741	-64.715	120.429	140.415	-80.767	-134.384	86.276	-36.114	-132.070	96.810	88.402	-65.740	152.561	113.555	124.300	0.0008918	0.00066451	2.2315e-05	518.39	5.2383e-06	3.8021e-06	1188.7	185.8	6.5102e-06	7.7967e-06	466.69	157.68	60.414	23.613	1.461e-06	74.899	0.0022934	0.0027342	0.0007702	481.03	2.9064e-05	2.9709e-05	1057.1	168.86	2.865e-05	3.0208e-05	419.16	141.59	59.007	22.082	2.932e-05	67.578	154.506	-45.651	-11.903	-148.306	79.391	6.609	-149.458	-145.182	101.429	-7.958	-146.017	-143.187	-142.800	-138.153	108.510	-139.593	-8191	255	
4231.539	1	1	0	0	0.21023	0.08153	0.13453	0.16315	0.28445	0.24696	0.081358	0.14831	0.13666	0.15904	0.16999	0.23965	0.24412	0.084601	0.16852	0.16977	-2.7396	-2.6417	-3.1562	-3	-2.7354	-3.4375	-2.7521	-3.0583	-3.2354	-2.4875	-3.2896	-3.15	-2.6375	-3.3563	-2.7938	-2.9604	153.752	2.689	-93.538	-45.234	-15.298	-48.442	142.264	128.256	-52.819	-131.070	175.155	147.192	-125.570	169.804	-2.734	148.966	0.0010674	0.0004642	6.0599e-05	523.61	8.8779e-06	1.0025e-05	1184.5	186.28	1.166e-05	7.0506e-06	469.17	157.99	59.392	23.651	8.6533e-06	74.855	0.0023566	0.0027294	0.00074913	479.69	2.8597e-05	2.959e-05	1055.2	168.74	2.8147e-05	3.0159e-05	420.13	141.77	58.785	22.006	2.9203e-05	67.506	161.834	-130.685	168.217	-148.248	-12.314	-119.615	-149.611	-145.473	-11.677	-126.906	-145.927	-143.123	-143.329	-138.540	79.655	-139.321	-8191	255	
4231.657	1	1	0	0	0.31709	0.055667	0.062164	0.10954	0.15155	0.19121	0.23513	0.13919	0.18068	0.080242	0.32737	0.0055304	0.14078	0.07122	0.13579	0.28853	-2.8625	-2.4375	-3.0146	-3.0333	-2.4771	-3.3479	-2.9146	-2.7479	-3.3542	-2.6625	-3.1354	-3.2042	-2.5771	-3.2375	-2.7938	-2.7188	116.094	93.461	40.113	186.606	27.812	-47.178	115.569	151.770	44.584	42.586	157.043	62.100	-133.903	-114.813	-100.469	-145.657	0.0010756	0.00043611	0.00014748	529.05	1.1511e-05	7.5847e-06	1189.8	186.29	4.5759e-06	1.9076e-05	466.88	157.19	59.524	23.643	8.2796e-06	74.567	0.0023113	0.0026805	0.00076639	481.2	2.8779e-05	2.9981e-05	1058.6	168.68	2.8483e-05	3.0078e-05	419	140.96	58.498	21.877	2.8434e-05	67.154	152.125	183.152	-63.199	-148.398	4.991	57.372	-149.366	-145.278	-62.800	-22.048	-145.978	-143.184	-143.236	-138.596	194.537	-139.461	-8191	255	
4231.731	1	1	0	0	0.11727	0.14029	0.24994	0.060319	0.21199	0.066036	0.14678	0.063621	0.049737	0.31564	0.31503	0.22278	0.10918	0.14188	0.11586	0.077182	-2.9396	-2.5125	-2.7062	-3.3187	-2.5604	-3.225	-2.9667	-2.7625	-3.3	-2.5958	-3.1792	-3.2438	-2.6083	-3.3292	-2.7396	-2.5583	142.954	-146.086	-132.540	102.773	-162.555	148.416	-119.786	-94.971	-88.217	-153.021	179.400	-129.695	-115.278	98.960	-95.841	97.792	0.00071265	0.0010113	0.00011568	515.66	7.2835e-06	1.6255e-05	1187	184.38	1.5256e-05	1.1586e-05	463.94	154.46	58.726	23.327	6.0957e-06	73.568	0.002292	0.0027252	0.00075497	477.95	2.8544e-05	2.9911e-05	1054.6	167.38	2.8103e-05	2.9627e-05	416.72	139.4	58.191	21.742	2.8594e-05	66.277	164.704	-32.728	-39.983	-148.772	-100.845	6.492	-149.324	-145.383	-59.320	2.846	-145.983	-143.281	-142.567	-137.999	-55.597	-139.619	-8191	255	
4231.850	1	1	0	0	0.12192	0.10507	0.34008	0.14572	0.1678	0.13423	0.19401	0.15098	0.24806	0.084408	0.38411	0.25714	0.10526	0.16913	0.10252	0.1609	-3.0312	-2.5771	-3.0187	-3.2438	-2.4896	-3.3396	-2.9354	-2.5479	-3.2271	-2.6646	-2.95	-3.2604	-2.4958	-3.05	-2.9188	-2.575	-35.220	46.239	-130.605	-54.874	44.802	-93.514	187.644	53.446	12.613	194.197	175.341	165.119	-56.096	-79.458	76.962	-129.975	0.0008447	0.0019653	0.00034311	516.11	8.7652e-06	9.2253e-06	1183	183.8	1.1363e-05	1.2665e-05	460.88	156	58.762	23.059	5.581e-06	73.341	0.0023496	0.0026671	0.00075154	476.61	2.8738e-05	2.9917e-05	1051.1	166.89	2.7996e-05	2.9646e-05	415.03	139.08	57.842	21.525	2.8605e-05	66.216	154.686	-66.345	-85.759	-148.585	31.041	-16.696	-149.236	-145.433	-48.168	-24.755	-145.801	-143.200	-142.982	-138.480	42.489	-139.781	-8191	255	
4231.946	1	1	0	0	0.19247	0.19201	0.071632	0.20954	0.1836	0.12463	0.36465	0.27916	0.18551	0.26247	0.07568	0.18173	0.1539	0.36436	0.25337	0.19976	-3	-2.8083	-2.6188	-3.4708	-2.6396	-3.2833	-3.2396	-2.5229	-3.1292	-2.8312	-2.8875	-3.5062	-2.5083	-3.0833	-3.0146	-2.6479	-87.587	107.523	-155.288	-100.308	130.167	120.345	110.704	115.297	-21.521	-28.935	94.538	147.356	43.674	192.227	102.047	102.356	0.00096052	0.0008359	0.00017572	515.62	1.1739e-05	2.5902e-06	1175	183.65	1.5903e-05	1.4407e-05	461.88	154.29	58.212	23.264	2.364e-06	73.539	0.0022713	0.0026752	0.00074982	478.26	2.8609e-05	2.9432e-05	1049.3	166.43	2.8375e-05	2.94e-05	415.88	138.53	57.678	21.511	2.8595e-05	66.258	158.826	-77.679	-69.594	-148.426	-77.811	23.157	-149.278	-145.282	-47.222	-35.699	-145.909	-143.020	-143.494	-137.367	-61.489	-139.739	-8191	255	
4232.042	1	1	0	0	0.19397	0.077507	0.13112	0.15768	0.1192	0.055319	0.24575	0.19799	0.12457	0.026696	0.14372	0.04396	0.11387	0.19689	0.19881	0.097253	-2.7521	-2.7542	-2.7687	-3.2854	-2.6312	-3.0021	-3.3187	-2.5292	-3.0979	-2.9979	-2.7812	-3.3208	-2.7021	-2.9771	-3.1	-2.5687	-56.220	6.643	98.520	85.636	94.616	-50.003	-148.541	111.705	90.499	-82.970	98.631	133.814	183.731	-107.016	88.766	-78.738	0.00092534	0.00065116	0.00018759	519.87	1.148e-06	5.0026e-06	1179.4	183.09	4.4221e-06	1.0282e-05	461.33	152.95	57.685	23.08	2.1153e-06	72.948	0.0023313	0.0026368	0.00075153	478.57	2.8158e-05	2.9878e-05	1049.9	165.87	2.8451e-05	2.9284e-05	413.78	137.89	57.374	21.463	2.8266e-05	66.015	159.926	40.196	-99.967	-148.671	18.298	37.728	-149.572	-145.399	3.622	19.066	-145.766	-143.158	-142.798	-138.489	182.930	-139.438	-8191	255	
4232.138	1	1	0	0	0.0071901	0.084407	0.20017	0.10864	0.19981	0.089859	0.25991	0.44108	0.05959	0.14289	0.12535	0.28904	0.2263	0.43775	0.069872	0.19612	-2.8146	-2.9313	-2.6937	-3.2917	-2.6042	-2.7917	-3.3479	-2.4792	-3.0104	-2.9521	-2.6104	-3.3021	-2.5875	-2.6833	-3.2042	-2.7188	82.546	148.380	182.882	45.860	123.163	6.800	104.984	47.122	-156.882	20.859	171.675	131.015	-140.000	133.058	115.410	-150.536	0.00090158	0.0004209	9.5939e-05	514.27	6.9567e-06	5.4621e-06	1171.6	183.44	1.5385e-05	8.639e-06	461.94	154.4	58.653	23.065	1.2714e-05	72.726	0.0022827	0.0026718	0.00074413	475.43	2.8754e-05	2.9857e-05	1042.5	165.74	2.8148e-05	2.9336e-05	412.04	138.56	57.478	21.459	2.8966e-05	65.753	159.411	162.944	16.168	-148.615	-0.544	101.873	-149.476	-145.505	82.809	-60.890	-145.766	-143.193	-143.368	-138.207	13.429	-139.542	-8191	255	
4232.259	1	1	0	0	0.09343	0.27303	0.15062	0.05653	0.17299	0.3373	0.16362	0.19872	0.052163	0.30137	0.27448	0.32789	0.25882	0.17565	0.078204	0.29673	-2.5917	-3.0292	-2.6479	-3.2854	-2.9979	-2.65	-3.5417	-2.6917	-2.8292	-3.1625	-2.6312	-3.375	-2.8479	-2.5375	-3.2896	-2.575	1.703	178.771	-93.598	48.828	140.883	165.619	20.464	183.650	-102.870	163.927	155.269	-148.244	66.566	127.953	156.545	138.418	0.0009051	0.00017145	0.00016807	514.06	4.9845e-06	7.5852e-06	1182.8	184.46	1.2361e-05	2.1454e-06	459.67	154.73	57.855	23.174	6.6611e-06	73.308	0.0023015	0.0026733	0.00074696	475.76	2.8213e-05	2.9462e-05	1047.3	165.76	2.7685e-05	2.8681e-05	413.17	138.14	57.251	21.468	2.8329e-05	65.984	155.556	-72.476	-12.111	-148.855	108.552	-6.589	-149.397	-145.423	-43.482	-108.100	-145.855	-142.805	-142.620	-138.455	49.408	-139.844	-8191	255	
4232.355	1	1	0	0	0.12851	0.25216	0.10158	0.18715	0.15035	0.079582	0.21774	0.19121	0.094655	0.099424	0.37527	0.36904	0.15587	0.12362	0.17717	0.078628	-2.6437	-3.2271	-2.3958	-3.1917	-2.8083	-2.5458	-3.5167	-2.9042	-2.7375	-3.2896	-2.4062	-3.1354	-3.0187	-2.5042	-3.1854	-2.675	-29.031	162.413	-86.130	57.649	165.823	44.740	133.918	-143.763	108.732	89.199	137.087	50.230	65.813	-10.983	81.387	69.709	0.00092602	0.0011895	9.5473e-05	521.67	7.4842e-06	3.0417e-06	1180	184.03	1.7658e-06	1.2791e-06	463.36	154.96	58.335	23.596	4.5198e-06	73.75	0.0022519	0.0026232	0.00073892	479.18	2.8159e-05	2.8888e-05	1049.9	166.17	2.7515e-05	2.9013e-05	413.3	139.08	57.642	21.685	2.7542e-05	66.364	158.530	176.601	174.741	-148.297	2.118	3.615	-149.365	-145.394	0.142	-148.337	-145.846	-143.092	-142.900	-138.321	-60.675	-139.789	-8191	255	
4232.451	1	1	0	0	0.17463	0.079552	0.22726	0.17618	0.15884	0.13625	0.38977	0.17366	0.06363	0.07936	0.098565	0.024782	0.062574	0.2672	0.043047	0.14331	-2.325	-3.2979	-2.5271	-3.1208	-3.1	-2.4146	-3.2875	-2.8625	-2.7188	-3.2042	-2.5729	-3.0917	-3.0833	-2.3917	-3.2687	-2.9083	172.032	64.686	126.678	-63.796	165.733	-151.295	138.511	25.219	125.500	-21.548	6.256	148.040	47.363	159.522	-157.358	-32.396	0.00090625	0.0007778	0.00011721	516.58	2.1932e-06	7.0885e-06	1175.7	183.61	4.5083e-06	5.1132e-06	460.27	154.66	58.937	23.216	5.0101e-06	74.197	0.0022369	0.002602	0.00071635	475.69	2.7113e-05	2.8488e-05	1048.3	165.96	2.7063e-05	2.8289e-05	413	138.99	57.479	21.684	2.7684e-05	66.395	157.756	-64.867	154.527	-148.398	78.190	-33.284	-149.619	-145.278	4.577	-126.296	-146.112	-143.151	-143.291	-138.740	-81.618	-139.297	-8191	255	
4232.546	1	1	0	0	0.12003	0.17926	0.048792	0.16605	0.11467	0.16317	0.27595	0.26555	0.10498	0.28639	0.32619	0.10782	0.16985	0.093323	0.11412	0.23344	-2.2667	-3.2646	-2.4667	-3.0042	-3.0271	-2.5583	-3.3563	-2.9958	-2.5146	-3.1792	-2.5687	-2.9396	-3.2708	-2.5208	-3.0854	-3.2062	-82.125	94.882	169.848	-131.181	-132.989	-113.547	73.303	126.587	147.089	-86.662	130.208	-104.373	20.642	51.499	7.472	140.624	0.00077829	0.00051445	0.0002198	520.14	2.1942e-05	9.5739e-06	1186.2	183.95	8.3075e-06	8.0681e-06	460.65	155.55	58.889	23.371	1.7496e-05	73.481	0.0022205	0.002612	0.00070816	476.01	2.6873e-05	2.8542e-05	1051.4	166.37	2.7158e-05	2.7994e-05	413.12	138.94	57.434	21.716	2.814e-05	66.42	167.710	-72.928	-98.152	-148.454	-34.013	-2.404	-148.951	-145.538	-16.767	-65.076	-146.057	-143.013	-143.103	-137.950	-7.571	-139.564	-8191	255	
4232.642	1	1	0	0	0.066551	0.18783	0.17591	0.13151	0.29381	0.0084697	0.054901	0.08914	0.18006	0.1756	0.14067	0.18134	0.11701	0.097069	0.12909	0.15221	-2.0896	-3.1396	-2.5833	-2.7313	-3.2396	-2.5333	-3.2562	-2.9708	-2.4104	-3.2354	-2.8396	-2.8125	-3.1896	-2.4271	-3.1125	-3.2396	67.090	-6.321	-66.668	166.987	-63.953	-27.004	87.736	104.809	181.116	-161.186	144.175	72.901	-5.288	-48.207	40.470	118.374	0.00089137	0.00047289	0.00037247	518.72	1.4423e-05	7.5158e-06	1180.4	184.29	6.5602e-06	4.3442e-06	464.53	155.06	58.731	23.325	5.5621e-06	73.998	0.0021909	0.002565	0.00072368	477.13	2.7337e-05	2.8828e-05	1050.8	166.24	2.7404e-05	2.9096e-05	414.47	138.94	57.468	21.693	2.8403e-05	66.645	148.615	32.327	-9.360	-148.350	45.811	19.233	-149.391	-145.711	-22.132	-102.046	-146.024	-143.066	-143.546	-138.854	-104.286	-139.971	-8191	255	
4232.738	1	1	0	0	0.20773	0.1159	0.17386	0.089751	0.16035	0.19599	0.10538	0.1279	0.060639	0.24316	0.24381	0.44253	0.28755	0.21253	0.16784	0.19362	-2.3021	-3.1813	-2.6583	-2.6312	-3.4646	-2.525	-3.1688	-3.2146	-2.4146	-3.275	-2.8937	-2.7104	-3.2729	-2.6333	-3.0104	-3.4146	152.861	73.675	114.263	158.145	169.872	35.750	27.979	141.520	184.150	52.112	-144.585	124.507	193.164	-59.947	56.860	163.029	0.0010471	0.00045869	0.00021991	520.32	4.6278e-06	4.4609e-06	1187.9	184.59	7.5601e-06	9.8362e-06	461.75	155.24	58.553	23.453	1.9732e-05	74.175	0.0023016	0.0026302	0.00072932	477.76	2.7641e-05	2.9161e-05	1057.6	167.09	2.7459e-05	2.9075e-05	414.93	138.75	57.705	21.637	2.7812e-05	66.508	161.675	90.138	-24.707	-148.607	11.549	63.943	-149.580	-145.666	-18.450	-21.057	-146.740	-143.248	-142.773	-138.201	-4.858	-139.941	-8191	255	
4232.834	1	1	0	0	0.14546	0.15723	0.31213	0.11693	0.21374	0.079368	0.079808	0.097004	0.13424	0.22092	0.39098	0.22981	0.11903	0.33783	0.36767	0.22211	-2.1229	-3.1854	-2.8167	-2.6437	-3.4167	-2.6521	-2.9146	-3.2292	-2.2938	-3.1542	-3.2771	-2.8042	-3.3563	-2.7625	-2.8833	-3.375	-21.712	54.077	32.134	131.264	-104.081	49.751	99.929	104.294	5.803	-30.825	-142.499	-135.706	-153.890	172.407	105.341	-149.653	0.0010432	0.0012776	0.00025576	520.53	6.3234e-06	5.4422e-06	1181.5	184	3.7107e-06	3.5635e-06	464.31	154.69	59.251	23.336	5.0609e-06	73.816	0.0022637	0.0026135	0.00072364	479.18	2.7701e-05	2.8582e-05	1049.4	166.14	2.8022e-05	2.9045e-05	413.22	138.57	57.748	21.7	2.8292e-05	66.323	153.641	-127.018	195.491	-147.944	-111.811	64.279	-149.235	-145.491	18.472	-91.934	-146.123	-143.567	-142.473	-138.343	39.415	-139.859	-8191	255	
4232.955	1	1	0	0	0.21179	0.15247	0.19429	0.26441	0.091837	0.02306	0.12325	0.22413	0.16244	0.24371	0.2054	0.27315	0.13099	0.27698	0.10672	0.18164	-2.0708	-3.1271	-2.8375	-2.5604	-3.3875	-2.7271	-2.9542	-3.3708	-2.4875	-3.2333	-3.0604	-2.5917	-3.2604	-2.9375	-2.4771	-3.3146	-65.543	19.416	83.967	-131.025	20.121	144.392	-96.693	-161.776	28.909	-16.002	157.121	-143.719	-82.936	-114.075	-78.760	-30.645	0.00084248	0.0014276	0.0002044	511.47	4.3758e-06	3.5196e-06	1184.9	183.35	6.8743e-06	1.1373e-05	458.37	156.13	58.056	23.55	1.2938e-05	73.279	0.002299	0.0026492	0.00071865	475.33	2.7977e-05	2.9201e-05	1051.3	165.91	2.7404e-05	2.9149e-05	412.84	139.11	57.565	21.658	2.8434e-05	66.306	159.889	-93.115	-17.551	-148.255	-65.699	-114.779	-149.452	-145.617	8.546	-50.732	-146.435	-142.979	-142.678	-138.056	-3.251	-139.464	-8191	255	
4233.026	1	1	0	0	0.2381	0.099128	0.13927	0.25079	0.13245	0.12489	0.21633	0.19224	0.12978	0.20332	0.19055	0.224	0.19638	0.11734	0.18434	0.20621	-2.075	-2.8771	-3.0521	-2.5	-3.2104	-2.9417	-2.8104	-3.3646	-2.4708	-3.0083	-3.2542	-2.4271	-2.9896	-2.7375	-2.5521	-3.4667	-39.665	3.343	9.013	-3.760	-102.863	-60.118	96.405	136.004	173.737	178.473	-134.835	-88.166	-2.791	31.453	25.464	127.937	0.0010633	0.0007378	0.00035292	517.54	7.0348e-06	9.0349e-06	1184.6	184.84	3.3244e-06	3.7485e-06	461.05	154.91	58.996	23.218	7.0937e-06	74.212	0.002264	0.0026719	0.00073266	477.89	2.7604e-05	2.9137e-05	1054.8	166.67	2.7652e-05	2.881e-05	413.79	138.78	57.714	21.637	2.8377e-05	66.744	158.597	71.746	-47.584	-148.358	-18.878	-82.966	-149.072	-145.057	136.222	-65.483	-145.817	-142.914	-142.184	-138.080	-43.845	-139.607	-8191	255	
4233.122	1	1	0	0	0.26645	0.1359	0.070067	0.10586	0.14933	0.25324	0.33106	0.14338	0.091795	0.2399	0.060737	0.19784	0.098396	0.22568	0.35013	0.076236	-2.2979	-2.7479	-3.2042	-2.4854	-3.0771	-2.9792	-2.6896	-3.3271	-2.6604	-2.8354	-3.4646	-2.4917	-3.0396	-2.9458	-2.4188	-3.4146	184.376	182.617	107.876	-4.358	104.065	147.514	93.580	159.907	-94.208	-153.911	179.053	134.494	-65.675	16.430	-115.752	-108.065	0.00089319	0.00043373	0.00018212	516.79	1.2379e-06	4.076e-06	1191	182.85	1.4081e-05	9.4764e-06	461.13	154.07	58.892	23.663	8.8567e-06	74.028	0.0022789	0.002601	0.00071724	475.71	2.7793e-05	2.8547e-05	1053.5	165.87	2.7853e-05	2.8574e-05	413.57	138.47	57.88	21.689	2.8214e-05	66.647	156.576	9.339	-85.154	-148.177	180.499	-31.176	-149.065	-145.131	-65.310	-49.136	-145.733	-143.202	-143.632	-138.613	-84.494	-139.701	-8191	255	
4233.219	1	1	0	0	0.14849	0.3871	0.27942	0.11494	0.1092	0.24783	0.15977	0.29638	0.040958	0.37779	0.061712	0.19537	0.14968	0.40732	0.24654	0.076357	-2.2062	-2.5917	-3.175	-2.5083	-3.0375	-3.0604	-2.6417	-3.275	-2.725	-2.5979	-3.3792	-2.6437	-3.025	-3.1979	-2.4396	-3.3729	164.293	128.343	-33.884	-143.253	113.023	-140.631	137.690	162.279	-139.102	-51.731	86.588	78.858	86.031	-154.874	7.090	127.071	0.00084808	0.00085338	0.00011733	519.49	8.4552e-06	5.2233e-06	1181.2	184.88	6.4055e-06	1.1817e-05	462.5	155.18	58.354	23.516	6.2027e-06	74.172	0.0022166	0.0026207	0.00071352	476.87	2.7705e-05	2.8254e-05	1051.2	166.8	2.6933e-05	2.856e-05	415.14	139.13	57.859	21.663	2.83e-05	66.549	150.141	-90.691	-27.870	-148.611	-56.657	85.189	-148.912	-144.778	-11.919	-9.609	-145.399	-142.981	-143.084	-138.111	-100.929	-139.272	-8191	255	
4233.339	1	1	0	0	0.15916	0.11332	0.16645	0.16226	0.17719	0.20031	0.21422	0.047039	0.32742	0.17213	0.050039	0.069561	0.26342	0.18189	0.18759	0.10877	-2.3896	-2.5104	-3.2271	-2.6375	-3.0604	-3.2375	-2.5875	-3.2333	-2.8042	-2.4854	-3.175	-2.8125	-2.8958	-3.3688	-2.5833	-3.3208	76.432	-79.644	56.247	107.847	170.553	-92.760	154.220	154.962	-29.758	189.896	-121.199	133.461	-95.597	192.138	38.762	120.331	0.00093571	0.00066519	0.0002241	513.18	1.3491e-05	2.0809e-05	1186	182.61	1.7998e-05	1.0065e-05	461.44	155.36	58.94	23.554	8.2789e-06	74.478	0.0022532	0.0026176	0.00073082	474.5	2.7823e-05	2.8854e-05	1052.9	165.93	2.7436e-05	2.9242e-05	414.79	139.3	57.642	21.808	2.8191e-05	66.836	155.715	64.303	-140.497	-148.307	-56.749	8.242	-148.970	-145.060	-33.828	11.081	-145.667	-142.179	-142.999	-138.577	-4.808	-139.235	-8191	255	
4233.435	1	1	0	0	0.3194	0.33177	0.13231	0.093824	0.10667	0.10604	0.15567	0.16961	0.13603	0.062326	0.36655	0.14104	0.2141	0.21238	0.12477	0.1098	-2.6937	-2.3	-3.1854	-2.5604	-2.8375	-3.1271	-2.6646	-3.0292	-2.8354	-2.5125	-3.4208	-2.9729	-2.6708	-3.1958	-2.325	-3.2	-44.524	147.532	39.807	-105.073	-137.762	148.083	22.075	70.104	196.171	0.460	138.284	90.498	115.556	73.507	77.937	38.167	0.00083357	0.00079039	0.00031767	519.07	9.8141e-06	3.2335e-06	1187.7	185.57	9.3405e-06	6.3737e-06	469.73	155.84	58.619	23.503	8.8512e-06	74.377	0.0022485	0.0026576	0.00073678	477.45	2.8062e-05	2.9258e-05	1055	166.96	2.7545e-05	2.9227e-05	418.97	139.62	57.709	21.82	2.8328e-05	66.956	164.730	-69.933	-86.246	-148.138	-78.778	74.037	-149.248	-145.253	-31.315	73.634	-145.424	-142.633	-142.400	-138.453	-82.429	-139.510	-8191	255	
4233.532	1	1	0	0	0.22164	0.24739	0.052645	0.028491	0.18979	0.1548	0.16409	0.13217	0.23234	0.12923	0.17869	0.17745	0.078126	0.12063	0.23836	0.32509	-2.7958	-2.5167	-3.2396	-2.9396	-2.4854	-3.3396	-2.8854	-3.0375	-3.2604	-2.6375	-3.2792	-2.975	-2.675	-3.4854	-2.6125	-3.0208	51.256	-92.910	-44.403	-72.717	38.140	68.804	-143.575	15.475	-94.534	-153.995	-112.202	42.888	-73.902	-72.035	67.850	133.602	0.0011453	0.00053205	0.00017147	520.71	1.6827e-05	1.1041e-05	1183.4	184.38	6.4086e-06	4.0337e-06	466.83	155.73	59.138	23.459	6.9047e-06	74.289	0.0022208	0.0026978	0.00073313	478.16	2.7871e-05	2.8753e-05	1052.6	166.08	2.7397e-05	2.9085e-05	416.36	139.2	57.905	21.756	2.8185e-05	67.079	157.947	-47.367	-133.682	-148.432	-84.548	9.300	-149.107	-145.818	-108.327	-85.956	-145.467	-143.002	-143.088	-137.634	70.713	-139.253	-8191	255	
4233.628	1	1	0	0	0.058966	0.09577	0.28386	0.065069	0.16434	0.26988	0.24182	0.19368	0.21991	0.26252	0.14441	0.23094	0.036024	0.062935	0.10357	0.039086	-2.7792	-2.4375	-3.2625	-3.1375	-2.3083	-3.4062	-2.8146	-2.825	-3.1854	-2.5375	-3.0687	-3.0375	-2.675	-3.3104	-2.6146	-2.8292	24.672	93.635	108.455	-73.712	113.057	69.206	-139.276	-113.521	123.514	95.282	116.364	186.456	-106.794	-90.929	35.558	73.694	0.001004	0.00098252	0.00014372	509.48	3.9218e-06	7.3397e-06	1190.5	184.61	4.2302e-06	1.6539e-05	465.96	156.76	58.151	23.638	5.5959e-06	74.428	0.0022975	0.0026527	0.00073932	474.55	2.8227e-05	2.9066e-05	1054.5	166.84	2.7323e-05	2.9414e-05	416.97	139.92	57.719	21.821	2.8298e-05	67.278	163.412	-24.228	-114.588	-148.292	40.470	-25.007	-148.994	-145.423	60.547	40.252	-145.026	-143.086	-142.631	-137.744	-119.682	-139.405	-8191	255	
4233.722	1	1	0	0	0.22394	0.15768	0.26036	0.19185	0.34258	0.086802	0.2146	0.10677	0.087982	0.17248	0.21731	0.044364	0.18647	0.34483	0.24001	0.29846	-2.9917	-2.3354	-3.0021	-3.0062	-2.5458	-3.1875	-2.8812	-2.8	-3.3958	-2.6167	-3.0792	-3.2958	-2.4125	-3.3604	-2.7438	-2.6354	-143.624	-90.213	-16.377	45.781	0.197	-88.223	110.130	-160.939	-161.490	12.303	132.205	192.113	176.057	-116.555	-105.024	133.520	0.00085137	0.0012594	0.00010736	516.02	5.0683e-06	1.7835e-05	1189.7	185.61	7.6896e-06	1.723e-05	464.03	156.44	58.553	23.594	1.0955e-05	75.212	0.0022671	0.0026868	0.00074584	477.68	2.8343e-05	2.9871e-05	1054.5	167.34	2.7697e-05	2.9588e-05	416.88	140.31	57.991	21.898	2.8278e-05	67.426	158.928	52.115	-62.413	-147.701	-8.755	-87.640	-149.029	-145.164	-8.260	26.462	-145.704	-143.094	-143.399	-137.727	61.308	-139.520	-8191	255	
4233.820	1	1	0	0	0.26632	0.43241	0.11263	0.089734	0.078209	0.1518	0.18478	0.1685	0.24067	0.11706	0.086378	0.13766	0.25786	0.19236	0.1653	0.086514	-2.7812	-2.6479	-3.0083	-3.15	-2.4771	-3.275	-3.0542	-2.6604	-3.2542	-2.575	-2.8812	-3.3979	-2.4104	-3.1229	-3.0104	-2.6083	-118.884	39.944	6.802	-110.888	78.535	-144.570	126.695	101.302	-159.726	193.992	36.672	98.430	-41.129	31.697	-156.131	-30.899	0.00084495	0.0012988	0.00010193	516.33	9.4606e-06	6.9979e-06	1185.3	183.16	7.936e-07	1.0938e-05	465.57	156.36	58.476	23.428	9.8828e-06	74.717	0.0022906	0.0026973	0.00072317	478.88	2.8597e-05	2.9658e-05	1056.8	166.88	2.7815e-05	2.9175e-05	416.95	140.07	57.607	21.829	2.8063e-05	67.153	163.837	-63.204	-30.677	-147.617	22.938	15.163	-149.182	-145.031	-139.370	-28.041	-145.647	-142.718	-142.887	-137.924	-64.830	-138.998	-8191	255	
4233.939	1	1	0	0	0.15781	0.13498	0.10581	0.18917	0.16518	0.027612	0.14909	0.2937	0.14414	0.22951	0.19494	0.12161	0.37322	0.0084271	0.358	0.19899	-2.825	-2.6208	-2.7	-3.3292	-2.6208	-3.0979	-3.0958	-2.4313	-3.1646	-2.6875	-2.7167	-3.375	-2.5917	-2.8854	-3.0417	-2.5646	-62.639	-117.183	32.392	164.728	60.926	61.418	156.781	119.527	137.865	3.359	86.017	142.881	135.316	-63.876	71.438	187.057	0.00067211	0.00041773	0.00046712	518.41	7.9611e-06	1.5374e-05	1191.3	185.13	1.6764e-05	1.7478e-05	467.59	156.5	59.64	23.479	5.9708e-06	74.29	0.0022756	0.0026526	0.00074402	475.24	2.8888e-05	2.9964e-05	1056.8	166.64	2.8412e-05	2.9221e-05	417.82	140.02	58.111	21.84	2.8441e-05	67.145	150.696	11.832	-88.135	-148.374	-33.192	-25.380	-148.720	-144.739	-77.253	-10.908	-145.216	-142.560	-142.710	-137.682	127.510	-139.622	-8191	255	
4234.035	1	1	0	0	0.10378	0.14684	0.10927	0.092977	0.15498	0.086944	0.23944	0.32137	0.14131	0.19255	0.22425	0.23312	0.12122	0.070428	0.18059	0.35794	-2.8479	-2.6958	-2.5708	-3.3479	-2.4708	-3.2396	-3.2792	-2.5708	-3.3125	-2.7646	-2.7021	-3.2625	-2.4208	-2.9	-3.1833	-2.6479	140.210	144.471	179.308	-19.442	59.749	-108.636	154.667	-128.724	-157.841	161.223	134.729	187.001	65.814	-22.439	178.436	183.769	0.00091335	0.0010655	7.1191e-05	516.67	5.7272e-06	1.3341e-05	1185.3	183.43	9.1515e-06	1.2718e-05	464.85	155.55	59.065	23.601	1.0606e-05	74.869	0.0022892	0.0026425	0.0007512	477.41	2.8565e-05	2.926e-05	1053.6	166.74	2.7782e-05	3.0089e-05	416.62	139.55	58.342	21.765	2.8625e-05	67.243	153.702	-61.501	-122.491	-148.496	-108.955	20.467	-149.015	-145.557	-63.458	23.272	-145.589	-142.317	-142.409	-137.701	-36.370	-139.207	-8191	255	
4234.131	1	1	0	0	0.26097	0.37246	0.08147	0.26619	0.24117	0.13145	0.23018	0.24335	0.27573	0.1279	0.13801	0.25888	0.062636	0.17664	0.12321	0.16959	-2.7146	-2.7062	-2.4854	-3.2938	-2.5083	-2.7875	-3.4271	-2.6167	-3.2062	-3.0167	-2.5062	-3.5396	-2.65	-2.6104	-3.3625	-2.5833	60.484	-96.285	-103.030	-105.254	-74.474	-122.102	97.563	156.175	6.914	-48.960	162.728	121.710	90.814	-93.604	-155.772	129.791	0.00090957	0.00014681	5.6915e-05	510.38	7.7317e-06	6.4609e-06	1186.5	185.56	1.0484e-05	1.0021e-05	466.84	155.87	59.118	23.513	1.1087e-05	75.047	0.0023193	0.0026645	0.00074694	475.07	2.8864e-05	2.9538e-05	1055.8	167.38	2.8495e-05	2.954e-05	417.7	139.77	58.228	21.729	2.8521e-05	67.264	166.255	-62.269	193.510	-148.284	152.165	-12.697	-148.856	-144.389	178.400	90.692	-145.367	-142.633	-142.295	-136.882	-56.032	-139.480	-8191	255	
4234.252	1	1	0	0	0.079866	0.086036	0.23678	0.058791	0.10857	0.041193	0.25693	0.27541	0.063165	0.20323	0.14764	0.17502	0.086097	0.20618	0.08684	0.15293	-2.8167	-2.9125	-2.5875	-3.3479	-2.8417	-2.6292	-3.5438	-2.3937	-2.9375	-2.9083	-2.7479	-3.4938	-2.7875	-2.6292	-3.3667	-2.6583	81.102	-86.771	163.594	26.942	-37.769	-55.102	66.841	144.034	140.476	10.273	115.021	196.559	96.658	-137.266	141.563	-152.981	0.00079885	0.00083234	0.0003424	515.92	8.0913e-06	1.2015e-05	1187.1	184.24	1.3452e-06	7.102e-06	465.95	156.47	58.729	23.548	9.4413e-06	74.268	0.002339	0.0026545	0.0007435	475.42	2.8567e-05	2.9783e-05	1054.5	167.17	2.8341e-05	2.9172e-05	415.97	139.83	57.665	21.813	2.7772e-05	66.958	169.255	-131.383	-17.334	-148.014	-10.961	-84.697	-148.987	-144.666	187.662	-92.222	-145.802	-142.110	-142.348	-137.723	-38.877	-139.091	-8191	255	
4234.323	1	1	0	0	0.11286	0.060745	0.52076	0.086996	0.12407	0.18327	0.39137	0.18487	0.10048	0.11226	0.41862	0.23631	0.23619	0.18939	0.17787	0.0835	-2.5583	-3.0271	-2.3458	-3.2146	-2.8688	-2.6021	-3.4437	-2.5396	-2.9021	-3.0458	-2.4562	-3.2958	-2.8771	-2.4708	-3.2729	-2.7417	-19.459	-5.419	-85.110	-152.616	183.882	-151.339	144.978	-157.860	70.914	25.907	-131.067	164.795	156.728	101.253	-129.500	-136.749	0.00084298	0.00092491	0.0001165	517.52	1.2834e-05	6.9011e-06	1185.1	184.49	7.6383e-06	4.6576e-06	465.45	155.44	58.794	23.619	6.0371e-06	74.83	0.0022772	0.0026357	0.0007489	475.65	2.8357e-05	2.9596e-05	1053.6	166.4	2.7708e-05	2.9206e-05	416.45	139.57	58.076	21.677	2.795e-05	67.167	156.808	23.912	-71.284	-147.551	-6.265	8.768	-149.188	-144.865	46.738	38.228	-145.662	-142.440	-142.898	-137.418	-1.180	-139.200	-8191	255	
4234.420	1	1	0	0	0.32656	0.20754	0.12486	0.23763	0.13894	0.10351	0.2212	0.019178	0.072131	0.1993	0.01714	0.10946	0.096201	0.23525	0.23408	0.1904	-2.4333	-3.1396	-2.5021	-3.1937	-2.9521	-2.4375	-3.65	-2.7062	-2.8875	-3.2625	-2.5396	-3.1271	-3.0833	-2.6083	-3.2396	-2.8833	81.471	-2.075	1.208	197.383	100.555	173.564	-157.584	-37.169	151.430	185.607	114.301	-59.442	134.868	109.935	-40.545	149.451	0.00099906	0.00047234	0.00037661	519.79	5.9425e-06	4.5151e-06	1188.9	183.6	6.5961e-07	1.6095e-05	464.49	156.23	58.074	23.481	8.5577e-06	74.446	0.0022954	0.0026314	0.00073679	478.51	2.8361e-05	2.9505e-05	1057.9	166.32	2.736e-05	2.9061e-05	416.85	139.99	57.665	21.734	2.8232e-05	67.026	155.051	-4.320	-86.607	-148.034	-33.172	-134.254	-148.441	-144.395	103.022	-9.490	-145.080	-142.229	-140.964	-137.021	-9.629	-138.912	-8191	255	
4234.516	1	1	0	0	0.075852	0.14507	0.085824	0.17085	0.22724	0.031625	0.21753	0.059113	0.18095	0.11818	0.4139	0.101	0.21322	0.21226	0.16527	0.14597	-2.2708	-3.1375	-2.6292	-3.1437	-3.1167	-2.4771	-3.4938	-2.8438	-2.7562	-3.2792	-2.725	-3.0812	-3.0812	-2.6146	-3.1458	-3.075	-4.889	12.081	66.770	-41.985	78.643	-51.561	178.146	-54.099	83.664	51.580	133.177	-122.684	69.404	-108.684	162.928	144.342	0.00078885	0.00061343	0.00013245	520.13	4.8454e-06	1.1764e-05	1188.7	186.26	9.6721e-06	9.8504e-06	466.92	157.11	58.787	23.455	3.4266e-06	74.48	0.0022973	0.002645	0.00073738	477.77	2.8088e-05	2.9419e-05	1054.6	167.31	2.7866e-05	2.8999e-05	417.08	140.31	57.586	21.686	2.8058e-05	66.813	149.420	139.064	-25.692	-147.053	-101.655	17.010	-149.025	-144.815	-39.751	-98.015	-145.668	-142.630	-143.261	-137.902	-27.511	-139.408	-8191	255	
4234.635	1	1	0	0	0.3456	0.34898	0.36476	0.12755	0.22722	0.15043	0.35332	0.21624	0.17957	0.17174	0.080783	0.32018	0.16179	0.13627	0.2475	0.25005	-2.0083	-3.2313	-2.5083	-2.9104	-3.1792	-2.4021	-3.3021	-2.9021	-2.4146	-3.1979	-2.7958	-2.7354	-3.15	-2.3479	-3.0563	-3.2583	149.705	120.850	60.782	-52.319	-87.637	-11.490	113.351	158.987	-76.632	182.021	170.406	152.421	-154.426	-113.320	18.522	171.386	0.00084186	0.0010332	0.00013555	512.85	1.09e-05	3.408e-06	1182.2	183.63	1.3025e-05	1.2619e-05	463.87	155.66	58.277	23.324	1.6357e-05	74.325	0.0022461	0.0026022	0.00071038	474.61	2.7468e-05	2.8245e-05	1050.8	165.85	2.7141e-05	2.877e-05	415.33	139.46	57.508	21.66	2.7087e-05	66.71	156.780	-34.435	-92.997	-148.232	-111.980	-21.431	-148.921	-144.984	-37.081	-36.380	-145.717	-142.770	-142.383	-137.928	-84.185	-139.203	-8191	255	
4234.731	1	1	0	0	0.18953	0.20881	0.042516	0.045251	0.098919	0.092995	0.23911	0.13485	0.1063	0.1265	0.241	0.22303	0.065063	0.25077	0.25666	0.24959	-2.1854	-3.4104	-2.6625	-2.5938	-3.25	-2.5625	-3.2896	-3.2583	-2.5812	-3.3646	-2.9333	-2.8354	-3.4375	-2.6021	-2.9604	-3.3792	-143.687	-68.118	53.323	-94.646	97.479	73.824	133.550	125.108	137.776	-150.984	90.336	-59.502	-108.191	153.889	-109.907	138.647	0.00089616	0.00070233	0.00015494	514.23	5.5392e-06	8.3651e-06	1191.4	182.04	4.4135e-06	7.7053e-06	464.65	155.49	57.686	23.333	9.5989e-06	73.989	0.0022225	0.0025912	0.00071421	474.02	2.7497e-05	2.8136e-05	1052.4	165.2	2.7582e-05	2.8247e-05	414.71	139.14	57.194	21.546	2.7638e-05	66.477	175.119	-105.166	66.763	-148.036	24.080	-129.572	-149.041	-144.756	-38.032	97.007	-145.879	-142.723	-142.573	-137.508	-35.393	-139.022	-8191	255	
4234.827	1	1	0	0	0.042756	0.20244	0.1926	0.052348	0.32955	0.33502	0.22864	0.14677	0.11521	0.15248	0.16824	0.14016	0.15801	0.15214	0.070988	0.17486	-2.1437	-3.3208	-2.8708	-2.7229	-3.2917	-2.6708	-3.1208	-3.0854	-2.4458	-3.2021	-2.975	-2.6854	-3.2917	-2.4979	-2.7625	-3.425	22.344	-45.531	172.789	38.039	-19.376	134.268	132.492	-132.797	-89.197	-33.655	136.266	159.640	-162.641	186.416	-91.498	59.727	0.00072165	0.00027827	0.00031807	512.18	3.0661e-06	9.4951e-06	1184.4	183.38	7.286e-06	9.5827e-06	464.36	154.53	58.29	23.365	5.0876e-06	73.344	0.002266	0.0026292	0.00071524	471.69	2.6974e-05	2.8154e-05	1051.9	165.53	2.768e-05	2.8562e-05	414.35	138.66	57.046	21.437	2.7706e-05	66.1	166.444	-46.723	46.569	-147.419	-67.714	29.697	-148.778	-144.734	119.122	-47.414	-145.391	-142.517	-142.499	-137.662	-121.977	-138.602	-8191	255	
4234.900	1	1	0	0	0.18142	0.16803	0.18126	0.075213	0.28873	0.26873	0.2551	0.12546	0.078966	0.15539	0.22971	0.089147	0.31295	0.16023	0.19762	0.26572	-2.0021	-3.1396	-3.0917	-2.6208	-3.3521	-2.7021	-2.7917	-3.2958	-2.3771	-2.9625	-3.1625	-2.625	-3.2375	-2.7458	-2.5896	-3.3667	-67.765	-128.315	154.490	-117.796	78.356	140.950	-143.947	-155.555	-34.412	-65.638	178.928	105.017	-126.536	-99.700	34.321	2.228	0.00096096	4.6326e-05	8.768e-05	516.66	1.8896e-06	8.5424e-06	1182.4	182.56	1.2784e-05	5.6284e-06	458.97	153.57	58.607	22.952	9.0626e-06	73.176	0.0022508	0.0025871	0.00072238	472.26	2.8058e-05	2.878e-05	1049.7	165.04	2.757e-05	2.8688e-05	411.88	137.61	56.849	21.26	2.8318e-05	65.7	154.837	27.893	-51.868	-147.844	8.118	1.847	-148.625	-144.840	-58.955	28.389	-145.376	-142.717	-142.071	-137.423	-16.732	-139.179	-8191	255	
4235.019	1	1	0	0	0.28875	0.099149	0.11614	0.34406	0.1926	0.2805	0.072138	0.23629	0.066394	0.13354	0.24178	0.21834	0.15485	0.18594	0.38576	0.15827	-1.9667	-2.9125	-3.0729	-2.4688	-3.1083	-2.7812	-2.8292	-3.4313	-2.4208	-2.7979	-3.4167	-2.4417	-3.1625	-2.9521	-2.5292	-3.4521	39.418	-110.013	170.353	163.111	13.687	161.879	151.485	-142.372	134.555	66.643	98.387	192.356	16.794	104.498	190.718	-107.134	0.00095074	0.00032187	0.00012572	511.19	5.7373e-06	1.3589e-05	1182.8	181.11	7.6875e-06	1.5256e-05	461.3	152.25	56.68	22.882	7.3188e-06	72.703	0.0022447	0.0026339	0.000726	472.31	2.7921e-05	2.8999e-05	1050.2	164.16	2.7672e-05	2.8797e-05	411.88	137.26	56.399	21.243	2.8817e-05	65.622	166.285	-126.700	58.290	-147.939	99.030	-9.416	-148.476	-144.943	53.179	21.254	-145.765	-142.759	-142.661	-137.739	195.921	-139.138	-8191	255	
4235.115	1	1	0	0	0.089176	0.13472	0.082027	0.042125	0.20068	0.040676	0.082689	0.15082	0.050225	0.039837	0.048704	0.22269	0.24954	0.1843	0.16057	0.41201	-2.1813	-2.8021	-2.9729	-2.5854	-3.1625	-3.0021	-2.6646	-3.25	-2.7708	-2.8146	-3.4542	-2.6333	-3.1333	-3.125	-2.5708	-3.3125	135.990	-98.651	17.540	93.726	-20.186	13.095	-132.817	-137.128	137.615	63.985	138.982	76.736	31.034	114.964	-74.749	120.246	0.00080817	0.0018172	0.00030852	508.55	4.4054e-06	5.1567e-06	1180.9	182.33	4.9865e-06	1.1458e-05	457.43	152.5	57.579	22.945	9.7959e-06	73.061	0.0022772	0.0026592	0.00073602	472.51	2.8531e-05	2.8914e-05	1049.2	165.23	2.7911e-05	2.8859e-05	412.54	137.38	57.091	21.237	2.8845e-05	65.886	163.717	-92.878	-93.693	-147.771	51.137	-116.710	-148.722	-144.895	-72.186	42.969	-145.776	-142.501	-141.912	-137.284	-1.156	-139.553	-8191	255	
4235.212	1	1	0	0	0.24603	0.078163	0.31157	0.22484	0.11458	0.15256	0.056978	0.25926	0.062752	0.13026	0.077805	0.1233	0.10885	0.19457	0.22184	0.22708	-2.2854	-2.7542	-3.2062	-2.5687	-3.025	-3.0875	-2.6604	-3.3729	-2.6437	-2.6667	-3.3875	-2.7583	-3.075	-3.0417	-2.5604	-3.2583	64.644	121.617	25.476	146.137	-55.484	85.840	135.689	127.532	78.423	-140.745	35.955	-112.942	145.168	-147.382	140.120	181.090	0.0008485	0.00070454	0.00016804	520.33	1.5089e-05	3.8438e-06	1186.8	183.68	8.4991e-06	1.3997e-05	462.95	153.03	57.76	22.812	2.3701e-06	73.95	0.0023024	0.0026939	0.0007434	475.16	2.819e-05	2.935e-05	1052.5	165.55	2.7484e-05	3.0126e-05	414.08	137.79	57.261	21.222	2.8988e-05	65.974	162.253	-66.146	-74.301	-147.854	-85.408	135.151	-148.565	-144.581	-120.016	46.801	-145.329	-142.654	-142.692	-137.355	-117.204	-138.984	-8191	255	
4235.332	1	1	0	0	0.15915	0.22817	0.21433	0.34088	0.11307	0.28562	0.41908	0.23146	0.17219	0.081845	0.27969	0.21041	0.036383	0.14226	0.32084	0.16324	-2.4021	-2.5917	-3.4562	-2.5521	-3.0563	-3.1063	-2.75	-3.2333	-2.7188	-2.45	-3.3896	-2.5896	-2.9021	-3.3438	-2.4521	-3.2979	138.676	-39.589	103.100	132.723	117.049	146.083	94.320	189.549	164.262	-59.792	40.642	160.562	-61.038	149.308	-49.128	95.079	0.00093748	0.00010724	0.00028416	516.33	1.0032e-05	1.4272e-05	1181.3	183.25	5.797e-06	7.2142e-06	458.76	153.64	57.842	23.05	2.7647e-06	73.237	0.0022753	0.0026994	0.00074472	473.42	2.8947e-05	2.9442e-05	1048.5	165.57	2.8203e-05	2.9502e-05	413.18	137.85	57.275	21.378	2.8913e-05	65.87	151.976	0.865	-52.581	-147.809	-55.890	-17.462	-148.807	-144.172	-88.221	-0.925	-145.354	-142.315	-142.709	-137.513	-33.190	-138.915	-8191	255	
4235.428	1	1	0	0	0.12325	0.30131	0.18481	0.28377	0.074797	0.16016	0.40725	0.082358	0.15017	0.24268	0.33231	0.19448	0.188	0.28498	0.1023	0.22558	-2.4917	-2.4458	-3.2562	-2.7313	-2.7667	-3.1562	-2.7833	-3.0292	-2.9667	-2.4646	-3.5271	-2.8167	-2.7771	-3.2875	-2.5771	-3.1604	-44.814	87.595	-108.413	7.424	-3.602	-51.259	117.221	-88.580	88.931	163.194	187.417	186.793	120.858	155.290	29.751	163.330	0.00097762	0.0005951	5.452e-05	510.78	5.4668e-06	9.4986e-06	1181.4	182.24	1.3709e-05	6.7749e-06	463.64	154	58.964	22.946	1.7319e-06	72.622	0.0023023	0.0027244	0.00074782	474.07	2.9091e-05	2.926e-05	1051.7	164.81	2.7514e-05	2.969e-05	414.35	137.94	57.339	21.355	2.9021e-05	65.632	152.955	-150.276	-103.503	-147.473	-66.535	3.005	-148.624	-144.141	-77.083	-7.534	-145.369	-142.233	-142.720	-137.663	183.713	-138.672	-8191	255	
4235.523	1	1	0	0	0.081926	0.19113	0.13407	0.29726	0.18992	0.013354	0.357	0.057166	0.17834	0.2134	0.10292	0.11036	0.27151	0.14611	0.093637	0.34797	-2.7833	-2.6167	-3.2833	-2.7771	-2.4458	-3.3771	-2.8125	-3.0833	-3.1208	-2.3521	-3.3187	-2.9062	-2.5438	-3.3083	-2.5312	-2.975	74.097	-61.781	-111.732	-28.604	-113.408	81.102	112.565	-154.599	99.778	-73.113	103.004	20.432	162.797	122.869	-71.182	120.265	0.00091888	0.00064958	0.00018807	513.9	4.4597e-06	2.5999e-06	1187.3	182.85	8.8301e-06	2.758e-06	466.03	154.72	57.687	23.152	2.3765e-06	73.774	0.0022951	0.002782	0.00073879	473.96	2.8872e-05	2.9251e-05	1055.1	165.76	2.8364e-05	2.9474e-05	416.77	139.15	57.413	21.455	2.9097e-05	66.437	161.415	-15.029	-10.030	-147.688	-6.323	-7.332	-148.314	-143.868	37.398	42.089	-144.865	-141.918	-141.118	-137.424	104.805	-138.784	-8191	255	
4235.621	1	1	0	0	0.15622	0.099024	0.15802	0.098446	0.050027	0.22374	0.17349	0.53249	0.17581	0.13744	0.081473	0.063922	0.22035	0.094445	0.16437	0.24083	-2.6458	-2.4771	-3.1542	-2.9292	-2.6396	-3.3604	-2.8646	-2.8312	-3.3354	-2.3729	-3.35	-3.0062	-2.3625	-3.1146	-2.7729	-2.7646	56.802	162.189	-31.392	130.472	-98.247	-128.846	122.916	159.889	72.671	-116.864	97.022	142.164	159.148	-110.052	93.497	162.952	0.00093489	0.000585	0.00026579	514.77	1.0806e-05	1.2908e-05	1187.2	183.51	8.4658e-06	1.2932e-05	461.57	154.76	58.559	23.093	6.7556e-06	73.406	0.0023612	0.002804	0.00075037	473.15	2.9425e-05	2.9552e-05	1053	165.9	2.8615e-05	3.0217e-05	414.42	138.9	57.649	21.471	2.9371e-05	66.26	160.745	-59.345	-99.042	-146.878	-29.802	27.920	-148.439	-144.585	-48.682	35.752	-145.354	-142.457	-142.369	-137.707	-114.598	-138.757	-8191	255	
4235.715	1	1	0	0	0.080176	0.20171	0.19272	0.04152	0.18336	0.1382	0.3671	0.089737	0.10764	0.10497	0.23409	0.26206	0.13646	0.18907	0.18324	0.29043	-2.8208	-2.3833	-2.9604	-2.9771	-2.4896	-3.1375	-2.8229	-2.6188	-3.2875	-2.4188	-3.0687	-3.2313	-2.5062	-3.1375	-2.7438	-2.7938	-58.227	-9.727	-114.359	153.257	102.532	134.968	123.510	185.160	8.132	-127.006	-63.608	159.200	103.624	27.493	121.603	38.643	0.00084366	0.00043095	0.00021304	514.54	5.0423e-06	6.0449e-06	1181.8	181.92	5.2441e-06	2.4007e-06	466.6	155.21	58.374	23.459	1.1534e-05	74.132	0.0023132	0.002715	0.00073847	474.65	2.875e-05	2.9537e-05	1054	165.59	2.8283e-05	2.9909e-05	416.76	139.22	57.496	21.528	2.9411e-05	66.481	163.024	-26.585	64.300	-147.624	44.819	102.709	-148.438	-144.436	-131.618	-70.041	-145.732	-142.419	-142.514	-137.899	-18.329	-139.097	-8191	255	
4235.811	1	1	0	0	0.16259	0.17803	0.2317	0.16502	0.14777	0.20188	0.46688	0.16445	0.36429	0.2084	0.13985	0.12789	0.083021	0.14978	0.087121	0.055709	-2.7104	-2.6083	-2.7792	-3.0396	-2.2896	-3.1188	-3.0146	-2.5542	-3.1354	-2.6771	-2.9396	-3.1417	-2.2646	-3.0667	-3.0479	-2.6708	-55.030	-60.494	-73.871	109.777	155.314	3.433	160.669	100.141	102.315	-98.406	165.097	191.723	43.138	-13.817	111.501	79.567	0.00089422	0.0012336	0.00012648	514.8	7.2188e-06	1.0454e-05	1187.5	182.66	6.2779e-06	7.2633e-06	464.26	154.98	58.648	23.309	1.0052e-05	73.474	0.0023219	0.0026981	0.00073526	474.82	2.8941e-05	2.9353e-05	1053.7	165.56	2.8307e-05	2.9509e-05	417.04	139.51	57.715	21.476	2.7916e-05	66.248	157.317	-130.287	173.840	-147.680	37.862	0.608	-148.419	-144.962	25.304	-65.412	-145.237	-142.250	-143.438	-137.116	-22.470	-138.971	-8191	255	
4235.932	1	1	0	0	0.074837	0.10668	0.25535	0.12419	0.279	0.1103	0.090528	0.1394	0.32976	0.24252	0.10819	0.19608	0.32446	0.18166	0.11664	0.15771	-2.8688	-2.6937	-2.7104	-3.3208	-2.3417	-3.1688	-3.3063	-2.6083	-3.0771	-2.6604	-2.9313	-3.3708	-2.5083	-3.1417	-3.0271	-2.675	129.745	179.093	195.038	149.533	-161.756	-105.660	143.837	75.098	-69.242	143.858	-157.556	191.172	163.263	13.227	-98.634	169.534	0.00093187	0.00094356	8.4814e-05	516.05	5.4196e-06	1.2699e-05	1196.6	184.27	8.165e-06	1.3824e-05	470.51	155.19	58.276	22.976	7.0928e-06	73.331	0.0023236	0.0026743	0.00075328	476.19	2.8241e-05	2.9651e-05	1059.3	166.36	2.8027e-05	2.8772e-05	419.69	139.24	57.351	21.352	2.8271e-05	66.179	154.990	-2.340	164.294	-147.731	-7.432	-23.551	-148.616	-144.159	-60.353	51.067	-145.336	-142.307	-142.477	-136.734	-111.954	-138.404	-8191	255	
4236.028	1	1	0	0	0.20253	0.11072	0.097986	0.087128	0.11176	0.031771	0.33063	0.013678	0.23342	0.26254	0.11629	0.067025	0.14101	0.28919	0.05356	0.16946	-2.9167	-2.7729	-2.5625	-3.1854	-2.5542	-3.1229	-3.1667	-2.3167	-3.2146	-2.7792	-2.6396	-3.3833	-2.5604	-2.8646	-3.0021	-2.525	-0.245	-93.151	-54.958	-0.231	-53.710	-98.591	164.000	192.635	-26.956	196.068	180.087	82.290	-113.657	-34.986	101.225	133.651	0.00092435	0.00035841	9.3842e-05	517.85	5.6783e-06	3.187e-06	1192.6	182.7	7.2709e-06	9.1876e-06	465.5	156.07	57.658	23.185	4.6313e-06	73.492	0.0022453	0.0026125	0.00074531	475.27	2.7063e-05	2.8413e-05	1056.9	165.71	2.7465e-05	2.8163e-05	417.67	139.07	56.813	21.426	2.7498e-05	66.098	150.256	-22.438	-127.050	-147.460	-28.296	-144.558	-148.759	-144.905	-44.901	-16.100	-145.421	-142.876	-142.338	-137.625	-33.300	-138.663	-8191	255	
4236.124	1	1	0	0	0.13604	0.05429	0.20519	0.12663	0.0097103	0.25275	0.23893	0.20309	0.20479	0.11338	0.092949	0.30468	0.16719	0.07053	0.14455	0.22295	-2.8875	-2.7604	-2.5271	-3.3	-2.5542	-2.8396	-3.3667	-2.5271	-3.0542	-3.0563	-2.5563	-3.4313	-2.4688	-2.7188	-3.25	-2.7062	135.532	-17.883	-123.592	-142.074	-39.158	60.149	128.306	-133.632	3.567	3.783	36.217	128.775	152.440	178.039	-49.317	151.440	0.00072237	0.00066386	0.00011984	518.5	5.6256e-06	5.2681e-06	1190	182.53	8.3468e-06	4.4349e-06	469.12	154.74	57.891	23.232	7.3228e-06	73.088	0.0022293	0.002602	0.00071422	474.43	2.7646e-05	2.8526e-05	1056.6	165.87	2.6694e-05	2.8495e-05	418.51	138.88	56.968	21.399	2.7498e-05	65.998	158.674	-61.015	12.383	-147.812	147.990	175.212	-148.825	-144.973	-124.966	-5.367	-145.104	-142.178	-142.515	-136.813	-28.622	-138.496	-8191	255	
4236.196	1	1	0	0	0.13271	0.24849	0.17785	0.1753	0.034631	0.2463	0.33196	0.30128	0.12404	0.045639	0.065444	0.10295	0.11271	0.099178	0.12761	0.095676	-2.6958	-3.0125	-2.4167	-3.2875	-2.7646	-2.6188	-3.2375	-2.5833	-3.0958	-2.9688	-2.4938	-3.2979	-2.8125	-2.5583	-3.3667	-2.7896	-117.666	91.977	47.190	-144.361	59.536	-26.079	82.862	132.320	-126.550	-46.072	76.177	35.220	-145.108	64.322	180.533	158.674	0.00082855	0.00013451	0.0002556	519.21	5.2856e-06	4.7101e-06	1196.8	183.1	1.1438e-05	1.2024e-06	468.28	156.46	58.957	23.075	7.4163e-06	73.816	0.0022417	0.0025747	0.00071498	472.73	2.7259e-05	2.8161e-05	1059.5	165.75	2.6752e-05	2.8282e-05	419.06	139.66	57.25	21.38	2.7343e-05	66.299	161.853	-25.356	-31.942	-147.477	-140.789	132.687	-149.428	-144.992	-37.332	41.733	-145.606	-142.639	-142.856	-137.842	-3.526	-139.562	-8191	255	
4236.292	1	1	0	0	0.22512	0.25664	0.073598	0.051054	0.32232	0.33534	0.07713	0.12356	0.14334	0.067723	0.14266	0.19146	0.10885	0.17155	0.11564	0.26662	-2.5396	-3.025	-2.3896	-3.3792	-2.875	-2.4417	-3.4042	-2.6312	-2.8063	-3.2083	-2.425	-3.3542	-2.8896	-2.6042	-3.2188	-2.8146	-105.263	-148.725	185.246	-54.568	128.868	191.981	-46.331	100.697	24.686	-73.547	163.798	143.641	170.388	-34.266	-58.062	157.195	0.00094067	0.00016075	0.00029184	519.18	5.7972e-06	4.6528e-06	1192.6	183.54	1.2865e-05	5.0823e-06	470.12	155.22	58.445	23.064	9.6173e-06	73.739	0.0021904	0.002553	0.00070429	474.2	2.7045e-05	2.8387e-05	1059.3	165.41	2.6781e-05	2.7646e-05	418.75	139.16	56.935	21.336	2.6826e-05	66.288	149.143	-159.672	-39.814	-148.151	-137.437	3.617	-148.990	-145.326	-49.421	-20.358	-145.776	-142.699	-142.958	-137.839	-46.852	-139.302	-8191	255	
4236.413	1	1	0	0	0.25025	0.14918	0.047222	0.05377	0.18889	0.36476	0.14896	0.19508	0.28056	0.37675	0.13575	0.24444	0.24405	0.082471	0.1935	0.21226	-2.3542	-3.2333	-2.2896	-3.0521	-3.0896	-2.3042	-3.4167	-2.8521	-2.7917	-3.1146	-2.6562	-3.2188	-3.0083	-2.4979	-3.1875	-2.9792	-95.552	-102.873	-59.211	-138.578	21.168	2.126	-137.644	97.878	56.446	76.533	85.168	179.119	134.013	-112.539	-114.036	-158.620	0.00090817	0.0002942	5.0344e-05	517.17	8.983e-06	6.9447e-06	1188.4	182.61	9.4551e-06	5.8638e-06	464.55	155.44	58.053	23.34	1.1338e-05	73.274	0.0021439	0.0025061	0.00069368	471.28	2.6503e-05	2.7873e-05	1055.4	165.01	2.6015e-05	2.7412e-05	416.54	139.38	56.802	21.42	2.6439e-05	66.015	167.229	36.867	-20.220	-148.568	-65.442	-44.973	-148.783	-145.109	-59.193	127.818	-145.777	-142.555	-143.056	-137.825	-58.950	-139.364	-8191	255	
4236.509	1	1	0	0	0.069309	0.13532	0.12703	0.24441	0.12652	0.17073	0.14226	0.2652	0.31018	0.13647	0.18227	0.32165	0.033469	0.073501	0.35238	0.09434	-2.3625	-3.2313	-2.3896	-3.0312	-3.0479	-2.5854	-3.4437	-2.8854	-2.5563	-3.2979	-2.6271	-3.1896	-2.9354	-2.3417	-3.1083	-2.9875	180.461	101.582	152.519	168.133	-95.007	8.418	95.985	60.757	77.525	-131.521	102.839	-11.336	-69.961	88.081	-101.752	76.620	0.00094638	0.00028745	0.00015774	518.3	1.1593e-05	4.9491e-06	1188.1	183.14	7.0767e-06	4.1925e-07	464.79	155.22	57.825	23.15	1.3174e-05	73.68	0.0021426	0.0024541	0.00068694	473.35	2.653e-05	2.7778e-05	1054.9	165.2	2.651e-05	2.7148e-05	416.16	139.63	56.96	21.378	2.6817e-05	66.288	161.734	-121.638	2.874	-147.795	-47.133	81.762	-148.917	-144.440	-103.800	-73.867	-146.006	-142.698	-142.448	-137.940	-32.994	-139.657	-8191	255	
4236.603	1	1	0	0	0.073194	0.019622	0.24231	0.049639	0.16999	0.12209	0.16188	0.026595	0.065218	0.14575	0.36107	0.22826	0.23835	0.14588	0.18675	0.16642	-2.1292	-3.3542	-2.6896	-3.0062	-3.1333	-2.4688	-3.2375	-2.8312	-2.5	-3.3958	-2.6958	-2.8542	-3.3063	-2.3417	-3.0375	-3.0938	45.820	-13.733	109.373	46.363	-159.995	77.615	-146.974	34.151	84.442	173.867	103.081	-107.650	-156.497	-71.829	0.289	-134.838	0.00099482	0.00028798	0.00031727	519.57	2.7053e-06	8.0164e-06	1195.9	183.91	9.0947e-06	4.6493e-06	467.46	155.84	57.623	23.318	1.064e-05	74.14	0.0021856	0.0025212	0.00068532	474.01	2.668e-05	2.773e-05	1059.4	165.25	2.6249e-05	2.6606e-05	416.79	139.63	56.809	21.454	2.6593e-05	66.513	155.229	-159.907	-105.592	-147.372	-113.856	-82.751	-148.722	-145.017	-122.525	14.440	-145.888	-142.477	-143.494	-137.976	-88.601	-139.419	-8191	255	
4236.724	1	1	0	0	0.13831	0.10003	0.1582	0.28588	0.097568	0.075452	0.32182	0.051278	0.077783	0.12894	0.41519	0.31157	0.12972	0.14062	0.1626	0.098863	-2.1146	-3.2333	-2.6521	-2.6708	-3.3208	-2.5187	-3.1688	-3.2271	-2.4583	-3.3854	-3.0021	-2.7271	-3.1583	-2.6229	-3	-3.2167	85.090	120.443	117.539	181.218	-161.707	-4.239	139.694	-53.769	84.946	-81.288	196.081	162.569	-41.749	103.736	-122.545	168.564	0.0009022	0.00055299	0.00023574	519.54	5.419e-06	8.5737e-06	1194.4	182.54	7.4467e-06	1.5748e-05	464.94	154.91	57.629	22.977	1.9896e-06	73.867	0.0021499	0.0024697	0.0006671	472.81	2.5957e-05	2.7156e-05	1054.5	164.91	2.5305e-05	2.6754e-05	415.05	139.16	56.819	21.335	2.5541e-05	66.39	160.667	-101.732	-94.183	-147.390	-37.467	-47.733	-148.870	-145.420	144.325	-4.248	-146.032	-142.645	-142.777	-138.507	-52.968	-139.753	-8191	255	
4236.795	1	1	0	0	0.18179	0.087896	0.18142	0.29599	0.049761	0.42295	0.28153	0.16825	0.1206	0.24943	0.21329	0.17248	0.22144	0.20553	0.27602	0.2018	-2.0917	-3.1854	-2.8063	-2.6354	-3.3417	-2.5438	-3.225	-3.3042	-2.5083	-3.225	-3.1042	-2.5875	-3.3	-2.6917	-2.8208	-3.2917	-114.882	193.955	168.212	165.584	191.583	101.352	107.671	-7.291	-58.209	119.484	191.103	175.583	153.580	-148.550	-141.829	93.099	0.00088412	0.00112	0.00027351	512.16	5.2829e-06	4.2524e-06	1178.3	182.77	3.2985e-06	6.8184e-06	462.7	154.4	57.916	22.892	3.1906e-06	73.293	0.0021033	0.0023686	0.00067391	469.86	2.5105e-05	2.5563e-05	1049.7	164.69	2.4848e-05	2.613e-05	414.45	138.69	56.506	21.279	2.5674e-05	65.977	164.845	-108.806	-74.598	-147.749	-117.450	15.230	-149.331	-145.009	98.542	-16.575	-145.876	-142.567	-142.674	-138.089	37.325	-139.298	-8191	255	
4236.893	1	1	0	0	0.10816	0.21838	0.24001	0.049046	0.12652	0.10928	0.092228	0.16755	0.14176	0.076818	0.25679	0.18974	0.015244	0.38153	0.090975	0.1741	-2.1688	-3.1083	-2.8792	-2.4333	-3.3167	-2.7333	-2.9875	-3.0417	-2.5208	-3.0687	-3.2146	-2.4437	-3.1312	-2.8937	-2.7062	-3.3771	-27.262	35.972	68.342	158.348	140.620	-88.940	176.820	-139.702	-157.558	188.781	-127.769	136.022	93.746	181.801	62.277	92.412	0.00084004	0.00051105	0.00020096	508.24	7.5051e-06	4.5527e-06	1193.2	181.21	3.7454e-06	8.0414e-06	463.09	154.97	58.415	23.008	4.6786e-06	73.64	0.0020689	0.0023765	0.00065197	468.22	2.4408e-05	2.5731e-05	1050.7	163.79	2.4673e-05	2.5476e-05	414.93	138.26	56.577	21.197	2.5499e-05	65.975	156.488	-67.901	-32.511	-147.935	-34.408	16.516	-149.018	-144.793	97.815	57.337	-145.486	-142.835	-142.862	-137.819	-51.801	-139.513	-8191	255	
4237.012	1	1	0	0	0.13427	0.24192	0.30109	0.25717	0.097346	0.22442	0.081843	0.18742	0.22057	0.045568	0.10877	0.27384	0.10214	0.37807	0.1042	0.092088	-2.1437	-2.9896	-3.0979	-2.5938	-3.2229	-2.8458	-2.9104	-3.4021	-2.5438	-3.0396	-3.2438	-2.5229	-3.1937	-2.8667	-2.6729	-3.5021	106.743	-40.207	108.266	134.717	-155.587	110.559	-150.844	103.438	70.902	29.899	-155.658	-134.349	-108.359	141.191	-95.899	38.091	0.00090623	0.00046699	0.0001931	512.74	6.8849e-06	7.6102e-06	1190.3	180.68	9.0329e-06	6.9853e-06	465	154.39	58.034	22.893	1.8374e-06	72.875	0.0020106	0.0022952	0.00062768	469.73	2.4579e-05	2.5323e-05	1051.8	162.97	2.4116e-05	2.5306e-05	413.6	137.77	55.739	21.12	2.4367e-05	65.556	166.576	-43.830	-79.226	-147.203	-17.566	-63.212	-148.689	-144.788	-64.690	-68.746	-145.482	-142.615	-142.846	-137.470	-44.306	-138.808	-8191	255	
4237.108	1	1	0	0	0.04968	0.10753	0.21865	0.19474	0.06658	0.23598	0.30789	0.20208	0.097335	0.26443	0.14802	0.083953	0.071957	0.27125	0.27061	0.049332	-2.15	-2.8604	-3.2292	-2.6042	-3.2333	-2.8312	-2.6208	-3.4042	-2.5792	-3.0187	-3.3	-2.5104	-2.9854	-2.85	-2.4521	-3.5667	8.777	-17.814	102.016	97.345	127.111	69.755	175.579	177.877	-150.801	-147.810	136.278	-143.822	-30.150	158.368	13.237	-26.983	0.00078464	0.0013243	0.0002315	514.25	1.0688e-05	3.5577e-06	1178.1	181.3	4.6816e-06	1.3462e-05	463.19	153.22	57.232	22.849	6.7823e-06	72.838	0.0019859	0.0022944	0.00063942	468.51	2.4099e-05	2.4703e-05	1046.1	163.15	2.368e-05	2.4981e-05	412.92	137.48	55.841	21.057	2.4524e-05	65.61	157.263	-41.601	-55.131	-148.217	-35.537	18.867	-148.855	-144.483	-124.463	13.886	-145.350	-142.570	-142.445	-137.991	-105.608	-139.099	-8191	255	
4237.204	1	1	0	0	0.16051	0.1968	0.14867	0.37137	0.085395	0.19542	0.11553	0.13821	0.12596	0.1003	0.10286	0.1201	0.19094	0.18548	0.095546	0.069337	-2.3354	-2.7271	-3.2583	-2.4562	-3.0563	-3.0563	-2.6125	-3.2188	-2.7687	-2.5417	-3.2687	-2.5583	-2.9479	-3.1042	-2.5625	-3.2104	73.600	142.920	169.175	143.031	49.952	165.892	99.203	123.670	109.842	192.638	132.955	117.196	151.219	-84.504	61.470	186.564	0.00083034	0.0012777	0.0002986	513.67	1.4249e-05	1.4488e-05	1178.1	181.82	4.4758e-07	2.6645e-06	463.99	154.28	57.875	22.777	1.8262e-06	73.197	0.0019824	0.0022869	0.00063342	467.02	2.4322e-05	2.5087e-05	1046.3	163.73	2.4128e-05	2.5021e-05	413.44	137.5	55.915	21.073	2.4942e-05	65.724	154.126	-67.961	-68.608	-147.509	-15.110	-6.743	-148.832	-144.663	-97.718	-155.789	-145.430	-142.305	-142.394	-137.904	176.979	-139.214	-8191	255	
4237.301	1	1	0	0	0.099183	0.10662	0.18754	0.36058	0.018602	0.28483	0.15145	0.18542	0.27967	0.27093	0.13005	0.17162	0.11966	0.10939	0.16707	0.36332	-2.4896	-2.7375	-3.2667	-2.5021	-2.8271	-3.1521	-2.55	-3.3333	-2.5812	-2.6042	-3.5896	-2.75	-3.0625	-3.3604	-2.5625	-3.3958	-29.571	159.921	-105.500	160.900	-97.476	-15.426	-126.542	123.744	78.676	-33.835	88.807	86.386	-140.649	87.769	-15.453	113.994	0.00087074	0.0011328	0.00032128	513.77	9.8369e-06	2.0218e-06	1185	182.06	1.6543e-05	4.1184e-06	464.14	155.39	58.127	23.131	4.9045e-06	73.81	0.0019952	0.0023281	0.00064797	468.73	2.4787e-05	2.5939e-05	1049.3	164.35	2.4202e-05	2.5337e-05	414.57	138.68	56.336	21.305	2.4278e-05	66.345	160.696	-62.593	-109.312	-147.661	-66.916	-157.826	-148.891	-144.739	-67.926	25.118	-145.534	-142.723	-142.191	-137.118	11.447	-138.634	-8191	255	
4237.421	1	1	0	0	0.076181	0.18631	0.20167	0.051224	0.084821	0.18375	0.33184	0.34921	0.099259	0.33962	0.11027	0.095148	0.067924	0.12773	0.074249	0.20313	-2.4958	-2.4771	-3.2396	-2.5187	-2.8187	-3.2	-2.5792	-3.2333	-3.1375	-2.5896	-3.2625	-2.7021	-2.8042	-3.3312	-2.4125	-3.2562	95.874	14.407	73.376	-133.795	55.581	22.689	91.482	86.664	-52.453	-58.924	169.302	-116.962	136.189	157.316	-105.806	160.880	0.00076347	0.00059811	9.6913e-05	506.84	8.0529e-06	5.1253e-06	1185.9	180.86	3.0493e-06	8.4207e-06	458.61	152.42	58.828	22.956	1.0197e-05	73.454	0.0020251	0.0023536	0.00063132	466.59	2.4488e-05	2.5445e-05	1046.8	164.1	2.4357e-05	2.501e-05	409.96	136.62	56.497	21.185	2.3921e-05	65.828	156.340	-26.294	-76.695	-147.574	-72.621	41.075	-148.536	-144.859	8.270	43.411	-145.581	-142.246	-142.568	-137.431	7.294	-138.885	-8191	255	
4237.493	1	1	0	0	0.091679	0.14714	0.067763	0.21716	0.11034	0.040885	0.20828	0.10995	0.090366	0.11177	0.25225	0.036896	0.14999	0.17527	0.33973	0.11628	-2.6292	-2.4896	-3.1	-2.925	-2.7354	-3.3833	-2.6	-2.9708	-3.1646	-2.4938	-3.4188	-2.7708	-2.6437	-3.2333	-2.6188	-2.9333	-91.053	149.500	-103.691	160.671	26.057	72.143	-146.135	39.929	45.830	-132.462	169.695	105.985	-150.751	156.464	75.045	-43.430	0.0009128	0.00054618	0.0002413	522.83	5.1677e-06	9.5269e-07	1178.9	181.29	9.141e-06	6.1469e-06	464.78	154.16	57.865	23.039	1.0194e-05	73.427	0.0019744	0.0022813	0.00062834	469.61	2.4247e-05	2.497e-05	1043.3	163.86	2.3869e-05	2.4819e-05	412.95	137.4	56.383	21.285	2.4255e-05	66.06	160.605	-141.925	-121.137	-147.688	-55.552	-103.767	-148.483	-144.592	-7.850	-51.594	-145.124	-142.124	-141.850	-137.649	-10.556	-138.715	-8191	255	
4237.614	1	1	0	0	0.15095	0.18247	0.21766	0.13564	0.12912	0.18304	0.22534	0.2167	0.209	0.12241	0.16679	0.22205	0.24574	0.13676	0.076786	0.26168	-2.6958	-2.4833	-3.2583	-2.8729	-2.6	-3.4688	-2.8104	-2.9771	-3.1083	-2.3917	-3.1792	-3.0625	-2.4833	-3.5104	-2.7625	-2.8688	63.384	3.337	-152.992	-126.802	-160.978	-134.012	85.376	-98.904	-27.084	76.577	94.794	149.526	58.343	-100.979	4.163	108.327	0.00088165	0.00046682	0.00027253	515.48	1.1822e-05	1.613e-05	1185.5	181.51	1.6163e-06	4.2631e-06	461.86	153.69	58.659	22.985	1.2743e-05	73.353	0.0019674	0.0022645	0.00063109	467.9	2.3837e-05	2.4514e-05	1046.8	163.26	2.3587e-05	2.5257e-05	411.71	137.32	56.212	21.09	2.4201e-05	65.904	146.961	-43.129	-59.444	-147.610	-19.364	111.564	-148.444	-144.368	-145.441	-38.903	-145.275	-142.380	-141.788	-137.369	-20.474	-138.879	-8191	255	
4237.708	1	1	0	0	0.14879	0.071194	0.11054	0.15598	0.14189	0.23088	0.37707	0.27659	0.16764	0.18251	0.36554	0.18816	0.018168	0.27003	0.13786	0.24313	-2.7938	-2.7229	-3.0812	-3.0833	-2.4771	-3.2875	-2.6917	-2.8979	-3.4792	-2.6333	-3.2292	-3.2542	-2.5812	-3.3667	-2.6729	-2.8438	55.552	-3.563	140.916	34.296	47.975	8.702	102.713	119.293	-152.706	17.981	55.920	153.533	84.829	114.044	-154.776	-130.651	0.0010382	0.0004498	0.00026057	510.82	1.1726e-05	1.3696e-06	1179.2	181.02	1.1614e-05	1.1389e-05	462.09	153.39	58.004	23.005	3.0151e-06	73.169	0.0019284	0.0022353	0.00061654	466.7	2.3643e-05	2.4554e-05	1045.4	162.8	2.2962e-05	2.3706e-05	410.87	136.77	55.956	21.061	2.4067e-05	65.68	159.569	-63.875	-29.894	-147.785	-76.000	-115.278	-148.165	-144.258	32.855	16.276	-145.257	-142.348	-142.767	-136.805	18.211	-139.151	-8191	255	
4237.804	1	1	0	0	0.18049	0.1541	0.19425	0.096125	0.071612	0.029995	0.21201	0.11301	0.15046	0.29108	0.1464	0.21961	0.1192	0.028522	0.14403	0.35304	-3.0104	-2.4958	-2.9313	-3.1958	-2.425	-3.2938	-2.9958	-2.7708	-3.225	-2.5938	-2.8833	-3.1729	-2.4646	-3.1667	-3.1375	-2.6479	-108.554	181.136	88.015	-159.090	-102.303	-130.156	160.600	-50.836	-115.490	24.587	153.355	-148.434	-57.594	26.617	109.408	192.923	0.00085961	0.00076223	0.00016503	512.25	2.0692e-06	7.2598e-06	1175.3	182.56	1.1162e-05	3.1469e-06	458.11	152.42	57.45	22.747	7.4267e-06	72.981	0.0019013	0.0022086	0.00061261	465.59	2.3723e-05	2.3918e-05	1039.6	162.86	2.3101e-05	2.4196e-05	409.04	136.32	55.35	20.948	2.3817e-05	65.408	152.606	-109.161	-90.235	-147.652	-135.737	-44.176	-148.534	-144.636	-40.525	-20.938	-145.204	-142.592	-141.934	-137.617	-36.391	-138.848	-8191	255	
4237.900	1	1	0	0	0.22266	0.11029	0.22915	0.11841	0.11299	0.038408	0.279	0.35255	0.079445	0.28558	0.28585	0.071789	0.13928	0.17304	0.21463	0.1588	-2.7542	-2.6208	-2.6688	-3.2271	-2.6	-3.0625	-3.0333	-2.5979	-3.2812	-2.5021	-2.925	-3.4042	-2.6875	-3.1396	-3.1688	-2.6083	23.834	-159.908	-124.523	71.061	103.517	102.244	137.873	113.876	-91.387	144.334	145.452	-20.538	120.028	192.886	165.779	167.007	0.00086795	0.00018536	0.00011618	510.61	8.959e-06	6.7737e-06	1169.2	180.41	5.2603e-06	4.3581e-06	460.89	153.21	57.416	22.733	1.0604e-05	72.59	0.0019135	0.0022045	0.00060428	463.77	2.2888e-05	2.4357e-05	1036.7	161.81	2.2557e-05	2.4158e-05	408.61	136.3	55.035	20.903	2.3293e-05	65.28	161.682	-72.524	-146.856	-148.789	-19.030	-81.138	-148.596	-144.480	-13.734	-76.227	-145.442	-142.708	-141.844	-137.811	-61.985	-138.568	-8191	255	
4237.996	1	1	0	0	0.23057	0.093383	0.1068	0.048137	0.15029	0.30113	0.23971	0.22322	0.19984	0.15594	0.12891	0.27499	0.19034	0.15015	0.12426	0.18499	-2.9188	-2.65	-2.65	-3.3729	-2.3458	-3.0896	-3.2313	-2.5333	-3.0583	-2.975	-2.7625	-3.3563	-2.6917	-3.0042	-3.15	-2.6354	40.136	-21.720	-120.289	84.415	109.748	-1.379	122.240	197.896	-125.538	-72.226	151.633	170.189	159.798	113.209	162.680	72.332	0.00087148	0.0005401	0.00018432	513.49	5.0226e-06	7.4594e-06	1170.7	180	6.0269e-06	4.692e-06	458.16	152.38	57.464	22.632	8.8635e-06	72.385	0.0018595	0.0021852	0.00061426	464.63	2.2751e-05	2.4343e-05	1040.2	161.75	2.2831e-05	2.3886e-05	408.21	135.84	55.281	20.84	2.3538e-05	64.899	157.525	-96.573	91.010	-147.830	-18.617	-151.306	-148.749	-144.113	0.945	-32.200	-145.019	-142.650	-142.208	-137.281	-62.262	-138.893	-8191	255	
4238.093	1	1	0	0	0.12411	0.053444	0.061122	0.1109	0.36041	0.034556	0.21012	0.19745	0.079059	0.24578	0.16135	0.18697	0.13647	0.081246	0.13774	0.14464	-2.925	-3.1292	-2.6813	-3.3083	-2.6562	-2.8083	-3.3083	-2.4	-3.0979	-3.0312	-2.6521	-3.2938	-2.5687	-2.7583	-3.2854	-2.6667	-61.189	-4.458	139.430	110.308	101.209	-82.220	129.272	134.437	111.198	53.292	110.842	141.467	186.009	100.475	-155.437	118.032	0.00088837	0.00043149	0.00014481	507.11	6.4034e-06	1.145e-05	1184.7	179.34	2.9474e-06	3.0487e-06	458.96	152.52	57.089	22.577	5.9137e-06	72.81	0.001885	0.0022021	0.0006205	461.5	2.2719e-05	2.4568e-05	1042.6	161.48	2.2259e-05	2.3991e-05	406.69	135.83	55.065	20.762	2.334e-05	65.039	160.338	82.375	-12.800	-146.976	-18.553	5.599	-148.663	-144.735	-87.734	-119.174	-145.294	-142.075	-142.204	-137.315	-98.587	-138.746	-8191	255	
4238.189	1	1	0	0	0.13591	0.076481	0.29186	0.10696	0.11763	0.20371	0.015033	0.095156	0.26527	0.1648	0.13048	0.1058	0.054796	0.20686	0.10312	0.16344	-2.6688	-2.9979	-2.7021	-3.2	-2.6688	-2.7854	-3.4667	-2.6521	-3.0979	-3.1688	-2.5875	-3.225	-2.8104	-2.5021	-3.2229	-2.7104	-153.707	126.995	-72.821	-139.627	-131.875	-12.194	84.837	185.654	40.942	-118.752	146.173	112.077	-52.291	-70.775	-113.738	62.545	0.00094536	0.00095991	0.00042256	505.69	3.7035e-06	4.2408e-06	1175.3	180.05	8.9079e-06	1.2435e-05	456.36	151.08	56.964	22.758	2.4778e-06	72.666	0.0019301	0.0021937	0.00060863	463.12	2.3015e-05	2.4211e-05	1038.8	162.02	2.3292e-05	2.4101e-05	407.19	135.34	55.033	20.872	2.3127e-05	65.018	150.276	-27.260	-18.831	-147.305	65.652	-5.066	-148.469	-144.152	-13.979	-17.275	-145.581	-142.549	-143.236	-137.762	-44.562	-139.763	-8191	255	
4238.285	1	1	0	0	0.054628	0.23037	0.19474	0.22036	0.050596	0.051023	0.24886	0.19055	0.16146	0.29877	0.084322	0.19078	0.11948	0.1704	0.17353	0.15216	-2.4958	-3.0333	-2.4062	-3.2333	-2.7708	-2.4688	-3.3354	-2.525	-2.9646	-3.2229	-2.5083	-3.2854	-2.8563	-2.65	-3.2104	-2.6667	30.932	34.838	100.882	-71.571	-112.511	150.735	-132.320	161.380	-46.593	145.962	142.484	180.035	-99.449	16.797	197.029	176.677	0.00074376	0.00051363	5.0113e-05	509.14	3.2423e-06	7.6799e-06	1172.1	181.25	4.8254e-06	3.0886e-06	458.03	153.03	56.966	22.893	2.6761e-06	72.464	0.0019454	0.0022008	0.00061102	465.32	2.2852e-05	2.4731e-05	1039.2	161.95	2.3259e-05	2.4997e-05	409.01	136.27	55.564	20.978	2.3981e-05	65.19	157.058	-50.771	-69.625	-147.760	-42.550	-9.957	-148.824	-144.723	183.074	178.493	-145.762	-142.316	-142.428	-137.623	-91.197	-139.335	-8191	255	
4238.381	1	1	0	0	0.11314	0.25101	0.19604	0.14797	0.1072	0.2342	0.28344	0.10541	0.2633	0.15042	0.1884	0.086246	0.27747	0.24584	0.092036	0.35796	-2.4146	-3.2396	-2.5396	-3.2604	-3.0875	-2.475	-3.3896	-2.525	-2.7833	-3.3167	-2.7562	-3.2354	-3.0375	-2.5917	-3.2354	-2.8438	-100.284	-53.905	-36.636	-129.045	15.946	-106.039	170.606	-63.738	-133.378	-102.981	-142.041	-124.241	133.917	25.980	190.296	132.191	0.0008457	0.00053886	6.5212e-05	507.81	1.1887e-05	6.1028e-06	1180.3	179.89	1.0509e-05	6.025e-06	457.04	152.82	56.944	22.676	8.8851e-06	73.022	0.0019357	0.0022261	0.00061818	465.17	2.3584e-05	2.4431e-05	1044	161.98	2.3074e-05	2.493e-05	408.06	136.65	55.441	20.886	2.3743e-05	65.43	155.401	-72.061	3.951	-147.716	-24.017	-19.403	-148.989	-144.867	-0.414	-94.267	-145.436	-142.324	-142.273	-137.628	-52.629	-139.219	-8191	255	
4238.502	1	1	0	0	0.04656	0.17301	0.44216	0.40578	0.15069	0.19962	0.070156	0.40329	0.073324	0.1036	0.24415	0.096415	0.15155	0.11788	0.091691	0.25774	-2.3583	-3.3104	-2.4604	-3.2729	-2.9729	-2.4021	-3.475	-2.7792	-2.5708	-3.3167	-2.6729	-2.9833	-3.0875	-2.5125	-3.1417	-2.8854	98.537	-11.161	-73.495	155.562	-161.014	189.644	187.922	191.497	19.679	175.872	179.369	106.355	184.009	55.493	137.662	191.380	0.00070227	0.00057487	0.00014765	509.02	8.8628e-06	5.0372e-06	1177.5	180.39	3.1158e-06	3.4275e-06	457.3	151.76	57.634	22.878	9.4865e-06	72.558	0.0019674	0.002297	0.00061209	465.07	2.4083e-05	2.4986e-05	1043	162.07	2.3738e-05	2.4391e-05	408.21	135.91	55.583	20.977	2.4363e-05	65.22	164.903	29.202	44.498	-147.680	17.178	-145.986	-148.742	-144.955	49.526	-109.947	-145.334	-142.235	-143.278	-137.156	-95.183	-139.057	-8191	255	
4238.596	1	1	0	0	0.16946	0.21856	0.18092	0.22207	0.19449	0.15645	0.16901	0.11392	0.17584	0.093938	0.28272	0.35133	0.14267	0.2776	0.078304	0.16307	-2.1063	-3.1813	-2.5396	-2.9417	-3.1229	-2.4771	-3.3854	-2.9354	-2.5187	-3.4521	-2.8333	-2.9458	-3.1708	-2.5354	-3.0083	-3.3229	169.696	-158.797	-60.204	-154.257	-156.588	-70.160	178.379	82.039	172.276	-93.795	173.292	140.265	-76.751	150.682	107.515	95.832	0.0010421	0.00025139	5.4807e-05	517.8	1.3704e-05	3.9557e-06	1180	181.15	7.1162e-06	7.5847e-06	459.44	151.76	57.967	22.956	1.2678e-05	72.751	0.0019774	0.0022676	0.0006204	467.27	2.3341e-05	2.4359e-05	1044.1	162.34	2.3633e-05	2.4569e-05	408.44	136.04	55.384	21.002	2.3777e-05	65.273	152.506	-135.633	170.567	-147.962	-20.160	-38.042	-148.619	-144.588	-24.460	-41.732	-145.254	-142.045	-142.337	-137.792	-1.667	-138.912	-8191	255	
4238.694	1	1	0	0	0.083102	0.13046	0.087212	0.1232	0.14228	0.18168	0.077299	0.14536	0.10652	0.1791	0.12286	0.34662	0.089979	0.14732	0.12466	0.07777	-2.2771	-3.2708	-2.525	-2.8021	-3.2875	-2.575	-3.15	-3.0833	-2.7104	-3.3208	-2.9375	-2.6562	-3.1958	-2.5208	-2.9646	-3.1354	-118.321	-59.951	162.712	-72.650	114.415	92.459	160.555	-92.055	-156.017	96.829	171.871	193.326	-55.996	183.466	123.294	112.651	0.00086083	0.00029982	0.00021146	513.42	9.2578e-06	1.3925e-06	1173.7	182.1	2.5872e-06	8.341e-06	457.66	153.35	57.73	22.885	4.2202e-06	72.719	0.0019426	0.002235	0.00062132	468.3	2.3773e-05	2.5282e-05	1044.9	162.28	2.3171e-05	2.4493e-05	408.88	136.69	55.526	20.943	2.3826e-05	65.183	165.729	-99.158	-13.901	-147.153	-41.271	104.360	-148.263	-144.829	109.033	9.565	-145.322	-142.200	-142.630	-137.718	-10.623	-138.785	-8191	255	
4238.788	1	1	0	0	0.1188	0.10729	0.1142	0.14891	0.096299	0.085688	0.14009	0.091264	0.10393	0.14489	0.27363	0.058153	0.25337	0.34271	0.15299	0.087949	-2.1333	-3.1979	-2.8708	-2.7479	-3.4396	-2.4354	-3.1562	-3.2396	-2.4792	-3.2625	-2.9479	-2.7229	-3.2313	-2.5687	-2.9	-3.3333	-134.631	-24.773	-139.062	57.110	-26.851	-155.881	-148.715	-61.409	-91.463	-69.192	158.267	124.726	164.895	190.691	-107.390	175.104	0.00099556	0.00034881	9.9851e-05	506.37	4.748e-06	9.6717e-06	1175.8	180.4	6.3014e-06	1.172e-05	460.77	152.37	57.33	22.634	9.8895e-06	72.812	0.0019621	0.0022273	0.00062637	463.03	2.3539e-05	2.4469e-05	1043.9	162.21	2.2966e-05	2.4437e-05	409.28	136.05	55.477	20.904	2.4105e-05	65.264	152.871	169.726	149.915	-147.689	-57.663	78.326	-148.650	-144.871	-1.027	78.903	-145.279	-142.281	-141.885	-137.423	144.939	-139.504	-8191	255	
4238.884	1	1	0	0	0.081533	0.095266	0.10869	0.12544	0.054099	0.11082	0.27494	0.22408	0.31762	0.11944	0.49271	0.064584	0.30038	0.20683	0.19387	0.092418	-1.925	-3.1063	-2.9188	-2.6375	-3.2833	-2.5167	-2.8979	-3.2542	-2.5396	-3.1292	-3.1	-2.6854	-3.2646	-2.5687	-2.5563	-3.4375	-140.023	-139.391	65.408	196.154	76.642	-9.478	160.351	135.688	-131.502	91.266	144.659	-103.816	15.451	-150.487	-66.844	144.416	0.00092061	0.00086709	0.00021524	512.94	9.4595e-07	3.5992e-06	1182.5	180.83	1.3907e-05	1.4598e-05	457.52	152.18	56.721	22.575	7.6447e-06	72.714	0.0019405	0.002186	0.00062969	463.83	2.3916e-05	2.434e-05	1044.2	163	2.3533e-05	2.4202e-05	408.27	136.05	55.132	20.943	2.4026e-05	65.189	150.235	-60.695	-132.136	-147.447	-50.123	35.111	-148.300	-144.268	-65.333	-29.100	-145.208	-142.120	-143.039	-137.593	-22.374	-138.949	-8191	255	
4238.981	1	1	0	0	0.23424	0.25151	0.049538	0.16252	0.18449	0.28575	0.13452	0.41292	0.11553	0.011457	0.24576	0.30884	0.057357	0.099862	0.27675	0.083156	-1.9937	-2.9792	-2.9396	-2.4958	-3.3292	-2.7917	-2.725	-3.2417	-2.375	-3.0708	-3.0917	-2.5354	-3.0833	-2.6354	-2.7042	-3.4104	8.087	125.266	138.634	-35.739	-16.338	-63.797	162.471	-160.042	146.688	-40.397	-133.800	123.152	63.047	-133.598	174.354	15.975	0.00088198	0.0012352	0.00013169	508.43	6.3965e-06	9.2196e-06	1172.3	181.45	7.6447e-06	6.9967e-06	457.07	152.3	57.953	22.859	1.4404e-05	73.165	0.0019267	0.0022618	0.00061074	463.58	2.3087e-05	2.4566e-05	1040.8	162.35	2.3492e-05	2.4745e-05	409.44	136.09	55.678	21.078	2.4498e-05	65.66	154.011	-69.733	-34.125	-147.675	-57.453	48.116	-148.426	-144.587	-65.139	-63.553	-144.996	-142.374	-142.656	-137.659	-37.643	-138.499	-8191	255	
4239.101	1	1	0	0	0.19447	0.073386	0.13375	0.13827	0.10189	0.09402	0.22723	0.057725	0.16638	0.17553	0.11928	0.35925	0.16489	0.34225	0.13024	0.19083	-2.1146	-2.975	-3.1208	-2.4229	-3.2687	-2.95	-2.7438	-3.3521	-2.675	-2.9896	-3.1875	-2.6604	-3.2	-2.8063	-2.4479	-3.3458	-114.304	60.774	151.139	-53.484	107.531	-16.071	128.378	150.569	-26.787	89.845	178.242	176.272	133.161	-159.617	-139.203	182.481	0.00088833	0.00079187	0.0001144	514.94	5.5785e-06	1.222e-05	1187.7	180.03	2.2114e-06	7.3394e-06	461.57	153.39	56.724	23.082	2.0267e-06	72.63	0.0019433	0.0022302	0.00062011	468.29	2.3919e-05	2.4853e-05	1047.3	163	2.3597e-05	2.5109e-05	411.22	136.48	55.407	21.11	2.4121e-05	65.344	148.932	171.240	28.720	-147.359	-81.872	-23.189	-148.207	-144.131	-126.701	-24.923	-145.348	-142.347	-142.182	-137.644	-138.562	-138.919	-8191	255	
4239.197	1	1	0	0	0.34254	0.25392	0.097912	0.048409	0.080522	0.22018	0.22684	0.09674	0.090173	0.16766	0.079417	0.040128	0.15242	0.28935	0.30538	0.12229	-2.3521	-2.65	-3.3167	-2.5104	-3.0625	-3.1458	-2.6312	-3.3917	-2.8208	-2.6167	-3.4042	-2.5542	-2.9938	-3.0125	-2.4	-3.4104	-122.122	170.480	80.130	178.377	142.916	-54.667	37.992	-146.190	-119.976	-159.991	173.006	-149.796	-127.435	106.107	49.296	-100.049	0.0010725	0.0010573	2.6125e-05	514.9	7.7706e-06	6.8664e-06	1170.6	181.51	4.4923e-06	5.6272e-07	460.32	152.43	56.616	22.764	6.3562e-06	72.861	0.0019807	0.0022915	0.00061949	464.82	2.3831e-05	2.4689e-05	1041.1	162.86	2.3171e-05	2.4351e-05	410.28	136.4	55.443	20.94	2.353e-05	65.418	154.382	-105.246	44.958	-147.867	9.006	26.086	-148.501	-144.602	-10.792	15.200	-145.335	-142.500	-141.992	-137.856	-6.058	-138.393	-8191	255	
4239.294	1	1	0	0	0.1577	0.22622	0.15931	0.19959	0.16281	0.074601	0.29689	0.23652	0.14811	0.070183	0.10961	0.1509	0.10647	0.07489	0.048035	0.10771	-2.2792	-2.5438	-3.2562	-2.6208	-2.7313	-2.9854	-2.6708	-3.1479	-2.9688	-2.6833	-3.3937	-2.6542	-2.9125	-3.1896	-2.4146	-3.1188	5.885	-156.136	-154.890	147.929	-29.768	-116.720	167.795	101.499	-130.216	19.596	-140.723	151.506	-141.049	184.664	109.458	-154.657	0.00082303	0.00068253	0.00029462	514.06	4.4626e-06	8.9883e-06	1173.1	180.03	8.3616e-06	6.1428e-06	460.19	152.45	58.469	22.835	8.1341e-06	73.133	0.0019456	0.0022445	0.00061421	465.49	2.4028e-05	2.4816e-05	1043.5	162.38	2.3541e-05	2.4869e-05	409.61	136.18	55.922	21.012	2.4048e-05	65.468	153.280	-18.300	-150.205	-147.632	-60.881	19.118	-148.460	-144.353	-44.975	41.148	-145.088	-141.984	-142.172	-136.921	43.017	-138.619	-8191	255	
4239.390	1	1	0	0	0.18498	0.15214	0.16885	0.075321	0.19116	0.22661	0.1565	0.42946	0.12697	0.21185	0.19323	0.30428	0.052773	0.070183	0.02394	0.17239	-2.375	-2.5229	-3.2938	-2.7729	-2.825	-3.0625	-2.5917	-3.0792	-2.9313	-2.6	-3.3167	-2.6708	-2.7375	-3.3563	-2.4104	-3.1792	138.352	-25.910	57.610	22.008	-87.890	-82.194	79.742	167.979	53.558	58.203	-155.516	125.702	-121.171	148.996	-18.713	140.432	0.00081668	0.00088333	2.4241e-05	509.29	3.5251e-06	8.3462e-06	1176	180.63	5.0758e-06	1.1255e-05	461.44	152.78	57.571	22.929	1.2176e-05	73.094	0.0019695	0.0022548	0.00061561	462.85	2.4114e-05	2.4616e-05	1045.9	162.66	2.3848e-05	2.4639e-05	411.73	136.46	55.378	21.054	2.4376e-05	65.808	155.605	-96.679	-146.640	-147.112	32.554	5.837	-148.475	-144.609	-105.620	0.884	-145.137	-142.052	-142.488	-137.297	13.116	-138.929	-8191	255	
#DATA ENDS
