BOXY.EXE: ISS Imagent and Oximeter Data Acquisition Program Version 0.80
Ascii Record File

#ACQ INFORMATION
2  Detector Channels 
16  External MUX Channels 
1  Auxiliary Channels 
5000  Waveform (CCF) Frequency (Hz)
1  Waveforms Skipped 
30  Waveforms Averaged 
1  Cycles Averaged 
16  Acquisitions per Waveform 
10.0806  Updata Rate (Hz) 

#FILE INFORMATION
TRUE -- External MUX Channel results are PARSED.
FALSE -- AC DC and Phase are NOT grouped.
TRUE -- Companion Program Settings File CREATED.
FALSE -- AC data not excluded
FALSE -- DC data not excluded
FALSE -- Phase data not excluded
FALSE -- Auxillary Chn. data not excluded
Tab delimiters

#CALIBRATION STATE
TRUE -- Waveform Calibration Values APPLIED.


#AUX CALIBRATION VALUES
Val Type	aux-1	

Term	1.0000e+00	
Factor	0.0000e+00	


#WF CALIBRATION VALUES
A = Detector Channel
Val Type	A-AC1	A-AC2	A-AC3	A-AC4	A-AC5	A-AC6	A-AC7	A-AC8	A-AC9	A-AC10	A-AC11	A-AC12	A-AC13	A-AC14	A-AC15	A-AC16	A-DC1	A-DC2	A-DC3	A-DC4	A-DC5	A-DC6	A-DC7	A-DC8	A-DC9	A-DC10	A-DC11	A-DC12	A-DC13	A-DC14	A-DC15	A-DC16	A-Ph1	A-Ph2	A-Ph3	A-Ph4	A-Ph5	A-Ph6	A-Ph7	A-Ph8	A-Ph9	A-Ph10	A-Ph11	A-Ph12	A-Ph13	A-Ph14	A-Ph15	A-Ph16	

Term	0.00000e+00	0.00000e+00	0.00000e+00	0.00000e+00	0.00000e+00	0.00000e+00	0.00000e+00	0.00000e+00	0.00000e+00	0.00000e+00	0.00000e+00	0.00000e+00	0.00000e+00	0.00000e+00	0.00000e+00	0.00000e+00	0.00000e+00	0.00000e+00	0.00000e+00	0.00000e+00	0.00000e+00	0.00000e+00	0.00000e+00	0.00000e+00	0.00000e+00	0.00000e+00	0.00000e+00	0.00000e+00	0.00000e+00	0.00000e+00	0.00000e+00	0.00000e+00	0.00000e+00	0.00000e+00	0.00000e+00	0.00000e+00	0.00000e+00	0.00000e+00	0.00000e+00	0.00000e+00	0.00000e+00	0.00000e+00	0.00000e+00	0.00000e+00	0.00000e+00	0.00000e+00	0.00000e+00	0.00000e+00	
Factor	1.00000e+00	1.00000e+00	1.00000e+00	1.00000e+00	1.00000e+00	1.00000e+00	1.00000e+00	1.00000e+00	1.00000e+00	1.00000e+00	1.00000e+00	1.00000e+00	1.00000e+00	1.00000e+00	1.00000e+00	1.00000e+00	1.00000e+00	1.00000e+00	1.00000e+00	1.00000e+00	1.00000e+00	1.00000e+00	1.00000e+00	1.00000e+00	1.00000e+00	1.00000e+00	1.00000e+00	1.00000e+00	1.00000e+00	1.00000e+00	1.00000e+00	1.00000e+00	X	X	X	X	X	X	X	X	X	X	X	X	X	X	X	X	

B = Detector Channel
Val Type	B-AC1	B-AC2	B-AC3	B-AC4	B-AC5	B-AC6	B-AC7	B-AC8	B-AC9	B-AC10	B-AC11	B-AC12	B-AC13	B-AC14	B-AC15	B-AC16	B-DC1	B-DC2	B-DC3	B-DC4	B-DC5	B-DC6	B-DC7	B-DC8	B-DC9	B-DC10	B-DC11	B-DC12	B-DC13	B-DC14	B-DC15	B-DC16	B-Ph1	B-Ph2	B-Ph3	B-Ph4	B-Ph5	B-Ph6	B-Ph7	B-Ph8	B-Ph9	B-Ph10	B-Ph11	B-Ph12	B-Ph13	B-Ph14	B-Ph15	B-Ph16	

Term	0.00000e+00	0.00000e+00	0.00000e+00	0.00000e+00	0.00000e+00	0.00000e+00	0.00000e+00	0.00000e+00	0.00000e+00	0.00000e+00	0.00000e+00	0.00000e+00	0.00000e+00	0.00000e+00	0.00000e+00	0.00000e+00	0.00000e+00	0.00000e+00	0.00000e+00	0.00000e+00	0.00000e+00	0.00000e+00	0.00000e+00	0.00000e+00	0.00000e+00	0.00000e+00	0.00000e+00	0.00000e+00	0.00000e+00	0.00000e+00	0.00000e+00	0.00000e+00	-1.73704e+02	-1.32310e+02	-1.30523e+02	-1.83574e+02	-7.60477e+01	-6.70359e+01	-1.55495e+02	-1.62015e+02	-7.99824e+01	-6.07535e+01	-1.70946e+02	-1.70640e+02	-1.80572e+02	-1.76431e+02	-8.06021e+01	-1.49822e+02	
Factor	2.81431e-05	1.40646e-04	3.83973e-05	2.01100e-01	1.36085e-06	1.58655e-06	1.53996e-01	4.82859e-02	1.48335e-06	1.59777e-06	8.17184e-02	2.79086e-02	4.74001e-02	8.75135e-03	1.44834e-06	1.23503e-02	7.47231e-06	9.38387e-06	2.59553e-06	1.05508e-01	9.95022e-08	1.03510e-07	7.64957e-02	2.55268e-02	9.80276e-08	1.03065e-07	4.19575e-02	1.43083e-02	2.51944e-02	4.66655e-03	1.00170e-07	6.38590e-03	X	X	X	X	X	X	X	X	X	X	X	X	X	X	X	X	



#DISTANCE SETTINGS
A = Detector Channel
A-1	A-2	A-3	A-4	A-5	A-6	A-7	A-8	A-9	A-10	A-11	A-12	A-13	A-14	A-15	A-16	

2.5000e+00	3.0000e+00	2.5000e+00	3.0000e+00	2.0000e+00	3.0000e+00	1.5000e+00	3.0000e+00	3.0000e+00	3.0000e+00	3.0000e+00	3.0000e+00	3.0000e+00	3.0000e+00	1.5000e+00	3.0000e+00	

B = Detector Channel
B-1	B-2	B-3	B-4	B-5	B-6	B-7	B-8	B-9	B-10	B-11	B-12	B-13	B-14	B-15	B-16	

1.0000e+01	1.0000e+01	1.0000e+01	1.4400e+00	1.0000e+01	1.0000e+01	1.5100e+00	1.9400e+00	1.0000e+01	1.0000e+01	1.9900e+00	2.4900e+00	2.4100e+00	2.9000e+00	1.0000e+01	2.9800e+00	




#DATA BEGINS
time	group	step	mark	flag	A-AC1	A-AC2	A-AC3	A-AC4	A-AC5	A-AC6	A-AC7	A-AC8	A-AC9	A-AC10	A-AC11	A-AC12	A-AC13	A-AC14	A-AC15	A-AC16	A-DC1	A-DC2	A-DC3	A-DC4	A-DC5	A-DC6	A-DC7	A-DC8	A-DC9	A-DC10	A-DC11	A-DC12	A-DC13	A-DC14	A-DC15	A-DC16	A-Ph1	A-Ph2	A-Ph3	A-Ph4	A-Ph5	A-Ph6	A-Ph7	A-Ph8	A-Ph9	A-Ph10	A-Ph11	A-Ph12	A-Ph13	A-Ph14	A-Ph15	A-Ph16	B-AC1	B-AC2	B-AC3	B-AC4	B-AC5	B-AC6	B-AC7	B-AC8	B-AC9	B-AC10	B-AC11	B-AC12	B-AC13	B-AC14	B-AC15	B-AC16	B-DC1	B-DC2	B-DC3	B-DC4	B-DC5	B-DC6	B-DC7	B-DC8	B-DC9	B-DC10	B-DC11	B-DC12	B-DC13	B-DC14	B-DC15	B-DC16	B-Ph1	B-Ph2	B-Ph3	B-Ph4	B-Ph5	B-Ph6	B-Ph7	B-Ph8	B-Ph9	B-Ph10	B-Ph11	B-Ph12	B-Ph13	B-Ph14	B-Ph15	B-Ph16	aux-1	digaux	

4197.893	1	1	0	768	0.093975	0.023935	0.22003	0.06949	0.13445	0.3676	0.17255	0.13693	0.14252	0.097804	0.17851	0.22869	0.18604	0.32589	0.21824	0.26941	-2.0854	-3.2812	-2.5667	-2.8021	-3.2583	-2.4833	-3.3771	-3.1354	-2.5104	-3.3583	-2.775	-2.8604	-3.1188	-2.4458	-3.125	-3.1229	-82.571	53.328	143.993	-74.474	206.555	227.470	104.336	195.294	96.828	141.871	220.369	-110.087	141.206	244.032	33.472	184.844	0.00045962	0.00092228	0.00017894	590.36	1.2813e-05	6.9987e-06	1172.1	193.31	4.943e-06	7.6229e-06	499.61	186.9	74.826	32.859	2.572e-07	94.659	0.0017275	0.0019551	0.00054233	527.28	2.0519e-05	2.1499e-05	1031.7	172.16	2.0389e-05	2.127e-05	442.59	165.42	69.439	29.504	2.0813e-05	84.106	151.730	237.820	44.575	-100.020	75.765	77.785	-100.229	-96.655	-32.988	23.579	-97.272	-94.575	-94.578	-91.145	43.782	-91.708	-8191	255	
4197.989	1	1	0	0	0.36173	0.092759	0.11518	0.17131	0.26836	0.18514	0.16251	0.009686	0.27267	0.17709	0.35234	0.25707	0.14202	0.056027	0.081556	0.094729	-2.0687	-3.1354	-2.6979	-2.9042	-3.1813	-2.45	-3.1792	-3.3125	-2.5833	-3.3625	-2.8292	-2.8438	-3.2542	-2.525	-2.8917	-3.3417	194.760	63.715	3.993	-8.703	21.967	-8.746	214.278	-50.653	109.230	77.861	212.590	163.639	25.193	130.086	160.009	165.759	0.00065339	0.00041904	0.00011591	581.87	5.9029e-06	1.036e-05	1165.9	193.97	1.1053e-05	3.5677e-06	501.4	184.32	72.966	32.776	6.3032e-06	95.362	0.0017124	0.0019247	0.00053761	523.35	2.0761e-05	2.1487e-05	1030.5	173.03	2.0471e-05	2.1053e-05	441.82	164.06	69.024	29.344	2.031e-05	84.368	168.108	-98.453	139.092	-100.526	24.275	-36.247	-100.878	-97.060	123.330	41.358	-98.282	-94.793	-94.252	-90.967	41.015	-91.847	-8191	255	
4198.085	1	1	0	0	0.059145	0.18842	0.073297	0.059483	0.11984	0.037201	0.17004	0.22816	0.077717	0.13218	0.21137	0.39264	0.069716	0.085449	0.17737	0.34209	-1.8667	-3.1646	-2.8521	-2.6417	-3.2188	-2.7292	-3.125	-3.3021	-2.4958	-3.1104	-3.0687	-2.6813	-3.3854	-2.6937	-2.9	-3.4208	-103.733	-57.200	127.974	189.436	101.478	208.256	162.550	155.231	-68.625	34.868	224.767	204.715	190.018	212.492	-106.056	157.690	0.00059589	0.0010288	0.00013184	584.28	8.8964e-06	1.3376e-05	1166.2	194.28	1.3977e-05	5.6995e-06	500.24	186.27	74.467	32.961	4.2134e-06	95.52	0.0016764	0.0018919	0.00052069	526.21	1.9882e-05	2.1207e-05	1033.2	173.67	1.9758e-05	2.0695e-05	443.38	165	69.74	29.508	2.0247e-05	84.624	165.143	-44.527	-61.314	-100.041	20.562	46.623	-100.206	-96.724	-0.465	-5.064	-97.656	-94.678	-94.319	-90.182	16.733	-91.457	-8191	255	
4198.181	1	1	0	0	0.19958	0.21111	0.062377	0.1853	0.26222	0.070185	0.090737	0.13312	0.31157	0.10115	0.1752	0.23181	0.014115	0.11513	0.12751	0.20311	-2.0979	-3.1146	-2.9104	-2.5396	-3.1562	-2.8312	-2.8958	-3.2854	-2.5062	-3.0958	-3.1167	-2.6375	-3.4167	-2.9583	-2.7938	-3.5229	102.383	1.269	180.973	-104.909	102.498	171.216	217.277	211.668	132.835	202.204	-101.484	146.422	-9.823	-79.822	64.918	151.511	0.00053523	0.0006441	0.00024034	582.46	5.6119e-06	3.2562e-06	1167.3	194.29	7.3679e-06	2.4873e-07	503.54	187.38	73.635	33.438	5.5084e-06	95.89	0.0016633	0.0019268	0.00051651	523.77	2.0548e-05	2.1007e-05	1032.8	173.52	2.0697e-05	2.1095e-05	444.6	166.17	69.982	29.963	2.1189e-05	85.127	145.577	-10.149	-8.856	-100.388	52.031	235.425	-100.371	-96.524	42.692	-46.215	-97.634	-94.729	-94.244	-90.939	52.175	-92.188	-8191	255	
4198.278	1	1	0	0	0.17659	0.13973	0.037768	0.13633	0.075199	0.13325	0.13072	0.003564	0.22282	0.17862	0.20506	0.12492	0.081921	0.073272	0.19195	0.21843	-2.0521	-2.9083	-3.1312	-2.5917	-3.2292	-2.9771	-2.7188	-3.4042	-2.5875	-2.8625	-3.45	-2.6083	-3.2125	-3.0187	-2.5667	-3.3604	189.554	211.442	192.988	80.685	174.069	-89.775	214.011	20.071	-60.542	177.339	-108.281	181.697	111.888	-97.098	145.539	226.096	0.00070851	0.0006726	3.4344e-05	586.89	4.9363e-07	9.6531e-06	1168.1	194.88	2.9707e-06	1.0852e-05	507.17	187.69	73.304	33.517	7.2075e-06	96.444	0.0017718	0.0020406	0.00055255	527.96	2.1573e-05	2.2773e-05	1034.3	173.81	2.1507e-05	2.2373e-05	448.05	166.65	70.415	30.169	2.236e-05	85.525	165.358	-12.562	75.539	-100.901	212.999	-23.931	-100.972	-96.640	139.782	18.169	-97.928	-94.945	-94.339	-90.753	35.910	-91.788	-8191	255	
4198.374	1	1	0	0	0.17483	0.18065	0.14844	0.11915	0.22927	0.178	0.31864	0.18293	0.10205	0.10361	0.070182	0.1107	0.17681	0.12407	0.11779	0.39297	-2.0438	-2.7229	-3.0625	-2.6042	-3.2687	-2.9146	-2.7146	-3.3917	-2.6521	-2.925	-3.3458	-2.5312	-3.2375	-3.0375	-2.4604	-3.4458	85.634	10.696	-24.064	-66.915	160.996	-85.018	167.816	77.976	-59.231	173.664	191.880	-42.238	-109.330	85.499	50.636	163.529	0.00070106	0.00071421	0.00023861	587.44	8.34e-06	7.508e-06	1166.5	195.97	1.7854e-06	9.1143e-06	503.2	187.57	74.352	33.012	2.8963e-06	96.388	0.0017929	0.0020464	0.00057263	527.5	2.2252e-05	2.2424e-05	1033.8	174.24	2.1716e-05	2.2849e-05	446.77	166.64	70.2	29.738	2.225e-05	85.173	153.870	-37.931	-59.828	-100.533	-95.827	51.909	-100.347	-96.822	-33.478	92.223	-97.769	-95.358	-94.312	-90.895	-18.557	-91.868	-8191	255	
4198.494	1	1	0	0	0.12727	0.010297	0.077607	0.084195	0.08816	0.22713	0.25396	0.10754	0.28225	0.17535	0.28476	0.12486	0.11377	0.042103	0.13792	0.20098	-2.3917	-2.6021	-3.2188	-2.5792	-3.1854	-3.0708	-2.7188	-3.4146	-2.8854	-2.7375	-3.575	-2.5875	-3.0021	-3.2729	-2.3854	-3.4688	210.637	158.823	12.335	14.359	101.993	241.981	188.733	170.224	32.915	140.050	236.217	221.902	150.799	77.832	193.333	210.456	0.00059812	0.00047975	0.00039193	593.44	1.1108e-05	6.2195e-06	1179.4	196.44	4.6174e-06	7.1644e-06	502.53	187.49	74.3	33.283	4.0317e-06	95.864	0.0017801	0.0020401	0.00057087	530.18	2.1356e-05	2.2476e-05	1040.7	174.47	2.0991e-05	2.2722e-05	445.08	166.11	69.785	29.794	2.1971e-05	84.918	152.766	-41.142	-51.471	-100.866	98.501	79.562	-100.606	-96.880	-62.522	19.250	-97.587	-94.676	-94.455	-90.746	13.320	-91.974	-8191	255	
4198.589	1	1	0	0	0.15399	0.22763	0.034189	0.14393	0.18381	0.12005	0.3728	0.056963	0.35437	0.11282	0.11077	0.16723	0.13163	0.079154	0.27517	0.33695	-2.4	-2.5208	-3.3792	-2.6583	-2.8208	-3.3021	-2.6771	-3.2417	-2.8521	-2.5958	-3.4146	-2.6208	-2.8167	-3.3979	-2.3729	-3.3083	199.442	227.679	-54.655	178.916	-70.665	-66.579	185.173	229.400	163.336	0.124	187.055	160.559	239.044	133.410	-25.075	168.240	0.00076407	0.00031464	7.3307e-05	590.84	6.4238e-06	7.046e-06	1174	195.12	1.3744e-05	1.2371e-05	500.52	184.94	73.678	32.564	4.8336e-06	94.287	0.0017568	0.0020509	0.00055621	530.5	2.1147e-05	2.2141e-05	1034.6	173.6	2.1012e-05	2.1684e-05	443.36	164.07	69.268	29.157	2.1283e-05	83.493	155.955	-70.724	25.026	-100.644	84.514	44.591	-100.522	-97.004	-20.591	31.610	-97.871	-94.959	-94.669	-90.352	-0.410	-91.836	-8191	255	
4198.685	1	1	0	0	0.30673	0.10799	0.092076	0.037705	0.16629	0.019612	0.39681	0.091281	0.061281	0.10544	0.1814	0.17743	0.095116	0.18783	0.072901	0.031742	-2.5875	-2.4104	-3.2396	-2.7479	-2.6354	-3.0938	-2.6104	-3.0875	-2.8521	-2.4542	-3.275	-2.9625	-2.4729	-3.1792	-2.3625	-3.1625	-95.956	240.387	63.634	-90.637	-52.474	-99.330	169.032	27.140	177.596	54.724	207.902	197.703	185.525	240.236	-36.626	188.203	0.00064023	0.00045437	0.00015563	577.54	1.0938e-05	1.2459e-05	1173	194.3	1.0487e-05	3.7835e-06	499.01	182.45	72.885	32.125	5.7128e-06	93.163	0.0017538	0.0019994	0.00054473	522.95	2.0982e-05	2.1613e-05	1031.6	172.72	2.0615e-05	2.1689e-05	439.47	162.19	68.713	28.691	2.1315e-05	82.355	142.414	103.947	95.020	-100.700	15.566	8.347	-100.578	-96.688	53.103	-4.523	-97.710	-95.057	-93.773	-90.419	-60.319	-91.695	-8191	255	
4198.781	1	1	0	0	0.12389	0.19221	0.28971	0.17055	0.14827	0.21127	0.2239	0.20824	0.16548	0.1932	0.046316	0.13558	0.21747	0.046878	0.23697	0.086844	-2.6333	-2.4042	-3.1312	-2.9208	-2.6729	-3.2375	-2.5125	-2.9458	-3.0875	-2.3021	-3.3688	-2.9313	-2.5604	-3.275	-2.6208	-3.05	195.344	-53.808	184.809	187.728	75.561	-30.729	202.043	137.139	108.007	-114.370	171.853	191.765	224.669	-5.707	90.581	229.778	0.00076932	0.00062245	0.00024758	587.7	2.8572e-06	8.4913e-06	1163.1	192.47	5.4974e-06	6.4713e-06	496.45	181.48	71.594	31.516	9.6122e-06	92.145	0.0017167	0.0020079	0.00055326	524.59	2.0864e-05	2.1725e-05	1028.2	171.42	2.0691e-05	2.2005e-05	438.48	161.35	67.997	28.308	2.1523e-05	81.567	165.428	-10.465	-36.405	-100.810	107.175	58.935	-100.589	-97.033	12.104	17.043	-97.492	-94.956	-94.781	-90.544	37.413	-91.411	-8191	255	
4198.877	1	1	0	0	0.047593	0.28982	0.19551	0.28943	0.18795	0.12481	0.28785	0.079026	0.22135	0.16167	0.19387	0.36285	0.045727	0.26058	0.10639	0.34963	-2.6958	-2.3521	-3.1813	-3.0062	-2.6104	-3.2854	-2.7625	-2.7521	-3.2979	-2.4146	-3.3937	-3.0521	-2.4146	-3.3354	-2.7188	-2.9042	-109.238	-112.062	-51.271	-101.799	7.244	-46.721	228.344	201.037	152.026	-71.284	-63.467	204.007	119.953	-96.644	-8.144	163.534	0.0005667	0.00096405	0.00018825	581.85	3.2429e-06	5.0001e-06	1163.6	191.28	1.1662e-05	5.3666e-06	494.8	181.13	72.371	31.738	8.7071e-06	92.182	0.0017274	0.0020312	0.00054556	524.62	2.0933e-05	2.1634e-05	1027.6	170.44	2.0676e-05	2.1757e-05	437.23	160.92	68.172	28.404	2.142e-05	81.908	156.005	-63.449	-32.049	-100.767	97.973	78.171	-101.120	-96.491	-98.141	62.878	-97.768	-95.095	-94.465	-90.686	-17.773	-91.923	-8191	255	
4198.973	1	1	0	0	0.0695	0.18987	0.22709	0.37862	0.23338	0.16868	0.43862	0.1018	0.17309	0.21328	0.19021	0.14726	0.30374	0.096898	0.31901	0.11774	-2.8417	-2.5917	-3.1646	-2.9875	-2.3771	-3.1208	-2.8896	-2.5333	-3.3292	-2.5563	-3.025	-3.3708	-2.4458	-3.3042	-2.9021	-2.9229	102.103	120.158	68.242	244.792	117.112	-32.039	170.138	157.015	81.311	-93.976	183.824	213.610	123.159	239.941	109.455	158.087	0.00066449	0.00079967	0.00028004	586.39	8.2262e-06	9.2841e-06	1167.7	193.04	1.6915e-05	5.0038e-06	495.05	182.22	72.226	31.997	3.7545e-06	93.166	0.0016958	0.0019577	0.00053939	523.05	2.0709e-05	2.1634e-05	1026.4	172.02	2.0268e-05	2.138e-05	437.33	161.34	67.953	28.66	2.0681e-05	82.372	169.662	-78.359	-1.313	-100.152	44.566	-43.392	-101.097	-96.817	-64.810	-57.228	-97.522	-95.171	-94.682	-90.792	-54.878	-91.546	-8191	255	
4199.094	1	1	0	0	0.24706	0.2825	0.16014	0.16273	0.28896	0.04072	0.20586	0.10555	0.13612	0.12748	0.086807	0.21646	0.02611	0.28993	0.20699	0.21228	-3.1229	-2.6688	-2.8771	-3.125	-2.6063	-3.2167	-2.9875	-2.5875	-3.2917	-2.6833	-3.0333	-3.2792	-2.5625	-3.3563	-3.0146	-2.6063	-95.897	-29.702	-64.144	2.256	70.489	-59.258	189.208	-108.808	86.016	-87.733	-106.485	-53.413	-83.517	-86.037	140.581	-107.400	0.00049468	0.00057031	0.00026543	586.75	8.9751e-06	6.7974e-06	1161.9	191.15	5.2992e-06	4.4828e-06	496.49	181.64	72.29	32.148	5.0439e-06	92.72	0.0016964	0.0020112	0.00053812	524.57	2.0999e-05	2.1842e-05	1026	171.24	2.0685e-05	2.1576e-05	438.04	161.5	68.216	28.726	2.0509e-05	82.254	153.411	-53.031	28.035	-100.767	-6.673	214.025	-100.850	-96.996	-20.800	29.452	-97.602	-95.116	-94.620	-90.717	26.906	-92.106	-8191	255	
4199.190	1	1	0	0	0.17255	0.16971	0.11183	0.090813	0.14423	0.031181	0.19438	0.22224	0.43318	0.14289	0.19459	0.064325	0.23899	0.071834	0.21308	0.22658	-2.9646	-2.5812	-2.7708	-3.2208	-2.4792	-3.1792	-3.1333	-2.6167	-3.325	-2.75	-2.8896	-3.4396	-2.4396	-3.1771	-3.1125	-2.6063	158.413	-88.818	241.104	150.353	190.656	-61.660	108.169	186.841	-45.025	-94.712	140.992	240.656	237.361	-76.070	91.137	209.559	0.00063667	0.00041628	0.00026646	580.66	8.7509e-06	2.0822e-06	1174.1	193.18	3.0654e-06	4.6246e-06	498.24	184.43	73.374	32.32	7.0306e-06	93.776	0.0017164	0.0020077	0.00053069	523.15	2.1116e-05	2.1423e-05	1029.3	172.06	2.0311e-05	2.1369e-05	440.33	162.99	68.768	28.99	2.1063e-05	83.139	158.363	-55.618	-38.107	-100.846	-7.975	-107.835	-100.762	-97.044	116.670	98.459	-97.621	-94.894	-94.909	-90.566	-34.084	-92.143	-8191	255	
4199.286	1	1	0	0	0.21182	0.12152	0.2452	0.11686	0.34065	0.12126	0.14592	0.42757	0.028198	0.23381	0.14667	0.20051	0.2416	0.25042	0.10575	0.072279	-2.7188	-2.8333	-2.6854	-3.5042	-2.6396	-3.0667	-3.3167	-2.6417	-3.425	-3.0062	-2.9708	-3.4792	-2.65	-3.2125	-3.2708	-2.7167	187.195	148.601	184.543	189.213	81.500	133.214	-102.875	234.937	-94.176	-59.640	120.355	212.304	97.464	86.955	124.250	243.573	0.00078565	0.00029254	0.00020962	583.53	7.784e-07	7.6192e-06	1168.8	192.12	4.5575e-06	2.927e-06	494.36	183.87	73.19	32.352	1.3049e-05	93.424	0.0017209	0.0019491	0.00054888	525.91	2.1457e-05	2.1384e-05	1028.2	172.17	2.0729e-05	2.148e-05	439.12	163.01	68.465	29.029	2.0502e-05	82.805	167.683	60.890	-20.933	-101.162	-6.630	32.570	-101.116	-96.656	49.921	-62.654	-97.838	-95.072	-95.009	-90.355	19.923	-91.780	-8191	255	
4199.382	1	1	0	0	0.080421	0.12131	0.31428	0.086269	0.22598	0.251	0.21322	0.17575	0.10991	0.053909	0.30132	0.27459	0.13386	0.14658	0.12074	0.45976	-2.9625	-2.8708	-2.7313	-3.3	-2.7125	-2.9	-3.3646	-2.5375	-3.1458	-2.9771	-2.9542	-3.5417	-2.6937	-2.9313	-3.3187	-2.6792	-10.102	72.064	225.702	79.442	44.696	-23.983	137.764	218.444	32.165	179.828	189.997	196.662	165.026	194.475	208.198	218.688	0.00061664	0.00044464	0.0002881	589	7.0084e-06	3.6401e-06	1168.7	192.23	4.2195e-06	4.0878e-06	498.74	183.25	71.679	32.128	6.9916e-06	92.525	0.0016695	0.0019881	0.00053962	526.08	2.0617e-05	2.2015e-05	1029.1	171.5	2.0651e-05	2.1164e-05	440.9	162.45	68.232	28.814	2.1249e-05	82.302	156.335	-0.745	-18.220	-100.334	-7.339	-7.383	-100.476	-96.725	1.118	58.621	-97.809	-94.998	-94.868	-90.723	4.315	-91.678	-8191	255	
4199.454	1	1	0	0	0.191	0.017969	0.27537	0.037746	0.16922	0.19542	0.1668	0.03683	0.14165	0.16965	0.033223	0.2237	0.17151	0.14717	0.24551	0.2569	-2.8521	-3.1771	-2.5438	-3.3896	-2.7354	-2.925	-3.5	-2.5646	-3.3083	-3.1042	-2.6625	-3.6063	-2.9083	-2.7354	-3.5208	-2.8146	208.825	-100.360	-14.569	-73.160	-78.990	-82.439	172.101	113.847	210.205	15.351	227.128	203.360	9.246	-102.469	-96.615	178.137	0.00074514	0.00042831	0.00012031	589.07	6.539e-06	3.8197e-06	1168.5	193.17	5.9562e-06	1.0676e-05	499.98	184.84	72.974	32.186	4.7963e-06	93.632	0.0017465	0.001984	0.00055383	527.22	2.1164e-05	2.1585e-05	1032.6	171.84	2.0964e-05	2.1445e-05	441.74	163.27	68.697	28.939	2.1332e-05	83.003	163.031	-92.842	-7.894	-101.296	27.185	68.821	-100.736	-96.820	195.698	20.935	-97.521	-95.008	-94.013	-90.498	69.458	-91.720	-8191	255	
4199.573	1	1	0	0	0.098647	0.14424	0.10728	0.022702	0.16084	0.094871	0.10675	0.17801	0.26932	0.066995	0.11738	0.25174	0.17677	0.39235	0.057881	0.10922	-2.7125	-3.1917	-2.5396	-3.3438	-2.8812	-2.7229	-3.5917	-2.6729	-2.9667	-3.2521	-2.7479	-3.3521	-2.9958	-2.7354	-3.4104	-2.8438	159.619	-35.781	21.936	27.774	-51.203	130.605	114.621	195.762	234.482	169.618	49.376	-36.625	216.778	219.916	158.944	-109.873	0.00073589	0.00063115	0.00022254	593.37	7.6791e-06	1.4925e-05	1177.2	192.97	1.2079e-05	6.6583e-06	501.53	183.98	73.009	32.441	1.415e-05	93.781	0.0017193	0.0019506	0.0005559	530.27	2.0911e-05	2.2041e-05	1035.7	172.72	2.1026e-05	2.1712e-05	442.15	163.48	68.758	29.08	2.0959e-05	83.337	163.194	-45.461	14.633	-100.018	88.562	32.341	-100.507	-96.726	17.333	35.206	-97.618	-95.047	-94.962	-90.839	2.297	-92.127	-8191	255	
4199.669	1	1	0	0	0.2557	0.060542	0.21995	0.18946	0.12906	0.27251	0.084713	0.14599	0.15348	0.10683	0.042256	0.18722	0.16542	0.06142	0.18504	0.085109	-2.5479	-3.2375	-2.4688	-3.2188	-3.125	-2.6354	-3.4375	-2.8083	-2.7958	-3.3875	-2.8542	-3.3271	-3.0542	-2.5438	-3.3354	-3.0125	70.836	232.276	-101.682	190.085	165.988	240.737	85.521	183.395	-20.088	189.342	136.567	-89.063	235.195	201.185	217.520	102.310	0.00070747	0.00048122	7.0376e-05	586.16	1.606e-06	1.8101e-06	1175.5	191.78	1.6509e-06	5.678e-06	501.51	184.36	73.83	32.48	9.5442e-06	93.586	0.0017157	0.0019627	0.00054954	527.32	2.0685e-05	2.2016e-05	1034	172.3	2.0664e-05	2.1747e-05	442.24	163.96	68.995	29.152	2.1178e-05	82.967	156.636	-42.282	-13.170	-100.737	37.507	38.962	-100.474	-96.677	43.669	77.423	-97.717	-95.020	-94.094	-90.706	9.308	-91.655	-8191	255	
4199.765	1	1	0	0	0.076606	0.12334	0.074698	0.086587	0.099406	0.22577	0.24588	0.17693	0.27532	0.35386	0.21596	0.14394	0.061143	0.081106	0.30057	0.26879	-2.3479	-3.5125	-2.6708	-3.0187	-3.1792	-2.5062	-3.5729	-2.9646	-2.7687	-3.3812	-2.7687	-3.2979	-3.3146	-2.5771	-3.3229	-3.1208	160.109	104.500	-81.685	-39.290	-53.245	-78.317	193.765	6.269	-77.784	-65.730	217.029	138.049	-42.108	159.196	-112.498	-39.444	0.00067672	0.00059712	9.5073e-05	594.36	6.7296e-06	6.1929e-06	1181.1	193.51	8.2029e-06	6.83e-06	501.51	185.11	72.806	32.72	5.4105e-06	94.027	0.0017569	0.0019838	0.00055006	529.07	2.1089e-05	2.171e-05	1036.2	172.82	2.1221e-05	2.1865e-05	442.22	163.78	68.828	29.303	2.1337e-05	83.408	162.806	237.693	234.880	-100.742	0.278	8.636	-100.853	-97.232	34.946	29.122	-97.623	-95.047	-95.354	-90.828	79.391	-91.781	-8191	255	
4199.861	1	1	0	0	0.06827	0.090446	0.12838	0.097308	0.071694	0.206	0.3208	0.1665	0.10456	0.12334	0.050482	0.16911	0.054446	0.18537	0.18737	0.29054	-2.2708	-3.4125	-2.5521	-3.1917	-3.2562	-2.4417	-3.5146	-3.1208	-2.8417	-3.4229	-2.7729	-2.9813	-3.4875	-2.5771	-3.2292	-3.325	240.892	27.675	-44.923	14.476	-19.356	111.909	215.391	176.692	210.446	-43.290	146.166	-109.922	-74.978	201.521	-102.693	70.445	0.00066462	0.00016443	0.00026792	594.29	6.6805e-06	1.0395e-05	1179.8	193.43	7.8151e-06	2.3157e-06	504.43	185.59	74.336	32.431	1.1768e-05	94.215	0.0017205	0.001974	0.00055901	530.72	2.123e-05	2.2279e-05	1038.9	172.73	2.1241e-05	2.2157e-05	445.52	164.72	69.367	29.201	2.1063e-05	83.539	156.377	97.163	-13.005	-100.310	-32.841	16.815	-100.553	-96.817	-13.147	-41.300	-97.785	-94.795	-94.674	-90.510	-7.820	-91.799	-8191	255	
4199.982	1	1	0	0	0.16987	0.052949	0.18543	0.20879	0.042233	0.22359	0.1468	0.29465	0.18849	0.075008	0.1255	0.062234	0.011339	0.057168	0.14282	0.18603	-1.975	-3.4521	-2.8229	-2.8521	-3.4292	-2.7521	-3.35	-3.2917	-2.7271	-3.3667	-2.9313	-2.9938	-3.525	-2.7375	-3.0604	-3.475	221.354	119.808	10.371	-80.255	211.457	-31.708	224.512	209.160	102.375	240.913	11.284	242.898	165.328	177.053	37.565	182.924	0.00063793	0.00045526	0.0001586	590.54	8.3291e-06	6.1935e-06	1176.7	193.19	7.9936e-06	6.4803e-06	499.94	186.18	72.953	32.194	1.1058e-05	94.129	0.0017266	0.0019892	0.00054458	529.43	2.1192e-05	2.1995e-05	1036.6	172.03	2.1118e-05	2.1899e-05	443.36	164.16	68.447	29.093	2.1275e-05	83.243	164.054	193.416	2.671	-100.637	33.959	7.782	-100.605	-96.605	35.578	5.066	-97.821	-94.665	-94.923	-90.594	19.405	-91.679	-8191	255	
4200.054	1	1	0	0	0.17522	0.11604	0.074639	0.11076	0.29309	0.12765	0.1242	0.25022	0.21242	0.15369	0.34618	0.050315	0.028094	0.24898	0.21371	0.27768	-2.2854	-3.2208	-2.6937	-2.8646	-3.4667	-2.8104	-3.1188	-3.5458	-2.4313	-3.4208	-3.1937	-2.8688	-3.475	-2.7708	-2.9375	-3.5438	-100.112	162.922	-35.917	-86.816	-92.647	-13.610	50.453	118.110	-61.742	178.777	169.243	230.846	180.258	170.078	10.842	165.362	0.00062377	0.0008177	0.00028044	589.03	8.8882e-06	1.1477e-05	1179.6	191.57	9.9728e-06	1.3078e-06	501.93	185.1	73.358	31.779	1.6938e-05	92.19	0.0017049	0.0019834	0.00053796	527.06	2.1127e-05	2.2168e-05	1036.7	171.65	2.1075e-05	2.1014e-05	441.81	163.05	68.414	28.634	2.1035e-05	82.195	168.407	-76.260	17.927	-100.609	120.200	49.441	-100.551	-97.130	52.670	-86.938	-97.596	-95.003	-94.627	-90.297	29.719	-91.581	-8191	255	
4200.174	1	1	0	0	0.14703	0.1296	0.26487	0.32066	0.40939	0.072839	0.16013	0.25096	0.14778	0.23424	0.18937	0.2032	0.065293	0.026034	0.09218	0.20857	-2.1063	-3.5312	-2.9604	-2.6458	-3.3187	-2.6521	-2.9792	-3.4229	-2.5917	-3.2562	-3.2833	-2.7354	-3.5729	-2.9042	-2.9167	-3.5646	191.671	-69.169	-52.254	-106.803	38.135	-28.446	214.962	217.053	237.662	104.883	112.524	196.953	181.429	176.764	238.491	112.874	0.00062415	0.00090288	5.2091e-05	591.61	2.9586e-06	6.6981e-06	1177.9	191.65	5.4256e-06	1.3878e-05	500.58	183.07	72.14	31.726	8.364e-06	92.678	0.0017493	0.0019564	0.00054272	528.16	2.0744e-05	2.1388e-05	1039	171.2	2.0931e-05	2.1662e-05	441	162.64	68.144	28.505	2.089e-05	82.319	164.898	10.578	15.629	-100.243	1.067	48.977	-100.573	-96.600	25.126	58.692	-97.995	-94.930	-94.957	-90.755	8.156	-91.625	-8191	255	
4200.271	1	1	0	0	0.21532	0.088202	0.15364	0.049793	0.14524	0.21178	0.10234	0.22106	0.1879	0.2001	0.24307	0.25749	0.2117	0.20228	0.1651	0.077721	-2.1333	-3.0479	-3.1729	-2.5729	-3.2438	-2.8042	-2.9146	-3.3833	-2.6188	-3.0542	-3.3688	-2.7188	-3.4667	-3.0896	-2.7896	-3.5042	-17.028	41.113	50.818	192.825	24.325	219.578	188.610	157.963	225.062	-69.737	194.825	-104.034	-75.548	-11.193	217.304	195.242	0.00057948	0.00039816	0.00014651	586	1.3723e-05	3.2984e-06	1184.8	193.11	6.4506e-06	6.5771e-06	498.21	184.68	72.553	31.907	9.3759e-06	92.714	0.0017659	0.002005	0.00053578	528.63	2.0697e-05	2.1528e-05	1042.1	171.32	2.0594e-05	2.1284e-05	441.16	163.2	67.98	28.526	2.0962e-05	82.295	164.414	-40.554	36.922	-100.558	38.355	61.029	-100.430	-96.862	38.061	51.344	-97.637	-94.912	-93.851	-90.916	37.521	-91.643	-8191	255	
4200.367	1	1	0	0	0.25518	0.082276	0.067676	0.16277	0.084896	0.1345	0.27136	0.13133	0.23667	0.23213	0.14617	0.14335	0.12832	0.032133	0.17131	0.35559	-2.2062	-2.9583	-3.1521	-2.5375	-3.2771	-3.1979	-2.6917	-3.45	-2.6917	-3.0083	-3.525	-2.6625	-3.2958	-3.0208	-2.6188	-3.5563	182.397	228.443	-67.695	205.037	87.127	225.522	187.723	-47.240	147.079	79.540	-63.045	194.319	-39.568	153.818	187.803	179.616	0.00064716	0.00047718	0.000163	592.86	6.6289e-06	7.5569e-06	1172.3	192.47	7.7984e-06	4.7214e-06	501.98	182.95	73.039	32.035	1.3308e-05	93.955	0.0017043	0.001931	0.00053393	530.03	2.0871e-05	2.1409e-05	1037.8	171.88	2.0289e-05	2.1454e-05	442.63	162.66	68.352	28.671	2.1088e-05	83.143	153.021	-6.845	-8.293	-100.633	87.910	100.200	-100.365	-96.455	-59.724	107.393	-97.369	-94.553	-93.958	-90.419	60.363	-91.583	-8191	255	
4200.463	1	1	0	0	0.12471	0.1301	0.085325	0.16892	0.054456	0.22548	0.33577	0.11861	0.10946	0.17641	0.23399	0.29286	0.18779	0.1633	0.093571	0.20977	-2.2875	-2.9188	-3.2604	-2.6208	-3.2521	-3.1688	-2.8875	-3.5667	-2.8646	-2.8771	-3.5229	-2.8312	-3.1208	-3.3438	-2.4896	-3.4292	78.116	65.267	160.106	2.618	191.273	115.900	169.214	29.528	56.546	199.175	-106.895	201.229	-57.117	205.203	-75.759	212.301	0.00057532	0.00068765	4.0894e-05	587.63	2.2926e-06	2.5686e-06	1172.2	193.71	8.222e-06	1.3624e-05	502.61	184.48	72.976	32.173	4.3474e-06	94.521	0.0016566	0.0019323	0.00053455	529.26	2.0395e-05	2.1083e-05	1038.1	172.87	2.0512e-05	2.1336e-05	443.59	163.61	68.885	28.974	2.0528e-05	83.562	174.409	-15.209	1.395	-100.023	158.903	89.035	-100.317	-96.036	14.967	-10.465	-97.645	-94.409	-94.948	-90.662	110.394	-91.440	-8191	255	
4200.582	1	1	0	0	0.15384	0.25311	0.13163	0.073078	0.16874	0.23477	0.14897	0.01746	0.30278	0.18223	0.2714	0.19532	0.18022	0.045674	0.043574	0.2373	-2.6063	-2.7062	-3.3646	-2.5729	-3.1271	-3.1188	-2.7875	-3.3208	-3.0292	-2.675	-3.4792	-2.7	-3.0792	-3.175	-2.5104	-3.4125	133.962	197.851	133.053	186.868	66.561	-12.879	232.782	129.318	-27.642	95.586	239.958	179.951	199.611	-99.383	185.077	203.753	0.00066694	0.00098731	0.00023066	593.37	5.8799e-06	1.0774e-05	1185.2	192.71	3.2127e-06	1.9509e-06	502.51	185.19	72.863	32.42	8.8546e-06	94.411	0.0016602	0.0019426	0.00053193	530.93	2.0539e-05	2.1581e-05	1043.8	172.5	2.0168e-05	2.1085e-05	444.99	164.54	68.912	29.01	2.1283e-05	83.729	151.338	-39.242	-8.147	-100.184	101.227	35.765	-100.142	-96.693	20.423	20.212	-97.815	-94.606	-95.052	-90.835	-1.713	-91.596	-8191	255	
4200.678	1	1	0	0	0.1899	0.036578	0.19886	0.27815	0.13102	0.26127	0.18884	0.038629	0.14005	0.068823	0.17926	0.0168	0.10359	0.040103	0.25283	0.21227	-2.6833	-2.75	-3.3375	-2.7625	-2.8729	-3.3875	-2.7208	-3.475	-3.0438	-2.5625	-3.5	-2.9354	-2.8563	-3.4292	-2.7979	-3.2604	23.526	197.445	-2.022	145.569	68.095	21.293	-90.541	4.266	175.147	162.192	236.426	177.942	-68.317	153.873	-52.324	172.983	0.00076286	0.000455	0.00038176	592.72	5.1414e-06	8.1817e-06	1182	194.69	5.9119e-06	2.7336e-06	503	185.33	73.34	32.32	3.394e-06	93.362	0.0016712	0.0019574	0.00054198	528.66	2.0123e-05	2.1027e-05	1041.6	172.76	2.0025e-05	2.1295e-05	444.34	164.12	69.117	28.983	2.0906e-05	83.287	171.702	-31.586	-10.658	-99.937	20.857	148.725	-100.434	-97.021	-12.392	77.644	-97.740	-94.672	-94.258	-90.508	-5.462	-91.573	-8191	255	
4200.750	1	1	0	0	0.065101	0.20908	0.096757	0.15895	0.065571	0.16139	0.36029	0.24558	0.23678	0.032007	0.046509	0.19286	0.070449	0.21175	0.1626	0.14379	-2.8708	-2.6229	-3.4167	-3.075	-2.8604	-3.3229	-2.8625	-3.0458	-3.2396	-2.6833	-3.6208	-3.0563	-2.7062	-3.5438	-2.6896	-3.175	-84.418	45.230	21.087	-112.059	151.718	228.674	167.561	156.063	225.151	-30.852	-109.245	197.537	106.295	-92.654	24.015	-79.294	0.00056382	0.00059404	0.00011052	588.53	5.8428e-06	8.8227e-06	1173.5	193.09	1.2205e-05	8.2088e-06	502.19	183.19	73.423	32.056	9.2762e-06	93.418	0.0016768	0.0019506	0.00053379	528.33	2.0633e-05	2.1475e-05	1039.1	173.19	2.0298e-05	2.1686e-05	443.79	163.1	68.666	28.771	2.0842e-05	83.085	156.416	-73.277	-13.971	-100.233	60.348	1.384	-100.819	-96.490	-13.188	20.929	-98.093	-94.719	-94.316	-90.551	-7.796	-91.553	-8191	255	
4200.870	1	1	0	0	0.15512	0.16928	0.16327	0.043927	0.24633	0.25246	0.24299	0.28751	0.0095928	0.14836	0.15517	0.29682	0.12505	0.032114	0.099417	0.40497	-2.7729	-2.575	-3.3083	-3.0875	-2.7354	-3.4833	-3.0187	-2.8833	-3.3354	-2.6021	-3.5292	-2.9917	-2.6208	-3.5458	-2.7188	-3.1354	55.012	6.152	222.131	170.815	114.855	-37.057	133.431	132.714	170.282	-61.658	240.507	193.137	165.206	128.711	90.629	199.975	0.00053133	0.00053612	0.00021485	590.21	2.0208e-06	1.9076e-06	1191.1	194.31	5.6692e-06	9.0605e-06	503.69	184.69	73.136	32.074	4.6552e-06	93.832	0.0017045	0.001941	0.00053031	526.35	2.0654e-05	2.1337e-05	1042.8	172.45	2.0426e-05	2.1479e-05	444.11	163.56	68.582	28.734	2.057e-05	82.892	173.871	10.052	58.402	-101.146	12.554	-11.321	-100.310	-96.347	-32.998	39.945	-97.363	-94.788	-94.184	-90.246	27.008	-91.389	-8191	255	
4200.966	1	1	0	0	0.17962	0.11346	0.13982	0.20563	0.13013	0.30639	0.26254	0.10804	0.2198	0.20394	0.13552	0.079585	0.12487	0.1494	0.15415	0.29617	-3.0875	-2.5875	-3.1688	-3.2979	-2.5479	-3.4146	-3.1229	-2.9042	-3.3583	-2.5979	-3.2354	-3.2292	-2.7062	-3.4333	-2.8979	-2.8958	148.475	-107.036	164.409	116.824	-83.942	-35.914	122.113	165.661	25.166	236.347	-91.278	-87.417	160.790	-45.311	1.667	184.375	0.00055098	0.00066527	0.00020276	591.6	1.1555e-05	7.0069e-06	1184.1	193.84	8.003e-06	2.9487e-06	503.66	185.17	73.666	31.603	3.365e-06	93.672	0.0017043	0.0019072	0.00053618	529.27	2.0732e-05	2.1488e-05	1044.6	173.22	2.0002e-05	2.1437e-05	444.52	163.63	68.889	28.641	2.0373e-05	83.03	152.864	-62.399	22.285	-100.607	42.674	49.185	-100.724	-96.849	-68.167	26.646	-97.228	-95.000	-94.298	-90.539	-100.391	-91.573	-8191	255	
4201.062	1	1	0	0	0.23027	0.1774	0.079777	0.072578	0.09552	0.11393	0.34499	0.069637	0.13809	0.14182	0.10574	0.073606	0.17034	0.17495	0.086634	0.30941	-3.1583	-2.6688	-3.2208	-3.1937	-2.7125	-3.3312	-3.3187	-2.7271	-3.3021	-2.8729	-3.1125	-3.4646	-2.6979	-3.4208	-3.0479	-2.7042	-30.806	168.915	220.466	134.562	162.050	182.535	166.498	-68.724	118.566	-90.678	-93.858	60.568	26.719	-21.400	47.278	165.945	0.00066601	0.0013287	0.00017914	590.93	9.1306e-06	4.5109e-06	1185	193.23	8.8198e-06	1.5083e-05	505.24	183.76	73.187	31.843	3.7394e-06	93.199	0.0016822	0.0019255	0.00052363	528.76	2.0872e-05	2.1055e-05	1043.5	173.06	2.0078e-05	2.0982e-05	445.53	163.28	68.638	28.641	2.0036e-05	82.817	143.380	-2.775	1.054	-100.006	-33.111	-12.965	-100.925	-96.768	36.458	28.497	-97.895	-95.004	-94.964	-90.280	144.223	-91.481	-8191	255	
4201.159	1	1	0	0	0.10484	0.26064	0.092144	0.40891	0.1749	0.32789	0.3973	0.39861	0.020296	0.26582	0.092733	0.31364	0.032901	0.089249	0.32659	0.14521	-2.9833	-2.6708	-2.8396	-3.5083	-2.5875	-3.35	-3.2438	-2.7875	-3.4188	-2.7292	-3.0375	-3.5417	-2.5604	-3.1854	-3.0583	-2.8583	25.624	-37.398	117.645	164.651	163.717	137.851	186.889	183.760	115.047	212.497	159.384	-85.737	172.878	51.197	73.782	98.278	0.00060746	0.0010737	0.00020039	594.86	5.5889e-06	1.3757e-05	1183.7	195.73	1.5731e-06	5.056e-06	506.27	183.71	73.18	32.026	9.3103e-06	93.156	0.001662	0.0019266	0.00052942	531.21	2.0264e-05	2.0962e-05	1042.2	174	2.004e-05	2.0538e-05	444.29	163.37	68.901	28.735	2.0525e-05	82.931	150.404	11.637	-37.569	-100.628	26.804	-50.148	-100.744	-96.484	-9.245	36.687	-97.611	-95.132	-94.679	-90.858	-14.506	-91.505	-8191	255	
4201.279	1	1	0	0	0.10021	0.026398	0.098285	0.066456	0.12996	0.090796	0.28533	0.18831	0.28774	0.061393	0.36812	0.23191	0.3538	0.15459	0.068852	0.21432	-3.0667	-2.8083	-2.9688	-3.2896	-2.5312	-3.1292	-3.2646	-2.6417	-3.3167	-3.0187	-2.8292	-3.5938	-2.5833	-3.0333	-3.1292	-2.8229	-18.160	152.857	99.609	148.545	-81.845	-44.196	171.437	242.302	171.929	78.209	164.354	-110.817	193.017	-65.672	221.065	204.632	0.00067695	0.00072268	0.00021886	595.48	1.6327e-06	4.9172e-06	1182.1	193.64	9.0418e-06	7.3252e-06	502.32	184.92	73.517	32.112	3.6589e-06	93.633	0.0016465	0.0019116	0.00052642	531.2	2.0306e-05	2.0973e-05	1043.7	173.15	1.9622e-05	2.0534e-05	443.93	163.86	68.674	28.652	2.0612e-05	83.174	161.288	-26.899	-39.283	-100.764	0.885	137.758	-100.943	-96.632	53.152	-64.907	-97.714	-95.117	-94.113	-91.096	-52.940	-91.840	-8191	255	
4201.351	1	1	0	0	0.24044	0.12286	0.1604	0.20589	0.10626	0.085516	0.19366	0.08441	0.085775	0.12663	0.51203	0.1796	0.1044	0.1203	0.22368	0.23281	-3.0479	-2.8479	-2.7188	-3.3937	-2.8563	-3.0396	-3.4333	-2.7979	-3.2417	-2.9562	-2.7438	-3.6312	-2.725	-3.0104	-3.2	-2.7146	187.555	17.194	-4.106	64.196	217.684	-30.366	159.988	231.494	17.486	177.545	183.991	216.841	67.148	-42.791	33.502	189.643	0.00062573	0.00059959	0.00035296	590.78	4.7253e-06	9.7057e-06	1180.3	194.78	8.888e-06	5.5428e-06	500.49	184.68	73.777	31.861	4.794e-06	93.072	0.0016505	0.0018705	0.00052981	531.76	2.0001e-05	2.0847e-05	1040.7	173.51	2.0586e-05	2.0811e-05	442.7	163.39	68.578	28.543	2.0346e-05	82.939	160.352	-59.101	-46.117	-100.719	-62.103	22.460	-101.197	-97.263	0.859	47.832	-98.064	-95.312	-94.528	-90.642	241.914	-91.694	-8191	255	
4201.447	1	1	0	0	0.18694	0.43628	0.17045	0.094055	0.084718	0.2824	0.38421	0.28955	0.1504	0.18379	0.33134	0.19774	0.16306	0.046879	0.098386	0.20318	-2.875	-3.0812	-2.5792	-3.2896	-2.7021	-2.7938	-3.5229	-2.5625	-3.4104	-3.1292	-2.6875	-3.5896	-2.8625	-2.8771	-3.3604	-2.7938	48.609	187.382	-100.768	-33.058	111.970	-24.506	191.563	-110.890	-27.724	150.221	225.761	235.504	66.005	-75.409	105.954	205.141	0.00058125	0.00042285	0.00022367	591.27	8.0219e-06	7.9046e-06	1179.7	194.53	7.9845e-06	4.5909e-06	499.85	184.78	73.032	31.905	2.9193e-06	93.506	0.0016709	0.0019292	0.00053106	530.88	2.0064e-05	2.1387e-05	1039.3	173.47	2.0163e-05	2.1048e-05	443.28	163.33	68.329	28.589	2.065e-05	82.703	162.492	-74.427	-29.408	-100.993	29.319	54.999	-100.718	-96.728	6.722	29.031	-97.908	-94.694	-95.142	-90.494	48.013	-92.005	-8191	255	
4201.543	1	1	0	0	0.28737	0.074478	0.24613	0.17543	0.17139	0.18195	0.14988	0.14991	0.098724	0.064041	0.088023	0.12815	0.12855	0.08978	0.31248	0.17621	-2.7958	-3.1562	-2.6479	-3.4625	-2.9917	-2.8375	-3.5396	-2.6208	-3.0646	-3.2104	-2.8625	-3.5042	-2.9083	-2.7021	-3.3854	-2.8667	228.515	-11.025	91.979	-112.054	87.528	-25.733	130.441	161.438	-103.184	125.649	68.861	119.420	-108.373	-55.819	-81.906	-97.224	0.00058196	0.00085275	0.00011353	589.79	9.0229e-06	9.9778e-06	1182	194.83	5.3048e-06	6.6517e-06	499.06	183.57	72.5	31.682	2.2867e-06	93.047	0.0016432	0.0018903	0.00052404	529.04	2.0277e-05	2.131e-05	1039.6	172.6	2.0518e-05	2.15e-05	442.05	162.73	68.174	28.348	2.0407e-05	82.407	147.081	-3.664	60.971	-100.800	74.219	67.019	-100.903	-97.188	-7.212	53.513	-97.512	-95.303	-95.042	-90.464	-25.299	-91.564	-8191	255	
4201.662	1	1	0	0	0.15121	0.12457	0.091803	0.19662	0.15825	0.12568	0.14612	0.1853	0.28619	0.20568	0.18739	0.033313	0.17688	0.13397	0.2238	0.18728	-2.4458	-3.1917	-2.5438	-3.3979	-2.9083	-2.65	-3.5938	-2.7896	-2.9562	-3.3833	-2.7104	-3.4521	-3.1688	-2.5521	-3.3292	-3.0146	33.847	-41.719	2.488	-115.034	168.858	103.962	159.803	215.920	-16.978	206.163	211.928	154.699	79.280	153.329	129.849	184.815	0.00072066	0.00084352	0.0003477	592.72	9.0861e-06	1.1549e-05	1183	193.51	4.4376e-06	9.4118e-06	497.33	183.64	72.658	31.332	4.5358e-06	92.655	0.0017029	0.0019103	0.00052579	528.32	1.9667e-05	2.0933e-05	1040.2	172.49	2.0259e-05	2.056e-05	440.73	162.28	68.12	28.04	2.0049e-05	82.028	173.214	12.658	-94.000	-100.515	18.131	-2.577	-100.315	-97.291	91.368	44.221	-97.735	-95.178	-94.909	-90.331	2.677	-91.847	-8191	255	
4201.758	1	1	0	0	0.27331	0.1252	0.065997	0.17154	0.3598	0.11052	0.2974	0.23649	0.16259	0.2681	0.097752	0.076163	0.10491	0.073811	0.15623	0.16077	-2.2729	-3.3208	-2.5146	-3.2833	-3.0979	-2.4896	-3.6396	-2.9771	-2.7083	-3.4917	-2.7958	-3.0646	-3.1562	-2.6021	-3.2083	-2.9125	-64.596	159.467	71.022	-36.175	88.781	9.900	240.243	120.614	-91.715	61.495	104.017	163.596	-84.707	211.884	121.362	151.698	0.00059122	0.00070794	5.8669e-05	589.26	9.8801e-06	7.9209e-06	1174.5	192.16	7.4396e-06	8.3037e-06	492.41	182.11	72.504	31.339	7.4885e-06	92.599	0.0016528	0.0019357	0.00053191	527.41	2.0101e-05	2.0899e-05	1036.4	171.91	2.0182e-05	2.0755e-05	437.48	161.15	67.826	27.985	1.9905e-05	82.126	158.244	-26.993	-77.779	-100.069	-16.456	70.531	-100.677	-96.716	86.222	-26.980	-98.008	-94.983	-95.438	-90.615	65.738	-91.726	-8191	255	
4201.854	1	1	0	0	0.064856	0.13167	0.23954	0.24927	0.092516	0.15444	0.20841	0.12293	0.072591	0.19128	0.30196	0.19485	0.14193	0.058663	0.11302	0.17425	-2.3563	-3.2708	-2.6833	-2.9562	-3.2479	-2.5354	-3.3563	-2.8417	-2.6125	-3.3896	-3.0375	-2.9917	-3.3604	-2.9271	-3.3854	-3.1208	59.983	-46.498	115.381	-97.223	22.574	217.546	157.585	-30.362	197.370	-14.441	173.704	-89.515	13.051	-96.333	-86.232	145.604	0.00059517	0.0011258	0.00017875	585.59	9.4354e-06	1.1766e-05	1176.1	192.77	5.139e-06	1.7306e-05	495.92	181.16	72.023	31.243	1.7989e-06	92.164	0.0016483	0.0018686	0.00050575	527.32	1.9565e-05	2.1006e-05	1034.9	172.02	2.004e-05	2.0846e-05	437.86	160.6	67.528	27.946	1.988e-05	81.659	152.178	-39.462	118.836	-100.713	71.040	71.719	-100.498	-96.594	196.523	-15.250	-97.843	-95.287	-94.275	-90.724	155.370	-92.118	-8191	255	
4201.951	1	1	0	0	0.1157	0.26111	0.20942	0.18526	0.27779	0.21866	0.2194	0.16542	0.18892	0.098384	0.010717	0.44308	0.17524	0.063861	0.17886	0.0515	-2.1771	-3.2833	-2.6063	-2.9437	-3.4146	-2.5146	-3.2083	-3.3042	-2.4375	-3.3458	-2.8771	-3.0563	-3.3771	-2.6354	-3.2208	-3.0896	162.221	41.513	176.474	-79.863	-56.626	82.473	-108.724	107.632	156.364	76.509	139.127	232.342	165.424	89.124	12.995	-82.606	0.00043296	0.00048048	0.0001585	588.81	7.4856e-06	9.6045e-06	1180.8	192.21	9.1412e-06	1.1296e-05	493.99	181.72	71.692	30.861	8.9504e-06	91.71	0.0016796	0.0019038	0.00052149	528.53	2.0075e-05	2.0977e-05	1037.3	171.19	2.0001e-05	2.0762e-05	437.35	160.75	67.229	27.691	2.0789e-05	81.446	154.991	-55.618	226.301	-100.574	47.956	63.006	-100.362	-96.923	44.884	37.282	-97.748	-94.711	-94.630	-90.738	3.766	-91.413	-8191	255	
4202.047	1	1	0	0	0.27207	0.023654	0.074016	0.19202	0.14784	0.43645	0.46792	0.2566	0.19663	0.14273	0.29833	0.28993	0.081631	0.19166	0.1149	0.28921	-1.9646	-3.4833	-2.8271	-2.7062	-3.1521	-2.5292	-3.2104	-3.2208	-2.4562	-3.3917	-2.8438	-2.8438	-3.2938	-2.6729	-2.8396	-3.4437	21.971	241.614	17.758	-45.241	85.522	56.076	165.731	169.296	-20.892	-4.502	221.917	-112.328	-68.931	156.121	175.866	235.895	0.00060908	0.00028174	0.00017659	586.81	6.4751e-06	6.4381e-06	1180.3	191.96	7.8818e-06	1.5511e-05	492	180.59	73.168	31.131	5.148e-06	91.721	0.0016761	0.0019125	0.00053707	528.34	2.0607e-05	2.12e-05	1036.5	171.37	2.0267e-05	2.118e-05	435.74	160.04	67.9	27.798	2.0691e-05	81.28	161.654	-75.762	-9.355	-100.802	10.492	81.557	-100.486	-96.969	106.017	51.827	-97.816	-94.766	-94.518	-90.951	16.323	-91.403	-8191	255	
4202.143	1	1	0	0	0.2033	0.13472	0.069117	0.095909	0.1882	0.21799	0.17353	0.22028	0.19085	0.10138	0.26071	0.18573	0.067024	0.17932	0.12709	0.20387	-2.0458	-3.1583	-2.8479	-2.7396	-3.2854	-2.7083	-3.2104	-3.3792	-2.6396	-3.3792	-2.9833	-2.8896	-3.3312	-2.75	-2.8729	-3.5458	98.671	153.430	199.466	116.451	106.672	10.380	192.054	205.451	198.842	222.643	160.529	241.904	188.718	178.035	61.306	136.416	0.00064248	0.00060722	0.0001122	585.57	1.4399e-05	6.761e-06	1173.6	190.77	8.9852e-06	7.6517e-06	493.29	180.32	71.229	30.945	3.474e-06	91.989	0.0016575	0.0019552	0.00052893	527	2.0516e-05	2.1303e-05	1035.4	170.88	2.0439e-05	2.1073e-05	436.83	160.12	67.271	27.838	2.0972e-05	81.749	173.139	77.660	21.608	-100.045	30.670	46.144	-100.597	-96.887	2.489	11.147	-97.655	-94.577	-94.588	-90.429	-25.913	-91.626	-8191	255	
4202.263	1	1	0	0	0.27199	0.19171	0.143	0.34713	0.11852	0.20001	0.13942	0.28925	0.18656	0.11863	0.096624	0.083274	0.16004	0.060921	0.29694	0.078635	-2.2042	-3.3646	-3.1104	-2.4917	-3.3229	-2.8125	-2.7646	-3.6	-2.4875	-3.1	-3.1646	-2.6813	-3.3333	-2.8604	-2.725	-3.5563	-7.256	110.602	-6.928	235.711	114.709	227.262	142.349	178.502	232.939	-26.490	138.042	-91.273	18.174	-102.099	192.903	218.636	0.00042891	0.00043503	0.00027891	586.54	8.5658e-06	1.914e-06	1177.3	194.72	9.9042e-06	7.2962e-06	495.23	181.52	72.754	31.061	4.6528e-06	92.216	0.0016758	0.0019615	0.0005354	526.47	2.0132e-05	2.0959e-05	1034.7	172.32	2.0068e-05	2.0949e-05	437.63	160.89	68.129	27.956	2.0892e-05	81.446	160.219	-55.887	5.074	-100.159	74.918	57.838	-100.285	-96.574	-21.332	-7.462	-97.536	-94.871	-94.626	-90.459	67.261	-91.845	-8191	255	
4202.360	1	1	0	0	0.24082	0.036995	0.1052	0.1084	0.11065	0.27054	0.17146	0.15344	0.10924	0.12231	0.11151	0.044559	0.10502	0.20963	0.18063	0.3925	-2.2917	-3	-3.1729	-2.5521	-3.2708	-2.9979	-2.7375	-3.5	-2.2833	-2.8479	-3.3458	-2.7208	-3.1958	-3.0375	-2.6479	-3.4771	12.662	190.409	220.872	115.070	-57.589	77.137	36.823	118.497	86.839	184.134	220.992	188.448	191.348	173.277	32.908	181.689	0.00058741	0.0011697	8.0811e-05	583.43	2.4263e-06	8.9106e-06	1175.4	192.23	1.3021e-05	8.7276e-06	494.21	182.57	72.925	31.047	5.2393e-06	92.187	0.0016737	0.0019082	0.00054273	524.32	2.029e-05	2.109e-05	1037.4	172.09	2.0763e-05	2.1519e-05	437.99	161.16	67.67	27.933	2.0813e-05	81.847	158.062	-32.201	-44.858	-100.216	1.039	26.979	-100.541	-96.133	19.692	20.104	-97.625	-94.408	-93.894	-90.434	-6.678	-91.620	-8191	255	
4202.456	1	1	0	0	0.1935	0.11602	0.1427	0.10584	0.14951	0.2598	0.3765	0.26306	0.15704	0.08474	0.095246	0.2158	0.22809	0.16831	0.19413	0.12088	-2.2417	-2.9167	-3.2625	-2.5354	-3.1458	-2.9833	-2.8146	-3.2896	-2.7979	-2.8417	-3.2875	-2.7792	-3.2896	-2.9938	-2.5771	-3.4417	-6.421	12.947	105.107	181.775	11.208	-16.301	199.940	20.374	150.888	56.665	112.674	231.274	-83.310	-110.978	163.496	233.408	0.00063304	0.0005342	0.00019667	594.09	1.5209e-06	9.805e-06	1180.5	192.99	6.3922e-06	1.0219e-05	496.36	182.27	72.601	31.378	5.3598e-06	93.19	0.0016952	0.0019531	0.0005382	530.09	2.0355e-05	2.1496e-05	1039.2	172.14	2.0416e-05	2.145e-05	437.92	161.37	68.206	28.106	2.0933e-05	82.315	164.694	1.756	165.257	-100.462	97.250	34.788	-100.584	-96.608	0.579	-86.859	-97.632	-94.986	-93.952	-90.384	-96.228	-91.573	-8191	255	
4202.575	1	1	0	0	0.14492	0.29477	0.3039	0.21262	0.34818	0.052066	0.19751	0.19565	0.30448	0.054158	0.25899	0.24763	0.12631	0.10466	0.26312	0.088426	-2.0812	-2.5521	-3.3458	-2.4979	-2.9396	-3.0021	-2.7313	-3.3021	-2.9104	-2.7021	-3.4437	-2.9479	-3.0146	-3.2521	-2.6417	-3.3208	-17.146	211.792	215.096	198.106	34.929	58.072	204.405	-98.652	158.888	63.858	176.764	226.237	130.089	202.887	156.817	152.317	0.0005105	0.00017248	0.00021214	588.98	5.0081e-06	5.6033e-06	1177.7	193.93	7.632e-06	9.6769e-06	498.3	182.75	72.705	31.606	9.9056e-06	93.444	0.0017213	0.0019467	0.00053992	526.94	2.1e-05	2.1216e-05	1037.2	172.66	2.0365e-05	2.1382e-05	440.82	161.74	68.41	28.375	2.1095e-05	82.692	162.206	-63.402	-11.290	-100.515	26.187	204.647	-100.613	-96.557	-82.113	66.033	-97.297	-94.490	-94.195	-90.199	8.746	-91.328	-8191	255	
4202.646	1	1	0	0	0.10767	0.1229	0.15121	0.40156	0.17843	0.20162	0.24193	0.099561	0.031756	0.16051	0.22202	0.11716	0.26592	0.067613	0.085905	0.030219	-2.4625	-2.6271	-3.225	-2.7021	-3.0792	-3.2792	-2.8083	-3.4271	-2.9125	-2.5708	-3.4646	-2.8271	-2.7458	-3.4021	-2.4021	-3.2604	40.896	-24.362	-105.498	174.762	-32.775	76.053	205.485	161.101	168.363	241.232	161.131	228.685	-108.036	196.155	154.231	175.088	0.00063923	0.00017668	2.3894e-05	589.29	2.572e-06	7.9204e-06	1173.7	194.02	9.8941e-06	9.7209e-06	499.21	184.24	73.111	31.894	7.6339e-06	93.848	0.0017007	0.001929	0.00053343	527.81	2.0935e-05	2.121e-05	1036.5	172.79	2.0261e-05	2.1651e-05	441.38	163.23	68.67	28.612	2.0634e-05	83.307	161.717	-84.827	-107.726	-100.150	87.120	-19.469	-100.371	-96.459	58.502	3.140	-97.283	-94.451	-94.084	-90.367	5.290	-91.594	-8191	255	
4202.742	1	1	0	0	0.06273	0.13321	0.2417	0.08295	0.071109	0.081072	0.33171	0.043038	0.147	0.21182	0.18842	0.25225	0.31046	0.22883	0.06678	0.13094	-2.4562	-2.4521	-3.2167	-2.6813	-2.6792	-3.2896	-2.8333	-3.1021	-3.1958	-2.4	-3.2729	-2.8458	-2.5396	-3.4354	-2.6604	-3.1146	166.087	-73.469	118.385	176.869	163.892	40.796	176.214	195.542	-31.600	-13.967	180.526	177.874	76.180	195.387	105.972	114.850	0.00087361	0.00049873	0.00011722	589.51	8.1305e-06	4.93e-06	1176.6	194.36	1.2834e-05	8.0427e-06	502.11	183.67	73.629	31.709	9.2599e-06	94.096	0.0016789	0.0019287	0.00053161	528.54	2.0586e-05	2.1717e-05	1037.8	173.24	2.0432e-05	2.1469e-05	443.61	163.35	68.795	28.598	2.0351e-05	83.502	151.341	238.960	231.542	-100.364	60.015	49.154	-100.391	-96.481	70.360	-3.671	-97.542	-94.607	-93.753	-89.792	-13.202	-91.389	-8191	255	
4202.839	1	1	0	0	0.080481	0.23547	0.16793	0.23571	0.084632	0.15971	0.27101	0.088798	0.09568	0.10463	0.05849	0.31606	0.08052	0.30999	0.12588	0.14637	-2.9917	-2.3854	-3.1604	-2.8438	-2.4771	-3.2958	-2.5833	-2.8375	-3.0792	-2.2708	-3.2229	-2.8625	-2.5417	-3.3146	-2.5062	-2.9333	136.076	101.438	20.321	106.609	217.115	204.337	192.940	147.541	80.470	-93.652	59.948	244.280	221.981	193.869	-53.030	220.932	0.00065345	0.00041116	0.00022236	592.25	2.2497e-06	7.8186e-06	1173	193.16	3.9121e-06	1.0925e-06	500.29	184.17	72.214	31.666	1.1891e-05	94.212	0.0017069	0.0019368	0.00054515	528.44	2.0943e-05	2.1431e-05	1037.6	173.04	2.0249e-05	2.1361e-05	443.72	163.53	68.565	28.622	2.0963e-05	83.461	172.730	229.128	-43.450	-100.458	-41.805	-16.997	-100.467	-96.521	37.972	138.346	-97.501	-94.727	-94.427	-90.316	48.877	-91.443	-8191	255	
4202.959	1	1	0	0	0.072276	0.16025	0.20252	0.12114	0.21751	0.15485	0.12631	0.24139	0.062343	0.19389	0.30388	0.18354	0.187	0.16776	0.10168	0.20112	-2.95	-2.4833	-2.9354	-3.0083	-2.7583	-3.2667	-2.85	-2.9292	-3.1604	-2.5229	-3.1792	-2.9562	-2.4146	-3.2583	-2.8208	-2.9062	142.015	-42.149	98.796	-84.289	146.826	201.281	167.428	88.296	147.075	25.035	-63.512	181.157	34.568	61.593	188.432	193.857	0.00052981	0.0013442	0.000172	592.08	5.1301e-06	5.7223e-06	1178.1	194.09	7.6416e-06	6.9526e-06	500.4	185.71	73.288	31.899	1.285e-05	94.406	0.001724	0.0019704	0.00055091	528.75	2.1196e-05	2.1625e-05	1038.1	173.07	2.0528e-05	2.1729e-05	443.23	164.33	69.139	28.669	2.0736e-05	83.574	161.242	-8.616	-37.126	-100.228	37.537	63.896	-100.306	-96.683	-79.643	-89.561	-97.373	-94.835	-93.943	-89.968	59.688	-91.390	-8191	255	
4203.055	1	1	0	0	0.12636	0.058391	0.15365	0.33429	0.11486	0.27854	0.17267	0.053543	0.14407	0.14752	0.10666	0.22494	0.16582	0.28395	0.20346	0.23208	-2.7417	-2.4583	-3.1562	-3.1813	-2.5417	-3.2229	-2.8729	-2.6688	-3.1271	-2.5208	-3.1333	-3.3063	-2.4854	-3.3021	-2.9333	-2.9271	160.587	-22.973	58.633	47.924	122.942	55.699	197.435	139.278	93.405	134.790	92.311	231.623	118.063	198.309	243.411	208.491	0.0004248	0.0011174	6.5408e-05	589.01	8.7671e-06	1.1375e-05	1182.8	193	7.3664e-06	1.2856e-05	501.37	185.21	73.861	31.878	1.0922e-05	95.06	0.001686	0.001937	0.00053263	528.49	2.0966e-05	2.1281e-05	1040.1	173.03	2.0245e-05	2.1548e-05	445.12	164.26	69.035	28.639	2.0665e-05	83.792	151.629	-37.577	5.109	-100.991	74.979	47.165	-100.657	-97.101	10.744	39.063	-97.856	-95.151	-93.789	-90.749	15.369	-91.662	-8191	255	
4203.152	1	1	0	0	0.080164	0.14279	0.14842	0.16178	0.22389	0.2569	0.15684	0.058509	0.29063	0.17291	0.27171	0.43963	0.11337	0.31884	0.15923	0.11005	-2.7542	-2.4917	-2.8604	-3.2188	-2.5458	-3.2	-2.8583	-2.7833	-3.5208	-2.6396	-2.85	-3.2333	-2.3125	-3.1188	-3.0667	-2.5771	-17.573	-51.485	100.220	138.454	-41.060	-43.815	235.880	163.790	-29.898	-69.119	163.674	213.331	76.279	170.727	69.198	126.570	0.00055646	0.00037607	0.00021679	594.31	7.7281e-06	6.4927e-06	1177.9	195.03	1.0737e-05	1.7994e-05	506.68	186.81	73.859	32.747	6.8795e-06	95.87	0.001686	0.0019713	0.00053078	530.41	2.0442e-05	2.13e-05	1041.7	173.7	1.9991e-05	2.0599e-05	448.19	165.5	69.446	29.336	2.0543e-05	85.26	145.675	-83.017	17.072	-100.208	127.651	66.791	-100.495	-96.284	19.431	49.277	-98.000	-94.835	-94.327	-90.524	-22.935	-91.830	-8191	255	
4203.223	1	1	0	0	0.1588	0.1154	0.11275	0.098236	0.074977	0.16917	0.16456	0.16052	0.24748	0.086983	0.20485	0.12658	0.19215	0.045507	0.043548	0.23637	-2.8083	-2.8083	-2.7583	-3.2333	-2.5542	-3.075	-3.0583	-2.6146	-3.2229	-2.6458	-2.9313	-3.3187	-2.4729	-3.0271	-3.0708	-2.6229	128.205	218.788	186.683	44.381	221.319	53.163	161.305	211.087	123.895	51.196	157.290	-89.783	168.189	-72.014	57.925	201.925	0.00065716	0.00051368	0.00033121	591.03	4.1349e-06	2.8614e-06	1187.3	196.8	5.7559e-06	1.6587e-06	512.56	189.02	74.945	32.979	8.0728e-06	96.641	0.0016633	0.0019137	0.00053533	530.69	2.0258e-05	2.0911e-05	1046.4	176.29	1.922e-05	2.0666e-05	450.98	167.46	70.419	29.61	2.0053e-05	85.996	157.033	19.789	-1.219	-100.510	-38.480	-77.667	-100.374	-96.464	26.549	10.363	-97.764	-95.120	-94.984	-90.386	43.383	-91.692	-8191	255	
4203.344	1	1	0	0	0.12012	0.18905	0.25621	0.10934	0.081353	0.22373	0.072174	0.26513	0.068135	0.30664	0.25502	0.2922	0.18248	0.31517	0.24723	0.29801	-2.9313	-2.825	-2.4958	-3.2875	-2.6	-2.8542	-3.1396	-2.6729	-3.1854	-2.9542	-2.8667	-3.4104	-2.6375	-2.9729	-3.2667	-2.5375	195.702	185.779	-26.542	-30.737	131.191	74.549	74.395	238.968	194.115	179.163	174.232	-16.433	243.786	173.813	109.658	218.954	0.00066496	0.00057849	0.00011796	592.41	6.1521e-06	6.5577e-06	1198.4	200.99	7.6234e-06	4.2678e-06	520.73	195.17	78.478	35.311	8.5167e-07	102.24	0.0016551	0.0018935	0.00052684	529.21	2.022e-05	2.046e-05	1048.3	179.17	1.9596e-05	2.0423e-05	458.68	172.62	72.669	31.381	2.0326e-05	90.68	154.729	19.300	-18.541	-100.770	21.302	72.728	-100.661	-96.561	55.114	0.346	-97.682	-95.171	-94.634	-90.764	83.086	-91.926	-8191	255	
4203.440	1	1	0	0	0.18931	0.16746	0.096714	0.1891	0.082839	0.18252	0.32555	0.06816	0.27084	0.088167	0.10827	0.10343	0.28005	0.15528	0.057791	0.41766	-2.5396	-2.7521	-2.475	-3.3979	-2.7083	-2.6437	-3.2438	-2.7021	-3.1312	-3.0792	-2.7208	-3.2938	-2.6667	-2.8021	-3.3292	-2.7167	9.747	74.840	84.366	-26.023	41.257	46.568	183.250	138.137	168.792	25.224	50.405	223.695	-32.470	74.621	-92.569	154.363	0.00075561	0.0011393	0.00037851	601.15	7.5229e-06	7.3749e-06	1184.8	199.63	8.063e-06	2.131e-06	518.48	190.62	75.93	33.468	9.3159e-06	97.365	0.0016582	0.0019151	0.00051568	533.63	1.9929e-05	2.061e-05	1048.5	178.49	2.0001e-05	2.0813e-05	456.49	169.48	70.919	29.956	2.041e-05	86.196	171.874	-2.590	-56.959	-100.836	-12.198	28.825	-100.275	-96.810	22.593	198.806	-97.779	-94.774	-94.359	-90.233	25.929	-91.673	-8191	255	
4203.536	1	1	0	0	0.18573	0.22817	0.074041	0.15036	0.15259	0.1634	0.30658	0.23082	0.096839	0.16364	0.069343	0.092727	0.1658	0.038952	0.24422	0.23804	-2.7083	-3.0208	-2.3958	-3.3542	-2.6917	-2.6354	-3.4792	-2.4833	-2.7917	-3.2062	-2.4521	-3.3583	-2.7125	-2.6583	-3.4667	-2.8	-76.707	-76.371	152.444	230.295	7.968	127.028	138.663	216.708	-85.213	-22.449	110.341	87.618	-110.170	180.241	51.819	178.683	0.00065576	0.00041891	0.000171	592.38	6.156e-06	4.5287e-06	1175	193.35	7.8882e-06	8.1396e-06	501.09	185.79	73.204	31.633	9.1188e-06	94.046	0.0016822	0.0019235	0.00052558	529.16	2.016e-05	2.1323e-05	1036.4	172.54	2.0329e-05	2.114e-05	444.02	163.99	68.576	28.416	2.0228e-05	83.017	162.219	-79.932	-25.305	-100.055	62.001	-12.360	-100.372	-96.658	-45.151	22.167	-97.602	-94.798	-94.773	-90.653	26.035	-91.890	-8191	255	
4203.655	1	1	0	0	0.1007	0.18614	0.1148	0.18788	0.060776	0.16913	0.20805	0.20552	0.16935	0.098899	0.059607	0.22796	0.175	0.083847	0.16682	0.24217	-2.7	-3.0271	-2.3521	-3.0792	-2.8854	-2.6688	-3.4188	-2.5312	-2.8375	-3.25	-2.6479	-3.1521	-2.9583	-2.65	-3.2896	-2.8125	72.135	203.777	7.204	-72.510	17.586	113.312	142.906	175.526	-74.667	-72.748	208.201	204.074	-71.826	-77.915	242.335	171.088	0.0007224	0.00094736	0.00014287	590.72	8.5772e-06	9.7875e-06	1186.4	195.36	3.6662e-06	8.5973e-07	507.77	188.35	74.276	32.797	9.5431e-06	96.779	0.0017169	0.0019177	0.00053724	528.22	2.0469e-05	2.1169e-05	1041	173.74	2.0188e-05	2.058e-05	447.96	166.83	70.113	29.471	1.9973e-05	85.829	148.190	12.013	72.453	-100.438	0.300	8.635	-100.803	-96.485	14.908	218.713	-97.307	-94.820	-94.610	-90.526	15.141	-92.121	-8191	255	
4203.751	1	1	0	0	0.25296	0.13323	0.10225	0.12789	0.047952	0.12053	0.14701	0.1686	0.086856	0.12676	0.27298	0.054322	0.34592	0.13966	0.12625	0.26041	-2.3479	-3.1521	-2.3937	-3.1083	-3.0292	-2.6021	-3.375	-2.6771	-2.7979	-3.2167	-2.5833	-3.0812	-2.9625	-2.5708	-3.2271	-2.8875	210.902	230.421	239.404	188.280	40.116	61.369	183.658	218.909	51.965	-38.408	221.922	12.832	107.346	-45.488	26.249	195.792	0.00075134	0.00076514	0.00013259	598.45	1.2798e-05	8.3842e-06	1191.8	198.87	2.628e-06	8.3887e-06	510.34	190.96	74.945	33.413	9.4102e-06	97.39	0.0016753	0.0018878	0.00053556	533.36	2.0292e-05	2.1291e-05	1047.6	176.17	2.0196e-05	2.0943e-05	451.05	168.9	70.725	29.967	2.0425e-05	86.535	147.329	-36.992	-110.691	-100.144	26.331	45.365	-100.715	-97.252	73.398	39.228	-97.784	-94.804	-94.560	-90.024	91.945	-91.574	-8191	255	
4203.847	1	1	0	0	0.051744	0.20237	0.27266	0.1551	0.21689	0.29125	0.20634	0.14738	0.091268	0.19685	0.1657	0.27207	0.14498	0.18262	0.17224	0.10369	-2.0896	-3.1188	-2.5438	-2.9958	-3.1167	-2.5917	-3.3688	-2.8229	-2.4708	-3.3771	-2.7271	-3.0833	-3.2625	-2.5438	-3.1688	-3.0125	125.709	60.955	69.511	186.592	-41.624	190.033	144.705	190.389	-106.938	126.241	211.498	162.406	222.608	191.741	220.508	170.613	0.00067511	0.0008867	0.0002849	592.76	3.7844e-06	9.6046e-06	1186.9	197.4	1.296e-06	1.0329e-05	512.16	191.24	75.426	33.428	9.6092e-06	99.019	0.0016837	0.0019347	0.00050952	531.44	2.0201e-05	2.0852e-05	1045.7	176.07	1.9934e-05	2.0673e-05	452.11	169.33	70.997	30.047	2.0523e-05	87.285	146.070	-85.436	-26.209	-100.300	58.490	68.573	-100.509	-96.665	-89.191	118.740	-97.880	-94.816	-94.320	-90.450	-4.795	-91.667	-8191	255	
4203.943	1	1	0	0	0.059453	0.13974	0.064661	0.048644	0.11253	0.040787	0.18616	0.28856	0.31969	0.077244	0.23328	0.066035	0.076672	0.18416	0.35902	0.18847	-2.0521	-3.2687	-2.5542	-2.7708	-3.3167	-2.3917	-3.2792	-2.9771	-2.3187	-3.3563	-2.7313	-2.9208	-3.0979	-2.5271	-3.1375	-3.0521	230.728	232.300	27.515	74.417	185.837	54.578	105.267	220.511	-78.698	-114.074	-3.254	-69.175	-9.939	18.731	98.436	-50.291	0.00070789	0.00049248	8.4256e-05	592.88	1.9074e-06	9.2944e-06	1191	199.3	2.7973e-06	1.0558e-05	510.98	191.5	76.022	34.072	6.1051e-06	97.933	0.0016888	0.0018547	0.00052299	532.11	2.0211e-05	2.1089e-05	1046.1	176.76	1.9636e-05	1.9828e-05	453.19	169.79	70.632	30.188	2.0203e-05	87.023	152.907	-87.169	46.301	-100.564	36.954	124.893	-100.676	-96.731	149.582	0.319	-97.823	-94.577	-94.605	-90.247	-19.936	-91.964	-8191	255	
4204.040	1	1	0	0	0.2914	0.11897	0.084358	0.24761	0.072608	0.24437	0.17779	0.070188	0.23436	0.18345	0.051395	0.27705	0.17384	0.34291	0.095196	0.38878	-2.0792	-3.2146	-2.5563	-2.5625	-3.2521	-2.5458	-3.0958	-3.1521	-2.3146	-3.2896	-2.9229	-2.7979	-3.1771	-2.6792	-2.975	-3.2604	235.486	191.819	-95.499	-75.687	-39.477	-102.775	97.536	212.615	188.638	-79.360	234.442	241.870	66.392	241.853	46.933	201.710	0.00080886	0.00075372	0.00011634	596.6	6.2625e-06	7.1182e-06	1184.5	197.34	7.949e-06	9.8494e-06	512.47	191.03	74.857	33.523	3.263e-06	97.539	0.0016799	0.0018726	0.00052202	532.61	1.9249e-05	2.1005e-05	1046.6	175.54	2.0356e-05	2.0912e-05	452.15	168.77	70.282	29.877	2.0701e-05	86.612	155.919	-27.771	-41.999	-100.271	75.302	38.178	-100.323	-96.401	-20.441	67.752	-97.464	-94.564	-94.070	-90.533	-49.064	-91.516	-8191	255	
4204.136	1	1	0	0	0.071698	0.20509	0.074212	0.26944	0.26541	0.081701	0.21232	0.4281	0.082993	0.20987	0.21064	0.22274	0.045982	0.12848	0.42746	0.27635	-2.0396	-3.2521	-2.8729	-2.7188	-3.2604	-2.6333	-3.0854	-3.2021	-2.4042	-3.1083	-3.0563	-2.5375	-3.3333	-2.6312	-2.925	-3.3063	86.146	193.278	113.369	169.440	106.909	221.180	133.158	162.739	203.066	223.156	212.644	239.082	205.531	188.678	-54.153	-86.539	0.00058557	0.00075432	0.00024305	598.68	5.8506e-06	1.1864e-05	1191.5	197.66	8.7512e-06	2.2061e-05	510.97	190.91	76.008	33.3	8.564e-06	97.894	0.0016795	0.0018573	0.00053119	533	1.9969e-05	2.0503e-05	1049.2	176.03	1.9741e-05	2.0988e-05	451.88	168.93	70.421	29.792	2.0749e-05	86.277	159.169	-44.089	-65.596	-99.958	61.729	20.658	-100.333	-96.263	-14.459	32.268	-97.358	-94.728	-93.838	-90.337	135.752	-91.497	-8191	255	
4204.256	1	1	0	0	0.075155	0.26324	0.16364	0.33645	0.091556	0.047097	0.20199	0.12618	0.20433	0.15884	0.27974	0.23882	0.26213	0.30299	0.23712	0.20466	-1.9521	-2.9396	-2.9667	-2.4	-3.1875	-2.6167	-2.7604	-3.1417	-2.6917	-3.0979	-3.1771	-2.7062	-3.2479	-2.8083	-2.4625	-3.3875	-39.912	70.418	-107.754	-63.534	-59.274	228.681	119.626	-88.248	130.589	161.692	218.734	-108.562	136.580	-79.635	6.392	101.192	0.00054927	0.00041786	0.00016471	595.25	2.9087e-06	1.7259e-06	1189.1	195.97	1.4528e-05	1.2806e-05	505.91	188.07	73.297	32.853	9.5755e-06	95.355	0.0016583	0.0018482	0.00051948	532.83	1.9781e-05	2.1047e-05	1048.6	174.55	2.0021e-05	2.1124e-05	448.38	166.55	69.515	29.432	2.0491e-05	84.823	173.830	94.558	-89.514	-100.372	100.779	60.471	-100.123	-96.473	5.274	25.556	-97.590	-94.448	-93.730	-90.399	30.655	-91.588	-8191	255	
4204.353	1	1	0	0	0.19336	0.13985	0.098243	0.090171	0.16368	0.25688	0.42608	0.13562	0.11217	0.23368	0.056359	0.30691	0.45983	0.35867	0.11437	0.2864	-2.05	-2.9896	-3.1437	-2.5062	-3.2354	-2.7875	-2.8375	-3.3333	-2.3208	-2.875	-3.1708	-2.5938	-3.1083	-2.825	-2.5208	-3.2625	-4.372	103.697	238.643	-63.436	-51.636	121.005	-66.053	45.698	32.004	-52.885	-3.081	-96.253	-109.073	186.965	24.335	224.225	0.00069	0.0013493	0.00029115	596.59	6.2063e-06	7.6549e-06	1194.9	195.53	2.0155e-06	1.1312e-05	506.53	187.12	73.936	32.252	4.6029e-06	95.242	0.0016535	0.0019319	0.00053046	531.48	2.0081e-05	2.1073e-05	1045	173.65	2.021e-05	2.0781e-05	447.33	165.58	69.274	28.898	2.0276e-05	84.516	154.307	-41.758	-10.747	-100.688	-26.324	75.852	-100.529	-96.688	-0.998	33.930	-97.906	-95.444	-94.612	-90.848	12.890	-91.952	-8191	255	
4204.447	1	1	0	0	0.20935	0.13038	0.063978	0.055542	0.1035	0.017138	0.26274	0.12845	0.13695	0.12496	0.16057	0.23183	0.18931	0.1586	0.12514	0.10629	-2.0833	-2.8312	-3.1417	-2.4479	-3.0979	-2.7771	-2.5812	-3.2792	-2.5375	-2.6562	-3.2646	-2.5417	-3.2167	-3.0687	-2.5375	-3.5125	173.862	-79.103	-110.702	152.579	27.348	51.610	168.045	190.719	198.781	-76.897	45.095	189.070	144.806	-20.378	232.395	164.194	0.00064238	0.00036115	0.00015649	589.65	1.0616e-05	5.6721e-06	1193.9	194.47	7.3924e-06	7.3283e-06	505.96	187.93	73.61	32.339	3.8079e-06	95.665	0.0016471	0.001896	0.00051955	528.16	2.0488e-05	1.9954e-05	1045.4	173.48	1.9619e-05	2.0346e-05	446.66	165.95	69.168	29.027	1.9949e-05	84.544	148.848	-13.573	-24.429	-100.989	50.002	-36.441	-100.667	-97.305	212.227	-25.563	-97.665	-95.061	-94.699	-90.547	-30.228	-91.732	-8191	255	
4204.520	1	1	0	0	0.082356	0.11381	0.22374	0.038024	0.13643	0.033444	0.13639	0.068344	0.18221	0.21397	0.097401	0.061085	0.026325	0.099309	0.16591	0.24899	-2.35	-2.7854	-3.3479	-2.3375	-2.95	-3.075	-2.5542	-3.2917	-2.8937	-2.6625	-3.4375	-2.4875	-2.9	-3.1688	-2.6688	-3.4958	60.384	1.770	92.294	161.581	-61.558	-22.102	233.219	27.802	205.673	220.334	158.371	-61.381	206.663	122.838	-93.943	231.327	0.00071485	0.00081121	0.00013876	591.78	4.6432e-06	5.6799e-06	1183.7	195.13	4.5199e-06	1.1926e-05	502.62	187.82	73.613	32.119	4.8709e-06	95.199	0.0016244	0.0018681	0.00051361	529.98	2.0059e-05	2.005e-05	1044.7	173.74	1.9654e-05	2.0642e-05	444.62	165.47	69.045	28.699	1.9041e-05	84.199	152.196	-46.339	-89.948	-100.732	95.489	81.296	-100.474	-96.584	-38.094	15.422	-97.613	-95.124	-94.430	-91.019	-34.149	-91.776	-8191	255	
4204.639	1	1	0	0	0.051561	0.211	0.22698	0.024852	0.071182	0.1105	0.15861	0.28485	0.057961	0.31032	0.24207	0.10571	0.2014	0.088715	0.15996	0.37515	-2.2917	-2.6	-3.1833	-2.6854	-2.9458	-3.1104	-2.5625	-3.2354	-2.825	-2.3917	-3.2687	-2.5854	-2.7938	-3.1437	-2.3021	-3.2292	133.665	242.351	144.733	145.120	110.582	165.254	175.108	-93.321	-67.301	40.063	178.349	199.050	25.191	152.878	97.683	205.337	0.00057199	0.00058433	0.00018027	589.43	4.9736e-06	2.9167e-06	1186.2	193.15	7.8072e-06	8.8541e-06	503.22	186.08	72.634	32.05	6.34e-06	94.156	0.0016417	0.0018392	0.0005137	528.08	1.9678e-05	2.0031e-05	1041.2	172.59	1.9429e-05	2.002e-05	443.45	164.9	68.133	28.692	1.969e-05	83.561	159.916	-48.621	3.048	-100.398	32.185	-21.459	-100.617	-96.781	105.297	-31.841	-97.767	-94.811	-94.554	-90.630	25.914	-91.824	-8191	255	
4204.735	1	1	0	0	0.084669	0.12057	0.16875	0.20545	0.19332	0.19403	0.17581	0.019229	0.15043	0.10882	0.31696	0.28218	0.26659	0.16569	0.14765	0.14858	-2.4417	-2.3292	-3.1021	-2.575	-2.7208	-3.1104	-2.4771	-3.1979	-3.0146	-2.5062	-3.4729	-2.7042	-2.7417	-3.2708	-2.3375	-3.1125	147.146	200.965	17.324	241.519	-66.371	32.489	145.517	140.967	56.664	221.682	163.668	187.036	-98.068	242.116	178.162	117.200	0.00061382	0.0015158	0.00023812	590.12	6.0006e-06	1.1082e-05	1186.1	192.76	3.0248e-06	6.6592e-06	499.72	185.19	72.645	31.878	8.1439e-06	94.381	0.0015898	0.0017996	0.00050107	527.52	1.9258e-05	2.0126e-05	1043.5	172.62	1.9026e-05	1.9968e-05	443.37	164.13	68.086	28.56	1.979e-05	83.661	162.067	-42.263	41.692	-100.360	-38.113	12.253	-100.633	-96.371	152.332	-50.324	-97.657	-94.988	-94.660	-90.629	15.004	-91.596	-8191	255	
4204.832	1	1	0	0	0.3061	0.1626	0.088828	0.25653	0.13427	0.077576	0.37666	0.22298	0.29907	0.14568	0.32091	0.3071	0.037571	0.31829	0.085847	0.20757	-2.5563	-2.3979	-3.0521	-2.7042	-2.6271	-3.1063	-2.7438	-3.1312	-3.05	-2.5521	-3.225	-3.0563	-2.6479	-3.3167	-2.4604	-2.9792	58.977	131.334	155.639	196.431	236.678	169.392	176.555	110.187	133.527	233.921	207.742	-83.784	183.594	233.615	232.088	188.758	0.00072164	0.00014401	7.8931e-05	589.96	9.3633e-06	8.7455e-06	1182.3	194.64	6.4317e-06	8.3867e-06	506.82	184.99	73.379	31.868	9.0263e-06	94.901	0.0015762	0.0018039	0.00049952	528.34	1.9058e-05	1.9859e-05	1041.7	173.11	1.919e-05	1.9867e-05	444.01	164.38	68.713	28.557	1.9488e-05	83.974	173.157	68.680	7.962	-99.928	18.990	-12.217	-100.522	-96.419	1.736	58.892	-97.757	-94.565	-94.374	-90.367	48.587	-91.577	-8191	255	
4204.928	1	1	0	0	0.045606	0.17616	0.13118	0.33632	0.2007	0.10473	0.30631	0.20069	0.20996	0.11856	0.41985	0.27389	0.1847	0.056025	0.19693	0.35854	-2.6333	-2.3271	-3.1188	-2.9437	-2.4604	-3.2833	-2.6729	-2.7938	-3.225	-2.3646	-3.0938	-3.0146	-2.4042	-3.2375	-2.6542	-2.7229	-31.182	164.401	183.351	194.452	89.562	59.622	200.624	-58.190	236.305	21.168	228.686	-102.286	198.374	-63.767	16.398	219.673	0.00062382	0.00072285	0.00026413	594.33	4.207e-06	1.4121e-05	1187.2	192.92	5.7781e-07	9.5771e-06	498.14	183.99	72.6	31.594	7.8695e-06	93.381	0.0015803	0.0018494	0.00050542	527.31	1.9029e-05	1.9727e-05	1042.6	172.12	1.943e-05	2.0038e-05	440.59	163.4	67.957	28.283	1.9703e-05	82.903	159.442	26.589	-93.773	-100.573	73.745	48.941	-100.368	-96.631	39.906	27.151	-97.723	-95.197	-94.251	-90.931	43.560	-92.224	-8191	255	
4205.024	1	1	0	0	0.17162	0.29816	0.16341	0.21108	0.37443	0.086589	0.045108	0.20076	0.032127	0.19843	0.16101	0.21192	0.14881	0.29785	0.053162	0.28185	-2.7979	-2.1979	-2.95	-2.9083	-2.3937	-3.0771	-2.8354	-2.7021	-3.0917	-2.6896	-3.0312	-3.1708	-2.3458	-3.3438	-2.8583	-2.6458	43.296	197.714	41.933	-104.678	97.637	-10.601	86.558	196.224	-39.595	25.511	-93.728	-79.676	195.849	224.648	199.726	114.174	0.00062601	0.001091	0.0002249	590.17	4.625e-06	1.3944e-05	1177.6	192.05	3.1962e-06	1.2993e-05	499.38	183.72	72.435	31.653	1.0199e-05	93.695	0.0016059	0.0018541	0.00049723	524.8	1.9499e-05	2.0098e-05	1039.9	171.4	1.9204e-05	2.0151e-05	440.96	162.88	67.809	28.204	1.9774e-05	82.689	154.523	-32.388	-24.321	-100.732	24.395	77.842	-100.901	-96.859	-67.269	47.527	-97.455	-94.975	-94.034	-90.436	-3.032	-91.322	-8191	255	
4205.120	1	1	0	0	0.27486	0.075257	0.097734	0.23151	0.21394	0.18366	0.15922	0.20886	0.25949	0.1947	0.1543	0.058244	0.2462	0.21522	0.12483	0.33947	-2.8396	-2.4021	-3.0854	-3.1271	-2.4271	-3.0833	-2.975	-2.575	-3.3646	-2.4854	-3.0563	-3.1333	-2.3979	-3.175	-2.875	-2.7333	-112.342	-102.719	238.508	193.762	167.816	-84.318	160.251	173.521	119.792	59.275	143.667	172.583	157.609	143.883	218.320	149.028	0.00068524	0.00065805	0.00019537	586.17	6.3628e-06	2.7589e-06	1180.9	193.52	8.0968e-06	6.6939e-06	498.03	183.6	72.865	31.672	3.6392e-06	93.4	0.0015583	0.0018309	0.00051287	524.21	1.9467e-05	2.0055e-05	1038.3	172.1	1.9298e-05	2.0411e-05	440.33	162.45	68.075	28.293	1.9598e-05	82.873	171.782	-56.720	-11.763	-100.329	-4.004	60.259	-100.220	-96.285	65.607	58.393	-97.527	-94.593	-94.233	-90.120	200.454	-91.814	-8191	255	
4205.216	1	1	0	0	0.076661	0.20319	0.092825	0.15919	0.18237	0.16687	0.20748	0.053341	0.2821	0.023864	0.1046	0.16312	0.15252	0.15951	0.20575	0.32407	-2.8333	-2.6604	-2.9125	-3.3146	-2.4437	-2.9729	-3.2167	-2.5042	-3.2938	-2.5604	-2.7458	-3.4104	-2.4479	-3.1917	-3.0646	-2.5187	-23.716	51.352	-112.850	-63.723	239.679	151.655	187.395	225.675	-23.075	19.688	217.197	-80.064	-75.157	-41.550	242.047	244.044	0.00043253	0.001224	0.00018802	592.75	9.3742e-06	6.3799e-06	1186.1	193.76	6.8879e-06	6.7112e-06	504.35	183.28	72.113	31.705	7.7119e-06	93.751	0.0016053	0.0018567	0.00051369	528.6	1.947e-05	2.0854e-05	1042.9	172.11	1.9254e-05	2.063e-05	442.61	163.02	68.152	28.282	1.973e-05	82.885	154.412	-16.126	-9.868	-100.431	72.669	10.378	-100.298	-96.608	28.021	54.542	-97.843	-95.200	-94.683	-90.710	-40.062	-91.855	-8191	255	
4205.337	1	1	0	0	0.14005	0.16439	0.1645	0.20372	0.17672	0.18204	0.22706	0.14329	0.16647	0.26569	0.25632	0.22044	0.17536	0.13785	0.12785	0.30642	-2.9479	-2.9583	-2.5875	-3.3229	-2.4292	-3.075	-3.325	-2.4625	-3.2229	-2.8125	-2.7208	-3.3917	-2.5229	-2.8417	-3.1583	-2.5104	-24.153	-15.510	224.111	-96.212	102.150	-54.603	162.842	195.522	40.973	-28.506	244.129	212.547	-66.624	-35.363	153.255	221.463	0.00062985	0.0001545	0.00016107	590.31	1.2572e-05	7.7212e-06	1183.3	192.4	4.9762e-06	7.6873e-06	500.85	184.53	73.378	31.908	5.5776e-06	94.391	0.0016137	0.0018732	0.00050825	526.97	1.9654e-05	2.0128e-05	1040.8	171.63	1.9366e-05	2.0283e-05	442.23	163.44	68.287	28.632	1.9607e-05	83.658	168.982	44.767	-34.473	-100.540	-30.160	-40.959	-100.300	-96.536	-21.725	54.295	-97.424	-94.985	-94.790	-90.863	8.539	-92.442	-8191	255	
4205.433	1	1	0	0	0.092036	0.13537	0.11646	0.11353	0.14046	0.060676	0.11188	0.21169	0.21027	0.25609	0.15397	0.16125	0.25957	0.27406	0.28942	0.15507	-2.7687	-2.7208	-2.4958	-3.3292	-2.5062	-2.8104	-3.2792	-2.5229	-3.1625	-3.1063	-2.6063	-3.4146	-2.5854	-2.8292	-3.3104	-2.5083	17.990	219.746	152.889	132.805	230.857	225.682	224.508	-39.839	18.680	232.902	25.416	186.251	-113.442	175.314	240.436	175.385	0.0005521	0.00045488	0.00019439	588.38	6.7427e-06	6.2481e-06	1181	194.57	1.3963e-05	1.6315e-05	507.4	187.16	73.609	32.263	3.4085e-06	95.456	0.0016082	0.0018881	0.00052012	527.52	1.9383e-05	2.0586e-05	1039.7	173.46	1.9215e-05	2.0141e-05	446.02	165.64	68.704	29.013	1.8928e-05	84.693	164.991	-12.723	-34.219	-100.952	32.248	-74.071	-101.323	-97.156	8.629	109.881	-98.490	-95.729	-95.160	-90.856	6.911	-92.199	-8191	255	
4205.527	1	1	0	0	0.20117	0.21904	0.09806	0.062399	0.29638	0.022037	0.16052	0.23183	0.094567	0.21545	0.10339	0.30412	0.2761	0.042676	0.16185	0.087316	-2.6729	-3.0708	-2.5458	-3.1521	-2.5771	-2.7438	-3.3354	-2.5438	-2.8708	-3.0438	-2.3	-3.3958	-2.7479	-2.7562	-3.1271	-2.6292	215.554	188.779	-81.804	161.204	111.092	159.072	173.617	-107.808	65.933	79.679	205.370	-107.800	-63.359	32.625	105.467	122.125	0.0005326	0.0008464	0.00027041	595.89	1.1778e-05	1.2658e-05	1181.3	194.15	3.6342e-06	1.0127e-05	507.82	187.97	74.485	32.227	1.2719e-05	95.429	0.0016248	0.0018159	0.0005113	530.63	1.9632e-05	2.0707e-05	1044.7	173.53	1.9279e-05	1.9689e-05	447.35	166.29	69.456	28.891	1.9569e-05	84.535	153.204	-42.763	9.247	-100.809	19.056	18.072	-101.016	-97.253	-85.821	49.671	-98.105	-94.950	-95.011	-90.996	8.003	-92.040	-8191	255	
4205.625	1	1	0	0	0.12089	0.14571	0.043372	0.077575	0.23144	0.23887	0.16363	0.30619	0.26264	0.099452	0.16677	0.41566	0.18661	0.095826	0.085708	0.056052	-2.5396	-3.0646	-2.5229	-3.1604	-2.65	-2.8333	-3.4813	-2.4021	-2.9062	-3.1583	-2.5812	-3.2833	-2.8542	-2.4333	-3.2188	-2.7917	64.050	8.464	244.008	97.788	13.248	158.874	187.405	224.943	-29.834	-11.847	227.903	210.844	132.507	116.618	2.198	214.637	0.00073913	0.0005078	0.00019313	587.54	2.5079e-06	7.9133e-06	1189.1	194.5	1.5216e-05	1.0512e-05	503.26	186.64	73.568	32.062	2.5227e-06	94.957	0.0016598	0.0018319	0.00050717	528.81	1.9251e-05	2.0002e-05	1045.2	173.46	1.9346e-05	1.9516e-05	444.96	165.05	68.726	28.747	1.9331e-05	83.902	156.692	-78.886	-110.025	-100.924	107.408	81.057	-100.693	-97.256	-28.419	41.488	-98.005	-95.213	-94.566	-90.750	240.744	-91.994	-8191	255	
4205.744	1	1	0	0	0.10932	0.16514	0.12329	0.12463	0.33951	0.16498	0.2998	0.29607	0.34243	0.18464	0.14698	0.4403	0.11084	0.41244	0.12576	0.19555	-2.4854	-3.1063	-2.2521	-3.0417	-2.7542	-2.4917	-3.3937	-2.5521	-2.5563	-3.2708	-2.4875	-3.0958	-3.0187	-2.3417	-3.1458	-2.7208	-11.219	47.185	173.010	-94.110	85.785	193.170	178.777	165.693	-84.412	167.989	210.581	232.662	77.271	220.451	170.299	240.747	0.00053333	0.0013324	0.00025661	592.06	9.3831e-06	5.3601e-06	1187	194.87	4.7652e-06	8.0977e-06	507.7	187.05	73.702	32.317	1.2426e-05	95.498	0.0016229	0.0018175	0.00051553	529.72	1.9344e-05	2.0339e-05	1045.4	173.55	1.9435e-05	1.9795e-05	446.25	165.43	68.667	28.855	1.9571e-05	84.47	154.597	-40.578	-44.691	-101.010	2.416	35.283	-100.809	-96.927	-37.337	86.044	-98.191	-95.105	-95.084	-90.811	-2.542	-92.375	-8191	255	
4205.816	1	1	0	0	0.14678	0.13019	0.017614	0.10987	0.13807	0.32155	0.16112	0.13048	0.13302	0.13359	0.13871	0.20658	0.098742	0.20447	0.37198	0.21056	-2.1896	-3.2667	-2.2167	-3.0979	-3.1167	-2.6021	-3.1542	-2.9313	-2.5187	-3.2167	-2.6667	-3.0438	-3.1021	-2.5563	-3.225	-2.925	215.990	-108.785	-32.093	190.065	37.545	189.992	199.608	161.138	95.160	115.485	170.304	161.440	-18.347	-94.175	74.911	203.017	0.00071396	0.0006788	0.00022624	595.3	1.5012e-06	6.5436e-06	1186.2	193.32	4.4604e-06	1.1348e-05	506.07	186.6	72.509	32.128	2.1329e-06	94.622	0.0016011	0.0018134	0.00050614	530.36	1.931e-05	2.0342e-05	1046.5	172.98	1.9348e-05	1.9979e-05	446.24	165.36	68.389	28.702	1.9687e-05	84.149	159.609	-20.207	-36.682	-100.517	179.690	-1.857	-100.511	-96.917	37.311	17.169	-98.256	-95.155	-94.482	-90.309	36.680	-92.306	-8191	255	
4205.936	1	1	0	0	0.17429	0.036028	0.35475	0.32986	0.19069	0.22802	0.13734	0.11899	0.093363	0.076221	0.2554	0.30528	0.17824	0.16116	0.084393	0.18893	-2.2375	-3.2042	-2.3479	-2.9229	-3.1646	-2.5104	-3.3354	-2.8646	-2.5604	-3.1833	-2.7375	-2.7458	-3.1937	-2.4396	-3.2188	-3.2625	-14.116	237.618	55.522	221.094	228.417	235.220	215.362	182.314	148.014	198.336	154.227	-90.689	59.063	207.500	184.570	167.604	0.00059808	0.00040646	0.00028235	595.68	7.2076e-06	6.8779e-06	1187.5	194.62	4.3607e-06	9.6676e-06	503.85	186.91	74.088	31.805	1.1392e-05	94.848	0.0016473	0.0018296	0.00051416	529.2	1.9238e-05	2.0133e-05	1047.7	173.09	1.9436e-05	2.0285e-05	445.38	165.02	68.775	28.486	1.9911e-05	83.745	161.579	19.294	-11.533	-100.813	37.971	11.988	-100.679	-96.576	-30.029	75.170	-97.964	-95.326	-95.172	-91.459	35.740	-92.680	-8191	255	
4206.033	1	1	0	0	0.21349	0.069072	0.06502	0.1172	0.096416	0.02204	0.28206	0.178	0.16811	0.02706	0.018142	0.33209	0.18511	0.12894	0.17563	0.28107	-1.9208	-3.2062	-2.675	-2.55	-3.0812	-2.3958	-3.1854	-3.0792	-2.5667	-3.275	-2.7375	-2.6813	-3.1292	-2.5042	-2.9104	-3.0312	-42.762	-83.214	99.545	174.479	155.754	100.701	165.628	189.161	86.595	120.537	49.403	203.186	147.422	-54.489	-19.099	230.422	0.00049944	0.00051766	8.4246e-05	592.63	8.9029e-06	6.8564e-06	1188.9	194.96	7.926e-06	6.3482e-06	509.38	185.96	74.229	32.371	6.5135e-06	96.294	0.0015986	0.0018182	0.00051145	530.04	1.9244e-05	2.0141e-05	1048.8	173.23	1.9017e-05	2.03e-05	448.19	165.47	69.146	28.945	1.9841e-05	85.147	159.677	-93.332	-46.608	-100.552	9.475	-21.762	-100.762	-97.125	9.237	-5.073	-98.069	-94.896	-94.605	-90.871	-43.611	-92.176	-8191	255	
4206.129	1	1	0	0	0.14411	0.16314	0.2051	0.22119	0.040405	0.11294	0.19911	0.14166	0.22325	0.15	0.24689	0.1513	0.10588	0.2205	0.29559	0.10597	-2.0042	-3.1396	-2.65	-2.4917	-3.2479	-2.4625	-2.9042	-3.2812	-2.4875	-3.2375	-3.1354	-2.525	-3.0854	-2.7229	-2.85	-3.2812	-66.396	129.825	125.056	-108.008	67.414	18.565	219.927	-104.577	19.862	217.818	-105.634	189.879	80.015	241.413	-45.162	156.840	0.00054313	0.00053131	0.00014314	594.31	1.1142e-05	6.5969e-06	1196.4	196.22	4.7263e-06	9.2805e-06	504.14	189.05	74.066	32.243	8.8794e-06	95.973	0.00163	0.0018136	0.00048628	530.25	1.8885e-05	2.0171e-05	1050.2	174.09	1.8799e-05	1.9531e-05	446.47	166.86	69.173	29.032	1.9499e-05	85.201	157.432	-47.569	114.018	-100.300	92.820	4.764	-101.041	-97.049	13.790	-43.791	-98.281	-95.088	-94.363	-90.465	25.297	-91.952	-8191	255	
4206.225	1	1	0	0	0.13951	0.076925	0.10986	0.29656	0.19784	0.16396	0.032837	0.25585	0.28954	0.085806	0.18834	0.26748	0.18221	0.060328	0.30319	0.1617	-2.1521	-3.0812	-2.8604	-2.4146	-3.2083	-2.6417	-2.8563	-3.1562	-2.3812	-3.0167	-3.025	-2.5396	-3.1333	-2.6562	-2.5583	-3.3667	135.020	46.650	-4.698	220.692	38.775	-107.333	-84.063	33.224	36.726	209.690	98.567	-27.848	117.646	-59.237	-22.062	244.821	0.0007806	0.00044864	0.00029407	591.37	9.2457e-06	6.3459e-06	1189	194.8	6.667e-06	1.056e-05	508.5	187.09	74.361	32.172	4.7372e-06	96.016	0.0016254	0.0018256	0.00049682	529.27	1.9861e-05	1.989e-05	1048	173.5	1.9927e-05	2.0531e-05	447.63	166.29	69.451	28.942	1.9963e-05	84.863	155.837	-98.523	6.226	-100.211	19.320	-7.921	-100.665	-96.793	30.071	43.470	-97.903	-95.032	-94.461	-90.624	29.065	-92.163	-8191	255	
4206.321	1	1	0	0	0.21631	0.053249	0.23769	0.15116	0.16203	0.35207	0.18781	0.14326	0.26094	0.094816	0.20369	0.31056	0.13722	0.081842	0.09861	0.25675	-2.0062	-2.7771	-3.1542	-2.5458	-3.2042	-2.6562	-2.7812	-3.225	-2.4688	-3	-3.1021	-2.7167	-3.1583	-2.7979	-2.6312	-3.3271	206.049	153.777	73.649	238.200	122.911	-90.984	218.865	-90.504	187.609	154.982	-106.920	216.586	96.024	-71.409	27.808	213.046	0.00079243	0.0008806	0.00010945	591.33	3.9767e-06	5.1457e-06	1190.8	195.47	6.5385e-06	7.174e-06	507.08	189.49	73.323	32.382	5.6849e-06	96.216	0.00164	0.001882	0.00051279	527.85	1.9746e-05	2.0619e-05	1048.5	173.82	1.9463e-05	1.993e-05	447.47	167.44	69.074	28.957	1.9999e-05	85.028	165.421	-40.696	-16.549	-100.494	10.160	93.007	-100.563	-96.853	173.571	23.307	-97.823	-95.323	-94.430	-90.452	-49.379	-91.785	-8191	255	
4206.417	1	1	0	0	0.14046	0.11626	0.047741	0.24069	0.18007	0.21341	0.27308	0.12869	0.14252	0.27822	0.25262	0.25066	0.097741	0.074899	0.20478	0.13293	-2.1354	-2.8667	-3.0854	-2.4771	-3.1625	-2.8187	-2.7167	-3.375	-2.6229	-2.8625	-3.2542	-2.2812	-3.0083	-3.0104	-2.3958	-3.3063	211.745	155.625	104.279	156.178	112.054	191.067	223.452	-102.118	-68.671	2.611	189.296	190.012	-102.060	167.958	162.648	153.179	0.00062516	0.00069957	0.00029304	591.19	8.8882e-06	6.2737e-06	1190.1	194.76	6.1697e-06	8.6387e-06	500.26	185.73	72.758	31.595	7.4953e-06	93.644	0.0016371	0.0018726	0.00051429	528.76	1.982e-05	2.0536e-05	1046.3	172.75	1.9172e-05	2.0348e-05	444	164.59	68.283	28.288	1.9678e-05	83.114	167.388	4.397	-54.060	-100.152	-55.600	15.117	-100.481	-97.315	-43.294	-25.108	-97.780	-95.038	-94.888	-90.804	-15.286	-92.126	-8191	255	
4206.513	1	1	0	0	0.099102	0.048473	0.051937	0.19442	0.20399	0.19759	0.090056	0.16149	0.087725	0.069646	0.13041	0.3233	0.27332	0.24644	0.38708	0.18684	-2.1271	-2.5563	-2.9583	-2.4125	-2.8771	-2.8292	-2.4021	-3.3167	-2.6813	-2.7354	-3.4062	-2.4292	-2.9313	-3.0354	-2.3354	-3.2812	186.347	28.535	-34.571	-72.364	117.757	191.545	192.607	201.885	193.448	-0.230	191.768	210.195	-37.163	-49.948	-29.718	188.032	0.00066236	8.3527e-05	0.00029629	584.05	7.5234e-06	8.617e-06	1176.1	189.87	4.7284e-06	2.8932e-06	501.11	183.71	71.428	30.864	3.4513e-06	91.887	0.0016567	0.0018428	0.00049549	523.05	2.0067e-05	2.0343e-05	1040.6	169.97	1.9564e-05	2.0183e-05	442.11	162.23	67.171	27.752	2.0368e-05	81.537	167.683	136.379	-64.979	-101.359	-10.642	63.006	-101.040	-96.948	-21.735	23.735	-98.044	-95.223	-94.681	-90.851	-23.205	-91.861	-8191	255	
4206.609	1	1	0	0	0.13794	0.27467	0.12346	0.21491	0.14812	0.20998	0.1865	0.24978	0.052813	0.05839	0.46977	0.16785	0.21251	0.13521	0.083959	0.071101	-2.3979	-2.4583	-3.15	-2.4354	-2.8771	-3.1583	-2.4313	-3.0521	-2.7792	-2.4958	-3.4292	-2.6292	-2.9062	-3.1917	-2.4271	-3.2708	149.570	17.230	71.627	221.050	149.268	-20.437	216.740	195.663	92.245	86.242	225.042	224.757	-3.883	34.694	193.852	200.976	0.00064705	0.00052815	0.00013173	586.18	1.2062e-05	7.1081e-07	1179.1	191.89	1.1296e-05	6.7617e-06	502.41	185.43	72.458	31.784	5.9556e-06	95.022	0.0016019	0.001876	0.00052066	525.06	1.9539e-05	1.9888e-05	1042.1	170.74	1.9711e-05	2.0277e-05	443.61	164.37	67.851	28.465	1.9669e-05	83.854	168.742	-10.910	-40.585	-100.393	65.108	196.478	-101.166	-97.396	86.101	-45.363	-98.360	-95.073	-94.882	-90.341	18.588	-92.001	-8191	255	
4206.706	1	1	0	0	0.095697	0.1517	0.046203	0.26488	0.24198	0.24102	0.17354	0.097263	0.10432	0.13624	0.051195	0.15547	0.21125	0.28462	0.23782	0.095906	-2.5208	-2.3771	-3.2	-2.6042	-2.7104	-3.1	-2.5292	-3.1396	-3.1333	-2.4625	-3.4708	-2.7687	-2.7958	-3.2188	-2.3688	-3.3917	-114.065	11.049	191.271	162.357	52.849	-81.523	92.479	-92.410	3.247	-15.814	-86.507	132.177	111.604	226.936	69.786	229.957	0.00065118	0.00066996	0.0002262	594.71	3.9348e-06	7.3133e-06	1191.3	194.64	3.4712e-06	5.0294e-06	500.24	184.81	73.672	31.569	9.3424e-06	93.857	0.0015786	0.0018222	0.00048621	529.78	1.9127e-05	1.9707e-05	1045.3	172	1.8822e-05	2.0086e-05	442.93	164.11	68.713	28.354	1.9791e-05	83.409	153.567	-13.478	-16.307	-100.529	60.613	33.635	-100.408	-96.864	44.769	-57.047	-97.712	-95.351	-94.139	-90.320	19.350	-91.863	-8191	255	
4206.825	1	1	0	0	0.068747	0.089705	0.32171	0.16361	0.42374	0.065957	0.14745	0.21331	0.05618	0.25641	0.41426	0.2374	0.13534	0.08095	0.32962	0.064351	-2.5354	-2.4792	-3.1917	-2.7438	-2.5812	-3.2333	-2.5563	-2.9271	-3.1583	-2.2562	-3.3271	-2.7	-2.6708	-3.1521	-2.4479	-2.9896	210.994	-47.283	-16.279	217.203	242.717	-103.081	114.633	207.509	57.991	24.936	157.146	146.118	205.654	126.550	180.405	144.548	0.00058617	0.00093507	0.00032073	595.03	9.4623e-06	2.8279e-06	1183.4	191.85	9.4404e-06	7.9971e-06	499.49	184.48	72.436	31.426	1.887e-06	93.24	0.0015835	0.0018556	0.00050619	529.07	2.0116e-05	2.0079e-05	1041.7	171.07	1.8991e-05	2.0525e-05	443.43	163.34	67.671	28.065	1.9586e-05	82.438	160.346	-70.915	-63.807	-100.766	54.637	145.092	-100.594	-96.696	-18.863	26.965	-97.710	-94.632	-94.460	-90.698	155.278	-91.920	-8191	255	
4206.921	1	1	0	0	0.18639	0.1743	0.065736	0.098936	0.11662	0.22411	0.089483	0.20959	0.08818	0.14749	0.078744	0.13451	0.034599	0.050023	0.19406	0.29668	-2.6667	-2.5521	-3.0833	-2.8563	-2.4646	-3.275	-2.6104	-2.9062	-3.075	-2.2521	-3.2	-2.7229	-2.5187	-3.3125	-2.5417	-2.9271	-44.024	-8.658	115.736	45.501	237.662	-94.329	149.693	-86.985	200.970	17.984	24.123	-49.801	170.390	140.498	145.751	176.045	0.00060862	0.001201	9.6757e-05	582.91	2.1303e-06	1.3618e-05	1191.7	192.16	7.2825e-06	8.4584e-06	497.68	184.57	72.019	31.258	1.2744e-05	93.344	0.0016208	0.0018792	0.00051644	523.55	1.9726e-05	1.9871e-05	1044.5	171.43	1.9281e-05	2.0505e-05	441.2	163.04	67.354	27.797	2.0022e-05	82.496	167.792	-2.143	20.797	-101.376	36.633	34.043	-100.967	-96.914	23.997	-17.015	-97.724	-95.217	-94.788	-90.671	-11.882	-92.228	-8191	255	
4207.017	1	1	0	0	0.13904	0.19959	0.10109	0.17814	0.06513	0.082793	0.1999	0.11852	0.10735	0.32057	0.38485	0.19765	0.16564	0.21743	0.11496	0.17547	-2.8104	-2.3458	-2.9854	-2.8729	-2.5875	-3.1104	-2.7875	-2.6604	-3.1833	-2.3563	-3.0729	-3.0792	-2.5583	-3.2271	-2.6792	-2.725	-56.249	240.863	-42.181	89.291	56.991	38.041	178.523	102.760	129.817	-59.962	189.439	175.393	-112.639	-11.873	-80.293	173.149	0.00050925	0.0011726	0.00010057	590.4	1.0185e-05	5.3219e-06	1181.5	190.77	5.4449e-06	6.9494e-06	498.98	184.21	72.526	31.103	7.5616e-06	93.083	0.0016159	0.001805	0.00050535	527.14	1.9427e-05	1.9986e-05	1042.3	170.07	1.9112e-05	1.978e-05	442.12	162.22	67.453	27.781	1.9333e-05	82.096	155.210	-38.120	-76.716	-101.268	49.170	23.907	-101.306	-96.886	-7.369	40.513	-98.466	-95.640	-94.793	-90.922	-6.522	-92.064	-8191	255	
4207.113	1	1	0	0	0.2038	0.15931	0.090539	0.10214	0.16363	0.20137	0.27154	0.18865	0.13937	0.14815	0.28973	0.14657	0.1014	0.18967	0.2276	0.25296	-2.6708	-2.3271	-2.8896	-3.0292	-2.4521	-3.1708	-2.9417	-2.4792	-3.0938	-2.5583	-2.9625	-3.1375	-2.3104	-3.1333	-2.8063	-2.6	172.205	36.485	67.242	-24.737	-14.609	62.558	223.036	-103.717	164.523	199.502	151.100	207.460	224.302	219.477	214.191	239.499	0.00061996	0.00054585	0.00018695	584.64	7.8805e-06	8.451e-06	1182.4	189.44	3.7555e-06	3.9024e-06	496.26	183.63	71.644	31.009	7.9717e-06	92.838	0.0015798	0.0018544	0.00048795	524.42	1.9575e-05	1.9722e-05	1039.3	169.52	1.8811e-05	1.956e-05	440.52	162.19	66.883	27.737	1.9247e-05	81.917	159.401	-74.280	27.363	-101.035	1.076	11.489	-101.097	-96.920	-105.547	18.774	-98.093	-95.213	-94.471	-90.456	2.862	-92.011	-8191	255	
4207.209	1	1	0	0	0.091156	0.20816	0.099393	0.087182	0.20513	0.1949	0.31233	0.2309	0.31721	0.11564	0.15057	0.28649	0.2253	0.17879	0.063703	0.18254	-2.7062	-2.5292	-2.6229	-3.1729	-2.4313	-3.2958	-2.8625	-2.6104	-3.1583	-2.4646	-2.9521	-3.2396	-2.2562	-3.1375	-3.0458	-2.5104	129.187	-44.144	-98.725	-48.914	240.586	-79.168	-102.269	-108.338	191.123	-20.550	196.251	199.366	10.958	235.450	105.802	243.591	0.00038659	0.00037627	0.0002333	582.13	1.2996e-06	7.1934e-06	1194.3	191.28	7.5588e-06	2.5705e-06	503.89	185.48	72.315	31.284	2.6894e-06	94.109	0.0015656	0.0017642	0.00049199	523.42	1.8752e-05	1.9668e-05	1046.9	170.67	1.8564e-05	1.9313e-05	443.77	163.69	67.644	28.006	1.8404e-05	83.177	159.405	81.208	234.117	-100.298	135.342	93.795	-100.840	-97.246	-14.997	-61.830	-98.232	-95.227	-93.968	-90.325	163.583	-91.829	-8191	255	
4207.305	1	1	0	0	0.17275	0.06683	0.11405	0.14398	0.034137	0.13755	0.2189	0.11226	0.18819	0.21744	0.22242	0.088472	0.17173	0.19344	0.15948	0.17235	-2.8354	-2.7479	-2.5812	-3.4333	-2.4229	-2.9208	-3.2146	-2.6208	-3.2354	-2.8104	-2.7958	-3.225	-2.4979	-2.9813	-3.15	-2.6479	-92.320	11.390	1.902	224.446	221.181	8.158	194.062	201.922	198.869	81.711	205.021	97.365	243.618	186.845	214.569	74.513	0.00063046	0.0005225	4.2634e-05	587.86	1.2754e-05	4.5238e-07	1196.4	193.37	9.676e-06	2.8328e-06	507.08	185.82	71.847	31.315	3.6471e-06	94.609	0.0015915	0.0017969	0.00048622	526.03	1.8903e-05	1.9089e-05	1049.4	172.24	1.8825e-05	1.8782e-05	446.26	164.79	67.691	28.177	1.8417e-05	83.496	168.723	200.456	205.083	-100.743	22.780	83.364	-101.316	-97.015	30.102	62.616	-98.112	-95.411	-95.180	-90.658	45.903	-91.939	-8191	255	
4207.426	1	1	0	0	0.21956	0.13487	0.22222	0.20052	0.063853	0.11415	0.14309	0.14084	0.099041	0.15279	0.27414	0.092368	0.24635	0.32302	0.21287	0.10542	-2.7146	-2.6833	-2.6771	-3.3688	-2.4208	-2.7646	-3.2812	-2.3958	-3.2625	-2.9667	-2.6771	-3.3542	-2.4667	-2.5104	-3.0896	-2.5187	-32.834	92.039	126.355	220.172	58.951	179.678	179.728	137.502	89.524	123.790	214.922	95.192	-25.324	217.646	95.260	207.908	0.00041603	0.0012364	2.0829e-05	591.2	6.3429e-06	1.4768e-05	1195.8	192.17	1.0268e-05	1.0254e-05	499.42	185.28	72.694	31.41	5.6505e-06	93.944	0.0015191	0.0017472	0.00047722	528.79	1.8518e-05	1.8897e-05	1048.5	171.24	1.8485e-05	1.9313e-05	442.7	163.72	67.728	28.063	1.8671e-05	82.79	155.355	-32.713	-36.761	-101.087	58.730	9.484	-100.915	-96.744	-27.331	18.871	-97.979	-95.313	-95.019	-90.361	-39.266	-91.486	-8191	255	
4207.520	1	1	0	0	0.1451	0.25521	0.17097	0.025972	0.18529	0.1516	0.12456	0.19391	0.027327	0.088054	0.13889	0.1641	0.084232	0.1733	0.12752	0.31189	-2.6667	-3.0542	-2.3896	-3.1396	-2.5729	-2.7729	-3.2667	-2.575	-2.9292	-2.9417	-2.6833	-3.1021	-2.7604	-2.8688	-3.1854	-2.4958	-43.497	203.933	90.457	153.078	-77.537	-95.558	195.010	149.610	36.618	157.946	-83.955	-90.920	-38.408	144.848	143.331	156.792	0.00052824	9.6765e-05	0.00029889	587.84	9.7377e-06	8.5682e-06	1188	190.28	4.6021e-06	8.1312e-06	502.79	183.87	73.095	31.441	1.5856e-06	93.644	0.0015528	0.0017167	0.00047907	524.79	1.8619e-05	1.9127e-05	1045.9	170.53	1.8419e-05	1.8535e-05	443.61	163.41	67.478	28.119	1.8304e-05	82.929	158.548	-108.693	-20.212	-100.817	5.432	9.977	-101.076	-96.830	238.954	40.324	-98.121	-94.985	-94.765	-90.592	175.022	-92.019	-8191	255	
4207.616	1	1	0	0	0.12716	0.16195	0.16959	0.11135	0.3807	0.10854	0.26169	0.39972	0.14965	0.17017	0.18053	0.11103	0.17	0.11119	0.066609	0.27528	-2.6042	-2.9354	-2.2188	-3.2	-2.6667	-2.6104	-3.3333	-2.4104	-2.9437	-3.0958	-2.5625	-3.3312	-2.8417	-2.6167	-3.4	-2.6271	-27.235	-57.230	95.549	227.106	67.922	53.746	186.521	66.698	-89.345	122.610	242.024	98.204	132.117	40.447	170.629	115.694	0.00052034	0.00063183	0.00014936	590.3	9.4794e-06	2.7541e-06	1191.3	192.72	8.9883e-06	5.2705e-06	505.68	185.6	71.938	31.506	8.5507e-06	94.04	0.0015144	0.0016882	0.00047923	527.21	1.8034e-05	1.8807e-05	1050.3	171.43	1.7647e-05	1.8421e-05	445.25	164.1	67.465	28.201	1.8069e-05	83.252	164.123	-64.847	18.198	-100.518	39.889	-42.642	-100.590	-97.053	89.344	-24.894	-98.238	-95.088	-95.320	-90.857	-50.613	-92.143	-8191	255	
4207.713	1	1	0	0	0.21458	0.19771	0.063357	0.16739	0.075638	0.12032	0.125	0.26939	0.046436	0.17624	0.17093	0.083651	0.1857	0.32754	0.12857	0.23619	-2.525	-3.0771	-2.275	-3.2167	-2.9	-2.3854	-3.4437	-2.6667	-2.8812	-3.2188	-2.6562	-3.3104	-3.0646	-2.5458	-3.1021	-2.8208	165.234	225.429	66.400	-52.099	102.991	164.105	218.520	204.437	-37.894	31.442	172.276	189.977	52.510	241.543	81.456	185.387	0.00054113	0.0010789	0.00024344	586.68	9.989e-06	9.7173e-06	1182.8	191.27	1.0018e-05	8.9944e-06	498.22	183.38	70.628	30.755	2.6757e-06	91.833	0.0014952	0.0016597	0.00046652	525.51	1.752e-05	1.8578e-05	1042.7	170.5	1.7737e-05	1.7894e-05	440.35	162.02	66.383	27.543	1.8025e-05	81.268	159.813	25.513	13.810	-101.070	10.796	11.346	-100.995	-96.851	-31.966	56.752	-98.241	-95.294	-94.887	-90.975	55.783	-92.189	-8191	255	
#DATA ENDS
