BOXY.EXE: ISS Imagent and Oximeter Data Acquisition Program Version 0.80
Ascii Record File

#ACQ INFORMATION
2  Detector Channels 
16  External MUX Channels 
1  Auxiliary Channels 
5000  Waveform (CCF) Frequency (Hz)
1  Waveforms Skipped 
30  Waveforms Averaged 
1  Cycles Averaged 
16  Acquisitions per Waveform 
10.0806  Updata Rate (Hz) 

#FILE INFORMATION
TRUE -- External MUX Channel results are PARSED.
FALSE -- AC DC and Phase are NOT grouped.
TRUE -- Companion Program Settings File CREATED.
FALSE -- AC data not excluded
FALSE -- DC data not excluded
FALSE -- Phase data not excluded
FALSE -- Auxillary Chn. data not excluded
Tab delimiters

#CALIBRATION STATE
TRUE -- Waveform Calibration Values APPLIED.


#AUX CALIBRATION VALUES
Val Type	aux-1	

Term	1.0000e+00	
Factor	0.0000e+00	


#WF CALIBRATION VALUES
A = Detector Channel
Val Type	A-AC1	A-AC2	A-AC3	A-AC4	A-AC5	A-AC6	A-AC7	A-AC8	A-AC9	A-AC10	A-AC11	A-AC12	A-AC13	A-AC14	A-AC15	A-AC16	A-DC1	A-DC2	A-DC3	A-DC4	A-DC5	A-DC6	A-DC7	A-DC8	A-DC9	A-DC10	A-DC11	A-DC12	A-DC13	A-DC14	A-DC15	A-DC16	A-Ph1	A-Ph2	A-Ph3	A-Ph4	A-Ph5	A-Ph6	A-Ph7	A-Ph8	A-Ph9	A-Ph10	A-Ph11	A-Ph12	A-Ph13	A-Ph14	A-Ph15	A-Ph16	

Term	0.00000e+00	0.00000e+00	0.00000e+00	0.00000e+00	0.00000e+00	0.00000e+00	0.00000e+00	0.00000e+00	0.00000e+00	0.00000e+00	0.00000e+00	0.00000e+00	0.00000e+00	0.00000e+00	0.00000e+00	0.00000e+00	0.00000e+00	0.00000e+00	0.00000e+00	0.00000e+00	0.00000e+00	0.00000e+00	0.00000e+00	0.00000e+00	0.00000e+00	0.00000e+00	0.00000e+00	0.00000e+00	0.00000e+00	0.00000e+00	0.00000e+00	0.00000e+00	0.00000e+00	0.00000e+00	0.00000e+00	0.00000e+00	0.00000e+00	0.00000e+00	0.00000e+00	0.00000e+00	0.00000e+00	0.00000e+00	0.00000e+00	0.00000e+00	0.00000e+00	0.00000e+00	0.00000e+00	0.00000e+00	
Factor	1.00000e+00	1.00000e+00	1.00000e+00	1.00000e+00	1.00000e+00	1.00000e+00	1.00000e+00	1.00000e+00	1.00000e+00	1.00000e+00	1.00000e+00	1.00000e+00	1.00000e+00	1.00000e+00	1.00000e+00	1.00000e+00	1.00000e+00	1.00000e+00	1.00000e+00	1.00000e+00	1.00000e+00	1.00000e+00	1.00000e+00	1.00000e+00	1.00000e+00	1.00000e+00	1.00000e+00	1.00000e+00	1.00000e+00	1.00000e+00	1.00000e+00	1.00000e+00	X	X	X	X	X	X	X	X	X	X	X	X	X	X	X	X	

B = Detector Channel
Val Type	B-AC1	B-AC2	B-AC3	B-AC4	B-AC5	B-AC6	B-AC7	B-AC8	B-AC9	B-AC10	B-AC11	B-AC12	B-AC13	B-AC14	B-AC15	B-AC16	B-DC1	B-DC2	B-DC3	B-DC4	B-DC5	B-DC6	B-DC7	B-DC8	B-DC9	B-DC10	B-DC11	B-DC12	B-DC13	B-DC14	B-DC15	B-DC16	B-Ph1	B-Ph2	B-Ph3	B-Ph4	B-Ph5	B-Ph6	B-Ph7	B-Ph8	B-Ph9	B-Ph10	B-Ph11	B-Ph12	B-Ph13	B-Ph14	B-Ph15	B-Ph16	

Term	0.00000e+00	0.00000e+00	0.00000e+00	0.00000e+00	0.00000e+00	0.00000e+00	0.00000e+00	0.00000e+00	0.00000e+00	0.00000e+00	0.00000e+00	0.00000e+00	0.00000e+00	0.00000e+00	0.00000e+00	0.00000e+00	0.00000e+00	0.00000e+00	0.00000e+00	0.00000e+00	0.00000e+00	0.00000e+00	0.00000e+00	0.00000e+00	0.00000e+00	0.00000e+00	0.00000e+00	0.00000e+00	0.00000e+00	0.00000e+00	0.00000e+00	0.00000e+00	-1.73704e+02	-1.32310e+02	-1.30523e+02	-1.83574e+02	-7.60477e+01	-6.70359e+01	-1.55495e+02	-1.62015e+02	-7.99824e+01	-6.07535e+01	-1.70946e+02	-1.70640e+02	-1.80572e+02	-1.76431e+02	-8.06021e+01	-1.49822e+02	
Factor	2.81431e-05	1.40646e-04	3.83973e-05	2.01100e-01	1.36085e-06	1.58655e-06	1.53996e-01	4.82859e-02	1.48335e-06	1.59777e-06	8.17184e-02	2.79086e-02	4.74001e-02	8.75135e-03	1.44834e-06	1.23503e-02	7.47231e-06	9.38387e-06	2.59553e-06	1.05508e-01	9.95022e-08	1.03510e-07	7.64957e-02	2.55268e-02	9.80276e-08	1.03065e-07	4.19575e-02	1.43083e-02	2.51944e-02	4.66655e-03	1.00170e-07	6.38590e-03	X	X	X	X	X	X	X	X	X	X	X	X	X	X	X	X	



#DISTANCE SETTINGS
A = Detector Channel
A-1	A-2	A-3	A-4	A-5	A-6	A-7	A-8	A-9	A-10	A-11	A-12	A-13	A-14	A-15	A-16	

2.5000e+00	3.0000e+00	2.5000e+00	3.0000e+00	2.0000e+00	3.0000e+00	1.5000e+00	3.0000e+00	3.0000e+00	3.0000e+00	3.0000e+00	3.0000e+00	3.0000e+00	3.0000e+00	1.5000e+00	3.0000e+00	

B = Detector Channel
B-1	B-2	B-3	B-4	B-5	B-6	B-7	B-8	B-9	B-10	B-11	B-12	B-13	B-14	B-15	B-16	

1.0000e+01	1.0000e+01	1.0000e+01	1.4400e+00	1.0000e+01	1.0000e+01	1.5100e+00	1.9400e+00	1.0000e+01	1.0000e+01	1.9900e+00	2.4900e+00	2.4100e+00	2.9000e+00	1.0000e+01	2.9800e+00	




#DATA BEGINS
time	group	step	mark	flag	A-AC1	A-AC2	A-AC3	A-AC4	A-AC5	A-AC6	A-AC7	A-AC8	A-AC9	A-AC10	A-AC11	A-AC12	A-AC13	A-AC14	A-AC15	A-AC16	A-DC1	A-DC2	A-DC3	A-DC4	A-DC5	A-DC6	A-DC7	A-DC8	A-DC9	A-DC10	A-DC11	A-DC12	A-DC13	A-DC14	A-DC15	A-DC16	A-Ph1	A-Ph2	A-Ph3	A-Ph4	A-Ph5	A-Ph6	A-Ph7	A-Ph8	A-Ph9	A-Ph10	A-Ph11	A-Ph12	A-Ph13	A-Ph14	A-Ph15	A-Ph16	B-AC1	B-AC2	B-AC3	B-AC4	B-AC5	B-AC6	B-AC7	B-AC8	B-AC9	B-AC10	B-AC11	B-AC12	B-AC13	B-AC14	B-AC15	B-AC16	B-DC1	B-DC2	B-DC3	B-DC4	B-DC5	B-DC6	B-DC7	B-DC8	B-DC9	B-DC10	B-DC11	B-DC12	B-DC13	B-DC14	B-DC15	B-DC16	B-Ph1	B-Ph2	B-Ph3	B-Ph4	B-Ph5	B-Ph6	B-Ph7	B-Ph8	B-Ph9	B-Ph10	B-Ph11	B-Ph12	B-Ph13	B-Ph14	B-Ph15	B-Ph16	aux-1	digaux	

3021.339	1	1	0	768	0.075697	0.098769	0.023685	0.13644	0.14371	0.14307	0.12024	0.30057	0.08648	0.098859	0.14914	0.16704	0.161	0.15838	0.13688	0.19384	-2.3187	-2.4083	-3.0187	-2.5917	-2.5958	-3.0229	-2.4562	-3.0354	-2.9354	-2.3708	-3.2875	-2.6708	-2.5979	-3.2104	-2.3271	-2.9542	225.053	66.344	53.062	267.846	105.495	213.260	323.553	297.285	115.720	193.168	213.704	50.197	46.221	100.511	260.555	256.534	0.00019212	0.0002368	9.5786e-05	1032.2	1.988e-06	1.5712e-06	1106.9	217.83	2.1502e-06	1.5403e-06	270.25	75.768	60.101	17.885	2.4748e-06	24.784	0.00037349	0.00042247	0.00011262	1014.8	4.5039e-06	4.4872e-06	1090.1	216.38	4.3831e-06	4.4984e-06	269.08	76.428	60.964	18.144	4.4431e-06	25.189	90.353	101.375	68.975	4.281	133.901	201.126	4.360	12.049	139.629	228.053	11.237	18.812	19.100	25.690	197.341	25.328	-8191	255	
3021.435	1	1	0	0	0.14467	0.093587	0.063533	0.094276	0.17629	0.017251	0.27343	0.067601	0.11062	0.16374	0.27879	0.14651	0.094958	0.10746	0.30154	0.17539	-2.5375	-2.2812	-2.9042	-2.7083	-2.5333	-3.1792	-2.5521	-2.9396	-2.95	-2.3563	-3.3271	-2.6104	-2.3563	-3.2854	-2.3563	-2.9042	191.620	306.414	39.865	86.043	311.748	315.719	283.501	303.175	35.928	38.346	311.530	157.495	298.503	42.871	134.656	187.954	0.00023871	0.0001652	5.3983e-05	1032.8	1.4638e-06	2.3519e-06	1103.8	217.27	2.6824e-06	2.4465e-06	270.7	75.847	60.216	17.929	2.6343e-06	25.131	0.00037567	0.00040566	0.00011229	1012.6	4.613e-06	4.5038e-06	1089.7	216.2	4.3902e-06	4.5213e-06	269.21	76.576	60.884	18.197	4.4346e-06	25.317	84.281	134.864	123.232	4.299	245.566	119.184	4.274	12.089	144.848	165.198	11.219	18.552	18.788	25.860	195.952	25.216	-8191	255	
3021.532	1	1	0	0	0.06198	0.078163	0.06578	0.18792	0.18687	0.095195	0.18532	0.36015	0.090278	0.36816	0.066911	0.25416	0.10912	0.14066	0.10844	0.27134	-2.6125	-2.3521	-2.9437	-2.9292	-2.3458	-3.2146	-2.55	-2.8042	-3.0646	-2.5042	-3.2521	-2.6646	-2.5646	-3.2104	-2.5062	-2.7562	123.965	172.974	233.520	285.929	182.111	9.271	14.119	318.036	279.531	173.151	38.565	287.221	51.216	286.038	177.078	241.833	0.00023766	7.0333e-05	0.00017306	1028.8	3.3627e-06	3.311e-06	1101.7	218.47	8.6758e-07	2.5019e-06	270.29	76.36	60.701	17.933	2.7983e-06	24.621	0.00037871	0.00041375	0.00011491	1011.2	4.562e-06	4.4639e-06	1089.4	216.67	4.4743e-06	4.4297e-06	269.1	76.606	61.154	18.181	4.4143e-06	25.173	89.423	87.318	47.531	4.477	157.030	133.978	4.463	11.849	97.734	177.570	11.650	17.860	18.178	25.907	168.430	25.602	-8191	255	
3021.628	1	1	0	0	0.14069	0.13494	0.35857	0.30524	0.24683	0.038839	0.38259	0.17175	0.082438	0.24765	0.02635	0.074677	0.16139	0.06391	0.17219	0.14461	-2.675	-2.2729	-2.9917	-2.8896	-2.5771	-3.1354	-2.5667	-2.7417	-2.9562	-2.3917	-3.0458	-3.1063	-2.3542	-3.1167	-2.5917	-2.5833	233.232	41.433	60.595	32.777	206.903	88.601	237.693	326.772	121.397	200.692	175.524	297.777	39.815	248.742	190.184	325.663	0.00024632	0.0003951	0.00010907	1029.4	1.7141e-06	3.5948e-06	1098.9	217.42	8.2529e-07	5.3638e-06	269.98	76.042	60.366	17.795	3.4842e-06	24.904	0.00038375	0.00041428	0.00011129	1012.1	4.6538e-06	4.4292e-06	1086.8	216.19	4.2901e-06	4.5976e-06	268.33	76.605	61.043	18.093	4.3993e-06	25.225	78.037	58.653	76.744	4.174	126.020	116.076	4.446	11.840	133.982	126.076	11.430	18.359	18.249	25.728	157.224	25.877	-8191	255	
3021.724	1	1	0	0	0.31327	0.33007	0.23058	0.30359	0.17788	0.041894	0.53007	0.072273	0.13258	0.17404	0.40816	0.35531	0.12255	0.23168	0.22373	0.34514	-2.7938	-2.35	-2.6333	-2.9708	-2.325	-3.1188	-2.8104	-2.5896	-3.0333	-2.2792	-2.9521	-3.0625	-2.3146	-3.0021	-2.5042	-2.5458	79.230	233.697	184.498	73.782	279.209	260.021	294.525	241.693	349.944	217.574	292.486	329.800	325.145	151.811	141.439	304.663	0.00025945	0.00015654	2.3091e-05	1026.9	3.5246e-06	4.6542e-06	1100	217.91	2.3557e-06	3.7239e-06	269.27	76.374	61.152	17.921	1.3894e-06	24.759	0.00036986	0.00041621	0.00011335	1011.1	4.5792e-06	4.3966e-06	1086	216.49	4.2648e-06	4.3618e-06	268.8	76.637	61.096	18.128	4.2549e-06	25.095	86.886	75.376	302.575	4.471	158.556	156.005	4.360	11.796	178.360	126.585	11.726	18.151	18.743	25.947	144.767	25.357	-8191	255	
3021.820	1	1	0	0	0.29653	0.084189	0.1462	0.13628	0.12381	0.18797	0.38151	0.15087	0.21172	0.15596	0.14687	0.22978	0.038864	0.21136	0.1508	0.22546	-2.8021	-2.3438	-2.65	-3.1729	-2.4062	-3.0396	-2.7854	-2.5062	-3.1896	-2.5271	-2.6333	-3.2083	-2.1562	-2.95	-2.7438	-2.3104	197.723	128.715	165.502	6.593	265.852	65.781	266.082	7.365	225.176	71.859	178.832	181.224	217.269	327.374	171.366	309.155	0.00022047	0.00024271	6.7575e-05	1025	4.4828e-06	2.3708e-06	1104.4	216.84	5.984e-06	3.1515e-06	270.11	75.854	60.898	17.992	4.9566e-06	24.718	0.00035898	0.00040143	0.00011074	1011.5	4.5647e-06	4.305e-06	1085.5	216.03	4.457e-06	4.3796e-06	268.91	76.484	61.303	18.158	4.4308e-06	25.181	75.423	153.979	51.875	4.560	111.695	113.822	4.625	12.057	123.792	167.523	11.849	18.213	18.659	25.819	126.293	25.304	-8191	255	
3021.941	1	1	0	0	0.087397	0.17704	0.11892	0.072587	0.1823	0.20006	0.28867	0.30683	0.035081	0.10429	0.14017	0.26894	0.27578	0.068314	0.1511	0.23166	-2.5938	-2.6688	-2.6063	-3.3417	-2.3854	-2.8958	-3.0854	-2.3479	-3.1083	-2.6	-2.5854	-3.0125	-2.4417	-2.9292	-2.9958	-2.3667	336.756	226.680	-0.663	33.012	237.733	296.583	347.958	278.425	28.936	92.304	270.281	298.432	286.638	184.768	64.807	209.320	0.00023208	0.00022673	5.822e-05	1028.5	6.2632e-07	2.3074e-06	1104.9	217.67	1.2764e-06	3.9083e-06	269.76	76.144	59.817	17.901	1.8391e-06	24.863	0.00037716	0.00039545	0.00011195	1010.1	4.5676e-06	4.4986e-06	1087.4	215.85	4.4343e-06	4.4309e-06	268.54	76.343	60.886	18.127	4.4196e-06	25.143	97.208	46.105	121.830	4.406	158.837	77.386	4.511	11.821	183.083	179.782	11.740	18.339	18.678	26.055	101.317	25.471	-8191	255	
3022.037	1	1	0	0	0.10687	0.15998	0.17034	0.23065	0.34278	0.22892	0.084035	0.25375	0.35282	0.11682	0.22937	0.18079	0.14007	0.13676	0.12189	0.18073	-2.6708	-2.5854	-2.4688	-3.2417	-2.5354	-2.7958	-3.0479	-2.5104	-2.9313	-2.6333	-2.5563	-2.9854	-2.5	-2.8667	-3.075	-2.4437	121.287	17.619	105.228	343.765	183.833	9.721	227.062	318.433	329.897	349.123	342.771	263.057	45.999	106.155	297.034	271.853	0.00018577	0.0002272	0.00010107	1026.7	2.3199e-06	4.2692e-06	1107.5	218.32	6.561e-06	3.3519e-06	268.57	76.137	60.263	17.893	1.1346e-07	24.801	0.0003896	0.00041561	0.00011445	1009.8	4.3934e-06	4.5394e-06	1087	216.19	4.3796e-06	4.3968e-06	268.54	76.33	61.026	18.08	4.458e-06	25.174	89.034	347.562	53.008	4.857	126.103	201.140	4.324	11.956	142.193	103.905	11.431	18.330	19.041	25.847	321.761	25.429	-8191	255	
3022.131	1	1	0	0	0.15104	0.21827	0.34633	0.20455	0.1682	0.093097	0.15285	0.22621	0.081743	0.15853	0.012862	0.18609	0.22076	0.1121	0.14984	0.14883	-2.5167	-2.7042	-2.3229	-3.2271	-2.5042	-2.7562	-3.125	-2.3833	-3.0333	-2.7146	-2.575	-3.2208	-2.4562	-2.7146	-3.0563	-2.4167	326.701	217.789	-5.762	9.215	5.663	317.015	232.520	279.128	178.003	247.675	114.005	266.053	177.385	17.352	225.754	77.945	0.00019939	0.00021489	5.0627e-05	1027.5	4.0308e-06	2.031e-06	1102.1	216.87	3.0005e-06	3.7851e-06	270.69	75.685	60.486	17.89	3.6525e-06	24.761	0.00037376	0.00041641	0.00011319	1010	4.4714e-06	4.4716e-06	1086.2	215.76	4.4468e-06	4.5808e-06	268.5	76.284	61.13	18.086	4.3526e-06	25.206	95.328	94.555	45.427	4.366	163.662	154.333	4.457	11.962	197.773	138.355	11.530	18.374	18.552	26.071	131.860	25.266	-8191	255	
3022.227	1	1	0	0	0.096591	0.073018	0.065821	0.11266	0.15295	0.19671	0.29043	0.20983	0.091996	0.10663	0.1099	0.11715	0.083703	0.23766	0.17908	0.018895	-2.7729	-2.7396	-2.4854	-3.2125	-2.5271	-2.4979	-3.1333	-2.5146	-2.8438	-2.975	-2.4479	-3.1437	-2.6646	-2.6083	-2.975	-2.3	286.528	95.062	268.004	323.432	66.212	262.533	345.958	28.584	47.097	107.258	1.010	82.571	77.752	302.413	319.402	214.218	0.00023158	0.00031038	7.3251e-05	1024.9	4.0727e-06	3.4625e-06	1104	216.75	4.3071e-06	5.3103e-06	268.42	76.383	60.431	17.848	3.1409e-06	24.698	0.00038238	0.00041135	0.00011391	1006.3	4.3949e-06	4.5445e-06	1085.4	215.85	4.4086e-06	4.5439e-06	268.12	76.678	60.816	18.092	4.3286e-06	25.113	88.993	70.712	97.115	4.520	153.745	137.591	4.470	12.058	164.596	162.242	11.711	18.443	18.805	25.871	94.261	25.091	-8191	255	
3022.324	1	1	0	0	0.22207	0.05915	0.24587	0.30748	0.20344	0.31737	0.21216	0.1447	0.21394	0.34671	0.10255	0.25364	0.076618	0.12619	0.26096	0.20053	-2.4729	-3.1604	-2.2583	-3.1021	-2.7417	-2.4	-3.4188	-2.6688	-2.875	-3.0104	-2.3	-3.0792	-2.6521	-2.7979	-3.2729	-2.6042	43.458	128.309	312.060	22.915	331.345	230.559	276.172	50.210	269.974	32.399	313.649	262.759	26.199	31.146	53.864	64.404	0.00016768	0.00023528	8.3381e-05	1026.8	3.3181e-06	3.3225e-06	1100.7	216.61	2.6724e-06	2.3865e-06	268.81	75.833	60.643	17.762	1.7057e-06	24.872	0.00036758	0.00041162	0.0001151	1009.1	4.6014e-06	4.5001e-06	1084.6	215.66	4.5158e-06	4.4949e-06	267.83	76.328	61.097	18.088	4.4555e-06	25.14	101.772	89.623	71.790	4.410	85.140	149.706	4.419	11.877	183.683	111.008	11.899	18.485	19.079	26.477	100.079	25.694	-8191	255	
3022.420	1	1	0	0	0.16495	0.042758	0.066455	0.60226	0.18937	0.14126	0.26919	0.19591	0.093636	0.14751	0.22845	0.15867	0.068653	0.11481	0.15726	0.14489	-2.2042	-3.1208	-2.3063	-2.9917	-2.9083	-2.2458	-3.3083	-2.7562	-2.7667	-3.1583	-2.4604	-3.075	-2.7604	-2.2917	-3.0208	-2.4979	171.733	43.201	94.207	306.910	333.694	51.654	215.252	79.911	210.083	144.677	220.141	333.136	51.806	326.355	29.454	269.706	0.00019144	0.00013229	0.00011395	1031.1	3.7947e-06	3.5455e-06	1106.7	216.08	4.0624e-06	6.1409e-06	270.01	75.796	60.509	17.679	2.71e-06	24.557	0.00038598	0.00040794	0.0001168	1010.8	4.4832e-06	4.5275e-06	1086.7	215.3	4.419e-06	4.575e-06	268.33	76.223	61.128	18.051	4.3891e-06	25.019	92.430	100.459	55.492	4.648	153.240	159.134	4.695	11.820	165.925	151.491	11.407	18.413	18.842	26.231	153.929	25.378	-8191	255	
3022.516	1	1	0	0	0.014967	0.14868	0.18727	0.2724	0.2065	0.047945	0.22926	0.10365	0.056708	0.14961	0.20984	0.13726	0.33196	0.17007	0.092545	0.12986	-2.1208	-3.2458	-2.2708	-2.8271	-2.9646	-2.3375	-3.3396	-2.6042	-2.6813	-3.2042	-2.2208	-2.8438	-2.7542	-2.3958	-3.0417	-2.7083	267.142	137.828	87.329	6.511	102.263	76.673	315.370	91.597	47.828	115.287	1.003	347.306	140.167	120.866	282.678	88.563	0.00020385	0.00024074	8.9788e-05	1029.6	2.747e-06	3.9791e-06	1103.6	217.52	3.6823e-06	9.7802e-07	269.1	76.016	59.78	17.664	1.6598e-06	24.612	0.00038004	0.00041924	0.00011527	1009.8	4.4552e-06	4.6862e-06	1086.1	215.98	4.5464e-06	4.4503e-06	267.96	76.486	60.663	18.017	4.4047e-06	25.085	75.668	96.866	67.025	4.421	188.303	136.525	4.334	12.047	116.740	66.787	11.383	18.437	18.243	26.279	189.057	25.381	-8191	255	
3022.636	1	1	0	0	0.14618	0.13624	0.089559	0.10574	0.10692	0.15719	0.17995	0.13177	0.04754	0.17888	0.26328	0.14508	0.1002	0.067068	0.17766	0.084635	-2.0708	-3.0521	-2.3583	-2.6063	-3.0146	-2.2625	-3.1229	-2.7917	-2.4062	-3.0542	-2.4979	-2.7625	-2.9208	-2.2583	-2.875	-2.6917	236.875	105.193	16.960	183.133	56.819	353.253	242.353	-4.610	247.210	334.533	248.496	169.123	221.815	16.939	4.511	184.251	0.00024861	0.00040516	0.00010524	1027.1	4.137e-06	2.466e-06	1101.4	216.89	1.1552e-06	3.4759e-07	268.27	75.882	60.58	17.664	3.9105e-06	24.627	0.00038159	0.00040884	0.00011385	1011.5	4.5667e-06	4.6049e-06	1083.2	215.77	4.5789e-06	4.4868e-06	268.09	76.201	61.074	17.998	4.4863e-06	25.04	102.697	69.584	29.709	4.476	196.527	174.984	4.679	11.755	166.892	242.305	11.386	18.336	18.947	25.986	109.677	25.089	-8191	255	
3022.733	1	1	0	0	0.2137	0.054691	0.22492	0.32008	0.16631	0.18569	0.41387	0.25401	0.17205	0.1681	0.15786	0.2192	0.20422	0.15982	0.24932	0.29855	-1.9	-2.9604	-2.425	-2.6188	-2.9042	-2.2354	-2.9938	-2.9583	-2.2229	-3.1375	-2.3	-2.5167	-3.0312	-2.2917	-3.0104	-2.925	336.993	210.689	305.282	320.532	49.298	32.270	311.695	238.060	151.721	323.503	229.824	251.792	41.524	56.920	31.999	137.105	0.0002335	0.00030518	9.0097e-05	1029.9	2.409e-06	2.5023e-06	1094.3	216.3	5.6091e-06	2.2195e-06	269.74	75.843	60.073	17.737	3.7523e-06	24.752	0.00038159	0.00040908	0.00011397	1010.9	4.6625e-06	4.6129e-06	1083.4	215.26	4.4756e-06	4.5336e-06	268.39	76.327	60.695	18.009	4.3872e-06	25.037	83.500	109.173	57.817	4.718	174.530	174.796	4.306	11.716	164.282	209.521	11.466	18.340	18.551	26.000	171.091	25.242	-8191	255	
3022.829	1	1	0	0	0.11228	0.38798	0.030659	0.20724	0.092484	0.054819	0.1909	0.15797	0.092933	0.090916	0.1698	0.21383	0.31372	0.053371	0.19714	0.23351	-1.7812	-3.1292	-2.7021	-2.6042	-2.9708	-2.3187	-2.9813	-2.9667	-2.4562	-3.1021	-2.6542	-2.5917	-3.0417	-2.4396	-2.8208	-3.0021	197.288	230.241	-0.290	249.893	236.511	194.770	274.418	73.102	130.605	314.005	33.453	265.268	338.610	317.566	233.419	334.801	0.00018999	0.00027893	7.2326e-05	1026.4	3.3576e-06	4.5749e-06	1096.3	216.73	3.3423e-06	1.9291e-06	268.76	75.706	60.331	17.838	3.9383e-06	24.545	0.00038085	0.00041952	0.00011562	1009.5	4.5147e-06	4.5407e-06	1084.6	215.63	4.4801e-06	4.6257e-06	267.77	76.356	60.96	18.026	4.3864e-06	24.985	104.567	115.467	49.331	4.502	175.289	104.988	4.257	11.643	175.307	198.029	11.418	18.491	19.229	26.018	196.697	25.051	-8191	255	
3022.900	1	1	0	0	0.051941	0.090018	0.23658	0.1937	0.14981	0.243	0.28844	0.12616	0.38995	0.29567	0.12968	0.16228	0.24243	0.22004	0.12606	0.13066	-1.9042	-2.975	-2.5833	-2.4896	-3.0979	-2.3333	-2.7167	-3.0708	-2.175	-2.9437	-2.7708	-2.5708	-3.1583	-2.4583	-2.5125	-3.1688	244.058	184.411	263.209	335.071	233.606	78.445	299.561	295.127	245.284	333.734	176.323	275.942	195.115	341.160	91.325	122.481	0.0002213	0.00028752	9.0761e-05	1028.4	1.3444e-06	1.6815e-06	1097.8	217.38	2.7786e-06	2.3688e-06	269.23	76.193	60.404	17.76	3.9147e-07	24.629	0.0003887	0.00041578	0.00011298	1008.7	4.4517e-06	4.5907e-06	1083.4	215.77	4.5068e-06	4.3384e-06	267.68	76.44	61.111	18.016	4.4999e-06	25.041	81.753	29.223	86.729	4.461	201.177	80.870	4.649	11.490	160.068	137.584	11.195	18.211	18.891	26.043	211.429	25.138	-8191	255	
3023.021	1	1	0	0	0.26662	0.1293	0.16315	0.18091	0.2884	0.1999	0.38083	0.1226	0.13984	0.38186	0.10805	0.12254	0.42581	0.1177	0.096158	0.11359	-1.9562	-2.9396	-2.8083	-2.3875	-3.0271	-2.3479	-2.6875	-3.2708	-2.2562	-2.8125	-2.9146	-2.2646	-3.0854	-2.5229	-2.5021	-3.15	80.195	313.314	225.700	227.979	15.761	102.422	293.833	338.598	82.132	96.975	251.778	272.284	306.467	56.439	329.147	1.156	0.00023412	0.00032009	6.6041e-05	1026	2.8484e-06	3.2144e-06	1101.3	216.98	1.0953e-06	4.0224e-06	269.8	76.084	60.361	17.699	9.7752e-07	24.661	0.00038984	0.00041529	0.00011176	1008.9	4.5064e-06	4.4898e-06	1082.7	215.57	4.5168e-06	4.5593e-06	268.33	76.441	60.999	18.019	4.488e-06	25.072	104.091	85.854	107.458	4.518	139.551	136.111	4.488	11.806	26.787	136.233	11.326	18.583	19.043	26.065	115.254	25.493	-8191	255	
3023.115	1	1	0	0	0.050631	0.14091	0.17562	0.2063	0.42169	0.1949	0.37839	0.24287	0.29252	0.222	0.10773	0.027267	0.032871	0.15748	0.12613	0.17307	-1.825	-2.725	-3.0812	-2.3979	-2.9292	-2.6937	-2.6083	-3.2146	-2.4437	-2.9146	-3.1583	-2.4521	-3.1	-2.5812	-2.3688	-3.225	144.319	87.474	147.708	336.967	72.709	83.386	297.212	290.278	76.572	66.237	327.839	57.528	175.474	270.984	30.198	16.807	0.00020825	0.00032375	3.4975e-05	1022.1	2.284e-06	1.8833e-06	1101.6	216.9	3.9381e-06	2.8969e-06	268.38	76.46	60.292	17.694	1.0309e-06	24.715	0.00040081	0.00041451	0.00011567	1009.1	4.5414e-06	4.5008e-06	1085.2	215.48	4.6332e-06	4.6216e-06	267.83	76.605	60.953	17.957	4.6013e-06	25.044	99.523	71.556	-2.976	4.701	117.312	191.576	4.473	11.943	105.916	190.434	11.345	18.267	18.856	26.524	180.504	25.442	-8191	255	
3023.212	1	1	0	0	0.1474	0.10075	0.19046	0.13841	0.077987	0.069199	0.099374	0.070755	0.12047	0.14797	0.21834	0.11021	0.12089	0.14267	0.25689	0.22631	-1.8979	-2.5687	-3.0146	-2.5354	-3.1333	-2.7896	-2.5229	-3.2167	-2.3917	-2.6312	-3.1542	-2.2854	-2.9229	-2.9021	-2.2667	-3.2917	226.921	279.798	73.814	326.883	133.608	120.506	209.059	-1.468	347.037	67.911	28.765	101.050	236.675	122.362	277.392	284.681	0.00020074	0.00037219	3.5919e-05	1030.6	3.2202e-06	1.3567e-06	1103.3	217.21	9.6504e-07	2.2484e-06	269.26	75.714	60.415	17.764	2.1244e-06	24.628	0.00038387	0.00041588	0.00011462	1008.5	4.5251e-06	4.6019e-06	1083	215.25	4.4282e-06	4.4586e-06	267.92	76.262	61.02	17.991	4.5919e-06	24.984	87.349	91.926	345.646	4.673	158.509	132.713	4.574	12.095	175.235	122.455	11.416	18.286	18.962	25.962	123.102	25.644	-8191	255	
3023.310	1	1	0	0	0.28931	0.23788	0.24229	0.14929	0.095067	0.11561	0.082962	0.10719	0.045806	0.172	0.1504	0.31921	0.080752	0.2421	0.38298	0.23626	-2.1312	-2.6937	-3.0229	-2.525	-2.8125	-2.8792	-2.3396	-3.1396	-2.5333	-2.3292	-3.2625	-2.4333	-2.8083	-2.8646	-2.2771	-3.0583	186.211	0.849	198.704	283.581	290.989	312.977	287.692	315.374	112.134	38.140	119.651	-5.611	301.760	334.381	53.090	183.906	0.00018879	0.00020536	6.2627e-05	1024.9	3.1239e-06	3.3918e-06	1099.8	218.04	1.6479e-06	5.2666e-06	268.66	75.726	61.02	17.632	1.8983e-06	24.633	0.00038213	0.00041766	0.00011501	1007.4	4.5616e-06	4.5281e-06	1085.5	215.95	4.4729e-06	4.5838e-06	267.83	76.243	61.26	17.996	4.4699e-06	25.071	91.669	80.221	64.467	4.516	112.747	83.242	4.706	11.953	292.677	170.057	11.365	18.596	19.120	26.460	123.875	25.761	-8191	255	
3023.428	1	1	0	0	0.086931	0.1651	0.10713	0.054459	0.26691	0.14037	0.12259	0.10078	0.10608	0.50188	0.077857	0.1886	0.21797	0.13697	0.059535	0.13419	-2.1625	-2.375	-3.1	-2.4458	-2.8083	-2.9833	-2.4083	-3.3	-2.5687	-2.5917	-3.0292	-2.375	-2.7771	-3.0333	-2.3583	-2.9729	103.937	277.218	221.440	247.274	301.754	105.762	305.093	295.909	125.948	62.955	302.477	270.024	220.215	36.173	221.168	2.307	0.00015859	0.00018027	6.686e-05	1022.3	1.5458e-06	4.0156e-06	1100.4	217.46	2.2742e-06	2.4801e-06	269.05	75.238	60.144	17.812	1.3619e-06	24.811	0.00037944	0.00041252	0.00011376	1007.1	4.545e-06	4.4757e-06	1085.4	215.48	4.3336e-06	4.5881e-06	267.93	76.174	60.814	18.025	4.4615e-06	25.074	89.829	48.656	167.533	4.611	147.785	143.120	4.615	12.019	120.476	100.549	11.562	18.191	18.595	26.458	188.662	25.743	-8191	255	
3023.500	1	1	0	0	0.2008	0.04608	0.17182	0.062196	0.20417	0.16681	0.25349	0.15446	0.34635	0.030285	0.12574	0.20256	0.18329	0.2938	0.14409	0.30292	-2.5146	-2.4938	-3.2021	-2.6479	-2.5458	-3.1312	-2.4313	-3.0792	-2.9125	-2.4083	-3.2687	-2.6396	-2.5604	-3.0146	-2.4979	-2.9354	191.420	323.385	257.478	60.462	113.826	11.798	235.850	299.369	141.774	204.588	353.765	307.148	249.013	-1.661	171.680	254.202	0.00018534	0.00026652	5.139e-05	1028.2	1.88e-06	5.9193e-06	1095.8	216.26	3.4598e-06	3.2469e-06	271.03	75.704	59.963	17.708	3.0325e-06	24.563	0.00037379	0.00040648	0.00011422	1008.9	4.5618e-06	4.4654e-06	1082.7	215.47	4.3612e-06	4.4479e-06	268.57	76.181	60.679	18.016	4.5108e-06	25.001	99.070	108.523	125.963	4.606	169.904	159.020	4.188	11.906	111.617	136.335	11.634	18.649	19.140	25.944	102.054	25.350	-8191	255	
3023.621	1	1	0	0	0.054628	0.179	0.12394	0.19682	0.023492	0.19237	0.17203	0.23322	0.082195	0.052171	0.066309	0.25096	0.20531	0.15062	0.2111	0.17013	-2.6792	-2.2792	-3.0146	-2.7854	-2.5354	-3.0917	-2.5417	-2.9583	-3	-2.4479	-3.3021	-2.6146	-2.5917	-3.0396	-2.2771	-2.8979	50.053	17.948	32.394	47.815	115.748	98.379	256.190	313.075	117.233	2.415	303.459	274.437	260.564	339.764	187.039	206.012	0.00022881	2.1866e-05	0.00010904	1027.4	2.9681e-06	2.1546e-06	1098.6	216.8	4.0617e-06	1.3313e-06	270.14	75.795	60.35	17.692	3.8427e-06	24.727	0.00037046	0.000416	0.00011422	1009.6	4.5373e-06	4.4844e-06	1082.3	215.57	4.4104e-06	4.4969e-06	268.34	76.102	60.98	18.015	4.56e-06	25.079	97.439	67.475	88.821	4.454	193.354	173.442	4.513	11.829	152.558	172.140	11.735	18.408	18.580	26.237	148.524	25.621	-8191	255	
3023.717	1	1	0	0	0.28799	0.13639	0.19535	0.16163	0.15232	0.1544	0.15665	0.13393	0.15768	0.054517	0.19925	0.095237	0.23698	0.052398	0.13176	0.15543	-2.5875	-2.3542	-3.0062	-2.7313	-2.3104	-3.1937	-2.7417	-2.8688	-3.0833	-2.3625	-3.0708	-2.85	-2.5583	-3.2604	-2.4562	-2.6417	138.606	38.557	89.818	267.382	201.389	286.395	26.446	292.386	103.186	24.501	328.398	33.490	298.752	297.813	338.214	336.880	0.00017059	0.00042305	8.2248e-05	1025.3	2.4592e-06	4.2715e-06	1097.2	217.64	3.0046e-06	3.7054e-06	269.17	76.103	60.423	17.779	4.141e-06	24.668	0.00037471	0.00042702	0.00011091	1009.3	4.4863e-06	4.4501e-06	1082.5	215.85	4.4002e-06	4.4123e-06	267.66	76.536	60.988	17.975	4.4886e-06	25.022	95.545	80.101	67.281	4.292	231.230	167.118	4.835	12.025	145.254	159.319	11.686	18.484	18.943	25.942	129.390	25.648	-8191	255	
3023.813	1	1	0	0	0.14047	0.18596	0.17483	0.1037	0.19502	0.080897	0.28316	0.039552	0.21103	0.11538	0.19393	0.18885	0.23145	0.10002	0.13146	0.23756	-2.5583	-2.3187	-3.0167	-3.0354	-2.4333	-3.0896	-2.6708	-2.6625	-3.1708	-2.3854	-2.9708	-2.8854	-2.2188	-3.1375	-2.6437	-2.6958	-0.342	22.856	232.100	79.015	11.401	309.730	328.382	153.851	83.769	44.169	70.448	97.948	6.514	234.465	3.921	325.160	0.00021967	0.00028729	4.5038e-05	1024.9	5.1684e-06	3.4974e-06	1100.5	217.89	3.9118e-06	3.9421e-06	270.06	76.028	60.556	17.797	5.7197e-06	24.698	0.00036982	0.00041434	0.00011286	1008.4	4.5854e-06	4.4738e-06	1083.9	215.7	4.4729e-06	4.5222e-06	268.48	76.334	60.896	18.048	4.482e-06	25.084	96.384	75.011	94.386	4.462	161.297	165.975	4.373	11.972	123.873	151.385	11.822	18.436	18.620	26.187	143.147	25.881	-8191	255	
3023.909	1	1	0	0	0.11301	0.11294	0.095208	0.18028	0.18115	0.14163	0.090453	0.08413	0.37157	0.20749	0.017581	0.12116	0.16285	0.17692	0.17436	0.29198	-2.7917	-2.5312	-2.9042	-2.9792	-2.1479	-3.2271	-2.7229	-2.55	-3.2083	-2.2167	-2.7979	-3.0417	-2.3625	-3.1458	-2.6583	-2.4479	164.053	33.303	173.371	348.774	241.882	19.392	224.915	214.005	217.646	162.955	66.907	97.448	42.776	181.014	191.024	275.794	0.00018468	0.00040036	0.00013946	1031.5	1.952e-06	2.9051e-06	1100.9	216.24	3.5033e-06	1.3315e-06	269.79	76.035	60.286	17.646	2.1248e-06	24.588	0.00036479	0.00043293	0.00011266	1008.8	4.4158e-06	4.4814e-06	1083.1	215.41	4.4296e-06	4.5082e-06	268.3	76.408	60.817	18.012	4.5899e-06	25.034	96.067	91.177	56.405	4.762	99.188	153.268	4.824	12.182	123.454	127.976	12.414	18.718	19.111	26.038	181.253	25.519	-8191	255	
3024.030	1	1	0	0	0.1367	0.15813	0.11011	0.18534	0.27988	0.13019	0.26009	0.24378	0.18084	0.20162	0.3442	0.19103	0.093419	0.21311	0.19778	0.19029	-2.6604	-2.5375	-2.6813	-3.0854	-2.1375	-2.9667	-3.0729	-2.5	-3.1375	-2.5438	-2.8875	-3.2271	-2.1937	-2.9938	-2.8167	-2.5583	222.130	123.797	137.038	307.334	350.281	290.789	309.505	348.571	32.384	58.047	10.579	293.380	309.038	20.834	29.302	325.244	0.00022242	0.00028618	6.0538e-05	1026.2	3.6352e-06	3.3191e-06	1097.7	217.61	1.1935e-06	4.0884e-06	269.18	75.201	60.693	17.667	2.4935e-06	24.601	0.00036888	0.00041015	0.00011361	1007.2	4.4621e-06	4.3552e-06	1083	215.22	4.3798e-06	4.5827e-06	268.15	76.202	60.996	17.985	4.4778e-06	25.06	96.383	114.111	15.523	4.570	152.981	132.632	4.654	12.062	131.174	158.837	11.756	18.291	18.772	26.124	144.219	25.862	-8191	255	
3024.124	1	1	0	0	0.21024	0.050505	0.090583	0.0837	0.024254	0.16987	0.19265	0.27899	0.17256	0.14943	0.092659	0.17319	0.18891	0.15771	0.12746	0.083034	-2.7417	-2.3771	-2.6542	-3.1354	-2.225	-2.975	-3.0979	-2.3646	-3.0187	-2.5792	-2.6208	-3.2125	-2.2542	-2.8354	-3.0292	-2.225	0.192	325.864	37.680	282.564	90.967	64.266	287.190	322.932	222.758	62.099	305.162	351.512	230.486	248.825	224.602	199.766	0.0001884	0.00036677	7.8057e-05	1026.6	4.9724e-06	2.9562e-06	1098.4	215.71	3.807e-06	3.3479e-06	268.68	76.152	60.373	17.686	2.1599e-06	24.669	0.00037354	0.00041455	0.00011313	1008.6	4.4135e-06	4.4792e-06	1082.2	215.29	4.3244e-06	4.4859e-06	268.31	76.078	60.981	17.988	4.416e-06	25.068	95.484	56.240	67.106	4.410	164.743	145.007	4.415	11.913	179.684	164.888	11.783	18.459	18.685	26.343	148.967	26.353	-8191	255	
3024.220	1	1	0	0	0.099144	0.033658	0.13682	0.35533	0.12391	0.14655	0.13468	0.18814	0.20237	0.10384	0.3877	0.1603	0.014434	0.099419	0.17876	0.23202	-2.5625	-2.5708	-2.5583	-3.2812	-2.475	-2.8896	-3.2438	-2.4208	-2.9375	-2.6396	-2.5958	-3.0667	-2.4208	-2.8063	-3.0167	-2.3688	151.831	161.382	254.147	-3.270	275.757	243.053	318.065	152.269	96.172	292.698	266.966	309.860	97.535	6.341	163.446	227.644	0.00015585	0.0002335	2.1643e-05	1021.8	2.2283e-06	4.0087e-06	1098.9	216.09	6.3132e-06	3.0553e-06	267.7	76.069	60.77	17.836	3.0297e-06	24.58	0.00037428	0.00039985	0.00011714	1005.6	4.471e-06	4.6112e-06	1082.1	215.07	4.3065e-06	4.5203e-06	267.52	76.401	60.94	18.058	4.4131e-06	24.965	77.793	84.355	28.997	4.429	123.842	166.761	4.586	12.121	136.009	170.085	11.894	18.707	19.010	26.417	49.329	25.740	-8191	255	
3024.316	1	1	0	0	0.23685	0.145	0.20244	0.12746	0.11295	0.13502	0.23094	0.026734	0.084725	0.065497	0.076367	0.12918	0.30645	0.23214	0.21445	0.06658	-2.6479	-2.7125	-2.5354	-3.1813	-2.425	-2.6729	-3.1208	-2.4188	-3.0333	-2.8042	-2.2958	-3.2104	-2.5062	-2.5417	-3.0021	-2.5167	278.789	315.725	326.177	224.939	175.217	21.647	318.191	209.805	59.230	4.311	292.049	153.270	337.372	313.238	219.693	295.997	0.00021521	0.00023712	8.3966e-05	1023.4	1.762e-06	2.3988e-06	1098.6	217.13	2.6892e-06	2.2261e-06	268.8	75.229	60.32	17.754	1.826e-06	24.623	0.00037793	0.00040828	0.00011558	1007	4.4902e-06	4.5372e-06	1081.7	215.41	4.2861e-06	4.3397e-06	267.7	76.03	60.678	17.959	4.3993e-06	25.051	96.481	20.445	113.346	4.641	145.203	69.144	4.373	12.022	136.077	157.021	11.711	18.641	19.244	26.071	137.875	25.688	-8191	255	
3024.413	1	1	0	0	0.08317	0.20129	0.25556	0.194	0.17664	0.099747	0.17189	0.19154	0.2216	0.2119	0.0933	0.23436	0.1383	0.13019	0.16276	0.16506	-2.6104	-3.0229	-2.3146	-3.1104	-2.4542	-2.375	-3.1521	-2.4333	-2.8979	-3.0354	-2.4188	-3.1417	-2.5042	-2.3708	-3.2208	-2.5042	199.879	211.914	54.270	307.685	42.307	257.428	284.610	10.765	230.234	239.209	180.539	317.042	94.892	19.288	334.213	81.639	0.00018391	0.00042695	2.2751e-05	1022.9	1.2835e-06	1.5895e-06	1099.1	216.61	2.0038e-06	4.5256e-06	270.01	75.836	59.866	17.771	1.6817e-06	24.695	0.00038121	0.00041481	0.0001158	1006.2	4.5e-06	4.59e-06	1080.8	214.94	4.6063e-06	4.3899e-06	267.74	76.184	60.591	18.016	4.3334e-06	25.052	105.464	108.687	78.156	4.394	123.744	184.583	4.591	12.357	169.623	167.897	12.032	18.153	18.893	26.013	185.221	25.725	-8191	255	
3024.509	1	1	0	0	0.10047	0.18536	0.13858	0.19275	0.075566	0.11665	0.11627	0.26853	0.11402	0.23036	0.20121	0.15263	0.12384	0.16881	0.21648	0.11218	-2.3667	-2.9229	-2.4437	-3.3146	-2.8042	-2.3979	-3.3292	-2.5833	-2.7396	-3.0042	-2.4271	-3.1208	-2.7812	-2.3875	-3.1979	-2.6292	10.319	114.265	214.507	353.691	24.377	274.548	192.805	347.181	217.781	304.106	23.649	342.637	148.963	315.533	340.963	230.603	0.00017532	0.00022643	4.2356e-05	1023.6	2.29e-06	2.5383e-06	1095.3	216.98	1.6023e-06	3.0725e-06	268.09	75.621	60.048	17.772	7.9493e-07	24.477	0.00036669	0.00040605	0.00011676	1005.4	4.5116e-06	4.4309e-06	1080.5	215.49	4.5021e-06	4.446e-06	267.76	76.126	60.658	17.996	4.3098e-06	24.959	89.346	74.085	36.672	4.842	138.868	139.999	4.655	12.115	35.666	193.387	11.607	18.499	19.392	26.508	172.030	26.248	-8191	255	
3024.605	1	1	0	0	0.15629	0.14774	0.22506	0.051665	0.07041	0.079596	0.32449	0.25257	0.30888	0.19768	0.14354	0.25412	0.24411	0.090484	0.15723	0.21208	-2.1937	-3.15	-2.3187	-2.9437	-2.8917	-2.3104	-3.2958	-2.5563	-2.7042	-3.2313	-2.4083	-2.9875	-3.0417	-2.2771	-3.2083	-2.6229	13.821	299.938	111.926	290.598	53.319	258.442	294.249	20.014	-3.584	218.170	23.432	285.700	276.695	4.451	53.207	0.422	0.0002218	0.00020527	6.2368e-05	1020.5	4.3449e-06	3.8833e-06	1093	217.36	4.5218e-06	2.052e-06	268.54	76.53	60.778	17.877	5.2362e-06	24.504	0.00037203	0.00039393	0.00011281	1004.9	4.3275e-06	4.471e-06	1079.4	215.45	4.4472e-06	4.2802e-06	267.16	76.44	60.787	17.999	4.3455e-06	24.975	78.998	97.439	58.189	4.552	138.057	111.803	4.688	12.235	140.068	127.035	11.802	18.533	19.080	26.609	123.172	25.734	-8191	255	
3024.726	1	1	0	0	0.16919	0.073361	0.21074	0.21708	0.056836	0.30943	0.11485	0.06906	0.32127	0.051691	0.17113	0.17725	0.14031	0.3341	0.41469	0.13226	-2.0375	-2.9437	-2.2125	-2.8208	-2.9354	-2.1562	-3.1562	-2.6875	-2.2896	-3.0687	-2.2354	-2.7271	-3	-2.2188	-3.0125	-2.6583	351.189	279.459	249.169	330.384	48.863	12.064	169.755	40.398	-0.710	103.758	-1.578	296.656	193.295	233.475	73.104	151.690	0.00017769	0.00012746	0.0001046	1023.7	2.8671e-06	3.9268e-06	1093	216.86	1.4013e-06	2.2821e-06	269.53	75.839	61.046	17.878	5.2227e-06	24.484	0.00037207	0.00040552	0.00011383	1005.7	4.3968e-06	4.4675e-06	1078.7	215.37	4.3763e-06	4.3725e-06	267.82	76.109	60.868	18.038	4.2349e-06	24.987	86.970	37.646	67.709	4.676	148.378	122.372	4.833	11.972	176.241	175.874	11.707	18.612	19.026	26.494	164.967	25.692	-8191	255	
3024.797	1	1	0	0	0.19924	0.13115	0.16111	0.1637	0.17368	0.16953	0.22422	0.041268	0.084845	0.1032	0.29184	0.29006	0.18871	0.25246	0.048935	0.12101	-1.8333	-3.0563	-2.4875	-2.7833	-3.1437	-2.3625	-2.9958	-2.8917	-2.3896	-3.1625	-2.4667	-2.8542	-3.0771	-2.3083	-2.9167	-2.7062	230.675	27.091	133.875	-4.660	234.237	149.697	61.516	-4.951	133.847	26.924	17.387	313.946	22.006	22.563	253.308	-4.122	0.00020686	0.00016664	5.9036e-05	1021.4	2.9083e-06	3.592e-06	1095.2	216.58	4.4432e-06	5.7819e-06	269.28	75.549	60.176	17.8	2.9994e-06	24.749	0.00037987	0.00038834	0.00011198	1003.4	4.3188e-06	4.3699e-06	1079.3	215.04	4.3371e-06	4.2577e-06	267.19	76.187	60.768	17.995	4.3693e-06	25.013	92.771	61.749	149.732	4.976	183.459	115.698	4.845	12.173	154.461	152.638	11.814	18.375	19.095	26.185	213.185	25.792	-8191	255	
3024.893	1	1	0	0	0.2198	0.23826	0.14714	0.10086	0.037889	0.14445	0.60085	0.18801	0.10674	0.043243	0.22722	0.42978	0.20704	0.17645	0.069328	0.077809	-2.0042	-3.0771	-2.7188	-2.7167	-3.2417	-2.4792	-2.9521	-2.9375	-2.6125	-3.2604	-2.6854	-2.5875	-3.2125	-2.425	-2.9667	-3.0438	192.989	14.736	56.692	171.957	22.672	208.939	259.897	285.238	5.913	139.255	259.231	280.910	268.269	305.788	13.833	318.357	0.0002231	0.00041723	6.7849e-05	1022.5	4.1543e-06	2.5915e-06	1091.7	216.33	3.2312e-06	1.9896e-06	267.59	76.048	59.959	17.768	3.5898e-06	24.682	0.00037576	0.0003864	0.00011153	1004	4.359e-06	4.4404e-06	1079.6	214.85	4.4464e-06	4.341e-06	267.03	76.212	60.659	17.984	4.3384e-06	24.948	86.864	101.850	77.940	4.599	122.701	105.894	4.718	12.118	158.587	189.869	11.418	18.817	19.463	26.646	153.042	25.571	-8191	255	
3024.990	1	1	0	0	0.24301	0.098227	0.20597	0.38285	0.053985	0.070921	0.37785	0.33762	0.09819	0.035154	0.28077	0.26691	0.30316	0.15217	0.19194	0.18557	-1.9417	-3.0854	-2.4167	-2.5729	-3.2313	-2.3958	-2.9292	-2.9771	-2.3458	-2.9562	-2.6167	-2.4896	-3.2521	-2.5729	-2.7021	-3.0583	118.165	83.497	286.606	38.140	172.644	167.879	298.713	222.529	170.235	24.969	300.613	65.773	250.405	34.566	328.425	93.738	0.00023523	0.00028406	7.0033e-05	1025.3	4.012e-06	4.4676e-06	1097.8	217.65	1.6627e-06	4.1781e-06	267.93	75.785	60.366	17.784	2.5081e-06	24.554	0.00036726	0.00040161	0.00011162	1006.5	4.4846e-06	4.3315e-06	1079.4	215.53	4.3449e-06	4.3386e-06	267.42	76.202	60.703	18.011	4.1664e-06	24.955	87.266	111.325	130.873	4.633	146.266	167.857	4.848	12.043	104.355	149.620	11.828	18.746	19.193	26.512	213.381	25.386	-8191	255	
3025.108	1	1	0	0	0.26456	0.10656	0.14809	0.26203	0.30205	0.15452	0.31039	0.30895	0.32694	0.05266	0.1204	0.17952	0.14463	0.065511	0.23281	0.22361	-1.8292	-3.1771	-2.8667	-2.4562	-3.0854	-2.3937	-2.7125	-3.2188	-2.2938	-2.9208	-2.7354	-2.3979	-3.2458	-2.5583	-2.7292	-3.1646	255.927	138.468	274.983	34.091	53.068	241.170	233.196	16.353	344.589	214.052	159.323	352.666	304.380	218.372	211.295	337.358	0.00021697	0.00025689	9.8896e-05	1019.1	2.7858e-06	3.3033e-06	1103	216.87	3.7132e-06	7.8122e-07	268.21	75.723	60.336	17.691	1.849e-06	24.607	0.00037679	0.00039836	0.00010767	1003.3	4.2444e-06	4.3617e-06	1080.9	214.97	4.3688e-06	4.2886e-06	267.19	76.113	60.758	17.975	4.3338e-06	24.959	87.775	106.824	80.360	4.730	163.504	174.888	4.917	12.205	178.542	184.935	11.957	18.757	19.258	26.051	211.225	25.867	-8191	255	
3025.205	1	1	0	0	0.092306	0.085322	0.062518	0.26747	0.1663	0.1902	0.2433	0.10599	0.25844	0.26773	0.061071	0.11226	0.084113	0.13657	0.20885	0.094342	-2.1458	-2.8729	-2.9625	-2.6104	-3.25	-2.5521	-2.7104	-3.3146	-2.4271	-3.0187	-3.2021	-2.3688	-3.1063	-2.6958	-2.4583	-3.3354	42.998	213.542	350.951	314.133	279.968	209.412	286.551	242.612	169.892	287.765	44.495	174.759	328.848	261.706	158.005	-4.085	0.00020683	0.00045736	0.00011007	1015.6	1.7594e-06	2.1681e-06	1097.9	216.87	2.6408e-06	9.9509e-07	269.34	75.758	60.838	17.645	2.8443e-06	24.623	0.00035932	0.00039033	0.00011008	1002.5	4.2496e-06	4.386e-06	1079.5	215.1	4.2942e-06	4.2884e-06	267.53	76.101	60.868	17.932	4.2921e-06	25.02	103.195	68.876	89.032	4.758	154.988	149.494	4.582	12.365	154.172	290.116	12.090	18.701	18.493	26.754	145.349	25.274	-8191	255	
3025.302	1	1	0	0	0.12942	0.22063	0.16992	0.20738	0.072578	0.17438	0.56706	0.11464	0.070561	0.1826	0.034984	0.29799	0.16034	0.10793	0.33342	0.15024	-1.9479	-2.8	-3.1125	-2.4167	-3.1417	-2.7021	-2.7125	-3.2854	-2.4729	-2.8312	-3.3083	-2.2458	-3.1312	-2.6312	-2.525	-3.3917	263.744	85.069	88.682	259.832	47.548	22.465	299.376	-5.351	141.013	119.890	52.466	51.214	17.817	188.305	237.465	284.440	0.00018403	0.00014005	4.3354e-05	1022.8	5.2168e-06	3.3794e-06	1096.9	216.38	4.3342e-06	1.9008e-06	266.18	76.091	59.493	17.732	4.2625e-06	24.418	0.00037172	0.00039909	0.00010685	1004.3	4.3541e-06	4.3338e-06	1079.3	214.55	4.2628e-06	4.2169e-06	266.72	76.166	60.541	17.97	4.3376e-06	24.9	101.432	15.298	73.275	4.748	123.264	164.470	4.840	12.210	160.586	166.266	11.622	18.570	19.706	26.393	143.821	25.586	-8191	255	
3025.397	1	1	0	0	0.21395	0.10227	0.18864	0.15878	0.048129	0.14602	0.39846	0.1877	0.16876	0.2089	0.34974	0.17695	0.189	0.19187	0.26326	0.19497	-2.1625	-2.6917	-2.9354	-2.4417	-2.9229	-2.9583	-2.5854	-3.3812	-2.575	-2.7583	-3.25	-2.3979	-3.0563	-2.8896	-2.375	-3.0917	202.644	188.149	144.889	248.286	248.252	289.262	330.168	292.723	266.115	35.632	294.440	316.925	223.896	69.535	13.867	315.152	0.0001908	0.00036685	0.00012165	1019.9	3.2995e-06	4.4756e-06	1096.4	216.19	3.0244e-06	3.1809e-06	268.68	76.083	60.697	17.943	2.972e-06	24.648	0.00036417	0.00039359	0.0001052	1003.6	4.2639e-06	4.2088e-06	1079.5	215.12	4.3136e-06	4.3448e-06	267.46	76.122	61.023	18.033	4.3601e-06	25.054	82.725	3.408	106.800	4.939	181.267	142.402	5.041	12.651	115.860	160.452	11.736	18.694	19.267	26.042	125.611	25.495	-8191	255	
3025.493	1	1	0	0	0.20409	0.09065	0.13602	0.23757	0.046591	0.1534	0.21385	0.23197	0.084053	0.082149	0.060544	0.24442	0.2937	0.071574	0.16791	0.28063	-2.2646	-2.4979	-3.2625	-2.4792	-2.8688	-3.0083	-2.4208	-3.1479	-2.5292	-2.6583	-3.3396	-2.6104	-2.6292	-3.0333	-2.2896	-3.1542	276.359	168.103	82.710	233.322	196.066	191.806	202.384	301.719	232.329	-5.658	291.269	85.188	254.507	261.756	208.377	62.632	0.00017257	0.00038098	0.00010731	1023.1	4.5875e-06	2.9912e-06	1096.9	216.8	4.3053e-06	2.7225e-06	267.77	76.046	60.198	17.743	1.0635e-06	24.56	0.00036371	0.00038466	0.00010664	1004.9	4.3169e-06	4.3837e-06	1077.8	215.55	4.3477e-06	4.2497e-06	266.96	76.204	60.707	17.985	4.2852e-06	24.999	98.987	74.021	75.688	4.025	137.616	118.888	4.247	11.798	118.334	123.472	11.325	18.290	18.392	26.152	135.700	25.194	-8191	255	
3025.589	1	1	0	0	0.038218	0.27551	0.2624	0.23632	0.20387	0.20518	0.30706	0.13352	0.32098	0.11422	0.042588	0.1518	0.15421	0.1147	0.17132	0.27635	-2.1792	-2.4896	-3.0833	-2.5521	-2.675	-3.0021	-2.4417	-3.1854	-2.75	-2.5125	-3.2167	-2.5917	-2.5729	-3.1542	-2.3604	-2.8667	286.344	79.915	226.721	34.346	146.319	262.882	324.744	258.760	86.862	32.776	121.392	33.051	217.859	207.277	68.571	74.041	0.00020317	0.00039264	5.3576e-05	1020.7	2.0001e-06	1.7663e-06	1094.1	216.62	8.8964e-07	4.6973e-06	269.64	75.856	59.873	17.697	2.2531e-06	24.847	0.00036418	0.00040509	0.00010704	1001.8	4.3907e-06	4.273e-06	1076.3	215.17	4.1825e-06	4.353e-06	267.11	76.149	60.443	17.963	4.2372e-06	25.089	92.245	111.627	132.339	4.098	138.551	146.166	4.372	11.548	122.145	199.318	11.064	18.310	18.782	25.989	189.642	24.725	-8191	255	
3025.710	1	1	0	0	0.15055	0.11535	0.15817	0.1121	0.18124	0.25115	0.19329	0.20666	0.13703	0.23192	0.098902	0.18317	0.20997	0.14947	0.21612	0.11077	-2.4542	-2.2375	-3.0896	-2.7208	-2.6417	-3.1958	-2.375	-3.0042	-3.0833	-2.1979	-3.0354	-2.6146	-2.4917	-3.1937	-2.3854	-2.825	243.915	128.263	236.594	251.453	279.824	313.380	300.968	258.550	215.500	230.733	103.579	15.399	20.486	120.949	69.227	274.091	0.00021199	0.00033451	5.1377e-05	1020.8	3.0811e-06	3.5246e-06	1095.4	216.46	3.2003e-06	2.5522e-06	268.66	75.145	60.519	17.648	3.1013e-06	24.685	0.00037528	0.00039559	0.00010936	1000.1	4.4096e-06	4.1738e-06	1076	214.85	4.3122e-06	4.447e-06	267.23	75.754	60.675	17.984	4.3236e-06	24.938	93.457	46.087	83.167	4.040	205.915	141.950	4.049	11.706	166.656	115.038	11.383	18.276	18.357	25.682	149.732	24.998	-8191	255	
3025.806	1	1	0	0	0.19589	0.16761	0.083467	0.1853	0.038058	0.13144	0.20179	0.15966	0.23988	0.30734	0.053112	0.19674	0.24028	0.34971	0.35723	0.16532	-2.5062	-2.3417	-2.9667	-2.7604	-2.4958	-3.1833	-2.6188	-2.8667	-3.025	-2.3771	-3.1312	-2.7375	-2.4688	-3.225	-2.6042	-3.0354	306.828	39.692	344.913	108.953	174.253	180.156	334.016	294.177	255.923	296.057	290.438	197.788	0.958	-4.674	96.850	34.376	0.00021257	0.0001176	5.8426e-05	1020.2	2.6135e-06	4.4024e-06	1091.9	217.63	3.9966e-06	1.8226e-06	267.86	74.947	60.054	17.787	2.2707e-06	24.362	0.00037212	0.00040224	0.00010755	1001.5	4.2956e-06	4.2957e-06	1077.1	215.2	4.2313e-06	4.2675e-06	266.3	75.846	60.704	17.957	4.3593e-06	24.946	77.278	72.802	83.830	4.386	131.027	75.509	4.078	11.699	142.356	47.239	11.073	18.543	18.739	25.743	145.193	25.185	-8191	255	
3025.902	1	1	0	0	0.25622	0.31402	0.33268	0.12886	0.19404	0.10732	0.14017	0.2676	0.28316	0.091848	0.18827	0.057352	0.2215	0.3042	0.17316	0.11749	-2.6833	-2.4	-3.2021	-2.7708	-2.425	-3.1292	-2.5563	-2.8875	-3.1083	-2.4854	-3.0917	-3.0396	-2.4229	-3.1896	-2.6437	-2.8563	244.952	350.543	155.288	317.764	56.108	49.126	229.457	73.064	228.252	126.760	347.240	269.079	291.962	24.291	343.170	82.072	0.00021492	0.00014557	7.8669e-05	1023	3.8324e-06	5.8825e-06	1090.7	216.85	1.6973e-06	1.3276e-06	267.71	75.412	59.729	17.685	2.9823e-06	24.428	0.0003599	0.00039483	0.00010647	1000.3	4.3263e-06	4.2383e-06	1075	214.63	4.2311e-06	4.2972e-06	266.96	76.015	60.651	17.965	4.3186e-06	24.957	94.741	108.849	59.701	4.451	174.707	183.622	4.569	11.561	37.237	103.861	11.506	17.884	19.014	26.282	159.005	25.329	-8191	255	
3026.023	1	1	0	0	0.14357	0.16425	0.17573	0.28008	0.15352	0.16843	0.043896	0.065131	0.19679	0.13157	0.21033	0.24797	0.25501	0.33801	0.27818	0.27121	-2.8479	-2.3167	-3.0333	-3.0438	-2.4688	-3.1625	-2.7125	-2.6396	-3.0625	-2.3729	-3.0771	-2.9417	-2.3333	-3.2021	-2.6583	-2.8375	63.631	126.230	183.072	332.954	111.145	269.745	28.119	329.928	166.515	47.587	65.261	271.911	37.073	333.652	339.132	344.444	0.00019334	0.00023686	5.0404e-05	1011.9	2.5913e-06	2.4008e-06	1092.4	216.5	1.2852e-06	1.8927e-06	267.92	75.639	60.297	17.587	3.281e-06	24.653	0.00034963	0.00040161	0.00010697	997.97	4.3225e-06	4.2625e-06	1074.3	214.99	4.2632e-06	4.3788e-06	267.39	75.916	60.468	17.926	4.32e-06	24.965	98.708	75.055	111.716	4.270	112.223	132.810	4.194	11.918	182.177	229.595	11.517	18.330	18.960	26.012	155.425	24.766	-8191	255	
3026.093	1	1	0	0	0.25176	0.30495	0.11865	0.13228	0.1659	0.078783	0.28583	0.1259	0.048627	0.18203	0.25904	0.3785	0.28886	0.11303	0.10828	0.22042	-2.7146	-2.4792	-2.8521	-3.1354	-2.2896	-3.0563	-2.8792	-2.4479	-3.2104	-2.5042	-3.0042	-3.0021	-2.4688	-3.1417	-2.7729	-2.2812	86.666	306.497	164.562	16.313	197.128	347.176	273.032	329.493	200.798	291.100	249.097	1.534	348.032	52.528	71.646	310.204	0.00021064	0.00044549	6.7094e-05	1013.8	7.652e-07	3.1173e-06	1087.7	216.05	3.1527e-06	2.7949e-06	269.18	75.428	60.31	17.771	2.9669e-06	24.598	0.0003597	0.00039807	0.00011048	998	4.3839e-06	4.3724e-06	1073.8	214.82	4.2716e-06	4.2164e-06	266.55	75.93	60.6	17.955	4.2309e-06	25.011	106.027	63.749	82.988	4.411	234.244	133.290	4.163	12.291	133.720	170.248	11.541	18.614	18.415	26.178	196.015	25.209	-8191	255	
3026.189	1	1	0	0	0.25324	0.12101	0.22822	0.29379	0.21207	0.37673	0.18122	0.37332	0.12338	0.15262	0.083437	0.073114	0.074338	0.24607	0.1744	0.058073	-2.7562	-2.5167	-2.7729	-3.225	-2.1625	-3.0938	-2.9125	-2.5375	-3.1229	-2.4688	-2.7188	-3.1813	-2.4229	-3.1917	-3.1521	-2.4813	170.733	222.805	195.022	251.435	221.783	72.368	290.616	318.295	156.028	68.234	256.373	326.999	195.623	136.392	110.398	309.726	0.00024366	0.00034148	8.36e-05	1015	3.038e-06	3.0914e-06	1091.9	216.22	3.5534e-06	2.8496e-06	268.48	75.858	60.197	17.78	4.4449e-06	24.776	0.0003722	0.0004082	0.00011156	999.8	4.3893e-06	4.2855e-06	1074	214.75	4.1884e-06	4.3105e-06	267.08	76.079	60.707	17.94	4.2833e-06	24.997	87.269	138.657	67.680	4.205	138.737	186.787	4.210	12.137	150.442	127.127	11.709	17.827	19.116	26.715	115.067	24.956	-8191	255	
3026.285	1	1	0	0	0.12306	0.052633	0.18804	0.042839	0.09955	0.20269	0.12378	0.31724	0.1034	0.047849	0.10327	0.24174	0.10764	0.1852	0.16021	0.081108	-2.7104	-2.6542	-2.4833	-3.2521	-2.5646	-3.0354	-3.2021	-2.4333	-3.0875	-2.7458	-2.5542	-3.3417	-2.3396	-2.9	-2.8625	-2.3771	70.327	45.072	297.946	297.570	17.978	223.394	14.857	-3.649	0.570	94.520	240.327	136.490	325.181	290.695	210.065	86.301	0.00022512	0.00020539	4.583e-05	1019.8	1.4677e-06	2.5109e-06	1090.5	216.67	2.137e-06	5.2995e-06	267.71	75.346	59.541	17.639	2.7627e-06	24.335	0.00036188	0.00040177	0.00011052	1000.8	4.4455e-06	4.4445e-06	1074.3	214.97	4.1899e-06	4.4245e-06	266.86	75.901	60.523	17.946	4.1495e-06	24.918	100.833	72.195	100.803	4.360	151.973	127.564	4.261	12.228	153.817	149.631	11.908	18.217	19.085	26.350	140.214	25.808	-8191	255	
3026.406	1	1	0	0	0.13976	0.088751	0.045839	0.069656	0.1429	0.15891	0.19595	0.21712	0.10498	0.10303	0.22319	0.027204	0.11787	0.3167	0.23999	0.053117	-2.7292	-2.5479	-2.5646	-3.2792	-2.5375	-2.7792	-3.2333	-2.4479	-3.2792	-2.9708	-2.6688	-3.3333	-2.6312	-2.7979	-3.3917	-2.4896	148.852	48.855	174.993	226.798	124.155	153.298	282.479	278.840	175.747	178.338	30.706	271.869	-3.624	38.146	254.136	35.704	0.0002386	0.00028309	0.00010412	1015.7	1.4899e-06	2.1118e-06	1090.9	216.15	2.0641e-06	3.9984e-06	267.66	75.915	60.12	17.718	2.5913e-06	24.422	0.00036759	0.00039023	0.00010982	1000.3	4.4343e-06	4.3427e-06	1074.5	214.67	4.3116e-06	4.3579e-06	266.91	75.819	60.744	17.953	4.2576e-06	24.903	87.426	107.983	110.306	4.818	180.962	245.040	4.418	11.992	152.591	124.716	11.669	18.117	18.867	26.339	119.153	25.761	-8191	255	
3026.502	1	1	0	0	0.21008	0.12013	0.051402	0.12262	0.15241	0.11743	0.29171	0.22059	0.10901	0.029688	0.12545	0.1004	0.11833	0.2379	0.088938	0.10574	-2.7958	-2.8833	-2.5583	-3.3917	-2.5417	-2.7375	-3.1188	-2.5667	-2.9458	-2.9313	-2.4708	-3.2854	-2.6979	-2.6208	-3.2729	-2.5563	92.146	232.144	205.364	58.176	163.729	259.715	282.161	292.115	203.733	333.064	328.287	298.189	265.081	206.827	222.907	271.893	0.00027391	0.00026379	4.8824e-05	1016.5	2.4831e-06	2.1226e-06	1089.5	216.51	4.8885e-06	4.33e-06	268.08	75.79	59.771	17.642	4.3479e-06	24.425	0.00036379	0.00039318	0.00011117	1000.3	4.4726e-06	4.3397e-06	1074.8	214.82	4.3144e-06	4.3266e-06	266.41	76.083	60.566	17.951	4.2958e-06	24.914	102.473	55.495	125.046	4.526	128.896	136.492	4.345	12.092	123.695	126.584	11.563	18.649	18.904	26.471	121.304	25.383	-8191	255	
3026.598	1	1	0	0	0.10864	0.063437	0.11309	0.10943	0.14335	0.31241	0.22349	0.27641	0.12523	0.1143	0.26286	0.13086	0.19704	0.13109	0.10168	0.25615	-2.6792	-3.0687	-2.2562	-3.3167	-2.6792	-2.5542	-3.3208	-2.6167	-2.9958	-3.025	-2.6771	-3.1417	-2.8917	-2.4875	-3.1937	-2.6	314.319	-5.483	181.191	65.374	112.760	298.858	19.740	299.428	183.960	101.150	177.358	238.286	261.944	242.747	237.809	268.602	0.00023484	0.00023423	6.5889e-05	1020	4.2301e-06	3.067e-06	1086.8	215.71	2.7414e-06	2.9167e-06	266.84	75.725	60.41	17.78	1.9963e-06	24.664	0.00035942	0.00039166	0.00011339	999.8	4.4614e-06	4.4943e-06	1074.3	214.4	4.2411e-06	4.3064e-06	266.01	75.962	60.549	17.968	4.2927e-06	24.993	90.419	64.392	65.151	4.422	180.399	100.192	4.576	11.714	166.672	124.663	11.158	18.887	19.426	25.994	150.433	25.452	-8191	255	
3026.670	1	1	0	0	0.11942	0.075037	0.23197	0.19017	0.16143	0.13015	0.20627	0.035475	0.13964	0.036772	0.12716	0.23067	0.040825	0.16396	0.1995	0.1454	-2.5438	-2.8187	-2.4167	-3.2062	-2.6958	-2.4333	-3.1271	-2.5875	-2.7979	-3.1396	-2.3667	-3.1396	-2.9313	-2.6146	-3.2896	-2.5875	144.654	38.739	41.289	351.866	331.100	182.783	269.870	198.947	169.604	295.484	324.419	146.135	196.874	15.042	283.295	149.248	0.00022666	0.00015197	0.00010321	1018.9	2.0765e-06	2.2625e-06	1091.9	216.6	3.1776e-06	3.3709e-06	268.79	75.108	60.249	17.609	3.3894e-06	24.656	0.00035713	0.00039721	0.00011203	1000.3	4.3854e-06	4.2612e-06	1075.5	214.52	4.3616e-06	4.2944e-06	267.4	75.894	60.52	17.903	4.3263e-06	24.991	82.918	331.660	68.149	4.504	107.159	174.055	4.617	12.101	117.851	211.957	11.777	18.583	18.672	26.414	118.409	25.823	-8191	255	
3026.790	1	1	0	0	0.11903	0.07249	0.26773	0.11941	0.22933	0.27824	0.28442	0.092969	0.24523	0.19866	0.06824	0.090465	0.083154	0.36266	0.28476	0.075539	-2.3708	-3.0687	-2.5563	-3.2021	-2.775	-2.4875	-3.3583	-2.7104	-2.6042	-3.0417	-2.6625	-2.9521	-2.9792	-2.4667	-3.175	-2.6437	241.291	254.167	153.750	334.698	198.629	292.517	250.852	265.611	315.146	66.446	55.308	270.467	341.275	322.814	282.810	80.714	0.00020375	0.00026481	5.2597e-05	1017.5	3.2178e-06	4.0092e-06	1090	216.12	1.8883e-06	3.9758e-06	268.13	76.152	59.596	17.765	6.9562e-07	24.381	0.00037189	0.00039582	0.00011059	1001.5	4.3561e-06	4.3306e-06	1074.7	214.64	4.321e-06	4.3146e-06	266.36	76.186	60.425	17.967	4.219e-06	24.903	102.096	106.113	48.076	4.737	123.256	166.438	4.876	12.033	23.855	92.294	11.961	18.720	18.889	26.451	177.693	25.749	-8191	255	
3026.886	1	1	0	0	0.16665	0.16041	0.32669	0.18904	0.30676	0.042206	0.21223	0.41399	0.28662	0.062267	0.31332	0.20173	0.1214	0.23362	0.093939	0.26596	-2.1958	-3.075	-2.5833	-2.8875	-2.925	-2.5021	-3.4542	-2.775	-2.6292	-3.225	-2.3563	-3.0542	-2.9938	-2.4833	-3.0521	-2.8208	60.785	85.771	15.913	51.534	319.997	60.611	308.891	330.066	12.159	153.539	343.967	308.174	331.917	106.829	0.162	292.646	0.00021046	0.00026701	5.8667e-05	1020.9	8.6791e-07	2.9644e-06	1090.3	215.17	1.3179e-06	2.125e-06	267.02	75.251	60.834	17.839	1.4151e-06	24.662	0.00036904	0.00039367	0.00011402	1002.7	4.2975e-06	4.463e-06	1076.2	213.95	4.3312e-06	4.2428e-06	266.01	76.028	60.73	17.993	4.2096e-06	24.932	96.737	128.570	58.294	4.803	228.234	70.546	4.703	12.111	138.366	139.683	11.370	18.790	19.253	26.420	42.207	25.198	-8191	255	
3026.982	1	1	0	0	0.066463	0.2442	0.16845	0.23638	0.074158	0.07696	0.17701	0.1285	0.12301	0.089746	0.049307	0.25271	0.19908	0.075684	0.30612	0.076925	-2.2229	-3.2792	-2.5187	-2.9396	-3.0292	-2.1875	-3.1188	-2.9146	-2.5	-3.2062	-2.5646	-2.7042	-3.1417	-2.3812	-2.9354	-3.1208	138.089	221.879	322.450	13.234	292.895	307.546	273.909	344.933	292.564	173.077	39.250	316.617	140.757	183.323	330.844	230.082	0.00020708	0.00021301	4.6217e-05	1020.6	1.0715e-06	3.8919e-06	1093.8	215.74	2.7637e-06	3.7578e-06	266.34	75.187	60.629	17.726	1.975e-06	24.631	0.00036946	0.0003961	0.0001077	1000.9	4.2975e-06	4.3781e-06	1076.6	214.85	4.4096e-06	4.4337e-06	266.04	75.96	60.59	17.899	4.2338e-06	24.959	90.383	44.685	102.485	4.882	236.975	116.203	4.567	12.065	15.614	160.986	11.567	18.842	18.716	26.231	128.972	25.871	-8191	255	
3027.103	1	1	0	0	0.13131	0.16958	0.19748	0.19828	0.25246	0.056524	0.41857	0.3726	0.065113	0.1983	0.33164	0.16765	0.26367	0.18802	0.14666	0.118	-2.0667	-3.3208	-2.6667	-2.7167	-3.1542	-2.3146	-3.0542	-2.9188	-2.5125	-3.25	-2.825	-2.7	-3.2521	-2.525	-3.025	-3.0062	267.825	201.871	2.767	329.215	29.666	290.265	283.100	285.508	140.767	136.102	341.287	9.381	283.930	327.218	257.952	119.844	0.00018369	0.00021544	6.1873e-05	1020.1	3.251e-06	1.2297e-06	1095.5	216.28	3.5647e-06	5.0531e-06	267.53	75.466	60.57	17.68	3.2085e-06	24.53	0.00036687	0.00039273	0.00011086	1001.3	4.2691e-06	4.4654e-06	1076.6	214.85	4.2544e-06	4.2119e-06	267.11	75.964	60.915	17.969	4.3893e-06	24.923	88.638	41.221	122.576	4.603	158.427	242.772	4.649	11.924	135.290	151.964	11.890	18.727	18.944	26.327	175.589	25.798	-8191	255	
3027.197	1	1	0	0	0.32205	0.40488	0.05219	0.17305	0.10795	0.10786	0.26047	0.098833	0.1407	0.27315	0.30057	0.1168	0.11248	0.16177	0.0067241	0.20919	-2.1667	-3.1271	-2.75	-2.6792	-3.3667	-2.4729	-3.0604	-3.2396	-2.5646	-3.1417	-2.7271	-2.4917	-3.2667	-2.4521	-2.75	-2.9667	216.992	99.361	68.931	274.135	51.005	323.285	318.129	292.152	348.671	188.267	332.530	128.921	153.213	1.871	276.874	332.934	0.00025178	0.00025704	6.9509e-05	1018	1.3463e-06	6.2491e-06	1090.5	216.23	2.3053e-06	3.519e-06	267.44	75.407	60.111	17.647	1.8992e-06	24.512	0.00037326	0.00040849	0.00011123	1002.6	4.2388e-06	4.4988e-06	1075.3	214.28	4.2658e-06	4.1741e-06	266.45	75.937	60.621	17.976	4.2524e-06	25.013	97.230	54.427	57.436	4.853	190.250	159.062	4.693	12.055	135.078	126.051	11.689	18.661	18.877	26.512	179.773	25.564	-8191	255	
3027.294	1	1	0	0	0.11016	0.091725	0.064655	0.20117	0.095255	0.19755	0.41043	0.23931	0.25073	0.2202	0.35104	0.23606	0.20107	0.10226	0.16594	0.13863	-1.9458	-2.9896	-2.8875	-2.6146	-3.2104	-2.625	-2.9021	-3.3271	-2.2938	-3.1188	-2.9542	-2.4021	-3.2583	-2.5938	-2.6083	-3.2542	184.785	352.647	288.253	338.370	318.498	147.454	-3.561	308.711	263.668	305.789	88.225	335.687	92.092	308.009	117.451	293.637	0.00022601	0.00016104	0.00010286	1019	2.9183e-06	3.6603e-06	1091.7	215.57	3.2128e-06	2.1108e-06	268.05	75.65	59.669	17.755	2.1508e-06	24.423	0.00035757	0.00039821	0.00010915	1000.9	4.2239e-06	4.3705e-06	1076.1	214.53	4.253e-06	4.3532e-06	266.3	75.982	60.548	17.986	4.2514e-06	24.887	81.147	80.273	116.853	4.908	176.878	133.843	4.762	12.184	188.655	218.840	11.699	18.671	19.109	26.118	203.217	25.723	-8191	255	
3027.390	1	1	0	0	0.12018	0.072026	0.27484	0.28389	0.23081	0.13809	0.21584	0.2371	0.12763	0.10736	0.073809	0.13601	0.17803	0.11354	0.091915	0.01882	-1.8646	-2.8646	-3.0042	-2.4917	-3.1771	-2.5563	-2.6875	-3.2083	-2.2917	-2.8375	-3.0208	-2.4396	-3.1958	-2.9104	-2.5292	-3.3125	106.382	316.104	109.133	294.719	211.189	298.543	306.655	116.813	189.390	142.619	326.556	34.713	17.904	34.388	282.204	107.285	0.000168	0.00038818	4.3693e-05	1015.6	3.9357e-06	3.9153e-06	1090.7	216.28	5.3558e-06	2.805e-06	267.94	75.188	59.628	17.639	2.9747e-06	24.66	0.00036515	0.00039084	0.00010662	1000	4.3385e-06	4.3123e-06	1075.9	214.56	4.2358e-06	4.2559e-06	266.14	75.715	60.481	17.919	4.1981e-06	25.002	82.165	114.914	108.998	4.249	147.066	101.277	4.192	11.700	176.768	112.875	11.565	18.183	18.445	25.809	174.783	25.064	-8191	255	
3027.486	1	1	0	0	0.21884	0.15827	0.061247	0.40882	0.12031	0.1633	0.1213	0.19596	0.11073	0.25265	0.11829	0.21867	0.055255	0.1942	0.25626	0.077331	-2.05	-2.7938	-3.0979	-2.5667	-3.1896	-2.8271	-2.775	-3.1417	-2.4646	-2.7188	-3.1792	-2.3542	-3.1021	-2.9292	-2.4188	-3.2458	182.164	40.394	125.322	-0.220	3.007	316.730	308.844	40.073	313.017	305.068	283.414	292.140	70.496	207.044	230.476	57.699	0.00024432	8.1713e-05	1.5397e-05	1013.3	1.1869e-06	2.7542e-06	1088.1	215.28	1.8089e-06	1.8788e-06	268.77	74.87	60.27	17.642	5.041e-06	24.699	0.00036979	0.00039549	0.00010593	998.31	4.2214e-06	4.333e-06	1074.5	214.13	4.2771e-06	4.2182e-06	266.72	75.668	60.752	17.955	4.2879e-06	24.987	94.194	75.009	141.929	4.186	131.031	155.899	4.286	11.603	141.247	93.488	11.478	18.381	18.560	25.582	134.304	24.833	-8191	255	
3027.582	1	1	0	0	0.099824	0.093959	0.15175	0.25385	0.08445	0.21433	0.072273	0.28121	0.069005	0.27004	0.22769	0.28067	0.17624	0.024903	0.0054185	0.16196	-2.1937	-2.5625	-3.1271	-2.4229	-3.175	-2.9271	-2.5812	-3.3396	-2.5708	-2.6354	-3.2979	-2.4688	-2.9479	-2.9479	-2.5208	-3.175	236.135	296.371	179.356	179.677	31.642	328.452	296.346	23.833	290.954	68.117	60.319	7.124	274.929	212.176	295.366	181.857	0.00021895	0.00034472	7.0734e-05	1017.9	4.3796e-06	2.1052e-06	1090.2	215.31	3.0144e-06	2.3086e-06	268.58	75.926	59.995	17.466	1.6104e-06	24.268	0.00037111	0.00039911	0.00010564	999.15	4.2639e-06	4.3996e-06	1075.7	214.62	4.2168e-06	4.2873e-06	266.19	75.995	60.81	17.908	4.3613e-06	24.86	96.626	69.977	52.766	4.053	118.940	177.476	4.402	11.574	99.858	186.585	11.576	18.281	18.367	26.332	120.278	25.799	-8191	255	
3027.703	1	1	0	0	0.04716	0.24604	0.029127	0.22237	0.15276	0.14646	0.23054	0.22661	0.10018	0.16747	0.25823	0.17103	0.085831	0.095978	0.24036	0.097903	-2.1875	-2.4417	-3.1646	-2.4938	-2.875	-2.9062	-2.4729	-3.0396	-2.6562	-2.5563	-3.1958	-2.5125	-2.8458	-3.1271	-2.3021	-3.0292	41.308	275.074	95.147	310.204	242.521	275.743	237.863	19.288	187.553	171.460	8.577	144.724	287.007	219.007	57.787	7.907	0.00018857	0.00024584	5.2905e-05	1015.1	3.0927e-06	5.0288e-06	1089.7	216.45	3.6999e-06	5.0215e-06	266.39	74.958	60.784	17.668	2.5772e-06	24.642	0.00037312	0.00039393	0.00010643	997.95	4.3047e-06	4.1747e-06	1075.4	214.98	4.2957e-06	4.3397e-06	267.09	75.883	60.829	17.933	4.4037e-06	24.982	98.741	98.493	243.979	4.267	112.861	145.338	4.287	11.527	190.453	192.869	11.364	17.982	18.706	26.368	84.179	25.089	-8191	255	
3027.799	1	1	0	0	0.2039	0.070551	0.048961	0.17402	0.24114	0.13043	0.050463	0.21066	0.12434	0.039838	0.1869	0.14214	0.064584	0.20748	0.065461	0.083914	-2.4292	-2.5563	-3.0771	-2.6604	-2.7854	-3.3042	-2.5646	-3.1042	-2.8812	-2.4292	-3.0708	-2.5792	-2.7458	-3.3312	-2.45	-3.1083	115.597	344.170	154.217	129.338	57.504	90.383	214.595	329.178	337.280	194.900	287.539	291.359	310.347	114.128	163.622	270.818	0.00021293	8.834e-05	9.1241e-05	1023.1	1.287e-06	2.7685e-06	1092.1	216.76	1.3328e-06	1.799e-06	269.55	75.743	59.85	17.886	3.9824e-06	24.585	0.00036286	0.00039702	0.00010437	1001	4.3294e-06	4.2935e-06	1076	215.19	4.1268e-06	4.3487e-06	267.4	75.953	60.56	17.986	4.1835e-06	24.972	92.372	2.490	92.122	4.346	106.741	179.007	4.420	11.891	222.679	159.856	11.481	18.506	19.176	26.026	173.147	25.210	-8191	255	
3027.895	1	1	0	0	0.18795	0.064664	0.01874	0.21458	0.14407	0.18737	0.43939	0.16387	0.084416	0.13553	0.22322	0.27529	0.20096	0.24335	0.17753	0.0020665	-2.5604	-2.4458	-3.1875	-2.8187	-2.5563	-3.1854	-2.4583	-2.8292	-3.0125	-2.4167	-3.3333	-2.4313	-2.5687	-3.35	-2.3625	-2.8167	84.088	309.649	193.804	334.689	91.289	295.923	345.512	257.995	119.814	161.031	304.402	327.494	18.069	15.852	195.082	180.000	0.00021392	0.00047591	6.9887e-05	1016.8	4.2789e-06	3.636e-06	1091	216.15	7.4108e-07	4.5336e-06	267.99	75.422	60.229	17.706	1.5838e-06	24.368	0.00035395	0.00039135	0.00010604	1000.4	4.3286e-06	4.397e-06	1075.9	214.58	4.2436e-06	4.4348e-06	266.34	75.873	60.836	17.965	4.3254e-06	25.013	95.680	95.889	58.059	4.118	139.312	145.079	4.412	11.983	161.609	128.908	11.376	18.188	19.017	25.351	76.403	25.538	-8191	255	
3027.967	1	1	0	0	0.16565	0.042433	0.1669	0.17837	0.096689	0.32981	0.14526	0.19152	0.14692	0.27984	0.042864	0.22531	0.19077	0.30244	0.21368	0.15554	-2.4938	-2.3229	-3.2146	-2.7167	-2.575	-3.3958	-2.4479	-2.8729	-3.0521	-2.4208	-3.2854	-2.7354	-2.3958	-3.1542	-2.4833	-2.9729	124.937	94.488	323.831	285.064	138.938	2.091	290.955	245.204	36.492	204.790	198.147	353.697	280.122	322.758	193.745	33.666	0.00017525	0.0002282	0.00013468	1016	1.6473e-06	2.2407e-06	1088.7	214.86	4.9437e-06	4.1948e-06	266.31	75.378	59.527	17.601	3.6968e-06	24.447	0.00035532	0.00040208	0.00010797	1001.1	4.3611e-06	4.1866e-06	1073.4	214.13	4.3281e-06	4.3176e-06	266.54	75.79	60.529	17.944	4.2372e-06	24.898	100.055	311.000	96.864	4.548	153.605	232.780	4.576	11.862	119.961	172.505	11.261	18.463	18.457	26.251	170.041	25.162	-8191	255	
3028.063	1	1	0	0	0.10474	0.078045	0.12906	0.058828	0.018512	0.24932	0.30804	0.048245	0.20818	0.19597	0.20586	0.093846	0.087754	0.18828	0.21876	0.15899	-2.6583	-2.3646	-3.2521	-2.8854	-2.4833	-3.1542	-2.6562	-2.7562	-3.2917	-2.6271	-3.2062	-2.8604	-2.4583	-3.2542	-2.6208	-2.7667	93.161	342.276	68.860	-1.045	184.790	52.151	282.276	261.692	168.099	92.303	317.013	109.831	322.434	310.586	200.463	172.364	0.00020363	0.00029126	7.746e-05	1017.6	1.5334e-06	3.5573e-07	1091.4	216.41	2.4053e-06	2.9207e-06	268.46	75.459	59.439	17.595	1.5032e-06	24.643	0.00036351	0.00040687	0.00010787	1000.1	4.4366e-06	4.2301e-06	1075.4	214.88	4.3314e-06	4.2965e-06	266.63	75.768	60.43	17.917	4.2466e-06	24.956	98.773	51.918	99.465	4.331	169.682	40.802	4.605	12.174	89.094	172.152	11.685	18.354	19.091	25.989	128.036	24.716	-8191	255	
3028.182	1	1	0	0	0.1511	0.36345	0.23696	0.24953	0.34332	0.083514	0.17418	0.098403	0.17847	0.18992	0.040213	0.058358	0.17612	0.05312	0.21656	0.094804	-2.9146	-2.3937	-3.025	-3.0354	-2.4521	-3.1417	-2.8604	-2.6875	-3.1271	-2.5542	-3.0875	-3.0354	-2.4396	-3.0021	-2.5438	-2.4646	74.853	273.788	345.394	352.325	161.363	189.103	269.345	198.440	274.260	106.668	246.477	79.065	1.147	53.292	112.211	218.428	0.00021196	0.00035489	3.4041e-05	1015.6	2.8671e-06	3.1378e-06	1087.7	215.08	1.7461e-06	2.9582e-06	267.22	75.011	60.147	17.739	3.5361e-06	24.784	0.00036052	0.00039995	0.00010791	998.8	4.5147e-06	4.2875e-06	1071.3	214.28	4.189e-06	4.3236e-06	266.7	75.707	60.657	17.929	4.2363e-06	25.041	96.965	103.759	88.088	4.102	138.155	136.766	4.244	11.829	119.533	143.088	11.720	18.022	18.796	26.033	138.596	25.085	-8191	255	
3028.278	1	1	0	0	0.06823	0.20207	0.18661	0.41354	0.2618	0.09289	0.17574	0.21954	0.21697	0.13107	0.2496	0.43803	0.19091	0.17215	0.18115	0.24477	-2.8458	-2.3292	-2.7938	-3.1208	-2.2208	-3.0792	-2.9125	-2.5979	-3.1604	-2.4292	-2.7	-3.0271	-2.3688	-2.9167	-2.7958	-2.4333	164.837	246.906	194.582	302.693	278.770	192.620	257.645	104.455	262.800	269.663	-4.720	74.074	48.987	317.041	260.741	24.043	0.00019969	0.00033448	6.9914e-05	1020.3	2.2389e-06	2.4149e-06	1091.7	217.64	1.5522e-06	1.4626e-06	267.43	75.937	60.637	17.82	4.3437e-06	24.553	0.00035811	0.00038937	0.00010741	1001.4	4.4664e-06	4.2148e-06	1075.1	215.06	4.1507e-06	4.3077e-06	266.8	76.006	60.623	17.994	4.2564e-06	24.943	92.995	78.443	63.721	4.218	172.327	84.651	4.614	11.799	172.170	116.734	11.550	18.170	18.499	25.942	162.546	25.294	-8191	255	
3028.374	1	1	0	0	0.11747	0.10716	0.13474	0.083552	0.19574	0.07029	0.21793	0.0088505	0.16366	0.22565	0.088354	0.16743	0.12589	0.099152	0.097878	0.2998	-2.7917	-2.4375	-2.5208	-3.1771	-2.2271	-2.9938	-3.1063	-2.4917	-3.2625	-2.6708	-2.85	-3.4979	-2.2667	-3.0917	-3.1125	-2.5042	156.595	-2.304	208.380	35.703	26.991	236.114	282.670	146.798	50.185	211.526	62.991	345.866	77.065	308.246	271.305	297.789	0.00021131	0.00014428	0.00010013	1013.8	2.4303e-06	7.282e-07	1095.5	216.27	3.4932e-06	3.0594e-06	267.67	75.572	59.764	17.659	1.7336e-06	24.509	0.00036269	0.00038386	0.00011264	999.85	4.4135e-06	4.22e-06	1075.8	214.91	4.2793e-06	4.3824e-06	266.25	75.955	60.431	17.925	4.271e-06	24.981	91.544	95.765	56.581	4.613	190.151	232.587	4.540	12.036	154.550	141.967	11.477	18.621	18.973	26.314	70.692	25.604	-8191	255	
3028.470	1	1	0	0	0.24192	0.083492	0.16306	0.21156	0.14889	0.088019	0.38316	0.22002	0.15734	0.28611	0.33765	0.093786	0.19854	0.36158	0.1481	0.31246	-2.7708	-2.5646	-2.3917	-3.2646	-2.6083	-2.9042	-3.1729	-2.4104	-3.3271	-2.7354	-2.5958	-3.1479	-2.4521	-2.9229	-3.275	-2.3354	324.576	19.203	76.058	295.894	126.021	225.450	338.420	233.056	255.712	151.957	275.240	152.863	-5.790	-3.072	107.050	244.103	0.00019061	0.00013016	2.2963e-05	1014.3	2.4462e-06	3.3907e-06	1090.7	215.5	2.9679e-06	1.664e-06	266.99	75.619	59.557	17.827	7.4702e-07	24.64	0.0003708	0.00037979	0.00010882	999.44	4.1592e-06	4.3983e-06	1073.7	214.57	4.2644e-06	4.3874e-06	266.48	76.024	60.436	17.988	4.1241e-06	25.046	90.720	52.599	46.927	4.484	96.476	102.836	4.156	11.689	207.732	127.614	11.518	18.074	18.670	26.112	148.759	25.253	-8191	255	
3028.566	1	1	0	0	0.10367	0.069465	0.060351	0.036054	0.11444	0.23363	0.38402	0.09442	0.14398	0.062782	0.27327	0.19636	0.042366	0.35048	0.17937	0.32109	-2.8479	-2.8	-2.3583	-3.3438	-2.4521	-2.9146	-3.3854	-2.575	-3.0438	-2.8292	-2.575	-3.1771	-2.6354	-2.8104	-3.0917	-2.5	236.582	211.896	34.987	5.759	297.927	146.394	312.401	308.472	187.637	52.861	29.253	326.493	303.231	298.845	176.324	281.730	0.00018168	0.00016824	6.8963e-05	1020.8	1.2726e-06	1.7663e-06	1093.2	216.02	4.6536e-06	2.3011e-06	266.71	75.457	60.021	17.831	2.6987e-06	24.568	0.00035928	0.00039232	0.00010996	1001.2	4.3406e-06	4.1866e-06	1076.9	215.23	4.1447e-06	4.2701e-06	266.4	76.016	60.475	18.05	4.1347e-06	24.974	96.045	143.850	88.183	4.293	125.565	124.810	4.790	12.200	98.860	142.972	11.483	18.244	18.382	26.292	150.319	25.550	-8191	255	
3028.662	1	1	0	0	0.2606	0.089322	0.11801	0.23166	0.15842	0.064927	0.20642	0.24346	0.039009	0.30399	0.04546	0.19327	0.12375	0.38348	0.31696	0.18651	-2.5563	-2.8312	-2.4208	-3.1104	-2.55	-2.6521	-3.3271	-2.4938	-2.9229	-2.8	-2.3271	-3.25	-2.7333	-2.7104	-3.2396	-2.6188	149.545	212.724	139.265	306.091	345.457	243.170	290.180	107.374	128.615	280.091	74.079	1.794	264.066	341.172	44.833	27.833	0.00023426	0.00024704	0.0001211	1020.4	2.9976e-06	1.2046e-06	1089.5	215.06	2.0767e-06	1.4513e-06	269.15	75.93	60.28	17.894	1.5263e-06	24.584	0.00035881	0.00038959	0.00011238	1000.1	4.3331e-06	4.3649e-06	1073.9	214.17	4.1556e-06	4.2169e-06	266.98	76.123	60.433	18.017	4.0859e-06	24.925	92.571	122.423	93.700	4.498	197.941	183.124	4.671	11.879	139.790	24.359	11.454	18.218	18.553	25.818	139.998	25.574	-8191	255	
3028.783	1	1	0	0	0.19932	0.2938	0.32384	0.24939	0.18136	0.27594	0.3128	0.19386	0.066381	0.14732	0.18137	0.17155	0.31634	0.32115	0.058233	0.19867	-2.4271	-2.9583	-2.2562	-3.2521	-2.6875	-2.4604	-3.2229	-2.5146	-2.7479	-3.1479	-2.3542	-3.0938	-2.7917	-2.3042	-3.3021	-2.3833	35.201	-2.858	131.401	327.384	223.179	105.825	275.741	280.396	46.849	334.368	337.413	283.130	66.925	124.886	162.486	85.219	0.00019301	0.00028283	0.00012175	1018.7	7.6391e-07	2.7573e-06	1089.9	215.76	2.7705e-06	4.0102e-06	268.28	75.479	60.677	17.69	2.8237e-06	24.717	0.00035551	0.00038067	0.0001068	1001.6	4.3934e-06	4.2933e-06	1074	214.93	4.2522e-06	4.2682e-06	266.93	75.909	60.734	17.993	4.17e-06	25.047	88.899	74.127	54.574	4.369	154.308	154.643	4.461	11.889	156.501	194.003	11.602	18.429	18.586	26.070	163.206	25.597	-8191	255	
3028.879	1	1	0	0	0.27764	0.17974	0.14825	0.2196	0.23761	0.079155	0.25191	0.27282	0.14384	0.32334	0.16914	0.18692	0.14856	0.046359	0.080607	0.13877	-2.3583	-3.0604	-2.2833	-3.1229	-2.7354	-2.4542	-3.3333	-2.5167	-2.7875	-3.0396	-2.3479	-2.9354	-3.0187	-2.4417	-3.0708	-2.6333	29.464	167.785	27.747	268.438	108.117	85.350	295.030	273.611	150.740	310.882	-3.088	6.501	316.960	145.827	153.676	167.987	0.00016262	0.00047248	7.1544e-05	1022.2	4.3299e-07	2.5746e-06	1094.1	215.41	1.064e-06	7.4044e-07	268.02	75.536	59.625	17.772	3.448e-06	24.656	0.00036396	0.00039309	0.00010831	1001.6	4.295e-06	4.4861e-06	1075.2	214.37	4.2199e-06	4.3513e-06	266.39	76.013	60.521	18.013	4.209e-06	25.005	111.643	104.907	114.936	4.182	96.972	157.124	4.216	11.259	213.724	12.162	11.057	18.229	18.143	25.996	156.647	24.916	-8191	255	
3028.975	1	1	0	0	0.33531	0.073699	0.18924	0.23425	0.31497	0.15515	0.16108	0.17553	0.14024	0.065966	0.098611	0.25223	0.19613	0.1051	0.20069	0.206	-2.2562	-3.1375	-2.2562	-3.0146	-2.8563	-2.425	-3.3688	-2.7979	-2.5125	-3.1688	-2.4125	-2.8083	-2.9833	-2.3729	-3.1125	-2.8958	22.117	277.692	43.795	3.232	135.074	61.927	316.169	31.537	244.293	243.454	54.400	239.186	343.513	37.293	276.118	184.025	0.00018988	0.00020804	5.0342e-05	1012.9	1.9736e-06	3.0799e-06	1090.9	214.47	4.1933e-06	2.9555e-06	267.19	75.41	60.263	17.641	3.6066e-06	24.776	0.00036593	0.00038994	0.00010656	1000.1	4.4113e-06	4.2092e-06	1075.2	214.32	4.2834e-06	4.2076e-06	266.5	76.002	60.486	17.993	4.1892e-06	25.067	92.488	74.526	23.613	4.221	130.392	125.463	4.109	11.645	134.880	94.893	11.278	18.059	18.027	25.399	154.338	24.788	-8191	255	
3029.072	1	1	0	0	0.13527	0.17485	0.18837	0.17137	0.14484	0.20244	0.21941	0.22261	0.11802	0.24445	0.26131	0.11469	0.082819	0.22847	0.18409	0.097695	-1.9104	-3.2125	-2.45	-2.8646	-3.0521	-2.5187	-3.3042	-2.8208	-2.3937	-3.1583	-2.6104	-2.7604	-3.0521	-2.2833	-2.8563	-2.7854	12.903	114.650	14.824	28.181	290.313	66.303	312.966	326.752	176.260	71.909	226.209	229.062	320.055	161.999	328.188	172.605	0.00023161	0.00013657	4.2589e-05	1022	1.9587e-06	3.7622e-06	1085.5	215.68	2.7859e-06	1.1526e-06	268.25	75.61	59.695	17.692	6.6354e-07	24.708	0.0003552	0.00039185	0.00010349	1003.2	4.2927e-06	4.2269e-06	1075.1	214.63	4.3244e-06	4.2605e-06	266.52	76.019	60.528	17.965	4.2681e-06	25.073	91.054	133.826	31.175	4.134	121.493	101.687	4.381	11.429	154.217	132.889	11.225	18.678	18.422	25.945	126.913	24.921	-8191	255	
3029.190	1	1	0	0	0.40204	0.093655	0.16909	0.011057	0.041805	0.17811	0.33701	0.29797	0.18863	0.016467	0.3061	0.36155	0.15463	0.098138	0.23067	0.2082	-2.0292	-3.0521	-2.5458	-2.6979	-3.025	-2.2958	-3.0667	-2.8729	-2.2542	-3.2292	-2.6375	-2.5625	-3.0917	-2.3104	-2.9146	-2.9229	94.342	244.228	127.368	242.130	266.140	310.332	13.180	56.627	162.446	3.907	287.925	284.200	78.371	37.540	5.695	330.825	0.0002562	0.00038196	5.8918e-05	1017.3	2.7847e-06	4.6111e-06	1095.3	216.28	1.6395e-06	1.0508e-06	266.68	75.881	60.559	17.74	6.4096e-06	24.569	0.00036264	0.00040077	0.00010899	1001.6	4.2701e-06	4.3947e-06	1075.1	214.57	4.3416e-06	4.1958e-06	266.35	76.29	60.686	18.002	4.3163e-06	24.967	91.228	66.017	49.536	4.451	145.319	104.844	4.479	11.668	110.013	129.889	11.319	18.194	18.729	26.296	135.466	25.178	-8191	255	
3029.262	1	1	0	0	0.087942	0.13074	0.036067	0.2044	0.16597	0.10498	0.16175	0.046908	0.23382	0.12745	0.094305	0.21828	0.075491	0.16283	0.16945	0.098115	-2.1854	-3.2062	-2.7042	-2.6708	-3.2146	-2.3917	-2.9958	-3.1	-2.3104	-3.1583	-2.8521	-2.5375	-3.1271	-2.5396	-2.7771	-3.15	59.539	85.843	137.113	11.144	77.949	291.441	316.536	328.090	293.361	17.900	299.003	20.123	257.180	233.403	199.989	261.142	0.00017753	0.00043599	7.7028e-05	1020.3	2.8438e-06	3.1274e-06	1092.4	215.99	5.2334e-07	2.6974e-06	269.35	75.847	60.286	17.876	5.6384e-06	24.816	0.00037363	0.00037616	0.00010931	1002.9	4.1706e-06	4.1969e-06	1078	214.62	4.2605e-06	4.2014e-06	266.97	76.303	60.8	18.068	4.2499e-06	25.061	90.196	95.055	75.820	4.681	114.921	85.004	4.637	11.742	256.625	176.093	11.404	18.175	18.630	25.756	157.630	25.201	-8191	255	
3029.358	1	1	0	0	0.059499	0.20562	0.11481	0.12132	0.22074	0.12717	0.3425	0.10874	0.23363	0.32384	0.26838	0.23574	0.13312	0.07393	0.12995	0.12102	-2.0104	-3.0521	-2.7021	-2.4333	-3.1958	-2.6146	-2.8021	-3.0104	-2.3438	-3.0687	-2.8563	-2.4229	-3.0583	-2.5917	-2.6562	-3.0375	83.906	263.562	5.658	330.807	88.501	257.551	288.681	183.845	1.480	119.816	147.435	124.517	91.760	228.527	324.513	247.447	0.00023146	0.00016345	5.5401e-05	1022.2	2.9859e-06	7.3696e-07	1093.2	216.52	2.9805e-06	4.1441e-06	267.02	76.277	59.939	17.868	4.0425e-06	24.744	0.00037002	0.00039277	0.00011115	1003.9	4.2415e-06	4.2944e-06	1077.9	214.89	4.2544e-06	4.2538e-06	266.77	76.365	60.832	18.084	4.2317e-06	25.106	101.904	125.480	70.737	4.222	171.244	176.458	4.621	11.858	139.551	153.811	11.622	18.085	18.613	25.729	149.276	24.912	-8191	255	
3029.479	1	1	0	0	0.043974	0.16915	0.14158	0.20588	0.037569	0.077766	0.073337	0.27232	0.33499	0.13396	0.28079	0.080195	0.17179	0.18402	0.16651	0.22568	-2.1083	-3.0708	-2.9313	-2.4062	-3.1917	-2.7542	-2.8542	-3.25	-2.4146	-3.0292	-2.8646	-2.2188	-3.1063	-2.6708	-2.5479	-3.3438	353.545	119.529	268.944	29.405	324.307	3.423	226.787	275.660	300.727	135.487	289.986	243.903	141.807	130.915	32.440	337.318	0.00023225	0.00034501	7.2589e-05	1024.1	3.6865e-06	9.375e-07	1099.9	216.53	2.537e-06	3.3195e-06	268.56	76.511	60.024	17.95	1.799e-06	24.741	0.0003722	0.00039225	0.00010637	1004.3	4.2147e-06	4.2211e-06	1079.2	214.73	4.3485e-06	4.1567e-06	266.67	76.729	60.884	18.11	4.2455e-06	25.187	96.485	90.515	23.827	4.373	180.358	167.476	4.509	11.860	131.588	177.108	11.889	18.241	18.489	25.639	83.833	25.431	-8191	255	
3029.575	1	1	0	0	0.34618	0.15349	0.13872	0.041613	0.25279	0.17696	0.34476	0.093432	0.24493	0.23457	0.05702	0.21029	0.1907	0.13146	0.13492	0.12703	-2.0125	-3.0396	-2.9813	-2.525	-3.2562	-2.8187	-2.5646	-3.2417	-2.4229	-2.8146	-3.0083	-2.5312	-3.1	-2.8917	-2.3646	-3.3292	148.987	163.308	166.726	264.608	183.105	311.180	261.182	247.470	128.623	277.329	214.359	237.384	185.816	324.440	37.460	271.716	0.00025282	0.00017153	5.4216e-05	1023.1	4.6692e-06	2.2104e-06	1095.3	217.04	1.9915e-06	1.6563e-06	269.47	76.026	60.005	17.904	2.2209e-06	24.87	0.00035511	0.00038804	0.00010461	1005.2	4.3238e-06	4.2715e-06	1080.3	214.91	4.2695e-06	4.2547e-06	268.17	76.505	60.958	18.152	4.2372e-06	25.18	98.053	86.304	98.434	4.811	147.969	164.674	4.566	11.966	153.164	112.752	11.500	18.584	18.703	25.901	90.010	24.842	-8191	255	
3029.671	1	1	0	0	0.25483	0.024531	0.19285	0.12622	0.28683	0.18833	0.11889	0.045676	0.31653	0.26947	0.084032	0.33211	0.23202	0.31357	0.15583	0.0704	-1.8667	-2.7313	-3.1125	-2.3979	-3.0479	-3.0042	-2.7562	-3.1583	-2.5563	-2.6562	-3.0458	-2.4625	-3.05	-3.0146	-2.6729	-3.2104	267.971	122.941	73.090	345.766	238.406	26.250	201.881	114.934	341.071	268.786	193.507	81.810	204.721	246.374	189.977	308.104	0.00020302	0.00019062	0.00010182	1022.7	2.2478e-06	1.9039e-06	1097.5	215.18	1.9321e-06	2.5023e-06	268.28	75.823	60.704	17.813	3.9942e-06	24.874	0.00035652	0.00039217	0.00010679	1003.8	4.2583e-06	4.1902e-06	1078.1	214.64	4.1372e-06	4.1834e-06	267.03	76.275	61.057	18.154	4.2793e-06	25.231	97.942	90.547	90.891	4.492	132.418	170.300	4.482	11.915	149.511	115.638	11.045	17.894	18.898	26.152	127.479	25.804	-8191	255	
3029.767	1	1	0	0	0.08172	0.14504	0.13719	0.26256	0.07961	0.18898	0.00937	0.22997	0.096309	0.34682	0.1254	0.11248	0.12593	0.18121	0.083639	0.21667	-2.2313	-2.6	-3.1396	-2.3	-3.0271	-3.0396	-2.5062	-3.3	-2.6937	-2.6208	-3.1937	-2.3542	-2.9125	-2.9521	-2.4375	-3.1167	72.473	247.108	138.223	332.631	310.215	10.248	215.929	48.406	169.640	326.990	244.780	59.363	9.033	269.294	106.053	241.157	0.00020309	0.00028575	8.3772e-05	1024.8	3.5152e-06	7.9903e-07	1093.9	216.58	2.0712e-06	5.1127e-07	267.99	75.786	60.398	17.897	4.1147e-06	24.908	0.00035635	0.00036744	0.00010441	1004.3	4.2164e-06	4.1717e-06	1078.6	214.96	4.1605e-06	4.3161e-06	266.89	76.344	60.931	18.144	4.142e-06	25.161	88.108	98.520	94.942	4.127	119.039	210.819	4.011	11.592	134.712	154.093	10.857	18.236	18.521	25.635	111.118	25.044	-8191	255	
3029.863	1	1	0	0	0.12136	0.1941	0.10611	0.24308	0.25036	0.033867	0.20595	0.28289	0.15322	0.37869	0.19022	0.096954	0.21019	0.18268	0.3373	0.080553	-2.3063	-2.6396	-3.2042	-2.5646	-2.8396	-2.8979	-2.4667	-3.0729	-2.7188	-2.4896	-3.3396	-2.6271	-2.6292	-3.0729	-2.4146	-2.9896	32.739	126.099	299.595	37.518	341.142	173.929	253.535	336.260	30.801	75.411	352.483	157.996	347.768	151.696	154.663	10.404	0.00018071	0.00058744	0.00013545	1022.2	3.3114e-06	3.0802e-06	1094.6	216.31	1.3369e-06	2.1635e-06	267.87	76.236	60.713	17.826	1.9824e-06	24.802	0.00036555	0.00038894	0.00010323	1003.1	4.3762e-06	4.2743e-06	1079	215.01	4.2722e-06	4.2328e-06	267	76.294	60.79	18.126	4.2221e-06	25.139	95.348	74.840	81.697	3.930	174.267	170.333	4.057	11.559	176.311	152.234	11.660	18.059	18.249	25.597	156.961	25.095	-8191	255	
3029.960	1	1	0	0	0.15357	0.24081	0.13428	0.10415	0.14229	0.26267	0.25435	0.18168	0.34188	0.19483	0.2853	0.17087	0.27233	0.18426	0.29236	0.29692	-2.5167	-2.4625	-3.2625	-2.5875	-2.65	-3.0875	-2.6729	-2.9167	-2.9896	-2.4062	-3.1312	-2.7625	-2.6771	-3.1667	-2.425	-3.0125	203.728	210.250	22.584	339.067	335.489	171.735	251.554	285.881	66.797	338.902	20.986	342.322	325.989	10.511	118.586	263.244	0.00024124	0.0002934	0.00012407	1023.1	3.1064e-06	3.7879e-06	1095.8	216.75	2.2936e-06	3.4578e-06	268.77	76.137	60.213	17.867	2.2718e-06	24.933	0.00036541	0.00040773	0.00010655	1004	4.3895e-06	4.1961e-06	1078.9	215.22	4.3328e-06	4.272e-06	267.38	76.258	60.853	18.068	4.2785e-06	25.244	82.501	66.941	44.736	4.179	141.400	149.098	4.140	11.483	171.654	159.519	11.175	18.146	18.092	25.774	104.928	25.099	-8191	255	
3030.056	1	1	0	0	0.23939	0.095289	0.16369	0.13123	0.1951	0.24117	0.4612	0.21778	0.052737	0.10675	0.074742	0.15267	0.22233	0.16993	0.15005	0.32384	-2.4083	-2.5354	-3.0021	-2.5271	-2.6708	-3.2479	-2.6479	-3.0792	-2.9708	-2.4396	-3.2938	-2.8625	-2.5729	-3.2042	-2.3396	-2.8083	162.573	239.212	304.146	146.966	215.738	274.995	284.653	245.648	298.311	78.465	324.113	143.988	1.986	302.481	219.465	320.625	0.00021783	0.00034827	8.6764e-05	1020.5	4.0861e-06	4.4375e-06	1094.3	217.38	2.3459e-06	3.4936e-06	268.71	75.622	60.452	17.918	1.1764e-06	24.807	0.00036278	0.00039035	0.00010873	1002.1	4.4305e-06	4.2107e-06	1078.5	215.17	4.1819e-06	4.3388e-06	267.43	76.165	60.965	18.095	4.1936e-06	25.065	87.360	81.037	109.115	4.461	130.598	187.582	4.020	11.830	83.587	184.928	11.501	18.210	18.435	25.657	64.373	25.125	-8191	255	
3030.152	1	1	0	0	0.18938	0.10505	0.061476	0.12097	0.17589	0.24525	0.20024	0.1287	0.25622	0.19857	0.10835	0.26053	0.19948	0.063003	0.27524	0.23532	-2.6188	-2.2354	-3.2687	-2.8792	-2.4833	-3.0833	-2.6937	-2.8688	-3.2229	-2.2479	-3.0542	-2.6792	-2.4667	-3.1875	-2.5687	-2.7271	263.186	65.655	350.102	27.997	278.795	29.477	310.320	71.971	69.306	113.122	223.346	20.648	75.452	288.603	260.048	304.385	0.00018569	0.00030806	9.2937e-05	1016.8	3.4447e-06	2.9943e-06	1094.7	216.81	3.5155e-06	4.4899e-06	268.82	75.719	60.034	17.729	3.21e-06	24.56	0.00035272	0.00039191	0.00010266	1000	4.3418e-06	4.1518e-06	1076.1	215.14	4.2809e-06	4.2705e-06	267.5	76.073	60.701	18.076	4.1408e-06	25.167	92.931	105.247	68.468	3.863	142.996	148.303	4.240	11.747	174.880	126.534	11.511	18.332	18.236	25.657	156.190	25.204	-8191	255	
3030.271	1	1	0	0	0.094956	0.09425	0.1381	0.076332	0.1463	0.098324	0.22734	0.41053	0.087828	0.29369	0.35545	0.14839	0.13448	0.25627	0.37458	0.10011	-2.8021	-2.2979	-3.075	-3.0417	-2.5687	-3.4917	-2.8479	-2.6417	-3.0333	-2.4813	-3.0375	-2.9688	-2.3521	-3.1063	-2.5479	-2.5667	179.079	229.719	44.839	280.941	256.650	331.641	253.024	285.870	347.082	316.853	4.263	215.048	69.237	283.286	287.086	123.807	0.00018039	0.00029528	5.5286e-05	1018.4	1.803e-06	4.9727e-06	1092.6	215.57	1.6802e-06	1.3472e-06	268.41	76.172	59.787	17.864	2.3242e-06	24.682	0.00036498	0.00039551	0.00010303	1001.3	4.3536e-06	4.2965e-06	1076.8	214.48	4.2783e-06	4.3818e-06	267.69	76.277	60.73	18.082	4.3104e-06	25.067	88.865	57.110	96.105	3.970	82.356	161.172	3.884	11.624	177.648	143.182	11.294	18.232	18.670	25.709	221.840	25.619	-8191	255	
3030.367	1	1	0	0	0.069739	0.22801	0.21339	0.32825	0.14817	0.17908	0.075346	0.1181	0.14817	0.050241	0.16072	0.15778	0.17655	0.3873	0.10869	0.19126	-2.7938	-2.5375	-2.8271	-3.1208	-2.3438	-3.1646	-3.1271	-2.7812	-3.3063	-2.6021	-2.9375	-3.1021	-2.4	-3.1917	-2.7229	-2.5021	53.005	246.927	77.728	267.525	218.896	123.468	328.296	228.145	167.446	294.348	77.260	241.454	65.134	314.540	344.319	-0.032	0.00019124	0.00013906	7.9143e-05	1013.9	3.2027e-06	2.6812e-06	1094.3	216.68	1.9763e-06	3.3763e-06	268.45	76.059	60.025	17.76	1.3643e-06	24.871	0.00037385	0.00040175	0.00010747	1000.4	4.4554e-06	4.2381e-06	1077.8	214.98	4.3079e-06	4.3444e-06	267.31	76.184	60.814	18.043	4.2123e-06	25.154	95.464	7.168	75.970	4.233	175.295	188.299	4.246	11.943	149.084	131.072	11.805	17.699	18.598	25.617	132.073	25.005	-8191	255	
3030.463	1	1	0	0	0.19688	0.17819	0.14809	0.23438	0.22738	0.016949	0.1174	0.27701	0.118	0.20352	0.087358	0.22684	0.054179	0.058263	0.069611	0.069835	-2.9292	-2.6771	-2.6937	-3.1979	-2.3937	-3.1437	-3.0042	-2.4313	-3.2604	-2.4708	-2.725	-3.2083	-2.4688	-2.9854	-2.8958	-2.5146	128.188	62.136	17.551	290.452	11.118	143.157	331.495	331.353	282.041	316.238	-3.777	278.923	166.364	318.647	314.314	297.507	0.00017674	0.00023496	5.0571e-05	1024.2	3.4533e-06	4.453e-06	1092	216.41	1.9739e-06	3.1172e-06	268.16	75.264	60.845	17.731	5.1811e-06	24.631	0.00036608	0.00039997	0.00010482	1004.1	4.3775e-06	4.2122e-06	1076.7	214.91	4.2356e-06	4.3337e-06	267.37	76.224	61.009	18	4.3641e-06	25.036	103.934	39.019	19.647	4.222	155.777	145.280	4.109	11.924	111.393	208.998	11.334	18.573	18.724	25.744	182.743	25.783	-8191	255	
3030.559	1	1	0	0	0.14928	0.10055	0.17849	0.20413	0.24097	0.14086	0.17983	0.070928	0.21129	0.27091	0.23832	0.092963	0.041623	0.10154	0.1053	0.1851	-2.7771	-2.4646	-2.5792	-3.2604	-2.5083	-3.0479	-3.0229	-2.4333	-3.0833	-2.6458	-2.7208	-3.2354	-2.3021	-2.9813	-3.1813	-2.3479	176.720	323.211	185.166	233.059	27.938	254.947	219.404	241.429	185.219	47.005	330.175	238.641	306.863	252.842	154.215	334.570	0.0002179	0.0001831	5.1876e-05	1016.4	2.9867e-06	2.2483e-06	1089.7	215.46	2.4301e-06	3.6094e-06	267.95	75.782	60.531	17.717	1.9147e-06	24.54	0.00036387	0.00040859	0.00011287	999.78	4.3646e-06	4.2027e-06	1076.3	214.78	4.2618e-06	4.1883e-06	266.8	76.233	60.999	18.026	4.2743e-06	24.978	92.918	87.414	85.262	4.104	141.002	99.465	4.522	11.829	166.277	155.858	11.713	18.224	18.695	26.005	113.888	25.212	-8191	255	
3030.655	1	1	0	0	0.21845	0.085263	0.3514	0.058195	0.21593	0.21333	0.099713	0.45167	0.095998	0.24725	0.26683	0.25413	0.22813	0.2049	0.18197	0.12066	-2.7521	-2.6604	-2.5417	-3.2625	-2.5146	-2.9313	-3.1354	-2.4229	-3.1521	-2.8125	-2.4354	-3.3042	-2.5333	-2.9625	-2.9875	-2.4083	92.788	206.896	291.460	319.882	35.232	33.595	330.398	121.080	233.793	6.418	350.010	340.655	4.249	328.745	212.098	52.868	0.00021727	0.00053442	0.00011769	1022.3	4.3876e-06	2.5057e-06	1090.7	215.57	3.3426e-06	3.1729e-06	267.04	75.498	60.127	17.819	2.2639e-06	24.829	0.00035279	0.00040182	0.00011048	1002.6	4.3862e-06	4.2262e-06	1075.6	214.48	4.2918e-06	4.3371e-06	267.01	76.108	60.755	18.048	4.2885e-06	25.144	99.790	58.538	102.706	4.487	105.340	212.383	4.392	11.611	136.106	181.066	11.808	18.269	18.678	26.295	196.378	25.355	-8191	255	
3030.752	1	1	0	0	0.22853	0.10966	0.11971	0.27774	0.031659	0.041746	0.12347	0.26149	0.16564	0.092451	0.23746	0.17449	0.12328	0.12893	0.1598	0.063864	-2.6021	-2.7625	-2.3729	-3.175	-2.4896	-2.7792	-3.3646	-2.5271	-2.8875	-2.9021	-2.6396	-3.2646	-2.6625	-2.7333	-3.2896	-2.2833	229.125	164.599	192.897	-0.078	49.793	61.999	306.173	282.018	321.523	299.432	306.035	239.189	294.795	193.476	0.718	11.844	0.00022576	0.00049405	6.0864e-05	1024.2	2.7712e-06	1.1393e-06	1092.6	215.27	2.8981e-06	4.3254e-06	268.08	76.07	60.434	17.703	5.6981e-07	24.654	0.00036966	0.00038462	0.00010969	1004.5	4.4289e-06	4.449e-06	1077.1	214.56	4.2405e-06	4.2431e-06	267.75	76.289	60.946	18.027	4.3173e-06	25.051	91.630	74.786	49.161	4.541	151.768	210.462	4.186	11.999	128.099	130.632	11.768	18.465	18.523	26.657	132.512	25.144	-8191	255	
3030.872	1	1	0	0	0.12302	0.1584	0.058917	0.29481	0.075715	0.35093	0.13639	0.15993	0.19223	0.22083	0.12629	0.15959	0.071327	0.11627	0.17134	0.20691	-2.5687	-2.8771	-2.3917	-3.2812	-2.5396	-2.7458	-3.4167	-2.4771	-2.9021	-3.0896	-2.3958	-3.2417	-2.6042	-2.6021	-3.0896	-2.5125	195.103	30.385	58.438	343.918	271.051	94.344	277.489	61.938	335.353	36.120	291.109	258.922	304.139	171.026	178.043	1.387	0.00020186	0.00027776	0.00013303	1021.3	3.6016e-06	3.6716e-06	1096.5	216.34	1.5643e-06	3.7422e-06	268.99	75.759	60.168	17.871	3.2765e-06	24.643	0.00037452	0.00041676	0.0001118	1005.4	4.4001e-06	4.4054e-06	1080.9	215.1	4.3298e-06	4.4385e-06	267.48	76.278	60.883	18.08	4.1518e-06	25.07	80.015	116.129	72.488	4.364	161.600	148.297	4.302	11.768	244.129	141.119	11.361	18.238	18.655	26.089	139.815	25.401	-8191	255	
3030.968	1	1	0	0	0.10432	0.097247	0.11199	0.14685	0.10803	0.1671	0.31953	0.34425	0.13753	0.23055	0.16011	0.19145	0.23233	0.094864	0.22243	0.13232	-2.6937	-3.075	-2.425	-3.2771	-2.7729	-2.4979	-3.35	-2.625	-3.0042	-3.125	-2.3979	-3.2313	-2.6646	-2.4146	-3.3146	-2.5312	208.019	225.857	308.260	287.108	236.770	161.675	289.318	292.502	265.094	154.084	80.722	313.635	158.762	237.424	334.461	160.757	0.00020815	0.00031061	6.3964e-05	1021.8	2.145e-06	4.6774e-06	1098.2	215.92	3.9526e-06	4.2492e-06	268.65	76.436	60.899	17.847	1.8888e-06	24.878	0.00036238	0.00039215	0.00011392	1002.3	4.3116e-06	4.3073e-06	1080	214.38	4.2967e-06	4.3923e-06	267.63	76.395	60.85	18.082	4.282e-06	25.119	88.654	129.229	37.287	4.300	83.733	111.540	4.194	11.909	163.368	141.223	11.499	18.209	18.853	26.348	123.755	25.053	-8191	255	
3031.064	1	1	0	0	0.21353	0.17611	0.12935	0.21064	0.15352	0.20596	0.13874	0.0744	0.21829	0.11516	0.22056	0.28293	0.046728	0.057065	0.3097	0.18095	-2.45	-3.1437	-2.3688	-3.1583	-2.9646	-2.2812	-3.3104	-2.7979	-2.85	-3.1312	-2.4167	-2.8771	-2.8521	-2.2542	-3.1042	-2.6375	263.622	26.692	109.212	45.476	7.285	121.784	294.790	226.312	345.899	51.945	273.202	255.661	233.900	84.882	136.921	75.630	0.00018826	0.00020197	8.524e-05	1022.8	3.2751e-06	1.4694e-06	1102	217.01	2.6561e-06	2.7688e-06	268.69	75.969	60.49	17.822	2.7402e-06	24.831	0.00037066	0.00039078	0.00010984	1004.3	4.1818e-06	4.46e-06	1080.7	214.88	4.2632e-06	4.2027e-06	267.94	76.537	60.963	18.08	4.3726e-06	25.185	100.301	146.443	91.709	4.490	165.575	133.614	4.384	11.822	91.700	146.743	11.230	18.427	18.815	25.829	140.000	25.540	-8191	255	
3031.159	1	1	0	0	0.07675	0.36078	0.18046	0.16323	0.06203	0.18862	0.30165	0.035986	0.13901	0.11517	0.24608	0.098446	0.106	0.069577	0.18886	0.11261	-2.3479	-3.2146	-2.3625	-3.1104	-2.8667	-2.3708	-3.4021	-2.8208	-2.5583	-3.1167	-2.7146	-2.8896	-3.05	-2.4729	-3.0354	-2.6813	173.660	128.497	147.009	313.973	311.072	225.108	286.195	246.730	264.241	209.889	328.797	8.929	198.692	54.278	336.119	45.244	0.00022823	0.00058438	0.00012804	1023.7	3.5609e-06	4.3845e-06	1095.8	215.84	3.265e-06	1.0818e-06	269.95	75.856	60.8	17.821	4.2501e-07	24.721	0.00037047	0.00039533	0.00011286	1005.1	4.2301e-06	4.3729e-06	1078.2	214.69	4.3479e-06	4.1477e-06	267.95	76.302	61.039	18.089	4.2125e-06	25.081	100.418	112.701	124.718	4.439	167.029	132.959	4.562	11.435	139.260	154.119	11.519	18.410	18.858	25.985	41.702	25.520	-8191	255	
#DATA ENDS
