BOXY.EXE: ISS Imagent and Oximeter Data Acquisition Program Version 0.80
Ascii Record File

#ACQ INFORMATION
2  Detector Channels 
16  External MUX Channels 
1  Auxiliary Channels 
5000  Waveform (CCF) Frequency (Hz)
1  Waveforms Skipped 
30  Waveforms Averaged 
1  Cycles Averaged 
16  Acquisitions per Waveform 
10.0806  Updata Rate (Hz) 

#FILE INFORMATION
TRUE -- External MUX Channel results are PARSED.
FALSE -- AC DC and Phase are NOT grouped.
TRUE -- Companion Program Settings File CREATED.
FALSE -- AC data not excluded
FALSE -- DC data not excluded
FALSE -- Phase data not excluded
FALSE -- Auxillary Chn. data not excluded
Tab delimiters

#CALIBRATION STATE
TRUE -- Waveform Calibration Values APPLIED.


#AUX CALIBRATION VALUES
Val Type	aux-1	

Term	1.0000e+00	
Factor	0.0000e+00	


#WF CALIBRATION VALUES
A = Detector Channel
Val Type	A-AC1	A-AC2	A-AC3	A-AC4	A-AC5	A-AC6	A-AC7	A-AC8	A-AC9	A-AC10	A-AC11	A-AC12	A-AC13	A-AC14	A-AC15	A-AC16	A-DC1	A-DC2	A-DC3	A-DC4	A-DC5	A-DC6	A-DC7	A-DC8	A-DC9	A-DC10	A-DC11	A-DC12	A-DC13	A-DC14	A-DC15	A-DC16	A-Ph1	A-Ph2	A-Ph3	A-Ph4	A-Ph5	A-Ph6	A-Ph7	A-Ph8	A-Ph9	A-Ph10	A-Ph11	A-Ph12	A-Ph13	A-Ph14	A-Ph15	A-Ph16	

Term	0.00000e+00	0.00000e+00	0.00000e+00	0.00000e+00	0.00000e+00	0.00000e+00	0.00000e+00	0.00000e+00	0.00000e+00	0.00000e+00	0.00000e+00	0.00000e+00	0.00000e+00	0.00000e+00	0.00000e+00	0.00000e+00	0.00000e+00	0.00000e+00	0.00000e+00	0.00000e+00	0.00000e+00	0.00000e+00	0.00000e+00	0.00000e+00	0.00000e+00	0.00000e+00	0.00000e+00	0.00000e+00	0.00000e+00	0.00000e+00	0.00000e+00	0.00000e+00	0.00000e+00	0.00000e+00	0.00000e+00	0.00000e+00	0.00000e+00	0.00000e+00	0.00000e+00	0.00000e+00	0.00000e+00	0.00000e+00	0.00000e+00	0.00000e+00	0.00000e+00	0.00000e+00	0.00000e+00	0.00000e+00	
Factor	1.00000e+00	1.00000e+00	1.00000e+00	1.00000e+00	1.00000e+00	1.00000e+00	1.00000e+00	1.00000e+00	1.00000e+00	1.00000e+00	1.00000e+00	1.00000e+00	1.00000e+00	1.00000e+00	1.00000e+00	1.00000e+00	1.00000e+00	1.00000e+00	1.00000e+00	1.00000e+00	1.00000e+00	1.00000e+00	1.00000e+00	1.00000e+00	1.00000e+00	1.00000e+00	1.00000e+00	1.00000e+00	1.00000e+00	1.00000e+00	1.00000e+00	1.00000e+00	X	X	X	X	X	X	X	X	X	X	X	X	X	X	X	X	

B = Detector Channel
Val Type	B-AC1	B-AC2	B-AC3	B-AC4	B-AC5	B-AC6	B-AC7	B-AC8	B-AC9	B-AC10	B-AC11	B-AC12	B-AC13	B-AC14	B-AC15	B-AC16	B-DC1	B-DC2	B-DC3	B-DC4	B-DC5	B-DC6	B-DC7	B-DC8	B-DC9	B-DC10	B-DC11	B-DC12	B-DC13	B-DC14	B-DC15	B-DC16	B-Ph1	B-Ph2	B-Ph3	B-Ph4	B-Ph5	B-Ph6	B-Ph7	B-Ph8	B-Ph9	B-Ph10	B-Ph11	B-Ph12	B-Ph13	B-Ph14	B-Ph15	B-Ph16	

Term	0.00000e+00	0.00000e+00	0.00000e+00	0.00000e+00	0.00000e+00	0.00000e+00	0.00000e+00	0.00000e+00	0.00000e+00	0.00000e+00	0.00000e+00	0.00000e+00	0.00000e+00	0.00000e+00	0.00000e+00	0.00000e+00	0.00000e+00	0.00000e+00	0.00000e+00	0.00000e+00	0.00000e+00	0.00000e+00	0.00000e+00	0.00000e+00	0.00000e+00	0.00000e+00	0.00000e+00	0.00000e+00	0.00000e+00	0.00000e+00	0.00000e+00	0.00000e+00	-1.62475e+02	-1.30028e+02	-1.29081e+02	-1.82568e+02	-7.08570e+01	-6.63597e+01	-1.57125e+02	-1.62015e+02	-8.01052e+01	-6.56729e+01	-1.70653e+02	-1.69026e+02	-1.81905e+02	-1.76426e+02	-7.59934e+01	-1.49739e+02	
Factor	2.48014e-05	1.38066e-04	4.13928e-05	1.81409e-01	1.37938e-06	1.71112e-06	1.66522e-01	5.10113e-02	1.39629e-06	1.55553e-06	7.91198e-02	2.75910e-02	2.90947e-02	8.83143e-03	1.46968e-06	1.26923e-02	9.30207e-06	1.30508e-05	3.64333e-06	9.51287e-02	1.35613e-07	1.44845e-07	8.22480e-02	2.69387e-02	1.34931e-07	1.44256e-07	4.04368e-02	1.41989e-02	1.54998e-02	4.70142e-03	1.38599e-07	6.55128e-03	X	X	X	X	X	X	X	X	X	X	X	X	X	X	X	X	



#DISTANCE SETTINGS
A = Detector Channel
A-1	A-2	A-3	A-4	A-5	A-6	A-7	A-8	A-9	A-10	A-11	A-12	A-13	A-14	A-15	A-16	

2.5000e+00	3.0000e+00	2.5000e+00	3.0000e+00	2.0000e+00	3.0000e+00	1.5000e+00	3.0000e+00	3.0000e+00	3.0000e+00	3.0000e+00	3.0000e+00	3.0000e+00	3.0000e+00	1.5000e+00	3.0000e+00	

B = Detector Channel
B-1	B-2	B-3	B-4	B-5	B-6	B-7	B-8	B-9	B-10	B-11	B-12	B-13	B-14	B-15	B-16	

1.0000e+01	1.0000e+01	1.0000e+01	1.4400e+00	1.0000e+01	1.0000e+01	1.5100e+00	1.9400e+00	1.0000e+01	1.0000e+01	1.9900e+00	2.4900e+00	2.4100e+00	2.9000e+00	1.0000e+01	2.9800e+00	




#DATA BEGINS
time	group	step	mark	flag	A-AC1	A-AC2	A-AC3	A-AC4	A-AC5	A-AC6	A-AC7	A-AC8	A-AC9	A-AC10	A-AC11	A-AC12	A-AC13	A-AC14	A-AC15	A-AC16	A-DC1	A-DC2	A-DC3	A-DC4	A-DC5	A-DC6	A-DC7	A-DC8	A-DC9	A-DC10	A-DC11	A-DC12	A-DC13	A-DC14	A-DC15	A-DC16	A-Ph1	A-Ph2	A-Ph3	A-Ph4	A-Ph5	A-Ph6	A-Ph7	A-Ph8	A-Ph9	A-Ph10	A-Ph11	A-Ph12	A-Ph13	A-Ph14	A-Ph15	A-Ph16	B-AC1	B-AC2	B-AC3	B-AC4	B-AC5	B-AC6	B-AC7	B-AC8	B-AC9	B-AC10	B-AC11	B-AC12	B-AC13	B-AC14	B-AC15	B-AC16	B-DC1	B-DC2	B-DC3	B-DC4	B-DC5	B-DC6	B-DC7	B-DC8	B-DC9	B-DC10	B-DC11	B-DC12	B-DC13	B-DC14	B-DC15	B-DC16	B-Ph1	B-Ph2	B-Ph3	B-Ph4	B-Ph5	B-Ph6	B-Ph7	B-Ph8	B-Ph9	B-Ph10	B-Ph11	B-Ph12	B-Ph13	B-Ph14	B-Ph15	B-Ph16	aux-1	digaux	

1217.379	1	1	0	256	0.10637	0.19059	0.045558	0.2593	0.11808	0.16043	0.17778	0.2447	0.021193	0.12352	0.071379	0.21487	0.24609	0.10703	0.15124	0.15581	-0.072917	-0.039583	-0.825	-0.089583	-0.46042	-0.82917	-0.014583	-0.93333	-0.37292	-0.27083	-0.90208	-0.0875	-0.325	-0.72917	0.022917	-0.64583	144.193	233.566	109.031	277.766	272.845	223.776	-33.188	281.026	124.122	49.444	140.206	6.436	147.809	113.046	40.371	116.001	8.2561e-05	0.00031891	6.0794e-05	786.76	2.0871e-06	2.1639e-06	856.55	168.09	1.5729e-06	1.7207e-06	213.64	59.822	45.857	14.045	2.2559e-06	19.5	0.00022401	0.00026607	6.9451e-05	799.96	2.8448e-06	2.8344e-06	871.45	172.63	2.8642e-06	2.8599e-06	218.81	62.193	47.773	14.689	2.7835e-06	20.471	108.767	19.482	41.204	-45.631	93.033	87.666	-45.782	-38.224	83.997	78.158	-38.686	-32.088	-30.615	-24.470	168.886	-24.667	-8191	255	
1217.475	1	1	0	0	0.15765	0.16157	0.13403	0.087984	0.12786	0.248	0.036538	0.16391	0.18832	0.07853	0.055836	0.30209	0.1699	0.22415	0.065607	0.24239	-0.21458	0.18958	-0.98125	-0.18125	-0.44375	-0.875	-0.22708	-0.80833	-0.60208	-0.16667	-0.90833	-0.175	-0.19792	-0.875	-0.08125	-0.71458	98.135	157.343	296.002	130.829	3.768	166.675	-23.314	242.369	273.150	60.658	-6.854	277.894	235.158	147.048	170.059	150.291	6.2213e-05	0.00018079	5.7731e-05	785.14	2.4744e-06	1.4868e-06	853.73	168.28	2.2971e-06	1.775e-06	213.36	59.954	45.989	14.064	1.2095e-06	19.654	0.0002335	0.00026254	6.9291e-05	798.62	2.8417e-06	2.826e-06	870.01	172.94	2.786e-06	2.9019e-06	218.44	62.31	47.911	14.691	2.9178e-06	20.479	99.045	27.431	17.782	-45.963	113.686	83.365	-45.684	-38.027	93.328	121.022	-38.743	-31.719	-30.911	-24.485	85.909	-24.957	-8191	255	
1217.570	1	1	0	0	0.20826	0.042103	0.11696	0.2812	0.21694	0.047913	0.30332	0.10094	0.068196	0.13684	0.16242	0.091261	0.127	0.1333	0.19557	0.10643	-0.225	-0.03125	-0.80417	-0.29375	-0.40208	-0.90208	-0.2625	-0.63958	-0.675	0.05625	-1.1125	-0.13125	-0.17292	-0.71042	0.16042	-0.54792	63.944	-36.056	286.554	-13.400	180.595	206.770	-50.745	189.556	-41.260	-52.167	178.611	259.577	186.580	-25.150	-31.830	43.822	8.0039e-05	0.00014789	2.6651e-05	786.38	1.9472e-06	3.6231e-06	853.8	167.99	1.4645e-06	1.1061e-06	213.55	59.961	45.735	14.121	1.9941e-06	19.475	0.00022501	0.00027461	7.3299e-05	796.48	2.9965e-06	2.8453e-06	869.65	172.65	2.7627e-06	2.871e-06	219.07	62.302	47.807	14.74	2.8693e-06	20.435	98.922	45.264	108.521	-45.622	100.098	96.266	-45.669	-37.946	123.462	97.039	-38.676	-32.056	-30.491	-23.748	109.909	-24.645	-8191	255	
1217.692	1	1	0	0	0.10758	0.09047	0.2194	0.17177	0.083108	0.029982	0.099204	0.26529	0.18524	0.30828	0.093607	0.098195	0.1489	0.14503	0.085391	0.15835	-0.39792	0.16458	-0.66875	-0.53333	0.070833	-0.78542	-0.16875	-0.41042	-0.71042	-0.022917	-0.75	-0.32083	0.035417	-0.92292	-0.060417	-0.35833	7.672	27.700	151.663	108.887	273.901	45.479	198.670	134.233	-11.889	-7.790	47.622	30.401	287.181	114.777	213.038	226.111	7.8153e-05	0.00016513	7.7651e-05	785.44	2.5153e-06	2.5718e-06	853.54	169	1.2276e-06	2.7446e-06	214.36	59.475	46.561	14.08	1.8312e-06	19.562	0.00022749	0.00026159	7.1348e-05	796.72	2.9329e-06	2.7825e-06	868.14	172.46	2.7532e-06	2.8229e-06	218.63	62.014	47.958	14.66	2.7607e-06	20.466	115.193	73.798	12.507	-45.401	90.468	97.301	-45.558	-37.558	87.288	87.308	-38.263	-31.574	-30.273	-23.934	108.733	-24.399	-8191	255	
1217.786	1	1	0	0	0.087921	0.17417	0.21919	0.29335	0.21366	0.10188	0.17755	0.41865	0.047925	0.18185	0.14659	0.21709	0.18832	0.16802	0.049051	0.28455	-0.45833	0.18125	-0.8125	-0.61875	0.058333	-1.1667	-0.15833	-0.26042	-0.9	-0.24792	-0.64792	-0.81458	0.14583	-1.0625	-0.027083	-0.34375	181.042	41.143	-15.927	212.315	123.054	183.133	-33.259	279.803	255.099	153.783	10.703	75.876	232.338	300.016	87.011	45.253	9.8272e-05	0.0003151	5.6277e-05	790.94	1.3346e-06	1.9934e-06	855.88	168.46	1.9591e-06	1.0812e-06	213.7	59.513	45.858	14.039	1.0547e-06	19.501	0.00021935	0.00025909	6.939e-05	796.48	2.79e-06	2.6754e-06	867.06	172.41	2.7329e-06	2.7225e-06	219.26	62.144	47.748	14.696	2.7399e-06	20.408	109.502	17.206	27.250	-45.051	81.556	26.357	-45.463	-37.955	110.868	70.313	-38.281	-31.833	-29.857	-23.652	88.636	-24.742	-8191	255	
1217.883	1	1	0	0	0.23463	0.2256	0.04453	0.47044	0.29769	0.24184	0.24592	0.18504	0.080371	0.16711	0.27796	0.07816	0.17356	0.14341	0.22954	0.12442	-0.56042	0.1375	-0.5375	-0.85208	0.0125	-0.91042	-0.38333	-0.12083	-0.92083	-0.060417	-0.6625	-0.89167	-0.060417	-0.72708	-0.36875	-0.0375	161.741	192.083	-5.581	209.425	291.743	17.575	213.604	108.081	-29.862	189.324	242.117	73.837	257.205	-30.057	39.882	32.398	6.973e-05	0.00014031	4.4516e-05	780.83	1.8316e-06	1.8353e-06	851.51	167.3	2.2511e-06	3.8011e-06	211.87	59.747	45.562	14.04	2.4244e-06	19.457	0.0002143	0.00024516	6.4957e-05	793.34	2.8089e-06	2.619e-06	864.37	171.95	2.6618e-06	2.8121e-06	217.79	62.121	47.638	14.664	2.5681e-06	20.373	100.367	57.293	15.212	-45.271	160.502	125.652	-45.172	-37.584	94.198	102.699	-38.222	-31.802	-30.253	-24.014	93.962	-24.610	-8191	255	
1217.979	1	1	0	0	0.10443	0.24508	0.2738	0.047148	0.45876	0.10452	0.18774	0.11009	0.15111	0.11596	0.10681	0.16522	0.065318	0.33293	0.076466	0.33592	-0.70417	-0.12083	-0.59167	-0.95625	-0.0020833	-0.75625	-0.575	0.0625	-0.90208	-0.1375	-0.43333	-0.875	0.072917	-0.87917	-0.41042	-0.1125	215.699	58.136	195.893	-0.366	16.312	75.542	289.110	-24.883	77.095	283.176	72.467	204.265	72.392	-2.267	65.985	166.569	9.5603e-05	0.00015558	6.1042e-05	782.94	1.2432e-06	1.8378e-06	845.41	167.44	3.8697e-07	8.4611e-07	212.6	59.182	45.668	14.053	1.3644e-06	19.442	0.00021447	0.00025226	6.4365e-05	791.63	2.6495e-06	2.5055e-06	861.78	171.47	2.4996e-06	2.5362e-06	217.48	61.904	47.508	14.664	2.5043e-06	20.38	106.638	55.274	40.145	-45.403	100.300	51.702	-45.271	-37.718	60.806	53.705	-38.408	-31.883	-30.047	-23.863	70.009	-24.531	-8191	255	
1218.099	1	1	0	0	0.28599	0.064777	0.11403	0.21992	0.2141	0.19516	0.1056	0.15298	0.079175	0.24807	0.10272	0.056584	0.33133	0.11329	0.15171	0.066084	-0.43333	-0.0875	-0.25833	-0.93958	-0.022917	-0.5625	-0.83542	0.054167	-1.0354	-0.32292	-0.45833	-0.92708	-0.12708	-0.57292	-0.85625	-0.010417	-47.383	-2.969	95.795	276.007	50.529	228.592	-50.829	133.266	269.592	266.215	38.068	211.989	300.583	191.750	225.877	240.592	7.7729e-05	0.00020491	4.9547e-05	775.57	1.6495e-06	2.5513e-06	844.68	167.18	1.1243e-06	1.8523e-06	211.34	59.389	45.731	14.014	3.3686e-07	19.35	0.00021455	0.00023225	6.5618e-05	788.53	2.58e-06	2.4545e-06	860.42	171.35	2.4794e-06	2.4445e-06	216.45	61.982	47.522	14.632	2.3796e-06	20.327	88.281	-10.684	0.881	-45.225	95.360	57.018	-45.353	-38.025	121.192	132.640	-38.433	-31.745	-30.552	-24.091	78.791	-24.936	-8191	255	
1218.171	1	1	0	0	0.16761	0.018513	0.20345	0.20278	0.14237	0.22008	0.15915	0.19297	0.12232	0.25429	0.095126	0.23518	0.070711	0.10855	0.22337	0.02446	-0.52708	-0.31875	-0.20833	-0.92083	-0.085417	-0.46875	-0.81875	0.079167	-0.77083	-0.29583	-0.10417	-0.76875	-0.2625	-0.29583	-0.66042	0.075	211.434	151.726	124.287	269.336	228.387	114.600	238.415	228.236	172.246	226.527	-41.682	74.682	-2.443	127.596	80.987	93.423	9.9047e-05	0.00030409	7.1348e-05	777.55	2.7623e-06	4.0074e-06	843.87	167.21	8.9359e-07	2.2913e-06	211.29	59.359	45.473	14.022	2.0128e-06	19.39	0.0002078	0.00023097	6.5519e-05	787.03	2.536e-06	2.4877e-06	856.72	171.07	2.3756e-06	2.523e-06	216.9	61.811	47.36	14.65	2.3724e-06	20.351	98.872	24.352	6.604	-45.688	118.752	100.101	-45.465	-37.594	53.817	87.656	-38.349	-31.642	-30.850	-24.106	69.801	-24.742	-8191	255	
1218.267	1	1	0	0	0.19188	0.23369	0.078709	0.17802	0.26099	0.10988	0.23705	0.01477	0.4092	0.28335	0.289	0.12453	0.10844	0.16979	0.20688	0.053319	-0.375	-0.46667	-0.072917	-0.92917	-0.18125	-0.1125	-0.93958	0.1625	-0.60208	-0.575	0.022917	-0.9125	-0.14375	-0.13958	-0.7875	0.13958	245.508	284.535	219.207	-16.435	32.015	-19.329	198.157	294.216	67.496	43.422	246.112	291.439	28.599	3.009	-4.171	246.503	7.3453e-05	0.00011497	5.4255e-05	776.73	1.8644e-06	2.4544e-06	840.8	166.79	2.403e-06	2.7605e-06	211.82	59.217	45.587	13.96	1.1961e-06	19.544	0.000211	0.00022551	6.5299e-05	787.29	2.5464e-06	2.5351e-06	857.36	170.98	2.4515e-06	2.4968e-06	217.15	61.941	47.4	14.61	2.3879e-06	20.387	103.256	35.667	64.806	-45.317	100.359	126.426	-45.373	-38.128	123.032	70.543	-38.421	-31.835	-30.984	-24.096	75.289	-24.867	-8191	255	
1218.363	1	1	0	0	0.22048	0.25377	0.059835	0.18598	0.10113	0.17258	0.21913	0.31202	0.34695	0.15339	0.10374	0.063265	0.087544	0.12183	0.062904	0.18304	-0.31042	-0.6	0.095833	-0.97292	-0.14375	-0.32917	-0.88333	-0.072917	-0.52917	-0.57917	-0.072917	-0.88125	-0.50417	-0.16875	-0.93958	0.0375	-8.646	213.916	128.793	235.335	34.705	258.540	158.823	246.740	289.339	256.246	285.525	-9.258	115.697	47.510	-12.752	237.311	9.6318e-05	0.00022573	7.2862e-05	778.23	1.2772e-06	3.2118e-06	840.19	166.33	1.431e-06	1.4678e-06	212.41	59.37	45.631	14.08	1.7708e-06	19.477	0.00020449	0.00021273	6.3477e-05	786.87	2.4574e-06	2.4464e-06	857.16	171.05	2.4411e-06	2.3625e-06	217.21	61.945	47.401	14.665	2.3091e-06	20.388	109.574	25.401	36.235	-45.622	88.523	106.735	-45.567	-37.943	80.925	62.214	-38.855	-31.928	-30.858	-24.245	70.023	-24.751	-8191	255	
1218.459	1	1	0	0	0.25046	0.30099	0.010644	0.52414	0.051403	0.061672	0.26074	0.056645	0.091289	0.040355	0.13719	0.13016	0.14494	0.31582	0.45139	0.13417	-0.13542	-0.59583	0.41458	-0.89375	-0.28125	-0.025	-1.0479	0.022917	-0.29583	-0.91458	0.22083	-0.575	-0.475	0.125	-0.96458	-0.16042	178.564	58.729	131.168	286.947	223.066	249.648	135.108	0.184	244.884	65.298	291.389	248.600	90.458	188.080	293.268	251.813	8.4844e-05	0.00014576	5.0666e-05	768.66	2.3361e-06	2.9944e-06	840.85	166.62	1.2287e-06	2.6782e-06	212.18	59.533	45.296	13.986	2.071e-06	19.615	0.00020271	0.00021006	6.303e-05	782.89	2.484e-06	2.4237e-06	855.81	171.16	2.3675e-06	2.3237e-06	216.85	61.783	47.321	14.617	2.2843e-06	20.46	98.342	61.423	86.951	-45.781	131.805	107.062	-45.617	-38.238	119.753	110.418	-38.257	-32.025	-30.531	-24.320	108.263	-24.843	-8191	255	
1218.578	1	1	0	0	0.35691	0.06299	0.088985	0.18679	0.15139	0.14157	0.24223	0.41403	0.22708	0.24053	0.050001	0.26941	0.29167	0.094838	0.28463	0.056191	0.077083	-0.74375	0.18333	-0.87292	-0.47083	0.0625	-1.0438	0.047917	-0.27917	-0.79167	-0.0125	-0.37292	-0.66042	0.12708	-1.0458	-0.11042	45.613	118.813	169.142	243.150	-0.634	28.836	255.192	288.042	254.974	-27.434	273.238	120.572	298.146	2.664	241.528	210.251	8.0185e-05	0.00024331	7.4008e-05	768.61	2.0337e-06	3.1375e-06	837.49	167.08	1.2245e-06	2.0314e-06	211.37	59.527	45.368	14.113	2.1601e-06	19.352	0.00019554	0.00020397	6.0236e-05	781.96	2.4049e-06	2.3118e-06	852.77	171.2	2.2772e-06	2.0812e-06	216.59	61.729	47.057	14.666	2.2641e-06	20.32	94.490	35.090	31.910	-45.480	71.983	71.400	-45.759	-38.189	105.884	120.456	-38.611	-32.036	-30.875	-24.351	97.686	-24.946	-8191	255	
1218.675	1	1	0	0	0.29043	0.13995	0.12798	0.24353	0.25155	0.19951	0.24727	0.14824	0.15086	0.076376	0.14295	0.23858	0.20406	0.16579	0.13117	0.20331	0.1125	-0.87917	-0.016667	-0.35833	-0.72083	0.035417	-1.0208	-0.19583	-0.10417	-0.95208	0.00625	-0.58333	-0.66875	-0.0125	-0.86875	-0.4375	67.527	180.577	-24.245	238.188	284.762	197.573	186.862	-9.104	85.560	-31.803	171.058	293.887	67.315	236.750	11.841	21.316	6.6474e-05	0.00021896	5.0596e-05	771.11	1.484e-06	3.121e-06	831.96	165.99	1.8741e-06	2.6313e-06	211.2	58.932	44.939	13.968	3.1867e-06	19.428	0.00019734	0.00019609	5.9546e-05	779.82	2.2489e-06	2.3079e-06	848.82	170.72	2.2876e-06	2.0385e-06	215.88	61.454	46.879	14.587	2.0674e-06	20.29	128.035	16.353	-16.526	-45.737	101.029	92.606	-45.742	-38.210	114.438	70.935	-38.261	-31.667	-30.918	-24.333	108.047	-25.165	-8191	255	
1218.771	1	1	0	0	0.16133	0.13911	0.082506	0.21087	0.040423	0.1819	0.16759	0.26472	0.1614	0.44165	0.27323	0.15899	0.2464	0.29621	0.20333	0.42098	0.31458	-0.97708	-0.32708	-0.42292	-0.75625	-0.016667	-0.77292	-0.63542	-0.0875	-0.975	-0.070833	-0.40417	-0.83958	0.020833	-0.46667	-0.68333	-36.269	210.415	246.648	237.656	5.252	-8.941	-13.185	242.842	46.801	91.132	289.240	84.462	-8.020	107.954	40.641	202.099	8.8633e-05	0.00020436	6.5507e-05	763.15	2.8133e-06	2.4001e-06	830.66	165.61	1.1398e-06	2.7316e-06	209.9	58.736	45.236	13.906	1.4762e-06	19.318	0.0001892	0.00018184	5.3868e-05	772.91	2.1305e-06	2.169e-06	843.7	170.21	2.2452e-06	1.9754e-06	215.25	61.174	46.887	14.519	1.9831e-06	20.263	85.830	52.615	52.875	-45.356	74.739	105.797	-45.703	-38.204	81.375	87.256	-38.369	-31.876	-30.672	-24.312	96.210	-24.680	-8191	255	
1218.867	1	1	0	0	0.13292	0.11449	0.050948	0.11863	0.04454	0.012088	0.063289	0.33052	0.14221	0.12653	0.081257	0.050062	0.24587	0.13446	0.3125	0.14746	0.32083	-0.825	-0.19792	-0.41667	-0.92917	0.16042	-0.8625	-0.65625	-0.01875	-0.74167	-0.35625	-0.052083	-0.95208	0.18542	-0.38958	-0.62917	223.352	192.799	227.536	86.545	106.302	139.840	123.844	270.746	295.380	108.732	191.209	108.077	262.656	59.816	25.635	293.806	7.8966e-05	0.00019418	7.7905e-05	762.92	8.1421e-07	2.3392e-06	825.18	166.44	1.6788e-06	2.1039e-06	210.37	58.951	45.249	13.956	1.4342e-06	19.257	0.00018034	0.00018361	5.3891e-05	771.49	2.0763e-06	2.1325e-06	840.09	170.63	2.1819e-06	1.9826e-06	214.96	61.343	46.904	14.559	2.0056e-06	20.244	102.463	39.455	48.424	-45.443	95.646	71.144	-45.422	-38.046	136.818	77.208	-38.570	-32.075	-30.788	-24.063	122.222	-24.726	-8191	255	
1218.963	1	1	0	0	0.26515	0.11175	0.080412	0.028189	0.1487	0.22852	0.33823	0.074393	0.11267	0.29242	0.11576	0.092967	0.11402	0.21658	0.34357	0.23964	0.35208	-0.84167	-0.28958	-0.09375	-0.91875	-0.21458	-0.65625	-0.83542	0.08125	-0.84792	-0.43333	-0.32083	-0.96458	-0.010417	-0.59792	-0.8125	286.982	273.954	235.668	267.327	167.140	68.122	246.078	298.182	89.175	14.330	187.837	276.266	-47.885	-41.269	228.799	279.679	9.2191e-05	0.00019075	6.6032e-05	757.08	9.7486e-07	9.4964e-07	823.75	166.81	9.1486e-07	2.43e-06	210.84	58.764	45.429	13.952	1.5037e-06	19.369	0.00018155	0.00017374	5.0786e-05	767.39	1.9689e-06	2.0145e-06	839.46	171.18	2.0754e-06	1.7819e-06	215.68	61.364	46.931	14.563	1.9516e-06	20.25	123.429	36.253	40.319	-45.561	114.900	74.272	-45.406	-37.877	107.274	97.222	-38.641	-31.617	-30.782	-24.618	106.841	-24.829	-8191	255	
1219.059	1	1	0	0	0.015867	0.21696	0.28899	0.27087	0.26663	0.073065	0.38546	0.035562	0.24852	0.22663	0.08681	0.13994	0.07434	0.19755	0.26291	0.11591	0.24167	-0.63333	-0.57292	-0.11875	-0.89792	-0.18542	-0.49167	-0.93542	-0.14583	-0.45	-0.65625	-0.097917	-1.0562	-0.4125	-0.33333	-0.75208	256.988	84.362	-37.033	218.512	78.491	1.079	248.186	-29.312	55.245	166.354	-25.005	209.819	-23.714	88.147	251.327	-12.439	6.187e-05	0.00020637	7.3669e-05	755.93	2.4313e-06	2.3498e-06	824.27	166.37	1.1054e-06	3.1445e-06	209.76	59.023	45.051	13.977	1.5836e-06	19.165	0.00017449	0.00017053	4.5754e-05	766.74	1.9576e-06	1.8471e-06	838.29	170.62	2.0037e-06	1.8062e-06	215.13	61.365	46.701	14.541	1.8731e-06	20.161	98.920	39.751	27.401	-45.571	85.387	95.052	-45.212	-37.801	127.655	96.572	-38.480	-31.731	-30.713	-24.288	82.738	-24.604	-8191	255	
1219.180	1	1	0	0	0.24062	0.29959	0.22774	0.11913	0.12215	0.1946	0.34005	0.15657	0.087409	0.038232	0.18537	0.16279	0.037287	0.12671	0.059785	0.1472	0.36667	-0.56458	-0.49375	0.08125	-0.8	-0.13125	-0.39167	-0.97708	0.085417	-0.74375	-0.91875	0.039583	-0.96042	-0.40208	-0.05	-1.1917	52.374	-3.517	-8.593	239.602	255.692	33.103	284.157	253.874	146.384	181.629	256.314	6.130	71.240	246.003	259.680	118.679	7.5575e-05	0.00020623	6.4712e-05	748.84	9.8336e-07	1.8602e-06	819.71	166.69	1.9792e-06	1.881e-06	209.28	58.671	45.367	14.016	2.35e-06	19.334	0.00017	0.00016893	4.6703e-05	760.93	1.7635e-06	1.7982e-06	834.45	170.29	1.9602e-06	1.7671e-06	214.4	61.073	46.743	14.526	1.8099e-06	20.127	119.498	27.684	16.066	-45.622	109.924	123.430	-45.520	-38.057	73.468	97.207	-38.243	-31.491	-30.660	-24.270	113.470	-24.417	-8191	255	
1219.276	1	1	0	0	0.16595	0.098834	0.17194	0.21052	0.061628	0.40809	0.083196	0.11607	0.27431	0.15781	0.15345	0.41686	0.20866	0.20683	0.28988	0.12902	0.40625	-0.5625	-0.6625	0.17917	-0.77708	-0.28333	-0.17708	-0.925	0.11458	-0.40625	-1.0646	0.12292	-1.0063	-0.55208	-0.0020833	-0.80417	296.613	87.227	148.614	204.012	94.762	26.991	210.384	270.490	280.598	159.982	296.840	259.575	235.262	-34.815	190.202	249.080	8.1456e-05	0.00028319	7.2349e-05	747.54	2.2045e-06	1.7809e-06	817.88	166.77	1.7323e-06	1.6416e-06	208.2	59.134	44.922	13.799	1.5311e-06	19.327	0.00016383	0.000164	4.5967e-05	761.05	1.885e-06	1.692e-06	834.08	170.57	1.9022e-06	1.7686e-06	214.3	61.239	46.665	14.432	1.8165e-06	20.212	109.771	29.542	24.752	-45.432	108.117	87.010	-45.364	-37.931	68.158	99.421	-38.421	-31.949	-30.068	-24.088	52.384	-24.575	-8191	255	
1219.372	1	1	0	0	0.20376	0.22054	0.11344	0.12497	0.080066	0.20094	0.23786	0.01268	0.10229	0.19596	0.051648	0.10149	0.28214	0.051897	0.32437	0.1299	0.15417	-0.32917	-0.9125	0.047917	-0.775	-0.425	-0.12083	-0.88958	-0.25	-0.29167	-0.86042	-0.15208	-0.6	-0.74583	0.09375	-0.8375	196.350	229.251	261.050	295.139	58.175	285.187	291.999	83.204	4.256	130.780	151.042	220.145	35.275	-2.170	216.655	101.464	7.81e-05	0.00022049	5.6032e-05	752.11	1.5161e-06	2.9848e-06	816.4	166.39	1.7677e-06	1.3034e-06	209.9	59.12	45.342	13.93	1.4971e-06	19.308	0.00016393	0.00015976	4.2042e-05	761.39	1.776e-06	1.7538e-06	831.86	170.53	1.8266e-06	1.7494e-06	214.72	61.385	46.934	14.542	1.7593e-06	20.27	97.173	22.126	37.188	-45.248	59.501	100.375	-45.207	-37.514	80.415	83.822	-38.402	-31.484	-30.605	-24.155	88.441	-24.300	-8191	255	
1219.468	1	1	0	0	0.12674	0.19802	0.11508	0.10804	0.2112	0.18266	0.040119	0.22581	0.22203	0.22415	0.18515	0.28727	0.062379	0.038844	0.1961	0.20727	0.14167	-0.12292	-0.82083	-0.125	-0.48333	-0.67292	-0.11042	-0.85833	-0.59583	-0.28542	-1.0438	-0.22292	-0.42917	-0.925	-0.047917	-0.8625	24.823	-44.270	-12.589	140.954	260.210	75.034	195.126	235.998	79.127	280.867	64.048	253.213	165.511	-19.364	-8.754	9.968	7.0616e-05	0.0001965	7.2414e-05	751.31	2.1958e-06	3.0985e-06	819.68	166.03	1.771e-06	2.4196e-06	209.72	59.036	45.492	14.06	2.5862e-06	19.465	0.00015523	0.00016387	4.1648e-05	761.7	1.6971e-06	1.6805e-06	834.07	170.22	1.7353e-06	1.6713e-06	214.87	61.363	47.001	14.584	1.7117e-06	20.315	96.635	44.044	47.124	-44.997	98.014	91.743	-45.114	-37.665	94.953	83.019	-38.426	-31.537	-30.759	-23.605	83.200	-24.713	-8191	255	
1219.564	1	1	0	0	0.19528	0.015724	0.14831	0.2206	0.16431	0.2031	0.11578	0.30954	0.19092	0.31379	0.19544	0.12801	0.41297	0.16288	0.24696	0.38095	-0.13333	0	-0.92292	-0.2625	-0.4	-0.97708	-0.17917	-0.72083	-0.42917	-0.28542	-1.0021	-0.25417	-0.32917	-0.83958	-0.020833	-0.60833	229.367	20.927	133.844	97.317	209.974	240.343	295.280	272.228	-33.209	87.307	4.211	90.258	287.168	145.859	248.883	223.540	7.4996e-05	0.00017825	5.8548e-05	756.41	1.657e-06	3.1238e-06	820.27	166.26	8.4414e-07	2.0798e-06	208.98	59.204	45.346	13.914	1.9546e-06	19.451	0.00015571	0.00015487	4.0221e-05	763.37	1.7285e-06	1.6458e-06	835.34	170.6	1.6925e-06	1.6361e-06	214.4	61.54	47.045	14.567	1.6978e-06	20.296	114.334	20.766	21.963	-45.165	108.064	102.222	-45.330	-37.763	25.525	100.340	-37.844	-31.442	-30.070	-23.865	71.036	-24.369	-8191	255	
1219.659	1	1	0	0	0.061522	0.46902	0.18146	0.28206	0.12839	0.15821	0.173	0.064073	0.18875	0.078256	0.13719	0.32372	0.16477	0.14969	0.19787	0.21321	-0.077083	-0.125	-0.78542	-0.26667	-0.275	-0.85625	0.054167	-0.33542	-0.61667	0.035417	-0.96875	-0.43542	-0.3625	-0.81042	-0.2625	-0.41875	108.801	225.247	105.675	249.326	19.908	125.938	-16.682	226.517	299.581	-23.878	148.377	234.969	168.863	265.989	104.983	146.175	9.0194e-05	0.00021598	5.1832e-05	752.28	1.9912e-06	1.811e-06	820.56	166.27	1.1571e-06	1.8394e-06	210.27	59.314	45.428	13.979	2.1396e-06	19.552	0.00015244	0.00015582	3.9469e-05	762.42	1.8116e-06	1.6301e-06	833.93	170.48	1.6833e-06	1.7275e-06	214.63	61.535	47.144	14.568	1.7094e-06	20.354	108.873	32.970	24.525	-45.081	119.375	81.666	-45.017	-37.538	116.911	95.340	-38.184	-31.148	-29.907	-23.873	131.455	-24.409	-8191	255	
1219.779	1	1	0	0	0.10551	0.24389	0.19279	0.20319	0.072821	0.33823	0.035908	0.14436	0.053348	0.23635	0.15634	0.12838	0.36637	0.091702	0.15441	0.3318	-0.36875	-0.029167	-0.62917	-0.53333	0.064583	-0.78333	-0.29167	-0.66458	-1.0521	-0.05	-0.96667	-0.47708	-0.20625	-1.075	-0.00625	-0.42708	17.911	124.895	92.295	303.965	7.183	142.185	-27.070	301.151	-6.159	-45.005	-29.764	-24.562	6.868	265.597	56.783	-37.041	9.0581e-05	0.00015136	7.4015e-05	756.57	1.0484e-06	2.9849e-06	821.17	166.41	1.0537e-06	2.1219e-06	209.37	59.33	45.327	14.009	2.0371e-06	19.399	0.00015009	0.00015721	3.9614e-05	764.53	1.8144e-06	1.6093e-06	836.4	170.4	1.6841e-06	1.7653e-06	214.31	61.653	47.068	14.643	1.7149e-06	20.284	107.746	41.068	25.943	-45.061	93.607	101.882	-45.358	-37.388	133.325	117.782	-37.916	-31.934	-30.300	-23.710	102.831	-24.618	-8191	255	
1219.876	1	1	0	0	0.088528	0.19685	0.296	0.041458	0.19773	0.28893	0.16082	0.12718	0.092156	0.067561	0.058803	0.16913	0.053788	0.30653	0.15622	0.30436	-0.52917	-0.125	-0.80208	-0.78958	0.09375	-1.1375	-0.16458	-0.40417	-0.69583	0.14792	-0.52917	-0.58542	-0.060417	-0.94167	-0.325	-0.079167	159.394	241.003	230.664	-24.355	97.334	257.539	191.307	212.305	-27.153	174.894	55.347	139.147	151.749	-27.070	78.587	-33.784	7.79e-05	0.00016639	5.4713e-05	757.19	9.6014e-07	2.9988e-06	823.44	166.34	1.5141e-06	2.5904e-06	208.26	59.03	45.258	14.053	2.8188e-06	19.307	0.00016062	0.00016175	4.268e-05	766.1	1.9675e-06	1.6877e-06	837.34	170.19	1.7895e-06	1.793e-06	214.26	61.361	46.935	14.557	1.8006e-06	20.221	119.447	41.663	34.063	-45.108	56.691	101.997	-45.229	-37.725	122.532	100.318	-38.368	-31.497	-30.439	-24.291	95.858	-24.481	-8191	255	
1219.972	1	1	0	0	0.0094128	0.16404	0.035323	0.090491	0.14814	0.054534	0.12189	0.17776	0.24961	0.18594	0.33042	0.019649	0.34518	0.16512	0.019198	0.25916	-0.51042	0.045833	-0.46667	-0.77917	-0.1125	-0.85833	-0.52917	0.03125	-1.025	-0.072917	-0.7	-0.70417	0.077083	-1.0604	-0.59375	-0.31875	17.123	168.550	30.888	271.297	-36.463	113.188	133.652	210.933	146.631	122.192	-2.519	56.229	295.091	-37.042	218.238	-54.077	9.284e-05	0.00022699	3.9239e-05	754.82	1.8006e-06	2.0115e-06	825.6	164.8	6.3776e-07	2.745e-06	208.14	58.878	45.338	13.931	1.6026e-06	19.407	0.00016025	0.00017271	4.4175e-05	763.73	1.9647e-06	1.7574e-06	838.11	169.68	1.909e-06	1.9204e-06	213.8	61.293	46.888	14.53	1.8659e-06	20.26	109.084	32.641	54.261	-45.559	115.218	117.658	-45.345	-37.584	144.834	93.208	-37.993	-31.737	-30.382	-24.113	90.425	-24.217	-8191	255	
1220.043	1	1	0	0	0.16221	0.12943	0.060329	0.05911	0.11826	0.14614	0.2136	0.1264	0.17686	0.15468	0.16439	0.13485	0.1363	0.10254	0.30642	0.12981	-0.60833	-0.10833	-0.40833	-0.85625	-0.054167	-0.77708	-0.70417	-0.14792	-0.92917	-0.19375	-0.31458	-0.9875	0.00625	-0.74167	-0.525	0.014583	-36.764	53.532	69.586	205.661	-25.318	226.218	253.490	260.978	188.964	63.175	-24.029	290.841	265.268	102.008	25.505	184.502	9.0018e-05	0.00017546	8.0084e-05	754.52	2.4304e-06	3.0277e-06	824.05	166.08	2.2813e-06	2.1266e-06	208.06	59.105	44.859	13.941	1.9615e-06	19.467	0.00016083	0.00017594	4.5321e-05	764.73	1.978e-06	1.6941e-06	837.54	170.28	1.8176e-06	1.7777e-06	214.08	61.36	46.807	14.586	1.7824e-06	20.26	110.352	48.830	32.153	-45.050	87.722	99.437	-45.181	-37.630	73.070	78.807	-38.167	-31.460	-30.147	-24.094	75.799	-24.357	-8191	255	
1220.139	1	1	0	0	0.080069	0.15241	0.078621	0.074165	0.10351	0.019987	0.22437	0.083332	0.14884	0.23183	0.087038	0.1035	0.071049	0.22175	0.22897	0.32125	-0.30417	-0.083333	-0.3875	-0.87083	-0.089583	-0.73542	-0.58333	0.033333	-0.78125	-0.55417	-0.19583	-1.0354	-0.10208	-0.68542	-0.76458	0.027083	184.613	299.467	237.471	280.370	-45.367	279.941	227.451	57.929	10.349	38.665	36.640	271.805	268.401	40.703	62.550	267.525	8.2072e-05	0.00015564	5.869e-05	754.82	1.4595e-06	2.4921e-06	823.66	165.25	2.7669e-06	3.1625e-06	208.99	59.092	44.893	13.953	1.4504e-06	19.348	0.00015845	0.00016017	4.5359e-05	765.62	2.0167e-06	1.8465e-06	836.58	169.98	1.7429e-06	1.808e-06	214.08	61.358	46.775	14.543	1.7452e-06	20.238	105.265	39.994	16.854	-45.175	110.713	118.098	-45.331	-37.557	105.571	121.499	-38.010	-31.599	-30.318	-23.869	124.343	-24.372	-8191	255	
1220.260	1	1	0	0	0.16462	0.14695	0.1611	0.079363	0.22552	0.038635	0.06982	0.18374	0.27652	0.25337	0.26517	0.21541	0.18054	0.14429	0.16114	0.16042	-0.36667	-0.37708	-0.097917	-0.91875	-0.11042	-0.36458	-0.79375	-0.027083	-0.75833	-0.26458	-0.020833	-0.76458	-0.03125	-0.58542	-0.85625	-0.027083	-30.291	59.975	-21.476	176.155	214.617	139.346	105.694	113.906	247.356	153.106	288.233	298.108	159.391	120.827	300.768	253.476	8.6582e-05	0.00025343	5.1166e-05	752.94	1.5591e-06	2.0583e-06	823.92	165.42	7.0229e-07	2.3298e-06	208.47	59.282	45.019	13.889	2.5201e-06	19.332	0.00015091	0.00016591	4.6414e-05	764.16	1.8658e-06	1.8754e-06	836.28	169.53	1.8008e-06	1.7007e-06	213.56	61.288	46.745	14.517	1.7515e-06	20.201	107.672	33.340	44.101	-45.426	96.210	86.661	-45.417	-37.929	85.570	75.778	-38.309	-31.696	-30.106	-23.803	98.856	-24.188	-8191	255	
1220.356	1	1	0	0	0.068571	0.21806	0.065475	0.10637	0.03162	0.11323	0.27646	0.34913	0.032337	0.074227	0.1014	0.096039	0.21124	0.29157	0.27954	0.20026	-0.60833	-0.3375	-0.26875	-1.0021	-0.16667	-0.39167	-1.1063	0.097917	-0.59792	-0.58542	-0.12708	-0.89583	-0.23125	-0.32708	-0.775	-0.0020833	37.295	275.116	-36.218	-33.614	167.844	50.405	-50.504	298.073	155.795	192.018	206.100	196.373	296.929	240.693	101.004	240.963	9.5538e-05	0.00021136	6.8464e-05	751.6	2.175e-06	3.2788e-06	817.6	165.41	1.9267e-06	2.3271e-06	208.66	58.717	45.023	14.012	2.0039e-06	19.18	0.00016172	0.0001633	4.6574e-05	761.6	1.8723e-06	1.6974e-06	833.73	169.33	1.8086e-06	1.7635e-06	213.8	61.24	46.913	14.533	1.7547e-06	20.104	112.276	33.294	22.431	-45.056	98.024	114.103	-45.383	-37.696	122.473	85.416	-38.244	-31.131	-30.614	-24.223	123.204	-24.476	-8191	255	
1220.452	1	1	0	0	0.21519	0.15458	0.15794	0.25683	0.1978	0.22423	0.10954	0.055694	0.083062	0.059404	0.22418	0.26714	0.19075	0.073252	0.091472	0.2073	-0.35833	-0.64167	0.26042	-0.88333	-0.35417	-0.12083	-0.86667	-0.175	-0.775	-0.60208	-0.027083	-0.95833	-0.22708	-0.11667	-1.0812	0.022917	28.059	4.362	-39.923	241.275	101.215	-18.193	162.269	-10.319	227.260	172.980	-24.797	95.405	297.559	299.816	133.452	135.434	9.1407e-05	9.251e-05	5.5436e-05	755	1.151e-06	1.2719e-06	822.82	165.28	1.3605e-06	9.0202e-07	206.95	58.65	44.971	14.03	2.177e-06	19.399	0.00016102	0.0001633	4.7128e-05	763.59	1.7757e-06	1.8127e-06	834.74	169.22	1.7878e-06	1.6767e-06	213.1	61.105	46.825	14.52	1.7117e-06	20.213	104.243	65.703	39.688	-45.185	103.181	68.453	-45.394	-37.696	57.738	113.589	-38.315	-31.348	-30.485	-23.950	80.711	-24.492	-8191	255	
1220.571	1	1	0	0	0.36109	0.38131	0.19138	0.090409	0.14757	0.045612	0.26673	0.2006	0.14337	0.2108	0.32929	0.063752	0.078707	0.11063	0.12982	0.086499	-0.45	-0.84375	0.05625	-0.79375	-0.57292	-0.10417	-0.96042	-0.23542	-0.53125	-0.73542	-0.054167	-0.74583	-0.50417	-0.17292	-0.93958	-0.27083	107.897	21.543	183.136	290.982	238.798	89.998	240.032	172.653	153.579	77.770	-41.943	216.426	144.433	149.081	-9.136	239.567	9.0191e-05	0.00019244	4.3907e-05	753.77	2.3608e-06	2.4159e-06	822.7	164.47	2.0105e-06	1.3068e-06	207.09	58.721	44.716	13.883	1.7173e-06	19.23	0.00016612	0.00016379	4.8001e-05	762.21	1.9017e-06	1.8383e-06	834.06	168.86	1.8935e-06	1.7058e-06	212.74	61.232	46.648	14.492	1.7631e-06	20.131	115.208	26.848	53.114	-45.109	77.293	66.787	-45.074	-37.552	92.952	89.486	-38.305	-31.305	-30.215	-24.203	65.252	-24.254	-8191	255	
1220.645	1	1	0	0	0.088801	0.10963	0.18197	0.21971	0.34066	0.11857	0.19919	0.031703	0.10917	0.20254	0.17338	0.19088	0.15695	0.18529	0.28023	0.23808	-0.15833	-0.83542	-0.010417	-0.81458	-0.48542	-0.35208	-1.1604	-0.34792	-0.32292	-0.91875	-0.060417	-0.87292	-0.62083	-0.2375	-0.99583	-0.44375	16.398	302.306	197.256	222.741	29.635	179.287	169.419	221.020	247.768	265.637	69.230	-31.419	-18.353	-44.369	-48.210	270.387	8.9851e-05	0.00028483	7.6753e-05	752.72	1.3289e-06	2.5329e-06	822.85	164.33	8.7342e-07	2.3014e-06	208.69	58.711	44.49	13.965	2.0036e-06	19.227	0.0001637	0.00015199	4.646e-05	762.75	1.8048e-06	1.8302e-06	834.11	168.61	1.8342e-06	1.6719e-06	213.06	61.162	46.603	14.509	1.7322e-06	20.078	97.446	35.706	21.489	-45.257	89.662	109.512	-45.222	-37.625	64.001	101.555	-38.184	-31.523	-30.040	-24.038	102.162	-23.929	-8191	255	
1220.741	1	1	0	0	0.30504	0.28205	0.23044	0.097379	0.10603	0.069806	0.14944	0.16128	0.15314	0.10292	0.06474	0.20036	0.10808	0.091281	0.065277	0.30195	0.13958	-0.90625	-0.26875	-0.82083	-0.38542	-0.0625	-1.0417	-0.41667	-0.325	-1.0271	-0.064583	-0.65	-0.675	0.085417	-0.99792	-0.32083	253.625	251.166	215.555	3.325	289.826	204.283	285.523	287.820	134.677	161.823	-53.208	258.991	268.583	22.725	120.816	154.020	8.6782e-05	0.00025361	3.7559e-05	752.14	1.3612e-06	1.846e-06	817.9	164.62	1.6374e-06	1.4569e-06	207.63	58.835	44.797	13.759	1.9909e-06	19.349	0.0001635	0.00014813	4.542e-05	761.27	1.7401e-06	1.7867e-06	832.21	168.77	1.8606e-06	1.6232e-06	212.69	61.108	46.649	14.4	1.7449e-06	20.19	117.281	41.599	53.310	-44.901	102.628	71.405	-45.206	-37.815	98.645	72.762	-38.208	-31.298	-30.270	-23.956	88.394	-24.592	-8191	255	
1220.860	1	1	0	0	0.50502	0.19077	0.09488	0.19844	0.098124	0.23477	0.41998	0.1693	0.155	0.12998	0.11684	0.31491	0.18612	0.21296	0.056301	0.31038	0.11875	-1.0208	-0.06875	-0.55208	-0.94583	0.17708	-0.82083	-0.675	0.2375	-0.99375	-0.15417	-0.37292	-0.90833	0.039583	-0.65208	-0.53958	202.229	50.529	23.054	259.948	303.195	213.043	243.158	234.603	-0.506	233.329	-54.036	251.657	-53.494	70.828	60.157	149.016	6.9077e-05	0.00026686	7.4272e-05	749.24	2.2968e-06	2.1421e-06	816.74	163.82	2.1688e-06	1.8821e-06	207.09	58.86	45.068	13.883	1.9788e-06	19.276	0.00016341	0.00015517	4.5929e-05	760.09	1.7186e-06	1.86e-06	832.26	168.41	1.859e-06	1.7617e-06	212.38	61.188	46.589	14.49	1.7871e-06	20.137	106.356	7.897	16.986	-45.097	115.142	63.508	-45.235	-37.946	142.049	109.017	-37.820	-31.794	-30.535	-23.716	93.726	-24.803	-8191	255	
1220.956	1	1	0	0	0.060342	0.25907	0.084541	0.3308	0.26468	0.22561	0.22395	0.014432	0.20008	0.11783	0.20607	0.11941	0.1353	0.22739	0.077295	0.1236	0.36667	-0.81458	-0.10833	-0.28958	-1.0521	0.10625	-0.7125	-0.59375	0.22292	-0.90417	-0.41667	-0.28542	-0.85	-0.33542	-0.46042	-0.58542	291.649	81.960	75.329	294.676	94.586	72.491	252.595	179.278	169.932	248.657	265.897	258.447	197.654	158.298	298.769	163.810	9.122e-05	0.00021905	5.688e-05	752.65	1.295e-06	2.8117e-06	818.66	165.34	2.2761e-06	2.5346e-06	206.72	58.964	45.031	13.988	1.1403e-06	19.216	0.00016251	0.0001553	4.6786e-05	762.13	1.8229e-06	1.8253e-06	831.7	168.79	1.9076e-06	1.6388e-06	211.96	61.117	46.626	14.455	1.7322e-06	20.137	116.879	25.523	15.751	-45.420	119.924	100.880	-45.349	-37.763	74.338	89.103	-38.346	-31.675	-30.746	-23.812	39.442	-24.469	-8191	255	
1221.052	1	1	0	0	0.1431	0.079696	0.10028	0.21336	0.097771	0.22034	0.30799	0.15853	0.18086	0.20056	0.20303	0.15691	0.29781	0.082906	0.14976	0.025055	0.21875	-0.66042	-0.1625	-0.34792	-1.1063	-0.15	-0.53333	-0.72292	0.045833	-0.81458	-0.37917	-0.13125	-0.91875	0.1375	-0.38333	-1.075	245.305	165.389	276.973	281.208	1.148	249.216	250.576	59.508	242.344	73.023	234.415	155.835	223.155	66.941	141.511	-53.730	6.7436e-05	0.00020737	4.2893e-05	748.3	1.7956e-06	2.9587e-06	817.94	164.07	6.4322e-07	3.5794e-06	206.96	58.555	44.948	13.852	1.5874e-06	19.35	0.0001635	0.0001543	4.2642e-05	758.45	1.7799e-06	1.7686e-06	832.42	168.45	1.7943e-06	1.61e-06	212.32	60.901	46.583	14.459	1.7025e-06	20.138	102.210	36.695	28.678	-45.037	91.206	74.084	-45.248	-37.770	12.478	107.026	-38.410	-31.283	-30.378	-23.712	116.052	-24.586	-8191	255	
1221.173	1	1	0	0	0.20931	0.074252	0.097344	0.31837	0.20385	0.062427	0.022334	0.1266	0.062674	0.19677	0.030869	0.021777	0.26089	0.36638	0.21841	0.16315	0.54792	-0.77292	-0.51667	-0.13333	-0.86667	-0.25208	-0.69583	-1.0063	0.23125	-0.89792	-0.62292	-0.064583	-0.8125	-0.0375	-0.49375	-1.1375	36.863	99.737	266.744	143.973	149.568	70.993	218.720	268.277	290.961	-20.513	197.323	196.512	13.023	205.827	-12.597	206.538	7.5809e-05	0.00016001	5.9868e-05	751.02	1.4897e-06	2.5014e-06	820.02	164.22	1.6528e-07	3.0907e-06	206.83	58.418	44.853	13.824	1.9742e-06	19.091	0.00016007	0.00015846	4.4024e-05	759.38	1.7782e-06	1.7031e-06	832.2	168.48	1.8618e-06	1.6502e-06	212.15	60.858	46.555	14.432	1.7972e-06	20.079	109.158	15.378	22.500	-45.221	78.952	112.748	-45.488	-37.848	29.141	101.327	-38.105	-31.190	-30.308	-24.013	88.706	-24.319	-8191	255	
1221.269	1	1	0	0	0.25165	0.14792	0.38035	0.11992	0.35043	0.11351	0.045107	0.14186	0.060738	0.051561	0.15909	0.20661	0.20958	0.10531	0.21182	0.068536	0.40625	-0.79583	-0.48125	-0.13542	-0.75417	-0.17708	-0.30625	-0.96458	-0.28958	-0.47292	-0.73125	-0.2	-1.1042	-0.12917	-0.20625	-0.97292	297.393	6.532	-3.978	293.313	-24.831	-14.246	253.364	69.029	102.785	73.651	3.628	286.881	231.285	277.181	-2.355	228.489	8.7669e-05	0.00020931	8.4603e-05	745.79	1.9543e-06	2.4559e-06	817.42	163.47	1.729e-06	2.9232e-06	206.95	58.833	44.49	13.83	1.9345e-06	19.166	0.00016426	0.00015492	4.3113e-05	756.97	1.7545e-06	1.7858e-06	830.9	167.81	1.862e-06	1.7154e-06	211.81	60.996	46.395	14.368	1.7053e-06	20.074	90.169	49.141	52.916	-45.143	105.255	86.152	-44.932	-37.627	11.305	117.119	-38.335	-32.083	-30.175	-24.240	104.592	-24.288	-8191	255	
1221.340	1	1	0	0	0.081778	0.27682	0.035768	0.14823	0.11613	0.16206	0.24503	0.182	0.34308	0.046342	0.18857	0.24093	0.13009	0.27895	0.37148	0.025431	0.28125	-0.68542	-0.37292	-0.0375	-0.75625	-0.4125	-0.2625	-1.0375	-0.2875	-0.58958	-0.76875	-0.0020833	-0.8875	-0.38125	-0.12917	-0.89792	194.389	265.818	172.262	-35.110	-3.500	117.208	208.278	266.764	156.623	-9.673	104.444	4.337	117.902	194.641	215.419	217.911	0.00010053	0.00020119	3.9804e-05	749.11	1.2756e-06	1.923e-06	813.78	163.67	1.5749e-06	1.1388e-06	206.82	58.362	44.348	13.757	1.6159e-06	19.02	0.00016329	0.00016178	4.1352e-05	757.44	1.75e-06	1.6865e-06	829.08	167.98	1.8387e-06	1.7145e-06	211.13	60.551	46.267	14.343	1.8373e-06	19.976	114.222	38.536	10.939	-45.115	115.162	127.163	-45.091	-37.544	73.581	115.254	-37.983	-31.639	-29.936	-23.994	103.017	-24.751	-8191	255	
1221.461	1	1	0	0	0.040863	0.25256	0.29574	0.19361	0.064935	0.21298	0.3463	0.072347	0.16732	0.067188	0.1607	0.055819	0.18963	0.23932	0.25002	0.10792	0.014583	-0.52083	-0.77083	0.00625	-0.85417	-0.64583	-0.16667	-0.84375	-0.11458	-0.4625	-0.90208	-0.08125	-0.51667	-0.70417	-0.11458	-0.93958	217.641	211.802	205.797	228.474	140.721	192.173	220.447	219.839	60.435	92.244	101.636	-10.299	219.940	149.598	163.602	58.615	8.9135e-05	0.00014643	6.8367e-05	752.05	2.0138e-06	1.5892e-06	813.42	163.66	1.1642e-06	2.7559e-06	206.3	58.493	44.674	13.743	1.8152e-06	19.117	0.0001637	0.00015827	4.1982e-05	758.97	1.7924e-06	1.615e-06	828.21	167.55	1.8269e-06	1.7187e-06	211.01	60.817	46.295	14.335	1.8457e-06	20.03	90.795	18.090	25.202	-45.489	117.348	61.513	-45.366	-37.993	30.583	113.925	-38.763	-31.677	-30.748	-24.435	112.640	-24.690	-8191	255	
1221.556	1	1	0	0	0.14649	0.094631	0.12833	0.057944	0.13627	0.14027	0.30418	0.088095	0.1401	0.060974	0.13473	0.27381	0.062621	0.13773	0.20203	0.041065	0.15833	-0.27083	-0.9875	0.052083	-0.4	-0.86875	-0.32083	-0.88333	-0.48542	-0.18125	-0.83333	-0.12708	-0.46458	-0.64167	0.06875	-0.97917	27.672	229.028	134.150	96.858	196.022	39.289	267.978	235.747	236.493	52.774	239.625	166.103	-30.682	242.917	222.176	284.789	6.348e-05	0.00023581	8.1465e-05	746.5	1.1613e-06	2.0491e-06	813.9	163.57	2.2554e-07	2.1275e-06	206.83	58.402	44.435	13.768	2.0307e-06	19.066	0.00015947	0.00016175	4.4092e-05	756.73	1.8472e-06	1.7499e-06	828.04	167.8	1.8615e-06	1.7653e-06	211.24	60.638	46.196	14.363	1.8592e-06	19.998	108.410	59.273	38.968	-45.582	128.804	62.389	-45.702	-37.946	138.771	64.046	-38.729	-31.949	-30.793	-24.268	98.763	-24.689	-8191	255	
1221.652	1	1	0	0	0.15494	0.07765	0.084236	0.12005	0.13017	0.19481	0.12285	0.33188	0.17227	0.20567	0.19105	0.31721	0.12864	0.16494	0.11196	0.25595	0.03125	0.029167	-0.86042	-0.1375	-0.4	-0.73333	0.10625	-1.0021	-0.49583	0.072917	-1.0833	-0.23125	-0.15	-0.60208	0.12083	-0.94375	4.415	278.068	31.867	252.871	-55.419	141.193	167.457	225.032	82.605	48.500	68.706	262.104	9.859	97.032	108.310	45.048	6.417e-05	0.00015354	7.177e-05	747.03	1.982e-06	3.5334e-07	816.89	163.22	5.3484e-07	2.6615e-06	206.15	58.324	44.452	13.786	2.479e-06	18.967	0.00016031	0.00016224	4.4874e-05	757.78	1.8878e-06	1.7689e-06	830.06	167.54	1.8784e-06	1.854e-06	211.45	60.555	46.217	14.358	1.8229e-06	19.949	107.698	13.797	21.924	-45.562	120.151	88.178	-45.626	-37.852	-41.609	85.674	-38.619	-31.984	-30.918	-24.562	116.222	-24.561	-8191	255	
1221.748	1	1	0	0	0.10497	0.19575	0.30693	0.14898	0.16683	0.18861	0.15695	0.14362	0.15869	0.11712	0.27884	0.40754	0.15584	0.20019	0.16106	0.23874	-0.25	-0.060417	-1.0521	-0.27917	-0.20208	-0.88125	0.27292	-0.84167	-0.625	0.029167	-0.8125	-0.33958	-0.11042	-1.05	0.0375	-0.89167	210.372	140.814	61.826	263.388	293.035	3.321	187.675	273.876	-15.641	252.367	292.511	287.050	292.198	30.528	26.952	-3.253	7.7708e-05	0.00023772	8.5389e-05	745.94	2.3442e-06	2.5825e-06	813.3	163.14	2.6744e-06	1.671e-06	205.48	58.372	44.687	13.842	2.4176e-06	19.138	0.00016021	0.00017901	4.4107e-05	758.19	1.9839e-06	1.7469e-06	829.09	167.4	1.8868e-06	1.7813e-06	211.39	60.708	46.425	14.379	1.8581e-06	20.008	106.579	31.529	26.598	-45.808	130.616	83.702	-45.858	-38.325	80.420	93.473	-38.852	-32.521	-30.680	-24.440	129.554	-24.788	-8191	255	
1221.844	1	1	0	0	0.13106	0.2308	0.16701	0.087806	0.19319	0.16191	0.11366	0.10907	0.20332	0.11327	0.055726	0.1089	0.11776	0.31764	0.27735	0.17384	-0.39792	0.14792	-0.60833	-0.59792	0	-0.81875	-0.30625	-0.7375	-0.50625	0.027083	-0.88125	-0.27083	-0.05625	-0.9375	-0.072917	-0.28958	-30.950	253.947	198.880	10.633	116.072	180.159	32.818	227.954	154.546	133.927	-55.382	-12.831	-18.395	10.932	195.530	197.266	7.3649e-05	0.00017822	7.7546e-05	745.13	2.4133e-06	1.7706e-06	814.66	164.13	5.6088e-07	3.6229e-06	207.04	58.201	44.513	13.719	7.0854e-07	19.173	0.00016251	0.00017638	4.4297e-05	757.27	1.9921e-06	1.723e-06	829.26	167.82	1.7951e-06	1.8432e-06	211.93	60.773	46.431	14.379	1.8694e-06	20.071	113.999	41.698	45.259	-45.757	106.387	92.354	-45.968	-38.158	87.203	97.865	-38.763	-32.244	-30.507	-24.455	78.539	-25.344	-8191	255	
1221.940	1	1	0	0	0.14675	0.28489	0.051821	0.19563	0.23362	0.053162	0.23095	0.19849	0.25103	0.29469	0.30955	0.29943	0.24883	0.15356	0.070905	0.21218	-0.71458	0.25	-0.57292	-0.61875	-0.13125	-0.96667	-0.29167	-0.47292	-0.7625	0.23333	-0.87917	-0.48333	-0.05	-0.83542	0.14792	-0.21667	-1.876	286.434	2.410	218.913	180.849	278.161	-4.111	180.296	-48.761	206.226	-33.405	101.528	296.867	55.514	101.093	272.504	9.6464e-05	0.00024166	6.2905e-05	747.7	2.4133e-06	2.536e-06	815.65	163.81	8.4997e-07	1.2405e-06	207.17	58.521	44.907	13.902	3.1101e-06	19.078	0.00015951	0.00016966	4.4236e-05	757.27	1.8751e-06	1.6811e-06	830.28	168.2	1.7707e-06	1.7789e-06	212.24	60.82	46.553	14.459	1.6978e-06	20.069	97.573	32.401	27.209	-45.925	135.259	82.224	-45.841	-38.013	92.005	85.668	-39.242	-31.953	-30.713	-24.700	70.237	-25.541	-8191	255	
1222.036	1	1	0	0	0.21612	0.081332	0.077992	0.30768	0.19681	0.22121	0.14313	0.32255	0.24265	0.095973	0.2344	0.37932	0.14192	0.24097	0.042717	0.17955	-0.43125	0.36458	-0.50208	-0.80625	-0.2375	-0.78125	-0.37708	-0.11458	-0.86667	0.15625	-0.52083	-0.68958	-0.022917	-0.76667	-0.19375	-0.064583	-33.473	184.431	200.698	273.844	229.981	94.371	43.029	222.742	139.905	271.457	280.328	256.771	7.476	17.227	274.468	227.094	9.319e-05	0.00014221	6.175e-05	746.96	1.3226e-06	2.9337e-06	815.8	164.5	9.9739e-07	1.6094e-06	206.63	58.504	44.478	13.91	1.711e-06	19.281	0.00015959	0.0001642	4.3576e-05	758.19	1.9246e-06	1.6696e-06	829.74	168.29	1.7794e-06	1.7758e-06	211.68	60.817	46.271	14.447	1.7801e-06	20.104	102.156	42.238	9.946	-45.838	89.407	101.617	-46.021	-38.338	104.081	108.649	-38.735	-32.298	-30.916	-24.538	130.417	-24.618	-8191	255	
1222.132	1	1	0	0	0.047702	0.084081	0.16452	0.18005	0.12576	0.36322	0.31113	0.021381	0.21078	0.16467	0.14977	0.026682	0.17082	0.24519	0.25372	0.24554	-0.62917	-0.035417	-0.34167	-0.81458	-0.027083	-0.82083	-0.53542	-0.10208	-1.0021	-0.28542	-0.42917	-0.76667	-0.1875	-0.65208	-0.39792	0.047917	144.955	-42.729	259.472	300.959	-42.585	184.719	203.988	264.073	188.199	271.785	237.217	25.910	12.808	50.466	280.957	208.228	8.2265e-05	0.00023532	6.4357e-05	747.18	8.462e-07	2.3059e-06	816.56	163.64	7.8454e-07	2.6804e-06	206.29	58.639	44.645	13.928	1.1763e-06	19.248	0.00015459	0.00017431	4.6794e-05	758.53	1.8661e-06	1.6877e-06	831.4	168.41	1.6937e-06	1.738e-06	211.77	60.867	46.381	14.436	1.7998e-06	20.067	101.994	25.007	9.162	-45.656	128.635	111.105	-45.788	-38.229	-0.740	120.816	-38.955	-32.439	-30.849	-24.431	127.423	-25.130	-8191	255	
1222.253	1	1	0	0	0.19544	0.17708	0.17881	0.20686	0.12123	0.15721	0.095912	0.060578	0.24385	0.10306	0.1246	0.35771	0.22443	0.14504	0.27726	0.29912	-0.52917	-0.18333	-0.22083	-0.75417	0.35625	-0.69167	-0.61458	0.10833	-0.94167	-0.027083	-0.25833	-0.74167	-0.18542	-0.71667	-0.54375	0.0041667	70.015	150.405	27.865	255.999	182.662	274.483	-47.615	195.550	179.292	154.859	-41.347	-33.959	242.138	182.465	151.988	283.708	9.3258e-05	0.00022958	8.1528e-05	743.69	9.9069e-07	1.2097e-06	814.28	163.59	3.8826e-07	2.3887e-06	206.22	58.282	44.383	13.89	1.6579e-06	19.135	0.00015385	0.00016632	4.5397e-05	755.97	1.8418e-06	1.7255e-06	829	167.39	1.6799e-06	1.7921e-06	211.44	60.647	46.303	14.375	1.8133e-06	20	107.456	28.714	26.805	-45.786	114.302	83.412	-45.973	-38.374	114.556	63.761	-38.882	-32.513	-31.451	-24.875	53.743	-24.863	-8191	255	
1222.349	1	1	0	0	0.18662	0.24453	0.25484	0.19629	0.032554	0.34184	0.58056	0.23193	0.19731	0.06958	0.3198	0.22725	0.13696	0.20925	0.18101	0.23073	-0.68125	-0.26458	0.0375	-0.80208	0.0625	-0.4625	-0.72917	-0.079167	-0.87917	-0.18958	0.027083	-1.0458	-0.029167	-0.32708	-0.78125	-0.058333	-6.474	4.749	204.532	151.085	301.493	243.420	257.597	125.985	217.058	202.053	-35.410	-43.478	212.534	32.435	152.747	171.110	8.7721e-05	0.00016159	6.7921e-05	748.37	1.7228e-06	1.9413e-06	811.02	164.31	2.1025e-07	2.4919e-06	206.31	58.345	44.58	13.907	2.3572e-06	19.101	0.00015965	0.00016175	4.5617e-05	756.72	1.8859e-06	1.7294e-06	826.73	168.09	1.7541e-06	1.771e-06	211.27	60.702	46.283	14.403	1.7435e-06	20.03	110.463	-3.772	35.850	-45.711	107.055	100.450	-45.891	-38.087	39.929	101.658	-38.729	-32.110	-30.884	-24.609	56.231	-25.382	-8191	255	
1222.445	1	1	0	0	0.18218	0.19253	0.17356	0.18316	0.15919	0.15335	0.21332	0.074294	0.15968	0.11063	0.18992	0.12162	0.21244	0.27456	0.23142	0.2448	-0.38125	-0.51042	-0.0375	-1.0146	-0.23333	-0.26042	-0.72292	0.14583	-0.77083	-0.53333	-0.027083	-0.89792	-0.25625	-0.19167	-0.74583	-0.016667	216.110	-13.884	220.147	161.294	207.797	205.423	232.660	-35.134	43.258	-40.877	-40.094	81.597	204.967	158.128	125.145	205.267	5.8571e-05	0.00020066	5.4349e-05	747.03	1.4679e-06	2.5781e-06	814.08	163.1	1.6591e-06	1.6543e-06	205.86	58.103	44.492	13.818	1.9881e-06	19.142	0.00015546	0.00015759	4.8115e-05	756.47	1.7799e-06	1.7737e-06	828.84	167.46	1.7606e-06	1.7296e-06	211.13	60.569	46.323	14.382	1.7432e-06	19.993	95.093	40.603	47.545	-45.723	110.291	90.761	-45.786	-38.246	127.241	139.324	-38.866	-32.159	-30.867	-24.229	97.492	-25.297	-8191	255	
1222.541	1	1	0	0	0.051502	0.43722	0.064008	0.1805	0.26638	0.34575	0.18229	0.23613	0.31995	0.17157	0.091393	0.10882	0.15581	0.36817	0.17858	0.060998	-0.20833	-0.43125	0.14167	-0.95625	-0.20625	-0.20833	-0.95625	-0.01875	-0.52708	-0.61875	-0.095833	-0.91667	-0.26667	-0.20417	-1.0792	0.10833	-46.717	-18.836	218.089	-16.559	157.130	206.607	62.285	145.425	-10.232	-19.810	263.822	228.682	115.635	59.059	153.542	206.948	7.5668e-05	0.00021229	6.6749e-05	743.19	8.9454e-07	1.4021e-06	812.92	163.63	1.7841e-06	2.455e-06	204.94	58.271	44.278	13.688	2.4208e-06	19.15	0.00016453	0.00016642	4.816e-05	756.46	1.9367e-06	1.9156e-06	828.89	167.16	1.8587e-06	1.7013e-06	211.1	60.593	46.18	14.355	1.7726e-06	19.971	96.127	19.241	53.847	-46.134	88.039	98.320	-45.837	-38.592	70.885	95.654	-38.757	-31.922	-31.028	-24.419	65.908	-25.491	-8191	255	
1222.636	1	1	0	0	0.26957	0.14961	0.20328	0.06167	0.068366	0.27927	0.25219	0.32774	0.1295	0.31221	0.22436	0.17187	0.22386	0.10041	0.16858	0.17476	-0.28125	-0.8375	0.12083	-0.75833	-0.30208	-0.25417	-1.0542	-0.058333	-0.55417	-0.96042	0.15625	-0.91458	-0.4125	0.075	-0.97917	-0.20625	266.979	25.929	148.957	-51.232	172.263	268.205	145.586	225.883	77.969	132.162	163.654	51.922	121.740	270.126	113.328	207.156	9.4197e-05	0.00019923	7.1608e-05	749.29	1.2778e-06	2.7359e-06	809.59	163.59	8.482e-07	2.0966e-06	205.75	57.997	44.647	13.841	2.2046e-06	19.192	0.00016416	0.00015528	4.7029e-05	757.63	1.9169e-06	1.8136e-06	826.45	167.47	1.7839e-06	1.7296e-06	211.34	60.64	46.25	14.364	1.7186e-06	19.949	111.449	41.102	34.198	-45.973	93.919	99.740	-45.946	-38.481	91.208	41.109	-39.124	-32.353	-30.850	-24.795	106.608	-25.328	-8191	255	
1222.732	1	1	0	0	0.56361	0.080818	0.035384	0.17338	0.103	0.26035	0.18142	0.14751	0.2384	0.31535	0.077327	0.14802	0.10539	0.10255	0.061203	0.28756	-0.13333	-0.725	0.2625	-0.81458	-0.575	-0.047917	-0.85417	-0.11458	-0.18958	-0.93958	0.027083	-0.55208	-0.6125	0.0041667	-0.84583	-0.20625	28.681	216.700	210.336	237.488	74.826	99.535	227.174	98.005	6.475	301.285	49.491	237.323	252.197	-18.169	-40.738	-45.950	9.1196e-05	0.00013687	5.7355e-05	748.59	1.5947e-06	2.145e-06	812.76	163.33	1.0327e-06	2.3943e-06	205.3	58.404	44.668	13.792	1.3073e-06	19.057	0.00015891	0.00015976	4.7158e-05	759.72	1.8181e-06	1.8694e-06	829.27	167.76	1.8432e-06	1.6872e-06	210.85	60.778	46.267	14.388	1.6684e-06	19.984	119.520	63.510	36.242	-45.950	117.556	58.248	-46.046	-38.450	98.522	93.041	-38.973	-32.493	-31.078	-24.414	72.474	-25.269	-8191	255	
1222.853	1	1	0	0	0.044596	0.4461	0.18157	0.19761	0.21731	0.02646	0.41975	0.21085	0.15389	0.14859	0.23321	0.16762	0.34676	0.10543	0.1112	0.066656	-0.0083333	-0.8	0.14375	-0.68125	-0.56667	0.077083	-0.94792	-0.15625	0.054167	-1.0812	-0.052083	-0.7375	-0.53958	0.13958	-0.75208	-0.45208	135.482	102.306	275.572	244.199	266.532	21.471	285.696	176.363	189.224	-3.619	247.676	262.685	272.204	17.991	280.844	185.124	6.7137e-05	0.00020818	5.0709e-05	747.15	1.6434e-06	2.1306e-06	813.64	163.97	1.7708e-06	2.4955e-06	205.23	58.49	44.822	13.919	1.9053e-06	19.178	0.00015775	0.00015694	4.5557e-05	757.49	1.7415e-06	1.7979e-06	829.91	168.28	1.8055e-06	1.643e-06	211.24	60.95	46.466	14.469	1.6903e-06	20.124	102.162	45.637	37.532	-45.902	96.327	80.598	-46.106	-38.478	124.416	89.478	-38.903	-32.138	-31.143	-24.835	81.206	-25.528	-8191	255	
1222.949	1	1	0	0	0.051036	0.18443	0.19641	0.079077	0.1948	0.15178	0.11852	0.047263	0.1246	0.03563	0.1594	0.090726	0.067852	0.22393	0.21562	0.12168	0.175	-0.83542	-0.13333	-0.58333	-0.80833	0.23542	-0.8375	-0.28958	-0.22708	-0.88125	0.058333	-0.325	-0.60208	0.016667	-0.79792	-0.5125	260.264	25.100	214.641	241.902	65.513	-10.755	167.185	1.615	208.488	-46.596	54.433	34.215	194.965	8.766	-2.070	253.617	5.8271e-05	0.00025085	4.1074e-05	747.08	1.818e-06	7.9795e-07	816.62	164.17	1.1618e-06	2.1913e-06	205.91	58.412	44.753	13.803	1.0762e-06	19.178	0.00016009	0.00014954	4.4509e-05	757.95	1.7234e-06	1.784e-06	830.1	168.08	1.8744e-06	1.6788e-06	211.81	60.999	46.592	14.448	1.6407e-06	20.102	108.781	48.941	49.185	-45.866	114.378	88.651	-45.950	-38.693	95.549	111.863	-39.054	-32.167	-31.081	-25.028	145.975	-25.359	-8191	255	
1223.043	1	1	0	0	0.094504	0.17254	0.23421	0.42982	0.13599	0.096609	0.087598	0.38227	0.11526	0.22638	0.25664	0.22531	0.086999	0.083334	0.12893	0.25032	0.26458	-0.75625	-0.06875	-0.47292	-0.91875	0.15417	-0.85417	-0.73333	-0.19583	-0.56458	-0.26667	-0.22083	-0.78542	0.16042	-0.39583	-0.66458	227.305	86.596	233.750	284.827	136.759	124.072	-37.040	156.628	67.124	132.658	300.520	10.903	209.972	253.871	156.038	226.497	8.3794e-05	0.00025007	6.7989e-05	751.37	1.3965e-06	1.6874e-06	821.57	164.88	4.5949e-07	1.3574e-06	207.09	58.792	44.547	13.86	1.1844e-06	19.166	0.00015802	0.00014674	4.6316e-05	759.41	1.7703e-06	1.6856e-06	832.84	168.31	1.8882e-06	1.6607e-06	211.39	61.006	46.37	14.446	1.7004e-06	20.106	110.618	35.300	32.507	-45.832	114.933	95.783	-46.060	-38.353	79.936	98.902	-38.711	-32.323	-30.964	-24.859	93.558	-25.767	-8191	255	
1223.139	1	1	0	0	0.16749	0.17938	0.126	0.26702	0.24347	0.14283	0.2199	0.19394	0.079555	0.17003	0.33272	0.38652	0.072015	0.10031	0.17547	0.13778	0.35208	-0.84375	-0.20833	-0.27083	-0.68125	0.085417	-0.79792	-0.6125	0.09375	-0.75208	-0.25	-0.00625	-0.87292	-0.15625	-0.33333	-0.4875	140.151	36.747	138.224	241.983	-26.318	233.642	206.696	265.739	-26.057	158.897	301.000	240.224	-14.209	109.661	200.261	174.720	8.1887e-05	0.00010591	3.7229e-05	749.01	1.8001e-06	2.7383e-06	810.59	163.91	1.0607e-06	1.7998e-06	207.12	58.421	44.711	13.822	1.7022e-06	19.256	0.00017114	0.00015539	4.391e-05	759.14	1.7268e-06	1.8036e-06	828.04	168.19	1.875e-06	1.5742e-06	211.37	60.873	46.369	14.434	1.6742e-06	20.083	101.045	17.143	38.725	-46.043	116.319	84.439	-46.037	-38.733	127.773	92.600	-39.047	-32.176	-30.821	-25.050	91.234	-25.521	-8191	255	
1223.236	1	1	0	0	0.13743	0.14979	0.11891	0.19042	0.11999	0.26234	0.11783	0.33122	0.14894	0.31679	0.094507	0.16111	0.14078	0.17827	0.25674	0.10117	0.34167	-0.87292	-0.4875	-0.00625	-0.74583	-0.26042	-0.45833	-0.85417	0.27708	-0.73542	-0.62708	-0.15	-0.75208	-0.42292	-0.26042	-0.79375	17.781	181.027	4.161	-15.943	-44.645	-5.252	150.551	243.487	147.921	-48.003	180.453	194.825	68.556	-51.090	-11.042	34.554	7.008e-05	0.00019019	6.5697e-05	745.58	1.3563e-06	3.6413e-06	815.34	163.53	1.8806e-06	2.1904e-06	204.47	58.397	44.756	13.806	2.8685e-06	19.146	0.00016606	0.00015095	4.372e-05	757.94	1.7161e-06	1.8148e-06	830.86	167.99	1.8871e-06	1.6247e-06	211.07	60.802	46.573	14.434	1.7507e-06	20.076	114.011	38.432	59.821	-46.055	134.068	88.039	-45.848	-38.803	100.482	99.906	-39.236	-32.482	-30.748	-24.455	106.294	-25.372	-8191	255	
1223.332	1	1	0	0	0.18442	0.020224	0.094634	0.13717	0.3071	0.29024	0.41724	0.055042	0.23121	0.07894	0.2073	0.19797	0.1251	0.33908	0.18876	0.19373	0.48125	-0.4875	-0.62708	0.047917	-0.72917	-0.27708	-0.27292	-0.88958	0.30625	-0.43542	-0.63958	-0.052083	-0.72917	-0.30833	-0.0020833	-0.84167	183.162	-27.614	153.704	-15.621	226.197	141.899	284.854	138.344	53.603	59.532	220.435	190.245	203.799	-36.517	208.578	169.369	7.7195e-05	0.00010276	8.5931e-05	746.95	1.6577e-06	1.9832e-06	816.66	164.18	1.1859e-06	3.259e-06	206.78	58.53	45.016	13.951	1.4598e-06	19.175	0.00016164	0.00015414	4.3727e-05	758.55	1.7429e-06	1.7089e-06	830.84	168.12	1.8843e-06	1.689e-06	211.66	60.849	46.584	14.48	1.6586e-06	20.116	98.999	48.278	8.144	-46.016	95.955	92.796	-45.930	-38.507	95.427	97.223	-38.999	-32.314	-31.310	-25.126	70.631	-25.430	-8191	255	
1223.428	1	1	0	0	0.1175	0.32986	0.11514	0.1376	0.20246	0.13548	0.2019	0.13172	0.19203	0.045316	0.061978	0.1491	0.2114	0.26071	0.13838	0.18817	0.25417	-0.37083	-0.62292	-0.0375	-0.8	-0.22083	-0.15	-0.95625	-0.0020833	-0.5375	-0.725	0.175	-0.86667	-0.58542	-0.033333	-0.82708	184.137	240.093	301.474	193.727	186.177	-0.430	230.968	261.017	248.621	120.240	236.654	-5.024	-34.535	226.604	27.273	241.933	7.1963e-05	0.00029112	3.9783e-05	752.36	1.7007e-06	2.346e-06	818.45	163.93	1.5532e-06	1.8414e-06	206.42	59.091	45.005	13.876	1.038e-06	19.264	0.00015972	0.00016099	4.2012e-05	759.97	1.7e-06	1.6923e-06	831.54	168.2	1.7741e-06	1.762e-06	211.75	61.235	46.643	14.524	1.7585e-06	20.131	109.896	69.265	57.757	-45.986	98.261	74.964	-45.961	-38.312	109.487	85.405	-39.095	-32.630	-31.017	-24.797	79.860	-25.638	-8191	255	
1223.524	1	1	0	0	0.16506	0.17539	0.23912	0.29748	0.13584	0.020711	0.29945	0.074986	0.21907	0.21845	0.20647	0.34901	0.13476	0.16716	0.13967	0.23977	0.097917	-0.48958	-0.66458	0	-0.91875	-0.53333	-0.17917	-0.99375	-0.079167	-0.32083	-0.8125	0.15	-0.52083	-0.93958	0.10208	-0.80417	190.828	101.423	17.459	218.646	29.652	182.247	238.520	17.109	235.791	284.149	-31.300	209.087	24.179	207.457	286.926	287.448	8.2934e-05	0.00032019	8.6548e-05	750.1	1.8263e-06	2.2988e-06	816.95	164.24	9.4958e-07	1.7737e-06	207.43	58.956	44.925	14.098	2.31e-06	19.389	0.0001566	0.00015617	4.2665e-05	760.34	1.7294e-06	1.6271e-06	830.9	168.23	1.7859e-06	1.5952e-06	212.33	61.362	46.734	14.591	1.6626e-06	20.244	103.553	34.606	58.102	-45.949	89.102	94.981	-46.084	-38.660	62.361	110.633	-38.898	-32.394	-30.623	-24.984	61.727	-25.818	-8191	255	
1223.645	1	1	0	0	0.23195	0.40152	0.10938	0.31867	0.10709	0.20451	0.17651	0.13801	0.050929	0.28736	0.1749	0.16663	0.20984	0.14605	0.43391	0.14395	0.16875	0.10417	-0.85	0.066667	-0.48333	-0.74583	-0.022917	-0.72292	-0.25	-0.10208	-0.8375	-0.1375	-0.56875	-0.58333	0.13958	-0.92917	134.227	299.093	163.813	243.213	-45.505	119.376	127.972	220.318	127.478	107.976	17.627	133.994	266.087	83.303	275.584	239.775	9.2097e-05	0.00022039	5.3755e-05	750.18	1.614e-06	9.5843e-07	815.32	164.44	1.1221e-06	1.8737e-06	206.09	58.904	44.84	13.981	1.5147e-06	19.322	0.00015668	0.00015808	4.0046e-05	760.39	1.8263e-06	1.571e-06	831.63	168.6	1.7805e-06	1.7037e-06	212.01	61.133	46.686	14.57	1.7536e-06	20.208	115.964	19.287	29.568	-46.014	82.926	48.925	-46.025	-38.489	114.111	101.967	-39.067	-32.474	-31.099	-25.201	93.544	-25.762	-8191	255	
1223.741	1	1	0	0	0.13702	0.28288	0.095113	0.1237	0.25389	0.22479	0.36451	0.24557	0.33971	0.15475	0.09946	0.11691	0.40296	0.14709	0.14575	0.065692	-0.11667	0.054167	-0.81875	-0.075	-0.24375	-0.68333	0.095833	-0.87292	-0.11458	0.09375	-0.91458	-0.18125	-0.4375	-0.62292	0.17917	-0.725	59.809	121.873	261.478	257.903	79.768	223.231	252.086	209.454	-4.464	267.875	3.002	132.635	173.205	57.275	-25.908	253.656	7.7898e-05	0.00022098	5.015e-05	750	2.1321e-06	2.3218e-06	819.92	164.51	1.5463e-06	2.1327e-06	205.83	58.896	45.066	13.973	1.4338e-06	19.375	0.00015569	0.00016558	4.1815e-05	760.1	1.7209e-06	1.6545e-06	832.7	168.58	1.7038e-06	1.7888e-06	212.01	61.132	46.695	14.57	1.6993e-06	20.243	92.291	39.712	37.177	-46.030	106.283	93.146	-46.021	-38.630	64.913	94.536	-39.081	-32.585	-30.968	-24.987	74.760	-26.021	-8191	255	
1223.812	1	1	0	0	0.18639	0.11898	0.14701	0.11006	0.20425	0.090123	0.1218	0.23365	0.13265	0.26859	0.32051	0.24367	0.017251	0.040164	0.21145	0.40527	-0.16458	0.17083	-0.85625	-0.066667	-0.17917	-0.68333	-0.039583	-0.75625	-0.32292	0.0375	-0.87292	-0.13542	-0.11667	-1.0771	-0.0020833	-0.5625	268.698	29.057	120.382	189.616	209.488	284.265	167.893	62.235	-25.112	127.816	133.980	38.243	-36.461	133.659	22.377	262.874	7.5497e-05	0.00022336	1.9576e-05	750.42	1.2188e-06	1.448e-06	817.07	164.25	1.1296e-06	1.6657e-06	207.08	58.857	44.794	13.953	4.9826e-07	19.448	0.00015779	0.00016221	4.1746e-05	760.09	1.7398e-06	1.6195e-06	832.52	168.59	1.7344e-06	1.6779e-06	212.61	61.427	46.824	14.622	1.7117e-06	20.29	109.130	25.529	5.054	-46.195	123.914	96.964	-45.657	-38.447	107.573	120.107	-39.245	-32.512	-31.097	-24.701	85.533	-25.469	-8191	255	
1223.933	1	1	0	0	0.14257	0.13659	0.20755	0.13901	0.26508	0.14683	0.29114	0.2874	0.11234	0.19739	0.2407	0.090486	0.31612	0.24143	0.025261	0.13642	-0.25	0.045833	-0.83542	-0.0625	0.041667	-0.96667	-0.19167	-0.42292	-0.61042	0.0375	-1.0396	-0.49792	-0.014583	-0.85417	-0.15417	-0.59167	164.078	-0.205	299.627	240.503	201.896	-32.631	253.474	254.638	64.478	38.720	99.568	6.350	229.081	-15.384	75.315	133.556	6.7407e-05	0.00018261	5.436e-05	749.65	2.345e-06	2.8134e-06	817.97	164.48	1.1689e-06	2.8354e-06	208.52	58.936	45.235	14.061	2.3223e-06	19.343	0.00015519	0.0001615	4.1488e-05	761.3	1.7909e-06	1.5109e-06	833.87	168.75	1.7668e-06	1.6941e-06	212.69	61.529	46.9	14.679	1.6436e-06	20.253	99.229	30.346	56.367	-45.936	94.196	90.151	-46.048	-38.617	109.375	84.271	-39.078	-32.303	-30.944	-24.834	91.570	-25.182	-8191	255	
1224.029	1	1	0	0	0.17155	0.15493	0.18941	0.094546	0.23769	0.099468	0.1594	0.14148	0.11957	0.22205	0.25925	0.2792	0.19317	0.09931	0.15175	0.17223	-0.43333	0.30417	-0.58125	-0.25208	0.020833	-0.96667	-0.475	-0.38542	-0.76875	0.035417	-0.65208	-0.46458	0.035417	-0.81042	-0.36875	-0.0375	165.622	254.644	-23.264	265.788	-20.591	198.089	297.392	268.302	44.807	-9.222	231.236	165.874	273.545	240.477	27.729	280.747	9.5384e-05	0.00017878	7.2922e-05	750.9	1.4608e-06	2.9831e-06	816.49	164.46	3.5282e-07	1.9189e-06	207.58	59.234	45.541	14.017	2.2212e-06	19.346	0.00015306	0.00015452	4.0023e-05	760.63	1.7929e-06	1.4958e-06	832.09	168.79	1.6372e-06	1.7503e-06	212.65	61.572	46.931	14.645	1.6326e-06	20.279	100.347	39.999	30.502	-46.376	123.909	131.747	-46.249	-38.457	87.157	89.828	-39.084	-32.359	-30.791	-24.973	57.747	-25.396	-8191	255	
1224.124	1	1	0	0	0.14585	0.069281	0.052187	0.11251	0.21318	0.22123	0.1746	0.18284	0.086355	0.20161	0.28927	0.25528	0.16958	0.095364	0.090737	0.037272	-0.50833	-0.064583	-0.31042	-0.46667	0.022917	-0.96875	-0.1875	-0.16042	-0.96458	0.12292	-0.55208	-0.71667	0.095833	-0.81042	-0.37917	-0.225	39.515	56.897	303.071	-21.194	-23.550	51.268	221.205	233.788	70.166	146.189	282.679	257.402	-34.833	163.732	154.906	278.745	8.3614e-05	0.00023884	4.0638e-05	754.12	1.9024e-06	1.7655e-06	822.14	164.52	9.0733e-07	1.4902e-06	207.38	59.305	45.18	13.913	2.1549e-06	19.414	0.00014796	0.00015868	4.0722e-05	761.7	1.8231e-06	1.5833e-06	834.47	169.07	1.7319e-06	1.7133e-06	212.46	61.653	47.008	14.591	1.6892e-06	20.271	109.901	48.640	22.594	-45.828	81.540	89.193	-45.956	-38.605	81.870	97.621	-39.077	-32.524	-30.970	-25.335	85.720	-25.827	-8191	255	
1224.221	1	1	0	0	0.34899	0.1475	0.27874	0.32027	0.12943	0.12116	0.042185	0.062047	0.00992	0.32518	0.16218	0.1999	0.27821	0.040768	0.2678	0.30019	-0.36458	-0.075	-0.57292	-0.62083	-0.22708	-0.77292	-0.275	-0.10833	-0.75	-0.077083	-0.27917	-0.86458	0.03125	-0.65625	-0.59583	-0.24167	17.438	101.332	178.154	170.277	17.664	36.778	170.125	226.809	65.122	216.121	214.945	-30.107	262.632	6.914	48.206	137.147	7.1981e-05	0.0002522	9.1344e-05	750.18	1.7946e-06	2.3473e-06	817.35	164.86	1.2571e-06	1.3658e-06	206.3	59.125	44.909	14.161	2.1562e-06	19.563	0.00014728	0.0001553	4.2452e-05	761.3	1.737e-06	1.6066e-06	833.08	169.03	1.6771e-06	1.6472e-06	212.14	61.404	46.803	14.662	1.6612e-06	20.372	98.386	36.299	37.736	-46.105	90.125	68.489	-45.878	-38.314	140.976	61.782	-38.655	-32.732	-31.309	-25.234	60.030	-25.450	-8191	255	
1224.340	1	1	0	0	0.16503	0.4556	0.3209	0.16284	0.097576	0.088919	0.1442	0.1851	0.24015	0.33135	0.167	0.15406	0.25575	0.15109	0.05992	0.17551	-0.56875	-0.18542	-0.26667	-0.89167	0.125	-0.53542	-0.81667	-0.097917	-0.93333	-0.2375	-0.13958	-0.85208	0.047917	-0.85833	-0.47292	0.03125	-45.984	208.318	214.928	238.228	-20.520	93.231	255.431	3.554	270.840	246.156	177.368	126.924	188.914	81.495	134.842	280.774	8.1389e-05	0.00024938	4.7764e-05	750.75	1.342e-06	4.3257e-07	818.9	164.89	1.3421e-06	2.2367e-06	207.55	59.497	44.806	14.186	2.5282e-06	19.464	0.00015224	0.00014886	4.183e-05	761.64	1.878e-06	1.615e-06	833.43	168.7	1.7055e-06	1.597e-06	212.5	61.606	46.765	14.661	1.6736e-06	20.294	106.439	15.443	40.653	-46.169	119.975	76.701	-45.943	-38.544	97.881	83.344	-38.656	-32.374	-31.063	-25.035	97.359	-25.662	-8191	255	
1224.437	1	1	0	0	0.042121	0.17761	0.058448	0.029213	0.11174	0.084572	0.17058	0.12667	0.051554	0.19074	0.061601	0.21111	0.019274	0.13561	0.20271	0.30416	-0.52708	-0.225	-0.275	-0.99375	0.12708	-0.62917	-0.83542	0.075	-0.72708	-0.21458	-0.15833	-0.95625	0.13333	-0.36458	-0.61042	0.38333	0.138	48.269	-30.338	209.912	-0.933	176.514	275.758	298.746	-24.868	-23.069	254.010	183.275	122.054	3.624	166.471	225.253	8.4259e-05	0.00014409	7.4041e-05	750.78	1.9383e-06	3.0799e-06	819.39	164.06	8.728e-07	2.2473e-06	207.07	59.046	45.059	14.066	1.0977e-06	19.323	0.0001481	0.00014848	4.1549e-05	761.77	1.8124e-06	1.6168e-06	834.73	168.31	1.7266e-06	1.6983e-06	212.36	61.45	46.849	14.643	1.6866e-06	20.237	115.472	27.761	32.464	-46.006	93.111	105.298	-46.241	-38.183	110.284	94.277	-38.956	-32.801	-30.990	-24.988	110.902	-25.531	-8191	255	
1224.533	1	1	0	0	0.29116	0.35017	0.13876	0.10066	0.19183	0.021478	0.19646	0.22523	0.088665	0.28196	0.12744	0.21692	0.1263	0.061302	0.32175	0.049268	-0.44583	-0.29375	-0.09375	-0.79375	0.03125	-0.39167	-0.75	0.070833	-0.79583	-0.35417	0.125	-1.1021	-0.04375	-0.43958	-0.8125	0	16.358	52.980	145.169	-47.878	-16.046	122.019	281.139	288.481	162.318	96.181	-23.550	124.726	41.759	221.266	228.684	-8.369	9.9978e-05	0.00025816	4.1091e-05	751.72	1.416e-06	1.4602e-06	818.49	164.01	1.3204e-06	1.4682e-06	207.81	58.71	44.42	13.919	1.7126e-06	19.428	0.00015939	0.00015079	4.4251e-05	760.43	1.7689e-06	1.6968e-06	833.31	168.4	1.6962e-06	1.6538e-06	212.25	61.172	46.584	14.522	1.6222e-06	20.222	101.794	21.168	32.568	-46.283	115.139	111.267	-46.060	-38.636	122.964	90.382	-38.737	-32.740	-31.228	-24.913	91.728	-25.018	-8191	255	
1224.629	1	1	0	0	0.18582	0.20977	0.12587	0.14364	0.18757	0.054721	0.32155	0.075926	0.24514	0.045134	0.053716	0.059199	0.16362	0.15585	0.23956	0.17779	-0.36667	-0.43958	0.32917	-1.0312	-0.19583	-0.25	-1.1854	-0.035417	-0.50625	-0.81667	0.060417	-0.97083	-0.18542	-0.22292	-0.90833	-0.11875	146.547	212.689	95.553	0.466	201.172	120.351	215.242	8.896	12.731	143.431	279.090	-51.520	195.442	139.998	285.181	248.487	9.233e-05	0.00027033	6.6154e-05	750.51	2.2856e-06	2.1202e-06	818.57	163.52	6.586e-07	1.2978e-06	206.75	58.566	44.775	14.012	2.351e-06	19.205	0.00015153	0.00015076	4.5716e-05	760.05	1.7974e-06	1.7243e-06	833.12	167.86	1.6596e-06	1.7082e-06	211.65	61.13	46.637	14.533	1.6848e-06	20.145	102.691	25.870	24.878	-46.079	100.918	97.013	-46.151	-38.618	63.707	92.144	-39.108	-32.337	-31.101	-24.696	88.914	-25.165	-8191	255	
1224.725	1	1	0	0	0.26233	0.0095349	0.13398	0.13499	0.14855	0.13151	0.11923	0.153	0.37392	0.058044	0.19002	0.07558	0.30002	0.11918	0.041308	0.24189	-0.29583	-0.4375	0.12292	-1.0646	-0.325	-0.22708	-1.0646	0.079167	-0.47708	-0.58125	-0.022917	-0.95208	-0.50417	-0.079167	-0.8375	-0.175	268.975	224.063	-30.676	224.188	-8.949	67.597	228.547	52.157	85.078	-21.720	185.862	96.926	-47.215	225.667	293.895	208.341	8.0096e-05	0.00020698	9.307e-05	748.82	1.2672e-06	2.4875e-06	813.81	163.21	1.3892e-06	2.4647e-06	206.52	58.532	44.934	13.941	9.2167e-07	19.205	0.00015317	0.00015307	4.5352e-05	759.48	1.7915e-06	1.6702e-06	829.71	167.88	1.7327e-06	1.6538e-06	211.88	61.098	46.552	14.468	1.5272e-06	20.057	92.982	31.396	31.830	-46.140	104.992	107.806	-46.306	-38.399	78.168	114.172	-39.083	-32.438	-31.120	-25.095	115.692	-25.595	-8191	255	
1224.821	1	1	0	0	0.011973	0.067412	0.19853	0.20402	0.14466	0.3639	0.29983	0.35691	0.047707	0.090487	0.21895	0.53746	0.27316	0.068074	0.2185	0.068868	-0.17083	-0.48333	-0.01875	-0.81667	-0.23958	-0.24375	-1.1396	-0.19583	-0.29792	-0.56042	0	-0.65417	-0.57917	0.11875	-0.79792	-0.275	209.549	297.496	292.850	-31.667	73.829	139.461	301.807	-35.891	21.812	218.052	-29.256	211.290	100.803	255.638	147.563	71.840	8.7679e-05	0.00024774	8.5365e-05	747.84	8.7418e-07	2.8194e-06	816.32	163.75	1.3835e-06	2.1314e-06	204.77	58.386	44.367	13.87	2.4283e-06	19.17	0.00014881	0.0001388	4.3264e-05	758.98	1.7412e-06	1.6244e-06	830.27	167.98	1.7271e-06	1.5529e-06	210.73	60.877	46.198	14.431	1.524e-06	19.982	108.397	48.517	25.648	-46.015	97.614	82.459	-46.039	-38.650	104.425	79.563	-39.152	-32.316	-31.053	-24.815	53.758	-25.463	-8191	255	
1224.942	1	1	0	0	0.15204	0.21544	0.16941	0.15744	0.25451	0.28709	0.20177	0.16725	0.10113	0.18073	0.18499	0.19998	0.29471	0.18477	0.14585	0.16493	-0.097917	-0.61458	0.014583	-0.48125	-0.57292	0.025	-0.97292	-0.24167	-0.17708	-0.71875	-0.0375	-0.62917	-0.55	0.18125	-0.71458	-0.48542	268.350	135.933	38.886	-16.731	277.957	-52.288	232.172	183.494	0.757	63.627	203.629	8.962	301.113	114.749	64.244	123.733	6.3698e-05	0.00016671	6.6361e-05	747.25	1.7805e-06	2.8496e-06	814.41	163.15	1.455e-06	1.9969e-06	206.39	58.451	44.582	13.795	2.2267e-06	19.078	0.00015534	0.00014709	4.3249e-05	756.49	1.6737e-06	1.6485e-06	829.01	167.21	1.7294e-06	1.6385e-06	211.16	60.81	46.276	14.403	1.7403e-06	19.996	101.675	38.082	48.874	-46.221	66.826	97.359	-46.169	-38.351	106.299	108.963	-39.280	-32.302	-31.426	-24.826	83.421	-25.951	-8191	255	
1225.036	1	1	0	0	0.17989	0.2918	0.11828	0.22491	0.26107	0.2169	0.21566	0.053072	0.13947	0.087356	0.16951	0.15041	0.049512	0.024759	0.13719	0.18014	0.3125	-0.70625	0.066667	-0.62292	-0.48542	0.12708	-0.79375	-0.39375	0.0875	-0.75	-0.05625	-0.44792	-0.7125	0.095833	-0.65417	-0.50417	142.012	65.138	94.819	238.329	-16.879	7.400	229.319	233.833	169.338	-47.274	-56.596	189.614	162.478	240.696	65.169	59.491	7.3079e-05	0.00021187	4.3391e-05	747.48	2.0263e-06	2.4414e-06	815.18	162.76	1.2209e-06	2.3919e-06	206.32	58.578	44.497	13.704	1.594e-07	19.149	0.00015926	0.00015525	4.2171e-05	756.28	1.7099e-06	1.7243e-06	828.19	167.2	1.7988e-06	1.5423e-06	210.87	60.823	46.185	14.362	1.617e-06	19.986	96.052	44.306	51.325	-46.093	89.303	104.589	-46.394	-38.672	50.594	85.276	-39.330	-32.793	-30.831	-24.471	236.962	-25.443	-8191	255	
1225.110	1	1	0	0	0.055042	0.13482	0.25029	0.11111	0.14033	0.32879	0.17463	0.20738	0.1317	0.083063	0.12241	0.077469	0.12279	0.25708	0.11857	0.078704	0.36667	-0.85625	-0.041667	-0.49167	-0.65417	0.083333	-0.80625	-0.55	0.033333	-0.85	-0.22292	-0.3875	-0.82292	0.15833	-0.62083	-0.575	164.204	184.700	194.316	-56.227	29.413	-4.236	-37.165	248.099	21.477	23.228	292.887	171.586	36.538	102.945	255.617	163.540	7.9195e-05	0.00013567	5.9625e-05	744.76	1.5922e-06	3.2016e-06	816.41	162.57	1.7163e-06	1.5388e-06	205.51	58.382	44.5	13.792	1.4709e-06	19.159	0.00015073	0.00014149	4.3037e-05	756.18	1.6884e-06	1.6847e-06	828.21	166.81	1.7968e-06	1.4864e-06	210.27	60.583	46.186	14.332	1.641e-06	19.952	115.281	28.300	42.403	-45.964	73.958	90.710	-45.944	-38.643	94.765	86.683	-38.950	-32.747	-31.076	-24.800	87.248	-25.918	-8191	255	
1225.204	1	1	0	0	0.21763	0.19961	0.11628	0.38783	0.109	0.196	0.26582	0.25641	0.11405	0.34882	0.11919	0.051886	0.14456	0.15273	0.25613	0.18888	0.3	-0.63125	-0.225	0.0125	-0.9625	0.060417	-0.55	-0.73333	0.05	-0.64583	-0.55208	-0.014583	-0.86667	-0.054167	-0.45833	-0.65625	127.182	6.451	146.251	302.716	257.467	204.628	246.544	-16.728	166.840	-29.510	164.355	105.411	28.008	283.331	249.393	290.198	6.3793e-05	0.0001476	5.5165e-05	743.36	1.1991e-06	1.5356e-06	812.65	162.7	8.0963e-07	2.085e-06	204.32	58.257	44.392	13.702	1.7097e-06	19.114	0.00015513	0.00014217	4.1579e-05	753.64	1.6663e-06	1.6564e-06	826.1	166.78	1.7431e-06	1.591e-06	210.06	60.671	46.262	14.313	1.5566e-06	19.965	118.470	40.075	69.911	-46.014	89.346	115.200	-46.051	-38.529	135.714	116.859	-39.056	-32.593	-31.264	-25.138	77.775	-25.366	-8191	255	
1225.325	1	1	0	0	0.043641	0.039356	0.35932	0.12712	0.23151	0.067471	0.33406	0.23089	0.24805	0.30325	0.16798	0.149	0.30299	0.10073	0.093375	0.11535	0.48542	-0.78333	-0.089583	-0.24167	-0.97708	-0.010417	-0.59583	-0.82292	0.125	-0.65208	-0.63542	0.45625	-0.81667	-0.18333	-0.18958	-0.79167	-7.970	-28.211	303.273	251.755	129.828	78.493	239.121	300.721	91.618	66.807	-27.167	298.399	290.345	16.076	209.692	190.091	8.5107e-05	0.00030852	4.7715e-05	738.29	2.28e-06	1.9278e-06	812.39	162.57	1.2777e-06	1.0701e-06	204.27	58.338	44.346	13.61	9.8595e-07	19.026	0.00015498	0.0001506	4.142e-05	752.87	1.5994e-06	1.6983e-06	825.37	166.68	1.846e-06	1.606e-06	209.72	60.56	46.018	14.28	1.6695e-06	19.862	95.681	24.466	54.265	-45.787	128.566	95.526	-46.009	-38.364	106.851	106.946	-39.196	-32.221	-31.267	-24.926	59.756	-25.763	-8191	255	
1225.421	1	1	0	0	0.15362	0.23357	0.22507	0.16282	0.27255	0.22573	0.29602	0.17398	0.26126	0.07162	0.20484	0.086654	0.19428	0.13203	0.28229	0.036963	0.40625	-0.60208	-0.27917	0	-0.87292	-0.014583	-0.40625	-0.93333	0.10417	-0.51875	-0.89375	0.13125	-0.62708	-0.20625	-0.072917	-0.97917	128.845	-26.417	22.262	268.236	226.383	79.350	206.848	280.442	11.308	258.210	195.514	279.655	2.520	-46.985	168.715	-48.756	9.8692e-05	0.00019999	6.4015e-05	743.41	1.3227e-06	1.6448e-06	811.46	162.91	1.3441e-06	7.587e-07	204.06	58.031	44.144	13.702	1.843e-06	19.036	0.00015672	0.00014856	4.139e-05	752.22	1.6906e-06	1.6811e-06	824.67	166.61	1.8238e-06	1.6289e-06	209.4	60.291	45.982	14.278	1.6591e-06	19.917	99.520	20.130	44.125	-46.144	58.355	84.522	-46.145	-38.603	76.847	50.799	-39.160	-32.674	-31.220	-24.886	86.467	-25.441	-8191	255	
1225.517	1	1	0	0	0.25263	0.10231	0.096505	0.36814	0.21576	0.25789	0.16331	0.18444	0.11382	0.13549	0.095791	0.2493	0.11201	0.16024	0.090078	0.29223	0.21042	-0.3	-0.5875	0.0083333	-0.70208	-0.27292	-0.24375	-1.0542	0.033333	-0.38125	-0.76458	0.24792	-0.5375	-0.42708	0.06875	-0.86875	72.904	-27.323	123.013	235.343	-37.676	151.099	-31.284	101.430	-25.358	-36.161	293.038	292.557	53.450	276.554	85.130	153.468	8.2442e-05	0.00020832	4.885e-05	741.94	1.305e-06	1.602e-06	808.29	162.32	1.8239e-06	1.3287e-06	204.99	58.354	44.261	13.583	2.8179e-06	19.025	0.00015476	0.00014277	4.1617e-05	750.48	1.6048e-06	1.5707e-06	822.97	166.58	1.7212e-06	1.5429e-06	209.54	60.42	45.978	14.255	1.6759e-06	19.914	108.328	44.346	25.192	-45.894	95.986	67.798	-46.073	-38.514	96.277	78.868	-38.836	-32.507	-31.203	-24.922	110.155	-24.981	-8191	255	
1225.613	1	1	0	0	0.06214	0.10604	0.1067	0.19795	0.31018	0.16064	0.25594	0.19041	0.31227	0.3198	0.12258	0.15631	0.16115	0.28131	0.17458	0.19898	0.27083	-0.27708	-0.8625	0.045833	-0.62083	-0.17917	-0.029167	-0.85625	0.18333	-0.0625	-0.82917	0.06875	-0.8625	-0.43333	0.20833	-0.97292	-31.634	196.233	16.850	131.259	118.436	288.205	241.666	99.170	24.682	25.204	245.627	114.188	-53.123	14.907	-24.050	283.033	7.4149e-05	0.00031783	4.8165e-05	739.87	1.5321e-06	1.9075e-06	810.44	162.21	1.3156e-06	1.8996e-06	204.23	57.839	44.189	13.718	1.3893e-06	19.054	0.00015174	0.00015772	3.9993e-05	751.02	1.6291e-06	1.6401e-06	822.41	166.17	1.6942e-06	1.6755e-06	209.26	60.271	45.945	14.274	1.6415e-06	19.895	109.324	34.868	23.772	-46.206	96.803	113.188	-45.959	-38.462	120.641	74.421	-38.874	-32.202	-31.394	-24.846	88.537	-25.481	-8191	255	
1225.734	1	1	0	0	0.057411	0.040758	0.10853	0.246	0.099586	0.23186	0.33276	0.23695	0.21236	0.043099	0.17896	0.10187	0.20192	0.087246	0.081727	0.20118	0.25417	-0.16458	-1.0375	0.22292	-0.60208	-0.5	-0.08125	-0.87083	-0.22083	-0.10417	-0.98125	-0.035417	-0.35	-0.64375	0.075	-0.68542	298.600	14.312	239.392	2.049	281.878	128.096	187.833	156.370	-44.077	12.854	-2.207	281.022	-50.476	267.267	166.699	255.148	7.7835e-05	0.00013379	5.2064e-05	743.86	4.5721e-07	2.3417e-06	808.28	161.58	2.7255e-06	2.0184e-06	205.13	57.907	44.566	13.599	9.4856e-07	18.95	0.00015017	0.0001521	3.7579e-05	751.71	1.6726e-06	1.5758e-06	821.28	166.01	1.7043e-06	1.6692e-06	209.55	60.28	46.014	14.246	1.6037e-06	19.875	105.488	46.762	-8.454	-46.063	110.772	80.112	-46.144	-38.572	65.182	79.433	-39.110	-32.158	-31.020	-24.720	137.875	-25.020	-8191	255	
1225.805	1	1	0	0	0.13449	0.16623	0.18982	0.23642	0.093417	0.13807	0.14349	0.042736	0.089766	0.041039	0.11562	0.12901	0.10193	0.070341	0.24546	0.13401	0.0125	0.04375	-0.71875	0.10625	-0.32708	-0.77083	-0.033333	-0.83333	-0.425	-0.09375	-1.0125	-0.30625	-0.11875	-0.81667	0.14792	-0.65417	36.948	212.504	75.650	258.239	260.877	54.242	245.171	184.434	0.602	191.974	-50.126	222.865	188.327	-51.287	235.399	101.539	7.1221e-05	0.00022204	3.7222e-05	741.67	1.6854e-06	6.544e-07	807.36	161.15	2.0851e-06	1.9164e-06	204.84	57.863	44.514	13.686	1.5485e-06	19.027	0.00015284	0.00015288	3.7724e-05	750.95	1.6986e-06	1.4825e-06	819.91	165.99	1.7263e-06	1.6472e-06	209.5	60.332	46.035	14.203	1.7204e-06	19.884	104.419	40.270	31.461	-46.090	67.435	79.232	-46.012	-38.453	100.276	96.802	-38.540	-32.343	-30.979	-24.851	74.641	-25.452	-8191	255	
1225.902	1	1	0	0	0.091241	0.15425	0.19451	0.061847	0.12426	0.22389	0.24634	0.1731	0.10642	0.080348	0.17751	0.27378	0.30192	0.26432	0.14851	0.093503	-0.19792	0.052083	-0.77917	-0.075	-0.089583	-0.81875	0.18958	-0.84167	-0.35417	0.16042	-0.98542	-0.16875	-0.19375	-0.8	0.09375	-0.64167	136.088	-37.716	144.363	271.622	35.165	0.656	261.416	144.626	65.869	-15.083	286.503	272.592	82.413	-56.101	81.113	184.385	6.7229e-05	0.00033151	3.246e-05	739.66	1.5908e-06	2.2694e-06	804.18	162.2	9.9392e-07	2.4703e-06	204.76	58.281	44.183	13.508	2.1128e-06	19.021	0.00014841	0.00015071	3.7853e-05	749.35	1.7118e-06	1.4189e-06	819.64	166.51	1.636e-06	1.585e-06	209.59	60.365	45.919	14.231	1.6649e-06	19.917	93.023	-2.605	18.248	-45.895	114.760	84.953	-45.958	-38.471	76.255	119.575	-39.002	-32.461	-31.553	-24.133	116.970	-25.246	-8191	255	
1226.022	1	1	0	0	0.15083	0.095243	0.10678	0.16717	0.022057	0.19583	0.096806	0.25599	0.31579	0.27265	0.23479	0.076768	0.24759	0.2253	0.084064	0.25466	-0.06875	-0.045833	-0.65	-0.37917	0.035417	-0.84375	-0.047917	-0.46875	-0.75417	0.095833	-0.82292	-0.18542	-0.0083333	-0.82292	-0.1875	-0.19583	73.949	134.231	-34.829	239.973	-31.330	25.504	16.749	244.476	194.168	181.102	87.815	251.004	42.359	234.254	196.343	208.996	8.9152e-05	0.00020002	3.7484e-05	739.19	7.9373e-07	2.9934e-06	803.97	161.53	1.6042e-06	1.777e-06	204.22	57.463	43.902	13.603	1.1311e-06	19.075	0.00014314	0.00015316	3.6646e-05	750.05	1.7435e-06	1.5064e-06	820.36	165.9	1.6088e-06	1.6097e-06	209.3	60.176	45.911	14.254	1.6069e-06	19.822	109.789	15.403	9.062	-45.897	85.014	105.068	-46.288	-37.758	67.999	88.921	-38.903	-32.589	-30.650	-24.774	122.480	-25.485	-8191	255	
1226.117	1	1	0	0	0.09767	0.10903	0.17988	0.19199	0.12147	0.21495	0.1047	0.10391	0.1572	0.31083	0.22101	0.14208	0.28697	0.25163	0.22768	0.17	-0.56458	0.125	-0.71042	-0.59792	0.01875	-1.0187	-0.18542	-0.53542	-0.68542	0.1	-0.63333	-0.63958	0.0041667	-1.0896	0.077083	-0.275	-0.493	49.890	-3.251	70.040	94.249	-49.944	234.590	36.913	-35.260	36.155	272.901	-52.634	150.950	1.969	50.045	-6.992	7.6754e-05	0.00019044	5.3423e-05	740.11	1.7035e-06	1.4656e-06	803.43	161.32	1.3487e-06	2.2822e-06	202.17	57.868	44.108	13.674	2.4684e-06	19.014	0.00014255	0.00015509	3.9272e-05	749.93	1.6751e-06	1.4143e-06	819.85	166.17	1.6051e-06	1.6051e-06	208.55	60.176	46.007	14.264	1.6404e-06	19.921	109.653	25.902	28.518	-46.280	74.201	97.580	-45.975	-38.607	92.580	104.728	-38.551	-32.509	-30.535	-24.929	87.914	-25.275	-8191	255	
1226.214	1	1	0	0	0.25226	0.17107	0.22131	0.045267	0.17305	0.12827	0.23728	0.16731	0.17862	0.39129	0.1105	0.23452	0.081567	0.2858	0.01907	0.15499	-0.55417	0.21042	-0.72708	-0.62917	-0.091667	-0.86667	-0.4625	-0.23125	-0.99167	0.0020833	-0.525	-0.78333	0.052083	-0.79583	-0.083333	0.039583	-32.181	53.249	-26.457	179.775	79.552	222.491	231.607	285.922	35.056	94.064	229.023	229.369	-38.987	-33.077	193.170	-23.868	7.6005e-05	0.00010874	5.9477e-05	736.62	1.4178e-06	1.7919e-06	804.41	161.18	1.039e-06	1.5116e-06	204.06	57.709	44.415	13.808	8.3529e-07	19.022	0.00014217	0.00015158	3.7473e-05	747.85	1.6915e-06	1.5097e-06	819.58	165.74	1.5764e-06	1.6941e-06	209.05	60.214	45.985	14.314	1.522e-06	19.834	107.785	44.645	45.811	-45.697	117.456	94.957	-45.996	-38.310	90.173	116.105	-39.101	-32.388	-31.081	-24.978	46.796	-25.552	-8191	255	
1226.333	1	1	0	0	0.13289	0.25881	0.092977	0.090211	0.12246	0.23242	0.14616	0.34623	0.20338	0.35335	0.25121	0.28383	0.075769	0.17542	0.12285	0.13559	-0.62083	0.16458	-0.78542	-0.67083	0.020833	-0.74167	-0.49375	0.04375	-0.9375	0.13333	-0.60625	-0.66875	-0.064583	-0.65833	-0.55833	0.10833	-54.002	167.996	109.044	284.862	296.359	-31.228	259.269	29.592	108.727	130.907	103.878	89.486	74.600	28.036	-16.644	227.661	8.4548e-05	0.00018918	5.5102e-05	739.4	1.2563e-06	2.1627e-06	806.6	162.08	1.4474e-06	1.6998e-06	205.08	57.73	44.459	13.792	2.1131e-06	19.175	0.00014909	0.00015261	3.9492e-05	750.91	1.7621e-06	1.4753e-06	822.14	166.28	1.5275e-06	1.6298e-06	209.71	60.416	46.077	14.36	1.6233e-06	19.984	92.646	18.756	49.168	-45.886	78.183	80.703	-46.286	-38.696	83.762	111.961	-38.829	-32.160	-30.998	-24.722	84.802	-25.405	-8191	255	
1226.405	1	1	0	0	0.23585	0.17457	0.089198	0.06685	0.076899	0.097383	0.19483	0.07465	0.056153	0.26851	0.17563	0.22727	0.12323	0.26255	0.23717	0.35813	-0.69167	0.01875	-0.2875	-0.71667	0.075	-0.61458	-0.56458	-0.052083	-0.81458	-0.19792	-0.033333	-0.67292	0.18958	-0.56042	-0.46667	0.083333	136.341	59.948	207.409	162.021	89.251	123.728	192.053	297.338	151.559	184.812	148.547	80.547	283.687	-51.572	117.899	192.771	8.6938e-05	0.00028759	4.1857e-05	741.64	1.0791e-06	1.902e-06	810.37	162.57	2.0103e-06	2.6829e-06	204.58	58.014	44.497	13.711	2.7568e-06	19.028	0.00013961	0.00015095	4.1359e-05	751.09	1.7265e-06	1.5604e-06	823.74	166.57	1.6169e-06	1.6003e-06	209.61	60.455	46.171	14.328	1.5047e-06	19.916	122.513	45.321	34.522	-46.025	98.950	97.903	-46.140	-38.344	95.041	86.784	-38.499	-32.364	-31.304	-24.696	88.728	-25.486	-8191	255	
1226.501	1	1	0	0	0.24336	0.026797	0.42032	0.15147	0.097768	0.17226	0.26007	0.13141	0.088373	0.050855	0.32958	0.35339	0.15824	0.30025	0.11878	0.076081	-0.53125	-0.25833	-0.16667	-0.7125	0.0375	-0.49167	-0.84167	0.20417	-0.77708	-0.10833	-0.15	-1.1021	-0.060417	-0.32708	-0.52083	0.05	230.394	15.951	-53.107	278.994	246.787	63.957	202.236	225.549	243.230	232.991	-35.467	289.740	-5.040	13.516	12.413	23.259	8.1597e-05	0.00016555	5.5171e-05	743.52	1.808e-06	1.7265e-06	806.66	163.04	1.312e-06	1.8423e-06	204.81	58.401	44.241	13.781	2.3724e-06	19.309	0.00014752	0.00014916	4.1261e-05	752.59	1.7135e-06	1.5882e-06	823.06	166.84	1.615e-06	1.6538e-06	209.9	60.617	46.15	14.376	1.5373e-06	20.035	105.002	14.609	42.881	-46.049	98.322	99.387	-45.816	-38.422	66.398	83.457	-38.930	-32.635	-31.349	-24.932	100.143	-25.531	-8191	255	
1226.622	1	1	0	0	0.072151	0.32347	0.03369	0.18708	0.22808	0.23343	0.28576	0.095711	0.29436	0.070619	0.096318	0.23501	0.058179	0.16949	0.055754	0.20418	-0.5375	-0.075	-0.016667	-0.85625	0.19792	-0.5125	-0.95625	0.12083	-0.70417	-0.4125	0.025	-0.83333	0.075	-0.37292	-0.66875	0.25625	9.133	186.166	37.039	-42.360	238.789	169.254	299.076	36.985	146.706	294.785	165.697	-19.005	105.286	219.124	239.891	16.877	8.541e-05	0.00021207	6.5116e-05	738.95	2.6069e-06	1.657e-06	806.99	162.28	1.1031e-06	2.4146e-06	204.49	58.12	44.38	13.719	1.4553e-06	19.103	0.00015073	0.00014756	4.5815e-05	751.09	1.7757e-06	1.5583e-06	822.61	166.36	1.6091e-06	1.4964e-06	209.62	60.573	46.159	14.344	1.55e-06	19.965	105.956	11.861	35.967	-45.638	125.734	87.278	-45.891	-38.159	97.796	91.465	-38.806	-32.380	-31.249	-24.459	74.140	-25.104	-8191	255	
1226.718	1	1	0	0	0.096868	0.26743	0.20984	0.37928	0.10616	0.23707	0.26933	0.25622	0.043774	0.27339	0.1481	0.07736	0.040116	0.085	0.079754	0.12873	-0.41458	-0.33542	-0.020833	-0.82292	-0.15625	-0.21458	-0.72708	0.11875	-0.53542	-0.60208	-0.12917	-0.80417	-0.29167	-0.23542	-0.63125	-0.00625	239.537	157.361	278.299	244.026	93.308	20.713	56.986	28.987	196.797	212.379	276.183	-3.343	120.482	88.967	12.716	231.363	6.9925e-05	0.00023204	3.8015e-05	740.68	6.2699e-07	3.0583e-06	808.81	162.84	8.1068e-07	2.2629e-06	205.59	58.247	44.619	13.85	1.7824e-06	19.164	0.00015021	0.00014402	4.2225e-05	751.49	1.7254e-06	1.6328e-06	822.81	166.61	1.7058e-06	1.6301e-06	210.09	60.514	46.261	14.395	1.5428e-06	20.002	104.499	55.212	57.490	-45.894	-21.238	99.604	-45.984	-38.671	27.628	103.365	-38.804	-32.314	-30.785	-24.670	76.381	-25.264	-8191	255	
1226.814	1	1	0	0	0.12812	0.21665	0.25959	0.11334	0.28056	0.30942	0.11599	0.14699	0.023519	0.11251	0.19873	0.19984	0.16278	0.070291	0.23765	0.18477	-0.09375	-0.38125	0.11875	-1.0292	-0.24167	-0.21458	-0.88542	0	-0.38542	-0.62917	-0.1375	-0.73542	-0.2625	0.13958	-0.85417	-0.058333	261.763	216.800	244.979	270.762	133.274	-45.258	-55.398	194.283	-6.116	243.406	163.457	99.661	236.430	47.691	204.757	203.859	8.489e-05	0.00018402	6.5163e-05	740.38	2.4957e-06	1.9719e-06	809.96	161.96	4.4121e-07	1.5285e-06	205.08	58.179	44.303	13.896	6.9664e-07	19.206	0.00015133	0.00014323	4.0904e-05	752.73	1.733e-06	1.6042e-06	825.69	166.54	1.658e-06	1.6415e-06	210.11	60.772	46.13	14.419	1.5517e-06	20.066	90.061	47.843	42.184	-45.760	102.457	145.597	-46.062	-38.512	96.178	67.315	-38.622	-32.623	-30.763	-24.594	135.958	-25.148	-8191	255	
1226.910	1	1	0	0	0.080272	0.045052	0.24617	0.11884	0.061777	0.21744	0.28921	0.055622	0.080377	0.10935	0.03252	0.11894	0.1025	0.22448	0.070251	0.27545	-0.0875	-0.65833	0.083333	-0.89167	-0.50625	-0.13333	-0.94583	-0.11667	0.01875	-0.76458	-0.00625	-0.6125	-0.57708	-0.15833	-0.89167	-0.19167	143.579	195.707	-5.940	-17.030	-51.630	148.840	284.238	126.015	59.314	278.893	-7.473	3.796	61.278	78.661	109.087	-34.777	8.4753e-05	0.00025624	5.3436e-05	745.23	2.5753e-06	2.608e-06	814.7	162.44	1.5786e-06	2.3941e-06	205.86	58.303	44.705	13.892	2.1789e-06	19.34	0.00015548	0.00014524	4.2354e-05	755.64	1.7353e-06	1.6968e-06	828.87	166.77	1.7035e-06	1.4855e-06	210.71	60.969	46.487	14.487	1.5809e-06	20.125	105.196	24.202	23.332	-46.001	92.496	81.213	-45.882	-38.312	63.451	85.726	-38.869	-32.272	-30.969	-24.545	82.310	-24.904	-8191	255	
1226.982	1	1	0	0	0.081399	0.082233	0.10378	0.28676	0.17367	0.27894	0.27515	0.20552	0.15742	0.35488	0.19411	0.10266	0.18889	0.091464	0.26469	0.2091	0.36458	-0.89167	0.16042	-0.575	-0.51042	-0.089583	-0.91042	-0.41875	-0.21042	-0.89167	-0.075	-0.43542	-0.65625	-0.0083333	-0.58333	-0.38333	141.119	123.809	131.685	12.499	200.950	-14.566	162.888	273.351	85.365	42.113	246.359	2.348	300.194	-31.521	-9.879	183.791	8.1312e-05	0.00019723	5.9225e-05	747.93	1.5696e-06	1.6585e-06	813.36	163.4	1.771e-06	2.3647e-06	204.82	58.309	44.669	13.898	1.8149e-06	19.231	0.00015482	0.00014359	4.0479e-05	757.15	1.6644e-06	1.7227e-06	828.72	167.36	1.7192e-06	1.4329e-06	210.49	60.84	46.437	14.462	1.6095e-06	20.126	105.285	47.778	48.498	-45.795	63.567	92.007	-46.075	-38.499	126.220	116.057	-38.644	-32.008	-30.873	-24.535	94.952	-25.253	-8191	255	
1227.103	1	1	0	0	0.21811	0.18689	0.17318	0.20392	0.11348	0.081939	0.28951	0.022316	0.077367	0.065663	0.25894	0.034151	0.039511	0.45985	0.14135	0.074399	0.17083	-0.71667	-0.1375	-0.42917	-0.81042	0.13333	-0.70208	-0.29167	-0.039583	-0.86667	-0.0875	-0.42292	-0.85417	0.25417	-0.56042	-0.7125	211.785	219.201	-3.171	190.468	5.830	36.951	201.605	221.835	86.472	154.078	284.980	125.913	-41.205	177.199	55.717	-2.076	8.5301e-05	0.00023255	2.6044e-05	746.75	1.0733e-06	2.605e-06	817.42	163.35	1.867e-06	2.4157e-06	205.36	58.922	44.702	13.922	1.0518e-06	19.248	0.00015492	0.00013581	4.0001e-05	757.43	1.594e-06	1.7104e-06	829.89	167.45	1.7887e-06	1.5673e-06	210.77	60.995	46.465	14.487	1.554e-06	20.097	111.936	32.915	2.460	-45.766	109.224	95.489	-45.770	-38.469	83.855	70.465	-38.604	-32.378	-31.016	-24.917	89.022	-25.264	-8191	255	
1227.197	1	1	0	0	0.095251	0.04795	0.31694	0.11882	0.15762	0.2184	0.22779	0.10134	0.010755	0.27108	0.14413	0.13689	0.1057	0.11775	0.15443	0.15631	0.66667	-0.83333	-0.15417	-0.2625	-0.84792	0.05	-0.65833	-0.63542	0.10833	-0.79375	-0.19792	-0.36667	-0.98542	0.23125	-0.88125	-0.69167	46.004	38.783	210.096	-1.546	5.825	146.878	198.886	184.982	196.336	-54.978	178.984	38.413	77.267	292.320	303.305	231.638	7.8853e-05	0.00021346	3.2218e-05	744.39	1.4222e-06	1.6278e-06	815.55	163.87	1.3332e-06	1.069e-06	205.38	58.632	44.754	13.893	1.6642e-06	19.289	0.00015916	0.00014359	4.2058e-05	757.52	1.6932e-06	1.6799e-06	830.34	167.79	1.7398e-06	1.5471e-06	210.69	61.172	46.583	14.486	1.6121e-06	20.075	108.037	36.709	33.039	-45.581	91.766	82.179	-45.666	-38.320	90.381	108.872	-38.529	-32.235	-30.714	-24.613	98.263	-25.330	-8191	255	
#DATA ENDS
