BOXY.EXE: ISS Imagent and Oximeter Data Acquisition Program Version 0.80
Ascii Record File

#ACQ INFORMATION
2  Detector Channels 
16  External MUX Channels 
1  Auxiliary Channels 
5000  Waveform (CCF) Frequency (Hz)
1  Waveforms Skipped 
30  Waveforms Averaged 
1  Cycles Averaged 
16  Acquisitions per Waveform 
10.0806  Updata Rate (Hz) 

#FILE INFORMATION
TRUE -- External MUX Channel results are PARSED.
FALSE -- AC DC and Phase are NOT grouped.
TRUE -- Companion Program Settings File CREATED.
FALSE -- AC data not excluded
FALSE -- DC data not excluded
FALSE -- Phase data not excluded
FALSE -- Auxillary Chn. data not excluded
Tab delimiters

#CALIBRATION STATE
TRUE -- Waveform Calibration Values APPLIED.


#AUX CALIBRATION VALUES
Val Type	aux-1	

Term	1.0000e+00	
Factor	0.0000e+00	


#WF CALIBRATION VALUES
A = Detector Channel
Val Type	A-AC1	A-AC2	A-AC3	A-AC4	A-AC5	A-AC6	A-AC7	A-AC8	A-AC9	A-AC10	A-AC11	A-AC12	A-AC13	A-AC14	A-AC15	A-AC16	A-DC1	A-DC2	A-DC3	A-DC4	A-DC5	A-DC6	A-DC7	A-DC8	A-DC9	A-DC10	A-DC11	A-DC12	A-DC13	A-DC14	A-DC15	A-DC16	A-Ph1	A-Ph2	A-Ph3	A-Ph4	A-Ph5	A-Ph6	A-Ph7	A-Ph8	A-Ph9	A-Ph10	A-Ph11	A-Ph12	A-Ph13	A-Ph14	A-Ph15	A-Ph16	

Term	0.00000e+00	0.00000e+00	0.00000e+00	0.00000e+00	0.00000e+00	0.00000e+00	0.00000e+00	0.00000e+00	0.00000e+00	0.00000e+00	0.00000e+00	0.00000e+00	0.00000e+00	0.00000e+00	0.00000e+00	0.00000e+00	0.00000e+00	0.00000e+00	0.00000e+00	0.00000e+00	0.00000e+00	0.00000e+00	0.00000e+00	0.00000e+00	0.00000e+00	0.00000e+00	0.00000e+00	0.00000e+00	0.00000e+00	0.00000e+00	0.00000e+00	0.00000e+00	0.00000e+00	0.00000e+00	0.00000e+00	0.00000e+00	0.00000e+00	0.00000e+00	0.00000e+00	0.00000e+00	0.00000e+00	0.00000e+00	0.00000e+00	0.00000e+00	0.00000e+00	0.00000e+00	0.00000e+00	0.00000e+00	
Factor	1.00000e+00	1.00000e+00	1.00000e+00	1.00000e+00	1.00000e+00	1.00000e+00	1.00000e+00	1.00000e+00	1.00000e+00	1.00000e+00	1.00000e+00	1.00000e+00	1.00000e+00	1.00000e+00	1.00000e+00	1.00000e+00	1.00000e+00	1.00000e+00	1.00000e+00	1.00000e+00	1.00000e+00	1.00000e+00	1.00000e+00	1.00000e+00	1.00000e+00	1.00000e+00	1.00000e+00	1.00000e+00	1.00000e+00	1.00000e+00	1.00000e+00	1.00000e+00	X	X	X	X	X	X	X	X	X	X	X	X	X	X	X	X	

B = Detector Channel
Val Type	B-AC1	B-AC2	B-AC3	B-AC4	B-AC5	B-AC6	B-AC7	B-AC8	B-AC9	B-AC10	B-AC11	B-AC12	B-AC13	B-AC14	B-AC15	B-AC16	B-DC1	B-DC2	B-DC3	B-DC4	B-DC5	B-DC6	B-DC7	B-DC8	B-DC9	B-DC10	B-DC11	B-DC12	B-DC13	B-DC14	B-DC15	B-DC16	B-Ph1	B-Ph2	B-Ph3	B-Ph4	B-Ph5	B-Ph6	B-Ph7	B-Ph8	B-Ph9	B-Ph10	B-Ph11	B-Ph12	B-Ph13	B-Ph14	B-Ph15	B-Ph16	

Term	0.00000e+00	0.00000e+00	0.00000e+00	0.00000e+00	0.00000e+00	0.00000e+00	0.00000e+00	0.00000e+00	0.00000e+00	0.00000e+00	0.00000e+00	0.00000e+00	0.00000e+00	0.00000e+00	0.00000e+00	0.00000e+00	0.00000e+00	0.00000e+00	0.00000e+00	0.00000e+00	0.00000e+00	0.00000e+00	0.00000e+00	0.00000e+00	0.00000e+00	0.00000e+00	0.00000e+00	0.00000e+00	0.00000e+00	0.00000e+00	0.00000e+00	0.00000e+00	-1.62475e+02	-1.30028e+02	-1.29081e+02	-1.82568e+02	-7.08570e+01	-6.63597e+01	-1.57125e+02	-1.62015e+02	-8.01052e+01	-6.56729e+01	-1.70653e+02	-1.69026e+02	-1.81905e+02	-1.76426e+02	-7.59934e+01	-1.49739e+02	
Factor	2.48014e-05	1.38066e-04	4.13928e-05	1.81409e-01	1.37938e-06	1.71112e-06	1.66522e-01	5.10113e-02	1.39629e-06	1.55553e-06	7.91198e-02	2.75910e-02	2.90947e-02	8.83143e-03	1.46968e-06	1.26923e-02	9.30207e-06	1.30508e-05	3.64333e-06	9.51287e-02	1.35613e-07	1.44845e-07	8.22480e-02	2.69387e-02	1.34931e-07	1.44256e-07	4.04368e-02	1.41989e-02	1.54998e-02	4.70142e-03	1.38599e-07	6.55128e-03	X	X	X	X	X	X	X	X	X	X	X	X	X	X	X	X	



#DISTANCE SETTINGS
A = Detector Channel
A-1	A-2	A-3	A-4	A-5	A-6	A-7	A-8	A-9	A-10	A-11	A-12	A-13	A-14	A-15	A-16	

2.5000e+00	3.0000e+00	2.5000e+00	3.0000e+00	2.0000e+00	3.0000e+00	1.5000e+00	3.0000e+00	3.0000e+00	3.0000e+00	3.0000e+00	3.0000e+00	3.0000e+00	3.0000e+00	1.5000e+00	3.0000e+00	

B = Detector Channel
B-1	B-2	B-3	B-4	B-5	B-6	B-7	B-8	B-9	B-10	B-11	B-12	B-13	B-14	B-15	B-16	

1.0000e+01	1.0000e+01	1.0000e+01	1.4400e+00	1.0000e+01	1.0000e+01	1.5100e+00	1.9400e+00	1.0000e+01	1.0000e+01	1.9900e+00	2.4900e+00	2.4100e+00	2.9000e+00	1.0000e+01	2.9800e+00	




#DATA BEGINS
time	group	step	mark	flag	A-AC1	A-AC2	A-AC3	A-AC4	A-AC5	A-AC6	A-AC7	A-AC8	A-AC9	A-AC10	A-AC11	A-AC12	A-AC13	A-AC14	A-AC15	A-AC16	A-DC1	A-DC2	A-DC3	A-DC4	A-DC5	A-DC6	A-DC7	A-DC8	A-DC9	A-DC10	A-DC11	A-DC12	A-DC13	A-DC14	A-DC15	A-DC16	A-Ph1	A-Ph2	A-Ph3	A-Ph4	A-Ph5	A-Ph6	A-Ph7	A-Ph8	A-Ph9	A-Ph10	A-Ph11	A-Ph12	A-Ph13	A-Ph14	A-Ph15	A-Ph16	B-AC1	B-AC2	B-AC3	B-AC4	B-AC5	B-AC6	B-AC7	B-AC8	B-AC9	B-AC10	B-AC11	B-AC12	B-AC13	B-AC14	B-AC15	B-AC16	B-DC1	B-DC2	B-DC3	B-DC4	B-DC5	B-DC6	B-DC7	B-DC8	B-DC9	B-DC10	B-DC11	B-DC12	B-DC13	B-DC14	B-DC15	B-DC16	B-Ph1	B-Ph2	B-Ph3	B-Ph4	B-Ph5	B-Ph6	B-Ph7	B-Ph8	B-Ph9	B-Ph10	B-Ph11	B-Ph12	B-Ph13	B-Ph14	B-Ph15	B-Ph16	aux-1	digaux	

2631.973	1	1	0	512	0.24587	0.29595	0.19415	0.14456	0.083453	0.31263	0.19972	0.19731	0.16235	0.16274	0.14838	0.16376	0.22766	0.18468	0.08897	0.1046	-0.48125	0.039583	-0.3375	-0.72708	0.25208	-0.72917	-0.36042	0.0083333	-0.81875	0.18958	-0.072917	-0.91667	0.16042	-0.52292	-0.36458	-0.025	176.025	156.416	-106.506	183.668	20.955	218.770	155.458	179.429	-3.068	87.639	160.553	225.813	190.046	-69.962	-82.517	83.781	0.00051449	0.00073861	0.00011083	1109	1.9578e-06	9.2988e-06	894.73	349.61	3.6645e-06	8.0874e-06	330.64	119.3	105.3	53.038	7.2937e-06	55.208	0.00082969	0.00098561	0.0002698	999.96	1.0409e-05	1.0822e-05	810.95	318.98	1.0527e-05	1.0586e-05	300.44	108.98	96.912	48.522	1.0815e-05	50.618	169.582	-62.761	-46.079	-120.990	59.155	33.489	-122.436	-115.714	-5.149	-11.153	-117.523	-113.952	-110.372	-107.381	-36.033	-110.361	-8191	255	
2632.069	1	1	0	0	0.14175	0.040725	0.17347	0.21055	0.21067	0.21038	0.1012	0.24152	0.048486	0.25948	0.11764	0.11873	0.41024	0.064649	0.2167	0.18073	-0.44792	-0.077083	0.1625	-0.79375	0.21875	-0.39583	-0.67708	0.10625	-0.57917	-0.29583	-0.1	-0.76667	-0.014583	-0.43125	-0.45208	0.14583	173.403	71.441	-72.795	192.375	64.994	39.215	172.679	193.213	57.319	209.378	37.200	210.135	-104.117	-126.969	105.264	161.512	0.00040662	0.00057048	0.00012879	1104.2	3.6548e-06	3.3118e-06	880.38	345.7	4.4274e-06	3.073e-06	322.17	114.41	102.58	51.242	1.3033e-06	52.983	0.00082976	0.00094036	0.00027492	994.92	1.0509e-05	1.0113e-05	798.33	315.22	1.0437e-05	1.0301e-05	293.48	104.64	94.081	46.771	1.0454e-05	48.447	169.556	-41.403	-51.189	-120.880	-83.443	-17.901	-122.489	-115.729	-18.777	-43.627	-117.801	-114.192	-110.511	-107.354	11.435	-110.263	-8191	255	
2632.165	1	1	0	0	0.21067	0.21268	0.16404	0.080471	0.12156	0.10295	0.24185	0.10716	0.19048	0.39813	0.19232	0.15885	0.26583	0.052212	0.070905	0.22713	-0.36875	-0.077083	0.13125	-0.97917	0.15625	-0.11042	-0.65625	0.1625	-0.67292	-0.44583	0.13958	-0.90625	0.041667	-0.4125	-0.66042	-0.033333	28.261	110.758	137.671	73.630	5.570	170.744	117.903	139.564	-101.438	80.527	173.170	152.405	191.946	-79.010	152.876	193.950	0.0004159	0.00036794	0.00021939	1095.9	3.1192e-06	6.7017e-06	871.35	342.09	3.8506e-06	4.3968e-06	314.25	111.09	100.33	49.37	4.3953e-06	50.725	0.00081585	0.00096092	0.00025614	988.96	9.9139e-06	1.0522e-05	790.96	310.09	1.007e-05	1.0201e-05	285.96	101.74	92.204	45.315	1.0095e-05	46.579	170.314	-46.530	-39.416	-120.936	-48.893	-18.896	-122.170	-115.603	-33.318	-15.820	-117.575	-114.421	-110.740	-107.222	-34.526	-110.496	-8191	255	
2632.284	1	1	0	0	0.086961	0.32117	0.25614	0.26697	0.1305	0.16994	0.28612	0.19748	0.18037	0.086747	0.08588	0.21825	0.24451	0.34338	0.29271	0.16629	-0.18958	-0.49375	0.10417	-1.0562	-0.13333	-0.16667	-0.8	0.0125	-0.44792	-0.425	0.17083	-0.59583	0.0125	-0.26458	-0.79583	0.0041667	-58.838	175.120	67.796	183.282	207.139	160.507	192.695	147.600	47.512	-36.054	-76.022	-103.487	-119.839	169.088	73.878	-40.904	0.00035329	0.00051791	0.00011906	1104.2	3.3181e-06	8.1623e-06	873.51	340.17	3.641e-06	7.3657e-06	309.43	109.44	99.384	49.207	5.9393e-06	50.581	0.00078002	0.0009098	0.00026535	994.93	1.0009e-05	1.0035e-05	792.32	308.66	9.9998e-06	1.0383e-05	281.73	100.08	91.407	45.046	1.0062e-05	46.27	177.298	-55.269	-54.033	-121.203	9.494	-9.798	-122.211	-116.276	-23.463	45.369	-117.855	-114.209	-110.418	-107.691	-10.659	-110.379	-8191	255	
2632.357	1	1	0	0	0.15798	0.12424	0.23672	0.10444	0.23706	0.16649	0.24596	0.25634	0.11375	0.29119	0.11385	0.35609	0.34798	0.20199	0.32282	0.14079	-0.035417	-0.49792	0.27708	-0.92708	-0.03125	-0.095833	-0.6	0.020833	-0.375	-0.53333	0.16042	-0.78333	-0.23125	-0.045833	-0.73958	0.075	-43.490	-6.646	-66.035	180.572	-58.500	-45.529	171.041	-124.514	-60.337	214.685	190.987	176.417	-132.094	197.972	-63.571	132.915	0.00038803	0.00051646	0.00019937	1107.1	3.2921e-06	4.282e-06	869.86	340	4.2745e-06	5.0802e-06	309.4	108.47	98.552	48.524	4.6732e-06	49.154	0.00079031	0.00093215	0.00025577	996.84	9.5048e-06	1.0207e-05	789.43	307.91	9.7704e-06	9.7415e-06	280.11	99.202	90.81	44.493	9.6459e-06	44.961	160.100	-88.268	-66.350	-121.067	-46.397	-0.444	-122.509	-115.951	8.771	-29.302	-117.774	-114.445	-110.696	-107.210	-16.682	-110.209	-8191	255	
2632.452	1	1	0	0	0.19529	0.27604	0.26386	0.24835	0.26542	0.18076	0.42374	0.15993	0.21857	0.095429	0.10277	0.3968	0.18099	0.41135	0.26959	0.10507	0.097917	-0.5875	0.17708	-0.72708	-0.55833	0.075	-0.83542	0.033333	-0.21042	-0.74792	0.05625	-0.49792	-0.50833	0.0125	-0.69792	-0.054167	196.858	-49.164	-24.885	191.710	-7.388	121.035	179.818	186.437	-51.374	-21.243	147.084	203.502	-132.629	179.495	49.722	3.196	0.00040998	0.00049223	0.00015314	1093.5	3.6974e-08	7.1559e-06	860.25	335.06	3.9221e-06	7.4812e-06	301.7	104.98	96.874	47.506	4.338e-06	47.208	0.00076399	0.00088887	0.0002521	991.97	9.474e-06	9.9819e-06	781.22	304.36	9.7086e-06	9.8812e-06	274.25	96.467	89.641	43.246	9.7239e-06	43.287	174.290	-36.197	-52.865	-120.986	192.815	19.783	-122.685	-116.233	-7.951	27.699	-118.000	-114.286	-110.752	-107.588	-20.830	-110.405	-8191	255	
2632.548	1	1	0	0	0.37958	0.12941	0.25061	0.19871	0.09861	0.061405	0.099727	0.36566	0.052208	0.061494	0.3739	0.15991	0.12736	0.34817	0.23492	0.12196	0.21458	-0.6125	0.24792	-0.51875	-0.32292	0.13542	-0.79792	-0.14792	-0.12083	-0.65833	0.11667	-0.52917	-0.62292	0.091667	-0.55833	-0.30833	-33.866	136.912	161.876	166.364	94.822	43.222	157.835	137.697	140.582	188.538	-29.900	222.732	134.417	221.501	96.601	108.051	0.00033176	0.00030625	4.1602e-05	1092.5	1.8124e-06	3.4621e-06	855.81	336.68	5.056e-06	5.7035e-06	303.84	107.09	98.066	47.874	5.7609e-06	48.139	0.00075267	0.00087261	0.00024869	984.67	9.3319e-06	9.8108e-06	774.54	305.36	9.5076e-06	9.6892e-06	275.59	97.864	90.251	43.753	9.7447e-06	44.022	159.271	-83.883	9.930	-120.832	37.299	7.282	-122.462	-116.102	-71.160	-28.731	-118.222	-114.305	-111.224	-107.396	-25.043	-110.246	-8191	255	
2632.669	1	1	0	0	0.03076	0.18929	0.11669	0.2888	0.25761	0.20053	0.25579	0.09972	0.20364	0.058621	0.1041	0.19868	0.12704	0.34808	0.14003	0.18851	0.45208	-0.71458	0.24375	-0.225	-0.47083	0.16875	-0.71875	-0.55208	0.12083	-0.60208	-0.21875	-0.29792	-0.4375	0.1375	-0.8125	-0.45	127.908	-86.306	143.651	189.614	35.920	135.666	-70.360	-26.115	186.579	220.480	58.084	-54.012	216.534	223.833	185.183	132.299	0.00043781	0.00030908	0.00012105	1095.9	5.1444e-06	7.1893e-06	865.22	339.5	3.726e-06	4.2793e-06	306.71	107.73	98.898	48.074	8.0333e-06	48.574	0.00074116	0.00088038	0.00025148	989.76	9.8537e-06	1.0104e-05	785.01	307.41	9.6487e-06	9.7337e-06	278.33	98.495	90.848	43.975	9.615e-06	44.381	171.322	-14.380	-60.103	-121.208	-47.718	5.618	-122.595	-116.322	-63.340	9.761	-118.240	-114.512	-110.389	-107.486	-18.282	-110.584	-8191	255	
2632.765	1	1	0	0	0.24568	0.17926	0.042522	0.37318	0.01499	0.1913	0.19319	0.22134	0.37219	0.27654	0.31843	0.14339	0.40332	0.28469	0.15001	0.25932	0.50833	-0.7	0.12083	-0.11042	-0.6875	0.13125	-0.51667	-0.49375	0.20833	-0.80208	-0.20208	-0.10417	-0.63125	0.10208	-0.70417	-0.56042	18.584	-60.555	-60.233	136.331	58.053	145.301	149.762	124.276	-69.683	182.511	-116.530	160.533	-54.165	196.574	160.751	206.268	0.00039371	0.00041112	0.0001661	1098.6	4.262e-06	5.8056e-06	867.69	339.82	3.4068e-06	2.8976e-06	309.25	108.32	99.372	48.052	4.6654e-06	47.578	0.00076777	0.00089738	0.00024532	993.33	9.2177e-06	9.9237e-06	787.39	308.21	9.6824e-06	9.6189e-06	279.11	98.849	90.915	43.976	9.5567e-06	43.746	170.431	-42.011	-22.322	-121.025	-15.752	0.816	-122.478	-116.272	-32.185	61.782	-117.912	-114.341	-110.473	-107.309	-10.128	-110.545	-8191	255	
2632.861	1	1	0	0	0.39148	0.19022	0.33314	0.30731	0.098241	0.092142	0.36515	0.28838	0.13137	0.22311	0.12996	0.18612	0.20545	0.23175	0.20726	0.12782	0.425	-0.58542	-0.029167	-0.23125	-0.67917	0.275	-0.51458	-0.72292	0.29375	-0.85	-0.2	-0.0375	-0.84375	0.022917	-0.36875	-0.69375	-17.225	-89.306	63.699	176.774	129.665	-42.430	137.705	165.698	149.943	48.456	-8.177	219.345	180.196	-133.823	175.418	-6.397	0.00033653	0.00038499	7.9941e-05	1095.4	1.9616e-06	3.8325e-06	854.48	334.01	4.6431e-06	6.9928e-07	297.36	104.52	98.365	47.115	5.5896e-06	46.599	0.00073783	0.00086508	0.00024803	985.22	8.8538e-06	9.296e-06	772.64	303.26	9.2866e-06	9.6654e-06	269.9	95.829	89.809	43.033	9.2899e-06	42.696	174.628	-48.359	-56.211	-121.204	-60.075	28.504	-122.667	-116.008	-58.962	-130.123	-117.515	-114.266	-110.637	-107.472	19.013	-110.653	-8191	255	
2632.957	1	1	0	0	0.099719	0.16755	0.10828	0.22681	0.10958	0.14925	0.27064	0.055479	0.1239	0.17024	0.13758	0.11184	0.152	0.23158	0.23781	0.29562	0.62917	-0.64167	-0.25625	-0.11042	-0.7125	-0.070833	-0.45	-0.77083	0.25625	-0.725	-0.39375	0.12917	-0.94583	-0.075	-0.14167	-0.89792	62.428	42.842	-1.410	170.818	-110.612	-101.161	184.463	191.684	138.977	-92.602	-114.291	-120.098	-18.422	210.469	-28.045	-110.728	0.0004064	0.00012117	8.5016e-05	1076.6	2.8007e-06	4.7556e-06	840.45	333	6.5407e-06	3.2248e-06	296.98	105.11	97.022	47.023	3.1058e-06	47.351	0.00074287	0.00083914	0.00024065	974.21	8.888e-06	9.3198e-06	762.55	301.46	9.0128e-06	9.1693e-06	270.03	96.004	89.405	43.014	9.1169e-06	43.211	167.495	16.256	-11.786	-121.086	-18.754	-8.300	-122.173	-116.031	-32.399	-41.840	-117.838	-114.475	-110.735	-107.384	-0.322	-110.628	-8191	255	
2633.053	1	1	0	0	0.085015	0.066369	0.16076	0.26995	0.13242	0.13598	0.085451	0.078763	0.083146	0.25947	0.11158	0.16518	0.24794	0.14424	0.17192	0.24649	0.45833	-0.58542	-0.49167	0.10833	-0.73542	-0.041667	-0.22292	-0.86667	0.17083	-0.66458	-0.3875	0.085417	-0.82708	-0.3125	0.010417	-1	-12.128	-94.028	-77.815	118.214	34.122	-83.120	112.001	221.691	65.495	131.663	-8.158	-104.567	171.891	167.133	-27.883	17.171	0.00040594	0.00015871	0.00016588	1087.3	2.4525e-06	5.7763e-06	848.63	334.03	4.5355e-06	4.3176e-06	301.36	105.04	98.168	47.29	8.8341e-06	47.385	0.00072202	0.00083878	0.00023262	978.16	9.0341e-06	9.4979e-06	770.88	302.66	9.3788e-06	9.6618e-06	271.98	96.568	89.719	43.204	9.397e-06	43.457	173.336	222.061	-26.618	-121.182	0.678	30.163	-121.857	-116.333	-44.539	-11.252	-118.066	-114.276	-110.630	-107.414	-9.121	-110.812	-8191	255	
2633.149	1	1	0	0	0.10042	0.27271	0.14585	0.2911	0.047867	0.11959	0.10933	0.44906	0.37448	0.065271	0.021329	0.18352	0.15946	0.38721	0.18296	0.18645	0.46667	-0.20208	-0.46667	0.17708	-0.72708	-0.18542	-0.2375	-0.93125	0.13958	-0.39792	-0.92708	0.0625	-0.78333	-0.34167	0.091667	-0.8375	-45.947	-32.269	196.256	164.660	40.729	104.542	-26.320	183.229	69.192	63.351	121.436	216.485	33.647	183.749	76.332	124.189	0.00046268	0.00059576	0.00013144	1091.1	4.2178e-06	6.5796e-06	862.95	335.39	3.7621e-06	6.2523e-06	301.4	105.2	97.767	47.391	3.3853e-06	47.276	0.0007305	0.00084338	0.00023178	983.58	9.0033e-06	9.2906e-06	778.3	303.98	9.2574e-06	9.1575e-06	272.82	96.346	89.664	43.228	9.2385e-06	43.048	174.653	-6.819	-9.862	-120.936	30.043	13.061	-122.098	-115.974	8.916	-2.622	-118.146	-114.340	-110.320	-107.830	11.469	-110.297	-8191	255	
2633.245	1	1	0	0	0.1025	0.37079	0.21972	0.30045	0.068015	0.017037	0.41828	0.22358	0.29473	0.16441	0.24963	0.088708	0.25756	0.040881	0.25297	0.076388	0.27917	-0.25	-0.79167	0.05	-0.5125	-0.46667	-0.23125	-0.85833	-0.15417	-0.12083	-0.68333	0	-0.76667	-0.41458	0.0041667	-0.84792	218.949	-0.625	-61.116	204.247	196.785	-14.423	108.564	183.882	119.382	223.146	167.624	160.307	-62.231	129.055	59.216	20.252	0.00032035	0.00051816	0.00022817	1077.3	4.2008e-06	8.5576e-06	837.82	329	2.6944e-06	3.1734e-06	292.96	101.61	94.979	46.39	5.3344e-06	45.658	0.00071992	0.00082843	0.00023514	974.72	8.5024e-06	9.2607e-06	758.35	298.57	9.1202e-06	9.1443e-06	264.3	93.103	87.796	42.496	8.9131e-06	41.967	176.259	-64.597	-14.534	-120.887	-18.541	8.731	-122.085	-116.094	-16.603	2.510	-118.143	-114.664	-110.641	-107.785	-0.649	-110.825	-8191	255	
2633.364	1	1	0	0	0.12913	0.07675	0.30555	0.12782	0.2971	0.075441	0.058719	0.34417	0.12361	0.053768	0.1472	0.14254	0.38519	0.15279	0.21637	0.20804	0.30625	-0.15	-0.61875	-0.077083	-0.65208	-0.60208	0.15417	-0.83125	-0.0875	-0.28542	-0.97083	-0.039583	-0.61042	-0.62083	0.045833	-0.81042	125.811	223.234	52.752	156.358	-89.102	-8.960	-57.629	200.580	160.899	157.649	198.649	-60.972	-97.865	156.730	-13.801	205.201	0.00035965	0.00059647	8.12e-05	1071.9	3.784e-06	1.962e-06	831.36	328.46	5.6847e-06	3.5299e-06	291.87	103.03	96.583	47.185	5.9585e-06	47.487	0.00069339	0.00084966	0.00023368	966.59	8.8375e-06	9.1566e-06	752.77	298.08	8.696e-06	9.2149e-06	264.88	94.427	88.848	43.252	9.2246e-06	43.439	170.621	-11.960	-78.119	-121.262	-43.578	13.534	-122.085	-115.970	-82.634	25.133	-117.936	-114.019	-110.955	-107.903	-68.502	-110.469	-8191	255	
2633.461	1	1	0	0	0.23662	0.20414	0.13617	0.20943	0.2101	0.15567	0.072934	0.12172	0.24102	0.25604	0.23246	0.16761	0.15978	0.02804	0.25806	0.18509	0.025	0.039583	-0.91667	-0.19167	-0.45833	-0.68958	0.17917	-0.89375	-0.29167	0.029167	-0.8875	-0.0875	-0.15208	-0.83333	0.4125	-0.6	9.208	-46.563	35.171	95.201	-84.986	-94.659	-63.470	189.113	182.755	136.048	-116.528	168.066	133.330	-11.623	130.999	110.157	0.00036244	0.00054173	0.00011422	1074.9	1.8505e-06	4.9919e-06	840.63	334.1	5.2165e-06	2.5516e-06	297.87	104.61	98.129	47.771	6.6451e-06	47.628	0.00072539	0.00085795	0.00023529	970.84	9.1881e-06	9.2372e-06	762.75	302.31	8.9156e-06	9.1626e-06	270.51	96.003	89.858	43.575	9.1761e-06	43.767	171.338	-25.144	-67.370	-121.018	-3.375	37.638	-122.228	-115.981	-1.484	13.215	-117.902	-114.446	-110.538	-107.356	-57.804	-110.379	-8191	255	
2633.557	1	1	0	0	0.0629	0.15811	0.071952	0.34697	0.34485	0.20249	0.081949	0.21206	0.084215	0.098311	0.27778	0.066076	0.18946	0.20228	0.23277	0.19308	0.010417	-0.0083333	-0.825	-0.15625	-0.027083	-0.84375	0.12083	-0.86667	-0.63333	0.0041667	-0.86458	-0.0020833	-0.23125	-0.69583	0.070833	-0.70208	-46.411	-83.605	-19.947	134.386	20.308	11.389	-12.153	161.510	-28.144	105.819	143.586	31.647	-71.177	179.917	130.710	-105.617	0.00036954	0.00045986	8.4164e-05	1089.4	2.477e-06	6.1244e-06	846.82	331.69	6.9452e-06	9.6002e-06	299.29	105.06	97.446	47.795	2.1116e-06	47.479	0.00071707	0.00086138	0.00023865	980.18	9.2375e-06	9.3364e-06	769.73	302.44	9.0719e-06	9.465e-06	272.06	96.23	89.538	43.711	9.5099e-06	43.667	176.749	-59.477	-99.610	-121.100	-61.011	-28.358	-122.231	-115.717	-26.015	20.308	-118.088	-114.360	-110.490	-107.923	37.171	-110.530	-8191	255	
2633.653	1	1	0	0	0.079924	0.26281	0.24379	0.12596	0.15007	0.2517	0.17108	0.10394	0.12175	0.11242	0.21532	0.22504	0.28858	0.025961	0.11074	0.25305	-0.375	0.097917	-0.82083	-0.3625	-0.0875	-0.92917	-0.047917	-0.6625	-0.28958	0.175	-0.76458	-0.27917	-0.16875	-0.74792	0.14583	-0.36667	206.142	-31.995	98.127	164.251	-52.771	-80.866	-130.565	106.627	185.553	74.582	-24.744	174.337	146.171	-95.779	-15.260	102.225	0.00039044	0.00064845	0.00015317	1074	3.3223e-06	5.2e-06	836.84	332.1	2.9996e-06	6.1201e-06	295.35	104.67	97.086	48.014	7.9199e-06	47.477	0.00071213	0.00084909	0.00022272	970.06	8.6075e-06	9.3494e-06	760.3	300.83	8.7165e-06	9.477e-06	268.19	95.359	89.227	43.782	9.1357e-06	43.672	174.711	-39.535	-29.115	-121.355	-40.592	1.283	-122.692	-115.967	-20.936	-16.349	-117.794	-114.582	-110.645	-107.303	-26.266	-110.711	-8191	255	
2633.749	1	1	0	0	0.094004	0.10265	0.38347	0.26964	0.1003	0.15784	0.08855	0.40387	0.32372	0.36966	0.21794	0.15544	0.23143	0.22557	0.15495	0.19432	-0.04375	0.41458	-0.69375	-0.50208	0.1125	-0.83958	0.1	-0.46458	-0.56042	0.045833	-0.6625	-0.37708	0.14375	-0.77292	-0.13958	-0.19792	-100.612	134.316	86.123	137.861	19.704	191.040	186.579	-119.900	35.419	83.547	153.487	187.422	158.402	-131.180	48.671	107.348	0.00037292	0.00029025	0.00012055	1073.3	1.0833e-07	4.7284e-06	834.18	332.53	5.7363e-06	6.9471e-06	301.85	107.95	98.955	49.455	4.7962e-06	50.053	0.00069357	0.0008235	0.00023417	962.79	8.8479e-06	8.6976e-06	754.83	301.45	8.8562e-06	9.3772e-06	272.77	98.058	90.773	45.201	9.3274e-06	46.027	165.435	-34.525	-31.833	-121.212	6.696	16.407	-122.436	-115.657	-18.700	-9.255	-117.772	-114.674	-110.921	-107.320	-7.265	-109.974	-8191	255	
2633.845	1	1	0	0	0.1174	0.084961	0.17802	0.12017	0.14127	0.33631	0.18637	0.23743	0.10821	0.12644	0.36016	0.1322	0.26523	0.16244	0.31108	0.13655	-0.39792	0.08125	-0.60833	-0.66042	0.225	-0.86042	-0.3125	-0.28542	-0.86042	0.083333	-0.58542	-0.79167	0.14167	-0.78333	-0.1625	-0.12917	225.120	10.933	-92.501	-106.304	-54.132	42.951	55.560	138.125	212.732	111.954	-130.506	132.969	170.568	158.657	136.092	-25.764	0.00044306	0.00078316	0.00016923	1071.7	4.8663e-06	8.257e-06	851.79	336.56	2.5615e-06	3.5127e-06	307.18	109.86	100.42	50.278	1.1964e-06	51.076	0.0007249	0.00084216	0.00023981	968.82	8.8954e-06	9.3298e-06	770.68	306.03	9.3164e-06	9.569e-06	279.73	100.61	92.283	45.874	9.4984e-06	46.917	177.265	-48.691	-33.493	-120.979	-15.157	-1.049	-122.099	-115.860	-29.195	-87.080	-117.723	-114.474	-110.324	-107.386	89.430	-110.243	-8191	255	
2633.966	1	1	0	0	0.14631	0.081553	0.21279	0.36383	0.045419	0.46444	0.1688	0.18739	0.14549	0.20994	0.090758	0.18059	0.25599	0.097474	0.056048	0.091795	-0.35417	0.0083333	-0.3375	-0.5875	0.095833	-0.75833	-0.37292	-0.22083	-0.77292	0.039583	-0.62917	-0.73125	0.29167	-0.8875	-0.35208	0.12292	-67.659	0.312	-101.604	-109.706	103.292	134.813	165.730	181.479	43.556	55.131	-33.721	166.644	83.131	102.401	-51.065	190.091	0.00035872	0.00051482	0.0002469	1085.1	3.5019e-06	3.8708e-06	858.03	339.55	3.9528e-06	6.9611e-06	310.03	109.64	101.05	50.25	7.1936e-06	50.941	0.00074374	0.00087117	0.00025051	978.57	9.3819e-06	9.3376e-06	779.11	307.59	9.0963e-06	9.5071e-06	280.8	100.8	92.016	45.818	9.5547e-06	46.67	178.270	-44.418	-55.811	-121.212	0.884	59.607	-122.287	-115.918	-8.181	24.923	-117.644	-114.387	-110.544	-107.438	-8.482	-110.257	-8191	255	
2634.062	1	1	0	0	0.13159	0.25436	0.17885	0.13859	0.18918	0.24095	0.016208	0.25129	0.017483	0.1042	0.21756	0.10436	0.10756	0.21487	0.075245	0.11612	-0.52292	-0.1	-0.29375	-0.77708	0.13542	-0.61458	-0.575	-0.10417	-0.76458	-0.077083	-0.45208	-0.74167	0	-0.71875	-0.37917	-0.060417	23.365	180.075	-29.811	194.048	187.442	107.292	39.448	137.689	50.249	-97.067	119.125	29.926	-32.876	202.719	-58.910	165.586	0.0004107	0.00031262	0.00014113	1074.4	5.4075e-06	4.6407e-06	839.34	337.28	7.2018e-06	9.0879e-06	301.61	106.58	99.469	49.318	3.9025e-06	49.285	0.00074013	0.00085175	0.00023279	972.85	8.6922e-06	9.0326e-06	763.16	304.93	8.8759e-06	9.578e-06	273.39	97.945	90.921	44.873	8.9604e-06	45.12	174.656	-54.392	-39.781	-121.267	8.978	23.089	-122.580	-116.129	-35.805	28.787	-117.735	-114.226	-110.839	-107.325	-39.120	-110.627	-8191	255	
2634.156	1	1	0	0	0.087223	0.10872	0.089901	0.2373	0.15241	0.15959	0.41832	0.30557	0.15613	0.054113	0.04391	0.11486	0.038189	0.19709	0.061114	0.1755	-0.32083	-0.18333	-0.1875	-0.96667	0.027083	-0.525	-0.59167	0.10417	-0.65833	-0.36875	-0.11667	-0.91458	0.06875	-0.49375	-0.4625	0.029167	165.001	53.743	-13.491	108.044	133.925	-22.167	161.904	164.958	-128.137	-99.382	-132.626	-9.906	214.884	214.997	94.969	25.311	0.00039752	0.0004557	0.00014583	1059.6	3.67e-06	7.0766e-07	829.96	332.74	3.6653e-06	7.4049e-06	301.51	107.97	99.189	50.084	1.4765e-06	50.581	0.00071366	0.00080817	0.00023498	956.46	8.7377e-06	9.2227e-06	749.42	301.66	8.917e-06	9.251e-06	272.45	98.534	91.014	45.555	8.9876e-06	46.356	169.808	-65.576	-12.725	-121.198	57.919	-20.000	-122.415	-116.030	-15.498	5.374	-117.731	-114.395	-110.707	-107.459	30.939	-110.297	-8191	255	
2634.230	1	1	0	0	0.093134	0.21881	0.19008	0.044069	0.38268	0.13014	0.34115	0.48082	0.20747	0.34442	0.077699	0.20964	0.2593	0.16976	0.10853	0.12548	-0.21875	-0.41042	0.083333	-0.89375	-0.027083	-0.29375	-0.79167	-0.039583	-0.775	-0.46458	-0.039583	-0.87708	0.0041667	-0.51667	-0.62292	0.10417	-60.105	150.500	120.140	29.680	-68.088	159.358	36.861	185.807	113.946	218.516	-40.024	148.091	-48.392	-93.819	83.594	12.346	0.00045219	0.00063494	0.00012143	1058.9	2.3099e-06	6.6099e-06	836.79	335.86	6.2752e-06	5.0351e-06	306.03	109.62	100.16	50.323	6.1555e-06	51.98	0.00072209	0.00083563	0.00023039	957.35	8.9335e-06	9.2221e-06	758.78	304.22	9.0972e-06	9.0677e-06	278.06	100.9	92.139	46.05	9.5376e-06	47.553	173.677	-36.273	-64.113	-120.837	-37.970	15.125	-122.414	-115.679	-48.896	38.167	-118.034	-114.133	-110.594	-107.292	13.569	-110.586	-8191	255	
2634.326	1	1	0	0	0.46755	0.24601	0.22026	0.18908	0.16855	0.17732	0.11269	0.11926	0.15979	0.097337	0.075676	0.1972	0.17982	0.19097	0.2776	0.27377	-0.21458	-0.55208	0.014583	-0.87708	-0.035417	-0.21667	-0.71042	0.025	-0.6125	-0.50208	0.16042	-1.0458	-0.0083333	0.11667	-0.82917	0.14792	206.600	24.164	69.442	137.544	184.807	196.502	31.995	169.158	167.135	218.022	157.183	219.444	132.858	89.127	81.187	172.549	0.00049658	0.00054112	0.00012371	1070.6	4.3009e-06	3.0308e-06	850.18	339.83	5.7046e-06	5.1562e-06	311.99	112.02	101.46	50.873	3.1858e-06	52.715	0.00073707	0.00086374	0.00023245	966.55	9.2511e-06	9.7999e-06	770.33	307.18	8.908e-06	9.4836e-06	282.94	102.92	93.205	46.367	9.2844e-06	48.003	169.998	-18.546	-44.314	-120.979	-14.705	2.799	-122.248	-115.819	-30.120	-16.085	-117.670	-114.220	-110.702	-107.255	-13.729	-109.822	-8191	255	
2634.445	1	1	0	0	0.23863	0.3847	0.086922	0.099644	0.04915	0.20925	0.15667	0.11782	0.21989	0.094979	0.10228	0.19314	0.23166	0.26371	0.035157	0.028622	-0.2375	-0.9375	0.33958	-0.85	-0.25833	-0.11667	-1.0667	-0.14583	-0.35417	-0.62292	-0.09375	-0.73333	-0.42917	-0.14167	-0.76667	-0.12292	6.944	34.364	-94.653	-107.210	146.839	178.296	-31.088	195.268	190.153	-121.788	124.064	164.317	155.172	202.674	63.017	-120.304	0.00040251	0.00043393	0.00019717	1063.9	2.9995e-06	7.1499e-06	845.45	337.32	4.866e-06	7.3014e-06	306.67	110.09	100.32	49.939	2.1753e-06	51.396	0.00072764	0.00085192	0.00024334	965.16	9.1547e-06	9.3944e-06	765.96	306.6	8.9805e-06	9.3291e-06	279.18	100.89	91.859	45.72	8.9844e-06	47.159	178.009	-51.061	-60.646	-120.599	6.415	59.645	-122.151	-116.150	-55.021	27.603	-118.047	-114.403	-110.449	-107.399	-55.324	-110.405	-8191	255	
2634.541	1	1	0	0	0.29366	0.17391	0.053439	0.26364	0.11848	0.17862	0.072773	0.29913	0.10996	0.31259	0.075237	0.37227	0.22726	0.23874	0.24073	0.12278	0.0083333	-0.59792	0.25417	-0.73542	-0.37708	0.13125	-0.86875	-0.27292	-0.32083	-0.7375	-0.0020833	-0.53958	-0.45833	0.035417	-0.56042	-0.23542	-56.298	106.525	-99.593	-85.764	82.322	163.469	73.712	-117.081	-59.416	217.308	-74.064	190.770	161.470	-126.414	127.164	188.675	0.00039309	0.00059645	0.00024166	1064.2	6.3244e-06	6.8048e-06	834.15	335.07	6.5063e-06	6.0617e-06	304.15	109.59	98.832	49.69	2.9968e-06	51.141	0.00072758	0.00082663	0.00023161	959.55	9.0683e-06	9.8434e-06	758.98	304.64	9.2416e-06	8.9267e-06	278.28	100.31	91.189	45.409	9.1874e-06	47.114	176.762	-37.951	-62.951	-121.400	-13.480	23.101	-122.093	-115.957	-16.512	14.501	-117.802	-114.003	-110.654	-107.364	-23.824	-110.604	-8191	255	
2634.637	1	1	0	0	0.31172	0.049359	0.055507	0.36451	0.35921	0.24967	0.089429	0.092801	0.16539	0.050949	0.28839	0.36148	0.078141	0.27478	0.077597	0.11198	0.11875	-0.63542	0.15417	-0.60833	-0.49375	0.21667	-0.82292	-0.3375	-0.12292	-0.60833	-0.097917	-0.32917	-0.8375	0.05625	-0.84583	-0.44375	-79.408	90.515	137.516	-130.641	119.082	68.838	53.379	221.189	141.947	45.152	174.067	225.704	82.788	217.266	21.095	223.585	0.00037763	0.00020126	0.0001876	1066.3	2.4193e-06	4.4682e-06	848.22	336.29	4.66e-06	6.7833e-06	307.81	109.21	99.045	48.65	4.1433e-06	50.449	0.00072399	0.00081654	0.00023635	962.1	8.9188e-06	9.1681e-06	766.1	305.79	9.0221e-06	9.4103e-06	279.01	99.625	90.922	44.515	9.2411e-06	46.152	174.389	-61.924	-60.430	-120.723	-24.453	27.515	-121.857	-115.764	-59.951	24.992	-117.648	-114.450	-110.577	-107.166	-23.082	-110.723	-8191	255	
2634.758	1	1	0	0	0.072595	0.14558	0.20037	0.30588	0.080343	0.10267	0.11591	0.1465	0.12424	0.062413	0.088016	0.066922	0.17322	0.22228	0.23023	0.12183	0.28958	-0.89583	0.19583	-0.6	-0.675	0.045833	-0.48125	-0.34375	-0.029167	-0.86667	-0.24375	-0.34792	-0.78542	-0.14792	-0.7	-0.45417	-25.388	19.621	86.136	191.421	179.996	204.213	101.394	133.243	128.254	224.008	-94.048	70.545	160.251	52.525	185.655	-117.636	0.00040392	0.00053211	0.00026983	1078.9	5.1026e-06	6.1563e-06	853.27	337.18	3.8181e-06	6.3408e-06	307.53	109.23	98.747	48.552	5.2269e-06	50.479	0.00074258	0.00083006	0.00023531	972.06	9.1231e-06	9.1925e-06	771.66	306.14	9.4171e-06	9.3183e-06	278.91	99.554	90.691	44.381	9.4813e-06	46.253	176.729	-54.527	-78.901	-120.559	-11.399	-6.043	-122.170	-116.051	-35.366	-20.036	-117.758	-114.212	-110.509	-107.369	3.455	-110.437	-8191	255	
2634.829	1	1	0	0	0.094895	0.089962	0.20189	0.079447	0.201	0.27372	0.13854	0.37437	0.21007	0.095864	0.18274	0.15346	0.078615	0.082074	0.15026	0.23317	0.44375	-0.68125	-0.047917	-0.24583	-0.87083	0.11667	-0.86042	-0.57083	0.1625	-0.9375	-0.34583	-0.2875	-0.69583	-0.041667	-0.48125	-0.71667	-50.719	157.760	39.481	-97.306	81.123	-96.404	175.865	204.004	204.823	10.821	178.073	182.008	-85.008	-108.489	2.295	184.829	0.00044454	0.00021885	0.00019657	1078.1	2.7954e-06	9.2281e-06	843.66	337.26	6.8626e-06	8.9219e-06	304.55	107.09	97.611	47.891	6.3808e-06	49.31	0.00075277	0.00085749	0.00023736	975.15	9.3293e-06	9.5537e-06	770.01	306.26	9.4081e-06	9.5588e-06	275.89	97.881	89.657	43.706	9.2067e-06	45.253	164.865	-34.522	-41.424	-120.900	19.700	19.154	-122.073	-115.942	-25.171	14.426	-117.882	-114.827	-110.753	-107.265	3.460	-110.242	-8191	255	
2634.926	1	1	0	0	0.22744	0.069892	0.11408	0.21267	0.14413	0.17625	0.30024	0.21705	0.13306	0.090723	0.24647	0.12419	0.12729	0.13334	0.44717	0.12728	0.41042	-0.88958	-0.26667	-0.42292	-0.76875	0.12083	-0.45417	-0.84375	-0.072917	-0.76667	-0.4625	-0.10417	-0.82708	-0.11042	-0.33958	-0.66875	99.197	-9.442	-127.398	138.461	221.535	213.035	196.225	130.515	15.562	181.103	-98.932	-64.680	187.625	72.700	109.763	33.521	0.00038481	0.00062936	0.00031646	1083.2	3.5493e-06	5.4535e-06	847.36	339.59	4.8379e-06	8.6099e-06	302.86	106.67	97.597	48.191	4.085e-06	49.87	0.00075818	0.00086277	0.00024551	975.61	9.1262e-06	9.3542e-06	767.32	307.29	9.1368e-06	9.4749e-06	275.71	97.662	89.836	43.965	9.6136e-06	45.529	183.611	-25.816	-30.197	-121.151	-21.456	44.177	-121.745	-115.912	-21.898	-11.082	-118.054	-114.065	-110.794	-107.312	-39.351	-110.526	-8191	255	
2635.046	1	1	0	0	0.20313	0.16732	0.25521	0.21926	0.15525	0.19524	0.18605	0.26105	0.18711	0.07766	0.025978	0.11126	0.31808	0.20667	0.15679	0.17279	0.53542	-0.6125	-0.22292	-0.0083333	-0.87292	0.05625	-0.39583	-0.82292	0.14583	-0.6125	-0.59375	0.14375	-0.70417	-0.28125	-0.20625	-0.83958	-33.215	130.658	140.440	-120.840	100.951	86.173	222.670	115.021	32.874	-127.270	176.013	-74.030	-114.522	123.668	220.074	146.879	0.00041678	0.0005243	0.00013871	1073	2.3692e-06	9.1179e-06	848.29	338.86	3.445e-06	5.2001e-06	305.82	107.28	97.923	48.192	3.116e-06	50.327	0.0007413	0.00089202	0.00023777	971.51	9.0474e-06	9.6023e-06	767.64	306.6	9.0851e-06	9.3805e-06	276.52	98.126	89.73	43.948	9.5206e-06	45.938	170.443	-49.347	-69.002	-120.838	-31.931	-13.292	-122.497	-116.274	-69.671	38.049	-117.684	-114.060	-110.476	-107.530	19.489	-110.420	-8191	255	
2635.142	1	1	0	0	0.12307	0.21687	0.38239	0.22768	0.24534	0.1422	0.17706	0.37097	0.1363	0.049233	0.20786	0.26943	0.080765	0.067359	0.23752	0.0316	0.55833	-0.425	-0.54792	0.12083	-0.8125	-0.016667	-0.23958	-1.0187	0.083333	-0.63333	-0.75625	-0.06875	-0.64375	-0.39792	-0.2125	-0.89583	166.067	-27.691	70.006	156.830	-35.701	88.085	176.072	166.247	188.144	-59.575	115.321	189.956	-130.659	-64.642	206.408	44.761	0.00034587	0.00044292	0.00013781	1084.8	2.5581e-06	3.7023e-06	856.74	336.94	4.2516e-06	6.7782e-06	304.95	106.28	97.118	47.426	3.1222e-06	49.309	0.00073234	0.0008945	0.00024598	977.66	9.1971e-06	9.7846e-06	774.53	306.94	9.6346e-06	9.6113e-06	276.28	97.461	89.308	43.447	9.5192e-06	45.259	178.417	-29.576	-12.092	-120.968	23.415	87.605	-122.106	-115.897	-47.845	55.686	-117.631	-114.313	-110.796	-107.517	8.256	-110.424	-8191	255	
2635.238	1	1	0	0	0.10619	0.16867	0.026935	0.17313	0.13573	0.16013	0.045432	0.29183	0.087433	0.1922	0.10936	0.060795	0.23623	0.19648	0.21915	0.27951	0.40625	-0.4375	-0.43125	0.21042	-0.96458	-0.26042	-0.070833	-0.83542	0.17083	-0.52292	-0.65833	0.17083	-0.69375	-0.50208	-0.095833	-0.90417	171.383	80.397	-101.937	-54.623	44.574	152.696	108.288	177.987	69.284	-101.653	-122.606	74.178	198.016	206.682	-97.337	-117.623	0.00041805	0.00070491	0.00014471	1080.7	4.9062e-06	5.9999e-06	853.16	335.5	1.5792e-06	3.9484e-06	299.79	104	95.437	46.555	3.175e-06	48.663	0.00076707	0.00089403	0.00025205	972.53	9.2279e-06	9.6841e-06	769.21	304.34	9.3263e-06	9.9909e-06	273.12	95.518	87.882	42.729	9.9228e-06	44.631	179.784	-57.417	-20.667	-120.740	-14.995	-14.770	-122.027	-115.546	-54.681	56.958	-118.335	-114.050	-110.695	-107.802	35.874	-110.649	-8191	255	
2635.357	1	1	0	0	0.1747	0.090599	0.16321	0.27804	0.15175	0.17562	0.027115	0.085485	0.16279	0.21784	0.33975	0.2275	0.094538	0.18303	0.031227	0.37888	0.2625	-0.3625	-0.5625	-0.095833	-0.71667	-0.38958	-0.083333	-1.0167	-0.2125	-0.29375	-0.76458	-0.05625	-0.76458	-0.50208	0.24792	-0.91667	-121.824	112.414	106.496	221.605	115.444	133.080	-8.849	143.799	75.823	-37.298	109.688	-121.260	179.399	-87.988	-104.916	119.289	0.00034481	0.00061493	0.00013456	1083	5.0406e-06	8.5111e-06	847.93	335.24	1.374e-06	7.4953e-06	303.08	105.76	96.579	46.979	4.5101e-06	49.005	0.00077977	0.00089963	0.00025025	973.69	9.5884e-06	9.8401e-06	769.28	305.07	9.7814e-06	1.0181e-05	273.88	96.404	88.693	43.25	9.8983e-06	45.217	178.882	-64.403	-61.740	-120.833	5.800	-18.238	-122.061	-115.851	12.601	13.030	-117.998	-113.929	-110.629	-107.659	-13.886	-110.338	-8191	255	
2635.453	1	1	0	0	0.21678	0.13591	0.19139	0.25195	0.20607	0.10197	0.11061	0.25233	0.080831	0.18563	0.30853	0.19615	0.21733	0.10714	0.25857	0.15185	0.12917	-0.18958	-0.82083	0.01875	-0.40208	-0.67292	0.22917	-0.99583	-0.40208	0	-0.9625	-0.025	-0.52917	-0.88542	0.079167	-0.65	40.557	-116.512	-123.723	115.502	-58.139	-63.808	182.365	206.106	-75.827	-85.600	35.006	-90.232	-10.628	194.636	-89.663	160.671	0.00039632	0.00056188	0.00012572	1087.9	8.7658e-07	1.0151e-05	854	336.65	4.4755e-06	1.4062e-06	303.17	106.34	96.822	48.224	4.8249e-06	50.35	0.00076196	0.00093128	0.00025765	980.01	9.7828e-06	1.0072e-05	777.17	306.16	1.0315e-05	1.0178e-05	276.45	97.386	88.878	43.773	1.0085e-05	46.01	178.858	-50.181	-7.621	-121.342	-27.607	35.823	-121.957	-116.099	-24.843	63.303	-117.751	-114.067	-110.572	-107.581	-14.164	-110.090	-8191	255	
2635.525	1	1	0	0	0.20351	0.23415	0.34323	0.20113	0.033462	0.13789	0.48844	0.059673	0.3177	0.25723	0.15698	0.21986	0.020733	0.1113	0.11438	0.24451	0.025	-0.10417	-0.63333	-0.12708	-0.51875	-0.75417	-0.15417	-0.63542	-0.4625	-0.14792	-0.78542	-0.097917	-0.31458	-0.58333	0.11042	-0.70625	35.948	-72.518	41.144	186.531	13.482	47.028	179.181	-15.899	211.531	-6.748	143.253	204.003	-52.703	190.339	-102.532	195.643	0.00040019	0.00034844	9.6266e-05	1092.2	2.1825e-06	5.6901e-06	868.06	337.71	3.6383e-06	3.1467e-06	303.73	106.34	96.899	47.778	7.2475e-06	49.589	0.00079587	0.00093093	0.00026557	986.77	9.8975e-06	1.0346e-05	784.76	307.97	9.9163e-06	1.0359e-05	277.09	97.538	89.108	43.623	1.0264e-05	45.536	176.303	-77.762	-77.071	-120.912	24.056	5.905	-121.865	-115.868	-65.109	5.240	-117.884	-113.943	-110.456	-107.548	9.477	-110.233	-8191	255	
2635.646	1	1	0	0	0.14167	0.067088	0.18917	0.22603	0.38027	0.23294	0.058193	0.12475	0.15153	0.17022	0.21885	0.18479	0.15776	0.10887	0.045812	0.23741	-0.077083	0.04375	-0.825	-0.095833	-0.12292	-0.83958	0.0375	-0.66458	-0.42917	0.35	-0.84167	-0.079167	-0.15417	-0.88125	0.20417	-0.60625	-70.306	130.414	155.616	171.049	-1.346	113.929	2.554	86.076	134.463	48.927	176.624	-52.987	-9.806	-116.064	-38.971	222.747	0.00035355	0.00036475	0.00010221	1084.8	3.878e-06	7.7133e-07	857.46	335.11	4.1404e-06	3.7236e-06	300.86	102.76	94.647	46.745	6.1098e-06	48.437	0.00079236	0.00096984	0.00026788	983.04	1.0043e-05	1.0336e-05	777.51	304.2	9.9821e-06	1.0419e-05	272.86	94.702	87.362	42.708	1.0251e-05	44.553	173.459	-14.274	-16.942	-120.727	13.446	-7.736	-122.495	-115.976	-82.656	27.531	-117.430	-114.030	-110.419	-107.438	-34.744	-110.026	-8191	255	
2635.742	1	1	0	0	0.28333	0.1801	0.16212	0.078112	0.10289	0.031677	0.041642	0.21624	0.068454	0.29566	0.17035	0.069924	0.16321	0.19209	0.27173	0.19196	-0.28333	0.21667	-0.86667	-0.41458	-0.14583	-0.74583	-0.23958	-0.6	-0.53333	-0.0083333	-0.9	-0.32917	-0.097917	-0.7625	0.0041667	-0.325	-97.848	111.935	-10.997	51.678	195.139	61.964	176.803	194.879	-72.279	-28.785	208.859	202.738	160.601	162.279	12.826	149.657	0.00036357	0.00061682	0.00012361	1088.1	2.0363e-06	6.5872e-06	856.65	334.15	4.7509e-06	4.542e-06	299.73	103.38	95.717	47.113	5.0707e-06	48.943	0.00079998	0.00094284	0.00026403	981.51	1.0076e-05	1.0241e-05	776.03	303.73	1.0182e-05	1.03e-05	273.49	95.156	87.777	43.099	1.0096e-05	45.031	167.184	-38.764	-21.161	-120.954	-54.611	-23.414	-122.135	-115.747	-31.593	3.682	-117.307	-114.188	-110.429	-107.262	7.683	-110.013	-8191	255	
2635.838	1	1	0	0	0.10477	0.32171	0.2511	0.096877	0.055558	0.19427	0.20068	0.21334	0.03384	0.09203	0.19007	0.045249	0.15945	0.18325	0.16374	0.23172	-0.38542	0.15208	-0.50417	-0.57708	0.01875	-0.925	-0.15417	-0.57708	-0.82917	0.039583	-0.82292	-0.65417	0.13542	-0.92708	-0.04375	-0.25208	140.717	217.142	148.410	-114.209	-98.029	97.253	201.228	159.390	111.205	174.910	132.025	-73.387	85.444	173.664	-37.484	148.002	0.00037863	0.00053693	0.00013292	1090	4.171e-06	4.8418e-06	857.65	334.93	4.477e-06	3.9656e-06	301.41	105.13	95.852	47.413	4.5502e-06	49.276	0.00077696	0.00096978	0.00025608	982.91	1.0128e-05	1.0225e-05	778.35	304.83	1.0012e-05	1.0149e-05	273.86	95.682	88.106	43.332	1.0141e-05	45.309	163.736	-11.976	-15.038	-120.818	-17.389	10.847	-122.114	-115.937	-83.276	-79.021	-117.551	-114.397	-110.447	-107.098	-33.694	-110.294	-8191	255	
2635.934	1	1	0	0	0.016432	0.032404	0.092852	0.14882	0.13906	0.20085	0.1965	0.20251	0.23475	0.11014	0.36365	0.24292	0.25909	0.21759	0.090506	0.075177	-0.35208	0.16667	-0.5	-0.80208	0.16875	-0.75833	-0.052083	-0.27083	-0.77083	-0.0625	-0.66042	-0.6875	0.125	-0.72708	-0.19375	0.010417	14.528	159.033	82.975	188.210	43.599	66.013	124.821	199.775	-110.220	-81.325	-93.554	215.581	168.743	-98.556	89.744	173.161	0.00035278	0.00036727	0.00019949	1097.2	5.2906e-06	4.8203e-06	856.78	334.47	4.6656e-06	5.0357e-06	300.76	102.5	94.495	46.542	5.074e-06	47.372	0.00079502	0.00094083	0.00026792	987.25	1.0267e-05	1.0128e-05	777.56	304.02	9.848e-06	1.0355e-05	271.35	93.529	86.866	42.487	1.0379e-05	43.574	174.733	-35.131	-53.487	-120.879	36.320	18.113	-122.412	-115.842	-12.834	15.520	-118.078	-114.102	-110.607	-107.426	-38.390	-110.384	-8191	255	
2636.030	1	1	0	0	0.23013	0.06794	0.3041	0.038134	0.13575	0.080775	0.19606	0.23387	0.087302	0.16059	0.17898	0.16997	0.066702	0.27164	0.17585	0.2651	-0.53542	0.25833	-0.36667	-0.71042	0.039583	-0.73542	-0.12083	-0.15208	-0.83333	-0.047917	-0.39167	-0.7	0.022917	-0.73542	-0.41042	-0.097917	9.987	181.894	-69.529	-93.920	-112.755	177.414	140.711	214.406	32.962	137.282	194.732	207.089	168.277	199.995	178.093	153.080	0.00043994	0.00045639	0.00016313	1085.9	4.1293e-06	6.8433e-06	848.81	329.95	1.8534e-06	6.7047e-06	294.13	101.67	94.184	46.355	5.4659e-06	48.305	0.00076785	0.00091018	0.00026111	976.63	9.804e-06	1.0241e-05	769.29	299.51	9.5821e-06	1.0157e-05	267.68	93.145	86.542	42.365	9.9044e-06	44.216	183.872	-36.730	-23.813	-121.550	56.220	44.532	-122.214	-116.072	30.371	42.446	-118.015	-114.195	-110.737	-107.459	-47.352	-110.201	-8191	255	
2636.127	1	1	0	0	0.13426	0.10424	0.16853	0.25765	0.12789	0.30147	0.39343	0.126	0.16553	0.17931	0.116	0.1348	0.20684	0.16472	0.3051	0.24858	-0.37708	-0.15	-0.28958	-0.96042	0.16458	-0.70208	-0.5375	0.0041667	-0.6625	0.033333	-0.32917	-0.90833	0.17083	-0.74583	-0.47917	0.12292	-2.613	55.444	68.951	-124.559	-63.464	118.656	204.505	85.986	74.647	42.343	-125.605	-117.649	207.257	160.849	-111.033	170.416	0.00033784	0.00074984	8.5803e-05	1088.1	6.5251e-06	6.6383e-06	862.64	334.69	2.1212e-06	6.5397e-07	299.15	104.02	95.719	46.901	5.9713e-06	49.449	0.0007738	0.0009256	0.0002574	981.16	9.8786e-06	1.0142e-05	779.25	302.96	9.8393e-06	1.0329e-05	272.49	95.324	87.548	42.87	1.0051e-05	45.101	176.397	-15.861	-30.418	-120.889	6.173	35.858	-121.904	-116.001	-116.128	80.221	-117.977	-114.425	-110.574	-107.470	-19.246	-110.381	-8191	255	
2636.223	1	1	0	0	0.22211	0.03493	0.10299	0.46063	0.28826	0.10903	0.2604	0.41089	0.14151	0.057964	0.29749	0.12163	0.058446	0.38462	0.14885	0.12788	-0.24375	-0.19167	0	-0.95	0.10833	-0.59792	-0.71042	0.064583	-0.73958	-0.17917	-0.13125	-0.67292	0.18125	-0.54583	-0.46458	0.00625	122.429	162.172	-34.085	165.546	126.957	-108.281	185.856	199.899	215.107	-58.250	96.451	156.238	126.420	139.076	-40.039	200.336	0.00036848	0.00041446	0.00021684	1097.6	2.4037e-06	5.289e-06	872.53	337.78	4.8111e-06	3.3471e-06	305.97	105.78	95.936	47.945	4.8655e-06	49.777	0.00080358	0.00096497	0.00026363	991.69	1.0325e-05	1.0459e-05	793.43	306.16	1.0354e-05	1.0717e-05	278	97.209	88.597	43.709	1.0348e-05	45.784	172.616	-57.159	-43.474	-120.935	46.762	-25.909	-122.292	-115.862	-45.104	-6.888	-118.414	-114.253	-110.421	-107.277	-36.179	-110.037	-8191	255	
2636.319	1	1	0	0	0.18656	0.079172	0.057134	0.12736	0.097751	0.079426	0.17805	0.15269	0.189	0.25978	0.094324	0.33834	0.22743	0.093004	0.27927	0.12901	-0.40625	-0.30417	0.079167	-0.66667	-0.0020833	-0.52708	-0.80208	0.0083333	-0.52292	-0.42917	-0.09375	-0.62708	0.0041667	-0.1125	-0.4375	0.15833	12.860	-92.430	186.712	145.898	-46.901	173.195	-82.678	99.272	95.355	-91.750	222.264	180.586	159.007	-56.514	151.545	28.515	0.00045837	0.00062589	0.00018077	1102.6	2.0888e-06	6.2394e-06	867.65	335.64	3.545e-06	7.0785e-06	301.58	102.87	94.543	46.711	8.3892e-06	48.072	0.00081862	0.00094221	0.00027065	992.45	1.0072e-05	1.0599e-05	787.86	304.28	1.0348e-05	1.0358e-05	273.16	94.203	86.731	42.746	1.0141e-05	44.025	174.652	-43.211	-46.649	-121.006	-18.294	-2.449	-122.047	-116.234	-20.951	8.276	-117.690	-114.144	-110.846	-107.214	-42.973	-110.454	-8191	255	
2636.438	1	1	0	0	0.2207	0.10155	0.29325	0.043731	0.10402	0.09171	0.041517	0.16905	0.15424	0.29132	0.21495	0.19047	0.15062	0.088352	0.111	0.18125	-0.34167	-0.25833	0.24167	-0.95208	0.03125	0.0125	-0.89583	0.05625	-0.43958	-0.51875	0.052083	-0.67292	-0.1	-0.15625	-0.78542	0.13125	162.499	22.875	-56.241	-92.327	27.397	170.830	130.852	185.111	215.107	42.525	-124.395	189.311	179.630	-61.381	25.833	203.677	0.00034476	0.00061187	0.00013385	1090.6	4.1063e-06	6.253e-06	855.84	331.54	3.2761e-06	7.3722e-06	297.37	102.56	94.564	46.615	5.3196e-06	47.918	0.00079583	0.00095344	0.00026195	982.35	9.9647e-06	1.0128e-05	775.42	301.39	9.943e-06	1.0206e-05	269.91	93.624	86.724	42.722	1.0011e-05	44.034	166.320	-36.634	-14.950	-121.102	-26.532	49.397	-122.599	-115.994	-43.679	-5.529	-118.081	-114.408	-110.649	-107.695	-15.522	-110.382	-8191	255	
2636.534	1	1	0	0	0.12507	0.15506	0.23582	0.19666	0.073101	0.11814	0.30566	0.21053	0.19124	0.2026	0.36886	0.1318	0.17032	0.11736	0.34313	0.26693	-0.077083	-0.5625	0.19792	-0.81042	-0.10833	-0.0020833	-0.71667	0.12917	-0.44583	-0.53333	0.13542	-0.90833	-0.27917	0.016667	-0.63542	-0.1625	96.733	-129.520	-111.392	-68.750	-128.087	165.228	122.350	188.368	-123.100	-98.565	132.186	123.389	93.757	219.036	84.040	113.358	0.00034958	0.00065667	0.00015206	1088.1	1.8613e-06	6.5245e-06	860.77	334.1	4.7137e-06	7.1774e-06	299.79	103.93	94.472	47.388	4.3372e-06	49.6	0.00079922	0.00090287	0.00026193	979.32	9.8565e-06	1.0328e-05	779.36	302.09	9.8055e-06	9.9473e-06	271.85	94.986	87.515	43.41	9.8226e-06	45.297	167.534	-66.419	-53.117	-120.842	-1.517	25.605	-122.334	-115.894	-55.137	10.627	-117.954	-114.763	-110.653	-107.209	-1.963	-110.582	-8191	255	
2636.630	1	1	0	0	0.18838	0.26191	0.13364	0.029609	0.043507	0.10574	0.21365	0.15991	0.070739	0.044858	0.31613	0.21971	0.30595	0.045314	0.067363	0.1533	0.05625	-0.6875	0.44167	-0.55417	-0.29375	0.1125	-0.91667	-0.0020833	0.029167	-0.74792	-0.09375	-0.65	-0.57292	0.10417	-0.81458	-0.0875	-89.318	2.947	64.020	-7.028	94.602	139.583	202.319	166.240	103.151	118.794	54.289	220.808	147.657	45.773	-98.211	-129.444	0.00040136	0.0003797	0.00010938	1090.7	6.2917e-06	4.0563e-06	870.61	337.22	1.0174e-05	2.8042e-06	304.95	105.62	97.299	48.369	4.2888e-06	50.134	0.00079891	0.0009439	0.00025655	985.06	9.9012e-06	1.0198e-05	788.69	305.52	9.783e-06	1.0221e-05	276.89	96.895	88.822	44.119	9.9659e-06	45.878	177.014	-39.390	-22.163	-121.104	47.995	36.163	-122.089	-115.626	-16.561	16.266	-117.958	-114.349	-110.865	-107.602	8.514	-110.210	-8191	255	
2636.726	1	1	0	0	0.049008	0.070272	0.1598	0.173	0.1577	0.14815	0.1977	0.32205	0.069534	0.20616	0.21992	0.21202	0.13187	0.0379	0.072219	0.21952	0.30208	-0.83125	0.14792	-0.51458	-0.22708	0.079167	-0.83333	-0.18958	0.075	-0.65625	0.23542	-0.54583	-0.61875	0.06875	-0.57708	-0.22708	-88.552	-111.295	175.528	105.346	146.338	89.674	166.458	121.442	32.052	183.341	-112.263	204.984	38.297	210.783	130.369	140.134	0.00039849	0.00041076	0.00020264	1094.9	7.7182e-06	3.0792e-06	872.48	333.45	1.3656e-06	6.7876e-06	301.73	103.91	95.116	47.111	3.7087e-06	48.745	0.00080372	0.00093316	0.0002588	992.41	9.7116e-06	1.0698e-05	789.99	303.8	9.9087e-06	1.0386e-05	273.66	95.098	87.403	43.175	1.0018e-05	44.693	175.502	-40.564	-49.129	-120.744	-15.555	9.099	-122.149	-116.072	-5.460	29.117	-118.009	-114.396	-110.886	-107.388	-9.079	-110.616	-8191	255	
2636.822	1	1	0	0	0.18149	0.18252	0.28863	0.50004	0.35692	0.19535	0.41762	0.28085	0.10856	0.14371	0.28976	0.092619	0.24552	0.1492	0.10486	0.24543	0.54167	-0.86042	0.22292	-0.50833	-0.58958	0.1875	-0.95625	-0.25208	0.083333	-0.84375	-0.16458	-0.375	-0.72292	0.24375	-0.5625	-0.50417	91.647	127.295	139.396	168.263	-48.971	98.098	137.107	202.940	-39.872	142.496	144.465	83.345	32.442	197.590	36.596	-129.206	0.00031883	0.00036841	0.0001203	1088.5	1.7076e-07	8.6995e-06	858.18	332.92	3.3361e-06	5.9163e-06	297.65	103.54	94.924	47.754	1.1372e-06	49.157	0.00078101	0.00094955	0.00026117	984.22	9.6718e-06	1.0202e-05	778.92	301.4	9.505e-06	1.0077e-05	270.6	94.565	87.507	43.523	9.6953e-06	44.971	169.507	-87.847	-34.507	-120.814	-26.897	8.446	-122.380	-116.070	-73.686	59.422	-118.034	-114.221	-110.753	-107.873	-55.749	-110.690	-8191	255	
2636.918	1	1	0	0	0.28251	0.3797	0.15146	0.11106	0.051279	0.092675	0.30291	0.13399	0.2641	0.36419	0.014769	0.029998	0.091501	0.30046	0.18555	0.18289	0.35833	-0.80208	-0.0020833	-0.18542	-0.56875	0.11042	-0.58125	-0.70625	0.19583	-0.79375	-0.0020833	-0.014583	-0.61042	0.05	-0.30208	-0.41875	24.650	-101.946	78.722	-130.669	60.287	-87.986	163.559	211.782	-48.020	-84.681	53.356	-108.931	-79.881	165.760	150.534	208.066	0.00043785	0.00028024	0.00014675	1080.9	4.5114e-06	9.3943e-06	856.7	334.91	2.732e-06	4.1063e-06	303.14	106.11	96.818	49.053	3.5488e-06	50.551	0.00076612	0.00090578	0.00025116	980.01	9.3163e-06	1.0091e-05	777.14	303.76	9.5787e-06	1.0221e-05	275.36	97.066	89.101	44.666	9.6072e-06	46.367	164.948	-57.545	-20.440	-121.074	-52.219	44.145	-122.266	-115.919	-20.002	45.288	-118.076	-114.218	-110.930	-107.739	33.997	-110.757	-8191	255	
2637.039	1	1	0	0	0.03373	0.031019	0.1081	0.046486	0.15005	0.12802	0.49498	0.18863	0.25217	0.067115	0.037286	0.24739	0.23112	0.25085	0.16711	0.31115	0.30208	-0.61042	-0.075	-0.022917	-0.77708	0.39167	-0.45208	-0.72083	0.13125	-0.67708	-0.26458	0.066667	-0.66458	0.2	-0.425	-0.675	-41.740	199.403	-114.326	-79.327	122.948	-129.600	161.480	159.241	-122.521	132.319	213.098	-85.835	138.145	-108.177	15.866	210.599	0.00035615	0.00020546	0.00017	1085.3	4.5515e-06	6.3163e-06	866.83	339.67	8.2062e-06	5.2285e-06	311.97	110.8	99.723	50.544	3.9592e-06	52.405	0.00077717	0.00088416	0.00024898	980.23	9.194e-06	9.968e-06	786.33	307.98	1.0233e-05	1.0319e-05	283.46	101.47	91.605	46.213	1.0234e-05	48.253	166.941	-64.757	-45.968	-121.038	15.539	-11.898	-122.124	-115.747	-33.276	-16.609	-117.613	-113.917	-110.408	-107.467	-2.600	-110.614	-8191	255	
2637.135	1	1	0	0	0.13195	0.040981	0.23743	0.20835	0.14096	0.17146	0.32577	0.10628	0.18463	0.13731	0.10082	0.17995	0.11261	0.096734	0.31295	0.25199	0.64792	-0.54375	-0.0020833	0.03125	-0.83333	0.0020833	-0.3375	-0.80625	0.22083	-0.48125	-0.49583	0.041667	-0.73333	-0.1	-0.32708	-0.75208	199.499	-75.955	36.619	195.762	117.754	37.677	187.464	188.585	59.278	35.867	88.345	137.644	188.972	125.985	10.563	94.978	0.00042132	0.00057438	0.0002292	1087.4	8.5768e-06	7.2268e-06	873.91	339.24	4.776e-06	6.8608e-06	309.14	109.48	98.79	50.188	3.8391e-06	52.754	0.00079116	0.00090948	0.00025877	981.17	9.6525e-06	1.0148e-05	787.36	307.66	9.8744e-06	1.0134e-05	281.44	100.58	91.215	46.007	9.8657e-06	48.538	176.985	-21.558	-62.755	-121.039	6.645	46.350	-122.212	-115.810	35.781	-22.326	-118.013	-114.468	-110.201	-107.364	36.388	-110.943	-8191	255	
2637.230	1	1	0	0	0.26418	0.24499	0.24964	0.07237	0.25195	0.24717	0.21109	0.043632	0.10622	0.25475	0.046006	0.0587	0.10561	0.17627	0.024263	0.26764	0.53125	-0.39375	-0.45625	0.2	-0.74792	-0.20833	-0.20208	-0.81042	0.32917	-0.51875	-0.60625	0.15	-0.54167	-0.26667	0.12292	-0.71667	-80.477	-52.473	73.353	161.731	-95.593	6.398	118.269	223.716	-103.483	-123.193	223.955	-78.907	-133.584	66.682	-100.134	171.785	0.00045179	0.00032772	0.00013012	1071.3	4.1681e-06	6.417e-06	865.76	341.82	2.5681e-06	5.4814e-06	314.29	112.89	101.34	51.872	2.5231e-06	54.493	0.00079806	0.00092261	0.0002612	970.23	9.8283e-06	1.0166e-05	786	309.55	1.009e-05	1.0018e-05	285.74	103.31	93.016	47.386	9.9399e-06	49.901	171.734	-102.669	-33.448	-120.690	-13.153	5.599	-121.838	-115.606	-7.864	39.002	-118.125	-113.870	-110.507	-107.410	35.028	-110.431	-8191	255	
2637.326	1	1	0	0	0.28011	0.053272	0.10518	0.23249	0.065137	0.42196	0.11886	0.19749	0.241	0.23254	0.22114	0.13997	0.2665	0.23201	0.2169	0.22633	0.48542	-0.18333	-0.53125	0.039583	-0.65208	-0.32083	-0.00625	-0.79375	0.24583	-0.42708	-0.58958	0.18958	-0.53958	-0.54792	0.12917	-0.76042	148.823	-119.534	56.867	171.850	21.280	218.755	132.044	218.771	197.804	143.175	203.046	129.218	211.047	167.606	95.285	167.888	0.00046766	0.00065411	0.00017877	1073.3	6.072e-07	8.5795e-06	862.67	341.5	6.2713e-06	4.5541e-06	318.62	115.73	103.28	53.251	3.459e-06	56.187	0.00080851	0.00091437	0.00025559	967.92	9.6218e-06	1.0338e-05	784.4	310.17	1.0043e-05	1.0676e-05	289.75	105.84	94.986	48.709	1.0224e-05	51.554	173.663	-61.521	-37.555	-120.623	103.202	38.466	-121.814	-115.465	-61.603	-42.460	-118.050	-114.453	-110.562	-107.608	9.479	-110.515	-8191	255	
2637.422	1	1	0	0	0.18134	0.16784	0.13035	0.12919	0.09845	0.054319	0.2992	0.37559	0.22175	0.20572	0.14095	0.18948	0.12067	0.16755	0.02946	0.30733	0.40833	-0.26042	-0.52917	0.13333	-0.50625	-0.44583	0.15	-0.82708	0.079167	-0.08125	-0.73333	0.23333	-0.5125	-0.54375	0.33125	-0.67708	38.484	78.081	119.638	-132.400	169.755	13.468	137.377	182.249	-95.566	-86.273	192.636	220.199	161.432	-63.583	-54.586	-98.011	0.00051095	0.00024116	0.00012412	1067.8	5.2152e-06	7.0516e-06	872.11	347.46	5.2882e-06	6.0372e-06	326.44	119.23	106.32	54.398	7.1277e-06	57.508	0.00080883	0.00093949	0.00025838	966.94	9.941e-06	1.03e-05	790.63	315.74	1.0107e-05	1.0374e-05	296.04	109.37	97.455	49.856	1.0192e-05	52.853	174.430	-40.349	-62.577	-120.721	6.299	18.767	-121.873	-115.727	-50.763	-21.533	-117.891	-114.372	-110.735	-107.714	-64.506	-110.206	-8191	255	
2637.518	1	1	0	0	0.17605	0.30888	0.17307	0.093662	0.16841	0.23582	0.30245	0.19927	0.29154	0.12398	0.15722	0.30981	0.17165	0.11277	0.20873	0.23372	0.15625	0.14792	-0.70208	0.21042	-0.37708	-0.44375	0.15	-0.75833	-0.1125	-0.060417	-0.99792	0.13958	-0.37708	-0.69583	0.20208	-0.64167	-17.510	185.837	35.755	186.464	-14.170	54.437	125.768	139.812	101.342	110.941	-133.475	122.541	143.261	225.425	-13.242	-131.204	0.00047511	0.00054886	0.00027655	1064.4	6.5854e-06	1.2985e-05	868.67	346.41	6.2809e-06	2.6415e-06	324.16	118.37	104.83	54.313	4.3552e-06	57.671	0.00082254	0.00092981	0.00026437	964.76	9.7141e-06	1.0235e-05	790.32	314.4	1.0206e-05	1.0308e-05	294.54	108.64	96.669	49.744	1.0087e-05	53.029	179.910	-38.652	-79.466	-120.944	14.665	-1.377	-121.785	-115.591	-45.916	-36.090	-117.881	-114.389	-110.038	-107.329	-4.876	-109.839	-8191	255	
2637.614	1	1	0	0	0.1082	0.17831	0.12465	0.050378	0.21177	0.14311	0.07684	0.19994	0.4805	0.17844	0.082224	0.16256	0.16845	0.17345	0.22608	0.24836	0.3375	-0.13958	-0.725	-0.1625	-0.26875	-0.63542	0.23958	-0.69375	-0.26875	0.08125	-0.87292	0.0875	-0.22917	-0.64792	0.2875	-0.675	1.335	188.903	221.476	122.719	104.370	40.931	120.643	217.025	-27.855	-71.195	174.672	-112.585	-129.203	-132.267	32.209	-88.502	0.0004446	0.0004528	0.00018859	1070.2	6.4889e-06	7.3398e-06	873.54	346.88	5.9113e-06	4.5076e-06	326.72	120.09	106.92	55.304	7.5644e-06	58.701	0.00081581	0.00094126	0.00026111	964.19	1.022e-05	1.0283e-05	791.66	315.55	9.97e-06	1.045e-05	296.76	110.31	98.115	50.484	1.0073e-05	53.778	169.519	-7.689	-80.596	-120.974	21.087	-5.977	-121.995	-115.646	-44.213	-16.763	-117.738	-114.074	-110.375	-107.462	37.137	-110.542	-8191	255	
2637.710	1	1	0	0	0.032093	0.12369	0.089745	0.20716	0.1451	0.040473	0.24208	0.28321	0.077792	0.18582	0.15189	0.19683	0.089457	0.28698	0.14094	0.068524	-0.14583	0.22917	-0.725	-0.14375	-0.097917	-0.72917	0.12917	-0.63958	-0.375	-0.039583	-0.73958	-0.39375	-0.095833	-0.78542	0.30208	-0.59167	52.514	146.060	141.842	200.417	121.678	-48.925	169.597	145.237	-66.103	-10.856	145.983	126.118	191.236	194.284	79.950	-63.620	0.00043634	0.00049188	0.00023668	1068.6	5.0289e-06	3.1036e-06	874.48	347.38	7.4428e-06	1.0864e-06	330.42	122.28	108.45	55.985	7.9192e-06	58.827	0.00081936	0.00096464	0.00025411	965.17	9.9306e-06	1.0353e-05	790.6	316.5	1.026e-05	1.081e-05	298.81	111.65	99.278	51.159	1.0376e-05	54.155	175.790	-60.966	-34.119	-120.676	16.761	55.749	-121.786	-115.605	-48.229	19.883	-117.416	-114.379	-110.266	-107.194	-4.139	-110.070	-8191	255	
2637.831	1	1	0	0	0.23148	0.11928	0.091493	0.21971	0.16419	0.05473	0.11521	0.31092	0.17018	0.062402	0.25781	0.21433	0.11337	0.25544	0.042273	0.079993	-0.2625	0.13333	-0.74792	-0.175	-0.14167	-0.77708	-0.054167	-0.47708	-0.6375	0.25417	-0.53958	-0.30625	-0.0020833	-0.825	0.21667	-0.43958	149.776	6.816	16.677	176.335	80.778	190.588	-21.717	172.829	-64.645	-1.656	116.182	-93.217	-126.810	219.535	-57.592	-123.987	0.00043194	0.00059685	0.00014321	1074	3.7178e-06	7.2123e-06	877.24	349.82	5.1092e-06	3.3862e-06	324.76	121.81	107.51	55.975	3.4939e-06	58.515	0.00082763	0.00095989	0.00026141	967.13	9.6695e-06	1.048e-05	793.71	318.62	1.0108e-05	1.0386e-05	296.19	111.21	98.96	50.982	1.0049e-05	53.739	175.980	-51.980	-59.608	-120.914	10.791	21.192	-121.926	-115.584	-24.427	23.969	-117.674	-114.528	-110.651	-107.544	41.125	-110.747	-8191	255	
2637.927	1	1	0	0	0.073837	0.17624	0.23213	0.29828	0.127	0.046734	0.12264	0.080211	0.29809	0.18628	0.080001	0.40089	0.27617	0.28749	0.20006	0.26541	-0.4	0.20833	-0.48542	-0.34583	0.01875	-0.72292	-0.10417	-0.39167	-0.45417	0.34792	-0.56458	-0.49583	0.18542	-1.0333	0.05	-0.23125	114.451	136.489	-78.531	137.686	-55.687	58.519	123.078	9.930	145.274	67.001	164.123	198.632	170.742	-115.824	143.853	-79.222	0.00047061	0.00079805	0.00013378	1064.6	6.0712e-06	7.1417e-06	864.93	349.76	4.9953e-06	3.4259e-06	323.46	120.63	108.6	56.326	7.9411e-06	59.021	0.00080289	0.00094569	0.00026412	958.92	1.0086e-05	9.9206e-06	784.79	317.04	9.6478e-06	1.0354e-05	295.17	110.92	99.416	51.311	1.0163e-05	53.821	173.272	-55.041	-30.146	-121.102	24.297	25.096	-122.089	-115.559	-99.459	-30.240	-118.034	-114.526	-110.881	-107.729	-20.171	-110.673	-8191	255	
2637.999	1	1	0	0	0.15051	0.10743	0.085336	0.13366	0.18849	0.038713	0.05465	0.27392	0.11042	0.22839	0.01534	0.26082	0.11356	0.14529	0.029951	0.14042	-0.39792	0.29375	-0.52292	-0.65208	0.15417	-0.5625	-0.1375	0	-0.91458	-0.0083333	-0.4625	-0.4625	0.24792	-0.74792	0.01875	-0.16042	222.434	158.961	86.319	173.581	189.224	76.451	145.385	-125.892	-52.357	91.175	23.176	-5.324	-94.305	205.288	-127.168	3.674	0.0004862	0.00061306	0.00024056	1059.4	3.7503e-06	8.5786e-06	858.35	347.77	1.9591e-06	7.3302e-06	324.96	121.2	108.08	56.374	4.6051e-06	58.508	0.00080376	0.00093838	0.00025601	957.21	9.8139e-06	1.0193e-05	780.82	316.05	9.6886e-06	1.0382e-05	294.52	111.12	99.104	51.526	9.9612e-06	53.761	168.268	-37.287	-40.701	-121.202	-9.432	-18.452	-122.410	-115.588	-74.433	2.451	-117.739	-114.445	-110.704	-107.550	21.167	-110.398	-8191	255	
2638.119	1	1	0	0	0.06304	0.18286	0.1614	0.36396	0.21954	0.3727	0.38697	0.34306	0.19655	0.10508	0.22912	0.048353	0.074147	0.25418	0.39992	0.30847	-0.50625	0.22917	-0.36875	-0.69167	0.17083	-0.62917	-0.20625	-0.0375	-0.71042	0.14375	-0.3125	-0.62917	-0.1125	-0.57917	-0.2625	-0.060417	107.828	-95.358	-26.063	-126.843	188.048	193.700	128.601	219.110	143.434	52.317	193.897	181.564	44.638	-54.959	105.926	117.948	0.00044375	0.00059384	0.00010858	1047.6	3.5034e-06	5.1897e-06	860.13	347.26	6.2591e-06	6.5451e-06	325.8	123.53	108.9	57.487	5.7242e-06	61.133	0.0007905	0.0009051	0.00025154	951.87	9.496e-06	9.9182e-06	778.74	316.1	9.5936e-06	9.8211e-06	295.79	112.8	100.6	52.709	9.8018e-06	55.833	174.787	-82.703	-8.703	-120.974	30.510	-9.797	-122.432	-115.474	-52.177	40.252	-117.769	-114.096	-110.411	-107.266	-6.946	-110.711	-8191	255	
2638.216	1	1	0	0	0.077863	0.025442	0.15155	0.17024	0.26754	0.18898	0.084595	0.17565	0.11923	0.27741	0.17296	0.22452	0.23298	0.1822	0.19976	0.074623	-0.50625	0.125	-0.22083	-0.775	0.2125	-0.34167	-0.43125	-0.022917	-0.72917	-0.14375	-0.36667	-0.74792	0.10208	-0.62917	-0.47083	0.19583	-12.244	-108.731	-81.722	-132.576	92.168	-16.603	-89.168	195.764	52.835	-95.604	-73.595	173.997	160.626	128.112	122.203	-113.124	0.00045212	0.00044262	0.00011001	1053.8	2.5039e-06	9.8144e-06	860.58	351.61	3.9987e-06	5.3235e-06	330.46	127.38	112.81	59.635	5.6744e-06	62.328	0.00078376	0.00091154	0.00025354	953.33	9.7576e-06	1.019e-05	783.87	320.12	9.4345e-06	1.0262e-05	301.12	116.52	103.12	54.539	9.6988e-06	57.264	177.970	-53.915	-9.691	-121.009	59.985	-11.909	-122.430	-115.518	-10.890	-17.435	-117.377	-114.081	-110.534	-107.606	-24.761	-111.024	-8191	255	
2638.312	1	1	0	0	0.10016	0.17763	0.35535	0.091714	0.083868	0.24007	0.11441	0.33245	0.21279	0.1626	0.36771	0.044971	0.048344	0.21168	0.21852	0.12563	-0.19792	0.03125	0.052083	-0.78958	0.17292	-0.39167	-0.49167	0.15625	-0.575	-0.175	0.033333	-0.76042	0.16667	-0.52917	-0.58125	-0.047917	6.714	-39.588	0.787	197.785	193.411	147.222	172.045	201.741	176.992	201.245	218.764	-130.463	85.294	-79.490	89.569	202.402	0.0004901	0.0004399	0.00016729	1056.7	5.3659e-06	3.8532e-06	862.12	347.73	2.7476e-06	6.1078e-06	325.08	124.76	109.33	58.135	5.8584e-06	61.211	0.00081523	0.00092	0.00025117	955.42	9.2901e-06	1.0073e-05	782.15	316.74	9.5621e-06	9.9473e-06	296	113.63	100.63	53.169	9.5151e-06	55.964	171.570	1.722	-67.913	-120.844	22.921	-94.830	-122.539	-115.837	-25.178	34.291	-117.695	-114.004	-110.482	-107.678	6.305	-110.354	-8191	255	
2638.408	1	1	0	0	0.06642	0.16946	0.33535	0.21933	0.19592	0.1371	0.29821	0.046068	0.099219	0.14078	0.22657	0.12754	0.079175	0.32437	0.30105	0.23986	-0.37083	-0.1125	0.43125	-0.83542	0.14167	-0.20833	-0.68333	0.10208	-0.425	-0.44375	-0.041667	-0.75625	-0.15417	-0.4875	-0.72292	0.275	127.992	-9.718	204.111	213.823	-79.662	70.203	128.957	-38.878	45.400	162.112	146.906	188.566	-79.714	172.364	190.377	133.352	0.00055222	0.00031072	0.0001989	1052.6	3.5571e-06	6.469e-06	862.86	346.49	2.918e-06	6.2983e-06	323.34	124.08	109.12	57.809	6.0524e-06	60.658	0.00079938	0.00089248	0.00024799	953.02	9.437e-06	9.9237e-06	778.84	315.33	9.527e-06	9.7763e-06	294.97	113.63	100.5	52.858	9.5934e-06	55.631	173.155	-75.355	-23.799	-120.885	-5.165	22.723	-121.947	-115.849	-1.674	25.950	-117.920	-114.459	-110.752	-107.010	-13.122	-110.604	-8191	255	
2638.527	1	1	0	0	0.34603	0.21306	0.16554	0.35872	0.10837	0.17526	0.24511	0.18012	0.15539	0.038923	0.16759	0.076874	0.23181	0.067345	0.19136	0.1826	-0.30417	-0.30417	0.325	-0.93958	0.054167	-0.21042	-0.77083	-0.079167	-0.40625	-0.45	0.26667	-0.70833	-0.17292	-0.19792	-0.75833	0.064583	173.815	125.712	68.164	194.067	-93.861	-24.147	216.522	176.041	7.308	189.312	188.478	79.696	-79.048	26.474	155.160	101.999	0.00049533	0.000511	0.00021716	1052.8	6.191e-06	2.7065e-06	856.26	345.76	7.6907e-06	5.6036e-06	321.95	122.41	108.69	57.012	7.9378e-06	59.655	0.00076901	0.00086793	0.00025442	951.5	9.3666e-06	9.8684e-06	775.34	313.47	9.2352e-06	9.9813e-06	290.92	112.14	99.719	52.207	9.2708e-06	54.507	170.752	-23.809	-22.219	-120.986	-1.697	-28.995	-122.242	-115.789	20.246	37.050	-117.474	-114.335	-110.260	-107.365	-2.083	-110.784	-8191	255	
2638.623	1	1	0	0	0.15675	0.15089	0.16254	0.31055	0.20169	0.050117	0.098364	0.29098	0.22969	0.018485	0.14355	0.099549	0.10854	0.21002	0.17207	0.16045	0.0041667	-0.48958	0.17292	-0.58542	-0.16458	0.1375	-0.71042	0.0875	-0.4375	-0.5125	0.23958	-0.72292	-0.14167	0.0375	-0.62083	-0.070833	124.229	168.807	109.828	178.379	90.541	-100.335	68.620	46.326	38.903	158.396	113.700	193.232	-61.706	192.252	152.007	221.032	0.00044777	0.00017481	0.00014376	1051.4	4.9773e-06	6.3673e-06	855.58	342.22	5.5512e-06	6.8628e-06	318.36	121.42	107.51	56.882	4.1843e-06	59.646	0.0007413	0.00084868	0.00024114	950.11	8.9378e-06	9.4864e-06	774.02	310.99	9.2616e-06	9.3267e-06	288.86	110.61	99.089	51.871	9.1868e-06	54.47	172.180	-17.532	-59.922	-120.891	44.373	18.525	-122.240	-115.789	-34.836	57.595	-117.965	-114.387	-110.399	-107.637	53.233	-110.720	-8191	255	
2638.719	1	1	0	0	0.10238	0.1103	0.14234	0.1783	0.20494	0.21771	0.29136	0.068063	0.27386	0.04924	0.14516	0.10463	0.33297	0.28141	0.19545	0.3416	0.1375	-0.66458	0.35833	-0.675	-0.035417	0.09375	-0.81875	-0.1375	-0.28542	-0.59167	0.23333	-0.38333	-0.44375	0.33958	-0.6	-0.22083	136.709	82.613	86.492	-53.341	116.896	141.775	187.017	44.744	97.080	208.950	167.930	-69.950	182.463	214.899	-116.926	135.779	0.00044988	0.00089381	5.1882e-05	1046.5	3.576e-06	4.8106e-06	846.68	340.93	6.4951e-06	7.183e-06	316.87	120.85	106.86	55.796	6.0998e-06	57.902	0.00077292	0.00083324	0.00024267	946.23	9.1084e-06	9.6958e-06	770.56	309.99	9.444e-06	8.9874e-06	287.6	110.42	98.004	50.988	9.1429e-06	52.986	162.751	-43.874	-51.118	-120.933	4.808	32.211	-122.008	-115.517	-25.888	51.848	-117.837	-114.176	-110.937	-107.580	2.021	-111.099	-8191	255	
2638.815	1	1	0	0	0.12701	0.11092	0.036753	0.14772	0.1987	0.059496	0.15616	0.32857	0.041641	0.088091	0.13226	0.23477	0.36166	0.11333	0.089037	0.41928	0.41667	-0.82292	0.12083	-0.3	-0.59167	0.36875	-0.7	-0.25	0.18125	-0.65833	0.20833	-0.2125	-0.4625	0.16875	-0.48958	-0.2125	-2.902	82.588	188.193	-122.997	-40.788	72.360	95.419	205.359	199.599	56.775	-103.438	-104.939	156.724	152.008	-116.034	178.098	0.00050583	0.00050623	0.00021945	1048.5	6.4202e-06	2.8293e-06	851.94	338.94	6.0142e-06	5.2893e-06	312.04	116.82	103.87	54.235	5.4811e-06	55.959	0.00077062	0.00082179	0.00024086	947.72	8.8671e-06	9.6699e-06	771.07	306.83	9.0893e-06	9.3132e-06	283.2	106.95	95.515	49.326	8.9408e-06	51.218	168.675	-81.049	-44.679	-120.902	-29.661	67.998	-122.102	-115.921	14.204	19.591	-117.743	-114.318	-110.622	-107.667	-29.656	-110.561	-8191	255	
2638.911	1	1	0	0	0.18671	0.24599	0.27561	0.21082	0.14195	0.20248	0.060381	0.16876	0.27325	0.20036	0.33892	0.1134	0.13758	0.32266	0.17385	0.40252	0.31458	-0.71458	0.23125	-0.4	-0.47917	0.42292	-0.75208	-0.37083	0.03125	-0.87292	-0.11667	-0.033333	-0.6125	0.12292	-0.44583	-0.35	-41.124	119.747	-113.386	-18.872	188.418	-100.368	54.931	-126.804	30.116	68.846	165.022	210.081	192.230	142.883	224.947	150.610	0.00043482	0.00079877	0.00014685	1050.5	3.2593e-06	5.682e-06	845.85	331.71	5.1231e-06	7.1781e-06	302.59	111.96	99.438	51.045	4.9696e-06	52.347	0.00073021	0.0008132	0.00023322	947.43	8.9262e-06	8.9906e-06	764.32	300.75	8.8599e-06	8.7353e-06	274.34	102.21	91.415	46.628	8.9264e-06	48.155	167.888	-36.143	-54.108	-120.619	-69.398	38.902	-122.243	-115.891	5.163	46.873	-117.757	-114.297	-110.643	-107.622	-21.430	-111.023	-8191	255	
2639.008	1	1	0	0	0.032752	0.0090413	0.16861	0.14061	0.16508	0.16766	0.22168	0.28064	0.050735	0.19231	0.29667	0.093197	0.066714	0.32077	0.072326	0.13023	0.63958	-0.75625	-0.072917	-0.19583	-0.6375	0.15833	-0.63542	-0.50417	0.054167	-0.85208	-0.23542	-0.175	-0.68958	0.20625	-0.49792	-0.43958	152.167	103.314	92.493	-127.471	108.284	29.220	-106.666	89.699	-116.374	-11.075	40.921	138.611	-59.067	153.181	109.976	-71.893	0.00041201	0.00058275	6.1254e-05	1037.8	4.087e-06	4.7197e-06	825.02	325.01	4.7387e-06	9.7212e-06	293.11	106.95	97.826	49.583	6.7542e-06	51.069	0.00071465	0.00080227	0.00022658	936.88	8.3168e-06	8.5769e-06	748.3	294.61	8.6465e-06	8.8588e-06	265.12	98.092	89.514	45.238	8.9457e-06	46.786	179.790	-73.345	-0.694	-121.104	21.863	52.893	-122.099	-116.071	-8.702	30.501	-117.555	-114.758	-110.631	-107.667	-25.737	-110.832	-8191	255	
2639.128	1	1	0	0	0.030096	0.074778	0.067391	0.20114	0.25043	0.082355	0.13382	0.15721	0.24221	0.095629	0.11165	0.14348	0.048771	0.34027	0.21726	0.10754	0.55208	-0.61667	0.091667	-0.083333	-0.59167	0.11458	-0.42292	-0.6875	0.22292	-0.48542	-0.21875	0.070833	-0.79583	0.0125	-0.13958	-0.79167	7.849	146.701	86.618	-130.550	79.448	19.782	-90.548	45.097	190.031	58.443	120.211	130.929	105.445	-132.707	-110.802	47.503	0.00037329	0.00032155	8.2224e-05	1041.7	3.9672e-06	5.9435e-06	825.23	325.33	2.0565e-06	2.773e-06	295.67	109.54	98.346	50.647	5.8992e-06	52.566	0.00070502	0.00078805	0.00022585	935.04	8.1783e-06	8.9617e-06	748.57	294.72	8.7134e-06	8.5991e-06	268.34	100.14	90.478	46.103	8.7381e-06	48.151	173.001	-99.675	-82.848	-121.122	-40.264	51.632	-121.884	-115.684	-19.178	48.596	-118.099	-114.212	-110.560	-108.058	-20.058	-110.408	-8191	255	
2639.223	1	1	0	0	0.3118	0.18161	0.4305	0.38965	0.22804	0.1817	0.25759	0.29999	0.11145	0.28743	0.29434	0.09696	0.23401	0.14502	0.26159	0.062592	0.48333	-0.625	-0.30833	0.0625	-0.71042	0.0020833	-0.11042	-0.7	0.2	-0.36875	-0.41458	0.36875	-0.69375	-0.15417	-0.09375	-0.7	205.966	137.710	109.504	194.853	50.737	179.603	-125.264	91.713	-118.741	127.957	152.089	148.240	1.884	190.971	111.116	171.547	0.00037528	0.00051004	0.00016891	1049.4	4.3939e-06	6.5314e-06	840.22	328.59	7.4477e-06	6.9178e-06	299.35	109.49	98.463	49.754	2.789e-06	51.792	0.00070461	0.00079901	0.00022365	945.38	8.2331e-06	8.7709e-06	760.21	297.51	8.5602e-06	9.0136e-06	271.02	100.16	90.233	45.331	8.8588e-06	47.253	177.065	-2.904	-24.787	-121.004	15.922	-25.063	-122.205	-116.017	-69.464	-6.935	-118.362	-114.569	-110.708	-107.841	39.943	-110.503	-8191	255	
2639.296	1	1	0	0	0.16206	0.058868	0.18237	0.056219	0.13575	0.14561	0.053348	0.2661	0.17343	0.34928	0.24576	0.014543	0.10395	0.26061	0.30468	0.23045	0.5125	-0.42292	-0.35417	0.23125	-0.7875	0.0020833	-0.0875	-0.79375	0.25417	-0.52083	-0.52292	0.26875	-0.51875	-0.275	0.14167	-0.60625	190.987	-15.539	72.000	173.703	151.932	-5.150	219.115	90.377	90.705	114.482	198.471	-13.768	118.031	-124.767	-12.184	94.213	0.00040935	0.00045809	0.00010248	1053.6	3.4697e-06	9.6428e-06	842.42	326.66	5.5218e-06	7.5927e-06	292.8	105.6	96.285	47.488	3.2032e-06	48.563	0.00070977	0.00080733	0.00022314	949.54	8.4758e-06	8.8977e-06	762.99	295.75	8.8385e-06	9.037e-06	265.56	96.245	87.811	43.238	8.6772e-06	44.457	181.758	-68.690	-67.000	-121.109	-36.777	18.150	-122.186	-115.985	27.270	96.919	-118.093	-114.302	-110.391	-107.738	38.850	-110.215	-8191	255	
2639.392	1	1	0	0	0.13358	0.27469	0.18488	0.20765	0.14144	0.21743	0.21807	0.25117	0.35444	0.14793	0.0922	0.17295	0.24326	0.15065	0.16883	0.091613	0.53125	-0.33333	-0.49792	0.1375	-0.48333	-0.075	0.070833	-0.7875	0.11875	-0.41875	-0.72083	0.15208	-0.3875	-0.34167	0.1125	-0.80417	-130.231	173.797	25.885	-120.774	109.450	127.825	208.455	177.870	173.448	159.079	147.485	219.573	-71.069	129.797	107.204	89.931	0.00037344	0.00043564	0.00010083	1040.5	1.6388e-06	5.3502e-06	818.77	321.37	6.7182e-06	3.3961e-06	282.85	101.31	94.007	46.281	4.0637e-06	47.783	0.00069959	0.00078384	0.00021215	941.34	8.1908e-06	8.6505e-06	742.71	290.61	8.26e-06	8.3656e-06	257.51	93.004	86.09	42.34	8.4034e-06	43.614	172.349	-24.903	-58.117	-121.188	-8.679	-5.225	-122.143	-115.837	-58.809	-18.736	-118.243	-114.524	-110.646	-107.695	18.476	-110.885	-8191	255	
2639.488	1	1	0	0	0.11606	0.15274	0.045957	0.089179	0.12676	0.078715	0.36932	0.18565	0.27302	0.011376	0.24252	0.0524	0.24145	0.093837	0.19995	0.39711	0.34583	-0.16667	-0.53125	0.22708	-0.58958	-0.35208	0.12292	-0.80833	0.033333	-0.13542	-0.6875	0.15	-0.47083	-0.50417	0.35417	-0.69167	168.102	-97.267	170.165	114.627	133.804	26.400	218.863	-123.180	165.610	-64.661	155.775	9.048	-109.619	99.205	-104.134	144.394	0.00035147	0.00032611	0.00018169	1036.9	3.085e-06	4.6934e-06	817.7	322.45	6.6778e-06	5.4564e-06	290.38	104.81	95.702	48.18	3.5392e-06	50.338	0.00066758	0.00078916	0.00020865	935.44	8.0919e-06	8.4749e-06	741.14	291.67	8.05e-06	8.2355e-06	262	95.756	87.96	43.964	8.4046e-06	46.029	181.610	-125.677	-16.980	-121.052	-69.486	25.731	-122.250	-115.709	-6.342	23.989	-118.377	-114.447	-110.509	-107.835	-15.254	-110.795	-8191	255	
2639.607	1	1	0	0	0.17074	0.28987	0.22258	0.46716	0.073326	0.084704	0.097965	0.13386	0.080132	0.056191	0.29715	0.06643	0.013473	0.34234	0.25315	0.12119	0.22292	-0.045833	-0.41458	-0.1	-0.47292	-0.50208	0.19375	-0.76667	-0.27708	0.12708	-0.64583	0.022917	-0.55	-0.80833	0.125	-0.78958	185.125	206.522	-21.317	203.613	-19.202	59.116	126.033	-118.326	104.857	217.289	-89.908	201.048	57.088	185.646	101.544	-36.069	0.00036109	0.00058084	0.0001715	1045.9	3.2863e-06	4.5782e-06	836.39	332.18	6.4099e-06	4.1335e-06	301.88	110.13	99.714	49.343	4.1299e-06	52.401	0.00067149	0.00078204	0.00021827	941.54	8.2645e-06	8.6539e-06	758.62	301.24	8.721e-06	8.8062e-06	273.87	100.91	91.35	45.248	8.9783e-06	47.97	166.276	-34.699	-51.492	-120.806	-9.590	58.009	-122.137	-116.156	-40.752	48.061	-117.795	-114.611	-110.473	-107.969	22.390	-110.440	-8191	255	
2639.703	1	1	0	0	0.092125	0.13583	0.28289	0.12595	0.1033	0.15067	0.27329	0.3689	0.14652	0.20445	0.21945	0.30112	0.35985	0.42552	0.24148	0.20898	0.25833	0.19167	-0.74167	-0.064583	-0.10625	-0.49375	0.20833	-0.65625	-0.2375	0.079167	-0.82083	0.11458	-0.22083	-0.72292	0.072917	-0.53958	72.826	-116.791	15.324	-64.532	93.685	-80.877	158.109	130.585	-85.760	-127.465	-123.989	154.585	169.363	214.248	8.000	165.904	0.00038789	0.00013414	0.00017717	1055.3	2.9108e-06	6.6242e-06	851.73	336.16	5.1914e-06	7.0413e-06	308.99	111.57	100.28	49.448	3.7776e-06	51.695	0.00071326	0.00082603	0.00022094	952.29	8.3394e-06	8.7999e-06	771.08	304.83	8.5625e-06	8.9727e-06	279.53	102.03	91.884	45.093	8.7938e-06	47.243	171.844	-14.492	-46.989	-120.921	54.670	16.714	-122.134	-115.901	-32.695	41.829	-118.104	-114.447	-110.656	-107.907	-97.605	-110.890	-8191	255	
2639.799	1	1	0	0	0.19363	0.23522	0.080858	0.016957	0.085581	0.14679	0.16443	0.12474	0.34868	0.13503	0.17393	0.28199	0.079918	0.31721	0.2568	0.09291	0.14792	0.13542	-0.65	-0.23542	0.0041667	-0.82708	-0.0041667	-0.39792	-0.42083	0.18542	-0.81458	-0.022917	-0.022917	-0.68958	0.1625	-0.46667	-79.397	-29.319	21.062	47.081	47.429	159.820	186.799	223.239	127.781	150.879	163.525	202.249	158.145	151.367	18.537	-82.524	0.00039547	0.00062071	0.00013333	1056.3	3.691e-06	8.4871e-06	840.06	332.52	4.1555e-06	5.2451e-06	297.08	106.34	97.612	47.645	6.1141e-06	49.457	0.00070667	0.00082405	0.00021852	952.69	8.4724e-06	8.735e-06	760.41	301.73	8.2687e-06	8.6671e-06	269.89	97.23	89.433	43.541	8.5744e-06	45.338	172.108	-60.269	-48.295	-121.070	-18.646	8.633	-122.446	-115.634	-46.064	22.554	-117.902	-114.281	-110.974	-107.983	-27.729	-110.619	-8191	255	
2639.896	1	1	0	0	0.22296	0.18432	0.14812	0.16503	0.1431	0.31567	0.21006	0.14663	0.042191	0.16056	0.39615	0.21062	0.22498	0.30411	0.068336	0.16634	-0.24375	0.18333	-0.40208	-0.29583	-0.1	-0.85625	0.16458	-0.42708	-0.41042	0.20833	-0.72917	-0.41458	-0.052083	-0.80833	0.10417	-0.23125	177.771	9.031	97.058	46.514	98.039	-67.406	31.518	187.658	-95.571	154.642	203.720	-110.488	106.035	175.874	64.573	-117.481	0.00042963	0.0005235	0.00014151	1053.4	6.6461e-06	5.6591e-06	839.93	333.91	4.814e-06	3.0861e-06	300.97	107.02	98.772	47.544	2.0022e-06	49.572	0.00067738	0.00077995	0.00020907	947.71	8.1331e-06	8.2462e-06	758.07	303.57	8.059e-06	8.5414e-06	272.18	97.997	90.319	43.36	8.3082e-06	45.283	182.174	2.875	-39.962	-120.869	-14.265	23.003	-122.337	-115.982	-62.585	63.633	-117.645	-114.648	-110.992	-108.017	60.127	-110.342	-8191	255	
2639.992	1	1	0	0	0.51389	0.053663	0.21689	0.27157	0.073076	0.27524	0.38526	0.40265	0.15033	0.087099	0.13224	0.063869	0.23415	0.34259	0.12934	0.31931	-0.14583	0.32083	-0.56458	-0.20417	0.18333	-0.73958	-0.075	-0.32708	-0.75417	0.22083	-0.64583	-0.50417	0.10417	-0.82917	-0.18333	-0.2375	24.721	-31.777	-6.271	-125.174	143.808	179.023	191.417	135.241	85.697	52.455	-65.707	139.103	-104.752	-102.330	-9.350	216.770	0.00043413	0.00018135	0.00014221	1057.5	5.2002e-06	7.8839e-06	842.09	338.83	3.8132e-06	5.76e-06	308.62	111.18	101.11	48.298	7.3343e-06	51.39	0.00064959	0.00073653	0.00020022	950.65	7.8308e-06	7.9704e-06	762.85	306.85	7.9331e-06	8.1465e-06	279.09	101.46	92.695	43.989	8.1736e-06	46.963	172.872	-111.979	-74.162	-120.750	35.287	1.891	-121.934	-116.179	-57.905	0.516	-117.633	-114.501	-110.709	-107.740	4.982	-110.556	-8191	255	
2640.088	1	1	0	0	0.10366	0.19632	0.083199	0.37231	0.099945	0.13651	0.21211	0.2051	0.19808	0.151	0.34404	0.072896	0.15365	0.13947	0.14829	0.22514	-0.49792	0.25833	-0.35	-0.50417	0.1625	-0.825	-0.31458	-0.19375	-0.54583	0.25208	-0.49583	-0.54792	0.20417	-0.80625	-0.30417	0.020833	59.555	67.078	-78.691	201.583	-120.934	4.853	183.977	144.048	-32.963	71.295	-88.257	8.693	-111.650	209.424	-132.907	173.741	0.00043571	0.00067788	0.00011441	1063.9	2.2455e-06	4.8631e-06	852.12	351.83	5.0372e-06	2.458e-06	320.46	118.33	105.98	49.613	5.8657e-06	52.508	0.00065967	0.00075374	0.00020268	960.43	8.2117e-06	8.1747e-06	772.39	318.17	7.8923e-06	8.5246e-06	290.08	107.34	97.256	45.163	8.1537e-06	47.769	171.216	-52.579	-30.527	-120.757	42.271	4.136	-122.310	-115.830	-24.065	-6.884	-118.180	-114.881	-110.808	-107.318	-30.139	-110.685	-8191	255	
2640.209	1	1	0	0	0.069606	0.17167	0.19555	0.21954	0.22246	0.16926	0.13135	0.14101	0.061976	0.10678	0.096317	0.25628	0.2469	0.068404	0.26901	0.37144	-0.6	0.10833	-0.25625	-0.66458	0.2	-0.50625	-0.575	-0.033333	-0.72917	-0.085417	-0.25833	-0.78542	0.060417	-0.70208	-0.29375	0.09375	-8.545	-110.945	-89.647	186.792	-84.630	37.216	-110.782	158.994	-133.417	171.510	91.642	119.758	195.811	198.048	132.835	183.367	0.00038987	0.00067478	3.1816e-05	1065.9	3.8255e-06	4.1801e-06	847.6	351.5	6.2924e-06	5.6638e-06	310.32	111.65	102.99	47.746	5.372e-06	49.237	0.0006318	0.00076956	0.0002081	962.45	8.1447e-06	8.136e-06	766.38	318.54	8.2446e-06	8.3392e-06	281.83	102.17	94.021	43.394	8.182e-06	45.057	169.717	-79.924	-29.724	-120.408	39.630	55.638	-122.272	-115.852	-20.758	4.190	-117.854	-114.856	-110.993	-107.499	-17.727	-110.301	-8191	255	
2640.303	1	1	0	0	0.23919	0.1346	0.23638	0.48724	0.31089	0.22115	0.17858	0.23496	0.33313	0.18568	0.2596	0.20392	0.071803	0.27449	0.24758	0.16864	-0.42292	-0.014583	-0.2875	-0.85417	0.22708	-0.56875	-0.53125	0.12083	-0.81875	0.029167	-0.21458	-0.80833	0.21667	-0.44792	-0.44167	0.24167	216.379	46.294	-114.587	190.205	-100.448	-82.790	114.445	141.402	-45.736	45.977	188.215	167.465	-123.942	-52.937	-117.489	109.388	0.00035611	0.00048491	9.2538e-05	1066.6	2.4694e-06	3.7335e-06	825.74	339.16	4.4313e-06	5.9224e-06	289.18	102.75	96.749	45.401	4.8728e-06	45.83	0.00066702	0.00074808	0.0002182	957.59	8.178e-06	8.4677e-06	745.17	307.04	8.3553e-06	9.0563e-06	264.27	93.871	88.813	41.486	8.732e-06	42.112	179.361	-10.008	-44.735	-121.026	32.557	1.252	-122.300	-116.088	-23.739	-20.961	-117.747	-114.949	-111.029	-107.812	-32.521	-110.777	-8191	255	
2640.401	1	1	0	0	0.19772	0.15442	0.22275	0.33645	0.28168	0.12076	0.11814	0.22433	0.13967	0.084186	0.17786	0.21443	0.36932	0.12364	0.07922	0.07613	-0.38125	-0.025	0.18333	-0.925	0.28125	-0.50625	-0.64375	-0.039583	-0.6125	-0.17292	0.12083	-0.90208	0.020833	-0.37917	-0.63542	0.29792	50.889	5.934	84.256	142.866	203.037	1.447	141.532	25.540	126.463	117.593	-35.178	-15.170	74.985	182.649	-104.718	-113.939	0.00040488	0.00026599	0.00013721	1046.6	3.8659e-06	4.1225e-06	807.72	327.1	6.8054e-06	6.3864e-06	280.19	98.14	94.088	44.571	1.9082e-06	44.76	0.00068878	0.00077951	0.00022916	945.67	8.1698e-06	8.6101e-06	729.67	296.45	8.6018e-06	9.08e-06	253.51	89.679	86.006	40.631	8.799e-06	41.049	168.594	-42.112	-26.568	-121.103	-14.703	-3.900	-122.375	-116.103	17.841	-28.669	-118.242	-114.639	-111.163	-107.571	49.476	-110.612	-8191	255	
2640.520	1	1	0	0	0.11265	0.11385	0.082757	0.18747	0.14891	0.13067	0.061427	0.23755	0.22121	0.24674	0.15256	0.14073	0.18305	0.38148	0.053368	0.096505	-0.35	-0.28542	0.34792	-0.74792	0.047917	-0.09375	-0.74167	0.016667	-0.63125	-0.4125	0.10833	-0.86667	-0.05625	-0.1375	-0.67292	0.225	172.902	-19.321	184.032	182.670	197.988	-100.115	43.638	176.003	-87.024	107.425	188.702	51.158	158.803	219.642	106.816	37.589	0.00029048	0.00012685	7.8246e-05	1048.5	5.7735e-06	7.4938e-06	805.03	324.05	2.2241e-06	4.6882e-06	280.34	98.127	94.66	44.872	2.2556e-06	45.451	0.00070165	0.00082437	0.00023359	945.27	8.814e-06	9.4469e-06	728.83	293.81	9.0806e-06	9.3321e-06	253.95	90.098	86.456	40.966	8.6861e-06	41.797	179.215	4.183	-51.880	-120.888	23.876	5.598	-122.188	-116.311	23.774	37.402	-118.387	-114.838	-110.798	-107.743	55.184	-110.539	-8191	255	
2640.591	1	1	0	0	0.12106	0.24035	0.17473	0.17621	0.083444	0.13038	0.19116	0.29991	0.24134	0.25505	0.35421	0.15561	0.24908	0.33692	0.25052	0.085815	-0.091667	-0.30625	0.2625	-0.77917	-0.20417	0.077083	-0.78125	-0.0020833	-0.50833	-0.525	0.077083	-0.69583	0.033333	-0.010417	-0.52292	0.32917	47.393	76.041	-117.463	144.433	-105.686	37.618	151.549	-111.521	201.442	-49.447	194.019	-116.958	33.905	221.233	196.565	74.060	0.00040374	0.00071901	0.00021818	1050	6.1673e-06	2.8287e-06	803.48	329.82	3.3182e-06	4.7117e-06	286.01	100.18	95.051	45.074	5.3898e-06	46.104	0.00068882	0.00079735	0.00023488	944.52	8.6773e-06	8.7924e-06	727.67	297.89	8.5018e-06	8.8973e-06	258.29	91.673	87.592	41.283	8.6466e-06	42.197	171.124	-52.811	-40.869	-120.818	33.097	-55.586	-122.586	-116.083	-53.218	1.583	-117.930	-114.608	-111.132	-107.174	-7.902	-110.150	-8191	255	
2640.688	1	1	0	0	0.11292	0.11357	0.058548	0.15668	0.19471	0.072303	0.30978	0.40594	0.06255	0.0948	0.40965	0.058681	0.22752	0.14747	0.15201	0.34271	-0.09375	-0.36875	0.49167	-0.53958	-0.11458	0.052083	-0.79167	0.0375	0.0041667	-0.575	0.13125	-0.70833	-0.30833	-0.05625	-0.69167	-0.058333	50.765	173.982	-110.039	217.845	146.510	95.061	120.301	170.436	120.369	162.777	215.819	164.910	183.283	220.766	-11.711	137.159	0.00037133	0.00063111	0.00016296	1049.8	3.2211e-06	4.0865e-06	801.39	330.64	7.8662e-06	3.9462e-06	284.21	101.31	96.148	45.054	4.3072e-06	46.18	0.00069919	0.00083093	0.00023169	944.48	8.723e-06	9.1421e-06	728.94	298.88	8.7309e-06	8.9877e-06	258.69	92.463	88.004	41.301	8.8233e-06	42.177	184.182	0.444	-33.507	-121.196	-50.984	-50.245	-122.522	-116.007	-53.049	51.675	-117.712	-114.585	-111.216	-107.668	-0.365	-111.020	-8191	255	
2640.808	1	1	0	0	0.055458	0.27883	0.25554	0.18109	0.26023	0.36079	0.13543	0.19299	0.16924	0.055002	0.31132	0.20625	0.17771	0.22551	0.19947	0.22988	0.18125	-0.525	0.26458	-0.53125	-0.31042	0.25208	-0.87708	-0.064583	0.010417	-0.65625	0.089583	-0.575	-0.53542	0.1	-0.70208	-0.039583	-119.080	110.765	28.439	193.873	4.107	-123.109	201.515	159.518	-104.666	50.575	-119.071	-89.158	-72.289	226.057	-97.197	25.132	0.00040496	0.00082544	9.1965e-05	1039.1	6.3652e-06	2.6235e-06	806.19	330.75	3.0897e-06	1.8353e-06	287	101.11	96.073	45.26	6.6241e-06	46.204	0.00069909	0.00078609	0.00023156	940.04	8.6832e-06	8.863e-06	729.55	298.93	8.6955e-06	8.6259e-06	259.23	92.399	87.791	41.257	8.644e-06	42.175	172.488	-48.315	-36.979	-120.691	-24.475	-16.240	-122.078	-115.935	-16.756	-31.107	-118.167	-114.788	-111.321	-107.367	-12.622	-110.975	-8191	255	
2640.904	1	1	0	0	0.24852	0.073475	0.1286	0.093865	0.060966	0.18646	0.2151	0.19231	0.32246	0.29829	0.16378	0.13672	0.24799	0.21191	0.1405	0.16187	0.55417	-0.53333	0.35208	-0.3375	-0.47917	0.21458	-0.65208	-0.16875	0.13958	-0.71875	0.1	-0.29792	-0.65833	0.058333	-0.67083	-0.25833	40.419	-119.780	5.334	-6.364	-52.526	110.302	155.103	-126.752	29.309	54.730	218.042	-2.024	209.905	187.182	186.627	182.541	0.00034507	0.00040583	0.00024606	1034.9	3.3471e-06	3.8724e-06	797.4	331.37	4.1799e-06	4.0485e-06	292.09	105.59	100.08	46.626	4.8432e-06	48.566	0.00070112	0.000803	0.00022023	935.46	8.2136e-06	8.876e-06	722.81	300.45	8.436e-06	8.515e-06	264.06	96.44	91.276	42.504	7.845e-06	44.551	172.955	-70.245	-79.783	-120.933	-13.598	40.668	-122.338	-116.082	-17.890	23.477	-118.095	-114.517	-111.124	-107.621	-35.121	-111.224	-8191	255	
2641.000	1	1	0	0	0.26751	0.11653	0.36075	0.25979	0.1962	0.13427	0.16551	0.18491	0.30097	0.1478	0.22897	0.22853	0.24032	0.074373	0.16279	0.24124	0.34792	-0.60208	0.16042	-0.51667	-0.65625	0.18542	-0.51667	-0.32708	0.01875	-0.76667	-0.047917	-0.1875	-0.75417	0.14583	-0.45417	-0.35417	133.130	-99.786	66.637	203.542	-8.837	-120.807	-95.170	211.901	-40.750	-97.520	-71.473	-91.690	108.155	215.882	-47.006	151.482	0.00030586	6.8614e-05	9.8455e-05	1025.4	2.9895e-06	5.1119e-06	793.53	347.18	5.0647e-06	5.506e-06	305.36	116.95	107.53	50.675	4.5896e-06	52.693	0.00066498	0.00074566	0.00020311	927.53	7.826e-06	8.1674e-06	715.81	314.04	8.1777e-06	7.8767e-06	276.72	106.36	98.835	46.254	7.9925e-06	48.328	175.089	-11.819	-60.558	-120.553	-11.775	-44.094	-121.886	-115.984	5.466	20.589	-118.183	-115.026	-110.844	-107.915	-0.685	-110.696	-8191	255	
2641.097	1	1	0	0	0.30948	0.23652	0.10688	0.11417	0.23207	0.053836	0.11016	0.23577	0.095536	0.054075	0.32653	0.2116	0.090841	0.16073	0.23301	0.14759	0.61667	-0.95833	-0.0625	-0.16667	-0.59167	0.1875	-0.4875	-0.60208	0.2625	-0.59792	-0.064583	-0.10417	-0.81458	0.22708	-0.47708	-0.74167	-16.466	132.547	43.807	-76.183	-15.298	76.431	22.516	186.470	-77.797	2.550	-105.536	-57.846	-45.144	-44.592	-26.053	-101.466	0.00034167	0.0003605	0.00010602	1023.3	4.387e-06	8.1222e-06	788.54	349.58	3.3824e-06	6.7753e-06	303.89	115.2	105.28	49.786	5.3161e-06	51.41	0.00064512	0.00071565	0.00020453	923.2	7.6071e-06	7.9088e-06	713.24	316.42	7.9859e-06	7.9184e-06	275.22	105.06	96.542	45.244	8.6246e-06	47.055	174.978	-72.795	-23.625	-120.697	27.248	2.174	-121.568	-116.071	-75.419	36.421	-118.169	-114.544	-110.464	-107.515	-14.547	-110.540	-8191	255	
2641.193	1	1	0	0	0.10038	0.041439	0.2329	0.28349	0.15315	0.24852	0.074864	0.15005	0.10073	0.23331	0.18858	0.13442	0.01728	0.058475	0.23924	0.098872	0.46667	-0.52083	-0.25417	0.0083333	-0.87083	0.066667	-0.48333	-0.76875	0.15625	-0.59375	-0.25625	-0.039583	-0.81667	-0.03125	-0.12083	-0.78125	-60.188	-121.061	116.719	117.377	191.659	189.484	-131.015	199.426	11.923	147.788	-131.567	66.419	-74.590	133.959	-130.021	202.551	0.00039412	0.00070698	0.00017019	1023.9	5.5472e-06	4.6473e-06	789.05	333.88	5.9794e-06	5.3514e-06	289.42	105.87	98.164	47.034	6.9253e-06	48.361	0.0006713	0.00079591	0.00021783	922.14	8.4532e-06	8.5365e-06	713.41	302.01	8.3958e-06	8.8029e-06	261.73	96.338	90.251	42.93	9.1582e-06	44.294	177.529	-50.210	-57.865	-120.800	12.516	28.925	-121.986	-115.937	-34.501	-15.758	-118.094	-114.967	-110.785	-108.091	3.578	-110.644	-8191	255	
2641.289	1	1	0	0	0.32205	0.080538	0.07301	0.034013	0.11118	0.14848	0.13293	0.11152	0.19923	0.11156	0.18746	0.15371	0.031904	0.33773	0.12379	0.18634	0.74792	-0.41042	-0.23542	-0.17083	-0.84583	0.11042	-0.10417	-0.8625	0.18125	-0.42708	-0.44583	0.3	-0.6625	-0.00625	-0.24167	-0.72708	69.825	-60.723	51.889	58.280	-28.235	-43.143	225.748	-128.955	13.401	113.076	-81.769	-42.126	212.111	110.490	210.453	215.095	0.00038678	0.00037834	0.00012483	1028.1	4.0408e-06	4.5144e-06	781.91	321.8	4.3111e-06	2.2981e-06	276.8	99.913	94.167	46.784	2.6444e-06	47.407	0.00073188	0.00084547	0.00024191	925.41	8.6699e-06	9.0467e-06	710.07	292.47	9.1955e-06	9.4151e-06	252.4	91.806	86.973	42.801	9.501e-06	43.515	173.485	-22.680	-30.054	-120.765	27.978	-26.464	-122.406	-116.009	-94.098	200.088	-117.956	-114.407	-111.416	-107.844	-59.770	-110.666	-8191	255	
2641.385	1	1	0	0	0.065786	0.063521	0.14318	0.20496	0.1242	0.17584	0.20257	0.37084	0.078882	0.033965	0.40898	0.30331	0.20425	0.31333	0.17513	0.072012	0.63542	-0.49792	-0.34167	0.1375	-0.53333	-0.10208	0.0625	-0.80417	0.21667	-0.39375	-0.30833	0.48333	-0.48542	-0.19167	-0.052083	-0.60833	181.265	137.457	-101.562	-90.268	48.634	158.565	138.113	189.715	91.604	-73.029	147.646	224.546	154.737	107.203	-99.188	121.430	0.00040458	0.00050277	9.4467e-05	1023.8	2.7448e-06	4.0978e-06	790.32	319.21	4.7766e-06	6.4334e-06	277.9	102.03	97.166	49.222	1.782e-06	48.744	0.00074484	0.00089028	0.00024432	924.24	9.4011e-06	1.0072e-05	713.43	290.2	9.7676e-06	1.0166e-05	251.76	93.569	88.86	44.783	1.0324e-05	44.813	172.380	-31.093	-34.204	-120.971	50.880	-22.233	-122.150	-115.964	-76.323	22.127	-117.991	-114.361	-110.449	-107.919	-93.150	-110.695	-8191	255	
2641.481	1	1	0	0	0.12766	0.18308	0.091478	0.19346	0.032994	0.076104	0.20904	0.18961	0.13937	0.067598	0.28311	0.14429	0.31192	0.17175	0.2241	0.24379	0.42708	-0.14792	-0.44583	0.24583	-0.55208	-0.077083	-0.029167	-0.69375	0.225	-0.2625	-0.46042	0.12292	-0.4125	-0.55208	0.28333	-0.8875	69.398	208.154	136.963	154.998	-16.732	167.289	-117.608	221.180	76.263	-55.854	128.750	-72.848	119.602	123.831	-36.914	186.729	0.00035433	0.00055947	0.00014115	1023.9	4.7038e-06	4.7277e-06	783.58	318.78	5.3281e-06	4.8888e-06	275.17	101.32	95.354	47.858	2.6907e-06	46.503	0.00079277	0.00092875	0.0002657	922.35	1.0097e-05	1.0103e-05	713.14	289.86	9.9236e-06	1.0297e-05	249.73	92.977	88.023	43.859	1.0105e-05	42.845	166.689	-11.182	-34.982	-120.857	12.484	-57.856	-121.932	-115.894	-13.530	18.425	-118.117	-114.653	-110.888	-107.371	-1.858	-111.255	-8191	255	
2641.600	1	1	0	0	0.13591	0.13425	0.14229	0.23592	0.28344	0.1193	0.2117	0.268	0.38069	0.1728	0.22895	0.30112	0.13258	0.046979	0.098908	0.24874	0.46042	0.15	-0.46458	0.30625	-0.27708	-0.48333	0.0625	-0.925	-0.22917	-0.047917	-0.925	0.00625	-0.60833	-0.61667	0.079167	-0.79792	156.895	154.353	95.527	205.747	-24.783	175.096	174.977	156.012	-104.568	-107.861	174.576	196.633	222.098	130.213	147.368	-25.480	0.00038206	0.0007278	0.00020501	1036.4	5.8675e-06	7.1102e-06	797.16	320.5	4.9482e-06	5.5111e-06	278.12	102.69	96.856	47.692	3.9698e-06	47.297	0.00079139	0.00095371	0.00024601	930.29	9.7189e-06	9.8666e-06	722.4	290.62	9.3251e-06	1.0015e-05	252.66	93.99	88.683	43.471	9.291e-06	43.296	173.463	-54.395	-68.019	-120.823	-12.886	40.427	-121.984	-116.108	39.411	15.216	-118.147	-114.648	-110.433	-107.645	-29.889	-110.651	-8191	255	
2641.696	1	1	0	0	0.12787	0.02943	0.044272	0.37912	0.21585	0.21087	0.20114	0.23123	0.01211	0.095824	0.29293	0.21849	0.11876	0.19229	0.023918	0.24805	0.054167	0.0625	-0.81458	-0.0083333	-0.50833	-0.53125	0.075	-0.80833	-0.20625	0.085417	-0.9375	0.035417	-0.32083	-0.65833	0.15417	-0.54375	146.052	-12.445	-54.130	-98.773	137.387	-24.123	103.693	172.693	150.427	197.988	190.900	167.841	98.671	162.590	72.127	141.728	0.00035252	0.00040126	0.00023591	1041.7	5.5298e-06	3.0147e-06	815.97	323.93	1.7208e-06	4.6894e-06	278.76	102.73	96.427	46.805	3.8376e-06	47.423	0.00071674	0.00082443	0.00023173	940.53	8.5679e-06	8.6481e-06	735.79	293.92	8.7747e-06	8.7112e-06	252.9	93.613	88.827	42.776	8.8288e-06	43.386	173.803	-31.808	-43.426	-120.591	38.821	20.318	-122.405	-115.794	12.285	-12.223	-118.373	-114.478	-110.440	-107.590	8.689	-110.707	-8191	255	
2641.792	1	1	0	0	0.14814	0.20097	0.13946	0.25784	0.1937	0.10782	0.052644	0.2962	0.28117	0.32161	0.075051	0.098753	0.3943	0.22696	0.18194	0.30989	0.095833	0.13542	-0.66667	-0.077083	-0.016667	-0.53333	0.29583	-0.71042	-0.3875	0.05625	-0.88333	-0.020833	-0.15	-0.90625	0.28542	-0.62083	93.322	155.245	102.797	-126.180	13.495	167.856	168.203	197.404	88.139	203.286	137.357	96.024	-121.149	197.116	-5.525	126.475	0.00039056	0.00061298	6.4779e-05	1045.3	5.5502e-06	5.4009e-06	814.88	325.83	2.8011e-06	2.0941e-06	283.9	103.8	97.382	47.567	1.897e-06	48.261	0.00067533	0.00080213	0.00022291	942.26	8.5481e-06	8.7945e-06	740.78	295.73	8.7022e-06	8.9249e-06	257.55	95.158	89.333	43.416	8.8695e-06	44.131	179.693	-31.590	-16.283	-120.761	23.794	-11.821	-122.104	-115.889	-61.238	-18.602	-117.860	-114.753	-110.437	-107.589	81.712	-110.417	-8191	255	
#DATA ENDS
