BOXY.EXE: ISS Imagent and Oximeter Data Acquisition Program Version 0.80
Ascii Record File

#ACQ INFORMATION
2  Detector Channels 
16  External MUX Channels 
1  Auxiliary Channels 
5000  Waveform (CCF) Frequency (Hz)
1  Waveforms Skipped 
30  Waveforms Averaged 
1  Cycles Averaged 
16  Acquisitions per Waveform 
10.0806  Updata Rate (Hz) 

#FILE INFORMATION
TRUE -- External MUX Channel results are PARSED.
FALSE -- AC DC and Phase are NOT grouped.
TRUE -- Companion Program Settings File CREATED.
FALSE -- AC data not excluded
FALSE -- DC data not excluded
FALSE -- Phase data not excluded
FALSE -- Auxillary Chn. data not excluded
Tab delimiters

#CALIBRATION STATE
TRUE -- Waveform Calibration Values APPLIED.


#AUX CALIBRATION VALUES
Val Type	aux-1	

Term	1.0000e+00	
Factor	0.0000e+00	


#WF CALIBRATION VALUES
A = Detector Channel
Val Type	A-AC1	A-AC2	A-AC3	A-AC4	A-AC5	A-AC6	A-AC7	A-AC8	A-AC9	A-AC10	A-AC11	A-AC12	A-AC13	A-AC14	A-AC15	A-AC16	A-DC1	A-DC2	A-DC3	A-DC4	A-DC5	A-DC6	A-DC7	A-DC8	A-DC9	A-DC10	A-DC11	A-DC12	A-DC13	A-DC14	A-DC15	A-DC16	A-Ph1	A-Ph2	A-Ph3	A-Ph4	A-Ph5	A-Ph6	A-Ph7	A-Ph8	A-Ph9	A-Ph10	A-Ph11	A-Ph12	A-Ph13	A-Ph14	A-Ph15	A-Ph16	

Term	0.00000e+00	0.00000e+00	0.00000e+00	0.00000e+00	0.00000e+00	0.00000e+00	0.00000e+00	0.00000e+00	0.00000e+00	0.00000e+00	0.00000e+00	0.00000e+00	0.00000e+00	0.00000e+00	0.00000e+00	0.00000e+00	0.00000e+00	0.00000e+00	0.00000e+00	0.00000e+00	0.00000e+00	0.00000e+00	0.00000e+00	0.00000e+00	0.00000e+00	0.00000e+00	0.00000e+00	0.00000e+00	0.00000e+00	0.00000e+00	0.00000e+00	0.00000e+00	0.00000e+00	0.00000e+00	0.00000e+00	0.00000e+00	0.00000e+00	0.00000e+00	0.00000e+00	0.00000e+00	0.00000e+00	0.00000e+00	0.00000e+00	0.00000e+00	0.00000e+00	0.00000e+00	0.00000e+00	0.00000e+00	
Factor	1.00000e+00	1.00000e+00	1.00000e+00	1.00000e+00	1.00000e+00	1.00000e+00	1.00000e+00	1.00000e+00	1.00000e+00	1.00000e+00	1.00000e+00	1.00000e+00	1.00000e+00	1.00000e+00	1.00000e+00	1.00000e+00	1.00000e+00	1.00000e+00	1.00000e+00	1.00000e+00	1.00000e+00	1.00000e+00	1.00000e+00	1.00000e+00	1.00000e+00	1.00000e+00	1.00000e+00	1.00000e+00	1.00000e+00	1.00000e+00	1.00000e+00	1.00000e+00	X	X	X	X	X	X	X	X	X	X	X	X	X	X	X	X	

B = Detector Channel
Val Type	B-AC1	B-AC2	B-AC3	B-AC4	B-AC5	B-AC6	B-AC7	B-AC8	B-AC9	B-AC10	B-AC11	B-AC12	B-AC13	B-AC14	B-AC15	B-AC16	B-DC1	B-DC2	B-DC3	B-DC4	B-DC5	B-DC6	B-DC7	B-DC8	B-DC9	B-DC10	B-DC11	B-DC12	B-DC13	B-DC14	B-DC15	B-DC16	B-Ph1	B-Ph2	B-Ph3	B-Ph4	B-Ph5	B-Ph6	B-Ph7	B-Ph8	B-Ph9	B-Ph10	B-Ph11	B-Ph12	B-Ph13	B-Ph14	B-Ph15	B-Ph16	

Term	0.00000e+00	0.00000e+00	0.00000e+00	0.00000e+00	0.00000e+00	0.00000e+00	0.00000e+00	0.00000e+00	0.00000e+00	0.00000e+00	0.00000e+00	0.00000e+00	0.00000e+00	0.00000e+00	0.00000e+00	0.00000e+00	0.00000e+00	0.00000e+00	0.00000e+00	0.00000e+00	0.00000e+00	0.00000e+00	0.00000e+00	0.00000e+00	0.00000e+00	0.00000e+00	0.00000e+00	0.00000e+00	0.00000e+00	0.00000e+00	0.00000e+00	0.00000e+00	-1.62475e+02	-1.30028e+02	-1.29081e+02	-1.82568e+02	-7.08570e+01	-6.63597e+01	-1.57125e+02	-1.62015e+02	-8.01052e+01	-6.56729e+01	-1.70653e+02	-1.69026e+02	-1.81905e+02	-1.76426e+02	-7.59934e+01	-1.49739e+02	
Factor	2.48014e-05	1.38066e-04	4.13928e-05	1.81409e-01	1.37938e-06	1.71112e-06	1.66522e-01	5.10113e-02	1.39629e-06	1.55553e-06	7.91198e-02	2.75910e-02	2.90947e-02	8.83143e-03	1.46968e-06	1.26923e-02	9.30207e-06	1.30508e-05	3.64333e-06	9.51287e-02	1.35613e-07	1.44845e-07	8.22480e-02	2.69387e-02	1.34931e-07	1.44256e-07	4.04368e-02	1.41989e-02	1.54998e-02	4.70142e-03	1.38599e-07	6.55128e-03	X	X	X	X	X	X	X	X	X	X	X	X	X	X	X	X	



#DISTANCE SETTINGS
A = Detector Channel
A-1	A-2	A-3	A-4	A-5	A-6	A-7	A-8	A-9	A-10	A-11	A-12	A-13	A-14	A-15	A-16	

2.5000e+00	3.0000e+00	2.5000e+00	3.0000e+00	2.0000e+00	3.0000e+00	1.5000e+00	3.0000e+00	3.0000e+00	3.0000e+00	3.0000e+00	3.0000e+00	3.0000e+00	3.0000e+00	1.5000e+00	3.0000e+00	

B = Detector Channel
B-1	B-2	B-3	B-4	B-5	B-6	B-7	B-8	B-9	B-10	B-11	B-12	B-13	B-14	B-15	B-16	

1.0000e+01	1.0000e+01	1.0000e+01	1.4400e+00	1.0000e+01	1.0000e+01	1.5100e+00	1.9400e+00	1.0000e+01	1.0000e+01	1.9900e+00	2.4900e+00	2.4100e+00	2.9000e+00	1.0000e+01	2.9800e+00	




#DATA BEGINS
time	group	step	mark	flag	A-AC1	A-AC2	A-AC3	A-AC4	A-AC5	A-AC6	A-AC7	A-AC8	A-AC9	A-AC10	A-AC11	A-AC12	A-AC13	A-AC14	A-AC15	A-AC16	A-DC1	A-DC2	A-DC3	A-DC4	A-DC5	A-DC6	A-DC7	A-DC8	A-DC9	A-DC10	A-DC11	A-DC12	A-DC13	A-DC14	A-DC15	A-DC16	A-Ph1	A-Ph2	A-Ph3	A-Ph4	A-Ph5	A-Ph6	A-Ph7	A-Ph8	A-Ph9	A-Ph10	A-Ph11	A-Ph12	A-Ph13	A-Ph14	A-Ph15	A-Ph16	B-AC1	B-AC2	B-AC3	B-AC4	B-AC5	B-AC6	B-AC7	B-AC8	B-AC9	B-AC10	B-AC11	B-AC12	B-AC13	B-AC14	B-AC15	B-AC16	B-DC1	B-DC2	B-DC3	B-DC4	B-DC5	B-DC6	B-DC7	B-DC8	B-DC9	B-DC10	B-DC11	B-DC12	B-DC13	B-DC14	B-DC15	B-DC16	B-Ph1	B-Ph2	B-Ph3	B-Ph4	B-Ph5	B-Ph6	B-Ph7	B-Ph8	B-Ph9	B-Ph10	B-Ph11	B-Ph12	B-Ph13	B-Ph14	B-Ph15	B-Ph16	aux-1	digaux	

1088.905	1	1	0	768	0.26578	0.21829	0.067246	0.22775	0.063363	0.23508	0.1937	0.10192	0.12769	0.28599	0.33771	0.12083	0.36614	0.065751	0.02925	0.10964	0.18542	-1.1708	-0.25625	-0.62292	-0.87292	-0.052083	-0.86042	-0.74583	-0.1875	-1.1396	-0.43333	-0.44792	-1.0938	-0.15208	-0.58958	-0.84583	-17.596	-1.648	220.455	181.459	169.772	-127.253	159.464	-50.911	9.020	155.649	152.041	158.906	105.577	127.882	-134.646	207.331	0.00044333	0.00047327	0.00015605	1364.3	3.5793e-06	5.0423e-06	1356.3	364.94	5.2483e-06	7.2334e-06	419.34	138.26	120.98	41.806	3.6074e-06	51.052	0.00057208	0.00058478	0.00016543	1375.4	6.3261e-06	6.553e-06	1372.7	371.42	6.4784e-06	6.4774e-06	425.33	142.08	123.71	42.676	6.4408e-06	52.7	170.750	-55.840	-28.002	-122.134	-12.608	0.506	-122.392	-117.902	-41.375	25.993	-118.168	-114.324	-113.945	-108.738	-5.107	-109.519	-8191	255	
1089.001	1	1	0	0	0.15797	0.33768	0.1335	0.37508	0.30046	0.29072	0.37845	0.17673	0.20084	0.19029	0.13908	0.30616	0.061988	0.12723	0.16657	0.32427	-0.00625	-0.95	-0.42292	-0.5125	-0.91458	-0.0020833	-0.84167	-1.1104	-0.09375	-0.95833	-0.53958	-0.28542	-1.2083	-0.3125	-0.60625	-0.96042	-120.458	-76.137	-43.161	195.681	18.480	-114.142	200.993	-122.336	-85.305	157.725	-5.483	-106.208	33.831	110.063	151.490	121.027	0.00044625	0.0003461	0.00014124	1365.3	3.1386e-06	5.9372e-06	1350.7	367.05	3.4872e-06	5.6056e-06	416.93	138.42	120.84	41.626	4.637e-06	51.401	0.00057033	0.00058979	0.00016576	1376.2	6.2023e-06	6.633e-06	1371.4	372.38	6.4385e-06	6.463e-06	423.75	141.95	123.44	42.541	6.4928e-06	52.702	171.101	-46.983	-24.738	-122.085	0.419	37.673	-122.410	-117.805	-4.329	19.616	-118.394	-114.188	-113.903	-108.634	7.687	-109.430	-8191	255	
1089.097	1	1	0	0	0.087176	0.16763	0.111	0.21336	0.30826	0.12579	0.36148	0.29704	0.13151	0.19401	0.25563	0.17738	0.5164	0.23879	0.091464	0.2287	0.41667	-0.76458	-0.32917	-0.29583	-0.98333	-0.16875	-0.75417	-1.2125	0.020833	-0.96458	-0.6625	-0.1625	-0.97292	-0.27917	-0.39583	-1.0958	-62.578	-77.453	-72.180	147.316	-109.267	-112.171	130.237	-122.281	12.225	-83.478	-129.956	124.925	223.007	167.593	68.966	195.383	0.00045349	0.00054201	9.9416e-05	1357.7	4.6464e-06	4.6631e-06	1356.3	364.94	4.6785e-06	4.2349e-06	416.56	138.8	120.62	41.712	3.9938e-06	51.324	0.00056264	0.00058576	0.00016359	1371.7	6.286e-06	6.2576e-06	1371.3	371.02	6.3403e-06	6.4392e-06	424.08	142.04	123.32	42.589	6.2765e-06	52.616	170.042	-40.394	-54.074	-122.093	-5.386	26.726	-122.342	-117.723	-18.127	10.155	-118.337	-114.305	-113.470	-108.816	-2.227	-109.548	-8191	255	
1089.193	1	1	0	0	0.30706	0.15727	0.14907	0.34061	0.072769	0.059968	0.36273	0.11505	0.29995	0.2199	0.13793	0.32851	0.082762	0.10739	0.36574	0.10429	0.1375	-0.92917	-0.65	-0.2	-1.1875	-0.32292	-0.58125	-1.0958	-0.20208	-0.83542	-0.87292	-0.44792	-1.1396	-0.57083	-0.49167	-1.1896	-110.003	69.227	110.938	208.889	-78.220	-5.877	142.342	-9.809	199.205	83.112	112.443	212.908	216.324	125.857	11.427	-120.864	0.00043729	0.0004705	0.00015548	1355.8	3.5878e-06	5.5949e-06	1349.8	365.71	5.4645e-06	6.4961e-06	418.23	138.54	120.32	41.576	2.8832e-06	51.144	0.00056171	0.0005921	0.00016078	1369.9	6.2961e-06	6.343e-06	1370.4	371.57	6.4117e-06	6.3097e-06	424.32	141.94	123.31	42.581	6.4088e-06	52.646	166.298	-48.086	-33.704	-122.108	-33.335	6.784	-122.366	-117.799	-52.148	5.455	-118.094	-114.344	-113.743	-108.677	19.944	-109.472	-8191	255	
1089.290	1	1	0	0	0.35231	0.15989	0.035205	0.22585	0.33258	0.15176	0.20183	0.053953	0.1207	0.33688	0.077938	0.35548	0.10623	0.19868	0.20478	0.17218	0.25208	-0.55	-0.7625	-0.23542	-0.8125	-0.47917	-0.51875	-1.0646	-0.21875	-0.50833	-1.0625	-0.06875	-0.87917	-0.52083	0.054167	-1.4271	199.385	-122.652	144.510	208.099	71.204	-107.882	199.857	-73.073	-16.360	209.868	214.420	166.294	-83.674	187.890	223.488	173.544	0.00041879	0.00039851	0.00016817	1360.3	2.3585e-06	5.5502e-06	1351	364.38	4.5682e-06	5.7042e-06	416.39	138.14	120.7	41.749	2.7711e-06	51.221	0.00057871	0.00059204	0.00015959	1372.6	6.2809e-06	6.3931e-06	1369.5	371.08	6.5214e-06	6.3118e-06	423.87	141.81	123.61	42.579	6.3245e-06	52.63	172.131	-43.477	-42.670	-121.814	-12.575	20.261	-122.265	-117.660	-21.558	21.010	-118.109	-114.216	-113.665	-108.955	-44.492	-109.313	-8191	255	
1089.386	1	1	0	0	0.28603	0.065514	0.16121	0.30632	0.36348	0.061506	0.32575	0.1791	0.17875	0.10086	0.091554	0.30845	0.06007	0.17574	0.12895	0.21388	0.09375	-0.52917	-0.99375	-0.16042	-0.84583	-0.77292	-0.37292	-1.0604	-0.33125	-0.43542	-1.0667	-0.25625	-0.69583	-0.83125	0.070833	-1.1354	195.443	74.971	-85.993	-129.479	-95.197	101.539	169.427	216.602	24.585	-49.016	191.444	191.743	68.517	134.338	-15.923	122.855	0.0004054	0.00056724	0.00015384	1358.3	2.2746e-06	3.3209e-06	1351.4	366.74	4.7451e-06	5.9693e-06	418.21	138.1	120.38	41.69	2.8657e-06	51.203	0.00057243	0.00059528	0.00016418	1371.5	6.3495e-06	6.2805e-06	1371.2	372.27	6.4351e-06	6.3433e-06	423.8	141.69	123.41	42.59	6.1879e-06	52.659	174.489	-62.146	-32.320	-122.052	32.466	0.990	-122.474	-117.748	-43.453	10.846	-118.256	-114.162	-113.700	-108.813	4.116	-109.201	-8191	255	
1089.506	1	1	0	0	0.15778	0.11986	0.055228	0.28052	0.11972	0.14151	0.33152	0.29093	0.3419	0.14848	0.071858	0.1097	0.14994	0.048375	0.12006	0.21305	0.05	-0.34583	-1.0146	-0.28333	-0.68125	-0.975	-0.11458	-1.3312	-0.36875	-0.46875	-1.2375	-0.275	-0.7	-0.94792	-0.091667	-1.0229	67.979	-45.653	73.116	209.921	-69.122	43.224	109.531	88.107	116.565	111.855	101.934	11.237	153.665	-110.929	-52.039	35.010	0.00045657	0.00044152	0.00014303	1355.4	3.5936e-06	5.293e-06	1351	365.64	6.1861e-06	4.1716e-06	417.79	138.61	120.75	41.57	4.3564e-06	51.128	0.00056727	0.00058756	0.00016027	1371.2	6.3167e-06	6.2736e-06	1370.5	371.86	6.498e-06	6.4191e-06	424.27	141.76	123.4	42.538	6.4021e-06	52.678	169.020	-36.237	-44.024	-122.095	-0.297	20.441	-122.310	-117.611	-36.946	33.596	-118.267	-114.490	-113.606	-108.595	-7.843	-109.509	-8191	255	
1089.602	1	1	0	0	0.051439	0.21011	0.24253	0.2008	0.12101	0.029049	0.01586	0.20913	0.17667	0.34026	0.20514	0.25136	0.3063	0.093615	0.027736	0.26977	-0.079167	-0.24167	-1.0229	-0.28542	-0.5	-0.84583	-0.23125	-1.1646	-0.54167	-0.23542	-1.0812	-0.40208	-0.6375	-0.89167	0.01875	-1.0562	-53.738	3.687	105.122	-133.785	-132.341	-45.728	-112.864	143.332	-123.665	-60.136	207.954	-97.318	151.928	-112.598	55.045	57.938	0.00045298	0.00043775	6.7549e-05	1359	3.8091e-06	4.2201e-06	1348	365.27	4.2903e-06	3.724e-06	418.39	138.2	120.83	41.329	2.2175e-06	51.207	0.0005664	0.00061393	0.00016078	1371	6.3518e-06	6.3029e-06	1369.3	371.32	6.4424e-06	6.3542e-06	424.14	141.93	123.35	42.534	6.3195e-06	52.658	167.348	-49.668	-49.352	-121.987	19.861	12.158	-122.412	-117.722	-57.877	14.227	-118.058	-114.189	-113.636	-108.540	3.858	-109.155	-8191	255	
1089.699	1	1	0	0	0.1954	0.29257	0.086339	0.1398	0.088437	0.14431	0.13463	0.32208	0.057654	0.31801	0.16978	0.14547	0.29239	0.23654	0.075536	0.16748	-0.34792	-0.16875	-0.84167	-0.48333	-0.41458	-0.82083	-0.26667	-0.97708	-0.6375	-0.0020833	-1.1667	-0.23542	-0.35417	-0.94583	-0.1125	-0.83958	101.093	33.695	100.897	49.148	-80.364	-55.676	187.749	223.705	129.910	-54.557	-40.288	27.225	-132.414	222.976	-99.032	181.825	0.00046435	0.00050032	0.00017761	1358.5	2.8331e-06	7.1184e-06	1346.9	365.68	4.1251e-06	5.0464e-06	415.34	137.87	120.49	41.534	6.4406e-06	51.206	0.00057894	0.00057954	0.00016604	1370.3	6.4459e-06	6.336e-06	1367.9	371.77	6.5014e-06	6.4951e-06	423.8	141.57	123.35	42.529	6.5116e-06	52.686	168.312	-76.579	-78.136	-122.229	2.296	14.365	-122.456	-117.742	-33.187	32.391	-118.117	-114.366	-113.550	-108.840	6.425	-109.425	-8191	255	
1089.795	1	1	0	0	0.20647	0.064711	0.12678	0.36741	0.30315	0.096817	0.2565	0.2432	0.10166	0.034192	0.067586	0.20429	0.058116	0.20353	0.028124	0.45215	-0.51042	-0.05	-0.68333	-0.5375	-0.45	-0.89792	-0.40208	-0.89167	-0.76458	0.125	-0.85833	-0.51875	-0.20208	-1.2229	-0.1125	-0.70417	146.446	34.994	49.931	151.506	170.546	-92.260	-104.207	179.716	8.309	117.504	111.755	92.387	161.011	170.095	48.997	199.923	0.00043468	0.00070563	0.00012999	1358.9	4.938e-06	5.9571e-06	1349.9	365.2	5.2791e-06	4.277e-06	417.67	137.92	120.93	41.636	2.7468e-06	51.084	0.00057059	0.00059805	0.00016243	1370.6	6.4128e-06	6.4797e-06	1369.6	371.22	6.3277e-06	6.3331e-06	424.27	141.51	123.42	42.538	6.4148e-06	52.659	165.030	-51.996	-44.532	-122.101	8.777	7.514	-122.444	-117.770	-36.884	13.537	-118.107	-114.334	-113.528	-108.580	-16.489	-109.207	-8191	255	
1089.889	1	1	0	0	0.29349	0.071486	0.10064	0.47936	0.24828	0.069698	0.03968	0.29465	0.14106	0.16908	0.28135	0.41768	0.33922	0.34709	0.22243	0.3663	-0.39167	-0.03125	-0.78958	-0.64167	-0.15625	-0.85833	-0.40208	-0.63125	-0.96667	0	-0.7875	-0.825	-0.27917	-0.88333	-0.15833	-0.61458	37.755	26.526	-77.777	-125.462	190.491	-10.063	-11.751	192.095	220.513	32.225	-130.300	168.844	154.702	219.621	-0.611	150.813	0.00048147	0.00053404	0.00013645	1360.6	4.159e-06	9.0748e-06	1353.4	365.5	4.6505e-06	4.6483e-06	416.15	138.61	120.08	41.552	2.344e-06	51.344	0.00056876	0.00060028	0.00016265	1370.7	6.3665e-06	6.3864e-06	1369.7	371.43	6.5141e-06	6.2571e-06	423.04	141.53	123.23	42.503	6.5676e-06	52.746	167.270	-36.144	-57.531	-122.246	5.370	30.708	-122.482	-117.742	-32.198	15.742	-118.249	-114.492	-113.804	-108.555	-12.186	-109.135	-8191	255	
1089.985	1	1	0	0	0.21503	0.2193	0.11767	0.31615	0.017787	0.32568	0.38377	0.13334	0.13272	0.17326	0.10577	0.10572	0.23759	0.24752	0.198	0.15318	-0.52083	-0.0083333	-0.65833	-0.84375	0.029167	-0.95	-0.50208	-0.35417	-1.0833	-0.0083333	-0.87292	-0.81875	-0.03125	-1	-0.44375	-0.32708	-61.624	20.299	-13.786	182.411	-65.934	46.089	176.192	70.156	28.771	-56.750	74.220	40.814	-99.826	-108.382	-13.954	169.263	0.00042196	0.00071397	0.00014634	1359.2	1.9151e-06	4.3404e-06	1347.9	366.9	4.3024e-06	4.373e-06	418.1	138.69	120.4	41.593	6.2961e-06	51.306	0.00056099	0.00059452	0.00016292	1371.4	6.4151e-06	6.4697e-06	1370.8	371.85	6.4584e-06	6.5504e-06	424.67	141.85	123.35	42.572	6.3655e-06	52.751	166.253	-47.838	-53.786	-122.013	-23.149	27.510	-122.451	-117.528	-33.049	16.184	-118.110	-114.194	-113.454	-108.753	-2.379	-108.982	-8191	255	
1090.081	1	1	0	0	0.20046	0.016044	0.15266	0.27487	0.076079	0.28489	0.078799	0.43457	0.27778	0.036836	0.12388	0.18019	0.088537	0.39264	0.10049	0.034669	-0.725	-0.12292	-0.68333	-1.1604	-0.01875	-0.99167	-0.65625	-0.425	-0.90833	-0.14792	-0.77083	-0.99375	-0.33333	-0.92708	-0.50833	-0.29167	71.603	46.097	118.834	197.651	139.857	-63.006	145.493	168.351	13.014	20.045	168.638	171.762	190.365	-110.454	100.119	63.973	0.0004511	0.00042808	0.00012969	1357.3	4.0107e-06	4.6619e-06	1352.6	365.3	6.7643e-06	7.896e-06	417.64	138.39	120.82	41.491	4.5945e-06	51.093	0.00057557	0.00060596	0.00016725	1371	6.4659e-06	6.4468e-06	1369.7	371.33	6.3803e-06	6.5336e-06	423.89	141.65	123.48	42.502	6.4524e-06	52.656	170.198	-42.862	-55.776	-121.945	-12.683	16.065	-122.174	-117.529	-34.831	23.279	-117.847	-114.254	-113.380	-108.224	-11.982	-109.191	-8191	255	
1090.202	1	1	0	0	0.25945	0.13277	0.040047	0.26666	0.087917	0.38216	0.18519	0.21021	0.11435	0.060358	0.030694	0.26029	0.2472	0.35214	0.073024	0.3006	-0.60625	0.083333	-0.52708	-0.98958	-0.08125	-0.86458	-0.90417	-0.19167	-0.95208	-0.4	-0.57292	-1.1917	-0.21667	-1.125	-0.64375	0.0020833	-38.944	25.599	212.675	208.184	-28.698	172.532	152.590	149.434	-36.077	140.565	194.888	218.181	158.449	-75.063	-9.083	203.619	0.00045499	0.00049797	0.00016384	1361.6	3.2932e-06	3.9332e-06	1351.9	365.17	6.6625e-06	5.6657e-06	416.82	138	120.85	41.56	5.5237e-06	51.216	0.0005775	0.00060482	0.00017025	1374.5	6.5998e-06	6.4344e-06	1371.7	372.05	6.4275e-06	6.737e-06	424.14	141.71	123.41	42.546	6.5375e-06	52.702	171.067	-66.472	-48.729	-122.052	-0.161	15.656	-122.375	-117.631	-45.592	25.073	-118.282	-114.176	-113.664	-108.589	9.254	-109.218	-8191	255	
1090.298	1	1	0	0	0.29461	0.23745	0.21115	0.20086	0.21047	0.19158	0.20788	0.21697	0.26863	0.21601	0.20208	0.26959	0.069015	0.22071	0.25509	0.085878	-0.65417	-0.23125	-0.21042	-1.2167	0.15	-0.61042	-1.0312	-0.11042	-0.8875	-0.39792	-0.38333	-0.97083	-0.29167	-0.80417	-0.63542	-0.33125	213.902	44.506	-132.333	-78.286	-101.682	116.295	143.108	-134.590	210.550	-126.140	19.691	108.756	175.629	-113.057	102.605	125.304	0.00046582	0.00043677	0.00012357	1366.9	3.686e-06	5.2855e-06	1354.2	365.74	3.7384e-06	5.3099e-06	417.8	138.62	120.58	41.477	2.5542e-06	51.106	0.00058448	0.00059887	0.00016802	1377.5	6.6976e-06	6.4966e-06	1374.1	371.67	6.5605e-06	6.5859e-06	424.4	141.9	123.32	42.591	6.625e-06	52.655	171.488	-36.411	-51.573	-122.060	-10.695	12.096	-122.409	-117.764	-66.362	21.037	-118.167	-114.220	-113.877	-108.686	4.394	-109.648	-8191	255	
1090.394	1	1	0	0	0.018176	0.2464	0.096188	0.30104	0.25135	0.15233	0.23076	0.2307	0.19776	0.21293	0.26003	0.070124	0.1068	0.29681	0.18537	0.17256	-0.6125	-0.325	-0.05	-1.3021	-0.10833	-0.31875	-1.1896	-0.13333	-0.87917	-0.60208	-0.32083	-1.0792	-0.24792	-0.40833	-0.76458	-0.0125	140.081	-40.720	15.117	169.279	26.369	149.508	139.952	211.583	-111.605	-0.654	220.414	92.540	145.267	201.083	194.535	212.253	0.00044685	0.00059456	0.00017169	1362.8	3.459e-06	5.3235e-06	1356.7	366.06	4.755e-06	4.4363e-06	416.64	139.34	120.74	41.767	4.0486e-06	51.353	0.00057708	0.00061205	0.00016885	1378.7	6.6595e-06	6.5467e-06	1374.7	371.72	6.6428e-06	6.5348e-06	424.05	142.28	123.51	42.741	6.5401e-06	52.72	168.417	-38.398	-27.277	-122.134	1.727	18.645	-122.622	-117.750	-29.723	29.209	-117.913	-114.103	-113.748	-108.569	-5.583	-109.280	-8191	255	
1090.466	1	1	0	0	0.070198	0.27778	0.1297	0.28409	0.18482	0.090809	0.32306	0.30906	0.097169	0.093974	0.27756	0.27213	0.17655	0.22153	0.13793	0.22982	-0.2625	-0.66667	0.0020833	-1.0729	-0.52083	-0.28125	-1.0417	-0.15833	-0.72917	-0.70833	-0.022917	-0.83333	-0.34375	-0.33333	-1.1167	-0.2625	215.598	173.100	139.298	202.787	-126.818	82.839	200.426	179.574	25.123	147.281	49.096	220.545	184.762	-96.373	-19.429	214.392	0.00043311	0.00068593	0.00010911	1359.2	5.5189e-06	3.169e-06	1357.3	366.02	5.7235e-06	5.5332e-06	415.37	138.87	120.31	41.729	4.2761e-06	51.286	0.00057605	0.00059321	0.00016412	1376.2	6.4953e-06	6.6635e-06	1373.9	372.12	6.6389e-06	6.4125e-06	424.05	141.98	123.55	42.591	6.338e-06	52.704	173.910	-42.675	-48.079	-122.052	-13.685	13.313	-122.362	-117.461	-27.492	1.930	-118.148	-114.073	-113.700	-108.534	-8.067	-109.256	-8191	255	
1090.587	1	1	0	0	0.25117	0.27227	0.10246	0.17101	0.08168	0.18478	0.13402	0.37531	0.14186	0.34464	0.16611	0.2637	0.26967	0.34687	0.16317	0.12471	-0.35833	-0.75417	-0.17292	-1.1792	-0.44167	-0.16875	-1.0521	-0.36667	-0.4375	-0.84375	-0.17292	-1.0271	-0.58542	-0.23333	-1.05	-0.2875	49.816	-25.905	211.271	127.672	144.692	195.138	168.559	223.830	62.552	156.293	75.458	212.287	-78.779	213.914	141.600	-133.936	0.0004125	0.00045912	0.0001832	1358.3	4.9795e-06	4.9187e-06	1351.7	364.17	5.568e-06	5.4134e-06	420.09	138.4	120.19	41.53	4.0336e-06	51.33	0.00057615	0.00059547	0.00016667	1374.2	6.4261e-06	6.5108e-06	1372.1	371.46	6.4008e-06	6.2442e-06	424.69	141.96	123.21	42.613	6.3019e-06	52.747	172.833	-62.595	-43.084	-122.081	-23.852	28.720	-122.231	-117.604	-50.377	45.462	-117.955	-114.398	-113.797	-108.435	-20.813	-109.270	-8191	255	
1090.683	1	1	0	0	0.13961	0.23832	0.039846	0.096551	0.052398	0.30835	0.13063	0.091764	0.15073	0.17074	0.21912	0.23269	0.29125	0.34298	0.13643	0.085345	-0.27917	-0.9125	0.047917	-0.90208	-0.59375	-0.1125	-1.4104	-0.42917	-0.44167	-1.1333	-0.45	-1.1229	-0.77917	-0.21875	-1.1125	-0.53125	35.122	137.663	192.593	157.087	-65.672	-7.097	199.260	190.793	115.885	66.119	198.231	199.291	-75.548	125.493	171.575	117.344	0.00047307	0.00043517	0.0001793	1360.5	3.5363e-06	3.9933e-06	1349.1	364.26	3.9005e-06	4.2913e-06	417.1	138.52	120.72	41.514	4.4141e-06	51.145	0.00057681	0.00058968	0.00017007	1373.8	6.4252e-06	6.5289e-06	1372	371.26	6.6425e-06	6.5005e-06	424.33	141.93	123.49	42.539	6.3591e-06	52.691	171.797	-29.112	-57.864	-122.105	-49.620	21.712	-122.368	-117.845	-11.160	9.527	-118.187	-113.995	-113.683	-108.400	-8.134	-109.241	-8191	255	
1090.779	1	1	0	0	0.13569	0.038115	0.21415	0.23945	0.12183	0.1384	0.16422	0.28011	0.23349	0.31674	0.30509	0.03972	0.1507	0.16173	0.084131	0.3381	-0.0625	-0.96458	-0.21667	-1.1313	-0.825	-0.23333	-1.1938	-0.54792	-0.35208	-1	-0.34792	-0.89375	-0.775	-0.18542	-1.05	-0.59792	-128.656	109.321	-30.220	213.661	-79.755	-43.737	162.437	-18.210	-76.318	117.015	136.411	-100.951	-29.977	-83.838	15.358	155.161	0.00046183	0.00049764	0.00010531	1361.1	2.7701e-06	4.7314e-06	1349.8	365.12	5.5358e-06	5.6955e-06	418.12	138.89	120.61	41.638	4.0014e-06	51.298	0.00058134	0.00059052	0.00016461	1375.8	6.3936e-06	6.5397e-06	1372	371.46	6.4497e-06	6.4071e-06	424.55	142.04	123.35	42.578	6.5168e-06	52.691	169.311	-55.392	-29.456	-122.319	-25.430	-9.061	-122.406	-117.600	-38.234	23.424	-118.048	-114.081	-113.804	-108.617	-22.832	-109.550	-8191	255	
1090.900	1	1	0	0	0.17163	0.12109	0.15225	0.12209	0.038229	0.059253	0.26318	0.13435	0.1416	0.22234	0.17656	0.20734	0.12341	0.084898	0.2155	0.068019	0.03125	-1.0646	-0.17917	-0.79792	-0.94375	-0.0375	-1.0125	-0.73958	-0.32292	-0.98333	-0.57083	-0.78333	-1.0604	-0.10208	-0.92708	-0.61875	-93.444	-134.580	222.211	169.818	-38.042	51.909	-133.846	172.192	49.950	-135.439	206.963	168.744	-90.566	200.660	-30.438	187.740	0.00043986	0.0004914	0.00011332	1362.1	4.2186e-06	5.9363e-06	1355.2	365.89	3.7773e-06	5.487e-06	417.56	138.94	120.33	41.769	4.1468e-06	51.283	0.00058285	0.00058503	0.00016503	1375.6	6.3303e-06	6.5714e-06	1372.7	371.42	6.5967e-06	6.2352e-06	424.47	142	123.13	42.628	6.3955e-06	52.735	167.804	-34.287	-27.283	-121.997	-35.308	17.399	-122.233	-117.709	-27.451	25.632	-118.000	-114.233	-113.804	-108.475	-7.479	-109.723	-8191	255	
1090.994	1	1	0	0	0.060684	0.079201	0.23205	0.11202	0.20849	0.2146	0.069638	0.30107	0.036058	0.21509	0.29249	0.32539	0.15855	0.1427	0.13194	0.16966	0.3125	-0.75208	-0.25417	-0.65	-1.1	-0.16458	-1.0625	-1.15	-0.2375	-0.88958	-0.55208	-0.3375	-1.1313	-0.1625	-0.74375	-0.64583	8.334	0.128	90.018	196.096	7.294	105.543	175.186	109.324	210.420	-106.236	207.212	210.020	59.640	-66.064	152.709	136.036	0.00043746	0.00057917	0.00012403	1361.7	5.2286e-06	5.1537e-06	1352.1	365.49	4.4085e-06	4.9723e-06	418.4	138.33	120.99	41.7	3.1194e-06	51.343	0.00057745	0.00058688	0.00016576	1375.5	6.2501e-06	6.5596e-06	1373.1	371.96	6.633e-06	6.5156e-06	424.48	141.85	123.52	42.578	6.4446e-06	52.759	171.497	-74.521	-29.838	-122.052	-9.904	27.528	-122.317	-117.868	-19.971	31.768	-118.115	-114.238	-113.567	-108.600	-54.833	-109.353	-8191	255	
1091.067	1	1	0	0	0.18703	0.13104	0.24424	0.32696	0.025914	0.063181	0.12294	0.22068	0.088889	0.067917	0.19385	0.35658	0.095178	0.035444	0.092715	0.13383	0.3125	-0.8875	-0.31667	-0.55833	-0.98333	-0.09375	-0.7375	-0.9125	-0.03125	-0.80208	-0.625	-0.22917	-1.0458	-0.3625	-0.54375	-0.92292	70.540	39.065	194.003	167.078	135.836	9.399	139.367	185.399	-93.509	-11.866	87.130	204.552	181.098	68.235	158.466	-112.576	0.00044667	0.00062893	0.00014649	1357.3	3.2778e-06	6.1151e-06	1354.1	367.52	4.2311e-06	4.3809e-06	417.59	138.3	120.53	41.679	2.7919e-06	51.373	0.00058371	0.0006048	0.0001688	1374.8	6.4286e-06	6.4697e-06	1373.9	371.53	6.7539e-06	6.4693e-06	423.57	141.84	123.41	42.614	6.6865e-06	52.728	176.319	-37.682	-51.595	-121.986	-0.335	41.114	-122.239	-117.687	-26.466	14.825	-118.083	-114.249	-113.608	-108.580	-11.833	-109.311	-8191	255	
1091.186	1	1	0	0	0.11953	0.1255	0.22972	0.10462	0.22496	0.1623	0.20257	0.22818	0.11704	0.327	0.073284	0.17825	0.183	0.10713	0.18752	0.094731	0.32083	-0.89375	-0.47083	-0.33125	-0.91458	-0.20417	-0.50833	-1.0792	0.1	-0.75208	-0.7125	-0.2875	-1.2188	-0.29375	-0.5625	-0.9	136.740	209.744	-79.895	141.205	208.663	2.393	213.036	187.385	144.441	-101.501	140.727	-119.710	176.421	-73.655	217.451	-93.073	0.00044305	0.00056164	0.00011942	1360.8	3.5813e-06	6.4117e-06	1354.4	366.09	4.1964e-06	4.6303e-06	417.06	138.6	120.78	41.667	3.916e-06	51.323	0.00057471	0.00059993	0.00016339	1376	6.3978e-06	6.534e-06	1371.5	371.31	6.57e-06	6.3079e-06	424.34	141.87	123.6	42.595	6.5511e-06	52.675	171.536	-64.057	-16.129	-122.128	-28.543	-0.499	-122.416	-117.786	-51.448	30.700	-118.033	-114.220	-113.427	-108.580	-1.574	-109.135	-8191	255	
1091.282	1	1	0	0	0.21317	0.26466	0.10817	0.1803	0.30662	0.15482	0.16888	0.24897	0.15361	0.11713	0.10848	0.33385	0.13035	0.1117	0.27934	0.28454	0.28333	-0.68542	-0.61458	-0.41875	-1.0312	-0.25625	-0.47708	-1.1792	-0.05625	-0.97292	-0.9	-0.32292	-1.0938	-0.475	-0.36875	-0.91875	-133.321	34.986	52.780	-67.858	30.924	9.101	-84.191	165.910	-134.977	18.052	-111.651	-126.221	192.941	-11.476	202.791	102.995	0.00046014	0.00043508	0.00014519	1363.8	5.1809e-06	5.3399e-06	1353.4	365.93	4.7396e-06	5.1046e-06	417.61	138.69	120.76	41.582	4.633e-06	51.389	0.0005802	0.00060651	0.00016557	1377	6.5713e-06	6.3946e-06	1373.4	371.42	6.6023e-06	6.456e-06	423.83	142.01	123.52	42.577	6.4044e-06	52.699	172.016	-59.124	-52.044	-122.079	-17.808	-5.657	-122.282	-117.721	-32.343	38.921	-118.157	-114.180	-113.500	-108.568	8.460	-109.328	-8191	255	
1091.379	1	1	0	0	0.07124	0.28052	0.17662	0.059187	0.15527	0.092493	0.42047	0.24284	0.070768	0.07328	0.15091	0.13998	0.2351	0.21611	0.14778	0.044169	0.23125	-0.7	-0.86458	-0.25	-0.81875	-0.33125	-0.45417	-1.2396	-0.11042	-0.61042	-1.0938	-0.125	-0.93125	-0.55625	0.04375	-1.1333	105.888	19.873	-103.591	165.922	145.501	-3.989	142.395	215.925	26.553	212.701	-49.486	173.008	203.929	188.611	10.358	211.740	0.00041083	0.00039984	0.00015525	1360.7	4.0369e-06	4.495e-06	1351.4	365.22	2.6503e-06	6.2444e-06	417.21	138.39	121.22	41.492	3.3187e-06	51.299	0.0005801	0.00057192	0.00016177	1374.4	6.273e-06	6.4655e-06	1370.5	371.47	6.4134e-06	6.3611e-06	423.48	141.74	123.6	42.521	6.2881e-06	52.71	172.807	-54.534	-36.008	-122.090	6.108	25.899	-122.200	-117.769	-40.325	1.543	-118.063	-114.356	-113.764	-108.646	-18.852	-109.277	-8191	255	
1091.499	1	1	0	0	0.24771	0.24987	0.09422	0.14012	0.051729	0.28379	0.23599	0.19653	0.13458	0.17849	0.16759	0.23771	0.16519	0.091405	0.15692	0.43686	0.0875	-0.4	-0.96667	-0.21667	-0.96667	-0.64375	-0.23542	-1.0229	-0.18333	-0.325	-1.1063	-0.39167	-1.1396	-0.73958	0.16875	-0.97917	52.599	209.602	-57.411	133.159	-34.587	-98.553	138.116	221.040	-19.153	206.728	94.188	188.752	-85.314	201.757	206.316	73.549	0.00043937	0.0003517	9.3169e-05	1359.3	1.7988e-06	4.3277e-06	1349.8	366.82	4.8272e-06	4.1838e-06	418.25	138.37	120.34	41.597	4.2354e-06	51.404	0.00056998	0.00058364	0.00016132	1373.2	6.3492e-06	6.3541e-06	1369.4	371.65	6.4677e-06	6.3845e-06	424.11	141.85	123.32	42.578	6.4368e-06	52.737	167.734	-59.146	-35.641	-121.946	64.262	28.454	-122.409	-117.535	-36.644	-4.619	-117.880	-114.341	-113.526	-108.607	-9.338	-109.308	-8191	255	
1091.595	1	1	0	0	0.15592	0.086339	0.12407	0.31258	0.19901	0.16049	0.44616	0.2343	0.2577	0.20512	0.08179	0.21363	0.28914	0.28466	0.3803	0.30435	-0.022917	-0.31458	-0.99792	-0.23333	-0.76667	-0.80833	-0.26458	-0.91875	-0.275	-0.28125	-1.1646	-0.43125	-0.65417	-0.8125	-0.13958	-0.97708	14.618	182.956	42.577	197.874	-16.100	-100.263	98.213	118.553	31.502	-21.926	-94.744	204.974	147.907	193.465	74.121	117.388	0.00044514	0.00043811	0.00014181	1363.1	4.9494e-06	5.1257e-06	1352.1	365.53	6.4356e-06	4.9039e-06	416.11	138.7	120.49	41.537	2.9815e-06	51.166	0.00056293	0.00059055	0.00016302	1373.9	6.4298e-06	6.4085e-06	1371.8	371.89	6.4874e-06	6.5393e-06	423.45	141.84	123.36	42.596	6.5843e-06	52.638	170.955	-55.207	-47.657	-121.987	3.220	31.424	-122.137	-117.711	-50.246	17.780	-118.004	-114.388	-113.389	-108.579	-6.821	-109.061	-8191	255	
1091.692	1	1	0	0	0.042343	0.047818	0.23492	0.30567	0.20628	0.027372	0.23779	0.28492	0.1852	0.1636	0.34432	0.099045	0.22738	0.30713	0.12952	0.049179	-0.22708	-0.16458	-0.82292	-0.20833	-0.4875	-0.875	-0.46875	-1.0333	-0.45625	-0.041667	-1.1979	-0.4375	-0.50833	-1.2687	0.0125	-0.77708	223.381	43.452	182.333	220.222	82.823	171.373	147.247	156.506	-30.721	-44.256	160.448	113.426	-111.597	-108.229	-78.073	197.388	0.00043008	0.00076318	0.00013823	1354.2	3.9349e-06	5.8483e-06	1353.7	366.55	4.0909e-06	5.2261e-06	417.03	137.62	120.36	41.68	5.6834e-06	51.136	0.00057551	0.00059955	0.00016075	1372.5	6.3509e-06	6.3222e-06	1371.5	371.66	6.4089e-06	6.5177e-06	423.66	141.71	123.42	42.528	6.5673e-06	52.648	169.475	-39.614	-34.698	-122.009	-25.187	46.973	-122.312	-117.570	-50.809	11.199	-118.057	-114.176	-113.458	-108.439	5.314	-109.304	-8191	255	
1091.763	1	1	0	0	0.23351	0.021334	0.10283	0.27713	0.20171	0.10535	0.19409	0.20922	0.20767	0.021521	0.25431	0.16152	0.24855	0.080753	0.12413	0.13176	-0.42917	-0.064583	-0.99375	-0.48333	-0.22917	-0.99375	-0.23542	-0.925	-0.65417	-0.1125	-1.2083	-0.53333	-0.50208	-1.0625	-0.11875	-1.0208	139.743	89.418	139.179	170.468	-51.233	76.855	207.592	172.258	129.992	5.753	100.373	191.441	198.899	176.137	-129.527	125.221	0.00042914	0.0005084	0.00014915	1363.4	4.4733e-06	4.7829e-06	1347.2	365.89	4.106e-06	3.4073e-06	416.64	138.44	120.35	41.775	5.1351e-06	51.142	0.00056841	0.00058832	0.00016223	1374.4	6.4303e-06	6.2703e-06	1369.6	371.91	6.6737e-06	6.6487e-06	423.85	141.72	123.44	42.628	6.5295e-06	52.599	168.443	-49.560	-34.819	-122.182	-13.810	6.760	-122.347	-117.446	-14.030	35.701	-117.994	-114.329	-113.543	-108.745	19.316	-109.057	-8191	255	
1091.882	1	1	0	0	0.2036	0.078562	0.097006	0.19449	0.14987	0.19354	0.4761	0.37918	0.12258	0.042136	0.29877	0.042549	0.16746	0.21175	0.23636	0.3888	-0.59167	0.05	-0.93125	-0.60208	-0.23542	-0.88958	-0.3375	-0.80208	-0.71458	-0.10625	-1.1333	-0.51042	-0.1875	-1.0917	-0.1625	-0.64375	87.838	132.248	-131.018	180.611	-102.061	36.241	184.616	206.737	54.719	-13.751	161.730	69.961	6.999	217.184	168.111	183.902	0.00045297	0.00060363	0.00013432	1358.1	2.8351e-06	7.4428e-06	1354.7	366.13	4.3467e-06	7.0056e-06	418.17	138.79	121.02	41.682	4.7187e-06	51.285	0.00057632	0.00060422	0.00016825	1374.6	6.6027e-06	6.5008e-06	1371.6	371.46	6.3893e-06	6.6607e-06	424.89	141.89	123.52	42.625	6.4911e-06	52.751	172.110	-45.539	-45.448	-121.927	9.110	1.318	-122.313	-117.558	-15.348	-2.208	-118.195	-114.324	-113.644	-108.694	20.087	-109.247	-8191	255	
1091.978	1	1	0	0	0.12758	0.36581	0.11148	0.23317	0.14909	0.16091	0.096563	0.26795	0.08883	0.10031	0.36708	0.13956	0.17617	0.18175	0.17456	0.099342	-0.49167	-0.12292	-0.76667	-0.8	-0.083333	-0.99583	-0.47917	-0.4	-1.0354	-0.12083	-0.84375	-0.75625	-0.23125	-1.1479	-0.36667	-0.32917	44.831	61.060	168.245	210.631	-79.453	-132.188	109.451	167.209	109.271	-8.915	181.931	120.448	128.988	191.984	98.169	194.558	0.00045252	0.00062791	0.00013415	1362.1	4.7923e-06	4.0847e-06	1354.5	365.57	5.2981e-06	4.5534e-06	418.86	138.81	120.61	41.646	2.8712e-06	51.264	0.00057241	0.00060596	0.0001696	1375.9	6.4976e-06	6.6607e-06	1372.6	371.78	6.493e-06	6.5552e-06	424.21	142.1	123.59	42.605	6.4841e-06	52.633	170.875	-22.416	-53.734	-122.184	-11.052	-4.879	-122.338	-117.669	-13.830	21.483	-118.035	-113.874	-113.607	-108.489	6.682	-109.475	-8191	255	
1092.074	1	1	0	0	0.13448	0.18485	0.086983	0.24039	0.071225	0.31624	0.27468	0.15844	0.21895	0.13086	0.28068	0.21141	0.0728	0.12032	0.2036	0.29029	-0.75833	0.033333	-0.87708	-0.97292	-0.047917	-0.9	-0.54375	-0.37708	-0.92917	-0.2625	-0.725	-0.73333	-0.10625	-1.1271	-0.55625	-0.36458	190.457	-21.059	109.951	220.640	-74.322	-30.193	190.515	184.268	10.866	-79.457	194.814	191.304	-90.419	209.807	190.304	216.641	0.00044233	0.00039595	0.00017692	1358.6	4.162e-06	5.8802e-06	1350.5	365.55	4.3123e-06	7.0687e-06	418.88	137.71	120.52	41.645	5.5374e-06	51.154	0.00057264	0.00060387	0.00017133	1373.7	6.7818e-06	6.4489e-06	1372.1	371.64	6.5073e-06	6.6505e-06	424.72	141.63	123.3	42.625	6.6112e-06	52.654	169.054	-37.905	-35.287	-122.195	-7.940	19.162	-122.211	-117.398	-62.385	15.124	-118.043	-114.289	-113.656	-108.448	-8.766	-109.252	-8191	255	
1092.171	1	1	0	0	0.24884	0.14731	0.035716	0.19006	0.23939	0.10938	0.27824	0.14714	0.21729	0.19529	0.27857	0.1266	0.17243	0.5714	0.052787	0.019882	-0.54167	-0.1125	-0.70833	-0.95417	0	-0.86875	-0.63958	-0.29167	-1.0125	-0.0875	-0.75625	-0.92917	-0.05	-1.0021	-0.66042	-0.21667	113.266	-87.875	-99.215	134.522	40.573	112.018	168.783	187.165	-81.878	143.311	49.774	64.492	191.916	87.442	-83.723	-130.376	0.00047643	0.00044164	0.00017146	1361.5	5.1e-06	3.3086e-06	1353.4	366	5.5818e-06	6.811e-06	415.22	138.49	120.41	41.725	4.0537e-06	51.462	0.00057433	0.00061393	0.00016412	1374.7	6.4416e-06	6.6478e-06	1372.1	371.92	6.4927e-06	6.7037e-06	423.57	142.07	123.38	42.595	6.4775e-06	52.706	168.643	-61.994	-55.603	-122.125	0.865	-12.953	-122.281	-117.744	-30.016	-11.639	-118.103	-114.251	-113.622	-108.634	-13.407	-109.064	-8191	255	
1092.291	1	1	0	0	0.17784	0.17589	0.073424	0.11174	0.1865	0.10634	0.24357	0.14811	0.29464	0.1777	0.11211	0.52513	0.20992	0.34869	0.088088	0.12904	-0.6125	-0.16667	-0.36667	-1.0979	-0.027083	-0.72708	-0.78958	-0.425	-0.90417	-0.18333	-0.34583	-1.0354	-0.10417	-0.79583	-0.68125	-0.08125	-30.282	88.823	-86.306	207.799	-30.484	-63.335	163.042	25.346	-15.307	-9.192	84.496	63.868	136.698	165.312	182.780	157.269	0.00046579	0.00052586	0.00013797	1361.8	3.6177e-06	3.197e-06	1350.2	365.12	6.164e-06	5.3672e-06	417.03	138.36	121.03	41.649	5.2375e-06	50.99	0.00057136	0.00060015	0.00016926	1376.3	6.5106e-06	6.4824e-06	1370.5	371.38	6.4972e-06	6.5438e-06	424.23	141.84	123.58	42.572	6.7241e-06	52.619	171.897	-58.220	-40.003	-121.967	5.035	-3.631	-122.320	-117.562	-33.597	22.452	-118.041	-114.147	-113.634	-108.462	-5.079	-109.209	-8191	255	
1092.363	1	1	0	0	0.090217	0.027809	0.10453	0.28471	0.26797	0.086115	0.45785	0.1552	0.1286	0.1238	0.34992	0.106	0.35285	0.11605	0.36044	0.25234	-0.63333	-0.28542	-0.28542	-0.99792	0.035417	-0.65833	-0.9375	-0.0625	-0.78542	-0.37292	-0.3125	-1.0792	-0.10417	-0.79583	-0.82292	-0.039583	-66.882	85.857	42.779	-124.407	-15.860	-16.928	137.551	-58.631	84.534	58.737	-123.078	-88.985	-23.273	-1.575	-104.404	115.029	0.00038265	0.00053306	0.00014364	1362.1	3.4459e-06	4.4986e-06	1350.2	365.44	5.4906e-06	4.9469e-06	416.99	138.92	120.59	41.493	5.7242e-06	51.177	0.00057805	0.00061227	0.00016929	1375	6.5973e-06	6.4371e-06	1371.4	371.73	6.6274e-06	6.6971e-06	424.74	142.15	123.41	42.572	6.5863e-06	52.64	170.849	-42.569	-66.002	-122.060	40.873	-10.095	-122.455	-117.604	-25.754	-5.058	-117.682	-114.063	-113.550	-108.359	-4.059	-109.394	-8191	255	
1092.459	1	1	0	0	0.20141	0.18113	0.063352	0.34542	0.22205	0.096659	0.42385	0.21204	0.52977	0.26836	0.22303	0.1546	0.38864	0.2282	0.10916	0.217	-0.59583	-0.41875	-0.075	-1.0708	-0.26042	-0.44583	-0.98333	-0.25833	-0.5125	-0.54167	-0.36667	-0.95625	-0.52083	-0.44375	-1.125	-0.13958	93.059	-73.299	-34.538	188.862	93.984	2.211	121.888	202.027	-109.562	-63.814	192.024	102.339	169.964	138.403	13.351	221.614	0.00048762	0.00044697	0.00019328	1364	3.1386e-06	5.3944e-06	1355.2	367.02	3.1486e-06	4.5428e-06	417.7	138.93	120.9	41.673	3.9141e-06	51.195	0.00058927	0.00061227	0.00017418	1379	6.7657e-06	6.8478e-06	1374.1	372.24	6.6796e-06	6.7752e-06	424.21	142.07	123.56	42.595	6.571e-06	52.631	171.271	-36.976	-60.439	-122.036	-26.765	22.482	-122.140	-117.621	-34.914	24.342	-117.848	-113.938	-113.557	-108.522	-25.253	-108.975	-8191	255	
1092.580	1	1	0	0	0.28483	0.1585	0.15243	0.34911	0.10211	0.16067	0.078014	0.042794	0.17482	0.227	0.10824	0.063968	0.075856	0.19654	0.27926	0.2101	-0.42292	-0.49375	0.025	-0.98958	-0.31667	-0.33958	-1.1187	-0.175	-0.87292	-0.725	-0.070833	-0.88125	-0.35208	-0.25417	-0.94583	-0.016667	200.735	-40.311	12.755	186.924	136.768	145.003	-133.314	117.452	-93.631	106.575	1.009	-13.733	-129.913	-2.451	18.625	-97.085	0.00047836	0.00017499	0.00015196	1361.2	4.0823e-06	5.8142e-06	1358	365.56	4.8142e-06	5.0619e-06	419.4	138.74	120.61	41.472	2.9128e-06	51.133	0.00058828	0.00062956	0.00017227	1379.7	6.6815e-06	6.875e-06	1377.4	372.01	6.6701e-06	6.5489e-06	425.2	142.18	123.61	42.577	6.5312e-06	52.561	168.372	-37.197	-25.066	-122.217	12.315	-3.489	-122.381	-117.604	-19.454	5.823	-117.983	-114.287	-113.686	-108.448	-21.845	-109.359	-8191	255	
1092.676	1	1	0	0	0.070122	0.3314	0.26386	0.3922	0.10989	0.25488	0.10618	0.14912	0.24889	0.18869	0.24706	0.17124	0.037851	0.082769	0.27404	0.25603	-0.30208	-0.87292	0.06875	-1.2792	-0.25	-0.060417	-0.94583	-0.25	-0.36875	-0.92292	-0.09375	-0.95208	-0.40417	-0.089583	-1.0167	-0.17917	45.354	11.429	6.440	150.912	-28.000	219.420	-78.541	118.263	-135.189	183.745	-80.011	171.255	178.092	128.193	134.150	74.325	0.00045009	0.00035275	0.00014323	1367.9	2.9728e-06	5.4511e-06	1355.2	366.75	5.2296e-06	8.2579e-06	418.91	139.05	120.83	41.774	2.8862e-06	51.265	0.00058942	0.00060189	0.00016923	1380.5	6.5959e-06	6.6601e-06	1376.3	372.45	6.8823e-06	6.6995e-06	425.51	142.2	123.62	42.603	6.7954e-06	52.698	176.318	-52.006	-51.206	-122.190	4.822	2.993	-122.567	-117.630	-43.889	11.893	-118.076	-114.195	-113.524	-108.654	30.831	-109.228	-8191	255	
1092.772	1	1	0	0	0.18009	0.27102	0.13589	0.28547	0.22268	0.2404	0.34002	0.025276	0.12035	0.075138	0.49036	0.35087	0.17105	0.20186	0.089107	0.2481	-0.375	-0.83958	-0.04375	-0.9125	-0.43542	-0.020833	-1.1437	-0.37917	-0.28125	-0.91667	-0.34167	-0.94792	-0.75	-0.045833	-1.0312	-0.40625	115.133	27.730	109.350	-116.490	-1.916	-52.946	184.409	222.069	-52.399	-119.924	195.053	125.630	201.567	-91.027	201.899	33.807	0.0004647	0.00044308	0.00011268	1364.5	4.9767e-06	3.4419e-06	1353.5	366.96	4.8654e-06	3.7038e-06	418.3	138.33	120.74	41.562	2.9551e-06	51.174	0.00059246	0.00060542	0.0001737	1380.9	6.6914e-06	6.8216e-06	1376.6	372.61	6.8106e-06	6.6562e-06	424.85	141.96	123.46	42.607	6.7495e-06	52.662	173.933	-70.721	-50.796	-122.009	-15.520	26.032	-122.266	-117.709	-29.180	8.732	-118.060	-114.091	-113.966	-108.573	-25.349	-109.370	-8191	255	
1092.868	1	1	0	0	0.18807	0.1336	0.094053	0.44881	0.19196	0.10343	0.44207	0.32158	0.088879	0.12297	0.083857	0.10174	0.18672	0.080373	0.085861	0.34209	0.14167	-0.85417	0.097917	-0.60208	-0.66875	0.039583	-1.1396	-0.53125	-0.25833	-1.1646	-0.20417	-0.59583	-0.9875	-0.0083333	-0.72708	-0.45625	70.895	-130.769	-94.875	-126.924	-125.321	37.035	133.894	156.633	-32.330	114.936	-23.899	108.843	-109.930	-1.138	-48.919	218.622	0.00045968	0.00043892	0.00012068	1373.3	5.0752e-06	7.2238e-06	1361.6	367.29	5.0162e-06	2.8156e-06	419.01	138.83	120.83	41.801	4.9517e-06	51.283	0.0005865	0.00061766	0.00017128	1382.7	6.8233e-06	6.9842e-06	1380.1	373.11	6.9903e-06	6.8008e-06	425.47	142.16	123.56	42.703	6.7908e-06	52.726	172.904	-58.403	-54.347	-122.034	-6.601	53.883	-122.276	-117.538	-41.693	79.952	-117.799	-114.132	-113.777	-108.366	6.274	-109.209	-8191	255	
1092.962	1	1	0	0	0.17373	0.06975	0.21999	0.17533	0.12043	0.1224	0.40975	0.39685	0.16628	0.32941	0.19985	0.14855	0.22209	0.3218	0.018841	0.21791	0.26458	-0.88542	-0.11875	-0.85417	-0.79167	0.091667	-1.025	-0.72917	-0.125	-0.94375	-0.30208	-0.56042	-0.8375	-0.20833	-0.86042	-0.76875	62.020	-11.468	-30.560	-87.863	135.972	-98.390	171.715	151.862	-18.362	0.992	192.205	65.393	177.667	-100.528	82.670	191.184	0.00048988	0.00059057	0.000152	1364.1	4.3927e-06	4.5196e-06	1356.6	366.69	4.8366e-06	4.8279e-06	419.25	138.67	120.65	41.741	5.2563e-06	51.378	0.00058985	0.00061817	0.00017028	1382.1	6.6826e-06	6.8385e-06	1380.3	373.15	6.8773e-06	6.6787e-06	425.53	142.15	123.61	42.71	6.8029e-06	52.825	164.979	-47.021	-32.719	-121.981	16.374	-4.645	-122.180	-117.783	-22.952	-31.460	-118.285	-114.083	-113.579	-108.545	2.230	-109.211	-8191	255	
1093.059	1	1	0	0	0.13823	0.005543	0.22981	0.44116	0.11518	0.15052	0.22946	0.044873	0.22657	0.21401	0.19823	0.29234	0.36348	0.19483	0.20811	0.14974	0.10417	-0.8375	-0.48125	-0.50833	-1.1042	0.1	-0.93333	-0.66875	0.13333	-0.87917	-0.40417	-0.47292	-1.2083	-0.1625	-0.65833	-0.64792	72.278	201.045	-133.292	-135.501	221.123	162.338	196.336	-121.001	-75.409	-59.015	1.612	166.521	-75.633	215.222	-134.074	-101.739	0.00047038	0.00034273	0.00019481	1369.8	3.4147e-06	5.9756e-06	1365.6	368.67	4.3551e-06	4.5499e-06	418.45	139.12	120.68	41.693	3.4107e-06	51.379	0.00060103	0.00061893	0.00017393	1385	6.6967e-06	7.0385e-06	1381.7	373.37	6.9346e-06	6.7887e-06	425.36	142.39	123.58	42.673	6.789e-06	52.761	169.871	-55.079	-37.840	-121.883	-0.300	15.606	-122.297	-117.666	-53.262	21.050	-117.965	-114.051	-113.323	-108.713	4.020	-109.293	-8191	255	
1093.179	1	1	0	0	0.21216	0.31958	0.20993	0.33925	0.13513	0.021345	0.029977	0.22264	0.1609	0.1085	0.19223	0.094897	0.095532	0.37078	0.23527	0.072502	0.27083	-0.89375	-0.28333	-0.43542	-0.97083	-0.052083	-0.78542	-0.73542	-0.014583	-0.98333	-0.70833	-0.31667	-1.0104	-0.44375	-0.65833	-1.0042	172.862	59.741	192.010	194.134	166.769	4.941	194.791	-134.747	-87.589	219.184	90.148	207.767	189.665	96.754	45.499	-12.127	0.00039147	0.00033299	0.00015221	1367.8	3.5838e-06	5.0142e-06	1364.4	368.46	4.4553e-06	5.3774e-06	417.92	139.41	121.25	41.664	4.8558e-06	51.221	0.00058719	0.00060523	0.00017411	1383.9	6.7665e-06	6.7682e-06	1382.2	373.08	6.7631e-06	6.6322e-06	425.65	142.43	123.69	42.601	6.5936e-06	52.702	169.602	-44.485	-45.945	-122.100	10.368	-26.784	-122.090	-117.716	-51.942	-0.271	-118.104	-114.155	-113.655	-108.303	9.786	-109.181	-8191	255	
1093.275	1	1	0	0	0.096301	0.091264	0.1819	0.10152	0.13761	0.22753	0.2419	0.20446	0.087355	0.17391	0.31758	0.012958	0.2183	0.14846	0.3341	0.40259	0.4	-0.76875	-0.525	-0.36458	-0.91042	-0.27917	-0.26667	-1.1688	-0.15625	-0.58542	-0.52917	-0.225	-1.0812	-0.54167	-0.32292	-1.2167	168.121	200.338	95.930	132.916	-96.105	223.233	127.129	84.965	218.108	-45.323	157.036	-92.457	-118.480	171.764	75.165	-134.439	0.00044774	0.00047453	0.00019001	1371.2	4.7994e-06	2.7368e-06	1361.1	365.94	4.1701e-06	3.5227e-06	419.14	138.52	121.11	41.889	6.6685e-06	51.399	0.00059322	0.00060066	0.0001686	1384.2	6.6657e-06	6.8352e-06	1380.3	372.66	6.4907e-06	6.5718e-06	425.06	142.04	123.55	42.662	6.7931e-06	52.781	167.440	-46.519	-49.573	-122.184	-7.669	21.827	-122.156	-117.650	-32.384	48.510	-118.126	-114.305	-113.403	-108.348	-11.828	-109.410	-8191	255	
1093.372	1	1	0	0	0.12233	0.19773	0.054637	0.30494	0.25083	0.0555	0.18861	0.22286	0.22138	0.18819	0.23845	0.10596	0.14931	0.01296	0.066844	0.047099	0.29167	-0.59792	-0.60625	-0.13333	-0.69375	-0.44792	-0.38125	-0.96875	0.072917	-0.61042	-0.87708	-0.20208	-1.0604	-0.49375	-0.16042	-0.98333	59.005	163.188	93.605	147.632	172.100	-68.444	156.113	145.832	134.269	-45.871	93.336	97.850	160.044	-101.237	101.580	-85.656	0.00047105	0.00042151	0.00011332	1363.7	5.2884e-06	7.6591e-06	1359.8	368.08	3.3409e-06	2.8288e-06	417.85	138.78	120.66	41.601	4.8825e-06	51.384	0.00057677	0.00060338	0.00017048	1378.4	6.538e-06	6.7335e-06	1377.7	372.98	6.7443e-06	6.6078e-06	425.14	142.25	123.54	42.642	6.7426e-06	52.737	169.687	-47.858	-42.721	-121.912	-5.793	9.385	-122.005	-117.558	-35.813	-6.151	-118.047	-113.900	-113.594	-108.654	-1.521	-109.080	-8191	255	
1093.468	1	1	0	0	0.075251	0.18434	0.05207	0.19717	0.072993	0.10072	0.19577	0.54113	0.038085	0.10021	0.19147	0.21247	0.17132	0.1762	0.089036	0.25799	0.18542	-0.65417	-0.78958	-0.35833	-0.825	-0.44792	-0.21667	-1.0833	-0.19167	-0.47917	-0.97917	0.058333	-1.0333	-0.54792	-0.058333	-1.1063	51.147	-6.712	112.004	173.286	89.945	216.822	172.064	148.565	90.958	54.535	-66.933	-130.302	187.547	-134.979	-117.955	207.789	0.00047684	0.00029717	0.00013199	1368.1	4.4652e-06	6.923e-06	1360.3	366.52	2.9631e-06	4.8387e-06	418.99	139.05	121.06	41.737	3.8935e-06	51.359	0.0005921	0.00061926	0.0001648	1379.9	6.5594e-06	6.5781e-06	1377.9	372.77	6.6676e-06	6.7061e-06	425.86	142.18	123.78	42.624	6.6005e-06	52.711	168.633	-26.280	-37.441	-121.960	7.764	0.501	-121.934	-117.698	-37.874	31.239	-118.265	-114.012	-113.413	-108.515	-4.561	-109.140	-8191	255	
1093.588	1	1	0	0	0.23181	0.10741	0.26553	0.49895	0.14467	0.27247	0.25508	0.10186	0.24561	0.042943	0.26162	0.10219	0.14278	0.28163	0.24447	0.16764	0.091667	-0.49167	-0.81667	-0.38958	-0.65	-0.72083	-0.375	-1.2021	0	-0.48542	-1.2958	0.020833	-0.91667	-0.85833	-0.20625	-0.925	143.924	112.582	204.228	183.945	194.289	129.626	135.070	135.530	99.735	7.419	135.643	196.225	218.760	163.542	16.881	-87.412	0.00045922	0.00063713	0.00014739	1371.4	2.195e-06	5.0989e-06	1359.8	366.56	5.0115e-06	3.2899e-06	417.31	138.94	120.71	41.745	4.9104e-06	51.34	0.0005809	0.00060654	0.00017026	1383	6.4233e-06	6.5563e-06	1379.7	372.74	6.6271e-06	6.6962e-06	424.92	142.03	123.68	42.69	6.5757e-06	52.751	172.925	-71.568	-27.733	-121.906	-7.221	33.500	-122.182	-117.382	-51.669	1.045	-117.935	-114.111	-113.430	-108.412	-13.591	-109.091	-8191	255	
1093.660	1	1	0	0	0.049738	0.19502	0.075889	0.25789	0.21044	0.16597	0.41046	0.2381	0.0305	0.26629	0.31397	0.45005	0.018687	0.12926	0.10918	0.2445	-0.047917	-0.4	-0.87708	-0.20208	-0.52292	-0.80208	-0.32292	-1.0125	-0.50417	-0.045833	-1.3438	-0.072917	-0.71042	-1.0625	0.041667	-1.1812	142.351	34.236	-91.777	-126.931	14.097	-125.146	164.881	127.505	-0.936	-50.365	166.932	196.434	36.172	-55.814	149.396	170.162	0.00042896	0.00060917	0.0001187	1368.3	5.3811e-06	3.9075e-06	1357	367.12	5.3684e-06	4.5358e-06	418.65	138.79	121.37	41.408	5.9472e-06	51.158	0.00057444	0.00062184	0.00016636	1381.5	6.5007e-06	6.5135e-06	1375.7	372.74	6.7811e-06	6.6634e-06	425.12	142.31	123.88	42.541	6.7348e-06	52.7	166.385	-53.923	-36.389	-121.995	11.749	1.839	-122.424	-117.352	-28.755	7.383	-118.026	-114.093	-113.252	-108.457	-21.519	-109.141	-8191	255	
1093.756	1	1	0	0	0.26038	0.30414	0.45175	0.25614	0.1452	0.053141	0.076071	0.21011	0.11033	0.3467	0.091976	0.086188	0.207	0.24245	0.30802	0.17888	-0.1875	-0.15208	-0.96667	-0.39167	-0.61458	-0.60833	-0.275	-0.70833	-0.55417	0.01875	-1.1229	-0.20625	-0.31875	-0.96042	0.052083	-0.90208	64.063	156.677	179.394	158.249	109.057	201.989	140.144	-91.093	21.398	85.113	-15.706	216.348	198.974	-123.339	-11.665	60.294	0.00045298	0.00041022	0.00013712	1365.5	3.5993e-06	5.0717e-06	1357.4	367.5	5.225e-06	4.536e-06	418.56	138.18	120.71	41.674	6.4654e-06	51.376	0.00058764	0.00061205	0.00016403	1378.3	6.5343e-06	6.594e-06	1375.3	372.62	6.459e-06	6.4621e-06	425.21	141.96	123.7	42.614	6.5479e-06	52.742	171.293	-48.884	-52.248	-121.887	-3.375	9.903	-122.392	-117.570	-23.800	29.747	-118.189	-114.276	-113.471	-108.745	0.933	-109.366	-8191	255	
1093.852	1	1	0	0	0.20615	0.18405	0.22393	0.25151	0.18067	0.039573	0.20918	0.35315	0.083621	0.14843	0.19224	0.30348	0.21214	0.12672	0.15557	0.28917	-0.25833	0.047917	-0.94583	-0.3	-0.25625	-1	-0.26458	-0.81875	-0.51667	-0.10417	-1.3062	-0.54583	-0.19167	-0.99375	-0.10833	-0.65417	36.140	-25.683	-116.997	218.558	68.621	27.524	215.238	163.885	-20.602	62.436	90.028	136.874	-128.789	-133.237	79.414	200.331	0.00048353	0.00043185	0.00018528	1365.5	4.6699e-06	5.3437e-06	1356.9	366.51	3.1957e-06	3.7757e-06	419.44	138.98	121.45	41.661	4.3548e-06	51.272	0.00056805	0.0005962	0.00016548	1377.2	6.4566e-06	6.3934e-06	1372.9	372.54	6.4562e-06	6.386e-06	425.08	141.97	123.7	42.618	6.5661e-06	52.746	165.765	-32.975	-45.624	-122.092	-5.569	27.283	-122.151	-117.385	-45.503	25.893	-117.874	-114.364	-113.619	-108.592	-6.597	-109.280	-8191	255	
1093.971	1	1	0	0	0.26905	0.077271	0.20185	0.31258	0.28945	0.066553	0.22911	0.1788	0.17271	0.10231	0.255	0.23979	0.1564	0.086513	0.33318	0.63478	-0.34583	0.14583	-0.94375	-0.67917	-0.13333	-0.97708	-0.31458	-0.67917	-0.775	0.14583	-1.025	-0.61875	0.03125	-1.2771	0.045833	-0.59167	153.093	122.265	111.021	204.238	186.506	115.508	136.636	130.528	208.476	68.261	201.173	130.954	-100.464	101.421	-17.943	189.410	0.00049191	0.00046969	0.00016987	1368.5	4.0478e-06	3.614e-06	1355	365.93	3.6803e-06	5.1516e-06	418.25	138.46	120.54	41.841	3.7888e-06	51.193	0.00056326	0.00061181	0.00016643	1379.5	6.5659e-06	6.4441e-06	1374.2	372.38	6.4893e-06	6.7337e-06	424.86	141.86	123.41	42.656	6.4579e-06	52.704	171.982	-50.611	-47.297	-122.041	-8.146	-16.908	-122.224	-117.477	-30.954	10.840	-118.011	-114.316	-113.477	-108.532	29.677	-108.922	-8191	255	
1094.067	1	1	0	0	0.083951	0.025014	0.15363	0.07669	0.10448	0.12526	0.23397	0.32507	0.23601	0.20673	0.21626	0.27995	0.21358	0.2213	0.36892	0.2628	-0.56042	0.05625	-0.59792	-0.68333	-0.0125	-0.94375	-0.28958	-0.50625	-0.6625	0.12083	-0.72708	-0.74375	0.03125	-0.92292	0.033333	-0.31042	63.488	-24.963	140.656	-104.576	205.553	100.336	155.641	208.387	-0.430	-69.783	-119.989	124.339	131.849	-101.559	-43.695	148.796	0.00046952	0.000607	0.00014475	1362.1	5.027e-06	5.851e-06	1350.9	367.08	6.331e-06	4.7442e-06	419.69	138.53	120.63	41.717	3.9399e-06	51.293	0.00057326	0.00059446	0.00016438	1376.8	6.488e-06	6.3397e-06	1372	372.21	6.4952e-06	6.4374e-06	424.91	141.88	123.33	42.578	6.5116e-06	52.712	167.008	-59.107	-46.163	-121.845	27.923	21.003	-122.116	-117.478	-34.634	26.369	-117.758	-114.199	-113.394	-108.545	-0.504	-109.276	-8191	255	
1094.163	1	1	0	0	0.16447	0.20252	0.081245	0.25566	0.054608	0.17545	0.33469	0.16165	0.23698	0.037006	0.22342	0.22914	0.24816	0.080413	0.31982	0.054857	-0.63333	-0.15	-0.37708	-0.73333	0.033333	-0.95208	-0.46667	-0.33125	-0.81667	-0.03125	-0.56875	-0.89583	-0.12708	-0.69375	-0.36667	-0.28542	86.740	-84.762	221.774	115.120	57.598	11.659	113.446	196.960	186.510	23.309	135.935	190.151	199.177	-4.634	98.583	195.504	0.00042953	0.000213	0.00011687	1364.5	4.5788e-06	6.3376e-06	1354.1	366.65	2.9454e-06	5.8277e-06	419.19	138.36	120.37	41.646	5.0286e-06	51.2	0.00055531	0.00059735	0.00016113	1376.1	6.5137e-06	6.3774e-06	1371.6	372.17	6.2743e-06	6.5032e-06	424.87	141.99	123.27	42.607	6.3738e-06	52.695	174.006	-33.716	-64.058	-121.981	-3.987	20.197	-122.331	-117.411	-82.426	17.568	-117.950	-114.111	-113.520	-108.414	-12.435	-109.605	-8191	255	
1094.260	1	1	0	0	0.16716	0.056551	0.081676	0.27725	0.093537	0.17674	0.023311	0.080317	0.061195	0.087613	0.13177	0.087493	0.07595	0.049404	0.15285	0.27545	-0.31667	-0.13333	-0.43333	-1.0625	0.13542	-0.68542	-0.6375	-0.19375	-1.025	0.010417	-0.52083	-1.0333	0.035417	-0.92917	-0.5125	-0.064583	-103.926	53.932	69.832	209.133	-117.090	-65.660	171.395	-0.688	-59.950	-46.289	-52.187	-65.831	141.539	124.157	-38.787	-54.999	0.00045046	0.00064321	0.00014406	1361.6	5.2336e-06	3.7763e-06	1353.1	366.39	5.1654e-06	3.037e-06	418.38	138.97	120.2	41.599	1.6028e-06	51.337	0.0005682	0.00059169	0.00016539	1375.9	6.493e-06	6.5295e-06	1371.1	372.05	6.3687e-06	6.493e-06	424.3	141.91	123.37	42.559	6.3337e-06	52.733	171.963	-58.368	-68.401	-121.953	12.398	23.865	-122.226	-117.470	-12.536	-4.236	-117.934	-114.166	-113.614	-108.370	37.268	-109.038	-8191	255	
1094.356	1	1	0	0	0.10393	0.10056	0.11421	0.3815	0.14467	0.081306	0.097012	0.29371	0.24803	0.14	0.12863	0.04591	0.064764	0.17052	0.030787	0.22766	-0.57292	-0.25	-0.21667	-1.0021	-0.064583	-0.63125	-0.94167	-0.30625	-0.78333	-0.21667	-0.48542	-1.0625	-0.06875	-0.825	-0.69792	-0.2375	95.732	167.243	150.231	207.115	-111.325	175.855	161.880	168.693	131.901	204.076	120.986	-112.462	-1.954	-134.867	135.163	-82.097	0.00042427	0.00050714	0.00010089	1358.2	6.1511e-06	3.0351e-06	1349.6	365.93	4.9773e-06	5.7145e-06	419.36	138.51	120.89	41.685	5.2804e-06	51.353	0.00055634	0.00057595	0.00016296	1375	6.4283e-06	6.1764e-06	1369.3	371.69	6.3176e-06	6.2944e-06	424.48	142	123.45	42.657	6.4824e-06	52.648	168.921	-41.910	-36.247	-121.873	-4.485	5.484	-122.232	-117.385	-35.546	27.249	-117.926	-114.279	-113.291	-108.495	-6.181	-109.137	-8191	255	
1094.452	1	1	0	0	0.034374	0.013719	0.23105	0.11881	0.14736	0.20838	0.12454	0.1122	0.33259	0.12995	0.33856	0.38009	0.16392	0.058947	0.13347	0.16115	-0.4625	-0.4125	-0.125	-1.2437	0.0875	-0.49792	-0.95	-0.066667	-0.85417	-0.47708	-0.18542	-1.2396	-0.095833	-0.60625	-0.81667	-0.077083	198.357	86.203	34.153	-125.206	214.937	179.038	171.811	109.384	83.144	24.428	91.141	154.362	-81.242	188.728	117.870	-115.301	0.00047691	0.00027411	6.2182e-05	1358	3.7429e-06	7.921e-06	1353.1	365.63	4.2094e-06	4.8073e-06	417.17	138.53	120.67	41.647	4.7976e-06	51.446	0.00055526	0.00058764	0.00016414	1373.3	6.4298e-06	6.4839e-06	1370.8	371.49	6.4157e-06	6.3923e-06	424.12	141.75	123.42	42.588	6.4798e-06	52.796	172.302	-41.890	-44.340	-121.797	-36.920	8.686	-122.219	-117.450	-11.940	31.888	-117.854	-114.191	-113.541	-108.200	-26.357	-109.050	-8191	255	
1094.548	1	1	0	0	0.42643	0.13199	0.14652	0.039208	0.23132	0.14263	0.085457	0.26182	0.13487	0.23575	0.15876	0.29332	0.099335	0.41849	0.12418	0.18424	-0.38542	-0.46042	-0.18125	-1.1146	-0.1375	-0.50417	-0.93125	-0.10625	-0.81875	-0.54167	-0.19792	-0.96875	-0.17083	-0.52708	-0.85208	0.060417	-107.531	-100.042	-126.645	169.532	196.094	-1.545	206.710	-117.343	6.113	93.794	-119.071	195.619	3.466	164.296	31.796	103.798	0.00049607	0.00034511	0.00010367	1358	4.4156e-06	5.3876e-06	1350.8	365.72	2.86e-06	4.5335e-06	418.63	138.66	120.75	41.686	5.9435e-06	51.225	0.00057307	0.00057592	0.00015961	1374.4	6.2919e-06	6.5237e-06	1368.7	371.89	6.2816e-06	6.2328e-06	424.51	141.68	123.38	42.579	6.299e-06	52.718	171.687	-38.274	-48.687	-121.968	5.806	9.444	-122.125	-117.380	-54.105	15.990	-117.889	-113.994	-113.507	-108.174	7.426	-108.998	-8191	255	
1094.669	1	1	0	0	0.050968	0.21767	0.083287	0.075328	0.14054	0.073235	0.11081	0.18908	0.10432	0.30138	0.23154	0.19592	0.20449	0.51043	0.17945	0.17166	-0.42708	-0.76458	-0.17917	-1.1979	-0.375	-0.060417	-0.90417	-0.14375	-0.81667	-0.58542	-0.28125	-1.2521	-0.58958	-0.40625	-0.97917	-0.16875	43.205	75.286	56.100	-106.378	190.134	-11.890	-86.238	-119.508	64.720	59.889	39.526	206.101	-108.963	-128.110	21.464	-108.093	0.00046724	0.0005789	0.00013346	1360.7	4.8589e-06	4.3825e-06	1353.4	365.28	4.1982e-06	5.1957e-06	417.52	138.73	120.7	41.734	4.612e-06	51.256	0.00056708	0.00057236	0.00016828	1374.6	6.3795e-06	6.301e-06	1369	370.77	6.3038e-06	6.3824e-06	423.69	141.89	123.33	42.581	6.2346e-06	52.659	171.997	-45.104	-42.532	-121.859	-11.133	3.541	-122.135	-117.412	-17.638	14.616	-117.813	-113.916	-113.395	-108.374	-31.331	-109.041	-8191	255	
1094.765	1	1	0	0	0.1911	0.2856	0.4315	0.27838	0.14215	0.060296	0.2248	0.18474	0.21069	0.080226	0.037884	0.11444	0.22046	0.086651	0.011152	0.16417	-0.1375	-0.70208	0.095833	-1.0729	-0.32917	-0.2	-1.1333	-0.26042	-0.55625	-0.85208	-0.21875	-0.77917	-0.625	-0.27708	-0.98542	-0.32083	-30.928	127.597	-25.869	-126.211	54.286	207.385	197.235	184.266	-108.875	111.292	213.482	202.354	63.321	32.322	178.225	188.894	0.0004564	0.00034482	0.00018845	1363.8	5.4239e-06	6.1828e-06	1348.3	365.19	4.3812e-06	5.2754e-06	417.6	138.37	120.31	41.658	4.6581e-06	51.175	0.00057758	0.00057845	0.00016499	1373.6	6.3032e-06	6.3161e-06	1369.5	371.4	6.5385e-06	6.1811e-06	423.76	141.66	123.23	42.589	6.4079e-06	52.629	170.750	-20.715	-33.203	-121.983	8.036	-13.279	-122.089	-117.455	-36.649	23.618	-117.767	-114.152	-113.408	-108.376	-29.792	-109.007	-8191	255	
1094.861	1	1	0	0	0.51485	0.18846	0.14283	0.40294	0.41471	0.11325	0.071405	0.17288	0.24977	0.24922	0.19247	0.15613	0.045704	0.12843	0.029569	0.39095	-0.21458	-0.81667	0.10625	-0.9125	-0.7375	-0.035417	-1.25	-0.57292	-0.24375	-0.94792	-0.12292	-0.74583	-0.88333	0.01875	-0.91042	-0.31458	-55.649	139.024	206.187	-126.395	-44.576	39.097	71.493	161.674	-51.863	168.191	-8.832	-102.727	-121.310	-132.026	210.890	117.299	0.00042535	0.00052535	8.2329e-05	1363.8	2.9984e-06	5.019e-06	1355.3	365.9	5.2261e-06	5.0276e-06	418.63	138.56	120.67	41.547	3.9743e-06	51.371	0.00057204	0.00056964	0.00016516	1375	6.4456e-06	6.3566e-06	1373.3	371.75	6.4199e-06	6.2252e-06	424.38	141.92	123.51	42.499	6.2557e-06	52.705	170.693	-20.906	-37.267	-121.585	-6.543	-7.400	-122.033	-117.529	-24.885	12.096	-117.995	-114.017	-113.115	-108.224	-29.275	-109.207	-8191	255	
1094.957	1	1	0	0	0.19251	0.3144	0.095604	0.1846	0.041732	0.30219	0.12302	0.23855	0.083766	0.12697	0.18599	0.29955	0.13861	0.27165	0.21036	0.10451	0.16667	-1.0042	0.022917	-1.0312	-0.99375	-0.14792	-1.1792	-0.4125	-0.25208	-1.025	-0.3	-0.79583	-1.0708	-0.21042	-0.85417	-0.58125	-12.817	168.818	114.317	94.333	216.768	21.748	-129.534	178.810	202.300	31.532	221.529	213.322	98.239	187.291	168.318	141.550	0.00045096	0.00033771	0.00019033	1364.1	3.7209e-06	3.9704e-06	1352	364.39	3.6267e-06	5.6063e-06	417.13	139.16	120.53	41.739	4.486e-06	51.283	0.00058675	0.00059126	0.00016396	1376.1	6.3947e-06	6.4839e-06	1372.7	370.98	6.324e-06	6.1886e-06	423.73	142.09	123.29	42.573	6.4223e-06	52.732	170.343	-33.372	-35.195	-121.686	11.737	-4.842	-121.957	-117.409	-51.761	9.927	-117.931	-113.856	-113.466	-108.169	-27.966	-108.885	-8191	255	
1095.052	1	1	0	0	0.098521	0.21785	0.24745	0.34378	0.1225	0.18829	0.17713	0.10645	0.23485	0.1088	0.17544	0.064058	0.14297	0.10059	0.25148	0.12782	0.14375	-1.0438	-0.17083	-0.75	-0.975	-0.16875	-1.1979	-0.8375	0.041667	-1.0646	-0.43125	-0.675	-1.1708	-0.15625	-0.95	-0.67917	192.869	66.867	110.526	148.048	99.215	156.775	214.908	127.352	16.925	-10.511	119.075	93.363	213.688	210.311	23.229	-47.062	0.00041827	0.00056758	0.00012971	1365.3	3.5406e-06	4.6253e-06	1353.7	365.02	5.1968e-06	2.7475e-06	417.1	138.22	120.65	41.442	3.892e-06	51.186	0.00055208	0.00058552	0.00016311	1373.9	6.293e-06	6.5962e-06	1371.8	371.34	6.4559e-06	6.2965e-06	423.7	141.83	123.37	42.536	6.483e-06	52.653	170.993	-52.515	-44.474	-121.782	21.730	50.779	-121.885	-117.386	-49.174	28.310	-118.005	-114.018	-113.472	-108.414	-20.472	-109.106	-8191	255	
1095.148	1	1	0	0	0.17461	0.18626	0.29497	0.20171	0.19795	0.054354	0.31073	0.38202	0.25219	0.20907	0.19197	0.15604	0.2642	0.026739	0.1102	0.1659	0.2625	-0.82708	-0.27292	-0.38542	-0.99167	-0.19167	-0.93958	-0.825	-0.066667	-0.9125	-0.69583	-0.43542	-1.0187	-0.11458	-0.56458	-0.95	-35.337	-48.981	-65.903	199.590	70.669	102.144	89.121	189.829	195.957	-36.575	223.920	-119.910	153.448	12.604	40.184	67.108	0.0004427	0.00041303	0.00012716	1360.4	2.6549e-06	6.5332e-06	1353.1	365	4.769e-06	4.2785e-06	418.11	138.31	120.56	41.623	2.6773e-06	51.099	0.00057599	0.00059408	0.00016907	1375	6.3552e-06	6.547e-06	1372.8	371.63	6.681e-06	6.3121e-06	423.9	141.99	123.37	42.543	6.4492e-06	52.657	168.387	-44.618	-30.857	-121.627	4.392	8.362	-121.909	-117.253	-28.774	10.155	-117.737	-113.853	-113.388	-108.214	-17.232	-109.030	-8191	255	
1095.268	1	1	0	0	0.21307	0.024892	0.024176	0.18697	0.31332	0.2062	0.25037	0.27827	0.14679	0.18174	0.066598	0.18259	0.30049	0.22121	0.23949	0.15524	0.13333	-0.83333	-0.59792	-0.5125	-0.95833	-0.18958	-0.78333	-1	-0.058333	-1.0604	-0.70208	-0.29792	-1.1896	-0.5375	-0.51458	-0.96458	213.356	144.791	55.868	-89.010	-125.393	46.810	0.911	203.562	30.396	101.496	185.989	223.773	-96.047	170.973	98.552	-0.351	0.00045639	0.00029932	6.3615e-05	1358.7	3.1219e-06	6.3565e-06	1352.9	365.02	3.2909e-06	2.9253e-06	418.28	138.79	120.94	41.697	4.1209e-06	51.414	0.00056469	0.00058177	0.00016642	1374.3	6.2131e-06	6.2606e-06	1371.2	371.16	6.4756e-06	6.3704e-06	424.21	142.02	123.28	42.539	6.4088e-06	52.656	168.391	-38.032	-18.254	-121.642	6.885	32.969	-121.836	-117.138	-53.147	-43.324	-117.861	-114.019	-113.237	-108.448	3.119	-108.723	-8191	255	
1095.364	1	1	0	0	0.39636	0.22828	0.11766	0.1786	0.19421	0.24509	0.37742	0.25323	0.18005	0.23774	0.24621	0.30598	0.15685	0.1171	0.26025	0.33856	0.35417	-0.78542	-0.56875	-0.29792	-0.99375	-0.2625	-0.57917	-1.0604	-0.15833	-0.93125	-0.86667	-0.19583	-1.4771	-0.25625	-0.33958	-0.98125	144.398	-122.432	171.667	125.586	-20.346	175.555	196.508	122.624	157.771	59.604	130.036	207.933	191.134	158.548	33.817	59.269	0.00045779	0.00041855	0.00012898	1360.5	4.38e-06	4.0138e-06	1357.3	366.23	4.3798e-06	4.6983e-06	417.89	138.66	120.61	41.572	3.3453e-06	51.306	0.00056173	0.00059275	0.0001612	1374.5	6.3992e-06	6.4377e-06	1372.5	371.71	6.4764e-06	6.5005e-06	424.06	142.05	123.51	42.565	6.2592e-06	52.688	172.301	-42.567	-32.272	-121.891	6.110	-10.928	-121.970	-117.285	-34.788	33.700	-117.723	-113.849	-112.997	-108.352	-0.017	-109.440	-8191	255	
1095.461	1	1	0	0	0.26621	0.17869	0.25785	0.26889	0.34679	0.038344	0.36886	0.1348	0.22221	0.20406	0.063507	0.27077	0.097584	0.16045	0.15724	0.12167	0.24167	-0.81667	-0.68333	-0.26042	-0.91875	-0.48333	-0.43542	-0.93333	0.2625	-0.53542	-0.84792	-0.18958	-0.91458	-0.49167	-0.010417	-1.0187	-32.832	145.969	93.474	198.544	-13.255	221.503	192.005	-51.083	-33.845	84.268	0.306	167.215	96.900	-120.769	122.848	-47.708	0.0004869	0.00031042	0.00015212	1361.4	4.0811e-06	4.8039e-06	1352.6	365.95	4.8943e-06	5.8893e-06	416.13	138.94	120.29	41.674	4.8431e-06	51.425	0.00056425	0.00058166	0.00016582	1373.7	6.3569e-06	6.454e-06	1370.6	371.52	6.4531e-06	6.5712e-06	423.48	141.91	123.22	42.619	6.5702e-06	52.687	170.485	-60.130	-50.235	-121.875	-17.438	0.581	-121.945	-117.440	-61.545	-0.568	-117.920	-113.842	-113.240	-108.474	-1.891	-109.204	-8191	255	
1095.532	1	1	0	0	0.19002	0.17195	0.15465	0.098756	0.066277	0.10355	0.43549	0.1572	0.25558	0.12789	0.16124	0.30392	0.16386	0.25822	0.20086	0.15805	0.40625	-0.43542	-0.94167	-0.13958	-0.78958	-0.59792	-0.47708	-1.1979	-0.19167	-0.53333	-1.0208	-0.14167	-0.74167	-0.6125	-0.045833	-0.9375	87.427	-130.415	-52.333	-109.966	13.278	-29.723	207.383	207.301	-106.110	-134.859	199.700	220.538	174.701	204.740	-39.970	120.586	0.0004562	0.00044149	0.00019341	1360	3.5735e-06	5.5477e-06	1348.7	366.96	2.8049e-06	5.0501e-06	417.56	138.25	120.52	41.632	4.4112e-06	51.18	0.00058589	0.00060096	0.0001631	1374.5	6.3425e-06	6.4471e-06	1371.1	372.3	6.4365e-06	6.5703e-06	424.28	141.72	123.44	42.578	6.5546e-06	52.613	169.334	-68.083	-52.549	-121.786	18.826	30.501	-121.975	-117.329	-38.419	16.943	-117.749	-113.955	-113.216	-108.337	11.939	-108.954	-8191	255	
1095.628	1	1	0	0	0.31451	0.20106	0.1191	0.31997	0.18547	0.29955	0.30085	0.38323	0.12865	0.25091	0.31656	0.23909	0.21457	0.055359	0.065648	0.2142	0.16458	-0.33125	-0.9625	-0.29583	-0.78333	-0.54583	-0.28333	-0.9125	-0.19583	-0.22917	-0.96667	-0.16875	-0.80417	-0.72292	-0.17917	-1.0875	140.634	-9.524	-22.058	220.805	-127.810	98.435	196.435	167.324	158.391	209.035	-93.046	192.032	-62.242	-37.708	187.260	-133.408	0.00045668	0.00046576	0.00016116	1361.5	6.1551e-06	4.4891e-06	1352.2	366.44	3.4927e-06	5.4202e-06	417.58	138.98	120.64	41.643	5.8273e-06	51.576	0.00058037	0.00058845	0.00016567	1376.5	6.4425e-06	6.3946e-06	1371.8	372.21	6.425e-06	6.5092e-06	424.48	142.19	123.42	42.552	6.5514e-06	52.775	169.725	-52.560	-57.481	-121.878	-29.377	23.815	-122.055	-117.262	-35.343	36.005	-117.999	-114.000	-113.320	-108.304	11.006	-109.056	-8191	255	
1095.749	1	1	0	0	0.1743	0.19761	0.088348	0.19713	0.26425	0.27918	0.39019	0.43706	0.27618	0.21392	0.13723	0.34325	0.29206	0.075424	0.08528	0.134	0.095833	-0.20417	-0.86667	-0.26458	-0.52917	-0.73333	-0.31875	-1.0125	-0.48958	-0.1625	-1.1792	-0.0020833	-0.35833	-0.95625	-0.11458	-0.95833	-83.971	152.813	-9.118	-122.078	98.412	157.735	166.915	219.172	-75.816	109.382	192.579	200.442	204.187	38.614	187.915	179.507	0.0004534	0.00033294	0.00019578	1360.6	2.9413e-06	8.4147e-06	1351.5	365.97	5.7727e-06	5.3324e-06	417.93	138.17	120.69	41.545	3.8287e-06	51.301	0.00056444	0.00059571	0.00015971	1373.9	6.4687e-06	6.3885e-06	1372	371.88	6.4539e-06	6.4458e-06	424.58	141.75	123.56	42.541	6.4374e-06	52.688	171.436	-40.335	-42.130	-121.877	4.358	10.772	-121.929	-117.383	-28.613	-10.515	-117.786	-113.923	-113.362	-108.394	22.284	-109.224	-8191	255	
1095.845	1	1	0	0	0.14386	0.18507	0.092537	0.13448	0.16912	0.12001	0.14962	0.035097	0.066972	0.19201	0.13812	0.11247	0.1532	0.013653	0.18264	0.32326	-0.0875	0.11875	-0.90625	-0.34792	-0.38125	-0.84583	-0.0625	-0.9	-0.48333	-0.12708	-1.1479	-0.39792	-0.52083	-1.2729	-0.08125	-0.70208	-134.114	-104.219	-112.743	192.841	128.169	-123.106	186.186	209.444	47.672	-117.879	91.070	185.694	203.946	17.613	171.177	153.916	0.0004224	0.00034716	0.0001328	1359.6	4.47e-06	4.8009e-06	1353.3	366.59	6.4343e-06	5.377e-06	417.86	138.54	120.78	41.424	4.1453e-06	51.473	0.00056935	0.00059147	0.00016209	1373.8	6.4227e-06	6.378e-06	1372.7	372.38	6.4708e-06	6.4563e-06	423.63	141.77	123.51	42.5	6.5344e-06	52.753	170.543	-41.638	-40.089	-121.720	2.737	8.410	-122.142	-117.470	-14.295	26.146	-118.141	-114.112	-113.039	-108.358	-20.301	-108.963	-8191	255	
1095.941	1	1	0	0	0.25569	0.12309	0.1225	0.34727	0.18215	0.24993	0.47546	0.17305	0.18964	0.10316	0.057627	0.15384	0.28761	0.26285	0.16565	0.11425	-0.29167	0.18333	-0.89375	-0.64375	-0.26875	-0.90833	-0.16875	-0.72292	-0.70417	-0.11667	-1.1083	-0.49792	-0.22083	-1.0896	-0.20833	-0.59792	25.107	0.857	47.964	-81.420	-121.330	79.660	163.139	146.938	84.536	24.021	-133.990	184.180	-125.979	175.891	98.015	-105.287	0.00046489	0.00061189	0.0001476	1358.7	5.0427e-06	5.0266e-06	1350.4	366.16	4.0106e-06	3.2912e-06	417.27	138.53	121.17	41.613	5.5414e-06	51.38	0.00057712	0.00059376	0.00016393	1373	6.4832e-06	6.2534e-06	1370	371.7	6.4281e-06	6.4813e-06	424.21	141.9	123.42	42.58	6.5413e-06	52.719	167.883	-36.424	-45.121	-122.011	-12.332	34.875	-122.039	-117.215	-43.439	12.213	-117.656	-113.914	-113.495	-108.644	-15.892	-109.047	-8191	255	
1096.060	1	1	0	0	0.19896	0.16242	0.34749	0.13968	0.051302	0.14816	0.26487	0.24332	0.10453	0.02983	0.13313	0.41027	0.13341	0.11243	0.1952	0.32132	-0.35625	-0.05625	-0.75417	-0.56458	-0.13542	-0.9375	-0.23958	-0.5625	-0.875	-0.18958	-0.87917	-0.7375	-0.15	-1.1604	-0.12083	-0.3375	-50.164	175.025	38.870	185.836	-130.667	201.862	194.839	211.799	-46.829	206.613	116.101	-134.513	203.533	167.188	51.489	177.433	0.00043054	0.00052225	0.00016993	1363.1	4.7563e-06	6.2928e-06	1347.5	366.67	6.0078e-06	5.1016e-06	416.68	138.12	120.54	41.623	4.8832e-06	51.398	0.00055332	0.00059079	0.00016443	1374.9	6.3009e-06	6.4408e-06	1370.5	371.83	6.4483e-06	6.4651e-06	423.42	141.9	123.27	42.596	6.5046e-06	52.694	168.239	-48.722	-45.285	-121.874	-6.254	32.847	-122.310	-117.396	-34.993	20.573	-117.922	-114.082	-113.516	-108.353	-8.991	-109.285	-8191	255	
1096.132	1	1	0	0	0.11482	0.25105	0.34274	0.025682	0.40211	0.045535	0.27001	0.32335	0.053587	0.20143	0.18252	0.050989	0.09584	0.20532	0.088496	0.3475	-0.74375	0.064583	-0.66667	-0.64167	0.014583	-0.925	-0.42917	-0.50417	-0.98542	0.027083	-0.72708	-0.8375	0.09375	-1.1771	-0.29583	-0.61042	64.603	207.069	-101.852	58.647	-52.717	57.279	221.847	146.981	47.525	-83.313	9.651	52.023	-101.399	185.315	-95.827	168.153	0.00047711	0.00050565	7.4278e-05	1364.5	4.2875e-06	5.7935e-06	1351.8	365.21	5.9555e-06	4.5027e-06	417.59	138.71	120.68	41.453	3.8949e-06	51.545	0.00057157	0.00059433	0.00016239	1376.1	6.5275e-06	6.5446e-06	1372.1	371.73	6.3336e-06	6.3941e-06	424.51	141.88	123.5	42.562	6.2843e-06	52.779	172.874	-55.817	-75.768	-121.872	-9.310	16.611	-122.098	-117.521	-57.110	17.021	-118.039	-114.190	-113.534	-108.358	-3.042	-108.936	-8191	255	
1096.230	1	1	0	0	0.16271	0.17154	0.052574	0.21628	0.26353	0.10829	0.20506	0.24618	0.055592	0.084475	0.068586	0.11546	0.19714	0.19114	0.23122	0.063919	-0.6125	-0.1	-0.65625	-0.67292	0.12083	-0.99792	-0.80625	-0.37708	-0.93333	0.13125	-0.84375	-0.8625	-0.11667	-1.0354	-0.40417	-0.19167	-88.483	42.320	118.391	-82.686	102.820	37.211	153.358	213.585	29.361	17.232	158.332	-109.764	28.312	217.048	-48.883	7.824	0.00041269	0.00053744	0.00019669	1365.9	3.1943e-06	5.4033e-06	1349.1	366.72	5.3835e-06	4.045e-06	418.96	138.24	120.6	41.583	5.2545e-06	51.363	0.00055586	0.0006083	0.00016472	1375.3	6.5431e-06	6.6028e-06	1371.1	371.89	6.3066e-06	6.4741e-06	425	141.76	123.19	42.572	6.3048e-06	52.67	167.374	-42.857	-27.039	-121.705	-1.695	-0.850	-122.215	-117.422	-47.617	3.203	-117.828	-113.877	-113.538	-108.477	-11.748	-109.165	-8191	255	
1096.349	1	1	0	0	0.14811	0.027081	0.44883	0.37232	0.1857	0.35543	0.10158	0.15745	0.30048	0.14943	0.11603	0.23347	0.094514	0.17513	0.40279	0.17775	-0.58333	-0.15417	-0.37917	-1.1958	-0.13333	-0.67083	-0.86458	0.025	-0.91458	-0.29375	-0.38958	-1	0.11042	-0.65625	-0.7	-0.19375	151.261	197.020	-54.773	201.120	163.224	-89.508	186.973	156.790	9.353	138.059	110.956	146.377	216.578	223.469	146.439	201.671	0.00043841	0.00040693	0.00010525	1361.6	4.8231e-06	6.9826e-06	1349.3	365.52	4.1199e-06	5.0948e-06	417.81	138.55	120.6	41.562	6.2954e-06	51.262	0.00056783	0.00060064	0.00016168	1374.6	6.4094e-06	6.2974e-06	1369.1	371.19	6.2945e-06	6.4729e-06	424.73	141.88	123.49	42.565	6.1734e-06	52.736	170.655	-65.537	-37.390	-122.107	10.982	2.531	-122.113	-117.668	-45.751	6.842	-117.806	-113.981	-113.552	-108.450	-18.351	-109.255	-8191	255	
1096.445	1	1	0	0	0.18538	0.20958	0.28739	0.17287	0.19003	0.23496	0.57161	0.25769	0.094534	0.1087	0.18792	0.20577	0.073522	0.14675	0.27392	0.2824	-0.54375	-0.15	-0.36042	-1.0229	0.072917	-0.72292	-1.0438	-0.13333	-0.91667	-0.13542	-0.45833	-1.0792	-0.052083	-0.86875	-0.61667	-0.18125	68.299	155.500	15.519	-83.532	98.643	223.736	164.818	196.589	64.575	85.228	-84.547	103.766	206.214	92.544	8.588	125.499	0.00042865	0.00030772	0.00015071	1360.6	4.499e-06	3.807e-06	1350.6	365.98	4.5067e-06	4.6588e-06	416.58	138.31	120.57	41.615	3.2887e-06	51.188	0.00055853	0.00058296	0.0001661	1373.7	6.3097e-06	6.3421e-06	1369.3	371.76	6.4916e-06	6.3866e-06	423.66	141.94	123.29	42.545	6.332e-06	52.63	172.868	-56.327	-71.935	-121.835	-15.712	7.016	-122.143	-117.499	-25.721	12.402	-117.761	-114.187	-113.259	-108.310	3.006	-109.097	-8191	255	
1096.541	1	1	0	0	0.51784	0.07113	0.068711	0.19064	0.13904	0.12681	0.28191	0.14073	0.1585	0.058757	0.37152	0.14664	0.17219	0.20632	0.17292	0.32659	-0.42708	-0.3625	-0.23125	-1.1479	-0.35417	-0.6	-1.025	-0.070833	-0.85	-0.34792	-0.20833	-1.0562	-0.054167	-0.58542	-0.57083	-0.00625	-119.224	82.136	-41.901	-117.526	184.549	-102.862	184.554	159.167	-122.335	204.086	95.877	-62.521	189.613	146.885	131.408	192.227	0.00048093	0.00040977	0.00013949	1358.2	3.4198e-06	4.1206e-06	1349.6	365.14	4.298e-06	3.459e-06	417.29	138.57	119.98	41.663	2.8779e-06	51.239	0.00057241	0.00057209	0.00016072	1373.3	6.3329e-06	6.2235e-06	1370.7	371.47	6.2723e-06	6.3211e-06	424.6	141.85	123.12	42.628	6.4154e-06	52.649	173.758	-66.913	-43.289	-121.820	-1.653	-10.348	-122.162	-117.489	-42.837	35.682	-117.798	-113.893	-113.530	-108.697	-25.706	-109.148	-8191	255	
1096.662	1	1	0	0	0.23213	0.1387	0.098896	0.14679	0.16183	0.14667	0.33992	0.13845	0.18304	0.12079	0.1192	0.1737	0.3021	0.5087	0.096548	0.28319	-0.2625	-0.41667	-0.0083333	-0.90833	-0.38542	-0.25208	-1.1917	-0.16667	-0.6125	-0.95208	-0.15208	-1.175	-0.29792	-0.30833	-0.925	0.052083	97.681	133.106	97.365	-120.518	-81.738	19.831	136.223	134.752	120.544	-41.863	207.001	-55.009	218.934	179.328	54.291	223.401	0.0004366	0.00028085	0.00017699	1357.6	3.6017e-06	4.8306e-06	1346.3	365.31	5.0929e-06	4.5787e-06	416.94	138.2	120.52	41.597	4.0812e-06	51.386	0.00055861	0.00058196	0.0001633	1371.2	6.4077e-06	6.33e-06	1367.2	371.11	6.3263e-06	6.1357e-06	423.57	141.52	123.04	42.499	6.0854e-06	52.644	168.600	-34.373	-56.714	-121.940	-20.118	1.898	-122.467	-117.623	-20.777	23.566	-117.794	-114.216	-113.478	-108.319	4.323	-109.168	-8191	255	
1096.758	1	1	0	0	0.2307	0.21809	0.089337	0.12686	0.097148	0.10481	0.26447	0.19917	0.21983	0.1361	0.32965	0.20755	0.047055	0.10879	0.10107	0.30736	-0.28542	-0.60625	0.14167	-1.0729	-0.36458	-0.28125	-1.1646	-0.3625	-0.46042	-0.7875	-0.10833	-0.8625	-0.54167	-0.10208	-1.0354	-0.35625	-81.363	-130.581	-46.222	191.881	-67.910	182.048	-123.027	70.074	-59.857	206.851	-69.858	125.386	-30.751	181.991	179.177	148.347	0.0004613	0.00033473	0.00017435	1353.4	5.1455e-06	4.7474e-06	1348	364.93	3.9645e-06	4.1749e-06	417.48	138.62	120.6	41.426	6.0216e-06	51.259	0.00055301	0.00056782	0.00016251	1367.9	6.2933e-06	6.2718e-06	1368.7	370.91	6.3505e-06	6.4212e-06	424.01	141.82	123.34	42.544	6.2982e-06	52.613	168.631	-72.977	-32.172	-122.005	-8.678	-11.391	-122.168	-117.580	-19.585	-9.065	-117.838	-114.069	-113.432	-108.398	-1.254	-108.835	-8191	255	
1096.829	1	1	0	0	0.18935	0.24499	0.10788	0.096264	0.16121	0.087249	0.19029	0.097498	0.19626	0.076872	0.26097	0.062857	0.339	0.1211	0.28862	0.10939	-0.15625	-0.73125	-0.041667	-0.8625	-0.36875	-0.19167	-1.2458	-0.33958	-0.49375	-1.0271	0.0020833	-0.78333	-0.61667	-0.26875	-0.86667	-0.38958	-71.554	-122.287	-79.015	151.706	68.825	145.832	43.470	151.179	-29.782	182.473	174.599	163.290	199.938	-7.521	-101.269	-79.117	0.000384	0.00048271	0.0001154	1357.5	5.0009e-06	3.5113e-06	1345.6	364.3	4.5578e-06	5.0097e-06	418.79	138.44	120.89	41.56	4.592e-06	51.354	0.00055464	0.0005797	0.00016122	1372.6	6.4589e-06	6.403e-06	1366	370.98	6.4165e-06	6.2285e-06	423.62	141.87	123.23	42.526	6.1062e-06	52.664	171.313	-24.575	-31.493	-121.834	7.249	31.373	-122.126	-117.550	-22.508	1.656	-117.847	-114.006	-113.439	-108.325	-3.189	-109.293	-8191	255	
1096.950	1	1	0	0	0.16956	0.4219	0.053809	0.09213	0.017427	0.41242	0.28358	0.34402	0.4143	0.10404	0.32719	0.37826	0.13824	0.29079	0.35796	0.14841	-0.054167	-0.87292	0.20208	-0.775	-0.67708	-0.10208	-1	-0.49375	-0.34583	-0.77917	-0.24583	-0.83542	-0.65833	-0.28125	-1.0187	-0.21042	-118.994	174.802	-54.649	153.877	220.828	-115.754	159.730	169.169	-119.245	152.598	144.309	186.175	-107.564	206.551	221.838	67.146	0.00045642	0.00048968	0.00016839	1360.4	2.5483e-06	5.9168e-06	1346.2	364.44	4.9458e-06	5.7559e-06	415.63	138.65	120.55	41.634	3.6964e-06	51.299	0.00056985	0.00058226	0.00016207	1372.8	6.1224e-06	6.2172e-06	1365.5	370.71	6.3336e-06	6.0608e-06	423.54	141.62	123.03	42.521	6.2482e-06	52.639	172.415	-54.814	-30.312	-121.734	0.372	-7.417	-122.103	-117.524	-50.890	-36.509	-117.744	-114.052	-113.382	-108.535	-6.178	-109.053	-8191	255	
1097.044	1	1	0	0	0.27906	0.21044	0.20123	0.30491	0.14766	0.33051	0.1221	0.45323	0.29395	0.084357	0.31178	0.19135	0.16918	0.096598	0.13629	0.21788	0.072917	-0.85625	-0.0041667	-0.88125	-0.88125	0.066667	-0.97083	-0.36458	-0.18542	-1.0208	-0.40208	-0.63958	-0.95833	-0.091667	-0.84583	-0.49792	-25.498	-115.132	152.108	179.282	-6.275	215.126	207.067	114.233	-128.786	169.688	173.127	130.472	-104.295	-128.356	76.853	216.432	0.00044926	0.00041445	0.000121	1354.4	2.5157e-06	5.3793e-06	1347.8	365.34	5.19e-06	2.339e-06	416.56	138.65	120.72	41.625	6.0111e-06	51.05	0.00056103	0.00056262	0.00015818	1369.6	6.0729e-06	6.4299e-06	1367.7	370.67	6.4148e-06	6.1594e-06	423.43	141.79	123.29	42.548	6.4596e-06	52.495	170.231	-55.781	-35.237	-121.777	-9.181	39.351	-122.086	-117.648	-47.239	-11.838	-117.778	-113.812	-113.185	-108.323	-11.068	-108.902	-8191	255	
1097.141	1	1	0	0	0.31435	0.21236	0.20942	0.094629	0.41251	0.32905	0.17646	0.042043	0.043992	0.25809	0.055972	0.27615	0.20787	0.058302	0.21042	0.1413	0.3	-1.1354	0.03125	-0.58958	-0.7625	-0.089583	-0.98542	-0.61875	-0.19792	-0.975	-0.62083	-0.44792	-0.91875	-0.13542	-0.62917	-0.9	25.073	-60.233	-103.487	216.611	-96.596	220.250	217.280	29.392	-84.032	-36.327	220.932	196.870	215.296	-27.161	7.915	9.876	0.00046005	0.00035423	0.00011966	1355.9	5.4288e-06	4.0591e-06	1354.5	363.21	5.6961e-06	3.2285e-06	416.6	138.52	120.08	41.397	3.5563e-06	51.279	0.00057975	0.00058446	0.00016151	1371.2	6.3252e-06	6.3007e-06	1369.4	370.63	6.4221e-06	6.2974e-06	423.47	141.73	122.99	42.488	6.2762e-06	52.587	170.843	-46.094	-68.487	-121.755	-11.963	38.734	-121.932	-117.393	-29.410	22.614	-117.988	-113.840	-113.363	-108.409	8.288	-108.870	-8191	255	
1097.237	1	1	0	0	0.03837	0.16229	0.29733	0.39364	0.29508	0.098379	0.24539	0.31127	0.20695	0.19246	0.19324	0.40479	0.09902	0.17288	0.060583	0.12513	0.30208	-0.94792	-0.31042	-0.40625	-0.925	0.16042	-0.95625	-0.78958	-0.21042	-0.95417	-0.51042	-0.60833	-0.98125	-0.16458	-0.4125	-1.2625	224.530	73.668	11.804	200.213	51.767	-36.966	143.107	188.374	-62.789	127.275	68.516	203.495	114.673	223.472	38.530	165.656	0.00044762	0.00061586	0.00011013	1359.6	4.4975e-06	6.2819e-06	1345.7	363.78	5.006e-06	3.5672e-06	417.41	138.39	120.15	41.66	4.3941e-06	51.204	0.00056632	0.00058386	0.00016014	1370.9	6.2574e-06	6.3249e-06	1366.7	370.12	6.4517e-06	6.1137e-06	423.23	141.53	123.05	42.482	6.278e-06	52.557	168.814	-52.619	-19.635	-121.785	-33.589	25.086	-121.870	-117.392	-39.392	6.111	-117.690	-113.821	-112.892	-108.268	0.422	-109.101	-8191	255	
1097.333	1	1	0	0	0.27994	0.17374	0.13827	0.086181	0.16013	0.09907	0.079698	0.17021	0.11229	0.33628	0.57104	0.13654	0.21519	0.13639	0.12482	0.158	0.40208	-0.88333	-0.48958	-0.27083	-1.0896	-0.064583	-0.79375	-1.0396	0.020833	-0.89583	-0.72083	-0.1	-1.0646	-0.23125	-0.275	-1.0375	114.974	11.906	-135.395	-69.259	-108.698	-69.871	17.416	182.297	76.922	-38.649	149.200	171.557	154.702	-115.810	-109.295	206.602	0.00044667	0.00030851	0.00011657	1358.1	2.8231e-06	5.0981e-06	1348.3	364.1	3.5398e-06	2.9125e-06	414.89	138.53	120.05	41.562	3.9421e-06	51.152	0.00055936	0.00056317	0.00016199	1370.2	6.1241e-06	6.1318e-06	1365.1	370.31	6.4444e-06	6.0065e-06	422.81	141.65	123.02	42.493	6.2684e-06	52.578	170.436	-51.906	-16.599	-121.791	-45.129	6.206	-122.077	-117.482	-39.342	14.414	-117.852	-114.091	-113.333	-108.489	-12.316	-108.968	-8191	255	
1097.429	1	1	0	0	0.25461	0.15957	0.29805	0.2456	0.15413	0.26247	0.17916	0.077845	0.10165	0.24454	0.11844	0.16996	0.11141	0.22115	0.10737	0.13694	0.35417	-0.775	-0.48958	-0.17083	-0.92292	-0.24792	-0.44792	-1.1271	0.016667	-0.85208	-0.6375	-0.1125	-1.0417	-0.3375	-0.26667	-1.2042	49.995	81.471	-130.863	152.141	79.733	197.708	130.393	-87.721	16.407	118.151	165.981	157.624	-128.741	179.625	8.956	-74.741	0.0004429	0.00046553	0.00013564	1350.2	2.7627e-06	5.1582e-06	1349.9	365.24	4.1032e-06	4.642e-06	416.94	138.16	120.82	41.625	4.4463e-06	51.342	0.00057564	0.00058185	0.00016036	1367.2	6.1792e-06	6.2808e-06	1366.7	370.99	6.3581e-06	6.2472e-06	423.1	141.72	123.13	42.459	6.3862e-06	52.619	174.192	-50.204	-15.775	-121.662	-17.243	20.527	-121.958	-117.144	-43.772	-6.857	-117.774	-113.881	-113.074	-108.280	-15.969	-108.839	-8191	255	
1097.525	1	1	0	0	0.10442	0.073699	0.29294	0.39669	0.29796	0.10504	0.16988	0.27898	0.24162	0.26093	0.14836	0.2901	0.27173	0.094118	0.1294	0.26503	0.23958	-0.64167	-0.61667	-0.27292	-0.97917	-0.19792	-0.50833	-1.1688	-0.13333	-0.54792	-1.0063	-0.10833	-0.99167	-0.65208	-0.22917	-1.325	-68.619	142.704	216.225	197.208	48.610	205.356	189.096	137.659	81.681	-70.436	108.336	151.087	174.343	78.693	-49.721	175.316	0.00044844	0.00042311	0.00019748	1356.9	3.3262e-06	5.5044e-06	1346.2	365.62	5.0482e-06	4.8007e-06	414.41	137.62	120.19	41.38	4.4535e-06	51.386	0.00056667	0.00057244	0.00016134	1369.3	6.2181e-06	6.3391e-06	1367	370.91	6.4334e-06	6.081e-06	422.86	141.39	122.99	42.441	6.2699e-06	52.641	167.783	-18.750	-40.345	-121.677	-19.442	-8.255	-121.917	-117.274	-39.977	6.086	-117.555	-113.675	-113.248	-108.089	-8.517	-109.168	-8191	255	
1097.621	1	1	0	0	0.19918	0.11092	0.10557	0.10643	0.1484	0.31358	0.049461	0.26903	0.072865	0.24144	0.21678	0.23896	0.23616	0.28904	0.098765	0.38843	0.12292	-0.51042	-0.78333	-0.091667	-0.84167	-0.62917	-0.32708	-1.0812	-0.19583	-0.4375	-0.99375	-0.19167	-0.91458	-0.76667	-0.05	-1.0625	108.196	34.147	-118.458	97.051	106.750	124.357	-117.572	212.130	-110.719	3.096	-68.548	190.771	184.741	-105.137	-106.510	100.702	0.00043245	0.00055381	0.00018452	1360.4	3.6786e-06	4.9096e-06	1349.6	365.78	3.2057e-06	3.969e-06	414.67	138.01	120.72	41.377	3.6335e-06	51.192	0.00056163	0.00057198	0.00016228	1371.3	6.1122e-06	6.5216e-06	1365.9	370.58	6.4716e-06	6.2718e-06	422.21	141.43	123.3	42.442	6.3857e-06	52.622	172.301	-45.202	-39.114	-121.671	13.658	-1.055	-121.885	-117.207	-6.510	10.245	-117.580	-113.961	-113.087	-108.318	-3.919	-108.698	-8191	255	
1097.742	1	1	0	0	0.25407	0.017331	0.086939	0.029605	0.10932	0.16072	0.13344	0.19873	0.3524	0.060044	0.19858	0.32212	0.14052	0.12494	0.067033	0.34001	0.027083	-0.21875	-0.70417	-0.35625	-0.68333	-0.64375	-0.18542	-0.95	-0.25625	-0.53333	-1.2417	-0.17083	-0.75	-0.82708	-0.14583	-0.98125	59.062	185.251	-96.877	161.443	43.610	125.050	122.169	179.562	223.260	51.844	183.902	-115.931	105.774	60.930	112.054	176.521	0.00046957	0.00048257	0.0001233	1355.8	4.6215e-06	6.1869e-06	1347.4	365.52	3.1557e-06	6.6317e-06	417.39	138.15	120.19	41.354	3.961e-06	51.199	0.0005644	0.00057891	0.00016047	1368.7	6.349e-06	6.3852e-06	1365.4	370.97	6.3772e-06	6.1672e-06	422.8	141.49	123.15	42.44	6.3753e-06	52.605	176.765	-72.006	-26.548	-121.659	6.601	19.946	-121.750	-116.976	-37.659	10.311	-117.783	-113.778	-113.136	-108.274	-16.067	-108.740	-8191	255	
1097.838	1	1	0	0	0.11382	0.21787	0.22287	0.21566	0.11119	0.15277	0.076726	0.081129	0.17688	0.073338	0.10571	0.18743	0.28615	0.26723	0.043406	0.28506	0.020833	-0.077083	-0.90625	-0.22708	-0.55	-0.55208	-0.22708	-0.91667	-0.55833	-0.1875	-1.1771	-0.10833	-0.5125	-1.1271	0.14167	-0.8875	203.409	-118.281	105.422	44.942	114.027	-49.819	93.451	-123.583	118.251	-4.790	39.082	207.601	-31.857	-90.104	211.927	98.331	0.00044988	0.00043432	0.00014007	1353.3	3.9925e-06	3.9385e-06	1348.8	365.87	4.1014e-06	4.0007e-06	415.67	138.26	120.72	41.525	4.1591e-06	51.137	0.00055873	0.00058612	0.00015799	1369.1	6.3218e-06	6.2935e-06	1364.5	371	6.3648e-06	6.3355e-06	422.32	141.53	123.06	42.469	6.3718e-06	52.581	168.003	-66.655	-64.139	-121.646	6.768	-0.769	-121.968	-117.261	-29.613	7.248	-117.782	-114.021	-113.062	-108.357	-7.671	-108.821	-8191	255	
1097.933	1	1	0	0	0.14117	0.097917	0.11935	0.11051	0.077314	0.098591	0.15854	0.15249	0.30284	0.098406	0.23034	0.10259	0.0025472	0.18178	0.060597	0.12901	-0.375	-0.04375	-0.8625	-0.26667	-0.25	-0.96667	-0.14167	-0.84375	-0.64583	0.033333	-1.225	-0.34792	-0.23333	-1.2687	-0.079167	-0.88333	-4.293	-15.352	187.010	138.444	-39.780	168.846	75.489	142.286	20.912	109.755	138.875	145.467	180.000	130.073	68.337	195.160	0.00046308	0.00051835	0.00012253	1355.1	4.902e-06	5.7748e-06	1343	363.34	3.3606e-06	5.1355e-06	418.59	138.57	119.93	41.578	4.441e-06	50.991	0.00055171	0.00058674	0.00015449	1366	6.2535e-06	6.0958e-06	1362.5	370	6.2881e-06	6.414e-06	423.88	141.61	122.89	42.491	6.4148e-06	52.467	172.046	-43.107	-67.591	-121.885	-4.507	27.650	-122.109	-117.513	-19.470	24.784	-117.621	-114.049	-113.385	-108.215	-16.684	-108.791	-8191	255	
1098.030	1	1	0	0	0.092583	0.27089	0.19865	0.18835	0.15694	0.32484	0.14643	0.33945	0.13074	0.073453	0.25845	0.093271	0.11308	0.23672	0.20904	0.022211	-0.56875	-0.014583	-0.8	-0.50208	-0.26875	-1.0542	-0.27708	-0.72708	-0.85	0.052083	-0.9125	-0.55625	-0.17708	-1.1646	-0.225	-0.70417	137.476	-116.442	-24.363	189.766	-39.164	204.092	144.782	-125.657	144.861	110.873	125.338	-108.199	192.767	219.021	-84.752	12.037	0.00042263	0.00065708	0.00016964	1353.2	3.3229e-06	4.6101e-06	1346.1	365.17	4.6307e-06	4.6339e-06	416.2	137.84	119.77	41.535	5.5412e-06	51.139	0.00056619	0.00060104	0.0001628	1366.2	6.4747e-06	6.0995e-06	1364	370.6	6.3094e-06	6.3527e-06	423.02	141.36	122.8	42.446	6.4437e-06	52.551	171.007	-73.475	-57.688	-121.704	15.618	20.096	-122.197	-117.381	-28.044	19.476	-117.614	-114.135	-113.246	-108.227	-17.730	-109.065	-8191	255	
1098.125	1	1	0	0	0.21585	0.094338	0.37728	0.12447	0.13179	0.26375	0.20527	0.10945	0.16863	0.11219	0.19819	0.21148	0.15986	0.13471	0.14946	0.061127	-0.3875	0.035417	-0.64583	-0.57292	-0.072917	-0.94167	-0.32292	-0.78333	-0.83542	-0.010417	-1.05	-0.62292	-0.095833	-1.1083	-0.2125	-0.45625	170.595	124.341	119.470	-119.998	-110.139	17.723	46.337	140.673	72.295	174.237	212.337	-105.213	-127.596	-48.562	7.041	-97.030	0.00045725	0.00062059	0.00013364	1355.7	3.9844e-06	7.4002e-06	1344.9	365.86	5.6315e-06	5.8442e-06	414.97	138.14	119.96	41.471	3.7308e-06	51.167	0.00057446	0.00059688	0.00016205	1368.8	6.4309e-06	6.3548e-06	1363.9	370.87	6.3834e-06	6.5354e-06	422.12	141.35	122.75	42.451	6.3354e-06	52.601	172.827	-52.488	-39.029	-121.788	-4.543	-2.878	-121.930	-117.319	-36.921	10.749	-117.379	-113.924	-113.237	-108.361	7.219	-108.891	-8191	255	
1098.221	1	1	0	0	0.21981	0.1157	0.07669	0.1122	0.24352	0.19805	0.24098	0.1563	0.39932	0.16575	0.30446	0.21589	0.38633	0.30016	0.16907	0.05135	-0.48958	-0.25833	-0.76042	-0.75	0.0875	-0.87083	-0.5875	-0.47083	-0.90208	-0.1375	-0.93542	-0.84375	-0.2625	-0.84375	-0.48333	-0.42083	204.208	-134.246	64.465	139.810	117.930	215.435	222.328	-28.076	117.409	-97.747	194.669	-133.353	-108.244	204.600	-70.103	165.259	0.00042154	0.00028031	0.00013571	1351	4.5695e-06	3.7742e-06	1345.6	364.4	2.8627e-06	4.0793e-06	418.2	138.28	120.42	41.453	4.4916e-06	51.156	0.00055473	0.00057698	0.00015712	1367.1	6.4368e-06	6.3683e-06	1364	370.76	6.333e-06	6.4996e-06	423.61	141.6	123.08	42.436	6.4639e-06	52.514	175.212	-45.103	-32.887	-121.700	9.379	23.398	-122.103	-117.374	-46.542	39.405	-117.777	-113.944	-113.252	-108.274	-17.057	-109.020	-8191	255	
1098.342	1	1	0	0	0.12979	0.068794	0.041942	0.18197	0.20659	0.1392	0.091832	0.14502	0.026804	0.086659	0.19826	0.33917	0.27566	0.22186	0.22448	0.18888	-0.79167	-0.01875	-0.6125	-0.94792	-0.175	-0.83333	-0.65625	-0.3875	-0.91667	-0.19167	-0.6125	-1.0958	-0.14583	-0.69792	-0.50833	-0.28958	-10.881	45.934	17.869	-92.719	50.914	0.508	-1.835	-94.238	53.990	1.520	-132.772	202.063	-101.963	183.383	-131.745	14.588	0.00042928	0.00050251	0.00013175	1349.2	2.9814e-06	5.6088e-06	1343	365.85	3.2509e-06	5.0329e-06	416.01	138.42	120.14	41.517	5.3209e-06	51.261	0.00056188	0.00057894	0.00016436	1366.8	6.3662e-06	6.3038e-06	1363.8	370.71	6.3732e-06	6.3256e-06	422.58	141.61	122.84	42.439	6.3245e-06	52.495	171.511	-64.418	-31.024	-121.642	-19.253	25.214	-121.954	-117.211	-21.929	10.014	-117.599	-113.912	-113.247	-108.464	8.341	-108.992	-8191	255	
1098.438	1	1	0	0	0.27475	0.33193	0.22826	0.20901	0.13237	0.18813	0.14733	0.088409	0.2208	0.14756	0.32558	0.096144	0.21205	0.25484	0.21363	0.338	-0.62708	-0.30208	-0.35625	-1.0667	-0.020833	-0.79167	-0.7375	-0.089583	-0.91458	-0.17917	-0.24583	-1.0292	-0.1	-0.84583	-0.63333	-0.17708	197.847	105.577	219.731	149.399	-19.726	-61.311	146.002	-71.680	-73.471	112.783	-84.411	177.031	216.820	206.299	-34.344	120.706	0.00044901	0.00042976	0.0001302	1355.8	4.1887e-06	6.0318e-06	1343.8	365.36	5.0979e-06	4.2261e-06	417.01	138.94	120.27	41.514	3.4029e-06	51.057	0.00055359	0.00057864	0.00016129	1367.7	6.3006e-06	6.3451e-06	1363.4	370.15	6.2712e-06	6.5062e-06	422.85	141.49	122.89	42.383	6.5081e-06	52.468	173.364	-36.250	-39.259	-121.735	-29.472	21.731	-121.937	-117.119	-48.657	34.246	-117.608	-114.152	-113.484	-108.261	-18.052	-109.147	-8191	255	
1098.534	1	1	0	0	0.065635	0.19267	0.13427	0.36425	0.046668	0.11312	0.29345	0.14649	0.19084	0.18079	0.21709	0.21079	0.15499	0.14762	0.39121	0.31376	-0.43333	-0.25833	-0.089583	-1.1458	0.11458	-0.575	-1.0917	-0.13333	-0.86458	-0.43542	-0.37292	-1.1979	-0.066667	-0.77083	-0.79167	0.085417	223.739	120.876	-33.680	210.981	49.253	-102.777	134.323	201.970	-21.985	188.425	178.472	-123.666	162.340	-101.360	-44.988	141.013	0.0004335	0.00070742	0.0001216	1354.2	4.7871e-06	3.6841e-06	1347	364.22	4.1067e-06	4.2763e-06	416.21	137.61	120.21	41.584	6.5633e-06	51.2	0.00056078	0.00060213	0.00016636	1366.9	6.4131e-06	6.4136e-06	1364	370.04	6.2498e-06	6.3551e-06	422.67	141.23	122.81	42.509	6.3426e-06	52.494	174.292	-42.119	-48.779	-121.882	0.517	28.633	-122.189	-117.208	-33.884	32.269	-117.815	-113.815	-113.178	-108.497	3.321	-108.926	-8191	255	
1098.630	1	1	0	0	0.10127	0.16656	0.17184	0.34663	0.19196	0.17436	0.16556	0.026612	0.24036	0.2621	0.034178	0.2046	0.27512	0.1047	0.20577	0.095784	-0.53125	-0.52708	-0.20625	-1.1229	-0.03125	-0.49583	-0.87917	0.083333	-0.84792	-0.45417	-0.25417	-0.99792	-0.33958	-0.51667	-0.61875	-0.19583	43.821	76.123	113.265	210.049	38.634	-46.138	119.200	152.577	164.614	129.232	-46.263	96.083	-121.499	216.059	24.680	-93.563	0.00043596	0.00027476	0.00012271	1354.6	4.9152e-06	6.262e-06	1343.9	363.8	2.4564e-06	5.6057e-06	417.05	137.72	119.85	41.457	3.1942e-06	50.875	0.00056431	0.00057701	0.00016523	1367.5	6.2475e-06	6.4308e-06	1362.8	369.84	6.4033e-06	6.3452e-06	423.17	141.19	122.66	42.393	6.2777e-06	52.424	168.105	-51.186	-66.675	-121.753	-18.851	23.257	-121.993	-117.626	-44.067	-4.592	-117.957	-113.930	-113.612	-108.216	-22.874	-109.559	-8191	255	
1098.726	1	1	0	0	0.12408	0.21868	0.22026	0.3273	0.1999	0.08313	0.087002	0.25878	0.1283	0.16251	0.15262	0.12696	0.17781	0.37566	0.21007	0.14812	-0.53125	-0.67917	-0.30625	-1.0938	-0.11875	-0.27708	-1.3146	-0.13542	-0.71875	-0.65	-0.08125	-1.0917	-0.29375	-0.35417	-1.1021	-0.39792	222.867	90.509	-7.110	-82.099	212.796	-12.331	101.619	214.632	-105.311	94.735	112.891	170.515	-37.785	-119.984	190.442	76.539	0.0004452	0.0005352	0.00012274	1356.7	2.2411e-06	5.0217e-06	1349	364.21	5.0896e-06	4.6649e-06	415.33	138.03	119.96	41.335	4.8834e-06	51.168	0.00056039	0.00058783	0.00016504	1368.6	6.3309e-06	6.4251e-06	1364.4	370.19	6.3373e-06	6.2658e-06	422.65	141.23	122.82	42.388	6.4391e-06	52.571	167.401	-37.818	-48.449	-122.114	-2.439	2.491	-122.279	-117.682	-39.037	36.384	-117.860	-114.263	-113.529	-108.241	-11.840	-109.113	-8191	255	
#DATA ENDS
