BOXY.EXE: ISS Imagent and Oximeter Data Acquisition Program Version 0.80
Ascii Record File

#ACQ INFORMATION
2  Detector Channels 
16  External MUX Channels 
1  Auxiliary Channels 
5000  Waveform (CCF) Frequency (Hz)
1  Waveforms Skipped 
30  Waveforms Averaged 
1  Cycles Averaged 
16  Acquisitions per Waveform 
10.0806  Updata Rate (Hz) 

#FILE INFORMATION
TRUE -- External MUX Channel results are PARSED.
FALSE -- AC DC and Phase are NOT grouped.
TRUE -- Companion Program Settings File CREATED.
FALSE -- AC data not excluded
FALSE -- DC data not excluded
FALSE -- Phase data not excluded
FALSE -- Auxillary Chn. data not excluded
Tab delimiters

#CALIBRATION STATE
TRUE -- Waveform Calibration Values APPLIED.


#AUX CALIBRATION VALUES
Val Type	aux-1	

Term	1.0000e+00	
Factor	0.0000e+00	


#WF CALIBRATION VALUES
A = Detector Channel
Val Type	A-AC1	A-AC2	A-AC3	A-AC4	A-AC5	A-AC6	A-AC7	A-AC8	A-AC9	A-AC10	A-AC11	A-AC12	A-AC13	A-AC14	A-AC15	A-AC16	A-DC1	A-DC2	A-DC3	A-DC4	A-DC5	A-DC6	A-DC7	A-DC8	A-DC9	A-DC10	A-DC11	A-DC12	A-DC13	A-DC14	A-DC15	A-DC16	A-Ph1	A-Ph2	A-Ph3	A-Ph4	A-Ph5	A-Ph6	A-Ph7	A-Ph8	A-Ph9	A-Ph10	A-Ph11	A-Ph12	A-Ph13	A-Ph14	A-Ph15	A-Ph16	

Term	0.00000e+00	0.00000e+00	0.00000e+00	0.00000e+00	0.00000e+00	0.00000e+00	0.00000e+00	0.00000e+00	0.00000e+00	0.00000e+00	0.00000e+00	0.00000e+00	0.00000e+00	0.00000e+00	0.00000e+00	0.00000e+00	0.00000e+00	0.00000e+00	0.00000e+00	0.00000e+00	0.00000e+00	0.00000e+00	0.00000e+00	0.00000e+00	0.00000e+00	0.00000e+00	0.00000e+00	0.00000e+00	0.00000e+00	0.00000e+00	0.00000e+00	0.00000e+00	0.00000e+00	0.00000e+00	0.00000e+00	0.00000e+00	0.00000e+00	0.00000e+00	0.00000e+00	0.00000e+00	0.00000e+00	0.00000e+00	0.00000e+00	0.00000e+00	0.00000e+00	0.00000e+00	0.00000e+00	0.00000e+00	
Factor	1.00000e+00	1.00000e+00	1.00000e+00	1.00000e+00	1.00000e+00	1.00000e+00	1.00000e+00	1.00000e+00	1.00000e+00	1.00000e+00	1.00000e+00	1.00000e+00	1.00000e+00	1.00000e+00	1.00000e+00	1.00000e+00	1.00000e+00	1.00000e+00	1.00000e+00	1.00000e+00	1.00000e+00	1.00000e+00	1.00000e+00	1.00000e+00	1.00000e+00	1.00000e+00	1.00000e+00	1.00000e+00	1.00000e+00	1.00000e+00	1.00000e+00	1.00000e+00	X	X	X	X	X	X	X	X	X	X	X	X	X	X	X	X	

B = Detector Channel
Val Type	B-AC1	B-AC2	B-AC3	B-AC4	B-AC5	B-AC6	B-AC7	B-AC8	B-AC9	B-AC10	B-AC11	B-AC12	B-AC13	B-AC14	B-AC15	B-AC16	B-DC1	B-DC2	B-DC3	B-DC4	B-DC5	B-DC6	B-DC7	B-DC8	B-DC9	B-DC10	B-DC11	B-DC12	B-DC13	B-DC14	B-DC15	B-DC16	B-Ph1	B-Ph2	B-Ph3	B-Ph4	B-Ph5	B-Ph6	B-Ph7	B-Ph8	B-Ph9	B-Ph10	B-Ph11	B-Ph12	B-Ph13	B-Ph14	B-Ph15	B-Ph16	

Term	0.00000e+00	0.00000e+00	0.00000e+00	0.00000e+00	0.00000e+00	0.00000e+00	0.00000e+00	0.00000e+00	0.00000e+00	0.00000e+00	0.00000e+00	0.00000e+00	0.00000e+00	0.00000e+00	0.00000e+00	0.00000e+00	0.00000e+00	0.00000e+00	0.00000e+00	0.00000e+00	0.00000e+00	0.00000e+00	0.00000e+00	0.00000e+00	0.00000e+00	0.00000e+00	0.00000e+00	0.00000e+00	0.00000e+00	0.00000e+00	0.00000e+00	0.00000e+00	-1.62475e+02	-1.30028e+02	-1.29081e+02	-1.82568e+02	-7.08570e+01	-6.63597e+01	-1.57125e+02	-1.62015e+02	-8.01052e+01	-6.56729e+01	-1.70653e+02	-1.69026e+02	-1.81905e+02	-1.76426e+02	-7.59934e+01	-1.49739e+02	
Factor	2.48014e-05	1.38066e-04	4.13928e-05	1.81409e-01	1.37938e-06	1.71112e-06	1.66522e-01	5.10113e-02	1.39629e-06	1.55553e-06	7.91198e-02	2.75910e-02	2.90947e-02	8.83143e-03	1.46968e-06	1.26923e-02	9.30207e-06	1.30508e-05	3.64333e-06	9.51287e-02	1.35613e-07	1.44845e-07	8.22480e-02	2.69387e-02	1.34931e-07	1.44256e-07	4.04368e-02	1.41989e-02	1.54998e-02	4.70142e-03	1.38599e-07	6.55128e-03	X	X	X	X	X	X	X	X	X	X	X	X	X	X	X	X	



#DISTANCE SETTINGS
A = Detector Channel
A-1	A-2	A-3	A-4	A-5	A-6	A-7	A-8	A-9	A-10	A-11	A-12	A-13	A-14	A-15	A-16	

2.5000e+00	3.0000e+00	2.5000e+00	3.0000e+00	2.0000e+00	3.0000e+00	1.5000e+00	3.0000e+00	3.0000e+00	3.0000e+00	3.0000e+00	3.0000e+00	3.0000e+00	3.0000e+00	1.5000e+00	3.0000e+00	

B = Detector Channel
B-1	B-2	B-3	B-4	B-5	B-6	B-7	B-8	B-9	B-10	B-11	B-12	B-13	B-14	B-15	B-16	

1.0000e+01	1.0000e+01	1.0000e+01	1.4400e+00	1.0000e+01	1.0000e+01	1.5100e+00	1.9400e+00	1.0000e+01	1.0000e+01	1.9900e+00	2.4900e+00	2.4100e+00	2.9000e+00	1.0000e+01	2.9800e+00	




#DATA BEGINS
time	group	step	mark	flag	A-AC1	A-AC2	A-AC3	A-AC4	A-AC5	A-AC6	A-AC7	A-AC8	A-AC9	A-AC10	A-AC11	A-AC12	A-AC13	A-AC14	A-AC15	A-AC16	A-DC1	A-DC2	A-DC3	A-DC4	A-DC5	A-DC6	A-DC7	A-DC8	A-DC9	A-DC10	A-DC11	A-DC12	A-DC13	A-DC14	A-DC15	A-DC16	A-Ph1	A-Ph2	A-Ph3	A-Ph4	A-Ph5	A-Ph6	A-Ph7	A-Ph8	A-Ph9	A-Ph10	A-Ph11	A-Ph12	A-Ph13	A-Ph14	A-Ph15	A-Ph16	B-AC1	B-AC2	B-AC3	B-AC4	B-AC5	B-AC6	B-AC7	B-AC8	B-AC9	B-AC10	B-AC11	B-AC12	B-AC13	B-AC14	B-AC15	B-AC16	B-DC1	B-DC2	B-DC3	B-DC4	B-DC5	B-DC6	B-DC7	B-DC8	B-DC9	B-DC10	B-DC11	B-DC12	B-DC13	B-DC14	B-DC15	B-DC16	B-Ph1	B-Ph2	B-Ph3	B-Ph4	B-Ph5	B-Ph6	B-Ph7	B-Ph8	B-Ph9	B-Ph10	B-Ph11	B-Ph12	B-Ph13	B-Ph14	B-Ph15	B-Ph16	aux-1	digaux	

1197.042	1	1	0	256	0.097777	0.27828	0.16552	0.25221	0.031021	0.070366	0.42752	0.34827	0.19963	0.057802	0.26496	0.082762	0.095178	0.15457	0.076633	0.090898	-0.44375	-0.41667	-0.0125	-1.0896	-0.010417	-0.65	-0.83125	-0.0083333	-0.90625	-0.24167	-0.275	-1.0229	-0.033333	-0.46667	-0.6125	0.066667	120.862	-57.957	168.247	248.273	38.656	261.624	213.220	244.315	35.843	-15.459	-59.646	159.660	-48.326	248.492	211.538	-52.410	0.00017786	0.00040717	0.00010401	1320	4.6612e-06	2.4023e-06	1322.3	359.46	3.0222e-06	4.881e-06	409.34	135.56	114.82	40.383	3.3312e-06	50.528	0.00045788	0.00050471	0.00013854	1332.3	5.2703e-06	5.3423e-06	1335.2	364.65	5.3598e-06	5.2218e-06	414.4	138.72	117.71	41.364	5.3618e-06	51.594	109.880	20.247	5.239	-49.905	94.559	96.553	-49.896	-45.051	68.965	72.309	-45.560	-41.696	-40.273	-36.171	85.476	-36.863	-8191	255	
1197.140	1	1	0	0	0.084944	0.26445	0.12981	0.17783	0.31284	0.32228	0.2647	0.20651	0.18317	0.092513	0.20391	0.34492	0.27501	0.28119	0.01659	0.086326	-0.37708	-0.32083	-0.085417	-0.98542	-0.10833	-0.5625	-0.92292	-0.16667	-0.67708	-0.28542	-0.19375	-1.0646	-0.16042	-0.66667	-0.7375	-0.22917	107.805	226.859	219.393	259.141	87.479	206.112	245.057	272.421	157.080	116.830	276.749	233.400	259.788	-61.540	42.299	142.535	0.00017115	0.00046372	0.00016648	1312.2	3.9451e-06	3.7457e-06	1317.2	357.98	1.518e-06	5.2653e-06	410.54	135.48	115.25	40.558	4.9637e-06	50.248	0.00046074	0.00050343	0.00014116	1326.1	5.5237e-06	5.2883e-06	1332.3	363.76	5.4535e-06	5.4396e-06	414.75	138.69	117.72	41.405	5.4689e-06	51.508	107.242	15.898	9.033	-49.675	95.143	64.680	-50.159	-45.019	21.473	86.316	-45.586	-41.518	-40.246	-36.168	84.141	-37.214	-8191	255	
1197.235	1	1	0	0	0.12613	0.10995	0.17547	0.3476	0.23475	0.16636	0.37813	0.34073	0.1454	0.31479	0.30628	0.25446	0.4627	0.34471	0.23441	0.13235	-0.3875	-0.525	0.0083333	-0.86667	-0.21458	-0.19792	-1.0688	0.0083333	-0.42708	-0.69375	0.047917	-0.77917	-0.42083	-0.31667	-0.54167	-0.25	268.953	11.135	294.713	173.700	-51.614	56.260	186.362	247.580	-44.834	201.203	-28.904	-54.095	242.368	283.449	-60.782	-14.599	0.00019997	0.00040444	6.2713e-05	1319.5	3.6449e-06	5.3015e-06	1320.7	358.01	1.1008e-06	5.607e-06	408.78	134.61	114.55	40.515	5.2951e-06	50.505	0.00047731	0.0005117	0.00014522	1328.3	5.6878e-06	5.6157e-06	1332.8	363.57	5.6157e-06	5.4414e-06	413.7	138.59	117.37	41.35	5.2691e-06	51.507	123.615	34.854	15.746	-49.840	65.004	85.945	-49.934	-45.359	92.129	67.538	-45.657	-41.652	-40.277	-36.418	100.717	-37.124	-8191	255	
1197.331	1	1	0	0	0.10403	0.12806	0.087116	0.13862	0.057741	0.12538	0.44552	0.10571	0.087488	0.08139	0.31297	0.18835	0.12032	0.20143	0.10928	0.14115	-0.36667	-0.55833	0.097917	-0.79583	-0.23333	-0.31042	-0.97917	-0.33542	-0.19792	-0.78542	0.15625	-1.0542	-0.6375	-0.18125	-0.75417	-0.25417	10.744	49.984	23.056	-62.173	169.179	11.951	244.817	176.645	219.600	50.352	291.745	267.059	-17.876	123.238	45.387	270.445	0.00020682	0.00053541	0.00014274	1315.7	4.8154e-06	7.7507e-06	1314	358.9	3.1095e-06	4.2315e-06	408.23	135.13	114.7	40.416	3.7512e-06	50.395	0.00046805	0.00051203	0.00014071	1325.8	5.4579e-06	5.4096e-06	1329.4	363.28	5.3449e-06	5.2082e-06	413.61	138.38	117.37	41.239	5.183e-06	51.443	117.565	24.367	13.938	-49.831	83.138	94.770	-49.979	-45.303	60.857	75.760	-45.636	-41.517	-40.663	-36.387	94.985	-36.987	-8191	255	
1197.427	1	1	0	0	0.085157	0.076993	0.17562	0.41842	0.1413	0.22307	0.36191	0.019522	0.06048	0.037129	0.27545	0.23285	0.32927	0.42146	0.057051	0.12656	-0.020833	-0.92708	0.23125	-0.63333	-0.5	-0.14167	-1.0812	-0.058333	-0.32292	-0.80208	0.0375	-0.8125	-0.425	0.020833	-0.84167	-0.23542	-39.298	48.196	215.181	-34.577	132.472	212.548	201.287	137.701	-3.089	291.470	207.866	-45.640	201.726	218.654	227.776	282.241	0.00022134	0.00053754	0.00012807	1313.7	3.4321e-06	5.2261e-06	1313.3	358.48	2.232e-06	5.0317e-06	406.26	135.46	114.41	40.382	4.574e-06	50.346	0.00046131	0.00049199	0.0001382	1321.3	5.3499e-06	5.3641e-06	1326.4	362.92	5.3801e-06	5.4285e-06	412.51	138.42	117.2	41.238	5.561e-06	51.475	125.098	44.984	31.584	-49.737	95.262	96.925	-50.097	-45.086	94.469	82.100	-45.883	-41.600	-40.460	-36.205	68.362	-37.016	-8191	255	
1197.548	1	1	0	0	0.13335	0.28145	0.15336	0.19467	0.048222	0.099446	0.37486	0.12944	0.187	0.023279	0.11446	0.042194	0.11765	0.2844	0.19355	0.16975	0.18958	-0.80833	0.05625	-0.62917	-0.40417	0.066667	-1.0625	-0.40625	-0.19792	-0.96042	-0.21875	-0.35417	-0.92083	0.12292	-0.8875	-0.2625	251.465	66.411	289.236	-48.908	38.981	181.451	295.448	197.622	48.719	6.862	274.895	271.087	283.977	-8.436	-48.060	218.558	0.00018512	0.00051538	0.00010625	1317.8	1.9681e-06	4.7488e-06	1319.3	358.96	7.8948e-07	3.9191e-06	410.15	134.97	114.23	40.369	4.7021e-06	50.206	0.00047815	0.00052668	0.00014733	1325.9	5.7904e-06	5.7591e-06	1331.3	363.28	5.7422e-06	5.6942e-06	414.51	138.39	117.21	41.272	5.5769e-06	51.395	126.029	27.459	19.643	-49.679	125.570	73.704	-50.035	-45.196	129.309	101.845	-45.628	-41.649	-40.458	-36.354	73.678	-36.981	-8191	255	
1197.644	1	1	0	0	0.057644	0.17966	0.13429	0.22116	0.2341	0.16237	0.21411	0.24228	0.028669	0.045311	0.21931	0.29062	0.082628	0.32644	0.055424	0.11364	0.29375	-0.82083	-0.091667	-0.65208	-0.61667	-0.0375	-0.83958	-0.34583	-0.10208	-0.88542	-0.08125	-0.51458	-0.99375	0.060417	-0.7125	-0.4625	74.605	91.469	269.141	231.769	1.177	65.890	285.940	153.603	231.577	-57.002	294.625	257.851	237.123	195.835	52.330	25.347	0.00018924	0.00062526	0.00011099	1310.4	1.9903e-06	4.4113e-06	1307.5	355.8	3.2064e-06	3.6187e-06	406.05	135.06	114.28	40.391	3.3832e-06	50.153	0.00046634	0.0004962	0.00014067	1321.7	5.2965e-06	5.3396e-06	1324.3	362.37	5.3278e-06	5.2136e-06	411.59	138.08	116.92	41.189	5.3187e-06	51.277	121.560	15.931	16.446	-50.073	72.045	81.067	-50.020	-45.203	31.940	78.242	-45.791	-41.662	-40.430	-36.399	84.899	-37.120	-8191	255	
1197.740	1	1	0	0	0.061665	0.13204	0.34218	0.35148	0.2649	0.088447	0.041362	0.074613	0.24054	0.075779	0.28742	0.32796	0.26594	0.294	0.22409	0.12259	0.29167	-0.88958	0.0020833	-0.48125	-0.72292	0.10417	-0.77708	-0.79583	-0.0020833	-0.93542	-0.20208	-0.35417	-0.94375	-0.016667	-0.6125	-0.63333	290.422	172.726	97.913	263.020	183.420	104.641	117.072	292.708	207.452	113.791	176.497	-52.227	-49.399	264.614	221.818	245.328	0.00018736	0.00054156	0.0001051	1306.1	2.1674e-06	5.8511e-06	1302.1	356.16	4.39e-06	4.6915e-06	404.48	134.09	114.13	40.157	3.7966e-06	50.247	0.00045813	0.00048108	0.00013391	1315.2	5.1553e-06	5.2108e-06	1319	360.6	5.4861e-06	5.1659e-06	410.78	137.5	116.78	41.034	5.2307e-06	51.338	106.452	29.057	14.681	-49.866	107.800	91.893	-49.966	-45.213	87.857	83.083	-46.031	-41.552	-40.444	-36.244	92.590	-37.086	-8191	255	
1197.812	1	1	0	0	0.26277	0.13685	0.10118	0.22874	0.092606	0.14552	0.14121	0.19837	0.10337	0.11514	0.31723	0.2606	0.11457	0.27224	0.10005	0.13133	0.1875	-0.9125	-0.25833	-0.4375	-0.86042	0.060417	-0.79583	-1.0271	0.22917	-0.93958	-0.26042	-0.058333	-0.92083	-0.30208	-0.45208	-1.0042	114.549	-40.314	195.924	-32.251	166.231	-8.211	240.469	211.909	98.235	103.669	194.991	284.234	267.780	286.601	115.939	218.347	0.00021223	0.00047299	0.0001737	1303.5	3.915e-06	5.3309e-06	1307	356.38	1.7862e-06	7.5376e-06	406.89	134.53	114.45	40.208	4.4839e-06	49.949	0.00046483	0.00048397	0.00014037	1313.5	5.3816e-06	5.454e-06	1321.1	361.48	5.6244e-06	5.3633e-06	412.16	137.75	116.84	41.08	5.6381e-06	51.254	112.962	18.799	10.703	-49.750	80.946	100.771	-50.162	-45.137	87.948	73.680	-45.876	-41.388	-40.418	-36.369	66.295	-37.042	-8191	255	
1197.932	1	1	0	0	0.17357	0.2695	0.08136	0.16556	0.1205	0.11727	0.15748	0.32734	0.051046	0.023561	0.3508	0.20441	0.52429	0.22164	0.24599	0.21546	0.30833	-0.83542	-0.42917	-0.33333	-0.91667	-0.275	-0.5625	-0.83542	-0.29167	-0.71458	-0.3625	-0.11875	-0.91875	-0.36458	-0.425	-0.86875	171.325	109.789	107.334	36.411	206.373	271.695	-38.280	225.552	18.024	-57.553	-27.834	238.472	234.705	27.728	274.830	1.228	0.00015103	0.00049674	0.00015922	1304.8	3.1059e-06	5.0819e-06	1305.7	355.96	2.0299e-06	4.1334e-06	406.93	135.01	114.33	40.234	4.378e-06	50.005	0.00048353	0.00050493	0.00014357	1316.2	5.4977e-06	5.61e-06	1321.5	361.2	5.7045e-06	5.5511e-06	412.01	137.77	116.96	41.117	5.6687e-06	51.171	115.211	37.638	38.645	-49.743	82.848	84.871	-49.954	-45.408	97.895	62.016	-45.857	-41.735	-40.277	-36.256	85.584	-36.870	-8191	255	
1198.028	1	1	0	0	0.22523	0.33859	0.083885	0.13041	0.11791	0.11305	0.21761	0.23764	0.11259	0.14585	0.10216	0.28973	0.22934	0.14784	0.25033	0.42148	0.51458	-0.825	-0.45417	-0.11458	-0.96875	-0.12917	-0.52292	-0.91667	0.0125	-0.6	-0.85208	-0.06875	-0.70625	-0.425	-0.1625	-1.2437	-50.227	209.807	11.568	266.432	28.283	23.315	277.020	167.810	48.720	-52.093	268.125	221.384	-47.132	-49.913	102.232	117.979	0.00017043	0.00041138	0.00014719	1306.2	3.7334e-06	4.9104e-06	1307.8	356.3	2.1454e-06	5.5271e-06	405.57	134.49	113.53	40.006	4.5618e-06	49.88	0.00048303	0.00051401	0.00014296	1316.9	5.5723e-06	5.4628e-06	1321.6	361.37	5.6131e-06	5.4448e-06	410.76	137.58	116.52	40.929	5.5024e-06	51.042	108.772	28.180	41.449	-49.795	66.659	79.972	-49.948	-45.338	86.703	84.148	-45.821	-41.762	-40.383	-36.476	107.387	-37.099	-8191	255	
1198.123	1	1	0	0	0.35109	0.11629	0.16515	0.15963	0.051751	0.020237	0.16239	0.26741	0.21841	0.074348	0.56791	0.25606	0.38815	0.24158	0.14675	0.24812	0.47292	-0.4625	-0.5875	-0.022917	-0.98958	-0.17292	-0.36458	-1.0083	0.21875	-0.54583	-0.91458	-0.039583	-0.81458	-0.47083	-0.077083	-0.87917	105.769	119.171	71.821	276.855	-52.620	89.208	198.649	245.709	-53.700	-7.558	219.318	174.929	-25.568	201.355	65.730	179.420	0.00019613	0.00045812	0.00016324	1303.9	1.8254e-06	4.2273e-06	1299.7	354.74	1.8714e-06	4.5656e-06	406.79	134.01	113.78	40.155	3.6911e-06	49.826	0.00047258	0.00049661	0.0001325	1312	5.2581e-06	5.2515e-06	1315.6	360.1	5.4059e-06	5.2813e-06	410.69	137.01	116.35	40.947	5.4409e-06	51.007	121.228	35.859	13.165	-49.632	112.299	101.994	-50.070	-45.364	84.410	100.412	-45.845	-41.634	-40.468	-36.390	107.339	-37.057	-8191	255	
1198.221	1	1	0	0	0.10863	0.16595	0.22688	0.20703	0.17426	0.16929	0.041024	0.26348	0.24843	0.17868	0.1113	0.25029	0.34102	0.066809	0.13018	0.24779	0.20208	-0.41875	-0.92708	-0.060417	-0.82083	-0.24583	-0.38958	-1.3062	-0.06875	-0.45625	-0.99583	-0.0125	-0.69583	-0.44375	-0.0041667	-0.91458	183.198	163.232	165.847	0.575	290.926	79.903	61.661	-10.942	-30.135	264.600	281.861	293.397	291.665	96.604	160.378	-47.365	0.00017156	0.00038732	0.00016838	1302.8	2.5574e-06	3.2395e-06	1301.5	355.41	1.5027e-06	4.8377e-06	402.9	133.76	113.1	39.778	2.2743e-06	49.752	0.0004614	0.00049416	0.0001382	1310.4	5.2881e-06	5.2886e-06	1313.3	359.63	5.3798e-06	5.296e-06	408.7	136.72	115.84	40.724	5.2858e-06	50.811	116.437	35.411	24.543	-49.720	90.814	99.336	-49.868	-45.284	102.555	76.097	-45.763	-41.707	-40.310	-36.349	86.828	-36.829	-8191	255	
1198.340	1	1	0	0	0.20496	0.16138	0.16481	0.32918	0.23716	0.20289	0.28031	0.19404	0.26608	0.051694	0.30047	0.35858	0.24474	0.22878	0.094194	0.14661	-0.058333	-0.22083	-0.7375	0.01875	-0.5625	-0.74167	-0.058333	-0.89792	-0.31875	-0.089583	-1.1479	0.21458	-0.5625	-0.65625	0.097917	-0.98958	228.890	261.597	-26.068	-59.472	9.421	175.758	289.681	158.001	139.525	6.655	239.172	272.864	-29.046	293.252	36.228	184.951	0.00016009	0.00049128	0.00010864	1292.9	4.8267e-06	3.0372e-06	1295.4	354.75	2.6236e-06	2.8457e-06	402.8	133.01	113.99	39.965	3.4329e-06	50.016	0.0004621	0.00049351	0.0001314	1305.5	5.2042e-06	5.2711e-06	1310.2	359.23	5.4841e-06	5.4285e-06	408.91	136.74	116.07	40.794	5.496e-06	50.972	119.820	31.586	22.281	-49.762	93.885	88.691	-49.915	-45.451	100.724	103.696	-45.818	-41.533	-40.586	-36.202	70.744	-37.079	-8191	255	
1198.411	1	1	0	0	0.34647	0.2431	0.083276	0.1156	0.43001	0.097543	0.13951	0.21701	0.17007	0.20838	0.19702	0.17551	0.16103	0.09955	0.1019	0.026542	0.125	-0.14792	-0.77083	-0.25625	-0.2	-0.64792	-0.12917	-0.84167	-0.13333	-0.16667	-1.0354	-0.11875	-0.35833	-0.63958	-0.01875	-0.825	252.412	248.083	65.502	281.049	129.018	111.866	145.041	240.022	140.479	-49.783	275.740	105.064	204.543	-24.483	247.815	8.298	0.00020926	0.00037244	0.00016913	1297.9	4.1715e-06	7.3152e-06	1299.1	354.9	3.2428e-06	3.7316e-06	404.49	133.41	112.86	39.973	3.6896e-06	49.692	0.00046537	0.00049574	0.00013796	1307.5	5.4138e-06	5.432e-06	1313.5	359.94	5.4714e-06	5.3669e-06	409.93	136.73	115.85	40.81	5.5728e-06	50.889	115.714	19.043	37.214	-49.944	83.551	76.779	-50.149	-45.191	67.917	80.881	-45.710	-41.873	-40.321	-36.428	91.490	-37.032	-8191	255	
1198.532	1	1	0	0	0.20687	0.41451	0.16966	0.26741	0.11723	0.17336	0.27498	0.099066	0.13924	0.18507	0.35638	0.13743	0.28111	0.061892	0.17386	0.058161	-0.25833	-0.03125	-0.58125	-0.13958	-0.3625	-0.82083	-0.016667	-0.72917	-0.52708	-0.079167	-1.2271	-0.066667	-0.23958	-0.7625	-0.0020833	-0.55	-0.164	-13.449	59.208	240.890	290.866	112.196	282.003	242.553	109.069	281.740	266.621	-12.871	240.736	123.505	100.888	210.285	0.00017199	0.00050888	0.00017683	1296.3	3.2021e-06	7.0171e-06	1299.6	354.86	1.516e-06	5.5066e-06	404.93	133.38	113.14	40.086	4.9773e-06	49.811	0.00047222	0.00051135	0.00013621	1307.6	5.4802e-06	5.3894e-06	1312.7	359.76	5.5364e-06	5.5388e-06	409.41	136.77	116.15	40.824	5.4342e-06	50.941	111.552	15.696	20.162	-49.955	106.437	99.164	-49.954	-45.141	84.594	90.243	-45.522	-41.727	-40.462	-36.202	95.156	-36.873	-8191	255	
1198.628	1	1	0	0	0.085696	0.19433	0.27729	0.13959	0.29143	0.17266	0.28327	0.10677	0.046008	0.21573	0.19792	0.0797	0.10657	0.038903	0.24709	0.21828	-0.26667	0.075	-0.8375	-0.325	0.052083	-0.97292	-0.32292	-0.47917	-0.73958	0.15625	-1.0042	-0.50208	-0.033333	-1.1417	-0.1	-0.68542	221.954	-18.138	225.713	-34.564	280.583	10.671	170.901	-40.977	227.059	229.596	250.236	292.964	286.799	239.348	141.349	-32.641	0.00017503	0.00038406	0.00011729	1298.7	3.6959e-06	6.5354e-06	1302.6	354.22	3.0702e-06	6.3918e-06	404.61	133.48	113.44	39.864	2.6946e-06	49.809	0.00046506	0.00051336	0.00013543	1308.5	5.4254e-06	5.3276e-06	1313.3	359.56	5.3267e-06	5.5277e-06	409.36	136.55	116.17	40.768	5.5607e-06	50.941	119.663	12.488	41.132	-49.803	110.385	81.323	-49.875	-45.109	62.792	92.436	-45.700	-41.731	-40.311	-36.229	98.865	-37.031	-8191	255	
1198.724	1	1	0	0	0.13981	0.14104	0.23807	0.19848	0.20767	0.23012	0.16332	0.083487	0.12646	0.1099	0.2839	0.24888	0.121	0.19796	0.098451	0.12174	-0.45833	-0.041667	-0.81458	-0.2	-0.17708	-0.80625	-0.31042	-0.53125	-0.60208	0.0020833	-0.82917	-0.60208	-0.085417	-0.95	-0.05	-0.52292	244.031	227.041	184.701	271.913	200.052	287.021	286.730	56.775	259.817	218.427	175.074	200.315	37.288	231.241	80.141	122.580	0.00017632	0.00046078	0.00010951	1297	3.6969e-06	4.816e-06	1294.1	354.59	1.7851e-06	5.4407e-06	403.22	133.52	113.21	39.912	4.3479e-06	49.55	0.00044867	0.00050188	0.00013512	1306.4	5.2915e-06	5.2066e-06	1310	359.21	5.3286e-06	5.3369e-06	408.37	136.67	116	40.767	5.2619e-06	50.791	122.700	24.272	43.045	-49.961	85.914	87.766	-49.995	-45.055	63.596	90.335	-45.762	-41.582	-40.223	-36.138	81.022	-36.677	-8191	255	
1198.820	1	1	0	0	0.069875	0.36567	0.069908	0.16768	0.12702	0.10944	0.21556	0.30811	0.058614	0.037497	0.25414	0.12477	0.15827	0.28554	0.15065	0.10357	-0.325	0.46875	-0.68333	-0.40833	0.052083	-0.95833	-0.38958	-0.22083	-0.88333	0.072917	-0.95417	-0.80208	0.0875	-0.90417	-0.1625	-0.31458	-25.874	115.304	33.611	231.825	134.486	147.550	256.552	261.271	60.192	19.345	-51.719	91.456	146.735	-32.191	-2.789	-55.985	0.00020966	0.00040483	0.00016326	1291.1	4.5679e-06	4.5147e-06	1294.5	352.9	3.9769e-06	4.4787e-06	403.54	132.97	113.05	39.892	3.7737e-06	49.696	0.00044859	0.00048932	0.00013446	1304.2	5.3174e-06	5.2301e-06	1309.5	358.57	5.3655e-06	5.2605e-06	408.45	136.38	115.6	40.695	5.2708e-06	50.735	122.892	35.131	20.582	-49.789	111.365	73.571	-49.860	-44.867	80.283	103.062	-45.484	-41.647	-40.337	-36.164	86.877	-37.056	-8191	255	
1198.941	1	1	0	0	0.21766	0.10162	0.22196	0.29216	0.09472	0.16581	0.25056	0.22225	0.21568	0.24495	0.25298	0.065244	0.22246	0.30021	0.14974	0.22462	-0.73125	0.2	-0.51458	-0.69583	0.25208	-1.1	-0.625	-0.21875	-0.99792	-0.0020833	-0.63333	-0.62083	-0.041667	-0.90625	-0.39375	-0.0125	290.274	241.944	203.048	292.096	165.337	148.357	206.717	229.019	177.375	244.337	275.362	294.124	207.203	200.545	204.955	276.879	0.00018854	0.00056553	0.00012119	1291.7	2.8768e-06	5.2597e-06	1295.2	353	2.9698e-06	4.9747e-06	404.03	133.1	113.05	39.902	3.5621e-06	49.57	0.00044912	0.00047959	0.00013039	1302.5	5.1934e-06	5.1426e-06	1308.9	358.41	5.275e-06	5.2383e-06	407.95	136.24	115.49	40.728	5.2561e-06	50.745	123.237	29.574	29.267	-49.619	101.006	67.116	-49.897	-45.125	89.714	86.631	-45.614	-41.615	-40.036	-36.312	65.295	-36.890	-8191	255	
1199.035	1	1	0	0	0.1542	0.24204	0.062846	0.22799	0.20066	0.17064	0.22744	0.037002	0.22006	0.17783	0.02131	0.30588	0.18266	0.29525	0.22697	0.10415	-0.71042	0.085417	-0.36667	-0.92292	0.08125	-0.8625	-0.55625	-0.17083	-0.75625	-0.33333	-0.48333	-0.64792	-0.095833	-0.62292	-0.54167	0.020833	67.191	74.085	20.576	252.312	149.226	278.718	248.063	-17.705	68.232	185.396	-4.330	-9.528	271.012	-59.333	183.073	145.500	0.00017985	0.00040529	0.00017199	1294.2	2.3799e-06	3.9429e-06	1295.8	353.24	2.376e-06	3.9924e-06	402.98	133.13	112.15	39.887	3.2446e-06	49.53	0.00045786	0.00049079	0.00013211	1303.1	5.1553e-06	5.2998e-06	1309.6	358.4	5.2988e-06	5.3125e-06	408.47	136.4	115.27	40.701	5.2959e-06	50.745	112.731	18.722	11.730	-49.728	95.406	67.016	-49.885	-45.097	95.337	79.708	-45.728	-41.524	-40.204	-36.319	99.914	-36.898	-8191	255	
1199.109	1	1	0	0	0.25368	0.074985	0.18872	0.025174	0.22522	0.21618	0.24148	0.16957	0.16182	0.34775	0.1382	0.12409	0.089706	0.14668	0.14641	0.15094	-0.34792	-0.075	-0.089583	-0.85	0.20833	-0.71667	-0.86042	0.14167	-0.87917	-0.36667	-0.36875	-0.9125	-0.20833	-0.77292	-0.59583	0.064583	269.380	224.742	203.280	56.480	166.098	261.272	269.873	282.374	-9.213	15.459	-43.223	262.461	-47.269	230.047	153.147	70.007	0.00020756	0.00047355	0.00017137	1293.5	4.0197e-06	5.9211e-06	1292.7	353.98	3.3175e-06	6.0971e-06	403.2	133.38	112.9	39.854	3.5649e-06	49.526	0.00045778	0.00049335	0.00013121	1303.7	5.3999e-06	5.3215e-06	1308.3	358.59	5.219e-06	5.2689e-06	407.74	136.31	115.5	40.732	5.1365e-06	50.786	115.809	25.609	19.705	-49.959	100.088	73.111	-50.046	-45.176	63.712	90.326	-45.718	-41.586	-40.256	-36.174	88.082	-36.994	-8191	255	
1199.228	1	1	0	0	0.40931	0.10894	0.15173	0.23916	0.14278	0.26046	0.31081	0.064036	0.2293	0.20835	0.19614	0.16327	0.36828	0.14133	0.13883	0.18911	-0.4	-0.32292	-0.05	-1.0833	0.0020833	-0.54375	-0.83542	-0.1375	-0.61875	-0.38958	0.027083	-0.98125	-0.34792	-0.60625	-0.71875	-0.10833	37.192	-13.231	41.677	107.115	242.138	292.662	194.601	190.571	-53.534	50.680	190.701	293.257	-42.451	290.591	201.203	-41.386	0.00019652	0.00057056	0.00014468	1289.4	3.012e-06	2.8272e-06	1290.7	354.27	3.2648e-06	4.2381e-06	401.88	133.18	112.18	39.934	3.8743e-06	49.608	0.0004522	0.0004878	0.00013582	1301.5	5.1474e-06	5.2186e-06	1306.4	358.48	5.2823e-06	5.1532e-06	407.39	136.28	115.14	40.714	5.1729e-06	50.758	114.466	28.527	25.297	-49.745	75.006	80.264	-49.976	-45.104	46.736	74.963	-45.594	-41.311	-40.162	-36.335	75.252	-36.848	-8191	255	
1199.324	1	1	0	0	0.10703	0.172	0.21333	0.22089	0.20641	0.25482	0.31645	0.24346	0.15686	0.29449	0.079977	0.36651	0.17295	0.056363	0.16874	0.13961	-0.44167	-0.44167	-0.225	-1.0708	-0.091667	-0.41667	-1.0479	-0.054167	-0.91458	-0.47292	-0.12083	-1.0396	-0.24167	-0.36458	-0.87917	0.16042	229.294	59.882	163.400	284.452	62.585	151.423	221.908	251.265	82.956	173.691	-48.313	208.726	55.442	188.505	158.580	214.245	0.0001975	0.00058213	0.00012042	1287.2	3.3732e-06	5.0236e-06	1292.6	352.95	3.0099e-06	4.2658e-06	402.75	132.93	113.18	39.665	3.4934e-06	49.664	0.00044388	0.00047834	0.00013389	1299.1	5.1886e-06	5.1187e-06	1305.5	358.27	5.2258e-06	5.0219e-06	407.76	136.28	115.56	40.59	5.1793e-06	50.787	123.832	18.945	40.333	-49.805	100.596	71.082	-49.936	-44.922	58.418	100.792	-45.569	-41.627	-40.179	-35.992	71.907	-36.514	-8191	255	
1199.420	1	1	0	0	0.17696	0.17132	0.053102	0.13045	0.080933	0.088595	0.50135	0.14941	0.2703	0.31814	0.10521	0.10775	0.19943	0.22793	0.20144	0.12647	-0.46875	-0.69167	0.25833	-1.1625	-0.2625	-0.12708	-0.97083	0.10833	-0.72708	-0.76667	0.01875	-0.72083	-0.39583	-0.27708	-0.60625	-0.072917	-11.578	25.458	279.463	213.004	186.715	32.252	241.469	273.779	48.012	177.275	5.057	220.229	-56.409	-13.417	281.269	172.019	0.00020028	0.00061808	0.00013905	1293.3	4.5793e-06	3.2139e-06	1293.8	352.88	3.0997e-06	5.9681e-06	404.14	133.12	112.6	39.799	4.5925e-06	49.422	0.00044195	0.0004835	0.00013326	1302.2	5.3412e-06	5.3387e-06	1307.1	357.92	5.2044e-06	5.2281e-06	408.08	136.31	115.47	40.634	5.095e-06	50.732	127.536	16.011	35.534	-49.743	83.669	87.646	-49.784	-45.246	60.644	82.375	-45.779	-41.689	-40.276	-36.153	97.734	-36.935	-8191	255	
1199.516	1	1	0	0	0.21047	0.12593	0.060911	0.17454	0.090963	0.33152	0.15954	0.19332	0.1819	0.07082	0.079042	0.16179	0.093689	0.29637	0.12598	0.19295	-0.0125	-0.72917	0.30208	-1.0146	-0.32917	-0.12708	-1.3687	-0.11458	-0.35417	-0.8375	-0.13333	-0.85833	-0.51042	0.066667	-0.90833	-0.20833	21.325	246.408	76.243	284.682	157.977	-27.200	177.410	246.119	245.767	54.641	121.447	218.608	-43.391	288.291	47.521	250.517	0.00018572	0.00030437	0.0001204	1290.7	2.2038e-06	6.1077e-06	1290	354.01	1.8636e-06	1.4446e-06	403.3	133.02	112.44	39.721	2.6656e-06	49.68	0.00044704	0.00046045	0.00013346	1299.1	5.201e-06	5.1637e-06	1306.1	358.12	5.1622e-06	5.0318e-06	407.23	136.27	115.08	40.622	5.0675e-06	50.72	114.980	16.250	11.705	-49.524	99.370	97.340	-49.715	-45.093	52.729	57.734	-45.473	-41.245	-40.197	-36.062	49.341	-36.566	-8191	255	
1199.637	1	1	0	0	0.043802	0.2261	0.20984	0.17946	0.15134	0.15544	0.3084	0.11854	0.19143	0.13964	0.22404	0.37474	0.185	0.20784	0.27353	0.15165	-0.14375	-0.875	0.17083	-0.6625	-0.58542	0.12917	-1.0833	-0.15417	-0.0625	-0.94167	-0.070833	-0.65208	-0.55417	-0.225	-1.0187	-0.25625	130.356	188.292	59.507	254.685	240.714	88.650	280.314	245.089	257.504	51.142	-50.353	276.368	7.670	211.774	34.510	13.946	0.00022739	0.00049127	0.00014538	1292	4.3025e-06	5.8005e-06	1292.7	352.48	2.2556e-06	4.372e-06	400.56	132.39	112.72	39.856	3.8256e-06	49.756	0.00044602	0.00046616	0.00013599	1301.8	5.2618e-06	5.2657e-06	1304.3	357.69	5.3368e-06	5.1181e-06	406.81	136.18	115.37	40.68	5.2107e-06	50.727	119.825	29.962	27.510	-49.408	108.139	74.847	-49.749	-44.905	97.754	85.659	-45.422	-41.098	-40.385	-35.933	57.733	-36.548	-8191	255	
1199.708	1	1	0	0	0.083999	0.32671	0.23644	0.17742	0.35003	0.083408	0.13797	0.34409	0.13572	0.35023	0.14289	0.15979	0.28512	0.16226	0.23557	0.20852	0.21458	-0.96458	0.025	-0.40625	-0.42083	0.045833	-0.80417	-0.44583	-0.16458	-0.80208	-0.18333	-0.82083	-0.75625	0.11667	-0.925	-0.60833	114.977	115.953	190.092	284.815	267.004	260.850	138.986	191.260	38.384	-36.523	258.525	-44.469	236.431	-52.851	44.158	272.435	0.00020078	0.00030691	0.00010274	1291.9	4.3232e-06	6.2837e-06	1295.5	352.77	3.874e-06	5.1466e-06	402.46	133.22	112.33	39.78	4.7494e-06	49.598	0.00046708	0.00046659	0.00013261	1302.1	5.2211e-06	5.2615e-06	1307.4	358.74	5.4189e-06	5.1905e-06	407.3	136.28	115.32	40.654	5.2544e-06	50.72	117.584	21.469	22.195	-49.246	107.738	101.154	-49.604	-44.900	69.191	92.253	-45.343	-41.335	-39.937	-36.181	89.733	-36.828	-8191	255	
1199.805	1	1	0	0	0.23528	0.26765	0.3413	0.050508	0.26269	0.2076	0.22465	0.2129	0.041536	0.26354	0.0434	0.17063	0.30345	0.10257	0.083547	0.22318	0.077083	-0.90625	-0.15417	-0.69792	-0.54583	0.010417	-0.92292	-0.44167	-0.13542	-1.0438	-0.11875	-0.30208	-0.80625	-0.14167	-0.62708	-0.65625	159.854	146.352	179.441	65.286	285.849	127.570	236.383	258.124	274.553	132.576	281.727	250.231	-28.257	-22.577	-6.771	221.630	0.00020531	0.00049168	0.00012233	1299.2	3.5508e-06	5.344e-06	1295.4	353.01	3.1995e-06	5.5042e-06	403.82	132.93	112.7	39.679	4.1943e-06	49.531	0.00044925	0.00047929	0.00013605	1304.6	5.2883e-06	5.2431e-06	1306.3	358.03	5.4366e-06	5.3871e-06	408.09	136.01	115.44	40.6	5.2604e-06	50.743	119.447	43.805	6.429	-49.672	80.650	81.877	-49.537	-44.846	88.747	99.429	-45.200	-41.272	-40.086	-35.861	70.785	-36.676	-8191	255	
1199.901	1	1	0	0	0.075947	0.26882	0.15646	0.2433	0.2545	0.23307	0.11997	0.23276	0.25851	0.065817	0.14432	0.15883	0.12282	0.35057	0.23369	0.13237	0.1875	-0.84583	-0.18333	-0.53125	-0.9	-0.075	-0.84792	-0.74792	-0.00625	-0.84375	-0.425	-0.475	-0.98125	-0.16042	-0.57292	-0.74583	259.799	-43.728	73.515	189.130	-36.071	230.409	227.726	-23.162	242.680	49.678	219.565	134.426	234.216	275.615	167.216	98.881	0.00020847	0.00044551	0.00014244	1291.7	3.3095e-06	3.0131e-06	1299.6	354.52	2.2753e-06	4.2134e-06	401.21	133.22	112.9	39.848	4.4267e-06	49.41	0.00046297	0.0004779	0.00013521	1302.4	5.2502e-06	5.4353e-06	1309	358.66	5.4698e-06	5.3777e-06	407.37	136.48	115.56	40.704	5.4923e-06	50.633	114.430	24.434	44.264	-49.405	100.776	96.109	-49.706	-44.925	30.799	92.637	-45.345	-41.424	-39.980	-35.796	110.681	-36.393	-8191	255	
1200.021	1	1	0	0	0.15224	0.21686	0.25094	0.30012	0.078341	0.23124	0.35352	0.23585	0.22393	0.13702	0.34033	0.13896	0.13648	0.21364	0.062861	0.15771	0.34583	-0.8	-0.32083	-0.44792	-0.96458	0.05	-0.56875	-0.88125	0.085417	-0.78125	-0.38125	-0.17917	-0.82917	-0.01875	-0.45	-0.76667	247.291	256.583	114.528	-59.871	46.024	108.181	229.686	260.686	70.015	-40.865	282.526	266.867	-31.587	100.802	8.591	197.890	0.00019024	0.00049145	0.00011752	1304.8	3.1972e-06	3.7071e-06	1303.8	353.79	4.1957e-06	3.4591e-06	404.44	133.52	113.88	40.077	2.8239e-06	49.616	0.00046679	0.00050846	0.00013927	1312.5	5.5364e-06	5.6209e-06	1317.5	359.37	5.6648e-06	5.6007e-06	410.06	137.01	116.45	40.868	5.6878e-06	50.887	121.581	17.236	7.623	-49.431	95.662	80.785	-49.653	-45.007	92.784	81.013	-45.361	-41.118	-40.097	-35.938	77.837	-36.908	-8191	255	
1200.116	1	1	0	0	0.1106	0.18985	0.1489	0.2513	0.10042	0.1106	0.21506	0.12849	0.08024	0.32423	0.22951	0.025609	0.25214	0.12913	0.11006	0.15805	0.50417	-0.63125	-0.30625	-0.19167	-0.71042	-0.12083	-0.65208	-0.825	-0.022917	-0.52917	-0.55208	-0.20208	-0.91875	-0.22292	-0.30208	-0.9875	229.835	165.609	87.369	-55.800	217.941	278.660	286.600	228.540	60.437	218.173	-33.410	92.688	275.655	15.324	168.128	206.307	0.00017368	0.00044327	0.00015834	1301	4.7053e-06	4.6039e-06	1303.5	355.21	2.6984e-06	3.1856e-06	402.32	133.32	113.46	39.848	4.2134e-06	49.668	0.0004901	0.00051809	0.0001457	1315.6	5.5152e-06	5.5113e-06	1318.1	360.16	5.5243e-06	5.2993e-06	408.78	136.7	116.05	40.791	5.2899e-06	50.851	119.385	16.568	9.901	-49.283	103.166	99.880	-49.526	-44.848	33.342	93.355	-45.461	-41.200	-39.723	-36.136	71.845	-36.365	-8191	255	
1200.214	1	1	0	0	0.009555	0.11348	0.27665	0.10561	0.089602	0.065894	0.29439	0.063528	0.12912	0.36466	0.081521	0.18784	0.23341	0.24373	0.090593	0.086589	0.49792	-0.70417	-0.44167	0.01875	-0.57083	-0.2375	-0.325	-1.0167	0.010417	-0.5	-0.7375	-0.14583	-0.68542	-0.26875	-0.10417	-1.0208	30.051	159.321	3.460	-53.793	77.983	213.190	241.343	206.707	156.802	-21.065	13.456	-48.296	202.929	294.308	-8.251	-47.579	0.00017295	0.00056655	0.00016103	1297.1	3.9423e-06	7.0696e-06	1299.6	353.59	2.3354e-06	2.7457e-06	402.58	133.84	113.72	39.972	5.5189e-06	49.727	0.00046175	0.00048079	0.00013117	1306.4	5.2166e-06	5.3544e-06	1311.7	358.8	5.3992e-06	5.3711e-06	408.01	136.65	116.02	40.791	5.4111e-06	50.862	120.339	27.891	14.112	-49.288	85.898	91.812	-49.464	-44.837	103.807	90.623	-45.561	-41.340	-39.899	-35.951	87.271	-37.554	-8191	255	
1200.333	1	1	0	0	0.33362	0.35478	0.089785	0.12158	0.14319	0.066248	0.58047	0.39579	0.16314	0.18509	0.12137	0.084112	0.31526	0.052624	0.078953	0.17086	0.45	-0.33542	-0.80417	0.016667	-0.90417	-0.15208	-0.12708	-1.0063	-0.05	-0.57708	-0.67708	0.05625	-0.925	-0.33125	0.020833	-0.94792	70.817	12.741	166.050	252.543	256.957	178.475	235.852	239.043	51.778	216.150	288.183	-3.115	291.153	48.376	110.106	173.947	0.00020479	0.00044493	0.00011215	1296.9	3.11e-06	4.9351e-06	1294.7	354.35	2.6514e-06	4.9032e-06	401.82	133.11	112.76	39.87	4.1114e-06	49.794	0.00047284	0.00047777	0.00013217	1307	5.216e-06	5.3122e-06	1310.1	358.63	5.2873e-06	5.2061e-06	407.18	136.56	115.51	40.746	5.2754e-06	50.778	125.002	3.825	32.179	-50.720	130.451	74.672	-50.505	-45.986	87.775	66.501	-46.530	-42.211	-41.126	-37.070	74.776	-37.549	-8191	255	
1200.404	1	1	0	0	0.20426	0.024461	0.1378	0.26647	0.14776	0.26128	0.26767	0.42915	0.24625	0.04424	0.20435	0.24579	0.11731	0.1985	0.16478	0.39588	0.1375	-0.17917	-0.73958	-0.15208	-0.69375	-0.47292	-0.26458	-0.75625	-0.19375	-0.18333	-0.93125	0.0041667	-0.58125	-0.825	0.24583	-0.95625	49.383	54.677	281.048	286.103	156.456	268.066	264.445	290.356	-43.564	215.448	158.297	-51.223	7.947	243.003	226.116	228.501	0.00017662	0.00046398	0.00011016	1295.3	3.5562e-06	6.8118e-06	1298.1	352.81	2.1741e-06	6.2511e-06	402.08	133.41	113.49	39.719	2.719e-06	49.672	0.00046537	0.0004906	0.00013492	1306.1	5.2044e-06	5.3095e-06	1311.8	358.41	5.3309e-06	5.391e-06	407.74	136.46	116.04	40.748	5.4706e-06	50.927	117.438	34.160	36.472	-50.505	85.814	89.740	-50.809	-46.025	49.143	109.393	-46.585	-42.317	-40.997	-36.996	58.212	-37.671	-8191	255	
1200.500	1	1	0	0	0.060245	0.082363	0.043584	0.44243	0.23123	0.046583	0.082531	0.17029	0.25044	0.027794	0.22226	0.14418	0.44362	0.31579	0.1674	0.1769	0.0875	-0.10625	-1.0167	-0.0375	-0.63542	-0.51458	-0.14792	-1.0042	-0.30625	-0.033333	-0.90208	-0.19167	-0.48333	-0.825	0.064583	-0.77292	171.097	281.135	224.441	-60.537	231.529	12.989	195.835	-7.317	105.585	213.526	-14.400	81.579	-32.098	-9.315	255.888	103.709	0.00018699	0.00027015	0.00016481	1296.6	4.7843e-06	4.577e-06	1297.6	354.12	1.561e-06	3.4541e-06	402.99	133.2	113.12	39.8	3.2509e-06	49.807	0.00046892	0.000498	0.00013683	1306	5.3449e-06	5.1661e-06	1311.9	358.82	5.3506e-06	5.357e-06	407.81	136.39	115.74	40.714	5.3739e-06	50.843	123.219	18.866	15.113	-50.484	88.859	75.388	-50.787	-46.077	15.540	112.973	-46.846	-42.329	-40.970	-36.775	95.183	-37.616	-8191	255	
1200.621	1	1	0	0	0.14043	0.27687	0.2168	0.17903	0.33642	0.26064	0.14249	0.4004	0.33728	0.15416	0.33002	0.026299	0.27891	0.21866	0.17932	0.11021	-0.01875	0.09375	-0.83125	-0.04375	-0.32917	-0.8	-0.21042	-0.71667	-0.65417	-0.12292	-0.73958	-0.30625	-0.36458	-0.95417	0.22917	-0.65208	33.652	268.652	279.687	279.971	76.137	16.575	-41.445	186.430	-58.723	21.328	268.283	62.509	36.213	227.189	90.404	162.588	0.00019308	0.00037493	0.00014398	1288.4	3.0859e-06	3.8158e-06	1295.5	354.01	3.842e-06	4.6875e-06	403.55	133.35	113.01	39.966	4.6466e-06	49.708	0.00045098	0.00050028	0.0001338	1302.4	5.2389e-06	5.2017e-06	1309.8	358.71	5.3053e-06	5.2852e-06	408.06	136.7	115.86	40.804	5.4726e-06	50.791	124.482	19.028	36.244	-50.625	75.746	66.624	-50.604	-45.982	76.217	102.002	-46.586	-42.255	-41.135	-37.373	54.490	-37.948	-8191	255	
1200.717	1	1	0	0	0.096092	0.11844	0.19252	0.28448	0.26342	0.079952	0.30209	0.20504	0.082316	0.19098	0.15454	0.041282	0.072207	0.18586	0.22182	0.093162	-0.1625	0.13125	-0.77917	-0.41042	-0.08125	-0.91875	-0.17083	-0.6	-0.65833	0.3	-0.9375	-0.19792	-0.10625	-0.88125	0.0083333	-0.7	118.195	175.128	218.028	147.466	88.522	95.185	194.759	206.265	200.589	106.217	257.631	63.584	26.300	-15.699	56.195	-45.912	0.00016969	0.00048087	0.00012182	1294.2	4.9993e-06	6.0952e-06	1296.8	352.79	2.5969e-06	3.9805e-06	403.16	132.9	113.25	39.866	2.8368e-06	49.61	0.00045574	0.00049476	0.00013867	1307.3	5.383e-06	5.4178e-06	1312.2	358.72	5.2423e-06	5.391e-06	407.99	136.46	115.95	40.765	5.3566e-06	50.857	123.428	-3.033	21.427	-50.684	86.446	81.670	-50.703	-46.045	89.981	84.255	-46.638	-42.271	-40.965	-37.027	97.040	-37.622	-8191	255	
1200.813	1	1	0	0	0.083153	0.20166	0.098774	0.12278	0.076041	0.07585	0.28007	0.21858	0.096511	0.086741	0.36319	0.14209	0.046266	0.15567	0.12346	0.13049	-0.16042	0.24375	-0.81875	-0.36458	-0.19167	-0.95417	-0.10625	-0.5875	-0.70417	0.0875	-0.96458	-0.675	-0.16458	-1.1417	0.125	-0.26875	161.294	123.058	265.427	58.967	225.160	27.278	8.488	263.816	-63.080	39.305	292.476	262.072	30.523	244.011	12.959	163.999	0.00017079	0.00037964	0.00016964	1296.4	3.4206e-06	5.1272e-06	1298.6	353.71	2.4395e-06	6.3236e-06	404.94	133.71	112.94	39.963	5.0255e-06	49.713	0.00044293	0.00049957	0.00013177	1307.2	5.4288e-06	5.3614e-06	1311.9	359.3	5.2744e-06	5.5307e-06	408.75	136.67	116.07	40.84	5.5096e-06	50.904	126.033	29.297	27.841	-50.474	76.434	91.448	-50.549	-45.263	53.676	80.105	-45.840	-41.967	-40.475	-36.642	90.914	-37.101	-8191	255	
1200.909	1	1	0	0	0.15057	0.090384	0.31718	0.086685	0.096542	0.035794	0.38106	0.28089	0.22001	0.30751	0.24496	0.16131	0.15249	0.46509	0.2104	0.38826	-0.50417	0.225	-0.62708	-0.48542	0.089583	-0.72917	-0.15208	-0.66458	-0.77708	0.11042	-0.86875	-0.48542	-0.047917	-0.91042	-0.13333	-0.22917	93.093	288.906	211.159	151.398	174.881	128.969	242.514	-48.080	121.488	-19.910	-60.277	256.138	291.815	-33.307	266.596	258.728	0.00018694	0.00042342	0.00016295	1295.2	4.6694e-06	4.0771e-06	1296	353.68	2.2057e-06	4.8972e-06	402.9	133.5	112.5	40.192	2.417e-06	49.666	0.00045776	0.00049617	0.00013479	1306.5	5.4025e-06	5.2802e-06	1310.8	358.88	5.3537e-06	5.3732e-06	408.01	136.47	115.6	40.826	5.2457e-06	50.881	120.799	41.506	33.459	-50.045	76.849	84.928	-50.011	-45.272	69.193	98.692	-45.641	-41.700	-40.394	-36.122	89.205	-36.833	-8191	255	
1201.006	1	1	0	0	0.27553	0.11059	0.4238	0.25332	0.03852	0.07419	0.28605	0.40177	0.11169	0.23793	0.16667	0.26856	0.14055	0.30998	0.15265	0.11804	-0.5	0.12708	-0.49375	-0.94375	-0.0041667	-0.91458	-0.45833	-0.33958	-0.85	-0.027083	-0.78333	-0.79583	0.17917	-0.94792	-0.425	-0.34583	101.533	61.301	139.049	285.574	-1.522	-0.494	236.507	286.762	242.796	-32.775	40.092	2.610	70.682	-56.840	245.654	199.544	0.00017643	0.00027518	0.00013062	1295.6	2.8465e-06	6.7972e-06	1297.4	354	4.0372e-06	4.6724e-06	401.53	133.5	112.89	40.042	4.7331e-06	49.925	0.0004545	0.00048987	0.00013313	1306.5	5.3997e-06	5.3644e-06	1310	358.84	5.2761e-06	5.2969e-06	407.69	136.57	115.92	40.791	5.5688e-06	50.962	125.493	19.008	20.144	-49.990	88.988	89.691	-49.671	-44.989	62.158	98.883	-45.402	-41.872	-40.445	-36.035	97.641	-36.778	-8191	255	
1201.102	1	1	0	0	0.2142	0.20619	0.050746	0.3275	0.20336	0.19687	0.063335	0.34651	0.070941	0.087186	0.28274	0.1437	0.27097	0.10583	0.23479	0.14317	-0.35208	0.04375	-0.56458	-0.77708	0.20833	-0.85	-0.5875	-0.26875	-0.99375	-0.079167	-0.675	-0.80625	0.097917	-0.80208	-0.18333	-0.12917	-51.623	125.228	40.488	-26.572	222.656	-47.979	256.535	274.884	293.855	-22.895	286.321	55.252	-55.061	238.775	19.616	213.478	0.00021205	0.00043612	0.00013785	1304.5	2.918e-06	5.0214e-06	1305.1	355.22	2.8886e-06	5.9671e-06	404.25	133.45	113.21	39.986	3.3765e-06	49.646	0.00046547	0.00049936	0.00014181	1312.1	5.5421e-06	5.5101e-06	1316	359.71	5.3874e-06	5.6275e-06	409.11	136.82	115.97	40.835	5.4605e-06	50.942	121.075	22.408	12.078	-49.634	60.773	72.629	-49.911	-45.154	57.141	78.596	-45.594	-41.638	-40.199	-36.008	76.896	-36.683	-8191	255	
1201.196	1	1	0	0	0.1464	0.22098	0.23154	0.23973	0.52624	0.16545	0.36573	0.17796	0.21771	0.14428	0.26247	0.12372	0.25301	0.26873	0.11723	0.06836	-0.5	-0.0375	-0.3	-0.78542	-0.05625	-0.63125	-0.65833	-0.36875	-1.0042	-0.20417	-0.37708	-1.1708	0.089583	-0.79375	-0.5375	-0.275	118.551	85.343	60.677	276.113	122.591	-9.696	265.555	273.693	276.427	263.917	176.278	89.057	233.739	-39.285	27.371	80.875	0.00016495	0.00045236	0.00019226	1302.8	2.5276e-06	6.9358e-06	1295.1	354.41	2.6513e-06	5.2985e-06	404.53	134.15	113.31	40.02	4.0876e-06	49.741	0.00046307	0.0005173	0.00014054	1311.3	5.4692e-06	5.4214e-06	1313.3	359.49	5.6812e-06	5.5157e-06	409.03	137	116.06	40.941	5.3369e-06	50.971	113.658	40.222	18.614	-49.834	43.425	78.446	-49.708	-45.049	67.988	73.451	-45.239	-41.373	-39.707	-36.026	82.333	-36.777	-8191	255	
1201.294	1	1	0	0	0.16027	0.34898	0.033292	0.12684	0.031575	0.13688	0.31757	0.21117	0.26647	0.31599	0.1473	0.057795	0.18245	0.29809	0.034778	0.16954	-0.56458	-0.15625	0.064583	-0.96042	-0.21458	-0.40208	-0.89583	-0.033333	-0.81042	-0.34583	-0.029167	-0.93958	-0.2	-0.44375	-0.77083	-0.0625	133.197	30.520	-24.684	175.335	63.196	106.609	264.925	-28.991	127.129	137.177	11.399	199.795	257.657	288.400	267.913	223.191	0.00017906	0.00043814	0.00019245	1299.2	3.126e-06	6.0205e-06	1302.9	353.71	2.8823e-06	7.0984e-06	402.32	133.56	113.45	39.952	3.7456e-06	49.834	0.00046553	0.00050819	0.00013798	1312.6	5.6059e-06	5.451e-06	1316	359.31	5.5963e-06	5.3038e-06	408.54	136.88	116.32	40.903	5.4565e-06	50.981	109.917	27.998	34.302	-49.674	96.904	74.528	-49.986	-45.355	46.882	93.797	-45.549	-41.614	-40.205	-36.341	89.051	-37.529	-8191	255	
1201.413	1	1	0	0	0.19749	0.13117	0.193	0.50653	0.052003	0.030785	0.05331	0.11515	0.20296	0.11834	0.22927	0.13022	0.19965	0.35559	0.12175	0.069619	-0.43958	-0.2875	-0.20625	-0.83333	-0.04375	-0.46042	-0.86667	-0.24375	-0.73958	-0.39583	-0.05625	-0.95	-0.13542	-0.40417	-0.85	0.035417	164.144	210.343	36.553	240.670	92.312	-22.442	-61.071	157.290	142.809	93.894	251.812	127.225	-34.939	256.718	184.771	154.467	0.00016549	0.00029644	0.00010298	1300.5	2.8606e-06	4.1791e-06	1301.6	354.41	3.3949e-06	5.3939e-06	402.39	133.66	113.17	40.084	5.5433e-06	49.605	0.00046784	0.00049457	0.0001393	1313.5	5.4856e-06	5.409e-06	1316.6	359.26	5.3882e-06	5.4986e-06	408.81	136.83	116	40.892	5.4002e-06	50.793	119.262	10.733	40.860	-49.629	110.298	92.185	-49.945	-45.160	60.258	96.342	-45.663	-41.773	-40.748	-36.071	100.619	-36.900	-8191	255	
1201.509	1	1	0	0	0.18085	0.43214	0.28759	0.35089	0.11029	0.071731	0.11078	0.31605	0.16904	0.22457	0.12385	0.23911	0.2119	0.21899	0.16177	0.10992	-0.18542	-0.67083	0.0083333	-1.125	-0.15417	-0.19583	-1.0604	-0.125	-0.50417	-0.68542	0.0020833	-0.72708	-0.32917	-0.25417	-0.82292	0	277.322	13.333	172.727	269.272	15.276	113.305	269.287	207.504	140.200	240.529	272.539	289.591	-22.404	294.602	187.814	37.266	0.00019692	0.00040925	0.00017047	1303	4.6835e-06	4.0849e-06	1302.7	354.7	3.2156e-06	4.9866e-06	403.09	133.39	112.69	40.175	3.0212e-06	49.59	0.00046917	0.00049248	0.00013923	1313.5	5.4706e-06	5.4501e-06	1318.2	359.8	5.4141e-06	5.262e-06	409.17	136.93	115.92	40.901	5.3384e-06	50.797	118.390	4.348	35.880	-49.895	91.265	108.938	-50.242	-45.483	150.255	86.420	-46.064	-41.837	-40.578	-36.659	63.480	-37.020	-8191	255	
1201.581	1	1	0	0	0.17587	0.1759	0.10974	0.2406	0.2066	0.093112	0.30989	0.1397	0.35235	0.16645	0.087479	0.165	0.12768	0.097827	0.21713	0.045203	-0.03125	-0.44375	0.14583	-0.81667	-0.45625	-0.047917	-0.88958	-0.10625	-0.4375	-0.6	-0.05	-0.75208	-0.46458	-0.06875	-0.92708	-0.27292	-50.093	38.476	55.293	257.841	200.948	192.906	236.079	248.085	94.315	264.391	254.535	273.444	273.349	258.923	158.828	263.166	0.00020827	0.00057432	0.00011034	1303.6	3.0103e-06	3.0761e-06	1303.5	355.57	3.1637e-06	4.2989e-06	404.6	133.83	113.37	40.327	4.4469e-06	49.78	0.00047181	0.00048206	0.00013855	1313	5.3926e-06	5.4099e-06	1316.8	359.54	5.5636e-06	5.4757e-06	408.83	137.05	116.1	41.046	5.55e-06	51.018	119.609	24.272	11.304	-49.734	109.746	77.974	-50.004	-45.208	73.387	75.393	-45.891	-41.906	-40.464	-36.277	97.182	-36.559	-8191	255	
1201.701	1	1	0	0	0.21028	0.070271	0.12711	0.20181	0.070827	0.34294	0.18085	0.28065	0.069199	0.089483	0.064831	0.13707	0.25734	0.13665	0.26448	0.38479	-0.1375	-0.67083	0.125	-0.72708	-0.36458	-0.17917	-1.1271	-0.15417	-0.28125	-0.7125	0.1125	-0.80208	-0.50208	-0.035417	-0.925	-0.42917	143.793	4.585	30.534	-11.506	207.224	64.289	239.280	240.418	258.854	230.364	248.234	185.279	239.559	260.129	65.439	-60.764	0.00018425	0.00040979	0.00013473	1303.9	2.6526e-06	5.226e-06	1304.2	355.48	3.0333e-06	3.5134e-06	403.1	133.82	113.17	40.058	3.8901e-06	49.853	0.00047295	0.00049498	0.00013687	1314.6	5.3378e-06	5.3819e-06	1319.2	360.15	5.42e-06	5.2121e-06	408.47	137.05	116.04	40.887	5.3603e-06	50.992	123.388	4.297	32.395	-49.604	97.765	98.587	-50.107	-45.740	69.897	91.540	-45.940	-41.841	-40.631	-36.486	77.979	-37.279	-8191	255	
1201.798	1	1	0	0	0.14608	0.24467	0.2595	0.25853	0.26019	0.07425	0.065824	0.1332	0.026615	0.032748	0.27636	0.32723	0.17327	0.15752	0.3143	0.07434	0.15208	-0.86042	0.24583	-0.73333	-0.32292	-0.0125	-0.80833	-0.38958	-0.21042	-0.78542	-0.25625	-0.62917	-0.55833	0.00625	-0.80625	-0.54792	121.955	78.955	-2.135	189.865	-61.486	13.387	251.573	44.406	239.956	5.432	257.567	248.071	26.587	-11.837	-63.076	-38.429	0.000199	0.0003669	0.00013322	1308.1	2.4395e-06	4.9741e-06	1304.5	353.7	2.4536e-06	4.6437e-06	402.87	134.15	113.35	40.119	4.0867e-06	49.732	0.00045966	0.00047421	0.00013574	1314.9	5.311e-06	5.4634e-06	1319.4	359.13	5.4571e-06	5.3756e-06	409.35	137.21	116.15	40.92	5.4464e-06	51.014	121.995	20.360	4.325	-49.856	92.294	85.796	-50.313	-45.662	59.480	88.554	-46.556	-42.128	-40.971	-36.887	90.795	-37.540	-8191	255	
1201.894	1	1	0	0	0.10367	0.12811	0.077339	0.1427	0.19017	0.11278	0.17598	0.045496	0.15112	0.15015	0.29234	0.31739	0.32873	0.19839	0.050164	0.29042	0.22292	-0.78125	-0.054167	-0.74375	-0.63333	-0.079167	-0.97917	-0.52917	0.20625	-1.0396	-0.18333	-0.4875	-0.65625	-0.16875	-0.54792	-0.44375	106.026	161.803	288.311	249.799	-34.139	180.061	145.308	209.562	-44.016	-61.602	210.609	289.153	-62.117	-31.907	109.847	149.932	0.00017993	0.00041759	0.00019635	1303.2	3.8202e-06	4.8683e-06	1311.2	354.17	2.9527e-06	3.5512e-06	404.73	133.5	113.78	40	3.6632e-06	49.927	0.00047621	0.00048875	0.00014315	1314.7	5.4293e-06	5.5608e-06	1320.9	359.58	5.4925e-06	5.336e-06	409.32	136.74	116.53	40.974	5.4478e-06	50.956	116.582	38.453	24.425	-50.462	89.756	75.309	-50.547	-45.906	74.852	78.438	-46.479	-41.809	-41.099	-36.946	85.277	-37.632	-8191	255	
1202.014	1	1	0	0	0.15508	0.22837	0.1394	0.29681	0.095727	0.27844	0.35216	0.28963	0.25002	0.062291	0.31243	0.2497	0.26167	0.091201	0.10423	0.5018	0.40833	-0.82917	-0.020833	-0.43542	-0.75	0.14792	-0.82917	-0.66042	0.083333	-0.89375	-0.32917	-0.37917	-0.85833	-0.11667	-0.68958	-0.65208	-9.842	16.147	157.760	244.026	267.263	166.227	235.265	228.434	229.117	-58.961	-48.414	281.254	-10.257	145.371	-58.099	246.310	0.00019032	0.00052198	0.00014976	1302.3	4.6696e-06	3.6622e-06	1309.2	355.16	1.9628e-06	5.6562e-06	405.09	133.39	113.31	40.038	2.6149e-06	49.933	0.00047756	0.00050441	0.00014256	1315.4	5.3208e-06	5.7229e-06	1321.2	359.86	5.4982e-06	5.314e-06	409.97	137.21	116.24	40.928	5.4871e-06	51.062	121.281	31.657	27.889	-50.234	73.339	106.853	-50.484	-45.822	35.169	78.578	-46.548	-42.149	-40.917	-36.900	113.000	-37.408	-8191	255	
1202.109	1	1	0	0	0.09602	0.26443	0.18481	0.13022	0.15602	0.20288	0.15468	0.19262	0.14648	0.3316	0.030002	0.2177	0.3754	0.47768	0.12788	0.046132	0.24792	-0.8625	-0.23333	-0.25	-0.91875	-0.047917	-0.65625	-0.7	0.054167	-0.72292	-0.49375	-0.14583	-1.3479	-0.12292	-0.25833	-0.7875	-33.083	24.422	106.233	236.980	152.753	100.253	93.927	247.596	184.197	191.585	137.622	258.383	156.280	280.333	-3.395	-41.970	0.00019729	0.00029853	0.00019518	1307	3.0206e-06	4.7302e-06	1307.9	354.73	2.6745e-06	5.6635e-06	404.55	134	113.74	40.059	1.3606e-06	50.031	0.00046867	0.00049745	0.00014112	1317.5	5.3468e-06	5.629e-06	1321.5	359.93	5.6654e-06	5.5262e-06	409.83	137.43	116.47	40.979	5.6063e-06	51.047	122.270	34.694	25.591	-50.309	95.195	102.993	-50.449	-45.775	87.596	101.236	-46.370	-42.059	-40.960	-36.911	138.924	-37.449	-8191	255	
1202.205	1	1	0	0	0.089177	0.17411	0.18988	0.21412	0.14315	0.12911	0.32806	0.14251	0.16362	0.35541	0.28701	0.26835	0.046652	0.19074	0.11104	0.11398	0.49375	-0.77083	-0.36875	-0.36875	-0.88125	-0.020833	-0.49792	-0.9	-0.025	-0.70625	-0.78333	-0.18125	-0.96667	-0.30417	-0.25625	-1.075	280.482	275.736	-22.892	251.835	-34.864	160.767	221.489	245.847	198.759	64.625	-60.151	160.787	20.254	256.163	2.427	284.416	0.00016309	0.00044523	0.00018352	1306.6	3.799e-06	3.797e-06	1310.6	355.03	2.5444e-06	2.6819e-06	403.79	134.05	113.37	40.065	2.3068e-06	49.843	0.00048473	0.00051167	0.00014355	1317.1	5.5542e-06	5.5306e-06	1322.9	359.8	5.7216e-06	5.5322e-06	409.19	137.16	116.23	40.924	5.5503e-06	51.08	125.681	21.921	19.177	-50.206	88.798	70.209	-50.219	-45.472	105.906	70.131	-46.037	-42.059	-40.702	-36.427	89.177	-37.140	-8191	255	
1202.301	1	1	0	0	0.14235	0.072801	0.041815	0.1503	0.15412	0.075422	0.30844	0.10065	0.15229	0.21681	0.35336	0.10449	0.27264	0.054064	0.18534	0.25658	0.38333	-0.36875	-0.67292	0.025	-0.9	-0.083333	-0.52708	-1.2083	0.054167	-0.60208	-0.68333	0.020833	-1.0312	-0.35833	-0.19792	-0.88125	30.507	278.469	64.049	-23.453	192.778	35.971	-47.875	29.512	-2.410	-18.028	269.045	-13.768	-51.888	208.453	29.528	278.188	0.00018272	0.00059509	0.00017049	1312.9	2.7041e-06	4.7578e-06	1303.1	354.95	3.2684e-06	3.3795e-06	403.67	134.45	113.49	40.164	3.7662e-06	50.243	0.00048685	0.00050444	0.00014173	1320.3	5.2988e-06	5.69e-06	1320.9	360.38	5.6362e-06	5.5337e-06	410.37	137.39	116.56	40.975	5.5518e-06	51.131	125.242	36.482	37.478	-50.150	87.502	91.462	-49.719	-45.016	114.666	72.807	-45.986	-41.741	-40.264	-36.196	65.969	-37.069	-8191	255	
1202.397	1	1	0	0	0.16397	0.041247	0.2864	0.24832	0.14656	0.17854	0.48498	0.27211	0.021197	0.063203	0.30501	0.20378	0.11611	0.025451	0.18008	0.17611	0.37292	-0.48958	-0.6375	-0.12292	-0.86667	-0.20417	-0.26458	-0.925	-0.0083333	-0.47917	-0.82917	-0.047917	-0.83542	-0.56458	0.03125	-1.0938	207.583	-5.222	199.547	249.926	243.026	24.203	223.141	-2.104	97.342	278.142	182.122	283.944	282.700	-51.950	76.331	245.288	0.00023996	0.00046663	0.00010086	1307.8	3.5311e-06	5.2344e-06	1310	354.84	2.6236e-06	4.3699e-06	404.05	133.9	114.12	39.909	3.3974e-06	49.866	0.00046859	0.00050732	0.00013511	1318.3	5.366e-06	5.4302e-06	1323.5	360.36	5.6058e-06	5.5094e-06	409.64	137.15	116.49	40.942	5.5235e-06	51.038	111.765	17.079	18.976	-49.959	66.093	121.638	-50.131	-45.370	70.852	65.709	-45.945	-41.861	-40.770	-36.469	70.263	-37.680	-8191	255	
1202.493	1	1	0	0	0.048726	0.076117	0.070231	0.11826	0.2259	0.25496	0.45303	0.3981	0.21222	0.10721	0.16348	0.21366	0.36902	0.22399	0.14722	0.23839	0.45417	-0.30625	-0.72292	0.054167	-0.77083	-0.375	-0.097917	-0.91667	-0.28542	-0.097917	-0.89792	-0.15208	-0.70833	-0.62083	0.22083	-0.90833	105.485	259.386	26.181	24.884	-25.645	148.201	189.398	-61.554	203.983	247.777	201.482	23.435	-61.198	-21.926	112.226	213.267	0.00017261	0.00072253	9.9722e-05	1303.8	4.1974e-06	5.1257e-06	1310	355.4	2.4077e-06	5.6203e-06	402.99	134.33	113.81	39.938	3.8234e-06	49.969	0.00047673	0.00050349	0.00014192	1316.7	5.4985e-06	5.4664e-06	1324.2	360.23	5.5867e-06	5.5337e-06	409.43	137.26	116.65	40.916	5.6621e-06	51.17	113.932	43.610	28.492	-50.349	86.209	59.096	-50.619	-45.898	84.330	83.017	-46.351	-42.368	-41.082	-37.004	70.783	-37.778	-8191	255	
1202.589	1	1	0	0	0.12992	0.20824	0.1198	0.15841	0.21327	0.074201	0.50229	0.21576	0.14581	0.14397	0.056174	0.27916	0.066506	0.13188	0.21343	0.12485	0.052083	-0.20208	-0.825	-0.25208	-0.53333	-0.575	-0.14583	-0.96875	-0.3375	-0.11042	-0.92083	-0.052083	-0.33333	-1.0125	0.22917	-1.0042	293.195	240.251	212.148	244.920	4.668	149.784	219.735	255.011	154.691	76.554	1.698	271.641	222.934	234.449	43.785	20.997	0.0001881	0.00055025	0.00017426	1308	3.7606e-06	5.8436e-06	1311.4	356.43	5.1424e-06	4.2814e-06	404	134.14	113.74	40.113	4.5416e-06	50.117	0.00048499	0.00051782	0.00014019	1317.6	5.4601e-06	5.5053e-06	1324.7	360.9	5.6699e-06	5.5836e-06	409.96	137.31	116.5	40.946	5.6722e-06	51.158	112.760	47.275	26.030	-50.867	89.974	76.997	-50.686	-46.063	65.535	75.744	-46.609	-42.279	-41.287	-37.215	69.596	-37.691	-8191	255	
1202.710	1	1	0	0	0.097729	0.16275	0.11894	0.1367	0.12924	0.12565	0.031861	0.2744	0.17524	0.12065	0.18039	0.28868	0.31213	0.17366	0.15867	0.31632	0.11458	-0.14167	-0.79792	-0.31042	-0.48542	-0.62292	-0.091667	-0.975	-0.41458	-0.2125	-0.99792	-0.27292	-0.4375	-0.87917	0.19167	-0.87708	47.417	137.424	-13.335	62.970	258.104	249.739	232.096	267.216	58.296	-63.293	183.768	273.217	-46.510	1.495	16.995	241.189	0.00017751	0.00049054	0.00011941	1304.7	4.692e-06	4.8577e-06	1310.7	355.8	2.657e-06	3.6279e-06	404.57	133.41	113.21	40.049	4.5835e-06	49.912	0.00047318	0.00050991	0.00013936	1317.5	5.4904e-06	5.3816e-06	1321.4	360.21	5.4104e-06	5.5989e-06	409.52	136.74	116.31	40.955	5.5226e-06	50.996	119.239	6.099	26.266	-50.545	108.378	78.674	-51.001	-45.917	60.985	89.091	-46.753	-42.326	-41.080	-37.160	99.925	-37.774	-8191	255	
1202.806	1	1	0	0	0.085852	0.052946	0.30179	0.043801	0.25473	0.16516	0.32633	0.1399	0.25224	0.2129	0.208	0.22293	0.16374	0.049761	0.10319	0.1639	-0.15417	-0.00625	-0.87083	-0.14792	-0.49583	-1.1562	-0.12083	-0.76458	-0.71042	-0.03125	-0.97083	-0.26875	-0.29167	-1.1	0.17708	-0.68125	64.936	63.956	250.590	20.937	-24.643	164.106	228.345	274.279	171.470	173.867	292.932	254.561	-15.726	295.925	46.798	264.488	0.000183	0.00045261	0.00017956	1307.7	2.979e-06	4.6916e-06	1303.3	353.63	2.5203e-06	4.2116e-06	403.12	133.77	113.41	40.043	2.4148e-06	49.976	0.00046536	0.00050901	0.00014049	1316	5.4353e-06	5.4803e-06	1319.3	359.84	5.4416e-06	5.5704e-06	409.17	137.08	116.34	40.881	5.4978e-06	51.012	114.818	12.946	36.623	-50.642	94.097	63.540	-50.750	-46.021	110.284	71.737	-46.473	-42.314	-40.998	-37.295	84.263	-37.787	-8191	255	
1202.878	1	1	0	0	0.42693	0.13323	0.033582	0.057899	0.018064	0.13199	0.1824	0.31346	0.29983	0.26262	0.29113	0.22128	0.16727	0.14489	0.28653	0.23695	-0.175	0.070833	-0.8125	-0.55208	-0.15417	-1.0125	-0.2125	-0.63333	-0.75208	0.072917	-0.87292	-0.48542	-0.24583	-1.1812	-0.24375	-0.33542	84.752	238.414	178.215	237.285	-35.845	42.654	235.766	246.440	246.647	127.581	224.702	227.441	228.083	256.746	38.720	-39.323	0.00017588	0.00056211	0.00016244	1303.6	2.1983e-06	5.2116e-06	1308.4	355.24	2.8159e-06	4.9394e-06	404.65	133.91	113.27	39.998	2.6422e-06	50.008	0.00046613	0.00051181	0.00013681	1314.6	5.4839e-06	5.5853e-06	1319.9	360.12	5.4934e-06	5.5989e-06	409.49	136.93	116.29	40.889	5.5604e-06	51.043	119.180	8.273	28.374	-50.549	83.964	55.266	-50.744	-45.899	69.236	77.990	-46.600	-42.504	-41.178	-37.004	72.105	-37.825	-8191	255	
1202.974	1	1	0	0	0.14263	0.15313	0.12889	0.21191	0.13825	0.13344	0.19795	0.028093	0.031052	0.068582	0.20463	0.20526	0.12002	0.076627	0.29076	0.29902	-0.475	-0.13333	-0.94583	-0.63125	-0.22292	-0.77083	-0.2375	-0.72292	-0.83542	0.10833	-0.85	-0.60208	-0.12708	-0.77917	0.05	-0.6	183.879	-27.713	252.452	245.994	287.202	105.929	167.039	230.526	244.247	151.777	143.965	-62.877	150.761	-10.894	-15.258	283.054	0.00018424	0.00055452	0.00015432	1303.7	4.5019e-06	6.9723e-06	1302.4	356.24	2.8109e-06	5.7231e-06	404.6	133.99	113.02	40.051	4.6811e-06	49.507	0.00046206	0.0005105	0.0001394	1314.6	5.5559e-06	5.4938e-06	1318.9	360.63	5.5977e-06	5.6043e-06	409.95	137.14	116.28	40.928	5.6297e-06	50.954	114.670	40.103	33.834	-50.949	99.682	93.384	-50.829	-46.001	85.400	94.326	-46.665	-42.584	-41.333	-37.453	88.526	-37.784	-8191	255	
1203.093	1	1	0	0	0.068725	0.10817	0.11384	0.30472	0.16991	0.22215	0.3719	0.42664	0.18155	0.058765	0.40283	0.094617	0.11824	0.21367	0.092692	0.14763	-0.72708	0.19167	-0.62083	-0.75208	0.14375	-0.91042	-0.50208	-0.22917	-0.87708	-0.016667	-0.86667	-0.7625	0.041667	-1	-0.14167	-0.16458	106.935	134.056	-20.442	-23.188	-49.619	241.961	292.401	-40.695	48.889	-10.028	-29.351	165.889	289.303	199.288	-44.719	287.368	0.00018322	0.00057935	0.0001479	1307.5	3.7155e-06	7.423e-06	1300.7	355.93	2.9119e-06	5.1566e-06	404.64	133.79	113.78	39.878	3.673e-06	49.984	0.00047324	0.00052782	0.00014078	1317.3	5.5678e-06	5.4881e-06	1320.2	360.57	5.4282e-06	5.494e-06	410.46	137.15	116.23	40.889	5.6369e-06	51.096	117.980	16.355	19.189	-50.742	94.561	88.882	-50.812	-45.994	55.254	80.163	-46.358	-42.579	-41.106	-36.951	96.694	-37.885	-8191	255	
1203.189	1	1	0	0	0.1127	0.10899	0.16224	0.27141	0.06116	0.23421	0.14972	0.071268	0.058862	0.1983	0.13635	0.12512	0.056581	0.19094	0.13239	0.2328	-0.59375	-0.022917	-0.50208	-0.73333	0.41875	-0.80208	-0.5875	-0.16875	-0.84792	-0.20417	-0.57708	-0.91458	0.1125	-0.70833	-0.43542	-0.23125	236.299	220.251	43.967	263.195	208.134	148.367	219.828	161.845	10.722	81.575	-40.959	248.450	-62.101	-41.622	228.259	123.473	0.00020249	0.00035901	0.00014798	1310.3	2.6179e-06	5.2294e-06	1304.2	354.25	1.4648e-06	5.8138e-06	404.27	133.89	113.44	40.167	4.9692e-06	49.705	0.00046791	0.00052116	0.0001441	1316.8	5.496e-06	5.4314e-06	1319.4	359.87	5.461e-06	5.4751e-06	410.26	137.21	116.26	41.051	5.4282e-06	50.999	116.905	16.254	32.016	-50.679	127.068	83.682	-50.767	-46.022	75.379	91.183	-46.243	-42.497	-41.169	-37.283	85.481	-37.793	-8191	255	
1203.285	1	1	0	0	0.16814	0.10006	0.14908	0.14605	0.22853	0.098658	0.14352	0.29852	0.10976	0.20075	0.35451	0.28143	0.25188	0.25567	0.097154	0.29078	-0.61458	-0.22917	-0.25	-1.0125	0.17083	-0.75417	-0.79583	0.0083333	-0.91875	-0.11875	-0.48333	-0.9	-0.16458	-0.70417	-0.55208	0.0125	206.793	-59.299	283.958	-41.444	26.455	192.492	102.875	294.436	106.840	286.435	194.851	259.727	268.760	290.196	47.156	281.005	0.0002119	0.00069627	0.00016129	1305.9	4.1355e-06	5.6375e-06	1302.6	355.49	2.3592e-06	3.9991e-06	403.66	133.8	113.08	40.128	4.1727e-06	49.705	0.00045497	0.00049248	0.00013427	1315.3	5.509e-06	5.3903e-06	1318.9	360.17	5.327e-06	5.458e-06	409.34	137.03	116.07	41.002	5.5428e-06	50.958	118.140	17.133	27.966	-50.658	101.165	82.444	-50.894	-46.058	66.961	95.662	-46.480	-42.379	-41.054	-36.990	81.303	-37.584	-8191	255	
1203.381	1	1	0	0	0.069559	0.18828	0.068867	0.11777	0.20111	0.080717	0.19614	0.23111	0.12073	0.092951	0.25693	0.29401	0.046546	0.098875	0.29757	0.22305	-0.29583	-0.31042	-0.48125	-0.85417	0.035417	-0.33958	-0.8375	-0.20833	-0.80417	-0.30625	-0.3	-1.0104	0.0875	-0.55208	-0.61458	-0.14792	41.272	67.215	82.488	-38.473	249.070	4.051	267.904	-20.030	198.496	59.838	209.986	-54.692	7.217	136.718	183.460	204.857	0.00022478	0.00048687	0.00018711	1309.9	2.6868e-06	4.1847e-06	1303.7	354.53	1.5855e-06	4.354e-06	404.36	133.29	113.68	40.17	5.7299e-06	49.876	0.00047791	0.00051254	0.00014172	1319.9	5.7602e-06	5.5826e-06	1322.2	360.28	5.6542e-06	5.7747e-06	411.09	137.15	116.58	40.993	5.7022e-06	51.119	111.908	14.941	20.603	-50.511	73.878	89.665	-51.089	-46.290	33.010	105.235	-46.472	-42.461	-41.125	-37.201	90.291	-37.811	-8191	255	
1203.502	1	1	0	0	0.042275	0.31539	0.12917	0.3596	0.21859	0.21372	0.31402	0.056103	0.26912	0.080298	0.27217	0.0098926	0.44195	0.24801	0.22363	0.12707	-0.67292	-0.4	0.0375	-1.0792	0.125	-0.54167	-0.93125	-0.091667	-0.82708	-0.31458	-0.19583	-1.0333	-0.17083	-0.63958	-0.63333	-0.19375	274.805	36.251	275.146	271.690	183.332	246.248	285.241	253.915	15.145	22.731	202.852	155.193	-28.904	25.639	274.249	105.586	0.00015255	0.00047815	0.00012446	1308.8	4.9388e-06	5.275e-06	1307.4	355.47	1.2441e-06	5.2443e-06	404.7	134.04	113.88	40.245	3.0524e-06	50.083	0.00048754	0.00053277	0.00014782	1320.4	5.7881e-06	5.8689e-06	1325.1	361.51	5.8431e-06	5.8691e-06	410.83	137.43	116.6	41.155	5.8394e-06	51.184	113.090	38.894	32.183	-50.398	106.505	70.616	-50.930	-46.192	33.475	88.948	-46.576	-42.476	-41.141	-36.936	85.173	-37.836	-8191	255	
1203.574	1	1	0	0	0.26035	0.19803	0.27275	0.3612	0.20379	0.085423	0.0912	0.23368	0.075461	0.25695	0.20053	0.23309	0.24787	0.23581	0.37997	0.30666	-0.5375	-0.49792	0.03125	-1.1229	-0.12708	-0.49583	-1	-0.13125	-0.6125	-0.5	-0.15208	-0.89167	-0.41667	0.0020833	-0.83542	-0.06875	289.752	-29.282	177.397	270.714	161.481	59.405	21.651	-55.901	231.852	243.614	270.998	211.206	139.611	-18.950	144.016	231.577	0.00017343	0.00061406	0.00015449	1314	2.7737e-06	5.7374e-06	1313.1	356.12	2.1985e-06	3.7839e-06	406.73	134.12	113.32	40.19	3.8322e-06	50.007	0.00049138	0.00054055	0.0001514	1324.1	5.9139e-06	5.8753e-06	1328	361.57	5.8678e-06	5.7414e-06	412.35	137.57	116.56	41.051	5.9176e-06	51.162	121.820	17.784	54.336	-50.508	61.012	79.271	-50.894	-46.021	34.775	98.376	-46.383	-42.178	-40.729	-37.107	64.465	-37.623	-8191	255	
1203.694	1	1	0	0	0.14613	0.066404	0.2484	0.31079	0.3512	0.010198	0.24842	0.22339	0.08153	0.26557	0.26334	0.43113	0.043548	0.19654	0.085547	0.13556	-0.33333	-0.45833	0.17292	-1.1042	-0.15208	-0.19792	-0.91667	-0.1875	-0.36458	-0.67917	-0.05625	-0.96042	-0.4125	-0.15	-0.7625	-0.35417	234.335	40.114	254.068	253.469	89.538	-27.947	208.364	181.003	44.337	70.500	260.347	256.891	104.102	109.098	140.928	251.521	0.00018645	0.00050532	0.00010647	1310.7	6.4642e-06	5.4035e-06	1308.2	355.88	1.5344e-06	4.0171e-06	404.82	134.36	113.8	40.194	3.8338e-06	49.879	0.00050328	0.00053264	0.00015105	1324.1	5.9215e-06	5.7983e-06	1327.1	361.77	5.797e-06	5.6317e-06	411.36	137.63	116.68	41.07	5.6274e-06	51.069	116.218	25.014	17.278	-50.731	110.389	77.417	-50.799	-46.124	73.117	78.124	-46.534	-42.209	-41.352	-37.080	67.674	-37.981	-8191	255	
1203.790	1	1	0	0	0.20572	0.10225	0.1444	0.042973	0.17797	0.1623	0.18327	0.055552	0.29921	0.12027	0.12362	0.092467	0.21168	0.30399	0.19121	0.10946	-0.12917	-0.87083	-0.17083	-0.70417	-0.61875	-0.14167	-1.2875	-0.25208	-0.42083	-0.89583	0.058333	-1.0917	-0.7625	-0.37917	-1.1333	-0.39167	270.646	-37.947	184.421	203.899	118.923	182.657	235.286	-34.465	-7.882	18.181	263.633	9.959	-51.194	280.208	-32.729	167.066	0.000186	0.0003797	0.00014223	1315.7	2.8896e-06	2.6953e-06	1310.7	355.95	2.6562e-06	4.7114e-06	406.56	134.13	113.64	40.171	2.2996e-06	50.023	0.00048214	0.0005139	0.00014768	1325.3	5.7037e-06	5.8324e-06	1329.4	361.2	5.6142e-06	5.7621e-06	411.44	137.55	116.59	41.055	5.8731e-06	51.251	116.040	31.763	32.846	-50.584	86.633	33.667	-50.730	-46.151	100.225	89.003	-46.592	-42.490	-41.344	-37.289	94.196	-37.780	-8191	255	
1203.887	1	1	0	0	0.166	0.16734	0.11642	0.060685	0.068281	0.18357	0.18545	0.31006	0.045997	0.1166	0.023394	0.12926	0.1526	0.11777	0.38459	0.18987	0.12917	-0.86875	0.0020833	-0.86667	-0.68333	-0.14375	-1.2604	-0.35417	-0.1	-1.0479	-0.14167	-0.64583	-0.74167	-0.25833	-0.90625	-0.60625	280.784	232.878	169.521	32.924	200.357	226.973	265.003	235.644	13.496	213.608	3.724	-28.748	273.008	225.878	167.621	235.720	8.7669e-05	0.00047952	0.00015402	1314.3	2.3402e-06	4.8319e-06	1311	354.25	1.8391e-06	4.35e-06	405.89	133.64	113.7	39.95	3.8662e-06	49.824	0.0004833	0.00052453	0.00014306	1323.4	5.6373e-06	5.7567e-06	1326.3	360.82	5.7e-06	5.635e-06	411.14	137.39	116.77	41.036	5.5723e-06	51.101	124.916	16.710	38.955	-50.598	84.287	89.259	-50.775	-46.204	67.645	94.150	-46.538	-42.289	-41.433	-36.992	98.793	-37.981	-8191	255	
1203.983	1	1	0	0	0.32399	0.35097	0.2394	0.077024	0.089742	0.13376	0.56794	0.21663	0.39546	0.28899	0.38453	0.10799	0.24503	0.12601	0.14052	0.19291	0.24792	-1.0396	0.085417	-0.77292	-0.71875	-0.15417	-1.1583	-0.46875	-0.020833	-0.94167	-0.42083	-0.50417	-0.88333	0.15	-1.0042	-0.52917	-51.404	111.215	66.212	9.162	4.257	197.257	219.163	280.356	245.990	195.743	244.906	13.258	206.090	-41.071	231.482	214.177	0.00015868	0.0002857	0.00013469	1307.3	3.8177e-06	6.7375e-06	1309.7	356.24	1.1671e-06	4.8432e-06	405.33	133.78	113.79	39.94	4.0625e-06	50.106	0.00048303	0.00049297	0.0001452	1321.4	5.4322e-06	5.5898e-06	1321.8	360.49	5.4602e-06	5.2671e-06	410.32	137.24	116.37	40.879	5.3814e-06	51.021	132.740	27.071	3.184	-50.501	61.669	61.897	-50.633	-46.067	82.793	90.415	-46.604	-42.377	-41.215	-37.151	67.225	-37.866	-8191	255	
1204.103	1	1	0	0	0.030026	0.050451	0.25028	0.45716	0.064786	0.18439	0.18439	0.29082	0.34646	0.26805	0.21643	0.21863	0.094587	0.10031	0.078664	0.1729	0.30625	-0.9375	-0.10417	-0.4875	-0.8875	0.2	-0.89792	-0.69167	-0.1125	-0.77292	-0.56458	-0.39167	-1.1125	-0.1375	-0.73333	-0.61875	281.034	241.267	97.230	185.529	259.078	170.123	176.001	265.670	213.388	68.748	256.600	264.861	32.207	-44.488	270.098	113.524	0.00016831	0.00060333	0.00011526	1308.4	4.5915e-06	4.8955e-06	1306	354.42	2.207e-06	3.8335e-06	404.96	134.17	113.41	40.098	3.8863e-06	49.774	0.00047311	0.00048427	0.00013776	1317.3	5.4299e-06	5.5599e-06	1321.1	360.25	5.6769e-06	5.4841e-06	410.35	137.2	116.32	40.905	5.4669e-06	51.057	116.589	23.595	6.973	-50.653	97.810	94.832	-50.667	-46.090	70.486	84.517	-46.256	-42.231	-41.147	-36.815	95.060	-37.675	-8191	255	
1204.175	1	1	0	0	0.27419	0.1668	0.21585	0.25455	0.12247	0.16723	0.20157	0.18422	0.19083	0.21212	0.2206	0.18601	0.047416	0.16345	0.16174	0.34589	0.32083	-0.79583	-0.15208	-0.36042	-1.2333	-0.022917	-0.8875	-0.63125	0.14167	-0.68125	-0.37708	-0.38542	-1.0104	-0.24792	-0.52708	-0.95208	-30.990	24.736	129.655	257.157	-56.839	30.978	205.547	-57.341	148.177	-50.336	268.462	218.049	-15.839	53.047	264.861	222.892	0.00020284	0.00042982	0.00013636	1305.2	3.2937e-06	6.9709e-06	1308.5	354.89	3.006e-06	4.7669e-06	403.87	133.91	113.31	40.169	4.6266e-06	49.698	0.00047098	0.0005012	0.00014132	1316.7	5.3189e-06	5.5611e-06	1322.2	359.54	5.6005e-06	5.2455e-06	409.97	137.3	116.16	40.964	5.2936e-06	50.935	122.839	24.226	35.249	-50.555	100.900	86.996	-50.704	-46.235	80.745	89.573	-46.514	-42.389	-41.240	-37.267	90.563	-37.701	-8191	255	
1204.271	1	1	0	0	0.25403	0.023634	0.21201	0.31253	0.097428	0.076377	0.20489	0.20063	0.17932	0.23128	0.48206	0.18625	0.35015	0.1077	0.10995	0.12589	0.43125	-0.71458	-0.26458	-0.33125	-0.825	-0.0083333	-0.67917	-0.89375	0.10833	-0.77292	-0.55417	-0.38125	-0.92917	-0.19792	-0.36875	-1.0083	240.640	58.371	41.927	274.073	231.742	169.377	168.424	286.179	22.779	229.045	275.274	241.395	34.690	187.414	236.705	7.723	0.00018744	0.00029688	7.4974e-05	1307.2	4.3433e-06	4.3922e-06	1310	354.51	2.8712e-06	4.4389e-06	404.81	133.03	113.58	40.049	4.0909e-06	49.995	0.00046694	0.00048565	0.00013152	1316	5.2816e-06	5.2642e-06	1320	359.91	5.37e-06	5.0411e-06	409.14	136.67	116.19	40.996	5.2116e-06	51.013	121.263	17.148	30.978	-50.552	109.031	112.455	-50.724	-46.014	118.863	101.001	-46.448	-42.238	-41.265	-37.071	59.394	-37.859	-8191	255	
1204.390	1	1	0	0	0.090917	0.24539	0.19854	0.070395	0.041626	0.11793	0.28582	0.13043	0.15786	0.073814	0.2734	0.18949	0.16557	0.19252	0.099787	0.13615	0.45625	-0.70625	-0.50208	-0.20833	-0.90417	-0.34583	-0.64792	-1.0875	0.03125	-0.50208	-0.7375	-0.19583	-1.0104	-0.0375	-0.32917	-1.0021	64.736	194.800	53.764	203.865	289.667	4.181	235.489	244.723	154.895	234.624	61.570	262.244	-55.813	228.534	142.092	203.776	0.00015728	0.0005788	8.5461e-05	1303.7	4.6516e-06	6.3867e-06	1303.7	355.17	2.0873e-06	3.9018e-06	403.15	133.83	113.25	40.033	3.8861e-06	49.797	0.00045193	0.00046923	0.00013133	1313.2	5.2864e-06	5.1049e-06	1316.6	359.99	5.3826e-06	5.0577e-06	408.77	136.89	116.3	40.92	5.3003e-06	50.901	118.925	37.086	33.585	-50.483	91.563	84.081	-50.566	-46.022	105.971	87.632	-46.577	-42.320	-41.087	-36.975	80.234	-37.836	-8191	255	
1204.486	1	1	0	0	0.39818	0.27938	0.11553	0.40013	0.070274	0.32569	0.31985	0.26445	0.26306	0.18413	0.28215	0.17294	0.19273	0.30539	0.19102	0.26862	0.17708	-0.47708	-0.8	0.020833	-1.0792	-0.32708	-0.46458	-1.1271	-0.06875	-0.59583	-0.8125	-0.30833	-0.79167	-0.6875	-0.022917	-1.275	190.153	160.161	72.884	271.886	59.227	-32.328	229.702	-62.047	11.106	261.228	207.257	-3.043	247.355	86.556	239.940	-58.511	0.00015201	0.00048181	0.00016516	1306.5	2.7582e-06	6.3977e-06	1310.9	353.65	1.8659e-06	3.7077e-06	403.68	134.13	113.57	39.912	4.0053e-06	49.713	0.0004597	0.00046847	0.00013453	1315.7	5.2225e-06	5.5089e-06	1321	359.76	5.4577e-06	5.3609e-06	409.7	137.02	116.5	40.876	5.3444e-06	50.928	111.006	6.886	22.338	-50.514	77.537	93.399	-50.687	-45.944	112.915	86.027	-46.343	-42.264	-41.134	-36.958	111.788	-37.646	-8191	255	
1204.582	1	1	0	0	0.19223	0.35239	0.22967	0.09763	0.25183	0.1565	0.21792	0.16682	0.26195	0.1438	0.080567	0.12284	0.41374	0.17837	0.3215	0.25026	0.29375	-0.41667	-0.87917	-0.054167	-0.77083	-0.64792	-0.18542	-1.1	-0.0020833	-0.32083	-1.0063	-0.14583	-0.575	-0.71458	-0.066667	-0.84792	138.276	64.716	273.751	-15.245	6.269	39.360	294.694	37.888	133.127	133.471	200.253	247.534	212.377	-40.723	14.337	223.798	0.00018939	0.00034461	0.00010731	1306.9	4.1056e-06	6.6445e-06	1311.3	354.42	2.3358e-06	5.0645e-06	404.31	134.63	114.13	39.946	4.5543e-06	49.73	0.00047349	0.00049824	0.00013609	1317.2	5.4409e-06	5.3505e-06	1322.9	360.16	5.4445e-06	5.3813e-06	409.54	137.39	116.56	40.934	5.3548e-06	51.004	113.006	12.796	21.172	-50.424	92.199	92.169	-50.672	-45.964	84.847	81.068	-46.560	-42.353	-41.052	-37.000	92.160	-37.687	-8191	255	
1204.679	1	1	0	0	0.2988	0.15406	0.19111	0.15008	0.10331	0.079909	0.21865	0.24913	0.15883	0.080294	0.449	0.28457	0.38453	0.16683	0.29166	0.1337	0.2	-0.29792	-0.91458	-0.091667	-0.67292	-0.87083	0.13542	-1.1083	-0.18958	-0.19583	-1.1979	-0.10417	-0.61042	-0.94792	0.31875	-1.1437	118.966	182.501	39.250	237.933	242.113	245.315	231.268	-44.235	148.898	24.648	232.088	224.976	-25.246	-15.585	171.884	-22.831	0.00018591	0.00049137	0.0001027	1306.6	3.3789e-06	7.5139e-06	1302.2	356.02	3.5109e-06	5.485e-06	404.59	134.05	113.53	40.342	3.7901e-06	49.792	0.0004614	0.00049261	0.00013748	1315.9	5.3234e-06	5.1257e-06	1318.7	360.47	5.3587e-06	5.3387e-06	409.57	137.18	116.43	41.064	5.3349e-06	51.001	116.481	39.029	43.847	-50.515	69.729	85.785	-50.734	-45.883	95.765	87.628	-46.530	-42.352	-40.981	-37.036	60.185	-37.575	-8191	255	
1204.775	1	1	0	0	0.14177	0.11288	0.4258	0.031314	0.14168	0.048827	0.09266	0.26587	0.20504	0.19042	0.15649	0.24445	0.11532	0.27041	0.11555	0.052795	-0.08125	-0.16875	-0.89792	-0.27917	-0.41667	-0.80417	-0.11458	-0.84375	-0.15833	-0.16042	-0.98542	-0.06875	-0.51458	-0.91667	0.064583	-0.95833	111.580	111.888	281.123	121.482	126.790	166.118	15.068	168.240	-59.204	180.677	245.414	223.721	230.483	261.699	19.965	168.233	0.00021582	0.00039178	0.00011017	1303.2	3.0757e-06	5.8293e-06	1301.3	354.3	3.5246e-06	4.6087e-06	405.17	133.54	113.23	40.042	4.1563e-06	49.837	0.00045088	0.00048979	0.00012923	1314.4	5.1349e-06	5.2265e-06	1318.4	359.99	5.1594e-06	5.2906e-06	409.91	136.87	116.28	40.967	5.326e-06	51.113	124.992	37.205	14.404	-50.719	89.543	115.089	-50.661	-45.874	50.105	70.511	-46.536	-42.434	-41.012	-37.124	94.107	-37.639	-8191	255	
1204.871	1	1	0	0	0.26727	0.048303	0.20196	0.13385	0.3653	0.13908	0.072697	0.26962	0.22951	0.11436	0.40633	0.080798	0.24774	0.27784	0.24864	0.1057	-0.00625	-0.035417	-0.87292	-0.40417	-0.029167	-0.76667	-0.15208	-0.88958	-0.6875	-0.19167	-0.90417	-0.35	-0.51042	-0.8	0.2	-0.87917	252.605	190.812	277.392	286.786	206.452	112.604	278.025	39.360	128.107	-5.054	270.914	206.822	99.386	284.760	279.475	-52.408	0.00018022	0.00035192	0.00013062	1300.5	5.2165e-06	5.4627e-06	1307.3	355.1	2.8723e-06	3.0115e-06	402.08	134.11	113.81	40.086	4.2809e-06	49.669	0.00045617	0.00049041	0.000133	1314.1	5.2971e-06	5.3439e-06	1320.2	360.19	5.2927e-06	5.4114e-06	409.62	137.34	116.21	40.993	5.2743e-06	50.959	118.768	26.179	47.900	-50.471	88.848	87.452	-50.716	-45.962	88.887	68.570	-46.733	-42.239	-41.350	-37.070	78.370	-37.596	-8191	255	
1204.967	1	1	0	0	0.061604	0.040759	0.15432	0.2069	0.29071	0.11938	0.30009	0.097543	0.3513	0.16627	0.17116	0.25047	0.19319	0.34757	0.14348	0.11819	-0.175	0.09375	-0.97708	-0.3125	-0.23333	-1.0729	-0.23958	-0.77292	-0.69375	0.1375	-1.1458	-0.48958	0.047917	-1.05	-0.03125	-0.63958	216.215	93.938	287.590	257.227	237.758	-40.087	264.213	243.320	290.154	180.674	218.204	270.939	-8.069	-52.760	96.201	262.836	0.00017299	0.00022452	9.3789e-05	1308.7	4.8041e-06	7.3004e-06	1304.9	354.77	2.3206e-06	3.8529e-06	405.33	134.42	113.6	40.141	5.6857e-06	50.004	0.0004559	0.00049634	0.00013345	1315.8	5.2734e-06	5.2461e-06	1320.6	359.91	5.2471e-06	5.3152e-06	410.31	137.38	116.16	40.989	5.4074e-06	51.083	128.780	10.858	10.830	-50.844	84.430	93.721	-50.729	-45.964	88.225	94.438	-46.229	-42.512	-41.222	-36.922	80.443	-37.716	-8191	255	
1205.063	1	1	0	0	0.21334	0.045376	0.18505	0.029852	0.1372	0.23944	0.40969	0.11315	0.03674	0.18581	0.16274	0.062918	0.25953	0.18996	0.17938	0.14544	-0.7	0.033333	-0.825	-0.63333	-0.0875	-1.0708	-0.30417	-0.56042	-0.95	-0.11875	-0.7625	-0.58958	0.047917	-1.0792	-0.18542	-0.65417	-63.105	174.701	-40.840	56.948	27.700	180.549	286.862	50.118	73.815	86.476	276.950	274.768	186.186	58.848	204.849	249.582	0.00019697	0.00034679	0.00011229	1305	3.4548e-06	5.8656e-06	1308.2	355.28	1.9939e-06	5.0963e-06	403.46	133.66	113.54	40.156	4.4417e-06	50.043	0.00045045	0.00049003	0.00013467	1317.5	5.3059e-06	5.2063e-06	1321.1	360.27	5.2232e-06	5.1833e-06	409.82	137.25	116.4	41.057	5.2555e-06	51.017	108.953	6.532	20.448	-50.652	90.035	85.732	-50.788	-46.058	46.105	76.907	-46.472	-42.603	-41.175	-36.921	77.796	-37.864	-8191	255	
1205.182	1	1	0	0	0.23423	0.2858	0.43697	0.27537	0.30671	0.21877	0.068889	0.35858	0.03949	0.24567	0.25901	0.079949	0.36163	0.48536	0.043028	0.12069	-0.56042	0.22917	-0.60208	-0.70833	-0.20833	-1.0125	-0.57708	-0.34792	-0.8875	-0.0083333	-0.70208	-0.61875	0.0041667	-0.93333	-0.43542	-0.48542	-25.629	-52.337	130.762	250.485	167.263	96.891	258.034	241.468	-37.318	34.522	279.054	70.509	295.505	232.774	-37.696	64.515	0.00021062	0.00046187	0.00011951	1305.3	2.6474e-06	4.2936e-06	1295.9	355.45	2.1836e-06	5.5937e-06	404.29	133.88	113.47	40.169	2.5226e-06	49.884	0.00045844	0.00048851	0.00013278	1315.9	5.29e-06	5.1438e-06	1317.3	360.49	5.2007e-06	5.2022e-06	409.72	137.2	116.36	40.993	5.2243e-06	51.065	119.059	25.531	17.402	-50.568	73.504	97.175	-50.602	-45.815	82.659	83.882	-46.511	-42.390	-40.952	-37.009	84.655	-37.743	-8191	255	
1205.278	1	1	0	0	0.04966	0.23461	0.0074496	0.094402	0.43416	0.33139	0.3442	0.17323	0.0087297	0.13684	0.20194	0.32821	0.13545	0.1092	0.23849	0.25091	-0.6625	0.18542	-0.57292	-0.95208	0.0875	-0.91667	-0.4625	-0.36042	-1.025	-0.033333	-0.81042	-0.72083	0.0041667	-0.89167	-0.54792	0.12708	-38.566	53.174	-59.058	207.799	142.231	72.427	214.242	196.078	-3.130	13.360	-35.847	283.493	223.450	34.721	34.530	214.767	0.00017053	0.00025135	7.1618e-05	1310.4	3.5577e-06	5.6382e-06	1303.6	355.19	3.2628e-06	4.4678e-06	405.07	133.22	113.58	40.187	3.845e-06	49.891	0.0004557	0.00047899	0.00013348	1315.7	5.1508e-06	5.1275e-06	1319.3	360.77	5.2983e-06	5.3254e-06	410.35	137.12	116.33	41.052	5.1796e-06	51.054	116.080	19.214	7.129	-50.651	86.893	97.520	-50.737	-45.759	88.153	77.873	-46.492	-42.451	-41.282	-37.123	81.708	-37.410	-8191	255	
1205.374	1	1	0	0	0.24682	0.070162	0.31532	0.25799	0.095188	0.098533	0.039294	0.33489	0.051853	0.13978	0.22268	0.077902	0.18046	0.12996	0.24584	0.27354	-0.40625	-0.085417	-0.39792	-1.1521	0.1125	-0.79375	-0.525	-0.24583	-0.86458	-0.1125	-0.55833	-0.99375	-0.03125	-0.6875	-0.57292	-0.15	132.042	-15.897	144.416	202.381	-53.454	121.743	279.504	242.039	193.060	293.457	271.431	233.424	-40.156	-13.958	72.156	261.130	0.00020735	0.00052032	9.3376e-05	1301.5	4.079e-06	3.8383e-06	1300.6	355.69	3.285e-06	4.716e-06	404.32	133.61	113.14	40.169	4.679e-06	49.752	0.00044753	0.00047695	0.00013133	1314.5	5.3612e-06	5.1344e-06	1316.7	360.29	5.289e-06	5.226e-06	409.97	137.19	116.27	41.043	5.1902e-06	51.004	118.476	22.470	20.261	-50.597	89.321	102.718	-50.709	-45.783	70.057	69.358	-46.210	-42.427	-40.914	-37.021	93.193	-37.644	-8191	255	
1205.470	1	1	0	0	0.073376	0.22413	0.09374	0.18579	0.16731	0.089892	0.14018	0.084007	0.20843	0.038247	0.20684	0.22845	0.14034	0.14856	0.14807	0.1394	-0.46458	-0.060417	-0.33125	-0.97083	-0.1375	-0.56042	-0.7	0.083333	-0.70208	-0.2875	-0.26458	-1.1167	-0.14792	-0.75208	-0.73333	-0.0875	-56.332	91.723	31.239	278.533	259.336	-57.020	234.566	269.015	22.360	70.842	224.173	-28.405	-48.285	-33.518	124.942	192.723	0.00018286	0.0006748	0.00015753	1302.9	3.256e-06	4.7331e-06	1303.6	355.12	5.1573e-06	4.5029e-06	404.78	134.06	113.63	40.104	3.2093e-06	49.763	0.00045214	0.0004859	0.00013759	1314.5	5.3929e-06	5.3004e-06	1319.2	359.97	5.2457e-06	5.2695e-06	409.98	137.24	116.2	41.014	5.2627e-06	51.087	111.074	42.943	30.933	-50.717	95.662	58.082	-50.714	-45.801	89.779	92.876	-46.326	-42.260	-41.250	-36.952	57.350	-37.623	-8191	255	
1205.565	1	1	0	0	0.073846	0.20343	0.19762	0.25165	0.040108	0.068943	0.28725	0.3775	0.18702	0.086462	0.28484	0.34266	0.19151	0.20152	0.15153	0.048086	-0.48542	-0.36042	-0.29167	-1.1	-0.175	-0.52083	-0.98958	0.06875	-0.90208	-0.45625	-0.27917	-0.9125	-0.24792	-0.64583	-0.58333	-0.025	226.685	153.364	-11.268	-58.350	71.051	221.963	220.428	-17.005	267.406	266.205	-41.918	195.647	222.579	261.215	267.939	206.225	0.00019521	0.00051608	0.00018518	1304.2	4.7819e-06	5.0699e-06	1303.3	354.3	1.8649e-06	4.1475e-06	403.71	134.77	113.48	40.082	5.1224e-06	49.826	0.00045464	0.00049123	0.00013486	1317.1	5.3319e-06	5.2464e-06	1320.2	359.84	5.0981e-06	5.2602e-06	410.12	137.37	115.98	40.991	5.2419e-06	50.97	118.681	35.071	13.154	-50.716	76.023	90.901	-50.992	-46.066	69.112	74.240	-46.453	-42.337	-41.060	-37.048	65.677	-37.567	-8191	255	
1205.685	1	1	0	0	0.081756	0.13167	0.048747	0.31813	0.19668	0.17066	0.20763	0.27751	0.1183	0.22453	0.23918	0.13159	0.16602	0.11078	0.068102	0.090265	-0.54583	-0.69375	0.17708	-0.975	-0.10833	-0.34375	-1.2979	-0.12708	-0.90417	-0.71458	-0.05	-1.0875	-0.34583	-0.32083	-0.69583	-0.077083	260.481	-39.319	181.919	257.844	125.609	191.271	196.362	278.465	36.627	251.244	-46.567	101.752	269.537	-44.658	272.928	-0.232	0.00018223	0.00030758	0.00014553	1304.8	2.9763e-06	4.455e-06	1304.5	355.48	3.7528e-06	4.6281e-06	405.21	133.68	113.41	40.222	2.865e-06	49.811	0.00045286	0.00048057	0.00013421	1315.4	5.1748e-06	5.292e-06	1319.7	360.09	5.156e-06	5.1148e-06	410.34	137.12	116.34	41.016	5.0228e-06	50.944	123.847	21.371	23.096	-50.533	99.186	91.173	-50.862	-45.718	82.520	82.419	-46.490	-42.404	-41.027	-36.743	78.874	-37.773	-8191	255	
1205.782	1	1	0	0	0.043029	0.16734	0.1981	0.0056198	0.21229	0.20045	0.11868	0.13981	0.20659	0.25129	0.18177	0.13902	0.075258	0.24562	0.15042	0.23062	-0.45833	-0.54792	-0.045833	-0.99792	-0.41875	-0.26667	-1.1917	-0.17083	-0.80625	-0.66875	-0.3	-0.75208	-0.42917	-0.2625	-1.075	-0.2	175.037	251.537	226.412	43.900	125.973	153.244	150.649	-44.398	244.472	131.909	222.570	243.319	36.763	19.029	-42.569	273.846	0.00016973	0.00053872	0.00017926	1303.2	3.5076e-06	5.3658e-06	1302.6	356.36	9.0217e-07	5.8506e-06	403.77	133.91	112.79	40.183	2.2925e-06	49.618	0.00044272	0.00046977	0.00013017	1313.8	5.1638e-06	5.0638e-06	1317.8	360.43	5.2362e-06	5.0327e-06	409.35	136.95	116.03	41.035	5.1608e-06	50.92	108.452	30.323	34.420	-50.427	77.015	73.946	-50.861	-46.003	32.802	87.251	-46.215	-42.447	-41.085	-36.961	67.238	-37.717	-8191	255	
1205.878	1	1	0	0	0.20997	0.17231	0.2667	0.25166	0.12461	0.36811	0.26252	0.19664	0.11092	0.087232	0.4146	0.26467	0.39716	0.1315	0.31297	0.11287	-0.1625	-0.68958	-0.035417	-0.94792	-0.40625	0.095833	-1.1729	-0.18542	-0.22917	-0.81042	-0.05625	-0.95	-0.45417	-0.325	-1.0979	-0.11042	88.323	287.183	142.600	203.292	65.666	284.157	221.608	156.213	284.864	35.568	226.935	241.256	227.572	238.701	172.609	-24.933	0.00019334	0.00043376	8.3061e-05	1302.8	3.9915e-06	7.2556e-06	1302.3	354.16	2.1241e-06	4.2451e-06	404.51	133.8	113.74	40.119	4.3385e-06	49.89	0.00044939	0.00047252	0.00013584	1313.8	5.1988e-06	5.2355e-06	1318.6	359.48	5.2626e-06	5.1944e-06	409.98	137.02	116.34	41.031	5.0713e-06	51.064	111.345	28.438	4.477	-50.479	84.982	77.299	-50.708	-45.878	49.848	92.140	-46.588	-42.328	-41.363	-37.208	98.684	-37.552	-8191	255	
1205.974	1	1	0	0	0.20916	0.17789	0.20159	0.30239	0.05812	0.059013	0.38505	0.28814	0.17615	0.081708	0.18502	0.33651	0.16693	0.10328	0.35857	0.091828	0.075	-0.88542	-0.18125	-0.80208	-0.63333	-0.19167	-1.0708	-0.2875	-0.035417	-0.8875	-0.0020833	-0.50625	-0.86667	0.03125	-0.98333	-0.44583	285.493	150.661	266.946	-55.947	293.349	-8.398	266.461	196.077	-21.778	-2.205	-55.289	283.014	-45.053	51.841	60.077	260.747	0.00020952	0.00058587	0.00017098	1301.6	4.4833e-06	6.8962e-06	1307.2	355.03	3.688e-06	2.7516e-06	404.38	134.4	113.44	40.152	3.7396e-06	49.897	0.00045251	0.00048669	0.00013602	1313.9	5.129e-06	5.18e-06	1319.9	359.9	5.3449e-06	5.2001e-06	410.04	137.49	116.35	41.049	5.2148e-06	51.031	109.448	32.970	29.567	-50.404	95.106	90.714	-50.588	-45.871	66.643	93.107	-46.686	-42.290	-41.203	-37.209	73.296	-37.853	-8191	255	
1206.070	1	1	0	0	0.31689	0.21115	0.17561	0.26332	0.062546	0.18379	0.30095	0.20227	0.023577	0.30609	0.30601	0.12355	0.053934	0.15748	0.325	0.25833	0.2875	-0.81667	-0.28958	-0.73542	-0.74375	-0.029167	-1.1063	-0.47292	-0.125	-1.0417	-0.1375	-0.4875	-0.74167	0.075	-0.89167	-0.46042	270.595	67.733	61.482	247.358	-27.692	265.331	265.842	201.444	136.015	273.733	171.348	188.014	170.110	206.494	134.274	236.734	0.00019023	0.00052684	0.00012609	1307.6	3.7857e-06	5.6955e-06	1303.1	354.97	3.8842e-06	5.2345e-06	405.58	133.84	113.6	40.223	3.6458e-06	49.979	0.00045332	0.00048013	0.00013447	1317.2	5.1671e-06	5.2349e-06	1319.8	360.33	5.3863e-06	5.0081e-06	409.49	137.26	116.37	41.044	5.2411e-06	51.105	113.877	1.066	22.848	-50.566	78.390	112.583	-50.602	-46.202	118.686	103.597	-46.393	-42.032	-41.047	-36.972	67.398	-37.739	-8191	255	
1206.166	1	1	0	0	0.081777	0.068782	0.16802	0.53889	0.09902	0.27859	0.28265	0.14534	0.15125	0.2652	0.15575	0.056516	0.1153	0.094234	0.10682	0.18015	0.375	-1.1229	0.016667	-0.68542	-0.65625	-0.035417	-0.90625	-0.76458	-0.22083	-0.89792	-0.45417	-0.44375	-1.0125	-0.091667	-0.61875	-0.8125	245.312	169.478	72.708	289.881	272.966	4.104	266.840	190.532	189.413	271.687	201.644	43.811	219.085	147.516	-5.583	172.877	0.00017374	0.00045578	0.00010922	1305.3	3.1117e-06	4.3074e-06	1304	354.6	2.5744e-06	5.6538e-06	405.11	133.95	113.71	39.983	4.3012e-06	49.717	0.00045819	0.00047111	0.00013755	1315.5	5.2251e-06	5.2865e-06	1319.4	359.58	5.3132e-06	5.3209e-06	409.95	137.2	116.27	41.002	5.1192e-06	50.988	123.339	38.082	32.688	-50.374	98.366	80.715	-50.423	-46.044	75.017	102.157	-46.389	-42.317	-41.131	-37.058	55.658	-37.842	-8191	255	
1206.262	1	1	0	0	0.10343	0.018729	0.18541	0.12956	0.18277	0.17875	0.1934	0.28039	0.17585	0.017936	0.29629	0.081301	0.29331	0.19825	0.023197	0.22942	0.21042	-0.93542	-0.1375	-0.40833	-1.1375	0.047917	-0.88958	-0.91042	0.15833	-0.92917	-0.275	-0.43125	-0.86042	-0.41875	-0.35625	-0.8625	118.704	88.961	104.544	243.979	-22.248	144.636	236.242	287.045	45.881	26.044	224.317	59.639	229.548	195.602	42.821	207.127	0.00016049	0.0002962	0.00015606	1298	2.1714e-06	3.6541e-06	1305.2	354.81	3.5498e-06	4.6593e-06	404.21	133.58	113.38	40.094	6.0334e-06	49.86	0.00045284	0.00046512	0.0001284	1312.3	4.994e-06	5.0478e-06	1318	359.89	5.1901e-06	4.9837e-06	409.78	136.99	116.1	40.944	5.2708e-06	50.962	119.961	21.977	25.480	-50.610	48.625	74.505	-50.689	-45.965	46.072	61.278	-46.617	-42.467	-40.683	-37.058	68.197	-37.817	-8191	255	
1206.359	1	1	0	0	0.19702	0.089685	0.1138	0.086141	0.081959	0.12839	0.39402	0.10009	0.1732	0.22399	0.028349	0.26793	0.13203	0.22123	0.13132	0.2932	0.2625	-0.66458	-0.33333	-0.066667	-1.0187	0.085417	-0.69375	-0.94792	0.20208	-1.0646	-0.37708	-0.34375	-0.73125	-0.0625	-0.33958	-1.0458	-31.475	-33.267	208.472	76.288	165.445	95.983	233.751	185.238	-29.328	116.240	294.123	236.940	136.635	213.162	261.321	-32.915	0.00022049	0.00064784	0.00018429	1306.8	3.1823e-06	5.1862e-06	1306.4	353.56	2.5125e-06	2.8912e-06	404.31	134.09	113.82	39.989	2.9216e-06	49.646	0.00045576	0.00046154	0.00013133	1314.8	5.0722e-06	5.0898e-06	1318	359.46	5.3427e-06	5.0688e-06	409.92	137	116.29	40.924	5.0586e-06	50.893	119.879	37.075	20.067	-50.528	115.798	89.417	-50.538	-45.974	111.721	90.621	-46.566	-42.295	-41.151	-37.042	61.993	-37.523	-8191	255	
1206.455	1	1	0	0	0.093914	0.13432	0.16067	0.25593	0.10469	0.048726	0.26671	0.20992	0.42566	0.3169	0.26222	0.13664	0.10451	0.32061	0.10549	0.16677	0.38958	-0.73958	-0.55625	-0.36667	-0.91458	-0.12292	-0.42917	-0.8375	0.11667	-0.72917	-0.66667	-0.066667	-0.97708	-0.38542	-0.25208	-0.83125	88.123	197.225	199.505	276.446	169.265	279.125	205.202	3.694	91.000	0.464	-19.693	216.931	-18.031	194.422	61.868	236.636	0.00022093	0.00035267	0.00013846	1305.4	3.9868e-06	4.8759e-06	1305.3	355.41	3.4735e-06	3.4563e-06	403.9	133.77	113.82	40.083	2.2977e-06	49.865	0.00045303	0.00044884	0.00013148	1314.2	5.1923e-06	5.1438e-06	1318.8	360.17	5.3157e-06	5.0204e-06	409.41	137.17	116.37	40.964	5.1975e-06	50.975	117.736	11.249	29.484	-50.314	89.606	82.758	-50.664	-46.051	96.046	102.491	-46.426	-41.958	-41.061	-36.963	80.086	-37.798	-8191	255	
1206.574	1	1	0	0	0.063096	0.14338	0.13886	0.1006	0.15628	0.10647	0.12187	0.22185	0.082344	0.14395	0.15416	0.38811	0.16797	0.17153	0.15285	0.23624	0.275	-0.37292	-0.5625	-0.0041667	-0.99792	-0.27917	-0.18958	-1.1125	0.11875	-0.59375	-0.61875	-0.025	-0.73125	-0.26042	-0.083333	-0.9	-7.963	167.516	178.327	-17.161	-1.830	111.036	54.384	-42.059	-55.129	266.366	246.215	246.539	215.997	258.733	-53.675	264.984	0.00022579	0.00045949	0.00014119	1302.1	3.0932e-06	6.5234e-06	1307.1	355.13	3.2265e-06	5.117e-06	404.8	133.78	113.37	40.118	4.8903e-06	49.639	0.0004491	0.0004748	0.00013006	1313.4	5.2635e-06	5.094e-06	1319.4	359.94	5.2468e-06	5.1241e-06	409.69	137.14	116.31	40.937	5.1793e-06	50.995	121.206	16.166	48.230	-50.504	69.099	77.878	-50.572	-45.965	77.024	76.518	-46.786	-42.328	-41.022	-37.223	82.319	-37.776	-8191	255	
1206.670	1	1	0	0	0.19341	0.05902	0.23808	0.19564	0.23553	0.067657	0.27267	0.38	0.051083	0.27033	0.13707	0.19299	0.011225	0.19069	0.1213	0.27839	0.16667	-0.28542	-0.8	-0.04375	-0.8125	-0.525	-0.23125	-1.3042	-0.2125	-0.15625	-0.98333	0.035417	-0.73333	-0.55	0.19792	-0.96667	241.752	169.126	199.456	221.570	-48.133	294.288	188.154	236.186	266.397	225.543	273.426	234.210	61.570	124.778	129.021	174.188	0.00019132	0.00047616	0.00013726	1304.6	3.0512e-06	3.8024e-06	1302.6	353.79	2.9757e-06	5.518e-06	404.59	134.12	113.86	40.127	4.6637e-06	49.759	0.0004495	0.00045958	0.00012926	1314	4.9307e-06	4.9093e-06	1318.2	359.83	5.2159e-06	5.2981e-06	409.83	137.08	116.27	40.925	5.2171e-06	50.993	126.015	24.162	31.392	-50.315	74.393	78.611	-50.508	-45.716	50.830	76.607	-46.715	-42.284	-40.678	-37.132	94.151	-37.760	-8191	255	
1206.766	1	1	0	0	0.24999	0.18652	0.030814	0.30159	0.24817	0.23327	0.18747	0.22816	0.17873	0.062027	0.039787	0.14788	0.082665	0.065832	0.12059	0.08119	0.26667	-0.15	-0.66042	0.085417	-0.78125	-0.60833	-0.070833	-1.0187	-0.17292	-0.39375	-1.0812	0.18542	-0.78333	-0.86667	0.13542	-1.1896	125.908	35.645	67.442	248.710	-19.191	31.934	259.622	257.706	108.095	264.925	242.836	178.709	262.487	176.943	-52.109	41.951	0.00019707	0.0004551	0.00011087	1303.5	3.1771e-06	5.4497e-06	1302.6	353.56	3.9016e-06	3.9074e-06	403.68	133.7	113.03	40.285	4.0954e-06	49.617	0.00045146	0.00046124	0.00012935	1314.2	5.2008e-06	5.123e-06	1318.4	360.3	5.2241e-06	5.2245e-06	409.35	137.14	116.04	41.023	5.2847e-06	50.973	116.719	6.593	30.460	-50.677	88.154	46.433	-50.621	-45.870	60.740	86.798	-46.453	-42.097	-41.237	-36.956	86.717	-37.741	-8191	255	
1206.862	1	1	0	0	0.24551	0.22574	0.19038	0.12326	0.18388	0.091543	0.14677	0.27653	0.061374	0.15814	0.021303	0.28208	0.34586	0.088782	0.053791	0.27479	0.13125	-0.095833	-0.91042	0.010417	-0.62292	-0.80208	-0.2625	-0.89792	-0.16875	-0.2125	-1.1063	-0.097917	-0.64792	-0.78333	-0.0625	-1.1708	115.151	218.091	56.090	-37.884	156.291	239.619	223.529	265.678	123.895	135.975	229.573	263.909	241.913	205.953	108.314	274.935	0.00018835	0.00057898	0.00015055	1301.1	2.768e-06	4.4702e-06	1309	353.9	2.9543e-06	3.8204e-06	404.3	133.65	113.57	40.032	3.279e-06	50.035	0.00044324	0.00048848	0.0001286	1314.3	5.2335e-06	5.193e-06	1320.3	359.54	5.1698e-06	5.3173e-06	410.69	137.13	116.46	41.014	5.2431e-06	51.12	119.349	16.569	13.337	-50.534	76.395	85.660	-50.401	-46.043	81.839	87.294	-46.605	-42.534	-40.726	-36.854	84.271	-37.560	-8191	255	
#DATA ENDS
