BOXY.EXE: ISS Imagent and Oximeter Data Acquisition Program Version 0.80
Ascii Record File

#ACQ INFORMATION
2  Detector Channels 
16  External MUX Channels 
1  Auxiliary Channels 
5000  Waveform (CCF) Frequency (Hz)
1  Waveforms Skipped 
30  Waveforms Averaged 
1  Cycles Averaged 
16  Acquisitions per Waveform 
10.0806  Updata Rate (Hz) 

#FILE INFORMATION
TRUE -- External MUX Channel results are PARSED.
FALSE -- AC DC and Phase are NOT grouped.
TRUE -- Companion Program Settings File CREATED.
FALSE -- AC data not excluded
FALSE -- DC data not excluded
FALSE -- Phase data not excluded
FALSE -- Auxillary Chn. data not excluded
Tab delimiters

#CALIBRATION STATE
TRUE -- Waveform Calibration Values APPLIED.


#AUX CALIBRATION VALUES
Val Type	aux-1	

Term	1.0000e+00	
Factor	0.0000e+00	


#WF CALIBRATION VALUES
A = Detector Channel
Val Type	A-AC1	A-AC2	A-AC3	A-AC4	A-AC5	A-AC6	A-AC7	A-AC8	A-AC9	A-AC10	A-AC11	A-AC12	A-AC13	A-AC14	A-AC15	A-AC16	A-DC1	A-DC2	A-DC3	A-DC4	A-DC5	A-DC6	A-DC7	A-DC8	A-DC9	A-DC10	A-DC11	A-DC12	A-DC13	A-DC14	A-DC15	A-DC16	A-Ph1	A-Ph2	A-Ph3	A-Ph4	A-Ph5	A-Ph6	A-Ph7	A-Ph8	A-Ph9	A-Ph10	A-Ph11	A-Ph12	A-Ph13	A-Ph14	A-Ph15	A-Ph16	

Term	0.00000e+00	0.00000e+00	0.00000e+00	0.00000e+00	0.00000e+00	0.00000e+00	0.00000e+00	0.00000e+00	0.00000e+00	0.00000e+00	0.00000e+00	0.00000e+00	0.00000e+00	0.00000e+00	0.00000e+00	0.00000e+00	0.00000e+00	0.00000e+00	0.00000e+00	0.00000e+00	0.00000e+00	0.00000e+00	0.00000e+00	0.00000e+00	0.00000e+00	0.00000e+00	0.00000e+00	0.00000e+00	0.00000e+00	0.00000e+00	0.00000e+00	0.00000e+00	0.00000e+00	0.00000e+00	0.00000e+00	0.00000e+00	0.00000e+00	0.00000e+00	0.00000e+00	0.00000e+00	0.00000e+00	0.00000e+00	0.00000e+00	0.00000e+00	0.00000e+00	0.00000e+00	0.00000e+00	0.00000e+00	
Factor	1.00000e+00	1.00000e+00	1.00000e+00	1.00000e+00	1.00000e+00	1.00000e+00	1.00000e+00	1.00000e+00	1.00000e+00	1.00000e+00	1.00000e+00	1.00000e+00	1.00000e+00	1.00000e+00	1.00000e+00	1.00000e+00	1.00000e+00	1.00000e+00	1.00000e+00	1.00000e+00	1.00000e+00	1.00000e+00	1.00000e+00	1.00000e+00	1.00000e+00	1.00000e+00	1.00000e+00	1.00000e+00	1.00000e+00	1.00000e+00	1.00000e+00	1.00000e+00	X	X	X	X	X	X	X	X	X	X	X	X	X	X	X	X	

B = Detector Channel
Val Type	B-AC1	B-AC2	B-AC3	B-AC4	B-AC5	B-AC6	B-AC7	B-AC8	B-AC9	B-AC10	B-AC11	B-AC12	B-AC13	B-AC14	B-AC15	B-AC16	B-DC1	B-DC2	B-DC3	B-DC4	B-DC5	B-DC6	B-DC7	B-DC8	B-DC9	B-DC10	B-DC11	B-DC12	B-DC13	B-DC14	B-DC15	B-DC16	B-Ph1	B-Ph2	B-Ph3	B-Ph4	B-Ph5	B-Ph6	B-Ph7	B-Ph8	B-Ph9	B-Ph10	B-Ph11	B-Ph12	B-Ph13	B-Ph14	B-Ph15	B-Ph16	

Term	0.00000e+00	0.00000e+00	0.00000e+00	0.00000e+00	0.00000e+00	0.00000e+00	0.00000e+00	0.00000e+00	0.00000e+00	0.00000e+00	0.00000e+00	0.00000e+00	0.00000e+00	0.00000e+00	0.00000e+00	0.00000e+00	0.00000e+00	0.00000e+00	0.00000e+00	0.00000e+00	0.00000e+00	0.00000e+00	0.00000e+00	0.00000e+00	0.00000e+00	0.00000e+00	0.00000e+00	0.00000e+00	0.00000e+00	0.00000e+00	0.00000e+00	0.00000e+00	-1.62475e+02	-1.30028e+02	-1.29081e+02	-1.82568e+02	-7.08570e+01	-6.63597e+01	-1.57125e+02	-1.62015e+02	-8.01052e+01	-6.56729e+01	-1.70653e+02	-1.69026e+02	-1.81905e+02	-1.76426e+02	-7.59934e+01	-1.49739e+02	
Factor	2.48014e-05	1.38066e-04	4.13928e-05	1.81409e-01	1.37938e-06	1.71112e-06	1.66522e-01	5.10113e-02	1.39629e-06	1.55553e-06	7.91198e-02	2.75910e-02	2.90947e-02	8.83143e-03	1.46968e-06	1.26923e-02	9.30207e-06	1.30508e-05	3.64333e-06	9.51287e-02	1.35613e-07	1.44845e-07	8.22480e-02	2.69387e-02	1.34931e-07	1.44256e-07	4.04368e-02	1.41989e-02	1.54998e-02	4.70142e-03	1.38599e-07	6.55128e-03	X	X	X	X	X	X	X	X	X	X	X	X	X	X	X	X	



#DISTANCE SETTINGS
A = Detector Channel
A-1	A-2	A-3	A-4	A-5	A-6	A-7	A-8	A-9	A-10	A-11	A-12	A-13	A-14	A-15	A-16	

2.5000e+00	3.0000e+00	2.5000e+00	3.0000e+00	2.0000e+00	3.0000e+00	1.5000e+00	3.0000e+00	3.0000e+00	3.0000e+00	3.0000e+00	3.0000e+00	3.0000e+00	3.0000e+00	1.5000e+00	3.0000e+00	

B = Detector Channel
B-1	B-2	B-3	B-4	B-5	B-6	B-7	B-8	B-9	B-10	B-11	B-12	B-13	B-14	B-15	B-16	

1.0000e+01	1.0000e+01	1.0000e+01	1.4400e+00	1.0000e+01	1.0000e+01	1.5100e+00	1.9400e+00	1.0000e+01	1.0000e+01	1.9900e+00	2.4900e+00	2.4100e+00	2.9000e+00	1.0000e+01	2.9800e+00	




#DATA BEGINS
time	group	step	mark	flag	A-AC1	A-AC2	A-AC3	A-AC4	A-AC5	A-AC6	A-AC7	A-AC8	A-AC9	A-AC10	A-AC11	A-AC12	A-AC13	A-AC14	A-AC15	A-AC16	A-DC1	A-DC2	A-DC3	A-DC4	A-DC5	A-DC6	A-DC7	A-DC8	A-DC9	A-DC10	A-DC11	A-DC12	A-DC13	A-DC14	A-DC15	A-DC16	A-Ph1	A-Ph2	A-Ph3	A-Ph4	A-Ph5	A-Ph6	A-Ph7	A-Ph8	A-Ph9	A-Ph10	A-Ph11	A-Ph12	A-Ph13	A-Ph14	A-Ph15	A-Ph16	B-AC1	B-AC2	B-AC3	B-AC4	B-AC5	B-AC6	B-AC7	B-AC8	B-AC9	B-AC10	B-AC11	B-AC12	B-AC13	B-AC14	B-AC15	B-AC16	B-DC1	B-DC2	B-DC3	B-DC4	B-DC5	B-DC6	B-DC7	B-DC8	B-DC9	B-DC10	B-DC11	B-DC12	B-DC13	B-DC14	B-DC15	B-DC16	B-Ph1	B-Ph2	B-Ph3	B-Ph4	B-Ph5	B-Ph6	B-Ph7	B-Ph8	B-Ph9	B-Ph10	B-Ph11	B-Ph12	B-Ph13	B-Ph14	B-Ph15	B-Ph16	aux-1	digaux	

1110.441	1	1	0	256	0.20488	0.13646	0.37441	0.22963	0.1264	0.15916	0.14725	0.24813	0.22298	0.12183	0.070651	0.39775	0.086599	0.088882	0.13344	0.37526	-0.35625	0.16875	-1.1417	-0.60417	-0.37708	-1.2167	-0.52708	-0.52292	-0.73125	-0.14792	-0.89583	-0.7375	-0.27083	-1.0042	-0.42292	-0.54375	17.756	131.855	-105.703	184.531	3.086	128.561	139.150	-52.469	-117.606	10.256	223.232	206.600	-97.942	-100.573	-106.381	157.172	0.0002055	0.00038175	5.9626e-05	1122.9	3.2394e-06	3.6586e-06	1223.1	230.53	2.8608e-07	4.5521e-06	293.09	82.17	64.508	19.043	1.7473e-06	26.385	0.00052359	0.00064699	0.00017356	1100.4	6.7869e-06	6.961e-06	1206.9	229.56	6.6566e-06	6.9588e-06	290.9	82.812	64.982	19.468	6.4942e-06	26.999	183.336	-52.284	-31.150	-119.421	23.270	41.702	-119.465	-111.894	155.201	48.659	-111.976	-105.713	-105.467	-97.583	83.200	-98.531	-8191	255	
1110.537	1	1	0	0	0.14384	0.051079	0.15346	0.0045361	0.098341	0.24221	0.22033	0.091659	0.27431	0.11437	0.39256	0.24268	0.050458	0.043367	0.20291	0.25549	-0.6375	0.095833	-0.75208	-0.99167	-0.10833	-1.2333	-0.60208	-0.22083	-0.87083	-0.35625	-0.75833	-0.86667	-0.27917	-1.1271	-0.51458	-0.40625	64.851	21.813	71.103	-112.924	227.207	144.639	92.581	162.829	111.990	80.589	-128.623	-129.482	52.129	-114.977	-46.524	128.361	0.00017564	0.00039345	4.3534e-05	1118.3	4.6094e-07	3.8995e-06	1217	230.73	4.3042e-06	3.2963e-06	290.72	82.084	64.174	19.252	3.1615e-06	26.44	0.00050886	0.00063003	0.00017159	1099.4	6.6914e-06	6.7132e-06	1205.4	229.69	6.6282e-06	6.8534e-06	290.65	82.675	64.915	19.477	6.5863e-06	27.065	167.287	-49.944	-70.952	-119.014	-55.683	28.301	-119.456	-112.100	-31.238	65.872	-111.769	-105.919	-105.484	-98.063	20.771	-98.562	-8191	255	
1110.633	1	1	0	0	0.1057	0.25263	0.10246	0.31243	0.10012	0.33599	0.23233	0.082334	0.12714	0.16584	0.37461	0.092243	0.29577	0.20507	0.25507	0.33676	-0.75625	-0.04375	-0.68958	-1.0187	0.0625	-0.825	-0.975	-0.22083	-0.975	-0.30833	-0.675	-0.98542	-0.035417	-1.2083	-0.77292	-0.26042	-58.102	-37.034	149.579	196.153	-120.053	194.636	172.013	160.464	174.145	91.809	191.712	190.493	218.613	216.743	111.187	-118.318	0.00015966	0.0002793	6.5286e-05	1115.7	1.2457e-06	4.9101e-06	1214.6	231.75	2.3691e-06	4.4929e-06	292.64	81.703	64.618	19.371	4.0744e-06	26.479	0.00051826	0.00062693	0.00017102	1098.5	6.8445e-06	6.9957e-06	1203.2	229.84	6.647e-06	7.1392e-06	290.41	82.734	64.996	19.553	6.9851e-06	27.029	187.556	-59.450	-25.724	-119.266	34.368	22.746	-119.473	-111.907	-83.172	27.141	-111.866	-105.979	-105.454	-98.017	26.809	-98.323	-8191	255	
1110.754	1	1	0	0	0.083804	0.19876	0.3369	0.1021	0.084658	0.3149	0.47001	0.14166	0.12924	0.26276	0.27647	0.18434	0.16661	0.14096	0.26738	0.27582	-0.775	-0.4	-0.37917	-1.0521	-0.16875	-0.84792	-0.8875	-0.56667	-1.0333	-0.40208	-0.76667	-1	-0.20833	-0.775	-0.66042	-0.20833	-99.498	160.127	114.109	188.128	221.255	-81.693	183.426	-92.027	41.402	146.855	156.790	136.479	-8.035	-123.168	46.810	192.898	0.00019562	0.00019857	8.8261e-05	1119.2	4.4897e-06	2.1085e-06	1219.7	230.63	8.8553e-07	4.8353e-06	292.04	81.814	64.244	19.221	3.2691e-06	26.414	0.00052289	0.00066777	0.00018182	1099.4	6.9101e-06	7.037e-06	1205	229.59	6.9565e-06	7.0694e-06	290.78	82.852	64.987	19.457	7.0908e-06	26.961	171.902	-22.540	-69.399	-119.171	-7.926	51.610	-119.355	-111.816	156.329	36.487	-111.863	-105.749	-104.967	-97.777	-11.138	-98.252	-8191	255	
1110.825	1	1	0	0	0.20693	0.17013	0.10652	0.034597	0.1867	0.13237	0.11672	0.078255	0.19002	0.072141	0.16405	0.13149	0.053918	0.21035	0.15302	0.091712	-0.69375	-0.11667	-0.13542	-1.1375	-0.22292	-0.83958	-1.1854	-0.1875	-1.2021	-0.65625	-0.29792	-1.2167	-0.30417	-0.51042	-0.98333	-0.016667	175.569	45.323	122.531	-88.818	-96.617	-68.431	88.504	141.748	222.807	18.398	-51.134	149.700	24.426	203.187	-61.653	135.805	0.00020272	9.749e-05	0.000115	1115.4	1.7247e-06	2.3795e-06	1226.7	231.8	2.1022e-06	1.6236e-06	292.37	82.239	64.53	19.273	3.4393e-06	26.496	0.00052956	0.00063794	0.00017769	1098.8	6.7685e-06	7.0732e-06	1206.9	229.44	6.8227e-06	7.217e-06	290.77	82.967	65.114	19.505	6.9317e-06	26.992	165.575	194.558	-7.965	-119.064	0.942	29.402	-119.266	-111.970	-66.687	41.220	-111.983	-105.795	-105.190	-97.706	3.830	-98.647	-8191	255	
1110.922	1	1	0	0	0.16753	0.32934	0.40593	0.19733	0.06186	0.21786	0.23127	0.30157	0.12779	0.13068	0.20775	0.16735	0.10893	0.1361	0.083354	0.10258	-0.65833	-0.45625	-0.066667	-1.0521	-0.14375	-0.5125	-1.3458	-0.066667	-0.91667	-0.5125	-0.24792	-1.0833	-0.325	-0.25	-1.0375	-0.064583	65.252	100.299	110.872	-106.960	175.777	214.445	189.186	188.056	-95.983	99.392	185.264	109.404	-45.646	-85.431	-55.666	-83.906	0.00016658	0.00028965	0.00013498	1122.3	2.3506e-06	4.0101e-06	1220.9	230.73	2.376e-06	2.9492e-07	291.52	81.379	64.441	19.31	2.9787e-06	26.365	0.00052599	0.00066932	0.0001846	1100.7	7.0787e-06	7.3343e-06	1205.3	229.34	6.8359e-06	7.1524e-06	290.6	82.655	64.97	19.539	7.2115e-06	26.967	179.831	-53.209	-83.575	-119.098	-61.543	13.557	-119.057	-111.795	22.547	66.865	-111.796	-105.782	-105.374	-97.996	4.299	-98.122	-8191	255	
1111.018	1	1	0	0	0.27478	0.13601	0.020971	0.09818	0.11109	0.20159	0.16345	0.21655	0.031853	0.22358	0.20244	0.13454	0.26558	0.22196	0.14999	0.13674	-0.46042	-0.56458	-0.16875	-1.2	-0.31875	-0.42708	-1.1917	-0.26458	-0.74167	-0.68333	-0.3375	-1.175	-0.3625	-0.30417	-1.1083	-0.2875	-70.420	61.889	203.542	162.937	182.899	16.196	186.053	-121.329	99.348	11.470	202.170	138.851	-115.782	-106.916	141.388	78.637	0.0002069	0.00030461	0.00012868	1118.7	4.2652e-06	4.3556e-06	1222	230.41	8.6661e-07	3.0736e-06	291.59	82.183	64.483	19.132	3.5877e-06	26.468	0.00054237	0.00066842	0.00019049	1101.3	7.329e-06	7.4417e-06	1206.1	229.93	7.0319e-06	7.3868e-06	290.46	82.892	65.01	19.465	6.9308e-06	27	170.096	-49.849	-44.778	-118.660	32.130	41.733	-119.220	-111.340	-2.906	16.027	-111.735	-105.830	-105.293	-97.790	-12.193	-98.140	-8191	255	
1111.138	1	1	0	0	0.054818	0.087692	0.15123	0.13074	0.16545	0.084577	0.2097	0.41455	0.32335	0.084915	0.27315	0.30722	0.13328	0.33399	0.16072	0.16398	-0.30625	-0.66458	-0.11458	-1.1875	-0.44375	-0.27917	-0.97708	-0.37917	-0.75417	-0.87083	-0.08125	-0.94375	-0.63958	-0.34792	-0.675	-0.44792	-121.101	-93.501	43.171	195.438	-67.309	-60.005	116.495	192.285	193.542	130.374	-90.861	216.552	159.721	-101.384	-125.716	-61.100	0.000204	0.00032394	6.9971e-05	1118.1	2.9355e-06	4.8667e-06	1223.2	230.26	1.0319e-06	8.3122e-07	292.08	81.883	64.468	19.211	4.6726e-06	26.386	0.00054281	0.000658	0.00018801	1100.3	7.09e-06	7.4685e-06	1205.8	229.12	7.0386e-06	7.2795e-06	290.29	82.931	64.942	19.492	7.0013e-06	26.963	174.011	-37.945	-70.744	-119.107	-39.452	46.960	-119.518	-111.994	-107.401	-27.794	-111.929	-105.585	-105.583	-97.946	-1.563	-97.860	-8191	255	
1111.234	1	1	0	0	0.16022	0.10464	0.085866	0.2653	0.22857	0.041119	0.2476	0.10125	0.18413	0.2221	0.22468	0.19033	0.10935	0.15814	0.10522	0.13362	0.039583	-0.79167	0.054167	-1.1896	-0.81667	-0.22083	-1.2458	-0.36875	-0.325	-1.1708	-0.29167	-0.85208	-0.74167	-0.31042	-0.99792	-0.49583	193.341	158.056	226.736	169.688	-48.702	-112.237	214.169	106.026	-88.454	151.093	71.116	218.538	-128.758	6.337	9.500	197.748	0.00018427	0.00024425	0.00015444	1116.4	3.3112e-07	5.8999e-06	1218.5	231.4	2.9905e-06	3.1041e-06	289.9	81.811	64.132	19.081	4.0249e-06	26.473	0.00055274	0.00066834	0.00018833	1099	7.0606e-06	7.3895e-06	1202.6	229.75	6.9903e-06	7.303e-06	289.96	82.754	64.8	19.384	7.2265e-06	26.966	157.869	-10.630	-52.443	-119.202	172.953	17.141	-118.884	-111.798	-37.681	-25.380	-111.627	-105.673	-105.391	-97.812	-5.797	-98.095	-8191	255	
1111.331	1	1	0	0	0.26955	0.24787	0.17937	0.16869	0.19827	0.10665	0.18354	0.28788	0.16778	0.17738	0.12057	0.10852	0.069679	0.064542	0.32234	0.0976	-0.0083333	-0.80833	-0.072917	-0.78333	-0.68125	-0.05625	-1.0771	-0.57292	-0.31875	-1.1562	-0.41042	-0.75	-0.8	-0.089583	-0.85208	-0.71667	99.172	220.539	-20.405	-129.477	-49.547	-116.290	135.631	230.014	68.073	-64.721	65.413	-94.192	32.619	-121.587	112.899	193.467	0.00020584	0.00026434	9.6344e-05	1117.3	2.3552e-06	6.0871e-06	1222.5	230.18	1.1325e-06	1.5493e-06	290.11	81.617	64.015	19.037	9.6523e-07	26.29	0.00056121	0.00066458	0.0001859	1097.2	7.1649e-06	7.5192e-06	1205.2	229.1	7.2388e-06	7.5118e-06	289.83	82.527	64.781	19.372	7.2756e-06	26.911	173.169	-32.956	-6.366	-119.018	24.823	0.605	-118.985	-111.726	-26.119	7.802	-111.891	-105.570	-105.430	-98.042	8.967	-98.731	-8191	255	
1111.427	1	1	0	0	0.2048	0.12143	0.223	0.20804	0.05852	0.26436	0.21152	0.10861	0.17134	0.030183	0.09045	0.17654	0.14045	0.16733	0.16598	0.11579	-0.0083333	-0.92708	-0.12917	-0.89583	-0.89167	-0.095833	-1.2042	-0.6625	-0.225	-1.1167	-0.28542	-0.55625	-0.925	-0.15208	-0.82083	-0.64375	48.324	90.021	150.609	-113.851	-93.020	46.213	160.718	-65.968	155.577	47.269	153.959	209.830	-102.408	163.326	-125.376	68.426	0.00018374	0.0002954	0.00010143	1118.8	2.2862e-06	3.6527e-06	1216.1	230.32	4.3058e-06	2.8768e-06	290	81.826	64.363	19.055	4.1365e-06	26.366	0.00056062	0.00068411	0.00019254	1098.9	7.3974e-06	7.7214e-06	1201.2	229.06	7.4996e-06	7.568e-06	289.64	82.747	64.914	19.406	7.2152e-06	26.833	176.516	-59.326	-48.306	-119.003	-13.763	21.653	-118.988	-111.680	-0.466	17.840	-112.001	-105.651	-105.107	-97.806	4.505	-98.168	-8191	255	
1111.523	1	1	0	0	0.16102	0.12846	0.20987	0.10976	0.087057	0.12583	0.34771	0.35193	0.075528	0.037157	0.10035	0.32226	0.18528	0.03883	0.17931	0.28875	0.10208	-1.1542	-0.4	-0.70833	-1.0667	-0.21042	-0.98333	-0.90208	-0.047917	-0.98125	-0.45417	-0.27708	-0.96875	-0.020833	-1.0125	-0.875	-75.354	141.549	-57.444	118.469	-79.625	190.225	210.043	198.152	93.757	51.718	201.620	220.826	-72.246	227.763	142.609	192.705	0.00017165	0.00026191	5.2905e-05	1114.6	2.5653e-06	2.8161e-06	1215.6	231.19	3.0407e-06	2.3954e-06	289.71	81.375	63.698	19.075	2.3252e-06	26.01	0.00056851	0.00068424	0.0001895	1097.7	7.457e-06	7.5416e-06	1201.7	229.21	7.2908e-06	7.2362e-06	288.48	82.445	64.652	19.352	7.0865e-06	26.787	177.989	27.130	-57.888	-118.661	56.105	23.835	-118.944	-112.094	-8.202	66.427	-111.539	-105.774	-105.130	-97.802	21.351	-98.442	-8191	255	
1111.617	1	1	0	0	0.24898	0.02797	0.14811	0.21797	0.15429	0.075164	0.22238	0.1482	0.19398	0.33483	0.4517	0.12409	0.31658	0.26668	0.076714	0.22068	0.20625	-0.99375	-0.46458	-0.24375	-1.0187	-0.375	-0.79792	-0.94167	-0.25417	-1.0125	-0.37708	-0.24583	-1.0562	-0.13333	-0.67708	-0.83125	60.459	-42.602	105.072	221.685	206.471	126.377	150.146	151.933	119.175	-127.434	64.718	8.782	206.776	153.974	19.300	-122.700	0.00021411	0.00039838	7.0455e-05	1114.6	3.9227e-06	4.5423e-06	1215.2	230.35	2.8348e-06	3.3311e-06	289.87	81.254	63.987	19.062	5.0413e-06	26.292	0.000549	0.00067698	0.00019078	1096.1	7.1499e-06	7.5346e-06	1199.6	229.08	7.2787e-06	7.4758e-06	288.86	82.394	64.52	19.32	7.1817e-06	26.821	180.641	8.488	-23.661	-119.037	3.491	84.622	-119.127	-111.645	-24.414	11.865	-111.826	-105.844	-105.448	-97.310	-14.392	-98.049	-8191	255	
1111.713	1	1	0	0	0.27537	0.15273	0.28619	0.36134	0.2856	0.064012	0.27015	0.079118	0.2208	0.15118	0.43113	0.039549	0.15294	0.14711	0.14701	0.14421	0.30833	-0.79167	-0.65	-0.2625	-1.0479	-0.4	-0.75833	-1.0146	-0.085417	-0.60833	-0.81042	-0.20208	-0.96458	-0.27292	-0.63125	-1.0604	-125.159	-45.586	218.064	-125.458	-86.638	33.919	142.086	201.748	-51.475	-64.601	172.712	88.527	56.003	33.970	-40.008	138.344	0.00018725	0.00025006	6.5158e-05	1114.9	2.4087e-06	2.5015e-06	1207.9	230.56	2.021e-06	1.7009e-06	287.56	81.649	63.866	19.058	3.1642e-06	26.109	0.00056905	0.00066902	0.00018805	1094.5	7.2409e-06	7.2962e-06	1196.8	228.6	7.1772e-06	7.2636e-06	287.42	82.218	64.53	19.29	7.2196e-06	26.681	184.168	-71.690	-36.854	-118.973	21.975	59.925	-119.033	-111.744	-58.777	24.200	-111.913	-105.749	-105.437	-97.891	29.263	-98.588	-8191	255	
1111.834	1	1	0	0	0.15199	0.10179	0.13378	0.12871	0.19905	0.1151	0.14204	0.08131	0.22056	0.054321	0.043644	0.14411	0.39677	0.091002	0.053426	0.093147	0.11042	-0.84167	-0.67917	-0.28125	-1.0812	-0.13333	-0.52292	-1.1083	-0.091667	-0.84167	-0.72917	-0.14792	-1.0688	-0.46458	-0.425	-1.1021	172.658	82.188	-102.606	-96.719	18.042	70.917	197.956	136.625	-58.757	-92.808	218.044	191.221	190.948	216.079	-58.602	-52.948	0.00023771	0.00028451	0.00010375	1107.8	2.3751e-06	5.6439e-06	1204	230.03	4.4589e-06	4.3228e-06	287.61	81.093	63.202	18.902	2.5027e-07	26.252	0.00054041	0.00065779	0.00017688	1089.4	6.9245e-06	7.0675e-06	1191.1	228.1	7.1972e-06	7.0484e-06	286.74	81.856	64.111	19.19	6.8399e-06	26.675	172.983	-9.244	-52.669	-119.096	-3.439	14.557	-119.055	-112.211	-42.151	-13.521	-112.008	-105.799	-105.317	-98.048	6.497	-98.359	-8191	255	
1111.930	1	1	0	0	0.21653	0.070057	0.040899	0.3334	0.3496	0.18222	0.32136	0.15305	0.13126	0.1739	0.14133	0.13572	0.389	0.15587	0.26388	0.46058	-0.058333	-0.43958	-0.74792	-0.079167	-0.86458	-0.53958	-0.225	-1.1708	-0.23958	-0.51667	-0.95	-0.29583	-1.0375	-0.60625	-0.25417	-1.0104	208.429	-36.101	127.361	166.202	-10.208	158.825	-119.973	23.038	69.871	112.769	122.775	109.226	-110.837	-7.297	226.239	180.052	0.00017241	0.00048802	4.929e-05	1106.8	3.9061e-06	4.4203e-06	1201.1	228.64	2.6566e-06	3.6458e-06	286.77	80.599	63.229	18.944	4.3112e-06	26.015	0.00053076	0.00064661	0.00017329	1085.8	6.6787e-06	6.8409e-06	1187.7	227.49	6.8376e-06	6.963e-06	285.52	81.437	63.918	19.149	6.8901e-06	26.503	165.156	-23.271	-49.502	-119.243	-27.919	-14.020	-119.145	-111.584	-61.185	-7.725	-112.334	-106.031	-105.433	-98.039	11.350	-98.537	-8191	255	
1112.026	1	1	0	0	0.078702	0.090962	0.19932	0.13854	0.18269	0.34164	0.10974	0.052605	0.11626	0.2161	0.11484	0.25504	0.12089	0.050904	0.20073	0.23781	0.066667	-0.34167	-0.8625	-0.21042	-0.63125	-0.53542	-0.30833	-1.0187	-0.25625	-0.39583	-1.0208	-0.20833	-0.84583	-0.72708	-0.18542	-1.1479	156.563	197.435	-56.458	50.830	-114.981	-106.754	-108.937	6.853	192.934	-30.239	134.186	-100.590	177.009	65.083	206.379	166.686	0.00023375	0.00021136	0.00012043	1100.3	1.3382e-06	1.4869e-06	1199.9	227.75	2.3251e-06	2.7388e-06	285.46	80.252	63.381	18.831	2.3335e-06	26.031	0.00051917	0.00061434	0.00017086	1082	6.6668e-06	6.6628e-06	1183.5	226.88	6.5984e-06	6.9318e-06	284.11	81.269	63.917	19.079	6.552e-06	26.477	170.692	-71.632	-1.389	-119.334	14.112	70.385	-119.127	-111.777	-49.347	-25.165	-112.307	-106.119	-105.473	-97.931	-0.300	-98.197	-8191	255	
1112.123	1	1	0	0	0.097995	0.077323	0.047852	0.13262	0.12196	0.088165	0.28098	0.047332	0.040786	0.24376	0.1106	0.1251	0.020421	0.051694	0.26876	0.14418	-0.10833	-0.40417	-0.87292	-0.19375	-0.86667	-0.67708	-0.43125	-1.1333	-0.36875	-0.4375	-1.3104	-0.225	-0.8375	-0.76667	-0.027083	-0.89792	5.665	203.027	66.819	102.384	81.101	20.386	197.867	136.673	85.885	6.453	164.353	161.887	179.394	192.205	212.767	3.576	0.00020825	0.00035253	5.5515e-05	1100.2	1.4232e-06	4.6001e-06	1197.2	227.03	2.3933e-06	2.6462e-06	285.83	80.387	63.261	18.795	2.305e-06	25.813	0.00050553	0.00062581	0.00016878	1079.7	6.5747e-06	6.751e-06	1183.1	226.47	6.5087e-06	6.8537e-06	284.37	81.199	63.866	19.091	6.6666e-06	26.429	164.813	-44.850	2.197	-119.142	49.590	98.332	-119.307	-112.257	-17.128	29.824	-112.104	-106.018	-105.355	-98.019	30.789	-98.360	-8191	255	
1112.219	1	1	0	0	0.11183	0.27781	0.094948	0.077276	0.17301	0.30224	0.31108	0.13884	0.055327	0.071108	0.036249	0.066936	0.15155	0.30799	0.10042	0.15987	-0.3	-0.2875	-0.975	-0.375	-0.4625	-0.975	-0.39167	-1.0604	-0.52708	-0.22292	-1.1104	-0.44583	-0.63542	-1.0812	-0.014583	-1.1	172.116	-105.374	-53.015	-129.353	85.447	86.382	-85.380	205.554	183.200	126.727	-37.336	-104.838	-52.897	223.366	140.391	176.935	0.00024401	0.0002483	0.00011939	1097.3	1.8599e-06	3.6819e-06	1194	227.75	3.1674e-06	4.9815e-06	285.79	79.562	63.025	18.787	2.6003e-06	26.07	0.000519	0.00063171	0.00017782	1078.5	6.5818e-06	6.7968e-06	1181.4	226.52	6.7732e-06	6.8044e-06	284.19	80.941	63.681	19.059	6.6964e-06	26.532	174.689	-53.897	-53.216	-119.356	-95.990	13.474	-119.247	-111.961	-10.431	-7.723	-111.949	-106.109	-105.572	-98.056	56.728	-98.701	-8191	255	
1112.315	1	1	0	0	0.30613	0.38582	0.085567	0.2614	0.24295	0.11945	0.12441	0.15498	0.18689	0.086737	0.3172	0.27529	0.17719	0.01352	0.24746	0.14879	-0.34375	-0.27083	-0.91667	-0.46667	-0.19167	-1.1271	-0.35833	-0.71458	-0.86458	-0.035417	-1.1333	-0.49792	-0.50417	-1.0438	-0.29792	-0.7625	-61.515	64.332	223.900	174.128	62.301	-99.246	108.226	-96.375	74.688	-51.478	92.481	-86.467	-79.648	8.729	179.262	-1.357	0.00018925	0.00023734	3.8801e-05	1099.8	2.6604e-06	2.9891e-06	1197.4	227.72	3.1598e-06	3.4243e-06	285.28	80.004	63.117	18.695	3.3487e-06	25.879	0.00050472	0.00063201	0.00016953	1078	6.5722e-06	6.5059e-06	1178.8	226.85	6.5031e-06	6.7103e-06	284.05	80.931	63.74	18.98	6.4021e-06	26.427	169.183	-56.262	-40.722	-119.733	51.010	22.542	-119.324	-111.866	-60.033	7.044	-112.319	-105.659	-104.964	-97.519	-42.553	-98.371	-8191	255	
1112.435	1	1	0	0	0.25472	0.20006	0.15937	0.21799	0.22259	0.21314	0.22241	0.096858	0.17235	0.28547	0.2021	0.27887	0.22404	0.1101	0.29417	0.26011	-0.54375	-0.095833	-0.96875	-0.725	-0.37917	-1.325	-0.59792	-0.75208	-1.1104	-0.035417	-1.0438	-0.64583	-0.36042	-1.0958	-0.39167	-0.74375	53.423	52.963	-65.949	109.420	-1.697	81.634	203.954	135.800	95.017	60.693	-34.129	70.836	137.461	151.424	164.757	-124.997	0.00015071	0.00033561	7.5252e-05	1092.1	3.7425e-06	3.2667e-06	1192.3	227.95	2.7763e-06	3.2121e-06	283.27	80.033	62.725	18.649	1.8966e-06	25.657	0.00050458	0.00060025	0.00016822	1074.3	6.6182e-06	6.7543e-06	1177	225.89	6.3156e-06	6.4945e-06	283.14	80.8	63.381	18.958	6.4235e-06	26.149	163.126	-17.611	-14.934	-119.518	13.051	14.935	-119.352	-112.221	-59.779	41.535	-112.091	-105.668	-105.287	-97.818	52.690	-98.303	-8191	255	
1112.530	1	1	0	0	0.1793	0.10843	0.098692	0.092712	0.15394	0.31034	0.3339	0.095719	0.092882	0.040178	0.19781	0.09582	0.10561	0.063913	0.094302	0.22817	-0.58542	-0.24792	-0.55417	-0.64792	-0.23333	-0.84167	-0.40833	-0.47708	-0.92083	-0.12292	-0.85417	-0.74167	0.045833	-0.94583	-0.36458	-0.17917	21.003	-60.749	105.114	89.150	174.890	-123.280	151.967	33.783	165.960	149.460	167.144	59.346	147.582	179.822	59.018	209.939	0.00016422	0.00041803	6.4409e-05	1089.9	2.857e-06	4.3797e-06	1187.3	227.38	5.5879e-07	3.7745e-06	282.22	79.658	62.918	18.591	2.4104e-06	25.611	0.000499	0.00060384	0.00016519	1070.1	6.5945e-06	6.7386e-06	1172.6	225.67	6.2639e-06	6.4149e-06	282.05	80.401	63.198	18.869	5.943e-06	26.149	167.910	-45.764	-48.120	-119.320	6.133	2.257	-119.307	-111.870	121.120	-15.699	-112.043	-106.088	-105.219	-97.932	-17.679	-98.402	-8191	255	
1112.626	1	1	0	0	0.17795	0.042104	0.027999	0.092493	0.15891	0.23039	0.13268	0.27098	0.15885	0.18632	0.21281	0.058275	0.078675	0.22993	0.22678	0.24854	-0.82083	-0.047917	-0.8625	-0.98333	-0.03125	-1.0333	-0.58958	-0.45417	-1.2771	-0.15	-0.73125	-1.1458	-0.26667	-1.0771	-0.6625	-0.37708	214.676	45.151	-95.033	-41.700	-126.622	40.863	209.500	-79.913	10.036	29.861	177.419	-2.236	-15.841	-81.349	135.308	-63.935	0.00015563	0.00035106	0.00013652	1083.7	2.4246e-06	1.4083e-06	1181	225.44	2.1974e-06	1.8379e-06	282.48	79.46	62.252	18.47	2.3461e-06	25.598	0.00048369	0.00059571	0.0001631	1064.4	6.4586e-06	6.3348e-06	1167.2	224.3	6.274e-06	6.4413e-06	281.34	80.207	62.864	18.765	6.1703e-06	26.075	171.807	-31.485	-23.948	-119.565	-0.200	71.696	-119.466	-111.962	-26.786	22.068	-112.217	-105.934	-105.673	-97.890	-9.761	-98.188	-8191	255	
1112.698	1	1	0	0	0.37198	0.17733	0.23918	0.0093607	0.30648	0.14849	0.15886	0.1696	0.15499	0.19761	0.47461	0.081702	0.1056	0.26364	0.31474	0.22293	-0.84167	-0.4625	-0.64583	-1.1417	-0.15	-1.0917	-0.80417	-0.31042	-1.1771	-0.28125	-0.69583	-0.94375	-0.11042	-0.84792	-0.77292	-0.18542	-4.099	-33.105	204.241	-55.867	-33.979	-60.239	149.104	-90.731	-105.221	-129.684	-44.029	-6.053	-68.480	74.269	128.076	137.135	0.00020362	0.00031847	6.582e-05	1081.8	4.5246e-06	2.3173e-06	1178	226.16	1.3981e-06	1.5383e-06	283.73	79.033	61.961	18.553	2.1858e-06	25.572	0.0004797	0.0005754	0.00016417	1063.2	6.2289e-06	6.1209e-06	1163.4	224.12	6.1239e-06	6.2938e-06	281.81	80.057	62.721	18.772	6.1705e-06	26.056	163.336	-23.185	-23.343	-119.363	-71.867	-6.633	-119.310	-111.839	4.802	92.585	-112.292	-106.232	-105.581	-98.481	1.768	-98.903	-8191	255	
1112.818	1	1	0	0	0.1173	0.12505	0.067301	0.3023	0.13643	0.022907	0.13511	0.15704	0.15919	0.10693	0.15348	0.066706	0.18404	0.030738	0.28596	0.15574	-0.76667	-0.21042	-0.34583	-1.2542	0.029167	-0.98125	-0.96875	-0.24375	-1.0354	-0.41875	-0.49167	-0.95833	-0.34583	-1.0167	-0.85417	-0.22083	-38.692	126.533	7.782	-129.791	71.032	190.937	106.492	155.897	-79.885	-93.934	104.908	98.187	-124.432	-39.461	39.159	-47.005	0.00021066	0.00019827	0.00011298	1079	1.8383e-06	3.8347e-06	1177.6	224.22	2.6919e-06	1.1556e-06	282.57	79.465	62.011	18.479	1.8289e-06	25.632	0.00048741	0.00057589	0.00015937	1062	6.2995e-06	6.2455e-06	1163.8	223.78	6.143e-06	6.3058e-06	281.1	80.357	62.777	18.765	6.0926e-06	26.067	177.812	-60.961	-62.623	-119.319	37.340	12.178	-119.288	-111.950	-14.024	23.286	-112.141	-105.642	-105.253	-98.208	11.048	-98.515	-8191	255	
1112.914	1	1	0	0	0.2649	0.071786	0.030132	0.21524	0.15754	0.1597	0.12711	0.039068	0.33534	0.20971	0.17331	0.12551	0.20224	0.13444	0.082495	0.1419	-0.45833	-0.40417	-0.13125	-1.2417	-0.13958	-0.775	-0.97917	-0.12708	-1.0083	-0.41458	-0.47708	-1.1583	-0.19792	-0.39792	-1.0771	-0.17083	183.891	-115.898	206.252	101.855	-73.487	-77.299	-32.027	185.084	158.761	89.822	-124.541	-8.923	184.624	122.034	-17.222	51.558	0.00018357	0.00025613	0.00010077	1077.8	2.5253e-06	3.1371e-06	1179.3	224.22	4.5236e-06	4.0784e-06	283.86	78.584	61.726	18.711	2.2898e-06	25.327	0.00047898	0.00059213	0.00016607	1062.2	6.4654e-06	6.4724e-06	1164.3	223.67	6.3086e-06	6.3124e-06	281.25	79.938	62.58	18.834	6.3279e-06	25.965	174.481	-17.539	-65.669	-119.251	-3.252	18.047	-119.368	-112.156	-7.836	19.787	-111.998	-105.944	-105.417	-98.175	-24.893	-98.441	-8191	255	
1113.011	1	1	0	0	0.04403	0.11009	0.15133	0.20381	0.17495	0.32589	0.25292	0.19661	0.17604	0.40736	0.030451	0.19847	0.19374	0.16269	0.029509	0.060397	-0.68333	-0.475	-0.16875	-1.2333	-0.21042	-0.61458	-1.0208	-0.2625	-0.77917	-0.77083	-0.089583	-1.2583	-0.23958	-0.41458	-1.0125	-0.058333	-38.176	180.957	-11.686	-110.832	-97.113	207.004	44.304	-40.407	70.364	-16.457	-83.851	-75.436	40.394	143.782	30.828	212.454	0.00021998	0.00016117	6.8809e-05	1079.9	5.0969e-06	4.7301e-06	1179.5	225.42	3.0418e-06	4.171e-06	281.92	79.227	62.334	18.461	2.687e-06	25.467	0.00047729	0.00056828	0.00016816	1061.3	6.3255e-06	6.461e-06	1164.4	224.09	6.0272e-06	6.3536e-06	281.17	79.908	62.962	18.774	6.3155e-06	26.007	171.859	-4.261	-102.295	-119.260	-9.518	18.958	-119.520	-112.097	-41.042	42.214	-112.278	-106.350	-105.447	-98.099	-9.998	-98.480	-8191	255	
1113.107	1	1	0	0	0.057205	0.10702	0.027201	0.18829	0.18933	0.40001	0.46394	0.19606	0.24276	0.051401	0.28247	0.17405	0.21083	0.17877	0.21222	0.10651	-0.31667	-0.87917	-0.20833	-1.1583	-0.40833	-0.29167	-1.2354	-0.31667	-0.51667	-0.90833	-0.16875	-0.96458	-0.58125	-0.16667	-1.0042	-0.016667	219.313	-61.228	126.393	161.117	58.946	-64.807	228.181	-126.094	65.753	54.656	132.904	177.059	63.486	-109.240	205.280	117.583	0.00018608	0.000205	8.0071e-05	1083.8	2.5754e-06	3.5004e-06	1178	225.5	3.1176e-06	2.2951e-06	282.06	79.47	62.165	18.56	2.0578e-06	25.291	0.00047861	0.000585	0.0001622	1062.7	6.2509e-06	6.4839e-06	1164.2	224.11	6.3485e-06	6.4978e-06	280.98	80.207	62.88	18.813	6.4111e-06	25.997	172.392	-74.752	-78.502	-119.691	-19.544	45.630	-119.519	-112.101	-33.118	38.112	-112.111	-106.009	-105.224	-98.304	-11.701	-98.698	-8191	255	
1113.227	1	1	0	0	0.12483	0.05266	0.20164	0.22991	0.17091	0.076613	0.26083	0.28924	0.15235	0.15504	0.13279	0.16913	0.18072	0.1158	0.046849	0.088761	-0.17917	-0.76458	-0.12292	-0.85625	-0.50833	-0.12708	-1.3771	-0.18333	-0.72917	-0.6875	-0.22917	-1.0562	-0.61875	-0.29792	-1.1542	-0.49167	9.441	-2.099	183.011	154.313	-63.268	-75.599	170.832	134.848	139.256	-63.144	123.373	194.282	48.956	128.434	30.717	-90.169	0.00019321	0.00047535	9.8743e-05	1085.3	3.8609e-06	3.7962e-06	1178.1	225.31	1.4173e-06	2.3472e-06	283.51	79.371	62.121	18.55	5.0726e-06	25.564	0.0004938	0.00059862	0.00016676	1066.6	6.3509e-06	6.5717e-06	1166.3	224.12	6.4944e-06	6.3301e-06	281.43	80.272	62.892	18.785	6.1408e-06	26.125	170.541	-12.823	-28.542	-119.532	13.949	46.138	-119.324	-111.879	-39.296	-8.389	-112.068	-106.014	-105.811	-98.026	20.551	-98.569	-8191	255	
1113.299	1	1	0	0	0.12716	0.099319	0.085324	0.46196	0.027295	0.3914	0.10907	0.25608	0.08931	0.21517	0.13716	0.19655	0.14134	0.23855	0.31406	0.11841	-0.070833	-0.92292	-0.1	-0.90625	-0.76458	-0.14167	-1.1271	-0.40833	-0.41667	-1.0979	-0.17917	-0.78125	-0.78333	-0.10625	-0.8	-0.37917	-98.677	-73.820	-48.430	203.359	170.444	168.700	-96.916	204.281	-15.936	-68.525	168.634	-125.653	194.483	188.940	33.218	12.088	0.00016575	0.00014861	0.00010621	1083.1	3.1418e-06	2.9173e-06	1181.3	224.72	3.4143e-06	3.4619e-06	282.67	79.39	62.194	18.644	2.2135e-06	25.351	0.00049061	0.00059106	0.00016996	1066.5	6.3334e-06	6.5108e-06	1167.2	224.19	6.4798e-06	6.5327e-06	281.28	80.273	62.929	18.836	6.0995e-06	26.017	174.181	1.658	-53.212	-119.406	-18.224	-11.190	-119.340	-112.102	-7.011	-3.229	-111.948	-105.913	-105.432	-98.025	110.193	-98.569	-8191	255	
1113.395	1	1	0	0	0.079749	0.19574	0.13867	0.17331	0.2248	0.064779	0.043067	0.27774	0.22247	0.21713	0.1029	0.14225	0.2554	0.072895	0.12869	0.14521	0.21667	-1.0167	0.13958	-0.75417	-0.8125	-0.1375	-1.1875	-0.60208	-0.14167	-0.99167	-0.23958	-0.62292	-0.86458	-0.070833	-1.1479	-0.725	119.990	18.497	226.899	186.919	142.853	-63.392	58.341	194.603	29.704	27.561	-19.242	206.753	72.832	-40.769	-117.993	148.890	0.00017166	0.00036173	7.8491e-05	1076.8	2.972e-06	1.8958e-06	1174.6	225.33	2.7941e-06	2.9569e-06	282.75	78.764	62.288	18.66	2.3692e-06	25.639	0.00049049	0.00058932	0.00016527	1064.8	6.3512e-06	6.6348e-06	1164.8	223.87	6.534e-06	6.4032e-06	281.1	80.149	62.926	18.834	6.1327e-06	26.103	172.212	-23.668	-65.225	-119.305	-115.040	10.272	-119.459	-111.911	-57.689	7.158	-112.158	-105.887	-105.292	-98.007	-30.763	-98.752	-8191	255	
1113.516	1	1	0	0	0.12246	0.07946	0.085584	0.18806	0.29107	0.12247	0.14241	0.26681	0.15098	0.18789	0.32783	0.12598	0.028657	0.15491	0.12346	0.23073	0.15417	-0.99375	-0.13333	-0.58125	-0.97292	-0.09375	-1.0812	-0.65625	-0.1625	-1.0375	-0.37292	-0.47708	-0.90417	-0.085417	-0.71875	-0.90208	-71.065	-97.793	182.084	181.012	-4.583	-23.242	180.491	213.848	17.185	219.813	80.518	125.218	108.122	-113.053	37.459	201.729	0.00017052	9.5935e-05	7.7539e-05	1088.3	5.0501e-08	3.621e-06	1177.5	225.3	4.7947e-07	4.4405e-06	282.23	79.863	62.256	18.565	3.8119e-06	25.726	0.00048514	0.00058013	0.00016366	1066.3	6.1365e-06	6.6094e-06	1166.9	224.13	6.4233e-06	6.4053e-06	281.36	80.459	62.84	18.816	6.4451e-06	26.122	168.419	-69.662	-54.771	-119.275	201.580	59.997	-119.240	-112.104	-75.914	57.189	-111.969	-106.038	-105.707	-97.652	6.135	-98.020	-8191	255	
1113.610	1	1	0	0	0.27256	0.33717	0.097095	0.19762	0.1612	0.18201	0.040925	0.32785	0.061175	0.081856	0.32017	0.17368	0.23074	0.21084	0.2168	0.11807	0.30208	-1.1021	-0.42292	-0.575	-1.0833	-0.16875	-0.92708	-0.95417	-0.17292	-1.2167	-0.44375	-0.39167	-1.3083	-0.2	-0.63542	-1.1208	-103.478	103.162	89.897	153.387	-86.356	7.604	-69.323	222.675	65.361	-61.656	223.310	-112.111	115.495	58.135	147.557	143.893	0.000156	0.00062302	9.8223e-05	1086.2	8.2193e-07	3.0826e-06	1183.7	224.83	4.0563e-06	5.4201e-06	282.46	79.038	62.196	18.595	2.1814e-06	25.451	0.00049861	0.00058345	0.00016274	1067.3	6.36e-06	6.3146e-06	1166.6	224.04	6.4435e-06	6.267e-06	281.04	80.171	62.795	18.792	6.4431e-06	26.06	160.431	-41.114	-17.413	-119.178	26.357	-8.578	-119.186	-111.938	-35.721	11.515	-112.122	-105.892	-105.506	-98.042	-17.845	-98.181	-8191	255	
1113.706	1	1	0	0	0.32738	0.10817	0.041928	0.22268	0.2225	0.17928	0.31996	0.11479	0.19736	0.24152	0.16041	0.28476	0.31636	0.22791	0.23633	0.17827	0.1	-1.0979	-0.3875	-0.33125	-1.0833	-0.25	-0.79583	-0.91042	-0.20833	-0.92292	-0.90625	-0.091667	-1.1292	-0.35833	-0.57917	-0.98958	123.162	172.045	79.565	-105.665	146.648	24.675	-85.817	-79.814	-128.525	148.133	136.775	184.225	126.754	97.817	126.927	185.250	0.00019059	0.00044237	9.7271e-06	1083	7.6754e-07	6.4389e-06	1179.5	225.26	1.0527e-06	4.8151e-06	282.72	78.974	62.828	18.597	3.6036e-06	25.679	0.00049272	0.00058245	0.0001646	1066.2	6.1953e-06	6.512e-06	1167.2	223.84	6.2153e-06	6.4825e-06	280.91	80.093	63.082	18.867	6.4056e-06	26.093	165.523	-11.080	57.430	-119.079	71.685	28.136	-119.413	-112.260	-62.841	5.983	-112.159	-105.965	-105.244	-98.079	13.661	-98.435	-8191	255	
1113.827	1	1	0	0	0.17674	0.089935	0.22902	0.096593	0.14547	0.18006	0.20976	0.14122	0.15574	0.20894	0.15298	0.20348	0.14349	0.032517	0.28839	0.19669	0.1625	-0.80417	-0.52083	-0.425	-0.95	-0.27917	-0.59583	-0.85208	-0.05	-0.86875	-0.84792	0.072917	-1.0458	-0.44375	-0.34167	-1.0792	19.748	213.071	16.915	208.463	-77.762	71.398	185.589	-68.722	-66.429	100.362	175.812	166.947	-111.436	218.659	-90.890	194.850	0.00018513	0.0002733	6.7032e-05	1085	2.1722e-06	4.6782e-06	1184.7	225.82	2.6563e-06	1.7335e-06	285.2	78.997	62.016	18.638	3.394e-06	25.519	0.00049179	0.00060009	0.0001693	1066.6	6.558e-06	6.7513e-06	1169.9	224.38	6.5776e-06	6.728e-06	281.86	80.266	62.992	18.909	6.6516e-06	26.132	179.647	-7.575	-10.537	-118.895	-9.893	27.912	-119.058	-111.975	-82.684	-6.764	-111.884	-105.661	-105.483	-98.354	-40.756	-98.578	-8191	255	
1113.923	1	1	0	0	0.16402	0.26044	0.16201	0.14266	0.17779	0.1999	0.34078	0.42943	0.18267	0.16012	0.1817	0.073679	0.27695	0.2297	0.1717	0.21123	0.18125	-0.79375	-0.81042	-0.42708	-1.0833	-0.54583	-0.54583	-1.2104	-0.35	-0.88125	-0.84792	-0.28542	-1.1938	-0.41042	-0.31875	-1.0312	-20.054	-26.190	173.967	-52.724	2.691	104.967	165.517	-120.792	174.157	160.641	181.322	203.989	-42.532	-123.802	32.775	-30.282	0.00015689	0.00033178	3.5224e-05	1092.3	3.3065e-06	2.3178e-06	1188.1	227.38	9.345e-07	3.4048e-06	283.72	79.624	62.318	18.507	1.5668e-06	25.708	0.00051508	0.00061907	0.00017322	1072.1	6.5094e-06	6.945e-06	1172.7	225.19	6.507e-06	6.6589e-06	281.98	80.682	63.124	18.885	6.4483e-06	26.226	176.138	-65.886	-10.888	-119.234	48.521	50.070	-119.107	-112.065	13.090	16.361	-112.020	-105.721	-105.268	-98.118	22.186	-98.370	-8191	255	
1113.995	1	1	0	0	0.23119	0.066304	0.16143	0.24387	0.15984	0.24712	0.27333	0.04763	0.087121	0.036573	0.21565	0.23575	0.20265	0.44742	0.031621	0.1752	-0.01875	-0.61667	-0.98125	-0.34583	-1.1437	-0.64167	-0.375	-1.2062	-0.43542	-0.46667	-1.0292	-0.1875	-0.82083	-0.56458	-0.3125	-0.93125	14.372	93.184	-97.227	-103.669	152.016	-86.562	91.530	-127.834	29.163	132.145	-84.879	139.614	158.469	-126.826	192.370	125.537	0.00018698	0.00044408	0.00014541	1088.5	9.9575e-07	3.0083e-06	1187.7	225.76	3.0471e-06	2.597e-06	284.18	79.661	62.298	18.691	2.2678e-06	25.851	0.00050365	0.00062595	0.0001672	1072.4	6.5631e-06	6.5029e-06	1174.4	224.94	6.5031e-06	6.6938e-06	281.97	80.51	63.201	18.961	6.5078e-06	26.26	179.921	-56.009	-27.234	-119.263	-17.717	-12.311	-119.319	-112.075	-57.688	47.338	-112.126	-105.699	-105.718	-98.196	14.994	-98.680	-8191	255	
1114.115	1	1	0	0	0.13365	0.39312	0.15003	0.29674	0.093235	0.32876	0.34188	0.24617	0.20103	0.025566	0.096377	0.22275	0.24906	0.11241	0.2244	0.14201	-0.0083333	-0.25417	-1.0312	-0.175	-0.85208	-0.67292	-0.34167	-1.1104	-0.46042	-0.275	-1.2667	-0.35	-0.78542	-0.89167	0.0020833	-1.0958	220.462	128.037	-70.642	204.834	120.194	-125.558	174.052	225.647	196.451	-120.242	151.284	193.765	200.108	113.928	221.784	41.847	0.0001697	0.00013588	4.9788e-05	1089.3	3.1073e-06	2.4215e-06	1189.1	226.03	1.3449e-06	1.4857e-06	283.59	79.882	62.656	18.617	3.0417e-06	25.667	0.00051165	0.00061817	0.00017395	1070.6	6.6922e-06	6.7826e-06	1174	225.48	6.631e-06	6.7064e-06	282.35	80.75	63.278	18.936	6.7729e-06	26.226	177.013	-28.607	-85.197	-119.208	13.414	43.204	-119.237	-111.894	-25.863	28.175	-111.807	-106.123	-105.283	-98.197	-31.777	-98.210	-8191	255	
1114.212	1	1	0	0	0.11915	0.26287	0.17076	0.1722	0.43171	0.12444	0.10533	0.43288	0.23446	0.15335	0.076469	0.21964	0.10202	0.056789	0.096575	0.2486	-0.047917	-0.34792	-1.2417	-0.10833	-0.8	-1.0417	-0.175	-1.075	-0.64792	-0.34792	-1.0125	-0.23125	-0.69792	-0.8625	-0.15417	-0.92917	-63.194	-79.592	3.527	-18.867	81.143	-91.180	69.056	-117.754	-100.682	-18.062	22.980	209.753	32.771	189.062	119.171	185.710	0.00017312	0.0002545	7.6192e-05	1090.8	2.7453e-06	3.9299e-06	1187	226.51	1.5091e-06	1.75e-06	284.47	79.664	62.329	18.615	1.468e-06	25.554	0.00050985	0.00062124	0.00016715	1073.8	6.6185e-06	6.5971e-06	1174.6	225.16	6.5858e-06	6.7872e-06	282.54	80.549	63.274	18.924	6.3836e-06	26.189	163.716	-69.842	-19.333	-119.199	-1.026	-7.184	-119.300	-111.855	-73.655	23.600	-111.904	-106.029	-105.689	-97.903	-9.918	-98.093	-8191	255	
1114.308	1	1	0	0	0.040891	0.082079	0.26114	0.096511	0.099174	0.19381	0.11109	0.1877	0.17275	0.21612	0.29282	0.29139	0.086988	0.031148	0.089383	0.21591	-0.61458	-0.2375	-1.0333	-0.48958	-0.44375	-0.97708	-0.35208	-0.94583	-0.49792	-0.28958	-1.0104	-0.22708	-0.28125	-1.1562	-0.19792	-0.68125	219.169	167.338	147.317	-91.256	200.383	-38.579	150.028	115.328	147.016	136.111	-116.577	209.697	194.506	117.880	-19.218	-49.255	0.00020777	0.00040932	3.3796e-05	1092.6	2.5853e-06	2.272e-06	1192.4	226.4	3.9781e-06	4.4781e-06	284.1	79.366	62.97	18.729	1.6923e-06	25.753	0.00048956	0.00059707	0.0001643	1073.6	6.5363e-06	6.4616e-06	1175.8	225.21	6.3564e-06	6.5336e-06	282.26	80.428	63.422	18.934	6.3851e-06	26.222	164.984	-29.251	-13.331	-119.110	-28.661	58.230	-119.365	-112.025	-57.108	31.629	-111.941	-106.017	-105.237	-98.212	-0.156	-98.257	-8191	255	
1114.402	1	1	0	0	0.16947	0.38739	0.16234	0.23054	0.24904	0.26622	0.16337	0.16804	0.16086	0.22186	0.26817	0.17452	0.31557	0.072018	0.10716	0.15397	-0.5375	-0.0020833	-1.0562	-0.67708	-0.32292	-1.3208	-0.31667	-0.95208	-1.0542	0.09375	-1.175	-0.52292	-0.45625	-1.0792	-0.2	-0.85833	-14.498	133.744	-120.249	150.894	144.243	13.539	-39.246	-90.015	42.470	189.908	214.409	-79.338	-92.355	64.494	-9.569	140.238	0.00017948	0.00048204	4.707e-05	1094.8	3.6507e-06	3.3546e-06	1191	225.14	3.9743e-06	3.0307e-06	282.88	79.792	62.948	18.753	1.2808e-06	25.648	0.00048222	0.00059267	0.00016004	1075.3	6.3879e-06	6.3463e-06	1176.8	225	6.3285e-06	6.4957e-06	282.43	80.738	63.42	18.991	6.2693e-06	26.174	160.093	-47.210	-2.630	-119.246	29.666	-27.070	-119.068	-111.621	-42.401	-59.528	-111.787	-105.745	-105.522	-98.034	49.479	-98.145	-8191	255	
1114.523	1	1	0	0	0.060497	0.1272	0.12679	0.41448	0.17713	0.2508	0.36417	0.23778	0.085749	0.16173	0.064088	0.17115	0.079828	0.14693	0.062197	0.26023	-0.70833	-0.04375	-0.83542	-0.8375	-0.24792	-1.0771	-0.36042	-0.70833	-0.94792	-0.17708	-1.0042	-0.70833	-0.36667	-1.2979	-0.23542	-0.65208	54.900	161.503	221.470	128.807	212.492	31.213	154.528	227.687	75.381	76.153	60.932	-5.215	192.914	70.520	-58.586	178.498	0.00020612	0.00044202	0.00010076	1089	2.0381e-06	5.5701e-06	1192.6	227.07	3.2424e-06	8.0716e-07	283.82	79.923	62.759	18.734	5.3266e-06	25.68	0.00048154	0.00060341	0.00015962	1072.8	6.3272e-06	6.2458e-06	1177	225.52	6.2765e-06	6.2754e-06	282.3	80.615	63.279	18.936	6.1538e-06	26.168	172.791	-1.486	-29.114	-119.053	11.146	30.675	-119.338	-111.721	-57.432	-32.755	-111.542	-106.082	-105.084	-97.932	-44.703	-97.797	-8191	255	
1114.594	1	1	0	0	0.08521	0.13775	0.27525	0.16609	0.12839	0.17374	0.28408	0.18646	0.18079	0.11448	0.29207	0.33861	0.22725	0.36238	0.14	0.10568	-0.75625	0.095833	-0.79792	-0.76875	-0.17083	-0.94792	-0.67708	-0.36667	-1.2042	-0.23125	-1	-0.86042	-0.325	-1.0771	-0.45208	-0.40417	-20.859	-40.718	158.335	-80.460	-75.050	169.554	158.799	101.562	115.139	24.144	213.352	197.987	-121.618	-83.906	90.001	42.656	0.00014097	0.00034195	2.9033e-05	1093.8	3.0671e-06	1.9633e-06	1190.9	227.5	2.7852e-07	4.5612e-06	285.28	79.876	62.252	18.628	1.0434e-06	25.653	0.00047202	0.00057342	0.00015652	1073.9	6.1605e-06	5.9757e-06	1174.1	225.8	5.9594e-06	6.0669e-06	282.6	80.707	63.081	18.912	6.0348e-06	26.26	172.010	-22.218	-106.841	-119.129	-50.069	-8.661	-119.488	-112.006	-30.780	14.817	-111.838	-106.032	-105.498	-97.958	80.877	-97.979	-8191	255	
1114.691	1	1	0	0	0.042436	0.25162	0.31144	0.12205	0.30296	0.15481	0.28516	0.41533	0.20601	0.26442	0.33828	0.038316	0.30772	0.032461	0.18471	0.041493	-0.84375	-0.16042	-0.76667	-1.0208	-0.16875	-1.025	-0.81042	-0.21458	-1.2	-0.21875	-0.7	-1.1375	-0.022917	-1.1854	-0.52917	-0.4625	29.446	121.411	-112.729	-78.561	58.956	-124.083	129.624	155.451	-76.332	-64.845	159.743	192.970	208.666	-98.870	50.936	160.311	0.00015675	0.00039997	4.4471e-05	1094	2.4441e-06	3.0828e-06	1185.4	226.14	2.5378e-06	2.5411e-06	284.72	79.231	63.207	18.665	3.1715e-06	25.672	0.00046125	0.00056344	0.00015515	1072.8	6.1498e-06	6.0599e-06	1175.4	224.93	6.2257e-06	6.2899e-06	282.31	80.463	63.459	18.924	6.0296e-06	26.244	173.507	-39.437	21.023	-119.251	15.986	16.893	-119.206	-111.642	-28.373	52.060	-111.712	-105.791	-105.260	-97.734	5.340	-97.877	-8191	255	
1114.787	1	1	0	0	0.28834	0.13838	0.024488	0.079899	0.20091	0.24293	0.23849	0.31359	0.061684	0.17912	0.19161	0.05262	0.077821	0.016836	0.22045	0.19873	-0.68542	-0.1875	-0.5375	-0.88125	-0.1375	-0.8375	-1.0479	-0.21042	-0.99375	-0.52292	-0.46458	-1.1333	-0.28542	-0.77917	-0.84375	-0.28333	27.356	-44.917	171.769	183.817	200.487	-32.306	190.824	218.785	-46.964	-48.582	172.302	86.768	147.503	-13.259	175.761	155.678	0.00019412	0.00033194	0.00015776	1092.7	2.4227e-06	5.8451e-06	1193	226.67	1.3944e-06	5.9604e-07	283.48	79.532	62.508	18.68	3.176e-06	25.768	0.0004616	0.00057016	0.00015852	1072.9	6.1543e-06	6.1073e-06	1176	225.62	5.8504e-06	6.0419e-06	282.26	80.481	62.976	18.885	5.9722e-06	26.182	178.620	-48.244	-45.213	-119.229	-0.515	37.898	-119.395	-111.806	18.061	-37.684	-112.105	-105.811	-105.435	-97.713	-19.460	-98.017	-8191	255	
1114.907	1	1	0	0	0.28512	0.19339	0.19124	0.12572	0.22857	0.24538	0.38591	0.23768	0.13998	0.20535	0.11713	0.087593	0.25582	0.29521	0.30807	0.22387	-0.9125	-0.31458	-0.4	-1.2979	-0.22917	-0.84167	-1.0667	-0.34167	-0.95625	-0.35	-0.34792	-1.0021	-0.54583	-0.58958	-0.72917	-0.25208	167.452	198.355	-93.175	156.935	183.255	193.149	137.719	163.884	228.363	18.496	120.033	207.512	-15.624	83.261	9.048	79.886	0.00018267	0.00044537	2.5014e-05	1092.9	3.4597e-06	2.0006e-06	1184.9	226.99	2.9195e-06	2.3215e-06	283.85	79.61	62.528	18.677	4.4213e-06	25.476	0.00045545	0.00055006	0.00015379	1072.2	6.0173e-06	6.0289e-06	1173.4	224.9	5.8661e-06	5.9319e-06	282.11	80.489	63.135	18.945	5.8281e-06	26.149	170.182	-51.853	24.335	-118.944	-18.241	69.938	-119.489	-111.857	-39.486	13.429	-111.918	-105.770	-105.206	-98.004	6.488	-98.328	-8191	255	
1115.004	1	1	0	0	0.27853	0.37908	0.068841	0.046732	0.20558	0.091982	0.27883	0.13174	0.10839	0.1252	0.06984	0.18112	0.21875	0.083177	0.37418	0.17047	-0.87917	-0.29167	-0.15417	-1.0625	-0.36042	-0.57083	-1.2563	0.00625	-0.92292	-0.56875	-0.30625	-1.2062	-0.3875	-0.53333	-1.0604	0.0083333	51.066	-31.375	-66.264	73.882	223.586	55.834	137.652	-112.269	186.151	125.167	223.387	188.232	131.655	92.120	97.598	227.820	0.00015527	0.00018773	9.0627e-05	1085.9	2.5417e-06	4.2418e-06	1185.9	225.62	2.1564e-06	5.7901e-07	284.04	79.723	62.917	18.632	1.4371e-06	25.619	0.0004502	0.00054321	0.00015191	1070	5.8718e-06	5.9754e-06	1172.1	225.01	5.7413e-06	5.8676e-06	282.71	80.41	63.219	18.902	5.7623e-06	26.205	173.105	-57.606	-30.864	-119.054	-7.345	37.397	-119.064	-111.805	-13.870	-48.267	-112.298	-106.125	-105.389	-97.848	-18.227	-98.469	-8191	255	
1115.100	1	1	0	0	0.20626	0.17104	0.18093	0.099463	0.19505	0.065951	0.45948	0.095708	0.12496	0.36617	0.035439	0.18399	0.2555	0.039843	0.06641	0.1546	-0.51667	-0.50833	-0.14792	-1.2313	-0.5125	-0.43542	-1.3083	-0.15208	-0.9375	-0.85417	-0.18333	-1.1604	-0.42292	-0.49375	-1.0208	-0.43542	-27.800	181.978	-28.702	143.649	16.358	-51.197	178.041	46.086	-54.258	145.508	136.288	-99.596	-126.299	-2.590	134.319	9.026	0.00019198	0.000316	7.8138e-05	1088.7	2.4045e-06	2.9333e-06	1186.1	225.55	1.0393e-06	4.4975e-06	284.11	79.612	62.486	18.708	2.3723e-06	25.637	0.00046338	0.00056156	0.00015421	1071.7	6.063e-06	6.2902e-06	1172.1	224.82	6.1455e-06	6.2634e-06	281.96	80.586	63.089	18.951	6.3037e-06	26.2	182.768	-35.667	-27.084	-118.971	4.050	77.082	-119.270	-111.559	-69.627	11.808	-111.704	-105.617	-105.084	-97.804	2.487	-97.981	-8191	255	
1115.196	1	1	0	0	0.024241	0.42168	0.17698	0.19607	0.13596	0.21158	0.23656	0.16322	0.24875	0.22566	0.05816	0.15452	0.16373	0.25828	0.1119	0.28379	-0.35208	-0.89167	-0.060417	-1.2146	-0.48542	-0.41458	-1.3479	-0.50625	-0.72292	-0.82708	-0.21042	-1.0208	-0.65625	-0.47083	-1.1	-0.23333	69.324	-91.914	137.566	-75.379	-110.161	-46.334	116.924	150.127	41.014	12.896	60.852	26.440	152.406	-110.366	7.922	227.843	0.00019836	0.00010295	6.7721e-05	1094.4	2.9797e-06	3.603e-06	1192.8	225.96	3.7419e-06	3.9024e-06	283.81	79.866	62.65	18.828	2.9554e-06	25.759	0.0004776	0.00058272	0.00016926	1076.4	6.417e-06	6.7543e-06	1176.2	225.06	6.6195e-06	6.5486e-06	282.25	80.621	63.321	18.992	6.5569e-06	26.206	173.754	-107.447	-22.192	-119.005	-14.028	70.761	-119.050	-111.480	-44.605	10.620	-111.736	-105.497	-105.184	-97.490	32.613	-98.128	-8191	255	
1115.292	1	1	0	0	0.11409	0.13357	0.015266	0.067961	0.22583	0.24785	0.12148	0.3731	0.1976	0.12467	0.3143	0.09839	0.13537	0.22322	0.38605	0.17593	-0.46458	-0.85833	-0.28958	-0.93333	-0.81458	-0.079167	-1.2854	-0.30417	-0.2125	-1.0958	-0.11042	-0.91875	-0.92708	-0.19583	-1.1187	-0.2875	155.415	15.277	128.658	35.525	78.557	96.020	156.914	-113.809	203.627	54.665	193.973	161.728	-112.628	126.469	17.865	122.722	0.00020424	0.00022576	6.3828e-05	1089.2	2.1602e-06	3.1096e-06	1189.7	226.29	2.9025e-06	2.77e-06	283.49	79.869	62.891	18.664	2.3981e-06	25.955	0.00050597	0.00061812	0.00017209	1073.4	6.4905e-06	6.9435e-06	1174.8	225.17	6.7769e-06	6.9775e-06	282.19	80.811	63.394	18.97	6.8067e-06	26.275	173.310	-39.107	-48.030	-119.007	-24.644	40.092	-118.806	-111.665	8.064	6.345	-111.695	-105.005	-105.156	-98.049	46.688	-98.922	-8191	255	
1115.388	1	1	0	0	0.27576	0.29304	0.12716	0.26861	0.18967	0.046178	0.33803	0.065528	0.35319	0.11966	0.14302	0.18499	0.23891	0.24242	0.095613	0.2773	-0.16667	-0.99792	0.11875	-1.0917	-0.64375	-0.075	-1.2646	-0.43958	-0.41458	-0.84167	-0.19792	-0.79583	-0.89167	-0.04375	-1.15	-0.54375	37.225	224.170	-55.296	134.545	121.693	139.966	44.078	153.659	17.392	-21.450	-116.589	205.555	171.501	-62.359	-33.026	-129.022	0.00020873	0.00018421	4.7971e-05	1085.2	3.0404e-06	4.926e-06	1188.4	224.91	3.9468e-06	2.8739e-06	283.1	80.433	63.05	18.84	3.0873e-06	25.723	0.00052588	0.00063821	0.00018069	1072	6.7894e-06	7.1101e-06	1175	224.94	7.0251e-06	6.9673e-06	282.08	80.929	63.339	19.027	6.7197e-06	26.23	170.484	-50.292	-37.146	-119.335	-25.244	50.443	-119.728	-112.240	-33.670	56.919	-112.519	-106.260	-106.117	-98.497	-90.299	-99.144	-8191	255	
1115.509	1	1	0	0	0.20536	0.19207	0.24768	0.099109	0.12385	0.15538	0.44317	0.24833	0.26848	0.26364	0.1216	0.39943	0.21118	0.27316	0.17734	0.11514	-0.085417	-0.85625	-0.23542	-0.59583	-0.73333	-0.18542	-1.0292	-0.87708	-0.12083	-1.0771	-0.13958	-0.56875	-1.025	-0.1375	-0.91458	-0.52917	41.209	49.665	20.195	119.720	-94.077	155.371	159.237	206.538	-6.482	-69.392	102.009	171.469	107.375	-99.618	168.653	212.067	0.00015998	0.00031068	0.0001218	1089.6	1.7324e-06	5.9215e-06	1188.2	225.97	1.8071e-06	4.3138e-06	282.38	80.008	62.469	18.643	1.732e-06	25.766	0.00052365	0.00062497	0.00017366	1073.9	6.7403e-06	6.9335e-06	1174.9	225	6.676e-06	6.7863e-06	282.05	80.766	63.421	18.959	6.6256e-06	26.208	174.289	-84.040	-21.429	-119.773	3.994	36.144	-119.525	-112.756	-46.068	52.911	-112.378	-106.087	-105.879	-98.138	39.766	-99.274	-8191	255	
1115.603	1	1	0	0	0.19132	0.11821	0.078139	0.24746	0.19065	0.32982	0.27694	0.25478	0.018488	0.4431	0.054556	0.1191	0.12501	0.064907	0.21516	0.36647	-0.041667	-0.93958	-0.17917	-0.5125	-1.0417	-0.23958	-1.1375	-0.56458	-0.0875	-1.1437	-0.35833	-0.5625	-1.0104	-0.30833	-0.70208	-0.87292	-75.000	-68.115	-94.624	-125.470	186.693	126.260	-129.661	-51.150	53.237	-86.882	-92.977	-91.853	8.789	227.816	194.749	-111.607	0.00018359	0.0003002	0.00012263	1087.6	5.0791e-07	3.5881e-06	1183.4	225.09	2.0601e-06	2.6313e-06	283.78	79.798	62.597	18.715	1.3988e-06	25.758	0.00052665	0.0006166	0.00017108	1071.3	6.5032e-06	6.8795e-06	1173	224.63	6.6914e-06	6.7319e-06	281.92	80.722	63.214	18.951	6.7512e-06	26.329	174.744	-63.588	-8.150	-119.499	127.472	1.449	-119.669	-112.406	-0.644	-39.371	-112.478	-106.266	-106.261	-99.288	-34.814	-98.625	-8191	255	
1115.699	1	1	0	0	0.19017	0.1251	0.21807	0.20537	0.3268	0.13542	0.17589	0.22426	0.14072	0.26827	0.1052	0.14031	0.34047	0.080042	0.13388	0.17494	0.125	-0.85208	-0.5875	-0.20625	-1.1458	-0.30833	-0.9	-0.82083	0.070833	-1.0854	-0.42917	-0.3875	-1.2167	-0.38958	-0.57708	-0.93333	203.953	-21.313	96.878	219.879	96.299	96.231	126.365	-105.045	-44.876	-106.715	153.222	171.746	214.855	214.736	76.293	107.986	0.00018669	9.3418e-05	4.6896e-05	1087.2	1.0827e-06	2.4491e-06	1185.1	226.14	2.7868e-06	2.3934e-06	284.1	79.711	62.386	18.749	2.0715e-06	25.703	0.0005253	0.00062706	0.00017981	1071.7	6.7894e-06	7.1798e-06	1172.9	225.42	7.0681e-06	7.1298e-06	282.45	80.757	63.369	18.996	7.012e-06	26.308	157.787	-32.871	-70.600	-119.668	26.766	-31.926	-119.806	-112.722	-90.366	5.796	-112.558	-106.451	-106.356	-98.694	-0.395	-98.759	-8191	255	
1115.796	1	1	0	0	0.13311	0.2534	0.25041	0.13584	0.063875	0.03762	0.23627	0.1284	0.21477	0.15614	0.22252	0.25604	0.25216	0.15632	0.10477	0.13697	0.30625	-0.80833	-0.61042	-0.525	-1.1333	-0.32292	-0.925	-1.2146	-0.14375	-0.80417	-0.62917	-0.44167	-1.0438	-0.58125	-0.37917	-1.0458	9.030	170.072	164.494	194.562	1.681	-80.957	103.758	200.334	126.003	158.742	187.846	-64.222	201.963	-111.909	152.691	-102.961	0.00022227	0.00047865	8.8439e-05	1089.7	2.6344e-06	3.7914e-06	1188.9	226.5	1.9701e-06	2.6003e-06	281.55	79.682	62.519	18.62	2.2564e-06	25.653	0.00056378	0.00066763	0.00018557	1074.2	7.1886e-06	7.4112e-06	1176.6	225.61	7.268e-06	7.4794e-06	281.61	80.774	63.382	18.991	7.219e-06	26.308	174.871	-35.448	-25.543	-120.083	-57.165	33.125	-119.834	-112.425	-35.670	24.516	-112.444	-106.361	-105.742	-98.607	6.512	-98.758	-8191	255	
1115.892	1	1	0	0	0.31404	0.33676	0.27832	0.10958	0.20713	0.13246	0.41354	0.1388	0.072591	0.15065	0.1229	0.22056	0.11385	0.29728	0.2299	0.26475	0.05	-0.84375	-0.72917	-0.23958	-1.2	-0.33958	-0.52917	-1.2812	-0.047917	-0.65417	-0.97708	-0.20208	-1.1021	-0.42083	-0.26042	-1.0875	-62.694	23.336	192.387	-55.888	136.244	61.385	200.394	207.482	-20.312	-127.008	-22.933	182.088	21.166	-70.732	-106.814	227.666	0.00011863	0.00055104	8.5234e-05	1091.6	3.5859e-06	4.1543e-06	1186.9	225.56	2.7514e-06	1.6029e-06	283.02	79.523	62.446	18.582	3.8734e-06	25.809	0.00054553	0.00065436	0.00018296	1073.9	6.9674e-06	7.3693e-06	1174.8	225.32	7.0842e-06	7.0827e-06	281.87	80.556	63.347	18.929	6.8676e-06	26.317	178.846	-23.491	-4.753	-119.731	29.506	35.065	-119.891	-112.427	-42.439	2.170	-112.551	-106.493	-105.693	-98.700	-8.344	-99.034	-8191	255	
1115.988	1	1	0	0	0.17086	0.28619	0.071516	0.27368	0.22662	0.058615	0.13621	0.37496	0.11432	0.06382	0.24752	0.06376	0.13239	0.11194	0.35745	0.3408	0.22708	-0.67708	-0.97917	-0.30833	-0.82292	-0.62708	-0.275	-1.175	-0.039583	-0.68333	-0.825	-0.13542	-0.87917	-0.66667	-0.10833	-1.1604	10.900	109.442	193.805	-121.203	62.183	-50.975	100.881	145.468	22.301	29.080	150.907	-37.854	-88.210	73.212	-119.030	-102.988	0.00016939	0.00040173	7.9037e-05	1086.7	3.4067e-06	2.2681e-06	1188.9	227.15	2.1119e-06	1.5862e-06	282.3	80.105	62.269	18.641	3.0144e-06	25.611	0.00052871	0.00062551	0.00018171	1070.7	6.9137e-06	7.2253e-06	1174.7	225.48	6.9394e-06	7.1996e-06	281.76	80.762	63.362	18.958	7.0919e-06	26.241	172.604	-23.064	-36.104	-119.867	18.697	92.378	-119.722	-112.711	-48.981	-28.238	-112.490	-106.317	-106.068	-98.474	-48.362	-99.352	-8191	255	
1116.084	1	1	0	0	0.20267	0.29802	0.22472	0.32208	0.10061	0.29837	0.31766	0.10841	0.055844	0.14421	0.18139	0.012956	0.23663	0.24234	0.054309	0.087857	0.12083	-0.58333	-0.86667	-0.29583	-0.77083	-0.60833	-0.3625	-1.0083	-0.13125	-0.62917	-1.0583	-0.089583	-0.64792	-0.80208	-0.047917	-1.0792	95.383	-29.281	-43.446	197.872	-98.104	125.906	217.949	56.254	-5.434	190.406	147.580	-85.092	103.161	196.675	-5.945	38.945	0.00016118	0.00041452	0.0001038	1089.7	1.5488e-06	6.2839e-06	1185.7	226.39	2.6331e-06	4.6245e-06	283.95	80.04	62.862	18.641	4.037e-06	25.859	0.00053971	0.00066665	0.00018939	1072.6	7.1366e-06	7.3391e-06	1174.9	225.5	7.0302e-06	7.2987e-06	282.26	80.881	63.476	18.997	7.1491e-06	26.234	176.229	-18.263	-67.825	-119.847	-17.923	-9.698	-119.825	-112.360	7.127	34.209	-112.640	-106.575	-105.880	-98.601	-5.433	-98.869	-8191	255	
1116.205	1	1	0	0	0.21247	0.27529	0.089059	0.12162	0.08862	0.28063	0.14462	0.23127	0.16341	0.029446	0.11916	0.24261	0.072868	0.20884	0.082959	0.22149	-0.11042	-0.40833	-1	-0.23333	-0.5625	-0.89792	-0.30208	-1.0708	-0.44375	-0.3	-1.1646	-0.3	-0.74792	-0.79583	-0.072917	-1.0979	6.980	-33.162	-35.468	153.434	-8.174	-92.611	159.906	-60.764	5.342	-22.807	45.850	-48.476	-114.271	40.310	44.136	-106.478	0.00021111	0.00011386	0.0001171	1084.4	1.5069e-06	3.6681e-06	1188	226.28	4.2002e-06	3.8987e-07	284.7	79.697	62.666	18.645	3.4352e-06	25.732	0.0005451	0.00065159	0.00018279	1070.5	7.2516e-06	7.1701e-06	1174.8	225.14	7.0538e-06	7.5437e-06	282.62	80.557	63.529	18.975	7.2086e-06	26.261	172.815	-61.955	-78.362	-119.976	-57.026	42.275	-120.024	-112.531	-49.220	3.697	-112.820	-106.419	-105.695	-98.735	-2.611	-98.692	-8191	255	
1116.301	1	1	0	0	0.21729	0.23192	0.19803	0.088151	0.083815	0.23984	0.19319	0.28936	0.20241	0.16905	0.13889	0.10101	0.064202	0.21629	0.056075	0.38359	-0.11042	-0.26875	-1.0875	-0.42917	-0.53542	-0.95625	-0.11667	-1.0396	-0.65208	-0.31667	-1.0854	-0.35833	-0.49167	-1.0792	0.0375	-1.0146	-47.547	-88.988	173.279	-80.520	-32.645	56.533	209.678	219.415	197.634	81.301	119.203	178.111	155.810	219.327	160.049	105.997	0.00019449	0.00027791	0.00012379	1091.1	2.7393e-06	3.6134e-06	1185.4	225.28	4.8482e-06	6.6987e-07	283.07	79.613	62.496	18.589	4.8723e-06	25.933	0.00055157	0.00067443	0.00018721	1070.2	7.0858e-06	7.1571e-06	1173	225.04	7.0251e-06	7.3114e-06	281.82	80.706	63.129	18.939	7.0908e-06	26.378	176.655	-43.469	-39.049	-120.150	-49.577	46.403	-119.851	-112.345	-39.741	150.316	-112.722	-106.350	-105.936	-98.937	47.581	-98.853	-8191	255	
1116.395	1	1	0	0	0.093481	0.1062	0.23455	0.057207	0.20811	0.40337	0.0028922	0.059417	0.14926	0.07199	0.11828	0.43354	0.078867	0.11375	0.10344	0.15372	-0.38125	-0.24792	-1.0083	-0.4375	-0.34583	-1.1021	-0.34792	-1.0125	-0.71875	-0.38125	-1.0458	-0.41875	-0.34167	-1.1583	-0.17917	-0.73958	-44.133	113.920	210.592	-111.547	-110.645	-68.338	74.121	68.396	-19.871	220.465	148.378	207.576	64.293	41.428	48.793	47.326	0.00019051	0.00050475	8.7457e-05	1081.1	2.9587e-06	4.3884e-06	1187.9	225.41	4.1736e-06	5.6649e-06	283.7	79.857	62.546	18.684	2.406e-06	25.847	0.00054138	0.00065817	0.00018232	1068.7	7.2098e-06	7.2905e-06	1173.7	225	7.1603e-06	7.4132e-06	282.45	80.751	63.403	19.019	7.1956e-06	26.305	169.017	-46.315	-13.073	-119.825	3.475	9.419	-119.884	-112.514	-39.130	35.647	-112.602	-106.208	-105.838	-98.657	11.833	-98.879	-8191	255	
1116.469	1	1	0	0	0.22781	0.060767	0.20476	0.17583	0.26037	0.0337	0.47654	0.18943	0.090447	0.065896	0.26182	0.29626	0.14172	0.056174	0.11506	0.36415	-0.45417	0.039583	-0.85833	-0.48333	-0.15	-0.95833	-0.37292	-0.83958	-1.0167	-0.047917	-1.1146	-0.36458	-0.33333	-1.1688	-0.1375	-0.69792	2.562	-30.205	76.280	167.788	212.712	-113.034	170.071	-115.846	-87.147	103.203	198.812	-103.927	-31.763	-36.494	174.337	-60.368	0.00017517	0.00017013	8.4101e-05	1089.2	1.5022e-06	3.8623e-06	1184.2	225.65	5.7453e-06	1.5594e-06	281.61	79.583	62.561	18.638	3.3158e-06	25.562	0.00053028	0.00068277	0.00018617	1071.9	7.2553e-06	7.4341e-06	1173.5	225.44	7.0752e-06	7.4178e-06	281.82	80.571	63.371	18.927	7.2458e-06	26.309	179.539	-87.214	-30.079	-119.996	8.161	10.520	-119.916	-112.513	-14.577	73.924	-112.753	-106.458	-105.891	-98.515	41.528	-99.391	-8191	255	
1116.589	1	1	0	0	0.067005	0.12431	0.21753	0.41576	0.12296	0.27899	0.32449	0.3864	0.093614	0.099832	0.035545	0.29072	0.35641	0.18644	0.23847	0.12101	-0.5875	0.0083333	-0.92708	-0.8625	-0.275	-1.1042	-0.3	-0.62917	-1.075	-0.18125	-0.92292	-0.84792	-0.0375	-1.2146	-0.19167	-0.52708	59.009	79.313	-7.581	178.987	-112.137	54.315	196.846	-88.201	-8.710	108.878	-64.667	142.009	198.458	91.453	162.590	96.184	0.00021018	0.00043782	0.00010279	1080.4	3.519e-06	4.7216e-06	1185.3	225.25	4.2919e-06	2.4548e-06	283.22	79.812	62.59	18.607	1.149e-06	25.742	0.0005421	0.00066893	0.00018609	1068.3	7.4005e-06	7.2733e-06	1170.7	224.57	6.9655e-06	7.3438e-06	282.36	80.678	63.232	18.962	7.1197e-06	26.325	170.640	-34.057	-85.402	-119.904	-55.913	7.057	-120.168	-112.435	20.440	8.715	-112.514	-106.761	-105.865	-98.550	77.842	-98.896	-8191	255	
1116.684	1	1	0	0	0.18349	0.096766	0.012627	0.29389	0.16672	0.14838	0.035541	0.23637	0.13532	0.23965	0.16111	0.22581	0.036447	0.18496	0.122	0.17719	-0.77083	-0.089583	-0.76875	-0.82083	-0.00625	-1.1104	-0.5625	-0.73542	-1.0146	-0.05625	-0.74375	-0.77292	-0.17708	-0.88542	-0.35833	-0.33333	58.218	-47.535	64.694	176.469	57.326	114.758	-8.655	189.964	16.916	48.893	-90.935	150.097	100.081	221.927	89.424	-100.676	0.00018148	9.6259e-05	9.0212e-05	1080.9	2.1662e-06	4.0583e-06	1184	226.32	3.5903e-06	1.8684e-06	284.5	79.202	62.681	18.718	1.3968e-06	25.914	0.00053636	0.00068805	0.00018907	1065.9	7.4048e-06	7.2802e-06	1170.7	224.96	7.2371e-06	7.4178e-06	282.47	80.422	63.361	18.984	7.2355e-06	26.336	174.705	-75.074	-27.637	-119.867	-12.505	13.956	-120.000	-112.384	-54.820	29.132	-112.605	-106.521	-105.938	-98.282	-86.070	-99.047	-8191	255	
1116.780	1	1	0	0	0.054228	0.11598	0.35717	0.3099	0.20127	0.14137	0.2082	0.28453	0.17896	0.21534	0.33513	0.1607	0.32937	0.093362	0.051416	0.10169	-0.66042	-0.28542	-0.62708	-1.1875	-0.035417	-0.9625	-0.7	-0.3375	-0.77083	-0.25625	-0.58333	-0.9875	-0.0083333	-0.83125	-0.47083	-0.12292	67.906	-34.304	188.852	-128.569	35.212	190.326	134.163	-121.104	-26.145	47.137	205.355	-116.508	185.610	29.710	207.367	-64.364	0.00018516	0.00026973	7.0824e-05	1086.3	3.6742e-06	3.686e-06	1184.8	225.75	4.109e-06	4.5627e-06	282.81	79.714	62.701	18.726	3.0676e-06	25.899	0.0005633	0.00069039	0.00019563	1067.6	7.3875e-06	7.4556e-06	1169.6	224.96	7.1918e-06	7.4484e-06	281.61	80.543	63.229	19.001	7.4266e-06	26.387	169.510	-26.706	-19.634	-119.835	-60.037	12.877	-120.080	-112.562	-50.123	20.067	-112.424	-106.686	-106.292	-98.740	25.981	-98.854	-8191	255	
1116.876	1	1	0	0	0.13938	0.10874	0.18796	0.18586	0.041206	0.17664	0.31498	0.13181	0.096686	0.057635	0.35966	0.13085	0.039734	0.15907	0.14186	0.20781	-0.59583	-0.30625	-0.33333	-0.92292	0.12708	-0.71458	-0.93958	-0.22083	-0.92292	-0.37708	-0.18333	-0.9875	-0.047917	-0.58958	-0.80625	-0.025	-16.615	-30.979	126.578	214.164	-11.610	-23.905	-124.555	124.549	1.593	48.518	205.670	-43.322	136.422	-65.720	16.331	163.271	0.00021144	0.0001897	6.6871e-05	1081.2	2.7178e-06	3.0808e-06	1183	226.49	5.1463e-06	4.644e-06	282.99	79.29	62.336	18.652	3.0145e-06	25.775	0.00054898	0.00068405	0.00018799	1067.2	7.5491e-06	7.4945e-06	1168.5	224.71	7.2171e-06	7.629e-06	282	80.594	63.125	18.958	7.4613e-06	26.281	173.198	-46.936	-60.572	-119.961	-22.472	-22.674	-120.035	-112.660	-20.024	13.356	-112.419	-106.080	-105.850	-98.628	-16.077	-98.802	-8191	255	
1116.997	1	1	0	0	0.054253	0.28656	0.21188	0.087429	0.32885	0.16034	0.2508	0.24431	0.051295	0.11689	0.072372	0.15104	0.30665	0.15219	0.16732	0.024568	-0.59583	-0.33125	-0.029167	-1.3396	-0.28125	-0.7875	-0.9	-0.28333	-0.70833	-0.30833	-0.3875	-1.0187	-0.095833	-0.64167	-0.69167	-0.083333	-113.059	101.612	93.168	-79.988	-89.633	96.925	119.055	205.819	191.304	210.183	108.485	28.495	202.899	174.249	125.811	-16.227	0.00018947	0.00027942	7.9614e-05	1080.9	3.0963e-06	3.7026e-06	1180.6	225.64	2.926e-06	1.8784e-06	283.38	79.384	61.877	18.539	4.0274e-06	25.776	0.00055611	0.00071314	0.00020072	1067.2	7.5647e-06	7.786e-06	1168.6	224.6	7.3526e-06	7.7841e-06	282.18	80.563	63.187	18.967	7.5721e-06	26.329	182.304	-52.695	-63.712	-119.731	-0.511	26.394	-119.956	-112.452	13.197	55.709	-112.841	-106.252	-105.848	-98.786	15.572	-98.790	-8191	255	
1117.093	1	1	0	0	0.1044	0.21244	0.060371	0.29889	0.10545	0.22077	0.3928	0.30362	0.22597	0.15668	0.05755	0.2948	0.049874	0.17433	0.10144	0.21268	-0.49167	-0.54583	-0.36458	-1.1833	-0.15417	-0.64167	-1.0625	-0.17292	-0.83958	-0.56458	-0.23542	-1.1063	-0.47292	-0.60833	-0.79583	-0.39583	-98.102	197.734	221.965	-85.226	208.018	-9.266	205.126	-126.632	-31.625	-56.067	-56.641	-25.134	169.178	181.756	-127.165	188.625	0.00024721	0.00021079	3.1311e-05	1081.2	3.2217e-06	4.3716e-06	1182.3	225.23	1.6612e-06	3.2391e-06	281.77	79.616	62.678	18.629	2.8191e-06	25.54	0.00057202	0.00070934	0.00019916	1068.2	7.4534e-06	7.7664e-06	1169.5	224.86	7.3669e-06	7.5214e-06	281.98	80.497	63.275	18.954	7.467e-06	26.273	172.584	-30.456	31.336	-119.708	27.908	36.950	-120.046	-112.510	-60.865	23.555	-112.668	-106.719	-106.294	-98.322	13.525	-98.796	-8191	255	
1117.189	1	1	0	0	0.11493	0.15776	0.14586	0.12124	0.14458	0.28409	0.17037	0.16852	0.16843	0.027326	0.17274	0.1677	0.16395	0.028046	0.12292	0.056064	-0.45625	-0.9125	-0.095833	-0.95625	-0.425	-0.21875	-1.2687	-0.21667	-0.75208	-0.79792	-0.14375	-1.0125	-0.34792	-0.3625	-0.99375	-0.15208	191.085	32.277	210.121	219.059	142.579	162.699	84.390	124.451	44.358	44.850	162.627	176.454	-10.024	-113.329	184.890	141.898	0.00016457	0.00018438	0.00011674	1086.2	1.0934e-06	4.7391e-06	1179.3	226.44	6.3024e-07	4.5259e-06	282.67	79.788	61.919	18.617	3.1573e-06	25.716	0.00057369	0.00069003	0.00020039	1069.8	7.4909e-06	8.0859e-06	1170.2	225.11	7.5885e-06	8.0227e-06	281.66	80.668	63.201	19.03	7.5571e-06	26.287	167.972	225.979	-44.399	-119.806	86.703	44.741	-120.068	-112.381	-56.149	17.758	-112.372	-106.069	-106.109	-98.477	7.187	-98.417	-8191	255	
1117.285	1	1	0	0	0.20421	0.17615	0.21296	0.26346	0.051286	0.058436	0.14894	0.12756	0.077424	0.30428	0.065949	0.19804	0.21569	0.11267	0.009905	0.26186	-0.35208	-0.86042	-0.041667	-1.0604	-0.39792	-0.36875	-1.3542	-0.35	-0.43958	-0.90625	-0.1875	-0.73333	-0.60625	-0.22083	-0.98125	-0.3875	107.833	100.452	171.133	214.425	155.786	93.306	-120.890	195.284	201.958	10.112	204.733	158.185	176.268	141.408	142.755	103.677	0.00013385	0.00021232	0.00010865	1088.3	2.0039e-06	5.6057e-07	1187.7	226.39	8.8121e-07	3.3924e-06	280.77	79.753	62.579	18.598	2.5524e-06	25.798	0.00057965	0.00071972	0.00020274	1070.6	7.6393e-06	7.9858e-06	1172	225.33	7.6388e-06	7.8616e-06	281.55	80.646	63.227	18.961	7.6463e-06	26.267	168.139	-57.045	-71.269	-119.893	3.793	29.798	-119.821	-112.637	-39.382	0.367	-112.398	-106.429	-106.307	-98.678	-3.006	-98.708	-8191	255	
1117.381	1	1	0	0	0.1919	0.18959	0.074952	0.19643	0.33066	0.20941	0.13184	0.34681	0.20878	0.071326	0.25509	0.17191	0.16662	0.056716	0.13127	0.091252	-0.10833	-0.99375	-0.15833	-1.2104	-0.73333	-0.05	-1.0562	-0.43542	-0.34375	-1	-0.20625	-0.85208	-0.80625	-0.11667	-0.91042	-0.40417	-4.884	214.986	-66.975	151.735	93.608	141.352	-105.511	204.940	-81.367	-80.842	209.296	208.412	155.156	-66.841	11.747	192.093	0.00015287	0.00022411	3.3239e-05	1085.2	2.0637e-06	1.911e-06	1180.6	226.66	1.109e-06	3.3005e-06	281.95	79.624	62.842	18.625	1.4141e-06	25.724	0.00059088	0.00069756	0.00020356	1069.5	7.7819e-06	8.0977e-06	1171.3	225.57	7.7448e-06	7.8652e-06	281.95	80.746	63.309	18.968	7.7962e-06	26.304	157.020	25.915	-83.387	-119.755	-39.092	-11.192	-119.823	-112.403	-49.005	33.968	-112.869	-106.674	-106.233	-98.454	-78.451	-98.930	-8191	255	
1117.477	1	1	0	0	0.35146	0.20085	0.11962	0.052561	0.068359	0.34331	0.1706	0.14548	0.29925	0.1359	0.11898	0.20224	0.11206	0.14055	0.10986	0.20894	0.047917	-1.0812	-0.13125	-0.9375	-0.85208	-0.21458	-0.97917	-0.54583	-0.20833	-1.1333	-0.44792	-0.72292	-0.59792	-0.1875	-0.83125	-0.56667	-15.346	-40.865	150.610	-105.755	57.772	-32.083	-115.164	77.502	106.884	-37.663	37.279	-98.173	18.277	-76.068	-72.078	204.390	0.00019501	0.00042802	5.5834e-05	1092.7	4.599e-06	5.5197e-06	1184.9	226.67	3.279e-06	2.3526e-06	283.86	79.422	63.287	18.782	1.3163e-06	25.753	0.00059741	0.00071352	0.00020458	1073.6	7.8622e-06	8.3198e-06	1173	225.08	8.0745e-06	8.0937e-06	282.74	80.836	63.592	19.049	7.8057e-06	26.35	163.942	-87.712	-3.489	-119.677	26.523	-6.801	-119.787	-112.609	-18.128	30.795	-112.445	-106.282	-105.676	-98.504	16.487	-99.317	-8191	255	
1117.596	1	1	0	0	0.011353	0.14678	0.40677	0.2346	0.18916	0.2394	0.067149	0.057998	0.16145	0.15847	0.066408	0.090168	0.050682	0.092662	0.20211	0.12279	0.25208	-0.8375	-0.31458	-0.6875	-1.0208	-0.070833	-1.025	-0.6875	-0.16875	-1.1771	-0.46875	-0.35625	-1.1604	0.13125	-0.92917	-0.74167	228.569	108.857	17.138	195.424	197.276	137.128	205.503	-80.120	102.802	23.716	220.234	-87.292	222.965	196.659	-66.938	115.841	0.00021598	0.00049039	8.8102e-05	1085.8	1.9847e-06	5.83e-06	1188.6	225.65	1.8341e-06	4.1938e-06	282.81	80.019	62.559	18.777	1.4433e-06	25.597	0.00057996	0.00074357	0.00020249	1070.6	7.772e-06	8.1185e-06	1175.1	225.31	7.6081e-06	7.6873e-06	282.29	80.92	63.141	19.068	7.5866e-06	26.254	173.885	-42.309	-14.111	-119.932	-1.331	15.249	-119.872	-112.864	-83.587	49.619	-112.470	-106.622	-105.850	-98.646	8.878	-98.979	-8191	255	
1117.692	1	1	0	0	0.10712	0.36837	0.24724	0.41102	0.0086304	0.20043	0.13609	0.30266	0.058774	0.19396	0.082978	0.2747	0.23938	0.28693	0.14214	0.25966	0.21042	-1.2375	-0.36667	-0.45417	-1.0625	-0.075	-1.0688	-0.67292	-0.09375	-0.87292	-0.49583	-0.47708	-1.1042	-0.19167	-0.41458	-0.92708	-57.325	129.047	-36.827	-118.383	173.718	125.600	-68.480	-90.796	190.122	45.178	-102.800	186.686	212.307	47.396	125.159	134.749	0.00017738	0.00024609	0.0001024	1091.9	2.2216e-06	2.441e-06	1184.7	225.56	1.2869e-06	3.8599e-06	281.64	79.23	62.559	18.731	3.1887e-06	25.714	0.00057826	0.00069417	0.00019631	1072.6	7.2895e-06	7.9218e-06	1171.9	224.93	7.7925e-06	7.6468e-06	280.81	80.51	63.175	19.036	7.4191e-06	26.273	169.188	-58.341	5.868	-119.977	30.010	14.133	-119.774	-112.483	-85.964	39.914	-112.562	-106.323	-106.216	-98.430	6.051	-99.166	-8191	255	
1117.764	1	1	0	0	0.18075	0.28783	0.22016	0.042245	0.084016	0.10996	0.072411	0.067691	0.041935	0.3869	0.081515	0.11175	0.2417	0.086314	0.086725	0.34637	0.19375	-0.89792	-0.35417	-0.31875	-1.1292	-0.17083	-0.72917	-1.05	-0.066667	-0.84583	-0.85	-0.13542	-1.0667	-0.12917	-0.60625	-0.92917	121.639	145.561	131.459	221.572	5.491	17.197	-112.229	86.959	86.411	133.932	193.086	187.394	-90.105	203.498	89.322	-81.651	0.00021587	0.00028207	3.5547e-05	1086.3	2.1185e-06	5.2329e-07	1181.8	226.39	1.8333e-06	3.0675e-06	281.21	79.581	62.495	18.526	2.9524e-06	25.599	0.00058192	0.00070863	0.00019575	1070.7	7.5695e-06	7.7628e-06	1170.7	225.08	7.5171e-06	7.6849e-06	280.73	80.705	63.283	18.943	7.6426e-06	26.225	164.037	-54.292	-119.545	-119.457	21.234	22.692	-119.930	-112.391	-47.194	23.567	-112.556	-106.374	-106.094	-98.614	26.204	-98.717	-8191	255	
1117.860	1	1	0	0	0.15747	0.13751	0.086763	0.058445	0.17635	0.14726	0.2235	0.30118	0.05557	0.21765	0.32331	0.043639	0.39452	0.23729	0.17432	0.1723	0.13958	-0.84583	-0.67917	-0.085417	-1.0354	-0.42917	-0.63125	-0.84583	0.00625	-0.78958	-0.93333	-0.10625	-1.1437	-0.25208	-0.46458	-1.1167	-12.338	-27.246	6.440	214.940	77.877	169.939	141.323	171.651	179.263	-107.591	-101.676	176.552	-95.715	-101.074	134.320	69.293	0.00020138	0.00021569	8.9053e-05	1089	3.5883e-06	5.3952e-06	1185.1	225.78	3.1551e-06	4.7767e-06	282.11	79.289	62.315	18.644	1.8198e-06	25.689	0.00057332	0.00069947	0.00019686	1070.6	7.6104e-06	7.9704e-06	1170.4	224.82	7.5179e-06	7.6735e-06	281.98	80.522	63.235	18.969	7.6126e-06	26.337	179.606	-21.001	-59.076	-119.804	32.101	25.067	-119.761	-112.477	-21.428	51.902	-112.511	-106.463	-105.641	-98.952	-52.216	-98.569	-8191	255	
1117.981	1	1	0	0	0.1939	0.14124	0.070738	0.10457	0.16506	0.092069	0.25055	0.25182	0.27224	0.12619	0.37414	0.068815	0.16309	0.046343	0.36738	0.05789	0.21875	-0.73333	-0.7125	-0.24792	-1.1104	-0.41458	-0.55417	-1.1979	-0.089583	-0.72292	-1.0208	-0.12083	-1.0229	-0.42083	-0.2875	-1.1604	220.136	160.930	220.403	-100.283	27.897	-114.145	179.259	-70.535	175.818	228.019	157.505	193.144	-64.598	174.982	146.870	92.394	0.00013603	0.00031338	7.8451e-05	1086.5	3.1172e-06	1.3557e-06	1180.4	225.64	2.3181e-06	3.5643e-06	281.99	79.634	62.206	18.592	2.2022e-06	25.736	0.00057256	0.00071981	0.00019496	1069.8	7.47e-06	7.6701e-06	1171.6	224.63	7.4285e-06	7.767e-06	281.85	80.623	63.182	18.928	7.7699e-06	26.254	163.568	-0.506	-14.329	-119.665	-50.088	6.000	-119.871	-112.887	-17.841	6.409	-112.608	-106.437	-106.174	-98.444	-46.459	-99.121	-8191	255	
1118.077	1	1	0	0	0.26893	0.24283	0.044731	0.18327	0.11101	0.16462	0.17434	0.20723	0.18327	0.2407	0.054018	0.22414	0.15973	0.29814	0.14509	0.16752	0.225	-0.66875	-0.77083	-0.19375	-0.95	-0.4875	-0.48125	-0.93542	-0.37917	-0.71458	-1.1562	-0.18125	-0.9375	-0.72292	-0.22917	-0.91667	9.551	103.400	179.219	217.019	79.851	-4.356	179.675	53.043	118.083	-26.322	183.349	153.636	-49.018	-59.422	-85.508	107.059	0.00017033	0.0005038	0.00010157	1086.8	2.7058e-06	8.4038e-06	1183.4	227.32	5.6767e-07	3.7365e-06	282.32	79.678	62.466	18.642	1.5195e-06	25.642	0.00057942	0.00069139	0.00019269	1069	7.3062e-06	7.5926e-06	1171.8	225.2	7.331e-06	7.6326e-06	281.07	80.589	63.312	18.942	7.437e-06	26.25	175.101	-30.160	-13.403	-119.847	-19.187	27.602	-119.574	-112.227	17.078	4.711	-112.774	-106.428	-105.695	-98.829	34.899	-99.322	-8191	255	
1118.173	1	1	0	0	0.19952	0.20594	0.1408	0.17789	0.27473	0.16841	0.20475	0.14001	0.059323	0.21857	0.18326	0.20348	0.14459	0.13851	0.13997	0.076243	0.21875	-0.51458	-0.89792	-0.22708	-0.57083	-0.97292	-0.37292	-1.1562	-0.52292	-0.42292	-0.98542	-0.30208	-0.71875	-0.79583	-0.25625	-0.91875	-17.409	-130.383	206.480	167.902	-44.462	167.740	213.106	137.038	194.083	19.484	-96.632	200.000	5.466	225.851	67.166	138.256	0.00019487	0.00036173	8.5633e-05	1088.6	1.1787e-06	5.3367e-06	1180.6	225.21	3.9635e-06	9.7427e-07	282.48	79.6	62.472	18.637	1.9693e-06	25.818	0.00056495	0.00070485	0.00018831	1070.1	7.4082e-06	7.7712e-06	1170.2	224.84	7.4909e-06	7.7183e-06	281.88	80.641	63.354	18.985	7.6793e-06	26.297	176.922	-2.568	-19.332	-119.549	-1.332	43.502	-119.914	-112.489	-1.691	15.501	-112.566	-106.240	-106.055	-98.946	-31.624	-98.836	-8191	255	
1118.269	1	1	0	0	0.30294	0.26892	0.14076	0.11836	0.079404	0.27009	0.041014	0.2267	0.12326	0.0066699	0.21105	0.068171	0.071773	0.10856	0.27555	0.092172	-0.26667	-0.25417	-0.98542	-0.22708	-0.61042	-0.78542	-0.30625	-1.2292	-0.51458	-0.24167	-1.0583	-0.23125	-0.62083	-0.75208	-0.11875	-0.84375	190.081	168.763	-79.397	132.169	105.784	140.136	4.376	141.125	-81.800	85.740	81.344	93.184	-4.441	60.965	-66.665	153.397	0.0001718	0.00022423	0.00011816	1079.7	3.3438e-06	1.8885e-06	1183.4	225.5	3.0464e-06	3.3757e-06	283.45	79.443	62.536	18.722	5.1458e-06	25.425	0.00056241	0.00069506	0.00019442	1068.2	7.3861e-06	7.754e-06	1170.4	224.73	7.476e-06	7.6828e-06	281.27	80.667	63.356	19	7.577e-06	26.159	172.228	-15.275	-48.244	-119.810	-52.327	-11.209	-119.779	-112.503	-40.433	7.975	-112.727	-106.364	-106.169	-98.410	19.919	-99.049	-8191	255	
1118.365	1	1	0	0	0.10736	0.062516	0.062941	0.43431	0.16144	0.023945	0.35562	0.048426	0.16249	0.31126	0.13299	0.32405	0.1742	0.27995	0.23096	0.073196	-0.25625	-0.26458	-1.1583	-0.38958	-0.53333	-1.1	-0.25833	-1.0104	-0.76042	-0.31875	-1.0021	-0.33958	-0.44792	-1.05	-0.041667	-0.65208	13.436	10.912	-71.984	175.515	172.551	229.186	177.706	-127.133	-50.296	178.303	-123.224	200.748	-93.965	20.873	-105.744	6.010	0.00019774	0.00039466	0.00011684	1085.4	3.887e-06	4.2177e-06	1178.1	225.75	3.2491e-06	1.2915e-06	283.76	79.482	62.307	18.651	3.5248e-06	25.876	0.00055669	0.0006958	0.0001876	1068.7	7.4559e-06	7.6493e-06	1169.2	225.45	7.2947e-06	7.7105e-06	281.85	80.652	63.206	18.971	7.5586e-06	26.353	178.224	-70.969	-3.875	-119.748	4.507	8.588	-120.226	-112.693	-41.075	40.883	-112.356	-106.570	-106.214	-98.423	-77.092	-99.220	-8191	255	
1118.461	1	1	0	0	0.054932	0.21	0.20364	0.09644	0.17431	0.044913	0.29264	0.1959	0.10771	0.15052	0.14567	0.23644	0.30738	0.14553	0.24699	0.14815	-0.44375	-0.1	-1.1437	-0.47917	-0.41875	-1.0896	-0.26875	-0.48125	-0.68958	-0.18542	-1.0875	-0.5625	-0.31458	-0.95	-0.17917	-0.54167	137.267	117.858	171.654	142.261	34.381	107.795	155.648	132.325	139.372	-28.963	-81.420	198.342	-56.953	226.891	104.021	25.482	0.00017133	0.0001288	8.1249e-05	1082.6	1.8477e-06	3.672e-06	1175.2	224.93	2.1111e-06	1.503e-06	282.45	79.555	62.699	18.665	1.7502e-06	25.803	0.00056487	0.00068329	0.00019071	1068.6	7.4471e-06	7.5862e-06	1169.3	224.79	7.3377e-06	7.7159e-06	281.88	80.586	63.311	19.019	7.5132e-06	26.313	156.125	-69.673	-33.279	-119.819	-4.351	33.000	-119.950	-112.590	18.821	180.265	-112.491	-106.454	-105.622	-98.102	45.209	-99.294	-8191	255	
1118.558	1	1	0	0	0.22379	0.08381	0.25387	0.43585	0.15203	0.21478	0.60634	0.22122	0.090057	0.20599	0.26592	0.081083	0.1838	0.27565	0.067316	0.12656	-0.35833	-0.14375	-0.77292	-0.86875	0.025	-1.1229	-0.3625	-0.61667	-1.0146	-0.17917	-0.73542	-0.71875	-0.19583	-1.1083	-0.31875	-0.45417	51.840	180.771	202.048	164.568	146.584	-29.324	140.530	212.032	14.900	-53.270	-14.193	17.367	-85.197	-117.425	-110.153	225.876	0.00017115	0.00019213	2.4522e-05	1085.4	2.2327e-06	6.1282e-06	1184.3	224.24	1.9387e-06	2.0662e-06	282.22	79.269	62.365	18.693	2.483e-06	25.817	0.00055477	0.00069827	0.00018775	1068.5	7.4028e-06	7.7154e-06	1169.7	224.55	7.3377e-06	7.6723e-06	281.77	80.394	63.21	19.021	7.2586e-06	26.293	165.739	-50.856	225.294	-119.965	16.932	8.025	-119.869	-112.525	-61.561	50.107	-112.555	-106.419	-106.054	-98.670	-68.174	-99.125	-8191	255	
1118.677	1	1	0	0	0.18224	0.18916	0.26667	0.11302	0.21013	0.037502	0.17321	0.28868	0.28448	0.1169	0.075649	0.12716	0.18441	0.25674	0.04965	0.068025	-0.74583	-0.15208	-0.90208	-0.73125	-0.041667	-0.88958	-0.55208	-0.37917	-0.85	-0.13958	-0.95833	-0.85208	0.11458	-0.975	-0.11458	-0.37083	-80.199	174.243	212.085	59.037	195.173	80.319	-2.683	-89.245	229.044	-57.535	164.153	151.363	87.205	100.294	69.024	66.008	0.00016004	0.00023701	5.2332e-05	1083.8	2.4605e-06	3.4218e-06	1181	226.07	3.8033e-06	3.7785e-06	282	79.474	62.72	18.625	5.2529e-06	25.497	0.00055929	0.00067301	0.00018605	1067.7	7.5206e-06	7.4154e-06	1168.8	225.01	7.0113e-06	7.3027e-06	281.39	80.599	63.275	18.959	7.081e-06	26.251	175.592	-38.223	-13.188	-119.949	-9.350	10.959	-120.040	-112.436	-52.681	-6.597	-112.782	-106.622	-106.257	-98.353	13.704	-99.169	-8191	255	
1118.773	1	1	0	0	0.03122	0.11073	0.33151	0.33577	0.18336	0.062439	0.14891	0.16529	0.054182	0.20459	0.069172	0.20327	0.052567	0.14075	0.1038	0.22986	-0.4875	-0.08125	-0.68125	-0.90417	-0.16042	-0.94167	-0.62292	-0.15208	-1.0708	-0.28125	-0.65833	-0.79167	-0.01875	-0.7875	-0.6625	-0.23333	219.972	121.674	133.017	127.369	49.711	119.207	224.920	182.495	38.139	114.746	-86.800	17.811	-121.483	-62.547	121.837	132.893	0.00017463	4.0381e-05	8.5988e-05	1082.7	1.6988e-06	2.6211e-06	1179.7	225.86	3.1289e-06	3.7372e-06	282.01	79.804	62.336	18.646	2.8785e-06	25.671	0.00053863	0.00067228	0.00018598	1066.9	7.101e-06	7.1261e-06	1168.6	224.56	7.1128e-06	7.354e-06	281.21	80.62	62.97	18.955	7.3541e-06	26.294	176.263	-83.454	-33.282	-119.874	-35.892	-28.152	-119.863	-112.541	-65.658	10.944	-112.628	-106.722	-106.206	-98.784	-16.936	-99.214	-8191	255	
1118.869	1	1	0	0	0.078962	0.042182	0.091833	0.089647	0.027939	0.10316	0.15775	0.32644	0.11616	0.45309	0.43195	0.029774	0.11157	0.21614	0.08664	0.035779	-0.67292	-0.17292	-0.45625	-1.1375	0.058333	-0.78125	-0.84583	-0.28125	-1.0688	-0.3875	-0.69167	-0.98542	-0.19792	-0.69375	-0.57292	-0.05625	23.591	73.733	197.007	199.975	168.959	-41.602	154.367	181.825	93.719	-37.365	-6.625	134.041	110.981	36.646	-49.707	47.045	0.00016203	9.2224e-05	0.00014805	1082.5	1.4574e-06	5.2459e-06	1177.8	226.7	3.8053e-06	1.5564e-06	282.96	79.247	62.197	18.683	2.657e-06	25.895	0.00054611	0.00067946	0.00018279	1065.5	7.2576e-06	7.5621e-06	1167	225.06	7.1229e-06	7.412e-06	282.24	80.478	63.229	19.005	7.1751e-06	26.355	173.283	-96.939	-44.686	-120.207	9.892	-12.860	-119.972	-112.563	-37.481	65.553	-112.653	-106.970	-105.962	-98.881	-29.229	-98.802	-8191	255	
1118.989	1	1	0	0	0.14978	0.27045	0.24242	0.036957	0.17571	0.10685	0.28061	0.1544	0.36713	0.028691	0.30573	0.25621	0.202	0.061409	0.080476	0.064034	-0.80625	-0.13958	-0.40833	-1.1354	-0.28958	-0.79167	-0.9375	-0.0020833	-0.95833	-0.23333	-0.53542	-0.975	-0.22708	-0.59375	-0.74792	-0.097917	125.367	47.680	-127.268	-128.768	-34.184	34.217	187.427	158.124	197.746	149.154	195.587	155.487	95.930	-83.718	45.217	27.762	0.00017597	0.00032941	0.00011664	1085.6	2.6759e-06	5.3699e-06	1175.4	224.28	2.3623e-06	2.0564e-06	282.01	79.331	62.184	18.692	1.3787e-06	25.731	0.00053836	0.00067059	0.00018384	1065.4	7.2542e-06	7.3548e-06	1166.3	224.3	7.1432e-06	7.3261e-06	281.83	80.478	62.967	18.996	7.0726e-06	26.313	181.650	-62.836	3.241	-119.730	-67.758	37.957	-120.061	-112.795	-4.946	-110.872	-112.812	-107.050	-106.228	-98.640	-82.970	-99.522	-8191	255	
1119.061	1	1	0	0	0.1042	0.1032	0.19232	0.22287	0.29935	0.30733	0.090693	0.083796	0.15187	0.16176	0.046111	0.22875	0.16931	0.26412	0.13658	0.23166	-0.66875	-0.53542	-0.097917	-1.2771	-0.14167	-0.58958	-1.0312	-0.0020833	-0.77917	-0.5875	-0.31042	-0.98958	-0.45833	-0.50625	-0.825	-0.15833	169.907	69.113	-26.022	-80.546	11.483	146.148	158.057	123.883	-96.613	216.967	192.731	-70.545	113.309	-16.891	174.353	68.793	0.00021158	0.00043485	0.00010809	1083.3	1.4723e-06	2.5451e-06	1180	226.54	1.9815e-06	1.4226e-06	280.01	79.591	62.116	18.573	1.2278e-06	25.737	0.00055212	0.00066097	0.00018457	1066.1	6.9301e-06	7.178e-06	1166.5	224.78	6.9177e-06	7.4175e-06	280.43	80.52	63.075	18.952	7.1433e-06	26.226	171.629	-41.768	-65.576	-119.885	-39.147	50.069	-120.055	-112.898	-21.881	100.102	-112.494	-106.750	-106.451	-98.620	22.276	-99.261	-8191	255	
1119.157	1	1	0	0	0.34577	0.23772	0.3449	0.11616	0.091535	0.15925	0.41067	0.23439	0.24934	0.14661	0.017011	0.20082	0.16977	0.31888	0.29922	0.17774	-0.56458	-0.65833	-0.1125	-0.96458	-0.45417	-0.3625	-1.0063	-0.22083	-0.88333	-0.57083	-0.029167	-1.0146	-0.47292	-0.34792	-1.0292	0.060417	156.121	74.084	155.196	-97.435	-39.994	-56.055	138.310	223.361	214.258	143.200	-72.178	-17.733	-86.158	-130.059	123.360	155.179	0.00015391	0.00027419	0.0001253	1078	3.8134e-06	4.9768e-06	1175.8	225.63	1.9496e-06	3.6207e-06	281.01	79.398	62.246	18.588	4.6529e-06	25.647	0.00056363	0.00067212	0.00018609	1064.9	7.1717e-06	7.3056e-06	1165.8	224.45	6.9034e-06	7.4376e-06	281.04	80.391	62.844	18.919	7.3232e-06	26.242	161.780	13.744	-23.359	-120.141	8.984	-19.834	-120.044	-112.605	-38.072	-8.867	-112.917	-106.582	-106.550	-98.414	94.211	-99.145	-8191	255	
1119.278	1	1	0	0	0.16904	0.14521	0.17544	0.32232	0.23635	0.018027	0.53253	0.35507	0.17134	0.13741	0.29314	0.20321	0.19678	0.20225	0.054338	0.23135	-0.4125	-0.86042	0.0083333	-0.98333	-0.20625	-0.091667	-1.1583	-0.31458	-0.675	-0.93333	0.01875	-1	-0.36667	-0.45417	-0.86042	-0.22083	111.147	87.563	147.113	223.237	186.259	213.323	170.777	172.198	-25.318	189.519	207.987	-118.303	74.003	-87.555	112.622	-94.883	0.00017083	0.00034085	0.00011971	1079.2	8.7798e-07	4.8016e-06	1173.2	225.25	2.2558e-06	4.8058e-06	282.57	79.781	62.7	18.693	6.062e-06	25.566	0.00054989	0.00068008	0.00018625	1064	6.9445e-06	7.4013e-06	1164.2	224.11	7.1092e-06	7.2807e-06	281.13	80.426	63.341	18.925	7.137e-06	26.266	165.455	-25.187	-32.109	-119.925	-4.794	30.644	-120.078	-112.581	-8.937	37.276	-112.923	-106.483	-106.243	-98.652	32.175	-99.519	-8191	255	
1119.372	1	1	0	0	0.12071	0.33126	0.24561	0.33886	0.1478	0.22147	0.071589	0.062941	0.10347	0.1871	0.10047	0.27496	0.27499	0.12594	0.13581	0.219	-0.08125	-0.825	-0.14583	-1.0688	-0.46667	-0.16875	-0.9875	-0.275	-0.55	-0.98958	-0.077083	-0.77292	-0.54375	-0.30417	-1.0354	-0.37917	187.760	49.466	-68.775	-128.844	-127.241	51.238	-28.490	67.763	61.885	125.150	-125.267	190.900	-119.342	45.450	-121.258	189.386	0.0001567	0.00037627	6.604e-05	1081.8	6.7545e-07	2.8197e-06	1176.3	225.07	5.8426e-06	5.1191e-06	280.87	79.768	62.294	18.65	1.468e-06	25.697	0.00056245	0.00066861	0.00018758	1063.5	7.4076e-06	7.2655e-06	1165	224.28	7.248e-06	7.3309e-06	280.63	80.616	62.965	18.949	7.1965e-06	26.264	164.240	-21.857	-38.138	-119.752	69.251	10.258	-120.011	-112.705	-19.260	24.036	-112.875	-106.705	-105.843	-98.576	15.109	-99.125	-8191	255	
1119.468	1	1	0	0	0.31458	0.069649	0.05913	0.21844	0.074431	0.083776	0.089605	0.18637	0.15808	0.16996	0.02606	0.14196	0.1247	0.20499	0.2354	0.14467	-0.089583	-0.98958	-0.15	-0.94375	-0.76667	-0.11458	-1.1208	-0.42708	-0.50833	-1.0625	-0.29375	-0.68333	-0.68125	0.039583	-1.225	-0.34792	165.718	206.809	199.695	-79.485	94.750	54.701	174.767	-120.757	27.051	145.508	-20.395	-125.337	75.929	-122.820	-101.819	226.512	0.00020057	0.00010498	0.00015479	1080.6	4.4783e-06	2.5102e-06	1180.2	226.43	1.1227e-06	1.0299e-06	283.24	79.422	62.23	18.64	2.6915e-06	25.587	0.00056024	0.00067233	0.00018935	1065.7	7.1058e-06	7.4179e-06	1165.5	224.48	7.2947e-06	7.3736e-06	281.79	80.521	63.19	18.969	7.2548e-06	26.233	166.579	-29.015	-41.712	-119.807	4.610	42.437	-119.598	-112.604	-107.640	4.913	-112.512	-106.621	-106.202	-98.381	14.807	-98.896	-8191	255	
1119.565	1	1	0	0	0.21177	0.40859	0.10308	0.18242	0.1239	0.19893	0.29791	0.2803	0.20373	0.20491	0.25787	0.15579	0.14487	0.063766	0.045247	0.038031	-0.06875	-0.97917	-0.16042	-0.69167	-0.91875	0.060417	-1.0354	-0.59792	-0.22917	-1.1021	-0.15	-0.52917	-0.93125	-0.079167	-0.83333	-0.67292	-99.945	161.348	177.444	-102.953	-73.877	25.844	175.129	130.994	-119.098	88.679	188.043	53.532	49.214	29.893	-29.390	76.030	0.00016333	0.00043825	9.632e-05	1085.2	4.0605e-06	1.1667e-06	1180.1	225.07	2.4486e-06	3.4055e-06	281.91	79.209	62.548	18.534	1.7757e-06	25.516	0.00056097	0.00066817	0.00018831	1066.4	7.2804e-06	7.6894e-06	1168.2	224.5	7.275e-06	7.327e-06	280.92	80.531	63.056	18.992	7.2828e-06	26.254	171.967	-78.721	-82.494	-119.856	35.108	-21.285	-119.857	-112.783	-53.715	25.304	-112.548	-106.484	-106.429	-98.399	40.467	-99.386	-8191	255	
1119.661	1	1	0	0	0.1913	0.20035	0.23072	0.49193	0.28107	0.1434	0.3648	0.081417	0.26377	0.18662	0.30351	0.2489	0.14715	0.13707	0.30872	0.12809	0.37708	-0.97083	-0.24167	-0.59583	-0.81042	-0.035417	-0.87708	-0.76458	0.13958	-1.2875	-0.32708	-0.48125	-1.1667	-0.12708	-0.8375	-0.75208	89.436	217.500	89.613	204.231	-20.171	129.256	191.242	200.941	29.701	208.619	-3.295	-70.408	-20.756	6.530	226.828	183.294	0.0001534	0.00042574	4.8501e-05	1082.2	2.0159e-06	2.9236e-06	1179.1	226.36	3.9828e-06	4.311e-06	281.63	79.144	62.71	18.592	7.4709e-07	25.606	0.00056644	0.00067856	0.00019447	1065	7.1078e-06	7.5844e-06	1167.2	224.78	7.3473e-06	7.2564e-06	281.41	80.381	63.192	18.936	7.2837e-06	26.215	164.053	-65.178	-20.006	-119.814	-29.155	-14.882	-119.641	-112.461	-23.577	28.737	-112.598	-106.404	-105.952	-98.644	-40.239	-98.948	-8191	255	
1119.757	1	1	0	0	0.084799	0.099294	0.12878	0.16738	0.050168	0.22058	0.40696	0.18574	0.15555	0.34141	0.16923	0.17362	0.22717	0.22415	0.07801	0.062458	0.085417	-0.875	-0.62917	-0.33542	-1.025	-0.2	-0.75	-0.90208	0.027083	-0.85417	-0.56458	-0.28125	-0.97708	-0.27083	-0.68333	-0.78958	-53.234	69.268	31.663	65.393	66.128	213.085	141.016	-106.517	17.036	190.337	204.379	181.563	-67.402	-80.754	-69.876	223.563	0.00016715	0.00016861	0.0001372	1084.4	1.8462e-06	2.9578e-06	1178.6	225.47	3.4423e-06	1.8555e-06	281.69	79.671	62.885	18.631	1.7498e-06	25.854	0.0005601	0.00068136	0.00018794	1065.6	7.1494e-06	7.5416e-06	1164.8	224.24	7.1963e-06	7.2933e-06	281.42	80.52	63.191	18.918	7.1072e-06	26.366	156.377	-32.289	-30.997	-119.414	159.523	44.520	-120.060	-112.545	-51.200	61.543	-112.805	-106.395	-106.402	-98.670	17.692	-99.387	-8191	255	
1119.853	1	1	0	0	0.20739	0.15191	0.26968	0.39017	0.14022	0.13757	0.27878	0.19419	0.19828	0.25065	0.054338	0.13899	0.056214	0.13378	0.18283	0.19568	-0.0041667	-0.84375	-0.65	-0.35208	-1.0417	-0.047917	-0.65	-1.1083	-0.06875	-1.0917	-0.6125	-0.25417	-1.0333	-0.3875	-0.52917	-1.2667	46.634	106.690	166.921	216.330	-67.305	109.433	193.223	16.244	122.212	61.439	170.512	-8.798	-80.847	191.171	19.594	-83.006	0.00018952	0.00021379	0.0001194	1085.9	7.4624e-07	2.7276e-06	1176.7	225.19	1.7894e-06	1.9931e-06	282.54	79.193	62.239	18.633	2.0351e-06	25.823	0.00054849	0.0006608	0.00018752	1067.2	7.253e-06	7.4453e-06	1165.6	224.32	7.3239e-06	7.257e-06	281.65	80.431	62.903	18.915	7.0986e-06	26.334	163.933	-95.086	-16.933	-119.984	46.484	3.418	-119.723	-112.665	30.645	-122.688	-112.853	-106.394	-105.948	-98.448	11.212	-98.840	-8191	255	
1119.949	1	1	0	0	0.17385	0.17061	0.14211	0.19462	0.12782	0.28947	0.16002	0.051982	0.20442	0.19848	0.28268	0.18669	0.12885	0.061929	0.11759	0.11689	0.25208	-0.97708	-0.85833	-0.37292	-1.1187	-0.3125	-0.56875	-1.3125	0.05625	-0.91458	-0.81458	-0.17083	-1.2479	-0.50208	-0.32083	-1.0708	-83.721	200.897	-122.244	221.266	82.797	206.603	221.233	-1.883	-58.126	-70.835	204.063	-87.814	184.417	-89.871	172.773	-77.986	0.00021138	0.00031916	8.5466e-05	1082.3	2.689e-06	3.4577e-06	1173.5	224.71	5.5365e-06	5.0332e-06	282.04	78.946	62.348	18.546	2.0247e-06	25.752	0.00055636	0.00067638	0.0001872	1065.3	6.9578e-06	7.3886e-06	1164.7	224.63	7.3445e-06	7.4538e-06	281.27	80.388	63.105	18.91	7.325e-06	26.247	179.213	-83.508	-40.589	-120.018	-25.447	74.665	-119.688	-112.692	13.038	12.908	-112.601	-105.993	-106.345	-98.840	-7.583	-98.410	-8191	255	
1120.070	1	1	0	0	0.1933	0.14261	0.11198	0.23412	0.08925	0.23199	0.20843	0.17084	0.083858	0.2448	0.22724	0.10767	0.16412	0.2166	0.14469	0.15754	0.175	-0.61458	-0.87292	0.091667	-1.0187	-0.425	-0.34375	-0.96875	-0.14792	-0.42083	-1.1979	0.058333	-1.0729	-0.39583	-0.29792	-1.075	-35.060	172.972	224.431	-84.492	96.273	-57.896	210.991	219.547	195.367	76.552	-7.389	115.097	228.515	139.720	50.120	-127.731	0.00021118	0.00038856	5.6632e-05	1080.3	3.0203e-06	5.001e-06	1183.1	224.89	3.5802e-06	3.1706e-06	281.37	79.273	62.149	18.672	1.8585e-06	25.623	0.00055834	0.0006638	0.00018457	1065.2	7.0349e-06	7.4148e-06	1164.7	224.29	7.2722e-06	7.3898e-06	281.12	80.344	62.893	18.929	7.3065e-06	26.24	172.983	-38.600	-100.671	-119.738	-15.281	-6.789	-119.929	-112.736	-8.121	-14.527	-112.500	-106.391	-105.964	-98.684	-57.998	-98.796	-8191	255	
1120.166	1	1	0	0	0.12865	0.12573	0.23521	0.42096	0.1621	0.19882	0.36441	0.18411	0.12489	0.075036	0.082859	0.092555	0.14038	0.17466	0.14797	0.19405	0.077083	-0.5	-0.91667	-0.21042	-0.89583	-0.50625	-0.21458	-1.125	-0.34792	-0.33125	-1.0708	-0.19583	-0.86458	-0.68958	-0.0375	-0.92708	215.149	-97.996	122.979	-117.545	-56.711	20.581	124.576	-54.470	-7.823	87.046	-74.256	113.803	-92.563	134.761	134.918	72.228	0.00017725	0.00030817	6.0584e-05	1077.8	1.8544e-06	4.7753e-06	1177.1	227.42	1.0281e-06	3.8926e-06	281.98	79.159	62.696	18.597	3.7891e-06	25.599	0.00056076	0.00067486	0.00019053	1064.2	7.2076e-06	7.5838e-06	1165.7	224.76	7.3745e-06	7.5909e-06	281.31	80.437	63.192	18.929	7.4162e-06	26.183	156.764	-80.775	-0.790	-119.954	-63.023	31.231	-119.837	-112.657	44.270	20.799	-112.341	-106.353	-105.639	-98.697	1.398	-99.146	-8191	255	
1120.262	1	1	0	0	0.19634	0.20436	0.28644	0.064889	0.14513	0.2148	0.22344	0.14778	0.10652	0.060017	0.10919	0.22439	0.11618	0.13985	0.079141	0.19217	0.01875	-0.27708	-0.96667	-0.25	-0.73542	-0.75208	-0.45833	-0.96458	-0.31458	-0.11042	-1.1417	-0.08125	-0.88125	-0.5625	-0.26875	-0.87083	92.947	95.309	182.261	173.653	63.373	126.958	148.861	157.760	-57.201	2.799	228.646	190.324	-87.881	-16.462	228.922	145.146	0.00015572	0.00034139	0.0001018	1083.2	3.2438e-06	3.7386e-06	1176	224.15	1.8015e-06	3.504e-06	280.52	79.411	62.19	18.537	3.7678e-06	25.607	0.00056543	0.00070058	0.00019527	1065.8	7.557e-06	7.3581e-06	1166.6	224.43	7.413e-06	7.6209e-06	280.9	80.356	63.024	18.893	7.2603e-06	26.205	180.492	-14.590	-44.803	-119.555	4.834	15.040	-119.808	-112.480	-49.456	50.954	-112.346	-106.514	-105.875	-98.675	27.045	-99.252	-8191	255	
#DATA ENDS
