BOXY.EXE: ISS Imagent and Oximeter Data Acquisition Program Version 0.80
Ascii Record File

#ACQ INFORMATION
2  Detector Channels 
16  External MUX Channels 
1  Auxiliary Channels 
5000  Waveform (CCF) Frequency (Hz)
1  Waveforms Skipped 
30  Waveforms Averaged 
1  Cycles Averaged 
16  Acquisitions per Waveform 
10.0806  Updata Rate (Hz) 

#FILE INFORMATION
TRUE -- External MUX Channel results are PARSED.
FALSE -- AC DC and Phase are NOT grouped.
TRUE -- Companion Program Settings File CREATED.
FALSE -- AC data not excluded
FALSE -- DC data not excluded
FALSE -- Phase data not excluded
FALSE -- Auxillary Chn. data not excluded
Tab delimiters

#CALIBRATION STATE
TRUE -- Waveform Calibration Values APPLIED.


#AUX CALIBRATION VALUES
Val Type	aux-1	

Term	1.0000e+00	
Factor	0.0000e+00	


#WF CALIBRATION VALUES
A = Detector Channel
Val Type	A-AC1	A-AC2	A-AC3	A-AC4	A-AC5	A-AC6	A-AC7	A-AC8	A-AC9	A-AC10	A-AC11	A-AC12	A-AC13	A-AC14	A-AC15	A-AC16	A-DC1	A-DC2	A-DC3	A-DC4	A-DC5	A-DC6	A-DC7	A-DC8	A-DC9	A-DC10	A-DC11	A-DC12	A-DC13	A-DC14	A-DC15	A-DC16	A-Ph1	A-Ph2	A-Ph3	A-Ph4	A-Ph5	A-Ph6	A-Ph7	A-Ph8	A-Ph9	A-Ph10	A-Ph11	A-Ph12	A-Ph13	A-Ph14	A-Ph15	A-Ph16	

Term	0.00000e+00	0.00000e+00	0.00000e+00	0.00000e+00	0.00000e+00	0.00000e+00	0.00000e+00	0.00000e+00	0.00000e+00	0.00000e+00	0.00000e+00	0.00000e+00	0.00000e+00	0.00000e+00	0.00000e+00	0.00000e+00	0.00000e+00	0.00000e+00	0.00000e+00	0.00000e+00	0.00000e+00	0.00000e+00	0.00000e+00	0.00000e+00	0.00000e+00	0.00000e+00	0.00000e+00	0.00000e+00	0.00000e+00	0.00000e+00	0.00000e+00	0.00000e+00	0.00000e+00	0.00000e+00	0.00000e+00	0.00000e+00	0.00000e+00	0.00000e+00	0.00000e+00	0.00000e+00	0.00000e+00	0.00000e+00	0.00000e+00	0.00000e+00	0.00000e+00	0.00000e+00	0.00000e+00	0.00000e+00	
Factor	1.00000e+00	1.00000e+00	1.00000e+00	1.00000e+00	1.00000e+00	1.00000e+00	1.00000e+00	1.00000e+00	1.00000e+00	1.00000e+00	1.00000e+00	1.00000e+00	1.00000e+00	1.00000e+00	1.00000e+00	1.00000e+00	1.00000e+00	1.00000e+00	1.00000e+00	1.00000e+00	1.00000e+00	1.00000e+00	1.00000e+00	1.00000e+00	1.00000e+00	1.00000e+00	1.00000e+00	1.00000e+00	1.00000e+00	1.00000e+00	1.00000e+00	1.00000e+00	X	X	X	X	X	X	X	X	X	X	X	X	X	X	X	X	

B = Detector Channel
Val Type	B-AC1	B-AC2	B-AC3	B-AC4	B-AC5	B-AC6	B-AC7	B-AC8	B-AC9	B-AC10	B-AC11	B-AC12	B-AC13	B-AC14	B-AC15	B-AC16	B-DC1	B-DC2	B-DC3	B-DC4	B-DC5	B-DC6	B-DC7	B-DC8	B-DC9	B-DC10	B-DC11	B-DC12	B-DC13	B-DC14	B-DC15	B-DC16	B-Ph1	B-Ph2	B-Ph3	B-Ph4	B-Ph5	B-Ph6	B-Ph7	B-Ph8	B-Ph9	B-Ph10	B-Ph11	B-Ph12	B-Ph13	B-Ph14	B-Ph15	B-Ph16	

Term	0.00000e+00	0.00000e+00	0.00000e+00	0.00000e+00	0.00000e+00	0.00000e+00	0.00000e+00	0.00000e+00	0.00000e+00	0.00000e+00	0.00000e+00	0.00000e+00	0.00000e+00	0.00000e+00	0.00000e+00	0.00000e+00	0.00000e+00	0.00000e+00	0.00000e+00	0.00000e+00	0.00000e+00	0.00000e+00	0.00000e+00	0.00000e+00	0.00000e+00	0.00000e+00	0.00000e+00	0.00000e+00	0.00000e+00	0.00000e+00	0.00000e+00	0.00000e+00	3.87151e+01	-1.35358e+02	-1.28243e+02	-1.82075e+02	-6.48011e+01	-7.49837e+01	-1.59417e+02	-1.62015e+02	-5.24993e+01	-7.30037e+01	-1.73374e+02	-1.72547e+02	-1.88450e+02	-1.78024e+02	-6.44271e+01	-1.50473e+02	
Factor	6.20168e-05	1.83616e-04	6.50966e-05	1.67319e-01	3.99798e-06	2.33925e-06	2.07214e-01	7.30801e-02	3.69325e-06	2.57816e-06	1.33795e-01	3.71403e-02	4.41454e-02	1.10510e-02	2.54457e-06	1.56295e-02	9.55063e-06	1.16113e-05	3.25442e-06	8.39797e-02	1.21577e-07	1.29098e-07	9.67151e-02	3.67330e-02	1.22588e-07	1.28699e-07	6.51813e-02	1.80533e-02	2.20184e-02	5.60602e-03	1.24295e-07	7.68503e-03	X	X	X	X	X	X	X	X	X	X	X	X	X	X	X	X	



#DISTANCE SETTINGS
A = Detector Channel
A-1	A-2	A-3	A-4	A-5	A-6	A-7	A-8	A-9	A-10	A-11	A-12	A-13	A-14	A-15	A-16	

2.5000e+00	3.0000e+00	2.5000e+00	3.0000e+00	2.0000e+00	3.0000e+00	1.5000e+00	3.0000e+00	3.0000e+00	3.0000e+00	3.0000e+00	3.0000e+00	3.0000e+00	3.0000e+00	1.5000e+00	3.0000e+00	

B = Detector Channel
B-1	B-2	B-3	B-4	B-5	B-6	B-7	B-8	B-9	B-10	B-11	B-12	B-13	B-14	B-15	B-16	

1.0000e+01	1.0000e+01	1.0000e+01	1.4400e+00	1.0000e+01	1.0000e+01	1.5100e+00	1.9400e+00	1.0000e+01	1.0000e+01	1.9900e+00	2.4900e+00	2.4100e+00	2.9000e+00	1.0000e+01	2.9800e+00	




#DATA BEGINS
time	group	step	mark	flag	A-AC1	A-AC2	A-AC3	A-AC4	A-AC5	A-AC6	A-AC7	A-AC8	A-AC9	A-AC10	A-AC11	A-AC12	A-AC13	A-AC14	A-AC15	A-AC16	A-DC1	A-DC2	A-DC3	A-DC4	A-DC5	A-DC6	A-DC7	A-DC8	A-DC9	A-DC10	A-DC11	A-DC12	A-DC13	A-DC14	A-DC15	A-DC16	A-Ph1	A-Ph2	A-Ph3	A-Ph4	A-Ph5	A-Ph6	A-Ph7	A-Ph8	A-Ph9	A-Ph10	A-Ph11	A-Ph12	A-Ph13	A-Ph14	A-Ph15	A-Ph16	B-AC1	B-AC2	B-AC3	B-AC4	B-AC5	B-AC6	B-AC7	B-AC8	B-AC9	B-AC10	B-AC11	B-AC12	B-AC13	B-AC14	B-AC15	B-AC16	B-DC1	B-DC2	B-DC3	B-DC4	B-DC5	B-DC6	B-DC7	B-DC8	B-DC9	B-DC10	B-DC11	B-DC12	B-DC13	B-DC14	B-DC15	B-DC16	B-Ph1	B-Ph2	B-Ph3	B-Ph4	B-Ph5	B-Ph6	B-Ph7	B-Ph8	B-Ph9	B-Ph10	B-Ph11	B-Ph12	B-Ph13	B-Ph14	B-Ph15	B-Ph16	aux-1	digaux	

28519.098	1	1	0	256	0.1438	0.11702	0.21451	0.32013	0.19187	0.035807	0.12774	0.12348	0.039919	0.29062	0.34367	0.029307	0.14837	0.024054	0.24266	0.23639	-1.875	-2.1875	-2.6083	-2.625	-2.2333	-2.775	-2.4167	-2.55	-2.6229	-2.2896	-2.6417	-2.55	-2.4583	-2.7833	-2.1958	-2.6125	-53.212	-28.810	-48.161	188.445	-10.782	-1.057	119.536	-145.677	-56.453	48.369	158.024	23.212	133.256	55.105	-64.526	172.088	0.0012043	0.00048923	0.00011532	1386.2	7.514e-06	7.0733e-06	1389.2	376.69	3.4923e-06	5.2933e-06	431.1	143.69	125.67	42.625	6.8492e-06	52.56	0.00062111	0.00059201	0.00016511	1408.3	6.5439e-06	6.5184e-06	1413.7	384.57	6.4663e-06	6.557e-06	440.18	147.33	128.41	43.914	6.4944e-06	54.283	9.014	-87.803	-65.609	-137.334	0.240	-1.736	-137.621	-132.792	13.188	1.641	-133.404	-129.155	-128.282	-123.687	5.991	-124.386	-8191	255	
28519.217	1	1	0	0	0.092596	0.086207	0.12561	0.38417	0.17457	0.096801	0.19446	0.035163	0.084248	0.27847	0.09025	0.11408	0.30547	0.17764	0.10595	0.15733	-2.05	-2.3875	-2.5875	-2.4938	-2.3354	-2.75	-2.4667	-2.575	-2.4667	-2.45	-2.875	-2.6208	-2.3667	-2.8083	-2.3187	-2.5979	128.300	-148.245	16.263	179.725	120.740	135.377	149.594	17.061	68.252	-14.974	57.975	-84.635	-26.487	195.266	11.295	173.694	0.0010538	0.0006948	0.00022886	1388.2	6.2325e-06	4.3426e-06	1392.7	376.71	8.4727e-06	4.7233e-06	432.41	144.49	125.62	42.604	3.9788e-06	52.701	0.00062433	0.00059319	0.00016471	1410.3	6.38e-06	6.3952e-06	1414	384.93	6.2727e-06	6.4985e-06	440.95	147.46	128.22	43.877	6.1511e-06	54.411	8.635	-68.626	-59.750	-137.407	-11.800	17.490	-137.614	-132.644	-30.361	-7.138	-133.297	-129.054	-128.809	-123.603	-69.822	-124.328	-8191	255	
28519.312	1	1	0	0	0.19796	0.085557	0.11784	0.26238	0.20429	0.33986	0.13406	0.21578	0.19637	0.19152	0.13694	0.14914	0.22822	0.12557	0.048615	0.31607	-2.0854	-2.2375	-2.5854	-2.55	-2.4583	-2.6708	-2.6146	-2.5583	-2.6646	-2.3896	-2.5833	-2.5333	-2.3542	-2.7521	-2.3354	-2.3438	60.182	-76.556	-46.200	-143.145	184.774	-75.335	204.914	171.102	71.288	71.088	83.839	175.476	-111.282	176.829	200.201	-142.761	0.0011481	0.00057575	0.00022929	1385.3	7.6318e-06	5.3286e-06	1393.9	377.75	9.2671e-06	1.0108e-05	432.67	144.6	125.9	42.623	8.967e-06	52.804	0.00060101	0.00055603	0.00015468	1408.4	6.1485e-06	6.0464e-06	1417.2	385.07	6.1539e-06	6.1065e-06	440.78	147.52	128.35	43.922	5.9017e-06	54.333	13.637	-73.105	-68.008	-137.254	-13.680	-2.353	-137.519	-132.714	-7.025	-0.050	-133.453	-128.964	-128.710	-123.638	8.244	-124.392	-8191	255	
28519.408	1	1	0	0	0.31049	0.051276	0.14954	0.54883	0.11123	0.19354	0.15012	0.1256	0.11989	0.041791	0.16549	0.26602	0.043241	0.26599	0.12594	0.17017	-2.2125	-2.275	-2.5687	-2.8667	-2.2938	-2.7708	-2.6917	-2.5167	-2.8021	-2.6	-2.6312	-2.7542	-2.3375	-2.7667	-2.3646	-2.4437	171.842	-21.813	17.337	173.775	-85.189	50.139	194.828	77.404	-68.670	144.164	-34.569	150.004	157.695	150.219	113.735	-45.851	0.0012071	0.00040729	0.00017906	1388.6	1.1753e-05	4.6092e-06	1393.2	377.14	7.2411e-06	6.0033e-06	433.73	144.07	125.22	42.652	4.639e-06	52.572	0.00058139	0.0005399	0.00015006	1409.2	6.1465e-06	6.1453e-06	1417.7	385.19	5.9412e-06	6.0293e-06	441.1	147.44	128.17	43.931	5.9338e-06	54.335	8.104	-69.085	-45.731	-137.218	-31.873	-26.084	-137.434	-132.897	-23.185	15.838	-133.042	-129.120	-128.447	-123.641	-16.626	-124.162	-8191	255	
28519.480	1	1	0	0	0.10605	0.064922	0.21686	0.28488	0.21077	0.1267	0.18063	0.14343	0.10954	0.45582	0.21613	0.099199	0.10967	0.085321	0.17305	0.22688	-2.2438	-2.3354	-2.5687	-2.6958	-2.0563	-2.4813	-2.5417	-2.3812	-2.6917	-2.3917	-2.4313	-2.7729	-2.2583	-2.6562	-2.3375	-2.2104	-48.566	191.978	199.847	-104.032	107.013	-148.400	112.974	-122.435	-125.141	59.568	184.793	30.470	82.917	-42.464	154.662	73.566	0.0011767	0.00041864	0.00017029	1383.6	1.2827e-05	4.9733e-06	1386.9	378.04	1.1309e-05	8.8078e-06	433.2	144.46	125.44	42.738	5.7624e-06	52.659	0.00058169	0.0005408	0.00015273	1407.6	6.0684e-06	5.8269e-06	1413.1	385.01	5.8763e-06	5.9068e-06	440.79	147.68	128.22	43.985	5.7378e-06	54.357	10.738	-70.101	-28.381	-137.172	-3.218	-15.775	-137.456	-132.862	-12.888	-22.883	-133.354	-129.033	-128.584	-123.615	4.743	-124.341	-8191	255	
28519.600	1	1	0	0	0.39537	0.013307	0.27965	0.13519	0.040659	0.050427	0.26393	0.12203	0.35041	0.24842	0.24418	0.23173	0.22803	0.39305	0.075344	0.13894	-2.1625	-2.4458	-2.2542	-2.7687	-2.1979	-2.6312	-2.6	-2.3146	-2.4688	-2.3438	-2.5104	-2.5917	-2.3271	-2.4437	-2.5333	-2.2979	140.632	137.847	-18.151	111.121	199.322	120.684	116.305	-111.189	-95.403	64.932	16.585	45.624	152.752	159.373	78.852	48.771	0.0011613	0.00044887	0.00018688	1386.4	7.0081e-06	3.7939e-06	1388.4	377.54	9.4413e-06	6.2638e-06	430.77	144.62	125.56	42.655	6.4859e-06	52.658	0.00057381	0.00051133	0.00014799	1406.1	5.7845e-06	5.7005e-06	1413.5	384.58	5.5867e-06	5.6057e-06	440.17	147.77	127.97	43.964	5.3804e-06	54.284	11.982	-48.939	-35.071	-137.227	-1.157	-0.615	-137.347	-132.824	-37.540	-24.094	-133.286	-128.951	-128.533	-123.835	-27.627	-124.370	-8191	255	
28519.695	1	1	0	0	0.029674	0.15673	0.11942	0.2395	0.054048	0.02273	0.1983	0.32791	0.093905	0.19322	0.24688	0.12774	0.14939	0.41515	0.14032	0.13286	-2.1063	-2.3854	-2.1937	-2.9688	-2.2146	-2.4354	-2.5125	-2.3375	-2.65	-2.6208	-2.3625	-2.6813	-2.3583	-2.3729	-2.5104	-2.2375	125.461	-54.914	-75.822	199.208	-142.344	-143.238	-142.675	170.678	31.898	-101.394	172.667	-110.757	118.711	-103.524	141.100	-144.535	0.0010598	0.0004303	7.8092e-05	1387.3	4.956e-06	4.7654e-06	1385.3	377.01	8.9739e-06	3.4516e-06	429.79	144.09	124.91	42.759	7.6272e-06	52.731	0.00054118	0.00049029	0.00013774	1407.3	5.4656e-06	5.3509e-06	1412.1	384.32	5.3591e-06	5.4311e-06	439.69	147.36	127.79	43.873	5.3255e-06	54.299	7.261	-75.003	-81.183	-137.224	-39.104	-9.234	-137.392	-132.759	-18.067	-31.016	-133.326	-128.967	-128.341	-123.869	-21.923	-124.577	-8191	255	
28519.793	1	1	0	0	0.083017	0.1025	0.33663	0.15162	0.15835	0.1457	0.244	0.073558	0.12341	0.25084	0.14984	0.20224	0.17817	0.36322	0.11377	0.27455	-2.2646	-2.4062	-2.2167	-2.8333	-2.5583	-2.4479	-2.7896	-2.4792	-2.4542	-2.5146	-2.3458	-2.8604	-2.3979	-2.4458	-2.6854	-2.3292	-33.888	-126.768	-26.947	-144.784	124.511	-95.029	156.902	-125.642	39.841	32.529	-5.585	-148.328	-112.603	-122.786	46.255	-143.746	0.0011753	0.00057136	0.00018402	1384	6.5754e-06	5.2821e-06	1384.7	376.71	1.3536e-05	7.0532e-06	431.7	143.57	125.35	42.517	1.2046e-06	52.646	0.00054106	0.00048308	0.00014014	1404	5.4907e-06	5.3942e-06	1410.6	383.41	5.5497e-06	5.4721e-06	439.22	147.3	127.82	43.78	5.4224e-06	54.172	11.985	-75.066	-27.370	-137.306	-23.507	19.609	-137.599	-132.888	-14.843	-27.484	-133.230	-128.979	-128.708	-123.541	21.608	-124.454	-8191	255	
28519.912	1	1	0	0	0.063564	0.092964	0.14692	0.22438	0.11224	0.22977	0.12873	0.31475	0.12789	0.1792	0.28455	0.17809	0.093011	0.32054	0.12666	0.10888	-2.2875	-2.4688	-2.2396	-2.6792	-2.5146	-2.3875	-2.7333	-2.6042	-2.3771	-2.6583	-2.1333	-2.75	-2.4896	-2.5187	-2.7021	-2.4562	-95.693	107.910	-88.710	189.131	-42.384	117.049	-14.238	-141.118	11.899	-137.642	141.485	-145.724	185.759	157.765	139.262	-91.566	0.0011895	0.00039587	0.00021421	1381.1	5.4138e-06	5.4119e-06	1381.7	375.49	5.3862e-06	5.2968e-06	432.05	144.11	125.45	42.609	4.5393e-06	52.574	0.00054439	0.0004816	0.00013779	1402	5.5548e-06	5.5214e-06	1409.4	383.61	5.4593e-06	5.3708e-06	439.38	147.14	127.81	43.851	5.3965e-06	54.101	11.634	-53.294	-45.870	-137.191	-25.619	0.589	-137.483	-132.822	16.802	-6.378	-133.031	-128.934	-128.171	-123.756	-24.767	-124.341	-8191	255	
28520.010	1	1	0	0	0.21588	0.074727	0.37887	0.091836	0.088662	0.23145	0.10189	0.28815	0.091639	0.25755	0.24684	0.21172	0.16595	0.056162	0.24834	0.21542	-2.0563	-2.4625	-2.1083	-2.6917	-2.3417	-2.3563	-2.7104	-2.3688	-2.4458	-2.5729	-2.175	-2.4333	-2.5875	-2.2	-2.5083	-2.3458	-86.093	23.839	-55.540	71.207	165.299	-126.817	62.110	168.766	35.793	117.602	150.725	-150.611	162.044	112.870	-129.775	156.173	0.0011739	0.00026891	0.00022273	1380.6	7.9537e-06	5.0266e-06	1385.2	375.06	5.3825e-06	7.23e-06	428.93	143.38	125.05	42.638	1.7516e-06	52.461	0.00055276	0.00049747	0.00014135	1401.6	5.4476e-06	5.4305e-06	1409.5	383.15	5.3926e-06	5.4185e-06	438.48	146.89	127.56	43.772	5.2841e-06	54.098	10.806	-84.077	-70.869	-137.124	-13.680	5.021	-137.593	-132.701	-54.315	-6.065	-133.067	-128.986	-128.678	-123.478	-26.626	-124.501	-8191	255	
28520.080	1	1	0	0	0.13292	0.028089	0.12284	0.24691	0.26191	0.20594	0.37231	0.32183	0.17623	0.23874	0.39524	0.38515	0.057913	0.07284	0.20081	0.24717	-1.9917	-2.6667	-2.0667	-2.725	-2.4688	-2.3438	-2.7562	-2.5771	-2.4646	-2.725	-2.15	-2.6021	-2.4542	-2.2667	-2.5458	-2.4833	107.390	183.759	-83.491	197.898	-37.694	19.175	61.147	162.275	136.998	147.678	-115.481	199.024	160.269	-126.376	-39.639	115.861	0.0011297	0.00064345	0.00014317	1378	1.0956e-05	6.8347e-06	1385.4	375.12	1.2158e-05	5.808e-06	430.16	144	124.88	42.525	5.0614e-06	52.472	0.00054701	0.00049341	0.00013842	1402.2	5.6098e-06	5.6556e-06	1408.9	383.03	5.5213e-06	5.3761e-06	438.33	147.09	127.67	43.743	5.5402e-06	54.144	12.239	-82.525	-43.833	-137.283	-15.674	-17.662	-137.562	-132.719	-28.728	-19.827	-133.141	-128.887	-128.609	-123.793	-6.889	-124.511	-8191	255	
28520.201	1	1	0	0	0.07839	0.11833	0.076281	0.069475	0.1588	0.12712	0.43163	0.31782	0.19962	0.038572	0.073043	0.17972	0.11415	0.12404	0.14186	0.16242	-1.775	-2.4604	-2.0083	-2.6042	-2.5292	-2.2375	-2.7583	-2.4604	-2.2896	-2.7396	-2.3354	-2.6229	-2.6625	-2.1375	-2.6229	-2.4938	-54.899	64.568	162.458	168.895	40.318	8.824	172.742	177.577	-21.094	183.574	200.399	-78.728	-144.938	189.107	-80.670	-117.149	0.0010774	0.00050087	0.00014032	1384.6	9.7062e-06	4.7473e-06	1385.1	375.73	6.1052e-06	5.2635e-06	429.13	143.54	125.02	42.568	5.1654e-06	52.287	0.00054614	0.00050376	0.00014129	1403.8	5.6287e-06	5.7086e-06	1409.9	383.47	5.6161e-06	5.6164e-06	438.25	146.74	127.33	43.731	5.5775e-06	54.058	12.712	-67.904	-81.684	-137.232	-6.946	-26.382	-137.567	-132.738	-58.778	28.104	-132.983	-128.797	-128.386	-123.470	-32.864	-124.559	-8191	255	
28520.297	1	1	0	0	0.23216	0.23679	0.16583	0.077843	0.19523	0.1931	0.28379	0.13916	0.35992	0.20498	0.1753	0.11455	0.1974	0.30663	0.17491	0.077546	-1.7812	-2.5292	-2.2958	-2.5979	-2.5479	-2.3229	-2.575	-2.4979	-2.0771	-2.6	-2.4854	-2.4104	-2.7854	-2.3667	-2.6354	-2.5083	171.470	-39.605	206.469	-95.789	-26.156	11.412	135.008	199.796	-1.819	136.951	74.454	-97.346	-107.030	183.387	31.632	61.954	0.0010639	0.00033618	0.00015609	1378.1	7.7333e-06	5.3252e-06	1383.7	373.39	1.1581e-05	4.8235e-06	429.82	143.12	124.81	42.358	8.0818e-06	52.237	0.0005658	0.0005167	0.00014623	1401.9	5.6564e-06	5.7411e-06	1409.7	382.17	5.8094e-06	5.541e-06	437.33	146.62	127.43	43.597	5.693e-06	53.924	8.010	-101.181	-31.825	-137.260	16.983	-31.223	-137.320	-132.852	0.197	-23.393	-132.951	-128.969	-128.449	-123.478	7.922	-124.344	-8191	255	
28520.393	1	1	0	0	0.10956	0.35246	0.010406	0.17433	0.31838	0.095427	0.098871	0.23572	0.20889	0.14251	0.15475	0.28413	0.19949	0.25016	0.32632	0.2409	-1.6542	-2.4688	-2.3042	-2.4	-2.5229	-2.2146	-2.7562	-2.6479	-2.425	-2.7083	-2.5771	-2.4104	-2.8292	-2.55	-2.4875	-2.725	14.696	-5.990	192.858	-144.252	-71.379	84.384	121.394	132.567	206.905	-23.697	32.395	-91.436	158.222	14.168	181.379	162.090	0.0011502	0.0004205	0.00015426	1379.3	1.1829e-05	5.3458e-06	1386.5	375.44	9.1457e-06	5.5628e-06	429.37	143.99	124.6	42.531	5.9001e-06	52.16	0.00057097	0.00051731	0.00014617	1402.1	5.6434e-06	5.8455e-06	1409.6	382.62	5.837e-06	5.6974e-06	437.64	146.7	127.49	43.701	5.8007e-06	53.907	9.909	-74.694	-91.280	-137.335	-16.146	-29.416	-137.617	-132.729	-16.404	4.485	-133.146	-128.852	-128.498	-123.615	-25.906	-124.333	-8191	255	
28520.514	1	1	0	0	0.20258	0.16375	0.097445	0.2009	0.32447	0.17154	0.21688	0.093603	0.10542	0.19152	0.21008	0.09629	0.32128	0.17557	0.071115	0.055211	-1.7479	-2.4667	-2.2792	-2.5917	-2.6292	-2.3292	-2.5687	-2.5146	-2.3833	-2.5417	-2.4854	-2.2854	-2.7896	-2.4021	-2.4771	-2.6396	137.580	130.882	71.521	182.752	-63.988	72.376	2.759	169.570	73.461	-122.775	129.202	-46.596	-112.900	-33.749	-150.586	79.211	0.0011293	0.00043708	0.00013098	1379.5	8.3892e-06	2.7715e-06	1390.2	375	1.0943e-05	5.8879e-06	430.6	143.54	124.9	42.478	5.5334e-06	52.228	0.00058428	0.00052916	0.0001489	1403.1	5.8955e-06	5.9977e-06	1413.9	382.32	5.9588e-06	5.896e-06	438.22	146.86	127.51	43.679	6.0604e-06	53.956	8.415	-68.680	-68.441	-137.098	-33.591	-8.616	-137.646	-132.606	-25.710	-32.443	-133.183	-129.077	-128.534	-123.597	-39.513	-124.626	-8191	255	
28520.609	1	1	0	0	0.056512	0.34491	0.13877	0.25422	0.12209	0.30032	0.28204	0.18761	0.36127	0.071522	0.19017	0.13652	0.12108	0.12225	0.2881	0.091464	-1.75	-2.4833	-2.4083	-2.525	-2.6333	-2.2854	-2.5771	-2.7208	-2.2979	-2.7208	-2.5187	-2.1854	-2.6937	-2.3917	-2.0979	-2.8563	208.348	42.626	82.191	165.540	-7.409	14.013	139.585	-113.928	147.878	103.735	119.993	-131.644	96.270	38.095	189.779	-41.424	0.0011172	0.00059408	6.7305e-05	1382.9	7.1856e-06	7.2125e-06	1390	375.19	1.1446e-05	8.4476e-06	430.52	143.65	124.98	42.596	6.9826e-06	52.415	0.00059936	0.00056745	0.00015861	1405.7	6.2105e-06	6.1443e-06	1414.2	383.22	6.2609e-06	6.1717e-06	438.02	147.08	127.52	43.715	6.1583e-06	54.02	5.147	-55.145	-43.323	-137.265	4.964	-6.024	-137.409	-132.866	-41.742	-16.601	-133.123	-129.126	-128.468	-123.722	-27.339	-124.371	-8191	255	
28520.705	1	1	0	0	0.11349	0.19654	0.21018	0.45405	0.18532	0.15773	0.24903	0.41216	0.13257	0.17775	0.28344	0.10087	0.25635	0.087952	0.30925	0.34288	-1.8542	-2.4604	-2.475	-2.2896	-2.8771	-2.3771	-2.4313	-2.7583	-2.3417	-2.5563	-2.6458	-2.2292	-2.5875	-2.4542	-2.2125	-2.8917	-106.149	-69.954	32.111	113.429	152.595	-13.514	157.746	198.829	104.537	-117.689	91.735	30.854	-101.114	102.061	67.884	155.325	0.0011444	0.00067234	0.00021319	1385.6	1.0972e-05	5.7019e-06	1393.7	375.76	9.5721e-06	6.5718e-06	428.96	143.65	125.33	42.456	4.3895e-06	52.759	0.00059242	0.00054534	0.00015626	1406.9	6.075e-06	6.0302e-06	1416	383.56	6.076e-06	6.0009e-06	438.86	147.08	127.84	43.696	5.8579e-06	54.173	9.358	-48.924	-57.538	-137.445	0.774	-14.174	-137.500	-132.904	2.476	10.400	-133.128	-128.912	-128.486	-123.609	-3.397	-124.441	-8191	255	
28520.777	1	1	0	0	0.19678	0.2594	0.14634	0.24424	0.03697	0.23177	0.23913	0.035445	0.10883	0.14073	0.070049	0.24832	0.26947	0.25561	0.13375	0.23845	-1.8	-2.4625	-2.5208	-2.4188	-2.5792	-2.675	-2.6063	-2.8458	-2.1792	-2.4146	-2.6437	-2.3792	-2.425	-2.65	-2.0083	-2.7479	184.251	31.779	-19.965	207.295	32.270	206.021	160.201	-136.685	1.745	-23.674	43.818	108.925	180.771	136.986	92.441	161.387	0.0011143	0.00050726	0.00021453	1384.2	7.0445e-06	5.5297e-06	1393.9	376.74	9.9397e-06	3.1771e-06	430.45	144.17	125.66	42.57	5.9254e-06	52.589	0.00058149	0.00053117	0.00015229	1407.4	6.0492e-06	5.9907e-06	1417	383.81	5.9813e-06	5.8478e-06	439.03	147.27	127.99	43.8	6.1503e-06	54.092	7.146	-59.871	-61.828	-137.173	-7.287	-5.073	-137.382	-132.751	1.024	6.213	-133.103	-129.031	-128.416	-123.718	-58.468	-124.170	-8191	255	
28520.896	1	1	0	0	0.20876	0.39522	0.29202	0.13448	0.27762	0.15731	0.16601	0.041464	0.18785	0.099715	0.030583	0.25697	0.30699	0.25104	0.25352	0.15619	-1.8458	-2.2479	-2.6562	-2.3375	-2.4625	-2.4104	-2.3542	-2.6333	-2.3604	-2.4333	-2.5771	-2.3063	-2.5271	-2.5687	-2.1333	-2.6375	-107.035	133.924	107.195	141.370	-9.935	-20.048	-109.999	-144.204	57.765	9.065	-125.030	159.002	-89.601	108.794	183.021	193.406	0.0010766	0.00039245	0.00016613	1383.3	3.8897e-06	2.7765e-06	1392.4	375.24	9.4817e-06	7.7508e-06	430.72	143.54	125.49	42.505	5.2645e-06	52.707	0.00058307	0.00053922	0.00015345	1407.2	6.0117e-06	6.0622e-06	1417	383.33	5.9116e-06	6.0352e-06	438.87	146.98	127.83	43.726	5.9879e-06	54.209	7.096	-76.900	-40.776	-137.257	-75.774	18.566	-137.494	-132.626	-28.378	13.224	-133.211	-128.952	-128.426	-123.668	-19.615	-124.487	-8191	255	
28520.992	1	1	0	0	0.18738	0.073202	0.12684	0.2144	0.28717	0.071274	0.048101	0.13151	0.26189	0.17735	0.1799	0.10518	0.090028	0.11607	0.18569	0.026719	-1.8563	-2.1396	-2.7729	-2.5917	-2.4479	-2.6125	-2.4104	-2.6021	-2.3854	-2.4125	-2.8292	-2.4354	-2.425	-2.8604	-2.2562	-2.5708	89.869	173.732	117.543	161.636	60.442	-132.379	129.592	175.288	-124.712	50.295	116.692	195.306	205.592	30.414	-70.909	-120.175	0.0010644	0.0002829	0.00010614	1386.9	7.795e-06	5.4597e-06	1395.1	377.06	5.7339e-06	5.2206e-06	432.32	144.51	125.87	42.546	3.7217e-06	52.445	0.00057521	0.00054399	0.00015012	1410.4	5.8451e-06	5.906e-06	1419.1	383.77	5.8985e-06	5.8585e-06	439.63	147.52	128.15	43.742	5.9343e-06	54.177	10.857	-35.032	-63.677	-137.161	-44.434	-37.353	-137.457	-132.727	-28.137	-26.596	-133.206	-128.870	-128.250	-123.696	11.619	-124.334	-8191	255	
28521.090	1	1	0	0	0.1693	0.12166	0.1863	0.090488	0.03257	0.039167	0.12552	0.072844	0.1568	0.15555	0.30434	0.20668	0.22638	0.25867	0.12793	0.10066	-2.0312	-2.3333	-2.6271	-2.3458	-2.4625	-2.5875	-2.4958	-2.6708	-2.4813	-2.1125	-2.7438	-2.4938	-2.2667	-2.6375	-2.1	-2.6813	-129.811	-105.616	43.242	200.302	188.695	37.735	-137.528	100.297	-98.702	-7.750	149.096	-58.935	-79.376	-114.408	-114.668	-140.124	0.0010392	0.00054393	0.00015902	1387	1.0114e-05	5.3638e-06	1390.2	377.39	7.1945e-06	7.8342e-06	430.64	144.35	125.21	42.679	3.0607e-06	52.632	0.0005767	0.00055623	0.00014918	1409.7	6.0292e-06	5.949e-06	1419.3	384.59	5.7941e-06	5.995e-06	439.19	147.41	127.91	43.82	5.8849e-06	54.27	12.270	-76.775	-92.204	-137.195	-37.531	-5.125	-137.621	-132.657	-56.262	-24.209	-133.190	-129.094	-128.419	-123.669	-7.651	-124.547	-8191	255	
28521.184	1	1	0	0	0.064459	0.13602	0.19933	0.30492	0.21407	0.11076	0.22642	0.26119	0.22231	0.055094	0.086099	0.18476	0.056333	0.29742	0.36112	0.16152	-2.1	-2.3458	-2.6354	-2.6833	-2.2021	-2.6521	-2.5104	-2.6562	-2.5896	-2.3312	-2.7875	-2.4771	-2.4125	-2.8104	-2.5604	-2.325	158.904	75.803	126.238	149.339	-118.330	36.429	151.568	121.059	100.263	-111.257	193.946	-23.527	-64.080	71.544	42.676	168.179	0.0011903	0.00045073	0.00017432	1388.1	1.1096e-05	3.2046e-06	1396.6	375.22	6.082e-06	5.5482e-06	431.63	144.5	125.35	42.812	8.8207e-06	52.547	0.00057592	0.00053393	0.00014879	1411.4	5.9122e-06	5.7468e-06	1420.2	383.71	5.754e-06	5.7126e-06	439.85	147.76	128.24	43.98	5.7691e-06	54.218	12.429	-59.953	-71.873	-137.117	-12.498	20.918	-137.469	-132.708	-42.428	8.011	-133.336	-129.261	-128.629	-123.527	-2.967	-124.216	-8191	255	
28521.305	1	1	0	0	0.071332	0.085686	0.34852	0.22518	0.065818	0.28818	0.070748	0.18022	0.21565	0.13512	0.20367	0.091022	0.19618	0.0951	0.26141	0.07651	-2.3979	-2.3417	-2.575	-2.6271	-2.1646	-2.6292	-2.4917	-2.7896	-2.7062	-2.1208	-2.5875	-2.6354	-2.3167	-2.6271	-2.2729	-2.4729	11.707	32.684	152.308	176.109	-83.004	31.571	-131.185	-89.395	-89.583	82.249	73.703	-148.051	-84.914	101.862	-92.279	46.489	0.00113	0.00046759	0.00012566	1389.4	5.8963e-06	6.6348e-06	1405.1	376.38	1.1026e-05	3.3678e-06	431.89	144.88	125.44	42.805	4.7647e-06	52.835	0.00055833	0.00052004	0.00014418	1411.3	5.6705e-06	5.5749e-06	1422.1	384.33	5.5333e-06	5.678e-06	439.65	147.76	128.13	43.948	5.6909e-06	54.394	9.397	-63.187	-70.156	-137.081	-0.536	-9.124	-137.605	-132.790	-17.986	-14.583	-133.206	-128.989	-128.439	-123.647	36.030	-124.359	-8191	255	
28521.377	1	1	0	0	0.41984	0.16625	0.11457	0.067558	0.032243	0.35607	0.23302	0.1369	0.26649	0.11543	0.20799	0.1858	0.19672	0.15212	0.072226	0.12051	-2.2104	-2.0563	-2.575	-2.6458	-2.0917	-2.5104	-2.4896	-2.3688	-2.5708	-2.2458	-2.7167	-2.65	-2.1958	-2.6646	-2.3604	-2.4188	129.839	37.697	-83.121	116.264	117.476	161.108	200.870	178.936	-7.519	-43.905	115.860	-89.176	182.026	-87.959	19.776	49.591	0.0010472	0.00034013	0.00014464	1388.6	7.7826e-06	5.991e-06	1398.5	374.82	9.9676e-06	8.647e-06	432.68	144.85	125.39	42.693	5.8274e-06	52.597	0.00056526	0.00051895	0.00014486	1409.6	5.765e-06	5.5722e-06	1420.9	382.86	5.7011e-06	5.6831e-06	440.16	147.98	128.13	43.886	5.5752e-06	54.289	11.526	-38.161	-44.009	-137.247	-29.885	-29.870	-137.581	-132.806	0.929	-5.014	-133.367	-128.966	-128.256	-123.589	-5.130	-124.596	-8191	255	
28521.473	1	1	0	0	0.089751	0.14554	0.30658	0.19416	0.17257	0.14805	0.17533	0.19489	0.29116	0.16742	0.19627	0.34624	0.19271	0.014412	0.12612	0.084902	-2.1729	-2.2687	-2.3417	-2.8104	-2.1333	-2.8125	-2.7479	-2.4208	-2.8667	-2.4437	-2.4417	-2.7188	-2.2667	-2.5583	-2.3604	-2.4	46.476	-37.207	-31.767	-120.696	-132.083	34.992	170.806	22.804	-76.004	198.340	-21.694	206.475	181.097	64.918	123.745	131.607	0.0010848	0.00056392	0.00028744	1392	6.1837e-06	7.4875e-06	1398.3	375.77	7.8107e-06	7.235e-06	429.07	144.77	125.36	42.697	4.7032e-06	52.872	0.0005692	0.00050785	0.00014515	1412.2	5.7886e-06	5.6661e-06	1421.2	383.77	5.6853e-06	5.6705e-06	438.97	147.71	128.01	43.908	5.5392e-06	54.335	6.870	-77.900	-44.052	-137.256	-5.394	2.026	-137.569	-132.937	-28.790	-5.784	-133.071	-129.095	-128.102	-123.697	-15.053	-124.493	-8191	255	
28521.594	1	1	0	0	0.10251	0.36099	0.099593	0.24976	0.24943	0.18081	0.23665	0.10015	0.13237	0.1105	0.06889	0.098699	0.081796	0.052718	0.054308	0.085937	-2.2167	-2.2167	-2.275	-2.9354	-2.2354	-2.5333	-2.5833	-2.4146	-2.6042	-2.4646	-2.3854	-2.7083	-2.2687	-2.5979	-2.5271	-2.2458	202.099	24.073	100.268	201.822	6.063	-20.101	144.416	88.513	60.414	203.926	144.813	205.737	16.625	93.699	-125.518	72.496	0.0011291	0.00034937	0.00017313	1388.3	9.3693e-06	7.2062e-06	1394.4	376.68	9.2407e-06	4.1359e-06	430.1	144.16	125.46	42.706	7.2147e-06	52.428	0.00054972	0.00050886	0.00014222	1411	5.7554e-06	5.4773e-06	1419.7	383.88	5.5637e-06	5.5038e-06	438.42	147.62	128.08	43.872	5.5454e-06	54.196	13.121	-77.856	-67.353	-137.252	-39.532	14.966	-137.604	-132.938	28.527	6.751	-133.001	-128.931	-128.661	-123.717	-31.903	-124.474	-8191	255	
28521.689	1	1	0	0	0.021305	0.05777	0.15295	0.24415	0.11036	0.26714	0.34036	0.18665	0.19889	0.31927	0.16795	0.34586	0.13364	0.12927	0.15597	0.12747	-2.0917	-2.3167	-2.3458	-3	-2.25	-2.5042	-2.825	-2.3896	-2.6083	-2.3812	-2.3792	-2.7729	-2.3	-2.4708	-2.7396	-2.5021	159.790	-103.103	145.409	201.316	95.256	136.684	108.129	188.554	-112.830	204.847	172.384	77.235	107.895	139.294	-5.424	-14.076	0.0012379	0.00051875	0.00014647	1381.1	1.2715e-05	4.8423e-06	1392.9	374.29	6.9317e-06	6.2591e-06	429.21	143.84	125.1	42.593	3.6672e-06	52.806	0.00056496	0.00050874	0.00014184	1407.5	5.6733e-06	5.5636e-06	1419.2	383.24	5.577e-06	5.4941e-06	438.55	147.41	127.88	43.825	5.4216e-06	54.251	11.476	-57.996	-43.928	-137.312	-21.046	-9.640	-137.545	-132.838	-17.664	36.139	-133.030	-129.073	-128.442	-123.906	8.720	-124.307	-8191	255	
28521.785	1	1	0	0	0.13112	0.17502	0.049381	0.067851	0.20979	0.27229	0.15893	0.121	0.11418	0.15699	0.31943	0.10675	0.078446	0.35748	0.13225	0.17248	-2.1771	-2.4604	-2.3688	-3.1354	-2.425	-2.475	-2.825	-2.3625	-2.6396	-2.4146	-2.4875	-2.6604	-2.2792	-2.3583	-2.7146	-2.3729	161.743	190.745	-81.696	-121.182	142.923	66.345	105.022	59.944	64.150	45.086	157.848	186.986	-130.588	196.340	-58.189	-104.889	0.0012029	0.00053571	0.00013995	1386.6	9.7784e-06	5.7287e-06	1389.4	375.23	7.3736e-06	4.3826e-06	430.2	144.27	125.37	42.517	3.2154e-06	52.485	0.00055517	0.00050787	0.00014524	1409.5	5.6741e-06	5.4939e-06	1417.8	383.16	5.5772e-06	5.4871e-06	438.56	147.52	127.95	43.823	5.5591e-06	54.212	10.893	-70.870	-45.529	-137.179	-9.007	29.114	-137.587	-132.683	-21.398	21.511	-133.380	-128.842	-128.386	-123.777	-22.916	-124.262	-8191	255	
28521.883	1	1	0	0	0.20593	0.18487	0.25182	0.20532	0.32672	0.15564	0.27527	0.29116	0.28212	0.1959	0.46658	0.32458	0.15302	0.09222	0.053857	0.09996	-2.1604	-2.4542	-2.1562	-2.8354	-2.3167	-2.3458	-2.8229	-2.2958	-2.4688	-2.6937	-2.3042	-2.5187	-2.3875	-2.2333	-2.6562	-2.3812	157.639	-110.325	37.679	198.833	-147.784	70.404	160.994	70.994	204.405	7.963	146.647	150.425	-106.636	176.316	-44.828	-86.401	0.0011875	0.00033516	0.00013425	1385.8	8.9539e-06	5.982e-06	1392.6	376.42	9.6913e-06	4.894e-06	430.18	143.98	125.79	42.584	9.715e-06	52.257	0.00056172	0.00050195	0.00014597	1410.6	5.7237e-06	5.6295e-06	1418.8	383.87	5.6053e-06	5.6721e-06	438.98	147.39	128.12	43.81	5.6749e-06	54.041	10.796	-50.474	-18.873	-137.232	-8.336	-9.856	-137.551	-132.625	-14.542	-9.291	-133.051	-129.009	-128.464	-123.759	-13.960	-124.550	-8191	255	
28522.002	1	1	0	0	0.25638	0.029398	0.069639	0.099483	0.11799	0.021035	0.23055	0.40738	0.21419	0.09844	0.18497	0.33419	0.22643	0.15775	0.15018	0.15993	-1.8521	-2.475	-2.125	-2.7562	-2.4354	-2.4729	-2.8896	-2.425	-2.4083	-2.5479	-2.1188	-2.6813	-2.4	-2.1542	-2.6667	-2.3854	-39.695	128.327	-139.133	-128.250	159.050	8.557	108.780	96.705	-125.665	55.648	161.270	-113.376	19.369	160.924	17.222	-147.885	0.0010858	0.00045103	9.1343e-05	1388.8	1.6789e-06	4.7358e-06	1397.5	374.75	1.0604e-05	3.6728e-06	429.23	144.24	125.89	42.56	7.921e-06	52.264	0.00055254	0.00050966	0.00014458	1411	5.6044e-06	5.5434e-06	1419.5	382.87	5.603e-06	5.5067e-06	438.8	147.45	128.25	43.798	5.5521e-06	54.029	7.133	-104.144	-45.810	-137.287	-37.161	-12.742	-137.365	-132.911	-20.305	24.967	-133.206	-129.039	-128.597	-123.780	-25.151	-124.334	-8191	255	
28522.074	1	1	0	0	0.072218	0.055869	0.2519	0.13327	0.1742	0.25932	0.32092	0.31021	0.16432	0.1716	0.035098	0.16367	0.037884	0.1469	0.075194	0.18429	-2.0312	-2.5792	-2.15	-2.6167	-2.5854	-2.4104	-2.775	-2.5271	-2.3229	-2.6625	-2.3563	-2.6375	-2.7542	-2.2854	-2.6	-2.5792	-60.124	24.434	-23.338	-125.564	162.120	77.279	-116.132	161.447	-106.276	-107.754	162.931	50.122	-64.386	192.523	48.714	188.945	0.0011645	0.00029331	0.00020209	1391.6	7.4378e-06	4.1186e-06	1399	377.88	1.0262e-05	4.2304e-06	430.03	144.6	125.53	42.984	4.6208e-06	52.713	0.00055953	0.00049062	0.0001401	1411	5.4261e-06	5.402e-06	1420.8	384.33	5.3461e-06	5.3115e-06	438.69	147.8	128.06	44.004	5.2854e-06	54.246	10.443	-58.943	-82.769	-137.201	-21.558	-24.192	-137.481	-132.626	-33.488	29.444	-133.239	-128.889	-128.634	-123.838	1.411	-124.553	-8191	255	
28522.193	1	1	0	0	0.15808	0.068003	0.11163	0.11616	0.13523	0.062423	0.36168	0.12388	0.084302	0.11912	0.15412	0.16091	0.20898	0.2835	0.067038	0.18355	-1.7667	-2.475	-2.3333	-2.7458	-2.5687	-2.3417	-2.8438	-2.4521	-2.2062	-2.7146	-2.325	-2.5833	-2.6083	-2.2208	-2.3854	-2.5958	-9.706	-9.499	-115.056	201.246	27.104	-89.682	-134.667	153.012	-127.730	-44.327	183.282	127.267	128.578	189.838	183.774	-38.325	0.0012325	0.0003857	0.00016815	1387.2	5.7801e-06	6.7637e-06	1395.6	376.95	1.1784e-05	6.3763e-06	431.25	144.84	126.09	42.706	5.0352e-06	52.754	0.00053452	0.00047178	0.0001366	1409.2	5.34e-06	5.303e-06	1419	383.35	5.3755e-06	5.3777e-06	438.37	147.76	128.11	43.958	5.3403e-06	54.303	7.786	-92.289	-61.424	-137.174	-12.185	6.990	-137.351	-132.723	-25.047	-30.870	-133.088	-128.862	-128.588	-123.783	-22.750	-124.364	-8191	255	
28522.289	1	1	0	0	0.36181	0.036352	0.055273	0.30699	0.1099	0.14999	0.29164	0.34165	0.13252	0.18001	0.079337	0.17337	0.14985	0.060063	0.18992	0.11785	-1.8521	-2.4604	-2.3729	-2.6479	-2.5875	-2.1021	-2.7687	-2.7792	-2.2812	-2.6229	-2.4271	-2.4229	-2.725	-2.2729	-2.6542	-2.6979	89.120	92.879	137.166	168.699	-18.172	7.786	112.509	143.779	17.381	156.328	76.845	-142.690	194.690	33.416	205.034	-49.897	0.0010696	0.00054479	0.00017407	1387.9	8.9589e-06	4.7324e-06	1396	375.17	5.2281e-06	7.5666e-06	430.62	144.71	125.87	42.666	5.1035e-06	52.498	0.00054932	0.00049677	0.00013612	1410.8	5.4575e-06	5.5389e-06	1421.2	382.91	5.6043e-06	5.433e-06	438.86	147.82	128.15	43.827	5.4361e-06	54.066	11.533	-76.063	-40.051	-137.306	-23.267	-14.921	-137.462	-132.798	-17.327	-18.307	-133.339	-129.096	-128.327	-123.840	1.640	-124.419	-8191	255	
28522.385	1	1	0	0	0.091431	0.029155	0.25645	0.41811	0.040398	0.17077	0.29693	0.10856	0.12037	0.12428	0.33365	0.16386	0.33899	0.11087	0.048197	0.24994	-1.6646	-2.6667	-2.5312	-2.3729	-2.625	-2.3167	-2.7188	-2.6417	-2.1375	-2.7521	-2.5417	-2.5458	-2.7021	-2.425	-2.5104	-2.7042	41.746	0.893	61.990	165.632	-115.349	129.371	182.011	117.773	35.217	88.322	168.935	168.683	115.710	183.626	-64.622	29.086	0.0010392	0.00045977	0.00019046	1385.1	8.5397e-06	5.3249e-06	1392.9	376.75	5.5904e-06	4.6799e-06	428.59	144.32	125.54	42.538	6.9547e-06	52.704	0.00055302	0.00048903	0.00013816	1410.1	5.4616e-06	5.3027e-06	1417.3	382.86	5.4258e-06	5.4008e-06	437.89	147.61	128.09	43.77	5.4361e-06	54.164	11.333	-61.991	-58.153	-137.342	-17.747	-33.247	-137.489	-132.721	-34.959	3.274	-133.323	-129.009	-128.419	-123.634	1.186	-124.417	-8191	255	
28522.480	1	1	0	0	0.075154	0.33053	0.30169	0.17645	0.080018	0.16773	0.23864	0.23661	0.11134	0.10213	0.22802	0.2759	0.15128	0.13514	0.19928	0.30206	-1.7812	-2.5438	-2.4771	-2.5125	-2.7271	-2.3688	-2.6229	-2.6146	-2.2833	-2.7375	-2.5271	-2.3187	-2.7896	-2.3458	-2.5417	-2.8583	99.925	195.177	-136.582	162.332	179.368	34.580	-84.994	144.456	-146.864	-95.502	115.922	82.180	20.553	-132.690	-134.994	71.062	0.0011509	0.00060836	0.00011963	1386.5	5.8229e-06	6.9705e-06	1396.2	375.08	5.4442e-06	6.6995e-06	431.57	144.08	125.05	42.672	9.1517e-06	52.441	0.00054787	0.00048942	0.00013389	1409.7	5.4081e-06	5.3632e-06	1419.6	382.45	5.413e-06	5.2378e-06	439.05	147.71	127.81	43.818	5.4195e-06	54.151	10.707	-55.899	-82.062	-137.163	-25.778	-10.234	-137.492	-132.698	-16.488	-16.036	-133.084	-128.843	-128.556	-123.706	-6.096	-124.640	-8191	255	
28522.576	1	1	0	0	0.34101	0.17735	0.11744	0.22045	0.097478	0.15557	0.095694	0.32528	0.21247	0.044582	0.30513	0.13183	0.18113	0.076812	0.10253	0.1081	-1.9438	-2.45	-2.6188	-2.5833	-2.6396	-2.375	-2.5354	-2.8021	-2.325	-2.5896	-2.5792	-2.4437	-2.7583	-2.4813	-2.3375	-2.6375	-10.985	158.905	-15.130	207.516	8.762	196.657	146.707	139.682	-126.309	85.831	170.406	166.650	-108.255	110.866	-70.678	-24.729	0.0011639	0.00051022	0.00015457	1387.8	8.8477e-06	7.0253e-06	1396.3	374.93	1.3767e-05	7.0993e-06	429.51	144.72	125.88	42.691	6.6826e-06	52.542	0.00052881	0.00048073	0.00013428	1410	5.3154e-06	5.2347e-06	1418.8	382.09	5.2217e-06	5.2209e-06	437.89	147.63	127.84	43.772	5.1922e-06	54.117	5.848	-65.595	-47.341	-137.201	-26.191	-6.293	-137.408	-132.911	-15.540	8.393	-132.962	-128.900	-128.527	-123.586	10.720	-124.469	-8191	255	
28522.674	1	1	0	0	0.11439	0.030552	0.098564	0.2529	0.11797	0.18304	0.35192	0.062681	0.051051	0.082483	0.049464	0.28982	0.14301	0.15055	0.16665	0.12704	-1.8417	-2.6	-2.5458	-2.3979	-2.4542	-2.3625	-2.3333	-2.9625	-2.375	-2.3958	-2.7438	-2.4938	-2.6125	-2.5812	-2.4771	-2.8458	-49.146	-71.186	-51.279	179.331	-133.323	112.836	165.268	-130.710	195.470	-146.199	181.298	76.463	-131.450	163.970	-150.348	-86.470	0.0010728	0.00043456	0.00016082	1384.6	1.2269e-05	5.4649e-06	1394.2	374.78	6.9648e-06	4.9497e-06	428.65	144.67	124.58	42.518	5.5431e-06	52.558	0.00052308	0.00046022	0.00012922	1407.3	5.0882e-06	5.0416e-06	1416.8	382.17	5.0631e-06	5.1051e-06	437.21	147.5	127.78	43.788	5.3051e-06	54.091	13.033	-25.634	-69.728	-137.208	-26.750	-9.634	-137.520	-132.871	-45.117	2.294	-133.252	-129.090	-128.462	-123.559	-21.089	-124.413	-8191	255	
28522.770	1	1	0	0	0.06658	0.31549	0.039003	0.2297	0.21746	0.17181	0.22931	0.26182	0.20764	0.17311	0.090068	0.0908	0.37114	0.045732	0.20858	0.088858	-1.8958	-2.3583	-2.6167	-2.5438	-2.525	-2.6562	-2.5146	-2.7896	-2.3458	-2.3375	-2.875	-2.4688	-2.6521	-2.3937	-2.2854	-2.7938	-16.917	-141.053	173.755	142.822	-64.215	-45.018	103.568	-139.629	171.068	-128.897	-117.829	150.889	-84.728	112.675	207.849	22.206	0.0010961	0.00054571	0.00017659	1384.3	8.6392e-06	4.5794e-06	1395.5	375.5	6.4617e-06	4.907e-06	427.87	144.19	125.33	42.592	6.1942e-06	52.658	0.00053	0.00045872	0.00013262	1408.6	5.2245e-06	5.2532e-06	1417.3	382.19	5.2669e-06	5.2166e-06	437.7	147.52	127.92	43.779	5.3292e-06	54.183	9.384	-83.752	-51.814	-137.115	-26.390	-28.388	-137.670	-132.934	-12.158	-19.897	-133.041	-128.983	-128.512	-123.771	-9.384	-124.601	-8191	255	
28522.865	1	1	0	0	0.21033	0.09194	0.086525	0.25704	0.30079	0.21617	0.26131	0.18203	0.17134	0.16951	0.21013	0.23591	0.17894	0.218	0.14975	0.35277	-1.9438	-2.4292	-2.6479	-2.6146	-2.4042	-2.525	-2.5104	-2.8146	-2.3521	-2.425	-2.6958	-2.5708	-2.5354	-2.5917	-2.1021	-2.7292	196.606	-88.797	145.130	-143.799	97.976	-37.085	135.300	158.650	124.410	-17.088	170.050	97.820	-119.134	194.522	-10.692	157.823	0.0011528	0.00049467	0.00013349	1389.1	8.0694e-06	4.7262e-06	1394.5	375.23	9.644e-06	3.7406e-06	430.65	144.66	125.57	42.532	7.2693e-06	52.345	0.00053253	0.00048354	0.00013489	1408.6	5.2653e-06	5.2578e-06	1418.3	382.5	5.2503e-06	5.2515e-06	438.31	147.39	128.03	43.767	5.3729e-06	54.016	8.263	-73.253	-49.224	-137.279	-22.604	-12.747	-137.576	-132.572	-17.084	-7.502	-132.980	-128.971	-128.521	-123.528	-2.467	-124.103	-8191	255	
28522.963	1	1	0	0	0.018034	0.29269	0.20886	0.4082	0.15605	0.061656	0.078192	0.18691	0.24229	0.13992	0.24308	0.12257	0.27469	0.18964	0.16941	0.15162	-1.9521	-2.2938	-2.575	-2.4958	-2.4354	-2.5854	-2.4917	-2.7354	-2.4813	-2.2333	-2.6688	-2.4979	-2.4417	-2.8104	-2.2083	-2.7062	114.692	204.866	55.775	178.021	135.658	177.082	118.265	183.501	129.764	-116.817	197.424	-44.628	152.730	96.716	-34.431	199.442	0.0010473	0.00037581	0.00018632	1385.5	3.1504e-06	4.6004e-06	1395.6	374.52	5.2169e-06	5.5921e-06	429.29	144.46	125.39	42.618	6.02e-06	52.459	0.00052238	0.00049633	0.00013076	1407.5	5.3375e-06	5.3823e-06	1417.5	382.23	5.2498e-06	5.4338e-06	437.57	147.18	127.88	43.751	5.3784e-06	54.071	8.847	-58.383	-45.382	-137.186	-18.668	-6.471	-137.337	-132.752	0.436	-3.077	-133.394	-129.020	-128.472	-123.554	-6.467	-124.474	-8191	255	
28523.080	1	1	0	0	0.14609	0.18812	0.35733	0.30262	0.11069	0.26617	0.30213	0.26952	0.16388	0.066918	0.079464	0.28772	0.20791	0.2598	0.12928	0.20394	-1.8813	-2.2667	-2.6958	-2.5292	-2.3854	-2.7833	-2.3521	-2.5812	-2.5	-2.3563	-2.8292	-2.5417	-2.4729	-2.7979	-2.2854	-2.4854	174.832	-111.218	-17.726	159.988	32.553	207.716	141.684	154.462	-137.651	185.539	-53.539	89.765	-80.678	-25.599	170.109	181.632	0.001119	0.00044852	9.8677e-05	1387.9	1.0188e-05	4.9501e-06	1391.6	375.02	7.4372e-06	6.1711e-06	430.38	143.76	124.43	42.696	3.5125e-06	52.453	0.00053466	0.00049708	0.00013673	1408.8	5.3365e-06	5.2825e-06	1418.6	382.29	5.4866e-06	5.4437e-06	437.75	147.15	127.15	43.701	5.2862e-06	54.035	9.555	-56.882	-47.183	-137.204	-3.316	-19.753	-137.633	-132.708	-19.219	9.360	-133.311	-129.005	-128.312	-123.512	-7.918	-124.407	-8191	255	
28523.178	1	1	0	0	0.11935	0.045698	0.20361	0.104	0.14233	0.20703	0.14808	0.19497	0.080133	0.18514	0.25475	0.11385	0.22985	0.21555	0.11048	0.071693	-2.1937	-2.1979	-2.5917	-2.6813	-2.5167	-2.6708	-2.5875	-2.6063	-2.6229	-2.2812	-2.7333	-2.4938	-2.3937	-2.5333	-2.4146	-2.5875	12.257	-19.630	19.156	-116.129	-102.732	-86.896	122.638	152.492	187.026	194.913	54.028	191.495	-145.272	-123.518	-45.860	73.093	0.0011314	0.00023745	0.00015051	1381	1.0006e-05	4.9202e-06	1388.5	374.21	5.9619e-06	4.4008e-06	427.67	144.46	124.96	42.42	7.575e-06	52.555	0.00054186	0.00048068	0.00013516	1406.7	5.3294e-06	5.2503e-06	1415	381.69	5.3666e-06	5.2472e-06	436.88	147.21	127.48	43.626	5.2476e-06	54.029	12.982	-67.524	-27.511	-137.277	-1.079	4.872	-137.579	-132.724	20.239	-36.131	-133.116	-128.966	-128.241	-123.520	-19.214	-124.308	-8191	255	
28523.275	1	1	0	0	0.12384	0.14858	0.26193	0.084117	0.1085	0.15732	0.077203	0.22138	0.1263	0.053832	0.15642	0.14967	0.15195	0.2315	0.19377	0.12737	-2.2438	-2.1688	-2.5792	-2.7729	-2.4021	-2.7042	-2.4667	-2.5854	-2.6333	-2.55	-2.6021	-2.5687	-2.4313	-2.6542	-2.5271	-2.5167	-17.870	161.132	135.750	201.534	143.630	38.420	186.670	-63.691	157.657	155.788	-40.151	140.204	184.552	199.561	-42.637	-138.185	0.0010578	0.00046876	0.00012691	1383.4	8.8636e-06	6.7936e-06	1392.4	373.41	8.5967e-06	9.4618e-06	428.35	143.47	124.68	42.465	5.4013e-06	52.296	0.00053637	0.00049237	0.00013683	1407	5.4499e-06	5.4915e-06	1415.9	381.65	5.4784e-06	5.3448e-06	436.62	146.97	127.52	43.685	5.3905e-06	53.941	10.991	-71.562	-52.417	-137.182	-24.538	-13.201	-137.744	-132.642	-3.371	10.588	-133.153	-128.965	-128.383	-123.601	5.613	-124.343	-8191	255	
28523.369	1	1	0	0	0.10756	0.18799	0.30973	0.16166	0.071451	0.17277	0.20395	0.159	0.073248	0.10367	0.17384	0.11755	0.30159	0.20464	0.18279	0.21591	-2.2562	-2.2521	-2.4792	-2.4979	-2.1396	-2.65	-2.7438	-2.7271	-2.7438	-2.2625	-2.6813	-2.5479	-2.3917	-2.6479	-2.4688	-2.3375	31.931	208.174	205.680	120.058	189.657	103.235	155.650	107.471	-111.811	-84.333	-108.329	121.754	-113.341	111.139	108.682	155.163	0.0010972	0.00047958	0.00021075	1384	1.6027e-05	4.9391e-06	1396.4	374.04	8.457e-06	5.5127e-06	427.78	143.69	124.95	42.494	5.434e-06	52.368	0.00055254	0.00049041	0.00013629	1407.5	5.5181e-06	5.3845e-06	1416.6	382	5.3484e-06	5.4686e-06	436.33	146.74	127.37	43.634	5.3328e-06	53.97	8.978	-56.167	-48.145	-137.144	-13.144	-44.521	-137.640	-132.812	-1.185	1.222	-133.296	-129.086	-128.621	-123.551	10.431	-124.412	-8191	255	
28523.465	1	1	0	0	0.33577	0.088549	0.11694	0.08634	0.33816	0.093868	0.068171	0.2085	0.036261	0.058177	0.039919	0.11518	0.076463	0.26857	0.14787	0.090181	-2.1896	-2.0542	-2.3042	-2.7167	-2.1896	-2.6104	-2.6479	-2.4354	-2.7	-2.2333	-2.5854	-2.6271	-2.3875	-2.6708	-2.4208	-2.2333	-77.996	129.835	145.113	126.330	165.364	-75.823	43.710	-136.987	-61.313	56.835	61.317	-119.710	115.702	86.947	203.602	82.554	0.0011576	0.00058675	8.7898e-05	1382.8	8.0349e-06	4.6955e-06	1391	374.18	5.7745e-06	7.7362e-06	427.72	143.63	125.31	42.582	4.9294e-06	52.15	0.00053438	0.00048702	0.00013451	1405.1	5.5297e-06	5.3119e-06	1414.4	381.16	5.4141e-06	5.219e-06	436.28	147.15	127.68	43.675	5.3139e-06	54.012	6.841	-55.870	-60.357	-137.117	-12.660	5.443	-137.471	-132.723	-41.145	-4.276	-133.094	-128.959	-128.448	-123.540	-11.726	-124.344	-8191	255	
28523.562	1	1	0	0	0.15752	0.20349	0.18849	0.45881	0.20073	0.17306	0.24464	0.15578	0.22067	0.2124	0.15533	0.30218	0.25592	0.066118	0.11788	0.15589	-2.2708	-2.2333	-2.3917	-2.8667	-2.3271	-2.4792	-2.7979	-2.325	-2.4333	-2.4083	-2.4854	-2.6937	-2.2167	-2.6146	-2.5104	-2.3563	12.366	-17.024	126.845	195.621	150.677	-90.027	165.664	-139.702	179.153	123.523	-76.915	25.353	-115.805	169.881	-95.925	190.010	0.0011432	0.00017554	0.00014361	1387.8	6.4242e-06	5.5738e-06	1395.6	375.37	7.3428e-06	4.0791e-06	428.95	143.72	125.53	42.624	4.1135e-06	52.247	0.00052564	0.00048269	0.00013266	1406.1	5.5274e-06	5.3189e-06	1417.3	382.09	5.3622e-06	5.3917e-06	436.85	147.03	127.8	43.762	5.4017e-06	53.892	11.633	-68.850	-61.290	-137.210	-37.945	-0.472	-137.531	-132.683	25.913	21.293	-133.108	-128.976	-128.556	-123.684	-37.233	-124.322	-8191	255	
28523.682	1	1	0	0	0.15062	0.044033	0.079722	0.1365	0.1152	0.1227	0.16869	0.12538	0.19259	0.25168	0.066671	0.29609	0.21506	0.092288	0.13947	0.16356	-2.2146	-2.5354	-2.2542	-2.7562	-2.4229	-2.4437	-2.9396	-2.5625	-2.5896	-2.4917	-2.5833	-2.6708	-2.4104	-2.4729	-2.4104	-2.3604	82.028	187.147	-35.190	179.183	-120.009	7.817	110.047	-19.789	-142.909	145.739	-126.920	132.529	-118.361	99.048	-48.553	-121.274	0.0011524	0.00039602	0.00013607	1384.9	7.8867e-06	5.1224e-06	1395.7	375.14	7.6175e-06	3.7618e-06	429.41	144.42	124.96	42.495	2.224e-06	52.384	0.00054506	0.00050364	0.00014398	1408.8	5.6384e-06	5.6023e-06	1418.6	382.18	5.5729e-06	5.4467e-06	437.93	147.45	127.66	43.757	5.3147e-06	53.985	11.930	-48.424	-37.946	-137.427	-20.539	-21.067	-137.462	-132.874	17.062	-19.306	-133.117	-129.026	-128.723	-123.557	31.189	-124.597	-8191	255	
28523.777	1	1	0	0	0.17947	0.34682	0.07878	0.32991	0.22911	0.067796	0.31957	0.07146	0.060665	0.078382	0.11154	0.17523	0.04215	0.053219	0.057462	0.36367	-2.2854	-2.4938	-2.1792	-2.7938	-2.2854	-2.5083	-3.0854	-2.4458	-2.6271	-2.6104	-2.2083	-2.825	-2.4646	-2.5208	-2.8	-2.3417	8.819	-41.646	-48.330	135.488	-56.185	-66.253	193.897	-103.379	29.289	-131.069	86.591	187.634	-106.293	195.835	52.461	-144.043	0.0011482	0.00062327	0.00013733	1387.1	7.8772e-06	5.6954e-06	1395.6	373.83	7.1065e-06	4.9368e-06	428.42	144.16	125.7	42.514	1.438e-06	52.463	0.00053935	0.00049166	0.0001383	1407.7	5.3866e-06	5.1559e-06	1415.6	381.72	5.2197e-06	5.2257e-06	437.38	147.22	127.83	43.796	5.1469e-06	54.02	11.541	-71.610	-28.086	-137.129	8.223	-25.355	-137.650	-132.713	-18.575	-36.446	-133.219	-129.301	-128.376	-123.425	-55.350	-124.437	-8191	255	
28523.873	1	1	0	0	0.17358	0.31867	0.31115	0.25257	0.2916	0.15093	0.27738	0.050654	0.19214	0.11659	0.17933	0.053724	0.31566	0.051329	0.071568	0.30008	-1.9354	-2.6333	-2.3208	-2.7958	-2.5625	-2.3312	-2.9417	-2.2896	-2.575	-2.5062	-2.3563	-2.8375	-2.5292	-2.5187	-2.8125	-2.4542	51.923	14.283	140.946	-80.664	55.551	119.520	-143.593	44.591	129.332	25.554	-88.041	165.432	162.090	-26.453	98.875	200.727	0.0010997	0.0004507	0.00012279	1380.9	7.0851e-06	7.4567e-06	1392.8	374.66	1.0454e-05	5.7086e-06	429.02	143.59	125.37	42.557	8.7922e-06	52.429	0.00052381	0.0004503	0.00013191	1403.7	5.1483e-06	5.0827e-06	1415.7	381.65	5.2999e-06	5.1646e-06	437.21	147.25	127.84	43.792	5.2932e-06	54.12	13.291	-59.534	-56.531	-137.117	-0.673	-32.273	-137.501	-132.868	-0.248	1.224	-133.265	-129.059	-128.511	-123.681	-18.565	-124.547	-8191	255	
28523.971	1	1	0	0	0.09246	0.075285	0.12205	0.28987	0.19449	0.11458	0.22124	0.061546	0.15616	0.082093	0.31844	0.13766	0.18136	0.15126	0.12253	0.08023	-1.8625	-2.6167	-2.2646	-2.7792	-2.4875	-2.6542	-2.8917	-2.3063	-2.3937	-2.6208	-2.2771	-2.6208	-2.5354	-2.4688	-2.5833	-2.4813	176.116	-15.835	-124.952	182.098	-117.798	-145.855	84.990	191.371	9.847	-80.601	-129.744	-147.574	82.909	-123.216	53.797	15.108	0.0010141	0.00027495	1.8597e-05	1383.5	7.5207e-06	2.4893e-06	1393.3	373.68	1.4088e-05	6.8587e-06	428.46	144.39	125.03	42.527	5.5624e-06	52.715	0.00054104	0.00051607	0.00013997	1407.3	5.5799e-06	5.5491e-06	1419.1	381.73	5.5563e-06	5.5936e-06	437.38	147.42	127.88	43.791	5.6422e-06	54.152	15.408	-52.481	-72.771	-137.276	8.475	-46.009	-137.477	-132.841	-3.181	2.713	-133.221	-129.123	-128.477	-123.571	5.391	-124.459	-8191	255	
28524.066	1	1	0	0	0.089356	0.058936	0.067252	0.33002	0.24408	0.11772	0.46909	0.4659	0.066401	0.045166	0.10262	0.047939	0.090318	0.18766	0.15458	0.26708	-2.0771	-2.5833	-2.3146	-2.7604	-2.5354	-2.2687	-2.825	-2.5875	-2.5062	-2.7792	-2.3458	-2.4188	-2.4979	-2.3563	-2.4313	-2.5312	135.973	128.728	119.149	150.151	-64.299	-5.588	169.354	149.911	-82.343	95.461	168.583	-37.923	3.166	-123.343	36.556	176.304	0.0011012	0.00029876	0.0001284	1393.8	1.1177e-05	5.1536e-06	1395.7	375.27	8.1855e-06	6.6646e-06	430.33	144.48	125.37	42.612	6.3404e-06	52.458	0.00055879	0.00051605	0.00014374	1412.8	5.742e-06	5.683e-06	1422.3	382.3	5.7522e-06	5.6193e-06	438.6	147.8	128.09	43.87	5.5692e-06	54.179	11.311	-53.958	-81.650	-137.205	-40.090	-15.415	-137.495	-132.901	3.404	4.789	-133.059	-129.038	-128.481	-123.656	-8.439	-124.541	-8191	255	
28524.160	1	1	0	0	0.20316	0.26385	0.07235	0.14688	0.13451	0.087744	0.17978	0.10946	0.15501	0.18887	0.06515	0.24284	0.01471	0.14739	0.062547	0.14962	-2.0667	-2.725	-2.175	-2.6396	-2.6229	-2.1937	-2.7021	-2.5271	-2.3021	-2.7062	-2.6104	-2.5146	-2.8	-2.3354	-2.5083	-2.6917	-60.352	-19.108	144.718	-96.910	132.762	95.131	129.387	-133.743	-85.968	-88.126	-106.106	-67.948	185.443	174.091	2.412	-51.069	0.0010744	0.00039709	0.00023132	1390.3	6.5663e-06	3.2005e-06	1398.4	376.54	1.0281e-05	3.5965e-06	429.63	144.95	125.71	42.715	5.7801e-06	52.875	0.0005615	0.00051498	0.00014526	1412.6	5.6634e-06	5.7209e-06	1423.9	383.07	5.6776e-06	5.541e-06	438.78	148.09	128.27	43.916	5.5361e-06	54.301	7.026	-86.636	-67.093	-137.307	-72.635	-13.192	-137.501	-132.695	-26.944	8.645	-133.346	-129.064	-128.555	-123.585	-16.857	-124.327	-8191	255	
28524.258	1	1	0	0	0.14284	0.26608	0.26264	0.27615	0.043994	0.20663	0.25956	0.24421	0.14089	0.30603	0.084434	0.4102	0.11268	0.074644	0.013137	0.30287	-1.6562	-2.7521	-2.5563	-2.55	-2.7729	-2.1667	-2.7292	-2.5625	-2.1	-2.7479	-2.5854	-2.3917	-2.8354	-2.4083	-2.5396	-2.7167	7.604	157.698	149.771	136.220	-134.200	115.602	179.808	182.029	66.248	-47.252	32.531	160.082	90.078	184.124	-102.006	171.245	0.001136	0.00057478	0.00016266	1391.4	7.8353e-06	5.5765e-06	1401.7	375.98	7.8482e-06	5.4805e-06	429.07	145.45	125.65	42.634	8.0912e-06	52.677	0.00055519	0.00050797	0.00014359	1415.6	5.646e-06	5.6437e-06	1426.3	383.05	5.7662e-06	5.4898e-06	438.71	148.29	128.39	43.863	5.7046e-06	54.248	7.807	-77.252	-69.871	-137.104	18.068	-3.304	-137.500	-132.727	-18.453	-6.799	-133.227	-128.758	-128.582	-123.625	-11.013	-124.593	-8191	255	
28524.379	1	1	0	0	0.20114	0.2236	0.23719	0.051697	0.16369	0.1128	0.014575	0.22688	0.15579	0.33648	0.19796	0.24674	0.26378	0.059257	0.035042	0.20219	-1.8062	-2.5458	-2.3354	-2.5146	-2.6688	-2.2521	-2.6979	-2.6875	-2.1854	-2.5354	-2.4458	-2.3187	-2.7896	-2.3792	-2.5542	-2.7833	145.752	41.970	195.550	-24.856	-22.162	90.983	159.797	173.620	122.165	24.769	-134.889	164.117	-15.065	74.484	-80.664	66.382	0.00112	0.00060476	0.00017183	1395.3	8.9564e-06	5.9042e-06	1402.2	376.58	4.9729e-06	4.9546e-06	430.84	145.21	125.85	42.655	5.6348e-06	52.514	0.00056444	0.00051261	0.00014521	1417.6	5.7574e-06	5.7656e-06	1426.9	383.53	5.7716e-06	5.7108e-06	439.29	148.18	128.38	43.907	5.6717e-06	54.183	12.551	-61.599	-72.168	-137.253	-14.412	25.692	-137.503	-132.875	-16.242	42.722	-133.042	-129.396	-128.653	-123.826	-1.622	-124.299	-8191	255	
28524.475	1	1	0	0	0.16349	0.22409	0.23471	0.35645	0.14849	0.18368	0.22281	0.37488	0.097066	0.096182	0.014826	0.063556	0.23723	0.058997	0.053709	0.25081	-1.7938	-2.475	-2.4688	-2.2854	-2.5583	-2.3792	-2.5771	-2.5729	-2.2292	-2.5917	-2.6875	-2.4542	-2.6125	-2.4792	-2.2771	-2.4688	95.323	103.403	-78.357	198.347	-77.508	178.242	82.254	189.203	132.706	42.857	-56.112	48.995	-123.178	-7.021	33.077	184.511	0.0011727	0.00032901	0.0001128	1391.3	9.3972e-06	7.7183e-06	1400.1	375.4	8.5269e-06	6.0866e-06	430.16	144.39	125.45	42.564	6.7352e-06	52.273	0.000565	0.00052299	0.00014187	1414	5.7171e-06	5.7083e-06	1423.9	382.56	5.8219e-06	5.6893e-06	439.27	147.86	128.11	43.792	5.6883e-06	54.039	9.648	-72.669	-52.894	-137.360	-27.597	13.931	-137.365	-132.970	-14.235	-22.623	-133.324	-128.944	-128.669	-123.546	-31.466	-124.432	-8191	255	
28524.547	1	1	0	0	0.11728	0.025707	0.14377	0.22709	0.14008	0.14949	0.060795	0.09574	0.06141	0.24645	0.023533	0.36991	0.20107	0.046136	0.16102	0.052593	-1.8917	-2.5208	-2.4458	-2.2542	-2.4979	-2.2896	-2.3937	-2.6437	-2.1083	-2.7167	-2.5854	-2.4125	-2.7646	-2.4229	-2.2833	-2.7604	-129.940	61.601	-140.847	145.804	127.931	59.570	135.800	114.671	15.867	77.443	-50.063	-148.864	43.195	125.158	-46.100	-73.055	0.0011681	0.0003781	0.00012344	1391.5	5.0332e-06	5.1987e-06	1406.1	374.61	7.4915e-06	6.7817e-06	429.52	144.61	125.6	42.489	4.2486e-06	52.656	0.000569	0.00052391	0.00014779	1414.3	5.8628e-06	5.7513e-06	1425.9	382.41	5.8102e-06	5.7397e-06	438.06	147.83	128.32	43.784	5.8807e-06	54.156	9.374	-70.653	-43.097	-137.156	-34.520	-22.863	-137.581	-132.829	-47.772	-33.910	-132.959	-128.870	-128.571	-123.657	-26.617	-124.538	-8191	255	
28524.643	1	1	0	0	0.082927	0.050516	0.017619	0.22863	0.091805	0.069969	0.33428	0.39998	0.19693	0.13195	0.080537	0.19682	0.11128	0.12804	0.10786	0.27059	-1.9188	-2.3021	-2.6167	-2.5604	-2.5938	-2.5167	-2.5604	-2.5292	-2.4042	-2.3896	-2.7354	-2.4708	-2.6083	-2.5833	-2.0333	-2.7479	-61.265	-55.945	22.953	205.532	-12.092	96.096	151.831	-134.648	1.298	144.163	155.937	162.344	-120.816	125.228	149.637	-114.026	0.0011277	0.0004339	0.00020918	1393.5	8.2133e-06	4.1254e-06	1403.9	374.27	5.236e-06	6.6943e-06	430.58	144.69	125.77	42.601	9.2855e-06	52.348	0.00056896	0.00052921	0.00014677	1417.1	5.8575e-06	5.8019e-06	1427.7	382.78	6.0819e-06	5.8802e-06	438.78	147.8	128.2	43.833	5.9089e-06	54.094	9.649	-66.834	-61.738	-137.106	-19.356	19.280	-137.592	-132.819	-35.705	0.284	-133.051	-129.144	-128.534	-123.962	-18.535	-124.645	-8191	255	
28524.764	1	1	0	0	0.085452	0.086976	0.29398	0.19573	0.05729	0.21471	0.3415	0.25525	0.15609	0.061871	0.25643	0.19278	0.20288	0.043971	0.15447	0.16436	-2.0146	-2.3542	-2.6396	-2.4479	-2.4062	-2.3854	-2.2354	-2.6771	-2.3271	-2.3625	-2.7687	-2.2938	-2.5583	-2.7562	-2.2125	-2.7062	32.968	-10.623	-33.025	144.723	-21.014	171.749	55.107	130.080	27.426	98.695	146.768	192.362	-136.593	34.993	91.708	-0.974	0.0011477	0.00033479	0.00010709	1392.9	8.4963e-06	6.4058e-06	1401	374.3	1.0047e-05	5.2765e-06	428.38	144.29	125.23	42.453	7.1389e-06	52.45	0.00058112	0.00053141	0.00014675	1415.7	5.858e-06	5.8815e-06	1424.8	382.22	5.8643e-06	5.992e-06	438.06	147.46	127.81	43.715	6.1301e-06	53.993	13.436	-17.743	-82.636	-137.200	-51.962	-12.844	-137.523	-132.808	-13.736	-28.238	-133.213	-128.839	-128.581	-123.747	7.577	-124.430	-8191	255	
28524.859	1	1	0	0	0.16485	0.080408	0.13933	0.4076	0.071466	0.16561	0.070485	0.13864	0.15945	0.23461	0.14697	0.14558	0.087251	0.11983	0.15721	0.050809	-2.0625	-2.1937	-2.7083	-2.5312	-2.6104	-2.5375	-2.2313	-2.7104	-2.4375	-2.2979	-2.775	-2.2938	-2.6271	-2.9208	-2.3583	-2.7083	97.776	24.006	-32.094	204.554	201.150	-93.079	-51.134	79.917	-0.676	-36.788	69.668	-119.974	-118.774	191.349	-110.603	147.479	0.0011728	0.00034015	0.00022969	1391.1	8.5838e-06	4.8246e-06	1397	373.44	4.9602e-06	3.0686e-06	429.4	143.46	124.91	42.582	6.5055e-06	52.386	0.00059053	0.00056107	0.00015448	1414	6.0644e-06	6.2481e-06	1423.5	382.31	6.0758e-06	5.9963e-06	437.81	147.54	127.94	43.736	5.9185e-06	53.996	7.908	-86.579	-57.952	-136.882	0.875	37.478	-137.592	-132.756	-35.338	-2.127	-133.014	-129.038	-128.432	-123.582	28.046	-124.598	-8191	255	
28524.955	1	1	0	0	0.087315	0.16609	0.11005	0.40373	0.24574	0.091919	0.11595	0.20585	0.069723	0.18881	0.26341	0.25217	0.15918	0.18217	0.096981	0.22281	-2.1167	-2.375	-2.8083	-2.6042	-2.4229	-2.5104	-2.3646	-2.6125	-2.5333	-2.3646	-2.4792	-2.4021	-2.4396	-2.7812	-2.3708	-2.575	-75.071	-20.578	-24.710	191.865	-93.064	32.535	-11.346	121.452	194.232	-91.028	23.539	-37.656	-61.786	149.150	78.926	141.762	0.0010982	0.00031122	0.00015135	1394.1	4.3831e-06	5.2493e-06	1397.8	373.76	1.0824e-05	6.6985e-06	429.7	144.14	125.28	42.244	5.7104e-06	52.299	0.00057385	0.00053412	0.00014869	1415.7	5.9119e-06	5.977e-06	1423.5	381.76	6.0995e-06	6.2306e-06	437.63	147.23	127.86	43.608	6.215e-06	53.876	10.634	-44.897	-50.117	-137.153	-43.502	5.279	-137.651	-132.683	-29.958	-15.013	-133.056	-129.151	-128.432	-123.840	-22.987	-124.237	-8191	255	
28525.074	1	1	0	0	0.16592	0.13458	0.055115	0.21067	0.060393	0.30925	0.26138	0.30592	0.10141	0.13213	0.16081	0.053396	0.12672	0.25932	0.1866	0.051794	-2.0479	-2.1354	-2.8042	-2.6083	-2.4667	-2.5417	-2.3792	-2.6063	-2.6708	-2.1917	-2.5792	-2.4313	-2.4708	-2.7208	-2.3063	-2.6042	28.709	-138.410	50.855	176.903	-111.550	31.156	98.079	136.748	43.561	179.843	-148.841	134.619	180.066	63.678	98.968	186.240	0.0011692	0.00042622	0.00015782	1390.2	9.3597e-06	6.26e-06	1397.8	374.61	8.3967e-06	4.1762e-06	430.62	144.63	125.48	42.49	4.2409e-06	52.367	0.00060326	0.00056907	0.00015811	1415.2	6.2936e-06	6.0259e-06	1424.8	382.3	5.9999e-06	6.0011e-06	438.19	147.4	127.79	43.658	5.8854e-06	54.029	8.291	-52.102	-74.441	-137.315	-9.564	-7.974	-137.633	-132.907	-9.030	-14.217	-133.172	-129.018	-128.473	-123.757	10.344	-124.323	-8191	255	
28525.170	1	1	0	0	0.13518	0.22208	0.092963	0.13436	0.18195	0.37139	0.12523	0.12107	0.10912	0.31833	0.2905	0.1715	0.10322	0.19105	0.2807	0.17495	-1.8979	-2.1042	-2.5708	-2.5271	-2.2771	-2.625	-2.3792	-2.5292	-2.7542	-2.5187	-2.4604	-2.4938	-2.3167	-2.8396	-2.4396	-2.4771	144.380	-5.164	4.220	-132.020	-148.721	66.032	37.710	30.269	59.055	-43.772	129.506	-29.395	135.167	110.836	108.979	181.225	0.0010513	0.00055802	0.00012015	1395.5	7.3276e-06	4.9429e-06	1399.6	375.5	5.3421e-06	6.4535e-06	430.45	144.31	125.4	42.699	5.9112e-06	52.314	0.00057115	0.00052751	0.00014678	1416.1	5.6105e-06	5.6403e-06	1423.9	382.12	5.6352e-06	5.5322e-06	437.57	147.45	127.97	43.754	5.4936e-06	53.931	9.409	-69.097	-58.775	-137.378	2.752	-1.088	-137.393	-132.873	-0.370	-2.244	-133.376	-128.900	-128.284	-123.768	-26.574	-124.279	-8191	255	
28525.242	1	1	0	0	0.13124	0.1342	0.073964	0.056276	0.12954	0.12555	0.17223	0.12001	0.062427	0.11913	0.20728	0.22531	0.096667	0.1505	0.13642	0.22934	-2.1958	-2.2542	-2.5438	-2.5646	-2.15	-2.6417	-2.4417	-2.3458	-2.4146	-2.3063	-2.6333	-2.7458	-2.5104	-2.7062	-2.4813	-2.4646	-24.953	-25.111	-144.205	51.417	153.409	-74.693	169.666	167.191	166.472	-88.599	-98.335	179.322	100.184	-96.361	119.214	-42.407	0.0011646	0.00033582	0.00010563	1387.5	7.2418e-06	8.3294e-06	1396.7	374.46	1.2526e-05	5.0684e-06	427.26	144.75	124.89	42.42	7.0397e-06	52.41	0.00055362	0.000501	0.00014199	1410.9	5.591e-06	5.4625e-06	1422	381.72	5.7215e-06	5.7427e-06	437.41	147.47	127.62	43.716	5.939e-06	54.02	8.887	-84.985	-49.033	-137.233	-47.144	-24.620	-137.412	-132.656	-30.564	6.486	-133.327	-128.850	-128.388	-123.711	-18.201	-124.553	-8191	255	
28525.361	1	1	0	0	0.038634	0.19621	0.056577	0.3627	0.13149	0.084248	0.30607	0.3147	0.18187	0.13844	0.2692	0.11855	0.24167	0.13033	0.073821	0.1855	-2.1979	-2.2438	-2.3458	-2.4792	-2.4021	-2.5875	-2.4375	-2.3979	-2.6604	-2.4833	-2.6625	-2.775	-2.1354	-2.4417	-2.4646	-2.4896	-128.032	-34.591	168.175	162.317	181.391	33.698	124.687	138.602	25.109	60.910	-62.069	154.230	116.519	-67.270	117.997	107.016	0.0010841	0.00056023	0.00012155	1389.7	7.7088e-06	8.5618e-06	1399.9	374.78	7.8788e-06	3.6325e-06	429.08	144.1	125.57	42.47	5.1804e-06	52.479	0.00058289	0.00055074	0.00015181	1414.2	6.1376e-06	5.9899e-06	1424	382.12	6.0096e-06	5.9735e-06	438.01	147.23	127.97	43.72	5.9154e-06	53.995	10.800	-102.465	-33.967	-137.264	-17.503	-11.845	-137.502	-132.841	-51.135	-20.054	-133.375	-128.996	-128.776	-123.796	-7.898	-124.356	-8191	255	
28525.457	1	1	0	0	0.29458	0.34394	0.18013	0.12028	0.19711	0.20993	0.251	0.13674	0.17457	0.086567	0.35564	0.23914	0.088587	0.071145	0.17157	0.34222	-2.1667	-2.2687	-2.4146	-2.7562	-2.2979	-2.3417	-2.3667	-2.3354	-2.7313	-2.3292	-2.3563	-2.5896	-2.3396	-2.4458	-2.6083	-2.4188	98.235	197.945	-73.941	183.371	-106.059	-131.194	180.407	45.695	44.514	156.635	171.156	106.622	44.260	-48.298	110.170	194.818	0.0011065	0.00047087	0.00011334	1391.6	1.3593e-05	5.0522e-06	1401	374.53	8.7611e-06	8.4441e-06	429.29	144.17	125.15	42.653	4.9187e-06	52.282	0.00057895	0.00054225	0.0001509	1413.4	5.9195e-06	5.9337e-06	1425	382.03	5.8561e-06	5.7748e-06	437.91	147.34	127.76	43.723	5.7525e-06	53.933	9.172	-70.199	-63.700	-137.277	-10.980	-35.773	-137.647	-132.897	-25.551	15.615	-133.119	-128.931	-128.493	-123.875	-5.224	-124.352	-8191	255	
28525.555	1	1	0	0	0.20297	0.081563	0.086568	0.16261	0.055705	0.16532	0.13929	0.43447	0.029212	0.10956	0.081506	0.14268	0.26458	0.15393	0.21489	0.24675	-2.0896	-2.2792	-2.2792	-2.9688	-2.3833	-2.5792	-2.6125	-2.4437	-2.6167	-2.5187	-2.4667	-2.6375	-2.3417	-2.6042	-2.5958	-2.2917	35.842	85.254	4.125	157.988	97.617	74.654	-122.588	159.966	68.381	43.505	43.153	-124.209	-149.273	203.732	-79.521	171.775	0.0011353	0.00034251	0.0002004	1392.9	8.0563e-06	2.7603e-06	1402	375.5	8.8766e-06	3.796e-06	428.47	144.16	125.61	42.568	2.8198e-06	52.527	0.00058139	0.00052396	0.00014745	1415.5	5.7805e-06	5.8866e-06	1423.6	382.37	5.7374e-06	5.7526e-06	437.35	147.42	128.04	43.724	5.7432e-06	54.019	11.428	-36.216	-56.283	-137.213	34.409	14.451	-137.491	-132.813	-0.240	-12.491	-132.926	-128.792	-128.592	-123.692	-2.369	-124.646	-8191	255	
28525.676	1	1	0	0	0.19875	0.092952	0.17934	0.34341	0.033873	0.067271	0.20295	0.29642	0.088713	0.20152	0.40661	0.21213	0.06685	0.19478	0.18144	0.18587	-2.2146	-2.3458	-2.2167	-2.8896	-2.2958	-2.3875	-2.7521	-2.4021	-2.5646	-2.4896	-2.3708	-2.75	-2.2812	-2.3729	-2.6729	-2.3812	165.393	-1.623	142.263	145.155	-144.604	-20.285	97.033	170.680	60.544	-12.729	158.713	196.626	22.587	-67.600	-46.870	172.895	0.0011126	0.00042285	0.00016602	1394.2	6.7796e-06	4.2134e-06	1400.7	374.72	1.2168e-05	4.707e-06	428.85	144.28	124.97	42.375	4.6315e-06	52.456	0.00057658	0.0005288	0.00014989	1415.2	5.8382e-06	5.7901e-06	1426	382.22	5.7507e-06	5.7598e-06	437.91	147.57	127.95	43.727	5.8087e-06	54.074	7.910	-63.953	-63.353	-137.048	-51.528	-12.616	-137.665	-132.924	-37.572	-6.584	-133.291	-129.074	-128.399	-123.789	26.179	-124.228	-8191	255	
28525.771	1	1	0	0	0.086218	0.32408	0.07731	0.15153	0.18389	0.046902	0.12537	0.19664	0.1469	0.14827	0.072986	0.28266	0.16228	0.16676	0.14355	0.018342	-2.0021	-2.425	-2.2604	-2.6917	-2.4646	-2.5687	-2.9646	-2.2833	-2.4583	-2.6875	-2.3271	-2.6229	-2.3979	-2.5604	-2.6896	-2.3979	179.675	80.191	106.071	58.247	136.866	120.150	133.629	122.294	49.150	125.961	56.514	29.618	-146.121	144.335	38.991	61.910	0.0010428	0.00024531	0.0001901	1391.6	9.6522e-06	3.0526e-06	1400.1	375.71	1.1022e-05	6.0142e-06	429.86	144.15	124.99	42.559	2.6226e-06	52.381	0.00056528	0.00052176	0.00014867	1415.3	5.7817e-06	5.8245e-06	1425.3	382.6	5.7685e-06	5.744e-06	437.98	147.42	127.74	43.826	5.8455e-06	54.064	7.608	-69.920	-49.789	-137.164	-37.015	-7.309	-137.586	-132.892	1.383	8.486	-133.052	-128.966	-128.466	-123.432	-51.231	-124.426	-8191	255	
28525.844	1	1	0	0	0.21856	0.071351	0.031094	0.217	0.35338	0.25138	0.27432	0.20389	0.21573	0.038548	0.11506	0.20333	0.077144	0.13619	0.1148	0.29038	-1.9979	-2.5	-2.2042	-2.7583	-2.4958	-2.4229	-2.8375	-2.375	-2.6437	-2.6312	-2.2313	-2.6125	-2.4604	-2.4458	-2.5604	-2.3833	203.279	70.073	129.480	146.542	170.035	86.159	175.356	-47.996	30.062	72.951	156.141	136.214	-120.644	-93.469	85.539	172.082	0.0010902	0.00031647	0.00011123	1390.5	1.1762e-05	5.1485e-06	1404.4	374.95	8.0271e-06	6.6544e-06	428.63	145.06	125.28	42.489	4.4609e-06	52.408	0.00057153	0.00052488	0.00014916	1414.9	5.8653e-06	5.9495e-06	1424.3	382.22	5.8592e-06	5.874e-06	437.87	147.56	127.89	43.736	5.8776e-06	54.006	9.847	-90.079	-59.599	-137.322	-51.809	-11.352	-137.473	-132.596	-17.740	-2.775	-133.092	-129.203	-128.619	-123.592	-18.423	-124.570	-8191	255	
28525.939	1	1	0	0	0.063643	0.15286	0.067869	0.2329	0.0517	0.19409	0.32635	0.27503	0.1199	0.096401	0.17986	0.15026	0.1114	0.34643	0.28845	0.15362	-1.9146	-2.7208	-2.1312	-2.7458	-2.4771	-2.2104	-2.7021	-2.5229	-2.425	-2.5292	-2.3854	-2.7542	-2.4375	-2.5062	-2.8625	-2.3875	206.640	81.153	-131.802	181.616	-40.599	-91.997	130.503	166.333	106.699	-135.292	54.463	75.394	111.073	-142.945	94.821	185.036	0.0011221	0.00038558	0.00010573	1390.6	8.868e-06	4.9326e-06	1402.2	374.01	9.9631e-06	7.0175e-06	428.74	144.04	125.05	42.453	7.9508e-06	52.569	0.00057389	0.00054317	0.00015191	1414.6	5.8684e-06	5.8713e-06	1425.4	381.79	5.849e-06	5.7148e-06	437.44	147.49	127.83	43.788	5.4871e-06	54.121	8.867	-63.444	-47.100	-137.254	-13.118	-9.067	-137.727	-132.574	-6.997	3.667	-133.152	-129.129	-128.543	-123.753	-29.117	-124.527	-8191	255	
28526.059	1	1	0	0	0.05021	0.23912	0.19627	0.36502	0.22677	0.1783	0.12781	0.053254	0.17235	0.16825	0.24354	0.21478	0.23791	0.1264	0.2858	0.16936	-1.9312	-2.5375	-2.2021	-2.6458	-2.5667	-2.2375	-2.7479	-2.4625	-2.5833	-2.7458	-2.3667	-2.3917	-2.7375	-2.2812	-2.3812	-2.4729	85.108	31.467	-38.429	183.459	54.795	-141.040	202.951	-111.551	206.081	152.730	145.104	108.577	-89.261	30.063	121.278	132.763	0.0010942	0.00043873	0.00016932	1391	1.0702e-05	6.623e-06	1397.3	374.42	1.2567e-05	4.1261e-06	429.24	144.45	125.41	42.502	7.3967e-06	52.323	0.00055613	0.0004996	0.0001428	1414.8	5.7156e-06	5.6179e-06	1423.5	382.1	5.6919e-06	5.6231e-06	437.77	147.7	127.98	43.79	5.7308e-06	53.985	7.707	-92.758	-71.093	-137.178	-56.703	14.520	-137.713	-132.672	-6.079	-44.684	-133.270	-129.112	-128.391	-123.733	2.092	-124.523	-8191	255	
28526.154	1	1	0	0	0.30784	0.26533	0.21944	0.33388	0.12696	0.1178	0.29913	0.22276	0.21854	0.14465	0.10023	0.10933	0.20107	0.24947	0.18496	0.09063	-1.9854	-2.8333	-2.2438	-2.6917	-2.4437	-2.25	-2.6354	-2.6583	-2.2521	-2.8	-2.2604	-2.5229	-2.6688	-2.3063	-2.5083	-2.7562	-13.723	-0.168	39.145	127.176	-78.958	27.484	162.614	207.421	165.836	19.532	165.255	68.146	160.839	103.318	-5.668	125.971	0.001162	0.00041902	0.00011668	1393.2	1.3086e-05	7.6342e-06	1406.7	375.26	1.0136e-05	6.0157e-06	429.88	144.3	124.97	42.453	5.2418e-06	52.238	0.00058822	0.00052955	0.00015173	1417.1	5.955e-06	5.8527e-06	1427.2	382.98	5.9537e-06	5.7338e-06	437.48	147.4	127.83	43.736	5.7492e-06	53.955	10.873	-65.951	-93.192	-137.211	-2.373	-10.468	-137.617	-132.620	-17.017	4.726	-133.355	-129.050	-128.395	-123.799	-15.645	-124.588	-8191	255	
28526.250	1	1	0	0	0.21617	0.15521	0.23857	0.2023	0.27585	0.22012	0.32704	0.16231	0.22928	0.088649	0.12067	0.10212	0.33134	0.07009	0.18481	0.20318	-1.8125	-2.6354	-2.3271	-2.6729	-2.6625	-2.4333	-2.6021	-2.6104	-2.2021	-2.4646	-2.4854	-2.5229	-2.7292	-2.2458	-2.4562	-2.5229	-40.958	52.802	-79.389	158.274	139.900	188.419	197.001	-23.304	-61.718	30.580	197.063	126.053	162.987	204.622	179.908	-37.959	0.0011234	0.00044781	0.00010017	1393.4	5.4964e-06	2.2996e-06	1401.6	374.01	7.0832e-06	6.9846e-06	428.95	144.97	125.1	42.549	5.6645e-06	52.41	0.00057507	0.00051627	0.00014239	1416.7	5.7306e-06	5.5415e-06	1424	381.76	5.614e-06	5.3815e-06	437.93	147.62	127.79	43.746	5.5459e-06	54.082	8.134	-51.941	-52.036	-137.337	20.939	15.021	-137.487	-132.857	-28.839	-18.356	-133.157	-128.985	-128.716	-123.449	-2.736	-124.454	-8191	255	
28526.346	1	1	0	0	0.11291	0.20774	0.20864	0.35276	0.16599	0.17556	0.27559	0.27938	0.12213	0.081528	0.14329	0.087142	0.025016	0.11511	0.12979	0.033649	-1.7437	-2.65	-2.3792	-2.3542	-2.4958	-2.2146	-2.5229	-2.5083	-2.2667	-2.5771	-2.4437	-2.3438	-2.7729	-2.55	-2.6396	-2.6583	-36.060	-146.211	173.185	190.720	195.723	150.848	168.088	160.538	-61.203	-7.124	168.478	-35.104	47.966	199.214	-74.724	167.419	0.0011019	0.00047607	0.00016778	1390.1	8.218e-06	6.5826e-06	1399.6	374.51	1.372e-05	5.971e-06	428.55	145.16	125.37	42.498	5.5293e-06	52.409	0.00054958	0.00048663	0.0001383	1414.7	5.4806e-06	5.5117e-06	1424.6	381.91	5.5308e-06	5.4467e-06	437.35	147.91	127.91	43.778	5.4995e-06	54.017	10.229	-75.007	-43.393	-137.286	-25.096	-1.381	-137.515	-132.826	4.705	-7.889	-133.121	-128.932	-128.476	-123.790	-2.107	-124.559	-8191	255	
28526.443	1	1	0	0	0.25245	0.025104	0.32785	0.28666	0.31399	0.17279	0.28688	0.16476	0.20699	0.12117	0.11758	0.20468	0.045582	0.12304	0.18395	0.077623	-1.7833	-2.725	-2.2896	-2.2521	-2.6562	-2.2792	-2.3875	-2.6562	-2.3396	-2.5104	-2.5542	-2.3729	-2.6333	-2.3688	-2.3708	-2.6375	169.197	15.710	-75.001	124.537	-20.850	-39.782	146.360	44.501	-136.549	22.996	88.530	117.479	166.304	-93.345	134.557	113.905	0.001178	0.00058397	6.4922e-05	1392	5.9693e-06	3.268e-06	1400.8	376.36	8.9685e-06	5.0709e-06	430.3	144.21	125.32	42.529	7.3376e-06	52.256	0.00055845	0.00050364	0.00014029	1414.4	5.6356e-06	5.5413e-06	1425.9	382.54	5.4299e-06	5.5225e-06	437.36	147.67	127.97	43.784	5.5172e-06	54.019	8.681	-57.054	-68.520	-137.238	-18.399	-5.970	-137.584	-132.844	-8.742	12.113	-133.316	-129.055	-128.435	-123.949	-21.332	-124.554	-8191	255	
28526.539	1	1	0	0	0.46971	0.22809	0.26653	0.34587	0.27841	0.080633	0.2732	0.1448	0.028642	0.092611	0.16645	0.27795	0.30125	0.090115	0.32645	0.18471	-1.9021	-2.4354	-2.6125	-2.4688	-2.675	-2.6604	-2.65	-2.7125	-2.4	-2.3438	-2.6396	-2.4875	-2.6688	-2.5146	-2.3146	-2.7625	54.815	172.092	108.155	121.348	20.625	10.601	148.824	184.656	31.018	181.193	177.120	164.055	186.908	32.275	-95.261	134.603	0.0011125	0.00028192	0.00019269	1392.6	7.5897e-06	2.9917e-06	1399.7	374.85	1.2305e-05	6.364e-06	429.31	144.76	125.49	42.588	5.4319e-06	52.449	0.00055211	0.00047991	0.0001401	1413.6	5.3808e-06	5.4765e-06	1424	382.2	5.5504e-06	5.4593e-06	437.84	147.88	127.89	43.802	5.6534e-06	54.152	10.433	-57.809	-51.562	-137.110	-33.159	-34.313	-137.529	-132.607	-47.197	-32.381	-133.533	-128.931	-128.655	-123.874	0.830	-124.257	-8191	255	
28526.635	1	1	0	0	0.19939	0.35877	0.1054	0.39927	0.1513	0.19138	0.11537	0.11322	0.26812	0.36217	0.17787	0.12846	0.25414	0.30256	0.24368	0.11221	-1.7854	-2.4396	-2.6437	-2.7042	-2.5667	-2.5042	-2.4062	-2.85	-2.475	-2.2917	-2.6083	-2.3104	-2.6125	-2.4958	-2.2313	-2.8917	-51.812	180.477	83.933	181.056	-42.041	116.492	43.232	-128.911	112.486	178.145	164.518	101.679	165.287	-94.055	119.629	8.827	0.0012201	0.00051823	0.00015937	1395.8	6.3659e-06	5.3238e-06	1399	375.93	8.341e-06	7.0232e-06	429.35	144.53	125.32	42.67	8.7354e-06	52.562	0.0005526	0.00050889	0.00014119	1415	5.5604e-06	5.5986e-06	1422.7	381.89	5.5208e-06	5.4123e-06	437.78	147.75	127.82	43.81	5.5273e-06	54.059	9.811	-75.315	-91.017	-137.190	-20.036	-11.630	-137.434	-132.773	-13.921	2.103	-133.191	-129.103	-128.853	-123.670	-29.713	-124.619	-8191	255	
28526.756	1	1	0	0	0.18893	0.18471	0.18523	0.34589	0.075342	0.20914	0.10808	0.28828	0.35616	0.075008	0.30231	0.09277	0.37139	0.33892	0.15811	0.15203	-1.9792	-2.3292	-2.5062	-2.5583	-2.5708	-2.4646	-2.4896	-2.8625	-2.4729	-2.5	-2.7271	-2.5104	-2.5896	-2.5333	-2.3167	-2.7854	-27.412	-49.898	-74.755	200.406	40.894	117.168	129.478	-53.061	-95.469	-10.017	-135.636	-75.892	-139.493	47.321	-85.096	198.187	0.0011511	0.00041054	0.0001486	1393.5	9.0438e-06	3.1517e-06	1397.3	374.89	8.1949e-06	6.0174e-06	428.85	144.46	125.61	42.674	4.2016e-06	52.611	0.00054458	0.0005003	0.00014157	1415	5.4993e-06	5.4711e-06	1422.6	382.05	5.41e-06	5.4512e-06	437.32	147.71	128.19	43.831	5.4037e-06	54.137	8.531	-97.601	-70.869	-137.289	-1.681	19.409	-137.442	-132.826	9.448	23.381	-133.059	-129.167	-128.390	-123.765	-30.998	-124.565	-8191	255	
28526.852	1	1	0	0	0.06954	0.30724	0.12818	0.14537	0.18572	0.21587	0.35441	0.15825	0.23192	0.13309	0.065084	0.15367	0.13866	0.066165	0.14922	0.24528	-2.2062	-2.4479	-2.6771	-2.3833	-2.4625	-2.4667	-2.4479	-2.7208	-2.6021	-2.3292	-2.7479	-2.4958	-2.4646	-2.7792	-2.1708	-2.6708	93.281	106.036	149.385	195.964	64.794	-137.038	207.426	-129.103	131.141	-41.431	159.048	-141.031	-125.702	130.158	-87.724	160.083	0.0010514	0.00037252	0.00014817	1388.2	1.0028e-05	4.572e-06	1402.7	374.45	9.7887e-06	6.2375e-06	430.07	144.67	124.99	42.651	3.7668e-06	52.366	0.00053671	0.00049152	0.00013523	1411.2	5.4763e-06	5.4434e-06	1424.1	381.76	5.4225e-06	5.4509e-06	438.1	147.7	127.95	43.853	5.3551e-06	54.027	11.738	-70.415	-70.306	-137.289	-34.570	-15.257	-137.458	-132.689	-10.216	-22.643	-133.256	-128.891	-128.579	-123.789	-38.249	-124.344	-8191	255	
28526.947	1	1	0	0	0.25448	0.21174	0.25969	0.19356	0.13995	0.12448	0.21674	0.25899	0.13176	0.30869	0.23477	0.023967	0.24369	0.21766	0.36554	0.25932	-1.9771	-2.3292	-2.6229	-2.5167	-2.4375	-2.8271	-2.3729	-2.625	-2.6396	-2.2229	-2.6396	-2.4792	-2.4021	-2.65	-2.4125	-2.4792	-12.449	-115.996	138.146	176.827	100.548	53.475	-96.342	128.030	119.216	-35.107	125.231	69.029	-72.439	21.350	-40.128	103.905	0.0011344	0.00052059	0.00015556	1395.1	1.3904e-05	7.7325e-06	1398.4	374.76	1.2395e-05	6.2786e-06	428.61	144.72	125.87	42.58	6.6424e-06	52.425	0.00054283	0.00049926	0.00013622	1413.3	5.5821e-06	5.4463e-06	1422.9	381.4	5.351e-06	5.4732e-06	437.75	147.6	128.22	43.78	5.3677e-06	54.022	14.063	-54.134	-52.165	-137.056	-27.591	9.000	-137.574	-132.715	-41.126	4.765	-133.072	-129.017	-128.655	-123.691	0.787	-124.373	-8191	255	
28527.045	1	1	0	0	0.36492	0.36567	0.16189	0.39616	0.12189	0.11935	0.26668	0.15994	0.14302	0.045355	0.070104	0.16858	0.20695	0.1587	0.32812	0.14248	-2.025	-2.1729	-2.5333	-2.4833	-2.5083	-2.7646	-2.5312	-2.4792	-2.5042	-2.3083	-2.7771	-2.5375	-2.2958	-2.6813	-2.5687	-2.6188	-26.882	-106.769	-3.778	187.598	-37.539	-115.006	126.988	82.072	78.150	144.144	-4.185	81.467	195.408	52.484	14.567	53.123	0.0011678	0.00050404	0.00018948	1389.4	9.2543e-06	3.1169e-06	1399.8	375.2	1.0452e-05	5.0557e-06	428.69	145.08	125.98	42.81	7.9347e-06	52.62	0.0005532	0.0004898	0.00013831	1412.9	5.5882e-06	5.3041e-06	1423.7	382.04	5.3492e-06	5.3976e-06	437.27	147.79	128.34	43.955	5.3579e-06	54.209	13.930	-70.351	-47.340	-137.251	-27.341	2.945	-137.700	-132.692	-1.478	-13.838	-133.058	-129.149	-128.619	-123.740	-5.871	-124.492	-8191	255	
28527.141	1	1	0	0	0.089625	0.42987	0.15108	0.19097	0.16114	0.058693	0.18922	0.10314	0.17121	0.13237	0.10924	0.089471	0.13681	0.16489	0.17767	0.28935	-2.0563	-2.0812	-2.5271	-2.6688	-2.4	-2.6437	-2.5583	-2.5625	-2.7583	-2.3833	-2.6188	-2.6167	-2.2708	-2.8438	-2.5417	-2.7438	89.837	130.839	1.653	140.674	147.814	48.890	159.865	148.591	148.909	-79.277	68.412	90.263	163.970	67.099	46.231	70.613	0.0010773	0.00040585	0.00014756	1390.2	1.1619e-05	5.2017e-06	1399.7	376.27	9.8847e-06	4.8665e-06	428.52	145.6	125.36	42.685	5.2442e-06	52.854	0.00053223	0.00048707	0.00013593	1413	5.4476e-06	5.1954e-06	1424	381.97	5.2956e-06	5.4244e-06	437.7	148.08	128.2	43.871	5.326e-06	54.225	8.524	-89.765	-70.934	-137.358	-15.445	-29.564	-137.457	-132.545	3.933	4.748	-133.063	-129.019	-128.506	-123.570	-5.359	-124.508	-8191	255	
28527.234	1	1	0	0	0.084937	0.20859	0.17019	0.15881	0.35185	0.079003	0.18724	0.073235	0.11071	0.071545	0.08219	0.20553	0.075062	0.30335	0.19507	0.16654	-2.2667	-2.1958	-2.5167	-2.8187	-2.1604	-2.6229	-2.6063	-2.5125	-2.6542	-2.5563	-2.6354	-2.7271	-2.2417	-2.7812	-2.4813	-2.2917	-87.236	-147.810	35.774	184.213	-55.949	-70.531	108.948	-128.777	-8.994	151.653	-73.380	124.424	99.410	10.100	52.740	-148.714	0.0010946	0.00051703	0.00017269	1389.1	1.0072e-05	5.8662e-06	1399	374.34	9.4121e-06	5.9563e-06	428.77	144.79	126	42.709	3.5303e-06	52.217	0.00053076	0.00048956	0.00013648	1412.6	5.4086e-06	5.3167e-06	1423.1	381.72	5.3602e-06	5.2405e-06	438.19	148.27	128.23	43.812	5.374e-06	54.023	12.513	-70.686	-47.201	-137.221	-19.021	21.339	-137.581	-132.799	-10.826	-15.746	-133.200	-129.074	-128.487	-123.766	-37.707	-124.182	-8191	255	
28527.355	1	1	0	0	0.080971	0.30734	0.17486	0.2508	0.14897	0.29992	0.39274	0.2702	0.066873	0.22211	0.074892	0.073199	0.093318	0.17207	0.12281	0.13391	-2.0187	-2.1521	-2.5563	-2.8812	-2.0979	-2.6	-2.5417	-2.5563	-2.725	-2.3875	-2.4479	-2.7792	-2.2229	-2.7188	-2.7396	-2.2333	-145.277	16.961	38.358	-149.879	38.036	-139.821	158.317	161.943	16.606	-65.346	-51.759	128.430	58.118	-149.392	7.762	33.954	0.001131	0.00041662	0.0001287	1391.9	1.1336e-05	5.5312e-06	1404.1	375.35	8.1707e-06	6.145e-06	429.47	145.06	125.42	42.811	5.9882e-06	52.604	0.00052025	0.00049058	0.00013574	1412.5	5.338e-06	5.3113e-06	1424.2	382.35	5.3517e-06	5.3231e-06	437.91	147.91	128.03	43.931	5.259e-06	54.138	7.645	-57.318	-60.152	-137.264	-20.838	20.366	-137.593	-132.825	-17.715	15.423	-133.191	-129.021	-128.536	-123.571	-7.051	-124.541	-8191	255	
28527.451	1	1	0	0	0.21384	0.03958	0.14108	0.077961	0.011482	0.26405	0.36738	0.29583	0.15067	0.18182	0.13247	0.22084	0.22195	0.15312	0.13205	0.081532	-2.2167	-2.3937	-2.1417	-2.725	-2.4042	-2.4083	-2.7042	-2.3167	-2.5187	-2.3354	-2.4708	-2.4938	-2.2542	-2.5583	-2.5354	-2.3104	-86.607	-16.072	-37.790	-66.590	-82.986	-102.336	101.555	201.278	-80.497	34.883	-145.770	169.587	-106.829	158.258	17.322	-124.506	0.0011456	0.00034065	0.00018612	1391.5	8.1898e-06	7.6421e-06	1402.6	374.27	8.4246e-06	5.0369e-06	427.54	144.9	125.45	42.801	7.0109e-06	52.413	0.00052801	0.00047829	0.00013539	1412.1	5.3276e-06	5.4138e-06	1423.6	381.61	5.1732e-06	5.3678e-06	437.3	147.81	128.04	43.922	5.3312e-06	54.154	10.202	-75.135	-57.039	-137.281	-25.313	-5.765	-137.522	-132.844	-26.766	6.286	-133.076	-128.947	-128.443	-123.587	34.412	-124.376	-8191	255	
28527.547	1	1	0	0	0.097589	0.15937	0.15027	0.1	0.43181	0.16236	0.23399	0.29898	0.42962	0.21319	0.19664	0.12936	0.14586	0.11957	0.16366	0.10669	-2.1646	-2.3583	-2.2438	-2.8625	-2.2583	-2.5625	-2.575	-2.2708	-2.65	-2.5167	-2.4979	-2.8312	-2.1125	-2.5667	-2.525	-2.2792	-101.521	154.409	-73.469	160.046	65.138	111.519	125.945	101.696	-102.024	196.016	140.412	145.998	208.866	170.657	39.689	-69.176	0.0011001	0.00047198	0.00018352	1390.7	9.8749e-06	6.3057e-06	1394.1	374.79	7.0438e-06	6.3992e-06	429.65	145.03	125.86	42.682	5.4356e-06	52.603	0.00052696	0.00048639	0.00013689	1412.2	5.4261e-06	5.1413e-06	1421.7	381.79	5.3737e-06	5.3233e-06	437.37	147.94	127.96	43.869	5.3475e-06	54.035	10.682	-73.075	-55.920	-137.230	-19.636	-29.312	-137.462	-132.733	-19.314	-25.990	-132.941	-128.889	-128.725	-123.749	-3.788	-124.420	-8191	255	
28527.645	1	1	0	0	0.084255	0.18228	0.14314	0.085608	0.12015	0.30521	0.29968	0.12485	0.082022	0.080602	0.050095	0.017068	0.11708	0.26879	0.14423	0.27752	-2.1583	-2.4833	-2.4229	-2.7729	-2.3458	-2.4958	-2.9583	-2.4313	-2.5021	-2.4667	-2.3688	-2.6271	-2.4271	-2.3333	-2.5417	-2.3458	-138.549	137.167	-69.816	-139.813	29.010	31.131	133.658	24.514	201.196	152.595	142.105	-138.817	-116.524	-122.953	-5.768	116.477	0.0010647	0.00053533	0.00013966	1390.3	1.0466e-05	4.1318e-06	1400.4	375.12	4.7023e-06	5.9095e-06	426.88	144.93	125.84	42.631	4.6244e-06	52.25	0.00052713	0.00048779	0.00013428	1411	5.2767e-06	5.2522e-06	1421.9	381.71	5.3165e-06	5.1785e-06	436.54	147.81	128.24	43.822	5.2919e-06	53.968	9.798	-95.968	-58.410	-137.303	-35.888	14.171	-137.516	-132.936	-18.683	-3.418	-133.212	-129.151	-128.416	-123.474	-22.894	-124.337	-8191	255	
28527.715	1	1	0	0	0.18053	0.1095	0.17697	0.26284	0.061402	0.078849	0.30548	0.048989	0.12399	0.078377	0.21867	0.25305	0.23624	0.12993	0.14494	0.10158	-1.9771	-2.3417	-2.2104	-2.675	-2.3167	-2.475	-2.7771	-2.4604	-2.6583	-2.6146	-2.35	-2.8333	-2.6208	-2.5292	-2.7479	-2.3438	128.596	122.095	-122.817	156.925	83.704	1.275	158.077	-47.506	74.362	74.285	135.246	129.278	176.111	195.056	-121.952	155.180	0.0010052	0.00055342	0.00022884	1387.4	5.911e-06	4.0848e-06	1399.5	375.3	6.7979e-06	4.3241e-06	427.56	144.95	125.52	42.489	7.0669e-06	52.301	0.00053251	0.00048342	0.00013526	1412	5.3757e-06	5.4052e-06	1423.5	381.65	5.3734e-06	5.3035e-06	436.74	147.94	127.91	43.754	5.4397e-06	53.978	6.410	-75.319	-54.398	-137.283	-34.006	5.519	-137.455	-132.855	16.183	54.098	-133.142	-129.112	-128.304	-123.822	-10.102	-124.571	-8191	255	
28527.836	1	1	0	0	0.18133	0.2106	0.089001	0.028398	0.16081	0.16965	0.36508	0.12179	0.18302	0.13867	0.4373	0.094419	0.22819	0.2053	0.15988	0.11045	-2.0208	-2.4729	-2.2729	-2.8583	-2.3271	-2.2062	-2.8896	-2.3	-2.5938	-2.6396	-2.2292	-2.6021	-2.4729	-2.2562	-2.7167	-2.3896	-112.197	88.775	169.494	123.200	-95.575	152.419	121.421	-134.046	33.477	107.058	144.875	-13.919	172.944	-116.718	-1.246	98.524	0.0010177	0.00021583	6.8147e-05	1388.1	5.0465e-06	5.3718e-06	1401.1	374.36	1.0633e-05	7.7549e-06	428.44	144.83	125.08	42.571	5.6563e-06	52.363	0.00054888	0.00050107	0.00013877	1412	5.5472e-06	5.4907e-06	1422.2	381.78	5.4123e-06	5.3566e-06	437.88	147.97	127.95	43.856	5.4151e-06	54.011	11.284	-74.264	-69.555	-137.070	-33.255	-39.575	-137.483	-132.833	-13.735	6.296	-133.071	-129.079	-128.390	-123.503	-23.413	-124.554	-8191	255	
28527.932	1	1	0	0	0.17539	0.18163	0.053167	0.081706	0.24564	0.27155	0.18704	0.21773	0.075535	0.19132	0.12088	0.25348	0.13533	0.2558	0.27191	0.26346	-2.0625	-2.4833	-2.125	-2.7625	-2.6646	-2.225	-2.8146	-2.4625	-2.4062	-2.6896	-2.0979	-2.6375	-2.575	-2.3333	-2.5083	-2.4646	203.408	201.291	-3.265	-90.837	-15.948	162.642	128.122	151.985	53.658	166.513	19.111	20.711	-29.687	107.325	55.067	-140.456	0.0010378	0.00042912	0.00020686	1390.7	1.2528e-05	3.9804e-06	1397.6	373.68	6.2106e-06	5.5463e-06	429.95	144.39	124.95	42.617	4.0982e-06	52.374	0.00053814	0.00048317	0.00013688	1412.8	5.4104e-06	5.3694e-06	1421.7	381.68	5.3627e-06	5.1866e-06	437.05	147.83	127.66	43.826	5.3755e-06	54.042	15.563	-67.576	-50.738	-137.292	-8.287	-7.198	-137.373	-132.677	-30.290	-45.641	-133.111	-129.063	-128.614	-123.377	-29.111	-124.385	-8191	255	
28528.027	1	1	0	0	0.23618	0.20589	0.04821	0.37082	0.12281	0.13638	0.29641	0.23765	0.071607	0.09539	0.2303	0.22681	0.21949	0.27335	0.12602	0.27186	-1.9	-2.5833	-2.0646	-2.6396	-2.4792	-2.25	-2.8271	-2.6604	-2.2917	-2.7438	-2.3688	-2.6063	-2.6208	-2.3625	-2.6188	-2.5875	-30.421	147.288	64.815	185.003	158.948	-15.793	105.285	127.070	199.134	-124.569	151.928	126.171	109.840	173.811	16.146	66.650	0.0011366	0.00049419	0.00013453	1386.4	6.9693e-06	4.1198e-06	1401.1	373.16	6.4825e-06	4.3244e-06	431.13	144.98	124.99	42.488	6.5635e-06	52.407	0.00053587	0.00048286	0.00013567	1411.8	5.3836e-06	5.3382e-06	1423.9	381.44	5.3801e-06	5.2381e-06	438.44	148.01	127.98	43.751	5.2251e-06	54.036	12.629	-53.719	-39.261	-137.324	-18.344	-2.368	-137.681	-132.936	-35.667	-28.445	-133.254	-129.036	-128.276	-123.723	-22.501	-124.412	-8191	255	
28528.123	1	1	0	0	0.05772	0.15991	0.17185	0.30871	0.22549	0.27025	0.12969	0.21055	0.12112	0.15183	0.065804	0.25074	0.1856	0.1513	0.081077	0.24869	-1.875	-2.5458	-2.6042	-2.6979	-2.4646	-2.0938	-2.6521	-2.4521	-2.3688	-2.7646	-2.4583	-2.5208	-2.7292	-2.3708	-2.6667	-2.7125	85.868	76.077	-37.465	158.527	-69.695	34.933	-73.426	127.975	200.314	-29.014	203.092	-115.946	153.292	56.022	104.613	-102.886	0.0011488	0.00036561	0.00015992	1388.5	9.2606e-06	5.6063e-06	1402.3	373.46	9.8164e-06	3.6957e-06	429.93	145.29	125.77	42.647	4.5712e-06	52.671	0.00054017	0.00048467	0.00013933	1411.5	5.3917e-06	5.2782e-06	1423	381.58	5.3589e-06	5.1249e-06	436.99	148.19	128.23	43.856	5.1668e-06	54.248	11.463	-29.514	-53.212	-137.064	-7.909	1.765	-137.717	-132.774	-22.057	0.006	-133.125	-128.889	-128.560	-124.038	-23.786	-124.435	-8191	255	
28528.242	1	1	0	0	0.2848	0.22369	0.26208	0.13334	0.2954	0.29035	0.16868	0.22762	0.10924	0.1723	0.12452	0.10899	0.095516	0.26854	0.14	0.050446	-1.8875	-2.6292	-2.5375	-2.4875	-2.7979	-2.4354	-2.6604	-2.7271	-2.3438	-2.5604	-2.575	-2.3208	-2.7375	-2.3229	-2.3854	-2.8083	70.714	117.601	122.322	148.888	9.232	-12.626	-147.524	183.402	59.280	16.768	-117.955	139.486	-16.390	-45.049	19.573	-121.229	0.0011586	0.00044663	0.00025096	1389.2	8.9771e-06	3.2175e-06	1398.8	374.18	8.4283e-06	3.4216e-06	427.89	144.78	126.04	42.772	6.683e-06	52.581	0.00053931	0.00046162	0.00013187	1412.8	5.1285e-06	5.2524e-06	1421.5	382.02	5.1528e-06	5.0654e-06	437.39	147.95	128.41	43.959	5.072e-06	54.164	10.331	-77.906	-54.999	-137.259	-32.618	18.754	-137.559	-132.681	-23.642	4.933	-133.335	-129.038	-128.523	-123.854	10.603	-124.453	-8191	255	
28528.340	1	1	0	0	0.13783	0.3064	0.10064	0.2112	0.11083	0.23979	0.15092	0.4307	0.13422	0.15413	0.029164	0.25234	0.24946	0.27605	0.038464	0.2561	-1.7333	-2.7458	-2.3521	-2.4396	-2.7146	-2.2604	-2.6063	-2.6604	-2.0062	-2.6375	-2.4333	-2.3042	-2.7542	-2.4479	-2.2313	-2.6375	121.483	-16.370	194.691	158.289	125.095	54.255	-109.568	180.344	82.524	-32.550	24.248	183.538	195.102	197.955	208.222	149.276	0.0011557	0.00045539	4.3641e-05	1390.8	8.6027e-06	3.5127e-06	1400	374.72	8.4076e-06	5.5515e-06	427.84	145.41	125.94	42.873	6.1464e-06	52.641	0.00051376	0.00046181	0.00013345	1411.9	5.1328e-06	5.013e-06	1422.9	381.67	5.1244e-06	5.0531e-06	437.04	148.41	128.51	43.977	5.1404e-06	54.331	11.153	-90.359	-76.911	-137.182	-22.436	-28.813	-137.602	-132.943	-7.226	17.806	-133.146	-129.077	-128.419	-123.733	6.087	-124.426	-8191	255	
28528.436	1	1	0	0	0.128	0.29765	0.17317	0.10699	0.13674	0.060205	0.20265	0.15693	0.27969	0.18117	0.070965	0.13218	0.2185	0.15966	0.23775	0.33618	-1.7896	-2.4292	-2.2938	-2.5396	-2.6479	-2.3146	-2.4896	-2.7833	-2.1792	-2.5292	-2.5729	-2.2354	-2.6083	-2.5417	-2.2208	-2.6937	-113.325	-135.888	138.125	153.135	157.365	50.491	164.249	145.630	-107.042	67.936	30.705	178.494	186.582	-68.404	41.207	-104.074	0.0011419	0.00037306	0.00015331	1391.3	5.7042e-06	7.1157e-06	1400.7	376.68	5.4556e-06	5.607e-06	430.87	144.41	126.08	42.867	6.5077e-06	52.445	0.00051647	0.00044706	0.00012704	1411.6	5.0497e-06	5.0128e-06	1421.9	382.35	5.0256e-06	4.9841e-06	437.01	148.13	128.46	44.001	5.099e-06	54.291	11.676	-86.634	-62.687	-137.161	-19.855	-7.334	-137.496	-132.696	-1.539	-0.014	-133.121	-129.103	-128.405	-123.688	-11.313	-124.473	-8191	255	
28528.531	1	1	0	0	0.24288	0.43218	0.055783	0.091592	0.20703	0.21533	0.28607	0.2079	0.15812	0.1651	0.1068	0.1292	0.19616	0.13856	0.24883	0.075875	-1.7229	-2.4167	-2.5812	-2.3625	-2.4562	-2.3854	-2.2229	-2.9521	-2.2396	-2.4771	-2.5812	-2.4771	-2.7313	-2.4938	-2.1	-2.7667	-144.263	-83.481	-69.456	145.952	117.689	-65.048	172.438	-138.946	173.644	39.043	-136.690	91.072	61.633	35.421	-79.214	-122.885	0.0011151	0.00029279	0.00021459	1389.6	7.8345e-06	4.9822e-06	1398.8	375.06	1.2688e-05	6.0488e-06	428.62	145.46	126.24	42.776	6.8299e-06	52.96	0.00050984	0.00044677	0.00012401	1409.6	4.918e-06	4.9047e-06	1422.7	381.85	5.0072e-06	4.9131e-06	436.62	148.29	128.68	44.089	4.9871e-06	54.373	8.661	-90.163	-50.788	-137.121	-18.884	-19.631	-137.377	-132.886	-9.694	0.718	-133.139	-129.002	-128.331	-123.927	6.064	-124.484	-8191	255	
28528.629	1	1	0	0	0.10301	0.26723	0.098491	0.25382	0.10507	0.072954	0.12396	0.026847	0.10061	0.15336	0.040613	0.20043	0.17019	0.18672	0.19821	0.17352	-1.9208	-2.5042	-2.6437	-2.3688	-2.3583	-2.525	-2.3563	-2.625	-2.2729	-2.4146	-2.8042	-2.5125	-2.5625	-2.6437	-2.3917	-2.6917	19.908	142.007	-34.595	140.665	-84.781	121.011	208.814	18.376	-63.502	100.264	-123.273	167.340	186.810	129.827	-74.707	-130.964	0.0011642	0.00036835	0.00012025	1386.6	8.4747e-06	6.0982e-06	1397.8	374.73	1.4829e-05	6.321e-06	428.3	144.84	126.07	42.988	8.0886e-06	52.398	0.00051378	0.0004517	0.00012361	1411.4	4.9532e-06	4.9429e-06	1422.9	381.8	5.105e-06	4.9126e-06	437.24	148.04	128.55	44.129	5.0262e-06	54.283	9.984	-87.212	-52.338	-137.222	10.520	-22.394	-137.447	-132.693	-9.407	4.617	-133.119	-129.176	-128.351	-123.896	-3.878	-124.392	-8191	255	
28528.725	1	1	0	0	0.12918	0.23397	0.28394	0.34635	0.085691	0.1584	0.18405	0.2317	0.050534	0.15056	0.24576	0.12962	0.42405	0.32145	0.14904	0.2155	-1.8125	-2.3271	-2.5542	-2.5833	-2.4875	-2.5438	-2.3833	-2.8125	-2.5396	-2.475	-2.7646	-2.3833	-2.6146	-2.5083	-2.2396	-2.6729	74.909	-80.319	140.309	178.781	-47.222	-129.202	185.818	69.754	207.208	-46.552	187.298	178.941	-123.538	-125.101	202.031	124.307	0.0011955	0.0003459	0.00020485	1386.3	6.2624e-06	6.8444e-06	1398.3	375.5	8.9763e-06	3.9222e-06	429.91	144.77	125.48	42.906	5.4657e-06	52.798	0.00051635	0.00044157	0.00012403	1410.7	5.0173e-06	4.9041e-06	1421.8	381.62	4.8752e-06	4.9276e-06	437.28	148.27	128.44	44.051	4.9912e-06	54.376	11.059	-53.410	-66.358	-137.159	-23.931	7.993	-137.465	-133.007	-1.478	-26.332	-133.054	-128.834	-128.233	-123.818	-0.611	-124.547	-8191	255	
28528.846	1	1	0	0	0.15859	0.14901	0.23849	0.46659	0.29899	0.38827	0.015271	0.038062	0.076486	0.14148	0.34544	0.020576	0.11116	0.011203	0.25694	0.057704	-1.9771	-2.3979	-2.5938	-2.5125	-2.5021	-2.6604	-2.3312	-2.7188	-2.5083	-2.2188	-2.5479	-2.4583	-2.4896	-2.7062	-2.2854	-2.6688	-147.003	99.503	-13.923	178.736	156.227	-1.484	149.455	54.608	-131.403	-140.173	191.324	-47.195	46.687	-108.920	90.964	130.641	0.0011383	0.00043318	0.00018675	1390.2	7.6088e-06	6.903e-06	1401.1	376.28	1.1081e-05	6.9788e-06	428.93	144.59	126.32	42.994	2.9321e-06	52.66	0.00049606	0.00044116	0.00012157	1410.9	5.013e-06	4.8245e-06	1422.6	382.35	4.9722e-06	4.7884e-06	436.73	148.17	128.73	44.102	5.0166e-06	54.279	11.235	-52.419	-71.417	-137.337	-27.969	-13.750	-137.691	-132.870	-8.254	0.968	-133.171	-129.285	-128.428	-123.619	-16.327	-124.423	-8191	255	
28528.941	1	1	0	0	0.070408	0.093171	0.33598	0.28525	0.24956	0.15651	0.306	0.068518	0.067894	0.23757	0.14295	0.22166	0.14667	0.21958	0.070239	0.077957	-2.0667	-2.2438	-2.5687	-2.75	-2.5146	-2.7729	-2.2417	-2.725	-2.5958	-2.4458	-2.7167	-2.4667	-2.2812	-2.8167	-2.2667	-2.6437	-101.604	168.257	104.576	-150.369	123.520	46.132	137.141	74.286	-63.599	85.434	64.114	193.229	-103.130	-48.497	152.513	53.302	0.0011253	0.00057295	0.00017348	1387.1	7.1792e-06	5.0906e-06	1400.6	374.87	8.1074e-06	8.4538e-06	426.43	144.59	125.35	42.696	3.6471e-06	52.682	0.0005038	0.00044394	0.00012207	1410.3	5.0229e-06	4.8546e-06	1420.1	381.71	5.0297e-06	4.9683e-06	436.25	148.19	128.4	43.932	5.0945e-06	54.286	11.775	-90.856	-62.153	-137.281	-34.374	32.929	-137.432	-132.760	-23.720	6.115	-133.399	-128.940	-128.566	-123.502	20.046	-124.676	-8191	255	
#DATA ENDS
