BOXY.EXE: ISS Imagent and Oximeter Data Acquisition Program Version 0.80
Ascii Record File

#ACQ INFORMATION
2  Detector Channels 
16  External MUX Channels 
1  Auxiliary Channels 
5000  Waveform (CCF) Frequency (Hz)
1  Waveforms Skipped 
30  Waveforms Averaged 
1  Cycles Averaged 
16  Acquisitions per Waveform 
10.0806  Updata Rate (Hz) 

#FILE INFORMATION
TRUE -- External MUX Channel results are PARSED.
FALSE -- AC DC and Phase are NOT grouped.
TRUE -- Companion Program Settings File CREATED.
FALSE -- AC data not excluded
FALSE -- DC data not excluded
FALSE -- Phase data not excluded
FALSE -- Auxillary Chn. data not excluded
Tab delimiters

#CALIBRATION STATE
TRUE -- Waveform Calibration Values APPLIED.


#AUX CALIBRATION VALUES
Val Type	aux-1	

Term	1.0000e+00	
Factor	0.0000e+00	


#WF CALIBRATION VALUES
A = Detector Channel
Val Type	A-AC1	A-AC2	A-AC3	A-AC4	A-AC5	A-AC6	A-AC7	A-AC8	A-AC9	A-AC10	A-AC11	A-AC12	A-AC13	A-AC14	A-AC15	A-AC16	A-DC1	A-DC2	A-DC3	A-DC4	A-DC5	A-DC6	A-DC7	A-DC8	A-DC9	A-DC10	A-DC11	A-DC12	A-DC13	A-DC14	A-DC15	A-DC16	A-Ph1	A-Ph2	A-Ph3	A-Ph4	A-Ph5	A-Ph6	A-Ph7	A-Ph8	A-Ph9	A-Ph10	A-Ph11	A-Ph12	A-Ph13	A-Ph14	A-Ph15	A-Ph16	

Term	0.00000e+00	0.00000e+00	0.00000e+00	0.00000e+00	0.00000e+00	0.00000e+00	0.00000e+00	0.00000e+00	0.00000e+00	0.00000e+00	0.00000e+00	0.00000e+00	0.00000e+00	0.00000e+00	0.00000e+00	0.00000e+00	0.00000e+00	0.00000e+00	0.00000e+00	0.00000e+00	0.00000e+00	0.00000e+00	0.00000e+00	0.00000e+00	0.00000e+00	0.00000e+00	0.00000e+00	0.00000e+00	0.00000e+00	0.00000e+00	0.00000e+00	0.00000e+00	0.00000e+00	0.00000e+00	0.00000e+00	0.00000e+00	0.00000e+00	0.00000e+00	0.00000e+00	0.00000e+00	0.00000e+00	0.00000e+00	0.00000e+00	0.00000e+00	0.00000e+00	0.00000e+00	0.00000e+00	0.00000e+00	
Factor	1.00000e+00	1.00000e+00	1.00000e+00	1.00000e+00	1.00000e+00	1.00000e+00	1.00000e+00	1.00000e+00	1.00000e+00	1.00000e+00	1.00000e+00	1.00000e+00	1.00000e+00	1.00000e+00	1.00000e+00	1.00000e+00	1.00000e+00	1.00000e+00	1.00000e+00	1.00000e+00	1.00000e+00	1.00000e+00	1.00000e+00	1.00000e+00	1.00000e+00	1.00000e+00	1.00000e+00	1.00000e+00	1.00000e+00	1.00000e+00	1.00000e+00	1.00000e+00	X	X	X	X	X	X	X	X	X	X	X	X	X	X	X	X	

B = Detector Channel
Val Type	B-AC1	B-AC2	B-AC3	B-AC4	B-AC5	B-AC6	B-AC7	B-AC8	B-AC9	B-AC10	B-AC11	B-AC12	B-AC13	B-AC14	B-AC15	B-AC16	B-DC1	B-DC2	B-DC3	B-DC4	B-DC5	B-DC6	B-DC7	B-DC8	B-DC9	B-DC10	B-DC11	B-DC12	B-DC13	B-DC14	B-DC15	B-DC16	B-Ph1	B-Ph2	B-Ph3	B-Ph4	B-Ph5	B-Ph6	B-Ph7	B-Ph8	B-Ph9	B-Ph10	B-Ph11	B-Ph12	B-Ph13	B-Ph14	B-Ph15	B-Ph16	

Term	0.00000e+00	0.00000e+00	0.00000e+00	0.00000e+00	0.00000e+00	0.00000e+00	0.00000e+00	0.00000e+00	0.00000e+00	0.00000e+00	0.00000e+00	0.00000e+00	0.00000e+00	0.00000e+00	0.00000e+00	0.00000e+00	0.00000e+00	0.00000e+00	0.00000e+00	0.00000e+00	0.00000e+00	0.00000e+00	0.00000e+00	0.00000e+00	0.00000e+00	0.00000e+00	0.00000e+00	0.00000e+00	0.00000e+00	0.00000e+00	0.00000e+00	0.00000e+00	-1.64124e+02	-1.34331e+02	-1.17949e+02	-1.82253e+02	-7.52879e+01	-6.26450e+01	-1.59673e+02	-1.62015e+02	-8.49910e+01	-7.28985e+01	-1.73437e+02	-1.73160e+02	-1.87935e+02	-1.78155e+02	-8.18410e+01	-1.50763e+02	
Factor	2.74309e-05	2.13387e-04	5.50513e-05	1.62759e-01	1.60481e-06	1.83435e-06	1.95155e-01	6.40897e-02	1.52885e-06	1.60519e-06	1.16290e-01	3.27102e-02	3.94705e-02	9.72176e-03	1.66134e-06	1.39751e-02	3.49212e-06	3.85682e-06	1.07645e-06	8.19710e-02	4.17040e-08	4.23842e-08	9.17160e-02	3.23082e-02	4.18294e-08	4.23276e-08	5.66427e-02	1.59731e-02	1.97584e-02	4.92990e-03	4.20100e-08	6.86893e-03	X	X	X	X	X	X	X	X	X	X	X	X	X	X	X	X	



#DISTANCE SETTINGS
A = Detector Channel
A-1	A-2	A-3	A-4	A-5	A-6	A-7	A-8	A-9	A-10	A-11	A-12	A-13	A-14	A-15	A-16	

2.5000e+00	3.0000e+00	2.5000e+00	3.0000e+00	2.0000e+00	3.0000e+00	1.5000e+00	3.0000e+00	3.0000e+00	3.0000e+00	3.0000e+00	3.0000e+00	3.0000e+00	3.0000e+00	1.5000e+00	3.0000e+00	

B = Detector Channel
B-1	B-2	B-3	B-4	B-5	B-6	B-7	B-8	B-9	B-10	B-11	B-12	B-13	B-14	B-15	B-16	

1.0000e+01	1.0000e+01	1.0000e+01	1.4400e+00	1.0000e+01	1.0000e+01	1.5100e+00	1.9400e+00	1.0000e+01	1.0000e+01	1.9900e+00	2.4900e+00	2.4100e+00	2.9000e+00	1.0000e+01	2.9800e+00	




#DATA BEGINS
time	group	step	mark	flag	A-AC1	A-AC2	A-AC3	A-AC4	A-AC5	A-AC6	A-AC7	A-AC8	A-AC9	A-AC10	A-AC11	A-AC12	A-AC13	A-AC14	A-AC15	A-AC16	A-DC1	A-DC2	A-DC3	A-DC4	A-DC5	A-DC6	A-DC7	A-DC8	A-DC9	A-DC10	A-DC11	A-DC12	A-DC13	A-DC14	A-DC15	A-DC16	A-Ph1	A-Ph2	A-Ph3	A-Ph4	A-Ph5	A-Ph6	A-Ph7	A-Ph8	A-Ph9	A-Ph10	A-Ph11	A-Ph12	A-Ph13	A-Ph14	A-Ph15	A-Ph16	B-AC1	B-AC2	B-AC3	B-AC4	B-AC5	B-AC6	B-AC7	B-AC8	B-AC9	B-AC10	B-AC11	B-AC12	B-AC13	B-AC14	B-AC15	B-AC16	B-DC1	B-DC2	B-DC3	B-DC4	B-DC5	B-DC6	B-DC7	B-DC8	B-DC9	B-DC10	B-DC11	B-DC12	B-DC13	B-DC14	B-DC15	B-DC16	B-Ph1	B-Ph2	B-Ph3	B-Ph4	B-Ph5	B-Ph6	B-Ph7	B-Ph8	B-Ph9	B-Ph10	B-Ph11	B-Ph12	B-Ph13	B-Ph14	B-Ph15	B-Ph16	aux-1	digaux	

22442.600	1	1	0	256	0.16038	0.17319	0.15881	0.27842	0.23768	0.081156	0.073551	0.20504	0.12522	0.1421	0.17977	0.21055	0.24405	0.080062	0.10986	0.15249	-1.8333	-2.7042	-2.3187	-2.3958	-2.7292	-2.2604	-2.6604	-2.6625	-2.4333	-2.6354	-2.3375	-2.475	-2.6271	-2.2167	-2.4938	-2.5792	367.448	191.780	172.774	437.096	403.641	248.008	304.846	413.981	486.905	208.016	300.969	219.310	147.819	304.691	235.277	309.425	0.00019257	0.00010545	2.4079e-05	295.59	4.2664e-07	3.6457e-07	221.93	108.07	1.0847e-06	9.672e-07	83.958	31.527	42.383	16.31	1.0788e-06	12.492	0.00015076	0.00014268	4.019e-05	332.54	1.5967e-06	1.5883e-06	249.53	121.97	1.6054e-06	1.536e-06	94.389	35.619	47.726	18.614	1.5665e-06	14.245	148.382	190.134	165.866	155.852	259.922	223.186	153.280	160.959	267.356	315.771	158.015	162.395	165.460	171.436	248.415	166.872	-8191	255	
22442.695	1	1	0	0	0.25829	0.20069	0.27647	0.1249	0.095228	0.061714	0.15688	0.13242	0.054323	0.12224	0.15801	0.039496	0.13596	0.086027	0.30415	0.08405	-1.75	-2.6458	-2.4125	-2.375	-2.6875	-2.3312	-2.3292	-2.5375	-2.1188	-2.7062	-2.2896	-2.3354	-2.6188	-2.1771	-2.3	-2.6688	159.814	180.739	278.421	218.831	433.965	244.691	235.369	488.477	465.996	295.321	277.987	191.100	273.505	307.841	400.611	323.927	0.00020263	0.00010038	6.7209e-05	292.87	5.8285e-07	1.9665e-06	217.64	106.58	2.0587e-06	1.7407e-06	81.211	31.029	42.116	16.259	1.036e-06	12.275	0.00015023	0.00013923	3.9488e-05	329.53	1.5331e-06	1.5458e-06	243.31	120.26	1.5484e-06	1.5335e-06	91.701	35.002	47.243	18.469	1.5581e-06	14.08	153.779	486.151	217.668	155.880	189.842	291.821	153.495	161.196	302.203	295.913	157.760	161.879	165.722	171.430	238.725	166.871	-8191	255	
22442.793	1	1	0	0	0.059314	0.30497	0.11361	0.03867	0.08932	0.31123	0.19	0.17528	0.28983	0.10588	0.36723	0.10481	0.11537	0.18814	0.10836	0.10861	-1.8354	-2.575	-2.55	-2.2896	-2.5125	-2.3375	-2.4104	-2.6104	-2.1188	-2.6188	-2.4667	-2.1937	-2.6729	-2.025	-2.4875	-2.6458	396.029	183.093	323.980	333.514	339.700	455.590	461.451	444.093	184.399	496.312	270.437	402.667	165.032	252.267	243.417	433.838	0.00022	8.9369e-05	2.313e-05	289.32	1.0396e-06	1.0584e-06	216.84	106.28	2.3183e-06	1.4702e-06	82.464	31.346	41.978	16.318	3.6622e-07	12.551	0.00014713	0.00013832	3.9062e-05	325.94	1.5218e-06	1.5302e-06	242.91	120.04	1.5734e-06	1.5094e-06	92.562	35.393	47.339	18.575	1.5564e-06	14.302	154.606	176.210	159.572	155.839	261.691	321.404	153.657	161.127	271.551	178.825	157.839	162.155	165.479	171.523	251.853	166.914	-8191	255	
22442.912	1	1	0	0	0.052081	0.06223	0.12284	0.36461	0.074787	0.1574	0.17166	0.44031	0.23478	0.040554	0.15547	0.21768	0.15873	0.17426	0.087515	0.13787	-1.7042	-2.3937	-2.5187	-2.0917	-2.5312	-2.3729	-2.5375	-2.4292	-1.9937	-2.6396	-2.3042	-2.2417	-2.5938	-2.4792	-2.3458	-2.7625	218.270	148.689	219.459	332.729	412.581	262.006	330.212	143.819	308.246	438.276	237.747	188.064	449.347	326.492	220.387	190.276	0.00022434	0.00019817	5.9612e-05	292.13	1.523e-06	9.3528e-07	218.99	107.03	1.6061e-06	7.8924e-07	83.24	31.759	42.445	16.445	8.3316e-07	12.78	0.00014852	0.00013821	3.8956e-05	327.98	1.5298e-06	1.5528e-06	245.91	120.92	1.5664e-06	1.5351e-06	93.73	35.722	47.591	18.704	1.5889e-06	14.495	154.528	219.462	211.570	155.873	286.318	322.908	153.494	161.193	262.356	262.366	157.457	162.668	165.553	171.291	275.164	166.917	-8191	255	
22443.008	1	1	0	0	0.24979	0.37482	0.16703	0.11018	0.14825	0.13711	0.2513	0.26947	0.14576	0.031839	0.29833	0.045633	0.16758	0.19812	0.13828	0.14958	-1.7354	-2.4333	-2.4125	-2.4167	-2.6125	-2.3833	-2.2729	-2.5917	-2.2562	-2.4042	-2.7979	-1.9792	-2.7812	-2.4458	-2.2979	-2.7125	213.233	287.658	469.604	470.164	459.910	311.906	402.472	369.750	287.744	469.138	497.179	500.636	306.706	366.175	196.649	405.276	0.0002191	0.00014628	4.993e-05	293.42	1.1554e-06	1.619e-06	220	107.35	1.2938e-06	2.0533e-06	83.715	31.952	42.284	16.545	1.6952e-06	12.829	0.0001506	0.00014308	3.938e-05	329.53	1.581e-06	1.5447e-06	248.35	121.41	1.5513e-06	1.5317e-06	94.872	36.151	47.784	18.854	1.581e-06	14.731	150.784	258.076	263.366	155.883	199.357	318.887	153.517	161.130	265.125	320.014	157.830	162.187	165.541	171.481	271.238	166.898	-8191	255	
22443.105	1	1	0	0	0.11875	0.059947	0.14873	0.14807	0.1028	0.13805	0.21255	0.27743	0.13692	0.14984	0.14031	0.15339	0.20944	0.14534	0.14654	0.088902	-1.9458	-2.2521	-2.65	-2.3833	-2.6292	-2.4646	-2.4375	-2.8396	-2.2812	-2.3563	-2.7438	-2.3125	-2.7271	-2.5708	-2.3812	-2.7146	252.459	181.812	173.109	334.966	417.468	366.498	428.653	168.892	498.464	169.406	420.852	218.684	387.932	370.233	339.868	288.460	0.00022198	8.5287e-05	3.1052e-05	295.04	1.1613e-06	2.476e-06	222.45	108.67	1.3003e-06	2.0841e-06	84.903	32.099	42.739	16.643	1.9772e-06	12.846	0.00015014	0.00014235	3.8512e-05	332.32	1.5555e-06	1.5462e-06	251.56	122.42	1.5784e-06	1.5393e-06	95.478	36.238	48.157	18.987	1.5397e-06	14.682	150.249	240.434	226.245	155.948	300.767	298.026	153.645	161.276	203.927	305.265	157.554	162.240	165.482	171.479	267.281	166.937	-8191	255	
22443.201	1	1	0	0	0.17498	0.26263	0.11201	0.10144	0.16529	0.1775	0.10768	0.094022	0.17931	0.19522	0.11464	0.14346	0.067464	0.024573	0.286	0.17151	-1.9625	-2.2938	-2.6208	-2.1792	-2.6417	-2.4771	-2.2062	-2.5646	-2.3958	-2.4021	-2.7979	-2.2625	-2.5187	-2.5896	-2.2229	-2.5875	254.780	168.327	373.531	418.754	447.530	382.677	225.283	462.703	275.252	350.971	470.586	371.378	305.343	306.303	304.566	250.410	0.00022376	0.00025347	1.3174e-05	294.62	5.7642e-07	2.1238e-06	220.01	108.42	6.5871e-07	1.3792e-06	84.345	31.945	42.796	16.661	1.9436e-06	12.831	0.00014735	0.00014086	3.818e-05	331.43	1.5429e-06	1.5082e-06	247.36	122.27	1.5551e-06	1.5471e-06	95.076	36.066	48.2	19.039	1.5763e-06	14.641	150.762	281.726	311.517	155.473	380.431	285.376	153.286	160.949	249.170	261.842	158.143	162.608	165.614	171.496	240.467	167.065	-8191	255	
22443.295	1	1	0	0	0.18756	0.15467	0.2384	0.24722	0.095047	0.16952	0.27779	0.19591	0.0076434	0.13285	0.21356	0.10985	0.16646	0.19975	0.10738	0.1108	-1.8813	-2.1896	-2.5146	-2.3208	-2.4854	-2.7042	-2.1521	-2.5875	-2.4875	-2.2021	-2.7417	-2.4042	-2.5938	-2.4875	-2.0917	-2.6417	188.030	340.275	435.112	469.721	496.007	467.776	293.171	403.765	479.208	459.199	418.164	474.526	159.282	471.629	428.051	380.265	0.00022062	8.603e-05	5.8839e-05	296.06	1.8309e-06	1.2762e-06	221.62	109.24	4.8687e-07	1.8329e-06	85.227	32.229	42.87	16.692	2.8826e-06	12.887	0.00014671	0.00014124	3.8053e-05	333.09	1.5247e-06	1.5348e-06	250.07	123.12	1.5405e-06	1.5032e-06	95.873	36.331	48.253	18.936	1.5416e-06	14.633	153.822	173.101	264.116	155.877	312.980	314.259	153.802	161.485	290.269	321.898	157.945	162.222	165.402	171.744	252.253	166.826	-8191	255	
22443.391	1	1	0	0	0.048386	0.23752	0.054619	0.13776	0.2575	0.21976	0.057402	0.24288	0.15448	0.13227	0.23176	0.094107	0.18039	0.25132	0.13026	0.31729	-2.1667	-2.2104	-2.6917	-2.3729	-2.5146	-2.6917	-2.35	-2.5167	-2.3083	-2.3333	-2.5958	-2.1417	-2.3333	-2.6833	-2.3021	-2.7042	366.161	411.907	496.198	156.393	144.007	363.676	432.497	387.386	173.736	486.212	356.132	281.176	346.480	240.077	360.752	235.727	0.00020202	0.00013217	1.397e-05	297.14	1.2676e-06	1.1916e-06	224.69	109.44	1.9043e-06	6.0405e-07	85.939	32.374	42.835	16.638	1.5822e-06	13.002	0.00014509	0.00013967	3.8485e-05	334.82	1.5125e-06	1.4992e-06	254.3	123.28	1.5182e-06	1.5164e-06	96.844	36.604	48.378	18.981	1.5061e-06	14.855	151.999	222.107	186.466	155.819	316.799	260.500	153.273	161.326	237.746	282.709	157.739	162.472	165.549	171.162	233.708	166.844	-8191	255	
22443.486	1	1	0	0	0.21315	0.16416	0.0389	0.24377	0.022737	0.19388	0.0701	0.11655	0.34289	0.16806	0.126	0.24558	0.069164	0.2357	0.078994	0.32598	-2.0167	-2.1083	-2.4188	-2.2542	-2.3979	-2.7188	-2.3604	-2.3604	-2.5271	-2.2562	-2.6354	-2.4021	-2.3812	-2.5479	-2.1729	-2.5333	288.574	345.358	481.622	344.233	397.829	469.974	236.840	371.510	195.802	247.497	255.496	178.944	173.391	209.952	240.756	199.527	0.00023122	9.9439e-05	2.2048e-05	300.52	1.4353e-06	4.7552e-07	229.85	110.31	2.0608e-06	1.1652e-06	86.732	32.899	43.209	16.844	1.0892e-06	13.163	0.00014446	0.00013697	3.7748e-05	337.73	1.5208e-06	1.4685e-06	257.87	124.46	1.5052e-06	1.4823e-06	98.245	37.108	48.631	19.076	1.5457e-06	14.942	150.508	221.823	242.990	155.485	256.497	316.188	153.665	160.997	289.116	234.093	157.669	162.409	165.647	171.553	281.915	166.878	-8191	255	
22443.584	1	1	0	0	0.078633	0.022821	0.16002	0.16388	0.21179	0.046374	0.11094	0.12537	0.082785	0.27788	0.025238	0.12885	0.12567	0.093932	0.099154	0.088777	-2.0771	-2.2188	-2.4979	-2.4667	-2.2958	-2.6146	-2.3688	-2.4042	-2.6729	-2.2313	-2.5479	-2.5104	-2.3958	-2.7375	-2.4646	-2.4896	418.211	482.554	286.099	452.187	159.447	211.263	339.204	410.883	160.157	322.031	337.940	184.612	457.896	172.203	401.668	301.202	0.00022892	8.3535e-05	3.117e-05	297.89	2.0437e-06	2.8189e-06	223.33	108.98	1.9853e-06	2.2346e-06	85.045	31.998	42.605	16.599	1.7609e-06	12.945	0.00014257	0.0001331	3.7068e-05	334.59	1.4763e-06	1.4487e-06	251.2	123.15	1.4837e-06	1.4439e-06	95.863	36.118	48.042	18.876	1.4677e-06	14.651	156.946	293.571	263.527	155.670	255.324	259.327	153.350	160.927	276.677	264.420	157.689	162.350	165.645	171.370	290.953	167.065	-8191	255	
22443.703	1	1	0	0	0.17825	0.31455	0.42446	0.12374	0.13158	0.18573	0.080429	0.19245	0.25634	0.21109	0.25267	0.15119	0.1204	0.11603	0.12068	0.18977	-2.0229	-2.2229	-2.4646	-2.4729	-2.2646	-2.5354	-2.4458	-2.3812	-2.5708	-1.9729	-2.6146	-2.4208	-2.2062	-2.5958	-2.4708	-2.3958	191.246	160.592	310.213	149.043	272.023	223.265	461.685	307.548	432.548	185.668	162.277	447.095	278.898	168.402	265.199	426.557	0.00021143	0.00013045	6.1191e-05	296.09	1.342e-06	1.9929e-06	222.9	109.32	2.203e-06	9.0062e-07	85.278	32.111	43.007	16.572	1.845e-06	12.852	0.00013876	0.00013412	3.6566e-05	333.2	1.4861e-06	1.4554e-06	250.47	123.29	1.4768e-06	1.4559e-06	95.725	36.066	48.158	18.867	1.5022e-06	14.656	151.447	321.142	197.853	155.618	277.530	312.042	153.494	161.058	234.734	310.421	157.936	162.065	165.347	171.404	240.162	167.106	-8191	255	
22443.775	1	1	0	0	0.22165	0.28367	0.11562	0.093912	0.14581	0.039597	0.1367	0.059717	0.22095	0.10783	0.22437	0.076385	0.11095	0.17456	0.078869	0.10766	-2.2917	-2.2229	-2.5312	-2.4958	-2.2167	-2.6125	-2.5083	-2.4083	-2.5396	-2.2833	-2.4708	-2.6667	-2.1833	-2.7417	-2.2938	-2.3229	467.670	147.376	400.801	494.836	437.391	469.049	345.399	418.934	262.981	182.890	481.280	346.363	363.492	328.099	270.645	349.598	0.00021439	0.00018996	5.7835e-05	298.7	1.0374e-06	2.4843e-06	223.62	109.69	1.7218e-06	1.5368e-06	85.496	32.199	42.731	16.664	3.6761e-06	12.97	0.00014201	0.00013383	3.7873e-05	334.52	1.4854e-06	1.4557e-06	252.27	123.46	1.4735e-06	1.4883e-06	96.546	36.303	48.28	18.951	1.5094e-06	14.786	160.465	211.107	245.927	155.538	250.233	301.584	153.146	161.178	296.852	280.703	157.737	162.025	165.765	171.499	247.026	166.856	-8191	255	
22443.871	1	1	0	0	0.17034	0.063481	0.11099	0.13128	0.11869	0.13999	0.02447	0.18149	0.074964	0.17571	0.24149	0.05598	0.031971	0.20316	0.034215	0.2705	-2.2042	-2.2292	-2.5042	-2.7167	-2.1542	-2.6854	-2.5708	-2.5563	-2.8021	-2.4354	-2.5729	-2.5917	-2.3021	-2.5021	-2.6	-2.2396	289.594	350.978	422.741	172.233	281.427	426.192	252.158	454.192	370.344	284.245	428.712	286.903	383.188	144.706	489.546	243.236	0.00020161	0.00014782	4.7233e-05	297.75	1.059e-06	5.6287e-07	224.82	109.25	3.8133e-07	2.1186e-06	86.491	32.308	43.05	16.78	2.1468e-06	13.082	0.00014382	0.00013614	3.7817e-05	334.88	1.5056e-06	1.4779e-06	253.87	123.74	1.5128e-06	1.4728e-06	97.267	36.579	48.37	19.056	1.5058e-06	14.924	155.072	222.834	260.164	155.692	308.812	304.448	153.697	160.983	203.498	288.786	158.100	162.143	165.856	171.695	196.557	167.000	-8191	255	
22443.992	1	1	0	0	0.043055	0.095389	0.35004	0.12053	0.090126	0.050917	0.16525	0.097525	0.20246	0.16393	0.21575	0.11787	0.28071	0.087889	0.086737	0.073977	-2.1042	-2.325	-2.4125	-2.675	-2.3896	-2.5417	-2.5417	-2.1958	-2.6375	-2.6312	-2.4813	-2.6146	-2.3021	-2.3063	-2.6417	-2.4062	144.236	170.394	230.902	383.340	303.394	298.106	211.906	472.036	331.063	307.850	383.082	277.085	292.977	432.312	417.942	343.159	0.00021287	0.00027202	3.3318e-05	298.05	2.7206e-06	1.5399e-06	224.36	109.7	2.6299e-06	1.3416e-06	85.209	32.121	42.817	16.639	1.9745e-06	12.846	0.00014362	0.00013661	3.7867e-05	334.92	1.529e-06	1.4949e-06	253.27	123.44	1.4793e-06	1.4726e-06	96.044	36.235	48.101	18.929	1.4931e-06	14.631	148.623	198.141	290.935	155.812	292.356	336.928	153.347	161.208	244.122	272.922	157.622	162.149	165.654	171.380	259.615	166.782	-8191	255	
22444.090	1	1	0	0	0.089105	0.16096	0.095886	0.30519	0.093201	0.20965	0.25607	0.053045	0.095884	0.060694	0.044161	0.28244	0.23884	0.20533	0.10834	0.053216	-2.1896	-2.4562	-2.3354	-2.6229	-2.3479	-2.4188	-2.4208	-2.2083	-2.4729	-2.4813	-2.2625	-2.5646	-2.3292	-2.4313	-2.7292	-2.35	494.781	392.058	256.229	378.185	348.716	425.892	186.907	416.418	336.759	179.482	270.296	260.635	479.321	338.736	285.868	501.265	0.00021771	0.00011865	2.3243e-05	295.02	1.2661e-06	4.178e-07	219.57	108.69	1.7933e-06	6.6754e-07	84.62	31.903	42.83	16.614	2.1481e-06	12.804	0.00014591	0.00013274	3.7887e-05	331.44	1.5156e-06	1.4735e-06	246.99	122.76	1.4868e-06	1.4917e-06	95.084	35.913	48.3	18.974	1.5145e-06	14.568	150.876	228.539	208.475	155.378	305.610	303.860	153.522	161.165	272.020	332.717	158.012	161.788	165.240	171.437	254.552	166.834	-8191	255	
22444.186	1	1	0	0	0.15096	0.049201	0.25748	0.10673	0.22102	0.093338	0.085117	0.16313	0.039179	0.29481	0.11078	0.084312	0.16494	0.035471	0.1911	0.028619	-2.0125	-2.4021	-2.4292	-2.7042	-2.275	-2.4896	-2.5396	-2.1583	-2.4896	-2.4813	-2.3312	-2.5708	-2.4667	-2.2917	-2.5854	-2.0854	177.566	480.698	336.928	456.225	222.615	487.826	155.264	196.493	155.850	218.615	368.583	365.461	384.535	420.004	154.684	421.796	0.00020975	0.00010826	4.2617e-05	294.58	1.5179e-06	1.5251e-06	221.06	109.65	2.3152e-06	8.151e-07	84.394	32.224	42.843	16.763	1.1819e-06	12.842	0.00014243	0.0001366	3.805e-05	331.8	1.525e-06	1.4895e-06	249.05	123.17	1.5023e-06	1.4842e-06	95.716	36.211	48.24	19	1.5055e-06	14.736	156.589	229.773	295.505	155.645	242.884	256.933	153.701	161.303	255.052	276.675	157.350	161.928	165.597	171.368	271.437	166.867	-8191	255	
22444.307	1	1	0	0	0.20256	0.19387	0.11542	0.15973	0.14194	0.25156	0.19324	0.057381	0.278	0.1635	0.13105	0.06166	0.040677	0.11381	0.044138	0.16755	-2.2292	-2.3479	-2.1458	-2.4604	-2.3979	-2.2083	-2.6917	-2.1167	-2.4167	-2.5271	-2.2333	-2.4188	-2.3396	-2.175	-2.4917	-2.2146	366.555	335.845	313.383	440.356	358.021	431.563	392.969	462.270	467.878	480.380	375.503	453.053	480.783	446.025	275.439	406.377	0.00019554	0.00025848	3.5848e-05	295.8	1.6385e-06	2.4579e-06	222.82	109.88	2.8065e-06	1.8301e-06	85.867	32.477	42.888	16.738	2.0812e-06	13.017	0.00014385	0.00013846	3.8568e-05	332.56	1.4838e-06	1.5083e-06	251.36	123.64	1.5042e-06	1.4926e-06	96.589	36.493	48.378	19.008	1.5185e-06	14.841	158.640	223.566	191.538	155.803	256.450	303.431	152.944	161.099	249.675	371.143	157.557	162.413	165.548	171.636	237.118	167.314	-8191	255	
22444.377	1	1	0	0	0.11304	0.12573	0.14612	0.13023	0.051538	0.37206	0.23903	0.34191	0.20004	0.15853	0.086726	0.30501	0.062101	0.030618	0.21149	0.08132	-2.075	-2.5833	-2.0896	-2.7208	-2.2667	-2.1437	-2.4667	-2.1625	-2.5812	-2.5396	-2.1437	-2.4417	-2.5563	-2.1708	-2.5646	-2.2896	370.421	415.705	405.352	194.557	409.839	277.158	296.857	150.492	359.331	497.323	446.241	435.270	251.736	313.311	480.418	238.364	0.00021027	5.3892e-05	1.2841e-05	298.7	7.1661e-07	1.0113e-06	227.32	110	3.2137e-06	1.4051e-06	87.246	32.617	42.962	16.725	1.3882e-06	13.024	0.00014194	0.00013505	3.8207e-05	335.23	1.5221e-06	1.4901e-06	254.66	124.15	1.5093e-06	1.4826e-06	97.74	36.728	48.433	19.055	1.4886e-06	14.831	146.369	253.346	190.709	155.761	297.473	356.289	153.197	160.821	249.550	228.369	157.573	162.259	165.680	171.408	215.258	167.090	-8191	255	
22444.473	1	1	0	0	0.33302	0.031858	0.16001	0.22322	0.11657	0.18052	0.039653	0.191	0.15057	0.1973	0.16537	0.13238	0.25907	0.22391	0.041119	0.25412	-1.9729	-2.6562	-2.1021	-2.4479	-2.4646	-2.2083	-2.6354	-2.5146	-2.2396	-2.6625	-2.3667	-2.4979	-2.6667	-2.1542	-2.5833	-2.2188	463.619	156.950	177.903	144.669	327.985	298.796	449.013	486.364	391.884	241.171	397.634	426.871	346.269	160.126	465.716	189.355	0.00021525	0.0001997	1.3894e-05	295.01	2.2229e-06	1.5973e-06	222.11	108.28	1.7125e-06	7.4954e-07	84.677	31.641	42.717	16.606	8.5346e-07	12.817	0.00014225	0.00013361	3.8015e-05	331.65	1.4497e-06	1.4841e-06	248.34	122.69	1.4756e-06	1.4422e-06	95.22	35.91	48.009	18.892	1.467e-06	14.613	154.374	198.757	221.844	155.739	270.438	256.887	153.451	161.005	227.779	313.361	157.747	162.339	165.782	171.664	310.253	166.828	-8191	255	
22444.592	1	1	0	0	0.11715	0.09124	0.058488	0.11046	0.23086	0.045588	0.15234	0.17241	0.17834	0.16768	0.24751	0.11471	0.18705	0.24581	0.1659	0.1661	-1.8521	-2.5417	-2.2333	-2.4875	-2.4313	-2.15	-2.6063	-2.4333	-2.1896	-2.7479	-2.3125	-2.5167	-2.475	-2.1104	-2.4104	-2.4708	326.473	293.641	353.794	499.392	389.868	334.801	269.692	471.933	280.511	210.935	173.668	268.308	162.535	146.731	185.701	220.229	0.0001813	0.0003612	7.8887e-05	295.1	9.3111e-07	1.9385e-06	222.18	109.31	1.4549e-06	8.9665e-07	84.929	31.99	42.99	16.68	3.0991e-07	12.937	0.00014063	0.00013428	3.7295e-05	331.47	1.4452e-06	1.4596e-06	249.9	123.08	1.4868e-06	1.4566e-06	95.781	36.132	48.279	18.981	1.4608e-06	14.729	155.914	236.661	249.191	155.730	233.996	351.635	153.248	161.094	257.117	317.442	157.781	162.273	165.742	171.510	256.577	167.273	-8191	255	
22444.688	1	1	0	0	0.22568	0.071509	0.41873	0.19648	0.24744	0.31919	0.17686	0.10896	0.13754	0.26436	0.13146	0.12788	0.047762	0.079654	0.031052	0.16534	-1.6646	-2.5438	-2.2438	-2.2979	-2.7188	-1.9646	-2.5625	-2.2938	-2.1292	-2.6437	-2.2104	-2.2792	-2.5438	-2.1146	-2.4875	-2.3542	430.094	214.659	189.558	404.546	428.248	362.312	382.758	463.256	407.180	346.371	375.209	239.352	387.077	189.744	143.733	197.654	0.00022044	0.00013959	2.5621e-06	296.81	2.3524e-06	1.2722e-06	226.34	109.84	2.3422e-06	4.7088e-07	85.913	32.326	42.918	16.687	1.6836e-06	13.11	0.00014147	0.00013106	3.7476e-05	333.49	1.4399e-06	1.4745e-06	253.14	123.83	1.4814e-06	1.4358e-06	97.026	36.524	48.325	19.029	1.4502e-06	14.852	155.078	257.975	389.826	155.588	260.825	309.021	153.563	161.146	266.951	338.123	157.998	162.488	165.530	171.339	261.438	166.949	-8191	255	
22444.785	1	1	0	0	0.25742	0.22114	0.30933	0.27975	0.21904	0.10663	0.036891	0.054435	0.050662	0.076067	0.20922	0.037872	0.32974	0.15334	0.22847	0.10172	-1.725	-2.4521	-2.3333	-2.2729	-2.6333	-2.1104	-2.6417	-2.5708	-2.2188	-2.5312	-2.3854	-2.4396	-2.6354	-2.25	-2.3875	-2.6125	430.067	277.543	280.554	166.223	276.113	374.290	479.152	391.747	247.553	143.714	440.049	195.402	245.285	468.137	199.881	230.721	0.00021019	0.0001993	5.9925e-05	297.66	1.9742e-06	1.7283e-06	228.56	110.63	2.4735e-06	2.1741e-06	87.158	32.568	43.276	16.758	1.9818e-06	13.154	0.00014175	0.00013154	3.7052e-05	334.88	1.4339e-06	1.4634e-06	255.9	124.3	1.4774e-06	1.4134e-06	97.723	36.82	48.51	19.105	1.4581e-06	14.965	151.420	251.180	223.074	155.660	247.463	287.725	153.559	161.163	264.818	252.773	157.689	162.406	165.792	171.519	306.349	166.847	-8191	255	
22444.904	1	1	0	0	0.35866	0.4468	0.11165	0.20311	0.15652	0.19848	0.19772	0.19704	0.17907	0.16272	0.13146	0.077418	0.26442	0.11451	0.098036	0.18706	-1.6792	-2.4979	-2.3354	-2.2042	-2.5521	-2.4125	-2.4083	-2.5167	-2.25	-2.3583	-2.4708	-2.2604	-2.575	-2.3937	-2.3229	-2.5333	306.102	289.051	431.697	145.901	471.384	308.902	330.104	447.171	333.733	428.171	433.290	426.382	160.888	435.365	452.325	347.861	0.0002139	0.00023319	1.8718e-05	298.57	1.6953e-06	2.1495e-06	227.23	109.84	2.8844e-06	2.569e-07	85.494	32.111	42.756	16.552	2.0945e-06	12.937	0.00014437	0.0001318	3.6496e-05	336.15	1.4436e-06	1.4151e-06	255.21	123.88	1.4718e-06	1.4049e-06	96.215	36.191	48.012	18.865	1.4184e-06	14.645	156.008	223.008	232.220	155.726	271.783	304.922	153.276	160.971	256.109	302.672	157.631	162.265	165.350	171.553	256.033	166.948	-8191	255	
22445.002	1	1	0	0	0.16302	0.10625	0.2767	0.18975	0.11927	0.34772	0.068046	0.068202	0.2851	0.15502	0.22573	0.22554	0.13119	0.066386	0.28391	0.24413	-1.7854	-2.4271	-2.3292	-2.2875	-2.7396	-2.3104	-2.4458	-2.5729	-2.3604	-2.4521	-2.5771	-2.0979	-2.6688	-2.4542	-2.3396	-2.6562	477.054	201.172	155.784	239.424	403.890	400.899	368.544	348.004	331.341	387.443	162.036	467.058	393.972	174.891	366.337	470.917	0.00018847	3.9158e-05	6.6158e-05	294.87	1.1358e-06	1.155e-06	220.67	109.5	2.1244e-06	1.6665e-06	84.471	31.687	42.911	16.582	1.967e-06	12.762	0.0001364	0.00012855	3.524e-05	331.24	1.4118e-06	1.4118e-06	248.68	123.02	1.4734e-06	1.4166e-06	95.266	35.789	48.067	18.86	1.4413e-06	14.497	153.082	226.963	233.203	155.773	241.576	269.584	153.768	161.133	249.787	245.013	157.721	162.573	165.750	171.487	237.435	166.333	-8191	255	
22445.072	1	1	0	0	0.061517	0.058289	0.30052	0.07797	0.078261	0.21998	0.059961	0.12806	0.34792	0.031764	0.10609	0.15004	0.33741	0.13711	0.37845	0.30202	-1.9021	-2.1833	-2.3333	-2.1854	-2.5729	-2.4	-2.25	-2.6729	-2.3312	-2.4437	-2.7062	-2.1708	-2.5	-2.3917	-2.2625	-2.5667	468.936	347.658	323.541	259.309	269.119	189.821	387.537	466.304	275.629	177.963	421.997	457.942	339.271	161.354	327.657	333.527	0.00021642	8.9819e-05	4.2472e-05	295.88	9.2393e-07	1.379e-06	221.64	109.24	1.8006e-06	1.9101e-06	85.034	31.879	42.861	16.669	1.4613e-06	12.843	0.00013758	0.00012868	3.6534e-05	331.51	1.4327e-06	1.4408e-06	249.34	123.01	1.4654e-06	1.4374e-06	95.699	35.953	48.16	18.943	1.4944e-06	14.584	152.198	199.340	272.211	155.755	207.667	300.391	153.555	161.098	294.104	271.250	157.571	162.251	165.617	171.275	283.823	167.098	-8191	255	
22445.170	1	1	0	0	0.22645	0.22191	0.14383	0.21452	0.18061	0.16809	0.36757	0.22121	0.14541	0.1808	0.32218	0.099775	0.032928	0.14881	0.067159	0.11428	-1.8292	-2.4562	-2.4167	-2.275	-2.4125	-2.4458	-2.2729	-2.5396	-2.3542	-2.2417	-2.8583	-2.2313	-2.575	-2.4667	-2.1979	-2.5167	460.480	186.352	179.826	251.069	410.092	268.139	463.209	146.933	370.197	436.019	358.016	454.009	307.499	158.663	355.154	483.769	0.00022075	4.3753e-05	3.6143e-05	295.47	1.3291e-06	1.5579e-06	223.46	109.4	6.8442e-07	1.6764e-06	85.72	32.203	42.801	16.687	1.9083e-06	13.008	0.00014056	0.00013196	3.7243e-05	332.62	1.4569e-06	1.4472e-06	251.23	123.75	1.5033e-06	1.4466e-06	96.527	36.319	48.308	18.984	1.4887e-06	14.75	151.767	262.698	201.182	155.592	328.888	320.199	153.697	160.881	194.162	294.551	157.851	162.128	166.043	171.668	298.023	167.178	-8191	255	
22445.266	1	1	0	0	0.15475	0.25773	0.18298	0.12924	0.11369	0.26101	0.19188	0.18336	0.2876	0.17669	0.21458	0.058313	0.059986	0.1142	0.051768	0.16144	-1.9042	-2.2396	-2.5479	-2.1479	-2.4292	-2.5938	-2.1417	-2.4875	-2.4771	-2.2521	-2.55	-2.3	-2.2375	-2.7104	-2.1	-2.6188	193.608	475.754	409.703	495.353	465.552	433.895	376.512	488.844	238.655	378.096	383.105	144.466	384.772	380.827	360.354	256.658	0.00022074	0.00025541	3.6058e-05	295.68	1.8067e-06	1.3265e-06	225.72	109.71	5.7195e-07	2.0003e-06	86.253	32.666	43.322	16.764	1.5152e-06	12.937	0.00014289	0.00013346	3.7842e-05	332.24	1.4813e-06	1.4657e-06	253.39	123.58	1.4926e-06	1.4909e-06	97.295	36.767	48.567	19.042	1.4941e-06	14.735	149.489	246.370	274.215	155.741	208.383	151.454	153.262	161.133	320.502	304.157	157.912	161.993	165.776	171.601	284.521	166.892	-8191	255	
22445.385	1	1	0	0	0.070239	0.065312	0.11164	0.28357	0.12174	0.022812	0.18733	0.19862	0.16675	0.11394	0.40916	0.18055	0.14256	0.13659	0.34531	0.11203	-2.0333	-2.1854	-2.625	-2.3354	-2.5708	-2.5792	-2.0583	-2.6312	-2.4604	-2.3	-2.5042	-2.3396	-2.3771	-2.4188	-2.3417	-2.625	407.183	329.240	237.759	385.685	223.287	394.859	260.907	454.233	374.463	162.948	475.944	445.393	457.824	482.724	165.039	482.659	0.00020328	8.6265e-05	4.189e-05	295.02	1.703e-06	2.7163e-06	221.55	109.31	1.817e-06	1.2421e-06	84.636	31.729	42.617	16.689	1.7585e-06	12.825	0.00013918	0.00013157	3.7028e-05	331.42	1.447e-06	1.4595e-06	248.56	123.21	1.4435e-06	1.4353e-06	95.493	35.819	48.02	18.907	1.4515e-06	14.539	153.899	484.255	281.233	156.027	267.047	317.660	153.356	161.149	256.369	291.175	157.692	162.777	165.987	171.389	278.080	167.232	-8191	255	
22445.480	1	1	0	0	0.15159	0.066789	0.064673	0.15051	0.33069	0.17612	0.26503	0.12658	0.035501	0.18791	0.095881	0.16845	0.05862	0.070542	0.17713	0.071287	-1.9562	-2.175	-2.7021	-2.2438	-2.4667	-2.4792	-2.0312	-2.5604	-2.3979	-2.0979	-2.4583	-2.2438	-2.175	-2.5542	-2.0583	-2.4708	279.373	485.805	298.187	493.087	395.933	242.654	324.852	223.215	489.452	324.807	385.383	231.073	251.203	340.852	383.940	444.788	0.00020695	0.0002327	3.6451e-05	293.97	2.0484e-06	2.6161e-06	220.82	108.63	1.297e-06	3.2826e-07	84.652	32.674	42.98	16.756	9.8464e-07	13.089	0.00013642	0.00013369	3.679e-05	328.75	1.4666e-06	1.4478e-06	247.57	122.51	1.4466e-06	1.4674e-06	95.69	36.609	48.259	19.107	1.4931e-06	14.917	153.968	226.469	208.654	155.617	255.304	274.486	153.564	161.067	233.152	325.189	157.506	161.941	165.454	171.637	302.904	166.814	-8191	255	
22445.576	1	1	0	0	0.1243	0.19523	0.17098	0.12976	0.10797	0.11051	0.33348	0.19499	0.20593	0.07884	0.24833	0.16922	0.057249	0.10634	0.19761	0.12251	-1.95	-2.225	-2.3708	-2.35	-2.3521	-2.5687	-2.3417	-2.3104	-2.6188	-2.3417	-2.7521	-2.5542	-2.1813	-2.6979	-2.3104	-2.5312	373.728	424.342	309.882	395.488	328.164	156.125	194.325	213.046	276.551	179.110	208.212	477.906	338.067	305.357	196.208	474.556	0.00021524	0.0001237	2.4604e-05	291.07	1.7204e-06	1.728e-06	222.21	108.6	1.3618e-06	1.1629e-06	86.874	33.158	43.364	16.928	2.8549e-06	13.344	0.00014182	0.00013535	3.7032e-05	326.73	1.4553e-06	1.4563e-06	249.2	122.44	1.4612e-06	1.4967e-06	97.449	37.26	48.648	19.338	1.4917e-06	15.169	153.343	227.163	195.884	155.507	264.725	304.728	153.492	161.035	281.777	273.527	158.015	162.148	165.848	171.851	267.008	166.728	-8191	255	
22445.674	1	1	0	0	0.13313	0.13173	0.17831	0.26124	0.062003	0.06537	0.27875	0.03251	0.080495	0.1294	0.079861	0.21896	0.24676	0.089464	0.17712	0.21937	-2.0208	-2.0333	-2.5625	-2.2146	-2.0875	-2.5375	-2.3104	-2.4792	-2.5917	-2.2208	-2.4667	-2.4521	-2.15	-2.7042	-2.4375	-2.425	244.820	351.556	384.902	157.599	326.596	423.728	170.129	495.056	199.165	200.153	225.795	425.651	427.746	182.740	374.320	338.979	0.00022652	0.00016583	0.00010242	292.9	1.6392e-06	1.3257e-06	223.99	108.83	2.1357e-06	1.4638e-06	87.497	33.477	43.293	17.088	1.5137e-06	13.622	0.00014481	0.00013481	3.7613e-05	329.38	1.5076e-06	1.4832e-06	252.05	123.09	1.493e-06	1.4958e-06	98.379	37.769	48.949	19.461	1.4657e-06	15.479	154.252	220.444	237.033	155.592	272.675	349.583	153.434	161.438	269.972	327.513	158.020	161.954	165.706	171.515	294.814	167.020	-8191	255	
22445.770	1	1	0	0	0.30606	0.08071	0.18965	0.047973	0.29226	0.10738	0.11944	0.19599	0.1397	0.048951	0.16074	0.1991	0.30787	0.074233	0.09998	0.20007	-1.9958	-2.1625	-2.4021	-2.4854	-2.0708	-2.5938	-2.4396	-2.3333	-2.4646	-2.1875	-2.4479	-2.4792	-2.0229	-2.4979	-2.6667	-2.2917	444.310	464.922	501.963	359.513	501.540	202.845	315.554	202.245	374.997	150.954	470.740	161.034	357.325	317.684	271.038	357.957	0.00022826	0.00024503	1.5946e-05	292.36	6.5766e-07	2.3537e-06	222.75	108.78	1.498e-06	1.5139e-06	86.618	33.104	43.15	16.975	1.6458e-06	13.041	0.00014161	0.0001355	3.8039e-05	328.3	1.4745e-06	1.4409e-06	250.89	122.61	1.4874e-06	1.4494e-06	97.247	37.317	48.552	19.25	1.4521e-06	14.817	154.726	231.172	239.918	155.752	315.597	330.798	153.451	161.268	255.273	264.027	157.791	162.205	165.489	171.572	305.669	167.031	-8191	255	
22445.865	1	1	0	0	0.06483	0.073904	0.39096	0.1452	0.10397	0.070565	0.12632	0.084603	0.28385	0.11445	0.016725	0.26905	0.12958	0.098584	0.056551	0.15939	-2.2833	-2.1042	-2.3104	-2.4271	-2.1208	-2.3667	-2.1688	-2.2917	-2.5458	-2.3542	-2.4083	-2.6771	-2.0521	-2.5812	-2.3937	-2.2708	187.023	340.807	240.002	404.992	234.622	487.362	304.812	442.757	492.895	304.547	224.208	228.115	429.892	261.256	272.425	458.958	0.00021273	0.00018813	5.1443e-05	288.03	2.2807e-06	1.9726e-06	219.74	107.87	1.9778e-06	2.1218e-06	85.133	32.025	42.308	16.434	1.3105e-06	12.474	0.00013834	0.00013216	3.6236e-05	324.78	1.4773e-06	1.4685e-06	246.14	121.8	1.4511e-06	1.4166e-06	95.178	36.189	47.763	18.738	1.4423e-06	14.189	150.139	199.959	240.906	155.688	273.192	296.540	153.316	160.991	219.691	289.128	157.473	162.489	165.777	171.562	238.407	166.552	-8191	255	
22445.986	1	1	0	0	0.27936	0.15721	0.020514	0.12437	0.13227	0.025087	0.14827	0.32066	0.063012	0.082693	0.43552	0.15811	0.205	0.15658	0.15485	0.019839	-2.2125	-2.2917	-2.2188	-2.6188	-2.0687	-2.6708	-2.5271	-2.0938	-2.5125	-2.3021	-2.3729	-2.5146	-2.2354	-2.3812	-2.5187	-2.0833	465.027	335.563	300.804	425.836	274.210	288.933	420.161	169.179	214.885	180.194	472.346	232.878	374.387	319.469	415.789	477.268	0.00020449	0.00027445	7.167e-05	289.18	1.9586e-06	1.3412e-06	219.45	108.52	7.4731e-07	2.1442e-06	84.011	31.821	42.264	16.272	1.2961e-06	12.354	0.00013701	0.0001301	3.5655e-05	325.94	1.4308e-06	1.3531e-06	247.3	121.97	1.4041e-06	1.3868e-06	94.937	35.68	47.459	18.54	1.3927e-06	14.138	150.683	188.884	247.005	155.845	234.385	230.744	153.536	161.378	289.235	321.344	157.610	162.222	165.828	171.477	292.580	166.831	-8191	255	
22446.082	1	1	0	0	0.11153	0.36112	0.055047	0.091198	0.24334	0.13033	0.13023	0.23954	0.1926	0.068535	0.044335	0.15337	0.13306	0.052915	0.1909	0.18249	-2.35	-2.4083	-2.425	-2.575	-2.2188	-2.3208	-2.3688	-2.1	-2.5312	-2.4625	-2.3229	-2.5438	-2.2292	-2.6625	-2.4729	-2.0771	432.493	498.169	260.020	179.529	247.429	333.010	234.250	411.959	332.721	272.594	250.677	372.769	170.299	346.195	356.739	480.052	0.00019885	0.00020504	4.6226e-05	292.1	1.6423e-06	1.9391e-06	222.94	108.69	1.3995e-06	4.3471e-07	84.998	31.864	42.36	16.195	1.9173e-06	12.377	0.00013501	0.00012437	3.5922e-05	329.3	1.3843e-06	1.3619e-06	251.31	123.04	1.3719e-06	1.3546e-06	95.663	35.921	47.627	18.511	1.3797e-06	14.195	150.581	263.627	237.243	155.434	244.967	285.646	153.536	161.300	263.283	231.865	158.080	162.012	165.420	171.704	284.955	166.751	-8191	255	
22446.178	1	1	0	0	0.18868	0.13744	0.082781	0.054407	0.12527	0.33106	0.10977	0.086837	0.25757	0.3009	0.31769	0.1197	0.059808	0.041103	0.15283	0.086428	-2.2938	-2.425	-2.3042	-2.6104	-2.3146	-2.5104	-2.6458	-2.2604	-2.5583	-2.4521	-2.1646	-2.425	-2.3021	-2.2313	-2.6688	-2.2208	228.393	288.802	414.227	468.048	439.882	388.896	300.022	171.604	415.790	432.430	261.893	430.565	185.369	351.963	366.409	493.450	0.00020873	0.0001158	4.8474e-05	295.14	1.1363e-06	1.1326e-06	225.79	109.66	2.8652e-06	1.4302e-06	85.757	31.92	42.502	16.25	1.3344e-06	12.389	0.00013071	0.00012238	3.5366e-05	332.43	1.3969e-06	1.3532e-06	254.7	123.39	1.38e-06	1.3381e-06	96.638	36.008	47.654	18.5	1.408e-06	14.083	147.356	213.805	273.336	155.562	297.290	281.107	153.646	161.186	282.757	282.875	157.906	162.212	165.670	171.634	247.384	166.677	-8191	255	
22446.273	1	1	0	0	0.084509	0.098963	0.17127	0.19067	0.27692	0.035861	0.15253	0.084145	0.13955	0.32199	0.096226	0.061594	0.14163	0.18929	0.13471	0.16472	-1.9333	-2.2854	-2.1896	-2.825	-2.3438	-2.4646	-2.6667	-2.3375	-2.5292	-2.4271	-2.1792	-2.6417	-2.3271	-2.3271	-2.4792	-2.0542	390.366	223.005	327.535	450.793	462.481	335.019	376.665	237.595	266.226	210.937	472.681	272.765	443.546	501.643	268.812	356.932	0.00019009	0.00026865	2.4214e-05	292.39	1.6969e-06	1.0344e-06	218.4	107.86	2.7535e-06	1.0984e-06	81.599	30.384	41.55	15.792	1.0594e-06	11.464	0.00013104	0.00012585	3.5104e-05	329.3	1.3747e-06	1.3435e-06	246.2	121.67	1.3821e-06	1.3709e-06	92.405	34.236	46.649	17.942	1.3707e-06	13.086	153.570	208.224	179.080	155.662	247.520	390.246	153.263	161.115	244.516	273.101	157.782	162.132	165.611	171.779	224.190	166.848	-8191	255	
22446.367	1	1	0	0	0.06848	0.21095	0.18698	0.099309	0.086658	0.15269	0.020417	0.20522	0.23537	0.14799	0.34677	0.058769	0.10057	0.16561	0.065837	0.10727	-1.8833	-2.4875	-2.3021	-2.4208	-2.5042	-2.0625	-2.6646	-2.3458	-2.5104	-2.5438	-2.2938	-2.525	-2.35	-2.2	-2.4188	-2.1167	501.088	204.385	321.263	302.152	147.876	491.260	423.222	412.684	289.541	142.139	287.612	245.215	355.107	170.823	312.147	262.609	0.00020321	0.0001085	2.2235e-05	291.22	1.382e-06	1.2246e-06	263.56	132.58	2.8093e-06	2.0492e-06	100.36	36.966	51.03	19.437	1.7641e-06	14.25	0.00013077	0.00012638	3.5059e-05	327.31	1.6727e-06	1.6533e-06	291.78	146.56	1.6664e-06	1.6975e-06	111.64	40.824	56.445	21.718	1.6754e-06	15.84	151.754	157.720	453.568	155.762	311.038	274.417	151.640	159.902	287.660	232.544	156.739	160.972	164.745	170.547	226.888	165.635	-8191	255	
22446.465	1	1	0	0	0.26769	0.057667	0.21443	0.11622	0.03514	0.082254	0.17261	0.003941	0.028398	0.19989	0.11835	0.26341	0.1457	0.1464	0.16088	0.10219	-1.9875	-2.5833	-2.0229	-2.5375	-2.4292	-2.4188	-2.6208	-2.4062	-2.3354	-2.6125	-2.3167	-2.5521	-2.6521	-2.3396	-2.5854	-2.1958	492.132	277.123	366.352	225.704	455.590	363.185	444.498	192.233	459.066	388.788	432.821	285.770	176.264	354.699	500.332	433.870	0.0002404	0.00016482	4.5795e-05	359.98	1.7103e-06	9.0725e-07	270.18	134.42	3.0465e-06	1.0007e-06	101.32	37.119	58.41	23.32	1.5229e-06	17.248	0.00016149	0.00015054	4.2556e-05	398.02	1.6384e-06	1.6565e-06	297.73	148.1	1.6598e-06	1.6374e-06	112.84	40.534	62.641	25.676	2.0178e-06	18.954	154.406	249.469	313.486	154.608	246.774	312.936	152.419	160.034	293.372	247.364	156.800	154.357	156.953	168.058	258.870	164.951	-8191	255	
22446.561	1	1	0	0	0.30317	0.054916	0.030426	0.12272	0.073651	0.042746	0.23356	0.20438	0.098032	0.026217	0.026694	0.072298	0.13663	0.11154	0.098839	0.17863	-1.9	-2.5917	-2.3021	-2.5896	-2.4729	-2.3333	-2.8271	-2.3375	-2.3854	-2.6458	-2.2896	-2.3583	-2.625	-2.2625	-2.5479	-2.3354	214.106	277.995	239.277	237.008	161.458	256.694	397.654	143.061	213.398	160.809	452.089	339.136	412.022	484.428	429.351	268.847	0.00031198	7.2373e-05	9.9727e-05	439.72	2.9423e-06	2.8201e-06	329.82	162.21	2.7691e-06	1.8897e-06	124.69	45.738	62.511	23.929	2.1135e-06	17.471	0.00019133	0.00018003	5.0575e-05	476.79	2.006e-06	2.0012e-06	356.91	176.54	2.0158e-06	2.0316e-06	135	49.438	67.716	26.227	1.9877e-06	19.312	151.393	154.523	197.262	153.647	265.632	323.475	151.171	159.236	246.732	330.474	155.902	160.232	163.764	169.665	277.706	165.043	-8191	255	
22446.682	1	1	0	0	0.1801	0.047434	0.069602	0.1632	0.12948	0.28427	0.072241	0.021975	0.14062	0.023713	0.17989	0.21318	0.014069	0.22452	0.32449	0.10107	-1.75	-2.5438	-2.2271	-2.3563	-2.4875	-2.1542	-2.7208	-2.4542	-2.2208	-2.6458	-2.1146	-2.4875	-2.4125	-2.2021	-2.2833	-2.4542	500.791	207.675	498.847	394.087	426.841	353.136	447.630	425.895	483.391	173.574	477.190	493.316	168.043	470.123	159.209	192.734	0.00027322	0.00044256	3.8869e-05	439.06	1.6568e-06	4.2235e-06	327.65	161.72	9.1737e-07	2.0438e-06	121.22	44.225	61.459	23.444	1.8091e-06	16.563	0.00019176	0.00018577	4.9903e-05	476.43	2.0045e-06	1.9991e-06	354	175.51	2.0274e-06	1.9729e-06	132.03	48.026	66.84	25.74	1.9717e-06	18.252	148.415	255.573	202.836	153.607	244.635	315.503	151.430	159.082	230.015	234.199	155.637	160.165	163.461	169.243	272.880	164.922	-8191	255	
22446.777	1	1	0	0	0.31064	0.063916	0.066146	0.25641	0.22735	0.17341	0.16231	0.26623	0.072179	0.2874	0.19349	0.045158	0.1622	0.17255	0.08598	0.11702	-1.8188	-2.5208	-2.2313	-2.3146	-2.4688	-2.3812	-2.5458	-2.5354	-2.2583	-2.5771	-2.3708	-2.2562	-2.6625	-2.4688	-2.4333	-2.6021	474.516	288.670	451.416	328.973	482.694	390.108	404.936	470.789	368.147	367.346	429.726	273.600	383.517	190.170	210.662	400.453	0.00024448	9.8035e-05	4.9082e-05	430.91	2.244e-06	1.1755e-06	314.66	158.42	2.0468e-06	1.5149e-06	118.23	43.106	60.601	23.356	1.4094e-06	16.629	0.00018964	0.00018132	5.0614e-05	467.4	1.9922e-06	1.9765e-06	341.12	172.53	2.0181e-06	1.9674e-06	128.71	46.747	66.118	25.495	2.0568e-06	18.167	150.908	199.412	235.656	153.645	258.297	310.869	151.278	159.141	240.740	317.079	155.678	160.241	163.547	169.451	275.373	165.046	-8191	255	
22446.873	1	1	0	0	0.051302	0.13277	0.030739	0.15195	0.1684	0.20767	0.12912	0.19095	0.077112	0.14284	0.1849	0.087526	0.27172	0.3105	0.12759	0.096717	-1.8646	-2.4854	-2.3167	-2.4375	-2.8479	-2.275	-2.2417	-2.6063	-2.1437	-2.7333	-2.3021	-2.3271	-2.75	-2.3396	-2.4188	-2.35	403.098	291.208	142.660	249.496	422.504	373.369	449.634	336.437	485.168	176.674	489.357	432.811	270.712	416.117	446.007	244.857	0.00027677	0.00027623	3.1761e-05	429.97	7.8628e-07	1.9018e-06	314.85	158.48	3.938e-07	2.6557e-06	117.88	46.659	72.149	27.756	2.0761e-06	19.925	0.00019212	0.0001802	4.9683e-05	467.06	2.0069e-06	1.9832e-06	341.42	172.31	2.0153e-06	1.9626e-06	128.56	48.945	76.554	30.045	2.3933e-06	21.566	156.757	192.349	274.617	153.645	316.888	280.380	151.730	159.193	152.951	272.922	153.570	148.506	160.335	168.176	255.113	163.714	-8191	255	
22446.945	1	1	0	0	0.19623	0.12929	0.16472	0.25678	0.19678	0.11719	0.22764	0.071095	0.14005	0.14774	0.15455	0.13001	0.2711	0.24933	0.14304	0.10909	-1.7563	-2.4562	-2.2875	-2.0792	-2.5708	-2.2125	-2.4625	-2.2479	-2.2167	-2.5979	-2.5104	-2.1542	-2.6146	-2.2958	-2.525	-2.6729	198.532	469.735	278.252	473.335	412.716	344.765	485.346	178.809	387.177	173.228	258.051	213.379	223.673	477.455	363.183	290.688	0.00032256	0.00049501	8.4298e-05	519.07	2.7526e-06	2.4624e-06	383.59	191.76	2.7986e-06	2.3527e-06	144.56	52.832	74.003	28.313	1.8984e-06	20.401	0.00022366	0.00020864	5.9214e-05	553.19	2.3613e-06	2.2964e-06	406.86	204.79	2.381e-06	2.303e-06	154.25	56.174	78.743	30.584	2.3542e-06	22.087	154.420	231.718	285.863	152.584	238.578	252.819	150.014	157.627	262.548	337.610	154.849	159.110	162.405	168.250	277.485	163.503	-8191	255	
22447.066	1	1	0	0	0.093324	0.059352	0.089865	0.047047	0.16912	0.2619	0.11104	0.062181	0.14251	0.15431	0.089976	0.15802	0.13817	0.17243	0.13148	0.12223	-1.9396	-2.4146	-2.6646	-2.375	-2.4375	-2.4792	-2.5958	-2.8833	-2.2458	-2.6104	-2.4771	-2.1417	-2.6625	-2.5625	-2.2042	-2.4875	483.671	285.649	467.811	210.863	268.229	354.891	342.566	437.626	272.015	163.471	465.413	307.985	218.156	444.532	199.935	153.103	0.00035234	0.00044799	9.8248e-05	525.77	2.5074e-06	6.1812e-07	389.66	194.99	3.0811e-06	3.3073e-06	146.87	53.3	74.124	28.745	2.3189e-06	20.583	0.0002253	0.00020809	5.9124e-05	559.66	2.3336e-06	2.3138e-06	414.49	207.8	2.3601e-06	2.3024e-06	157.1	56.997	79.351	30.957	2.3828e-06	22.178	145.075	258.208	193.269	152.657	265.749	301.060	150.231	157.766	238.930	254.928	155.042	159.012	162.419	168.484	301.913	163.666	-8191	255	
22447.162	1	1	0	0	0.14213	0.051517	0.070094	0.3444	0.23828	0.11714	0.18776	0.16239	0.14473	0.25216	0.14632	0.18422	0.18345	0.035238	0.037316	0.090194	-1.6938	-2.3729	-2.4729	-2.0333	-2.4646	-2.4542	-2.4979	-2.6646	-2.35	-2.5312	-2.6104	-2.1813	-2.4729	-2.525	-2.1771	-2.6292	262.022	292.856	355.706	486.619	204.945	342.429	432.175	360.391	403.774	247.880	420.221	323.199	322.959	381.223	416.322	294.562	0.00035719	0.00012687	7.8165e-05	521.17	4.148e-07	4.4224e-06	376.07	191.6	4.3222e-06	1.5792e-06	163.34	61.372	87.844	33.669	2.5187e-06	23.766	0.00022832	0.00021243	6.0158e-05	553.21	2.3623e-06	2.3298e-06	400.79	204.4	2.4073e-06	2.6318e-06	170.51	64.409	92.065	35.765	2.8574e-06	25.178	159.364	243.537	160.197	152.381	302.881	303.350	150.285	157.749	258.554	346.832	148.570	156.958	161.006	166.883	281.660	162.622	-8191	255	
22447.258	1	1	0	0	0.23163	0.19523	0.17772	0.15469	0.27829	0.17604	0.06302	0.19313	0.25257	0.17555	0.067083	0.17831	0.078801	0.16532	0.22049	0.12643	-1.8479	-2.3625	-2.5854	-2.2396	-2.625	-2.5292	-2.3167	-2.6333	-2.2687	-2.4896	-2.4854	-2.3125	-2.5875	-2.4417	-2.0521	-2.6979	432.072	245.036	311.672	382.775	272.503	389.792	441.816	464.043	314.287	405.397	233.424	318.114	223.584	452.397	149.288	319.906	0.00034916	0.00041887	5.1115e-05	618.82	4.1251e-06	4.1418e-06	445.72	229.29	2.6454e-06	4.0566e-06	169.89	61.76	88.119	34.098	4.2811e-06	24.086	0.00026356	0.00025867	7.1535e-05	647.23	2.8148e-06	2.7831e-06	467.65	240.34	2.8325e-06	2.8087e-06	178.64	64.902	92.378	36.067	2.8607e-06	25.55	153.711	207.713	433.247	151.310	270.742	283.289	149.171	156.624	217.096	283.137	153.101	158.060	161.645	166.936	264.491	162.903	-8191	255	
22447.354	1	1	0	0	0.11835	0.21137	0.2349	0.2519	0.15951	0.14801	0.19147	0.090099	0.22142	0.21939	0.088347	0.16322	0.032168	0.043829	0.059939	0.08709	-2.0187	-2.2729	-2.5812	-2.3625	-2.4833	-2.7167	-2.3125	-2.7354	-2.4562	-2.1667	-2.5771	-2.2521	-2.4125	-2.7375	-2.2062	-2.5687	437.053	460.195	219.795	450.033	403.325	179.361	169.317	489.653	141.315	480.373	461.313	462.288	495.709	482.322	426.407	485.639	0.00043114	0.00038213	2.7852e-05	617.17	5.1029e-06	3.5599e-06	450.56	228.21	3.0527e-06	3.2588e-06	171.02	62.548	88.445	34.213	4.2429e-06	24.48	0.00027025	0.00026212	7.2026e-05	647.77	2.8762e-06	2.8106e-06	471.25	240.02	2.8501e-06	2.8619e-06	179.38	65.286	92.604	36.173	2.9144e-06	25.906	151.910	198.064	322.518	151.423	262.388	286.094	148.989	156.711	246.757	291.116	153.512	157.712	161.437	167.123	277.930	162.620	-8191	255	
22447.473	1	1	0	0	0.10635	0.20852	0.26693	0.17782	0.28978	0.14418	0.063871	0.041991	0.0083707	0.070747	0.21	0.12919	0.18551	0.048392	0.1076	0.25599	-1.7646	-2.1708	-2.6437	-2.2708	-2.5021	-2.4708	-2.2208	-2.6792	-2.35	-2.4313	-2.8021	-2.3312	-2.4437	-2.4729	-2.2333	-2.5896	430.913	395.087	385.657	495.312	174.850	479.844	460.197	364.266	278.294	389.147	428.144	358.966	377.263	424.975	157.094	421.220	0.00041004	0.00042247	7.9483e-05	622.88	3.3118e-06	5.0975e-06	454.49	230.7	2.7209e-06	2.7326e-06	172.74	62.839	88.679	34.341	3.5945e-06	24.714	0.00027465	0.0002654	7.2078e-05	649.9	2.8901e-06	2.8759e-06	476.51	241.58	2.8824e-06	2.8577e-06	181.56	65.934	93.225	36.41	2.8204e-06	26.223	154.607	243.784	261.641	151.467	283.691	266.976	149.331	156.856	281.325	325.771	153.634	158.008	161.154	167.130	241.146	162.632	-8191	255	
22447.547	1	1	0	0	0.28361	0.071741	0.26967	0.25361	0.22516	0.27237	0.26926	0.18347	0.21066	0.12492	0.20498	0.16282	0.23759	0.07434	0.32502	0.30414	-2.0292	-2.175	-2.4792	-2.3937	-2.45	-2.5125	-2.25	-2.5646	-2.7646	-2.2396	-2.8417	-2.3667	-2.15	-2.4854	-2.2708	-2.6312	140.965	258.318	172.133	475.961	207.555	436.306	377.998	154.308	486.917	292.111	450.643	152.320	156.353	326.086	231.324	449.216	0.00040794	0.00014934	0.00015685	627.24	1.7359e-06	2.6571e-06	459.54	232.4	4.0536e-06	3.3246e-07	172.58	61.925	88.59	34.137	2.8865e-06	23.785	0.00026957	0.00026467	7.186e-05	655.85	2.8736e-06	2.9008e-06	478.37	242.64	2.9275e-06	2.8572e-06	180.48	64.973	92.493	36.064	2.9037e-06	25.26	155.997	272.372	214.679	151.383	261.072	309.463	148.944	156.670	227.450	383.886	153.489	158.181	160.898	167.001	322.019	162.517	-8191	255	
22447.666	1	1	0	0	0.34873	0.21279	0.15626	0.079133	0.29404	0.07295	0.085986	0.12435	0.10201	0.14653	0.1386	0.038049	0.18831	0.097524	0.091688	0.096725	-1.9937	-1.9813	-2.5354	-2.4646	-2.2125	-2.7333	-2.2792	-2.6	-2.4729	-2.2458	-2.775	-2.3937	-2.3812	-2.7687	-2.4479	-2.6271	480.939	337.878	263.606	479.404	178.278	441.329	488.576	180.425	327.544	148.716	281.596	150.402	450.717	365.083	466.664	244.396	0.00034214	0.00041247	6.0185e-05	619.68	3.2209e-06	1.8892e-06	445.38	229.4	5.1686e-06	2.2319e-06	170.27	61.188	87.599	33.933	1.6652e-06	23.904	0.00027185	0.00025817	7.2246e-05	647.83	2.8955e-06	2.8744e-06	467.42	240.37	2.8893e-06	2.8721e-06	178.27	64.215	92.053	35.902	2.8801e-06	25.298	157.253	229.355	284.512	151.610	253.151	330.287	149.400	156.663	250.516	261.647	153.656	157.944	161.536	167.221	327.830	162.728	-8191	255	
22447.762	1	1	0	0	0.16109	0.23923	0.083372	0.26579	0.084827	0.13558	0.25509	0.17696	0.24501	0.16659	0.2851	0.25624	0.21284	0.079539	0.13601	0.16778	-2.0729	-2.1104	-2.4875	-2.4896	-2.3	-2.6146	-2.4396	-2.5563	-2.7208	-2.3812	-2.6583	-2.4271	-2.3292	-2.7104	-2.2625	-2.3417	398.645	251.765	335.918	361.904	244.100	140.330	364.507	145.139	219.138	306.130	403.376	466.538	145.338	445.702	300.000	160.808	0.0003478	0.00036407	8.5654e-05	618.44	2.4712e-06	3.2266e-06	448.43	228.76	1.6287e-06	4.3955e-06	169.21	61.538	87.524	33.786	5.076e-06	24.128	0.00027538	0.00026372	7.2889e-05	647.35	2.9251e-06	2.869e-06	469.86	240.06	2.896e-06	2.8791e-06	178.02	64.564	92.062	35.889	2.9092e-06	25.535	153.611	244.066	180.109	151.459	254.744	325.959	149.109	156.909	291.262	309.966	153.383	158.008	161.466	167.138	261.100	162.728	-8191	255	
22447.857	1	1	0	0	0.07249	0.31418	0.09449	0.20333	0.15546	0.10209	0.099705	0.23434	0.13946	0.20437	0.077237	0.26023	0.11649	0.20296	0.1268	0.13813	-2.1208	-2.1271	-2.5	-2.8187	-2.0729	-2.7625	-2.5563	-2.4417	-2.8354	-2.3771	-2.6271	-2.4896	-2.2167	-2.9208	-2.4604	-2.4708	345.695	334.855	478.961	415.701	170.938	442.473	184.943	261.166	160.811	423.876	197.407	465.711	446.562	148.291	404.428	364.187	0.00038312	0.00047367	0.00015872	617.31	2.5434e-06	2.018e-06	450.77	229.25	3.156e-06	1.3561e-06	172.5	62.219	88.593	34.169	3.5889e-06	24.766	0.00027727	0.00026836	7.4168e-05	647.16	3.01e-06	2.9255e-06	470.94	240.27	2.9339e-06	2.9156e-06	179.6	65.39	92.473	36.215	2.9427e-06	26.102	154.844	212.754	239.999	151.353	250.781	368.577	149.496	156.706	241.170	226.579	153.342	157.528	161.038	167.193	265.412	162.882	-8191	255	
22447.953	1	1	0	0	0.096775	0.29991	0.10999	0.1041	0.030052	0.2304	0.16456	0.1641	0.12655	0.053146	0.11207	0.11346	0.19036	0.10233	0.24735	0.16876	-2.2625	-2.5667	-2.3708	-2.6208	-2.1312	-2.575	-2.65	-2.4396	-2.6229	-2.4292	-2.6417	-2.5167	-2.2833	-2.8667	-2.6417	-2.2771	259.631	408.280	483.019	274.874	463.941	245.912	487.212	403.794	409.064	492.029	206.851	475.359	473.050	379.993	477.685	482.530	0.00040436	0.00037994	0.00011631	617.14	2.0678e-06	1.4738e-06	519.16	269.66	4.7341e-06	2.7101e-06	202.15	74.46	103.77	40.428	5.1438e-06	28.231	0.00027453	0.0002671	7.3975e-05	648.65	2.9259e-06	3.0947e-06	532.69	278.17	3.4338e-06	3.3262e-06	210.25	76.571	107.23	42.033	3.3972e-06	29.527	157.152	192.953	251.740	151.523	242.867	272.957	144.284	154.917	268.432	258.448	152.385	156.464	160.178	165.979	252.903	161.429	-8191	255	
22448.074	1	1	0	0	0.022133	0.15217	0.19248	0.12254	0.10993	0.061472	0.20517	0.24817	0.12273	0.13218	0.24711	0.11226	0.048227	0.38345	0.18107	0.25403	-2.2521	-2.3667	-2.5687	-2.8833	-2.2625	-2.6292	-2.6083	-2.3604	-2.7917	-2.5938	-2.7208	-2.7896	-2.2208	-2.5917	-2.6917	-2.1396	323.587	456.588	351.029	250.217	440.610	247.551	279.455	273.543	240.053	260.824	188.587	445.881	470.788	448.217	334.704	245.699	0.00045408	0.00010707	0.00013844	719.79	6.3685e-06	4.5895e-06	516.55	265.89	4.2023e-06	9.3914e-07	197.85	71.946	102.7	39.682	1.4797e-06	27.593	0.000317	0.00030816	8.5744e-05	740.48	3.33e-06	3.3385e-06	531.95	274.53	3.2874e-06	3.2617e-06	202.91	74.248	105.98	41.386	3.3027e-06	28.895	153.381	161.117	274.254	150.371	280.557	286.696	148.007	155.595	240.209	315.771	152.504	156.693	159.993	165.774	217.033	161.503	-8191	255	
22448.172	1	1	0	0	0.074101	0.12298	0.09975	0.21265	0.041171	0.16481	0.26965	0.1719	0.13878	0.022818	0.10683	0.21289	0.19489	0.14176	0.1768	0.036086	-2.3542	-2.6063	-2.4688	-2.8458	-2.2583	-2.3979	-2.6562	-2.2083	-2.6604	-2.5438	-2.3708	-2.6646	-2.3583	-2.5042	-2.5563	-2.3896	397.917	220.241	173.134	151.723	474.045	281.082	292.198	367.950	479.618	415.928	416.435	358.511	457.208	485.414	447.974	182.077	0.00043771	0.0004456	8.7737e-05	717.04	4.9744e-06	3.9116e-06	517.45	266.95	2.4324e-06	6.9141e-07	196.56	72.414	102.3	39.916	4.823e-06	27.959	0.00030637	0.00029835	8.1759e-05	738.71	3.2688e-06	3.2427e-06	532.84	275.14	3.2195e-06	3.2537e-06	203.7	74.793	105.91	41.564	3.3099e-06	29.242	151.108	263.934	218.035	150.142	326.506	324.952	147.961	155.505	266.707	219.563	152.254	156.645	160.360	166.111	236.672	161.483	-8191	255	
22448.242	1	1	0	0	0.25781	0.30333	0.11196	0.13905	0.10617	0.1876	0.18169	0.080375	0.076939	0.21401	0.19542	0.34128	0.23285	0.10059	0.15837	0.061733	-2.2646	-2.3542	-2.5	-2.9458	-2.4583	-2.5771	-2.5646	-2.2188	-2.4896	-2.4875	-2.2687	-2.7167	-2.5104	-2.5042	-2.5042	-2.4396	395.904	351.917	313.342	141.065	481.446	447.082	222.502	305.712	209.680	168.550	346.837	397.525	464.224	368.927	315.034	274.517	0.00041944	0.00045343	0.00015641	715.94	4.1232e-06	5.474e-06	526.16	266.91	4.132e-06	2.7735e-06	223.91	84.87	120.42	46.766	6.2391e-06	33.563	0.00030754	0.00029765	8.4024e-05	740	3.2489e-06	3.2045e-06	538.3	274.98	3.1995e-06	3.3837e-06	227.08	85.776	121.8	47.976	3.7273e-06	34.285	154.603	263.437	219.229	150.147	269.691	287.946	148.048	155.708	231.146	303.962	147.499	155.100	158.862	164.686	267.031	159.947	-8191	255	
22448.361	1	1	0	0	0.059644	0.13633	0.15052	0.17564	0.013075	0.21781	0.10647	0.22433	0.20891	0.088689	0.12858	0.16412	0.1581	0.34388	0.13945	0.15074	-2.0312	-2.5021	-2.2438	-2.7896	-2.475	-2.3729	-2.6167	-2.3438	-2.5833	-2.6063	-2.3438	-2.6354	-2.475	-2.3875	-2.6417	-2.3958	419.996	247.886	369.664	468.929	329.275	146.970	422.995	377.921	138.803	462.168	416.587	474.127	430.032	457.130	380.180	189.613	0.00060535	0.00046483	0.00016943	847.2	4.0096e-06	3.4116e-06	621.84	313.3	3.5668e-06	4.5901e-06	236.32	86.111	121.06	47.441	6.4052e-06	34.316	0.00035967	0.00034114	9.5991e-05	857.36	3.7493e-06	3.7079e-06	626.38	318.44	3.806e-06	3.7691e-06	239.83	87.51	122.95	48.622	3.8163e-06	35.117	152.642	219.547	262.284	148.962	252.495	268.892	146.688	154.339	211.120	287.627	150.955	155.480	158.920	164.674	265.249	160.297	-8191	255	
22448.457	1	1	0	0	0.19808	0.22874	0.21294	0.46569	0.050038	0.061236	0.12135	0.086442	0.12972	0.12893	0.27073	0.27829	0.23501	0.24353	0.21374	0.21577	-2.0396	-2.6542	-2.3146	-2.7729	-2.5146	-2.3021	-2.8063	-2.3729	-2.4479	-2.6437	-2.3187	-2.7333	-2.3333	-2.3917	-2.8271	-2.3187	309.349	171.781	221.606	416.495	136.780	267.926	453.879	428.321	343.041	412.044	193.905	246.175	475.387	156.625	343.640	175.944	0.00057247	0.00071991	0.00015557	850.46	2.5979e-06	2.4697e-06	621.22	313.22	6.2094e-06	4.1867e-06	230.43	82.51	119.08	45.9	3.3728e-06	31.573	0.00036205	0.00034058	9.4351e-05	862.94	3.7256e-06	3.7051e-06	625.29	317.51	3.7972e-06	3.8135e-06	233.7	83.899	120.65	47.075	3.7541e-06	32.352	146.149	256.549	242.912	148.883	266.487	258.668	146.390	154.314	238.990	272.878	151.020	155.508	158.812	164.584	296.803	159.994	-8191	255	
22448.555	1	1	0	0	0.037741	0.18277	0.0035102	0.29527	0.0736	0.12304	0.18212	0.40401	0.14791	0.10182	0.26641	0.087443	0.34306	0.021099	0.13155	0.12981	-2.0062	-2.4396	-2.2438	-2.5125	-2.4583	-2.3167	-2.6562	-2.3479	-2.6021	-2.7188	-2.1583	-2.6396	-2.45	-2.4042	-2.5979	-2.4542	454.340	354.299	490.833	182.789	339.869	191.903	148.934	474.917	441.372	159.217	436.383	192.122	193.267	464.858	208.531	427.432	0.00048908	0.00061405	9.832e-05	841.13	5.1915e-06	5.6756e-06	599.88	310.57	5.0068e-06	3.2165e-06	228.04	81.184	117.93	45.396	5.735e-06	31.306	0.00035258	0.00034928	9.5679e-05	849.96	3.7143e-06	3.6887e-06	605.5	315.02	3.7983e-06	3.7031e-06	229.74	82.519	119.99	46.635	3.7128e-06	32.124	157.830	214.284	227.107	148.735	330.677	263.953	146.673	154.295	263.750	306.872	150.629	155.491	158.760	164.516	271.707	160.077	-8191	255	
22448.650	1	1	0	0	0.089829	0.37624	0.1827	0.30341	0.11693	0.13326	0.38032	0.16018	0.14775	0.22925	0.071152	0.20606	0.21897	0.12134	0.15436	0.1226	-1.9542	-2.7625	-2.4104	-2.6312	-2.6229	-2.2875	-2.825	-2.5521	-2.5771	-2.7687	-2.2875	-2.6521	-2.5854	-2.3438	-2.7583	-2.5812	489.818	293.780	174.823	479.631	177.304	136.501	387.130	464.337	379.236	397.663	266.242	420.541	169.865	483.718	207.396	406.315	0.00050485	0.00056165	0.00026077	982.91	6.2743e-06	6.1876e-06	698.57	363.58	6.0643e-06	2.725e-06	265.75	95.425	139.12	53.81	8.8407e-06	37.359	0.00036893	0.00038376	0.00010867	979.79	4.3191e-06	4.2821e-06	697.58	362.95	4.351e-06	4.2801e-06	265.37	95.479	138.47	54.055	4.3684e-06	37.661	150.112	232.110	245.883	147.293	267.904	296.057	145.193	152.701	239.498	266.889	149.802	153.814	157.276	162.935	255.673	158.444	-8191	255	
22448.746	1	1	0	0	0.068282	0.19075	0.25033	0.10058	0.21052	0.20873	0.11264	0.26451	0.23977	0.069998	0.19045	0.30577	0.33755	0.20362	0.13688	0.05575	-1.9021	-2.6667	-2.4542	-2.4813	-2.5458	-2.4688	-2.8312	-2.5917	-2.2542	-2.8333	-2.3375	-2.3937	-2.7771	-2.4854	-2.4854	-2.5479	492.427	193.963	365.211	478.566	206.456	305.192	402.334	459.456	293.525	140.722	384.540	363.602	239.495	152.960	421.592	341.840	0.00057831	0.001007	0.0001158	986.37	2.2513e-06	1.7095e-06	708.26	364.86	7.4247e-06	3.0749e-06	267.54	97.411	140.24	54.182	4.9392e-06	38.25	0.00040854	0.00039295	0.00011127	981.33	4.3728e-06	4.3622e-06	703.85	363.68	4.4547e-06	4.2552e-06	268.06	97.125	139.17	54.574	4.3858e-06	38.545	151.361	214.004	251.674	147.298	210.364	220.159	145.415	152.970	273.462	246.887	149.916	154.465	157.350	163.369	245.148	158.763	-8191	255	
22448.842	1	1	0	0	0.10159	0.26498	0.29004	0.41012	0.15012	0.20535	0.12786	0.2928	0.20485	0.035127	0.28918	0.13674	0.19543	0.11569	0.12431	0.15005	-1.6958	-2.5229	-2.2583	-2.5396	-2.6937	-2.3479	-2.8708	-2.6979	-2.4167	-2.6417	-2.5625	-2.5271	-2.6854	-2.3792	-2.4313	-2.5167	249.467	154.224	258.402	484.219	211.841	325.665	381.941	455.739	306.182	323.858	484.169	341.699	459.912	472.020	145.534	452.422	0.00059824	0.00053748	0.00020065	982.97	4.2462e-06	1.8833e-06	709.13	365.46	6.2104e-06	4.8094e-06	269.2	97.421	139.58	53.353	2.4981e-06	36.874	0.00042002	0.00039703	0.00011181	979.65	4.4497e-06	4.3573e-06	706.77	363.51	4.5624e-06	4.4007e-06	268.96	97.228	138.91	54	4.4542e-06	37.154	152.336	290.116	178.984	147.572	266.816	324.614	145.433	152.823	300.244	270.238	149.726	153.947	157.354	163.024	200.493	158.637	-8191	255	
22448.938	1	1	0	0	0.20814	0.18249	0.097497	0.094558	0.12235	0.10196	0.097147	0.033673	0.041186	0.1661	0.15198	0.24249	0.21476	0.23873	0.27175	0.057693	-1.7708	-2.7188	-2.5229	-2.6312	-2.7562	-2.4875	-2.4875	-2.7188	-2.2167	-2.7396	-2.6208	-2.3021	-2.7833	-2.3542	-2.5812	-2.6542	290.158	188.384	205.671	219.542	186.232	308.376	477.640	322.396	399.052	310.571	437.904	467.021	480.928	152.514	425.942	322.542	0.00058737	0.0007919	0.00015885	971.04	5.2089e-06	4.9613e-06	681.08	357.82	4.5262e-06	2.3678e-06	259.4	95.805	137.3	53.074	4.2817e-06	35.878	0.00041233	0.00040113	0.00011465	965.6	4.4856e-06	4.5474e-06	679.41	356.6	4.5519e-06	4.4084e-06	260	95.635	138.02	53.494	4.5815e-06	36.47	152.971	219.116	256.527	147.675	238.540	255.723	145.458	153.008	279.722	312.766	149.556	153.949	157.253	163.049	305.791	158.664	-8191	255	
22449.033	1	1	0	0	0.064296	0.058015	0.21651	0.16246	0.40702	0.094338	0.234	0.11221	0.18362	0.27629	0.19693	0.23488	0.15923	0.262	0.204	0.22758	-1.8125	-2.5812	-2.4229	-2.4792	-2.6458	-2.1937	-2.675	-3.0104	-2.2833	-2.7646	-2.5875	-2.3375	-2.9083	-2.5333	-2.3417	-2.8167	205.723	277.287	236.416	139.597	262.856	467.703	417.854	321.172	488.104	253.948	160.518	220.564	472.273	453.800	362.756	396.851	0.00061065	0.00024205	0.00026536	955.25	6.8522e-06	5.5519e-06	675.43	356.26	4.7479e-06	1.7019e-06	261.46	97.361	139.82	53.26	9.4431e-06	37.027	0.00043515	0.0004159	0.00011588	952.51	4.5907e-06	4.4661e-06	673.8	355.19	4.5994e-06	4.466e-06	260.9	97.549	139.1	53.944	4.6625e-06	37.389	151.250	277.222	247.259	147.747	275.769	275.843	145.707	152.804	249.554	249.043	149.478	154.290	157.391	163.225	239.810	158.787	-8191	255	
22449.154	1	1	0	0	0.1432	0.081613	0.019662	0.06032	0.24332	0.075464	0.35826	0.19004	0.052596	0.12932	0.16039	0.163	0.065395	0.17337	0.1219	0.20237	-1.7229	-2.5354	-2.6417	-2.4458	-2.6292	-2.3771	-2.5583	-2.7875	-2.3187	-2.6083	-2.7562	-2.5771	-2.6875	-2.6937	-2.4625	-2.7042	351.402	237.608	246.595	441.350	181.685	432.750	388.519	440.550	455.312	429.835	192.529	217.780	284.205	491.479	179.478	175.660	0.00058533	0.00085977	0.00011296	960.39	3.7492e-06	1.0263e-05	679.76	356.83	7.1974e-06	8.8007e-07	262.81	97.836	139.92	53.761	5.6003e-06	37.243	0.00043091	0.00041565	0.00011422	956.62	4.5435e-06	4.5732e-06	681.46	357.18	4.5619e-06	4.5103e-06	262.63	98.042	139.54	54.161	4.6699e-06	37.69	148.149	214.656	224.385	147.633	295.746	289.146	145.338	152.935	249.325	298.085	149.682	153.862	157.322	163.281	225.938	158.633	-8191	255	
22449.252	1	1	0	0	0.074575	0.051156	0.15346	0.18613	0.06387	0.037087	0.029939	0.32144	0.32296	0.034551	0.094169	0.18005	0.28389	0.23324	0.046323	0.2407	-1.9854	-2.4	-2.6729	-2.4042	-2.7458	-2.475	-2.4437	-3.0354	-2.4292	-2.7042	-2.6667	-2.3354	-2.7667	-2.6521	-2.3583	-2.975	356.348	260.627	187.248	186.129	462.794	314.890	141.619	410.608	151.164	365.209	391.419	157.204	322.257	457.602	370.359	459.882	0.00059012	0.0008501	0.00011868	963.7	2.5723e-06	5.2221e-06	689.88	359.75	4.2495e-06	6.0566e-06	265.5	99.146	140.5	53.574	7.1242e-06	38.063	0.0004265	0.00041674	0.00011616	965.29	4.5536e-06	4.614e-06	688.79	359.2	4.5666e-06	4.5034e-06	265.03	99.274	140.38	54.325	4.6307e-06	38.435	153.669	250.980	181.736	147.558	272.527	283.550	145.519	152.902	265.434	233.738	149.640	153.973	157.408	163.019	217.826	158.766	-8191	255	
22449.348	1	1	0	0	0.15094	0.14198	0.2724	0.24823	0.073018	0.14649	0.13284	0.087007	0.069582	0.1884	0.079803	0.13875	0.33183	0.13645	0.19167	0.18249	-1.9875	-2.2458	-2.5896	-2.3563	-2.7083	-2.7125	-2.375	-2.7938	-2.325	-2.5583	-2.7333	-2.275	-2.5604	-2.6042	-2.275	-2.7854	355.065	462.255	214.470	401.699	221.439	316.773	418.789	194.546	486.576	140.038	356.957	418.381	137.112	416.026	250.405	405.490	0.0006233	0.0005	0.00020289	971.09	5.9821e-06	3.6562e-06	683.34	355.22	9.3461e-06	3.3817e-06	258.53	95.062	137.97	52.191	5.1842e-06	34.774	0.00042794	0.0004172	0.00011668	965.28	4.6189e-06	4.6299e-06	680.47	355.88	4.5931e-06	4.5553e-06	258.58	95.227	137.88	52.703	4.6219e-06	35.32	153.307	235.017	320.321	147.617	292.263	266.840	145.337	152.947	282.773	271.197	149.414	154.195	157.339	163.256	271.009	158.356	-8191	255	
22449.467	1	1	0	0	0.081276	0.28096	0.12433	0.093298	0.20516	0.1061	0.2597	0.25362	0.076515	0.16751	0.26502	0.21292	0.20238	0.2724	0.20349	0.0852	-2.0042	-2.275	-2.6979	-2.3833	-2.6312	-2.7396	-2.3625	-2.8312	-2.5479	-2.4771	-2.7729	-2.4708	-2.4917	-2.6771	-2.2188	-2.7583	192.571	282.612	436.571	404.598	293.249	153.992	334.567	401.290	460.951	180.162	384.890	421.619	406.312	168.462	275.265	141.102	0.00051041	5.5688e-05	0.00023424	956.89	4.0394e-06	5.7387e-06	670.89	354.38	7.3078e-06	3.8596e-06	254.26	94.562	137.71	52.113	6.3899e-06	35.11	0.00042348	0.00041836	0.00011664	953	4.5482e-06	4.5635e-06	667.04	354.88	4.634e-06	4.618e-06	255.06	94.474	137.64	52.549	4.6004e-06	35.494	156.156	273.675	253.849	147.588	179.864	310.321	145.517	152.804	255.459	242.892	149.640	153.926	157.486	163.050	297.348	159.044	-8191	255	
22449.537	1	1	0	0	0.23387	0.16459	0.16843	0.17075	0.16385	0.15619	0.21171	0.35808	0.34106	0.24219	0.23528	0.11877	0.10479	0.070823	0.08379	0.20298	-2.0146	-2.3458	-2.6625	-2.3896	-2.5333	-2.6729	-2.4604	-2.8229	-2.4583	-2.3396	-2.7583	-2.2667	-2.4813	-2.8604	-2.2792	-2.7542	433.731	241.119	443.679	412.617	431.544	410.906	440.829	418.012	480.665	441.155	293.616	480.673	390.531	183.225	327.969	197.351	0.00058241	0.00051707	0.00020417	962.13	3.817e-06	2.8674e-06	677.35	355.9	7.376e-06	3.7885e-06	257.36	95.338	138.99	52.961	5.4496e-06	35.798	0.00042506	0.00041902	0.00011363	959.55	4.5807e-06	4.5189e-06	674.2	356.11	4.5732e-06	4.4789e-06	258.13	95.413	138.33	53.256	4.6518e-06	36.212	151.400	211.937	257.611	147.592	298.221	369.668	145.431	152.937	227.855	281.031	149.559	154.011	157.366	162.942	268.956	158.966	-8191	255	
22449.635	1	1	0	0	0.11802	0.37252	0.18922	0.15555	0.1074	0.36837	0.24678	0.20251	0.094308	0.067862	0.14081	0.35053	0.17036	0.19079	0.21363	0.042252	-2.2875	-2.3771	-2.6479	-2.4021	-2.4292	-2.7938	-2.3187	-2.4896	-2.6042	-2.3417	-2.6437	-2.5458	-2.5146	-2.7604	-2.3417	-2.7229	439.966	308.376	383.244	470.738	155.003	430.496	460.208	450.519	288.074	183.163	384.414	485.415	173.138	424.575	392.410	297.566	0.00056965	0.00085358	0.00010962	963.54	4.8309e-06	1.0053e-05	681.53	357.02	2.1382e-06	4.2686e-06	260.81	97.289	139.48	53.407	5.2755e-06	36.935	0.00043292	0.00041684	0.00011583	959.32	4.6858e-06	4.5792e-06	680.66	357.36	4.6204e-06	4.554e-06	260.68	97.346	139.3	53.824	4.607e-06	37.431	150.501	252.533	143.480	147.602	273.338	281.672	145.321	152.952	270.385	254.112	149.662	154.228	157.483	162.919	269.719	158.751	-8191	255	
22449.756	1	1	0	0	0.17866	0.044322	0.10716	0.32507	0.20877	0.16354	0.28346	0.19495	0.12767	0.16993	0.029844	0.10603	0.16797	0.13776	0.045844	0.43638	-2.1333	-2.35	-2.6271	-2.5521	-2.3646	-2.7583	-2.6771	-2.7583	-2.6437	-2.3417	-2.9938	-2.6021	-2.4625	-2.8	-2.4208	-2.6375	306.072	166.772	354.355	384.975	427.862	360.248	472.963	431.270	144.542	147.545	201.931	391.472	351.595	422.547	205.992	135.451	0.00059266	0.00061776	0.00020661	967.47	2.9686e-06	5.3224e-06	692.21	357.75	5.5905e-06	3.5289e-06	263.42	98.268	139.97	53.209	6.23e-06	36.182	0.00042688	0.00042194	0.00011695	964.64	4.6001e-06	4.44e-06	689.76	358.17	4.6287e-06	4.5591e-06	264.55	98.351	139.57	53.793	4.5881e-06	36.682	158.433	147.122	215.916	147.603	295.190	249.574	145.548	152.761	261.618	243.090	149.685	154.164	157.199	163.241	267.405	158.784	-8191	255	
22449.852	1	1	0	0	0.072306	0.22048	0.089492	0.14522	0.32638	0.091855	0.21054	0.074321	0.18255	0.26357	0.16061	0.26573	0.19344	0.38047	0.22083	0.18926	-2.1896	-2.2938	-2.7875	-2.6896	-2.3792	-2.7167	-2.4188	-2.7021	-2.6958	-2.4229	-2.7583	-2.65	-2.5	-2.8208	-2.5167	-2.5042	235.244	378.858	325.003	419.608	142.755	328.569	375.807	429.986	142.088	313.196	490.667	459.476	363.627	486.313	404.602	396.141	0.00051818	0.00065028	0.00012389	956.22	6.7598e-06	3.0937e-06	676.29	356.2	8.7554e-06	2.4057e-06	256.95	96.144	138.53	52.553	5.4251e-06	36.157	0.00042396	0.00040789	0.00011412	953.5	4.5343e-06	4.4099e-06	673.81	355.2	4.4829e-06	4.411e-06	257.55	95.902	137.99	53.241	4.4138e-06	36.571	151.354	208.089	257.450	147.513	246.210	329.060	145.403	152.938	269.824	319.015	150.213	154.110	157.195	163.319	263.264	158.717	-8191	255	
22449.947	1	1	0	0	0.086345	0.23355	0.27206	0.2024	0.27016	0.093601	0.1337	0.39854	0.23551	0.19842	0.20264	0.26425	0.15596	0.28402	0.081407	0.17033	-2.3187	-2.2917	-2.5563	-2.7396	-2.4083	-2.825	-2.6125	-2.5771	-2.9125	-2.3417	-2.4854	-2.6271	-2.3354	-2.8354	-2.2438	-2.3646	426.252	361.408	348.925	482.749	187.272	172.827	381.828	140.475	237.054	308.193	434.929	415.721	472.127	477.999	324.254	298.629	0.00062155	0.000676	0.00016427	957.4	2.0533e-06	4.9287e-06	678.95	355.17	3.2887e-06	6.291e-06	261.63	97.729	139.27	53.785	3.4456e-06	37.3	0.00041734	0.00040305	0.0001134	954.63	4.3243e-06	4.4116e-06	680.35	355.16	4.5128e-06	4.397e-06	261.45	97.635	138.86	54.19	4.431e-06	37.787	161.425	238.260	237.129	147.575	368.053	326.866	145.661	152.768	256.837	326.017	149.642	154.010	157.468	163.347	265.133	158.366	-8191	255	
22450.043	1	1	0	0	0.11136	0.21907	0.037775	0.22919	0.13344	0.2124	0.19956	0.13561	0.15494	0.11236	0.36931	0.082279	0.053014	0.1881	0.16455	0.15615	-2.3417	-2.1437	-2.5146	-2.5833	-2.1437	-2.5583	-2.6229	-2.6292	-2.6167	-2.3271	-2.5812	-2.6375	-2.3	-2.7167	-2.3292	-2.3771	385.145	393.112	414.791	382.512	249.274	245.118	440.587	358.959	489.114	152.561	403.672	355.442	164.298	418.367	260.279	427.369	0.00052699	0.00019903	0.00029379	958.12	2.5148e-06	1.3178e-06	688.6	357.14	5.6207e-06	3.1376e-06	264.43	99.632	139.78	54.488	4.1837e-06	38.25	0.00042114	0.00039933	0.00011193	957.46	4.4495e-06	4.4331e-06	687.59	357.33	4.5775e-06	4.5208e-06	264.97	99.66	139.95	54.891	4.6124e-06	38.815	149.091	135.478	204.891	147.626	261.320	395.501	145.728	152.989	206.449	299.821	149.866	154.276	157.663	163.265	230.335	158.474	-8191	255	
22450.139	1	1	0	0	0.071149	0.2675	0.023863	0.23997	0.28552	0.12189	0.21975	0.1195	0.11364	0.10272	0.17763	0.23066	0.16639	0.16426	0.30689	0.10756	-2.1521	-2.3375	-2.4	-2.6063	-2.45	-2.5208	-2.6458	-2.4167	-2.5417	-2.3375	-2.4125	-2.7729	-2.2417	-2.7812	-2.4604	-2.3042	167.694	447.591	277.723	410.950	465.959	384.773	136.428	470.526	314.480	327.653	148.001	393.950	478.708	491.244	164.880	373.418	0.00056695	0.00029755	0.00024434	966.59	5.5816e-06	4.0302e-06	699.34	360.61	4.6364e-06	4.0047e-06	268.92	101.25	141.6	54.979	6.3573e-06	39.09	0.0004226	0.00040996	0.00011533	962.43	4.4926e-06	4.5461e-06	697.58	359.78	4.5499e-06	4.4043e-06	269.17	101.23	141.04	55.485	4.5716e-06	39.678	153.659	315.936	237.308	147.560	276.757	340.972	145.286	152.753	256.149	258.217	149.495	154.102	157.500	163.222	245.293	158.970	-8191	255	
22450.234	1	1	0	0	0.17056	0.22679	0.21929	0.32434	0.23415	0.31164	0.085407	0.056645	0.17335	0.30726	0.090716	0.25736	0.16109	0.3637	0.17025	0.28751	-2.2396	-2.3708	-2.4417	-2.7604	-2.1917	-2.5167	-2.6396	-2.3646	-2.6125	-2.2229	-2.3854	-2.7771	-2.1896	-2.5938	-2.6375	-2.1437	485.889	382.041	254.449	431.107	488.325	206.811	197.900	379.423	405.968	415.719	200.165	199.526	251.230	443.302	298.013	430.194	0.00062887	0.00042436	0.00017813	966.37	4.2908e-06	3.7745e-06	692.84	357.5	6.401e-06	1.9875e-06	261.91	98.775	139.14	53.589	6.9352e-06	36.856	0.0004283	0.000404	0.00011709	963.83	4.5222e-06	4.446e-06	693.57	357.96	4.4906e-06	4.4001e-06	263.39	98.113	139.25	54.056	4.449e-06	37.164	156.838	158.040	244.579	147.715	270.088	275.381	145.247	152.900	265.144	205.911	149.763	153.724	157.448	163.102	300.202	158.714	-8191	255	
22450.332	1	1	0	0	0.31426	0.2695	0.21524	0.14743	0.083445	0.10772	0.24874	0.31941	0.20345	0.15528	0.12916	0.1629	0.44397	0.31257	0.15313	0.08828	-2.1771	-2.4437	-2.3208	-2.875	-2.2062	-2.3063	-2.6063	-2.2417	-2.5146	-2.5292	-2.2062	-2.6521	-2.375	-2.3583	-2.5458	-2.3333	328.814	166.348	346.094	457.012	489.182	143.147	466.718	460.755	336.171	475.401	439.683	414.538	493.205	469.822	315.780	364.944	0.00056723	0.00049572	0.0001941	954.94	3.7133e-06	2.4922e-06	680.07	355.23	5.874e-06	1.0591e-06	262	97.568	139.6	53.636	3.8958e-06	37.075	0.00041694	0.00040127	0.00011131	949.46	4.4064e-06	4.4565e-06	675.02	354.39	4.4491e-06	4.3568e-06	260.73	97.467	139.13	54.076	4.4167e-06	37.355	153.472	168.581	255.307	147.503	330.130	285.888	145.247	152.961	248.844	463.858	149.511	153.930	157.277	163.338	247.394	158.743	-8191	255	
22450.428	1	1	0	0	0.34936	0.069835	0.074602	0.1514	0.078037	0.12664	0.27686	0.2755	0.15342	0.19827	0.23995	0.13477	0.1279	0.25527	0.16279	0.28698	-2.0292	-2.2479	-2.35	-2.8521	-2.3458	-2.4146	-2.7313	-2.4625	-2.5833	-2.7646	-2.1562	-2.6063	-2.4667	-2.4333	-2.825	-2.3333	369.900	255.236	364.136	425.678	269.718	329.849	389.829	470.030	240.055	339.831	459.543	137.446	481.227	487.054	164.752	385.587	0.00058262	0.00040297	9.6419e-05	957.65	3.868e-06	1.229e-06	682.49	355.05	2.7295e-06	4.3076e-06	261.31	98.627	140.25	53.855	6.1588e-06	37.661	0.00042082	0.00040745	0.0001146	953.46	4.4571e-06	4.4306e-06	678.65	355.56	4.5055e-06	4.3531e-06	261.96	98.397	139.56	54.407	4.4527e-06	38.031	154.947	221.539	238.309	147.594	227.835	302.184	145.194	152.756	268.946	217.439	149.749	153.910	157.523	163.126	261.457	158.380	-8191	255	
22450.547	1	1	0	0	0.14349	0.11681	0.19678	0.23746	0.018383	0.17705	0.11939	0.26812	0.10508	0.12196	0.39864	0.14423	0.04163	0.23416	0.19815	0.16856	-1.9979	-2.5771	-2.3563	-2.7333	-2.3646	-2.3958	-2.5917	-2.5125	-2.7646	-2.7333	-2.4958	-2.7167	-2.7313	-2.4938	-2.8625	-2.5521	448.049	237.897	447.984	461.524	377.591	206.410	390.210	442.815	137.746	335.272	451.761	444.876	330.195	407.844	372.225	438.743	0.000619	0.00077209	0.00021493	961.68	4.1487e-06	3.9084e-06	689.04	357.94	6.6796e-06	3.1595e-06	265.8	99.616	140.66	54.227	7.0247e-06	39.162	0.00042172	0.00040977	0.00011456	955.48	4.5276e-06	4.3925e-06	685.4	357.14	4.5393e-06	4.4275e-06	265.18	99.682	140.34	54.768	4.5425e-06	37.957	150.626	185.593	216.039	147.499	248.564	269.354	145.530	152.880	255.791	277.614	149.448	154.239	157.261	162.988	263.148	144.707	-8191	255	
22450.643	1	1	0	0	0.084234	0.17254	0.22256	0.089395	0.26613	0.18124	0.081525	0.15978	0.12024	0.21332	0.18197	0.28382	0.2486	0.28068	0.14041	0.1143	-2.1437	-2.5396	-2.3021	-2.7354	-2.5354	-2.4521	-2.9771	-2.65	-2.6625	-2.8563	-2.3042	-2.6292	-2.7167	-2.5771	-2.8896	-2.7479	329.376	315.003	289.799	489.138	438.246	288.285	407.661	473.141	474.282	317.010	209.184	389.572	155.804	446.947	314.116	408.633	0.00060819	0.00076559	3.4095e-05	1117	5.6837e-06	4.9561e-06	808.37	415.56	5.7174e-06	5.0151e-06	305.77	115.07	161.63	62.248	7.8392e-06	42.484	0.00047197	0.00045655	0.00013035	1095.2	5.0606e-06	5.1237e-06	791.13	408	5.1286e-06	5.0325e-06	302.99	113.25	158.88	61.806	5.0291e-06	42.374	151.005	228.692	221.749	145.989	309.317	284.695	143.914	151.334	256.686	311.611	148.054	152.924	155.873	161.564	263.540	156.939	-8191	255	
22450.715	1	1	0	0	0.20876	0.30251	0.068537	0.15467	0.092416	0.18843	0.08087	0.10283	0.19251	0.13496	0.2787	0.16012	0.03604	0.18626	0.2004	0.2844	-1.9896	-2.7	-2.5146	-2.7188	-2.575	-2.3708	-2.8292	-2.6188	-2.5771	-2.7083	-2.6479	-2.7021	-2.8292	-2.4854	-2.8292	-2.6625	390.557	388.257	386.090	223.856	468.071	491.560	462.295	462.321	212.142	135.619	313.489	377.709	256.920	177.124	439.203	435.183	0.00068494	0.00052687	9.1355e-05	1104.1	4.8243e-06	6.007e-06	780.94	408.51	3.5773e-06	2.3639e-06	296.28	109.79	159.59	60.779	6.9453e-06	41.109	0.00047491	0.00045078	0.00012538	1081.9	4.9993e-06	4.955e-06	762.17	401.42	4.9358e-06	4.8668e-06	291.99	108.03	156.29	60.361	5.0723e-06	40.904	147.326	179.835	359.961	146.195	264.527	265.430	143.642	151.714	267.130	250.998	148.209	152.544	155.741	161.574	276.572	157.408	-8191	255	
22450.836	1	1	0	0	0.22458	0.075174	0.12697	0.33314	0.11506	0.2892	0.15426	0.19757	0.19503	0.20662	0.34624	0.094339	0.31209	0.34127	0.084845	0.051619	-2.0208	-2.7792	-2.4667	-2.6958	-2.7042	-2.4396	-2.8417	-2.7167	-2.4854	-2.9062	-2.4938	-2.6021	-2.9313	-2.5396	-2.7125	-2.6104	344.919	225.525	421.711	440.427	141.577	246.073	434.930	392.321	301.673	256.374	414.732	165.109	452.364	428.304	314.039	338.813	0.0006585	9.6379e-05	0.00017594	1097.7	6.037e-06	7.7925e-07	775.52	407.19	4.8257e-06	6.314e-06	297.22	110.73	159.96	61.076	6.8455e-06	42.114	0.00047222	0.00045167	0.00012791	1075.3	4.9342e-06	4.9461e-06	758.39	400.67	5.0199e-06	4.988e-06	291.86	109.1	156.42	60.825	5.0056e-06	41.798	149.063	470.456	248.577	146.222	257.334	275.322	143.484	151.249	250.647	321.379	148.515	152.687	155.676	161.695	235.790	157.136	-8191	255	
22450.932	1	1	0	0	0.14367	0.31579	0.16917	0.19006	0.073	0.30336	0.10912	0.1887	0.089308	0.074083	0.16731	0.21503	0.29751	0.17304	0.044144	0.11296	-1.9438	-2.7292	-2.35	-2.6375	-2.6875	-2.1917	-2.6979	-2.7479	-2.4271	-2.8979	-2.5938	-2.6562	-2.8333	-2.6208	-2.6729	-2.8646	189.253	239.494	393.706	202.833	443.770	235.629	209.088	174.449	215.468	312.484	484.592	440.719	461.435	465.698	162.068	467.851	0.00068359	0.00037549	0.0001187	1100.8	4.768e-06	8.3806e-06	783.72	409.52	6.6366e-06	4.7103e-06	299.34	112.43	160.58	62.133	6.0066e-06	42.688	0.00047531	0.00046139	0.00012595	1078.2	5.1393e-06	5.0186e-06	767.32	402.76	5.1209e-06	5.0108e-06	294.78	110.54	157.42	61.517	5.0907e-06	42.624	151.946	334.100	256.355	146.141	296.598	325.734	143.791	151.247	279.544	254.921	148.049	152.585	156.006	161.623	262.055	157.331	-8191	255	
22451.027	1	1	0	0	0.15305	0.12364	0.19617	0.15304	0.1068	0.10773	0.19059	0.2982	0.20147	0.14938	0.10224	0.39483	0.28443	0.26811	0.069387	0.1473	-1.8625	-2.6458	-2.4688	-2.5625	-2.7687	-2.3333	-2.7417	-2.8604	-2.2917	-2.8187	-2.4854	-2.4188	-2.7583	-2.625	-2.6667	-2.7458	339.990	273.107	379.670	151.809	489.339	255.117	192.238	463.138	373.455	303.596	454.476	442.400	432.455	477.084	413.998	399.996	0.00064264	0.00029721	9.0442e-05	1102.5	7.1649e-06	1.5099e-06	790.05	411.81	7.865e-06	4.4409e-06	305.48	114.05	162.22	62.782	7.949e-06	44.196	0.00047832	0.00046251	0.00012823	1083.2	5.053e-06	5.1197e-06	775.88	405	5.0918e-06	5.0857e-06	300.08	112.32	158.69	62.336	5.2022e-06	43.92	148.865	173.876	491.986	146.060	250.391	334.686	144.140	151.265	247.644	283.006	148.230	152.589	155.889	161.687	257.610	157.428	-8191	255	
22451.148	1	1	0	0	0.22602	0.064943	0.15362	0.29735	0.12234	0.090222	0.10572	0.14836	0.23956	0.11791	0.15693	0.12468	0.23132	0.37348	0.30695	0.12975	-1.8771	-2.5187	-2.5333	-2.5667	-2.8667	-2.4813	-2.6417	-2.8521	-2.5646	-2.8208	-2.7062	-2.4729	-2.8	-2.6146	-2.6333	-2.5646	482.313	220.740	474.983	473.644	209.883	466.810	320.465	386.172	224.888	310.662	444.044	439.003	133.921	453.931	477.913	401.010	0.00071339	0.00071364	0.00015333	1107	2.4873e-06	4.0118e-06	795.22	411.06	3.5527e-06	4.772e-06	299.78	110.9	158.89	61.201	5.8507e-06	41.611	0.00048132	0.00046809	0.0001287	1088.3	5.0712e-06	4.9809e-06	778.34	404.31	5.0603e-06	5.1209e-06	295.01	109.52	156.38	60.815	5.0577e-06	41.358	144.107	213.041	272.989	146.020	254.949	220.814	143.986	151.357	292.920	344.978	148.357	152.606	156.076	161.643	267.229	157.239	-8191	255	
22451.242	1	1	0	0	0.15196	0.15849	0.26242	0.057575	0.12443	0.11394	0.053129	0.34081	0.090756	0.18813	0.11638	0.26115	0.34084	0.1056	0.083493	0.26354	-1.9729	-2.5292	-2.5812	-2.5542	-2.6667	-2.4125	-2.5917	-2.8917	-2.3875	-2.5667	-2.6083	-2.5271	-2.6875	-2.8812	-2.4021	-2.6896	137.541	463.809	260.703	193.673	264.394	451.663	230.613	421.688	352.132	395.645	318.180	178.053	356.608	172.799	367.566	420.364	0.00061957	0.00039718	0.00015373	1093.3	3.6581e-06	3.1861e-06	775.69	406.1	5.5903e-06	1.4079e-06	296.67	110.63	159.8	61.277	6.4741e-06	41.912	0.00047752	0.00045528	0.00012583	1072.9	5.0108e-06	4.9225e-06	757.56	400.17	5.177e-06	4.9469e-06	292.61	108.85	156.41	60.848	4.9979e-06	41.73	146.758	225.142	221.450	146.039	320.254	259.614	143.793	151.373	248.336	298.923	148.260	152.611	156.007	161.453	245.025	157.472	-8191	255	
22451.340	1	1	0	0	0.054266	0.064573	0.12424	0.17566	0.1107	0.14131	0.17508	0.07148	0.10715	0.065196	0.12471	0.27879	0.1513	0.16013	0.13153	0.083737	-2.1021	-2.4979	-2.7354	-2.3729	-2.7	-2.4542	-2.5625	-2.95	-2.4396	-2.6937	-2.6917	-2.4771	-2.7375	-2.6896	-2.5479	-2.9417	478.830	304.093	202.757	352.462	311.456	474.623	394.917	321.273	188.183	148.782	360.840	166.822	309.197	478.566	237.492	190.600	0.00057716	0.00078876	0.00022538	1091.3	7.4448e-06	8.2044e-06	776.16	408.66	7.6833e-06	3.2743e-06	299.3	111.21	158.54	61.465	8.3474e-06	42.266	0.00047887	0.00045903	0.0001271	1073.8	5.1102e-06	5.0123e-06	762.9	401.43	5.0804e-06	5.1095e-06	293.81	109.55	156.14	61.055	5.0813e-06	41.975	155.688	215.001	252.833	145.985	289.770	248.985	143.893	151.270	258.970	275.736	148.138	152.672	155.685	161.528	230.078	157.159	-8191	255	
22451.436	1	1	0	0	0.1787	0.16683	0.27753	0.2985	0.22867	0.052431	0.16252	0.10297	0.12054	0.25592	0.33298	0.082131	0.19987	0.049115	0.4084	0.033097	-2.1125	-2.6375	-2.8104	-2.4792	-2.6792	-2.6896	-2.4979	-2.9688	-2.5187	-2.4188	-2.8667	-2.5771	-2.9042	-2.8771	-2.55	-2.7854	235.208	284.325	295.906	458.471	457.762	411.979	358.548	437.058	223.252	270.016	380.991	206.768	453.855	184.363	323.618	418.366	0.00065903	0.0008757	0.00019643	1098.1	2.1441e-06	5.8954e-06	788.84	410.91	5.7694e-06	3.0279e-06	302.09	112.57	160.34	61.759	6.6282e-06	43.277	0.0004764	0.00047232	0.00013161	1080.1	5.0985e-06	4.9659e-06	770.84	403.61	5.1653e-06	5.0876e-06	297.22	110.41	157.32	61.444	5.0877e-06	42.934	157.787	232.511	258.163	146.282	248.360	276.807	143.872	151.432	285.836	298.369	148.006	152.536	156.050	161.617	287.310	156.886	-8191	255	
22451.531	1	1	0	0	0.30499	0.26647	0.11207	0.27574	0.18733	0.084209	0.17376	0.10349	0.18568	0.029522	0.21416	0.12704	0.16476	0.23047	0.18678	0.36728	-2.1417	-2.4708	-2.8563	-2.4562	-2.5812	-2.6958	-2.4833	-2.7687	-2.4917	-2.6292	-3.0833	-2.5146	-2.5458	-2.8854	-2.3104	-2.6583	146.539	352.815	285.667	167.448	225.289	220.589	310.737	300.236	346.878	368.093	276.264	134.847	203.910	163.842	191.147	401.547	0.00068579	0.00038644	0.00016462	1111	3.8831e-06	4.2632e-06	793.81	412.73	5.5769e-06	3.9634e-06	303.83	112.59	160.28	61.954	5.4638e-06	42.15	0.000474	0.00046708	0.00013032	1088	5.0833e-06	5.1863e-06	779.29	405.91	5.0947e-06	5.1403e-06	298.8	110.96	157.11	61.245	5.1713e-06	41.945	154.015	228.278	204.159	146.054	263.492	307.304	143.821	151.533	264.754	304.174	148.299	152.376	155.836	161.531	243.235	157.086	-8191	255	
22451.627	1	1	0	0	0.24876	0.049091	0.10037	0.15901	0.16037	0.1151	0.19544	0.31053	0.090326	0.10531	0.34468	0.33298	0.095387	0.3687	0.13177	0.22002	-2.0438	-2.4188	-2.7938	-2.5542	-2.6562	-2.8458	-2.5396	-2.8438	-2.6417	-2.5333	-2.7771	-2.5292	-2.5396	-2.9813	-2.3771	-2.8521	274.420	299.721	304.281	413.325	171.382	361.376	210.101	466.531	445.204	458.605	143.555	167.421	456.990	462.690	338.586	371.364	0.00066138	0.00010961	0.00026105	1098.6	3.791e-06	5.32e-06	771.05	406.45	7.8569e-06	3.3052e-06	293.5	108.47	157.39	60.343	7.365e-06	40.773	0.00047176	0.00046498	0.00012823	1076	5.0172e-06	5.0538e-06	757.4	400.27	5.0378e-06	5.0541e-06	289.86	106.3	154.16	59.767	5.0862e-06	40.402	163.921	319.851	264.928	146.106	275.275	264.985	143.661	151.224	270.168	365.224	148.350	152.434	155.585	161.650	259.906	157.177	-8191	255	
22451.723	1	1	0	0	0.17306	0.13371	0.12998	0.040962	0.25612	0.10802	0.2623	0.059852	0.097521	0.10281	0.10486	0.014947	0.025726	0.096155	0.20945	0.083648	-2.2	-2.3125	-2.7917	-2.5479	-2.55	-2.8083	-2.6958	-2.8646	-2.7583	-2.6667	-3.0125	-2.4854	-2.3812	-2.8542	-2.5187	-2.6667	391.877	489.560	196.099	377.308	266.115	404.751	416.408	463.878	358.715	166.028	438.404	137.732	445.902	476.902	389.558	166.631	0.00062741	0.00085338	4.6089e-05	1099.8	6.3581e-06	2.7892e-06	776.12	408.41	7.2548e-06	2.5123e-06	296.81	107.76	158.2	60.663	6.8848e-06	41.208	0.000466	0.00045447	0.00012926	1075.8	4.9668e-06	5.0018e-06	759.84	399.93	4.9717e-06	5.053e-06	291.24	106.41	154.76	60.085	5.0612e-06	40.955	153.802	206.959	254.544	146.013	256.092	272.450	144.052	151.345	243.708	236.772	148.178	152.405	156.005	161.519	233.071	157.238	-8191	255	
22451.844	1	1	0	0	0.06943	0.20518	0.038444	0.14754	0.14391	0.22918	0.086525	0.18372	0.21381	0.026093	0.15663	0.050569	0.17171	0.16934	0.1093	0.08745	-2.4167	-2.4417	-2.7625	-2.7708	-2.475	-2.875	-2.6	-2.9396	-2.7729	-2.4167	-2.85	-2.6792	-2.5396	-2.9813	-2.4437	-2.7146	412.336	252.930	332.007	146.040	186.697	389.934	410.613	419.605	303.509	176.895	269.840	407.141	392.719	150.556	364.729	178.964	0.00067601	0.00049929	0.00011623	1095.4	4.1508e-06	1.6139e-06	778.64	409.35	6.6728e-06	6.749e-06	298.15	109.24	157.44	60.72	7.0462e-06	41.798	0.0004714	0.00045484	0.00012782	1076.6	5.0515e-06	5.1033e-06	763.96	401.7	5.0008e-06	5.0394e-06	292.68	106.86	154.71	60.32	5.1179e-06	41.494	152.444	274.918	178.496	146.054	264.638	219.579	143.928	151.321	287.076	299.603	147.989	152.677	155.904	161.343	289.728	157.163	-8191	255	
22451.939	1	1	0	0	0.24236	0.1429	0.19531	0.24905	0.36905	0.10293	0.19865	0.0502	0.10745	0.12648	0.32879	0.34595	0.16163	0.31969	0.072229	0.086461	-2.4396	-2.45	-2.7292	-2.7687	-2.4875	-2.8208	-2.8417	-2.6729	-2.6771	-2.5604	-2.7667	-2.7896	-2.3917	-3.0333	-2.575	-2.65	158.078	490.790	450.702	391.619	202.457	278.138	341.837	281.055	344.514	424.780	485.693	171.134	196.687	397.959	301.873	147.299	0.00058312	0.00052527	8.794e-05	1104.3	4.8954e-06	3.7464e-06	785.08	408.68	2.5158e-06	8.1559e-06	300.34	110.05	157.94	61.002	2.9114e-06	42.313	0.0004752	0.0004674	0.00012978	1081.9	5.1257e-06	5.0986e-06	769.85	402.21	5.1574e-06	5.0963e-06	295.91	108.38	155.4	60.657	5.1182e-06	42.334	156.770	191.029	224.425	146.244	246.568	138.096	143.854	151.475	262.038	279.427	148.036	152.686	155.760	161.490	292.264	157.236	-8191	255	
22452.012	1	1	0	0	0.15574	0.092928	0.12064	0.12241	0.18596	0.33393	0.093861	0.059837	0.15222	0.14053	0.11283	0.20339	0.13557	0.20646	0.19011	0.15546	-2.4167	-2.3875	-2.6875	-2.9437	-2.5729	-2.8021	-2.6958	-2.7333	-2.9479	-2.5271	-2.8104	-2.8083	-2.4875	-3.1146	-2.6312	-2.5812	425.054	262.315	165.856	485.695	337.276	377.872	189.359	358.613	180.404	398.533	485.677	411.741	472.093	406.644	148.680	451.826	0.00073956	0.00065778	0.00019078	1101.5	5.2308e-06	4.4997e-06	779.88	407.49	6.9568e-06	7.6806e-06	293.32	106.51	156.38	59.463	5.8392e-06	39.627	0.00048495	0.0004614	0.00013075	1080.5	5.1533e-06	5.0736e-06	764.66	400.34	5.1319e-06	5.0898e-06	288.85	104.77	153.18	58.949	5.0339e-06	39.497	148.622	208.949	230.553	145.848	267.867	326.041	143.785	151.431	229.444	303.181	148.269	152.671	156.095	161.635	283.024	157.034	-8191	255	
22452.107	1	1	0	0	0.11556	0.10992	0.12212	0.20108	0.12223	0.17619	0.057707	0.137	0.26318	0.14314	0.14064	0.12594	0.13311	0.16853	0.11409	0.10457	-2.5479	-2.4104	-2.4458	-2.8167	-2.4833	-2.9583	-2.8208	-2.5438	-2.9188	-2.5979	-2.6396	-2.7417	-2.5104	-2.8958	-2.5667	-2.4104	345.274	226.486	198.651	477.724	332.941	239.941	467.692	314.279	418.054	204.105	208.077	486.366	394.516	480.076	149.924	252.533	0.00063785	0.0010937	0.00020668	1087	5.1312e-06	7.7193e-06	760.75	405.31	4.583e-06	2.7619e-06	288.57	105.5	154.69	59.092	6.0567e-06	39.811	0.00046968	0.00045627	0.0001269	1069.2	5.0469e-06	4.9985e-06	748.54	397.91	5.0838e-06	5.0291e-06	285.64	103.57	152.27	58.711	5.1453e-06	39.601	144.241	274.105	254.135	145.956	257.695	252.942	143.575	151.280	219.963	343.897	148.306	152.824	155.818	161.599	213.739	157.033	-8191	255	
22452.229	1	1	0	0	0.13327	0.20271	0.21306	0.46344	0.22736	0.31134	0.18969	0.20832	0.074419	0.19471	0.23517	0.12592	0.34244	0.3481	0.057184	0.10177	-2.3667	-2.475	-2.5729	-2.8312	-2.5583	-2.8104	-2.7833	-2.6229	-2.7021	-2.6063	-2.5458	-2.6958	-2.5354	-2.7958	-2.7104	-2.5583	167.202	173.758	238.854	445.718	136.013	363.843	403.881	403.459	342.297	270.363	460.259	400.528	400.696	176.044	431.801	361.854	0.00057458	0.00042941	0.0001084	1095.4	4.3179e-06	7.2208e-06	765.65	408.06	4.133e-06	6.1452e-06	294.67	106.17	155.88	59.686	3.8055e-06	40.616	0.00047607	0.00045369	0.00012688	1071.4	5.0843e-06	5.0382e-06	753.34	399.6	5.1188e-06	4.9905e-06	290.17	104.87	152.86	59.338	5.0325e-06	40.573	155.981	139.202	214.076	146.077	312.178	261.146	143.969	151.121	233.686	291.781	148.186	152.376	155.728	161.639	231.826	157.396	-8191	255	
22452.324	1	1	0	0	0.14248	0.025339	0.16385	0.30308	0.14055	0.18202	0.16892	0.12577	0.035843	0.35727	0.26477	0.14059	0.41405	0.30693	0.26235	0.26148	-2.2562	-2.525	-2.4042	-3.1521	-2.5875	-2.6354	-2.7771	-2.6437	-2.8229	-2.7208	-2.7062	-2.8042	-2.5396	-2.8187	-2.5812	-2.2792	348.822	135.501	279.375	462.597	150.793	199.727	427.955	295.169	231.548	439.828	490.207	240.418	478.670	216.049	278.509	428.270	0.00069682	0.00083431	0.00026903	1102.3	3.4575e-06	1.5267e-06	789.86	410.94	4.3294e-06	5.583e-06	301.95	108.89	158.87	60.859	2.3148e-06	42.322	0.00047643	0.00046011	0.00013055	1082.5	4.9733e-06	5.0275e-06	772.18	403.06	5.0873e-06	4.9755e-06	297.02	107.28	155.04	60.326	5.154e-06	42.071	151.206	281.898	265.961	146.293	242.391	269.522	144.056	151.314	284.390	294.482	148.556	152.873	155.853	161.645	243.985	157.493	-8191	255	
22452.420	1	1	0	0	0.28553	0.080186	0.26454	0.26053	0.18121	0.32646	0.11565	0.16021	0.11445	0.050973	0.14874	0.16991	0.22886	0.079867	0.30281	0.1293	-2.425	-2.4958	-2.5354	-2.8771	-2.5812	-2.8479	-2.8979	-2.7396	-2.9188	-2.5583	-2.5625	-2.9875	-2.5312	-2.8542	-3.1146	-2.5292	399.970	472.187	276.936	160.728	134.455	409.334	247.993	445.629	292.870	178.970	157.282	165.690	412.305	378.701	210.569	199.328	0.00063246	0.00016912	0.00014206	1117.2	2.185e-06	9.0271e-06	811.53	416.51	8.9198e-06	4.1816e-06	312.42	112.6	160.03	61.457	6.424e-06	42.634	0.0004771	0.00045182	0.00012528	1096.4	5.0201e-06	4.9798e-06	793.97	408.86	4.9415e-06	4.9449e-06	305.72	110.35	156.79	60.809	4.8605e-06	42.25	148.563	338.784	252.964	146.067	206.504	283.366	144.117	151.307	255.155	259.763	148.512	152.485	155.853	161.700	223.566	157.275	-8191	255	
#DATA ENDS
