BOXY.EXE: ISS Imagent and Oximeter Data Acquisition Program Version 0.80
Ascii Record File

#ACQ INFORMATION
2  Detector Channels 
16  External MUX Channels 
1  Auxiliary Channels 
5000  Waveform (CCF) Frequency (Hz)
1  Waveforms Skipped 
30  Waveforms Averaged 
1  Cycles Averaged 
16  Acquisitions per Waveform 
10.0806  Updata Rate (Hz) 

#FILE INFORMATION
TRUE -- External MUX Channel results are PARSED.
FALSE -- AC DC and Phase are NOT grouped.
TRUE -- Companion Program Settings File CREATED.
FALSE -- AC data not excluded
FALSE -- DC data not excluded
FALSE -- Phase data not excluded
FALSE -- Auxillary Chn. data not excluded
Tab delimiters

#CALIBRATION STATE
TRUE -- Waveform Calibration Values APPLIED.


#AUX CALIBRATION VALUES
Val Type	aux-1	

Term	1.0000e+00	
Factor	0.0000e+00	


#WF CALIBRATION VALUES
A = Detector Channel
Val Type	A-AC1	A-AC2	A-AC3	A-AC4	A-AC5	A-AC6	A-AC7	A-AC8	A-AC9	A-AC10	A-AC11	A-AC12	A-AC13	A-AC14	A-AC15	A-AC16	A-DC1	A-DC2	A-DC3	A-DC4	A-DC5	A-DC6	A-DC7	A-DC8	A-DC9	A-DC10	A-DC11	A-DC12	A-DC13	A-DC14	A-DC15	A-DC16	A-Ph1	A-Ph2	A-Ph3	A-Ph4	A-Ph5	A-Ph6	A-Ph7	A-Ph8	A-Ph9	A-Ph10	A-Ph11	A-Ph12	A-Ph13	A-Ph14	A-Ph15	A-Ph16	

Term	0.00000e+00	0.00000e+00	0.00000e+00	0.00000e+00	0.00000e+00	0.00000e+00	0.00000e+00	0.00000e+00	0.00000e+00	0.00000e+00	0.00000e+00	0.00000e+00	0.00000e+00	0.00000e+00	0.00000e+00	0.00000e+00	0.00000e+00	0.00000e+00	0.00000e+00	0.00000e+00	0.00000e+00	0.00000e+00	0.00000e+00	0.00000e+00	0.00000e+00	0.00000e+00	0.00000e+00	0.00000e+00	0.00000e+00	0.00000e+00	0.00000e+00	0.00000e+00	0.00000e+00	0.00000e+00	0.00000e+00	0.00000e+00	0.00000e+00	0.00000e+00	0.00000e+00	0.00000e+00	0.00000e+00	0.00000e+00	0.00000e+00	0.00000e+00	0.00000e+00	0.00000e+00	0.00000e+00	0.00000e+00	
Factor	1.00000e+00	1.00000e+00	1.00000e+00	1.00000e+00	1.00000e+00	1.00000e+00	1.00000e+00	1.00000e+00	1.00000e+00	1.00000e+00	1.00000e+00	1.00000e+00	1.00000e+00	1.00000e+00	1.00000e+00	1.00000e+00	1.00000e+00	1.00000e+00	1.00000e+00	1.00000e+00	1.00000e+00	1.00000e+00	1.00000e+00	1.00000e+00	1.00000e+00	1.00000e+00	1.00000e+00	1.00000e+00	1.00000e+00	1.00000e+00	1.00000e+00	1.00000e+00	X	X	X	X	X	X	X	X	X	X	X	X	X	X	X	X	

B = Detector Channel
Val Type	B-AC1	B-AC2	B-AC3	B-AC4	B-AC5	B-AC6	B-AC7	B-AC8	B-AC9	B-AC10	B-AC11	B-AC12	B-AC13	B-AC14	B-AC15	B-AC16	B-DC1	B-DC2	B-DC3	B-DC4	B-DC5	B-DC6	B-DC7	B-DC8	B-DC9	B-DC10	B-DC11	B-DC12	B-DC13	B-DC14	B-DC15	B-DC16	B-Ph1	B-Ph2	B-Ph3	B-Ph4	B-Ph5	B-Ph6	B-Ph7	B-Ph8	B-Ph9	B-Ph10	B-Ph11	B-Ph12	B-Ph13	B-Ph14	B-Ph15	B-Ph16	

Term	0.00000e+00	0.00000e+00	0.00000e+00	0.00000e+00	0.00000e+00	0.00000e+00	0.00000e+00	0.00000e+00	0.00000e+00	0.00000e+00	0.00000e+00	0.00000e+00	0.00000e+00	0.00000e+00	0.00000e+00	0.00000e+00	0.00000e+00	0.00000e+00	0.00000e+00	0.00000e+00	0.00000e+00	0.00000e+00	0.00000e+00	0.00000e+00	0.00000e+00	0.00000e+00	0.00000e+00	0.00000e+00	0.00000e+00	0.00000e+00	0.00000e+00	0.00000e+00	-1.95322e+02	-1.31664e+02	-1.35514e+02	-1.83507e+02	-9.14092e+01	-5.93382e+01	-1.57852e+02	-1.62015e+02	-9.36674e+01	-6.54123e+01	-1.76234e+02	-1.71211e+02	-1.81698e+02	-1.78091e+02	-8.68548e+01	-1.51000e+02	
Factor	4.07472e-05	1.94038e-04	5.01386e-05	4.44362e-01	1.74494e-06	1.67566e-06	1.66286e-01	6.31906e-02	2.08765e-06	1.66474e-06	2.13853e-01	2.89034e-02	2.88634e-02	9.13376e-03	1.93495e-06	1.32076e-02	3.19055e-06	3.47120e-06	9.67125e-07	2.29784e-01	3.78690e-08	3.80063e-08	8.23849e-02	3.32550e-02	3.75348e-08	3.80335e-08	1.05779e-01	1.48008e-02	1.52162e-02	4.84302e-03	3.76195e-08	6.77457e-03	X	X	X	X	X	X	X	X	X	X	X	X	X	X	X	X	



#DISTANCE SETTINGS
A = Detector Channel
A-1	A-2	A-3	A-4	A-5	A-6	A-7	A-8	A-9	A-10	A-11	A-12	A-13	A-14	A-15	A-16	

2.5000e+00	3.0000e+00	2.5000e+00	3.0000e+00	2.0000e+00	3.0000e+00	1.5000e+00	3.0000e+00	3.0000e+00	3.0000e+00	3.0000e+00	3.0000e+00	3.0000e+00	3.0000e+00	1.5000e+00	3.0000e+00	

B = Detector Channel
B-1	B-2	B-3	B-4	B-5	B-6	B-7	B-8	B-9	B-10	B-11	B-12	B-13	B-14	B-15	B-16	

1.0000e+01	1.0000e+01	1.0000e+01	1.4400e+00	1.0000e+01	1.0000e+01	1.5100e+00	1.9400e+00	1.0000e+01	1.0000e+01	1.9900e+00	2.4900e+00	2.4100e+00	2.9000e+00	1.0000e+01	2.9800e+00	




#DATA BEGINS
time	group	step	mark	flag	A-AC1	A-AC2	A-AC3	A-AC4	A-AC5	A-AC6	A-AC7	A-AC8	A-AC9	A-AC10	A-AC11	A-AC12	A-AC13	A-AC14	A-AC15	A-AC16	A-DC1	A-DC2	A-DC3	A-DC4	A-DC5	A-DC6	A-DC7	A-DC8	A-DC9	A-DC10	A-DC11	A-DC12	A-DC13	A-DC14	A-DC15	A-DC16	A-Ph1	A-Ph2	A-Ph3	A-Ph4	A-Ph5	A-Ph6	A-Ph7	A-Ph8	A-Ph9	A-Ph10	A-Ph11	A-Ph12	A-Ph13	A-Ph14	A-Ph15	A-Ph16	B-AC1	B-AC2	B-AC3	B-AC4	B-AC5	B-AC6	B-AC7	B-AC8	B-AC9	B-AC10	B-AC11	B-AC12	B-AC13	B-AC14	B-AC15	B-AC16	B-DC1	B-DC2	B-DC3	B-DC4	B-DC5	B-DC6	B-DC7	B-DC8	B-DC9	B-DC10	B-DC11	B-DC12	B-DC13	B-DC14	B-DC15	B-DC16	B-Ph1	B-Ph2	B-Ph3	B-Ph4	B-Ph5	B-Ph6	B-Ph7	B-Ph8	B-Ph9	B-Ph10	B-Ph11	B-Ph12	B-Ph13	B-Ph14	B-Ph15	B-Ph16	aux-1	digaux	

1231.081	1	1	0	768	0.34507	0.34401	0.090205	0.19887	0.071857	0.26008	0.11109	0.2232	0.012794	0.20168	0.17636	0.23841	0.17242	0.12004	0.090627	0.10275	-3.0354	-3.0667	-3.1167	-3.1458	-2.8167	-3.4542	-3.3292	-3.0375	-3.2188	-2.9021	-3.2771	-3.2396	-2.9708	-3.3792	-3.1125	-2.8979	249.379	30.850	45.039	86.732	291.509	202.844	292.983	342.568	189.262	179.135	43.337	294.032	-6.306	-0.303	227.686	10.369	0.00060996	0.00024479	0.00012711	1570	9.4668e-06	5.8212e-06	1579.7	430.79	1.5221e-05	3.7993e-06	483.72	161.26	140.73	48.108	1.2025e-05	59.332	0.0012725	0.0015125	0.00039012	1634.3	1.4714e-05	1.6453e-05	1619.1	444.48	1.47e-05	1.6324e-05	518.66	168.05	147.55	50.732	1.4641e-05	62.207	80.730	261.308	306.386	4.888	163.410	126.561	4.586	9.543	124.641	131.781	8.634	13.166	13.776	18.270	134.497	17.215	-8191	255	
1231.178	1	1	0	0	0.13823	0.064645	0.13271	0.16044	0.13	0.14511	0.38814	0.094381	0.17361	0.15741	0.20098	0.29255	0.27003	0.31198	0.06615	0.10772	-3.0125	-3.0375	-3.0667	-3.1063	-2.8875	-3.1813	-3.2938	-3.1479	-3.3458	-3.0875	-3.0479	-3.5667	-3.0354	-3.4354	-3.0458	-2.9854	98.913	120.882	189.030	348.797	172.909	228.884	315.444	309.099	176.841	197.195	237.688	325.696	245.397	312.888	309.975	303.667	0.00088259	0.0010881	9.4647e-05	1568.4	4.2584e-06	1.3732e-05	1574.7	427.71	1.2258e-05	7.238e-06	486.33	161.39	140.36	48.044	1.4139e-06	59.622	0.0013273	0.0014751	0.00037039	1627.5	1.5251e-05	1.5924e-05	1614.7	442.59	1.5316e-05	1.5794e-05	516.7	167.69	147.66	50.555	1.4129e-05	62.179	73.658	32.023	121.541	4.917	105.984	118.865	4.743	9.434	179.343	194.109	8.859	13.174	13.729	18.058	87.647	17.338	-8191	255	
1231.274	1	1	0	0	0.031175	0.031769	0.2494	0.061444	0.1131	0.14565	0.13466	0.14239	0.055045	0.19227	0.042537	0.13507	0.087036	0.14239	0.19325	0.22677	-2.9396	-3.0021	-2.9083	-3.3	-3.0542	-3.1771	-3.4437	-3.1375	-3.3417	-3.0208	-2.9062	-3.4625	-3.0583	-3.3812	-3.0563	-3.0667	297.600	106.111	235.010	191.603	332.602	87.785	299.956	78.803	303.205	55.782	71.711	3.955	319.242	329.121	103.924	187.619	0.00061061	0.0008176	0.00016281	1566.1	6.856e-06	5.4694e-07	1577.7	427.17	1.3979e-05	2.7757e-06	487.68	161.72	140.15	48.111	7.4441e-06	59.141	0.0013931	0.0014041	0.00036471	1630.1	1.6189e-05	1.5219e-05	1617	442.89	1.6086e-05	1.5343e-05	515.82	168.24	147.87	50.429	1.3981e-05	62.283	66.918	95.668	68.146	5.090	168.157	218.277	4.700	9.188	177.659	200.155	9.047	13.282	13.751	18.227	64.124	17.643	-8191	255	
1231.370	1	1	0	0	0.19694	0.039374	0.10061	0.074183	0.056059	0.14146	0.15569	0.29117	0.096085	0.38265	0.1	0.089346	0.16464	0.073847	0.15927	0.10663	-2.9521	-3.2104	-2.7604	-3.3958	-2.9125	-3.1021	-3.475	-3.1813	-3.1667	-2.8958	-3.0021	-3.4	-3.0979	-3.2625	-3.35	-3.0854	342.346	91.850	136.138	99.897	172.799	274.990	275.815	336.810	3.145	118.813	344.115	86.186	31.809	348.699	253.251	241.582	0.00072264	0.001571	0.00018852	1568.3	7.5748e-06	6.6335e-06	1576.6	429.39	7.7049e-06	5.8342e-06	490.99	160.76	140.89	48.02	5.6175e-06	58.957	0.0014338	0.0013727	0.00036407	1639.2	1.6479e-05	1.4973e-05	1615.7	444.14	1.6145e-05	1.4787e-05	516.58	168.42	147.91	50.432	1.3877e-05	62.241	63.273	61.793	75.036	5.100	113.023	112.722	4.686	9.422	221.926	73.573	9.151	13.105	13.608	18.282	173.966	17.430	-8191	255	
1231.466	1	1	0	0	0.097555	0.12496	0.16518	0.33517	0.17363	0.27846	0.49097	0.25042	0.17074	0.14206	0.076783	0.14122	0.12265	0.058204	0.014638	0.1932	-2.7958	-3.0417	-2.8771	-3.1896	-2.7792	-2.85	-3.5542	-2.9979	-2.9833	-3.1229	-3.025	-3.5854	-3.1813	-3.1458	-3.2521	-3.1125	110.279	1.026	56.423	23.600	58.556	176.427	320.445	332.619	17.316	108.001	336.918	347.646	299.424	273.142	108.501	274.609	0.00062471	0.00064834	0.00025703	1557.6	9.0945e-06	7.6497e-06	1577.9	428.08	1.6692e-05	5.3262e-06	485.08	161.14	140.2	47.906	5.8293e-06	58.928	0.0014066	0.0013417	0.00036106	1641.1	1.6086e-05	1.4684e-05	1615.6	444.63	1.5812e-05	1.4672e-05	517.12	168.51	147.54	50.282	1.4234e-05	62.431	57.095	64.086	76.818	4.866	134.363	129.258	4.827	9.679	75.890	196.293	8.783	13.155	13.657	18.319	96.602	17.501	-8191	255	
1231.562	1	1	0	0	0.1736	0.24501	0.17757	0.12746	0.18743	0.063096	0.24108	0.22976	0.068645	0.093477	0.16246	0.16249	0.44742	0.17599	0.1757	0.12835	-2.8	-3.1979	-2.7667	-3.325	-3.1437	-2.8812	-3.4125	-3.0646	-3.2479	-3.2542	-2.7854	-3.4583	-3.2958	-2.8604	-3.3312	-3.0104	281.026	40.850	208.951	15.945	91.201	134.047	328.715	267.658	187.388	325.070	303.565	287.506	325.111	69.180	131.243	96.194	0.00068429	0.00062662	0.00011347	1567.4	2.1523e-06	7.5717e-06	1578.2	429.7	3.3922e-06	5.1019e-06	485.42	160.88	140.5	47.832	1.4658e-05	59.056	0.0013603	0.0013116	0.0003712	1647	1.5241e-05	1.4422e-05	1616	445.02	1.506e-05	1.4229e-05	515.74	168.49	147.04	50.083	1.5044e-05	62.377	68.175	19.805	341.798	4.678	284.232	121.753	4.627	9.424	146.631	193.339	9.333	13.120	13.697	18.396	189.760	17.348	-8191	255	
1231.683	1	1	0	0	0.14946	0.017527	0.046117	0.17242	0.19123	0.18368	0.25253	0.23671	0.12864	0.26536	0.15139	0.11582	0.060731	0.26247	0.09083	0.2071	-2.6937	-3.3396	-2.9479	-3.3187	-3.1104	-3.0375	-3.5229	-3.2646	-3.0042	-3.3125	-2.8625	-3.2562	-3.05	-3	-3.3063	-3.1375	201.844	168.876	233.709	138.169	301.317	-0.937	301.817	327.323	205.164	166.190	257.038	6.004	261.929	258.964	343.328	196.038	0.00057516	0.00027559	0.00038242	1573.5	1.1155e-05	9.3211e-06	1575.1	426.29	5.9093e-06	2.1906e-06	487.6	160.8	140.4	47.821	1.3852e-05	58.985	0.0013211	0.0012908	0.00039391	1645.1	1.4758e-05	1.4201e-05	1617.8	443.51	1.4807e-05	1.3842e-05	521.13	168.34	146.71	50.108	1.6114e-05	62.221	80.772	8.968	112.168	4.976	91.671	152.767	4.557	9.567	233.620	103.598	8.877	13.304	13.790	18.145	131.601	17.444	-8191	255	
1231.777	1	1	0	0	0.11752	0.090222	0.13051	0.22592	0.09362	0.10684	0.23331	0.23711	0.10512	0.11806	0.079091	0.20767	0.14494	0.20894	0.16036	0.30279	-2.7292	-3.3771	-2.7458	-3.2313	-3.125	-2.9229	-3.4146	-3.1521	-2.8771	-3.2417	-3.0854	-3.2833	-3.2625	-2.9292	-3.275	-3.1063	283.865	150.864	-1.212	290.275	-2.396	228.642	297.459	2.891	207.105	349.202	225.303	310.001	60.060	267.400	3.975	284.223	0.0008018	0.0010846	0.00046351	1573.7	4.3442e-06	1.0807e-06	1574.1	426.63	6.4648e-06	7.1591e-06	486.55	160.42	140.02	47.727	8.5652e-06	58.939	0.0013122	0.0012944	0.00042047	1642.1	1.464e-05	1.4501e-05	1616.3	442.33	1.437e-05	1.4366e-05	522.18	167.65	146.59	50.063	1.6537e-05	62	74.416	79.343	90.766	4.673	120.754	82.136	4.546	9.426	88.229	141.816	8.893	13.669	13.694	18.278	69.237	17.513	-8191	255	
1231.873	1	1	0	0	0.12241	0.14962	0.22012	0.13361	0.24507	0.1547	0.24136	0.32593	0.17312	0.18788	0.11076	0.042307	0.15721	0.1152	0.17831	0.17588	-2.5333	-3.0833	-2.9521	-3.1854	-3.2687	-2.9625	-3.5396	-3.1542	-3.05	-3.3542	-3.0875	-3.1312	-3.3708	-2.9146	-3.275	-3.1167	274.785	332.317	110.517	267.009	250.254	78.918	329.042	312.481	35.048	44.419	192.033	129.957	43.715	55.854	199.939	278.136	0.00058351	0.0010853	0.00020801	1557.2	1.413e-05	8.4436e-06	1566	427.66	2.0481e-06	6.5007e-06	483.55	160.65	140.01	47.677	8.2028e-06	58.409	0.0012651	0.0013544	0.00042399	1634.5	1.4414e-05	1.5147e-05	1616.3	442.12	1.4172e-05	1.5331e-05	520.3	167.43	146.21	50.08	1.6295e-05	61.901	61.630	81.625	81.845	4.651	134.465	118.454	4.620	9.394	111.356	240.901	8.762	13.220	13.790	18.347	135.013	17.087	-8191	255	
1231.969	1	1	0	0	0.17632	0.1145	0.23886	0.061515	0.10552	0.20776	0.26338	0.0039722	0.10168	0.040745	0.24257	0.25001	0.20966	0.20766	0.24356	0.056196	-2.5479	-3.2104	-3.0646	-3.1	-3.2729	-3.0854	-3.5583	-3.2729	-2.8833	-3.175	-3.075	-3.2	-3.4542	-3.1063	-3.2188	-3.1813	320.562	336.588	183.688	105.540	19.060	101.339	331.039	-5.862	85.943	56.848	16.767	18.190	18.644	307.242	59.417	294.701	0.00056276	0.00087074	0.00027432	1564.2	6.6873e-06	6.404e-06	1570.8	428.72	7.3347e-06	8.9126e-06	484.97	160.4	140.31	47.616	1.7202e-06	58.904	0.0012554	0.0014556	0.00041941	1634.5	1.4169e-05	1.6223e-05	1616.3	442.13	1.4193e-05	1.6382e-05	519.81	167.37	146.2	50.225	1.5777e-05	61.874	54.234	68.218	41.254	4.829	159.347	159.495	4.758	9.465	136.358	144.064	9.291	13.372	13.588	18.150	305.986	17.707	-8191	255	
1232.066	1	1	0	0	0.1421	0.037377	0.068785	0.095348	0.13585	0.1987	0.21001	0.20908	0.10076	0.093091	0.12301	0.191	0.29441	0.125	0.050904	0.1202	-2.5563	-3.2833	-2.95	-2.9125	-3.2833	-3.0563	-3.3542	-3.3458	-2.8604	-3.2521	-3.2021	-3.1458	-3.3417	-2.9146	-3.0646	-3.2625	329.201	340.766	20.683	83.213	263.734	308.644	350.996	229.023	170.895	-2.566	194.990	334.397	347.286	315.442	-8.385	53.585	0.00093116	0.00094841	0.00027305	1562.6	2.7159e-06	6.4321e-06	1576.2	426.41	8.6413e-06	1.1029e-06	479.86	159.95	140.16	47.553	1.583e-05	58.74	0.0012818	0.0015167	0.00040338	1631.3	1.446e-05	1.6662e-05	1619.4	441.38	1.49e-05	1.6923e-05	516.64	167.17	146.63	50.221	1.5188e-05	61.65	70.904	246.374	54.230	4.741	206.047	167.010	4.681	9.288	163.323	0.218	9.049	13.129	13.596	18.167	95.182	17.293	-8191	255	
1232.162	1	1	0	0	0.039576	0.22039	0.12258	0.09953	0.17946	0.07142	0.28058	0.24416	0.14632	0.081526	0.13586	0.13286	0.09032	0.1716	0.25502	0.23949	-2.4854	-3.0938	-3.1021	-2.8208	-3.3063	-2.8729	-3.2229	-3.4646	-2.9188	-3.2229	-3.2146	-2.875	-3.5167	-3.0771	-3.1042	-3.525	196.729	1.633	162.302	347.095	199.285	73.923	274.614	320.814	132.016	330.215	294.897	155.956	46.989	314.819	99.461	327.343	0.00069849	0.0015879	0.00020702	1567.2	8.2728e-06	2.0845e-06	1575.9	427.31	6.2083e-06	8.6356e-06	481.9	160.05	139.47	47.521	7.9713e-06	58.628	0.0013355	0.0015261	0.00038271	1628.5	1.532e-05	1.6657e-05	1615.7	440.81	1.5555e-05	1.6386e-05	514.95	166.94	146.54	50.154	1.4784e-05	61.601	60.828	83.979	252.047	4.759	146.853	211.097	4.604	9.449	166.203	61.630	8.880	13.204	13.652	18.169	81.644	17.391	-8191	255	
1232.282	1	1	0	0	0.084433	0.18109	0.08636	0.1607	0.15295	0.073028	0.4372	0.34002	0.12426	0.15276	0.21785	0.27766	0.45657	0.22021	0.36026	0.22838	-2.5333	-3.1917	-3.2	-2.9125	-3.1854	-3.0375	-3.0354	-3.4938	-2.8563	-3.2062	-3.3125	-3.1771	-3.4125	-3.1917	-2.9562	-3.525	47.477	32.693	90.808	72.444	51.439	72.926	287.481	7.387	119.083	67.154	176.526	326.421	21.717	292.962	69.005	316.489	0.00088915	0.0010303	0.0002117	1560.6	8.8511e-06	8.7156e-06	1566.6	426.19	1.4119e-05	3.2443e-06	485.44	159.98	139.55	47.452	6.5541e-06	58.437	0.0014051	0.001463	0.00037491	1626.4	1.6005e-05	1.5788e-05	1610.5	439.57	1.6272e-05	1.5693e-05	514.08	166.9	146.64	49.913	1.4299e-05	61.59	89.574	346.655	34.698	4.891	137.890	100.949	4.706	9.425	161.575	148.855	8.819	13.538	13.706	18.701	203.206	17.542	-8191	255	
1232.379	1	1	0	0	0.19877	0.17857	0.018288	0.23476	0.12546	0.15449	0.069091	0.18036	0.20242	0.040043	0.12473	0.31694	0.18673	0.083224	0.15041	0.16437	-2.5292	-3.1729	-3.4417	-2.9354	-3.2458	-3.0292	-3.2333	-3.5	-2.9688	-3.1458	-3.1708	-3.1667	-3.3396	-3.0583	-3.1021	-3.3583	65.834	136.668	118.621	76.062	44.655	-3.304	-5.679	300.325	51.768	327.265	44.882	327.016	58.584	160.089	211.345	320.632	0.00071604	0.0012494	0.00018282	1563.8	8.4992e-06	3.9037e-06	1568	423.57	1.8962e-05	8.2027e-06	480.2	159.68	139.19	47.216	1.0806e-05	58.8	0.0014457	0.0013981	0.00036462	1631.3	1.6372e-05	1.5146e-05	1606.9	440.02	1.6362e-05	1.5103e-05	510.65	166.94	146.43	49.743	1.3992e-05	61.746	63.511	21.394	103.663	5.143	180.297	154.828	4.726	9.523	75.945	84.659	8.986	13.303	13.884	18.467	110.723	17.471	-8191	255	
1232.475	1	1	0	0	0.15945	0.13433	0.057386	0.22971	0.28581	0.27964	0.14837	0.14788	0.11565	0.031321	0.13684	0.046213	0.05746	0.34509	0.058114	0.092164	-2.4604	-3.1167	-3.3896	-2.9979	-3.2396	-3.1333	-3.1396	-3.5563	-2.8771	-3.1083	-3.3937	-2.9917	-3.2562	-3.1854	-2.9396	-3.5042	264.224	326.105	337.115	339.248	61.406	73.897	213.176	299.384	149.774	101.008	-0.870	19.627	147.609	340.710	205.962	284.863	0.00051779	0.00022373	0.00039357	1558.6	6.2563e-06	1.0197e-05	1567.7	424.64	1.4066e-06	2.8102e-06	481.42	159.99	139.51	47.336	4.1941e-06	58.586	0.0014299	0.0013623	0.00035709	1633.7	1.6185e-05	1.4702e-05	1605.5	440.14	1.5854e-05	1.464e-05	511.77	166.94	146.08	49.74	1.4134e-05	61.794	72.450	74.928	59.395	4.951	130.075	133.949	4.621	9.504	54.835	105.184	8.902	13.256	13.912	18.219	171.752	17.247	-8191	255	
1232.571	1	1	0	0	0.25657	0.061502	0.04626	0.063424	0.26228	0.11227	0.34742	0.033871	0.18198	0.24043	0.084732	0.26173	0.13077	0.063281	0.061643	0.13601	-2.6792	-3.0687	-3.25	-2.8688	-3.0396	-3.2562	-3.2083	-3.4104	-3.0792	-3.1271	-3.275	-3.0479	-3.2208	-3.2208	-3.025	-3.5271	141.529	74.789	235.923	272.868	229.520	149.161	315.530	317.089	350.971	16.039	129.338	284.555	331.660	8.386	246.630	345.804	0.00046655	0.00030858	0.0001956	1555.5	5.3547e-06	9.7186e-06	1566.2	424.72	4.8199e-06	4.7487e-06	478	159.35	139.72	47.494	3.274e-06	58.162	0.0013813	0.0013355	0.00036195	1635.4	1.5465e-05	1.4348e-05	1606.6	441.2	1.5231e-05	1.4434e-05	511.57	167	145.81	49.723	1.4738e-05	61.78	56.540	61.160	101.441	4.575	184.841	113.399	4.566	9.425	161.104	83.051	8.983	13.318	13.730	18.359	68.852	17.624	-8191	255	
1232.643	1	1	0	0	0.16223	0.1915	0.15544	0.17089	0.31666	0.1694	0.16221	0.083218	0.12145	0.11704	0.14243	0.25407	0.10163	0.13591	0.13495	0.15404	-2.8063	-2.8771	-3.2062	-2.9458	-3.2396	-3.3792	-3.1292	-3.2667	-3.0917	-2.9479	-3.3479	-3.2812	-3.1271	-3.2292	-2.9625	-3.1521	162.052	-6.156	37.031	52.429	25.099	126.442	243.298	168.749	218.984	288.111	42.276	307.739	320.369	130.487	87.196	250.526	0.0007833	0.00064485	0.00021577	1557.4	1.187e-05	3.3519e-06	1569.4	425.14	7.0406e-06	1.8725e-06	482.45	160.11	139.72	47.424	7.6833e-06	58.359	0.0013118	0.0013057	0.00037994	1635.4	1.4906e-05	1.4117e-05	1608.9	440.83	1.4759e-05	1.4186e-05	514.7	167.14	145.52	49.639	1.5695e-05	61.677	58.592	230.691	145.557	4.710	75.553	39.478	4.552	9.466	195.790	243.152	9.169	13.388	13.578	18.325	136.625	17.490	-8191	255	
1232.761	1	1	0	0	0.060873	0.20298	0.18083	0.067794	0.088436	0.098435	0.27944	0.13902	0.072319	0.24617	0.26265	0.21332	0.40481	0.11868	0.25685	0.10075	-2.6688	-2.9958	-3.2896	-3.0604	-3.0729	-3.3563	-3.1188	-3.3417	-2.9833	-2.8625	-3.1667	-3.1667	-3.0812	-3.3688	-3.0104	-3.2438	47.280	139.737	26.408	326.809	1.592	38.579	278.012	-8.516	164.007	55.622	310.427	319.893	0.234	288.635	239.680	280.091	0.00055924	0.00072718	0.00023125	1554.2	8.2562e-06	6.3359e-06	1568.2	424.71	4.7448e-06	5.3539e-06	480.09	159.6	138.8	47.33	1.4468e-05	58.46	0.0012872	0.0012837	0.00040156	1635.2	1.4612e-05	1.4033e-05	1609.9	440.18	1.4436e-05	1.4324e-05	516.46	166.53	145.17	49.564	1.6416e-05	61.614	80.430	70.219	100.699	4.994	90.680	94.526	4.707	9.452	147.559	157.454	9.159	13.128	13.922	18.293	133.996	17.618	-8191	255	
1232.858	1	1	0	0	0.3804	0.13594	0.22395	0.10945	0.22718	0.21582	0.20848	0.13807	0.091718	0.15052	0.099118	0.1076	0.24209	0.12907	0.28171	0.25648	-2.7667	-2.8396	-3.1937	-3.1875	-2.9188	-3.4354	-3.2188	-3.4521	-3.5167	-2.7542	-3.2854	-3.2771	-3.1208	-3.3688	-2.8771	-3.4229	317.196	188.629	298.719	217.173	82.871	161.322	292.649	221.369	324.279	278.385	73.748	-4.912	315.085	327.368	119.244	-3.620	0.00057798	0.0014099	0.00047398	1558.5	1.2915e-05	7.3091e-06	1563.1	425.21	9.5099e-06	1.4526e-05	480.31	158.9	139.21	47.21	7.698e-06	58.756	0.0012623	0.0013241	0.00041853	1630.9	1.4371e-05	1.4575e-05	1607	439.46	1.3948e-05	1.501e-05	517.24	166.27	145.34	49.719	1.6278e-05	61.454	62.836	103.764	107.690	4.991	78.592	163.960	4.691	9.480	178.903	175.725	9.006	13.165	13.791	18.350	128.970	17.405	-8191	255	
1232.954	1	1	0	0	0.15138	0.060646	0.19273	0.039538	0.13886	0.1423	0.2398	0.21655	0.22948	0.15394	0.057502	0.23503	0.05566	0.30239	0.13556	0.30263	-2.8854	-2.8208	-3.3292	-3.0104	-3.0229	-3.4938	-3.1813	-3.1396	-3.3438	-3.0271	-3.2104	-3.2354	-2.9458	-3.4062	-3.0146	-3.1917	153.280	272.851	332.242	47.858	72.208	239.502	21.773	-3.714	171.635	314.969	267.345	269.462	265.328	315.141	224.812	10.962	0.00049335	0.00096413	0.00029143	1553.6	4.8604e-06	8.6316e-06	1565.8	424.53	3.1976e-06	1.1238e-05	479.89	159.77	139.04	47.363	4.1091e-06	58.391	0.0012231	0.0013945	0.000416	1622.3	1.3987e-05	1.5366e-05	1609.5	439.57	1.3872e-05	1.5733e-05	515.56	165.73	145.07	49.753	1.5944e-05	61.417	81.730	121.210	18.887	4.520	92.142	148.970	4.642	9.432	65.168	196.999	9.125	13.233	13.450	18.257	87.210	17.584	-8191	255	
1233.074	1	1	0	0	0.24765	0.14631	0.19684	0.22215	0.079636	0.037816	0.29672	0.2692	0.098504	0.1677	0.073531	0.023971	0.14116	0.23225	0.12732	0.25922	-2.7271	-3.1063	-3.1771	-3.3229	-2.9167	-3.2583	-3.2062	-3.1188	-3.3917	-2.9792	-3.1625	-3.2313	-3.0438	-3.4062	-3.0062	-3.1479	5.350	101.535	64.240	304.976	348.734	327.820	325.099	330.449	339.285	10.597	59.963	15.187	-4.718	311.012	237.704	336.538	0.00073995	0.0014099	0.00017108	1556	1.9308e-05	5.583e-06	1568	422.41	7.6531e-06	1.247e-05	478.54	159.33	138.9	47.303	3.008e-06	58.397	0.0012335	0.0014728	0.00040209	1624.6	1.4068e-05	1.6248e-05	1606.5	437.67	1.406e-05	1.6412e-05	512.62	165.58	144.99	49.819	1.4971e-05	61.33	64.234	96.257	53.911	4.791	195.835	166.899	4.653	9.271	248.168	159.109	8.579	13.271	13.825	18.208	164.189	17.547	-8191	255	
1233.170	1	1	0	0	0.12476	0.1231	0.26602	0.22556	0.25478	0.03752	0.25806	0.21735	0.27532	0.058889	0.077211	0.19649	0.19432	0.25166	0.21391	0.1943	-2.8646	-2.95	-3.0792	-3.2292	-3.0729	-3.2729	-3.2417	-3.1	-3.2687	-3.0708	-3.1813	-3.2896	-3.0042	-3.4292	-3.1229	-3.0458	15.704	149.304	121.107	294.554	101.160	231.827	250.287	258.779	45.447	294.279	-7.751	9.271	296.788	325.010	136.478	58.173	0.00070263	0.00041506	2.7801e-05	1558.4	4.1066e-06	1.2996e-05	1562.4	422.91	1.0934e-05	1.2957e-05	480.98	158.94	138.92	47.072	8.7841e-06	58.166	0.0012516	0.0014954	0.00038285	1619.7	1.4863e-05	1.6393e-05	1603.3	437.42	1.4818e-05	1.633e-05	511.72	165.23	144.99	49.715	1.4545e-05	61.057	75.924	52.644	12.977	4.549	152.341	164.116	4.825	9.381	190.235	121.837	8.985	13.246	13.774	18.226	103.967	17.714	-8191	255	
1233.242	1	1	0	0	0.18867	0.14288	0.028384	0.092182	0.044805	0.1106	0.27381	0.15015	0.14103	0.26072	0.11458	0.2957	0.16853	0.25078	0.11503	0.2311	-2.9833	-2.8688	-3.1521	-3.2479	-2.8833	-3.2313	-3.2958	-3.0604	-3.3542	-3.0458	-3.1167	-3.4938	-3.175	-3.2542	-3.1458	-3.05	145.067	264.730	180.099	325.943	211.525	336.390	345.175	51.955	65.755	0.391	333.621	-4.482	257.203	6.373	272.983	257.912	0.00098341	0.001291	0.00031219	1554.8	1.1165e-05	3.7554e-06	1557.1	421.75	3.5313e-06	4.2523e-06	480.93	159.13	139.32	47.287	8.5977e-06	58.118	0.0013395	0.0014633	0.00036576	1616.3	1.5538e-05	1.5852e-05	1600.4	436.28	1.5639e-05	1.5667e-05	509.68	165.49	145.39	49.709	1.4198e-05	61.031	88.097	43.443	48.839	4.832	110.314	301.521	4.609	9.401	173.894	205.441	8.661	13.030	13.672	18.315	93.609	17.559	-8191	255	
1233.363	1	1	0	0	0.15512	0.092376	0.30087	0.077265	0.20729	0.075252	0.20901	0.15836	0.16732	0.30604	0.10725	0.094974	0.10339	0.096462	0.16181	0.32671	-2.9708	-2.9958	-3.0708	-3.4729	-3.0271	-3.2479	-3.2188	-3.0938	-3.2708	-3.1354	-3.0687	-3.5729	-3.0708	-3.2521	-3.1396	-3.1292	315.499	175.208	6.699	326.336	49.553	4.858	308.899	284.206	22.233	252.251	321.255	139.761	120.600	8.718	247.693	275.799	0.00077319	0.00043626	0.00015921	1547.5	6.3538e-06	6.1327e-06	1561.9	420.54	1.2095e-05	8.6572e-06	478.81	157.92	138.25	47.445	1.5732e-05	58.336	0.0014124	0.0014035	0.00036245	1613.5	1.6035e-05	1.5028e-05	1598.3	436.1	1.5944e-05	1.4914e-05	508.23	164.93	145.23	49.575	1.3565e-05	61.246	61.273	37.710	55.479	4.681	71.660	125.004	4.713	9.401	172.841	182.560	9.073	13.315	13.742	18.298	111.146	17.574	-8191	255	
1233.459	1	1	0	0	0.093536	0.10149	0.094352	0.17917	0.26882	0.23559	0.27362	0.21377	0.097804	0.12954	0.22682	0.2616	0.33364	0.16047	0.089138	0.20283	-2.8979	-3.1042	-2.9437	-3.3	-3.025	-3.1958	-3.6063	-2.975	-3.2333	-3.2542	-2.8167	-3.4833	-2.9958	-3.1708	-3.2667	-3.1958	225.456	89.912	133.973	187.015	40.648	142.707	310.155	308.389	126.792	245.880	346.590	282.304	296.977	6.369	297.711	337.269	0.00057923	0.0010693	0.00023204	1545.8	3.3334e-06	7.5383e-06	1556.8	421.4	1.3301e-05	3.3697e-06	480.36	158.65	138.01	47.245	9.2682e-06	58.221	0.0013962	0.0013284	0.00035241	1616.1	1.604e-05	1.4501e-05	1596.8	436.63	1.5834e-05	1.4406e-05	508.35	165.65	145.08	49.443	1.356e-05	61.325	64.625	36.928	327.634	4.686	162.817	118.776	4.753	9.381	118.916	258.812	8.897	13.305	13.598	18.060	152.937	17.583	-8191	255	
1233.555	1	1	0	0	0.22264	0.23203	0.10296	0.14553	0.25288	0.051481	0.35328	0.13425	0.1363	0.26963	0.25194	0.20596	0.27669	0.21676	0.071356	0.15597	-2.7958	-3.0875	-2.825	-3.2313	-3.2104	-2.9708	-3.3625	-3.1396	-3.2313	-3.1229	-2.8104	-3.4146	-3.0583	-3.0625	-3.1937	-2.9688	18.718	36.481	1.976	255.272	76.078	84.547	278.149	306.605	45.532	133.203	-6.025	10.147	13.502	312.285	118.007	321.999	0.00070654	0.0013049	0.00039341	1542.7	5.3706e-06	2.1161e-06	1557.9	421.38	7.5896e-06	1.3995e-05	480.53	158.03	138.03	47.122	5.3302e-06	58.211	0.001356	0.0013033	0.00035195	1624.3	1.5253e-05	1.4215e-05	1596.8	437.42	1.503e-05	1.4063e-05	507.95	165.61	144.8	49.362	1.3847e-05	61.356	68.603	89.522	44.568	5.032	203.982	187.904	4.556	9.515	155.464	93.399	8.986	13.349	13.695	18.404	144.375	17.762	-8191	255	
1233.676	1	1	0	0	0.17995	0.18832	0.24942	0.15287	0.055585	0.10645	0.35895	0.15803	0.24419	0.22802	0.03941	0.021705	0.25952	0.17535	0.33475	0.33249	-2.6354	-3.2875	-2.8917	-3.3333	-3.0417	-3.1146	-3.5979	-3.0354	-2.8396	-3.1813	-3.1625	-3.2604	-3.1562	-2.9104	-3.3729	-3.0854	177.298	278.652	335.441	-1.562	145.432	243.840	215.150	-7.636	176.325	103.974	267.988	89.527	313.765	263.797	215.265	296.457	0.00078015	0.00037547	0.00029925	1545.4	7.2235e-06	9.6416e-06	1555.4	420.66	5.0533e-06	1.9904e-06	479.7	158.35	138.63	47.182	7.348e-06	58.087	0.0013047	0.0012653	0.00036329	1624.8	1.4734e-05	1.39e-05	1596.9	437.8	1.4433e-05	1.363e-05	510.46	165.68	144.53	49.251	1.4676e-05	61.371	75.399	168.586	51.609	4.898	139.981	163.910	4.666	9.390	44.039	170.002	8.848	13.201	13.790	18.378	149.770	17.491	-8191	255	
1233.770	1	1	0	0	0.11709	0.26035	0.09617	0.21164	0.2271	0.27634	0.23082	0.24139	0.10892	0.094755	0.22085	0.1832	0.065083	0.19877	0.18727	0.16838	-2.8292	-3.2396	-2.8042	-3.2875	-3.2125	-2.9188	-3.4062	-2.9625	-3.1125	-3.2229	-2.9	-3.2938	-3.0333	-3.1458	-3.2104	-3.075	145.253	129.062	145.150	43.543	11.575	129.373	294.539	322.390	287.069	269.226	331.867	313.573	73.091	316.208	177.276	319.546	0.00054026	0.0011721	0.00027026	1562.4	8.3023e-06	3.5671e-06	1559.9	423.11	3.8268e-06	8.586e-06	481.15	158.84	138.56	47.32	5.9089e-06	58.071	0.0012755	0.0012493	0.00038928	1628.7	1.4344e-05	1.381e-05	1602.6	437.86	1.4274e-05	1.3748e-05	513.44	165.93	144.44	49.376	1.586e-05	61.305	59.987	85.944	111.051	5.112	85.461	226.856	4.666	9.476	14.925	169.692	8.685	13.303	13.696	18.351	145.416	17.394	-8191	255	
1233.866	1	1	0	0	0.12531	0.11358	0.057374	0.30752	0.22368	0.2274	0.067989	0.11801	0.28693	0.0099973	0.2805	0.14398	0.16859	0.11896	0.098368	0.29009	-2.5917	-3.2875	-2.7562	-3.1437	-2.8563	-2.9667	-3.4833	-3.1	-2.9229	-3.1708	-2.8229	-3.2458	-3.25	-2.9396	-3.2333	-3.1271	210.203	289.490	193.167	-5.080	182.553	36.263	216.884	53.450	4.700	338.210	98.996	156.102	275.873	0.029	20.976	313.769	0.00068604	0.00035669	0.00016199	1554.2	6.6218e-06	4.5392e-06	1560.7	421.93	1.3883e-05	6.7844e-06	479.74	159.05	138.78	47.01	7.3505e-06	58.277	0.0012702	0.0012732	0.00041582	1625.3	1.4496e-05	1.4499e-05	1604.9	437.54	1.4498e-05	1.468e-05	516.29	166.26	144.76	49.479	1.6859e-05	61.373	64.978	350.519	66.303	4.593	105.274	75.873	4.735	9.601	159.183	158.523	8.819	13.283	13.622	18.423	171.998	17.564	-8191	255	
1233.938	1	1	0	0	0.16877	0.11605	0.32982	0.12852	0.13396	0.1902	0.12723	0.17893	0.34366	0.081279	0.22482	0.13567	0.14536	0.1575	0.23131	0.21732	-2.7083	-3.1542	-2.7938	-3.2188	-3.2458	-3.1	-3.3354	-2.9313	-2.8521	-3.4292	-3.0062	-3.1771	-3.1979	-2.9688	-3.15	-3.1833	74.326	205.902	64.900	283.563	263.227	201.394	299.253	304.508	245.622	226.488	6.099	292.123	311.288	328.636	336.934	287.499	0.00081246	0.0001441	0.00014472	1556.5	1.306e-05	7.2433e-07	1564.4	421.39	9.3196e-06	8.9252e-06	479.3	158.13	137.91	47.031	1.7976e-05	58.126	0.0012726	0.0013888	0.00043387	1624.7	1.422e-05	1.5489e-05	1606.9	436.97	1.4278e-05	1.5576e-05	516.24	165.56	144.22	49.613	1.6342e-05	61.19	65.512	85.361	339.820	4.739	81.232	152.383	4.548	9.441	219.469	215.321	9.121	13.329	13.453	18.221	89.137	17.671	-8191	255	
1234.059	1	1	0	0	0.14668	0.041482	0.091293	0.4126	0.22144	0.053373	0.227	0.12841	0.28089	0.17549	0.059947	0.085745	0.10974	0.18943	0.041488	0.13611	-2.5583	-3.2687	-3.0938	-2.9375	-3.2438	-2.9396	-3.3667	-3.2208	-2.8729	-3.225	-3.0896	-3.0667	-3.4229	-3.1437	-3.3396	-3.1854	241.428	228.667	222.574	24.407	53.255	281.131	278.028	79.920	232.197	2.225	82.168	46.384	10.442	291.949	137.866	289.597	0.0006947	0.0014614	0.00016444	1548.7	2.387e-06	9.9521e-06	1561.6	422.56	1.0299e-05	1.295e-05	481.13	158.88	138.33	47.201	6.9535e-06	58.007	0.0012459	0.0014577	0.00041264	1621.6	1.4046e-05	1.636e-05	1604	436.94	1.4249e-05	1.61e-05	512.88	165.12	144.24	49.684	1.5414e-05	61.165	63.556	64.044	72.714	5.096	176.316	251.306	4.711	9.553	164.419	158.729	8.930	13.440	13.671	18.047	131.205	17.386	-8191	255	
1234.155	1	1	0	0	0.2058	0.12588	0.22815	0.068759	0.083246	0.15532	0.27119	0.10397	0.1788	0.20086	0.13377	0.25375	0.073289	0.17373	0.060012	0.19021	-2.6771	-3.0833	-3.0958	-3.1542	-3.2479	-2.9042	-3.0625	-3.3396	-2.9542	-3.3708	-3.0896	-3.0208	-3.1979	-3.0604	-3.1083	-3.1417	0.133	161.939	158.754	327.783	86.677	4.963	288.198	7.483	335.607	68.122	32.111	315.532	59.384	349.785	298.255	326.020	0.00079115	0.0012537	0.00012566	1545.9	4.6485e-06	5.0657e-06	1560.2	421.41	1.0109e-05	8.2472e-06	478.82	158.92	138.45	47.023	1.166e-05	58.323	0.0012667	0.001514	0.00039617	1616.4	1.457e-05	1.6735e-05	1603.8	436.13	1.4926e-05	1.6699e-05	512.97	165.23	144.49	49.624	1.51e-05	61.113	72.524	97.251	131.077	4.449	220.174	128.004	4.798	9.305	148.808	126.644	8.630	13.025	13.807	18.376	232.502	17.165	-8191	255	
1234.251	1	1	0	0	0.20512	0.20258	0.14977	0.33638	0.18752	0.059337	0.45048	0.082854	0.23504	0.10607	0.11296	0.27053	0.21187	0.21955	0.17103	0.045601	-2.6542	-3.1	-2.8958	-2.8479	-3.3521	-2.9833	-3.525	-3.35	-2.9458	-3.1229	-3.35	-2.8771	-3.3875	-3.0708	-2.7854	-3.4583	209.915	22.493	-1.523	347.403	100.767	259.180	289.490	253.679	37.501	0.066	224.224	14.276	273.281	50.650	59.718	279.142	0.00071528	0.00080345	0.00021323	1548.4	6.6338e-06	4.136e-06	1557.4	422.09	8.0858e-06	6.9078e-06	479.58	158.2	138.48	47.195	1.5119e-05	58.001	0.0013498	0.0015119	0.00038482	1615.4	1.5574e-05	1.6527e-05	1601	435.67	1.5786e-05	1.6334e-05	511.58	164.95	145.09	49.53	1.4688e-05	60.917	71.450	61.602	251.752	4.935	126.013	90.945	4.630	9.464	203.729	60.843	8.837	13.282	13.925	18.131	126.804	17.492	-8191	255	
1234.347	1	1	0	0	0.11714	0.17807	0.16941	0.16419	0.24726	0.27523	0.34182	0.20058	0.12929	0.16511	0.17558	0.042258	0.013589	0.11427	0.12069	0.1215	-2.5812	-3.0604	-3.1167	-2.8438	-3.3833	-2.9625	-3.1542	-3.3	-2.8042	-3.1833	-3.2875	-3.0125	-3.3208	-3.225	-3.0021	-3.2833	213.910	43.276	6.559	68.562	207.901	162.373	285.418	39.783	192.136	166.240	58.762	86.163	342.271	46.108	114.682	340.610	0.00075817	0.00054669	7.4335e-05	1553.2	7.8492e-06	3.7917e-06	1558.4	420.42	6.1122e-06	3.7532e-06	480.77	158.14	138.6	46.864	7.4968e-06	58.215	0.0014146	0.0014628	0.00037346	1617	1.6291e-05	1.5671e-05	1598.9	435.83	1.6471e-05	1.5704e-05	510.07	165.02	145.44	49.378	1.4403e-05	60.998	76.579	25.689	103.915	4.774	228.353	125.959	4.753	9.404	69.499	169.694	8.989	13.235	14.089	18.133	114.120	17.400	-8191	255	
1234.468	1	1	0	0	0.15522	0.18605	0.26043	0.14724	0.051731	0.15342	0.57955	0.24072	0.10725	0.2044	0.21989	0.2437	0.25246	0.19632	0.11003	0.16601	-2.5729	-3.1208	-3.2438	-3.1125	-3.475	-3.0896	-3.1125	-3.6604	-2.975	-3.2188	-3.3625	-2.9771	-3.3729	-3.1063	-2.9417	-3.3937	296.428	323.102	-5.644	127.790	145.579	77.965	302.194	348.783	95.986	1.077	134.514	296.962	270.747	6.386	35.652	64.321	0.00077079	0.0016073	0.00028162	1554	5.4546e-06	9.2024e-06	1553.6	421.25	8.376e-06	1.3392e-06	476.33	158	138.01	46.933	1.1893e-05	58.039	0.0014389	0.0013935	0.00036159	1622.1	1.6535e-05	1.4918e-05	1597.7	436.25	1.6346e-05	1.5041e-05	507.86	165.24	145.04	49.239	1.4115e-05	61.093	69.432	43.058	77.978	5.189	217.818	180.377	4.549	9.432	105.442	55.047	8.830	13.176	13.662	18.263	156.784	17.484	-8191	255	
1234.539	1	1	0	0	0.23987	0.17536	0.032114	0.25829	0.17815	0.15606	0.13993	0.23146	0.058663	0.23271	0.19719	0.19892	0.25969	0.086433	0.26122	0.058975	-2.6229	-3.1292	-3.2167	-2.9	-3.0958	-3.1417	-3.0542	-3.5187	-3.075	-2.9	-3.3021	-3.2313	-3.3479	-3.1417	-3.0312	-3.4208	118.808	178.641	209.724	-5.861	10.338	341.013	301.263	310.765	333.502	7.232	337.090	69.989	244.813	203.645	10.453	99.550	0.0006037	0.00078709	0.00012856	1541.4	7.2986e-06	5.5049e-06	1556.7	419.54	8.4038e-06	2.4363e-06	476.9	158.26	138.58	47.015	1.5511e-05	57.916	0.0014211	0.0013671	0.00035735	1622.3	1.6147e-05	1.4553e-05	1597.3	436.1	1.5903e-05	1.4788e-05	507.62	165.8	144.9	49.328	1.418e-05	61.28	78.886	83.013	319.290	4.926	103.870	219.721	4.739	9.736	130.381	62.567	9.127	13.073	13.770	18.257	109.680	17.554	-8191	255	
1234.635	1	1	0	0	0.17769	0.14817	0.19161	0.16981	0.14955	0.18214	0.35609	0.26207	0.14899	0.21532	0.051251	0.15723	0.2478	0.087318	0.29302	0.29818	-2.7167	-2.8229	-3.2771	-3.0542	-3.1	-3.3021	-3.1958	-3.2687	-2.9521	-3.1063	-3.2938	-2.9583	-3.4062	-3.4292	-2.8937	-3.4104	-6.703	13.894	328.825	125.822	273.711	295.267	331.228	2.484	289.343	62.713	60.777	267.658	17.785	308.286	70.315	29.161	0.00065207	0.00054142	0.00038927	1543.9	6.5589e-06	1.1111e-05	1554.4	420.26	1.9165e-06	7.6629e-06	482.75	158.79	138.1	46.879	1.0516e-05	57.863	0.0013609	0.0013235	0.00036698	1627	1.5385e-05	1.4336e-05	1597.3	437.34	1.5173e-05	1.4299e-05	509.98	166.04	144.57	49.289	1.4901e-05	61.266	68.966	84.798	80.947	4.666	75.215	150.712	4.646	9.625	59.710	72.876	9.037	13.153	13.895	18.138	183.915	17.487	-8191	255	
1234.756	1	1	0	0	0.14555	0.061612	0.13785	0.28123	0.073209	0.06591	0.32479	0.11669	0.26998	0.2303	0.32488	0.17262	0.21946	0.14205	0.31453	0.069039	-2.6854	-2.8771	-3.2625	-3.1208	-3.0917	-3.3771	-3.1604	-3.2083	-3.175	-2.8438	-3.3229	-3.0938	-3.1271	-3.5812	-3.0438	-3.3083	0.570	139.295	334.611	332.083	344.928	115.751	253.974	299.645	150.559	166.033	20.480	276.550	19.701	313.809	225.981	293.763	0.00063188	0.00019755	0.00048952	1546.3	7.2418e-06	5.6859e-06	1562.9	421.29	1.51e-05	8.2399e-06	479.92	157.79	138.04	46.835	1.293e-05	57.895	0.001311	0.0012871	0.00038247	1630.9	1.4885e-05	1.391e-05	1600.9	437.92	1.4699e-05	1.4092e-05	512.97	165.46	144.3	49.044	1.5791e-05	61.217	69.260	108.569	111.712	4.851	164.143	125.793	4.669	9.601	110.257	47.213	8.599	13.249	13.824	18.367	136.667	17.336	-8191	255	
1234.852	1	1	0	0	0.16852	0.12025	0.20494	0.32056	0.063044	0.12773	0.30551	0.21512	0.10565	0.12577	0.083292	0.221	0.1116	0.16137	0.30631	0.076525	-2.8396	-2.8583	-3.2313	-3.0167	-3.0604	-3.2708	-3.2917	-3.3354	-3.2104	-2.7958	-3.4062	-3.2333	-3.175	-3.3958	-2.8979	-3.2062	300.542	161.305	244.766	320.480	219.405	123.531	286.010	261.855	258.334	217.689	262.451	305.411	166.875	28.949	70.848	320.889	0.00073259	0.00024723	0.00034906	1548.1	4.6703e-06	4.6992e-06	1562.4	422.59	3.2186e-06	1.1948e-05	476.48	157.55	137.54	47.087	5.6924e-06	58.103	0.0012807	0.0012846	0.00040582	1628.3	1.4604e-05	1.4068e-05	1605.3	437.24	1.4269e-05	1.4115e-05	513.87	165.08	143.92	49.255	1.63e-05	61.183	74.115	179.311	122.516	4.826	212.433	222.124	4.698	9.391	313.464	185.009	9.020	13.241	13.851	18.410	116.309	17.402	-8191	255	
1234.947	1	1	0	0	0.093802	0.15801	0.30351	0.10616	0.027157	0.14471	0.2255	0.28463	0.1339	0.085415	0.21714	0.11849	0.10896	0.15475	0.16569	0.097626	-2.9	-2.8167	-3.2021	-3.175	-2.9021	-3.1937	-2.9625	-3.3292	-3.3521	-2.9542	-3.5125	-3.3146	-2.9333	-3.3583	-2.9708	-3.2979	245.932	102.964	342.944	14.543	-3.664	298.936	305.584	288.673	160.234	74.027	312.411	20.661	300.372	94.063	96.017	-6.771	0.0006198	0.00068448	1.2972e-05	1550.1	4.529e-06	1.2324e-05	1558.6	421.11	9.1857e-06	8.4199e-06	478.55	157.85	137.38	46.917	6.91e-06	58.045	0.0012457	0.0013227	0.00041656	1620.2	1.4192e-05	1.4611e-05	1601.4	436.05	1.4065e-05	1.5117e-05	515.01	164.74	143.81	49.302	1.6167e-05	60.951	77.382	69.354	8.527	4.597	54.852	201.917	4.610	9.393	94.783	138.745	8.645	13.362	13.887	18.138	176.070	17.508	-8191	255	
1235.043	1	1	0	0	0.32775	0.050555	0.28721	0.26307	0.28515	0.18717	0.13621	0.19563	0.22172	0.36613	0.094537	0.2477	0.047225	0.31089	0.28949	0.33097	-2.8771	-2.9375	-3.2083	-3.1063	-2.9313	-3.2854	-3.1292	-3.2896	-3.2646	-2.7771	-3.2271	-3.2083	-2.9042	-3.3208	-3.0292	-3.075	210.528	0.508	336.796	4.149	348.656	123.223	272.134	159.053	209.916	274.620	229.677	338.706	203.331	3.651	325.580	315.566	0.00078899	0.0010829	0.00025355	1549.5	5.1464e-06	8.6678e-06	1559	421.93	7.1926e-06	1.0124e-05	479.54	158.02	138.48	47.068	3.652e-06	57.61	0.0012367	0.0014181	0.00041763	1621.3	1.4122e-05	1.5628e-05	1604.1	436.28	1.3776e-05	1.5992e-05	513.21	164.67	144.08	49.521	1.5625e-05	60.899	68.371	63.439	87.042	4.629	125.786	169.101	4.573	9.518	96.952	224.736	8.950	13.422	13.680	18.457	166.362	17.493	-8191	255	
1235.139	1	1	0	0	0.22221	0.11282	0.16282	0.0092474	0.22886	0.17533	0.083437	0.16856	0.21199	0.14215	0.33519	0.25953	0.27418	0.19326	0.086736	0.24717	-2.8979	-2.7625	-3.0687	-3.0479	-2.9229	-3.2375	-3.3146	-3.0958	-3.2604	-2.9292	-3.1312	-3.3521	-3.0917	-3.3854	-3.1042	-3.0958	223.328	265.823	314.417	96.210	85.759	16.555	243.146	329.401	331.035	158.555	249.852	343.535	1.907	298.610	332.081	298.276	0.00064241	0.0021845	0.00019698	1542.6	4.5428e-06	7.6437e-07	1563.9	421.91	1.0459e-05	1.0544e-05	481.94	157.94	137.29	46.998	1.5943e-05	58.095	0.0012375	0.0014852	0.00039671	1614.2	1.4224e-05	1.6284e-05	1602.7	436.3	1.4203e-05	1.6516e-05	512.61	164.74	143.95	49.487	1.4961e-05	60.884	62.282	99.496	48.852	4.822	127.106	67.124	4.581	9.465	119.179	174.660	8.789	13.413	13.937	18.111	71.371	17.660	-8191	255	
1235.235	1	1	0	0	0.38936	0.10348	0.051838	0.20005	0.22594	0.24417	0.15812	0.074898	0.10493	0.13562	0.31759	0.2572	0.18317	0.13256	0.25252	0.20796	-2.9729	-3.0438	-3.0396	-3.2458	-2.8667	-3.1688	-3.3688	-2.9979	-3.2583	-3.1167	-3.2042	-3.2729	-2.9125	-3.2833	-3.1021	-3.0604	82.177	83.965	341.479	268.974	320.190	323.013	-7.403	267.429	294.811	143.893	102.452	255.388	301.734	151.249	223.633	5.384	0.00073659	0.0010647	0.00016148	1545	1.1362e-05	1.7993e-06	1565.8	421.07	2.3304e-05	4.6342e-06	481.74	157.54	138.35	46.779	1.9646e-06	57.62	0.0012757	0.0014893	0.00037907	1613.9	1.5008e-05	1.6161e-05	1599.5	435.26	1.4947e-05	1.6192e-05	510.01	164.4	144.65	49.458	1.4425e-05	60.747	61.543	89.741	202.208	4.829	163.863	186.224	4.724	9.414	167.886	184.773	8.728	13.357	13.801	18.187	118.460	17.517	-8191	255	
1235.356	1	1	0	0	0.1391	0.13479	0.1857	0.33944	0.18516	0.18281	0.19937	0.088296	0.06755	0.16754	0.12062	0.13828	0.12273	0.054002	0.031571	0.17609	-3.0104	-2.9875	-2.9875	-3.2188	-3.0729	-3.15	-3.2208	-3.0396	-3.1896	-3.1437	-2.9792	-3.3271	-3.1167	-3.1417	-3.0938	-3.05	313.327	317.955	129.677	9.746	98.847	114.053	304.234	194.609	29.179	30.075	13.147	122.047	45.628	315.053	119.145	342.714	0.00081641	0.00091321	0.00019926	1559	1.3213e-05	9.2998e-06	1568.1	420.14	1.5617e-05	8.2165e-06	479.88	158.11	137.68	46.812	6.7427e-06	57.853	0.0013584	0.0014533	0.00036786	1616.1	1.5808e-05	1.5651e-05	1601.2	435.13	1.5784e-05	1.5593e-05	508.67	164.23	144.86	49.322	1.4097e-05	60.841	74.080	109.638	146.685	4.761	167.169	239.117	4.729	9.576	112.700	126.092	8.972	13.371	13.835	18.331	177.211	17.539	-8191	255	
1235.452	1	1	0	0	0.12069	0.19166	0.099304	0.18772	0.21743	0.029821	0.143	0.19298	0.30036	0.15401	0.1313	0.16111	0.27762	0.13717	0.22075	0.15489	-2.9854	-3.1854	-2.9458	-3.1708	-2.9021	-3.2167	-3.3354	-2.9958	-3.2417	-3.15	-3.0187	-3.2417	-3.1083	-3.1083	-3.3958	-3.0396	328.830	200.554	258.517	344.678	92.037	18.958	244.816	294.065	276.825	322.897	88.901	36.222	313.153	313.894	200.892	274.403	0.00066615	0.001074	0.00027959	1544.7	9.5048e-06	4.5553e-06	1559.6	421.09	9.1055e-06	4.2335e-06	475.02	157.14	137.34	46.869	5.6372e-06	57.889	0.0014157	0.0013963	0.00035894	1612.3	1.6286e-05	1.5045e-05	1596.3	435.57	1.6163e-05	1.4808e-05	505.89	164.64	144.49	49.26	1.3613e-05	60.923	55.235	238.637	47.886	5.015	65.573	144.023	4.725	9.495	165.255	54.852	9.108	13.222	13.723	18.352	37.318	17.783	-8191	255	
1235.548	1	1	0	0	0.11823	0.18855	0.22078	0.22785	0.11181	0.1536	0.15986	0.17255	0.31959	0.10073	0.1295	0.24416	0.22109	0.058811	0.11803	0.18875	-2.9708	-3.0104	-2.7083	-3.3271	-2.95	-2.9813	-3.4646	-3.0062	-3.0563	-3.0125	-2.8063	-3.25	-3.0938	-3.1396	-3.1667	-3.0646	301.348	320.479	154.894	38.199	203.156	70.119	263.943	298.517	97.038	114.341	65.386	346.519	328.765	-2.022	157.760	344.625	0.00051876	0.00013465	0.00034666	1556.2	6.0732e-06	1.1074e-05	1556	419.84	1.2455e-05	4.3613e-06	480.75	157.34	138.11	47.019	9.6632e-06	58.031	0.0014006	0.0013315	0.00035172	1617.1	1.6205e-05	1.4533e-05	1593.8	435.74	1.587e-05	1.4459e-05	507.56	165.02	144.69	49.264	1.3834e-05	61.095	72.829	176.837	20.397	4.729	79.955	198.089	4.627	9.442	115.707	109.120	9.159	13.146	13.714	18.370	130.078	17.626	-8191	255	
1235.644	1	1	0	0	0.2339	0.13676	0.1466	0.15578	0.32131	0.20247	0.079543	0.29812	0.31412	0.24787	0.15743	0.12211	0.13822	0.11732	0.22449	0.039555	-2.7938	-3.1479	-2.9583	-3.1792	-3.025	-2.9396	-3.3521	-3.1375	-3.0292	-3.2438	-3	-3.3729	-3.0625	-3.1479	-3.2188	-2.9125	272.290	293.349	59.116	22.233	285.355	65.755	207.809	288.585	222.395	100.165	160.811	289.269	331.294	254.062	16.434	-3.889	0.00056177	9.7602e-05	0.00031356	1537.3	5.9105e-06	5.4197e-06	1559.2	422.38	2.9381e-06	6.4527e-06	477.83	157.75	138.3	46.853	1.1705e-05	58.049	0.0013836	0.0013251	0.00036322	1627.5	1.5801e-05	1.4626e-05	1600.4	438.87	1.5424e-05	1.4478e-05	509.04	165.69	144.69	49.142	1.469e-05	61.273	57.318	185.830	90.066	5.140	85.880	100.439	4.683	9.421	97.889	109.132	8.585	13.254	13.949	18.350	162.515	17.460	-8191	255	
1235.763	1	1	0	0	0.082669	0.17872	0.091477	0.22374	0.22684	0.13405	0.44619	0.23327	0.11299	0.19695	0.039039	0.086644	0.11408	0.047649	0.13146	0.13438	-2.6271	-3.0333	-2.9333	-3.2812	-3.1208	-2.9875	-3.4583	-3.0396	-3.0875	-3.3271	-2.8917	-3.3083	-3.1854	-3.0125	-3.0771	-3.1667	32.623	98.835	118.109	299.727	230.777	100.965	291.997	-1.100	218.412	9.930	302.165	225.258	167.525	242.967	163.755	-0.927	0.00063074	0.00041544	0.00015481	1555.7	5.9695e-06	1.1368e-05	1565.8	421.09	6.27e-06	2.6921e-06	478.79	157.53	137.25	47.077	1.5099e-05	57.832	0.001349	0.0013115	0.00038176	1635	1.5131e-05	1.4343e-05	1603.9	437.54	1.5009e-05	1.413e-05	511.49	165.37	144.31	49.269	1.5459e-05	61.25	74.548	7.653	108.577	4.869	112.671	163.504	4.595	9.372	256.775	225.808	8.822	13.342	13.607	18.462	157.393	17.450	-8191	255	
1235.835	1	1	0	0	0.14849	0.28533	0.19447	0.19385	0.10454	0.29239	0.052161	0.33118	0.15133	0.37812	0.28107	0.12833	0.22818	0.12593	0.14861	0.13955	-2.6229	-3.0979	-3.0083	-3.4229	-3.2625	-2.9292	-3.2604	-2.9854	-3.0167	-3.1646	-2.9938	-3.3937	-3.1896	-2.9792	-3.1167	-3.1458	349.219	273.540	8.527	240.608	35.465	34.184	158.839	285.570	275.720	265.552	314.212	16.252	8.878	323.833	197.747	303.163	0.00072899	0.00022217	0.00020182	1542.3	6.2596e-06	5.2218e-06	1558.2	420.7	1.1305e-05	6.356e-07	477.89	157.36	138.14	46.714	7.0384e-06	57.706	0.0013081	0.0012929	0.00040609	1630.1	1.48e-05	1.4303e-05	1603	436.45	1.4778e-05	1.4205e-05	513.84	165.27	144.41	49.12	1.6535e-05	61.062	61.280	176.030	150.144	5.066	160.521	231.843	4.629	9.471	165.119	100.437	8.752	13.286	13.580	18.322	146.223	17.550	-8191	255	
1235.931	1	1	0	0	0.14178	0.12736	0.088337	0.18135	0.031556	0.17412	0.27946	0.13134	0.067198	0.32598	0.31446	0.15215	0.19521	0.12643	0.11968	0.20527	-2.5563	-3.2812	-2.8542	-3.1958	-3.2021	-2.8604	-3.3563	-3.1146	-2.9562	-3.3417	-3.025	-3.1708	-3.3104	-2.9083	-3.0958	-3.0333	167.860	52.059	202.875	327.177	58.495	78.312	288.163	343.146	97.065	123.564	265.851	261.815	318.491	33.784	233.167	255.115	0.00071989	0.000703	0.0001663	1554.6	9.7948e-06	1.2096e-05	1564.3	421.39	1.5202e-05	7.0034e-06	474.47	157.76	137.55	46.786	1.438e-05	57.823	0.0013044	0.0013225	0.00042975	1629	1.4658e-05	1.4915e-05	1606.4	436.67	1.4458e-05	1.4767e-05	514.41	165.08	143.89	49.167	1.6641e-05	60.897	60.575	60.815	109.293	4.846	100.775	175.737	4.610	9.633	90.121	91.228	8.795	13.263	13.522	18.228	161.198	17.417	-8191	255	
1236.027	1	1	0	0	0.373	0.11182	0.20451	0.14927	0.22545	0.081504	0.23534	0.28818	0.23646	0.12932	0.16538	0.098384	0.043533	0.21708	0.18242	0.2289	-2.4333	-3.3563	-2.8917	-3.0958	-3.3375	-2.6542	-3.3708	-3.25	-2.9042	-3.2917	-2.7729	-3.0292	-3.3604	-2.9229	-3.2375	-3.1646	314.228	-5.285	244.409	7.671	19.428	-0.124	78.053	312.794	43.976	299.960	329.734	292.528	81.541	286.666	291.221	269.154	0.00078374	0.00032276	0.00029164	1550.9	2.3309e-06	5.4633e-06	1555.3	421.14	1.1629e-05	1.3517e-05	480.54	157.79	138.22	46.611	7.06e-06	57.644	0.0012572	0.0013923	0.00042438	1623.7	1.4102e-05	1.5463e-05	1603.9	435.9	1.4048e-05	1.5419e-05	513.62	164.6	143.83	49.295	1.6156e-05	60.787	67.834	102.620	47.240	5.011	163.023	199.386	4.760	9.382	146.900	163.267	9.400	13.071	13.587	18.221	84.851	17.300	-8191	255	
1236.148	1	1	0	0	0.054908	0.19256	0.10186	0.23615	0.04658	0.017382	0.16413	0.13682	0.14506	0.055117	0.40522	0.2459	0.19118	0.20942	0.10722	0.10207	-2.5062	-3.3917	-2.8042	-3.1667	-3.2417	-2.8417	-3.4146	-3.1688	-2.8708	-3.3583	-2.8542	-3.025	-3.2333	-2.975	-3.1396	-3.2708	289.135	303.181	160.497	276.873	109.426	170.311	280.370	84.508	216.499	45.816	1.230	36.430	298.116	280.935	199.788	197.686	0.00069104	0.00025412	8.2004e-05	1547.9	9.3385e-06	1.0414e-05	1557.6	420.12	1.6638e-05	5.4716e-06	479.13	158.04	137.74	46.762	8.3641e-06	57.868	0.0012534	0.0014598	0.00041046	1616.5	1.4209e-05	1.64e-05	1602.1	434.75	1.4323e-05	1.6311e-05	511.48	164.27	143.78	49.345	1.5345e-05	60.745	71.125	238.332	237.099	4.878	184.915	169.639	4.765	9.386	166.602	174.726	8.706	13.493	13.822	18.421	98.774	17.275	-8191	255	
1236.244	1	1	0	0	0.11763	0.11149	0.19275	0.10464	0.044055	0.058042	0.30544	0.41654	0.12667	0.063992	0.13886	0.057366	0.17167	0.16656	0.14847	0.30233	-2.5708	-3.2333	-3.0208	-2.9667	-3.1771	-2.9	-3.2354	-3.2521	-3.05	-3.1417	-3.0854	-3.0333	-3.2667	-2.8958	-2.9667	-3.2208	261.288	84.229	137.087	317.782	84.538	93.643	247.817	249.984	113.074	246.554	222.442	289.874	252.158	29.490	90.502	300.037	0.00070214	0.00062226	0.00030264	1554.9	5.7997e-06	4.3178e-06	1559.5	420.23	6.6786e-06	8.016e-06	479.46	158.22	137.13	46.938	9.9884e-06	57.782	0.001273	0.0014931	0.00038477	1614.9	1.4519e-05	1.6554e-05	1597	434.1	1.4734e-05	1.6419e-05	509.24	164.25	143.77	49.34	1.4601e-05	60.561	67.014	58.969	47.774	4.713	193.866	42.637	4.605	9.417	158.346	129.888	8.742	13.144	13.816	17.940	86.230	17.503	-8191	255	
1236.340	1	1	0	0	0.098831	0.17283	0.12643	0.082471	0.28595	0.23765	0.19166	0.23348	0.20753	0.041771	0.052519	0.14286	0.12369	0.27442	0.25685	0.048799	-2.6354	-2.9625	-3.2146	-2.8458	-3.3125	-2.7896	-3.2333	-3.3542	-2.9896	-3.1167	-3.1312	-2.9	-3.175	-3.0687	-2.9521	-3.2729	49.724	205.222	188.477	96.412	-3.525	247.110	257.446	298.028	103.163	81.321	89.810	86.158	174.399	-1.047	303.769	193.783	0.00078512	0.00077697	0.00038092	1546.9	9.0302e-06	7.9574e-06	1558.4	420.24	8.2964e-06	1.4677e-05	477.37	157.73	137.51	46.802	1.2757e-05	57.781	0.0013482	0.0014744	0.00037398	1610.7	1.5531e-05	1.6023e-05	1596.9	434.47	1.5635e-05	1.5889e-05	506.35	164.05	144.46	49.208	1.4397e-05	60.64	81.032	114.074	91.631	4.928	167.466	131.539	4.712	9.649	129.060	158.637	8.893	13.326	13.910	18.072	99.513	17.337	-8191	255	
1236.436	1	1	0	0	0.36886	0.14455	0.10358	0.068557	0.30753	0.22434	0.39732	0.12132	0.027549	0.085791	0.21265	0.22051	0.31282	0.080478	0.010033	0.20481	-2.2375	-3.0896	-3.0812	-2.9667	-3.2042	-2.9708	-3.1396	-3.3417	-2.9938	-3.1667	-3.1854	-2.9083	-3.2417	-3.0104	-2.9771	-3.3208	334.843	88.053	347.781	83.544	245.089	140.679	314.310	16.146	205.119	185.454	14.896	350.845	230.780	350.785	118.336	271.902	0.00052943	0.0006962	0.00045105	1541.9	7.1743e-06	7.0267e-06	1551.3	417.93	1.032e-05	1.0546e-06	475.77	157.17	137.65	46.598	1.9269e-06	57.388	0.001402	0.0014204	0.00036482	1610.8	1.6242e-05	1.5363e-05	1595	433.83	1.6273e-05	1.5184e-05	505.36	164.2	144.43	49.047	1.3828e-05	60.606	64.717	44.558	32.325	4.735	162.127	139.021	4.679	9.236	142.060	76.424	8.642	13.123	13.873	18.425	115.893	17.742	-8191	255	
1236.532	1	1	0	0	0.16794	0.20971	0.30976	0.13435	0.086692	0.15461	0.32854	0.33835	0.26571	0.13709	0.24458	0.090929	0.2498	0.1403	0.1537	0.13201	-2.5563	-3.0917	-3.2583	-2.9792	-3	-2.9854	-2.9479	-3.4083	-3.0458	-3.1396	-3.275	-2.8917	-3.1396	-3.15	-2.7896	-3.3479	305.687	27.494	295.618	41.399	280.278	88.442	299.433	268.298	295.511	207.544	263.848	166.274	268.925	304.772	36.763	7.306	0.00057613	0.0011039	0.00011716	1546.4	5.9721e-06	1.0499e-05	1544.5	419.22	6.855e-06	5.7562e-06	476.18	157.17	137.12	46.855	6.8253e-06	57.595	0.0014275	0.0013774	0.00035383	1615.9	1.624e-05	1.4888e-05	1589.9	434.62	1.6097e-05	1.4686e-05	505.26	164.43	144.02	49.092	1.3839e-05	60.881	60.324	78.819	82.360	4.806	215.668	166.977	4.784	9.560	251.501	96.167	9.037	13.351	13.457	18.353	289.481	17.303	-8191	255	
1236.628	1	1	0	0	0.15078	0.20755	0.066321	0.12533	0.12133	0.13821	0.52935	0.22682	0.12757	0.14676	0.15644	0.088126	0.15128	0.019727	0.27145	0.24879	-2.6208	-2.8646	-3.1708	-2.8208	-3.1688	-3.2167	-3.0583	-3.4292	-2.8333	-2.9437	-3.1375	-3.1354	-3.0042	-3.2104	-3.0875	-3.3896	162.863	243.966	167.074	236.660	-4.780	166.537	327.398	292.265	312.657	321.641	215.948	299.346	-3.179	348.207	207.858	282.756	0.00067254	0.00056843	0.00042236	1545.4	6.6836e-06	7.9682e-06	1552.4	417.04	1.9829e-06	3.4181e-06	478.11	157.19	137.5	46.737	8.3138e-06	57.617	0.0013783	0.0013196	0.00035129	1620.9	1.5748e-05	1.4244e-05	1593.2	434.57	1.5465e-05	1.4288e-05	505.61	164.69	143.82	48.964	1.4065e-05	61.01	42.097	31.935	94.977	5.107	97.604	182.440	4.749	9.378	-2.860	162.497	8.499	13.366	14.037	18.383	186.844	17.738	-8191	255	
1236.725	1	1	0	0	0.10815	0.16635	0.036015	0.24566	0.10075	0.12098	0.26644	0.1195	0.073191	0.16181	0.079742	0.1262	0.10486	0.11243	0.15365	0.18208	-2.5542	-3.0563	-3.45	-2.9396	-3.1604	-3.3625	-2.9979	-3.3625	-3.1979	-3.0667	-3.3292	-2.9167	-3.2562	-3.4667	-2.8542	-3.4146	53.127	215.557	329.889	299.248	344.399	307.461	308.976	8.791	27.250	175.278	114.660	121.471	27.196	20.016	295.580	306.230	0.00054682	0.00017473	0.00011912	1557.7	4.3938e-06	3.6832e-06	1553.6	419.05	1.3909e-05	8.2188e-06	475.84	156.76	137.76	46.57	7.6748e-06	57.635	0.0013104	0.0012951	0.00036105	1624.4	1.5095e-05	1.4027e-05	1594.2	435.47	1.4655e-05	1.4127e-05	506.67	164.72	143.88	48.866	1.48e-05	60.911	67.274	341.779	92.300	4.826	150.018	173.369	4.802	9.572	98.138	133.560	8.943	13.567	13.759	18.086	188.358	17.603	-8191	255	
1236.843	1	1	0	0	0.17137	0.13559	0.29628	0.11694	0.21974	0.17281	0.1287	0.27128	0.22559	0.080144	0.11035	0.25174	0.11884	0.027521	0.23636	0.271	-2.6833	-2.8646	-3.2854	-3.1875	-2.9708	-3.3104	-3.0354	-3.2104	-3.0375	-2.8104	-3.4958	-3.0563	-3.0271	-3.3958	-2.8646	-3.275	119.091	0.188	149.971	16.506	310.244	164.562	328.713	286.568	52.715	163.157	24.668	13.469	310.579	57.738	326.760	339.097	0.00055405	9.0814e-05	0.00033887	1545.4	1.457e-05	2.113e-06	1551.4	418.94	5.2499e-06	5.0691e-06	475.21	157.84	137.57	46.44	1.1893e-05	57.947	0.001271	0.0012553	0.00038285	1621	1.4524e-05	1.3613e-05	1595.9	435.53	1.4282e-05	1.3831e-05	509.91	164.66	143.61	48.865	1.5658e-05	60.854	57.466	7.536	70.783	4.922	144.322	146.945	4.775	9.300	136.795	194.409	8.801	13.035	13.939	18.338	157.814	17.618	-8191	255	
1236.940	1	1	0	0	0.066109	0.036019	0.035687	0.20532	0.18252	0.18984	0.41152	0.24492	0.26707	0.094572	0.16729	0.07329	0.20074	0.072928	0.27288	0.21533	-2.7146	-2.9542	-3.0687	-2.9292	-3.0563	-3.2208	-3.2062	-3.2979	-3.2104	-2.9729	-3.1937	-3.0229	-2.9896	-3.1125	-2.9042	-3.0354	325.477	82.318	131.900	294.400	177.910	82.520	290.575	330.637	169.771	167.878	312.681	282.785	15.230	266.458	57.310	330.154	0.00055521	0.0016872	0.00011191	1546.5	8.3425e-06	8.3362e-06	1556.9	419.77	5.503e-07	3.7538e-06	473.97	157.23	136.92	46.779	6.9984e-06	57.707	0.0012493	0.0012752	0.00039988	1618	1.42e-05	1.3893e-05	1598.1	434.44	1.3898e-05	1.399e-05	510.34	164.2	143.3	48.951	1.6114e-05	60.647	80.353	105.454	97.276	4.874	141.562	148.886	4.806	9.479	262.936	138.978	8.881	13.224	13.782	18.374	136.934	17.527	-8191	255	
1237.036	1	1	0	0	0.10983	0.09875	0.20801	0.25648	0.16772	0.030767	0.33892	0.12745	0.11331	0.094684	0.023531	0.10072	0.26475	0.18211	0.31153	0.14963	-2.8833	-2.8896	-3.25	-3.1312	-3.0646	-3.1625	-2.8896	-3.0229	-3.2042	-2.9854	-3.2104	-3.2229	-3.0271	-3.2375	-2.9313	-3.2167	71.366	176.015	56.856	325.321	306.616	32.056	304.526	328.354	351.171	351.275	327.904	293.446	0.567	311.964	88.788	71.275	0.00064867	0.00052919	0.0001944	1541	8.8447e-06	4.8521e-06	1550.7	419.56	7.3799e-06	3.988e-06	472.66	156.79	137.4	46.761	1.1817e-05	57.436	0.0012063	0.0013308	0.00041272	1612.5	1.3957e-05	1.4637e-05	1595.7	434.19	1.3463e-05	1.4881e-05	510.26	163.72	143.14	49.085	1.577e-05	60.67	67.198	172.272	123.677	4.612	146.967	139.878	4.816	9.481	99.465	224.712	9.043	13.165	13.806	18.295	97.406	17.422	-8191	255	
1237.132	1	1	0	0	0.071087	0.17818	0.20402	0.11679	0.18944	0.27109	0.24306	0.20016	0.19258	0.16229	0.30883	0.20403	0.33333	0.18983	0.22655	0.12996	-2.7438	-2.8688	-3.2313	-3.2229	-3	-3.1667	-3.2125	-3.175	-3.0458	-2.8563	-3.1813	-3.2188	-2.9083	-3.1479	-3.0438	-3.1312	158.176	99.295	260.603	232.912	162.124	226.259	314.579	7.838	172.467	123.916	277.544	180.131	310.416	346.833	101.545	53.750	0.0006567	0.00074298	0.00012714	1533.3	1.2938e-05	8.1911e-06	1555.7	420.21	7.4875e-06	4.0236e-06	473.02	156.58	137.36	46.582	1.0129e-05	57.461	0.001198	0.0014081	0.00040252	1606.7	1.3775e-05	1.5748e-05	1595.9	433.17	1.3495e-05	1.5742e-05	509.08	163.6	143.31	49.11	1.5266e-05	60.454	59.171	71.571	54.453	4.714	107.695	279.124	4.562	9.561	93.379	96.063	8.597	13.160	13.680	18.354	158.655	17.603	-8191	255	
1237.228	1	1	0	0	0.18617	0.10945	0.17983	0.37721	0.17768	0.05938	0.30872	0.18172	0.10938	0.061879	0.049068	0.22959	0.10688	0.14467	0.15865	0.045623	-2.725	-2.7771	-3.2062	-3.1167	-2.875	-3.1437	-3.1458	-3.1417	-3.1896	-3.0187	-3.2146	-3.2479	-3.0958	-3.3354	-2.9646	-3.1458	29.099	212.465	201.525	4.514	191.859	174.019	278.871	301.323	156.526	144.447	306.345	292.539	282.601	320.640	192.300	34.909	0.00068652	0.00031457	0.00029341	1533	7.4911e-06	3.2886e-06	1554.8	418.47	1.8777e-05	2.783e-06	473.42	156.56	137.43	46.737	1.0595e-05	57.69	0.0012239	0.0014671	0.00038206	1603.4	1.3967e-05	1.5993e-05	1590.9	431.96	1.4037e-05	1.608e-05	505.95	163.26	143.13	49.125	1.4377e-05	60.46	63.766	70.501	109.275	4.866	170.353	268.647	4.667	9.484	162.745	197.143	9.064	13.134	13.700	18.189	106.705	17.333	-8191	255	
1237.324	1	1	0	0	0.22752	0.25026	0.19708	0.1917	0.22562	0.18531	0.27306	0.12126	0.29849	0.06463	0.40428	0.13901	0.2233	0.16842	0.078998	0.28719	-2.9771	-3.1208	-3.125	-3.3312	-2.7521	-3.1542	-3.2	-2.8417	-3.0979	-2.7417	-3.0812	-3.3438	-3.0354	-3.1604	-2.975	-2.9542	45.807	79.424	140.073	37.019	243.966	335.217	308.426	252.671	187.714	284.068	23.430	286.031	183.090	308.062	169.148	301.238	0.0007273	0.00080805	0.00011507	1536.9	6.8624e-06	1.2843e-05	1550.5	418.09	1.8197e-05	4.4201e-06	474.62	157	137.21	46.47	6.6756e-06	57.486	0.0012601	0.0014577	0.00036648	1600.2	1.4693e-05	1.5829e-05	1589	431.74	1.482e-05	1.5713e-05	505.26	163.18	143.5	48.929	1.3942e-05	60.266	71.684	80.848	143.412	4.869	167.841	144.470	4.577	9.364	147.977	77.366	9.083	13.412	13.648	18.269	155.084	17.456	-8191	255	
1237.445	1	1	0	0	0.099899	0.080925	0.29857	0.24349	0.086562	0.11789	0.073658	0.10032	0.087491	0.25265	0.11853	0.3906	0.12926	0.2332	0.057834	0.1029	-2.8187	-2.9354	-2.9833	-3.4917	-2.8479	-3.1312	-3.4042	-2.9938	-3.125	-2.9396	-2.8812	-3.3083	-3.0583	-3.0583	-3.2729	-2.9271	151.122	291.387	255.535	250.748	22.769	280.526	346.196	1.405	193.495	342.118	26.250	294.241	24.709	326.054	174.290	49.090	0.00073668	0.00050022	0.00011822	1542	6.5624e-06	1.252e-05	1552.1	417.22	8.9233e-06	4.3101e-06	472.69	157.81	137.38	46.745	7.2496e-06	57.494	0.0013404	0.0013871	0.00035561	1600.4	1.5443e-05	1.5273e-05	1587.4	431.91	1.5465e-05	1.4938e-05	502.29	163.59	143.74	49.018	1.3583e-05	60.397	68.108	15.514	7.165	5.020	122.426	125.366	4.679	9.415	144.185	222.099	9.099	13.466	13.860	18.167	7.104	17.687	-8191	255	
1237.541	1	1	0	0	0.026058	0.245	0.011618	0.20049	0.10685	0.16584	0.24855	0.32231	0.12862	0.19079	0.13941	0.11137	0.11725	0.25203	0.10998	0.13587	-2.8771	-2.9667	-2.975	-3.3896	-2.9854	-2.9792	-3.5375	-2.8521	-3.275	-3.0604	-2.8458	-3.325	-3.0875	-3.05	-3.2313	-2.8333	29.319	54.181	158.801	238.254	345.462	212.005	336.090	304.886	221.028	35.519	221.100	3.913	301.366	175.589	26.770	264.376	0.00082492	0.00052782	3.5625e-05	1540.3	5.7467e-06	6.3555e-06	1546.4	417	5.2115e-06	5.2716e-06	475.47	156.89	137.11	46.636	3.7537e-06	57.295	0.0013785	0.0013426	0.00035046	1605.9	1.5901e-05	1.4343e-05	1584.9	432.3	1.5553e-05	1.4419e-05	503.33	163.64	143.53	48.86	1.3373e-05	60.429	69.621	115.896	87.343	5.018	58.364	120.558	4.698	9.490	173.683	167.344	8.826	13.354	13.922	18.344	122.878	17.607	-8191	255	
1237.635	1	1	0	0	0.13069	0.033179	0.18074	0.21639	0.15302	0.071409	0.16286	0.12703	0.11385	0.086722	0.21149	0.091111	0.12692	0.35032	0.098829	0.055601	-2.7125	-2.8292	-2.7167	-3.0979	-3.0896	-3.0125	-3.5042	-3.0854	-3.2562	-3.1542	-2.7938	-3.4396	-3.1292	-3.2	-3.225	-2.95	179.469	129.120	221.455	261.028	35.901	271.019	262.556	340.901	80.652	156.296	311.933	19.472	111.981	319.836	197.591	252.367	0.00072975	0.00067951	0.00026031	1537.1	8.999e-06	5.3596e-06	1549.2	415.87	9.0849e-06	6.0926e-06	475.84	156.88	136.61	46.291	7.2264e-06	57.342	0.0013613	0.0012949	0.00034283	1610.9	1.5455e-05	1.4091e-05	1584.5	432.58	1.5201e-05	1.4009e-05	502.21	163.77	143.24	48.744	1.3442e-05	60.611	67.358	19.469	83.571	4.935	103.672	132.133	4.698	9.566	119.396	144.111	8.919	13.494	13.534	18.274	121.133	17.641	-8191	255	
1237.709	1	1	0	0	0.084037	0.23639	0.01916	0.24031	0.16112	0.14529	0.11678	0.11275	0.066312	0.16649	0.099989	0.11858	0.052837	0.093809	0.27314	0.13564	-2.7146	-3.1479	-2.9146	-3.3	-3.0333	-3.0208	-3.6021	-2.9771	-3.1292	-3.2062	-2.8792	-3.1771	-2.9271	-3.0625	-3.0958	-3.0896	139.796	103.971	3.566	344.120	155.435	0.474	317.819	239.770	240.448	12.299	142.269	346.047	187.308	239.440	189.017	166.373	0.00065686	0.00098799	0.00019711	1534.3	1.3985e-05	7.7803e-06	1550.8	417.88	5.0073e-06	5.5693e-06	474.35	156.29	136.84	46.538	1.8799e-06	57.473	0.0013171	0.0012447	0.00034857	1611.6	1.4835e-05	1.3797e-05	1586.3	433.5	1.4558e-05	1.361e-05	501.98	163.68	142.95	48.755	1.404e-05	60.727	61.463	82.842	78.101	4.635	108.491	107.125	4.663	9.551	165.223	94.352	8.847	13.333	13.784	18.407	18.434	17.454	-8191	255	
1237.828	1	1	0	0	0.065365	0.25562	0.10823	0.23376	0.33789	0.07578	0.37788	0.32236	0.18037	0.15164	0.2888	0.37428	0.24793	0.5033	0.1138	0.24583	-2.7562	-3.5125	-2.8438	-3.1354	-3.0292	-2.7958	-3.4146	-3.025	-2.9979	-3.1667	-2.9375	-3.0333	-3.1229	-2.8542	-3.2062	-3	266.399	243.013	75.247	286.342	134.621	67.956	308.596	28.940	-7.487	80.047	9.458	346.649	289.832	16.826	152.246	300.131	0.00062645	0.00078034	0.00044981	1532.7	8.1942e-06	5.2717e-06	1553.8	417.81	6.7731e-06	2.8203e-06	475.29	156.47	136.72	46.675	9.3393e-06	57.426	0.0012613	0.0012227	0.00036724	1609.4	1.4377e-05	1.3359e-05	1587.7	433.04	1.4105e-05	1.345e-05	505.83	163.64	142.55	48.7	1.4913e-05	60.638	61.522	43.217	84.544	4.963	90.153	120.538	4.633	9.575	246.705	70.902	8.855	13.146	13.842	18.183	165.395	17.302	-8191	255	
1237.924	1	1	0	0	0.12379	0.13596	0.26063	0.12384	0.13944	0.071458	0.14729	0.026	0.097963	0.1052	0.23142	0.25779	0.071543	0.18236	0.17209	0.093166	-2.6396	-3.2667	-2.8729	-3.275	-3.2	-2.9292	-3.525	-3.1021	-3.0438	-3.3208	-2.9646	-3.1562	-3.1292	-3.1917	-3.2042	-3.0604	45.980	109.054	122.600	-6.434	220.095	154.265	259.920	320.453	74.861	233.916	137.301	41.015	218.869	293.776	260.849	187.293	0.00060522	0.00033279	0.00027151	1530.5	3.1701e-06	1.117e-05	1542.9	417.99	7.3145e-06	5.8053e-06	473.92	156.53	136.85	46.602	9.1388e-06	57.664	0.0012344	0.0012199	0.00038722	1609	1.3971e-05	1.3439e-05	1589.3	432.96	1.3896e-05	1.348e-05	507.86	163.42	142.44	48.729	1.5477e-05	60.521	71.618	89.680	144.908	4.845	45.873	181.489	4.887	9.529	270.564	176.371	8.993	13.209	13.798	18.376	142.749	17.537	-8191	255	
1238.020	1	1	0	0	0.26206	0.23543	0.32444	0.10598	0.21232	0.085327	0.15859	0.20476	0.16378	0.12095	0.022361	0.29527	0.090087	0.37254	0.225	0.07027	-2.6833	-3.4062	-2.8438	-3.0229	-3.1125	-2.8167	-3.5979	-3.2083	-2.9667	-3.3146	-2.9188	-3.1688	-3.3187	-2.8479	-3.1417	-3.1104	145.765	72.144	88.284	11.654	102.501	140.521	330.074	342.888	251.162	47.229	192.868	299.045	337.061	22.953	152.877	242.362	0.00067577	0.00019754	0.00029001	1534.6	1.6277e-06	5.7634e-06	1550.4	419.15	8.0486e-07	1.4634e-05	471.59	156.38	136.68	46.569	5.0479e-06	57.385	0.0012051	0.0012668	0.0004011	1603.6	1.3575e-05	1.4017e-05	1590.5	432.49	1.3434e-05	1.4098e-05	507.82	163.21	142.27	48.85	1.5668e-05	60.336	68.360	15.232	38.437	4.784	257.744	156.133	4.706	9.447	-1.311	179.724	8.938	13.440	13.915	18.452	69.754	17.404	-8191	255	
1238.116	1	1	0	0	0.30771	0.068978	0.1822	0.31583	0.10347	0.27281	0.36412	0.11053	0.22232	0.24671	0.096385	0.23733	0.30205	0.10742	0.10961	0.046851	-2.3896	-3.3187	-2.775	-2.9458	-3.1271	-3.0062	-3.4188	-3.1458	-2.8646	-3.3479	-3.1188	-2.9458	-3.2208	-2.9625	-3.2104	-3.2917	259.335	48.250	278.580	295.026	146.527	108.334	251.346	-4.461	53.877	122.397	285.145	26.875	-2.655	58.198	261.965	342.680	0.00073574	0.0010784	0.00026925	1528.5	4.6587e-06	1.281e-05	1547.1	417.23	1.238e-05	1.1599e-05	473.65	156.57	136.99	46.527	2.9424e-06	57.736	0.0011938	0.0013478	0.00039756	1599	1.3341e-05	1.4837e-05	1587.1	430.95	1.3124e-05	1.4989e-05	507.05	163.21	142.33	48.934	1.5146e-05	60.346	80.156	163.358	-2.984	4.781	155.032	195.141	4.620	9.281	208.716	167.591	8.884	13.308	13.691	18.580	203.540	17.506	-8191	255	
1238.237	1	1	0	0	0.26812	0.090522	0.14301	0.11312	0.14041	0.26343	0.10371	0.24044	0.17433	0.12798	0.21662	0.24928	0.14257	0.21207	0.21415	0.33728	-2.5458	-3.1312	-2.9062	-2.9125	-3.2833	-2.8625	-3.2938	-3.2417	-2.9521	-3.2333	-3.05	-3.0667	-3.1583	-3.1562	-3.2021	-3.1625	232.280	293.856	31.707	290.420	26.724	5.715	-5.410	306.262	176.700	90.704	-5.597	326.807	274.844	16.113	206.156	324.907	0.00059302	0.00081603	0.00030293	1534	1.1421e-05	1.0217e-05	1553.2	417.67	1.1967e-05	1.0166e-05	474.11	156.32	136.79	46.438	2.081e-06	57.552	0.0011852	0.0014056	0.00038541	1597.9	1.3503e-05	1.5846e-05	1588.8	431.24	1.367e-05	1.5726e-05	505.14	162.82	142.51	48.958	1.4419e-05	60.275	77.651	98.752	52.586	4.823	159.373	187.244	4.845	9.384	170.740	160.830	8.700	13.146	13.957	18.253	252.762	17.382	-8191	255	
1238.308	1	1	0	0	0.10745	0.29181	0.15723	0.27202	0.29399	0.14612	0.37669	0.20463	0.13344	0.18377	0.10632	0.26254	0.26492	0.36725	0.12476	0.074143	-2.45	-3.2458	-3.0208	-2.9667	-3.35	-2.9521	-3.2083	-3.3729	-2.6104	-3.0229	-2.9417	-2.9854	-3.3854	-3.0958	-3.0083	-3.3854	274.491	60.754	78.299	251.456	247.142	180.475	320.141	266.315	219.980	153.931	-5.804	33.600	336.214	295.029	22.392	80.227	0.00063632	0.00043924	0.00019181	1539.3	6.661e-06	5.5106e-06	1545.3	416.12	1.2605e-05	7.4408e-06	475.37	156.04	136.79	46.653	2.9648e-06	57.42	0.0012348	0.0014383	0.00036777	1598.7	1.4068e-05	1.5617e-05	1583.7	430.43	1.4361e-05	1.5552e-05	503.15	162.72	142.92	48.977	1.4012e-05	60.184	73.497	-1.713	109.317	5.062	200.575	23.524	4.848	9.344	177.677	112.863	8.992	13.297	13.882	18.162	132.424	17.216	-8191	255	
1238.405	1	1	0	0	0.027305	0.07168	0.068278	0.12026	0.14938	0.096773	0.15389	0.036838	0.14687	0.16987	0.12324	0.25535	0.12574	0.18535	0.219	0.22708	-2.2958	-3.0917	-3.0563	-3.0125	-3.1167	-2.9104	-3.1729	-3.1333	-2.8937	-3.1521	-3.1083	-2.95	-3.3146	-3.0292	-2.7625	-3.2938	188.965	166.229	102.860	324.149	75.256	334.832	318.081	187.688	152.178	300.150	94.275	332.617	91.023	77.164	235.738	241.222	0.00071917	0.001224	0.00017112	1539.9	1.9414e-06	1.6159e-05	1549.8	416.73	1.3873e-05	6.4302e-06	476.08	156.35	136.64	46.51	9.9472e-06	57.323	0.0013188	0.0013927	0.00035595	1599.1	1.5059e-05	1.5188e-05	1585.2	430.09	1.5247e-05	1.509e-05	503.14	162.45	143.06	48.844	1.3645e-05	60.171	78.431	6.812	95.704	4.765	133.213	148.987	4.642	9.485	173.285	113.082	8.702	13.314	13.752	18.111	135.986	17.491	-8191	255	
1238.525	1	1	0	0	0.12825	0.20012	0.16508	0.2166	0.16137	0.24695	0.20427	0.25284	0.29782	0.20198	0.16678	0.34536	0.13191	0.10417	0.19566	0.1945	-2.5979	-3.0646	-3.0896	-2.9479	-3.15	-2.9271	-3.0771	-3.2229	-2.8375	-3.0292	-3.2313	-3.0271	-3.1542	-3.1146	-2.8625	-3.2896	329.460	284.991	226.780	32.644	117.700	305.061	302.692	327.706	275.005	301.551	268.380	340.448	333.064	190.340	188.390	-2.924	0.00091445	0.0013078	0.00038207	1532.3	5.4413e-06	1.0572e-05	1541.6	417.94	7.8741e-06	6.1327e-06	472.88	157	136.32	46.501	1.4737e-05	57.632	0.0013587	0.00133	0.0003485	1597.6	1.5543e-05	1.4567e-05	1581.5	430.75	1.5543e-05	1.4444e-05	500.61	163.28	143.03	48.836	1.3313e-05	60.307	77.414	34.610	84.690	4.895	125.533	148.086	4.775	9.280	105.182	19.534	8.811	13.206	13.874	18.357	38.731	17.698	-8191	255	
1238.621	1	1	0	0	0.21517	0.32573	0.13001	0.16113	0.092709	0.1724	0.40846	0.32527	0.35046	0.34343	0.18472	0.038235	0.015669	0.12348	0.13648	0.22788	-2.4021	-3.1479	-3.1188	-2.9042	-3.3104	-3.15	-3.0396	-3.2917	-3.2354	-2.9688	-3.4083	-3.0979	-3.2104	-3.075	-2.8729	-3.3396	287.594	270.954	210.545	278.775	205.753	27.900	239.660	-5.500	131.575	61.020	299.607	160.538	239.156	101.341	11.162	251.758	0.00062343	0.0014771	0.00026865	1544.3	1.1924e-05	8.3435e-06	1547.6	417.24	7.831e-07	1.0087e-05	474.31	156.18	136.66	46.673	1.1742e-05	57.344	0.0013772	0.0012987	0.00034269	1604.8	1.5455e-05	1.4066e-05	1583.2	431.79	1.5381e-05	1.4158e-05	500.97	163.15	143.28	48.727	1.3144e-05	60.491	79.998	76.678	67.900	4.915	168.260	132.921	4.750	9.490	164.815	157.644	8.955	13.402	13.871	18.439	128.679	17.706	-8191	255	
1238.717	1	1	0	0	0.27663	0.28773	0.17302	0.1163	0.059075	0.24359	0.070337	0.23037	0.17161	0.15803	0.17653	0.16196	0.32079	0.080372	0.18658	0.054696	-2.5875	-3.0083	-3.0708	-3.0479	-3.0938	-3.3646	-3.2104	-3.3208	-3.0146	-3.1396	-3.2625	-3.0021	-3.1729	-3.3063	-2.9875	-3.2875	58.334	262.448	306.868	303.520	263.960	262.961	312.392	313.181	291.552	3.448	152.637	318.298	11.063	65.131	228.612	69.053	0.00052508	0.00062751	0.00019689	1529.7	1.4096e-06	4.5744e-06	1543.5	415.4	3.2505e-06	6.1836e-06	471.86	156.19	136.12	46.55	1.0917e-05	57.364	0.0013154	0.0012674	0.0003384	1604.8	1.492e-05	1.365e-05	1580.5	431.99	1.4783e-05	1.3713e-05	500.9	163.24	142.4	48.659	1.3754e-05	60.552	85.721	91.403	67.046	4.946	9.030	30.685	4.610	9.593	165.925	132.797	8.667	13.147	13.868	18.467	120.926	17.427	-8191	255	
1238.836	1	1	0	0	0.24028	0.22726	0.045834	0.21209	0.1558	0.26613	0.29651	0.24202	0.29258	0.16593	0.15731	0.14908	0.13412	0.11338	0.14717	0.34749	-2.5563	-3.0604	-3.1375	-3.1375	-3.3229	-3.1667	-3.0208	-3.3271	-2.9562	-2.8229	-3.2125	-2.8937	-3.1333	-3.4604	-3.0375	-3.2313	269.145	227.293	141.537	322.858	337.706	288.525	277.479	206.888	49.912	222.538	96.074	267.089	298.486	326.283	318.402	8.873	0.00047445	0.00099828	0.00027615	1538.3	7.9659e-06	9.1459e-06	1545.7	416.45	8.5694e-06	6.6329e-07	477.16	155.83	136.54	46.68	6.0731e-06	57.06	0.0012704	0.0012359	0.0003528	1611.1	1.4428e-05	1.3293e-05	1584.3	432.18	1.4107e-05	1.3456e-05	503.13	163.37	142.63	48.646	1.4474e-05	60.465	56.059	78.942	113.506	4.649	84.594	153.538	4.893	9.580	99.310	269.282	9.036	13.226	13.776	18.278	70.834	17.517	-8191	255	
1238.932	1	1	0	0	0.11676	0.15249	0.33163	0.23382	0.050621	0.15709	0.36615	0.048959	0.099889	0.10787	0.11466	0.1234	0.15506	0.082632	0.27992	0.27711	-2.6167	-2.8812	-3.3292	-3.1125	-3.0604	-3.2167	-2.9896	-3.3917	-3.1729	-2.7396	-3.2792	-3.1896	-3.0542	-3.2958	-2.8812	-3.2979	323.409	300.022	263.701	349.301	7.375	192.826	283.964	58.294	245.823	120.500	345.528	19.845	11.871	309.969	67.075	322.695	0.00064783	0.0003031	0.0001587	1534.5	7.9037e-06	7.2174e-07	1539.3	416.44	1.2648e-06	2.477e-06	472.28	156.38	136.04	46.48	1.0049e-05	57.184	0.001234	0.0012062	0.00037159	1607.9	1.4027e-05	1.3225e-05	1582.2	431.45	1.3684e-05	1.3318e-05	504.63	163.1	142.08	48.563	1.5314e-05	60.43	82.089	105.289	166.582	5.010	273.823	92.610	4.826	9.506	170.967	349.789	8.881	13.015	13.780	18.142	215.211	17.672	-8191	255	
1239.004	1	1	0	0	0.28527	0.042778	0.088575	0.35648	0.084956	0.11541	0.10287	0.20605	0.23507	0.23329	0.14689	0.12277	0.11739	0.10037	0.063519	0.0064717	-2.7458	-2.9437	-3.2812	-2.9667	-2.8625	-3.2521	-3.1604	-3.2146	-3.3396	-3.0042	-3.2604	-3.1958	-3.075	-3.4292	-2.8375	-3.2771	61.684	321.919	139.945	306.132	-6.691	232.182	289.561	282.544	245.214	161.242	15.087	142.213	16.258	23.906	275.809	299.666	0.00061349	0.00092576	0.0002264	1524	9.6936e-06	1.1551e-05	1535.7	416.32	6.4753e-06	5.3236e-06	472.13	156.21	136.09	46.223	6.9763e-06	57.217	0.0012027	0.001228	0.00039046	1600.1	1.3639e-05	1.3391e-05	1581.2	430.88	1.3347e-05	1.3671e-05	504.95	162.83	141.83	48.559	1.5554e-05	60.225	68.351	112.597	71.171	5.075	123.669	188.922	4.719	9.572	191.067	113.227	8.829	13.243	13.816	18.403	125.386	17.516	-8191	255	
1239.100	1	1	0	0	0.10063	0.27592	0.17114	0.19569	0.16209	0.17773	0.29536	0.068314	0.3646	0.20508	0.225	0.23803	0.25681	0.14817	0.11607	0.053059	-2.9167	-2.9208	-3.2625	-3.1063	-2.9521	-3.1875	-3.2146	-3.0938	-3.2208	-2.9521	-3.3417	-3.15	-2.8646	-3.5708	-2.95	-3.0042	175.377	202.431	127.586	233.040	181.665	27.607	296.195	267.491	314.658	152.368	32.606	273.310	319.863	286.303	179.813	254.616	0.00062344	0.00022511	0.00011606	1535.6	3.6582e-06	6.8025e-06	1543.8	416.5	1.2539e-06	6.1078e-06	472.65	156.11	136.69	46.293	6.7582e-06	57.27	0.0011664	0.0012971	0.00039573	1596.3	1.333e-05	1.4183e-05	1583	430.34	1.3044e-05	1.4518e-05	505.88	162.39	141.88	48.711	1.5081e-05	60.152	53.866	325.304	25.451	4.720	183.977	193.605	4.825	9.458	187.111	132.346	8.765	13.230	13.749	18.264	57.770	17.416	-8191	255	
1239.221	1	1	0	0	0.18384	0.18532	0.087731	0.29412	0.15201	0.12326	0.17496	0.17841	0.21931	0.25117	0.14367	0.060661	0.020895	0.078968	0.10311	0.055243	-2.6083	-2.7271	-2.9917	-3.2458	-2.9604	-3.3458	-2.9521	-3.2062	-3.2354	-2.9938	-3.2375	-3.1083	-2.9938	-3.3125	-2.9667	-3.0146	296.575	37.132	178.017	316.636	108.664	159.640	51.757	32.165	182.922	52.095	107.377	299.141	214.076	320.665	19.678	308.346	0.00066258	0.00024795	0.00029175	1533.5	4.6033e-06	2.3784e-06	1540.4	417.01	5.3977e-06	4.736e-06	474.98	155.68	136.62	46.2	4.043e-06	57.301	0.0011491	0.0013559	0.00038048	1593.4	1.3149e-05	1.4879e-05	1582	429.9	1.2975e-05	1.5095e-05	503.07	162.01	141.89	48.752	1.4364e-05	60.081	79.951	156.939	93.886	4.887	70.872	215.208	4.666	9.566	174.549	157.204	8.998	13.412	13.700	18.223	123.227	17.292	-8191	255	
1239.317	1	1	0	0	0.024148	0.25641	0.19774	0.16243	0.30619	0.14944	0.14014	0.29015	0.15199	0.15358	0.20332	0.11886	0.2404	0.099066	0.22063	0.1154	-2.8063	-2.8312	-3.0292	-3.1833	-2.6729	-3.0771	-3.3083	-2.9854	-3.3792	-3.0792	-3.3396	-3.1479	-2.7958	-3.1896	-2.9625	-2.9771	128.596	192.888	67.346	292.250	276.486	120.502	307.211	-0.134	-5.299	341.428	-4.159	145.276	315.036	337.178	176.823	270.583	0.00075182	0.0010317	8.2376e-05	1534.7	4.5138e-06	8.6638e-06	1537.9	415.72	3.5363e-06	8.0459e-06	473	155.33	136.37	46.446	1.064e-05	57.597	0.0011705	0.0013961	0.00036503	1591.6	1.3615e-05	1.5272e-05	1580.5	429.54	1.3593e-05	1.5233e-05	501.42	162.13	142.34	48.888	1.3575e-05	60.126	62.735	79.028	295.502	4.769	127.898	164.221	4.753	9.663	27.442	98.079	8.977	13.202	13.867	18.356	165.982	17.438	-8191	255	
1239.413	1	1	0	0	0.13693	0.20936	0.15972	0.16046	0.17593	0.20103	0.43157	0.19327	0.2957	0.11796	0.20653	0.33743	0.27691	0.1967	0.13747	0.32468	-2.75	-2.8688	-2.8729	-3.2208	-2.7042	-3.1229	-3.1771	-2.8854	-3.2333	-2.9271	-3.0979	-3.3125	-2.9417	-3.0479	-3.3479	-2.9458	307.599	226.688	323.127	16.441	62.209	115.266	306.948	330.712	158.679	86.106	-1.665	294.852	38.281	252.823	209.043	198.078	0.0008618	0.00033407	0.00016312	1531.7	1.1745e-05	1.3535e-06	1541.6	416.33	1.6558e-05	5.5263e-06	471.28	156.58	135.79	46.426	3.1993e-06	57.343	0.0012302	0.0013817	0.00035055	1589.6	1.4483e-05	1.5095e-05	1579.9	428.79	1.4383e-05	1.471e-05	499.76	162.02	142.49	48.697	1.3427e-05	60.042	76.880	294.092	101.674	4.717	109.141	17.125	4.684	9.477	156.618	104.168	9.219	13.244	13.897	18.161	63.695	17.400	-8191	255	
1239.509	1	1	0	0	0.18404	0.10323	0.15409	0.096891	0.042814	0.11669	0.28809	0.25063	0.24307	0.1323	0.10246	0.063548	0.33207	0.18225	0.099456	0.12654	-2.7042	-2.8708	-2.9667	-3.2646	-3.0896	-3.2375	-3.1208	-2.9604	-3.3458	-3.0708	-3.0187	-3.2896	-3.0771	-3.1104	-3.275	-3.0521	-1.326	91.219	281.537	31.553	208.276	272.653	209.878	277.927	190.539	92.477	285.784	13.297	1.156	283.414	171.893	208.717	0.00086255	0.00053265	0.00016056	1524.5	4.9884e-06	1.2631e-05	1540.3	416.47	1.0478e-05	4.1653e-06	470.04	155.93	135.44	46.385	7.2069e-06	57.167	0.0013033	0.001336	0.00034146	1588.2	1.5001e-05	1.456e-05	1577.5	429.11	1.4913e-05	1.4403e-05	499.48	162.04	142.47	48.589	1.3161e-05	60.107	58.046	28.719	21.893	4.935	133.129	138.969	4.788	9.548	131.971	64.011	8.423	13.213	13.669	18.344	35.963	17.538	-8191	255	
1239.606	1	1	0	0	0.10713	0.049765	0.22005	0.16255	0.29041	0.21584	0.47839	0.24528	0.088372	0.17535	0.17111	0.29944	0.11148	0.22	0.37903	0.24267	-2.6958	-2.9083	-2.8729	-3.4083	-2.8292	-2.9979	-3.3042	-3.0104	-3.175	-3.0375	-2.95	-3.075	-3.0729	-3.0167	-3.2208	-2.9167	246.950	128.316	49.634	173.547	94.792	176.580	287.096	184.252	276.723	294.455	167.555	342.336	261.381	288.100	167.704	0.563	0.00079239	0.00071147	0.0003641	1531.8	4.8774e-06	1.4431e-05	1543.7	414.86	6.2091e-06	7.4254e-06	473.69	156.17	136.44	46.496	1.7161e-06	57.42	0.0013433	0.0013078	0.00033912	1595.2	1.5608e-05	1.4199e-05	1578.2	430.16	1.5339e-05	1.4108e-05	499.57	162.87	142.76	48.629	1.3147e-05	60.323	64.180	72.590	18.936	4.823	149.360	62.989	4.864	9.441	145.051	76.105	8.958	13.293	13.827	18.318	335.128	17.614	-8191	255	
1239.702	1	1	0	0	0.27789	0.3077	0.16054	0.06736	0.22247	0.26313	0.10424	0.24753	0.07604	0.47382	0.084646	0.066794	0.22303	0.26126	0.090662	0.28254	-2.7146	-3.125	-2.8083	-3.3917	-2.9646	-3.0417	-3.3875	-2.8604	-3.0687	-2.9667	-2.9083	-3.3083	-2.9437	-3.1417	-3.0979	-2.8458	201.265	275.049	169.040	293.259	85.683	26.597	298.552	-0.929	350.687	151.244	317.809	212.451	215.457	293.718	152.941	271.343	0.00042234	0.001064	0.00020165	1531.7	3.934e-06	2.193e-06	1543.4	415.63	4.6901e-06	1.986e-06	474.03	156.37	136.38	46.512	9.0689e-06	57.309	0.001334	0.0012677	0.00033788	1602.6	1.5197e-05	1.3938e-05	1579.7	430.74	1.4878e-05	1.3699e-05	501.46	163.13	142.52	48.63	1.3466e-05	60.462	69.449	84.630	350.357	4.936	113.723	155.456	4.603	9.407	134.072	109.261	9.153	13.407	13.677	18.394	210.310	17.742	-8191	255	
1239.798	1	1	0	0	0.21399	0.34549	0.065873	0.18076	0.12758	0.32744	0.066938	0.1012	0.2801	0.30894	0.10141	0.18803	0.063631	0.1836	0.18055	0.14557	-2.6813	-3.0917	-2.7562	-3.2	-2.8792	-2.9813	-3.3375	-3.0271	-3.1417	-3.2313	-2.9771	-3.3208	-3.1813	-2.9583	-3.375	-3.0583	154.048	184.304	174.619	326.927	195.747	325.805	334.085	184.587	317.983	69.018	315.317	29.809	232.396	7.422	339.852	193.964	0.00054203	0.00043974	0.00028865	1537.8	5.1353e-06	9.102e-06	1540	416.12	8.4132e-06	8.7492e-06	472.61	155.88	135.97	46.475	9.0618e-06	57.113	0.0012866	0.0012433	0.00034527	1608.3	1.4405e-05	1.344e-05	1579.7	431.18	1.429e-05	1.3356e-05	500.59	162.77	142.04	48.568	1.3787e-05	60.361	66.983	77.011	97.450	4.751	155.602	77.589	4.673	9.538	83.532	171.471	9.307	13.401	13.672	18.620	180.109	17.108	-8191	255	
1239.917	1	1	0	0	0.18475	0.041829	0.0041742	0.16127	0.062155	0.21317	0.16952	0.37765	0.077526	0.11483	0.37976	0.30941	0.24613	0.28475	0.070527	0.1613	-2.5833	-3.1875	-2.85	-3.1833	-2.9021	-2.9125	-3.4458	-3.0187	-3.0792	-3.2062	-2.9062	-3.2979	-3.1458	-2.8729	-3.1188	-3.0563	164.905	348.348	235.208	175.856	306.734	88.857	255.233	283.739	138.293	40.830	290.688	343.732	94.119	288.085	35.702	256.298	0.00074948	0.00042342	0.00021996	1528.5	8.7629e-06	4.2598e-06	1533.8	415.31	5.7435e-06	3.8551e-06	469.13	155.81	136.44	46.233	5.0307e-06	57.18	0.0012223	0.0011952	0.00036404	1600.4	1.3791e-05	1.3112e-05	1575.5	430.46	1.3637e-05	1.2978e-05	501.71	162.7	141.93	48.431	1.4585e-05	60.213	63.677	9.789	91.390	4.835	63.916	116.604	4.719	9.381	145.231	134.107	9.127	13.441	13.804	18.475	146.812	17.702	-8191	255	
1240.013	1	1	0	0	0.24202	0.010111	0.09704	0.13916	0.067009	0.38824	0.24148	0.3606	0.10878	0.22742	0.077719	0.21396	0.21801	0.13235	0.14833	0.17512	-2.4062	-3.1104	-2.7646	-3.2812	-2.9667	-2.8229	-3.4583	-3.125	-3.0083	-3.3875	-3.1625	-3.25	-3.2687	-2.9	-3.2313	-3.0833	273.489	183.966	279.482	319.830	11.581	313.505	263.676	339.487	344.633	282.487	143.084	309.043	41.537	319.586	300.759	290.334	0.00067298	0.001111	0.00017835	1532	4.3694e-06	1.3768e-06	1543.4	415.1	1.054e-05	3.4708e-06	472.56	155.74	136.21	46.479	9.7064e-06	57.444	0.0011969	0.0011855	0.00038191	1598.6	1.3335e-05	1.326e-05	1583.2	430.05	1.3294e-05	1.3271e-05	504.61	162.36	141.69	48.56	1.5039e-05	60.144	61.044	116.172	73.944	4.638	225.798	264.732	4.693	9.370	156.560	97.819	8.966	13.066	13.826	18.382	159.422	17.441	-8191	255	
1240.109	1	1	0	0	0.16521	0.032044	0.18878	0.22243	0.097424	0.093653	0.26047	0.064711	0.092302	0.16313	0.13122	0.17559	0.025285	0.26193	0.16727	0.22805	-2.3396	-2.9958	-2.9604	-3.0938	-3.1688	-3.0542	-3.4333	-3.1063	-2.7708	-3.2021	-2.8292	-3.0146	-3.375	-3.1396	-3.0938	-3.1813	337.287	311.163	350.504	6.018	3.427	124.468	273.018	292.396	61.005	157.447	90.316	247.453	122.205	344.977	90.635	322.687	0.00072321	0.00042462	0.00027105	1541.5	7.0881e-06	4.5959e-06	1537.3	416.32	4.2947e-06	1.0366e-05	470.55	155.9	136.19	46.271	6.308e-06	57.285	0.0011681	0.0012344	0.00038887	1597	1.3042e-05	1.385e-05	1581	429.44	1.3073e-05	1.3904e-05	503.32	162.17	141.45	48.574	1.4989e-05	60.078	79.616	334.978	84.378	4.692	91.313	212.656	4.658	9.292	210.315	214.157	8.709	13.498	13.921	18.547	150.653	17.477	-8191	255	
1240.205	1	1	0	0	0.10772	0.051266	0.15284	0.062039	0.18489	0.32869	0.4292	0.21802	0.20759	0.176	0.034266	0.27321	0.40668	0.11291	0.099076	0.12891	-2.6042	-3.2229	-2.9729	-3.0833	-3.2125	-2.925	-3.2896	-3.2479	-2.9479	-3.2333	-2.95	-3.0625	-3.3729	-2.9521	-3.1083	-3.2167	125.352	-3.758	66.095	342.539	259.579	324.892	292.293	297.289	66.816	215.187	64.635	285.700	284.969	118.058	77.655	312.350	0.00053405	0.0011871	9.7996e-05	1535.8	5.8262e-06	7.7636e-06	1539	415.33	9.2295e-06	1.0007e-05	471.64	156.56	136.14	46.483	1.2578e-05	57.161	0.0011452	0.0013095	0.00038134	1595.9	1.3007e-05	1.4753e-05	1579.7	428.67	1.297e-05	1.4827e-05	503.34	162.26	141.48	48.766	1.4592e-05	60.047	80.390	86.219	54.792	4.739	152.499	239.493	4.790	9.597	142.047	167.294	9.072	13.371	13.761	18.432	94.544	17.775	-8191	255	
1240.301	1	1	0	0	0.17033	0.18678	0.061127	0.431	0.048107	0.1181	0.27665	0.14674	0.17553	0.068329	0.37826	0.14466	0.12595	0.19304	0.18028	0.12554	-2.3604	-3.3292	-2.9729	-3.0375	-3.0583	-3.0292	-3.2333	-3.3979	-3.0312	-3.3625	-3.1458	-3.2729	-3.3479	-3.0104	-3.1917	-3.3292	152.463	238.248	139.473	335.881	11.236	186.995	322.715	326.096	135.078	219.781	290.875	300.415	70.099	5.495	260.730	-1.835	0.00062106	0.0010123	0.00025027	1526	1.143e-05	1.8251e-06	1539.7	415.52	9.4587e-06	5.8602e-06	477.02	155.56	135.41	46.416	9.117e-06	57.159	0.0011722	0.0013884	0.00037021	1587.8	1.3265e-05	1.5239e-05	1577.3	428.36	1.3386e-05	1.5242e-05	502.28	161.99	141.42	48.695	1.3923e-05	59.903	62.447	87.036	62.531	5.107	171.216	209.067	4.707	9.608	158.704	104.403	8.854	13.334	14.148	18.008	128.591	17.734	-8191	255	
1240.397	1	1	0	0	0.075078	0.03244	0.023351	0.36295	0.19973	0.071437	0.29772	0.16228	0.25193	0.20134	0.12868	0.10795	0.28934	0.078092	0.12877	0.033637	-2.5833	-3.1979	-2.9625	-2.8333	-3.3542	-2.9042	-3.2396	-3.3958	-2.6896	-3.2208	-3.1875	-3.0458	-3.2542	-3.1021	-3.0125	-3.4479	169.479	305.475	120.995	322.075	305.146	32.232	258.397	3.649	234.562	190.067	188.982	79.235	275.298	8.890	88.359	144.304	0.00092713	0.00062043	0.00038137	1520.9	3.1027e-06	9.9829e-06	1540	414.08	8.8489e-06	4.2311e-06	471.14	155.9	135.94	46.343	1.5366e-05	56.911	0.0012265	0.0013957	0.00035528	1585	1.3972e-05	1.5228e-05	1576.3	427.6	1.4286e-05	1.5078e-05	499.02	161.59	141.88	48.712	1.3695e-05	59.818	70.311	17.251	34.633	4.937	208.877	157.966	4.536	9.537	224.719	339.280	8.700	13.330	13.594	18.227	124.559	17.318	-8191	255	
1240.518	1	1	0	0	0.3105	0.021591	0.094209	0.039675	0.075173	0.21701	0.24262	0.17351	0.14837	0.20357	0.33369	0.1663	0.072052	0.030546	0.16302	0.34181	-2.5521	-3.1646	-3.2604	-3.0542	-3.2167	-3.2229	-3.2375	-3.3792	-2.9229	-3.1479	-3.2125	-3.0062	-3.2792	-3.0187	-2.9854	-3.2229	112.509	335.173	142.623	292.662	81.145	107.044	295.163	334.319	52.336	21.899	346.750	331.034	36.452	231.577	344.252	306.317	0.00054465	0.0011204	4.3282e-05	1531.3	5.8009e-06	6.5014e-06	1534.5	415.06	2.6253e-06	8.8529e-06	470.93	155.64	135.61	46.431	9.6525e-06	56.62	0.0013004	0.0013619	0.00034526	1586	1.491e-05	1.4727e-05	1576.2	428.11	1.5054e-05	1.4518e-05	497.82	161.91	142.16	48.606	1.3317e-05	59.885	70.344	-7.645	52.251	4.749	197.360	179.763	4.524	9.483	33.817	74.817	8.977	13.465	13.682	18.250	99.491	17.641	-8191	255	
1240.614	1	1	0	0	0.19819	0.17576	0.18213	0.067165	0.23191	0.074604	0.12801	0.2038	0.03317	0.018436	0.23162	0.10007	0.11967	0.1098	0.084448	0.26955	-2.5646	-3.1458	-3.1396	-2.8667	-3.1625	-3.1583	-3.1125	-3.3104	-3.0271	-3.0771	-3.2271	-3.0458	-3.2188	-3.1458	-2.8625	-3.2958	146.924	230.537	292.174	266.110	337.660	52.210	307.750	317.576	224.817	182.447	285.617	219.766	75.211	310.460	166.362	323.088	0.00051507	0.001585	0.00011275	1532.5	6.9463e-06	1.2912e-06	1535.6	413.27	2.3225e-06	8.6231e-06	471.74	154.99	136.82	46.267	8.2053e-06	56.987	0.0013385	0.0012993	0.00033669	1592.7	1.5289e-05	1.4125e-05	1574.3	428.2	1.5272e-05	1.4014e-05	498.69	161.74	142.58	48.51	1.3091e-05	60.066	67.495	59.526	218.592	4.493	133.982	118.082	4.803	9.256	57.506	155.995	9.242	13.445	13.682	18.363	95.079	17.551	-8191	255	
1240.709	1	1	0	0	0.24891	0.057631	0.2784	0.23041	0.10425	0.080599	0.279	0.17024	0.16829	0.060817	0.19214	0.16365	0.3139	0.21761	0.16765	0.065527	-2.4417	-2.9437	-3.1688	-2.9542	-3.2979	-3.1063	-3.2479	-3.5187	-2.8854	-3.1937	-3.1354	-2.9333	-3.3208	-3.3042	-2.8292	-3.4646	301.976	326.735	120.181	344.403	37.267	153.816	263.623	240.026	197.524	235.896	233.986	11.998	306.763	318.134	201.290	13.767	0.00060402	0.00092814	0.00014045	1526.5	3.3156e-06	7.8019e-06	1537.8	416.07	1.9268e-06	3.4144e-06	470.94	155.5	135.9	46.365	1.0502e-05	57.057	0.0013358	0.0012621	0.0003296	1592	1.5055e-05	1.3668e-05	1573.3	429.83	1.4977e-05	1.3708e-05	496.97	162.58	142.25	48.474	1.3122e-05	60.249	72.558	96.159	49.891	4.749	49.126	146.924	4.692	9.383	55.697	92.582	8.854	13.365	13.883	18.288	123.236	17.544	-8191	255	
1240.805	1	1	0	0	0.075232	0.10156	0.089294	0.1179	0.012215	0.17679	0.33609	0.24666	0.19623	0.29099	0.051009	0.31936	0.23066	0.11662	0.066975	0.19783	-2.6813	-3.0375	-3.2167	-2.9833	-3.1396	-3.1354	-3.1292	-3.2396	-3.0708	-2.9271	-3.1708	-3.075	-3.2958	-3.2438	-2.9313	-3.225	224.563	-8.502	301.612	224.041	112.591	198.822	258.254	306.881	298.716	6.573	163.049	-1.058	76.647	81.943	305.600	-8.010	0.00034859	0.00077531	0.00047972	1531.3	4.5772e-06	1.4106e-05	1537.4	416.23	5.1911e-06	4.1916e-06	468.92	155.36	135.39	46.596	7.3376e-06	56.854	0.0012707	0.0012283	0.00033195	1597.7	1.4434e-05	1.3134e-05	1574.6	430.12	1.4134e-05	1.3332e-05	498.04	162.68	141.69	48.446	1.3611e-05	60.159	64.234	98.451	99.809	4.916	154.004	102.161	4.747	9.427	152.497	58.663	8.834	13.383	13.699	18.437	133.091	17.436	-8191	255	
1240.901	1	1	0	0	0.10371	0.23015	0.083331	0.055022	0.16168	0.14984	0.19029	0.23688	0.084927	0.098978	0.30363	0.16367	0.1914	0.41111	0.21413	0.062704	-2.6917	-2.9062	-3.2	-2.9688	-3.0542	-3.0854	-3.1021	-3.3417	-3.25	-2.8771	-3.4396	-3.2729	-3.0958	-3.3187	-2.7708	-3.275	290.578	36.275	27.095	85.270	254.329	268.863	331.323	29.342	151.400	32.622	214.812	324.297	71.058	328.754	227.121	255.332	0.00060116	0.00052032	0.00010801	1525.5	1.3553e-05	8.0132e-06	1539.8	414.61	2.0512e-06	4.6063e-06	470	155.51	135.68	46.313	1.4963e-05	57.137	0.0012307	0.0012146	0.00035149	1598.2	1.3958e-05	1.2922e-05	1576.6	429.67	1.3583e-05	1.3191e-05	500.92	162.4	141.65	48.424	1.4324e-05	60.26	52.496	92.447	183.082	4.870	177.880	102.252	4.736	9.475	87.900	88.666	8.926	13.406	13.733	18.541	170.996	17.435	-8191	255	
#DATA ENDS
