BOXY.EXE: ISS Imagent and Oximeter Data Acquisition Program Version 0.80
Ascii Record File

#ACQ INFORMATION
2  Detector Channels 
16  External MUX Channels 
1  Auxiliary Channels 
5000  Waveform (CCF) Frequency (Hz)
1  Waveforms Skipped 
30  Waveforms Averaged 
1  Cycles Averaged 
16  Acquisitions per Waveform 
10.0806  Updata Rate (Hz) 

#FILE INFORMATION
TRUE -- External MUX Channel results are PARSED.
FALSE -- AC DC and Phase are NOT grouped.
TRUE -- Companion Program Settings File CREATED.
FALSE -- AC data not excluded
FALSE -- DC data not excluded
FALSE -- Phase data not excluded
FALSE -- Auxillary Chn. data not excluded
Tab delimiters

#CALIBRATION STATE
TRUE -- Waveform Calibration Values APPLIED.


#AUX CALIBRATION VALUES
Val Type	aux-1	

Term	1.0000e+00	
Factor	0.0000e+00	


#WF CALIBRATION VALUES
A = Detector Channel
Val Type	A-AC1	A-AC2	A-AC3	A-AC4	A-AC5	A-AC6	A-AC7	A-AC8	A-AC9	A-AC10	A-AC11	A-AC12	A-AC13	A-AC14	A-AC15	A-AC16	A-DC1	A-DC2	A-DC3	A-DC4	A-DC5	A-DC6	A-DC7	A-DC8	A-DC9	A-DC10	A-DC11	A-DC12	A-DC13	A-DC14	A-DC15	A-DC16	A-Ph1	A-Ph2	A-Ph3	A-Ph4	A-Ph5	A-Ph6	A-Ph7	A-Ph8	A-Ph9	A-Ph10	A-Ph11	A-Ph12	A-Ph13	A-Ph14	A-Ph15	A-Ph16	

Term	0.00000e+00	0.00000e+00	0.00000e+00	0.00000e+00	0.00000e+00	0.00000e+00	0.00000e+00	0.00000e+00	0.00000e+00	0.00000e+00	0.00000e+00	0.00000e+00	0.00000e+00	0.00000e+00	0.00000e+00	0.00000e+00	0.00000e+00	0.00000e+00	0.00000e+00	0.00000e+00	0.00000e+00	0.00000e+00	0.00000e+00	0.00000e+00	0.00000e+00	0.00000e+00	0.00000e+00	0.00000e+00	0.00000e+00	0.00000e+00	0.00000e+00	0.00000e+00	0.00000e+00	0.00000e+00	0.00000e+00	0.00000e+00	0.00000e+00	0.00000e+00	0.00000e+00	0.00000e+00	0.00000e+00	0.00000e+00	0.00000e+00	0.00000e+00	0.00000e+00	0.00000e+00	0.00000e+00	0.00000e+00	
Factor	1.00000e+00	1.00000e+00	1.00000e+00	1.00000e+00	1.00000e+00	1.00000e+00	1.00000e+00	1.00000e+00	1.00000e+00	1.00000e+00	1.00000e+00	1.00000e+00	1.00000e+00	1.00000e+00	1.00000e+00	1.00000e+00	1.00000e+00	1.00000e+00	1.00000e+00	1.00000e+00	1.00000e+00	1.00000e+00	1.00000e+00	1.00000e+00	1.00000e+00	1.00000e+00	1.00000e+00	1.00000e+00	1.00000e+00	1.00000e+00	1.00000e+00	1.00000e+00	X	X	X	X	X	X	X	X	X	X	X	X	X	X	X	X	

B = Detector Channel
Val Type	B-AC1	B-AC2	B-AC3	B-AC4	B-AC5	B-AC6	B-AC7	B-AC8	B-AC9	B-AC10	B-AC11	B-AC12	B-AC13	B-AC14	B-AC15	B-AC16	B-DC1	B-DC2	B-DC3	B-DC4	B-DC5	B-DC6	B-DC7	B-DC8	B-DC9	B-DC10	B-DC11	B-DC12	B-DC13	B-DC14	B-DC15	B-DC16	B-Ph1	B-Ph2	B-Ph3	B-Ph4	B-Ph5	B-Ph6	B-Ph7	B-Ph8	B-Ph9	B-Ph10	B-Ph11	B-Ph12	B-Ph13	B-Ph14	B-Ph15	B-Ph16	

Term	0.00000e+00	0.00000e+00	0.00000e+00	0.00000e+00	0.00000e+00	0.00000e+00	0.00000e+00	0.00000e+00	0.00000e+00	0.00000e+00	0.00000e+00	0.00000e+00	0.00000e+00	0.00000e+00	0.00000e+00	0.00000e+00	0.00000e+00	0.00000e+00	0.00000e+00	0.00000e+00	0.00000e+00	0.00000e+00	0.00000e+00	0.00000e+00	0.00000e+00	0.00000e+00	0.00000e+00	0.00000e+00	0.00000e+00	0.00000e+00	0.00000e+00	0.00000e+00	3.87151e+01	-1.35358e+02	-1.28243e+02	-1.82075e+02	-6.48011e+01	-7.49837e+01	-1.59417e+02	-1.62015e+02	-5.24993e+01	-7.30037e+01	-1.73374e+02	-1.72547e+02	-1.88450e+02	-1.78024e+02	-6.44271e+01	-1.50473e+02	
Factor	6.20168e-05	1.83616e-04	6.50966e-05	1.67319e-01	3.99798e-06	2.33925e-06	2.07214e-01	7.30801e-02	3.69325e-06	2.57816e-06	1.33795e-01	3.71403e-02	4.41454e-02	1.10510e-02	2.54457e-06	1.56295e-02	9.55063e-06	1.16113e-05	3.25442e-06	8.39797e-02	1.21577e-07	1.29098e-07	9.67151e-02	3.67330e-02	1.22588e-07	1.28699e-07	6.51813e-02	1.80533e-02	2.20184e-02	5.60602e-03	1.24295e-07	7.68503e-03	X	X	X	X	X	X	X	X	X	X	X	X	X	X	X	X	



#DISTANCE SETTINGS
A = Detector Channel
A-1	A-2	A-3	A-4	A-5	A-6	A-7	A-8	A-9	A-10	A-11	A-12	A-13	A-14	A-15	A-16	

2.5000e+00	3.0000e+00	2.5000e+00	3.0000e+00	2.0000e+00	3.0000e+00	1.5000e+00	3.0000e+00	3.0000e+00	3.0000e+00	3.0000e+00	3.0000e+00	3.0000e+00	3.0000e+00	1.5000e+00	3.0000e+00	

B = Detector Channel
B-1	B-2	B-3	B-4	B-5	B-6	B-7	B-8	B-9	B-10	B-11	B-12	B-13	B-14	B-15	B-16	

1.0000e+01	1.0000e+01	1.0000e+01	1.4400e+00	1.0000e+01	1.0000e+01	1.5100e+00	1.9400e+00	1.0000e+01	1.0000e+01	1.9900e+00	2.4900e+00	2.4100e+00	2.9000e+00	1.0000e+01	2.9800e+00	




#DATA BEGINS
time	group	step	mark	flag	A-AC1	A-AC2	A-AC3	A-AC4	A-AC5	A-AC6	A-AC7	A-AC8	A-AC9	A-AC10	A-AC11	A-AC12	A-AC13	A-AC14	A-AC15	A-AC16	A-DC1	A-DC2	A-DC3	A-DC4	A-DC5	A-DC6	A-DC7	A-DC8	A-DC9	A-DC10	A-DC11	A-DC12	A-DC13	A-DC14	A-DC15	A-DC16	A-Ph1	A-Ph2	A-Ph3	A-Ph4	A-Ph5	A-Ph6	A-Ph7	A-Ph8	A-Ph9	A-Ph10	A-Ph11	A-Ph12	A-Ph13	A-Ph14	A-Ph15	A-Ph16	B-AC1	B-AC2	B-AC3	B-AC4	B-AC5	B-AC6	B-AC7	B-AC8	B-AC9	B-AC10	B-AC11	B-AC12	B-AC13	B-AC14	B-AC15	B-AC16	B-DC1	B-DC2	B-DC3	B-DC4	B-DC5	B-DC6	B-DC7	B-DC8	B-DC9	B-DC10	B-DC11	B-DC12	B-DC13	B-DC14	B-DC15	B-DC16	B-Ph1	B-Ph2	B-Ph3	B-Ph4	B-Ph5	B-Ph6	B-Ph7	B-Ph8	B-Ph9	B-Ph10	B-Ph11	B-Ph12	B-Ph13	B-Ph14	B-Ph15	B-Ph16	aux-1	digaux	

28474.369	1	1	0	256	0.024719	0.11962	0.13797	0.18672	0.097722	0.145	0.27481	0.2416	0.10844	0.29784	0.2218	0.27855	0.23463	0.067792	0.12963	0.13473	-1.8	-2.5271	-2.0583	-2.6396	-2.2979	-2.1354	-2.7313	-2.3583	-2.3625	-2.7896	-2.275	-2.6458	-2.5125	-2.1083	-2.5896	-2.3417	40.365	-18.082	170.083	189.256	-128.424	-60.871	150.534	150.938	200.565	171.174	74.903	133.009	41.659	-129.893	124.085	119.458	0.0010734	0.00040542	0.00016118	1351.3	7.0309e-06	4.0224e-06	1345.4	366.88	9.3606e-06	4.3791e-06	418.64	141.61	122.69	41.673	5.1763e-06	51.647	0.00061824	0.00058729	0.00016558	1371.2	6.3807e-06	6.5006e-06	1369.1	374.59	6.5723e-06	6.3947e-06	427.67	144.04	125.21	43.011	6.5182e-06	53.255	10.634	-35.234	-44.226	-137.236	-41.998	-12.873	-137.340	-132.744	-17.712	-12.357	-133.126	-128.863	-128.402	-123.845	2.300	-124.252	-8191	255	
28474.441	1	1	0	0	0.2146	0.41703	0.01627	0.24173	0.10264	0.11141	0.10228	0.038016	0.313	0.1428	0.14023	0.10997	0.1216	0.15053	0.27843	0.20382	-1.7563	-2.4333	-2.0979	-2.4583	-2.4396	-2.15	-2.5646	-2.4646	-2.1896	-2.7104	-2.5042	-2.3896	-2.4979	-2.2583	-2.5104	-2.4583	144.969	-124.106	-48.820	125.220	115.662	142.707	154.252	-94.843	47.805	156.282	123.544	167.496	47.497	-103.009	199.367	194.837	0.0011387	0.00035163	0.00013189	1350.3	5.6943e-06	3.2083e-06	1349.3	367.04	1.0645e-05	4.7526e-06	420.03	140.96	122.67	41.947	6.5442e-06	51.697	0.00062397	0.00060011	0.0001685	1372.2	6.4899e-06	6.5181e-06	1370.4	374.77	6.561e-06	6.5427e-06	428.57	143.95	125.1	43.089	6.2896e-06	53.179	6.879	-73.254	-39.327	-137.220	-40.282	-27.822	-137.285	-132.864	-47.826	5.080	-133.142	-128.904	-128.615	-123.524	-22.575	-124.435	-8191	255	
28474.537	1	1	0	0	0.066047	0.037279	0.13207	0.23945	0.12762	0.26204	0.1955	0.096148	0.18295	0.086223	0.10224	0.18472	0.42261	0.21577	0.070647	0.1042	-1.6938	-2.4146	-2.3896	-2.5146	-2.5042	-2.2167	-2.6917	-2.6625	-2.0438	-2.5583	-2.4979	-2.6479	-2.5271	-2.1562	-2.5167	-2.3187	-32.353	117.914	-132.152	192.882	-88.283	-68.235	183.623	143.705	112.555	-137.500	-147.118	169.380	-146.997	165.379	-97.030	15.080	0.0011316	0.00044638	0.00012203	1349.1	5.7358e-06	6.802e-06	1346.2	366.96	9.1452e-06	6.2141e-06	419.23	140.75	122.84	41.924	4.9292e-06	51.691	0.00063303	0.00058828	0.00016144	1371.8	6.3932e-06	6.3212e-06	1368.4	374.18	6.3307e-06	6.2792e-06	427.4	143.65	125.21	43.05	6.0032e-06	53.302	7.143	-65.376	-23.709	-137.096	21.437	-11.193	-137.639	-132.819	-1.505	10.861	-133.152	-129.050	-128.403	-123.573	-21.940	-124.716	-8191	255	
28474.656	1	1	0	0	0.15685	0.24759	0.058581	0.27559	0.33177	0.053464	0.2426	0.27445	0.2079	0.088398	0.19185	0.27673	0.30412	0.1327	0.061352	0.023352	-1.7667	-2.6604	-2.4083	-2.4146	-2.5062	-2.3146	-2.6229	-2.7188	-2.3854	-2.6854	-2.3583	-2.5563	-2.6521	-2.275	-2.325	-2.5479	-86.732	-76.180	-11.519	171.277	-144.663	-67.790	167.677	147.281	183.240	-59.524	140.695	1.499	185.851	198.015	-50.840	-135.977	0.00114	0.00048508	0.00016288	1353.6	5.7339e-06	5.4713e-06	1347	366.42	1.0675e-05	5.6062e-06	417.75	140.47	122.12	41.72	5.2484e-06	51.601	0.00060446	0.00055221	0.00015562	1371.8	6.1482e-06	5.9829e-06	1367.3	373.76	6.1269e-06	5.9223e-06	426.76	143.48	124.85	42.992	5.9848e-06	53.276	10.969	-92.855	-40.133	-137.335	-20.210	-22.081	-137.304	-132.717	-14.558	-29.689	-133.015	-128.999	-128.304	-123.661	-27.916	-124.491	-8191	255	
28474.752	1	1	0	0	0.18607	0.18413	0.17032	0.17925	0.20381	0.10738	0.29035	0.1233	0.28419	0.058658	0.11751	0.22373	0.15339	0.24424	0.13299	0.076649	-1.7458	-2.5542	-2.4104	-2.5208	-2.725	-2.2938	-2.5521	-2.7792	-2.3854	-2.6521	-2.4437	-2.275	-2.7562	-2.3	-2.3833	-2.6417	8.378	-122.869	-98.479	146.487	-96.246	167.942	130.405	-83.684	168.623	-109.842	199.627	39.333	-10.968	-121.502	24.302	128.462	0.0011729	0.00033183	0.00012806	1348.8	3.6996e-06	5.6841e-06	1338.2	365.75	8.8481e-06	2.8654e-06	418.5	140.86	121.9	41.925	5.7618e-06	51.385	0.00058215	0.00053349	0.00014905	1368.2	5.8833e-06	5.8092e-06	1362.5	373.1	5.848e-06	5.7416e-06	426.3	143.61	124.87	43.051	5.7489e-06	53.192	12.068	-97.421	-57.226	-137.160	26.891	-10.386	-137.253	-132.839	-21.544	4.993	-132.998	-128.822	-128.418	-123.727	-25.729	-124.427	-8191	255	
28474.848	1	1	0	0	0.30355	0.076404	0.18889	0.26402	0.13129	0.16189	0.23212	0.071859	0.216	0.12995	0.1664	0.12306	0.3876	0.27718	0.36969	0.093031	-1.7917	-2.4792	-2.3021	-2.5312	-2.6646	-2.3937	-2.5979	-2.7438	-2.2583	-2.6167	-2.65	-2.1875	-2.6417	-2.4437	-2.2438	-2.5625	5.062	30.961	140.780	182.081	-42.406	-146.856	63.349	164.235	180.796	-118.940	152.811	-142.862	-147.126	115.620	-91.191	66.566	0.0010712	0.00032093	0.00015312	1341.8	1.1214e-05	8.7877e-06	1338.8	366.83	7.6457e-06	6.9295e-06	416.99	140.32	122.74	41.937	5.9438e-06	51.416	0.00057342	0.00052019	0.00014843	1365.8	5.8957e-06	5.8266e-06	1363.9	373.86	5.8408e-06	5.9652e-06	426.66	143.52	124.94	43.036	5.9882e-06	53.196	9.534	-70.560	-21.956	-137.197	-28.879	-5.903	-137.337	-132.607	23.868	-19.084	-132.877	-128.851	-128.529	-123.692	11.494	-124.370	-8191	255	
28474.943	1	1	0	0	0.19932	0.08509	0.13914	0.28474	0.1086	0.10559	0.29323	0.073254	0.13221	0.14462	0.30192	0.41378	0.043791	0.27968	0.20717	0.32531	-1.9083	-2.2917	-2.5625	-2.4771	-2.5938	-2.3417	-2.4083	-2.6833	-2.175	-2.5271	-2.7542	-2.2854	-2.6479	-2.4833	-2.3563	-2.5333	146.918	-144.001	179.745	178.651	-84.120	-16.555	131.584	114.826	6.403	165.328	137.374	158.029	-53.472	92.113	-85.128	169.519	0.0011309	0.0003872	0.00012736	1347.3	1.1708e-05	4.3606e-06	1341.8	365.99	7.7301e-06	8.2891e-06	417.07	140.58	122.32	41.898	4.8602e-06	51.459	0.00058553	0.00055202	0.0001589	1368.8	6.0368e-06	6.2626e-06	1368.4	373.94	6.3153e-06	6.3374e-06	426.85	143.81	124.9	43.065	6.5299e-06	53.183	10.519	-73.386	-51.915	-137.255	-26.321	-9.887	-137.381	-132.664	-25.519	-16.840	-132.873	-128.677	-128.358	-123.575	27.361	-124.473	-8191	255	
28475.041	1	1	0	0	0.1374	0.14158	0.14747	0.16949	0.12158	0.22671	0.29409	0.30532	0.1465	0.14937	0.11978	0.29422	0.18869	0.17116	0.19395	0.10726	-1.95	-2.4437	-2.4	-2.3042	-2.6521	-2.5312	-2.3375	-2.5312	-2.25	-2.4208	-2.7396	-2.2708	-2.6104	-2.5833	-2.2708	-2.8458	-109.706	194.170	-49.342	181.070	9.413	-114.701	133.619	191.060	141.350	159.852	-138.017	91.590	-141.028	128.638	-82.906	201.160	0.0011671	0.00049573	0.00014905	1351.7	8.1403e-06	5.3802e-06	1353.8	367	4.8443e-06	6.209e-06	418.67	140.23	122.61	41.574	1.1138e-05	51.614	0.00063217	0.0006056	0.0001713	1374.5	6.5864e-06	6.6755e-06	1374.7	374.51	6.6984e-06	6.8817e-06	428.54	143.81	125.27	43.016	6.7254e-06	53.333	11.230	-52.515	-87.598	-137.260	-39.288	-7.242	-137.491	-132.791	6.081	-5.661	-133.190	-128.967	-128.245	-123.611	-35.978	-124.232	-8191	255	
28475.137	1	1	0	0	0.062793	0.05187	0.15773	0.30673	0.19532	0.21972	0.20297	0.15582	0.093142	0.15931	0.13732	0.087676	0.12107	0.21024	0.083234	0.12298	-1.8417	-2.2458	-2.5604	-2.3521	-2.55	-2.5792	-2.4646	-2.8458	-2.4188	-2.55	-2.7208	-2.2812	-2.4896	-2.7167	-2.2792	-2.7	101.020	-138.002	97.601	189.882	127.928	-145.890	-95.356	190.727	137.229	-59.256	-145.603	-132.769	-33.566	-69.731	130.727	-49.514	0.00113	0.00040378	0.00022388	1357.4	3.84e-06	4.9248e-06	1350.8	368.8	1.2342e-05	7.7957e-06	418.47	141.04	122.74	41.838	8.9525e-06	51.832	0.00065219	0.00062923	0.00017212	1378.3	6.8883e-06	6.8374e-06	1377	375.29	6.891e-06	6.9739e-06	428.11	144.21	125.11	43.093	7.0872e-06	53.375	7.565	-84.553	-62.432	-137.333	-21.586	-41.914	-137.307	-132.882	1.654	-26.688	-133.165	-129.163	-128.395	-123.635	-10.901	-124.566	-8191	255	
28475.232	1	1	0	0	0.15076	0.49474	0.15735	0.27114	0.16302	0.1739	0.2448	0.32864	0.26227	0.082348	0.23608	0.40337	0.20268	0.14025	0.1609	0.12354	-2.0687	-2.4271	-2.5062	-2.2646	-2.4813	-2.4437	-2.4	-2.7604	-2.3688	-2.2354	-2.7188	-2.3958	-2.3792	-2.6708	-2.2292	-2.6021	-106.340	56.617	-36.810	134.915	-88.957	203.603	201.448	153.415	-143.256	106.207	51.225	162.599	89.403	106.274	-124.901	-97.691	0.0012347	0.00032277	0.00016393	1358.8	1.0746e-05	8.9864e-06	1360.3	367.59	1.0683e-05	6.4684e-06	421.38	140.68	122.44	41.968	9.5078e-06	51.896	0.00067953	0.00067053	0.0001858	1381.9	7.5643e-06	7.7125e-06	1383.5	375.65	7.9943e-06	8.0992e-06	431.28	144.47	125.81	43.234	8.2478e-06	53.566	6.747	-81.840	-79.597	-137.126	-28.336	-20.386	-137.470	-132.708	-14.593	-18.398	-133.323	-129.106	-128.552	-123.575	-6.401	-124.697	-8191	255	
28475.354	1	1	0	0	0.11828	0.11936	0.092672	0.16959	0.15361	0.15158	0.18998	0.20516	0.064923	0.028053	0.14584	0.11286	0.1034	0.16805	0.09015	0.042464	-1.9292	-2.1292	-2.7354	-2.3521	-2.2208	-2.6479	-2.35	-2.6542	-2.3438	-2.1979	-2.6042	-2.3708	-2.4125	-2.5958	-2.1625	-2.4167	-34.348	194.159	-137.478	-120.958	48.500	151.154	137.095	162.205	-91.089	81.231	-42.173	20.704	-37.692	-69.609	168.637	-133.149	0.0011447	0.00068036	0.00010812	1371.2	5.9946e-06	1.0093e-05	1369.1	371.3	1.1744e-05	3.8565e-06	422.95	141.01	122.57	41.972	4.999e-06	51.816	0.00076009	0.00076484	0.00021058	1394.1	8.3771e-06	8.4398e-06	1393.8	378.95	8.3595e-06	8.5936e-06	432.8	144.85	126.14	43.306	8.2353e-06	53.633	13.545	-82.973	-46.368	-137.152	-25.428	14.169	-137.720	-132.819	-1.138	37.895	-132.982	-129.071	-128.468	-123.656	-17.418	-124.649	-8191	255	
28475.449	1	1	0	0	0.14848	0.22809	0.090678	0.17155	0.13771	0.21486	0.28118	0.31841	0.088505	0.21288	0.12556	0.15402	0.18223	0.26966	0.087451	0.17951	-2.0396	-2.2375	-2.4938	-2.3833	-2.2938	-2.5187	-2.2938	-2.4708	-2.4896	-2.4146	-2.6354	-2.5604	-2.2958	-2.6792	-2.2479	-2.5333	106.293	118.569	190.538	179.875	-94.483	-57.625	136.118	2.772	159.809	-137.929	202.760	-136.901	68.926	-134.478	41.309	116.078	0.0011348	0.00051575	0.00025385	1372	7.2989e-06	3.2627e-06	1373.6	369.75	6.4506e-06	6.0928e-06	422.35	141.42	122.78	42.022	5.4019e-06	52.052	0.00074696	0.00075152	0.00021	1395.9	8.1745e-06	8.2384e-06	1396.2	378.3	8.0525e-06	8.0445e-06	432.25	144.82	126.03	43.332	7.8169e-06	53.675	9.945	-72.088	-59.184	-137.158	-15.870	32.027	-137.600	-132.731	-10.490	-1.415	-133.127	-129.037	-128.596	-123.878	-10.375	-124.539	-8191	255	
28475.545	1	1	0	0	0.092319	0.11826	0.27134	0.58432	0.14588	0.041312	0.19239	0.28543	0.16558	0.15743	0.15928	0.20373	0.19991	0.17841	0.27696	0.20865	-2.2167	-1.9479	-2.5312	-2.5271	-2.3	-2.6354	-2.4417	-2.5417	-2.625	-2.2792	-2.5104	-2.5771	-2.2979	-2.6646	-2.3583	-2.4313	-82.789	51.043	-72.931	187.539	112.033	25.407	150.201	181.143	189.620	-93.396	-148.002	-131.314	-73.601	-53.174	1.245	103.133	0.0011406	0.00032819	0.00016846	1372.1	5.6292e-06	4.1764e-06	1370.1	370.17	7.6108e-06	7.4161e-06	423.28	141.52	122.85	42.284	3.8033e-06	51.822	0.00073212	0.00072145	0.00019916	1395.7	7.9169e-06	7.7018e-06	1394.3	377.71	7.7049e-06	7.723e-06	432.44	144.71	125.8	43.401	7.3495e-06	53.688	11.113	-62.355	-42.943	-137.103	-19.919	-23.836	-137.454	-132.728	-45.339	30.687	-133.177	-128.970	-128.411	-123.858	-32.597	-124.738	-8191	255	
28475.643	1	1	0	0	0.070075	0.14436	0.13009	0.36899	0.20636	0.24545	0.1924	0.29703	0.1897	0.037946	0.04982	0.18544	0.12956	0.11275	0.1195	0.168	-2.1021	-2.1375	-2.3917	-2.5417	-2.3458	-2.5583	-2.4396	-2.5771	-2.4813	-2.3458	-2.6042	-2.4854	-2.2854	-2.6625	-2.4354	-2.4313	-116.427	95.192	191.433	-134.343	124.932	87.648	132.556	178.785	-101.809	-54.756	45.573	202.024	-94.562	83.737	82.330	114.082	0.0010876	0.00048128	0.00021304	1371.9	1.1124e-05	2.392e-06	1364.5	370.45	1.0326e-05	6.211e-06	422.76	141.1	122.75	41.796	4.7736e-06	51.921	0.00068414	0.0006833	0.00019002	1392.6	7.5585e-06	7.3336e-06	1389.6	377.98	7.3721e-06	7.4131e-06	431.62	144.67	125.77	43.243	7.3143e-06	53.58	11.741	-54.570	-46.487	-137.345	-24.312	65.016	-137.675	-132.883	-5.639	11.990	-133.282	-129.450	-128.512	-123.813	-38.056	-124.461	-8191	255	
28475.736	1	1	0	0	0.082744	0.34241	0.034737	0.046581	0.16443	0.2057	0.2762	0.18474	0.19438	0.039363	0.13931	0.20775	0.31744	0.33577	0.17372	0.16176	-2.1958	-2.0792	-2.4	-2.8563	-1.9646	-2.5438	-2.575	-2.4104	-2.7125	-2.2583	-2.3542	-2.6229	-2.1479	-2.6688	-2.5667	-2.2917	-142.054	92.574	189.411	183.933	16.089	-135.413	142.286	-118.887	159.210	-94.906	157.472	157.304	203.979	135.842	-18.379	167.822	0.0011502	0.0005066	0.00013162	1368.8	7.5972e-06	3.7397e-06	1366.8	370.16	1.0098e-05	3.5242e-06	424.1	141.25	123.07	41.982	7.9506e-06	51.732	0.00068319	0.00066941	0.00019232	1393	7.4197e-06	7.4691e-06	1389.9	377.85	7.4339e-06	7.4525e-06	431.96	144.5	125.94	43.244	7.3044e-06	53.482	11.497	-71.804	-22.541	-137.276	3.135	-31.832	-137.613	-132.773	10.332	-6.141	-133.326	-129.096	-128.770	-123.644	-30.360	-124.525	-8191	255	
28475.832	1	1	0	0	0.094095	0.24531	0.21889	0.47824	0.27791	0.065147	0.14555	0.15596	0.21903	0.020796	0.16969	0.25027	0.13632	0.19259	0.27202	0.30945	-2.2958	-2.275	-2.3604	-2.7208	-2.1437	-2.3937	-2.65	-2.3479	-2.75	-2.3729	-2.5042	-2.7229	-2.3167	-2.7104	-2.6375	-2.1396	-144.503	-130.356	125.296	173.174	160.383	53.495	92.231	34.638	35.144	114.029	41.909	148.775	-42.637	-147.846	-81.487	118.462	0.0010319	0.00068733	9.6934e-05	1369.1	6.9053e-06	6.9725e-06	1365.1	368.66	9.0965e-06	9.4006e-06	422.91	140.77	123.22	41.903	9.5058e-06	51.993	0.00068506	0.00067171	0.0001888	1390.8	7.3425e-06	7.3594e-06	1388.8	377.29	7.1017e-06	7.2063e-06	431.52	144.14	125.84	43.27	7.0672e-06	53.587	9.544	-66.529	-37.143	-137.085	-18.951	-19.758	-137.283	-132.987	-24.428	11.917	-133.288	-129.085	-128.487	-123.597	8.025	-124.617	-8191	255	
28475.953	1	1	0	0	0.14164	0.12524	0.019425	0.19243	0.1205	0.39844	0.08983	0.37279	0.15665	0.30048	0.33426	0.048339	0.25286	0.078034	0.11466	0.16671	-2.0375	-2.3458	-2.3708	-2.8917	-2.2	-2.5583	-2.6042	-2.2854	-2.6271	-2.4604	-2.3271	-2.7375	-2.4104	-2.6396	-2.5312	-2.3104	44.874	80.552	133.489	83.196	-3.947	174.459	80.421	-140.312	52.652	-118.519	75.393	84.562	-143.245	186.484	125.599	-30.548	0.0011069	0.00018162	0.00025042	1365.3	1.3331e-05	5.1899e-06	1363.9	369.53	9.3596e-06	6.0391e-06	420.84	140.51	122.64	41.88	5.7246e-06	51.579	0.00066962	0.0006519	0.00018507	1388.3	7.059e-06	7.2489e-06	1386.7	376.7	7.0292e-06	6.9701e-06	430.12	144.23	125.65	43.166	6.9841e-06	53.484	9.676	-82.088	-71.933	-137.312	-24.854	-20.355	-137.515	-132.678	-53.742	-20.440	-133.092	-129.179	-128.417	-123.645	3.919	-124.388	-8191	255	
28476.049	1	1	0	0	0.21425	0.20767	0.39474	0.16888	0.16842	0.13055	0.16413	0.31102	0.22374	0.1397	0.2639	0.12869	0.25184	0.26979	0.32793	0.21854	-1.9479	-2.3187	-2.3542	-2.8104	-2.3104	-2.3667	-2.7167	-2.4271	-2.6208	-2.3354	-2.2292	-2.7333	-2.2833	-2.3563	-2.45	-2.2313	14.202	134.851	126.230	163.461	40.559	-99.001	133.989	69.756	207.774	-10.057	126.846	85.956	-141.876	-135.597	82.362	169.087	0.0011316	0.00052548	0.00016781	1362	8.7049e-06	5.0418e-06	1356.2	368.82	9.7122e-06	3.7267e-06	420.29	140.82	122.81	42.044	6.3495e-06	51.865	0.00065263	0.00063008	0.00017903	1384.6	6.7979e-06	6.7419e-06	1383	376.53	6.6588e-06	6.6339e-06	429.55	144.15	125.42	43.183	6.6019e-06	53.471	7.145	-42.319	-30.394	-137.282	-3.289	-4.149	-137.539	-132.459	-9.001	8.207	-133.160	-129.004	-128.256	-123.867	5.587	-124.234	-8191	255	
28476.145	1	1	0	0	0.3483	0.14142	0.18629	0.13607	0.36487	0.079325	0.28718	0.14183	0.098106	0.087597	0.22061	0.09625	0.23864	0.18034	0.014597	0.10513	-1.9042	-2.2583	-2.1833	-2.7083	-2.4208	-2.3604	-2.7521	-2.1354	-2.4771	-2.4208	-2.3937	-2.675	-2.4188	-2.3396	-2.5229	-2.3438	-38.734	49.045	-108.283	40.834	72.946	2.287	119.440	184.746	-108.164	-74.197	-121.123	-89.792	154.041	95.914	-108.690	100.176	0.0010126	0.00047369	9.9917e-05	1363.5	4.9892e-06	5.2968e-06	1355.8	368.18	1.1702e-05	7.6037e-06	420.58	141.04	122.44	41.869	2.6485e-06	51.772	0.00063052	0.00061324	0.00017168	1386.3	6.7272e-06	6.8909e-06	1382.7	376.02	6.7127e-06	6.9768e-06	429.61	144.17	125.43	43.219	6.8085e-06	53.42	8.009	-61.986	-59.761	-137.218	-14.442	-15.187	-137.384	-132.651	-13.919	-10.461	-132.965	-128.865	-128.437	-123.505	-29.836	-124.677	-8191	255	
28476.242	1	1	0	0	0.16464	0.13115	0.24201	0.11215	0.1959	0.25673	0.2485	0.29297	0.077637	0.21414	0.3164	0.28902	0.065072	0.21481	0.069908	0.15581	-2.1813	-2.5187	-2.2896	-2.6958	-2.4271	-2.3979	-3.0729	-2.4437	-2.5563	-2.4167	-2.2479	-2.5167	-2.4083	-2.3125	-2.6667	-2.3563	160.261	-111.586	-6.844	110.727	-10.006	-18.134	105.447	160.328	5.204	172.789	157.862	-139.211	38.608	183.886	-37.054	-119.504	0.0010876	0.00047993	0.00010099	1365.4	9.1377e-06	6.2852e-06	1359.1	368.13	7.6544e-06	5.273e-06	420.6	141.18	123.04	42.014	6.4799e-06	51.656	0.00065326	0.00062679	0.00017458	1386.4	6.8498e-06	7.119e-06	1384.2	376.26	6.9788e-06	6.8701e-06	429.42	144.36	125.53	43.215	6.7487e-06	53.393	6.246	-45.257	-56.988	-137.327	-33.762	-14.208	-137.385	-132.991	-10.405	-12.579	-133.328	-128.981	-128.600	-123.874	-15.876	-124.551	-8191	255	
28476.312	1	1	0	0	0.36757	0.15438	0.1483	0.2043	0.12302	0.228	0.12553	0.074364	0.05353	0.12438	0.12781	0.12889	0.33092	0.285	0.15137	0.37174	-2.0875	-2.4313	-2.2458	-2.4792	-2.2729	-2.2292	-2.8667	-2.4417	-2.3104	-2.5917	-2.2375	-2.6063	-2.6312	-2.35	-2.5812	-2.2917	-9.533	98.716	45.884	-127.794	205.129	194.825	-150.020	190.557	44.995	172.697	198.856	153.140	113.995	176.731	2.078	-124.068	0.0010958	0.00031426	0.00014467	1363.5	8.3107e-06	6.1725e-06	1355	368.35	7.2148e-06	3.531e-06	420.02	140.74	122.63	42.064	4.1343e-06	51.723	0.00065458	0.00062036	0.00017448	1384.5	6.8225e-06	6.8508e-06	1383.4	376.24	6.6849e-06	6.6588e-06	429.13	144.07	125.49	43.204	6.4118e-06	53.354	11.200	-45.203	-54.603	-137.107	21.043	3.880	-137.242	-132.670	-26.583	27.833	-133.204	-128.822	-128.707	-123.711	-29.547	-124.701	-8191	255	
28476.434	1	1	0	0	0.11606	0.16981	0.083634	0.30647	0.030052	0.135	0.18984	0.032574	0.1787	0.29756	0.063106	0.14493	0.30935	0.20165	0.10906	0.27912	-2.0521	-2.6437	-2.4021	-2.6312	-2.6792	-2.1458	-2.7354	-2.45	-2.3479	-2.6646	-2.4854	-2.6979	-2.5187	-2.1792	-2.6167	-2.4708	126.537	-122.380	41.839	107.364	199.924	140.728	163.499	166.450	18.684	70.224	-133.101	-46.077	161.190	-124.340	-28.129	193.161	0.0010584	0.00047076	0.00014688	1358.1	3.8288e-06	4.119e-06	1355.1	368.48	7.571e-06	4.0266e-06	417.84	140.95	121.86	41.793	5.4149e-06	51.276	0.00062073	0.00057282	0.00016124	1382.5	6.3615e-06	6.2909e-06	1377.8	375.3	6.2855e-06	6.2441e-06	427.48	143.99	125.09	43.113	6.3072e-06	53.298	10.063	-102.855	-34.269	-137.085	2.532	21.206	-137.524	-132.849	-11.925	-1.029	-133.157	-128.803	-128.404	-123.798	-14.835	-124.636	-8191	255	
28476.529	1	1	0	0	0.20459	0.20443	0.17181	0.079213	0.24671	0.2887	0.21917	0.15482	0.1327	0.32356	0.27945	0.16006	0.022692	0.22748	0.20421	0.17323	-2.0792	-2.7583	-2.2687	-2.5667	-2.5187	-2.2646	-2.7458	-2.5625	-2.1333	-2.5521	-2.5292	-2.6042	-2.6125	-2.2833	-2.6792	-2.4146	-116.733	205.490	-103.130	-58.060	1.607	171.652	77.044	-135.976	-31.434	-37.952	170.332	193.045	143.765	-141.557	-105.863	135.446	0.0010542	0.00069588	8.4209e-05	1360.7	7.6646e-06	6.9251e-06	1356.7	368.28	6.5307e-06	2.6662e-06	419.28	140.43	122.75	41.784	3.5741e-06	51.668	0.00062103	0.00057137	0.0001577	1382.1	6.423e-06	6.5179e-06	1380.9	375.43	6.4428e-06	6.4044e-06	428.88	143.92	125.37	43.09	6.3787e-06	53.336	10.281	-57.333	-79.247	-137.188	-13.085	-16.793	-137.437	-132.936	27.603	45.209	-133.064	-128.992	-128.610	-123.825	12.047	-124.546	-8191	255	
28476.627	1	1	0	0	0.34308	0.24228	0.12826	0.30657	0.10408	0.38516	0.14176	0.12315	0.34746	0.076617	0.052986	0.21472	0.045381	0.11996	0.11292	0.19349	-1.7687	-2.4979	-2.1875	-2.5208	-2.6312	-2.3208	-2.6	-2.6167	-2.1354	-2.6521	-2.3583	-2.5104	-2.5896	-2.2979	-2.3729	-2.6	71.558	149.360	87.865	179.685	27.195	-64.898	55.618	115.783	136.719	-2.364	-14.727	-135.893	-69.371	71.739	166.398	104.411	0.0011463	0.00030045	5.6317e-05	1357.5	7.1166e-06	4.1552e-06	1355.1	368.05	1.2442e-05	3.755e-06	419.19	141.67	121.79	41.762	5.2729e-06	51.617	0.00062865	0.00058189	0.0001605	1379.9	6.4223e-06	6.4646e-06	1378.4	375.58	6.4527e-06	6.3223e-06	428.43	144.22	124.91	43.071	6.1412e-06	53.267	8.252	-35.982	-26.822	-137.150	-44.287	-13.933	-137.452	-132.628	-25.389	10.243	-133.300	-129.000	-128.607	-123.891	13.625	-124.594	-8191	255	
28476.744	1	1	0	0	0.24778	0.20801	0.12104	0.38791	0.11895	0.14411	0.29122	0.1286	0.12134	0.23719	0.2505	0.070782	0.18922	0.30224	0.29165	0.32795	-1.8208	-2.3708	-2.2771	-2.4688	-2.5604	-2.2667	-2.5292	-2.6292	-2.3083	-2.6979	-2.6104	-2.3167	-2.7604	-2.3854	-2.5062	-2.7771	105.306	100.353	58.820	177.351	196.238	197.295	124.569	-21.539	31.741	-143.349	140.936	-22.665	93.050	142.598	-54.712	130.834	0.0011594	0.00056466	0.00014234	1354.6	9.5063e-06	3.7271e-06	1350.2	367.85	1.292e-05	6.5086e-06	418.04	140.61	121.79	41.869	4.185e-06	51.356	0.00061639	0.00055799	0.00016026	1379.3	6.2323e-06	6.1959e-06	1375.5	374.85	6.3115e-06	6.2867e-06	427.15	143.6	124.95	43.1	6.3999e-06	53.248	10.147	-60.551	-60.510	-137.141	6.085	-1.845	-137.559	-132.719	-36.507	-4.752	-132.956	-128.935	-128.611	-123.675	-15.602	-124.511	-8191	255	
28476.842	1	1	0	0	0.098204	0.17632	0.17323	0.12938	0.23372	0.082149	0.26116	0.10281	0.30575	0.20822	0.34664	0.39253	0.32009	0.24978	0.22824	0.27236	-1.6604	-2.4583	-2.4792	-2.5333	-2.6312	-2.3875	-2.6083	-2.5417	-2.2021	-2.4333	-2.5646	-2.1125	-2.6604	-2.3771	-2.2917	-2.7104	-118.719	1.105	97.255	201.825	58.472	-3.162	178.270	51.310	-100.452	5.210	121.121	180.559	168.329	101.505	-52.296	184.433	0.0010541	0.00043079	0.00011603	1355.8	9.6781e-06	6.8106e-06	1347.8	366.53	1.164e-05	4.1265e-06	420.59	140.83	122.36	41.94	6.0365e-06	51.664	0.00060338	0.00056944	0.00016374	1378	6.3265e-06	6.3775e-06	1375.6	374.19	6.3682e-06	6.3073e-06	428.51	143.96	125.06	43.049	6.2865e-06	53.334	13.659	-56.324	-40.891	-137.134	-53.726	-22.918	-137.310	-132.676	-23.917	-4.343	-133.017	-128.967	-128.473	-123.604	-4.461	-124.511	-8191	255	
28476.912	1	1	0	0	0.070099	0.12645	0.2936	0.14816	0.13779	0.25781	0.15649	0.16951	0.25195	0.27572	0.48579	0.13749	0.27044	0.22401	0.39405	0.19422	-1.85	-2.5708	-2.3917	-2.2771	-2.6437	-2.3167	-2.3979	-2.5396	-2.2042	-2.4688	-2.5979	-2.2792	-2.55	-2.4437	-2.2	-2.7104	-146.637	-79.564	121.318	147.851	-67.048	-62.315	199.651	145.573	78.826	19.037	206.112	-134.671	142.982	199.909	-37.943	-150.347	0.0011139	0.0003629	0.00017696	1351.6	6.5429e-06	7.1653e-06	1351.4	367.39	9.0104e-06	4.2437e-06	420.57	140.54	122.34	41.759	5.5289e-06	51.506	0.00061315	0.00057248	0.00016196	1377.8	6.3417e-06	6.3121e-06	1374.6	374.8	6.2865e-06	6.2985e-06	428.43	143.94	124.96	42.995	6.2179e-06	53.19	10.873	-58.522	-75.496	-137.230	-27.825	17.281	-137.224	-132.427	-23.310	3.901	-133.031	-129.099	-128.436	-123.733	9.200	-124.543	-8191	255	
28477.033	1	1	0	0	0.02138	0.14868	0.16344	0.34595	0.10892	0.13354	0.25895	0.19057	0.16697	0.04621	0.060395	0.25851	0.082067	0.0969	0.18578	0.27165	-1.8312	-2.3625	-2.3688	-2.4792	-2.575	-2.5687	-2.3458	-2.7729	-2.2438	-2.4458	-2.675	-2.125	-2.4542	-2.6729	-2.0354	-2.6146	104.495	88.114	-140.174	174.464	110.740	14.735	-12.114	114.305	-46.691	3.217	-88.272	159.814	163.086	-73.612	97.310	188.008	0.0011436	0.00044698	0.00010998	1350.2	1.2227e-05	6.2111e-06	1352.4	366.41	1.1823e-05	4.2356e-06	419.18	140.49	121.66	41.86	6.1446e-06	51.724	0.00060778	0.00058185	0.0001604	1376.5	6.3007e-06	6.3083e-06	1377	374.63	6.2234e-06	6.3457e-06	428.03	143.74	124.64	42.992	6.4683e-06	53.28	13.408	-65.381	-61.905	-137.284	-16.378	-7.248	-137.511	-132.844	-16.694	-12.368	-132.923	-128.969	-128.441	-123.689	-0.514	-124.512	-8191	255	
28477.131	1	1	0	0	0.295	0.12989	0.25954	0.32539	0.16493	0.12713	0.26562	0.19371	0.060739	0.26553	0.29862	0.17622	0.14592	0.11553	0.26941	0.37822	-1.8458	-2.0646	-2.5354	-2.4229	-2.5771	-2.5771	-2.2687	-2.7938	-2.3375	-2.4813	-2.7792	-2.375	-2.625	-2.7542	-2.3333	-2.5708	-78.535	71.980	-19.417	191.887	-17.388	96.736	147.768	7.999	-39.167	-104.869	172.219	118.724	-88.381	155.405	-61.177	149.538	0.0010552	0.00060035	0.00015525	1358.6	8.6521e-06	5.4621e-06	1348.9	367.18	1.0886e-05	7.8945e-06	420.77	140.46	122.03	41.636	8.3918e-06	51.754	0.00060012	0.00057065	0.00015896	1377.1	6.2384e-06	6.321e-06	1372.9	374.27	6.1246e-06	6.0754e-06	427.64	143.65	124.78	42.944	6.1984e-06	53.228	6.547	-50.862	-43.946	-137.176	-4.680	26.844	-137.525	-132.727	-16.476	-7.155	-133.348	-128.812	-128.254	-123.538	10.665	-124.593	-8191	255	
28477.227	1	1	0	0	0.16758	0.2216	0.11621	0.20933	0.22564	0.28775	0.32352	0.20995	0.1937	0.13165	0.14287	0.27233	0.22716	0.13156	0.11202	0.27497	-1.9188	-2.2375	-2.6979	-2.2917	-2.5938	-2.5438	-2.5021	-2.7479	-2.4313	-2.3208	-2.7083	-2.3812	-2.5208	-2.6146	-2.1542	-2.6458	-33.982	167.809	148.547	147.283	115.820	177.410	120.874	-41.072	171.160	13.275	193.133	-129.482	-111.031	172.329	114.735	161.732	0.0011368	0.00041059	9.2983e-05	1353	9.7904e-06	5.061e-06	1351.1	366.68	9.7626e-06	6.5182e-06	419.53	140.23	122.53	41.766	4.3967e-06	51.765	0.00058864	0.00055265	0.00015475	1374.1	6.0507e-06	6.1989e-06	1374.2	373.95	6.1314e-06	6.1521e-06	427.44	143.55	124.93	43.023	6.0817e-06	53.234	11.475	-81.769	-64.423	-137.189	-19.849	-27.375	-137.516	-132.708	-16.870	1.282	-133.121	-128.927	-128.417	-123.750	-8.374	-124.347	-8191	255	
28477.346	1	1	0	0	0.236	0.091099	0.049744	0.19349	0.22273	0.26897	0.087149	0.26714	0.037194	0.2275	0.1599	0.18554	0.11372	0.17912	0.10919	0.31871	-2.1312	-2.4021	-2.6063	-2.4354	-2.4437	-2.6646	-2.4313	-2.5	-2.5521	-2.3729	-2.5938	-2.4437	-2.3979	-2.5646	-2.2687	-2.6437	141.265	39.157	-42.273	99.444	133.144	170.945	93.898	201.761	-123.119	-75.520	130.577	171.273	78.141	5.140	-28.902	151.976	0.0011319	0.00041076	0.00019479	1352.3	8.3232e-06	5.6045e-06	1346.2	367.05	1.2327e-05	6.2911e-06	416.5	140.44	121.97	41.864	5.0195e-06	51.719	0.00059276	0.00055473	0.00014917	1373.2	6.0852e-06	5.9821e-06	1370.7	373.58	5.9368e-06	5.9521e-06	426.57	143.53	124.76	43.002	6.0099e-06	53.181	11.859	-65.661	-48.269	-137.191	-14.364	-20.308	-137.243	-132.743	-21.428	2.717	-133.207	-128.943	-128.230	-123.625	-4.094	-124.436	-8191	255	
28477.443	1	1	0	0	0.17512	0.098015	0.079423	0.07327	0.26303	0.25734	0.22613	0.050972	0.14181	0.038205	0.22528	0.33613	0.20694	0.3435	0.15396	0.05214	-2.1792	-2.0542	-2.6396	-2.5875	-2.4104	-2.5667	-2.3063	-2.5563	-2.4813	-2.0771	-2.5396	-2.4479	-2.2125	-2.7833	-2.1958	-2.7021	-45.014	-117.518	116.856	99.607	-57.200	-4.545	102.856	-139.775	115.516	-80.638	-129.055	110.790	-108.541	189.339	52.119	103.868	0.0010875	0.00041541	0.00012714	1346.2	7.9304e-06	2.0547e-06	1349.7	364.71	1.0935e-05	4.8842e-06	418.76	139.83	121.52	41.759	3.4003e-06	51.618	0.00059733	0.000551	0.00015164	1369.9	6.0236e-06	5.9856e-06	1370.4	373.12	5.9757e-06	5.9295e-06	426.81	143.16	124.76	42.96	6.0532e-06	53.202	8.902	-62.448	-68.822	-137.224	-41.627	23.071	-137.422	-132.817	-19.597	23.267	-133.235	-128.970	-128.398	-123.548	10.891	-124.231	-8191	255	
28477.537	1	1	0	0	0.21136	0.26457	0.15484	0.12083	0.087893	0.1181	0.11794	0.14529	0.1745	0.039916	0.24805	0.14714	0.12211	0.20517	0.087749	0.15264	-2.0646	-2.1104	-2.5146	-2.5271	-2.3354	-2.55	-2.25	-2.4875	-2.5396	-1.9708	-2.4188	-2.2771	-2.2104	-2.5792	-2.1771	-2.5604	-149.917	203.230	33.844	-118.877	97.235	114.020	-78.225	-78.027	27.806	63.268	-57.314	-109.300	-80.059	171.632	-78.673	151.528	0.0010765	0.00046487	0.00016633	1348.6	1.1187e-05	3.9616e-06	1351.1	366.22	7.5034e-06	3.7025e-06	418.7	140.38	121.55	41.703	7.1945e-06	51.662	0.00060167	0.00054626	0.00015282	1371.6	6.1277e-06	6.0851e-06	1369.9	373.72	6.0579e-06	5.9939e-06	426.96	143.3	124.52	42.887	6.0959e-06	53.164	10.557	-71.155	-71.186	-137.196	-14.266	-3.536	-137.469	-132.780	-28.340	25.831	-133.217	-128.740	-128.249	-123.501	-28.253	-124.557	-8191	255	
28477.609	1	1	0	0	0.078132	0.052556	0.25813	0.35387	0.21117	0.20157	0.068649	0.027579	0.12933	0.24714	0.15179	0.22043	0.13915	0.058717	0.20877	0.20828	-2.0229	-2.1063	-2.4521	-2.6833	-2.2562	-2.8271	-2.5125	-2.4604	-2.6417	-2.3063	-2.725	-2.5292	-2.3604	-2.7646	-2.3167	-2.4354	148.383	-39.696	-117.121	198.099	156.428	198.114	133.191	10.451	82.686	-74.608	-140.584	191.856	181.528	206.655	98.297	-14.423	0.0011541	0.0003814	0.00015397	1351.4	6.2039e-06	4.4522e-06	1338.9	364.69	7.3736e-06	9.6787e-06	415.58	140.16	121.65	41.492	7.414e-06	51.44	0.00057944	0.00054145	0.00015254	1370.1	6.0239e-06	6.0969e-06	1367.6	372.74	5.9644e-06	5.9478e-06	425.34	143.3	124.58	42.817	6.0213e-06	53.087	9.717	-65.438	-45.052	-137.430	-41.377	-12.151	-137.426	-132.620	10.009	-14.230	-133.218	-129.004	-128.235	-123.537	6.045	-124.354	-8191	255	
28477.729	1	1	0	0	0.17742	0.16521	0.12397	0.2438	0.1677	0.31479	0.15481	0.13408	0.03669	0.033826	0.26305	0.25753	0.32142	0.040248	0.30731	0.22041	-2.2896	-2.4667	-2.3417	-2.6771	-2.2417	-2.5771	-2.4917	-2.4062	-2.7146	-2.2875	-2.6292	-2.7396	-2.2708	-2.5854	-2.4188	-2.375	190.458	-51.557	-5.812	125.033	-39.273	204.954	134.502	-130.918	173.493	-72.603	156.396	-112.480	-134.243	104.177	103.896	-4.866	0.0011004	0.00052005	0.00015102	1346.3	1.0821e-05	6.7248e-06	1345.7	366.2	1.0473e-05	3.5606e-06	417.36	139.98	121.61	41.563	4.2709e-06	51.501	0.00058675	0.00055272	0.0001537	1367.8	6.0464e-06	6.0859e-06	1368.6	373.32	5.9266e-06	6.1057e-06	425.95	143.24	124.29	42.864	6.0045e-06	53.094	10.135	-74.134	-46.341	-137.221	6.534	-20.453	-137.474	-132.836	-24.575	-2.752	-133.218	-128.808	-128.417	-123.801	22.891	-124.238	-8191	255	
28477.824	1	1	0	0	0.16501	0.091511	0.11825	0.25805	0.1025	0.2256	0.16464	0.08297	0.077914	0.13398	0.094943	0.071358	0.11489	0.32344	0.31387	0.11365	-2.3229	-2.2604	-2.3875	-2.7021	-2.3187	-2.6833	-2.4583	-2.3063	-2.4562	-2.3812	-2.3854	-2.7729	-2.3	-2.6542	-2.5521	-2.2646	-19.491	166.586	93.085	183.474	132.621	144.432	-149.326	-42.746	158.363	193.060	169.471	153.429	170.038	187.086	-93.702	137.520	0.001104	0.00043825	0.00013574	1346.4	6.6717e-06	6.024e-06	1346.5	367.86	1.0009e-05	4.5273e-06	417.99	140.28	122.56	41.685	2.5185e-06	51.623	0.00058868	0.00057118	0.00015888	1369.5	6.1396e-06	6.2804e-06	1368.6	373.82	6.1858e-06	6.1625e-06	426.6	143.28	124.75	42.921	6.3735e-06	53.212	6.467	-100.585	-58.443	-137.348	-26.524	-45.618	-137.552	-132.623	-19.759	-21.014	-133.000	-128.777	-128.481	-123.676	-20.455	-124.360	-8191	255	
28477.922	1	1	0	0	0.1432	0.048277	0.30566	0.24026	0.13879	0.049553	0.1861	0.23386	0.18002	0.3579	0.037879	0.22675	0.17003	0.033497	0.11255	0.16779	-2.2687	-2.4396	-2.3833	-2.7708	-2.3229	-2.475	-2.5542	-2.2229	-2.7125	-2.4167	-2.4708	-2.6917	-2.2271	-2.3417	-2.3771	-2.2542	159.663	34.458	129.759	155.494	198.086	117.869	150.279	159.517	142.881	-106.505	70.495	133.894	64.099	-135.905	190.216	160.162	0.0010549	0.00020237	0.00016598	1350.6	1.3117e-05	2.0133e-06	1341.8	365.67	6.6177e-06	5.3723e-06	419.36	139.83	122.01	41.676	4.6709e-06	51.312	0.00060062	0.00057202	0.00016038	1372.9	6.3258e-06	6.1314e-06	1368.9	373.28	6.0811e-06	6.176e-06	426.49	143.4	124.54	42.934	6.1301e-06	53.106	6.521	-76.304	-93.461	-137.308	-20.614	1.693	-137.308	-132.685	-22.339	-8.553	-133.013	-128.996	-128.545	-123.524	-22.429	-124.435	-8191	255	
28478.018	1	1	0	0	0.35545	0.1215	0.16202	0.18014	0.086268	0.1149	0.24513	0.11853	0.067774	0.0418	0.18241	0.15692	0.14339	0.084381	0.11543	0.12984	-2.0875	-2.3583	-2.2167	-2.6958	-2.3542	-2.4521	-2.8125	-2.3042	-2.65	-2.4604	-2.2146	-2.6688	-2.3167	-2.4458	-2.5104	-2.125	99.176	74.778	-144.600	138.410	33.379	161.956	122.374	200.142	75.535	2.914	182.455	133.804	-145.859	185.303	-74.339	206.027	0.0010494	0.00038515	0.00018632	1352.9	1.0033e-05	3.4946e-06	1345.7	366.74	7.775e-06	4.1228e-06	417.95	140.22	122.03	41.7	4.4866e-06	51.52	0.00059114	0.00055398	0.00015446	1371.8	6.089e-06	6.0168e-06	1367.6	373.43	6.0152e-06	6.0145e-06	426.19	143.23	124.57	42.95	5.8424e-06	53.186	7.288	-60.263	-61.375	-137.167	-18.257	-2.464	-137.580	-132.807	-32.316	-23.366	-133.137	-129.035	-128.451	-123.770	-2.227	-124.461	-8191	255	
28478.139	1	1	0	0	0.031666	0.18304	0.11695	0.35125	0.12612	0.08988	0.088108	0.46385	0.08388	0.10052	0.10481	0.15914	0.39505	0.041846	0.17599	0.15923	-1.9188	-2.3563	-2.1437	-2.6958	-2.2146	-2.2438	-2.6875	-2.2583	-2.5833	-2.5875	-2.2083	-2.6271	-2.4833	-2.5271	-2.4938	-2.1937	70.223	196.782	-36.803	181.327	156.828	-72.405	102.012	191.592	68.470	-53.902	-27.203	-95.418	-136.291	-136.354	5.693	147.170	0.0011421	0.00059634	0.00011029	1344.7	9.6552e-06	5.4209e-06	1340.1	365.22	6.1695e-06	3.7296e-06	416.03	140	122.61	41.716	8.034e-06	51.484	0.00057503	0.00054089	0.00015094	1367.4	5.9788e-06	5.9122e-06	1364.5	372.94	5.8832e-06	5.7705e-06	425.44	143.11	124.66	42.902	5.7386e-06	53.125	14.742	-46.824	-36.695	-137.171	-53.389	11.347	-137.690	-132.714	13.311	-19.106	-133.250	-128.803	-128.578	-123.745	-21.469	-124.483	-8191	255	
28478.211	1	1	0	0	0.12172	0.46031	0.13468	0.30084	0.15075	0.26447	0.2788	0.073722	0.25915	0.18762	0.13752	0.12572	0.20212	0.22325	0.13468	0.21644	-1.9667	-2.4896	-2.1708	-2.7958	-2.4583	-2.35	-2.7958	-2.4396	-2.5729	-2.4417	-2.2771	-2.5875	-2.2729	-2.2375	-2.5417	-2.3479	-131.041	200.540	97.134	183.922	154.543	189.091	162.721	-70.908	157.455	-32.710	189.624	144.931	160.927	194.998	127.884	75.100	0.0011129	0.00049487	0.00017702	1349.1	1.1619e-05	3.8006e-06	1347.6	366.47	9.1353e-06	6.2601e-06	418.41	139.67	121.94	41.7	5.5657e-06	51.705	0.0005757	0.00055642	0.00015053	1368.9	5.9183e-06	5.9848e-06	1369.8	373.8	5.9338e-06	5.943e-06	426.19	143.17	124.6	42.948	5.902e-06	53.225	8.548	-59.742	-56.802	-137.237	-4.031	23.029	-137.471	-132.679	-4.807	-10.397	-133.202	-128.948	-128.265	-123.632	-30.086	-124.499	-8191	255	
28478.307	1	1	0	0	0.26241	0.061113	0.27053	0.23962	0.088291	0.039068	0.19939	0.29019	0.31408	0.10958	0.013977	0.050105	0.073075	0.22129	0.23553	0.34919	-1.7917	-2.3729	-2.2313	-2.7833	-2.3854	-2.2417	-2.8438	-2.2708	-2.3625	-2.5292	-2.3187	-2.4146	-2.5	-2.4188	-2.6104	-2.3354	46.730	201.520	110.578	163.030	-136.063	95.342	-128.166	166.473	61.251	-47.817	193.512	84.042	139.005	25.082	13.690	187.236	0.0011086	0.00049662	0.00017504	1344.1	8.6238e-06	2.3769e-06	1345.1	365.48	1.0208e-05	7.548e-06	419.4	139.86	121.82	41.691	5.5578e-06	51.494	0.00058209	0.00052408	0.00014638	1369	5.9479e-06	5.8479e-06	1366.4	372.68	5.8214e-06	5.7601e-06	427.04	143.24	124.5	42.948	5.715e-06	53.107	10.600	-71.327	-69.889	-137.237	4.539	31.362	-137.373	-132.791	-20.406	3.163	-133.234	-128.943	-128.464	-123.728	10.937	-124.194	-8191	255	
28478.428	1	1	0	0	0.12972	0.17413	0.40755	0.213	0.35989	0.21294	0.07209	0.15104	0.099897	0.057729	0.20902	0.10813	0.16571	0.06322	0.081856	0.22813	-1.8771	-2.5167	-2.1292	-2.7979	-2.3812	-2.2104	-2.7979	-2.3542	-2.4042	-2.5854	-2.2104	-2.4813	-2.5417	-2.2313	-2.7292	-2.3646	157.906	-27.162	-131.541	126.580	91.730	-98.931	-140.555	194.969	200.840	-133.057	-107.450	150.126	-132.668	17.604	103.765	-123.248	0.0010882	0.0004773	0.00011703	1344.1	5.1658e-06	6.3988e-06	1341.8	366.07	9.1231e-06	5.0298e-06	416.79	140.33	121.78	41.834	1.5048e-06	51.461	0.00056611	0.00052514	0.00014867	1366.7	5.7876e-06	5.8527e-06	1366.8	373.18	5.8063e-06	5.737e-06	426.43	143.26	124.73	43.013	5.7342e-06	53.122	9.482	-76.228	-58.226	-137.122	1.354	22.648	-137.575	-132.539	-0.396	34.519	-133.047	-128.930	-128.466	-123.704	26.324	-124.272	-8191	255	
28478.523	1	1	0	0	0.17532	0.27823	0.213	0.1233	0.32124	0.36222	0.23567	0.086066	0.14014	0.14428	0.14834	0.19641	0.22709	0.075483	0.074112	0.26032	-1.9417	-2.8021	-2.1562	-2.7687	-2.7146	-2.0917	-2.6396	-2.4771	-2.3208	-2.5354	-2.4083	-2.5042	-2.525	-2.2604	-2.4771	-2.6021	-60.698	174.291	37.736	-132.839	165.181	-127.386	85.308	95.807	-4.109	-134.105	-3.629	-99.668	177.772	112.729	59.528	180.923	0.0010439	0.00043448	0.00017388	1348.5	8.3293e-06	3.8418e-06	1341	364.45	5.9288e-06	6.7739e-06	418.02	140.58	122.53	41.701	2.1684e-06	51.768	0.00056237	0.00050712	0.00014688	1368.2	5.708e-06	5.8425e-06	1366.4	372.79	5.804e-06	5.6719e-06	426.04	143.27	124.79	42.955	5.8064e-06	53.204	7.605	-67.262	-89.444	-137.132	-43.781	8.866	-137.334	-132.693	-40.120	-5.462	-132.958	-128.861	-128.272	-123.644	12.023	-124.414	-8191	255	
28478.617	1	1	0	0	0.24781	0.19981	0.30839	0.11248	0.18532	0.23531	0.31068	0.13913	0.3167	0.1219	0.11557	0.27109	0.048842	0.15777	0.1282	0.18209	-1.7104	-2.7646	-2	-2.4354	-2.5375	-2.0604	-2.6063	-2.4688	-2.2604	-2.4417	-2.2	-2.4917	-2.6458	-2.2938	-2.6125	-2.5729	126.427	155.735	-64.766	183.903	31.957	58.204	162.233	49.671	190.339	0.910	95.921	-109.207	139.966	143.360	42.164	-66.550	0.0011108	0.00042007	0.00014984	1341.7	7.7477e-06	6.3907e-06	1344.2	366.22	6.3032e-06	3.7926e-06	415.01	139.49	121.83	41.766	6.1673e-06	51.473	0.0005728	0.00052575	0.00014913	1366.2	5.7427e-06	5.7263e-06	1366	372.86	5.7394e-06	5.6947e-06	425.24	143.31	124.44	42.986	5.6813e-06	53.16	7.969	-59.569	-80.671	-137.212	-10.063	40.957	-137.504	-132.697	-37.944	-28.609	-133.121	-128.977	-128.642	-123.786	15.439	-124.525	-8191	255	
28478.715	1	1	0	0	0.20066	0.30342	0.29202	0.22882	0.19407	0.080333	0.16174	0.22737	0.062994	0.083625	0.095732	0.15013	0.080234	0.34346	0.17116	0.090754	-1.8021	-2.5208	-2.1958	-2.3833	-2.6271	-2.1479	-2.4375	-2.6208	-2.2083	-2.5646	-2.5771	-2.3875	-2.7354	-2.3812	-2.3688	-2.5125	147.912	7.323	206.463	49.862	-69.267	205.912	-135.405	191.364	26.538	-82.177	174.335	-119.286	-105.427	-124.299	64.560	-86.217	0.0010793	0.0006193	0.0001408	1345.6	5.9293e-06	3.0161e-06	1339.7	363.06	9.0746e-06	4.5937e-06	416.55	140.12	122	41.822	7.4259e-06	51.319	0.00057021	0.00051951	0.00014245	1366.2	5.6098e-06	5.655e-06	1364.6	371.86	5.6283e-06	5.6274e-06	425.5	143.18	124.53	43.038	5.5819e-06	53.065	9.187	-61.808	-80.086	-137.219	32.903	0.635	-137.348	-132.904	-20.778	-13.059	-132.957	-129.098	-128.504	-123.550	9.402	-124.545	-8191	255	
28478.811	1	1	0	0	0.19547	0.069415	0.20995	0.50429	0.23315	0.016622	0.28086	0.25465	0.010103	0.21877	0.13727	0.33339	0.1389	0.1272	0.2086	0.073552	-1.625	-2.4167	-2.4583	-2.4125	-2.575	-2.4583	-2.6188	-2.5333	-2.2333	-2.5896	-2.5375	-2.3021	-2.6	-2.3958	-2.4208	-2.4292	109.175	-82.605	98.449	150.361	-77.933	190.940	113.561	120.312	91.432	173.301	-149.713	204.526	-103.681	177.897	-86.162	93.198	0.0010829	0.00029556	0.0001679	1345.1	6.2708e-06	6.2116e-06	1343.4	364.76	1.2522e-05	6.4817e-06	417.99	139.07	121.72	41.87	3.9728e-06	51.636	0.00056052	0.00051929	0.00014265	1365.9	5.6576e-06	5.6397e-06	1365.1	372.11	5.7014e-06	5.4965e-06	425.42	142.96	124.3	42.928	5.4304e-06	53.181	9.980	-67.137	-36.497	-137.087	-22.980	-9.269	-137.319	-132.567	-11.633	11.335	-133.178	-128.925	-128.467	-123.797	-19.823	-124.447	-8191	255	
28478.906	1	1	0	0	0.14575	0.14004	0.25477	0.12289	0.12923	0.1122	0.039039	0.12609	0.21913	0.08897	0.14676	0.093172	0.14269	0.15269	0.20579	0.3451	-1.8917	-2.4229	-2.5	-2.2708	-2.5958	-2.2938	-2.4667	-2.7208	-2.1937	-2.6292	-2.4083	-2.1271	-2.5604	-2.4271	-2.5104	-2.6292	162.833	-111.845	-118.859	199.517	125.810	80.850	203.426	-139.150	88.289	170.988	-149.047	-121.491	51.237	183.979	176.077	145.119	0.0011083	0.00064816	0.00018508	1341.2	4.7278e-06	3.6935e-06	1338.1	363.86	1.1476e-05	3.7177e-06	416.4	140.1	121.61	41.776	6.4862e-06	51.626	0.00055077	0.00050342	0.00013942	1362.9	5.4527e-06	5.4235e-06	1362.2	371.31	5.531e-06	5.3458e-06	424.66	143.18	124.46	42.993	5.4962e-06	53.171	12.398	-82.643	-77.653	-137.174	-41.277	21.691	-137.293	-132.880	-25.742	3.577	-132.837	-128.955	-128.274	-123.751	-6.257	-124.288	-8191	255	
28479.025	1	1	0	0	0.38546	0.14908	0.077736	0.16337	0.051208	0.208	0.22151	0.19423	0.11103	0.19791	0.17239	0.10351	0.30395	0.31333	0.22725	0.24685	-1.6437	-2.3625	-2.4229	-2.3583	-2.5833	-2.3958	-2.3333	-2.6854	-2.3042	-2.3875	-2.5729	-2.3396	-2.4771	-2.3542	-2.1375	-2.5312	-67.511	-134.468	17.558	121.724	-135.471	-111.603	144.434	5.114	-122.018	164.284	168.757	183.873	-129.972	164.934	104.571	134.163	0.0011306	0.00042968	0.00019523	1344.4	7.1721e-06	5.3158e-06	1341.1	364.57	7.5953e-06	2.0955e-06	416.12	140.61	121.84	41.695	8.392e-06	51.514	0.00053358	0.00049687	0.00013629	1363.7	5.4694e-06	5.5241e-06	1364.1	371.56	5.4335e-06	5.4378e-06	424.44	143.37	124.5	42.922	5.5068e-06	53.099	6.441	-54.307	-55.908	-137.241	-46.551	11.717	-137.422	-132.697	-26.743	7.996	-133.245	-128.874	-128.290	-123.511	-22.621	-124.373	-8191	255	
28479.123	1	1	0	0	0.16224	0.15104	0.1443	0.44793	0.1868	0.13473	0.27567	0.29115	0.054407	0.15644	0.14826	0.31348	0.21552	0.1844	0.053218	0.19723	-1.7229	-2.1708	-2.4021	-2.3833	-2.375	-2.5083	-2.4625	-2.7521	-2.3104	-2.5104	-2.3688	-2.2333	-2.6562	-2.5271	-2.2083	-2.6229	-33.522	135.964	-92.497	196.401	128.414	59.644	182.365	-147.752	5.922	17.710	-92.740	100.982	140.238	195.001	-137.491	71.383	0.0010508	0.00037849	0.00018283	1340.9	1.4251e-06	3.4552e-06	1336.8	363.27	8.2741e-06	5.5579e-06	415.02	139.92	121.82	41.988	6.4673e-06	51.449	0.00054715	0.00049841	0.0001397	1362.4	5.5624e-06	5.4783e-06	1362.4	371.69	5.484e-06	5.5099e-06	424.58	143.03	124.24	42.951	5.5099e-06	53.075	12.520	-79.952	-59.300	-137.035	-106.753	6.220	-137.418	-132.631	-7.844	-12.737	-133.229	-129.040	-128.707	-123.577	-30.342	-124.778	-8191	255	
28479.219	1	1	0	0	0.29041	0.17668	0.18878	0.2624	0.066103	0.11423	0.3035	0.20397	0.053763	0.046254	0.25959	0.20757	0.13682	0.054814	0.12236	0.022255	-1.8104	-2.1688	-2.4875	-2.3042	-2.4	-2.5229	-2.0833	-2.6292	-2.1375	-2.4833	-2.7062	-2.2208	-2.4	-2.5958	-2.2188	-2.5563	-14.161	109.837	131.482	140.726	34.637	158.403	137.928	178.647	198.072	51.193	-129.901	-114.033	-98.474	187.673	-128.344	-62.323	0.0010968	0.00049912	0.00010667	1342	9.2583e-06	5.5779e-06	1335.6	364.84	5.3787e-06	3.673e-06	417.74	139.85	121.94	41.775	5.8058e-06	51.31	0.00054303	0.00049408	0.00013915	1364.4	5.3826e-06	5.4549e-06	1360.4	371.88	5.5471e-06	5.4507e-06	425.03	143	124.35	42.888	5.5296e-06	53.049	11.235	-50.440	-37.740	-137.218	-32.562	-0.468	-137.281	-132.621	-46.245	-21.168	-132.950	-128.948	-128.589	-123.586	-25.335	-124.314	-8191	255	
28479.314	1	1	0	0	0.3524	0.031444	0.22137	0.095888	0.076408	0.10139	0.18404	0.32264	0.18089	0.2729	0.3735	0.14471	0.12424	0.12491	0.056613	0.24284	-2.0104	-2.2833	-2.6667	-2.3208	-2.5438	-2.525	-2.3875	-2.5146	-2.4396	-2.3979	-2.6021	-2.2896	-2.2521	-2.5458	-2.0667	-2.5083	-99.574	-49.193	-9.338	179.264	77.170	10.898	81.118	-139.212	25.706	72.330	196.487	165.397	76.357	209.334	-56.815	-128.386	0.0011358	0.00038295	0.00017862	1337.7	8.7632e-06	4.0833e-06	1335.8	363.71	1.0266e-05	4.0692e-06	419.46	139.48	121.3	41.702	7.6191e-06	51.381	0.00053388	0.0004944	0.0001389	1360.4	5.4902e-06	5.4057e-06	1360.2	371.33	5.3837e-06	5.6563e-06	425.46	142.77	124.05	42.805	5.4571e-06	53.017	7.398	-77.840	-31.714	-137.240	-2.006	6.806	-137.455	-132.674	-0.735	19.166	-133.233	-128.810	-128.440	-123.725	-14.026	-124.158	-8191	255	
28479.436	1	1	0	0	0.18942	0.092224	0.14396	0.2851	0.063243	0.22613	0.097896	0.31314	0.28792	0.23449	0.12762	0.06047	0.16487	0.065738	0.04441	0.4665	-2.0292	-2.1542	-2.6021	-2.3979	-2.4021	-2.5792	-2.3125	-2.6042	-2.4208	-2.0708	-2.7021	-2.5	-2.3396	-2.5542	-2.1437	-2.4792	-146.366	-108.409	171.606	138.312	27.944	47.501	79.181	146.669	92.619	-147.138	88.944	184.221	-144.430	-2.086	16.139	94.385	0.0011486	0.00052919	0.00015652	1340.3	1.3089e-05	4.5734e-06	1342.1	364.1	1.2421e-05	3.9295e-06	415.17	139.52	121.75	41.67	4.9495e-06	51.216	0.00055061	0.00050869	0.00014016	1362	5.5804e-06	5.5184e-06	1362.3	371.13	5.4669e-06	5.5931e-06	423.24	142.67	123.92	42.827	5.5563e-06	52.864	8.538	-54.863	-68.060	-137.054	2.456	-10.908	-137.596	-132.739	-15.468	-24.682	-132.911	-128.738	-128.058	-123.843	16.002	-124.328	-8191	255	
28479.508	1	1	0	0	0.08886	0.12404	0.069821	0.35372	0.077127	0.11106	0.20949	0.19657	0.2176	0.27251	0.11809	0.093686	0.1866	0.26234	0.11522	0.21188	-2.1	-2.1	-2.5417	-2.525	-2.3292	-2.7021	-2.4292	-2.5875	-2.5896	-2.3333	-2.6271	-2.4917	-2.1479	-2.5396	-2.3792	-2.5521	94.410	90.147	-84.174	121.528	-30.455	43.390	151.586	136.410	50.844	52.676	159.764	-138.933	151.339	141.539	-1.536	-82.213	0.0011059	0.0006198	0.00023404	1339.5	8.2952e-06	5.4648e-06	1336.3	363.79	9.7746e-06	2.2827e-06	416.58	140.16	121.98	41.682	4.2232e-06	51.47	0.00054988	0.00050732	0.00013951	1361.5	5.5495e-06	5.4315e-06	1359.7	371.21	5.4644e-06	5.5421e-06	423.78	142.74	124.3	42.773	5.3967e-06	52.941	12.360	-59.978	-39.448	-137.061	-17.071	-11.225	-137.282	-132.729	4.683	-68.631	-133.018	-128.879	-128.289	-123.696	18.864	-124.241	-8191	255	
28479.604	1	1	0	0	0.27385	0.036781	0.091247	0.16501	0.36297	0.23609	0.10219	0.2761	0.1321	0.19511	0.16236	0.21368	0.4126	0.25447	0.19061	0.37136	-2.1271	-2.1479	-2.5938	-2.7167	-2.1417	-2.5729	-2.4979	-2.4708	-2.6688	-2.3667	-2.5521	-2.5979	-2.1771	-2.6479	-2.2771	-2.3063	16.270	61.465	-86.230	160.877	173.271	55.640	156.245	142.044	185.219	96.651	162.037	119.347	68.221	178.052	113.889	182.563	0.0010974	0.00044853	0.00014079	1334.9	9.0274e-06	4.6261e-06	1336.2	363.72	7.6737e-06	6.1113e-06	414.08	139.47	121.27	41.661	3.8162e-06	51.354	0.00054309	0.00050175	0.00013882	1357.9	5.4953e-06	5.4856e-06	1359.9	370.95	5.3969e-06	5.6384e-06	423.82	142.58	123.67	42.697	5.4506e-06	52.918	8.972	-63.171	-47.300	-137.162	-39.998	1.991	-137.400	-132.733	-37.510	-7.133	-133.141	-128.690	-128.473	-123.718	-32.820	-124.320	-8191	255	
28479.697	1	1	0	0	0.089544	0.12896	0.26537	0.28084	0.088803	0.12703	0.26446	0.14028	0.23058	0.087917	0.11157	0.29184	0.071899	0.28059	0.18244	0.18703	-2.2229	-2.0354	-2.4667	-2.6208	-2.0833	-2.5271	-2.5604	-2.5312	-2.5771	-2.2021	-2.5667	-2.4813	-1.9729	-2.6792	-2.3604	-2.2292	-113.542	-41.776	115.112	168.742	-32.601	148.979	207.613	32.892	50.851	3.380	132.414	134.150	28.169	-37.118	161.767	126.066	0.001067	0.00027365	0.00011166	1340.1	7.947e-06	4.5908e-06	1336.8	363.66	8.9425e-06	4.1566e-06	414.81	139.13	120.63	41.458	8.11e-06	51.34	0.00054799	0.00049824	0.00013881	1359.9	5.6976e-06	5.5679e-06	1359.9	370.97	5.5451e-06	5.5944e-06	423.29	142.21	123.62	42.639	5.4928e-06	52.828	10.140	-81.044	-86.114	-137.151	24.802	8.627	-137.246	-132.585	-6.060	15.471	-133.214	-129.092	-128.330	-123.560	-3.345	-124.474	-8191	255	
28479.818	1	1	0	0	0.17012	0.14291	0.21426	0.17891	0.040169	0.15333	0.17973	0.058169	0.21676	0.12764	0.046702	0.2452	0.17295	0.12925	0.16745	0.19339	-2.1188	-2.0542	-2.3167	-2.6063	-2.1979	-2.5875	-2.5521	-2.5375	-2.6437	-2.3958	-2.4271	-2.6979	-2.325	-2.5438	-2.525	-2.3208	-63.329	14.166	-27.508	79.639	21.268	99.226	185.168	-142.658	-38.283	18.169	197.857	150.633	-48.591	29.456	-37.792	-143.835	0.0010951	0.00035543	0.00014718	1339.5	1.3813e-05	4.6325e-06	1337.6	362.86	8.1974e-06	5.8576e-06	415.35	138.86	121.1	41.372	5.0984e-06	51.048	0.00053874	0.00050855	0.00013922	1360.3	5.7643e-06	5.4146e-06	1358.6	370.19	5.5484e-06	5.4979e-06	423.53	142.36	123.79	42.649	5.3356e-06	52.755	3.865	-71.442	-58.770	-137.135	-18.205	-24.648	-137.502	-132.521	-26.145	9.802	-133.173	-129.031	-128.446	-123.606	3.287	-124.376	-8191	255	
28479.914	1	1	0	0	0.16687	0.07198	0.084881	0.36549	0.17255	0.1312	0.14849	0.079486	0.23678	0.28833	0.27779	0.24261	0.11759	0.12435	0.28544	0.050611	-2.1708	-2.25	-2.225	-2.6583	-2.2354	-2.3479	-2.6917	-2.4271	-2.55	-2.3	-2.3917	-2.5021	-2.1354	-2.4437	-2.4979	-2.2958	69.166	-84.643	-50.686	150.868	63.585	131.886	94.622	165.250	-48.784	86.754	165.580	88.863	-36.173	80.032	-109.392	197.402	0.0011114	0.00047457	0.00015586	1336.3	1.0419e-05	4.8183e-06	1333	363.3	7.3787e-06	6.3544e-06	413.81	139.76	121.34	41.545	6.0361e-06	51.395	0.00054007	0.0004868	0.00013997	1359.1	5.5241e-06	5.4251e-06	1355.9	370.17	5.3773e-06	5.4689e-06	422.55	142.53	123.77	42.616	5.2642e-06	52.82	9.026	-85.303	-24.130	-137.143	-16.566	-18.181	-137.358	-132.726	-46.024	-14.753	-133.076	-129.125	-128.096	-123.431	-2.086	-124.398	-8191	255	
28480.012	1	1	0	0	0.14909	0.18638	0.12221	0.31726	0.12509	0.18736	0.14453	0.12912	0.27573	0.1692	0.115	0.13148	0.094442	0.26203	0.10873	0.19637	-2.2479	-2.3583	-2.2729	-2.7625	-2.3417	-2.5104	-2.6604	-2.2521	-2.4125	-2.4375	-2.3479	-2.5187	-2.2646	-2.3312	-2.6167	-2.1917	55.927	178.003	173.964	-143.678	84.227	-127.318	95.946	111.687	52.401	22.500	-58.667	177.576	139.244	-77.425	148.930	192.309	0.0012151	0.00046504	0.00013196	1335.4	4.6561e-06	5.4009e-06	1335.8	363.82	6.519e-06	4.7138e-06	413.36	139.26	121.31	41.577	8.104e-06	51.332	0.0005464	0.00049062	0.00013729	1357.2	5.4867e-06	5.5163e-06	1357.3	370.27	5.4547e-06	5.3421e-06	423.09	142.46	123.76	42.682	5.304e-06	52.735	12.955	-79.111	-105.102	-137.089	-15.841	6.294	-137.526	-132.567	-16.776	3.833	-132.973	-128.897	-128.237	-123.630	-5.236	-124.644	-8191	255	
28480.107	1	1	0	0	0.15186	0.2444	0.1282	0.34804	0.24598	0.12142	0.052527	0.25796	0.24928	0.24037	0.20751	0.20198	0.063929	0.11735	0.17242	0.042009	-2.1521	-2.2938	-2.0917	-2.6396	-2.1854	-2.3167	-2.6833	-2.1979	-2.4896	-2.4375	-2.0854	-2.7687	-2.3667	-2.3688	-2.5	-2.2979	54.868	-68.132	175.263	181.842	-24.803	72.560	58.105	135.036	-108.951	148.593	181.089	-52.744	128.924	-142.535	16.383	129.426	0.0011626	0.00019908	0.00018816	1336.3	7.853e-06	3.0083e-06	1338.4	362.31	9.9545e-06	5.2545e-06	414.84	138.68	121.45	41.499	5.3757e-06	51.137	0.00052383	0.00047911	0.00013903	1357.6	5.4712e-06	5.2731e-06	1358	369.83	5.4074e-06	5.2633e-06	422.85	142.3	123.73	42.696	5.2577e-06	52.777	7.992	-62.111	-40.882	-137.110	7.701	-12.759	-137.436	-132.782	-33.515	-7.782	-133.119	-128.959	-128.577	-123.531	24.054	-124.394	-8191	255	
28480.203	1	1	0	0	0.14311	0.39568	0.28853	0.06811	0.059744	0.10997	0.20076	0.095296	0.042026	0.054834	0.24638	0.058642	0.45843	0.44695	0.13753	0.089416	-1.9833	-2.5438	-2.2417	-2.4938	-2.2229	-2.3375	-2.6854	-2.3146	-2.4833	-2.5	-2.1979	-2.8312	-2.4375	-2.5167	-2.5625	-2.3229	20.348	-89.007	204.188	188.523	67.187	-42.355	95.496	85.649	50.283	14.445	102.471	111.597	119.439	169.623	-147.787	148.279	0.0011306	0.00046916	6.025e-05	1332.7	1.5952e-05	5.9471e-06	1338.1	362.69	8.9549e-06	7.9046e-06	412.04	139.16	120.7	41.459	6.4105e-06	51.128	0.00052964	0.00047234	0.00013741	1355.5	5.4243e-06	5.3912e-06	1359.6	369.83	5.4332e-06	5.2887e-06	423.35	142.33	123.7	42.626	5.3771e-06	52.792	8.754	-70.953	-121.665	-137.083	-9.419	4.583	-137.399	-132.695	28.721	2.862	-133.126	-129.179	-128.585	-123.490	-18.169	-124.537	-8191	255	
28480.299	1	1	0	0	0.1631	0.13035	0.058816	0.17142	0.19971	0.31847	0.32909	0.3623	0.28612	0.044748	0.20934	0.088555	0.03049	0.21427	0.076642	0.25485	-1.7646	-2.525	-2.2229	-2.8271	-2.4229	-2.2729	-2.6146	-2.1833	-2.45	-2.5854	-2.2896	-2.6125	-2.3875	-2.1708	-2.5938	-2.2521	-18.437	181.959	-35.790	138.910	157.154	-32.775	136.975	178.291	-63.437	63.104	138.042	-141.932	133.509	-45.378	-5.318	-146.938	0.0010924	0.00041645	0.00014885	1336	8.4653e-06	4.3502e-06	1333.3	362.51	1.1294e-05	6.0394e-06	413.88	139.05	120.73	41.538	4.5496e-06	51.183	0.00053589	0.00048049	0.00013706	1358.6	5.3747e-06	5.2769e-06	1357.4	370.15	5.1908e-06	5.0831e-06	423.04	142.44	123.74	42.759	5.0008e-06	52.868	10.049	-75.110	-38.210	-136.965	-45.625	-0.516	-137.538	-132.567	-5.010	-7.286	-133.269	-128.879	-128.293	-123.565	-19.128	-124.169	-8191	255	
28480.395	1	1	0	0	0.10362	0.20286	0.04771	0.36218	0.096553	0.080764	0.21261	0.21398	0.10753	0.075526	0.20682	0.19673	0.10864	0.20309	0.030689	0.12129	-1.9333	-2.4375	-2.1458	-2.5687	-2.2438	-2.1333	-2.6833	-2.4	-2.35	-2.6542	-2.3104	-2.4062	-2.7104	-2.25	-2.5458	-2.3958	-49.657	32.810	163.678	142.961	74.581	139.302	142.424	96.287	-148.482	-126.791	104.942	-86.217	-88.090	114.384	174.304	30.143	0.0011209	0.00026544	0.00015439	1337.4	9.9871e-06	2.6625e-06	1333.9	361.91	8.4855e-06	5.292e-06	415.76	139.52	121.17	41.754	5.0258e-06	51.314	0.00050793	0.00045502	0.00012709	1357.8	4.9583e-06	4.9727e-06	1357.8	370.6	4.9406e-06	4.823e-06	423.02	142.5	123.94	42.826	4.948e-06	52.794	11.446	-49.957	-54.772	-137.074	-22.860	-59.754	-137.306	-132.492	-15.182	10.099	-133.268	-129.018	-128.090	-123.526	-6.978	-124.421	-8191	255	
28480.516	1	1	0	0	0.14336	0.049764	0.095792	0.10058	0.11699	0.17624	0.17869	0.11029	0.23621	0.22923	0.13433	0.16023	0.19255	0.29959	0.055744	0.17008	-1.8833	-2.4917	-2.1354	-2.5604	-2.4771	-2.0979	-2.7	-2.5729	-2.2583	-2.625	-2.3958	-2.45	-2.5333	-2.3146	-2.6167	-2.5479	158.878	192.453	-15.088	-81.500	-40.816	116.103	88.323	159.654	59.693	-99.957	-5.916	-17.180	154.830	193.803	-78.622	127.572	0.0010404	0.0004501	0.00016511	1333.6	5.7435e-06	4.0148e-06	1334.5	364.21	8.4639e-06	6.3856e-06	417.03	139.41	121.5	41.57	6.2145e-06	51.107	0.00051305	0.00046726	0.00012818	1358.4	5.1883e-06	5.1973e-06	1360.2	370.87	5.3423e-06	5.2708e-06	423.57	142.53	123.96	42.808	5.2895e-06	52.838	11.032	-86.317	-77.211	-137.088	-6.620	-1.598	-137.345	-132.682	-9.709	-4.678	-132.954	-128.875	-128.356	-123.418	3.491	-124.388	-8191	255	
28480.609	1	1	0	0	0.14793	0.2141	0.35216	0.26984	0.13094	0.02943	0.31187	0.066894	0.13787	0.27882	0.043187	0.093966	0.11315	0.25597	0.039158	0.22749	-1.9625	-2.6271	-2.2062	-2.5854	-2.4813	-2.1562	-2.6104	-2.5146	-2.0833	-2.6646	-2.1542	-2.4688	-2.6708	-2.2208	-2.3896	-2.6188	-93.471	135.590	-51.682	144.529	50.370	-119.278	179.480	-32.937	15.809	71.938	203.027	-68.680	-150.046	-133.726	-53.733	148.974	0.0011217	0.00052158	0.00013747	1343.7	8.3501e-06	4.2071e-06	1341.1	364.14	7.0274e-06	5.9319e-06	415.38	139.62	121.48	41.637	6.0624e-06	51.243	0.00054415	0.00047524	0.00013351	1363.1	5.3724e-06	5.332e-06	1363.5	371.27	5.3418e-06	5.1927e-06	423.93	142.88	124.02	42.774	5.1448e-06	52.844	7.891	-67.976	-45.883	-137.225	5.362	-5.196	-137.403	-132.818	3.475	1.982	-133.136	-128.807	-128.274	-123.505	-36.652	-124.449	-8191	255	
28480.707	1	1	0	0	0.22906	0.094047	0.067254	0.24084	0.064717	0.083896	0.13709	0.39267	0.15182	0.12514	0.18979	0.34925	0.38998	0.043655	0.12402	0.054871	-1.7625	-2.3979	-2.3833	-2.4896	-2.4792	-2.075	-2.6229	-2.5167	-2.2104	-2.6333	-2.5104	-2.2438	-2.7771	-2.2479	-2.4292	-2.5375	40.951	32.862	192.040	-105.272	-49.959	1.848	-103.329	104.477	-0.023	49.401	165.534	185.057	172.688	60.656	97.831	31.654	0.0011285	0.00034586	0.00013513	1339.8	1.4467e-05	7.2084e-06	1344.5	365.02	7.7403e-06	1.8302e-06	415.84	140.55	121.83	41.583	7.5984e-06	51.413	0.00052721	0.0004651	0.00012948	1363.9	5.2698e-06	5.1561e-06	1364.5	371.34	5.223e-06	5.145e-06	424.55	143.27	124.4	42.862	5.0192e-06	52.946	11.217	-62.656	-65.611	-137.091	-27.390	-42.059	-137.453	-132.688	-25.497	22.647	-133.119	-128.681	-128.665	-123.271	-19.049	-124.402	-8191	255	
28480.803	1	1	0	0	0.13729	0.015658	0.2039	0.22688	0.27664	0.099783	0.090922	0.092796	0.14594	0.14461	0.26568	0.092788	0.056684	0.16249	0.15413	0.23485	-1.7354	-2.5292	-2.4542	-2.5896	-2.6083	-2.3042	-2.5354	-2.7146	-2.1958	-2.6521	-2.5271	-2.4396	-2.95	-2.3979	-2.3271	-2.5021	-82.746	50.127	89.704	109.951	75.845	177.975	-136.809	96.830	175.692	96.364	183.490	171.049	93.567	-102.990	165.734	-81.635	0.001125	0.00054239	0.00016366	1343.1	8.7822e-06	5.8879e-06	1342.5	364.51	1.0587e-05	4.3205e-06	417.7	140.1	121.73	41.829	6.1753e-06	51.33	0.00052117	0.0004726	0.00012658	1364.4	5.1921e-06	5.1661e-06	1366.6	371.24	5.129e-06	5.0332e-06	424.77	143.31	124.33	42.9	4.9097e-06	52.958	11.708	-59.832	-53.595	-137.166	-3.747	-10.107	-137.421	-132.819	-8.131	0.723	-133.259	-129.069	-128.039	-123.814	-5.756	-124.450	-8191	255	
28480.898	1	1	0	0	0.14145	0.039861	0.15335	0.24734	0.06685	0.21488	0.23224	0.11974	0.1088	0.0759	0.087842	0.17298	0.17452	0.15833	0.064251	0.25385	-1.775	-2.5167	-2.4771	-2.4521	-2.5646	-2.4542	-2.6292	-2.6979	-2.1667	-2.7146	-2.5771	-2.3292	-2.5812	-2.3688	-2.4771	-2.5979	133.820	22.461	99.411	108.138	146.731	-34.729	195.236	-19.168	48.993	-64.146	120.967	-80.930	176.812	32.316	18.863	75.259	0.0011041	0.00049239	6.5309e-05	1345.5	1.0907e-05	3.6541e-06	1344.4	363.85	1.0072e-05	5.2254e-06	416.53	139.82	121.71	41.995	8.7596e-06	51.471	0.00051464	0.0004525	0.00012748	1365.9	5.1146e-06	5.0096e-06	1365.2	371.56	5.175e-06	5.0812e-06	423.94	143.11	124.32	42.971	5.0213e-06	52.975	10.380	-56.251	-14.443	-136.969	-28.007	22.427	-137.536	-132.715	-9.152	-19.230	-132.960	-128.934	-128.657	-123.808	-6.972	-124.217	-8191	255	
28480.994	1	1	0	0	0.045446	0.11834	0.099323	0.15974	0.2274	0.084551	0.091526	0.10801	0.12903	0.17526	0.014925	0.22009	0.067892	0.11208	0.12413	0.15108	-1.9042	-2.3479	-2.5062	-2.2812	-2.4354	-2.4813	-2.4229	-2.6375	-2.3063	-2.4896	-2.6083	-2.1542	-2.6271	-2.2062	-2.2125	-2.7896	-133.483	67.643	-121.100	135.583	200.873	-141.880	-119.914	77.989	-130.133	26.785	91.178	8.537	21.984	95.529	-49.630	-108.401	0.0012207	0.00058039	0.00014327	1347.7	1.0774e-05	6.461e-06	1348.4	362.7	1.1109e-05	7.1009e-06	414.77	140.14	121.56	41.793	5.2337e-06	51.306	0.00052302	0.00047168	0.00013103	1366.5	5.1933e-06	5.1034e-06	1367.3	371.14	5.2644e-06	5.0544e-06	424.18	143.18	124.23	42.949	5.1065e-06	52.884	8.886	-75.212	-75.335	-137.189	-29.735	-3.040	-137.643	-132.760	-1.311	1.021	-133.064	-128.900	-128.468	-123.519	-25.997	-124.250	-8191	255	
28481.115	1	1	0	0	0.16038	0.14698	0.15657	0.090416	0.2063	0.12058	0.28857	0.15835	0.022489	0.14663	0.25303	0.055741	0.11122	0.080272	0.10659	0.25583	-1.7979	-2.4479	-2.4479	-2.3312	-2.5417	-2.5	-2.4875	-2.6792	-2.2625	-2.3125	-2.7292	-2.475	-2.7021	-2.4646	-2.1792	-2.5542	-90.350	-97.838	123.053	92.448	-69.360	142.082	179.666	169.424	-7.551	59.724	185.511	152.820	-72.631	-118.138	117.003	10.488	0.001222	0.00048886	0.00016155	1338.6	1.162e-05	5.7118e-06	1343.5	363.63	1.2601e-05	4.889e-06	416.26	140.12	122.13	41.745	4.6429e-06	51.608	0.00052797	0.00045233	0.00012694	1363.6	5.1024e-06	4.864e-06	1366	370.54	4.8913e-06	4.7595e-06	423.73	143.36	124.48	42.84	4.6025e-06	53.09	9.448	-68.625	-89.503	-137.075	-40.835	30.262	-137.445	-132.648	-27.439	25.364	-133.204	-128.790	-128.214	-123.593	-48.897	-124.603	-8191	255	
28481.213	1	1	0	0	0.072321	0.051662	0.28738	0.13248	0.17872	0.1665	0.17564	0.11795	0.29889	0.20058	0.19044	0.13254	0.32644	0.29182	0.18496	0.20485	-1.7521	-2.1667	-2.4479	-2.4854	-2.3292	-2.4354	-2.2167	-2.7146	-2.3854	-2.2646	-2.6104	-2.3146	-2.4958	-2.5146	-2.0354	-2.6375	-36.415	-72.414	-149.608	-123.961	190.255	-80.748	169.758	8.802	145.461	-6.188	169.216	8.063	-106.248	-108.561	61.113	101.250	0.0010585	0.00032048	0.00017257	1345.8	3.7647e-06	3.1386e-06	1341.7	363.23	8.3572e-06	4.5906e-06	415.94	140.92	121.83	41.775	5.2471e-06	51.767	0.00047996	0.00041481	0.00011449	1363.7	4.5211e-06	4.4386e-06	1365.3	370.52	4.5151e-06	4.5409e-06	424.03	143.85	124.8	43.044	4.6807e-06	53.215	8.733	-70.472	-74.296	-137.171	-41.102	2.937	-137.368	-132.713	1.051	-28.577	-132.934	-128.763	-128.538	-123.560	13.227	-124.345	-8191	255	
28481.309	1	1	0	0	0.18964	0.13781	0.19028	0.20627	0.10036	0.21372	0.22138	0.3189	0.22075	0.1526	0.21948	0.28718	0.24972	0.1054	0.044938	0.12833	-1.8625	-2.2167	-2.4979	-2.3917	-2.4125	-2.4896	-2.3521	-2.6625	-2.3542	-2.4542	-2.725	-2.2417	-2.5042	-2.7458	-2.2062	-2.5479	74.687	139.015	117.187	170.572	34.788	-22.142	147.056	-131.266	100.360	-94.666	93.568	-105.888	-113.364	-77.338	-8.713	175.257	0.0010539	0.00036491	0.0002279	1341.6	7.006e-06	3.3481e-06	1341.8	364.4	7.6156e-06	3.587e-06	417.78	140.78	122.57	41.837	7.5189e-06	51.388	0.00047067	0.0004203	0.00011732	1363.3	4.6617e-06	4.6061e-06	1366.5	371.04	4.7368e-06	4.731e-06	424.58	143.8	124.7	42.974	4.8737e-06	52.955	11.768	-58.522	-58.422	-137.105	-24.872	9.247	-137.327	-132.539	20.447	-23.383	-133.046	-128.845	-128.222	-123.736	-23.067	-124.439	-8191	255	
28481.381	1	1	0	0	0.19465	0.062878	0.10423	0.11835	0.071864	0.21029	0.18549	0.03208	0.13966	0.30421	0.053978	0.095023	0.15324	0.21173	0.091684	0.16312	-1.95	-2.3063	-2.6854	-2.5875	-2.2875	-2.7521	-2.4167	-2.625	-2.5271	-2.2354	-2.8625	-2.3833	-2.2958	-2.7167	-2.1437	-2.6083	94.639	-77.189	53.900	144.035	145.938	39.769	168.608	-43.890	74.450	73.563	150.153	2.092	-89.002	102.255	110.784	200.779	0.0011386	0.00040238	0.00011427	1342	5.4254e-06	4.0704e-06	1344.9	363.03	8.8215e-06	7.332e-06	415.56	140.54	122.48	41.782	8.6434e-06	51.441	0.00049689	0.00044227	0.00012136	1363.1	4.9299e-06	4.9079e-06	1368.1	370.24	4.8514e-06	4.9654e-06	423.85	143.5	124.73	42.924	4.9265e-06	53.009	9.851	-53.533	-62.568	-137.281	19.895	-29.139	-137.314	-132.532	21.136	1.701	-133.201	-128.887	-128.350	-123.549	-18.841	-124.257	-8191	255	
28481.477	1	1	0	0	0.32703	0.10919	0.20672	0.34375	0.17824	0.18656	0.29731	0.27008	0.20851	0.038123	0.14888	0.17458	0.24187	0.024503	0.086095	0.22083	-1.9875	-2.0583	-2.3312	-2.2875	-2.1375	-2.4896	-2.2	-2.675	-2.2438	-2.3083	-2.6312	-2.2562	-2.2604	-2.6917	-2.3063	-2.4437	31.793	154.328	132.731	183.128	153.888	170.123	176.010	134.190	161.091	-73.848	-15.654	138.098	-110.427	180.260	87.914	195.242	0.0011123	0.0005733	9.8222e-05	1343.7	4.6173e-06	4.0898e-06	1339	363.38	5.5867e-06	6.0218e-06	415.26	140.55	121.77	41.707	3.3178e-06	51.565	0.00049319	0.00044396	0.00012174	1363.8	4.7775e-06	4.7939e-06	1364.5	370.09	4.8335e-06	4.7686e-06	424.16	143.33	124.37	42.857	4.6551e-06	53.001	7.354	-69.755	-75.655	-137.247	-62.527	-34.032	-137.403	-132.829	-27.671	-2.752	-132.735	-128.621	-128.329	-123.659	-27.569	-124.513	-8191	255	
28481.596	1	1	0	0	0.089061	0.064769	0.21427	0.21856	0.2569	0.010691	0.10912	0.20178	0.044371	0.045603	0.18635	0.1423	0.10177	0.26105	0.23895	0.1661	-2.0958	-1.9771	-2.5792	-2.6813	-2.3688	-2.5583	-2.4125	-2.4771	-2.4104	-2.1229	-2.6437	-2.4854	-2.1708	-2.7396	-2.2729	-2.3458	144.832	3.742	-132.557	116.641	169.659	133.708	136.546	111.734	83.442	157.872	61.111	146.018	202.775	125.917	-45.138	39.452	0.001117	0.00044446	0.00011006	1345.5	1.2365e-05	4.8988e-06	1346.7	363.57	7.4048e-06	4.9835e-06	415.21	140.66	121.8	41.75	3.4654e-06	51.309	0.00048117	0.00043008	0.00011424	1364.1	4.8405e-06	4.5897e-06	1367	370.05	4.8358e-06	4.7265e-06	424.05	143.13	124.15	42.928	4.8532e-06	52.925	5.776	-66.184	-50.109	-137.139	-5.873	34.143	-137.407	-132.671	-55.499	-18.801	-133.030	-128.925	-128.574	-123.763	-25.634	-124.696	-8191	255	
28481.691	1	1	0	0	0.11906	0.12278	0.029989	0.25155	0.30472	0.17497	0.19108	0.28744	0.24261	0.088322	0.23487	0.12569	0.10405	0.24072	0.079257	0.13879	-2.0854	-2.1667	-2.5104	-2.5833	-2.3792	-2.6271	-2.5208	-2.2125	-2.6729	-2.2833	-2.5854	-2.625	-2.2958	-2.6625	-2.3812	-2.5	-111.346	-86.394	-76.911	130.561	110.019	58.881	106.546	207.882	105.690	-69.247	-145.444	144.185	-9.250	-27.302	-4.814	-78.584	0.00097437	0.00039913	0.00020663	1342.4	4.6435e-06	6.0964e-06	1348.5	362.54	9.0855e-06	6.3343e-06	414.67	139.97	121.66	41.704	4.5066e-06	51.108	0.0004991	0.0004442	0.00012405	1363.4	5.0533e-06	4.8614e-06	1367.9	369.71	5.0506e-06	5.0276e-06	423.19	143.13	124.14	42.764	5.0246e-06	52.752	8.524	-40.786	-90.224	-137.301	19.611	-10.985	-137.435	-132.756	-13.626	-7.423	-133.169	-129.062	-128.446	-123.564	-8.964	-124.282	-8191	255	
28481.789	1	1	0	0	0.02701	0.12293	0.19945	0.26559	0.12473	0.24562	0.21478	0.17766	0.16519	0.1931	0.033348	0.10212	0.13145	0.3632	0.16984	0.1023	-2.2062	-2.0125	-2.3312	-2.5438	-2.1208	-2.5812	-2.4771	-2.3729	-2.5458	-2.3542	-2.5146	-2.6083	-2.2833	-2.5646	-2.4771	-2.3854	158.508	-129.688	-64.676	165.334	-71.003	-111.898	182.692	96.272	144.313	97.007	35.138	-146.422	-61.253	138.936	43.447	44.718	0.0010454	0.00030965	0.00018143	1341.8	8.4753e-06	6.0838e-06	1341.5	362.64	9.1272e-06	5.243e-06	413.26	140.03	121.39	41.593	4.9249e-06	51.118	0.00050957	0.00046801	0.00012436	1363.7	5.0482e-06	4.9918e-06	1365.1	369.06	4.9789e-06	4.8686e-06	422.52	143.06	123.99	42.695	4.9506e-06	52.781	12.122	-75.175	-65.688	-137.060	-80.354	17.509	-137.459	-132.698	-21.038	5.926	-132.974	-128.904	-128.285	-123.514	-14.835	-124.214	-8191	255	
28481.906	1	1	0	0	0.018635	0.077806	0.33302	0.25508	0.18779	0.076114	0.22227	0.33836	0.059159	0.091751	0.10385	0.22485	0.10963	0.091411	0.15053	0.12372	-2.0958	-2.1083	-2.4146	-2.6354	-2.0667	-2.4396	-2.6021	-2.3229	-2.5167	-2.4333	-2.3167	-2.5167	-2.1729	-2.7	-2.5583	-2.2729	86.104	-119.799	54.344	146.630	-85.920	-97.793	165.721	161.779	-88.106	-73.838	147.400	152.026	156.626	159.502	-9.631	65.845	0.0010517	0.00048837	6.7717e-05	1341.4	8.0237e-06	5.1776e-06	1340.8	362.66	7.8468e-06	6.4779e-06	413.88	139.97	121.15	41.535	5.8172e-06	51.344	0.00049514	0.00045511	0.00012477	1364	5.011e-06	4.7863e-06	1365.7	369.74	4.9804e-06	4.9536e-06	422.5	142.75	124.02	42.683	4.9387e-06	52.821	10.215	-70.731	-60.647	-136.971	-23.911	14.318	-137.526	-132.741	-20.263	-20.522	-133.159	-128.712	-128.258	-123.555	-22.088	-124.171	-8191	255	
28481.979	1	1	0	0	0.18124	0.22892	0.028626	0.1671	0.13875	0.2651	0.35427	0.36843	0.11632	0.1286	0.21065	0.21495	0.1978	0.063092	0.12125	0.20615	-2.0604	-2.4542	-2.2354	-2.6958	-2.3729	-2.6646	-2.6167	-2.3167	-2.6229	-2.4854	-2.4021	-2.6708	-2.1188	-2.45	-2.5125	-2.2521	88.153	-61.476	-75.864	191.670	94.917	-16.726	201.880	135.012	-81.057	-3.953	31.304	202.629	104.403	-54.276	122.338	155.900	0.0010296	0.00063371	0.00015013	1340.2	9.2613e-06	4.8828e-06	1342.7	362.43	9.0143e-06	7.2864e-06	413.13	139.6	121.89	41.507	5.8681e-06	51.201	0.00051331	0.00044295	0.00012564	1362.5	5.0578e-06	4.9523e-06	1364.3	369.73	4.9477e-06	4.8664e-06	422.32	142.82	123.9	42.675	5.0583e-06	52.7	5.093	-58.930	-78.798	-137.146	-15.896	-3.891	-137.410	-132.674	-13.091	-14.454	-133.182	-128.758	-128.151	-123.626	28.832	-124.454	-8191	255	
28482.074	1	1	0	0	0.08523	0.015575	0.28183	0.27725	0.072944	0.089059	0.29076	0.2082	0.098926	0.18489	0.18286	0.24184	0.16691	0.22194	0.23264	0.30732	-2.0792	-2.375	-2.3042	-2.6813	-2.3875	-2.4521	-2.7667	-2.3521	-2.6875	-2.5	-2.3354	-2.7083	-2.2896	-2.5375	-2.6188	-2.2521	33.605	168.697	31.334	133.708	154.632	-5.736	175.614	-112.920	73.109	201.386	124.761	204.763	-59.668	24.393	-46.829	160.352	0.0011664	0.00039988	0.00012437	1343.2	7.2613e-06	4.0284e-06	1343	361.96	7.3267e-06	5.9992e-06	415.36	139.4	121.34	41.563	5.7557e-06	51.14	0.00051042	0.00045296	0.00012633	1361.7	5.1232e-06	4.9767e-06	1364.2	369.3	4.9306e-06	4.8836e-06	421.71	142.48	123.66	42.669	5.1251e-06	52.683	11.194	-63.447	-77.178	-137.356	-3.306	-15.087	-137.375	-132.541	-26.449	-2.207	-132.940	-129.002	-128.489	-123.566	-0.348	-124.219	-8191	255	
28482.195	1	1	0	0	0.083547	0.15892	0.37556	0.12701	0.10421	0.15029	0.151	0.31428	0.37912	0.20594	0.12666	0.13641	0.20223	0.19093	0.13486	0.043713	-2.0854	-2.2833	-2.3083	-2.5062	-2.3937	-2.6792	-2.7938	-2.3146	-2.3854	-2.5812	-2.2708	-2.6521	-2.4979	-2.375	-2.5229	-2.2604	-32.295	170.012	-37.608	204.940	-51.920	-55.898	8.571	112.914	186.635	157.988	136.033	110.391	-49.424	-101.077	147.046	190.892	0.0010917	0.0003381	0.00015418	1337	8.5997e-06	6.4536e-06	1341.4	360.99	1.0125e-05	2.2833e-06	413.92	139.04	121.77	41.412	7.9353e-06	51.031	0.00050559	0.00045637	0.00013104	1360.9	5.07e-06	5.0418e-06	1363.2	368.68	4.8535e-06	4.9619e-06	422.16	142.47	123.84	42.561	4.8157e-06	52.58	6.709	-69.769	-58.188	-137.294	-31.186	7.206	-137.548	-132.602	-32.941	-7.093	-133.039	-128.754	-128.542	-123.489	-8.400	-124.259	-8191	255	
28482.293	1	1	0	0	0.083535	0.2162	0.23365	0.27913	0.066517	0.10162	0.19379	0.26918	0.17491	0.1302	0.19069	0.33435	0.054904	0.2532	0.21854	0.12531	-1.8604	-2.3625	-2.1229	-2.6979	-2.4042	-2.2333	-2.6021	-2.2875	-2.4333	-2.5604	-2.1958	-2.5708	-2.3958	-2.375	-2.7354	-2.3875	-103.350	29.870	121.966	150.192	141.234	-111.053	167.622	98.630	-83.539	-96.662	200.072	143.910	-40.990	-138.120	14.650	-130.994	0.0010877	0.00029077	0.00014982	1337.9	4.3114e-06	6.7113e-06	1341.6	361.17	8.7858e-06	6.5486e-06	413.83	139.17	121.05	41.498	5.9073e-06	50.924	0.00049755	0.00044428	0.0001281	1359.3	4.8955e-06	4.9351e-06	1361.7	368.07	4.9408e-06	4.8246e-06	421.51	142.27	123.56	42.525	5.0466e-06	52.547	9.133	-72.087	-56.782	-137.073	-78.676	20.069	-137.380	-132.820	-12.500	-17.642	-132.833	-128.886	-128.482	-123.522	0.533	-124.398	-8191	255	
28482.389	1	1	0	0	0.25388	0.17597	0.19259	0.17455	0.045795	0.21651	0.3375	0.22963	0.075844	0.14298	0.041922	0.20621	0.0578	0.113	0.072231	0.23431	-2.1188	-2.2604	-2.0438	-2.6146	-2.2208	-2.2271	-2.7438	-2.4333	-2.4042	-2.5771	-2.1854	-2.525	-2.3896	-2.325	-2.6292	-2.4188	-73.033	-106.939	-113.763	-145.259	-129.721	-24.037	162.356	141.438	-130.167	85.748	-11.998	139.887	44.911	-108.827	-36.887	-33.658	0.0011264	0.00034203	0.00018423	1336.5	6.384e-06	8.1464e-06	1339.1	360.92	2.7253e-06	4.7231e-06	411.15	139.38	121.08	41.492	3.6938e-06	50.671	0.00052003	0.00045611	0.00012848	1358.5	5.1161e-06	5.1443e-06	1360.4	367.88	5.1834e-06	5.0943e-06	420.36	142.09	123.31	42.453	5.0311e-06	52.407	12.927	-63.118	-53.177	-137.071	-31.091	-17.140	-137.415	-132.668	11.047	-10.756	-133.177	-128.820	-128.317	-123.692	11.895	-124.638	-8191	255	
28482.510	1	1	0	0	0.18848	0.077718	0.33098	0.1874	0.13829	0.27521	0.16882	0.21057	0.2612	0.16453	0.25198	0.07961	0.17352	0.1547	0.081767	0.10833	-1.8292	-2.6667	-2.1479	-2.6417	-2.5958	-2.2479	-2.7062	-2.2938	-2.1667	-2.5604	-2.3146	-2.5292	-2.5479	-2.3187	-2.4958	-2.6396	192.801	69.379	178.418	138.770	140.183	-3.585	-51.979	108.397	-140.934	-66.842	102.792	-43.816	150.446	-35.187	129.437	177.081	0.0011505	0.0004313	9.059e-05	1336.6	6.2249e-06	6.7472e-06	1340.2	360.27	7.9808e-06	6.293e-06	413.3	138.49	120.86	41.236	2.7805e-06	50.843	0.00051896	0.00047062	0.00013215	1358.4	5.147e-06	5.1319e-06	1360.6	367.68	5.1873e-06	5.1107e-06	420.63	141.66	123.17	42.423	5.0433e-06	52.55	11.486	-67.140	-60.966	-137.026	9.944	8.643	-137.253	-132.667	-19.145	8.665	-132.769	-128.764	-128.481	-123.497	-24.510	-124.394	-8191	255	
28482.605	1	1	0	0	0.17512	0.19092	0.16096	0.28542	0.34381	0.37567	0.10997	0.25019	0.075192	0.30526	0.18743	0.17461	0.14101	0.17208	0.13892	0.13326	-1.8438	-2.625	-2.1646	-2.7229	-2.4396	-2.2438	-2.7062	-2.4271	-2.2229	-2.6437	-2.2729	-2.5292	-2.6208	-2.1625	-2.5479	-2.5375	32.246	169.132	54.841	173.666	105.839	175.416	42.307	160.502	1.052	-38.946	-127.506	130.312	-71.732	-83.604	104.857	121.856	0.0011386	0.00038775	0.0001231	1337.2	1.0222e-05	4.3026e-06	1337	360.6	1.135e-05	5.6221e-06	414.41	138.77	120.58	41.175	4.413e-06	50.752	0.0005111	0.0004466	0.00012509	1357.2	4.9998e-06	5.0206e-06	1356.1	367.43	4.9079e-06	4.8329e-06	420.49	141.61	123.13	42.31	4.9229e-06	52.421	8.159	-58.344	-40.889	-137.246	-17.686	18.517	-137.439	-132.580	-27.031	-11.850	-133.061	-128.775	-128.451	-123.399	-24.331	-124.053	-8191	255	
28482.678	1	1	0	0	0.44496	0.05961	0.092934	0.23824	0.23878	0.21697	0.21712	0.3438	0.1757	0.051332	0.15773	0.11169	0.15506	0.040085	0.16796	0.26981	-1.8958	-2.5062	-2.5375	-2.6083	-2.6229	-2.3104	-2.7104	-2.5396	-2.1083	-2.6979	-2.4021	-2.3812	-2.7771	-2.4958	-2.3063	-2.6875	175.159	113.672	-72.648	128.538	77.242	156.388	179.778	203.147	-148.827	114.209	-150.317	-48.985	107.834	60.917	108.999	141.787	0.001018	0.00061124	0.00011725	1334.9	9.3915e-06	6.1523e-06	1338.6	360	9.7393e-06	5.5922e-06	412.21	138.56	120.25	41.232	4.3484e-06	50.889	0.00050895	0.00044128	0.00012605	1356.2	5.1257e-06	4.9329e-06	1359.2	367.13	5.0721e-06	4.9029e-06	420.52	141.9	122.96	42.393	4.9679e-06	52.336	9.584	-58.451	-71.872	-137.098	-43.556	-20.316	-137.165	-132.666	7.134	10.932	-133.212	-128.755	-128.596	-123.429	-68.552	-124.579	-8191	255	
28482.771	1	1	0	0	0.11914	0.24948	0.078098	0.24854	0.080696	0.031489	0.2506	0.23918	0.19173	0.14325	0.27442	0.17021	0.063837	0.11906	0.16669	0.18307	-1.7167	-2.5187	-2.3708	-2.4208	-2.8417	-2.2479	-2.6229	-2.6896	-2.2542	-2.6229	-2.4375	-2.3854	-2.6208	-2.3396	-2.4625	-2.5354	153.312	-31.125	-49.748	-146.920	87.812	-65.792	139.993	-6.298	-137.770	-8.765	-129.750	115.103	150.186	108.745	53.331	-32.261	0.0010216	0.00050025	8.5005e-05	1334.7	7.3897e-06	3.8579e-06	1334.2	359.39	1.0175e-05	7.4368e-06	413.76	138.32	121.04	41.198	1.9317e-06	50.75	0.0005077	0.00046605	0.00012764	1354.5	5.1622e-06	4.9364e-06	1357.6	367.27	5.1431e-06	5.0922e-06	420.7	141.65	123.19	42.351	5.0399e-06	52.317	9.329	-47.955	-76.306	-137.095	-46.194	-7.323	-137.280	-132.627	-9.382	14.186	-133.090	-128.882	-128.335	-123.506	-35.688	-124.235	-8191	255	
28482.893	1	1	0	0	0.081838	0.066482	0.10951	0.30923	0.077543	0.12452	0.25597	0.13854	0.085929	0.25423	0.25969	0.061973	0.14082	0.18432	0.19636	0.30726	-1.7917	-2.4667	-2.3896	-2.3125	-2.6771	-2.2021	-2.6688	-2.4813	-2.2333	-2.4854	-2.2333	-2.3792	-2.6604	-2.3458	-2.3458	-2.6917	-65.510	-11.701	49.878	185.198	-128.087	-50.495	144.481	204.447	-98.286	95.284	185.489	-1.659	-109.470	148.074	-113.146	197.812	0.0011991	0.00046679	0.00017259	1334.4	9.9449e-06	5.467e-06	1332.8	359.82	8.4973e-06	5.1685e-06	412.55	138.65	120.36	41.102	5.4062e-06	50.783	0.00052316	0.00045831	0.00013239	1356.3	5.1835e-06	5.2656e-06	1357.6	367.22	5.3219e-06	5.1619e-06	420.12	141.76	122.84	42.314	5.0179e-06	52.306	9.255	-87.252	-86.433	-137.127	3.189	16.813	-137.408	-132.647	0.520	-19.464	-133.042	-129.108	-128.413	-123.542	-6.790	-124.089	-8191	255	
28482.988	1	1	0	0	0.037599	0.024783	0.10242	0.18126	0.21224	0.30785	0.17122	0.16736	0.27899	0.15809	0.23994	0.35154	0.10636	0.10868	0.040724	0.3385	-1.7854	-2.5604	-2.3875	-2.4688	-2.5771	-2.3167	-2.5	-2.7521	-2.1896	-2.4083	-2.5312	-2.325	-2.5375	-2.3833	-2.2667	-2.5521	-29.640	159.964	-87.055	137.698	208.678	-117.429	133.313	131.121	-72.550	28.896	159.354	202.636	205.013	-110.016	-3.952	128.768	0.0010476	0.00028603	0.00012946	1334	9.3223e-06	4.6295e-06	1336.6	360.24	9.5943e-06	7.0975e-06	411.06	138.31	120.21	41.155	6.6999e-06	50.819	0.00052538	0.00046411	0.00013012	1356.1	5.1328e-06	5.0566e-06	1358.1	367.32	5.1579e-06	5.0295e-06	420.18	141.61	123.02	42.38	5.181e-06	52.439	12.938	-55.740	-45.686	-137.060	-25.238	11.144	-137.394	-132.622	-29.014	-17.649	-133.028	-128.908	-128.140	-123.376	-10.104	-124.170	-8191	255	
28483.084	1	1	0	0	0.17513	0.18197	0.26024	0.25955	0.22325	0.098991	0.088801	0.1089	0.1114	0.32508	0.30018	0.17708	0.12309	0.12453	0.10211	0.22076	-1.8646	-2.3771	-2.275	-2.3438	-2.4333	-2.1542	-2.5146	-2.7292	-2.0646	-2.6021	-2.6333	-2.05	-2.5833	-2.6437	-2.3	-2.5917	123.317	129.872	109.412	176.964	126.304	53.758	-98.405	151.014	16.657	130.630	46.412	128.401	151.670	156.434	128.632	110.614	0.0010334	0.00050644	0.0001194	1334.5	8.5816e-06	6.5173e-06	1334.5	361.18	8.1293e-06	3.8984e-06	412.77	138.61	120.6	41.15	5.3624e-06	50.884	0.00051631	0.00046496	0.00012961	1355.2	5.1277e-06	5.119e-06	1357.4	367.6	5.1168e-06	5.1134e-06	420.41	141.59	122.98	42.34	5.1572e-06	52.42	9.290	-56.155	-73.149	-137.159	-16.588	2.194	-137.389	-132.581	-39.246	-30.228	-133.139	-128.974	-128.347	-123.526	-16.610	-124.405	-8191	255	
28483.180	1	1	0	0	0.020727	0.1225	0.070809	0.1695	0.18346	0.29971	0.38755	0.3316	0.34538	0.25	0.033699	0.224	0.068001	0.21114	0.28752	0.1038	-1.6958	-2.3812	-2.6083	-2.3542	-2.4062	-2.4854	-2.4833	-2.6958	-2.2854	-2.3354	-2.5771	-2.1583	-2.45	-2.5438	-2.2229	-2.5521	158.012	-45.992	-84.471	156.152	-147.426	-47.610	156.556	175.275	26.100	12.810	-143.227	186.588	-53.320	-52.822	137.059	69.933	0.001061	0.00043418	0.00018128	1337.3	1.1276e-05	5.2048e-06	1335.2	359.88	1.1293e-05	5.3064e-06	412.11	138.4	120.21	41.333	2.7945e-06	50.982	0.00051788	0.00046445	0.00012655	1358.2	5.0589e-06	5.0047e-06	1357.2	367.41	5.1576e-06	5.0871e-06	420.45	141.73	123	42.372	4.9148e-06	52.414	12.772	-53.170	-70.348	-137.066	-48.732	-6.761	-137.424	-132.790	-12.081	22.853	-132.794	-128.715	-128.314	-123.652	-22.004	-124.557	-8191	255	
28483.275	1	1	0	0	0.10518	0.084482	0.089646	0.21805	0.17881	0.24013	0.36303	0.10453	0.11398	0.088417	0.21337	0.16702	0.20524	0.12385	0.10019	0.046502	-1.8937	-2.3729	-2.4292	-2.375	-2.5521	-2.725	-2.2687	-2.6104	-2.4104	-2.3063	-2.7542	-2.375	-2.6688	-2.4854	-2.0354	-2.7021	-117.915	-77.041	39.940	158.967	29.570	-148.672	119.667	-127.569	128.234	192.753	209.188	165.906	-130.488	70.069	-71.665	-41.234	0.00098649	0.00039105	0.00016435	1335.4	8.1105e-06	5.9557e-06	1335.1	358.83	1.1669e-05	4.2351e-06	412.75	138.81	120.29	41.178	6.9177e-06	50.857	0.00050101	0.00044166	0.0001234	1355.1	4.8403e-06	4.7791e-06	1356.2	367.52	5.058e-06	4.8785e-06	420.1	141.79	122.96	42.316	4.8716e-06	52.452	9.700	-47.542	-83.491	-137.171	-1.377	-13.187	-137.367	-132.771	-17.361	-26.869	-133.166	-128.908	-128.298	-123.547	-4.102	-124.447	-8191	255	
28483.371	1	1	0	0	0.11917	0.071668	0.14292	0.5212	0.093832	0.10993	0.21996	0.17437	0.11471	0.085734	0.22436	0.31852	0.13462	0.21513	0.15572	0.047067	-2.0521	-2.2583	-2.5646	-2.4229	-2.2271	-2.3771	-2.1271	-2.4333	-2.3187	-2.2396	-2.5583	-2.35	-2.2979	-2.6083	-1.8958	-2.5521	-0.628	73.718	95.500	162.828	89.426	-49.554	93.101	16.282	-149.681	98.636	168.140	-136.656	189.876	-140.968	49.915	-101.590	0.0010026	0.00059829	0.00014236	1332.4	9.159e-06	4.7025e-06	1336.8	359.79	8.8014e-06	6.6793e-06	413.07	138.7	120.4	41.303	3.5913e-06	51.005	0.00050027	0.00045494	0.00012244	1353.1	5.0609e-06	4.8963e-06	1358.2	367.5	4.95e-06	4.8573e-06	419.54	141.87	122.99	42.427	4.9734e-06	52.454	8.683	-61.020	-75.432	-137.151	-37.377	43.526	-137.187	-132.603	-12.527	-9.512	-133.021	-128.535	-128.345	-123.331	-18.477	-124.491	-8191	255	
28483.469	1	1	0	0	0.21326	0.23078	0.1345	0.2413	0.077413	0.31763	0.28859	0.036534	0.085397	0.13905	0.16788	0.25413	0.086101	0.1009	0.217	0.21787	-1.9188	-2.1271	-2.6063	-2.3208	-2.2646	-2.5167	-2.2667	-2.4167	-2.4458	-2.0458	-2.6083	-2.2771	-2.3292	-2.7271	-2.2583	-2.6354	-27.587	166.558	116.693	198.886	-76.613	207.348	134.753	135.651	-26.766	-149.953	180.711	165.240	86.124	-94.209	131.169	104.668	0.0010839	0.0004175	0.00021175	1331.2	6.5967e-06	6.6597e-06	1331.8	359.52	8.0312e-06	4.9334e-06	412.54	138.75	120.96	41.169	7.069e-06	50.808	0.00049751	0.00045132	0.00012078	1354.4	4.9211e-06	4.9114e-06	1355.9	367.2	4.8596e-06	4.8967e-06	420.77	141.92	123.12	42.377	4.7672e-06	52.35	8.871	-57.901	-61.245	-137.114	-33.384	-1.274	-137.414	-132.678	-19.232	33.359	-133.021	-128.898	-128.238	-123.565	-14.565	-124.515	-8191	255	
28483.590	1	1	0	0	0.086801	0.15571	0.22636	0.27281	0.19944	0.13394	0.28905	0.20215	0.15127	0.19036	0.14617	0.22379	0.36086	0.20552	0.084088	0.11263	-2.2792	-2.0729	-2.6542	-2.4938	-2.2604	-2.6292	-2.5271	-2.5812	-2.4437	-2.2354	-2.5271	-2.3917	-2.3479	-2.4729	-2.1167	-2.4958	-71.869	206.340	-32.145	111.167	197.471	83.447	114.834	105.053	142.503	-3.026	-121.104	-106.282	172.699	189.066	-37.251	163.095	0.0011287	0.00043316	0.00012829	1331.7	1.3321e-05	5.8379e-06	1332.2	360.16	9.1533e-06	7.3185e-06	413.55	138.61	120.22	41.356	7.3034e-06	50.855	0.00048601	0.0004332	0.0001166	1353.9	4.839e-06	4.6354e-06	1355.6	367.45	4.6933e-06	4.7265e-06	420.57	141.84	122.98	42.422	4.6494e-06	52.427	11.859	-60.045	-55.453	-137.206	-7.598	-16.085	-137.357	-132.591	-6.761	0.238	-133.109	-128.716	-128.393	-123.715	-17.179	-124.412	-8191	255	
28483.684	1	1	0	0	0.047049	0.23315	0.27393	0.14352	0.098339	0.24207	0.30211	0.18246	0.031984	0.070606	0.21029	0.12565	0.25358	0.16497	0.078769	0.20328	-2.1792	-2.1208	-2.5521	-2.6479	-2.2938	-2.3812	-2.4	-2.4458	-2.4979	-2.2687	-2.45	-2.5542	-2.2896	-2.6688	-2.2583	-2.3229	-46.410	-81.362	143.302	99.312	82.583	99.141	189.381	163.398	-107.482	12.581	65.252	21.047	-110.299	-114.594	71.077	188.574	0.0011765	0.00057276	0.00017628	1332.5	5.6273e-06	6.0903e-06	1330.9	358.9	8.0403e-06	6.8176e-06	412.61	139.08	120.21	41.149	4.8884e-06	50.739	0.00048772	0.00041566	0.00011533	1353.1	4.7653e-06	4.4875e-06	1355.3	366.96	4.5838e-06	4.6098e-06	419.85	141.79	123	42.37	4.6662e-06	52.399	9.438	-81.807	-41.911	-137.079	13.413	2.870	-137.360	-132.562	1.846	-0.449	-132.956	-128.942	-128.652	-123.500	13.047	-124.362	-8191	255	
28483.779	1	1	0	0	0.15228	0.08417	0.21029	0.03306	0.0909	0.1425	0.022936	0.13385	0.21595	0.064079	0.12714	0.086622	0.29201	0.16064	0.27628	0.14411	-2.1896	-2.0729	-2.3542	-2.825	-2.1104	-2.4896	-2.3708	-2.3125	-2.5208	-2.1625	-2.6125	-2.6688	-2.3146	-2.4396	-2.3042	-2.3625	85.127	27.594	-6.910	-113.836	204.444	64.386	-140.840	-110.074	58.456	196.228	-110.522	191.606	-129.097	106.218	24.318	-46.268	0.0010503	0.00064074	0.00017532	1332.2	5.5354e-06	5.0641e-06	1331.5	360.77	5.5914e-06	7.6549e-06	410.15	138.45	120.44	41.149	2.2731e-06	50.721	0.00048004	0.00041629	0.00011772	1351.7	4.7283e-06	4.4867e-06	1353.7	366.61	4.5919e-06	4.5436e-06	419.3	141.61	122.84	42.377	4.6805e-06	52.341	8.812	-84.721	-61.403	-137.137	-0.680	-31.409	-137.523	-132.566	-28.731	-4.649	-132.945	-128.910	-128.310	-123.530	25.737	-124.435	-8191	255	
28483.877	1	1	0	0	0.13849	0.12007	0.13279	0.21915	0.14775	0.23892	0.24272	0.13386	0.33759	0.35962	0.058055	0.23402	0.18293	0.37228	0.26696	0.13203	-2.1229	-2.2375	-2.3167	-2.65	-2.125	-2.55	-2.4542	-2.4854	-2.8021	-2.4667	-2.5979	-2.5458	-2.2	-2.5687	-2.6854	-2.2667	137.529	106.243	-119.158	190.667	66.287	175.042	203.183	-148.900	23.869	5.357	176.053	-117.383	124.297	-130.214	-112.141	190.351	0.0010561	0.00055797	0.00015861	1329.4	8.0144e-06	6.609e-06	1326.4	359.38	1.055e-05	3.857e-06	412.08	138.55	120.77	41.339	6.0565e-06	50.674	0.00047602	0.00041232	0.0001165	1352.4	4.7417e-06	4.5757e-06	1352.4	367	4.7689e-06	4.6884e-06	419.84	141.57	122.96	42.366	4.8211e-06	52.334	9.145	-67.156	-76.042	-137.066	-14.419	3.341	-137.451	-132.425	-13.553	-43.593	-133.197	-129.024	-128.562	-123.471	-19.921	-124.294	-8191	255	
28483.973	1	1	0	0	0.092354	0.15944	0.09873	0.38364	0.22832	0.14828	0.33493	0.23065	0.11131	0.1772	0.11201	0.084519	0.40133	0.28121	0.11194	0.15354	-2.1958	-2.3063	-2.3625	-2.9271	-2.2646	-2.5292	-2.7729	-2.3312	-2.6167	-2.3896	-2.3208	-2.6396	-2.1583	-2.4646	-2.4146	-2.3479	-22.201	-45.404	-58.724	181.293	-136.190	75.623	128.295	179.139	-38.716	-107.887	143.816	-40.171	194.283	163.663	129.867	-16.793	0.0011106	0.00053324	0.0001259	1330.4	1.0258e-05	4.7505e-06	1330.9	361.05	1.0907e-05	2.9584e-06	411.53	138.86	120.71	41.089	4.8329e-06	50.799	0.00048597	0.0004332	0.00012077	1350.2	4.7129e-06	4.6494e-06	1352.7	366.67	4.7191e-06	4.7879e-06	419.46	141.55	122.91	42.29	4.7154e-06	52.325	12.491	-78.756	-91.108	-137.061	-31.181	-10.210	-137.244	-132.620	-21.901	13.265	-133.056	-128.689	-128.154	-123.571	-30.642	-124.282	-8191	255	
28484.068	1	1	0	0	0.25483	0.20503	0.071608	0.12469	0.15508	0.20394	0.37867	0.138	0.26647	0.24893	0.25902	0.197	0.25177	0.18515	0.12764	0.21375	-2.0958	-2.4146	-2.3396	-2.8354	-2.1042	-2.4792	-2.7125	-2.3542	-2.4479	-2.45	-2.3896	-2.6875	-2.1813	-2.4521	-2.5312	-2.2729	-67.932	170.372	-11.183	104.930	110.556	130.111	112.980	-135.936	112.766	-144.946	133.347	-53.590	141.417	-49.565	109.745	83.507	0.0011162	0.00028253	0.00019925	1331.2	9.2156e-06	4.771e-06	1333.9	359.77	9.1967e-06	7.7442e-06	410.57	138.83	120.01	41.291	6.6736e-06	50.912	0.00047739	0.00041762	0.00012029	1350.7	4.6359e-06	4.6704e-06	1352.9	366.44	4.5567e-06	4.6506e-06	418.83	141.56	122.56	42.316	4.5518e-06	52.392	7.912	-34.211	-51.482	-137.124	-25.910	-5.068	-137.230	-132.424	-21.650	4.126	-132.902	-128.870	-128.455	-123.382	-50.644	-124.408	-8191	255	
28484.188	1	1	0	0	0.1347	0.19169	0.28821	0.21518	0.2544	0.26849	0.2322	0.14771	0.070039	0.16331	0.19141	0.37104	0.2896	0.12583	0.11274	0.20783	-2.0146	-2.4771	-2.2271	-2.7562	-2.3771	-2.3604	-2.5333	-2.125	-2.475	-2.3333	-2.2958	-2.6188	-2.4521	-2.3187	-2.5812	-2.2604	157.964	176.288	-3.788	153.325	92.188	165.894	120.827	176.149	42.505	18.195	157.599	159.083	176.214	185.106	31.268	102.165	0.0011053	0.00045014	0.00017279	1332	9.147e-06	5.2676e-06	1328.6	359.15	9.1906e-06	5.2343e-06	410.83	137.97	119.93	41.118	5.8017e-06	50.628	0.00047431	0.00041808	0.0001151	1350	4.5389e-06	4.5827e-06	1350.6	365.78	4.6824e-06	4.5318e-06	418.72	141.39	122.55	42.257	4.5904e-06	52.246	10.453	-63.861	-59.757	-137.100	-22.930	-24.491	-137.293	-132.770	-0.264	-10.917	-132.949	-128.644	-128.258	-123.463	-1.708	-124.431	-8191	255	
#DATA ENDS
