BOXY.EXE: ISS Imagent and Oximeter Data Acquisition Program Version 0.80
Ascii Record File

#ACQ INFORMATION
2  Detector Channels 
16  External MUX Channels 
1  Auxiliary Channels 
5000  Waveform (CCF) Frequency (Hz)
1  Waveforms Skipped 
30  Waveforms Averaged 
1  Cycles Averaged 
16  Acquisitions per Waveform 
10.0806  Updata Rate (Hz) 

#FILE INFORMATION
TRUE -- External MUX Channel results are PARSED.
FALSE -- AC DC and Phase are NOT grouped.
TRUE -- Companion Program Settings File CREATED.
FALSE -- AC data not excluded
FALSE -- DC data not excluded
FALSE -- Phase data not excluded
FALSE -- Auxillary Chn. data not excluded
Tab delimiters

#CALIBRATION STATE
TRUE -- Waveform Calibration Values APPLIED.


#AUX CALIBRATION VALUES
Val Type	aux-1	

Term	1.0000e+00	
Factor	0.0000e+00	


#WF CALIBRATION VALUES
A = Detector Channel
Val Type	A-AC1	A-AC2	A-AC3	A-AC4	A-AC5	A-AC6	A-AC7	A-AC8	A-AC9	A-AC10	A-AC11	A-AC12	A-AC13	A-AC14	A-AC15	A-AC16	A-DC1	A-DC2	A-DC3	A-DC4	A-DC5	A-DC6	A-DC7	A-DC8	A-DC9	A-DC10	A-DC11	A-DC12	A-DC13	A-DC14	A-DC15	A-DC16	A-Ph1	A-Ph2	A-Ph3	A-Ph4	A-Ph5	A-Ph6	A-Ph7	A-Ph8	A-Ph9	A-Ph10	A-Ph11	A-Ph12	A-Ph13	A-Ph14	A-Ph15	A-Ph16	

Term	0.00000e+00	0.00000e+00	0.00000e+00	0.00000e+00	0.00000e+00	0.00000e+00	0.00000e+00	0.00000e+00	0.00000e+00	0.00000e+00	0.00000e+00	0.00000e+00	0.00000e+00	0.00000e+00	0.00000e+00	0.00000e+00	0.00000e+00	0.00000e+00	0.00000e+00	0.00000e+00	0.00000e+00	0.00000e+00	0.00000e+00	0.00000e+00	0.00000e+00	0.00000e+00	0.00000e+00	0.00000e+00	0.00000e+00	0.00000e+00	0.00000e+00	0.00000e+00	0.00000e+00	0.00000e+00	0.00000e+00	0.00000e+00	0.00000e+00	0.00000e+00	0.00000e+00	0.00000e+00	0.00000e+00	0.00000e+00	0.00000e+00	0.00000e+00	0.00000e+00	0.00000e+00	0.00000e+00	0.00000e+00	
Factor	1.00000e+00	1.00000e+00	1.00000e+00	1.00000e+00	1.00000e+00	1.00000e+00	1.00000e+00	1.00000e+00	1.00000e+00	1.00000e+00	1.00000e+00	1.00000e+00	1.00000e+00	1.00000e+00	1.00000e+00	1.00000e+00	1.00000e+00	1.00000e+00	1.00000e+00	1.00000e+00	1.00000e+00	1.00000e+00	1.00000e+00	1.00000e+00	1.00000e+00	1.00000e+00	1.00000e+00	1.00000e+00	1.00000e+00	1.00000e+00	1.00000e+00	1.00000e+00	X	X	X	X	X	X	X	X	X	X	X	X	X	X	X	X	

B = Detector Channel
Val Type	B-AC1	B-AC2	B-AC3	B-AC4	B-AC5	B-AC6	B-AC7	B-AC8	B-AC9	B-AC10	B-AC11	B-AC12	B-AC13	B-AC14	B-AC15	B-AC16	B-DC1	B-DC2	B-DC3	B-DC4	B-DC5	B-DC6	B-DC7	B-DC8	B-DC9	B-DC10	B-DC11	B-DC12	B-DC13	B-DC14	B-DC15	B-DC16	B-Ph1	B-Ph2	B-Ph3	B-Ph4	B-Ph5	B-Ph6	B-Ph7	B-Ph8	B-Ph9	B-Ph10	B-Ph11	B-Ph12	B-Ph13	B-Ph14	B-Ph15	B-Ph16	

Term	0.00000e+00	0.00000e+00	0.00000e+00	0.00000e+00	0.00000e+00	0.00000e+00	0.00000e+00	0.00000e+00	0.00000e+00	0.00000e+00	0.00000e+00	0.00000e+00	0.00000e+00	0.00000e+00	0.00000e+00	0.00000e+00	0.00000e+00	0.00000e+00	0.00000e+00	0.00000e+00	0.00000e+00	0.00000e+00	0.00000e+00	0.00000e+00	0.00000e+00	0.00000e+00	0.00000e+00	0.00000e+00	0.00000e+00	0.00000e+00	0.00000e+00	0.00000e+00	-1.95322e+02	-1.31664e+02	-1.35514e+02	-1.83507e+02	-9.14092e+01	-5.93382e+01	-1.57852e+02	-1.62015e+02	-9.36674e+01	-6.54123e+01	-1.76234e+02	-1.71211e+02	-1.81698e+02	-1.78091e+02	-8.68548e+01	-1.51000e+02	
Factor	4.07472e-05	1.94038e-04	5.01386e-05	4.44362e-01	1.74494e-06	1.67566e-06	1.66286e-01	6.31906e-02	2.08765e-06	1.66474e-06	2.13853e-01	2.89034e-02	2.88634e-02	9.13376e-03	1.93495e-06	1.32076e-02	3.19055e-06	3.47120e-06	9.67125e-07	2.29784e-01	3.78690e-08	3.80063e-08	8.23849e-02	3.32550e-02	3.75348e-08	3.80335e-08	1.05779e-01	1.48008e-02	1.52162e-02	4.84302e-03	3.76195e-08	6.77457e-03	X	X	X	X	X	X	X	X	X	X	X	X	X	X	X	X	



#DISTANCE SETTINGS
A = Detector Channel
A-1	A-2	A-3	A-4	A-5	A-6	A-7	A-8	A-9	A-10	A-11	A-12	A-13	A-14	A-15	A-16	

2.5000e+00	3.0000e+00	2.5000e+00	3.0000e+00	2.0000e+00	3.0000e+00	1.5000e+00	3.0000e+00	3.0000e+00	3.0000e+00	3.0000e+00	3.0000e+00	3.0000e+00	3.0000e+00	1.5000e+00	3.0000e+00	

B = Detector Channel
B-1	B-2	B-3	B-4	B-5	B-6	B-7	B-8	B-9	B-10	B-11	B-12	B-13	B-14	B-15	B-16	

1.0000e+01	1.0000e+01	1.0000e+01	1.4400e+00	1.0000e+01	1.0000e+01	1.5100e+00	1.9400e+00	1.0000e+01	1.0000e+01	1.9900e+00	2.4900e+00	2.4100e+00	2.9000e+00	1.0000e+01	2.9800e+00	




#DATA BEGINS
time	group	step	mark	flag	A-AC1	A-AC2	A-AC3	A-AC4	A-AC5	A-AC6	A-AC7	A-AC8	A-AC9	A-AC10	A-AC11	A-AC12	A-AC13	A-AC14	A-AC15	A-AC16	A-DC1	A-DC2	A-DC3	A-DC4	A-DC5	A-DC6	A-DC7	A-DC8	A-DC9	A-DC10	A-DC11	A-DC12	A-DC13	A-DC14	A-DC15	A-DC16	A-Ph1	A-Ph2	A-Ph3	A-Ph4	A-Ph5	A-Ph6	A-Ph7	A-Ph8	A-Ph9	A-Ph10	A-Ph11	A-Ph12	A-Ph13	A-Ph14	A-Ph15	A-Ph16	B-AC1	B-AC2	B-AC3	B-AC4	B-AC5	B-AC6	B-AC7	B-AC8	B-AC9	B-AC10	B-AC11	B-AC12	B-AC13	B-AC14	B-AC15	B-AC16	B-DC1	B-DC2	B-DC3	B-DC4	B-DC5	B-DC6	B-DC7	B-DC8	B-DC9	B-DC10	B-DC11	B-DC12	B-DC13	B-DC14	B-DC15	B-DC16	B-Ph1	B-Ph2	B-Ph3	B-Ph4	B-Ph5	B-Ph6	B-Ph7	B-Ph8	B-Ph9	B-Ph10	B-Ph11	B-Ph12	B-Ph13	B-Ph14	B-Ph15	B-Ph16	aux-1	digaux	

2182.032	1	1	0	131840	0.09972	0.2841	0.02925	0.16917	0.20551	0.27142	0.0038648	0.26573	0.12427	0.016213	0.087052	0.19809	0.17904	0.056709	0.21238	0.088336	-2.7771	-2.7667	-3.0312	-3.1104	-2.6458	-3.0729	-3.1646	-2.8146	-2.9938	-3.05	-2.8042	-3.1229	-2.7521	-2.8667	-2.9938	-2.9417	19.259	43.598	129.980	51.766	87.987	336.403	327.394	243.202	233.405	239.754	213.071	-19.773	198.252	70.640	225.611	32.777	0.00364	0.015323	0.00062542	418.44	0.00018135	0.00020931	17.56	53.776	0.00025139	0.00013776	225.11	10.328	4.003	6.341	1.6911e-05	6.9811	0.099494	0.10771	0.028152	7105.9	0.0011841	0.0011586	2694.9	1070.7	0.0011676	0.0011307	3259.3	481.98	497.19	156.54	0.0010282	219.88	87.439	330.018	36.692	-8.477	196.306	36.226	-5.561	-3.687	189.228	35.222	-5.036	1.257	10.837	-3.578	25.211	0.802	-8191	255	
2182.128	1	1	0	131072	0.099452	0.13866	0.11354	0.23393	0.081598	0.095861	0.11918	0.198	0.21649	0.17158	0.15359	0.20301	0.22857	0.17508	0.18381	0.26409	-2.7333	-2.7417	-2.7333	-2.9479	-2.7729	-3.0417	-3.0854	-2.6667	-2.9396	-2.8667	-2.7083	-3.2667	-2.8	-2.9021	-2.9708	-2.7458	81.560	-5.692	177.646	199.031	225.619	17.293	322.676	314.745	34.144	102.105	134.965	311.386	327.851	295.293	-11.367	-11.319	0.0024016	0.02071	0.0011178	504.72	4.5123e-05	4.8891e-05	104.41	94.002	0.00012751	3.5251e-05	454.13	34.495	42.667	22.266	6.9188e-05	23.147	0.097871	0.097936	0.025789	6852.2	0.0011321	0.0010358	2669.3	1047.4	0.0010559	0.00095888	2924.4	472.9	480.69	147.88	0.00079444	212.96	79.698	336.240	258.817	-4.824	222.734	12.620	-7.324	-2.906	27.388	61.094	-4.144	0.677	-1.934	-0.915	333.928	2.913	-8191	255	
2182.224	1	1	0	131072	0.059216	0.288	0.034058	0.22104	0.11237	0.15993	0.17209	0.15094	0.15304	0.27361	0.069523	0.2572	0.24513	0.27762	0.098051	0.10497	-2.6104	-2.9062	-2.8	-3.1354	-2.8271	-2.8604	-3.1437	-2.8	-2.9417	-2.8146	-2.6833	-3.0729	-2.7208	-2.7167	-2.9396	-2.6771	84.214	106.219	1.147	164.947	127.939	120.393	211.140	303.549	107.590	170.524	50.254	276.807	234.632	270.387	70.786	1.012	0.0024845	0.013188	0.0008377	952.22	6.2099e-05	3.6021e-05	626.25	254.03	0.00017024	9.0488e-05	472.2	124.26	121.49	41.494	4.7425e-05	70.688	0.075951	0.074005	0.018919	5804.5	0.00080435	0.0007235	2480.3	932.59	0.00070854	0.00064219	2131.3	433.89	369.54	112.48	0.00050276	174.56	271.982	3.245	186.521	-5.307	20.843	-19.267	-7.952	-2.316	30.167	73.123	-3.673	0.422	-0.747	1.273	244.157	2.358	-8191	255	
2182.320	1	1	0	131072	0.090484	0.13819	0.018885	0.1356	0.078313	0.11796	0.25878	0.13112	0.1865	0.072842	0.13201	0.21597	0.14721	0.13759	0.069574	0.12102	-2.4917	-2.8563	-2.5417	-2.8667	-2.5375	-2.6896	-3.2271	-2.5938	-2.8083	-3.0938	-2.4271	-3.0896	-2.8667	-2.7875	-2.9375	-2.7458	175.697	196.563	119.950	279.556	173.343	278.711	250.261	323.318	19.470	246.823	320.272	281.416	17.201	334.070	157.627	267.572	0.0017928	0.008367	0.0029298	915.31	7.8329e-05	3.454e-05	1174.9	289.95	4.9839e-05	5.0581e-05	467.24	197.1	117.05	37.276	8.6421e-05	68.285	0.044297	0.042957	0.01151	3915.3	0.00045547	0.00041095	2052.1	668.78	0.00038454	0.00034702	1414.9	337.75	243.43	73.566	0.00028205	121.83	236.182	338.360	141.567	-6.521	35.513	47.917	-7.841	-2.711	7.775	33.069	-2.781	0.140	0.329	2.930	194.575	3.531	-8191	255	
2182.416	1	1	0	0	0.25506	0.13077	0.08642	0.087401	0.26557	0.37864	0.17803	0.14188	0.17652	0.18853	0.070372	0.16244	0.14354	0.21456	0.15052	0.10156	-2.0542	-2.7083	-2.4875	-2.8271	-2.5812	-2.5021	-3.0312	-2.5583	-2.6521	-2.6542	-2.4146	-3.0417	-2.65	-2.4813	-2.8854	-2.5333	63.084	18.770	299.825	286.394	5.023	41.400	260.576	18.040	79.291	198.081	143.940	286.903	200.713	33.043	240.597	189.653	0.00051994	0.001159	0.0017358	904.58	2.1899e-05	1.9546e-05	1214.7	288.49	1.5129e-05	2.4448e-05	466.29	194.39	116.53	36.901	7.4788e-05	68.645	0.022549	0.022069	0.0064716	2478.7	0.00023526	0.00021989	1707.7	501.34	0.00022727	0.00021523	1111.4	285.51	200.9	62.389	0.00022694	109.05	332.695	313.519	156.655	-8.116	94.924	33.699	-7.795	-3.115	217.594	4.775	-3.763	0.309	0.384	4.180	207.470	3.561	-8191	255	
2182.512	1	1	0	0	0.18408	0.08293	0.14554	0.2543	0.27526	0.018186	0.23228	0.22905	0.17314	0.13449	0.063847	0.19493	0.20262	0.090092	0.24921	0.20184	-2.4042	-2.85	-2.4104	-2.7917	-2.7	-2.3542	-3.0542	-2.8187	-2.6167	-2.9729	-2.6104	-2.9271	-2.6771	-2.5042	-2.5604	-2.675	282.001	6.439	41.293	286.559	210.956	223.382	14.086	335.604	20.533	116.982	256.111	-15.109	333.835	308.798	172.254	266.431	0.00073944	0.0044618	0.0020754	897.64	5.2594e-05	2.6046e-05	1217.7	285.59	4.4644e-05	6.6151e-05	464.69	193.5	111.9	36.501	3.913e-05	68.578	0.017851	0.018189	0.0058565	2238.1	0.00020877	0.00020416	1706.3	474.62	0.00020195	0.00019644	1070.3	271.08	185.52	59.979	0.0002039	101.25	55.567	143.176	137.560	-8.976	51.328	212.345	-7.675	-3.232	137.683	178.659	-3.409	0.114	0.923	5.152	87.465	3.524	-8191	255	
2182.633	1	1	0	0	0.15718	0.088481	0.072792	0.16481	0.064103	0.10803	0.11115	0.21137	0.1495	0.1156	0.23722	0.30609	0.14718	0.38167	0.24489	0.20043	-2.2021	-2.5625	-2.3854	-2.9875	-2.7875	-2.6167	-2.9771	-2.5917	-2.3479	-2.9229	-2.5417	-2.7604	-2.7958	-2.5167	-2.8646	-2.8125	53.979	63.662	283.856	272.639	112.589	86.829	330.533	244.302	230.588	330.563	315.214	294.507	75.512	301.144	274.131	179.906	0.00043	0.0037045	0.00071268	893.74	4.4114e-05	2.5738e-05	1202.4	279.46	1.2744e-05	5.2026e-05	456	185.86	108.06	33.879	2.6959e-05	65.088	0.014534	0.015544	0.0047435	1858.4	0.00014975	0.00015321	1528.4	397.39	0.00012881	0.00013331	824.91	229.73	149.3	47.978	0.00011292	81.859	156.057	138.755	69.513	-8.114	49.071	218.389	-8.004	-2.814	324.791	239.190	-3.731	0.346	1.484	5.732	81.155	4.285	-8191	255	
2182.727	1	1	0	0	0.24167	0.11503	0.16994	0.37755	0.14645	0.10398	0.21003	0.16634	0.22777	0.23696	0.13503	0.30118	0.23462	0.14625	0.075925	0.14532	-1.8875	-2.725	-2.4917	-2.5604	-2.8146	-2.5625	-3.0312	-2.6021	-2.4104	-3.0646	-2.6396	-2.4813	-2.8854	-2.4562	-2.4875	-2.6917	-5.847	84.638	54.914	307.865	148.566	152.971	47.729	224.076	91.950	226.092	46.544	331.554	8.460	280.244	8.020	86.908	0.00020346	0.0048086	0.00070641	885.61	1.1734e-05	2.798e-05	1192.6	277.8	6.3831e-06	2.8078e-05	461.61	183.34	107.18	33.423	3.192e-05	63.41	0.0077848	0.009098	0.0025956	1413.5	8.6615e-05	9.9864e-05	1381.8	350.05	8.4989e-05	9.6554e-05	695.38	212.69	136.28	44.363	8.4961e-05	76.429	80.240	112.692	294.213	-7.589	155.045	188.324	-7.930	-2.356	12.443	249.387	-4.109	0.748	1.463	6.154	57.378	4.875	-8191	255	
2182.825	1	1	0	0	0.42783	0.18485	0.15149	0.063349	0.18249	0.21676	0.20194	0.078745	0.15669	0.18106	0.19964	0.031675	0.075936	0.29592	0.08569	0.1629	-2.0146	-2.75	-2.5396	-2.4292	-2.7521	-2.4917	-2.8646	-2.7188	-2.3688	-2.9208	-2.6646	-2.5875	-2.7521	-2.4104	-2.85	-2.925	55.106	239.990	38.290	50.372	38.598	7.478	300.815	274.352	71.615	198.923	294.301	25.664	113.274	-16.914	36.659	132.377	0.0007374	0.0010921	0.0010859	879.37	2.5773e-05	1.2276e-05	1187.8	274.73	2.491e-05	1.9052e-05	457.75	182.25	105.83	32.866	1.1617e-05	63.079	0.0064161	0.0078181	0.0020508	1287.6	7.3176e-05	8.476e-05	1328	333.03	7.5228e-05	8.6542e-05	661.04	208.8	136.28	44.237	8.6112e-05	76.628	60.616	101.436	303.415	-7.587	137.580	21.800	-8.091	-2.401	217.362	267.950	-3.094	0.631	2.152	6.078	194.800	4.951	-8191	255	
2182.920	1	1	0	0	0.29561	0.18714	0.12195	0.10002	0.094536	0.070726	0.1617	0.13467	0.22709	0.16887	0.16118	0.17154	0.13981	0.30641	0.21004	0.20959	-1.7042	-2.7979	-2.5333	-2.6208	-2.9188	-2.5542	-2.7667	-2.9625	-2.4333	-2.8167	-2.7	-2.5375	-2.6917	-2.35	-2.4271	-2.8042	153.762	288.452	85.397	248.740	21.614	-19.666	324.736	168.208	288.517	91.358	295.967	331.624	268.650	20.361	99.988	-0.176	0.0015114	0.0012173	0.00054608	864.75	5.0021e-06	1.1348e-05	1184.1	274.57	3.0447e-05	2.7004e-06	452.87	180.11	105.04	32.203	1.2676e-05	61.965	0.007467	0.0087285	0.0022158	1322.7	8.7571e-05	9.3187e-05	1337	335.65	8.5994e-05	9e-05	660.47	206.91	137.38	43.076	8.1411e-05	74.726	72.273	172.053	-18.822	-6.965	84.598	105.373	-7.774	-2.352	189.652	61.038	-4.072	0.722	1.736	6.234	84.568	5.264	-8191	255	
2183.016	1	1	0	0	0.34747	0.15142	0.17808	0.18703	0.11634	0.16912	0.18138	0.084698	0.17336	0.10534	0.023013	0.30714	0.34914	0.15075	0.2997	0.090212	-2.0438	-2.7354	-2.4938	-2.4625	-2.8083	-2.6167	-2.7375	-2.7062	-2.4771	-2.6688	-2.6125	-2.725	-2.8937	-2.4979	-2.5833	-2.8583	141.144	85.830	232.483	227.618	103.303	73.228	329.806	188.049	111.811	-7.152	-4.057	280.742	80.140	164.466	285.323	237.529	0.00096377	0.00064869	0.00058798	867.46	2.0744e-05	1.2379e-05	1177.9	272.88	1.7389e-05	7.1883e-06	451.2	178.38	104.01	31.583	1.4023e-05	60.37	0.0074199	0.0079063	0.0020353	1293.3	8.6502e-05	8.3228e-05	1315	329.67	8.1148e-05	7.6295e-05	621.1	200.52	131.17	39.713	6.278e-05	70.881	76.728	26.738	43.758	-7.595	170.537	150.693	-8.005	-2.354	132.492	262.928	-3.423	0.909	1.896	5.783	148.994	5.707	-8191	255	
2183.112	1	1	0	0	0.092413	0.10977	0.20766	0.30293	0.14736	0.095212	0.094722	0.34373	0.16057	0.26369	0.18394	0.093283	0.29833	0.10005	0.07397	0.16549	-2.0125	-2.5333	-2.7167	-2.6042	-2.8667	-2.6729	-2.6688	-2.7313	-2.5708	-2.6708	-2.6104	-2.3646	-2.95	-2.4583	-2.4167	-3.0333	182.403	67.788	259.667	305.264	34.801	28.332	26.772	324.645	118.012	69.211	25.171	168.547	288.342	273.610	183.513	281.439	0.0002539	0.0013225	0.0002825	862	7.5779e-06	1.5183e-05	1180.3	270.59	4.5056e-05	2.0273e-05	454.23	175.09	102.67	31.152	1.1566e-05	59.504	0.0060843	0.0060757	0.0015572	1214.1	7.0059e-05	6.4438e-05	1277.4	319.79	6.7386e-05	6.1418e-05	585.53	195.85	125.88	37.903	5.35e-05	68.935	19.254	319.274	8.310	-6.615	307.539	160.915	-7.664	-1.795	16.398	20.008	-3.450	0.946	1.835	6.223	20.703	5.644	-8191	255	
2183.208	1	1	0	0	0.21701	0.14725	0.14932	0.051317	0.22145	0.039278	0.41638	0.13791	0.1309	0.20177	0.2413	0.18248	0.099599	0.13613	0.16203	0.090886	-2.0687	-2.6562	-2.9104	-2.2021	-2.7354	-2.5938	-2.6188	-2.8521	-2.5375	-2.6688	-2.8292	-2.5104	-2.6792	-2.6937	-2.3167	-2.9021	339.035	312.584	8.991	264.215	73.075	5.070	257.210	-6.343	27.179	99.854	278.288	320.832	331.463	11.776	-17.295	201.676	0.00065784	0.001711	0.00032228	861.58	1.5283e-05	8.8179e-06	1172	272.11	2.4371e-05	7.785e-06	449.09	176.04	102.32	31.228	2.6122e-05	59.993	0.0050946	0.0049882	0.0012747	1168.7	5.6524e-05	5.1544e-05	1246.8	312.83	5.2445e-05	4.833e-05	553.07	192.52	120.36	36.445	4.5522e-05	68.159	138.544	335.882	278.799	-6.953	7.235	113.529	-7.687	-2.091	20.548	325.744	-3.497	1.317	1.876	6.717	98.756	5.736	-8191	255	
2183.329	1	1	0	0	0.14425	0.29841	0.10266	0.096196	0.21541	0.044584	0.1671	0.19421	0.19474	0.1416	0.093499	0.25968	0.21842	0.27233	0.44026	0.15208	-2.0438	-2.4521	-2.8354	-2.4021	-2.8563	-2.8979	-2.7646	-2.9062	-2.5687	-2.3896	-2.8646	-2.5542	-2.7438	-2.7479	-2.4042	-2.9375	61.876	194.725	208.319	103.561	86.777	4.492	262.438	218.772	118.519	141.571	142.274	290.934	293.339	21.059	232.824	29.751	0.00055139	0.0020021	0.00030469	863.49	1.6811e-05	5.0384e-06	1171.6	274.22	5.2542e-06	7.596e-06	451.29	174.55	101.78	30.791	1.1369e-05	59.715	0.0042472	0.0042526	0.0011609	1143.4	4.8061e-05	4.3895e-05	1235.4	309.72	4.459e-05	4.1466e-05	547.46	189.49	116.42	35.136	4.1612e-05	66.297	66.547	239.502	104.735	-7.285	144.468	173.624	-7.605	-2.019	97.672	-9.755	-3.840	0.940	1.792	6.874	180.332	5.720	-8191	255	
2183.425	1	1	0	0	0.074875	0.22243	0.1663	0.15174	0.38196	0.24601	0.055027	0.41485	0.19875	0.2417	0.14152	0.2132	0.23838	0.31894	0.35131	0.15562	-2.3083	-2.5271	-2.8875	-2.4062	-2.7271	-2.8063	-2.8167	-2.8854	-2.6271	-2.5208	-2.7229	-2.7042	-2.7604	-3.0062	-2.6125	-2.875	322.197	228.449	320.983	300.997	241.148	280.371	277.124	-7.827	36.460	11.488	338.353	310.350	6.391	-9.230	238.051	331.754	0.00038596	0.00080042	0.00047212	860.61	8.7914e-06	5.8606e-06	1172.3	274.68	1.2141e-05	9.52e-06	456.69	175.88	102.1	30.532	1.0215e-05	59.368	0.0035113	0.0034934	0.0010346	1092.6	4.0228e-05	3.7379e-05	1232.1	305.88	3.8677e-05	3.6599e-05	546.4	188.07	113.7	34.337	3.8028e-05	64.933	117.542	235.991	150.894	-6.918	64.051	45.027	-7.276	-2.311	14.210	96.930	-3.121	1.180	2.204	7.093	199.888	5.731	-8191	255	
2183.521	1	1	0	0	0.11934	0.14579	0.21117	0.30822	0.17493	0.04984	0.4908	0.28663	0.074091	0.13107	0.19114	0.31839	0.18929	0.11195	0.12646	0.070132	-2.25	-2.5292	-2.6292	-2.4646	-2.6375	-2.7896	-2.675	-2.8625	-2.7958	-2.3125	-2.7958	-2.5417	-2.7146	-2.8125	-2.5083	-2.7792	75.768	-4.010	327.156	175.074	315.794	24.043	314.411	260.089	88.735	54.140	65.830	291.927	307.873	309.540	35.910	147.694	0.00057098	0.0020137	0.0003519	861.71	2.5169e-05	3.9006e-06	1172.9	275.82	7.7357e-06	1.6028e-05	453.93	174.98	101.41	29.779	1.0776e-05	58.425	0.0029181	0.0029025	0.0009005	1028	2.9255e-05	2.7026e-05	1206.4	293.13	2.4408e-05	2.3632e-05	505.24	179.06	106.78	31.652	1.9848e-05	60.379	74.120	63.454	88.273	-6.693	152.583	174.349	-7.457	-1.990	162.120	192.541	-3.257	1.377	2.064	7.310	192.447	6.250	-8191	255	
2183.593	1	1	0	0	0.11637	0.13371	0.11605	0.24457	0.085777	0.1593	0.29098	0.14735	0.10099	0.28436	0.12203	0.28033	0.37628	0.09155	0.12338	0.17829	-2.4583	-2.4542	-2.6646	-2.6271	-2.3604	-2.9042	-2.5687	-2.7	-2.875	-2.4542	-2.9208	-2.8771	-2.6	-2.9125	-2.4917	-2.8083	85.297	118.538	99.379	20.998	56.354	225.624	326.552	271.398	17.244	38.657	334.272	293.494	320.937	144.601	1.577	38.312	0.00047724	0.00058059	0.00015774	858.76	2.7727e-06	7.8657e-06	1160.4	281.17	2.5789e-06	7.9655e-07	472.2	172.67	101.53	29.985	7.7146e-06	59.416	0.0013072	0.0013718	0.00040176	902.82	1.2276e-05	1.2388e-05	1156.1	282.36	9.8705e-06	1.0649e-05	474.51	172.67	102.6	30.613	9.9313e-06	60.168	68.216	135.985	47.139	-7.336	62.470	122.932	-7.284	-1.808	126.335	283.152	-3.008	1.580	2.302	8.243	109.905	6.643	-8191	255	
2183.712	1	1	0	0	0.062188	0.10889	0.062946	0.20176	0.27767	0.15408	0.31731	0.21516	0.075767	0.033864	0.23242	0.2091	0.040055	0.31241	0.25411	0.29773	-2.4396	-2.3812	-2.7208	-2.7208	-2.4	-2.6875	-2.5646	-2.675	-2.8271	-2.2646	-2.6417	-3.0312	-2.6917	-2.6875	-2.5042	-2.6917	44.328	270.217	139.061	270.692	17.342	241.976	251.870	106.596	184.877	67.152	22.991	205.850	113.806	329.348	53.960	273.266	0.00067849	0.00093207	0.00017212	859.95	8.4482e-06	1.05e-05	1154.4	294.48	6.6393e-06	4.4798e-06	482.64	168.51	100.9	31.344	9.9108e-06	67.065	0.00074224	0.00084191	0.00024228	870.45	7.9877e-06	9.0791e-06	1142.4	293.72	7.8215e-06	9.341e-06	483.65	167.95	101.23	31.996	9.3372e-06	67.114	67.047	117.307	77.607	-7.106	94.143	198.341	-7.197	-1.621	88.922	196.620	-3.245	2.117	2.684	8.859	159.464	6.981	-8191	255	
2183.808	1	1	0	0	0.085682	0.11245	0.013234	0.18433	0.10933	0.29524	0.24078	0.38451	0.23859	0.23168	0.24095	0.37184	0.067259	0.41277	0.34615	0.23564	-2.2917	-2.2625	-2.6437	-2.6354	-2.5438	-2.8542	-2.75	-2.6583	-2.6875	-2.4854	-2.8812	-2.8583	-2.5125	-2.8896	-2.4437	-2.5646	249.584	34.208	97.993	237.040	306.207	243.485	258.610	298.072	222.048	148.455	246.729	-17.914	-5.621	334.190	178.486	265.853	0.0007241	0.0007827	0.00015915	883.99	1.407e-05	3.4211e-06	1146.4	297.54	1.3479e-05	1.0607e-05	465.62	160.66	95.813	39.086	1.1869e-05	76.957	0.00079428	0.00098042	0.00026473	905.95	1.0577e-05	1.2622e-05	1145.4	298.88	1.2925e-05	1.5668e-05	482.22	162.46	99.674	40.698	1.7249e-05	78.246	62.699	51.704	-14.200	-6.922	127.417	154.541	-6.934	-1.599	124.984	51.256	-2.162	2.284	2.889	8.480	78.913	6.532	-8191	255	
2183.906	1	1	0	0	0.089343	0.15025	0.1213	0.30899	0.18895	0.091329	0.30514	0.2492	0.23811	0.14817	0.19421	0.0339	0.22107	0.17427	0.12344	0.42414	-2.1854	-2.3542	-2.6958	-2.7292	-2.5312	-2.8667	-2.7062	-2.5042	-2.8896	-2.4792	-2.6167	-2.7521	-2.3896	-2.9583	-2.5396	-2.6708	253.477	248.695	238.471	287.540	183.585	132.598	294.382	235.008	179.137	-18.579	18.052	140.740	328.376	14.331	291.286	289.363	0.00089215	0.0011761	0.00010072	918.16	8.8615e-06	5.0386e-06	1143.3	276.46	5.5476e-06	1.5158e-05	447.94	159.03	94.973	41.913	6.9545e-06	81.922	0.0015809	0.0018324	0.00048507	973.71	1.9634e-05	2.0919e-05	1159.6	285.91	1.9573e-05	2.0597e-05	478.1	162.57	100.76	43.9	1.9772e-05	83.381	70.048	99.080	120.463	-6.551	156.267	164.327	-6.913	-1.250	291.335	149.928	-2.662	2.470	3.165	8.349	-14.473	6.560	-8191	255	
2184.025	1	1	0	0	0.17355	0.16995	0.22953	0.20063	0.2228	0.26019	0.18273	0.075735	0.16502	0.088838	0.13158	0.15384	0.16127	0.092988	0.095468	0.19522	-2.3812	-2.3625	-2.7188	-2.7208	-2.3521	-2.6437	-2.9	-2.6479	-2.8563	-2.625	-2.6729	-2.9042	-2.5042	-2.8937	-2.4667	-2.6667	-9.008	53.497	270.790	34.868	46.435	184.657	197.813	283.441	104.784	298.205	52.144	271.446	321.426	324.242	172.342	287.521	0.00081263	0.00037978	0.00027747	902.86	3.6983e-06	7.8453e-06	1134.3	267.14	1.5772e-05	8.2706e-06	427.96	153.51	90.963	41.484	1.4924e-06	79.044	0.0019226	0.0020621	0.00053674	981.63	2.3768e-05	2.3293e-05	1150.9	278.88	2.5894e-05	2.5767e-05	477.6	161.13	100.6	44.522	2.6986e-05	82.424	83.809	99.663	19.917	-6.513	129.365	92.268	-6.968	-1.307	55.488	24.782	-1.865	2.644	3.337	7.886	25.469	6.548	-8191	255	
2184.121	1	1	0	0	0.10677	0.17517	0.25349	0.12261	0.22433	0.0063516	0.18683	0.33158	0.08062	0.24495	0.10737	0.18757	0.14601	0.16639	0.36391	0.25735	-2.3812	-2.4042	-2.4271	-2.8438	-2.3979	-2.7333	-2.9042	-2.4896	-2.6646	-2.6104	-2.5896	-2.9104	-2.5375	-2.6896	-2.8063	-2.3375	140.979	210.225	276.959	-12.925	142.028	184.769	42.233	257.231	279.416	62.293	76.097	208.585	272.046	-11.555	298.331	323.201	0.00066068	0.0011324	0.00041183	899.12	2.0391e-05	1.5593e-05	1129.7	255.72	3.1396e-05	1.8234e-05	412.51	145.87	85.772	39.09	6.2455e-06	74.425	0.0028138	0.0028131	0.00074073	1043.4	3.5104e-05	3.3563e-05	1168.9	280.88	3.9938e-05	3.7814e-05	492.44	157.78	100.27	43.103	3.3286e-05	79.64	51.572	89.061	13.759	-6.596	-7.136	158.293	-6.903	-1.212	57.392	198.815	-2.444	2.670	3.558	8.070	325.310	6.767	-8191	255	
2184.192	1	1	0	0	0.17192	0.10057	0.13722	0.049446	0.11729	0.11254	0.14033	0.01842	0.028589	0.22745	0.20076	0.11593	0.030254	0.16751	0.079887	0.20852	-2.5583	-2.5354	-2.4562	-2.8688	-2.4417	-2.6354	-2.8646	-2.675	-2.6333	-2.7604	-2.5938	-3.0687	-2.4979	-2.6312	-2.7062	-2.3917	231.156	224.407	63.030	67.815	110.986	54.101	308.155	-9.814	103.318	204.191	330.867	289.048	235.706	110.542	200.064	269.055	0.0010238	0.00087308	0.00043733	889.9	1.1775e-05	1.1511e-05	1118.5	258.23	1.5204e-05	1.1134e-05	420.31	142.71	86.328	37.611	9.9665e-06	77.254	0.0032198	0.0030475	0.00077385	1058.1	3.3359e-05	2.9671e-05	1147.6	278.83	2.7121e-05	2.3889e-05	461.27	149.29	92.958	39.29	1.8004e-05	78.966	48.694	91.151	148.362	-6.438	30.224	288.801	-7.159	-1.277	41.198	133.714	-2.114	2.521	3.263	8.485	158.389	6.896	-8191	255	
2184.313	1	1	0	0	0.064046	0.12519	0.1958	0.23938	0.30015	0.19801	0.32095	0.17205	0.28268	0.22219	0.10628	0.15048	0.11226	0.19878	0.30099	0.17789	-2.2854	-2.6417	-2.4375	-2.85	-2.525	-2.6667	-3.075	-2.4708	-2.7729	-2.8354	-2.4917	-3.0708	-2.5917	-2.525	-2.9729	-2.6042	-6.227	223.088	109.618	337.677	116.629	53.574	310.929	261.376	303.972	81.379	219.464	286.047	43.860	96.674	245.021	30.260	0.0006308	0.00078419	8.4447e-05	906.35	9.3113e-06	2.6183e-06	1150	295.73	1.2031e-05	7.8005e-06	470.08	162.8	97.404	35.887	3.5205e-06	74.869	0.001608	0.001503	0.00041157	972.34	1.6621e-05	1.5134e-05	1151.8	301.87	1.5232e-05	1.4177e-05	489.2	165.36	101.12	36.872	1.4776e-05	76.281	64.679	7.732	82.788	-6.793	19.875	196.534	-6.848	-1.508	119.238	139.540	-2.651	1.970	2.825	8.407	119.932	6.899	-8191	255	
2184.409	1	1	0	0	0.066947	0.16642	0.1994	0.095092	0.2196	0.093027	0.2494	0.18248	0.16624	0.2275	0.11218	0.065576	0.22747	0.026537	0.11941	0.04612	-2.2375	-2.8958	-2.7271	-2.7979	-2.4333	-2.6583	-2.9146	-2.5792	-2.7396	-2.7458	-2.5167	-2.8563	-2.5438	-2.3833	-2.7479	-2.6958	33.647	154.244	168.527	291.934	87.692	76.706	311.300	208.588	42.015	149.452	3.029	301.350	298.870	247.837	335.046	-4.501	0.00062145	0.00081474	0.00036169	900.64	1.1165e-05	5.6512e-06	1148.8	305.2	1.0493e-05	3.3124e-06	485.72	168.01	101.4	35.175	9.5804e-06	74.419	0.0012618	0.0011962	0.00037053	955.29	1.3906e-05	1.309e-05	1147.8	309.98	1.3768e-05	1.2838e-05	502.95	170.37	103.83	36.176	1.4899e-05	75.489	62.135	98.030	75.800	-6.688	92.869	117.094	-7.010	-1.809	120.463	136.334	-2.356	2.022	2.557	8.211	148.457	6.806	-8191	255	
2184.505	1	1	0	0	0.23628	0.062965	0.15443	0.073438	0.13282	0.22124	0.073102	0.12742	0.10885	0.26031	0.18953	0.057412	0.12387	0.091361	0.15137	0.064176	-2.1562	-2.7667	-2.5854	-2.8729	-2.675	-2.5438	-2.9542	-2.6792	-2.6771	-2.9292	-2.5187	-2.7938	-2.8021	-2.6104	-2.7625	-2.5	333.239	123.418	19.417	329.812	-18.619	234.702	40.817	279.505	198.871	143.067	308.714	250.092	99.663	260.571	61.865	92.365	0.00067391	0.00055458	4.4609e-05	894.49	1.0022e-05	6.5049e-06	1138.5	304.48	1.2644e-05	5.5924e-06	489.55	167.04	99.876	34.3	6.015e-06	71.594	0.0011892	0.0011778	0.00038683	945.08	1.3323e-05	1.3034e-05	1143.8	308.64	1.3759e-05	1.3903e-05	506.28	168.79	103.01	35.472	1.7541e-05	73.265	74.956	89.910	75.538	-6.440	2.259	191.232	-7.158	-1.414	72.418	212.484	-2.784	1.903	2.695	8.433	131.967	6.662	-8191	255	
2184.626	1	1	0	0	0.3703	0.11732	0.24931	0.11957	0.077798	0.037089	0.41995	0.18731	0.033007	0.063484	0.069578	0.15997	0.14275	0.1488	0.14383	0.15263	-2.4292	-2.8271	-2.4062	-2.8417	-2.85	-2.5	-2.9771	-2.7896	-2.5812	-2.9313	-2.5312	-2.9917	-2.8688	-2.4354	-2.8458	-2.8167	178.649	161.758	5.923	163.717	242.080	8.518	223.458	258.357	28.032	105.440	240.925	29.384	235.178	233.786	-2.426	12.184	0.00069619	0.0010956	0.00024875	899.09	1.9213e-06	1.0243e-05	1146.6	301.88	9.4061e-06	1.9186e-06	474.75	162.43	100.57	32.364	8.3973e-06	68.132	0.0013537	0.0015064	0.00048767	967.11	1.6386e-05	1.8009e-05	1158.5	309.5	1.8605e-05	2.1017e-05	516.1	167.03	105.45	34.833	2.483e-05	70.815	72.469	47.036	33.494	-7.207	209.874	221.364	-7.176	-1.931	135.957	-13.606	-2.834	1.596	2.295	8.146	125.605	6.640	-8191	255	
2184.722	1	1	0	0	0.15359	0.3413	0.22162	0.021048	0.048345	0.064203	0.31913	0.27915	0.062431	0.084598	0.19371	0.035068	0.20979	0.10037	0.2721	0.16893	-2.1437	-2.9062	-2.6146	-2.8104	-2.8104	-2.525	-2.9229	-2.6437	-2.5375	-2.9625	-2.7083	-2.9146	-2.8854	-2.4625	-2.725	-2.9875	148.184	304.333	90.503	-3.434	11.199	8.769	264.311	284.217	61.765	100.678	310.514	103.509	67.313	116.538	296.956	147.201	0.00074632	0.0012173	0.00010441	917.01	3.2983e-06	1.0652e-05	1150.7	293.78	9.9314e-06	4.9795e-06	467.86	160.89	100.4	31.508	3.7344e-06	65.496	0.0019415	0.0024104	0.00070885	1026.7	2.4616e-05	2.9172e-05	1180	308.82	2.543e-05	3.0191e-05	526.81	168.02	108.68	34.831	2.953e-05	69.078	68.550	100.208	13.526	-7.245	82.453	138.462	-7.023	-1.822	328.069	156.267	-3.112	1.527	2.641	8.069	307.315	6.717	-8191	255	
2184.817	1	1	0	0	0.078988	0.13839	0.027463	0.2765	0.16268	0.087932	0.34113	0.10849	0.099903	0.20471	0.23828	0.058189	0.067613	0.23244	0.26551	0.20724	-2.0438	-2.7104	-2.45	-2.7313	-2.825	-2.5167	-2.7438	-2.9396	-2.4292	-3.0375	-2.7792	-2.9	-3.0625	-2.6729	-2.6312	-2.9167	210.692	27.484	3.530	230.496	70.410	110.459	231.340	276.541	308.884	85.847	325.056	1.853	136.854	170.023	338.692	295.831	0.00065906	0.0012152	0.00051688	918.5	5.726e-06	1.7466e-05	1148	292.96	6.752e-06	1.2215e-05	472.32	161.24	101.65	31.433	1.3617e-05	65.132	0.0023418	0.0029053	0.00076608	1043.2	2.7996e-05	3.2848e-05	1182.7	306.65	2.7775e-05	3.1558e-05	524.36	168.24	109.98	34.661	2.6702e-05	68.222	79.545	163.089	338.835	-6.910	65.654	109.991	-7.274	-1.416	180.376	87.173	-2.990	1.377	2.210	8.209	90.980	6.639	-8191	255	
2184.888	1	1	0	0	0.18388	0.10979	0.064587	0.29122	0.22433	0.23751	0.24769	0.32206	0.21637	0.096779	0.079574	0.30656	0.052999	0.19368	0.1023	0.079145	-2.1813	-2.7188	-2.6333	-2.5375	-2.9646	-2.5396	-2.8375	-2.8583	-2.35	-2.7438	-2.7792	-2.5687	-3.0271	-2.6729	-2.5896	-2.9354	120.294	37.159	174.830	232.597	320.940	44.029	290.678	209.689	138.904	46.024	302.277	291.687	328.348	300.253	152.693	294.373	0.00089461	0.001247	4.5739e-05	922.16	2.1237e-05	5.138e-06	1148.3	290.13	1.2296e-05	1.053e-05	469.68	164.63	103.69	31.75	1.6762e-05	65.399	0.0022816	0.0026223	0.00066125	1023.3	2.7654e-05	2.9895e-05	1178.8	305.45	2.9318e-05	3.0701e-05	524.42	170.83	113.36	35.061	2.7359e-05	68.772	71.423	43.962	103.352	-7.154	137.949	79.172	-6.986	-1.733	188.334	45.896	-3.389	1.590	2.225	8.352	126.022	6.470	-8191	255	
2185.009	1	1	0	0	0.057717	0.14423	0.3251	0.23994	0.064513	0.18016	0.11881	0.101	0.18984	0.17215	0.081361	0.20277	0.055755	0.035108	0.20809	0.024435	-1.9417	-2.8396	-2.6521	-2.4938	-2.9313	-2.6042	-2.9958	-2.8563	-2.5125	-2.7313	-2.7396	-2.6437	-2.8729	-2.5979	-2.6271	-3.0396	118.575	198.027	154.488	14.887	322.150	51.371	168.109	132.784	256.620	209.519	43.568	134.829	129.978	124.272	163.731	22.056	0.00079418	0.002283	5.618e-05	918.74	8.1151e-06	8.1444e-06	1149.4	291.92	1.2503e-05	1.337e-05	472.79	167.74	105.56	32.235	5.0502e-06	65.874	0.0026051	0.0027393	0.00069916	1040	3.1148e-05	3.0294e-05	1182.2	307.19	3.1187e-05	2.9583e-05	522.87	174.13	115.61	35.239	2.6884e-05	69.585	77.655	72.594	118.146	-7.065	95.964	8.809	-7.244	-1.677	132.882	131.109	-2.413	1.612	2.063	7.649	230.473	6.522	-8191	255	
2185.105	1	1	0	0	0.23402	0.20584	0.21636	0.13249	0.13873	0.33744	0.19314	0.1112	0.063516	0.31898	0.19304	0.0903	0.31481	0.18626	0.051299	0.29983	-1.95	-2.7854	-2.7417	-2.2708	-2.9146	-2.6229	-2.7167	-3.0625	-2.5521	-2.6708	-2.7313	-2.5417	-2.8229	-2.5333	-2.5104	-3.1167	160.242	120.942	12.942	0.919	113.388	154.353	312.264	265.726	30.626	162.246	22.479	301.397	17.487	334.578	203.303	249.227	0.00066416	0.0016234	0.00047333	922.18	1.3242e-05	8.3565e-06	1144.9	291.23	6.3936e-06	6.7249e-06	470.91	166.05	106.28	31.957	5.9984e-06	65.224	0.0027177	0.0026565	0.00068046	1049.2	3.1702e-05	2.9009e-05	1175.2	307.5	3.0517e-05	2.8172e-05	518.15	173.38	115.04	34.977	2.6228e-05	69.292	60.208	42.132	3.165	-6.922	121.804	111.975	-7.010	-1.598	223.205	115.894	-2.887	1.563	2.409	7.759	180.040	6.632	-8191	255	
2185.201	1	1	0	0	0.12062	0.24763	0.43825	0.33324	0.1485	0.14717	0.048812	0.15149	0.20218	0.22323	0.082749	0.16499	0.12901	0.15731	0.12851	0.078989	-1.9979	-2.775	-2.95	-2.4917	-2.7542	-2.6792	-2.6437	-2.975	-2.5812	-2.625	-2.7458	-2.3958	-2.8833	-2.9042	-2.4458	-2.8937	20.059	220.270	68.118	206.225	74.602	13.191	22.411	304.503	331.294	305.225	13.677	300.095	74.504	264.942	192.850	241.271	0.00064428	0.00040392	0.00042011	918.68	1.5598e-05	1.989e-05	1140.6	288.68	1.5329e-05	2.75e-06	465.61	165.52	105.39	31.427	9.3e-06	64.104	0.0027017	0.0026165	0.00068723	1068.3	3.2301e-05	2.9986e-05	1177.7	310.77	3.3306e-05	3.1448e-05	526.01	175.5	116.09	34.935	3.0419e-05	69.18	57.868	39.515	74.613	-7.223	190.550	141.335	-7.035	-1.307	147.264	7.402	-2.651	1.577	2.083	7.894	189.363	6.623	-8191	255	
2185.297	1	1	0	0	0.20372	0.31578	0.013004	0.23884	0.17472	0.10293	0.38716	0.23945	0.091054	0.012745	0.013859	0.21744	0.08638	0.099069	0.25777	0.10813	-2.2687	-2.5104	-2.7604	-2.5062	-2.8854	-2.7521	-2.7833	-3.0083	-2.575	-2.6292	-3.0146	-2.525	-2.8729	-2.8896	-2.4688	-2.9417	116.553	85.302	239.686	286.455	235.786	319.650	261.532	328.393	43.076	258.599	168.273	242.206	307.971	82.754	204.697	301.780	0.00034088	0.0011108	0.00046389	925.48	1.0184e-05	9.0634e-06	1147.6	286.79	1.3518e-05	9.9379e-06	465.56	164.65	104.95	31.418	1.4972e-05	64.028	0.0029062	0.0028544	0.00078352	1090.9	3.2735e-05	3.0456e-05	1182.2	310.89	3.2146e-05	3.0438e-05	529.68	174.8	115.14	34.774	3.3074e-05	69.378	61.847	72.223	149.521	-7.262	100.304	153.803	-7.198	-1.433	164.000	125.966	-3.113	1.572	2.078	7.551	178.525	6.435	-8191	255	
2185.418	1	1	0	0	0.092984	0.099627	0.12896	0.17107	0.22441	0.041513	0.37639	0.1866	0.078559	0.11992	0.1309	0.10421	0.41704	0.059437	0.12209	0.33197	-2.2313	-2.3792	-2.9646	-2.6125	-2.6625	-2.8146	-2.6583	-2.9729	-2.5583	-2.6354	-3.0458	-2.5625	-2.5875	-2.9354	-2.3625	-2.8375	-17.507	264.422	140.683	203.528	-0.575	325.750	304.464	50.310	268.646	303.597	6.062	321.956	309.966	214.215	191.919	-16.241	0.0003952	0.00099631	0.00064618	923.07	8.9447e-06	3.0024e-06	1148.5	286.76	6.3405e-06	1.2886e-05	465.93	164.05	103.75	30.779	1.1952e-05	63.226	0.0030005	0.0030424	0.00095279	1131.9	3.8715e-05	3.7355e-05	1214.6	318.92	4.1917e-05	4.0258e-05	567.4	179.3	118.26	35.478	4.5685e-05	69.731	85.550	213.810	148.763	-7.399	244.990	226.616	-7.064	-1.540	313.555	261.466	-3.148	1.455	2.175	7.829	137.568	6.487	-8191	255	
2185.490	1	1	0	0	0.27206	0.064045	0.23978	0.10276	0.052924	0.41476	0.12103	0.21215	0.091085	0.14277	0.18173	0.12541	0.27963	0.41947	0.13359	0.074559	-2.2438	-2.4083	-2.7458	-2.6896	-2.575	-2.7396	-2.5938	-2.8917	-2.7979	-2.4104	-3.1167	-2.7	-2.7354	-2.8292	-2.5479	-3.05	141.753	-5.435	115.957	331.494	48.321	310.993	170.346	248.477	240.342	1.613	5.237	47.941	328.589	289.439	209.501	209.671	0.00022025	0.00046325	9.0405e-05	928.06	1.673e-05	4.8149e-06	1157.4	287.71	8.193e-06	1.6307e-05	460.14	161.63	101.59	30.402	2.239e-05	61.784	0.0035449	0.0035655	0.0011381	1145.3	3.9219e-05	3.7663e-05	1221.9	314.86	3.7516e-05	3.7848e-05	558.5	173.77	114.09	34.899	4.3854e-05	68.064	43.581	51.848	76.937	-7.247	200.153	181.048	-7.276	-1.811	83.553	203.042	-2.512	1.398	1.836	7.603	129.159	6.449	-8191	255	
2185.586	1	1	0	0	0.19936	0.07816	0.28034	0.067816	0.10412	0.25215	0.42989	0.03489	0.11156	0.23623	0.29331	0.10186	0.18849	0.24024	0.081132	0.3185	-2.3667	-2.4833	-2.8125	-2.6833	-2.5479	-2.8937	-2.6229	-2.8354	-2.7792	-2.6354	-2.7188	-2.5729	-2.6188	-2.8271	-2.4083	-2.6521	331.329	160.199	325.370	135.328	24.120	138.690	326.063	256.421	103.684	268.868	39.695	18.180	209.467	339.248	217.069	319.270	0.00035715	0.0023664	0.00051287	930.52	1.5322e-06	1.7272e-05	1162.6	290.03	8.0879e-06	7.1478e-06	458.61	159.82	100.55	30.885	6.9374e-06	62.171	0.003242	0.0036113	0.0011443	1135.6	3.929e-05	4.1437e-05	1232.9	318.57	3.9657e-05	4.4325e-05	569.17	173.64	114.1	35.993	4.7968e-05	69.04	89.901	109.262	-4.453	-6.780	75.191	209.749	-7.461	-1.674	284.250	229.334	-3.300	1.545	1.898	7.920	183.998	6.308	-8191	255	
2185.706	1	1	0	0	0.20001	0.099952	0.24565	0.13886	0.0762	0.077495	0.27963	0.14239	0.17161	0.2015	0.13252	0.10811	0.17913	0.20702	0.077545	0.39722	-2.4458	-2.4729	-2.8354	-2.4813	-2.2896	-2.9437	-2.5646	-2.9604	-2.8104	-2.6396	-2.6792	-2.9354	-2.6188	-2.9146	-2.3771	-2.8187	262.293	302.932	258.601	113.135	70.471	253.180	227.367	294.271	143.171	35.594	288.823	280.420	267.831	319.880	315.739	284.079	0.00025557	0.0024768	0.00028004	925.25	9.388e-06	1.7731e-06	1174.7	289.88	2.3169e-05	1.6207e-05	460.11	160.27	99.745	30.97	1.7625e-05	62.81	0.0034914	0.0042698	0.0012276	1154.7	4.153e-05	4.7817e-05	1249.1	321.47	4.2558e-05	5.0867e-05	576.71	174.86	115.42	37.191	5.1357e-05	70.367	90.431	102.614	-16.901	-6.648	227.456	283.454	-7.186	-1.562	181.839	228.249	-3.189	1.537	2.445	7.843	163.788	6.621	-8191	255	
2185.801	1	1	0	0	0.10854	0.12227	0.080712	0.2495	0.097547	0.20301	0.1341	0.14759	0.24956	0.13256	0.13298	0.1216	0.15609	0.33903	0.17096	0.43664	-2.3812	-2.4146	-2.6542	-2.8937	-2.3563	-2.8688	-2.8583	-2.825	-2.6771	-2.7917	-2.8292	-2.9437	-2.4521	-2.9396	-2.5521	-2.6604	9.393	-9.995	145.431	292.425	294.434	199.638	170.144	4.598	7.986	338.467	210.649	310.205	283.798	16.011	29.729	-4.761	0.0010721	0.0029384	0.00018409	924.17	1.305e-05	1.3048e-05	1183.2	290.53	2.3124e-05	1.5711e-05	464.93	160.66	98.879	30.855	3.312e-05	63.138	0.00406	0.0051373	0.0013714	1190.9	5.155e-05	5.9949e-05	1279.4	330.45	5.5195e-05	6.4909e-05	607.3	179.67	121	39.06	6.2639e-05	72.77	66.624	156.008	54.430	-7.132	133.440	97.243	-7.215	-2.043	165.117	66.617	-3.275	1.507	2.493	7.799	12.051	6.306	-8191	255	
2185.897	1	1	0	0	0.15886	0.10187	0.043121	0.0091816	0.061313	0.19992	0.20376	0.20263	0.024475	0.193	0.10618	0.043767	0.12647	0.23561	0.15825	0.23075	-2.2875	-2.5563	-2.6042	-2.8521	-2.5187	-3.0417	-2.6771	-2.5771	-2.8896	-2.5333	-2.8063	-2.9437	-2.5021	-2.9021	-2.7083	-2.7021	163.580	180.772	-3.979	118.555	-4.878	136.773	247.350	46.584	90.461	317.617	169.863	112.864	114.758	36.480	70.445	317.479	0.0012731	0.00073989	0.00036147	930.53	1.9134e-05	1.2021e-05	1198.5	295.32	4.2176e-05	1.789e-05	464.29	162.22	98.283	31.223	7.4701e-06	63.523	0.0055115	0.0066019	0.0016981	1268.8	6.9849e-05	7.4934e-05	1318.9	342.31	7.0148e-05	7.3963e-05	628.49	183.21	125.58	40.04	6.6238e-05	73.699	60.335	121.681	27.000	-7.657	157.512	16.571	-7.362	-1.794	189.174	20.424	-3.216	1.714	2.887	7.405	122.126	6.253	-8191	255	
2185.993	1	1	0	0	0.2404	0.12895	0.12834	0.17415	0.01442	0.036759	0.18349	0.24864	0.25038	0.1288	0.072975	0.31341	0.16058	0.051538	0.2245	0.13558	-2.5208	-2.3875	-2.5375	-2.7854	-2.5312	-2.6688	-3.0583	-2.5292	-2.85	-2.65	-2.6792	-2.8854	-2.5375	-2.8187	-2.8333	-2.5417	38.283	209.808	121.646	252.302	29.111	266.688	305.048	258.741	38.053	336.271	19.666	228.901	286.325	312.509	9.801	-2.890	0.0006163	0.001256	0.00022717	928.6	4.6386e-06	6.8886e-06	1205.1	294.55	4.8101e-05	3.3403e-05	461.18	163.98	98.615	31.343	1.1009e-05	63.425	0.00613	0.0066421	0.00171	1279	7.576e-05	7.5285e-05	1330.9	349.49	8.3345e-05	8.2779e-05	656.76	191.42	133.47	42.021	8.1696e-05	77.573	50.639	26.231	233.974	-7.071	51.185	-10.638	-7.584	-1.926	134.744	65.198	-3.419	1.783	2.750	7.085	124.407	5.977	-8191	255	
2186.089	1	1	0	0	0.25436	0.11638	0.053965	0.34884	0.20706	0.30355	0.035519	0.26872	0.29189	0.034408	0.11549	0.17774	0.15508	0.13417	0.047695	0.13158	-2.2271	-2.5792	-2.5958	-2.7625	-2.3937	-2.7646	-3.1	-2.3917	-2.7729	-2.7021	-2.3958	-3.1063	-2.6625	-2.7917	-2.8625	-2.5812	261.145	262.467	75.199	65.632	332.345	226.822	175.370	322.952	91.734	193.467	211.408	28.047	13.640	287.030	106.054	190.631	0.00059511	0.0044174	0.00050906	934.57	2.0967e-05	1.6525e-05	1217	294.05	2.0286e-05	1.3732e-05	458.37	166.39	99.655	31.013	1.2403e-05	63.742	0.0080926	0.008161	0.0021266	1415.8	9.8058e-05	9.0999e-05	1375.8	367.66	0.00010169	9.5747e-05	687.88	200.86	138.76	42.856	8.6909e-05	80.434	80.325	15.190	294.472	-7.078	95.731	338.867	-7.098	-1.904	-12.975	145.997	-3.327	1.686	2.437	7.106	306.988	6.494	-8191	255	
2186.185	1	1	0	0	0.19341	0.16522	0.1195	0.21231	0.10054	0.29551	0.18917	0.23502	0.20164	0.21458	0.28797	0.18324	0.13136	0.098628	0.12751	0.28052	-2.3292	-2.6375	-2.5583	-2.9229	-2.3625	-2.8937	-3.0833	-2.5479	-2.5875	-2.8042	-2.5083	-2.9792	-2.6208	-2.6333	-3.0104	-2.6854	214.943	324.659	128.900	-16.057	201.423	240.090	10.579	254.436	142.110	32.438	317.504	267.845	15.754	-16.770	327.895	300.828	0.0010079	0.001616	0.00010907	925.16	2.6375e-05	3.4204e-06	1229.2	293.48	3.5217e-05	1.7413e-05	460.94	170.08	101.1	31.228	8.5758e-06	64.035	0.0086726	0.0086187	0.0022376	1479.5	9.9918e-05	9.2163e-05	1387	373.81	9.7336e-05	9.0922e-05	681.4	205.3	137.08	42.145	8.429e-05	80.804	60.953	-2.450	24.068	-7.356	-0.186	299.641	-7.400	-2.013	21.948	83.169	-2.796	1.730	1.880	6.665	137.758	6.065	-8191	255	
2186.306	1	1	0	0	0.086718	0.081507	0.17095	0.052377	0.13718	0.24069	0.097548	0.20882	0.14317	0.31504	0.17897	0.34232	0.19985	0.13459	0.14229	0.26342	-2.5438	-2.5792	-2.5354	-2.6813	-2.5771	-2.6667	-3.1604	-2.7146	-2.6896	-2.5958	-2.5875	-2.8875	-2.4479	-2.5792	-2.8542	-2.5646	115.558	206.734	201.359	0.255	70.265	207.130	4.424	140.158	234.362	217.419	327.965	10.242	34.824	203.464	55.028	284.273	0.00012543	0.0014809	0.00089978	932.68	1.8056e-05	1.0928e-05	1224.9	293.83	3.1348e-05	1.8805e-05	461.73	169.78	100.41	31.141	2.1828e-05	64.074	0.0078931	0.0078567	0.0021421	1472	8.9524e-05	8.2864e-05	1378.5	369.41	8.517e-05	7.9603e-05	669.83	201.52	130.97	40.35	7.8665e-05	78.599	84.398	284.492	155.154	-6.680	327.563	61.128	-7.270	-1.690	0.804	147.070	-2.544	1.746	2.343	7.362	214.424	5.604	-8191	255	
2186.402	1	1	0	0	0.0032326	0.30494	0.11217	0.24263	0.14741	0.30693	0.27928	0.055478	0.056321	0.095369	0.21462	0.13263	0.17873	0.20428	0.10583	0.12784	-2.4	-3.0083	-2.4042	-2.8917	-2.5625	-2.4604	-3.0896	-2.6958	-2.7875	-2.7854	-2.4583	-2.9188	-2.6771	-2.6917	-2.9333	-2.6458	133.945	236.237	89.885	334.262	-3.408	98.599	265.325	273.843	292.335	285.436	7.411	305.323	320.059	46.594	292.034	204.807	0.00051591	0.0003625	0.00092671	932.76	1.2715e-05	2.4599e-05	1232.5	294.98	1.0955e-05	1.6838e-05	469.47	169.71	101.16	31.213	3.0661e-05	63.874	0.0067713	0.0068448	0.0020763	1433.6	8.1179e-05	7.7433e-05	1391.9	367.58	8.1254e-05	7.6324e-05	682.59	200.07	129.65	39.975	8.0185e-05	77.176	68.519	330.261	195.153	-7.446	8.305	295.211	-7.496	-1.602	99.166	156.930	-3.027	1.474	2.093	7.073	181.172	5.985	-8191	255	
2186.498	1	1	0	0	0.17036	0.10792	0.069827	0.10866	0.11299	0.28019	0.24958	0.076665	0.31468	0.11942	0.16265	0.10451	0.049598	0.29272	0.10217	0.24913	-2.3542	-2.9188	-2.3937	-2.9062	-2.6521	-2.6229	-3.1104	-2.6125	-2.4813	-2.8667	-2.5979	-2.9854	-2.9313	-2.4854	-2.9	-2.8438	146.929	180.997	304.157	205.873	166.159	73.107	337.182	142.028	-9.345	234.126	172.022	326.801	-3.101	335.315	200.850	18.040	0.00032862	0.00080635	0.00053988	946.83	3.1548e-05	1.8662e-05	1236.9	298.34	1.3889e-05	2.054e-05	468.44	171	101.09	31.362	1.3104e-05	64.253	0.0061651	0.0062545	0.002001	1362.9	6.937e-05	6.7587e-05	1375.6	354.74	6.712e-05	6.5948e-05	658.83	194.76	124.69	38.909	7.2828e-05	75.097	102.613	234.724	125.757	-6.854	84.765	206.525	-7.156	-1.693	131.555	166.535	-3.371	1.579	2.247	7.277	183.883	6.192	-8191	255	
2186.594	1	1	0	0	0.12956	0.29312	0.071875	0.20337	0.11744	0.17139	0.26439	0.3027	0.10493	0.037941	0.21289	0.20839	0.13506	0.24174	0.072522	0.17973	-2.2896	-2.7583	-2.4979	-2.6125	-2.7771	-2.575	-3.2	-2.7625	-2.5312	-2.9208	-2.4625	-3.1083	-2.75	-2.7396	-2.8667	-2.9042	154.391	225.558	68.506	264.065	191.717	-7.558	247.303	321.831	53.248	236.117	262.134	265.444	301.857	4.723	285.168	323.983	0.00078925	0.0021384	0.00013413	938.69	8.71e-06	1.5604e-05	1244.3	297.36	1.2206e-05	2.103e-05	467.97	169.74	100.09	31.123	3.3871e-05	63.694	0.0053195	0.0058281	0.0018343	1302.9	6.1868e-05	6.5769e-05	1370	349	6.2208e-05	6.7552e-05	653.05	193.16	123.86	39.594	7.4823e-05	74.932	43.070	160.943	190.448	-7.277	31.040	171.447	-7.511	-1.977	-13.975	192.617	-3.324	1.677	2.378	7.745	78.823	5.854	-8191	255	
2186.713	1	1	0	0	0.21459	0.19488	0.15346	0.21237	0.12908	0.060678	0.49719	0.037882	0.1462	0.060846	0.305	0.12683	0.21728	0.071707	0.21146	0.075265	-2.0958	-3.0646	-2.4437	-2.6312	-2.8208	-2.5854	-3.0917	-2.9	-2.5125	-2.9833	-2.5542	-2.7479	-2.8458	-2.6042	-2.775	-2.8271	286.185	193.127	252.643	322.749	93.199	170.815	274.754	12.814	102.880	118.813	244.556	300.952	136.490	53.135	287.053	26.381	0.00029339	0.0016884	0.00040467	942.85	2.1021e-05	1.818e-05	1232.7	293.81	1.1122e-05	3.0663e-05	460.5	170.57	100.33	30.744	1.7427e-05	63.336	0.0055593	0.0067389	0.0019729	1338.7	6.8728e-05	7.9738e-05	1383.1	352.88	7.1644e-05	8.3682e-05	670.43	196.49	127.65	41.264	8.1933e-05	75.557	69.574	159.041	234.285	-7.378	62.412	194.378	-7.309	-1.958	182.592	233.510	-2.991	1.340	2.188	6.806	101.353	5.716	-8191	255	
2186.785	1	1	0	0	0.10256	0.147	0.077739	0.33999	0.29972	0.12518	0.12703	0.071745	0.11976	0.10592	0.067954	0.078027	0.1964	0.14009	0.077934	0.19918	-2.1375	-2.7583	-2.5417	-2.6292	-2.9667	-2.5396	-2.8833	-2.8688	-2.3583	-2.9979	-2.7271	-2.7104	-2.95	-2.4479	-2.8438	-3.0125	165.349	-3.150	108.782	337.981	144.514	8.642	300.561	17.284	102.567	81.919	316.473	242.790	49.117	303.966	119.594	147.360	0.00062674	0.0012201	0.00053972	929.08	2.0609e-05	4.7228e-06	1232.5	292.56	2.3309e-05	1.4634e-05	454.82	169.64	100.59	30.42	1.0447e-05	62.875	0.0064104	0.0079728	0.0021105	1362.2	7.7162e-05	8.9686e-05	1388.7	355.26	8.1552e-05	9.3981e-05	679.97	198.93	133.05	42.696	8.9557e-05	76.725	92.941	246.175	37.752	-6.973	165.883	186.312	-7.170	-2.051	232.092	237.714	-3.743	1.377	2.110	6.547	302.303	5.531	-8191	255	
2186.881	1	1	0	0	0.33937	0.11199	0.1435	0.042836	0.12654	0.062614	0.2893	0.21295	0.03762	0.1965	0.20202	0.10777	0.14879	0.23492	0.10655	0.057601	-2.2667	-3.0583	-2.5896	-2.6813	-2.8563	-2.7292	-2.9292	-2.8958	-2.4562	-2.8	-2.7875	-2.5812	-3	-2.4375	-2.6396	-2.9979	49.747	228.444	61.417	37.295	-19.195	339.694	303.053	293.305	30.590	308.597	324.883	314.089	268.527	67.667	147.143	19.207	0.00072729	0.002556	0.00025189	926.78	4.7915e-05	9.3983e-06	1236.6	289.27	4.407e-05	2.7495e-05	456.46	169.96	101.35	30.345	3.08e-05	62.608	0.0077249	0.0091377	0.0023448	1415.7	9.3833e-05	0.00010135	1408.3	359.49	9.7677e-05	0.00010268	697.04	201.54	138.2	42.686	9.0248e-05	76.594	93.114	319.922	201.163	-7.632	177.673	218.266	-7.579	-1.864	200.428	105.105	-3.262	1.235	2.467	6.618	-16.771	5.921	-8191	255	
2186.977	1	1	0	0	0.11756	0.30954	0.14	0.090222	0.13086	0.26161	0.18189	0.22946	0.071953	0.21192	0.091187	0.085194	0.051577	0.26411	0.16349	0.17767	-1.9542	-2.7875	-2.7396	-2.5958	-2.8146	-2.6562	-2.7208	-2.9896	-2.5667	-2.8438	-2.8771	-2.7083	-2.7333	-2.5979	-2.6458	-3.0208	76.153	10.874	37.535	242.227	254.525	57.472	225.399	226.988	132.994	14.248	1.911	295.110	111.083	52.504	81.801	315.944	0.0012665	0.00018187	0.0006069	939.27	2.7745e-05	1.4831e-05	1230.2	292.1	2.2825e-05	3.4585e-05	463.6	170.64	100.64	30.432	1.4623e-05	62.317	0.0081833	0.0086529	0.002205	1395.5	9.3413e-05	9.1438e-05	1388.8	356.3	9.4125e-05	8.994e-05	670.11	199.11	135.89	41.188	8.0393e-05	75.916	70.057	299.958	306.093	-7.246	86.963	69.389	-7.420	-2.104	7.705	110.740	-3.557	1.328	2.484	6.858	57.715	6.068	-8191	255	
2187.098	1	1	0	0	0.054688	0.20818	0.11343	0.24661	0.11599	0.37831	0.13122	0.15978	0.33764	0.13327	0.22867	0.34695	0.06177	0.13808	0.29236	0.34722	-1.8854	-2.8229	-2.825	-2.4896	-2.9708	-2.6979	-2.875	-2.975	-2.4417	-2.6625	-3.0333	-2.6667	-3.0375	-2.7333	-2.6083	-3.0125	2.055	5.487	124.500	-10.035	66.138	35.111	236.604	320.910	187.506	184.288	50.422	292.853	9.902	133.710	185.943	236.235	0.00084225	0.0024772	0.00070624	941.5	9.3745e-06	1.7573e-05	1231	292.55	1.9653e-05	4.0309e-06	456.51	168.92	101.22	30.389	8.1367e-06	62.476	0.0077519	0.0076663	0.0019743	1387	9.0344e-05	8.397e-05	1373.7	359.01	9.3668e-05	8.8058e-05	669.92	202.23	138.91	42.097	8.8986e-05	79.5	82.730	330.305	24.924	-7.055	69.937	143.592	-7.672	-1.629	58.088	-14.426	-2.986	1.439	2.100	6.583	199.024	5.958	-8191	255	
2187.194	1	1	0	0	0.22365	0.21495	0.27594	0.1653	0.12569	0.037547	0.14315	0.14299	0.090407	0.011709	0.031358	0.17753	0.17591	0.084051	0.21841	0.34614	-2.2542	-2.6229	-2.7083	-2.5021	-2.925	-2.7083	-2.85	-2.9562	-2.2812	-2.6167	-2.9792	-2.5417	-3.1188	-2.5563	-2.4396	-2.8812	299.576	64.262	43.062	301.755	105.936	271.976	26.905	324.124	282.799	69.469	296.232	299.900	46.385	12.212	310.861	-19.784	0.00059637	0.0020591	0.00029911	930.87	3.0733e-05	5.4241e-06	1234.6	290.69	2.3352e-05	2.1634e-05	456.38	170	100.46	30.41	1.4599e-05	62.706	0.0091376	0.0092633	0.0024517	1564.7	0.0001139	0.00010613	1423.2	384.8	0.00011507	0.00010875	725.18	213.66	145.66	44.033	0.00010623	84.213	99.408	61.927	189.234	-6.810	334.921	18.449	-7.435	-2.009	306.970	136.665	-3.227	1.435	2.022	6.333	201.828	6.227	-8191	255	
2187.290	1	1	0	0	0.3143	0.092178	0.19302	0.21237	0.19417	0.11622	0.16171	0.095805	0.35874	0.025335	0.14274	0.40938	0.20137	0.10842	0.11841	0.080088	-2.1146	-2.7083	-2.7854	-2.5333	-2.725	-2.8646	-2.7083	-2.9771	-2.4417	-2.65	-2.9333	-2.6771	-2.9396	-2.9313	-2.5938	-3.0833	102.003	58.200	173.712	274.186	192.475	-8.138	301.681	44.390	23.656	63.569	52.940	336.935	50.762	-4.631	72.454	127.622	0.00026178	0.0029654	0.0010818	937.68	1.3455e-05	1.9711e-05	1236.4	291.72	2.8141e-05	2.4886e-05	460.17	171.22	101	30.753	2.8846e-05	62.926	0.010271	0.010493	0.0029091	1710.4	0.00012799	0.00012119	1479.8	408.91	0.00013436	0.00012845	805.84	227.58	155.49	47.17	0.00014067	90.394	37.613	47.783	142.638	-7.241	123.732	69.957	-7.432	-2.200	167.550	209.115	-2.175	1.694	1.749	6.729	194.234	5.551	-8191	255	
2187.386	1	1	0	0	0.16055	0.36023	0.10154	0.20556	0.030093	0.045388	0.13732	0.12501	0.1529	0.15799	0.056414	0.19686	0.024108	0.17935	0.146	0.82113	-2.3083	-2.4854	-2.7646	-2.4729	-2.7062	-2.7354	-2.4938	-3.0687	-2.5083	-2.5667	-2.9729	-2.8354	-2.6229	-2.8167	-2.3375	-3.0604	128.225	136.765	45.268	308.279	176.137	203.624	285.919	324.469	58.820	46.344	111.986	40.751	68.331	154.380	85.381	303.264	0.00043995	0.0053154	0.0013818	935.65	1.1861e-05	2.4774e-05	1235.4	290.63	2.4529e-05	8.286e-06	463.67	171.43	102.07	30.453	4.1874e-05	62.732	0.012289	0.012622	0.0037956	1885.9	0.00014892	0.00014058	1551.4	430.31	0.00015418	0.00014971	904.35	236.28	163.14	49.1	0.00016914	92.541	21.162	14.609	106.924	-7.405	221.024	51.125	-7.484	-2.253	128.955	135.740	-2.257	1.320	1.989	6.456	111.204	5.557	-8191	255	
2187.483	1	1	0	0	0.17685	0.11442	0.28567	0.11451	0.018029	0.24981	0.39117	0.12297	0.12902	0.061649	0.13154	0.08903	0.072625	0.11857	0.35855	0.19256	-2.3875	-2.2833	-2.9104	-2.5833	-2.5854	-2.7646	-2.6083	-2.7604	-2.7167	-2.4229	-2.8979	-2.7229	-2.75	-2.8521	-2.4542	-2.7938	6.011	264.458	238.619	233.062	287.016	82.449	285.957	85.820	230.069	194.451	297.686	-1.495	171.919	87.733	75.980	278.092	0.00036342	0.0023545	0.0015703	943.06	2.3789e-05	3.3001e-05	1242.4	289.64	4.8618e-05	1.4625e-05	458.51	172.78	101.73	30.661	1.5628e-05	62.738	0.013372	0.013791	0.0043688	1916.1	0.00015287	0.00014603	1584.8	426.56	0.00014842	0.00014864	920.88	234.72	161.9	50.175	0.00018053	92.275	96.042	37.922	179.731	-7.755	225.807	214.416	-7.522	-2.447	7.486	221.197	-3.018	1.311	1.893	6.522	96.368	5.278	-8191	255	
2187.579	1	1	0	0	0.091998	0.066634	0.24777	0.15302	0.10395	0.10809	0.11785	0.11336	0.10915	0.21045	0.09273	0.14159	0.17394	0.36016	0.11731	0.2287	-2.35	-2.3896	-2.9188	-2.7146	-2.7062	-2.9771	-2.6063	-2.9542	-2.7438	-2.5208	-3.0583	-2.8312	-2.4646	-3.0354	-2.6354	-2.8208	273.401	277.718	84.427	104.299	41.602	171.658	263.989	254.179	144.437	283.959	248.242	236.299	-5.091	274.099	339.649	250.816	0.00017537	0.0052283	0.00055579	921.69	8.4113e-06	7.3437e-05	1250.2	289.6	3.6346e-05	3.5326e-05	464.75	174.16	102.33	30.569	5.1378e-05	62.507	0.013596	0.015274	0.0048519	1962	0.00016388	0.00017188	1644.3	438.23	0.00016359	0.00017886	986.95	240.34	167.44	53.443	0.00019373	93.578	2.549	192.258	177.357	-7.681	12.318	203.559	-7.704	-1.945	294.304	219.186	-3.542	1.202	2.057	6.671	108.073	5.755	-8191	255	
2187.675	1	1	0	0	0.044076	0.25569	0.17582	0.091758	0.32416	0.26346	0.055447	0.23518	0.24117	0.087914	0.33321	0.1149	0.067135	0.26463	0.24313	0.36968	-2.4854	-2.5938	-2.8312	-2.6229	-2.675	-3.0563	-2.7146	-2.6646	-2.9437	-2.5708	-2.8146	-2.6312	-2.7271	-2.9938	-2.5646	-2.8396	180.957	220.948	337.237	305.378	319.507	163.620	47.009	180.899	77.717	26.917	310.049	287.725	30.091	282.650	281.491	321.345	0.00090647	0.0026991	0.00047306	933.71	5.0836e-05	7.0115e-05	1251.3	287.76	3.5916e-05	4.0821e-05	463.44	176.44	103.86	30.865	4.6094e-05	62.979	0.014038	0.017052	0.004956	1977.8	0.00016767	0.00019086	1644.8	437.65	0.0001659	0.00019501	984.15	242.37	170.25	55.504	0.00019017	93.635	30.429	125.248	299.785	-8.150	107.047	239.962	-7.827	-2.285	229.189	189.094	-3.407	1.134	1.997	6.188	-13.401	5.326	-8191	255	
2187.794	1	1	0	0	0.076261	0.21955	0.090235	0.032045	0.19479	0.12214	0.21285	0.12575	0.20986	0.15248	0.11837	0.18677	0.10157	0.27433	0.34533	0.11488	-2.4313	-2.5417	-2.8771	-2.9062	-2.5708	-2.9354	-2.7271	-2.6333	-2.9583	-2.5771	-2.7625	-2.9375	-2.6333	-3.0021	-2.7438	-2.9813	136.338	163.577	73.652	278.245	219.101	196.811	323.074	281.696	134.395	246.935	300.482	-15.563	42.290	277.080	173.780	270.315	0.00055699	0.0010268	0.0009672	927.23	3.1435e-05	5.2935e-05	1249.4	290.41	5.1393e-05	1.3229e-05	464.46	176.22	103.77	30.526	2.509e-05	61.855	0.014553	0.01841	0.0048826	1966.5	0.00017539	0.00020187	1634.3	437.09	0.00017498	0.0002045	965.98	240.75	174.49	55.891	0.00018284	92.074	67.430	338.953	-0.953	-7.618	193.005	236.506	-7.962	-2.512	191.298	44.310	-3.518	1.206	1.895	6.212	6.426	5.270	-8191	255	
2187.890	1	1	0	0	0.0023775	0.22973	0.0076492	0.19924	0.13493	0.20773	0.18408	0.19248	0.24057	0.087486	0.1931	0.16909	0.067787	0.44373	0.15122	0.24899	-2.475	-2.5021	-2.6917	-2.7833	-2.4062	-2.8583	-2.9167	-2.7792	-2.9854	-2.6854	-2.7354	-2.9708	-2.6333	-2.7958	-2.9688	-2.7354	180.000	168.946	172.250	-10.499	200.775	181.787	314.041	27.853	32.973	147.131	292.731	271.964	5.336	268.178	240.719	324.365	0.0022232	0.0026385	0.00042402	932.49	4.8236e-05	2.9705e-05	1250.3	288.15	0.00010159	2.6476e-05	463.68	176.27	103.48	29.963	2.6868e-05	61.093	0.015363	0.018373	0.0046626	1931.6	0.00018672	0.0002003	1624.5	433.64	0.00018906	0.00020218	956.23	239.76	179.8	54.815	0.00017695	90.623	59.806	6.123	-9.571	-8.168	202.246	115.297	-7.787	-2.319	186.616	56.686	-3.441	1.521	1.994	5.537	215.372	5.094	-8191	255	
2187.986	1	1	0	0	0.26406	0.081277	0.11181	0.20939	0.01772	0.14171	0.17403	0.13691	0.2863	0.08887	0.45493	0.11096	0.17616	0.32994	0.13878	0.091494	-2.4021	-2.5604	-2.475	-2.7375	-2.3792	-2.9104	-2.9542	-2.5542	-2.9542	-2.6646	-2.4521	-2.9479	-2.5229	-2.8063	-2.7438	-2.6646	50.367	139.959	68.152	180.509	151.257	47.462	12.112	-6.306	334.861	232.645	-14.486	296.280	73.898	322.804	86.642	195.596	0.0017763	0.0017056	0.00066934	929.93	5.3268e-05	3.9305e-05	1245.6	288.71	2.8575e-05	1.6441e-05	465.66	174.62	104.4	29.737	9.7418e-06	61.058	0.015991	0.017365	0.004427	1892.7	0.00018887	0.00018418	1588	426.3	0.0001836	0.00017793	899.01	234.22	174.63	51.124	0.00015481	88.211	64.950	251.436	45.335	-7.602	177.940	33.904	-7.697	-1.897	127.240	5.253	-3.831	1.221	2.328	6.155	144.147	5.893	-8191	255	
2188.082	1	1	0	0	0.18268	0.089687	0.23763	0.20476	0.37264	0.25196	0.30723	0.16115	0.13419	0.15778	0.33319	0.10729	0.11335	0.075832	0.13065	0.23138	-2.6875	-2.5125	-2.5646	-2.8896	-2.6104	-2.6417	-2.8479	-2.6167	-2.8438	-2.5583	-2.725	-2.9083	-2.6833	-2.7438	-2.925	-2.6271	286.176	97.676	172.973	16.866	171.743	235.110	249.679	247.960	208.977	59.054	283.990	302.547	-13.874	6.282	52.444	279.002	0.0012417	0.0047928	0.00073839	925.96	2.6798e-05	1.1576e-05	1257.2	288.14	2.3387e-05	2.4942e-05	459.86	175.57	103.41	29.967	2.6117e-05	60.939	0.014893	0.014881	0.0038832	1834	0.00017357	0.00016047	1547.1	419.24	0.00016822	0.00015523	844.61	232.52	167.83	48.718	0.00013903	88.254	63.909	274.423	337.059	-6.603	188.271	163.164	-7.754	-1.822	-12.485	56.470	-3.413	1.487	1.577	6.357	230.059	5.836	-8191	255	
2188.178	1	1	0	0	0.09013	0.10682	0.27977	0.082836	0.25398	0.14268	0.031667	0.24727	0.075629	0.099623	0.18124	0.17746	0.066195	0.13283	0.11844	0.19656	-2.3208	-2.8479	-2.5062	-2.8875	-2.5917	-2.7687	-3.1312	-2.6521	-2.9333	-2.7896	-2.6854	-2.9542	-2.8354	-2.7167	-2.8	-2.5292	208.580	268.241	47.011	244.806	98.911	172.119	315.973	325.265	299.072	45.634	21.435	59.048	236.574	-0.092	-8.740	274.721	0.00057906	0.0031148	0.00058436	940.59	3.0563e-05	1.5133e-06	1255.6	289.53	4.0629e-05	2.6609e-05	469.02	174.57	103.46	29.665	2.6588e-05	61.004	0.013829	0.013608	0.0035804	1847	0.00016032	0.00014675	1524.1	420.86	0.00015273	0.00014156	816.85	231.35	160.25	46.395	0.00012685	86.526	19.225	47.772	195.066	-6.869	21.813	140.644	-7.484	-1.868	26.974	115.243	-3.257	1.354	1.780	6.556	161.440	5.812	-8191	255	
2188.274	1	1	0	0	0.29217	0.15559	0.23665	0.15485	0.126	0.16264	0.20158	0.24345	0.10425	0.05701	0.24494	0.16301	0.17932	0.17997	0.2492	0.22663	-2.4562	-2.7771	-2.4167	-3.0062	-2.4625	-2.4854	-3.1896	-2.4521	-2.7854	-2.8021	-2.4583	-2.8063	-2.8417	-2.5875	-2.7854	-2.5958	31.270	94.088	9.756	275.664	153.317	3.498	271.599	-9.106	106.349	145.002	245.385	295.353	27.701	14.390	278.586	145.644	0.00032378	0.0020987	0.0011348	930.78	3.0123e-05	7.2635e-06	1250.1	290.64	2.6918e-05	1.6787e-05	463.8	174.22	103.11	29.331	2.9119e-05	60.787	0.011778	0.011694	0.0032195	1779.3	0.00013649	0.00012675	1498.6	410.74	0.00013136	0.0001222	792.79	225.6	151.7	44.06	0.00012172	84.226	174.243	14.610	139.295	-7.832	52.889	168.113	-7.527	-2.095	10.865	-12.013	-2.468	1.635	1.330	6.075	171.230	5.687	-8191	255	
2188.371	1	1	0	0	0.17716	0.07049	0.029715	0.1069	0.26873	0.26886	0.12694	0.11549	0.2485	0.26598	0.30392	0.11476	0.12441	0.19821	0.28543	0.2095	-2.2667	-2.8438	-2.3708	-2.7479	-2.5333	-2.5563	-3.0875	-2.4458	-2.6229	-3.0021	-2.75	-2.9771	-2.6667	-2.7708	-2.9792	-2.7167	-3.232	316.121	260.328	34.735	197.096	173.216	124.287	224.321	47.794	108.908	148.719	25.154	42.392	23.405	-4.182	12.524	7.9624e-05	0.00036664	0.0010595	938.46	1.7003e-05	1.8895e-05	1250.5	293.18	2.6605e-05	3.1689e-05	462.83	174.89	104.4	29.241	3.5014e-05	60.773	0.010406	0.010532	0.0031737	1719	0.00012332	0.00011613	1504.1	403.69	0.00012095	0.00011305	800.12	222.33	148.21	43.255	0.00012505	82.781	157.058	48.504	123.101	-7.722	3.847	101.106	-7.330	-2.403	317.877	66.250	-2.968	1.179	1.935	6.609	211.891	5.439	-8191	255	
2188.491	1	1	0	0	0.13746	0.19715	0.081231	0.084199	0.11704	0.045458	0.28483	0.021293	0.1093	0.066307	0.10427	0.13031	0.042335	0.24572	0.075736	0.22775	-2.3604	-2.9938	-2.3563	-2.7042	-2.5896	-2.475	-3.0583	-2.7188	-2.6167	-2.9354	-2.6542	-2.8646	-2.7979	-2.575	-2.7667	-2.6813	305.988	243.559	61.626	38.844	281.076	158.482	281.424	24.444	125.386	284.024	283.905	261.165	300.966	302.593	167.939	289.826	0.00010393	0.0025153	0.00094225	949.02	1.4915e-05	2.4559e-05	1254.1	291.84	1.8374e-05	1.4879e-05	465.46	174.62	103.39	29.454	1.3288e-05	61.692	0.0099045	0.010128	0.0032571	1663.9	0.00011483	0.00011211	1504.9	393.31	0.0001134	0.00011295	811.48	220.35	147.37	44.26	0.00013299	83.04	317.423	189.905	103.691	-7.617	63.780	176.729	-7.440	-2.193	130.650	209.329	-2.577	1.343	1.982	6.755	277.199	5.660	-8191	255	
2188.587	1	1	0	0	0.2277	0.11998	0.16703	0.22691	0.18517	0.081639	0.0824	0.19437	0.12663	0.12327	0.30208	0.10429	0.075598	0.34107	0.15398	0.035619	-2.1896	-2.7708	-2.1688	-2.9479	-2.8229	-2.3396	-3.0146	-2.7562	-2.3292	-3.0479	-2.6854	-2.7208	-2.7708	-2.5646	-2.8604	-2.7687	168.393	111.538	73.674	241.389	252.384	201.136	-1.811	1.486	204.078	56.680	290.304	281.440	134.051	182.467	263.735	331.761	0.00033283	0.00044467	0.00085503	933.63	2.864e-05	2.337e-05	1255.5	291.47	2.0152e-05	3.5789e-05	471.17	173.31	101.87	29.826	3.1671e-05	61.755	0.0099448	0.010979	0.0034729	1650.6	0.00011494	0.00012057	1514.5	389.37	0.00010839	0.00011547	790.86	214.24	140.63	43.343	0.00011633	79.55	316.552	85.422	107.963	-7.463	4.423	237.671	-7.352	-2.055	276.716	193.673	-3.438	1.430	1.744	6.863	6.327	5.816	-8191	255	
2188.659	1	1	0	0	0.23403	0.25787	0.10423	0.055553	0.22985	0.1547	0.039144	0.15108	0.3072	0.34314	0.27702	0.16136	0.44561	0.12559	0.27272	0.23395	-2.0771	-2.7542	-2.5083	-2.7729	-2.7292	-2.5875	-3.1063	-2.6917	-2.525	-2.9437	-2.7229	-2.8917	-2.8771	-2.775	-2.7438	-2.7583	215.361	58.239	118.848	263.006	5.348	24.530	233.474	269.051	201.726	282.776	229.988	329.097	319.649	7.329	272.488	293.053	0.000655	0.0055924	0.00029625	942.8	1.3255e-05	2.363e-05	1256.3	291.81	2.6821e-05	2.1532e-05	464.15	173.07	102.42	29.697	2.0597e-05	61.591	0.0084232	0.010149	0.0029529	1539.6	9.8181e-05	0.00011238	1473.9	376.77	9.7435e-05	0.00011307	757.89	210.43	139.33	43.817	0.00011007	79.042	53.171	128.030	284.754	-7.485	321.780	222.940	-7.445	-2.123	59.114	162.921	-2.793	1.327	1.958	6.720	19.761	5.748	-8191	255	
2188.755	1	1	0	0	0.15056	0.021068	0.14396	0.2293	0.09346	0.13983	0.1065	0.24307	0.11665	0.13768	0.067039	0.21034	0.24032	0.21317	0.064193	0.11511	-2.1583	-2.7354	-2.5687	-2.6188	-2.9229	-2.4854	-3.0687	-2.8708	-2.3896	-2.875	-2.6208	-2.7562	-2.9417	-2.6229	-2.9437	-2.8375	305.941	201.481	45.597	226.161	263.252	100.946	279.967	265.059	250.643	69.243	161.144	279.170	11.750	-12.709	255.311	52.092	0.0012725	0.0034329	0.00089342	940.16	6.2229e-05	1.6454e-05	1257.6	292.73	4.3491e-05	2.0233e-05	465.71	175.18	103.41	29.665	2.5059e-05	62.225	0.008502	0.010646	0.002845	1538.1	0.0001046	0.0001231	1486.8	382.23	0.00011319	0.00013131	786.25	215.97	148.54	46.676	0.00012443	82.15	76.961	119.047	58.269	-8.077	167.916	181.156	-7.483	-2.430	158.183	180.424	-3.353	1.336	1.992	6.605	61.717	5.704	-8191	255	
2188.874	1	1	0	0	0.081556	0.14716	0.14506	0.11822	0.035913	0.14406	0.25209	0.084073	0.048164	0.11802	0.081832	0.37998	0.2439	0.065402	0.089035	0.1515	-2.2375	-2.8479	-2.5458	-2.625	-2.7917	-2.4396	-2.8771	-2.8792	-2.3312	-2.9958	-2.65	-2.6167	-3.0167	-2.6167	-2.5958	-3.0333	156.837	223.568	172.505	98.180	105.376	171.206	175.180	251.520	151.278	160.760	165.239	8.418	15.343	28.939	-0.201	112.395	0.00067331	0.0012878	0.00059243	945.9	3.1662e-05	6.8094e-06	1253.5	289.02	6.4031e-05	2.1928e-05	468.86	176.97	103.57	30.033	1.3828e-05	61.68	0.010784	0.012889	0.0033223	1650.3	0.00013464	0.00014623	1523.5	395.17	0.00014343	0.00015448	850.19	227.68	165.34	50.722	0.00015305	87.062	76.617	137.163	322.792	-7.577	201.918	1.198	-7.387	-2.227	194.226	52.964	-2.896	1.384	2.484	6.367	97.479	5.797	-8191	255	
2188.970	1	1	0	0	0.11959	0.095181	0.12664	0.085835	0.22577	0.13024	0.16936	0.2135	0.18833	0.14179	0.059807	0.15132	0.16483	0.15228	0.28629	0.016525	-2.0104	-2.8854	-2.4667	-2.5792	-3	-2.4479	-2.8479	-2.9542	-2.4625	-2.6063	-2.6917	-2.6958	-2.9646	-2.6271	-2.3812	-3.0333	106.507	169.589	137.578	269.645	324.728	310.033	33.448	290.620	260.878	320.602	299.615	300.022	6.041	281.206	325.109	40.517	0.0015122	0.0024569	0.0007409	944.23	2.6442e-05	3.3879e-05	1269.6	292.35	3.8851e-05	2.7012e-05	474.54	178.74	106.06	29.849	3.7056e-05	61.186	0.014346	0.015595	0.0040008	1808.7	0.00017032	0.00016543	1565.4	409.23	0.00015927	0.0001517	831.9	228.7	164.58	47.652	0.00013138	84.211	87.456	-0.561	0.380	-6.895	195.760	12.770	-7.728	-1.807	131.862	54.087	-3.731	1.357	1.680	6.069	63.525	5.723	-8191	255	
2189.066	1	1	0	0	0.042232	0.14483	0.054213	0.072996	0.27469	0.27879	0.20605	0.18747	0.071827	0.13951	0.15721	0.18773	0.051868	0.122	0.21907	0.3413	-2.2146	-2.7708	-3.0104	-2.3958	-2.7229	-2.6333	-2.775	-2.925	-2.5125	-2.6688	-2.8229	-2.6729	-2.9708	-2.6813	-2.4354	-3.1083	66.533	308.465	259.453	19.223	313.729	164.681	302.352	265.001	25.406	194.303	93.229	339.773	289.883	7.857	243.875	291.624	0.0007231	0.0033203	0.00051458	940.84	3.9025e-05	2.6757e-05	1273.2	290.06	1.457e-05	2.2919e-05	471.74	182.56	107.55	30.516	1.8832e-05	61.238	0.012978	0.013139	0.0034318	1758.3	0.00015938	0.00014809	1554.5	415.02	0.00016254	0.00015099	841.71	239.99	170.61	49.238	0.00014016	88.62	56.329	9.993	322.106	-7.260	235.716	108.459	-7.725	-2.077	-12.478	86.777	-3.567	1.374	1.825	5.667	101.278	5.725	-8191	255	
2189.187	1	1	0	0	0.27471	0.16951	0.1391	0.081574	0.069094	0.13564	0.13496	0.2152	0.19296	0.18976	0.12776	0.14707	0.17852	0.308	0.078125	0.18872	-2.0958	-2.6188	-2.6771	-2.2875	-2.7875	-2.4354	-2.6208	-2.9625	-2.625	-2.675	-2.8646	-2.4771	-2.6854	-2.8896	-2.5604	-2.9875	100.576	5.322	193.804	120.717	151.624	50.760	309.257	15.106	215.995	32.446	105.536	42.875	255.760	265.277	279.544	247.047	0.00052735	0.0025093	0.00027675	939.61	5.9793e-06	2.6472e-05	1282.5	287.33	3.6984e-05	3.4762e-05	478.28	187.81	109.06	31.015	2.9071e-05	62.391	0.01398	0.013987	0.0036287	1882.8	0.00016574	0.00015168	1565.2	423.72	0.00015985	0.00014954	850.62	248.57	169.92	49.115	0.00013756	89.73	78.220	194.602	62.744	-6.879	42.389	65.865	-7.631	-1.923	48.747	90.295	-3.188	0.938	1.478	5.821	172.657	5.587	-8191	255	
2189.259	1	1	0	0	0.35835	0.33604	0.060379	0.44677	0.10041	0.075913	0.13615	0.25776	0.12982	0.09586	0.056527	0.28713	0.13758	0.1184	0.12166	0.048113	-2.1417	-2.5125	-2.7854	-2.4813	-2.8854	-2.8688	-2.6	-3.1708	-2.6208	-2.8375	-3.0021	-2.6667	-2.6146	-2.8208	-2.55	-2.8021	74.862	186.538	246.229	317.104	310.436	306.090	273.357	333.415	333.141	288.078	233.963	0.207	321.310	59.198	312.082	233.340	7.0664e-05	0.0011262	0.0012337	943.59	2.9995e-05	3.4576e-05	1291.9	287.28	3.9245e-05	3.9854e-05	480.42	189.72	108.7	30.525	2.1396e-05	61.912	0.012447	0.012352	0.0033076	1794	0.00013523	0.00012319	1526.8	400.22	0.00012211	0.00011347	775.45	235.13	152.23	43.382	0.00010755	81.958	28.909	27.045	108.171	-7.191	333.388	87.495	-7.488	-2.088	-8.991	148.318	-2.701	0.782	1.639	6.107	155.857	5.473	-8191	255	
2189.355	1	1	0	0	0.077501	0.14137	0.20043	0.31822	0.015904	0.10603	0.18609	0.22429	0.059868	0.1484	0.10998	0.14495	0.12394	0.15028	0.41518	0.15434	-2.3208	-2.7188	-2.8125	-2.5333	-2.5958	-2.8729	-2.8354	-3.0229	-2.6375	-2.4208	-2.9688	-2.8292	-2.8396	-2.8	-2.4646	-3.2708	318.176	327.228	24.294	279.427	273.917	-1.531	260.655	337.621	9.865	227.657	296.651	2.986	123.055	278.903	159.346	78.958	0.0003318	0.0032661	0.00067243	938.39	1.2557e-05	7.9854e-06	1289.1	291.25	7.813e-06	1.4711e-05	477.95	184.57	108.16	29.647	3.4133e-05	61.069	0.0088365	0.0087506	0.0025455	1544.4	9.4461e-05	8.5726e-05	1459.9	368.35	8.5809e-05	8.1589e-05	708.31	217.39	138.84	39.185	8.9914e-05	76.276	235.029	35.606	135.669	-7.286	47.092	136.888	-7.495	-2.483	70.180	189.814	-3.042	1.021	1.726	6.341	203.506	5.721	-8191	255	
2189.475	1	1	0	0	0.10606	0.12312	0.20685	0.26004	0.15803	0.13682	0.21989	0.28782	0.29832	0.16739	0.070415	0.10693	0.090243	0.20816	0.22697	0.16987	-2.3	-2.2917	-2.9833	-2.55	-2.5396	-2.925	-2.6479	-2.7792	-2.6458	-2.7396	-2.9667	-2.7521	-2.6521	-2.9958	-2.4333	-2.8521	112.553	58.038	246.060	73.983	208.755	218.401	-9.601	322.934	175.823	-15.314	178.026	308.499	56.640	-18.829	160.810	266.860	0.00071452	0.0012238	0.00094613	932.77	1.0081e-05	6.2192e-06	1276.5	292.73	4.6502e-06	1.0064e-05	471.97	181.29	105.64	29.434	1.5851e-05	61.773	0.0070861	0.0073352	0.0023762	1458.8	8.6132e-05	8.2953e-05	1457.8	367.7	8.6326e-05	8.8546e-05	740.77	216.97	141.69	41.438	0.00011491	80.632	83.613	133.747	157.479	-7.865	20.689	252.760	-7.398	-2.186	52.855	259.584	-3.022	1.224	1.771	6.870	308.944	5.847	-8191	255	
2189.572	1	1	0	0	0.19725	0.25041	0.054064	0.20084	0.14904	0.17255	0.046026	0.27256	0.2808	0.37607	0.046305	0.084544	0.087767	0.19276	0.21511	0.20546	-2.2438	-2.5583	-2.8187	-2.7417	-2.6437	-2.95	-2.7542	-2.5458	-2.9542	-2.4375	-2.9417	-2.8208	-2.7583	-2.9521	-2.6167	-2.775	60.765	47.409	226.263	308.079	312.693	219.909	115.551	268.696	94.775	254.730	248.222	134.749	186.079	210.979	259.222	293.091	0.00035207	0.002371	0.00032511	936.48	2.8483e-05	3.7275e-05	1270.5	283.1	3.3298e-05	7.4462e-06	460.21	173.72	101.53	30.499	2.4626e-05	63.807	0.0091005	0.010542	0.0034569	1685	0.00012729	0.0001379	1590.3	410.76	0.00014673	0.0001674	967.11	242.21	171.05	55.904	0.00022179	100.54	52.533	129.961	256.095	-7.369	-10.558	185.209	-7.458	-2.667	-20.250	173.336	-3.525	0.549	1.429	6.036	58.424	4.887	-8191	255	
2189.668	1	1	0	131072	0.062114	0.077337	0.23188	0.12329	0.14164	0.32449	0.38372	0.039966	0.15343	0.091892	0.12607	0.20451	0.32243	0.061517	0.21859	0.080275	-2.5042	-2.4792	-2.8542	-2.6125	-2.5687	-2.9188	-2.7208	-2.7354	-2.9813	-2.6083	-3.0333	-2.8542	-2.7771	-2.9604	-2.5583	-2.9354	174.206	-15.563	203.378	226.410	103.610	66.667	308.346	183.611	-10.931	333.474	163.619	42.656	46.487	122.444	143.151	45.479	0.00065902	0.0067454	0.00043983	951.95	8.7047e-06	4.471e-05	1286.5	276.5	5.3799e-05	6.5511e-05	453.25	171.64	101.08	32.269	7.6368e-05	64.849	0.017184	0.021813	0.0066031	2417.6	0.00024268	0.00028311	1919.3	517.31	0.00026745	0.00031954	1333	287.48	217.47	76.131	0.00034099	123.01	37.149	162.518	296.379	-7.838	169.821	196.640	-8.003	-2.462	148.147	193.315	-4.574	1.174	1.943	5.872	41.793	4.621	-8191	255	
2189.787	1	1	0	131072	0.13531	0.14125	0.12975	0.074544	0.13276	0.087869	0.19144	0.42573	0.041139	0.26471	0.16625	0.24767	0.33366	0.32149	0.099127	0.1084	-2.4313	-2.5208	-2.8396	-2.9292	-2.7625	-3.0042	-2.7604	-2.5417	-2.7854	-2.5792	-2.8833	-2.9562	-2.5792	-2.8375	-2.7583	-2.7354	11.922	279.273	321.546	203.283	82.072	116.960	305.665	232.124	224.972	78.641	288.470	257.719	304.095	321.717	246.437	-1.620	0.0015085	0.010092	0.0027776	969.1	7.4675e-05	4.1899e-05	1184.2	273.64	0.00011015	8.1835e-05	442.17	166.66	98.039	33.008	3.2493e-05	66.086	0.027093	0.035011	0.0094379	3040	0.00035209	0.0004142	2121.3	601.64	0.00038742	0.00046452	1662.7	328.88	275.84	98.012	0.00046974	146.91	98.498	135.427	333.974	-8.040	198.708	203.768	-7.627	-2.508	177.526	64.214	-4.705	0.370	2.355	4.285	-5.504	4.158	-8191	255	
2189.883	1	1	0	131072	0.1886	0.14224	0.18881	0.23069	0.12971	0.17354	0.042952	0.21483	0.14559	0.046751	0.1472	0.11392	0.17949	0.15634	0.16291	0.12199	-2.3875	-2.5146	-2.7687	-2.6792	-2.4542	-2.9	-2.8146	-2.6437	-2.9	-2.525	-2.7458	-3.0646	-2.4625	-3.0354	-2.6688	-2.6083	173.136	150.493	133.466	301.994	196.723	300.926	78.138	306.779	130.948	130.462	-13.302	246.754	308.807	243.336	207.184	214.850	0.003542	0.0022027	0.0041444	958.17	0.000158	7.0523e-05	917.21	271.22	0.00015504	0.00010936	440.26	163.11	97.096	33.195	7.605e-05	66.554	0.040631	0.049851	0.012865	3822.2	0.00052537	0.00057433	2325.8	705.31	0.00055405	0.00059887	1949.6	363.31	332.97	111.05	0.00055074	161.89	95.754	168.175	-2.388	-7.857	171.964	0.351	-8.049	-3.066	193.859	35.416	-4.089	0.222	2.108	4.084	24.969	4.249	-8191	255	
2189.954	1	1	0	131072	0.33146	0.24085	0.32797	0.17557	0.1166	0.099629	0.28912	0.15677	0.15237	0.25964	0.24	0.14095	0.11419	0.20505	0.14458	0.12113	-2.6063	-2.8563	-2.6188	-2.8229	-2.6125	-2.9896	-2.7896	-2.55	-2.9813	-2.6646	-2.7417	-3.0542	-2.5396	-2.9583	-2.9521	-2.7792	72.076	257.466	53.743	169.182	177.095	157.028	328.446	255.714	87.840	170.550	326.704	271.385	278.347	73.387	82.158	192.607	0.0034418	0.011729	0.0011548	940.74	9.8563e-05	0.00013065	825.9	261.2	0.0001404	9.7447e-05	440.86	158.91	98.582	34.157	5.2955e-05	66.702	0.051141	0.056518	0.014517	4207.6	0.00063249	0.00061959	2378.8	746.81	0.00062601	0.00060635	1964.8	372.23	342.03	105.92	0.00050717	158.55	67.333	-0.376	-3.162	-7.239	134.237	32.645	-7.933	-2.199	214.291	-18.374	-4.849	0.471	1.580	3.118	46.335	4.462	-8191	255	
2190.075	1	1	0	131072	0.25007	0.1124	0.16149	0.031484	0.19048	0.092613	0.1926	0.16651	0.28102	0.090642	0.072221	0.13821	0.18832	0.078427	0.20994	0.25034	-2.5167	-2.525	-2.4708	-2.9062	-2.6813	-2.7812	-3.075	-2.7375	-2.7	-2.6667	-2.6083	-2.9167	-2.7	-2.8458	-2.8729	-2.6458	73.590	294.742	197.230	-2.801	140.253	3.370	263.855	331.707	85.031	75.384	322.547	265.790	286.591	12.678	170.531	302.511	0.00099682	0.009827	0.00070874	943.28	4.0839e-05	7.0971e-05	1116.3	260.34	4.254e-05	1.8235e-05	433.04	160.54	96.195	32.327	3.8741e-05	66.535	0.048045	0.04776	0.012326	3889.5	0.00055106	0.00049679	2204.5	666.77	0.00049362	0.00044425	1550.3	326.97	274.79	83.206	0.00035931	136.66	95.287	4.208	300.372	-6.470	274.668	45.679	-7.899	-1.347	332.014	32.827	-3.926	1.345	0.865	5.305	-14.631	5.533	-8191	255	
2190.171	1	1	0	0	0.2871	0.087351	0.15608	0.074684	0.19257	0.15201	0.26931	0.2556	0.078473	0.14303	0.12778	0.13846	0.23332	0.12283	0.004772	0.05883	-2.5146	-2.6146	-2.2417	-2.8917	-2.7083	-2.65	-3.25	-2.675	-2.7104	-2.7292	-2.4146	-3	-2.5604	-2.5542	-2.875	-2.65	144.623	163.062	240.019	247.804	332.315	150.793	292.200	23.667	283.952	250.929	27.875	19.491	218.410	243.101	197.591	16.669	0.00088289	0.0024575	0.00064486	940.99	3.8016e-05	4.9432e-05	1275.4	262.62	0.00011189	6.6043e-05	433.2	159.53	94.002	31.016	3.1658e-05	65.157	0.033899	0.032808	0.0084465	3154.8	0.00037118	0.00033033	1907.2	550.9	0.00031438	0.00027907	1128	267.25	198.11	60.597	0.00021537	108.17	310.930	151.083	-7.151	-7.159	-2.014	-18.147	-7.635	-1.586	24.907	57.272	-3.025	1.071	1.895	6.335	205.593	5.948	-8191	255	
2190.267	1	1	0	0	0.097178	0.17722	0.10656	0.35192	0.10596	0.20612	0.19919	0.35755	0.078278	0.11438	0.2052	0.19709	0.3475	0.16499	0.22661	0.15355	-2.3146	-2.7604	-2.4542	-2.5	-2.3958	-2.5854	-2.9688	-2.4375	-2.5687	-2.8375	-2.5792	-2.9042	-2.8292	-2.5021	-2.8708	-2.5625	330.400	-10.501	241.725	272.523	124.237	160.306	284.835	312.507	221.718	90.084	30.542	263.370	338.943	250.088	225.979	41.157	6.4854e-05	0.0036237	0.001886	966.76	4.4935e-05	1.7756e-05	1267.7	271.51	2.4736e-05	5.1518e-05	440.53	160.23	95.996	32.287	4.5697e-05	68.084	0.018665	0.017829	0.0047077	2142.9	0.00018328	0.00016774	1602.6	432.37	0.0001705	0.00015901	884.47	231.23	163.58	53.108	0.00017294	102.26	320.858	-6.386	123.603	-7.604	-1.751	96.903	-7.505	-1.991	-1.641	62.361	-2.098	1.644	1.990	6.678	178.179	5.953	-8191	255	
2190.364	1	1	0	0	0.26064	0.11548	0.26552	0.20878	0.24839	0.12248	0.33071	0.34709	0.06475	0.074783	0.22968	0.13806	0.25247	0.16331	0.10293	0.084168	-2.2146	-2.5625	-2.5604	-2.9708	-2.6875	-2.5167	-3.1792	-2.4396	-2.8083	-2.8042	-2.6042	-3.0896	-2.5896	-2.4917	-2.8937	-2.6167	9.427	94.430	289.183	277.885	73.947	325.341	317.879	288.438	117.136	221.664	193.857	192.895	314.034	47.887	269.662	279.812	0.00067396	0.00050924	0.0016492	970.5	3.9349e-05	1.8868e-05	1270.1	274.49	1.8767e-05	1.985e-05	441.23	166.25	99.525	35.26	4.8741e-05	72.854	0.01522	0.01536	0.0046827	2140.5	0.00018377	0.00017381	1671.9	449.9	0.00018863	0.00018115	1007.5	246.36	175.28	58.428	0.00020893	109.86	47.641	1.681	153.629	-7.503	25.228	113.247	-7.424	-2.164	269.895	1.676	-3.045	1.284	1.991	6.735	199.299	5.684	-8191	255	
2190.460	1	1	0	0	0.065052	0.14024	0.079371	0.17594	0.23744	0.2217	0.061193	0.10413	0.15449	0.14565	0.10342	0.31954	0.22367	0.2886	0.21422	0.18672	-2.2812	-2.8521	-2.4021	-2.8917	-2.8542	-2.6104	-3.0125	-2.7021	-2.5833	-2.8542	-2.5854	-2.7771	-2.7229	-2.6312	-2.8	-2.7562	-6.449	99.313	259.736	-12.074	140.857	125.208	274.319	263.205	17.295	159.701	-10.700	310.850	-11.552	-3.910	287.803	263.423	0.000487	0.0052328	0.00091714	981.26	1.4824e-05	3.4219e-05	1275.2	279.43	8.2682e-05	2.4029e-05	456.01	168.77	102.3	36.329	2.8847e-05	74.646	0.016492	0.016838	0.0054615	2208.5	0.00019166	0.0001879	1729.1	454.21	0.00019209	0.00019087	1056.2	248.37	177.5	61.354	0.00022685	112.08	106.596	228.270	143.115	-7.969	8.599	219.648	-7.384	-1.903	12.290	195.957	-2.266	1.332	2.424	6.924	200.173	5.622	-8191	255	
2190.556	1	1	0	0	0.10342	0.054669	0.11013	0.29227	0.16384	0.098513	0.15933	0.10048	0.10927	0.13399	0.27477	0.10255	0.24063	0.31139	0.062946	0.31223	-1.9688	-2.75	-2.4979	-2.6167	-2.75	-2.3021	-2.9688	-2.7958	-2.3875	-2.8271	-2.6146	-2.8125	-2.6542	-2.5	-2.8292	-2.725	285.093	302.621	275.648	308.514	278.855	88.419	332.664	121.152	270.755	262.321	326.837	139.684	316.482	269.268	109.548	206.655	0.00080953	0.0058828	0.00032443	973.42	4.5397e-05	4.8497e-05	1272.9	273.28	2.8993e-05	5.6985e-05	449.96	167.69	100.16	35.883	6.4045e-05	73.183	0.017127	0.019181	0.0061631	2293.3	0.0002096	0.00022668	1805.5	475.13	0.00022197	0.00024534	1195.3	264.07	194.94	70.658	0.00029486	121.54	7.363	129.664	293.666	-7.759	17.098	185.577	-7.753	-2.263	71.746	230.595	-4.029	1.682	1.910	7.495	53.476	5.607	-8191	255	
2190.652	1	1	0	131072	0.14928	0.14604	0.018259	0.083864	0.090226	0.24422	0.21855	0.058025	0.057644	0.35083	0.056094	0.18199	0.19319	0.31902	0.23318	0.085708	-2.1875	-2.9583	-2.4917	-2.7917	-2.9938	-2.5167	-3.1562	-2.8187	-2.6813	-2.9688	-2.6542	-2.6917	-2.8958	-2.5563	-2.9167	-2.9542	-18.014	266.607	11.642	53.364	292.378	307.154	249.667	98.291	145.303	9.139	119.281	-17.259	67.944	59.125	42.967	239.754	0.0010388	0.0082426	0.0003133	967.92	2.7888e-05	6.0617e-05	1261.7	270.13	3.3068e-05	2.4295e-05	444.56	163.99	97.971	35.483	7.939e-05	71.617	0.022154	0.027221	0.0079199	2651	0.00026556	0.00030642	1905.4	508.81	0.00026195	0.00030482	1263.8	270.47	202.26	73.763	0.00028682	117.59	66.377	111.683	-4.477	-7.460	240.831	197.756	-7.774	-2.061	56.247	206.489	-3.928	1.399	2.902	6.980	-0.824	5.622	-8191	255	
2190.748	1	1	0	0	0.19699	0.27594	0.21907	0.25678	0.23936	0.33745	0.2714	0.090575	0.19958	0.045501	0.056989	0.13896	0.089417	0.28504	0.11354	0.25852	-2.0479	-2.9333	-2.7896	-2.5292	-2.7875	-2.5312	-2.9083	-2.8125	-2.6562	-3.0021	-2.5979	-2.8563	-3.0563	-2.7104	-2.9854	-2.9354	125.971	130.545	206.390	317.068	264.297	328.319	298.779	266.242	98.708	278.275	29.640	339.548	250.761	215.958	33.498	298.742	0.0013725	0.0010593	0.00095531	961.58	5.9121e-05	1.5849e-05	1256.7	269.83	9.6958e-05	4.3611e-05	444.02	165.4	98.533	35.522	1.5046e-05	71.903	0.021693	0.026956	0.0070837	2481.9	0.00025105	0.00029086	1815.2	477.48	0.00024667	0.00028421	1141.7	255.93	195.28	69.936	0.00024289	111.29	93.839	273.413	49.808	-7.626	170.319	70.384	-8.013	-2.321	181.725	30.879	-4.383	1.423	2.997	6.680	64.111	5.667	-8191	255	
2190.867	1	1	0	0	0.17338	0.07023	0.036736	0.16747	0.21155	0.2432	0.36968	0.093898	0.056348	0.12929	0.055572	0.13505	0.22565	0.12087	0.074642	0.09355	-2.0438	-2.9688	-2.7229	-2.5042	-3.0062	-2.4958	-2.8583	-3.0271	-2.7625	-3.0687	-2.7687	-2.725	-2.9833	-2.8312	-2.6125	-2.9729	-4.850	317.460	212.442	271.006	176.132	178.421	236.858	266.884	53.207	328.953	61.161	282.426	268.680	127.755	265.387	226.512	0.0024421	0.001981	0.0010215	957.9	5.5597e-05	1.855e-05	1253.8	271.08	6.8912e-05	6.3545e-05	443.11	166.14	99.893	35.495	4.2072e-05	71.768	0.020423	0.023696	0.0059056	2236.4	0.00023219	0.00024812	1713	445.59	0.00022712	0.00023494	1011.3	240.57	186.59	63.305	0.00019871	104.71	58.772	31.364	86.093	-7.793	186.193	91.329	-7.454	-1.663	203.838	82.825	-3.742	1.542	2.780	6.665	78.007	5.365	-8191	255	
2190.963	1	1	0	0	0.15599	0.15878	0.026226	0.062532	0.082077	0.13002	0.04853	0.33547	0.26168	0.13821	0.21696	0.056581	0.035242	0.33375	0.12895	0.14293	-2.1063	-2.9771	-2.8042	-2.7333	-3.1312	-2.5458	-2.8229	-3.1688	-2.7021	-2.7729	-2.8937	-2.7	-2.8729	-2.6979	-2.5792	-3.1104	192.053	270.284	216.499	255.014	320.770	66.380	30.454	49.819	8.206	316.700	45.653	185.707	31.549	79.083	303.757	262.600	0.0020652	0.0044904	0.0010044	970.69	2.0202e-05	4.3862e-05	1257.1	271.1	3.5372e-05	2.1037e-05	442.5	167.13	99.795	36.058	2.2751e-05	73.959	0.018327	0.019485	0.0049525	2041.6	0.00020672	0.0001981	1615.2	413.71	0.00018739	0.00017683	868.01	224.77	166.82	55.272	0.00013911	97.488	102.078	311.499	257.180	-6.779	149.871	53.969	-7.525	-1.634	87.250	24.348	-3.048	1.703	2.638	6.649	29.078	6.250	-8191	255	
2191.059	1	1	0	0	0.1485	0.14872	0.22048	0.20601	0.1637	0.066311	0.15649	0.26995	0.26214	0.22137	0.046267	0.071004	0.13424	0.037123	0.066441	0.25163	-1.9438	-2.7042	-2.725	-2.55	-2.8563	-2.6312	-2.8583	-2.7792	-2.5875	-2.7542	-2.7938	-2.6458	-2.925	-2.7583	-2.5	-3.1125	97.893	55.633	134.004	123.200	120.765	41.417	-1.079	290.590	178.512	320.382	104.658	235.373	253.205	31.625	159.135	258.968	0.00067245	0.00071352	0.00041398	964.75	8.6339e-06	1.941e-05	1253.3	273	3.3432e-05	4.9424e-05	451.34	169.16	102.6	37.214	2.8047e-06	76.832	0.01298	0.012579	0.0031496	1688.9	0.00013586	0.00012055	1460.8	366.45	0.00012093	0.0001081	702.33	206.38	141.14	48.363	8.1505e-05	91.042	115.229	57.829	256.391	-6.812	180.072	34.095	-7.565	-1.448	99.901	99.342	-2.840	2.041	2.514	7.096	311.500	6.271	-8191	255	
2191.155	1	1	0	0	0.32478	0.304	0.096812	0.16989	0.16586	0.0072407	0.30249	0.13065	0.10976	0.21438	0.22961	0.008596	0.18038	0.14355	0.17122	0.26808	-2.325	-2.7521	-2.9229	-2.4562	-2.7417	-2.8917	-2.7646	-3.1063	-2.5833	-2.5979	-2.9208	-2.5563	-2.8271	-2.8479	-2.3854	-2.9917	256.848	290.772	13.401	327.543	231.861	169.796	274.739	109.391	53.387	53.426	316.908	30.411	198.150	317.601	167.660	278.964	0.00080382	0.0013127	0.00019543	963.62	1.0878e-05	2.9705e-05	1249.6	271.53	2.9067e-05	2.096e-05	452.54	170.25	101.49	38.25	7.6283e-06	79.227	0.0074391	0.0070893	0.0017931	1385.4	7.5739e-05	6.7109e-05	1349.9	325.52	6.5332e-05	5.9067e-05	586.28	191.31	121.94	43.884	4.8087e-05	87.484	67.319	16.472	151.655	-7.144	1.970	101.734	-7.188	-1.347	36.814	110.283	-2.926	2.282	2.785	7.419	141.303	6.443	-8191	255	
2191.252	1	1	0	0	0.20373	0.14634	0.027803	0.12608	0.16743	0.15935	0.10408	0.16803	0.24925	0.23115	0.16611	0.083044	0.048441	0.076608	0.090456	0.092285	-2.0958	-2.6958	-2.7792	-2.55	-2.8604	-2.725	-2.7812	-2.8375	-2.5854	-2.6104	-3.0104	-2.6021	-2.8208	-2.8958	-2.7417	-2.9625	-1.837	250.645	277.553	296.128	21.515	82.367	252.715	315.960	210.366	44.186	305.164	284.483	302.069	91.047	127.098	45.549	0.00061667	0.0016392	0.00053586	954.14	1.4215e-05	4.4435e-06	1249.3	275.67	1.9619e-05	1.6304e-05	465.69	174.95	104.68	39.796	1.7065e-05	82.354	0.0042333	0.0041006	0.0010973	1205	4.4985e-05	4.0612e-05	1309.2	307.87	4.1164e-05	3.8309e-05	551.48	188.58	117.45	43.448	3.7942e-05	88.177	40.808	300.321	128.023	-7.373	142.154	294.587	-7.072	-1.340	89.064	76.899	-2.368	2.326	2.614	7.653	149.689	5.938	-8191	255	
2191.348	1	1	0	0	0.22868	0.18009	0.14582	0.17033	0.11567	0.30914	0.17768	0.18778	0.094567	0.30232	0.32093	0.24133	0.14217	0.18865	0.094059	0.25939	-2.1958	-2.4396	-2.8458	-2.6063	-2.7021	-2.7958	-2.6917	-2.8479	-2.7583	-2.4458	-2.9917	-2.6896	-2.6625	-2.6792	-2.475	-2.8042	-1.589	311.211	130.227	99.122	338.139	144.158	215.986	100.686	98.600	17.173	-18.641	256.507	319.670	210.728	24.421	295.363	0.00075132	0.0011825	0.00044142	939.62	5.2247e-06	6.7471e-06	1258.7	275.36	6.4511e-06	1.27e-05	476.57	179.17	108	40.752	1.2107e-05	83.769	0.003087	0.0030644	0.00091156	1131.7	3.3667e-05	3.1111e-05	1298.4	300.17	3.2328e-05	3.085e-05	548.88	189.05	117.62	43.737	3.5036e-05	88.8	72.406	119.053	131.530	-7.362	158.802	50.193	-7.316	-1.441	123.863	80.497	-2.732	2.053	2.712	7.443	175.121	5.851	-8191	255	
2191.468	1	1	0	0	0.10999	0.24376	0.14746	0.073978	0.11066	0.072594	0.028462	0.086154	0.21366	0.1715	0.19354	0.06849	0.096537	0.14814	0.31246	0.09362	-2.2	-2.4542	-2.9396	-2.3979	-2.7167	-2.8167	-2.7979	-2.6271	-2.7708	-2.4354	-2.8229	-2.7146	-2.6625	-3.0479	-2.4646	-3.0354	85.311	126.157	54.858	-12.395	71.495	278.440	-3.284	328.430	146.153	55.342	208.918	272.538	10.172	59.315	291.060	307.143	0.00068608	0.002158	0.00026282	946.09	2.0319e-05	1.8464e-05	1248.5	278.42	1.2698e-05	1.2012e-05	477.9	181.99	109.47	41.084	1.8703e-05	85.55	0.0027467	0.0028192	0.00091983	1113.3	3.2026e-05	3.1056e-05	1299	301.06	3.13e-05	3.2075e-05	559.18	191.37	119.06	44.402	3.5584e-05	89.621	65.820	77.098	55.684	-7.266	41.960	141.738	-7.399	-1.373	-2.747	175.680	-2.581	1.754	2.597	7.366	70.833	5.807	-8191	255	
2191.565	1	1	0	0	0.043325	0.25399	0.25694	0.058031	0.17021	0.066473	0.043246	0.19792	0.20125	0.13666	0.11716	0.091028	0.15304	0.15203	0.060856	0.16365	-2.3354	-2.4604	-2.9292	-2.45	-2.5771	-2.8688	-2.6375	-2.8125	-2.9	-2.4271	-2.8688	-2.9188	-2.5479	-3.0896	-2.4792	-2.9271	218.832	75.422	216.401	325.702	96.166	145.770	185.821	304.315	275.246	194.441	176.554	0.498	322.280	-4.325	221.731	4.698	0.00075771	0.0011254	0.0002603	937.66	7.7009e-06	1.7417e-05	1250.6	277.65	1.5293e-05	1.3803e-05	484.81	184.09	110.43	41.406	1.739e-05	86.152	0.0026002	0.0029187	0.00091352	1093.7	3.1099e-05	3.3442e-05	1299.9	300.96	3.2052e-05	3.6063e-05	568.77	193.86	121.51	45.442	4.027e-05	90.927	63.534	3.038	69.817	-7.235	123.989	196.772	-7.392	-1.400	116.910	137.110	-2.786	1.866	2.916	7.553	23.119	6.039	-8191	255	
2191.661	1	1	0	0	0.17125	0.087048	0.16677	0.070279	0.1286	0.18675	0.1796	0.19251	0.10012	0.12285	0.25401	0.26472	0.13966	0.085393	0.10398	0.15438	-2.5354	-2.5	-2.7271	-2.5125	-2.5271	-2.7708	-2.6375	-2.6583	-2.9042	-2.5417	-2.8875	-2.7938	-2.4479	-2.9729	-2.6917	-2.8875	147.609	274.846	218.042	53.536	280.917	321.559	317.560	286.876	261.771	183.302	339.708	-12.899	238.470	254.170	318.729	303.219	0.0010334	0.0012755	0.00050453	931.88	1.1061e-05	2.751e-05	1260	280.31	1.2344e-05	4.3239e-06	490.36	186.75	113.48	41.919	1.2798e-05	86.523	0.0030054	0.0036986	0.0010557	1117.9	3.5854e-05	4.0792e-05	1310.7	305.96	3.4707e-05	4.1032e-05	577.51	197.34	124.39	46.148	3.7143e-05	90.427	84.647	120.184	20.986	-7.244	138.893	209.578	-7.504	-1.335	91.845	262.576	-2.899	1.921	2.496	7.409	72.902	5.835	-8191	255	
2191.755	1	1	0	0	0.13995	0.15864	0.16492	0.073188	0.38155	0.236	0.18273	0.15314	0.18023	0.17228	0.27456	0.14294	0.50992	0.037889	0.097701	0.22151	-2.4813	-2.3542	-2.8208	-2.7625	-2.5271	-3.0521	-2.725	-2.5021	-2.8042	-2.6312	-2.7167	-2.9625	-2.55	-2.8271	-2.6625	-2.7125	23.225	301.156	219.025	140.545	219.997	15.521	302.392	334.206	267.664	120.447	314.130	174.639	257.315	104.965	228.297	251.562	0.00083601	0.0018168	0.00031746	918.36	1.6643e-05	8.0326e-06	1235.2	278.17	1.2578e-05	7.4804e-06	490.62	184.72	112.42	41.404	9.5681e-06	85.445	0.002848	0.0034922	0.00089835	1072.8	3.2092e-05	3.6709e-05	1277.2	298.99	3.1395e-05	3.5715e-05	554.57	192.5	122.18	45.125	3.1894e-05	88.888	79.092	71.795	243.135	-7.233	167.162	104.759	-7.288	-1.359	206.478	55.802	-2.456	2.005	2.236	7.355	25.564	6.029	-8191	255	
2191.851	1	1	0	0	0.1016	0.15074	0.20115	0.078524	0.25492	0.27701	0.39056	0.29617	0.099875	0.030401	0.16651	0.20084	0.02172	0.16244	0.028816	0.34804	-2.4	-2.5833	-2.6958	-2.8125	-2.4208	-2.7958	-2.9062	-2.575	-2.9542	-2.6312	-2.7042	-2.9437	-2.6813	-3.0333	-2.4938	-2.8937	202.548	51.866	22.104	27.600	75.281	248.948	266.661	272.585	338.676	197.451	32.314	-7.133	267.503	17.540	64.008	305.532	0.00077741	0.0011263	0.00030471	909.94	1.3536e-05	1.5719e-05	1229.3	275.96	1.9919e-05	1.3033e-05	485.9	181.28	110.71	41.036	6.1356e-06	83.85	0.0027685	0.0032056	0.00081742	1049.3	3.3149e-05	3.4944e-05	1263	295.31	3.3106e-05	3.4797e-05	545.73	188.56	120.82	44.204	2.8382e-05	86.998	64.355	332.319	59.782	-7.229	169.609	80.971	-7.363	-1.411	80.228	119.775	-2.447	2.064	2.436	7.264	40.884	5.880	-8191	255	
#DATA ENDS
