BOXY.EXE: ISS Imagent and Oximeter Data Acquisition Program Version 0.80
Ascii Record File

#ACQ INFORMATION
2  Detector Channels 
16  External MUX Channels 
1  Auxiliary Channels 
5000  Waveform (CCF) Frequency (Hz)
1  Waveforms Skipped 
30  Waveforms Averaged 
1  Cycles Averaged 
16  Acquisitions per Waveform 
10.0806  Updata Rate (Hz) 

#FILE INFORMATION
TRUE -- External MUX Channel results are PARSED.
FALSE -- AC DC and Phase are NOT grouped.
TRUE -- Companion Program Settings File CREATED.
FALSE -- AC data not excluded
FALSE -- DC data not excluded
FALSE -- Phase data not excluded
FALSE -- Auxillary Chn. data not excluded
Tab delimiters

#CALIBRATION STATE
TRUE -- Waveform Calibration Values APPLIED.


#AUX CALIBRATION VALUES
Val Type	aux-1	

Term	1.0000e+00	
Factor	0.0000e+00	


#WF CALIBRATION VALUES
A = Detector Channel
Val Type	A-AC1	A-AC2	A-AC3	A-AC4	A-AC5	A-AC6	A-AC7	A-AC8	A-AC9	A-AC10	A-AC11	A-AC12	A-AC13	A-AC14	A-AC15	A-AC16	A-DC1	A-DC2	A-DC3	A-DC4	A-DC5	A-DC6	A-DC7	A-DC8	A-DC9	A-DC10	A-DC11	A-DC12	A-DC13	A-DC14	A-DC15	A-DC16	A-Ph1	A-Ph2	A-Ph3	A-Ph4	A-Ph5	A-Ph6	A-Ph7	A-Ph8	A-Ph9	A-Ph10	A-Ph11	A-Ph12	A-Ph13	A-Ph14	A-Ph15	A-Ph16	

Term	0.00000e+00	0.00000e+00	0.00000e+00	0.00000e+00	0.00000e+00	0.00000e+00	0.00000e+00	0.00000e+00	0.00000e+00	0.00000e+00	0.00000e+00	0.00000e+00	0.00000e+00	0.00000e+00	0.00000e+00	0.00000e+00	0.00000e+00	0.00000e+00	0.00000e+00	0.00000e+00	0.00000e+00	0.00000e+00	0.00000e+00	0.00000e+00	0.00000e+00	0.00000e+00	0.00000e+00	0.00000e+00	0.00000e+00	0.00000e+00	0.00000e+00	0.00000e+00	0.00000e+00	0.00000e+00	0.00000e+00	0.00000e+00	0.00000e+00	0.00000e+00	0.00000e+00	0.00000e+00	0.00000e+00	0.00000e+00	0.00000e+00	0.00000e+00	0.00000e+00	0.00000e+00	0.00000e+00	0.00000e+00	
Factor	1.00000e+00	1.00000e+00	1.00000e+00	1.00000e+00	1.00000e+00	1.00000e+00	1.00000e+00	1.00000e+00	1.00000e+00	1.00000e+00	1.00000e+00	1.00000e+00	1.00000e+00	1.00000e+00	1.00000e+00	1.00000e+00	1.00000e+00	1.00000e+00	1.00000e+00	1.00000e+00	1.00000e+00	1.00000e+00	1.00000e+00	1.00000e+00	1.00000e+00	1.00000e+00	1.00000e+00	1.00000e+00	1.00000e+00	1.00000e+00	1.00000e+00	1.00000e+00	X	X	X	X	X	X	X	X	X	X	X	X	X	X	X	X	

B = Detector Channel
Val Type	B-AC1	B-AC2	B-AC3	B-AC4	B-AC5	B-AC6	B-AC7	B-AC8	B-AC9	B-AC10	B-AC11	B-AC12	B-AC13	B-AC14	B-AC15	B-AC16	B-DC1	B-DC2	B-DC3	B-DC4	B-DC5	B-DC6	B-DC7	B-DC8	B-DC9	B-DC10	B-DC11	B-DC12	B-DC13	B-DC14	B-DC15	B-DC16	B-Ph1	B-Ph2	B-Ph3	B-Ph4	B-Ph5	B-Ph6	B-Ph7	B-Ph8	B-Ph9	B-Ph10	B-Ph11	B-Ph12	B-Ph13	B-Ph14	B-Ph15	B-Ph16	

Term	0.00000e+00	0.00000e+00	0.00000e+00	0.00000e+00	0.00000e+00	0.00000e+00	0.00000e+00	0.00000e+00	0.00000e+00	0.00000e+00	0.00000e+00	0.00000e+00	0.00000e+00	0.00000e+00	0.00000e+00	0.00000e+00	0.00000e+00	0.00000e+00	0.00000e+00	0.00000e+00	0.00000e+00	0.00000e+00	0.00000e+00	0.00000e+00	0.00000e+00	0.00000e+00	0.00000e+00	0.00000e+00	0.00000e+00	0.00000e+00	0.00000e+00	0.00000e+00	-1.64124e+02	-1.34331e+02	-1.17949e+02	-1.82253e+02	-7.52879e+01	-6.26450e+01	-1.59673e+02	-1.62015e+02	-8.49910e+01	-7.28985e+01	-1.73437e+02	-1.73160e+02	-1.87935e+02	-1.78155e+02	-8.18410e+01	-1.50763e+02	
Factor	2.74309e-05	2.13387e-04	5.50513e-05	1.62759e-01	1.60481e-06	1.83435e-06	1.95155e-01	6.40897e-02	1.52885e-06	1.60519e-06	1.16290e-01	3.27102e-02	3.94705e-02	9.72176e-03	1.66134e-06	1.39751e-02	3.49212e-06	3.85682e-06	1.07645e-06	8.19710e-02	4.17040e-08	4.23842e-08	9.17160e-02	3.23082e-02	4.18294e-08	4.23276e-08	5.66427e-02	1.59731e-02	1.97584e-02	4.92990e-03	4.20100e-08	6.86893e-03	X	X	X	X	X	X	X	X	X	X	X	X	X	X	X	X	



#DISTANCE SETTINGS
A = Detector Channel
A-1	A-2	A-3	A-4	A-5	A-6	A-7	A-8	A-9	A-10	A-11	A-12	A-13	A-14	A-15	A-16	

2.5000e+00	3.0000e+00	2.5000e+00	3.0000e+00	2.0000e+00	3.0000e+00	1.5000e+00	3.0000e+00	3.0000e+00	3.0000e+00	3.0000e+00	3.0000e+00	3.0000e+00	3.0000e+00	1.5000e+00	3.0000e+00	

B = Detector Channel
B-1	B-2	B-3	B-4	B-5	B-6	B-7	B-8	B-9	B-10	B-11	B-12	B-13	B-14	B-15	B-16	

1.0000e+01	1.0000e+01	1.0000e+01	1.4400e+00	1.0000e+01	1.0000e+01	1.5100e+00	1.9400e+00	1.0000e+01	1.0000e+01	1.9900e+00	2.4900e+00	2.4100e+00	2.9000e+00	1.0000e+01	2.9800e+00	




#DATA BEGINS
time	group	step	mark	flag	A-AC1	A-AC2	A-AC3	A-AC4	A-AC5	A-AC6	A-AC7	A-AC8	A-AC9	A-AC10	A-AC11	A-AC12	A-AC13	A-AC14	A-AC15	A-AC16	A-DC1	A-DC2	A-DC3	A-DC4	A-DC5	A-DC6	A-DC7	A-DC8	A-DC9	A-DC10	A-DC11	A-DC12	A-DC13	A-DC14	A-DC15	A-DC16	A-Ph1	A-Ph2	A-Ph3	A-Ph4	A-Ph5	A-Ph6	A-Ph7	A-Ph8	A-Ph9	A-Ph10	A-Ph11	A-Ph12	A-Ph13	A-Ph14	A-Ph15	A-Ph16	B-AC1	B-AC2	B-AC3	B-AC4	B-AC5	B-AC6	B-AC7	B-AC8	B-AC9	B-AC10	B-AC11	B-AC12	B-AC13	B-AC14	B-AC15	B-AC16	B-DC1	B-DC2	B-DC3	B-DC4	B-DC5	B-DC6	B-DC7	B-DC8	B-DC9	B-DC10	B-DC11	B-DC12	B-DC13	B-DC14	B-DC15	B-DC16	B-Ph1	B-Ph2	B-Ph3	B-Ph4	B-Ph5	B-Ph6	B-Ph7	B-Ph8	B-Ph9	B-Ph10	B-Ph11	B-Ph12	B-Ph13	B-Ph14	B-Ph15	B-Ph16	aux-1	digaux	

22481.205	1	1	0	256	0.16273	0.046635	0.11646	0.26931	0.044695	0.14849	0.10845	0.3669	0.067076	0.059525	0.1891	0.051286	0.28339	0.23718	0.33684	0.031028	-1.9896	-2.1833	-2.8479	-2.4875	-2.625	-2.5958	-2.2729	-2.875	-2.4875	-2.125	-2.7417	-2.5042	-2.4813	-2.8854	-2.4062	-2.6375	168.171	487.733	484.109	412.065	221.082	308.312	384.173	445.229	134.867	487.410	472.779	477.767	141.735	486.957	422.785	430.628	0.00092853	0.00071715	0.00022897	1427.5	4.006e-06	3.249e-06	1038	544.26	6.8894e-06	5.9468e-06	410.66	159.94	220.35	84.684	6.2577e-06	60.251	0.00056903	0.00053129	0.00015015	1356.7	5.9684e-06	5.8657e-06	982.8	517.89	5.9866e-06	5.991e-06	390.18	152.35	208.86	81.288	5.9169e-06	58.055	148.526	200.096	254.157	142.859	243.819	236.942	141.265	148.145	209.870	250.683	145.642	149.800	152.682	158.232	242.504	154.353	-8191	255	
22481.301	1	1	0	0	0.19293	0.019098	0.11551	0.24656	0.16721	0.033239	0.20777	0.23634	0.19812	0.25394	0.10921	0.26059	0.02831	0.089121	0.2728	0.2848	-2.2896	-2.1063	-2.7708	-2.6063	-2.4917	-2.7583	-2.3312	-2.8375	-2.8187	-2.2542	-2.7729	-2.5875	-2.5292	-2.7146	-2.3354	-2.4625	151.160	200.691	368.602	182.568	345.225	258.993	377.781	406.997	229.878	423.947	177.436	336.779	455.391	468.521	423.550	471.200	0.00085683	0.0016344	0.0002523	1443.2	2.6568e-06	8.339e-06	1047.1	545.52	7.3464e-06	6.0255e-06	411.81	159.48	219.38	83.628	8.0998e-06	57.308	0.00057205	0.00053652	0.00014888	1360.9	5.8811e-06	5.8742e-06	993.91	518.71	5.8696e-06	5.8119e-06	390.4	151.32	207.73	80.03	5.9174e-06	55.21	149.204	201.386	193.011	143.096	188.584	256.410	140.875	148.296	205.286	262.743	145.818	149.826	152.680	158.379	251.622	154.049	-8191	255	
22481.396	1	1	0	0	0.2509	0.27086	0.19707	0.14904	0.095282	0.11892	0.29665	0.25085	0.14501	0.057803	0.01696	0.17155	0.15344	0.33902	0.14995	0.090968	-2.1479	-2.2333	-2.6021	-2.4979	-2.3021	-2.7146	-2.5396	-2.6437	-2.5771	-2.2854	-2.7583	-2.5854	-2.3375	-2.9917	-2.3979	-2.6292	342.368	327.623	364.368	162.045	334.611	131.382	421.423	415.816	273.427	195.364	176.486	403.297	373.430	469.182	421.681	359.292	0.00090131	0.00043469	0.00019988	1427.5	8.3557e-06	1.4193e-06	1015.2	539.88	1.1448e-05	6.0969e-06	398.38	153.38	216.38	81.323	9.7115e-06	56.228	0.00055881	0.00053168	0.00014797	1349.2	5.824e-06	5.8605e-06	964.56	513.84	5.8555e-06	5.784e-06	378.26	146.05	204.89	78.042	5.9167e-06	53.9	151.694	485.403	241.949	142.831	279.108	325.181	141.295	148.153	258.222	230.716	145.495	149.188	152.260	158.391	284.912	154.081	-8191	255	
22481.492	1	1	0	0	0.086919	0.28	0.25533	0.2958	0.10174	0.047673	0.084476	0.13823	0.023347	0.28181	0.23793	0.27393	0.15887	0.19095	0.34378	0.40215	-2.2146	-2.0875	-2.5062	-2.7021	-2.3604	-2.5125	-2.5854	-2.5771	-2.7792	-2.1792	-2.8104	-2.6188	-2.6188	-2.8042	-2.4813	-2.6021	381.302	473.413	225.169	454.343	379.326	242.401	322.921	275.191	360.566	331.709	344.333	395.031	154.553	455.464	349.011	141.434	0.00078972	0.00080739	0.00029087	1430.6	8.6607e-06	8.6927e-06	1025.6	546.64	8.7823e-06	5.9505e-06	403.9	154.86	217.22	81.353	8.7301e-06	56.579	0.00056493	0.00054112	0.00014554	1357.1	5.8638e-06	5.7181e-06	973.77	517.27	5.8966e-06	5.7467e-06	382.44	146.97	205.86	78.134	5.9126e-06	54.369	146.828	205.065	208.921	142.830	305.893	330.398	141.075	148.234	249.017	244.459	145.588	149.432	152.706	158.134	259.390	154.145	-8191	255	
22481.592	1	1	0	0	0.28628	0.064229	0.26525	0.21536	0.081766	0.15069	0.25551	0.34251	0.096661	0.016818	0.14191	0.18047	0.2476	0.067569	0.1319	0.21178	-2.2917	-2.2771	-2.4437	-2.7208	-2.3292	-2.6646	-2.4458	-2.6104	-2.5958	-2.5146	-2.7542	-2.8729	-2.5021	-2.9271	-2.5104	-2.45	489.949	476.770	163.174	443.956	401.456	133.571	356.086	385.418	385.061	267.396	345.758	417.555	405.321	396.874	262.668	482.293	0.00087352	4.6646e-05	0.0003083	1436.3	9.3145e-06	8.2361e-06	1038.8	545.84	1.0494e-05	8.5842e-06	408.32	158.04	218.82	82.446	1.3246e-05	58.497	0.00056484	0.00052834	0.00014531	1363.6	5.8284e-06	5.8231e-06	985.71	517.98	5.8036e-06	5.8498e-06	388.15	150.26	207.25	79.295	6.109e-06	56.387	152.141	332.874	225.499	142.728	265.063	342.904	140.836	148.236	246.128	253.334	145.513	149.528	152.801	158.324	253.804	154.267	-8191	255	
22481.711	1	1	0	0	0.19558	0.19429	0.083771	0.32015	0.11429	0.17394	0.090786	0.13713	0.25186	0.26553	0.054221	0.15914	0.2171	0.21567	0.11351	0.092337	-2.4708	-2.5229	-2.675	-2.7458	-2.3125	-2.6937	-2.7229	-2.5542	-2.7708	-2.5479	-2.7	-2.8812	-2.3146	-2.7833	-2.4333	-2.3542	340.490	303.102	384.844	477.697	322.263	478.487	132.821	411.358	145.406	295.926	135.311	450.577	399.215	460.122	233.677	284.871	0.00095501	0.00084124	0.00010136	1440.7	8.5846e-06	7.9477e-06	1055.8	546.79	9.8999e-06	8.4882e-06	412.33	161.48	220.34	83.699	6.0463e-06	59.997	0.00056867	0.00054927	0.00014986	1366.1	5.9717e-06	5.9838e-06	997.49	519.91	6.0612e-06	5.9555e-06	393.29	153.24	208.61	80.302	6.1453e-06	57.719	153.215	205.146	275.450	142.931	259.286	306.910	140.843	147.967	248.443	279.442	145.643	149.920	152.655	158.379	260.144	154.206	-8191	255	
22481.807	1	1	0	0	0.1774	0.31661	0.070033	0.12394	0.28455	0.13196	0.051367	0.49331	0.13125	0.16532	0.19911	0.17348	0.024757	0.26119	0.2548	0.23906	-2.3063	-2.3417	-2.5167	-2.9417	-2.1208	-2.7188	-2.7479	-2.5083	-2.6979	-2.5104	-2.4229	-2.6562	-2.3021	-2.8312	-2.6542	-2.2708	210.501	266.200	200.875	480.883	480.938	186.821	160.979	443.877	183.341	289.009	462.616	450.798	187.365	451.710	460.869	133.748	0.0010213	0.00072851	0.00013781	1436.1	7.0487e-06	7.5394e-06	1036.1	541.54	8.2976e-06	3.27e-06	403.29	156.25	216.93	81.699	3.7548e-06	56.411	0.00056959	0.0005372	0.00015034	1361.3	6.0189e-06	5.8126e-06	981.78	515.01	5.8701e-06	5.8556e-06	384.76	148.17	205.7	78.642	5.856e-06	54.451	145.630	190.967	183.950	142.650	264.366	280.546	140.888	148.065	202.746	308.148	146.168	149.639	152.507	158.302	255.868	154.256	-8191	255	
22481.879	1	1	0	0	0.20157	0.084272	0.17191	0.16257	0.14153	0.24734	0.27353	0.21107	0.073051	0.14158	0.20073	0.18081	0.24333	0.31435	0.091383	0.1755	-2.3417	-2.3104	-2.4104	-2.9542	-2.325	-2.5083	-2.7417	-2.5104	-2.6396	-2.5667	-2.5	-2.8042	-2.4729	-2.5292	-2.8333	-2.3688	266.690	432.856	188.294	432.444	405.805	199.550	451.698	400.920	405.450	450.214	182.974	431.392	449.205	488.344	332.489	275.952	0.00088697	0.00064144	0.0001316	1427.6	5.6371e-06	5.1905e-06	1030.3	542.05	9.8963e-06	2.6556e-06	401.27	156.82	217.32	82.012	9.7718e-06	57.17	0.00055581	0.00054243	0.00015006	1349.6	5.794e-06	5.9346e-06	974.37	515.24	5.9399e-06	5.8685e-06	383.38	148.54	206.44	78.86	5.8642e-06	54.956	152.133	180.782	253.099	142.969	242.115	327.008	141.047	148.112	246.416	337.656	145.645	149.587	152.365	158.186	263.696	153.904	-8191	255	
22481.998	1	1	0	0	0.15789	0.10313	0.27367	0.15	0.20632	0.11863	0.13207	0.1634	0.20142	0.21399	0.27316	0.14605	0.10165	0.27601	0.077507	0.19071	-2.2229	-2.6479	-2.1688	-2.9708	-2.3563	-2.4396	-2.9292	-2.6167	-2.8187	-2.7417	-2.5604	-2.725	-2.625	-2.5375	-2.7479	-2.4	347.908	390.691	191.112	436.201	240.327	471.466	195.568	419.841	221.859	135.434	149.405	413.910	459.182	394.738	483.849	363.821	0.0009049	0.0015275	0.00031796	1434	9.7284e-06	1.0718e-05	1032.2	544.82	1.0199e-05	3.7079e-06	403.46	157.14	218.16	82.329	8.824e-06	57.507	0.0005431	0.00052295	0.00014769	1361.1	5.738e-06	5.7787e-06	980.73	517.56	5.7984e-06	5.6564e-06	385.64	148.96	206.26	78.923	5.8807e-06	55.453	152.044	210.064	214.369	142.815	267.872	280.921	141.051	148.012	272.447	254.869	145.551	149.784	152.575	158.139	272.303	154.140	-8191	255	
22482.094	1	1	0	0	0.23765	0.43769	0.039892	0.29245	0.24142	0.1141	0.14408	0.41345	0.084927	0.052831	0.14919	0.37028	0.32954	0.21399	0.032819	0.10626	-2.2854	-2.6208	-2.3812	-2.9667	-2.4771	-2.4979	-2.925	-2.5854	-2.5792	-2.6333	-2.4	-2.8688	-2.5687	-2.6646	-2.6813	-2.4562	432.631	375.906	428.180	465.194	444.855	365.876	337.191	435.817	245.516	310.886	400.691	419.855	418.309	144.480	240.619	315.628	0.00085312	0.00013362	0.00034008	1445.7	6.3803e-06	9.0813e-06	1048.7	546.99	7.3384e-06	5.5285e-06	411.16	159.14	218.98	82.564	8.3738e-06	59.102	0.00055211	0.00052633	0.00014686	1370.8	5.8417e-06	5.7499e-06	994.1	520.58	5.9131e-06	5.7076e-06	390.64	150.81	207.54	79.465	5.9996e-06	56.81	149.230	199.114	231.844	142.781	295.842	288.080	141.042	148.197	226.709	287.747	145.696	149.742	152.456	158.292	290.706	154.192	-8191	255	
22482.191	1	1	0	0	0.35147	0.092377	0.038992	0.41175	0.15588	0.085762	0.2011	0.36866	0.37969	0.041979	0.1173	0.046435	0.20016	0.2289	0.010414	0.21229	-2.0104	-2.6271	-2.2229	-2.9729	-2.4771	-2.4271	-2.8271	-2.7292	-2.4896	-2.7667	-2.5958	-2.8229	-2.7458	-2.5021	-2.675	-2.7458	454.422	323.405	241.466	426.020	370.559	235.435	452.943	445.433	471.840	252.716	212.365	261.318	469.806	130.188	236.872	141.564	0.00089938	0.00078035	0.0002423	1451.8	8.3747e-06	4.8599e-06	1059.8	548.23	4.4956e-06	2.1491e-06	409.18	156.81	216.43	81.204	6.8372e-06	55.583	0.00056972	0.0005301	0.000149	1380.2	5.8749e-06	5.9009e-06	1006.1	522.26	5.8771e-06	5.7605e-06	388.18	148.68	205.65	77.852	5.82e-06	53.623	152.605	188.339	301.601	142.664	211.858	297.471	141.102	148.024	258.900	299.169	145.465	149.617	152.721	158.211	279.227	153.794	-8191	255	
22482.311	1	1	0	0	0.11732	0.080314	0.14336	0.36964	0.18559	0.14287	0.42277	0.15785	0.19092	0.077347	0.22233	0.01492	0.18334	0.17596	0.1303	0.3265	-1.9438	-2.7354	-2.2979	-2.8729	-2.8125	-2.2542	-2.8021	-2.7562	-2.5521	-2.7646	-2.6063	-2.6771	-2.6188	-2.8333	-2.8021	-2.5292	248.160	191.024	210.815	443.398	227.323	485.286	416.344	484.456	400.142	401.611	189.913	372.481	461.911	391.225	201.780	461.045	0.00084475	0.00047858	0.00020903	1433.1	3.7725e-06	4.2454e-06	1026	541.38	7.3664e-06	6.8586e-06	399.99	154.01	216.18	80.868	5.5933e-06	55.912	0.00055416	0.00052253	0.00014819	1359.7	5.7114e-06	5.7038e-06	972.63	514.97	5.778e-06	5.6026e-06	381.22	146.35	204.64	77.636	5.7625e-06	53.777	154.263	176.326	181.216	142.942	355.959	248.588	140.986	148.044	222.970	268.715	145.726	149.346	152.447	158.343	252.328	153.966	-8191	255	
22482.406	1	1	0	0	0.13567	0.37208	0.14469	0.23525	0.27188	0.12112	0.21283	0.16569	0.15851	0.13074	0.28837	0.14208	0.25271	0.27008	0.15276	0.15072	-2.0646	-2.7583	-2.4667	-2.7292	-2.7188	-2.3854	-2.8229	-2.4583	-2.2062	-2.7229	-2.5375	-2.5458	-2.7646	-2.3688	-2.5771	-2.5583	163.272	304.029	459.758	438.406	285.579	190.769	160.330	459.369	335.443	462.487	431.855	134.735	419.409	419.488	135.602	440.249	0.00083596	0.00083061	0.00019177	1431.1	7.4459e-06	1.2463e-05	1033.9	543.32	6.8654e-06	5.5283e-06	405.51	157.01	217.25	82.043	9.8534e-06	57.25	0.00055886	0.00053737	0.0001481	1358.7	5.8274e-06	5.9249e-06	977.96	516.26	5.8228e-06	5.8422e-06	385.54	148.65	205.88	78.715	5.8998e-06	55.169	152.957	154.750	245.415	142.857	266.874	319.008	141.304	148.066	264.648	259.986	145.625	149.546	152.735	158.035	274.786	154.033	-8191	255	
22482.477	1	1	0	0	0.25531	0.10618	0.10781	0.19179	0.086239	0.095163	0.039518	0.23249	0.30099	0.19671	0.24996	0.27177	0.20426	0.23697	0.075394	0.11046	-1.825	-2.6521	-2.1708	-2.4729	-2.6667	-2.3542	-2.7313	-2.7125	-2.45	-2.875	-2.3083	-2.3625	-2.8021	-2.5667	-2.6854	-2.675	147.552	253.092	394.540	375.061	184.504	165.947	332.129	436.691	426.181	383.438	453.194	463.808	153.748	132.663	466.969	455.523	0.00084099	0.00167	0.00031524	1437.3	4.5255e-06	3.9149e-06	1037.1	543.26	6.7736e-06	3.0854e-06	409.7	157.98	217.95	82.773	1.0925e-05	58.748	0.00056756	0.00054822	0.00015549	1362	5.8875e-06	6.0187e-06	986.56	517.23	6.0153e-06	5.8827e-06	388.69	150.4	206.96	79.466	6.0755e-06	56.509	150.075	219.131	245.108	142.766	271.339	352.779	140.973	147.927	258.183	351.617	145.903	149.934	152.544	158.200	270.869	154.288	-8191	255	
22482.598	1	1	0	0	0.14117	0.2596	0.17363	0.32442	0.12668	0.23164	0.054233	0.27812	0.082335	0.052879	0.022405	0.15268	0.25156	0.22527	0.23939	0.21568	-2.1146	-2.4625	-2.5292	-2.4562	-2.6979	-2.3771	-2.8125	-2.7625	-2.2896	-2.6125	-2.8417	-2.4208	-2.9375	-2.5771	-2.4271	-2.7667	364.710	216.272	360.921	431.696	276.481	372.504	388.719	452.638	163.869	234.936	398.097	439.010	429.626	440.442	246.443	382.635	0.00089407	0.00061305	0.00026122	1442.8	6.056e-06	9.9166e-06	1043.5	544.23	8.3158e-06	3.0208e-06	409.45	158.67	219.13	82.862	9.8869e-06	58.261	0.00058449	0.00055843	0.00015436	1365.9	6.152e-06	6.127e-06	989.63	517.36	6.1853e-06	6.1763e-06	388.77	151.4	207.61	79.634	6.242e-06	56.321	147.729	257.366	249.727	143.002	273.398	280.886	141.011	148.010	249.252	216.972	145.875	149.675	152.428	158.368	266.561	154.065	-8191	255	
22482.693	1	1	0	0	0.10621	0.033603	0.27986	0.29819	0.31654	0.2663	0.19791	0.072436	0.16521	0.21706	0.091207	0.066717	0.16858	0.21697	0.18822	0.22015	-1.8146	-2.5667	-2.4688	-2.5729	-2.7604	-2.5396	-2.7375	-2.9125	-2.4021	-2.7729	-2.65	-2.6583	-2.975	-2.6625	-2.6292	-2.5812	174.378	266.875	382.617	412.299	254.324	413.003	455.526	427.382	285.845	165.287	275.885	436.419	412.177	440.632	401.876	449.707	0.00073734	0.0012027	0.00031188	1429.9	7.3628e-06	1.7604e-06	1026	543.04	9.9746e-06	4.3606e-06	401.73	155.08	216.47	82.074	7.2145e-06	56.546	0.0005819	0.00055884	0.00015626	1358.5	6.0476e-06	6.0624e-06	974.63	514.75	6.0423e-06	6.0048e-06	381.28	147.6	205.35	78.611	5.9891e-06	54.523	155.805	215.477	270.276	142.829	260.625	320.046	140.933	148.248	259.017	262.247	145.654	149.479	152.593	158.006	229.092	154.143	-8191	255	
22482.789	1	1	0	0	0.03218	0.19422	0.17529	0.38518	0.23554	0.15721	0.11192	0.20548	0.14428	0.076814	0.27191	0.14509	0.32215	0.59419	0.099671	0.11967	-1.8833	-2.6708	-2.5292	-2.5333	-2.7333	-2.5083	-2.7375	-2.9958	-2.4229	-2.5854	-2.575	-2.4104	-2.8083	-2.7979	-2.5125	-2.8542	269.615	230.814	219.626	470.990	386.794	441.701	164.171	410.462	319.143	290.784	431.636	338.165	130.902	130.979	486.592	469.334	0.00085757	0.0014206	0.0002685	1422.1	8.207e-06	7.9201e-06	1022.2	540.88	1.2571e-05	4.7956e-06	404.63	156.83	217.51	83.717	8.373e-06	58.721	0.00058392	0.0005519	0.00015319	1348.9	6.0844e-06	6.0531e-06	968.79	514.46	6.2216e-06	6.0469e-06	384.55	149.75	207.22	80.366	6.1281e-06	56.378	151.108	209.913	197.522	142.939	236.801	257.482	141.034	147.994	240.746	264.955	145.616	149.761	152.633	157.882	233.211	154.133	-8191	255	
22482.887	1	1	0	0	0.11196	0.13522	0.039478	0.23575	0.19687	0.21947	0.079218	0.026413	0.019099	0.38596	0.018058	0.40598	0.18564	0.19024	0.21221	0.42503	-1.8979	-2.4938	-2.4562	-2.4062	-2.7667	-2.3458	-2.6125	-2.7896	-2.3563	-2.7542	-2.6917	-2.4229	-2.6333	-2.6771	-2.225	-2.6771	478.303	318.427	341.693	443.015	403.740	269.114	461.229	206.829	167.049	275.539	461.206	456.497	468.212	424.793	168.891	443.800	0.00090751	0.0016772	0.0002435	1425.3	4.875e-06	6.5353e-06	1028	543.15	9.7951e-06	6.0609e-06	407.09	159.66	218.91	84.44	2.6435e-06	59.439	0.00059234	0.0005544	0.00015464	1349.1	6.0162e-06	6.0849e-06	974.82	516.22	6.1693e-06	6.0171e-06	386.75	151.52	207.8	80.872	6.2177e-06	57.197	153.904	199.708	226.679	142.936	228.135	237.392	141.234	147.931	267.374	297.029	145.449	149.723	152.435	158.217	249.031	154.181	-8191	255	
22483.008	1	1	0	0	0.11555	0.19579	0.072113	0.41999	0.22835	0.16422	0.15418	0.48855	0.029975	0.1968	0.12254	0.26691	0.26945	0.31983	0.33578	0.10318	-1.8667	-2.4437	-2.5375	-2.4833	-2.6583	-2.5479	-2.3625	-2.7854	-2.3333	-2.675	-2.7208	-2.3708	-2.7896	-2.8438	-2.2792	-2.8104	427.899	274.539	308.923	436.248	449.280	324.035	438.388	436.537	334.685	203.995	215.720	466.708	409.833	135.289	134.554	367.246	0.00094483	0.00074352	0.00019303	1424.6	1.0952e-05	8.5523e-06	1032.1	545.85	5.4127e-06	5.0199e-06	408.09	161.48	220.16	84.768	1.2289e-05	60.427	0.00058146	0.0005516	0.00015484	1353.9	6.0668e-06	6.1655e-06	981.18	517.53	6.1924e-06	6.019e-06	389.82	153.1	208.57	81.289	6.2068e-06	57.953	150.952	247.960	239.089	142.738	250.304	280.729	141.011	148.002	272.415	223.371	145.814	149.536	152.460	157.959	271.386	154.378	-8191	255	
22483.104	1	1	0	0	0.21974	0.17888	0.19262	0.43212	0.21724	0.22206	0.16648	0.21857	0.20026	0.17207	0.080899	0.19629	0.13593	0.19793	0.1442	0.045433	-1.9375	-2.4792	-2.7125	-2.4062	-2.6458	-2.4729	-2.4021	-2.9167	-2.4437	-2.4729	-2.8229	-2.4042	-2.9062	-2.7583	-2.3771	-2.975	391.418	245.661	247.765	399.524	476.729	368.948	334.255	446.934	418.725	435.250	187.350	422.645	211.040	134.970	248.902	383.806	0.0009591	0.0013785	4.9244e-05	1435.2	1.8892e-06	9.1721e-06	1042.1	543.88	9.4645e-06	1.8827e-06	402.25	156.69	216.65	82.664	1.0277e-05	56.811	0.00058403	0.00056053	0.00015439	1361.7	6.0438e-06	5.9023e-06	985.95	517.4	6.0195e-06	5.9133e-06	383.8	149.15	205.35	79.185	6.0781e-06	54.554	148.754	212.040	201.779	142.981	271.736	255.204	141.071	148.021	236.197	378.558	145.970	149.396	153.046	157.964	280.399	154.327	-8191	255	
22483.176	1	1	0	0	0.04267	0.087719	0.092693	0.32881	0.31488	0.18375	0.15096	0.37399	0.2235	0.049475	0.19593	0.13758	0.10262	0.12118	0.044708	0.10704	-2.0792	-2.2646	-2.6813	-2.4583	-2.5875	-2.4333	-2.3937	-2.7729	-2.4604	-2.4479	-2.7875	-2.5646	-2.6958	-2.9062	-2.3521	-2.9125	297.931	456.003	341.697	449.569	382.415	402.360	429.279	484.703	410.445	172.992	154.452	335.728	475.843	414.921	179.284	239.125	0.00098111	0.00070658	9.1879e-05	1426	7.5416e-06	6.9363e-06	1016	539.05	9.0848e-06	1.018e-05	397.66	154.16	215.55	81.108	2.541e-06	55.737	0.00057144	0.00053779	0.00015234	1348.8	5.8396e-06	5.902e-06	963.14	511.29	5.9626e-06	5.833e-06	376.02	146.22	203.98	77.64	6.0132e-06	53.848	159.292	189.143	294.665	142.884	250.785	298.298	141.243	147.878	240.474	283.991	145.362	149.310	152.516	158.220	231.553	154.123	-8191	255	
22483.271	1	1	0	0	0.19193	0.16716	0.072851	0.029725	0.16879	0.20744	0.068603	0.13063	0.25921	0.10418	0.078168	0.17272	0.36477	0.29546	0.22075	0.24443	-2.0479	-2.5708	-2.6042	-2.4979	-2.6896	-2.7958	-2.6188	-2.5563	-2.4583	-2.4583	-2.9146	-2.5	-2.7	-2.7062	-2.2125	-2.7625	310.854	192.253	375.664	148.607	325.424	199.229	356.835	332.734	327.569	383.914	429.805	466.413	485.493	477.602	386.658	330.097	0.00089201	0.00056596	0.00017217	1427.6	5.2666e-06	7.9138e-06	1023.6	540.27	4.206e-06	4.0135e-06	399.65	157.07	216.23	81.031	9.3397e-06	57.356	0.00055984	0.00054094	0.00015147	1353.1	5.9724e-06	6.0747e-06	971.73	512.67	6.0756e-06	5.973e-06	380.34	148.11	204.71	78.003	6.0582e-06	55.137	150.361	198.112	220.045	142.920	230.245	274.107	141.121	148.210	239.031	247.819	145.725	149.652	152.354	158.126	293.971	154.089	-8191	255	
22483.393	1	1	0	0	0.16117	0.17455	0.14576	0.1955	0.22592	0.055434	0.24487	0.37228	0.17139	0.23609	0.096905	0.066395	0.20455	0.42448	0.30838	0.089182	-2.0208	-2.3521	-2.9	-2.8146	-2.5458	-2.8167	-2.5146	-2.9333	-2.575	-2.3812	-2.8521	-2.6333	-2.5687	-2.8417	-2.3604	-2.7167	141.427	176.186	148.597	432.357	472.436	438.217	410.939	453.160	212.994	415.118	392.105	438.473	484.581	483.174	169.324	387.785	0.00077037	0.00071138	0.00025288	1433.3	1.2319e-06	8.8376e-06	1038.5	542.65	8.6843e-06	5.8987e-06	406.76	158.84	217.44	82.303	6.6719e-06	59.345	0.00057684	0.00054492	0.00015486	1358.8	5.9651e-06	6.0256e-06	985.05	515.4	6.0358e-06	6.0304e-06	385.48	150.74	206.3	78.945	6.0212e-06	56.967	151.412	214.960	282.080	143.016	135.581	269.043	140.969	148.320	281.409	256.657	145.825	149.784	152.470	158.297	260.885	154.069	-8191	255	
22483.486	1	1	0	0	0.32469	0.094882	0.053421	0.090424	0.26449	0.013037	0.26812	0.31815	0.14837	0.26297	0.18249	0.24318	0.14992	0.13766	0.17305	0.24261	-2.2854	-2.4562	-2.7083	-2.5396	-2.4313	-2.8312	-2.5646	-2.7125	-2.6979	-2.2771	-2.8979	-2.7125	-2.3479	-2.9167	-2.4583	-2.6813	210.636	362.280	257.208	165.366	304.537	281.688	470.833	458.543	245.704	453.975	470.976	170.805	343.909	135.743	270.763	158.388	0.00092814	0.00092156	0.00013177	1446.7	8.989e-06	1.8398e-06	1060.4	547.77	1.2527e-05	5.4507e-06	411.29	161.08	218.88	82.556	1.3504e-05	58.826	0.00057869	0.00054867	0.000154	1368.4	6.0117e-06	5.9685e-06	1001.1	519.21	6.1263e-06	6.0645e-06	391.56	153.24	207.15	79.183	6.0988e-06	56.359	149.505	210.182	235.677	142.930	272.003	335.747	141.049	148.060	240.131	289.395	145.340	149.800	152.756	158.325	276.503	154.142	-8191	255	
22483.582	1	1	0	0	0.28191	0.21499	0.053698	0.20577	0.10217	0.15116	0.29019	0.12275	0.079212	0.069174	0.23579	0.18151	0.16742	0.21666	0.043178	0.095981	-2.3375	-2.2646	-2.6458	-2.7271	-2.3521	-2.8125	-2.8	-2.6604	-2.9208	-2.4021	-2.6542	-2.6917	-2.4854	-2.8292	-2.7042	-2.5583	182.274	481.854	324.814	476.670	228.838	339.099	448.223	459.553	368.260	302.264	372.654	481.810	483.500	142.843	419.700	296.541	0.00089924	0.00087632	0.00014362	1436.4	1.0092e-05	4.9002e-06	1026.7	542.14	4.6684e-06	6.4946e-06	403.07	155.42	215.44	81.267	1.2104e-05	56.295	0.00057715	0.00055529	0.00015285	1357	5.8406e-06	5.9167e-06	973.31	513.98	6.0961e-06	5.9524e-06	380.93	147.52	203.99	77.881	5.992e-06	54.07	150.880	204.565	169.255	142.734	280.082	298.765	141.435	148.045	290.370	268.067	145.383	149.545	152.498	158.194	223.787	154.202	-8191	255	
22483.678	1	1	0	0	0.21626	0.14302	0.34444	0.21487	0.15177	0.0889	0.11543	0.25217	0.079026	0.23277	0.27078	0.16525	0.15152	0.19103	0.17417	0.34808	-2.3	-2.4792	-2.4271	-2.9542	-2.3146	-2.7604	-2.5187	-2.5229	-2.6562	-2.4333	-2.5042	-2.8083	-2.3812	-2.9417	-2.4667	-2.5229	196.788	204.784	130.906	478.989	432.206	356.251	336.258	457.774	467.952	319.100	408.991	405.397	466.852	372.469	361.608	393.952	0.00080567	0.00087439	3.2119e-05	1426.2	6.1463e-06	6.9391e-06	1029.9	540.41	8.0268e-06	5.1207e-06	407.5	157.45	217.29	81.678	8.0044e-06	57.774	0.00056895	0.00054866	0.00015139	1348.5	5.9728e-06	5.9441e-06	973.7	512.32	6.0487e-06	5.9809e-06	383.49	149.35	205.21	78.283	6.0659e-06	55.42	148.810	185.991	136.445	142.907	266.230	295.311	141.478	148.005	253.698	254.217	145.745	149.571	152.656	158.315	242.322	154.244	-8191	255	
22483.773	1	1	0	0	0.16478	0.16414	0.22121	0.25615	0.22744	0.098866	0.2589	0.2198	0.27244	0.18751	0.059822	0.24696	0.21927	0.021333	0.12055	0.15657	-2.4042	-2.3312	-2.3958	-2.8917	-2.3667	-2.7125	-2.7313	-2.5938	-2.6417	-2.6312	-2.7125	-2.8208	-2.6312	-2.9771	-2.7833	-2.3979	260.768	184.317	189.107	370.785	201.329	398.158	451.902	150.945	173.524	329.945	145.536	147.249	169.485	453.711	249.333	467.358	0.00091427	0.001169	0.00024176	1432	7.2797e-06	3.7038e-06	1038.5	543.07	7.4149e-06	5.6688e-07	410.06	160.2	217.59	82.306	3.5474e-06	59.246	0.00056706	0.00055443	0.00015272	1357.4	6.0407e-06	6.0143e-06	986.07	515.51	6.0563e-06	6.0835e-06	387.77	151.55	206.52	79.051	6.0727e-06	57.023	157.923	248.784	231.183	142.864	234.074	319.352	140.903	148.023	292.014	391.653	145.215	149.654	152.377	158.142	248.868	154.398	-8191	255	
22483.871	1	1	0	0	0.060118	0.14257	0.31625	0.4089	0.14969	0.19461	0.15989	0.27325	0.19082	0.13926	0.051266	0.11613	0.13836	0.3525	0.19325	0.061458	-2.2854	-2.5333	-2.5417	-2.8479	-2.4521	-2.7458	-2.85	-2.5062	-2.7875	-2.4854	-2.4042	-2.7917	-2.3104	-2.8438	-2.7083	-2.4229	480.260	330.129	408.708	441.559	289.135	454.961	466.505	441.159	386.657	434.906	401.665	362.378	164.213	486.080	390.508	426.018	0.00091941	0.00029021	0.00017385	1438.5	1.1403e-05	9.0076e-06	1055.6	545.22	1.0928e-05	8.3952e-06	412.83	163.05	218.89	83.874	3.8111e-06	61.735	0.00057717	0.00054919	0.00014984	1363.1	6.0199e-06	6.0032e-06	1001.5	518.06	6.0101e-06	6.011e-06	393.45	155.12	207.76	80.487	6.1768e-06	59.213	145.286	227.808	220.682	142.729	247.457	256.257	141.102	148.113	248.748	293.991	145.471	149.693	152.492	158.219	279.653	154.509	-8191	255	
22483.990	1	1	0	0	0.19218	0.25252	0.33013	0.38822	0.17364	0.021122	0.26227	0.37285	0.16883	0.16328	0.15786	0.29215	0.19981	0.352	0.16047	0.14876	-2.4354	-2.5604	-2.3563	-2.9646	-2.3625	-2.6333	-2.7583	-2.4229	-2.6333	-2.6083	-2.6833	-2.9417	-2.5062	-2.8208	-2.8354	-2.5271	259.622	446.631	301.864	475.875	420.891	463.084	417.480	426.171	235.913	329.974	149.026	445.192	275.635	130.975	369.999	402.242	0.00097407	0.0010029	0.00015025	1441.6	1.0047e-05	8.5453e-06	1061.2	545.21	5.4289e-06	3.1579e-06	412.04	160.7	217.17	81.914	8.5103e-06	58.15	0.00058124	0.00055293	0.00015283	1368.5	5.9787e-06	5.9126e-06	1006.9	518.67	5.9903e-06	5.9179e-06	391.83	152.42	206.2	78.786	6.0025e-06	55.835	150.873	224.551	222.874	142.674	248.992	258.418	140.970	147.954	254.541	251.920	145.352	149.581	152.676	158.072	265.385	154.084	-8191	255	
22484.088	1	1	0	0	0.18068	0.087286	0.045962	0.11475	0.40597	0.11325	0.076924	0.2902	0.23261	0.2216	0.27638	0.088375	0.18483	0.28231	0.20689	0.11177	-2.0125	-2.5958	-2.3542	-2.8271	-2.4958	-2.6208	-2.8187	-2.5604	-2.7396	-2.7625	-2.375	-2.8625	-2.5917	-2.6521	-2.7396	-2.3812	232.074	210.636	166.495	431.944	487.131	284.215	200.971	423.472	445.304	429.550	447.747	243.311	166.680	162.319	485.497	297.063	0.0009296	0.00076048	5.0868e-05	1433.2	3.5606e-06	7.475e-06	1042.8	541.56	2.685e-06	5.843e-06	408.95	159.25	217.43	81.833	9.8934e-06	58.1	0.00055667	0.00053472	0.00014994	1357.1	5.8643e-06	5.9945e-06	985.36	514.92	5.854e-06	5.8122e-06	388.51	151.14	205.9	78.53	5.9384e-06	55.97	148.735	145.776	138.710	142.904	263.576	319.020	141.079	147.924	281.415	277.608	145.395	149.522	152.205	158.120	259.313	153.967	-8191	255	
22484.184	1	1	0	0	0.1662	0.12698	0.10836	0.3537	0.15579	0.29648	0.37715	0.057441	0.082791	0.1258	0.27286	0.062093	0.16041	0.31377	0.054234	0.065179	-2.1479	-2.5729	-2.4229	-2.9604	-2.5563	-2.4375	-2.9313	-2.7146	-2.7604	-2.5417	-2.375	-2.7333	-2.6188	-2.6333	-2.7396	-2.5229	462.418	432.383	216.583	176.701	383.267	458.442	431.460	141.917	340.259	345.260	454.846	462.507	231.134	488.607	165.595	424.368	0.00084783	0.0001535	0.00040479	1440.5	1.0582e-05	6.8528e-06	1051.2	544.42	9.7509e-06	5.8006e-06	412.89	160.41	218.35	82.458	3.1204e-06	59.48	0.00055247	0.00052576	0.00014856	1365.5	5.8118e-06	5.8636e-06	998.31	518.52	5.9975e-06	5.9522e-06	391.75	152.94	207.01	79.312	5.9851e-06	57.257	147.772	149.934	267.460	142.684	281.443	277.356	141.009	147.954	236.396	239.447	145.450	149.450	152.194	158.164	277.020	154.349	-8191	255	
22484.279	1	1	0	0	0.073291	0.24347	0.1314	0.15192	0.28064	0.037421	0.25335	0.23981	0.077705	0.14821	0.13112	0.33495	0.12146	0.3104	0.05381	0.36945	-2.2708	-2.7188	-2.4375	-2.9521	-2.7396	-2.6104	-2.7667	-2.8271	-2.6146	-2.5354	-2.4292	-2.8937	-2.6688	-2.6042	-2.9417	-2.7396	186.023	173.032	442.099	168.263	261.690	358.630	431.750	409.000	168.896	260.505	479.427	440.315	161.270	462.167	333.429	464.193	0.0010068	0.00047713	0.00016536	1448.1	6.7227e-06	6.7234e-06	1057.9	548.84	5.9882e-06	6.8595e-06	415.05	162.36	219.96	83.177	6.6627e-06	59.548	0.0005666	0.00054285	0.00015322	1370.1	6.0533e-06	5.882e-06	1003.3	521.01	5.9535e-06	5.9934e-06	393.79	154.62	208.4	80.163	6.0155e-06	57.565	150.436	237.974	195.225	142.964	262.597	295.724	141.016	147.867	224.302	320.768	145.579	149.851	152.360	158.298	249.218	154.025	-8191	255	
22484.398	1	1	0	0	0.1082	0.36805	0.20959	0.13047	0.14415	0.094341	0.27757	0.34191	0.20054	0.28807	0.37082	0.32879	0.24929	0.058211	0.14192	0.12345	-2.0667	-2.6729	-2.2521	-2.8792	-2.5479	-2.3875	-2.9021	-2.6083	-2.5812	-2.8438	-2.4708	-2.775	-2.6521	-2.3833	-2.7292	-2.6063	398.936	355.128	289.610	457.570	200.997	401.845	417.038	457.598	329.709	249.178	445.262	395.400	450.523	449.170	158.751	426.262	0.00091934	0.00077491	0.0001476	1434.8	6.4358e-06	2.8795e-06	1042.9	544.43	6.5669e-06	8.0674e-06	404.45	156.88	217.22	81.907	1.043e-05	56.58	0.00056829	0.00054651	0.00015153	1363	5.9286e-06	5.9255e-06	985.37	516.31	5.8927e-06	5.9077e-06	384.92	149.67	205.82	78.621	5.9076e-06	54.574	155.807	202.231	304.806	142.968	259.751	291.569	140.925	147.837	255.023	297.402	145.252	149.323	152.561	158.171	252.356	153.799	-8191	255	
22484.471	1	1	0	0	0.22214	0.11495	0.1639	0.30049	0.077854	0.19996	0.1023	0.25554	0.20017	0.14463	0.1347	0.25287	0.069058	0.27573	0.1917	0.06529	-2.15	-2.8146	-2.3958	-2.825	-2.6562	-2.2667	-2.9062	-2.7333	-2.3667	-2.8271	-2.5687	-2.8417	-2.7417	-2.6583	-2.8646	-2.5667	352.336	209.653	243.998	429.697	155.927	181.424	480.303	139.246	488.666	176.545	374.952	455.177	192.355	157.061	384.438	479.347	0.00081908	0.0012232	0.00023717	1426.1	9.646e-06	7.203e-06	1025.9	539.57	6.5084e-06	4.4561e-06	408.89	158.41	217.58	82.535	1.511e-06	57.94	0.00055675	0.00053883	0.00014871	1350.7	5.9264e-06	5.8658e-06	974.48	513.71	5.962e-06	5.7792e-06	386.71	150.98	205.89	79.212	5.7884e-06	55.948	149.397	219.063	250.812	143.033	304.011	283.913	140.978	147.989	274.693	257.503	145.314	149.968	152.616	158.064	384.262	154.142	-8191	255	
22484.566	1	1	0	0	0.14393	0.25295	0.12897	0.38256	0.073312	0.36824	0.27767	0.29045	0.12659	0.15528	0.23482	0.17867	0.2957	0.27415	0.23468	0.2414	-2.1312	-2.9729	-2.3937	-2.7917	-2.6771	-2.4813	-2.95	-2.9083	-2.5563	-2.6542	-2.6479	-2.5604	-2.9625	-2.5625	-2.7208	-2.5187	141.886	372.422	209.864	450.054	265.425	403.731	390.916	462.749	159.804	253.454	399.929	454.506	420.202	434.447	212.998	433.699	0.00086737	0.00044121	0.00023517	1427.6	9.0049e-06	3.7942e-06	1046.1	544.01	4.8368e-06	7.7384e-06	411.96	160.62	218.04	81.905	9.8701e-06	58.346	0.00056138	0.00053637	0.00014723	1356.4	5.927e-06	5.7794e-06	991.78	516.66	5.7695e-06	5.6858e-06	390.38	152.8	206.13	78.657	5.8132e-06	56.296	153.145	215.162	204.496	142.815	254.783	256.188	141.031	147.860	268.159	258.571	145.605	149.732	152.434	158.207	257.342	154.231	-8191	255	
22484.662	1	1	0	0	0.10572	0.12957	0.25159	0.18847	0.16283	0.17412	0.15336	0.2278	0.15534	0.14379	0.29853	0.071226	0.15188	0.16255	0.17158	0.25463	-2.0167	-2.7104	-2.5167	-2.7062	-2.875	-2.7208	-2.8688	-2.8042	-2.3833	-2.9729	-2.65	-2.4979	-2.8333	-2.4875	-2.5833	-2.8125	211.257	344.666	146.779	283.576	478.156	465.520	293.042	428.536	372.661	335.393	477.565	489.705	406.423	483.194	360.093	466.059	0.0009011	0.001213	0.00012808	1449.7	1.1897e-06	4.6312e-06	1065.7	546.35	5.1541e-06	4.897e-06	415.95	162.9	218.22	82.163	1.4046e-05	60.42	0.0005551	0.00052732	0.00014554	1370.8	5.8232e-06	5.7304e-06	1011.5	518.6	5.781e-06	5.7163e-06	395.84	154.88	206.82	79.027	5.8666e-06	57.706	150.536	277.852	245.717	142.596	373.944	255.913	141.028	147.977	265.075	294.932	145.558	149.635	152.614	158.487	270.084	154.288	-8191	255	
22484.783	1	1	0	0	0.16714	0.19998	0.022921	0.27703	0.27542	0.18606	0.37697	0.38769	0.059461	0.15346	0.24166	0.23425	0.2509	0.17193	0.19877	0.31723	-1.9438	-2.8458	-2.3979	-2.6021	-2.6458	-2.5292	-2.8375	-2.8396	-2.3896	-2.8771	-2.625	-2.4688	-2.9479	-2.7125	-2.5312	-2.7396	287.319	466.312	283.903	458.566	390.473	190.306	430.041	423.907	375.916	160.231	133.661	401.395	146.218	450.482	320.313	402.590	0.00090611	0.0011995	0.0001651	1452.1	5.6076e-06	2.4512e-06	1084.6	549.24	5.4086e-06	1.0612e-05	422.29	165.89	219	82.697	7.302e-06	59.455	0.00054659	0.00051985	0.00014361	1382.2	5.7889e-06	5.7009e-06	1024.5	522.89	5.7666e-06	5.7436e-06	400.24	157.17	208.28	79.439	5.7871e-06	57.141	155.567	192.475	250.192	142.778	305.122	241.972	140.926	147.883	243.063	306.845	145.493	149.720	152.639	158.109	219.114	154.198	-8191	255	
22484.879	1	1	0	0	0.31715	0.045546	0.1516	0.44412	0.37254	0.12736	0.18064	0.30771	0.36589	0.082585	0.33319	0.22474	0.1249	0.2606	0.26364	0.22115	-1.9396	-2.7521	-2.5729	-2.525	-2.8167	-2.4938	-2.6333	-3.0333	-2.3208	-2.7875	-2.6354	-2.4583	-2.8521	-2.5896	-2.4813	-2.8021	347.738	485.344	174.160	446.693	268.582	341.871	490.057	476.833	334.165	429.734	425.907	489.258	348.936	476.750	233.101	439.550	0.00090822	0.00080949	9.5017e-05	1441	8.4813e-06	7.5093e-06	1042.4	542.81	5.9349e-06	4.5852e-06	406.96	157.79	215.83	80.317	1.0858e-05	55.826	0.00056157	0.00052129	0.00014753	1367.2	5.8433e-06	5.6686e-06	995.62	515.88	5.8149e-06	5.6935e-06	387.35	149.98	204.16	77.054	5.8029e-06	53.88	150.452	233.867	200.048	142.857	297.892	295.347	140.957	148.070	277.674	294.293	145.734	149.444	152.634	158.181	275.191	154.295	-8191	255	
22484.975	1	1	0	0	0.089916	0.35026	0.1994	0.27459	0.12978	0.32999	0.41078	0.5284	0.16766	0.21018	0.11094	0.16546	0.25121	0.17098	0.074455	0.095154	-2.0062	-2.625	-2.5854	-2.3812	-2.825	-2.5854	-2.6208	-3.025	-2.4625	-2.7583	-2.5354	-2.5208	-2.7208	-2.7271	-2.4729	-2.7542	369.231	210.232	441.333	460.034	332.309	356.325	460.965	453.998	142.949	437.136	322.964	425.786	427.104	481.149	309.860	146.573	0.00085976	0.00097408	0.00035905	1435.6	1.0177e-05	1.0043e-05	1041.8	541.57	4.0996e-06	5.0665e-06	408.01	158.59	217.38	80.501	5.7769e-06	56.865	0.00054657	0.00052002	0.00014545	1358.7	5.7405e-06	5.7554e-06	988.7	515.65	5.7052e-06	5.5785e-06	387.5	151.16	205.15	77.628	5.8392e-06	55.177	149.467	247.980	247.325	142.867	230.673	263.167	140.817	148.057	215.624	258.601	145.625	149.619	152.364	158.209	257.847	153.935	-8191	255	
22485.072	1	1	0	0	0.1887	0.22505	0.20226	0.23858	0.096165	0.092429	0.28674	0.33927	0.082696	0.18805	0.39848	0.063791	0.048604	0.1191	0.036055	0.088713	-2.0708	-2.6625	-2.6229	-2.6458	-2.6188	-2.5042	-2.5563	-2.9562	-2.2917	-2.5812	-2.5438	-2.4354	-2.7313	-2.85	-2.3021	-2.9646	354.526	406.859	455.039	469.089	234.666	456.431	400.807	416.866	384.751	375.121	158.228	483.865	157.317	487.375	487.103	378.364	0.00085479	0.0004731	0.0001589	1439.3	8.2736e-06	5.6379e-06	1049.8	543.49	1.0903e-05	4.3539e-06	413.48	161.31	216.89	81.521	7.9631e-06	59.17	0.0005522	0.00051383	0.00014534	1366.5	5.7802e-06	5.7829e-06	999.51	516.58	5.8434e-06	5.7182e-06	392.35	153.47	205.79	78.596	5.8809e-06	56.847	150.251	248.184	169.345	142.786	281.844	331.502	141.241	147.977	218.274	245.113	145.636	149.682	152.739	158.185	273.498	154.207	-8191	255	
22485.168	1	1	0	0	0.094778	0.11669	0.079948	0.10782	0.19538	0.31917	0.14648	0.14143	0.11912	0.20727	0.36668	0.13768	0.030049	0.32401	0.11549	0.13158	-1.7583	-2.4917	-2.6521	-2.6292	-2.6562	-2.675	-2.3646	-3.0292	-2.5979	-2.5458	-2.7396	-2.55	-2.8458	-2.7375	-2.2833	-2.7271	439.903	473.355	149.126	401.724	351.742	484.462	435.846	349.986	154.002	283.077	486.375	346.460	191.057	426.027	220.619	422.022	0.00082714	0.0014182	0.00017902	1434.6	7.2945e-06	7.0537e-06	1056.6	541.32	6.2569e-06	7.1202e-06	416.84	162.68	217.81	82.558	8.0864e-06	60.898	0.00057066	0.00054032	0.00015031	1360.9	5.7883e-06	5.9491e-06	1004.7	516.31	5.9164e-06	5.8985e-06	396.29	155.13	206.4	79.38	6.0049e-06	58.443	153.025	224.762	195.542	142.684	243.828	210.450	140.825	147.910	200.895	306.541	145.926	149.700	152.592	158.203	287.718	154.332	-8191	255	
22485.264	1	1	0	0	0.28056	0.063024	0.097243	0.24547	0.06098	0.18555	0.16073	0.24371	0.36447	0.086342	0.23506	0.020698	0.30104	0.047399	0.045331	0.22291	-2.0604	-2.3	-2.5375	-2.5625	-2.6646	-2.7521	-2.2729	-2.8208	-2.4917	-2.3583	-2.7687	-2.5	-2.7646	-2.7062	-2.1312	-2.5667	280.128	330.706	206.876	141.186	313.421	155.081	447.039	430.918	204.205	266.945	380.982	359.419	179.319	343.601	246.209	486.481	0.0008912	0.0010707	0.00024093	1436	1.0399e-05	4.7379e-06	1076.2	543.43	9.199e-06	6.2629e-06	417.19	163.89	217.73	82.068	3.9189e-06	58.733	0.00056514	0.00053265	0.00015077	1360.5	5.8956e-06	5.8701e-06	1016	517.36	5.7786e-06	5.7455e-06	398.35	155.98	206.1	78.979	5.8762e-06	56.455	151.759	206.328	241.870	142.890	285.025	327.980	140.670	148.123	251.428	262.444	145.825	149.462	152.581	157.932	301.906	154.101	-8191	255	
22485.359	1	1	0	0	0.34154	0.13517	0.10773	0.21498	0.14108	0.26305	0.40696	0.34189	0.16133	0.24672	0.20654	0.17492	0.098807	0.25312	0.17413	0.20585	-2.075	-2.2271	-2.9229	-2.5229	-2.5271	-2.8417	-2.45	-2.7917	-2.6479	-2.4042	-2.8521	-2.6729	-2.5271	-2.7521	-2.2604	-2.7208	241.320	389.695	260.954	415.616	470.654	223.608	429.367	386.191	252.755	401.015	418.847	214.368	151.536	419.847	416.364	369.771	0.0008836	0.00083166	0.00017369	1421.1	8.7821e-06	5.662e-06	1042	535.02	6.7389e-06	1.1703e-06	405.01	159.88	216.56	81.655	1.2119e-05	58.454	0.00056268	0.00053006	0.0001478	1348.8	5.7835e-06	5.8099e-06	987.42	510.21	5.87e-06	5.7143e-06	387.05	152.26	205.22	78.495	5.767e-06	56.222	149.766	208.280	254.197	142.595	272.879	301.446	141.250	147.997	244.367	259.616	145.653	149.541	152.436	158.047	240.654	154.007	-8191	255	
22485.479	1	1	0	0	0.17154	0.12525	0.17603	0.39679	0.33338	0.11262	0.3637	0.23804	0.12346	0.085312	0.093577	0.31278	0.17485	0.22164	0.0691	0.16042	-1.9604	-2.3604	-2.5854	-2.625	-2.4292	-2.7458	-2.2604	-2.8229	-2.5687	-2.4833	-2.7458	-2.4875	-2.4604	-2.9479	-2.4604	-2.7417	401.420	277.732	179.160	482.013	271.230	348.537	397.199	441.972	296.742	452.243	156.345	410.073	396.702	170.556	415.815	460.338	0.00087781	0.00066825	0.00013326	1426.2	9.8566e-06	1.5612e-06	1044.2	539.62	9.2672e-06	6.5125e-06	412.32	162.59	216.73	82.143	7.8836e-06	59.823	0.00056632	0.00053664	0.00014309	1349.9	5.7922e-06	5.7472e-06	991.97	512.73	5.8761e-06	5.6766e-06	392.35	154.4	206.04	79.211	5.8279e-06	57.535	153.738	212.858	182.820	142.586	283.057	291.910	141.211	148.022	272.826	278.497	145.539	149.319	152.622	158.395	302.307	154.319	-8191	255	
22485.574	1	1	0	0	0.2399	0.23856	0.056656	0.18291	0.025281	0.13154	0.20849	0.20952	0.33924	0.039664	0.10522	0.22907	0.38743	0.10821	0.32714	0.080464	-2.2438	-2.4833	-2.6771	-2.7646	-2.5292	-2.9479	-2.4792	-2.6271	-2.6083	-2.2958	-2.8271	-2.6208	-2.4417	-2.8292	-2.3021	-2.45	400.720	419.481	185.383	485.115	316.641	469.025	390.196	399.700	377.245	168.806	154.713	202.400	443.473	479.199	417.193	182.308	0.00095371	0.00050261	0.00011359	1423.1	3.6707e-06	5.782e-06	1051.2	541.74	1.0354e-05	7.597e-06	415.29	164.52	219.11	84.41	8.9552e-06	61.939	0.00056497	0.00052718	0.00014563	1352.1	5.8402e-06	5.6995e-06	995.33	516.2	5.9112e-06	5.8901e-06	395.31	157	208.36	81.348	5.9983e-06	59.669	155.756	202.731	185.650	142.862	245.448	266.129	141.411	147.958	264.066	220.730	145.537	149.579	152.265	157.848	227.701	153.737	-8191	255	
22485.672	1	1	0	0	0.1059	0.13569	0.28736	0.13013	0.049299	0.092906	0.19634	0.30934	0.38612	0.26228	0.31064	0.09921	0.22954	0.15876	0.096257	0.28811	-2.2313	-2.2042	-2.6604	-2.6312	-2.3	-2.7167	-2.3583	-2.6833	-2.7021	-2.3375	-2.6292	-2.5083	-2.3958	-2.7521	-2.375	-2.5521	236.275	485.560	280.690	429.381	321.117	486.582	384.181	411.070	394.662	301.358	472.508	366.240	444.591	137.147	398.232	434.448	0.00097515	0.00064152	0.00011131	1428	3.5444e-06	2.7985e-06	1062.9	545.61	8.3974e-06	3.3266e-06	423.92	167.39	220.1	84.854	9.1508e-06	61.598	0.00056373	0.00053406	0.00014687	1358.3	5.8765e-06	5.8255e-06	1006.7	519.98	5.9752e-06	5.7643e-06	401.15	159.33	209.35	81.472	5.7122e-06	59.192	150.248	217.062	302.759	142.798	312.521	232.544	141.122	147.890	241.380	325.983	145.516	149.234	152.323	158.002	280.727	154.143	-8191	255	
22485.768	1	1	0	0	0.15707	0.33473	0.20055	0.21319	0.086741	0.2678	0.20157	0.27556	0.21921	0.21754	0.21612	0.26274	0.085137	0.022007	0.21433	0.16936	-2.1583	-2.2062	-2.6583	-2.6771	-2.3688	-2.775	-2.5625	-2.5417	-2.4958	-2.4208	-2.625	-2.7188	-2.4479	-2.8896	-2.5896	-2.575	486.402	184.479	393.825	195.466	230.198	425.037	444.700	432.252	260.196	354.993	320.080	160.587	438.543	425.540	463.824	417.232	0.00094646	0.0010397	0.00015658	1440.2	6.2565e-06	1.2501e-06	1057.1	547.51	7.9978e-06	2.8806e-06	409.67	159.65	216.53	81.486	8.5829e-06	57.238	0.00056412	0.0005228	0.00014424	1367.6	5.8238e-06	5.6552e-06	997.44	519.74	5.6599e-06	5.5548e-06	388.86	151.48	205.88	78.343	5.7013e-06	55.042	153.137	209.824	268.246	142.527	262.386	276.065	140.668	147.937	260.603	307.336	145.555	149.217	152.440	158.084	250.013	154.079	-8191	255	
22485.863	1	1	0	0	0.29914	0.34325	0.26491	0.090558	0.14648	0.26771	0.13853	0.075525	0.28837	0.18745	0.13965	0.078362	0.23411	0.21087	0.33721	0.20304	-2.2438	-2.25	-2.4396	-2.8167	-2.2021	-2.6896	-2.5	-2.6896	-2.8542	-2.2771	-2.5979	-2.7083	-2.3187	-2.7062	-2.4292	-2.3083	364.678	229.896	170.881	178.257	476.867	241.396	131.103	143.726	327.280	266.629	448.276	398.276	455.073	158.127	149.564	145.113	0.00086236	0.0011051	0.00010049	1433.9	9.0364e-06	5.3688e-06	1041.7	543.83	1.0568e-05	6.1061e-06	411.3	159.67	217.01	82.613	1.1054e-05	58.616	0.00054238	0.00051754	0.00014345	1361.2	5.6063e-06	5.4833e-06	989.27	517.11	5.7281e-06	5.6186e-06	389.65	152.22	205.93	79.051	5.8199e-06	56.46	154.821	185.819	297.634	142.604	236.359	302.835	140.912	147.909	272.008	280.598	145.549	149.606	152.427	158.001	236.553	154.008	-8191	255	
22485.961	1	1	0	0	0.26841	0.18366	0.058428	0.23064	0.37421	0.12573	0.057727	0.13065	0.19768	0.12748	0.092956	0.11833	0.17894	0.19125	0.13914	0.1948	-2.3625	-2.3312	-2.4208	-2.9188	-2.2146	-2.6208	-2.6771	-2.4562	-2.6854	-2.3021	-2.325	-2.6937	-2.5479	-2.6583	-2.5771	-2.5771	157.372	320.239	253.605	133.144	266.869	363.225	321.452	188.620	483.842	156.311	429.341	165.191	461.411	441.070	159.849	441.850	0.0009604	0.00091716	0.00030331	1432.7	6.2254e-06	1.1162e-05	1050.6	542.52	9.9484e-06	5.0165e-06	413.08	161.71	218.13	82.845	7.3566e-06	59.73	0.00055001	0.00052718	0.00014704	1359.8	5.7491e-06	5.677e-06	996.19	516.99	5.7762e-06	5.6835e-06	393.5	153.84	206.9	79.54	5.727e-06	57.458	158.525	230.029	238.531	142.754	275.957	281.130	141.099	148.055	286.509	278.859	145.246	149.448	152.599	158.006	257.457	154.301	-8191	255	
22486.080	1	1	0	0	0.071284	0.052286	0.14651	0.33116	0.039071	0.14546	0.33824	0.07423	0.18573	0.20111	0.25835	0.082113	0.19022	0.24367	0.089282	0.18353	-2.125	-2.375	-2.3833	-2.8979	-2.2521	-2.4646	-2.5958	-2.4688	-2.5875	-2.4313	-2.3438	-2.8479	-2.5812	-2.7729	-2.8125	-2.4583	399.936	433.251	424.599	148.750	176.933	243.971	434.187	437.712	265.464	431.251	237.208	368.334	449.196	471.136	191.941	424.231	0.00097526	0.00073383	0.00036905	1450.8	8.1301e-06	8.6615e-06	1064.6	545.69	5.6701e-06	8.2755e-06	419.5	163.74	219.33	83.567	1.2449e-05	61.526	0.0005602	0.00052519	0.00014796	1372.1	5.7125e-06	5.7242e-06	1008.4	519.91	5.7701e-06	5.8686e-06	398.66	155.43	207.5	80.498	5.8575e-06	59.034	155.214	139.216	244.847	142.674	228.947	311.712	140.768	147.880	209.188	291.838	145.282	149.320	152.361	158.120	254.985	154.318	-8191	255	
22486.176	1	1	0	0	0.086416	0.28907	0.22609	0.15338	0.17522	0.28727	0.34619	0.18615	0.027651	0.060051	0.21239	0.13148	0.10944	0.31224	0.11066	0.194	-2.2292	-2.5792	-2.3937	-3.0062	-2.5917	-2.4708	-2.8187	-2.5146	-2.5604	-2.6354	-2.5271	-2.7313	-2.475	-2.6458	-2.6937	-2.5563	233.790	145.914	355.598	448.801	459.819	200.879	409.689	361.273	299.718	432.146	484.022	385.078	184.674	448.842	451.136	137.554	0.00089277	0.0011737	5.6561e-05	1454.2	8.7223e-06	6.576e-06	1075.8	545.7	1.0534e-05	7.1016e-06	410.44	162.03	216.48	82.325	8.3407e-06	58.145	0.00056497	0.00054134	0.00014803	1378.1	5.8496e-06	5.8719e-06	1020.3	521.38	5.9206e-06	5.785e-06	394.49	153.93	206.16	79.023	5.9199e-06	55.974	148.115	199.327	244.936	142.755	301.432	302.321	140.959	147.814	230.788	206.094	145.273	149.462	152.426	157.830	249.679	153.923	-8191	255	
22486.271	1	1	0	0	0.054516	0.013033	0.1941	0.11667	0.22087	0.32723	0.19174	0.13572	0.051255	0.14415	0.14279	0.32614	0.31948	0.041836	0.17453	0.23393	-2.2	-2.4792	-2.3542	-2.9333	-2.5271	-2.4437	-2.7542	-2.5042	-2.7271	-2.7146	-2.4813	-2.8542	-2.5333	-2.3604	-2.7875	-2.3187	404.496	450.681	367.305	441.713	412.943	222.646	489.040	473.093	229.967	193.630	489.087	131.961	438.462	425.610	461.110	486.965	0.00080835	0.0009771	0.00026324	1435.1	4.9141e-06	9.2103e-06	1044.7	543.25	1.0987e-05	7.7718e-06	407.95	159.38	216.36	81.81	7.0202e-06	58.274	0.00055389	0.00053113	0.00015092	1360	5.808e-06	5.7925e-06	990.47	516.03	5.878e-06	5.7688e-06	387.32	151.24	205.07	78.629	5.8593e-06	56.054	156.394	226.948	232.018	142.557	292.575	311.529	141.068	148.009	266.743	288.085	145.346	149.490	152.331	158.017	284.948	154.328	-8191	255	
22486.344	1	1	0	0	0.14939	0.0061008	0.03473	0.18471	0.17248	0.16542	0.20598	0.26753	0.25248	0.081304	0.16534	0.27529	0.11898	0.1985	0.23872	0.21526	-2.4292	-2.4729	-2.2292	-2.8396	-2.3042	-2.4333	-2.7104	-2.4083	-2.4437	-2.7521	-2.2958	-2.6042	-2.5708	-2.4625	-2.8583	-2.55	263.439	205.985	434.691	235.908	145.676	322.493	408.220	433.849	365.463	170.031	390.401	418.528	394.376	134.447	240.358	387.341	0.00096337	0.0011359	0.00010322	1436.6	9.0671e-06	5.2108e-06	1052.7	542.71	9.1616e-06	8.6886e-06	410.84	160.96	217.2	82.48	8.38e-06	59.871	0.00055618	0.00053497	0.00014805	1362.1	5.7024e-06	5.833e-06	996.41	516.48	5.7487e-06	5.7377e-06	391.24	152.95	206.21	79.283	5.8464e-06	57.292	148.857	231.224	223.638	142.803	267.146	266.623	140.876	147.971	204.023	262.554	145.391	149.237	152.448	158.010	261.352	154.056	-8191	255	
22486.463	1	1	0	0	0.071773	0.083172	0.079288	0.37541	0.25199	0.11129	0.11909	0.30451	0.14438	0.14605	0.17757	0.21097	0.065472	0.20514	0.1325	0.27749	-1.9229	-2.4688	-2.3187	-2.6979	-2.5104	-2.3333	-2.8812	-2.6437	-2.5271	-2.7583	-2.2958	-2.6396	-2.6417	-2.3896	-2.6562	-2.6271	144.251	228.653	181.948	474.285	171.966	410.416	418.579	373.806	258.859	361.045	160.673	473.704	411.513	168.480	193.103	418.262	0.00087867	0.00088225	6.242e-05	1433.6	9.2713e-06	5.918e-06	1059.2	545.89	7.3397e-06	1.9984e-06	416.5	162.97	218.7	83.292	1.0533e-05	60.662	0.00056088	0.00053729	0.00014732	1365	5.7141e-06	5.7965e-06	1004	518.04	5.8815e-06	5.7008e-06	395.45	154.83	207.17	80.08	5.8763e-06	58.358	152.340	242.024	233.448	142.855	239.622	282.713	140.778	147.945	270.479	303.333	145.612	149.597	152.257	158.122	265.307	154.004	-8191	255	
22486.559	1	1	0	0	0.080157	0.066878	0.19187	0.21395	0.17738	0.12584	0.19186	0.24697	0.13722	0.16782	0.012346	0.27257	0.28865	0.51089	0.13446	0.17494	-2.0438	-2.725	-2.2687	-2.7646	-2.6	-2.2417	-2.8146	-2.5812	-2.2896	-2.8063	-2.3292	-2.6896	-2.7646	-2.3937	-2.5479	-2.6479	404.258	419.881	246.398	440.095	262.709	288.163	448.868	378.866	189.230	250.313	186.827	426.101	475.711	445.827	163.059	396.686	0.00094137	0.00089349	0.0002618	1447.9	4.4121e-06	8.0557e-06	1061.3	546.97	8.9289e-06	5.2369e-06	420.47	163.75	218.52	83.336	7.9802e-06	59.842	0.00056565	0.0005324	0.00014752	1370.4	5.7524e-06	5.716e-06	1010.7	520.56	5.8882e-06	5.7036e-06	399.21	156.04	207.61	80.078	5.7454e-06	57.709	148.869	269.107	248.597	142.808	239.682	266.918	141.044	147.977	247.395	289.256	145.229	149.558	152.544	158.075	221.196	153.951	-8191	255	
22486.654	1	1	0	0	0.08973	0.20466	0.062094	0.21665	0.14031	0.19203	0.19184	0.17586	0.056022	0.093928	0.15493	0.21408	0.25121	0.10706	0.12011	0.16381	-1.8667	-2.4542	-2.3083	-2.7188	-2.5292	-2.4229	-2.7125	-2.6375	-2.3187	-2.7104	-2.5125	-2.5167	-2.8312	-2.3042	-2.6146	-2.7417	318.343	172.103	152.777	478.430	447.600	219.980	431.513	471.281	190.591	343.200	134.550	155.912	323.244	428.928	409.068	342.846	0.00089378	0.00085587	0.00031202	1442.1	4.5004e-06	1.6788e-06	1048.6	545	5.5913e-06	3.132e-06	406.82	157.26	215.83	81.296	1.0263e-05	56.862	0.0005591	0.00052675	0.00014417	1366.1	5.783e-06	5.5946e-06	992.06	517.39	5.8313e-06	5.5864e-06	385.51	149.81	204.52	77.917	5.7104e-06	54.67	149.177	167.131	271.702	142.681	265.395	288.265	141.073	148.035	215.165	306.456	145.578	149.736	152.373	157.965	272.703	154.027	-8191	255	
22486.752	1	1	0	0	0.11491	0.052842	0.259	0.27547	0.19935	0.085339	0.16339	0.36008	0.2382	0.08617	0.24564	0.17829	0.19352	0.30604	0.16537	0.14784	-1.7	-2.8417	-2.3354	-2.5312	-2.6958	-2.2396	-2.6375	-2.8063	-2.1875	-2.8604	-2.5896	-2.5167	-2.7042	-2.4562	-2.5021	-2.6583	244.649	288.049	231.578	446.155	409.094	260.336	417.879	464.963	324.929	393.216	461.562	146.015	130.711	470.846	252.048	474.992	0.00093244	0.0004898	0.00036109	1440.8	7.1701e-06	1.3103e-05	1047.8	541.15	7.0289e-06	6.959e-06	406.25	158.06	216.14	81.132	4.3617e-06	57.786	0.00055271	0.00051143	0.00014283	1361.3	5.6821e-06	5.7565e-06	988.35	515.71	5.7623e-06	5.6266e-06	386.89	150.25	204.82	78.23	5.8431e-06	55.549	148.054	178.361	234.306	143.062	255.482	280.269	140.960	147.733	235.823	248.415	145.439	149.401	152.504	158.214	301.582	153.709	-8191	255	
22486.871	1	1	0	0	0.21068	0.16678	0.16442	0.11216	0.22659	0.1218	0.17737	0.44767	0.18857	0.25019	0.11468	0.19592	0.16787	0.2874	0.21483	0.2637	-1.7625	-2.6104	-2.4271	-2.4604	-2.9208	-2.3896	-2.7	-2.7313	-2.325	-2.7542	-2.3979	-2.4896	-2.8021	-2.5771	-2.4917	-2.7229	161.680	248.171	369.429	144.272	367.648	447.703	365.021	472.835	468.540	271.299	381.442	420.471	466.617	430.399	250.554	407.058	0.00091507	0.00055542	0.00025114	1435.8	7.764e-06	6.4932e-06	1045.5	544.14	9.3648e-06	3.5728e-06	409.38	160.45	216.63	82.442	6.3621e-06	59.033	0.0005534	0.00051559	0.00014491	1361.9	5.7268e-06	5.6406e-06	993.38	516.66	5.7837e-06	5.6403e-06	390.06	152.61	205.83	78.929	5.7166e-06	56.782	150.921	324.114	235.608	142.658	312.935	303.819	141.106	148.217	260.201	265.137	145.298	149.499	152.607	157.975	240.873	154.048	-8191	255	
22486.943	1	1	0	0	0.118	0.079067	0.08619	0.21908	0.091007	0.041628	0.05425	0.076729	0.022338	0.12246	0.18028	0.11141	0.014741	0.25071	0.13718	0.062839	-1.8958	-2.4458	-2.4917	-2.4604	-2.6271	-2.4333	-2.5938	-2.8979	-2.25	-2.5458	-2.7667	-2.5333	-2.7396	-2.7021	-2.4271	-2.6875	468.211	411.000	476.514	151.141	237.264	231.595	133.069	165.505	336.479	368.707	449.068	424.605	270.851	135.911	469.980	480.086	0.00092141	0.00076637	0.00012274	1449.4	9.4632e-06	6.2155e-06	1068.2	548.54	9.0025e-06	4.204e-06	417.9	162.9	218.09	83.216	4.1821e-06	60.699	0.00055302	0.00050843	0.00014339	1371.5	5.5702e-06	5.6533e-06	1010	520.89	5.7901e-06	5.6007e-06	397.19	154.81	207.11	79.846	5.8929e-06	58.322	154.707	238.174	250.801	142.717	250.187	264.555	141.026	147.809	248.711	264.389	145.881	149.522	152.484	158.112	274.874	153.999	-8191	255	
22487.039	1	1	0	0	0.028899	0.18082	0.21379	0.19814	0.079306	0.11049	0.12925	0.2277	0.14572	0.056409	0.058516	0.24807	0.082905	0.23	0.040441	0.14809	-1.7208	-2.3438	-2.5812	-2.4229	-2.525	-2.575	-2.6604	-2.8875	-2.3958	-2.4771	-2.6063	-2.3042	-2.7792	-2.5208	-2.3604	-2.8812	189.943	294.530	347.256	457.701	229.521	239.825	187.805	399.389	267.912	483.099	280.362	486.773	351.933	452.546	153.680	435.857	0.0010377	0.0010268	0.00027383	1452.9	7.121e-06	3.4408e-06	1068.9	547.95	7.2424e-06	7.0935e-06	415.68	159.49	214.25	81.402	1.4319e-05	56.522	0.00054752	0.00050942	0.00014687	1376.6	5.6995e-06	5.7661e-06	1014.7	519.61	5.7612e-06	5.6582e-06	393.88	151.81	204.61	78.057	5.6998e-06	54.878	153.138	225.772	235.509	142.669	303.045	350.030	140.941	147.945	250.863	284.343	145.339	149.659	152.327	158.035	249.415	153.901	-8191	255	
22487.160	1	1	0	0	0.22264	0.061706	0.093932	0.20888	0.10761	0.10166	0.21253	0.12856	0.074713	0.15756	0.18296	0.31024	0.32028	0.18223	0.22444	0.23976	-1.9083	-2.5333	-2.4771	-2.475	-2.7104	-2.4771	-2.5833	-2.8604	-2.2854	-2.5479	-2.7271	-2.3833	-2.7604	-2.6458	-2.1833	-2.7458	479.722	179.544	420.882	451.415	486.108	388.735	438.303	257.143	215.126	272.149	281.075	150.353	463.061	210.716	489.381	388.656	0.00078653	0.00030807	0.00023632	1427.6	6.8006e-06	7.5026e-06	1039	542.62	8.664e-06	7.6737e-06	405.47	156.43	215.04	80.913	7.0155e-06	57.384	0.00053912	0.00051931	0.00014622	1355.1	5.7552e-06	5.5658e-06	984.25	514.39	5.6439e-06	5.692e-06	385.55	149.38	203.9	77.788	5.7659e-06	55.115	153.937	476.339	207.031	142.774	271.350	249.148	141.016	148.028	237.254	288.146	145.458	149.783	152.583	157.928	275.969	153.945	-8191	255	
22487.258	1	1	0	0	0.15361	0.367	0.13541	0.39392	0.11553	0.11535	0.20777	0.15053	0.077194	0.077395	0.12021	0.20819	0.063575	0.25451	0.094484	0.24034	-1.9875	-2.3937	-2.5583	-2.4667	-2.5708	-2.5958	-2.5146	-2.7125	-2.2958	-2.3625	-2.5687	-2.3125	-2.6521	-2.7021	-2.1083	-2.8604	288.477	241.384	271.326	483.656	188.847	276.876	317.476	462.679	383.041	277.142	354.158	435.019	415.837	449.632	419.390	391.467	0.00088763	0.00086471	0.00011058	1431.4	4.5753e-06	4.6826e-06	1039.6	541.64	9.9475e-06	5.7788e-06	404.3	158.15	214.36	81.104	1.1336e-05	57.935	0.00054062	0.00051571	0.00014643	1359.6	5.7166e-06	5.7475e-06	989.41	514.59	5.7057e-06	5.704e-06	386.56	150.6	203.85	77.815	5.721e-06	55.601	151.010	193.554	230.387	142.711	233.107	276.511	140.827	148.089	239.169	283.078	145.623	149.631	152.369	158.001	260.261	154.182	-8191	255	
22487.354	1	1	0	0	0.19188	0.058739	0.10199	0.21976	0.11306	0.10184	0.39535	0.089904	0.18192	0.15129	0.17752	0.17714	0.093552	0.29556	0.1119	0.05135	-2.0458	-2.3854	-2.7167	-2.4188	-2.5854	-2.6854	-2.5187	-2.9271	-2.3771	-2.5	-2.7521	-2.4208	-2.8167	-2.8917	-2.3896	-2.7771	297.832	195.044	239.284	476.953	422.934	164.273	390.785	409.977	433.446	349.501	149.752	447.497	227.382	149.972	207.949	201.554	0.00093555	0.001004	0.00017514	1434.5	3.317e-06	6.9951e-06	1052.7	542.53	7.2891e-06	3.1648e-06	409.71	158.86	216.37	81.155	6.7612e-06	58.108	0.00054893	0.00051807	0.00014717	1360.3	5.7602e-06	5.7575e-06	995.94	515.83	5.8226e-06	5.644e-06	388.51	150.76	204.32	77.875	5.7639e-06	55.942	155.102	212.189	218.059	142.598	232.582	279.145	140.857	147.873	211.202	270.035	145.356	149.811	152.413	158.109	244.219	154.248	-8191	255	
22487.473	1	1	0	0	0.21583	0.44303	0.18923	0.35439	0.15095	0.17477	0.054732	0.33135	0.23576	0.10186	0.15202	0.22807	0.31427	0.16492	0.30199	0.1073	-2.0354	-2.4688	-2.7167	-2.5833	-2.4375	-2.6833	-2.4229	-2.7938	-2.5312	-2.3312	-2.6312	-2.6979	-2.4625	-2.7708	-2.3479	-2.6729	396.594	179.233	475.288	130.746	161.587	181.501	394.181	440.950	204.215	364.076	384.088	173.606	471.387	451.335	243.908	312.130	0.0010023	0.00085716	0.00013811	1435.7	8.8915e-06	5.9961e-06	1053.8	542.7	1.1734e-05	4.838e-06	410.75	161.21	216.68	81.691	5.2975e-06	57.9	0.00055605	0.00053511	0.00014664	1363.3	5.7627e-06	5.7373e-06	1000.2	517.14	5.7547e-06	5.7359e-06	391.22	152.81	204.9	78.336	5.6643e-06	55.63	150.830	196.668	261.181	142.611	261.256	278.219	140.757	147.840	277.940	307.775	145.642	149.227	152.282	158.144	286.915	153.922	-8191	255	
22487.568	1	1	0	0	0.18677	0.14406	0.053652	0.20249	0.14362	0.10886	0.36125	0.21898	0.10389	0.1392	0.13847	0.14162	0.083501	0.21725	0.25269	0.36356	-2.0938	-2.2229	-2.7438	-2.4521	-2.475	-2.7354	-2.3563	-2.6229	-2.5625	-2.2646	-2.9354	-2.7354	-2.4542	-3.05	-2.3417	-2.6833	165.298	466.019	349.856	155.733	487.016	349.086	421.968	423.116	378.946	409.204	357.161	154.692	157.064	400.709	243.623	415.260	0.00092624	0.00096066	0.00034727	1432.2	7.6982e-06	7.2408e-06	1038.9	541.43	1.4641e-05	2.2185e-06	401.92	154.9	213.74	79.362	8.479e-06	55.304	0.00053861	0.00051072	0.00014217	1358.9	5.5233e-06	5.4537e-06	985.16	514.07	5.5289e-06	5.4526e-06	380.72	146.92	202.34	76.125	5.5385e-06	53.153	155.988	188.054	256.034	143.020	286.833	264.181	140.824	147.900	272.148	294.105	145.575	149.560	152.434	157.886	260.245	153.788	-8191	255	
22487.641	1	1	0	0	0.16912	0.17166	0.14388	0.070963	0.14015	0.10699	0.31902	0.19907	0.21903	0.1132	0.14035	0.080435	0.16103	0.17642	0.27477	0.15838	-2.2021	-2.0479	-2.6562	-2.5229	-2.3354	-2.6063	-2.5312	-2.6021	-2.5729	-2.225	-2.7229	-2.4646	-2.5396	-2.9271	-2.5167	-2.5167	175.010	342.667	397.051	481.892	468.904	175.796	436.634	444.621	481.971	174.691	416.968	161.043	430.028	444.504	141.886	150.358	0.00084895	0.001114	0.00014568	1430.4	4.3871e-06	7.6751e-06	1036.6	540.36	5.7086e-06	1.1435e-06	402.84	155.17	214.44	79.941	1.1414e-05	56.164	0.00052345	0.00049837	0.0001387	1359.1	5.4424e-06	5.3994e-06	984.09	514.9	5.5348e-06	5.5029e-06	381.82	147.58	203.15	76.63	5.6244e-06	53.929	155.363	230.939	243.795	142.535	273.983	296.342	140.992	147.961	254.493	300.633	145.447	149.762	152.700	158.265	255.925	154.342	-8191	255	
22487.760	1	1	0	0	0.21049	0.21592	0.21991	0.26613	0.14894	0.12758	0.1978	0.3388	0.20272	0.26802	0.30113	0.35886	0.19963	0.31344	0.16465	0.29983	-2.1479	-2.1479	-2.6021	-2.5167	-2.3854	-2.5208	-2.5563	-2.6042	-2.7833	-2.4104	-2.7792	-2.5208	-2.3104	-2.85	-2.2875	-2.5187	130.617	279.037	226.682	130.614	190.873	469.410	301.487	383.204	385.191	481.675	478.208	458.324	136.889	449.107	371.374	424.403	0.00090152	0.0012006	0.00019876	1457.3	8.0033e-06	2.538e-06	1052.3	547.31	4.7901e-06	7.9044e-06	404.17	157.16	216.61	80.642	7.9797e-06	57.439	0.00053172	0.00049923	0.00013902	1378.8	5.4131e-06	5.5514e-06	996.17	519.79	5.6311e-06	5.5731e-06	384.05	149.19	204.6	77.474	5.6687e-06	55.256	152.407	212.620	246.793	142.690	325.777	308.434	141.063	147.775	248.134	227.732	145.747	149.584	152.414	158.131	235.820	154.137	-8191	255	
22487.855	1	1	0	0	0.14247	0.055353	0.16525	0.20875	0.18565	0.25323	0.20761	0.37451	0.086139	0.1806	0.22417	0.084679	0.39765	0.29061	0.21561	0.18049	-2.475	-2.4	-2.6021	-2.6917	-2.1229	-2.6	-2.4854	-2.4958	-2.7062	-2.4	-2.5354	-2.6188	-2.2979	-2.9	-2.4875	-2.4167	387.641	359.571	192.552	142.476	432.685	355.635	474.124	409.752	156.521	334.159	405.584	209.444	136.862	489.414	487.581	488.326	0.00087705	0.00044023	0.00023143	1461	6.4461e-06	3.7928e-06	1065.4	553.6	8.1688e-06	9.1418e-06	413.04	159.44	217.89	80.878	1.0483e-05	58.399	0.00054057	0.00050073	0.00014266	1385	5.6584e-06	5.5205e-06	1008.7	524.84	5.6118e-06	5.6395e-06	389.91	151.3	206.47	77.828	5.6497e-06	55.922	149.891	241.443	199.511	142.583	274.371	286.479	141.023	147.807	268.437	302.564	145.715	149.580	152.577	158.092	270.226	154.185	-8191	255	
22487.953	1	1	0	0	0.25257	0.14889	0.068284	0.18526	0.38502	0.23225	0.23571	0.31861	0.0079746	0.17677	0.29167	0.26344	0.054841	0.21416	0.13581	0.15251	-2.3833	-2.3271	-2.5208	-2.8854	-2.3396	-2.6396	-2.6667	-2.6271	-2.8292	-2.3563	-2.7188	-2.7479	-2.2521	-2.75	-2.7792	-2.3167	320.098	331.004	324.350	430.076	133.885	428.854	223.913	446.471	201.376	159.407	455.808	471.811	165.362	461.777	238.760	235.611	0.00090579	0.00062628	0.00018231	1476.3	6.2396e-06	8.8263e-06	1067.4	557.42	1.0516e-05	1.4893e-06	401.63	153.07	214.96	78.158	5.0571e-06	52.834	0.00055034	0.00051116	0.00014253	1399.7	5.7575e-06	5.5669e-06	1013	528.68	5.6078e-06	5.6387e-06	382.06	145.32	203.36	74.861	5.7722e-06	50.964	152.693	175.988	252.590	142.539	261.638	305.562	140.920	147.968	257.183	245.132	145.673	149.068	152.355	158.148	261.077	154.059	-8191	255	
22488.049	1	1	0	0	0.13566	0.16663	0.17444	0.080145	0.10938	0.15802	0.066426	0.16354	0.11394	0.04819	0.12924	0.14651	0.37261	0.14615	0.096586	0.21945	-2.2792	-2.35	-2.3583	-2.8417	-2.2604	-2.7	-2.6354	-2.4938	-2.7521	-2.3479	-2.7687	-2.8896	-2.3667	-2.6771	-2.7583	-2.3688	280.902	220.747	272.090	429.672	271.095	375.654	314.627	412.970	294.955	237.993	449.746	435.081	149.542	416.067	255.852	438.499	0.00077612	0.00091396	0.00026534	1469.7	8.566e-06	8.4723e-06	1035.3	551.04	8.4928e-06	4.5024e-06	396.29	150.75	213.28	77.605	4.3144e-06	53.506	0.00053276	0.00051505	0.00014241	1390.8	5.5873e-06	5.4512e-06	981.43	522.81	5.5248e-06	5.626e-06	375.86	143.39	202.44	74.448	5.5851e-06	51.639	149.389	287.419	237.364	142.631	296.760	273.201	140.818	147.537	235.573	251.382	145.268	149.446	152.341	158.060	248.490	153.694	-8191	255	
22488.168	1	1	0	0	0.19297	0.17084	0.16692	0.14735	0.086996	0.13042	0.17914	0.29973	0.11285	0.16663	0.14832	0.085038	0.2504	0.18655	0.054542	0.21575	-2.1937	-2.5729	-2.4167	-2.825	-2.5104	-2.5083	-2.7167	-2.5542	-2.7146	-2.4646	-2.3646	-2.6771	-2.3958	-2.6479	-2.5812	-2.5271	149.065	166.280	447.214	382.638	290.858	198.786	439.787	438.939	263.484	346.743	141.259	402.274	425.971	169.808	165.659	473.306	0.00080022	0.00077352	0.00021399	1468.8	4.4647e-06	5.1167e-06	1039.3	551.54	6.573e-06	5.4047e-06	397.23	152.17	214.77	78.412	8.0938e-06	54.931	0.00052333	0.00050659	0.00013959	1390.2	5.6979e-06	5.599e-06	985.26	522.9	5.6369e-06	5.5439e-06	379.04	144.69	203.41	75.235	5.7141e-06	52.875	152.927	209.944	212.686	142.691	290.635	267.611	141.084	147.742	295.632	329.659	145.546	149.530	152.396	157.984	267.583	154.145	-8191	255	
22488.240	1	1	0	0	0.029024	0.076013	0.16989	0.12602	0.044463	0.2432	0.1856	0.11129	0.11155	0.15935	0.28148	0.31593	0.2901	0.22492	0.29593	0.18791	-2.1979	-2.475	-2.3187	-2.8854	-2.5542	-2.3271	-2.85	-2.4688	-2.7833	-2.4667	-2.4021	-2.8396	-2.5583	-2.5042	-2.7104	-2.3854	310.445	272.823	308.095	358.675	225.430	383.623	357.518	426.026	476.638	350.718	379.392	453.256	409.442	130.821	475.374	190.070	0.00081191	0.00095451	0.00018036	1465.7	5.9098e-06	3.4538e-06	1053.6	552.13	7.5107e-06	9.1309e-06	404.73	155.39	215.21	78.813	6.6364e-06	56.306	0.00053114	0.00051005	0.00013849	1389.8	5.6673e-06	5.6205e-06	998.56	524.21	5.7285e-06	5.5902e-06	382.32	147.54	203.89	75.829	5.6688e-06	54.123	150.327	236.403	212.932	142.705	259.762	249.114	140.811	147.944	257.110	266.571	145.664	149.512	152.064	158.129	248.487	154.298	-8191	255	
22488.338	1	1	0	0	0.15745	0.42804	0.25173	0.2561	0.16337	0.05013	0.14768	0.11377	0.13246	0.070605	0.12617	0.11383	0.27736	0.23471	0.28919	0.20196	-2.1729	-2.4646	-2.0333	-2.9792	-2.3917	-2.4729	-2.7188	-2.5271	-2.6229	-2.8042	-2.3708	-2.6292	-2.3979	-2.5417	-2.7917	-2.3146	234.171	290.659	309.047	460.040	232.298	392.322	368.397	405.114	226.502	396.875	429.626	475.879	185.835	464.747	426.555	184.544	0.00079339	0.00096807	0.00026107	1473.8	7.4142e-06	5.3951e-06	1068.9	559.21	8.3109e-06	5.5473e-06	412.52	157.39	218.76	80.118	7.4641e-06	55.338	0.00054318	0.00051336	0.00014192	1398.4	5.5599e-06	5.6096e-06	1012.6	528.44	5.6487e-06	5.5406e-06	392.02	149.51	206.06	76.832	5.7181e-06	53.233	153.930	227.635	247.933	142.705	269.695	301.724	140.944	147.754	282.073	284.931	145.299	149.509	152.434	157.927	217.323	154.109	-8191	255	
22488.434	1	1	0	0	0.36567	0.16197	0.10236	0.24532	0.35821	0.23119	0.28779	0.086177	0.17142	0.044492	0.27209	0.1454	0.066135	0.25032	0.090325	0.1074	-2.0938	-2.4375	-2.1437	-2.7812	-2.5125	-2.4396	-2.8479	-2.5938	-2.4792	-2.8375	-2.4854	-2.6063	-2.4521	-2.4667	-2.8688	-2.6917	266.091	168.109	317.273	133.012	281.683	208.701	439.937	141.408	215.043	376.053	373.855	280.176	142.540	460.315	394.011	460.373	0.00083308	0.00038868	0.00024347	1457.2	1.2001e-05	9.2076e-06	1033.8	549.7	7.1774e-06	4.1401e-06	399.25	150.77	213.51	79.129	7.206e-06	53.82	0.00053498	0.00049592	0.00014502	1383.9	5.5228e-06	5.5504e-06	981.19	520.36	5.5114e-06	5.4399e-06	379.28	143.4	202.29	75.815	5.5294e-06	51.666	153.543	305.324	231.752	142.547	274.119	353.638	140.912	147.753	252.897	268.087	145.637	149.601	152.381	158.162	238.811	154.141	-8191	255	
22488.553	1	1	0	0	0.10053	0.31979	0.13771	0.33032	0.15843	0.14447	0.20468	0.17349	0.15009	0.18697	0.11075	0.12753	0.10183	0.091292	0.22119	0.29295	-1.9479	-2.5938	-2.2417	-3.0187	-2.5729	-2.2875	-2.7646	-2.4792	-2.4771	-2.5187	-2.525	-2.7646	-2.55	-2.3896	-2.5854	-2.4333	275.508	381.103	132.074	455.931	347.683	487.552	459.496	480.959	254.633	244.831	314.393	436.323	252.642	135.521	246.711	486.318	0.00078756	0.0006766	0.0002198	1448.1	1.1081e-05	4.0219e-06	1033.6	547.37	9.9667e-06	5.9107e-06	401.6	154.63	216.35	79.638	9.9873e-06	55.414	0.00052892	0.00050777	0.00014055	1373.3	5.5849e-06	5.5328e-06	977.75	519.69	5.6514e-06	5.3783e-06	380.72	146.3	204.37	76.616	5.6157e-06	53.556	153.552	179.547	239.408	142.730	235.500	287.187	140.783	147.926	256.023	247.725	145.408	149.343	152.077	158.349	276.203	154.005	-8191	255	
22488.648	1	1	0	0	0.2993	0.05332	0.15339	0.43616	0.17916	0.069409	0.24524	0.27083	0.084913	0.22416	0.119	0.036715	0.15412	0.30872	0.02948	0.15896	-2.0354	-2.6042	-2.1979	-2.6625	-2.6979	-2.4188	-2.9167	-2.5458	-2.3833	-2.75	-2.2875	-2.5917	-2.6896	-2.6188	-2.8021	-2.5958	345.414	150.636	425.117	147.313	463.814	400.157	435.052	410.742	464.882	299.938	148.494	150.111	367.214	146.280	388.052	323.198	0.00076522	0.00073503	0.00010426	1452.2	4.7363e-06	5.1539e-06	1049.5	550.3	1.1705e-05	6.7503e-06	404.6	157.9	215.64	81.246	1.3428e-05	57.705	0.00052791	0.00050329	0.00014088	1376	5.4806e-06	5.5514e-06	990.2	521.87	5.5387e-06	5.5288e-06	385.93	149.53	205.54	77.9	5.8215e-06	55.427	150.182	202.230	209.251	142.578	241.414	284.171	140.959	147.754	246.672	221.524	145.343	149.452	152.242	157.827	284.087	154.021	-8191	255	
22488.744	1	1	0	0	0.14845	0.02939	0.081741	0.3623	0.19825	0.31231	0.059438	0.24842	0.14139	0.25066	0.35297	0.214	0.11635	0.20476	0.3155	0.40619	-1.9042	-2.8167	-2.2167	-2.7604	-2.775	-2.2833	-2.9271	-2.5938	-2.4375	-2.6125	-2.4521	-2.65	-2.775	-2.4521	-2.6083	-2.4583	248.033	387.775	157.013	443.051	412.891	412.200	287.082	373.969	247.417	291.126	145.913	447.466	449.769	424.496	233.604	353.638	0.00076478	0.0012861	0.000159	1454.7	7.4423e-06	6.7896e-06	1055.1	550.11	4.6544e-06	6.4487e-06	409.37	160.41	218.33	82.43	5.4424e-06	59.776	0.00054621	0.00051291	0.00014327	1379.4	5.6751e-06	5.5903e-06	1001.6	522.33	5.7747e-06	5.6179e-06	392.11	152.86	207.18	79.264	5.7752e-06	57.382	151.147	254.191	248.846	142.730	247.360	240.190	141.092	147.733	273.192	268.015	145.590	149.431	152.178	158.012	241.238	154.166	-8191	255	
22488.842	1	1	0	0	0.13551	0.42295	0.059458	0.22795	0.25354	0.03734	0.19983	0.18668	0.11786	0.16692	0.2377	0.42234	0.21392	0.11796	0.26346	0.18548	-1.8687	-2.5083	-2.3542	-2.5042	-2.4896	-2.2167	-2.7146	-2.6875	-2.2917	-2.5771	-2.6146	-2.4646	-2.7104	-2.5604	-2.5396	-2.8688	372.939	353.533	281.020	406.189	211.449	472.795	404.425	141.008	270.899	429.761	489.458	474.581	485.090	157.433	395.414	150.065	0.00099213	0.00081107	0.00024419	1456.9	5.2647e-06	5.2651e-06	1064.9	550.97	9.038e-06	4.0627e-06	408.22	157.72	216.94	81.06	4.9855e-06	56.892	0.00054727	0.00052609	0.0001463	1384.9	5.6656e-06	5.7111e-06	1009.7	522.96	5.6695e-06	5.659e-06	390.04	150.04	205.98	77.811	5.7008e-06	54.712	149.521	209.347	194.820	142.830	279.732	255.727	140.875	147.944	250.214	251.290	145.382	149.543	152.328	158.103	263.301	153.917	-8191	255	
22488.938	1	1	0	0	0.34716	0.20563	0.338	0.30084	0.082337	0.32643	0.2004	0.14103	0.3114	0.125	0.10431	0.091838	0.29413	0.2077	0.27564	0.062447	-1.9	-2.6063	-2.6125	-2.6271	-2.7062	-2.3937	-2.6917	-2.8146	-2.4208	-3.0208	-2.6646	-2.3167	-2.7875	-2.5625	-2.5042	-2.8167	365.524	130.204	201.357	139.945	375.365	479.271	244.691	426.197	460.891	363.273	169.415	242.946	158.376	411.929	316.079	265.532	0.0008682	0.0005656	0.00017453	1438.1	9.5933e-06	7.1173e-06	1034.9	545.18	9.1101e-06	1.2875e-05	407.11	158.28	217.17	81.565	9.7042e-06	57.361	0.00054154	0.00051492	0.00014422	1362.5	5.6416e-06	5.6195e-06	981.71	517.46	5.6695e-06	5.5704e-06	387.4	149.85	205.36	78.453	5.6593e-06	55.464	154.368	238.628	275.744	142.621	249.347	306.060	140.851	147.851	244.165	274.805	145.458	149.658	152.310	158.132	247.026	154.337	-8191	255	
22489.033	1	1	0	0	0.21654	0.043498	0.1788	0.24272	0.23837	0.13129	0.27864	0.053296	0.224	0.088656	0.12427	0.13578	0.049168	0.12683	0.1431	0.14157	-1.6562	-2.6	-2.5896	-2.5229	-2.5354	-2.4208	-2.4583	-2.8	-2.275	-2.8521	-2.6042	-2.2104	-2.6813	-2.7917	-2.4417	-2.7333	319.884	410.313	175.196	397.140	459.154	417.963	488.302	392.925	146.224	364.141	152.011	431.997	213.916	402.998	439.919	434.613	0.00087381	0.0015339	5.1614e-05	1439	1.0382e-05	3.3398e-06	1042.8	546.66	7.5423e-06	8.2541e-06	412.25	159.23	219.89	83.082	8.2085e-06	58.853	0.00053349	0.00051788	0.00014276	1362.4	5.6723e-06	5.7012e-06	990.76	518.69	5.7233e-06	5.6346e-06	391.8	151.75	207.22	79.753	5.7775e-06	56.643	150.952	224.646	153.936	142.729	266.096	365.728	141.190	147.896	228.704	215.100	145.529	149.606	152.231	158.302	262.704	153.708	-8191	255	
22489.154	1	1	0	0	0.30579	0.18659	0.085653	0.16369	0.11053	0.18225	0.1472	0.2567	0.13945	0.047501	0.15227	0.067057	0.15881	0.46731	0.18413	0.29431	-1.7062	-2.5146	-2.4208	-2.2833	-2.6417	-2.4542	-2.6188	-2.7438	-2.4146	-2.5792	-2.5021	-2.225	-2.7938	-2.5708	-2.3333	-2.7042	326.727	414.182	386.664	423.817	200.217	282.812	294.706	405.384	413.113	345.187	479.983	287.417	355.727	466.032	299.175	411.811	0.0010669	0.00053612	0.00035294	1437.2	8.5091e-06	2.8102e-06	1046.8	547.92	8.0873e-06	1.1691e-05	417.76	161.98	220.11	84.188	1.1716e-05	60.44	0.00055625	0.0005118	0.00014217	1364.6	5.6344e-06	5.7312e-06	992.09	519.62	5.757e-06	5.6778e-06	395.28	153.84	208.16	80.743	5.6796e-06	57.964	150.874	209.563	245.116	142.785	260.414	245.312	141.294	147.997	283.705	238.227	145.547	149.655	152.478	157.965	267.637	154.102	-8191	255	
22489.248	1	1	0	0	0.16473	0.11332	0.17454	0.11193	0.20738	0.03267	0.29616	0.238	0.10528	0.19808	0.1613	0.066213	0.25411	0.26945	0.31219	0.1182	-1.9021	-2.6437	-2.5687	-2.4292	-2.7125	-2.5479	-2.4417	-2.8125	-2.3271	-2.7271	-2.8292	-2.3937	-2.6833	-2.7479	-2.5229	-2.7604	253.739	221.140	210.287	135.277	270.679	425.060	423.375	465.689	299.435	423.116	342.320	224.788	133.953	432.403	281.147	328.577	0.0010288	0.00064988	0.00026227	1445.8	6.3091e-06	1.1346e-05	1062.9	551.95	6.0955e-06	7.3182e-06	419.29	162.71	218.66	82.693	8.4603e-06	57.579	0.00054991	0.00050619	0.00014167	1369.8	5.5927e-06	5.6284e-06	1004.9	522.99	5.6665e-06	5.5801e-06	398.59	154.23	207.33	79.588	5.5917e-06	55.295	150.961	159.632	254.711	142.800	279.254	278.164	141.202	147.892	232.018	300.616	145.280	149.381	152.492	158.040	258.184	154.060	-8191	255	
22489.344	1	1	0	0	0.2599	0.34246	0.070074	0.39462	0.10461	0.14593	0.10497	0.18469	0.18641	0.14434	0.22563	0.23826	0.16656	0.19942	0.090294	0.14134	-1.8354	-2.3604	-2.5875	-2.5563	-2.5146	-2.5667	-2.3604	-2.8625	-2.5104	-2.4271	-2.8229	-2.3063	-2.7354	-2.8375	-2.4417	-2.7125	273.916	432.982	145.662	143.380	171.845	382.274	139.600	482.579	158.427	364.268	463.937	427.627	243.743	453.387	406.617	169.590	0.00083736	0.0011148	0.0002394	1441.8	2.9172e-06	3.0478e-06	1024.9	542.38	6.9557e-06	4.9515e-06	399.28	151.52	213.73	78.971	6.7678e-06	53.778	0.00053381	0.0005054	0.00014156	1367.2	5.5151e-06	5.5714e-06	971.87	515.86	5.5976e-06	5.682e-06	377.26	143.93	202.15	75.996	5.739e-06	51.721	153.395	214.139	207.082	142.608	222.289	300.776	140.988	147.845	252.443	272.464	145.194	149.419	152.461	157.882	225.290	153.981	-8191	255	
22489.465	1	1	0	0	0.092345	0.10213	0.30931	0.29953	0.12464	0.05383	0.11155	0.11526	0.10477	0.16864	0.27341	0.049994	0.11437	0.2404	0.14731	0.15321	-1.9396	-2.1833	-2.6188	-2.7333	-2.4896	-2.725	-2.3271	-2.5583	-2.4333	-2.2521	-2.7792	-2.3667	-2.5125	-2.8604	-2.3375	-2.5854	255.614	319.364	418.124	455.118	179.595	373.055	393.706	424.762	215.233	348.677	280.973	477.314	453.438	417.964	267.212	203.916	0.00079741	0.00039294	0.00018167	1436.8	6.6529e-06	6.9024e-06	1011	544.12	1.1115e-05	3.0948e-06	397.69	152.03	214.02	78.719	1.1903e-05	54.606	0.00054688	0.00051717	0.00014088	1360.8	5.7588e-06	5.7551e-06	964.58	515.52	5.6849e-06	5.7123e-06	377.77	144.05	203.03	75.77	5.7868e-06	52.38	142.410	199.576	216.109	142.633	286.558	269.464	140.602	147.924	251.288	394.253	145.504	149.471	152.447	157.890	239.965	154.138	-8191	255	
22489.535	1	1	0	0	0.1309	0.16919	0.18475	0.28889	0.20436	0.176	0.26806	0.13811	0.1977	0.11944	0.30998	0.44003	0.23183	0.22574	0.019254	0.17806	-2.0521	-2.4021	-2.6688	-2.5854	-2.2771	-2.6396	-2.4125	-2.8187	-2.5271	-2.4958	-2.7375	-2.3917	-2.5271	-2.7438	-2.4479	-2.5479	339.052	435.484	476.883	468.045	310.795	334.144	179.916	431.555	139.558	351.498	452.829	146.428	416.201	445.765	145.426	371.674	0.00092488	0.00067421	0.00037431	1437.1	4.4645e-06	9.659e-06	1023.5	545.81	1.1947e-05	6.8225e-06	397.32	151.52	214.56	78.818	5.8645e-06	54.97	0.00054044	0.00052512	0.00014602	1362.1	5.6611e-06	5.7001e-06	974.67	517.2	5.6644e-06	5.6772e-06	378.83	144.51	203.19	75.637	5.6671e-06	52.599	150.388	231.238	247.808	142.566	247.583	304.556	141.043	147.798	273.312	315.245	145.727	149.660	152.043	157.921	254.773	154.084	-8191	255	
22489.633	1	1	0	0	0.18624	0.13557	0.19377	0.30366	0.13235	0.091386	0.13931	0.068563	0.17587	0.1485	0.084486	0.1031	0.10848	0.25198	0.098077	0.14928	-2.2562	-2.2396	-2.6646	-2.5979	-2.3708	-2.7458	-2.5625	-2.7167	-2.5958	-2.2896	-2.8125	-2.6	-2.5542	-2.8521	-2.3083	-2.6375	385.995	393.812	480.864	477.667	379.964	472.215	400.988	147.943	382.689	471.883	239.266	317.782	164.104	170.593	220.567	455.008	0.00080328	0.00021291	0.00020774	1445.9	6.3049e-06	1.0419e-05	1043.4	548.33	7.2703e-06	2.5876e-06	406.09	155.03	216.49	79.836	9.6504e-06	56.498	0.00054362	0.00051834	0.0001444	1369	5.741e-06	5.6828e-06	988.58	519.95	5.6644e-06	5.6691e-06	385.51	147.58	204.91	76.528	5.6531e-06	54.211	151.103	237.265	212.464	142.534	281.388	273.284	141.065	147.842	246.656	284.230	145.413	149.624	152.399	157.800	275.305	153.747	-8191	255	
22489.729	1	1	0	0	0.088748	0.18985	0.32083	0.32034	0.2749	0.30545	0.083185	0.056152	0.37414	0.21389	0.097699	0.22827	0.064155	0.29408	0.16031	0.22447	-2.3417	-2.1833	-2.6896	-2.8312	-2.4	-2.7188	-2.4146	-2.6583	-2.6771	-2.3729	-2.7313	-2.5542	-2.3771	-2.7458	-2.5396	-2.6208	208.890	382.878	355.042	485.364	366.064	131.292	262.666	419.410	307.348	347.035	235.915	187.850	478.873	429.164	156.523	359.992	0.00088382	0.00087299	8.787e-05	1450.7	7.4502e-06	1.2985e-05	1048	545.22	9.9147e-06	7.3212e-06	397.82	151.46	213.29	77.911	1.0138e-05	53.02	0.000552	0.00051128	0.00014425	1374.2	5.6732e-06	5.6864e-06	987.53	517.91	5.7129e-06	5.632e-06	378.2	143.55	202.03	74.816	5.6466e-06	51.126	154.306	204.264	214.153	142.779	281.337	290.093	141.214	147.712	243.623	266.860	145.391	149.435	152.267	157.830	268.764	153.826	-8191	255	
22489.824	1	1	0	0	0.11328	0.095064	0.075733	0.12777	0.15903	0.26642	0.14177	0.32469	0.29312	0.069615	0.1375	0.065867	0.07791	0.092229	0.28708	0.33538	-2.025	-2.2875	-2.6437	-2.7042	-2.3208	-2.7458	-2.4	-2.5312	-2.7687	-2.4042	-2.7667	-2.475	-2.4146	-3.0396	-2.5187	-2.4208	304.093	447.434	290.467	455.020	382.696	308.980	451.026	438.489	398.474	426.323	447.711	378.509	438.663	419.993	224.507	303.669	0.00083094	0.0008411	0.00027976	1432.2	4.4674e-06	7.4149e-06	1017.3	542.28	8.1832e-06	6.2569e-06	394.98	151.64	213.78	78.201	1.173e-05	54.027	0.00053175	0.00049895	0.00014326	1353.6	5.512e-06	5.5955e-06	964.23	514.79	5.6499e-06	5.5836e-06	377.18	143.5	202.24	75.237	5.6461e-06	51.966	146.888	219.471	225.450	142.814	248.768	293.000	141.111	147.879	244.015	269.960	145.061	149.296	152.467	157.783	225.676	153.570	-8191	255	
22489.943	1	1	0	0	0.13056	0.10475	0.21711	0.29562	0.21476	0.27295	0.23836	0.21742	0.09024	0.3603	0.27696	0.12721	0.45122	0.15723	0.13082	0.19937	-2.3354	-2.3604	-2.4771	-2.8021	-2.1562	-2.725	-2.5687	-2.5083	-2.8146	-2.3063	-2.5104	-2.7917	-2.3792	-2.6521	-2.5333	-2.5021	364.135	251.077	445.365	458.449	179.052	134.896	372.733	412.592	198.528	483.051	148.896	465.053	421.761	141.763	271.199	351.018	0.00083796	0.00052132	0.00034643	1432.1	9.9234e-06	4.4267e-06	1022.1	543.05	6.0675e-06	5.94e-06	401.8	153.51	214.58	79.303	9.237e-06	55.637	0.00053167	0.00051064	0.00014346	1356.4	5.6431e-06	5.5616e-06	973.81	515.93	5.6333e-06	5.5932e-06	380.71	145.56	203.22	76.259	5.7236e-06	53.521	149.833	189.923	236.714	142.594	289.313	280.552	141.098	147.814	262.528	237.481	145.458	149.231	152.287	158.111	277.515	154.119	-8191	255	
22490.039	1	1	0	0	0.10075	0.06863	0.067148	0.42831	0.09858	0.26412	0.10053	0.25745	0.24586	0.30937	0.17894	0.14498	0.13017	0.1518	0.1406	0.017496	-2.2375	-2.2854	-2.4437	-2.7854	-2.3583	-2.6146	-2.6604	-2.5	-2.725	-2.5375	-2.6208	-2.8083	-2.6042	-2.7167	-2.6063	-2.4458	361.035	281.171	221.775	143.226	145.304	162.473	142.400	453.437	359.459	419.215	326.907	408.540	482.002	475.490	249.885	319.624	0.00090027	0.00052149	0.00025518	1432.1	5.0076e-06	2.2675e-06	1046.2	544.78	9.8583e-06	5.2582e-06	406.64	155.95	216.83	80.835	8.9e-06	57.347	0.00053922	0.00051423	0.00014278	1355.3	5.7751e-06	5.6039e-06	985.87	516.89	5.7503e-06	5.6014e-06	385.12	148.34	204.51	77.467	5.7348e-06	55.031	149.960	164.190	258.949	142.562	317.892	266.393	140.675	147.669	210.940	253.141	145.620	149.473	152.285	158.204	244.663	154.237	-8191	255	
22490.113	1	1	0	0	0.14655	0.2162	0.14407	0.18723	0.11524	0.13962	0.17753	0.070436	0.048103	0.073354	0.15444	0.15615	0.27532	0.34537	0.029111	0.055338	-2.2167	-2.1688	-2.3438	-2.9271	-2.2708	-2.6646	-2.6208	-2.4833	-2.6042	-2.5042	-2.6188	-2.725	-2.5812	-2.7812	-2.5375	-2.3542	374.351	413.062	382.656	455.874	397.678	259.044	378.001	449.918	268.389	483.108	453.371	385.912	135.605	412.760	453.464	458.402	0.00082109	0.0010854	0.00030564	1440.4	5.4317e-06	4.8627e-06	1052	548.13	1.177e-05	6.3468e-06	412.09	157.48	216.07	80.879	6.7932e-06	56.384	0.00054578	0.00051997	0.00014676	1361.5	5.7485e-06	5.6964e-06	996.18	518.43	5.6864e-06	5.6134e-06	390.62	150.09	205.02	77.476	5.6328e-06	54.156	149.471	227.034	244.568	142.583	263.072	282.624	140.914	147.838	267.051	258.715	145.437	149.594	152.299	158.100	283.640	153.818	-8191	255	
22490.232	1	1	0	0	0.074315	0.12893	0.030793	0.28874	0.083733	0.21139	0.12113	0.31645	0.047173	0.10159	0.15527	0.31214	0.02137	0.22558	0.21437	0.15759	-2.35	-2.3417	-2.1979	-3.0083	-2.4083	-2.4375	-2.6083	-2.4979	-2.6188	-2.2771	-2.4208	-2.8812	-2.4208	-2.6271	-2.625	-2.4271	453.897	203.547	460.123	466.622	195.126	242.688	407.717	471.182	470.182	151.858	428.179	466.478	436.813	388.314	206.570	434.735	0.00086708	0.0009404	0.00016799	1424.2	4.2601e-06	2.1148e-06	1028.2	540.51	8.3561e-06	1.4402e-06	402.19	154.23	214.73	80.068	5.1159e-06	55.03	0.00053343	0.00051612	0.0001433	1348.8	5.6758e-06	5.5741e-06	971.44	513.04	5.5154e-06	5.5144e-06	381.13	145.67	202.83	76.661	5.6469e-06	52.971	146.380	242.834	225.568	142.894	287.802	239.646	140.973	148.067	240.027	297.904	145.406	149.551	152.494	157.919	298.518	153.760	-8191	255	
22490.328	1	1	0	0	0.20412	0.071275	0.089542	0.33947	0.2089	0.1329	0.14346	0.31406	0.18429	0.054079	0.29213	0.11595	0.27661	0.20591	0.060336	0.12463	-2.05	-2.5958	-2.2333	-2.7417	-2.2188	-2.4479	-2.7771	-2.45	-2.7604	-2.5292	-2.3521	-2.8187	-2.4083	-2.6396	-2.5854	-2.4292	431.369	413.871	252.983	482.513	239.384	456.752	487.512	417.027	434.298	288.912	384.931	309.450	476.617	169.681	434.239	250.406	0.0009311	0.0015931	0.00023109	1422.5	8.307e-06	7.2677e-06	1029.3	544.54	9.5084e-06	5.0195e-06	404.45	155.54	214.92	80.902	1.0971e-05	56.532	0.00052942	0.00050148	0.00014198	1348.8	5.4894e-06	5.5827e-06	974.43	515.16	5.5227e-06	5.5389e-06	384.98	147.5	204.1	77.503	5.5694e-06	54.153	155.792	181.113	237.511	142.711	316.713	312.034	141.288	147.812	229.349	267.725	145.425	149.471	152.248	158.196	265.016	154.045	-8191	255	
22490.424	1	1	0	0	0.17982	0.18716	0.056917	0.55472	0.051357	0.24908	0.30526	0.48592	0.29339	0.13413	0.22715	0.17957	0.23232	0.25881	0.1032	0.13557	-2.0938	-2.4688	-2.3854	-2.7083	-2.4771	-2.4229	-2.7687	-2.4625	-2.4729	-2.7875	-2.2625	-2.7042	-2.4583	-2.3792	-2.6771	-2.3812	134.996	152.038	280.007	483.679	479.494	416.942	427.608	445.404	221.675	438.062	400.832	239.633	132.361	431.756	255.427	185.669	0.00092892	0.00033004	0.00012919	1432.2	4.6409e-06	3.8943e-06	1043.8	542.41	6.4866e-06	3.4868e-06	410.1	157.07	213.52	80.692	5.1087e-06	57.4	0.00052976	0.00051085	0.00014578	1356	5.54e-06	5.5085e-06	985.02	515.04	5.668e-06	5.5395e-06	389.23	149.26	203.42	77.426	5.4987e-06	55.138	152.015	235.030	200.780	142.646	230.472	257.044	140.873	147.759	269.000	248.517	145.599	149.660	152.383	158.258	294.511	154.230	-8191	255	
22490.545	1	1	0	0	0.025933	0.14545	0.14816	0.34261	0.046271	0.12809	0.062653	0.037064	0.43422	0.2188	0.30227	0.087377	0.39817	0.30244	0.17761	0.077645	-1.9396	-2.5208	-2.2396	-2.7583	-2.575	-2.4604	-2.8271	-2.5	-2.5146	-2.5583	-2.525	-2.5563	-2.625	-2.4958	-2.5354	-2.6167	181.029	308.672	337.316	450.667	133.074	152.327	428.459	401.591	317.634	322.003	448.903	458.908	169.932	415.571	270.153	165.334	0.0008927	0.0017319	0.00028624	1430.9	9.8946e-06	3.8822e-06	1059.6	545.01	9.1465e-06	5.22e-06	418.69	160.33	215.71	81.012	9.2896e-06	58.627	0.00053095	0.00050782	0.00014343	1359.3	5.4957e-06	5.5965e-06	1002.1	515.29	5.5321e-06	5.6382e-06	396.68	152.31	203.75	77.558	5.5882e-06	56.18	154.827	202.839	195.229	142.547	263.903	273.890	141.046	147.905	255.409	279.448	145.802	149.761	152.392	158.403	257.542	154.238	-8191	255	
22490.641	1	1	0	0	0.15676	0.11011	0.15285	0.14917	0.13601	0.18299	0.16041	0.39699	0.2873	0.11004	0.052284	0.065765	0.069426	0.0045603	0.25699	0.33521	-2.0354	-2.6458	-2.2896	-2.6813	-2.4708	-2.275	-2.8187	-2.4792	-2.3	-2.6729	-2.1667	-2.7438	-2.6333	-2.5312	-2.5771	-2.3688	215.713	483.511	177.952	468.356	142.943	284.330	146.140	429.044	207.252	336.618	433.530	406.892	134.225	157.693	413.878	386.020	0.0008381	0.0010031	0.00027544	1441.1	3.7543e-06	9.9723e-06	1050.9	539.23	1.317e-05	4.5602e-06	409.05	154.87	212	78.592	1.5789e-05	54.494	0.00053193	0.0005138	0.00014097	1360.7	5.3496e-06	5.4458e-06	994.93	511.63	5.5784e-06	5.4633e-06	385.68	146.57	200.85	75.21	5.5746e-06	51.977	148.401	182.786	213.735	142.681	251.944	319.407	141.009	148.067	252.963	345.066	145.536	149.777	152.324	158.248	252.418	153.998	-8191	255	
22490.736	1	1	0	0	0.23309	0.06087	0.15875	0.1905	0.049664	0.13219	0.2626	0.36196	0.30951	0.20271	0.049522	0.11516	0.30792	0.17859	0.32766	0.15158	-1.8396	-2.875	-2.2917	-2.7979	-2.4	-2.2667	-2.7708	-2.4667	-2.4896	-2.7812	-2.4167	-2.4979	-2.6375	-2.4125	-2.6437	-2.6542	265.837	294.437	461.514	437.269	348.343	475.321	443.196	427.656	306.623	264.998	182.654	474.201	463.746	391.351	429.738	464.219	0.00084874	0.00074866	0.00024845	1418.5	6.4498e-06	5.9774e-06	1027	536.45	7.9399e-06	6.7829e-06	402.58	155.03	213.46	79.063	9.4231e-06	54.557	0.00053696	0.00051034	0.00014067	1339	5.4505e-06	5.4883e-06	970.15	508.14	5.5909e-06	5.568e-06	381.33	146.65	201.53	75.666	5.5765e-06	52.689	158.569	202.646	230.118	142.627	260.730	289.624	140.688	147.877	258.183	233.138	145.489	149.681	152.359	158.250	243.928	154.202	-8191	255	
22490.834	1	1	0	0	0.26474	0.15139	0.16905	0.42725	0.034695	0.1092	0.5066	0.16315	0.024521	0.13475	0.20832	0.29021	0.12317	0.4589	0.11411	0.15005	-1.8375	-2.7771	-2.3937	-2.5792	-2.7417	-2.2625	-2.6854	-2.7083	-2.2687	-2.5438	-2.4062	-2.5042	-2.925	-2.6312	-2.4958	-2.6833	145.666	439.286	342.574	453.424	481.145	215.742	421.467	404.423	134.784	160.855	140.292	174.554	139.534	133.023	395.442	132.855	0.00091792	0.00086774	0.00014756	1423.7	8.6576e-06	5.3689e-06	1035.4	540.3	7.6254e-06	4.5488e-06	404.87	156.42	215.67	79.548	8.1647e-06	56.12	0.00053059	0.00051073	0.00014209	1346.2	5.6686e-06	5.5042e-06	980.42	511.69	5.6776e-06	5.5856e-06	384.97	148.25	203.1	76.278	5.6518e-06	53.86	147.102	192.004	221.074	142.793	235.732	315.909	141.090	148.055	235.437	285.306	145.829	149.586	152.393	157.959	287.839	154.310	-8191	255	
22490.928	1	1	0	0	0.077247	0.2146	0.22045	0.16207	0.0867	0.25291	0.16567	0.42265	0.18982	0.21806	0.11268	0.18161	0.30327	0.39079	0.1339	0.026573	-1.9417	-2.5167	-2.2854	-2.5979	-2.5958	-2.175	-2.7333	-2.6437	-2.2521	-2.5146	-2.5687	-2.3812	-2.8271	-2.3896	-2.5771	-2.7375	463.634	349.459	419.931	436.523	394.420	406.553	327.285	464.008	186.287	337.783	334.341	467.841	130.202	141.546	311.455	250.776	0.00088054	0.00073858	0.00038938	1429.6	1.1312e-05	1.0258e-05	1049	540.1	7.2834e-06	7.9446e-06	410.01	158.69	214.12	80.277	9.3165e-06	57.565	0.00054612	0.00051901	0.00014213	1353.2	5.5791e-06	5.6197e-06	989.99	514.17	5.6917e-06	5.5326e-06	388.06	150.41	203.21	76.885	5.7728e-06	55.256	153.508	208.793	192.635	142.975	245.250	301.687	140.863	147.945	253.940	271.696	145.477	149.537	152.571	158.346	295.863	154.050	-8191	255	
22491.023	1	1	0	0	0.055482	0.30602	0.10255	0.33248	0.15381	0.26783	0.036238	0.30538	0.20103	0.11797	0.054551	0.19766	0.17525	0.3739	0.2183	0.18783	-1.5708	-2.6146	-2.3187	-2.4208	-2.6625	-2.3458	-2.6479	-2.7021	-2.3375	-2.6562	-2.6604	-2.4229	-2.7229	-2.4875	-2.5021	-2.7042	233.269	411.820	338.518	455.311	317.232	195.156	258.655	436.522	240.687	289.401	476.120	428.345	163.146	484.174	159.420	394.618	0.00089452	0.0010803	0.00019872	1432.2	1.0133e-05	5.3127e-06	1050.6	539.69	8.3661e-06	8.1709e-06	408.88	159	214.07	80.003	2.1393e-06	55.998	0.00055264	0.00052614	0.00014642	1355	5.7913e-06	5.724e-06	994.19	511.81	5.868e-06	5.7798e-06	388.57	151.13	202.43	76.49	5.7776e-06	53.824	152.246	208.111	230.044	142.793	232.188	311.261	140.998	147.901	291.885	337.906	145.905	149.624	152.341	158.444	212.083	154.126	-8191	255	
#DATA ENDS
