BOXY.EXE: ISS Imagent and Oximeter Data Acquisition Program Version 0.80
Ascii Record File

#ACQ INFORMATION
2  Detector Channels 
16  External MUX Channels 
1  Auxiliary Channels 
5000  Waveform (CCF) Frequency (Hz)
1  Waveforms Skipped 
30  Waveforms Averaged 
1  Cycles Averaged 
16  Acquisitions per Waveform 
10.0806  Updata Rate (Hz) 

#FILE INFORMATION
TRUE -- External MUX Channel results are PARSED.
FALSE -- AC DC and Phase are NOT grouped.
TRUE -- Companion Program Settings File CREATED.
FALSE -- AC data not excluded
FALSE -- DC data not excluded
FALSE -- Phase data not excluded
FALSE -- Auxillary Chn. data not excluded
Tab delimiters

#CALIBRATION STATE
TRUE -- Waveform Calibration Values APPLIED.


#AUX CALIBRATION VALUES
Val Type	aux-1	

Term	1.0000e+00	
Factor	0.0000e+00	


#WF CALIBRATION VALUES
A = Detector Channel
Val Type	A-AC1	A-AC2	A-AC3	A-AC4	A-AC5	A-AC6	A-AC7	A-AC8	A-AC9	A-AC10	A-AC11	A-AC12	A-AC13	A-AC14	A-AC15	A-AC16	A-DC1	A-DC2	A-DC3	A-DC4	A-DC5	A-DC6	A-DC7	A-DC8	A-DC9	A-DC10	A-DC11	A-DC12	A-DC13	A-DC14	A-DC15	A-DC16	A-Ph1	A-Ph2	A-Ph3	A-Ph4	A-Ph5	A-Ph6	A-Ph7	A-Ph8	A-Ph9	A-Ph10	A-Ph11	A-Ph12	A-Ph13	A-Ph14	A-Ph15	A-Ph16	

Term	0.00000e+00	0.00000e+00	0.00000e+00	0.00000e+00	0.00000e+00	0.00000e+00	0.00000e+00	0.00000e+00	0.00000e+00	0.00000e+00	0.00000e+00	0.00000e+00	0.00000e+00	0.00000e+00	0.00000e+00	0.00000e+00	0.00000e+00	0.00000e+00	0.00000e+00	0.00000e+00	0.00000e+00	0.00000e+00	0.00000e+00	0.00000e+00	0.00000e+00	0.00000e+00	0.00000e+00	0.00000e+00	0.00000e+00	0.00000e+00	0.00000e+00	0.00000e+00	0.00000e+00	0.00000e+00	0.00000e+00	0.00000e+00	0.00000e+00	0.00000e+00	0.00000e+00	0.00000e+00	0.00000e+00	0.00000e+00	0.00000e+00	0.00000e+00	0.00000e+00	0.00000e+00	0.00000e+00	0.00000e+00	
Factor	1.00000e+00	1.00000e+00	1.00000e+00	1.00000e+00	1.00000e+00	1.00000e+00	1.00000e+00	1.00000e+00	1.00000e+00	1.00000e+00	1.00000e+00	1.00000e+00	1.00000e+00	1.00000e+00	1.00000e+00	1.00000e+00	1.00000e+00	1.00000e+00	1.00000e+00	1.00000e+00	1.00000e+00	1.00000e+00	1.00000e+00	1.00000e+00	1.00000e+00	1.00000e+00	1.00000e+00	1.00000e+00	1.00000e+00	1.00000e+00	1.00000e+00	1.00000e+00	X	X	X	X	X	X	X	X	X	X	X	X	X	X	X	X	

B = Detector Channel
Val Type	B-AC1	B-AC2	B-AC3	B-AC4	B-AC5	B-AC6	B-AC7	B-AC8	B-AC9	B-AC10	B-AC11	B-AC12	B-AC13	B-AC14	B-AC15	B-AC16	B-DC1	B-DC2	B-DC3	B-DC4	B-DC5	B-DC6	B-DC7	B-DC8	B-DC9	B-DC10	B-DC11	B-DC12	B-DC13	B-DC14	B-DC15	B-DC16	B-Ph1	B-Ph2	B-Ph3	B-Ph4	B-Ph5	B-Ph6	B-Ph7	B-Ph8	B-Ph9	B-Ph10	B-Ph11	B-Ph12	B-Ph13	B-Ph14	B-Ph15	B-Ph16	

Term	0.00000e+00	0.00000e+00	0.00000e+00	0.00000e+00	0.00000e+00	0.00000e+00	0.00000e+00	0.00000e+00	0.00000e+00	0.00000e+00	0.00000e+00	0.00000e+00	0.00000e+00	0.00000e+00	0.00000e+00	0.00000e+00	0.00000e+00	0.00000e+00	0.00000e+00	0.00000e+00	0.00000e+00	0.00000e+00	0.00000e+00	0.00000e+00	0.00000e+00	0.00000e+00	0.00000e+00	0.00000e+00	0.00000e+00	0.00000e+00	0.00000e+00	0.00000e+00	-1.64124e+02	-1.34331e+02	-1.17949e+02	-1.82253e+02	-7.52879e+01	-6.26450e+01	-1.59673e+02	-1.62015e+02	-8.49910e+01	-7.28985e+01	-1.73437e+02	-1.73160e+02	-1.87935e+02	-1.78155e+02	-8.18410e+01	-1.50763e+02	
Factor	2.74309e-05	2.13387e-04	5.50513e-05	1.62759e-01	1.60481e-06	1.83435e-06	1.95155e-01	6.40897e-02	1.52885e-06	1.60519e-06	1.16290e-01	3.27102e-02	3.94705e-02	9.72176e-03	1.66134e-06	1.39751e-02	3.49212e-06	3.85682e-06	1.07645e-06	8.19710e-02	4.17040e-08	4.23842e-08	9.17160e-02	3.23082e-02	4.18294e-08	4.23276e-08	5.66427e-02	1.59731e-02	1.97584e-02	4.92990e-03	4.20100e-08	6.86893e-03	X	X	X	X	X	X	X	X	X	X	X	X	X	X	X	X	



#DISTANCE SETTINGS
A = Detector Channel
A-1	A-2	A-3	A-4	A-5	A-6	A-7	A-8	A-9	A-10	A-11	A-12	A-13	A-14	A-15	A-16	

2.5000e+00	3.0000e+00	2.5000e+00	3.0000e+00	2.0000e+00	3.0000e+00	1.5000e+00	3.0000e+00	3.0000e+00	3.0000e+00	3.0000e+00	3.0000e+00	3.0000e+00	3.0000e+00	1.5000e+00	3.0000e+00	

B = Detector Channel
B-1	B-2	B-3	B-4	B-5	B-6	B-7	B-8	B-9	B-10	B-11	B-12	B-13	B-14	B-15	B-16	

1.0000e+01	1.0000e+01	1.0000e+01	1.4400e+00	1.0000e+01	1.0000e+01	1.5100e+00	1.9400e+00	1.0000e+01	1.0000e+01	1.9900e+00	2.4900e+00	2.4100e+00	2.9000e+00	1.0000e+01	2.9800e+00	




#DATA BEGINS
time	group	step	mark	flag	A-AC1	A-AC2	A-AC3	A-AC4	A-AC5	A-AC6	A-AC7	A-AC8	A-AC9	A-AC10	A-AC11	A-AC12	A-AC13	A-AC14	A-AC15	A-AC16	A-DC1	A-DC2	A-DC3	A-DC4	A-DC5	A-DC6	A-DC7	A-DC8	A-DC9	A-DC10	A-DC11	A-DC12	A-DC13	A-DC14	A-DC15	A-DC16	A-Ph1	A-Ph2	A-Ph3	A-Ph4	A-Ph5	A-Ph6	A-Ph7	A-Ph8	A-Ph9	A-Ph10	A-Ph11	A-Ph12	A-Ph13	A-Ph14	A-Ph15	A-Ph16	B-AC1	B-AC2	B-AC3	B-AC4	B-AC5	B-AC6	B-AC7	B-AC8	B-AC9	B-AC10	B-AC11	B-AC12	B-AC13	B-AC14	B-AC15	B-AC16	B-DC1	B-DC2	B-DC3	B-DC4	B-DC5	B-DC6	B-DC7	B-DC8	B-DC9	B-DC10	B-DC11	B-DC12	B-DC13	B-DC14	B-DC15	B-DC16	B-Ph1	B-Ph2	B-Ph3	B-Ph4	B-Ph5	B-Ph6	B-Ph7	B-Ph8	B-Ph9	B-Ph10	B-Ph11	B-Ph12	B-Ph13	B-Ph14	B-Ph15	B-Ph16	aux-1	digaux	

22415.518	1	1	0	131328	0.032694	0.22171	0.20217	0.19034	0.029959	0.15478	0.13596	0.17781	0.11342	0.2343	0.20047	0.35426	0.074021	0.20396	0.039671	0.068596	-2.0292	-2.5354	-2.2333	-2.4021	-2.3729	-2.2083	-2.6458	-2.2646	-2.2479	-2.3771	-2.0771	-2.3812	-2.425	-2.1458	-2.625	-2.3167	326.716	454.231	472.487	373.179	353.124	176.520	170.026	448.603	249.134	439.184	384.325	212.807	205.480	224.303	468.842	180.173	0.00012866	0.10642	1.8299e-05	154.84	2.2012e-05	4.7806e-07	24.092	59.021	4.4689e-07	1.0205e-05	48.163	14.573	36.652	8.1982	9.8904e-06	7.0312	0.00013998	0.023248	3.9501e-05	185.91	3.8017e-06	1.5615e-06	773.79	70.868	1.5203e-06	3.9866e-06	57.281	36.637	112.23	9.8346	4.9811e-06	8.6621	152.107	248.594	354.304	157.545	219.029	311.974	384.770	162.903	227.034	329.809	159.635	163.439	491.172	173.948	425.986	168.958	-8191	255	
22415.613	1	1	0	131072	0.18035	0.084263	0.20884	0.11976	0.2085	0.042972	0.11059	0.23871	0.22396	0.091798	0.079253	0.22839	0.14499	0.16222	0.23925	0.048535	-1.9979	-2.6729	-2.0542	-2.3937	-2.6167	-2.1458	-2.5875	-2.25	-2.2687	-2.3979	-2.0792	-2.4104	-2.4813	-2.0542	-2.5396	-2.3438	183.275	499.864	399.234	475.804	343.812	286.973	497.605	157.604	270.237	499.498	468.849	483.682	498.659	311.755	323.799	329.829	0.000118	0.13992	2.618e-05	156.57	9.7146e-06	1.5518e-06	46.781	59.691	1.8856e-07	1.7383e-05	48.274	19.933	32.532	8.267	5.1155e-06	7.0363	0.00013656	0.027562	3.9622e-05	184.65	3.9713e-06	1.5363e-06	713.14	71.209	1.5337e-06	5.9931e-06	57.565	23.62	162.11	9.8913	3.4481e-06	8.5331	157.930	254.436	301.708	157.442	220.401	353.537	479.137	163.249	186.122	333.806	159.906	164.223	479.013	173.998	440.476	168.523	-8191	255	
22415.711	1	1	0	131072	0.0091071	0.14431	0.073244	0.21261	0.18902	0.16811	0.052526	0.078933	0.25141	0.13791	0.067717	0.089915	0.1562	0.21789	0.11199	0.20209	-1.8771	-2.5812	-2.1354	-2.3458	-2.3312	-2.0312	-2.6771	-2.35	-2.3354	-2.7083	-2.2583	-2.2687	-2.4938	-2.0458	-2.5979	-2.3729	482.538	132.947	295.352	438.270	395.637	450.314	237.347	208.487	440.740	260.553	431.602	189.511	424.659	443.706	134.534	148.657	0.00011694	0.10858	2.8333e-05	154.59	1.6777e-05	6.4724e-07	14.765	57.788	1.279e-06	6.1971e-06	47.27	19.278	33.541	8.1004	1.1758e-05	6.7896	0.00013683	0.023289	3.8651e-05	182.2	5.8552e-06	1.5332e-06	593.65	99.321	1.4868e-06	3.3904e-06	56.594	22.849	144.69	9.725	2.8912e-06	8.6288	160.465	261.315	253.702	157.600	219.317	292.266	264.502	144.204	264.391	326.978	160.234	163.998	133.533	173.817	393.109	167.534	-8191	255	
22415.807	1	1	0	131072	0.16776	0.16978	0.16072	0.058311	0.055887	0.13486	0.075819	0.12614	0.4773	0.18728	0.18446	0.19189	0.28275	0.17758	0.23243	0.14315	-1.775	-2.6417	-2.1667	-2.2771	-2.5104	-2.1833	-2.3417	-2.3833	-2.1625	-2.6167	-2.2292	-2.3521	-2.6646	-2.0833	-2.3854	-2.3854	394.601	424.115	211.595	172.003	198.596	165.003	361.589	423.294	295.342	313.880	350.632	146.737	125.791	472.719	275.774	405.075	0.00012125	0.13878	0.00028736	153.04	1.0205e-05	1.4983e-06	37.48	64.249	8.4533e-07	9.5702e-06	47.043	19.511	35.145	8.215	1.0992e-06	6.9811	0.0001379	0.027467	6.2603e-05	180.21	3.9189e-06	1.5248e-06	201.71	215.62	1.5288e-06	4.9561e-06	57.623	23.162	161.98	9.8388	1.5446e-06	8.8478	160.621	266.572	307.311	157.701	231.895	287.136	188.145	142.104	201.544	336.699	160.318	164.296	126.522	173.733	265.113	168.219	-8191	255	
22415.902	1	1	0	131072	0.097118	0.050199	0.026556	0.24843	0.053828	0.21576	0.082973	0.25201	0.13881	0.020197	0.11949	0.24959	0.24861	0.25584	0.21369	0.18103	-1.6646	-2.4917	-2.2812	-2.1125	-2.4562	-2.2062	-2.3833	-2.4688	-2.1625	-2.4667	-2.2354	-2.2625	-2.6104	-2.2896	-2.3208	-2.4437	135.082	448.421	152.149	133.701	142.712	181.291	396.698	302.656	147.151	221.328	207.105	123.067	308.204	150.157	321.598	145.272	0.00011416	0.10484	0.00013685	153.5	1.92e-05	7.4353e-07	128.72	20.031	9.5392e-07	5.4908e-06	47.885	19.843	36.676	8.2975	1.7414e-06	7.1218	0.00014073	0.023014	5.2746e-05	180.91	5.867e-06	1.5348e-06	151.75	285.76	1.5299e-06	3.4182e-06	58.052	23.507	146.05	9.9189	1.4976e-06	9.3307	152.372	275.059	319.400	157.554	231.121	274.302	154.919	107.433	196.840	357.469	160.188	164.396	140.030	173.966	288.735	167.741	-8191	255	
22415.998	1	1	0	131072	0.37526	0.14291	0.14011	0.14055	0.11763	0.086095	0.064176	0.42715	0.31251	0.3122	0.23849	0.28794	0.18708	0.14882	0.050251	0.08781	-1.8271	-2.5604	-2.3333	-2.25	-2.4417	-2.1896	-2.2583	-2.6229	-2.2125	-2.5333	-2.4292	-2.35	-2.7458	-2.3937	-2.475	-2.7292	387.990	463.155	436.388	185.537	164.590	382.494	404.362	447.538	424.673	258.427	180.536	254.126	324.636	338.446	154.974	290.893	0.00012592	0.13324	0.013876	154.02	5.8872e-06	8.7663e-06	130.24	37.42	1.6877e-06	1.0211e-05	48.537	20.286	37.567	8.4532	1.4218e-06	7.2903	0.00013485	0.018489	0.0013936	181.3	3.3809e-06	1.9224e-06	153.94	267.25	1.46e-06	2.7139e-06	61.4	23.916	161.63	10.113	1.462e-06	9.1919	157.095	302.545	224.748	157.268	228.032	217.824	155.002	136.430	219.028	357.243	160.644	164.529	134.972	173.316	277.723	168.268	-8191	255	
22416.096	1	1	0	131072	0.19794	0.13254	0.11046	0.1261	0.086726	0.1038	0.069559	0.12794	0.19916	0.20873	0.089065	0.02697	0.28599	0.36981	0.17674	0.011607	-1.5417	-2.4604	-2.4396	-2.0917	-2.475	-2.3208	-2.3875	-2.5729	-2.4167	-2.4646	-2.4208	-2.1542	-2.4833	-2.35	-2.2896	-2.6333	199.783	290.867	282.030	429.778	134.202	191.049	306.556	143.903	366.335	358.673	172.134	142.208	177.532	389.809	132.877	139.679	0.00011702	0.10347	0.0066335	154.42	9.9991e-06	9.9924e-06	130.81	29.115	1.4131e-06	1.2693e-06	47.766	19.463	38.49	8.1906	4.4205e-07	6.8555	0.00013169	0.0013223	0.0052068	181.42	4.8676e-06	2.3593e-06	154.11	285.94	1.4366e-06	1.3801e-06	60.375	23.073	146.7	9.8182	1.3677e-06	8.9976	159.559	300.470	229.800	157.300	238.678	274.927	155.065	107.534	282.604	255.895	160.817	164.304	145.019	173.805	244.675	167.897	-8191	255	
22416.191	1	1	0	131072	0.13218	0.19143	0.23809	0.18535	0.064118	0.11457	0.0566	0.22226	0.25278	0.16072	0.10318	0.30505	0.036936	0.16874	0.15674	0.14126	-1.5271	-2.2812	-2.4375	-2.0521	-2.4458	-2.2562	-2.2625	-2.7042	-2.1625	-2.5021	-2.6125	-2.0062	-2.4104	-2.3375	-2.3021	-2.4667	308.547	293.346	298.479	314.484	198.753	215.373	398.924	329.974	374.147	415.589	160.334	190.655	294.106	149.400	246.933	389.340	0.00012942	0.00013416	0.036039	152.3	3.2711e-07	6.6266e-06	127.1	43.898	1.483e-06	2.4414e-07	46.647	19.273	25.142	12.177	3.5853e-07	6.7948	0.00012385	0.00012256	0.0076894	179.68	3.1414e-06	1.8575e-06	149.88	267.33	1.3363e-06	1.298e-06	62.066	22.779	110.97	17.101	1.3238e-06	8.5026	150.429	206.856	309.452	157.469	384.300	278.870	155.168	132.112	241.330	231.439	161.326	164.368	176.290	150.312	277.594	168.528	-8191	255	
22416.311	1	1	0	131072	0.34777	0.32168	0.1098	0.16092	0.21759	0.18807	0.16334	0.097441	0.046909	0.29605	0.05523	0.30353	0.18093	0.2204	0.086912	0.05976	-1.7375	-2.4479	-2.6833	-2.225	-2.4833	-2.4875	-2.1021	-2.7562	-2.3312	-2.4062	-2.5104	-2.1562	-2.5583	-2.3312	-2.1604	-2.5375	107.326	101.359	282.354	116.729	402.703	230.226	398.557	137.634	150.231	320.155	288.868	418.261	318.686	123.851	180.221	246.655	0.00015309	5.7829e-05	0.027732	154.26	2.0292e-06	2.0238e-05	128.13	37	6.5553e-06	7.7032e-07	47.339	19.481	26.615	12.36	1.1059e-06	7.0196	0.00016442	0.00011694	0.006584	180.88	2.3776e-06	4.0889e-06	151.5	285.31	2.2604e-06	1.2845e-06	59.981	23.038	27.915	35.364	1.3227e-06	8.9668	118.967	280.736	316.859	157.301	308.293	268.283	155.020	109.802	143.807	321.223	160.342	164.312	174.057	157.536	192.464	168.299	-8191	255	
22416.406	1	1	0	131072	0.21674	0.19605	0.13609	0.15906	0.24256	0.32832	0.0352	0.35426	0.22878	0.039203	0.20722	0.28695	0.21992	0.13892	0.17181	0.11626	-1.7104	-2.1542	-2.5833	-2.0604	-2.4583	-2.4229	-2.1146	-2.6188	-2.3896	-1.9625	-2.7062	-2.1979	-2.1396	-2.5062	-2.1896	-2.5687	275.999	117.334	223.530	386.913	174.052	377.045	438.809	164.691	455.312	217.839	131.286	127.611	471.297	142.678	192.870	291.568	0.00018843	0.00013598	0.03617	153.68	1.176e-06	1.3372e-05	130.66	50.914	4.3763e-06	3.3991e-07	47.338	19.794	22.872	12.162	3.7015e-07	7.1746	0.00020148	0.00011866	0.0076917	180.8	1.2793e-06	3.7767e-06	152.95	268.67	1.8659e-06	1.3032e-06	63.225	23.392	26.853	42.931	1.3223e-06	8.8915	470.702	245.390	321.930	157.196	314.112	272.459	155.420	130.924	157.346	278.114	160.770	164.463	168.082	160.899	229.192	169.030	-8191	255	
22416.502	1	1	0	131072	0.11461	0.089329	0.18077	0.021695	0.14181	0.085137	0.053552	0.18395	0.24369	0.18461	0.15107	0.24868	0.10342	0.18564	0.21019	0.38954	-1.7396	-2.15	-2.6167	-2.2812	-2.3667	-2.4729	-2.1021	-2.5208	-2.3333	-2.1458	-2.4542	-2.2729	-2.2021	-2.6063	-1.9375	-2.1625	217.339	290.182	245.739	448.860	284.080	274.857	239.519	330.881	269.822	353.092	168.300	340.033	488.183	152.471	199.231	411.978	0.00013782	8.2538e-05	0.028001	154.75	1.7044e-06	1.9219e-05	132.06	28.614	0.00083811	7.1015e-07	48.865	20.043	22.836	13.303	4.7844e-07	7.081	0.00016673	0.00011792	0.0065912	182.18	1.2943e-06	5.7886e-06	155.34	195.86	8.0068e-05	1.3525e-06	60.657	24	27.032	40.4	1.3541e-06	8.7001	473.165	256.912	329.488	157.074	287.555	280.221	155.444	156.941	163.611	260.576	160.573	164.683	168.289	166.418	318.429	168.661	-8191	255	
22416.600	1	1	0	131072	0.24599	0.25443	0.21082	0.21503	0.15422	0.082463	0.10941	0.10262	0.14427	0.17727	0.10122	0.16504	0.074039	0.30687	0.27489	0.12642	-1.9167	-1.9875	-2.5229	-2.0833	-2.1708	-2.3792	-2.0104	-2.2375	-2.2958	-1.9542	-2.4938	-2.1188	-2.1083	-2.7833	-2.0458	-2.2771	466.724	427.548	333.728	301.466	165.542	277.905	496.218	418.971	233.739	407.896	440.112	285.337	151.699	334.583	344.572	282.211	0.00043989	2.791e-05	0.035855	152.82	9.3045e-07	1.1648e-05	129.19	59.588	0.00079389	3.5099e-07	47.196	19.532	22.667	12.43	1.0791e-06	6.9881	0.00036743	0.00012507	0.0076662	182.06	1.3428e-06	3.8291e-06	151.52	70.036	0.00022338	1.3527e-06	61.207	23.528	26.844	42.93	1.3737e-06	8.4	465.548	205.326	335.415	157.387	194.688	292.411	155.263	163.628	173.779	215.568	161.040	164.203	168.565	167.406	273.129	168.722	-8191	255	
22416.695	1	1	0	131072	0.084315	0.085302	0.15413	0.18073	0.18169	0.22509	0.13224	0.060489	0.02469	0.32376	0.081461	0.2459	0.1966	0.24775	0.12673	0.10569	-1.8396	-1.9833	-2.3146	-2.2021	-2.0375	-2.4354	-2.0812	-2.5229	-2.6479	-2.0917	-2.3375	-2.2896	-2.1583	-2.6292	-2.0875	-2.1604	263.009	262.661	231.185	181.820	228.319	228.941	190.889	313.597	230.920	464.686	283.927	428.959	354.509	155.256	219.014	240.937	0.00023145	0.00012447	0.027356	152.57	1.0912e-06	2.2411e-05	128.95	59.561	0.0010005	9.5589e-07	47.908	19.834	22.936	13.45	7.0475e-06	7.2486	0.00032687	0.00012556	0.0064563	181.52	1.3524e-06	5.7576e-06	151.82	70.197	0.00029881	1.3498e-06	59.349	23.61	27.102	39.964	1.4562e-06	8.6609	465.229	394.064	343.413	157.383	278.275	303.881	155.326	163.526	496.818	255.265	160.396	164.076	168.379	171.529	220.755	168.761	-8191	255	
22416.791	1	1	0	131072	0.40137	0.11761	0.32871	0.14068	0.3088	0.10568	0.31285	0.17703	0.24267	0.039958	0.12678	0.048076	0.0038793	0.15276	0.23046	0.05903	-2.1396	-2.1937	-2.5458	-2.3771	-1.9979	-2.5812	-2.2125	-2.2375	-2.5062	-2.0458	-2.4708	-2.4083	-2.0771	-2.5187	-2.1917	-2.2687	459.215	309.729	165.453	352.488	387.532	242.103	361.571	382.800	319.666	354.886	405.474	485.085	362.591	449.958	400.981	354.778	0.00036745	0.00022007	0.037795	146.14	1.6299e-06	6.6885e-06	130.33	59.681	0.00076275	5.0343e-07	48.296	19.886	23.013	12.713	8.7072e-06	7.4398	0.00048824	0.00012355	0.0041514	352.06	1.3556e-06	3.2659e-06	154.84	70.447	0.000252	1.3295e-06	58.801	24.949	27.198	43.031	2.2881e-06	8.8658	464.404	217.445	344.309	154.884	261.573	301.167	155.687	163.580	504.924	358.508	161.265	164.173	168.389	173.111	284.416	168.401	-8191	255	
22416.912	1	1	0	131072	0.29503	0.21418	0.21493	0.23683	0.075015	0.24115	0.22507	0.14923	0.067916	0.14655	0.055099	0.27176	0.31827	0.16264	0.26001	0.06841	-2.0708	-2.1167	-2.4958	-2.4125	-2.1312	-2.5271	-2.2458	-2.1854	-2.5354	-2.2875	-2.6479	-2.5687	-2.2062	-2.5812	-2.3688	-2.2271	413.859	220.751	340.251	368.003	174.969	408.143	361.238	268.122	330.699	149.850	245.764	441.867	156.902	471.254	284.531	436.612	0.00023219	0.00026598	3.2248e-05	146.83	6.2132e-07	1.1782e-05	132.87	60.134	0.0010015	1.0404e-06	49.408	20.437	23.237	13.729	6.3969e-06	7.6443	0.00032577	0.00012489	3.4202e-05	644.96	1.37e-06	4.8428e-06	157.69	71.011	0.00029885	1.3968e-06	58.419	25.214	27.463	40.366	1.9634e-06	9.1242	473.784	241.260	233.922	149.785	211.360	306.762	155.704	163.249	149.776	286.425	159.940	164.667	168.178	175.942	288.376	168.644	-8191	255	
22417.008	1	1	0	131072	0.14963	0.11799	0.25711	0.1494	0.10077	0.1048	0.1646	0.030451	0.19096	0.035784	0.11809	0.217	0.018575	0.017688	0.046059	0.20086	-2.1688	-2.1167	-2.3625	-2.5	-1.9333	-2.55	-2.375	-2.0521	-2.5604	-2.0146	-2.4667	-2.3521	-2.0375	-2.3542	-2.3354	-2.1229	495.554	272.230	186.945	289.357	468.711	225.454	364.412	177.619	322.279	197.306	197.306	225.983	193.001	167.649	163.443	237.051	0.00037339	2.1519e-05	4.5994e-05	81.628	1.4019e-06	4.309e-06	133.11	60.285	0.00075817	5.431e-06	48.522	19.781	23.04	10.22	0.00081407	7.174	0.00049225	0.00012475	3.4108e-05	729.81	1.3715e-06	2.9235e-06	157.51	71.097	0.00025208	1.5398e-06	57.872	25.356	27.295	26.384	0.00010658	8.6027	472.927	256.174	275.838	211.132	215.770	332.249	155.917	163.771	156.853	194.619	159.723	164.746	168.515	193.910	239.566	168.668	-8191	255	
22417.078	1	1	0	131072	0.2464	0.20884	0.16808	0.024951	0.30754	0.060506	0.19986	0.11251	0.2704	0.13755	0.055239	0.26768	0.17815	0.21961	0.071692	0.055027	-2.0604	-2.1937	-2.325	-2.525	-1.95	-2.3292	-2.375	-2.2333	-2.8229	-2.3167	-2.2021	-2.5146	-2.2375	-2.4771	-2.3958	-2.1667	190.648	394.522	174.513	461.153	343.014	280.115	486.043	265.411	291.882	247.893	402.793	431.994	486.957	179.702	203.057	364.460	0.00019673	0.00059941	1.972e-05	100.19	1.4863e-06	7.0684e-06	129.44	59.66	0.00099382	7.0238e-06	48.081	19.793	23.129	8.4982	0.00056038	7.291	0.00028162	0.0001727	3.4357e-05	676.06	1.3737e-06	1.9609e-06	158.83	70.401	0.00029774	2.2897e-06	57.169	24.433	27.248	10.142	0.00024331	8.7176	484.085	150.516	188.358	183.951	229.644	345.246	155.756	163.737	162.530	217.304	160.032	164.075	168.383	173.959	248.666	168.798	-8191	255	
22417.199	1	1	0	131072	0.16542	0.23156	0.23372	0.054159	0.20741	0.15565	0.27195	0.18835	0.1485	0.080592	0.1041	0.086299	0.22861	0.27092	0.15412	0.14552	-2.0958	-2.1104	-2.2625	-2.7958	-2.0938	-2.5167	-2.5833	-2.0812	-2.3458	-2.0979	-2.1771	-2.425	-2.0583	-2.0687	-2.4521	-2.2208	427.526	214.031	163.064	324.016	218.241	341.107	481.583	215.996	175.466	263.850	456.487	256.355	265.227	236.310	239.550	496.874	0.00027208	0.0012059	2.047e-05	58.393	6.6843e-07	5.2642e-07	130	60.181	0.0007503	6.2611e-06	48.651	19.739	23.043	8.5464	0.0010903	7.3983	0.00040557	0.00021143	3.4996e-05	728.93	1.3627e-06	1.3499e-06	158.28	70.944	0.00024915	1.9437e-06	57.577	25.465	27.349	10.23	0.00030012	8.8608	483.963	152.890	293.811	211.324	247.579	355.952	155.734	163.394	169.610	223.937	159.776	164.574	168.490	173.914	294.107	168.422	-8191	255	
22417.295	1	1	0	131072	0.025913	0.10625	0.18294	0.44483	0.24943	0.13	0.12598	0.092934	0.12322	0.22547	0.20332	0.1092	0.10672	0.1527	0.11008	0.20097	-2.0854	-2.3854	-2.1562	-2.7333	-2.2854	-2.3854	-2.3604	-2.0792	-2.3667	-2.4271	-2.2792	-2.4562	-2.1	-2.3312	-2.5896	-2.2646	387.464	360.865	305.902	227.301	205.425	376.581	150.532	369.486	471.235	316.432	218.086	471.655	336.976	286.142	368.610	397.987	7.2108e-05	0.0015589	5.0521e-05	88.793	1.348e-06	4.7628e-07	131.69	60.444	0.00021378	0.00106	48.767	20.293	23.132	8.6857	0.00082562	7.619	0.00024658	0.00018596	3.4303e-05	677.04	1.6716e-06	1.3427e-06	163.8	71.271	0.00013531	0.00012071	57.979	24.829	27.769	10.326	0.00025112	9.0588	156.049	158.997	245.117	177.218	165.455	493.918	155.977	163.196	449.741	199.512	159.474	164.212	168.351	174.166	302.243	169.060	-8191	255	
22417.391	1	1	0	131072	0.40825	0.12939	0.1738	0.31529	0.16935	0.04828	0.20037	0.18949	0.2569	0.11969	0.13296	0.035554	0.13841	0.17022	0.11681	0.080842	-2.0917	-2.4458	-2.1458	-2.7958	-2.1562	-2.1979	-2.5104	-2.1708	-2.4	-2.5125	-2.3	-2.5146	-2.2042	-2.3583	-2.6833	-2.1854	330.002	443.191	151.123	370.041	151.146	326.494	471.128	499.018	505.248	258.096	445.074	279.390	182.305	308.337	386.308	355.283	7.415e-05	0.0027104	2.8261e-05	40.031	6.109e-06	4.8991e-07	131.72	60.747	1.0136e-06	0.00080564	49.426	20.262	23.155	8.497	0.0010898	7.2196	0.00016541	0.00043001	3.5734e-05	728.32	2.3149e-06	1.4082e-06	160.54	71.287	1.3707e-06	0.00025298	58.274	25.379	27.937	10.208	0.00030004	8.6426	480.027	163.134	281.924	200.388	451.778	255.476	155.674	163.465	268.441	195.065	160.017	164.327	168.240	174.093	307.762	168.404	-8191	255	
22417.488	1	1	0	131072	0.14148	0.14679	0.16101	0.16354	0.15638	0.14186	0.26107	0.16635	0.132	0.057969	0.20774	0.17249	0.12413	0.27824	0.24562	0.12086	-1.9042	-2.4854	-2.0958	-2.4646	-2.4292	-2.3521	-2.5583	-2.0708	-2.4125	-2.6042	-2.1917	-2.5333	-2.3438	-2.2667	-2.8021	-2.1833	353.564	353.962	414.629	443.054	350.994	431.155	307.594	451.914	153.467	307.617	263.767	191.707	404.414	500.955	455.399	432.686	0.0001307	0.001538	1.6342e-05	76.711	3.1383e-06	4.7489e-07	124.29	59.039	1.2931e-06	0.0010508	46.363	19.158	22.734	8.3445	0.00079117	6.9267	0.00012287	0.00034244	3.3509e-05	666.59	1.8747e-06	1.2778e-06	156.53	69.84	1.2275e-06	0.00030205	55.111	23.137	27.232	9.9491	0.00024196	8.2551	159.085	164.723	256.756	166.081	469.196	203.553	156.117	163.407	256.746	201.037	159.685	164.328	168.161	174.046	314.672	168.848	-8191	255	
22417.607	1	1	0	131072	0.24396	0.19584	0.152	0.14683	0.1708	0.057586	0.20714	0.10438	0.16359	0.15837	0.089218	0.12023	0.30505	0.38153	0.10571	0.3186	-1.8625	-2.6646	-2.2292	-2.5187	-2.5958	-2.1896	-2.7271	-2.3438	-2.3688	-2.6958	-2.1917	-2.4292	-2.3812	-2.0083	-2.7542	-2.3187	449.726	170.633	405.896	337.313	335.389	256.040	443.140	362.454	340.644	152.507	459.079	225.654	268.203	303.500	473.409	361.109	0.00012287	0.0025652	3.7381e-05	77.155	0.00054109	4.4347e-07	122.47	59.037	8.5171e-07	0.00076242	46.312	19.118	22.616	8.4266	0.0010768	6.9472	0.00011373	0.00049784	3.1246e-05	401.19	0.00013149	1.2759e-06	148.44	70.084	1.2483e-06	0.00024198	54.787	22.833	28.613	10.001	0.00029872	8.4551	149.047	164.764	238.384	196.205	151.284	251.137	155.286	163.563	305.066	207.859	159.553	164.043	167.900	174.218	319.943	168.450	-8191	255	
22417.703	1	1	0	131072	0.28605	0.13484	0.0785	0.30225	0.22348	0.026674	0.15264	0.32922	0.11534	0.025729	0.16326	0.14756	0.27346	0.15204	0.15309	0.15594	-1.7604	-2.5167	-2.0896	-2.625	-2.5958	-2.0771	-2.4896	-2.3083	-2.4646	-2.8083	-2.1188	-2.4958	-2.3625	-2.1813	-2.6833	-2.2646	207.565	244.921	243.790	254.872	355.646	228.317	243.701	489.000	408.039	363.925	310.574	413.554	389.036	430.939	239.946	466.458	0.00013124	0.0014775	4.0306e-05	151.79	0.00076596	1.1259e-06	121.68	58.826	8.7277e-07	0.0010482	45.957	19.21	22.505	8.4137	0.00071285	6.9642	0.00011578	0.00032624	3.1955e-05	178.82	0.00023698	1.2577e-06	151.01	70.335	1.2418e-06	0.000302	54.466	22.59	28.001	10.009	0.00023343	8.4274	154.369	168.755	197.044	157.734	449.484	301.637	155.761	163.772	313.483	213.441	159.243	164.487	168.454	174.056	347.376	168.649	-8191	255	
22417.775	1	1	0	131072	0.09411	0.096184	0.11746	0.012643	0.27135	0.28172	0.1914	0.093185	0.21633	0.078289	0.12994	0.30921	0.16934	0.1374	0.26628	0.071565	-1.6583	-2.6354	-2.2021	-2.3542	-2.625	-2.2417	-2.4875	-2.2958	-2.2167	-2.6542	-2.1375	-2.2833	-2.4313	-1.9813	-2.6021	-2.4479	323.397	455.931	344.784	447.991	323.176	471.368	433.175	465.533	276.754	392.363	355.978	303.756	428.577	262.570	303.779	368.195	0.00013009	0.0014157	2.3888e-05	153.04	0.001053	5.8092e-07	122.44	58.943	9.3542e-07	0.00075884	45.887	19.134	22.541	8.3727	0.0010366	9.4812	0.00011263	0.00047084	3.045e-05	179.42	0.00029764	1.2135e-06	146.75	70.227	1.1953e-06	0.00023996	54.797	22.572	28.876	9.9564	0.00010946	31.153	157.160	216.862	255.974	157.602	455.055	298.149	155.591	163.654	300.049	220.744	158.721	164.597	167.738	174.245	355.054	176.745	-8191	255	
22417.871	1	1	0	131072	0.11161	0.14309	0.28778	0.18556	0.061246	0.17454	0.13115	0.20887	0.24097	0.1504	0.11226	0.050131	0.20272	0.31053	0.22139	0.29155	-1.8125	-2.5	-2.3896	-2.375	-2.6437	-2.1937	-2.6188	-2.5292	-2.0271	-2.7542	-2.4104	-2.1312	-2.6479	-2.2854	-2.625	-2.4938	200.852	364.530	332.966	453.112	375.331	365.087	218.982	195.589	303.691	353.561	338.294	345.976	362.382	464.752	272.616	476.725	0.00012751	0.00079649	0.00019217	152.88	0.00075199	1.337e-06	119.09	58.203	9.0994e-07	0.0010436	44.418	18.135	22.13	8.0979	1.5267e-06	7.9324	0.0001097	0.00027232	4.2686e-05	178.91	0.00023426	1.1731e-06	140.57	71.523	1.1603e-06	0.00030085	53.199	21.434	27.402	9.6463	1.1552e-06	45.023	149.717	179.008	219.562	157.933	463.016	288.573	155.549	163.621	242.916	226.515	159.380	164.077	168.080	174.026	295.031	218.559	-8191	255	
22417.992	1	1	0	131072	0.2248	0.26173	0.050306	0.14883	0.21044	0.26881	0.22105	0.32748	0.22868	0.27412	0.14165	0.043777	0.24815	0.21707	0.13098	0.29838	-1.7125	-2.3812	-2.2021	-2.3333	-2.5	-2.2708	-2.4729	-2.4083	-2.2938	-2.7208	-2.2667	-2.0687	-2.6708	-2.2458	-2.3979	-2.4646	494.709	468.699	334.625	293.915	277.596	339.844	160.040	227.150	331.541	327.627	422.585	420.468	405.678	483.304	293.691	492.940	0.00011651	0.0014011	0.00026568	149.02	0.0010424	6.306e-07	114.37	57.551	3.5212e-07	8.8395e-05	43.736	18.101	22.177	8.2462	2.9444e-07	8.7263	0.00011088	0.0003997	5.2695e-05	175.16	0.00029709	1.172e-06	133.97	69.494	1.1676e-06	0.00021046	52.043	21.402	28.087	9.7908	1.1612e-06	55.047	150.307	184.048	223.128	157.416	468.472	245.499	155.466	163.607	223.906	349.923	159.770	163.838	167.969	174.020	367.836	242.076	-8191	255	
22418.088	1	1	0	131072	0.044407	0.15274	0.21531	0.26284	0.14884	0.047363	0.15913	0.16775	0.16453	0.2566	0.27461	0.36009	0.034132	0.048575	0.41903	0.24447	-1.6688	-2.1625	-2.0375	-2.2062	-2.6875	-2.2125	-2.3958	-2.5667	-2.2479	-2.5271	-2.4125	-2.2646	-2.5667	-2.2604	-2.3063	-2.6542	218.572	361.933	179.386	378.347	387.829	232.988	286.625	173.103	215.221	215.838	201.747	505.663	403.559	186.147	377.598	435.981	0.00011733	8.2517e-05	0.00031893	146.17	0.00069445	3.0333e-06	112.16	56.185	6.6244e-07	0.00024878	105.46	18.549	22.254	8.3517	1.0123e-06	6.656	0.00010902	0.00019949	5.0862e-05	171.28	0.00021775	1.6117e-06	132.28	69.878	1.1705e-06	9.6878e-05	257.6	21.841	27.242	10.024	9.3017e-07	37.885	150.370	221.472	207.996	157.664	475.134	151.991	155.077	163.997	284.305	316.310	496.675	163.668	168.279	173.553	274.173	227.761	-8191	255	
22418.184	1	1	0	131072	0.14373	0.22405	0.16844	0.14688	0.28508	0.23661	0.073735	0.11062	0.1559	0.11296	0.1997	0.15262	0.12121	0.1292	0.12419	0.079557	-1.8438	-2.2208	-2.4833	-2.125	-2.6688	-2.1771	-2.35	-2.5563	-2.0979	-2.4479	-2.4813	-2.0042	-2.6104	-2.325	-2.35	-2.7	407.233	348.524	386.738	166.786	454.708	244.867	406.189	215.469	504.660	307.128	436.592	451.765	490.740	328.154	332.294	170.443	0.00010032	0.00017861	0.00045822	113.77	0.00099186	6.3198e-06	88.9	44.286	7.9753e-07	3.6177e-07	74.267	14.864	17.65	6.7091	5.6674e-07	7.3414	8.83e-05	8.6714e-05	9.676e-05	136.91	0.00029404	1.6547e-06	106.3	54.994	9.6103e-07	9.3738e-07	279.18	17.875	22.65	8.2316	9.5774e-07	53.784	158.919	235.261	220.170	158.628	480.853	165.445	155.959	164.471	247.254	302.562	152.124	164.505	168.158	174.390	273.819	259.165	-8191	255	
22418.305	1	1	0	0	0.1371	0.13512	0.028094	0.29066	0.18034	0.29875	0.16227	0.19403	0.18461	0.12486	0.028196	0.24121	0.12828	0.12364	0.25898	0.21457	-2.0521	-2.4062	-2.4333	-2.1312	-2.5208	-2.3667	-2.0729	-2.4354	-2.3396	-2.3688	-2.4479	-2.2229	-2.4354	-2.4396	-2.1083	-2.4813	302.594	320.111	356.525	440.686	459.447	395.727	475.641	390.040	418.713	483.523	295.835	417.731	290.361	162.870	510.511	462.527	0.00010129	0.00010332	0.00024913	114.84	0.0004484	4.1346e-06	89.118	41.011	3.141e-06	8.5051e-07	87.514	11.447	13.832	5.106	8.7072e-07	3.5625	8.7296e-05	8.3396e-05	6.8018e-05	137.74	0.00015751	1.4329e-06	107.01	51.541	7.4108e-07	7.2839e-07	389.06	14.042	17.325	6.4212	7.315e-07	28.435	511.475	275.367	221.783	158.021	426.185	195.546	515.878	175.776	270.228	299.764	515.244	165.230	169.833	174.695	322.989	230.956	-8191	255	
22418.375	1	1	0	0	0.22945	0.11656	0.077721	0.068153	0.1796	0.1699	0.2078	0.16908	0.18929	0.28319	0.28173	0.22477	0.30988	0.11707	0.30687	0.22342	-1.9937	-2.4062	-2.4646	-2.1667	-2.3292	-2.3625	-2.1021	-2.6813	-2.1625	-2.3417	-2.4396	-2.0521	-2.3875	-2.2708	-2.1	-2.6854	182.575	346.669	429.464	382.100	496.867	177.278	301.308	293.168	434.036	295.123	173.026	251.791	405.493	211.566	276.340	293.304	3.9802e-05	0.00015058	0.00037858	90.624	0.00064291	0.00097339	68.247	34.993	2.3362e-06	8.387e-07	59.357	10.716	13.472	4.8918	8.6703e-07	5.5617	9.2978e-05	6.5646e-05	8.7175e-05	110.6	7.1306e-05	0.00015483	83.899	43.741	1.0327e-06	7.0696e-07	225.86	13.128	16.442	6.3401	7.0288e-07	49.469	174.402	241.606	228.430	158.836	427.154	193.217	155.702	164.865	376.794	374.022	159.800	165.267	169.528	174.594	260.575	272.973	-8191	255	
22418.473	1	1	0	0	0.15195	0.20341	0.21155	0.21609	0.37473	0.17184	0.064345	0.21413	0.077563	0.02686	0.2529	0.082225	0.21795	0.15855	0.065508	0.12098	-2.0625	-2.2771	-2.6333	-1.9312	-2.4271	-2.4646	-2.2417	-2.7479	-2.2542	-2.2083	-2.7062	-2.2083	-2.4292	-2.525	-2.1271	-2.6333	197.187	222.274	327.075	269.187	486.516	436.687	423.422	371.448	365.596	497.539	464.779	270.873	372.679	481.294	416.351	328.781	3.2679e-05	4.9789e-05	0.00022888	91.045	6.7979e-07	0.00053829	68.84	34.89	3.9821e-06	9.254e-07	89.067	10.622	13.34	4.8787	4.6986e-07	3.355	0.00011476	6.3075e-05	5.4612e-05	110.91	6.6909e-07	0.0001489	84.159	44.517	1.2861e-06	7.0634e-07	400.04	13.082	16.429	6.2504	7.2625e-07	24.79	277.657	272.032	233.318	158.816	494.195	153.617	156.309	165.092	396.408	333.815	164.563	164.964	169.790	174.861	265.470	245.261	-8191	255	
22418.592	1	1	0	0	0.020896	0.11441	0.20478	0.13845	0.33229	0.11707	0.12007	0.15469	0.29181	0.23302	0.11381	0.12242	0.18567	0.12344	0.1082	0.15705	-1.8354	-2.1792	-2.525	-2.1833	-2.2854	-2.4354	-2.0229	-2.6833	-2.3521	-2.175	-2.6208	-2.2396	-2.2729	-2.4917	-2.1333	-2.5187	497.731	315.297	468.119	506.529	240.900	260.364	234.520	434.792	490.007	358.814	421.561	487.045	485.829	487.683	487.323	504.027	0.00044458	0.0001157	0.00032089	91.699	5.7288e-07	0.00096797	69.189	34.858	2.9037e-06	5.2372e-07	59.501	10.78	13.36	4.8871	9.0812e-07	6.1811	0.00013054	6.698e-05	7.6208e-05	111.51	7.1453e-07	0.00027256	84.246	43.28	1.3678e-06	7.1798e-07	227.52	13.285	16.428	6.4093	7.3868e-07	14.768	180.760	178.773	274.041	158.816	238.938	160.351	156.015	164.531	433.177	200.257	167.764	165.523	169.362	174.708	294.310	279.160	-8191	255	
22418.688	1	1	0	0	0.19968	0.061243	0.11023	0.15735	0.28007	0.37241	0.090098	0.18289	0.14512	0.14452	0.060669	0.25792	0.16472	0.066237	0.12217	0.23783	-1.9896	-2.1063	-2.5833	-2.1521	-2.2667	-2.5875	-2.1667	-2.3708	-2.3937	-2.2479	-2.6625	-2.2146	-2.3333	-2.5896	-2.2062	-2.6125	218.591	371.276	474.307	363.888	222.495	319.246	239.499	356.787	183.259	494.899	416.423	256.160	504.932	391.358	161.903	187.854	0.0031967	0.00010894	0.00011646	90.397	1.0448e-06	0.00052569	69.281	34.998	6.8799e-06	6.4814e-07	87.738	11.164	13.594	5.0466	7.2734e-07	4.0899	0.014021	6.7486e-05	4.6949e-05	111.41	7.4311e-07	0.00014564	84.567	42.893	3.2981e-06	7.5193e-07	396.35	13.778	16.689	6.3943	7.6213e-07	5.1015	417.426	248.299	246.965	159.016	254.432	168.277	156.188	164.850	446.797	186.069	172.528	165.314	169.567	175.012	298.080	169.983	-8191	255	
22418.783	1	1	0	0	0.083192	0.090755	0.054541	0.053986	0.19936	0.19873	0.25261	0.092108	0.20149	0.17848	0.16212	0.1561	0.25357	0.02848	0.16188	0.23302	-2.0312	-2.1875	-2.4271	-2.3563	-2.2125	-2.7104	-2.2979	-2.3646	-2.4813	-2.175	-2.4854	-2.1979	-2.1979	-2.5875	-2.1417	-2.3375	342.602	265.572	505.907	162.150	217.789	403.432	231.547	268.964	450.750	292.708	308.191	407.008	306.403	392.459	151.216	406.402	0.0076528	7.3979e-05	0.00022822	91.084	1.5839e-07	0.00095727	68.808	34.868	4.8492e-06	6.1401e-07	36.246	17.922	13.573	5.0153	6.635e-06	3.9595	0.01199	6.9037e-05	7.2396e-05	111.78	7.5475e-07	0.00027016	84.265	42.768	2.1398e-06	7.4232e-07	185.92	15.658	16.664	6.4538	9.5485e-07	4.894	310.983	290.375	244.800	159.052	430.846	173.327	156.259	164.708	408.712	411.424	189.853	159.830	169.264	175.020	175.922	170.088	-8191	255	
22418.904	1	1	0	0	0.072547	0.094075	0.08285	0.10643	0.086916	0.39182	0.098656	0.17691	0.25965	0.303	0.13263	0.1532	0.10852	0.26054	0.073066	0.11576	-2.0312	-2.1146	-2.3521	-2.4625	-2.275	-2.8688	-2.2729	-2.5375	-2.5104	-2.1792	-2.5708	-2.5417	-2.0854	-2.3542	-2.2521	-2.2208	401.986	498.633	329.201	206.226	388.280	363.616	283.875	311.007	359.053	458.712	203.955	350.208	389.112	367.839	238.204	207.115	0.01412	9.4469e-05	8.3314e-05	90.083	8.7195e-07	0.00051584	68.073	34.809	1.0054e-05	3.9967e-07	49.217	23.424	13.71	5.1068	1.8163e-06	4.0534	0.022045	6.5566e-05	3.1989e-05	110.7	7.313e-07	0.00014087	83.777	42.725	3.3522e-06	7.32e-07	94.548	78.993	16.815	6.4555	1.064e-06	5.0304	316.448	497.459	266.858	158.969	317.598	179.369	156.224	165.110	418.025	241.568	207.689	159.069	169.168	175.205	209.927	170.217	-8191	255	
22418.977	1	1	0	0	0.17994	0.13736	0.037499	0.24432	0.22611	0.096965	0.23091	0.24464	0.097428	0.1848	0.22321	0.020231	0.061862	0.16134	0.098826	0.092646	-2.1021	-2.1646	-2.3042	-2.4146	-2.2146	-2.6646	-2.3125	-2.1896	-2.5021	-2.3083	-2.4167	-2.4417	-2.0125	-2.3979	-2.4292	-2.0333	498.715	244.401	494.756	235.982	471.862	421.922	184.428	474.886	187.777	165.262	342.540	150.819	161.704	154.833	398.435	260.732	0.007405	0.00011913	4.3198e-05	89.85	5.1506e-07	0.00088697	68.471	34.91	4.0336e-06	3.7015e-07	25.929	19.211	13.809	5.2836	4.7602e-06	4.2044	0.011113	7.1705e-05	2.0219e-05	113.59	7.9872e-07	0.0002469	84.219	42.711	2.1073e-06	8.0855e-07	32.178	63.195	17.013	6.7572	1.3384e-06	5.2403	323.533	207.568	265.972	159.166	177.105	186.049	155.868	164.698	421.653	346.828	161.238	179.348	169.355	174.757	205.937	170.036	-8191	255	
22419.072	1	1	0	0	0.022059	0.18807	0.16284	0.1458	0.068505	0.2003	0.29677	0.065241	0.021063	0.19513	0.097525	0.13702	0.30256	0.0046437	0.010278	0.086594	-2.1958	-2.2062	-2.4146	-2.5396	-1.9562	-2.7104	-2.3583	-2.3396	-2.6646	-2.1021	-2.3042	-2.5625	-2.1396	-2.4583	-2.3146	-2.2562	340.556	430.049	201.845	403.296	468.162	230.483	377.313	361.852	321.244	365.094	154.520	495.819	155.635	481.545	415.670	263.633	0.013205	0.00015231	2.6111e-05	88.534	5.442e-07	0.00019914	117.65	34.694	4.969e-06	1.1366e-06	26.493	26.487	13.889	5.3804	6.8657e-06	4.3569	0.020243	7.4188e-05	2.0219e-05	110.44	8.0176e-07	0.00010061	107.57	42.468	2.7393e-06	1.0878e-06	32.749	108.42	17.103	6.7096	1.4898e-06	5.4345	329.021	268.356	348.799	159.143	232.657	459.546	498.931	164.747	414.220	503.438	161.382	188.196	169.396	175.367	213.665	169.798	-8191	255	
22419.168	1	1	0	0	0.21721	0.15393	0.095766	0.20407	0.18031	0.1278	0.16265	0.047186	0.29578	0.11748	0.4822	0.25622	0.22734	0.060972	0.15919	0.12942	-2.1396	-2.3563	-2.4313	-2.4562	-2.175	-2.4583	-2.5021	-2.0354	-2.5021	-2.2667	-2.3458	-2.5458	-2.0687	-2.5875	-2.2896	-2.2667	260.355	234.374	254.411	194.489	357.578	201.676	304.615	401.296	506.200	266.084	321.128	444.752	269.134	487.189	361.836	307.512	0.0072864	0.00029935	1.0426e-05	89.533	6.1702e-07	0.00031074	171.45	34.844	3.4864e-06	1.9518e-06	26.273	18.677	13.828	5.216	1.049e-05	4.1501	0.011033	9.7361e-05	1.9892e-05	113.8	7.8951e-07	3.5325e-05	477.72	42.774	1.8256e-06	1.0612e-06	32.672	65.499	17.023	6.4753	3.3334e-06	5.1497	336.019	403.325	227.645	159.545	322.863	457.415	493.765	164.813	418.993	443.158	161.264	185.333	169.693	175.108	203.563	169.973	-8191	255	
22419.287	1	1	0	0	0.19436	0.17829	0.077599	0.21285	0.064432	0.1731	0.19884	0.17024	0.041232	0.1688	0.19205	0.16901	0.11874	0.1854	0.13337	0.13726	-2.1479	-2.2687	-2.2354	-2.3896	-2.1896	-2.5417	-2.4958	-2.2104	-2.4896	-2.4625	-2.2083	-2.5312	-2.3708	-2.3771	-2.5125	-2.1188	240.390	237.840	453.846	257.188	377.686	441.090	419.235	288.841	148.237	370.184	412.207	150.908	151.064	192.390	254.457	386.078	0.013425	0.00050249	3.2059e-06	88.438	1.4089e-07	9.6916e-07	109.28	34.498	5.1787e-06	5.241e-06	25.635	24.719	13.678	5.2023	5.2159e-06	4.0921	0.020778	0.00012627	2.0764e-05	109.94	8.0228e-07	7.9444e-07	370.07	42.241	2.7621e-06	1.3406e-06	31.809	108.74	16.841	6.4126	2.1135e-06	5.0928	342.140	407.973	217.037	159.470	357.151	298.063	496.110	164.797	442.362	477.756	161.187	196.621	169.453	175.447	211.231	169.549	-8191	255	
22419.383	1	1	0	0	0.040807	0.20113	0.27052	0.18264	0.21749	0.14142	0.093052	0.19738	0.042377	0.081928	0.12716	0.17787	0.14782	0.21918	0.2578	0.10905	-2.1437	-2.4437	-2.2083	-2.6479	-2.0812	-2.1312	-2.5708	-2.0708	-2.4917	-2.3396	-2.2438	-2.4188	-2.2313	-2.3187	-2.6417	-2.1437	398.518	201.399	212.582	323.538	461.526	334.208	425.623	340.406	304.635	376.858	159.518	413.206	353.112	501.679	250.136	396.977	0.0075499	0.035319	2.8061e-05	87.965	5.5554e-06	7.3094e-07	156.25	34.71	3.0467e-06	3.3547e-06	25.828	17.52	13.944	5.2335	1.2203e-05	4.147	0.0079396	0.0016314	2.0217e-05	111.41	1.1721e-06	7.8384e-07	635.41	42.473	1.1988e-06	1.5219e-06	31.912	64.874	17.142	6.4806	3.3707e-06	5.1446	312.803	455.435	278.950	159.468	243.825	247.265	492.046	164.831	383.228	489.963	160.998	191.338	169.682	175.303	214.640	169.914	-8191	255	
22419.480	1	1	0	0	0.21462	0.026666	0.10695	0.25234	0.08559	0.30129	0.15669	0.015405	0.18739	0.28509	0.15025	0.14844	0.1779	0.24272	0.082145	0.046892	-2.1333	-2.425	-2.1771	-2.4604	-2.2167	-2.225	-2.4833	-2.1708	-2.4604	-2.3854	-2.0583	-2.4604	-2.1312	-2.2625	-2.6583	-2.2062	384.975	464.245	425.069	279.887	343.735	175.823	402.817	297.474	487.046	407.201	344.579	331.842	395.508	194.325	441.410	235.600	0.014198	0.073695	9.6891e-06	88.227	2.7783e-06	6.2755e-07	115.94	34.619	5.3574e-07	1.0678e-05	25.606	24.001	13.846	5.2177	6.2873e-06	4.1086	0.0020386	0.017797	2.0352e-05	109.95	1.0721e-06	7.8508e-07	379.43	42.426	7.5284e-07	3.3956e-06	31.781	112.74	17.147	6.4417	2.138e-06	5.1242	316.082	456.891	337.347	158.918	354.697	340.174	501.515	164.399	299.529	464.799	161.614	204.529	169.765	175.467	227.711	169.902	-8191	255	
22419.576	1	1	0	0	0.17445	0.092238	0.25586	0.090282	0.1928	0.044471	0.044704	0.073704	0.24656	0.16052	0.082042	0.15711	0.41468	0.1558	0.21478	0.13383	-1.9604	-2.45	-2.1604	-2.4583	-2.3458	-2.25	-2.6333	-2.2396	-2.2125	-2.5333	-2.1146	-2.4583	-2.1417	-2.0625	-2.675	-2.1625	320.150	355.036	335.622	242.163	213.353	429.969	170.589	460.585	345.325	414.487	192.500	147.120	237.655	405.646	204.087	377.415	6.6878e-05	0.05892	3.4887e-05	88.305	5.248e-06	6.4848e-07	166.57	34.559	3.2947e-07	5.5085e-06	25.591	13.767	17.428	5.1543	6.8686e-06	4.1838	6.9784e-05	0.01272	1.9482e-05	111.72	1.3194e-06	7.442e-07	662.24	42.199	7.5415e-07	2.128e-06	31.669	49.474	28.196	6.4092	2.8267e-06	5.1882	152.144	392.582	257.362	159.577	358.984	370.058	499.614	164.476	300.126	478.924	161.162	203.409	166.465	175.292	213.580	169.287	-8191	255	
22419.672	1	1	0	0	0.21286	0.095156	0.26251	0.14984	0.11107	0.33664	0.18893	0.12127	0.07369	0.2304	0.068522	0.26879	0.058495	0.21918	0.31399	0.086958	-2.0083	-2.7104	-2.275	-2.5583	-2.2625	-2.0708	-2.6083	-2.2333	-2.3125	-2.6188	-2.1729	-2.1813	-2.3312	-1.9542	-2.5771	-2.4583	473.286	343.125	245.337	441.943	398.403	218.906	487.705	393.307	446.070	288.028	470.326	235.360	291.834	286.341	405.049	230.471	7.5719e-05	0.1132	2.7723e-05	87.321	3.7476e-06	1.6362e-06	117.36	34.102	7.2196e-07	1.0694e-05	25.037	18.564	19.595	5.0178	4.3669e-06	3.9402	6.7281e-05	0.024448	1.8342e-05	107.72	1.5265e-06	7.3545e-07	381.06	41.87	7.3689e-07	3.3866e-06	30.831	18.088	114.93	6.2473	1.7605e-06	4.8928	149.631	397.478	274.772	159.053	335.912	296.101	146.920	164.233	319.703	482.548	161.124	223.931	165.264	175.289	235.462	170.490	-8191	255	
22419.766	1	1	0	0	0.20533	0.093385	0.32257	0.19521	0.43983	0.2451	0.033409	0.33589	0.30217	0.060964	0.22365	0.1406	0.1386	0.08488	0.26598	0.14875	-1.6688	-2.4896	-2.0542	-2.3979	-2.4354	-2.2875	-2.5854	-2.3708	-2.2313	-2.6604	-2.1604	-2.3125	-2.4562	-2.3063	-2.4292	-2.2167	412.671	412.386	502.394	163.937	333.563	381.596	147.944	471.380	367.732	353.235	297.844	505.481	330.296	232.844	218.761	452.410	6.53e-05	0.057981	5.8489e-06	85.956	1.0958e-05	1.4882e-06	163.03	33.722	3.1386e-07	4.318e-06	24.451	10.681	20.198	5.077	1.5823e-06	3.9513	6.8569e-05	0.012417	1.8975e-05	105.19	3.3283e-06	7.2556e-07	646.01	41.535	7.3297e-07	2.0622e-06	30.322	13.109	78.636	6.2893	2.6311e-06	4.9691	157.330	405.275	225.462	159.024	367.381	308.462	147.238	164.755	188.278	483.221	161.427	165.322	197.621	175.117	297.632	169.799	-8191	255	
22419.863	1	1	0	0	0.11389	0.13919	0.090982	0.25801	0.11073	0.18185	0.18248	0.10366	0.082362	0.23005	0.1731	0.19998	0.17396	0.23806	0.23326	0.1063	-1.875	-2.6063	-2.3542	-2.5042	-2.5167	-2.2146	-2.5479	-2.2375	-2.0875	-2.5729	-2.1833	-2.4813	-2.6479	-1.9	-2.4667	-2.1813	460.847	139.517	202.878	141.336	264.444	231.944	266.224	421.684	199.868	193.575	293.719	247.628	401.067	333.722	300.322	306.707	5.9292e-05	0.10646	5.0816e-06	85.696	4.4706e-06	3.6312e-07	63.284	50.193	4.814e-07	5.3662e-06	24.53	10.838	27.549	5.2276	5.7947e-07	4.1131	6.7696e-05	0.023339	1.8544e-05	104.98	1.9849e-06	7.1612e-07	257.43	63.181	7.0909e-07	2.6912e-06	31.251	13.309	135.47	6.4538	1.0029e-06	5.1664	155.087	410.688	208.491	158.893	367.770	397.292	161.704	156.165	305.439	485.498	160.537	165.383	212.890	175.188	277.594	170.302	-8191	255	
22419.982	1	1	0	0	0.067043	0.25173	0.045891	0.19449	0.25497	0.042862	0.13653	0.080459	0.22535	0.24679	0.18517	0.21452	0.21495	0.29158	0.099583	0.12637	-1.6146	-2.5979	-2.1375	-2.2438	-2.5687	-2.1646	-2.2604	-2.4688	-1.9813	-2.6771	-2.3271	-2.175	-2.5812	-2.2771	-2.4396	-2.5146	230.275	376.551	481.571	424.153	427.256	265.415	174.610	413.228	197.567	414.708	390.078	147.920	197.875	255.729	454.072	447.922	6.671e-05	0.055267	7.9871e-05	85.35	1.0369e-05	7.7519e-07	72.563	66.286	7.966e-07	2.3196e-06	24.559	11.027	18.646	5.2957	7.2999e-07	4.2603	6.3171e-05	0.011869	2.3873e-05	104.92	3.1469e-06	6.5519e-07	83.135	203.89	6.6221e-07	1.6345e-06	30.992	13.514	77.222	6.5543	6.4932e-07	5.5547	153.958	416.889	476.240	158.924	367.220	297.271	171.834	153.625	238.035	136.188	160.573	165.248	201.365	175.138	299.895	170.317	-8191	255	
22420.078	1	1	0	0	0.22349	0.23867	0.020219	0.058008	0.030116	0.35492	0.13642	0.21396	0.085512	0.29048	0.17817	0.090349	0.2806	0.10469	0.13357	0.20636	-1.525	-2.6021	-2.3729	-2.0792	-2.5687	-2.3375	-2.5125	-2.5792	-2.0208	-2.5563	-2.4062	-2.2125	-2.6875	-2.0917	-2.4604	-2.4104	383.683	487.890	447.503	185.908	202.504	371.982	380.670	471.745	352.484	292.069	253.582	340.276	345.126	460.217	408.333	193.694	8.3232e-05	0.1047	0.00016153	85.628	5.5751e-06	1.2108e-06	64.038	50.235	4.9377e-07	6.1525e-06	24.626	10.972	24.542	5.2974	4.4463e-07	4.0982	6.1177e-05	0.022741	3.1574e-05	104.28	1.9142e-06	6.4627e-07	78.471	139.37	6.5001e-07	2.4127e-06	31.111	13.421	132.16	6.5062	6.3041e-07	5.219	151.004	423.483	475.283	158.744	391.660	278.046	156.473	162.491	241.239	431.931	159.968	165.485	220.110	175.140	273.973	169.758	-8191	255	
22420.176	1	1	0	0	0.5147	0.32646	0.14776	0.075011	0.30634	0.098706	0.23827	0.23077	0.26594	0.1007	0.1022	0.29448	0.13066	0.1533	0.18919	0.23652	-1.6562	-2.4646	-2.5042	-2.1333	-2.5104	-2.3396	-2.2771	-2.4979	-2.0187	-2.5729	-2.4375	-2.1521	-2.6792	-2.4125	-2.1979	-2.4958	197.491	276.978	243.316	157.212	450.518	353.046	266.959	430.463	160.830	428.743	393.206	162.270	245.053	486.797	373.451	350.095	7.442e-05	0.04302	0.013172	84.034	5.187e-06	5.3342e-06	62.473	64.396	4.1411e-07	2.7575e-06	24.092	10.742	16.459	5.1668	5.8787e-07	4.1021	5.9853e-05	0.006732	0.00084579	102.64	2.5305e-06	1.1576e-06	75.989	227.79	6.1794e-07	8.5881e-07	30.75	13.156	74.542	6.4546	6.0416e-07	5.3564	506.143	367.520	495.634	158.848	382.883	410.946	156.550	164.598	300.149	421.018	159.449	165.548	205.482	175.009	346.502	170.183	-8191	255	
22420.271	1	1	0	0	0.15821	0.14892	0.12632	0.10738	0.1158	0.18018	0.091829	0.07267	0.14236	0.20359	0.16799	0.097948	0.20138	0.13261	0.18547	0.23765	-1.7729	-2.2583	-2.5062	-2.1771	-2.4521	-2.1771	-2.2708	-2.6229	-2.1437	-2.5208	-2.4979	-2.1188	-2.6312	-2.4354	-2.2146	-2.6208	304.616	181.791	356.635	173.619	375.440	479.765	372.328	481.884	193.422	359.949	373.048	235.302	169.919	361.146	456.284	263.233	8.0885e-05	4.4814e-05	0.026604	83.772	2.6302e-06	3.1587e-06	62.289	49.912	8.1111e-07	1.3626e-07	24.017	10.595	22.83	5.0671	2.588e-07	3.9935	5.7729e-05	5.467e-05	0.0056001	102.17	1.5848e-06	8.7638e-07	76.062	139.41	5.9206e-07	5.9708e-07	33.064	13.006	137	6.3607	6.0941e-07	5.1247	150.880	460.735	497.545	158.855	365.547	420.785	156.281	166.771	262.086	354.090	159.415	165.551	231.273	175.420	164.249	170.673	-8191	255	
22420.367	1	1	0	0	0.044258	0.11232	0.14072	0.25745	0.044462	0.20682	0.11076	0.28401	0.1449	0.20594	0.21275	0.34291	0.23194	0.21229	0.18888	0.0492	-2.1396	-2.4083	-2.6292	-2.0583	-2.4646	-2.2771	-2.3292	-2.7125	-2.2646	-2.5083	-2.6021	-2.1375	-2.7167	-2.5458	-2.3312	-2.6813	341.367	232.311	230.089	436.143	432.819	229.107	302.738	508.356	429.918	247.715	181.751	317.297	435.047	338.506	432.236	273.749	7.0437e-05	4.8079e-05	0.014605	83.952	7.7981e-06	4.9081e-06	62.265	66.143	7.3337e-06	8.7044e-07	24.024	10.696	16.742	4.8953	6.2883e-07	4.0208	5.6114e-05	5.3497e-05	0.0033787	102.66	2.3337e-06	1.1829e-06	76.071	240.28	7.5371e-07	6.2133e-07	31.469	13.123	49.459	11.124	6.6892e-07	5.2993	163.337	271.755	460.585	158.754	369.477	418.427	155.998	171.396	218.760	303.798	159.694	165.505	213.113	171.562	281.241	170.129	-8191	255	
22420.465	1	1	0	0	0.2325	0.11464	0.10521	0.21556	0.050024	0.079369	0.14947	0.23457	0.24212	0.18357	0.177	0.041929	0.062326	0.0042619	0.14866	0.090692	-1.8375	-2.3167	-2.5021	-2.2146	-2.4875	-2.4625	-2.1521	-2.5375	-2.4292	-2.4667	-2.5292	-2.2625	-2.4625	-2.3708	-2.3458	-2.4583	406.468	255.577	475.739	236.281	259.995	396.401	190.048	241.834	375.306	177.959	475.123	394.696	166.219	158.693	406.243	461.724	0.00013611	2.07e-05	0.027229	84.882	3.3552e-06	3.17e-06	61.934	48.832	2.6753e-06	6.5676e-07	24.071	10.874	13.504	4.6828	5.3569e-07	4.0658	0.00010925	6.3188e-05	0.0064224	103.56	9.3009e-07	1.6034e-06	76.337	136.49	1.0245e-06	7.8271e-07	33.15	13.322	16.582	32.755	8.2856e-07	5.1827	184.853	372.534	465.712	158.770	384.696	471.037	156.547	170.817	285.093	435.961	158.944	165.566	169.735	166.754	475.477	170.060	-8191	255	
22420.584	1	1	0	0	0.2033	0.21825	0.039661	0.36974	0.1402	0.25401	0.21803	0.28363	0.34572	0.080628	0.18108	0.188	0.44254	0.19443	0.19469	0.1772	-1.8312	-2.1229	-2.4813	-2.4062	-2.4521	-2.6021	-2.0583	-2.6542	-2.4854	-2.3438	-2.7687	-2.25	-2.2375	-2.4813	-2.0729	-2.3333	516.856	269.404	503.962	466.276	185.989	203.411	306.142	247.831	422.841	460.655	367.075	297.577	515.322	366.565	456.135	471.135	8.7189e-05	5.6787e-05	0.012887	84.284	3.4582e-07	9.9629e-06	61.054	60.722	5.073e-06	6.6483e-07	23.596	10.584	13.444	4.5227	4.323e-07	3.9297	9.8339e-05	7.7386e-05	0.0030121	103.33	8.6944e-07	3.2411e-06	75.122	214.56	1.4644e-06	9.2213e-07	31.007	13.09	16.591	19.818	9.5862e-07	5.1861	183.707	516.860	474.226	158.794	317.215	425.528	516.512	176.139	291.816	234.820	160.004	164.812	169.551	199.558	233.314	170.392	-8191	255	
22420.680	1	1	0	0	0.259	0.071194	0.15845	0.19974	0.084836	0.16518	0.075764	0.37125	0.23417	0.10453	0.21219	0.15846	0.066428	0.1511	0.056884	0.13041	-2.1562	-2.1208	-2.6271	-2.3146	-2.2938	-2.5812	-2.1104	-2.4979	-2.5167	-2.25	-2.5938	-2.3146	-2.4208	-2.6417	-2.2	-2.5583	374.641	449.166	351.180	285.982	182.457	362.859	234.438	320.072	485.009	175.625	334.432	405.633	490.130	478.798	491.590	333.225	0.00018071	6.325e-05	0.024041	83.865	7.3191e-07	5.5386e-06	60.411	34.968	0.00025599	1.1427e-06	23.508	10.626	13.366	4.3047	3.423e-07	3.9854	0.00013386	9.0041e-05	0.0056548	103.18	1.0016e-06	2.1424e-06	74.813	82.664	3.9349e-05	1.061e-06	31.709	13.257	16.551	32.066	1.0902e-06	5.0181	185.817	297.213	478.478	518.101	243.447	430.221	516.049	177.665	240.155	309.367	160.105	164.991	169.580	225.386	189.609	169.969	-8191	255	
22420.775	1	1	0	0	0.1356	0.062862	0.17204	0.25307	0.16947	0.25845	0.063007	0.044031	0.20813	0.11553	0.23374	0.19017	0.12551	0.083811	0.049021	0.1403	-2.0521	-2.2521	-2.6833	-2.1688	-2.3271	-2.5604	-2.2562	-2.5042	-2.6875	-2.2313	-2.525	-2.375	-2.3625	-2.6604	-2.3812	-2.4062	314.150	195.336	302.421	366.483	466.449	413.706	421.786	322.419	466.066	493.120	242.580	225.298	416.282	188.233	320.359	408.228	0.00010336	0.00015958	0.011956	83.726	1.0725e-06	9.4156e-06	60.476	32.961	0.00044341	6.8273e-07	23.494	10.621	13.262	4.1043	3.8794e-07	3.98	0.00016289	0.0001017	0.0027694	103.5	1.106e-06	3.2579e-06	74.803	40.553	0.00020316	1.1319e-06	30.564	13.161	16.521	19.255	1.1442e-06	5.0022	169.051	208.569	485.191	158.700	237.758	439.395	156.283	164.670	242.852	394.456	160.160	165.098	169.226	196.332	285.693	169.546	-8191	255	
22420.871	1	1	0	0	0.14279	0.12015	0.15297	0.33263	0.12464	0.060485	0.34196	0.083131	0.045745	0.26398	0.09819	0.1331	0.18378	0.14837	0.17949	0.29281	-2.2771	-2.1729	-2.6104	-2.3708	-2.3063	-2.7667	-2.2938	-2.2229	-2.5604	-2.3625	-2.5167	-2.3042	-2.3563	-2.6063	-2.3333	-2.5417	402.325	262.829	394.214	381.518	447.011	245.221	313.031	434.958	149.744	288.345	350.225	253.028	151.377	232.787	150.237	170.036	0.00017351	4.1556e-05	0.022539	84.648	9.1167e-07	4.2999e-06	60.005	32.959	0.0003115	7.3665e-07	22.915	10.492	13.408	3.5407	1.3981e-06	3.9784	0.00027953	0.00010657	0.0052941	104.76	1.2032e-06	2.2342e-06	75.072	40.798	0.00010069	1.2664e-06	31.145	13.149	16.637	28.942	1.5272e-06	5.0221	205.604	237.281	491.794	158.720	245.898	445.341	156.361	164.722	287.935	257.588	161.533	164.324	169.389	216.749	465.758	169.611	-8191	255	
22420.967	1	1	0	0	0.31435	0.23229	0.21496	0.18368	0.14138	0.18365	0.22176	0.24933	0.32743	0.19298	0.12038	0.1075	0.035539	0.1188	0.17993	0.11469	-2.1833	-2.1229	-2.4437	-2.3812	-2.0646	-2.6875	-2.2271	-2.4625	-2.6562	-2.1396	-2.5833	-2.3646	-2.1375	-2.675	-2.2625	-2.4875	222.141	363.840	324.486	399.907	351.085	446.756	351.891	193.002	357.665	391.055	263.662	187.081	358.111	355.956	362.221	290.068	0.00011349	8.9969e-05	0.0042113	104.91	4.9234e-07	4.6095e-06	60.406	32.825	0.00056922	6.3046e-07	23.135	10.497	13.447	4.0527	1.5816e-06	4.0025	0.00019452	0.00011807	0.0011304	178.34	1.2844e-06	2.7831e-06	76.376	40.83	0.00018452	1.2653e-06	29.6	13.298	16.723	18.305	1.4207e-06	5.0361	203.652	272.151	405.452	501.593	320.030	424.888	155.562	164.704	293.821	461.409	160.628	164.846	168.799	189.902	421.514	169.749	-8191	255	
22421.062	1	1	0	0	0.17922	0.10963	0.14791	0.086511	0.19828	0.1972	0.12345	0.18891	0.080795	0.13941	0.10444	0.17177	0.37027	0.12785	0.13382	0.21185	-2.2396	-2.1688	-2.4125	-2.6146	-2.3375	-2.775	-2.3771	-2.3729	-2.6937	-2.1646	-2.3479	-2.5292	-2.1375	-2.7167	-2.4292	-2.3542	374.840	347.890	476.776	227.249	403.898	412.401	408.341	308.481	318.175	185.022	239.928	187.843	165.904	188.841	339.799	395.973	0.00015723	0.00011804	5.1117e-06	116.11	5.4028e-08	3.3873e-06	59.512	32.744	0.00030296	6.645e-07	23.025	10.488	13.288	2.6617	3.3036e-06	3.9928	0.00026703	0.00010716	2.9378e-05	482.79	1.1768e-06	1.9598e-06	74.916	40.46	0.00010019	1.1998e-06	29.216	13.674	16.562	29.799	1.7114e-06	5.0268	213.633	158.406	225.989	486.595	473.228	430.160	156.053	164.629	300.791	360.459	161.260	164.594	169.476	214.843	461.519	169.579	-8191	255	
22421.160	1	1	0	0	0.10708	0.25778	0.21734	0.12402	0.067101	0.17728	0.16761	0.3183	0.21059	0.037389	0.054531	0.11355	0.14567	0.18113	0.19643	0.16045	-2.2687	-2.1188	-2.4625	-2.6521	-2.2271	-2.4562	-2.4688	-2.2104	-2.7292	-2.0479	-2.2854	-2.4375	-2.3083	-2.3958	-2.6437	-2.3104	327.039	311.471	262.205	476.832	257.554	195.038	227.158	227.400	235.277	304.285	254.439	222.494	184.868	478.143	392.208	333.894	7.1073e-05	0.00010312	5.5085e-06	101.56	2.1153e-07	6.3699e-06	60.752	32.934	0.00050794	3.2589e-06	23.167	10.511	13.449	4.6067	0.00019149	3.9277	0.00019071	0.00010991	3.178e-05	312.91	1.2557e-06	2.3418e-06	76.993	41	0.0001669	1.636e-06	29.733	13.494	16.795	10.994	4.0228e-05	5.023	219.253	199.182	361.478	499.567	166.603	408.050	155.612	164.869	306.707	267.988	160.700	164.692	169.290	194.488	149.601	169.718	-8191	255	
22421.256	1	1	0	0	0.14279	0.16718	0.25383	0.14713	0.3271	0.11366	0.10733	0.316	0.13311	0.19346	0.10737	0.13279	0.18113	0.08401	0.1219	0.2096	-2.1396	-2.2771	-2.4521	-2.4313	-2.0938	-2.5146	-2.3312	-2.1854	-2.4313	-2.2625	-2.2313	-2.6833	-2.1688	-2.4667	-2.4313	-2.2771	414.643	432.542	490.296	176.005	407.784	452.038	167.493	166.936	365.980	208.756	288.027	343.059	341.121	460.917	377.412	394.688	8.1788e-05	0.00028195	6.8471e-06	104.08	4.2606e-07	1.1146e-06	60.931	33.015	0.00019784	1.7562e-06	23.09	10.184	13.146	5.2773	0.00028329	3.8244	0.000219	0.00017767	4.2755e-05	312.16	1.7943e-06	1.9472e-06	78.488	41.293	6.5081e-05	2.2182e-06	30.445	13.337	16.843	6.6904	8.7652e-05	4.9773	193.492	289.740	373.779	501.466	407.675	392.535	156.068	164.591	312.180	368.813	160.599	165.093	169.778	175.273	437.246	169.475	-8191	255	
22421.377	1	1	0	0	0.029449	0.36382	0.027012	0.26127	0.090782	0.16289	0.088362	0.21815	0.12522	0.13332	0.21735	0.10177	0.2945	0.19176	0.16688	0.076056	-2.3292	-2.2167	-2.3042	-2.6312	-2.175	-2.5542	-2.5896	-2.175	-2.5875	-2.525	-2.3646	-2.6063	-2.2812	-2.3479	-2.6375	-2.2229	469.378	491.975	386.442	389.329	200.211	243.420	491.832	153.155	184.868	375.075	289.305	349.961	321.276	379.230	193.089	406.175	5.3589e-05	0.00035271	1.1395e-06	97.395	7.4432e-07	8.4933e-07	60.51	32.921	0.00023877	1.2016e-06	22.978	10.164	13.072	5.2099	0.00021706	3.7127	0.00023079	0.00021722	5.7027e-05	221.94	2.2527e-06	2.2943e-06	80.229	41.595	8.7542e-05	2.5484e-06	30.618	13.226	16.914	6.6243	6.7007e-05	4.8641	177.239	261.066	418.698	148.771	335.690	412.431	155.369	164.548	343.088	356.478	161.056	164.704	169.253	174.857	446.412	169.756	-8191	255	
22421.473	1	1	0	0	0.2319	0.18835	0.22887	0.1429	0.23329	0.097793	0.11049	0.14404	0.11665	0.071248	0.16079	0.20365	0.17704	0.18604	0.066805	0.03343	-1.9667	-2.425	-2.1708	-2.6458	-2.2625	-2.3375	-2.4646	-2.0917	-2.6437	-2.4688	-2.2812	-2.5479	-2.3708	-2.3208	-2.5604	-2.2396	175.404	360.075	493.137	432.827	201.315	416.876	369.757	183.804	429.922	459.745	335.250	295.688	375.254	484.593	353.989	168.642	7.9538e-05	0.00024845	3.2296e-05	109.77	3.3499e-06	5.6791e-07	60.109	32.757	0.00022572	8.7433e-05	22.244	9.7392	12.871	4.98	0.0004335	3.5243	0.00023461	0.00023087	5.3946e-05	308.48	2.2768e-06	2.0989e-06	78.098	41.032	3.0679e-05	4.0648e-05	29.355	12.839	16.464	6.3259	0.00012937	4.5854	189.533	289.866	247.284	504.465	198.641	281.677	156.001	164.820	344.293	271.360	161.205	164.994	168.964	175.110	451.236	169.384	-8191	255	
22421.545	1	1	0	0	0.20173	0.32722	0.27178	0.29721	0.14347	0.10605	0.17196	0.073219	0.13097	0.27685	0.12818	0.29803	0.13473	0.078396	0.21134	0.39054	-2.0375	-2.5979	-2.0312	-2.5208	-2.15	-2.4271	-2.6354	-2.1479	-2.3563	-2.4958	-2.0667	-2.6375	-2.375	-2.1	-2.6417	-2.2188	191.757	449.033	370.197	505.031	161.731	252.230	175.079	453.866	179.238	357.792	202.424	414.154	185.026	182.181	168.082	240.921	8.2732e-05	0.00018213	4.4379e-05	108.37	2.3198e-06	6.9939e-07	59.356	32.386	6.9348e-07	0.00037641	22.312	9.6145	12.79	4.8787	0.00030973	3.3726	0.00016551	0.00023934	4.7124e-05	285.48	2.0105e-06	1.7756e-06	78.316	40.475	1.7256e-06	0.00012125	28.96	12.423	16.173	6.1527	9.408e-05	4.3569	182.242	297.223	196.175	147.159	256.336	175.044	155.681	164.659	330.353	343.935	160.765	164.963	169.589	175.221	457.910	169.833	-8191	255	
22421.664	1	1	0	0	0.1835	0.19308	0.10835	0.14952	0.25615	0.10488	0.24879	0.028111	0.0071151	0.1485	0.23174	0.17588	0.33151	0.14796	0.080256	0.11163	-1.9438	-2.4021	-2.075	-2.6937	-2.2021	-2.3125	-2.3708	-2.3	-2.625	-2.5229	-2.1708	-2.3771	-2.4771	-2.0833	-2.7896	-2.3104	357.625	417.965	272.331	351.480	173.246	377.274	146.642	419.139	407.021	272.521	304.746	300.570	319.055	259.297	497.265	347.072	5.5e-05	0.00082523	1.9794e-05	86.709	4.1899e-06	3.4223e-07	59.563	32.495	2.6496e-08	0.00038864	21.864	9.0294	12.594	4.6175	0.0006992	3.1446	0.00013681	0.00026847	3.9199e-05	385.27	1.8821e-06	1.4827e-06	77.152	40.425	1.4282e-06	0.00012283	28.045	11.767	15.928	5.7831	0.00021289	4.0938	147.846	306.619	244.150	161.851	240.265	213.119	155.846	164.591	344.363	350.975	161.156	165.285	169.141	175.515	463.834	168.951	-8191	255	
22421.760	1	1	0	0	0.099597	0.035717	0.18282	0.13141	0.144	0.15739	0.070406	0.094054	0.20178	0.1125	0.15911	0.21619	0.13187	0.11443	0.18713	0.13062	-1.975	-2.5458	-2.2292	-2.625	-2.3479	-2.2938	-2.6333	-2.2333	-2.3187	-2.4813	-2.375	-2.5	-2.3708	-2.1667	-2.5979	-2.3083	171.092	264.699	429.133	425.722	472.826	236.494	402.284	462.413	385.511	160.766	223.776	354.017	150.049	358.912	404.665	151.633	5.6471e-05	0.00062531	1.356e-05	88.615	0.00043511	8.7298e-07	59.178	32.47	8.3769e-07	0.0007698	22.101	9.1029	12.463	4.6225	0.00044568	3.2072	0.00011956	0.00024017	3.472e-05	187.72	6.9438e-05	1.3482e-06	78.628	40.643	1.3066e-06	0.00024212	28.112	11.432	16.045	5.7797	0.00013726	4.146	163.862	307.656	348.213	162.038	226.633	329.713	155.670	164.141	170.090	356.822	160.642	165.136	169.500	175.371	470.075	169.897	-8191	255	
22421.857	1	1	0	0	0.1433	0.17406	0.096486	0.074855	0.080715	0.32886	0.24115	0.21535	0.28396	0.23885	0.093696	0.11046	0.23171	0.17785	0.063936	0.16383	-1.8312	-2.4604	-2.1333	-2.5375	-2.6792	-2.2479	-2.6646	-2.1813	-2.2	-2.7562	-2.2917	-2.45	-2.5083	-2.1792	-2.575	-2.3937	371.914	367.136	224.308	362.989	388.737	201.760	206.632	481.386	286.622	496.163	483.105	431.730	171.354	470.005	287.884	466.162	5.9261e-05	0.0014561	2.9862e-05	87.818	0.00078743	1.0073e-06	60.251	32.68	3.1803e-07	0.00044517	22.144	9.1256	12.645	4.6251	0.00068858	3.1668	0.0001101	0.00034363	3.2105e-05	108.03	0.00024622	1.2311e-06	77.725	40.696	1.1968e-06	0.00013926	28.022	11.414	16.653	5.7569	0.00022107	4.1446	156.541	316.957	323.975	158.724	238.858	411.027	155.996	164.266	255.972	364.623	160.697	165.553	168.915	175.189	416.447	168.816	-8191	255	
22421.977	1	1	0	0	0.0063578	0.16992	0.31228	0.10701	0.11041	0.20645	0.21914	0.069785	0.3279	0.14843	0.16828	0.08365	0.12157	0.14688	0.14678	0.049036	-1.9479	-2.675	-2.0604	-2.5396	-2.3896	-2.0292	-2.5229	-2.3542	-2.2292	-2.7979	-2.1979	-2.4917	-2.4604	-2.0521	-2.4062	-2.4354	353.067	186.312	452.953	278.602	168.157	280.874	374.188	366.325	377.620	151.440	471.860	161.313	430.335	391.440	272.402	434.148	5.7448e-05	0.0007463	5.3714e-05	86.911	0.00043836	1.317e-07	59.112	32.993	1.0119e-06	0.00079086	21.93	9.3145	12.555	4.6192	0.00036712	5.8358	0.00010177	0.00021174	2.9443e-05	106.73	0.0001369	1.135e-06	77.03	41.199	1.1358e-06	0.00025095	28.717	11.554	16.197	5.7968	3.8336e-05	17.041	155.793	335.789	207.241	158.697	246.155	473.862	155.919	163.686	325.817	369.759	161.047	164.975	169.668	175.177	419.494	493.772	-8191	255	
22422.072	1	1	0	0	0.053774	0.2697	0.12615	0.27751	0.18399	0.092583	0.25503	0.21741	0.15509	0.16157	0.01454	0.19325	0.037466	0.2161	0.14259	0.042571	-1.8625	-2.5292	-2.1063	-2.35	-2.75	-2.2125	-2.3375	-2.4354	-2.1479	-2.5938	-2.3021	-2.2729	-2.6896	-2.2375	-2.3208	-2.5958	472.732	218.589	482.691	200.348	339.136	182.992	268.552	398.945	454.822	443.648	440.476	343.318	325.695	455.249	377.820	394.146	5.7045e-05	0.00078665	0.00012825	86.94	0.00079161	8.0047e-07	60.296	32.9	9.5018e-07	0.00044347	22.208	9.5694	12.915	4.7747	1.9867e-07	6.7117	0.00010088	0.00028279	4.2381e-05	107.06	0.00024908	1.1095e-06	74.87	41.486	1.1183e-06	0.00013959	28.817	11.84	16.923	5.9255	1.1157e-06	45.67	169.303	332.743	341.442	158.729	252.438	173.759	156.185	164.502	309.588	376.560	160.956	165.085	169.153	175.268	226.225	450.169	-8191	255	
22422.145	1	1	0	0	0.13777	0.14149	0.087814	0.22084	0.27162	0.28656	0.066566	0.20306	0.24212	0.1708	0.21467	0.17975	0.37807	0.13163	0.17332	0.13264	-1.7104	-2.4188	-2.1333	-2.3292	-2.6604	-2.3458	-2.2771	-2.4521	-2.2438	-2.4875	-2.4333	-2.275	-2.7479	-2.1937	-2.4583	-2.5021	361.449	170.222	186.809	158.556	252.888	295.320	334.833	300.099	298.883	464.577	257.653	450.216	187.171	472.993	246.632	402.891	5.6727e-05	0.00033767	8.2015e-05	86.437	0.00044525	3.0037e-07	60.699	32.774	4.7444e-07	0.00085095	26.666	9.4266	12.582	4.6802	4.9541e-07	4.5309	0.00010134	0.00020272	3.6613e-05	106.8	0.00013763	1.1733e-06	75.861	42.619	1.2041e-06	0.00021118	30.831	11.773	16.211	5.8722	1.2778e-06	26.128	154.856	325.071	376.400	158.980	258.491	293.515	155.955	164.010	494.011	378.087	162.856	165.480	169.651	175.094	248.030	473.439	-8191	255	
22422.264	1	1	0	0	0.17037	0.36022	0.098252	0.074771	0.22639	0.15234	0.26814	0.20133	0.17043	0.14289	0.15011	0.18439	0.02728	0.07408	0.1394	0.15685	-1.8021	-2.4521	-2.4125	-2.4125	-2.6312	-2.3833	-2.4083	-2.3937	-2.1875	-2.4313	-2.4042	-2.2938	-2.4833	-2.3312	-2.3646	-2.8187	427.579	273.869	207.184	377.950	207.489	478.756	480.893	418.223	210.520	456.627	414.711	189.561	307.939	394.613	458.770	387.240	5.9289e-05	0.00088301	0.00017601	87.942	0.00078194	5.3859e-06	60.639	33.063	8.0592e-07	0.00047798	21.948	9.4877	12.946	4.8324	8.5857e-07	7.1459	0.00011728	0.0002204	6.4307e-05	108.41	0.00024763	2.006e-06	76.514	42.134	1.497e-06	3.2105e-05	140.94	11.96	16.935	6.0837	1.372e-06	43.842	147.116	302.389	401.296	158.834	265.041	314.389	156.296	164.125	219.036	381.447	506.105	165.321	169.423	175.165	339.298	461.117	-8191	255	
22422.361	1	1	0	0	0.13617	0.10463	0.35734	0.15586	0.087547	0.21106	0.2094	0.13444	0.097873	0.20191	0.09673	0.10494	0.1467	0.15074	0.21382	0.23937	-1.8646	-2.4042	-2.3354	-2.1354	-2.6063	-2.5021	-2.3667	-2.5021	-2.2438	-2.4813	-2.5958	-2.1833	-2.5458	-2.3937	-2.3479	-2.6271	421.269	176.995	447.109	348.613	410.162	281.457	484.109	262.788	481.941	277.704	397.259	332.041	243.628	448.302	400.956	459.136	4.7801e-05	0.00013444	0.00010278	87.942	0.00041077	3.312e-06	58.189	32.754	3.915e-07	7.5287e-07	42.876	8.3931	12.346	4.5647	2.9439e-07	4.7363	0.00011896	0.00012127	6.4877e-05	108.7	0.00012944	1.5838e-06	72.597	42.298	1.2875e-06	1.2862e-06	350.98	10.676	15.874	5.7516	1.3922e-06	24.854	158.204	201.882	421.389	158.964	271.516	326.587	156.367	163.650	283.839	298.740	274.584	165.260	169.096	175.106	202.394	480.097	-8191	255	
22422.457	1	1	0	0	0.12364	0.43619	0.14802	0.067184	0.13741	0.27007	0.18092	0.099682	0.04155	0.15833	0.28031	0.051531	0.095396	0.29006	0.15409	0.13603	-1.8667	-2.5104	-2.5625	-2.1792	-2.825	-2.4	-2.4021	-2.6458	-2.4396	-2.5292	-2.5187	-2.1688	-2.4417	-2.35	-2.3021	-2.7042	210.523	445.361	214.404	498.746	303.415	384.555	482.963	442.961	272.970	191.656	336.307	450.007	302.819	498.093	343.597	445.765	4.2866e-05	0.00016008	0.00035268	87.353	0.00038319	0.00068551	58.846	32.567	2.1473e-06	6.5676e-07	18.718	9.3142	12.769	4.8356	1.4242e-06	7.5252	0.00012707	0.00013439	9.9895e-05	108.11	0.00018575	1.1637e-05	74.21	41.503	1.6523e-06	1.5563e-06	198.1	11.832	16.455	6.1501	1.6236e-06	41.098	504.961	189.120	380.163	159.114	332.719	259.334	156.375	164.420	179.380	290.665	252.995	164.927	169.736	175.201	259.385	473.895	-8191	255	
22422.553	1	1	0	0	0.037967	0.10016	0.22441	0.055226	0.14922	0.026917	0.13268	0.12575	0.16673	0.24412	0.22915	0.050932	0.07316	0.06273	0.075324	0.18352	-2.0292	-2.3854	-2.6604	-2.2229	-2.5187	-2.7271	-2.2479	-2.4813	-2.3646	-2.2042	-2.5417	-2.1354	-2.4375	-2.4417	-2.1333	-2.6854	286.551	416.266	503.820	268.723	372.844	398.570	455.819	389.034	289.864	341.022	355.066	266.775	373.302	387.657	349.164	380.316	0.00010005	5.1927e-05	0.00016632	85.771	0.000226	0.00033625	59.985	32.701	3.6666e-06	6.3624e-07	29.611	9.8948	12.96	5.0222	4.2655e-07	5.2822	0.00018224	0.00014899	7.3488e-05	106.46	2.3372e-05	8.1723e-05	76.142	42.084	2.1471e-06	1.7033e-06	298.84	12.52	16.39	6.4376	1.7923e-06	22.822	493.499	202.095	373.181	158.704	333.340	262.581	156.081	164.250	200.363	213.958	283.548	164.917	169.196	174.941	505.777	495.185	-8191	255	
22422.674	1	1	0	0	0.13026	0.22881	0.15394	0.2028	0.33741	0.20507	0.13907	0.22729	0.16029	0.30836	0.075924	0.091799	0.10039	0.20511	0.17427	0.18879	-1.8375	-2.5	-2.4417	-2.2021	-2.5542	-2.4437	-2.225	-2.6229	-2.3917	-2.4562	-2.6937	-2.3396	-2.3604	-2.6271	-2.3917	-2.4917	296.622	275.461	264.846	232.606	332.872	149.424	364.597	174.487	168.243	375.074	390.108	408.358	481.852	474.837	417.537	345.142	9.912e-05	2.4385e-05	0.00025383	85.628	7.9017e-07	0.00062009	60.898	32.708	2.4865e-06	3.0291e-07	10.799	9.8416	12.839	4.9565	1.3887e-06	1.7758	0.00017507	0.00016338	9.1438e-05	106.97	1.8262e-06	0.0001724	76.823	41.606	2.0686e-06	1.8793e-06	174.58	12.516	16.328	6.4385	1.9156e-06	24.885	493.915	282.489	389.513	158.914	317.852	303.570	155.920	164.442	211.247	264.662	249.456	165.165	169.306	175.662	284.150	149.502	-8191	255	
22422.768	1	1	0	0	0.37155	0.27934	0.040821	0.25411	0.19169	0.11372	0.26148	0.19984	0.10223	0.20969	0.042429	0.12307	0.19884	0.2762	0.23437	0.13502	-2.0187	-2.4104	-2.7354	-2.3771	-2.4813	-2.6958	-2.0979	-2.5792	-2.4875	-2.4333	-2.6604	-2.3812	-2.5062	-2.4271	-2.2833	-2.4562	227.527	338.237	310.209	188.824	226.618	439.046	440.415	241.149	361.188	235.821	324.860	148.352	370.840	400.560	263.162	387.077	0.0098677	0.00015481	9.0892e-05	86.494	9.7893e-07	0.00038444	61.228	32.722	6.9901e-06	4.9794e-07	16.83	9.4603	12.689	4.8467	2.8491e-07	2.3225	0.0013371	0.00017395	6.9514e-05	107.98	1.8767e-06	0.0001063	77.521	41.513	2.7288e-06	1.9232e-06	241.98	12.396	16.167	6.2473	1.9767e-06	6.7891	470.399	336.982	369.869	158.649	260.095	310.981	156.610	164.754	203.155	438.435	294.249	165.138	169.593	175.743	365.536	159.854	-8191	255	
22422.840	1	1	0	0	0.024015	0.072205	0.08981	0.16208	0.29385	0.1875	0.239	0.033476	0.016274	0.12123	0.167	0.37957	0.17245	0.25216	0.0249	0.17572	-1.9875	-2.2667	-2.5708	-2.3125	-2.4646	-2.5667	-2.3688	-2.5271	-2.6375	-2.2771	-2.6729	-2.5958	-2.2417	-2.5646	-2.2042	-2.6771	237.743	410.178	276.456	475.589	295.970	295.246	442.441	474.712	167.520	225.655	387.785	498.737	431.941	433.924	392.215	381.889	0.006477	4.4408e-05	0.00013063	85.497	3.1543e-07	0.00067596	59.076	32.163	4.1598e-06	1.3074e-06	6.9452	9.1915	12.416	4.7544	7.8003e-07	3.2462	0.0063475	0.00018489	8.8413e-05	107.89	1.9815e-06	0.00018696	75.426	40.46	3.1532e-06	2.0957e-06	181.48	11.94	15.889	6.2598	2.1591e-06	4.2675	473.598	238.018	381.107	158.798	212.517	317.035	156.086	164.771	194.568	195.361	287.757	164.928	169.469	175.630	158.985	169.368	-8191	255	
22422.938	1	1	0	0	0.11058	0.067191	0.073809	0.21395	0.031147	0.075234	0.40903	0.087699	0.090246	0.17849	0.098174	0.17974	0.076424	0.1459	0.06803	0.10149	-2.1167	-2.2625	-2.5167	-2.3688	-2.2687	-2.6479	-2.3167	-2.3688	-2.5854	-2.2917	-2.6604	-2.325	-2.2271	-2.7104	-2.275	-2.3771	283.431	181.038	299.132	442.483	447.265	351.606	243.908	423.396	485.058	333.206	251.757	310.183	329.301	453.561	431.522	156.695	0.011554	0.00013143	9.7857e-05	85.457	7.4548e-07	0.00044408	58.966	32.223	8.8263e-06	1.0872e-06	41.714	10.295	12.526	4.7411	4.4603e-06	3.3114	0.017684	0.0002054	8.0425e-05	107.91	2.2439e-06	0.00012373	76.034	40.586	4.6788e-06	2.523e-06	250.48	23.701	16.2	6.2365	2.9709e-06	4.475	459.445	169.974	416.489	158.836	336.231	323.389	156.301	164.589	212.190	213.876	283.185	472.240	169.439	175.521	237.874	169.432	-8191	255	
22423.057	1	1	0	0	0.010267	0.22196	0.2612	0.068405	0.077769	0.1192	0.057809	0.092979	0.088274	0.15253	0.11534	0.17312	0.13887	0.11927	0.11403	0.13201	-2.2125	-2.1458	-2.4	-2.4896	-2.2333	-2.8187	-2.225	-2.5583	-2.6625	-2.2417	-2.5917	-2.5187	-2.3063	-2.6417	-2.3521	-2.325	501.144	335.433	178.685	263.572	337.526	409.711	248.437	476.526	249.479	186.078	235.863	297.088	225.558	321.119	236.647	290.058	0.0071835	0.00019289	0.00023018	84.46	8.8831e-07	0.00090131	59.03	32.076	6.167e-06	5.7654e-07	19.474	9.3439	12.52	4.79	4.2437e-06	3.3304	0.010993	0.00027187	9.5804e-05	111.2	3.0711e-06	0.0002532	79.037	41.173	4.5835e-06	3.3708e-06	46.709	50.13	16.572	6.4543	3.9173e-06	4.5754	466.384	226.033	356.629	158.390	155.224	328.813	156.075	164.785	215.960	356.713	264.344	490.297	169.531	175.483	320.670	169.340	-8191	255	
22423.152	1	1	0	0	0.28089	0.1143	0.23255	0.13968	0.10347	0.29353	0.11314	0.2107	0.18945	0.13255	0.075296	0.08227	0.12228	0.073282	0.11714	0.17719	-2.1667	-2.2292	-2.4313	-2.6917	-2.1625	-2.5521	-2.3333	-2.1292	-2.5458	-2.45	-2.4792	-2.7438	-2.3417	-2.5771	-2.2021	-2.2646	149.459	216.944	173.898	285.421	259.646	447.361	389.343	215.897	477.572	399.142	458.058	340.475	355.559	225.157	269.645	196.948	0.012918	8.4992e-05	4.021e-05	85.984	2.0076e-07	0.00047302	60.319	32.492	1.1669e-05	4.4576e-07	22.054	6.6252	12.479	4.7394	2.3743e-06	3.2219	0.020254	0.0003188	8.6746e-05	113.05	3.5027e-06	0.00013473	80.256	42.004	6.0528e-06	3.5482e-06	31.009	107.31	16.71	6.3094	3.798e-06	4.501	472.414	342.272	252.396	158.887	425.064	336.646	156.745	164.376	216.223	310.023	161.101	351.555	169.233	175.565	343.261	170.330	-8191	255	
22423.248	1	1	0	0	0.18833	0.072269	0.11486	0.16821	0.19239	0.11812	0.11607	0.21997	0.20359	0.22924	0.16264	0.29043	0.31945	0.19637	0.32875	0.14457	-2.1542	-2.3479	-2.4604	-2.7	-2.2292	-2.6458	-2.5563	-2.2896	-2.6396	-2.2354	-2.4292	-2.4708	-2.2042	-2.4646	-2.3917	-2.3688	495.603	206.641	333.293	441.786	393.085	339.140	342.575	221.552	341.611	361.562	169.773	482.384	212.655	248.821	410.129	411.486	0.0071832	0.0001908	3.116e-05	86.182	3.1434e-07	0.00080901	95.355	32.395	2.8143e-06	3.6456e-06	21.547	1.3736	12.501	4.6698	4.1501e-06	3.1479	0.011278	0.000329	9.0276e-05	116.74	3.6676e-06	0.00016808	173.54	41.939	4.7203e-06	3.9249e-06	30.693	63.073	16.651	6.1974	5.1935e-06	4.425	479.410	419.927	205.224	158.510	392.167	366.049	166.057	164.356	228.118	221.714	161.468	450.637	169.446	175.946	332.532	170.130	-8191	255	
22423.346	1	1	0	0	0.14147	0.21156	0.14174	0.057032	0.20064	0.23663	0.25892	0.29806	0.072282	0.078566	0.14659	0.14412	0.15249	0.19144	0.059876	0.067515	-2.2812	-2.3208	-2.375	-2.5833	-2.4313	-2.5875	-2.4833	-2.175	-2.6292	-2.525	-2.3958	-2.8708	-2.3063	-2.6896	-2.5646	-2.2521	242.679	150.994	326.714	150.680	395.522	459.533	391.851	195.634	361.776	311.768	382.810	162.440	237.949	380.722	212.666	290.769	0.014079	0.0007891	2.0643e-05	85.874	1.7683e-06	0.00050373	77.031	32.08	5.0396e-06	5.9144e-06	21.477	9.1676	12.293	4.6299	6.3599e-06	3.0947	0.022046	0.00039303	9.4145e-05	114.87	3.7764e-06	1.0892e-05	336	41.975	5.9796e-06	4.3821e-06	30.729	118.01	16.6	6.0915	5.2549e-06	4.399	485.654	180.222	227.761	158.609	294.826	367.490	163.089	164.638	225.138	241.957	160.519	376.035	169.175	175.275	340.601	169.902	-8191	255	
22423.441	1	1	0	0	0.084343	0.14893	0.18279	0.091742	0.25517	0.2074	0.10299	0.10924	0.22677	0.1075	0.095678	0.19855	0.083119	0.028717	0.18626	0.17396	-2.0083	-2.325	-2.2458	-2.8208	-2.1479	-2.5083	-2.675	-2.2417	-2.7042	-2.3604	-2.275	-2.5187	-2.2708	-2.275	-2.4354	-2.0292	233.806	409.742	246.177	261.778	203.836	339.825	451.114	304.440	434.789	414.880	372.516	206.281	451.635	275.312	239.528	463.823	0.008226	0.00045424	1.1302e-05	86.386	2.419e-07	6.8598e-07	110.74	32.235	1.8702e-06	2.1817e-06	21.092	3.6289	12.194	4.4891	1.1615e-05	2.9464	0.012596	0.00037586	9.7495e-05	118.23	3.8285e-06	3.8106e-06	691.55	42.085	4.9467e-06	4.1216e-06	30.458	68.954	16.468	5.9548	6.7524e-06	4.2428	491.505	221.029	174.075	158.424	209.707	393.124	227.048	164.283	253.173	269.845	160.603	429.372	169.209	175.048	358.010	169.821	-8191	255	
22423.537	1	1	0	131072	0.11483	0.28181	0.17972	0.22316	0.1664	0.15959	0.14531	0.17357	0.19367	0.17907	0.11654	0.12555	0.133	0.16933	0.060587	0.030246	-2.1458	-2.5792	-2.1625	-2.6063	-2.2938	-2.3667	-2.6583	-2.2021	-2.5521	-2.3937	-2.0792	-2.4458	-2.3375	-2.2708	-2.4646	-2.1813	159.297	398.870	201.390	226.769	410.719	429.180	255.811	493.345	359.619	442.609	336.691	373.482	277.164	193.075	438.404	225.758	0.0017891	0.12929	3.334e-05	87.933	2.5987e-06	1.6035e-06	69.634	32.635	7.6026e-07	1.3257e-05	21.2	12.332	11.999	4.4126	7.456e-06	2.804	0.014932	0.006115	0.00010006	115.89	4.1873e-06	3.8609e-06	413.96	42.379	4.5632e-06	5.7108e-06	30.539	120.26	16.68	5.8643	5.5052e-06	4.0656	271.253	164.082	310.288	158.618	478.803	280.269	210.236	164.165	352.854	253.186	160.738	389.793	168.540	175.220	374.353	169.948	-8191	255	
22423.658	1	1	0	131072	0.22478	0.056901	0.13765	0.055663	0.16933	0.20582	0.070784	0.14777	0.13212	0.19423	0.27069	0.092805	0.38192	0.12216	0.15846	0.16808	-2.0187	-2.4938	-2.0771	-2.3479	-2.3333	-2.2417	-2.7042	-2.2375	-2.5583	-2.5271	-2.1333	-2.575	-2.3146	-2.1208	-2.5667	-2.125	404.643	420.199	434.300	167.650	343.929	156.539	319.999	384.350	152.316	371.037	287.166	211.613	364.053	323.799	363.617	424.531	0.0014455	0.068192	1.6544e-05	87.45	4.87e-06	3.2353e-07	99.711	32.398	7.6412e-07	6.4197e-06	20.237	5.5191	12.045	4.3425	1.1483e-05	2.6701	0.00042073	0.012213	0.00010302	118.71	4.4503e-06	3.9719e-06	699.87	42.159	3.8402e-06	5.4482e-06	29.627	68.289	16.428	5.7369	6.8246e-06	3.8806	222.609	167.112	177.500	158.527	167.426	330.689	242.622	164.304	355.518	253.245	161.110	436.079	169.272	174.989	367.591	169.235	-8191	255	
22423.754	1	1	0	0	0.30238	0.11769	0.1589	0.10748	0.1125	0.14125	0.12886	0.25198	0.22513	0.094718	0.11946	0.11835	0.20038	0.10659	0.26075	0.14962	-1.8542	-2.3729	-2.1583	-2.4146	-2.3458	-2.1417	-2.5542	-2.1208	-2.2375	-2.5563	-2.1521	-2.6542	-2.3792	-2.1771	-2.4333	-2.2729	447.648	204.040	447.597	198.167	220.224	351.919	203.947	467.872	481.850	425.263	358.111	315.805	422.416	225.707	357.661	458.707	5.0565e-05	0.11793	3.1428e-05	86.845	2.811e-06	7.1638e-07	56.883	32.074	1.358e-06	1.1716e-05	20.11	8.286	21.055	4.2904	2.2916e-06	2.6245	0.00033153	0.026104	0.00010338	114.85	4.1577e-06	4.0315e-06	403.69	41.702	3.8665e-06	6.8453e-06	29.474	72.66	51.504	5.7305	5.1519e-06	3.9011	496.876	181.224	254.106	159.118	147.075	314.001	218.024	164.273	212.521	268.828	160.412	304.430	455.477	175.247	374.080	170.187	-8191	255	
22423.848	1	1	0	131072	0.1479	0.084004	0.10716	0.23104	0.091415	0.16601	0.19218	0.217	0.15655	0.27394	0.19154	0.10621	0.19554	0.18912	0.067769	0.19244	-1.8396	-2.3521	-2.2396	-2.4229	-2.3563	-2.1146	-2.5833	-2.3604	-2.2958	-2.4917	-2.1604	-2.2562	-2.425	-2.0896	-2.475	-2.2333	216.823	200.629	484.087	188.858	348.920	497.366	498.910	205.762	316.116	206.869	457.727	469.367	471.394	499.870	284.069	287.233	4.1311e-05	0.063975	7.5799e-05	86.919	1.2943e-05	9.1884e-07	85.371	31.635	7.2915e-07	5.8759e-06	19.831	7.7022	14.714	4.2306	5.294e-06	2.4949	0.00033281	0.014086	0.00010286	113.74	5.8061e-06	4.1084e-06	690.45	41.875	3.9709e-06	5.6208e-06	29.181	10.856	78.333	5.661	6.2964e-06	3.8366	157.290	187.586	358.134	158.764	174.650	395.957	251.953	164.199	487.082	285.501	160.462	165.209	479.869	174.839	356.339	169.906	-8191	255	
22423.943	1	1	0	0	0.08809	0.1115	0.24751	0.083039	0.22134	0.20912	0.10844	0.04806	0.14986	0.14259	0.30247	0.14045	0.061586	0.067512	0.17856	0.15779	-1.6042	-2.4729	-2.1146	-2.5062	-2.5771	-2.2188	-2.4958	-2.2833	-2.1625	-2.6	-2.0979	-2.3333	-2.5354	-2.0667	-2.6604	-2.35	331.092	342.656	208.863	253.187	203.556	221.380	365.312	472.412	290.235	309.110	164.700	189.751	177.275	376.792	197.731	457.457	4.3585e-05	0.11599	5.0961e-05	86.192	6.3079e-06	7.3868e-07	44.005	31.313	1.2311e-06	1.1705e-05	19.473	7.6559	13.493	4.1804	4.7891e-06	2.4973	0.00035978	0.025818	0.000122	114.06	7.1408e-06	6.0812e-06	399.88	42.665	5.963e-06	8.766e-06	31.087	11.367	145.66	5.7989	6.7711e-06	4.0449	148.253	193.810	224.673	158.727	155.908	347.621	225.797	164.131	188.035	271.376	160.519	165.503	415.027	174.630	352.332	169.762	-8191	255	
22424.064	1	1	0	0	0.055704	0.11891	0.40054	0.17007	0.15535	0.16826	0.12104	0.082188	0.0093237	0.024539	0.17058	0.17995	0.12359	0.083567	0.11255	0.20185	-1.8687	-2.6583	-2.0458	-2.4083	-2.4708	-2.2417	-2.45	-2.3083	-2.1729	-2.5021	-2.2313	-2.2687	-2.7521	-2.2458	-2.5062	-2.3417	413.190	367.149	250.986	203.937	441.739	139.113	198.953	293.564	198.482	329.653	178.794	261.557	220.066	315.267	309.151	307.005	3.8865e-05	0.061766	0.00010752	85.429	1.1732e-05	4.2683e-07	84.617	31.22	4.3381e-07	3.2947e-06	19.152	7.427	8.0864	4.0849	9.155e-06	2.3624	0.00049253	0.013825	0.00014834	113.86	8.4751e-06	5.8503e-06	393.01	106.9	5.7731e-06	6.9203e-06	30.748	11.106	83.866	5.6463	6.056e-06	4.1302	192.738	200.435	194.478	158.920	168.850	246.081	265.183	155.512	360.210	278.696	161.251	164.801	460.567	174.462	365.843	169.084	-8191	255	
22424.137	1	1	0	0	0.14646	0.20694	0.14353	0.29854	0.23531	0.052126	0.27177	0.23091	0.23831	0.038499	0.2126	0.021945	0.18831	0.32985	0.052002	0.13405	-1.6625	-2.4417	-2.2208	-2.2812	-2.6375	-2.2375	-2.6146	-2.5438	-2.0625	-2.5792	-2.2313	-2.3083	-2.7208	-2.2167	-2.2646	-2.4833	331.112	247.051	277.595	279.812	178.238	300.832	290.451	149.468	143.660	449.291	373.567	286.067	277.545	462.062	147.519	175.588	7.7134e-05	0.11304	0.00025886	83.603	5.4331e-06	1.086e-06	52.669	29.74	1.3631e-06	8.4407e-06	18.489	7.1193	15.453	3.9377	1.76e-06	2.3296	0.00047785	0.024869	0.00015608	111.87	6.9573e-06	5.5733e-06	74.912	141.16	5.52e-06	7.5659e-06	29.844	10.692	140.12	5.4608	5.353e-06	3.9613	175.908	206.354	260.668	158.971	168.975	358.542	155.715	158.269	372.995	271.364	160.986	164.895	431.372	174.756	185.782	169.345	-8191	255	
22424.232	1	1	0	0	0.086203	0.40832	0.16175	0.062289	0.07889	0.18123	0.14177	0.11631	0.034252	0.13843	0.059706	0.14047	0.41477	0.089147	0.11264	0.17841	-1.6875	-2.5333	-2.3875	-2.2271	-2.5875	-2.2604	-2.3438	-2.5354	-2.125	-2.4562	-2.5021	-2.125	-2.6	-2.4021	-2.3833	-2.7313	121.156	-124.078	126.633	216.804	48.460	2.538	198.877	190.591	170.239	6.666	175.984	182.317	40.402	-42.701	-49.031	21.908	3.9137e-05	0.05861	8.155e-05	82.843	1.0876e-05	1.4236e-06	51.96	20.287	9.8029e-07	1.4081e-06	18.281	7.0551	10.007	3.9131	1.568e-06	2.2379	0.00045316	0.013099	0.00014461	110.23	7.9118e-06	5.3195e-06	73.851	240.11	5.2966e-06	6.1093e-06	29.105	10.545	78.763	5.3967	5.2217e-06	4.1086	166.909	214.203	-118.289	158.246	162.991	-50.514	156.130	-116.115	145.698	-97.452	161.052	165.048	107.691	173.986	-41.404	169.566	-8191	255	
22424.328	1	1	0	0	0.21907	0.070939	0.038133	0.12745	0.17855	0.20555	0.15874	0.1509	0.18256	0.15831	0.20941	0.079947	0.022101	0.14749	0.14803	0.24084	-1.8917	-2.5125	-2.5	-2.425	-2.5938	-2.4792	-2.3	-2.5333	-2.2854	-2.5896	-2.5563	-2.3021	-2.725	-2.3542	-2.3333	-2.5771	227.380	415.353	477.028	350.926	252.633	466.273	181.360	393.048	424.192	476.733	300.671	471.561	331.377	427.209	264.591	473.831	4.3007e-05	0.056141	0.022565	81.635	3.2634e-06	2.6002e-06	51.205	17.138	1.426e-06	2.5108e-06	18.416	7.0376	16.857	3.8876	5.9323e-07	2.2799	0.00043982	0.011756	0.0024258	108.67	6.174e-06	5.4358e-06	72.645	139.57	5.1366e-06	5.4388e-06	30.593	10.418	131.06	5.3896	5.084e-06	3.8385	526.029	273.510	204.224	518.677	533.058	216.070	515.204	193.025	386.881	318.522	520.615	524.421	445.592	533.734	316.517	529.411	-8191	255	
22424.449	1	1	0	0	0.12994	0.22699	0.19981	0.12016	0.062435	0.058115	0.0082031	0.20508	0.11959	0.25122	0.21932	0.24752	0.094853	0.17725	0.14186	0.061621	-1.8229	-2.5083	-2.4146	-2.15	-2.6292	-2.2562	-2.3063	-2.6042	-2.1583	-2.5125	-2.625	-2.1021	-2.6	-2.25	-2.2604	-2.5708	64.855	-71.924	-92.533	-46.031	69.721	104.684	19.389	96.854	147.282	85.698	-15.289	127.165	-119.636	-26.208	149.508	76.715	3.8981e-05	0.00015396	0.01028	80.939	7.1564e-06	5.2393e-06	50.252	12.03	7.3458e-07	1.4774e-06	17.807	6.9193	11.594	3.8608	1.4726e-06	2.1945	0.00042264	0.00045448	0.0032974	107.21	6.8245e-06	5.474e-06	71.032	225.04	4.7965e-06	4.7902e-06	29.093	10.151	74.386	5.2755	4.498e-06	3.8651	151.266	204.306	208.130	158.503	178.871	202.595	155.959	-112.832	-47.943	211.678	161.545	164.511	116.002	174.410	4.297	169.064	-8191	255	
22424.547	1	1	0	0	0.19122	0.16607	0.057276	0.073417	0.20235	0.26317	0.24807	0.016553	0.12523	0.2552	0.1226	0.1003	0.18779	0.10142	0.044566	0.15828	-1.6812	-2.4125	-2.6771	-2.275	-2.3333	-2.3646	-2.2208	-2.6208	-2.175	-2.3792	-2.5292	-2.0417	-2.5521	-2.3729	-2.2542	-2.5479	362.915	209.855	377.475	191.921	325.819	255.489	202.177	373.297	433.300	198.720	423.205	177.093	431.191	301.175	424.679	422.629	2.742e-05	5.2047e-05	0.024879	80.749	2.3611e-06	6.7815e-06	49.606	14.734	6.8589e-07	7.7147e-07	17.599	6.8471	4.2881	6.8377	6.2238e-07	2.2515	0.00033952	0.00033984	0.0058862	104.02	4.0338e-06	3.6078e-06	66.569	130.36	3.2428e-06	3.1288e-06	28.018	9.4258	61.562	15.687	3.1623e-06	3.4141	487.796	373.287	249.263	518.341	426.296	225.158	515.325	182.333	165.960	410.146	522.214	164.469	208.431	489.724	291.766	168.646	-8191	255	
22424.643	1	1	0	0	0.12432	0.16512	0.13882	0.10095	0.044211	0.11157	0.046614	0.10643	0.13171	0.21371	0.14991	0.070282	0.17007	0.1311	0.25364	0.291	-1.8583	-2.4583	-2.6625	-2.2479	-2.6396	-2.3937	-2.2208	-2.625	-2.3063	-2.4208	-2.4708	-2.2604	-2.6688	-2.4938	-2.3125	-2.5354	-113.495	7.021	-89.975	72.064	-40.694	131.369	171.156	-18.719	190.504	82.225	192.235	88.197	-139.771	76.226	-55.688	190.927	1.7067e-05	1.1511e-05	0.012837	80.404	1.6783e-06	1.2693e-05	49.406	5.5501	3.907e-06	1.2066e-06	16.985	6.455	10.078	3.9797	3.1503e-07	1.9706	0.00028561	0.00028786	0.0030948	103.33	3.4164e-06	5.0052e-06	66.46	203.02	3.7639e-06	3.3337e-06	25.865	9.0086	13.656	16.981	3.3471e-06	3.2319	207.119	116.844	-104.189	158.332	119.186	-138.323	155.112	-126.608	89.329	-42.046	161.540	165.039	168.201	143.962	0.709	168.906	-8191	255	
22424.738	1	1	0	0	0.11963	0.18272	0.11913	0.06833	0.37987	0.27061	0.012144	0.21461	0.14976	0.16218	0.13352	0.19909	0.33796	0.042802	0.22115	0.10619	-1.8312	-2.4125	-2.4979	-2.1333	-2.6188	-2.5521	-2.1271	-2.5208	-2.4604	-2.3187	-2.5146	-2.4604	-2.3917	-2.8	-2.1167	-2.4458	169.663	302.143	301.990	392.477	252.556	467.657	302.434	396.025	500.473	449.691	267.111	362.521	456.023	394.736	507.127	425.662	3.9103e-05	0.00013112	0.02144	75.594	8.9054e-07	4.2266e-06	47.647	14.499	1.4148e-06	1.1089e-06	17.359	6.9871	10.611	5.372	1.4994e-06	2.3292	0.00031713	0.00030417	0.0051267	97.686	3.1698e-06	4.1733e-06	64.075	117.52	3.2357e-06	3.0026e-06	27.367	9.4895	14.045	26.984	2.9662e-06	3.3999	405.333	166.468	262.169	158.599	492.095	214.065	155.804	167.724	422.122	266.580	161.747	164.498	168.542	492.215	381.673	169.174	-8191	255	
22424.832	1	1	0	0	0.47326	0.14199	0.25359	0.12891	0.10401	0.20802	0.16312	0.15315	0.19701	0.13655	0.21168	0.18128	0.14384	0.17637	0.11323	0.19743	-2.1458	-2.1854	-2.7896	-2.3042	-2.4396	-2.5604	-2.2958	-2.5292	-2.4875	-2.2896	-2.6979	-2.2812	-2.2667	-2.5417	-2.1979	-2.5563	271.246	225.788	329.803	378.700	188.253	362.132	517.268	383.500	248.580	456.641	435.509	215.729	298.348	438.626	203.581	183.717	4.6293e-05	6.3484e-05	0.0094172	80.386	8.311e-07	7.8453e-06	50.731	16.735	0.00021549	8.5946e-07	17.507	7.0317	10.667	4.0223	7.9115e-07	2.3009	0.00027411	0.00027661	0.0022773	102.91	3.0975e-06	4.7242e-06	68.173	73.906	5.4192e-05	3.6411e-06	26.587	9.9332	14.618	10.049	4.1235e-06	3.4815	454.644	317.439	269.329	518.410	268.414	219.431	516.081	193.154	505.999	338.370	520.582	525.183	528.524	522.728	390.332	528.257	-8191	255	
22424.930	1	1	0	0	0.19956	0.072406	0.2359	0.051477	0.091702	0.25674	0.13404	0.26715	0.12747	0.026043	0.13382	0.038362	0.037098	0.12577	0.11531	0.27889	-1.9521	-2.1437	-2.4667	-2.2562	-2.2271	-2.8958	-2.3104	-2.4354	-2.5083	-2.15	-2.5042	-2.425	-2.5458	-2.5542	-2.2062	-2.5021	252.469	173.367	393.142	280.058	415.435	258.886	490.408	398.581	148.867	294.161	465.761	163.854	225.226	458.619	323.951	490.423	3.3772e-05	0.00021019	0.0048995	79.367	1.4884e-06	1.9788e-06	50.747	28.748	6.5787e-05	1.0526e-06	17.893	7.1197	10.69	3.9302	1.9311e-07	2.3953	0.00040234	0.00040599	0.0012197	105.02	4.565e-06	4.9659e-06	71.286	38.207	2.6526e-05	4.8987e-06	27.975	10.48	15.146	6.7848	4.9229e-06	3.6671	449.276	236.643	273.638	158.519	202.774	262.172	156.058	164.112	432.642	334.923	160.603	164.439	168.661	170.447	270.071	168.817	-8191	255	
22425.025	1	1	0	0	0.42068	0.17957	0.20226	0.22775	0.15682	0.22442	0.20013	0.26894	0.43772	0.089879	0.22877	0.23318	0.33663	0.077219	0.16546	0.15491	-2.1437	-2.1875	-2.4562	-2.3688	-2.2021	-2.6604	-2.2375	-2.6979	-2.5896	-2.1542	-2.4875	-2.5333	-2.2062	-2.5854	-2.3896	-2.5687	147.733	354.940	335.928	414.982	436.367	500.930	331.685	229.064	396.319	221.556	482.365	160.795	256.003	361.958	174.109	406.624	3.2908e-05	0.00010559	0.0010303	79.348	7.4502e-07	1.5756e-07	50.325	28.576	9.0819e-06	5.7752e-07	17.925	7.279	10.742	3.9017	1.3244e-06	2.3834	0.00042323	0.00044685	0.00037639	104.93	4.5925e-06	4.527e-06	70.678	37.668	7.3323e-06	4.0441e-06	26.648	10.192	14.649	5.8169	3.6032e-06	3.49	475.692	441.985	303.345	158.712	225.725	362.977	156.045	163.801	443.590	220.775	160.108	164.044	168.478	172.583	278.787	168.642	-8191	255	
22425.145	1	1	0	0	0.108	0.10143	0.28102	0.13665	0.03526	0.12588	0.23915	0.10959	0.082426	0.1159	0.079667	0.17993	0.30575	0.32996	0.10637	0.14822	-2.2542	-2.1021	-2.5812	-2.4875	-2.3083	-2.6917	-2.2938	-2.3396	-2.5021	-2.2854	-2.4354	-2.3896	-2.1042	-2.4646	-2.3771	-2.4375	371.990	293.359	210.196	502.261	453.248	323.945	484.785	281.596	492.609	368.895	392.542	381.890	308.341	215.857	210.530	295.455	1.9982e-05	0.00010901	0.00023534	80.033	1.8675e-06	8.1287e-07	51.158	28.635	2.6637e-05	8.2833e-07	17.633	7.2653	10.847	3.9824	9.8795e-07	2.4586	0.00029909	0.000318	0.00010915	104.96	3.3828e-06	3.4548e-06	68.461	37.097	1.1778e-05	3.2822e-06	25.596	9.9865	14.429	5.9776	2.9216e-06	3.4422	159.611	314.933	317.715	158.461	189.594	295.244	155.894	163.957	443.745	211.306	160.155	164.791	168.755	172.328	239.016	168.740	-8191	255	
22425.242	1	1	0	0	0.042726	0.18037	0.2143	0.1353	0.056374	0.094216	0.10495	0.031153	0.1888	0.1028	0.29901	0.15115	0.13519	0.087523	0.15841	0.14783	-2.1854	-2.25	-2.3625	-2.3521	-2.2375	-2.5812	-2.4521	-2.3812	-2.7896	-2.4042	-2.3854	-2.3812	-2.0792	-2.3958	-2.4229	-2.4083	221.373	461.309	420.178	231.200	178.967	322.277	375.197	400.670	415.513	489.407	282.353	254.731	227.113	216.907	443.305	402.298	4.8809e-05	4.5949e-05	4.785e-05	81.5	1.0125e-06	3.7636e-07	51.883	29.037	6.1421e-06	4.1158e-07	18.35	7.5444	10.974	3.9749	4.5543e-08	2.5318	0.00024621	0.0002545	6.9043e-05	117.4	2.6794e-06	2.6308e-06	68.018	37.015	4.4616e-06	2.5388e-06	25.218	10.01	14.34	5.7923	2.3645e-06	3.4503	146.284	201.784	286.222	160.272	200.662	322.408	155.958	164.068	452.482	183.232	160.826	164.832	168.557	174.506	361.758	169.000	-8191	255	
22425.338	1	1	0	0	0.23655	0.049138	0.24221	0.23803	0.072777	0.069799	0.28948	0.35902	0.085731	0.11926	0.14077	0.29883	0.1831	0.14503	0.16192	0.11884	-2.2354	-2.3375	-2.3833	-2.5417	-2.1979	-2.7146	-2.5208	-2.1792	-2.5833	-2.3229	-2.3479	-2.5708	-2.4562	-2.4604	-2.6208	-2.2125	209.379	170.089	376.367	202.005	408.422	287.221	461.238	280.292	504.017	459.553	348.647	473.220	174.783	168.883	201.788	487.818	4.3632e-05	5.9061e-05	4.533e-06	81.626	2.9584e-07	1.3154e-06	52.816	29.214	2.2076e-05	6.0571e-07	18.468	7.7273	11.058	4.0784	3.8602e-05	2.6074	0.00018195	0.00018293	4.6761e-05	104.07	1.6028e-06	1.4966e-06	66.286	36.231	8.1963e-06	1.0929e-06	23.465	9.6124	13.744	5.4843	6.8064e-06	3.3233	503.216	494.812	412.762	158.779	282.634	292.313	156.079	163.789	457.085	294.215	160.098	164.890	168.765	174.866	219.291	168.939	-8191	255	
#DATA ENDS
