BOXY.EXE: ISS Imagent and Oximeter Data Acquisition Program Version 0.80
Ascii Record File

#ACQ INFORMATION
2  Detector Channels 
16  External MUX Channels 
1  Auxiliary Channels 
5000  Waveform (CCF) Frequency (Hz)
1  Waveforms Skipped 
30  Waveforms Averaged 
1  Cycles Averaged 
16  Acquisitions per Waveform 
10.0806  Updata Rate (Hz) 

#FILE INFORMATION
TRUE -- External MUX Channel results are PARSED.
FALSE -- AC DC and Phase are NOT grouped.
TRUE -- Companion Program Settings File CREATED.
FALSE -- AC data not excluded
FALSE -- DC data not excluded
FALSE -- Phase data not excluded
FALSE -- Auxillary Chn. data not excluded
Tab delimiters

#CALIBRATION STATE
TRUE -- Waveform Calibration Values APPLIED.


#AUX CALIBRATION VALUES
Val Type	aux-1	

Term	1.0000e+00	
Factor	0.0000e+00	


#WF CALIBRATION VALUES
A = Detector Channel
Val Type	A-AC1	A-AC2	A-AC3	A-AC4	A-AC5	A-AC6	A-AC7	A-AC8	A-AC9	A-AC10	A-AC11	A-AC12	A-AC13	A-AC14	A-AC15	A-AC16	A-DC1	A-DC2	A-DC3	A-DC4	A-DC5	A-DC6	A-DC7	A-DC8	A-DC9	A-DC10	A-DC11	A-DC12	A-DC13	A-DC14	A-DC15	A-DC16	A-Ph1	A-Ph2	A-Ph3	A-Ph4	A-Ph5	A-Ph6	A-Ph7	A-Ph8	A-Ph9	A-Ph10	A-Ph11	A-Ph12	A-Ph13	A-Ph14	A-Ph15	A-Ph16	

Term	0.00000e+00	0.00000e+00	0.00000e+00	0.00000e+00	0.00000e+00	0.00000e+00	0.00000e+00	0.00000e+00	0.00000e+00	0.00000e+00	0.00000e+00	0.00000e+00	0.00000e+00	0.00000e+00	0.00000e+00	0.00000e+00	0.00000e+00	0.00000e+00	0.00000e+00	0.00000e+00	0.00000e+00	0.00000e+00	0.00000e+00	0.00000e+00	0.00000e+00	0.00000e+00	0.00000e+00	0.00000e+00	0.00000e+00	0.00000e+00	0.00000e+00	0.00000e+00	0.00000e+00	0.00000e+00	0.00000e+00	0.00000e+00	0.00000e+00	0.00000e+00	0.00000e+00	0.00000e+00	0.00000e+00	0.00000e+00	0.00000e+00	0.00000e+00	0.00000e+00	0.00000e+00	0.00000e+00	0.00000e+00	
Factor	1.00000e+00	1.00000e+00	1.00000e+00	1.00000e+00	1.00000e+00	1.00000e+00	1.00000e+00	1.00000e+00	1.00000e+00	1.00000e+00	1.00000e+00	1.00000e+00	1.00000e+00	1.00000e+00	1.00000e+00	1.00000e+00	1.00000e+00	1.00000e+00	1.00000e+00	1.00000e+00	1.00000e+00	1.00000e+00	1.00000e+00	1.00000e+00	1.00000e+00	1.00000e+00	1.00000e+00	1.00000e+00	1.00000e+00	1.00000e+00	1.00000e+00	1.00000e+00	X	X	X	X	X	X	X	X	X	X	X	X	X	X	X	X	

B = Detector Channel
Val Type	B-AC1	B-AC2	B-AC3	B-AC4	B-AC5	B-AC6	B-AC7	B-AC8	B-AC9	B-AC10	B-AC11	B-AC12	B-AC13	B-AC14	B-AC15	B-AC16	B-DC1	B-DC2	B-DC3	B-DC4	B-DC5	B-DC6	B-DC7	B-DC8	B-DC9	B-DC10	B-DC11	B-DC12	B-DC13	B-DC14	B-DC15	B-DC16	B-Ph1	B-Ph2	B-Ph3	B-Ph4	B-Ph5	B-Ph6	B-Ph7	B-Ph8	B-Ph9	B-Ph10	B-Ph11	B-Ph12	B-Ph13	B-Ph14	B-Ph15	B-Ph16	

Term	0.00000e+00	0.00000e+00	0.00000e+00	0.00000e+00	0.00000e+00	0.00000e+00	0.00000e+00	0.00000e+00	0.00000e+00	0.00000e+00	0.00000e+00	0.00000e+00	0.00000e+00	0.00000e+00	0.00000e+00	0.00000e+00	0.00000e+00	0.00000e+00	0.00000e+00	0.00000e+00	0.00000e+00	0.00000e+00	0.00000e+00	0.00000e+00	0.00000e+00	0.00000e+00	0.00000e+00	0.00000e+00	0.00000e+00	0.00000e+00	0.00000e+00	0.00000e+00	8.46578e+01	-1.29976e+02	-1.28913e+02	-1.82245e+02	-8.85818e+01	-6.99744e+01	-1.59545e+02	-1.62015e+02	-6.78612e+01	-6.70692e+01	-1.73581e+02	-1.72846e+02	-1.88869e+02	-1.78099e+02	-7.30646e+01	-1.50538e+02	
Factor	7.38116e-05	2.11506e-04	5.81731e-05	1.66666e-01	2.97355e-06	2.33124e-06	2.08068e-01	7.32009e-02	3.78836e-06	2.32691e-06	1.33904e-01	3.72556e-02	4.39331e-02	1.07740e-02	2.74621e-06	1.56278e-02	2.35785e-05	4.15781e-05	1.15262e-05	8.37818e-02	3.77995e-07	4.73963e-07	9.73646e-02	3.68828e-02	3.96265e-07	4.67267e-07	6.56016e-02	1.81804e-02	2.20209e-02	5.48808e-03	4.14571e-07	7.72833e-03	X	X	X	X	X	X	X	X	X	X	X	X	X	X	X	X	



#DISTANCE SETTINGS
A = Detector Channel
A-1	A-2	A-3	A-4	A-5	A-6	A-7	A-8	A-9	A-10	A-11	A-12	A-13	A-14	A-15	A-16	

2.5000e+00	3.0000e+00	2.5000e+00	3.0000e+00	2.0000e+00	3.0000e+00	1.5000e+00	3.0000e+00	3.0000e+00	3.0000e+00	3.0000e+00	3.0000e+00	3.0000e+00	3.0000e+00	1.5000e+00	3.0000e+00	

B = Detector Channel
B-1	B-2	B-3	B-4	B-5	B-6	B-7	B-8	B-9	B-10	B-11	B-12	B-13	B-14	B-15	B-16	

1.0000e+01	1.0000e+01	1.0000e+01	1.4400e+00	1.0000e+01	1.0000e+01	1.5100e+00	1.9400e+00	1.0000e+01	1.0000e+01	1.9900e+00	2.4900e+00	2.4100e+00	2.9000e+00	1.0000e+01	2.9800e+00	




#DATA BEGINS
time	group	step	mark	flag	A-AC1	A-AC2	A-AC3	A-AC4	A-AC5	A-AC6	A-AC7	A-AC8	A-AC9	A-AC10	A-AC11	A-AC12	A-AC13	A-AC14	A-AC15	A-AC16	A-DC1	A-DC2	A-DC3	A-DC4	A-DC5	A-DC6	A-DC7	A-DC8	A-DC9	A-DC10	A-DC11	A-DC12	A-DC13	A-DC14	A-DC15	A-DC16	A-Ph1	A-Ph2	A-Ph3	A-Ph4	A-Ph5	A-Ph6	A-Ph7	A-Ph8	A-Ph9	A-Ph10	A-Ph11	A-Ph12	A-Ph13	A-Ph14	A-Ph15	A-Ph16	B-AC1	B-AC2	B-AC3	B-AC4	B-AC5	B-AC6	B-AC7	B-AC8	B-AC9	B-AC10	B-AC11	B-AC12	B-AC13	B-AC14	B-AC15	B-AC16	B-DC1	B-DC2	B-DC3	B-DC4	B-DC5	B-DC6	B-DC7	B-DC8	B-DC9	B-DC10	B-DC11	B-DC12	B-DC13	B-DC14	B-DC15	B-DC16	B-Ph1	B-Ph2	B-Ph3	B-Ph4	B-Ph5	B-Ph6	B-Ph7	B-Ph8	B-Ph9	B-Ph10	B-Ph11	B-Ph12	B-Ph13	B-Ph14	B-Ph15	B-Ph16	aux-1	digaux	

35697.602	1	1	0	256	0.16332	0.087815	0.29171	0.37918	0.14157	0.13121	0.22401	0.055708	0.18675	0.25293	0.11434	0.18357	0.21455	0.22423	0.091945	0.19611	-1.5396	-1.8354	-1.8583	-2.5187	-1.875	-2.0021	-2.2125	-1.7604	-2.1312	-2.1167	-2.0979	-2.3937	-1.9708	-2.1208	-2.3104	-2.0146	216.247	380.796	285.393	459.836	366.959	284.852	485.089	320.344	493.552	402.930	221.921	437.659	483.469	463.760	455.433	464.314	0.0010423	0.00029548	0.0001088	1195.7	6.1459e-06	3.0605e-06	1303	249.21	9.935e-06	3.7546e-06	313.92	87.669	69.108	19.76	4.022e-06	27.418	0.00075697	0.00090891	0.00026172	1187.5	9.4255e-06	1.0452e-05	1299.4	249.33	9.3196e-06	1.0449e-05	315.57	88.389	69.523	20.296	9.2924e-06	28.378	400.174	204.171	239.698	152.322	248.903	319.707	152.209	159.802	274.869	315.317	159.149	166.118	166.415	173.980	286.246	173.226	-8191	255	
35697.719	1	1	0	0	0.16296	0.10319	0.20865	0.20378	0.14603	0.23823	0.31142	0.14632	0.13045	0.11122	0.088318	0.19872	0.22418	0.044365	0.14018	0.36648	-1.7437	-2.0833	-1.8833	-2.3	-1.9021	-2.2125	-2.3	-2.0479	-2.2729	-2.2604	-1.8188	-2.2646	-1.9875	-2.0792	-2.1229	-1.875	333.054	449.518	456.109	460.865	415.467	284.197	467.404	426.699	369.515	146.546	440.019	151.973	157.193	471.556	406.943	485.746	0.00096664	0.00028275	7.8953e-05	1190.2	5.2038e-06	4.4455e-06	1306	249.13	9.3857e-06	2.4293e-06	313.47	87.825	69.217	19.79	3.6124e-06	27.748	0.00074768	0.00092866	0.0002444	1185.1	9.4294e-06	1.0536e-05	1299	249.52	9.4253e-06	1.0586e-05	315.46	88.424	69.574	20.361	9.3209e-06	28.418	406.901	232.655	311.169	152.378	288.701	279.127	152.142	159.918	270.042	317.097	159.328	165.924	166.280	174.071	305.719	172.937	-8191	255	
35697.816	1	1	0	0	0.10965	0.12173	0.15248	0.15905	0.12695	0.13304	0.1324	0.17103	0.11528	0.026846	0.15119	0.18876	0.17359	0.086283	0.080455	0.21099	-1.8104	-2.0938	-1.5375	-2.2604	-2.0854	-1.8687	-2.5187	-2	-2.2792	-2.2083	-1.7375	-2.3979	-2.1042	-1.8687	-2.2396	-1.7521	464.208	318.943	331.785	388.901	226.634	327.737	371.976	440.487	385.697	204.632	145.610	225.230	377.979	261.439	416.074	228.192	0.00096162	0.00038226	0.00012676	1187	5.3939e-06	4.6547e-06	1305.3	249.09	1.1887e-05	9.6076e-07	312.93	87.869	69.532	19.855	5.6376e-06	27.642	0.00075883	0.00092364	0.00025545	1185.6	9.6751e-06	1.0345e-05	1298.4	248.96	9.8381e-06	1.07e-05	315.13	88.52	69.709	20.355	9.2985e-06	28.43	405.652	200.271	231.092	152.266	250.999	296.120	152.086	159.823	282.996	265.692	159.151	166.183	166.397	174.049	268.975	173.401	-8191	255	
35697.914	1	1	0	0	0.21241	0.1446	0.2251	0.28836	0.42823	0.13172	0.13654	0.36049	0.31449	0.1101	0.18845	0.19414	0.22453	0.13879	0.24393	0.16224	-1.5292	-2.0771	-1.6917	-2.2792	-2.0438	-1.8937	-2.5604	-1.9979	-2.1333	-2.1708	-1.8583	-2.1583	-2.0729	-2.0312	-2.2833	-2.075	319.141	211.385	411.981	428.823	257.464	369.109	437.775	388.706	368.787	482.418	499.767	231.954	398.318	462.562	296.871	427.171	0.00097009	0.00045905	5.2197e-05	1188.5	6.2583e-06	3.6438e-06	1310.3	249.71	5.7877e-06	6.9584e-06	313.77	88.041	68.92	19.91	4.4862e-06	27.587	0.00077446	0.00093698	0.00025026	1184.9	9.8027e-06	1.1041e-05	1300.2	249.79	9.6259e-06	1.0152e-05	314.98	88.222	69.415	20.322	9.6336e-06	28.441	407.017	243.601	208.868	152.049	254.045	285.487	152.116	159.791	263.966	304.957	159.332	165.944	166.300	173.694	296.804	173.335	-8191	255	
35698.008	1	1	0	0	0.20279	0.054817	0.1887	0.15708	0.13479	0.060022	0.14773	0.1423	0.22846	0.2347	0.26473	0.14279	0.19563	0.063187	0.074283	0.2181	-1.6562	-2.1688	-1.7458	-2.3396	-2.0854	-2.0417	-2.375	-2.1021	-1.9479	-2.3187	-2.1063	-2.35	-2.2854	-1.9479	-2.125	-2.0042	333.027	343.962	270.393	493.781	161.469	203.170	381.354	496.768	202.517	204.603	158.254	449.723	451.580	244.389	498.236	450.793	0.00092209	0.0002463	6.4762e-05	1190.5	4.5794e-06	2.2071e-06	1305.3	249.03	7.4863e-06	3.9774e-06	312.07	87.451	69.144	19.76	6.1908e-06	27.466	0.0007634	0.0009155	0.00025713	1183.7	9.2483e-06	1.039e-05	1297.2	248.5	9.4567e-06	9.9907e-06	314.4	88.333	69.349	20.309	8.845e-06	28.266	405.326	229.428	241.059	152.274	219.846	251.764	152.032	159.737	280.637	292.593	159.310	166.017	166.237	173.653	265.392	173.237	-8191	255	
35698.129	1	1	0	0	0.2579	0.20968	0.36682	0.22202	0.21783	0.21622	0.091526	0.15929	0.070595	0.16905	0.11415	0.17887	0.15053	0.17124	0.24048	0.17652	-1.4792	-2.3042	-1.9417	-2.2792	-2.1417	-1.7667	-2.4083	-1.9042	-1.8896	-2.2292	-1.8958	-2.1458	-2.1167	-1.875	-2.2271	-2.1688	327.009	201.450	486.027	399.017	283.037	400.397	488.804	429.302	396.450	145.680	493.313	163.125	500.504	419.193	491.577	360.198	0.00099889	0.00028942	9.2277e-05	1192.5	3.752e-06	2.8216e-06	1304.4	249.35	3.9462e-06	1.4379e-06	311.96	87.12	69.279	19.817	3.982e-06	27.478	0.00074793	0.00086283	0.00025706	1183.9	9.1246e-06	9.974e-06	1297.5	249.01	9.2032e-06	9.9499e-06	314.25	88.223	69.518	20.276	9.2821e-06	28.399	406.982	223.596	246.995	152.249	221.647	294.728	152.129	159.779	266.321	357.059	159.368	165.840	166.506	173.841	269.288	173.234	-8191	255	
35698.199	1	1	0	0	0.31949	0.054732	0.12503	0.25851	0.14227	0.071342	0.51133	0.29723	0.11021	0.18424	0.13499	0.12925	0.053272	0.099574	0.23311	0.22078	-1.3917	-2.2917	-1.7917	-2.2146	-2.1896	-1.8604	-2.1958	-2.125	-1.8354	-2.4313	-1.9396	-1.9438	-2.4313	-1.925	-2.0625	-2.1292	206.937	278.614	180.027	479.951	323.199	280.884	462.525	459.894	267.459	200.809	451.696	249.713	319.709	195.413	416.235	342.502	0.0010938	0.00029377	0.0001461	1186.9	5.8588e-06	2.641e-06	1297.6	247.43	8.317e-06	2.3338e-06	311.47	87.635	68.905	19.937	2.7401e-06	27.634	0.00074513	0.00088639	0.00025581	1182	8.6907e-06	1.0126e-05	1294	247.98	8.9597e-06	9.4787e-06	313.6	88.062	69.231	20.327	9.048e-06	28.415	409.779	248.638	231.268	152.334	243.425	256.516	151.932	159.785	297.783	267.812	159.312	165.984	166.791	173.776	316.958	173.660	-8191	255	
35698.297	1	1	0	0	0.15511	0.17487	0.15782	0.22326	0.17655	0.29186	0.21165	0.30449	0.11179	0.26963	0.21782	0.18321	0.18422	0.18445	0.2013	0.27837	-1.5688	-2.2521	-2.1063	-2.1437	-2.1271	-1.8042	-2.1854	-2.1333	-1.8729	-1.9937	-1.9937	-2.0438	-2.2521	-1.8208	-2.1417	-2.2667	297.318	332.350	204.088	435.260	224.521	222.697	500.768	487.021	150.474	156.838	455.213	481.371	488.552	437.057	229.009	472.405	0.001054	0.00028549	6.3626e-05	1189	7.0289e-06	3.879e-06	1304.3	247.19	1.1789e-05	3.4043e-06	312.82	87.51	68.673	19.811	4.0563e-06	27.579	0.00072126	0.00085841	0.00025564	1180.4	8.6435e-06	9.5721e-06	1293.9	247.58	8.977e-06	9.3979e-06	313.86	87.981	69.177	20.297	9.3348e-06	28.339	403.558	238.142	247.514	152.280	271.323	261.931	152.115	160.056	281.698	269.922	159.670	166.285	166.674	174.076	283.926	172.946	-8191	255	
35698.395	1	1	0	0	0.23457	0.099758	0.19615	0.18719	0.30332	0.13772	0.12295	0.23806	0.1044	0.21386	0.23603	0.26321	0.2272	0.094662	0.13946	0.39584	-1.3208	-2.3354	-2.1208	-2.1937	-2.4521	-1.7646	-2.1729	-2.2542	-2.0271	-2.3688	-2.2729	-1.9833	-2.3583	-1.8458	-2.1271	-2.2958	473.771	274.392	229.641	500.132	292.508	181.438	404.570	438.305	330.854	435.356	448.131	455.021	215.761	459.976	380.175	432.814	0.0010264	0.00035493	0.00011535	1184.3	6.5104e-06	3.7408e-06	1300.6	246.79	8.1037e-06	2.2446e-06	309.12	87.235	68.804	19.754	4.6726e-06	27.576	0.00072332	0.00082619	0.00023518	1179.5	8.5372e-06	9.6422e-06	1293.8	247.31	8.5989e-06	9.1341e-06	312.62	87.856	69.121	20.261	8.7595e-06	28.316	410.344	225.474	232.733	152.308	253.501	320.233	152.183	159.890	283.008	277.210	159.307	166.078	166.654	173.662	283.677	173.596	-8191	255	
35698.516	1	1	0	0	0.13199	0.32224	0.33609	0.33858	0.030689	0.15209	0.20009	0.083538	0.16508	0.12245	0.29013	0.090566	0.26226	0.045548	0.065242	0.32803	-1.5104	-2.2542	-2.0604	-2.1312	-2.3521	-1.9625	-2.3625	-2.0438	-1.8083	-2.1792	-2.2271	-1.9042	-2.2146	-2.0146	-1.8583	-2.1813	322.515	331.896	308.273	499.657	401.162	381.693	463.444	416.126	447.934	174.357	479.165	306.413	185.783	435.292	301.172	467.178	0.00093673	0.00048012	5.0615e-05	1186.1	4.6271e-06	1.6955e-06	1294.6	247.74	7.7763e-06	1.1231e-06	310.59	87.246	68.721	19.889	4.14e-06	27.413	0.00069586	0.00083944	0.00022551	1176.6	8.3978e-06	9.4457e-06	1290.3	247.37	8.9019e-06	9.4281e-06	312.38	87.611	68.939	20.279	8.8839e-06	28.229	405.578	227.125	201.048	152.341	240.145	314.160	152.124	159.757	262.450	311.244	159.433	166.490	166.235	174.209	250.608	173.269	-8191	255	
35698.609	1	1	0	0	0.20378	0.21331	0.28922	0.33015	0.29043	0.22167	0.32001	0.20525	0.13989	0.074053	0.22117	0.1167	0.14968	0.0738	0.058894	0.17742	-1.5229	-2.1063	-2.1188	-1.9062	-2.2792	-1.9937	-2.1729	-2.2771	-1.8708	-2.1458	-2.2042	-1.8604	-2.3229	-1.95	-1.8854	-2.3146	308.103	487.779	169.416	469.950	231.433	181.173	407.286	413.185	191.543	161.329	197.149	230.645	292.418	151.645	153.961	367.849	0.001015	0.00032067	4.4628e-05	1183.7	2.6465e-06	2.1702e-06	1296.3	247.31	7.6291e-06	5.0578e-07	311.41	87.929	69.197	19.815	2.5735e-06	27.683	0.00069547	0.00084135	0.00023057	1176.8	8.5364e-06	9.7123e-06	1289.2	246.6	8.7896e-06	8.9277e-06	312.76	88.02	69.18	20.219	8.3933e-06	28.353	405.201	211.851	284.454	152.108	255.824	283.379	152.389	160.016	292.023	356.420	159.239	166.329	166.662	173.559	264.729	173.422	-8191	255	
35698.703	1	1	0	0	0.011076	0.12853	0.31432	0.20575	0.36024	0.10165	0.25796	0.11154	0.26154	0.23363	0.084648	0.17875	0.11899	0.22752	0.13289	0.1571	-1.5021	-2.0563	-2.2125	-1.95	-2.2167	-2.0729	-2.0229	-2.4396	-2.0396	-1.9729	-2.1833	-2.1396	-2.3292	-2.1771	-1.8833	-2.3646	220.641	308.542	313.806	445.671	358.813	459.165	412.670	228.148	352.294	386.094	492.052	298.325	437.046	486.443	192.547	310.452	0.0010363	0.00016075	0.0001297	1181.3	3.4137e-06	3.3783e-06	1296.4	245.9	8.9591e-06	1.415e-06	309.46	86.917	68.609	19.651	4.1788e-06	27.483	0.00071394	0.00083823	0.00023031	1176.6	8.508e-06	9.3677e-06	1289.8	246.57	8.9019e-06	9.6958e-06	311.78	87.817	69.018	20.195	8.6533e-06	28.303	406.359	235.748	226.027	152.457	239.175	284.273	152.331	159.847	272.184	293.120	159.515	166.037	166.553	174.308	281.783	173.268	-8191	255	
35698.801	1	1	0	0	0.14659	0.10632	0.24778	0.19994	0.07365	0.11784	0.16062	0.16887	0.036218	0.2304	0.22561	0.33609	0.23747	0.20806	0.20608	0.13063	-1.3708	-1.9937	-2.2021	-1.8646	-2.0583	-2.3104	-2.0875	-2.1833	-1.8646	-2.075	-2.3312	-1.8792	-2.1792	-2.2125	-1.7708	-2.3917	444.646	147.879	336.637	454.409	404.064	329.825	495.162	434.483	282.721	414.580	367.049	458.893	144.859	412.652	372.172	393.996	0.00094361	0.00017275	0.00010643	1185.8	5.5771e-06	2.056e-06	1293.9	247.24	8.9607e-06	1.5853e-06	311.63	87.09	68.804	19.747	3.5456e-06	27.682	0.00070976	0.00085521	0.00022522	1177.5	8.7388e-06	9.3627e-06	1289.1	246.53	8.5081e-06	9.6101e-06	312.57	87.836	69.148	20.217	8.1912e-06	28.326	404.427	226.475	259.626	152.151	252.548	259.717	152.232	159.945	272.225	300.907	159.721	165.738	166.743	173.721	284.141	173.381	-8191	255	
35698.898	1	1	0	0	0.13471	0.13359	0.29343	0.35125	0.091958	0.13202	0.15781	0.085533	0.19652	0.1922	0.21547	0.10743	0.047482	0.099432	0.038831	0.12934	-1.5292	-2.0938	-2.2792	-2.1604	-1.9458	-2.1104	-2.0021	-2.2021	-2.1021	-1.95	-2.3312	-1.8958	-2.0375	-2.3063	-1.8854	-2.1708	385.221	210.035	355.350	165.242	389.941	146.823	421.338	405.337	290.342	227.871	414.722	212.966	489.557	450.984	432.185	216.493	0.00098872	0.0003064	0.00015591	1181.9	4.3085e-06	5.1032e-06	1301.2	247.49	8.137e-06	3.2457e-06	310.48	87.284	68.588	19.697	5.064e-06	27.455	0.00070475	0.00083607	0.00022354	1175.8	8.8514e-06	9.2689e-06	1288.8	246.91	8.4801e-06	9.2013e-06	311.8	87.852	68.986	20.204	8.6274e-06	28.25	402.717	230.792	238.042	152.320	265.586	271.846	152.166	159.960	293.326	297.703	159.612	166.139	166.564	173.652	270.959	172.984	-8191	255	
35698.992	1	1	0	0	0.33124	0.18245	0.19442	0.27126	0.20531	0.1645	0.10564	0.11893	0.25563	0.2375	0.062563	0.45133	0.10178	0.13646	0.35274	0.18911	-1.7563	-1.8563	-2.2167	-2.15	-2.1604	-2.1333	-1.9438	-2.3229	-2.1125	-1.8604	-2.3792	-2.0146	-2.0604	-2.1333	-1.7896	-2.1188	151.258	302.509	192.531	468.019	495.181	206.132	432.320	425.576	387.722	325.985	435.508	443.293	145.278	468.170	498.359	375.826	0.00097978	0.00055972	9.1641e-05	1179.6	6.3325e-06	4.0599e-06	1295.1	246.82	5.7404e-06	3.8353e-06	311.46	87.378	68.603	19.799	4.8153e-06	27.66	0.00070564	0.000843	0.00022116	1175.1	8.9703e-06	9.2798e-06	1289.3	246.56	8.4355e-06	9.3833e-06	312.21	87.688	68.95	20.211	9.0437e-06	28.337	403.637	233.705	237.658	152.405	271.662	301.191	152.219	159.956	297.136	298.359	159.647	165.796	166.495	174.237	308.647	173.226	-8191	255	
35699.090	1	1	0	0	0.28517	0.28673	0.1172	0.15843	0.15333	0.083478	0.29063	0.19784	0.076983	0.12582	0.22319	0.06119	0.04455	0.21294	0.10459	0.085087	-1.5542	-1.9396	-2.3208	-2.1729	-1.8917	-2.425	-2.0083	-2.175	-2.1771	-2.0583	-2.3937	-2.0104	-1.9937	-2.1542	-2.1021	-2.275	245.898	180.954	207.229	472.793	276.246	470.974	443.734	420.514	183.018	434.868	477.409	470.077	296.831	181.012	421.479	355.595	0.00097787	0.00025317	8.9879e-05	1184.9	6.0698e-06	2.989e-06	1297.1	246.62	8.2115e-06	4.6626e-06	310.3	86.884	68.901	19.752	3.8724e-06	27.458	0.00070829	0.00085599	0.0002367	1175.1	8.6726e-06	9.5415e-06	1289.2	246.68	8.646e-06	9.1964e-06	312.5	87.756	68.798	20.227	9.0446e-06	28.25	406.725	254.060	244.310	152.392	253.502	281.771	152.142	159.996	287.534	319.614	159.629	166.042	166.152	173.886	307.503	173.126	-8191	255	
35699.211	1	1	0	0	0.13548	0.24284	0.242	0.26782	0.094711	0.28537	0.17173	0.20862	0.11035	0.052735	0.14751	0.29457	0.26585	0.13411	0.11936	0.35695	-1.7375	-1.8208	-2.1708	-2.1979	-1.9688	-2.3438	-2.0271	-1.8854	-2.2438	-1.9167	-2.3417	-2.0563	-2.0458	-2.3125	-1.9521	-2.0687	201.840	326.964	287.840	462.649	160.429	213.084	331.850	456.087	394.057	426.892	288.101	466.394	149.604	184.594	438.447	174.481	0.0010703	0.00022052	0.00011389	1185	5.5217e-06	3.4607e-06	1292.3	246.94	6.7749e-06	3.0367e-06	310.62	87.042	68.875	19.517	5.0658e-06	27.455	0.00070991	0.00084646	0.00023701	1176.7	8.7301e-06	9.182e-06	1287.5	246.5	8.3174e-06	9.4631e-06	312.58	87.646	68.87	20.135	8.4218e-06	28.218	402.932	229.177	263.874	152.247	253.883	262.997	152.146	159.876	294.702	257.062	159.634	166.093	166.325	174.206	308.528	173.316	-8191	255	
35699.305	1	1	0	0	0.17811	0.11438	0.043371	0.097461	0.23819	0.075687	0.23619	0.095497	0.12049	0.10621	0.10567	0.24993	0.14867	0.094544	0.23878	0.23195	-1.6688	-1.8062	-2.1917	-2.1854	-1.9896	-2.0729	-2.2396	-1.8729	-2.1542	-2.0021	-2.2375	-2.1521	-1.75	-2.2938	-2.0708	-2.0146	319.782	172.150	205.369	490.587	307.634	328.747	450.396	445.591	179.570	471.851	455.381	173.674	202.112	171.399	189.179	460.139	0.0010493	0.0002817	9.5939e-05	1179.4	3.9432e-06	3.1388e-06	1296.4	247.37	6.3051e-06	2.7547e-06	309.73	87.066	68.453	19.896	4.6083e-06	27.217	0.00067051	0.00081051	0.0002281	1172.4	8.2907e-06	9.1277e-06	1287.6	246.33	8.1697e-06	9.285e-06	311.34	87.461	68.805	20.237	8.1187e-06	28.16	407.639	190.333	231.666	152.369	256.055	304.864	152.283	159.863	263.061	264.018	159.779	166.108	166.347	173.945	285.258	173.279	-8191	255	
35699.402	1	1	0	0	0.2338	0.29583	0.18521	0.17235	0.21025	0.059447	0.34558	0.14021	0.065521	0.28213	0.15187	0.11005	0.13941	0.065619	0.12562	0.17899	-1.8042	-1.9104	-1.975	-2.2687	-1.9708	-2.2417	-2.1813	-2.0021	-2.2354	-2.0812	-2.1771	-2.0938	-1.9271	-2.2146	-2.1375	-1.7021	248.677	358.464	144.292	498.744	146.476	286.652	439.847	188.361	236.271	142.696	262.313	485.817	161.729	296.963	444.248	155.940	0.0010129	0.00028505	9.9529e-05	1180.5	2.5405e-06	3.5376e-06	1290.1	245.54	9.1756e-06	2.0862e-06	307.56	86.809	69.006	19.796	4.0658e-06	27.332	0.00067572	0.00080012	0.00022282	1172.2	8.2671e-06	9.0922e-06	1282.8	245.81	8.1152e-06	9.2383e-06	310.89	87.463	69.119	20.198	8.3519e-06	28.216	406.418	201.953	223.158	152.446	244.164	277.222	152.209	160.063	282.065	312.165	159.613	165.883	166.061	174.225	274.045	173.191	-8191	255	
35699.496	1	1	0	0	0.025191	0.10411	0.37468	0.39839	0.17172	0.17724	0.1489	0.10715	0.070642	0.071379	0.056895	0.075189	0.14355	0.26888	0.145	0.15744	-1.8438	-2.1146	-2.0333	-2.2542	-1.7229	-2.0917	-2.3438	-1.8125	-2.3708	-1.8083	-1.9	-2.375	-2.15	-2.3312	-2.2625	-1.9229	366.501	501.224	460.240	163.393	411.094	466.227	481.343	247.402	169.287	252.477	222.496	446.967	460.787	432.900	223.284	427.835	0.00099413	0.00047168	0.00010533	1177.7	5.391e-06	3.6213e-06	1292.1	244.52	9.4574e-06	1.9513e-06	307.93	86.342	68.468	19.829	2.4979e-06	27.263	0.00069557	0.00084152	0.00022884	1172.1	8.3521e-06	9.1761e-06	1283.1	245.68	8.2085e-06	9.0922e-06	311.12	87.512	68.936	20.168	8.0479e-06	28.107	404.765	223.349	227.299	152.442	242.993	264.965	152.020	159.823	296.803	263.686	159.437	166.163	166.059	173.967	312.931	173.243	-8191	255	
35699.594	1	1	0	0	0.077156	0.17632	0.14453	0.31842	0.12516	0.15867	0.11723	0.19141	0.27905	0.37985	0.17227	0.14557	0.15786	0.16477	0.1649	0.10721	-1.6396	-2.0458	-1.9167	-2.2354	-1.8438	-2.0687	-2.4542	-1.875	-2.1354	-2.2271	-2.0896	-2.1479	-1.9042	-1.9354	-2.1479	-1.9125	289.624	159.324	272.215	164.342	195.025	186.821	144.932	381.843	251.792	399.902	203.442	167.016	420.928	263.352	337.055	307.374	0.00098358	0.00026857	0.00010051	1179.3	6.8059e-06	4.9775e-06	1288.4	245.07	1.0064e-05	5.1486e-06	310.4	86.795	68.021	19.678	3.7505e-06	27.464	0.00068147	0.00077543	0.00021463	1171.4	8.3639e-06	9.2413e-06	1284.6	245.78	8.5676e-06	8.8274e-06	310.82	87.277	68.613	20.162	8.2595e-06	28.221	405.043	237.271	283.570	152.298	239.119	287.638	152.276	159.988	286.756	296.244	159.651	166.360	166.391	174.132	289.532	173.028	-8191	255	
35699.688	1	1	0	0	0.056362	0.16283	0.15018	0.21252	0.030543	0.02693	0.14079	0.17227	0.092045	0.1062	0.084857	0.12186	0.35923	0.32389	0.062531	0.058284	-1.7146	-2.1146	-1.8167	-2.4396	-1.8292	-2.2	-2.35	-1.9333	-2.2125	-2.1688	-2.0667	-2.3229	-1.9896	-1.9042	-2.1979	-1.9062	212.850	321.818	363.893	462.895	154.154	253.220	253.880	464.795	205.284	227.180	478.057	354.626	153.872	491.647	255.206	481.161	0.0010395	0.00039458	0.00010014	1176.1	5.1566e-06	2.1774e-06	1284.7	245.53	6.6595e-06	2.8835e-06	306.56	87.294	68.684	19.661	7.0292e-06	27.484	0.00069979	0.00078713	0.00021727	1170.1	8.1923e-06	8.9826e-06	1282.1	245.84	8.315e-06	8.8479e-06	310.23	87.347	68.773	20.145	7.939e-06	28.259	409.762	246.748	231.462	152.419	267.181	317.699	152.159	159.794	294.042	228.720	159.846	165.939	166.020	174.033	277.225	173.277	-8191	255	
35699.809	1	1	0	0	0.15681	0.041579	0.19082	0.29471	0.080614	0.29732	0.32406	0.076952	0.08717	0.076688	0.36039	0.10529	0.022446	0.14687	0.33769	0.22407	-1.5812	-2.0646	-1.7542	-2.2687	-1.8917	-1.8667	-2.3	-1.9417	-2.2812	-2.3833	-1.9146	-2.3792	-2.0146	-1.9312	-2.1625	-1.7437	309.622	148.550	431.466	473.153	405.266	469.760	498.294	271.957	188.620	153.031	184.049	375.895	347.853	345.185	328.825	444.377	0.0010466	0.00041724	7.0213e-05	1173.5	4.6166e-06	2.3345e-06	1292.6	243.66	8.5334e-06	8.6482e-07	308.35	87.356	68.363	19.686	3.5322e-06	27.43	0.0006827	0.00081225	0.00021665	1168.7	8.3553e-06	8.8601e-06	1283.6	245.06	8.2349e-06	8.5675e-06	310.07	87.536	68.681	20.138	8.0047e-06	28.162	407.727	244.324	227.229	152.287	269.565	284.571	152.396	159.910	281.053	278.195	159.158	166.392	166.679	173.974	303.285	173.183	-8191	255	
35699.906	1	1	0	0	0.079442	0.062239	0.21423	0.26015	0.20433	0.11508	0.025662	0.072944	0.22511	0.16085	0.17879	0.1061	0.34451	0.14102	0.22732	0.20145	-1.6167	-1.9875	-1.8354	-2.05	-2.1333	-1.6667	-2.5	-2.0083	-2.0958	-2.1188	-1.6875	-2.2667	-2.0521	-1.8583	-2.3729	-1.9229	272.618	486.375	261.702	492.652	373.579	270.285	471.451	180.657	389.804	272.690	185.431	319.636	156.447	213.769	326.552	151.805	0.00096085	0.00013515	2.8628e-05	1176.3	4.0085e-06	3.8793e-06	1290.5	244.82	8.0305e-06	1.7083e-06	308.74	86.592	68.322	19.745	5.7277e-06	27.523	0.00066472	0.00078505	0.0002189	1170.6	8.0694e-06	9.0981e-06	1283.1	244.74	8.1185e-06	8.4439e-06	311.21	87.321	68.682	20.144	8.1239e-06	28.231	408.364	253.926	206.650	152.372	249.226	283.410	151.943	160.015	278.935	313.644	159.762	166.144	166.277	174.448	291.556	173.241	-8191	255	
35700.004	1	1	0	0	0.067385	0.14361	0.12222	0.11306	0.076797	0.10495	0.2744	0.37314	0.19198	0.16936	0.074847	0.095312	0.24271	0.1763	0.051377	0.033328	-1.6708	-2.1417	-1.8083	-2.4604	-2.05	-2.0521	-2.3563	-2.0417	-2.1479	-2.3375	-1.9312	-2.2458	-2.2333	-1.7854	-2.3125	-2.1604	237.522	455.108	276.608	429.766	373.738	432.150	399.933	449.399	289.361	155.665	257.035	419.626	189.781	334.630	494.880	500.417	0.00097731	0.00030435	0.0001403	1171.9	4.3384e-06	2.9712e-06	1290.5	245.69	6.7576e-06	1.7946e-06	307.58	86.476	68.311	19.673	4.5805e-06	27.465	0.00066865	0.00076625	0.00022808	1168.7	8.1277e-06	9.1811e-06	1282.8	245.26	8.1919e-06	8.5685e-06	311.31	87.25	68.668	20.131	8.1239e-06	28.199	402.690	268.804	244.059	152.384	236.532	291.469	152.218	159.798	283.360	275.591	159.579	166.612	166.589	173.737	279.472	173.379	-8191	255	
35700.074	1	1	0	0	0.14072	0.10881	0.20117	0.16328	0.18038	0.15465	0.15165	0.15804	0.24101	0.17249	0.027464	0.075644	0.23058	0.29792	0.13279	0.20629	-1.5292	-2.2208	-2.0083	-2.1458	-2.15	-1.7625	-2.3958	-2.0729	-1.8583	-2.4292	-1.8979	-2.1229	-2.2188	-1.875	-2.2917	-1.9729	494.322	364.215	213.422	222.539	171.851	424.506	471.614	453.567	249.763	204.630	323.981	336.317	262.975	421.808	180.447	424.740	0.00099566	0.00017635	0.00011688	1174.4	8.8083e-06	5.148e-06	1290.3	246.41	8.7172e-06	4.627e-06	309.98	86.659	68.125	19.738	2.1669e-06	27.443	0.00067808	0.00078314	0.0002317	1169.7	8.4773e-06	8.872e-06	1282.9	245.87	8.4966e-06	9.4232e-06	311.12	87.398	68.511	20.162	8.4788e-06	28.25	407.819	212.797	266.057	152.249	263.944	311.036	152.107	159.895	300.319	283.893	159.398	165.825	166.450	173.978	291.210	173.131	-8191	255	
35700.172	1	1	0	0	0.073187	0.12029	0.31568	0.29989	0.10808	0.11561	0.055923	0.18584	0.40192	0.18669	0.087819	0.14616	0.2842	0.081348	0.22064	0.22815	-1.3479	-2.225	-1.7958	-2.2021	-2.0354	-1.9729	-2.4688	-2.1083	-2.0271	-2.25	-1.8417	-2.0583	-2.1167	-1.8708	-2.2646	-2.1583	160.015	471.407	224.118	146.771	454.327	391.367	178.976	332.790	322.859	238.645	487.817	223.617	460.798	240.645	167.923	160.064	0.00097519	0.00060174	0.00011153	1174.7	7.123e-06	3.5722e-06	1289.3	245.85	7.9705e-06	4.4331e-06	309.49	86.66	68.163	19.736	3.1265e-06	27.565	0.00071571	0.00081354	0.00023345	1168.9	8.3647e-06	9.7686e-06	1282.9	245.83	8.5808e-06	9.3852e-06	311.47	87.312	68.556	20.186	8.18e-06	28.218	401.620	218.209	231.775	152.271	240.485	274.564	152.026	159.801	283.886	290.524	159.408	166.618	166.346	174.244	327.477	173.210	-8191	255	
35700.289	1	1	0	0	0.19329	0.11892	0.071546	0.021602	0.13287	0.058694	0.38412	0.13478	0.22062	0.13911	0.22458	0.40285	0.17092	0.13125	0.1302	0.15344	-1.3083	-2.0771	-2.0104	-2.0187	-2.2625	-1.9458	-2.2833	-2.0458	-1.7812	-2.4292	-2.1125	-2.1396	-2.3167	-1.9979	-2.2042	-2.2042	170.377	278.366	360.006	297.862	469.896	417.739	421.031	194.383	356.699	307.192	501.892	490.678	380.837	393.090	159.540	454.304	0.00097582	0.0003265	0.00011619	1176.2	4.8144e-06	4.3713e-06	1287.7	244.81	8.4331e-06	2.8874e-06	309.67	86.828	68.392	19.581	2.2258e-06	27.494	0.00068613	0.00085105	0.00023903	1171.4	8.2718e-06	9.9424e-06	1281.1	245.09	8.7475e-06	9.6744e-06	311	87.439	68.602	20.12	8.5341e-06	28.223	409.218	235.710	248.218	152.181	233.009	314.942	152.080	160.048	293.999	302.727	159.395	166.228	166.404	174.007	324.512	173.056	-8191	255	
35700.387	1	1	0	0	0.15635	0.037759	0.12827	0.22478	0.12132	0.34018	0.24272	0.057454	0.11492	0.15166	0.2998	0.21371	0.24234	0.17077	0.27449	0.16911	-1.3833	-2.2812	-1.8583	-2.2104	-2.2208	-1.8583	-2.2271	-2.1958	-1.9875	-2.0458	-2.1021	-1.9083	-2.2854	-1.925	-1.9729	-2.1375	251.399	239.968	267.083	167.185	165.494	402.407	396.019	234.470	400.431	296.187	150.586	477.131	350.587	204.938	154.825	194.515	0.00093119	0.00015662	9.9422e-05	1178.9	5.805e-06	2.7005e-06	1287.9	244.54	7.0741e-06	1.5624e-06	309.95	86.62	68.506	19.622	4.0884e-06	27.42	0.00070647	0.00084811	0.00023641	1172.5	8.7419e-06	1.0007e-05	1282.4	245.45	8.8788e-06	9.6627e-06	311.1	87.476	68.617	20.118	8.4711e-06	28.172	406.867	246.394	205.314	152.189	267.597	288.480	152.165	160.029	313.580	362.953	159.214	165.947	166.486	174.369	301.051	173.265	-8191	255	
35700.484	1	1	0	0	0.10757	0.065103	0.13211	0.067692	0.28726	0.10436	0.070804	0.10468	0.1415	0.30375	0.25361	0.099188	0.16533	0.14918	0.2183	0.20232	-1.2979	-2.0833	-2.1771	-1.875	-2.1396	-1.9062	-2.0812	-2.175	-1.8646	-2.2083	-2.175	-1.9167	-2.4437	-2.0021	-2.2125	-2.3208	435.065	151.642	148.209	431.336	317.775	202.225	334.473	155.019	342.888	375.488	147.826	438.132	393.900	250.300	294.892	364.460	0.0010175	0.00016681	9.2945e-05	1175.9	6.653e-06	3.386e-06	1288.3	244.4	9.6191e-06	5.6615e-06	309.43	86.748	68.843	19.724	5.0663e-06	27.461	0.00070352	0.00088743	0.00022603	1170.1	8.7026e-06	9.5553e-06	1282.7	245.04	8.6064e-06	9.4222e-06	311	87.395	68.722	20.2	8.6878e-06	28.205	404.415	240.147	220.283	152.151	278.459	292.880	152.085	160.009	280.573	346.893	159.443	166.384	166.671	174.079	285.746	173.100	-8191	255	
35700.602	1	1	0	0	0.10317	0.37684	0.11093	0.13529	0.059221	0.26783	0.21365	0.15986	0.11214	0.058312	0.13575	0.26731	0.23333	0.26851	0.23547	0.34844	-1.4021	-2.0479	-2.0062	-1.9042	-1.9771	-2.2125	-2.1688	-2.3812	-1.8833	-2.2771	-2.2271	-1.8917	-2.3042	-1.9604	-1.9646	-2.2375	390.145	344.177	361.285	288.555	438.903	261.426	439.614	452.656	314.763	485.574	190.842	195.320	220.562	445.872	378.878	404.015	0.00099891	0.00030889	7.7027e-05	1175.9	7.9068e-06	2.2426e-06	1290.2	244.56	9.7264e-06	2.7873e-06	308.73	86.592	68.606	19.719	6.0451e-06	27.214	0.00070696	0.00086127	0.00022575	1169.9	8.7782e-06	9.6521e-06	1282.8	245.26	8.9118e-06	9.3483e-06	310.92	87.274	68.921	20.171	8.6766e-06	28.106	407.388	205.890	276.356	152.319	249.992	297.821	152.017	159.963	268.182	291.199	159.709	166.142	166.570	173.659	288.185	173.296	-8191	255	
35700.676	1	1	0	0	0.40984	0.06909	0.23079	0.56577	0.10419	0.26381	0.14614	0.086443	0.11954	0.12584	0.10476	0.25431	0.12583	0.13501	0.11628	0.21112	-1.525	-2.0104	-2.2646	-1.7854	-2.0938	-1.9542	-2.0146	-2.3271	-1.9312	-1.9854	-2.2458	-1.7021	-2.1	-2.1854	-1.8625	-2.3375	501.575	498.951	447.716	430.379	290.405	427.500	472.547	501.270	142.356	458.334	342.825	447.361	436.872	152.103	326.117	371.725	0.00092152	0.00039948	5.6565e-05	1173.2	6.0545e-06	1.8627e-06	1287.7	246.19	1.018e-05	2.3949e-06	309.14	87.323	68.69	19.623	4.2886e-06	27.416	0.00070922	0.00087617	0.00023009	1169.9	8.9231e-06	9.6649e-06	1283.7	245.63	9.0224e-06	9.578e-06	311.34	87.526	68.728	20.111	8.522e-06	28.207	404.436	239.318	236.994	152.189	245.252	289.803	152.301	159.866	268.346	303.228	159.575	165.919	166.505	173.640	307.253	173.686	-8191	255	
35700.770	1	1	0	0	0.15926	0.11179	0.13676	0.15596	0.20328	0.12468	0.033834	0.18173	0.3589	0.13241	0.20919	0.16863	0.034988	0.073662	0.20049	0.14296	-1.4979	-2.0583	-2.175	-2.0417	-2.2354	-2.1917	-2.0583	-2.3896	-1.9062	-1.8333	-2.2812	-1.8104	-2.1063	-2.1229	-1.7667	-2.2104	257.954	368.070	321.386	185.272	424.421	433.811	186.179	377.995	342.791	472.511	473.463	298.458	426.411	499.103	458.463	463.536	0.0010231	0.0004421	6.3241e-05	1176.8	6.2291e-06	1.7195e-06	1288.3	245.2	4.9036e-06	3.9155e-06	307.74	86.673	68.151	19.736	3.2665e-06	27.454	0.00071276	0.00087557	0.00023225	1170.2	8.9868e-06	9.1307e-06	1282.7	245.51	8.859e-06	9.4252e-06	310.81	87.245	68.495	20.177	8.902e-06	28.214	406.547	229.344	214.746	152.240	273.980	275.934	151.998	159.839	260.679	265.646	159.860	165.814	166.525	173.909	264.083	173.124	-8191	255	
35700.891	1	1	0	0	0.11561	0.24119	0.036791	0.075077	0.1141	0.17958	0.19998	0.22113	0.008966	0.33501	0.17685	0.19899	0.10732	0.18129	0.11778	0.24286	-1.4896	-1.6958	-2.1271	-2.0271	-2.1583	-2.1917	-1.9312	-2.1729	-2.075	-1.8438	-2.1229	-1.8104	-2.0146	-2.1833	-1.7833	-2.3542	447.710	459.880	428.843	395.570	160.692	148.306	487.370	156.852	299.150	376.519	267.148	251.545	304.293	408.511	388.892	459.265	0.0010615	0.00045727	0.00016121	1174	7.2018e-06	2.6193e-06	1287.5	246.31	5.1301e-06	3.3225e-06	307.61	86.662	68.831	19.794	2.6133e-06	27.482	0.00071109	0.00084854	0.00024769	1170.1	9.0947e-06	9.4052e-06	1282.9	245.59	8.6765e-06	9.4047e-06	310.36	87.328	68.88	20.184	9.0696e-06	28.264	405.977	235.721	223.529	152.286	258.201	316.292	152.026	160.002	266.182	228.756	159.529	166.559	166.815	174.086	263.589	173.246	-8191	255	
35700.984	1	1	0	0	0.18856	0.17168	0.12152	0.20525	0.088757	0.027999	0.034257	0.11227	0.052655	0.075866	0.060651	0.2536	0.064497	0.079658	0.21723	0.13701	-1.7292	-1.8271	-2.2542	-2.1021	-2.0812	-2.225	-2.1417	-2.2062	-2.075	-2.1771	-2.2479	-2.1188	-2	-2.1854	-1.6979	-2.1688	201.821	229.520	395.148	164.885	402.576	229.163	407.688	437.549	251.294	199.434	214.562	291.351	311.381	417.911	261.385	184.868	0.0010754	0.00039924	7.9908e-05	1177.6	8.0542e-06	3.8554e-06	1293.9	247.53	7.7087e-06	4.2671e-06	307.61	86.739	68.462	19.598	4.6831e-06	27.443	0.0006881	0.0008268	0.00023353	1170.2	8.6388e-06	9.3025e-06	1281.8	245.63	8.9927e-06	9.6851e-06	310.28	87.505	68.441	20.12	9.1568e-06	28.194	409.839	221.755	227.292	152.314	252.024	283.508	152.101	160.078	259.698	295.495	159.708	165.852	166.344	174.399	284.329	173.451	-8191	255	
35701.082	1	1	0	0	0.14271	0.28286	0.13099	0.28171	0.30667	0.059555	0.28068	0.21348	0.12997	0.12468	0.049448	0.10816	0.12757	0.1428	0.23368	0.18595	-1.7146	-1.8563	-2.2729	-2.2	-2.1208	-2.3396	-2.1	-2.275	-2.1104	-1.7563	-2.3708	-1.9458	-1.9771	-2.2917	-1.9896	-2.1375	316.262	385.718	389.078	454.160	401.168	390.915	481.270	216.536	365.958	469.514	488.724	149.679	433.501	396.266	436.493	402.245	0.00096872	0.0003931	0.00013206	1170.9	5.4826e-06	3.4016e-06	1290.5	245.24	8.8058e-06	2.149e-06	310.04	86.605	68.142	19.743	4.0067e-06	27.457	0.00070426	0.00086448	0.00024263	1167.1	8.8073e-06	9.5474e-06	1285	245.24	8.4281e-06	1.0026e-05	311.85	87.33	68.794	20.175	8.9012e-06	28.242	403.152	262.104	256.965	152.397	255.949	306.833	151.976	160.042	284.390	301.856	159.782	165.988	166.102	173.861	282.223	173.032	-8191	255	
35701.203	1	1	0	0	0.26422	0.27173	0.13157	0.13175	0.13096	0.05142	0.17938	0.10902	0.10798	0.12089	0.11838	0.19982	0.24504	0.064208	0.15123	0.14721	-1.6146	-1.8937	-2.2062	-2.2521	-1.9396	-2.3625	-2.3875	-2.3104	-2.3417	-1.7979	-2.2083	-2.0104	-2.1063	-2.1562	-1.8062	-2.05	154.980	343.822	395.619	200.121	181.864	407.761	370.975	231.425	425.283	292.954	444.947	195.583	498.689	368.676	367.292	470.175	0.00097126	0.00024974	0.00014795	1180.1	7.4653e-06	4.2572e-06	1295.6	245.98	8.5432e-06	2.8045e-06	310.4	86.644	68.804	19.627	2.7184e-06	27.558	0.00070072	0.00088111	0.00024671	1173.4	8.9868e-06	1.0038e-05	1287.9	245.9	8.8317e-06	9.6627e-06	311.76	87.577	68.857	20.129	8.6619e-06	28.273	408.317	260.240	236.191	152.208	230.120	291.072	152.193	159.885	272.974	327.262	159.939	165.887	166.239	174.119	287.370	173.452	-8191	255	
35701.301	1	1	0	0	0.14786	0.22759	0.087386	0.31173	0.21521	0.14804	0.32703	0.24642	0.21257	0.073447	0.17733	0.28078	0.22054	0.18488	0.070687	0.2826	-1.5167	-1.7708	-2.2167	-2.2521	-1.825	-2.2375	-2.0896	-2.1146	-2.3208	-2.0292	-2.2417	-2.1042	-1.825	-2.2938	-2.0563	-2.1479	317.827	335.781	447.572	432.714	404.256	286.073	462.069	435.129	160.331	353.687	439.048	384.097	445.569	146.232	209.060	478.137	0.0010447	0.00031111	5.3578e-05	1179.8	3.7479e-06	3.0487e-06	1291.9	243.87	6.4784e-06	3.9334e-06	308.45	86.079	68.286	19.536	4.8585e-06	27.492	0.00069134	0.00083009	0.00022606	1172.1	8.4088e-06	8.9263e-06	1284.1	245.14	7.8947e-06	8.6464e-06	310.34	87.017	68.467	20.06	7.4044e-06	28.175	402.619	238.780	286.799	152.246	289.099	278.410	151.922	159.824	294.322	318.784	159.380	165.960	166.345	174.219	265.443	173.299	-8191	255	
35701.371	1	1	0	0	0.31485	0.080745	0.19543	0.10077	0.23728	0.21962	0.25268	0.14128	0.22148	0.13904	0.098266	0.18001	0.19401	0.26149	0.19468	0.16756	-1.7875	-1.8104	-2.175	-2.2646	-1.7708	-2.1958	-2.2083	-1.8583	-2.3937	-2.075	-2.2104	-2.1125	-1.7917	-2.2083	-2.1042	-1.7854	160.015	142.204	160.547	449.967	360.231	366.852	444.588	495.764	232.897	333.388	431.659	280.203	409.087	471.111	220.153	330.389	0.00094283	0.00012896	0.00010028	1176	4.2436e-06	2.4159e-06	1277.6	244.23	7.3629e-06	2.8893e-06	309.01	86.127	68.21	19.578	4.4321e-06	27.576	0.00062694	0.00076105	0.00020036	1169.3	7.7725e-06	8.3743e-06	1277.9	244.11	7.6776e-06	8.4556e-06	310.02	86.955	68.496	20.11	7.7818e-06	28.18	404.935	361.513	234.974	152.350	249.739	332.658	152.217	159.805	269.783	309.008	159.720	166.437	166.581	174.190	278.359	173.167	-8191	255	
35701.492	1	1	0	0	0.055833	0.052228	0.046984	0.28926	0.21378	0.26181	0.15873	0.13484	0.17557	0.24187	0.4198	0.30495	0.095386	0.27173	0.34188	0.35308	-1.8854	-2.0938	-2.0208	-2.2833	-1.9271	-2.3396	-2.3292	-1.9417	-2.3354	-2.0583	-2.1625	-2.2438	-1.9208	-2.3688	-2.1333	-1.9729	448.416	373.336	305.350	155.417	367.464	413.144	406.478	331.546	454.101	188.229	154.137	346.683	386.779	439.647	486.094	197.990	0.0010017	0.00036122	0.0001405	1173.6	7.2483e-06	4.626e-06	1289.1	246.06	7.2014e-06	3.6197e-06	309.76	86.491	68.714	19.677	2.3214e-06	27.372	0.00064811	0.00079258	0.00020188	1169.1	8.1765e-06	8.794e-06	1284.2	245.29	8.4173e-06	9.176e-06	310.88	87.297	68.675	20.144	8.1809e-06	28.141	405.719	229.622	232.323	152.452	242.992	294.730	152.009	160.019	278.202	270.996	159.557	166.187	166.416	174.070	306.974	173.264	-8191	255	
35701.586	1	1	0	0	0.16796	0.21424	0.17842	0.32555	0.065447	0.16304	0.16855	0.36968	0.26846	0.17249	0.14594	0.091138	0.11671	0.051162	0.14682	0.043459	-1.8104	-2.2021	-2.0646	-2.4625	-1.8771	-2.0271	-2.3083	-1.9354	-2.5646	-2.1479	-2.0292	-2.5667	-2.125	-2.3604	-2.2646	-1.9542	472.063	407.549	265.468	168.389	475.574	485.204	205.170	316.947	492.630	466.295	220.349	457.685	184.740	478.133	305.202	396.898	0.0010084	0.00044004	8.506e-05	1173.7	5.7272e-06	3.2608e-06	1286.7	245.25	9.8855e-06	1.7785e-06	308.8	87.037	68.462	19.627	2.2245e-06	27.599	0.00069684	0.00085183	0.0002195	1170.5	8.2395e-06	8.9678e-06	1282.7	244.98	8.1317e-06	8.5062e-06	310.46	87.391	68.722	20.109	7.6678e-06	28.275	408.213	240.820	253.835	152.407	254.302	317.411	152.100	159.861	288.794	289.399	159.501	166.162	166.387	174.297	239.561	173.372	-8191	255	
35701.684	1	1	0	0	0.054287	0.20778	0.26881	0.2738	0.21645	0.12812	0.14223	0.16941	0.27698	0.2356	0.076933	0.28857	0.076694	0.11726	0.16	0.089912	-2.0771	-2.0542	-1.7979	-2.5375	-1.9833	-2.1979	-2.2729	-2.0021	-2.075	-2.025	-1.8458	-2.3667	-2.0187	-2.0563	-2.3708	-1.8896	331.366	249.690	173.633	390.835	497.067	312.833	469.850	428.004	232.672	193.858	338.095	471.638	435.255	162.120	236.923	435.045	0.00097569	4.8028e-05	3.9932e-05	1172.3	5.8658e-06	2.8627e-06	1289.2	244.73	4.7115e-06	3.649e-06	308.61	86.665	68.071	19.658	5.4079e-06	27.343	0.00066054	0.00077387	0.00021825	1168.8	7.7001e-06	8.793e-06	1281	245.05	7.501e-06	8.1042e-06	309.57	87.086	68.639	20.088	7.7447e-06	28.152	412.294	196.414	192.897	152.360	243.065	292.825	152.090	160.460	263.290	290.722	159.708	166.210	166.879	174.219	288.816	173.043	-8191	255	
35701.777	1	1	0	0	0.27995	0.19258	0.35457	0.075452	0.17952	0.20288	0.22874	0.13251	0.33205	0.026503	0.43414	0.039526	0.18395	0.22707	0.20679	0.26268	-1.7167	-2.1896	-1.7521	-2.3333	-1.9771	-2.1667	-2.4896	-2	-2.2042	-2.3146	-2.0187	-2.4021	-2.2	-2.0167	-2.2146	-2.0687	300.634	175.705	459.954	495.209	291.228	467.169	430.070	484.134	394.659	171.221	419.658	266.603	144.094	281.630	262.365	411.645	0.0009277	0.00035285	4.689e-05	1174.6	4.4947e-06	4.1154e-06	1284	244.95	8.8734e-06	4.774e-06	309.85	86.454	68.48	19.614	3.3418e-06	27.502	0.00065057	0.00073966	0.00021564	1167.5	7.7056e-06	8.4474e-06	1277.9	244.39	7.4201e-06	8.4692e-06	310.52	87.066	68.429	20.081	7.559e-06	28.177	403.866	220.324	184.445	152.274	250.735	312.917	152.303	159.894	275.878	307.027	159.454	166.235	166.508	174.203	315.826	173.413	-8191	255	
35701.875	1	1	0	0	0.20638	0.14923	0.048852	0.26092	0.1589	0.24094	0.16308	0.1494	0.058251	0.087301	0.068606	0.17726	0.29565	0.18877	0.17857	0.079901	-1.6771	-2.2083	-1.7771	-2.4938	-2.05	-2.0312	-2.5	-2.0125	-2	-2.3479	-1.9333	-2.3812	-2.1375	-1.9833	-2.3563	-1.9396	215.502	472.943	390.565	497.542	461.055	407.335	427.684	404.977	387.157	189.973	341.934	477.068	496.281	455.932	435.945	436.572	0.00097511	0.00017311	4.0131e-05	1172.1	6.8528e-06	1.3718e-06	1286.6	243.93	5.0811e-06	2.1115e-06	306.76	86.341	68.905	19.729	2.6901e-06	27.383	0.00063131	0.00072866	0.00021086	1166.5	7.5284e-06	8.2341e-06	1279	243.82	7.5398e-06	8.2327e-06	309.72	87.039	68.77	20.126	7.8777e-06	28.13	402.217	206.313	228.908	152.578	242.130	281.273	152.307	160.110	297.682	324.016	159.675	166.253	166.456	174.246	301.713	173.175	-8191	255	
35701.969	1	1	0	0	0.28958	0.079769	0.37094	0.16403	0.081304	0.093105	0.34721	0.20194	0.19954	0.014284	0.22834	0.16331	0.15208	0.2053	0.022663	0.21478	-1.65	-2.1667	-1.8646	-2.5312	-2.15	-1.9312	-2.2104	-2.0292	-2.0917	-2.2313	-2.0104	-2.1396	-2.05	-1.925	-2.1854	-2.0896	143.022	422.519	210.643	475.387	417.820	459.151	418.863	197.935	420.652	349.117	345.105	149.213	308.262	477.275	291.523	461.669	0.0010368	0.00016323	8.7724e-05	1169.5	6.8431e-06	5.0961e-06	1286.1	243.84	6.2217e-06	4.2679e-06	308.75	86.552	68.627	19.637	5.4883e-06	27.337	0.00065705	0.00078236	0.00021487	1166.7	7.8796e-06	8.95e-06	1280.3	244.41	7.7544e-06	8.9287e-06	310.86	87.047	68.72	20.058	8.0366e-06	28.222	408.492	225.544	232.669	152.215	259.191	285.857	152.152	160.011	277.497	296.045	159.562	166.091	166.433	174.123	295.134	172.876	-8191	255	
35702.066	1	1	0	0	0.20379	0.15804	0.099955	0.15627	0.2269	0.064663	0.25468	0.071746	0.22855	0.15495	0.26845	0.11957	0.17977	0.17907	0.16102	0.3774	-1.6125	-2.3	-1.8125	-2.2396	-2.0792	-1.9042	-2.3604	-2.0771	-2.1271	-2.3167	-1.7938	-2.2167	-2.0917	-1.7458	-2.4521	-2.1292	393.330	329.084	197.371	432.840	278.277	225.246	386.709	496.921	149.907	281.857	177.396	329.345	190.788	443.423	145.853	339.740	0.0010144	0.00029195	5.9959e-05	1175.7	7.86e-06	3.7153e-06	1286.5	245.54	8.0218e-06	6.1649e-07	309.3	86.536	68.328	19.601	3.4688e-06	27.411	0.00065735	0.00073862	0.0002135	1168.9	8.0513e-06	9.0211e-06	1280.8	244.5	8.0838e-06	9.1039e-06	310.43	87.248	68.531	20.091	7.7836e-06	28.214	401.577	220.599	246.472	152.458	258.638	273.709	152.248	159.890	292.256	284.834	159.692	166.279	166.086	173.922	278.291	173.401	-8191	255	
35702.164	1	1	0	0	0.19586	0.13893	0.064205	0.19017	0.34667	0.060412	0.16275	0.21607	0.22384	0.21273	0.22426	0.23039	0.15265	0.1077	0.05362	0.31817	-1.5333	-2.1979	-1.9604	-2.225	-2.175	-1.9667	-2.4146	-2.1437	-1.9917	-2.4333	-2.0312	-1.9375	-2.375	-2.0958	-2.2042	-2.1917	418.384	300.360	408.080	498.347	501.366	204.947	174.443	460.987	295.245	251.963	451.764	474.898	450.512	253.278	259.453	500.140	0.00086272	0.00034965	0.00010348	1172.6	5.003e-06	3.0285e-06	1289.6	245	6.1397e-06	5.4752e-06	307.1	86.827	68.734	19.716	5.6497e-06	27.421	0.00068161	0.00078652	0.00021981	1168.6	8.0592e-06	9.1179e-06	1281.3	244.85	8.2052e-06	8.5753e-06	310.07	87.377	68.567	20.095	7.7188e-06	28.162	407.547	253.512	251.525	152.133	252.756	273.191	152.183	159.992	275.117	323.486	159.835	166.035	166.654	174.171	287.257	173.358	-8191	255	
35702.281	1	1	0	0	0.061122	0.27097	0.015417	0.32895	0.092068	0.02725	0.098278	0.043292	0.22029	0.053057	0.053647	0.31646	0.29639	0.19906	0.19512	0.11136	-1.3417	-2.2771	-2.1458	-2.1521	-2.3354	-1.9062	-2.3125	-2.2646	-1.9583	-2.3875	-1.7771	-1.9688	-2.2	-2.0417	-2.0208	-2.1708	365.103	186.027	258.934	475.397	367.429	393.093	162.398	277.597	151.053	233.214	280.574	417.690	298.710	501.784	199.120	150.498	0.00099489	6.263e-05	7.7051e-05	1170.8	8.2927e-06	1.8348e-06	1286.5	244.81	6.9749e-06	4.4386e-06	308.16	86.606	68.158	19.624	4.392e-06	27.332	0.00067788	0.0007646	0.00020642	1167.7	7.9403e-06	8.6143e-06	1281.4	244.4	8.2563e-06	8.4721e-06	310.16	87.097	68.459	20.08	7.7715e-06	28.156	404.581	165.827	176.516	152.394	247.106	285.363	152.333	159.910	275.060	319.864	159.418	165.946	166.316	174.185	273.302	173.674	-8191	255	
35702.379	1	1	0	0	0.1427	0.18406	0.11454	0.18764	0.16278	0.16646	0.11067	0.047611	0.10979	0.070552	0.1164	0.2763	0.12415	0.039383	0.1925	0.13903	-1.1958	-1.975	-1.975	-2.1937	-2.3042	-1.8646	-2.1208	-2.1833	-1.8104	-2.2083	-2.2687	-1.8854	-2.35	-2.1125	-2.0542	-2.0542	410.845	199.710	413.631	164.954	392.443	305.619	377.257	459.704	447.353	445.648	361.811	148.617	299.122	281.205	192.408	177.597	0.00094231	0.00021895	0.00011578	1172.9	6.1568e-06	2.5289e-06	1284.4	244.63	7.837e-06	2.7148e-06	307.43	86.758	68.35	19.693	5.2856e-06	27.4	0.00066472	0.00077647	0.00021604	1167.2	7.9875e-06	8.7861e-06	1279.8	244.33	8.0524e-06	8.4595e-06	310.27	87.165	68.567	20.083	7.7119e-06	28.095	405.505	237.790	243.020	152.322	253.080	306.788	152.218	160.037	301.863	263.752	159.822	165.972	166.654	174.027	277.145	173.276	-8191	255	
35702.477	1	1	0	0	0.18456	0.083358	0.108	0.35686	0.10572	0.30873	0.3293	0.083488	0.23756	0.1989	0.18856	0.20326	0.23931	0.38197	0.22871	0.10133	-1.25	-2.2313	-2.1708	-2.0417	-2.3167	-1.9521	-2.3667	-2.3146	-1.9104	-2.2333	-2.1333	-1.9625	-2.3563	-2.0708	-1.9833	-2.2146	280.797	256.564	312.159	476.533	364.285	289.777	430.343	485.426	202.881	304.611	437.031	234.865	464.909	423.324	356.776	147.516	0.00094952	0.00028484	1.3031e-05	1170.7	9.7344e-06	3.2325e-06	1280.7	244.19	7.9176e-06	3.7573e-06	307.3	86.269	68.486	19.673	4.496e-06	27.407	0.00068554	0.00077994	0.00021597	1168.3	7.5804e-06	8.7861e-06	1278.1	244.58	8.1143e-06	8.2249e-06	309.56	87.267	68.579	20.095	8.0789e-06	28.165	405.718	212.828	206.606	152.489	279.179	294.395	152.135	159.996	280.593	240.340	159.669	166.426	166.886	173.839	297.108	173.827	-8191	255	
35702.570	1	1	0	0	0.28692	0.29531	0.19767	0.17217	0.11229	0.19023	0.21549	0.3174	0.39192	0.31668	0.057296	0.47985	0.14836	0.22779	0.26556	0.23425	-1.5104	-2.2708	-2.2375	-2.1417	-2.1146	-2.1937	-2.0062	-2.3292	-2.0896	-2.0833	-2.2812	-1.8563	-2.1917	-2.2146	-1.9229	-2.1771	301.236	437.864	481.210	438.204	227.656	183.424	378.762	350.960	377.435	274.939	214.620	459.334	476.129	310.143	189.897	186.626	0.0009918	0.00031111	0.00012838	1174.7	6.1265e-06	2.9564e-06	1287.9	244.13	9.314e-06	2.7105e-06	308.77	86.261	68.367	19.54	4.5914e-06	27.375	0.0006767	0.00075802	0.00021979	1168	7.8103e-06	8.6873e-06	1279.7	244.14	8.1672e-06	8.3173e-06	310.37	87.133	68.652	20.055	8.1878e-06	28.197	404.169	224.008	239.839	152.316	240.836	278.817	152.122	159.966	273.873	283.561	159.191	165.899	166.124	173.641	293.073	173.149	-8191	255	
35702.664	1	1	0	0	0.16203	0.18205	0.2024	0.21027	0.23226	0.15655	0.20373	0.19642	0.14601	0.12202	0.21004	0.06928	0.11042	0.25247	0.3137	0.14758	-1.5	-2.075	-2.3	-1.9667	-2.125	-2.1937	-2.0083	-2.2208	-1.9188	-2.0354	-2.2167	-1.9167	-2.275	-2.0396	-2.0042	-2.4	466.777	192.475	165.768	356.390	290.212	162.821	475.725	150.232	154.597	248.773	447.725	442.176	493.436	372.814	226.341	233.210	0.00095636	0.00031451	0.0001371	1173.1	6.29e-06	1.8006e-06	1286.6	243.64	8.1951e-06	4.3443e-06	307.93	86.335	68.162	19.692	2.509e-06	27.394	0.0006657	0.00079804	0.00021573	1167.1	7.7788e-06	8.5886e-06	1281	244.38	8.0566e-06	8.2891e-06	309.89	87.091	68.35	20.098	8.0064e-06	28.071	406.415	232.254	232.092	152.334	258.109	296.062	152.147	160.010	268.885	291.066	159.541	166.317	166.348	174.129	257.984	172.846	-8191	255	
35702.762	1	1	0	0	0.21816	0.21314	0.14252	0.20976	0.21273	0.033051	0.27883	0.18871	0.19979	0.18541	0.12746	0.12545	0.0098647	0.17697	0.13813	0.088502	-1.5	-1.9021	-2.2687	-1.9708	-2.0208	-1.8708	-2.1437	-2.2417	-1.9688	-2.1063	-2.3271	-1.95	-2.1521	-1.9917	-1.8354	-2.2646	397.872	245.701	195.719	500.163	232.832	254.888	450.743	409.946	283.054	376.610	347.682	278.223	177.803	456.846	256.695	301.124	0.00096893	0.00018207	7.6005e-05	1170.4	6.3373e-06	4.1901e-06	1287.3	244.99	8.5782e-06	2.9615e-06	307.28	86.323	68.907	19.66	5.7405e-06	27.377	0.00068358	0.00075386	0.00021136	1167.5	7.7977e-06	8.6439e-06	1280.9	244.56	8.0186e-06	8.8459e-06	309.68	87.115	68.515	20.103	8.0384e-06	28.124	404.147	255.046	225.632	152.247	227.193	305.794	151.968	160.135	285.762	290.983	159.313	166.238	166.178	174.027	279.631	172.909	-8191	255	
35702.883	1	1	0	0	0.03261	0.21288	0.17114	0.15773	0.22181	0.52703	0.13305	0.2168	0.04404	0.18477	0.059893	0.37415	0.0668	0.12617	0.22066	0.1788	-1.5833	-1.9146	-2.2062	-2.0771	-2.1229	-2.0667	-2.0563	-2.2646	-2.1854	-2.0687	-2.2438	-2.0625	-1.9813	-2.2146	-1.8417	-2.0958	191.712	471.246	249.520	406.250	431.743	500.199	154.726	494.766	248.971	287.492	362.921	408.722	450.590	162.547	466.077	240.824	0.00097808	0.00026935	9.7441e-05	1171.5	7.6371e-06	2.4246e-06	1285.9	244.41	1.1091e-05	2.8779e-06	306.81	86.234	67.927	19.636	2.9624e-06	27.379	0.00067277	0.00077716	0.00022037	1167.9	8.2529e-06	8.8582e-06	1279.9	244.63	8.234e-06	9.029e-06	309.84	87.043	68.415	20.092	8.1817e-06	28.176	403.923	242.901	227.127	152.393	254.750	284.165	152.060	159.877	280.133	244.490	159.225	165.917	166.470	174.016	288.384	173.064	-8191	255	
35702.980	1	1	0	0	0.029959	0.043612	0.15541	0.19497	0.0325	0.22633	0.2891	0.25268	0.24364	0.21394	0.097017	0.11757	0.16962	0.24049	0.20298	0.14997	-1.6896	-1.8021	-2.3688	-2.3021	-2.1937	-2.1708	-1.8042	-2.1813	-2.2208	-1.8563	-2.4292	-2.0396	-2.1208	-2.2229	-1.8563	-2.1292	300.515	165.874	256.119	475.536	232.975	474.100	438.341	481.806	442.385	480.269	278.190	267.015	456.237	467.139	443.821	205.479	0.0010612	0.00025304	7.1285e-05	1174.4	3.5346e-06	3.2756e-06	1282.1	244.63	1.0358e-05	2.9058e-06	308.59	86.326	68.662	19.709	5.6274e-06	27.197	0.00067818	0.00081987	0.00022018	1169.4	8.0607e-06	9.1653e-06	1278.4	244.79	8.1276e-06	9.1166e-06	310.46	87.147	68.588	20.132	8.5289e-06	28.109	402.936	223.262	248.729	152.398	298.252	333.611	152.305	159.892	252.756	272.720	159.663	166.328	166.215	173.813	247.252	173.259	-8191	255	
35703.074	1	1	0	0	0.051693	0.22886	0.16543	0.15651	0.20429	0.22045	0.20282	0.19614	0.010613	0.068151	0.12431	0.12815	0.35077	0.17161	0.26667	0.15345	-1.8667	-1.9979	-2.3146	-2.275	-1.8687	-2.3187	-2.05	-2.125	-2.0312	-1.9062	-2.2854	-1.9083	-1.8667	-2.3708	-1.7458	-2.2625	179.660	275.514	442.485	417.777	387.174	181.110	376.852	369.425	192.910	404.120	325.385	286.847	417.899	299.149	146.151	161.822	0.00096131	0.00019276	3.2006e-05	1174.7	4.167e-06	2.6186e-06	1288.5	243.12	8.1743e-06	1.8028e-06	307.6	86.58	68.118	19.729	4.5184e-06	27.279	0.00068663	0.00080644	0.00022291	1167.7	8.3923e-06	9.0734e-06	1281.3	244.32	8.4074e-06	9.5877e-06	310.57	87.201	68.583	20.126	8.6265e-06	28.153	403.345	293.994	231.572	152.204	260.820	213.057	152.286	160.087	257.105	274.905	159.376	165.973	166.269	173.967	287.431	173.177	-8191	255	
35703.168	1	1	0	0	0.093005	0.087812	0.27027	0.14083	0.12035	0.24774	0.17597	0.061408	0.16324	0.22244	0.097889	0.22818	0.17964	0.32687	0.33936	0.21123	-1.6812	-1.8937	-2.2396	-2.2479	-1.9917	-2.0792	-2.0292	-2.1521	-2.2313	-1.8979	-2.2875	-1.9917	-1.9688	-2.3125	-2	-2.1042	179.015	466.989	235.888	160.915	494.883	223.370	444.267	272.426	359.681	174.154	147.777	170.686	145.061	500.079	355.869	318.872	0.00090808	0.0003062	8.04e-05	1172.9	6.7595e-06	3.0722e-06	1284.4	245.42	4.6655e-06	2.4406e-06	308.66	86.59	68.63	19.647	5.75e-06	27.374	0.00068098	0.00086006	0.00023144	1167.6	8.3332e-06	9.4417e-06	1281.1	244.42	8.3356e-06	9.3599e-06	310.41	87.199	68.51	20.076	8.1005e-06	28.171	409.184	231.576	233.176	152.163	261.247	241.106	152.391	159.929	279.797	301.524	159.423	166.354	166.337	174.153	297.699	173.029	-8191	255	
35703.266	1	1	0	0	0.064125	0.26036	0.25687	0.26735	0.27927	0.14414	0.21272	0.17779	0.22158	0.019212	0.14417	0.26663	0.22069	0.16092	0.15658	0.19525	-1.6333	-1.8542	-2.1188	-2.3667	-1.8854	-2.4208	-2.2792	-2.1813	-2.4979	-1.8125	-2.2875	-2.3417	-1.7083	-2.3708	-2.0479	-2.0729	187.636	376.740	367.568	442.165	248.312	370.489	461.616	400.738	195.144	493.106	384.267	265.662	414.450	220.969	439.089	199.989	0.00097827	0.0004341	9.9041e-05	1168	4.9711e-06	5.6351e-06	1287.1	244.36	6.3838e-06	4.3235e-06	307.68	86.335	68.398	19.774	2.888e-06	27.493	0.00068166	0.00083329	0.00021965	1166	8.3891e-06	9.3845e-06	1279.7	244.24	8.6031e-06	9.5751e-06	310.28	87.032	68.605	20.172	8.5548e-06	28.173	405.529	217.908	237.932	152.363	241.458	293.254	152.115	159.981	296.654	326.808	159.099	165.876	166.370	174.052	288.596	173.140	-8191	255	
35703.363	1	1	0	0	0.38165	0.047942	0.14025	0.38481	0.18156	0.1144	0.38495	0.24776	0.062801	0.14535	0.30541	0.19068	0.28109	0.30215	0.20186	0.14164	-2.0292	-1.8833	-2.0146	-2.4083	-1.7708	-2.2479	-2.2208	-2.0438	-2.2062	-1.7854	-1.975	-2.2917	-1.9521	-2.2125	-2.1	-2.1208	403.233	384.033	440.984	455.415	189.611	391.158	484.099	154.508	363.586	281.754	453.751	155.068	481.110	175.452	272.069	351.689	0.00099696	0.00019444	0.00012802	1179.3	5.4786e-06	3.1638e-06	1283.3	244.83	9.9606e-06	5.2429e-06	309.39	86.272	67.955	19.59	4.8938e-06	27.517	0.0006994	0.00087401	0.0002335	1169.7	9.0333e-06	9.6333e-06	1278.8	244.67	8.8788e-06	9.5283e-06	310.76	87.2	68.553	20.114	8.6965e-06	28.232	406.546	253.981	230.318	152.243	255.126	284.405	151.964	160.002	279.808	295.061	159.634	166.126	166.741	173.923	275.218	173.029	-8191	255	
35703.457	1	1	0	0	0.1612	0.30477	0.2345	0.19702	0.17258	0.053629	0.09283	0.14156	0.19011	0.38496	0.18125	0.11913	0.061923	0.10993	0.16533	0.27609	-1.7542	-1.8896	-1.95	-2.0917	-1.7958	-2.2208	-2.3208	-1.9979	-2.2708	-1.9188	-2.0229	-2.4083	-2.0563	-2.1271	-2.0563	-1.9354	363.997	245.700	433.696	391.949	379.353	263.994	447.272	230.710	360.171	405.165	142.337	368.763	458.994	360.438	423.620	415.238	0.00093847	0.00013959	0.00010165	1175.3	5.4514e-06	2.282e-06	1287	245.71	8.327e-06	2.6998e-06	307.77	87.058	68.521	19.465	4.5521e-06	27.392	0.00072774	0.00084438	0.00023718	1169.1	9.0916e-06	9.6106e-06	1281.5	245.19	8.684e-06	8.8722e-06	310.05	87.135	68.628	20.069	8.8545e-06	28.209	408.304	282.145	219.147	152.155	240.738	259.617	152.097	160.006	269.662	309.409	159.561	166.034	166.034	174.339	289.600	173.035	-8191	255	
35703.555	1	1	0	0	0.087859	0.12558	0.13684	0.20031	0.11847	0.11819	0.18097	0.25191	0.15193	0.17361	0.10868	0.055435	0.076287	0.34519	0.15925	0.077622	-1.7958	-2.025	-1.9771	-2.4042	-1.9	-2.3354	-2.3292	-1.9167	-2.3542	-1.9917	-1.9667	-2.225	-1.9396	-2.175	-2.1646	-1.8979	454.359	264.119	228.787	463.276	366.827	419.445	371.662	480.974	460.402	211.515	173.199	294.187	241.076	466.833	250.625	195.898	0.0010255	0.00038334	3.8303e-05	1174.8	4.7474e-06	3.7889e-06	1288.3	245.3	7.4773e-06	2.7735e-06	307.74	85.771	67.942	19.605	3.0409e-06	27.197	0.00072543	0.00086292	0.00023636	1169.4	8.8876e-06	9.5118e-06	1281.5	244.75	8.8045e-06	9.4047e-06	310.42	86.97	68.544	20.093	9.1698e-06	28.161	402.301	209.654	233.956	152.091	235.469	312.208	152.119	159.946	273.529	300.779	159.238	166.141	166.351	173.755	273.937	173.206	-8191	255	
35703.676	1	1	0	0	0.12851	0.18611	0.20317	0.14759	0.13991	0.23174	0.074235	0.16736	0.23096	0.17468	0.12067	0.03872	0.0339	0.10974	0.26367	0.19574	-1.8542	-1.8958	-1.9229	-2.4479	-2.0167	-2.0021	-2.3396	-1.8958	-2.2583	-2.0062	-1.9604	-2.3083	-1.8917	-2.0375	-2.2646	-1.8813	456.682	207.125	321.820	231.265	377.235	156.357	409.472	467.120	447.845	270.445	348.759	381.902	375.150	379.095	206.249	330.349	0.0010042	0.00026947	0.000105	1174.7	5.0627e-06	4.4196e-06	1291.2	245.23	6.0298e-06	4.6265e-06	309.38	86.674	69.143	19.827	3.8505e-06	27.198	0.00074321	0.00090753	0.00025807	1168.6	8.953e-06	1.0743e-05	1282.8	245.02	8.8829e-06	9.7532e-06	310.2	87.463	68.773	20.172	9.1447e-06	28.162	404.642	229.831	277.364	152.277	264.268	295.986	151.882	159.862	280.895	296.791	159.428	166.247	166.559	174.129	299.107	173.240	-8191	255	
35703.770	1	1	0	0	0.33245	0.29873	0.10317	0.018314	0.14957	0.09624	0.082069	0.30214	0.096869	0.29171	0.042524	0.19981	0.25214	0.12086	0.10111	0.14512	-1.6938	-2.0875	-1.7396	-2.5167	-2.0896	-1.8271	-2.275	-1.9396	-2.0729	-2.1917	-1.7583	-2.3646	-1.9729	-1.975	-2.2458	-1.8354	464.729	199.579	341.385	165.360	282.728	321.395	370.783	491.782	342.104	275.027	408.852	429.988	233.856	282.687	408.856	262.116	0.0010233	0.00032655	6.8705e-05	1171.4	4.8788e-06	2.9942e-06	1287.5	244.88	8.0309e-06	2.4286e-06	309.73	86.583	68.275	19.618	4.9672e-06	27.404	0.00070681	0.00085989	0.00023197	1169	8.4285e-06	9.1722e-06	1282.1	244.68	8.0838e-06	9.1205e-06	310.94	87.117	68.63	20.11	8.1584e-06	28.109	406.084	220.341	227.643	152.185	276.442	294.479	152.008	159.983	277.675	279.778	159.295	166.364	166.247	174.214	252.620	172.982	-8191	255	
35703.844	1	1	0	0	0.10714	0.17549	0.13612	0.29509	0.32852	0.17003	0.10242	0.32814	0.085408	0.29894	0.30547	0.15587	0.28416	0.17428	0.2243	0.24646	-1.6688	-2.2125	-1.7	-2.2917	-1.9146	-2.125	-2.3542	-2.05	-2.1479	-2.1104	-2.0792	-2.1688	-2.15	-2.0146	-2.2417	-2.025	154.540	215.411	306.067	420.273	316.776	316.412	424.297	198.696	498.187	488.771	156.371	424.344	451.719	233.330	409.749	447.111	0.0009416	0.00025358	0.00011856	1173.7	5.0927e-06	2.6476e-06	1288.2	244.83	5.3687e-06	4.5953e-06	308.27	86.345	68.246	19.739	3.3626e-06	27.348	0.00069488	0.00085183	0.0002348	1167.1	8.6892e-06	9.9433e-06	1281.8	245.04	8.6419e-06	9.4232e-06	310.33	87.215	68.537	20.16	8.8701e-06	28.157	408.781	231.211	218.283	152.266	231.266	272.099	152.288	159.754	274.503	298.386	159.334	166.077	166.494	173.852	289.726	173.109	-8191	255	
35703.965	1	1	0	0	0.038681	0.15315	0.11186	0.28192	0.23929	0.25091	0.16422	0.22204	0.021806	0.16488	0.12829	0.32025	0.2205	0.14681	0.034588	0.19906	-1.6938	-2.3292	-1.7021	-2.2875	-2.1583	-1.5396	-2.3563	-2.0563	-2.1437	-2.1	-1.8417	-2.1667	-2.1146	-1.7542	-2.2271	-1.9688	426.507	335.628	292.388	434.104	217.163	497.327	451.776	458.208	240.716	371.185	451.630	144.068	293.159	450.308	243.586	424.877	0.0010026	0.00032365	4.479e-05	1173	4.8675e-06	7.9107e-07	1288.3	244.11	8.6426e-06	2.1203e-06	308.24	86.677	68.311	19.686	6.0689e-06	27.34	0.00074066	0.0008812	0.00025264	1169.3	8.8719e-06	1.0219e-05	1280.7	244.91	9.0877e-06	9.8778e-06	310.21	87.166	68.533	20.132	8.731e-06	28.165	406.769	236.095	153.387	152.374	275.170	295.881	152.087	160.186	265.109	304.221	159.652	166.312	166.577	173.947	256.846	173.324	-8191	255	
35704.059	1	1	0	0	0.16287	0.15479	0.045466	0.10557	0.13678	0.23802	0.13334	0.19899	0.25414	0.049948	0.18838	0.14409	0.17777	0.061305	0.10049	0.22272	-1.4667	-2.1583	-1.9292	-2.3375	-2.0375	-1.8	-2.35	-2.0687	-1.8771	-2.1063	-1.9917	-2.1583	-2.1979	-1.8833	-1.9729	-2.0812	461.652	325.525	380.134	447.342	254.051	341.766	408.562	447.198	209.066	380.505	471.062	466.274	154.033	346.788	250.181	143.111	0.0010778	0.00060371	9.3061e-05	1173.7	4.9659e-06	3.6971e-06	1285.2	244.25	5.6872e-06	4.0802e-06	307.47	86.528	67.832	19.632	3.1254e-06	27.468	0.00073118	0.00084308	0.00023367	1167.5	8.4096e-06	9.6955e-06	1281.2	244.6	8.5857e-06	8.7632e-06	309.74	87.06	68.432	20.126	8.1083e-06	28.159	404.547	247.462	258.687	152.287	234.150	270.107	152.182	160.006	301.519	285.120	159.308	166.260	166.447	174.297	244.612	173.348	-8191	255	
35704.152	1	1	0	0	0.13378	0.074704	0.1477	0.11208	0.11145	0.050651	0.19033	0.18767	0.043813	0.32156	0.16193	0.3367	0.12349	0.16202	0.11944	0.18167	-1.5688	-2.2646	-1.9167	-2.2958	-2.1458	-1.8125	-2.4437	-2.3063	-1.9479	-2.2208	-1.8958	-1.9875	-2.1271	-1.9	-2.2542	-2.0479	298.758	240.442	386.908	182.238	246.279	218.590	369.143	378.972	346.259	167.353	481.018	452.196	428.397	258.232	454.933	195.764	0.00091097	0.00041851	0.00010563	1168.8	5.9893e-06	3.477e-06	1287.9	244.52	6.3003e-06	2.148e-06	309	86.879	68.04	19.713	3.8066e-06	27.245	0.00070215	0.00083901	0.00022058	1165.8	8.5742e-06	9.6007e-06	1280.1	244.64	8.9267e-06	9.3288e-06	310.32	87.283	68.436	20.134	8.4702e-06	28.126	407.016	249.194	206.849	152.284	246.533	295.085	152.054	159.893	273.059	296.374	159.543	166.245	166.610	173.932	283.861	173.470	-8191	255	
35704.254	1	1	0	0	0.13146	0.1299	0.25206	0.20419	0.331	0.22516	0.062008	0.43566	0.34509	0.26304	0.11289	0.18437	0.17793	0.13224	0.0075659	0.19633	-1.4958	-2.3812	-1.9146	-2.1042	-2.1521	-2.0167	-2.4896	-2.0792	-1.7583	-2.3271	-2.0417	-2.0187	-2.3042	-1.8333	-2.1042	-2.3521	474.965	395.951	446.171	418.067	420.180	440.110	489.818	451.323	364.950	147.068	420.646	185.665	444.480	489.362	160.264	442.528	0.00092978	0.00037336	0.00010248	1175.4	6.3569e-06	4.0104e-06	1281.4	244.7	9.082e-06	5.2309e-06	308.21	86.165	67.894	19.584	3.4807e-06	27.534	0.00072853	0.00081779	0.00023163	1169.3	8.6624e-06	9.6451e-06	1279	245.03	8.736e-06	9.2811e-06	310.07	87.021	68.457	20.061	7.9934e-06	28.151	403.893	245.129	258.858	152.438	257.689	276.001	152.234	159.859	287.816	293.709	159.806	166.174	166.692	173.836	270.330	173.043	-8191	255	
35704.371	1	1	0	0	0.25795	0.27898	0.038658	0.11407	0.096387	0.25407	0.23593	0.41053	0.049589	0.22398	0.14717	0.11442	0.29772	0.038888	0.094072	0.17862	-1.2896	-2.1708	-1.8625	-2.0521	-2.3396	-1.8833	-2.3375	-2.2771	-1.8062	-2.2313	-2.2292	-2.1833	-2.2104	-2.0583	-2.3479	-2.3812	419.487	366.617	261.762	479.308	186.555	416.673	451.093	430.838	251.077	327.354	438.428	265.877	495.801	414.761	485.841	283.234	0.00098756	0.00014678	5.3381e-05	1172.9	6.048e-06	2.3744e-06	1285.1	244.97	4.593e-06	3.7645e-06	304.76	86.487	67.875	19.608	4.2388e-06	27.319	0.00067489	0.00078054	0.00021422	1166.7	7.9529e-06	8.2953e-06	1278.4	244.03	7.7585e-06	8.3758e-06	308.25	86.983	68.182	20.077	7.6082e-06	27.999	405.810	285.194	273.912	152.502	274.926	296.143	152.183	159.868	255.058	294.758	159.492	166.086	166.491	174.003	276.273	173.232	-8191	255	
35704.469	1	1	0	0	0.16541	0.031458	0.11401	0.17006	0.27626	0.11481	0.13139	0.071657	0.20532	0.16397	0.18337	0.16429	0.12473	0.34885	0.079551	0.098417	-1.5625	-2.1333	-2.0229	-1.9854	-2.2979	-2.2604	-2.175	-2.3208	-1.9917	-2.3479	-2.1312	-1.9188	-2.2875	-2.0938	-2.0771	-2.2125	347.780	167.540	465.594	493.391	236.158	323.019	349.135	380.712	480.171	192.348	300.162	404.884	183.887	221.687	283.029	439.356	0.0010393	0.0002709	9.2295e-05	1164.3	7.6647e-06	2.3295e-06	1281.4	242.68	5.2276e-06	4.0671e-06	305.22	86.523	68.161	19.685	4.9113e-06	27.176	0.0006599	0.00069834	0.0002068	1160.9	7.9088e-06	8.3496e-06	1273.8	243.37	7.8163e-06	8.1265e-06	309.43	87.017	68.358	20.057	7.9079e-06	28.033	408.063	280.777	229.813	152.400	252.904	304.692	152.118	159.737	252.018	267.939	159.425	166.104	166.981	173.978	276.546	173.289	-8191	255	
35704.562	1	1	0	0	0.25844	0.2116	0.076766	0.14	0.15865	0.15309	0.17532	0.27138	0.099378	0.072528	0.21153	0.086309	0.29978	0.085159	0.13273	0.13791	-1.6	-2.0208	-2.0833	-1.9417	-2.3042	-2.0083	-2.1312	-2.3354	-1.5688	-2.2417	-2.1458	-1.7604	-2.2125	-2.125	-2.0646	-2.4292	481.188	239.672	429.352	148.532	365.911	147.657	305.847	473.343	174.808	451.287	462.987	356.012	275.012	499.672	228.176	501.644	0.0010926	0.00045868	4.7275e-05	1162.3	7.4526e-06	2.0812e-06	1284.2	243.89	8.6071e-06	1.728e-06	307.01	86.399	67.693	19.568	6.2778e-06	27.419	0.00064369	0.00077223	0.00019998	1159.4	7.6489e-06	7.9547e-06	1273.4	243.51	7.4613e-06	8.182e-06	309.28	86.887	68.158	20.022	7.597e-06	28.056	408.156	266.510	255.937	152.521	257.629	303.947	152.345	160.089	292.140	270.773	159.626	166.198	166.366	173.839	261.031	173.478	-8191	255	
35704.660	1	1	0	0	0.079699	0.095689	0.26448	0.2216	0.25623	0.18866	0.10311	0.094015	0.037726	0.24899	0.067289	0.096039	0.16911	0.32234	0.12682	0.30468	-1.3625	-2.0625	-2.1979	-2.0563	-2.2833	-2.1167	-2.0375	-2.3125	-2.1021	-2.1063	-2.2958	-1.8354	-2.1958	-2.0854	-1.7938	-2.2271	217.110	400.981	312.580	157.854	489.695	154.811	463.901	262.176	403.816	386.484	449.148	433.754	355.985	456.623	230.065	493.875	0.00097284	0.0004209	6.7222e-05	1163.9	7.6838e-06	3.5532e-06	1278.7	244.39	6.2488e-06	4.1491e-06	306.69	85.974	68.256	19.531	5.8509e-06	27.244	0.00064237	0.00074087	0.00020277	1160.1	7.6016e-06	8.0702e-06	1271.1	243.62	7.2549e-06	8.4799e-06	309.12	86.836	68.295	20.051	7.5236e-06	28.1	407.434	220.012	226.353	152.524	263.522	266.339	152.287	159.773	266.104	275.833	159.458	166.205	166.196	174.130	263.618	173.324	-8191	255	
35704.754	1	1	0	0	0.067968	0.22766	0.22065	0.17553	0.1687	0.26336	0.36456	0.31904	0.038022	0.27093	0.11181	0.15142	0.11132	0.092099	0.10283	0.14849	-1.6208	-2.1292	-2.2958	-1.9438	-2.1333	-2.3354	-1.975	-2.2812	-2.0604	-1.9208	-2.3	-1.9292	-1.8896	-2.2333	-1.9	-2.1271	149.745	149.616	272.923	464.109	473.787	465.125	433.984	318.183	392.039	206.231	233.212	401.366	469.858	424.782	427.960	230.227	0.001004	0.00038574	5.2114e-05	1163.8	5.6207e-06	1.9252e-06	1286.1	243.42	4.3823e-06	1.1451e-06	307.72	86.466	68.174	19.527	2.7921e-06	27.082	0.00064517	0.00074	0.00020512	1158.8	7.5977e-06	8.5728e-06	1273	243.92	7.5637e-06	8.3057e-06	308.79	86.936	68.327	20.037	7.7775e-06	28.042	406.424	247.758	235.509	152.463	236.506	326.099	152.220	160.121	268.486	260.907	159.852	166.250	166.579	173.819	252.539	173.264	-8191	255	
35704.852	1	1	0	0	0.17635	0.22464	0.025958	0.27944	0.070537	0.28594	0.14972	0.19466	0.097761	0.15577	0.092826	0.24161	0.20713	0.13082	0.39235	0.13105	-1.6313	-1.9271	-2.3417	-2.0646	-2.2708	-2.2354	-2.1646	-2.3354	-1.8729	-1.9458	-2.5312	-2.0417	-1.9188	-2.175	-1.9	-2.2625	475.496	263.421	246.231	458.010	456.593	363.481	283.212	488.193	425.655	307.576	307.432	174.856	256.598	365.183	221.354	210.479	0.00094899	0.00043636	5.8558e-05	1166	6.0607e-06	3.1303e-06	1279.2	243.05	5.6036e-06	1.6364e-06	308.47	86.413	67.552	19.645	4.2715e-06	27.561	0.00062542	0.00077361	0.00020132	1160.5	7.4166e-06	8.167e-06	1272.3	243.41	7.6941e-06	8.1996e-06	309.66	86.852	68.032	19.997	7.6575e-06	28.081	408.611	219.906	263.438	152.361	252.178	264.706	152.013	159.927	289.671	278.344	159.653	166.183	166.961	173.486	285.075	173.736	-8191	255	
35704.973	1	1	0	0	0.17129	0.089915	0.17678	0.1667	0.10672	0.15173	0.22604	0.16951	0.28272	0.073618	0.16631	0.093747	0.20784	0.2773	0.27386	0.11184	-1.7708	-2.0896	-2.0354	-2.2	-2.0875	-2.0917	-1.9354	-2.2917	-2.2604	-1.9625	-2.3208	-2.0833	-1.9937	-2.25	-1.9417	-2.1958	253.330	175.513	233.372	165.240	282.077	211.545	240.169	298.119	382.546	496.417	425.816	317.830	214.467	219.260	485.460	376.825	0.0010834	0.0002793	0.00013499	1164	3.4553e-06	2.5316e-06	1275.2	243.84	7.1876e-06	3.6787e-06	306.87	86.333	67.834	19.605	5.5053e-06	27.369	0.00064566	0.00072233	0.00019095	1158.6	7.5969e-06	8.404e-06	1269.7	243.26	7.3441e-06	8.5675e-06	308.3	86.813	68.252	20.048	7.7602e-06	28.066	407.359	244.677	229.707	152.457	251.214	277.175	152.420	160.102	272.786	273.316	159.178	166.357	166.556	174.006	285.248	173.417	-8191	255	
35705.066	1	1	0	0	0.16549	0.30157	0.13816	0.44226	0.12339	0.10969	0.39489	0.12584	0.12062	0.18586	0.20771	0.06873	0.21909	0.059325	0.072365	0.16973	-1.7021	-1.8167	-2.25	-2.1229	-1.8417	-2.3354	-2.0187	-2.1229	-2.1979	-1.9479	-2.1083	-2.0792	-1.9979	-2.2146	-2.0521	-2.0354	444.315	473.144	268.959	493.862	406.252	173.474	463.238	179.301	230.114	426.942	454.072	495.650	153.715	461.771	330.530	445.090	0.00098449	0.00026425	9.7198e-05	1162	6.1816e-06	4.4094e-06	1273.9	243.9	5.8913e-06	2.9403e-06	306.56	86.108	67.925	19.598	4.4768e-06	27.234	0.00063156	0.00075568	0.00019124	1158.2	7.7481e-06	7.9774e-06	1270	243.25	7.2508e-06	8.0964e-06	308.29	86.744	68.119	20.015	7.3491e-06	27.999	406.401	222.074	231.767	152.402	256.134	267.480	152.169	159.637	283.818	310.572	159.445	165.847	166.702	173.771	284.102	173.142	-8191	255	
35705.141	1	1	0	0	0.11628	0.043511	0.051489	0.5387	0.25408	0.25146	0.23597	0.16995	0.32438	0.31971	0.28755	0.058375	0.18166	0.17437	0.095333	0.16412	-1.7875	-1.9792	-2.2333	-2.2375	-1.8375	-2.3271	-2.0375	-2.225	-2.0375	-1.8813	-2.125	-2.1083	-1.7854	-2.1083	-2.075	-2.1833	393.918	210.520	387.959	446.837	318.481	338.107	455.394	411.709	432.277	479.365	166.891	153.548	342.929	198.659	177.300	469.070	0.00092343	0.00034124	7.4097e-05	1165.4	7.4154e-06	2.8308e-06	1275.3	242.92	5.7433e-06	6.8837e-07	306.46	85.976	67.755	19.569	3.4808e-06	27.393	0.00061933	0.00072034	0.00018485	1158.7	7.5386e-06	7.85e-06	1269.7	243.31	7.1484e-06	7.6729e-06	307.75	86.53	68.216	19.997	7.2109e-06	28.085	404.229	231.300	245.174	152.413	249.497	318.940	152.382	159.878	263.501	303.495	159.343	166.216	166.103	173.964	276.510	173.190	-8191	255	
35705.234	1	1	0	0	0.18353	0.29475	0.1229	0.2865	0.30499	0.115	0.069897	0.22488	0.19438	0.31259	0.095719	0.22862	0.068892	0.036402	0.24522	0.26478	-1.9896	-1.8771	-2.0021	-2.0854	-2.05	-2.1813	-2.1188	-1.9958	-2.3042	-1.8479	-2.2354	-2.1188	-1.9062	-2.2542	-2.0583	-2.1937	221.713	362.187	380.126	471.309	414.463	196.715	159.879	186.395	230.045	200.768	385.542	208.780	279.451	259.352	257.962	427.982	0.0010511	0.00033451	0.00013426	1161.5	5.7993e-06	3.797e-06	1276.6	244.19	6.7402e-06	3.3182e-06	307.75	85.801	68.214	19.518	4.4839e-06	27.409	0.00063298	0.00070241	0.00020005	1158.1	7.7591e-06	7.7523e-06	1268.5	243.92	7.3358e-06	7.9085e-06	308.46	86.749	68.213	19.98	7.0831e-06	28.061	407.508	236.661	267.500	152.356	246.699	306.842	152.249	159.859	272.759	284.286	159.517	166.356	166.774	174.132	294.426	173.309	-8191	255	
35705.332	1	1	0	0	0.32467	0.16733	0.20009	0.1189	0.094644	0.2575	0.32419	0.21644	0.099836	0.19913	0.1724	0.21139	0.055621	0.078727	0.0216	0.046775	-1.6688	-1.8708	-2.1854	-2.2979	-1.8083	-2.1854	-2.4125	-2.1208	-2.1917	-1.9312	-2.1229	-2.1417	-2.0333	-2.2208	-1.9062	-2.1604	208.425	257.664	338.131	433.059	419.049	341.833	393.245	438.046	401.705	298.924	142.153	499.435	254.177	182.859	249.016	315.617	0.0009857	0.00041585	7.8658e-05	1158.2	4.3815e-06	3.1234e-06	1269.9	243.18	4.1857e-06	1.9254e-06	306.31	86.34	67.641	19.536	2.0414e-06	27.369	0.0006041	0.00071315	0.00020032	1154.4	7.6087e-06	7.4758e-06	1267.4	243.29	7.1319e-06	7.779e-06	308.24	86.686	68.134	20.011	7.0434e-06	28.058	401.792	226.165	228.682	152.346	229.823	356.443	152.145	159.755	299.037	289.103	159.708	165.955	166.473	173.851	324.690	173.185	-8191	255	
35705.449	1	1	0	0	0.011592	0.13478	0.20582	0.095848	0.064794	0.074829	0.21363	0.16555	0.095461	0.084346	0.15421	0.097494	0.016708	0.07899	0.17365	0.19985	-1.8146	-1.9021	-1.9979	-2.2833	-1.9104	-2.1083	-2.0708	-2.0625	-2.3208	-2.0333	-2.2125	-2.1375	-1.8917	-2.0625	-2.1021	-2.0125	352.455	362.055	224.724	439.547	424.560	460.068	394.662	485.022	242.871	468.717	439.662	254.101	202.769	172.129	426.523	442.089	0.00097538	0.00038635	7.7977e-05	1163.2	6.9218e-06	6.0408e-06	1278.2	243.21	7.727e-06	5.1439e-06	306.12	86.029	68.197	19.439	3.4308e-06	27.2	0.00060656	0.00069219	0.00020106	1156.2	7.3741e-06	7.618e-06	1267.1	243	7.2351e-06	8.1548e-06	307.71	86.638	68.326	19.991	7.1583e-06	28.007	402.136	250.463	223.340	152.364	233.677	282.000	152.268	159.993	262.682	279.123	159.769	166.361	166.537	174.068	263.262	173.023	-8191	255	
35705.547	1	1	0	0	0.051991	0.28959	0.17721	0.17738	0.26365	0.069732	0.17985	0.23722	0.21741	0.28732	0.16476	0.36975	0.2344	0.1886	0.10711	0.069732	-1.6562	-2.0062	-2.0208	-2.5354	-1.8208	-2.1583	-2.225	-1.8229	-2.2333	-2.0417	-1.9979	-2.1854	-1.7479	-2.0312	-2.0792	-1.9104	317.168	316.082	462.237	414.504	176.048	328.170	408.662	400.417	148.133	414.960	331.848	461.939	477.798	470.395	429.769	160.932	0.00098564	0.0004723	5.5344e-05	1166	6.0602e-06	4.1303e-06	1274.8	243.1	1.4207e-05	2.3849e-06	305.46	86.558	67.948	19.555	4.7696e-06	27.477	0.00061392	0.00069791	0.00019602	1156.6	7.3174e-06	7.7029e-06	1266.8	243.12	7.1716e-06	7.8462e-06	307.83	86.921	68.072	20.003	7.2351e-06	28.033	404.000	213.565	228.120	152.388	242.148	238.914	152.270	160.016	280.317	313.194	159.259	166.026	166.582	174.270	297.052	173.077	-8191	255	
35705.645	1	1	0	0	0.11286	0.15775	0.17007	0.28834	0.093839	0.26538	0.19391	0.13452	0.20128	0.094302	0.094154	0.12503	0.14116	0.35032	0.20026	0.20342	-1.8396	-1.9688	-1.8167	-2.5958	-1.8375	-2.1917	-2.3917	-1.9146	-2.2833	-2.1646	-2.0167	-2.2458	-1.8167	-2.2667	-2.3479	-1.7979	236.520	218.252	167.852	501.855	270.405	291.718	378.726	416.480	370.127	200.796	441.537	373.108	459.689	152.848	323.588	391.396	0.00097547	0.00034946	0.00010058	1162.3	5.0838e-06	2.1111e-06	1273.7	242.99	7.5319e-06	1.6602e-06	306.2	86.407	67.59	19.497	6.3377e-06	27.281	0.00061122	0.0006973	0.00019936	1155.9	7.2071e-06	8.1314e-06	1267.3	243.1	7.4704e-06	8.2852e-06	307.95	86.6	67.872	19.96	7.3457e-06	27.959	408.094	250.976	208.796	152.278	247.296	308.661	152.297	160.066	268.626	332.383	159.576	165.709	166.221	174.382	253.291	173.139	-8191	255	
35705.766	1	1	0	0	0.25121	0.11545	0.18434	0.12242	0.23043	0.14706	0.33929	0.21047	0.073108	0.092151	0.19622	0.27829	0.10089	0.31325	0.15534	0.051143	-1.6542	-1.9917	-1.7917	-2.325	-1.8687	-2.0625	-2.4062	-1.8333	-2.0104	-2.2313	-1.8104	-2.3417	-2.0604	-1.9729	-2.3083	-1.9021	472.971	354.786	388.999	450.347	328.643	465.248	200.194	302.275	211.948	342.066	332.484	226.946	453.617	467.863	270.680	202.102	0.0010059	0.00043746	8.5528e-05	1160.2	6.676e-06	2.136e-06	1273.5	242.79	6.6777e-06	3.0967e-06	307.57	86.093	67.986	19.45	3.9685e-06	27.068	0.00061334	0.00073022	0.00020092	1156	7.1898e-06	8.4257e-06	1268.5	242.56	7.3969e-06	8.2804e-06	307.71	86.632	68.041	19.942	7.4122e-06	27.945	409.055	239.683	234.057	152.162	256.968	278.886	152.043	159.852	282.843	290.606	159.351	166.114	166.545	173.703	286.949	173.282	-8191	255	
35705.836	1	1	0	0	0.10668	0.2993	0.18244	0.18144	0.26871	0.25825	0.45893	0.24597	0.069832	0.50057	0.31468	0.40381	0.20593	0.10931	0.212	0.13775	-1.6833	-2.0187	-1.625	-2.5083	-1.8792	-1.9979	-2.4562	-1.8687	-2.1083	-2.1979	-1.8021	-2.2646	-2.1958	-2.0896	-2.3104	-1.9104	336.984	175.320	223.403	358.591	192.037	445.806	369.484	435.108	302.249	423.856	396.067	184.399	428.763	298.706	220.923	240.211	0.0011013	0.00037253	0.0001116	1161.4	5.7386e-06	2.2206e-06	1274.8	244.43	6.7802e-06	1.795e-06	303.45	86.495	67.85	19.573	4.4305e-06	27.283	0.00066762	0.00074546	0.00021139	1155.4	7.7339e-06	7.8885e-06	1266.9	243.33	7.6132e-06	8.0341e-06	307.52	86.565	68.124	19.992	7.0857e-06	28.027	404.924	188.741	241.943	152.168	253.352	270.936	152.365	159.748	280.260	264.200	159.293	165.992	166.365	174.348	315.488	173.218	-8191	255	
35705.934	1	1	0	0	0.085356	0.13433	0.19957	0.34811	0.098315	0.092847	0.18226	0.2311	0.1469	0.26522	0.1827	0.075048	0.076782	0.20727	0.14013	0.18589	-1.6458	-2.2021	-1.7021	-2.3917	-2.1188	-1.7792	-2.3146	-1.8667	-2.1146	-2.1292	-1.9354	-2.1458	-2.0729	-1.8937	-2.3417	-1.8625	205.799	384.414	321.789	478.991	149.831	315.544	403.058	476.499	323.677	424.403	419.301	186.154	336.894	323.230	472.606	456.388	0.00086639	0.00019583	8.7025e-05	1158.8	5.1011e-06	4.1031e-06	1277.4	242.94	5.7884e-06	3.7939e-06	306.75	85.878	67.635	19.405	4.6259e-06	27.356	0.00062773	0.00073706	0.00019878	1154.1	7.5575e-06	8.5748e-06	1266.5	242.54	7.482e-06	8.4001e-06	308.26	86.582	68.01	19.969	7.3483e-06	28.035	407.448	268.545	232.559	152.177	269.201	309.232	152.243	159.825	282.263	270.022	159.573	166.193	166.496	174.435	306.078	173.490	-8191	255	
35706.051	1	1	0	0	0.075974	0.1712	0.050831	0.37565	0.13984	0.085417	0.10954	0.11472	0.29689	0.20446	0.056177	0.051017	0.40784	0.36382	0.19164	0.06161	-1.6688	-2.2208	-1.5896	-2.2083	-2.15	-2.0354	-2.4125	-2.1167	-1.9292	-2.2604	-2.0271	-2.3688	-2.1937	-1.8312	-2.1937	-2.0021	373.971	166.072	271.006	157.285	147.587	275.618	194.135	347.434	148.049	197.453	373.935	340.715	497.908	456.043	480.695	286.933	0.00089943	0.00021811	4.8566e-05	1162	3.5234e-06	3.0156e-06	1276.9	242.91	6.6842e-06	3.05e-06	306.26	86.012	67.987	19.628	4.6615e-06	26.978	0.00061653	0.0007284	0.00020382	1155.9	7.6331e-06	8.2776e-06	1268.3	242.79	7.6174e-06	7.5152e-06	307.96	86.46	68.279	19.966	7.1971e-06	27.931	402.207	243.262	195.916	152.235	266.547	302.138	152.245	160.105	292.364	333.046	159.439	166.363	166.410	174.566	318.403	173.036	-8191	255	
35706.148	1	1	0	0	0.15507	0.26979	0.17385	0.44148	0.15793	0.10682	0.15305	0.28341	0.097629	0.11052	0.22297	0.23658	0.11774	0.16834	0.10102	0.19954	-1.5854	-2.15	-1.8708	-2.3854	-2.1917	-1.8479	-2.2062	-2.0833	-1.9896	-2.1417	-1.7687	-2.1396	-2.0938	-1.9188	-2.1146	-1.9729	422.682	328.555	193.304	145.324	467.508	225.800	469.946	496.930	254.663	320.646	473.360	210.935	241.857	308.954	362.510	184.497	0.00098708	0.00027912	9.2543e-05	1162.4	5.5766e-06	3.1138e-06	1278.1	243.13	5.811e-06	1.038e-06	305.12	86.423	67.582	19.534	6.8073e-06	27.211	0.00064413	0.00072398	0.00019854	1156.2	7.7765e-06	8.0337e-06	1269.3	242.85	7.5414e-06	7.3887e-06	307.84	86.696	67.975	19.924	7.369e-06	27.904	399.371	246.178	244.498	152.500	209.353	306.001	152.312	160.054	292.879	311.984	159.466	166.023	166.466	173.928	270.256	173.321	-8191	255	
35706.246	1	1	0	0	0.18377	0.43939	0.16258	0.32527	0.27814	0.16293	0.39053	0.23786	0.25721	0.27445	0.14225	0.15557	0.26911	0.11853	0.15061	0.074838	-1.3458	-2.1958	-1.8104	-2.1188	-2.3146	-1.9167	-2.325	-2.2333	-1.7542	-2.2313	-1.8083	-1.9542	-2.1417	-1.9354	-2.1458	-2.2667	228.830	458.441	160.577	181.319	235.089	160.889	452.785	152.979	247.115	338.262	498.082	348.127	149.405	419.475	305.310	485.354	0.00098842	0.00024755	7.5328e-05	1158	5.249e-06	2.9092e-06	1272.4	242.38	9.8601e-06	3.4153e-06	305.6	86.087	67.547	19.431	4.1618e-06	27.251	0.0006431	0.00069487	0.0001934	1152.8	7.2418e-06	7.9794e-06	1266.1	242.63	7.4217e-06	7.5084e-06	308.11	86.57	68.06	19.952	7.1643e-06	28.009	408.267	202.635	192.979	152.404	264.217	271.321	151.980	160.141	273.708	275.825	159.576	166.351	166.636	174.054	269.871	173.142	-8191	255	
35706.363	1	1	0	0	0.08847	0.1512	0.23855	0.096189	0.1383	0.16959	0.14003	0.048408	0.026885	0.11774	0.077398	0.23598	0.31585	0.20995	0.1674	0.081452	-1.4167	-2.1021	-2.1562	-2.1292	-2.3854	-1.7583	-2.3104	-2.2458	-1.8708	-2.2833	-2.0333	-1.9333	-2.1333	-1.85	-2.1521	-2.2271	330.370	303.268	439.748	433.235	490.252	318.504	325.234	376.702	402.768	387.753	428.288	490.287	386.819	381.265	345.220	340.529	0.00095473	0.00019608	6.915e-05	1160	6.488e-06	3.8447e-06	1271.2	242.79	8.5567e-06	3.7965e-06	306.38	85.844	67.92	19.482	4.5958e-06	27.275	0.00062827	0.00068491	0.00019004	1154.5	6.985e-06	8.2005e-06	1265.7	242.44	7.2847e-06	7.4179e-06	308.04	86.633	68.253	19.95	7.128e-06	28.051	404.653	218.412	203.860	152.371	250.471	274.088	152.109	160.074	268.946	300.785	159.912	166.605	166.497	173.907	276.870	173.148	-8191	255	
35706.434	1	1	0	0	0.19535	0.24631	0.26427	0.033826	0.12134	0.19754	0.43407	0.084203	0.098874	0.28556	0.29219	0.15095	0.31838	0.20677	0.056294	0.24661	-1.2875	-2.0792	-1.8188	-2.1083	-2.2146	-2.0104	-2.1708	-2.3146	-1.8708	-2.1729	-2.0625	-1.9188	-2.275	-1.9562	-2.0542	-2.35	285.692	395.357	449.347	312.087	478.345	446.023	461.477	311.471	303.041	316.839	430.122	238.347	152.637	483.895	245.366	465.680	0.0009838	0.00030623	4.2943e-05	1157.1	7.1423e-06	1.9766e-06	1274.6	243.62	6.5254e-06	5.3231e-06	306.72	86.202	68.37	19.592	6.9091e-06	27.033	0.00061338	0.00068006	0.00018721	1152.9	6.9811e-06	7.462e-06	1266.5	242.85	7.1443e-06	7.5016e-06	307.88	86.598	68.168	20.017	7.7974e-06	27.955	403.711	236.969	193.792	152.487	264.656	264.016	152.212	159.950	308.778	318.921	159.469	166.184	166.539	174.063	290.071	173.596	-8191	255	
35706.531	1	1	0	0	0.18611	0.018392	0.077078	0.3519	0.024167	0.10645	0.033249	0.18155	0.1403	0.12876	0.26638	0.076812	0.23633	0.07869	0.11434	0.072614	-1.3333	-2.0771	-2.05	-1.9562	-2.2521	-2.025	-2.1958	-2.425	-1.9312	-2.3167	-2.1063	-1.9917	-2.1792	-2.0187	-1.9583	-2.2354	192.370	435.034	257.833	479.757	237.279	349.303	341.102	432.069	312.735	283.982	157.072	442.930	236.253	418.516	426.211	389.619	0.0010081	0.00018232	0.00015574	1157.6	7.9778e-06	5.9647e-06	1273.6	243.32	9.7495e-06	3.0969e-06	307.32	86.639	67.704	19.443	3.7008e-06	27.273	0.00061255	0.00070432	0.00020039	1152.9	6.8583e-06	8.1838e-06	1266.9	242.74	7.1328e-06	7.9241e-06	308.27	86.661	67.875	19.935	7.3854e-06	28	400.311	210.283	254.480	152.395	262.192	277.965	152.107	159.961	249.765	263.949	159.658	166.094	166.536	174.117	286.807	173.269	-8191	255	
35706.652	1	1	0	0	0.018477	0.18834	0.14751	0.39564	0.15155	0.24941	0.14059	0.18044	0.23561	0.28816	0.2656	0.27983	0.34177	0.2339	0.20853	0.1635	-1.6771	-1.9188	-2.1875	-1.8583	-2.3167	-2.2062	-1.9708	-2.3771	-2.0021	-2.025	-2.2979	-1.8104	-2.3917	-2.0687	-1.8167	-2.4271	282.900	222.919	229.406	437.438	348.273	208.195	143.430	438.559	464.498	443.802	416.038	326.730	453.181	144.031	279.390	399.070	0.00090529	0.00036676	6.6665e-05	1159.7	6.563e-06	2.6995e-06	1271.1	242.26	1.0617e-05	4.6009e-06	306.55	85.987	68.17	19.339	4.3721e-06	26.985	0.00059693	0.00067729	0.00019021	1154.4	7.5977e-06	7.8293e-06	1265.6	242.76	7.1707e-06	7.7849e-06	308.13	86.68	68.158	19.926	7.2334e-06	27.924	403.813	222.935	235.824	152.733	265.345	278.067	152.267	159.853	274.601	279.987	159.522	166.319	166.588	173.964	293.515	173.162	-8191	255	
35706.746	1	1	0	0	0.24154	0.29418	0.12953	0.24212	0.037274	0.23687	0.33275	0.23755	0.03579	0.046481	0.24615	0.11449	0.098522	0.0030771	0.048732	0.1462	-1.4271	-2.2562	-2.1167	-1.8604	-2.1875	-2.2	-1.9125	-2.3312	-1.8771	-1.9792	-2.2646	-1.8854	-2.0542	-2.0479	-2.0354	-2.4	164.015	320.621	400.105	499.079	164.132	173.743	402.163	324.014	261.226	486.837	143.857	404.925	150.478	149.630	278.327	149.146	0.00094593	1.7245e-05	0.00010115	1159.3	5.2894e-06	1.7307e-06	1274.8	242.95	8.8805e-06	5.1537e-06	306.92	85.584	67.718	19.693	5.656e-06	27.224	0.00063446	0.0007109	0.00019484	1153.3	6.9307e-06	7.8628e-06	1266.8	242.63	7.1534e-06	7.852e-06	308.17	86.522	68.089	19.998	7.0149e-06	28.003	403.767	252.604	236.503	152.533	244.722	326.615	152.125	160.029	280.145	308.400	159.804	166.351	166.706	173.577	299.370	173.555	-8191	255	
35706.844	1	1	0	0	0.20406	0.2674	0.17862	0.2723	0.074696	0.15407	0.36888	0.074273	0.35565	0.16943	0.13764	0.071799	0.061868	0.28327	0.12944	0.2216	-1.3771	-2.0583	-2.2979	-1.9604	-2.0229	-2.1104	-2.0271	-2.2542	-2.2562	-1.9708	-2.4062	-1.925	-2.1354	-2.1562	-1.85	-2.2854	229.905	437.036	253.803	418.311	393.910	425.661	470.646	445.050	374.409	350.305	395.098	393.262	344.584	377.647	214.770	314.619	0.00096601	0.00031098	6.4147e-05	1158.7	4.3652e-06	3.8763e-06	1272	242.58	5.7511e-06	2.2563e-06	305.66	86.001	67.62	19.548	3.9734e-06	27.403	0.00060837	0.00068093	0.00018252	1153	7.2473e-06	7.6624e-06	1264.2	242.27	7.4399e-06	7.6038e-06	307.98	86.57	67.919	19.973	7.1919e-06	28.088	406.839	224.853	237.931	152.408	259.146	289.491	152.155	159.894	273.604	338.488	159.365	166.261	166.490	174.194	318.920	173.121	-8191	255	
35706.941	1	1	0	0	0.32918	0.1223	0.030414	0.19275	0.065117	0.15501	0.26449	0.14753	0.18893	0.076599	0.21596	0.12108	0.0739	0.037636	0.13796	0.079722	-1.8	-1.8271	-2.2125	-2.1917	-2.0542	-2.0833	-2.1104	-2.3	-2.0229	-1.7833	-2.3521	-1.8417	-2.0875	-2.2375	-1.9208	-2.0854	294.390	224.165	443.498	438.543	189.599	380.719	192.338	286.860	336.199	310.170	313.970	168.608	423.891	356.687	309.506	384.745	0.00098887	0.00031455	8.3253e-05	1159.2	5.1152e-06	4.9726e-06	1269.7	241.61	8.7676e-06	4.3091e-06	306.82	86.215	68.124	19.599	4.0639e-06	27.228	0.00062198	0.00070085	0.00018183	1152.2	7.1e-06	7.5449e-06	1263.9	242.35	7.0915e-06	7.4782e-06	308.05	86.554	68.023	19.982	6.97e-06	28.014	402.943	236.293	204.652	152.419	237.589	296.324	152.297	159.786	301.861	306.535	159.411	165.940	166.779	173.936	305.946	173.468	-8191	255	
35707.035	1	1	0	0	0.06945	0.16158	0.096143	0.1306	0.15551	0.11252	0.23485	0.20027	0.23715	0.083417	0.19019	0.11122	0.17042	0.38042	0.13267	0.20391	-1.6562	-1.7563	-2.2042	-2.0854	-2.0479	-2.35	-2.1375	-2.325	-2.1	-1.8646	-2.2479	-2.2417	-1.9562	-2.3083	-1.9167	-2.1937	280.988	394.705	361.231	146.849	275.021	369.724	180.222	391.733	144.783	349.374	472.516	182.595	426.198	278.074	342.485	456.846	0.00093037	0.00038315	4.0052e-05	1158.9	3.6053e-06	3.7091e-06	1271.4	242.26	5.614e-06	2.3899e-06	305.63	86.195	68.005	19.508	2.8926e-06	27.255	0.00061785	0.00068812	0.00017916	1151.8	7.2929e-06	7.4136e-06	1264.8	242.23	7.0799e-06	7.413e-06	308.15	86.408	67.909	19.964	6.8188e-06	27.967	403.571	247.854	277.553	152.336	235.028	306.424	152.198	159.955	266.823	271.752	159.686	166.024	166.809	173.973	281.791	173.143	-8191	255	
35707.133	1	1	0	0	0.10053	0.17161	0.2978	0.18424	0.12541	0.34704	0.058454	0.21203	0.17937	0.18817	0.25609	0.077087	0.13439	0.14309	0.29858	0.21565	-1.8333	-1.7812	-2.2708	-2.4583	-1.9333	-2.175	-2.1312	-2.2917	-2.0271	-1.9646	-2.2292	-1.9917	-1.9333	-2.1625	-2.075	-2.1979	353.017	321.417	153.382	480.812	292.559	338.707	431.037	393.274	155.285	440.073	288.235	495.663	418.644	367.058	455.075	427.074	0.00094778	0.00029757	5.8741e-05	1153.7	6.9712e-06	3.2924e-06	1268	241.7	8.3271e-06	2.2389e-06	304.74	85.695	67.213	19.428	4.1754e-06	27.19	0.00059899	0.00066646	0.00018113	1151.8	7.0693e-06	7.4086e-06	1262	242.06	6.6878e-06	7.2582e-06	306.98	86.429	67.967	19.93	7.0745e-06	28.029	406.328	241.043	247.008	152.277	255.535	302.415	152.331	159.924	259.598	333.237	159.460	166.074	166.833	174.191	295.671	173.528	-8191	255	
35707.227	1	1	0	0	0.19156	0.13883	0.09733	0.19377	0.111	0.19675	0.19172	0.15845	0.14252	0.20242	0.33046	0.07683	0.14447	0.013953	0.060451	0.092811	-1.8375	-1.8687	-2.1271	-2.2146	-1.8729	-2.2104	-2.1083	-1.9375	-2.1396	-2.0187	-2.2354	-2.0458	-1.7437	-2.1771	-2.0125	-1.8625	486.577	331.974	201.973	457.106	145.002	187.788	456.588	484.151	160.259	172.051	318.773	149.567	473.434	298.474	411.033	320.766	0.00089815	0.00017435	7.926e-05	1157.1	6.7658e-06	4.59e-06	1271.1	242.24	5.0458e-06	2.8728e-06	306.28	85.813	68.249	19.553	4.9792e-06	27.269	0.00061545	0.00068084	0.00020099	1152.1	7.2591e-06	7.3652e-06	1264.4	242.42	6.7489e-06	7.3273e-06	307.61	86.563	68.012	19.974	6.9855e-06	28.011	405.021	208.905	264.492	152.150	233.846	278.961	152.222	160.322	268.599	312.346	159.435	166.326	166.587	174.050	302.352	172.895	-8191	255	
35707.324	1	1	0	0	0.026896	0.26005	0.046744	0.030806	0.072028	0.037615	0.21084	0.18815	0.099478	0.20413	0.13916	0.055241	0.1695	0.18628	0.17724	0.30098	-1.8188	-1.6833	-2.2062	-2.2875	-1.9396	-2.2812	-2.0271	-1.9271	-2.3958	-2.0729	-2.1583	-2.2604	-1.8188	-2.1583	-2.1042	-1.9562	257.938	191.414	402.801	226.585	498.829	236.199	487.566	191.191	480.896	261.072	377.774	451.724	174.522	312.707	262.081	325.256	0.00095132	0.0003424	6.3332e-05	1159.7	4.8969e-06	3.5235e-06	1272.8	242.88	7.2451e-06	2.84e-06	304.29	85.913	67.921	19.452	3.5363e-06	27.022	0.00060813	0.00069869	0.00018965	1152.1	7.0535e-06	7.4985e-06	1264.4	242.55	6.8314e-06	7.5658e-06	306.13	86.741	68.076	19.951	6.8672e-06	27.941	402.136	199.156	275.825	152.391	272.862	325.129	152.296	159.971	288.944	284.570	159.540	166.320	165.863	174.083	292.348	173.076	-8191	255	
35707.445	1	1	0	0	0.13984	0.19472	0.31419	0.13405	0.20486	0.30821	0.26181	0.33247	0.13644	0.12808	0.072619	0.28119	0.29748	0.028723	0.21713	0.12431	-1.8125	-1.9125	-1.9021	-2.2292	-1.7875	-2.0646	-2.1813	-1.9521	-2.3312	-2.0021	-2.025	-2.3167	-1.9292	-2.15	-2.2104	-1.9396	297.642	398.338	480.775	446.243	423.797	326.491	435.495	145.798	477.978	219.309	456.513	442.312	355.315	339.143	496.290	150.081	0.00087056	0.00034446	0.00014087	1157.2	3.6987e-06	1.6729e-06	1269.8	242.12	6.9342e-06	2.22e-06	305.68	86.05	67.491	19.515	4.2975e-06	27.123	0.00060071	0.00068665	0.00018303	1151.3	7.1205e-06	7.2882e-06	1262.9	242.53	6.8372e-06	7.708e-06	307.61	86.332	67.898	20.012	6.9182e-06	27.974	406.142	226.699	238.169	152.341	258.560	270.023	152.372	160.128	247.359	329.717	159.807	166.299	166.205	174.034	255.282	173.440	-8191	255	
#DATA ENDS
