BOXY.EXE: ISS Imagent and Oximeter Data Acquisition Program Version 0.80
Ascii Record File

#ACQ INFORMATION
2  Detector Channels 
16  External MUX Channels 
1  Auxiliary Channels 
5000  Waveform (CCF) Frequency (Hz)
1  Waveforms Skipped 
30  Waveforms Averaged 
1  Cycles Averaged 
16  Acquisitions per Waveform 
10.0806  Updata Rate (Hz) 

#FILE INFORMATION
TRUE -- External MUX Channel results are PARSED.
FALSE -- AC DC and Phase are NOT grouped.
TRUE -- Companion Program Settings File CREATED.
FALSE -- AC data not excluded
FALSE -- DC data not excluded
FALSE -- Phase data not excluded
FALSE -- Auxillary Chn. data not excluded
Tab delimiters

#CALIBRATION STATE
TRUE -- Waveform Calibration Values APPLIED.


#AUX CALIBRATION VALUES
Val Type	aux-1	

Term	1.0000e+00	
Factor	0.0000e+00	


#WF CALIBRATION VALUES
A = Detector Channel
Val Type	A-AC1	A-AC2	A-AC3	A-AC4	A-AC5	A-AC6	A-AC7	A-AC8	A-AC9	A-AC10	A-AC11	A-AC12	A-AC13	A-AC14	A-AC15	A-AC16	A-DC1	A-DC2	A-DC3	A-DC4	A-DC5	A-DC6	A-DC7	A-DC8	A-DC9	A-DC10	A-DC11	A-DC12	A-DC13	A-DC14	A-DC15	A-DC16	A-Ph1	A-Ph2	A-Ph3	A-Ph4	A-Ph5	A-Ph6	A-Ph7	A-Ph8	A-Ph9	A-Ph10	A-Ph11	A-Ph12	A-Ph13	A-Ph14	A-Ph15	A-Ph16	

Term	0.00000e+00	0.00000e+00	0.00000e+00	0.00000e+00	0.00000e+00	0.00000e+00	0.00000e+00	0.00000e+00	0.00000e+00	0.00000e+00	0.00000e+00	0.00000e+00	0.00000e+00	0.00000e+00	0.00000e+00	0.00000e+00	0.00000e+00	0.00000e+00	0.00000e+00	0.00000e+00	0.00000e+00	0.00000e+00	0.00000e+00	0.00000e+00	0.00000e+00	0.00000e+00	0.00000e+00	0.00000e+00	0.00000e+00	0.00000e+00	0.00000e+00	0.00000e+00	0.00000e+00	0.00000e+00	0.00000e+00	0.00000e+00	0.00000e+00	0.00000e+00	0.00000e+00	0.00000e+00	0.00000e+00	0.00000e+00	0.00000e+00	0.00000e+00	0.00000e+00	0.00000e+00	0.00000e+00	0.00000e+00	
Factor	1.00000e+00	1.00000e+00	1.00000e+00	1.00000e+00	1.00000e+00	1.00000e+00	1.00000e+00	1.00000e+00	1.00000e+00	1.00000e+00	1.00000e+00	1.00000e+00	1.00000e+00	1.00000e+00	1.00000e+00	1.00000e+00	1.00000e+00	1.00000e+00	1.00000e+00	1.00000e+00	1.00000e+00	1.00000e+00	1.00000e+00	1.00000e+00	1.00000e+00	1.00000e+00	1.00000e+00	1.00000e+00	1.00000e+00	1.00000e+00	1.00000e+00	1.00000e+00	X	X	X	X	X	X	X	X	X	X	X	X	X	X	X	X	

B = Detector Channel
Val Type	B-AC1	B-AC2	B-AC3	B-AC4	B-AC5	B-AC6	B-AC7	B-AC8	B-AC9	B-AC10	B-AC11	B-AC12	B-AC13	B-AC14	B-AC15	B-AC16	B-DC1	B-DC2	B-DC3	B-DC4	B-DC5	B-DC6	B-DC7	B-DC8	B-DC9	B-DC10	B-DC11	B-DC12	B-DC13	B-DC14	B-DC15	B-DC16	B-Ph1	B-Ph2	B-Ph3	B-Ph4	B-Ph5	B-Ph6	B-Ph7	B-Ph8	B-Ph9	B-Ph10	B-Ph11	B-Ph12	B-Ph13	B-Ph14	B-Ph15	B-Ph16	

Term	0.00000e+00	0.00000e+00	0.00000e+00	0.00000e+00	0.00000e+00	0.00000e+00	0.00000e+00	0.00000e+00	0.00000e+00	0.00000e+00	0.00000e+00	0.00000e+00	0.00000e+00	0.00000e+00	0.00000e+00	0.00000e+00	0.00000e+00	0.00000e+00	0.00000e+00	0.00000e+00	0.00000e+00	0.00000e+00	0.00000e+00	0.00000e+00	0.00000e+00	0.00000e+00	0.00000e+00	0.00000e+00	0.00000e+00	0.00000e+00	0.00000e+00	0.00000e+00	8.46578e+01	-1.29976e+02	-1.28913e+02	-1.82245e+02	-8.85818e+01	-6.99744e+01	-1.59545e+02	-1.62015e+02	-6.78612e+01	-6.70692e+01	-1.73581e+02	-1.72846e+02	-1.88869e+02	-1.78099e+02	-7.30646e+01	-1.50538e+02	
Factor	7.38116e-05	2.11506e-04	5.81731e-05	1.66666e-01	2.97355e-06	2.33124e-06	2.08068e-01	7.32009e-02	3.78836e-06	2.32691e-06	1.33904e-01	3.72556e-02	4.39331e-02	1.07740e-02	2.74621e-06	1.56278e-02	2.35785e-05	4.15781e-05	1.15262e-05	8.37818e-02	3.77995e-07	4.73963e-07	9.73646e-02	3.68828e-02	3.96265e-07	4.67267e-07	6.56016e-02	1.81804e-02	2.20209e-02	5.48808e-03	4.14571e-07	7.72833e-03	X	X	X	X	X	X	X	X	X	X	X	X	X	X	X	X	



#DISTANCE SETTINGS
A = Detector Channel
A-1	A-2	A-3	A-4	A-5	A-6	A-7	A-8	A-9	A-10	A-11	A-12	A-13	A-14	A-15	A-16	

2.5000e+00	3.0000e+00	2.5000e+00	3.0000e+00	2.0000e+00	3.0000e+00	1.5000e+00	3.0000e+00	3.0000e+00	3.0000e+00	3.0000e+00	3.0000e+00	3.0000e+00	3.0000e+00	1.5000e+00	3.0000e+00	

B = Detector Channel
B-1	B-2	B-3	B-4	B-5	B-6	B-7	B-8	B-9	B-10	B-11	B-12	B-13	B-14	B-15	B-16	

1.0000e+01	1.0000e+01	1.0000e+01	1.4400e+00	1.0000e+01	1.0000e+01	1.5100e+00	1.9400e+00	1.0000e+01	1.0000e+01	1.9900e+00	2.4900e+00	2.4100e+00	2.9000e+00	1.0000e+01	2.9800e+00	




#DATA BEGINS
time	group	step	mark	flag	A-AC1	A-AC2	A-AC3	A-AC4	A-AC5	A-AC6	A-AC7	A-AC8	A-AC9	A-AC10	A-AC11	A-AC12	A-AC13	A-AC14	A-AC15	A-AC16	A-DC1	A-DC2	A-DC3	A-DC4	A-DC5	A-DC6	A-DC7	A-DC8	A-DC9	A-DC10	A-DC11	A-DC12	A-DC13	A-DC14	A-DC15	A-DC16	A-Ph1	A-Ph2	A-Ph3	A-Ph4	A-Ph5	A-Ph6	A-Ph7	A-Ph8	A-Ph9	A-Ph10	A-Ph11	A-Ph12	A-Ph13	A-Ph14	A-Ph15	A-Ph16	B-AC1	B-AC2	B-AC3	B-AC4	B-AC5	B-AC6	B-AC7	B-AC8	B-AC9	B-AC10	B-AC11	B-AC12	B-AC13	B-AC14	B-AC15	B-AC16	B-DC1	B-DC2	B-DC3	B-DC4	B-DC5	B-DC6	B-DC7	B-DC8	B-DC9	B-DC10	B-DC11	B-DC12	B-DC13	B-DC14	B-DC15	B-DC16	B-Ph1	B-Ph2	B-Ph3	B-Ph4	B-Ph5	B-Ph6	B-Ph7	B-Ph8	B-Ph9	B-Ph10	B-Ph11	B-Ph12	B-Ph13	B-Ph14	B-Ph15	B-Ph16	aux-1	digaux	

36066.297	1	1	0	768	0.21198	0.15196	0.2369	0.05834	0.13376	0.016432	0.19464	0.11295	0.022595	0.32537	0.16358	0.24842	0.31357	0.31074	0.30627	0.13337	-1.5875	-2.2583	-2.0687	-2.1771	-2.2604	-1.9542	-2.3021	-2.1625	-2.0604	-2.3167	-2.0542	-2.2583	-2.1604	-1.8646	-2.2646	-2.2062	532.278	415.899	503.889	345.465	246.560	415.607	297.238	347.863	230.809	405.611	464.028	370.266	491.155	446.081	319.081	433.011	0.00099154	0.0045516	9.4956e-05	484.4	6.0016e-06	2.6586e-06	419.6	192.18	5.0463e-06	2.0847e-06	182.58	70.328	76.834	31.603	2.0574e-06	27.746	0.00050099	0.011112	0.00014052	495.23	5.0801e-06	5.7271e-06	477.46	197.45	5.2852e-06	6.9749e-06	187.54	74.64	79.429	32.764	7.1116e-06	28.709	412.902	353.525	260.582	192.346	295.558	316.127	189.616	197.878	298.026	340.357	195.018	199.345	201.709	208.117	282.822	204.101	-8191	255	
36066.391	1	1	0	0	0.26267	0.10955	0.14648	0.12292	0.20843	0.28856	0.22621	0.27206	0.16907	0.21428	0.13212	0.12832	0.25199	0.19877	0.23853	0.20788	-1.525	-2.3208	-2.0479	-2.0333	-2.1854	-1.9167	-2.1729	-2.2062	-1.8604	-2.2	-2.1833	-1.9833	-2.2062	-1.8979	-2.1792	-2.3917	145.856	120.310	-49.072	-34.476	122.582	-168.310	107.913	-168.193	106.202	101.049	39.955	-174.539	127.075	32.006	69.763	164.630	0.00088569	0.0080233	9.0522e-05	488.72	3.4395e-06	3.0532e-06	423.86	190.13	5.106e-06	4.1349e-06	179.69	69.053	76.167	30.903	4.089e-06	26.98	0.00050605	0.019306	0.0001479	499.55	5.4612e-06	5.7251e-06	453.3	195.37	5.1861e-06	7.7576e-06	184.66	70.293	84.85	32.156	6.07e-06	27.991	49.837	-3.415	-85.160	-167.733	-59.950	5.724	-169.683	-161.614	-46.272	-1.697	-165.018	-160.543	-158.448	-152.097	-71.907	-156.132	-8191	255	
36066.484	1	1	0	0	0.10761	0.096493	0.17892	0.20634	0.22503	0.080359	0.2125	0.39999	0.15946	0.15185	0.16122	0.34492	0.11974	0.28244	0.22631	0.10722	-1.5812	-2.3125	-1.9813	-2.2146	-2.2542	-1.9375	-2.1729	-2.125	-1.6979	-2.2042	-2.2125	-2.1229	-2.2104	-2.0896	-2.1771	-2.175	-88.981	-86.673	-34.067	167.183	-59.534	109.141	-138.920	145.021	-159.389	-19.629	-20.252	-114.079	113.356	-147.491	78.304	-4.431	0.00087032	0.0034675	7.2654e-05	489.23	6.0727e-06	4.8163e-06	419.85	187.91	4.6767e-06	3.3357e-06	174.54	65.479	74.477	29.845	1.5673e-06	25.364	0.0005146	0.0089804	0.0001484	499.19	6.4543e-06	6.1773e-06	461.52	193.37	5.589e-06	6.79e-06	178.53	67.001	79.557	31.098	6.9251e-06	26.279	54.110	-0.066	-65.096	-167.778	-69.461	-38.674	-170.304	-161.737	-64.574	-5.756	-164.751	-160.839	-157.962	-151.960	-5.025	-155.986	-8191	255	
36066.582	1	1	0	0	0.17686	0.042602	0.29814	0.29122	0.16742	0.069733	0.14874	0.24208	0.1369	0.096194	0.24763	0.1141	0.4003	0.1559	0.19365	0.10686	-1.4562	-2.1896	-2.1	-1.9125	-2.15	-1.9479	-2.2562	-2.3771	-1.95	-2.2375	-2.1292	-2.0062	-2.1229	-2.0458	-1.9479	-2.3146	260.611	532.963	329.982	422.105	286.097	375.126	340.444	514.312	502.322	253.042	537.209	293.448	221.744	188.806	251.487	232.431	0.00080735	0.0056437	8.0315e-05	484.53	4.4033e-06	2.1153e-06	407.54	185.74	4.2414e-06	2.6742e-06	169	63.424	74.089	29.21	3.7745e-06	24.435	0.00049839	0.013155	0.00014984	495.63	5.8613e-06	6.0351e-06	426.09	191.71	5.6666e-06	7.2699e-06	173.77	64.868	80.761	30.513	6.2367e-06	25.374	410.612	369.025	280.711	192.279	289.062	306.965	190.437	197.708	317.660	350.618	195.067	199.560	201.785	208.210	303.239	203.811	-8191	255	
36066.680	1	1	0	0	0.19161	0.016046	0.12738	0.23952	0.13469	0.20434	0.022549	0.095797	0.20356	0.085427	0.19584	0.12253	0.010991	0.018619	0.085713	0.20531	-1.5229	-2.2167	-2.1937	-1.8333	-2.3708	-2.05	-2.0146	-2.3896	-1.9979	-2.3187	-2.1708	-1.9646	-2.1979	-2.1937	-1.8521	-2.4188	296.284	472.897	201.356	215.202	311.425	300.471	412.101	279.472	514.455	292.714	392.757	539.084	221.456	310.636	438.919	396.468	0.00085525	0.002411	7.2903e-05	486.22	3.2409e-06	1.6806e-06	407.34	184.73	5.1861e-06	2.2415e-06	167.81	62.631	72.484	29.095	3.5814e-06	24.443	0.00053332	0.0064688	0.00015964	497.19	6.8299e-06	6.6454e-06	416.29	197.99	6.2453e-06	7.2679e-06	171.87	64.379	77.137	30.354	6.4414e-06	25.361	412.365	371.325	286.559	192.428	280.816	334.298	190.490	197.642	329.893	314.519	195.423	199.257	202.005	208.133	342.002	203.695	-8191	255	
36066.773	1	1	0	0	0.21895	0.15381	0.17639	0.16384	0.14787	0.17863	0.17825	0.037061	0.24068	0.073755	0.25876	0.082666	0.10708	0.16336	0.083984	0.2393	-1.6542	-2.075	-2.1979	-1.9438	-2.1562	-2.0604	-1.9979	-2.2833	-1.9021	-1.9958	-2.125	-1.7667	-2.2479	-2.2604	-1.7771	-2.2229	453.775	284.416	522.072	251.861	386.970	216.783	512.320	197.214	506.286	393.444	211.157	222.794	536.227	259.773	324.324	465.544	0.00075177	0.0050459	6.866e-05	487.05	4.5058e-06	1.793e-06	407.05	184.43	5.8474e-06	2.7581e-06	165.63	62.131	72.171	28.636	4.6981e-06	24.057	0.00054638	0.011506	0.00017405	497.65	6.3196e-06	7.1934e-06	416.24	194.14	6.5202e-06	7.6408e-06	170.78	63.64	79.165	29.875	6.7756e-06	24.821	419.350	388.563	253.029	192.470	269.887	299.993	190.620	197.835	350.542	349.104	195.165	199.138	202.259	207.952	306.505	203.959	-8191	255	
36066.895	1	1	0	0	0.23309	0.27375	0.09003	0.15194	0.088221	0.082173	0.034156	0.21888	0.083963	0.17416	0.083981	0.12601	0.17864	0.111	0.085404	0.19389	-1.6812	-1.8687	-2.1625	-1.8708	-2.0062	-2.1875	-2.0187	-2.2875	-1.9833	-2.025	-2.2958	-1.9438	-2.0521	-2.2458	-1.7333	-2.3917	525.380	443.983	329.765	487.944	515.612	272.726	193.958	255.947	197.376	187.608	483.434	329.881	260.095	222.932	537.596	230.117	0.00074855	0.0026053	0.00044536	486.83	1.9255e-06	2.0643e-06	405.99	183.85	6.1621e-06	5.8129e-06	164.17	61.589	71.457	28.291	2.7474e-06	23.368	0.00054314	0.0037736	0.00060347	497.06	6.9622e-06	7.3059e-06	414.88	197.14	6.687e-06	7.2864e-06	168.97	62.9	75.634	29.548	6.9277e-06	24.215	414.370	349.238	474.995	192.329	293.691	321.463	190.697	197.440	315.719	337.322	195.242	199.250	202.430	207.785	294.377	203.794	-8191	255	
36066.992	1	1	0	0	0.15935	0.15714	0.083933	0.18093	0.20283	0.07683	0.17936	0.3497	0.076354	0.29268	0.20081	0.16152	0.16771	0.29097	0.33425	0.12531	-1.3042	-2.0062	-2.2354	-2.0354	-2.1125	-2.2167	-2.1042	-2.275	-2.0229	-2.1875	-2.2354	-2.0625	-2.2438	-2.0354	-1.65	-2.3729	505.264	323.082	507.771	245.045	180.116	406.149	364.824	474.408	206.155	223.138	475.964	476.763	329.119	532.653	412.195	472.518	0.00064881	0.00039347	0.00081595	483.66	1.9488e-06	2.3389e-06	398.9	181.52	6.1466e-06	3.0677e-06	160.63	60.152	71.896	28.369	6.0985e-06	23.054	0.00054732	0.00066404	0.0027177	494.36	6.8323e-06	7.2734e-06	407.31	190.67	6.8232e-06	7.5717e-06	165.47	61.694	77.816	29.543	7.223e-06	23.957	413.205	233.743	477.087	192.544	256.799	362.149	190.585	197.951	335.835	349.775	194.909	199.240	202.242	207.955	300.310	203.813	-8191	255	
36067.090	1	1	0	0	0.31852	0.2203	0.093373	0.15301	0.26509	0.10473	0.32643	0.10854	0.177	0.2173	0.2084	0.12722	0.12764	0.22517	0.243	0.11613	-1.7146	-1.9646	-2.2417	-1.9417	-2.1854	-2.1708	-1.8958	-2.1771	-2.2042	-1.9958	-2.4083	-2.0104	-2.0854	-2.3542	-1.9625	-2.2229	531.359	324.549	205.078	386.147	202.200	283.507	297.399	523.861	283.142	229.434	417.180	341.762	387.580	237.077	411.491	413.428	0.00083911	0.00024667	0.00051226	481.79	4.4718e-06	3.2588e-06	399.88	180.63	4.7641e-06	1.5124e-06	160.98	59.808	70.583	28.555	5.5443e-06	22.886	0.0005707	0.00070146	0.0015753	492.62	7.3315e-06	7.8796e-06	406.37	193.88	7.3127e-06	8.2249e-06	165.14	61.641	73.964	29.779	8.0764e-06	23.852	413.717	306.687	407.337	192.362	321.204	354.375	190.394	197.410	293.305	372.210	195.242	199.512	202.612	207.966	302.455	204.061	-8191	255	
36067.184	1	1	0	0	0.24249	0.10029	0.17443	0.23189	0.21616	0.11507	0.080316	0.050787	0.20151	0.18445	0.10457	0.25145	0.11106	0.074557	0.37777	0.15783	-1.6042	-2.0479	-2.3063	-2	-2.1729	-2.4083	-1.9542	-2.2938	-2.0667	-1.9375	-2.1333	-2.1125	-2.0625	-2.3688	-1.8083	-2.1625	513.466	254.163	212.095	189.643	193.105	346.275	198.772	408.337	492.080	432.955	288.022	210.664	477.689	263.975	192.803	457.728	0.00069413	0.00028465	0.0010103	483.05	3.4355e-06	2.8249e-06	400.85	181.76	6.8623e-06	2.6944e-06	160.73	60.461	70.496	28.381	1.9367e-06	23.138	0.00060631	0.00076634	0.0026378	494.57	7.1606e-06	8.8118e-06	407.74	189.6	7.7816e-06	8.806e-06	165.46	61.902	72.636	30.699	8.3536e-06	23.99	412.270	225.120	410.061	192.338	261.443	329.512	190.536	197.550	293.551	368.778	195.157	199.663	202.318	207.775	340.480	203.622	-8191	255	
36067.281	1	1	0	0	0.24835	0.15985	0.21266	0.10794	0.097734	0.2611	0.1313	0.19007	0.063775	0.38029	0.095825	0.18921	0.1004	0.16096	0.045978	0.26001	-1.8958	-1.8354	-2.2896	-2.2646	-2.0458	-2.3896	-1.9854	-2.2958	-2.2354	-1.9312	-2.4104	-2.2604	-2	-2.3646	-2.1188	-2.3833	223.043	263.656	376.969	358.212	325.761	503.443	218.391	259.547	302.224	321.604	454.894	497.024	293.815	197.840	184.997	523.593	0.00079586	0.00020102	0.00036483	484.56	1.4848e-06	2.3019e-06	399.31	181.14	8.3139e-06	4.6553e-06	160.16	60.886	70.584	28.691	4.4209e-06	23.099	0.00062434	0.00083018	0.0014479	495.57	7.7363e-06	1.0268e-05	409.31	193.11	8.6262e-06	9.6169e-06	165.29	62.264	72.72	30.297	8.8537e-06	24.056	413.791	251.958	409.590	192.639	275.095	334.275	190.464	197.779	311.974	362.163	195.091	199.403	202.433	208.240	310.976	203.833	-8191	255	
36067.375	1	1	0	0	0.052468	0.15808	0.032999	0.34954	0.11212	0.098717	0.14951	0.22586	0.51728	0.28094	0.215	0.24523	0.15683	0.14556	0.21343	0.11956	-1.8271	-1.6917	-2.1396	-1.9396	-2.0875	-2.2396	-1.775	-2.0917	-2.2583	-1.9958	-2.1979	-2.0167	-1.8521	-2.3333	-2.0229	-2.1208	70.621	-0.296	-37.706	-139.077	83.745	20.843	-171.543	-92.119	98.732	-143.343	-170.389	53.618	150.718	-3.158	73.031	69.138	0.00078942	0.0001127	0.00075013	483.24	3.5389e-06	3.1233e-06	397.16	180.59	3.1299e-05	2.6645e-06	158.04	59.591	69.637	28.515	2.0447e-06	22.673	0.00068496	0.00090865	0.0024018	493.9	8.4395e-06	1.0692e-05	406.56	186.42	2.2465e-05	9.8253e-06	162.55	61.183	72.235	30.555	9.5533e-06	23.599	47.495	-171.565	63.254	-167.802	-53.667	0.772	-169.351	-161.720	-116.975	-36.937	-165.019	-160.450	-157.740	-151.876	-45.784	-156.593	-8191	255	
36067.496	1	1	0	0	0.05429	0.19939	0.1586	0.23497	0.032271	0.13014	0.15066	0.17889	0.20982	0.053123	0.21804	0.072243	0.13083	0.12782	0.12913	0.19727	-1.9646	-2.0958	-2.325	-2.15	-1.7792	-2.3063	-1.9771	-2.1521	-2.2833	-1.9125	-2.15	-2.1688	-1.8188	-2.5104	-2.1333	-1.9917	-128.928	-75.171	165.357	-18.618	51.378	-104.350	-152.068	-127.103	90.678	138.652	-7.435	129.704	170.366	101.495	5.814	-49.674	0.00084487	0.00020353	0.00034525	481.08	3.9346e-06	2.8404e-06	393.22	178.77	5.9441e-05	1.8174e-06	157.81	59.44	70.852	28.705	3.2743e-06	22.944	0.00069954	0.00091671	0.0012643	492.32	8.9435e-06	1.1293e-05	403.75	184.28	7.613e-05	1.0651e-05	162.61	61.253	72.785	30.36	9.8305e-06	23.848	48.330	-105.340	70.097	-167.578	-73.036	-20.296	-169.339	-161.703	-122.831	12.063	-164.432	-160.786	-157.510	-151.885	-74.407	-156.359	-8191	255	
36067.590	1	1	0	0	0.16894	0.055853	0.25638	0.1541	0.11399	0.14089	0.184	0.3652	0.024295	0.16976	0.16765	0.29023	0.072974	0.18345	0.16442	0.18968	-1.7875	-1.8479	-2.0646	-2.0604	-1.9271	-2.3167	-2.0938	-2.0167	-2.2438	-2.1958	-2.1688	-2.175	-1.8771	-2.3937	-2.0146	-2.0021	-168.383	106.311	-139.138	-127.476	-17.072	-178.559	35.893	175.970	166.349	38.455	29.971	-135.654	-156.647	66.048	-54.620	86.690	0.00071613	0.00031075	0.00090845	484.46	2.2059e-06	2.7713e-06	397.87	178.86	3.6488e-05	1.5946e-06	157.47	59.88	70.533	28.707	3.418e-06	23.02	0.00076119	0.00097163	0.0022592	492.94	9.3333e-06	1.1576e-05	405.2	184.15	4.5849e-05	1.0983e-05	162.89	61.496	72.788	30.828	1.0493e-05	23.964	59.405	-99.320	76.287	-167.628	-54.620	-18.536	-169.221	-161.742	-91.864	26.328	-164.761	-160.978	-157.864	-151.767	-84.217	-156.088	-8191	255	
36067.688	1	1	0	0	0.11684	0.087899	0.273	0.22895	0.14958	0.22607	0.12531	0.11334	0.049816	0.15315	0.16518	0.20134	0.10612	0.12442	0.079152	0.14052	-1.8	-2.0875	-2.1833	-2.2708	-1.8	-2.2333	-2.2167	-2.1	-2.3958	-2.2479	-2.1333	-2.2438	-1.8708	-2.0625	-2.0354	-1.6625	92.780	135.817	-138.832	157.839	111.160	-71.772	-179.181	-109.988	-135.241	-55.403	-165.896	174.697	-60.653	168.167	19.197	75.751	0.00073394	0.00022529	0.00035481	482.41	3.5969e-06	3.9363e-06	397.24	180.26	5.4438e-05	4.3087e-06	159.81	60.403	71.084	28.905	2.8528e-06	23.195	0.00075107	0.001011	0.00071756	496.75	9.5956e-06	1.1928e-05	406.93	185.18	7.7499e-05	1.0947e-05	164.41	62.157	73.198	30.6	1.0136e-05	24.23	50.707	-82.149	-1.487	-167.688	-33.377	-3.376	-169.540	-161.998	-89.516	-23.808	-164.408	-160.478	-157.590	-151.591	-57.762	-156.326	-8191	255	
36067.781	1	1	0	0	0.27366	0.029008	0.14723	0.3217	0.12593	0.13049	0.25947	0.19675	0.24092	0.21232	0.29513	0.15465	0.1477	0.25297	0.11775	0.16504	-1.7146	-2.1208	-1.7917	-2.1646	-1.9708	-2.1312	-2.0896	-1.9521	-2.4021	-2.0958	-2.0333	-2.1833	-1.9479	-2.0625	-2.0667	-1.9354	-147.328	-120.342	-70.412	173.365	-58.574	73.063	73.830	-69.814	66.458	50.734	170.495	142.218	73.041	114.951	142.890	116.060	0.00076559	0.00015352	4.0828e-05	479.45	2.3526e-06	3.5048e-06	397.96	179.61	3.8336e-05	3.4023e-06	158.54	60.585	70.966	28.854	5.7375e-06	23.162	0.0007857	0.00098653	0.00028362	507.7	9.5129e-06	1.1859e-05	407.72	185.02	4.4153e-05	1.0822e-05	164.17	62.421	73.071	31.057	1.0407e-05	24.142	53.851	-39.237	-97.641	-167.728	-32.834	-49.556	-169.309	-161.975	-87.116	-66.583	-164.656	-160.506	-157.986	-151.768	-56.387	-156.395	-8191	255	
36067.855	1	1	0	0	0.23657	0.20824	0.080503	0.15047	0.09971	0.24738	0.16801	0.19792	0.1715	0.19363	0.51766	0.2526	0.1812	0.073649	0.012549	0.09662	-1.7042	-2.0854	-1.9042	-2.325	-1.9292	-2.2562	-2.2812	-1.8083	-2.3167	-2.0042	-1.9521	-2.2833	-1.9333	-2.1271	-2.1167	-1.9292	-45.670	142.868	-81.135	1.947	28.258	157.310	17.437	111.992	135.737	132.338	-177.515	93.933	-141.578	85.600	-99.542	-11.164	0.00069578	0.00035361	4.0567e-05	479.57	2.0998e-06	1.2087e-06	394.26	179.87	5.9188e-05	2.2128e-06	159.73	61.261	71.294	29.319	1.1173e-06	23.52	0.00075564	0.00097691	0.00027877	498.22	9.6562e-06	1.1514e-05	402.75	185	7.6022e-05	1.1204e-05	164.45	62.807	73.742	30.735	2.651e-05	24.584	53.071	-61.610	-50.516	-167.618	161.440	21.495	-169.194	-161.757	-89.373	-48.383	-164.877	-160.591	-157.764	-151.893	111.316	-156.556	-8191	255	
36067.977	1	1	0	0	0.17135	0.069856	0.36944	0.11086	0.21375	0.21579	0.083867	0.23589	0.18961	0.12096	0.047371	0.13549	0.29485	0.13562	0.061854	0.027342	-1.5708	-2.0167	-1.95	-2.2458	-1.9833	-2.0812	-2.4542	-1.9042	-2.2687	-2.2208	-1.9646	-2.3688	-1.9062	-2.0687	-2.2708	-2.0021	58.714	3.526	110.007	130.045	-16.539	105.775	179.624	162.163	86.210	-24.608	-104.808	157.264	144.039	-99.323	166.057	-39.761	0.00076799	0.00018106	6.4649e-05	478.1	4.3903e-06	2.1047e-06	398.68	180.93	2.9183e-05	2.4355e-06	161.36	61.863	72.155	29.531	3.4557e-05	23.941	0.00079577	0.0010246	0.00027908	505.53	9.5719e-06	1.1293e-05	406.26	185.88	4.4685e-05	1.1432e-05	166.43	63.563	74.44	30.892	7.8936e-05	24.948	51.226	-58.936	-138.982	-167.773	-52.753	-67.008	-169.541	-161.946	-61.710	15.761	-164.847	-160.704	-157.434	-151.890	32.771	-156.434	-8191	255	
36068.070	1	1	0	0	0.15984	0.21858	0.25624	0.1646	0.26707	0.01705	0.17004	0.18724	0.1118	0.21207	0.034732	0.1794	0.24053	0.087481	0.14287	0.20122	-1.7229	-2.4771	-1.8813	-2.3875	-2.1063	-2.0042	-2.3042	-1.9104	-2.3625	-2.2687	-1.9625	-2.2021	-2.1604	-2.0333	-2.3229	-1.9854	38.038	152.337	-139.489	103.589	-48.145	-166.737	77.039	-166.939	-47.343	-92.261	-128.217	-99.535	-89.625	-13.023	61.379	91.868	0.00078983	0.0002985	9.1217e-05	479.31	4.7142e-06	2.8302e-06	401.68	180.36	3.965e-05	3.1742e-06	162.61	62.198	72.317	29.522	1.2743e-05	23.982	0.00076311	0.0010175	0.00029049	499.69	9.5893e-06	1.1429e-05	409.9	186.35	7.5051e-05	1.1695e-05	167.44	63.903	74.457	30.836	4.7483e-05	25	46.933	-41.267	-99.903	-167.688	-43.465	-12.654	-169.452	-161.842	-34.074	-30.624	-165.064	-160.802	-157.728	-151.871	41.714	-156.017	-8191	255	
36068.168	1	1	0	0	0.27811	0.11343	0.16304	0.12373	0.3186	0.16294	0.085788	0.16785	0.14091	0.28727	0.36331	0.17231	0.10857	0.1932	0.19075	0.2935	-1.7563	-1.9771	-1.7646	-2.1396	-2.2062	-2.0917	-2.4271	-1.9458	-1.9813	-2.2229	-1.9667	-2.2938	-2.1875	-2	-2.4083	-2.0271	111.866	148.183	102.120	69.724	-167.521	-147.534	96.663	-148.505	-133.577	-81.486	-87.022	169.147	60.226	154.269	-126.069	71.821	0.00079929	0.00027092	0.00012707	478.21	1.8481e-06	3.3871e-06	401.24	181.01	2.8039e-05	1.1799e-05	163.13	62.531	72.971	29.701	4.0948e-05	24.183	0.00078742	0.0010867	0.0002888	508.07	9.983e-06	1.1755e-05	410.84	186.57	2.2747e-05	3.2421e-05	167.99	64.192	74.632	30.923	8.2435e-05	25.063	58.695	-113.410	-99.850	-168.012	-107.776	-21.405	-169.529	-161.994	-29.107	-92.296	-164.584	-160.824	-157.770	-152.018	50.763	-156.238	-8191	255	
36068.266	1	1	0	0	0.16467	0.13697	0.31438	0.16225	0.24841	0.1776	0.22041	0.064881	0.05777	0.10102	0.13256	0.15681	0.13101	0.21095	0.34995	0.093963	-1.6688	-2.1396	-2.0229	-2.2313	-2.1042	-1.9896	-2.3333	-2.1021	-1.9208	-2.3812	-2.1458	-2.1729	-2.1604	-1.8729	-2.1854	-2.1875	421.738	493.194	196.626	420.652	195.922	328.412	512.895	453.171	206.289	366.534	537.555	482.459	231.354	187.275	402.294	519.300	0.00072498	0.00028161	7.365e-05	480.07	3.8049e-06	3.291e-06	396.22	180.2	5.4903e-06	3.7578e-05	161.69	62.002	72.365	29.661	2.1205e-05	23.98	0.00074346	0.001057	0.00028194	500.49	9.5397e-06	1.1682e-05	407.37	185.71	9.8488e-06	9.5503e-05	165.95	63.593	74.441	30.917	4.9444e-05	24.9	408.936	287.531	257.533	192.456	268.083	328.242	190.530	197.869	308.744	302.090	194.813	199.402	202.508	208.101	408.497	203.659	-8191	255	
36068.387	1	1	0	0	0.19311	0.039502	0.055173	0.2678	0.12009	0.074698	0.085382	0.23213	0.19813	0.19783	0.18584	0.08223	0.22425	0.39505	0.14933	0.23708	-1.6083	-2.3292	-1.6917	-2.0229	-2.2479	-1.9354	-2.2479	-2.1604	-1.9813	-2.3375	-1.8917	-2.2792	-2.2417	-2.0083	-2.3083	-2.3312	-25.003	-26.610	21.799	120.517	-48.274	128.499	48.171	-168.719	24.447	-9.960	103.686	-25.634	112.149	137.102	-21.018	115.272	0.0007534	0.00021308	0.00010557	477.26	5.6337e-06	3.8564e-06	397.01	180.77	6.5562e-06	2.2434e-05	162.18	62.235	72.8	29.924	3.6156e-05	24.205	0.00075883	0.0010672	0.000281	505.65	9.1396e-06	1.0926e-05	407.03	186.83	9.5392e-06	5.6253e-05	167.37	64.232	75.04	31.153	8.7986e-05	25.129	54.424	-94.911	-85.650	-167.460	-88.525	-32.600	-169.385	-161.998	-35.203	-36.816	-164.787	-160.767	-157.333	-151.986	68.401	-156.252	-8191	255	
36068.457	1	1	0	0	0.27314	0.16763	0.094372	0.050932	0.1575	0.27238	0.19469	0.0077603	0.34277	0.23924	0.10092	0.13438	0.29411	0.15642	0.11465	0.19477	-1.4333	-2.2292	-1.9062	-2.0208	-2.1708	-2.0583	-2.3187	-2.0833	-2.0563	-2.3521	-2.1188	-1.9729	-2.3604	-1.9042	-2.125	-2.0646	42.219	117.606	-135.451	13.668	144.670	-50.151	44.213	176.633	140.878	112.966	-50.136	171.804	56.454	108.871	37.349	121.100	0.00081978	0.00038639	8.3759e-05	481.91	2.7497e-05	4.7358e-06	404.03	183.36	5.6052e-06	4.2052e-05	165.67	63.114	73.214	29.964	2.0419e-05	24.595	0.00074056	0.00096305	0.00026126	495.27	2.9532e-05	1.0628e-05	411.99	188.32	9.4179e-06	9.9693e-05	170.06	65.094	75.502	31.35	5.1416e-05	25.55	55.848	-95.457	-117.235	-167.619	-159.722	-23.908	-169.458	-161.960	-50.756	-43.466	-164.482	-160.749	-157.881	-151.692	72.397	-156.172	-8191	255	
36068.574	1	1	0	0	0.19994	0.19342	0.25138	0.17545	0.17369	0.19838	0.17721	0.29361	0.1102	0.10397	0.099477	0.15122	0.12072	0.1245	0.16461	0.04083	-1.6104	-2.0042	-2.0104	-2.1542	-2.1292	-1.9458	-2.3646	-2.2479	-1.8771	-2.2562	-2.0625	-1.8958	-2.4458	-2.0021	-2.1792	-2.2729	-61.315	-178.972	-100.094	-158.018	-16.645	-16.249	112.581	110.739	122.803	-154.125	-133.592	87.578	-45.828	149.223	-17.077	142.366	0.00083606	0.00033331	9.9852e-05	484.43	5.3315e-05	2.4779e-06	408.08	183.27	7.441e-06	2.336e-05	166.49	63.816	73.987	30.345	4.2923e-05	24.91	0.00073653	0.00102	0.00025701	495.78	8.2115e-05	1.1066e-05	416.07	188.97	9.6408e-06	5.8575e-05	171.62	65.953	76.168	31.612	8.2152e-05	25.984	51.227	-101.599	-80.077	-167.673	178.615	-46.029	-169.472	-162.006	-65.359	-29.011	-164.832	-160.614	-157.825	-151.987	42.664	-156.389	-8191	255	
36068.672	1	1	0	0	0.22748	0.12794	0.19797	0.21124	0.014678	0.13313	0.18746	0.0956	0.10833	0.10056	0.081391	0.23771	0.24969	0.11547	0.27444	0.20943	-1.4208	-2.2542	-1.9813	-2.0854	-2.3521	-1.9021	-2.1542	-2.2646	-1.8062	-2.3604	-2.1625	-1.9125	-2.1417	-1.8771	-1.9958	-2.2125	38.572	91.284	-61.954	-88.111	-154.880	-9.949	82.438	-54.508	115.567	-52.231	-179.304	83.953	101.185	133.141	117.728	140.714	0.00077678	0.00015601	7.8521e-05	487.26	2.964e-05	2.4413e-06	411.93	184.21	3.9013e-06	5.0628e-05	166.38	63.963	73.491	30.074	2.9302e-05	24.705	0.00073265	0.000944	0.00025154	498.25	5.0191e-05	1.0619e-05	420.57	190.22	9.5285e-06	0.00011404	171.74	65.817	75.89	31.35	2.2516e-05	26.286	50.916	-75.788	-113.704	-167.386	-178.031	-3.579	-169.480	-161.765	-66.992	-30.017	-164.937	-160.979	-157.174	-151.936	53.121	-156.405	-8191	255	
36068.770	1	1	0	0	0.089037	0.09873	0.093911	0.061738	0.12025	0.30695	0.099005	0.19603	0.14808	0.12357	0.26198	0.2375	0.17681	0.062395	0.11105	0.17557	-1.3958	-2.1792	-2.0792	-1.9125	-2.0479	-1.9979	-1.9771	-2.1667	-1.9625	-2.3479	-1.9958	-1.8042	-2.0646	-1.9229	-2.2	-2.2313	445.277	481.401	449.050	305.117	386.701	231.684	349.596	453.722	247.618	218.955	350.816	457.418	201.874	386.944	250.231	494.371	0.00076522	0.00041384	7.4454e-05	483.96	6.1834e-05	3.8495e-06	406.51	184.49	6.0499e-06	2.1433e-05	165.32	64.186	74.259	30.625	3.1898e-06	24.475	0.00071841	0.00098644	0.0002615	494.82	9.4006e-05	1.0343e-05	414.04	189.56	9.4047e-06	6.508e-05	170.81	65.982	76.42	31.833	9.7053e-06	27.691	409.285	284.398	278.963	192.430	197.224	350.541	190.323	197.942	290.089	338.979	195.109	198.897	202.167	207.917	278.831	203.816	-8191	255	
36068.863	1	1	0	0	0.10851	0.16687	0.26213	0.12571	0.17501	0.087342	0.0067783	0.107	0.087886	0.17726	0.32895	0.22419	0.095228	0.20734	0.16715	0.16251	-1.35	-1.9188	-2.2833	-1.9167	-2.3312	-2.1562	-2.0458	-2.3083	-1.875	-2.2062	-2.1396	-1.7	-2.3417	-1.9875	-1.9229	-2.2521	-151.703	88.450	-122.683	-153.515	141.638	-29.235	52.574	41.766	146.481	-156.474	83.490	141.116	-122.342	126.544	-41.979	-149.858	0.00082026	0.00016722	0.00013938	484.9	2.3261e-05	2.4771e-06	403.66	183.28	8.5166e-06	4.248e-05	168.3	64.09	73.807	30.369	3.9345e-06	24.601	0.0007357	0.00099467	0.0002639	495.96	5.2146e-05	1.0768e-05	413.76	189.18	9.0992e-06	9.475e-05	171.38	65.72	76.06	31.655	9.8461e-06	26.68	49.216	-97.974	-119.907	-167.412	-149.777	-47.981	-169.399	-161.793	-56.623	-0.225	-165.236	-160.503	-157.788	-151.652	-38.091	-156.062	-8191	255	
36068.984	1	1	0	0	0.050862	0.16525	0.05878	0.18419	0.27959	0.10636	0.074223	0.17317	0.047554	0.027856	0.24451	0.27461	0.34787	0.06581	0.11359	0.22776	-1.4521	-2.0187	-2.0521	-1.9792	-2.2896	-1.9688	-1.9271	-2.2833	-1.8104	-2.0854	-2.1833	-1.8021	-2.1104	-2.3292	-1.7938	-2.3167	50.777	-19.652	100.293	173.587	-115.066	131.661	8.714	83.928	68.110	27.771	128.514	-116.597	178.284	-135.113	-56.747	83.646	0.00078959	0.000492	5.6166e-05	485.73	5.8839e-05	2.9043e-06	406.67	184.47	6.8059e-06	2.7004e-05	167.51	64.368	74.057	30.334	2.9142e-06	24.537	0.00073083	0.00098635	0.0002713	496.71	9.2211e-05	1.1041e-05	417.11	189.59	9.3139e-06	2.2719e-05	176.62	65.976	76.29	31.701	9.9627e-06	27.808	48.430	-50.029	-69.116	-167.579	-158.946	-36.375	-169.324	-161.725	-60.254	1.584	-164.703	-160.725	-157.926	-151.788	-43.212	-155.978	-8191	255	
36069.082	1	1	0	0	0.16516	0.30965	0.054634	0.16406	0.1826	0.10358	0.27466	0.24652	0.063319	0.22787	0.2358	0.19057	0.14305	0.21402	0.093102	0.22223	-1.6	-2.0146	-2.2812	-1.9104	-2.2125	-2.2979	-1.9688	-2.3583	-2.0854	-2.0812	-2.4708	-1.9854	-2.4167	-2.2	-2.0042	-2.2167	128.786	107.920	93.564	-161.919	76.730	91.726	40.923	174.721	-55.635	163.674	122.124	7.984	-70.792	132.237	7.988	97.615	0.00078132	0.00020409	7.6583e-05	486.43	3.8389e-05	2.1619e-06	411.14	184.38	4.1474e-06	1.8198e-06	168.35	64.913	74.097	30.365	4.8812e-06	25.006	0.00072258	0.0009673	0.00027572	497.42	5.5928e-05	1.0972e-05	418.78	189.74	9.3972e-06	1.048e-05	187.31	66.621	76.4	31.789	9.9704e-06	27.202	49.924	-79.819	-63.648	-167.687	-149.043	-26.236	-169.410	-161.889	-29.901	1.046	-164.041	-160.688	-157.580	-151.803	-20.331	-156.328	-8191	255	
36069.152	1	1	0	0	0.18082	0.13732	0.071101	0.23957	0.073725	0.11361	0.16163	0.08236	0.073794	0.14083	0.22874	0.085536	0.1036	0.16071	0.31719	0.14462	-1.4854	-1.9604	-2.3042	-2.0208	-2.2271	-2.1583	-1.8813	-2.2042	-2.1333	-2.075	-2.2646	-2.0583	-2.1125	-2.1771	-1.7646	-2.2646	86.322	-118.538	-20.342	162.628	-111.433	93.494	70.192	139.240	134.565	7.226	-178.795	157.549	-63.005	176.008	-152.793	142.426	0.0007935	0.00013802	6.3864e-05	484.67	1.2995e-05	4.8405e-05	407.54	183.7	3.4901e-06	3.688e-06	165.42	63.528	73.777	30.089	3.6388e-06	24.251	0.00069792	0.00095214	0.00028979	496.81	7.9684e-05	1.808e-05	416.93	188.85	9.2181e-06	1.0434e-05	178.05	65.457	76.041	31.391	9.498e-06	27.451	52.600	-67.329	-68.714	-167.554	-66.426	-127.616	-169.342	-161.747	-52.584	-18.360	-164.618	-160.432	-157.513	-151.744	-39.782	-156.111	-8191	255	
36069.273	1	1	0	0	0.21408	0.21619	0.34968	0.070068	0.040706	0.21245	0.22267	0.10323	0.056441	0.20436	0.22219	0.1084	0.093106	0.35989	0.12925	0.059541	-1.4958	-2.0854	-2.25	-2.1667	-2.1437	-2.2	-2.0167	-2.1021	-2.0917	-2.0687	-2.1542	-2.0667	-2.0521	-2.3125	-1.8958	-2.2479	10.650	-82.656	-50.699	-65.356	-9.205	23.520	-132.931	128.369	29.450	152.678	-155.072	-171.156	37.745	135.945	-133.288	66.875	0.00084591	0.0002381	4.1003e-05	486.47	1.208e-05	3.0118e-05	402.98	181.69	2.6495e-06	3.4705e-06	163.85	62.425	72.676	29.615	2.0704e-06	23.703	0.00074469	0.00096253	0.00027365	497.96	1.7078e-05	5.169e-05	414.04	188.11	9.4212e-06	1.072e-05	184.68	64.182	74.983	30.784	9.7606e-06	25.922	54.596	-95.762	-59.027	-167.719	-63.056	-117.918	-169.269	-161.675	-70.911	-39.575	-163.804	-160.602	-157.903	-151.773	-73.624	-156.262	-8191	255	
36069.367	1	1	0	0	0.12093	0.16579	0.11109	0.19306	0.033964	0.085218	0.051142	0.24152	0.18418	0.16751	0.22786	0.089924	0.26353	0.13804	0.17523	0.1743	-1.6208	-2.0417	-2.4333	-2.0042	-1.9417	-2.2604	-1.9354	-2.2062	-1.975	-1.875	-2.3771	-2.2354	-1.9729	-2.4292	-2.0125	-2.1458	201.018	379.229	531.190	267.054	429.323	288.692	343.490	321.185	450.164	339.313	288.834	421.395	219.010	181.459	323.256	188.904	0.00074423	0.00030972	7.2923e-05	486.39	2.8786e-06	4.9696e-05	406.9	181.22	6.7989e-06	3.1292e-06	161.91	61.735	72	29.537	1.4131e-06	23.761	0.0007132	0.00094339	0.00028938	497.2	8.6632e-06	0.00013034	414.17	186.71	9.3568e-06	1.0138e-05	175.7	63.742	74.352	30.686	9.6517e-06	26.45	409.877	263.051	298.975	192.622	301.743	260.609	190.548	197.816	300.607	302.462	196.229	199.652	202.395	208.018	271.246	204.309	-8191	255	
36069.465	1	1	0	0	0.046173	0.29329	0.018524	0.34669	0.21581	0.3146	0.16644	0.19099	0.15504	0.17814	0.20062	0.14468	0.10435	0.11721	0.015433	0.16577	-1.7354	-1.8542	-2.2792	-2.1688	-2.0229	-2.2396	-2.1688	-2.1667	-2.2062	-1.8979	-2.2188	-2.0812	-2.0062	-2.3479	-2	-2.1083	-63.264	66.107	131.951	138.902	73.763	-9.452	154.768	132.407	60.695	52.031	60.580	11.579	-61.863	126.887	77.710	-66.835	0.0018789	0.0003164	8.571e-05	486.7	4.8287e-06	2.6348e-05	404.71	181.25	4.1808e-06	2.7114e-06	164.51	62.868	72.946	29.793	6.2743e-06	24.134	0.0013378	0.00092884	0.00026208	497.49	9.0349e-06	7.5028e-05	413.88	187.15	9.55e-06	1.036e-05	185.77	64.659	74.806	31.031	9.2337e-06	25.455	2.933	-139.301	-80.655	-167.605	-27.257	-105.948	-169.320	-161.634	-76.737	-51.815	-163.769	-160.594	-157.831	-151.633	-51.453	-155.955	-8191	255	
36069.559	1	1	0	0	0.096802	0.24617	0.22093	0.053691	0.32919	0.14883	0.24668	0.2653	0.11906	0.11664	0.16443	0.29876	0.20684	0.058792	0.080834	0.18083	-1.7417	-1.9958	-2.1063	-2.2625	-1.9625	-2.1375	-2.0458	-2.3208	-2.1646	-2.0646	-2.3208	-2.1813	-1.9562	-2.2917	-2.0604	-1.9792	98.218	-68.019	62.494	103.769	-31.151	105.785	-65.705	-57.279	-7.440	-141.836	-157.928	-168.880	-170.663	-41.801	70.252	-96.368	0.0014316	0.00034335	8.3351e-05	484.51	3.3489e-06	5.3639e-05	402.3	181.38	1.8545e-06	3.1675e-06	159.41	61.786	72.061	29.236	2.615e-06	23.675	0.0030957	0.00088873	0.00027103	495.14	8.7002e-06	0.00013716	411.26	186.13	9.507e-06	1.0266e-05	175.1	63.548	74.334	30.572	9.1517e-06	24.651	19.157	-94.788	-78.911	-167.505	-76.001	-93.702	-169.579	-161.825	-93.985	-24.855	-164.428	-160.586	-157.684	-152.000	-24.146	-156.501	-8191	255	
36069.680	1	1	0	0	0.14529	0.15308	0.15161	0.23846	0.10521	0.06208	0.19749	0.14238	0.11067	0.20806	0.048393	0.18399	0.15662	0.10268	0.32032	0.020606	-1.8479	-1.7812	-1.9396	-2.3771	-1.7313	-2.2542	-2.0771	-1.8146	-2.2687	-1.9417	-2.3542	-2.3187	-1.9083	-2.3063	-2.1208	-2.0208	269.856	318.151	212.578	198.013	272.360	382.900	260.919	185.319	210.223	278.835	452.495	302.566	423.664	262.827	257.936	379.558	0.0016194	0.00015586	8.9382e-05	479.44	3.6322e-06	3.0691e-05	395.1	180.93	2.2391e-06	3.8908e-06	159.6	60.875	71.795	29.285	2.1879e-06	23.321	0.0072275	0.00088596	0.00026093	491.84	8.4553e-06	7.9285e-05	405.09	185.37	1.017e-05	1.0237e-05	176.76	63.831	74.106	30.503	9.7122e-06	24.335	330.350	202.517	281.700	192.510	287.309	278.857	190.772	197.964	288.463	310.712	196.436	199.132	202.486	208.227	269.767	203.655	-8191	255	
36069.754	1	1	0	0	0.21201	0.11616	0.076661	0.019864	0.21357	0.44948	0.18878	0.11624	0.30621	0.032892	0.17016	0.058725	0.065487	0.14013	0.070397	0.17847	-1.9542	-2.0583	-2.075	-2.375	-1.9771	-2.3354	-2.1271	-2.0604	-2.1417	-1.8125	-2.2313	-2.3521	-1.8354	-2.2646	-2.1625	-2.0396	14.493	-179.080	-150.626	-112.850	26.388	-153.461	-133.012	149.914	46.623	58.408	151.502	11.256	-9.473	68.471	-14.128	156.114	0.00099536	0.00032682	7.8185e-05	483.13	3.1852e-06	6.1417e-05	395.03	179.42	8.5595e-06	6.7415e-07	156.4	59.957	71.099	28.769	5.6792e-06	22.901	0.0041504	0.00091584	0.00026496	492.55	8.4813e-06	0.00014516	403.59	184.24	9.6507e-06	9.9693e-06	162.11	64.003	73.212	29.922	9.7683e-06	23.883	-10.698	-116.981	-62.377	-167.522	-80.337	-77.232	-169.856	-161.816	-65.385	-70.269	-163.971	-160.400	-157.897	-151.773	-48.301	-156.213	-8191	255	
36069.848	1	1	0	0	0.20982	0.24072	0.051295	0.123	0.33455	0.19099	0.34313	0.26477	0.21117	0.060512	0.23019	0.10286	0.25869	0.025032	0.24115	0.19726	-1.9083	-2.0375	-2.1542	-2.4896	-1.9813	-2.2229	-2.2687	-2.0125	-2.2938	-2.2	-2.0833	-2.4146	-2.1083	-2.2604	-2.1729	-1.8708	5.274	-64.142	-36.703	-89.172	-149.556	-119.939	176.010	156.413	169.169	-104.776	136.119	78.422	-75.906	85.874	-102.913	80.505	0.0018524	0.00013078	0.00010313	481.23	3.74e-06	3.5073e-05	393.76	179.35	3.3839e-06	2.6852e-06	155.7	59.871	70.945	28.64	3.1428e-06	23.03	0.0077233	0.00086327	0.00025519	493.02	8.438e-06	8.3904e-05	403.53	184.24	1.0243e-05	1.0061e-05	161.01	67.232	73.142	29.886	9.3399e-06	23.918	-22.565	-132.152	-81.474	-167.553	-65.472	-70.595	-169.728	-161.694	-39.311	-17.342	-165.009	-159.778	-157.625	-151.760	-84.567	-156.098	-8191	255	
36069.945	1	1	0	0	0.08676	0.20686	0.21349	0.11871	0.18339	0.035621	0.049036	0.17984	0.30104	0.070252	0.21399	0.083367	0.17285	0.41252	0.061162	0.15599	-1.8937	-2.0208	-2.0104	-2.3583	-1.8833	-2.2146	-2.1	-2.0333	-2.2729	-2.2521	-2.1333	-2.2729	-1.9354	-2.1583	-2.1813	-1.9	122.568	-38.604	143.201	174.078	-51.246	143.189	-1.868	59.773	-10.693	-162.188	159.510	-145.875	-152.712	157.041	36.754	-152.349	0.0011456	0.00011886	3.9027e-05	480.45	6.1832e-06	3.7986e-05	400.09	179.19	4.6256e-06	2.7939e-06	156.65	59.882	71.36	28.682	6.6397e-06	22.845	0.0044105	0.00089679	0.00024472	492.75	8.36e-06	0.00010495	410.08	183.78	9.1801e-06	1.006e-05	161.5	64.682	73.16	29.859	9.8184e-06	23.739	2.219	-62.497	-70.009	-167.824	-75.895	-21.300	-169.411	-161.598	-84.785	-62.861	-164.475	-160.570	-157.637	-151.584	-75.354	-156.566	-8191	255	
36070.066	1	1	0	0	0.12322	0.27079	0.30867	0.15988	0.16363	0.051696	0.21675	0.095322	0.27181	0.20249	0.11954	0.10252	0.27952	0.2124	0.057721	0.24767	-1.8708	-2.1146	-1.8917	-2.2708	-2.1604	-2.0854	-2.3229	-1.9625	-2.3167	-2.1562	-2.0812	-2.3646	-1.9542	-2.1771	-2.2458	-1.8708	533.778	394.676	230.003	337.714	509.387	513.264	370.922	223.056	320.127	219.315	380.781	446.001	518.429	457.956	500.099	294.147	0.0023771	0.0002876	0.00012803	478.03	2.1858e-06	2.3998e-05	390.53	177.16	4.8667e-06	9.6102e-07	154.57	58.667	71.243	28.923	3.5762e-06	22.81	0.0079951	0.00089973	0.00024217	488.64	8.0773e-06	1.2272e-05	411.26	182.68	9.5062e-06	1.0083e-05	159.53	66.974	73.138	30.106	9.8521e-06	23.886	349.044	275.330	261.362	192.162	283.881	337.715	190.397	197.877	284.749	330.514	195.264	200.085	202.431	208.129	315.672	204.182	-8191	255	
36070.160	1	1	0	0	0.082738	0.20825	0.19637	0.15824	0.23134	0.074512	0.040927	0.15933	0.12153	0.11402	0.27051	0.2762	0.14934	0.18802	0.13974	0.15508	-1.7104	-2.2313	-1.7958	-2.3187	-1.9562	-2.0792	-2.2646	-1.8458	-2.0875	-2.1792	-1.8146	-2.2438	-2.0208	-1.9396	-2.2417	-1.9083	-88.829	-101.325	180.053	-162.895	-178.982	19.176	-44.599	-87.455	-162.300	105.647	-147.136	172.306	-101.197	-146.395	84.571	101.656	0.0015528	0.00032016	4.0757e-05	478.77	4.1248e-06	1.3181e-07	394.75	178.95	6.8711e-06	1.5549e-06	155.17	60.268	71.423	29.067	6.5861e-06	23.311	0.0044154	0.00090623	0.00024983	489.53	8.3663e-06	1.0042e-05	429.51	183.6	9.0687e-06	1.0139e-05	160.4	64.781	73.694	30.409	1.0483e-05	24.258	2.342	-114.220	-28.724	-167.593	-73.020	-179.346	-169.304	-161.905	-66.075	-27.130	-164.967	-160.218	-157.536	-151.919	-54.883	-155.618	-8191	255	
36070.258	1	1	0	0	0.20797	0.034481	0.044754	0.16135	0.078243	0.019245	0.15001	0.080133	0.11115	0.23958	0.16198	0.31955	0.089534	0.19469	0.52709	0.16133	-1.8333	-2.1	-1.8125	-2.1917	-2.0542	-1.9833	-2.2958	-1.9104	-2.1354	-2.2687	-1.9583	-2.1417	-2.2104	-2.0417	-2.425	-2.0833	260.425	218.297	513.819	491.327	455.365	310.726	515.034	449.019	319.075	356.271	489.681	432.261	514.121	490.180	227.499	514.835	0.00036196	0.0057297	8.5307e-05	478.97	6.7358e-06	3.8706e-06	398.3	178.87	6.8307e-06	2.5703e-06	156.44	60.314	72.036	29.488	3.4652e-06	23.442	0.004953	0.0038129	0.00025065	490.23	8.7215e-06	1.0097e-05	417.32	183.99	9.4369e-06	1.0824e-05	161.56	67.766	74.128	30.676	9.593e-06	24.5	343.771	505.964	240.683	192.445	299.072	320.391	190.485	197.746	311.945	315.704	195.290	200.127	202.417	208.066	296.297	203.807	-8191	255	
36070.352	1	1	0	0	0.18975	0.046638	0.27624	0.16165	0.10317	0.2327	0.2979	0.16345	0.11233	0.19764	0.38497	0.17805	0.16177	0.088611	0.21924	0.064582	-1.75	-2.2167	-2.0208	-2.3333	-2.1583	-2.0854	-2.1479	-2.0292	-2.1542	-2.3104	-1.8625	-2.3563	-2.2021	-1.8104	-2.5	-2.0646	142.772	-135.728	-14.805	153.651	64.898	-46.074	54.439	110.977	-52.955	153.363	-85.846	168.546	-174.713	52.553	36.227	-75.405	0.00068231	0.0029754	7.4171e-05	478.67	3.8956e-06	1.8149e-06	399.76	178.41	6.5407e-06	4.5168e-06	158.84	60.735	72.218	29.497	6.2929e-06	23.798	0.00069527	0.0062884	0.00025226	490.74	9.0845e-06	1.0515e-05	431.45	183.61	9.0439e-06	1.1283e-05	162.84	65.588	74.314	30.793	1.0586e-05	24.669	53.569	157.376	-67.040	-167.262	-74.491	-19.850	-168.931	-161.600	-32.824	-36.868	-165.022	-160.403	-157.749	-152.049	-43.510	-156.429	-8191	255	
36070.449	1	1	0	0	0.3721	0.16926	0.17324	0.21809	0.18211	0.14917	0.086934	0.2271	0.23111	0.30517	0.21456	0.34748	0.22753	0.096668	0.26338	0.13326	-1.6646	-2.2438	-1.825	-2.5062	-2.1854	-1.8813	-2.2812	-2.1146	-2.0312	-2.4167	-1.8229	-1.9583	-2.2146	-1.8333	-2.0875	-2.0938	-35.520	50.210	-178.505	106.787	-158.866	60.756	-167.574	-42.730	-123.393	-163.902	-179.473	-144.178	-144.569	-125.609	147.777	161.027	0.00082203	0.0061114	2.6292e-05	479.67	2.8782e-06	2.6623e-06	393.64	177.65	6.564e-06	1.1021e-06	154.02	59.24	70.722	29.101	3.0586e-06	23.071	0.00073413	0.012763	0.00025072	489.38	9.0128e-06	1.0196e-05	414.43	182.51	9.351e-06	1.1726e-05	159.18	64.674	75.448	30.466	9.5446e-06	24.101	54.841	136.683	-170.629	-167.380	-80.359	-58.031	-169.455	-161.957	-60.390	-95.837	-164.580	-159.961	-158.006	-151.962	-52.796	-155.934	-8191	255	
36070.547	1	1	0	0	0.020763	0.29795	0.097868	0.1407	0.097348	0.067637	0.076191	0.2159	0.2834	0.071708	0.2699	0.33419	0.039833	0.26861	0.34409	0.084074	-1.3208	-2.1562	-1.8583	-2.1771	-2.175	-2.1437	-2.2292	-2.1396	-1.9396	-2.4708	-1.9083	-2.0667	-2.2917	-1.7604	-2.2062	-2.375	-82.934	-111.156	-89.938	-137.910	-144.077	92.508	84.309	-97.430	-16.478	116.406	-160.823	-98.089	154.473	82.346	-112.776	-101.832	0.00073959	0.0024611	5.8916e-05	474.21	2.9222e-06	1.8359e-06	389.73	176.45	5.6454e-06	3.6903e-06	153.91	60.202	71.238	29.468	5.904e-06	23.138	0.00070642	0.0071438	0.0002517	485.66	9.5767e-06	1.0421e-05	423.77	181.88	9.3213e-06	1.0832e-05	158.84	61.878	76.6	30.667	1.0816e-05	24.159	55.050	143.751	-105.964	-167.701	-57.870	-32.198	-168.886	-161.887	-46.027	-49.691	-164.905	-161.166	-158.048	-152.071	-65.405	-156.273	-8191	255	
36070.664	1	1	0	0	0.30786	0.23264	0.33325	0.16744	0.12114	0.25319	0.14178	0.051396	0.04981	0.1037	0.054895	0.16899	0.073484	0.072378	0.20519	0.19534	-1.4896	-2.1229	-1.7729	-2.1542	-2.3875	-1.9562	-2.3979	-2.075	-1.8875	-2.3646	-1.9417	-2.0458	-2.3167	-1.95	-2.3104	-2.1542	428.659	343.187	389.902	486.761	198.915	498.637	505.166	489.918	407.886	236.676	241.934	472.755	514.686	489.234	273.897	539.869	0.00080736	0.0056109	7.0099e-05	474.75	1.3991e-06	3.9693e-06	389.14	175.98	4.3926e-06	2.1242e-06	154.09	60.513	70.629	29.35	4.0429e-06	23.219	0.00072651	0.012999	0.00026234	485.23	9.1199e-06	1.0352e-05	410.98	181.25	9.2412e-06	1.1648e-05	158.71	61.972	79.821	30.557	9.967e-06	24.254	413.995	515.792	333.702	192.585	211.761	345.492	190.810	197.982	276.361	344.538	194.907	199.112	202.793	208.320	297.377	203.859	-8191	255	
36070.762	1	1	0	0	0.29441	0.11913	0.095234	0.086562	0.12676	0.18042	0.23844	0.12336	0.18148	0.13522	0.21079	0.15536	0.1792	0.025453	0.14615	0.098492	-1.5917	-2.2771	-1.8854	-2.0812	-2.4188	-2.0187	-2.2167	-2.1542	-1.8042	-2.3021	-2.0771	-1.7708	-2.2292	-1.9792	-2.2438	-2.1188	-131.028	83.998	86.091	-145.519	128.456	39.512	42.629	-83.614	-177.182	-168.391	-25.809	-55.490	115.496	10.949	105.661	-70.219	0.0006808	0.0025318	8.0188e-05	474.47	4.6619e-06	3.3554e-06	388.27	177.16	7.451e-06	1.5168e-06	153.82	60.774	70.977	29.601	6.2078e-06	23.497	0.00071359	0.0072092	0.00026467	484.7	9.7759e-06	1.0647e-05	412.37	185.08	9.455e-06	1.0735e-05	159.43	62.544	77.036	30.782	1.0334e-05	24.57	52.900	158.450	-130.858	-167.569	-52.370	11.230	-169.039	-161.474	-51.404	-63.480	-164.752	-160.827	-157.062	-151.881	-54.094	-156.257	-8191	255	
36070.855	1	1	0	0	0.032377	0.17433	0.33657	0.14728	0.14108	0.095222	0.13835	0.124	0.1862	0.16278	0.041788	0.14172	0.39592	0.060142	0.17971	0.1218	-1.3104	-2.2479	-2.0438	-2.0521	-2.3583	-1.9833	-2.2	-2.225	-1.9604	-2.2	-1.8958	-1.9229	-2.1583	-2.1312	-2.1	-2.2167	19.133	105.890	-170.447	102.615	-178.177	156.854	-3.570	80.050	38.508	127.458	-135.937	46.577	125.513	-140.600	-142.356	80.378	0.00079801	0.0054292	6.84e-05	470.45	3.4563e-06	3.7281e-06	387.9	175.51	4.0273e-06	2.0324e-06	154.15	59.993	70.052	29.157	3.9538e-06	22.899	0.00072415	0.012845	0.00027416	482.78	9.4373e-06	1.0833e-05	396.4	185.2	9.6218e-06	1.161e-05	158.8	62.043	79.498	30.345	9.5377e-06	23.999	53.862	176.773	-124.663	-167.479	-65.518	-17.242	-169.392	-161.975	-36.454	-2.786	-164.432	-160.540	-157.184	-151.721	-37.051	-156.795	-8191	255	
36070.977	1	1	0	0	0.32273	0.20349	0.33074	0.15308	0.2577	0.050722	0.28905	0.15779	0.10701	0.17074	0.34021	0.19401	0.19149	0.33807	0.22504	0.083937	-1.3667	-2.2854	-2.2271	-1.8646	-2.225	-2.0417	-2.1	-2.2979	-2.0771	-2.1604	-2.1729	-2.075	-2.2625	-2.0229	-2.1271	-2.2875	158.942	-65.895	-10.858	169.897	62.494	161.392	125.228	-133.448	-160.913	146.574	-138.968	-102.339	177.614	155.621	-25.846	-121.255	0.00074986	0.0026693	6.2847e-05	468.41	3.6388e-06	1.0125e-06	382.92	174.71	5.7852e-06	2.4586e-06	152.84	59.191	69.904	28.609	5.5636e-06	22.538	0.00069124	0.0067664	0.00024433	478.69	9.4042e-06	1.0008e-05	389.58	189.4	8.5263e-06	1.0082e-05	156.92	60.987	75.581	29.748	8.6524e-06	23.597	50.179	179.152	-53.139	-167.943	-102.072	-56.358	-169.591	-161.111	-59.472	-26.733	-165.130	-160.900	-157.749	-151.983	-26.104	-156.413	-8191	255	
36071.051	1	1	0	0	0.34335	0.15329	0.17698	0.17247	0.18297	0.10301	0.15319	0.14219	0.19907	0.13975	0.10848	0.11477	0.18405	0.097384	0.21367	0.13791	-1.4021	-2.3063	-2.0896	-1.9354	-2.3937	-2.2	-2.1333	-2.2646	-1.9375	-2.2479	-2.1771	-1.8625	-2.2458	-2.2229	-1.9312	-2.45	176.260	-6.700	47.316	162.489	13.903	65.671	100.593	157.709	99.857	14.284	144.250	36.223	-75.284	155.669	36.680	-8.274	0.00070131	0.0011645	0.0013903	468.83	3.4815e-06	1.7952e-06	379.86	173.1	8.0247e-06	3.4387e-06	154.57	62.603	71.255	30.691	3.5189e-06	25.528	0.00062257	0.0061749	0.001353	476.48	7.7056e-06	9.0468e-06	390.32	182.91	8.045e-06	9.1828e-06	159.72	64.468	79.094	32.018	8.7932e-06	26.603	50.912	-74.262	175.400	-167.843	-116.811	15.695	-169.461	-161.468	-83.008	-9.563	-165.203	-160.871	-157.421	-152.502	-52.256	-156.815	-8191	255	
36071.145	1	1	0	0	0.049491	0.093024	0.11497	0.38454	0.084789	0.28248	0.23782	0.19085	0.085282	0.27942	0.18327	0.080527	0.084664	0.23249	0.20801	0.38464	-1.5042	-2.2979	-2.0375	-1.8833	-2.3146	-2.0687	-1.9083	-2.4125	-2.1063	-2.05	-2.3479	-2.0917	-2.4708	-2.3688	-1.8667	-2.2604	140.174	-37.482	19.236	145.422	-160.553	-121.028	100.820	-8.946	-160.016	-72.216	179.054	-105.250	19.792	141.823	21.630	-34.037	0.00083765	0.00036887	0.0004011	440.57	5.9387e-06	2.8113e-06	372.9	160.8	7.3161e-06	2.5566e-06	145.54	61.707	66.646	31.721	2.5415e-06	26.836	0.00071133	0.00091662	0.0012986	451.18	9.6893e-06	1.1817e-05	380.86	169.88	1.0431e-05	1.1886e-05	150.01	63.289	69.626	33.043	1.1541e-05	27.9	49.481	-109.806	171.036	-167.615	-45.720	-15.568	-169.372	-162.001	-54.381	-1.881	-165.318	-160.913	-158.159	-153.167	-64.583	-157.612	-8191	255	
36071.242	1	1	0	0	0.15817	0.049376	0.027591	0.30946	0.069858	0.031994	0.059544	0.15904	0.093982	0.14102	0.16929	0.18022	0.054925	0.32976	0.094429	0.153	-1.6646	-2.025	-2.4271	-1.9708	-2.2812	-2.2958	-1.9854	-2.4062	-2.0229	-2.0771	-2.2375	-1.9688	-2.1021	-2.175	-1.875	-2.3063	216.187	271.317	352.902	184.100	409.138	523.758	507.802	457.849	351.362	478.882	526.667	400.235	425.168	442.322	375.624	428.205	0.00080598	0.00034841	0.00049312	420.06	2.8989e-06	4.5297e-06	357.96	143.36	6.4112e-06	1.8299e-06	132.5	55.834	59.878	29.373	4.2227e-06	25.436	0.00087982	0.0011677	0.0012778	429.8	1.154e-05	1.4355e-05	366.24	148.72	1.2832e-05	1.412e-05	136.76	57.463	62.855	30.953	1.2883e-05	26.482	414.194	291.367	208.186	191.926	300.446	284.187	190.336	197.842	274.454	347.284	194.530	199.000	202.214	206.834	265.710	202.227	-8191	255	
36071.359	1	1	0	0	0.10988	0.20323	0.28004	0.25525	0.054326	0.095219	0.068879	0.21859	0.096174	0.11217	0.1828	0.086806	0.14881	0.19217	0.37197	0.1079	-1.7062	-2.0771	-2.3375	-2.0792	-2.2271	-2.1167	-1.9083	-2.2958	-2.1937	-2.2313	-2.3187	-2.1083	-2.0042	-2.4521	-1.9458	-2.3083	376.499	537.299	500.505	415.601	530.372	468.867	460.402	524.883	335.038	297.983	193.834	477.858	220.687	227.945	321.319	390.264	0.00090605	0.00033233	0.00027234	418.75	3.4785e-06	3.5502e-06	358.76	141.33	4.1145e-06	4.6523e-06	127.6	52.769	58.009	28.011	2.5131e-06	23.399	0.00091455	0.0012896	0.00076287	430.72	1.2023e-05	1.4987e-05	366.11	148.56	1.2652e-05	1.4648e-05	132.52	54.604	59.954	29.468	1.3134e-05	24.462	410.138	214.715	202.801	192.023	283.825	338.698	190.085	197.742	324.700	336.617	194.728	199.238	201.834	206.732	296.740	202.340	-8191	255	
36071.457	1	1	0	0	0.19067	0.38338	0.09758	0.16238	0.062185	0.098714	0.21217	0.12305	0.21134	0.07622	0.26996	0.15968	0.10686	0.045794	0.24961	0.13117	-1.6604	-1.9021	-2.3271	-2.1937	-2.0667	-2.5438	-1.8604	-2.2313	-2.1063	-2.0979	-2.425	-1.9062	-2.1583	-2.2667	-1.9583	-2.2438	284.139	262.375	229.511	500.771	187.401	335.547	486.807	211.394	305.919	184.463	311.630	232.091	344.256	336.358	256.647	341.655	0.00075467	0.00018567	0.00040683	423.54	4.627e-06	5.3937e-06	353.72	137.23	6.7142e-06	1.5762e-06	122.56	49.613	54.494	25.867	1.7037e-06	21.922	0.00092025	0.001252	0.001075	432.63	1.1512e-05	1.4367e-05	362.59	142.62	1.2124e-05	1.3275e-05	126.51	51.081	56.446	27.284	1.263e-05	22.783	410.621	275.717	204.976	192.053	337.869	320.602	190.241	197.507	315.049	334.741	194.676	198.781	202.139	207.122	320.243	202.716	-8191	255	
36071.551	1	1	0	0	0.07717	0.061603	0.092036	0.19622	0.12053	0.14554	0.15234	0.12982	0.11004	0.052651	0.18432	0.20498	0.25414	0.14599	0.12979	0.17671	-1.8104	-1.8188	-2.1667	-2.0333	-2.3208	-2.5667	-2.1104	-2.2521	-2.3042	-1.9042	-2.3438	-2.2208	-2.1375	-2.2604	-1.9708	-2.0896	351.759	404.751	254.882	493.569	288.600	385.558	440.080	413.166	456.060	307.733	402.645	254.532	214.896	530.155	416.574	532.141	0.00073286	0.00036579	0.00013937	417.96	5.1004e-06	2.4424e-06	355.74	136.07	6.3359e-06	2.9437e-07	124.21	50.75	56.177	26.951	2.9787e-06	23.213	0.00087034	0.0012501	0.00066602	429.56	1.1704e-05	1.4527e-05	363.25	141.39	2.1834e-05	1.3795e-05	128.6	52.592	58.239	28.183	1.2802e-05	24.264	411.615	245.767	240.914	191.798	274.177	264.007	189.871	197.594	392.367	448.226	194.855	199.134	202.306	206.962	303.662	202.162	-8191	255	
36071.625	1	1	0	0	0.17802	0.26195	0.094567	0.16581	0.1452	0.2175	0.12975	0.13167	0.22159	0.15264	0.071644	0.12947	0.068011	0.28604	0.1069	0.13844	-1.8563	-1.9438	-2.1646	-2.3292	-2.0667	-2.2625	-2.0125	-2.1813	-2.3521	-1.9792	-2.1771	-2.0833	-2.2417	-2.4292	-2.3021	-1.9562	508.747	460.654	485.221	330.974	322.229	182.365	398.929	445.805	482.692	195.662	199.735	302.228	506.618	519.683	426.397	431.416	0.00070882	0.00016662	0.0003549	429.4	6.3821e-06	4.2483e-06	366.17	143.4	1.1498e-05	5.3485e-07	131.85	55.499	59.705	28.609	2.5582e-06	25.098	0.00089078	0.0012525	0.00091818	438.07	1.1592e-05	1.4144e-05	373.89	147.64	2.2292e-05	1.3562e-05	136.14	57.133	61.95	30.295	1.2309e-05	26.071	411.026	285.793	235.096	191.703	292.779	337.837	189.709	197.551	379.398	212.594	195.064	199.079	201.834	207.181	292.536	202.498	-8191	255	
36071.746	1	1	0	0	0.23219	0.17024	0.23483	0.24885	0.049442	0.22581	0.1522	0.30293	0.043173	0.1966	0.31416	0.11039	0.17975	0.081526	0.021688	0.22724	-1.8521	-1.9104	-2.3563	-2.1792	-1.8	-2.2	-2.0792	-2.2854	-2.1937	-2.05	-1.9896	-2.1979	-1.9271	-2.2854	-2.1979	-1.9375	234.990	393.531	433.561	249.769	341.237	313.211	399.780	522.660	454.894	417.760	331.034	230.487	376.383	320.577	310.493	394.823	0.00083589	0.00021054	0.00012241	427.19	2.436e-06	2.6964e-06	368.76	145.75	1.8628e-05	3.5559e-06	137.42	58.612	62.77	30.163	6.0645e-06	26.56	0.00087574	0.0011718	0.00061384	436.48	1.1292e-05	1.3136e-05	377.67	150.01	3.0133e-05	1.2554e-05	142.34	60.75	64.806	31.593	1.2086e-05	27.573	411.500	313.952	278.520	191.766	323.418	347.649	190.115	197.909	389.520	333.654	194.906	198.654	201.981	206.794	325.799	202.632	-8191	255	
36071.840	1	1	0	0	0.14102	0.083278	0.22475	0.20754	0.054245	0.013807	0.098308	0.22597	0.2148	0.2697	0.15586	0.10439	0.22111	0.20256	0.15541	0.17018	-1.7625	-1.9771	-2.0583	-2.3021	-1.8729	-2.2958	-2.1917	-1.9021	-2.2521	-2.0542	-2.2292	-2.2208	-1.7875	-2.1667	-2.2083	-2.1271	397.257	503.030	529.039	240.438	255.686	223.963	520.891	368.432	226.373	184.794	184.525	289.807	433.312	471.863	352.747	205.633	0.0008757	0.00024845	0.00017293	426.92	3.442e-06	2.9773e-06	377.87	151.08	3.6413e-06	2.7875e-06	147.42	63.644	66.859	31.988	2.0104e-06	28.25	0.00084942	0.0011603	0.00048727	438.6	1.067e-05	1.2467e-05	384.87	155.77	2.0212e-05	1.2385e-05	152.14	65.75	69.326	33.673	1.1163e-05	29.331	411.326	256.058	275.000	191.905	308.229	316.327	190.312	197.921	366.162	300.162	194.597	198.793	201.616	206.558	345.788	202.576	-8191	255	
36071.938	1	1	0	0	0.16598	0.20906	0.083318	0.29577	0.20333	0.15888	0.099844	0.14051	0.12435	0.24448	0.20796	0.14508	0.21616	0.082557	0.072168	0.15465	-1.7021	-1.7604	-2.2083	-2.2938	-1.9021	-2.1875	-2.3208	-1.9937	-2.3	-2.0938	-2.2	-2.25	-2.0604	-2.3979	-2.1688	-2.0771	484.006	509.961	202.810	483.678	351.561	450.605	525.823	393.029	484.832	191.043	529.035	360.450	381.594	224.175	305.214	434.591	0.00089348	0.00039199	7.1225e-05	429.36	6.1041e-06	1.4607e-06	384.68	157.49	1.3122e-05	2.7934e-06	153.54	65.748	69.222	31.906	2.4914e-06	27.569	0.00081085	0.001079	0.00029577	442.43	1.0192e-05	1.2141e-05	392.5	162.33	3.2372e-05	1.1332e-05	158.32	67.669	71.568	33.553	1.049e-05	28.662	413.113	283.186	212.312	192.012	313.077	277.069	190.150	197.880	385.077	361.286	194.937	198.655	201.796	206.728	308.093	202.785	-8191	255	
36072.059	1	1	0	0	0.21725	0.19979	0.11613	0.18028	0.071299	0.19407	0.093163	0.49205	0.1317	0.18661	0.044772	0.30458	0.26987	0.2938	0.22811	0.11221	-1.7333	-1.8438	-1.9833	-2.4833	-1.9125	-2.2313	-2.2938	-1.9417	-2.4104	-2.1021	-2.1333	-2.2938	-2.0875	-2.1792	-2.2354	-1.9354	206.685	500.262	406.607	530.837	517.544	409.472	501.836	536.916	235.065	501.158	423.419	535.331	516.055	500.712	403.559	304.495	0.00096679	0.00023078	0.00013741	433.75	4.7147e-06	2.0415e-06	379.66	161.04	1.1643e-05	5.4196e-06	152.1	65.052	70.452	31.534	2.3522e-05	26.832	0.00079975	0.00099874	0.0002804	448.31	9.3664e-06	1.1699e-05	387.62	165.65	2.6132e-05	1.1281e-05	157.37	66.631	72.584	33.067	2.9871e-05	27.79	416.210	261.062	292.033	192.363	329.823	364.151	190.289	197.773	396.205	332.445	195.171	198.516	201.420	206.878	218.231	202.602	-8191	255	
36072.152	1	1	0	0	0.30215	0.17293	0.10873	0.16903	0.428	0.16329	0.14476	0.2657	0.087612	0.20722	0.15107	0.15403	0.080076	0.1207	0.17004	0.044748	-2.0729	-2.2729	-2.0604	-2.2833	-1.8583	-2.1312	-2.2771	-2.0083	-2.3292	-1.9208	-1.9062	-2.3667	-1.8438	-2.0958	-2.1437	-1.9625	521.673	245.280	420.584	208.431	498.828	505.577	272.688	504.024	184.554	298.443	212.529	347.155	221.718	491.797	258.884	536.664	0.00087239	0.00031007	7.47e-05	437.67	4.8864e-06	1.4568e-06	375.51	163.72	2.8743e-05	4.6323e-06	153.77	64.412	70.682	31.29	1.0326e-05	26.023	0.00078585	0.00097336	0.00027488	451.78	9.5467e-06	1.1501e-05	386.58	167.89	4.7939e-05	1.0866e-05	157.77	66.214	72.821	32.477	3.1007e-05	27.104	407.512	233.008	308.406	192.373	297.098	304.220	190.190	197.741	415.015	358.437	194.825	198.627	201.495	207.010	212.429	202.808	-8191	255	
36072.250	1	1	0	0	0.18158	0.307	0.25942	0.22787	0.044461	0.080719	0.24397	0.09558	0.10846	0.14967	0.20736	0.19376	0.24192	0.43478	0.1693	0.25348	-1.7625	-2.0146	-2.1125	-2.325	-2.2521	-2.1083	-2.2896	-1.9958	-2.2313	-2.0812	-2.0604	-2.1917	-2.0875	-2.2292	-2.4104	-1.8958	341.658	492.115	364.436	400.588	307.377	267.180	200.706	199.240	341.421	360.405	378.791	329.319	514.405	480.972	467.063	187.179	0.00081381	0.00043459	6.5281e-05	441.77	1.7554e-06	2.6184e-06	379.85	163.93	2.0152e-05	3.1252e-06	152.93	64.629	70.442	30.98	2.3043e-05	26.109	0.00076856	0.0010077	0.00027526	459	8.8923e-06	1.1217e-05	388.31	168.9	2.8748e-05	1.0768e-05	157.68	66.092	72.858	32.296	5.6716e-05	27.11	408.642	259.125	223.101	192.522	331.441	355.074	190.538	197.971	405.008	365.524	194.845	198.885	201.659	207.377	213.469	203.033	-8191	255	
36072.348	1	1	0	0	0.031789	0.045639	0.27457	0.32207	0.18874	0.14606	0.27646	0.2606	0.18679	0.25207	0.25667	0.17853	0.051009	0.13782	0.1951	0.072744	-1.7208	-2.2646	-2.0208	-2.1917	-2.1167	-2	-2.2938	-1.9604	-2.2396	-2.2229	-1.9438	-2.1208	-2.0938	-1.9917	-2.3	-1.9667	-145.582	-12.876	34.629	155.735	-83.106	-53.568	111.501	127.476	-164.555	-148.837	93.479	-164.243	-168.380	136.743	-36.406	-108.027	0.00089927	0.00041701	0.00010416	442.24	3.4917e-06	1.7276e-06	380.16	163.4	4.151e-05	7.6554e-06	153.96	63.834	71.02	30.96	1.7769e-05	25.907	0.00076502	0.00099354	0.00026532	455.25	9.353e-06	1.1393e-05	388.2	169.27	2.0962e-05	4.1013e-05	158.19	65.814	73.02	32.273	3.2525e-05	26.938	49.316	-102.237	-90.537	-167.627	-70.749	-50.173	-169.373	-161.953	44.958	153.386	-165.308	-161.643	-158.587	-153.122	-124.515	-157.255	-8191	255	
36072.441	1	1	0	0	0.24577	0.2353	0.21457	0.12572	0.024455	0.38551	0.28621	0.019913	0.1565	0.091297	0.11755	0.096376	0.055922	0.29677	0.13515	0.21498	-1.6688	-2.1542	-1.9312	-2.2917	-2.1292	-1.7583	-2.325	-1.9	-2.1854	-2.325	-1.9542	-2.2979	-2.1375	-2.0375	-2.3917	-2.1562	240.038	439.874	335.833	311.194	525.575	343.036	251.970	517.599	483.446	402.249	347.843	529.208	377.502	489.518	288.586	331.737	0.00086534	0.00015985	0.00011311	442.01	4.5011e-06	1.4291e-06	378.23	162.76	5.0309e-06	1.0336e-05	150.52	62.177	69.423	30.013	2.1227e-05	24.458	0.00076468	0.001013	0.00026438	459.09	9.1002e-06	1.0992e-05	385.79	167.39	9.6391e-06	3.5614e-05	154.64	63.643	71.322	31.155	5.2546e-05	25.394	412.763	289.064	278.577	192.109	317.990	335.478	190.395	197.825	287.776	435.700	194.635	198.952	201.629	207.189	218.962	203.006	-8191	255	
36072.535	1	1	0	0	0.2101	0.1763	0.12595	0.23013	0.25	0.1745	0.21394	0.11397	0.26732	0.13657	0.069167	0.21958	0.14724	0.26084	0.42738	0.081806	-1.6854	-2.3333	-1.9	-2.1833	-2.2375	-1.825	-2.4708	-2.1229	-2.0583	-2.2375	-1.8104	-2.2229	-2.1854	-1.975	-2.5	-2.0083	309.851	344.307	393.434	355.747	404.373	253.267	479.845	212.642	286.951	444.429	216.916	488.896	403.832	510.280	318.813	539.559	0.00074778	0.00035643	7.1148e-05	433.46	8.3549e-06	2.8813e-06	367.33	161.54	5.8616e-06	2.5419e-05	146.45	60.869	69.13	29.782	1.0732e-05	24.108	0.00075486	0.0010071	0.00027449	449.23	9.7523e-06	1.1329e-05	375.53	166.07	9.9339e-06	6.1421e-05	151	62.5	71.397	31.051	3.2972e-05	25.131	411.243	266.221	280.902	192.166	271.178	346.497	190.232	197.958	322.587	456.909	194.622	199.023	201.671	206.933	242.485	202.606	-8191	255	
36072.656	1	1	0	0	0.1338	0.22559	0.14287	0.22683	0.042955	0.1447	0.22273	0.15866	0.19705	0.43097	0.18268	0.36022	0.098217	0.34363	0.030169	0.10185	-1.7729	-2.3896	-2.0583	-2.3146	-2.25	-1.8937	-2.3333	-2.1	-2.1333	-2.5312	-1.9958	-2.2708	-2.4167	-2.0687	-2.3979	-2.1229	258.613	281.481	352.150	509.125	488.731	384.079	449.181	357.750	374.907	536.633	246.990	493.261	230.623	449.413	444.451	271.818	0.00081366	0.00025782	6.5852e-05	440.05	1.4992e-05	3.8751e-06	367.83	163.12	3.7283e-06	1.1509e-05	147.01	61.048	69.761	29.888	2.5653e-05	23.908	0.00077593	0.0010749	0.00028604	451.93	3.7042e-05	1.1878e-05	376.8	168.01	9.8967e-06	3.8252e-05	152.21	62.784	72.073	31.106	6.0091e-05	24.961	410.817	304.550	296.350	192.357	256.991	356.209	190.107	197.866	341.796	463.044	194.908	198.799	202.059	207.248	221.230	203.049	-8191	255	
36072.754	1	1	0	0	0.25754	0.18978	0.1681	0.16518	0.097956	0.25565	0.12807	0.178	0.19799	0.12336	0.16885	0.15207	0.21099	0.16281	0.20385	0.040625	-1.5938	-2.3833	-2.2021	-2.1354	-2.275	-2.1271	-2.1958	-2.2167	-2.1646	-2.4083	-1.9854	-2.1688	-2.3542	-2.0396	-2.1375	-2.2354	423.350	324.305	368.044	203.810	445.410	395.674	484.793	429.583	344.774	457.603	482.258	453.816	183.084	485.198	297.787	309.213	0.00077251	0.00010637	7.7399e-05	441.25	1.5997e-05	2.3257e-06	371.38	164.43	6.1383e-06	2.9484e-05	147.64	60.873	70.274	30.008	4.7797e-06	24.166	0.00077907	0.0010788	0.00029233	452.45	3.3148e-05	1.209e-05	378.81	169.34	1.0323e-05	7.4516e-05	152.38	62.857	72.601	31.241	3.3186e-05	25.128	413.963	193.007	290.485	192.181	315.353	361.118	190.298	197.737	303.453	470.189	194.713	198.811	202.267	207.512	318.408	202.930	-8191	255	
36072.852	1	1	0	0	0.19411	0.19486	0.096495	0.29204	0.13556	0.13522	0.22634	0.027548	0.082978	0.1662	0.20686	0.24718	0.02388	0.30144	0.24885	0.18692	-1.425	-2.025	-1.8396	-2.0833	-2.3375	-1.8937	-2.1896	-2.0125	-2.1437	-2.3333	-2.225	-2.0583	-2.1854	-2.0646	-2.1271	-2.2417	492.703	362.168	375.817	434.776	458.059	409.172	528.233	510.248	467.112	505.898	303.431	499.155	498.457	505.376	346.356	375.330	0.00076096	0.00026312	6.9553e-05	442.97	3.6034e-05	3.3934e-06	371.65	165.51	5.8343e-06	1.3319e-05	146.56	60.779	70.315	29.863	6.5173e-06	24.093	0.00079843	0.0011084	0.00029327	454.29	6.3169e-05	1.239e-05	378.91	169.86	1.0293e-05	4.4794e-05	152.4	62.957	72.477	31.128	2.0905e-05	25.668	410.358	280.115	237.170	192.203	338.822	327.023	190.573	197.954	339.444	470.335	194.711	198.750	202.101	207.261	309.658	202.564	-8191	255	
36072.922	1	1	0	0	0.031361	0.18448	0.11832	0.2538	0.30614	0.029744	0.18912	0.11803	0.043182	0.23489	0.39845	0.31449	0.16205	0.17168	0.081404	0.0077977	-1.5104	-2.3187	-1.9208	-1.8979	-2.3167	-1.9271	-2.15	-2.0542	-1.8604	-2.3167	-2.0083	-2.05	-2.275	-1.9875	-2.0542	-2.2521	501.455	461.082	387.257	192.550	344.646	403.898	341.100	487.610	427.027	316.270	494.636	246.584	273.952	277.710	463.399	235.290	0.00081845	0.00029848	6.9994e-05	441.24	2.2172e-05	3.1645e-06	363.8	164.51	7.9408e-06	2.4392e-05	144.76	59.552	69.89	29.392	3.1108e-06	23.208	0.00079391	0.0010547	0.00029113	453.02	3.7674e-05	1.1786e-05	373.71	169.12	1.0458e-05	8.1964e-05	149.68	61.237	71.708	30.539	1.0942e-05	24.763	409.435	269.018	313.300	192.089	330.517	313.325	190.579	197.917	293.624	480.727	194.926	198.576	202.394	207.368	256.707	202.726	-8191	255	
36073.043	1	1	0	0	0.16418	0.088883	0.19994	0.27152	0.25859	0.091255	0.13175	0.23342	0.11806	0.055655	0.15802	0.10396	0.14958	0.043115	0.22947	0.093953	-1.4729	-2.0563	-2.1792	-2.0125	-2.3	-2.075	-2.1063	-2.2396	-1.9354	-2.1271	-2.1146	-1.9438	-2.4333	-1.8833	-2.0667	-2.3187	443.379	186.611	393.662	526.698	338.848	388.269	459.105	439.498	513.675	352.278	519.263	287.712	432.688	296.315	435.501	452.035	0.00069674	0.00025576	4.2418e-05	444.05	4.7165e-05	4.8312e-06	365.82	165.07	8.1741e-06	1.0526e-05	144.83	60.706	70.172	29.793	7.268e-06	23.872	0.00078629	0.0010684	0.00028732	452.89	6.923e-05	1.1889e-05	373.18	169.72	1.0499e-05	3.9091e-05	151.12	62.125	72.792	31.075	1.0697e-05	25.888	415.003	232.601	272.664	192.324	343.209	348.997	190.273	197.890	320.743	424.128	194.348	198.950	202.036	207.244	314.369	202.950	-8191	255	
36073.137	1	1	0	0	0.13169	0.23746	0.027102	0.081265	0.22002	0.070748	0.10104	0.15406	0.28081	0.11177	0.11917	0.3476	0.22296	0.06628	0.16676	0.10692	-1.3937	-2.2083	-2.0271	-2.2625	-2.3146	-2.0479	-2.0563	-2.3958	-1.9438	-2.1729	-2.3521	-1.9729	-2.3271	-2.2562	-2.0083	-2.3417	298.920	469.626	203.895	307.321	307.917	447.134	187.142	472.425	272.363	478.251	440.824	313.683	516.581	486.950	340.921	246.118	0.00078201	0.00026969	5.5351e-05	446.3	2.2547e-05	2.1219e-06	369.08	166.2	1.854e-06	2.3837e-05	148.41	61.76	72.035	30.31	3.1834e-06	24.271	0.00078094	0.0010861	0.00029894	456.91	3.9627e-05	1.2236e-05	378.32	172.1	1.0929e-05	2.1035e-05	161.11	63.379	73.917	31.622	1.1123e-05	25.841	407.667	273.642	250.528	192.521	344.141	371.978	190.342	197.850	369.515	425.607	194.623	198.692	202.123	207.243	313.565	202.815	-8191	255	
36073.234	1	1	0	0	0.056169	0.21456	0.066219	0.22611	0.064357	0.054714	0.068962	0.15233	0.16325	0.27979	0.16736	0.080379	0.16597	0.24771	0.31895	0.21519	-1.5479	-1.9917	-2.2646	-1.9521	-2.1771	-2.0604	-2.2375	-2.2708	-2.0458	-2.1333	-2.2271	-1.8833	-2.2208	-2.1604	-2.1292	-2.4333	277.139	261.225	302.205	360.436	207.040	422.034	408.142	434.554	379.621	386.676	226.883	511.454	214.811	483.398	382.874	243.534	0.00075239	0.00037179	3.4501e-05	449.69	4.7262e-05	3.5606e-06	374.4	169.12	9.5624e-06	5.7044e-06	151.75	62.921	72.509	31.095	3.3921e-06	25.321	0.0008083	0.0011039	0.00032394	460.52	7.0474e-05	1.2353e-05	383.9	173.93	1.1066e-05	1.253e-05	161.76	64.878	75.07	32.426	1.2044e-05	27.394	415.411	272.986	241.731	192.481	350.866	298.243	190.776	197.910	305.942	331.537	194.901	198.915	201.975	207.380	291.739	202.715	-8191	255	
36073.328	1	1	0	0	0.34936	0.2497	0.079838	0.2088	0.093367	0.13609	0.2139	0.12296	0.049819	0.14119	0.23918	0.287	0.19431	0.13327	0.16876	0.098063	-1.5167	-2.1667	-2.1354	-1.9292	-2.1875	-2.2438	-1.9104	-2.3896	-2.0167	-1.9646	-2.3021	-2.1063	-2.1375	-2.2875	-1.975	-2.4333	282.132	373.640	311.881	411.957	332.751	342.224	366.947	226.356	233.507	357.496	495.647	457.643	184.031	182.255	314.739	310.251	0.00084173	5.1457e-05	4.543e-05	452.67	2.6054e-05	1.147e-06	379.17	169.58	4.4751e-06	2.5911e-06	151.78	64.619	73.441	31.773	4.3817e-06	25.494	0.00086037	0.0011664	0.00033289	463.88	3.2211e-05	1.8883e-05	389.24	174.64	1.1626e-05	1.318e-05	168.61	66.208	75.803	33.054	1.2101e-05	27.215	412.941	224.269	272.163	192.311	360.818	426.486	190.628	197.938	328.295	304.264	194.636	199.038	202.031	207.528	343.394	203.118	-8191	255	
36073.426	1	1	0	0	0.18577	0.28	0.10199	0.18892	0.19296	0.023143	0.23481	0.048689	0.11671	0.29341	0.23148	0.2068	0.11041	0.14172	0.12519	0.038921	-1.5896	-1.9583	-2.2667	-2.1979	-2.1833	-2.3063	-1.9188	-2.4979	-2.1125	-1.9833	-2.3708	-2.0396	-2.2042	-2.1958	-1.7521	-2.3542	135.964	-8.653	54.930	-173.907	-167.480	-143.524	52.475	-141.459	102.780	0.821	-164.650	40.752	99.405	22.912	49.115	-108.073	0.00083016	0.00037715	6.7891e-05	452.53	4.7515e-05	7.3308e-06	377	169.13	7.374e-06	1.4926e-06	151.64	64.513	74.143	32.042	5.2215e-06	26.037	0.00087103	0.0011841	0.0003376	462.11	1.5606e-05	7.2743e-05	386.32	174.55	1.1322e-05	1.3215e-05	162.53	66.266	76.174	33.446	1.2114e-05	28.284	52.407	-101.773	-110.196	-167.861	2.083	141.376	-169.374	-161.837	-49.764	-38.993	-165.035	-161.190	-158.055	-152.878	-37.023	-157.280	-8191	255	
36073.523	1	1	0	0	0.26789	0.10166	0.30911	0.21462	0.31116	0.10684	0.08271	0.16591	0.13181	0.14667	0.2322	0.072439	0.20049	0.24136	0.30829	0.094927	-1.75	-1.8521	-2.6188	-2.0354	-2.2708	-2.3708	-1.9188	-2.275	-2.1729	-2.0833	-2.3312	-1.7854	-2.1521	-2.2292	-1.9562	-2.2979	289.608	264.617	269.950	358.998	401.894	183.044	371.346	456.197	237.951	533.327	304.804	477.755	219.783	464.574	287.889	361.365	0.00086072	0.00043994	6.0813e-05	450.01	3.4568e-06	1.7303e-05	377.04	168.32	6.4436e-06	2.2663e-06	150.88	64.488	73.501	32.061	7.8162e-06	26.315	0.00087624	0.0011603	0.00032574	459.71	1.0982e-05	5.1919e-05	385.88	173.04	1.1593e-05	1.3131e-05	167.52	66.262	75.709	33.527	1.2016e-05	27.897	415.897	266.584	247.317	192.270	285.649	383.762	190.486	197.927	288.863	334.376	194.212	198.925	202.164	207.281	297.555	203.315	-8191	255	
36073.617	1	1	0	0	0.23542	0.16268	0.11819	0.034068	0.33086	0.20816	0.098893	0.059674	0.13957	0.1574	0.34705	0.13239	0.098901	0.15079	0.49321	0.16341	-1.55	-1.8917	-2.3438	-1.9979	-2.0646	-2.4813	-1.9479	-1.9229	-2.3438	-2.1271	-2.275	-2.2271	-2.0333	-2.3375	-1.9646	-2.3812	4.054	6.780	160.259	34.766	137.214	90.346	-39.408	173.373	97.836	-58.154	34.139	-4.855	-39.906	108.533	-43.801	136.854	0.001372	0.000248	7.4722e-05	449.86	2.9063e-06	3.7805e-05	384.29	169.39	9.2732e-06	3.8164e-06	154.01	66.74	74.65	33.396	5.0841e-06	27.635	0.0012369	0.0011864	0.00033902	460.35	1.1374e-05	9.1189e-05	392.64	174.76	1.1973e-05	1.3566e-05	166.17	68.688	77.229	34.82	1.2611e-05	28.807	48.246	-91.913	-73.223	-167.490	-48.034	38.481	-169.522	-161.787	-63.539	-46.578	-164.866	-161.113	-158.112	-152.654	-54.819	-156.600	-8191	255	
36073.738	1	1	0	0	0.32955	0.18275	0.092523	0.097031	0.11442	0.14353	0.088307	0.24368	0.16864	0.017328	0.16914	0.13333	0.079057	0.14536	0.27183	0.27862	-1.8708	-1.8583	-2.2625	-2.3292	-2.0604	-2.3208	-1.9312	-2.2958	-2.1625	-1.975	-2.3396	-2.0583	-2.1667	-2.2896	-1.9833	-1.9458	388.087	394.185	215.801	470.949	220.948	426.910	468.039	483.538	202.004	321.011	500.087	191.550	432.095	519.363	466.766	323.564	0.0017508	0.0001597	6.2649e-05	453.67	4.479e-06	1.8344e-05	387.27	168.61	9.3714e-06	5.134e-06	154.9	66.91	74.335	33.131	4.6389e-06	27.376	0.0041219	0.0012455	0.00033705	463.41	1.1363e-05	5.3588e-05	396.45	174.33	1.243e-05	1.3423e-05	171.49	68.965	76.651	34.463	1.219e-05	28.48	411.889	290.759	217.271	192.554	300.410	393.794	190.417	197.974	346.885	324.534	194.110	199.048	202.264	207.175	284.540	202.652	-8191	255	
36073.836	1	1	0	0	0.12656	0.43589	0.051743	0.11289	0.28034	0.27755	0.12068	0.15718	0.1004	0.13762	0.076148	0.14491	0.25697	0.1365	0.25437	0.22201	-1.6458	-1.95	-2.1771	-2.0729	-1.9625	-2.275	-2.0021	-2.2125	-2.2792	-1.9	-2.3021	-2.325	-1.7208	-2.3063	-2.1417	-2.0542	75.270	-2.123	158.835	-15.288	176.009	22.291	92.424	-138.531	4.475	152.439	128.637	143.120	-96.460	-112.672	-112.520	-98.450	0.001373	0.00026628	4.9361e-05	445.81	2.1408e-06	3.6197e-05	378.97	164.48	3.4575e-06	2.9968e-06	150	64.682	71.769	31.935	5.9199e-06	26.199	0.0028454	0.0011739	0.00034295	457.14	1.1204e-05	9.0161e-05	388.43	169.75	1.1712e-05	1.329e-05	158.31	66.624	73.901	33.317	1.2469e-05	27.26	63.382	-123.225	-112.932	-167.634	-32.523	54.788	-169.418	-161.974	-41.708	-19.591	-164.897	-161.452	-158.085	-152.928	-58.594	-156.997	-8191	255	
36073.930	1	1	0	0	0.26112	0.14704	0.30437	0.13416	0.18378	0.089926	0.21194	0.30606	0.16571	0.17693	0.13905	0.13521	0.15979	0.16681	0.13006	0.23296	-2.0104	-2.0583	-2.0021	-2.3333	-1.925	-2.3125	-1.9896	-2.0958	-2.4188	-1.8312	-2.1833	-2.3708	-1.7625	-2.2125	-2.2062	-1.9792	369.431	496.107	377.770	501.834	480.116	433.417	504.503	460.963	406.310	512.962	224.276	462.574	215.096	226.775	508.023	505.265	0.0016165	0.00046501	0.00010067	440.66	2.6736e-06	1.2971e-05	372.9	161.3	6.4694e-06	4.0781e-06	146.48	63.072	70.059	31.239	2.8489e-06	25.988	0.0046142	0.0011924	0.0003326	450.45	1.1005e-05	5.1892e-05	382.49	165.85	1.2333e-05	1.3486e-05	151.54	67.358	72.366	32.692	1.2472e-05	26.924	440.814	253.868	316.789	192.376	279.409	404.967	189.982	197.759	350.389	342.243	194.990	198.082	201.694	207.350	316.953	202.601	-8191	255	
36074.027	1	1	0	0	0.25405	0.17086	0.24842	0.15763	0.10789	0.14167	0.24511	0.10092	0.20454	0.19695	0.1613	0.12409	0.17095	0.26864	0.13304	0.24032	-1.9167	-1.9521	-2.1354	-2.275	-1.8354	-2.3333	-2.1167	-2.2583	-2.2438	-2.0604	-2.1229	-2.1896	-1.8729	-2.3792	-2.2354	-1.8937	-14.588	55.891	-148.075	-98.746	147.127	-120.321	127.556	-170.882	67.551	-89.824	111.950	93.182	-4.224	175.336	81.603	-62.292	0.0011884	0.00016892	9.5893e-05	435.17	5.4535e-06	3.3961e-05	372.39	158.89	5.364e-06	2.7243e-06	143.96	61.72	68.769	30.805	2.0817e-06	25.316	0.0027521	0.0011902	0.00034096	446.74	1.1569e-05	8.5855e-05	379.93	162.98	1.2073e-05	1.3105e-05	148.73	65.136	71.021	32.187	1.2176e-05	26.511	74.046	-101.253	-71.284	-167.876	-95.048	74.699	-169.647	-161.938	-51.395	-30.864	-165.604	-161.241	-157.959	-153.181	-43.828	-157.306	-8191	255	
36074.148	1	1	0	0	0.090473	0.046936	0.26855	0.23928	0.12436	0.14628	0.17598	0.17429	0.080543	0.1484	0.066971	0.18331	0.15153	0.25863	0.1048	0.26408	-1.8625	-1.8188	-2.075	-2.2146	-1.9042	-2.2604	-2.2604	-1.9333	-2.3292	-1.9521	-2.0917	-2.3563	-1.8375	-2.0896	-2.1688	-1.9375	361.966	387.361	474.545	476.239	419.540	372.215	249.836	251.710	332.309	287.834	525.732	392.687	353.917	215.089	463.492	520.966	0.0016479	0.00023483	5.7659e-05	432.44	3.4021e-06	1.8601e-05	368.79	155.21	8.9474e-06	2.5868e-06	141.84	60.477	67.353	30.133	1.254e-06	24.868	0.0044098	0.0011896	0.00034139	443.46	1.1466e-05	3.4333e-05	378.56	160.59	1.2234e-05	1.4036e-05	146.52	65.217	69.631	31.447	1.3109e-05	25.946	444.110	222.402	267.521	192.217	316.592	402.150	190.279	197.887	284.523	347.585	194.735	198.470	201.790	207.233	327.657	202.898	-8191	255	
36074.219	1	1	0	0	0.13993	0.057709	0.16827	0.071733	0.11275	0.062597	0.069138	0.22327	0.24282	0.17091	0.11925	0.21783	0.1657	0.13356	0.058988	0.045726	-1.8229	-1.9604	-1.9562	-2.4479	-1.9417	-2.0563	-2.2875	-1.9625	-2.3979	-1.9562	-2.0292	-2.0917	-1.8667	-2.075	-2.1729	-2.0125	-103.331	156.996	-169.845	30.799	15.072	130.335	-164.408	121.684	116.216	-129.947	5.432	-149.782	46.890	155.270	125.039	109.955	0.0011156	0.00039272	6.8424e-05	431.88	4.0073e-07	1.3107e-06	363.69	154.48	2.5788e-06	2.4678e-06	137.92	59.145	66.568	29.388	2.5194e-06	23.927	0.0026497	0.0012562	0.00034182	443.71	1.1745e-05	1.4105e-05	386.86	158.95	1.2242e-05	1.4002e-05	143.07	62.101	68.489	30.722	1.381e-05	24.982	76.124	-99.372	-135.335	-168.105	18.506	37.642	-169.890	-162.006	-30.646	-87.878	-164.842	-161.308	-158.141	-152.983	-65.937	-157.362	-8191	255	
36074.340	1	1	0	0	0.23431	0.048409	0.0082793	0.24695	0.17068	0.12377	0.17112	0.066441	0.15685	0.31584	0.14976	0.033749	0.060114	0.28155	0.24907	0.085624	-1.7	-2.0792	-2.0146	-2.3458	-2.0375	-2.2021	-2.3688	-1.9604	-2.3646	-2.225	-2.1583	-2.4021	-2.0896	-2.0292	-2.3	-2.0458	463.913	350.557	376.900	399.005	468.046	293.831	327.318	451.465	209.106	454.733	305.506	204.878	459.796	447.344	371.976	410.572	0.0014228	0.00019698	0.00014168	429.76	5.2096e-06	3.3623e-06	353.98	152.95	3.8561e-06	2.1783e-06	136.03	58.955	66.969	29.724	2.2483e-06	24.058	0.0044152	0.001275	0.00034884	439.56	1.1834e-05	1.4358e-05	373.63	158.12	1.2712e-05	1.4089e-05	142.04	63.501	68.983	31.074	1.3677e-05	25.189	453.984	189.355	254.771	192.169	262.474	293.121	190.504	197.741	307.332	350.327	195.293	198.823	201.788	207.062	272.083	202.735	-8191	255	
36074.434	1	1	0	0	0.061108	0.23419	0.10194	0.13499	0.36671	0.091429	0.23123	0.16462	0.42182	0.22501	0.16011	0.13062	0.13984	0.17992	0.039488	0.18425	-1.8	-1.9354	-1.6729	-2.2458	-1.925	-2.1854	-2.3438	-1.7313	-2.2042	-2.1042	-1.8708	-2.3458	-2.225	-2.1	-2.2604	-1.9875	493.589	538.628	203.421	299.963	511.448	353.642	506.484	524.304	199.591	316.415	446.505	435.073	184.370	407.429	530.490	414.579	0.00078289	0.00094803	4.3774e-05	431.42	5.9382e-06	3.0056e-06	357.99	156.37	4.0541e-06	4.3263e-06	140.25	60.591	67.883	30.5	3.1193e-06	24.614	0.0018917	0.0023829	0.00035767	442.3	1.2281e-05	1.4567e-05	386.65	161.06	1.2468e-05	1.4648e-05	144.75	63.587	70.28	31.774	1.3737e-05	25.738	440.265	209.569	260.661	191.948	269.050	321.382	190.819	197.754	337.700	335.969	194.833	198.746	202.101	207.305	297.479	202.927	-8191	255	
36074.531	1	1	0	0	0.32535	0.3071	0.27962	0.29475	0.01286	0.14336	0.20946	0.12324	0.17717	0.2802	0.11421	0.17611	0.0225	0.23079	0.2483	0.31563	-1.75	-2.1229	-1.9083	-2.1979	-2.1104	-2.0708	-2.3125	-1.8604	-2.2542	-2.4396	-1.8875	-2.4646	-2.1417	-2.0271	-2.1958	-1.9354	359.203	328.504	416.286	435.370	228.992	279.719	210.871	280.645	181.838	520.316	323.106	378.607	309.367	514.590	477.299	488.127	0.00087656	0.0014123	5.7168e-05	435.29	3.0038e-06	3.1292e-06	361.46	157.64	1.5487e-06	2.1393e-06	141.23	60.925	69.245	30.915	4.1483e-06	25.113	0.00094471	0.0080168	0.00036521	447.01	1.2412e-05	1.5088e-05	382.66	162.62	1.2373e-05	1.5393e-05	146.39	66.05	71.365	32.223	1.4007e-05	26.197	410.346	204.485	253.803	192.363	292.443	339.132	190.232	197.818	321.975	305.056	194.975	198.777	202.066	207.133	288.132	203.158	-8191	255	
36074.625	1	1	0	0	0.10382	0.3648	0.32631	0.1523	0.10099	0.073326	0.19144	0.18888	0.076557	0.15851	0.27676	0.16615	0.041745	0.097152	0.11158	0.067807	-1.7646	-2.0479	-1.8833	-2.1667	-2.2229	-2.0917	-2.2062	-2.0458	-2.1083	-2.3375	-1.9396	-2.1688	-2.3375	-2	-2.2833	-2.1104	-113.384	77.424	-161.411	-7.257	-137.494	176.668	-115.157	123.143	175.382	111.412	58.988	-15.035	129.276	141.472	62.250	65.035	0.00081612	0.0018574	0.00012513	438.45	4.8912e-06	3.1582e-06	364.47	157.92	1.0182e-05	2.2614e-06	143.13	61.327	69.378	30.978	4.5262e-06	24.937	0.00094913	0.0049146	0.00036982	449.84	1.2742e-05	1.5123e-05	394.85	163.21	1.3314e-05	1.5279e-05	147.68	64.054	72.281	32.189	1.3993e-05	26.088	50.806	-85.816	-86.942	-167.711	-69.444	-43.803	-169.631	-161.909	-29.776	-25.473	-164.750	-161.233	-158.491	-153.178	-7.703	-157.015	-8191	255	
36074.746	1	1	0	0	0.26187	0.13188	0.13333	0.075129	0.26727	0.20369	0.12327	0.079472	0.10945	0.21078	0.15697	0.17021	0.12169	0.10119	0.1754	0.19276	-1.6437	-2.3375	-2.0146	-2.3396	-2.0687	-2.0354	-2.3021	-2.15	-2.0687	-2.4583	-2.1042	-2.2854	-2.3812	-1.8937	-2.2458	-2.2146	489.115	410.340	414.201	425.200	190.159	466.804	215.961	310.169	238.325	459.916	402.637	531.551	186.963	235.527	230.341	270.423	0.00082608	0.0030515	6.3979e-05	435.97	4.1434e-06	2.2459e-06	361.88	156.26	5.9172e-06	4.7412e-06	139.35	60.124	68.111	30.667	3.5181e-06	24.652	0.00094594	0.0085316	0.0003722	446.95	1.2577e-05	1.4947e-05	380.83	161.67	1.2775e-05	1.5374e-05	144.77	61.978	74.791	31.886	1.405e-05	25.68	411.329	293.762	287.354	192.409	277.606	329.479	190.249	197.984	344.091	325.757	194.471	198.759	201.807	207.247	314.587	202.870	-8191	255	
36074.816	1	1	0	0	0.22039	0.10112	0.11635	0.26204	0.24682	0.22322	0.088838	0.043675	0.23207	0.1626	0.13997	0.1405	0.23338	0.18954	0.31224	0.27858	-1.6396	-2.3229	-1.9396	-2.0729	-2.3	-1.7437	-2.1833	-2.2396	-1.9688	-2.3167	-2.0604	-2.1708	-2.2708	-2.0542	-2.1813	-2.1813	482.149	521.093	245.199	513.389	341.317	443.048	340.882	411.295	320.579	526.955	414.804	517.935	253.342	519.972	427.913	521.793	0.00085013	0.001924	5.373e-05	438.34	3.4068e-06	1.4926e-06	363.16	158.5	4.9707e-06	3.5569e-06	140.61	60.553	69.847	30.908	4.0311e-06	24.881	0.00095719	0.0051707	0.00036176	448.94	1.3079e-05	1.5419e-05	391.59	163.42	1.3189e-05	1.534e-05	145.83	62.798	73.978	32.255	1.4511e-05	25.997	414.350	300.912	267.268	192.088	275.416	301.935	190.169	197.791	322.861	386.873	195.103	199.082	201.791	207.225	337.547	203.092	-8191	255	
36074.914	1	1	0	0	0.15197	0.094974	0.20677	0.1766	0.21168	0.1159	0.12376	0.17082	0.23155	0.0017876	0.12699	0.22852	0.13113	0.22409	0.29273	0.19253	-1.5146	-2.2062	-2.0125	-2.0583	-2.1958	-1.9813	-2.2021	-2.0625	-1.8583	-2.2354	-1.9729	-1.9375	-2.0771	-1.8771	-2.2625	-2.2229	429.538	520.912	212.010	478.179	383.321	370.496	484.840	409.184	203.369	180.000	192.631	398.021	505.868	534.656	328.431	221.878	0.00089038	0.0041879	7.6265e-05	437.73	2.6442e-06	4.3235e-06	366.43	159.83	5.6117e-06	2.1353e-06	143.04	61.712	70.262	31.1	2.0257e-06	25.208	0.00097757	0.0094316	0.00038229	450.87	1.3219e-05	1.5574e-05	380.42	165.88	1.351e-05	1.5664e-05	147.28	63.606	76.467	32.527	1.3745e-05	26.462	409.830	305.688	254.547	192.061	305.941	322.139	190.976	197.837	301.425	294.630	195.072	198.975	201.153	207.108	304.387	203.209	-8191	255	
36075.012	1	1	0	0	0.085664	0.029391	0.15357	0.047192	0.1875	0.24043	0.093025	0.23893	0.24454	0.16712	0.16864	0.24268	0.27824	0.14551	0.30984	0.18767	-1.5187	-2.2188	-2.1146	-1.9813	-2.3583	-1.8458	-2.2833	-2.175	-1.95	-2.3708	-1.975	-2.0187	-2.1917	-1.9771	-2.225	-2.3667	255.368	509.641	533.721	218.924	203.193	425.044	222.686	206.994	448.233	417.293	517.335	370.240	331.425	514.224	538.381	206.032	0.00070881	0.0019546	6.8038e-05	443.62	3.1829e-06	1.9828e-06	369.33	158.57	5.8839e-06	3.0393e-06	144.98	62.133	70.339	31.428	3.3467e-06	25.846	0.00096279	0.0055691	0.0003747	453.2	1.3513e-05	1.5499e-05	380.1	172.6	1.3356e-05	1.5988e-05	149.16	64.119	74.946	32.816	1.3443e-05	26.945	413.442	307.513	264.738	192.267	322.978	357.372	190.206	197.691	288.177	320.578	195.110	199.054	201.741	207.259	314.586	202.679	-8191	255	
36075.105	1	1	0	0	0.1952	0.05124	0.18857	0.10854	0.066502	0.29509	0.13068	0.053123	0.13151	0.063607	0.3139	0.039096	0.061787	0.27222	0.078114	0.22308	-1.3521	-2.2229	-1.9813	-2.0271	-2.3875	-2.0646	-2.1083	-2	-1.7958	-2.2687	-2.0917	-1.9125	-2.4542	-1.9562	-2.1396	-2.2313	267.972	383.507	290.688	354.893	426.373	385.754	279.799	269.432	517.949	371.537	482.719	449.709	243.222	471.538	528.846	527.986	0.0008487	0.003704	0.0001265	446.24	5.0917e-06	8.7545e-07	370.69	159.21	9.8307e-06	2.2513e-06	142.54	61.351	70.265	31.135	3.2249e-06	25.291	0.00099403	0.0098847	0.00038495	455.35	1.3396e-05	1.5388e-05	380.49	168.99	1.353e-05	1.5631e-05	148	63.498	77.08	32.527	1.4135e-05	26.421	409.024	320.144	289.178	192.519	299.148	337.725	190.484	197.816	338.987	310.115	194.888	198.757	201.751	207.315	340.766	202.665	-8191	255	
36075.227	1	1	0	0	0.17697	0.19912	0.18679	0.04789	0.088722	0.024486	0.18497	0.1095	0.12487	0.28058	0.14407	0.16031	0.24835	0.10045	0.28985	0.048688	-1.2625	-2.1833	-2.0687	-1.7792	-2.3958	-2.1271	-2.1312	-2.2208	-1.7896	-2.0354	-2.0104	-1.9042	-2.1979	-1.9188	-2.1542	-2.3333	256.850	189.300	395.682	273.025	279.769	276.520	486.896	236.320	511.420	349.107	491.102	531.535	536.142	499.079	489.434	436.392	0.00082707	0.0024045	9.7371e-05	442.94	4.7941e-06	3.8878e-06	369.09	157.81	5.5995e-06	1.0722e-06	142.99	61.752	70.74	31.356	5.4649e-06	25.784	0.00098936	0.0031812	0.00097471	454.07	1.3358e-05	1.6228e-05	378.32	172.9	1.3555e-05	1.5211e-05	147.71	63.698	75.012	32.761	1.4624e-05	26.842	412.587	315.713	452.408	191.973	289.718	370.569	190.107	197.675	326.783	312.515	195.248	198.997	201.887	207.195	316.896	203.018	-8191	255	
36075.324	1	1	0	0	0.32972	0.12638	0.13162	0.22141	0.16605	0.05487	0.13957	0.10213	0.24748	0.11031	0.27376	0.11509	0.24078	0.17871	0.15746	0.10423	-1.325	-2.1083	-2.0833	-1.8958	-2.1854	-2.0104	-2.0854	-2.1771	-2.0917	-2.2458	-2.225	-1.9125	-2.3917	-2.1917	-1.9729	-2.2229	-152.766	-28.250	-122.100	53.010	-128.826	12.750	39.174	139.497	130.952	58.078	72.594	165.599	42.799	-140.076	101.938	-166.764	0.00087186	0.00033661	0.0010797	444.75	4.9139e-06	1.5793e-06	372.39	159.13	3.1766e-06	3.0322e-06	143.72	62.217	70.72	31.741	4.9381e-06	26.212	0.00099295	0.0013911	0.0029194	454.88	1.3305e-05	1.6088e-05	381.11	169.1	1.3844e-05	1.5797e-05	148.59	64.258	77.406	33.05	1.4713e-05	27.314	44.498	-73.371	-24.092	-167.790	-92.100	-162.764	-169.692	-161.822	-3.413	-33.126	-164.958	-160.822	-157.771	-152.813	-6.006	-157.295	-8191	255	
36075.418	1	1	0	0	0.04235	0.1833	0.054017	0.12693	0.12085	0.12427	0.24413	0.087193	0.048449	0.052897	0.13103	0.22316	0.24209	0.22168	0.31011	0.35265	-1.6708	-2.0375	-2.1292	-1.9292	-2.2833	-2.0875	-1.8417	-2.2583	-1.95	-2.1208	-2.225	-1.8062	-2.1521	-2.2146	-1.7771	-2.4479	218.241	504.773	426.733	241.903	439.044	271.403	516.403	276.904	417.170	201.508	511.011	354.444	446.625	239.576	364.112	463.754	0.00084964	0.00032819	0.00058548	449.44	5.8795e-06	5.3161e-06	377.47	161.66	3.5987e-06	4.1422e-06	146.16	63.828	71.568	32.322	3.2827e-06	26.957	0.00098931	0.0014187	0.0016943	459.11	1.3385e-05	1.6552e-05	385.66	175.4	1.4171e-05	1.6234e-05	151.69	65.872	74.626	34.029	1.4876e-05	28.089	412.960	283.119	321.180	192.496	264.468	339.671	190.295	197.813	318.138	341.395	195.241	199.241	201.897	207.131	316.500	202.774	-8191	255	
36075.516	1	1	0	0	0.18511	0.26934	0.077115	0.13194	0.13031	0.39613	0.27905	0.14053	0.21122	0.28422	0.20574	0.10638	0.15701	0.2059	0.072944	0.10672	-1.5667	-2.0104	-2.2875	-1.9521	-2.0187	-2.1958	-1.8646	-2.3958	-2.0125	-2.1042	-2.3187	-1.8167	-2.0021	-2.0938	-1.775	-2.3417	448.390	333.316	305.948	538.195	456.558	456.296	246.856	188.942	301.116	225.869	497.233	504.195	238.172	330.916	443.277	202.655	0.00089012	0.00041386	0.0011152	449.43	3.7996e-06	3.1481e-06	379.52	161.82	7.5257e-06	2.0922e-06	147.28	63.784	71.206	32.464	2.2237e-06	26.733	0.0010322	0.0014603	0.0029622	460.04	1.3541e-05	1.6878e-05	389.39	171.47	1.4223e-05	1.6245e-05	152.73	65.897	73.672	34.915	1.5102e-05	27.993	407.464	273.898	342.571	192.237	284.992	350.887	190.670	197.978	299.420	341.059	195.060	199.043	201.994	207.048	319.069	202.892	-8191	255	
36075.609	1	1	0	0	0.029552	0.018765	0.041919	0.058482	0.26498	0.30579	0.18133	0.14091	0.15196	0.2013	0.073556	0.10585	0.19189	0.21429	0.061094	0.16526	-1.5187	-2.15	-2.2396	-1.7479	-2.2438	-2.2521	-1.875	-2.3458	-1.9688	-1.9688	-2.4188	-1.9667	-1.9167	-2.45	-1.9167	-2.2458	-112.422	-40.408	73.596	-127.164	-25.336	-5.874	151.407	148.730	94.070	147.446	168.319	160.187	-122.551	95.197	178.961	-152.671	0.0008639	0.00013193	0.00054058	446.65	5.1583e-06	2.591e-06	378.16	161.18	4.341e-06	4.7533e-06	146.33	63.361	70.79	32.445	4.0632e-06	26.872	0.0010171	0.0014798	0.0017182	458.59	1.2994e-05	1.7406e-05	385.68	174.34	1.4299e-05	1.6679e-05	151.79	65.588	73.57	34.403	1.5008e-05	28.122	46.250	-70.671	-12.148	-167.709	-18.226	-79.522	-169.681	-161.803	-44.803	-22.791	-165.244	-161.153	-157.970	-152.791	-37.574	-157.105	-8191	255	
36075.707	1	1	0	0	0.15466	0.090835	0.37469	0.23055	0.21922	0.067358	0.22373	0.16832	0.055833	0.12893	0.10379	0.31508	0.072091	0.07356	0.16966	0.20672	-1.7979	-1.9188	-2.3208	-2.0417	-1.9958	-2.2729	-2.0333	-2.3583	-2.0938	-1.9583	-2.5	-2.05	-2.1104	-2.3458	-2.0167	-2.2083	-52.195	-112.177	115.548	97.492	-13.989	-111.151	104.443	95.818	-46.322	131.284	71.402	108.905	-136.541	-70.079	-54.801	-154.187	0.00090854	0.0003134	0.0011162	448.62	2.9352e-06	6.9696e-06	379.65	161.5	4.4384e-05	2.1396e-06	147.61	64.675	71.256	32.784	5.4266e-06	27.234	0.0010759	0.0015056	0.0030075	459.53	1.3657e-05	1.6886e-05	388.47	168.37	3.9412e-05	1.6121e-05	152.99	66.528	73.882	35.339	1.4502e-05	28.555	54.403	-111.420	-4.703	-167.803	-69.976	-46.422	-169.194	-161.907	-134.908	-20.807	-165.182	-160.577	-157.805	-152.819	-72.809	-156.903	-8191	255	
36075.828	1	1	0	0	0.17655	0.17464	0.3046	0.41687	0.083174	0.1025	0.15722	0.12004	0.136	0.016787	0.2042	0.10674	0.28516	0.19406	0.090689	0.032646	-1.7375	-1.7479	-2.2708	-2.1271	-1.8979	-2.3854	-1.9562	-1.9917	-2.0875	-1.7083	-2.375	-1.9583	-1.9104	-2.5167	-1.9188	-2.1021	497.129	187.430	480.798	200.837	328.260	481.283	403.465	489.449	315.867	481.438	390.267	193.685	276.309	538.763	256.785	495.199	0.00086748	0.00038634	0.00056064	448.88	5.9615e-06	1.9253e-06	380.62	162.77	6.4471e-05	5.3056e-06	147.45	64.512	71.661	32.902	4.1442e-06	27.565	0.0010441	0.0013965	0.0017278	460.9	1.3309e-05	1.7714e-05	390.11	167.93	0.00010502	1.5782e-05	153.58	66.643	74.254	34.847	1.5052e-05	28.718	413.613	266.538	353.482	192.261	266.419	326.170	190.301	197.900	192.920	338.579	194.853	198.671	202.120	207.125	306.213	202.866	-8191	255	
36075.922	1	1	0	0	0.061593	0.085738	0.31403	0.27371	0.066554	0.22486	0.24026	0.18905	0.17188	0.19309	0.1756	0.17814	0.18923	0.19513	0.07629	0.016849	-1.7583	-1.8125	-2.0729	-2.1417	-1.7792	-2.325	-2.0438	-2.1437	-2.0875	-1.9854	-2.2812	-2.1896	-1.8917	-2.3625	-1.7625	-2.0042	-162.396	-86.064	-142.366	-165.180	12.330	-136.543	137.995	-83.055	72.309	-7.072	-132.984	64.361	150.253	44.580	-101.204	122.225	0.00086734	0.00033662	0.0012199	449.28	3.5481e-06	3.4379e-06	383.93	163.17	3.4266e-05	2.8465e-06	148.87	65.171	71.747	32.804	2.1873e-06	27.42	0.001085	0.0014364	0.0027253	461.4	1.3263e-05	1.5966e-05	392.82	167.85	6.1319e-05	1.5373e-05	154.29	67.03	74.193	35.363	1.4685e-05	28.653	48.121	-97.197	-23.932	-167.651	-72.399	0.968	-169.656	-161.808	-164.023	-44.470	-164.890	-160.920	-157.778	-152.668	-82.032	-156.742	-8191	255	
36076.020	1	1	0	0	0.14698	0.043127	0.10183	0.28375	0.23286	0.18849	0.059135	0.31693	0.24691	0.065511	0.18378	0.27628	0.14156	0.054035	0.24024	0.2473	-1.675	-1.7229	-2.2188	-2.1604	-2.1	-2.3458	-2.0375	-2.1229	-2.4333	-1.8875	-2.1521	-2.0396	-1.8813	-2.325	-1.8875	-1.8375	66.980	136.644	-128.341	111.486	55.944	121.882	-35.558	-137.968	110.636	140.296	159.411	142.437	-174.509	-38.900	-47.490	21.029	0.00089246	0.00019525	0.00069179	448.09	3.2007e-06	2.2983e-06	377.57	161.57	6.6962e-05	4.1698e-06	146.26	63.584	71.081	32.114	3.1486e-06	26.495	0.0010372	0.001434	0.00071535	466.6	1.3303e-05	1.6848e-05	388.27	166.59	0.00010311	1.5257e-05	151.3	65.434	73.302	34.031	1.4206e-05	27.751	52.432	1.570	-19.287	-167.957	-55.340	-50.525	-169.810	-161.868	-154.846	-17.023	-165.099	-160.684	-158.130	-152.608	-59.647	-156.824	-8191	255	
36076.113	1	1	0	0	0.1767	0.014449	0.10449	0.33581	0.15543	0.34518	0.2958	0.12083	0.18558	0.12689	0.13176	0.13471	0.35113	0.16205	0.085665	0.21336	-1.9208	-1.7062	-1.9458	-2.0875	-1.7563	-2.3854	-2.0438	-1.9729	-2.4042	-1.8729	-2.0583	-2.3354	-1.9583	-2.5104	-1.9125	-1.7042	96.948	-18.532	146.649	151.237	-153.100	163.644	132.024	114.859	-122.887	-155.292	126.901	146.835	61.806	62.591	-166.434	-172.985	0.00084074	0.00025245	0.00014637	446.18	2.4612e-06	2.6753e-06	377.29	162.52	3.7055e-05	1.349e-06	146.79	63.467	71.268	32.643	2.7174e-05	26.832	0.0010317	0.0013574	0.00039417	479.71	1.2873e-05	1.5851e-05	386.39	167.29	6.011e-05	1.5328e-05	151.93	66.009	73.91	34.854	1.6829e-05	28.184	50.974	-76.103	-51.576	-167.427	-123.426	-75.644	-169.930	-161.880	-145.287	49.395	-164.349	-161.154	-157.621	-152.337	-86.151	-157.100	-8191	255	
#DATA ENDS
