BOXY.EXE: ISS Imagent and Oximeter Data Acquisition Program Version 0.80
Ascii Record File

#ACQ INFORMATION
2  Detector Channels 
16  External MUX Channels 
1  Auxiliary Channels 
5000  Waveform (CCF) Frequency (Hz)
1  Waveforms Skipped 
30  Waveforms Averaged 
1  Cycles Averaged 
16  Acquisitions per Waveform 
10.0806  Updata Rate (Hz) 

#FILE INFORMATION
TRUE -- External MUX Channel results are PARSED.
FALSE -- AC DC and Phase are NOT grouped.
TRUE -- Companion Program Settings File CREATED.
FALSE -- AC data not excluded
FALSE -- DC data not excluded
FALSE -- Phase data not excluded
FALSE -- Auxillary Chn. data not excluded
Tab delimiters

#CALIBRATION STATE
TRUE -- Waveform Calibration Values APPLIED.


#AUX CALIBRATION VALUES
Val Type	aux-1	

Term	1.0000e+00	
Factor	0.0000e+00	


#WF CALIBRATION VALUES
A = Detector Channel
Val Type	A-AC1	A-AC2	A-AC3	A-AC4	A-AC5	A-AC6	A-AC7	A-AC8	A-AC9	A-AC10	A-AC11	A-AC12	A-AC13	A-AC14	A-AC15	A-AC16	A-DC1	A-DC2	A-DC3	A-DC4	A-DC5	A-DC6	A-DC7	A-DC8	A-DC9	A-DC10	A-DC11	A-DC12	A-DC13	A-DC14	A-DC15	A-DC16	A-Ph1	A-Ph2	A-Ph3	A-Ph4	A-Ph5	A-Ph6	A-Ph7	A-Ph8	A-Ph9	A-Ph10	A-Ph11	A-Ph12	A-Ph13	A-Ph14	A-Ph15	A-Ph16	

Term	0.00000e+00	0.00000e+00	0.00000e+00	0.00000e+00	0.00000e+00	0.00000e+00	0.00000e+00	0.00000e+00	0.00000e+00	0.00000e+00	0.00000e+00	0.00000e+00	0.00000e+00	0.00000e+00	0.00000e+00	0.00000e+00	0.00000e+00	0.00000e+00	0.00000e+00	0.00000e+00	0.00000e+00	0.00000e+00	0.00000e+00	0.00000e+00	0.00000e+00	0.00000e+00	0.00000e+00	0.00000e+00	0.00000e+00	0.00000e+00	0.00000e+00	0.00000e+00	0.00000e+00	0.00000e+00	0.00000e+00	0.00000e+00	0.00000e+00	0.00000e+00	0.00000e+00	0.00000e+00	0.00000e+00	0.00000e+00	0.00000e+00	0.00000e+00	0.00000e+00	0.00000e+00	0.00000e+00	0.00000e+00	
Factor	1.00000e+00	1.00000e+00	1.00000e+00	1.00000e+00	1.00000e+00	1.00000e+00	1.00000e+00	1.00000e+00	1.00000e+00	1.00000e+00	1.00000e+00	1.00000e+00	1.00000e+00	1.00000e+00	1.00000e+00	1.00000e+00	1.00000e+00	1.00000e+00	1.00000e+00	1.00000e+00	1.00000e+00	1.00000e+00	1.00000e+00	1.00000e+00	1.00000e+00	1.00000e+00	1.00000e+00	1.00000e+00	1.00000e+00	1.00000e+00	1.00000e+00	1.00000e+00	X	X	X	X	X	X	X	X	X	X	X	X	X	X	X	X	

B = Detector Channel
Val Type	B-AC1	B-AC2	B-AC3	B-AC4	B-AC5	B-AC6	B-AC7	B-AC8	B-AC9	B-AC10	B-AC11	B-AC12	B-AC13	B-AC14	B-AC15	B-AC16	B-DC1	B-DC2	B-DC3	B-DC4	B-DC5	B-DC6	B-DC7	B-DC8	B-DC9	B-DC10	B-DC11	B-DC12	B-DC13	B-DC14	B-DC15	B-DC16	B-Ph1	B-Ph2	B-Ph3	B-Ph4	B-Ph5	B-Ph6	B-Ph7	B-Ph8	B-Ph9	B-Ph10	B-Ph11	B-Ph12	B-Ph13	B-Ph14	B-Ph15	B-Ph16	

Term	0.00000e+00	0.00000e+00	0.00000e+00	0.00000e+00	0.00000e+00	0.00000e+00	0.00000e+00	0.00000e+00	0.00000e+00	0.00000e+00	0.00000e+00	0.00000e+00	0.00000e+00	0.00000e+00	0.00000e+00	0.00000e+00	0.00000e+00	0.00000e+00	0.00000e+00	0.00000e+00	0.00000e+00	0.00000e+00	0.00000e+00	0.00000e+00	0.00000e+00	0.00000e+00	0.00000e+00	0.00000e+00	0.00000e+00	0.00000e+00	0.00000e+00	0.00000e+00	-1.64124e+02	-1.34331e+02	-1.17949e+02	-1.82253e+02	-7.52879e+01	-6.26450e+01	-1.59673e+02	-1.62015e+02	-8.49910e+01	-7.28985e+01	-1.73437e+02	-1.73160e+02	-1.87935e+02	-1.78155e+02	-8.18410e+01	-1.50763e+02	
Factor	2.74309e-05	2.13387e-04	5.50513e-05	1.62759e-01	1.60481e-06	1.83435e-06	1.95155e-01	6.40897e-02	1.52885e-06	1.60519e-06	1.16290e-01	3.27102e-02	3.94705e-02	9.72176e-03	1.66134e-06	1.39751e-02	3.49212e-06	3.85682e-06	1.07645e-06	8.19710e-02	4.17040e-08	4.23842e-08	9.17160e-02	3.23082e-02	4.18294e-08	4.23276e-08	5.66427e-02	1.59731e-02	1.97584e-02	4.92990e-03	4.20100e-08	6.86893e-03	X	X	X	X	X	X	X	X	X	X	X	X	X	X	X	X	



#DISTANCE SETTINGS
A = Detector Channel
A-1	A-2	A-3	A-4	A-5	A-6	A-7	A-8	A-9	A-10	A-11	A-12	A-13	A-14	A-15	A-16	

2.5000e+00	3.0000e+00	2.5000e+00	3.0000e+00	2.0000e+00	3.0000e+00	1.5000e+00	3.0000e+00	3.0000e+00	3.0000e+00	3.0000e+00	3.0000e+00	3.0000e+00	3.0000e+00	1.5000e+00	3.0000e+00	

B = Detector Channel
B-1	B-2	B-3	B-4	B-5	B-6	B-7	B-8	B-9	B-10	B-11	B-12	B-13	B-14	B-15	B-16	

1.0000e+01	1.0000e+01	1.0000e+01	1.4400e+00	1.0000e+01	1.0000e+01	1.5100e+00	1.9400e+00	1.0000e+01	1.0000e+01	1.9900e+00	2.4900e+00	2.4100e+00	2.9000e+00	1.0000e+01	2.9800e+00	




#DATA BEGINS
time	group	step	mark	flag	A-AC1	A-AC2	A-AC3	A-AC4	A-AC5	A-AC6	A-AC7	A-AC8	A-AC9	A-AC10	A-AC11	A-AC12	A-AC13	A-AC14	A-AC15	A-AC16	A-DC1	A-DC2	A-DC3	A-DC4	A-DC5	A-DC6	A-DC7	A-DC8	A-DC9	A-DC10	A-DC11	A-DC12	A-DC13	A-DC14	A-DC15	A-DC16	A-Ph1	A-Ph2	A-Ph3	A-Ph4	A-Ph5	A-Ph6	A-Ph7	A-Ph8	A-Ph9	A-Ph10	A-Ph11	A-Ph12	A-Ph13	A-Ph14	A-Ph15	A-Ph16	B-AC1	B-AC2	B-AC3	B-AC4	B-AC5	B-AC6	B-AC7	B-AC8	B-AC9	B-AC10	B-AC11	B-AC12	B-AC13	B-AC14	B-AC15	B-AC16	B-DC1	B-DC2	B-DC3	B-DC4	B-DC5	B-DC6	B-DC7	B-DC8	B-DC9	B-DC10	B-DC11	B-DC12	B-DC13	B-DC14	B-DC15	B-DC16	B-Ph1	B-Ph2	B-Ph3	B-Ph4	B-Ph5	B-Ph6	B-Ph7	B-Ph8	B-Ph9	B-Ph10	B-Ph11	B-Ph12	B-Ph13	B-Ph14	B-Ph15	B-Ph16	aux-1	digaux	

21561.021	1	1	0	256	0.20785	0.12028	0.17313	0.31761	0.19824	0.18923	0.32358	0.17697	0.34256	0.2571	0.16814	0.04069	0.17562	0.13406	0.066263	0.29333	-1.8563	-2.6042	-2.7708	-2.4542	-2.625	-2.3729	-2.5667	-2.8729	-2.1688	-2.6167	-2.7333	-2.3104	-2.6688	-2.5792	-2.2812	-2.8354	336.591	177.275	247.463	330.342	284.629	357.406	331.412	248.093	42.109	154.880	10.142	309.769	242.112	362.411	36.374	285.843	0.00045785	0.00065107	0.0001624	1408.5	4.2529e-06	5.6458e-06	1392.5	368.19	4.0912e-06	3.592e-06	421.36	141.08	122.28	41.693	3.3594e-06	52.256	0.0002484	0.00021644	5.9918e-05	1413.8	2.4348e-06	2.2733e-06	1401.9	371.82	2.4094e-06	2.3136e-06	423.89	142.52	123.52	42.435	2.405e-06	52.872	107.592	99.526	103.629	16.157	171.601	195.483	16.204	21.077	162.765	144.332	20.637	24.851	25.706	29.943	160.559	29.288	-8191	255	
21561.117	1	1	0	0	0.10598	0.030868	0.090095	0.35206	0.071158	0.17859	0.30405	0.096513	0.07004	0.31199	0.042631	0.16346	0.19999	0.15995	0.15448	0.093142	-2.0104	-2.575	-2.5312	-2.5375	-2.675	-2.4583	-2.775	-2.7833	-2.5833	-2.5854	-2.7333	-2.3292	-2.8771	-2.7375	-2.5292	-2.8979	236.280	255.957	264.597	258.420	88.657	150.280	339.387	38.530	176.740	275.539	335.856	305.139	126.659	327.234	140.571	331.089	0.00045318	0.00077186	0.00017512	1400.5	5.9406e-06	4.7648e-06	1390	368.07	3.3297e-06	5.5859e-06	421.98	140.62	122.04	41.681	3.6027e-06	52.016	0.00024817	0.00021838	6.1288e-05	1408	2.4939e-06	2.4423e-06	1400	371.61	2.5729e-06	2.4161e-06	423.86	142.47	123.08	42.42	2.4661e-06	52.777	101.481	57.319	128.475	16.604	162.908	159.274	16.213	21.256	150.246	131.598	20.707	24.978	25.508	30.051	133.693	29.504	-8191	255	
21561.215	1	1	0	0	0.030846	0.36182	0.27702	0.39109	0.25717	0.049173	0.37526	0.087579	0.25931	0.20059	0.11595	0.20115	0.018701	0.30201	0.14881	0.063197	-2.0812	-2.6	-2.6063	-2.4188	-2.5104	-2.5917	-2.45	-2.7021	-2.5167	-2.5125	-2.8354	-2.5854	-2.5062	-2.8542	-2.3792	-2.8271	155.564	217.519	135.984	284.971	18.504	280.812	4.867	334.847	229.777	201.039	62.809	320.962	324.282	51.257	92.630	343.942	0.00043282	0.00049833	9.7679e-05	1396.5	5.7398e-06	6.4282e-06	1382.3	368.12	3.8369e-06	7.5679e-06	421.19	140.31	121.42	41.552	5.5726e-06	51.96	0.00025395	0.00022108	6.2028e-05	1405	2.4818e-06	2.4472e-06	1395.6	370.82	2.5092e-06	2.4111e-06	423.38	142.14	122.86	42.219	2.488e-06	52.653	101.944	66.723	96.412	16.481	179.704	129.196	16.290	21.235	159.087	138.216	20.751	24.969	25.572	29.827	164.140	29.169	-8191	255	
21561.336	1	1	0	0	0.31932	0.080461	0.17272	0.20823	0.31567	0.045507	0.12862	0.26945	0.045679	0.36911	0.15306	0.12126	0.19691	0.041752	0.12018	0.066124	-2.1312	-2.1813	-2.7333	-2.4542	-2.5604	-2.7104	-2.5062	-2.8146	-2.5854	-2.3292	-2.7812	-2.4437	-2.4896	-2.7833	-2.3646	-2.6896	228.816	340.916	50.223	307.308	165.904	56.390	10.636	280.289	76.665	171.864	194.416	339.399	322.212	11.043	96.763	205.642	0.00038416	0.00065825	0.00010218	1389.8	4.0723e-06	5.988e-06	1379.4	367.17	3.2236e-06	4.1695e-06	421.4	140.37	121.29	41.473	3.8474e-06	51.697	0.00024682	0.00022393	6.1131e-05	1399.9	2.5188e-06	2.4461e-06	1390.9	370.02	2.5091e-06	2.4091e-06	422.75	142.04	122.58	42.198	2.5445e-06	52.455	108.378	101.438	88.519	16.543	167.186	134.204	16.454	21.155	149.980	171.640	20.664	24.935	25.434	30.025	151.452	29.402	-8191	255	
21561.432	1	1	0	0	0.25134	0.033919	0.17601	0.38742	0.20745	0.04642	0.11928	0.042572	0.14836	0.022945	0.14244	0.17604	0.27447	0.15228	0.1487	0.2123	-2.125	-2.3271	-2.7979	-2.6312	-2.4958	-2.7583	-2.4229	-2.7396	-2.6333	-2.2958	-2.9188	-2.5375	-2.5021	-2.9479	-2.3583	-2.6229	199.796	148.798	198.056	242.887	127.290	357.958	288.976	224.600	228.019	48.011	344.092	302.042	308.480	257.322	15.195	362.731	0.00042116	0.00050705	0.00012797	1389.7	3.5044e-06	5.2784e-06	1380.8	366.86	2.2049e-06	6.1371e-06	421.23	139.88	121.08	41.427	5.8608e-06	51.834	0.00025288	0.00023173	6.3932e-05	1398.8	2.5856e-06	2.4954e-06	1390.8	370.21	2.5595e-06	2.5838e-06	422.23	141.87	122.49	42.212	2.5923e-06	52.537	103.618	53.512	103.423	16.418	191.754	152.008	16.086	21.105	202.973	206.867	20.698	24.919	25.639	29.997	170.957	29.374	-8191	255	
21561.527	1	1	0	0	0.21643	0.31817	0.1401	0.32433	0.23355	0.10264	0.41362	0.076203	0.12529	0.15993	0.17481	0.36682	0.15574	0.18037	0.19609	0.23908	-2.1021	-2.1729	-2.7396	-2.65	-2.4104	-2.6688	-2.5417	-2.675	-2.6875	-2.1729	-2.4854	-2.575	-2.4437	-2.6937	-2.3271	-2.775	340.517	78.816	90.620	320.035	308.803	176.185	296.635	118.745	33.052	37.405	320.428	53.135	225.412	349.574	36.062	30.482	0.00041361	0.00058541	0.00021138	1393.6	4.9631e-06	3.4411e-06	1388	365.33	3.8457e-06	4.7997e-06	420.06	139.91	121.8	41.326	6.0811e-06	51.94	0.00025795	0.00023427	6.5253e-05	1400.5	2.6452e-06	2.5175e-06	1392.6	369.39	2.5119e-06	2.5603e-06	421.73	141.86	122.66	42.132	2.493e-06	52.649	113.303	104.873	106.097	16.512	165.539	174.665	16.518	21.362	138.345	119.000	20.739	24.899	25.766	30.061	143.684	29.323	-8191	255	
21561.623	1	1	0	0	0.1672	0.1092	0.17975	0.35576	0.20524	0.15481	0.073367	0.10759	0.23092	0.13634	0.13423	0.23264	0.17165	0.16189	0.22918	0.27493	-2.125	-2.4146	-2.7833	-2.4667	-2.4604	-2.7458	-2.4562	-2.6937	-2.6979	-2.4292	-2.7521	-2.7104	-2.45	-2.7875	-2.375	-2.6146	155.091	89.415	151.713	346.724	219.477	113.463	278.766	236.003	108.521	58.931	31.708	215.454	69.341	70.589	106.840	283.074	0.00043928	0.00045686	0.0001205	1388.2	5.0343e-06	4.9204e-06	1391.3	367	2.9213e-06	4.5125e-06	420.56	140.24	121.74	41.85	3.0286e-06	51.994	0.00025325	0.0002292	6.1638e-05	1398.6	2.5134e-06	2.3982e-06	1395.6	370.54	2.5037e-06	2.4449e-06	423.78	141.92	122.73	42.321	2.4445e-06	52.603	108.474	128.319	143.093	16.420	176.782	155.838	16.261	21.232	153.876	150.409	20.563	24.765	25.470	30.115	166.974	29.457	-8191	255	
21561.721	1	1	0	0	0.25699	0.12936	0.13232	0.48305	0.10737	0.10747	0.21244	0.12834	0.1271	0.13467	0.22038	0.17581	0.091449	0.035592	0.10982	0.17743	-2.3521	-2.075	-2.6688	-2.7229	-2.3521	-2.6063	-2.4583	-2.5583	-2.6979	-2.35	-2.5604	-2.6542	-2.1917	-2.7229	-2.5792	-2.6146	257.463	138.416	225.978	333.256	255.769	51.783	278.319	65.458	210.491	187.185	231.706	56.291	42.982	345.656	227.879	219.944	0.00039499	0.00049649	0.00020068	1389	4.4034e-06	4.774e-06	1384.9	366.9	3.7354e-06	1.9103e-06	419.31	140.31	121.43	41.629	3.751e-06	51.802	0.00025013	0.00021768	6.119e-05	1398.2	2.4343e-06	2.3272e-06	1391.2	370.38	2.4203e-06	2.2889e-06	422.02	142.09	122.64	42.315	2.3524e-06	52.584	102.159	70.035	109.843	16.413	164.397	156.332	16.434	21.296	130.988	154.122	20.389	24.994	25.565	29.899	130.763	29.099	-8191	255	
21561.814	1	1	0	0	0.33241	0.042474	0.23448	0.24108	0.21155	0.12507	0.13459	0.12345	0.11538	0.057295	0.075204	0.16873	0.1756	0.30525	0.12886	0.050393	-2.2896	-2.1229	-2.6188	-2.8708	-2.275	-2.7604	-2.7313	-2.5125	-2.7167	-2.4521	-2.8	-2.8	-2.2917	-2.7479	-2.4417	-2.6042	48.558	361.300	12.933	336.430	56.561	101.155	352.441	272.335	226.833	123.356	222.299	329.703	353.614	314.164	301.983	251.351	0.00042693	0.00047009	0.00010453	1391.1	5.0878e-06	4.0762e-06	1386.8	367.87	4.31e-06	3.3059e-06	420.66	140.51	122.08	41.716	4.6369e-06	51.992	0.00024242	0.00021445	5.9046e-05	1399.5	2.4488e-06	2.2834e-06	1392.5	370.22	2.3585e-06	2.3092e-06	422.75	142.21	122.99	42.353	2.3594e-06	52.751	106.400	106.171	73.306	16.399	176.692	217.429	16.320	21.282	182.285	154.449	20.363	24.564	25.602	30.103	116.234	29.389	-8191	255	
21561.936	1	1	0	0	0.091102	0.13344	0.065264	0.13342	0.16061	0.11008	0.10812	0.32403	0.14521	0.10402	0.11144	0.23935	0.11261	0.091902	0.088445	0.060503	-2.3229	-2.2625	-2.3625	-2.7438	-2.0396	-2.5604	-2.5812	-2.425	-2.9083	-2.4375	-2.4375	-2.8292	-2.3458	-2.5958	-2.4062	-2.3792	326.493	43.261	198.237	139.176	86.774	299.601	334.555	333.042	325.722	85.194	316.153	331.247	48.299	61.667	161.056	32.354	0.00038732	0.00039056	0.00016718	1393.7	4.2047e-06	4.5548e-06	1383.6	367.1	4.0461e-06	6.1379e-06	422.29	140.26	122.22	41.631	6.9929e-06	51.928	0.00024106	0.00021275	5.8048e-05	1401.2	2.4917e-06	2.3782e-06	1395.4	370.71	2.4161e-06	2.3188e-06	423.49	142.13	123.09	42.317	2.426e-06	52.66	108.166	58.849	120.969	16.457	134.511	174.531	16.333	21.062	151.902	173.595	20.861	24.914	25.348	29.956	167.471	28.964	-8191	255	
21562.031	1	1	0	0	0.064666	0.2685	0.17142	0.2508	0.29727	0.06842	0.36778	0.2742	0.094298	0.22353	0.21086	0.23124	0.24065	0.21791	0.34699	0.17502	-2.3271	-2.2917	-2.3646	-2.9833	-2.3354	-2.6	-2.9313	-2.3312	-2.6083	-2.3979	-2.4208	-2.8104	-2.3896	-2.5208	-2.7583	-2.2729	294.801	307.266	17.559	316.239	251.493	17.908	350.312	344.218	344.257	255.379	337.452	30.177	119.213	19.857	260.792	354.831	0.0004319	0.00033822	0.00011373	1394	6.0312e-06	4.3233e-06	1388.2	366.69	1.8767e-06	2.9933e-06	420.08	140.37	121.63	41.618	6.0455e-06	51.967	0.0002531	0.00021842	6.1064e-05	1402.8	2.5052e-06	2.4141e-06	1397	370.55	2.5132e-06	2.4625e-06	422.82	142.03	122.65	42.297	2.4872e-06	52.693	113.239	125.284	95.765	16.285	174.068	153.811	16.191	21.252	128.337	137.101	20.400	24.903	25.869	30.057	135.072	29.374	-8191	255	
21562.127	1	1	0	0	0.12824	0.085016	0.18251	0.1512	0.10402	0.22565	0.49838	0.24074	0.12601	0.26875	0.31102	0.16353	0.10888	0.23203	0.212	0.17191	-2.275	-2.1896	-2.3354	-2.9542	-2.4271	-2.4354	-2.8396	-2.3812	-2.6729	-2.4437	-2.5438	-2.6833	-2.2833	-2.6083	-2.5854	-2.4437	116.821	354.121	285.881	21.906	270.252	116.320	311.975	310.201	259.635	271.907	284.534	350.633	86.032	283.113	292.186	3.272	0.0004029	0.00063669	0.00010451	1398.9	6.3322e-06	5.1126e-06	1387.5	367.2	3.6586e-06	3.3348e-06	421.85	140.54	121.62	41.781	4.4025e-06	51.842	0.00025949	0.00022655	6.4394e-05	1404.8	2.538e-06	2.4537e-06	1397.6	371.13	2.4627e-06	2.3931e-06	423.79	142.31	123.1	42.38	2.4118e-06	52.673	106.082	82.584	103.470	16.364	163.355	165.394	16.218	21.045	161.454	147.316	20.583	24.880	25.813	30.255	102.860	29.448	-8191	255	
21562.223	1	1	0	0	0.11562	0.30273	0.26316	0.11405	0.083278	0.17553	0.13969	0.13479	0.069391	0.21227	0.079531	0.087893	0.055896	0.16162	0.072596	0.17722	-2.2438	-2.35	-2.3021	-2.95	-2.4042	-2.4771	-2.8417	-2.5667	-2.5667	-2.7333	-2.4167	-2.7104	-2.6021	-2.5167	-2.6271	-2.5729	265.538	61.380	74.216	13.496	311.600	165.025	313.880	309.697	20.589	50.045	270.306	309.373	329.977	181.181	253.895	219.951	0.0004434	0.00083426	0.00013711	1395.5	5.5089e-06	6.3459e-06	1390.6	368.72	4.8873e-06	5.1598e-06	421.69	141.04	122.63	41.876	3.5355e-06	52.202	0.00024522	0.00021289	6.01e-05	1406.2	2.426e-06	2.3491e-06	1398.2	371.27	2.3627e-06	2.2772e-06	423.9	142.5	123.29	42.465	2.3417e-06	52.82	104.321	90.534	114.702	16.415	180.182	169.291	16.404	21.067	156.568	131.209	20.681	25.082	25.557	30.168	160.947	29.212	-8191	255	
21562.318	1	1	0	0	0.17733	0.067841	0.12906	0.25357	0.027241	0.18955	0.10778	0.092129	0.18641	0.088185	0.29589	0.14618	0.10778	0.067117	0.14261	0.18123	-1.95	-2.4896	-2.25	-2.9958	-2.3521	-2.6125	-2.8875	-2.4562	-2.5583	-2.5958	-2.3229	-2.6521	-2.4729	-2.5062	-2.8396	-2.5771	223.088	157.334	90.294	327.136	302.838	300.025	256.333	307.917	73.333	235.162	115.604	237.472	297.701	73.208	68.181	305.226	0.00041646	0.00083368	0.00012823	1397.1	4.9368e-06	4.594e-06	1395.2	367.74	3.4418e-06	2.535e-06	421.98	141.04	122.08	41.704	1.2212e-06	52.009	0.00023783	0.00021255	5.8481e-05	1405.9	2.3854e-06	2.3254e-06	1400	371.42	2.3857e-06	2.3431e-06	423.92	142.39	123.17	42.348	2.4378e-06	52.707	109.754	114.298	117.838	16.382	139.522	142.492	16.276	21.071	159.921	150.873	20.715	24.946	25.769	30.217	149.738	29.162	-8191	255	
21562.416	1	1	0	0	0.22687	0.11336	0.19409	0.40954	0.069193	0.13714	0.16123	0.33452	0.26867	0.20263	0.040864	0.47489	0.15182	0.12864	0.26929	0.02583	-2.0917	-2.575	-2.2271	-2.7854	-2.3604	-2.4854	-2.8708	-2.4313	-2.4354	-2.8688	-2.4479	-2.7687	-2.6167	-2.3104	-2.6437	-2.4729	36.590	220.570	187.094	324.670	94.180	196.266	331.801	329.452	61.885	237.450	153.728	312.044	260.595	320.191	39.762	140.694	0.00041497	0.00044835	0.00019191	1397.8	5.5711e-06	6.0032e-06	1389.8	368.07	3.6818e-06	3.3055e-06	423.37	140.37	121.85	41.65	3.8376e-06	52.036	0.00024903	0.00021924	6.2977e-05	1408	2.4962e-06	2.4593e-06	1398.9	371.37	2.541e-06	2.4346e-06	424.39	142.18	123.08	42.375	2.4937e-06	52.772	102.794	70.044	106.750	16.415	154.075	156.458	16.144	21.179	140.248	137.738	20.685	24.947	25.706	29.991	157.243	29.409	-8191	255	
21562.512	1	1	0	0	0.25263	0.12538	0.14329	0.22203	0.14632	0.038886	0.16349	0.1042	0.091937	0.16644	0.063894	0.31578	0.26734	0.18311	0.057012	0.24262	-2.1583	-2.6312	-2.3271	-2.7062	-2.6208	-2.4125	-2.8458	-2.6188	-2.5125	-2.7417	-2.4333	-2.7687	-2.6312	-2.4813	-2.8104	-2.4708	168.032	233.566	297.424	276.311	359.773	29.029	317.471	14.395	266.162	303.119	63.380	30.673	320.400	118.518	148.030	334.413	0.00041626	0.00052529	0.00019731	1397.7	4.6427e-06	3.8369e-06	1387.3	367.26	5.0234e-06	4.3763e-06	421.42	140.63	121.81	41.663	3.7189e-06	52.179	0.00024897	0.00022419	6.2244e-05	1407.2	2.4962e-06	2.4519e-06	1398.7	370.99	2.5003e-06	2.3962e-06	424.43	142.32	123.06	42.402	2.3921e-06	52.786	108.682	77.032	85.462	16.408	176.107	180.630	16.239	21.015	113.813	163.047	20.601	24.978	25.666	29.940	149.101	29.490	-8191	255	
21562.607	1	1	0	0	0.054402	0.098912	0.35638	0.034403	0.16247	0.17165	0.29922	0.26888	0.03845	0.22844	0.31956	0.069246	0.10041	0.066236	0.10463	0.090606	-1.7083	-2.8146	-2.4854	-2.8563	-2.5979	-2.2896	-2.8125	-2.6729	-2.3125	-2.725	-2.3875	-2.6521	-2.7021	-2.375	-2.6896	-2.6292	104.768	125.990	327.982	320.692	255.711	211.877	302.275	9.768	235.670	53.460	347.840	263.312	299.375	132.622	114.386	13.100	0.00041082	0.00074368	0.00013394	1398.1	3.3276e-06	3.8909e-06	1392.8	367.87	4.3604e-06	3.935e-06	422.1	140.78	121.87	41.663	4.5381e-06	52.17	0.000251	0.00022195	5.9427e-05	1407.2	2.4839e-06	2.44e-06	1400.3	372.11	2.4597e-06	2.3959e-06	423.96	142.61	123.22	42.396	2.4248e-06	52.773	110.344	102.167	105.313	16.530	190.937	137.194	16.417	21.052	162.076	142.397	20.728	24.897	25.758	30.043	157.449	29.308	-8191	255	
21562.727	1	1	0	0	0.059709	0.27271	0.18584	0.2697	0.1329	0.1841	0.43974	0.20376	0.13364	0.1669	0.38634	0.19025	0.11375	0.14419	0.22007	0.091984	-1.9583	-2.8396	-2.4396	-2.5187	-2.7104	-2.2771	-2.9375	-2.7583	-2.3688	-2.5687	-2.7188	-2.7146	-2.875	-2.5542	-2.5708	-2.6688	201.161	139.663	12.135	18.474	181.091	347.572	319.993	337.129	76.710	230.229	5.609	18.687	76.049	6.769	219.806	267.184	0.00047	0.00045475	0.0001782	1399.3	3.4127e-06	3.0997e-06	1387.7	368.47	4.6341e-06	3.7498e-06	422	140.12	122.42	41.838	4.1848e-06	52.219	0.00024883	0.00021524	6.0916e-05	1408.4	2.4366e-06	2.3124e-06	1398.2	371.91	2.3857e-06	2.3406e-06	424.69	142.39	123.21	42.421	2.3896e-06	52.804	108.126	99.953	111.480	16.464	169.598	152.438	16.329	21.146	166.135	160.230	20.479	24.954	25.439	30.079	147.578	29.308	-8191	255	
21562.822	1	1	0	0	0.11365	0.16732	0.14984	0.17769	0.031765	0.13162	0.072922	0.22999	0.071676	0.14685	0.073698	0.46254	0.21174	0.096065	0.1462	0.12971	-2	-2.6604	-2.4521	-2.6292	-2.7729	-2.2938	-2.75	-2.8958	-2.1833	-2.7375	-2.5854	-2.4062	-2.6854	-2.525	-2.625	-2.975	160.932	8.824	9.477	345.622	12.388	226.074	220.704	8.214	352.655	203.977	262.631	17.993	337.862	123.800	22.625	308.943	0.00042008	0.00079536	0.00011855	1398.7	7.097e-06	7.7588e-06	1390.6	367.02	6.186e-06	3.9084e-06	422.31	140.73	121.62	41.834	5.677e-06	52.244	0.00024426	0.0002109	5.8429e-05	1405.8	2.4604e-06	2.2907e-06	1399	371.62	2.3824e-06	2.287e-06	424.07	142.67	123.21	42.445	2.3816e-06	52.799	106.521	72.790	120.946	16.418	158.016	186.772	16.337	21.043	147.089	128.400	20.685	25.032	25.790	30.110	130.031	29.226	-8191	255	
21562.920	1	1	0	0	0.16615	0.14671	0.36459	0.39182	0.24561	0.15581	0.11884	0.13167	0.21584	0.23152	0.13252	0.1819	0.21217	0.12701	0.20945	0.31868	-1.7896	-2.4	-2.4125	-2.4875	-2.7021	-2.4958	-2.7458	-2.7771	-2.1562	-2.6042	-2.7083	-2.4792	-2.6771	-2.4875	-2.5292	-2.7854	90.735	317.315	149.073	330.464	317.535	9.007	299.496	278.995	13.534	265.326	353.391	284.430	342.144	315.104	25.623	348.922	0.00040797	0.00041927	0.00015467	1401.9	5.5513e-06	7.2436e-06	1392.2	369.22	6.3957e-06	4.8752e-06	421.06	141.24	122.01	41.83	4.5081e-06	51.88	0.00024539	0.00021693	5.9867e-05	1408.4	2.4534e-06	2.4051e-06	1399.7	372.07	2.5119e-06	2.4241e-06	424.16	142.58	123.25	42.369	2.494e-06	52.696	104.173	87.338	114.995	16.487	178.358	167.149	16.509	21.176	201.410	141.039	20.679	24.840	25.589	29.745	124.667	29.035	-8191	255	
21563.016	1	1	0	0	0.035894	0.27465	0.16383	0.14506	0.13403	0.18666	0.23475	0.14685	0.06133	0.053014	0.085423	0.19565	0.080385	0.10321	0.14377	0.15966	-1.9375	-2.6125	-2.6083	-2.5167	-2.5458	-2.5104	-2.7125	-2.7854	-2.225	-2.6958	-2.8417	-2.4083	-2.8979	-2.4896	-2.4792	-2.7438	110.266	24.444	329.434	322.010	312.099	295.737	255.089	233.483	90.160	351.296	326.818	88.696	298.747	228.747	210.167	327.768	0.00041622	0.00067045	7.9154e-05	1398.7	5.9831e-06	3.5757e-06	1390.2	367.48	3.1131e-06	2.153e-06	420.82	140.44	121.81	41.551	4.9439e-06	52.181	0.00025834	0.00022138	6.2616e-05	1408.6	2.5227e-06	2.4544e-06	1401	371.33	2.5153e-06	2.4819e-06	423.44	142.45	123.1	42.285	2.5279e-06	52.737	109.573	94.383	120.032	16.562	184.803	185.886	16.247	21.055	170.846	155.423	20.443	25.218	25.671	29.906	165.996	29.215	-8191	255	
21563.111	1	1	0	0	0.26128	0.27232	0.24182	0.43126	0.11815	0.051711	0.32928	0.19859	0.060397	0.046796	0.096211	0.0358	0.16013	0.15097	0.13666	0.10397	-1.9021	-2.4562	-2.6875	-2.2958	-2.7375	-2.3771	-2.7625	-2.7792	-2.4521	-2.4979	-2.7771	-2.4521	-2.7292	-2.7021	-2.2792	-2.9083	164.151	157.153	72.960	10.480	278.807	251.779	282.932	205.947	175.562	42.430	139.038	327.631	173.424	12.081	86.585	45.149	0.00042515	0.00051891	9.7924e-05	1401.9	3.8887e-06	6.2176e-06	1392	367.67	3.4955e-06	1.4351e-06	420.93	140.83	121.87	41.612	5.2023e-06	51.952	0.00025479	0.00022288	6.3143e-05	1407.8	2.5786e-06	2.4643e-06	1401.6	371.37	2.4909e-06	2.457e-06	423.34	142.51	123.1	42.317	2.5708e-06	52.754	109.419	88.193	76.686	16.414	180.375	153.188	16.193	21.129	160.139	149.788	20.523	25.008	25.523	30.056	156.791	29.133	-8191	255	
21563.207	1	1	0	0	0.205	0.06146	0.073745	0.21133	0.13509	0.31016	0.17575	0.025377	0.12737	0.048415	0.2154	0.14952	0.11015	0.33514	0.11761	0.059161	-1.9333	-2.5854	-2.6229	-2.4333	-2.6875	-2.5521	-2.5312	-2.8479	-2.5354	-2.5333	-2.7562	-2.4417	-2.7375	-2.5146	-2.3292	-2.7938	156.309	301.765	206.240	329.443	330.494	82.804	279.887	306.473	79.716	322.235	328.409	289.791	186.677	19.700	360.444	253.907	0.00036735	0.00099738	0.0001608	1393.3	4.7025e-06	5.0736e-06	1390.1	366.8	4.3536e-06	4.6889e-06	422.52	140.58	121.88	41.685	6.3064e-06	52.35	0.00024937	0.00022828	6.2961e-05	1405.9	2.5065e-06	2.4714e-06	1397.4	371.19	2.4609e-06	2.4524e-06	423.02	142.39	123.09	42.339	2.4727e-06	52.807	100.756	94.756	104.084	16.602	164.996	170.725	16.581	21.166	180.870	167.618	20.904	25.156	25.699	29.984	159.700	29.300	-8191	255	
21563.305	1	1	0	0	0.011117	0.12845	0.29409	0.30091	0.28659	0.29564	0.23206	0.084189	0.15267	0.092454	0.11087	0.32186	0.20349	0.28534	0.090087	0.17438	-2.1562	-2.4083	-2.7833	-2.5354	-2.6396	-2.5542	-2.3792	-2.9292	-2.5021	-2.4542	-2.7542	-2.5563	-2.6229	-2.7313	-2.1708	-2.6896	248.929	81.253	162.060	344.102	271.093	261.052	357.542	149.591	23.670	302.980	15.482	329.058	338.615	347.976	131.642	86.186	0.00042057	0.0005518	0.00019796	1394.5	5.9336e-06	3.6918e-06	1382.2	367.29	1.4492e-06	7.4143e-06	421.84	140.89	122.39	41.792	7.0513e-06	52.004	0.00024937	0.00021859	6.2031e-05	1402.2	2.4863e-06	2.3684e-06	1394.4	370.65	2.4026e-06	2.389e-06	423.23	142.39	123.14	42.358	2.4031e-06	52.625	100.689	58.907	98.813	16.465	167.643	179.009	16.434	21.038	160.647	155.709	20.569	25.153	25.818	30.075	156.120	29.113	-8191	255	
21563.424	1	1	0	0	0.083416	0.26223	0.015756	0.28017	0.094421	0.14985	0.41837	0.247	0.21905	0.22703	0.33619	0.17853	0.17108	0.21269	0.2602	0.20556	-2.0229	-2.3854	-2.6937	-2.6104	-2.6542	-2.5979	-2.5125	-2.7833	-2.6083	-2.4396	-2.7875	-2.5604	-2.6646	-2.6042	-2.25	-2.7854	209.055	7.280	172.239	347.840	157.412	103.999	332.651	284.396	76.445	105.941	308.349	18.754	43.759	258.141	40.386	299.846	0.00043578	0.00062636	0.00016181	1390.1	3.2076e-06	5.8336e-06	1380.6	366.88	3.5917e-06	4.658e-06	420.88	140.58	121.8	41.565	3.6495e-06	52.038	0.00024327	0.00021389	5.9129e-05	1400.1	2.3942e-06	2.3429e-06	1391	370.13	2.38e-06	2.3134e-06	423.48	142.31	122.92	42.266	2.3533e-06	52.744	107.582	96.415	106.178	16.412	165.255	169.543	16.444	21.294	170.302	147.639	20.551	25.071	25.511	30.198	127.426	29.448	-8191	255	
21563.520	1	1	0	0	0.13182	0.30274	0.12349	0.22622	0.25374	0.15154	0.21184	0.054561	0.13708	0.34945	0.1484	0.23935	0.24088	0.36163	0.21522	0.38002	-2.1354	-2.4062	-2.8333	-2.85	-2.3417	-2.8146	-2.4792	-2.7521	-2.575	-2.2146	-2.95	-2.4125	-2.5792	-2.7271	-2.3333	-2.6333	73.316	324.318	37.150	269.672	301.243	221.501	277.385	99.365	267.213	248.893	66.610	79.573	54.352	24.013	217.377	58.379	0.00042724	0.00061498	0.00014681	1389.7	3.3521e-06	2.8506e-06	1386.7	368.41	2.8584e-06	3.829e-06	419.66	140.24	121.57	41.658	4.4656e-06	52.008	0.00023677	0.00021283	5.9355e-05	1400.6	2.3918e-06	2.2481e-06	1392.4	371.08	2.372e-06	2.2644e-06	422.39	142.2	122.71	42.325	2.2521e-06	52.71	103.965	117.713	100.891	16.309	126.539	151.603	16.269	21.189	168.928	176.119	20.380	24.880	25.427	29.881	169.937	29.165	-8191	255	
21563.592	1	1	0	0	0.044814	0.08333	0.048051	0.25771	0.11726	0.20045	0.14616	0.2084	0.138	0.3742	0.15331	0.29949	0.20134	0.33968	0.16426	0.065301	-2.2583	-2.1979	-2.6917	-2.5833	-2.3167	-2.7438	-2.6708	-2.6979	-2.5812	-2.4229	-2.9458	-2.4938	-2.4854	-2.6417	-2.4396	-2.8688	80.595	233.692	17.646	335.203	74.214	74.283	302.197	315.898	226.795	34.217	361.910	6.250	148.030	319.698	249.492	5.871	0.00040201	0.00052723	0.00014379	1394.5	3.8927e-06	6.6295e-06	1381	367.75	1.4773e-06	1.3854e-06	421.87	140.08	122.22	41.855	3.3731e-06	52.015	0.00024272	0.00020988	5.8647e-05	1400.7	2.3987e-06	2.2618e-06	1392.4	370.57	2.3174e-06	2.2631e-06	423.38	142.22	122.96	42.411	2.3155e-06	52.658	108.792	75.233	123.489	16.346	175.896	157.314	16.173	21.092	153.841	66.110	20.732	25.152	25.541	30.002	139.009	29.158	-8191	255	
21563.713	1	1	0	0	0.23487	0.16315	0.11338	0.32737	0.16321	0.27447	0.094256	0.28725	0.19703	0.088166	0.080518	0.14585	0.50318	0.29743	0.20609	0.1752	-2.1292	-2.3438	-2.6479	-2.75	-2.4333	-2.6167	-2.6562	-2.6708	-2.5729	-2.3979	-2.8021	-2.8312	-2.2896	-2.8708	-2.4333	-2.4854	203.006	288.834	308.087	331.068	314.544	123.964	19.806	325.990	273.179	343.592	13.025	313.602	7.217	20.101	231.552	28.990	0.00039704	0.00043473	0.00021168	1388.2	3.662e-06	4.2392e-06	1381.6	366.87	4.091e-06	4.62e-06	421.78	140.67	122.12	41.767	6.5523e-06	52.301	0.00024024	0.00021245	5.6368e-05	1397.4	2.3261e-06	2.25e-06	1391.3	370.61	2.3328e-06	2.2714e-06	423.41	142.32	123.13	42.362	2.2619e-06	52.818	107.288	90.588	87.041	16.490	180.101	135.984	16.463	21.408	146.756	165.954	20.646	24.821	25.747	30.053	126.535	28.987	-8191	255	
21563.809	1	1	0	0	0.19632	0.23382	0.20402	0.26741	0.097199	0.1656	0.1176	0.17264	0.25602	0.25134	0.22334	0.14752	0.036256	0.034788	0.26608	0.29182	-2.25	-2.3021	-2.5396	-2.6479	-2.4208	-2.775	-2.75	-2.4771	-2.9292	-2.425	-2.7812	-2.7271	-2.5208	-2.85	-2.5479	-2.4917	205.307	303.280	82.255	309.805	126.757	321.012	293.994	52.671	299.380	162.138	297.043	194.298	337.880	165.096	43.926	247.106	0.00043768	0.00061547	6.3365e-05	1393.6	6.3474e-06	2.9908e-06	1386.7	367.3	4.0993e-06	5.639e-06	422.99	140.6	121.9	41.786	3.8417e-06	52.095	0.00023591	0.00020499	5.7079e-05	1400.9	2.3174e-06	2.2029e-06	1393.2	370.58	2.2645e-06	2.2351e-06	423.7	142.48	123.11	42.38	2.286e-06	52.77	108.907	74.879	71.396	16.363	166.498	121.286	16.268	21.215	136.708	115.548	20.629	25.064	25.693	30.106	175.084	29.170	-8191	255	
21563.902	1	1	0	0	0.13637	0.1084	0.18078	0.11573	0.24373	0.2558	0.26447	0.063132	0.22259	0.2056	0.28142	0.0067321	0.12477	0.083129	0.22099	0.034535	-2.3625	-2.3146	-2.4042	-2.9229	-2.3604	-2.5729	-2.5792	-2.4167	-2.8083	-2.4062	-2.4979	-2.7458	-2.325	-2.775	-2.5792	-2.4458	320.583	80.524	291.329	3.578	270.427	72.582	14.864	261.240	360.669	75.244	319.945	164.602	30.483	45.486	214.456	40.535	0.00044359	0.00071031	4.2532e-05	1389.7	4.0762e-06	4.0532e-06	1382.1	366.86	4.1159e-06	4.1634e-06	422.48	140.33	121.41	41.776	7.1984e-06	52.022	0.0002388	0.00020238	5.794e-05	1399.4	2.367e-06	2.2208e-06	1392.7	370.15	2.3336e-06	2.2587e-06	422.79	142.31	122.86	42.352	2.3119e-06	52.673	103.124	77.872	173.645	16.305	172.889	143.294	16.348	21.098	156.075	157.167	20.614	24.949	25.584	29.993	151.121	29.181	-8191	255	
21564.002	1	1	0	0	0.25514	0.077734	0.12444	0.26201	0.038295	0.16556	0.13153	0.083627	0.32172	0.20363	0.22825	0.1574	0.17981	0.20261	0.19992	0.081442	-2.2417	-2.3917	-2.5146	-2.9917	-2.2521	-2.6875	-2.7458	-2.3667	-2.7208	-2.4062	-2.5938	-2.8583	-2.3583	-2.7771	-2.7604	-2.4625	93.069	25.249	247.150	355.820	348.944	320.576	14.839	53.261	99.819	132.876	327.121	14.752	83.598	53.847	101.454	136.583	0.00040737	0.00081826	0.00012833	1388.1	3.4779e-06	3.1396e-06	1386.2	367.23	4.4556e-06	4.1877e-06	422.99	140.27	122.01	41.693	4.6432e-06	52.097	0.00024461	0.00021313	5.9117e-05	1400.7	2.4535e-06	2.2891e-06	1393.9	370.51	2.353e-06	2.3076e-06	423.62	142.16	123.01	42.351	2.3647e-06	52.717	104.459	80.996	101.575	16.572	193.784	206.313	16.212	21.154	130.779	161.130	20.573	24.897	25.927	29.974	173.263	29.341	-8191	255	
21564.119	1	1	0	0	0.097699	0.024176	0.043609	0.38459	0.246	0.089434	0.17449	0.14739	0.11464	0.046536	0.20568	0.13464	0.033735	0.031292	0.11465	0.10474	-2.4396	-2.4292	-2.3396	-2.9104	-2.3438	-2.6354	-2.8021	-2.4396	-2.6375	-2.7292	-2.4208	-2.9979	-2.5208	-2.5458	-2.5979	-2.3458	102.261	357.482	8.640	341.101	122.476	78.964	234.683	305.096	25.726	161.688	284.466	322.498	179.202	28.845	134.462	107.769	0.00040524	0.00066016	0.00015449	1392.6	5.9896e-06	3.9098e-06	1385.1	366.9	3.8746e-06	3.5162e-06	419.69	140.56	121.67	41.729	4.024e-06	51.975	0.00023679	0.00021192	5.9391e-05	1399.2	2.473e-06	2.3116e-06	1392.1	370.89	2.4149e-06	2.3746e-06	422.43	142.18	122.9	42.331	2.3828e-06	52.688	111.518	113.044	103.814	16.419	194.810	153.398	16.350	21.018	152.836	176.487	20.483	25.092	25.669	30.144	143.585	29.178	-8191	255	
21564.191	1	1	0	0	0.13396	0.12435	0.1445	0.25862	0.16378	0.059195	0.35787	0.12249	0.12198	0.21354	0.15697	0.17197	0.24393	0.12119	0.31798	0.21929	-2.0875	-2.5	-2.225	-2.9562	-2.5146	-2.7167	-2.7229	-2.4896	-2.725	-2.625	-2.4417	-2.8542	-2.3458	-2.525	-2.6604	-2.4979	276.432	160.891	360.151	323.791	115.544	131.996	311.513	294.681	93.198	172.046	320.378	359.072	359.075	348.354	3.846	242.558	0.00040655	0.00057371	0.00012996	1389.8	4.0493e-06	4.4519e-06	1380.8	366.89	4.2944e-06	4.4905e-06	419.28	141.11	121.05	41.764	4.0102e-06	52.052	0.00024263	0.00021867	5.8844e-05	1398.3	2.3928e-06	2.2743e-06	1390.1	369.54	2.3594e-06	2.2754e-06	422.84	142.43	122.6	42.297	2.3842e-06	52.703	111.680	95.946	111.206	16.298	162.192	165.592	16.270	21.074	148.543	155.119	20.435	25.129	25.773	30.169	150.727	29.535	-8191	255	
21564.287	1	1	0	0	0.14771	0.15126	0.10639	0.11553	0.097498	0.281	0.21052	0.32085	0.12998	0.1204	0.15585	0.24365	0.15264	0.10211	0.020626	0.28777	-2.0896	-2.5083	-2.1292	-2.8792	-2.3563	-2.4708	-2.9167	-2.2875	-2.6208	-2.5938	-2.3708	-2.7604	-2.6188	-2.65	-2.6937	-2.3312	214.523	151.426	285.846	304.883	309.985	36.968	237.640	301.924	153.609	233.859	301.914	213.344	6.188	97.033	181.957	270.950	0.00041628	0.00052567	0.00015776	1387.7	6.6861e-06	3.4037e-06	1381.6	365.76	5.0207e-06	3.1894e-06	420.32	140.67	121.53	41.595	5.567e-06	52.004	0.00024243	0.00021218	6.0775e-05	1398.5	2.4356e-06	2.3047e-06	1391.2	370.25	2.3997e-06	2.3367e-06	423.2	142.28	122.79	42.298	2.3984e-06	52.694	111.686	93.291	90.310	16.376	164.001	127.644	16.343	21.259	143.709	135.943	20.762	25.204	25.353	29.701	148.379	29.214	-8191	255	
21564.385	1	1	0	0	0.20095	0.16444	0.054314	0.12587	0.15755	0.11908	0.38756	0.11137	0.20993	0.24899	0.11985	0.3261	0.27466	0.13247	0.2464	0.27024	-2.1042	-2.6583	-2.2562	-2.8583	-2.6104	-2.3625	-2.9417	-2.2833	-2.5187	-2.7687	-2.4583	-2.6854	-2.5438	-2.5354	-2.6271	-2.6937	143.421	133.247	312.307	47.615	322.193	118.726	271.565	312.413	150.433	188.610	249.151	304.595	41.386	99.842	115.076	359.483	0.00041097	0.00083772	6.3145e-05	1388.3	5.5668e-06	2.2372e-06	1379.4	367.02	3.2623e-06	5.2921e-06	420.89	139.99	121.45	41.713	5.6576e-07	51.819	0.00024454	0.00021625	6.18e-05	1397.7	2.5098e-06	2.439e-06	1391.4	370.39	2.4468e-06	2.4217e-06	422.89	141.78	122.7	42.242	2.4252e-06	52.604	108.963	86.618	78.183	16.494	154.753	156.826	16.497	21.403	131.993	146.812	20.642	24.759	25.595	30.183	227.939	29.085	-8191	255	
21564.506	1	1	0	0	0.21721	0.14494	0.067653	0.18982	0.064259	0.0937	0.33994	0.19234	0.31074	0.16864	0.070191	0.32138	0.084249	0.25454	0.22044	0.13938	-2.1021	-2.6167	-2.4167	-2.9646	-2.5354	-2.3542	-2.9437	-2.6125	-2.5833	-2.7313	-2.2542	-2.7521	-2.6417	-2.5896	-2.8312	-2.6125	145.432	281.719	151.464	328.829	69.595	314.141	300.409	245.463	122.953	234.642	111.501	341.123	344.076	308.210	189.873	321.625	0.00040427	0.00053816	0.00016585	1384.5	6.404e-06	4.5751e-06	1373.1	365.45	2.0852e-06	2.0156e-06	420.6	139.63	121.05	41.727	3.1513e-06	51.714	0.000249	0.00022399	6.2369e-05	1393	2.5393e-06	2.3702e-06	1385.4	368.91	2.446e-06	2.367e-06	421.35	141.58	122.25	42.213	2.3547e-06	52.464	108.196	65.473	107.118	16.572	155.859	139.932	16.362	21.366	182.705	114.205	20.665	24.923	25.461	30.000	165.373	29.414	-8191	255	
21564.602	1	1	0	0	0.063097	0.17126	0.25182	0.16834	0.088958	0.044	0.13847	0.041939	0.17927	0.22003	0.20341	0.17386	0.16613	0.093157	0.021941	0.30953	-1.7896	-2.7479	-2.3646	-2.7625	-2.8375	-2.2792	-2.8104	-2.6937	-2.3583	-2.6167	-2.5167	-2.5771	-2.6896	-2.375	-2.6708	-2.6104	198.002	177.287	95.853	191.732	335.479	276.413	356.976	3.239	152.222	197.149	30.342	221.457	23.194	322.085	311.800	317.117	0.00041389	0.00081543	0.00019544	1375.5	3.0199e-06	5.6121e-06	1370.1	363.49	3.7605e-06	4.8173e-06	418.42	139.54	121.14	41.473	4.2715e-06	51.903	0.00024646	0.00021528	5.9844e-05	1385.7	2.4118e-06	2.3189e-06	1381	367.38	2.4271e-06	2.2871e-06	420.03	141.25	122.28	42.1	2.2368e-06	52.495	105.925	63.889	88.974	16.451	190.381	192.724	16.313	21.144	145.847	134.567	20.508	24.943	25.763	30.271	152.962	29.288	-8191	255	
21564.697	1	1	0	0	0.15379	0.096572	0.16614	0.33828	0.14877	0.24531	0.23052	0.040898	0.12552	0.32057	0.10782	0.027979	0.06398	0.085923	0.43176	0.14105	-1.7875	-2.8646	-2.4167	-2.8146	-2.8438	-2.3563	-2.8187	-2.725	-2.4688	-2.7875	-2.7667	-2.775	-2.7479	-2.4021	-2.6458	-2.5833	63.521	222.866	325.037	316.051	342.368	164.552	302.212	220.046	191.077	131.187	198.143	66.641	46.046	85.255	14.715	291.264	0.00042188	0.0003647	8.2945e-05	1377	3.8341e-06	5.2894e-06	1368	363.74	5.2392e-06	3.7947e-06	418.68	140.36	121.01	41.69	5.1984e-06	51.95	0.00023585	0.00020481	5.5386e-05	1385.1	2.2689e-06	2.1521e-06	1377.9	367.68	2.2539e-06	2.1423e-06	420.82	141.74	122.34	42.281	2.1934e-06	52.571	111.504	97.128	100.685	16.286	165.555	156.936	16.396	21.384	156.225	157.786	20.647	24.920	25.620	29.658	135.250	29.268	-8191	255	
21564.816	1	1	0	0	0.26454	0.12215	0.11671	0.13885	0.1721	0.24698	0.11061	0.12242	0.080711	0.11694	0.34209	0.23214	0.14504	0.08805	0.081147	0.28452	-2.1146	-2.5271	-2.4833	-2.7958	-2.6896	-2.375	-2.7	-2.7021	-2.3083	-2.7104	-2.6667	-2.6188	-2.6521	-2.3375	-2.7167	-2.5229	159.822	49.284	65.001	266.997	35.209	232.432	335.472	125.943	249.059	101.198	308.410	27.366	207.178	352.040	234.175	56.657	0.00043307	0.00054632	0.00016029	1380.5	3.2602e-06	4.071e-06	1377	364.99	1.379e-06	1.3153e-06	417.62	140.53	121.19	41.406	4.8513e-06	52.049	0.00023699	0.00020067	5.6514e-05	1388.2	2.3031e-06	2.2521e-06	1382.9	368.33	2.3435e-06	2.2621e-06	420.36	142.06	122.31	42.094	2.3239e-06	52.484	108.676	90.110	89.313	16.535	183.031	146.206	16.401	21.187	149.466	119.532	20.694	24.873	25.978	30.050	147.205	29.194	-8191	255	
21564.889	1	1	0	0	0.31578	0.24597	0.20096	0.3709	0.066702	0.27625	0.045943	0.17615	0.30152	0.078131	0.10835	0.37592	0.26899	0.10551	0.1191	0.16639	-1.7646	-2.6771	-2.3958	-2.5312	-2.6229	-2.2708	-2.7104	-2.6	-2.3021	-2.7375	-2.725	-2.5896	-2.7687	-2.4062	-2.6562	-2.7875	185.549	205.583	329.390	323.322	259.016	114.526	236.348	269.413	347.791	337.453	123.211	357.440	343.627	60.228	228.372	321.733	0.00043898	0.00047473	6.995e-05	1381.5	4.1014e-06	4.8674e-06	1375.9	365.37	2.4828e-06	2.7023e-06	419.82	140.12	120.8	41.575	3.238e-06	51.845	0.00024562	0.00021371	5.9571e-05	1389.4	2.4466e-06	2.3198e-06	1383.8	368.84	2.4427e-06	2.3454e-06	421.15	141.73	122.42	42.196	2.3806e-06	52.487	102.089	118.372	96.174	16.451	150.853	154.645	16.400	21.209	199.805	153.676	20.521	24.849	25.587	30.160	122.619	29.375	-8191	255	
21564.984	1	1	0	0	0.17637	0.25344	0.22311	0.35229	0.1606	0.15535	0.11668	0.26164	0.12573	0.36533	0.29548	0.22185	0.46212	0.15198	0.12817	0.30373	-1.9729	-2.6063	-2.5875	-2.4562	-2.8458	-2.4104	-2.675	-2.7875	-2.3979	-2.6354	-2.5812	-2.5167	-2.4938	-2.2792	-2.4333	-2.6771	268.832	238.944	292.566	349.308	340.212	90.669	356.447	259.893	126.308	356.283	340.359	77.206	74.762	296.350	280.676	301.927	0.00042514	0.00051945	0.00017594	1375.1	5.4459e-06	4.6689e-06	1376.7	364.79	3.7794e-06	4.309e-06	419.18	139.67	121.54	41.646	6.223e-06	51.762	0.00024127	0.00021329	5.7976e-05	1387.2	2.3421e-06	2.2528e-06	1382.8	368.88	2.3451e-06	2.2162e-06	421.04	141.52	122.36	42.155	2.2921e-06	52.439	104.240	87.281	118.247	16.620	145.066	159.893	16.268	21.272	123.611	134.393	20.590	25.088	25.649	30.021	156.564	29.356	-8191	255	
21565.104	1	1	0	0	0.056595	0.14801	0.1744	0.41245	0.14796	0.10091	0.091031	0.27082	0.17935	0.29021	0.14117	0.18366	0.11536	0.19447	0.2165	0.21904	-2.0292	-2.7854	-2.725	-2.7562	-2.4667	-2.6521	-2.7042	-2.9042	-2.2812	-2.6271	-2.65	-2.3104	-2.9458	-2.6729	-2.3667	-2.9646	72.221	80.046	222.167	314.872	153.625	144.711	8.505	318.282	323.831	61.739	214.295	51.747	36.415	90.858	134.435	298.665	0.00043665	0.00078671	0.00021959	1376.5	5.2048e-06	2.4519e-06	1376.6	365.27	1.8387e-06	5.1168e-06	420.52	139.73	120.56	41.633	4.8938e-06	51.727	0.00023532	0.00020616	5.8236e-05	1386.9	2.338e-06	2.2943e-06	1383.5	368.38	2.3449e-06	2.2675e-06	421.45	141.74	122.18	42.182	2.2799e-06	52.51	104.807	89.300	122.731	16.484	165.904	110.912	16.442	21.255	135.961	138.143	20.792	24.899	25.712	29.905	122.630	29.318	-8191	255	
21565.199	1	1	0	0	0.2114	0.11135	0.098373	0.26436	0.30717	0.25396	0.16881	0.25748	0.11576	0.092783	0.09711	0.15472	0.28096	0.08357	0.078393	0.015673	-2.0021	-2.4667	-2.6312	-2.3896	-2.6688	-2.4708	-2.5729	-2.7667	-2.3646	-2.5354	-2.7208	-2.4437	-2.7479	-2.4062	-2.3583	-2.8521	131.660	56.517	63.027	303.887	187.972	35.596	293.430	360.962	176.950	47.319	156.339	38.182	20.359	308.674	106.774	246.332	0.00042924	0.00074483	0.00015388	1382.5	6.1771e-06	2.5867e-06	1372.1	365.98	2.8094e-06	3.4132e-06	420.81	139.75	121.73	41.745	5.6924e-06	52.002	0.00023933	0.00020879	5.8263e-05	1388.9	2.339e-06	2.2321e-06	1381.7	369.07	2.2782e-06	2.2286e-06	421.57	141.87	122.63	42.328	2.2693e-06	52.71	105.398	97.448	91.458	16.566	179.985	137.605	16.372	21.266	178.411	113.259	20.694	24.938	25.929	29.892	149.200	29.451	-8191	255	
21565.297	1	1	0	0	0.25746	0.050861	0.21797	0.14615	0.17082	0.11977	0.32806	0.2613	0.27019	0.30105	0.28628	0.20276	0.18966	0.266	0.072262	0.02883	-1.8667	-2.4938	-2.7125	-2.4583	-2.5208	-2.4417	-2.6396	-2.55	-2.5229	-2.4833	-2.7646	-2.4854	-2.6042	-2.7417	-2.3042	-2.6562	12.204	206.496	249.815	354.622	339.122	225.969	300.867	262.194	79.062	196.607	270.819	226.430	320.626	307.850	88.608	130.868	0.00041265	0.0004344	0.00014975	1376.1	2.5797e-06	4.3924e-06	1370.8	365.84	4.2378e-06	5.3243e-06	421.48	141.14	121.58	41.877	4.4539e-06	52.114	0.00022916	0.00019998	5.3399e-05	1388.8	2.161e-06	2.1303e-06	1382.1	369.13	2.1885e-06	2.1238e-06	422.47	142.38	123.01	42.373	2.175e-06	52.713	104.256	86.964	109.510	16.443	154.276	177.157	16.469	20.978	166.493	153.235	20.721	24.762	25.664	30.049	182.132	29.301	-8191	255	
21565.418	1	1	0	0	0.21666	0.079913	0.17706	0.45242	0.24421	0.064988	0.34568	0.19237	0.22113	0.51626	0.2583	0.14848	0.13738	0.06023	0.31322	0.22644	-2.1042	-2.2208	-2.7438	-2.4208	-2.6333	-2.7042	-2.5333	-2.8583	-2.4229	-2.4146	-2.7792	-2.575	-2.6188	-2.625	-2.3292	-2.7167	328.687	323.107	194.759	7.476	21.486	238.689	303.667	26.394	121.174	117.390	10.253	40.262	113.607	281.170	292.981	4.665	0.00043134	0.00095211	0.00018076	1378.1	4.6744e-06	7.9616e-06	1377.2	366.03	7.3048e-06	4.4484e-06	419.31	139.64	121.52	41.643	4.1579e-06	51.918	0.00022894	0.00019687	5.3219e-05	1388.4	2.2032e-06	2.1614e-06	1385	369.78	2.2791e-06	2.2612e-06	421.97	141.85	122.42	42.265	2.3337e-06	52.601	107.656	94.189	95.566	16.545	144.092	139.598	16.440	21.182	158.718	134.237	20.651	24.971	25.667	29.782	144.361	29.322	-8191	255	
21565.488	1	1	0	0	0.15773	0.37592	0.059744	0.11172	0.17792	0.1034	0.21214	0.27854	0.078854	0.19991	0.21874	0.10639	0.21078	0.175	0.24907	0.43727	-2.0396	-2.3417	-2.5333	-2.5125	-2.5292	-2.7042	-2.4979	-2.7083	-2.4771	-2.4396	-2.7646	-2.4	-2.5875	-2.625	-2.5396	-2.7583	239.343	288.722	38.107	294.911	152.584	31.659	296.978	330.120	7.609	15.622	26.794	180.378	248.457	355.968	18.731	346.700	0.00037689	0.00064467	0.00012579	1385.9	6.0231e-06	4.6736e-06	1382.9	365.47	3.0052e-06	2.3065e-06	418.73	140.34	121.8	41.618	4.4254e-06	51.837	0.00023814	0.00021086	5.866e-05	1392.1	2.3856e-06	2.3154e-06	1388	369.52	2.3941e-06	2.3647e-06	422.15	141.98	122.86	42.234	2.384e-06	52.534	108.687	80.226	75.285	16.487	166.244	186.923	16.253	21.038	152.270	100.654	20.566	24.935	25.504	29.940	161.065	29.300	-8191	255	
21565.586	1	1	0	0	0.19714	0.3225	0.099585	0.28024	0.30632	0.29941	0.20561	0.29933	0.10965	0.07487	0.17862	0.25977	0.15918	0.16143	0.087155	0.18022	-2.2188	-2.2958	-2.6333	-2.5104	-2.425	-2.6646	-2.3208	-2.5604	-2.6604	-2.3771	-2.7667	-2.4292	-2.5208	-2.6708	-2.3167	-2.7771	260.465	306.724	290.465	303.276	319.921	143.974	300.135	324.892	357.357	114.056	151.963	24.195	174.402	293.140	212.458	341.702	0.0004113	0.00055738	0.00015019	1383.9	4.5646e-06	5.4017e-06	1375.1	366.27	1.9599e-06	4.1573e-06	419.24	140.33	121.45	41.73	4.1051e-06	51.717	0.00024126	0.00021498	5.8176e-05	1393.4	2.3785e-06	2.2787e-06	1386.8	370.02	2.3841e-06	2.2609e-06	422.28	142.02	122.68	42.309	2.3603e-06	52.573	107.743	107.902	114.955	16.584	135.817	185.494	16.311	21.033	155.047	131.104	20.452	24.836	25.418	30.029	178.651	29.438	-8191	255	
21565.682	1	1	0	0	0.077637	0.17864	0.079158	0.29596	0.095764	0.18851	0.23848	0.22916	0.014288	0.27424	0.11195	0.13255	0.31742	0.20988	0.16414	0.17131	-2.3146	-2.2604	-2.7083	-2.7583	-2.4958	-2.7208	-2.6188	-2.7333	-2.6021	-2.4125	-2.8333	-2.6	-2.4083	-2.8979	-2.3917	-2.5854	144.927	110.492	189.489	19.270	124.892	262.520	255.085	272.105	63.063	48.269	178.543	303.621	269.162	304.077	149.805	132.562	0.00045142	0.00029708	9.7131e-05	1391.5	2.9262e-06	4.9616e-06	1375.1	367.03	4.5062e-06	4.4545e-06	420.76	139.94	122.13	41.517	3.8886e-06	52.143	0.00023882	0.0002134	5.6922e-05	1394.4	2.3829e-06	2.2504e-06	1385.9	370.44	2.36e-06	2.3147e-06	422.69	142.12	122.96	42.226	2.3446e-06	52.678	108.632	96.343	111.869	16.494	181.337	160.940	16.284	21.176	153.379	149.418	20.386	24.972	25.659	29.995	130.709	29.201	-8191	255	
21565.801	1	1	0	0	0.12386	0.11549	0.15603	0.37436	0.058672	0.070378	0.1419	0.15017	0.089163	0.070005	0.18778	0.11201	0.22123	0.17723	0.1056	0.12897	-2.0542	-2.2771	-2.5687	-2.7	-2.3708	-2.7438	-2.675	-2.4938	-2.5	-2.2271	-2.6542	-2.625	-2.3083	-2.8063	-2.3812	-2.5354	176.895	204.972	231.748	343.312	299.971	181.184	243.781	309.676	123.045	61.491	11.652	19.501	333.315	276.861	141.638	265.779	0.00044056	0.00065553	0.0001116	1384.3	3.968e-06	5.2091e-06	1377.9	366.65	3.651e-06	3.3567e-06	421.36	140.41	121.79	41.647	4.8998e-06	51.594	0.00023823	0.00021059	5.981e-05	1394.1	2.4519e-06	2.2657e-06	1388.5	370.15	2.424e-06	2.3386e-06	423.17	142.28	122.82	42.31	2.3751e-06	52.589	106.495	112.473	121.748	16.459	182.711	162.432	16.308	21.124	168.318	123.752	20.830	24.941	25.527	30.056	148.682	29.546	-8191	255	
21565.896	1	1	0	0	0.09509	0.13274	0.23779	0.20205	0.16318	0.13895	0.33822	0.15878	0.068162	0.10652	0.056204	0.071395	0.093892	0.21327	0.1289	0.08275	-2.2104	-2.1437	-2.4	-2.9167	-2.3083	-2.7125	-2.7292	-2.4875	-2.7458	-2.2792	-2.6896	-2.7354	-2.3833	-2.6813	-2.6021	-2.6208	360.936	303.171	195.121	283.559	183.246	146.309	319.654	32.112	302.696	164.073	261.147	242.204	356.572	3.716	97.462	210.564	0.00039903	0.00053282	0.0001019	1382.1	4.5467e-06	6.0426e-06	1376.4	366.41	4.7849e-06	4.9175e-06	422.54	140.49	121.88	41.99	5.808e-06	52.128	0.00024446	0.00021172	5.8716e-05	1393.1	2.4049e-06	2.2744e-06	1387.8	369.93	2.3246e-06	2.2132e-06	424.42	142.54	122.89	42.473	2.2706e-06	52.724	108.365	95.108	97.964	16.582	182.101	160.140	16.384	21.268	149.553	140.756	20.752	24.734	25.504	30.232	139.329	29.218	-8191	255	
21565.992	1	1	0	0	0.17444	0.16289	0.10633	0.1566	0.1217	0.090149	0.21355	0.27033	0.057042	0.14284	0.43948	0.027661	0.22956	0.13326	0.20432	0.066915	-2.2542	-2.2729	-2.5667	-2.8729	-2.3521	-2.6271	-2.6021	-2.3146	-2.7146	-2.3292	-2.4333	-2.8125	-2.3958	-2.8104	-2.5354	-2.45	55.477	216.773	155.745	330.910	8.888	206.660	21.283	288.897	212.827	68.689	310.146	3.754	28.234	165.891	171.662	137.096	0.00042706	0.00057086	5.5906e-05	1385	6.3383e-06	7.9793e-06	1386.7	368.44	4.4184e-06	3.5437e-06	422.64	140.32	121.82	41.866	4.2783e-06	52.184	0.00023292	0.00020529	5.5816e-05	1396	2.2756e-06	2.211e-06	1391.2	371.07	2.236e-06	2.2026e-06	423.57	142.31	123.05	42.475	2.2343e-06	52.794	109.772	88.612	99.426	16.455	178.618	159.484	16.313	21.217	150.014	142.405	20.505	24.748	25.699	29.879	129.817	29.542	-8191	255	
21566.090	1	1	0	0	0.26962	0.076943	0.093015	0.19901	0.28182	0.052143	0.20406	0.17316	0.28796	0.10924	0.05842	0.23196	0.13611	0.065827	0.20578	0.2337	-2.2646	-2.4604	-2.5271	-2.8875	-2.4562	-2.7771	-2.8375	-2.5958	-2.6813	-2.6312	-2.7333	-2.8521	-2.3563	-2.8042	-2.7	-2.4417	41.479	199.836	69.343	15.562	184.510	12.479	279.898	340.909	230.147	282.710	289.075	313.415	275.645	350.239	248.521	267.111	0.00041645	0.00066958	0.00014986	1390.9	4.8983e-06	6.4051e-06	1378.8	366.12	2.6533e-06	3.4279e-06	422.65	140.35	122.2	42.023	4.7159e-06	52.089	0.00023169	0.0002009	5.5648e-05	1395.9	2.2289e-06	2.1719e-06	1388.1	370.87	2.2482e-06	2.1234e-06	423.83	142.57	123.16	42.496	2.2174e-06	52.769	102.773	69.362	118.258	16.449	152.177	126.659	16.361	20.968	130.862	182.890	20.622	24.861	25.536	29.849	127.261	29.283	-8191	255	
21566.186	1	1	0	0	0.24267	0.09649	0.10672	0.51509	0.10131	0.10537	0.18792	0.15484	0.18516	0.21435	0.14228	0.13057	0.061186	0.19844	0.018518	0.018527	-2.275	-2.4833	-2.2771	-2.8208	-2.3021	-2.6917	-2.7083	-2.4188	-2.7479	-2.5104	-2.35	-2.8083	-2.5792	-2.5958	-2.6813	-2.4667	67.516	200.611	107.826	310.288	330.845	126.167	320.531	198.097	58.634	96.274	7.477	306.128	143.923	39.336	219.218	280.839	0.00044095	0.00054797	0.00012219	1389	4.5146e-06	2.7646e-06	1380.8	369.1	2.7019e-06	4.6573e-06	422.26	141.21	122.35	41.863	4.3715e-06	52.144	0.00023129	0.00020037	5.5955e-05	1395.5	2.2952e-06	2.1895e-06	1390.3	372.33	2.2301e-06	2.1528e-06	424.1	142.83	123.32	42.562	2.2533e-06	52.812	107.338	82.676	126.280	16.448	192.202	170.592	16.410	21.089	155.260	165.773	20.537	25.122	25.883	30.108	136.299	29.187	-8191	255	
21566.281	1	1	0	0	0.2509	0.26306	0.29083	0.16075	0.15605	0.074271	0.20671	0.31773	0.20656	0.095874	0.14879	0.23516	0.061402	0.16995	0.12231	0.32887	-2.3167	-2.4208	-2.2208	-2.9667	-2.3063	-2.5458	-2.8187	-2.3625	-2.6833	-2.5854	-2.3438	-2.7792	-2.5146	-2.5708	-2.6021	-2.4667	139.780	254.172	316.131	308.962	204.818	90.716	280.701	282.219	151.239	11.775	38.125	299.947	57.344	14.654	290.054	359.107	0.00041203	0.00045816	0.00020305	1391	6.0226e-06	3.3189e-06	1378.6	367.98	5.0028e-06	4.4651e-06	424.5	140.45	121.91	41.988	5.3482e-06	52.047	0.0002294	0.00020178	5.472e-05	1397	2.2867e-06	2.1677e-06	1390.9	371.61	2.201e-06	2.1659e-06	425.12	142.63	123.31	42.511	2.1824e-06	52.797	111.100	77.278	109.015	16.321	184.316	158.346	16.306	21.162	145.163	156.532	20.386	24.811	25.596	30.147	130.451	29.363	-8191	255	
21566.377	1	1	0	0	0.1225	0.15502	0.14246	0.13759	0.15483	0.038733	0.049289	0.15795	0.2516	0.155	0.23412	0.061371	0.054569	0.21351	0.17883	0.096683	-2.1042	-2.5229	-2.3646	-2.7896	-2.5208	-2.3833	-2.9	-2.3312	-2.6625	-2.6479	-2.3229	-2.7417	-2.6854	-2.5542	-2.7625	-2.4354	188.427	302.425	152.258	300.909	25.132	109.703	235.445	32.088	122.225	255.961	21.596	200.653	62.913	318.556	105.194	358.525	0.00045805	0.00080502	9.8877e-05	1389.8	4.7546e-06	8.1366e-06	1381.7	370.91	4.4008e-06	3.7856e-06	419.19	140.95	122.36	41.91	5.5318e-06	52.125	0.00023188	0.00020045	5.5105e-05	1397.8	2.2544e-06	2.1707e-06	1391.6	372.31	2.2362e-06	2.109e-06	423.71	142.81	123.4	42.546	2.1619e-06	52.872	111.455	72.299	92.153	16.556	185.551	149.923	16.444	21.266	159.074	138.042	20.781	25.074	25.577	30.035	165.810	29.285	-8191	255	
21566.498	1	1	0	0	0.048197	0.17929	0.086988	0.14342	0.14222	0.092576	0.17292	0.21803	0.23432	0.23797	0.18049	0.2184	0.25387	0.14116	0.15016	0.16122	-2.1958	-2.4333	-2.2812	-2.9521	-2.5979	-2.3646	-3.1333	-2.4854	-2.5187	-2.5208	-2.3729	-2.7729	-2.6813	-2.6896	-2.7521	-2.5187	173.762	116.616	162.216	165.510	42.914	58.124	341.758	290.573	55.315	269.422	3.382	19.994	20.768	325.034	65.603	49.872	0.00043005	0.00070278	0.00017087	1390.3	2.7395e-06	4.2981e-06	1379.2	369.6	3.5774e-06	3.3077e-06	423.08	140.71	121.79	41.926	6.364e-06	52.115	0.00022755	0.00020076	5.557e-05	1398.2	2.2647e-06	2.1869e-06	1391	372.12	2.2651e-06	2.2096e-06	424.76	142.81	123.17	42.528	2.2044e-06	52.776	109.435	62.112	102.143	16.500	170.535	121.769	16.482	21.178	161.443	131.208	20.445	25.043	25.687	29.841	139.528	29.327	-8191	255	
21566.594	1	1	0	0	0.21798	0.17659	0.19288	0.40961	0.0058267	0.02756	0.13807	0.17671	0.12327	0.067507	0.18633	0.11593	0.053964	0.093444	0.26167	0.15509	-1.8792	-2.825	-2.0687	-2.8396	-2.5938	-2.0917	-2.8979	-2.6521	-2.4688	-2.7	-2.4854	-2.6646	-2.575	-2.4375	-2.8146	-2.5062	284.534	68.907	147.604	338.040	70.125	5.378	314.541	333.062	115.617	5.510	353.162	319.554	328.875	258.658	133.697	179.383	0.00041621	0.00059751	0.00013349	1388.8	5.533e-06	1.8202e-06	1380.7	368.12	3.5685e-06	3.4204e-06	423.96	141.45	122.29	41.948	4.8776e-06	52.211	0.00023047	0.00020075	5.6648e-05	1398.1	2.2348e-06	2.1993e-06	1390.8	372.04	2.2804e-06	2.1597e-06	424.74	142.82	123.41	42.525	2.2018e-06	52.859	107.059	104.732	85.395	16.370	154.831	145.483	16.457	21.026	147.630	140.054	20.364	25.041	25.773	29.798	141.165	29.515	-8191	255	
21566.689	1	1	0	0	0.29524	0.12461	0.069769	0.098724	0.075233	0.20215	0.20448	0.24463	0.11384	0.14341	0.28399	0.18616	0.28268	0.30411	0.15016	0.19408	-2.0792	-2.7042	-2.3125	-2.8042	-2.5083	-2.4583	-2.9646	-2.5062	-2.1771	-2.7562	-2.45	-2.5583	-2.5958	-2.4021	-2.7	-2.4792	344.316	139.623	303.976	65.487	321.494	217.789	18.617	313.359	361.124	338.322	349.743	236.858	322.520	76.812	146.708	260.742	0.00042547	0.0007999	0.00010245	1389.8	5.2646e-06	5.0078e-06	1380.9	369.55	2.7936e-06	3.5109e-06	421.32	141.92	122.48	41.799	4.9249e-06	52.002	0.00023134	0.00019573	5.5926e-05	1398.6	2.2996e-06	2.174e-06	1393.1	372.21	2.2634e-06	2.1523e-06	424.79	143.03	123.36	42.514	2.2041e-06	52.697	104.328	80.530	113.043	16.484	160.838	176.808	16.335	21.233	158.309	176.349	20.563	24.841	25.690	30.063	158.094	29.291	-8191	255	
21566.785	1	1	0	0	0.12535	0.17705	0.17903	0.2224	0.11576	0.13002	0.17965	0.098884	0.24459	0.15528	0.13007	0.19383	0.15688	0.25159	0.012104	0.24985	-1.7896	-2.8146	-2.4042	-2.6188	-2.5896	-2.4854	-2.8396	-2.7854	-2.3542	-2.7333	-2.3271	-2.3646	-2.7771	-2.5146	-2.5833	-2.5938	249.866	52.481	116.653	356.116	42.189	340.763	339.350	246.232	215.742	333.997	212.352	282.928	42.010	319.430	80.642	29.140	0.0003724	0.00082704	0.00012413	1393.9	5.6225e-06	5.0608e-06	1389.9	368.03	3.9048e-06	3.8443e-06	422.92	141.28	122.51	42.094	4.4429e-06	52.302	0.00023391	0.00019765	5.5628e-05	1400.4	2.2328e-06	2.2181e-06	1395.2	372.34	2.2196e-06	2.1196e-06	425.27	143	123.48	42.57	2.157e-06	52.834	110.469	89.928	55.944	16.518	157.594	147.486	16.300	21.287	150.208	138.230	20.449	24.949	25.489	29.876	161.952	29.260	-8191	255	
21566.881	1	1	0	0	0.24649	0.30083	0.12869	0.50684	0.37235	0.032709	0.25131	0.22771	0.19653	0.09618	0.023981	0.12937	0.19602	0.13019	0.1877	0.18476	-2.0687	-2.5125	-2.3083	-2.4021	-2.8167	-2.4688	-2.8583	-2.9021	-2.3083	-2.6896	-2.6854	-2.5896	-2.6125	-2.4104	-2.6521	-2.5854	338.534	3.534	322.685	328.441	298.344	68.143	304.927	329.832	68.552	126.637	225.658	301.096	243.045	353.570	149.996	286.290	0.00038243	0.00068161	4.3261e-05	1395.8	1.6933e-06	4.261e-06	1386.7	369.49	4.0848e-06	3.4117e-06	424.16	142.03	122.68	41.751	5.7836e-06	52.256	0.00022504	0.00019237	5.3354e-05	1401.4	2.1608e-06	2.1149e-06	1396.2	372.7	2.2005e-06	2.1321e-06	426.43	143.28	123.64	42.538	2.1974e-06	52.933	110.223	85.188	62.146	16.527	132.998	152.428	16.200	21.215	155.479	110.583	20.619	24.836	25.632	29.857	143.341	29.311	-8191	255	
21566.977	1	1	0	0	0.24968	0.15326	0.21957	0.10409	0.27381	0.11025	0.28237	0.1729	0.085075	0.14908	0.15492	0.24236	0.083136	0.18469	0.2746	0.28455	-1.7833	-2.5271	-2.4958	-2.5625	-2.6646	-2.3771	-2.7646	-2.7708	-2.4271	-2.6688	-2.5521	-2.5417	-2.8521	-2.5604	-2.55	-2.7896	215.597	244.658	338.915	338.928	350.670	127.881	325.046	229.480	340.358	358.186	47.522	322.615	141.818	67.075	31.180	7.881	0.0004176	0.00048364	0.000104	1397.1	4.811e-06	3.3427e-06	1385.5	369.33	3.1803e-06	5.9966e-06	423.16	141.19	122.89	41.909	2.8385e-06	52.08	0.0002308	0.00019951	5.6124e-05	1403.6	2.2488e-06	2.2612e-06	1394.1	372.67	2.3129e-06	2.1465e-06	425.1	142.93	123.69	42.47	2.2569e-06	52.799	105.386	80.235	94.199	16.298	185.138	153.842	16.340	21.107	155.208	132.676	20.642	25.153	25.530	29.922	180.622	29.229	-8191	255	
21567.098	1	1	0	0	0.28431	0.16927	0.041336	0.15081	0.14319	0.026409	0.24879	0.11947	0.16482	0.0096081	0.12683	0.25256	0.12545	0.076488	0.20489	0.03805	-2.0875	-2.6875	-2.4917	-2.45	-2.7229	-2.3896	-2.5312	-2.7687	-2.3167	-2.675	-2.6479	-2.3604	-2.7771	-2.6708	-2.4271	-2.8208	297.816	153.170	121.610	320.419	5.406	165.228	329.225	108.531	83.515	147.075	49.263	336.627	274.258	19.376	357.411	306.025	0.0004493	0.00086709	0.00011844	1393.6	5.5255e-06	7.0732e-06	1389.2	369.36	6.2998e-06	4.1518e-06	424.93	140.93	122.7	41.947	2.4249e-06	52.216	0.00023252	0.00020268	5.6577e-05	1399.3	2.2707e-06	2.1761e-06	1395.4	372.91	2.2004e-06	2.1592e-06	425.18	142.84	123.62	42.532	2.0949e-06	52.886	110.757	88.268	94.537	16.471	178.106	164.150	16.382	20.982	137.536	125.628	20.694	25.009	25.768	30.159	177.349	29.122	-8191	255	
21567.193	1	1	0	0	0.042559	0.29059	0.030844	0.22694	0.064598	0.17837	0.17351	0.066834	0.045075	0.2588	0.085718	0.05844	0.12449	0.22028	0.11746	0.10835	-1.9813	-2.5208	-2.6562	-2.5479	-2.6583	-2.5187	-2.75	-2.6417	-2.3083	-2.5979	-2.5563	-2.5854	-2.725	-2.7	-2.4979	-2.8333	43.051	113.709	138.250	300.742	164.391	81.165	242.158	247.470	228.249	111.035	281.633	14.947	283.032	224.959	283.824	294.132	0.00040119	0.00060426	0.00019695	1387.9	7.224e-06	5.6209e-06	1384.4	370.49	3.3174e-06	5.2382e-06	423.65	141.27	122.33	42.037	4.7975e-06	52.482	0.00022323	0.00018863	5.2078e-05	1398.3	2.1684e-06	2.0461e-06	1392.9	373.03	2.1492e-06	2.0315e-06	425.36	142.97	123.47	42.581	2.097e-06	52.991	105.889	77.495	82.836	16.311	176.323	152.685	16.311	21.209	156.371	162.093	20.707	25.135	25.595	30.220	161.169	29.085	-8191	255	
21567.289	1	1	0	0	0.25679	0.065967	0.089745	0.33039	0.18502	0.1765	0.19356	0.26221	0.24094	0.13172	0.25361	0.065229	0.31086	0.29378	0.36508	0.096229	-1.975	-2.4292	-2.6063	-2.4792	-2.4854	-2.4708	-2.6458	-2.9062	-2.4354	-2.525	-2.8625	-2.5771	-2.7458	-2.6354	-2.5	-2.9396	138.762	349.711	195.631	307.681	180.270	148.930	214.957	359.429	246.573	106.320	359.585	284.945	315.043	348.145	92.048	195.782	0.00042589	0.00055239	0.00021265	1391.5	4.5774e-06	4.559e-06	1386.4	369.81	6.0239e-06	5.4005e-06	423.97	141.85	122.95	41.873	3.868e-06	52.341	0.00022123	0.00018897	5.2253e-05	1397.8	2.1085e-06	2.0232e-06	1395	372.77	2.1341e-06	2.0653e-06	425.53	143.09	123.72	42.543	2.0868e-06	52.885	107.263	87.770	95.111	16.372	166.709	162.055	16.289	21.006	156.821	146.792	20.748	25.169	25.359	30.108	127.567	29.528	-8191	255	
21567.361	1	1	0	0	0.27382	0.37971	0.077718	0.29099	0.2285	0.10768	0.32533	0.20622	0.22722	0.2008	0.18357	0.10835	0.04963	0.28866	0.10373	0.15012	-1.925	-2.5042	-2.5833	-2.4667	-2.725	-2.7604	-2.5083	-2.8521	-2.4604	-2.4021	-2.7854	-2.325	-2.5312	-2.5438	-2.2146	-2.8937	11.997	323.939	145.362	321.054	345.090	118.165	323.087	272.244	284.387	3.873	316.995	281.127	114.159	9.120	185.443	341.743	0.00041059	0.00078289	9.6017e-05	1392.4	5.6985e-06	4.5419e-06	1382.4	369.15	4.0405e-06	3.9017e-06	422.89	142.05	123.03	41.881	3.2831e-06	52.062	0.00021552	0.00018608	5.0986e-05	1397.7	2.0677e-06	2.0216e-06	1390.9	372.78	2.0442e-06	1.9565e-06	424.3	143.27	123.6	42.499	2.0087e-06	52.887	110.124	86.493	98.865	16.470	151.873	145.449	16.395	21.209	142.226	118.515	20.729	25.033	25.874	30.085	161.577	29.343	-8191	255	
21567.482	1	1	0	0	0.22237	0.082369	0.21329	0.24863	0.23187	0.046721	0.0852	0.12592	0.20153	0.19196	0.25299	0.27897	0.22794	0.25901	0.23749	0.093645	-1.9917	-2.4062	-2.8042	-2.5042	-2.6854	-2.7188	-2.5062	-2.575	-2.425	-2.7021	-2.8292	-2.2417	-2.6042	-2.6771	-2.4167	-2.8042	150.949	243.033	49.118	340.367	138.179	309.128	268.430	294.323	224.095	70.923	315.046	221.351	15.725	289.046	78.948	266.661	0.00043788	0.00072401	0.00016737	1387.7	5.2101e-06	3.8596e-06	1377.1	369.38	4.9581e-06	3.1288e-06	423.45	142.35	121.92	42.031	5.3222e-06	52.032	0.00021349	0.00017668	5.0344e-05	1396.2	2.0771e-06	1.9431e-06	1389.4	372.66	1.9847e-06	1.9777e-06	424.73	143.06	123.29	42.538	2.0677e-06	52.773	104.722	97.363	107.735	16.483	147.276	143.429	16.263	21.085	156.611	152.668	20.504	25.064	25.638	30.017	146.366	29.322	-8191	255	
21567.578	1	1	0	0	0.2806	0.18825	0.13645	0.12481	0.21004	0.13971	0.18605	0.17541	0.15387	0.064711	0.15486	0.29977	0.20631	0.10009	0.12155	0.10114	-2.175	-2.4083	-2.6646	-2.6479	-2.4521	-2.7229	-2.5521	-2.8104	-2.4792	-2.225	-2.6937	-2.5042	-2.3958	-2.7208	-2.3375	-2.775	294.681	9.359	63.807	22.486	21.368	94.817	4.565	236.696	266.652	230.714	351.137	326.406	272.206	288.485	184.971	46.120	0.00041227	0.00064641	0.00010184	1387	4.1151e-06	5.4333e-06	1377.9	368.67	2.812e-06	3.1009e-06	423.96	140.93	123.08	41.782	3.1033e-06	52.201	0.00021502	0.00018285	5.0365e-05	1395.3	2.0942e-06	2.0034e-06	1389.6	371.79	2.0808e-06	1.9796e-06	424.9	143.11	123.42	42.458	2.0794e-06	52.841	103.605	75.810	101.166	16.575	164.768	157.797	16.274	21.140	159.005	127.286	20.588	25.074	25.688	30.032	143.730	29.304	-8191	255	
21567.674	1	1	0	0	0.25242	0.15001	0.11892	0.31628	0.19767	0.15029	0.2469	0.24819	0.019926	0.45457	0.18589	0.20073	0.072574	0.17694	0.17392	0.18442	-2.2583	-2.35	-2.6667	-2.7479	-2.5229	-2.8104	-2.3417	-2.8771	-2.7438	-2.3125	-2.85	-2.5479	-2.4229	-2.8875	-2.3229	-2.6771	237.139	309.010	66.460	303.147	174.117	85.790	35.920	289.821	164.697	45.378	176.525	281.714	354.953	42.995	297.347	262.849	0.00045452	0.00055839	0.00018947	1388.3	2.4889e-06	7.6601e-06	1380.9	369.22	2.3121e-06	5.1181e-06	422.81	141.08	122.4	41.836	5.2577e-06	52.073	0.00021784	0.00018937	5.1721e-05	1395.6	2.0809e-06	2.0804e-06	1389.9	371.94	2.1257e-06	2.0477e-06	424.62	142.82	123.31	42.414	2.074e-06	52.824	111.100	104.342	101.751	16.411	181.173	132.341	16.394	21.126	147.609	141.299	20.778	25.084	25.815	30.153	136.809	29.354	-8191	255	
21567.770	1	1	0	0	0.052887	0.23984	0.17898	0.27615	0.055581	0.20046	0.081358	0.26687	0.055599	0.11965	0.18008	0.33535	0.31166	0.25506	0.098965	0.35051	-2.4021	-2.2667	-2.675	-2.7479	-2.4	-2.6688	-2.5958	-2.6646	-2.7875	-2.4208	-2.6417	-2.4813	-2.5187	-2.9188	-2.4437	-2.5938	344.267	337.838	42.623	246.309	269.259	18.319	295.261	282.608	293.399	92.508	30.492	307.270	41.869	87.172	99.579	334.587	0.00042571	0.00021977	0.0001092	1386.9	2.6797e-06	6.4656e-06	1381.5	368	1.9644e-06	5.4723e-06	423.07	140.94	122.26	41.791	6.4202e-06	52.088	0.00021941	0.00018767	5.2287e-05	1394.5	2.162e-06	2.0593e-06	1389.2	372.22	2.1636e-06	2.1533e-06	424.52	142.64	123.15	42.393	2.2321e-06	52.71	99.875	101.040	123.195	16.547	163.988	174.242	16.459	21.351	167.998	147.181	20.312	24.899	25.716	30.148	121.977	29.476	-8191	255	
21567.889	1	1	0	0	0.12188	0.036488	0.07465	0.10011	0.24714	0.19438	0.044561	0.19896	0.37922	0.31626	0.3037	0.13864	0.14287	0.13526	0.1611	0.12376	-2.2917	-2.2479	-2.6	-2.5833	-2.3208	-2.6833	-2.5667	-2.5938	-2.7542	-2.2979	-2.7313	-2.5479	-2.4938	-2.9208	-2.3333	-2.3979	186.634	323.031	106.984	22.458	149.771	103.588	340.838	179.359	287.936	318.305	328.622	323.751	320.620	309.409	295.443	350.861	0.00038251	0.0006219	0.00010255	1388.2	4.9428e-06	3.5716e-06	1386	367.27	4.006e-06	4.1149e-06	423.12	141.08	122.58	41.862	3.2553e-06	52.181	0.00023068	0.00020594	5.7501e-05	1396.4	2.3733e-06	2.2291e-06	1391	371.31	2.3174e-06	2.2604e-06	424.34	142.58	123.33	42.394	2.218e-06	52.755	109.127	83.381	85.915	16.489	144.948	129.656	16.350	21.156	146.061	142.977	20.690	24.993	25.648	30.010	181.374	29.263	-8191	255	
21567.984	1	1	0	0	0.40864	0.1409	0.28547	0.13721	0.17177	0.30635	0.23102	0.29244	0.31527	0.094976	0.135	0.054115	0.031134	0.10268	0.18029	0.26283	-2.2667	-2.2979	-2.5687	-2.8187	-2.2313	-2.7812	-2.6458	-2.5083	-2.7771	-2.4646	-2.7708	-2.8583	-2.2938	-2.9021	-2.4437	-2.4708	9.756	269.442	316.842	3.847	299.041	238.946	51.376	294.996	324.190	187.594	177.463	34.265	217.097	353.046	157.141	21.701	0.00043533	0.00054278	0.00018782	1387.7	4.3432e-06	3.3497e-06	1384.2	367.64	4.5045e-06	4.076e-06	422.3	141.28	122.02	41.901	4.8794e-06	52.386	0.00023205	0.00019867	5.5141e-05	1395.3	2.1876e-06	2.1172e-06	1388.9	371.87	2.1692e-06	2.0461e-06	424.61	142.92	123.34	42.515	2.0345e-06	52.905	107.979	62.976	88.320	16.224	157.896	146.175	16.541	21.266	160.004	164.495	20.534	24.848	25.542	30.136	160.849	29.103	-8191	255	
21568.059	1	1	0	0	0.11725	0.12499	0.35398	0.17198	0.13237	0.17492	0.091203	0.10437	0.25835	0.24212	0.2431	0.14256	0.18235	0.19471	0.045174	0.15919	-2.3708	-2.4333	-2.5375	-2.8937	-2.2812	-2.6708	-2.7396	-2.4042	-2.7875	-2.5854	-2.6	-2.8021	-2.4021	-2.8187	-2.6583	-2.5146	329.680	163.489	209.756	304.502	91.209	249.756	278.358	211.757	116.886	81.551	303.946	293.966	34.964	12.555	232.184	182.020	0.00040453	0.00049435	0.00021294	1389.9	5.3256e-06	6.8524e-06	1380.7	369.25	4.675e-06	5.1175e-06	424	141.59	122.9	42.049	4.6117e-06	52.332	0.00021468	0.00017983	5.0797e-05	1395.9	2.0493e-06	1.9417e-06	1389.4	372.18	1.9918e-06	1.9244e-06	424.75	143.17	123.7	42.634	1.9538e-06	52.946	106.462	64.382	111.998	16.507	148.501	174.606	16.370	21.174	167.849	170.989	20.501	25.108	25.459	29.928	156.890	29.447	-8191	255	
21568.178	1	1	0	0	0.095131	0.19185	0.13494	0.09644	0.13575	0.074417	0.2056	0.21487	0.16903	0.15764	0.07119	0.18463	0.12718	0.19704	0.06302	0.063397	-2.2833	-2.3937	-2.5104	-3.0104	-2.5167	-2.625	-2.8146	-2.5062	-2.7375	-2.5146	-2.5521	-2.9375	-2.4938	-2.9604	-2.6146	-2.4375	240.203	286.320	225.404	337.715	327.078	135.730	275.040	54.685	157.538	101.710	216.796	297.503	93.529	264.074	61.907	56.178	0.00045031	0.00044238	0.00016144	1388	4.5978e-06	3.7212e-06	1382.4	370.23	3.0206e-06	4.4918e-06	422.99	141.91	122.47	41.963	2.5642e-06	52.583	0.00021053	0.00017778	5.0286e-05	1395.4	2.042e-06	1.9378e-06	1389.8	372.76	2.0222e-06	1.9514e-06	424.96	143.39	123.75	42.561	1.9864e-06	53.033	111.517	70.466	90.766	16.312	169.576	151.034	16.242	21.328	167.498	152.644	20.617	24.827	25.718	29.856	167.425	29.484	-8191	255	
21568.273	1	1	0	0	0.3158	0.13303	0.13139	0.27111	0.14309	0.21287	0.04493	0.15767	0.23273	0.17617	0.077792	0.3662	0.05727	0.19926	0.016148	0.032702	-2.2167	-2.5021	-2.5271	-2.9437	-2.375	-2.6021	-2.9917	-2.5542	-2.7208	-2.5958	-2.4562	-2.7521	-2.4771	-2.6979	-2.5896	-2.5458	317.894	112.563	360.548	325.589	281.193	75.130	16.330	311.124	64.475	286.451	241.159	334.685	14.249	306.006	17.315	341.523	0.00044292	0.00031885	0.00011485	1383.2	2.4432e-06	4.9702e-06	1382.8	368.7	3.8667e-06	3.3238e-06	424.71	141.44	123.05	41.98	4.1325e-06	52.469	0.0002125	0.00017934	4.9885e-05	1395	2.0206e-06	1.9734e-06	1389.6	372.66	2.0387e-06	1.9054e-06	424.79	143.19	123.82	42.6	2.0034e-06	52.973	111.141	116.859	113.402	16.488	152.873	137.386	16.269	21.007	158.571	143.520	20.376	24.971	25.891	29.964	136.551	29.226	-8191	255	
21568.369	1	1	0	0	0.21929	0.39177	0.12128	0.093112	0.07577	0.17982	0.08132	0.046809	0.20139	0.12009	0.25055	0.3207	0.10122	0.23944	0.23403	0.19149	-2.2313	-2.4729	-2.5625	-2.9562	-2.45	-2.45	-2.7417	-2.3187	-2.5563	-2.5958	-2.4854	-2.8104	-2.6562	-2.6312	-2.8312	-2.5187	335.907	213.981	196.241	308.785	283.183	154.541	308.104	33.733	284.822	237.576	324.087	284.039	87.167	335.285	313.962	320.212	0.00039286	0.00071023	0.00017323	1387.2	5.3407e-06	6.0482e-06	1381.4	368.34	4.5729e-06	2.7327e-06	424.73	141.3	122.22	42.098	4.933e-06	52.02	0.00021047	0.00018002	4.9992e-05	1394.8	2.0939e-06	1.931e-06	1391.7	372.62	2.0063e-06	1.9114e-06	425.38	143.05	123.52	42.613	2.0301e-06	52.958	106.290	106.095	131.060	16.385	159.232	149.423	16.204	21.059	132.278	133.743	20.732	24.964	25.640	29.978	136.356	29.393	-8191	255	
21568.467	1	1	0	0	0.085878	0.057612	0.013635	0.38735	0.26143	0.40874	0.15777	0.3543	0.10701	0.068124	0.12769	0.10314	0.16784	0.25097	0.19583	0.2673	-2.3146	-2.575	-2.2542	-3.0771	-2.7396	-2.5187	-3.1021	-2.6229	-2.6167	-2.6833	-2.4854	-2.9125	-2.6042	-2.5812	-3.0292	-2.4083	24.511	276.181	280.811	7.756	158.252	13.188	298.903	329.542	197.004	267.786	300.379	338.348	116.552	337.416	81.843	251.738	0.00041332	0.00079915	6.4269e-05	1382.4	4.7545e-06	5.2705e-06	1382.7	369.26	4.163e-06	4.2858e-06	422.73	140.9	122.73	41.864	4.4557e-06	52.276	0.00021652	0.00018291	5.2224e-05	1393.6	2.1253e-06	2.016e-06	1391.5	372.6	2.07e-06	2.0324e-06	424.81	142.79	123.53	42.508	2.0859e-06	52.923	111.539	65.887	98.836	16.326	141.947	148.045	16.389	21.111	150.657	171.766	20.579	24.777	25.716	30.086	135.272	29.263	-8191	255	
21568.588	1	1	0	0	0.12191	0.29945	0.16795	0.1793	0.13659	0.11858	0.39069	0.034627	0.20882	0.12764	0.21982	0.32637	0.15066	0.31953	0.19891	0.19043	-2.2354	-2.7938	-2.2542	-2.8042	-2.6521	-2.3854	-2.8937	-2.6229	-2.5167	-2.7604	-2.5979	-2.725	-2.6396	-2.5271	-2.7375	-2.5104	219.199	334.978	107.646	279.787	130.742	150.281	338.438	4.545	277.937	34.251	334.839	347.078	300.580	260.129	203.192	11.630	0.00042154	0.00086434	0.00015657	1390.9	5.2166e-06	5.1699e-06	1383.6	369.55	4.7061e-06	1.5251e-06	425.6	140.81	123.09	41.823	2.4622e-06	51.802	0.00022043	0.00018706	5.3062e-05	1397.7	2.1363e-06	2.092e-06	1390.7	372.64	2.1459e-06	1.9958e-06	425.85	143.02	123.5	42.555	2.0861e-06	52.755	104.313	100.939	131.822	16.512	157.729	152.241	16.314	21.096	164.837	165.432	20.538	24.954	26.041	29.986	129.963	29.218	-8191	255	
21568.658	1	1	0	0	0.3651	0.031934	0.085051	0.11617	0.13905	0.01773	0.32773	0.13069	0.086142	0.15728	0.13205	0.10312	0.1219	0.095567	0.22637	0.17485	-1.9562	-2.6292	-2.3333	-2.8937	-2.4521	-2.4604	-2.8688	-2.6146	-2.5104	-2.6375	-2.5917	-2.7458	-2.7333	-2.3354	-2.8229	-2.8229	206.901	51.936	29.262	29.506	55.233	275.388	285.093	275.410	219.147	28.533	355.868	133.068	263.147	179.244	270.367	325.162	0.00038118	0.00079026	0.00018311	1386.2	6.0282e-06	3.1696e-06	1383.9	369.41	3.5323e-06	3.5993e-06	423.18	141.35	122.6	42.065	3.8833e-06	52.087	0.00021965	0.00018496	5.1028e-05	1395.5	2.1338e-06	2.0597e-06	1390.9	372.43	2.1251e-06	2.03e-06	424.17	142.97	123.4	42.578	2.1079e-06	52.8	108.661	99.666	113.714	16.413	169.542	178.519	16.277	21.255	135.077	142.208	20.711	24.912	25.527	30.122	147.090	29.107	-8191	255	
21568.779	1	1	0	0	0.15997	0.11209	0.21434	0.31476	0.1936	0.17152	0.22754	0.11797	0.16554	0.19735	0.32276	0.20188	0.22806	0.13312	0.22018	0.11325	-2.0375	-2.7167	-2.2562	-2.8396	-2.6875	-2.2896	-2.8187	-2.5292	-2.3896	-2.6521	-2.6271	-2.7125	-2.7812	-2.2667	-2.6458	-2.8	195.143	146.720	129.620	315.553	60.206	224.988	334.094	302.356	361.147	318.571	327.268	11.217	350.681	318.001	61.627	286.322	0.00043151	0.00052433	0.00020501	1386.3	6.1701e-06	4.9584e-06	1381.8	369.49	5.8208e-06	2.5251e-06	423.17	141.95	122.56	42.124	4.8909e-06	52.047	0.00022216	0.00019058	5.274e-05	1395.3	2.1325e-06	2.0585e-06	1390.4	372.26	2.1431e-06	2.0901e-06	424.65	143.08	123.1	42.519	2.138e-06	52.738	108.517	100.443	83.852	16.343	174.814	158.184	16.360	21.274	158.344	127.251	20.674	25.083	25.819	30.101	142.587	29.131	-8191	255	
21568.873	1	1	0	0	0.025566	0.13472	0.084898	0.14344	0.20699	0.029217	0.20326	0.32093	0.1394	0.21426	0.22153	0.090644	0.088207	0.37891	0.25309	0.24738	-1.9896	-2.6208	-2.4313	-2.5604	-2.6146	-2.4646	-2.8021	-2.8312	-2.5229	-2.8354	-2.6688	-2.6854	-2.6417	-2.3458	-2.4875	-2.725	306.930	253.208	173.341	5.842	342.675	55.706	312.739	291.148	105.139	123.331	351.253	156.913	164.833	337.778	216.498	314.534	0.00041215	0.00049344	0.00018874	1390.5	4.2194e-06	5.0807e-06	1382.6	368.02	4.6983e-06	6.0016e-06	421.62	141.17	121.79	41.622	3.7714e-06	52.065	0.00022899	0.00019701	5.5666e-05	1396.4	2.2467e-06	2.1482e-06	1388.4	371.48	2.2583e-06	2.1386e-06	424.46	142.8	122.97	42.33	2.1554e-06	52.739	108.424	60.545	103.766	16.467	149.019	138.386	16.428	21.158	143.280	156.982	20.395	25.004	25.681	30.133	189.497	29.236	-8191	255	
21568.971	1	1	0	0	0.36329	0.074524	0.41545	0.2801	0.18277	0.14299	0.22728	0.08577	0.27345	0.076523	0.1918	0.21988	0.086521	0.093474	0.10445	0.089899	-1.9229	-2.6854	-2.4125	-2.5417	-2.9604	-2.4854	-2.8083	-2.6354	-2.1813	-3.0062	-2.5271	-2.4021	-2.6312	-2.3937	-2.3375	-2.7979	45.283	108.780	32.695	321.193	334.062	111.762	354.970	220.446	213.456	27.617	356.131	74.903	302.649	294.558	313.747	230.520	0.00041175	0.00067645	0.00014499	1387.4	5.0639e-06	2.5906e-06	1378.3	368.44	4.2623e-06	3.8413e-06	424.06	140.6	122.05	41.768	1.194e-06	52.352	0.00023081	0.0001933	5.4134e-05	1395.8	2.1792e-06	2.1135e-06	1389.2	371.9	2.1655e-06	2.0685e-06	424.5	142.87	123.2	42.518	2.1121e-06	52.776	111.787	96.419	94.801	16.436	140.629	153.439	16.305	21.288	162.420	144.902	20.707	25.076	25.597	30.180	58.488	29.140	-8191	255	
21569.066	1	1	0	0	0.23945	0.12279	0.24834	0.38534	0.1464	0.18519	0.37935	0.14007	0.25671	0.23586	0.094895	0.11901	0.18341	0.11696	0.079275	0.46826	-1.7896	-2.6	-2.3833	-2.7229	-2.7271	-2.4958	-2.65	-2.7687	-2.3896	-2.7167	-2.6688	-2.4292	-2.6521	-2.4708	-2.5062	-2.6396	231.466	323.976	251.705	346.503	50.096	284.726	299.050	260.057	45.868	350.048	109.772	323.753	134.825	185.028	188.525	351.804	0.00042126	0.000719	8.2267e-05	1385.9	6.0262e-06	5.3115e-06	1380.5	369.95	5.2591e-06	2.0297e-06	423.03	141.11	122.19	41.783	4.1139e-06	51.86	0.00022283	0.00018841	5.3125e-05	1394.6	2.1107e-06	2.082e-06	1389.9	372.03	2.1673e-06	2.0289e-06	424.56	142.66	123.25	42.401	2.067e-06	52.647	106.904	87.607	124.051	16.347	160.989	165.605	16.209	21.111	161.350	133.823	20.600	24.914	25.670	29.890	142.661	29.121	-8191	255	
21569.186	1	1	0	0	0.03738	0.037684	0.073056	0.12693	0.067715	0.33665	0.46485	0.41662	0.46818	0.15673	0.22818	0.12684	0.27355	0.15158	0.075397	0.14343	-1.925	-2.65	-2.5625	-2.5125	-2.8	-2.5771	-2.6167	-2.9708	-2.3521	-2.6792	-2.6063	-2.3208	-2.5625	-2.5542	-2.4729	-2.9229	85.363	30.136	163.284	344.681	77.165	173.240	306.082	231.342	223.969	208.529	360.239	345.221	280.510	328.080	105.441	189.493	0.00039929	0.00043091	9.6296e-05	1384.9	4.5747e-06	4.0663e-06	1381.5	368.33	3.4713e-06	4.4845e-06	425.48	140.89	122.63	41.946	6.5302e-06	52.302	0.00022088	0.00019217	5.3251e-05	1394.1	2.2063e-06	2.0963e-06	1390.4	371.83	2.1949e-06	2.1203e-06	425.46	142.89	123.25	42.409	2.1598e-06	52.766	107.602	84.048	104.564	16.622	173.868	182.465	16.504	21.010	171.642	179.455	20.574	24.945	25.357	30.097	143.776	29.152	-8191	255	
21569.283	1	1	0	0	0.12284	0.21928	0.17956	0.22831	0.11729	0.30774	0.15778	0.050691	0.1916	0.014321	0.27139	0.17781	0.20036	0.24177	0.17182	0.091026	-1.8062	-2.6937	-2.3958	-2.4708	-2.7896	-2.5792	-2.6	-2.7771	-2.4437	-2.4958	-2.725	-2.2333	-2.6667	-2.5479	-2.325	-2.7438	147.090	17.136	111.136	274.036	153.231	296.538	357.329	259.379	8.886	361.154	131.293	8.092	41.234	151.401	240.522	230.802	0.00041439	0.00060861	0.00016716	1388	7.773e-06	4.5462e-06	1375.1	369.72	2.6115e-06	2.0658e-06	424.08	141.28	122.15	41.678	4.8386e-06	52.078	0.00023251	0.0001974	5.5821e-05	1396.6	2.2314e-06	2.1294e-06	1389.4	372.57	2.2758e-06	2.1538e-06	425.09	142.75	123.22	42.393	2.2096e-06	52.75	109.667	81.077	116.518	16.489	161.795	163.993	16.583	21.075	166.538	148.983	20.767	25.053	25.746	30.172	161.285	29.231	-8191	255	
21569.354	1	1	0	0	0.12213	0.33205	0.088992	0.19267	0.030414	0.22674	0.24946	0.12792	0.21728	0.11588	0.20758	0.17022	0.18555	0.14778	0.16982	0.20632	-2.0458	-2.4896	-2.8021	-2.35	-2.6979	-2.4521	-2.575	-2.8417	-2.4375	-2.6167	-2.7188	-2.3979	-2.7	-2.625	-2.3604	-2.9958	343.884	94.026	248.813	310.488	342.698	50.846	280.695	343.198	59.864	22.232	18.363	204.524	294.026	319.556	244.175	311.926	0.00039064	0.00067528	0.00013913	1388.6	5.5173e-06	4.9643e-06	1383.8	368.84	6.2965e-06	5.639e-06	426.08	141.99	122.53	41.945	3.742e-06	52.205	0.00022605	0.00019479	5.4984e-05	1397.1	2.1935e-06	2.0932e-06	1392.1	372.48	2.1357e-06	2.0717e-06	425.73	143.08	123.46	42.461	2.0796e-06	52.899	108.398	105.684	80.031	16.495	176.023	177.936	16.296	21.081	167.375	159.932	20.558	25.163	25.771	29.885	158.228	29.307	-8191	255	
21569.449	1	1	0	0	0.11933	0.097494	0.09648	0.2897	0.12675	0.13427	0.21541	0.1205	0.11519	0.17613	0.1734	0.27568	0.16012	0.26486	0.12755	0.16406	-1.9021	-2.3479	-2.6479	-2.4896	-2.7208	-2.6521	-2.5417	-2.75	-2.4729	-2.4667	-2.9667	-2.5438	-2.7062	-2.7625	-2.5083	-2.8708	93.900	325.252	93.268	330.621	74.370	128.739	311.512	242.309	346.157	339.735	348.741	285.278	106.993	356.741	5.371	340.153	0.00045084	0.00057846	9.718e-05	1393.5	2.6724e-06	3.8465e-06	1386.9	369.88	4.2125e-06	3.9855e-06	423.67	141.53	122.24	41.816	3.4978e-06	52.241	0.00022569	0.00019016	5.256e-05	1398.4	2.2041e-06	2.0412e-06	1393	372.34	2.1773e-06	2.0902e-06	424.97	142.92	123.46	42.482	2.1354e-06	52.797	111.120	114.898	135.795	16.512	150.820	194.697	16.395	21.094	147.613	134.085	20.688	25.159	25.517	30.056	181.309	29.087	-8191	255	
21569.547	1	1	0	0	0.36626	0.13936	0.045343	0.10447	0.26727	0.16721	0.14631	0.19974	0.20752	0.11994	0.12424	0.24597	0.092501	0.20477	0.28304	0.17008	-1.9271	-2.3792	-2.7417	-2.5833	-2.4271	-2.5875	-2.3479	-2.825	-2.5396	-2.4833	-2.6813	-2.4917	-2.6854	-2.7938	-2.3125	-2.8187	126.461	221.707	244.609	306.313	98.802	202.686	149.457	12.836	153.257	16.814	317.546	321.569	218.999	273.386	160.156	239.981	0.0004023	0.0006467	0.00013044	1385.9	6.9601e-06	2.6255e-06	1386.5	369.82	4.5909e-06	1.7142e-06	424.13	141.22	122.08	41.794	4.1843e-06	52.138	0.00021903	0.00019493	5.3271e-05	1397.9	2.2259e-06	2.1341e-06	1394.7	373.02	2.2162e-06	2.1628e-06	425.94	142.9	123.23	42.539	2.1699e-06	52.817	104.025	86.236	124.206	16.248	169.991	136.911	16.384	21.201	149.589	107.526	20.700	24.712	25.457	29.848	164.427	29.212	-8191	255	
21569.668	1	1	0	0	0.091076	0.20287	0.075021	0.38552	0.1001	0.18572	0.14662	0.026574	0.091673	0.23184	0.1931	0.094835	0.17338	0.051115	0.084004	0.21889	-2.0875	-2.2604	-2.7208	-2.5667	-2.6146	-2.8417	-2.5146	-2.8667	-2.6521	-2.2438	-2.7167	-2.7	-2.5417	-2.7687	-2.3208	-2.6688	159.731	154.774	347.180	303.805	154.719	139.452	264.059	147.983	136.688	123.649	177.003	345.476	96.911	346.053	156.254	349.683	0.00044218	0.00038746	0.00010956	1392.9	2.3798e-06	4.2047e-06	1390.6	370.48	2.8813e-06	2.5411e-06	424.92	141.89	122.57	42.161	4.0455e-06	52.131	0.00022696	0.00019689	5.4256e-05	1401.3	2.2122e-06	2.0668e-06	1398.8	373.5	2.1578e-06	2.121e-06	426.26	143.34	123.86	42.665	2.0884e-06	52.856	102.905	52.436	109.360	16.507	187.460	148.644	16.467	21.141	174.661	198.575	20.587	25.023	25.333	30.002	142.157	29.162	-8191	255	
21569.764	1	1	0	0	0.45708	0.11178	0.036963	0.55936	0.090023	0.065952	0.36058	0.12563	0.068315	0.083989	0.39704	0.027294	0.31193	0.19998	0.18951	0.27813	-2.3333	-2.3292	-2.3854	-2.7458	-2.5354	-2.7396	-2.4583	-2.7333	-2.5271	-2.4062	-2.7229	-2.5583	-2.5229	-2.8292	-2.4042	-2.6188	8.603	124.799	8.020	346.903	235.764	263.191	297.454	78.601	181.221	307.861	259.355	139.415	8.250	357.829	6.662	305.767	0.0004229	0.00036277	0.00014578	1391	5.9578e-06	3.8302e-06	1390.7	369.7	4.4788e-06	3.8545e-06	424.96	141.73	122.92	42.113	5.0383e-06	52.501	0.00021666	0.00019077	5.1313e-05	1401.5	2.1537e-06	1.9823e-06	1396.5	373.78	2.008e-06	1.969e-06	426.78	143.29	123.98	42.683	2.0718e-06	52.948	109.253	103.259	86.444	16.651	172.566	168.201	16.475	21.165	168.226	167.739	20.681	24.992	25.807	29.634	158.517	29.216	-8191	255	
21569.859	1	1	0	0	0.15305	0.28942	0.2384	0.18975	0.31146	0.24837	0.20074	0.33926	0.090078	0.14192	0.20546	0.15377	0.34731	0.16226	0.16576	0.14463	-2.2604	-2.2354	-2.6729	-2.7771	-2.4062	-2.8167	-2.6917	-2.6854	-2.9354	-2.3688	-2.6813	-2.5187	-2.45	-2.7938	-2.4875	-2.675	222.118	226.062	49.593	303.738	166.708	266.101	337.290	256.981	314.312	240.416	323.826	272.774	362.809	336.781	282.639	255.176	0.00041284	0.00052189	0.00012803	1392.7	5.0753e-06	3.4629e-06	1383.1	371.17	4.2541e-06	4.7211e-06	425.45	141.86	123.01	41.869	4.1012e-06	52.542	0.00021453	0.0001809	5.0044e-05	1400.8	2.1007e-06	1.9693e-06	1395.5	373.85	2.0962e-06	2.0064e-06	426.36	143.24	123.87	42.559	2.0741e-06	52.989	109.475	93.218	150.713	16.428	157.936	190.194	16.223	21.235	140.243	155.076	20.766	24.949	25.540	29.946	148.499	29.231	-8191	255	
21569.955	1	1	0	0	0.21654	0.20822	0.27624	0.26482	0.37276	0.18733	0.093937	0.31015	0.088741	0.21272	0.064391	0.16263	0.074013	0.26407	0.21375	0.11158	-2.1875	-2.3229	-2.6354	-2.8104	-2.2875	-2.8792	-2.6896	-2.5271	-2.8667	-2.1792	-2.6104	-2.7188	-2.1604	-2.7875	-2.4562	-2.35	324.264	316.498	18.635	256.672	36.070	99.554	303.078	321.434	35.158	26.816	15.890	249.850	127.296	25.356	141.788	332.287	0.00042956	0.0002157	0.00016795	1395.2	4.1002e-06	6.3667e-06	1389.8	371.14	2.1828e-06	2.0633e-06	425.52	140.97	123.13	41.973	5.8964e-06	52.349	0.00022076	0.00019152	5.1387e-05	1403.3	2.1906e-06	2.0517e-06	1398.1	374.07	2.1201e-06	2.0415e-06	426.82	143.12	123.92	42.63	2.115e-06	52.975	108.746	83.026	108.979	16.498	174.545	182.711	16.408	21.215	200.246	195.215	20.482	24.924	25.595	30.071	154.880	29.548	-8191	255	
21570.051	1	1	0	0	0.14832	0.10404	0.19118	0.27974	0.38941	0.11535	0.088407	0.10217	0.12609	0.28782	0.07671	0.23307	0.17286	0.26304	0.07614	0.21232	-2.1771	-2.2667	-2.5958	-2.7938	-2.3042	-2.7313	-2.7292	-2.5958	-2.5479	-2.3438	-2.6333	-2.8333	-2.2667	-2.7208	-2.5083	-2.5333	323.809	9.908	105.573	329.813	228.799	122.373	116.462	269.125	92.177	36.451	362.784	323.599	289.685	273.195	165.895	28.400	0.00038107	0.00032873	0.00020763	1397.8	3.9089e-06	3.4248e-06	1394.6	371.41	5.7106e-06	3.8299e-06	426.18	141.82	123.52	41.993	2.716e-06	52.306	0.00021872	0.00018869	5.284e-05	1405.2	2.1382e-06	2.0438e-06	1400	374.5	2.0815e-06	1.9783e-06	427.94	143.61	124.27	42.681	2.0312e-06	52.975	108.110	51.574	123.974	16.355	178.606	169.554	16.155	21.160	146.152	165.311	20.400	24.873	25.621	29.848	136.693	29.199	-8191	255	
21570.146	1	1	0	0	0.12833	0.12036	0.2178	0.1828	0.21687	0.25676	0.13223	0.21837	0.35604	0.1624	0.28113	0.31168	0.12551	0.10181	0.18502	0.07309	-2.2896	-2.4167	-2.3979	-2.7896	-2.1937	-2.8458	-2.6875	-2.4917	-2.7979	-2.4229	-2.5687	-2.9604	-2.3604	-2.7542	-2.6667	-2.3417	356.015	54.014	123.263	16.928	82.853	205.090	350.481	191.522	140.050	261.753	329.459	56.077	232.402	252.260	56.018	290.555	0.00044821	0.00070948	0.00016951	1399	6.3972e-06	4.4263e-06	1394.2	370.35	4.1906e-06	5.2828e-06	425.11	141.96	123.73	42.131	5.1121e-06	52.271	0.00021443	0.00018455	5.0461e-05	1405.7	2.1061e-06	1.9624e-06	1400.7	374.26	2.0408e-06	2.0028e-06	427.14	143.57	124.16	42.66	2.0504e-06	52.992	103.965	68.879	119.089	16.469	188.231	146.838	16.249	21.225	178.005	137.205	20.596	25.101	25.802	29.972	159.666	29.045	-8191	255	
21570.268	1	1	0	0	0.18949	0.1953	0.16067	0.40375	0.065267	0.20208	0.14275	0.16027	0.15376	0.095528	0.19795	0.088138	0.23222	0.29146	0.021501	0.13519	-2.3312	-2.425	-2.3187	-2.975	-2.175	-2.6042	-2.8083	-2.3375	-2.7792	-2.4979	-2.4771	-2.9437	-2.2917	-2.6396	-2.775	-2.5646	75.431	160.825	15.893	22.377	229.888	331.193	280.088	361.549	290.971	323.899	275.448	48.841	253.731	12.531	351.180	272.196	0.00041409	0.00064539	0.00018619	1396.1	6.2971e-06	4.5344e-06	1395.5	370.77	6.5584e-06	4.8903e-06	426.05	142.55	123.16	42.066	4.229e-06	52.583	0.00021958	0.00018438	5.1629e-05	1406.1	2.1368e-06	2.0256e-06	1401.4	374.68	2.097e-06	2.054e-06	428.44	143.78	124.21	42.643	2.093e-06	53.153	107.285	91.424	87.658	16.165	183.174	176.300	16.306	21.060	142.054	130.927	20.580	24.760	25.702	30.001	146.247	29.326	-8191	255	
21570.363	1	1	0	0	0.22755	0.2572	0.17372	0.40009	0.1022	0.14995	0.32028	0.084133	0.09593	0.12049	0.12685	0.27844	0.19622	0.10404	0.099848	0.064402	-2.1937	-2.4813	-2.3708	-2.9688	-2.3125	-2.4375	-2.8375	-2.475	-2.55	-2.6396	-2.5104	-2.8542	-2.5021	-2.6083	-2.4833	-2.4271	286.384	26.939	234.247	338.924	33.237	50.382	196.197	8.692	193.821	13.666	297.620	292.192	100.184	11.262	320.690	11.506	0.00042672	0.00072422	0.00014008	1399.3	4.2595e-06	4.9051e-06	1396.7	370.82	4.1187e-06	4.5109e-06	424.94	142.15	123.52	42.231	6.0994e-06	52.478	0.00021961	0.0001917	5.4031e-05	1407.8	2.1617e-06	2.0311e-06	1403.5	374.54	2.1137e-06	2.0087e-06	428.16	143.71	124.28	42.809	2.0911e-06	53.085	106.013	88.613	101.877	16.313	157.054	175.256	16.204	21.088	153.105	113.473	20.514	24.714	25.238	29.988	175.241	29.295	-8191	255	
21570.459	1	1	0	0	0.33517	0.072165	0.22022	0.4132	0.17679	0.15724	0.068317	0.099022	0.32151	0.16572	0.12385	0.057005	0.096166	0.16642	0.22219	0.20111	-2.1146	-2.5208	-2.2542	-2.7687	-2.4708	-2.5896	-2.6646	-2.3937	-2.6042	-2.4958	-2.4208	-2.5104	-2.5125	-2.5667	-2.6458	-2.4396	298.247	200.156	107.913	347.563	232.778	123.613	290.518	184.805	65.224	325.873	244.708	28.799	99.451	302.810	77.383	29.572	0.00042635	0.00054778	0.00012746	1401.6	3.0829e-06	6.4395e-06	1393.5	372.89	2.7645e-06	3.7933e-06	427.89	141.83	123.02	42.243	5.4732e-06	52.579	0.0002228	0.00019325	5.4067e-05	1408.7	2.1705e-06	2.0631e-06	1403	375.53	2.1057e-06	2.094e-06	428.91	143.63	124.27	42.702	2.1784e-06	53.189	105.820	108.604	53.637	16.473	178.782	146.594	16.250	21.000	156.477	133.706	20.745	24.891	25.418	29.795	143.120	29.267	-8191	255	
21570.555	1	1	0	0	0.16101	0.068709	0.19613	0.22061	0.24511	0.0229	0.26352	0.13335	0.11392	0.16116	0.2628	0.12262	0.30035	0.21978	0.15166	0.24551	-2.0812	-2.6083	-2.2562	-2.8979	-2.3063	-2.2646	-2.925	-2.2146	-2.7042	-2.6771	-2.4354	-2.8104	-2.5604	-2.4313	-2.8208	-2.4479	243.049	158.911	258.787	291.621	325.885	104.983	235.220	339.846	275.855	248.144	330.423	295.782	278.105	352.312	332.438	87.378	0.00043557	0.00055396	0.00014937	1406.2	5.8109e-06	5.0735e-06	1390.4	371.7	5.5849e-06	2.83e-06	427.05	142.08	123.18	42.268	4.3816e-06	52.357	0.00022486	0.0001913	5.3188e-05	1410.5	2.1637e-06	2.0747e-06	1402.7	375.04	2.1497e-06	2.0083e-06	428.55	143.83	124.43	42.73	2.0871e-06	53.077	109.849	69.572	87.750	16.541	170.169	141.606	16.358	20.954	175.489	132.220	20.514	25.004	25.566	30.152	150.100	29.472	-8191	255	
21570.650	1	1	0	0	0.084489	0.14002	0.29705	0.18381	0.15812	0.22505	0.070898	0.083994	0.044958	0.24169	0.24201	0.18063	0.18137	0.2398	0.081956	0.18581	-2.2188	-2.5687	-2.1167	-2.7792	-2.5771	-2.3458	-2.9271	-2.6063	-2.4708	-2.6063	-2.3292	-2.8271	-2.4062	-2.3833	-2.5708	-2.5542	77.975	168.853	246.503	339.246	126.921	127.254	28.469	205.062	166.258	323.133	280.138	42.071	185.837	341.344	79.130	140.702	0.00041812	0.00055707	3.4574e-05	1398	4.7546e-06	6.1267e-06	1396.2	372.61	3.7406e-06	3.4957e-06	428.17	142.75	123.14	42.274	2.5914e-06	52.552	0.00021954	0.00018725	5.1499e-05	1409.3	2.1178e-06	2.0761e-06	1401.9	375.6	2.0725e-06	2.0241e-06	428.93	144.09	124.27	42.803	2.0106e-06	53.129	105.917	133.869	159.360	16.482	165.570	137.499	16.283	21.010	166.470	152.615	20.615	25.038	25.786	30.070	133.754	29.357	-8191	255	
21570.746	1	1	0	0	0.17496	0.089143	0.36507	0.174	0.15035	0.025202	0.11657	0.24182	0.20514	0.11984	0.24325	0.20731	0.11929	0.23593	0.19055	0.041396	-2.1458	-2.6813	-2.1771	-2.7792	-2.4333	-2.4229	-2.9375	-2.5208	-2.4646	-2.7271	-2.5667	-2.7271	-2.8438	-2.2396	-2.8479	-2.6083	175.218	287.265	62.586	310.854	251.935	34.981	280.474	296.430	279.332	322.577	24.264	334.552	308.125	255.961	194.862	324.829	0.00045029	0.00051136	0.00014287	1405.6	5.2918e-06	6.7155e-06	1394.4	373.36	5.1355e-06	2.4691e-06	425.57	142.21	123.37	42.094	4.1942e-06	52.47	0.00021426	0.00017659	5.0815e-05	1409.6	2.0723e-06	2.0235e-06	1403.2	375.67	2.102e-06	1.967e-06	428.6	144.17	124.5	42.827	1.985e-06	53.139	110.546	50.429	105.154	16.492	167.726	148.268	16.310	21.112	161.239	141.610	20.788	24.953	25.660	29.938	155.531	29.099	-8191	255	
21570.867	1	1	0	0	0.068761	0.15453	0.0592	0.41985	0.18295	0.14655	0.22476	0.1461	0.33637	0.1179	0.32171	0.08141	0.22684	0.038927	0.31418	0.16428	-1.9021	-2.6437	-2.3896	-2.6771	-2.5333	-2.3042	-2.6625	-2.6688	-2.3417	-2.8792	-2.4604	-2.5396	-2.7438	-2.3083	-2.675	-2.65	26.455	26.432	332.949	40.018	348.160	162.777	322.332	277.037	341.880	247.093	297.824	235.779	331.734	27.108	285.839	360.509	0.00044534	0.00060803	0.00015381	1405	4.7134e-06	7.3197e-06	1392.4	372.02	3.7454e-06	4.4136e-06	427.51	142.33	124.14	42.095	4.2015e-06	52.534	0.0002173	0.00017935	4.9414e-05	1410.6	2.0354e-06	1.9574e-06	1400.8	375.59	2.076e-06	1.9351e-06	428.47	144.07	124.7	42.797	1.9598e-06	53.187	106.078	72.795	111.103	16.434	171.068	174.989	16.241	20.990	159.388	163.230	20.255	24.851	25.260	30.047	155.823	29.344	-8191	255	
#DATA ENDS
