BOXY.EXE: ISS Imagent and Oximeter Data Acquisition Program Version 0.80
Ascii Record File

#ACQ INFORMATION
2  Detector Channels 
16  External MUX Channels 
1  Auxiliary Channels 
5000  Waveform (CCF) Frequency (Hz)
1  Waveforms Skipped 
30  Waveforms Averaged 
1  Cycles Averaged 
16  Acquisitions per Waveform 
10.0806  Updata Rate (Hz) 

#FILE INFORMATION
TRUE -- External MUX Channel results are PARSED.
FALSE -- AC DC and Phase are NOT grouped.
TRUE -- Companion Program Settings File CREATED.
FALSE -- AC data not excluded
FALSE -- DC data not excluded
FALSE -- Phase data not excluded
FALSE -- Auxillary Chn. data not excluded
Tab delimiters

#CALIBRATION STATE
TRUE -- Waveform Calibration Values APPLIED.


#AUX CALIBRATION VALUES
Val Type	aux-1	

Term	1.0000e+00	
Factor	0.0000e+00	


#WF CALIBRATION VALUES
A = Detector Channel
Val Type	A-AC1	A-AC2	A-AC3	A-AC4	A-AC5	A-AC6	A-AC7	A-AC8	A-AC9	A-AC10	A-AC11	A-AC12	A-AC13	A-AC14	A-AC15	A-AC16	A-DC1	A-DC2	A-DC3	A-DC4	A-DC5	A-DC6	A-DC7	A-DC8	A-DC9	A-DC10	A-DC11	A-DC12	A-DC13	A-DC14	A-DC15	A-DC16	A-Ph1	A-Ph2	A-Ph3	A-Ph4	A-Ph5	A-Ph6	A-Ph7	A-Ph8	A-Ph9	A-Ph10	A-Ph11	A-Ph12	A-Ph13	A-Ph14	A-Ph15	A-Ph16	

Term	0.00000e+00	0.00000e+00	0.00000e+00	0.00000e+00	0.00000e+00	0.00000e+00	0.00000e+00	0.00000e+00	0.00000e+00	0.00000e+00	0.00000e+00	0.00000e+00	0.00000e+00	0.00000e+00	0.00000e+00	0.00000e+00	0.00000e+00	0.00000e+00	0.00000e+00	0.00000e+00	0.00000e+00	0.00000e+00	0.00000e+00	0.00000e+00	0.00000e+00	0.00000e+00	0.00000e+00	0.00000e+00	0.00000e+00	0.00000e+00	0.00000e+00	0.00000e+00	0.00000e+00	0.00000e+00	0.00000e+00	0.00000e+00	0.00000e+00	0.00000e+00	0.00000e+00	0.00000e+00	0.00000e+00	0.00000e+00	0.00000e+00	0.00000e+00	0.00000e+00	0.00000e+00	0.00000e+00	0.00000e+00	
Factor	1.00000e+00	1.00000e+00	1.00000e+00	1.00000e+00	1.00000e+00	1.00000e+00	1.00000e+00	1.00000e+00	1.00000e+00	1.00000e+00	1.00000e+00	1.00000e+00	1.00000e+00	1.00000e+00	1.00000e+00	1.00000e+00	1.00000e+00	1.00000e+00	1.00000e+00	1.00000e+00	1.00000e+00	1.00000e+00	1.00000e+00	1.00000e+00	1.00000e+00	1.00000e+00	1.00000e+00	1.00000e+00	1.00000e+00	1.00000e+00	1.00000e+00	1.00000e+00	X	X	X	X	X	X	X	X	X	X	X	X	X	X	X	X	

B = Detector Channel
Val Type	B-AC1	B-AC2	B-AC3	B-AC4	B-AC5	B-AC6	B-AC7	B-AC8	B-AC9	B-AC10	B-AC11	B-AC12	B-AC13	B-AC14	B-AC15	B-AC16	B-DC1	B-DC2	B-DC3	B-DC4	B-DC5	B-DC6	B-DC7	B-DC8	B-DC9	B-DC10	B-DC11	B-DC12	B-DC13	B-DC14	B-DC15	B-DC16	B-Ph1	B-Ph2	B-Ph3	B-Ph4	B-Ph5	B-Ph6	B-Ph7	B-Ph8	B-Ph9	B-Ph10	B-Ph11	B-Ph12	B-Ph13	B-Ph14	B-Ph15	B-Ph16	

Term	0.00000e+00	0.00000e+00	0.00000e+00	0.00000e+00	0.00000e+00	0.00000e+00	0.00000e+00	0.00000e+00	0.00000e+00	0.00000e+00	0.00000e+00	0.00000e+00	0.00000e+00	0.00000e+00	0.00000e+00	0.00000e+00	0.00000e+00	0.00000e+00	0.00000e+00	0.00000e+00	0.00000e+00	0.00000e+00	0.00000e+00	0.00000e+00	0.00000e+00	0.00000e+00	0.00000e+00	0.00000e+00	0.00000e+00	0.00000e+00	0.00000e+00	0.00000e+00	-1.95322e+02	-1.31664e+02	-1.35514e+02	-1.83507e+02	-9.14092e+01	-5.93382e+01	-1.57852e+02	-1.62015e+02	-9.36674e+01	-6.54123e+01	-1.76234e+02	-1.71211e+02	-1.81698e+02	-1.78091e+02	-8.68548e+01	-1.51000e+02	
Factor	4.07472e-05	1.94038e-04	5.01386e-05	4.44362e-01	1.74494e-06	1.67566e-06	1.66286e-01	6.31906e-02	2.08765e-06	1.66474e-06	2.13853e-01	2.89034e-02	2.88634e-02	9.13376e-03	1.93495e-06	1.32076e-02	3.19055e-06	3.47120e-06	9.67125e-07	2.29784e-01	3.78690e-08	3.80063e-08	8.23849e-02	3.32550e-02	3.75348e-08	3.80335e-08	1.05779e-01	1.48008e-02	1.52162e-02	4.84302e-03	3.76195e-08	6.77457e-03	X	X	X	X	X	X	X	X	X	X	X	X	X	X	X	X	



#DISTANCE SETTINGS
A = Detector Channel
A-1	A-2	A-3	A-4	A-5	A-6	A-7	A-8	A-9	A-10	A-11	A-12	A-13	A-14	A-15	A-16	

2.5000e+00	3.0000e+00	2.5000e+00	3.0000e+00	2.0000e+00	3.0000e+00	1.5000e+00	3.0000e+00	3.0000e+00	3.0000e+00	3.0000e+00	3.0000e+00	3.0000e+00	3.0000e+00	1.5000e+00	3.0000e+00	

B = Detector Channel
B-1	B-2	B-3	B-4	B-5	B-6	B-7	B-8	B-9	B-10	B-11	B-12	B-13	B-14	B-15	B-16	

1.0000e+01	1.0000e+01	1.0000e+01	1.4400e+00	1.0000e+01	1.0000e+01	1.5100e+00	1.9400e+00	1.0000e+01	1.0000e+01	1.9900e+00	2.4900e+00	2.4100e+00	2.9000e+00	1.0000e+01	2.9800e+00	




#DATA BEGINS
time	group	step	mark	flag	A-AC1	A-AC2	A-AC3	A-AC4	A-AC5	A-AC6	A-AC7	A-AC8	A-AC9	A-AC10	A-AC11	A-AC12	A-AC13	A-AC14	A-AC15	A-AC16	A-DC1	A-DC2	A-DC3	A-DC4	A-DC5	A-DC6	A-DC7	A-DC8	A-DC9	A-DC10	A-DC11	A-DC12	A-DC13	A-DC14	A-DC15	A-DC16	A-Ph1	A-Ph2	A-Ph3	A-Ph4	A-Ph5	A-Ph6	A-Ph7	A-Ph8	A-Ph9	A-Ph10	A-Ph11	A-Ph12	A-Ph13	A-Ph14	A-Ph15	A-Ph16	B-AC1	B-AC2	B-AC3	B-AC4	B-AC5	B-AC6	B-AC7	B-AC8	B-AC9	B-AC10	B-AC11	B-AC12	B-AC13	B-AC14	B-AC15	B-AC16	B-DC1	B-DC2	B-DC3	B-DC4	B-DC5	B-DC6	B-DC7	B-DC8	B-DC9	B-DC10	B-DC11	B-DC12	B-DC13	B-DC14	B-DC15	B-DC16	B-Ph1	B-Ph2	B-Ph3	B-Ph4	B-Ph5	B-Ph6	B-Ph7	B-Ph8	B-Ph9	B-Ph10	B-Ph11	B-Ph12	B-Ph13	B-Ph14	B-Ph15	B-Ph16	aux-1	digaux	

3213.131	1	1	0	256	0.15878	0.091101	0.16248	0.22638	0.076246	0.11168	0.10066	0.083597	0.22338	0.068596	0.32023	0.30099	0.074226	0.04154	0.10366	0.1059	-2.55	-2.6667	-2.9771	-2.9583	-2.9562	-3.0729	-2.9042	-2.9229	-2.8937	-2.875	-3.1396	-2.7917	-2.9396	-3.1979	-2.9875	-2.9333	195.037	144.076	-13.458	80.427	28.217	184.521	-30.105	-104.579	138.681	-73.692	49.538	226.969	-25.628	84.097	-40.024	-123.754	0.00016959	0.0016283	0.00036576	340.39	1.0734e-05	6.0479e-06	388.83	99.666	7.0912e-06	1.0011e-05	148.53	56.841	35.685	15.094	1.346e-05	29.284	0.0061693	0.0064711	0.0018987	837.39	7.3334e-05	7.0134e-05	585.4	175.64	7.2731e-05	7.2389e-05	374.68	91.581	68.369	25.507	7.8175e-05	45.617	102.251	-90.524	155.740	-120.323	-52.895	-125.422	-121.427	-114.919	-22.474	-11.307	-116.867	-112.227	-112.245	-106.415	124.744	-108.586	-8191	255	
3213.225	1	1	0	0	0.17434	0.15393	0.13049	0.14904	0.16977	0.12107	0.10393	0.12616	0.070429	0.03727	0.11782	0.50356	0.045503	0.38123	0.23648	0.1673	-2.3354	-2.8083	-3.2417	-2.8708	-2.8688	-3.0875	-3.0062	-2.9021	-3.025	-2.8208	-3.1688	-2.9646	-2.7917	-3.025	-2.8896	-3.1521	-3.345	147.718	17.209	-27.207	74.322	180.378	-50.859	-60.217	100.105	1.272	203.977	-45.427	-122.228	76.481	100.446	130.857	0.00025289	0.0010922	0.00028174	347.17	2.7405e-06	6.8741e-06	396.01	102.03	2.1349e-05	3.2835e-06	154.8	59.857	39.486	16.772	4.9454e-06	31.311	0.0061405	0.0065984	0.0020042	831.02	7.3987e-05	7.3512e-05	603.31	179.23	7.4607e-05	7.7143e-05	397.92	95.664	72.994	28.079	8.3328e-05	48.197	172.592	224.204	-79.615	-119.974	-10.765	-107.361	-121.293	-115.127	58.546	156.183	-117.111	-112.677	-112.246	-106.875	47.640	-109.261	-8191	255	
3213.299	1	1	0	0	0.17911	0.1903	0.056073	0.19224	0.1599	0.14917	0.1415	0.19708	0.12952	0.19195	0.26586	0.077233	0.25185	0.19206	0.16775	0.14182	-2.4771	-2.5542	-3.0687	-3.025	-2.8375	-2.9313	-2.9062	-3.2708	-2.9437	-2.7125	-3.2104	-2.8479	-3.0021	-3.2542	-2.6771	-3.1	125.258	21.000	56.964	71.691	-8.329	-49.098	71.689	102.795	48.602	-22.718	-51.389	21.709	-123.106	52.022	87.241	197.150	0.00012353	0.0019184	0.00020093	352.14	1.4464e-05	9.8799e-06	395.22	105.21	7.638e-06	1.0311e-05	159.47	61.438	40.332	17.448	1.9441e-05	32.339	0.0063981	0.0072581	0.002177	852.88	7.7546e-05	8.0758e-05	614.77	183.64	7.6499e-05	8.3257e-05	408.32	97.94	75.254	29.815	8.6552e-05	49.8	208.400	191.393	-7.113	-120.039	-90.710	-109.874	-120.926	-114.900	93.732	-65.584	-116.985	-112.612	-112.241	-107.313	14.429	-109.360	-8191	255	
3213.420	1	1	0	0	0.12332	0.26522	0.13424	0.14361	0.17416	0.13713	0.2092	0.20514	0.21195	0.037519	0.036852	0.14407	0.034224	0.13948	0.17543	0.1681	-2.6729	-2.6917	-3.0208	-3.1479	-2.9583	-3.3667	-2.7854	-2.8521	-2.8958	-2.8958	-3.1021	-2.8604	-2.8625	-3.2542	-2.8229	-3.0375	125.344	216.795	-111.801	-109.447	43.139	185.241	-72.095	57.236	-72.367	-122.958	-100.514	55.699	-67.012	-123.840	146.227	60.096	0.00053241	0.0013644	0.00048617	350.12	9.3595e-06	1.3523e-05	398.57	106.07	1.6781e-05	2.1404e-05	161.26	63.022	41.506	18.392	1.228e-05	33.425	0.0066641	0.0078953	0.0022393	867.09	8.0638e-05	8.766e-05	620.58	187.07	7.9819e-05	8.9963e-05	415.17	100.53	77.989	31.615	8.7109e-05	51.311	114.028	169.946	-5.287	-120.131	-63.724	190.551	-120.747	-114.009	172.052	-86.769	-116.552	-112.746	-112.008	-107.595	0.105	-109.138	-8191	255	
3213.514	1	1	0	0	0.094587	0.087856	0.20837	0.22219	0.15971	0.1304	0.02451	0.070877	0.11085	0.1617	0.039518	0.10952	0.12565	0.089945	0.12628	0.20705	-2.725	-2.7729	-3.2	-2.9479	-2.5167	-3.1146	-2.9042	-2.7771	-2.9604	-2.7104	-3.1583	-3.2354	-2.6021	-3.1167	-2.9437	-2.9167	-109.908	169.412	105.123	100.349	168.471	104.649	96.418	-4.012	148.924	-102.826	80.828	217.214	18.957	93.634	-99.009	-85.888	0.00068491	0.0027091	0.00032341	354.84	1.6727e-05	1.6437e-05	399.16	106.24	1.1876e-05	7.3483e-06	160.4	64.363	41.98	18.984	3.6702e-06	34.062	0.0070675	0.008453	0.0022437	877.77	8.4591e-05	9.2281e-05	619.76	187.88	8.3666e-05	9.2287e-05	410.61	101.76	80.502	32.397	8.5856e-05	51.88	108.471	-36.072	-80.878	-120.089	-126.326	-123.158	-120.938	-114.820	194.710	15.370	-116.992	-112.973	-112.618	-107.615	108.718	-109.703	-8191	255	
3213.610	1	1	0	0	0.071214	0.18951	0.082838	0.32749	0.14598	0.057287	0.067277	0.079347	0.18152	0.0574	0.23608	0.30871	0.33056	0.12759	0.22622	0.22118	-2.5854	-2.4938	-2.8187	-3.1542	-2.7188	-2.9938	-2.9188	-3.0104	-3.0729	-2.7083	-3.0396	-3.2583	-2.7021	-3.2146	-3.1167	-2.9104	182.415	128.793	-20.742	-42.502	148.999	-51.886	152.523	-100.141	89.113	138.648	-27.317	-124.372	221.152	25.369	-68.375	202.638	0.00095976	0.001042	0.00037698	354.82	1.5534e-06	9.2855e-06	399.43	108.42	5.0412e-06	8.0275e-06	163	66.822	44.87	20.238	2.9574e-05	35.527	0.0074319	0.0085351	0.0022326	880.8	9.0161e-05	9.3875e-05	620.07	191.61	9.0509e-05	9.4e-05	417.45	105.04	85.907	33.842	8.6853e-05	53.98	126.338	111.152	-95.301	-119.851	204.559	119.598	-121.032	-114.675	75.895	24.531	-116.730	-113.163	-112.512	-107.945	-24.681	-109.715	-8191	255	
3213.731	1	1	0	0	0.20557	0.26906	0.26344	0.15728	0.15634	0.051847	0.11904	0.034558	0.17155	0.20884	0.090196	0.087704	0.23478	0.097897	0.13559	0.076908	-2.8833	-2.8438	-2.8479	-3.1896	-2.7396	-2.9458	-3.0375	-2.825	-2.95	-2.8563	-3.0583	-3.3688	-2.5458	-3.1854	-3.2	-2.7896	15.903	112.073	159.154	41.510	-108.498	189.563	121.885	202.250	198.868	137.203	-94.120	134.841	33.543	-102.059	9.982	160.249	0.00071037	0.0010317	0.00013954	358.38	1.2901e-05	7.8328e-06	404.29	113.41	1.9913e-05	2.1129e-05	169.48	70.849	48.74	21.504	1.9628e-05	36.856	0.0079996	0.0085717	0.0022694	908.12	9.6278e-05	9.4393e-05	627.56	199.79	9.5169e-05	9.26e-05	423.87	110.84	91.596	35.086	8.5607e-05	55.8	118.106	-59.819	111.898	-120.658	-129.027	1.671	-120.838	-114.847	-120.565	70.859	-116.680	-113.553	-112.823	-107.968	20.846	-109.868	-8191	255	
3213.827	1	1	0	0	0.34579	0.14931	0.21036	0.25445	0.25379	0.17587	0.27746	0.16735	0.21039	0.14737	0.15376	0.10572	0.1295	0.13569	0.031463	0.19682	-2.5938	-2.9604	-2.8458	-3.0479	-2.8521	-3.0854	-3.1833	-2.7812	-3.0667	-2.9667	-2.7104	-3.4313	-2.9292	-2.9396	-3.1708	-2.6021	32.489	53.315	-52.968	-116.219	13.978	-118.032	-119.491	26.372	35.873	123.118	-10.616	167.827	176.573	197.227	-21.012	204.283	0.00032457	0.0036502	3.8439e-05	363.65	1.7076e-05	2.1584e-05	408	114.77	1.5154e-05	1.1427e-05	171.19	71.309	49.479	21.513	7.0524e-06	36.83	0.0081108	0.0082625	0.0022098	922.86	9.5225e-05	8.9813e-05	623.87	202.91	9.3971e-05	8.8284e-05	417.48	112.55	91.188	34.657	8.3997e-05	56.151	113.298	-43.561	-115.648	-120.407	-17.490	46.184	-120.886	-114.806	-78.421	118.182	-116.611	-113.306	-112.438	-107.820	-35.456	-110.015	-8191	255	
3213.899	1	1	0	0	0.074853	0.035565	0.16187	0.23512	0.14562	0.17451	0.055834	0.27315	0.0039116	0.1673	0.078614	0.19882	0.13805	0.26808	0.19496	0.074861	-2.7792	-2.9542	-2.6458	-3.2167	-2.9437	-2.9104	-3.1917	-2.8167	-3.3146	-2.8542	-2.8937	-3.4062	-2.7313	-3.1729	-3.3312	-2.775	-49.293	-109.605	-77.355	-24.237	152.579	134.185	162.118	220.936	225.082	214.336	151.858	159.563	37.820	-121.833	135.310	187.191	0.00025466	0.00021259	0.00013993	358.29	2.392e-05	8.5119e-06	406.89	113.36	1.1091e-05	1.2756e-05	169.12	70.692	48.671	20.906	1.1466e-05	35.946	0.0078774	0.0079106	0.0021645	937.19	9.2134e-05	8.6802e-05	620.44	202.94	9.004e-05	8.5481e-05	413.43	112.17	87.882	33.626	8.2839e-05	55.654	83.770	-132.774	145.518	-121.098	4.564	114.050	-120.766	-114.816	-18.167	-3.659	-116.117	-113.661	-112.526	-108.268	15.805	-109.781	-8191	255	
3214.019	1	1	0	0	0.040639	0.11197	0.13443	0.099536	0.3364	0.16621	0.35283	0.23985	0.041152	0.072056	0.24996	0.17822	0.18291	0.1126	0.08188	0.14036	-2.5979	-3.0792	-2.7021	-3.2562	-2.9208	-2.7958	-3.3396	-2.8063	-3.1104	-3.1271	-2.7125	-3.2771	-3.0583	-2.9271	-3.2938	-2.8896	-119.715	-62.365	-95.949	73.461	72.774	21.601	-81.050	48.309	16.248	127.007	-53.207	106.170	48.962	174.864	-102.459	147.141	0.00034951	0.00046884	0.00034821	358.56	2.1121e-05	7.0033e-06	401.83	111.83	1.114e-05	1.1365e-05	165.68	69.002	47.932	21.141	8.1565e-06	36.052	0.0075429	0.0076394	0.0021536	940.53	8.7604e-05	8.4111e-05	617.3	201.66	8.6318e-05	8.2599e-05	414.84	111.07	86.014	33.552	8.6093e-05	55.858	135.020	-40.636	106.666	-119.641	-17.776	-118.932	-121.302	-114.860	163.353	-3.043	-117.932	-113.314	-112.691	-108.032	102.234	-110.011	-8191	255	
3214.115	1	1	0	0	0.051696	0.04969	0.23877	0.080594	0.26018	0.29786	0.25347	0.19497	0.11322	0.30973	0.16236	0.072609	0.1094	0.23322	0.24122	0.11061	-2.7833	-3.1063	-2.8396	-3.2938	-3	-2.6	-3.2021	-2.9729	-2.8271	-3.0958	-2.8729	-3.0438	-3.0146	-2.7375	-3.1708	-2.9042	166.428	-126.598	66.281	-32.673	-38.135	-109.466	112.597	98.792	-125.441	-71.905	80.045	111.181	205.412	-50.339	-110.803	200.418	0.00064769	0.001375	0.00024681	364.23	5.0808e-06	2.181e-05	401.73	113.76	1.6238e-05	1.1526e-05	167.03	70.513	49.466	21.928	1.5687e-05	37.355	0.0074074	0.0076417	0.0022848	949.7	8.6771e-05	8.4442e-05	629.93	204.39	8.7471e-05	8.51e-05	436.06	113.56	88.402	34.821	9.377e-05	57.32	110.849	-75.613	129.545	-120.216	-40.720	-13.926	-121.408	-114.655	164.656	-21.518	-116.951	-113.171	-112.544	-108.151	200.345	-110.043	-8191	255	
3214.211	1	1	0	0	0.19186	0.24457	0.2294	0.25124	0.28842	0.26939	0.20622	0.17369	0.16967	0.075238	0.019041	0.13246	0.12469	0.13091	0.15023	0.20743	-2.8104	-3.1958	-2.6979	-3.1833	-3.0646	-2.7104	-3.35	-2.7583	-2.9792	-3.2812	-2.8021	-3.1688	-3.175	-2.6479	-3.2313	-3.0375	184.946	159.002	2.145	-44.857	133.632	108.447	-131.115	54.338	-125.223	-54.120	-21.334	4.425	-44.992	72.222	43.522	187.110	0.0006488	0.00018877	0.00037754	364.82	1.2742e-05	1.0642e-05	404.58	113.95	1.0169e-05	9.824e-06	168.64	71.65	49.338	21.843	7.2131e-06	37.47	0.0075055	0.0078834	0.0024202	951.23	8.7459e-05	8.7292e-05	642.19	203.79	8.7131e-05	8.7398e-05	446.98	113.67	88.282	35.266	9.683e-05	57.115	124.091	80.675	174.477	-120.202	16.391	-68.211	-121.135	-114.304	17.555	220.827	-117.228	-113.247	-112.662	-108.103	181.583	-109.846	-8191	255	
3214.308	1	1	0	0	0.11963	0.24526	0.095137	0.25647	0.088989	0.22324	0.30334	0.12411	0.12409	0.23923	0.080502	0.28945	0.19819	0.029231	0.27128	0.14948	-2.3354	-2.9313	-2.7292	-3.0792	-3.2771	-2.6292	-3.1042	-2.8042	-2.9042	-3.1833	-2.7708	-2.9042	-3.0583	-2.8375	-3.2125	-2.9854	221.042	47.726	196.741	88.355	164.452	208.058	-40.824	149.609	-23.993	-6.012	-34.803	181.781	-16.241	-66.281	193.386	-108.285	0.00099101	0.00015498	0.00011816	367.24	1.3628e-05	1.7491e-05	401.34	113.97	7.5076e-06	1.2817e-05	169.16	71.641	49.013	21.59	1.9998e-05	36.951	0.0075689	0.0082941	0.0025083	944.37	8.7885e-05	9.2132e-05	647.29	202.52	8.6882e-05	9.1304e-05	446.03	112.58	87.144	35.29	9.4808e-05	56.027	146.090	200.926	95.526	-119.106	116.270	215.116	-120.968	-114.628	-53.995	179.678	-116.517	-113.456	-112.501	-108.440	-33.753	-110.288	-8191	255	
3214.426	1	1	0	0	0.19833	0.15836	0.30177	0.083454	0.010376	0.072602	0.092122	0.056514	0.047848	0.11273	0.031714	0.16248	0.27234	0.027725	0.15873	0.1844	-2.4125	-3.0687	-2.9333	-2.9854	-3.1188	-2.8708	-3.1583	-2.9354	-2.8292	-3.3625	-2.8021	-2.8729	-3.1667	-3.0479	-3.2333	-3.0104	182.565	143.429	-30.951	168.290	113.811	-109.671	139.577	172.857	-41.339	114.188	15.817	-86.968	211.508	-130.910	-2.128	193.408	0.00061604	0.0010982	0.00044098	361.28	7.4752e-06	1.232e-05	400.58	113.67	1.6781e-05	3.4489e-06	168.57	70.47	48.431	21.439	1.4319e-05	36.783	0.0073312	0.0085265	0.0024346	926.29	8.6054e-05	9.4095e-05	636.67	199.07	8.5966e-05	9.411e-05	434.24	110.2	86.664	35.453	9.1395e-05	55.372	121.913	146.086	-26.876	-120.514	222.044	181.029	-120.645	-114.810	-99.250	-7.305	-116.770	-113.379	-112.591	-108.370	62.243	-109.978	-8191	255	
3214.523	1	1	0	0	0.19313	0.106	0.17786	0.31341	0.094692	0.29677	0.11781	0.12492	0.12955	0.15233	0.0096431	0.12468	0.19857	0.17669	0.1982	0.024411	-2.1917	-3.1583	-2.8271	-2.8875	-3.1021	-2.6854	-3.1479	-3.1479	-2.7812	-3.2333	-2.7583	-2.8688	-3.35	-2.6021	-2.9583	-3.325	143.116	158.482	-116.824	23.055	-52.783	26.190	-132.181	-6.795	38.889	158.808	139.218	137.876	25.748	164.144	114.685	-66.991	0.00084956	0.00051961	0.00082012	357.8	7.7802e-06	1.1327e-06	401.74	114.6	2.4331e-05	1.1194e-05	170.19	71.802	49.545	22.126	1.3446e-05	37.474	0.0073517	0.0086976	0.0023426	912.8	8.7755e-05	9.6434e-05	633.28	199.58	8.8344e-05	9.6808e-05	431.66	111.58	89.156	36.265	8.9494e-05	56.027	106.338	-63.275	-47.103	-119.970	-125.653	-84.566	-120.844	-114.389	209.974	3.543	-116.154	-113.075	-112.667	-108.364	100.222	-109.841	-8191	255	
3214.594	1	1	0	0	0.069996	0.1152	0.074837	0.20042	0.14781	0.30141	0.31329	0.16899	0.057672	0.2489	0.14614	0.10823	0.28209	0.40359	0.15311	0.172	-2.0771	-2.9917	-3.1167	-2.7354	-3.0062	-3.0958	-3.0479	-2.9062	-2.7458	-2.9208	-2.9062	-3.0083	-3.0625	-2.9625	-2.8771	-3.0333	9.134	128.793	216.246	-48.133	-127.587	-83.512	48.598	-41.461	-73.218	-25.040	68.210	-75.608	181.699	181.323	146.167	-71.957	0.00059646	0.0024954	0.00020395	359.07	1.8369e-05	2.1183e-06	402.52	114.64	2.2389e-05	5.3107e-06	167.66	71.779	49.271	21.845	2.9296e-06	37.153	0.0076546	0.0087698	0.0022733	908.58	9.0725e-05	9.5284e-05	627.52	198.32	9.0803e-05	9.4223e-05	422.68	110.85	90.091	35.674	8.6658e-05	55.432	124.145	0.399	-12.993	-119.683	189.290	22.337	-121.081	-114.645	158.217	-4.498	-116.315	-113.490	-112.918	-108.072	-107.702	-109.866	-8191	255	
3214.690	1	1	0	0	0.27216	0.22395	0.2157	0.094025	0.11833	0.14593	0.14098	0.14501	0.024615	0.17126	0.13511	0.21409	0.18566	0.057318	0.087317	0.16715	-2.4542	-2.975	-2.8167	-2.8104	-3.1521	-2.9208	-2.9354	-3.0979	-2.7479	-3.025	-2.8438	-2.7062	-3.0729	-2.7417	-2.7938	-3.0583	-69.173	138.251	21.493	16.907	148.433	-3.162	-14.735	147.159	195.626	-50.414	-118.680	-1.138	-3.010	-85.704	-28.100	213.223	0.001004	0.002013	0.00029335	354.21	3.8216e-06	1.7974e-05	398.76	112.31	9.7215e-06	1.4072e-05	169.24	70.442	48.632	21.266	1.0926e-05	36.302	0.007812	0.0084037	0.0021947	896.5	9.2246e-05	9.0414e-05	616.58	195.12	9.1481e-05	8.9722e-05	411.05	109.58	89.303	34.289	8.3722e-05	54.622	123.942	8.730	-117.359	-119.850	-48.682	-19.443	-120.601	-114.705	179.922	35.685	-117.059	-113.347	-112.881	-108.047	-54.267	-110.308	-8191	255	
3214.811	1	1	0	0	0.12386	0.34539	0.17486	0.23458	0.3481	0.089109	0.12908	0.23199	0.1588	0.22106	0.14795	0.22293	0.20627	0.080594	0.10363	0.21088	-2.3292	-3.0021	-2.8042	-2.6958	-3.2896	-2.8792	-2.9396	-3.0625	-2.7833	-2.9958	-3.0375	-2.8042	-3.1958	-2.9104	-2.8375	-3.175	-76.261	57.092	191.608	43.696	73.239	181.879	186.152	108.781	18.838	2.395	183.660	194.548	-68.263	169.731	146.493	165.772	0.0012894	0.0024926	0.00025201	354.77	7.2652e-06	1.8947e-05	397.82	111.1	1.9367e-05	1.0132e-05	166.78	69.33	48.577	21.33	4.5981e-06	36.481	0.0077797	0.0079642	0.0021002	892.41	9.1258e-05	8.545e-05	607.57	194.82	8.9352e-05	8.5023e-05	400.47	109.05	88.153	33.845	8.0595e-05	54.952	106.080	-25.554	-103.865	-121.198	-40.918	25.167	-120.519	-114.865	20.605	119.048	-116.942	-113.530	-112.770	-108.153	41.582	-109.859	-8191	255	
3214.907	1	1	0	0	0.1411	0.20413	0.17577	0.17538	0.08583	0.2104	0.2161	0.057561	0.19013	0.12514	0.13438	0.11387	0.21438	0.23858	0.12602	0.29699	-2.2958	-2.875	-2.9833	-2.8104	-3.1417	-2.9354	-2.9604	-3.4146	-2.6458	-2.9625	-3.2188	-2.8	-3.1562	-3.1188	-2.8458	-3.1	122.127	131.170	19.009	-76.167	5.407	39.698	200.019	110.821	214.700	10.563	175.875	206.542	142.155	-96.695	-83.464	177.365	0.00042897	0.0018401	0.00025798	356.45	2.9918e-05	9.4022e-06	396.16	113.76	1.1968e-05	7.4508e-06	167.47	71.112	49.987	22.023	5.455e-06	37.486	0.0075189	0.0076566	0.0020519	907.43	8.8175e-05	8.2994e-05	606.6	200.01	8.7188e-05	8.3495e-05	402.47	112.34	89.012	34.411	8.1423e-05	56.561	170.267	-40.412	-54.184	-120.699	-15.995	74.863	-120.910	-115.055	107.416	-18.722	-116.731	-113.419	-112.283	-108.382	82.413	-110.020	-8191	255	
3215.003	1	1	0	0	0.011831	0.22613	0.24778	0.33794	0.094583	0.16098	0.25543	0.024155	0.14583	0.15988	0.064341	0.050777	0.14355	0.12422	0.092319	0.29815	-2.2562	-2.9479	-3.0417	-2.8438	-2.9333	-3.0542	-2.7083	-3.0062	-2.9604	-2.9896	-3.0271	-2.9854	-3.0146	-2.8812	-2.7146	-3.3271	145.773	-66.134	112.612	-92.719	23.056	101.978	194.515	126.588	59.756	156.486	-68.994	-16.871	195.863	139.671	167.892	209.378	0.00074941	0.0010521	0.00052198	354.05	2.108e-05	7.6066e-06	399.11	114.26	3.8207e-05	7.3331e-06	169.29	71.639	49.465	21.694	1.3587e-05	36.789	0.007299	0.0075728	0.0020843	926.65	8.6293e-05	8.1522e-05	610.72	201.8	8.426e-05	8.2092e-05	407.42	112.36	86.85	33.699	8.3288e-05	55.923	165.340	40.490	137.918	-120.236	14.271	48.464	-121.157	-114.495	19.747	32.197	-117.000	-113.474	-112.570	-108.217	227.200	-109.930	-8191	255	
3215.100	1	1	0	0	0.065201	0.20273	0.27743	0.13156	0.17113	0.078634	0.26155	0.242	0.22837	0.21628	0.23424	0.26369	0.13516	0.016992	0.072984	0.092699	-2.4521	-2.9583	-3.2833	-2.7146	-2.8521	-2.9708	-2.8292	-3.175	-2.9792	-2.7146	-3.3958	-2.7146	-3.0146	-3.2188	-2.7104	-3.2938	73.801	-29.057	-45.731	53.408	-17.748	-66.890	134.900	-54.985	107.609	-93.483	178.727	171.710	-85.554	110.508	202.660	-124.067	0.0010435	0.0011037	0.00012167	358.42	1.0972e-05	3.1767e-06	399.18	112.64	3.3896e-06	5.5037e-06	167.61	70.59	48.182	21.183	1.1372e-05	36.186	0.0070723	0.0074216	0.0021312	913.03	8.2955e-05	7.9601e-05	614.02	198.78	8.12e-05	8.0119e-05	413.8	110.6	85.191	32.985	8.5223e-05	54.822	131.221	45.887	-131.487	-120.252	21.481	23.975	-121.373	-114.641	-90.581	136.833	-116.524	-113.490	-112.848	-108.375	-122.135	-110.026	-8191	255	
3215.196	1	1	0	0	0.060268	0.27391	0.25763	0.29899	0.065951	0.13227	0.075407	0.091613	0.14342	0.1966	0.09652	0.12257	0.09146	0.29476	0.13997	0.11472	-2.3688	-2.7479	-3.0708	-2.8063	-2.8542	-2.9792	-2.8625	-3.0542	-2.925	-2.9146	-3.25	-2.9354	-2.7208	-3.2021	-2.7625	-3.0125	-12.063	-30.555	89.914	107.889	57.147	-123.100	136.409	179.543	224.687	-111.940	-85.100	-13.554	197.228	202.018	214.099	68.778	0.00093096	0.0010186	0.00022942	355.67	9.6449e-06	7.8999e-06	394.99	111.08	1.1427e-05	7.526e-06	164.87	70.09	48.334	21.042	9.9498e-06	36.109	0.0068253	0.0072706	0.0021995	895.11	8.0833e-05	7.9029e-05	615.58	194.83	7.9396e-05	8.0993e-05	418.83	108.58	84.359	33.251	8.8876e-05	54.633	155.895	156.481	36.774	-119.709	-59.652	-50.692	-120.951	-114.725	143.479	100.258	-116.903	-113.352	-112.547	-108.527	18.228	-109.799	-8191	255	
3215.292	1	1	0	0	0.092858	0.27006	0.32389	0.075653	0.39745	0.079695	0.061505	0.090532	0.1267	0.12543	0.10989	0.13393	0.10069	0.016333	0.072291	0.076259	-2.6125	-2.7917	-3.2292	-2.6854	-2.8563	-3.2146	-2.75	-3.0146	-3.1958	-2.8438	-3.1854	-2.9229	-3.0312	-3.3563	-2.7	-3.0208	159.936	11.572	-29.151	35.062	160.335	11.083	125.867	110.267	40.100	186.637	-81.179	197.020	185.175	4.845	-75.481	-113.404	0.00056595	0.0014258	0.00027904	360.35	1.1544e-05	8.0369e-06	395.53	113.13	1.2553e-05	2.2346e-05	170.6	71.361	49.29	21.543	2.0288e-06	36.91	0.0068648	0.0076525	0.0023146	895.34	8.2515e-05	8.4085e-05	623.88	196.74	7.9869e-05	8.5095e-05	428.19	109.9	85.696	34.35	8.8591e-05	55.013	130.154	146.547	200.106	-119.867	-11.033	-127.333	-120.666	-114.483	-63.487	-112.660	-117.246	-113.064	-112.586	-108.310	60.560	-109.699	-8191	255	
3215.411	1	1	0	0	0.20456	0.14892	0.32362	0.14892	0.080914	0.15075	0.089436	0.21814	0.17416	0.10856	0.068199	0.15209	0.14352	0.32647	0.208	0.1265	-2.65	-2.7708	-3	-2.9479	-2.5375	-3.2687	-2.8396	-3.0083	-3.2188	-2.7271	-3.2042	-2.9375	-2.8458	-3.2271	-2.7667	-2.9813	-110.398	-30.280	144.726	54.169	-113.471	-131.419	-69.947	-72.878	-96.075	71.567	219.784	110.370	116.327	72.457	-9.891	150.542	0.00087877	0.00090765	0.00024586	357.09	2.4866e-06	1.326e-05	395.98	114.02	4.422e-06	4.0461e-06	169.42	71.047	49.231	21.299	1.8037e-05	36.284	0.0067897	0.0079347	0.0022685	880.5	8.0288e-05	8.705e-05	621.02	194.98	7.8513e-05	8.7665e-05	420.56	108.67	85.335	34.394	8.5645e-05	53.974	143.635	172.147	23.103	-120.183	99.520	211.253	-120.797	-114.251	-30.352	223.829	-116.731	-113.558	-113.012	-108.165	10.386	-109.668	-8191	255	
3215.507	1	1	0	0	0.14586	0.2482	0.13517	0.18886	0.14214	0.1388	0.26949	0.29772	0.057314	0.069788	0.17861	0.053885	0.18799	0.2391	0.13906	0.25392	-2.5125	-2.9146	-2.8083	-2.9208	-2.8979	-3.0667	-2.9083	-2.8646	-2.9979	-2.7583	-2.9729	-3.2417	-2.7604	-3.3083	-2.85	-2.7708	118.686	101.307	6.557	-61.673	-57.564	-118.288	177.957	129.245	-68.436	-72.054	221.453	44.907	-111.817	50.935	191.578	193.389	0.00050527	0.00091802	0.00051982	356.61	9.7666e-07	8.8753e-06	399.37	112.91	2.1124e-05	1.0901e-05	168.24	70.555	48.226	20.857	1.4098e-05	35.785	0.0067573	0.0080927	0.0021932	868.27	8.1042e-05	8.8876e-05	613.25	192.97	8.0602e-05	8.9999e-05	412.66	107.23	85.178	34.077	8.3201e-05	53.171	103.157	215.534	-49.558	-120.154	-31.167	-131.951	-120.581	-114.566	219.849	87.013	-116.345	-113.300	-112.896	-108.507	-44.759	-109.611	-8191	255	
3215.603	1	1	0	0	0.072986	0.11407	0.16487	0.14459	0.11664	0.14328	0.24305	0.098703	0.11172	0.043272	0.13479	0.033461	0.34031	0.038788	0.12524	0.23778	-2.8937	-2.7	-2.9458	-2.9833	-2.5438	-3.2313	-2.8688	-2.6208	-3.1354	-2.6979	-2.9271	-3.275	-2.7229	-2.9583	-2.8625	-2.7958	-74.645	-130.525	-35.407	135.757	44.813	183.394	83.330	-40.470	137.577	168.772	191.896	58.941	186.341	108.297	189.562	153.420	0.00095035	0.0016316	0.00039248	352.77	1.2687e-05	3.7253e-06	393.53	110.65	1.5641e-05	9.1668e-06	165.2	69.453	47.636	20.886	2.3882e-05	35.737	0.006957	0.0080957	0.0021129	849.32	8.3209e-05	8.8392e-05	602.47	188.37	8.2512e-05	8.766e-05	402.49	105.47	85.7	33.849	8.0999e-05	53.042	109.769	-37.978	-67.980	-119.902	162.880	-65.739	-120.787	-114.716	-128.378	44.894	-116.598	-113.607	-112.970	-108.322	-10.707	-110.084	-8191	255	
3215.699	1	1	0	0	0.12307	0.071204	0.31179	0.10351	0.063957	0.13144	0.13769	0.042568	0.3026	0.26124	0.11234	0.19271	0.081852	0.22413	0.13135	0.10827	-2.6188	-2.8312	-2.8063	-3.2562	-2.7562	-3.1292	-2.6625	-2.8583	-2.9771	-2.8854	-2.9646	-3.2229	-2.8646	-3.1063	-3.0187	-2.7979	46.885	-28.666	171.096	161.250	147.783	-10.857	-76.508	225.403	-90.584	115.902	135.217	184.607	45.057	-62.617	-5.368	49.515	0.00087339	0.0017923	0.0004896	354.82	9.8748e-06	1.898e-05	393.11	111.72	2.104e-05	1.7029e-05	165.39	70.2	48.356	21.305	1.4064e-05	36.418	0.0072966	0.0079657	0.0020995	855.14	8.6734e-05	8.674e-05	600.74	191.21	8.6476e-05	8.5768e-05	400.16	106.84	87.827	34.034	7.8809e-05	53.796	115.518	6.487	-52.936	-119.879	176.192	51.964	-120.888	-114.462	-118.312	53.790	-116.618	-113.148	-112.319	-108.002	58.278	-109.999	-8191	255	
3215.820	1	1	0	0	0.30386	0.27766	0.17125	0.1447	0.15033	0.10163	0.22991	0.070403	0.20299	0.27766	0.27428	0.26346	0.13217	0.073814	0.25783	0.2088	-2.6354	-2.6104	-2.7021	-3.0625	-2.8021	-3.1292	-3.0583	-2.7771	-3.05	-2.9125	-2.7833	-3.2313	-2.7771	-2.9042	-3.0979	-2.6771	104.932	155.239	195.084	219.677	-54.796	36.098	99.158	-117.887	174.591	-66.228	-67.192	203.370	-23.239	-28.575	64.733	169.742	0.00062966	0.0014759	0.00048858	353.85	1.1995e-05	1.0004e-05	393.25	112.16	1.4532e-05	9.7567e-06	165.71	70.227	48.788	21.042	2.4791e-05	35.913	0.0074087	0.0076167	0.0020297	863.42	8.7537e-05	8.2932e-05	595.49	192.31	8.6601e-05	8.2184e-05	393.51	107.55	86.996	33.122	7.6146e-05	53.605	123.828	-41.314	-12.511	-120.471	100.289	42.795	-120.843	-114.905	31.285	155.573	-117.100	-113.233	-112.572	-108.350	28.648	-110.057	-8191	255	
3215.891	1	1	0	0	0.13051	0.21304	0.35754	0.25808	0.30269	0.031473	0.068316	0.077636	0.10199	0.21235	0.19973	0.097349	0.15122	0.15465	0.11173	0.29856	-2.6188	-2.9833	-2.675	-3.0312	-2.7708	-2.85	-2.8792	-2.9396	-3.0229	-2.8729	-2.8729	-3.125	-2.5583	-2.8167	-2.9437	-2.7083	197.957	-62.117	-19.502	-54.336	-109.942	-88.567	-10.842	205.368	-58.847	206.071	195.605	210.064	169.665	155.073	-44.013	134.939	0.00034514	0.0013793	0.00047253	353.52	2.1426e-05	8.8012e-06	392.86	112.43	1.9486e-05	1.2468e-05	166.24	69.952	48.863	20.561	3.5614e-06	35.47	0.0072286	0.0072539	0.0019581	867.94	8.3903e-05	7.8955e-05	587.91	192.88	8.1941e-05	7.7794e-05	386.06	108.07	84.937	32.221	7.4082e-05	53.027	113.638	2.860	-61.838	-120.749	5.833	-20.105	-120.972	-114.773	-4.199	11.798	-116.816	-113.375	-112.864	-108.393	-110.675	-109.837	-8191	255	
3215.988	1	1	0	0	0.12536	0.16121	0.076297	0.14084	0.129	0.12411	0.050917	0.20338	0.022128	0.26616	0.1847	0.11111	0.13379	0.18517	0.34648	0.081389	-2.6583	-2.9833	-2.5812	-3.1	-2.6979	-2.8854	-3.2375	-2.6333	-3.0646	-2.8438	-2.6833	-3.2771	-2.8125	-2.9042	-3.1312	-2.8563	-91.169	-7.650	194.231	28.651	198.617	-121.156	168.542	64.062	41.080	139.940	-39.594	181.882	-104.297	-46.247	82.415	197.789	0.00048922	0.0015359	0.00049986	352.96	1.8717e-05	1.0692e-05	391.15	111.99	1.1576e-05	1.2698e-06	165.51	70.122	48.846	20.55	2.2603e-05	35.341	0.0068356	0.0069195	0.0019165	870.07	7.8658e-05	7.5116e-05	583.14	191.78	7.7146e-05	7.3187e-05	381.71	107.11	83.283	31.717	7.4354e-05	52.908	162.828	-55.379	-106.067	-121.088	13.634	108.643	-120.827	-114.654	-0.822	28.272	-117.238	-113.624	-112.471	-108.321	225.465	-109.619	-8191	255	
3216.084	1	1	0	0	0.24311	0.16471	0.22096	0.091909	0.08418	0.067527	0.16476	0.14644	0.10853	0.0435	0.080515	0.18529	0.35683	0.19928	0.12181	0.27982	-2.5458	-3.1146	-2.6958	-3.1479	-2.8146	-2.6708	-2.975	-2.6667	-3.1021	-3.1	-2.8396	-3.2062	-2.9625	-2.7854	-2.9667	-2.7979	-73.933	117.722	-95.681	105.670	206.317	-16.364	139.498	147.131	12.669	-100.935	50.778	-104.265	-47.620	138.896	9.345	185.792	0.00056023	0.001694	0.00031438	354.82	1.0596e-05	7.8436e-06	391.97	113.26	4.8677e-06	1.5924e-05	166.94	71.061	49.413	20.864	1.6551e-05	35.775	0.006527	0.006656	0.0019492	869.57	7.5802e-05	7.317e-05	590.52	192.59	7.4556e-05	7.1725e-05	391.76	107.73	82.715	31.845	7.653e-05	52.899	145.593	44.120	-108.474	-120.802	0.448	26.131	-120.822	-114.695	39.423	-36.271	-116.898	-113.465	-112.853	-108.232	148.533	-109.743	-8191	255	
3216.204	1	1	0	0	0.029907	0.075105	0.32535	0.2109	0.1785	0.12076	0.07068	0.069031	0.11249	0.16093	0.2296	0.077693	0.084518	0.23162	0.022533	0.40635	-2.4479	-3.1896	-2.7146	-3.0583	-3.0167	-2.8312	-3.275	-2.7125	-2.9083	-3.0958	-2.7104	-3.1042	-3.1437	-2.6813	-3.1937	-3.0229	159.164	-35.379	-110.923	-122.524	36.832	179.036	152.664	197.832	130.736	42.648	-27.358	10.955	101.334	217.411	63.778	99.012	0.00038393	0.0012131	0.00028671	357.2	1.1284e-05	2.6551e-06	394.49	113.36	7.2658e-06	1.3584e-05	165.77	70.753	49.297	20.795	1.3394e-05	35.67	0.0062873	0.0065253	0.0019966	850.56	7.354e-05	7.2914e-05	598.52	191.01	7.3458e-05	7.2514e-05	399.78	107.03	82.392	31.898	7.9958e-05	52.352	105.983	6.269	127.877	-119.656	-22.195	-32.194	-120.880	-114.466	89.611	142.046	-116.748	-113.563	-112.588	-108.080	186.797	-109.825	-8191	255	
3216.299	1	1	0	0	0.050782	0.19219	0.046264	0.053789	0.11716	0.076732	0.077422	0.032965	0.15377	0.12526	0.15853	0.33083	0.20509	0.32974	0.09008	0.082994	-2.3229	-3.3854	-2.7562	-2.8458	-3.0563	-2.9042	-3.1271	-2.7375	-2.6688	-3.1333	-2.6208	-2.9562	-3.1583	-2.5021	-3.0542	-3.0667	-69.329	23.521	-123.936	77.957	13.447	41.751	-90.026	69.391	25.674	12.538	207.652	130.415	-89.471	-39.583	153.727	212.450	0.00062015	0.00042188	0.00036569	353.31	1.2881e-05	1.3738e-05	394.24	113.21	7.8938e-06	1.377e-05	168.96	70.21	48.436	20.448	7.2328e-06	35.229	0.0062682	0.0067704	0.0020752	842.98	7.3102e-05	7.5458e-05	602.03	188.61	7.3289e-05	7.5905e-05	403.2	105.76	81.184	32.081	8.0926e-05	51.853	149.366	-101.074	-69.472	-120.118	78.282	-55.129	-120.919	-114.429	19.215	214.771	-116.654	-113.606	-112.797	-108.407	-62.374	-109.893	-8191	255	
3216.395	1	1	0	0	0.21754	0.068113	0.11382	0.3385	0.040583	0.29334	0.43426	0.14813	0.14491	0.18356	0.3136	0.24194	0.080793	0.18745	0.11875	0.20241	-2.2313	-2.9938	-2.8688	-2.95	-3.0354	-2.6375	-3.3208	-2.6854	-2.8458	-3.0167	-2.7875	-3.0312	-3.0104	-2.6771	-2.8875	-2.8792	26.135	19.508	147.910	-99.627	-34.441	-35.040	158.639	-21.247	150.716	-15.677	191.750	139.875	211.594	105.856	201.024	39.924	0.00041881	0.0011502	0.00043941	349.63	1.6621e-05	2.4544e-05	391.55	110.79	5.5056e-06	1.319e-05	165.4	69.245	47.731	20.628	1.7867e-05	35.424	0.0062239	0.007086	0.0020735	835.14	7.2837e-05	7.9156e-05	597.73	185.6	7.2962e-05	7.9824e-05	397.54	104.47	80.769	32.785	7.9893e-05	52.086	139.615	138.120	-77.535	-120.143	47.427	-52.907	-120.535	-114.864	223.901	181.550	-116.923	-113.584	-112.726	-108.488	18.617	-109.605	-8191	255	
3216.493	1	1	0	0	0.24021	0.20107	0.12231	0.11634	0.10831	0.17676	0.28327	0.15116	0.21602	0.19931	0.11045	0.17671	0.15693	0.10763	0.1027	0.089071	-2.3479	-3.1917	-2.775	-2.7958	-3.0167	-2.6375	-2.9146	-2.975	-2.7562	-3.1333	-3.0104	-3.0625	-3.0542	-2.8771	-3.1167	-2.8937	146.975	75.857	32.053	142.888	5.445	-38.247	177.503	85.783	-87.546	-122.994	58.670	224.689	-124.700	35.267	219.765	-115.413	0.00084291	0.0011855	0.00040548	354.53	2.3139e-06	2.3605e-06	391.65	111.18	5.4986e-06	1.4178e-06	165.06	70.172	48.306	21.306	9.2588e-06	36.448	0.0063228	0.0074642	0.0020397	835.07	7.4839e-05	8.2997e-05	596.85	186.28	7.5726e-05	8.3644e-05	396.33	105.93	83.276	33.82	7.9524e-05	53.032	126.081	71.263	-119.335	-120.304	-4.749	139.518	-121.011	-114.753	186.172	148.981	-116.255	-113.379	-112.889	-108.053	69.446	-110.093	-8191	255	
3216.587	1	1	0	0	0.13275	0.10275	0.18367	0.23788	0.14626	0.18833	0.16152	0.30577	0.20829	0.068677	0.27324	0.24563	0.099762	0.10223	0.18458	0.12845	-2.2479	-2.9771	-2.9292	-2.7458	-3.1792	-2.8042	-2.7604	-3.1271	-2.7292	-3.1104	-2.8229	-3.0417	-3.1229	-2.9333	-2.8583	-3.0875	-16.948	67.567	129.230	94.042	43.160	-71.341	127.143	106.847	122.449	33.657	-81.345	139.708	186.091	-55.057	75.594	92.629	0.00069004	0.0011535	0.00073739	349.32	2.2749e-05	1.0168e-05	391.94	112.66	1.7043e-05	9.5039e-06	169.15	70.502	48.726	21.113	4.4693e-06	36.148	0.006702	0.0077808	0.0020376	841.35	7.9484e-05	8.5535e-05	597.57	188.32	8.0737e-05	8.5236e-05	397.78	106.65	85.607	33.8	7.9574e-05	52.868	120.047	-92.639	-42.809	-119.873	205.214	89.766	-121.201	-114.579	143.700	18.553	-116.365	-113.304	-112.517	-108.268	103.143	-109.888	-8191	255	
3216.683	1	1	0	0	0.2849	0.12971	0.28714	0.082363	0.088084	0.096261	0.052089	0.029452	0.18075	0.32718	0.25089	0.19452	0.22664	0.10144	0.14278	0.27402	-2.35	-3.0625	-2.8333	-2.9771	-3.1771	-2.7604	-3.0458	-3.0896	-2.8125	-2.9104	-3.1104	-2.7396	-3.0104	-2.9562	-2.9708	-3.2479	-54.133	17.697	41.455	187.913	114.294	-7.383	175.952	-64.057	186.463	-82.732	-71.499	186.288	51.357	128.564	106.057	42.985	0.00078544	0.0021805	8.5535e-05	354.62	7.0086e-06	5.5398e-06	393.26	111.99	1.4197e-05	8.7498e-06	168.47	70.576	48.381	20.711	4.1245e-06	35.33	0.0070173	0.0076814	0.0020057	840.06	8.3393e-05	8.4125e-05	595.71	187.54	8.3089e-05	8.3005e-05	390.66	105.87	85.623	32.747	7.63e-05	51.992	124.748	-47.451	62.803	-120.428	174.431	71.866	-120.738	-114.887	179.656	-6.286	-116.439	-113.427	-112.689	-108.356	-21.314	-109.620	-8191	255	
3216.780	1	1	0	0	0.15862	0.1888	0.095265	0.0063727	0.019526	0.11578	0.22078	0.36486	0.11597	0.26991	0.14066	0.28828	0.32129	0.24437	0.087476	0.10986	-2.2292	-3	-3.1521	-2.875	-3.1063	-2.6729	-3.0146	-3.0687	-2.8583	-3.175	-2.95	-2.9396	-3.1125	-2.7042	-2.7896	-3.1646	-46.773	13.048	-111.880	-74.879	16.849	145.453	-73.007	25.985	116.534	-115.355	-89.891	106.323	149.152	-89.490	-23.436	14.998	0.00059236	0.0027447	0.00013654	351.9	2.4575e-06	5.9931e-06	388.75	111.73	2.3581e-05	1.199e-05	165.43	69.945	48.52	20.869	1.3322e-05	35.553	0.0071048	0.0073873	0.0019419	843.93	8.4619e-05	8.0699e-05	588.86	188.93	8.4173e-05	8.0556e-05	386.38	106.88	86.73	32.721	7.66e-05	53.012	129.724	-10.994	-107.281	-121.141	204.502	32.427	-120.772	-115.166	162.530	101.613	-117.732	-113.420	-112.707	-107.834	201.509	-110.259	-8191	255	
3216.900	1	1	0	0	0.16592	0.061038	0.050593	0.27938	0.13331	0.17492	0.31637	0.18412	0.23763	0.16242	0.13899	0.13823	0.04927	0.18239	0.25992	0.2216	-2.5	-2.875	-3.0083	-2.7062	-3.2083	-2.9625	-2.6875	-3.2771	-2.8333	-2.8771	-3.0479	-2.8563	-3.1083	-2.7875	-2.5938	-3.1562	-11.893	211.936	35.516	-82.469	127.605	-37.002	134.244	-111.988	207.957	224.250	128.001	64.524	-107.354	140.146	212.240	93.479	0.00022766	0.0010947	0.00047189	351.74	1.0798e-05	8.0821e-06	392.85	112.59	1.5031e-05	1.2249e-05	167.74	71.252	49.854	21.43	1.1515e-05	36.679	0.007279	0.0074256	0.0019781	881.27	8.6751e-05	8.1396e-05	596.78	196.96	8.6758e-05	8.2957e-05	396.29	111.08	88.784	33.758	8.0493e-05	55.426	90.924	44.089	-54.377	-120.079	56.999	-74.717	-120.636	-115.145	-53.709	37.634	-116.831	-113.466	-112.678	-108.218	-65.801	-109.907	-8191	255	
3216.996	1	1	0	0	0.023273	0.078275	0.11399	0.15618	0.29617	0.13136	0.27774	0.22868	0.039591	0.14115	0.045632	0.2181	0.10212	0.21531	0.10588	0.21012	-2.2562	-2.9562	-3.0854	-2.6104	-2.8333	-2.9167	-2.9458	-3.1854	-2.8417	-2.7562	-3.1833	-2.7938	-2.8438	-2.9062	-2.775	-3	-99.453	130.305	-76.735	94.871	-113.829	-44.999	195.839	149.149	138.144	172.171	-46.707	190.874	-77.702	15.332	141.191	129.331	0.00051685	0.00096963	0.00041331	354.08	8.536e-06	6.925e-06	394.93	114.42	2.5514e-05	9.4078e-06	169.12	72.375	50.399	21.491	1.96e-05	36.574	0.0074183	0.0076222	0.0020649	924.2	8.8092e-05	8.3284e-05	607.09	203.53	8.6971e-05	8.4069e-05	410.77	114.12	89.352	33.932	8.4323e-05	56.211	-129.875	53.897	143.746	-120.812	9.607	-8.875	-120.815	-114.683	0.389	-50.668	-117.518	-113.635	-112.594	-107.764	142.865	-109.562	-8191	255	
3217.092	1	1	0	0	0.11671	0.04788	0.088309	0.082715	0.25744	0.31267	0.20974	0.15439	0.14746	0.2775	0.074667	0.22197	0.11935	0.11663	0.18126	0.19729	-2.2479	-2.7792	-2.9833	-2.6562	-2.8438	-2.9708	-2.8521	-3.1729	-2.5833	-2.7979	-3.275	-2.6	-2.9708	-3.2125	-2.5312	-3.1542	105.395	44.715	110.929	-49.639	176.266	62.846	156.535	209.451	23.922	-127.527	23.395	44.342	-73.649	-65.772	227.047	48.528	0.00049548	0.0010563	0.00041072	357.62	1.9832e-05	1.2131e-05	396.85	114.81	1.0263e-05	7.2637e-06	168.53	71.308	49.871	20.948	1.9475e-05	35.867	0.007374	0.0076774	0.0021867	941.78	8.7487e-05	8.37e-05	619.55	205.25	8.6383e-05	8.528e-05	426.04	114.03	88.768	33.552	8.9978e-05	55.547	157.288	59.767	132.096	-120.601	55.277	11.338	-120.729	-114.017	-58.320	105.505	-117.150	-113.116	-112.640	-108.199	152.775	-109.842	-8191	255	
3217.189	1	1	0	0	0.24337	0.042938	0.10549	0.23821	0.054214	0.22062	0.21401	0.11294	0.15006	0.1162	0.16711	0.15624	0.13292	0.25436	0.1829	0.084004	-2.5875	-2.675	-3.0354	-2.7083	-2.9042	-2.8271	-2.7729	-3.0583	-2.6375	-2.8583	-3.1688	-2.5792	-2.7854	-3.15	-2.8042	-3.0812	146.371	141.051	34.773	-0.350	57.214	99.289	-45.752	106.507	-101.578	90.760	-49.575	-17.784	-101.814	203.853	56.980	117.000	0.00077495	0.0018239	0.00012852	361.55	1.0899e-05	8.2624e-06	394.27	114.19	4.697e-06	5.0263e-06	169.02	71.421	49.904	21.117	7.5162e-06	35.644	0.0074107	0.0078646	0.0023585	948.88	8.8255e-05	8.5509e-05	629.89	205.12	8.7209e-05	8.7321e-05	441.17	113.61	89.488	34.005	9.6487e-05	55.833	144.825	-77.309	180.495	-120.374	45.272	-73.471	-120.879	-114.985	78.438	105.301	-116.712	-113.414	-112.773	-108.277	11.930	-109.621	-8191	255	
3217.285	1	1	0	0	0.10684	0.10644	0.15392	0.15126	0.067526	0.014022	0.089635	0.22239	0.28411	0.24593	0.1046	0.18911	0.11481	0.093215	0.15057	0.17352	-2.6083	-2.5062	-3.1875	-2.8187	-2.775	-3.0396	-3.0292	-2.9125	-2.925	-2.7313	-3.1021	-2.875	-2.8208	-3.2979	-2.6917	-3.1188	194.595	50.049	-7.866	35.216	-59.483	77.068	187.041	61.305	19.805	143.800	74.706	-59.509	-112.804	166.778	89.071	25.885	0.00044076	0.00080042	0.00024909	372.17	2.0832e-05	1.0186e-05	403.32	118.7	2.1862e-05	2.4492e-05	174.63	73.71	51.788	21.794	1.1271e-05	36.984	0.007551	0.0082524	0.0025055	958.55	9.0678e-05	9.1198e-05	650.9	210.45	8.9404e-05	9.3711e-05	463.24	116.48	92.179	35.635	9.8926e-05	56.968	147.787	195.554	206.313	-119.187	48.971	-126.821	-120.657	-114.458	-11.022	184.629	-116.952	-113.053	-112.154	-108.027	-125.069	-109.779	-8191	255	
3217.379	1	1	0	0	0.067917	0.35674	0.13174	0.042963	0.2117	0.086752	0.19172	0.11445	0.098674	0.077398	0.21863	0.15584	0.064215	0.22509	0.25021	0.13139	-2.7417	-2.6813	-3.1813	-3.025	-2.7479	-3.0396	-3.0271	-2.7875	-3.0771	-2.8042	-3.1167	-3.0021	-2.7979	-3.3	-2.6521	-2.7333	92.356	-98.990	110.132	-86.575	-3.446	96.326	134.383	212.391	7.640	-43.929	-74.132	46.172	47.637	213.090	112.000	20.510	0.00045907	0.001545	0.00045168	370.89	5.0084e-06	1.0944e-05	408.01	120.91	2.3664e-05	6.9272e-06	177.16	74.763	52.653	22.168	1.8739e-05	37.473	0.0075122	0.0086022	0.0025083	946.23	8.8087e-05	9.3232e-05	650.8	208.33	8.4605e-05	9.2949e-05	446.27	114.64	90.392	35.788	9.072e-05	56.079	104.100	158.263	-59.908	-119.656	131.838	161.241	-120.488	-114.515	-97.382	163.077	-116.907	-112.926	-112.553	-108.325	21.609	-109.490	-8191	255	
3217.500	1	1	0	0	0.12838	0.17438	0.076053	0.14059	0.38016	0.30092	0.094898	0.077108	0.23509	0.35709	0.18004	0.22075	0.038913	0.10203	0.035121	0.027697	-2.6833	-2.75	-3.2542	-2.9125	-2.6104	-3.0687	-2.8042	-2.8167	-2.9896	-2.4375	-3.1479	-3.1042	-2.7542	-3.1646	-2.9417	-2.8375	-20.744	212.505	10.294	-41.271	111.241	5.244	97.059	47.030	-45.437	102.981	152.049	109.400	222.614	-125.126	77.009	139.296	0.00073896	0.0008014	0.00038835	370.21	9.4393e-06	8.8576e-06	404.42	118.47	1.9227e-05	1.3607e-05	175.4	73.476	51.038	21.602	1.8641e-05	36.924	0.007021	0.0084262	0.0023286	910.62	8.4471e-05	9.2574e-05	635.87	202.95	8.368e-05	9.4092e-05	433.81	112.77	89.943	35.697	9.0313e-05	55.678	139.678	-11.432	-36.448	-119.672	-19.245	-21.151	-120.717	-114.989	207.083	-17.683	-116.336	-113.000	-112.967	-108.595	89.197	-109.649	-8191	255	
3217.596	1	1	0	0	0.20804	0.033065	0.13916	0.10778	0.25277	0.16457	0.2061	0.24927	0.14524	0.36566	0.083877	0.14154	0.10304	0.043556	0.22555	0.13901	-2.6042	-2.7042	-3.05	-2.9979	-2.7938	-3.2	-2.8917	-2.9875	-3.1937	-2.7917	-2.8125	-3.1771	-2.7417	-3.1021	-2.675	-2.5438	54.064	-11.833	172.756	152.307	-13.862	-77.881	-131.788	183.777	57.552	142.251	-3.054	195.317	142.974	-67.574	-120.252	1.228	0.00092628	0.00091791	0.00034135	366.52	6.3648e-06	9.4822e-06	404.04	116.95	2.1083e-05	5.6845e-06	171.63	72.96	50.679	21.712	1.6922e-05	36.876	0.0075172	0.0089077	0.0023473	915.48	9.0455e-05	9.6801e-05	629.69	201.21	8.746e-05	9.3989e-05	421.77	110.67	89.989	35.015	8.2623e-05	54.084	131.286	-58.385	-29.137	-120.366	137.943	122.307	-120.638	-114.337	-125.994	-42.086	-117.310	-113.218	-112.729	-108.006	-103.445	-109.920	-8191	255	
3217.692	1	1	0	0	0.043061	0.40986	0.12578	0.085501	0.10685	0.20118	0.084244	0.14191	0.21088	0.054841	0.075341	0.1417	0.15088	0.043374	0.13726	0.22907	-2.6375	-2.9188	-2.7875	-3.0958	-2.6688	-3.0354	-2.9708	-2.7958	-2.8667	-2.7167	-2.9479	-2.8812	-2.7104	-2.9854	-2.9188	-2.8396	-11.861	201.902	62.950	-33.787	183.924	62.076	127.879	170.443	-11.181	-68.518	216.661	193.090	121.813	183.734	-71.682	137.341	0.00098629	0.00074981	0.00044319	369.15	1.0045e-05	1.5162e-05	403.35	119.19	2.4431e-05	2.2358e-05	174.52	73.863	52.004	22.157	9.5743e-06	37.18	0.007246	0.0080823	0.0021025	862.64	8.6175e-05	8.7485e-05	611.16	197.16	8.5346e-05	8.5772e-05	407.69	110.09	90.973	34.818	7.9142e-05	54.604	104.017	-24.430	-19.447	-120.416	187.783	-12.680	-120.631	-114.587	193.548	90.146	-117.059	-113.496	-112.669	-108.153	-104.446	-109.647	-8191	255	
3217.764	1	1	0	0	0.10694	0.14553	0.23641	0.26386	0.071974	0.055866	0.20263	0.048382	0.12571	0.28546	0.17213	0.10501	0.29597	0.25452	0.041639	0.16346	-2.6875	-2.6917	-3.0687	-2.9688	-2.4667	-2.9042	-2.8896	-2.7333	-2.8187	-2.7583	-2.7833	-3.3271	-2.9375	-2.7687	-2.7938	-2.9437	88.619	-25.684	89.553	144.851	124.795	83.374	175.351	145.231	-122.589	-28.448	133.708	6.305	-22.551	173.036	95.569	96.288	0.00093678	0.0022207	0.00021361	366.56	8.4787e-06	2.161e-05	406.4	121.02	2.5424e-05	5.3404e-06	178.45	74.694	52.583	22.169	1.4313e-05	37.274	0.0074355	0.0077463	0.0020609	881.74	9.0219e-05	8.6597e-05	615.54	202.71	8.9492e-05	8.5367e-05	414.95	113.64	93.153	34.961	8.0446e-05	55.809	119.889	-45.820	-16.676	-120.365	-72.227	15.322	-120.619	-114.875	-120.967	51.195	-117.097	-113.335	-112.766	-107.662	64.675	-109.645	-8191	255	
3217.884	1	1	0	0	0.099049	0.19389	0.212	0.219	0.07735	0.15372	0.35456	0.131	0.11852	0.063557	0.084667	0.14913	0.25331	0.14501	0.20616	0.26882	-2.7042	-2.725	-2.5687	-3.0646	-2.725	-2.9042	-2.9875	-2.5312	-2.9562	-2.9313	-2.8083	-3.0542	-2.7979	-2.9062	-2.8521	-2.9604	-66.788	88.412	-101.076	145.906	54.602	92.113	145.376	76.434	-130.041	179.460	53.731	-5.360	149.442	-113.519	-123.577	175.193	0.00048461	0.0025682	8.2037e-05	369.74	1.4138e-05	2.2513e-06	407.72	120.39	1.8615e-05	6.853e-06	175.49	73.628	51.446	21.488	9.0602e-06	36.299	0.0076624	0.0076952	0.0020523	897.24	8.718e-05	8.1134e-05	606.85	201.68	8.4495e-05	7.9075e-05	396.55	112.03	89.25	33.22	7.3433e-05	54.314	145.334	-3.453	-79.938	-120.802	-29.116	-24.653	-120.456	-114.770	15.070	12.818	-116.781	-113.232	-112.137	-107.673	118.593	-109.981	-8191	255	
3217.981	1	1	0	0	0.10648	0.1884	0.22294	0.27427	0.20329	0.43281	0.14457	0.056379	0.16454	0.18717	0.092361	0.13693	0.061348	0.25878	0.28438	0.11822	-2.6479	-2.6875	-2.5417	-3.2292	-3.0271	-2.8438	-3.0271	-2.6146	-3.0938	-3.2062	-2.7375	-2.9437	-2.8125	-3.0208	-3.0146	-2.775	89.600	-101.556	194.750	219.140	186.262	15.738	162.258	191.364	-130.641	125.848	-130.563	63.647	105.769	-77.074	179.252	105.578	0.00049347	0.0015177	0.00029806	367.17	1.486e-05	1.6666e-05	403.68	118.63	1.31e-05	2.4779e-06	173.54	73.341	51.523	21.384	6.397e-06	36.36	0.0069864	0.0069875	0.0019128	893.24	8.1328e-05	7.6981e-05	597.32	201.56	8.0301e-05	7.6235e-05	394.72	112.22	87.645	33.005	7.5629e-05	54.86	134.796	-18.982	-118.789	-120.738	-4.955	-6.627	-120.796	-114.482	-67.641	8.713	-116.644	-113.369	-112.632	-107.619	-120.736	-109.313	-8191	255	
3218.077	1	1	0	0	0.10427	0.26403	0.28772	0.16729	0.10505	0.095697	0.22007	0.1917	0.11426	0.29202	0.24992	0.18701	0.14089	0.18449	0.11464	0.049468	-2.7271	-2.9104	-2.7917	-3.1937	-2.6625	-2.6521	-3.1	-2.7604	-2.9688	-3.1229	-2.4521	-3.0792	-2.9146	-2.8875	-2.9833	-2.8312	217.888	90.130	-38.403	-104.976	39.165	-121.312	163.497	-108.478	-46.068	74.156	134.247	195.554	-69.520	218.304	150.346	220.033	0.00047916	0.00095713	0.0005914	371.6	1.1052e-05	1.2647e-05	403.47	120.56	1.812e-05	8.3051e-06	173.84	74.855	52.432	21.997	1.7493e-05	37.534	0.0067813	0.0068902	0.0019867	906.89	7.9263e-05	7.5829e-05	608.24	204.37	7.8472e-05	7.508e-05	408.06	114.09	87.93	33.583	8.0144e-05	55.841	154.227	2.997	173.605	-119.749	-13.334	3.872	-121.103	-114.605	-13.347	28.691	-116.569	-113.635	-112.390	-107.584	223.705	-109.515	-8191	255	
3218.173	1	1	0	0	0.20473	0.16928	0.075418	0.18839	0.28594	0.10895	0.069289	0.24826	0.12875	0.091183	0.055577	0.12878	0.16042	0.27971	0.19124	0.20554	-2.4771	-3.1104	-2.7896	-3.1667	-2.7771	-2.7854	-2.9437	-2.8625	-2.9667	-3.3146	-2.7479	-2.9708	-3.0271	-2.9146	-3.2167	-2.7896	223.980	4.878	213.946	97.494	-51.413	-126.116	-107.760	164.574	60.795	140.960	161.673	-55.545	20.307	213.799	-12.960	130.410	0.00028068	0.00076084	0.00015618	371.26	1.0942e-05	1.0628e-05	406.97	120.27	7.6948e-06	1.286e-05	178.55	75.389	52.692	22.08	1.1077e-05	37.763	0.0066456	0.0068451	0.0021077	902.32	7.75e-05	7.5719e-05	619.5	202.79	7.703e-05	7.5004e-05	418.18	113.47	87.379	33.691	8.3015e-05	55.481	162.559	194.749	60.231	-120.089	-7.923	76.074	-120.782	-114.498	-82.402	47.421	-117.210	-113.088	-112.807	-108.141	203.397	-109.697	-8191	255	
3218.292	1	1	0	0	0.22883	0.17662	0.21704	0.075988	0.083243	0.115	0.16359	0.025306	0.13833	0.17307	0.10891	0.098326	0.18551	0.1437	0.29842	0.28283	-2.4042	-3.025	-2.8083	-3.1	-3.0146	-2.5521	-3.2083	-2.9521	-3.1167	-3.1292	-2.6917	-2.9354	-3.1708	-2.9417	-3.0792	-2.7604	-72.145	217.083	173.726	226.657	-132.578	183.734	91.758	183.209	-4.126	99.829	-120.810	203.199	-106.444	118.772	56.817	-80.004	0.00060661	0.00051954	9.7392e-05	367.63	2.3734e-06	1.0273e-05	404.94	119.16	7.0596e-06	4.9471e-06	176.37	74.527	52.153	21.721	1.0228e-05	37.192	0.0064932	0.0068715	0.002142	877.19	7.5238e-05	7.6123e-05	621	197.72	7.3993e-05	7.5965e-05	418.11	111.04	85.21	33.291	8.1969e-05	53.99	148.215	-15.519	208.792	-120.118	159.426	122.517	-120.996	-114.640	11.427	159.926	-116.954	-113.249	-112.733	-108.379	-58.934	-109.727	-8191	255	
3218.365	1	1	0	0	0.15942	0.1893	0.11706	0.09695	0.17463	0.093394	0.18161	0.13624	0.21532	0.064717	0.2245	0.45317	0.13497	0.22376	0.16002	0.12332	-2.3646	-3.1813	-2.9458	-2.925	-3.0167	-2.6896	-3.0833	-2.7979	-2.8792	-3.1333	-2.9208	-3.0979	-3.1208	-2.5271	-3.125	-2.8958	-67.189	-39.031	199.313	101.525	122.345	95.749	-121.724	130.841	209.978	-131.316	169.224	169.092	73.771	-72.170	52.063	-78.087	0.00029312	0.0019478	0.00034007	363.2	6.0509e-06	1.4982e-05	399.5	117.82	7.4763e-06	9.9351e-06	175.68	73.806	51.22	21.713	1.431e-05	37.154	0.0062377	0.0070527	0.0021127	853.02	7.2601e-05	7.9024e-05	613.21	194.17	7.2582e-05	7.9039e-05	411.86	109.87	84.845	33.838	8.0925e-05	53.752	75.783	149.514	11.029	-120.418	-53.300	212.305	-120.652	-114.827	172.978	-109.182	-116.520	-113.343	-112.625	-108.211	3.195	-109.893	-8191	255	
3218.461	1	1	0	0	0.079418	0.081617	0.17578	0.23311	0.1659	0.45576	0.24901	0.17816	0.17877	0.15595	0.20908	0.18079	0.034615	0.16349	0.23554	0.33997	-2.2333	-3.075	-2.8854	-2.8917	-2.9021	-2.7229	-3.1833	-2.8167	-2.4979	-3.125	-2.9854	-2.8167	-3.1312	-2.9271	-2.9958	-3.0146	26.016	-37.241	-119.725	-106.053	-59.918	136.804	214.258	-66.815	115.719	-57.484	183.380	77.548	144.131	203.650	12.811	190.349	0.0005774	0.00085844	0.00056386	367.32	5.329e-06	1.5027e-05	405.04	119.34	1.7395e-05	1.8426e-06	178.61	75.867	53.003	22.149	1.607e-05	38.183	0.0062297	0.0073941	0.002062	845.91	7.2945e-05	8.1949e-05	610.33	193.98	7.3051e-05	8.213e-05	406.03	110.79	86.486	34.605	7.7298e-05	54.284	123.076	36.361	-23.955	-120.275	-64.759	226.796	-120.971	-114.375	166.730	131.690	-116.662	-113.022	-113.147	-108.258	77.018	-109.981	-8191	255	
3218.580	1	1	0	0	0.061381	0.087563	0.15911	0.26443	0.12669	0.14483	0.23669	0.07998	0.10402	0.04634	0.048057	0.11363	0.12241	0.12344	0.15368	0.15676	-2.3292	-3.0729	-2.6312	-2.7729	-3.175	-2.9354	-2.8438	-3.0062	-2.8417	-3.0917	-2.7646	-2.8875	-3.1042	-2.85	-2.9167	-3.0625	175.449	-6.019	179.951	146.340	153.931	171.451	128.590	59.123	55.132	-41.480	-53.544	191.241	141.299	201.095	92.357	85.045	0.00089765	0.0012606	0.00022007	360.86	8.347e-06	1.4712e-05	407.83	120.73	9.6038e-06	1.2456e-05	180.13	76.377	52.506	22.181	1.0238e-05	37.993	0.0063039	0.0075092	0.0019637	829.77	7.4902e-05	8.2661e-05	605.7	193.33	7.4912e-05	8.1715e-05	397.65	110.83	87.412	34.351	7.3813e-05	53.656	130.480	216.365	-35.195	-119.940	191.528	-55.021	-120.434	-114.342	188.177	93.781	-116.874	-113.287	-113.020	-107.603	-29.335	-109.561	-8191	255	
3218.676	1	1	0	0	0.094474	0.15109	0.1128	0.089872	0.09354	0.19578	0.28643	0.19041	0.16932	0.072784	0.24634	0.13479	0.068452	0.33576	0.22994	0.059469	-2.3063	-3.1708	-2.6875	-2.7646	-3.2021	-2.7208	-2.9646	-3.0729	-2.6583	-3.1229	-2.8667	-2.9292	-3.1229	-2.9042	-2.7354	-3.1167	102.270	-67.767	-125.970	-3.353	3.290	-38.271	-119.750	181.222	-83.689	134.411	217.444	-101.796	178.960	184.522	218.706	110.372	0.0010271	0.0011581	0.00016403	361.6	8.36e-06	1.3796e-05	407.03	118.86	3.3489e-05	3.7995e-06	178.84	75.103	51.268	21.521	7.4261e-06	36.952	0.0064614	0.0072569	0.0018624	809.71	7.6309e-05	7.8253e-05	597.05	188.94	7.6506e-05	7.756e-05	386.13	108.26	86.622	33.041	7.0987e-05	52.449	142.486	-77.087	-19.277	-120.721	167.717	73.380	-120.387	-114.649	160.623	-11.715	-116.345	-113.503	-112.526	-107.848	-36.006	-109.714	-8191	255	
3218.772	1	1	0	0	0.1495	0.17087	0.026289	0.22521	0.06236	0.19875	0.28166	0.08728	0.34267	0.29537	0.19325	0.14857	0.13234	0.3214	0.31914	0.23701	-2.5792	-2.9875	-2.7687	-2.7625	-3.1646	-2.6813	-2.9479	-3.1896	-2.7146	-3.0354	-2.8792	-2.7979	-3.0604	-2.9479	-2.8208	-2.9437	95.936	-120.649	41.316	32.849	88.440	-84.290	-116.518	44.639	204.412	-89.004	-3.122	-125.731	-80.617	-113.230	-42.638	145.023	0.00050784	0.0022409	0.00031236	355.92	7.374e-06	2.4206e-05	400.87	117.41	4.5378e-06	1.8881e-05	175.59	74.187	51.93	21.588	1.25e-05	36.918	0.0065926	0.0069527	0.0018039	809.97	7.8456e-05	7.5066e-05	587.71	189.2	7.8415e-05	7.5254e-05	380.29	108.82	88.069	32.895	7.1003e-05	53.21	118.996	-36.275	-20.414	-120.338	119.832	42.162	-121.041	-114.537	127.402	49.115	-115.964	-113.654	-112.871	-108.057	66.172	-109.917	-8191	255	
3218.893	1	1	0	0	0.13943	0.11622	0.1655	0.13874	0.26688	0.21918	0.26533	0.28644	0.43791	0.15177	0.17906	0.030865	0.2498	0.081585	0.13195	0.14883	-2.3833	-3.0125	-3.0583	-2.5458	-2.9917	-3.0583	-2.8479	-3.0917	-2.8812	-2.8271	-2.95	-2.7354	-3.1354	-2.9958	-2.6375	-3.2917	-10.359	-121.266	161.622	18.214	-96.790	-96.644	-92.235	-95.029	139.039	71.549	171.576	209.957	-124.756	192.411	-89.876	110.871	0.00065273	0.0020489	0.00047364	357.55	1.5301e-05	8.1882e-06	404.75	120.01	1.5628e-05	6.4671e-06	178.82	75.962	53.525	22.036	9.1149e-06	37.565	0.0068262	0.0068993	0.0018103	843.93	8.1041e-05	7.4761e-05	594.55	196.97	7.9989e-05	7.5256e-05	387.97	112.91	89.821	33.376	7.2018e-05	54.969	130.941	-51.191	-46.682	-119.967	-6.960	-62.205	-120.915	-114.769	25.119	74.315	-116.948	-113.516	-112.772	-107.841	-42.596	-109.448	-8191	255	
3218.989	1	1	0	0	0.20976	0.11855	0.15277	0.042758	0.032778	0.15128	0.25765	0.10111	0.13249	0.18691	0.080044	0.18994	0.086602	0.16293	0.19533	0.098096	-2.4375	-2.8708	-2.8937	-2.8271	-3.0917	-2.7583	-2.7292	-3.1729	-2.65	-2.8083	-3.1917	-2.7979	-2.8167	-2.8625	-2.8917	-3.2354	-19.123	-127.545	-97.785	224.195	-27.646	-13.380	-116.731	165.080	83.089	-3.185	154.301	69.903	193.927	134.759	211.933	204.502	0.00062562	0.0027489	0.00050408	367.28	3.5243e-05	8.3e-06	408.16	121.75	5.5318e-06	1.0619e-05	176.17	75.741	53.34	21.726	5.8374e-06	37.165	0.0068305	0.0069427	0.0018442	881.26	8.0251e-05	7.457e-05	600.8	202.81	7.883e-05	7.5243e-05	391.98	114.2	88.839	33.038	7.3646e-05	55.047	161.845	-33.702	-95.905	-120.646	-19.218	-21.584	-120.832	-115.063	44.797	25.202	-117.317	-113.456	-112.510	-108.295	182.771	-109.447	-8191	255	
3219.061	1	1	0	0	0.15326	0.21852	0.058322	0.19087	0.19534	0.28662	0.081498	0.07394	0.24115	0.16474	0.27492	0.16591	0.20883	0.099237	0.20325	0.18153	-2.4562	-2.7771	-3.0563	-2.6729	-2.8167	-2.9021	-2.9437	-3.0687	-2.8521	-2.9896	-2.9729	-2.7021	-2.9979	-2.8146	-2.4938	-3.025	-63.559	105.251	-119.975	-11.986	-94.327	-93.899	182.255	-55.452	-116.703	226.605	-18.595	218.522	173.227	159.737	162.402	185.308	0.00036139	0.00059361	0.00022492	368.69	1.9751e-05	7.4257e-06	410.46	121.37	8.2044e-06	1.2008e-05	176.43	74.473	52.034	21.123	2.8836e-05	36.281	0.0065885	0.0067939	0.001899	894.51	7.7977e-05	7.2986e-05	607.8	202.95	7.5871e-05	7.3485e-05	398.31	112.35	86.425	32.082	7.6249e-05	53.764	182.146	-49.842	148.660	-119.574	30.920	-24.351	-121.021	-114.633	-95.285	44.932	-117.105	-113.278	-112.260	-107.644	195.621	-109.315	-8191	255	
3219.182	1	1	0	0	0.085064	0.32838	0.089296	0.23257	0.097702	0.22286	0.20797	0.16534	0.11371	0.10763	0.13245	0.045593	0.24391	0.16713	0.079592	0.19218	-2.5833	-2.6562	-3.1667	-3.0292	-2.9417	-3.0729	-2.8833	-3.0521	-3.0042	-2.7125	-3.2042	-2.7167	-2.9083	-2.9521	-2.7375	-3.1937	222.290	-102.727	14.317	226.612	219.021	6.810	195.590	112.199	171.509	47.572	-110.759	-78.384	194.149	67.569	-15.212	137.134	0.00014007	0.00097347	0.00029323	371.89	4.1874e-06	1.0082e-05	405.65	120.56	7.4263e-06	1.0475e-05	176.55	73.969	52.167	21.26	1.7602e-05	36.307	0.0063244	0.0065775	0.0019715	877.72	7.4638e-05	7.089e-05	607.41	199.45	7.2722e-05	7.1662e-05	405.75	110.72	85.58	32.099	7.9133e-05	53.222	159.062	54.440	95.437	-120.474	144.718	-40.460	-120.846	-114.071	71.065	-54.667	-116.402	-113.564	-112.554	-107.898	160.285	-109.449	-8191	255	
3219.278	1	1	0	0	0.14084	0.081222	0.098206	0.14226	0.19602	0.27482	0.11472	0.064205	0.14697	0.069703	0.058397	0.11717	0.063022	0.16591	0.16195	0.16107	-2.4333	-2.7625	-3.1708	-2.6937	-2.8625	-3.0646	-2.9604	-3.0021	-2.8563	-2.8271	-3.0896	-2.9625	-2.9313	-3.0229	-2.7562	-3.0625	215.685	146.805	-77.055	176.234	212.229	147.188	-67.145	-99.638	-21.213	222.281	63.404	183.054	6.650	-63.007	170.485	218.286	0.00054876	0.00066139	0.00023274	369.86	2.1941e-05	1.0399e-05	405.44	121.41	1.3269e-05	8.9314e-06	177.68	74.94	52.678	21.737	1.0599e-05	37.062	0.0061159	0.0065417	0.002024	852.94	7.1846e-05	7.107e-05	613.7	197.23	7.0137e-05	7.2356e-05	407.53	109.72	84.944	32.691	7.8282e-05	53.268	134.709	123.116	210.345	-120.301	10.237	-71.015	-120.729	-114.304	46.261	175.084	-116.609	-113.368	-112.994	-107.875	-58.051	-109.290	-8191	255	
3219.372	1	1	0	0	0.052195	0.2921	0.25786	0.12131	0.11889	0.031604	0.11763	0.19891	0.38156	0.14462	0.11684	0.066832	0.205	0.25616	0.051458	0.23078	-2.6104	-2.8417	-3.0542	-2.8229	-2.6958	-3.1792	-2.7521	-3.2125	-3.1542	-2.675	-3.1083	-2.7979	-2.9771	-3.1104	-2.7896	-3.1333	5.888	-40.049	130.768	50.576	147.978	-78.979	60.239	85.658	-18.265	12.462	168.679	184.225	14.018	220.324	147.116	184.403	0.00061153	0.002841	0.00017658	369.31	1.1281e-05	2.0134e-05	409.33	121.09	1.1109e-05	1.3372e-05	178.41	75.204	52.266	21.674	5.9805e-06	36.901	0.0058531	0.006687	0.0020174	833.44	6.9898e-05	7.3478e-05	610.51	193.98	6.7135e-05	7.4229e-05	403.09	108.83	83.81	32.916	7.5364e-05	52.71	133.116	137.626	212.769	-120.010	-13.512	214.424	-120.754	-114.236	-26.028	209.810	-116.651	-113.543	-112.647	-107.997	-29.927	-109.338	-8191	255	
3219.468	1	1	0	0	0.17038	0.29051	0.10461	0.22867	0.11731	0.064923	0.038891	0.14431	0.2247	0.098699	0.21144	0.093267	0.057752	0.2729	0.31118	0.076861	-2.7958	-2.7438	-3.0438	-2.7125	-2.8042	-3.2375	-2.7583	-2.725	-3.075	-2.7687	-3.0687	-3.1604	-2.7979	-3.1375	-2.7042	-2.9896	-104.857	-21.051	198.547	-81.728	144.584	6.242	163.540	155.824	6.357	30.838	129.387	220.780	142.250	-111.879	-68.389	-77.126	0.00065288	0.00098006	0.00057956	369.56	1.1104e-05	2.0393e-05	409.61	120.13	1.9523e-05	1.2829e-05	176.03	74.297	51.648	21.291	6.5239e-06	36.478	0.0056917	0.0068495	0.0019173	808.8	6.7458e-05	7.4938e-05	602.73	189.99	6.5777e-05	7.5209e-05	388.3	106.59	82.827	32.691	7.1331e-05	51.608	139.332	173.145	-96.692	-120.294	179.749	-111.444	-120.933	-114.801	167.884	129.102	-116.881	-113.363	-112.647	-107.787	63.354	-109.446	-8191	255	
3219.589	1	1	0	0	0.043529	0.13125	0.31667	0.24941	0.10682	0.16185	0.14097	0.1196	0.075903	0.46626	0.17884	0.24086	0.28837	0.18265	0.13404	0.15648	-2.5958	-2.6521	-2.9625	-3.1479	-2.7979	-3.0438	-2.8833	-2.7417	-3.1146	-2.7687	-2.95	-3.0312	-2.8688	-3.0854	-2.775	-2.9708	123.891	95.555	115.106	212.987	158.582	173.307	28.541	50.279	-90.945	-39.168	-107.384	120.875	-127.386	143.594	-112.642	-68.993	0.00058939	0.00035402	0.00055361	368.5	1.2911e-05	6.4305e-06	407.24	120.63	7.939e-06	5.5236e-06	176.57	74.261	51.613	21.557	5.7598e-06	36.763	0.0057146	0.0069629	0.0018276	796.05	6.9052e-05	7.6347e-05	591.6	188.21	6.9073e-05	7.6592e-05	382.92	106.31	84.767	33.099	7.034e-05	52.047	116.969	-112.585	-20.753	-119.668	132.018	-2.413	-120.589	-114.550	195.285	23.332	-117.175	-113.544	-112.620	-107.633	75.409	-109.497	-8191	255	
3219.661	1	1	0	0	0.099848	0.14074	0.057091	0.17314	0.11452	0.25929	0.20061	0.20505	0.15197	0.16646	0.11907	0.23846	0.2278	0.12481	0.25927	0.23942	-2.6667	-2.7333	-2.7854	-3.0271	-2.5938	-3.2729	-2.9542	-2.7313	-3.0438	-2.8229	-2.8542	-2.9896	-2.9875	-3.2146	-2.9625	-3.0375	189.626	166.620	199.756	0.149	64.042	67.622	102.844	24.589	-53.392	38.545	90.156	105.060	140.004	-32.512	61.238	42.999	0.0008192	0.00061662	9.4802e-05	368.01	6.9838e-06	2.4058e-05	407.76	121.53	1.5038e-05	1.9137e-05	179.8	76.153	52.741	22.062	7.4957e-06	37.575	0.0061407	0.0070389	0.0018209	801.7	7.4492e-05	7.7626e-05	594.94	190.79	7.4634e-05	7.7198e-05	387.28	108.66	88.067	33.646	7.0535e-05	53.156	99.907	29.109	112.335	-120.274	-111.833	61.596	-120.489	-114.736	192.558	78.700	-116.123	-113.232	-112.833	-107.780	-9.047	-109.479	-8191	255	
3219.757	1	1	0	0	0.096787	0.19897	0.10263	0.06186	0.21351	0.29386	0.1672	0.065007	0.20054	0.1272	0.18178	0.11242	0.097255	0.010305	0.066381	0.33741	-2.7625	-2.6958	-2.7958	-3.225	-2.7583	-2.9479	-3.0667	-3.0208	-3.1458	-2.6292	-2.9667	-3.2208	-2.7521	-3.0979	-3.1479	-2.7396	36.877	-102.386	130.758	137.164	177.414	-9.120	220.927	-58.228	34.034	94.470	-71.058	-60.033	-91.929	145.168	171.046	210.415	0.00054951	0.0027745	0.00022186	367.17	7.8478e-06	1.9197e-05	412.32	121.48	8.3576e-06	1.3632e-05	181.37	76.823	53.179	22.042	5.5588e-06	37.663	0.0066047	0.0070033	0.0018282	815.01	7.9032e-05	7.6734e-05	597.87	194.93	7.9136e-05	7.5984e-05	390.04	111.18	90.178	33.567	7.03e-05	53.998	100.976	4.068	-19.982	-120.271	97.415	43.440	-120.428	-115.067	153.327	70.520	-116.029	-113.386	-112.561	-107.728	92.820	-109.617	-8191	255	
3219.853	1	1	0	0	0.059482	0.30124	0.094728	0.17409	0.19509	0.045892	0.042009	0.021304	0.11129	0.078775	0.26782	0.039005	0.21763	0.050547	0.31407	0.31269	-2.6229	-2.9313	-2.875	-3.1417	-2.7125	-2.9813	-3.3021	-2.9375	-3.1375	-2.8229	-2.8083	-3.1875	-2.8688	-2.9542	-2.8083	-2.8125	-53.342	-64.588	169.812	212.391	206.171	-42.649	132.372	167.407	74.489	54.082	11.094	93.688	-86.109	94.770	-131.465	-14.639	0.00069584	0.0008275	0.0002581	368.03	8.1153e-06	8.2928e-06	411.67	122.07	1.306e-05	1.2387e-05	180.04	75.305	53.097	21.447	1.4648e-06	36.623	0.006811	0.0068154	0.0018203	840.32	7.9878e-05	7.4258e-05	596.84	197.78	7.9129e-05	7.3534e-05	384.58	111.07	88.641	32.608	6.9131e-05	53.574	134.915	37.527	-123.635	-120.314	-52.592	-13.318	-120.368	-114.844	-24.297	54.928	-116.524	-113.620	-113.038	-107.930	-93.289	-109.878	-8191	255	
3219.973	1	1	0	0	0.14874	0.13602	0.050941	0.010253	0.14637	0.17457	0.20171	0.24311	0.127	0.17484	0.15647	0.14652	0.14918	0.053281	0.21884	0.27994	-2.6813	-2.9354	-2.7562	-3.0396	-2.8833	-3.0083	-3.1729	-2.7083	-3.0667	-2.975	-2.7458	-3.3042	-2.8354	-2.7396	-3.2646	-2.9083	47.456	-120.494	60.961	-124.568	42.899	205.913	-128.900	98.260	-40.158	-24.350	139.787	-110.824	170.887	184.189	-12.830	138.711	0.00069751	0.00042284	0.00022438	367.65	8.2209e-06	1.3252e-05	409.47	122.52	7.303e-06	6.2042e-06	180.7	74.673	52.76	21.559	5.8167e-06	36.662	0.0066665	0.0066119	0.0017956	863.02	7.7824e-05	7.3024e-05	594.07	200.41	7.6533e-05	7.1844e-05	387.2	112.23	87.884	32.502	7.0453e-05	54.169	144.519	-76.263	-98.374	-120.079	9.183	14.732	-120.590	-114.752	49.626	-24.128	-116.382	-113.480	-112.611	-107.409	-87.371	-109.550	-8191	255	
3220.070	1	1	0	0	0.098793	0.044049	0.15634	0.13563	0.34237	0.22552	0.099116	0.045951	0.1569	0.22245	0.19319	0.19406	0.13903	0.14831	0.059563	0.032667	-2.4562	-2.8875	-2.9125	-3.1458	-2.7458	-2.8146	-3.2625	-2.7375	-2.7167	-2.9292	-2.8	-3.1688	-2.8021	-2.7708	-3.1354	-2.9083	95.820	162.051	-2.030	205.355	79.333	148.300	-86.377	148.209	-36.386	-103.728	-53.647	192.203	162.245	118.435	30.634	38.321	0.00036783	0.00091572	0.00014137	369.48	2.0891e-05	1.6272e-05	410.99	124.46	5.5331e-06	3.2464e-06	178.68	76.423	53.901	21.853	2.4056e-05	37.538	0.0064729	0.0065161	0.0018486	881.38	7.5741e-05	7.2412e-05	604.07	205.05	7.5439e-05	7.1743e-05	399.33	114.59	88.164	33.042	7.5753e-05	55.193	84.758	-44.747	84.537	-120.520	58.718	15.384	-120.675	-114.359	-15.506	29.109	-117.103	-113.300	-112.575	-107.546	214.877	-109.641	-8191	255	
3220.166	1	1	0	0	0.14456	0.079689	0.12076	0.33519	0.074551	0.30359	0.30237	0.076942	0.3421	0.12775	0.14297	0.21123	0.088025	0.24044	0.14936	0.18459	-2.4625	-3.0792	-2.7771	-3.0333	-2.6792	-2.8833	-3.3	-2.7479	-2.9188	-3.0833	-2.7313	-2.975	-2.8604	-2.9188	-3.1521	-2.8083	199.735	-109.889	191.857	105.651	41.275	-102.558	227.523	179.455	133.614	-1.940	81.002	146.227	66.566	-17.417	90.937	194.398	0.00028234	0.00022712	0.00050254	371.02	1.4685e-05	9.1573e-06	413.38	123.88	1.5172e-05	4.7581e-06	181.6	77.053	53.847	22.204	6.5249e-06	37.83	0.0064172	0.0065831	0.0019931	894.29	7.5404e-05	7.3161e-05	618.9	205.46	7.5897e-05	7.3646e-05	419.17	115.28	88.712	33.533	8.2361e-05	55.66	118.555	203.658	151.234	-119.824	38.356	60.610	-120.392	-114.300	-72.982	-29.346	-116.723	-113.078	-112.562	-107.629	-91.942	-109.285	-8191	255	
3220.262	1	1	0	0	0.15065	0.15871	0.21515	0.18747	0.08984	0.3827	0.097985	0.062813	0.046344	0.084136	0.21961	0.13516	0.17825	0.2427	0.17784	0.28851	-2.2979	-3.1896	-2.7875	-2.8875	-2.8979	-2.9125	-3.2979	-2.7479	-2.8229	-3.0458	-2.8521	-3.0271	-3.1333	-2.7604	-2.9437	-2.8125	2.021	53.963	-128.410	198.737	194.148	-1.519	60.386	13.302	202.846	-21.950	-43.305	-81.782	30.237	-33.958	3.939	-98.726	0.00067881	0.00082339	0.00045483	372.3	3.2266e-06	8.8348e-07	416.45	122.06	1.5101e-05	1.3724e-05	182.26	75.956	52.864	21.671	5.8478e-06	36.772	0.0065252	0.0068359	0.0021474	889.77	7.604e-05	7.6283e-05	628.26	202.29	7.5291e-05	7.5829e-05	424.35	112.9	87.01	33.274	8.4068e-05	54.086	138.765	10.218	21.367	-119.859	133.396	44.781	-120.629	-114.758	10.641	-130.298	-116.564	-113.511	-112.884	-108.072	186.161	-109.501	-8191	255	
3220.356	1	1	0	0	0.12168	0.25899	0.076767	0.20166	0.23036	0.085547	0.12116	0.047847	0.19363	0.15277	0.076205	0.099558	0.10947	0.12794	0.15844	0.068967	-2.6188	-3.1833	-2.8208	-2.9896	-3.05	-2.6688	-3.2542	-2.9792	-2.8646	-3.0979	-2.6688	-2.7604	-3.1146	-2.7562	-2.9875	-2.9542	132.529	102.816	-36.539	44.393	157.159	85.024	174.568	29.511	63.047	21.996	-11.791	208.697	195.017	194.202	-120.703	-119.093	0.00051265	0.0018852	0.00021625	371.87	2.654e-06	1.128e-05	406.92	121.45	2.5548e-05	1.4715e-05	177.72	75.16	52.669	21.534	7.9143e-06	37.054	0.0063568	0.0070944	0.0021639	867.87	7.3981e-05	7.8782e-05	624.82	199.59	7.3616e-05	7.9245e-05	421.94	111.42	86.588	33.819	8.2507e-05	53.747	143.687	188.456	35.871	-119.976	-79.341	-101.006	-120.477	-114.510	-92.599	-119.126	-116.010	-113.353	-112.760	-107.728	-72.588	-109.123	-8191	255	
3220.454	1	1	0	0	0.21163	0.1966	0.26354	0.10269	0.12515	0.30856	0.086107	0.25682	0.11014	0.12119	0.23991	0.2225	0.24906	0.15877	0.10895	0.23309	-2.1937	-3.2604	-2.6167	-3.0729	-2.8146	-2.6188	-3.0875	-3.0625	-2.7958	-2.9729	-2.6813	-3.1604	-3.0896	-3.0646	-3	-2.8688	165.924	-26.301	133.695	165.441	-52.233	-111.999	187.755	-91.176	196.007	212.467	66.104	61.173	120.122	-30.991	134.875	-24.742	0.000397	0.00131	0.0002836	371.38	5.6111e-06	4.4054e-06	411.06	124.09	7.5243e-06	4.3752e-06	183.85	76.445	53.845	22.166	9.3134e-06	37.211	0.0062635	0.007446	0.0021206	860.01	7.361e-05	8.2509e-05	622.77	201.02	7.3946e-05	8.3724e-05	420.6	112.36	88.055	34.649	8.0137e-05	54.092	150.132	114.460	-46.601	-119.521	-116.449	-86.435	-120.542	-114.350	212.897	201.630	-116.065	-113.029	-112.984	-107.659	-4.227	-109.269	-8191	255	
3220.573	1	1	0	0	0.12945	0.16318	0.13984	0.027288	0.14408	0.083133	0.079919	0.29275	0.050868	0.096105	0.13596	0.11048	0.37506	0.088092	0.22119	0.15829	-2.2208	-3.2062	-2.8917	-2.8021	-3.1021	-2.7646	-3.1083	-3.0563	-2.8042	-2.9479	-2.7479	-2.8708	-3.2583	-2.8292	-3.05	-2.8396	166.257	-35.434	149.904	206.178	21.144	212.252	91.800	41.204	-18.682	109.772	87.556	-95.304	152.015	191.490	-27.711	165.144	0.00032602	0.0014761	0.00046739	378.49	8.3886e-06	9.3021e-06	418.24	125.5	2.9133e-05	5.7647e-06	184.14	77.645	54.064	22.132	2.213e-05	37.526	0.0063842	0.0076883	0.0020432	855.4	7.6177e-05	8.5593e-05	623.51	200.97	7.6978e-05	8.5642e-05	413.38	112.79	89.909	34.887	7.8217e-05	54.099	146.019	204.592	0.676	-119.753	211.630	-93.545	-120.547	-114.535	214.295	-89.953	-116.000	-113.312	-112.703	-107.955	-7.324	-109.533	-8191	255	
3220.669	1	1	0	0	0.12242	0.11635	0.13752	0.08087	0.12068	0.018801	0.17064	0.029623	0.16691	0.11056	0.10509	0.079892	0.12953	0.16979	0.14979	0.071391	-2.1417	-3.2188	-2.9104	-2.7979	-2.9854	-2.7	-2.9375	-3.0125	-2.725	-3.2521	-2.8563	-2.9938	-3.0479	-2.6042	-2.9688	-3.2938	2.088	-5.191	94.113	-43.342	112.453	84.614	-89.917	-99.831	138.505	65.338	-95.258	163.887	41.206	179.332	-45.234	172.903	0.0010954	0.0016592	0.00010496	371.25	8.9401e-06	7.758e-06	415.24	122.47	2.1827e-05	5.9877e-06	181.23	75.74	52.74	21.467	4.691e-06	36.499	0.0067545	0.0078048	0.0019942	848.56	7.9802e-05	8.4255e-05	617.16	197.99	8.0403e-05	8.3419e-05	403.75	110.66	90	33.866	7.6418e-05	52.834	122.467	15.425	-37.032	-120.294	144.375	61.605	-120.528	-114.772	225.051	83.490	-116.573	-113.380	-112.982	-107.374	26.974	-109.630	-8191	255	
3220.765	1	1	0	0	0.075365	0.1934	0.1623	0.21892	0.12215	0.15147	0.22321	0.031773	0.1412	0.23782	0.073104	0.22808	0.027506	0.13809	0.16851	0.14871	-2.4229	-3.1729	-2.8563	-2.5958	-3.2729	-2.9521	-3.0062	-3.0771	-2.7375	-3.0354	-2.8354	-2.7771	-3.0229	-3.0042	-2.7188	-3.1417	74.229	63.454	194.379	110.371	125.904	195.726	221.222	172.040	-63.164	203.869	224.125	123.557	223.325	73.737	-24.922	194.492	0.0008509	0.0012491	0.00029887	368.47	6.4511e-06	1.3819e-05	410.85	122.89	1.2867e-05	1.3189e-05	178.44	74.595	52.732	21.51	1.6244e-05	36.32	0.0070598	0.0075577	0.0019562	851.59	8.4317e-05	8.2228e-05	609.26	199.17	8.5105e-05	8.2257e-05	402.28	110.95	91.667	33.825	7.705e-05	53.661	98.566	40.886	13.917	-120.534	149.265	-2.677	-120.905	-114.176	-130.881	72.676	-117.021	-113.258	-112.762	-107.721	84.162	-109.620	-8191	255	
3220.862	1	1	0	0	0.22799	0.30693	0.15768	0.16584	0.085929	0.080005	0.23641	0.085937	0.026086	0.16675	0.18401	0.09515	0.55097	0.12201	0.14073	0.081102	-2.1	-2.8896	-3.1	-2.7208	-3.2417	-3.1188	-2.7417	-3.1542	-2.8125	-2.8375	-3.1458	-2.7646	-3.2958	-2.8854	-2.9521	-3.3167	-113.138	-45.376	2.229	-116.028	-117.680	130.150	177.783	-122.523	215.070	153.692	226.644	204.078	128.332	226.341	131.129	85.785	0.00064215	0.0013091	0.00030293	369.44	1.597e-05	1.2904e-05	410.64	123.87	1.4092e-05	5.7645e-06	179.62	75.203	53.263	21.907	5.9431e-06	36.987	0.0074183	0.0074643	0.0019668	883.51	8.7816e-05	8.2011e-05	613.47	205.5	8.7686e-05	8.2224e-05	407.24	114.37	93.246	34.225	7.8141e-05	55.414	109.656	-2.713	-43.109	-120.394	-68.000	117.243	-120.584	-114.834	6.016	-14.810	-117.210	-113.685	-112.245	-107.651	28.559	-109.636	-8191	255	
3220.958	1	1	0	0	0.039644	0.18565	0.058444	0.12579	0.22495	0.20598	0.13094	0.2726	0.24516	0.15982	0.20749	0.1198	0.14703	0.077494	0.08376	0.20061	-2.4292	-3.0083	-3.0396	-2.6646	-2.9104	-2.9979	-2.8333	-3.0625	-3.0104	-2.975	-3.1083	-2.7354	-2.8063	-2.7729	-2.7958	-3.2354	-122.197	6.873	-123.084	66.189	29.144	6.190	122.392	-82.915	45.561	-10.277	-39.686	187.000	-127.431	31.671	178.774	216.963	0.00061144	0.0021033	0.00023563	370.02	1.6641e-05	1.3944e-05	414.88	125.06	1.6628e-05	9.2845e-06	180.84	75.341	53.524	21.998	1.0819e-05	37.298	0.0075382	0.0075747	0.0020155	933.62	8.9303e-05	8.2465e-05	623.03	213.31	8.8046e-05	8.3424e-05	413.89	117.33	93.498	34.465	8.1499e-05	56.769	142.276	-58.065	-119.397	-120.145	2.209	62.536	-120.661	-114.256	21.494	157.798	-115.883	-113.467	-112.562	-107.539	-114.582	-109.322	-8191	255	
3221.054	1	1	0	0	0.18275	0.20365	0.17158	0.066957	0.14769	0.096393	0.097433	0.10514	0.34932	0.14502	0.025564	0.23907	0.0606	0.061821	0.11174	0.09387	-2.4188	-3.0187	-3.1771	-2.7417	-2.9708	-2.8458	-2.7646	-2.9813	-2.7208	-2.8646	-3.3688	-2.775	-2.9437	-2.6937	-2.6708	-3.15	-114.136	85.472	42.262	-1.087	150.345	-104.776	164.581	55.926	-97.736	-37.623	-72.782	-104.151	-46.892	-80.610	54.412	-7.561	0.00056307	0.0019211	0.00026117	377.12	1.18e-05	1.5881e-05	415.75	124.73	1.5664e-05	1.6172e-05	178.27	74.893	52.839	21.496	2.351e-05	36.363	0.0074503	0.0075772	0.0020942	959.89	8.7221e-05	8.1686e-05	630.28	215.26	8.5187e-05	8.2198e-05	421.21	116.77	91.165	33.531	8.3852e-05	55.7	138.027	226.565	126.930	-120.223	46.689	15.387	-120.876	-114.403	-46.773	63.862	-117.075	-113.093	-112.421	-107.781	146.149	-109.405	-8191	255	
3221.150	1	1	0	0	0.1375	0.15099	0.19437	0.10745	0.097387	0.033009	0.011779	0.084461	0.23461	0.16273	0.14148	0.11888	0.30293	0.22024	0.2164	0.16359	-2.4229	-2.7313	-3.0708	-2.7333	-2.9688	-2.9688	-2.725	-2.9854	-2.8729	-2.7667	-3.0979	-2.6583	-2.9083	-3.2667	-2.6021	-2.9833	150.993	-45.545	74.875	-129.375	177.367	75.282	182.247	153.335	38.256	155.768	181.897	212.243	-68.884	-116.495	67.581	-131.319	0.00055987	0.00068326	0.00043943	380.2	1.5676e-05	9.5228e-06	411.26	123.77	1.4889e-05	1.5253e-05	178.42	74.883	52.673	21.686	1.6058e-05	36.144	0.0071056	0.0073212	0.0021651	952.44	8.3843e-05	7.9659e-05	635.34	212.65	8.2121e-05	8.0116e-05	431.57	115.23	90.242	33.471	8.7687e-05	55.244	151.787	-45.854	136.833	-119.547	77.683	-103.475	-120.918	-114.460	-25.375	173.752	-117.547	-112.828	-112.538	-108.080	199.671	-109.210	-8191	255	
3221.246	1	1	0	0	0.18166	0.23994	0.14019	0.096677	0.10834	0.14306	0.063265	0.12248	0.16565	0.079874	0.24237	0.20765	0.16805	0.081865	0.19796	0.096805	-2.5563	-2.8021	-3.1271	-2.7646	-2.7313	-3.05	-2.9458	-2.8771	-2.7792	-2.6229	-3.0938	-2.9271	-2.6917	-3.0771	-2.8063	-3.1396	-54.740	39.507	-99.853	30.929	142.477	-117.858	-123.888	-108.141	33.920	100.914	169.645	152.639	-99.542	79.390	-26.178	91.859	0.00059198	0.0014206	5.5355e-05	380.12	5.8749e-06	4.0631e-06	412.79	125.87	1.3428e-05	2.9597e-05	179.28	75.315	53.439	21.744	1.8678e-05	36.849	0.0069308	0.0073803	0.002285	937.68	8.2414e-05	8.0661e-05	646.81	212.46	8.1397e-05	8.2176e-05	445.09	115.2	90.848	34.292	9.1819e-05	55.512	148.492	131.370	135.026	-120.559	3.213	-123.479	-120.887	-114.451	9.169	183.562	-117.168	-112.896	-112.302	-107.616	-111.288	-108.924	-8191	255	
3221.365	1	1	0	0	0.11305	0.21682	0.080394	0.20381	0.059255	0.03971	0.0036824	0.27864	0.41013	0.14085	0.17804	0.10295	0.17557	0.12838	0.17381	0.22128	-2.5625	-2.525	-3.0771	-2.6917	-2.6667	-3.2708	-2.85	-2.7521	-2.9813	-3.0021	-3.1583	-2.8854	-2.7375	-3.1125	-2.9208	-2.8292	-45.551	221.334	217.225	-15.892	131.900	-119.942	-30.573	-8.056	-104.818	187.217	119.534	2.728	-95.321	199.788	-37.371	-74.553	0.0005487	0.0024338	0.0001968	389.35	1.1946e-05	9.7911e-06	418.34	127.33	1.1821e-05	9.5569e-06	183.66	75.485	53.766	21.934	2.0911e-05	36.981	0.0068759	0.0076975	0.0023588	925.89	8.184e-05	8.4965e-05	654.28	212.09	8.0369e-05	8.7118e-05	450.7	115.04	90.885	35.054	9.2131e-05	55.47	116.781	175.558	-116.114	-120.263	21.870	-90.290	-120.566	-114.512	-8.289	212.195	-116.045	-112.801	-112.316	-107.996	-75.226	-108.974	-8191	255	
3221.461	1	1	0	0	0.20241	0.1862	0.11642	0.18265	0.12144	0.20721	0.26443	0.15821	0.12696	0.17023	0.11339	0.15451	0.10109	0.1814	0.079287	0.15648	-2.4583	-2.6229	-2.9875	-2.7271	-2.6792	-3.2792	-2.9458	-3.0417	-3.0938	-2.7042	-3.0583	-3.0354	-2.5812	-3.2562	-2.9042	-3.0812	-72.390	-63.290	-131.699	147.753	200.192	-118.762	169.299	213.910	175.336	-105.148	-111.226	-98.762	42.751	85.929	126.297	-53.070	0.00070535	0.0015637	0.00082968	385.07	7.0364e-06	8.7209e-06	419.35	125.28	4.0449e-06	1.72e-05	181.96	74.419	52.703	21.506	1.9073e-05	36.253	0.0068893	0.0081754	0.0023494	918.27	8.1845e-05	9.0153e-05	650.42	209.44	8.0439e-05	9.1057e-05	440.41	113.05	90.051	35.089	8.855e-05	54.273	129.000	164.220	-7.956	-120.265	-9.025	-112.067	-120.740	-113.719	-114.422	224.896	-116.542	-113.204	-112.737	-107.969	31.748	-109.470	-8191	255	
3221.535	1	1	0	0	0.11643	0.15932	0.11925	0.032914	0.21247	0.060789	0.23603	0.3455	0.25312	0.17027	0.13517	0.25483	0.22717	0.23552	0.13694	0.12821	-2.5583	-2.5375	-2.8896	-3.1396	-2.6479	-3.0187	-2.8604	-2.9354	-3.0646	-2.8667	-2.9292	-3.05	-2.7792	-3.1667	-2.6375	-2.7938	-117.546	-128.912	-5.211	43.111	-116.572	94.597	-67.908	-123.483	47.279	118.407	195.108	148.338	-104.261	-97.563	38.407	49.216	0.00079289	0.00089863	0.00037196	382.29	1.0159e-05	5.7348e-06	415.77	124.31	2.7387e-05	6.5562e-06	177.67	73.836	52.595	21.767	1.2448e-05	36.447	0.0069317	0.0084518	0.0022553	904.14	8.3238e-05	9.2852e-05	636.67	206.58	8.3161e-05	9.378e-05	429.95	111.96	91.168	35.532	8.5939e-05	54.226	103.759	174.389	-93.767	-120.281	221.436	-131.008	-120.334	-114.351	191.641	21.235	-116.496	-112.992	-112.673	-107.655	-51.424	-109.269	-8191	255	
3221.653	1	1	0	0	0.12271	0.2514	0.11218	0.087863	0.23375	0.0744	0.16666	0.12224	0.23677	0.19516	0.207	0.090182	0.19353	0.21694	0.13199	0.16149	-2.9042	-2.8438	-3.0312	-3.0521	-2.4062	-3.2583	-2.9229	-2.85	-2.9104	-2.7062	-3.0146	-3.0875	-2.8167	-2.9375	-3.0812	-2.725	46.055	218.033	-131.144	-105.805	-106.777	-31.552	-40.141	-81.882	-127.358	-113.424	190.533	122.555	-107.829	86.418	-131.197	-15.002	0.00099004	0.000457	0.00049714	383.52	1.9359e-05	1.6264e-05	416.71	124.46	3.6395e-05	9.8742e-06	178.47	75.046	53.049	22.161	7.463e-06	36.831	0.0072916	0.0085293	0.002201	898.5	8.7607e-05	9.3327e-05	634.72	206.89	8.7868e-05	9.315e-05	427.88	112.69	94.124	35.671	8.4192e-05	54.88	110.278	136.567	-90.680	-119.369	166.987	30.395	-120.381	-114.436	178.971	7.975	-116.572	-113.323	-112.265	-107.397	66.756	-109.453	-8191	255	
3221.750	1	1	0	0	0.12476	0.209	0.10751	0.18066	0.13878	0.25732	0.11571	0.14534	0.27553	0.14314	0.13389	0.091966	0.16048	0.22068	0.12285	0.3503	-2.6604	-2.6437	-2.8146	-3.125	-2.9188	-3.0917	-3.0312	-2.7583	-2.925	-3.0167	-2.8604	-3.0271	-2.7313	-2.975	-2.9792	-2.6646	-102.922	-109.537	222.402	-83.793	206.537	-104.071	-33.387	187.503	-20.108	-131.267	-54.744	181.038	134.551	212.342	-121.693	144.453	0.00095372	0.0017258	2.9442e-05	379.03	1.3245e-05	1.2778e-05	414.39	126.16	3.0914e-05	2.114e-05	181.47	75.069	53.921	22.084	1.3276e-05	36.944	0.0076993	0.0084027	0.0021713	903.74	9.2517e-05	9.111e-05	632.22	209.33	9.2096e-05	8.9855e-05	423.5	113.83	95.421	35.198	8.2256e-05	55.101	127.611	-26.365	19.602	-120.248	89.392	28.493	-120.468	-114.519	-118.487	51.389	-116.630	-113.154	-112.676	-108.228	-85.525	-109.565	-8191	255	
3221.846	1	1	0	0	0.16814	0.21628	0.10974	0.13479	0.16909	0.11155	0.1882	0.02065	0.32827	0.06807	0.20025	0.27831	0.06838	0.14462	0.11383	0.14089	-2.6625	-2.9688	-2.7833	-3.0833	-2.7687	-3.1042	-2.9875	-2.7229	-3.2833	-2.8708	-2.7875	-2.9437	-2.6896	-3.0812	-3.0667	-2.6979	-83.209	82.802	22.607	114.696	-84.223	187.382	67.895	3.124	174.611	-43.723	-44.054	96.115	-119.508	184.104	66.925	197.700	0.00065104	0.0016052	0.00052365	377.65	1.3467e-05	8.6312e-06	417.3	125.88	5.8762e-06	6.612e-06	180.47	74.579	53.216	21.482	1.006e-05	35.694	0.0078483	0.0079656	0.0021091	912.82	9.2893e-05	8.6308e-05	627.12	209.95	9.0256e-05	8.4319e-05	413.46	113.55	93.476	33.811	7.8279e-05	54.234	123.290	-4.790	-25.020	-120.244	-115.879	14.811	-120.416	-114.631	-7.221	103.213	-117.369	-113.190	-112.850	-107.656	-130.252	-109.484	-8191	255	
3221.942	1	1	0	0	0.097381	0.4297	0.1082	0.035983	0.134	0.065625	0.1197	0.18775	0.20637	0.073766	0.24378	0.25407	0.26261	0.11024	0.035232	0.37817	-2.6417	-2.7104	-2.5167	-2.9417	-2.8271	-2.9375	-2.9208	-2.8958	-3.0812	-2.75	-2.7458	-3.2979	-2.7667	-2.8042	-3.1833	-2.7792	-26.751	-7.505	212.876	-82.603	-50.211	-109.379	125.324	153.922	-34.961	-16.319	-22.176	-98.407	-95.846	154.505	-23.323	-126.249	0.00057999	0.0013803	0.00053204	375.66	9.1323e-06	2.3191e-06	416.26	124.6	1.4626e-05	1.3207e-05	178.01	73.442	53.026	21.256	1.6002e-05	35.453	0.007629	0.0075616	0.0020299	927.26	8.8697e-05	8.2459e-05	618.62	211.72	8.7175e-05	8.1454e-05	408.62	113.88	91.947	33.525	7.8528e-05	54.644	137.996	-48.261	-47.461	-120.241	-10.538	-68.132	-120.770	-114.414	-77.726	44.055	-116.865	-113.666	-112.299	-107.603	137.858	-109.335	-8191	255	
3222.063	1	1	0	0	0.24895	0.061259	0.20269	0.16345	0.082353	0.032258	0.14758	0.1021	0.11164	0.20702	0.069382	0.16871	0.15638	0.18784	0.097058	0.23037	-2.5604	-3.0604	-2.6979	-2.9813	-2.6437	-2.8667	-3.0646	-2.7542	-2.9396	-3.0583	-2.7042	-3.2271	-2.8063	-2.6521	-3.0271	-2.8229	-59.829	174.048	79.972	80.877	-119.346	-84.567	159.312	155.908	-131.875	156.103	81.286	111.734	152.958	226.042	-65.602	-33.134	0.00041915	0.002318	4.5353e-05	378.92	1.8202e-05	1.1135e-05	411.7	126.16	9.2453e-06	1.6077e-05	177.72	74.662	53.545	21.759	1.1149e-05	36.749	0.0073221	0.0073606	0.0020411	947.63	8.5249e-05	8.048e-05	621.36	214.54	8.38e-05	7.9862e-05	416.35	115.97	91.344	33.794	8.184e-05	55.918	134.279	-2.658	52.256	-120.181	4.031	-25.579	-120.698	-114.486	-52.963	60.494	-117.178	-113.301	-112.158	-107.686	-126.109	-109.703	-8191	255	
3222.159	1	1	0	0	0.03579	0.043139	0.01599	0.17266	0.16361	0.11745	0.10336	0.022924	0.17372	0.33495	0.22078	0.21094	0.26818	0.15085	0.082091	0.10403	-2.5646	-2.9313	-2.6125	-3.0875	-2.925	-2.7812	-3.1396	-2.6333	-3.0563	-3.0292	-2.6958	-3.0125	-2.9188	-2.7708	-3.1479	-2.9437	-61.901	116.539	3.276	158.002	17.738	27.918	208.824	-94.931	213.261	41.726	-58.145	-105.287	-126.107	-119.244	-19.835	-48.837	0.00040623	0.002001	0.00071324	383.76	2.0435e-05	1.8746e-05	412.15	125.69	1.1866e-05	1.0324e-05	174.91	74.705	52.816	21.625	1.2926e-05	36.021	0.0070902	0.0072467	0.0021419	952.92	8.3249e-05	8.0347e-05	633.67	214.44	8.2849e-05	7.9581e-05	430.57	115.44	90.237	33.546	8.7136e-05	55.192	178.181	-34.691	112.909	-119.598	-11.122	-0.830	-120.946	-114.518	-90.291	41.893	-116.340	-113.163	-112.308	-107.702	-122.827	-109.499	-8191	255	
3222.255	1	1	0	0	0.09403	0.18334	0.062448	0.099921	0.15493	0.077532	0.24344	0.09646	0.10719	0.2797	0.019692	0.041938	0.16824	0.17067	0.12136	0.18811	-2.3812	-3.0833	-2.8042	-3.1583	-2.7583	-2.7021	-3.0958	-2.8667	-2.9125	-2.9708	-2.6688	-2.9979	-2.9104	-2.7292	-3.0167	-2.6583	33.083	-120.686	110.403	88.712	175.312	-26.888	105.641	7.652	-121.266	-129.725	-129.552	-46.585	147.864	-50.207	40.278	147.422	0.00030159	0.00092707	0.00037196	379.18	1.0954e-05	6.8927e-06	414.1	124.59	1.9773e-05	7.5265e-06	177.08	73.699	52.222	20.883	8.842e-06	35.361	0.0070245	0.0073055	0.0022837	942.21	8.2069e-05	8.0596e-05	641.38	211.19	8.1265e-05	8.0156e-05	437.33	113.21	88.682	33.133	8.9726e-05	53.599	122.979	145.233	176.884	-119.775	45.247	67.974	-120.766	-114.303	13.961	175.727	-116.776	-112.934	-111.964	-107.690	-125.355	-109.502	-8191	255	
3222.351	1	1	0	0	0.10084	0.078876	0.48125	0.097404	0.092785	0.19894	0.18893	0.32882	0.066396	0.17074	0.10955	0.14793	0.087515	0.16335	0.098036	0.27136	-2.3563	-2.8958	-2.7208	-3.0062	-2.8688	-2.6479	-3.4188	-2.6854	-2.5604	-3.0375	-2.5625	-2.9417	-2.7375	-2.7729	-3.1	-2.8979	-97.167	24.566	-59.661	176.163	-35.213	206.817	-116.695	-117.261	123.623	125.723	-85.419	26.924	99.369	-120.719	159.591	102.988	0.00027754	0.00089266	0.00040445	379.65	1.0083e-05	1.0844e-05	413.29	123.91	8.8969e-06	6.1275e-06	176.13	73.191	52.33	21.186	7.5865e-06	35.459	0.0068194	0.0074351	0.002326	919.58	7.9749e-05	8.3256e-05	643.06	207.74	7.9596e-05	8.4305e-05	439.77	111.42	88.31	33.844	8.9845e-05	53.321	159.143	70.194	179.530	-119.777	-12.742	-118.392	-120.627	-114.150	-16.020	169.338	-116.497	-113.034	-112.515	-107.826	11.504	-109.491	-8191	255	
3222.445	1	1	0	0	0.18199	0.1384	0.11215	0.10289	0.19362	0.1565	0.2768	0.10485	0.080798	0.078501	0.14856	0.29902	0.11504	0.23077	0.18676	0.084145	-2.2542	-3.1188	-2.7146	-2.8563	-2.7854	-2.7167	-3.2188	-2.6562	-2.7958	-3.15	-2.875	-2.7354	-3.0042	-2.7771	-3.0583	-2.9229	-74.917	-41.692	37.987	39.410	178.163	109.794	-58.810	139.946	-43.444	146.968	128.565	173.852	77.062	37.012	224.344	106.271	0.0005643	0.0016461	0.00061434	386.02	3.6056e-06	8.8743e-06	414.71	125.59	1.7499e-05	2.2664e-05	180.1	74.146	53.105	21.463	2.2755e-05	36.067	0.0067488	0.0078633	0.0022838	905.86	7.8681e-05	8.7398e-05	642.19	207.67	7.9005e-05	8.8662e-05	436.35	112.43	89.582	34.871	8.7699e-05	53.894	152.280	138.527	-76.144	-119.847	-58.433	206.978	-120.531	-114.538	172.311	218.366	-116.358	-112.906	-112.336	-107.482	34.576	-109.401	-8191	255	
3222.543	1	1	0	0	0.14963	0.23176	0.13583	0.070162	0.10266	0.11406	0.13178	0.12795	0.11242	0.040741	0.19315	0.055971	0.024558	0.15963	0.12599	0.073005	-2.2604	-3.1312	-2.8708	-2.8458	-3.0417	-2.85	-3.05	-3.0292	-2.5792	-3.0521	-2.8104	-2.7625	-3.1729	-2.6604	-2.8958	-2.9958	27.304	36.855	87.645	-91.393	162.182	42.303	145.012	132.951	180.032	37.873	47.197	204.564	169.865	122.285	-71.962	176.190	0.00080417	0.00057084	0.00034983	386.73	2.8988e-06	1.5888e-05	419.78	127.3	1.1189e-05	1.5327e-05	179.73	74.491	53.471	21.717	1.6226e-05	36.405	0.0068674	0.0083254	0.0022486	910.57	8.1933e-05	9.2713e-05	641.39	208.7	8.2939e-05	9.315e-05	431.18	112.42	91.242	35.537	8.6396e-05	54.049	113.206	-125.817	-47.541	-119.664	-111.557	163.178	-120.301	-114.262	-82.812	51.109	-115.820	-112.709	-112.356	-107.582	17.921	-109.067	-8191	255	
3222.662	1	1	0	0	0.19438	0.065596	0.28423	0.16482	0.078438	0.3792	0.15247	0.033123	0.31112	0.17417	0.30262	0.096024	0.10643	0.051143	0.053337	0.20122	-2.2667	-3.05	-2.7875	-2.5792	-2.9562	-2.8063	-3.1542	-3.0292	-2.5417	-3.1271	-2.8417	-2.9146	-2.9896	-2.8104	-3.0729	-3.0646	186.207	182.615	-107.001	76.037	151.956	-71.702	41.072	174.681	3.874	192.632	115.484	157.992	173.561	161.547	51.690	153.528	0.00075538	0.001218	0.00016182	386.16	1.0367e-05	4.3189e-06	416.08	125.57	4.1089e-05	2.0255e-05	177.01	73.773	52.782	21.635	2.9472e-05	35.962	0.007265	0.0085271	0.0021967	907.33	8.6499e-05	9.3039e-05	636.52	206.82	8.6991e-05	9.3471e-05	424.65	111.77	92.756	35.156	8.4244e-05	53.465	85.004	14.072	-66.856	-119.769	212.065	32.397	-120.715	-114.656	176.753	90.197	-116.396	-113.147	-112.803	-107.463	-37.527	-109.536	-8191	255	
3222.758	1	1	0	0	0.25258	0.52065	0.14908	0.12172	0.17605	0.27196	0.14305	0.19488	0.22459	0.088414	0.29334	0.037591	0.18299	0.048025	0.088545	0.1099	-2.3271	-3.1188	-2.7104	-2.6292	-3.3604	-2.7	-2.8646	-2.9604	-2.9729	-3.1354	-2.9396	-2.775	-3.0292	-2.975	-2.9417	-3.0396	-55.673	159.051	-55.559	-56.120	165.288	196.907	105.636	-62.206	-99.513	101.583	31.496	-39.708	12.965	216.691	71.289	215.443	0.00090965	0.0021798	0.00059343	386.59	2.1126e-05	7.2323e-06	415.17	124.64	1.8658e-05	2.2688e-05	177.05	73.13	52.674	21.437	1.0982e-05	35.756	0.0076376	0.0083158	0.0021393	903.22	8.9952e-05	8.9974e-05	629.28	205.71	9.0081e-05	8.8962e-05	415.63	111.16	93.554	34.402	8.1489e-05	53.386	112.936	-32.761	-48.624	-120.222	191.892	19.012	-120.471	-114.251	200.518	13.195	-116.099	-113.033	-112.163	-107.629	53.816	-109.446	-8191	255	
3222.830	1	1	0	0	0.035707	0.083617	0.13531	0.34164	0.089476	0.2271	0.18752	0.10842	0.088324	0.14709	0.075852	0.020658	0.079793	0.15708	0.42014	0.21961	-2.3125	-3.0146	-2.9813	-2.7375	-3.0979	-2.7771	-2.7854	-3.0479	-2.8812	-3.025	-3.0312	-2.6688	-3.1792	-3.0312	-2.9167	-3.1729	39.542	-85.271	47.429	120.878	182.066	151.364	-24.652	-129.098	-62.238	-78.498	108.546	-80.565	-128.377	-132.691	168.829	34.098	0.00047177	0.0028399	0.0002501	384.15	3.0705e-06	3.3336e-05	415.7	127.02	8.2232e-06	6.5984e-06	178.21	74.108	53.877	21.734	1.5796e-05	36.075	0.0077635	0.0079921	0.0020858	915.13	9.1785e-05	8.5806e-05	626.98	209.99	9.1199e-05	8.5541e-05	412.2	113.49	94.738	34.348	8.0133e-05	54.5	140.743	-50.188	-16.138	-120.453	-6.699	6.790	-120.274	-114.764	-103.925	50.568	-116.231	-113.248	-112.078	-107.380	70.908	-109.454	-8191	255	
3222.926	1	1	0	0	0.21284	0.057361	0.18252	0.17596	0.10279	0.022361	0.3293	0.11715	0.21153	0.063291	0.13259	0.21575	0.1992	0.10522	0.2803	0.31117	-2.1375	-2.8375	-3.0792	-2.6729	-3.2188	-2.8563	-2.5812	-2.9625	-2.7354	-2.9688	-3.2333	-2.8917	-2.9938	-2.7583	-2.8583	-3.175	121.159	-106.723	-13.559	183.579	65.101	-110.326	205.794	75.401	-64.580	10.558	69.724	175.014	200.067	-113.802	86.739	129.731	0.00052422	0.0015844	0.00039116	385.76	2.0579e-05	9.5621e-06	421.47	128.38	2.5981e-05	1.4775e-05	183.47	74.491	54.782	21.755	8.0105e-06	36.357	0.0076851	0.0076923	0.0020237	942.57	9.0557e-05	8.3393e-05	630.35	215.74	8.8926e-05	8.386e-05	414.44	116.07	94.382	34.188	7.9959e-05	55.476	155.207	-37.476	81.465	-120.409	28.996	45.446	-120.694	-114.676	-13.714	24.587	-117.154	-113.139	-111.983	-107.480	-114.085	-109.273	-8191	255	
#DATA ENDS
