BOXY.EXE: ISS Imagent and Oximeter Data Acquisition Program Version 0.80
Ascii Record File

#ACQ INFORMATION
2  Detector Channels 
16  External MUX Channels 
1  Auxiliary Channels 
5000  Waveform (CCF) Frequency (Hz)
1  Waveforms Skipped 
30  Waveforms Averaged 
1  Cycles Averaged 
16  Acquisitions per Waveform 
10.0806  Updata Rate (Hz) 

#FILE INFORMATION
TRUE -- External MUX Channel results are PARSED.
FALSE -- AC DC and Phase are NOT grouped.
TRUE -- Companion Program Settings File CREATED.
FALSE -- AC data not excluded
FALSE -- DC data not excluded
FALSE -- Phase data not excluded
FALSE -- Auxillary Chn. data not excluded
Tab delimiters

#CALIBRATION STATE
TRUE -- Waveform Calibration Values APPLIED.


#AUX CALIBRATION VALUES
Val Type	aux-1	

Term	1.0000e+00	
Factor	0.0000e+00	


#WF CALIBRATION VALUES
A = Detector Channel
Val Type	A-AC1	A-AC2	A-AC3	A-AC4	A-AC5	A-AC6	A-AC7	A-AC8	A-AC9	A-AC10	A-AC11	A-AC12	A-AC13	A-AC14	A-AC15	A-AC16	A-DC1	A-DC2	A-DC3	A-DC4	A-DC5	A-DC6	A-DC7	A-DC8	A-DC9	A-DC10	A-DC11	A-DC12	A-DC13	A-DC14	A-DC15	A-DC16	A-Ph1	A-Ph2	A-Ph3	A-Ph4	A-Ph5	A-Ph6	A-Ph7	A-Ph8	A-Ph9	A-Ph10	A-Ph11	A-Ph12	A-Ph13	A-Ph14	A-Ph15	A-Ph16	

Term	0.00000e+00	0.00000e+00	0.00000e+00	0.00000e+00	0.00000e+00	0.00000e+00	0.00000e+00	0.00000e+00	0.00000e+00	0.00000e+00	0.00000e+00	0.00000e+00	0.00000e+00	0.00000e+00	0.00000e+00	0.00000e+00	0.00000e+00	0.00000e+00	0.00000e+00	0.00000e+00	0.00000e+00	0.00000e+00	0.00000e+00	0.00000e+00	0.00000e+00	0.00000e+00	0.00000e+00	0.00000e+00	0.00000e+00	0.00000e+00	0.00000e+00	0.00000e+00	0.00000e+00	0.00000e+00	0.00000e+00	0.00000e+00	0.00000e+00	0.00000e+00	0.00000e+00	0.00000e+00	0.00000e+00	0.00000e+00	0.00000e+00	0.00000e+00	0.00000e+00	0.00000e+00	0.00000e+00	0.00000e+00	
Factor	1.00000e+00	1.00000e+00	1.00000e+00	1.00000e+00	1.00000e+00	1.00000e+00	1.00000e+00	1.00000e+00	1.00000e+00	1.00000e+00	1.00000e+00	1.00000e+00	1.00000e+00	1.00000e+00	1.00000e+00	1.00000e+00	1.00000e+00	1.00000e+00	1.00000e+00	1.00000e+00	1.00000e+00	1.00000e+00	1.00000e+00	1.00000e+00	1.00000e+00	1.00000e+00	1.00000e+00	1.00000e+00	1.00000e+00	1.00000e+00	1.00000e+00	1.00000e+00	X	X	X	X	X	X	X	X	X	X	X	X	X	X	X	X	

B = Detector Channel
Val Type	B-AC1	B-AC2	B-AC3	B-AC4	B-AC5	B-AC6	B-AC7	B-AC8	B-AC9	B-AC10	B-AC11	B-AC12	B-AC13	B-AC14	B-AC15	B-AC16	B-DC1	B-DC2	B-DC3	B-DC4	B-DC5	B-DC6	B-DC7	B-DC8	B-DC9	B-DC10	B-DC11	B-DC12	B-DC13	B-DC14	B-DC15	B-DC16	B-Ph1	B-Ph2	B-Ph3	B-Ph4	B-Ph5	B-Ph6	B-Ph7	B-Ph8	B-Ph9	B-Ph10	B-Ph11	B-Ph12	B-Ph13	B-Ph14	B-Ph15	B-Ph16	

Term	0.00000e+00	0.00000e+00	0.00000e+00	0.00000e+00	0.00000e+00	0.00000e+00	0.00000e+00	0.00000e+00	0.00000e+00	0.00000e+00	0.00000e+00	0.00000e+00	0.00000e+00	0.00000e+00	0.00000e+00	0.00000e+00	0.00000e+00	0.00000e+00	0.00000e+00	0.00000e+00	0.00000e+00	0.00000e+00	0.00000e+00	0.00000e+00	0.00000e+00	0.00000e+00	0.00000e+00	0.00000e+00	0.00000e+00	0.00000e+00	0.00000e+00	0.00000e+00	8.46578e+01	-1.29976e+02	-1.28913e+02	-1.82245e+02	-8.85818e+01	-6.99744e+01	-1.59545e+02	-1.62015e+02	-6.78612e+01	-6.70692e+01	-1.73581e+02	-1.72846e+02	-1.88869e+02	-1.78099e+02	-7.30646e+01	-1.50538e+02	
Factor	7.38116e-05	2.11506e-04	5.81731e-05	1.66666e-01	2.97355e-06	2.33124e-06	2.08068e-01	7.32009e-02	3.78836e-06	2.32691e-06	1.33904e-01	3.72556e-02	4.39331e-02	1.07740e-02	2.74621e-06	1.56278e-02	2.35785e-05	4.15781e-05	1.15262e-05	8.37818e-02	3.77995e-07	4.73963e-07	9.73646e-02	3.68828e-02	3.96265e-07	4.67267e-07	6.56016e-02	1.81804e-02	2.20209e-02	5.48808e-03	4.14571e-07	7.72833e-03	X	X	X	X	X	X	X	X	X	X	X	X	X	X	X	X	



#DISTANCE SETTINGS
A = Detector Channel
A-1	A-2	A-3	A-4	A-5	A-6	A-7	A-8	A-9	A-10	A-11	A-12	A-13	A-14	A-15	A-16	

2.5000e+00	3.0000e+00	2.5000e+00	3.0000e+00	2.0000e+00	3.0000e+00	1.5000e+00	3.0000e+00	3.0000e+00	3.0000e+00	3.0000e+00	3.0000e+00	3.0000e+00	3.0000e+00	1.5000e+00	3.0000e+00	

B = Detector Channel
B-1	B-2	B-3	B-4	B-5	B-6	B-7	B-8	B-9	B-10	B-11	B-12	B-13	B-14	B-15	B-16	

1.0000e+01	1.0000e+01	1.0000e+01	1.4400e+00	1.0000e+01	1.0000e+01	1.5100e+00	1.9400e+00	1.0000e+01	1.0000e+01	1.9900e+00	2.4900e+00	2.4100e+00	2.9000e+00	1.0000e+01	2.9800e+00	




#DATA BEGINS
time	group	step	mark	flag	A-AC1	A-AC2	A-AC3	A-AC4	A-AC5	A-AC6	A-AC7	A-AC8	A-AC9	A-AC10	A-AC11	A-AC12	A-AC13	A-AC14	A-AC15	A-AC16	A-DC1	A-DC2	A-DC3	A-DC4	A-DC5	A-DC6	A-DC7	A-DC8	A-DC9	A-DC10	A-DC11	A-DC12	A-DC13	A-DC14	A-DC15	A-DC16	A-Ph1	A-Ph2	A-Ph3	A-Ph4	A-Ph5	A-Ph6	A-Ph7	A-Ph8	A-Ph9	A-Ph10	A-Ph11	A-Ph12	A-Ph13	A-Ph14	A-Ph15	A-Ph16	B-AC1	B-AC2	B-AC3	B-AC4	B-AC5	B-AC6	B-AC7	B-AC8	B-AC9	B-AC10	B-AC11	B-AC12	B-AC13	B-AC14	B-AC15	B-AC16	B-DC1	B-DC2	B-DC3	B-DC4	B-DC5	B-DC6	B-DC7	B-DC8	B-DC9	B-DC10	B-DC11	B-DC12	B-DC13	B-DC14	B-DC15	B-DC16	B-Ph1	B-Ph2	B-Ph3	B-Ph4	B-Ph5	B-Ph6	B-Ph7	B-Ph8	B-Ph9	B-Ph10	B-Ph11	B-Ph12	B-Ph13	B-Ph14	B-Ph15	B-Ph16	aux-1	digaux	

35738.895	1	1	0	256	0.17915	0.16684	0.15698	0.23263	0.18157	0.23795	0.19483	0.23853	0.28415	0.091353	0.02805	0.11758	0.12434	0.08347	0.12444	0.22972	-1.6042	-2.1667	-2.2313	-2.0854	-2.3563	-2.3354	-2.0583	-2.3917	-2.0896	-2.1979	-2.35	-1.9479	-2.4479	-2.2604	-2.1042	-2.3854	320.443	268.855	408.205	146.376	184.580	170.909	411.715	360.147	287.261	275.650	292.136	177.414	314.018	438.749	321.165	414.379	0.00095063	0.00034466	9.9229e-05	1147.9	5.6558e-06	2.5361e-06	1254	240.8	6.8123e-06	2.9415e-06	304.27	85.155	67.308	19.377	5.1312e-06	26.825	0.00053351	0.00055992	0.00015632	1142.7	5.8062e-06	6.282e-06	1247.5	239.23	5.5659e-06	5.9761e-06	304	85.705	67.429	19.803	5.639e-06	27.531	403.642	235.408	245.153	152.381	262.534	299.868	152.190	160.224	278.763	269.582	159.321	166.264	166.399	174.242	290.864	173.035	-8191	255	
35738.992	1	1	0	0	0.090151	0.23677	0.11604	0.30662	0.077482	0.26728	0.11732	0.36246	0.17532	0.12045	0.13274	0.10366	0.053936	0.36364	0.29463	0.15945	-1.5667	-1.9792	-2.3083	-2.1	-2.3	-2.2	-1.9479	-2.2458	-2.0292	-2.1125	-2.6917	-2.2	-2.2833	-2.4583	-1.9833	-2.3521	484.875	502.270	260.650	159.433	145.147	324.949	164.075	386.176	475.657	348.742	290.270	170.793	170.500	336.804	492.607	210.307	0.0010192	0.00035109	0.00011366	1152.1	6.6051e-06	3.6839e-06	1250.4	238.47	7.4506e-06	3.5718e-06	301.98	85.316	67.456	19.364	4.3693e-06	26.97	0.00053337	0.00057265	0.00015059	1141.4	5.7219e-06	6.0588e-06	1244.8	239.06	5.7607e-06	6.2254e-06	302.67	85.545	67.516	19.731	5.9232e-06	27.581	406.175	243.150	237.298	152.434	254.253	290.963	152.269	160.352	277.098	309.241	159.458	165.990	166.307	173.452	302.218	173.031	-8191	255	
35739.090	1	1	0	0	0.13551	0.10819	0.17147	0.055272	0.1674	0.23715	0.29937	0.20611	0.18542	0.15847	0.356	0.25345	0.17681	0.27369	0.065098	0.30997	-1.6979	-2.0604	-2.1083	-2.1479	-2.2062	-2.3542	-2.2	-2.4292	-2.1292	-2.2208	-2.3042	-2.025	-2.2208	-2.4354	-2.0312	-2.275	365.359	154.732	463.081	172.340	347.668	264.384	446.401	207.552	253.235	297.422	172.536	464.897	487.280	434.198	460.675	422.738	0.0010033	0.00037036	6.7215e-05	1143.9	4.2408e-06	2.0657e-06	1251.3	238.73	7.2439e-06	3.2822e-06	300.91	84.867	67.073	19.357	4.0246e-06	26.821	0.00053233	0.00056875	0.00015784	1138.9	5.7605e-06	6.2573e-06	1242.8	238.41	5.7822e-06	6.1017e-06	302.34	85.327	67.267	19.715	5.9629e-06	27.497	405.191	220.129	229.773	152.581	278.751	256.630	152.283	159.944	271.496	275.190	159.546	165.923	166.504	174.044	268.076	173.355	-8191	255	
35739.207	1	1	0	0	0.10913	0.1807	0.085068	0.1356	0.03332	0.1802	0.21992	0.028919	0.1463	0.42174	0.17698	0.25806	0.22374	0.051817	0.21038	0.20149	-1.7125	-1.9521	-2.5396	-2.275	-1.9792	-2.4042	-2.0312	-2.3354	-2.4146	-1.9375	-2.5167	-2.1479	-2.2854	-2.3937	-2.1792	-2.3917	197.584	460.342	165.905	460.721	182.166	337.329	176.738	371.299	293.219	200.827	415.141	202.492	479.119	363.901	444.329	364.423	0.00096179	0.00030002	0.00010048	1144.8	6.4944e-06	2.7902e-06	1253.6	238.52	6.5557e-06	3.3243e-06	300.78	85.094	67.235	19.24	2.4891e-06	26.698	0.00053115	0.00059119	0.00014972	1140.3	5.992e-06	5.9946e-06	1243.1	238.62	5.4701e-06	6.1952e-06	302.51	85.492	67.465	19.724	5.6701e-06	27.481	406.486	201.167	233.656	152.330	238.251	322.912	152.131	160.040	259.570	271.583	159.456	166.376	166.330	174.405	289.809	173.883	-8191	255	
35739.305	1	1	0	0	0.19262	0.15095	0.23123	0.17763	0.21505	0.51857	0.43852	0.12883	0.21336	0.085094	0.22444	0.020535	0.12122	0.13253	0.20359	0.27502	-1.875	-2.0125	-2.3146	-2.2646	-2.1542	-2.375	-2.0646	-2.2854	-2.1646	-1.8333	-2.5	-2.0833	-2.0896	-2.3833	-1.9562	-2.3229	309.947	200.987	376.988	451.251	320.422	321.934	432.433	403.208	329.705	213.330	370.303	184.916	387.355	333.471	262.269	209.655	0.00093866	0.00030292	5.6912e-05	1146.8	5.8278e-06	3.4373e-06	1249.4	238.33	3.7842e-06	3.5682e-06	299.5	85.491	67.268	19.368	3.549e-06	26.571	0.00052054	0.00055983	0.00015147	1140.6	5.9652e-06	5.8139e-06	1242.3	238.45	5.8532e-06	5.9304e-06	302.2	85.507	67.278	19.72	5.5639e-06	27.467	405.584	222.473	246.694	152.483	259.962	302.432	152.286	159.930	286.632	297.579	159.356	166.057	166.305	174.229	270.995	173.503	-8191	255	
35739.398	1	1	0	0	0.23514	0.21972	0.17008	0.35103	0.21166	0.091408	0.10999	0.099565	0.19906	0.14697	0.23008	0.26853	0.29565	0.22708	0.15195	0.30764	-1.9458	-1.9208	-2.1875	-2.4271	-2.0354	-2.4021	-2.075	-2.0521	-2.3708	-1.95	-2.4354	-2.375	-2.0604	-2.4479	-2.2167	-2.3917	286.573	364.440	467.313	442.721	496.344	300.290	364.185	198.136	157.416	244.917	355.407	193.002	462.495	468.420	154.439	212.844	0.00093113	0.00032768	4.2773e-05	1144.6	7.4014e-06	3.313e-06	1250.1	238.8	5.0589e-06	3.5172e-06	300.31	84.808	67.085	19.189	3.4218e-06	26.856	0.00051092	0.00054649	0.00013668	1139.1	5.9243e-06	5.7271e-06	1241.3	238.14	5.5502e-06	5.9732e-06	301.24	85.281	67.325	19.669	5.6425e-06	27.55	404.953	230.436	236.143	152.451	249.079	308.579	152.285	159.935	263.084	288.749	159.820	166.030	166.519	173.835	281.930	172.998	-8191	255	
35739.473	1	1	0	0	0.15229	0.087775	0.17502	0.20481	0.18503	0.32639	0.18043	0.097905	0.12405	0.15863	0.18263	0.29224	0.10294	0.13541	0.16592	0.070881	-1.8875	-1.9958	-2.3021	-2.3333	-1.9208	-2.3708	-2.2104	-2.1479	-2.4458	-2.1583	-2.4521	-2.225	-1.9	-2.4083	-2.1583	-2.0646	283.961	168.692	225.542	163.710	328.602	173.719	466.693	399.898	341.845	318.097	464.056	193.978	452.388	146.898	331.977	398.508	0.0010112	0.00016433	0.00011694	1143.4	4.1291e-06	2.7474e-06	1250.5	237.59	9.904e-06	2.1123e-06	301.74	84.696	67.077	19.248	4.3551e-06	26.712	0.0005231	0.00055515	0.00014374	1137.3	5.9251e-06	5.8959e-06	1242.6	237.81	5.7178e-06	5.8467e-06	302.09	85.204	67.143	19.676	5.5086e-06	27.424	406.323	224.458	238.031	152.242	231.770	299.104	152.324	160.089	261.489	307.806	159.398	166.201	166.244	174.193	266.075	173.244	-8191	255	
35739.590	1	1	0	0	0.14975	0.075277	0.090289	0.32798	0.32251	0.26141	0.025478	0.15026	0.26501	0.18711	0.19156	0.067961	0.029093	0.097711	0.14789	0.054386	-1.7542	-1.9667	-2.1312	-2.3521	-2.0854	-2.175	-2.2625	-2.1646	-2.3854	-2.0167	-2.3625	-2.25	-2.0854	-2.3042	-2.4479	-2.2583	437.046	167.285	240.428	448.613	433.389	468.751	431.378	265.917	294.320	395.408	357.210	387.294	466.506	248.852	445.933	430.745	0.00096253	0.00024012	5.0226e-05	1141.7	5.283e-06	4.6758e-07	1248.6	237.96	7.5622e-06	2.4741e-06	298.76	84.534	66.789	19.21	3.5633e-06	26.76	0.00051897	0.00054459	0.00014888	1138	5.6077e-06	5.6974e-06	1240.6	237.47	5.4016e-06	5.7873e-06	300.98	85.057	66.995	19.662	5.4982e-06	27.48	404.900	238.522	243.393	152.504	244.520	310.781	152.224	160.049	272.625	299.588	159.595	165.738	166.785	174.234	271.212	173.363	-8191	255	
35739.688	1	1	0	0	0.043592	0.14861	0.14386	0.18925	0.22277	0.15145	0.16314	0.20175	0.09139	0.12463	0.054162	0.079412	0.040293	0.16798	0.13556	0.15371	-1.9167	-1.9	-2.1021	-2.4458	-1.9583	-2.2875	-2.3312	-2.0521	-2.475	-2.1167	-2.1854	-2.3896	-2.1625	-2.5604	-2.3146	-2.1063	441.147	224.110	455.776	146.387	225.477	407.192	496.893	460.381	352.472	187.642	421.929	290.806	299.151	349.422	157.358	389.137	0.0010281	0.00046021	8.5114e-05	1139	4.8988e-06	1.562e-06	1245.1	238.51	5.6558e-06	3.203e-06	299.49	85.297	67.243	19.212	4.3718e-06	26.846	0.00051897	0.000549	0.00014811	1136.8	5.7432e-06	6.0223e-06	1238.4	237.44	5.461e-06	5.8107e-06	300.85	85.274	67.006	19.676	5.4317e-06	27.505	403.185	239.020	248.082	152.416	241.234	355.233	152.119	160.006	273.732	276.379	159.543	166.329	166.419	174.358	274.151	173.293	-8191	255	
35739.781	1	1	0	0	0.050916	0.16521	0.087979	0.018705	0.28319	0.19735	0.16401	0.094847	0.16277	0.19045	0.29259	0.084308	0.26914	0.16221	0.21265	0.0047129	-1.8833	-2.1375	-1.9854	-2.45	-1.9729	-2.25	-2.3812	-2.0354	-2.3917	-2.1542	-2.1937	-2.4062	-2.0083	-2.2271	-2.2521	-2.0875	434.637	284.237	214.133	153.206	253.282	334.964	406.684	418.090	349.408	486.960	183.901	414.604	240.446	294.995	192.933	489.482	0.0009499	0.00029901	9.0814e-05	1138	5.5758e-06	4.9131e-06	1247.7	237.2	5.2812e-06	2.3426e-06	299.35	84.183	66.984	19.324	4.0763e-06	26.602	0.00051539	0.00055316	0.00015904	1135.6	5.6676e-06	6.0045e-06	1239.1	237.22	5.5749e-06	5.6812e-06	300.85	85.037	67.167	19.64	5.4715e-06	27.455	403.988	248.497	259.964	152.227	255.178	265.795	152.231	160.295	313.802	263.695	159.243	166.080	166.425	173.930	291.672	173.165	-8191	255	
35739.879	1	1	0	0	0.3057	0.039263	0.19449	0.2167	0.13283	0.15722	0.26519	0.054696	0.064283	0.14062	0.10936	0.30199	0.072096	0.3012	0.10766	0.092871	-2.1063	-2.0167	-2.0438	-2.6458	-2.1333	-2.4437	-2.4708	-2.0083	-2.3979	-2.2938	-2.1667	-2.4229	-1.9604	-2.0854	-2.3063	-2.1458	278.602	226.603	288.443	340.099	233.104	372.344	157.766	292.211	449.557	268.872	241.563	254.925	260.662	179.061	359.047	402.108	0.00097317	0.00022442	7.4668e-05	1141	5.8235e-06	2.7039e-06	1243.9	238.03	5.6722e-06	2.6024e-06	298.64	84.523	66.51	19.378	3.8974e-06	26.739	0.0005341	0.00054181	0.00015642	1135.4	5.6282e-06	6.0855e-06	1238.7	237.05	5.4965e-06	6.0599e-06	300.49	85.055	66.983	19.705	5.5734e-06	27.392	406.227	243.697	242.226	152.345	268.754	260.811	152.283	160.065	265.046	246.813	159.741	166.233	166.538	173.930	256.041	173.157	-8191	255	
35739.977	1	1	0	0	0.27575	0.016405	0.25592	0.28117	0.011038	0.36769	0.44594	0.36942	0.18189	0.093274	0.23221	0.18203	0.29691	0.17214	0.081374	0.15401	-1.9	-2.2292	-1.8417	-2.4292	-2.0667	-1.9833	-2.4062	-2.1021	-2.2104	-2.3688	-2.0854	-2.4333	-2.0979	-2.025	-2.3542	-1.9583	157.242	305.277	430.278	487.029	442.048	481.340	445.492	392.295	185.344	294.294	394.332	478.905	450.067	438.831	373.942	487.659	0.00090979	0.0003323	9.7781e-05	1142.4	5.7174e-06	2.3597e-06	1247.5	236.24	6.3243e-06	2.2269e-06	299.6	84.326	66.711	19.235	4.1702e-06	26.745	0.0005037	0.00057828	0.00015171	1137.7	5.9511e-06	6.0697e-06	1240	236.87	5.783e-06	6.4084e-06	301.09	85.019	67.042	19.662	5.7064e-06	27.452	407.686	229.764	234.606	152.515	243.093	278.834	152.299	160.014	276.811	266.643	159.418	166.402	166.414	173.846	297.880	173.431	-8191	255	
35740.070	1	1	0	0	0.40888	0.22049	0.059082	0.16582	0.063882	0.21982	0.17039	0.32168	0.19987	0.12722	0.12758	0.34365	0.11913	0.19952	0.21516	0.22857	-1.9417	-2.2396	-1.9896	-2.4042	-2.075	-2.1417	-2.4958	-2.1458	-2.2083	-2.2687	-1.8937	-2.3958	-2.1167	-2.15	-2.4979	-2.1896	223.699	373.596	391.805	428.395	438.977	275.431	360.020	495.447	471.278	499.003	427.542	146.863	458.384	172.274	372.950	277.706	0.00096377	0.0004983	7.1109e-05	1142.4	5.7078e-06	3.4179e-06	1248.6	236.91	5.4803e-06	3.8179e-06	299.18	84.474	66.61	19.23	3.2962e-06	26.657	0.00053577	0.00059569	0.00015863	1137.4	5.7951e-06	6.5269e-06	1240.3	236.9	5.8812e-06	6.0764e-06	300.95	85.172	67.059	19.638	5.6071e-06	27.453	402.049	209.923	243.608	152.432	238.779	307.397	152.449	160.163	249.064	327.383	159.699	165.979	166.332	173.623	290.618	173.060	-8191	255	
35740.168	1	1	0	0	0.25748	0.25916	0.15158	0.29307	0.16946	0.28284	0.13777	0.20314	0.17919	0.14806	0.34076	0.19686	0.097269	0.091572	0.056119	0.33087	-1.5521	-2.3646	-1.9417	-2.4437	-2.2396	-2.1042	-2.4	-2.0938	-2.1083	-2.4542	-2.1646	-2.3271	-2.1542	-1.9729	-2.3021	-2.2542	245.236	234.395	157.369	393.675	443.689	214.175	408.171	146.069	167.202	347.226	209.873	469.290	469.698	496.852	145.470	361.031	0.0010209	0.00029217	0.00011126	1141.7	8.0725e-06	4.8444e-06	1251.9	237.98	9.283e-06	1.8026e-06	300.68	84.806	66.749	19.187	4.8341e-06	26.709	0.00055444	0.00056945	0.00015688	1136.9	6.196e-06	6.2099e-06	1241.6	237.54	5.7475e-06	5.8827e-06	301.17	85.047	66.974	19.622	5.4516e-06	27.399	407.872	212.484	241.739	152.318	251.550	287.439	152.243	160.281	261.009	283.534	159.611	166.353	165.996	174.152	272.495	173.336	-8191	255	
35740.289	1	1	0	0	0.14796	0.14176	0.20073	0.095991	0.090228	0.17887	0.17666	0.14696	0.14554	0.19692	0.2393	0.44853	0.29437	0.15648	0.22813	0.085016	-1.7021	-2.4271	-1.8979	-2.3396	-2.3229	-1.9542	-2.3833	-2.0458	-1.9479	-2.325	-2.0729	-2.1708	-2.3187	-1.8958	-2.4479	-2.1583	234.065	434.133	246.353	428.836	274.919	451.109	436.778	293.297	419.378	373.136	478.184	142.245	291.644	479.701	320.156	224.829	0.0010644	0.00039207	3.0408e-05	1139.3	5.8125e-06	3.4373e-06	1242.9	237.63	8.6199e-06	3.4163e-06	300.99	84.478	67.185	19.222	5.2872e-06	26.968	0.00055277	0.00057369	0.00016041	1135.6	5.7605e-06	6.3975e-06	1239.9	237.36	5.868e-06	5.9508e-06	300.95	85.054	67.164	19.709	5.3877e-06	27.499	405.184	250.288	251.033	152.334	234.098	294.693	152.363	159.917	282.962	302.852	159.448	166.121	166.438	173.823	307.186	173.456	-8191	255	
35740.383	1	1	0	0	0.17738	0.074518	0.13512	0.12385	0.23695	0.084709	0.12481	0.0692	0.13391	0.32024	0.15051	0.088596	0.14634	0.16921	0.19769	0.13361	-1.6167	-2.2229	-2.1333	-2.3292	-2.1333	-1.8438	-2.1667	-2.1875	-1.9375	-2.4813	-2.0979	-2.2396	-2.2938	-1.9854	-2.1917	-2.2583	324.075	369.487	462.030	433.485	391.186	455.668	475.105	359.180	353.255	463.221	164.134	339.098	341.758	407.108	165.991	278.932	0.00093495	0.00026509	0.00010828	1140.6	5.0575e-06	1.4336e-06	1247.4	238.07	6.2952e-06	3.4152e-06	299.39	85.14	66.857	19.188	4.9153e-06	26.789	0.00053179	0.00052692	0.00015157	1136	5.9826e-06	6.2277e-06	1240.4	236.97	5.75e-06	5.9284e-06	300.53	85.122	66.84	19.669	5.6874e-06	27.465	405.647	262.969	219.373	152.255	236.880	284.130	152.229	159.842	285.009	263.868	159.324	166.291	166.614	174.052	265.285	173.603	-8191	255	
35740.480	1	1	0	0	0.14172	0.24234	0.29059	0.2269	0.27832	0.065997	0.036391	0.13532	0.079728	0.019416	0.18307	0.12097	0.082179	0.1176	0.28743	0.27376	-1.35	-2.2938	-2.1583	-2.25	-2.3292	-2.0542	-2.3563	-2.2625	-1.8	-2.3646	-2.0604	-2.1063	-2.2833	-2.075	-2.1937	-2.2792	472.928	282.100	147.241	144.983	359.481	238.304	436.297	467.829	501.133	435.867	280.276	209.805	272.777	170.486	410.389	204.207	0.0009278	0.00013306	8.6842e-05	1141.1	4.8855e-06	3.5769e-06	1248.2	237.03	1.0343e-05	4.7372e-06	297.72	85.008	66.73	19.336	3.6782e-06	26.607	0.00052993	0.00050708	0.00015126	1135.8	5.6164e-06	6.0134e-06	1239.3	237.2	5.7681e-06	5.7669e-06	300.58	85.092	66.979	19.652	5.5751e-06	27.41	398.478	262.622	225.982	152.416	262.946	295.405	152.334	160.211	287.293	289.508	159.624	166.221	166.600	173.989	264.171	173.022	-8191	255	
35740.574	1	1	0	0	0.15939	0.093135	0.1488	0.25243	0.12269	0.029679	0.38501	0.20601	0.037704	0.032162	0.1234	0.14602	0.11505	0.20165	0.22309	0.20284	-1.3896	-2.2229	-2.0687	-1.9646	-2.3896	-1.7646	-2.4521	-2.3896	-2.0938	-2.4792	-2.1875	-2.2125	-2.3542	-2.05	-2.3208	-2.3333	461.330	376.316	294.110	156.029	264.631	395.081	436.518	467.136	344.959	422.796	203.211	476.635	369.220	287.434	478.595	268.250	0.00094006	0.00034376	3.639e-05	1141.5	6.3786e-06	2.0181e-06	1242.5	237.97	7.906e-06	3.4247e-06	299.34	84.559	66.885	19.317	4.4793e-06	26.837	0.00053278	0.00053471	0.00013822	1136.7	5.603e-06	5.8643e-06	1239.1	237.08	5.6781e-06	5.9323e-06	300.9	85.172	66.903	19.685	5.5242e-06	27.496	403.055	244.752	224.108	152.441	258.009	273.071	152.571	159.860	283.002	269.513	159.283	166.148	166.108	173.817	276.156	173.375	-8191	255	
35740.695	1	1	0	0	0.30244	0.16309	0.22887	0.2973	0.11179	0.19956	0.30964	0.16252	0.046357	0.19048	0.16172	0.24869	0.07888	0.22648	0.23259	0.17897	-1.5229	-2.1604	-2.0708	-2.2104	-2.3229	-2.1583	-2.2833	-2.3354	-1.8896	-2.1542	-2.2375	-1.9958	-2.3063	-2.1833	-2.1271	-2.3208	495.776	486.253	368.580	438.186	497.725	272.629	147.053	457.181	278.131	250.145	274.072	482.361	493.626	292.583	371.413	392.160	0.00090768	0.00029585	9.0059e-05	1142.6	5.771e-06	3.6641e-06	1247.3	238.9	1.1883e-05	2.6364e-06	300.09	84.669	67.106	19.424	3.7593e-06	26.547	0.00052403	0.00051886	0.00014405	1138	5.6172e-06	5.8317e-06	1240.5	237.59	5.4685e-06	5.6179e-06	300.6	85.204	67.094	19.765	5.7634e-06	27.381	404.514	210.089	219.720	152.425	252.274	313.052	152.299	160.171	280.175	286.840	159.634	166.305	166.444	174.203	290.193	173.545	-8191	255	
35740.770	1	1	0	0	0.18757	0.25769	0.18212	0.24403	0.10592	0.10429	0.32844	0.038829	0.096315	0.093637	0.2227	0.19524	0.21658	0.12343	0.085953	0.10667	-1.5083	-2.4062	-2.2104	-2.0708	-2.4354	-1.9333	-2.15	-2.3667	-1.9104	-2.3021	-2.3438	-1.825	-2.2438	-2.2313	-2.0083	-2.4813	323.523	327.198	458.807	473.448	476.572	286.987	425.552	188.027	308.335	361.062	433.290	447.712	264.459	417.651	266.353	226.542	0.00091189	0.0005591	5.5434e-05	1139.3	6.8979e-06	4.1628e-06	1245.8	236.95	8.0704e-06	2.8298e-06	300.23	84.471	66.649	19.284	3.523e-06	26.598	0.0005062	0.00052215	0.00014264	1136.1	5.5093e-06	6.1092e-06	1238.7	236.85	5.4792e-06	5.6413e-06	300.99	84.958	67.061	19.664	5.7098e-06	27.444	405.629	206.778	216.693	152.451	255.757	299.751	152.430	159.887	300.934	327.124	159.458	166.329	166.738	174.125	285.446	173.394	-8191	255	
35740.887	1	1	0	0	0.13802	0.20507	0.011295	0.25315	0.43206	0.15186	0.11222	0.17526	0.18888	0.075491	0.1691	0.068803	0.049363	0.26732	0.22276	0.15614	-1.6042	-2.3083	-2.2896	-2.0583	-2.2354	-2.0271	-2.1688	-2.3312	-1.95	-2.3104	-2.4521	-2.0604	-2.3937	-2.2583	-1.8583	-2.3063	272.331	343.753	346.512	443.993	428.192	355.220	395.668	466.559	299.685	357.048	366.119	344.685	263.116	306.863	455.003	490.836	0.000981	0.00018633	0.0001068	1144.9	5.372e-06	9.4857e-07	1245.9	236.89	7.9695e-06	3.0774e-06	298.32	84.718	66.453	19.17	3.003e-06	26.785	0.0005034	0.00052085	0.00014122	1135.6	5.4605e-06	5.8436e-06	1237.8	236.9	5.357e-06	5.944e-06	300.83	84.964	66.791	19.611	5.506e-06	27.464	404.604	238.647	233.569	152.468	251.907	282.878	152.137	160.219	292.307	266.362	159.183	166.277	166.451	174.155	284.451	173.336	-8191	255	
35740.984	1	1	0	0	0.14412	0.16562	0.2228	0.14839	0.30819	0.14883	0.27976	0.058691	0.22457	0.052098	0.19966	0.036902	0.15694	0.1087	0.013281	0.038149	-1.6771	-2.075	-2.4417	-2.1417	-2.1792	-2.1125	-2.1083	-2.3667	-2.1104	-2.0792	-2.4458	-2.0917	-2.0521	-2.2542	-1.8417	-2.3521	242.965	201.047	361.273	189.901	365.725	274.620	411.964	361.583	459.161	493.947	229.788	278.997	451.903	375.352	478.391	184.172	0.00092343	0.00016281	5.8502e-05	1143.2	4.4211e-06	2.1673e-06	1242.9	238.1	6.074e-06	4.1921e-06	298.89	84.725	66.643	19.209	2.4347e-06	26.771	0.00049947	0.00052388	0.00013851	1134.1	5.5683e-06	5.806e-06	1237.8	237.51	5.3471e-06	5.9781e-06	300.3	85.07	66.929	19.613	5.2763e-06	27.388	406.182	235.270	236.279	152.381	252.685	277.395	152.116	160.008	268.828	279.095	159.623	166.230	166.132	174.276	275.959	173.474	-8191	255	
35741.082	1	1	0	0	0.31144	0.16217	0.25433	0.12806	0.11273	0.19395	0.18679	0.19116	0.084583	0.20029	0.2987	0.027317	0.20783	0.036544	0.083573	0.43294	-1.5083	-2.0167	-2.2417	-2.0083	-2.175	-2.0167	-1.9604	-2.2146	-2.1208	-2.025	-2.4625	-2.0042	-2.2896	-2.4167	-2.0208	-2.2875	267.328	203.397	318.733	360.411	478.589	430.680	153.978	153.076	395.389	231.963	398.743	470.894	428.856	378.881	309.376	414.005	0.00097806	0.00040575	8.7779e-05	1140.2	4.5599e-06	2.5956e-06	1242.6	238.04	8.5381e-06	3.4146e-06	298.73	84.162	67.275	19.359	2.6159e-06	26.57	0.00051106	0.00055308	0.00014206	1134.1	5.5644e-06	5.8218e-06	1237.1	237.31	5.7037e-06	5.6851e-06	300.31	84.912	67.047	19.716	5.2115e-06	27.386	405.643	229.314	221.511	152.531	251.222	260.240	152.185	159.912	258.594	316.207	159.385	165.930	166.432	174.374	274.945	173.185	-8191	255	
35741.176	1	1	0	0	0.1447	0.084512	0.2354	0.27325	0.22149	0.084514	0.14953	0.10697	0.36285	0.092099	0.35978	0.23031	0.028014	0.038246	0.16094	0.16034	-1.6229	-1.9833	-2.5521	-2.2062	-2.3438	-2.5708	-1.9208	-2.2	-2.1229	-1.9479	-2.5062	-2.1292	-2.3333	-2.2125	-2.0292	-2.3042	222.529	410.089	238.462	471.989	442.652	156.890	391.774	359.173	369.616	260.568	470.206	462.865	423.880	347.396	388.030	375.404	0.0010416	0.00038121	5.768e-05	1141.6	4.8978e-06	3.3835e-06	1245	237.67	6.1123e-06	3.0119e-06	299.39	84.425	67.127	19.35	4.5403e-06	26.824	0.00052826	0.00053151	0.00013848	1135.5	5.6581e-06	5.6095e-06	1237.4	237.2	5.4883e-06	5.3921e-06	299.88	84.933	66.99	19.712	5.1692e-06	27.483	406.498	235.730	204.191	152.382	262.247	297.952	152.376	160.092	277.127	305.523	159.887	166.109	166.307	174.067	277.486	173.512	-8191	255	
35741.270	1	1	0	0	0.1404	0.066376	0.3291	0.26436	0.2243	0.095385	0.26335	0.23286	0.35347	0.16707	0.084744	0.034856	0.31057	0.30197	0.08996	0.069129	-1.7771	-1.9042	-2.2917	-2.275	-2.0833	-2.3187	-2.1417	-2.1979	-2.3646	-1.9479	-2.3292	-2.3625	-2.05	-2.4437	-2.0958	-2.3312	500.768	288.031	201.980	446.601	379.643	172.715	432.694	498.853	224.245	219.222	413.648	449.332	320.264	438.903	358.950	217.139	0.00093776	0.0003084	3.0082e-05	1140	6.7772e-06	3.8172e-06	1244.8	237.78	3.9604e-06	3.7522e-06	299.34	84.681	67.041	19.289	4.8627e-06	26.806	0.00049402	0.00050102	0.0001338	1134.4	5.6046e-06	5.4565e-06	1236	236.89	5.2926e-06	5.5722e-06	300.99	84.948	66.943	19.634	5.3445e-06	27.421	404.310	271.829	237.327	152.409	256.890	299.508	152.269	160.165	269.915	292.763	159.968	166.485	166.552	174.126	312.032	173.297	-8191	255	
35741.367	1	1	0	0	0.26631	0.14685	0.17434	0.22287	0.27617	0.33545	0.33756	0.2014	0.23851	0.3519	0.30529	0.30403	0.23539	0.079103	0.16486	0.1632	-1.7604	-2.1396	-2.3979	-2.1896	-2.0125	-2.3792	-2.3271	-2.1958	-2.3542	-1.8979	-2.3625	-2.3229	-2.0167	-2.3187	-2.0792	-2.0312	209.415	396.305	380.790	374.435	189.636	353.657	431.240	479.707	307.881	245.143	153.404	481.249	371.130	363.734	159.865	364.032	0.00098681	0.00022596	2.9347e-05	1142	4.4302e-06	3.5257e-06	1248.3	235.91	6.8821e-06	1.8436e-06	300.42	85.016	66.51	19.35	5.2902e-06	26.863	0.00050252	0.00051306	0.00013558	1134.8	5.4794e-06	5.6007e-06	1236.3	237.07	5.2728e-06	5.3327e-06	301.64	85.17	66.913	19.735	5.1994e-06	27.473	403.723	210.202	240.310	152.332	243.194	289.694	152.192	160.043	286.664	247.821	159.610	166.261	166.177	174.208	289.523	172.784	-8191	255	
35741.465	1	1	0	0	0.073497	0.060852	0.15006	0.27974	0.097969	0.081158	0.15964	0.18615	0.23686	0.13615	0.21336	0.25383	0.087531	0.23997	0.085511	0.075519	-1.6187	-1.9167	-2.1625	-2.3271	-2.0187	-2.3063	-2.1646	-2.1667	-2.2229	-2.0958	-2.325	-2.1417	-1.8687	-2.55	-2.0646	-1.9917	237.080	406.654	403.442	474.674	299.681	248.472	389.137	153.645	384.277	478.926	233.936	418.830	457.360	184.832	500.886	385.584	0.00096968	0.0002867	8.571e-05	1137.2	5.925e-06	3.2663e-06	1238.4	238.2	7.7053e-06	2.3601e-06	300.04	85.058	66.901	19.304	5.4143e-06	26.723	0.00050168	0.00047477	0.00013582	1133.2	5.6243e-06	5.4762e-06	1237.2	237.21	5.2423e-06	5.3502e-06	301.73	85.353	67.133	19.702	5.0742e-06	27.415	408.107	266.063	249.150	152.338	260.486	306.011	152.233	160.245	294.001	308.054	159.369	166.357	166.632	174.330	293.460	173.447	-8191	255	
35741.559	1	1	0	0	0.1189	0.22841	0.31508	0.22397	0.29404	0.056056	0.12904	0.13319	0.23346	0.03827	0.20918	0.067774	0.17227	0.08914	0.23911	0.40276	-1.9104	-2.025	-2.0375	-2.4458	-1.9188	-2.2625	-2.3187	-2.0729	-2.2167	-2.0167	-2.2438	-2.2958	-2.0833	-2.2687	-2.3833	-2.0854	270.862	442.116	181.853	478.532	334.503	145.553	491.890	490.595	160.316	231.204	160.097	477.485	467.337	390.257	261.810	183.558	0.00095035	0.00042298	8.9133e-05	1140.6	6.8984e-06	3.8006e-06	1240	236.77	7.0496e-06	1.6711e-06	299.63	84.782	67.55	19.256	5.3287e-06	26.893	0.00048493	0.00048768	0.00014093	1133	5.4274e-06	5.4348e-06	1235.9	236.93	5.0037e-06	5.4183e-06	300.95	85.153	67.122	19.683	5.0526e-06	27.404	404.741	240.050	255.725	152.454	248.724	299.308	152.421	160.060	280.147	300.109	159.546	166.099	166.350	173.912	280.690	173.320	-8191	255	
35741.656	1	1	0	0	0.14819	0.19068	0.19893	0.42028	0.18907	0.1389	0.20281	0.10503	0.47653	0.19379	0.30848	0.15466	0.26297	0.15599	0.13273	0.1816	-1.9562	-1.8042	-2.0729	-2.3417	-1.8083	-2.25	-2.3438	-1.9813	-2.3187	-2.1896	-2.0792	-2.3708	-1.9417	-2.1229	-2.2583	-1.8104	350.099	260.607	261.521	474.146	477.365	382.557	309.270	403.526	474.202	313.580	367.017	238.817	446.584	397.240	165.365	360.361	0.00092197	0.00037255	7.6042e-05	1138.9	5.4048e-06	1.7149e-06	1247.6	238.06	6.2839e-06	4.1638e-06	299.58	84.657	67	19.23	3.2069e-06	26.827	0.00047594	0.00048724	0.00014283	1132	5.303e-06	5.4723e-06	1238.1	237.51	5.092e-06	5.5507e-06	300.61	85.148	67.036	19.692	5.0768e-06	27.432	402.425	229.530	209.368	152.312	263.735	307.899	152.168	160.017	253.441	292.410	159.713	166.370	166.552	173.985	293.203	173.143	-8191	255	
35741.777	1	1	0	0	0.071309	0.1695	0.11431	0.31251	0.22647	0.14208	0.12162	0.1455	0.21612	0.32388	0.088668	0.2272	0.11357	0.07196	0.13572	0.076851	-1.9792	-2.0229	-2.0646	-2.4208	-2.0938	-2.4688	-2.3625	-2.0625	-2.2792	-2.0583	-2.2167	-2.525	-2.0062	-2.1958	-2.2083	-1.8083	479.444	418.284	187.735	469.818	293.611	208.967	351.332	142.786	424.689	143.350	191.616	164.404	344.577	444.166	412.629	365.148	0.00093273	0.00032338	5.4076e-05	1140.4	4.1328e-06	5.5792e-06	1235.4	236.76	9.4945e-06	2.2976e-06	299.42	84.199	67.009	19.397	4.2753e-06	26.707	0.00048881	0.00051089	0.00013181	1131.6	5.2762e-06	5.807e-06	1234.4	236.99	5.2183e-06	5.7454e-06	300.32	85.059	67.049	19.726	5.113e-06	27.408	405.794	241.256	213.502	152.331	266.379	318.648	152.069	160.441	290.740	266.079	159.664	165.986	166.271	174.038	274.250	173.144	-8191	255	
35741.871	1	1	0	0	0.061547	0.007153	0.13966	0.12117	0.10453	0.25475	0.26211	0.15676	0.07075	0.2842	0.26738	0.33503	0.17282	0.070086	0.26326	0.18751	-1.9271	-2.1604	-1.9708	-2.5292	-2.2188	-2.1792	-2.4604	-1.9917	-2.2521	-2.0771	-2	-2.4125	-2.1063	-2.1937	-2.3417	-1.9208	460.633	360.305	325.805	376.197	224.307	483.984	446.764	177.927	179.569	142.519	169.809	373.437	229.663	196.214	357.238	480.418	0.00096069	0.00031576	6.863e-05	1138.9	6.0204e-06	2.5249e-06	1245.7	237.22	6.5657e-06	3.3222e-06	299.63	84.406	66.771	19.277	4.5958e-06	26.951	0.0004951	0.00051098	0.00013587	1133.2	5.5676e-06	5.5572e-06	1237.9	237.02	5.2365e-06	5.3823e-06	300.94	84.951	67.042	19.671	5.0388e-06	27.485	407.015	244.486	217.749	152.485	268.805	277.894	152.290	159.972	300.517	303.723	159.465	166.186	166.249	173.844	260.244	173.567	-8191	255	
35741.969	1	1	0	0	0.084338	0.058592	0.24391	0.013125	0.068573	0.20756	0.25506	0.23523	0.24377	0.24066	0.055196	0.075412	0.21666	0.29723	0.3686	0.19412	-1.9521	-2.3125	-2.0271	-2.5563	-2.15	-2.0708	-2.5604	-1.9521	-2.2229	-2.2583	-2.1125	-2.4313	-2.2208	-2.1729	-2.3729	-1.9979	185.439	448.931	290.793	148.600	222.986	315.607	449.992	146.957	180.923	476.389	367.939	231.130	147.772	360.817	212.040	296.591	0.0010189	0.00030939	5.1327e-05	1140.6	4.8017e-06	4.9289e-06	1239.3	237.22	6.2821e-06	3.1247e-06	301.12	84.677	67.045	19.346	3.577e-06	26.632	0.00050379	0.00050838	0.00013755	1133.2	5.4297e-06	5.6698e-06	1236.1	236.73	5.3124e-06	5.2237e-06	300.92	85.173	67.005	19.73	4.8764e-06	27.401	402.062	252.118	234.880	152.453	247.741	286.045	152.315	160.178	285.638	311.726	159.535	165.866	166.270	174.181	300.399	172.929	-8191	255	
35742.066	1	1	0	0	0.20468	0.090841	0.18726	0.15804	0.10746	0.30563	0.072072	0.14944	0.2129	0.071723	0.16283	0.24383	0.16418	0.12147	0.20955	0.1437	-1.8042	-2.2542	-1.9042	-2.4542	-2.1688	-2.25	-2.6312	-2.0396	-2.2917	-2.2229	-2.2062	-2.3	-2.1292	-1.9771	-2.5396	-2.1917	450.588	219.096	194.064	143.693	325.949	164.680	498.477	288.631	366.498	275.502	260.349	405.754	227.629	239.438	392.312	408.954	0.00093229	0.00027445	9.1474e-05	1137	4.9236e-06	1.3832e-06	1242	237.84	5.6641e-06	3.6349e-06	300.2	84.569	66.872	19.233	3.077e-06	26.801	0.00047953	0.00046299	0.00013416	1132.3	5.3187e-06	5.7922e-06	1236.7	237.17	5.3199e-06	5.1847e-06	301.08	85.011	66.846	19.704	4.6086e-06	27.443	402.553	236.929	236.773	152.538	251.729	236.691	152.187	160.164	294.646	317.165	159.504	166.299	166.873	174.017	273.122	173.443	-8191	255	
35742.160	1	1	0	0	0.23787	0.35905	0.30703	0.10591	0.35182	0.19605	0.10922	0.021704	0.13825	0.23934	0.055239	0.18008	0.13918	0.13715	0.11713	0.23711	-1.7292	-2.1583	-2.0396	-2.4479	-2.0604	-1.9917	-2.6417	-2.0354	-2.2292	-2.3958	-2.2417	-2.3563	-2.3	-2.1646	-2.4229	-2.0875	394.072	277.855	346.768	416.752	401.155	166.134	452.984	401.331	185.649	180.019	418.813	462.144	483.869	189.769	299.414	391.918	0.00096121	0.00024296	0.00011278	1134.6	3.8668e-06	1.3059e-06	1239.9	236.37	6.7291e-06	1.8419e-06	299.58	85.111	66.605	19.385	4.2542e-06	26.835	0.00049608	0.00047988	0.00013008	1132.2	5.1494e-06	5.493e-06	1234.2	237.01	5.2398e-06	5.1283e-06	300.55	85.259	66.873	19.733	4.9748e-06	27.405	404.159	235.206	225.083	152.469	253.124	294.042	152.168	160.057	277.491	312.418	159.663	166.250	166.490	173.894	293.080	173.066	-8191	255	
35742.258	1	1	0	0	0.17668	0.093251	0.27137	0.15723	0.27931	0.12639	0.33213	0.09293	0.29249	0.22506	0.14382	0.12254	0.31908	0.27333	0.21416	0.060884	-1.7042	-2.2625	-1.925	-2.4458	-2.1625	-2.0896	-2.5938	-1.9625	-2.1813	-2.375	-2.0708	-2.4521	-2.2104	-1.8813	-2.4104	-2.1708	394.348	319.853	144.689	196.537	268.074	470.391	471.453	274.513	337.556	329.876	174.676	250.769	473.406	486.575	214.278	473.804	0.0010096	0.00033615	6.7395e-05	1133.7	7.3098e-06	3.3723e-06	1243.7	237.76	4.7465e-06	3.3311e-06	298.24	84.233	66.914	19.312	5.9295e-06	26.684	0.00051116	0.00046975	0.00013212	1131.3	5.4069e-06	5.414e-06	1237.2	237.36	5.2893e-06	4.9618e-06	300.64	84.97	66.942	19.691	5.1156e-06	27.429	403.567	244.345	228.645	152.398	250.654	317.676	152.351	159.962	300.380	272.984	158.985	165.923	166.592	174.246	294.519	173.558	-8191	255	
35742.375	1	1	0	0	0.21322	0.28605	0.28788	0.24414	0.088739	0.066786	0.11972	0.11972	0.33844	0.26652	0.25989	0.31848	0.26629	0.15392	0.076658	0.2077	-1.6042	-2.4083	-2.0146	-2.1667	-2.2125	-1.9271	-2.5042	-2.0938	-2.2042	-2.1271	-2.1083	-2.0979	-2.3271	-1.8062	-2.275	-1.9937	296.310	424.405	417.861	432.279	249.717	192.011	250.767	422.363	313.973	158.035	452.142	300.583	162.674	181.939	236.265	430.156	0.00091209	0.00029907	5.1368e-05	1137.9	6.1468e-06	1.196e-06	1241.8	237.4	5.8627e-06	2.8003e-06	298.67	84.773	66.643	19.287	2.3952e-06	26.821	0.00049097	0.00048846	0.00013356	1133	5.1699e-06	5.4456e-06	1234.3	236.86	5.2604e-06	5.137e-06	300.29	85.138	67.033	19.697	5.1528e-06	27.422	407.999	248.824	209.802	152.489	267.332	278.818	152.202	159.798	270.367	306.562	159.616	166.092	166.518	173.813	245.926	173.656	-8191	255	
35742.473	1	1	0	0	0.43731	0.23308	0.033373	0.31303	0.076521	0.28644	0.080056	0.33121	0.06559	0.11571	0.44648	0.16327	0.26416	0.24532	0.072295	0.21251	-1.3958	-2.1604	-2.0542	-2.2583	-2.2354	-2.0021	-2.4375	-2.3375	-1.7958	-2.4458	-2.0625	-2.0729	-2.2604	-2.0875	-2.3417	-2.3417	287.672	375.811	384.393	459.280	222.433	182.833	168.445	397.640	319.909	262.488	185.699	300.087	483.924	393.378	267.600	460.057	0.00094433	0.00019332	0.00012724	1137.1	5.3928e-06	1.992e-06	1241.3	237.05	7.9143e-06	2.8961e-06	297.95	83.971	66.877	19.281	5.0994e-06	26.838	0.00047904	0.00047079	0.00014319	1130.6	5.1911e-06	5.2146e-06	1234.8	236.75	5.1316e-06	5.0903e-06	300.53	84.947	67.055	19.658	5.1545e-06	27.404	401.004	228.219	227.975	152.454	271.774	279.534	152.237	159.775	284.079	288.662	159.433	166.426	166.451	174.135	249.737	172.970	-8191	255	
35742.566	1	1	0	0	0.11478	0.11717	0.083748	0.12732	0.10414	0.19108	0.23928	0.2056	0.15831	0.15464	0.088755	0.22829	0.19083	0.19629	0.26388	0.086689	-1.4729	-2.3187	-2.1437	-2.1813	-2.6396	-1.9917	-2.3292	-2.3083	-2.0917	-2.4896	-2.2562	-2.1333	-2.4167	-2.1542	-2.1583	-2.2417	486.398	456.475	390.466	430.043	255.671	269.091	376.253	148.445	392.887	486.439	364.060	250.903	268.035	476.788	203.897	427.118	0.00099035	0.0004154	4.4987e-05	1139.2	5.0956e-06	2.4815e-06	1241	236.9	8.6637e-06	5.4133e-06	298.64	84.118	66.633	19.337	2.8417e-06	26.782	0.00050979	0.00046827	0.00013111	1132	5.0045e-06	5.4881e-06	1235.2	236.53	5.1085e-06	5.0192e-06	300.8	84.782	66.808	19.686	4.8643e-06	27.429	410.392	206.710	308.738	152.358	235.297	270.582	152.255	160.009	281.007	322.489	159.446	166.211	166.569	174.041	272.368	173.648	-8191	255	
35742.664	1	1	0	0	0.082749	0.15086	0.32748	0.23067	0.14877	0.22201	0.29822	0.19303	0.11431	0.19974	0.078222	0.18095	0.19383	0.025421	0.43381	0.21299	-1.6063	-2.2875	-2.0708	-2.1896	-2.4958	-2.1729	-2.2479	-2.4667	-1.9479	-2.1813	-2.4354	-2.1104	-2.5271	-2.0667	-1.9958	-2.2021	279.475	183.859	453.711	465.354	336.734	477.437	423.065	447.064	287.411	196.712	470.912	375.075	464.866	313.440	253.186	144.549	0.00097144	0.00035966	0.0001004	1137.8	7.0407e-06	2.7819e-06	1240.3	236.93	1.0436e-05	4.3939e-06	298.63	84.957	66.808	19.133	5.4581e-06	26.873	0.00050001	0.00047832	0.00013928	1131.3	5.1195e-06	5.5276e-06	1234.5	236.27	5.0549e-06	5.504e-06	299.71	84.968	66.843	19.652	5.2167e-06	27.391	407.885	241.905	212.145	152.374	253.089	244.128	152.387	159.931	276.744	275.959	159.727	166.028	166.578	173.801	272.395	173.433	-8191	255	
35742.762	1	1	0	0	0.11535	0.16494	0.11245	0.36903	0.083115	0.068857	0.15691	0.13482	0.19567	0.050585	0.18151	0.27844	0.091545	0.23554	0.028234	0.1714	-1.6146	-2.2229	-2.2583	-1.9479	-2.4562	-2.2333	-2.3458	-2.3479	-2.0125	-2.1292	-2.3167	-1.8542	-2.3771	-2.0583	-2.0583	-2.4375	479.416	340.566	277.945	490.593	471.586	233.260	343.097	443.885	270.557	216.986	494.181	183.769	317.609	421.992	192.180	462.457	0.00095518	0.00035527	9.9505e-05	1136.4	5.1133e-06	2.4686e-06	1241.9	236.86	7.744e-06	1.5392e-06	300.33	84.781	67.138	19.24	5.3855e-06	26.79	0.00049701	0.00048898	0.00013774	1131	5.0699e-06	5.6461e-06	1234.1	236.45	5.1192e-06	5.1166e-06	300.79	85.191	66.92	19.616	4.8375e-06	27.39	407.140	213.124	213.384	152.441	247.290	309.813	152.267	160.222	276.643	308.814	159.611	165.779	166.607	174.609	279.750	173.515	-8191	255	
35742.855	1	1	0	0	0.12769	0.18414	0.17412	0.24263	0.18443	0.027272	0.14587	0.099334	0.24912	0.060551	0.26356	0.01975	0.13874	0.15619	0.16635	0.15014	-1.6354	-2.1125	-2.3	-1.975	-2.2917	-2.3125	-2.1292	-2.4437	-1.8771	-2.3521	-2.3625	-1.8854	-2.3771	-2.1646	-2.0771	-2.3042	463.221	339.979	250.873	479.052	325.188	268.289	387.287	428.894	419.826	489.223	397.453	281.521	189.524	355.514	282.516	236.531	0.00097039	0.00024349	0.0001112	1134.2	4.9118e-06	3.3741e-06	1239.6	236.97	8.2019e-06	1.1691e-06	298.51	84.457	67.075	19.218	3.9244e-06	26.785	0.00048709	0.00049798	0.00012907	1130	5.199e-06	5.4298e-06	1233.9	236.59	5.0714e-06	5.2655e-06	300.08	84.973	66.941	19.684	5.0327e-06	27.407	402.840	213.793	254.343	152.449	278.232	290.291	152.246	159.996	292.767	255.349	159.394	165.954	166.490	174.027	283.231	173.465	-8191	255	
35742.953	1	1	0	0	0.11523	0.1684	0.087047	0.30262	0.11628	0.050319	0.26254	0.22463	0.25593	0.07261	0.19525	0.17494	0.03027	0.16474	0.078387	0.091007	-1.5729	-2.3292	-2.0875	-2.2354	-2.3229	-2.3708	-2.1333	-2.5646	-2.0604	-2.2667	-2.4208	-1.9333	-2.2104	-2.2604	-1.9521	-2.4646	239.852	324.164	188.220	385.549	167.977	217.452	200.029	309.901	484.031	417.254	255.699	455.557	329.300	427.182	243.513	251.045	0.0010069	0.00042016	7.7998e-05	1135.7	6.2655e-06	2.3375e-06	1243.5	237.64	3.9223e-06	2.9745e-06	299.09	84.144	67.151	19.221	2.5786e-06	26.821	0.00051961	0.00046195	0.00012566	1131	5.2565e-06	5.3311e-06	1235.1	237.05	5.1779e-06	5.3356e-06	300.29	84.797	66.879	19.642	5.0845e-06	27.43	405.857	231.444	250.622	152.463	268.291	291.016	152.268	160.273	279.272	322.869	159.426	166.468	166.720	173.929	293.235	173.197	-8191	255	
35743.070	1	1	0	0	0.28726	0.302	0.15148	0.14717	0.34157	0.16427	0.20522	0.34326	0.18937	0.17884	0.31272	0.26189	0.28267	0.17274	0.32883	0.28825	-1.6063	-2.1708	-2.3146	-2.1854	-2.2979	-2.3021	-2.2771	-2.2292	-2.3021	-2.1292	-2.3187	-2.0312	-2.3208	-2.2833	-2.1813	-2.3854	319.450	441.343	393.838	488.766	285.039	277.195	303.178	419.413	481.096	405.441	465.991	371.773	449.393	180.701	185.013	453.722	0.0009817	0.00036062	5.8642e-05	1134.3	4.2516e-06	2.0375e-06	1241.3	236.32	5.648e-06	4.7837e-06	298.27	83.883	66.807	19.278	5.8524e-06	26.722	0.00050114	0.00049738	0.00013202	1129.9	5.2195e-06	5.0714e-06	1233	236.74	5.2621e-06	5.4914e-06	300.59	84.77	66.91	19.662	5.2728e-06	27.388	403.011	260.271	182.387	152.394	266.996	313.977	152.040	159.951	290.791	297.423	159.715	166.262	166.660	174.362	278.121	173.293	-8191	255	
35743.168	1	1	0	0	0.13079	0.16079	0.16472	0.19809	0.23477	0.057406	0.2483	0.17991	0.19736	0.33359	0.23037	0.26359	0.12091	0.13001	0.15616	0.14343	-1.5417	-1.9979	-2.5292	-2.2062	-2.2438	-2.4854	-2.0625	-2.4125	-2.2729	-1.9833	-2.2854	-1.9	-2.1188	-2.3833	-1.9396	-2.3167	262.997	167.085	341.611	432.911	213.709	354.783	427.064	452.902	216.400	368.313	354.460	475.694	445.469	228.854	356.513	460.035	0.0010042	0.0002006	0.00011459	1138.5	8.6964e-06	2.6826e-06	1239.7	236.82	8.6678e-06	4.4482e-06	298.94	84.185	66.743	19.13	4.8159e-06	26.612	0.00050173	0.00050821	0.00013025	1131.6	5.24e-06	5.3587e-06	1233.6	236.7	5.305e-06	5.7201e-06	300.01	84.898	66.965	19.617	5.1502e-06	27.36	406.405	235.204	200.682	152.210	256.463	284.108	152.244	160.122	279.611	288.167	159.673	166.529	166.308	173.981	288.387	173.331	-8191	255	
35743.242	1	1	0	0	0.1229	0.035279	0.077689	0.14908	0.19814	0.17733	0.098744	0.20201	0.2886	0.285	0.25211	0.29066	0.11616	0.12489	0.098314	0.2203	-1.6833	-2.2104	-2.3604	-2.4625	-2.225	-2.4521	-2.2042	-2.2167	-2.3312	-2.075	-2.225	-2.1667	-2.1063	-2.325	-2.0729	-2.0375	270.650	145.791	352.869	210.600	396.628	262.690	387.058	231.147	172.058	149.533	454.243	345.720	207.485	165.825	220.244	477.770	0.00098559	0.00029075	0.00013085	1133.1	6.6668e-06	4.3838e-06	1242.7	236.81	5.8592e-06	2.4147e-06	297.83	84.275	67.134	19.124	3.254e-06	26.718	0.00050379	0.00049374	0.00013406	1129.6	5.7723e-06	5.5157e-06	1233.1	236.69	5.0837e-06	5.5225e-06	300.18	84.786	66.905	19.641	5.278e-06	27.387	407.725	250.580	221.845	152.511	247.588	307.182	152.072	159.927	275.314	297.436	159.762	165.938	166.415	174.204	307.270	173.508	-8191	255	
35743.340	1	1	0	0	0.34793	0.19715	0.2082	0.40048	0.27743	0.14781	0.30265	0.31461	0.091301	0.0096087	0.17504	0.076821	0.16286	0.14679	0.11833	0.18278	-1.8104	-1.8583	-2.1896	-2.2938	-1.9625	-2.3667	-1.9417	-2.1958	-2.3667	-2.0625	-2.325	-2.2875	-2.1417	-2.4688	-1.9646	-2.2292	220.953	267.438	331.784	158.285	225.397	471.146	461.423	413.241	149.055	425.328	460.726	407.755	287.500	160.608	157.821	404.290	0.00096373	0.0002651	5.7362e-05	1134.3	5.3808e-06	4.3322e-06	1246.9	236.27	7.6008e-06	2.5294e-06	297.93	84.307	67.374	19.17	2.8621e-06	26.712	0.00047943	0.00049937	0.00012405	1131.9	5.1644e-06	5.341e-06	1238.2	236.81	5.1003e-06	5.3483e-06	301.01	84.871	67.086	19.659	5.031e-06	27.383	407.563	240.262	212.527	152.527	249.477	293.161	152.182	159.740	302.727	301.714	159.402	165.851	166.325	174.258	286.616	173.004	-8191	255	
35743.457	1	1	0	0	0.062152	0.29434	0.36385	0.40257	0.22475	0.14515	0.092779	0.1849	0.2267	0.044674	0.041184	0.22203	0.13692	0.32803	0.22804	0.14951	-1.7417	-1.8958	-2.2625	-2.3396	-2	-2.2417	-2.1958	-2.2625	-2.4229	-2.0062	-2.3667	-2.2313	-1.9583	-2.4042	-2.0625	-2.0542	235.851	362.729	487.882	397.283	449.338	246.042	484.203	455.226	247.404	386.558	315.103	400.312	463.296	156.744	476.935	467.923	0.00096737	0.00025194	7.2146e-05	1140.6	6.7751e-06	3.4633e-06	1242.1	238.11	6.77e-06	3.1633e-06	298.51	84.068	66.662	19.192	3.3963e-06	26.635	0.00047177	0.00047269	0.00012794	1133.3	5.1565e-06	4.7939e-06	1236.9	237.41	4.614e-06	4.6736e-06	300.52	84.913	66.755	19.645	4.5223e-06	27.373	408.622	232.687	218.741	152.510	245.356	288.311	152.197	160.283	250.431	303.451	159.630	166.431	166.280	174.146	292.240	173.441	-8191	255	
35743.555	1	1	0	0	0.22587	0.19526	0.35222	0.43257	0.22482	0.15351	0.28282	0.18457	0.17398	0.29766	0.30733	0.05233	0.28952	0.17792	0.092105	0.15384	-1.9458	-2.1167	-2.1583	-2.3167	-2	-2.2729	-2.2521	-2.2521	-2.4	-2.2167	-2.3854	-2.4229	-2.0938	-2.4083	-2.2313	-2.1146	415.010	154.195	217.646	421.039	392.989	152.474	455.639	453.732	276.978	494.460	474.896	451.711	177.457	464.463	266.954	429.627	0.00097403	0.00026343	4.8129e-05	1136.9	5.674e-06	3.4949e-06	1235.1	235.27	5.5651e-06	4.1329e-06	296.26	84.211	66.551	19.01	2.6919e-06	26.53	0.00045335	0.00044506	0.00011783	1130.4	5.0573e-06	4.8255e-06	1231.4	235.97	4.8509e-06	4.882e-06	298.71	84.639	66.547	19.517	4.5482e-06	27.207	407.317	222.303	217.658	152.433	240.053	281.776	152.188	160.168	281.115	299.873	159.614	166.320	166.814	173.953	288.691	172.893	-8191	255	
35743.648	1	1	0	0	0.065295	0.15545	0.11486	0.21938	0.42237	0.075765	0.12814	0.22017	0.033975	0.095318	0.13622	0.13217	0.075456	0.25968	0.25279	0.13456	-2.0438	-2.0812	-2.2646	-2.475	-2.0542	-2.4833	-2.5062	-2.1646	-2.3521	-1.9375	-2.2687	-2.3667	-1.9438	-2.3792	-2.2292	-2.0896	195.582	476.063	324.002	425.806	207.134	273.616	159.776	435.703	278.887	303.609	337.172	185.653	495.179	180.058	265.952	428.290	0.00092248	0.00032635	7.2222e-05	1136.8	3.8956e-06	3.5891e-06	1240.6	235.9	8.3304e-06	3.4703e-06	298.45	84.176	66.677	19.017	4.862e-06	26.617	0.00045949	0.00046957	0.000129	1127.3	5.0636e-06	4.8759e-06	1231.4	235.65	4.5125e-06	4.9744e-06	299.98	84.638	66.697	19.529	4.3133e-06	27.325	406.000	239.757	220.796	152.337	269.931	282.021	152.296	160.001	279.600	292.983	159.826	166.189	166.882	174.218	262.646	173.268	-8191	255	
35743.770	1	1	0	0	0.17362	0.096367	0.10077	0.40354	0.13826	0.1236	0.22937	0.16536	0.14367	0.39945	0.13634	0.26086	0.23643	0.19047	0.13532	0.13567	-2.0125	-2.1479	-2.1083	-2.4979	-2.0229	-2.2354	-2.3417	-2.0729	-2.4292	-2.1167	-2.1854	-2.4167	-2.0417	-2.3083	-2.3187	-2.2896	258.345	162.565	445.701	476.880	264.260	463.701	436.022	424.328	295.279	427.779	165.447	322.578	162.065	232.941	393.792	368.741	0.00094905	0.00030874	8.1088e-05	1136	5.6418e-06	2.9352e-06	1235.5	237.51	5.9159e-06	2.5636e-06	298.02	85.366	67.13	19.327	3.5388e-06	26.786	0.00042874	0.00039958	0.00010607	1128	4.2808e-06	4.1501e-06	1229.5	236.99	3.6729e-06	4.0866e-06	300.32	85.273	67.107	19.72	3.6344e-06	27.483	404.164	208.528	261.966	152.420	259.003	295.257	152.090	160.084	272.312	293.140	159.745	165.876	166.424	174.475	266.401	173.257	-8191	255	
35743.863	1	1	0	0	0.23623	0.078675	0.34396	0.15855	0.014999	0.096481	0.21965	0.15886	0.14086	0.16477	0.11683	0.068851	0.22608	0.11021	0.033158	0.13396	-1.9125	-2.1729	-2.1083	-2.5271	-2.2271	-2.2479	-2.4583	-2.1146	-2.3312	-2.2604	-2.1896	-2.5354	-1.9917	-2.4062	-2.3917	-1.9833	274.911	311.136	161.701	142.216	380.710	248.317	476.342	158.284	472.447	340.103	157.520	412.208	358.550	212.759	393.235	407.448	0.00091412	0.00020736	0.00010377	1125.6	6.0622e-06	2.5572e-06	1233.2	237.78	4.382e-06	2.6145e-06	297.33	84.524	66.651	19.193	3.2403e-06	26.66	0.00041253	0.00034406	0.00010004	1120.4	4.2572e-06	4.3901e-06	1225	236.36	4.0551e-06	3.9435e-06	298.92	84.613	66.672	19.593	3.9885e-06	27.272	405.775	211.839	222.031	152.534	259.729	296.770	152.115	160.040	288.495	283.243	159.418	165.953	166.397	174.458	260.948	173.243	-8191	255	
35743.938	1	1	0	0	0.043228	0.17677	0.17958	0.32606	0.16813	0.074755	0.054271	0.067308	0.23257	0.1268	0.021738	0.11122	0.10439	0.097172	0.10013	0.3436	-1.6979	-2.1667	-2.1688	-2.6813	-1.9354	-2.1729	-2.4188	-1.9854	-2.4979	-2.4313	-2.1375	-2.5229	-2.1813	-2.2146	-2.3667	-1.9937	328.124	457.458	375.738	177.351	218.946	340.025	394.587	262.918	467.204	286.300	208.288	271.352	170.789	143.622	155.778	479.815	0.0010247	0.00030707	5.0281e-05	1126.6	6.6181e-06	4.9203e-06	1230.7	235.54	6.5008e-06	2.6716e-06	297.18	84.245	66.24	19.019	2.6127e-06	26.416	0.00045452	0.00039326	0.00011132	1121.1	4.71e-06	4.4256e-06	1224.6	235.3	4.4662e-06	4.4439e-06	298.43	84.303	66.438	19.468	3.9721e-06	27.209	405.937	230.543	247.051	152.411	243.802	327.251	152.425	160.293	289.113	260.714	159.270	166.253	166.467	174.524	312.656	173.156	-8191	255	
35744.059	1	1	0	0	0.15676	0.17011	0.17747	0.27483	0.24445	0.21109	0.21016	0.34283	0.10758	0.14258	0.1868	0.25266	0.092897	0.1947	0.088653	0.077497	-1.8917	-2.3104	-1.9542	-2.5521	-2.1104	-2.05	-2.4417	-2.1708	-2.3104	-2.3833	-2.1625	-2.3688	-2.1208	-2.2875	-2.4292	-2.1	218.551	348.539	225.060	478.125	356.188	342.251	407.898	417.885	285.692	357.020	251.841	169.087	160.333	288.352	359.240	420.973	0.00091785	0.00033597	7.1186e-05	1128.8	6.0565e-06	3.3164e-06	1232.9	235.09	6.2879e-06	3.8216e-06	298.18	84.414	66.181	19.184	4.587e-06	26.723	0.00044843	0.00041474	0.00011409	1121.2	4.8313e-06	4.5402e-06	1224.1	235.89	4.4126e-06	4.4312e-06	299.05	84.513	66.331	19.512	4.1423e-06	27.305	403.993	215.301	217.031	152.483	268.872	308.423	152.147	160.118	287.267	293.069	159.585	166.413	167.008	173.997	266.264	173.250	-8191	255	
35744.152	1	1	0	0	0.25564	0.14644	0.189	0.073372	0.17311	0.099909	0.14212	0.19159	0.10056	0.19309	0.41829	0.090492	0.26904	0.16698	0.29076	0.18161	-1.6083	-2.2854	-1.9083	-2.5771	-2.1063	-2.1229	-2.5958	-2.0854	-2.1792	-2.325	-1.9104	-2.2229	-2.2104	-2.0396	-2.3771	-2.225	406.536	259.926	282.518	333.145	434.447	232.983	392.291	394.945	222.637	274.428	267.386	437.739	470.407	205.112	194.561	402.383	0.00095058	0.00030742	5.7451e-05	1127.1	6.6122e-06	4.0078e-06	1230.4	236.57	7.0264e-06	2.6169e-06	297.28	83.546	65.872	19.035	3.3021e-06	26.462	0.00044922	0.00039707	0.00011406	1122.3	4.6139e-06	4.6656e-06	1225.5	235.61	4.633e-06	4.8041e-06	298.98	84.247	66.109	19.393	4.4506e-06	27.113	406.240	229.758	231.083	152.730	243.998	277.150	152.489	159.937	266.439	323.779	159.816	166.033	165.882	174.211	280.383	173.609	-8191	255	
35744.246	1	1	0	0	0.073083	0.13473	0.099921	0.32802	0.17527	0.05075	0.27002	0.082828	0.18052	0.14098	0.068225	0.062613	0.14415	0.14604	0.10342	0.089737	-1.6646	-2.3896	-1.9708	-2.3229	-2.1625	-2.0458	-2.4458	-2.0667	-2.0729	-2.3833	-2.0646	-2.2812	-2.3875	-2.1292	-2.6	-2.1937	495.347	341.237	414.608	428.710	411.917	238.324	457.034	192.305	302.408	480.780	396.157	221.146	333.999	450.663	215.569	257.647	0.001021	0.00020834	6.1847e-05	1127.9	5.8422e-06	2.6097e-06	1231.9	236.38	7.136e-06	3.0151e-06	296.2	84.144	66.163	19.125	1.9811e-06	26.384	0.00049024	0.00042288	0.00012905	1122.4	4.8021e-06	5.1603e-06	1226.2	234.84	4.8501e-06	4.6191e-06	297.89	84.193	66.26	19.447	4.7296e-06	27.076	406.625	256.914	240.584	152.549	247.498	298.843	152.473	160.232	284.424	313.853	159.613	166.219	166.486	174.150	260.050	173.703	-8191	255	
35744.367	1	1	0	0	0.14299	0.30685	0.20817	0.23704	0.29251	0.2192	0.14045	0.11465	0.24521	0.1901	0.09671	0.13873	0.11889	0.15842	0.20132	0.19486	-1.6187	-2.2792	-1.8875	-2.5771	-2.1979	-2.0687	-2.4562	-2.0271	-2.1854	-2.3563	-2.1479	-2.2521	-2.3333	-1.8125	-2.075	-2.0979	360.731	277.967	303.389	445.397	308.199	485.174	350.267	379.172	255.162	459.112	406.879	470.259	429.248	156.148	496.970	269.228	0.00096359	0.00038622	7.5794e-05	1128.5	6.2754e-06	2.3314e-06	1232.2	234.64	5.4686e-06	4.0581e-06	295.48	83.73	66.426	19.025	2.8365e-06	26.521	0.00048758	0.00045658	0.00013848	1124.1	4.8273e-06	5.3844e-06	1225.8	234.21	5.1663e-06	5.1399e-06	297.82	84.063	66.35	19.408	5.012e-06	27.178	404.522	207.157	240.746	152.396	249.620	290.546	152.088	159.953	282.995	307.634	159.799	165.965	166.489	173.974	300.951	173.162	-8191	255	
35744.465	1	1	0	0	0.1061	0.22905	0.20936	0.24056	0.10993	0.23155	0.090906	0.12365	0.2798	0.16588	0.15191	0.16745	0.31741	0.062245	0.15191	0.021235	-1.6146	-2.3333	-2.0417	-2.3667	-2.3563	-2.05	-2.4917	-2.3438	-2.0833	-2.4271	-2.1271	-2.2646	-2.3521	-2.1042	-2.5042	-2.3271	241.722	395.040	190.569	411.213	274.082	433.143	447.030	176.851	458.109	452.909	379.007	285.698	189.359	354.744	388.685	425.527	0.0010225	0.00033395	0.00010766	1129.4	5.8376e-06	3.124e-06	1230.6	233.93	5.2945e-06	1.2948e-06	296.2	83.733	66.048	19.066	3.3238e-06	26.378	0.0004757	0.00047494	0.00012679	1122.7	4.9108e-06	5.3489e-06	1225	233.97	4.9252e-06	5.1798e-06	297.27	84.088	66.191	19.404	4.9386e-06	27.114	406.123	231.301	230.144	152.357	265.087	308.819	152.134	160.220	277.417	291.937	159.431	166.159	166.689	174.434	281.451	173.250	-8191	255	
35744.535	1	1	0	0	0.13344	0.070564	0.15593	0.21643	0.095554	0.090236	0.55033	0.26635	0.22028	0.18601	0.034548	0.35704	0.37701	0.087528	0.31123	0.23635	-1.525	-2.2938	-2.0812	-2.2479	-2.5042	-1.8792	-2.2479	-2.4062	-1.9521	-2.4417	-2.0646	-2.0438	-2.1958	-2.1146	-2.1833	-2.3604	436.579	352.127	478.262	475.636	277.429	282.877	441.499	478.451	273.500	233.332	147.309	443.024	235.812	430.408	341.326	486.962	0.00097598	0.00035452	6.8872e-05	1126.6	4.9183e-06	1.2091e-06	1231.1	234.27	6.519e-06	3.1666e-06	296.65	83.987	66.166	18.96	4.5393e-06	26.468	0.00046926	0.00046706	0.00013291	1121.6	4.8092e-06	5.2343e-06	1224.6	234.15	5.0317e-06	4.9394e-06	297.07	83.99	66.03	19.408	4.6492e-06	27.086	405.212	209.738	234.914	152.528	251.757	291.436	152.125	160.132	275.364	302.816	159.559	166.375	166.548	174.217	314.250	173.219	-8191	255	
35744.633	1	1	0	0	0.11745	0.14601	0.14509	0.093294	0.3042	0.20516	0.12505	0.12216	0.099348	0.11236	0.18694	0.23913	0.051461	0.03326	0.12414	0.31189	-1.5812	-2.2708	-2.175	-2.1312	-2.4792	-2.2708	-2.325	-2.4875	-1.9708	-2.2979	-2.2458	-2.0125	-2.3688	-2.1312	-2.1854	-2.525	390.552	195.748	446.282	448.162	310.191	296.602	474.970	482.717	342.582	143.578	493.165	360.189	145.719	487.536	272.857	152.879	0.00092967	0.00042892	7.3039e-05	1127.5	5.5302e-06	5.412e-06	1229.1	234.42	6.4187e-06	4.174e-06	293.78	83.449	65.714	19.006	5.5698e-06	26.503	0.00047786	0.00046316	0.0001326	1121.2	5.3329e-06	5.3301e-06	1223.1	233.9	4.912e-06	5.026e-06	296.3	83.937	65.948	19.39	4.7175e-06	27.131	404.896	236.903	231.730	152.283	259.885	279.500	152.315	160.100	275.363	297.523	159.482	166.344	166.711	174.161	279.592	173.352	-8191	255	
35744.754	1	1	0	0	0.11904	0.21698	0.11467	0.27252	0.11703	0.23146	0.30914	0.27855	0.12368	0.13119	0.19643	0.44278	0.39079	0.18713	0.1816	0.29625	-1.5521	-2.2667	-2.1	-2.0438	-2.0417	-2.1125	-2.1479	-2.4125	-2.0958	-2.3229	-2.1625	-2.0354	-2.3375	-2.1271	-2.2042	-2.2188	247.072	429.126	174.865	371.610	285.710	425.370	459.077	388.183	244.124	493.747	414.420	499.009	469.129	258.206	464.480	474.287	0.00097703	0.00028836	8.5577e-05	1122.3	7.8882e-06	2.1677e-06	1228.4	233.41	4.7251e-06	2.7544e-06	295.44	83.459	65.656	18.967	4.3381e-06	26.311	0.00049972	0.000459	0.00012076	1119	5.3022e-06	5.2491e-06	1221.4	232.96	5.3256e-06	5.2665e-06	296.16	83.988	65.645	19.375	4.9118e-06	26.954	406.130	228.655	256.504	152.543	261.567	259.951	152.393	160.143	276.313	325.894	159.580	166.492	166.423	173.902	285.406	173.005	-8191	255	
35744.852	1	1	0	0	0.254	0.39632	0.17346	0.13592	0.03476	0.154	0.23651	0.14816	0.14643	0.2504	0.11935	0.2528	0.087149	0.19703	0.034122	0.36828	-1.6042	-2.1125	-2.2792	-1.9542	-2.25	-2.1417	-2.25	-2.2521	-2.0771	-2.0917	-2.1521	-1.9667	-2.2125	-2.1021	-2.05	-2.6792	287.773	219.989	427.544	277.615	285.872	362.660	371.300	451.047	190.571	394.184	322.734	213.784	353.566	362.993	286.286	153.539	0.0010047	0.00030228	5.3196e-05	1122.9	2.7458e-06	3.6557e-06	1229.5	233.85	9.0047e-06	3.1062e-06	294.07	82.564	65.723	18.924	2.6419e-06	26.313	0.00050149	0.00045978	0.00012347	1117.6	4.9344e-06	5.1869e-06	1222.5	233.11	5.1102e-06	5.5206e-06	296	83.406	65.826	19.278	5.1795e-06	26.969	405.025	229.446	236.793	152.497	261.073	284.741	152.192	160.241	285.292	288.889	159.702	166.148	166.341	173.955	288.475	173.245	-8191	255	
35744.945	1	1	0	0	0.065642	0.15077	0.21378	0.14596	0.23059	0.068535	0.30675	0.13487	0.37086	0.19498	0.11239	0.29359	0.1268	0.15747	0.13022	0.22268	-1.6063	-2.3104	-2.275	-2.0979	-2.5542	-2.1854	-2.0646	-2.4292	-2.0021	-2.0271	-2.3583	-2.0187	-2.2188	-2.1813	-1.9688	-2.6188	478.673	181.259	162.908	145.551	406.406	389.908	161.522	179.361	373.111	465.509	362.888	393.786	180.090	469.347	160.952	184.097	0.00085124	0.00024824	0.00010387	1123	5.1275e-06	4.236e-06	1225.2	233.97	6.6053e-06	1.9712e-06	293.84	83.556	65.251	18.926	3.6048e-06	26.136	0.00049746	0.00050353	0.00013613	1118	5.5857e-06	5.5671e-06	1221.4	233.29	5.5048e-06	5.6374e-06	295.27	83.69	65.669	19.351	5.3765e-06	26.946	402.646	231.424	232.949	152.407	240.593	272.046	152.215	160.110	278.587	275.751	159.706	166.243	166.551	173.969	256.958	173.671	-8191	255	
35745.043	1	1	0	0	0.11235	0.047635	0.16622	0.24884	0.14658	0.074869	0.13541	0.25741	0.26604	0.21237	0.16996	0.18399	0.074504	0.10453	0.15357	0.24245	-1.7188	-2.2375	-2.2958	-2.225	-2.2729	-2.3771	-2.2625	-2.4875	-2.2125	-2.0229	-2.4583	-1.9979	-2.1729	-2.2438	-1.9958	-2.3937	408.441	204.312	332.069	462.521	151.213	177.206	407.989	167.421	379.623	210.506	419.086	500.584	437.466	492.361	282.361	189.614	0.00091905	0.00037309	6.0504e-05	1126.8	3.655e-06	2.5289e-06	1232.6	232.95	5.8798e-06	1.8056e-06	293.72	83.428	65.308	18.893	2.3377e-06	26.43	0.00051401	0.00053246	0.00014458	1121.9	5.7195e-06	5.8218e-06	1224.5	232.92	5.5758e-06	5.8652e-06	295.4	83.693	65.682	19.334	5.8394e-06	27.025	405.613	236.299	251.962	152.145	263.765	278.856	152.318	160.110	276.960	285.333	159.969	166.455	166.376	173.910	286.101	173.268	-8191	255	
35745.137	1	1	0	0	0.054304	0.19164	0.16938	0.27727	0.17126	0.24385	0.1848	0.11579	0.2709	0.19883	0.050438	0.27064	0.16253	0.044323	0.12241	0.14676	-1.6292	-2.1667	-2.3875	-2.1625	-2.3	-2.4083	-2.225	-2.3125	-2.0875	-2.0771	-2.4938	-2.0563	-2.1396	-2.3354	-2.0208	-2.2	437.383	267.235	458.922	469.163	257.101	242.218	444.835	467.224	303.010	361.567	143.100	233.559	463.517	434.733	247.129	458.720	0.0010365	0.00048436	7.3131e-05	1127.5	6.8706e-06	3.879e-06	1230.5	234	8.7735e-06	2.1286e-06	294.41	82.17	65.732	18.943	6.1861e-06	26.39	0.00055586	0.00059197	0.00015906	1123.2	6.2243e-06	6.3412e-06	1225.9	233.49	5.8878e-06	6.7617e-06	295.94	83.515	65.907	19.38	6.1236e-06	27.043	402.302	243.722	226.029	152.329	247.543	267.482	152.496	159.777	264.638	313.392	159.519	166.438	166.661	174.074	304.816	173.258	-8191	255	
35745.234	1	1	0	0	0.18736	0.089627	0.13973	0.2454	0.22488	0.24591	0.15537	0.29032	0.12412	0.1986	0.12808	0.071395	0.19641	0.13985	0.15617	0.17593	-1.7667	-1.8854	-2.5583	-2.1667	-2.0812	-2.4333	-2.175	-2.3854	-2.2354	-2.0938	-2.3563	-2.1083	-2.1896	-2.3417	-2.05	-2.35	372.996	306.525	181.711	492.247	357.630	286.054	370.084	426.901	252.402	399.892	480.438	259.396	143.240	476.044	201.891	372.339	0.00098054	0.00027551	0.00010546	1131.4	4.8337e-06	1.9612e-06	1236.9	233.83	6.2727e-06	3.057e-06	294.52	83.247	66.147	18.931	3.2608e-06	26.319	0.00052634	0.00056434	0.00016206	1126.5	5.9755e-06	6.2553e-06	1230.7	233.81	5.7095e-06	6.1903e-06	296	83.875	66.017	19.37	5.563e-06	27.043	403.061	243.788	220.417	152.491	228.893	320.025	152.201	160.307	281.965	298.621	159.431	166.383	166.716	174.195	284.675	173.251	-8191	255	
35745.328	1	1	0	0	0.23857	0.09489	0.06737	0.093861	0.19706	0.14609	0.19728	0.18927	0.27182	0.054271	0.19263	0.045414	0.095416	0.10848	0.09511	0.080126	-1.8104	-1.8083	-2.3833	-2.2083	-2.0417	-2.4833	-2.1667	-2.3958	-2.3979	-2.0083	-2.4062	-2.2146	-2.075	-2.4021	-2.2812	-2.4354	389.232	467.715	185.086	422.942	151.815	351.904	331.403	324.831	241.038	356.208	217.078	313.988	229.800	492.698	472.941	353.449	0.0010466	0.00033025	5.6268e-05	1132.2	5.0684e-06	3.5814e-06	1233.8	233.87	6.7617e-06	3.0989e-06	296.29	83.653	65.712	19.022	2.5597e-06	26.188	0.00051706	0.00052215	0.00014307	1126.9	5.6227e-06	5.7221e-06	1226.8	233.39	5.1036e-06	5.6938e-06	296.95	83.857	65.713	19.376	5.4905e-06	27.013	406.130	241.325	248.138	152.441	250.620	315.441	152.191	160.300	271.164	265.489	159.776	166.125	166.640	173.735	272.838	173.282	-8191	255	
35745.449	1	1	0	0	0.1723	0.15967	0.12776	0.081804	0.086545	0.23045	0.18018	0.14904	0.22958	0.077535	0.12123	0.19487	0.12046	0.12947	0.19233	0.06131	-1.6458	-1.8333	-2.425	-2.2042	-2.1188	-2.3167	-2.3792	-2.2958	-2.4208	-2.1521	-2.3146	-2.0646	-2.0396	-2.3937	-2.0771	-2.2125	273.038	334.282	463.183	409.893	251.033	442.098	460.278	157.861	326.591	155.835	291.721	192.163	214.667	496.452	295.971	453.948	0.00098437	0.00022599	9.5403e-05	1132.9	6.2346e-06	3.7013e-06	1229.4	233.33	6.5091e-06	3.5364e-06	296.89	83.08	65.832	18.963	4.4593e-06	26.244	0.00049991	0.0005225	0.0001441	1124.5	5.529e-06	5.5898e-06	1225.6	233.01	5.4635e-06	5.8467e-06	296.76	83.53	65.821	19.373	5.4931e-06	27.06	404.235	221.204	222.429	152.410	261.952	280.388	152.115	159.767	296.983	288.546	159.377	166.167	166.669	173.939	265.228	173.138	-8191	255	
35745.547	1	1	0	0	0.04054	0.13803	0.15725	0.24421	0.26782	0.045723	0.23541	0.39202	0.069736	0.04968	0.1241	0.11662	0.20616	0.045668	0.29017	0.27807	-1.6917	-1.825	-2.2812	-2.3896	-2.1667	-2.3229	-2.3563	-2.2354	-2.4208	-1.9333	-2.3438	-2.3458	-1.9625	-2.675	-2.1646	-2.1521	377.570	230.867	433.920	153.250	367.640	286.137	181.295	359.193	453.590	261.750	197.467	405.039	394.575	298.835	230.347	269.919	0.00091389	0.00032653	8.1008e-05	1130.8	7.4031e-06	1.5666e-06	1236.9	233.36	4.2004e-06	2.3844e-06	293.04	82.949	65.578	18.919	3.081e-06	26.387	0.00050325	0.00055004	0.00015229	1123.8	6.0936e-06	5.887e-06	1226.7	233.02	5.7368e-06	5.981e-06	295.66	83.661	65.839	19.352	5.7418e-06	27.006	408.660	230.147	219.900	152.513	262.808	258.129	152.235	160.050	278.047	303.068	159.672	166.074	166.393	174.192	274.690	173.491	-8191	255	
35745.641	1	1	0	0	0.18945	0.079343	0.0090302	0.096818	0.039902	0.21997	0.26644	0.16876	0.10774	0.17898	0.31372	0.29935	0.1159	0.090875	0.10659	0.097758	-1.8312	-1.9333	-2.1854	-2.4521	-2.1167	-2.5062	-2.1833	-2.1188	-2.5833	-2.0521	-2.2292	-2.2938	-1.8271	-2.2708	-2.2958	-2.175	486.802	426.650	219.244	484.526	171.421	463.225	431.888	456.342	324.597	428.717	337.535	368.513	408.825	180.183	231.000	288.184	0.00091079	0.0002883	8.6804e-05	1131.4	5.666e-06	2.9627e-06	1236.9	233.36	7.1919e-06	1.8531e-06	293.77	83.216	65.547	18.865	5.4653e-06	26.391	0.00051332	0.0005756	0.00014924	1123.7	5.9495e-06	6.4173e-06	1228.4	233.2	5.6336e-06	6.2575e-06	295.6	83.662	65.793	19.348	5.7496e-06	27.011	407.551	229.274	222.867	152.338	266.242	318.975	152.349	160.173	280.438	289.079	159.854	166.180	166.432	174.060	275.350	173.059	-8191	255	
35745.738	1	1	0	0	0.070832	0.10089	0.12722	0.37614	0.11136	0.21784	0.1832	0.1264	0.23726	0.11824	0.038637	0.10942	0.13169	0.075491	0.27928	0.16145	-2.0667	-2.0354	-2.2938	-2.5479	-2.0167	-2.4146	-2.4792	-2.1521	-2.5938	-2.0396	-2.1979	-2.5604	-2	-2.4188	-2.1875	-1.9875	347.178	231.550	437.453	452.078	242.125	484.545	500.960	249.855	378.911	264.729	150.230	380.230	308.924	349.384	351.011	428.067	0.00087421	0.00034557	9.6029e-05	1126.1	5.5914e-06	2.4793e-06	1237.4	232.63	3.9305e-06	2.3816e-06	293.01	83.302	65.834	19.042	3.9121e-06	26.264	0.00050409	0.00056191	0.00015846	1124.2	6.3243e-06	6.2958e-06	1227.2	233.01	5.8688e-06	6.3714e-06	294.95	83.758	65.874	19.376	5.9603e-06	27.022	405.901	236.857	240.711	152.502	261.776	260.724	152.107	160.109	267.762	253.081	159.321	166.175	166.490	174.618	294.125	172.889	-8191	255	
35745.836	1	1	0	0	0.24949	0.29821	0.48314	0.16683	0.19023	0.13621	0.25202	0.28978	0.063175	0.077091	0.19602	0.17803	0.19421	0.0095476	0.21456	0.23755	-1.7229	-2.2938	-2.2958	-2.4979	-2.0896	-2.2708	-2.4437	-2.0979	-2.4958	-2.2542	-2.2333	-2.4938	-2.1521	-2.2313	-2.3854	-1.9188	389.822	142.347	244.603	421.312	352.650	180.127	469.823	238.055	490.309	188.085	471.610	164.815	196.771	142.520	418.513	281.812	0.00091301	0.00039655	0.00011346	1129.2	5.238e-06	2.8935e-06	1232.8	233.58	6.1321e-06	1.3982e-06	293.47	83.452	65.946	18.911	5.4178e-06	26.156	0.00053243	0.00058053	0.00016199	1124.3	6.2708e-06	6.1279e-06	1228.2	233.25	6.166e-06	6.3305e-06	296	83.646	65.924	19.344	6.0173e-06	27.024	406.386	248.417	248.066	152.530	264.825	302.271	151.912	160.055	301.897	330.550	159.574	166.221	166.243	173.976	269.890	173.495	-8191	255	
35745.930	1	1	0	0	0.22849	0.045369	0.24617	0.18232	0.15238	0.17327	0.35881	0.32288	0.18428	0.084367	0.1386	0.35449	0.22136	0.24102	0.083476	0.19992	-1.9979	-2.1042	-2.1583	-2.5854	-2.0604	-2.3083	-2.4479	-2.1792	-2.2958	-2.2896	-2.0167	-2.4208	-2.0896	-2.2	-2.3583	-2.0687	440.634	226.456	284.082	490.732	395.172	381.582	444.721	401.644	361.383	156.049	163.956	498.435	212.231	495.625	255.452	380.928	0.0008251	0.00034426	8.0147e-05	1129.4	3.9129e-06	2.8723e-06	1233	233.13	8.4237e-06	1.3045e-06	292.55	83.065	65.397	18.95	3.2506e-06	26.512	0.00052944	0.00058131	0.00015865	1123.5	6.2204e-06	6.2336e-06	1229.1	232.88	6.0026e-06	6.5086e-06	295.82	83.677	65.78	19.394	5.9327e-06	27.024	409.002	246.052	223.079	152.342	260.219	289.315	151.935	160.201	270.729	246.552	159.656	166.459	166.487	174.559	270.638	173.095	-8191	255	
35746.051	1	1	0	0	0.19854	0.15301	0.068754	0.23654	0.29842	0.059613	0.26375	0.083391	0.080763	0.23215	0.18212	0.1568	0.35158	0.074032	0.1058	0.20165	-1.9229	-2.4	-2.1125	-2.4437	-2.175	-2.0438	-2.4562	-2.1833	-2.3104	-2.4229	-2.1521	-2.4104	-2.075	-2.3521	-2.5458	-2.0917	428.419	157.776	472.208	408.034	310.339	492.802	387.762	274.932	156.042	426.280	486.475	392.721	413.014	476.340	270.930	465.993	0.001005	0.00038577	0.00010229	1131.7	5.8467e-06	3.4042e-06	1237.4	232.86	8.391e-06	2.3438e-06	293.2	83.215	66.029	18.909	4.3245e-06	26.357	0.00053523	0.00056494	0.00015945	1126.5	5.8991e-06	6.4785e-06	1230	233.14	5.9258e-06	5.9956e-06	295.78	83.774	65.983	19.32	5.2754e-06	27.048	401.422	241.704	213.203	152.391	241.992	288.227	152.092	160.156	292.882	323.506	159.387	166.153	166.567	173.939	277.403	173.517	-8191	255	
35746.145	1	1	0	0	0.13573	0.02201	0.31823	0.072852	0.13015	0.042665	0.2817	0.036755	0.10223	0.13925	0.23936	0.20421	0.32801	0.11476	0.21709	0.11391	-1.7729	-2.4167	-2.0125	-2.4188	-1.9396	-2.0083	-2.625	-2.2542	-2.3271	-2.4188	-2.1562	-2.4167	-2.2292	-2.2188	-2.3792	-2.1437	309.289	370.335	279.238	384.404	324.410	262.026	380.387	420.482	423.996	408.264	227.508	487.891	454.764	212.232	308.624	177.124	0.00092939	0.00017379	0.00010568	1127.8	5.7608e-06	2.4081e-06	1233.3	234.37	9.0419e-06	5.1851e-06	292.26	82.875	66.041	19.047	3.7978e-06	26.268	0.00050905	0.00053463	0.00015186	1123.6	5.7951e-06	6.0292e-06	1226.8	233.59	5.8887e-06	6.0715e-06	295.38	83.502	65.808	19.374	5.5863e-06	27.04	403.687	288.873	239.890	152.288	245.754	313.648	152.354	160.145	281.728	300.061	159.457	166.328	166.350	173.760	287.975	173.377	-8191	255	
35746.242	1	1	0	0	0.14433	0.18341	0.25322	0.1791	0.10126	0.13546	0.35309	0.13694	0.31261	0.20804	0.37797	0.11575	0.044278	0.1469	0.14099	0.32352	-1.7292	-2.3125	-1.8979	-2.6167	-2.0812	-2.15	-2.6396	-2.1417	-2.2042	-2.5312	-2.0625	-2.2833	-2.2896	-1.9375	-2.2625	-2.1229	302.434	310.543	192.199	410.284	320.556	431.261	458.463	144.132	443.079	393.002	495.616	167.597	212.228	480.955	312.639	471.075	0.0009504	0.00028176	8.8305e-05	1130	5.6169e-06	4.4924e-06	1233.5	234.54	9.0686e-06	2.0747e-06	291.94	82.33	66.188	18.913	4.4008e-06	26.222	0.0005371	0.00053289	0.00015505	1124.1	5.5487e-06	6.4232e-06	1226.9	233.74	5.8342e-06	6.0219e-06	294.65	83.475	65.875	19.37	5.5812e-06	27	404.440	223.607	215.241	152.480	269.266	289.525	152.150	160.203	269.592	312.650	159.296	166.242	166.519	173.568	299.551	173.320	-8191	255	
35746.336	1	1	0	0	0.2705	0.13907	0.14233	0.21944	0.10624	0.073105	0.27858	0.21195	0.089449	0.19236	0.29381	0.095316	0.16076	0.094021	0.047301	0.047441	-1.9042	-2.1708	-2.0312	-2.2667	-2.3167	-2.0563	-2.6042	-2.3646	-2.0687	-2.45	-2.0187	-2.3333	-2.2	-2.2042	-2.55	-2.2333	412.968	330.022	189.842	159.508	196.406	252.394	453.737	173.382	385.598	492.807	158.065	225.597	462.575	291.839	281.194	470.454	0.00093817	0.0002635	8.0877e-05	1132.9	3.8905e-06	2.9669e-06	1234.2	232.1	7.091e-06	3.0399e-06	293.85	83.247	65.827	19.15	6.4662e-06	26.298	0.00052624	0.00054303	0.00015296	1126.3	5.8392e-06	6.437e-06	1227	233	5.802e-06	5.9645e-06	295.28	83.602	65.934	19.408	5.6408e-06	26.972	404.898	231.293	214.408	152.512	269.196	289.441	152.172	160.412	308.389	298.954	159.569	166.746	166.657	174.009	264.835	172.833	-8191	255	
35746.434	1	1	0	0	0.19171	0.046062	0.21085	0.27948	0.20591	0.21642	0.27145	0.12371	0.1553	0.11838	0.027508	0.12975	0.27611	0.062359	0.11962	0.19948	-1.8208	-2.1875	-2.0563	-2.2812	-2.3688	-1.9208	-2.2854	-2.2562	-1.9979	-2.4979	-2.0875	-2.1375	-2.3708	-1.9354	-2.4313	-2.1896	376.530	177.715	225.753	141.969	311.903	288.464	411.076	202.672	482.588	312.442	300.861	156.005	272.939	365.654	452.309	334.259	0.0010032	0.00041603	8.0686e-05	1127.6	4.5356e-06	1.9655e-06	1230.8	231.93	5.081e-06	1.5993e-06	293.28	82.906	65.739	18.907	2.8723e-06	26.333	0.00053651	0.00056321	0.00015745	1123.5	5.8077e-06	6.441e-06	1225.1	232.74	6.0422e-06	6.2477e-06	294.81	83.568	65.899	19.339	5.7168e-06	26.967	403.362	259.568	256.290	152.407	264.696	272.059	152.372	159.915	276.823	353.025	159.492	166.052	166.499	174.183	275.793	173.283	-8191	255	
35746.531	1	1	0	0	0.23142	0.17121	0.21483	0.3484	0.14308	0.27559	0.26883	0.19286	0.076561	0.045855	0.12006	0.049734	0.18079	0.10303	0.15632	0.1381	-1.5542	-2.3438	-2.2167	-2.2875	-2.4437	-2.0979	-2.4229	-2.2104	-2.1042	-2.2667	-2.2	-2.4313	-2.3896	-2.0417	-2.1979	-2.3688	461.268	143.219	320.369	454.564	333.626	311.248	458.358	409.317	272.592	203.891	398.622	161.150	386.017	207.478	288.686	350.221	0.00090505	0.00026091	6.2006e-05	1130.8	3.9849e-06	3.4835e-06	1237.2	232.94	5.7226e-06	1.7078e-06	293.97	82.774	65.875	18.956	5.2965e-06	26.255	0.00054157	0.00052848	0.00015325	1123.8	5.966e-06	6.5446e-06	1228.3	232.65	6.2387e-06	6.3198e-06	295.81	83.446	65.785	19.339	5.7479e-06	26.936	405.181	225.397	205.526	152.356	256.178	297.948	152.387	160.258	289.510	274.939	159.969	166.195	166.282	174.283	279.042	173.452	-8191	255	
35746.625	1	1	0	0	0.18143	0.26072	0.080072	0.032163	0.025656	0.093839	0.23826	0.32244	0.17948	0.29199	0.16381	0.28679	0.17549	0.16633	0.2129	0.11096	-1.5979	-2.2583	-2.1521	-2.2604	-2.4375	-2.0062	-2.3271	-2.3021	-2.0312	-2.3688	-2.2875	-2.0625	-2.4021	-2.0417	-2.4583	-2.4313	217.560	339.679	354.370	172.928	440.048	181.620	416.690	477.986	257.557	424.736	470.703	477.436	434.471	146.125	366.751	360.012	0.00089787	0.00044492	8.0978e-05	1131.4	5.6738e-06	4.1877e-06	1232.5	232.76	1.0966e-05	2.1655e-06	294.39	83.261	65.602	18.916	3.5283e-06	26.158	0.00054407	0.0005555	0.00015599	1124.8	5.8077e-06	6.2445e-06	1225.7	232.58	5.7846e-06	5.8837e-06	296.1	83.532	65.78	19.361	5.5976e-06	26.953	402.756	232.031	252.703	152.503	260.333	310.102	152.317	160.210	283.072	248.861	159.490	166.472	166.320	173.930	281.890	172.997	-8191	255	
35746.723	1	1	0	0	0.21301	0.1979	0.32907	0.19981	0.012799	0.11725	0.12211	0.14801	0.52317	0.20246	0.12866	0.094801	0.15427	0.14298	0.14691	0.14935	-1.5375	-2.4125	-2.0208	-2.35	-2.35	-2.1771	-2.2854	-2.2917	-2.0521	-2.3396	-2.3187	-1.8917	-2.4208	-2.2333	-2.2125	-2.5438	486.382	339.147	326.794	391.029	427.576	310.605	410.399	145.653	501.201	363.291	330.896	470.318	249.708	455.505	474.997	475.754	0.00098032	0.00030581	6.0143e-05	1128.2	5.418e-06	1.6493e-06	1237.4	231.83	5.8665e-06	2.3316e-06	292.48	82.695	65.329	18.942	3.4566e-06	26.254	0.00053474	0.00054684	0.00014168	1124.1	6.096e-06	5.8288e-06	1227	232.2	5.5898e-06	5.7961e-06	295.18	83.378	65.414	19.289	5.8515e-06	26.915	403.316	190.865	241.274	152.556	255.593	307.578	152.162	160.277	243.716	292.164	159.783	166.360	166.601	174.344	294.409	173.299	-8191	255	
35746.816	1	1	0	0	0.056385	0.14255	0.08818	0.19498	0.093216	0.030846	0.20389	0.13588	0.21157	0.22949	0.21513	0.27593	0.12672	0.046835	0.050288	0.21822	-1.5354	-2.225	-2.1729	-2.0958	-2.4146	-2.0146	-2.2812	-2.6167	-2.0854	-2.3375	-2.5583	-2.1583	-2.4021	-2.2271	-2.0125	-2.5646	440.693	466.374	245.840	425.962	496.532	292.178	474.993	220.647	412.850	331.768	372.727	338.790	365.098	285.831	204.127	457.702	0.00092988	0.0002698	9.7116e-05	1127	8.4683e-06	4.0358e-06	1228.4	233.52	2.9997e-06	1.8904e-06	293.55	82.736	65.528	18.844	4.365e-06	26.14	0.00053096	0.00054623	0.00015412	1122.9	5.7361e-06	5.812e-06	1225.3	232.9	5.5584e-06	5.7815e-06	294.56	83.288	65.743	19.271	5.335e-06	26.895	405.723	217.960	209.404	152.485	258.537	284.048	152.290	159.871	297.600	275.744	159.802	166.295	166.739	174.285	244.489	173.237	-8191	255	
35746.938	1	1	0	0	0.045897	0.10055	0.1323	0.19244	0.10331	0.22713	0.194	0.22647	0.17893	0.43781	0.080215	0.37547	0.30889	0.16269	0.18747	0.23142	-1.6417	-2.3104	-2.4479	-2.2021	-2.4188	-2.3333	-2.2271	-2.5333	-2.0604	-2.2896	-2.3667	-1.9792	-2.2521	-2.0729	-2.0125	-2.4083	338.487	203.145	284.586	450.480	346.365	325.469	142.923	336.328	500.462	436.866	262.632	268.543	476.211	380.043	309.654	459.692	0.00083575	0.00040912	6.9897e-05	1126.4	5.8522e-06	2.6547e-06	1231.4	232.73	6.6087e-06	1.5249e-06	293.72	82.783	65.379	18.939	1.8731e-06	26.306	0.00048365	0.00051002	0.00013932	1122.1	5.529e-06	5.9591e-06	1224.6	232.54	5.2257e-06	5.5342e-06	294.51	83.26	65.571	19.264	5.8204e-06	26.974	408.069	232.480	235.481	152.272	244.062	316.231	152.244	160.193	293.250	303.085	159.531	165.951	166.437	174.322	282.188	173.333	-8191	255	
35747.035	1	1	0	0	0.39715	0.11168	0.1493	0.37284	0.10665	0.2174	0.20956	0.11652	0.16028	0.14121	0.25748	0.27244	0.14266	0.11873	0.060873	0.12123	-1.6583	-2.2958	-2.3417	-2.0062	-2.2792	-2.2792	-1.9188	-2.4708	-2.2604	-2.0812	-2.4062	-1.9562	-2.1833	-2.325	-1.8917	-2.4833	304.424	269.098	488.880	454.739	216.484	234.721	473.858	259.996	244.119	390.582	213.363	497.233	165.486	169.799	382.366	487.157	0.0010236	0.00029365	6.6962e-05	1126.4	8.0581e-06	3.9525e-06	1232.3	231.71	6.4484e-06	3.1549e-06	291.6	83.365	65.6	18.844	4.781e-06	26.087	0.00051966	0.00055758	0.00015332	1121.6	5.9503e-06	6.3679e-06	1226.1	232.78	6.0695e-06	6.3013e-06	294.29	83.472	65.747	19.259	6.2142e-06	26.914	405.256	246.280	244.970	152.517	253.843	281.407	152.200	160.020	287.744	310.035	159.880	166.258	166.303	174.287	280.572	173.463	-8191	255	
35747.133	1	1	0	0	0.18245	0.16235	0.052781	0.51676	0.27214	0.18516	0.3305	0.14626	0.090041	0.078583	0.27831	0.1825	0.26071	0.23815	0.11948	0.2334	-1.7062	-2.2208	-2.3771	-1.9958	-2.3167	-2.3083	-2.0729	-2.5312	-2.4042	-2.1188	-2.4375	-2.0354	-2.1708	-2.3896	-2.0062	-2.4729	192.060	464.544	390.247	442.108	180.635	223.286	492.846	165.472	158.478	392.215	443.071	181.161	213.587	468.214	473.736	467.046	0.0009374	0.0002268	7.72e-05	1127.1	4.4501e-06	3.8972e-06	1237	231.84	6.0199e-06	2.0772e-06	292.95	82.837	65.576	18.816	5.776e-06	26.022	0.00054157	0.00060219	0.0001698	1123.7	6.1298e-06	6.6118e-06	1228.4	232.19	6.0604e-06	6.716e-06	294.86	83.501	65.565	19.285	6.5088e-06	26.878	404.723	211.933	214.592	152.389	258.807	281.284	152.361	160.209	301.943	230.645	159.715	166.373	166.405	174.213	279.810	173.523	-8191	255	
35747.227	1	1	0	0	0.26782	0.19548	0.1589	0.22728	0.078411	0.10744	0.2851	0.29125	0.098965	0.15378	0.17524	0.23584	0.15682	0.097442	0.27226	0.15299	-1.8396	-2.1146	-2.5167	-2.2333	-2.4083	-2.3333	-2.1792	-2.3625	-2.2417	-2.2146	-2.4292	-1.9146	-2.0958	-2.3458	-1.9604	-2.4562	424.678	181.731	157.399	146.498	236.812	345.997	445.471	483.622	149.973	330.012	353.383	490.708	335.016	152.027	490.547	426.679	0.00094519	0.00033309	8.9617e-05	1135.9	4.1485e-06	2.996e-06	1232.9	233.78	9.4327e-06	3.1595e-06	292.61	83.177	65.466	18.877	3.5892e-06	26.315	0.00054928	0.00061163	0.00015882	1125.9	6.2275e-06	6.7016e-06	1227.3	232.65	6.138e-06	6.8104e-06	294.76	83.42	65.486	19.308	6.1935e-06	26.929	403.504	213.653	244.184	152.569	263.140	297.219	152.163	160.024	291.968	283.712	159.570	166.258	166.429	174.241	319.712	173.322	-8191	255	
35747.320	1	1	0	0	0.076909	0.19348	0.17878	0.34209	0.13325	0.11682	0.22742	0.19618	0.20222	0.054421	0.16677	0.079262	0.19791	0.25398	0.03786	0.053044	-1.9125	-1.8583	-2.4083	-2.3125	-2.1688	-2.4917	-2.0625	-2.4292	-2.3021	-2.1562	-2.5042	-1.9917	-2.0875	-2.2062	-1.9896	-2.2521	476.646	374.020	302.350	170.950	358.550	159.217	414.656	409.863	239.133	272.698	349.224	501.803	192.093	406.224	378.654	162.587	0.00093108	0.00016423	6.5852e-05	1127.5	5.7644e-06	2.6922e-06	1236.2	234.03	7.5749e-06	3.1506e-06	292.13	83.114	65.728	18.866	2.4709e-06	26.186	0.00055508	0.00061562	0.00016142	1124.5	6.1865e-06	6.6572e-06	1228.5	233.18	5.8664e-06	6.4308e-06	294.63	83.578	65.698	19.302	6.089e-06	26.893	406.315	268.945	268.930	152.445	269.093	322.278	152.182	160.328	272.506	302.667	159.646	166.339	166.776	174.332	271.132	173.016	-8191	255	
35747.422	1	1	0	0	0.024436	0.083725	0.081644	0.27627	0.054483	0.042947	0.35458	0.15076	0.13729	0.12485	0.082429	0.24163	0.3868	0.232	0.045103	0.14774	-1.9937	-1.95	-2.2271	-2.1958	-2.0271	-2.3896	-2.0167	-2.35	-2.1792	-1.9917	-2.2917	-2.225	-2.0604	-2.375	-1.9188	-2.3292	332.604	414.623	203.928	486.626	489.054	274.966	396.301	456.230	474.050	222.327	157.746	438.403	336.649	447.327	249.121	402.824	0.0009924	0.00035285	6.4778e-05	1130.1	7.7456e-06	3.0774e-06	1230.3	233.85	8.5505e-06	3.8967e-06	293.18	82.459	65.654	18.784	3.0091e-06	26.496	0.00053759	0.00058071	0.00015114	1126	6.307e-06	6.2741e-06	1228.3	232.78	6.0422e-06	6.6138e-06	294.69	83.415	65.676	19.256	6.0139e-06	26.979	402.364	220.126	256.654	152.339	241.909	264.073	152.526	160.026	276.760	275.088	159.565	166.304	166.317	174.211	259.341	173.554	-8191	255	
35747.539	1	1	0	0	0.045753	0.21866	0.31215	0.131	0.19833	0.06341	0.39106	0.091216	0.22638	0.10993	0.14464	0.12171	0.28652	0.30165	0.18449	0.047597	-1.8312	-1.9083	-2.3021	-2.2875	-1.9479	-2.2812	-2.1042	-2.1937	-2.4708	-1.9625	-2.3604	-2.1979	-2.125	-2.1917	-2.2125	-2.1188	340.001	477.959	202.579	408.928	418.690	489.445	372.938	480.090	150.978	499.643	418.301	441.962	260.174	316.061	404.087	320.433	0.0010033	7.6651e-05	9.6952e-05	1130.9	7.6407e-06	2.4849e-06	1231.3	232.88	9.1023e-06	3.4439e-06	293.03	83.035	65.512	18.765	3.9005e-06	26.236	0.00054678	0.00057906	0.00014691	1125.4	6.2409e-06	6.0203e-06	1227.2	232.97	5.6559e-06	6.1144e-06	295.06	83.459	65.629	19.229	5.5855e-06	26.945	404.691	247.628	226.871	152.469	241.091	270.195	152.368	160.114	284.320	298.649	159.480	166.450	166.482	173.648	227.903	173.162	-8191	255	
35747.637	1	1	0	0	0.11105	0.11152	0.1563	0.36453	0.096961	0.17277	0.069041	0.10537	0.31252	0.078661	0.13023	0.20046	0.46734	0.15031	0.15165	0.10688	-1.8188	-1.925	-2.3646	-2.2812	-2.0604	-2.2854	-2.2521	-2.1458	-2.5146	-1.9854	-2.2771	-2.325	-2.1771	-2.2854	-2.1562	-2.1771	377.088	479.142	267.213	460.185	486.104	168.011	328.883	231.309	300.934	500.625	491.981	491.429	148.878	372.100	372.456	368.509	0.00094993	0.00032268	7.2239e-05	1131.4	6.9777e-06	4.4526e-07	1233.7	233.7	7.1618e-06	2.2756e-06	293.71	83.495	65.669	18.975	3.5765e-06	26.171	0.00052998	0.00053359	0.00014348	1124.5	5.9574e-06	5.9097e-06	1227.1	232.95	5.3141e-06	5.8155e-06	294.97	83.638	65.741	19.354	5.4119e-06	26.862	405.210	231.471	213.354	152.602	267.490	318.551	152.360	160.166	281.667	307.379	159.765	166.289	166.739	174.072	293.074	173.766	-8191	255	
35747.730	1	1	0	0	0.15032	0.066632	0.076996	0.20313	0.082908	0.17775	0.14201	0.32275	0.10773	0.15415	0.12836	0.096097	0.048669	0.21635	0.12679	0.18366	-1.9667	-1.7917	-2.2104	-2.4646	-1.9208	-2.4313	-2.1604	-2.0563	-2.4562	-2.1646	-2.0521	-2.4604	-2.0896	-2.1813	-2.4062	-2.0062	233.156	419.505	323.597	401.507	436.107	337.342	407.278	418.507	215.016	410.431	381.993	208.013	221.596	458.714	395.378	471.615	0.00094896	0.00038692	9.7167e-05	1126.8	6.5142e-06	4.1505e-06	1228.7	234.48	8.4469e-06	2.6943e-06	291.51	82.766	65.352	18.79	4.6881e-06	26.325	0.00051917	0.00052302	0.00015352	1122.9	5.9172e-06	5.9354e-06	1226.3	233.09	5.8977e-06	6.018e-06	294.17	83.278	65.698	19.274	6.1227e-06	26.952	404.440	248.472	239.914	152.214	276.134	294.017	152.115	159.945	267.114	284.325	159.512	166.345	167.096	173.930	293.837	173.043	-8191	255	
35747.828	1	1	0	0	0.17865	0.12687	0.24328	0.35054	0.11988	0.19215	0.047935	0.19908	0.22868	0.21569	0.12865	0.25542	0.36418	0.28221	0.17273	0.11922	-2.0812	-2.0708	-2.1646	-2.4917	-1.9521	-2.3333	-2.3063	-2.0438	-2.3979	-2.2375	-2.3063	-2.1458	-2.0333	-2.2104	-2.2125	-1.9937	438.733	377.037	182.457	476.772	197.822	303.298	374.030	337.726	286.968	448.646	263.331	166.270	281.176	263.643	267.054	302.858	0.0010159	0.00037264	7.7674e-05	1129.9	6.3123e-06	3.1409e-06	1236.7	233.11	3.2899e-06	2.5534e-06	294.55	83.28	65.264	19.079	4.9015e-06	26.183	0.00053145	0.00057075	0.00016643	1125.3	5.9904e-06	6.2346e-06	1228.3	232.73	5.7549e-06	6.4931e-06	294.89	83.549	65.56	19.3	6.1002e-06	26.922	403.711	205.888	221.126	152.339	246.321	330.805	152.217	160.433	280.549	307.897	159.486	166.154	166.921	173.753	281.994	173.459	-8191	255	
35747.922	1	1	0	0	0.060957	0.047634	0.089545	0.23766	0.13497	0.12923	0.26006	0.2384	0.24722	0.084852	0.23024	0.18992	0.10404	0.13348	0.084715	0.23491	-1.8667	-2.1104	-1.9583	-2.5125	-1.9208	-2.1917	-2.5208	-2.1604	-2.4979	-2.1646	-2.1833	-2.3625	-2.0875	-2.4625	-2.3771	-2.2479	491.202	308.394	212.115	465.905	295.242	224.021	356.259	159.928	207.159	368.121	457.131	463.339	320.169	305.617	302.149	155.302	0.00094679	0.00025623	9.0238e-05	1126.5	6.1435e-06	3.9482e-06	1231	231.96	8.3484e-06	4.5457e-06	293.43	83.133	65.565	18.874	4.7009e-06	26.284	0.00053184	0.00056104	0.00017239	1123	6.3613e-06	6.9041e-06	1226.9	232.17	6.1652e-06	6.6605e-06	295.18	83.647	65.736	19.325	5.9862e-06	26.966	404.696	192.726	237.007	152.312	241.658	320.367	152.155	160.150	269.106	299.935	159.424	166.180	166.541	174.078	286.346	173.426	-8191	255	
35748.020	1	1	0	0	0.26443	0.12589	0.045629	0.16979	0.032004	0.19792	0.41641	0.15935	0.15147	0.18294	0.094674	0.12689	0.23751	0.13202	0.012439	0.17749	-1.8125	-2.1167	-2.0458	-2.5167	-1.9771	-2.3208	-2.4833	-2.1604	-2.3333	-2.2917	-2.1792	-2.6083	-2.0979	-2.1937	-2.2354	-2.075	357.643	467.729	276.275	475.069	194.603	294.004	411.105	481.699	380.059	498.396	406.257	289.805	145.271	451.827	386.698	497.753	0.0009477	0.00023563	6.1049e-05	1131.9	3.9996e-06	1.5545e-06	1233.6	232.61	8.8016e-06	1.8199e-06	293.43	82.763	65.47	18.794	6.6061e-06	26.122	0.00052821	0.00059283	0.00017073	1127.4	6.1487e-06	6.9623e-06	1229.3	232.35	5.8581e-06	6.3042e-06	294.72	83.462	65.63	19.301	5.7496e-06	26.891	407.995	232.182	218.197	152.432	244.417	334.426	152.277	160.074	281.155	280.989	159.420	166.192	166.513	174.051	288.359	173.238	-8191	255	
35748.141	1	1	0	0	0.055451	0.19169	0.28007	0.18743	0.074804	0.13807	0.10733	0.027166	0.14513	0.11934	0.24931	0.21842	0.15943	0.0012704	0.10415	0.093546	-1.8208	-2.3771	-1.9458	-2.5563	-2.0979	-2.1896	-2.4833	-2.0938	-2.1792	-2.4021	-2.0833	-2.3354	-2.2167	-2.1625	-2.3375	-2.0917	190.478	150.904	393.871	492.569	250.269	383.447	408.305	247.830	142.011	454.979	216.763	498.684	340.712	180.000	185.462	329.423	0.00091151	0.00021042	4.797e-05	1131.4	4.4963e-06	2.8589e-06	1233.2	232.34	4.4199e-06	2.2429e-06	291.98	82.972	65.73	18.855	6.6724e-06	26.203	0.00050743	0.00052917	0.000146	1124.2	5.5085e-06	5.9433e-06	1225.3	232.62	5.1762e-06	5.4787e-06	294.31	83.32	65.663	19.272	4.9835e-06	26.929	404.879	219.702	265.511	152.360	247.944	297.449	152.074	159.952	274.828	299.140	159.432	166.448	166.759	174.238	279.158	173.585	-8191	255	
35748.234	1	1	0	0	0.19114	0.1799	0.22086	0.30373	0.1824	0.15464	0.23628	0.19775	0.083134	0.069337	0.13047	0.10443	0.25674	0.10231	0.10939	0.14789	-1.9271	-2.4708	-1.9896	-2.2938	-2.1312	-2.1229	-2.4083	-2.1521	-2.275	-2.3563	-2.0333	-2.5187	-2.45	-2.1271	-2.4104	-2.1729	241.075	207.995	258.139	377.911	430.056	473.855	454.996	152.282	367.480	485.568	215.351	198.059	357.188	245.343	268.776	488.301	0.00095039	0.00021933	4.5659e-05	1128.8	6.346e-06	2.8169e-06	1224.7	232.64	7.7992e-06	4.3938e-06	291.1	82.414	65.098	18.888	4.2562e-06	26.427	0.0004892	0.00047737	0.0001436	1122.1	5.3337e-06	5.6125e-06	1222.4	232.62	5.1399e-06	5.4495e-06	293.21	83.179	65.565	19.31	4.8159e-06	26.958	406.603	244.523	263.542	152.344	246.209	245.365	152.188	160.151	291.095	309.226	159.667	166.180	166.601	173.988	262.369	173.098	-8191	255	
35748.309	1	1	0	0	0.14381	0.070577	0.06284	0.2023	0.051915	0.052437	0.11775	0.20062	0.17293	0.18253	0.24907	0.19209	0.15936	0.06835	0.075401	0.047255	-1.6313	-2.4021	-2.0208	-2.5604	-2.2875	-2.0333	-2.5208	-2.2125	-2.2021	-2.3292	-2.2125	-2.4396	-2.2354	-2.0854	-2.5375	-2.2354	261.962	210.564	372.726	166.403	435.354	309.435	416.487	432.866	213.070	297.671	161.983	203.280	205.686	163.701	162.146	237.314	0.00097863	0.00057657	5.3926e-05	1123.7	5.9314e-06	3.9172e-06	1227.7	231.72	6.0888e-06	4.0685e-06	290.96	82.822	65.831	18.807	4.186e-06	26.228	0.00049873	0.00047997	0.00013387	1118.2	5.3258e-06	5.8238e-06	1220.2	232.09	5.2811e-06	5.4008e-06	293.99	83.398	65.689	19.253	5.0992e-06	26.899	408.803	240.153	234.910	152.568	254.890	304.890	152.173	160.120	285.166	288.423	159.658	165.849	166.704	174.172	295.221	173.384	-8191	255	
35748.402	1	1	0	0	0.10896	0.24887	0.1891	0.28769	0.17235	0.29643	0.28416	0.054963	0.12765	0.28951	0.25089	0.060414	0.11952	0.088225	0.12602	0.048475	-1.5542	-2.3937	-1.8083	-2.4271	-2.1646	-1.9021	-2.4	-2.2083	-2.0625	-2.1875	-2.1354	-2.2	-2.1542	-1.9854	-2.3729	-2.2687	169.964	357.819	348.688	486.070	297.557	164.101	419.450	186.422	262.335	423.228	198.390	334.477	419.057	413.993	351.252	219.754	0.00099598	0.00027849	5.4809e-05	1125.9	7.9334e-06	3.5231e-06	1229	231.88	6.4392e-06	2.5817e-06	291.96	82.994	65.835	18.909	5.295e-06	25.96	0.00049579	0.00049591	0.0001369	1119.9	5.1132e-06	5.419e-06	1223.7	231.84	5.2885e-06	5.2616e-06	293.87	83.325	65.576	19.28	4.9964e-06	26.905	405.951	269.675	228.408	152.471	264.981	302.952	152.174	160.301	269.795	295.715	159.726	166.504	167.089	174.239	285.240	173.636	-8191	255	
35748.500	1	1	0	0	0.31045	0.12842	0.23856	0.17702	0.24349	0.15637	0.26632	0.1624	0.2184	0.1883	0.25423	0.33555	0.15594	0.36052	0.10443	0.17366	-1.3167	-2.2229	-1.975	-2.4125	-2.3438	-1.9312	-2.5083	-2.1917	-2.0333	-2.4375	-2.1375	-2.0646	-2.3208	-2.0729	-2.5125	-2.0521	179.304	288.271	445.596	481.513	425.378	272.179	175.175	452.090	474.117	227.338	433.588	156.311	464.692	150.152	492.419	459.840	0.0009024	0.00017097	7.7213e-05	1126.1	5.2341e-06	3.7549e-06	1225.5	233.47	3.9073e-06	4.1295e-06	291.98	82.418	65.539	18.745	3.8655e-06	26.102	0.00049618	0.00048057	0.00013325	1119.8	5.2848e-06	5.5503e-06	1220.9	232.2	5.4528e-06	5.176e-06	293.59	83.364	65.589	19.288	5.1148e-06	26.85	408.611	238.486	231.538	152.399	256.324	296.216	152.216	159.970	289.463	286.565	159.617	166.466	166.678	174.095	299.206	173.523	-8191	255	
35748.617	1	1	0	0	0.074924	0.30126	0.43218	0.39048	0.038149	0.082138	0.3944	0.051189	0.13709	0.25556	0.20908	0.12172	0.088064	0.22793	0.060942	0.16494	-1.575	-2.2833	-2.15	-2.3125	-2.1979	-1.9188	-2.4521	-2.2708	-1.7479	-2.4458	-2.1437	-2.1854	-2.3979	-2.0312	-2.3646	-2.25	359.337	249.244	184.881	491.186	403.700	398.286	465.240	191.833	299.780	223.668	271.328	239.428	470.057	419.558	361.109	260.560	0.00094393	0.0002515	8.8047e-05	1124	3.2218e-06	2.9871e-06	1229.5	232.5	5.3157e-06	2.7879e-06	293.15	82.737	65.674	18.813	4.4944e-06	26.403	0.00050257	0.00046671	0.00013145	1118.3	5.2077e-06	5.4466e-06	1220.8	232.18	5.3512e-06	5.1068e-06	294.21	83.294	65.577	19.218	5.2029e-06	26.932	404.982	254.702	237.316	152.498	232.410	276.575	152.337	160.257	266.147	243.194	159.611	166.165	166.226	174.101	279.171	173.438	-8191	255	
35748.715	1	1	0	0	0.19431	0.19879	0.20013	0.22655	0.23712	0.036426	0.20405	0.28065	0.30994	0.20576	0.076271	0.42007	0.3346	0.17396	0.16291	0.20131	-1.65	-2.2979	-2.2792	-2.1813	-2.3812	-2.0125	-2.2979	-2.2812	-1.9167	-2.5583	-2.2021	-2.0896	-2.2729	-1.9375	-2.2479	-2.3312	492.504	322.666	480.180	443.252	336.349	191.408	396.904	394.803	494.744	464.863	489.982	490.343	419.510	148.607	480.360	204.116	0.00098302	0.0001981	7.6357e-05	1127.2	4.4806e-06	2.5435e-06	1225.3	232.39	7.4402e-06	1.8018e-06	292.52	83.125	65.431	18.747	4.4608e-06	26.393	0.00051956	0.00048646	0.00014247	1119.3	5.5046e-06	6.0144e-06	1220.4	231.94	5.565e-06	5.3541e-06	293.79	83.38	65.588	19.229	5.3825e-06	26.964	400.947	230.376	232.719	152.742	254.946	306.305	152.321	160.150	287.211	260.929	159.623	166.181	166.351	173.998	274.935	173.941	-8191	255	
#DATA ENDS
