BOXY.EXE: ISS Imagent and Oximeter Data Acquisition Program Version 0.80
Ascii Record File

#ACQ INFORMATION
2  Detector Channels 
16  External MUX Channels 
1  Auxiliary Channels 
5000  Waveform (CCF) Frequency (Hz)
1  Waveforms Skipped 
30  Waveforms Averaged 
1  Cycles Averaged 
16  Acquisitions per Waveform 
10.0806  Updata Rate (Hz) 

#FILE INFORMATION
TRUE -- External MUX Channel results are PARSED.
FALSE -- AC DC and Phase are NOT grouped.
TRUE -- Companion Program Settings File CREATED.
FALSE -- AC data not excluded
FALSE -- DC data not excluded
FALSE -- Phase data not excluded
FALSE -- Auxillary Chn. data not excluded
Tab delimiters

#CALIBRATION STATE
TRUE -- Waveform Calibration Values APPLIED.


#AUX CALIBRATION VALUES
Val Type	aux-1	

Term	1.0000e+00	
Factor	0.0000e+00	


#WF CALIBRATION VALUES
A = Detector Channel
Val Type	A-AC1	A-AC2	A-AC3	A-AC4	A-AC5	A-AC6	A-AC7	A-AC8	A-AC9	A-AC10	A-AC11	A-AC12	A-AC13	A-AC14	A-AC15	A-AC16	A-DC1	A-DC2	A-DC3	A-DC4	A-DC5	A-DC6	A-DC7	A-DC8	A-DC9	A-DC10	A-DC11	A-DC12	A-DC13	A-DC14	A-DC15	A-DC16	A-Ph1	A-Ph2	A-Ph3	A-Ph4	A-Ph5	A-Ph6	A-Ph7	A-Ph8	A-Ph9	A-Ph10	A-Ph11	A-Ph12	A-Ph13	A-Ph14	A-Ph15	A-Ph16	

Term	0.00000e+00	0.00000e+00	0.00000e+00	0.00000e+00	0.00000e+00	0.00000e+00	0.00000e+00	0.00000e+00	0.00000e+00	0.00000e+00	0.00000e+00	0.00000e+00	0.00000e+00	0.00000e+00	0.00000e+00	0.00000e+00	0.00000e+00	0.00000e+00	0.00000e+00	0.00000e+00	0.00000e+00	0.00000e+00	0.00000e+00	0.00000e+00	0.00000e+00	0.00000e+00	0.00000e+00	0.00000e+00	0.00000e+00	0.00000e+00	0.00000e+00	0.00000e+00	0.00000e+00	0.00000e+00	0.00000e+00	0.00000e+00	0.00000e+00	0.00000e+00	0.00000e+00	0.00000e+00	0.00000e+00	0.00000e+00	0.00000e+00	0.00000e+00	0.00000e+00	0.00000e+00	0.00000e+00	0.00000e+00	
Factor	1.00000e+00	1.00000e+00	1.00000e+00	1.00000e+00	1.00000e+00	1.00000e+00	1.00000e+00	1.00000e+00	1.00000e+00	1.00000e+00	1.00000e+00	1.00000e+00	1.00000e+00	1.00000e+00	1.00000e+00	1.00000e+00	1.00000e+00	1.00000e+00	1.00000e+00	1.00000e+00	1.00000e+00	1.00000e+00	1.00000e+00	1.00000e+00	1.00000e+00	1.00000e+00	1.00000e+00	1.00000e+00	1.00000e+00	1.00000e+00	1.00000e+00	1.00000e+00	X	X	X	X	X	X	X	X	X	X	X	X	X	X	X	X	

B = Detector Channel
Val Type	B-AC1	B-AC2	B-AC3	B-AC4	B-AC5	B-AC6	B-AC7	B-AC8	B-AC9	B-AC10	B-AC11	B-AC12	B-AC13	B-AC14	B-AC15	B-AC16	B-DC1	B-DC2	B-DC3	B-DC4	B-DC5	B-DC6	B-DC7	B-DC8	B-DC9	B-DC10	B-DC11	B-DC12	B-DC13	B-DC14	B-DC15	B-DC16	B-Ph1	B-Ph2	B-Ph3	B-Ph4	B-Ph5	B-Ph6	B-Ph7	B-Ph8	B-Ph9	B-Ph10	B-Ph11	B-Ph12	B-Ph13	B-Ph14	B-Ph15	B-Ph16	

Term	0.00000e+00	0.00000e+00	0.00000e+00	0.00000e+00	0.00000e+00	0.00000e+00	0.00000e+00	0.00000e+00	0.00000e+00	0.00000e+00	0.00000e+00	0.00000e+00	0.00000e+00	0.00000e+00	0.00000e+00	0.00000e+00	0.00000e+00	0.00000e+00	0.00000e+00	0.00000e+00	0.00000e+00	0.00000e+00	0.00000e+00	0.00000e+00	0.00000e+00	0.00000e+00	0.00000e+00	0.00000e+00	0.00000e+00	0.00000e+00	0.00000e+00	0.00000e+00	3.87151e+01	-1.35358e+02	-1.28243e+02	-1.82075e+02	-6.48011e+01	-7.49837e+01	-1.59417e+02	-1.62015e+02	-5.24993e+01	-7.30037e+01	-1.73374e+02	-1.72547e+02	-1.88450e+02	-1.78024e+02	-6.44271e+01	-1.50473e+02	
Factor	6.20168e-05	1.83616e-04	6.50966e-05	1.67319e-01	3.99798e-06	2.33925e-06	2.07214e-01	7.30801e-02	3.69325e-06	2.57816e-06	1.33795e-01	3.71403e-02	4.41454e-02	1.10510e-02	2.54457e-06	1.56295e-02	9.55063e-06	1.16113e-05	3.25442e-06	8.39797e-02	1.21577e-07	1.29098e-07	9.67151e-02	3.67330e-02	1.22588e-07	1.28699e-07	6.51813e-02	1.80533e-02	2.20184e-02	5.60602e-03	1.24295e-07	7.68503e-03	X	X	X	X	X	X	X	X	X	X	X	X	X	X	X	X	



#DISTANCE SETTINGS
A = Detector Channel
A-1	A-2	A-3	A-4	A-5	A-6	A-7	A-8	A-9	A-10	A-11	A-12	A-13	A-14	A-15	A-16	

2.5000e+00	3.0000e+00	2.5000e+00	3.0000e+00	2.0000e+00	3.0000e+00	1.5000e+00	3.0000e+00	3.0000e+00	3.0000e+00	3.0000e+00	3.0000e+00	3.0000e+00	3.0000e+00	1.5000e+00	3.0000e+00	

B = Detector Channel
B-1	B-2	B-3	B-4	B-5	B-6	B-7	B-8	B-9	B-10	B-11	B-12	B-13	B-14	B-15	B-16	

1.0000e+01	1.0000e+01	1.0000e+01	1.4400e+00	1.0000e+01	1.0000e+01	1.5100e+00	1.9400e+00	1.0000e+01	1.0000e+01	1.9900e+00	2.4900e+00	2.4100e+00	2.9000e+00	1.0000e+01	2.9800e+00	




#DATA BEGINS
time	group	step	mark	flag	A-AC1	A-AC2	A-AC3	A-AC4	A-AC5	A-AC6	A-AC7	A-AC8	A-AC9	A-AC10	A-AC11	A-AC12	A-AC13	A-AC14	A-AC15	A-AC16	A-DC1	A-DC2	A-DC3	A-DC4	A-DC5	A-DC6	A-DC7	A-DC8	A-DC9	A-DC10	A-DC11	A-DC12	A-DC13	A-DC14	A-DC15	A-DC16	A-Ph1	A-Ph2	A-Ph3	A-Ph4	A-Ph5	A-Ph6	A-Ph7	A-Ph8	A-Ph9	A-Ph10	A-Ph11	A-Ph12	A-Ph13	A-Ph14	A-Ph15	A-Ph16	B-AC1	B-AC2	B-AC3	B-AC4	B-AC5	B-AC6	B-AC7	B-AC8	B-AC9	B-AC10	B-AC11	B-AC12	B-AC13	B-AC14	B-AC15	B-AC16	B-DC1	B-DC2	B-DC3	B-DC4	B-DC5	B-DC6	B-DC7	B-DC8	B-DC9	B-DC10	B-DC11	B-DC12	B-DC13	B-DC14	B-DC15	B-DC16	B-Ph1	B-Ph2	B-Ph3	B-Ph4	B-Ph5	B-Ph6	B-Ph7	B-Ph8	B-Ph9	B-Ph10	B-Ph11	B-Ph12	B-Ph13	B-Ph14	B-Ph15	B-Ph16	aux-1	digaux	

28414.420	1	1	0	768	0.18279	0.089825	0.13777	0.18523	0.22671	0.24368	0.39544	0.21579	0.047437	0.16433	0.25912	0.22201	0.035756	0.081813	0.16234	0.076265	-2.1	-2.3021	-2.8021	-2.75	-2.2604	-2.7	-2.6083	-2.3438	-2.5417	-2.2271	-2.5417	-2.6708	-2.2292	-2.7562	-2.4542	-2.5542	-51.435	-131.734	38.742	-93.854	-109.914	-16.133	156.139	128.408	-114.834	-84.156	-54.028	-130.558	67.143	40.910	-140.969	40.959	0.0011423	0.00034364	0.00010286	1352.4	8.1786e-06	5.6351e-06	1350.6	365.91	6.7421e-06	6.8742e-06	417.99	140.76	122.5	41.924	6.1995e-06	51.672	0.00050819	0.00045444	0.00012492	1371	5.1665e-06	4.9649e-06	1373.6	374.09	5.0506e-06	4.9412e-06	426.49	143.84	124.9	43.066	4.9845e-06	53.253	8.907	-68.724	-46.638	-137.236	5.319	-15.781	-137.560	-132.537	8.673	-7.572	-133.352	-128.993	-128.478	-123.989	-16.900	-124.423	-8191	255	
28414.516	1	1	0	0	0.23247	0.14007	0.16197	0.2542	0.11867	0.090756	0.17097	0.15477	0.3559	0.12689	0.1398	0.06709	0.049746	0.10694	0.16502	0.10464	-2.1562	-2.2271	-2.4875	-2.6458	-2.1083	-2.3771	-2.6937	-2.4896	-2.7917	-2.3667	-2.5375	-2.5417	-2.3396	-2.6458	-2.4042	-2.5396	153.614	-118.109	7.596	182.756	175.166	159.765	185.775	138.808	-71.562	140.031	142.074	100.081	128.771	-127.657	153.720	-99.771	0.0011295	0.00024454	0.00018279	1345.7	3.5411e-06	5.3301e-06	1349.2	366.69	4.725e-06	5.7435e-06	421.21	140.99	122.72	41.83	4.0457e-06	51.805	0.0005063	0.00045516	0.00012567	1369.9	5.0758e-06	4.9942e-06	1373	374.18	5.0491e-06	5.0171e-06	428.16	143.84	124.95	43.073	5.0334e-06	53.318	11.001	-59.969	-48.226	-137.181	-23.977	6.839	-137.641	-132.662	23.913	0.527	-133.303	-129.210	-128.269	-123.849	4.573	-124.378	-8191	255	
28414.611	1	1	0	0	0.24758	0.14064	0.32309	0.16066	0.24082	0.26014	0.27513	0.083456	0.14055	0.036792	0.10507	0.17892	0.087524	0.16848	0.24351	0.055099	-2.2438	-2.3333	-2.4437	-2.875	-2.0042	-2.5521	-2.6875	-2.2708	-2.7708	-2.3729	-2.5208	-2.6229	-2.2979	-2.7083	-2.425	-2.4604	3.415	3.750	-46.282	125.038	15.649	-104.841	196.977	-0.410	55.332	-104.951	54.490	-87.187	-60.228	-133.384	205.077	60.335	0.0011481	0.00030363	0.00011469	1348.6	7.2203e-06	4.4842e-06	1347.6	366.11	7.243e-06	5.6377e-06	418.99	140.95	122.59	41.849	4.1884e-06	51.787	0.00050561	0.00045165	0.00012668	1370.8	5.1584e-06	4.9485e-06	1372.4	373.96	4.998e-06	4.9356e-06	426.85	143.77	124.92	43.113	5.0086e-06	53.32	11.921	-66.813	-24.444	-137.248	-14.157	-22.137	-137.528	-132.851	-22.019	-18.979	-133.271	-128.945	-128.467	-123.777	-4.287	-124.466	-8191	255	
28414.707	1	1	0	0	0.092518	0.21987	0.13733	0.32583	0.13636	0.21921	0.10313	0.19389	0.075389	0.34892	0.18621	0.15736	0.21487	0.16291	0.053571	0.18668	-2.2896	-2.2792	-2.5479	-2.7625	-2.2271	-2.3229	-2.6125	-2.3479	-2.6021	-2.4333	-2.4458	-2.5812	-2.3292	-2.6	-2.5458	-2.2479	57.967	81.529	45.882	183.326	123.321	148.006	56.430	-74.238	-137.974	-5.734	-135.318	149.836	130.445	-18.126	-21.173	181.697	0.0010853	0.00026179	0.00011786	1349.6	7.3608e-06	7.0416e-06	1350.6	367.75	8.2888e-06	6.1159e-06	419.45	140.88	121.72	42.027	5.4023e-06	51.604	0.00050358	0.00044713	0.00012447	1371.4	5.0994e-06	4.9689e-06	1372.5	374.16	5.0836e-06	4.9313e-06	426.97	143.91	124.81	43.148	4.991e-06	53.249	9.609	-75.754	-55.430	-137.298	20.930	1.595	-137.615	-132.935	-23.936	-6.467	-133.103	-129.032	-128.690	-123.555	-20.041	-124.531	-8191	255	
28414.803	1	1	0	0	0.2667	0.20648	0.057671	0.2018	0.19805	0.24505	0.1534	0.27455	0.17541	0.26842	0.27675	0.23232	0.065243	0.19582	0.050139	0.25891	-2.3	-2.45	-2.2438	-2.7583	-2.1667	-2.5396	-2.6875	-2.3729	-2.625	-2.5917	-2.4917	-2.8438	-2.3375	-2.4729	-2.5896	-2.3563	189.931	166.405	-89.919	142.524	-32.671	-99.100	113.432	138.493	102.708	-118.845	-142.083	199.454	44.629	-104.834	-11.165	104.073	0.0011308	0.00033858	0.00012949	1349.1	4.0095e-06	4.4148e-06	1347.8	366.97	5.964e-06	6.9564e-06	417.67	140.75	122.46	41.89	4.0545e-06	51.928	0.00050716	0.00046922	0.0001281	1371.5	5.0401e-06	5.1768e-06	1372.6	373.92	4.972e-06	4.9083e-06	426.45	143.91	125.04	43.109	4.9379e-06	53.39	12.378	-58.416	-61.984	-137.420	-14.999	-2.889	-137.431	-132.685	23.154	23.848	-133.063	-129.087	-128.589	-123.656	-9.407	-124.610	-8191	255	
28414.900	1	1	0	0	0.074062	0.22086	0.1283	0.24489	0.1637	0.061986	0.1971	0.076652	0.16107	0.056455	0.096265	0.10404	0.3502	0.23627	0.042925	0.14557	-2.2313	-2.4854	-2.475	-2.7458	-2.6083	-2.3104	-2.7958	-2.3292	-2.5563	-2.6	-2.4542	-2.7542	-2.5042	-2.4708	-2.6562	-2.2958	130.551	51.406	13.269	165.588	-103.141	198.241	16.838	122.633	-72.513	-21.801	122.749	-145.679	135.928	25.931	206.489	117.616	0.001084	0.00027703	0.00022814	1347.5	7.5201e-06	4.3591e-06	1350.2	366.83	7.7812e-06	7.0433e-06	419.17	141.47	121.68	42.097	4.6015e-06	51.799	0.00051173	0.00045035	0.00012466	1370.4	4.8909e-06	4.9735e-06	1370.6	374	4.9288e-06	4.7766e-06	426.91	144.06	124.61	43.135	4.8185e-06	53.264	13.028	-84.196	-50.161	-137.015	-13.989	-10.788	-137.446	-132.796	-4.216	-9.190	-133.345	-129.026	-128.607	-123.570	-10.146	-124.608	-8191	255	
28415.020	1	1	0	0	0.2149	0.228	0.21895	0.079537	0.31974	0.31947	0.16958	0.24375	0.13184	0.24047	0.28555	0.11639	0.12021	0.14922	0.16128	0.54749	-2.0938	-2.5417	-2.4688	-2.8333	-2.5396	-2.6208	-2.7687	-2.3458	-2.6271	-2.6271	-2.2083	-2.7208	-2.6167	-2.6208	-2.6521	-2.6125	202.404	56.312	122.006	203.026	52.540	128.071	146.825	129.220	-49.303	176.621	-135.444	-141.441	95.840	182.346	6.180	167.070	0.00099719	0.00028443	0.00019372	1346.9	8.8464e-06	2.4995e-06	1342.3	365.69	9.6358e-06	6.5022e-06	416.73	140.83	122.13	41.963	5.3277e-06	51.69	0.00049926	0.00044234	0.00012182	1367.9	4.8294e-06	4.7696e-06	1368.3	373.69	4.7991e-06	4.8436e-06	425.83	143.73	124.85	43.114	4.9179e-06	53.286	9.746	-55.092	-64.145	-137.292	-34.627	4.075	-137.524	-132.719	-25.969	-24.942	-133.139	-129.198	-128.545	-123.735	-12.799	-124.444	-8191	255	
28415.115	1	1	0	0	0.29431	0.15995	0.13161	0.13731	0.19906	0.067681	0.14378	0.17457	0.086113	0.056805	0.13004	0.12401	0.19726	0.086926	0.17533	0.16048	-2.1188	-2.6312	-2.425	-2.6813	-2.5958	-2.4125	-2.8146	-2.625	-2.4458	-2.8208	-2.5083	-2.5833	-2.5	-2.5458	-2.8688	-2.4333	29.942	37.347	-87.779	-134.112	90.559	8.021	114.351	169.808	135.892	-30.778	31.112	-42.050	-70.206	-22.587	-96.303	181.938	0.0011174	0.0005363	0.00016448	1352.4	5.7508e-06	5.5912e-06	1350.8	367.39	6.3847e-06	5.2407e-06	418.7	140.58	122.89	42.185	4.8736e-06	51.567	0.00050586	0.00044258	0.00012437	1370.1	5.0024e-06	4.8014e-06	1369.9	374	4.889e-06	4.7798e-06	427.08	143.99	125.16	43.222	4.6085e-06	53.343	10.947	-86.229	-61.962	-137.257	-31.782	1.038	-137.580	-132.857	13.746	-3.150	-132.982	-129.053	-128.541	-123.596	-38.893	-124.325	-8191	255	
28415.211	1	1	0	0	0.26749	0.19703	0.18187	0.26708	0.085126	0.12379	0.23537	0.26869	0.11416	0.1876	0.089799	0.24011	0.1395	0.29137	0.063871	0.13669	-1.9875	-2.7083	-2.2	-2.7208	-2.4604	-2.4479	-2.9021	-2.6	-2.6104	-2.7479	-2.6125	-2.6479	-2.7354	-2.475	-2.65	-2.6792	-19.608	59.724	105.275	186.908	-139.156	25.633	-149.361	197.799	161.098	195.835	85.463	-129.930	168.977	-119.168	160.649	199.377	0.0011501	0.00038001	0.00013155	1350	1.2298e-05	7.2449e-06	1349.4	366.8	7.55e-06	7.6044e-06	419.57	141.35	122.39	42.043	5.3478e-06	51.819	0.00048851	0.00042744	0.00012119	1369.6	4.7911e-06	4.6473e-06	1371.9	374.15	4.6438e-06	4.6208e-06	427.17	144.42	125.27	43.299	4.5751e-06	53.476	10.319	-93.402	-32.086	-137.090	-1.397	6.151	-137.389	-132.741	-7.557	-5.961	-133.106	-128.841	-128.691	-123.663	17.029	-124.532	-8191	255	
28415.307	1	1	0	0	0.040035	0.14894	0.10694	0.34822	0.12061	0.18742	0.17156	0.13144	0.19996	0.0031637	0.12935	0.34316	0.082501	0.16796	0.09697	0.16438	-1.8833	-2.7313	-2.3187	-2.7812	-2.6146	-2.4042	-2.7333	-2.6937	-2.6083	-2.9125	-2.5563	-2.6792	-2.5958	-2.6104	-2.725	-2.6813	-6.583	91.879	-65.976	156.459	111.805	49.544	203.862	-11.688	187.444	8.970	-145.040	-146.748	-20.734	-65.393	38.092	15.925	0.0010897	0.00051877	0.00012698	1348.4	8.2678e-06	6.1878e-06	1350.2	368.83	8.3146e-06	5.067e-06	418.97	142	123.22	42.206	5.5786e-06	52.15	0.00048052	0.00040896	0.00012083	1369.9	4.6214e-06	4.5859e-06	1373.4	374.91	4.8394e-06	4.6141e-06	427.43	144.79	125.63	43.417	4.9268e-06	53.624	11.086	-58.871	-41.040	-137.194	-29.237	-7.542	-137.487	-132.519	-8.078	6.759	-133.267	-128.928	-128.210	-123.636	33.704	-124.567	-8191	255	
28415.402	1	1	0	0	0.087066	0.16525	0.2442	0.074404	0.063843	0.085764	0.27808	0.3263	0.19514	0.072676	0.19102	0.095003	0.027287	0.21896	0.13597	0.13206	-1.9188	-2.7792	-2.5	-2.5917	-2.6667	-2.2354	-2.8875	-2.5542	-2.3937	-2.7354	-2.4646	-2.7	-2.6896	-2.5729	-2.6562	-2.675	-122.017	39.581	-138.785	135.808	-124.963	38.994	138.372	114.593	-45.334	137.600	178.394	11.544	160.476	-134.237	18.910	192.103	0.0011881	0.00028836	0.00017692	1355.5	8.1457e-06	4.2305e-06	1356.5	369.13	9.8194e-06	6.1946e-06	417.72	141.96	123.16	42.306	4.4374e-06	52.272	0.00050443	0.00044411	0.00012479	1374.2	4.9624e-06	4.8794e-06	1377.8	375.45	4.8244e-06	4.7528e-06	427.81	144.82	125.86	43.525	4.4492e-06	53.675	8.513	-76.110	-61.561	-137.210	-32.375	30.099	-137.550	-132.654	-1.552	-4.562	-132.997	-128.857	-128.432	-123.719	-25.144	-124.424	-8191	255	
28415.498	1	1	0	0	0.155	0.030527	0.20602	0.028726	0.14911	0.2082	0.10712	0.13805	0.12143	0.23069	0.23937	0.059237	0.16377	0.063097	0.34154	0.25765	-1.9021	-2.7729	-2.6458	-2.6167	-2.625	-2.4354	-2.7833	-2.7208	-2.4708	-2.8083	-2.6188	-2.5604	-2.7729	-2.5	-2.6354	-2.7646	61.281	-76.077	199.808	-34.012	-74.623	-71.995	142.385	-125.862	195.335	-78.799	155.083	21.832	104.833	-106.683	-25.732	124.574	0.0011444	0.00053531	0.00015787	1350.7	7.2854e-06	4.6775e-06	1358.4	368.7	7.6737e-06	5.5219e-06	419.89	142.29	123.77	42.498	5.5544e-06	52.27	0.00048062	0.0004069	0.00011337	1372.5	4.4533e-06	4.4905e-06	1376.9	376.19	4.4259e-06	4.2935e-06	428.93	145.53	126.18	43.63	4.4358e-06	53.791	7.672	-89.490	-71.939	-137.440	-38.883	-11.070	-137.441	-132.739	7.887	-14.638	-133.005	-128.888	-128.553	-123.771	-15.528	-124.525	-8191	255	
28415.619	1	1	0	0	0.13886	0.36339	0.11539	0.24776	0.18911	0.06075	0.33962	0.05105	0.14561	0.19415	0.19717	0.22564	0.028478	0.024017	0.16204	0.035952	-1.9979	-2.6083	-2.5563	-2.6375	-2.8521	-2.3854	-2.7333	-2.7917	-2.2667	-2.6417	-2.5625	-2.5333	-2.7333	-2.4188	-2.475	-2.7792	-35.621	55.675	-108.083	180.781	-46.793	-32.137	-140.865	152.365	35.438	-15.737	181.852	142.489	-11.380	-62.720	181.731	86.447	0.0011618	0.00047389	0.00015523	1348.1	9.9018e-06	4.6638e-06	1349.2	368.23	9.9892e-06	5.3734e-06	419.74	141.81	123.27	42.308	5.4296e-06	52.002	0.00045696	0.00038092	0.00010811	1367.8	4.3661e-06	4.3076e-06	1371.4	375.31	4.3442e-06	4.1768e-06	428.01	144.98	125.84	43.547	4.248e-06	53.708	9.995	-74.660	-60.358	-137.203	9.990	-0.690	-137.413	-132.779	-23.687	-26.015	-133.153	-128.962	-128.413	-123.685	-22.021	-124.537	-8191	255	
28415.717	1	1	0	0	0.23299	0.074866	0.14862	0.148	0.21746	0.15517	0.17487	0.11113	0.34509	0.13621	0.1358	0.1821	0.2852	0.19685	0.1798	0.23769	-1.9646	-2.6417	-2.6271	-2.5708	-2.7667	-2.4771	-2.7958	-2.7333	-2.5438	-2.6833	-2.8104	-2.5563	-2.75	-2.5146	-2.4125	-2.7625	109.078	114.455	43.289	159.987	173.648	91.266	-121.793	-134.456	3.231	72.864	185.243	-147.974	170.745	-133.933	177.162	90.934	0.0010568	0.0004712	0.00022772	1346.2	6.8868e-06	5.9768e-06	1351.6	368.96	1.1275e-05	6.3679e-06	421.41	143	123.41	42.671	4.383e-06	52.568	0.00045491	0.00038571	0.00011016	1369.2	4.3322e-06	4.2936e-06	1372.3	376.35	4.3363e-06	4.2023e-06	428.83	145.59	126.26	43.746	4.4425e-06	53.908	7.968	-97.688	-53.272	-137.081	-3.357	12.416	-137.440	-132.695	-44.077	2.311	-133.141	-128.808	-128.314	-123.878	26.892	-124.420	-8191	255	
28415.812	1	1	0	0	0.034489	0.18943	0.09349	0.26305	0.081855	0.15863	0.26431	0.21959	0.073394	0.069353	0.19378	0.20415	0.21952	0.21986	0.20743	0.33201	-1.8417	-2.575	-2.5333	-2.4271	-2.7583	-2.6125	-2.7125	-2.7729	-2.4688	-2.4458	-2.7604	-2.3312	-2.7938	-2.6583	-2.4104	-2.9	-141.917	-89.367	149.915	169.187	-78.074	-44.873	-41.717	136.767	82.757	75.829	53.904	130.029	-145.834	-119.532	-21.609	120.016	0.0011161	0.00055323	0.00014815	1354.9	9.3753e-06	6.8244e-06	1350.7	368.84	6.0798e-06	5.4324e-06	419.81	142.25	124.05	42.426	6.9508e-06	52.494	0.00047021	0.00039844	0.0001103	1373.5	4.4236e-06	4.3275e-06	1373.5	376.08	4.4198e-06	4.2975e-06	428.81	145.42	126.42	43.711	4.3112e-06	53.812	12.236	-65.753	-72.667	-137.152	-30.504	-6.159	-137.583	-132.694	-25.549	5.985	-133.266	-128.816	-128.472	-123.758	-13.802	-124.360	-8191	255	
28415.906	1	1	0	0	0.047473	0.13646	0.085701	0.3102	0.02999	0.23388	0.24191	0.016587	0.095231	0.196	0.10366	0.16191	0.10459	0.063963	0.28559	0.26292	-1.8	-2.5146	-2.5708	-2.2458	-2.6542	-2.5083	-2.5187	-2.7146	-2.6396	-2.5875	-2.9542	-2.5083	-2.7812	-2.5104	-2.4313	-2.8354	74.264	-135.433	-5.534	-87.115	-116.669	-107.447	112.207	-77.216	-139.143	-71.770	21.726	-150.440	84.712	-61.425	165.001	125.110	0.0010723	0.00041828	0.00010564	1353.7	7.6313e-06	4.2914e-06	1350	368.27	9.5403e-06	6.8595e-06	421.17	143.07	124.14	42.602	5.3706e-06	52.416	0.00045895	0.00039773	0.00010803	1373.4	4.2871e-06	4.2503e-06	1374.3	375.98	4.2635e-06	4.0755e-06	429.14	145.75	126.34	43.716	4.2074e-06	53.957	6.938	-58.686	-27.551	-137.125	-9.457	14.678	-137.331	-132.824	-13.054	-8.755	-133.125	-129.033	-128.088	-123.835	10.151	-124.598	-8191	255	
28416.004	1	1	0	0	0.23735	0.1876	0.12624	0.29071	0.091887	0.11764	0.2223	0.16567	0.25922	0.040643	0.14194	0.18275	0.15177	0.14138	0.12586	0.029844	-2.2438	-2.5646	-2.7917	-2.4708	-2.7083	-2.7146	-2.2812	-2.8104	-2.4875	-2.4396	-2.9083	-2.375	-2.6229	-2.5187	-2.2271	-2.8833	66.476	164.880	-84.358	124.834	38.707	-8.235	87.720	-143.590	-101.847	178.360	-103.055	187.231	-128.554	-122.416	1.618	-147.742	0.001161	0.00034152	0.00016501	1344.3	9.138e-06	2.676e-06	1350.8	367.81	8.1273e-06	7.1208e-06	418.1	142.67	123.52	42.611	5.4772e-06	52.289	0.00045079	0.00037238	0.00010643	1367.5	4.2228e-06	4.0913e-06	1372.9	375.69	4.0656e-06	4.1224e-06	427.51	145.35	126.09	43.76	4.1214e-06	53.939	10.213	-57.999	-49.414	-137.026	-26.001	-7.181	-137.516	-132.712	-40.013	-28.536	-133.269	-128.942	-128.468	-123.814	-2.733	-124.540	-8191	255	
28416.100	1	1	0	0	0.099049	0.21117	0.035055	0.080193	0.14615	0.052651	0.1959	0.068902	0.17961	0.1372	0.084499	0.25262	0.11002	0.078768	0.12891	0.16735	-2.0479	-2.2687	-2.5292	-2.5146	-2.5021	-2.6833	-2.4604	-2.7729	-2.4188	-2.3833	-2.7458	-2.475	-2.6063	-2.7625	-2.2667	-2.8979	55.564	173.600	-5.146	-132.091	-143.304	-101.081	57.126	83.806	189.069	-53.016	198.277	200.867	-2.405	158.637	-131.285	125.295	0.0011058	0.00031688	0.00013847	1346.8	7.4998e-06	4.4762e-06	1353.4	369.32	9.8853e-06	4.2563e-06	420.6	142.79	125.08	42.777	4.5992e-06	52.572	0.00043225	0.0003787	0.00010085	1368.6	4.0614e-06	3.8907e-06	1375.2	375.75	4.0025e-06	3.8521e-06	428.02	145.95	127.05	43.913	3.9381e-06	54.097	10.207	-79.311	-68.120	-137.245	-11.120	-0.876	-137.478	-132.795	-20.377	-21.625	-133.172	-128.949	-128.396	-123.858	-21.146	-124.662	-8191	255	
28416.195	1	1	0	0	0.099296	0.016454	0.062923	0.1675	0.14936	0.21889	0.28279	0.13923	0.21665	0.41775	0.13609	0.21641	0.2872	0.053578	0.11825	0.072784	-2.0792	-2.2854	-2.8312	-2.4646	-2.4875	-2.6688	-2.3167	-2.7313	-2.6125	-2.2687	-2.7042	-2.7729	-2.4708	-2.6333	-2.2625	-2.5729	32.923	-61.991	-44.979	91.652	171.349	-79.403	170.942	143.727	195.821	41.116	-63.569	-89.825	84.308	14.471	195.309	-65.806	0.0011055	0.00029455	7.5082e-05	1346.7	8.2259e-06	4.2979e-06	1352.3	368.41	1.2663e-05	6.5112e-06	422.07	143.72	124.09	42.677	5.1294e-06	52.861	0.00042309	0.00034127	9.6229e-05	1367.2	3.9026e-06	3.8689e-06	1374.3	376.19	4.0033e-06	3.8537e-06	429.75	146.22	126.76	43.897	3.9762e-06	54.188	9.500	-47.161	-68.229	-137.209	-12.362	-18.972	-137.449	-132.790	-17.111	12.355	-133.251	-129.130	-128.488	-123.789	-6.194	-124.787	-8191	255	
28416.291	1	1	0	0	0.065541	0.21381	0.17455	0.21469	0.28195	0.12911	0.22466	0.11762	0.31789	0.23332	0.2555	0.12769	0.055557	0.080003	0.19415	0.17206	-2.1208	-2.2979	-2.6833	-2.5563	-2.3604	-2.6063	-2.5146	-2.5771	-2.2938	-2.275	-2.65	-2.525	-2.4333	-2.625	-2.3875	-2.6937	-90.061	153.382	-1.276	152.793	143.375	-43.091	179.578	119.331	27.308	-116.153	179.221	125.654	166.453	38.878	-38.961	-150.395	0.0011627	0.00030577	0.00012727	1351.9	1.085e-05	7.0202e-06	1356.5	368.07	1.1762e-05	4.37e-06	420.3	143.24	124.23	42.884	5.7045e-06	52.353	0.00042439	0.00037011	9.9633e-05	1371.9	4.0842e-06	3.9456e-06	1376.6	376.21	4.0536e-06	4.0749e-06	428.93	146.17	126.63	43.853	4.1507e-06	53.939	11.819	-80.665	-70.945	-137.054	-26.487	-16.411	-137.583	-132.853	-38.973	17.299	-133.372	-128.944	-128.492	-123.948	0.506	-124.508	-8191	255	
28416.387	1	1	0	0	0.27252	0.3218	0.10479	0.15335	0.10195	0.10437	0.27657	0.28934	0.22937	0.12998	0.049854	0.38146	0.3303	0.026981	0.15302	0.21708	-2.3438	-2.225	-2.4792	-2.6688	-2.5938	-2.6875	-2.6479	-2.6125	-2.6979	-2.2854	-2.7542	-2.6042	-2.4042	-2.6813	-2.4062	-2.4896	173.021	-41.895	12.006	171.400	-40.344	112.733	146.513	208.138	146.226	130.537	88.612	138.316	-145.435	119.630	-143.674	-86.892	0.001102	0.00044385	0.00016354	1348.5	7.706e-06	4.1662e-06	1349.8	369.03	7.9647e-06	4.1486e-06	419.8	142.32	123.93	42.331	8.7159e-06	52.276	0.00044245	0.0003742	0.00010533	1368.6	4.2177e-06	4.0822e-06	1373.2	375.72	4.2824e-06	4.2873e-06	427.63	145.36	126.07	43.583	4.2382e-06	53.854	8.815	-54.456	-63.433	-137.359	-39.595	6.660	-137.467	-132.591	-2.225	5.497	-133.067	-129.056	-128.438	-123.739	-12.151	-124.623	-8191	255	
28416.508	1	1	0	0	0.20589	0.11311	0.19992	0.28418	0.21477	0.049379	0.45897	0.17053	0.35606	0.046305	0.11188	0.1098	0.083355	0.15765	0.13435	0.21341	-2.1104	-2.1729	-2.6312	-2.5583	-2.3354	-2.6167	-2.4896	-2.4021	-2.7104	-2.3208	-2.7146	-2.7208	-2.3042	-2.6646	-2.2542	-2.5833	113.862	-91.631	-99.467	177.106	-96.183	69.233	125.806	168.108	-105.240	104.346	144.085	-92.812	35.151	191.377	11.056	-103.649	0.0011685	0.00047184	0.00012608	1347.9	5.0903e-06	6.3502e-06	1347.8	367.65	8.2596e-06	6.8603e-06	420.01	142.35	123.73	42.424	6.1647e-06	52.117	0.0004563	0.0003921	0.00010826	1368.8	4.3228e-06	4.1874e-06	1370.6	374.61	4.286e-06	4.3715e-06	427.55	145.34	126.22	43.646	4.2335e-06	53.826	8.088	-59.183	-63.860	-137.331	14.704	-16.980	-137.317	-132.739	-21.553	6.258	-133.166	-129.047	-128.403	-123.706	1.544	-124.508	-8191	255	
28416.580	1	1	0	0	0.27122	0.32426	0.030158	0.10069	0.13429	0.3652	0.20661	0.25599	0.028056	0.14445	0.10361	0.22718	0.14862	0.13804	0.017588	0.11667	-2.5021	-2.3521	-2.6208	-2.7604	-2.4	-2.6167	-2.6458	-2.5438	-2.7792	-2.275	-2.6188	-2.775	-2.4667	-2.7438	-2.4896	-2.4708	163.882	141.716	-148.427	136.794	79.019	167.880	96.050	147.434	98.030	103.313	185.221	-118.468	-113.699	-96.392	-142.869	19.836	0.0011434	0.00044385	0.00024143	1346.5	1.0118e-05	5.127e-06	1350.5	368.73	8.9893e-06	7.6974e-06	420.86	142.13	124.32	42.544	5.6888e-06	52.048	0.0004605	0.00039517	0.00010712	1369	4.4758e-06	4.2998e-06	1374	375.35	4.4553e-06	4.3991e-06	428.4	145.26	126.34	43.667	4.3944e-06	53.674	9.389	-67.976	-70.407	-137.116	-28.986	-7.292	-137.698	-132.861	-14.647	5.410	-133.259	-128.938	-128.491	-123.889	-11.986	-124.481	-8191	255	
28416.699	1	1	0	0	0.20378	0.22109	0.1933	0.18979	0.10294	0.16167	0.21472	0.17811	0.2125	0.17856	0.14045	0.093923	0.017251	0.25489	0.092275	0.25949	-2.1854	-2.4	-2.5417	-2.8438	-2.1937	-2.4521	-2.775	-2.3958	-2.5521	-2.3854	-2.475	-2.6312	-2.2562	-2.6042	-2.3375	-2.4458	193.319	-38.986	37.206	175.283	0.238	-104.173	132.383	122.709	208.707	37.011	43.987	187.592	158.502	192.530	-74.198	174.510	0.0011163	0.00013139	0.00020324	1350	7.7715e-06	4.143e-06	1353	367.14	1.1777e-05	5.3441e-06	419.64	142.45	123.68	42.43	7.8503e-06	52.525	0.0004639	0.00039299	0.00011157	1370.3	4.5903e-06	4.36e-06	1374.7	375.04	4.2822e-06	4.3929e-06	428.06	145.59	126.37	43.705	4.2576e-06	53.986	8.226	-87.462	-60.165	-137.125	-4.720	-6.007	-137.602	-132.835	-23.498	-23.666	-133.193	-128.888	-128.621	-123.804	-20.503	-124.516	-8191	255	
28416.797	1	1	0	0	0.10834	0.18506	0.21565	0.30905	0.19455	0.14442	0.28609	0.073985	0.044747	0.15309	0.16889	0.24851	0.14549	0.046591	0.29567	0.059892	-2.3542	-2.4229	-2.4208	-2.8896	-2.2979	-2.6521	-2.6646	-2.4604	-2.6437	-2.3833	-2.4521	-2.6521	-2.3187	-2.7146	-2.65	-2.3	-145.428	-72.628	128.709	147.563	69.121	93.457	100.169	185.823	-130.550	-91.999	155.200	165.190	-136.713	113.189	-41.785	-144.468	0.0011129	0.00050598	0.00013001	1348.3	1.1726e-05	6.6207e-06	1355.5	369.24	7.6126e-06	8.8454e-06	419.01	143.16	124.03	42.498	7.168e-06	52.648	0.00044938	0.00038179	0.00010646	1370.8	4.2666e-06	4.0405e-06	1375.7	375.45	4.1772e-06	4.1251e-06	427.83	145.93	126.72	43.761	4.0761e-06	54.101	10.837	-64.685	-71.088	-137.246	-9.346	-12.968	-137.549	-132.697	-1.219	-11.623	-133.343	-128.966	-128.585	-123.803	-9.360	-124.598	-8191	255	
28416.893	1	1	0	0	0.26539	0.17015	0.097928	0.34031	0.088076	0.18571	0.19618	0.14422	0.24345	0.13144	0.30486	0.17986	0.28205	0.080671	0.3062	0.19399	-2.4625	-2.5396	-2.2562	-2.8333	-2.3542	-2.6125	-2.7604	-2.3521	-2.7042	-2.5354	-2.45	-2.725	-2.4854	-2.7979	-2.6875	-2.35	134.801	-34.032	-48.912	-150.333	60.140	-101.649	197.075	160.495	132.433	181.822	188.987	27.825	37.912	209.058	-33.747	204.904	0.0010988	0.00050021	0.00014136	1349.4	9.9505e-06	6.9579e-06	1353.5	368.7	7.6898e-06	5.0638e-06	421.44	142.86	125.1	42.675	4.6241e-06	52.628	0.00044562	0.00036675	0.00010696	1371.1	4.239e-06	4.126e-06	1375.5	376.41	4.2707e-06	4.1398e-06	429.56	145.99	126.93	43.89	4.2903e-06	54.134	8.310	-60.383	-64.334	-137.126	-28.044	-8.560	-137.641	-132.762	-13.766	-11.144	-133.133	-129.090	-128.783	-123.570	-43.069	-124.604	-8191	255	
28416.988	1	1	0	0	0.077469	0.12466	0.13354	0.16403	0.13916	0.11029	0.1753	0.12538	0.070056	0.19406	0.093843	0.22613	0.25071	0.12026	0.29183	0.22134	-2.0583	-2.4021	-2.3167	-2.9771	-2.4667	-2.3563	-2.8312	-2.3438	-2.5792	-2.5667	-2.5083	-3.0083	-2.625	-2.6937	-2.7083	-2.5146	115.702	-7.158	-109.156	93.751	26.864	137.926	-140.708	197.797	-66.758	-135.141	199.430	128.781	188.977	152.837	-8.634	174.531	0.0012006	0.00055163	0.00020189	1349.4	6.6963e-06	8.0918e-06	1356.4	370.92	8.6908e-06	5.6202e-06	421.02	142.81	124.93	42.991	7.1702e-06	52.599	0.00045182	0.0003755	0.00010615	1370.6	4.2823e-06	4.1653e-06	1376.8	376.73	3.9859e-06	3.8878e-06	429.57	146.31	126.96	43.97	4.0474e-06	54.189	10.578	-60.440	-51.480	-137.255	-18.757	-10.028	-137.652	-132.701	-40.576	16.888	-132.990	-129.020	-128.684	-123.862	-20.095	-124.517	-8191	255	
28417.107	1	1	0	0	0.14072	0.056132	0.12192	0.23462	0.08061	0.28897	0.12756	0.11586	0.08997	0.26388	0.084039	0.27124	0.2032	0.20994	0.013587	0.17723	-2.375	-2.4479	-2.3229	-2.8917	-2.5271	-2.4042	-2.9542	-2.4875	-2.5417	-2.7208	-2.3771	-2.7646	-2.5292	-2.4813	-2.6979	-2.4979	-2.591	82.186	65.896	175.046	139.715	49.789	82.297	149.058	-104.408	21.474	-52.722	-39.456	-115.048	181.251	-42.446	145.225	0.0010883	0.00035268	0.00010696	1352.1	7.2174e-06	3.6568e-06	1352	368.38	8.709e-06	5.5601e-06	421.74	142.65	124.14	42.504	6.1039e-06	52.459	0.00042377	0.00036002	9.888e-05	1370.8	4.0429e-06	3.8885e-06	1375.8	375.67	3.9637e-06	4.0489e-06	428.71	145.95	126.55	43.799	4.1017e-06	53.972	9.937	-59.732	-60.691	-137.068	-27.077	-4.196	-137.343	-132.876	-1.684	6.847	-132.976	-128.817	-128.564	-123.955	-14.341	-124.328	-8191	255	
28417.203	1	1	0	0	0.24044	0.20215	0.029143	0.37412	0.083275	0.05264	0.19754	0.1981	0.14418	0.19064	0.29434	0.11245	0.25678	0.11854	0.052228	0.022925	-2.1208	-2.3646	-2.3271	-2.6479	-2.4354	-2.4813	-2.9042	-2.4833	-2.5187	-2.7125	-2.5771	-2.6521	-2.475	-2.4979	-2.6333	-2.5062	121.796	-72.276	105.680	161.352	71.429	53.106	186.656	-105.207	51.399	157.742	96.689	75.757	207.500	136.649	145.252	177.601	0.0011332	0.00044752	0.00016508	1348.9	1.0869e-05	6.0989e-06	1352	369.03	9.5072e-06	8.6074e-06	420.13	142.62	122.92	42.672	6.8685e-06	52.264	0.00045075	0.00037804	0.00010689	1370.6	4.3264e-06	4.4023e-06	1376.2	375.99	4.4883e-06	4.3991e-06	429.33	145.82	126.2	43.769	4.5029e-06	53.894	9.569	-71.046	-62.979	-137.172	-28.980	-1.343	-137.513	-132.775	-9.871	-10.925	-133.180	-129.164	-128.427	-123.905	-22.328	-124.326	-8191	255	
28417.275	1	1	0	0	0.11552	0.17447	0.19925	0.31684	0.33374	0.3205	0.24584	0.04131	0.070129	0.12964	0.082949	0.15566	0.30568	0.21384	0.22108	0.33995	-2.0333	-2.7792	-2.2042	-2.8542	-2.5833	-2.3333	-2.6646	-2.5146	-2.4833	-2.7771	-2.4	-2.5417	-2.5792	-2.2208	-2.6312	-2.4542	25.389	155.487	31.345	109.611	120.130	205.955	195.149	109.410	56.453	-105.390	-70.772	190.584	134.408	-134.486	-85.681	139.270	0.00104	0.00041614	0.00014123	1351.6	1.0668e-05	4.6469e-06	1354.8	368.67	7.5765e-06	5.798e-06	419.34	141.48	124.24	42.31	7.7053e-06	52.146	0.0004791	0.00041958	0.000119	1373	4.6617e-06	4.7613e-06	1377	375.47	4.7858e-06	4.6409e-06	427.72	145.33	126.23	43.628	4.8493e-06	53.833	6.839	-99.595	-76.996	-137.194	-10.870	21.103	-137.560	-132.522	-12.423	-18.776	-133.313	-129.215	-128.732	-123.880	-34.183	-124.564	-8191	255	
28417.396	1	1	0	0	0.13761	0.11029	0.26499	0.30009	0.14157	0.21781	0.13117	0.10631	0.1465	0.068518	0.14708	0.072118	0.17661	0.28834	0.28704	0.24647	-2.0646	-2.7708	-2.3	-2.7	-2.7125	-2.2333	-2.8667	-2.6875	-2.3792	-2.7188	-2.3542	-2.5687	-2.7125	-2.3917	-2.6312	-2.6708	30.957	73.033	57.255	188.620	69.672	146.652	153.304	156.885	40.648	-108.517	-44.815	-107.724	165.865	158.209	-75.055	55.156	0.0011088	9.7636e-05	0.00015104	1352.5	9.0024e-06	4.1428e-06	1355.4	368.85	8.5907e-06	8.6987e-06	420.21	142.34	124.15	42.412	6.9901e-06	52.244	0.00049359	0.00043576	0.00012367	1373.5	4.8962e-06	4.9143e-06	1378.4	376.09	4.8481e-06	4.8364e-06	428.88	145.48	126.58	43.654	5.0024e-06	53.79	10.518	-39.925	-70.499	-137.189	-41.517	-41.414	-137.446	-132.595	2.290	3.122	-133.239	-128.853	-128.622	-123.613	1.501	-124.586	-8191	255	
28417.492	1	1	0	0	0.0569	0.34679	0.17418	0.12379	0.22205	0.12333	0.29674	0.06689	0.44238	0.2037	0.20664	0.21381	0.16671	0.17882	0.1104	0.14143	-1.8854	-2.7062	-2.3854	-2.6521	-2.5875	-2.2333	-2.7104	-2.7042	-2.5896	-2.8312	-2.5542	-2.5771	-2.825	-2.3	-2.525	-2.6312	139.943	203.240	178.353	131.295	145.527	-44.945	127.439	176.434	-16.327	104.118	143.633	158.246	80.432	190.961	-78.911	100.189	0.0010726	0.00051396	0.00022873	1354.8	2.6261e-06	4.2005e-06	1355.3	368.21	6.1816e-06	8.0898e-06	421.48	142.31	122.71	42.296	4.8658e-06	52.156	0.00050093	0.00044534	0.00012639	1375.2	5.0508e-06	5.0273e-06	1377.7	375.74	5.1081e-06	5.0544e-06	429.48	145.56	126.16	43.662	5.1603e-06	53.8	7.461	-45.720	-63.529	-137.032	-48.357	-38.015	-137.554	-132.906	-0.671	1.270	-133.067	-129.038	-128.441	-123.495	-6.390	-124.527	-8191	255	
28417.588	1	1	0	0	0.28526	0.092594	0.16271	0.24055	0.0807	0.082142	0.13742	0.30428	0.096897	0.045999	0.069357	0.015249	0.16918	0.20554	0.050233	0.20804	-1.7354	-2.5438	-2.3292	-2.5	-2.6104	-2.4	-2.7479	-2.7354	-2.3	-2.6833	-2.5146	-2.5208	-2.6396	-2.4271	-2.5292	-2.6833	128.209	-127.006	155.689	147.526	122.643	-145.816	122.839	135.485	141.423	32.542	31.833	164.453	3.729	-130.863	30.492	7.675	0.0011903	0.00042611	0.00012938	1354.9	1.0165e-05	2.2912e-06	1359.7	368.97	1.1006e-05	4.2803e-06	419.23	142.3	123.57	42.468	6.8499e-06	52.48	0.00052421	0.00046259	0.00012895	1377.5	5.1511e-06	5.1803e-06	1380.4	376.2	5.2161e-06	4.9965e-06	428.36	145.43	126.26	43.607	4.898e-06	53.923	7.485	-44.897	-52.187	-137.310	-18.340	-13.303	-137.449	-132.750	5.450	-7.848	-133.429	-128.814	-128.863	-123.574	-20.420	-124.615	-8191	255	
28417.684	1	1	0	0	0.1014	0.06562	0.10518	0.30264	0.17598	0.24414	0.10301	0.077555	0.38055	0.20277	0.23134	0.091361	0.036491	0.066197	0.2471	0.1296	-1.7604	-2.7687	-2.3792	-2.4708	-2.65	-2.1937	-2.7646	-2.8604	-2.4979	-2.6021	-2.6437	-2.4604	-2.775	-2.35	-2.5271	-2.7542	-61.770	-85.853	111.111	151.981	119.587	156.110	205.310	175.138	-121.387	104.952	-133.624	40.310	-60.062	33.380	-138.328	184.283	0.0011658	0.00040124	0.00014849	1356.1	1.1906e-05	4.0819e-06	1359	369.51	1.1198e-05	5.7465e-06	421.35	142.32	124.55	42.568	4.6334e-06	52.24	0.00050961	0.00045277	0.0001221	1376.7	4.9408e-06	4.8412e-06	1380.1	376.31	4.8908e-06	4.7099e-06	429.22	145.59	126.47	43.707	4.7416e-06	53.818	10.402	-45.665	-46.359	-137.303	-7.159	27.623	-137.611	-132.872	-18.104	23.310	-133.167	-129.026	-128.505	-123.644	-15.145	-124.373	-8191	255	
28417.803	1	1	0	0	0.25296	0.02679	0.32182	0.42966	0.23503	0.10315	0.10096	0.19373	0.14357	0.19818	0.16493	0.31933	0.11018	0.15696	0.13122	0.2574	-1.9271	-2.7042	-2.4938	-2.3708	-2.8771	-2.1937	-2.6937	-2.7188	-2.3729	-2.4854	-2.6708	-2.4167	-2.7625	-2.5417	-2.3375	-2.8417	11.983	-134.572	-22.140	206.584	42.341	-4.712	152.371	197.701	-130.162	184.610	-108.153	141.517	166.335	-53.214	183.619	150.002	0.00109	0.00052825	0.00014313	1353.3	6.7394e-06	7.0133e-06	1355.8	369.59	6.8741e-06	4.7906e-06	419.98	142.39	124.48	42.534	7.4079e-06	52.284	0.00049606	0.00043368	0.00011768	1374.9	4.8886e-06	4.6927e-06	1378.2	376.13	4.9188e-06	4.8407e-06	428.24	145.85	126.63	43.682	4.868e-06	53.816	9.851	-56.479	-60.224	-137.337	-46.699	3.903	-137.470	-132.733	-23.542	5.917	-133.129	-129.083	-128.616	-123.509	-14.449	-124.543	-8191	255	
28417.877	1	1	0	0	0.16562	0.062094	0.092248	0.34142	0.12098	0.18912	0.18378	0.40265	0.20245	0.1823	0.11207	0.18217	0.11588	0.24981	0.1033	0.078926	-1.8771	-2.4333	-2.6	-2.4833	-2.6833	-2.5167	-2.3708	-2.7687	-2.2333	-2.4562	-2.7521	-2.2938	-2.7521	-2.5771	-2.3833	-2.8833	-135.424	-41.789	186.979	151.647	75.201	-147.138	153.656	104.735	-134.208	41.198	-97.812	-105.305	52.512	203.724	-44.797	-146.760	0.0011289	0.00042944	6.2671e-05	1350.3	6.6557e-06	3.1479e-06	1356.9	369.13	1.3322e-05	4.4954e-06	419.13	141.95	123.76	42.263	3.4165e-06	51.989	0.00049795	0.00044174	0.00012551	1374	4.9375e-06	4.9195e-06	1378.8	376.09	4.9561e-06	4.9675e-06	428.41	145.55	126.22	43.508	5.0425e-06	53.718	5.294	-62.221	-63.881	-137.377	-12.635	1.932	-137.572	-132.609	-34.446	-16.749	-133.037	-129.082	-128.416	-123.956	-32.666	-124.483	-8191	255	
28417.973	1	1	0	0	0.11155	0.11286	0.18325	0.17203	0.2058	0.14875	0.20044	0.44489	0.060859	0.074387	0.097038	0.33193	0.24642	0.18723	0.063759	0.17493	-1.7625	-2.3208	-2.6	-2.4854	-2.6625	-2.6625	-2.5062	-2.7729	-2.4083	-2.5208	-2.5417	-2.3667	-2.5271	-2.6417	-2.225	-2.7333	-10.517	12.396	-81.653	161.244	-96.775	14.983	92.001	132.888	-97.021	-95.111	49.731	80.219	140.784	189.967	192.743	151.175	0.0011029	0.00041669	0.0001375	1350.3	4.3113e-06	5.81e-06	1355.5	369.58	7.1364e-06	5.2869e-06	419.71	142.21	123.24	42.359	3.492e-06	52.191	0.00050483	0.00045161	0.00012421	1374.1	5.0148e-06	5.0241e-06	1379.7	375.85	5.0412e-06	5.0139e-06	428	145.65	126.44	43.592	5.0513e-06	53.746	7.629	-101.277	-60.819	-137.156	-58.237	2.521	-137.577	-132.685	-14.984	-3.637	-133.116	-128.977	-128.460	-123.727	0.460	-124.332	-8191	255	
28418.068	1	1	0	0	0.22412	0.13335	0.21579	0.45073	0.22058	0.13212	0.18982	0.2796	0.14746	0.18655	0.27426	0.23462	0.1743	0.081872	0.21707	0.25578	-1.9604	-2.3854	-2.5083	-2.3458	-2.5146	-2.6125	-2.6417	-2.9333	-2.3563	-2.4562	-2.7042	-2.4417	-2.4979	-2.6292	-2.3229	-2.5958	37.384	0.683	58.507	127.583	-37.701	44.250	121.039	184.925	-19.542	-45.553	131.509	155.511	178.020	-6.611	-22.677	-102.693	0.0010973	0.00041233	0.00012143	1353.2	9.2599e-06	5.0873e-06	1356.6	367.54	9.4284e-06	4.1596e-06	422.61	142.37	123.49	42.367	3.3722e-06	52.193	0.00051146	0.00046235	0.00012641	1376.7	5.0115e-06	5.0026e-06	1379.8	375.75	5.1058e-06	4.9394e-06	428.88	145.41	126.21	43.531	5.1267e-06	53.816	11.336	-65.752	-74.073	-137.245	-24.774	-28.885	-137.469	-132.622	-30.164	-15.014	-133.276	-128.945	-128.703	-123.692	-55.438	-124.490	-8191	255	
28418.188	1	1	0	0	0.13487	0.13819	0.25199	0.26671	0.14835	0.21355	0.21945	0.13604	0.13223	0.05591	0.11499	0.19505	0.32739	0.25817	0.21099	0.18079	-1.9917	-2.3708	-2.6979	-2.3458	-2.4021	-2.5021	-2.3604	-2.5625	-2.4375	-2.375	-2.7958	-2.2854	-2.5396	-2.4562	-2.4229	-2.7938	-76.627	54.066	51.901	155.632	-63.376	-21.411	194.525	188.994	56.529	-117.179	183.292	198.144	192.379	-19.695	-40.413	144.432	0.0010878	0.00044	0.0001505	1352.9	8.1751e-06	6.3225e-06	1357.8	368.58	1.0436e-05	4.9073e-06	420.2	142.34	123.47	42.602	8.9244e-06	52.247	0.00050326	0.00046629	0.00013001	1376.6	5.146e-06	4.941e-06	1380.9	376.12	5.0108e-06	5.0337e-06	428.37	145.59	125.98	43.666	4.9912e-06	53.814	12.548	-50.380	-72.743	-137.079	-2.879	-6.231	-137.465	-132.747	-28.282	-7.409	-133.373	-129.104	-128.701	-123.842	-14.965	-124.530	-8191	255	
28418.283	1	1	0	0	0.14931	0.069584	0.1159	0.16077	0.10798	0.23923	0.21064	0.35839	0.20149	0.11306	0.11174	0.26575	0.16901	0.13556	0.24046	0.059441	-2.0938	-2.2167	-2.5729	-2.4313	-2.4	-2.375	-2.4875	-2.6375	-2.4104	-2.2771	-2.8042	-2.3937	-2.5938	-2.625	-2.2417	-2.5729	-45.509	10.157	42.955	176.375	-89.979	53.464	111.026	175.316	-114.294	-126.832	-26.111	135.009	-23.483	111.480	162.579	116.305	0.0011266	0.00029228	0.00015875	1356.5	9.199e-06	5.6979e-06	1361.1	369.09	9.6784e-06	7.1713e-06	420.05	142.92	123.73	42.392	6.4736e-06	52.356	0.00050364	0.00046503	0.00012764	1377.2	4.9588e-06	5.0063e-06	1381.9	376.57	5.0305e-06	5.0152e-06	429.66	145.83	126.3	43.607	4.9407e-06	53.805	9.449	-54.712	-63.642	-137.208	-26.252	-12.160	-137.492	-132.710	6.261	3.066	-133.116	-128.973	-128.623	-123.781	-4.071	-124.493	-8191	255	
28418.381	1	1	0	0	0.29491	0.079546	0.13895	0.13951	0.20221	0.18778	0.20864	0.19364	0.26645	0.26146	0.20969	0.11905	0.21205	0.18282	0.068072	0.33273	-2.0521	-2.3063	-2.5729	-2.6542	-2.3896	-2.8708	-2.3979	-2.6667	-2.4208	-2.2271	-2.6167	-2.6333	-2.4667	-2.8063	-2.3896	-2.55	148.238	162.383	-80.414	150.639	187.015	-28.874	112.283	175.643	180.359	45.162	163.613	-44.336	-106.720	-90.059	-106.893	127.276	0.0011722	0.00033392	0.00018909	1358.1	1.1367e-05	5.0739e-06	1360.7	369.52	1.3772e-05	6.5963e-06	422.36	142.51	123.97	42.456	3.7811e-06	52.316	0.00051848	0.00045088	0.00012327	1378.6	4.9738e-06	4.959e-06	1381.8	376.19	5.0338e-06	5.0107e-06	429.71	145.55	126.56	43.679	4.9731e-06	53.882	7.907	-63.960	-59.690	-137.214	-35.000	0.100	-137.504	-132.827	0.437	1.297	-133.128	-128.880	-128.492	-123.644	-11.753	-124.529	-8191	255	
28418.477	1	1	0	0	0.1508	0.23154	0.22557	0.28544	0.2632	0.1497	0.24248	0.13861	0.34715	0.21805	0.13334	0.11277	0.21564	0.2122	0.1604	0.17471	-2.1312	-2.2208	-2.825	-2.5563	-2.3708	-2.7604	-2.4583	-2.3896	-2.5229	-2.3958	-2.8604	-2.4688	-2.2917	-2.5771	-2.2458	-2.4646	-147.249	75.576	-6.104	144.144	-19.468	-127.359	1.464	-125.085	192.208	185.984	-102.909	140.542	-20.883	141.225	118.806	151.365	0.0011656	0.00044662	0.00014151	1352.3	8.0093e-06	4.8114e-06	1357.6	368.49	5.6948e-06	6.8632e-06	420.79	142.24	124.15	42.502	4.3349e-06	52.181	0.00051199	0.00045678	0.00012721	1376.6	5.2027e-06	5.0074e-06	1381	376.05	5.0928e-06	4.9705e-06	428.77	145.62	126.4	43.714	5.0523e-06	53.819	8.523	-64.878	-48.339	-137.319	-19.260	-10.856	-137.645	-132.794	13.267	-17.264	-133.090	-129.242	-128.515	-123.591	-20.749	-124.520	-8191	255	
28418.572	1	1	0	0	0.21847	0.26742	0.32244	0.33803	0.30752	0.034764	0.21974	0.25173	0.23738	0.029258	0.1283	0.15807	0.14843	0.13516	0.20969	0.2929	-2.0542	-2.3021	-2.4188	-2.5979	-2.3375	-2.6521	-2.5792	-2.5542	-2.9104	-2.4271	-2.7604	-2.65	-2.3896	-2.8333	-2.3333	-2.5646	84.822	-49.994	-51.045	116.685	164.610	138.534	209.137	166.920	42.831	153.216	202.537	-2.738	135.404	140.321	110.431	113.154	0.0011379	0.00052896	0.00022658	1357	6.4124e-06	5.0399e-06	1358.5	368.66	9.9375e-06	4.6408e-06	420.75	142.15	124.68	42.429	6.7278e-06	52.148	0.00051366	0.00045831	0.00012577	1377.5	5.11e-06	4.9915e-06	1382.7	376.04	4.9536e-06	4.8289e-06	428.9	145.74	126.73	43.659	4.7341e-06	53.953	8.547	-69.741	-44.556	-137.316	-5.317	-4.546	-137.398	-132.606	-29.310	-5.712	-133.170	-129.012	-128.516	-123.763	20.518	-124.516	-8191	255	
28418.670	1	1	0	0	0.1905	0.14701	0.4017	0.27034	0.13431	0.14716	0.047097	0.036438	0.24297	0.16884	0.18928	0.090205	0.21874	0.15409	0.18731	0.17435	-2.2083	-2.1312	-2.4667	-2.5104	-2.4125	-2.6063	-2.6958	-2.4688	-2.7208	-2.4813	-2.5833	-2.7458	-2.1042	-2.575	-2.5271	-2.3583	77.849	-89.289	82.833	127.969	-86.275	-69.050	135.896	-120.695	143.061	71.368	173.844	154.830	193.911	-87.631	-62.670	-68.788	0.0011306	0.00039903	0.00013577	1357.2	1.0751e-05	5.3587e-06	1358.9	370.04	1.0406e-05	4.9402e-06	421.56	142.81	123.78	42.506	3.6609e-06	52.144	0.00050131	0.00044914	0.00012342	1377.9	5.0259e-06	4.9767e-06	1379.8	376.67	5.0517e-06	4.9308e-06	429.3	145.74	126.55	43.658	4.957e-06	53.783	9.484	-57.751	-53.891	-137.216	-23.808	4.672	-137.390	-132.568	-25.381	8.183	-133.095	-129.262	-128.539	-123.952	14.057	-124.299	-8191	255	
28418.789	1	1	0	0	0.11076	0.24483	0.2456	0.15285	0.19413	0.10231	0.1902	0.29262	0.13634	0.11628	0.0477	0.21962	0.20524	0.13566	0.1573	0.32098	-2.2458	-2.3479	-2.5	-2.5521	-2.3333	-2.6729	-2.7333	-2.4792	-2.75	-2.275	-2.7042	-2.6417	-2.3875	-2.5604	-2.5396	-2.4333	-143.831	-123.734	87.998	163.622	-16.582	-138.678	132.945	131.133	143.512	102.985	-97.976	137.663	154.440	-37.855	119.004	112.520	0.0011811	0.00054051	0.00012553	1356.3	8.4798e-06	3.3804e-06	1355.5	368.68	4.6595e-06	6.5758e-06	421.93	143.06	124.17	42.393	4.4105e-06	51.97	0.00050672	0.00045715	0.00012415	1377	5.1199e-06	4.9918e-06	1381.8	376.08	4.9755e-06	4.9142e-06	428.86	145.72	126.57	43.569	5.036e-06	53.665	12.582	-59.036	-72.651	-137.197	-37.143	23.361	-137.430	-132.734	-21.020	2.918	-133.133	-128.790	-128.620	-123.659	-15.132	-124.509	-8191	255	
28418.885	1	1	0	0	0.09518	0.094174	0.14679	0.1459	0.19601	0.21484	0.12411	0.28255	0.196	0.061957	0.15256	0.29861	0.4291	0.13143	0.23248	0.19658	-2.2062	-2.3479	-2.5125	-2.7708	-2.0417	-2.6312	-2.8354	-2.3708	-2.7833	-2.3688	-2.4583	-2.7062	-2.4437	-2.7333	-2.725	-2.4021	-91.713	-100.884	-5.812	-116.639	-129.763	4.805	-139.247	170.918	189.154	68.742	-120.491	37.089	62.279	-31.497	-96.384	-105.667	0.0011587	0.00040832	0.00014457	1355.3	9.3761e-06	5.4495e-06	1359.5	369.83	9.0337e-06	5.9249e-06	421	142.55	123.73	42.631	5.1594e-06	52.337	0.00050978	0.00046672	0.00012975	1378.8	5.0784e-06	5.1295e-06	1382.8	376.35	4.9687e-06	5.0584e-06	428.61	145.57	126.36	43.651	5.0508e-06	53.846	5.552	-76.989	-57.576	-137.241	-21.335	-8.076	-137.570	-132.763	-10.522	16.954	-133.143	-129.132	-128.420	-123.891	15.640	-124.357	-8191	255	
28418.980	1	1	0	0	0.22837	0.32542	0.1443	0.36201	0.28816	0.096309	0.27297	0.089146	0.13699	0.067748	0.083451	0.26827	0.2253	0.11095	0.13956	0.016206	-2.1063	-2.5479	-2.425	-2.8292	-2.35	-2.6125	-2.7646	-2.3312	-2.5792	-2.4188	-2.3208	-2.8271	-2.3958	-2.6958	-2.5979	-2.4646	-40.659	88.735	-99.544	115.645	-137.211	-15.821	154.711	132.166	180.412	162.176	-92.857	12.440	203.458	50.791	-50.247	-149.737	0.0012102	0.00066325	0.00019638	1355.9	9.5885e-06	4.0934e-06	1358.8	368.55	1.0473e-05	7.1932e-06	419.26	142.53	123.92	42.516	6.2891e-06	52.382	0.00051973	0.00045693	0.00012791	1377.8	5.0642e-06	4.9431e-06	1382.5	375.83	5.0938e-06	4.9399e-06	428.55	145.67	126.51	43.721	4.9638e-06	53.962	10.121	-70.405	-63.634	-137.268	-58.358	-23.357	-137.527	-132.837	-44.944	-16.903	-133.096	-129.244	-128.721	-123.651	-14.908	-124.455	-8191	255	
28419.100	1	1	0	0	0.20167	0.19556	0.097002	0.25585	0.17308	0.076307	0.10837	0.32001	0.20108	0.28322	0.21488	0.1387	0.13992	0.35695	0.32072	0.22373	-2.0396	-2.5563	-2.3083	-2.9646	-2.4292	-2.4792	-2.7104	-2.3792	-2.6646	-2.5521	-2.5479	-2.6625	-2.5292	-2.5708	-2.6917	-2.2542	65.638	203.435	170.815	163.796	8.923	-6.272	111.245	169.659	93.347	-125.231	71.078	193.901	201.964	-23.442	-33.641	156.141	0.0012156	0.00056369	0.0001114	1358.3	7.5906e-06	6.0946e-06	1363.6	369.24	1.195e-05	9.7794e-06	421.08	142.99	123.72	42.482	3.8612e-06	52.282	0.0004986	0.0004526	0.00012545	1379.1	4.9616e-06	5.0125e-06	1383.3	376.5	4.892e-06	4.9423e-06	429.26	146	126.39	43.717	5.0031e-06	53.989	9.570	-64.975	-57.273	-137.285	-18.939	18.166	-137.557	-132.626	-15.707	-15.097	-133.014	-129.161	-128.639	-123.498	1.803	-124.455	-8191	255	
28419.172	1	1	0	0	0.22089	0.083123	0.26924	0.29986	0.14296	0.33383	0.33584	0.20539	0.22837	0.25511	0.042648	0.33721	0.17879	0.059347	0.25188	0.067742	-2.1771	-2.4646	-2.4396	-2.675	-2.4813	-2.3583	-2.7979	-2.4938	-2.5812	-2.7292	-2.2208	-2.8271	-2.2875	-2.4333	-2.7292	-2.1792	65.685	31.975	-142.007	177.120	-146.334	-86.101	79.455	164.091	22.679	93.551	-121.320	164.253	77.898	133.192	-126.569	-26.916	0.0012382	0.00032168	0.00017742	1356.9	4.8421e-06	5.3276e-06	1360.8	369.04	1.0801e-05	5.4406e-06	422.14	143.16	124.51	42.481	5.3122e-06	52.532	0.00049838	0.00043881	0.00012409	1379.5	5.0031e-06	4.7358e-06	1383.6	376.85	4.7431e-06	4.9225e-06	430.03	146.24	126.86	43.772	4.7193e-06	54.003	11.854	-62.850	-39.172	-137.289	12.416	-12.688	-137.517	-132.822	-26.277	12.385	-133.214	-128.921	-128.653	-123.672	0.785	-124.542	-8191	255	
28419.268	1	1	0	0	0.2402	0.16355	0.070388	0.20509	0.085373	0.29765	0.035629	0.14935	0.060991	0.18211	0.098034	0.061368	0.19643	0.28019	0.085448	0.15642	-1.9667	-2.5729	-2.2646	-2.7021	-2.4625	-2.425	-2.8604	-2.5417	-2.6	-2.7417	-2.3896	-2.6	-2.475	-2.3563	-2.8083	-2.5125	-48.303	-128.652	-94.600	-106.428	93.551	208.374	186.651	154.924	-24.248	76.529	207.487	-42.322	-99.687	-128.272	-105.827	138.032	0.0011819	0.00036346	0.00017436	1361	1.0694e-05	5.5703e-06	1361.3	369.77	3.6795e-06	7.8684e-06	421.75	143.02	124.47	42.672	9.0752e-06	52.336	0.00049669	0.00043637	0.00012174	1379.9	4.8828e-06	4.714e-06	1384.1	376.96	4.6389e-06	4.656e-06	429.73	146.22	126.91	43.859	4.7367e-06	53.99	10.291	-80.543	-50.889	-137.399	3.835	18.623	-137.448	-132.762	-17.932	-6.320	-133.232	-129.091	-128.479	-123.694	-1.159	-124.334	-8191	255	
28419.363	1	1	0	0	0.29653	0.082163	0.22168	0.078164	0.25463	0.12954	0.26888	0.062802	0.10427	0.13106	0.20295	0.34294	0.079668	0.25826	0.18506	0.18626	-2.0979	-2.5417	-2.4667	-2.8458	-2.4771	-2.3021	-2.9521	-2.4979	-2.3708	-2.6437	-2.3208	-2.6292	-2.6042	-2.2896	-2.675	-2.6208	136.132	-53.014	106.386	179.127	167.490	56.398	110.475	-71.897	126.689	70.370	134.403	78.696	198.039	105.538	33.349	-134.222	0.0010207	0.00060608	0.00016373	1360.2	6.1664e-06	4.618e-06	1356.6	370.48	9.5426e-06	2.9288e-06	420.95	143.5	124.53	42.76	9.1627e-06	52.576	0.00049231	0.0004367	0.00011727	1379.8	4.8068e-06	4.7288e-06	1383	376.81	4.7145e-06	4.5471e-06	429.33	146.35	127	43.904	4.6473e-06	54.246	9.595	-62.389	-60.987	-137.073	-36.168	-2.166	-137.457	-132.830	-0.555	-24.340	-133.165	-129.080	-128.655	-123.867	-1.059	-124.588	-8191	255	
28419.484	1	1	0	0	0.03642	0.15711	0.33224	0.18677	0.10626	0.24241	0.27343	0.20052	0.20659	0.3315	0.096271	0.10469	0.18009	0.33093	0.24813	0.27961	-1.8708	-2.8208	-2.2479	-2.7062	-2.5062	-2.3271	-2.8021	-2.4271	-2.3979	-2.7062	-2.5187	-2.6917	-2.7854	-2.2542	-2.6708	-2.5125	-40.283	-38.575	-2.417	169.675	-19.767	86.793	-116.902	198.843	105.843	-85.787	-95.354	133.231	147.550	131.606	105.370	145.130	0.0010887	0.00038792	7.9458e-05	1358.5	9.8178e-06	3.3284e-06	1361.4	368.36	1.07e-05	7.3072e-06	422.9	143.29	124.97	42.574	9.336e-06	52.497	0.0004828	0.00040356	0.00011365	1379.1	4.63e-06	4.4413e-06	1382.8	376.69	4.5945e-06	4.5066e-06	430.21	146.17	127.17	43.848	4.5044e-06	54.143	10.984	-55.089	-24.387	-137.194	-0.452	-0.818	-137.452	-132.664	-6.589	5.031	-133.281	-128.986	-128.547	-123.708	-20.219	-124.400	-8191	255	
28419.580	1	1	0	0	0.22027	0.19497	0.12629	0.12638	0.16513	0.12077	0.24937	0.17338	0.077402	0.0061393	0.028959	0.32107	0.19849	0.27429	0.16534	0.21766	-2.0333	-2.6354	-2.2938	-2.625	-2.6875	-2.4167	-2.8833	-2.5708	-2.4437	-2.7313	-2.5042	-2.5167	-2.6542	-2.4792	-2.675	-2.7562	-93.112	144.312	158.918	-140.570	-79.101	148.922	120.903	78.943	194.018	-134.557	-96.481	161.628	87.130	141.315	90.402	85.981	0.0011116	0.00037543	0.00014749	1358.3	1.0708e-05	5.8145e-06	1359.7	369.71	9.997e-06	3.7768e-06	422.32	143.33	125.18	42.747	7.5953e-06	52.414	0.00048145	0.00041334	0.00011702	1377.5	4.6698e-06	4.5964e-06	1382.5	376.65	4.7439e-06	4.5576e-06	429.54	146.42	127.16	43.938	4.4902e-06	54.082	12.532	-79.442	-55.026	-137.187	5.492	-16.629	-137.381	-132.804	-3.218	-1.437	-133.123	-129.125	-128.457	-123.941	-22.841	-124.455	-8191	255	
28419.678	1	1	0	0	0.07218	0.17825	0.13955	0.33645	0.26255	0.15147	0.12121	0.050662	0.2783	0.091215	0.32116	0.19202	0.36073	0.2536	0.26368	0.14152	-1.8083	-2.6167	-2.4313	-2.8208	-2.8583	-2.2021	-2.7479	-2.7188	-2.2771	-2.6854	-2.6063	-2.4688	-2.7875	-2.4021	-2.6562	-2.6396	-55.828	-50.652	154.070	187.875	188.951	-105.008	74.556	0.694	140.030	70.524	98.681	62.197	172.064	-149.390	-141.396	188.936	0.0010522	0.00058683	0.00017798	1354	4.9696e-06	6.2195e-06	1358.8	368.97	1e-05	6.5511e-06	420.61	142.83	124.6	42.567	4.9804e-06	52.636	0.00047377	0.00041341	0.00011407	1377.3	4.6174e-06	4.54e-06	1382	376.28	4.6277e-06	4.4774e-06	429.21	146.5	127.12	43.881	4.5645e-06	54.105	6.293	-60.948	-60.260	-137.327	-15.294	-13.098	-137.629	-132.784	11.115	-30.642	-133.180	-128.848	-128.535	-123.875	-15.234	-124.475	-8191	255	
28419.748	1	1	0	0	0.16741	0.06701	0.078253	0.12744	0.14167	0.074626	0.27995	0.31745	0.21512	0.18155	0.23472	0.39835	0.1567	0.088093	0.27654	0.20499	-1.7687	-2.6208	-2.5354	-2.6354	-2.6813	-2.4958	-2.5875	-2.7396	-2.225	-2.6979	-2.5917	-2.5354	-2.7562	-2.3875	-2.4771	-2.7125	117.597	2.584	162.071	171.210	-18.388	36.381	186.479	-121.869	140.382	114.591	97.741	145.334	-139.630	73.442	23.794	-124.799	0.0011236	0.00029426	0.00016514	1356.7	9.3536e-06	7.6725e-06	1360.6	370.07	8.976e-06	5.2063e-06	420.74	143.39	125.3	42.644	7.8833e-06	52.59	0.00047755	0.00040872	0.00011366	1377.7	4.5905e-06	4.4934e-06	1382.5	376.75	4.5659e-06	4.4581e-06	429.25	146.31	127.18	43.883	4.4733e-06	54.185	9.128	-60.589	-78.821	-137.212	-13.129	-10.155	-137.367	-132.714	-25.941	7.860	-133.135	-129.002	-128.298	-123.635	-5.175	-124.615	-8191	255	
28419.869	1	1	0	0	0.26233	0.12012	0.046666	0.17685	0.14512	0.052544	0.26065	0.19402	0.23123	0.27562	0.24631	0.54962	0.17661	0.098952	0.27896	0.15963	-1.7646	-2.4667	-2.5625	-2.5292	-2.7938	-2.3625	-2.5604	-2.7042	-2.3479	-2.5042	-2.6417	-2.2833	-2.8604	-2.5021	-2.5958	-2.7396	-53.107	196.389	19.714	-139.924	195.198	-41.829	-103.666	124.160	-104.631	29.737	137.790	143.829	179.292	104.521	144.242	87.472	0.0012317	0.00032985	0.00017935	1359.4	8.4434e-06	6.4249e-06	1358.5	369.62	6.6244e-06	7.2698e-06	419.41	143.01	124.67	42.75	4.0136e-06	52.65	0.00047494	0.00040267	0.00011529	1378	4.6012e-06	4.4144e-06	1382.3	376.57	4.5616e-06	4.4163e-06	428.85	146.34	127.12	43.92	4.4694e-06	54.039	8.985	-82.383	-73.309	-137.301	-2.012	-8.425	-137.349	-132.907	-3.393	-42.281	-133.219	-128.835	-128.505	-123.700	2.369	-124.756	-8191	255	
28419.967	1	1	0	0	0.12804	0.17914	0.25319	0.1627	0.15578	0.055386	0.23208	0.25566	0.24176	0.14932	0.30877	0.38635	0.097857	0.19303	0.26965	0.23289	-1.8958	-2.5875	-2.7104	-2.4271	-2.925	-2.4042	-2.7708	-2.7687	-2.2958	-2.5875	-2.4	-2.4021	-2.4667	-2.3292	-2.3771	-2.8479	-131.279	-134.807	97.198	-133.836	151.715	93.531	146.445	199.689	40.299	-15.424	104.764	141.930	155.767	-120.326	149.885	191.755	0.0010672	0.00047169	0.00018953	1353.1	7.1461e-06	2.7604e-06	1361.4	369.62	8.8402e-06	3.9976e-06	421.94	143.21	125.22	42.721	5.8058e-06	52.451	0.00048022	0.00039865	0.00011315	1377.8	4.546e-06	4.456e-06	1383.3	376.59	4.6198e-06	4.5297e-06	429.51	146.34	127.15	43.91	4.7009e-06	54.073	8.860	-61.405	-75.604	-137.237	-6.595	-4.663	-137.505	-132.504	-27.942	-24.123	-133.219	-129.078	-128.770	-123.918	-20.527	-124.591	-8191	255	
28420.062	1	1	0	0	0.17618	0.022681	0.09292	0.40065	0.045622	0.23088	0.27334	0.20785	0.16473	0.24736	0.23967	0.18841	0.095459	0.10006	0.14408	0.20748	-1.7938	-2.3771	-2.5333	-2.375	-2.6604	-2.4938	-2.4104	-2.9354	-2.4333	-2.4625	-2.6146	-2.3688	-2.6833	-2.3854	-2.4542	-2.6729	21.436	195.992	162.142	179.861	36.178	173.331	-122.232	111.429	-85.542	-40.339	-140.386	114.913	-20.555	88.411	-146.227	72.466	0.0011504	0.00038658	0.00015289	1355.8	8.188e-06	6.0374e-06	1359.4	370.17	1.4168e-05	4.4691e-06	421.6	142.86	124.34	42.636	4.4231e-06	52.325	0.0004759	0.00040453	0.00011482	1378.6	4.5492e-06	4.6252e-06	1382.4	376.81	4.6098e-06	4.5136e-06	429.93	146.14	126.99	43.83	4.6114e-06	54.099	8.332	-69.068	-67.859	-137.145	-11.724	-3.643	-137.452	-132.908	-6.678	-20.371	-133.226	-129.080	-128.442	-123.774	-17.091	-124.556	-8191	255	
28420.182	1	1	0	0	0.1686	0.11828	0.069448	0.083023	0.18055	0.19545	0.11176	0.28128	0.32044	0.0063129	0.067708	0.12391	0.22462	0.2513	0.072586	0.1564	-1.9083	-2.3208	-2.5833	-2.475	-2.7167	-2.7771	-2.4604	-2.8604	-2.4042	-2.4688	-2.7417	-2.3146	-2.7604	-2.6125	-2.3625	-2.8083	126.299	-65.076	80.487	-150.162	-60.424	-25.529	195.190	193.746	155.343	65.498	98.408	-52.238	85.296	-73.797	-46.976	206.318	0.0010629	0.00033239	0.00013255	1358.6	1.1116e-05	4.7995e-06	1359.3	370.13	7.6658e-06	4.6941e-06	419.23	143.05	124.18	42.817	5.2884e-06	52.743	0.00047335	0.00041331	0.00011462	1378.1	4.4125e-06	4.5518e-06	1382.6	376.78	4.5056e-06	4.5273e-06	428.76	146.56	126.93	43.91	4.5577e-06	54.088	12.902	-63.157	-50.903	-137.283	-11.156	-6.083	-137.462	-132.505	-21.630	-3.111	-133.266	-129.083	-128.446	-123.756	-12.936	-124.486	-8191	255	
28420.277	1	1	0	0	0.25929	0.29015	0.26428	0.25135	0.24622	0.22324	0.41459	0.25821	0.12859	0.078995	0.34554	0.12405	0.13427	0.15864	0.14322	0.074059	-2.1021	-2.3271	-2.6125	-2.55	-2.5187	-2.5625	-2.4104	-2.7458	-2.4792	-2.3604	-2.8271	-2.4417	-2.6021	-2.6792	-2.2333	-2.9833	141.110	135.868	-2.389	185.537	-74.417	130.762	157.273	-143.610	-13.119	37.672	-129.530	175.042	-52.074	-86.612	169.132	185.754	0.0010887	0.00044641	0.00013854	1352.4	5.6104e-06	5.1547e-06	1358.7	369.62	7.1557e-06	4.5841e-06	422.74	143.78	124.67	42.751	7.3379e-06	52.632	0.00046929	0.00040835	0.000113	1376.2	4.5508e-06	4.5139e-06	1382.9	376.6	4.5876e-06	4.4798e-06	429.94	146.23	127.3	43.889	4.4617e-06	54.125	9.171	-46.594	-47.200	-137.230	-34.096	-5.046	-137.409	-132.846	-28.731	36.064	-133.330	-128.930	-128.442	-123.497	-20.878	-124.605	-8191	255	
28420.373	1	1	0	0	0.13348	0.33278	0.091779	0.23345	0.098982	0.10229	0.17578	0.18505	0.27285	0.13337	0.093253	0.18474	0.11107	0.15434	0.068819	0.10785	-2.0375	-2.5146	-2.5771	-2.6792	-2.5917	-2.4583	-2.6271	-2.8187	-2.5729	-2.3854	-2.9354	-2.3875	-2.5208	-2.6562	-2.25	-2.7812	126.769	105.599	194.785	140.317	-32.354	-89.853	192.926	-23.401	139.729	147.505	61.244	162.629	-23.067	166.233	163.396	-105.668	0.0010588	0.00069307	0.00021031	1356.6	5.8991e-06	5.3978e-06	1363.2	369.03	1.215e-05	8.1159e-06	421.72	143.41	124.91	42.57	8.1783e-06	52.721	0.00046418	0.00040668	0.00011488	1378.1	4.6318e-06	4.441e-06	1382.9	376.67	4.6162e-06	4.4935e-06	429.79	146.34	127.27	43.868	4.4448e-06	54.152	10.057	-53.087	-79.434	-137.300	-20.605	3.250	-137.537	-132.628	4.325	-0.760	-133.185	-129.041	-128.386	-123.833	-11.236	-124.856	-8191	255	
28420.469	1	1	0	0	0.081377	0.16507	0.2298	0.13769	0.19866	0.14956	0.17641	0.23501	0.17132	0.089495	0.056222	0.094926	0.055646	0.15938	0.1564	0.082446	-2.2313	-2.3396	-2.7354	-2.5875	-2.4396	-2.825	-2.525	-2.8583	-2.4708	-2.3688	-2.9083	-2.4229	-2.5396	-2.8771	-2.2646	-2.7917	-43.389	-35.630	42.434	138.634	76.781	45.754	156.744	88.633	162.319	-144.916	84.389	-7.155	40.928	197.357	-137.840	55.053	0.001051	0.00034996	0.00014084	1354.9	9.1218e-06	3.3793e-06	1360	369.4	7.5148e-06	7.2367e-06	422.32	143.39	123.97	42.946	5.5924e-06	52.621	0.00046961	0.00041225	0.000115	1378.2	4.6708e-06	4.4566e-06	1383.8	376.72	4.6568e-06	4.582e-06	429.93	146.46	127.12	43.903	4.5197e-06	54.159	11.462	-75.059	-60.553	-137.179	-32.792	-60.254	-137.423	-132.714	-15.268	19.132	-133.162	-129.059	-128.241	-123.856	8.355	-124.726	-8191	255	
28420.564	1	1	0	0	0.05285	0.19555	0.16958	0.24155	0.10624	0.080356	0.19445	0.22274	0.19073	0.18608	0.25202	0.11246	0.16565	0.20273	0.1716	0.32698	-2.0542	-2.1896	-2.5417	-2.6937	-2.2875	-2.7	-2.4792	-2.5667	-2.6875	-2.2104	-2.6708	-2.6292	-2.425	-2.7438	-2.3812	-2.6875	123.337	-146.699	-59.405	-109.574	9.331	-6.017	128.159	5.619	115.477	74.356	-26.633	-116.163	190.034	42.854	97.150	79.675	0.0011551	0.00036513	0.00013374	1357.7	7.2906e-06	6.0597e-06	1358	368.91	1.137e-05	4.9685e-06	422.7	143.68	124.99	42.677	5.9334e-06	52.392	0.00048151	0.00040543	0.00011355	1378.6	4.5596e-06	4.4418e-06	1383.2	376.51	4.535e-06	4.461e-06	428.91	146.47	127.15	43.956	4.4969e-06	54.133	8.297	-61.212	-47.318	-137.297	2.164	29.757	-137.602	-132.651	-15.639	-3.610	-133.182	-129.099	-128.677	-123.834	2.127	-124.355	-8191	255	
28420.662	1	1	0	0	0.093063	0.028326	0.15945	0.27628	0.238	0.085106	0.36337	0.19734	0.20627	0.27301	0.16757	0.16051	0.16139	0.10814	0.17963	0.15277	-2.2042	-2.3729	-2.575	-2.8896	-2.3583	-2.7417	-2.5375	-2.6229	-2.7021	-2.5354	-2.4437	-2.5646	-2.4625	-2.7042	-2.3771	-2.5708	153.148	168.069	-5.623	93.432	-46.927	49.129	92.452	116.062	-96.548	-114.712	-150.049	196.003	156.875	190.401	87.836	139.008	0.0010558	0.00060841	0.00022567	1358.4	1.3806e-05	6.8262e-06	1364.7	369.51	1.1349e-05	6.7568e-06	419.04	143.38	124.58	42.949	5.4832e-06	52.77	0.00047487	0.00042248	0.00010756	1378.8	4.6189e-06	4.4719e-06	1384.9	377.1	4.6415e-06	4.4232e-06	429.26	146.46	127.13	44.01	4.6354e-06	54.261	9.971	-90.627	-69.653	-137.193	-1.438	-26.343	-137.544	-132.632	-13.177	-14.977	-133.111	-128.997	-128.503	-123.783	-29.436	-124.527	-8191	255	
28420.781	1	1	0	0	0.15073	0.22733	0.19696	0.22419	0.13403	0.095135	0.17344	0.20914	0.17906	0.082076	0.3433	0.35992	0.19707	0.20934	0.17937	0.35483	-2.1771	-2.1229	-2.6083	-2.6	-2.2625	-2.6854	-2.6562	-2.6146	-2.6979	-2.4229	-2.6542	-2.6083	-2.3812	-2.7104	-2.4083	-2.3146	17.734	33.937	123.299	144.048	-26.590	-142.658	147.862	180.086	55.643	-113.168	124.683	154.708	169.491	205.739	27.979	137.326	0.0010945	0.00051988	0.00016781	1356	9.3991e-06	6.3699e-06	1361.8	370.79	7.3356e-06	7.0851e-06	420.86	144.27	124.75	42.741	6.327e-06	52.388	0.00047033	0.00041462	0.00011341	1378.8	4.604e-06	4.5741e-06	1384.8	377.35	4.5046e-06	4.5383e-06	428.98	146.73	127.11	43.969	4.4788e-06	54.218	9.706	-71.944	-59.645	-137.119	-34.196	-39.135	-137.702	-132.515	-12.526	-20.229	-133.012	-128.890	-128.680	-123.653	-8.727	-124.381	-8191	255	
28420.877	1	1	0	0	0.21682	0.26149	0.14891	0.18211	0.15046	0.10113	0.16638	0.085297	0.068235	0.052156	0.081201	0.25397	0.22084	0.26329	0.22557	0.14927	-2.1604	-2.4042	-2.5479	-2.7021	-2.3312	-2.7104	-2.5917	-2.3333	-2.5583	-2.3292	-2.6083	-2.5812	-2.3583	-2.6458	-2.3208	-2.4208	-35.311	134.938	-98.610	154.089	-136.707	36.092	167.941	167.432	111.866	163.621	-28.596	-28.384	39.982	-141.906	155.213	131.322	0.0011393	0.00074241	0.00011559	1356.6	8.7421e-06	2.768e-06	1359.5	370.76	9.2089e-06	2.1073e-06	422.02	144.09	124.92	42.72	6.3114e-06	52.696	0.00045779	0.00041931	0.00011594	1378.3	4.5085e-06	4.3576e-06	1384.4	376.7	4.4086e-06	4.4187e-06	430.26	146.77	127.19	43.968	4.586e-06	54.25	10.794	-82.096	-67.107	-137.168	-4.823	52.622	-137.600	-132.503	-26.643	-6.225	-133.174	-129.042	-128.782	-123.724	-25.493	-124.389	-8191	255	
28420.973	1	1	0	0	0.31352	0.12422	0.16332	0.12151	0.23231	0.10311	0.31416	0.084989	0.20506	0.17704	0.30183	0.21083	0.1267	0.21425	0.23711	0.22346	-2.1021	-2.3833	-2.3458	-2.7188	-2.2271	-2.5958	-2.7396	-2.1958	-2.6333	-2.4917	-2.4604	-2.8729	-2.3688	-2.7375	-2.5458	-2.4938	-134.612	162.492	-132.681	-114.362	-112.066	209.048	136.872	195.781	-40.314	-58.040	-118.708	131.216	-84.312	184.207	198.412	-149.553	0.0011116	0.00040753	0.00013248	1359.5	6.2174e-06	5.1768e-06	1363	369.66	1.0479e-05	2.4006e-06	423.33	143.69	124.97	42.721	4.7335e-06	52.556	0.00046639	0.00040889	0.00011205	1378.5	4.5566e-06	4.391e-06	1384.7	377.05	4.5135e-06	4.4286e-06	429.66	146.83	127.28	43.945	4.566e-06	54.171	12.417	-44.722	-44.879	-137.210	-21.219	-8.277	-137.559	-132.572	-30.975	5.152	-133.116	-128.904	-128.502	-123.735	-5.032	-124.578	-8191	255	
28421.047	1	1	0	0	0.15265	0.33474	0.10093	0.40485	0.24198	0.14195	0.22039	0.19458	0.026898	0.2915	0.02013	0.10004	0.23684	0.07845	0.22044	0.036056	-2.2062	-2.3563	-2.4562	-2.9833	-2.4833	-2.4667	-2.8917	-2.425	-2.7708	-2.6396	-2.5583	-2.7812	-2.5812	-2.5771	-2.5563	-2.3167	189.038	63.332	118.768	208.022	-59.718	120.397	133.902	179.577	-82.755	-112.385	178.433	-32.212	172.146	-74.509	201.414	-146.446	0.0011038	0.00041942	0.00014297	1355.5	8.0357e-06	5.6003e-06	1361.8	370.87	1.2112e-05	5.5589e-06	422.17	144.06	124.97	42.851	5.0715e-06	52.57	0.00047664	0.00040042	0.00011352	1377.7	4.4667e-06	4.3936e-06	1383.2	377.29	4.4957e-06	4.5106e-06	430.01	146.83	127.45	44.018	4.5495e-06	54.181	7.615	-76.900	-43.891	-137.204	19.807	18.661	-137.382	-132.666	-14.356	-9.504	-133.056	-129.007	-128.672	-123.838	4.413	-124.487	-8191	255	
28421.143	1	1	0	0	0.028552	0.10581	0.090307	0.22992	0.12333	0.063912	0.38011	0.28581	0.2222	0.27208	0.14286	0.2216	0.20182	0.40216	0.056738	0.12084	-2.0479	-2.4437	-2.1167	-2.7562	-2.4292	-2.5125	-2.725	-2.3167	-2.9208	-2.4458	-2.4479	-2.8875	-2.4083	-2.4396	-2.6729	-2.4458	86.333	94.200	-104.485	120.389	-104.304	0.473	156.825	140.308	53.509	-57.156	92.527	-148.213	187.623	173.724	-32.645	46.655	0.001132	0.00033385	0.00013341	1355.9	1.1121e-05	5.738e-06	1359.7	370.46	7.5759e-06	8.0598e-06	423.03	143.28	125	42.879	4.8527e-06	52.639	0.00046913	0.00040216	0.0001156	1378.5	4.5961e-06	4.5071e-06	1383.2	377.28	4.5603e-06	4.5029e-06	430.74	146.51	127.6	44.007	4.4169e-06	54.18	11.601	-55.222	-34.917	-137.339	-18.525	-21.734	-137.480	-132.678	-8.369	9.597	-133.068	-129.166	-128.609	-123.756	-38.305	-124.673	-8191	255	
28421.262	1	1	0	0	0.11368	0.30546	0.098432	0.13506	0.10941	0.11255	0.2561	0.2633	0.25182	0.12117	0.3919	0.088938	0.019447	0.061413	0.22202	0.24555	-2.1479	-2.6063	-2.2375	-2.8354	-2.4771	-2.3167	-2.9562	-2.4354	-2.5958	-2.625	-2.3521	-2.8167	-2.4833	-2.375	-2.5875	-2.325	-77.269	98.027	-47.532	-138.860	27.835	-10.100	163.979	136.146	89.089	-138.780	90.512	50.564	5.601	33.455	-9.474	150.318	0.0010985	0.00053553	0.0002168	1354.1	6.8203e-06	6.5584e-06	1360.8	370.84	1.0181e-05	4.6143e-06	420.59	143.51	125.71	42.762	5.634e-06	52.638	0.00046609	0.00039766	0.00011305	1377.3	4.5166e-06	4.3942e-06	1383.6	377.43	4.427e-06	4.4101e-06	429.9	146.77	127.63	44.059	4.2188e-06	54.269	9.436	-64.973	-69.542	-137.184	-11.351	-37.294	-137.534	-132.830	-6.041	12.380	-133.026	-129.064	-128.750	-123.750	12.919	-124.416	-8191	255	
28421.357	1	1	0	0	0.21076	0.015535	0.10816	0.11844	0.013375	0.20783	0.28366	0.090069	0.25359	0.21647	0.10961	0.045968	0.13365	0.18969	0.12852	0.16519	-2.1792	-2.4729	-2.1104	-2.8167	-2.375	-2.4938	-2.9417	-2.3479	-2.5646	-2.5708	-2.3854	-2.5417	-2.5854	-2.2646	-2.6125	-2.2521	-77.594	-80.106	-23.514	-95.614	60.438	134.059	152.414	-116.127	11.274	-78.786	-111.150	-0.465	124.508	192.287	-24.114	124.313	0.0010978	0.00046832	0.000126	1358.4	1.0176e-05	2.101e-06	1354.2	369.7	6.836e-06	5.1399e-06	424.64	143.6	125.4	42.846	5.9171e-06	52.914	0.00046157	0.00038818	0.00010908	1380.1	4.4115e-06	4.2901e-06	1382.4	376.97	4.3253e-06	4.2111e-06	430.52	146.8	127.59	44.113	4.2216e-06	54.395	9.197	-82.411	-64.784	-137.212	-40.221	-16.999	-137.473	-132.559	-3.288	-9.257	-132.941	-129.026	-128.592	-123.771	13.942	-124.628	-8191	255	
28421.453	1	1	0	0	0.19951	0.19201	0.17383	0.20599	0.21733	0.12175	0.12619	0.078911	0.17663	0.20365	0.12002	0.16497	0.23521	0.15657	0.1738	0.062577	-1.9937	-2.5917	-2.3354	-2.725	-2.5271	-2.3708	-2.8875	-2.5146	-2.3458	-2.7812	-2.2979	-2.6125	-2.5146	-2.425	-2.5208	-2.55	-140.121	103.781	-90.264	170.124	-98.624	-119.758	-111.282	207.323	-128.353	99.322	187.419	-150.018	-53.862	164.820	-90.231	117.708	0.0011149	0.00054052	0.00014233	1358.5	9.2112e-06	4.8267e-06	1357.2	369.13	1.203e-05	4.9546e-06	424.24	144.18	125.95	42.865	5.0153e-06	52.802	0.00046096	0.0003816	0.00010745	1379.1	4.3859e-06	4.1666e-06	1383.1	376.98	4.2972e-06	4.2447e-06	429.97	147.2	127.9	44.142	4.0852e-06	54.413	10.799	-60.477	-75.672	-137.272	-8.625	-10.873	-137.524	-132.804	-7.401	9.666	-133.180	-128.980	-128.607	-123.673	-13.471	-124.672	-8191	255	
28421.551	1	1	0	0	0.059547	0.41562	0.18163	0.22083	0.11306	0.20407	0.29545	0.21203	0.11733	0.15638	0.10068	0.21405	0.31567	0.10487	0.16955	0.12279	-1.8417	-2.5625	-2.0708	-2.5979	-2.5938	-2.4479	-2.7479	-2.5125	-2.3917	-2.8083	-2.6354	-2.8396	-2.6688	-2.2479	-2.7333	-2.5896	-95.641	11.232	-115.767	153.109	-90.800	-129.987	109.117	100.165	-85.188	-140.513	-98.019	204.365	-0.776	68.393	-91.832	11.634	0.0011551	0.00044077	0.00012405	1357.7	4.5852e-06	8.6511e-06	1362.1	369.94	7.8762e-06	6.4125e-06	420.08	144.2	125.89	43.003	4.1785e-06	52.735	0.00045033	0.00037156	0.00010565	1378.7	4.2724e-06	4.0752e-06	1383.4	377.74	4.3148e-06	4.0672e-06	429.84	147	127.77	44.106	4.0681e-06	54.395	10.210	-60.870	-55.750	-137.212	-8.221	-2.883	-137.500	-132.523	6.404	0.901	-133.182	-128.999	-128.505	-123.775	-6.062	-124.558	-8191	255	
28421.646	1	1	0	0	0.32089	0.08425	0.11124	0.11544	0.22355	0.22324	0.14836	0.32782	0.089592	0.22707	0.10724	0.19596	0.21338	0.15208	0.083625	0.095164	-1.8792	-2.6375	-2.2708	-2.7	-2.4917	-2.3563	-2.8521	-2.4917	-2.4229	-2.7479	-2.3542	-2.7104	-2.5458	-2.3	-2.5271	-2.7083	15.608	-4.728	73.876	130.306	143.365	88.623	119.687	173.440	9.790	148.503	187.883	205.062	-67.296	-65.845	140.932	156.530	0.0010531	0.00059495	0.00026153	1358	6.6235e-06	4.4365e-06	1360.8	372.09	1.1335e-05	5.9733e-06	421.2	144.95	126.03	43.157	8.0945e-06	53.238	0.00044637	0.00036573	0.00010413	1379.7	4.1724e-06	4.1145e-06	1385.6	378.13	4.123e-06	3.8594e-06	430.48	147.7	128.32	44.329	3.9971e-06	54.652	7.045	-62.978	-47.592	-137.205	8.124	-16.219	-137.604	-132.544	-8.895	-8.302	-133.200	-129.138	-128.749	-124.021	-19.738	-124.544	-8191	255	
28421.742	1	1	0	0	0.0075584	0.18862	0.25967	0.15228	0.39474	0.13016	0.10171	0.18953	0.078486	0.2746	0.09211	0.22856	0.17108	0.13254	0.36541	0.046106	-1.775	-2.6896	-2.3208	-2.5792	-2.5854	-2.3208	-2.8354	-2.6125	-2.1458	-2.5458	-2.5917	-2.6333	-2.7542	-2.4479	-2.55	-2.5771	25.447	85.499	85.635	161.180	73.479	189.531	-94.671	87.614	205.462	134.034	-145.686	-143.796	154.507	-101.388	145.836	189.070	0.0010813	0.00038847	0.00020853	1357	1.1686e-05	3.9655e-06	1363.6	371.75	9.0117e-06	6.3527e-06	425.12	145.4	127.14	43.758	6.6239e-06	53.516	0.0004304	0.00035823	9.829e-05	1377.6	3.9573e-06	3.7748e-06	1387.4	378.4	3.849e-06	3.7333e-06	432.31	148.55	128.95	44.789	3.7144e-06	54.962	9.293	-51.242	-63.303	-137.159	-12.438	-12.619	-137.475	-132.757	-30.016	-17.295	-133.116	-128.861	-128.606	-123.940	-21.199	-124.599	-8191	255	
28421.863	1	1	0	0	0.19143	0.044364	0.22027	0.081698	0.067065	0.22992	0.17196	0.15845	0.044092	0.35838	0.36455	0.17547	0.19336	0.050031	0.16313	0.12305	-1.8833	-2.6437	-2.4333	-2.5938	-2.7292	-2.4292	-2.6625	-2.7438	-2.1208	-2.6417	-2.6937	-2.4771	-2.7396	-2.4375	-2.4708	-2.6542	181.539	23.614	-25.931	147.098	-104.943	-105.363	-133.993	-137.040	158.204	-1.470	196.179	26.422	-115.271	-98.647	165.245	127.229	0.0012458	0.00049926	0.00016333	1358.1	6.7249e-06	5.9905e-06	1362.7	371.46	7.9021e-06	6.4475e-06	424.7	145.98	126.99	43.586	4.221e-06	53.27	0.00042453	0.00033293	9.3795e-05	1378.5	3.7519e-06	3.6016e-06	1384.4	378.8	3.7831e-06	3.4692e-06	432.44	148.74	129.2	44.746	3.6429e-06	55.065	11.493	-72.770	-61.455	-137.189	-28.232	-41.268	-137.388	-132.699	-18.621	-10.341	-133.386	-129.206	-128.878	-123.801	-30.616	-124.485	-8191	255	
28421.959	1	1	0	0	0.21071	0.18287	0.2115	0.21472	0.29864	0.20132	0.086137	0.19316	0.085067	0.061575	0.32455	0.11451	0.15457	0.074459	0.15008	0.10078	-1.6896	-2.3937	-2.4708	-2.3	-2.7687	-2.4375	-2.7583	-2.8292	-2.1417	-2.6458	-2.7042	-2.3646	-2.7062	-2.5583	-2.2938	-2.6188	118.202	174.651	34.984	117.251	24.046	4.615	180.732	125.669	191.153	168.169	-116.939	172.946	-127.094	-143.454	151.900	189.841	0.0011241	0.00039571	0.00016779	1355.4	9.9784e-06	6.7897e-06	1365.4	373.65	7.0324e-06	5.7123e-06	425.8	146.19	127.09	43.82	5.095e-06	53.575	0.00040895	0.00032088	8.9686e-05	1377.4	3.6149e-06	3.5593e-06	1387	379.65	3.5847e-06	3.4668e-06	432.34	148.99	129.54	44.903	3.6351e-06	55.116	7.711	-68.598	-65.989	-137.204	-19.369	-11.954	-137.627	-132.704	-9.105	0.026	-133.260	-128.835	-128.717	-123.827	-11.618	-124.925	-8191	255	
28422.053	1	1	0	0	0.19058	0.22258	0.19957	0.099758	0.029399	0.063821	0.23956	0.18189	0.10084	0.20298	0.036542	0.17815	0.055487	0.32611	0.16289	0.016806	-1.8146	-2.5104	-2.4458	-2.4833	-2.6333	-2.4333	-2.6333	-2.7979	-2.3	-2.4875	-2.7938	-2.3792	-2.8354	-2.4875	-2.3937	-2.8	-92.097	-31.074	137.709	185.353	79.615	-13.451	178.327	16.945	29.097	97.435	-135.370	-25.503	184.740	-120.477	92.283	97.271	0.0011126	0.00050199	8.6632e-05	1360	5.5893e-06	6.0827e-06	1365.5	372.32	9.9965e-06	5.2076e-06	426.58	146.38	127.53	43.623	5.7642e-06	53.655	0.00040248	0.00031394	8.8703e-05	1380.7	3.6083e-06	3.5142e-06	1390	379.26	3.6156e-06	3.4497e-06	433.33	149.43	129.66	44.816	3.5344e-06	55.21	8.665	-67.959	-79.859	-137.242	21.520	1.040	-137.471	-132.766	-2.476	0.863	-133.200	-128.965	-128.594	-123.752	2.407	-124.516	-8191	255	
28422.150	1	1	0	0	0.12543	0.10666	0.10636	0.35532	0.19408	0.13334	0.12905	0.36711	0.17838	0.095445	0.28154	0.26769	0.18199	0.26819	0.11549	0.204	-1.8458	-2.5	-2.4417	-2.4146	-2.5938	-2.4062	-2.2979	-2.9437	-2.1479	-2.5667	-2.6	-2.2583	-2.6396	-2.5417	-2.5021	-2.7625	6.913	99.743	-83.434	187.926	-141.561	-27.815	-139.285	134.879	-3.640	-34.049	69.064	144.969	28.060	192.320	-89.886	17.893	0.0011554	0.00032742	0.00018294	1359	8.1398e-06	3.4423e-06	1363.2	372.82	8.4949e-06	7.4328e-06	424.57	146.16	127.21	43.792	5.5645e-06	53.806	0.00040085	0.0003099	8.6066e-05	1379.3	3.6197e-06	3.466e-06	1385.6	380.2	3.6373e-06	3.3521e-06	432.71	149.25	129.55	44.887	3.5699e-06	55.292	4.671	-45.242	-49.853	-137.273	-34.866	-3.304	-137.567	-132.753	-4.362	-12.613	-133.256	-128.888	-128.599	-123.941	-35.742	-124.475	-8191	255	
28422.270	1	1	0	0	0.12945	0.18226	0.13147	0.10499	0.36671	0.02335	0.20216	0.15697	0.2765	0.12382	0.085975	0.30004	0.18331	0.12884	0.2055	0.085078	-2.0479	-2.4813	-2.5917	-2.475	-2.5187	-2.6125	-2.5354	-2.7417	-2.2188	-2.4979	-2.8146	-2.5042	-2.4729	-2.6	-2.3146	-2.8521	8.718	-31.047	-67.496	116.587	-115.213	198.182	-149.750	155.801	51.109	94.441	-56.384	131.718	139.946	-143.563	-111.311	-67.051	0.0010812	0.00028355	0.00015579	1358.5	1.2092e-05	3.3935e-06	1366.7	374.39	9.4182e-06	6.1775e-06	424.39	146.66	127.09	43.698	7.3214e-06	53.724	0.00040057	0.00031009	8.7903e-05	1379.6	3.5903e-06	3.3687e-06	1386.7	380.04	3.5885e-06	3.5049e-06	432.49	149.36	129.46	44.854	3.6343e-06	55.181	6.033	-78.124	-55.522	-137.118	-0.813	5.116	-137.392	-132.660	-4.266	9.749	-133.117	-128.924	-128.625	-123.918	-13.751	-124.495	-8191	255	
28422.342	1	1	0	0	0.088147	0.1907	0.039729	0.17924	0.28302	0.2016	0.12688	0.066113	0.20294	0.12587	0.1777	0.16423	0.16133	0.10249	0.16098	0.42184	-1.8312	-2.2917	-2.5	-2.5042	-2.7042	-2.7313	-2.6021	-2.825	-2.4313	-2.5917	-2.7	-2.3521	-2.3688	-2.6979	-2.2812	-2.6437	25.271	164.112	168.955	164.586	15.093	-18.831	86.338	29.481	200.240	135.499	-116.378	-138.510	-113.401	-96.320	11.645	138.813	0.0011805	0.00048458	0.00016053	1358.4	8.0255e-06	4.7421e-06	1363.6	372.15	8.6449e-06	6.73e-06	425.19	145.57	127.15	43.49	5.6781e-06	53.679	0.00040566	0.00032079	8.7137e-05	1378.7	3.6671e-06	3.4499e-06	1384.8	379.38	3.6373e-06	3.5446e-06	432.12	148.75	129.08	44.781	3.6289e-06	55.106	13.442	-70.265	-58.172	-137.106	-34.278	2.123	-137.448	-132.582	-24.438	-7.769	-133.021	-129.115	-128.467	-123.832	-29.455	-124.748	-8191	255	
28422.463	1	1	0	0	0.055814	0.1214	0.068916	0.21136	0.19401	0.34833	0.15386	0.17735	0.092944	0.065522	0.11337	0.22309	0.18073	0.19617	0.39504	0.20328	-1.8729	-2.1833	-2.5979	-2.3979	-2.5	-2.625	-2.3312	-2.7417	-2.4458	-2.2875	-2.8	-2.3708	-2.5438	-2.5771	-2.3812	-2.4958	-125.941	-9.288	88.161	197.044	-125.134	-76.353	155.505	113.066	149.280	184.806	-17.243	-125.550	183.547	148.585	118.944	25.314	0.0011556	0.00058316	0.00014152	1361.3	3.6209e-06	2.7542e-06	1361.8	371.91	9.127e-06	8.7067e-06	423.42	146.16	125.9	43.5	5.546e-06	53.538	0.0004181	0.00032744	9.0242e-05	1381	3.722e-06	3.5427e-06	1384.1	378.92	3.7841e-06	3.554e-06	432	148.66	128.75	44.675	3.8298e-06	54.928	7.612	-46.661	-53.705	-137.218	-14.273	-3.694	-137.266	-132.568	-18.226	-2.629	-133.241	-128.908	-128.534	-123.828	19.999	-124.448	-8191	255	
28422.559	1	1	0	0	0.31849	0.17111	0.23129	0.10258	0.20675	0.35203	0.27054	0.11853	0.024774	0.20398	0.21715	0.18672	0.052729	0.18041	0.10431	0.089296	-2.1312	-2.0542	-2.6437	-2.4979	-2.55	-2.7646	-2.5583	-2.6604	-2.5833	-2.3729	-2.6583	-2.4208	-2.4354	-2.825	-2.5125	-2.6417	-77.729	77.018	-95.564	-149.378	151.153	-34.172	188.414	47.953	46.554	109.736	-13.664	-130.775	2.474	101.966	114.479	96.501	0.0011877	0.00037517	0.00014894	1356.4	7.7779e-06	5.4498e-06	1363.3	370.28	9.2906e-06	5.8999e-06	424.45	145.49	125.61	43.437	6.7848e-06	53.115	0.00040805	0.000333	9.3883e-05	1378.5	3.8514e-06	3.7586e-06	1384.2	378.29	3.7269e-06	3.629e-06	431.94	148.44	128.32	44.475	3.748e-06	54.725	8.455	-75.829	-57.134	-136.997	-36.543	-3.414	-137.395	-132.775	-35.173	-21.036	-132.901	-129.072	-128.599	-123.698	-16.860	-124.569	-8191	255	
28422.654	1	1	0	0	0.11221	0.041315	0.07511	0.17646	0.065076	0.063891	0.20208	0.3215	0.3921	0.14898	0.053338	0.2215	0.2574	0.24615	0.11933	0.22317	-2.0583	-2.175	-2.6125	-2.6813	-2.2354	-2.6021	-2.35	-2.6396	-2.5917	-2.3458	-2.8167	-2.6542	-2.4208	-2.7604	-2.4146	-2.7188	-125.826	-78.306	-106.724	182.315	-0.780	187.384	96.171	122.828	80.623	42.154	-76.285	72.605	104.446	132.087	55.068	170.901	0.0011072	0.00042102	0.00016039	1357	4.9293e-06	3.2505e-06	1361	370.62	1.0484e-05	4.9001e-06	422.42	144.71	125.11	43.24	4.135e-06	52.983	0.00041529	0.00034239	9.4378e-05	1377.3	3.8383e-06	3.7218e-06	1382.2	377.73	3.7642e-06	3.8253e-06	430.37	147.7	127.94	44.367	3.8674e-06	54.587	9.253	-75.209	-77.435	-137.137	-24.205	9.814	-137.502	-132.760	-20.434	9.728	-133.115	-129.018	-128.406	-123.630	-0.869	-124.602	-8191	255	
28422.752	1	1	0	0	0.19742	0.11714	0.12993	0.3274	0.20861	0.075344	0.34789	0.20028	0.17532	0.096146	0.16156	0.22502	0.076068	0.26397	0.1507	0.038878	-2.2292	-2.3729	-2.5375	-2.6958	-2.2562	-2.6875	-2.5896	-2.5396	-2.6312	-2.5042	-2.7021	-2.8	-2.2562	-2.6937	-2.3271	-2.3875	7.733	77.243	64.707	142.715	106.988	9.524	163.989	116.974	182.465	201.633	-92.105	149.561	104.059	147.573	-96.060	-20.902	0.0010888	0.00038505	0.00017231	1355.3	6.9195e-06	7.4896e-06	1366	369.91	9.9113e-06	5.474e-06	422.59	144.86	125.92	43.234	3.0304e-06	53.238	0.00042049	0.00034181	9.5585e-05	1376	3.8877e-06	3.8428e-06	1382.4	376.75	3.9016e-06	3.8682e-06	430.45	147.37	128.18	44.349	3.8203e-06	54.567	7.709	-37.661	-60.674	-137.110	-29.609	-7.907	-137.536	-132.665	-1.008	-6.755	-133.195	-128.772	-128.392	-123.614	-23.894	-124.553	-8191	255	
28422.848	1	1	0	0	0.19168	0.10633	0.27769	0.30469	0.21684	0.14911	0.10339	0.033167	0.14205	0.24523	0.15974	0.059706	0.15513	0.24344	0.041515	0.22189	-2.2375	-2.1917	-2.4333	-2.5	-2.1312	-2.6292	-2.5521	-2.4062	-2.5917	-2.5167	-2.5833	-2.8042	-2.0833	-2.7021	-2.3667	-2.6437	-71.333	63.754	119.234	192.064	141.433	40.830	144.501	9.576	-44.192	-99.284	-16.441	-23.770	183.345	174.958	-106.091	51.755	0.0010838	0.00045416	0.00011689	1352.8	8.4948e-06	3.5874e-06	1355.3	369.7	1.0946e-05	5.8204e-06	422.7	144.35	125.43	43.191	5.1931e-06	52.627	0.00042073	0.00035158	9.8426e-05	1373.4	3.9778e-06	3.7011e-06	1378.4	376.68	3.9055e-06	3.8435e-06	429.69	146.98	127.7	44.214	3.9036e-06	54.319	9.391	-59.199	-46.636	-137.078	-22.439	-29.331	-137.448	-132.487	-14.146	-20.851	-132.883	-128.894	-128.631	-123.945	11.370	-124.287	-8191	255	
28422.943	1	1	0	0	0.11875	0.16762	0.081475	0.12324	0.14186	0.35406	0.34436	0.15332	0.21236	0.026771	0.12372	0.046242	0.074405	0.20424	0.23009	0.06454	-2.3438	-2.3854	-2.5208	-2.7833	-2.2667	-2.65	-2.4542	-2.5708	-2.6417	-2.4292	-2.7188	-2.8833	-2.3771	-2.5833	-2.5167	-2.3896	115.128	-13.980	44.319	-11.702	-82.663	47.876	145.676	201.206	-10.131	-71.975	-97.610	141.965	179.211	-9.762	-122.245	72.763	0.0010882	0.00057625	0.00014161	1348.8	7.3342e-06	6.3568e-06	1352.1	368.96	1.4466e-05	4.4746e-06	422.19	144.4	125.14	42.612	8.4271e-06	52.699	0.00042624	0.00035755	0.00010207	1371.8	4.0688e-06	4.0241e-06	1376.6	375.87	4.1345e-06	4.0739e-06	428.68	146.59	127	43.781	4.1341e-06	53.994	8.214	-63.354	-51.082	-137.299	-14.524	1.625	-137.445	-132.681	6.734	9.571	-133.204	-128.970	-128.408	-123.665	4.740	-124.377	-8191	255	
28423.039	1	1	0	0	0.22604	0.15707	0.11955	0.24073	0.24535	0.11471	0.25945	0.24809	0.087405	0.22415	0.063446	0.14218	0.27824	0.17358	0.13162	0.18803	-2.1875	-2.1875	-2.3479	-2.7479	-2.275	-2.5375	-2.6813	-2.4021	-2.4833	-2.4146	-2.3667	-2.6333	-2.2062	-2.5625	-2.4417	-2.4813	-46.292	-71.369	98.716	86.799	55.634	-104.535	121.960	126.861	90.151	-81.980	-84.361	98.567	182.073	-43.923	25.455	-90.614	0.0010675	0.00044539	0.0001142	1350.9	9.4774e-06	6.0498e-06	1354.9	367.86	1.0867e-05	5.3192e-06	421.06	143.06	123.6	42.506	4.2916e-06	52.395	0.00043762	0.00037224	0.00010483	1370.6	4.2671e-06	4.1126e-06	1374.3	374.89	4.1105e-06	4.0881e-06	427.51	145.83	126.33	43.662	4.1484e-06	53.929	11.263	-63.247	-36.870	-137.102	-7.776	-28.212	-137.501	-132.739	-18.324	-23.519	-133.184	-128.870	-128.531	-123.669	-33.324	-124.612	-8191	255	
28423.133	1	1	0	0	0.093263	0.060329	0.18572	0.16257	0.37688	0.13488	0.045384	0.23377	0.18907	0.14686	0.084601	0.20328	0.042809	0.12629	0.17168	0.19245	-2.1229	-2.4771	-2.2917	-2.7125	-2.2875	-2.4396	-2.7917	-2.2562	-2.5458	-2.5438	-2.425	-2.7604	-2.3438	-2.6521	-2.5521	-2.2875	96.073	61.200	-141.154	56.554	-69.332	-60.296	-119.955	-113.334	-126.372	148.731	157.238	178.471	155.290	150.688	109.023	167.999	0.0011187	0.00048977	0.00016123	1352.2	7.1009e-06	5.5639e-06	1350	366.87	1.1376e-05	4.7185e-06	420.76	142.06	122.9	42.274	4.5922e-06	52.154	0.00044582	0.00038259	0.00010822	1371	4.2572e-06	4.2134e-06	1371.8	374.4	4.3179e-06	4.2503e-06	426.64	145.11	125.75	43.376	4.3283e-06	53.613	10.367	-65.974	-37.027	-137.060	-29.261	3.390	-137.541	-132.715	-27.382	22.715	-133.139	-128.807	-128.651	-123.840	-51.878	-124.222	-8191	255	
28423.230	1	1	0	0	0.18882	0.13282	0.11969	0.059677	0.13544	0.24905	0.30704	0.18589	0.28216	0.28603	0.055927	0.19704	0.29896	0.043013	0.16974	0.16377	-2.0583	-2.3979	-2.1188	-2.8604	-2.4	-2.5958	-2.7667	-2.2854	-2.6875	-2.6063	-2.4292	-2.7062	-2.5812	-2.6188	-2.525	-2.5062	86.230	209.117	-69.114	63.218	-139.913	150.191	171.213	143.853	1.224	-8.901	180.170	-27.327	114.728	91.521	43.970	-124.058	0.0011107	0.00029203	0.00015521	1344.1	7.8626e-06	5.2415e-06	1347.8	366.45	1.3191e-05	6.476e-06	416.99	142.13	123.14	42.09	4.4644e-06	51.905	0.00045401	0.00039224	0.00010786	1367.2	4.5452e-06	4.2923e-06	1370.1	373.68	4.4959e-06	4.3825e-06	425.32	144.53	125.42	43.236	4.4772e-06	53.443	8.915	-72.944	-66.802	-137.073	-13.082	4.936	-137.400	-132.472	-19.241	9.287	-133.007	-129.040	-128.632	-123.505	-13.789	-124.407	-8191	255	
28423.350	1	1	0	0	0.050586	0.14323	0.32296	0.13548	0.12802	0.014033	0.017296	0.35457	0.020258	0.1118	0.33966	0.094554	0.33111	0.15863	0.13612	0.098742	-2.0958	-2.4542	-2.1396	-2.8146	-2.5125	-2.4854	-2.8292	-2.6854	-2.4354	-2.55	-2.3625	-2.8271	-2.4062	-2.6208	-2.6854	-2.4604	69.228	-62.175	-55.847	-143.310	68.785	-26.253	-5.478	186.355	43.161	137.113	-148.948	169.766	146.398	207.339	34.634	76.748	0.0011639	0.00047285	0.00015361	1345.3	8.1211e-06	2.4917e-06	1347.8	365.95	1.058e-05	5.7036e-06	414.09	140.59	122.39	42.063	5.098e-06	51.983	0.00047075	0.00039832	0.00011366	1366	4.5672e-06	4.3858e-06	1368.3	373.2	4.5457e-06	4.4374e-06	424.36	144.3	125.13	43.088	4.4938e-06	53.26	10.313	-87.438	-79.131	-137.091	-15.694	-7.259	-137.524	-132.760	-12.035	-5.739	-133.211	-128.990	-128.493	-123.717	-3.665	-124.248	-8191	255	
28423.445	1	1	0	0	0.056692	0.11518	0.30698	0.16699	0.19735	0.3236	0.31078	0.065659	0.12525	0.1877	0.14225	0.072854	0.06013	0.1352	0.11342	0.18787	-2.1937	-2.4833	-2.5083	-2.7104	-2.6354	-2.3042	-2.875	-2.3917	-2.3708	-2.5521	-2.5687	-2.6729	-2.5146	-2.3896	-2.7979	-2.6792	-18.525	136.740	169.329	161.304	44.032	195.681	148.890	206.185	-131.769	5.302	97.028	68.675	207.473	171.716	84.436	156.547	0.0011158	0.00040743	0.00016204	1346.7	9.3013e-06	5.1911e-06	1340.8	366.8	6.4759e-06	5.4848e-06	415.77	141.23	123.17	41.751	3.5729e-06	51.758	0.00046633	0.00041375	0.00012012	1363.2	4.5457e-06	4.512e-06	1365.6	372.68	4.6208e-06	4.5927e-06	424.63	143.84	124.89	42.982	4.5694e-06	53.145	11.382	-50.869	-61.235	-136.990	-4.572	20.163	-137.434	-132.536	-15.177	-12.493	-133.129	-129.020	-128.568	-123.559	-25.335	-124.276	-8191	255	
28423.543	1	1	0	0	0.15621	0.31158	0.1899	0.19341	0.16476	0.30349	0.062387	0.24849	0.045048	0.090526	0.11608	0.18426	0.40567	0.11006	0.23627	0.25098	-1.9917	-2.5187	-2.425	-2.7938	-2.5479	-2.2833	-2.9229	-2.3979	-2.5021	-2.6125	-2.4896	-2.7938	-2.7729	-2.4	-2.8417	-2.4229	32.044	16.562	12.757	115.369	-11.999	152.926	142.347	177.473	-138.042	153.043	58.355	-91.839	-124.387	-84.340	-66.413	186.519	0.0011374	0.00055905	0.00014314	1342.3	8.2132e-06	4.6096e-06	1343.7	364.78	1.0046e-05	2.9689e-06	416.78	140.44	122.19	41.79	2.321e-06	51.272	0.00048318	0.00042076	0.00011635	1361.7	4.797e-06	4.5015e-06	1365.4	371.7	4.5664e-06	4.5667e-06	424.71	143.53	124.45	42.939	4.5725e-06	52.981	9.854	-53.775	-34.892	-137.234	-16.136	11.161	-137.384	-132.691	4.759	11.612	-133.254	-128.913	-128.437	-123.458	-31.954	-124.460	-8191	255	
28423.639	1	1	0	0	0.27595	0.38401	0.13146	0.23172	0.073344	0.041765	0.22016	0.25331	0.25013	0.24085	0.17981	0.19406	0.083249	0.18789	0.20303	0.22361	-1.9229	-2.6208	-2.4479	-2.7917	-2.6333	-2.2792	-2.8333	-2.4292	-2.4354	-2.8083	-2.4375	-2.55	-2.6354	-2.3396	-2.7271	-2.4646	203.575	-39.743	143.840	-132.092	49.442	-88.412	120.699	-142.277	21.884	14.820	202.974	137.383	119.114	125.365	139.225	159.781	0.001111	0.00054499	0.00018344	1339.7	8.3152e-06	5.2486e-06	1342.9	364.44	9.8284e-06	5.7959e-06	416.47	140.35	122.18	41.685	7.4015e-06	51.526	0.00048151	0.00041788	0.00011778	1359.7	4.6787e-06	4.8579e-06	1362.9	371.1	4.7357e-06	4.6117e-06	423.61	143.19	124.49	42.858	4.7004e-06	53.032	10.510	-65.353	-46.147	-137.174	-14.590	-23.815	-137.450	-132.789	-31.220	-23.044	-133.022	-128.947	-128.496	-123.604	-33.476	-124.533	-8191	255	
28423.734	1	1	0	0	0.18277	0.16512	0.14349	0.19827	0.1039	0.15471	0.23813	0.13193	0.4268	0.2183	0.022343	0.10686	0.30249	0.023268	0.13207	0.18163	-1.8479	-2.6167	-2.3271	-2.7167	-2.6	-2.3604	-2.9229	-2.6375	-2.2667	-2.7083	-2.375	-2.6583	-2.6854	-2.3542	-2.6167	-2.6979	-118.884	-90.197	-141.161	178.049	185.156	-96.407	38.654	204.707	-89.986	47.165	62.401	-25.019	103.794	-131.351	69.855	148.577	0.0011165	0.00040214	0.00013143	1339.6	9.5318e-06	5.6403e-06	1339.4	363.89	7.4988e-06	6.5958e-06	414.63	139.59	121.49	41.674	7.3694e-06	51.398	0.00049426	0.00041982	0.0001211	1360.7	4.8122e-06	4.9065e-06	1360.8	371.13	4.8453e-06	4.6927e-06	422.89	143.02	124.27	42.834	4.7924e-06	52.979	9.468	-72.672	-63.934	-137.319	-12.368	-19.867	-137.164	-132.638	1.015	-39.725	-133.118	-128.815	-128.383	-123.793	-3.919	-124.088	-8191	255	
28423.830	1	1	0	0	0.1795	0.21099	0.10057	0.19888	0.29897	0.29326	0.16852	0.24955	0.19233	0.31346	0.10942	0.12326	0.11984	0.21847	0.026347	0.19435	-1.8333	-2.6937	-2.4604	-2.4688	-2.6833	-2.2292	-2.7583	-2.8125	-2.2125	-2.7125	-2.3896	-2.5896	-2.8021	-2.3229	-2.6458	-2.6854	168.132	-49.183	-49.916	159.722	23.641	159.646	111.524	14.209	143.255	-99.237	-6.207	209.265	-132.509	-126.205	28.012	136.145	0.0010345	0.00046519	0.00019302	1339.5	5.1322e-06	5.4158e-06	1343.3	364.02	8.0622e-06	4.3493e-06	414.71	140.4	121.46	41.774	2.2624e-06	51.297	0.00048597	0.00042526	0.00012282	1360.4	4.8134e-06	4.6672e-06	1363	370.91	4.8744e-06	4.7865e-06	423.67	143.02	124.21	42.868	4.5746e-06	52.956	10.343	-78.691	-41.728	-137.066	-43.165	3.699	-137.227	-132.640	-34.274	27.728	-133.272	-129.079	-128.591	-123.464	15.305	-124.347	-8191	255	
28423.951	1	1	0	0	0.16524	0.12111	0.12848	0.16857	0.081465	0.1686	0.28838	0.30491	0.28199	0.17823	0.19262	0.33228	0.2628	0.20578	0.065517	0.26726	-1.6729	-2.5958	-2.3583	-2.4729	-2.7812	-2.3479	-2.6583	-2.6479	-2.2625	-2.6417	-2.5187	-2.3625	-2.8583	-2.7021	-2.5542	-2.675	48.169	-10.693	37.163	141.187	151.752	-110.446	181.154	98.079	61.908	-104.907	-55.629	160.022	162.452	-132.155	41.733	156.534	0.0010726	0.00030676	0.00017475	1340.7	6.4821e-06	8.6247e-06	1338.5	363.97	7.3512e-06	4.5176e-06	415.43	140.38	122.23	41.768	3.53e-06	51.422	0.00048855	0.00042195	0.00011682	1359.7	4.6344e-06	4.6728e-06	1361.2	370.82	4.7618e-06	4.6066e-06	423.55	143.4	124.37	42.888	4.6481e-06	52.979	8.439	-78.137	-55.934	-137.190	-24.562	-4.579	-137.406	-132.495	-22.059	-5.586	-133.093	-128.862	-128.193	-123.705	0.268	-124.482	-8191	255	
28424.047	1	1	0	0	0.10932	0.25234	0.080322	0.30599	0.15565	0.070128	0.42075	0.078182	0.11989	0.17963	0.26395	0.34681	0.22413	0.28972	0.13707	0.15588	-1.8833	-2.6875	-2.325	-2.3812	-2.5542	-2.3833	-2.5542	-2.7083	-2.1042	-2.5938	-2.5896	-2.4396	-2.8875	-2.3958	-2.4729	-2.8521	161.592	-104.765	-122.300	144.802	-141.041	-37.252	-119.746	108.297	44.633	87.679	86.082	148.009	188.678	-102.489	-82.166	72.812	0.0010473	0.00048015	9.6421e-05	1339.2	9.1123e-06	5.5522e-06	1345.5	365.04	5.2293e-06	3.2026e-06	415.7	140.67	122.23	41.598	6.5923e-06	51.438	0.00049874	0.00040922	0.00011556	1359.2	4.7952e-06	4.668e-06	1363.8	371.33	4.6397e-06	4.4428e-06	423.29	143.44	124.42	42.81	4.6406e-06	53.021	10.937	-81.462	-81.237	-137.019	-17.748	-11.321	-137.440	-132.639	-57.535	-6.994	-133.255	-129.086	-128.358	-123.586	-12.395	-124.364	-8191	255	
28424.143	1	1	0	0	0.12752	0.042889	0.3246	0.21509	0.13146	0.19104	0.20995	0.10062	0.088937	0.12544	0.062919	0.35824	0.092391	0.15022	0.19594	0.30475	-1.8833	-2.5	-2.425	-2.4062	-2.7979	-2.3583	-2.6771	-2.6063	-2.3083	-2.4625	-2.6688	-2.15	-2.7687	-2.4833	-2.2687	-2.8	7.862	-55.198	37.025	195.968	86.671	-64.786	143.184	173.284	86.168	-90.289	-117.265	176.487	151.042	-124.269	50.325	54.018	0.0011222	0.00053261	0.00016182	1340.4	7.7389e-06	5.5337e-06	1336.8	364.84	1.0619e-05	4.6815e-06	414.83	140.19	121.24	41.639	1.9109e-06	51.311	0.0004837	0.00042371	0.00011572	1360.8	4.6896e-06	4.547e-06	1361.3	370.71	4.7102e-06	4.6337e-06	422.92	143.41	124.15	42.836	4.6429e-06	53.016	11.364	-56.928	-57.715	-137.084	-56.776	5.548	-137.487	-132.597	-33.446	-13.442	-133.315	-128.784	-128.448	-123.518	-9.555	-124.321	-8191	255	
28424.238	1	1	0	0	0.094411	0.043339	0.1114	0.024138	0.03257	0.17019	0.40673	0.11848	0.25439	0.19883	0.10618	0.14711	0.079191	0.27748	0.19415	0.091067	-1.9771	-2.6437	-2.6688	-2.4042	-2.5563	-2.4479	-2.5187	-2.7271	-2.4021	-2.5042	-2.5604	-2.3146	-2.8	-2.6958	-2.3583	-2.7812	-17.323	-50.698	-55.138	-91.614	-11.366	55.269	100.728	177.336	-51.571	-137.635	140.903	70.621	-50.841	-98.327	69.416	-135.331	0.0010775	0.0004669	0.00020644	1338.4	9.9173e-06	7.0316e-06	1338.1	364.3	9.7416e-06	6.1422e-06	414.69	140.78	121.81	41.609	7.98e-06	51.419	0.00048217	0.00041643	0.00011555	1358.2	4.7762e-06	4.5857e-06	1361.5	370.91	4.7794e-06	4.5817e-06	422.48	143.39	124.2	42.829	4.832e-06	52.998	8.548	-71.619	-69.872	-137.176	-9.742	-14.076	-137.616	-132.654	-16.586	1.888	-133.212	-128.947	-128.649	-123.554	-26.804	-124.347	-8191	255	
#DATA ENDS
