BOXY.EXE: ISS Imagent and Oximeter Data Acquisition Program Version 0.80
Ascii Record File

#ACQ INFORMATION
2  Detector Channels 
16  External MUX Channels 
1  Auxiliary Channels 
5000  Waveform (CCF) Frequency (Hz)
1  Waveforms Skipped 
30  Waveforms Averaged 
1  Cycles Averaged 
16  Acquisitions per Waveform 
10.0806  Updata Rate (Hz) 

#FILE INFORMATION
TRUE -- External MUX Channel results are PARSED.
FALSE -- AC DC and Phase are NOT grouped.
TRUE -- Companion Program Settings File CREATED.
FALSE -- AC data not excluded
FALSE -- DC data not excluded
FALSE -- Phase data not excluded
FALSE -- Auxillary Chn. data not excluded
Tab delimiters

#CALIBRATION STATE
TRUE -- Waveform Calibration Values APPLIED.


#AUX CALIBRATION VALUES
Val Type	aux-1	

Term	1.0000e+00	
Factor	0.0000e+00	


#WF CALIBRATION VALUES
A = Detector Channel
Val Type	A-AC1	A-AC2	A-AC3	A-AC4	A-AC5	A-AC6	A-AC7	A-AC8	A-AC9	A-AC10	A-AC11	A-AC12	A-AC13	A-AC14	A-AC15	A-AC16	A-DC1	A-DC2	A-DC3	A-DC4	A-DC5	A-DC6	A-DC7	A-DC8	A-DC9	A-DC10	A-DC11	A-DC12	A-DC13	A-DC14	A-DC15	A-DC16	A-Ph1	A-Ph2	A-Ph3	A-Ph4	A-Ph5	A-Ph6	A-Ph7	A-Ph8	A-Ph9	A-Ph10	A-Ph11	A-Ph12	A-Ph13	A-Ph14	A-Ph15	A-Ph16	

Term	0.00000e+00	0.00000e+00	0.00000e+00	0.00000e+00	0.00000e+00	0.00000e+00	0.00000e+00	0.00000e+00	0.00000e+00	0.00000e+00	0.00000e+00	0.00000e+00	0.00000e+00	0.00000e+00	0.00000e+00	0.00000e+00	0.00000e+00	0.00000e+00	0.00000e+00	0.00000e+00	0.00000e+00	0.00000e+00	0.00000e+00	0.00000e+00	0.00000e+00	0.00000e+00	0.00000e+00	0.00000e+00	0.00000e+00	0.00000e+00	0.00000e+00	0.00000e+00	0.00000e+00	0.00000e+00	0.00000e+00	0.00000e+00	0.00000e+00	0.00000e+00	0.00000e+00	0.00000e+00	0.00000e+00	0.00000e+00	0.00000e+00	0.00000e+00	0.00000e+00	0.00000e+00	0.00000e+00	0.00000e+00	
Factor	1.00000e+00	1.00000e+00	1.00000e+00	1.00000e+00	1.00000e+00	1.00000e+00	1.00000e+00	1.00000e+00	1.00000e+00	1.00000e+00	1.00000e+00	1.00000e+00	1.00000e+00	1.00000e+00	1.00000e+00	1.00000e+00	1.00000e+00	1.00000e+00	1.00000e+00	1.00000e+00	1.00000e+00	1.00000e+00	1.00000e+00	1.00000e+00	1.00000e+00	1.00000e+00	1.00000e+00	1.00000e+00	1.00000e+00	1.00000e+00	1.00000e+00	1.00000e+00	X	X	X	X	X	X	X	X	X	X	X	X	X	X	X	X	

B = Detector Channel
Val Type	B-AC1	B-AC2	B-AC3	B-AC4	B-AC5	B-AC6	B-AC7	B-AC8	B-AC9	B-AC10	B-AC11	B-AC12	B-AC13	B-AC14	B-AC15	B-AC16	B-DC1	B-DC2	B-DC3	B-DC4	B-DC5	B-DC6	B-DC7	B-DC8	B-DC9	B-DC10	B-DC11	B-DC12	B-DC13	B-DC14	B-DC15	B-DC16	B-Ph1	B-Ph2	B-Ph3	B-Ph4	B-Ph5	B-Ph6	B-Ph7	B-Ph8	B-Ph9	B-Ph10	B-Ph11	B-Ph12	B-Ph13	B-Ph14	B-Ph15	B-Ph16	

Term	0.00000e+00	0.00000e+00	0.00000e+00	0.00000e+00	0.00000e+00	0.00000e+00	0.00000e+00	0.00000e+00	0.00000e+00	0.00000e+00	0.00000e+00	0.00000e+00	0.00000e+00	0.00000e+00	0.00000e+00	0.00000e+00	0.00000e+00	0.00000e+00	0.00000e+00	0.00000e+00	0.00000e+00	0.00000e+00	0.00000e+00	0.00000e+00	0.00000e+00	0.00000e+00	0.00000e+00	0.00000e+00	0.00000e+00	0.00000e+00	0.00000e+00	0.00000e+00	-1.64124e+02	-1.34331e+02	-1.17949e+02	-1.82253e+02	-7.52879e+01	-6.26450e+01	-1.59673e+02	-1.62015e+02	-8.49910e+01	-7.28985e+01	-1.73437e+02	-1.73160e+02	-1.87935e+02	-1.78155e+02	-8.18410e+01	-1.50763e+02	
Factor	2.74309e-05	2.13387e-04	5.50513e-05	1.62759e-01	1.60481e-06	1.83435e-06	1.95155e-01	6.40897e-02	1.52885e-06	1.60519e-06	1.16290e-01	3.27102e-02	3.94705e-02	9.72176e-03	1.66134e-06	1.39751e-02	3.49212e-06	3.85682e-06	1.07645e-06	8.19710e-02	4.17040e-08	4.23842e-08	9.17160e-02	3.23082e-02	4.18294e-08	4.23276e-08	5.66427e-02	1.59731e-02	1.97584e-02	4.92990e-03	4.20100e-08	6.86893e-03	X	X	X	X	X	X	X	X	X	X	X	X	X	X	X	X	



#DISTANCE SETTINGS
A = Detector Channel
A-1	A-2	A-3	A-4	A-5	A-6	A-7	A-8	A-9	A-10	A-11	A-12	A-13	A-14	A-15	A-16	

2.5000e+00	3.0000e+00	2.5000e+00	3.0000e+00	2.0000e+00	3.0000e+00	1.5000e+00	3.0000e+00	3.0000e+00	3.0000e+00	3.0000e+00	3.0000e+00	3.0000e+00	3.0000e+00	1.5000e+00	3.0000e+00	

B = Detector Channel
B-1	B-2	B-3	B-4	B-5	B-6	B-7	B-8	B-9	B-10	B-11	B-12	B-13	B-14	B-15	B-16	

1.0000e+01	1.0000e+01	1.0000e+01	1.4400e+00	1.0000e+01	1.0000e+01	1.5100e+00	1.9400e+00	1.0000e+01	1.0000e+01	1.9900e+00	2.4900e+00	2.4100e+00	2.9000e+00	1.0000e+01	2.9800e+00	




#DATA BEGINS
time	group	step	mark	flag	A-AC1	A-AC2	A-AC3	A-AC4	A-AC5	A-AC6	A-AC7	A-AC8	A-AC9	A-AC10	A-AC11	A-AC12	A-AC13	A-AC14	A-AC15	A-AC16	A-DC1	A-DC2	A-DC3	A-DC4	A-DC5	A-DC6	A-DC7	A-DC8	A-DC9	A-DC10	A-DC11	A-DC12	A-DC13	A-DC14	A-DC15	A-DC16	A-Ph1	A-Ph2	A-Ph3	A-Ph4	A-Ph5	A-Ph6	A-Ph7	A-Ph8	A-Ph9	A-Ph10	A-Ph11	A-Ph12	A-Ph13	A-Ph14	A-Ph15	A-Ph16	B-AC1	B-AC2	B-AC3	B-AC4	B-AC5	B-AC6	B-AC7	B-AC8	B-AC9	B-AC10	B-AC11	B-AC12	B-AC13	B-AC14	B-AC15	B-AC16	B-DC1	B-DC2	B-DC3	B-DC4	B-DC5	B-DC6	B-DC7	B-DC8	B-DC9	B-DC10	B-DC11	B-DC12	B-DC13	B-DC14	B-DC15	B-DC16	B-Ph1	B-Ph2	B-Ph3	B-Ph4	B-Ph5	B-Ph6	B-Ph7	B-Ph8	B-Ph9	B-Ph10	B-Ph11	B-Ph12	B-Ph13	B-Ph14	B-Ph15	B-Ph16	aux-1	digaux	

22038.732	1	1	0	768	0.088969	0.30614	0.13561	0.029684	0.10488	0.13845	0.13204	0.11939	0.20569	0.30456	0.28153	0.32209	0.072713	0.18103	0.049169	0.1641	-1.9271	-2.5083	-2.8271	-2.6396	-2.6417	-2.7938	-2.5292	-3.0375	-2.4	-2.4833	-2.8646	-2.1458	-2.6333	-2.6292	-2.4021	-2.8375	462.960	413.140	182.641	355.224	218.715	177.356	134.314	438.101	303.473	467.063	159.309	371.726	230.385	462.339	435.091	325.918	0.00019027	0.0027669	0.000499	803.5	1.1846e-05	1.4753e-05	665.23	310.06	3.2076e-05	1.509e-05	267.95	71.15	83.397	17.383	1.2648e-05	16.467	0.032954	0.036365	0.010164	1649.9	0.00038858	0.00039569	1582.2	640.91	0.00038653	0.00039275	819.52	226.17	272.65	65.1	0.0003906	81.671	195.922	422.897	376.318	142.693	448.026	264.631	142.136	143.881	466.213	284.498	144.110	148.944	150.707	159.047	137.212	158.649	-8191	255	
22038.828	1	1	0	0	0.068554	0.17168	0.3745	0.11675	0.25233	0.031897	0.31944	0.24865	0.27437	0.058956	0.19838	0.071589	0.18176	0.12981	0.22712	0.25559	-2.0187	-2.5917	-2.6458	-2.5771	-2.875	-2.6021	-2.4229	-3.0312	-2.4062	-2.5875	-2.9271	-2.4854	-2.8312	-2.7708	-2.4167	-2.7292	129.151	384.428	433.492	427.101	219.078	324.634	290.000	467.017	148.050	482.836	463.625	482.916	200.967	273.019	475.650	367.937	0.00049074	0.0019241	0.00017522	807.8	2.5184e-05	6.4503e-06	662.92	315.26	1.7731e-05	7.3201e-06	277.57	76.271	89.262	18.981	1.7045e-05	17.86	0.032196	0.03596	0.010032	1636.3	0.00038403	0.0003934	1573	643.46	0.00038393	0.00039129	822.66	230.17	277.71	66.293	0.00038419	81.701	483.628	205.718	388.133	143.105	234.744	405.788	142.335	144.085	272.258	154.554	144.304	148.853	149.698	157.413	362.423	156.773	-8191	255	
22038.924	1	1	0	0	0.1411	0.10466	0.094869	0.21368	0.11692	0.17325	0.18507	0.2924	0.16628	0.05504	0.13635	0.32255	0.053229	0.22141	0.26999	0.090144	-2.2521	-2.4229	-2.9958	-2.6583	-2.5938	-2.8604	-2.5146	-2.9521	-2.7271	-2.6375	-2.9146	-2.5979	-2.5292	-2.9083	-2.2812	-2.7458	325.775	437.242	462.202	393.201	247.665	302.455	156.891	443.832	133.126	439.625	199.264	476.798	169.438	448.180	277.639	194.401	0.00012488	0.0015366	0.00019645	811.92	8.8196e-06	2.0523e-05	658.96	318.61	1.1744e-05	1.7479e-05	278	81.925	94.289	19.853	4.0074e-06	18.396	0.031539	0.035069	0.0097332	1617.5	0.00037279	0.0003801	1546.5	633.52	0.00036972	0.00037685	806.12	229.99	277.63	65.911	0.00037131	80.73	346.591	406.227	214.917	142.711	246.181	323.431	142.807	144.396	126.615	176.687	143.901	148.177	149.774	156.656	301.586	155.860	-8191	255	
22039.020	1	1	0	0	0.17344	0.27629	0.097326	0.21652	0.16569	0.11208	0.14146	0.11536	0.27138	0.01658	0.18711	0.38707	0.25749	0.34299	0.066856	0.072	-2.0062	-2.4021	-2.775	-2.5583	-2.6667	-2.7521	-2.5812	-2.8917	-2.7167	-2.4333	-2.8187	-2.6167	-2.7333	-2.8333	-2.3271	-2.775	406.705	384.034	144.609	148.221	453.039	442.905	401.830	297.955	346.402	368.803	379.997	432.047	154.321	456.215	220.975	360.416	0.00037495	0.0041074	0.00019791	791.38	1.3408e-05	7.081e-06	646.96	310.9	2.8e-05	1.3852e-05	278.68	86.071	99.473	20.803	3.1784e-05	18.76	0.030886	0.034428	0.0095257	1584.7	0.00036735	0.00037551	1513.6	621.57	0.00036696	0.00037278	797.24	232.77	281.44	66.11	0.00036406	79.935	425.930	468.946	334.923	143.172	461.159	482.120	142.684	144.682	220.651	127.164	143.859	147.650	149.478	155.833	357.306	154.597	-8191	255	
22039.115	1	1	0	0	0.035422	0.1554	0.23329	0.27149	0.18213	0.17182	0.24733	0.27736	0.084354	0.048713	0.27819	0.20271	0.11605	0.24058	0.14672	0.15631	-2.3458	-2.2917	-2.7604	-2.7917	-2.4375	-2.7604	-2.5646	-2.6875	-2.6896	-2.5438	-2.8292	-2.7438	-2.4542	-2.8271	-2.6125	-2.6104	329.381	462.292	259.109	429.243	478.578	456.314	370.489	414.914	268.606	312.846	391.833	420.928	186.891	435.065	322.844	132.563	0.00052325	0.002976	0.00067558	777.29	1.3386e-05	1.5641e-05	633.72	313.94	1.454e-05	2.963e-05	282.74	89.307	103.98	21.472	9.5828e-06	19.762	0.030236	0.033468	0.0092418	1550.5	0.00035803	0.00036476	1478.9	617.5	0.00035769	0.0003624	788.69	232.86	282.63	66.386	0.00035814	80.556	484.947	428.733	471.506	143.356	222.431	410.366	142.951	144.865	233.875	420.924	144.144	147.935	149.168	155.290	188.290	154.172	-8191	255	
22039.213	1	1	0	0	0.060166	0.17405	0.058785	0.16915	0.26877	0.11179	0.11592	0.22989	0.082648	0.20671	0.40941	0.26515	0.051635	0.17641	0.10169	0.11789	-2.2333	-2.3667	-2.8771	-2.6625	-2.5125	-2.725	-2.5687	-2.7083	-2.8333	-2.3854	-2.6458	-2.6667	-2.3937	-2.9188	-2.5292	-2.8354	427.675	363.864	438.936	133.018	191.805	235.014	215.213	418.741	387.653	367.738	442.981	462.070	230.088	249.913	296.178	407.716	0.00058381	0.00075317	0.00076803	756.84	2.7234e-05	2.2048e-05	614.67	312.6	1.116e-05	2.6876e-05	279.96	95.06	110.29	23.315	1.2735e-05	21.072	0.030084	0.033345	0.0092018	1527.3	0.00035755	0.00036257	1446.8	614.55	0.00035623	0.00035915	780.55	238.04	287.15	67.11	0.00034988	80.431	481.178	211.594	262.009	143.836	209.775	338.113	143.560	144.960	346.400	304.770	143.975	147.246	148.807	154.801	193.943	153.871	-8191	255	
22039.332	1	1	0	0	0.050649	0.058162	0.13363	0.013625	0.10199	0.15347	0.10336	0.2195	0.16221	0.017127	0.12931	0.27251	0.050506	0.16072	0.094155	0.17041	-2.3479	-2.45	-2.7396	-2.525	-2.1625	-2.7062	-2.6021	-2.6937	-2.8063	-2.3792	-2.7167	-2.8125	-2.5687	-2.9667	-2.6188	-2.5458	290.203	281.024	214.852	254.891	271.068	340.821	274.459	454.472	357.214	147.186	325.387	445.485	403.565	412.935	346.728	334.896	0.00052096	0.00072345	0.00049194	721.6	1.1706e-05	2.5641e-05	596.84	313.1	1.3164e-05	1.4834e-05	279.69	104.21	118.97	25.857	7.1384e-06	23.034	0.029294	0.032216	0.0089383	1470.5	0.00034766	0.00035105	1408.2	611.11	0.00034657	0.00034939	767.47	244.58	292.3	68.658	0.00034344	81.606	163.452	421.858	347.516	144.734	242.788	292.202	144.083	145.127	214.494	299.144	144.137	146.995	148.781	153.922	220.641	152.618	-8191	255	
22039.428	1	1	0	0	0.12439	0.064588	0.31416	0.20957	0.17884	0.21207	0.10537	0.19077	0.17203	0.068323	0.041765	0.25125	0.44104	0.24685	0.052233	0.35037	-2.4521	-2.3312	-2.6417	-2.8208	-2.4479	-2.9083	-2.75	-2.6458	-2.8042	-2.3729	-2.6625	-2.8563	-2.525	-2.9229	-2.5708	-2.6479	156.165	378.464	289.996	412.661	381.167	184.475	154.063	441.110	309.434	211.047	273.217	140.342	396.306	462.970	406.230	137.306	0.00053232	0.0019181	0.00051592	642.61	6.4803e-06	1.7913e-05	508.42	279.94	5.0026e-06	1.2736e-05	261.05	122.43	129.82	28.056	4.5214e-06	24.16	0.02865	0.031606	0.0087962	1371.3	0.00034173	0.00034464	1299.9	569.38	0.0003405	0.0003429	742.48	262.84	300.96	70.679	0.00033964	82.145	474.288	284.635	172.341	145.589	322.653	131.388	145.314	146.768	197.689	330.612	145.561	145.032	147.318	152.927	354.900	152.384	-8191	255	
22039.523	1	1	0	0	0.15092	0.18003	0.18971	0.037291	0.16984	0.10213	0.19803	0.28414	0.21745	0.16588	0.056857	0.039378	0.10233	0.10576	0.15053	0.13616	-2.4917	-2.3896	-2.6729	-2.7667	-2.2854	-2.9583	-2.6354	-2.6417	-2.8458	-2.6146	-2.6792	-2.8333	-2.4375	-2.9562	-2.7583	-2.525	432.775	278.011	201.136	300.186	291.363	457.204	150.385	460.385	222.658	155.234	440.642	197.915	426.216	433.823	157.090	384.114	0.00044795	0.0035201	0.00084831	544.7	9.4149e-06	1.5133e-05	434.66	268.16	1.3397e-05	7.7797e-06	220.88	106.09	120.99	35.666	7.4072e-06	30.565	0.028289	0.031071	0.0087001	1256.9	0.00033479	0.00033872	1206.9	551.55	0.00033324	0.00033605	690.25	241.62	287.5	77.901	0.00033044	87.698	182.049	196.929	280.906	146.934	275.414	202.276	146.377	146.500	192.644	129.473	146.014	146.910	148.296	151.370	365.785	150.859	-8191	255	
22039.621	1	1	0	0	0.10593	0.019492	0.078425	0.074869	0.10632	0.20098	0.2404	0.12944	0.11626	0.17576	0.14773	0.34434	0.084806	0.27647	0.064539	0.22328	-2.2917	-2.3125	-2.2771	-2.6458	-2.6354	-2.6562	-2.7104	-2.5812	-2.8458	-2.5083	-2.5771	-2.9354	-2.5125	-2.7625	-2.9146	-2.5	210.583	303.301	318.775	354.648	185.702	311.681	447.955	469.232	289.603	457.868	160.586	180.370	243.811	450.278	133.153	253.352	0.00051371	0.0026886	0.0011413	449.82	2.1259e-05	1.139e-05	375.07	200.83	1.1542e-05	9.7359e-06	195.28	105.27	116.85	38.944	1.3363e-05	33.782	0.02738	0.030102	0.0084715	1130.6	0.00032419	0.00032939	1123.5	471.25	0.00032433	0.00032833	651.9	238.97	279.15	80.667	0.00032696	90.386	133.299	163.253	254.397	148.973	226.803	244.409	147.901	149.364	458.077	197.266	147.570	147.083	149.339	151.192	484.382	150.813	-8191	255	
22039.717	1	1	0	0	0.14395	0.013046	0.31327	0.19691	0.24524	0.11103	0.42563	0.096289	0.10714	0.17867	0.17737	0.034702	0.25181	0.19993	0.31189	0.16801	-2.3208	-2.6042	-2.3792	-3.1063	-2.5104	-2.7083	-2.8688	-2.65	-2.8979	-2.7792	-2.5583	-3.1833	-2.4208	-2.6479	-2.8021	-2.4771	311.833	274.418	159.065	360.317	368.218	421.483	468.529	400.159	264.683	261.357	135.627	206.897	411.685	187.061	340.245	200.279	0.00073274	0.0019835	0.00093748	418.93	3.7368e-05	2.5729e-05	361.78	190.36	1.7028e-05	2.3978e-05	190.51	109.63	117.23	38.992	2.8642e-05	33.664	0.027059	0.029858	0.0083985	1092.6	0.00032093	0.00032702	1103.8	458.28	0.00032119	0.00032613	641.88	240.92	277.02	80.654	0.00032396	89.616	158.951	424.915	296.661	149.593	198.094	148.274	148.189	149.717	277.746	230.945	147.834	147.322	149.642	150.872	325.897	149.876	-8191	255	
22039.812	1	1	0	0	0.30515	0.12954	0.17421	0.018251	0.13704	0.23221	0.074453	0.087293	0.22638	0.11575	0.077711	0.17878	0.083844	0.11987	0.081695	0.15558	-2.475	-2.6854	-2.2542	-2.9083	-2.5396	-2.5333	-2.9021	-2.4875	-2.8	-2.6604	-2.375	-2.7229	-2.6833	-2.7667	-2.8771	-2.4	472.308	277.381	397.187	218.946	387.213	375.703	317.418	356.567	266.004	324.362	366.904	289.898	470.528	432.932	437.512	416.681	0.00081683	0.0011195	0.00070998	404.27	1.2981e-05	2.4282e-05	350.65	187.59	2.1234e-05	7.524e-06	185.75	113.5	119.52	36.365	1.0569e-05	29.99	0.026873	0.029808	0.008387	1072.9	0.00032097	0.00032837	1100	457	0.00032817	0.00033694	657.19	251.96	290.14	80.713	0.00035148	90.526	164.604	229.355	204.450	149.350	140.153	181.863	147.858	149.968	263.211	250.561	147.910	146.665	149.531	151.540	454.579	151.190	-8191	255	
22039.934	1	1	0	0	0.23405	0.15595	0.13618	0.15718	0.1391	0.13684	0.1329	0.080949	0.090041	0.17683	0.083092	0.25243	0.06415	0.25325	0.12851	0.15185	-2.1667	-2.625	-2.2979	-2.8	-2.65	-2.4167	-2.7979	-2.6292	-2.6146	-2.6854	-2.3708	-2.7958	-2.5938	-2.425	-2.8667	-2.5646	417.505	491.393	304.306	455.144	192.457	134.236	179.139	452.226	395.551	182.450	390.981	138.278	253.592	461.868	157.041	445.994	0.00044898	0.0036428	0.00030516	424.86	2.7386e-05	1.803e-05	367.28	183.63	7.414e-06	7.1288e-06	183.64	114.5	119.7	29.073	1.492e-05	23.457	0.02963	0.033124	0.0093479	1170.7	0.00036467	0.00037528	1215.3	489.28	0.00037587	0.00038475	717.94	269.82	310.31	78.042	0.00039151	89.693	137.134	198.377	280.330	149.597	262.368	221.904	147.899	150.008	210.108	256.962	147.799	145.964	149.298	152.586	138.424	152.740	-8191	255	
22040.029	1	1	0	0	0.075163	0.25334	0.12829	0.14256	0.17503	0.11443	0.09437	0.094691	0.1514	0.19141	0.073656	0.026947	0.092725	0.16325	0.41881	0.068086	-2.1792	-2.5479	-2.425	-2.6937	-2.7188	-2.6104	-2.7625	-2.75	-2.7062	-2.8292	-2.5	-2.8479	-2.5125	-2.4062	-2.7625	-2.6875	341.136	148.390	283.868	398.128	213.809	233.802	350.808	218.769	306.724	255.678	490.734	358.605	196.863	465.898	196.992	385.750	0.00029983	0.0020521	0.00016541	415.27	1.3389e-05	2.1859e-05	355.51	172.63	3.2152e-06	1.3611e-05	171.12	90.787	98.653	16.87	3.2724e-05	14.781	0.032841	0.036538	0.010248	1230.6	0.00039547	0.00040473	1259.2	493.4	0.00039739	0.00040296	725.84	250.27	294.44	66.18	0.00040134	82.253	134.130	168.180	196.692	149.422	387.085	314.995	147.849	150.621	234.291	207.015	148.440	147.292	149.860	156.575	307.913	157.564	-8191	255	
22040.125	1	1	0	0	0.18021	0.098205	0.22993	0.072872	0.1973	0.10182	0.22061	0.28062	0.16006	0.26668	0.12847	0.10562	0.15636	0.39451	0.095375	0.29612	-2.1688	-2.8208	-2.4083	-2.9104	-2.6125	-2.4729	-2.9479	-2.4583	-2.675	-2.7021	-2.4938	-2.7896	-2.7979	-2.4292	-2.8042	-2.5292	331.194	445.850	139.185	353.468	388.519	258.349	278.617	414.992	252.934	402.087	211.382	377.951	165.522	164.559	317.197	449.940	0.00023324	0.0029379	0.00081827	374.44	1.1929e-05	1.0355e-05	328.66	158.17	1.7737e-05	3.7371e-05	161.48	75.218	86.22	14.167	1.7678e-05	13.292	0.033724	0.037456	0.01046	1207.9	0.00040867	0.00041917	1265.4	492.98	0.00042032	0.00042787	754.16	246.8	300.51	67.845	0.00044693	88.853	284.408	304.288	190.696	149.581	166.546	139.176	148.285	151.075	409.953	438.990	148.308	148.308	150.830	159.018	143.922	157.877	-8191	255	
22040.221	1	1	0	0	0.39041	0.081417	0.20129	0.11024	0.061344	0.10572	0.38898	0.15644	0.20745	0.2842	0.062141	0.2006	0.25037	0.18041	0.17032	0.057896	-1.9667	-2.6958	-2.4625	-2.6896	-2.7958	-2.4083	-2.7917	-2.6667	-2.5292	-2.8625	-2.6375	-2.6271	-2.7646	-2.3229	-2.8333	-2.675	480.130	259.659	483.090	159.923	358.906	214.839	384.256	202.074	186.078	292.824	457.553	408.479	428.645	401.016	215.488	259.719	0.00020132	0.0016069	0.00046442	377.59	1.043e-05	3.1501e-05	332.97	163.69	2.4376e-05	1.5992e-05	167.18	87.36	97.882	16.475	1.7277e-05	15.091	0.038239	0.042668	0.012009	1336.9	0.0004757	0.00048723	1427.4	555.78	0.00049371	0.00050124	858.83	287.84	346.63	78.501	0.00051201	101.44	449.369	473.567	325.599	149.714	216.487	423.749	147.444	150.662	275.616	223.195	148.104	147.500	150.081	157.284	175.576	158.543	-8191	255	
22040.293	1	1	0	0	0.23545	0.12218	0.14394	0.2582	0.26748	0.16643	0.23559	0.14022	0.16792	0.10801	0.094771	0.035978	0.061706	0.16844	0.048696	0.10324	-2.0146	-2.9188	-2.5104	-2.7	-2.7104	-2.5187	-2.8979	-2.7417	-2.3854	-2.9	-2.6021	-2.5146	-2.7917	-2.2687	-2.7812	-2.8125	251.757	468.849	448.739	205.712	383.718	279.361	155.717	243.236	336.056	313.785	164.213	285.779	327.238	379.548	358.388	294.691	1.4447e-05	0.0012291	0.00038426	380.07	3.3023e-06	2.7438e-05	336.62	163.09	3.7764e-06	2.2585e-05	169.11	94.988	103.25	17.605	1.5767e-05	15.865	0.043247	0.047747	0.013329	1442.9	0.00052259	0.00053085	1520.8	586.01	0.00052956	0.0005333	898.51	306.6	363.16	82.373	0.00053398	105.53	254.055	306.156	183.734	149.091	287.610	178.447	147.452	150.621	322.274	397.169	148.130	147.271	149.330	156.771	198.581	156.232	-8191	255	
22040.412	1	1	0	0	0.30044	0.011236	0.14844	0.20969	0.17658	0.18858	0.19016	0.12506	0.011489	0.13039	0.35276	0.17313	0.2085	0.1827	0.24376	0.3452	-2.05	-2.9792	-2.525	-2.5125	-2.8542	-2.4479	-2.8125	-2.7313	-2.5125	-2.8333	-2.6312	-2.5938	-3.0542	-2.4208	-2.6813	-2.8167	262.215	285.544	300.854	324.136	390.281	263.174	375.389	201.859	301.065	464.326	367.997	439.486	461.205	445.927	370.976	196.143	0.00051481	0.0013296	0.00048168	382.36	2.2758e-05	2.8423e-05	340.12	163.4	2.6372e-05	1.9607e-05	168.86	95.751	102.81	17.354	3.7051e-05	15.86	0.044854	0.049444	0.013863	1486.8	0.00054315	0.00055189	1570.3	604.02	0.00055064	0.0005556	929.85	315.59	373.01	84.406	0.00055398	108.63	433.726	308.020	316.371	149.123	406.142	465.160	147.431	150.390	277.284	250.890	148.239	146.500	149.503	156.791	208.713	156.831	-8191	255	
22040.510	1	1	0	0	0.16072	0.17741	0.1788	0.083694	0.13151	0.17738	0.11436	0.29645	0.07274	0.08831	0.17966	0.25797	0.14736	0.071277	0.1294	0.17667	-1.8833	-2.6	-2.6083	-2.4583	-3.075	-2.8396	-2.7208	-2.85	-2.5604	-2.6312	-2.7792	-2.5979	-2.8937	-2.5417	-2.8396	-2.8063	381.551	418.432	345.374	164.750	293.203	271.388	429.234	145.102	352.426	490.834	320.062	144.277	367.982	153.090	321.119	331.708	0.00026676	0.0055785	0.00079943	389.39	2.1784e-05	2.0416e-05	343.24	166.71	2.9969e-05	2.4238e-05	173.32	92.547	101.73	16.254	8.6536e-06	15.387	0.04629	0.051133	0.014348	1528.8	0.00055846	0.00056752	1611.3	619.64	0.00056412	0.00056846	951.61	316.39	374.98	83.713	0.00055633	107.46	476.308	223.152	348.435	149.219	314.718	141.087	147.926	150.641	380.012	268.822	147.787	147.081	149.520	157.204	211.824	156.994	-8191	255	
22040.604	1	1	0	0	0.14944	0.20092	0.18015	0.091765	0.18007	0.102	0.10126	0.12559	0.17177	0.028011	0.17538	0.098161	0.14909	0.29501	0.098394	0.11654	-2.0375	-2.65	-2.7292	-2.4854	-2.9437	-2.575	-2.6354	-2.8625	-2.6083	-2.8229	-2.6854	-2.5687	-2.8146	-2.6479	-2.4833	-2.8083	421.192	230.515	281.461	178.392	491.190	418.920	160.399	457.807	462.126	147.283	480.928	357.565	157.856	428.101	256.674	382.528	0.00020726	0.0019005	0.00085554	395.23	3.7755e-05	1.7051e-05	340.33	168.96	8.5573e-06	3.8131e-05	176.67	88.234	100.68	15.808	4.1999e-05	15.212	0.045643	0.050189	0.014012	1500.5	0.00053774	0.00054468	1557.6	602.08	0.0005356	0.00054073	916.89	301.26	360.52	80.284	0.00053556	104.1	331.021	241.559	483.474	149.357	193.883	347.373	148.059	151.103	378.151	316.210	148.318	147.176	149.431	158.483	157.691	158.264	-8191	255	
22040.701	1	1	0	0	0.11905	0.43457	0.12305	0.06635	0.19786	0.12631	0.17604	0.19385	0.23857	0.17854	0.1108	0.32328	0.05908	0.25474	0.26137	0.14192	-1.8354	-2.625	-2.6521	-2.5042	-2.7562	-2.6083	-2.6833	-2.8833	-2.5667	-2.7021	-2.7271	-2.4083	-2.7104	-2.5583	-2.5208	-2.7562	230.662	160.677	138.285	474.577	455.926	334.487	338.608	355.626	367.290	236.578	403.681	168.230	409.966	362.748	283.190	263.812	0.00012692	0.0016393	0.00034943	398.28	1.473e-05	2.3469e-05	341.18	170.54	2.4832e-05	1.5244e-05	177.18	88.307	99.932	15.603	1.4558e-05	14.8	0.043992	0.048529	0.013563	1465.2	0.00052106	0.00053023	1527.9	591.3	0.00052068	0.000528	900.03	295.32	353.75	78.735	0.00052336	101.93	481.355	177.694	283.882	148.984	245.523	210.182	147.598	150.247	455.861	178.620	148.908	147.412	149.482	158.650	321.321	158.161	-8191	255	
22040.820	1	1	0	0	0.32055	0.16076	0.062461	0.17727	0.21245	0.13858	0.14387	0.31729	0.20164	0.27673	0.088288	0.15983	0.30006	0.27552	0.11978	0.12359	-1.9479	-2.5938	-2.6167	-2.4917	-2.6979	-2.8917	-2.5625	-2.9396	-2.4313	-2.325	-2.7313	-2.3979	-2.6021	-2.4625	-2.3958	-2.7875	177.804	303.017	408.645	161.312	163.515	370.614	455.229	167.724	374.222	257.739	258.640	301.555	374.951	428.904	351.716	373.122	6.9564e-05	0.0019784	0.00053384	396.59	1.9932e-05	2.9695e-05	342.11	168.81	1.1667e-05	2.727e-05	174.75	81.197	94.225	14.55	6.021e-06	14.235	0.043184	0.04774	0.013343	1448.8	0.00051235	0.00052213	1508.6	583.74	0.00051372	0.00052146	888.87	285.64	345.42	76.995	0.00052064	100.54	351.889	475.721	342.514	149.631	220.495	258.604	146.952	150.406	358.482	478.550	148.047	148.232	149.810	160.119	325.762	158.594	-8191	255	
22040.893	1	1	0	0	0.060435	0.366	0.18959	0.17684	0.037331	0.30978	0.21998	0.24062	0.25717	0.12438	0.22296	0.1371	0.19107	0.10125	0.027509	0.015522	-1.8792	-2.55	-2.5125	-2.3042	-2.525	-2.6063	-2.3583	-2.9521	-2.6188	-2.5771	-2.9292	-2.5917	-2.5542	-2.9083	-2.4208	-2.7479	434.626	209.949	140.223	414.304	137.401	213.132	472.982	178.261	466.459	157.428	386.483	253.087	200.440	284.065	287.900	310.853	0.00040875	0.0032241	0.00026725	394.41	2.0386e-05	2.8209e-05	343.13	168.75	2.1223e-05	9.7059e-06	171.47	80.806	92.843	13.653	6.3687e-06	13.338	0.043107	0.047788	0.013371	1450.9	0.00051638	0.00052762	1518.1	586	0.00051772	0.00052766	893.78	286.03	345.08	76.226	0.0005163	98.596	238.794	385.443	178.488	149.415	241.271	186.856	147.413	150.188	169.749	194.838	147.608	147.538	150.117	160.329	189.850	160.140	-8191	255	
22041.014	1	1	0	0	0.2728	0.1421	0.14356	0.21729	0.31284	0.27215	0.27777	0.29596	0.31165	0.15588	0.39789	0.067593	0.22019	0.017475	0.097464	0.10376	-2.0458	-2.4271	-2.8563	-2.625	-2.5687	-2.7562	-2.4854	-2.9833	-2.7438	-2.5854	-2.9292	-2.3833	-2.5062	-2.6312	-2.3063	-2.5938	179.861	290.890	359.080	166.299	208.475	250.359	422.095	393.928	481.305	376.706	425.768	201.692	469.978	286.153	397.866	245.841	0.00080589	0.0011595	0.00024427	394.95	3.6009e-05	1.1022e-05	345.96	166.8	1.897e-05	1.4604e-05	176.12	61.891	76.42	10.936	1.8529e-05	11.769	0.042183	0.046307	0.012753	1393.8	0.00048306	0.00048719	1423.6	546.81	0.00046863	0.0004745	818.42	243.15	300.02	66.546	0.00046158	87.963	152.936	450.588	354.436	149.513	199.078	287.139	147.331	150.038	217.889	286.507	147.707	149.414	151.114	162.762	177.557	161.541	-8191	255	
22041.109	1	1	0	0	0.2201	0.10454	0.17461	0.17676	0.13296	0.18904	0.081985	0.085969	0.20849	0.12276	0.23771	0.1319	0.46349	0.20297	0.14675	0.27862	-2.1104	-2.2208	-2.6604	-2.4271	-2.5375	-2.8563	-2.4188	-2.6833	-2.575	-2.3854	-2.6896	-2.6271	-2.6562	-2.6979	-2.4708	-2.4813	460.928	462.186	393.856	191.979	184.572	476.653	240.148	443.795	263.100	439.614	429.847	222.886	420.182	435.873	354.424	374.416	0.00067039	0.0035732	0.0012419	402.44	2.83e-05	2.3353e-05	352.95	171.33	6.738e-06	1.0037e-05	176.57	64.686	80.353	11.285	3.8562e-06	11.774	0.038018	0.04202	0.011645	1320.6	0.00045035	0.00045758	1372.5	535.17	0.00045307	0.00046248	812.5	245.1	304.55	66.847	0.00046386	89.116	217.924	176.954	291.454	149.349	255.805	452.412	147.996	150.409	277.489	160.430	147.902	149.123	150.608	162.605	298.048	160.544	-8191	255	
22041.205	1	1	0	0	0.075022	0.013346	0.098685	0.26726	0.23831	0.3222	0.082903	0.16698	0.24415	0.24091	0.12839	0.23599	0.0064127	0.31589	0.30394	0.36131	-2.2354	-2.3688	-2.6458	-2.5729	-2.5062	-3.0125	-2.4146	-2.6292	-2.725	-2.3729	-2.6271	-2.6229	-2.4854	-2.7375	-2.3396	-2.4437	211.829	352.223	444.531	394.594	337.365	234.552	426.769	468.336	465.361	465.749	199.591	434.563	219.075	339.160	300.991	377.998	0.00026031	0.0019152	0.0009001	404.38	2.8576e-05	1.5167e-05	349.17	172.22	2.6941e-05	9.7889e-06	180.33	60.103	75.358	10.413	1.4257e-05	11.375	0.03888	0.043087	0.012022	1360.5	0.00046944	0.00047729	1415.3	550.37	0.00047161	0.00047951	834.13	246.46	305.78	67.453	0.00047472	90.174	389.906	479.311	202.750	150.027	195.955	388.411	148.394	150.315	232.157	420.353	147.818	149.007	151.107	163.709	219.438	160.795	-8191	255	
22041.301	1	1	0	0	0.123	0.30225	0.075753	0.22655	0.087024	0.078333	0.29991	0.30081	0.20589	0.24193	0.35192	0.23907	0.064634	0.029512	0.16839	0.28724	-2.25	-2.3729	-2.5563	-2.6188	-2.4042	-2.9167	-2.5604	-2.6458	-2.6042	-2.4333	-2.7917	-2.5542	-2.5854	-2.8104	-2.4938	-2.5333	263.129	188.536	348.728	459.953	193.070	429.421	446.801	469.735	461.824	425.296	385.001	320.447	471.889	296.531	153.412	369.099	0.00036667	0.0045379	0.00097224	404.47	3.5413e-05	1.3321e-05	349.08	171.33	5.9509e-06	1.903e-05	180.7	62.125	78.087	10.392	1.7326e-05	11.376	0.039596	0.04375	0.012197	1375.5	0.00047602	0.00048362	1431.5	557.62	0.00048159	0.0004891	848.07	252.45	314.57	68.969	0.00048642	92.483	161.340	390.523	165.541	149.501	412.764	362.951	147.757	150.241	444.819	428.499	147.852	148.792	150.664	163.103	203.092	160.628	-8191	255	
22041.422	1	1	0	0	0.13712	0.18966	0.033856	0.14944	0.054102	0.099311	0.11902	0.1555	0.097741	0.19416	0.040809	0.4027	0.05339	0.058079	0.24364	0.19533	-2.3771	-2.3229	-2.6729	-2.625	-2.3229	-2.7271	-2.3854	-2.6562	-2.775	-2.4354	-2.6937	-2.675	-2.3271	-2.825	-2.6125	-2.4	255.008	373.540	385.839	412.950	221.106	176.316	240.443	227.354	257.980	148.279	148.416	412.530	243.364	367.179	471.575	420.596	0.00013236	0.0011492	0.00055124	408.49	2.1443e-05	1.3866e-05	356.38	173.99	1.9313e-05	3.0642e-05	182.38	68.102	84.785	10.852	1.4733e-05	11.437	0.040625	0.044729	0.012449	1400.9	0.00048489	0.00049047	1449.6	565.51	0.00048376	0.00048903	849.96	257.26	319.16	68.376	0.00047845	91.357	275.883	326.113	278.458	149.677	287.768	262.725	147.246	150.242	282.464	458.361	147.816	148.419	150.261	161.319	364.647	160.293	-8191	255	
22041.518	1	1	0	0	0.10794	0.20707	0.12535	0.05222	0.1597	0.16833	0.35162	0.13841	0.17952	0.20499	0.28225	0.15259	0.032911	0.14231	0.086012	0.21328	-2.3083	-2.55	-2.6354	-2.6958	-2.4729	-2.6292	-2.625	-2.6021	-2.9146	-2.3792	-2.8146	-2.7042	-2.4708	-2.7771	-2.4792	-2.35	469.865	374.658	465.056	207.124	233.069	159.836	469.366	300.928	447.029	310.418	386.659	161.471	326.049	336.500	132.671	431.895	0.00066571	0.00045806	0.00088125	406.65	1.0005e-05	3.4342e-05	353.54	176.34	8.1949e-06	3.0722e-05	184.06	73.226	89.692	10.774	3.428e-05	11.287	0.039848	0.043959	0.012226	1378	0.00047533	0.00048142	1433.1	561.17	0.00047583	0.00048126	844.52	261.37	322.26	68.153	0.00047735	91.154	184.063	358.617	151.032	149.295	427.602	490.598	147.288	150.548	321.984	249.239	148.276	148.592	149.744	161.257	177.051	160.275	-8191	255	
22041.590	1	1	0	0	0.24849	0.15084	0.13478	0.055336	0.21215	0.046724	0.045268	0.16042	0.09027	0.084757	0.20827	0.075347	0.1621	0.095458	0.10841	0.17804	-2.4646	-2.4542	-2.625	-2.7604	-2.4125	-2.8146	-2.5229	-2.5271	-2.7625	-2.5187	-2.5812	-2.775	-2.3042	-2.6625	-2.6167	-2.3021	482.207	262.428	429.775	487.033	348.856	334.252	226.442	147.298	410.270	338.284	391.788	459.884	464.207	326.446	337.277	214.691	0.00044057	0.0039767	0.0004104	399.04	1.5349e-05	5.7436e-06	344.52	171.8	3.2614e-05	1.8886e-05	177.36	66.637	82.706	10.301	6.3165e-06	11.005	0.039886	0.043881	0.012302	1374.8	0.00047841	0.00048298	1429.7	559.1	0.00047638	0.00048177	842.17	255.47	315.43	67.989	0.00048368	91.726	240.981	267.155	381.724	149.281	332.991	368.110	147.496	150.197	464.982	156.594	148.065	148.484	149.966	163.316	374.282	160.948	-8191	255	
22041.709	1	1	0	0	0.18185	0.015904	0.16649	0.18606	0.1732	0.11643	0.28449	0.10647	0.1677	0.1224	0.074487	0.062295	0.27132	0.15659	0.081422	0.15934	-2.525	-2.5708	-2.4583	-2.7146	-2.3438	-2.725	-2.7542	-2.325	-2.7646	-2.7021	-2.4375	-2.8333	-2.4313	-2.7188	-2.7229	-2.3104	132.726	351.006	471.484	390.378	195.605	199.450	321.714	202.070	360.075	419.084	276.844	259.540	192.685	309.980	272.082	408.132	0.00026013	0.0018369	0.0012226	386.27	3.9727e-05	3.2126e-05	334.56	164.48	9.84e-06	1.6829e-05	169.37	58.503	72.926	10.013	1.3095e-05	11.021	0.0404	0.044651	0.012529	1379.1	0.0004863	0.00049559	1445.3	562.14	0.00049309	0.00050078	860.89	254.59	315.46	70.233	0.00050627	95.319	447.661	374.270	135.571	150.003	461.178	436.482	147.405	150.646	198.994	256.227	148.993	150.423	151.085	164.023	374.528	162.258	-8191	255	
22041.805	1	1	0	0	0.20214	0.054309	0.15832	0.27452	0.19159	0.32802	0.11914	0.27086	0.17641	0.10027	0.16294	0.26469	0.18164	0.33909	0.060775	0.15905	-2.35	-2.6042	-2.3812	-2.9396	-2.4271	-2.5458	-2.6	-2.3417	-2.9917	-2.5833	-2.5375	-2.7354	-2.5292	-2.5687	-2.7687	-2.4125	491.842	447.738	194.440	169.219	357.935	335.713	459.627	454.684	221.010	158.916	416.282	355.375	198.294	144.454	212.373	397.406	0.00017002	0.0008215	0.00018735	382.95	7.2492e-06	1.4625e-05	333.22	161.26	3.1542e-05	1.9214e-05	170.37	54.189	67.213	9.9208	3.0299e-05	11.075	0.042349	0.046942	0.013205	1428.9	0.00051377	0.00052512	1508.7	581.54	0.00052262	0.00053099	898.18	259.98	321.41	73.231	0.00053122	99.212	405.746	270.922	399.743	149.611	366.901	403.771	147.760	150.803	255.438	195.551	147.572	150.581	151.543	165.040	337.022	162.243	-8191	255	
22041.900	1	1	0	0	0.12384	0.16118	0.19481	0.12514	0.21545	0.037413	0.22	0.17671	0.12695	0.14625	0.078633	0.29593	0.24801	0.37913	0.052338	0.1395	-2.2979	-2.4375	-2.2854	-2.7146	-2.2812	-2.5187	-2.675	-2.3458	-2.6667	-2.8792	-2.4083	-2.7479	-2.3521	-2.4188	-2.6937	-2.3104	483.392	375.031	250.309	261.815	449.175	212.594	473.771	465.777	210.165	138.670	414.486	311.632	177.058	408.262	428.501	216.216	0.0004167	0.0026632	0.00081749	387.99	1.3459e-05	2.1369e-05	336.3	161.46	3.5067e-05	6.9981e-06	167.42	48.14	61.477	9.5701	2.398e-05	10.746	0.044012	0.048742	0.01364	1463.5	0.00052533	0.0005368	1530.2	584.87	0.00052744	0.00053565	903.3	255.8	317.06	73.452	0.00053613	99.837	165.821	397.016	198.506	149.365	351.995	193.553	147.785	150.743	207.053	147.815	147.664	151.030	152.628	165.159	266.180	162.858	-8191	255	
22041.996	1	1	0	0	0.033972	0.29265	0.12379	0.27293	0.20109	0.10337	0.057063	0.030597	0.2889	0.026536	0.11587	0.17337	0.16149	0.10477	0.16726	0.31175	-2.2854	-2.5417	-2.325	-2.6479	-2.6083	-2.5646	-2.8042	-2.4729	-2.6562	-2.4938	-2.2833	-2.725	-2.4917	-2.2771	-2.825	-2.3708	168.644	310.836	389.770	361.927	473.397	434.060	225.770	373.441	134.027	227.385	407.092	413.967	424.729	282.047	411.065	424.333	0.00022268	0.004437	0.0010759	396.1	4.0462e-05	9.2745e-06	348.58	162.8	3.4078e-05	9.3473e-06	169.8	47.191	60.094	9.6474	1.7431e-05	10.941	0.044537	0.04937	0.013827	1489.3	0.00053332	0.00054579	1558.7	593.79	0.00053671	0.00054499	914.64	256.93	318.6	74.068	0.00054078	100.52	480.196	187.838	438.178	149.092	479.622	248.264	147.423	150.684	229.138	301.381	147.839	150.810	152.054	165.607	392.326	162.184	-8191	255	
22042.117	1	1	0	0	0.20739	0.074863	0.20499	0.15716	0.23872	0.15242	0.21765	0.11246	0.33864	0.080175	0.036961	0.070466	0.067303	0.23345	0.13048	0.22784	-2.0125	-2.6542	-2.2208	-2.8	-2.6146	-2.4271	-2.8688	-2.5042	-2.7792	-2.7771	-1.9937	-2.2854	-2.3896	-1.9062	-2.3708	-2.0708	429.259	210.371	416.604	192.185	464.754	355.486	389.006	363.291	152.288	317.676	373.078	279.629	388.429	323.955	239.378	174.613	0.00052517	0.0027718	0.0012291	406.95	5.9414e-06	1.9718e-06	346.63	163.4	8.8726e-06	2.2143e-05	59.053	1.0044	0.13665	0.0075724	3.9414e-07	0.0034098	0.044989	0.049878	0.013891	1503.6	0.0005386	0.00055072	1574	598.19	0.00054148	0.00054977	303.35	5.9737	0.15008	-0.11929	-1.1114e-06	-0.15625	488.608	411.054	264.345	149.137	161.915	170.290	147.785	150.359	353.784	270.966	161.711	169.821	164.771	197.905	248.829	459.402	-8191	255	
22042.189	1	1	0	0	0.1663	0.094233	0.13051	0.16109	0.028572	0.16628	0.23043	0.16759	0.20603	0.16597	0.27603	0.27776	0.24166	0.11275	0.23004	0.08245	-1.7625	-2.2854	-2.0062	-2.2458	-2.2604	-2.1833	-2.3417	-2.1292	-2.0792	-2.3083	-1.9479	-2.2917	-2.2854	-2.0979	-2.3458	-2.125	331.483	256.192	418.482	203.255	389.406	301.721	326.283	292.816	338.393	344.762	413.368	258.773	424.700	233.053	292.801	326.514	4.5257e-06	2.7527e-05	4.825e-06	0.013874	2.7612e-07	9.8651e-08	0.006882	0.0093961	1.8278e-07	3.103e-07	0.019183	0.0037036	0.0052017	0.00054272	2.6016e-07	0.0012213	-6.7398e-05	-6.6619e-05	-1.5992e-05	-1.1128	-5.107e-07	-4.6287e-07	-0.94448	-0.30175	-3.5686e-07	-3.5335e-07	-0.41668	-0.11527	-0.13666	-0.031562	-2.7622e-07	-0.041457	214.278	184.247	408.082	366.424	384.317	169.506	375.647	85.805	137.910	91.168	151.626	81.417	285.400	142.447	345.099	158.756	-8191	255	
22042.285	1	1	0	0	0.2223	0.20292	0.18419	0.36038	0.24346	0.20476	0.42244	0.15398	0.087566	0.032147	0.12183	0.10584	0.16129	0.30559	0.12089	0.3066	-1.6208	-2.4375	-1.9688	-2.1146	-2.375	-1.9354	-2.275	-2.1312	-1.9896	-2.5208	-2.0896	-2.2229	-2.2917	-1.9625	-2.3333	-2.1271	233.023	301.295	358.456	119.671	358.759	145.556	51.246	340.802	229.058	173.178	150.757	214.940	260.089	132.146	158.968	22.066	1.5889e-06	2.112e-05	6.1713e-06	0.013618	1.2729e-07	1.9199e-07	0.014252	0.0042583	3.1873e-07	3.1348e-07	0.016331	0.0034526	0.0036829	0.0011434	9.8874e-08	0.00073566	-1.7766e-05	-2.1807e-05	-5.4742e-06	-0.42984	-2.1147e-07	-1.9444e-07	-0.44406	-0.1536	-1.8204e-07	-1.9259e-07	-0.23176	-0.064824	-0.083109	-0.017912	-1.7513e-07	-0.025415	269.968	195.198	374.622	372.479	35.434	51.332	164.390	33.163	218.642	176.720	157.156	285.274	187.559	296.859	165.229	311.726	-8191	255	
22042.383	1	1	0	0	0.28836	0.070148	0.20179	0.21496	0.18481	0.16025	0.12845	0.011067	0.021767	0.045318	0.059685	0.24732	0.1018	0.082044	0.18736	0.23665	-1.6625	-2.4792	-1.8875	-2.0708	-2.2896	-2.1271	-2.3667	-2.2229	-2.0479	-2.5458	-2.1562	-2.1229	-2.3729	-2.0104	-2.1917	-2.2062	326.287	473.840	277.056	474.055	242.084	302.033	286.628	162.563	158.908	416.455	186.325	355.679	305.749	175.966	281.341	148.174	6.653e-06	3.4951e-05	1.5541e-05	0.028187	2.3231e-07	1.777e-07	0.027864	0.0049423	3.4767e-07	2.8556e-07	0.020676	0.0049777	0.0082928	0.0020007	1.5633e-07	0.0031321	-1.1095e-05	-1.4696e-05	-3.8035e-06	-0.27307	-1.5465e-07	-1.3837e-07	-0.31623	-0.10897	-1.261e-07	-1.4806e-07	-0.17087	-0.048918	-0.065326	-0.013742	-1.3111e-07	-0.021208	386.750	173.530	451.148	412.997	205.582	303.191	403.187	137.269	382.828	370.698	161.941	152.977	189.271	401.875	419.383	428.812	-8191	255	
22042.502	1	1	0	0	0.072356	0.047921	0.14521	0.30379	0.2571	0.09482	0.31916	0.11278	0.23748	0.045167	0.37505	0.31764	0.17118	0.29129	0.049589	0.16442	-1.3021	-2.1354	-2.0458	-1.9396	-2.5792	-2.0958	-2.3042	-2.2229	-2.0938	-2.4125	-2.1354	-1.9771	-2.2896	-1.975	-2.3125	-2.4667	255.919	320.413	291.528	278.111	73.553	176.804	21.751	14.003	283.808	85.487	118.043	9.371	-16.869	178.566	55.392	90.756	4.3398e-06	1.412e-05	1.3523e-05	0.017057	2.6557e-07	2.7682e-07	0.0039234	0.01315	2.2499e-07	3.7481e-07	0.031451	0.0038158	0.0049532	0.00063858	1.9779e-07	0.0017392	-7.8791e-06	-1.2639e-05	-3.1441e-06	-0.222	-1.3649e-07	-1.2018e-07	-0.27247	-0.0978	-1.1093e-07	-1.3924e-07	-0.16202	-0.040632	-0.059316	-0.013075	-1.1955e-07	-0.020063	165.016	287.060	72.825	224.521	27.729	59.921	15.249	-2.050	240.633	220.875	211.960	67.381	277.259	75.676	49.612	260.589	-8191	255	
22042.598	1	1	0	0	0.07607	0.13234	0.12438	0.043393	0.17708	0.37273	0.15207	0.11089	0.020925	0.24036	0.11972	0.093711	0.2085	0.083455	0.036909	0.11432	-1.4667	-2.4125	-2.1708	-2.075	-2.3271	-2.075	-2.2667	-2.4146	-2.1333	-2.3937	-2.3167	-2.2458	-2.3187	-2.1458	-2.2896	-2.35	225.685	130.358	-22.522	-58.571	37.028	65.482	111.284	165.139	33.579	102.524	207.224	-100.274	99.086	63.145	113.851	132.139	6.4581e-06	1.802e-05	4.0396e-06	0.0090323	1.7118e-07	3.3537e-07	0.032156	0.00553	2.4262e-07	2.3047e-07	0.013073	0.00013085	0.014985	0.0013004	4.1879e-07	0.0015923	-6.977e-06	-1.0598e-05	-2.8369e-06	-0.18785	-1.2311e-07	-1.0676e-07	-0.23693	-0.09679	-1.0266e-07	-1.201e-07	-0.14916	-0.038901	-0.055324	-0.012058	-1.059e-07	-0.019061	-17.713	110.918	-75.341	134.980	9.185	-95.610	-59.618	-87.808	-40.798	-81.906	-76.354	36.125	141.028	45.326	186.667	145.521	-8191	255	
22042.695	1	1	0	0	0.071142	0.33507	0.15384	0.2279	0.10614	0.0093025	0.14877	0.17922	0.022143	0.1107	0.21758	0.29893	0.17598	0.17184	0.20158	0.11706	-1.5708	-2.4437	-2.1979	-1.8958	-2.3292	-2.1229	-2.2188	-2.2812	-2.0021	-2.2562	-2.3396	-1.8396	-2.3667	-2.1937	-2.0646	-2.4396	271.572	306.243	278.982	83.931	0.182	28.503	279.641	260.468	191.867	289.100	64.706	133.963	156.821	33.108	-16.548	275.373	1.2808e-06	2.392e-05	5.2028e-06	0.024385	3.3291e-07	3.6219e-07	0.026144	0.01973	2.1576e-07	3.0515e-07	0.040075	0.0053057	0.011757	0.0018837	3.519e-07	0.001929	-6.5404e-06	-1.0237e-05	-2.9064e-06	-0.19741	-1.1721e-07	-1.1205e-07	-0.23254	-0.091203	-9.4116e-08	-1.0961e-07	-0.15305	-0.034342	-0.052277	-0.012089	-1.0476e-07	-0.021022	-29.006	-33.877	17.561	111.789	129.290	313.281	82.915	-24.428	273.616	155.497	101.304	226.776	257.441	188.698	163.783	118.259	-8191	255	
22042.789	1	1	0	0	0.20205	0.10063	0.25587	0.15395	0.038288	0.1059	0.071718	0.10228	0.24497	0.21716	0.12718	0.27822	0.16984	0.30421	0.17502	0.067067	-1.6063	-2.1562	-2.2833	-1.9458	-2.4042	-2.1292	-2.1958	-2.4479	-2.1667	-2.1708	-2.2562	-1.7417	-2.3292	-2.2646	-1.9333	-2.35	-31.253	251.955	-51.544	83.156	160.632	146.109	154.109	20.674	17.365	186.121	-70.359	-28.888	67.231	72.489	215.982	140.163	7.633e-07	2.2813e-05	1.216e-05	0.050354	3.1587e-07	3.3801e-07	0.031209	0.0052565	3.7684e-07	3.2437e-07	0.0035419	0.0040832	0.010202	0.00062023	2.3796e-07	0.001252	-6.0821e-06	-9.7706e-06	-3.0096e-06	-0.16907	-1.0817e-07	-1.0737e-07	-0.21133	-0.08878	-9.3332e-08	-1.0326e-07	-0.15329	-0.033211	-0.048655	-0.011452	-9.3822e-08	-0.018374	35.086	223.158	52.770	-44.115	-70.127	130.677	16.156	-81.571	35.066	253.422	-78.382	-57.618	-14.804	205.023	192.912	252.498	-8191	255	
22042.885	1	1	0	0	0.050436	0.08915	0.15272	0.31094	0.013007	0.1421	0.079082	0.098517	0.053739	0.13691	0.17789	0.076124	0.052142	0.132	0.29602	0.24559	-1.6187	-2.0062	-2.3021	-1.8917	-2.2188	-2.1312	-2.0438	-2.4146	-2.3	-2.1771	-2.4333	-1.875	-2.0917	-2.0375	-2.1063	-2.2188	252.953	472.406	174.809	369.913	491.149	287.863	147.669	277.898	392.844	370.368	346.010	371.935	413.794	166.073	449.172	433.912	6.3432e-06	3.7308e-06	9.4359e-06	0.033606	2.9614e-07	4.292e-07	0.01512	0.015072	3.8482e-07	1.656e-07	0.0061203	0.0041011	0.0055514	0.00045885	3.3703e-07	0.0027672	-6.2931e-06	-9.5135e-06	-2.967e-06	-0.19605	-1.0495e-07	-1.0817e-07	-0.18649	-0.081309	-9.9606e-08	-9.3562e-08	-0.14491	-0.033144	-0.049272	-0.012366	-8.7521e-08	-0.017215	195.929	379.742	218.639	290.366	204.597	400.487	223.730	155.860	346.664	214.781	309.649	484.351	265.152	184.601	150.360	179.941	-8191	255	
22042.982	1	1	0	0	0.28215	0.11522	0.25583	0.14652	0.25144	0.1897	0.19876	0.41606	0.057025	0.15055	0.15459	0.22836	0.33151	0.3899	0.014088	0.19673	-1.7354	-2.0229	-2.3292	-1.8417	-2.0812	-2.2938	-2.1063	-2.4062	-2.1771	-2.0979	-2.475	-1.8042	-2.3625	-2.2042	-1.9292	-2.2354	87.713	265.728	234.456	27.347	198.710	172.593	69.434	-52.286	-0.610	7.555	73.888	198.827	63.837	244.208	146.504	234.387	3.4163e-06	8.9647e-06	4.8479e-06	0.016225	3.7015e-07	3.0095e-07	0.010958	0.0026479	1.2399e-07	4.1679e-07	0.020954	0.0040651	0.0054185	0.001386	5.9105e-07	0.0024335	-5.2091e-06	-8.7662e-06	-2.6508e-06	-0.16326	-9.505e-08	-1.0896e-07	-0.18267	-0.087973	-9.9345e-08	-9.2239e-08	-0.14633	-0.033577	-0.046185	-0.012582	-8.542e-08	-0.017287	58.957	-16.627	-39.786	64.585	3.135	97.234	153.061	-58.189	128.656	-33.245	-38.028	213.966	226.011	94.692	54.417	186.897	-8191	255	
22043.102	1	1	0	0	0.091284	0.026277	0.2182	0.14447	0.15677	0.17628	0.23095	0.40828	0.25891	0.12014	0.14152	0.049945	0.046519	0.051334	0.28098	0.15458	-1.6833	-1.8042	-2.4521	-1.9708	-2.125	-2.4458	-1.8396	-2.2188	-2.0729	-1.7625	-2.2104	-2.1854	-2.0229	-2.2292	-1.9042	-2.3063	232.279	344.883	126.404	185.491	344.235	65.467	110.476	227.216	140.167	98.283	135.011	407.330	80.790	250.632	287.468	411.464	6.1703e-06	6.0544e-05	1.1881e-05	0.018943	5.3061e-07	1.199e-07	0.027199	0.0047337	2.499e-07	1.6252e-07	0.025979	0.0022418	0.00893	0.00092194	6.9633e-08	0.00411	-7.3116e-06	-7.8181e-06	-2.727e-06	-0.17692	-8.5841e-08	-1.0631e-07	-0.17732	-0.072088	-9.673e-08	-9.4091e-08	-0.13641	-0.032179	-0.042439	-0.012027	-7.6231e-08	-0.015641	396.299	172.832	265.144	84.135	182.123	110.297	117.295	70.248	98.036	347.292	54.044	149.734	177.540	347.946	374.270	385.498	-8191	255	
22043.197	1	1	0	0	0.050899	0.13073	0.097963	0.026203	0.11932	0.2901	0.27543	0.18408	0.061997	0.13167	0.12149	0.34148	0.052754	0.21645	0.032571	0.10216	-1.775	-2.1042	-2.3708	-1.9625	-2.1875	-2.4167	-2.0583	-2.4271	-2.5083	-1.9188	-2.4062	-2.1771	-2.1417	-2.3563	-2.0812	-2.3125	2.035	-68.452	234.524	231.467	95.569	121.500	-102.028	14.407	-65.600	238.647	182.073	157.968	54.521	-8.592	40.864	-104.373	2.0221e-06	3.502e-05	2.1972e-05	0.034255	5.8046e-09	4.262e-07	0.020193	0.016853	1.508e-07	6.0648e-07	0.022215	0.0077183	0.0054085	0.00025135	2.0802e-07	0.0012808	-6.715e-06	-7.802e-06	-2.6642e-06	-0.1706	-8.7318e-08	-1.1311e-07	-0.1905	-0.071819	-1.044e-07	-9.559e-08	-0.14987	-0.035706	-0.042398	-0.012818	-8.7783e-08	-0.014811	45.359	180.446	193.979	-108.076	-42.168	-8.638	-85.783	-102.848	-96.734	-58.658	164.399	62.946	-20.004	115.432	110.769	136.549	-8191	255	
22043.295	1	1	0	0	0.030017	0.15081	0.047676	0.25664	0.35332	0.034804	0.29461	0.28094	0.046557	0.22089	0.16825	0.30896	0.10306	0.28618	0.19994	0.20327	-1.7625	-1.7687	-2.3688	-2.1708	-2.0021	-2.5083	-2.2417	-2.3812	-2.2375	-1.9833	-2.3604	-2.0563	-2.1917	-2.5146	-2	-2.2583	-23.269	131.602	181.505	-74.341	7.888	-0.765	230.167	177.081	228.734	-106.333	188.879	-122.585	226.867	-0.308	43.061	64.433	5.1086e-06	3.9104e-05	3.4914e-06	0.024642	3.2636e-07	1.4331e-07	0.01833	0.012584	7.7793e-08	6.8354e-07	0.040983	0.0041944	0.0060837	0.0024159	1.6103e-07	0.00083853	-6.4822e-06	-7.5047e-06	-2.7136e-06	-0.19571	-8.141e-08	-1.0437e-07	-0.1926	-0.074646	-1.0849e-07	-8.6595e-08	-0.13995	-0.034642	-0.040999	-0.013146	-8.5858e-08	-0.015899	5.091	214.577	210.011	91.494	30.281	126.819	-24.168	-111.604	-106.824	-78.403	11.309	174.462	141.314	-103.614	161.011	-80.087	-8191	255	
22043.414	1	1	0	0	0.21912	0.18162	0.1122	0.29699	0.12559	0.231	0.16603	0.30109	0.18254	0.11139	0.047334	0.070275	0.13763	0.18547	0.11247	0.042879	-2.0479	-1.8937	-2.3729	-2.0896	-2	-2.3167	-1.9771	-2.1083	-2.4521	-1.9937	-2.3542	-2.1896	-2.0521	-2.2792	-2.0521	-2.1979	124.462	104.984	65.842	315.682	20.945	279.564	270.492	196.558	18.520	37.655	90.922	-24.943	62.749	44.653	56.516	-19.632	5.6211e-06	5.0541e-05	1.0902e-05	0.053055	8.0509e-08	1.9822e-07	0.024382	0.0070669	3.0692e-07	1.0876e-07	0.042415	0.0029843	0.014566	0.0029359	5.59e-07	0.00059275	-7.4862e-06	-7.5208e-06	-2.6754e-06	-0.19195	-8.6362e-08	-1.0993e-07	-0.19585	-0.073434	-1.1364e-07	-8.6772e-08	-0.13099	-0.036938	-0.042192	-0.012479	-9.9774e-08	-0.014425	150.915	131.610	149.593	53.479	294.121	277.588	113.781	-14.455	12.945	-28.676	171.913	294.582	-29.747	160.267	112.031	19.767	-8191	255	
22043.486	1	1	0	0	0.20971	0.22335	0.3176	0.042626	0.15794	0.20714	0.16999	0.026145	0.21198	0.14132	0.31118	0.086053	0.19604	0.13013	0.10178	0.031731	-2.0104	-2.0187	-2.1604	-2.15	-2.0229	-2.3708	-2.1437	-2.1833	-2.5229	-2.1229	-2.3187	-2.2021	-1.8458	-2.4021	-2.1063	-2.0146	366.325	229.635	382.010	384.960	405.039	378.007	103.707	186.730	380.474	200.140	413.061	91.426	350.614	393.549	398.170	296.766	5.0725e-06	3.636e-05	1.2596e-05	0.0079078	2.3921e-07	3.1489e-07	0.010983	0.0042652	3.8381e-07	3.5261e-07	0.019543	0.0039636	0.0088007	0.0015949	3.3998e-08	0.00055048	-7.348e-06	-7.4324e-06	-2.4422e-06	-0.19349	-8.7231e-08	-1.0243e-07	-0.19222	-0.065626	-1.0762e-07	-8.7124e-08	-0.12603	-0.038302	-0.03927	-0.011914	-9.2422e-08	-0.015026	235.209	328.295	343.518	111.711	433.598	188.081	295.281	98.816	401.789	392.749	323.161	376.314	354.119	314.732	332.762	438.697	-8191	255	
22043.580	1	1	0	0	0.093332	0.094639	0.04995	0.22421	0.13228	0.21782	0.14116	0.17775	0.17334	0.017548	0.095965	0.3696	0.27904	0.26274	0.22355	0.3216	-2.0312	-2.0312	-2.3146	-2.225	-1.9833	-2.2521	-2.2438	-2.0479	-2.45	-2.15	-2.2	-2.3458	-2.0625	-2.4792	-2.325	-1.9771	-7.008	166.147	110.713	-14.356	-8.180	110.305	230.674	123.363	183.581	179.064	-19.723	14.248	282.968	4.949	-56.593	204.381	3.4146e-06	2.3057e-05	6.8162e-06	0.032753	4.8617e-07	5.7658e-07	0.016082	0.011511	5.6103e-08	4.6356e-07	0.022322	0.0047014	0.0038764	0.0018714	1.9118e-07	0.0023803	-6.766e-06	-7.8502e-06	-2.3233e-06	-0.20937	-8.5754e-08	-1.0561e-07	-0.20082	-0.060511	-1.0335e-07	-8.4303e-08	-0.12756	-0.038335	-0.040134	-0.011945	-9.4435e-08	-0.012908	250.112	5.181	-23.699	11.911	259.470	161.537	272.861	-41.436	78.301	77.245	202.734	229.464	212.511	171.076	51.287	-29.607	-8191	255	
22043.678	1	1	0	0	0.11777	0.092395	0.38376	0.19411	0.058795	0.18647	0.05465	0.023732	0.19483	0.24467	0.13736	0.13324	0.16888	0.3093	0.25168	0.11756	-2.1417	-2.1875	-2.0771	-2.2896	-1.9917	-2.2542	-2.2396	-1.9396	-2.4604	-2.0229	-2.1	-2.1937	-1.9896	-2.1625	-2.2625	-1.8896	-77.309	4.005	244.184	-89.699	132.568	234.138	210.809	193.459	-9.088	123.383	23.873	83.578	165.753	-7.676	56.929	-0.657	2.382e-06	6.4528e-05	1.3944e-05	0.021606	1.1192e-07	3.3048e-07	0.058369	0.0081458	1.6212e-07	4.206e-07	0.0063458	0.0087803	0.0021109	0.0021109	2.8083e-07	0.0034626	-7.6754e-06	-8.2922e-06	-2.3615e-06	-0.20032	-7.6805e-08	-1.0004e-07	-0.2077	-0.060376	-9.8822e-08	-9.6913e-08	-0.11423	-0.040365	-0.038776	-0.011544	-9.9161e-08	-0.012564	249.866	133.977	189.283	147.741	99.610	208.671	90.750	-73.390	17.172	56.131	203.445	200.279	131.067	43.452	10.929	198.679	-8191	255	
22043.799	1	1	0	0	0.076324	0.33217	0.20033	0.22131	0.20708	0.13892	0.31401	0.04528	0.15266	0.12081	0.32706	0.028673	0.17148	0.14331	0.24719	0.14301	-2.0333	-2.075	-2.1833	-2.3729	-1.9562	-2.3937	-2.2646	-1.8625	-2.3187	-2.1333	-2.0792	-2.3458	-2.0854	-2.2438	-2.3042	-1.8896	402.008	266.206	344.199	159.066	368.984	214.810	83.807	160.959	207.324	126.535	180.335	164.158	124.333	112.376	204.018	280.219	5.0588e-06	1.3845e-05	9.9631e-06	0.014675	1.4183e-07	1.8123e-07	0.014337	0.017505	5.2385e-07	4.3002e-07	0.041701	0.0015946	0.010443	0.00080109	8.4976e-08	0.0019415	-7.0206e-06	-8.1395e-06	-1.9937e-06	-0.19656	-8.3408e-08	-9.6512e-08	-0.21611	-0.060713	-9.9432e-08	-9.1357e-08	-0.10821	-0.038934	-0.041369	-0.010384	-1.0301e-07	-0.012607	328.388	151.155	420.460	76.791	283.072	334.151	326.274	83.271	329.401	242.202	316.288	406.652	69.439	379.323	163.496	258.219	-8191	255	
22043.895	1	1	0	0	0.24796	0.044139	0.091427	0.20887	0.17963	0.30074	0.13095	0.10701	0.20006	0.055174	0.129	0.24487	0.2051	0.076468	0.090963	0.22044	-1.825	-2.0396	-1.8417	-2.4146	-1.9937	-2.1521	-2.2646	-2.0062	-2.2604	-2.2125	-1.8937	-2.2646	-2.0292	-2.2271	-2.1646	-1.8875	160.142	301.424	101.162	344.522	275.572	348.686	50.044	234.714	76.455	296.682	278.518	155.315	86.833	207.013	-0.411	258.524	1.3293e-06	3.503e-05	5.0956e-06	0.018841	1.3229e-07	3.361e-07	0.022673	0.0096277	1.7494e-07	3.1435e-07	0.02653	0.0024067	0.0076605	0.0014912	1.9805e-07	0.00089515	-6.8533e-06	-8.6859e-06	-1.8053e-06	-0.1858	-8.0801e-08	-9.0949e-08	-0.21381	-0.059703	-9.3942e-08	-9.462e-08	-0.10361	-0.03747	-0.038158	-0.010373	-1.0476e-07	-0.013309	2.890	50.521	154.178	78.866	198.514	284.536	329.472	9.910	192.395	9.639	64.420	292.919	27.047	155.026	212.173	296.739	-8191	255	
22043.990	1	1	0	0	0.15876	0.20724	0.20478	0.27931	0.14731	0.19015	0.20643	0.27447	0.040095	0.094766	0.060998	0.23415	0.19008	0.15615	0.26592	0.058393	-1.6437	-2.1437	-2.1833	-2.2375	-2.025	-2.1437	-2.3354	-1.7938	-2.3083	-2.2313	-1.8813	-2.3187	-2.1521	-2.1104	-2.5354	-2.1125	143.794	97.846	66.579	247.018	340.733	329.281	293.873	219.114	267.948	10.129	158.925	27.671	121.544	300.704	223.121	135.112	4.4175e-06	1.3043e-05	4.687e-06	0.037164	3.7256e-07	3.0348e-07	0.026794	0.0059987	2.982e-07	1.4486e-07	0.015062	0.0030562	0.0070198	0.0020056	5.9179e-07	0.001904	-5.8638e-06	-8.4288e-06	-1.8098e-06	-0.20168	-9.0359e-08	-8.7859e-08	-0.23025	-0.061184	-1.0074e-07	-1.037e-07	-0.099007	-0.038136	-0.040546	-0.0093052	-1.0914e-07	-0.014282	8.674	253.287	299.650	63.204	336.339	248.935	179.576	9.471	345.090	18.449	6.802	169.087	233.414	233.068	225.028	306.828	-8191	255	
22044.062	1	1	0	0	0.1423	0.098565	0.11602	0.12192	0.1106	0.37431	0.19798	0.19676	0.13788	0.14933	0.17277	0.12793	0.22425	0.055173	0.14208	0.20246	-1.8833	-2.3042	-1.8896	-2.2208	-2.2396	-2.0729	-2.3688	-1.9542	-2.1937	-2.375	-2.0333	-2.3229	-2.1937	-2.3042	-2.2833	-2.0542	151.465	38.430	146.554	14.751	183.238	300.050	155.614	156.538	115.724	17.183	329.627	163.040	316.021	148.680	211.484	50.189	3.7836e-06	1.5399e-05	3.6911e-06	0.024362	4.984e-08	5.9154e-07	0.034752	0.011288	1.5765e-07	2.8375e-07	0.0023082	0.0018223	0.0042288	0.0020333	3.1894e-07	0.0010285	-5.6965e-06	-8.9671e-06	-1.9264e-06	-0.194	-8.9924e-08	-8.1413e-08	-0.22146	-0.062799	-9.1937e-08	-9.1093e-08	-0.11045	-0.0397	-0.044045	-0.0096852	-9.8461e-08	-0.012579	58.649	24.919	106.107	18.631	42.717	326.989	198.899	32.324	302.624	37.025	51.856	24.687	20.524	137.615	49.702	231.552	-8191	255	
22044.184	1	1	0	0	0.14462	0.085525	0.10718	0.24857	0.052965	0.25978	0.015661	0.26501	0.16229	0.076163	0.1872	0.20253	0.12062	0.1551	0.084497	0.20401	-1.8146	-2.2917	-1.8583	-2.3937	-2.2125	-2.15	-2.2104	-2.0875	-2.1312	-2.4938	-2.0604	-2.4	-2.1375	-2.0792	-2.3271	-1.9583	289.499	380.266	352.708	169.387	131.666	389.129	229.473	344.428	120.253	161.788	79.687	281.093	220.428	360.353	75.128	222.785	1.7909e-06	5.831e-06	1.426e-05	0.035889	1.6656e-07	3.3399e-07	0.023493	0.0087349	1.3998e-07	2.7848e-07	0.031734	0.0042842	0.0051524	0.00025492	3.1294e-07	0.002622	-6.0967e-06	-8.9269e-06	-2.034e-06	-0.19519	-9.9481e-08	-8.9713e-08	-0.21763	-0.067713	-8.6534e-08	-1.0159e-07	-0.12048	-0.034409	-0.044333	-0.0095311	-9.7236e-08	-0.014196	379.209	33.278	166.231	307.486	350.530	258.476	111.491	50.228	201.947	255.438	338.351	68.071	167.676	355.780	104.628	178.419	-8191	255	
22044.279	1	1	0	0	0.22137	0.15934	0.029977	0.27217	0.15518	0.41217	0.055672	0.32663	0.074938	0.17038	0.27623	0.2325	0.11856	0.16597	0.18285	0.071474	-1.7521	-2.2562	-1.8167	-2.1688	-2.1979	-2.1896	-2.3063	-2.1312	-2.1688	-2.4229	-1.9792	-2.3229	-2.2667	-2.2146	-2.4188	-2.1437	29.771	282.444	62.818	36.937	90.930	0.749	134.783	286.932	112.818	-6.901	253.449	274.971	27.873	-16.113	89.225	146.051	5.5662e-06	7.5073e-05	1.1695e-05	0.049673	2.0016e-07	4.8891e-07	0.019611	0.0088682	1.0701e-07	1.9643e-07	0.0070711	0.009404	0.0067654	0.00105	1.2021e-07	0.0038515	-5.9948e-06	-9.6662e-06	-2.1081e-06	-0.17948	-9.1401e-08	-8.0971e-08	-0.21974	-0.06603	-8.514e-08	-9.8765e-08	-0.12013	-0.034708	-0.047914	-0.0085246	-9.5835e-08	-0.014453	-13.908	54.775	208.813	-37.220	267.792	40.062	57.443	-23.682	2.280	251.984	195.432	12.923	212.049	84.849	132.021	213.557	-8191	255	
22044.375	1	1	0	0	0.1185	0.11766	0.2443	0.30081	0.42517	0.068835	0.20826	0.064461	0.16886	0.15712	0.24597	0.080901	0.16232	0.12046	0.10737	0.34386	-1.7563	-2.3812	-2.0312	-2.1125	-2.1708	-1.9667	-2.2396	-2.1688	-2.1375	-2.3583	-1.9958	-2.2104	-2.3042	-1.9062	-2.2333	-2.1396	129.562	205.558	157.308	44.796	137.027	3.203	64.797	-39.871	-118.066	171.422	125.062	-97.599	-40.491	-113.808	17.664	201.159	1.7502e-06	7.1062e-05	7.3836e-06	0.016099	5.1038e-07	3.6156e-07	0.034765	0.023436	3.3085e-07	3.2767e-07	0.015809	0.01023	0.0021441	0.001038	2.4689e-07	0.0026742	-4.6343e-06	-9.4974e-06	-2.2538e-06	-0.1706	-9.9394e-08	-8.2649e-08	-0.20025	-0.067511	-7.66e-08	-1.0194e-07	-0.12308	-0.035507	-0.04635	-0.009223	-9.7061e-08	-0.013666	76.780	89.887	-4.626	-61.631	-55.703	-110.222	-77.405	-104.247	194.056	-112.568	177.834	162.521	-30.922	-106.511	50.165	123.402	-8191	255	
22044.494	1	1	0	0	0.10262	0.20572	0.011848	0.2078	0.11565	0.18755	0.21384	0.30548	0.10275	0.22462	0.19523	0.071754	0.13842	0.10948	0.098153	0.17392	-1.4937	-2.2521	-2.0104	-2.1729	-2.3417	-1.9708	-2.2917	-2.1063	-1.9521	-2.3625	-2.1979	-2.1896	-2.2833	-1.8937	-2.1562	-2.1625	138.979	198.783	143.608	276.858	284.284	306.992	97.403	112.677	138.858	164.200	228.984	345.908	313.344	98.750	351.734	211.190	2.1931e-06	2.3045e-05	2.7752e-06	0.064285	4.7667e-07	1.5513e-07	0.0042661	0.011174	8.0535e-08	1.2011e-07	0.0032426	0.001838	0.0097076	0.0013196	4.454e-07	0.0018982	-4.8744e-06	-8.7662e-06	-2.2785e-06	-0.16685	-1.0061e-07	-7.7086e-08	-0.19681	-0.074107	-7.233e-08	-1.0203e-07	-0.11753	-0.029617	-0.047585	-0.0093565	-9.2947e-08	-0.015741	223.854	339.546	133.345	54.438	163.228	40.045	108.225	21.432	26.731	84.568	221.586	108.203	196.266	159.001	154.415	146.730	-8191	255	
22044.590	1	1	0	0	0.1993	0.36647	0.020304	0.051974	0.056136	0.11976	0.21814	0.15526	0.25804	0.15872	0.068021	0.21629	0.092967	0.12628	0.26188	0.077615	-1.6104	-2.275	-1.9	-2.0104	-2.2208	-2.0771	-2.1188	-2.3792	-1.9688	-2.4208	-2.2479	-2.1146	-2.4437	-2.1771	-2.1479	-2.2667	345.433	50.749	90.461	189.681	117.053	163.576	124.469	65.623	14.077	-12.733	40.893	191.384	125.224	280.085	82.372	339.196	3.7239e-06	8.3672e-06	1.0968e-05	0.046067	3.262e-07	4.468e-07	0.013476	0.0060338	3.5647e-07	1.1986e-07	0.013989	0.0022653	0.0039561	0.0024335	1.5508e-07	0.0055562	-4.8744e-06	-9.0234e-06	-2.3166e-06	-0.14789	-1.0322e-07	-8.5033e-08	-0.2163	-0.067847	-6.9018e-08	-1.037e-07	-0.11635	-0.029816	-0.04812	-0.0096647	-9.7761e-08	-0.016385	71.819	157.969	322.333	170.842	238.012	327.276	115.152	4.858	97.619	343.957	142.466	85.080	61.475	267.047	133.306	202.302	-8191	255	
22044.686	1	1	0	0	0.16923	0.0064015	0.22031	0.10027	0.092321	0.29461	0.238	0.1152	0.11821	0.24435	0.15287	0.030284	0.20188	0.26094	0.34144	0.26408	-1.5458	-2.3083	-1.9875	-1.8479	-2.4292	-2.0938	-2.3146	-2.3937	-1.9354	-2.1542	-2.1813	-1.7313	-2.0938	-1.9646	-2.1521	-2.175	102.126	64.724	30.353	256.065	295.719	283.359	262.849	188.582	34.413	36.624	13.714	311.882	33.296	339.622	234.448	68.260	3.9371e-06	8.5976e-05	7.2996e-06	0.031445	2.7202e-07	2.4718e-07	0.024377	0.006393	4.3558e-07	2.8027e-07	0.010061	0.00034692	0.0024143	0.0010028	1.987e-07	0.001898	-4.8453e-06	-9.1439e-06	-2.0363e-06	-0.14601	-1.0183e-07	-8.5828e-08	-0.18764	-0.074174	-7.0761e-08	-9.8853e-08	-0.12579	-0.033377	-0.044251	-0.0094901	-7.8944e-08	-0.016271	101.563	300.822	155.951	77.721	176.120	280.939	57.711	29.642	122.997	326.935	298.361	143.554	364.388	176.546	95.444	131.610	-8191	255	
22044.781	1	1	0	0	0.22264	0.12787	0.18926	0.21334	0.1933	0.042471	0.18716	0.19716	0.1264	0.15667	0.052525	0.15549	0.239	0.064503	0.27682	0.17887	-1.4479	-2.3271	-2.0833	-1.9583	-2.275	-2.1667	-2.1167	-2.375	-2.1042	-2.2667	-2.2333	-2.0062	-2.3583	-2.0646	-2.0812	-2.375	197.275	373.437	405.226	269.731	360.785	334.349	266.072	308.234	238.464	96.240	118.987	165.201	223.786	142.015	389.051	126.552	1.3664e-06	6.9603e-05	8.4702e-06	0.02213	5.4415e-07	1.1159e-07	0.034832	0.0032012	2.4242e-07	9.3942e-08	0.036708	0.0052159	0.0046281	0.00059156	1.5063e-07	0.0013949	-5.1581e-06	-8.7341e-06	-2.2157e-06	-0.15489	-9.8004e-08	-8.4945e-08	-0.17789	-0.073972	-7.6861e-08	-9.4973e-08	-0.13252	-0.028419	-0.046432	-0.010394	-8.3933e-08	-0.0167	111.372	133.487	89.031	376.744	260.915	421.986	240.351	86.928	332.361	428.770	259.517	355.269	197.514	184.538	287.958	350.536	-8191	255	
22044.879	1	1	0	0	0.18748	0.14934	0.14702	0.17814	0.2115	0.30769	0.21166	0.16632	0.064976	0.089872	0.28403	0.19125	0.23435	0.304	0.16814	0.081428	-1.6313	-2.3104	-2.0979	-1.9167	-2.4688	-2.2938	-2.1688	-2.3083	-1.9062	-2.4042	-2.2458	-1.9583	-2.4229	-2.3708	-1.9062	-2.3479	38.152	75.209	321.700	229.559	71.584	256.924	78.333	146.659	306.835	168.706	-0.136	63.991	81.515	253.215	-17.764	105.088	6.9905e-07	1.8e-05	5.2455e-06	0.0091084	4.3929e-07	1.9084e-07	0.031259	0.0047445	2.9531e-07	4.7186e-08	0.0074369	0.0092301	0.0031668	0.00067836	2.9205e-07	0.0015418	-5.7183e-06	-8.26e-06	-2.4041e-06	-0.14311	-1.0417e-07	-9.5806e-08	-0.18152	-0.076597	-8.1567e-08	-9.1798e-08	-0.13382	-0.026322	-0.044127	-0.010147	-8.5683e-08	-0.017144	-25.325	138.413	260.136	312.514	283.204	-12.819	241.558	-12.636	-22.522	282.785	304.685	268.733	164.042	226.039	-29.049	-28.772	-8191	255	
22044.975	1	1	0	0	0.13185	0.26784	0.28339	0.2522	0.22778	0.39194	0.28041	0.239	0.19441	0.083632	0.069156	0.30851	0.26524	0.14033	0.082908	0.11939	-1.5583	-2.3146	-2.2854	-1.8021	-2.2042	-2.3583	-1.9312	-2.2229	-1.9917	-2.2375	-2.175	-1.7979	-2.1312	-2.3521	-2.0979	-2.3229	16.054	179.242	-115.640	87.312	-4.140	42.199	-84.869	-54.175	-68.766	-96.884	-28.552	175.302	134.165	122.349	-20.998	79.246	4.6683e-06	2.4786e-05	1.4639e-05	0.0035301	2.1988e-07	2.9657e-07	0.02217	0.032782	2.5835e-07	4.0488e-08	0.020443	0.0054825	0.0056482	0.0014142	2.8402e-07	0.0021825	-5.1218e-06	-8.2841e-06	-2.4512e-06	-0.14857	-9.7831e-08	-9.2186e-08	-0.17636	-0.072828	-8.2787e-08	-9.0564e-08	-0.13016	-0.030648	-0.039681	-0.011236	-8.2007e-08	-0.015469	129.152	112.845	169.628	-65.783	185.438	-15.851	25.060	-149.167	56.643	-56.395	-38.907	182.785	-112.225	121.052	-73.392	-43.416	-8191	255	
22045.096	1	1	0	0	0.29823	0.085816	0.1854	0.20145	0.11598	0.027038	0.19616	0.10198	0.14879	0.20544	0.18411	0.024707	0.038175	0.17584	0.21866	0.036752	-1.7792	-2.1063	-2.2729	-2.0896	-2.3375	-2.3354	-1.9125	-2.4458	-2.3333	-2.0458	-2.5417	-2.0958	-2.2083	-2.2604	-1.7646	-2.325	238.658	514.582	452.119	351.015	496.395	266.844	478.637	276.792	531.003	373.210	198.373	420.938	278.420	487.978	196.246	268.816	4.3141e-06	3.072e-05	4.1758e-06	0.023325	2.8057e-07	5.8304e-07	0.042714	0.012429	1.0267e-07	1.8845e-07	0.018651	0.0040064	0.00022488	0.0017674	2.8187e-07	0.0024003	-5.3837e-06	-7.3601e-06	-2.3772e-06	-0.15182	-8.9924e-08	-8.7947e-08	-0.17159	-0.076463	-9.1415e-08	-7.7601e-08	-0.14479	-0.031214	-0.042686	-0.011863	-7.1592e-08	-0.016156	185.089	372.965	509.579	380.929	363.582	272.335	380.618	194.006	506.115	243.310	519.940	384.591	274.965	477.206	451.186	295.413	-8191	255	
22045.191	1	1	0	0	0.1192	0.15028	0.23092	0.13505	0.041779	0.12108	0.114	0.22851	0.063151	0.21605	0.067814	0.027946	0.14403	0.15486	0.1628	0.12522	-1.6771	-2.0375	-2.2521	-2.0458	-2.2021	-2.3292	-2.0083	-2.3896	-2.1229	-2.0125	-2.2729	-2.2396	-2.3146	-2.225	-1.9667	-2.0375	174.752	19.481	146.277	298.471	162.863	17.504	172.411	91.560	162.809	234.800	85.116	265.718	242.308	222.802	119.579	198.028	6.3604e-06	3.9695e-05	1.0043e-05	0.024787	4.1469e-07	3.439e-07	0.036884	0.012359	2.3342e-07	3.1151e-07	0.035082	0.00457	0.0042424	0.0027943	2.4537e-07	0.00098695	-5.8493e-06	-6.4762e-06	-2.4848e-06	-0.14806	-9.227e-08	-9.6071e-08	-0.16987	-0.074107	-8.88e-08	-8.2715e-08	-0.14054	-0.029251	-0.041657	-0.011616	-7.8156e-08	-0.015341	291.911	131.577	254.546	325.533	340.079	314.954	11.865	0.159	107.235	257.724	284.191	-8.005	305.877	84.238	84.795	326.025	-8191	255	
22045.287	1	1	0	0	0.13979	0.048978	0.26719	0.36971	0.061757	0.18352	0.069266	0.034336	0.054854	0.1597	0.18553	0.21201	0.41398	0.2298	0.35836	0.25257	-1.7708	-1.9813	-2.3292	-2.0333	-2.1042	-2.2896	-1.9167	-2.3042	-2.3146	-1.9146	-2.3104	-2.1083	-1.9625	-2.3771	-2.0417	-2.0979	128.299	215.457	159.594	421.407	451.711	446.612	255.406	283.349	410.729	361.095	427.417	329.747	160.413	409.565	451.036	301.371	1.7913e-06	5.6805e-05	3.6093e-06	0.011854	1.5503e-07	5.2496e-07	0.029025	0.014865	2.3529e-07	4.1194e-07	0.025471	0.0098512	0.0049831	0.0028392	1.8449e-07	0.0026309	-6.0457e-06	-7.9145e-06	-2.3929e-06	-0.1706	-7.3329e-08	-1.0393e-07	-0.18343	-0.074847	-9.8038e-08	-7.9541e-08	-0.13087	-0.029484	-0.034701	-0.012273	-8.0257e-08	-0.012879	118.529	314.843	213.878	178.883	274.175	409.510	432.437	119.634	137.402	119.296	140.713	198.740	176.707	128.681	149.708	140.009	-8191	255	
22045.359	1	1	0	0	0.047678	0.173	0.10688	0.18698	0.20312	0.20596	0.16645	0.39813	0.12291	0.15168	0.18898	0.14397	0.053602	0.15636	0.23797	0.14858	-1.7083	-1.975	-2.3833	-2.0479	-2.0062	-2.2854	-1.9312	-2.125	-2.3563	-1.8167	-2.3187	-2.0667	-1.8125	-2.3958	-2.2104	-2.1458	442.262	263.723	412.214	146.077	429.296	165.445	414.058	485.222	444.271	331.237	343.539	291.542	218.843	139.917	357.715	148.510	1.102e-05	2.1103e-05	2.9044e-06	0.01501	2.2148e-07	3.9738e-07	0.0078931	0.018218	8.8477e-08	8.6822e-08	0.032113	0.0047218	0.0066251	0.0017442	2.3852e-07	0.0042371	-6.2567e-06	-6.8619e-06	-2.496e-06	-0.1566	-7.6284e-08	-9.9073e-08	-0.17694	-0.066501	-8.8626e-08	-7.3015e-08	-0.13087	-0.032179	-0.038488	-0.011513	-7.9819e-08	-0.014668	432.406	357.626	362.933	334.050	319.038	480.005	288.920	151.737	167.320	481.301	222.313	180.631	162.736	372.207	288.092	363.743	-8191	255	
22045.479	1	1	0	0	0.086197	0.14711	0.24174	0.21664	0.21376	0.10401	0.22746	0.2355	0.044576	0.14429	0.16827	0.24536	0.2423	0.11227	0.15437	0.25401	-1.9458	-1.9917	-2.3917	-2.2667	-2.1271	-2.3604	-2.0187	-2.1125	-2.4958	-1.7333	-2.0708	-2.2271	-1.8958	-2.3604	-1.9813	-2.0146	152.364	339.948	339.929	375.510	373.370	357.060	376.299	441.974	175.656	169.744	267.016	427.385	226.919	380.940	392.340	365.491	4.2064e-06	4.1749e-05	6.9412e-06	0.031102	2.3451e-07	3.2671e-07	0.029418	0.014209	2.9565e-07	1.9287e-07	0.026283	0.0056499	0.005929	0.0018287	3.8557e-07	0.0029702	-6.8169e-06	-6.9985e-06	-2.3615e-06	-0.17692	-7.8021e-08	-1.0764e-07	-0.16929	-0.073434	-9.7689e-08	-8.0246e-08	-0.12402	-0.034575	-0.037623	-0.011667	-8.9884e-08	-0.012979	158.560	300.807	244.551	225.955	169.707	335.669	123.009	104.353	380.694	276.491	129.312	162.921	373.255	403.921	392.723	342.292	-8191	255	
22045.574	1	1	0	0	0.20359	0.14265	0.074632	0.098366	0.14889	0.24781	0.14409	0.096083	0.21567	0.20759	0.19976	0.081382	0.062469	0.1599	0.15605	0.11047	-1.9333	-2.0771	-2.1167	-2.2417	-1.8667	-2.4437	-2.125	-2.0771	-2.3	-1.8271	-2.0458	-2.2229	-1.9521	-2.3417	-2.0917	-1.9583	-94.709	42.339	109.848	138.998	51.413	113.376	51.592	37.007	162.993	44.739	163.352	88.150	-69.727	152.103	124.332	122.770	1.0504e-06	1.9099e-05	9.9689e-06	0.061934	2.0236e-07	6.4832e-08	0.027275	0.011042	2.8033e-07	1.8024e-07	0.03456	0.0031351	0.0067551	0.0029695	1.5461e-07	0.0040066	-6.555e-06	-6.5164e-06	-2.191e-06	-0.18221	-7.5849e-08	-9.925e-08	-0.18668	-0.065088	-9.3855e-08	-8.0511e-08	-0.11234	-0.033876	-0.036306	-0.010887	-8.2707e-08	-0.012378	-19.829	51.694	47.864	106.903	125.584	-105.397	189.585	-92.106	46.158	180.501	42.009	234.164	-64.701	90.231	217.446	163.276	-8191	255	
22045.670	1	1	0	0	0.14451	0.20234	0.21848	0.17678	0.11315	0.042624	0.13462	0.084548	0.2862	0.20001	0.11546	0.14327	0.154	0.24332	0.062222	0.11616	-1.9542	-1.8417	-2.175	-2.2417	-1.9292	-2.4271	-2.1104	-1.7833	-2.2938	-2.0208	-2.0354	-2.2542	-2.1688	-2.2125	-2.0958	-1.7625	479.340	374.109	466.137	259.231	401.325	476.214	255.563	294.896	346.385	340.582	481.889	436.863	491.346	348.810	409.598	357.931	1.5962e-06	4.4758e-05	7.9951e-06	0.02984	1.8472e-07	4.9229e-07	0.01635	0.0068706	4.0138e-07	2.2408e-07	0.024125	0.0051542	0.004879	0.00094711	1.0388e-07	0.0029263	-6.1185e-06	-6.9905e-06	-2.2919e-06	-0.18768	-7.2548e-08	-1.0729e-07	-0.20617	-0.053847	-1.0161e-07	-8.7301e-08	-0.1114	-0.035973	-0.034289	-0.010425	-8.6471e-08	-0.011176	431.428	208.868	445.155	370.130	232.816	323.740	505.821	183.553	349.396	292.917	187.799	277.846	251.298	462.096	331.650	486.305	-8191	255	
22045.766	1	1	0	0	0.075955	0.13468	0.20446	0.14241	0.12331	0.22494	0.26292	0.030682	0.12455	0.21552	0.22287	0.20915	0.18429	0.26189	0.044594	0.076606	-1.9021	-1.8625	-2.0542	-2.3458	-1.9604	-2.4333	-2.0917	-1.9083	-2.4646	-2.1562	-2.0083	-2.2979	-1.8687	-2.1813	-2.2021	-1.9875	485.796	440.886	483.760	409.829	334.031	497.523	505.860	278.636	264.554	292.172	424.563	186.959	364.097	408.554	397.747	246.771	4.3296e-06	3.7375e-05	2.0958e-06	0.022179	1.7323e-07	9.6687e-08	0.027016	0.008057	6.742e-08	2.4219e-07	0.0092587	0.0094359	0.0065862	0.0012499	2.2513e-07	0.0034187	-6.4022e-06	-7.7619e-06	-2.2359e-06	-0.18136	-8.1236e-08	-9.3245e-08	-0.2012	-0.052434	-9.7689e-08	-8.3421e-08	-0.11317	-0.037104	-0.034083	-0.010199	-8.6383e-08	-0.010318	477.769	300.398	263.227	331.931	346.995	505.261	369.831	178.007	332.460	400.363	512.503	308.413	290.196	210.568	496.601	322.479	-8191	255	
22045.887	1	1	0	0	0.2542	0.2968	0.29143	0.1717	0.11535	0.16537	0.16996	0.21965	0.033382	0.21718	0.21233	0.13864	0.13525	0.24492	0.24349	0.070096	-1.8542	-2.0229	-1.9854	-2.3458	-1.8729	-2.3396	-2.2771	-1.9229	-2.1479	-2.2208	-2.0625	-2.3625	-1.7708	-2.3292	-2.2208	-1.925	75.504	208.306	66.809	61.363	235.568	3.851	181.778	122.725	112.622	119.978	-17.696	138.035	245.856	218.833	273.706	274.743	2.2623e-06	1.2301e-05	4.8612e-06	0.016931	1.7357e-07	4.1278e-07	0.043999	0.0076952	3.1796e-07	8.6815e-08	0.020724	0.0039906	0.0056848	0.00072409	4.0776e-07	0.0014229	-6.5259e-06	-7.3601e-06	-2.1798e-06	-0.19109	-7.1505e-08	-8.883e-08	-0.20521	-0.061184	-9.9258e-08	-8.4743e-08	-0.10385	-0.037969	-0.036759	-0.0091922	-9.6273e-08	-0.011992	27.873	255.128	-10.900	91.805	71.394	310.516	146.961	-28.691	300.001	63.333	269.708	234.363	136.645	269.050	285.248	50.398	-8191	255	
22045.959	1	1	0	0	0.11222	0.10854	0.18193	0.092699	0.15653	0.23377	0.156	0.16841	0.18882	0.13198	0.23171	0.10259	0.10531	0.12835	0.20145	0.058185	-1.8521	-2.0271	-2.025	-2.35	-1.9958	-2.3042	-2.2417	-1.8146	-2.2479	-2.1625	-1.9188	-2.3417	-1.9917	-2.0563	-2.3833	-2.1813	26.737	227.044	73.362	161.499	203.094	-36.622	202.407	-57.749	78.937	107.070	82.725	-58.866	255.460	-66.527	141.357	112.167	8.2592e-06	1.3449e-05	1.5464e-05	0.023845	1.7219e-07	3.0785e-07	0.0085377	0.020113	3.149e-07	2.3213e-07	0.0085965	0.0073359	0.0048116	0.0014755	4.602e-07	0.0026611	-6.1549e-06	-8.2038e-06	-1.8972e-06	-0.18853	-8.0715e-08	-8.5828e-08	-0.19356	-0.056001	-9.0892e-08	-8.5978e-08	-0.1055	-0.036838	-0.040093	-0.0093565	-9.7498e-08	-0.013065	-12.128	209.643	59.715	50.231	-18.394	15.545	-17.911	-85.414	117.073	-42.699	34.998	85.391	-22.034	17.292	25.225	82.170	-8191	255	
22046.055	1	1	0	0	0.057062	0.030813	0.091219	0.1535	0.18784	0.24459	0.045262	0.22373	0.13061	0.1592	0.12795	0.028276	0.19358	0.28462	0.23973	0.040206	-1.7708	-2.0271	-1.7479	-2.3979	-1.9625	-2.1146	-2.5312	-1.7417	-2.2583	-2.1958	-1.9396	-2.3292	-2.1917	-1.8896	-2.3854	-1.9958	279.145	188.081	95.438	413.532	301.452	271.988	144.580	376.622	83.701	84.238	102.677	70.748	395.874	193.989	417.381	298.197	4.4923e-06	3.1606e-05	1.5419e-06	0.02281	2.379e-07	2.6285e-07	0.037679	0.019803	1.6207e-07	2.1354e-07	0.021563	0.0033475	0.0041698	0.0013226	2.9874e-07	0.0032528	-5.6456e-06	-8.3002e-06	-2.0004e-06	-0.18802	-8.4537e-08	-7.9647e-08	-0.22088	-0.060039	-9.2547e-08	-9.6207e-08	-0.093815	-0.036405	-0.038652	-0.0092333	-1.0135e-07	-0.012407	313.583	324.896	421.559	164.795	155.485	103.189	157.511	80.631	290.984	201.146	298.251	419.448	67.026	106.997	313.630	319.978	-8191	255	
22046.176	1	1	0	0	0.10114	0.14721	0.38071	0.30563	0.026052	0.024467	0.28979	0.084004	0.28162	0.19217	0.23165	0.1033	0.084514	0.15736	0.39739	0.15299	-1.7458	-1.9958	-2.0271	-2.1896	-2.2167	-2.1333	-2.5208	-1.8604	-2.1	-2.2771	-1.7417	-2.1667	-1.9	-2.1542	-2.4375	-1.9229	212.589	218.887	8.072	82.202	105.737	-35.946	93.660	204.147	271.676	41.604	-8.717	173.181	-4.691	158.088	148.495	254.427	2.8474e-06	2.4067e-05	9.5827e-06	0.019271	4.0321e-07	2.9618e-07	0.016123	0.017076	3.6671e-07	2.7602e-07	0.03696	0.0079595	0.0038112	0.00364	4.8951e-07	0.0054823	-5.3473e-06	-8.5252e-06	-1.8793e-06	-0.18751	-8.7057e-08	-7.8587e-08	-0.22757	-0.061386	-8.88e-08	-9.7354e-08	-0.093461	-0.037637	-0.039887	-0.0085143	-9.7586e-08	-0.015054	-31.080	44.907	251.221	58.515	212.455	270.601	-39.183	-57.009	-74.584	117.692	213.694	163.593	97.921	257.362	86.836	110.685	-8191	255	
22046.271	1	1	0	0	0.16523	0.16142	0.13177	0.18052	0.20953	0.051316	0.32107	0.14073	0.13869	0.058868	0.20101	0.024559	0.066738	0.14758	0.084225	0.38808	-1.6458	-2.2708	-1.9646	-2.3646	-2.0375	-2.0792	-2.2375	-1.9167	-2.0312	-2.3937	-1.8229	-2.175	-2.1688	-2.1021	-2.2042	-1.9354	396.396	276.532	256.604	99.697	310.291	64.836	307.782	59.365	231.199	334.309	163.391	348.871	170.231	215.054	247.453	70.274	3.943e-06	2.9151e-05	6.7273e-06	0.010222	3.7596e-07	4.4972e-07	0.021223	0.0054684	4.4649e-08	8.0199e-08	0.027622	0.0063271	0.0032328	0.0014121	9.5569e-08	0.002965	-5.0272e-06	-7.9708e-06	-1.7582e-06	-0.1747	-8.306e-08	-7.6998e-08	-0.19872	-0.05728	-7.5903e-08	-9.559e-08	-0.099007	-0.03361	-0.040011	-0.0086376	-9.5485e-08	-0.014697	212.996	206.617	110.405	380.410	102.702	232.995	119.955	69.816	137.176	123.005	95.614	254.463	379.318	87.614	114.718	229.591	-8191	255	
22046.367	1	1	0	0	0.09092	0.2238	0.097295	0.16606	0.19326	0.10888	0.16935	0.25106	0.18669	0.18119	0.11596	0.074957	0.29171	0.27513	0.34699	0.085989	-1.3708	-2.3021	-1.925	-2.1333	-2.4104	-1.8771	-2.2938	-2.075	-2.0583	-2.2646	-1.9375	-2.1542	-2.2542	-1.8687	-2.2646	-2.1792	58.757	202.967	204.851	-82.087	-52.238	8.847	-52.655	97.375	188.535	-74.251	250.653	172.038	170.257	66.766	130.684	53.897	1.4818e-06	4.5371e-05	1.8482e-05	0.030013	1.3528e-07	4.0236e-07	0.020538	0.011785	7.7639e-07	8.7268e-08	0.014654	0.0074279	0.0044952	0.0020535	1.766e-07	0.0050047	-4.7507e-06	-9.3287e-06	-1.8591e-06	-0.17709	-9.1575e-08	-7.223e-08	-0.19929	-0.061588	-7.6339e-08	-9.2151e-08	-0.092516	-0.033677	-0.043304	-0.0087711	-8.7871e-08	-0.013995	253.515	29.001	-66.055	-73.891	152.606	250.524	245.631	-67.110	183.627	3.549	32.922	-26.188	259.992	220.509	87.924	96.348	-8191	255	
22046.465	1	1	0	0	0.18778	0.22925	0.33875	0.18027	0.17872	0.24388	0.035315	0.094224	0.12956	0.27222	0.14947	0.20452	0.1479	0.18094	0.11383	0.14665	-1.3937	-2.075	-1.9438	-2.1063	-2.1937	-1.8208	-2.0875	-1.9896	-2.1688	-2.425	-1.9646	-2.1188	-2.35	-1.7042	-2.1312	-2.1458	184.670	291.969	309.808	165.209	318.790	234.186	404.610	297.904	300.477	172.772	432.613	222.090	240.280	238.830	195.777	146.317	6.2454e-06	2.4317e-05	5.0483e-06	0.018222	1.2856e-07	7.2005e-08	0.057693	0.012801	1.9065e-07	2.1635e-07	0.027649	0.0016901	0.0044764	0.00012292	4.274e-07	0.0024295	-4.9181e-06	-9.3448e-06	-2.1238e-06	-0.16838	-9.5485e-08	-7.2936e-08	-0.20751	-0.066232	-7.9999e-08	-9.7971e-08	-0.10621	-0.031647	-0.046062	-0.0085452	-8.5595e-08	-0.01401	462.440	306.424	373.285	453.332	452.211	446.677	477.485	156.221	305.494	362.179	405.468	441.342	146.783	409.130	285.454	288.782	-8191	255	
22046.582	1	1	0	0	0.038621	0.14493	0.12991	0.11573	0.21384	0.23441	0.033826	0.14297	0.2273	0.11309	0.11446	0.26869	0.11289	0.13224	0.19536	0.046404	-1.5	-2.1937	-2.0104	-2.0438	-2.3375	-1.8896	-2.3958	-2.1458	-1.9813	-2.2604	-2.0563	-2.1042	-2.2583	-1.9958	-2.1146	-2.1917	-53.977	32.824	-54.120	-118.955	123.536	136.021	84.108	140.426	-135.574	-125.130	-138.511	-105.211	-125.437	-63.445	-97.569	-119.833	1.6128e-06	1.6136e-05	1.2428e-05	0.0078617	3.8487e-07	2.0214e-07	0.040274	0.0094648	4.304e-07	6.719e-08	0.022423	0.011241	0.0076544	0.0024425	2.2469e-07	0.0024624	-4.1905e-06	-9.2966e-06	-2.0946e-06	-0.15438	-1.0209e-07	-7.8676e-08	-0.20483	-0.070069	-7.233e-08	-9.5678e-08	-0.10491	-0.031347	-0.046144	-0.0081754	-8.6296e-08	-0.015799	-90.334	26.638	-138.493	-104.732	-28.077	145.825	118.532	-151.042	130.755	117.458	59.791	114.711	-12.018	176.040	128.532	-166.541	-8191	255	
22046.654	1	1	0	0	0.26573	0.15703	0.26403	0.19076	0.12929	0.13079	0.14351	0.13244	0.077548	0.1737	0.10998	0.21142	0.20038	0.10474	0.30657	0.22182	-1.6021	-2.325	-2.0354	-2.1292	-2.2708	-1.9354	-2.05	-2.1063	-1.7583	-2.2958	-2.0292	-2.1229	-2.1312	-2.0792	-2.0333	-2.0542	173.296	226.204	253.894	383.582	177.268	352.656	276.292	282.893	125.897	407.402	404.116	238.476	398.807	304.695	128.930	306.897	5.6453e-06	4.0299e-05	1.3431e-05	0.0023205	1.6648e-07	2.5813e-07	0.02656	0.0060412	3.2688e-07	2.1921e-07	0.020651	0.0057542	0.0035281	0.0032226	2.5251e-07	0.0015721	-4.6489e-06	-8.1877e-06	-2.1238e-06	-0.14003	-9.7657e-08	-7.4261e-08	-0.18955	-0.07404	-6.4748e-08	-9.1974e-08	-0.11281	-0.029517	-0.044745	-0.0092436	-8.3145e-08	-0.016299	307.271	233.701	146.341	299.769	153.409	329.011	355.563	125.040	358.958	452.942	212.083	383.321	404.669	436.483	429.292	148.843	-8191	255	
22046.775	1	1	0	0	0.10075	0.21724	0.16477	0.1613	0.18563	0.18102	0.21028	0.15655	0.066793	0.1918	0.21855	0.17151	0.10069	0.34173	0.094801	0.23539	-1.4188	-2.1583	-1.9896	-1.7979	-2.35	-1.9896	-2.0312	-2.1375	-2.0208	-2.3417	-1.9604	-1.8208	-2.3542	-2	-2.0354	-2.1042	277.968	233.310	118.208	299.225	116.950	348.864	91.999	291.836	215.686	137.651	319.293	109.188	135.207	184.135	57.379	49.527	6.8705e-06	6.81e-06	1.535e-05	0.029321	2.159e-07	2.4739e-07	0.029106	0.010986	2.3665e-07	6.57e-08	0.028367	0.0098596	0.0064902	0.00081278	1.9908e-07	0.0035005	-4.6707e-06	-8.4288e-06	-2.2606e-06	-0.14721	-9.7917e-08	-8.2473e-08	-0.16815	-0.073905	-7.7036e-08	-9.268e-08	-0.1245	-0.027021	-0.04388	-0.010291	-8.3057e-08	-0.016958	75.892	203.977	182.334	69.475	223.163	240.489	122.804	43.131	129.165	314.864	145.896	310.388	231.696	182.521	53.068	317.858	-8191	255	
22046.871	1	1	0	0	0.16044	0.22711	0.096192	0.090807	0.12779	0.20144	0.24568	0.094053	0.08714	0.22941	0.20361	0.15595	0.28736	0.072828	0.25958	0.2328	-1.3479	-2.0563	-2.375	-1.8333	-2.2854	-2.0875	-2.0729	-2.3792	-2.0812	-2.2833	-2.2521	-1.9438	-2.3229	-2.1042	-2.0646	-2.5312	210.492	311.984	328.686	374.886	163.631	184.062	441.717	319.978	167.958	438.428	242.537	429.881	274.812	429.146	369.726	122.126	6.1068e-06	2.63e-05	4.0418e-06	0.033176	3.5184e-08	3.989e-07	0.048348	0.012427	2.6701e-07	5.8372e-08	0.026596	0.0099818	0.009521	0.0011712	3.4803e-07	0.00098756	-4.7289e-06	-8.027e-06	-2.1821e-06	-0.14533	-9.9047e-08	-8.3885e-08	-0.1691	-0.071078	-7.6426e-08	-7.9188e-08	-0.12721	-0.027387	-0.045568	-0.0099214	-7.8944e-08	-0.015698	443.816	277.897	199.778	196.669	407.892	126.889	461.770	128.305	348.130	310.446	175.124	403.249	368.574	291.245	242.240	437.619	-8191	255	
22046.967	1	1	0	0	0.26672	0.094044	0.19367	0.14285	0.10798	0.16143	0.21874	0.064035	0.28333	0.2941	0.29511	0.039422	0.29597	0.1532	0.1405	0.22321	-1.5729	-2.2313	-2.2479	-2.0771	-2.4708	-2.0083	-1.8479	-2.1521	-1.8083	-2.2812	-2.2521	-1.8104	-2.2896	-2.1542	-2.0229	-2.3792	466.212	157.196	427.673	352.172	290.411	480.898	388.868	130.951	246.561	395.672	242.067	268.799	166.025	330.249	206.129	299.552	2.3283e-06	1.8039e-05	1.0734e-05	0.034862	1.9519e-07	3.1194e-07	0.033703	0.011791	1.9262e-07	2.3671e-07	0.042952	0.0041643	0.0023982	0.0020064	3.35e-07	0.0038692	-4.3215e-06	-7.5128e-06	-2.357e-06	-0.14345	-9.8178e-08	-8.1148e-08	-0.15592	-0.076328	-7.6861e-08	-8.7124e-08	-0.12084	-0.027254	-0.042975	-0.010281	-7.2905e-08	-0.016228	357.563	425.281	280.733	402.754	214.557	124.347	443.629	138.983	165.176	435.407	314.117	479.211	398.128	467.949	151.129	290.497	-8191	255	
22047.064	1	1	0	0	0.20168	0.10523	0.08689	0.058746	0.12758	0.093324	0.1814	0.090794	0.27824	0.25613	0.10802	0.050157	0.079762	0.10529	0.10369	0.18486	-1.5938	-1.9146	-2.3563	-1.725	-2.2562	-2.2708	-1.8354	-2.3396	-2.0771	-2.0917	-2.1917	-1.9625	-2.1521	-2	-1.7771	-2.2104	185.342	265.404	306.183	371.183	452.464	345.162	458.899	314.961	117.683	340.974	285.926	205.155	226.919	436.777	273.259	349.739	5.9149e-06	3.5768e-05	1.6527e-05	0.062529	1.3543e-07	4.7379e-07	0.021939	0.010784	1.6921e-07	1.74e-07	0.01313	0.0041502	0.0024168	0.00056481	2.855e-07	0.0020327	-5.1727e-06	-6.9825e-06	-2.3749e-06	-0.1315	-8.6796e-08	-8.1766e-08	-0.17006	-0.073367	-7.538e-08	-7.9188e-08	-0.13228	-0.030116	-0.04174	-0.011133	-6.5816e-08	-0.015512	387.702	221.423	273.290	154.019	277.599	396.118	166.322	130.092	133.393	270.587	467.010	377.594	210.673	170.575	334.664	136.058	-8191	255	
22047.160	1	1	0	0	0.033855	0.23694	0.31355	0.09131	0.12397	0.059216	0.3307	0.28861	0.19661	0.15555	0.14594	0.19175	0.061059	0.13151	0.15964	0.24011	-1.6417	-1.8583	-2.2042	-2.0167	-2.1042	-2.2896	-1.9208	-2.2062	-2.1333	-1.9979	-2.4271	-2.0042	-2.1479	-2.2229	-1.8854	-2.3125	266.059	279.493	326.792	263.094	391.465	432.171	323.637	427.209	101.128	116.912	153.461	333.893	318.883	140.748	417.195	391.869	5.2994e-06	2.0947e-05	1.0446e-05	0.036084	3.9211e-07	1.9824e-07	0.032851	0.0078662	7.3078e-07	8.7722e-08	0.0078099	0.0082771	0.012449	0.0028834	2.3331e-07	0.00082666	-5.4637e-06	-7.6654e-06	-2.6126e-06	-0.15592	-8.5754e-08	-8.6446e-08	-0.16929	-0.07478	-8.8452e-08	-7.5661e-08	-0.1337	-0.027787	-0.038941	-0.010671	-7.7106e-08	-0.015269	263.206	286.911	214.405	205.977	119.223	260.929	200.548	109.582	282.165	102.681	190.666	267.227	181.731	447.206	128.613	258.620	-8191	255	
22047.256	1	1	0	0	0.097201	0.074868	0.1872	0.10055	0.13492	0.14217	0.29494	0.24163	0.2387	0.12163	0.14357	0.24551	0.13333	0.091214	0.1901	0.1967	-1.6938	-1.9667	-2.4375	-2.1375	-2.1979	-2.4562	-1.7896	-2.4792	-2.3229	-1.8875	-2.3146	-2.1542	-2.0896	-2.3438	-2.1125	-2.2083	194.386	364.373	465.371	246.142	349.519	284.559	250.629	287.822	456.832	119.877	268.591	462.952	368.226	261.286	378.405	404.586	4.2174e-06	3.8149e-05	6.5177e-06	0.02228	5.6155e-08	5.1028e-07	0.006431	0.0038189	2.1753e-07	2.8593e-07	0.010725	0.0037046	0.0044827	0.00099191	1.4131e-07	0.00056178	-5.5437e-06	-7.344e-06	-2.5274e-06	-0.15984	-8.9055e-08	-9.4835e-08	-0.17904	-0.06852	-9.1676e-08	-7.6102e-08	-0.13016	-0.031114	-0.037623	-0.011421	-8.1482e-08	-0.015326	244.640	304.592	347.345	401.735	404.392	376.216	412.673	123.476	350.605	267.319	126.591	165.270	313.897	158.075	243.837	458.165	-8191	255	
22047.352	1	1	0	0	0.21021	0.050935	0.12538	0.020595	0.20432	0.12655	0.13464	0.38992	0.039282	0.078811	0.1506	0.13214	0.19236	0.20481	0.12731	0.20155	-1.9917	-1.9542	-2.4	-2.0417	-2.0708	-2.3896	-1.9937	-2.2208	-2.1437	-1.9625	-2.2604	-1.9458	-2.05	-2.3042	-1.8563	-2.2292	124.894	42.473	55.936	150.293	46.018	206.220	127.996	366.835	238.826	248.904	229.241	345.082	323.809	113.233	322.175	270.131	5.3449e-06	7.5834e-05	1.2917e-05	0.060678	2.6625e-07	2.5255e-07	0.046934	0.0062675	2.4997e-07	3.3604e-07	0.0064482	0.0022211	0.0035237	0.00089005	3.683e-07	0.00070668	-6.4822e-06	-6.8057e-06	-2.4893e-06	-0.14908	-8.5059e-08	-1.0137e-07	-0.18076	-0.071213	-9.4639e-08	-7.6013e-08	-0.12438	-0.02975	-0.0382	-0.011524	-7.4043e-08	-0.01401	279.645	264.387	150.215	75.778	165.381	279.708	38.686	32.426	271.589	256.170	98.156	231.373	158.146	323.262	192.334	145.817	-8191	255	
22047.447	1	1	0	0	0.21249	0.13827	0.063662	0.26677	0.39257	0.10131	0.24013	0.032081	0.084431	0.16871	0.13224	0.34098	0.24429	0.22715	0.082729	0.20801	-1.8292	-1.8833	-2.2854	-2.1146	-2.1208	-2.3187	-1.9271	-2.2542	-2.3625	-2.1188	-2.2917	-2.0521	-1.8667	-2.2687	-2.1208	-2.0917	257.558	189.100	85.436	333.591	49.132	247.950	84.228	32.872	153.587	263.795	312.219	337.512	40.709	301.803	-10.370	52.639	3.9347e-07	6.7348e-05	4.6271e-06	0.020215	2.0093e-07	1.1811e-07	0.022862	0.0083945	1.9909e-07	2.0538e-07	0.023357	0.0028872	0.00052874	0.0020249	1.6479e-07	0.0030365	-5.2236e-06	-6.5807e-06	-2.117e-06	-0.16599	-8.0715e-08	-1.0525e-07	-0.1649	-0.069867	-9.8648e-08	-7.3632e-08	-0.12756	-0.034375	-0.035359	-0.011483	-7.5706e-08	-0.013724	156.439	146.798	204.950	4.130	14.333	160.772	176.938	-3.298	247.197	16.630	187.390	226.584	41.722	79.672	174.805	323.052	-8191	255	
22047.545	1	1	0	0	0.13168	0.25029	0.093981	0.18339	0.28417	0.18312	0.16311	0.056108	0.096063	0.24101	0.079412	0.12867	0.27683	0.041715	0.20001	0.19672	-1.7708	-2.0167	-2.2083	-2.0438	-2.0938	-2.3458	-1.8813	-2.0604	-2.35	-2	-2.2125	-2.2042	-1.925	-2.3104	-2.2042	-2.2125	115.770	308.226	287.099	142.155	282.506	369.450	214.341	269.302	138.048	406.883	208.416	164.539	290.733	187.915	206.845	277.414	6.8292e-06	1.1311e-05	9.4435e-06	0.0059348	1.5965e-07	2.4011e-07	0.02248	0.011511	1.6978e-07	3.4651e-07	0.022474	0.0045581	0.0060331	0.00089823	3.2668e-07	0.0014437	-5.9439e-06	-6.886e-06	-2.3099e-06	-0.17692	-7.1939e-08	-1.011e-07	-0.16738	-0.063741	-9.3332e-08	-7.0987e-08	-0.1186	-0.034575	-0.03433	-0.011277	-8.0519e-08	-0.012679	293.466	354.793	124.925	370.327	338.647	294.662	349.524	96.686	335.557	264.149	361.520	269.904	88.078	378.604	88.597	234.496	-8191	255	
22047.662	1	1	0	0	0.10818	0.15327	0.077536	0.24538	0.10188	0.16722	0.092502	0.038179	0.10686	0.16373	0.15826	0.13696	0.21099	0.040613	0.15808	0.31767	-1.9417	-1.8521	-2.0896	-2.3292	-2.0458	-2.2687	-2.0896	-1.9146	-2.35	-2.1021	-2.2542	-2.2542	-1.9188	-2.1	-2.1437	-1.9312	161.348	292.719	246.179	270.159	235.398	234.718	185.714	200.062	149.129	105.733	347.530	138.872	205.347	227.787	205.740	319.442	9.7949e-06	2.3111e-05	2.5627e-06	0.060304	7.0541e-08	3.955e-07	0.036979	0.019195	1.2211e-07	1.0494e-07	0.020931	0.0018361	0.0048429	7.8064e-05	2.9798e-07	0.0019786	-6.1912e-06	-6.8619e-06	-2.0879e-06	-0.16924	-7.5067e-08	-9.8985e-08	-0.18916	-0.061184	-1.0004e-07	-8.2186e-08	-0.11635	-0.034142	-0.033589	-0.010959	-8.0169e-08	-0.012793	132.964	123.516	124.559	344.293	206.852	235.394	366.646	89.530	117.846	419.075	173.313	389.253	231.005	295.451	289.016	99.152	-8191	255	
22047.760	1	1	0	0	0.15688	0.25394	0.10091	0.07484	0.16123	0.22122	0.11585	0.20175	0.035034	0.072517	0.10482	0.14315	0.18359	0.14111	0.1203	0.22017	-2.0229	-2.0625	-2.1813	-2.2021	-2.0021	-2.3875	-2.1312	-2.0958	-2.2833	-2.1958	-2.125	-2.4562	-1.8271	-2.3542	-2.3042	-2.1208	311.594	399.130	249.823	258.474	116.318	313.550	195.852	310.289	328.683	211.735	138.937	346.377	237.280	160.384	248.195	98.940	6.8208e-06	3.4281e-05	9.7695e-06	0.025581	3.5659e-07	2.5576e-07	0.054093	0.0079961	2.2231e-07	5.1062e-07	0.022527	0.0053499	0.0062761	0.0017608	5.8168e-07	0.0022655	-5.8347e-06	-6.6048e-06	-2.1372e-06	-0.18273	-7.2026e-08	-1.0446e-07	-0.18534	-0.060578	-1.01e-07	-8.2451e-08	-0.12214	-0.036239	-0.036347	-0.010517	-9.5485e-08	-0.012064	139.683	271.496	161.437	284.592	82.207	56.670	275.508	60.199	270.214	117.062	340.740	374.135	168.190	333.208	115.401	159.328	-8191	255	
22047.855	1	1	0	0	0.14094	0.035914	0.12101	0.062298	0.1713	0.15267	0.23874	0.34981	0.22594	0.055243	0.15185	0.061442	0.32498	0.2885	0.2431	0.35606	-1.9333	-2.0042	-2.1688	-2.2646	-1.975	-2.3312	-2.2229	-1.9479	-2.4021	-2.2687	-2.2375	-2.2833	-1.9875	-2.2062	-2.3521	-2.0542	237.595	239.943	300.111	381.915	212.385	337.166	408.318	396.254	283.519	261.008	288.444	314.744	333.416	331.942	308.938	419.452	3.4395e-06	1.6969e-05	8.9164e-06	0.012765	5.9307e-07	3.4285e-07	0.027239	0.011696	2.163e-07	5.7718e-07	0.0098924	0.0061709	0.0084346	0.00058463	3.0764e-07	0.0028241	-7.0861e-06	-7.8101e-06	-2.043e-06	-0.19092	-7.6023e-08	-9.4305e-08	-0.20655	-0.062193	-9.246e-08	-9.2592e-08	-0.10373	-0.037836	-0.037747	-0.010969	-9.1547e-08	-0.011963	174.400	399.246	334.584	267.537	492.663	398.406	421.648	160.263	220.655	446.922	500.016	173.672	410.994	145.902	164.516	306.177	-8191	255	
22047.951	1	1	0	0	0.082417	0.13502	0.26984	0.26906	0.10799	0.40824	0.055577	0.22575	0.19485	0.14729	0.31706	0.15813	0.44896	0.15768	0.092507	0.16009	-1.7625	-2.0687	-2.1458	-2.1979	-1.9229	-2.1958	-2.2687	-2	-2.2438	-2.1958	-2.0396	-2.2812	-2.1271	-2.15	-2.1854	-1.8958	160.593	230.791	278.981	44.005	52.997	-33.896	206.215	-19.170	180.818	191.280	-51.658	238.594	21.503	82.519	27.171	207.931	4.7758e-06	3.6683e-05	2.4452e-05	0.022021	3.4854e-07	1.4915e-07	0.048887	0.012531	4.0214e-07	2.5791e-07	0.029039	0.0073147	0.0041075	0.0031017	1.3676e-07	0.001239	-6.0748e-06	-8.027e-06	-1.9152e-06	-0.18905	-7.6718e-08	-8.9448e-08	-0.20063	-0.056136	-8.9672e-08	-8.8976e-08	-0.10361	-0.034775	-0.036183	-0.009603	-9.2335e-08	-0.012092	127.272	207.252	191.658	118.840	-11.761	-29.413	84.030	-58.693	66.262	50.789	13.139	258.018	209.633	221.491	97.106	74.498	-8191	255	
22048.049	1	1	0	0	0.19047	0.30189	0.15139	0.22517	0.16145	0.06734	0.15727	0.10536	0.069411	0.13813	0.30877	0.20069	0.21221	0.28589	0.1865	0.11872	-1.7812	-2.0271	-1.9479	-2.2625	-1.8958	-2.1771	-2.2646	-1.9917	-2.3312	-2.2	-1.9688	-2.4562	-1.8875	-2.2021	-2.3646	-1.9208	25.970	194.729	47.308	-84.338	-32.099	-61.155	163.559	-53.693	-96.779	140.811	-164.320	-40.894	-79.559	-104.633	-119.791	-3.599	5.7896e-06	6.0356e-05	7.6349e-06	0.005569	4.8599e-07	4.5161e-07	0.066544	0.0044268	1.8517e-07	3.3109e-07	0.031757	0.0029812	0.011135	0.00031156	2.7524e-07	0.0031372	-5.9366e-06	-7.7458e-06	-1.8479e-06	-0.17658	-8.2887e-08	-9.1479e-08	-0.20674	-0.051962	-8.5227e-08	-8.9505e-08	-0.10361	-0.036538	-0.038529	-0.0091819	-9.0497e-08	-0.012049	187.042	30.601	168.524	-100.446	92.547	-23.240	157.330	-147.018	4.542	-95.928	165.434	-93.732	178.016	-132.393	127.039	14.194	-8191	255	
22048.145	1	1	0	0	0.2528	0.14034	0.12881	0.18498	0.073267	0.20173	0.25354	0.31426	0.25979	0.2671	0.060212	0.046568	0.15234	0.11424	0.09601	0.37365	-1.7292	-2.1708	-1.9646	-2.2729	-2.1479	-2.0938	-2.2604	-2.0792	-2.3208	-2.1833	-2.0542	-2.2625	-2.0229	-2.1521	-2.1604	-2.0479	114.328	3.997	-21.310	97.473	107.805	91.672	176.892	41.973	138.631	176.803	-101.587	-121.224	-59.887	29.525	114.461	116.399	1.2825e-06	2.4727e-05	2.0186e-05	0.025867	3.5363e-07	1.9716e-07	0.054066	0.0053004	2.2953e-07	2.3807e-07	0.026114	0.0031873	0.0043184	0.002004	1.3888e-07	0.0045984	-6.4677e-06	-7.2396e-06	-1.8098e-06	-0.1887	-7.8108e-08	-8.1325e-08	-0.19604	-0.054251	-8.8277e-08	-9.0828e-08	-0.097001	-0.03381	-0.043674	-0.0093155	-9.391e-08	-0.011405	-0.631	4.217	65.922	13.853	163.547	-31.349	-34.781	-123.486	183.464	-135.016	18.783	150.271	170.693	-18.429	124.960	65.606	-8191	255	
22048.266	1	1	0	0	0.19508	0.11591	0.17934	0.1963	0.077205	0.21667	0.09625	0.12154	0.19059	0.042526	0.12836	0.19169	0.15426	0.18475	0.13144	0.087217	-1.6896	-2.1771	-1.7938	-2.2542	-2.1917	-1.8583	-2.3104	-1.9937	-2.1042	-2.3854	-1.7437	-2.1667	-1.8646	-2.0708	-2.1562	-2.0042	208.156	89.545	363.139	249.963	207.959	324.365	290.472	382.550	400.660	413.147	101.349	231.833	280.078	200.548	388.130	385.316	6.9286e-06	7.761e-05	4.9664e-06	0.020172	2.6192e-07	6.5416e-07	0.0094269	0.026964	2.9223e-07	2.4327e-07	0.018896	0.0066151	0.0065316	0.0039638	9.3674e-08	0.0020876	-6.1112e-06	-8.2118e-06	-1.9937e-06	-0.18512	-8.3755e-08	-7.638e-08	-0.20942	-0.060645	-8.1219e-08	-9.753e-08	-0.097827	-0.032212	-0.040258	-0.0089971	-9.4085e-08	-0.012622	360.041	193.100	141.530	178.202	97.233	422.432	123.213	96.520	365.770	225.109	202.052	137.860	161.041	417.179	400.842	361.288	-8191	255	
22048.361	1	1	0	0	0.077844	0.16315	0.13989	0.18252	0.32266	0.32733	0.26941	0.27533	0.18446	0.10887	0.17299	0.13492	0.15935	0.042648	0.21409	0.2528	-1.5458	-2.2687	-1.8917	-2.2854	-2.0583	-2.0125	-2.1312	-1.9792	-2	-2.3063	-1.9104	-2.0604	-2.1667	-1.7021	-2.2562	-2.0187	45.435	277.786	7.967	342.576	232.484	252.229	50.364	168.591	140.508	322.881	111.727	281.054	190.043	210.583	222.291	155.450	2.9075e-06	7.7465e-05	5.0935e-06	0.02516	8.1978e-08	2.0319e-07	0.019993	0.012919	1.1964e-07	4.1753e-07	0.033533	0.0067505	0.0077988	0.0010983	3.9862e-07	0.0039768	-5.1363e-06	-8.8546e-06	-1.895e-06	-0.17316	-8.81e-08	-7.9294e-08	-0.20789	-0.057347	-7.9389e-08	-9.365e-08	-0.094169	-0.033177	-0.042357	-0.0081035	-9.3385e-08	-0.013752	172.838	342.831	255.717	170.636	146.279	364.393	153.045	24.454	312.969	156.301	136.562	174.739	68.953	131.576	256.028	317.201	-8191	255	
22048.457	1	1	0	0	0.17123	0.25267	0.2674	0.27137	0.3107	0.053591	0.24142	0.12349	0.019799	0.051215	0.086846	0.10305	0.12339	0.07363	0.024972	0.19643	-1.5854	-2.2938	-1.8958	-2.2854	-2.1771	-2.0771	-2.2438	-2.1396	-2.0146	-2.4208	-1.9562	-2.125	-2.1125	-1.875	-2.3292	-2.0208	157.870	287.376	294.242	110.287	331.220	381.197	374.838	441.526	93.343	230.691	123.010	312.829	230.384	444.438	383.244	359.932	4.998e-06	2.0019e-05	1.3396e-05	0.02728	2.9286e-07	4.6068e-07	0.0132	0.0031797	3.723e-07	1.5975e-07	0.022312	0.0016	0.010557	0.0013819	2.8824e-07	0.00041433	-4.4379e-06	-9.0796e-06	-1.7874e-06	-0.16719	-8.8968e-08	-7.1082e-08	-0.19853	-0.064213	-8.1742e-08	-9.753e-08	-0.10526	-0.029151	-0.038076	-0.0089765	-8.8834e-08	-0.013351	109.297	253.908	409.149	159.059	354.899	427.009	397.775	106.725	314.531	293.577	407.837	366.969	355.746	372.092	411.000	129.564	-8191	255	
22048.551	1	1	0	0	0.20478	0.12926	0.055573	0.099224	0.081908	0.13464	0.21114	0.26024	0.22069	0.22628	0.15932	0.12105	0.31674	0.34607	0.15313	0.10916	-1.4937	-2.1312	-1.9646	-2.1458	-2.3208	-1.9375	-2.275	-2.1792	-2.1125	-2.4708	-2.0917	-2.0646	-2.3333	-1.7583	-2.3312	-2.0417	525.067	413.409	329.380	486.545	452.510	194.053	398.017	504.680	247.032	291.060	265.803	445.568	468.133	512.040	389.113	388.960	1.0411e-05	1.4645e-05	7.6241e-06	0.047974	4.6398e-07	3.9468e-07	0.025331	0.019114	2.6651e-07	2.996e-07	0.0076764	0.0036822	0.006039	0.001575	1.8448e-07	0.0014646	-4.7726e-06	-7.4003e-06	-1.8524e-06	-0.1595	-9.5919e-08	-7.2141e-08	-0.17082	-0.063809	-7.1284e-08	-9.7089e-08	-0.10326	-0.030116	-0.045815	-0.0087711	-9.391e-08	-0.013852	513.462	258.813	237.854	434.116	449.733	385.458	352.593	186.963	444.119	223.090	480.195	231.287	418.800	520.245	385.466	416.308	-8191	255	
#DATA ENDS
