BOXY.EXE: ISS Imagent and Oximeter Data Acquisition Program Version 0.80
Ascii Record File

#ACQ INFORMATION
2  Detector Channels 
16  External MUX Channels 
1  Auxiliary Channels 
5000  Waveform (CCF) Frequency (Hz)
1  Waveforms Skipped 
30  Waveforms Averaged 
1  Cycles Averaged 
16  Acquisitions per Waveform 
10.0806  Updata Rate (Hz) 

#FILE INFORMATION
TRUE -- External MUX Channel results are PARSED.
FALSE -- AC DC and Phase are NOT grouped.
TRUE -- Companion Program Settings File CREATED.
FALSE -- AC data not excluded
FALSE -- DC data not excluded
FALSE -- Phase data not excluded
FALSE -- Auxillary Chn. data not excluded
Tab delimiters

#CALIBRATION STATE
TRUE -- Waveform Calibration Values APPLIED.


#AUX CALIBRATION VALUES
Val Type	aux-1	

Term	1.0000e+00	
Factor	0.0000e+00	


#WF CALIBRATION VALUES
A = Detector Channel
Val Type	A-AC1	A-AC2	A-AC3	A-AC4	A-AC5	A-AC6	A-AC7	A-AC8	A-AC9	A-AC10	A-AC11	A-AC12	A-AC13	A-AC14	A-AC15	A-AC16	A-DC1	A-DC2	A-DC3	A-DC4	A-DC5	A-DC6	A-DC7	A-DC8	A-DC9	A-DC10	A-DC11	A-DC12	A-DC13	A-DC14	A-DC15	A-DC16	A-Ph1	A-Ph2	A-Ph3	A-Ph4	A-Ph5	A-Ph6	A-Ph7	A-Ph8	A-Ph9	A-Ph10	A-Ph11	A-Ph12	A-Ph13	A-Ph14	A-Ph15	A-Ph16	

Term	0.00000e+00	0.00000e+00	0.00000e+00	0.00000e+00	0.00000e+00	0.00000e+00	0.00000e+00	0.00000e+00	0.00000e+00	0.00000e+00	0.00000e+00	0.00000e+00	0.00000e+00	0.00000e+00	0.00000e+00	0.00000e+00	0.00000e+00	0.00000e+00	0.00000e+00	0.00000e+00	0.00000e+00	0.00000e+00	0.00000e+00	0.00000e+00	0.00000e+00	0.00000e+00	0.00000e+00	0.00000e+00	0.00000e+00	0.00000e+00	0.00000e+00	0.00000e+00	0.00000e+00	0.00000e+00	0.00000e+00	0.00000e+00	0.00000e+00	0.00000e+00	0.00000e+00	0.00000e+00	0.00000e+00	0.00000e+00	0.00000e+00	0.00000e+00	0.00000e+00	0.00000e+00	0.00000e+00	0.00000e+00	
Factor	1.00000e+00	1.00000e+00	1.00000e+00	1.00000e+00	1.00000e+00	1.00000e+00	1.00000e+00	1.00000e+00	1.00000e+00	1.00000e+00	1.00000e+00	1.00000e+00	1.00000e+00	1.00000e+00	1.00000e+00	1.00000e+00	1.00000e+00	1.00000e+00	1.00000e+00	1.00000e+00	1.00000e+00	1.00000e+00	1.00000e+00	1.00000e+00	1.00000e+00	1.00000e+00	1.00000e+00	1.00000e+00	1.00000e+00	1.00000e+00	1.00000e+00	1.00000e+00	X	X	X	X	X	X	X	X	X	X	X	X	X	X	X	X	

B = Detector Channel
Val Type	B-AC1	B-AC2	B-AC3	B-AC4	B-AC5	B-AC6	B-AC7	B-AC8	B-AC9	B-AC10	B-AC11	B-AC12	B-AC13	B-AC14	B-AC15	B-AC16	B-DC1	B-DC2	B-DC3	B-DC4	B-DC5	B-DC6	B-DC7	B-DC8	B-DC9	B-DC10	B-DC11	B-DC12	B-DC13	B-DC14	B-DC15	B-DC16	B-Ph1	B-Ph2	B-Ph3	B-Ph4	B-Ph5	B-Ph6	B-Ph7	B-Ph8	B-Ph9	B-Ph10	B-Ph11	B-Ph12	B-Ph13	B-Ph14	B-Ph15	B-Ph16	

Term	0.00000e+00	0.00000e+00	0.00000e+00	0.00000e+00	0.00000e+00	0.00000e+00	0.00000e+00	0.00000e+00	0.00000e+00	0.00000e+00	0.00000e+00	0.00000e+00	0.00000e+00	0.00000e+00	0.00000e+00	0.00000e+00	0.00000e+00	0.00000e+00	0.00000e+00	0.00000e+00	0.00000e+00	0.00000e+00	0.00000e+00	0.00000e+00	0.00000e+00	0.00000e+00	0.00000e+00	0.00000e+00	0.00000e+00	0.00000e+00	0.00000e+00	0.00000e+00	-1.95322e+02	-1.31664e+02	-1.35514e+02	-1.83507e+02	-9.14092e+01	-5.93382e+01	-1.57852e+02	-1.62015e+02	-9.36674e+01	-6.54123e+01	-1.76234e+02	-1.71211e+02	-1.81698e+02	-1.78091e+02	-8.68548e+01	-1.51000e+02	
Factor	4.07472e-05	1.94038e-04	5.01386e-05	4.44362e-01	1.74494e-06	1.67566e-06	1.66286e-01	6.31906e-02	2.08765e-06	1.66474e-06	2.13853e-01	2.89034e-02	2.88634e-02	9.13376e-03	1.93495e-06	1.32076e-02	3.19055e-06	3.47120e-06	9.67125e-07	2.29784e-01	3.78690e-08	3.80063e-08	8.23849e-02	3.32550e-02	3.75348e-08	3.80335e-08	1.05779e-01	1.48008e-02	1.52162e-02	4.84302e-03	3.76195e-08	6.77457e-03	X	X	X	X	X	X	X	X	X	X	X	X	X	X	X	X	



#DISTANCE SETTINGS
A = Detector Channel
A-1	A-2	A-3	A-4	A-5	A-6	A-7	A-8	A-9	A-10	A-11	A-12	A-13	A-14	A-15	A-16	

2.5000e+00	3.0000e+00	2.5000e+00	3.0000e+00	2.0000e+00	3.0000e+00	1.5000e+00	3.0000e+00	3.0000e+00	3.0000e+00	3.0000e+00	3.0000e+00	3.0000e+00	3.0000e+00	1.5000e+00	3.0000e+00	

B = Detector Channel
B-1	B-2	B-3	B-4	B-5	B-6	B-7	B-8	B-9	B-10	B-11	B-12	B-13	B-14	B-15	B-16	

1.0000e+01	1.0000e+01	1.0000e+01	1.4400e+00	1.0000e+01	1.0000e+01	1.5100e+00	1.9400e+00	1.0000e+01	1.0000e+01	1.9900e+00	2.4900e+00	2.4100e+00	2.9000e+00	1.0000e+01	2.9800e+00	




#DATA BEGINS
time	group	step	mark	flag	A-AC1	A-AC2	A-AC3	A-AC4	A-AC5	A-AC6	A-AC7	A-AC8	A-AC9	A-AC10	A-AC11	A-AC12	A-AC13	A-AC14	A-AC15	A-AC16	A-DC1	A-DC2	A-DC3	A-DC4	A-DC5	A-DC6	A-DC7	A-DC8	A-DC9	A-DC10	A-DC11	A-DC12	A-DC13	A-DC14	A-DC15	A-DC16	A-Ph1	A-Ph2	A-Ph3	A-Ph4	A-Ph5	A-Ph6	A-Ph7	A-Ph8	A-Ph9	A-Ph10	A-Ph11	A-Ph12	A-Ph13	A-Ph14	A-Ph15	A-Ph16	B-AC1	B-AC2	B-AC3	B-AC4	B-AC5	B-AC6	B-AC7	B-AC8	B-AC9	B-AC10	B-AC11	B-AC12	B-AC13	B-AC14	B-AC15	B-AC16	B-DC1	B-DC2	B-DC3	B-DC4	B-DC5	B-DC6	B-DC7	B-DC8	B-DC9	B-DC10	B-DC11	B-DC12	B-DC13	B-DC14	B-DC15	B-DC16	B-Ph1	B-Ph2	B-Ph3	B-Ph4	B-Ph5	B-Ph6	B-Ph7	B-Ph8	B-Ph9	B-Ph10	B-Ph11	B-Ph12	B-Ph13	B-Ph14	B-Ph15	B-Ph16	aux-1	digaux	

1178.473	1	1	0	256	0.16259	0.13909	0.16775	0.09707	0.17189	0.15388	0.21415	0.30279	0.18552	0.13935	0.11878	0.16833	0.13309	0.19379	0.050572	0.045395	-2.6333	-3.0958	-2.8854	-3.2583	-3.0229	-2.8812	-3.4	-2.925	-3.2938	-3.0687	-2.9646	-3.2458	-2.9313	-3.0708	-3.1729	-2.8771	56.264	-26.838	198.274	17.323	284.179	120.540	242.791	307.935	-9.163	131.828	104.755	281.187	-46.766	270.259	139.718	253.206	0.00040778	0.00068808	7.7962e-05	1634.7	3.7817e-06	7.8857e-07	1640.5	471.58	5.7827e-06	1.0044e-05	528.99	178.69	158.86	53.866	5.0518e-06	67.412	0.00058121	0.0005225	0.00013925	1647.6	6.3735e-06	5.7193e-06	1657.1	477.07	6.1983e-06	5.5826e-06	531.78	181.9	161.2	55.166	5.491e-06	68.773	63.914	36.521	53.287	-35.034	145.349	104.404	-34.857	-30.196	98.441	102.145	-30.604	-26.392	-26.498	-21.772	61.480	-22.347	-8191	255	
1178.594	1	1	0	0	0.081022	0.093209	0.096102	0.22249	0.15771	0.1214	0.3211	0.28701	0.090524	0.15735	0.24224	0.23208	0.28982	0.2638	0.083054	0.26248	-2.7271	-2.9833	-2.8792	-3.3312	-3.1417	-2.9313	-3.2604	-2.8625	-3.1083	-3.0729	-2.7708	-3.1729	-3.1312	-2.8438	-3.0687	-2.7958	250.274	216.275	-47.915	309.664	198.277	95.188	248.430	163.224	189.901	-11.067	261.044	306.598	-38.301	298.907	305.436	272.191	0.00047457	0.00086485	0.00028393	1623.8	1.7421e-06	5.3621e-06	1630.6	467.33	2.7873e-06	8.035e-06	523.98	177.35	157.57	53.919	2.558e-06	66.96	0.00056888	0.00051593	0.00014189	1641.7	6.0409e-06	5.5591e-06	1647.8	474.66	5.9512e-06	5.5606e-06	529.02	180.87	160	54.903	5.7998e-06	68.429	75.951	85.913	64.991	-34.643	85.859	83.789	-34.864	-30.163	105.791	76.676	-30.897	-26.352	-26.212	-21.495	40.605	-22.258	-8191	255	
1178.688	1	1	0	0	0.13402	0.1242	0.18565	0.2307	0.29615	0.17157	0.17094	0.35207	0.19246	0.14557	0.20618	0.12473	0.058058	0.022377	0.12034	0.12142	-2.5583	-2.9479	-2.8104	-2.9896	-3.1583	-2.9729	-3.4188	-3.2042	-2.9813	-3.3104	-2.7958	-3.275	-3.1729	-2.9979	-3.1646	-3	-18.128	74.096	268.810	-4.369	180.358	290.932	228.901	257.103	160.546	169.137	219.501	271.137	2.445	-2.966	-25.814	286.919	0.00053705	0.00054782	0.00011353	1621.4	8.5538e-06	8.0852e-06	1622.7	465.09	7.0498e-06	4.8071e-06	523.44	176.48	156.23	53.249	9.5393e-07	66.862	0.00054723	0.00051388	0.00015261	1634.6	5.9342e-06	5.6145e-06	1644.6	472.08	6.0487e-06	5.5469e-06	529.99	179.9	158.9	54.544	6.2517e-06	68.123	78.595	42.159	86.897	-34.855	91.977	100.422	-34.990	-30.262	32.851	117.284	-30.867	-26.605	-26.202	-21.818	-4.085	-22.111	-8191	255	
1178.784	1	1	0	0	0.35366	0.1321	0.25929	0.15852	0.046234	0.075326	0.12862	0.32107	0.131	0.171	0.041424	0.16519	0.21218	0.098387	0.17553	0.2432	-2.475	-3.0563	-2.6937	-3.1667	-3.0687	-3.0812	-3.4813	-3.0896	-2.9167	-3.2146	-2.9104	-3.1333	-3.2292	-2.9688	-3.2417	-3.0667	149.716	137.474	265.534	27.732	135.663	207.092	264.699	293.283	178.805	267.929	254.400	30.166	-41.228	-8.695	79.408	285.726	0.00047381	0.00058108	0.000113	1613.9	6.5001e-06	4.839e-06	1621.6	463.28	3.6966e-06	4.174e-06	523.25	175.03	155.22	53.196	6.0591e-06	66.224	0.00054308	0.00050113	0.00016196	1627.9	5.7189e-06	5.5638e-06	1637.4	468.85	5.7026e-06	5.5697e-06	528.28	178.74	157.89	54.267	6.4238e-06	67.623	65.341	20.583	58.259	-35.089	74.055	113.385	-34.939	-30.269	6.589	180.778	-30.970	-26.554	-26.117	-21.549	27.509	-22.297	-8191	255	
1178.905	1	1	0	0	0.12419	0.12497	0.24291	0.10545	0.035186	0.38617	0.19087	0.28332	0.042718	0.1072	0.047457	0.26908	0.10082	0.43186	0.19457	0.19178	-2.4625	-3.1708	-2.8271	-3.1667	-3.2562	-2.8292	-3.2896	-3.0229	-2.8625	-3.3312	-2.9	-3.2542	-3.3833	-2.8021	-3.2208	-3.1667	-44.715	100.545	19.066	-47.604	-45.765	91.325	258.642	257.115	48.488	-21.812	193.597	231.742	54.384	-26.426	175.064	213.096	0.000422	0.00042458	0.00016859	1604.3	4.3663e-06	4.0271e-06	1615.2	461.4	1.0895e-05	6.7375e-06	521.93	174.83	154.98	52.999	4.6676e-06	66.24	0.00052993	0.00052785	0.00016683	1620.8	5.627e-06	5.8751e-06	1634.1	467.97	5.6545e-06	5.8898e-06	528.13	178.17	157.59	54.174	6.5358e-06	67.519	66.408	26.306	54.317	-34.609	36.290	98.535	-34.860	-30.427	107.222	110.305	-30.991	-26.288	-26.128	-21.583	98.062	-22.371	-8191	255	
1178.977	1	1	0	0	0.18745	0.12525	0.32824	0.10288	0.22508	0.12875	0.11056	0.21415	0.23062	0.24834	0.28646	0.061822	0.12233	0.22872	0.054215	0.26585	-2.3937	-3.1104	-2.7729	-3.1833	-3.1604	-2.6375	-3.3187	-3.2104	-2.7562	-3.2313	-2.7062	-3.1	-3.1583	-3.0208	-3.0521	-3.1792	91.696	-36.356	30.686	85.141	5.549	70.667	270.857	248.396	244.674	-38.183	194.909	95.454	232.124	275.551	184.809	302.154	0.00046065	0.00049789	0.00012509	1602.1	9.7287e-06	6.9289e-06	1610.4	462.59	6.8915e-06	5.041e-06	521.47	174.86	154.99	52.735	1.1396e-05	65.96	0.00052937	0.0005647	0.00016436	1617.8	5.5626e-06	6.2583e-06	1628.4	468.2	5.61e-06	6.2968e-06	525.52	178.02	157.42	54.13	6.2654e-06	67.39	73.545	110.954	-1.356	-34.749	111.431	145.061	-34.871	-30.295	47.389	116.195	-31.279	-26.535	-26.121	-21.671	87.735	-22.181	-8191	255	
1179.073	1	1	0	0	0.19243	0.14891	0.15839	0.062975	0.14868	0.21821	0.21329	0.36544	0.27956	0.071232	0.098464	0.26527	0.25539	0.16885	0.21358	0.046021	-2.2938	-3.2229	-2.8417	-3.0042	-3.1854	-2.8187	-3.2458	-3.1354	-2.9042	-3.2	-2.9854	-3.0354	-3.2271	-2.9833	-3.0917	-3.4437	185.716	276.777	69.838	127.855	54.460	250.916	275.386	209.809	244.006	232.583	45.453	300.230	261.817	278.702	143.151	258.687	0.00053041	0.0010618	0.00032099	1600.5	3.6525e-06	6.534e-07	1606.3	459.4	4.2837e-06	3.8937e-06	515.42	174.44	153.39	52.633	5.5139e-06	65.355	0.00053177	0.00059711	0.0001633	1611.3	5.8745e-06	6.7708e-06	1627.2	466.3	6.1721e-06	6.997e-06	524.38	177.86	156.68	54.054	6.6817e-06	66.856	80.228	62.224	58.812	-34.977	90.527	-34.962	-34.760	-30.168	17.047	34.558	-30.708	-26.613	-26.206	-21.891	89.153	-22.515	-8191	255	
1179.169	1	1	0	0	0.23457	0.075364	0.11705	0.33531	0.18752	0.11628	0.3043	0.25769	0.057575	0.075732	0.12636	0.26438	0.3819	0.31349	0.11522	0.14518	-2.5833	-3.1437	-3.0812	-2.9667	-3.2562	-2.8958	-3.3875	-3.35	-2.7604	-3.1354	-3.0417	-2.9375	-3.4792	-3.0479	-2.975	-3.35	85.371	193.979	290.378	298.746	-32.051	174.671	266.788	-45.995	-23.606	90.206	7.518	286.734	299.801	289.475	51.680	277.220	0.00053121	0.00070346	0.00018805	1601.5	1.0192e-05	9.2797e-06	1604.4	457.24	6.7974e-06	5.6395e-06	518.1	174.16	152.23	52.383	6.6502e-06	64.565	0.00061348	0.00066803	0.00017008	1617.3	6.7928e-06	7.3968e-06	1625.2	464.52	6.9322e-06	7.274e-06	523.34	177.19	155.97	53.694	6.6126e-06	66.301	84.521	37.185	22.781	-35.002	118.692	177.618	-35.045	-30.515	158.873	108.351	-30.857	-26.674	-26.202	-21.839	21.453	-22.561	-8191	255	
1179.265	1	1	0	0	0.30926	0.020385	0.20237	0.18299	0.30377	0.22695	0.16534	0.17724	0.24616	0.11075	0.27355	0.34173	0.31328	0.20198	0.06261	0.21161	-2.3667	-3.1188	-3.0833	-2.9437	-3.0896	-2.9792	-3.1625	-3.3563	-2.9396	-3.2167	-3.1854	-2.975	-3.3792	-2.9458	-3.0208	-3.2375	21.307	57.257	32.476	276.216	128.778	120.318	265.674	230.871	118.446	78.662	276.536	279.881	310.838	302.817	-26.110	252.294	0.00057345	0.00065246	0.00018072	1597.8	4.6124e-06	2.3454e-06	1600.9	456.14	1.2214e-05	6.3168e-06	513.59	172.95	152.57	52.368	6.6721e-06	64.371	0.00065487	0.00065904	0.00016805	1612.5	7.3413e-06	7.1483e-06	1622.7	463.2	7.3256e-06	7.1242e-06	521.68	176.55	155.74	53.58	6.6054e-06	65.95	83.266	8.777	51.421	-34.990	68.733	122.862	-34.998	-30.326	114.045	97.175	-30.890	-26.545	-26.020	-21.650	63.911	-22.257	-8191	255	
1179.386	1	1	0	0	0.14794	0.13788	0.083032	0.11938	0.19212	0.10985	0.28092	0.22189	0.22139	0.17778	0.16821	0.21317	0.16966	0.20241	0.09999	0.12391	-2.4688	-2.9875	-3.1312	-3.0396	-3.2771	-2.9354	-3.0854	-3.3479	-2.8917	-3.0729	-3.3104	-2.8458	-3.2458	-3.1312	-2.8542	-3.4417	154.446	172.144	259.948	-2.209	91.201	8.476	237.252	35.177	-36.316	241.771	-17.345	195.702	232.426	274.288	-13.151	232.050	0.0004336	0.0011874	0.00013962	1593	6.9674e-06	5.2808e-06	1589.9	452.8	7.1358e-06	7.0315e-06	512.44	171.8	151.45	51.984	4.8561e-06	64.362	0.00068191	0.00063304	0.00016388	1609.2	7.4619e-06	6.736e-06	1614.4	460.88	7.4559e-06	6.719e-06	517.44	175.6	154.75	53.225	6.4129e-06	65.832	69.027	28.221	6.774	-34.890	82.593	86.229	-34.944	-30.422	134.821	55.973	-31.180	-26.440	-26.089	-21.668	135.162	-22.329	-8191	255	
1179.482	1	1	0	0	0.26167	0.10394	0.062095	0.081823	0.088577	0.040385	0.23391	0.2815	0.18848	0.090145	0.050089	0.23316	0.24261	0.17845	0.072942	0.15374	-2.3271	-2.8187	-3.0917	-2.9021	-3.0646	-3.0625	-3.1333	-3.3771	-2.9958	-3.0604	-3.2792	-2.9167	-3.2375	-3.2167	-2.8979	-3.1833	141.742	197.310	102.562	113.241	303.408	274.359	191.030	291.730	-43.683	-15.637	285.066	238.871	242.042	301.934	115.742	288.661	0.00034203	0.00050848	0.00014061	1585.4	8.682e-06	6.6054e-06	1593.4	451.44	1.0393e-05	4.638e-06	513.81	171.6	151.42	51.838	1.1246e-05	64.277	0.00067008	0.00059551	0.00015858	1605.4	7.2417e-06	6.5259e-06	1613.8	459.59	7.1146e-06	6.4192e-06	518.11	175.17	154.18	53.08	6.2497e-06	65.652	64.169	97.512	16.915	-34.797	64.089	120.414	-34.937	-30.301	76.672	119.131	-30.863	-26.575	-26.164	-21.555	63.561	-22.381	-8191	255	
1179.578	1	1	0	0	0.15359	0.39268	0.42393	0.082991	0.06088	0.30525	0.48859	0.23205	0.01648	0.16604	0.15661	0.2514	0.14519	0.097446	0.25404	0.17165	-2.5354	-2.8604	-3.1063	-2.7458	-3.2333	-3.1437	-3.1063	-3.2833	-3.0458	-3.1042	-3.3667	-3.0292	-3.1667	-3.1875	-2.9875	-3.4042	180.687	211.170	116.178	39.849	276.991	24.205	286.524	263.318	79.313	111.908	26.045	61.679	234.004	13.366	260.961	-14.163	0.00043351	0.00057854	0.00018117	1592.9	5.9305e-06	5.8713e-07	1594.4	450.25	9.8915e-06	4.9491e-06	514.68	170.97	150.33	51.554	8.5572e-06	63.477	0.00063389	0.00058726	0.00016102	1607.7	6.8858e-06	6.4803e-06	1613.6	458.16	6.9225e-06	6.4189e-06	516.77	174.89	153.62	52.9	6.7964e-06	65.464	89.569	17.414	42.032	-35.060	102.662	135.764	-34.971	-30.300	91.065	164.379	-30.993	-26.587	-26.316	-21.623	93.275	-22.082	-8191	255	
1179.672	1	1	0	0	0.24603	0.1384	0.18812	0.32937	0.057094	0.07814	0.21031	0.38267	0.141	0.25492	0.27722	0.11042	0.37186	0.19249	0.12867	0.16697	-2.5583	-2.875	-3.2438	-2.7854	-2.9396	-3.2812	-2.9583	-3.1437	-3.0208	-2.8854	-3.3542	-3.0292	-2.9917	-3.4021	-2.9917	-3.2708	199.274	208.692	41.609	241.523	110.111	251.877	182.737	268.409	164.403	229.837	262.068	211.493	-37.638	300.539	-15.827	259.218	0.00043166	0.00046546	3.3387e-05	1587.7	5.0573e-06	7.3331e-06	1583	449.64	8.8311e-06	9.0269e-06	511.89	171.15	149.65	51.466	7.4505e-06	63.762	0.00062266	0.00058953	0.00017366	1604.9	6.7075e-06	6.366e-06	1606.5	457.79	6.5792e-06	6.2051e-06	517.58	174.68	152.79	52.743	6.9279e-06	65.25	85.782	5.011	259.836	-34.734	48.085	104.764	-34.831	-30.226	118.648	140.659	-30.881	-26.279	-26.306	-21.424	180.710	-22.408	-8191	255	
1179.769	1	1	0	0	0.073975	0.19612	0.062904	0.081465	0.34958	0.19822	0.25371	0.26155	0.13027	0.21535	0.25629	0.195	0.033467	0.074067	0.20832	0.16806	-2.6958	-2.7625	-3.1104	-3.0146	-2.8917	-3.3042	-3.2333	-3.3292	-3.2771	-2.9604	-3.3167	-3.1542	-3.0542	-3.3354	-2.9	-3.1542	109.510	139.217	26.394	-22.293	-43.461	105.933	268.313	280.435	216.125	131.547	-37.067	-43.851	211.827	282.886	157.202	232.290	0.00046275	0.0012402	8.9941e-05	1576.5	7.398e-06	2.7901e-06	1583.5	449.22	2.3384e-06	3.8637e-06	510.06	170.52	149.62	51.435	8.3471e-06	63.25	0.0006042	0.00057887	0.00018328	1597	6.7295e-06	6.3562e-06	1606.9	457.59	6.7263e-06	6.7036e-06	518.85	174.59	152.73	52.699	7.9705e-06	65.111	62.947	39.673	-5.375	-34.947	98.199	72.686	-35.045	-30.315	1.857	246.189	-31.299	-26.616	-26.257	-21.801	138.789	-22.414	-8191	255	
1179.865	1	1	0	0	0.26897	0.080167	0.038658	0.19161	0.24171	0.18117	0.23265	0.25054	0.20704	0.269	0.31402	0.14238	0.2609	0.15842	0.054317	0.25053	-2.7687	-2.825	-3.1125	-3.0833	-3.0146	-3.0812	-3.1667	-3.1354	-3.0771	-3.0042	-3.1458	-3.0854	-2.9271	-3.3917	-2.9396	-3.0938	248.222	38.219	76.607	237.764	-25.542	81.985	272.777	-43.241	-16.988	74.331	34.159	91.782	270.340	98.889	160.900	243.662	0.00045999	0.00047717	0.00011331	1586.3	2.6609e-06	8.9225e-06	1587.8	448.14	6.4014e-06	4.2753e-06	507.84	170.07	149.26	51.144	1.2687e-06	63.285	0.00064069	0.00065052	0.000205	1605.5	7.02e-06	7.2636e-06	1612.2	457.26	6.994e-06	7.5025e-06	519.31	174.55	152.64	52.684	8.2945e-06	65.04	66.331	22.937	77.981	-34.954	73.596	211.612	-35.118	-30.428	150.835	90.508	-30.744	-26.826	-26.342	-21.672	94.701	-22.337	-8191	255	
1179.985	1	1	0	0	0.1536	0.25237	0.22305	0.33412	0.22627	0.39617	0.16108	0.27922	0.081577	0.11529	0.073238	0.058031	0.1058	0.14493	0.26671	0.14223	-2.7479	-2.8875	-3.175	-3.0521	-2.8271	-3.1875	-3.1625	-3.1729	-3.1896	-2.8708	-3.0271	-3.2333	-2.9146	-3.275	-3.0312	-2.9625	247.199	110.048	275.400	260.000	251.239	90.762	209.536	283.396	108.837	301.800	229.279	117.040	176.986	-13.926	100.190	-23.742	0.0004867	0.00027588	0.00019379	1578.8	6.864e-06	6.8604e-06	1585.1	448.48	3.2581e-06	8.5199e-06	506.93	170.38	149.22	51.246	1.1588e-05	63.359	0.00063558	0.0007175	0.00020769	1602.6	7.0571e-06	7.8627e-06	1610.7	456.7	6.983e-06	8.0028e-06	518.55	174.05	152.3	52.596	7.9043e-06	64.758	69.364	25.588	29.827	-34.836	111.096	147.954	-35.256	-30.450	115.983	150.579	-30.903	-26.524	-26.030	-21.464	97.366	-22.351	-8191	255	
1180.082	1	1	0	0	0.23515	0.10671	0.062715	0.32004	0.15169	0.11563	0.15538	0.23669	0.068584	0.24731	0.11467	0.14502	0.15213	0.13555	0.21876	0.28086	-2.8375	-2.8063	-3.125	-3.2271	-2.9062	-3.2833	-3.3458	-3.1583	-3.2667	-2.8688	-3.1146	-3.1396	-2.9292	-3.2542	-3.0479	-2.9771	142.586	59.791	103.899	103.896	-27.660	236.305	260.471	261.300	140.518	9.790	223.918	248.836	263.580	227.169	16.402	226.667	0.00046119	0.00019085	0.0001917	1578.2	4.9507e-06	5.4941e-06	1583.5	449.11	4.8206e-06	8.6442e-06	506.05	169.87	148.54	51.111	5.7169e-06	62.859	0.0006363	0.00074444	0.00020208	1600.2	7.06e-06	8.0772e-06	1608.7	456.2	7.129e-06	8.2515e-06	516.65	173.82	151.79	52.53	7.5583e-06	64.563	87.918	62.773	7.336	-35.137	108.135	139.713	-34.954	-30.399	131.074	142.709	-30.770	-26.559	-26.050	-21.744	35.835	-22.177	-8191	255	
1180.178	1	1	0	0	0.24467	0.054768	0.085724	0.089123	0.091636	0.24203	0.34469	0.15522	0.24236	0.2235	0.12358	0.23005	0.26924	0.21455	0.26411	0.11334	-2.8667	-2.9562	-3.0417	-3.3333	-2.9021	-3.2333	-3.4313	-3.0771	-3.3125	-2.9062	-2.9792	-3.4271	-3.0375	-3.25	-3.2208	-2.9771	-31.900	302.596	44.149	17.991	289.665	267.767	296.550	237.677	30.902	237.794	42.462	232.099	28.038	276.569	110.041	284.096	0.00050096	0.00037404	0.00015135	1583.5	3.272e-06	4.4357e-06	1587.9	448.1	6.8797e-06	2.4829e-06	504.55	169.4	148.33	51.141	1.08e-05	63.108	0.00066666	0.00075939	0.00019038	1597.9	7.5213e-06	8.2632e-06	1607.6	454.34	7.6134e-06	8.1935e-06	515.07	173.38	151.85	52.502	7.2759e-06	64.577	92.464	28.618	12.199	-34.957	139.832	183.026	-34.965	-30.456	227.103	164.715	-30.861	-26.729	-26.098	-21.590	67.440	-22.795	-8191	255	
1180.274	1	1	0	0	0.13645	0.093558	0.069034	0.090476	0.095325	0.087713	0.082728	0.15587	0.17416	0.13847	0.1703	0.23957	0.10897	0.34803	0.17649	0.1291	-2.8375	-2.8875	-3.0812	-3.4375	-2.9667	-3.3271	-3.3187	-3.0583	-3.4583	-3.0896	-3.1104	-3.3917	-2.9104	-3.3	-3.2979	-2.9813	298.724	86.336	267.070	-45.478	240.119	298.523	154.387	265.361	164.061	311.203	190.147	174.074	5.931	261.193	285.354	68.809	0.00055411	0.00094269	0.0001621	1575.7	6.758e-06	1.9262e-06	1579.7	445.83	8.1853e-06	6.5753e-06	503.71	169.5	148	51.06	5.6336e-06	62.842	0.00070379	0.00072785	0.00018503	1592.9	7.8944e-06	7.8386e-06	1603.3	454.14	7.8389e-06	7.6641e-06	513.67	173.03	151.78	52.303	6.8821e-06	64.461	73.557	42.671	52.132	-34.896	103.653	305.273	-34.891	-30.403	156.840	37.631	-30.744	-26.638	-26.175	-21.755	114.617	-22.320	-8191	255	
1180.370	1	1	0	0	0.13016	0.083565	0.24412	0.13514	0.10888	0.30851	0.20945	0.14055	0.013058	0.059801	0.2736	0.11313	0.23399	0.076628	0.024493	0.24897	-2.7604	-2.9417	-2.9917	-3.3417	-2.9896	-3.1458	-3.3625	-3.1646	-3.0479	-2.9833	-2.9875	-3.3854	-2.9896	-3.1333	-3.3667	-3.0104	303.036	57.920	-14.755	270.919	182.028	6.437	250.962	242.543	288.870	117.140	14.025	305.315	86.687	235.460	-23.581	207.894	0.00044894	0.00079777	0.00030553	1574.2	2.4332e-06	1.0907e-06	1577.1	445.07	9.4045e-06	2.8035e-06	505.07	169.08	147.89	51.133	2.9578e-06	62.979	0.00071886	0.00067586	0.00017615	1594.9	8.0004e-06	7.4372e-06	1600.4	452.93	7.969e-06	7.2743e-06	512.56	172.98	151.56	52.265	6.7652e-06	64.382	64.928	52.106	33.698	-34.713	91.953	88.828	-35.036	-30.391	118.223	50.263	-30.802	-26.516	-26.260	-21.716	65.216	-22.372	-8191	255	
1180.466	1	1	0	0	0.16034	0.20437	0.12087	0.092038	0.11621	0.16413	0.13049	0.2655	0.22859	0.069961	0.058447	0.29747	0.27813	0.12866	0.16774	0.14956	-2.8208	-3.1146	-2.8792	-3.3354	-2.8812	-3.125	-3.5354	-2.9979	-3.2167	-3.2125	-2.8729	-3.2771	-3.075	-3.1063	-3.275	-3.2271	131.503	-6.721	124.943	259.009	280.453	-19.279	19.058	261.160	14.591	161.145	-13.012	272.147	26.025	-30.675	97.698	111.349	0.00038455	0.0011558	0.00012174	1564	7.435e-06	6.6394e-06	1579.2	444.45	1.0367e-05	6.7776e-06	503.7	169.48	147.93	50.826	8.1957e-06	62.363	0.00072236	0.00066383	0.00017485	1590.8	8.0373e-06	7.3145e-06	1600.6	453.26	8.0987e-06	7.2753e-06	512.78	173.39	151.64	52.175	7.0734e-06	64.398	61.977	34.972	36.874	-34.829	71.644	116.040	-34.978	-30.347	161.220	102.585	-31.068	-26.251	-26.061	-21.540	88.085	-22.199	-8191	255	
1180.587	1	1	0	0	0.11254	0.046893	0.10635	0.10527	0.047734	0.19398	0.43028	0.1721	0.13952	0.11417	0.15909	0.16101	0.059524	0.19257	0.18063	0.38374	-2.5833	-3.2	-2.8375	-3.4458	-3.0375	-3.0542	-3.3271	-3.0708	-3.2271	-3.2167	-2.925	-3.3937	-3.1979	-3.1521	-3.2479	-3.1	233.236	291.565	-7.632	91.455	-46.834	177.414	229.302	207.322	294.494	270.309	164.067	174.752	217.610	236.118	274.712	260.474	0.00038696	0.00034317	0.00019668	1575.3	8.372e-06	6.2656e-06	1577	445.12	4.0833e-06	1.0505e-05	502.88	168.4	147.42	50.649	4.9947e-06	62.496	0.00072764	0.00066517	0.00018281	1602.9	7.9585e-06	7.3438e-06	1601.7	453.65	7.8409e-06	7.3186e-06	512.77	173.05	151.14	51.988	7.3545e-06	64.248	75.966	46.036	94.781	-34.729	62.652	81.606	-35.025	-30.192	248.633	108.447	-30.680	-26.414	-26.046	-21.461	96.686	-22.095	-8191	255	
1180.681	1	1	0	0	0.096021	0.01059	0.12488	0.27702	0.15859	0.14315	0.25628	0.10959	0.14219	0.044003	0.13984	0.16278	0.19698	0.15929	0.26198	0.075777	-2.6167	-3.1104	-2.8396	-3.2	-3.2687	-2.8458	-3.4813	-3.2625	-3.2313	-3.2	-2.9354	-3.5417	-3.3271	-3.1667	-3.2479	-3.1688	254.211	245.734	14.164	239.466	246.769	64.336	-1.691	166.761	136.056	100.559	203.506	198.431	265.125	284.453	-2.785	14.433	0.00046455	0.00093805	8.5007e-05	1571.7	7.5669e-06	2.7402e-06	1581.4	445.12	3.6948e-06	4.9087e-06	500.85	168.08	147.24	50.462	9.9091e-06	62.14	0.00069095	0.00064715	0.00018812	1598.8	7.4898e-06	7.0081e-06	1600.7	452.96	7.3543e-06	6.8842e-06	511.47	172.48	150.59	51.732	7.5978e-06	63.972	83.531	44.384	84.638	-35.211	89.701	93.475	-34.963	-30.340	213.647	105.190	-31.047	-26.469	-26.365	-21.544	142.124	-22.096	-8191	255	
1180.777	1	1	0	0	0.16862	0.17744	0.16617	0.35503	0.31979	0.30027	0.39126	0.015547	0.068434	0.095923	0.10055	0.095454	0.18561	0.15344	0.16431	0.30846	-2.6125	-3.0917	-2.9979	-3.2396	-3.0333	-2.9417	-3.4396	-3.0083	-3.0354	-3.3479	-3.0479	-3.0458	-3.2771	-2.8625	-3.3187	-3.1479	121.730	274.873	-41.717	-15.904	177.479	275.020	236.410	-16.336	165.569	197.107	160.370	238.658	192.172	210.462	243.896	231.540	0.00054907	0.00020665	0.000338	1570.7	1.2949e-06	5.6607e-06	1574.6	441.95	8.4019e-07	1.8148e-06	500.69	167.71	146.27	50.137	8.2292e-06	62.168	0.00066416	0.00063433	0.00019997	1597.2	7.263e-06	7.0411e-06	1599.2	450.94	7.3218e-06	7.025e-06	512.41	171.87	149.83	51.46	8.1684e-06	63.732	69.913	302.666	62.581	-34.954	20.961	95.184	-34.986	-30.360	169.581	98.313	-30.881	-26.521	-26.204	-21.499	105.499	-22.319	-8191	255	
1180.873	1	1	0	0	0.26169	0.15308	0.047733	0.23976	0.061516	0.096328	0.17562	0.27959	0.18545	0.095679	0.10833	0.12252	0.38533	0.20217	0.045524	0.066668	-2.4979	-3.2938	-2.9542	-3.1521	-3.2125	-2.9562	-3.3271	-3.1208	-2.9792	-3.3625	-2.9604	-3.2687	-3.2792	-2.9271	-3.2021	-3.1	302.502	36.525	31.244	-33.387	175.888	196.462	178.567	297.693	191.493	101.703	32.188	117.768	287.646	-11.128	3.389	221.719	0.00043706	0.00082996	6.0974e-05	1558.6	2.9615e-06	4.6975e-06	1574.9	441.87	2.4635e-06	5.2812e-06	499.52	167.57	146.15	50.131	8.3747e-06	61.907	0.00066296	0.00066081	0.00021265	1588	7.2454e-06	7.5082e-06	1599.5	449.54	7.2305e-06	7.3991e-06	512.32	171.35	149.17	51.504	8.4069e-06	63.472	73.640	26.854	-2.637	-34.999	22.018	118.433	-34.947	-30.499	112.808	78.975	-30.724	-26.640	-26.243	-21.540	95.873	-22.049	-8191	255	
1180.945	1	1	0	0	0.16405	0.2058	0.14247	0.36357	0.26526	0.2113	0.2055	0.15426	0.099627	0.20362	0.15804	0.34085	0.16901	0.063187	0.089035	0.23689	-2.6521	-3.0812	-2.9146	-3.1792	-3.4417	-3.1396	-3.375	-3.1917	-2.9479	-3.2979	-3.0042	-3.1208	-3.3063	-2.9417	-3.1417	-3.3	12.745	111.263	103.094	265.803	53.354	301.473	259.005	52.042	237.873	170.990	-18.273	273.381	29.353	49.848	159.880	203.127	0.00048521	0.0010681	8.4224e-05	1563	8.741e-06	2.6508e-07	1574.5	442.29	2.464e-06	2.6225e-06	497.51	166.8	145.93	49.88	5.7173e-06	61.642	0.0006634	0.00070651	0.00021313	1586.2	7.1086e-06	8.0299e-06	1598.8	448.84	7.234e-06	8.008e-06	510.6	170.97	149.05	51.357	8.075e-06	63.196	85.557	67.260	57.805	-34.840	107.328	287.033	-34.972	-30.387	227.329	173.695	-30.631	-26.477	-26.036	-21.406	116.546	-22.379	-8191	255	
1181.066	1	1	0	0	0.08772	0.21175	0.16104	0.10456	0.19236	0.14054	0.23414	0.28049	0.051434	0.029373	0.20175	0.47836	0.2757	0.19454	0.17871	0.13888	-2.3229	-3.1667	-3.0792	-3.1125	-3.225	-3.0479	-3.4688	-3.2438	-3.05	-3.2604	-3.1667	-3.2667	-3.3042	-3.1667	-3.2125	-3.3604	-0.285	265.872	131.715	187.895	236.193	191.729	278.675	293.148	301.508	64.468	299.233	263.242	20.299	275.032	218.385	254.626	0.00042558	0.00030946	4.5695e-05	1570.9	7.5242e-06	7.2864e-06	1573.4	439.96	2.6429e-06	4.4371e-06	496.57	166.93	145.27	49.76	8.4406e-06	61.752	0.00065848	0.00075099	0.00020547	1587.6	7.1993e-06	8.3874e-06	1595.2	448.26	7.3184e-06	8.2606e-06	508.54	170.56	148.76	51.289	7.6317e-06	63.145	69.556	77.203	95.965	-34.895	111.903	110.341	-35.003	-30.477	287.979	124.342	-30.841	-26.643	-26.241	-21.490	53.737	-22.236	-8191	255	
1181.162	1	1	0	0	0.10354	0.023344	0.23485	0.15568	0.1551	0.20878	0.32714	0.19806	0.094358	0.27782	0.0039791	0.3239	0.25552	0.23894	0.22507	0.12608	-2.5354	-3.3063	-2.9354	-2.8354	-3.3229	-3.1292	-3.3333	-3.4542	-3.0438	-3.3896	-3.2875	-3.0104	-3.3521	-3.0687	-3.0479	-3.3312	1.268	44.083	162.920	258.637	202.865	105.346	223.398	228.651	-12.724	44.770	61.952	261.759	261.928	242.617	159.026	304.565	0.00043052	0.00074679	0.00016859	1569.5	5.8967e-06	4.4153e-06	1570.7	440.21	3.0045e-06	7.0182e-06	495.83	166.83	145.55	49.49	1.1617e-05	61.415	0.00067076	0.00076303	0.00019422	1582.5	7.5487e-06	8.3389e-06	1594.2	446.99	7.6892e-06	8.1808e-06	506.15	170.29	148.54	51.053	7.2953e-06	62.889	82.405	-21.830	-25.672	-35.269	102.641	115.287	-34.893	-30.022	70.363	82.402	-30.981	-26.584	-26.174	-21.569	131.063	-22.616	-8191	255	
1181.258	1	1	0	0	0.27895	0.20707	0.10651	0.35546	0.15333	0.16833	0.30147	0.21454	0.12358	0.11689	0.15463	0.21126	0.14664	0.30034	0.10899	0.098678	-2.4146	-3.1625	-3.1708	-2.9958	-3.1417	-2.8833	-3.1917	-3.3521	-2.9854	-3.2104	-3.2375	-3.0417	-3.2417	-2.9479	-3.0125	-3.3937	1.537	54.735	116.781	246.585	308.500	33.542	274.724	309.448	227.941	5.350	273.747	202.878	306.815	-44.606	105.586	231.809	0.00053166	0.00040699	0.00033678	1556.3	1.7823e-06	5.3425e-06	1566.8	437.78	7.8555e-06	4.63e-07	497.65	166.34	145.19	49.707	7.41e-06	61.019	0.00071158	0.00073724	0.0001846	1580.4	7.9028e-06	7.9933e-06	1589	445.68	8.0365e-06	7.7618e-06	506.04	169.93	148.49	51.07	7.1767e-06	62.714	71.617	68.508	26.051	-35.014	77.678	99.299	-34.866	-30.512	123.805	182.267	-30.788	-26.685	-26.188	-21.624	75.017	-22.425	-8191	255	
1181.354	1	1	0	0	0.11082	0.092677	0.2029	0.25035	0.12745	0.12143	0.16022	0.1036	0.098061	0.46033	0.27044	0.17326	0.25274	0.19484	0.26045	0.22866	-2.4792	-2.9667	-3.2375	-3.0167	-3.1854	-3.0125	-3.2313	-3.475	-2.9375	-3.2208	-3.425	-2.9938	-3.1167	-3.275	-2.9229	-3.2958	-10.069	197.070	-35.354	230.919	290.482	35.906	246.014	238.315	232.744	261.229	208.435	9.110	298.230	-11.667	78.505	-19.482	0.00048677	0.00015955	0.00014905	1561.3	4.8911e-06	5.7003e-06	1565.4	438.24	4.1459e-06	5.2381e-06	497.48	165.68	145.23	49.728	3.4664e-06	61.176	0.00073609	0.00070271	0.00017919	1582.9	8.2315e-06	7.5272e-06	1587.7	446.31	8.2362e-06	7.5539e-06	504.59	169.68	148.66	51.002	6.9423e-06	62.826	71.904	43.277	13.255	-35.015	36.452	137.677	-34.937	-30.451	65.730	91.307	-30.652	-26.405	-26.095	-21.689	22.071	-22.221	-8191	255	
1181.475	1	1	0	0	0.071233	0.091653	0.040477	0.074945	0.1677	0.028497	0.24239	0.30656	0.33136	0.23964	0.088162	0.15617	0.1302	0.15267	0.17641	0.259	-2.7375	-3.1625	-3.0875	-3.05	-3.2854	-3.0125	-3.125	-3.4917	-2.8792	-3.0542	-3.2979	-3.0458	-3.2375	-3.2604	-2.8979	-3.3146	101.802	270.988	37.533	111.343	-34.849	223.854	-40.219	273.815	311.630	138.951	91.590	-41.050	240.861	305.067	-16.540	285.891	0.00052961	0.0011838	0.00012401	1561.1	8.7618e-06	5.4325e-06	1570	437.02	2.7422e-06	4.6592e-06	494.12	165.78	144.3	49.699	7.6656e-07	61.301	0.00072673	0.00067474	0.00017494	1585.6	8.0475e-06	7.181e-06	1587.7	446.46	7.9705e-06	7.2471e-06	503.66	169.94	148.08	50.911	7.007e-06	62.986	81.511	46.396	41.990	-34.991	63.663	116.018	-34.992	-30.251	10.541	60.211	-30.797	-26.487	-26.114	-21.580	3.191	-22.126	-8191	255	
1181.547	1	1	0	0	0.081598	0.19089	0.22069	0.34333	0.097494	0.27975	0.32486	0.22705	0.219	0.02604	0.042443	0.39599	0.070823	0.15144	0.15307	0.12237	-2.7625	-3.0479	-3.1708	-2.9979	-3.1229	-3.3229	-3.2604	-3.5062	-3.0917	-2.9208	-3.2958	-3.0083	-3.2875	-3.2542	-2.9125	-3.2583	-44.576	225.615	93.257	-45.105	57.240	14.699	284.141	244.606	241.587	264.713	269.260	301.241	246.585	304.841	191.946	-23.701	0.0004252	0.00048487	0.00021171	1554.2	3.1118e-06	2.6213e-06	1569.8	436.76	5.8977e-07	7.6996e-06	498.26	166.06	144.11	49.533	6.7246e-06	61.268	0.00070702	0.00066662	0.00017861	1586.7	8.0059e-06	7.1073e-06	1591.2	446.37	7.775e-06	7.2601e-06	505.66	170.09	148.02	50.841	7.4691e-06	63.026	54.016	51.637	87.349	-34.860	72.421	-42.502	-34.784	-30.378	240.049	96.682	-31.209	-26.415	-26.165	-21.475	89.275	-22.327	-8191	255	
1181.667	1	1	0	0	0.026645	0.086878	0.19677	0.203	0.16593	0.33092	0.22239	0.29516	0.091372	0.2523	0.18838	0.20575	0.21293	0.059103	0.049218	0.24936	-2.6708	-3.0354	-3.3083	-3.0917	-3.2854	-3.3438	-3.0792	-3.3333	-3.0333	-2.8896	-3.3292	-3.0854	-3.1917	-3.4688	-2.9313	-3.2333	-21.303	130.511	270.068	255.326	115.531	233.476	236.768	-42.190	-40.187	88.087	275.067	300.950	66.436	214.155	138.747	264.500	0.00039869	0.00083496	0.00032367	1557.4	5.4759e-06	2.9756e-06	1568.8	436.98	3.845e-06	6.8253e-06	495.68	165.22	145.2	49.47	8.0571e-06	61.174	0.00068602	0.00066267	0.00018891	1586.1	7.5486e-06	7.0247e-06	1588.3	445.82	7.3571e-06	6.9632e-06	504.88	169.41	148.03	50.681	7.594e-06	62.929	78.286	84.699	50.135	-34.980	100.358	144.994	-34.941	-30.430	78.895	-13.124	-31.261	-26.589	-26.126	-21.765	122.892	-22.296	-8191	255	
1181.763	1	1	0	0	0.12254	0.2245	0.18584	0.079525	0.16397	0.065134	0.28489	0.23354	0.15986	0.03974	0.17877	0.30998	0.094976	0.080583	0.039111	0.18207	-2.6292	-2.8229	-3.1646	-3.1125	-3.0917	-3.2271	-3.1813	-3.3958	-3.1729	-3.0396	-3.3979	-3.2604	-3.1771	-3.35	-2.8083	-3.2979	105.875	-30.626	-42.223	216.963	8.097	280.886	288.753	299.934	111.032	16.315	-21.968	252.369	297.533	208.596	-17.586	167.249	0.00047902	0.00076066	0.00025119	1559.8	6.5475e-06	6.2774e-06	1574.7	436.72	4.6503e-06	1.0727e-05	493.96	165.14	144.95	49.378	8.602e-07	61.018	0.00064777	0.00062701	0.00019638	1585.5	7.2964e-06	6.9962e-06	1591.8	446.09	7.491e-06	7.4356e-06	508.29	169.96	148.1	50.79	9.028e-06	62.832	66.405	27.682	86.730	-34.726	113.174	100.054	-34.917	-30.355	138.157	76.344	-31.132	-26.611	-26.168	-21.644	45.355	-22.467	-8191	255	
1181.858	1	1	0	0	0.13264	0.18455	0.022512	0.16024	0.083232	0.2257	0.23928	0.35129	0.16401	0.22506	0.18081	0.12774	0.11149	0.064208	0.077749	0.31278	-2.9896	-2.9375	-3.2521	-3.1583	-2.8479	-3.4021	-3.1646	-3.1729	-3.3958	-2.9729	-3.2938	-3.0625	-3.0479	-3.3479	-3.0667	-3.1521	85.183	-2.506	159.278	-16.541	193.063	106.839	257.745	252.053	304.820	-30.889	282.316	134.613	247.359	269.837	149.019	260.588	0.0005471	0.00082057	0.00018095	1566.8	2.7634e-06	7.6361e-08	1572.7	438.77	8.0762e-06	3.5641e-06	496.74	165.42	144.74	49.344	6.712e-06	60.721	0.00072326	0.00074496	0.00023474	1589.4	8.2199e-06	8.1703e-06	1598.8	446.83	8.1186e-06	8.4476e-06	511.15	170.16	148.13	50.877	9.5588e-06	62.625	78.760	41.263	83.258	-34.985	164.561	-46.593	-35.071	-30.454	155.203	207.229	-30.684	-26.366	-26.000	-21.745	136.737	-22.134	-8191	255	
1181.954	1	1	0	0	0.31694	0.030795	0.17415	0.30033	0.25159	0.19916	0.27985	0.049201	0.29387	0.088874	0.10096	0.26178	0.37544	0.18018	0.22696	0.2744	-2.85	-2.8542	-3.2771	-3.0771	-2.8937	-3.4021	-3.1917	-3.2604	-3.1854	-3.1312	-3.2396	-3.2146	-3.1	-3.4188	-3.0208	-3.1521	99.877	-20.297	70.405	303.400	28.294	169.628	235.617	135.721	303.586	271.376	240.384	256.414	263.413	164.807	15.092	-20.313	0.00049498	0.00098448	5.312e-05	1564.3	6.4419e-06	2.1332e-06	1575.6	437.37	6.909e-06	7.449e-06	493.45	164.49	142.68	48.864	1.2652e-05	60.268	0.00073025	0.00081752	0.00024381	1595.3	8.2765e-06	8.9529e-06	1599	446.11	7.9099e-06	8.9833e-06	508.4	168.88	146.85	50.294	8.6061e-06	61.903	86.404	95.930	264.341	-35.149	82.518	162.409	-34.905	-30.419	158.921	149.700	-30.955	-26.560	-26.232	-21.399	79.761	-22.282	-8191	255	
1182.074	1	1	0	0	0.21906	0.30998	0.17131	0.12282	0.1091	0.12773	0.31393	0.14924	0.17973	0.048869	0.063174	0.025118	0.32507	0.15298	0.21772	0.19787	-2.9521	-2.8917	-3.3063	-3.1125	-2.9792	-3.3812	-3.3458	-3.0917	-3.1625	-2.8667	-3.2417	-3.4854	-3.0938	-3.3125	-3.0458	-3.1875	66.841	137.234	-42.354	246.945	49.946	-41.214	268.260	266.063	-44.553	-27.551	281.879	46.496	307.257	288.757	132.277	261.340	0.00036931	0.00075682	0.00023431	1558.4	6.4707e-06	7.5189e-06	1564.5	435.79	3.6708e-06	1.0129e-05	490.25	163.82	142.3	48.326	5.2013e-06	59.815	0.00067294	0.00077224	0.00021114	1581.1	7.2866e-06	8.1024e-06	1587.1	442.66	6.9858e-06	7.9633e-06	500.11	167.57	145.54	49.77	7.1496e-06	61.322	68.310	90.748	42.861	-34.731	85.532	103.498	-35.107	-30.205	182.391	131.053	-30.610	-26.695	-26.153	-21.594	78.328	-22.159	-8191	255	
1182.146	1	1	0	0	0.050661	0.072646	0.12145	0.21461	0.21395	0.13665	0.11002	0.16121	0.011707	0.16504	0.22183	0.17725	0.4083	0.10429	0.35701	0.17613	-2.85	-3.0875	-3.0896	-3.2583	-3.0542	-3.3146	-3.2167	-3.1146	-3.4	-3.0792	-3.2646	-3.4479	-3.0292	-3.3875	-3.125	-2.9083	73.862	176.215	4.659	308.878	289.752	223.338	229.960	302.408	257.318	61.912	266.963	294.978	242.573	280.186	30.895	201.556	0.00047884	0.00075323	5.4275e-05	1550.8	4.1964e-06	6.5428e-06	1547	431.63	6.7836e-06	6.4431e-06	482.42	162.55	140.21	47.951	7.1929e-06	59.002	0.00061301	0.00069588	0.00017859	1563.5	6.7647e-06	7.4292e-06	1573.6	437.14	6.6035e-06	7.2042e-06	491.18	165.47	143.73	49.254	6.1644e-06	60.571	79.195	17.000	-4.373	-34.944	129.100	105.559	-34.955	-30.408	121.646	139.952	-31.386	-26.660	-26.095	-21.596	76.694	-22.120	-8191	255	
1182.242	1	1	0	0	0.14292	0.22985	0.099735	0.31955	0.17476	0.11798	0.176	0.21899	0.16564	0.17262	0.35576	0.078526	0.19299	0.20517	0.18687	0.14297	-2.9583	-2.9646	-2.8812	-3.2687	-3.0021	-3.1729	-3.4062	-2.9146	-3.2583	-2.9979	-2.9792	-3.4083	-3.0708	-3.1708	-3.1979	-3.0104	93.250	207.433	162.727	226.620	-44.539	233.529	219.187	199.860	51.595	107.723	227.986	143.239	300.188	-33.167	181.162	301.714	0.00052514	0.00049785	0.00014113	1532.8	6.4874e-06	3.4082e-06	1535.2	425.58	5.428e-06	8.9263e-06	480.05	161.03	139.33	47.743	6.1687e-06	58.846	0.0005898	0.00061152	0.00015612	1544.1	6.3053e-06	6.3483e-06	1556.2	431.57	6.2199e-06	6.1687e-06	486.28	163.5	142.4	48.843	5.5877e-06	59.993	78.744	16.281	71.763	-34.849	71.645	110.669	-35.085	-30.476	55.030	111.930	-31.010	-26.418	-26.040	-21.436	104.859	-22.088	-8191	255	
1182.363	1	1	0	0	0.23963	0.10892	0.20399	0.29636	0.21203	0.088663	0.077857	0.043336	0.15313	0.12951	0.05951	0.46441	0.068346	0.31639	0.090757	0.065582	-2.7979	-2.8354	-3.0083	-3.3354	-2.9333	-3.1813	-3.4542	-3.1417	-3.5167	-3.0167	-2.8833	-3.4958	-2.8563	-3.1271	-3.2083	-2.9396	159.786	96.076	99.811	-47.071	84.056	209.849	218.090	300.565	146.213	252.841	157.900	309.141	222.230	270.599	281.722	-36.956	0.00051841	0.00099092	0.00013175	1522	2.1507e-06	4.7509e-06	1531.6	422.95	8.8326e-06	3.1654e-06	479.45	159.71	139.27	47.596	1.5188e-06	58.525	0.00057909	0.00054864	0.0001438	1533.5	6.3221e-06	5.9165e-06	1550.8	428.9	6.2012e-06	5.6793e-06	483.03	162.73	142	48.563	5.2394e-06	59.938	66.575	27.340	7.767	-34.589	163.506	107.165	-35.035	-30.251	97.889	46.562	-30.982	-26.466	-25.934	-21.537	106.074	-22.270	-8191	255	
1182.459	1	1	0	0	0.18016	0.050093	0.18252	0.12453	0.065177	0.092236	0.19498	0.049696	0.17011	0.23192	0.10185	0.11131	0.14487	0.21475	0.081443	0.22808	-2.7854	-3.0896	-3.0125	-3.3292	-2.9521	-3.1667	-3.3458	-3.0521	-3.1833	-3.2167	-3.1229	-3.4938	-3.0146	-3.0583	-3.3896	-3.1292	148.538	154.957	193.475	-17.343	-39.360	173.042	207.877	216.823	14.167	273.054	96.443	68.403	258.484	211.921	296.116	256.608	0.0004475	0.00027677	0.00018135	1523.7	8.7982e-06	3.9395e-06	1529	422.7	8.8508e-06	6.7622e-06	479.11	159.73	138.66	47.493	2.3583e-06	58.387	0.00056331	0.00050683	0.00013367	1534.8	6.103e-06	5.5522e-06	1545.8	427.79	6.0503e-06	5.4061e-06	481.89	162.73	141.47	48.503	5.1108e-06	59.757	89.266	155.676	15.303	-34.575	67.510	77.448	-34.927	-30.407	75.009	86.605	-30.822	-26.516	-25.881	-21.406	102.275	-22.136	-8191	255	
1182.555	1	1	0	0	0.050877	0.2686	0.026667	0.099808	0.044067	0.059122	0.17617	0.32881	0.16333	0.17044	0.07697	0.086644	0.028548	0.11263	0.27443	0.19529	-2.9083	-3.0563	-2.875	-3.3708	-2.95	-2.9813	-3.3375	-3.1021	-3.0938	-3.1813	-3.0458	-3.4104	-3.3667	-3.0583	-3.2167	-3.2146	32.129	215.522	70.060	206.881	284.005	111.979	197.625	250.713	101.060	85.019	23.232	108.693	-34.391	183.351	-25.516	1.151	0.00050775	0.00029991	0.00013147	1515.5	7.296e-06	9.0708e-06	1519.4	421.06	5.5895e-06	2.3531e-06	473.55	158.18	138.46	47.599	8.9167e-06	58.505	0.00053401	0.00047992	0.00012984	1526.4	5.7506e-06	5.1476e-06	1538.9	426.52	5.567e-06	5.0238e-06	478.22	161.85	140.72	48.434	5.001e-06	59.708	71.873	-25.167	36.616	-34.580	99.231	97.616	-34.924	-30.360	49.493	45.395	-30.538	-26.515	-26.051	-21.394	123.571	-22.109	-8191	255	
1182.650	1	1	0	0	0.12826	0.11152	0.12661	0.076793	0.21657	0.1491	0.33267	0.28834	0.10389	0.075563	0.12899	0.047427	0.14186	0.13189	0.11255	0.3325	-2.5812	-3.0833	-3.0083	-3.3229	-3.1854	-2.8417	-3.3729	-3.1292	-3.0521	-3.2646	-2.9292	-3.4	-3.0292	-2.7979	-3.4104	-2.9854	309.429	-40.121	-34.633	-35.852	302.338	48.991	216.377	262.897	9.985	-2.416	-24.500	80.643	114.895	295.278	151.998	222.035	0.00039261	0.0010055	4.909e-05	1522	3.5245e-06	3.3418e-06	1522.7	420.34	4.9118e-06	3.3731e-06	478.38	159.72	138.45	47.331	9.2794e-06	58.269	0.00049394	0.0004556	0.00013246	1528.7	5.4066e-06	5.0399e-06	1539.8	426.11	5.3895e-06	5.0157e-06	481.54	162.2	140.71	48.286	5.6424e-06	59.681	66.545	86.993	175.597	-34.914	83.009	140.462	-35.173	-30.132	50.174	85.525	-30.994	-26.457	-26.129	-21.392	93.373	-22.340	-8191	255	
1182.770	1	1	0	0	0.16671	0.11661	0.098292	0.2929	0.12671	0.3509	0.13783	0.088861	0.14909	0.12477	0.041494	0.25862	0.32469	0.14992	0.21121	0.24252	-2.7083	-3.1833	-2.7021	-3.4667	-2.9792	-2.9042	-3.3917	-3.0979	-2.9125	-3.2979	-2.8438	-3.1729	-3.2521	-3.0396	-3.1458	-3.0708	218.479	11.564	59.583	311.023	250.981	-20.491	202.514	297.427	200.984	-15.762	12.035	-41.347	298.817	145.614	8.312	87.614	0.00056915	0.00067672	0.00019878	1518.4	1.277e-06	3.1772e-06	1526.5	419.27	9.5512e-07	2.2181e-06	476.59	158.35	138.13	47.115	6.5425e-06	58.377	0.00049702	0.00045925	0.00014632	1530.7	5.3428e-06	5.1132e-06	1544.5	425.79	5.2274e-06	4.8992e-06	480.89	161.79	140.56	48.182	5.6287e-06	59.625	62.253	44.153	67.517	-34.851	29.433	89.413	-34.963	-30.233	138.692	97.224	-30.942	-26.470	-26.039	-21.638	147.972	-21.914	-8191	255	
1182.842	1	1	0	0	0.035734	0.20473	0.08182	0.048693	0.089711	0.17134	0.08201	0.09093	0.25293	0.058442	0.25949	0.24788	0.11332	0.16526	0.092445	0.15393	-2.5458	-3.125	-2.8833	-3.2771	-3.3333	-2.9396	-3.3479	-3.0042	-3.0042	-3.3875	-3.0396	-3.1125	-3.2396	-3.1729	-3.3792	-3.25	91.202	139.702	240.616	21.507	273.853	256.821	302.945	240.194	195.522	286.066	161.769	236.094	64.326	-40.010	124.838	-36.329	0.00031169	0.00061028	0.00022173	1521.6	3.6587e-06	5.9363e-06	1520.7	417.93	6.806e-06	4.72e-06	474.74	159.22	137.67	47.432	3.7572e-06	58.559	0.00047033	0.00045133	0.00014575	1524	4.8911e-06	5.0468e-06	1539.8	424.57	5.0478e-06	5.0023e-06	480.68	161.78	140.03	48.39	5.8574e-06	59.565	76.968	48.462	46.406	-34.900	89.582	130.578	-34.850	-30.129	89.226	85.437	-30.514	-26.551	-26.107	-21.673	59.636	-22.255	-8191	255	
1182.938	1	1	0	0	0.1409	0.078155	0.17254	0.16358	0.081024	0.12581	0.23746	0.34146	0.078458	0.071527	0.05605	0.15203	0.099102	0.11477	0.1186	0.10495	-2.6271	-3.2417	-3.0438	-3.1979	-3.3146	-2.9292	-3.45	-3.4042	-2.9854	-3.3187	-3.0104	-3.1583	-3.3854	-3.1021	-3.2583	-3.325	155.148	22.108	200.648	-13.749	155.237	134.954	240.647	277.534	170.293	-19.307	227.908	228.573	26.379	247.262	132.664	-33.512	0.00038688	0.00063391	0.00022673	1519.9	1.926e-06	1.5788e-06	1532.3	420.46	5.3715e-06	6.1062e-06	477	158.59	138.15	47.525	5.8752e-06	58.457	0.00047063	0.00048875	0.00015103	1522.5	4.9542e-06	5.638e-06	1545.9	426.02	5.2284e-06	5.6462e-06	482.79	161.66	140.51	48.457	5.9237e-06	59.662	77.214	106.261	54.375	-34.843	27.101	128.866	-35.077	-30.304	74.406	132.445	-30.525	-26.669	-26.064	-21.520	122.128	-22.079	-8191	255	
1183.034	1	1	0	0	0.2897	0.1296	0.13919	0.28071	0.22288	0.079943	0.30632	0.10926	0.30382	0.1766	0.24667	0.31563	0.19586	0.17011	0.21349	0.053205	-2.6896	-3.1333	-3.0333	-3.1271	-3.2708	-2.9771	-3.3792	-3.3312	-3.0375	-3.3396	-2.9813	-3.2062	-3.4646	-3.0187	-3.1875	-3.3646	235.531	84.079	-13.873	16.074	44.433	114.159	271.663	177.411	139.127	199.180	-32.823	238.174	-21.686	305.536	-19.363	283.203	0.00050266	0.00038216	0.00012188	1516.9	9.0628e-07	2.3628e-06	1526.5	419.68	8.0194e-06	1.9107e-07	476.57	158.61	137.25	47.377	5.9937e-06	58.228	0.00048082	0.00052766	0.00014631	1525.8	5.0915e-06	5.7477e-06	1543.7	425.3	5.242e-06	5.8876e-06	480.53	161.32	140.28	48.444	5.6422e-06	59.564	67.067	46.821	18.184	-34.761	12.257	225.664	-35.001	-30.259	136.225	173.102	-30.878	-26.559	-25.978	-21.358	58.121	-22.327	-8191	255	
1183.155	1	1	0	0	0.092269	0.1426	0.1671	0.10072	0.097832	0.097806	0.1516	0.15504	0.044681	0.12309	0.040591	0.060503	0.27747	0.15541	0.17769	0.24735	-2.5083	-3.2375	-2.9938	-2.9938	-3.3438	-2.8542	-3.3646	-3.4396	-2.9146	-3.0938	-3.0354	-3.0625	-3.275	-2.9208	-3.225	-3.4583	221.424	81.307	57.152	215.211	67.235	52.351	-42.402	259.505	237.161	43.473	76.228	310.923	219.333	230.699	68.995	265.041	0.00039669	0.00085134	0.00025835	1517.6	2.6935e-06	5.2184e-06	1522.9	419.9	1.0347e-05	7.4663e-06	478.42	159.01	137.67	47.364	6.2849e-06	58.184	0.00049775	0.00055666	0.00014276	1521.6	5.2916e-06	6.0147e-06	1540.7	425.41	5.5761e-06	6.0927e-06	480.83	161.52	140.48	48.493	5.4638e-06	59.649	73.030	38.344	5.065	-34.816	129.570	129.742	-35.169	-30.320	152.115	48.396	-30.599	-26.401	-26.174	-21.471	124.519	-22.243	-8191	255	
1183.251	1	1	0	0	0.17223	0.2281	0.16336	0.22073	0.1326	0.089408	0.36249	0.24796	0.27536	0.18607	0.046829	0.15524	0.3528	0.2055	0.155	0.051747	-2.6396	-3.2708	-3.1104	-3.0438	-3.3438	-2.9688	-3.1542	-3.4042	-2.9521	-3.1979	-3.2938	-3.125	-3.2438	-2.9333	-2.9125	-3.2938	297.806	194.842	225.123	182.173	14.645	271.849	275.695	164.171	179.516	255.880	299.499	2.268	133.705	49.874	156.814	123.856	0.00041439	0.00050831	0.00035479	1518.7	9.384e-06	8.1749e-06	1520.7	420.38	7.1635e-06	4.6287e-06	477.45	158.18	137.78	47.066	5.4192e-06	58.11	0.00052227	0.0005446	0.00013571	1521.7	5.7606e-06	5.9394e-06	1539.3	424.34	5.8718e-06	5.8248e-06	480.12	160.8	140.64	48.318	5.1456e-06	59.447	67.899	78.693	31.758	-35.131	89.204	52.676	-34.845	-30.475	123.962	123.288	-30.863	-26.536	-26.060	-21.231	61.944	-22.300	-8191	255	
1183.347	1	1	0	0	0.26817	0.12624	0.034755	0.28763	0.14582	0.21483	0.15161	0.1818	0.06195	0.027532	0.098556	0.32047	0.1836	0.35413	0.2184	0.41727	-2.4688	-3.1479	-3.1042	-2.9667	-3.2521	-2.9854	-3.1646	-3.525	-3.0417	-3.0563	-3.2396	-2.9667	-3.3771	-3.0917	-2.7604	-3.3146	-21.421	166.153	241.017	28.330	204.823	218.558	265.894	182.750	44.865	261.884	-26.931	286.051	263.867	-33.196	202.457	252.539	0.00038178	0.00080259	6.2572e-06	1505.4	4.8011e-06	5.5202e-06	1517	417.64	3.8973e-06	3.8729e-06	471.48	157.52	137.84	47.266	7.9149e-06	58.593	0.00052847	0.00049376	0.00012519	1513.8	5.6416e-06	5.2211e-06	1531.5	422.29	5.6317e-06	5.1833e-06	474.95	160.23	140.19	48.364	4.9551e-06	59.653	64.685	13.751	49.363	-34.767	60.059	56.927	-35.019	-30.255	86.667	118.325	-30.419	-26.432	-26.034	-21.651	71.510	-22.116	-8191	255	
1183.443	1	1	0	0	0.08968	0.096841	0.022698	0.069878	0.073026	0.1255	0.19498	0.25283	0.067832	0.025488	0.20384	0.14034	0.20805	0.076816	0.10924	0.33347	-2.4188	-2.9979	-3.3271	-3.1542	-3.2042	-3.1771	-3.2458	-3.5333	-2.8667	-3.0771	-3.3875	-2.8896	-3.2833	-3.2042	-2.8854	-3.4562	22.793	131.062	245.683	301.701	32.392	222.620	32.947	256.928	43.712	291.129	-15.135	271.844	-46.298	47.581	-35.661	143.148	0.0003466	0.00081056	9.7194e-05	1496	5.4677e-06	3.8473e-06	1516.1	419.08	7.8364e-06	4.2483e-06	473.54	158.09	138.03	47.35	1.3551e-06	58.38	0.00052644	0.00048308	0.00012565	1513.3	5.9231e-06	5.2259e-06	1532.2	424.14	6.0028e-06	5.4008e-06	476.9	160.7	140.46	48.416	5.2074e-06	59.861	72.538	36.389	14.817	-35.171	49.773	99.336	-34.878	-30.202	85.185	90.577	-31.206	-26.502	-26.179	-21.521	-21.648	-22.034	-8191	255	
1183.539	1	1	0	0	0.16249	0.16492	0.18101	0.11454	0.14407	0.12348	0.063113	0.31826	0.20586	0.15713	0.13773	0.095825	0.16112	0.25797	0.094225	0.27019	-2.5542	-3.0042	-3.1688	-3.0062	-3.0812	-3.0604	-3.1312	-3.4	-2.9792	-3.0167	-3.1542	-3.075	-3.2562	-3.3396	-2.8625	-3.3896	-16.519	170.299	280.517	235.923	77.353	-10.672	278.413	241.276	308.582	38.682	-38.917	287.852	285.315	4.420	0.491	250.651	0.00034494	0.00076693	0.00017627	1505.3	3.4469e-06	3.9979e-06	1513.8	418.14	3.2756e-06	7.4985e-06	473.56	157.86	138.52	47.64	5.1277e-06	58.977	0.00055069	0.00050421	0.00013188	1522.2	5.8988e-06	5.3963e-06	1535.5	424.92	5.9379e-06	5.3546e-06	478.59	161.13	140.9	48.642	5.3837e-06	60.281	89.119	11.565	58.489	-35.013	36.169	70.277	-34.874	-30.356	60.200	128.533	-30.790	-26.373	-25.898	-21.502	82.662	-22.452	-8191	255	
1183.636	1	1	0	0	0.22761	0.10502	0.20811	0.14022	0.056311	0.038835	0.10771	0.12201	0.18397	0.1888	0.10811	0.15715	0.048857	0.11216	0.21802	0.13464	-2.6021	-3.0479	-3.1792	-2.85	-3.1021	-3.1375	-3.1813	-3.3354	-3.2125	-2.9625	-3.2771	-2.8833	-3.1417	-3.3854	-2.9583	-3.4083	71.870	43.197	300.228	-8.303	187.790	217.902	-6.014	266.498	126.396	192.277	266.605	-18.479	-15.785	37.814	63.055	233.260	0.00040066	0.00091384	0.00014159	1510.8	7.7082e-06	6.1049e-06	1517.5	417.4	2.1091e-06	6.3565e-06	475.55	157.43	137.98	47.698	4.6714e-06	59.017	0.00052366	0.00049281	0.00013717	1525.1	5.7143e-06	5.2986e-06	1534.8	425.26	5.6984e-06	5.3401e-06	480.47	161.42	140.97	48.791	5.8396e-06	60.509	85.425	12.333	24.962	-34.955	74.284	93.457	-35.095	-30.283	-21.826	97.795	-30.724	-26.263	-25.895	-21.572	26.386	-22.260	-8191	255	
1183.754	1	1	0	0	0.17666	0.23644	0.2053	0.11247	0.31675	0.15486	0.1382	0.24066	0.19389	0.32759	0.12412	0.0824	0.11418	0.24512	0.063068	0.062688	-2.8083	-2.9771	-3.3312	-3.2	-3.0354	-3.2542	-3.0687	-3.1917	-3.0792	-3.1229	-3.4938	-3.2333	-3.1833	-3.3521	-2.8854	-3.275	68.424	265.952	105.529	-41.600	134.518	51.365	296.022	35.466	110.139	248.746	177.212	-29.556	99.115	265.419	304.478	-37.220	0.00045264	0.0012434	0.00022324	1514.7	7.1904e-06	4.3865e-06	1529.3	420.74	7.0229e-06	3.2866e-06	481.42	159.1	139.58	48.114	4.8335e-06	59.44	0.00051933	0.00050244	0.00014971	1532.4	5.7304e-06	5.3791e-06	1545.5	427.6	5.7434e-06	5.5673e-06	486	162.24	141.85	49.109	6.5448e-06	60.692	63.913	46.228	55.729	-34.770	58.804	101.766	-35.051	-30.225	133.118	112.775	-30.860	-26.424	-26.272	-21.674	131.571	-21.905	-8191	255	
1183.851	1	1	0	0	0.16412	0.18653	0.13518	0.046955	0.12678	0.14459	0.22903	0.14571	0.21886	0.13986	0.056223	0.18718	0.039113	0.16128	0.12817	0.045451	-2.8937	-2.8667	-3.1104	-3.0042	-3.0667	-3.3917	-3.2104	-3.2458	-3.1042	-3	-3.45	-3.3187	-3.0042	-3.25	-2.9396	-3.1271	213.480	184.665	227.791	10.693	-19.299	99.535	256.254	203.939	36.686	23.918	144.562	256.700	7.484	207.803	147.286	75.231	0.00042742	0.00067683	0.00019575	1525.7	7.2083e-06	5.346e-06	1529.1	421.44	5.9473e-06	4.5754e-06	481.45	158.61	139.6	47.744	5.4577e-06	59.453	0.00052882	0.00052119	0.00016399	1540.5	5.6562e-06	5.6382e-06	1551.2	428.79	5.5632e-06	5.5932e-06	486.73	162	141.84	49.027	6.2745e-06	60.591	77.059	47.165	63.553	-34.900	92.952	109.848	-34.989	-30.505	73.418	145.787	-30.602	-26.287	-25.923	-21.675	135.057	-22.103	-8191	255	
1183.947	1	1	0	0	0.32879	0.058094	0.066343	0.068949	0.22299	0.066561	0.34821	0.19246	0.039044	0.09795	0.23615	0.37681	0.096046	0.22158	0.16376	0.13659	-2.8083	-3.0021	-3.0479	-3.0542	-2.8771	-3.3792	-3.0375	-3.1771	-3.2333	-2.7938	-3.3833	-3.3125	-3.1708	-3.3896	-2.9646	-3.2875	257.411	70.291	32.629	275.180	308.268	288.073	269.951	306.561	247.375	67.820	292.708	178.974	145.075	-10.133	251.132	207.990	0.00035662	0.00042779	0.00012912	1518.6	6.0574e-06	6.4542e-06	1519.4	420.5	6.2445e-06	7.2232e-06	477.27	158.24	138.46	48.069	9.9122e-06	58.733	0.00049218	0.00051411	0.00015522	1528.3	5.2446e-06	5.5894e-06	1542.4	426.99	5.1528e-06	5.7366e-06	483.61	161.55	141.25	49.14	6.0958e-06	60.457	61.641	54.574	44.299	-35.138	73.726	109.054	-35.134	-30.261	72.951	88.111	-30.810	-26.511	-26.259	-21.571	76.054	-22.259	-8191	255	
1184.067	1	1	0	0	0.27726	0.12308	0.092193	0.023136	0.13494	0.14783	0.23808	0.17551	0.11439	0.14642	0.16109	0.19323	0.24021	0.091369	0.22879	0.27547	-2.8604	-2.9583	-3.2083	-3.1188	-2.7875	-3.4	-3.1771	-3.1146	-3.3167	-2.9938	-3.2708	-3.25	-2.8583	-3.2792	-2.9604	-2.9313	137.455	-3.141	38.197	-22.866	-33.917	-2.109	247.827	254.819	309.023	246.004	-46.585	235.318	289.356	238.794	252.418	310.153	0.00039275	0.00050915	0.00020235	1515.6	4.5179e-06	5.7415e-06	1517.1	420.34	5.264e-06	4.5278e-06	477.98	158.35	138.67	48.061	8.1211e-06	59.226	0.00049502	0.00056795	0.00015988	1528.3	5.6212e-06	6.4153e-06	1544.4	427.09	5.6104e-06	6.4121e-06	483.99	161.66	141.59	49.195	6.1225e-06	60.507	73.884	-14.739	33.460	-34.599	135.350	140.587	-35.038	-30.238	58.781	87.611	-30.464	-26.690	-26.039	-21.523	91.763	-22.366	-8191	255	
1184.139	1	1	0	0	0.08633	0.12845	0.069928	0.29104	0.098266	0.24111	0.16804	0.16393	0.27237	0.1336	0.43893	0.13815	0.081053	0.16558	0.24181	0.19731	-2.8812	-2.8979	-3.0938	-3.3354	-3.0187	-3.175	-3.3104	-2.9333	-3.3042	-2.8896	-3.0812	-3.325	-2.9938	-3.3312	-3.0792	-3.0125	243.537	264.721	282.713	210.244	302.895	-46.560	297.952	266.083	243.483	183.813	278.767	251.391	206.525	-14.165	60.666	191.086	0.00044903	0.00025547	0.00016383	1518.3	5.5502e-06	4.6031e-06	1524.1	422.8	6.7943e-06	9.8615e-06	473.73	158.71	139.35	48.042	5.5658e-06	59.315	0.00053401	0.00060829	0.00015786	1532	5.8269e-06	6.7563e-06	1543.9	427.83	5.9526e-06	6.6906e-06	481.86	161.88	141.79	49.097	6.0058e-06	60.416	69.788	90.188	2.656	-34.909	98.864	66.008	-35.148	-30.294	69.865	110.796	-30.838	-26.555	-26.016	-21.548	92.687	-22.189	-8191	255	
1184.235	1	1	0	0	0.26007	0.20044	0.396	0.11612	0.23254	0.12203	0.36409	0.15707	0.33887	0.074156	0.13942	0.26113	0.094248	0.15749	0.2546	0.090411	-2.7625	-2.9437	-3.125	-3.3396	-2.8542	-3.0875	-3.2625	-2.8896	-3.2083	-3.0042	-3.0708	-3.3667	-3.0333	-3.1542	-3.1833	-2.9625	311.077	309.592	72.845	298.844	0.266	233.026	247.851	250.338	279.513	266.495	48.466	214.393	240.587	-26.657	209.928	31.145	0.00051043	0.00048937	0.00017786	1520.4	8.3154e-06	4.6009e-06	1524.1	419.54	6.4569e-06	5.6421e-06	475	158.66	137.98	47.704	2.7187e-06	59.027	0.00056721	0.00059865	0.00015183	1528.5	6.2205e-06	6.5267e-06	1542.8	424.96	6.2831e-06	6.4292e-06	481.63	161.75	141.58	49.023	5.7647e-06	60.341	51.363	10.561	19.311	-35.052	185.156	122.077	-35.086	-30.455	113.429	143.924	-30.969	-26.358	-26.223	-21.675	300.642	-22.301	-8191	255	
1184.331	1	1	0	0	0.27921	0.09974	0.18602	0.25353	0.29122	0.13424	0.46473	0.070884	0.10531	0.18829	0.13852	0.24671	0.2064	0.013754	0.13596	0.186	-2.6958	-2.9146	-2.9854	-3.3854	-2.7646	-3.0438	-3.2125	-2.975	-3.2687	-3.0187	-3.0125	-3.2771	-3.075	-3.2083	-3.2333	-2.8792	238.817	59.913	292.481	301.352	54.145	126.137	247.377	-1.559	136.273	-28.400	-10.055	272.400	274.037	9.835	302.198	306.795	0.00050835	0.00056582	0.00022782	1515.1	4.5324e-06	4.907e-06	1520.3	418.62	1.1163e-05	6.727e-06	477.83	158.62	138.78	47.978	3.9057e-06	59.054	0.00059996	0.00059114	0.0001473	1526	6.6741e-06	6.3368e-06	1539.7	425.08	6.6458e-06	6.1304e-06	481.88	161.49	141.66	48.978	5.6215e-06	60.466	76.934	-8.612	41.046	-35.160	110.903	145.036	-34.831	-30.262	120.041	87.670	-30.969	-26.388	-26.162	-21.454	93.018	-22.252	-8191	255	
1184.452	1	1	0	0	0.21516	0.23338	0.14639	0.24841	0.15003	0.18289	0.36999	0.25061	0.046711	0.15307	0.18724	0.0011329	0.32337	0.18821	0.13578	0.069833	-2.7271	-2.9375	-2.6917	-3.2	-3.0563	-3.0104	-3.2583	-3.1583	-3.2062	-3.0417	-2.7958	-3.3958	-3.0563	-3.2687	-3.2167	-2.9938	271.262	155.575	100.018	29.164	117.484	147.247	252.891	230.067	198.464	11.833	221.764	180.000	42.455	-38.619	253.629	-8.158	0.00045141	0.00041844	0.0001682	1516.5	5.9842e-06	2.4487e-06	1521.4	420.66	5.6001e-06	5.7866e-06	475.63	157.67	138.52	47.899	3.3835e-06	59.268	0.00060047	0.00054799	0.00014423	1526.9	6.5714e-06	5.9992e-06	1537.7	426.31	6.4427e-06	5.8396e-06	478.99	161.43	141.38	48.99	5.3901e-06	60.477	73.513	44.264	16.382	-34.671	91.528	131.565	-35.053	-30.115	305.230	56.631	-30.852	-26.363	-26.164	-21.497	122.654	-22.285	-8191	255	
1184.546	1	1	0	0	0.094398	0.075017	0.060125	0.20331	0.14196	0.047527	0.18141	0.2275	0.063782	0.0011147	0.23296	0.39428	0.22458	0.16888	0.24572	0.1389	-2.9271	-3.175	-2.775	-3.2771	-2.8458	-2.925	-3.2708	-3.0979	-3.1292	-3.1646	-2.9396	-3.2354	-3.2792	-3.1604	-3.2375	-2.8708	37.518	246.881	44.173	276.461	25.251	129.915	275.126	192.400	307.146	180.000	256.849	238.759	234.526	11.061	-22.633	198.801	0.00053151	0.00052537	0.0002853	1507.2	1.0484e-05	3.8818e-06	1519.4	420.44	3.3e-06	3.48e-06	473.17	158.01	138.49	47.679	8.4481e-06	59.022	0.00057118	0.00050673	0.00013892	1524.2	6.2873e-06	5.6036e-06	1537	426.28	6.0943e-06	5.4848e-06	479.47	161.48	141.15	48.883	5.425e-06	60.473	75.857	-25.520	37.348	-34.827	53.935	40.959	-34.906	-30.363	86.841	137.887	-30.849	-26.522	-26.300	-21.426	90.798	-22.178	-8191	255	
1184.643	1	1	0	0	0.23883	0.28954	0.15082	0.25913	0.17205	0.2437	0.17585	0.11131	0.12208	0.12879	0.15563	0.09138	0.2734	0.19495	0.090246	0.087022	-2.6583	-3.1083	-2.7938	-3.1917	-3.1292	-2.9167	-3.5125	-3.0625	-2.9667	-3.2396	-3.025	-3.3104	-3.1167	-3.0604	-3.225	-3.0458	104.922	23.272	235.337	72.826	261.285	129.710	286.495	249.266	-12.936	30.527	-28.826	-41.367	-46.755	298.307	286.461	72.413	0.00045066	0.00074958	0.00024766	1505.6	5.5615e-06	6.6171e-06	1522.7	419.83	2.8275e-06	5.9561e-06	475.79	158.93	138.37	47.878	4.8755e-06	58.967	0.00055383	0.00050703	0.00014061	1525.2	5.7303e-06	5.4473e-06	1538.1	425.81	5.7729e-06	5.2066e-06	479.76	161.77	141.04	48.846	5.2649e-06	60.345	70.602	3.670	32.879	-34.821	34.721	121.287	-34.894	-30.237	119.510	50.565	-30.521	-26.523	-26.167	-21.628	83.771	-22.021	-8191	255	
1184.716	1	1	0	0	0.059354	0.14649	0.1804	0.2437	0.050413	0.073289	0.13946	0.31104	0.15733	0.05265	0.16542	0.22447	0.23275	0.073715	0.15332	0.3925	-2.5208	-3.25	-2.8271	-3.2979	-3.0458	-2.9854	-3.4458	-3.0812	-3.0438	-3.2417	-2.9479	-3.4104	-3.0646	-3.0208	-3.3146	-3.1521	50.941	252.150	16.599	15.956	103.588	303.700	266.007	265.075	261.519	65.362	235.973	290.451	277.539	276.787	185.244	244.182	0.00033706	0.00024175	4.4281e-05	1510.3	3.509e-06	5.0396e-06	1512.3	417.34	4.4887e-06	4.5825e-06	473.79	157.92	138.51	47.982	4.7275e-06	58.871	0.0004769	0.00043773	0.00013451	1517.1	5.0273e-06	4.7156e-06	1529.5	423.96	5.0193e-06	4.7528e-06	477.87	160.77	140.83	48.895	5.6501e-06	60.328	63.581	55.768	72.735	-34.926	169.717	113.915	-34.995	-30.468	190.358	117.557	-30.890	-26.360	-26.029	-21.826	103.430	-22.160	-8191	255	
1184.835	1	1	0	0	0.074508	0.22931	0.026854	0.21746	0.089104	0.1932	0.21647	0.36774	0.13056	0.33265	0.037541	0.2957	0.10424	0.19364	0.17841	0.3704	-2.6	-3.1729	-2.8375	-2.9854	-3.0229	-2.9333	-3.4875	-3.2896	-2.9083	-3.3583	-3.0604	-3.1396	-3.1479	-3.0104	-3.1521	-3.0979	140.684	30.171	201.388	111.504	51.391	216.217	203.337	-43.823	268.687	-0.820	96.987	221.241	296.056	-45.512	-20.537	278.797	0.00037641	0.00093966	0.00021988	1505.9	6.6492e-06	1.997e-06	1518.8	418.39	3.3816e-06	7.8856e-06	476.51	158.38	138.93	47.833	8.7313e-06	59.014	0.00048272	0.00045822	0.00015054	1517.9	5.212e-06	5.1017e-06	1536.9	425.11	5.2267e-06	5.2253e-06	481.87	161.36	141.19	48.929	6.1052e-06	60.39	74.944	67.035	31.791	-34.913	63.818	89.640	-34.882	-30.409	33.543	88.592	-30.688	-26.610	-26.237	-21.730	66.745	-22.112	-8191	255	
1184.931	1	1	0	0	0.12662	0.20802	0.17726	0.26129	0.28549	0.10665	0.33443	0.13398	0.12396	0.041042	0.18795	0.099838	0.26035	0.35372	0.062989	0.10905	-2.5312	-3.0979	-2.9104	-3.1521	-3.3187	-2.9333	-3.425	-3.2188	-2.9458	-3.2042	-2.9271	-3.2917	-3.4833	-2.9958	-3.2521	-3.2833	-42.766	283.898	260.441	266.319	44.994	-3.171	270.961	35.987	-43.079	158.533	15.797	-20.862	-27.591	228.434	-8.297	265.625	0.00042323	0.0003389	0.00012025	1502.7	2.7585e-06	5.6255e-07	1522.5	417.99	3.1245e-06	3.5691e-06	473.92	158.45	138.63	47.891	5.6215e-06	58.881	0.00049036	0.00049813	0.00015778	1523.6	5.3196e-06	5.5875e-06	1538.7	423.88	5.2808e-06	5.6997e-06	481.82	161.33	141.15	48.947	6.0481e-06	60.306	82.660	1.476	29.415	-34.606	121.133	36.489	-34.932	-30.314	107.938	74.366	-30.280	-26.600	-26.144	-21.310	108.692	-22.398	-8191	255	
1185.027	1	1	0	0	0.1187	0.11297	0.15189	0.089214	0.137	0.17884	0.22071	0.18118	0.23322	0.061259	0.091947	0.38679	0.36539	0.067079	0.086335	0.091039	-2.4292	-3.2375	-3.0312	-2.9104	-3.25	-2.7208	-3.3812	-3.2667	-2.8438	-3.2771	-3.1104	-3.1521	-3.2833	-2.9896	-3.0583	-3.2417	292.332	153.471	-28.251	285.039	60.437	88.974	310.046	-39.896	91.984	160.027	240.362	-25.290	262.089	48.944	239.213	233.146	0.00034175	0.00081618	0.00018326	1518.6	4.2176e-06	2.882e-06	1511	418.11	1.9362e-06	7.0898e-06	476.89	158.15	138.64	47.848	8.9498e-06	59.278	0.00049531	0.00054775	0.0001564	1523.5	5.3753e-06	6.1534e-06	1535.3	424.87	5.5335e-06	6.1945e-06	483.12	161.33	141.31	49.088	6.1178e-06	60.42	73.285	30.200	68.192	-34.747	145.375	175.974	-35.119	-30.342	28.464	110.791	-30.831	-26.550	-25.986	-21.312	51.858	-22.354	-8191	255	
1185.148	1	1	0	0	0.227	0.081633	0.18688	0.28824	0.05608	0.21092	0.25531	0.17257	0.097417	0.089071	0.2096	0.4082	0.11502	0.17959	0.26059	0.31411	-2.4458	-3.1958	-3.0417	-2.9562	-3.25	-2.9917	-3.3	-3.35	-2.9562	-3.3521	-3.075	-3.2083	-3.4396	-3.0104	-2.9708	-3.3083	42.652	17.060	200.972	295.787	290.208	160.560	246.405	262.875	115.359	183.562	-28.670	249.695	195.211	231.850	73.772	269.236	0.00047609	0.00097759	0.00017848	1517	3.7964e-06	1.9966e-06	1521.3	418.01	3.3711e-06	6.9908e-06	478.72	158.42	139.17	47.808	7.2773e-06	59.291	0.00051983	0.00058922	0.00015437	1523.8	5.714e-06	6.6312e-06	1538.3	425.01	5.8925e-06	6.4995e-06	482.5	161.53	141.49	49.073	5.9146e-06	60.306	66.934	65.682	37.162	-34.561	109.747	231.597	-35.086	-30.331	111.306	88.344	-30.976	-26.522	-25.975	-21.335	91.195	-22.249	-8191	255	
1185.244	1	1	0	0	0.063278	0.22351	0.10537	0.17805	0.076678	0.07694	0.16194	0.22556	0.19162	0.35566	0.26606	0.033882	0.10683	0.14754	0.072967	0.21463	-2.5167	-3.1063	-3.0438	-2.8917	-3.3771	-2.9042	-3.2938	-3.3917	-2.9396	-3.2542	-3.2083	-3.0104	-3.1771	-2.9875	-3.1437	-3.4083	258.443	96.235	259.843	234.889	179.524	13.270	240.092	-27.955	256.722	-15.202	42.088	308.893	282.240	236.230	210.427	97.226	0.00046565	0.00038645	0.00021744	1515.3	1.8976e-06	8.6925e-06	1521	419.13	6.9906e-06	5.0763e-07	474.21	158.24	138.83	47.871	3.59e-06	59.064	0.0005569	0.0005901	0.00014876	1524.2	6.1029e-06	6.5027e-06	1538.9	425.18	6.2252e-06	6.3711e-06	480.73	161.48	141.71	48.975	5.7909e-06	60.193	78.580	82.086	57.994	-34.963	60.220	107.242	-34.941	-30.507	193.049	82.597	-31.054	-26.359	-26.163	-21.465	111.191	-22.220	-8191	255	
1185.316	1	1	0	0	0.23915	0.2246	0.11458	0.037032	0.071534	0.052793	0.20167	0.18936	0.23729	0.090789	0.096695	0.13137	0.15331	0.1623	0.18705	0.12554	-2.4	-3.1542	-3.2542	-2.9667	-3.1729	-2.8896	-3.3812	-3.4104	-3.0542	-3.1458	-3.2354	-3.0042	-3.275	-3.1	-3.0146	-3.3375	103.282	34.797	26.381	224.654	56.274	300.127	276.420	231.052	188.297	64.090	-36.699	245.756	-7.345	38.176	19.595	-20.488	0.00045328	0.0009224	0.00027058	1519.6	3.4165e-06	3.6265e-06	1518.4	418.9	6.6965e-06	2.9889e-06	476.97	158.23	139.25	47.814	3.1453e-06	58.987	0.00059509	0.0005787	0.00014536	1527.1	6.5107e-06	6.2307e-06	1537.6	424.89	6.441e-06	6.2453e-06	480.38	161.59	141.89	48.978	5.7997e-06	60.363	75.468	26.686	48.205	-34.825	50.388	158.809	-34.897	-30.333	55.738	121.772	-30.831	-26.565	-26.434	-21.675	2.968	-22.381	-8191	255	
1185.436	1	1	0	0	0.28343	0.20609	0.16324	0.19531	0.19379	0.076036	0.20564	0.12489	0.21946	0.097099	0.086764	0.086969	0.37563	0.22517	0.068177	0.037677	-2.55	-3.1729	-3.1917	-3.025	-3.2458	-3.0042	-3.1625	-3.2438	-3.0542	-3.15	-3.2583	-2.9167	-3.2583	-3.3792	-2.9458	-3.5083	231.357	111.395	-18.875	-13.565	-10.283	-22.375	310.730	-23.294	155.573	134.931	263.101	17.863	306.158	265.248	111.273	-40.692	0.00042865	0.00060986	0.00019703	1513.4	2.9113e-06	4.5978e-06	1525.1	420.46	8.3821e-06	4.1805e-06	477.03	157.91	138.77	47.816	9.1445e-06	59.023	0.0006086	0.0005595	0.00014505	1529	6.7075e-06	6.0336e-06	1539.5	426.12	6.8119e-06	5.9764e-06	481.17	161.85	141.74	48.896	5.7323e-06	60.329	59.769	20.780	-14.780	-34.978	71.260	69.530	-35.066	-30.336	43.579	121.488	-30.719	-26.609	-26.086	-21.553	45.722	-22.149	-8191	255	
1185.532	1	1	0	0	0.24225	0.097804	0.32475	0.16737	0.13168	0.096686	0.3622	0.24255	0.095073	0.16998	0.097863	0.13315	0.10431	0.1932	0.05366	0.1457	-2.4854	-2.9562	-3.2438	-2.9875	-3.1875	-3.0896	-3.1146	-3.5563	-3.0083	-3.1	-3.3604	-2.9458	-3.1875	-3.325	-2.6875	-3.4458	-1.763	215.191	58.990	29.508	246.667	35.728	233.353	298.922	229.341	147.509	118.959	136.608	258.001	23.812	-35.834	262.325	0.00043151	0.00046323	0.00013956	1523.7	7.6733e-06	3.8348e-06	1522.2	420.89	3.7558e-06	9.0795e-06	474.86	158.52	138.04	47.694	4.0244e-06	58.915	0.00060517	0.00054253	0.00014345	1536.5	6.5271e-06	5.8441e-06	1540.5	426.13	6.433e-06	5.8507e-06	481.11	161.9	141.44	48.824	5.7491e-06	60.457	65.927	14.569	-8.527	-34.754	109.164	126.613	-34.989	-30.441	131.686	67.029	-31.080	-26.599	-26.299	-21.442	237.086	-22.292	-8191	255	
1185.629	1	1	0	0	0.08136	0.077955	0.27368	0.13388	0.10635	0.26704	0.20303	0.30648	0.096476	0.14254	0.19798	0.30096	0.24346	0.15995	0.10412	0.16456	-2.5396	-2.95	-3.2792	-2.9125	-3.2625	-3.0479	-3.2167	-3.3479	-3.1854	-2.9167	-3.2854	-2.9229	-3.2729	-3.2979	-3.0396	-3.4208	110.193	174.102	262.851	169.584	213.890	-6.202	307.694	255.482	261.852	196.335	236.541	-39.959	222.288	41.790	77.639	234.676	0.00044308	0.00059285	0.00010943	1515.1	3.3174e-06	2.4928e-06	1521.1	418.76	4.8141e-06	4.2758e-06	476.64	158.38	138.33	47.718	4.2287e-06	58.879	0.00057267	0.000526	0.00014631	1531.7	6.2391e-06	5.7501e-06	1540.3	426.14	6.0397e-06	5.7298e-06	482.39	161.92	141.3	48.829	6.0361e-06	60.367	69.790	18.129	30.876	-35.063	83.625	92.508	-35.153	-30.357	140.319	115.714	-30.433	-26.345	-26.109	-21.720	80.919	-22.330	-8191	255	
1185.747	1	1	0	0	0.17879	0.15968	0.083508	0.27891	0.029222	0.27434	0.086407	0.30568	0.25751	0.14878	0.32281	0.14716	0.056644	0.055779	0.16491	0.13705	-2.7208	-2.9271	-3.3771	-3.0292	-3.1125	-3.1604	-3.1	-3.2396	-3.0938	-2.8771	-3.2812	-3.2896	-3.3312	-3.2438	-2.9667	-3.1833	232.479	116.398	156.799	-35.754	58.418	176.828	201.310	306.571	109.959	-29.563	308.027	263.338	221.078	216.240	286.477	203.579	0.00032176	0.00076205	8.5299e-05	1514.3	5.6807e-06	5.1866e-06	1519.1	419.51	8.2418e-06	2.0125e-06	477.41	158.13	138.72	47.815	2.2468e-06	59.105	0.00055072	0.00051536	0.00015433	1533.8	6.0506e-06	5.6031e-06	1541.3	426.58	5.9135e-06	5.6503e-06	483.46	161.87	141.26	48.834	6.3128e-06	60.463	64.073	47.411	63.658	-34.579	82.153	102.841	-34.794	-30.238	97.136	87.239	-30.978	-26.749	-26.243	-21.544	203.632	-22.245	-8191	255	
1185.844	1	1	0	0	0.22871	0.089518	0.080997	0.18075	0.34769	0.20182	0.2921	0.24463	0.10299	0.15129	0.2493	0.26368	0.10465	0.38076	0.31601	0.27201	-2.5833	-2.7583	-3.1562	-2.9167	-2.8583	-3.2021	-3.0146	-3.4042	-3.3167	-2.925	-3.3042	-3.1333	-2.95	-3.4146	-2.8854	-2.9854	27.535	160.761	256.302	-44.027	145.497	38.181	245.256	239.870	306.653	250.611	279.683	306.022	-38.244	233.534	206.561	232.167	0.00052668	0.00066939	0.00016771	1518.3	6.176e-06	7.4947e-06	1521.9	419.4	7.0166e-06	3.5722e-06	475.88	159.12	139.01	47.816	6.4695e-06	58.978	0.0005205	0.00050221	0.00015935	1531.3	5.6223e-06	5.4928e-06	1541.7	426.3	5.5208e-06	5.5237e-06	483.12	162.16	141.62	48.854	6.5191e-06	60.298	73.614	119.879	28.059	-35.098	124.551	116.311	-35.034	-30.223	53.448	80.965	-30.883	-26.366	-25.960	-21.581	132.659	-22.175	-8191	255	
1185.940	1	1	0	0	0.15706	0.037826	0.17949	0.17884	0.10729	0.085715	0.14502	0.15507	0.25827	0.36494	0.1231	0.066064	0.11945	0.21934	0.29951	0.27039	-2.5896	-2.9958	-3.2396	-3.225	-2.9271	-3.2979	-3.05	-3.2062	-3.1854	-2.7708	-3.2729	-3.1188	-2.9458	-3.1333	-2.8854	-3.0979	-12.794	-25.441	68.683	290.842	196.311	88.826	307.058	-30.725	203.731	101.567	168.243	105.848	-15.346	257.733	226.542	289.174	0.0003589	8.5474e-05	0.00018472	1513.2	4.9883e-06	4.2822e-06	1522.5	419.23	4.0496e-06	4.9776e-06	477.07	159.13	138.68	48.003	6.7309e-06	59.043	0.00050937	0.00052273	0.00016517	1529.3	5.641e-06	5.7949e-06	1542.4	425.67	5.5279e-06	6.0213e-06	484.48	162.14	141.4	48.875	6.5474e-06	60.329	73.013	28.693	53.648	-34.800	79.109	166.127	-35.014	-30.322	126.672	126.257	-30.626	-26.599	-26.367	-21.476	95.522	-22.288	-8191	255	
1186.011	1	1	0	0	0.19517	0.10358	0.18764	0.13558	0.23998	0.20562	0.17605	0.18787	0.22614	0.16998	0.032377	0.064662	0.15282	0.21078	0.2342	0.25846	-2.8854	-3.0417	-3.225	-3.1437	-2.8937	-3.4354	-3.2438	-3.1146	-3.1625	-2.9146	-3.0146	-3.2208	-2.8354	-3.2062	-2.8812	-3.0312	205.002	206.728	159.416	181.030	296.951	207.154	282.350	-37.969	42.555	28.366	161.713	15.183	23.302	282.792	4.201	3.062	0.00048873	0.00078762	0.0001253	1509.4	3.7742e-06	5.1368e-06	1527.3	420.22	2.7248e-06	7.1168e-06	475.58	158.33	138.66	47.775	2.9842e-06	58.749	0.00050767	0.00057685	0.00016685	1525	5.7076e-06	6.3858e-06	1543.8	426.37	5.6415e-06	6.4548e-06	483.85	161.75	141.32	48.949	6.5042e-06	60.318	76.753	44.120	2.464	-34.957	32.556	79.969	-34.976	-30.443	112.383	145.431	-30.840	-26.284	-26.205	-21.700	-5.711	-22.290	-8191	255	
1186.132	1	1	0	0	0.025834	0.12943	0.16678	0.19302	0.052158	0.22576	0.089847	0.20213	0.20365	0.30529	0.21392	0.20023	0.23731	0.1909	0.25999	0.060816	-2.9271	-2.8604	-3.0958	-3.2	-2.8979	-3.1708	-3.1083	-3.2938	-3.3146	-2.925	-3.1646	-3.4396	-2.9437	-3.3354	-3.1333	-3.0771	83.031	216.138	131.365	82.994	86.760	209.265	204.567	214.113	165.758	199.770	308.875	185.999	47.042	287.632	105.301	49.157	0.00037842	0.00026262	0.00010335	1517.9	5.97e-06	8.0766e-06	1527.2	421.46	2.0115e-06	1.321e-05	478.64	158.6	139.29	47.802	2.7202e-06	58.974	0.00052411	0.00061385	0.00016105	1526.6	5.867e-06	6.7371e-06	1544.9	426.44	5.8108e-06	6.8157e-06	484.4	161.83	141.76	49.008	6.0998e-06	60.298	65.886	-19.952	58.228	-34.505	94.677	172.246	-34.880	-30.482	-32.127	106.449	-30.979	-26.534	-25.740	-21.230	65.221	-21.904	-8191	255	
1186.228	1	1	0	0	0.084019	0.14939	0.17624	0.1104	0.20756	0.22356	0.43667	0.29013	0.13563	0.15549	0.23322	0.1654	0.16008	0.31844	0.27249	0.10238	-2.8021	-2.9938	-3.1604	-3.0812	-2.9625	-3.3396	-3.3125	-2.7896	-3.0771	-2.9146	-3.1188	-3.3438	-3.0396	-3.4083	-3.0083	-2.9792	131.818	307.202	126.032	308.230	302.331	4.049	254.466	212.671	82.456	189.983	-27.963	222.573	-39.699	201.730	161.982	220.281	0.00037985	0.00037025	0.00013455	1511.8	7.2947e-06	6.4631e-06	1523.4	421.11	2.515e-06	5.977e-06	477.53	158.35	139.25	47.63	5.4385e-06	59.021	0.00055727	0.0006076	0.00015782	1529.3	6.2436e-06	6.756e-06	1543.1	426.57	6.3893e-06	6.7167e-06	483.07	161.68	141.81	48.877	5.916e-06	60.273	75.443	154.103	-0.143	-34.716	111.590	100.790	-34.879	-30.340	85.750	102.927	-30.881	-26.374	-26.284	-21.742	111.219	-22.379	-8191	255	
1186.324	1	1	0	0	0.30701	0.081499	0.1957	0.2125	0.092055	0.093704	0.25325	0.18136	0.069223	0.28356	0.080035	0.041212	0.29052	0.21295	0.053405	0.23522	-2.8729	-2.8208	-2.9938	-3.3042	-2.9667	-3.1125	-3.3646	-2.9542	-3.1146	-3.1167	-3.0833	-3.475	-3.0604	-3.2104	-3.2083	-3.0479	252.100	-28.861	265.267	-14.969	19.902	261.024	216.102	41.429	273.971	274.842	270.639	225.842	236.078	300.987	281.775	-33.026	0.00047108	0.00088369	0.00016987	1514.4	8.3728e-06	2.3104e-06	1520.4	419.52	4.7271e-06	6.2141e-06	477.47	158.59	138.49	47.92	8.4002e-06	58.739	0.00059445	0.0005935	0.00015104	1528.7	6.6959e-06	6.4219e-06	1540.9	426	6.6767e-06	6.3213e-06	481.98	161.72	141.42	48.934	5.7584e-06	60.16	50.479	5.942	47.467	-34.881	119.369	120.103	-35.307	-30.443	32.521	90.283	-30.668	-26.481	-26.338	-21.509	91.570	-22.095	-8191	255	
1186.420	1	1	0	0	0.24084	0.13709	0.10095	0.32495	0.26073	0.24282	0.10494	0.24143	0.17832	0.14588	0.26248	0.093222	0.16326	0.25441	0.24624	0.25261	-2.8063	-2.9813	-3.0958	-3.2625	-2.9	-3.1063	-3.4979	-2.7771	-3.2417	-3.0792	-3.0354	-3.4437	-3.05	-3.0563	-3.2104	-2.9771	175.965	77.536	182.702	-0.752	76.891	71.732	226.667	283.848	233.144	69.960	245.796	143.183	0.297	-48.104	45.173	-6.555	0.00034719	0.00078491	0.00014528	1511.3	4.0473e-06	5.1562e-06	1520.5	420.09	4.0928e-06	4.8131e-06	475.56	158.59	138.45	47.605	3.9489e-06	59.076	0.00061356	0.00057058	0.00014712	1527.5	6.7299e-06	6.1204e-06	1540.6	425.91	6.7612e-06	6.0817e-06	481.61	161.71	141.71	48.761	5.6805e-06	60.323	60.232	1.884	37.667	-34.959	137.451	114.666	-34.922	-30.422	58.440	71.429	-30.724	-26.676	-26.133	-21.619	125.640	-21.988	-8191	255	
1186.517	1	1	0	0	0.029474	0.10618	0.13597	0.1768	0.22804	0.063734	0.060129	0.23825	0.065887	0.11686	0.16134	0.22145	0.16491	0.22552	0.12529	0.22696	-2.7021	-3.0396	-2.8542	-3.3187	-2.8604	-3.0563	-3.5375	-2.9313	-3.3229	-3.0062	-2.9354	-3.3542	-3.0438	-3.1854	-3.4208	-3.1875	285.387	96.721	143.407	-30.112	22.775	25.470	198.222	307.656	117.000	135.564	-35.730	255.859	191.508	95.692	107.754	275.560	0.00048412	0.00094536	0.00022024	1514.7	7.9983e-06	6.832e-06	1521.7	419.86	3.7164e-06	3.8595e-06	473.93	158.76	139.07	47.665	5.764e-06	58.578	0.00060377	0.00054725	0.00014664	1529.8	6.6068e-06	5.9842e-06	1540.8	426.76	6.515e-06	5.9666e-06	480.49	162.35	141.87	48.783	5.7287e-06	60.241	73.512	4.869	14.807	-34.852	125.262	48.140	-34.854	-30.411	128.382	124.116	-30.884	-26.518	-26.004	-21.377	61.873	-22.269	-8191	255	
1186.613	1	1	0	0	0.13124	0.11713	0.10679	0.075059	0.046032	0.033421	0.24269	0.31136	0.19784	0.21503	0.17173	0.21703	0.32173	0.25901	0.11192	0.20967	-2.8812	-3.1729	-2.7521	-3.3438	-3.0458	-2.9938	-3.6396	-3.0208	-3.1937	-3.1958	-2.8937	-3.3688	-3.0604	-2.9646	-3.35	-3.0604	-6.949	28.506	79.294	-36.301	190.092	-32.840	254.836	282.605	99.419	238.084	10.375	283.636	-3.966	-43.539	41.851	207.065	0.00042217	0.00059055	8.8159e-05	1520.7	2.506e-06	5.212e-06	1527.4	420.49	3.992e-06	2.8009e-06	476.64	158.72	138.68	47.828	2.8552e-06	58.915	0.00059009	0.00053532	0.00015062	1536.5	6.4198e-06	5.877e-06	1543.5	427.46	6.3423e-06	5.7698e-06	481.77	162.42	141.44	48.893	5.9953e-06	60.405	66.333	64.884	119.254	-34.755	57.400	80.522	-34.900	-30.470	245.357	50.705	-30.892	-26.545	-26.040	-21.604	81.396	-22.283	-8191	255	
1186.709	1	1	0	0	0.30271	0.25927	0.055755	0.075149	0.1961	0.12592	0.11064	0.16819	0.33327	0.15427	0.27947	0.28968	0.23148	0.26994	0.1899	0.12456	-2.6458	-3.2479	-2.8875	-3.475	-2.9833	-2.9938	-3.4542	-3.1813	-3.0083	-3.2125	-2.7604	-3.3125	-3.2104	-2.9062	-3.275	-3.125	310.803	209.382	10.968	-5.360	93.951	299.427	242.929	255.671	123.495	154.231	-11.384	255.313	308.753	-32.866	192.290	-8.240	0.00041922	0.0010142	0.00012597	1517.9	3.8837e-06	7.0153e-06	1521.3	420.98	3.5235e-06	2.6037e-06	475.35	159.07	138.62	47.922	5.2858e-06	58.878	0.00055676	0.00052833	0.00015554	1535.3	6.0133e-06	5.797e-06	1543.7	427.47	6.091e-06	5.5589e-06	483.15	162.38	141.58	48.817	6.3306e-06	60.357	71.123	16.656	34.249	-35.016	95.669	84.704	-35.144	-30.288	70.417	85.907	-30.932	-26.662	-26.008	-21.357	139.942	-22.329	-8191	255	
1186.828	1	1	0	0	0.041049	0.025647	0.40465	0.13683	0.12801	0.088853	0.15046	0.47863	0.05997	0.13013	0.26557	0.025059	0.19795	0.19682	0.2327	0.089266	-2.6312	-2.9958	-2.6875	-3.3812	-3.1813	-2.8229	-3.5375	-3.15	-2.9396	-3.2271	-2.8438	-3.2167	-3.4	-3.0438	-3.1562	-3.0333	254.349	217.411	150.240	288.095	247.256	283.699	238.927	274.156	-35.064	107.819	-34.603	169.428	289.556	63.091	8.762	254.001	0.00042761	0.0011497	0.00019428	1513	2.9557e-06	3.6888e-06	1525.7	420.85	6.3883e-06	2.309e-06	480.39	158.42	139.03	47.697	7.7668e-06	58.974	0.00054889	0.00051481	0.00016774	1529.6	5.9201e-06	5.7143e-06	1544.9	426.71	5.8831e-06	5.608e-06	485.22	162.13	141.41	48.763	6.5274e-06	60.32	62.723	83.165	73.191	-34.846	284.161	110.605	-34.975	-30.299	128.473	298.304	-30.753	-26.503	-26.319	-21.484	70.370	-22.331	-8191	255	
1186.924	1	1	0	0	0.25492	0.18535	0.11826	0.12569	0.047138	0.14781	0.47109	0.29333	0.317	0.11345	0.28668	0.22639	0.5089	0.2706	0.12575	0.07171	-2.5146	-3.3	-2.9146	-3.0979	-3.2896	-2.8667	-3.4896	-3.075	-2.8688	-3.4229	-2.8583	-3.225	-3.4854	-3.1	-3.2208	-3.1937	159.504	306.537	27.492	238.093	231.023	272.462	241.666	218.485	190.310	156.750	306.190	264.600	271.611	-35.373	43.729	-19.041	0.00047877	0.00036245	0.00015236	1520.9	4.1257e-06	6.57e-06	1524.6	419.39	1.0391e-05	7.3015e-06	476.46	159.3	138.59	47.696	4.193e-06	58.985	0.00053008	0.00052188	0.00016994	1532.5	5.6901e-06	5.9058e-06	1544.8	426.82	5.6917e-06	5.922e-06	483.65	162.12	141.23	48.816	6.5868e-06	60.218	61.907	163.829	24.183	-34.932	122.059	166.870	-35.079	-30.524	141.741	79.849	-30.789	-26.347	-25.953	-21.394	55.216	-22.112	-8191	255	
1187.020	1	1	0	0	0.13951	0.16752	0.060305	0.077626	0.13754	0.086906	0.21959	0.079556	0.12748	0.28131	0.15843	0.16996	0.25339	0.19745	0.13518	0.10449	-2.7333	-3.1813	-2.8708	-3.2021	-3.1542	-2.8375	-3.4042	-3.0292	-2.7875	-3.25	-3.0146	-3.1333	-3.4292	-3.1729	-3.3667	-3.2083	240.895	-10.467	113.948	244.755	223.562	142.590	237.837	134.318	23.394	29.734	276.861	-4.799	26.357	291.403	222.146	275.959	0.00043449	0.00027243	3.6179e-05	1520.4	5.0858e-06	3.3926e-06	1525.6	419.77	4.2304e-06	5.6973e-06	477.63	158.63	137.93	47.423	3.3645e-06	58.553	0.00052124	0.00056417	0.0001687	1531.2	5.5959e-06	6.2996e-06	1544.7	426.28	5.7621e-06	6.4943e-06	483.88	161.93	141.05	48.755	6.5038e-06	59.992	73.136	73.862	50.504	-34.924	88.878	102.397	-34.840	-30.369	-37.459	154.579	-31.001	-26.538	-25.950	-21.464	62.907	-22.229	-8191	255	
1187.116	1	1	0	0	0.21094	0.062429	0.11867	0.10442	0.34043	0.11621	0.29835	0.19828	0.16772	0.21156	0.15808	0.19521	0.18747	0.079456	0.048487	0.11096	-2.4708	-3.4854	-3.1	-3.1063	-3.35	-3.0333	-3.3625	-3.3458	-2.9688	-3.15	-3.2167	-3.1875	-3.4313	-3.1583	-3.1833	-3.4396	189.855	69.081	7.955	162.952	204.867	262.282	260.298	-46.950	280.837	-8.186	193.326	236.153	169.683	222.251	64.277	247.485	0.0004401	0.00030471	7.6197e-05	1521.1	7.2985e-06	4.8407e-06	1528.7	421.21	4.3806e-06	2.6777e-06	478.34	158.82	138.28	47.461	4.6193e-06	58.704	0.00053597	0.00060641	0.00016617	1530.3	5.7701e-06	6.6878e-06	1544.2	426.5	5.9511e-06	6.6388e-06	483.56	161.96	141.12	48.788	6.1421e-06	60.072	77.779	52.328	280.499	-35.284	174.081	162.777	-34.847	-30.631	23.403	123.133	-30.511	-26.513	-26.188	-21.581	173.388	-22.443	-8191	255	
1187.237	1	1	0	0	0.13646	0.10709	0.14997	0.016918	0.022484	0.33258	0.21997	0.24751	0.21098	0.18303	0.1567	0.17584	0.08185	0.19959	0.34666	0.042337	-2.5229	-3.3208	-2.9104	-3.0333	-3.2792	-2.9917	-3.2896	-3.4542	-2.9896	-3.3417	-3.1479	-2.8333	-3.2854	-3.0542	-3.1542	-3.3958	296.142	132.757	281.956	128.069	150.405	174.022	203.578	267.736	297.626	153.502	76.115	263.372	187.830	35.070	40.846	251.201	0.00042076	0.00063239	0.00013457	1514.4	6.9919e-06	1.0002e-05	1522.9	418.49	7.0136e-06	2.2905e-06	475.89	159.02	138.33	47.592	3.9879e-06	58.608	0.00055229	0.00061881	0.00015551	1526.9	6.1021e-06	6.7388e-06	1543.7	426.1	6.224e-06	6.7398e-06	481.91	161.75	141.21	48.767	6.0906e-06	59.898	66.524	-4.635	62.668	-34.818	100.342	107.118	-35.171	-30.511	137.339	141.427	-30.682	-26.501	-25.994	-21.371	106.633	-21.987	-8191	255	
1187.309	1	1	0	0	0.26372	0.33214	0.17844	0.24785	0.16315	0.20753	0.29613	0.4027	0.34341	0.19819	0.24964	0.18297	0.091308	0.1435	0.10308	0.093785	-2.6021	-3.1333	-3.0771	-3.0604	-3.2479	-2.9854	-3.2292	-3.4479	-3.0229	-3.1104	-3.2208	-3.1875	-3.3292	-3.1667	-2.9688	-3.2625	269.509	268.181	-28.646	303.180	230.452	291.805	220.574	259.635	173.269	107.266	4.539	-25.195	259.314	259.317	4.311	-2.055	0.00040551	0.00081755	0.00017263	1512.4	3.6679e-06	4.5569e-06	1524.2	420.94	1.6808e-06	3.887e-06	474.52	158.79	138.34	47.699	9.08e-06	58.503	0.00058967	0.00060957	0.0001507	1528.7	6.5479e-06	6.447e-06	1542.4	425.96	6.6241e-06	6.4739e-06	480.73	161.96	141.38	48.769	5.8243e-06	59.952	64.033	40.623	-3.284	-35.063	63.183	105.853	-35.204	-30.215	219.899	118.162	-30.745	-26.494	-26.194	-21.440	89.556	-21.918	-8191	255	
1187.429	1	1	0	0	0.096458	0.23169	0.13773	0.12008	0.32766	0.2149	0.35449	0.39571	0.13492	0.20827	0.22465	0.30696	0.16922	0.025817	0.17446	0.29377	-2.5917	-3.1604	-3.2271	-3.0458	-3.3729	-3.0312	-3.3167	-3.4875	-2.9479	-3.1104	-3.2042	-3.1292	-3.3208	-3.1792	-2.8583	-3.4	80.173	288.704	90.566	32.211	241.135	129.033	206.941	239.814	209.592	8.267	290.732	292.063	288.998	238.998	293.780	309.635	0.00047009	0.00083187	9.8178e-05	1510.1	4.4243e-06	5.5729e-06	1529.4	420.41	7.0311e-06	4.9767e-06	478.64	158.76	138.67	47.537	5.6833e-06	58.775	0.00061321	0.00058749	0.00014448	1526.7	6.7672e-06	6.1781e-06	1543.7	425.87	6.8015e-06	6.1142e-06	482.27	161.9	141.41	48.616	5.7547e-06	60.014	75.248	49.674	-17.570	-34.938	114.141	116.222	-35.024	-30.427	20.615	82.491	-30.867	-26.418	-26.086	-21.630	120.499	-22.182	-8191	255	
1187.525	1	1	0	0	0.21032	0.11674	0.35106	0.11391	0.29043	0.015528	0.39233	0.1522	0.2216	0.12561	0.27658	0.1636	0.060866	0.16777	0.13999	0.06951	-2.5792	-3.0687	-3.0792	-2.8854	-3.2438	-3.1813	-3.0667	-3.3958	-3.0229	-3.1708	-3.2979	-2.9333	-3.1917	-3.1854	-3.0083	-3.4146	-29.647	9.227	-21.588	302.018	258.580	78.694	275.324	279.146	-11.154	16.551	280.862	222.919	209.156	280.834	36.033	306.092	0.00042338	0.00050978	0.00017282	1525.3	2.0594e-06	5.2996e-06	1526	419.77	7.1855e-06	4.0806e-06	477.81	158.32	138.83	47.562	6.7437e-06	58.725	0.00061008	0.00054468	0.00014218	1533.4	6.7033e-06	5.9354e-06	1540.9	425.85	6.6152e-06	6.0297e-06	480.37	161.92	141.68	48.632	5.7501e-06	60.138	69.003	25.447	77.710	-35.152	43.669	77.296	-34.977	-30.363	65.696	77.850	-30.723	-26.503	-26.160	-21.669	83.118	-22.240	-8191	255	
1187.620	1	1	0	0	0.23496	0.10327	0.18697	0.1572	0.26579	0.07195	0.094683	0.13865	0.16933	0.10734	0.25658	0.15532	0.30361	0.22099	0.10722	0.17992	-2.6104	-2.8896	-3.2208	-3.0604	-3.2625	-3.3312	-3.025	-3.3833	-2.9792	-3.0208	-3.2667	-3.2188	-3.1208	-3.325	-2.8792	-3.3563	281.556	-8.349	220.515	-28.815	187.479	138.225	211.176	231.796	99.331	143.424	-32.772	275.540	304.051	280.495	152.226	247.953	0.00035908	0.00058316	0.00010946	1513.7	5.9364e-06	1.7804e-06	1522.3	419.7	9.1702e-06	4.6697e-06	476.69	158.56	138.71	47.415	5.4742e-06	58.316	0.000591	0.00053266	0.00014565	1532.3	6.3449e-06	5.7647e-06	1542	426.9	6.2496e-06	5.7797e-06	481.49	162	141.29	48.639	5.897e-06	60.06	64.083	56.421	46.180	-34.992	51.897	129.962	-35.112	-30.369	62.447	67.260	-31.241	-26.470	-26.155	-21.502	117.748	-22.078	-8191	255	
1187.716	1	1	0	0	0.071935	0.38934	0.029751	0.08676	0.24647	0.21893	0.21226	0.12726	0.11283	0.15974	0.25297	0.21937	0.14708	0.15176	0.30659	0.32977	-2.4521	-2.9292	-3.0667	-3.0875	-2.9875	-3.1458	-3.0625	-3.2979	-3.1042	-3.0062	-3.3896	-3.0479	-3.0729	-3.5271	-2.8479	-3.2271	32.457	61.879	29.071	135.658	-13.069	57.407	290.663	-1.255	158.118	202.633	260.135	274.430	231.926	286.870	8.481	276.279	0.00031922	0.00082954	0.00036639	1507.8	9.8021e-07	5.039e-06	1519.1	419.37	4.5651e-06	4.8959e-06	475.38	158.79	138.44	47.582	5.3386e-06	58.712	0.00055906	0.00053358	0.00015322	1528	6.0701e-06	5.5854e-06	1539.2	426.42	5.9727e-06	5.6198e-06	481.21	162.01	141.13	48.516	6.1281e-06	60.112	76.202	39.097	54.799	-34.711	60.872	91.211	-34.940	-30.373	168.383	92.583	-30.823	-26.620	-26.051	-21.403	90.187	-22.109	-8191	255	
1187.837	1	1	0	0	0.095801	0.12887	0.27369	0.17976	0.073152	0.097695	0.33886	0.38789	0.054504	0.15355	0.050103	0.070549	0.28201	0.13234	0.11866	0.49072	-2.775	-2.8563	-3.0646	-3.1958	-2.9083	-3.2875	-3.1	-3.3375	-3.0583	-2.9771	-3.3417	-3.2458	-3.0563	-3.4292	-2.9396	-3.1208	138.969	228.893	34.018	34.493	206.876	229.673	241.073	-24.358	110.930	182.550	240.893	305.154	-47.697	17.925	105.445	-15.553	0.00042728	0.00087613	7.6725e-05	1509.2	4.5052e-06	3.263e-06	1518.9	419.43	8.3749e-06	2.4532e-06	475.07	158.8	138.38	47.465	5.9014e-06	58.695	0.00053426	0.0005022	0.00015863	1528.5	5.7241e-06	5.4734e-06	1541	425.67	5.7616e-06	5.5651e-06	482.83	161.57	140.95	48.531	6.5514e-06	60.055	82.557	71.092	-9.211	-34.703	217.926	99.572	-34.972	-30.610	66.096	68.292	-30.919	-26.480	-26.142	-21.670	70.293	-22.363	-8191	255	
1187.908	1	1	0	0	0.20612	0.11918	0.10688	0.14985	0.27806	0.17874	0.23062	0.21263	0.063428	0.26814	0.093261	0.30524	0.18537	0.13996	0.1471	0.12342	-2.675	-2.9125	-3.2083	-3.0583	-2.7396	-3.4062	-3.2708	-3.2	-3.3646	-2.8458	-3.25	-3.0229	-3.0125	-3.1667	-2.8875	-3.1229	-20.943	194.458	111.461	97.003	-1.698	62.703	-36.978	254.246	192.633	253.830	-22.330	292.100	270.939	199.663	216.147	7.275	0.00037138	0.00042208	0.00019669	1518.1	4.6807e-06	4.6445e-06	1527.3	420.93	5.8898e-06	7.3451e-06	478.6	158.19	138.18	47.477	6.5327e-06	58.387	0.00051884	0.00052548	0.00016781	1532.5	5.7039e-06	5.8625e-06	1545.3	426.31	5.7439e-06	6.061e-06	484.49	162.18	141.05	48.697	6.7709e-06	59.941	81.500	23.368	61.973	-34.873	96.132	85.168	-34.914	-30.317	136.409	149.389	-30.772	-26.450	-26.002	-21.615	121.706	-22.300	-8191	255	
1188.004	1	1	0	0	0.045736	0.082758	0.16116	0.012925	0.16926	0.10263	0.56923	0.13578	0.25475	0.16275	0.19354	0.29872	0.09629	0.3091	0.083938	0.054238	-2.6375	-2.9625	-3.1875	-3.1271	-2.9917	-3.2125	-3.15	-3.0708	-3.2229	-2.9604	-3.0771	-3.2667	-2.8104	-3.3333	-3.0625	-3.2	242.989	64.535	308.637	257.952	293.445	-38.818	256.378	-18.260	-8.674	-11.347	48.059	289.705	270.343	251.999	149.007	129.382	0.0004732	0.00045522	6.3657e-05	1509.7	7.1325e-06	2.5381e-06	1529.1	419.55	8.5799e-06	7.4944e-06	475.67	158.94	137.81	47.507	1.0427e-05	58.601	0.0005248	0.00056941	0.00017333	1527.5	5.755e-06	6.3417e-06	1546.3	425.81	5.7156e-06	6.5018e-06	483.87	162	140.94	48.698	6.5481e-06	59.961	79.356	69.683	98.308	-34.735	121.882	91.557	-34.917	-30.402	49.104	118.646	-31.278	-26.556	-26.015	-21.449	112.115	-22.064	-8191	255	
1188.100	1	1	0	0	0.053131	0.2531	0.19823	0.10268	0.10759	0.12293	0.22965	0.16009	0.18623	0.20507	0.21827	0.15834	0.13055	0.11564	0.32916	0.1703	-2.85	-2.9625	-2.9958	-3.2438	-2.9104	-3.3708	-3.15	-3.1708	-3.2708	-3.0104	-3.175	-3.2583	-2.9625	-3.3396	-2.8083	-3.1354	111.740	-22.087	92.691	216.686	-33.137	87.731	210.744	147.990	2.369	271.192	43.439	284.133	-23.147	296.400	157.527	174.174	0.00041538	0.00093545	0.00022873	1518.3	5.0653e-06	6.6951e-06	1523.9	418.93	9.6365e-06	5.8205e-06	472.2	158.89	138.41	47.617	1.2389e-05	58.549	0.00052372	0.00060783	0.00016425	1526.9	5.753e-06	6.5191e-06	1542.3	425.51	5.872e-06	6.6642e-06	480.91	161.81	140.84	48.713	6.1312e-06	59.917	79.186	57.137	40.293	-34.824	84.390	147.730	-35.048	-30.327	92.520	116.811	-30.955	-26.219	-26.130	-21.325	78.949	-22.361	-8191	255	
1188.197	1	1	0	0	0.18219	0.1457	0.14608	0.15847	0.11298	0.095084	0.33864	0.34675	0.03629	0.13829	0.20711	0.28492	0.1446	0.22272	0.18324	0.16926	-2.7521	-3.0042	-3.2771	-3.5187	-2.9417	-3.1708	-3.2917	-2.875	-3.0646	-3.1	-3.1104	-3.2292	-3.0167	-3.3375	-3.2104	-3.1271	-36.403	299.038	-13.813	-39.097	182.578	139.598	272.604	246.209	136.972	280.166	149.293	-20.379	239.664	269.191	237.894	225.796	0.00039424	0.0003292	0.00017221	1510.5	3.4298e-06	6.0717e-06	1526.4	419.19	2.1015e-06	5.1388e-06	470.97	158.13	137.8	47.364	5.4204e-06	58.439	0.00053654	0.00061376	0.00015405	1522.4	5.9896e-06	6.6429e-06	1541.8	424.97	5.9753e-06	6.5713e-06	480.02	161.14	140.83	48.608	5.9107e-06	59.855	71.778	58.068	27.778	-34.910	72.972	156.277	-35.020	-30.189	126.116	77.642	-30.559	-26.699	-25.889	-21.527	85.582	-22.229	-8191	255	
1188.317	1	1	0	0	0.064673	0.014857	0.021665	0.11786	0.038713	0.026192	0.36238	0.10725	0.29687	0.17427	0.14534	0.016047	0.14871	0.19899	0.14242	0.1692	-2.8042	-2.9271	-2.9875	-3.3042	-2.9146	-3.1604	-3.3771	-2.9521	-3.375	-3.0208	-3.1292	-3.3438	-2.9938	-3.3396	-3.0896	-3.1417	270.909	-45.290	301.414	12.895	48.426	65.416	256.944	-27.985	224.888	28.855	15.508	48.620	-35.005	285.736	116.322	235.315	0.00050829	0.00053873	0.00020492	1514.7	5.6217e-06	6.6196e-06	1521.5	419.44	2.1165e-06	9.9575e-06	474.2	157.93	137.98	47.496	3.3258e-06	58.784	0.00057274	0.00060723	0.00015186	1522.1	6.4069e-06	6.606e-06	1539.3	424.84	6.5272e-06	6.4622e-06	479.58	161.19	141.23	48.615	5.7846e-06	59.91	67.496	22.794	59.737	-34.787	62.366	157.895	-35.121	-30.422	175.553	83.821	-31.047	-26.442	-26.404	-21.551	136.810	-22.266	-8191	255	
#DATA ENDS
