BOXY.EXE: ISS Imagent and Oximeter Data Acquisition Program Version 0.80
Ascii Record File

#ACQ INFORMATION
2  Detector Channels 
16  External MUX Channels 
1  Auxiliary Channels 
5000  Waveform (CCF) Frequency (Hz)
1  Waveforms Skipped 
30  Waveforms Averaged 
1  Cycles Averaged 
16  Acquisitions per Waveform 
10.0806  Updata Rate (Hz) 

#FILE INFORMATION
TRUE -- External MUX Channel results are PARSED.
FALSE -- AC DC and Phase are NOT grouped.
TRUE -- Companion Program Settings File CREATED.
FALSE -- AC data not excluded
FALSE -- DC data not excluded
FALSE -- Phase data not excluded
FALSE -- Auxillary Chn. data not excluded
Tab delimiters

#CALIBRATION STATE
TRUE -- Waveform Calibration Values APPLIED.


#AUX CALIBRATION VALUES
Val Type	aux-1	

Term	1.0000e+00	
Factor	0.0000e+00	


#WF CALIBRATION VALUES
A = Detector Channel
Val Type	A-AC1	A-AC2	A-AC3	A-AC4	A-AC5	A-AC6	A-AC7	A-AC8	A-AC9	A-AC10	A-AC11	A-AC12	A-AC13	A-AC14	A-AC15	A-AC16	A-DC1	A-DC2	A-DC3	A-DC4	A-DC5	A-DC6	A-DC7	A-DC8	A-DC9	A-DC10	A-DC11	A-DC12	A-DC13	A-DC14	A-DC15	A-DC16	A-Ph1	A-Ph2	A-Ph3	A-Ph4	A-Ph5	A-Ph6	A-Ph7	A-Ph8	A-Ph9	A-Ph10	A-Ph11	A-Ph12	A-Ph13	A-Ph14	A-Ph15	A-Ph16	

Term	0.00000e+00	0.00000e+00	0.00000e+00	0.00000e+00	0.00000e+00	0.00000e+00	0.00000e+00	0.00000e+00	0.00000e+00	0.00000e+00	0.00000e+00	0.00000e+00	0.00000e+00	0.00000e+00	0.00000e+00	0.00000e+00	0.00000e+00	0.00000e+00	0.00000e+00	0.00000e+00	0.00000e+00	0.00000e+00	0.00000e+00	0.00000e+00	0.00000e+00	0.00000e+00	0.00000e+00	0.00000e+00	0.00000e+00	0.00000e+00	0.00000e+00	0.00000e+00	0.00000e+00	0.00000e+00	0.00000e+00	0.00000e+00	0.00000e+00	0.00000e+00	0.00000e+00	0.00000e+00	0.00000e+00	0.00000e+00	0.00000e+00	0.00000e+00	0.00000e+00	0.00000e+00	0.00000e+00	0.00000e+00	
Factor	1.00000e+00	1.00000e+00	1.00000e+00	1.00000e+00	1.00000e+00	1.00000e+00	1.00000e+00	1.00000e+00	1.00000e+00	1.00000e+00	1.00000e+00	1.00000e+00	1.00000e+00	1.00000e+00	1.00000e+00	1.00000e+00	1.00000e+00	1.00000e+00	1.00000e+00	1.00000e+00	1.00000e+00	1.00000e+00	1.00000e+00	1.00000e+00	1.00000e+00	1.00000e+00	1.00000e+00	1.00000e+00	1.00000e+00	1.00000e+00	1.00000e+00	1.00000e+00	X	X	X	X	X	X	X	X	X	X	X	X	X	X	X	X	

B = Detector Channel
Val Type	B-AC1	B-AC2	B-AC3	B-AC4	B-AC5	B-AC6	B-AC7	B-AC8	B-AC9	B-AC10	B-AC11	B-AC12	B-AC13	B-AC14	B-AC15	B-AC16	B-DC1	B-DC2	B-DC3	B-DC4	B-DC5	B-DC6	B-DC7	B-DC8	B-DC9	B-DC10	B-DC11	B-DC12	B-DC13	B-DC14	B-DC15	B-DC16	B-Ph1	B-Ph2	B-Ph3	B-Ph4	B-Ph5	B-Ph6	B-Ph7	B-Ph8	B-Ph9	B-Ph10	B-Ph11	B-Ph12	B-Ph13	B-Ph14	B-Ph15	B-Ph16	

Term	0.00000e+00	0.00000e+00	0.00000e+00	0.00000e+00	0.00000e+00	0.00000e+00	0.00000e+00	0.00000e+00	0.00000e+00	0.00000e+00	0.00000e+00	0.00000e+00	0.00000e+00	0.00000e+00	0.00000e+00	0.00000e+00	0.00000e+00	0.00000e+00	0.00000e+00	0.00000e+00	0.00000e+00	0.00000e+00	0.00000e+00	0.00000e+00	0.00000e+00	0.00000e+00	0.00000e+00	0.00000e+00	0.00000e+00	0.00000e+00	0.00000e+00	0.00000e+00	3.87151e+01	-1.35358e+02	-1.28243e+02	-1.82075e+02	-6.48011e+01	-7.49837e+01	-1.59417e+02	-1.62015e+02	-5.24993e+01	-7.30037e+01	-1.73374e+02	-1.72547e+02	-1.88450e+02	-1.78024e+02	-6.44271e+01	-1.50473e+02	
Factor	6.20168e-05	1.83616e-04	6.50966e-05	1.67319e-01	3.99798e-06	2.33925e-06	2.07214e-01	7.30801e-02	3.69325e-06	2.57816e-06	1.33795e-01	3.71403e-02	4.41454e-02	1.10510e-02	2.54457e-06	1.56295e-02	9.55063e-06	1.16113e-05	3.25442e-06	8.39797e-02	1.21577e-07	1.29098e-07	9.67151e-02	3.67330e-02	1.22588e-07	1.28699e-07	6.51813e-02	1.80533e-02	2.20184e-02	5.60602e-03	1.24295e-07	7.68503e-03	X	X	X	X	X	X	X	X	X	X	X	X	X	X	X	X	



#DISTANCE SETTINGS
A = Detector Channel
A-1	A-2	A-3	A-4	A-5	A-6	A-7	A-8	A-9	A-10	A-11	A-12	A-13	A-14	A-15	A-16	

2.5000e+00	3.0000e+00	2.5000e+00	3.0000e+00	2.0000e+00	3.0000e+00	1.5000e+00	3.0000e+00	3.0000e+00	3.0000e+00	3.0000e+00	3.0000e+00	3.0000e+00	3.0000e+00	1.5000e+00	3.0000e+00	

B = Detector Channel
B-1	B-2	B-3	B-4	B-5	B-6	B-7	B-8	B-9	B-10	B-11	B-12	B-13	B-14	B-15	B-16	

1.0000e+01	1.0000e+01	1.0000e+01	1.4400e+00	1.0000e+01	1.0000e+01	1.5100e+00	1.9400e+00	1.0000e+01	1.0000e+01	1.9900e+00	2.4900e+00	2.4100e+00	2.9000e+00	1.0000e+01	2.9800e+00	




#DATA BEGINS
time	group	step	mark	flag	A-AC1	A-AC2	A-AC3	A-AC4	A-AC5	A-AC6	A-AC7	A-AC8	A-AC9	A-AC10	A-AC11	A-AC12	A-AC13	A-AC14	A-AC15	A-AC16	A-DC1	A-DC2	A-DC3	A-DC4	A-DC5	A-DC6	A-DC7	A-DC8	A-DC9	A-DC10	A-DC11	A-DC12	A-DC13	A-DC14	A-DC15	A-DC16	A-Ph1	A-Ph2	A-Ph3	A-Ph4	A-Ph5	A-Ph6	A-Ph7	A-Ph8	A-Ph9	A-Ph10	A-Ph11	A-Ph12	A-Ph13	A-Ph14	A-Ph15	A-Ph16	B-AC1	B-AC2	B-AC3	B-AC4	B-AC5	B-AC6	B-AC7	B-AC8	B-AC9	B-AC10	B-AC11	B-AC12	B-AC13	B-AC14	B-AC15	B-AC16	B-DC1	B-DC2	B-DC3	B-DC4	B-DC5	B-DC6	B-DC7	B-DC8	B-DC9	B-DC10	B-DC11	B-DC12	B-DC13	B-DC14	B-DC15	B-DC16	B-Ph1	B-Ph2	B-Ph3	B-Ph4	B-Ph5	B-Ph6	B-Ph7	B-Ph8	B-Ph9	B-Ph10	B-Ph11	B-Ph12	B-Ph13	B-Ph14	B-Ph15	B-Ph16	aux-1	digaux	

28542.938	1	1	0	256	0.081034	0.22369	0.13836	0.16862	0.12012	0.042155	0.093932	0.18536	0.17512	0.1614	0.09785	0.088288	0.11324	0.15749	0.18916	0.089449	-2.3167	-2.1979	-2.4562	-2.6312	-2.2	-2.7292	-2.3833	-2.4688	-2.6604	-2.3	-2.6646	-2.6021	-2.3104	-2.6792	-2.45	-2.6104	-56.179	-59.178	-88.048	-120.357	166.803	-79.108	-47.336	36.267	-118.564	-4.152	149.811	63.744	-63.809	-69.029	152.339	161.368	0.00057381	0.00048074	7.4018e-05	1123.6	3.5194e-06	4.4295e-06	1223.1	233.91	6.9937e-06	8.8849e-06	296.73	82.265	64.911	19.041	5.0175e-06	26.334	0.00083884	0.00093693	0.00025802	1112.4	9.849e-06	1.0126e-05	1217.9	235.33	9.9958e-06	1.0405e-05	298.81	83.848	66.304	19.561	9.6935e-06	27.259	17.530	1.471	-99.219	-134.656	-60.538	-72.641	-134.506	-127.225	-53.929	2.846	-127.490	-121.299	-120.286	-112.811	43.190	-113.557	-8191	255	
28543.008	1	1	0	0	0.24309	0.46588	0.19792	0.34729	0.1118	0.17053	0.11675	0.029255	0.21139	0.13224	0.20404	0.28045	0.18983	0.070391	0.22026	0.24995	-2.3396	-2.425	-2.3917	-2.875	-2.3021	-2.7229	-2.6146	-2.3208	-2.6729	-2.4625	-2.5125	-2.6292	-2.1979	-2.4688	-2.5604	-2.4146	59.640	-28.963	27.027	188.625	-122.842	59.582	-132.846	168.943	71.443	-12.324	142.968	126.848	205.331	-132.179	209.941	75.583	0.00048392	0.00020621	3.7084e-05	1119.3	1.0376e-05	5.9388e-06	1221.9	233.68	6.3153e-06	4.4973e-06	294.44	82.543	64.688	19.041	5.9444e-06	26.197	0.00081252	0.00090309	0.00024586	1109.1	9.7368e-06	9.8787e-06	1212.8	234.82	9.2927e-06	9.8332e-06	297.76	83.702	66.134	19.541	9.3206e-06	27.171	16.006	-71.790	-25.903	-134.821	-24.182	14.187	-134.602	-127.386	35.093	3.129	-127.600	-120.883	-120.609	-113.121	-4.277	-113.595	-8191	255	
28543.129	1	1	0	0	0.12261	0.12218	0.034487	0.15666	0.22398	0.37673	0.047646	0.15364	0.10278	0.096201	0.12331	0.13773	0.18054	0.10525	0.28897	0.084564	-2.2875	-2.4562	-2.3167	-2.9875	-2.2667	-2.6208	-2.6646	-2.3125	-2.8187	-2.4562	-2.6479	-2.6708	-2.3458	-2.6688	-2.7042	-2.4479	195.315	99.445	35.273	110.899	-139.719	164.941	-77.537	122.090	-46.993	-21.807	-124.593	134.074	-63.382	26.888	10.889	7.328	0.00043193	0.00027948	0.00014458	1112.2	8.0242e-06	1.9489e-06	1217.9	233.23	2.7126e-06	3.9347e-06	294.98	81.954	64.845	18.997	4.1057e-06	26.265	0.00077139	0.00085679	0.00024434	1105.1	9.4072e-06	9.6886e-06	1210.6	234.62	9.3384e-06	9.4685e-06	297.24	83.506	65.989	19.512	9.2597e-06	27.124	8.822	-59.171	-70.539	-134.640	12.792	-42.832	-134.528	-127.325	-126.927	-5.976	-127.202	-120.858	-120.121	-113.135	-17.937	-113.847	-8191	255	
28543.225	1	1	0	0	0.047172	0.078281	0.10447	0.22196	0.16637	0.17579	0.25403	0.36877	0.21014	0.0065061	0.050523	0.29533	0.22473	0.24338	0.13543	0.17072	-2.3417	-2.3833	-2.4562	-2.8542	-2.3438	-2.4625	-2.9604	-2.5104	-2.5729	-2.5979	-2.475	-2.6729	-2.4313	-2.525	-2.5812	-2.5729	-118.770	-119.376	-4.222	199.482	158.240	35.275	174.766	142.528	118.109	27.637	-114.530	166.298	-69.471	147.838	144.813	181.631	0.00045921	0.00044414	0.00010607	1110	4.5276e-06	3.1194e-06	1209.4	233.36	5.9394e-06	2.5383e-06	294.87	82.315	64.771	18.978	4.629e-06	26.318	0.00078142	0.00086526	0.00024112	1101.8	9.3601e-06	9.5622e-06	1208.4	234.31	9.3251e-06	9.5189e-06	297.46	83.7	66.036	19.515	9.4558e-06	27.204	17.323	0.973	-47.500	-134.712	26.511	-44.520	-134.610	-127.113	-64.206	66.063	-127.198	-120.861	-120.261	-112.980	-56.931	-113.834	-8191	255	
28543.320	1	1	0	0	0.11758	0.27861	0.10957	0.13567	0.14159	0.084038	0.35241	0.12166	0.079783	0.27939	0.207	0.0759	0.25646	0.19375	0.050162	0.24799	-2.1854	-2.1771	-2.4313	-2.6792	-2.3083	-2.4146	-2.8479	-2.2083	-2.5646	-2.4271	-2.2583	-2.7438	-2.3792	-2.3292	-2.5771	-2.2521	21.513	194.257	-122.483	93.376	138.805	-95.009	154.312	39.358	49.329	139.031	111.333	129.638	-121.635	-113.421	127.298	126.598	0.00048019	0.00028019	8.7601e-05	1114.5	6.6344e-06	4.5952e-06	1220.2	233.2	2.1917e-06	6.4897e-06	294.43	82.271	65.266	19.018	1.1764e-06	26.173	0.00078092	0.00087251	0.00025502	1103.8	9.6995e-06	9.9911e-06	1210.3	233.93	9.7095e-06	9.9568e-06	297.84	83.532	66.204	19.575	9.6083e-06	27.106	9.632	-84.348	-62.625	-134.558	-63.894	16.323	-134.599	-126.993	-56.710	43.700	-127.514	-120.807	-120.239	-113.193	103.374	-113.701	-8191	255	
28543.418	1	1	0	0	0.37594	0.1445	0.19797	0.36213	0.059376	0.11224	0.33865	0.1529	0.15154	0.088294	0.11827	0.31436	0.13466	0.35566	0.2622	0.1015	-2.1479	-2.5854	-2.0354	-2.8104	-2.4292	-2.4167	-2.8104	-2.3708	-2.425	-2.6333	-2.1958	-2.5667	-2.375	-2.2042	-2.7083	-2.4021	57.576	-7.893	-0.197	-124.871	-94.617	76.971	139.888	131.849	-94.345	-109.478	168.075	149.524	13.736	202.778	-108.192	106.691	0.00056348	0.00039505	0.0001971	1111.3	8.5236e-06	6.3826e-06	1218.5	233.43	1.4415e-06	3.6522e-06	295.81	82.558	64.893	18.827	7.8137e-06	26.134	0.00080506	0.00090459	0.00025155	1103.7	9.4789e-06	9.8997e-06	1212.3	234.2	9.4702e-06	9.7146e-06	297.58	83.635	65.896	19.452	9.4449e-06	27.12	19.523	-75.822	-59.540	-134.633	-0.102	-36.332	-134.745	-126.996	-32.179	82.319	-127.353	-120.779	-120.604	-113.108	-7.197	-114.003	-8191	255	
28543.514	1	1	0	0	0.10137	0.35055	0.15523	0.12759	0.10601	0.14243	0.30444	0.22588	0.20807	0.36707	0.11	0.023407	0.10738	0.20776	0.17459	0.059376	-1.9229	-2.5854	-2.3479	-2.6854	-2.4	-2.2333	-2.7687	-2.5042	-2.4125	-2.5979	-2.2687	-2.6896	-2.4167	-2.4542	-2.4854	-2.3271	196.712	-132.633	111.268	-0.305	140.627	-94.088	107.542	105.867	-65.217	60.401	202.159	-40.157	-110.619	188.291	-98.957	99.643	0.00042929	0.00041922	7.2061e-05	1114.5	9.812e-06	2.2624e-06	1219.3	234.02	5.2425e-06	5.0208e-06	295	81.692	64.414	18.953	6.4684e-06	26.385	0.00076369	0.00084516	0.00024334	1104.1	9.0177e-06	9.4675e-06	1208.1	234.47	8.9017e-06	9.2489e-06	296.74	83.289	65.857	19.448	9.2211e-06	27.175	11.542	-63.579	-40.811	-134.677	-34.935	64.381	-134.835	-127.181	-21.247	-13.551	-127.442	-121.069	-120.541	-112.939	-28.037	-113.876	-8191	255	
28543.609	1	1	0	0	0.063571	0.089449	0.13595	0.097037	0.2049	0.18252	0.15237	0.039454	0.20153	0.22423	0.042888	0.27708	0.17039	0.18734	0.13977	0.18669	-2.0563	-2.425	-2.15	-2.7	-2.3458	-2.3333	-2.6125	-2.4938	-2.4125	-2.7917	-2.3104	-2.4604	-2.5625	-2.3021	-2.6771	-2.5104	208.800	131.721	6.459	-122.487	163.612	-48.464	171.679	171.392	66.994	-73.371	126.283	145.946	-137.358	99.028	-82.895	62.440	0.00059746	0.0005532	7.9826e-05	1112.9	7.9536e-06	8.4947e-07	1216.3	233.56	3.3572e-06	5.2207e-06	293.86	81.943	64.775	18.867	1.1975e-06	26.277	0.00077032	0.00086862	0.00023724	1103.2	9.2591e-06	9.5958e-06	1207.8	233.95	9.4763e-06	9.7023e-06	296.79	83.628	65.981	19.487	9.3788e-06	27.203	7.977	-34.907	-52.792	-134.932	68.987	10.827	-134.761	-127.413	-55.567	15.955	-127.581	-120.857	-120.595	-112.623	137.511	-113.422	-8191	255	
28543.705	1	1	0	0	0.23028	0.1315	0.14757	0.30225	0.13046	0.15695	0.064232	0.38539	0.079011	0.13323	0.32412	0.045868	0.18113	0.07835	0.3242	0.10028	-1.9458	-2.6979	-2.3104	-2.4354	-2.4708	-2.1437	-2.85	-2.4188	-2.2396	-2.6312	-2.2458	-2.375	-2.5812	-2.2604	-2.4542	-2.4458	-113.118	-75.511	55.595	167.184	-10.808	73.296	-142.514	175.415	32.088	135.742	126.643	28.421	83.807	-81.104	37.041	187.809	0.00052767	0.00037598	0.00015137	1114.8	2.8201e-06	2.8369e-06	1223.6	233.02	9.6146e-06	4.3245e-06	294.28	81.918	65.063	18.938	6.6023e-06	26.355	0.00080042	0.00086847	0.00024628	1103.8	9.4685e-06	9.8351e-06	1210	234.06	9.2894e-06	9.6919e-06	296.58	83.354	66.175	19.515	9.4457e-06	27.194	6.344	-116.741	-57.293	-134.764	193.769	21.952	-134.946	-127.333	2.718	-29.974	-127.362	-120.546	-120.717	-112.905	2.907	-113.819	-8191	255	
28543.803	1	1	0	0	0.24064	0.21019	0.18539	0.13527	0.16843	0.21633	0.20908	0.14408	0.14699	0.12217	0.14373	0.18705	0.091939	0.24356	0.25667	0.14363	-1.6187	-2.6021	-2.4437	-2.55	-2.6083	-2.3979	-2.6021	-2.4875	-2.1312	-2.5729	-2.3	-2.5292	-2.5792	-2.3167	-2.55	-2.5667	117.696	32.638	32.828	192.915	-142.692	94.789	174.461	127.497	-82.323	-25.145	104.530	152.603	-112.453	164.808	92.718	183.427	0.00046018	0.0004815	0.00016987	1105.9	1.8789e-06	6.0125e-06	1217.1	233.04	3.5954e-06	3.7282e-06	294.21	81.922	64.047	18.958	5.2972e-06	26.137	0.00078552	0.0008721	0.00025109	1100.3	9.3817e-06	9.7504e-06	1210.8	233.8	9.3198e-06	9.628e-06	296.62	83.252	65.952	19.495	9.4045e-06	27.176	0.818	-96.742	-23.849	-134.770	172.036	42.541	-134.716	-127.295	145.153	-26.020	-127.231	-120.947	-120.271	-113.104	-68.511	-113.940	-8191	255	
28543.922	1	1	0	0	0.11841	0.26463	0.056177	0.12143	0.057496	0.12376	0.32456	0.094752	0.16787	0.24186	0.075783	0.1369	0.26713	0.091272	0.19368	0.053649	-1.6333	-2.4271	-2.3333	-2.3625	-2.7313	-2.3	-2.7042	-2.475	-2.1729	-2.6104	-2.5896	-2.4042	-2.6813	-2.3208	-2.4792	-2.5708	-51.774	127.217	-21.657	120.731	-29.067	111.717	137.010	-99.032	-64.525	-48.052	36.725	-54.036	34.133	133.512	51.529	168.164	0.00058289	0.00043958	0.00015815	1113.9	1.5959e-05	4.6168e-06	1218.1	232.77	2.8802e-06	4.8824e-06	293.35	82.352	64.762	18.879	4.6347e-06	26.405	0.00080349	0.00089298	0.00025059	1103.4	9.7304e-06	9.9134e-06	1209.1	233.83	9.7672e-06	9.8659e-06	296.43	83.663	66.036	19.447	9.7183e-06	27.209	16.556	-76.167	-51.256	-134.395	-23.235	9.620	-134.896	-127.538	-66.301	26.177	-127.023	-121.007	-120.425	-112.771	23.825	-113.491	-8191	255	
28544.018	1	1	0	0	0.24338	0.1061	0.25985	0.13499	0.23954	0.12277	0.3027	0.15595	0.12012	0.26376	0.11564	0.19112	0.18082	0.11913	0.074832	0.30041	-1.75	-2.6646	-2.3	-2.5104	-2.6708	-2.2417	-2.6458	-2.5062	-2.1104	-2.4688	-2.4042	-2.1729	-2.6458	-2.4313	-2.4562	-2.6375	-54.594	12.964	21.424	209.205	102.171	-108.143	110.092	204.664	33.571	162.682	142.624	15.329	184.694	-95.226	195.270	-74.362	0.00051053	0.0002647	0.00012203	1110.1	8.8718e-06	3.2894e-06	1217.9	232.5	7.909e-06	7.6818e-06	293.73	82.363	64.666	18.958	4.8919e-06	26.065	0.00081938	0.00090878	0.00025224	1102.9	9.854e-06	1.0097e-05	1211.9	233.95	9.886e-06	9.9401e-06	297.34	83.7	65.971	19.534	9.7844e-06	27.138	25.556	-56.781	-23.211	-134.589	-5.303	-45.753	-134.693	-127.229	-20.188	1.370	-127.705	-121.001	-120.296	-112.600	-31.901	-113.490	-8191	255	
28544.113	1	1	0	0	0.25704	0.33718	0.18844	0.21336	0.10844	0.166	0.18354	0.16809	0.18101	0.13249	0.12639	0.24057	0.0164	0.21043	0.091509	0.072461	-1.7875	-2.4292	-2.5979	-2.3042	-2.5125	-2.3771	-2.5229	-2.7375	-2.35	-2.7958	-2.6417	-2.3688	-2.7146	-2.5979	-2.2583	-2.5833	165.938	-87.478	-58.822	112.018	140.505	-113.220	193.559	134.740	96.104	-140.135	-84.814	180.882	34.676	88.036	137.476	172.596	0.00056659	0.00038395	0.00013544	1111.4	3.9726e-06	3.888e-06	1219.7	232.67	7.9802e-06	6.4976e-06	296.41	82.249	64.707	18.885	3.7033e-06	26.38	0.000832	0.00088983	0.00025622	1104	9.6772e-06	9.9193e-06	1211.4	234.22	9.8027e-06	9.9224e-06	296.99	83.46	65.967	19.471	9.8597e-06	27.14	18.051	-20.871	-32.010	-134.607	-85.262	57.214	-134.566	-127.413	23.766	22.634	-127.703	-120.998	-120.493	-112.638	-50.025	-113.767	-8191	255	
28544.234	1	1	0	0	0.25144	0.13678	0.15572	0.37228	0.084615	0.11885	0.192	0.2844	0.21507	0.1338	0.23414	0.1432	0.15836	0.23434	0.090444	0.20942	-1.7896	-2.4208	-2.4375	-2.1958	-2.6	-2.475	-2.4208	-2.8812	-2.2458	-2.3729	-2.5563	-2.2875	-2.5979	-2.3167	-2.3729	-2.7708	-16.108	114.729	-17.429	155.229	190.757	212.245	107.606	120.780	60.851	-138.889	-47.834	-110.010	-124.808	62.775	113.469	85.787	0.00054407	0.00042355	0.00023275	1114.9	3.26e-06	4.6165e-06	1217.3	232.75	1.2524e-05	5.364e-06	293.9	82.551	64.63	18.904	2.713e-06	26.289	0.00081857	0.0008915	0.00025168	1104.1	9.5271e-06	9.823e-06	1210.1	233.91	9.6546e-06	9.7659e-06	297.23	83.456	65.901	19.487	9.8512e-06	27.192	17.570	-28.619	-73.975	-134.788	-114.075	-15.912	-134.823	-127.198	-67.374	43.230	-127.638	-120.820	-120.571	-112.922	-37.327	-113.476	-8191	255	
28544.305	1	1	0	0	0.053152	0.17825	0.12747	0.13987	0.12929	0.20669	0.20903	0.34918	0.12506	0.11412	0.18464	0.17033	0.13043	0.26016	0.05213	0.053257	-1.9312	-2.4	-2.5125	-2.3812	-2.7313	-2.4771	-2.3396	-2.7521	-2.2854	-2.6125	-2.7104	-2.1021	-2.4292	-2.6354	-2.3937	-2.85	28.924	42.775	72.730	-144.384	162.158	139.677	51.927	-5.771	-26.991	30.607	109.469	191.620	-81.995	-77.955	-143.304	-87.273	0.00063748	0.00027721	4.2022e-05	1114.1	2.2511e-06	2.6489e-06	1219	232.96	8.0897e-06	5.1696e-06	294.24	82.218	64.962	18.9	4.9295e-06	26.281	0.00078858	0.00089581	0.00024346	1103.9	9.4369e-06	9.7259e-06	1210.8	234.1	9.4114e-06	9.6677e-06	297.46	83.51	66.114	19.487	9.4459e-06	27.162	17.155	26.786	-125.002	-134.683	-30.215	-34.373	-134.705	-127.245	-81.703	20.283	-127.297	-121.200	-120.495	-113.334	-31.955	-113.661	-8191	255	
28544.402	1	1	0	0	0.11269	0.095094	0.15303	0.43871	0.13385	0.23619	0.16869	0.21146	0.044041	0.15033	0.097392	0.1831	0.17118	0.11947	0.17537	0.081165	-1.8708	-2.1542	-2.7083	-2.4896	-2.3833	-2.5792	-2.3646	-2.5896	-2.3771	-2.5479	-2.6271	-2.3937	-2.4896	-2.6292	-1.9792	-2.4354	6.287	178.056	168.501	201.307	-70.086	-74.515	121.825	-33.946	41.199	91.422	-125.932	110.987	-94.936	212.062	52.344	74.791	0.00049523	0.00023271	4.0384e-05	1115.2	7.1872e-06	1.3815e-06	1219.4	232.84	1.0319e-05	6.3801e-06	295.01	82.785	64.667	18.859	2.8958e-06	26.353	0.00078295	0.00089772	0.00025162	1104.7	9.5331e-06	9.8446e-06	1211.1	233.78	9.4395e-06	9.6715e-06	297.33	83.577	65.952	19.518	9.5433e-06	27.168	22.604	-12.228	196.067	-134.590	52.905	84.941	-134.721	-127.162	-66.711	-117.383	-127.746	-120.666	-120.112	-113.548	-90.510	-114.165	-8191	255	
28544.521	1	1	0	0	0.25683	0.11575	0.17814	0.18849	0.16299	0.13985	0.14022	0.085664	0.3598	0.1035	0.053708	0.24243	0.31091	0.16049	0.033601	0.17739	-2.0854	-2.3271	-2.6604	-2.5521	-2.4958	-2.3875	-2.4646	-2.7708	-2.5083	-2.2042	-2.3396	-2.4104	-2.4562	-2.6292	-2.4083	-2.5271	153.398	211.447	84.761	121.808	192.077	106.101	121.596	204.785	-35.925	43.466	81.425	-140.097	-30.063	137.444	105.781	82.567	0.0004669	0.0002733	0.00014138	1114.9	5.8758e-06	6.8364e-06	1218.4	233.21	4.8529e-06	1.41e-06	294.61	82.242	64.42	18.825	9.8241e-07	26.637	0.00078998	0.00089196	0.00024551	1105.9	9.5007e-06	9.8798e-06	1213.6	233.97	9.5348e-06	1.0165e-05	297.09	83.459	66.028	19.451	9.5575e-06	27.268	5.505	-102.535	-121.186	-134.789	8.884	12.176	-134.558	-127.514	31.911	-66.044	-127.285	-120.652	-120.263	-113.260	56.005	-113.436	-8191	255	
28544.617	1	1	0	0	0.14322	0.19265	0.23133	0.34208	0.033815	0.181	0.36856	0.20274	0.12245	0.025803	0.1849	0.33259	0.20477	0.21251	0.055814	0.46047	-2.075	-2.2667	-2.6021	-2.4146	-2.2896	-2.6	-2.3042	-2.6188	-2.4729	-2.3083	-2.5458	-2.3354	-2.4208	-2.8542	-2.3333	-2.4958	199.203	51.336	27.077	213.289	26.340	177.482	130.401	171.608	37.219	-73.483	170.715	107.406	33.616	-22.783	7.069	-57.617	0.00055377	0.0001052	0.00012676	1114.3	8.7564e-06	6.8232e-06	1221.3	231.86	7.0752e-06	4.8889e-06	294.01	82.123	65.103	18.769	4.83e-06	26.469	0.00080597	0.00091698	0.00024881	1106.8	9.7406e-06	1.0258e-05	1213.2	234.07	9.9133e-06	1.017e-05	297.81	83.654	66.144	19.539	1.0224e-05	27.297	1.805	161.773	-38.064	-134.713	-6.314	12.962	-134.731	-126.974	-66.057	1.023	-127.688	-120.928	-120.356	-113.087	-18.533	-113.417	-8191	255	
28544.713	1	1	0	0	0.14986	0.081485	0.074255	0.18941	0.094306	0.19702	0.12066	0.16393	0.13716	0.11541	0.041182	0.15095	0.18783	0.16374	0.11226	0.2115	-2.1125	-2.1896	-2.7021	-2.5	-2.1125	-2.5687	-2.3708	-2.4938	-2.7687	-2.3042	-2.5167	-2.4125	-2.3187	-2.8542	-2.3667	-2.4354	-59.238	-100.995	144.978	187.443	57.581	-10.609	-71.343	192.892	-123.208	-25.112	-15.451	-134.932	-113.169	-18.993	138.803	48.723	0.00056283	0.00025486	7.8679e-05	1117.7	8.3047e-06	1.7537e-06	1228.5	233.74	4.2472e-06	1.8647e-06	295.22	82.478	64.841	19	6.6658e-06	26.478	0.00085946	0.00098079	0.00027167	1109.4	1.0457e-05	1.0782e-05	1219.3	234.8	1.0536e-05	1.1028e-05	298.3	84.045	66.537	19.632	1.0386e-05	27.317	31.307	-30.849	-12.053	-134.574	-3.858	24.257	-134.749	-127.170	-6.260	-14.535	-127.637	-120.818	-120.658	-112.828	20.545	-113.441	-8191	255	
28544.809	1	1	0	0	0.16801	0.24712	0.16852	0.235	0.092135	0.18914	0.39815	0.36636	0.18775	0.11732	0.13601	0.19435	0.081771	0.19	0.13571	0.14649	-2.1437	-2.1562	-2.5042	-2.5792	-2.2687	-2.8187	-2.4917	-2.5312	-2.5687	-2.3063	-2.5896	-2.45	-2.2604	-2.7021	-2.3083	-2.4479	-8.652	-20.127	-142.191	206.630	106.736	-137.894	194.402	125.957	-35.225	150.468	-77.640	98.653	-126.024	122.184	88.331	36.479	0.0005565	0.00048677	7.7057e-05	1114.5	1.1281e-05	5.735e-06	1227.8	234.44	9.0579e-06	6.5176e-06	295.19	82.697	65.096	19.008	8.9082e-06	26.353	0.00086348	0.00097675	0.00027088	1111.1	1.0417e-05	1.0553e-05	1220.5	235.2	1.0404e-05	1.0597e-05	298.23	84.013	66.516	19.651	1.0385e-05	27.308	12.884	-51.956	-130.775	-134.593	27.252	-15.497	-134.829	-127.494	-22.152	6.216	-127.718	-120.779	-120.127	-112.832	23.336	-113.396	-8191	255	
28544.904	1	1	0	0	0.14214	0.32879	0.1373	0.23671	0.27512	0.21618	0.20305	0.13248	0.15002	0.13238	0.21984	0.17802	0.11407	0.10285	0.065117	0.23736	-2.2521	-2.2104	-2.5771	-2.7938	-2.1063	-2.75	-2.5208	-2.4	-2.7438	-2.3063	-2.4896	-2.7646	-2.3875	-2.7104	-2.5646	-2.4437	135.523	30.223	154.672	130.053	144.095	-2.256	105.912	45.498	193.926	153.625	-133.810	-7.209	12.702	-13.037	146.852	155.906	0.00064851	0.00040461	0.00020261	1119	4.3774e-06	4.8606e-07	1229.1	234.71	2.2015e-06	5.8607e-06	295.19	82.271	65.33	19.019	5.601e-06	26.42	0.00087987	0.00097699	0.00027103	1112	1.045e-05	1.0528e-05	1221	235.57	1.0288e-05	1.0391e-05	298.74	83.693	66.491	19.632	1.0121e-05	27.317	5.223	-71.301	-47.643	-134.758	68.211	133.140	-134.804	-127.235	203.020	-24.692	-127.164	-120.881	-120.710	-112.783	-89.647	-113.548	-8191	255	
28545.002	1	1	0	0	0.23033	0.090372	0.19538	0.18831	0.11071	0.090961	0.28753	0.040145	0.40243	0.27418	0.083318	0.11303	0.13553	0.023023	0.11136	0.24766	-2.2417	-2.3146	-2.6229	-2.8021	-2.2958	-2.6396	-2.7062	-2.55	-2.8979	-2.5396	-2.5021	-2.5667	-2.2208	-2.7042	-2.6688	-2.2	75.980	170.063	-134.465	-15.752	-21.872	109.474	189.145	17.187	-137.781	-71.050	150.761	-14.026	26.451	-95.985	107.918	74.427	0.00048555	0.00033566	0.00010069	1121.6	6.2881e-06	3.2061e-06	1227.3	234.53	1.2254e-05	3.3442e-06	297.31	82.598	64.857	19.043	7.0224e-07	26.328	0.00082834	0.00094605	0.00026363	1111.3	1.0107e-05	1.0521e-05	1220.8	235.73	9.8737e-06	1.0358e-05	299.04	83.995	66.464	19.637	1.0124e-05	27.333	10.253	-105.721	-131.226	-134.622	-28.414	-7.244	-134.840	-127.261	-23.964	-6.919	-127.497	-120.902	-120.965	-113.022	-21.291	-113.941	-8191	255	
28545.098	1	1	0	0	0.14537	0.12722	0.11119	0.38798	0.23935	0.34255	0.13354	0.11219	0.26143	0.32142	0.35063	0.14427	0.064462	0.36578	0.16131	0.02489	-2.2479	-2.4229	-2.4604	-2.9417	-2.2646	-2.5396	-2.8083	-2.4771	-2.6292	-2.5604	-2.5312	-2.8583	-2.3563	-2.7875	-2.5875	-2.2792	51.694	-82.090	154.160	135.547	-82.172	37.869	195.040	177.578	132.595	36.337	213.749	164.903	21.832	-132.580	2.956	-82.027	0.00056222	0.00022713	0.00024556	1123	1.0274e-05	6.6376e-06	1224.9	234.53	2.2593e-06	5.4154e-06	296.49	82.481	64.961	18.99	5.4209e-06	26.145	0.00083843	0.00092293	0.00025742	1113.9	9.9637e-06	1.0085e-05	1220.9	235.24	9.6566e-06	9.9785e-06	298.66	83.983	66.242	19.573	9.5821e-06	27.285	10.972	-78.645	-39.121	-134.844	-50.547	21.524	-134.588	-127.379	-73.797	5.296	-127.248	-120.824	-120.770	-113.335	-2.561	-114.004	-8191	255	
28545.193	1	1	0	0	0.19878	0.085352	0.27957	0.2975	0.27059	0.085286	0.22493	0.10805	0.18896	0.095353	0.32937	0.11529	0.16594	0.12314	0.11648	0.16349	-2.0729	-2.4479	-2.4417	-2.8354	-2.5	-2.4688	-2.8187	-2.3417	-2.75	-2.5812	-2.5667	-2.7583	-2.1958	-2.6667	-2.675	-2.4562	-117.842	-86.851	24.923	141.576	187.522	106.749	164.830	146.549	-2.323	-103.337	115.301	108.749	95.608	51.001	174.096	97.035	0.00060781	0.00041427	0.0001741	1121.5	9.0334e-06	4.2942e-06	1226.1	233.83	8.3742e-06	7.7844e-07	295.86	82.429	65.521	19.07	2.4478e-06	26.465	0.00079608	0.0009058	0.00024656	1112.6	9.3655e-06	9.5665e-06	1218.6	234.78	9.2207e-06	9.5886e-06	297.77	84.005	66.393	19.598	9.5376e-06	27.341	13.168	-81.661	26.957	-134.688	12.121	47.544	-134.661	-127.231	-18.201	197.947	-127.686	-120.560	-119.916	-113.116	14.816	-113.682	-8191	255	
28545.314	1	1	0	0	0.077706	0.10964	0.068989	0.28452	0.13294	0.062244	0.15964	0.096337	0.045457	0.18771	0.20803	0.15026	0.26019	0.28687	0.18461	0.19815	-2.2	-2.6437	-2.3417	-2.8563	-2.4417	-2.5583	-2.8771	-2.2521	-2.6229	-2.6104	-2.3417	-2.8063	-2.4813	-2.425	-2.8187	-2.4271	132.118	-28.325	49.534	130.667	-3.997	-15.708	-132.488	123.900	-30.737	104.471	92.520	119.710	183.605	151.133	-89.864	124.176	0.00048464	0.00027815	9.6829e-05	1116.8	2.7384e-06	4.6041e-06	1228.9	234.37	8.0726e-06	3.9712e-06	297	82.559	64.837	19.097	3.9155e-06	26.496	0.00077629	0.00088301	0.0002506	1110.8	9.5633e-06	9.9325e-06	1221.9	235.3	9.7261e-06	9.8517e-06	298.83	83.963	66.279	19.629	9.9338e-06	27.383	10.184	66.869	-53.967	-134.767	199.921	-46.627	-134.702	-127.460	-41.412	39.714	-127.301	-121.033	-120.339	-112.976	-12.461	-113.744	-8191	255	
28545.410	1	1	0	0	0.28185	0.17395	0.14521	0.38484	0.15967	0.27687	0.29381	0.19492	0.1511	0.28475	0.054339	0.16095	0.23884	0.1164	0.2091	0.53928	-1.9917	-2.6417	-2.3792	-2.7604	-2.6188	-2.3375	-2.8979	-2.4938	-2.6333	-2.6708	-2.5208	-2.7167	-2.4479	-2.5563	-2.7229	-2.4292	187.048	93.744	42.231	158.301	5.971	67.898	190.214	140.187	-120.659	-27.613	199.620	-142.587	92.371	99.197	184.698	38.236	0.00051281	0.00023193	0.00014732	1122.9	3.9364e-06	5.0997e-06	1232.5	234.33	5.9227e-06	2.1794e-06	294.84	82.578	64.542	19.119	5.4478e-06	26.468	0.00080812	0.00092926	0.00026007	1113.9	1.0016e-05	1.0512e-05	1223	235.5	9.9927e-06	1.0324e-05	298.72	83.966	66.398	19.71	1.016e-05	27.372	3.897	-4.976	5.502	-134.716	-117.408	-0.443	-134.708	-127.332	-8.962	15.136	-127.668	-120.901	-120.492	-112.683	1.790	-114.014	-8191	255	
28545.482	1	1	0	0	0.2122	0.068385	0.18768	0.29578	0.12816	0.017696	0.13197	0.18532	0.15933	0.34459	0.068361	0.071162	0.10693	0.019314	0.048246	0.039178	-1.9875	-2.4562	-2.4479	-2.7896	-2.6229	-2.2812	-2.8625	-2.5896	-2.4479	-2.7375	-2.4188	-2.6333	-2.6333	-2.3917	-2.7521	-2.6167	41.266	147.609	166.311	159.544	-94.407	100.792	38.677	183.834	96.910	193.053	-43.390	91.212	134.762	-141.499	156.195	73.822	0.00061377	0.00034508	6.8718e-05	1124.5	5.8242e-06	1.0006e-05	1235.8	233.4	3.1517e-06	4.9298e-06	295.29	82.257	64.801	19.064	6.1441e-06	26.577	0.00083327	0.00095413	0.00025756	1113.8	9.9609e-06	1.038e-05	1222.6	235.16	9.8717e-06	1.0116e-05	298.41	83.856	66.37	19.616	9.7776e-06	27.39	24.595	-86.493	-38.467	-134.617	49.413	9.321	-134.826	-127.169	-18.470	-21.901	-127.623	-120.719	-120.400	-112.953	-13.361	-113.793	-8191	255	
28545.604	1	1	0	0	0.046704	0.077457	0.2434	0.128	0.15871	0.22732	0.17832	0.068066	0.21814	0.088384	0.08913	0.10954	0.13352	0.0589	0.20402	0.1352	-2.0583	-2.6583	-2.3292	-2.9688	-2.6146	-2.3167	-2.8333	-2.4583	-2.4042	-2.7271	-2.3354	-2.55	-2.5958	-2.2604	-2.7062	-2.4813	87.851	142.834	60.993	88.891	-25.368	132.408	132.951	112.526	99.967	-96.720	-54.058	-124.820	-128.665	2.569	46.015	198.715	0.00052061	0.00045955	8.216e-05	1121.4	6.0494e-06	9.1464e-06	1229	235.79	6.7284e-06	3.1556e-06	296.9	82.446	64.866	19.049	4.8427e-06	26.427	0.00079236	0.00089765	0.00025216	1112.4	9.4343e-06	9.9408e-06	1222.2	235.61	9.5775e-06	9.9533e-06	298.74	83.985	66.518	19.625	9.5992e-06	27.327	20.100	192.440	-61.178	-134.635	-107.607	21.726	-134.731	-127.481	-38.199	55.555	-127.479	-120.748	-120.868	-113.006	114.215	-113.573	-8191	255	
28545.697	1	1	0	0	0.074331	0.21753	0.20526	0.14794	0.28048	0.072293	0.052337	0.1091	0.21474	0.2162	0.23237	0.080226	0.067126	0.21043	0.10415	0.050119	-1.9417	-2.8479	-2.4583	-2.6917	-2.7125	-2.3229	-2.9813	-2.6688	-2.3542	-2.7	-2.6437	-2.6042	-2.7583	-2.5229	-2.6833	-2.6813	55.798	214.039	201.978	-98.979	143.923	-119.635	-8.651	-108.035	197.702	-77.116	175.052	128.193	180.227	-12.320	33.859	183.009	0.0005857	0.0003542	6.3025e-05	1121.8	8.6026e-07	4.2747e-06	1225.8	232.62	9.3196e-06	2.9525e-06	296.37	82.611	64.513	19.07	4.9602e-06	26.446	0.00078614	0.0008842	0.00024597	1111.5	9.4007e-06	9.7526e-06	1217.9	234.53	9.4132e-06	9.3851e-06	298.01	83.77	66.027	19.603	9.2232e-06	27.3	13.752	-64.237	-77.969	-134.868	173.726	-70.956	-134.838	-127.370	-59.417	107.401	-127.628	-120.668	-120.719	-113.470	70.131	-113.899	-8191	255	
28545.795	1	1	0	0	0.20066	0.16113	0.1538	0.16307	0.2056	0.20688	0.24534	0.019786	0.11508	0.10178	0.12884	0.1436	0.16694	0.36743	0.080974	0.1818	-2.0979	-2.6688	-2.4896	-2.5729	-2.7292	-2.3854	-2.6875	-2.6625	-2.5812	-2.6417	-2.6	-2.7458	-2.7146	-2.3292	-2.6104	-2.5396	-1.573	156.204	-43.244	201.977	186.319	193.615	174.244	33.587	164.136	-133.680	211.028	86.765	135.847	175.653	-72.862	22.529	0.00051088	0.00063137	0.00016763	1120.6	8.7919e-06	2.6253e-06	1223	233.32	4.2618e-06	2.1368e-06	298.04	82.462	64.776	19.051	2.9068e-06	26.562	0.00076634	0.00084888	0.00023723	1109.7	9.3728e-06	9.4729e-06	1216.6	234.61	9.3039e-06	9.3192e-06	298.42	83.832	66.143	19.603	9.1771e-06	27.358	15.310	-102.996	-32.726	-134.763	-13.438	49.655	-134.640	-127.584	203.005	-73.759	-127.439	-120.879	-120.494	-112.576	54.571	-113.773	-8191	255	
28545.914	1	1	0	0	0.27883	0.40854	0.034813	0.083729	0.31058	0.17231	0.15876	0.11035	0.11376	0.1189	0.090884	0.25882	0.2195	0.31454	0.18444	0.20343	-2.0375	-2.7104	-2.3667	-2.5062	-2.7146	-2.3083	-2.7208	-2.5271	-2.3979	-2.6833	-2.7125	-2.3917	-2.7771	-2.3854	-2.4562	-2.6271	-85.689	-37.021	-52.682	165.854	150.648	-35.160	141.971	201.635	-48.399	126.829	-41.570	186.478	198.273	43.868	118.453	49.549	0.00055573	0.00036724	9.0959e-05	1122.7	4.9308e-06	6.3536e-06	1223.6	234.4	1.7055e-06	9.7086e-07	294.87	82.628	65.083	19.035	3.16e-06	26.333	0.00078192	0.00085638	0.00024207	1112.4	9.1983e-06	9.7808e-06	1218.4	235.06	9.3885e-06	9.5275e-06	297.54	83.869	66.396	19.627	9.1997e-06	27.282	10.780	-12.411	-61.405	-134.701	-86.473	19.334	-134.828	-127.506	132.230	25.740	-127.530	-120.694	-120.367	-113.061	-23.463	-113.403	-8191	255	
28546.010	1	1	0	0	0.1407	0.26568	0.11647	0.19305	0.020811	0.10903	0.2805	0.15015	0.10804	0.25566	0.12155	0.20916	0.36861	0.071074	0.10344	0.088237	-1.8479	-2.6958	-2.4479	-2.5354	-2.7521	-2.5146	-2.5458	-2.8042	-2.575	-2.7125	-2.7375	-2.3729	-2.8792	-2.3646	-2.5396	-2.7542	40.272	-83.790	-28.188	180.492	120.520	139.416	179.437	163.729	74.441	182.524	109.197	196.858	160.649	127.869	198.604	-41.695	0.00052778	0.00025764	0.00018483	1123.2	5.1399e-06	8.2057e-06	1227.7	234.06	2.4929e-06	5.0895e-06	293.19	82.637	65.491	19.066	1.5325e-06	26.503	0.00077933	0.00086857	0.00023921	1113.4	9.4131e-06	9.6625e-06	1221.5	234.79	9.617e-06	9.7433e-06	297.35	83.989	66.472	19.619	9.3276e-06	27.323	15.171	-56.645	-23.922	-134.494	-66.373	-16.848	-134.671	-127.488	69.389	4.750	-127.715	-120.688	-120.632	-113.306	-23.753	-113.524	-8191	255	
28546.105	1	1	0	0	0.2212	0.10758	0.06361	0.27111	0.11187	0.2103	0.19818	0.055817	0.074353	0.13495	0.14455	0.29874	0.17425	0.21563	0.18721	0.12776	-1.925	-2.5521	-2.4875	-2.4833	-2.7458	-2.4146	-2.5792	-2.7771	-2.4896	-2.6333	-2.6458	-2.5271	-2.6	-2.4646	-2.5375	-2.6646	-104.911	126.730	185.594	-139.164	144.254	59.447	137.448	114.001	-131.294	5.324	174.230	-64.765	-107.028	193.194	99.982	-135.917	0.00047151	0.00048956	0.00017317	1124.9	7.7098e-06	8.0613e-06	1228.7	234.23	6.925e-06	2.3422e-06	294.55	82.392	65.034	19.003	2.3881e-06	26.519	0.00078667	0.00086211	0.00024913	1113	9.4141e-06	9.7838e-06	1220.8	234.74	9.3639e-06	9.4725e-06	298.26	83.831	66.301	19.587	9.4778e-06	27.342	4.605	-91.629	-64.215	-134.903	-7.289	10.761	-134.572	-127.189	3.717	-36.604	-127.296	-121.295	-120.726	-113.271	92.499	-113.900	-8191	255	
28546.201	1	1	0	0	0.11428	0.2183	0.14026	0.16026	0.24089	0.068832	0.16128	0.046953	0.08213	0.062515	0.29009	0.23335	0.10718	0.15329	0.14779	0.11323	-1.8438	-2.5042	-2.5542	-2.4396	-2.4125	-2.575	-2.4208	-2.8333	-2.1833	-2.4813	-2.5125	-2.3688	-2.6583	-2.5917	-2.1083	-2.5542	146.288	172.834	210.734	169.211	48.372	-48.190	139.340	-136.555	-72.142	-131.976	203.456	160.841	-89.172	198.775	-118.530	-94.359	0.00041528	0.0001784	4.9851e-05	1120.6	7.6711e-06	4.0054e-06	1222.9	233.81	4.7266e-06	1.8698e-06	295.29	82.801	64.713	19.013	1.4074e-06	26.502	0.00077543	0.00086722	0.00024185	1111.1	9.2325e-06	9.4852e-06	1219.3	234.86	8.9653e-06	9.5146e-06	297.72	83.863	66.274	19.569	8.9946e-06	27.332	14.267	-22.223	-42.813	-134.612	-41.300	9.516	-134.919	-127.416	6.737	-20.868	-127.437	-120.713	-120.720	-112.588	200.548	-113.952	-8191	255	
28546.299	1	1	0	0	0.11857	0.24336	0.14077	0.077211	0.20615	0.15652	0.15752	0.11513	0.062632	0.2222	0.26643	0.16211	0.074626	0.063681	0.077927	0.1243	-1.7083	-2.3396	-2.6271	-2.2604	-2.5917	-2.4167	-2.3917	-2.5375	-2.4583	-2.3187	-2.6562	-2.3375	-2.425	-2.5208	-2.1271	-2.7313	7.864	132.629	-29.188	170.611	33.445	165.888	62.931	-145.095	20.743	-48.888	119.266	178.205	58.008	11.276	145.419	68.400	0.00050864	5.5091e-05	0.00013331	1117.6	8.6051e-06	4.8097e-06	1222.7	233.93	3.5574e-06	6.5001e-06	295.11	82.515	65.128	18.922	6.8719e-06	26.505	0.00075926	0.00083224	0.0002326	1108.7	8.9222e-06	9.4282e-06	1216.6	234.66	8.8621e-06	9.1704e-06	297.11	83.774	66.022	19.522	8.9707e-06	27.286	2.154	-56.955	-70.850	-134.625	-9.271	-61.315	-134.686	-127.310	3.582	16.103	-127.351	-120.905	-120.355	-112.578	23.797	-113.652	-8191	255	
28546.395	1	1	0	0	0.099472	0.1769	0.32357	0.14019	0.067259	0.12254	0.038657	0.18798	0.10646	0.16064	0.18308	0.19226	0.21284	0.11967	0.08154	0.091013	-1.9354	-2.1354	-2.5979	-2.4125	-2.2271	-2.3688	-2.4146	-2.75	-2.4875	-2.4104	-2.7229	-2.4833	-2.4208	-2.6229	-2.4333	-2.5417	-10.170	135.827	56.111	144.828	-84.362	186.374	199.323	209.243	-102.373	-67.990	112.601	183.090	157.942	76.705	138.608	22.386	0.00056347	0.0003989	3.0163e-05	1118.8	6.3919e-06	4.895e-06	1221.2	234.5	6.2082e-06	9.3973e-07	297.05	82.482	64.581	19.054	3.4112e-06	26.383	0.000746	0.00082675	0.00022693	1108.7	8.8994e-06	9.375e-06	1214	234.77	8.8016e-06	9.3634e-06	297.6	83.617	66.036	19.589	9.159e-06	27.283	11.365	-14.998	-88.427	-134.722	38.300	-17.087	-134.862	-127.383	-22.323	39.551	-127.403	-120.627	-120.609	-112.882	44.849	-113.731	-8191	255	
28546.490	1	1	0	0	0.045369	0.26707	0.20616	0.12921	0.13067	0.031155	0.14345	0.39287	0.23175	0.18016	0.16078	0.14401	0.23542	0.13411	0.13083	0.20391	-1.8417	-2.0333	-2.675	-2.4958	-2.4875	-2.6083	-2.2479	-2.4854	-2.4083	-2.4562	-2.8438	-2.3542	-2.3063	-2.6333	-2.3104	-2.5396	61.739	-3.672	209.485	-0.771	-91.277	169.506	-127.250	201.251	130.744	154.983	-102.554	181.026	102.654	156.872	-5.308	-130.297	0.00052357	0.00017945	6.3705e-05	1120.5	3.1233e-06	6.1608e-06	1223	233.56	1.3275e-05	2.2482e-06	294.96	82.907	64.856	18.935	1.8991e-06	26.433	0.00075209	0.00085691	0.00023058	1108.9	9.1737e-06	9.4656e-06	1214.2	234.1	9.2288e-06	9.4068e-06	297.24	83.674	66.145	19.576	9.3395e-06	27.341	13.421	22.685	212.723	-134.597	-9.397	55.142	-134.856	-127.430	-21.763	117.632	-127.323	-120.956	-120.754	-113.191	-92.067	-113.636	-8191	255	
28546.611	1	1	0	0	0.28785	0.12324	0.11424	0.18454	0.2095	0.13854	0.066906	0.12488	0.063093	0.17728	0.30261	0.09149	0.13897	0.1278	0.22804	0.15753	-2.1271	-2.0854	-2.4792	-2.6125	-2.3833	-2.5687	-2.4375	-2.5229	-2.4354	-2.1375	-2.4625	-2.4708	-2.2729	-2.6958	-2.1958	-2.6146	-102.882	71.665	-106.810	111.546	-81.760	-73.958	159.176	116.808	194.569	84.439	167.519	-23.187	-77.010	-126.693	53.606	-135.975	0.0004988	0.00043907	6.1823e-05	1116.3	8.2443e-06	5.9326e-06	1227	234.77	4.1239e-06	1.4096e-06	295.3	82.614	65.051	18.968	6.4237e-06	26.234	0.00077048	0.00086712	0.00023626	1108.6	9.2798e-06	9.5845e-06	1216	234.54	9.3213e-06	9.5817e-06	297.74	83.719	66.225	19.539	9.3351e-06	27.245	10.997	-86.136	-1.946	-134.767	-64.618	19.951	-134.709	-127.202	-17.667	-145.110	-127.281	-120.607	-120.229	-112.979	4.981	-113.620	-8191	255	
28546.705	1	1	0	0	0.15671	0.035817	0.059242	0.61035	0.19327	0.15622	0.1328	0.13543	0.16375	0.040468	0.17046	0.3476	0.19048	0.076989	0.26582	0.10396	-2.1917	-1.9062	-2.6562	-2.45	-2.2979	-2.8354	-2.5187	-2.5125	-2.4979	-2.2208	-2.6917	-2.4792	-2.3	-2.5604	-2.3438	-2.4104	-75.793	182.206	20.043	201.033	102.683	-23.661	159.742	186.869	-65.191	105.299	-34.517	-117.143	-71.569	-124.193	-69.500	-76.223	0.00050723	0.00026974	0.00011656	1119.8	8.474e-07	6.3448e-06	1227.7	233.5	3.2057e-06	5.8368e-06	295.9	82.351	64.787	18.932	3.2356e-06	26.402	0.0007974	0.00088633	0.00024248	1109.4	9.52e-06	9.5194e-06	1218.1	234.41	9.3366e-06	9.9171e-06	297.57	83.788	66.243	19.559	9.491e-06	27.356	13.422	-85.127	-32.023	-134.743	109.404	-36.093	-135.020	-126.966	74.211	31.147	-127.357	-120.681	-120.542	-113.169	-11.789	-113.351	-8191	255	
28546.777	1	1	0	0	0.1772	0.18644	0.27374	0.22713	0.026798	0.2416	0.08926	0.044324	0.21369	0.073637	0.063689	0.23042	0.23391	0.26527	0.22644	0.25993	-2.2646	-2.2396	-2.4646	-2.5792	-2.3083	-2.7417	-2.5417	-2.4396	-2.6479	-2.4167	-2.5854	-2.5708	-2.1729	-2.625	-2.6333	-2.4646	44.845	162.960	109.067	-120.720	-56.184	14.164	130.307	145.002	204.150	39.805	108.291	173.429	-129.279	-53.035	-92.444	207.701	0.00057495	0.00039483	7.4631e-05	1118.2	2.8536e-06	3.9498e-06	1223.2	234.5	4.465e-06	5.1283e-06	294.15	82.051	64.9	18.961	4.2629e-06	26.34	0.00080108	0.00087967	0.00025099	1109	9.6423e-06	9.908e-06	1217.1	234.8	9.651e-06	9.8149e-06	297.13	83.511	66.171	19.576	9.4583e-06	27.272	16.998	-61.516	-89.025	-134.786	40.735	0.866	-134.770	-127.524	59.920	-12.328	-127.489	-120.754	-120.509	-113.234	-1.512	-113.137	-8191	255	
28546.875	1	1	0	0	0.23567	0.13114	0.11035	0.48813	0.31413	0.23523	0.1426	0.40706	0.28178	0.14934	0.28388	0.31012	0.018816	0.16102	0.34718	0.097874	-2.2896	-2.3937	-2.2771	-2.5938	-2.1167	-2.4458	-2.5542	-2.3854	-2.8792	-2.3729	-2.5479	-2.4479	-2.1708	-2.7313	-2.5208	-2.3771	43.184	0.060	101.373	180.690	48.080	178.734	120.349	157.790	-19.290	-7.316	-83.058	-143.945	190.299	2.824	-63.653	69.950	0.00061716	0.00028188	0.00010667	1115.8	4.7167e-06	4.9558e-06	1228.6	232.96	4.9254e-06	4.8326e-06	294.68	82.075	64.783	19.023	3.1375e-06	26.638	0.00080916	0.00089475	0.00024492	1108.9	9.5742e-06	9.7671e-06	1217.4	234.38	9.5003e-06	9.6436e-06	297.67	83.592	65.978	19.58	9.2494e-06	27.408	12.353	-76.927	-26.903	-134.825	-80.455	4.049	-135.045	-127.429	-45.082	89.632	-127.576	-120.805	-120.700	-113.119	-4.493	-113.489	-8191	255	
28546.994	1	1	0	0	0.14568	0.15695	0.039344	0.19466	0.14164	0.11998	0.22694	0.19527	0.084866	0.20933	0.10592	0.26015	0.256	0.17497	0.094398	0.10888	-2.3021	-2.2812	-2.3167	-2.6417	-2.2229	-2.55	-2.4479	-2.2167	-2.5312	-2.3146	-2.5312	-2.6979	-2.1167	-2.5667	-2.5771	-2.3708	114.670	205.402	124.070	190.288	9.966	-118.565	198.467	-139.855	73.234	-10.868	44.265	213.790	-125.007	-144.180	110.108	140.585	0.00052706	0.00037063	0.00014911	1118.3	1.2239e-05	4.9569e-06	1220.1	233.18	8.2101e-06	2.626e-06	294.84	82.695	64.827	19.048	3.9448e-06	26.425	0.00077267	0.00082781	0.00023594	1108.5	8.9863e-06	9.0576e-06	1214.5	234.16	8.7817e-06	9.1417e-06	296.95	83.757	65.901	19.522	8.9278e-06	27.207	14.104	-17.099	-88.218	-134.938	-18.047	22.616	-134.738	-127.372	2.574	52.142	-127.731	-120.575	-120.198	-112.725	-32.773	-113.599	-8191	255	
28547.090	1	1	0	0	0.12224	0.091027	0.22985	0.19943	0.1564	0.18788	0.32874	0.073097	0.038895	0.15652	0.08392	0.23049	0.063499	0.16417	0.21271	0.25305	-2.3604	-2.3438	-2.2687	-2.6833	-2.3729	-2.4354	-2.6875	-2.25	-2.6271	-2.3625	-2.275	-2.6312	-2.3167	-2.3479	-2.6396	-2.2958	-49.347	117.045	132.845	169.216	-41.209	-15.335	106.387	-96.198	-27.561	-58.816	134.476	116.894	87.103	140.880	141.292	157.706	0.0005439	0.0002689	0.00013402	1111.4	7.4216e-06	4.755e-06	1214.7	234.47	4.9014e-06	6.4927e-06	292.91	82.368	64.622	18.896	3.2004e-06	26.547	0.00074405	0.00083238	0.00022884	1103.6	8.9526e-06	9.2884e-06	1210.9	234.24	8.9014e-06	9.1704e-06	296.65	83.556	66.088	19.549	9.1758e-06	27.348	4.863	-71.852	-56.711	-134.929	63.993	16.071	-134.805	-127.259	26.407	-19.618	-127.474	-120.728	-120.525	-113.415	-83.473	-113.534	-8191	255	
28547.188	1	1	0	0	0.14409	0.27789	0.05249	0.17285	0.10397	0.10862	0.17427	0.17257	0.12305	0.19067	0.10603	0.17101	0.15445	0.13393	0.35697	0.11036	-2.0542	-2.4354	-2.3021	-2.7979	-2.3708	-2.4604	-2.8	-2.4021	-2.7208	-2.5187	-2.3979	-2.65	-2.2604	-2.55	-2.6771	-2.2479	184.608	68.048	-37.397	119.785	158.357	112.353	-133.790	212.988	124.970	-99.513	192.525	20.904	-143.971	51.642	91.748	81.299	0.00043974	0.00048987	1.7077e-06	1111.1	3.6224e-06	3.8056e-06	1222.5	234.45	6.3378e-06	1.4557e-06	294.9	82.35	64.045	19.025	4.7757e-06	26.423	0.00076853	0.0008708	0.00024855	1105.6	9.2495e-06	9.5597e-06	1215	234.24	9.5233e-06	9.4798e-06	297.33	83.654	65.928	19.578	9.2595e-06	27.276	-0.519	-32.189	173.516	-134.729	-38.401	32.997	-134.577	-127.685	2.688	-91.869	-127.601	-120.708	-120.573	-112.946	17.708	-113.599	-8191	255	
28547.283	1	1	0	0	0.45419	0.024875	0.16922	0.229	0.087032	0.21733	0.10688	0.20132	0.34301	0.16763	0.15271	0.11185	0.076672	0.057209	0.31792	0.098313	-2.1479	-2.6958	-2.0812	-2.8417	-2.5333	-2.5375	-2.7708	-2.3271	-2.4313	-2.6	-2.2625	-2.7167	-2.5938	-2.3375	-2.6854	-2.3896	203.648	121.646	-119.504	133.907	38.980	26.794	33.063	160.263	-136.146	118.592	-67.989	-68.158	54.269	-145.113	59.667	163.692	0.00058563	0.00039167	5.5261e-05	1119.3	6.7639e-06	5.0262e-06	1222.1	233.02	5.0388e-06	5.6008e-06	295.64	82.637	64.851	18.993	2.0911e-06	26.274	0.00077273	0.00087486	0.00024409	1108.5	9.0164e-06	9.5127e-06	1215	233.96	8.9699e-06	9.4036e-06	297.27	83.576	66.127	19.555	8.9832e-06	27.212	14.800	-44.434	-19.986	-134.594	-12.760	-15.679	-134.563	-127.419	28.668	62.398	-127.570	-120.563	-120.390	-113.366	-33.462	-113.647	-8191	255	
28547.402	1	1	0	0	0.10546	0.20199	0.1369	0.19376	0.22426	0.088017	0.14827	0.22776	0.13966	0.19679	0.29556	0.10728	0.25502	0.057251	0.13575	0.26364	-2.1813	-2.4396	-2.1333	-2.75	-2.3854	-2.3583	-2.575	-2.2292	-2.3688	-2.5771	-2.3646	-2.5875	-2.4417	-2.2417	-2.6271	-2.3708	-96.150	57.709	85.513	103.594	175.059	139.117	158.460	149.615	130.732	20.954	146.268	17.014	81.021	135.630	20.779	192.305	0.00043507	0.00033739	6.3295e-05	1113	2.8294e-06	3.6778e-06	1220.2	234.52	1.3473e-05	4.3444e-06	293.06	82.167	64.575	18.914	4.1231e-06	26.327	0.00076156	0.00084008	0.00023294	1106	9.04e-06	9.3857e-06	1212.5	234.07	8.9259e-06	9.4074e-06	296.67	83.487	66.105	19.542	9.0614e-06	27.241	21.088	-51.958	-68.967	-134.514	146.589	-23.315	-134.767	-127.378	-15.800	-61.788	-127.678	-120.804	-120.665	-112.416	-12.578	-113.518	-8191	255	
28547.475	1	1	0	0	0.12723	0.18234	0.067596	0.35764	0.29329	0.07715	0.21338	0.12006	0.11253	0.11249	0.41243	0.28651	0.24059	0.19956	0.12057	0.14739	-2.075	-2.5646	-2.3979	-2.7708	-2.4437	-2.2896	-2.7208	-2.4542	-2.3417	-2.8458	-2.4521	-2.7167	-2.5125	-2.2896	-2.4979	-2.3312	133.426	71.316	-64.964	201.994	31.879	-138.245	135.956	196.381	17.653	119.280	156.035	99.571	178.598	-32.200	178.988	73.929	0.00049195	0.00033616	8.0003e-05	1112.1	7.1646e-06	4.3113e-06	1222.5	233.31	6.8124e-06	3.2061e-06	293.91	82.579	64.863	18.946	6.1257e-06	26.451	0.00076391	0.00083935	0.0002398	1106.1	9.3713e-06	9.7001e-06	1215.2	234.45	9.4669e-06	9.513e-06	297.19	83.649	66.055	19.575	9.2307e-06	27.283	13.855	-24.432	-65.973	-134.683	75.011	18.972	-134.747	-127.366	-114.994	-14.332	-127.556	-120.791	-120.678	-113.183	27.519	-114.320	-8191	255	
28547.596	1	1	0	0	0.22096	0.098638	0.23134	0.053197	0.014511	0.10896	0.15802	0.081419	0.068814	0.034936	0.13443	0.16591	0.046632	0.22318	0.14782	0.15596	-1.9417	-2.5417	-2.2833	-2.6625	-2.6042	-2.1646	-2.6312	-2.4417	-2.3063	-2.7938	-2.35	-2.5271	-2.7562	-2.2188	-2.6604	-2.5479	-29.633	2.022	156.930	36.375	91.894	68.831	147.497	29.402	84.901	-20.387	143.591	-13.123	-30.724	160.098	-86.915	1.975	0.00057674	0.00029442	0.00018264	1119.1	3.5015e-06	1.0724e-06	1223.9	233.64	8.6808e-06	5.938e-06	294.12	82.586	64.816	18.882	2.8007e-06	26.43	0.00078954	0.00086131	0.00024434	1107.1	9.5265e-06	9.7929e-06	1215.6	234.21	9.3233e-06	9.6833e-06	297.61	83.736	66.134	19.524	9.3346e-06	27.337	19.951	-12.079	-32.651	-134.790	17.495	-54.034	-134.793	-127.235	-25.658	50.471	-127.312	-120.763	-120.442	-113.199	20.410	-113.845	-8191	255	
28547.691	1	1	0	0	0.13333	0.15039	0.35438	0.18581	0.20328	0.18821	0.10166	0.075424	0.1265	0.18772	0.068247	0.12216	0.24851	0.077754	0.088681	0.097758	-1.6479	-2.6875	-2.2021	-2.5521	-2.5625	-2.3229	-2.7271	-2.3812	-2.2604	-2.6979	-2.5542	-2.4062	-2.6958	-2.3021	-2.6104	-2.45	157.215	-95.450	-111.184	161.248	-105.623	139.878	92.224	107.301	-91.937	-51.826	-45.500	15.308	-12.778	79.594	191.255	142.929	0.00057516	0.00034624	9.6089e-05	1116.9	9.3979e-06	5.0347e-06	1222.6	234.42	5.5038e-06	5.7568e-06	294.95	82.966	65.014	18.899	2.5258e-06	26.514	0.00077519	0.00084264	0.00024438	1108.5	9.1215e-06	9.4669e-06	1217.4	234.08	9.3433e-06	9.3599e-06	297.6	83.722	66.277	19.493	9.1585e-06	27.371	13.367	-39.141	-69.725	-134.541	-44.492	33.656	-134.725	-127.287	-80.257	-18.661	-127.454	-121.129	-120.132	-113.007	48.141	-113.302	-8191	255	
28547.785	1	1	0	0	0.08966	0.23039	0.19815	0.07756	0.054127	0.16682	0.31331	0.42664	0.29904	0.15797	0.21726	0.21015	0.17844	0.15141	0.12601	0.14825	-1.8771	-2.5958	-2.2229	-2.4896	-2.8333	-2.4729	-2.7271	-2.6167	-2.4396	-2.5625	-2.5687	-2.375	-2.7208	-2.4833	-2.5625	-2.6229	115.698	-133.124	95.482	102.190	-38.059	71.148	211.962	82.198	-136.499	128.324	211.686	32.384	195.594	142.291	-100.488	154.684	0.00052512	0.00041735	0.00017946	1115.1	3.058e-06	7.9661e-06	1226.3	233.65	4.4373e-06	2.6442e-06	294.6	82.335	65.22	19.125	2.3541e-06	26.473	0.00077822	0.00085009	0.00023845	1107.4	9.2003e-06	9.4677e-06	1217.7	234.27	9.3274e-06	9.4101e-06	297.33	83.804	66.205	19.646	9.252e-06	27.372	19.473	-23.347	-45.115	-134.679	-23.349	-4.427	-134.926	-127.348	-120.016	-26.862	-127.398	-120.734	-120.642	-113.198	27.710	-114.081	-8191	255	
28547.883	1	1	0	0	0.08008	0.19137	0.052104	0.13543	0.17167	0.11586	0.12121	0.2349	0.20551	0.18512	0.036909	0.18943	0.11279	0.11943	0.19644	0.072147	-1.8312	-2.5729	-2.375	-2.3083	-2.7083	-2.35	-2.5917	-2.6312	-2.3708	-2.7292	-2.4813	-2.3229	-2.8042	-2.3771	-2.3167	-2.8542	213.465	-122.012	-38.985	64.984	-113.022	32.628	-40.163	-113.211	-68.618	-119.402	-100.886	84.768	179.299	31.159	-83.903	-53.833	0.00047178	0.0002357	3.628e-05	1114.2	6.1698e-06	2.537e-06	1222.3	233.16	6.5943e-06	9.384e-06	292.7	82.293	64.597	19.04	3.1661e-06	26.672	0.00077448	0.00084634	0.00023758	1108.5	9.2041e-06	9.5379e-06	1215.6	234.31	9.224e-06	9.3256e-06	296.83	83.741	66.172	19.603	9.2988e-06	27.407	22.570	-79.108	-125.263	-134.530	-19.694	210.179	-134.648	-127.312	95.949	14.673	-127.120	-120.513	-120.643	-113.103	-35.190	-113.537	-8191	255	
28548.004	1	1	0	0	0.04109	0.19762	0.43066	0.30414	0.021279	0.03191	0.19739	0.1129	0.20036	0.24386	0.12115	0.27268	0.086759	0.21962	0.12536	0.14146	-1.7563	-2.4667	-2.5542	-2.5062	-2.6437	-2.5979	-2.6	-2.6854	-2.3417	-2.6125	-2.5042	-2.1979	-2.7021	-2.5042	-2.5146	-2.6667	184.271	-72.327	11.918	206.849	80.943	185.032	147.094	59.226	-123.253	159.803	155.172	147.299	9.106	86.872	-94.252	123.689	0.00061893	0.00046571	0.00013827	1121.6	1.091e-05	4.7299e-06	1226.9	234.21	3.5579e-06	5.7184e-06	293.08	82.879	64.776	18.974	2.4013e-06	26.555	0.00077834	0.00084066	0.00023935	1108.7	9.2907e-06	9.617e-06	1216.7	234.43	9.2894e-06	9.5621e-06	297.56	83.849	66.088	19.542	9.5324e-06	27.398	17.559	8.847	198.022	-134.643	16.102	-20.543	-134.764	-127.295	64.545	14.823	-127.525	-120.844	-120.709	-113.265	-62.914	-113.462	-8191	255	
28548.074	1	1	0	0	0.023711	0.12626	0.25451	0.16983	0.13424	0.16683	0.14363	0.27663	0.18557	0.091467	0.054816	0.094702	0.40511	0.049442	0.15096	0.15161	-2.0833	-2.6312	-2.7583	-2.2729	-2.7687	-2.475	-2.3104	-2.7146	-2.2542	-2.4646	-2.6646	-2.2	-2.5312	-2.4042	-2.1333	-2.5083	-129.695	167.174	-38.542	-134.126	146.214	-79.015	169.232	-121.752	112.342	-40.893	197.861	144.497	-37.642	100.842	101.694	190.189	0.00050496	0.00014453	7.2046e-05	1117.8	1.2858e-06	3.5408e-06	1219.9	234.37	6.4852e-06	5.1733e-06	295.1	81.913	65.238	19.132	4.173e-06	26.513	0.00079427	0.00088514	0.00025149	1108.8	9.5027e-06	9.7819e-06	1217	234.72	9.6952e-06	9.6996e-06	297.28	83.789	66.446	19.603	9.7473e-06	27.402	19.913	170.228	-30.280	-134.634	-123.912	-46.037	-134.837	-127.232	58.469	3.497	-127.402	-121.111	-120.409	-113.591	-14.486	-113.501	-8191	255	
28548.172	1	1	0	0	0.094176	0.16101	0.16472	0.27756	0.17432	0.04434	0.11413	0.17748	0.22174	0.18734	0.066115	0.17212	0.16363	0.16974	0.065658	0.17514	-1.8396	-2.2562	-2.6417	-2.5146	-2.6292	-2.2333	-2.4958	-2.7896	-2.2938	-2.3937	-2.6167	-2.3083	-2.4938	-2.5333	-2.1271	-2.7896	96.564	158.631	-96.743	114.208	37.356	23.119	187.647	-123.448	-8.591	204.187	142.980	-99.270	212.399	118.438	-121.298	-112.281	0.00043609	0.00030201	0.00011252	1118	9.1551e-06	5.2826e-06	1228.2	233.88	1.0839e-05	1.9963e-06	296.89	82.222	65.069	19.02	1.0536e-05	26.543	0.0008002	0.00088267	0.00024906	1110.5	9.4822e-06	9.7598e-06	1219.7	235.13	9.1402e-06	9.5337e-06	298.14	83.83	66.263	19.603	9.2377e-06	27.371	27.709	-14.238	-57.421	-134.722	-35.664	11.415	-134.580	-127.261	-20.775	-77.497	-127.477	-120.507	-120.720	-113.010	22.224	-113.913	-8191	255	
28548.291	1	1	0	0	0.30057	0.046347	0.053577	0.12984	0.16182	0.1154	0.26326	0.086769	0.24708	0.28672	0.34164	0.14053	0.09858	0.26194	0.2503	0.084386	-1.9958	-2.3417	-2.6167	-2.3292	-2.6646	-2.5083	-2.4479	-2.6188	-2.3458	-2.3354	-2.6625	-2.3	-2.5167	-2.6188	-2.1375	-2.7687	60.181	-25.826	173.703	72.247	-62.147	161.574	179.648	-126.640	-125.571	96.318	181.482	31.340	186.294	172.947	206.560	186.521	0.00064863	0.000211	0.0001824	1119.2	6.6064e-06	1.8835e-06	1224.6	233.89	1.9948e-06	2.9632e-06	293.71	82.321	64.961	19.084	5.7988e-06	26.598	0.00075834	0.00085979	0.00023761	1109.1	8.9731e-06	9.2176e-06	1214.9	234.55	9.0036e-06	9.476e-06	297.21	83.736	66.194	19.625	9.0976e-06	27.295	9.228	-100.453	-52.735	-134.493	-63.025	-18.029	-134.640	-127.033	39.391	76.976	-127.525	-120.985	-120.554	-113.077	-5.074	-113.935	-8191	255	
28548.389	1	1	0	0	0.069701	0.16833	0.013537	0.38086	0.06151	0.32311	0.11205	0.030745	0.066228	0.31399	0.11522	0.074326	0.14475	0.079635	0.18363	0.19197	-1.975	-2.1458	-2.8167	-2.2062	-2.4542	-2.5917	-2.2292	-2.6562	-2.525	-2.2979	-2.6646	-2.3479	-2.3354	-2.6104	-2.3063	-2.6271	138.876	172.156	-9.120	156.816	90.753	-12.607	-11.172	159.495	64.868	127.572	-142.556	133.272	-11.313	-102.051	87.976	-66.688	0.00054312	0.00053156	5.4813e-05	1119.5	1.1271e-05	3.7544e-06	1222.9	233.58	1.1781e-06	5.9223e-06	293.43	82.648	64.682	18.992	1.3662e-06	26.543	0.00075939	0.00085077	0.00023774	1109.6	9.1203e-06	9.3556e-06	1216.2	234.58	8.9791e-06	9.3843e-06	296.48	83.831	66.137	19.593	9.0653e-06	27.302	12.857	-37.730	209.742	-134.489	-76.158	23.155	-134.464	-127.231	-10.011	16.648	-127.874	-120.791	-120.602	-113.204	-48.059	-113.607	-8191	255	
28548.484	1	1	0	0	0.070301	0.15772	0.12054	0.21846	0.10956	0.44117	0.40336	0.20198	0.15425	0.22574	0.097718	0.11799	0.10966	0.42018	0.092438	0.24469	-1.9833	-2.1979	-2.9125	-2.4292	-2.3375	-2.6979	-2.3833	-2.6854	-2.4188	-2.4375	-2.7146	-2.3875	-2.2896	-2.6521	-2.5021	-2.5979	-29.864	-44.420	147.701	190.211	-21.978	75.192	-70.356	-141.946	-57.264	3.009	164.961	169.421	209.954	175.585	-13.140	162.438	0.00060521	0.00019967	3.5633e-05	1116.4	8.666e-06	2.7013e-06	1223.2	234.13	8.7422e-06	2.3218e-06	295.37	82.615	65.305	18.946	3.6254e-06	26.567	0.00076743	0.00085628	0.00023526	1107.6	9.0278e-06	9.2725e-06	1215.1	234.57	9.0337e-06	9.3607e-06	297.1	83.716	66.249	19.544	9.0733e-06	27.36	11.088	38.843	-55.538	-134.704	-96.036	37.633	-134.764	-127.145	-29.258	32.198	-127.152	-120.817	-120.237	-113.469	58.913	-113.192	-8191	255	
28548.580	1	1	0	0	0.11362	0.18925	0.090443	0.11918	0.14159	0.25696	0.23184	0.22042	0.27805	0.047361	0.32426	0.23819	0.051946	0.40671	0.048264	0.13431	-2.1229	-2.1854	-2.5792	-2.4396	-2.1479	-2.6792	-2.4188	-2.5729	-2.7667	-2.0812	-2.6333	-2.6229	-2.3146	-2.7083	-2.2792	-2.3063	202.430	137.601	128.736	120.280	-76.687	143.938	188.656	-74.753	-27.999	-76.058	-92.986	-126.405	211.115	-86.175	67.394	-29.716	0.00049141	0.00026363	8.1432e-05	1116.3	9.0536e-06	6.3021e-06	1221.3	234.55	1.429e-05	2.9386e-06	293.96	82.286	65.313	19.084	6.5644e-06	26.555	0.00075937	0.00084358	0.00024187	1107.6	9.3865e-06	9.4707e-06	1216.7	234.68	9.2235e-06	9.5031e-06	297.55	83.685	66.317	19.604	9.2074e-06	27.381	15.353	-40.872	-8.637	-134.786	-37.943	-11.225	-134.914	-127.165	-21.903	-5.807	-127.698	-121.152	-120.605	-113.288	-30.025	-113.414	-8191	255	
28548.676	1	1	0	0	0.22302	0.016683	0.094403	0.18824	0.17317	0.084982	0.27568	0.14704	0.074133	0.21646	0.11115	0.21038	0.29887	0.25647	0.38453	0.18291	-2.0938	-2.1688	-2.6479	-2.6958	-2.3771	-2.5708	-2.6125	-2.5833	-2.5458	-2.3479	-2.6813	-2.6896	-2.3396	-2.6333	-2.3187	-2.5604	-27.406	-90.415	-36.786	3.622	101.807	74.954	197.048	37.385	138.426	-58.702	147.608	92.115	-98.619	179.539	165.831	-53.748	0.00050772	0.00018504	0.00012001	1122.8	5.0213e-06	2.5967e-06	1228.4	232.78	4.6469e-06	6.734e-06	296.41	82.277	64.788	19.068	1.7607e-06	26.45	0.00078815	0.00087043	0.00023831	1110.8	9.1122e-06	9.5154e-06	1219	234.29	9.2947e-06	9.2899e-06	297.71	83.719	66.113	19.593	9.2243e-06	27.332	12.567	18.178	-50.576	-134.719	15.819	-28.295	-134.747	-127.276	97.611	-8.329	-127.719	-121.046	-120.639	-113.360	-32.075	-113.817	-8191	255	
28548.770	1	1	0	0	0.099244	0.13399	0.27247	0.21196	0.17977	0.13226	0.29354	0.59412	0.10638	0.086113	0.051997	0.06695	0.24841	0.15309	0.028327	0.27995	-2.1667	-2.2729	-2.2667	-2.6479	-2.3854	-2.6979	-2.5812	-2.4458	-2.6688	-2.3	-2.4938	-2.7104	-2.3896	-2.7354	-2.3104	-2.3979	-41.634	-104.754	152.637	-73.300	-57.268	90.333	180.412	152.670	113.728	-47.145	-110.563	54.071	-72.571	-140.341	-136.766	152.812	0.00044836	0.0003721	4.8574e-05	1119.2	7.6705e-06	5.1459e-06	1224.4	234.23	6.3127e-06	4.2391e-06	293.98	83.079	64.661	18.995	3.4177e-06	26.372	0.00077259	0.00084225	0.00023635	1108.8	9.2056e-06	9.1896e-06	1217.5	234.86	8.9482e-06	9.3044e-06	297.08	83.998	66.048	19.594	9.0479e-06	27.3	8.463	-87.228	200.340	-134.578	-66.368	9.597	-134.796	-127.276	92.095	55.457	-127.556	-120.855	-120.394	-113.419	-59.005	-113.831	-8191	255	
28548.867	1	1	0	0	0.29181	0.14482	0.26264	0.32348	0.19866	0.11646	0.24638	0.33778	0.29667	0.2343	0.12565	0.20873	0.10755	0.013335	0.21318	0.083547	-2.2	-2.4688	-2.5104	-2.7854	-2.2896	-2.7208	-2.7771	-2.1792	-2.7271	-2.5104	-2.3792	-2.625	-2.3917	-2.6437	-2.4917	-2.3271	96.959	100.452	-105.651	-124.274	108.175	127.933	120.577	-76.633	201.164	159.669	-6.305	28.328	106.563	-30.088	-110.978	180.650	0.00057244	0.00041743	0.00018679	1119.7	2.4011e-06	4.7311e-06	1228.3	233.3	2.3149e-06	5.0292e-06	293.71	82.266	64.551	19.129	7.6952e-06	26.593	0.00075148	0.00084387	0.00023329	1109.8	9.3277e-06	9.2563e-06	1216.6	234.65	8.9957e-06	9.3178e-06	297.05	83.616	65.978	19.604	9.0971e-06	27.341	8.189	-51.408	-25.065	-134.770	131.232	120.225	-134.983	-127.179	51.381	8.681	-127.679	-120.871	-120.224	-113.075	-81.187	-113.071	-8191	255	
28548.963	1	1	0	0	0.060684	0.24401	0.2452	0.34939	0.23724	0.22869	0.25027	0.17311	0.23156	0.15525	0.20347	0.24515	0.085032	0.11246	0.28293	0.29468	-2.2771	-2.3312	-2.5396	-2.8438	-2.4521	-2.4792	-2.7354	-2.1646	-2.6667	-2.4625	-2.5792	-2.8625	-2.2562	-2.7208	-2.4625	-2.2646	209.096	194.682	17.546	166.577	-29.241	-144.092	208.122	127.338	83.800	158.027	-70.720	213.784	115.309	147.110	-121.327	96.402	0.00049492	0.00036139	0.00010988	1118.8	4.4216e-06	3.7544e-06	1221.9	234.48	8.6951e-06	3.5592e-06	294.1	82.56	64.398	19.071	8.2947e-06	26.666	0.000758	0.00081378	0.00023884	1107.7	9.1185e-06	9.1184e-06	1215	234.52	9.0051e-06	9.1575e-06	296.49	83.733	66.103	19.578	9.1841e-06	27.351	9.206	-35.363	162.271	-134.710	114.523	3.286	-134.897	-127.416	-46.287	-80.720	-127.080	-121.089	-120.599	-113.058	25.343	-113.851	-8191	255	
28549.082	1	1	0	0	0.12746	0.12392	0.075323	0.42623	0.14088	0.22658	0.16567	0.17786	0.42094	0.13612	0.19602	0.18756	0.20141	0.13724	0.0081326	0.17294	-2.1271	-2.675	-2.3438	-2.6667	-2.3167	-2.7083	-2.7125	-2.2812	-2.5812	-2.6	-2.3	-2.5812	-2.4083	-2.4104	-2.6333	-2.2521	93.517	-125.869	0.618	-128.270	118.150	-12.441	161.638	213.195	60.697	-83.421	-92.313	-94.855	158.769	204.071	-21.119	86.308	0.00060712	0.00044284	7.3341e-05	1119.3	2.9085e-06	2.7448e-06	1228.5	233.81	9.2983e-06	7.0262e-06	294.65	82.754	64.867	19.032	4.1727e-06	26.407	0.00075643	0.00084213	0.00023611	1107.8	8.928e-06	9.3005e-06	1217	234.23	8.9065e-06	9.3798e-06	297.55	83.78	66.147	19.588	9.0003e-06	27.283	9.389	-17.878	-47.621	-134.618	94.667	-62.693	-134.752	-127.639	21.332	-21.839	-127.528	-120.673	-120.352	-112.905	-30.826	-113.607	-8191	255	
28549.180	1	1	0	0	0.10795	0.52688	0.28171	0.30381	0.17846	0.070542	0.17177	0.17501	0.0076414	0.35099	0.23497	0.084772	0.17323	0.11819	0.2398	0.13229	-2.0604	-2.4542	-2.1958	-2.7792	-2.5187	-2.3812	-2.9125	-2.3208	-2.5042	-2.6917	-2.3042	-2.5729	-2.2167	-2.375	-2.6833	-2.3	-72.420	144.283	71.646	-124.706	99.406	32.702	110.526	70.437	-52.441	135.664	-131.280	-52.080	107.904	121.297	-9.265	180.917	0.00049284	0.00045152	0.00015095	1119.2	4.7871e-06	3.7617e-06	1219.7	234.74	8.7895e-06	4.0812e-06	293.65	82.965	64.586	19.026	5.0711e-06	26.484	0.00075406	0.00083983	0.00024172	1108	9.0775e-06	9.3435e-06	1213.8	234.5	8.9855e-06	9.2074e-06	297.62	83.709	65.9	19.604	8.8353e-06	27.305	-0.332	-82.832	-48.757	-134.766	88.042	8.570	-134.832	-127.419	-2.239	27.072	-127.264	-120.522	-120.288	-113.237	8.565	-113.411	-8191	255	
28549.275	1	1	0	0	0.29036	0.10234	0.12741	0.48277	0.21479	0.23144	0.23704	0.17876	0.079075	0.27763	0.075473	0.12714	0.27177	0.14516	0.19673	0.17479	-2.0104	-2.6396	-2.3292	-2.5917	-2.3583	-2.3271	-2.9292	-2.4896	-2.5062	-2.6417	-2.3688	-2.6479	-2.55	-2.3896	-2.65	-2.3667	138.118	-99.262	-41.224	-121.546	-53.163	-61.179	171.017	13.128	-45.013	-68.440	-69.479	177.217	-46.307	188.691	28.025	135.337	0.00042113	0.00030915	5.7209e-05	1118.8	9.2846e-06	7.5464e-06	1226.5	233.45	4.8029e-06	3.2514e-06	294.32	82.306	65.116	19.124	3.1808e-06	26.281	0.00075828	0.00082798	0.0002334	1107.4	9.1922e-06	9.2418e-06	1216.8	234.38	8.9443e-06	9.3594e-06	297.19	83.496	66.07	19.615	8.8462e-06	27.254	-1.429	-66.739	-24.850	-134.618	58.336	-16.445	-134.757	-127.360	-20.227	1.716	-127.499	-120.748	-120.687	-113.097	35.979	-113.814	-8191	255	
28549.371	1	1	0	0	0.075727	0.068582	0.099902	0.21384	0.079218	0.30425	0.21548	0.28827	0.20561	0.091852	0.10824	0.4067	0.073955	0.24463	0.17589	0.14929	-2.1042	-2.4792	-2.1625	-2.7417	-2.6688	-2.2167	-2.8438	-2.3042	-2.6083	-2.6292	-2.3958	-2.6917	-2.6312	-2.3208	-2.6688	-2.2562	4.395	-132.935	176.219	195.869	-126.126	84.635	198.364	145.496	87.535	35.124	-0.649	156.711	58.515	-39.922	146.538	212.243	0.00052483	9.5534e-05	0.00015992	1112	3.6256e-06	8.2553e-06	1220.9	233.94	7.3767e-06	2.6754e-06	293.47	82.542	64.789	19.013	4.2e-06	26.423	0.00075904	0.00084191	0.00023267	1106.5	9.0509e-06	9.3083e-06	1214.6	234.32	8.8e-06	9.2486e-06	296.63	83.69	66.213	19.542	8.9029e-06	27.304	-0.378	101.006	2.892	-134.835	-49.970	9.558	-134.822	-127.426	11.726	-23.059	-127.276	-120.727	-120.353	-113.237	-30.015	-113.811	-8191	255	
28549.469	1	1	0	0	0.1122	0.15407	0.10939	0.16748	0.23205	0.19227	0.11666	0.1565	0.15077	0.11146	0.13311	0.029476	0.20423	0.1485	0.055059	0.048744	-1.9521	-2.5625	-2.0604	-2.7458	-2.4521	-2.3625	-2.7646	-2.4104	-2.2854	-2.7958	-2.3354	-2.4021	-2.4875	-2.2646	-2.6917	-2.4396	35.736	1.090	134.592	-104.880	50.773	-26.587	-77.012	170.193	39.398	-100.447	38.370	-77.315	184.256	-23.363	93.919	188.010	0.00064135	0.00014616	0.00010473	1117.6	8.7598e-06	2.6602e-06	1224.9	234	2.3036e-06	4.1012e-06	295.79	82.294	65.104	19.044	5.2566e-06	26.369	0.0007547	0.00083379	0.0002317	1108.2	8.9541e-06	9.131e-06	1215.3	234.57	8.9298e-06	9.0387e-06	297.09	83.764	66.183	19.565	8.7944e-06	27.25	18.305	98.685	-101.962	-134.753	-45.688	-87.734	-134.901	-127.191	93.598	15.773	-126.917	-120.868	-120.822	-113.346	-1.953	-113.555	-8191	255	
28549.564	1	1	0	0	0.15437	0.15012	0.18979	0.13303	0.099946	0.30223	0.23136	0.21993	0.083094	0.16827	0.21589	0.24583	0.056615	0.13278	0.15413	0.09005	-1.8854	-2.5792	-2.3354	-2.6312	-2.5667	-2.375	-2.7833	-2.5625	-2.2542	-2.6021	-2.4083	-2.3771	-2.4313	-2.0938	-2.5708	-2.3021	-19.449	181.356	-1.133	194.651	-23.271	26.263	-123.668	213.991	-111.761	62.673	-52.473	36.946	110.479	116.430	196.557	-3.971	0.00061061	0.00045147	0.00013078	1115.9	3.038e-06	7.3021e-06	1222.1	233.41	4.7418e-06	3.7356e-06	295	82.358	64.864	18.825	1.8872e-06	26.178	0.00073898	0.0007967	0.00022868	1107.6	8.8753e-06	9.2122e-06	1213.3	234.29	8.963e-06	8.8781e-06	297.38	83.719	66.154	19.478	8.733e-06	27.279	10.099	-111.010	-110.374	-134.738	57.832	21.150	-134.585	-127.067	10.484	24.680	-127.717	-120.633	-120.313	-112.939	47.217	-113.378	-8191	255	
28549.686	1	1	0	0	0.19305	0.16403	0.10172	0.43621	0.28756	0.14787	0.090122	0.18691	0.15909	0.27157	0.29663	0.3129	0.24889	0.23114	0.11827	0.058033	-1.8667	-2.6688	-2.3833	-2.4521	-2.6792	-2.4729	-2.6354	-2.55	-2.3021	-2.7042	-2.3937	-2.325	-2.5062	-2.1167	-2.6667	-2.5187	-24.472	128.572	76.518	208.685	139.760	-111.908	2.942	62.780	82.346	-9.213	170.626	-85.579	151.838	29.063	60.656	132.308	0.00057994	0.00022285	0.00012331	1115.4	1.1346e-05	3.6055e-06	1230.3	233.42	3.6309e-06	4.6442e-06	294.32	82.334	65.479	18.913	6.3569e-06	26.567	0.00074632	0.00080469	0.00022407	1105.9	8.9468e-06	9.0474e-06	1217.3	234.21	8.7885e-06	9.0441e-06	297.45	83.626	66.073	19.537	8.8648e-06	27.388	8.402	-43.234	-36.589	-134.775	-35.432	77.221	-134.772	-127.360	-33.711	34.344	-127.298	-120.737	-120.727	-112.567	-10.354	-113.845	-8191	255	
28549.779	1	1	0	0	0.20047	0.24454	0.10973	0.24197	0.097139	0.30226	0.29575	0.058058	0.070888	0.13118	0.27572	0.20683	0.23545	0.19825	0.18177	0.13522	-1.6875	-2.5292	-2.2604	-2.5	-2.5958	-2.15	-2.6646	-2.5187	-2.3042	-2.4979	-2.4292	-2.2667	-2.6875	-2.275	-2.425	-2.5854	-138.657	126.593	20.555	168.933	168.714	213.840	127.653	147.520	-27.072	156.467	158.972	-143.404	-19.120	203.820	50.493	130.907	0.00054896	0.00014112	1.981e-05	1112.2	8.6194e-06	3.5755e-06	1225.7	233.48	6.4061e-06	2.0365e-06	291.88	82.233	65.144	19.02	1.4018e-06	26.386	0.00075249	0.00082907	0.00022818	1106.6	8.8427e-06	9.1794e-06	1216.1	234.14	8.8705e-06	9.0291e-06	296.11	83.628	66.1	19.526	8.7452e-06	27.251	15.141	-78.373	36.080	-134.637	10.418	85.102	-134.566	-127.225	19.615	71.407	-127.092	-120.804	-120.346	-112.806	148.142	-113.365	-8191	255	
28549.875	1	1	0	0	0.079892	0.12422	0.10259	0.20667	0.27596	0.18468	0.21003	0.069071	0.18852	0.25314	0.19743	0.023695	0.18493	0.13547	0.02119	0.15378	-1.6	-2.4437	-2.4437	-2.3354	-2.6562	-2.45	-2.5375	-2.9375	-2.0667	-2.4833	-2.5417	-2.25	-2.5021	-2.3604	-2.2167	-2.6479	-58.866	-124.275	66.574	99.537	-4.417	-137.830	112.224	139.693	-82.445	16.222	214.075	-16.441	99.068	176.981	-114.328	-34.914	0.00049512	0.00050084	0.0001058	1113.6	3.8712e-06	2.9891e-06	1218.7	233.55	5.3131e-07	3.0231e-06	296.01	82.387	64.617	18.933	4.4945e-06	26.212	0.00074499	0.00080045	0.00023079	1105.9	8.6899e-06	8.9549e-06	1211.1	234.18	8.8172e-06	8.8977e-06	297.64	83.61	66.011	19.527	8.637e-06	27.256	13.379	-7.890	-31.204	-134.546	-11.759	-36.996	-134.923	-127.265	4.724	67.452	-127.633	-120.615	-120.530	-113.151	8.231	-113.628	-8191	255	
28549.947	1	1	0	0	0.079846	0.19265	0.23693	0.26207	0.33137	0.050616	0.22787	0.20475	0.17273	0.19286	0.21153	0.14632	0.038988	0.18516	0.16223	0.2078	-1.65	-2.5021	-2.4542	-2.5083	-2.7167	-2.4896	-2.5521	-2.6063	-2.3104	-2.5292	-2.8125	-2.2021	-2.5958	-2.4729	-2.4354	-2.8333	151.144	-53.216	-58.645	193.175	64.627	108.999	63.312	130.770	-25.365	-75.677	108.923	-94.510	103.158	179.040	-48.679	-14.851	0.00041059	0.00027003	7.2669e-05	1118.6	4.0533e-06	2.7005e-06	1219.3	234.01	7.0662e-06	3.1031e-06	294.27	81.977	64.4	18.907	2.3004e-06	26.313	0.00072117	0.0008153	0.00022727	1106.5	8.7041e-06	9.0242e-06	1212.1	234.15	8.75e-06	8.9328e-06	296.44	83.698	65.948	19.544	8.7641e-06	27.249	13.351	-36.766	0.208	-134.604	6.541	70.302	-134.789	-127.386	-30.653	90.203	-127.451	-120.865	-120.558	-113.284	-49.831	-113.580	-8191	255	
28550.068	1	1	0	0	0.16384	0.22648	0.28278	0.32904	0.20464	0.17039	0.2879	0.12251	0.13433	0.31768	0.10579	0.18274	0.13306	0.077249	0.10961	0.15447	-1.6458	-2.1813	-2.6125	-2.3417	-2.6146	-2.6854	-2.3917	-2.6958	-2.1708	-2.5396	-2.775	-2.1188	-2.6312	-2.5542	-2.3771	-2.7083	116.871	-114.237	-107.452	169.349	-70.757	64.743	183.345	134.190	-122.940	179.310	166.803	-67.901	-52.414	49.670	-52.191	-69.864	0.00049694	8.9083e-05	0.0001859	1114.4	3.5998e-06	8.8145e-07	1225	232.41	4.3667e-06	5.3135e-06	295.58	82.59	64.727	18.947	5.7111e-06	26.275	0.00073411	0.00080718	0.00022876	1105.3	8.6436e-06	9.025e-06	1212.7	233.85	8.5822e-06	8.8717e-06	297.26	83.562	66.063	19.545	8.8017e-06	27.174	8.545	-15.340	1.577	-134.648	-99.881	50.986	-134.757	-127.544	-75.104	-16.668	-127.341	-120.511	-120.420	-113.234	6.558	-113.720	-8191	255	
28550.164	1	1	0	0	0.21174	0.063618	0.083997	0.30915	0.20237	0.10819	0.086524	0.044295	0.13466	0.24902	0.14005	0.056142	0.16313	0.12507	0.14128	0.19488	-1.8667	-2.325	-2.5312	-2.3271	-2.6333	-2.4062	-2.4583	-2.6604	-2.3438	-2.3729	-2.6083	-2.3271	-2.6646	-2.5104	-2.3667	-2.8125	119.468	182.445	35.965	183.144	110.486	-44.079	-121.680	19.450	-78.103	133.809	155.688	133.110	-22.437	120.835	37.480	-125.950	0.00047759	0.00040424	0.00015479	1114.4	7.0474e-06	3.4466e-06	1218.8	233.77	5.4821e-06	1.6706e-06	293.96	82.16	64.837	19.066	8.0038e-06	26.321	0.00072889	0.00079392	0.00022691	1104.5	8.7918e-06	9.1789e-06	1213.1	233.92	8.5814e-06	9.1414e-06	296.18	83.488	66.061	19.567	8.7022e-06	27.223	19.336	-62.453	-62.420	-134.775	-27.627	-12.330	-134.659	-127.304	-28.329	5.725	-127.479	-120.935	-120.460	-113.527	-19.439	-113.762	-8191	255	
28550.260	1	1	0	0	0.14001	0.28735	0.044968	0.26568	0.1256	0.30417	0.19533	0.25308	0.17502	0.25996	0.21669	0.1727	0.18533	0.28151	0.17856	0.21768	-1.7812	-2.2396	-2.5812	-2.2854	-2.4375	-2.6271	-2.375	-2.5687	-2.5021	-2.3438	-2.6521	-2.325	-2.2771	-2.5208	-2.2146	-2.5104	-139.715	137.103	-112.032	106.395	74.277	-3.453	104.279	-70.603	180.450	-15.514	90.775	158.313	47.390	200.559	9.068	146.792	0.00044477	0.00051498	8.1187e-05	1115.8	5.7355e-06	5.1313e-06	1222	233.9	9.3182e-06	6.1554e-06	293.59	82.887	64.751	18.937	5.3284e-06	26.328	0.00072181	0.0007915	0.00022517	1105.2	8.7563e-06	8.7819e-06	1212.4	234.42	8.7691e-06	8.9966e-06	296.75	83.748	65.8	19.518	8.8213e-06	27.305	17.057	-74.012	-60.110	-134.773	-95.843	-13.626	-134.710	-127.443	-9.202	-76.334	-127.190	-120.771	-120.311	-113.252	53.037	-113.609	-8191	255	
28550.355	1	1	0	0	0.16286	0.021605	0.086396	0.21263	0.20165	0.15243	0.23924	0.14363	0.12159	0.039207	0.2009	0.15686	0.19762	0.10639	0.28635	0.14043	-1.9083	-2.4083	-2.6042	-2.4708	-2.4104	-2.5938	-2.25	-2.4729	-2.5563	-2.2625	-2.6813	-2.4417	-2.3792	-2.8083	-2.3042	-2.5187	166.852	146.662	203.327	-41.659	-81.106	202.648	117.755	160.803	2.317	90.289	186.466	31.918	186.363	49.941	-37.924	105.741	0.0004688	0.00045212	0.00015844	1115.4	9.1335e-06	1.0678e-06	1218.8	233.08	1.1041e-05	6.294e-06	295.55	82.115	65.384	19.017	2.7255e-06	26.676	0.00072957	0.00079982	0.00022755	1104.8	8.6953e-06	8.7252e-06	1211.6	234	8.5061e-06	8.9993e-06	296.91	83.559	66.037	19.553	8.7157e-06	27.398	12.150	-26.333	-60.991	-134.666	-18.137	-106.092	-134.895	-127.625	-32.831	-45.989	-127.185	-120.831	-120.578	-112.473	51.793	-113.750	-8191	255	
28550.477	1	1	0	0	0.2878	0.03154	0.11216	0.14511	0.24623	0.052783	0.2067	0.1752	0.30541	0.12148	0.030381	0.16129	0.24416	0.2558	0.3048	0.18861	-1.9542	-2.1583	-2.3521	-2.5708	-2.2125	-2.6958	-2.4042	-2.5333	-2.575	-2.1625	-2.7625	-2.3542	-2.3333	-2.7042	-2.2854	-2.4062	156.053	161.401	131.425	154.159	108.502	-138.198	110.466	114.536	70.794	105.709	5.761	52.862	-54.153	161.919	-138.019	132.170	0.00047401	0.000482	0.00014083	1116.7	1.9159e-06	4.2125e-06	1224.5	234.47	4.3507e-06	6.1678e-06	295.19	82.233	64.797	19	3.9113e-06	26.47	0.000736	0.00080067	0.00021995	1104.5	8.8675e-06	8.9764e-06	1214.7	234.48	8.5495e-06	8.77e-06	297.03	83.501	65.805	19.55	8.4759e-06	27.32	5.696	-88.678	-45.729	-134.747	80.502	-48.148	-134.857	-127.193	-78.383	-115.111	-127.352	-120.702	-120.420	-113.064	-8.827	-113.469	-8191	255	
28550.572	1	1	0	0	0.10701	0.11417	0.14183	0.12754	0.063142	0.098095	0.11458	0.18096	0.2407	0.35479	0.24182	0.076228	0.33335	0.052106	0.24458	0.061175	-2.2333	-2.1333	-2.5563	-2.5417	-2.3083	-2.5583	-2.4604	-2.3958	-2.5938	-2.3063	-2.6521	-2.4542	-1.9833	-2.7896	-2.2188	-2.2896	-53.106	-28.703	-19.541	188.333	165.540	-71.105	177.503	-63.090	-16.573	-17.720	129.910	54.804	-67.640	138.162	169.025	201.623	0.00054207	0.00028443	0.00014246	1114.6	3.677e-06	3.7465e-06	1220.8	232.93	7.8754e-06	8.2166e-06	296.04	81.966	64.757	18.907	2.84e-06	26.491	0.00071061	0.00078001	0.00022404	1105.2	8.5955e-06	8.8599e-06	1212.2	233.72	8.3937e-06	8.7164e-06	297.02	83.472	66.021	19.545	8.5039e-06	27.299	14.306	-79.680	-55.111	-134.606	-71.880	-18.716	-134.571	-127.208	14.485	12.124	-127.243	-120.723	-120.425	-113.232	30.486	-113.368	-8191	255	
28550.645	1	1	0	0	0.041687	0.24842	0.24547	0.16704	0.18492	0.27032	0.29006	0.24583	0.1576	0.085758	0.1225	0.41441	0.092569	0.25512	0.068731	0.12705	-2.2542	-2.325	-2.4271	-2.4729	-2.2479	-2.6521	-2.6229	-2.4208	-2.6375	-2.1646	-2.4542	-2.4792	-2.25	-2.625	-2.2729	-2.525	107.496	-94.398	-138.759	128.182	-134.595	59.821	208.084	175.200	132.070	201.270	136.145	-138.150	182.128	203.936	147.492	-84.459	0.00052711	0.00020955	0.00013006	1115.5	7.9663e-06	4.1639e-06	1222.1	233.07	7.2838e-06	3.7139e-06	295.5	82.349	65.405	19.005	3.574e-06	26.571	0.00072708	0.00079349	0.00021957	1105.1	8.4397e-06	8.6173e-06	1212.8	233.85	8.3099e-06	8.6802e-06	297.14	83.517	66.05	19.557	8.5349e-06	27.336	5.848	-67.796	-54.725	-134.613	40.157	-13.036	-134.699	-127.365	-39.378	3.725	-127.224	-120.899	-120.259	-112.711	-40.841	-113.265	-8191	255	
28550.766	1	1	0	0	0.21487	0.24343	0.11472	0.18423	0.096548	0.036734	0.1786	0.29506	0.20028	0.11298	0.17688	0.12495	0.11314	0.21331	0.17765	0.26649	-2.25	-2.1688	-2.3104	-2.6875	-2.0812	-2.3563	-2.6021	-2.45	-2.6042	-2.1771	-2.6292	-2.6604	-2.1604	-2.6312	-2.7042	-2.2854	153.489	89.365	154.359	90.300	66.422	-17.944	59.568	-135.116	29.674	47.979	-48.966	78.745	139.579	67.890	-12.668	-6.910	0.00062152	0.00026386	0.00013513	1117.8	4.536e-07	2.4713e-06	1222.1	233.46	9.7291e-06	1.8602e-06	295.47	82.316	64.642	18.859	6.9566e-06	26.386	0.00071327	0.00079566	0.00022071	1105.2	8.5709e-06	8.4807e-06	1213.6	233.98	8.4997e-06	8.6652e-06	296.15	83.614	65.827	19.487	8.4806e-06	27.257	11.268	-44.464	-37.981	-134.595	15.078	26.021	-134.830	-127.140	-9.187	-101.432	-127.276	-120.864	-120.524	-113.161	13.166	-113.352	-8191	255	
28550.859	1	1	0	0	0.051189	0.29588	0.095599	0.064275	0.21211	0.16099	0.056835	0.049874	0.19204	0.19625	0.46355	0.21198	0.26947	0.19254	0.088519	0.1226	-2.1562	-2.3625	-2.3521	-2.8417	-2.2188	-2.4188	-2.6937	-2.4854	-2.8458	-2.3896	-2.375	-2.7208	-2.1208	-2.4813	-2.5812	-2.2917	65.484	50.128	197.662	145.587	106.070	-46.420	50.837	84.324	69.445	82.398	-128.812	181.683	31.079	46.229	196.838	-6.875	0.00050176	0.00012088	6.986e-05	1111.5	5.3109e-06	9.4282e-07	1219.9	234.15	5.0175e-06	4.7075e-06	295.22	82.115	65.12	19.064	2.6687e-06	26.496	0.00072907	0.00079114	0.00022427	1104.2	8.6398e-06	8.946e-06	1211.1	234.24	8.9111e-06	9.3564e-06	297.17	83.569	66.137	19.555	9.6422e-06	27.35	13.590	-58.771	-17.009	-134.715	-36.065	-133.483	-134.669	-127.377	0.300	-6.704	-127.396	-121.111	-120.398	-112.711	135.115	-113.816	-8191	255	
28550.955	1	1	0	0	0.30917	0.2585	0.22227	0.17024	0.18552	0.2479	0.17257	0.24394	0.13119	0.16934	0.16249	0.20971	0.17433	0.16417	0.053134	0.11404	-2.2125	-2.2604	-2.1729	-2.5646	-2.2042	-2.5312	-2.5563	-2.3229	-2.5729	-2.3312	-2.1979	-2.4583	-2.3	-2.4125	-2.5729	-2.2	85.184	-134.938	28.616	-144.932	-5.210	13.421	145.303	-102.908	-62.070	-127.489	195.655	62.672	137.081	159.174	129.747	-25.589	0.00043855	0.00025133	0.00011011	1119.7	5.2511e-06	2.639e-06	1226.2	233.64	1.0326e-05	2.4112e-06	298.12	81.848	64.908	19.024	3.2395e-06	26.696	0.00082758	0.00095002	0.00025989	1109.8	1.0057e-05	1.0428e-05	1219.4	235.19	1.0282e-05	1.0672e-05	299.63	83.84	66.514	19.675	1.0421e-05	27.511	24.455	-33.729	-77.292	-134.531	-75.329	-0.399	-134.806	-127.510	1.260	15.685	-127.349	-121.333	-120.628	-113.165	-37.690	-113.559	-8191	255	
28551.076	1	1	0	0	0.10524	0.18735	0.043038	0.024962	0.27273	0.26904	0.30976	0.20921	0.17918	0.12697	0.23649	0.3502	0.15104	0.10496	0.1828	0.31083	-2.1396	-2.4208	-2.1167	-2.9042	-2.35	-2.5167	-2.4646	-2.2021	-2.4729	-2.475	-2.3625	-2.675	-2.2938	-2.4125	-2.7625	-2.3479	-106.204	-81.075	43.914	54.620	28.417	-93.690	92.999	114.705	136.337	-71.823	-142.101	118.087	164.985	13.451	111.760	124.512	0.00060572	0.00030963	0.00016076	1126.9	2.5309e-06	4.4383e-06	1238.5	235.2	4.2639e-06	5.5771e-06	295.82	83.018	64.858	19.265	2.0819e-06	26.678	0.00087205	0.00099746	0.00028303	1118.5	1.085e-05	1.1458e-05	1230.3	236.55	1.1212e-05	1.1676e-05	300	84.668	67.061	19.9	1.1464e-05	27.678	10.334	-48.298	-19.047	-134.609	142.040	61.782	-134.892	-127.245	144.424	59.319	-127.747	-121.226	-120.476	-112.893	-4.504	-113.497	-8191	255	
28551.172	1	1	0	0	0.098227	0.21512	0.33332	0.039219	0.17226	0.099203	0.18732	0.078732	0.12745	0.15477	0.18533	0.15227	0.11534	0.041719	0.20099	0.096782	-2.2792	-2.5187	-2.3	-2.7021	-2.5375	-2.2667	-2.8708	-2.3583	-2.5292	-2.6646	-2.2438	-2.6667	-2.2188	-2.2958	-2.5938	-2.2812	46.310	178.843	181.986	157.157	42.215	69.990	99.385	88.889	-8.134	112.834	103.602	-38.215	197.329	4.855	-92.098	-119.898	0.00052142	0.00044511	0.00014966	1132.7	3.3874e-06	6.6975e-06	1237.5	235.93	9.3465e-06	4.7779e-06	297.08	83.219	65.267	19.217	2.9448e-06	26.613	0.00093111	0.0010577	0.00029676	1125.2	1.1347e-05	1.154e-05	1233.7	236.95	1.0787e-05	1.1094e-05	300.89	84.717	66.834	19.85	1.0317e-05	27.579	10.744	-58.348	-62.681	-134.685	131.586	-51.845	-134.742	-127.308	3.331	2.349	-127.189	-121.021	-120.419	-113.290	84.093	-113.581	-8191	255	
28551.244	1	1	0	0	0.18354	0.12829	0.10842	0.37999	0.11743	0.066338	0.096007	0.13039	0.055894	0.35971	0.18965	0.18242	0.14983	0.32331	0.10625	0.13479	-2.0542	-2.5604	-2.0229	-2.7417	-2.3646	-2.1167	-2.7875	-2.2271	-2.6437	-2.4333	-2.45	-2.6229	-2.4646	-2.2875	-2.5208	-2.4792	-48.837	180.680	110.144	137.487	-95.307	84.993	106.597	176.869	29.436	184.883	178.566	163.903	108.087	-122.472	-124.633	-99.489	0.00048683	0.00021029	3.6634e-05	1125	9.7594e-06	1.2082e-06	1235.3	234.67	4.6011e-06	7.1305e-06	296.34	82.86	65.17	19.274	8.747e-06	26.559	0.00084623	0.00093945	0.00026329	1120.1	9.9559e-06	1.0162e-05	1230.7	236.18	9.7136e-06	1.0057e-05	299.39	84.262	66.591	19.72	9.5573e-06	27.457	13.239	61.296	-67.553	-134.670	-74.566	-33.226	-134.875	-127.369	-58.509	-42.423	-127.385	-121.191	-120.622	-113.052	3.365	-113.654	-8191	255	
28551.365	1	1	0	0	0.18555	0.40553	0.22452	0.11185	0.37321	0.040097	0.25716	0.25581	0.19732	0.17929	0.15051	0.10071	0.034395	0.12924	0.13758	0.053571	-2.1562	-2.475	-2.2417	-2.6688	-2.5521	-2.1146	-2.9188	-2.2562	-2.4104	-2.675	-2.4042	-2.6042	-2.4479	-2.1333	-2.6333	-2.4667	-91.637	-68.513	-71.675	182.582	-61.543	190.301	184.505	-141.981	-41.427	139.374	41.226	151.874	198.563	-91.212	-130.841	-3.899	0.0005216	0.0002919	7.5881e-05	1124.1	7.2401e-06	3.1748e-06	1226.5	233.82	4.1983e-06	4.0732e-06	297.24	82.185	65.551	18.979	3.3198e-06	26.617	0.00079161	0.00087757	0.00024167	1116.2	9.4946e-06	9.7372e-06	1223.2	234.85	9.3519e-06	9.7133e-06	298.81	83.906	66.426	19.593	9.102e-06	27.405	20.998	-110.069	202.893	-134.590	-37.301	-52.937	-134.692	-127.383	-41.134	1.628	-127.386	-121.102	-120.171	-113.099	69.411	-113.726	-8191	255	
28551.461	1	1	0	0	0.022672	0.23836	0.12001	0.29223	0.029123	0.23634	0.2511	0.13139	0.2271	0.11407	0.28616	0.3195	0.21402	0.30137	0.26062	0.273	-1.7708	-2.5771	-2.2125	-2.475	-2.6208	-2.25	-2.6792	-2.45	-2.4875	-2.7333	-2.5896	-2.5667	-2.6708	-2.2438	-2.5146	-2.6	-89.164	148.351	-81.964	186.120	155.341	-114.048	204.834	90.433	139.438	143.413	90.074	168.061	196.955	202.741	37.065	177.373	0.00061983	0.00040874	0.00011622	1118	4.7085e-06	4.6469e-06	1227.9	234.02	6.4172e-06	6.2835e-06	295.09	81.962	64.788	19.183	3.2074e-06	26.152	0.00075486	0.00082546	0.00023093	1109.5	8.7084e-06	8.7989e-06	1217.8	234.03	8.4563e-06	8.6698e-06	297.16	83.558	65.978	19.582	8.3177e-06	27.197	12.166	-70.454	-78.679	-134.701	-135.221	-52.544	-134.942	-127.583	-44.699	-28.232	-127.593	-121.044	-120.681	-113.114	32.484	-113.822	-8191	255	
28551.557	1	1	0	0	0.28161	0.17391	0.12748	0.044968	0.27818	0.21668	0.22153	0.33693	0.40241	0.030982	0.07661	0.027846	0.30556	0.23984	0.10582	0.26384	-1.9667	-2.6792	-2.3354	-2.5146	-2.65	-2.4188	-2.8312	-2.5812	-2.2771	-2.8187	-2.5146	-2.3021	-2.6646	-2.3229	-2.5438	-2.6625	200.402	-79.974	164.665	106.219	-137.856	63.574	-93.434	76.341	-131.232	-24.684	50.445	130.050	102.681	181.157	-3.840	-134.012	0.00062299	0.00025515	6.9358e-05	1120.9	4.7129e-06	1.2966e-06	1226.3	234.01	5.9404e-06	6.167e-06	295.48	82.514	65.142	19.25	4.0208e-06	26.744	0.00070034	0.00076639	0.0002126	1109.5	8.2591e-06	8.7865e-06	1218.3	234.4	8.5975e-06	8.9242e-06	298.16	83.906	66.505	19.747	9.051e-06	27.678	19.454	-126.126	-29.307	-134.742	194.074	-14.240	-134.708	-127.022	22.840	11.700	-127.432	-120.623	-120.396	-113.014	-23.344	-113.753	-8191	255	
28551.652	1	1	0	0	0.17577	0.089352	0.09127	0.1484	0.088612	0.14696	0.16151	0.13765	0.10917	0.12137	0.069717	0.039758	0.37987	0.17849	0.074644	0.16035	-1.7792	-2.6667	-2.3042	-2.4521	-2.6375	-2.4458	-2.5896	-2.5625	-2.2417	-2.7521	-2.5083	-2.3208	-2.6583	-2.5167	-2.6042	-2.7604	-50.352	174.930	-10.676	-31.836	61.223	-23.609	95.870	46.893	-7.497	208.141	146.735	-87.863	-140.055	67.926	50.200	9.811	0.00043633	0.00051595	0.00010865	1124.3	8.1991e-06	3.8265e-06	1233.9	234.26	1.4812e-05	5.5289e-06	297.65	83.427	65.312	19.541	4.9365e-06	27.158	0.00079344	0.00088146	0.00023957	1117.2	9.486e-06	9.8704e-06	1228	235.93	9.9187e-06	1.0206e-05	300.4	85.016	66.95	20.078	9.9462e-06	27.969	13.772	-23.392	-16.723	-134.703	-6.222	25.634	-134.532	-127.449	9.456	63.044	-127.279	-120.817	-120.241	-113.303	-62.610	-113.919	-8191	255	
28551.771	1	1	0	0	0.2892	0.19052	0.15578	0.10087	0.22009	0.075449	0.13768	0.064266	0.10105	0.18919	0.11	0.1876	0.048392	0.14255	0.026023	0.083306	-1.8604	-2.8354	-2.4021	-2.2875	-2.3958	-2.2542	-2.6979	-2.725	-2.2313	-2.4688	-2.6021	-2.2354	-2.5771	-2.3667	-2.475	-2.6708	187.711	-58.702	38.169	192.654	196.943	-44.131	187.998	-120.490	59.044	137.898	110.860	114.995	-109.471	-82.396	-42.460	-141.879	0.00052714	0.00047524	0.00012006	1130.9	1.0806e-05	4.1267e-06	1239.1	237.53	1.2365e-05	2.2454e-06	299.37	84.099	66.464	19.643	3.0681e-06	27.292	0.00085422	0.00093664	0.00026635	1120.9	1.0227e-05	1.0626e-05	1233.9	238.59	1.009e-05	1.0413e-05	302.69	85.295	67.717	20.213	9.9604e-06	28.125	25.031	-45.208	-2.913	-134.621	35.409	14.833	-134.816	-127.436	-58.835	-28.820	-127.272	-121.065	-121.032	-113.266	-8.751	-114.077	-8191	255	
28551.844	1	1	0	0	0.37921	0.16843	0.14792	0.1756	0.082753	0.3328	0.14902	0.041209	0.074522	0.34343	0.18874	0.24951	0.16959	0.14048	0.094927	0.019807	-1.7208	-2.6208	-2.4875	-2.6229	-2.6	-2.4854	-2.6083	-2.8167	-2.2917	-2.4917	-2.6333	-2.55	-2.7271	-2.4542	-2.3958	-2.6354	14.049	-108.793	12.275	115.158	90.515	-95.471	78.218	102.532	169.389	93.893	182.204	-79.348	-102.345	-126.784	75.956	-37.570	0.00055568	0.0003817	4.8575e-05	1134	4.544e-06	2.0517e-06	1237.7	242.17	7.5916e-06	5.0633e-06	304.22	84.951	66.759	19.668	2.5092e-06	27.395	0.0008115	0.00086606	0.00024285	1124	9.1907e-06	9.6278e-06	1232.6	242.31	8.9249e-06	9.3216e-06	306.22	85.98	68.13	20.282	9.1479e-06	28.231	18.031	-99.152	-5.738	-134.737	44.556	77.045	-134.980	-127.634	-27.256	-45.020	-127.775	-120.876	-120.931	-113.338	-92.005	-114.290	-8191	255	
28551.939	1	1	0	0	0.1799	0.1208	0.16709	0.20066	0.19757	0.14212	0.14938	0.25622	0.094899	0.081144	0.18508	0.13619	0.18278	0.20937	0.14594	0.17306	-1.7042	-2.3875	-2.5917	-2.2562	-2.5896	-2.3979	-2.4813	-2.7771	-2.2354	-2.5729	-2.6063	-2.1979	-2.7271	-2.5563	-2.1917	-2.7229	-106.720	-89.239	130.000	184.355	-35.359	-71.446	207.961	32.624	108.504	97.306	54.414	25.640	173.079	17.522	-48.890	147.635	0.0005849	0.00034793	0.0001672	1138.1	5.4357e-06	2.1486e-06	1256.5	245.46	1.0734e-05	5.6574e-06	307.4	86.589	68.257	20.344	5.9574e-06	27.933	0.00073456	0.0008213	0.00022495	1130.5	8.2743e-06	8.3779e-06	1246.1	245.41	7.7997e-06	7.7249e-06	309.44	87.768	69.12	20.695	7.1418e-06	28.661	16.649	-92.443	-34.336	-134.687	-32.288	-2.156	-134.860	-127.299	26.023	43.239	-127.554	-121.265	-120.831	-113.363	-52.355	-113.671	-8191	255	
28552.035	1	1	0	0	0.15878	0.13734	0.087168	0.33573	0.10739	0.01863	0.026135	0.1918	0.10002	0.22628	0.14178	0.25282	0.029379	0.18848	0.056589	0.13958	-1.7687	-2.3125	-2.7104	-2.4688	-2.4083	-2.2687	-2.4313	-2.6667	-2.4646	-2.4167	-2.8167	-2.3	-2.6333	-2.55	-2.1667	-2.6625	84.051	-12.622	133.925	214.209	191.121	-66.615	178.088	101.807	4.173	-124.589	91.578	99.161	198.476	203.902	-88.662	17.393	0.00055763	0.0002229	0.00011797	1149.8	1.0778e-06	2.104e-06	1252.7	245.5	5.6494e-06	4.355e-06	307.86	86.82	68.206	20.213	5.849e-06	27.847	0.00056753	0.00061235	0.00016669	1132.8	6.4294e-06	6.314e-06	1242.9	245.03	5.9805e-06	5.859e-06	307.74	87.656	68.777	20.594	5.36e-06	28.443	9.351	-15.549	-53.363	-134.599	-29.360	-53.591	-134.766	-127.388	-42.431	50.259	-127.747	-121.143	-120.825	-113.211	-17.268	-114.171	-8191	255	
28552.156	1	1	0	0	0.11657	0.2134	0.24209	0.28737	0.15528	0.15147	0.22325	0.24973	0.086985	0.11959	0.075031	0.15925	0.16126	0.11218	0.03094	0.27045	-1.9292	-2.4	-2.5521	-2.3688	-2.5042	-2.475	-2.3146	-2.7354	-2.4042	-2.4313	-2.6604	-2.4146	-2.7521	-2.4729	-2.1354	-2.6146	-109.459	-13.884	98.146	159.964	-18.233	61.155	143.771	96.189	154.077	3.785	-15.276	115.892	210.554	36.292	-60.328	-97.851	0.00048242	0.00044124	0.00014761	1132.2	4.9143e-06	1.3994e-06	1236.4	243.74	4.2954e-06	3.7028e-06	306.42	87.209	67.92	20.01	5.2942e-06	27.711	0.00046826	0.00047372	0.00012716	1117.2	5.0206e-06	5.0069e-06	1228.8	243.11	4.8795e-06	4.8986e-06	305.91	87.511	68.337	20.413	4.8615e-06	28.267	8.012	-99.944	-44.743	-134.535	-15.788	-92.920	-134.625	-127.231	-32.041	-56.484	-127.651	-120.994	-120.831	-113.613	9.495	-113.894	-8191	255	
28552.254	1	1	0	0	0.055483	0.30399	0.10786	0.14203	0.10691	0.17721	0.091004	0.15433	0.075563	0.13945	0.12674	0.17536	0.26319	0.064878	0.33503	0.11856	-2.0438	-2.3917	-2.525	-2.3854	-2.4104	-2.6333	-2.3292	-2.6042	-2.3937	-2.1583	-2.7375	-2.3563	-2.5104	-2.7542	-2.1458	-2.825	-15.166	-21.383	139.887	159.474	-137.142	-8.938	-74.803	169.333	-66.603	159.190	92.753	125.653	-99.009	134.857	-40.116	168.709	0.0006094	0.00045801	9.2756e-05	1119.5	5.3721e-06	3.1872e-06	1233	240.54	7.5033e-06	6.1432e-06	302.06	86.02	66.917	19.713	6.1618e-06	27.259	0.00043137	0.00044986	0.00012574	1107.7	5.0024e-06	4.9829e-06	1221	240.43	5.1523e-06	5.223e-06	302.7	86.178	67.503	20.147	5.1707e-06	27.883	18.556	-60.550	-62.822	-134.658	40.673	42.810	-134.657	-127.533	-14.030	-6.544	-127.325	-121.457	-120.356	-113.766	18.631	-114.169	-8191	255	
28552.350	1	1	0	0	0.14265	0.3969	0.094305	0.095754	0.14677	0.020131	0.23419	0.17229	0.14337	0.25044	0.22106	0.21524	0.28238	0.2023	0.11611	0.053196	-2.0708	-2.1708	-2.5729	-2.5187	-2.3438	-2.6896	-2.5687	-2.7292	-2.5896	-2.1937	-2.6604	-2.3917	-2.3792	-2.7625	-2.2687	-2.7146	152.772	-95.806	0.260	-124.776	126.584	56.393	-100.022	140.206	74.058	-43.955	184.217	178.565	199.083	151.332	-115.534	80.944	0.00050155	0.00016902	0.00010585	1119.7	2.6114e-06	6.7073e-06	1229.3	240.84	6.8132e-06	2.5394e-06	300.45	84.716	66.763	19.673	4.2041e-06	27.316	0.00047071	0.00050538	0.00013823	1107.5	5.4436e-06	5.5155e-06	1218.3	240.37	5.3576e-06	5.3078e-06	302.45	85.677	67.399	20.022	5.101e-06	27.876	12.887	-68.657	-83.243	-134.773	-22.527	-1.324	-134.640	-127.161	11.270	157.641	-127.494	-120.896	-120.277	-112.933	40.543	-114.093	-8191	255	
28552.445	1	1	0	0	0.15213	0.16241	0.18569	0.12919	0.20985	0.29584	0.12164	0.20739	0.10922	0.18503	0.22913	0.10247	0.096256	0.011556	0.13675	0.26789	-1.9625	-2.1229	-2.6167	-2.5396	-2.5292	-2.7896	-2.35	-2.5563	-2.5667	-2.2458	-2.6583	-2.5187	-2.3083	-2.5333	-2.3625	-2.5	54.671	-11.780	-15.997	102.879	-135.215	10.915	189.843	173.520	-54.218	175.264	-105.866	160.925	36.492	17.096	-35.896	-82.177	0.00045275	0.00026924	9.4758e-05	1113.5	8.2101e-06	1.1429e-06	1221	239.05	4.4448e-06	5.0807e-06	301.33	84.395	66.355	19.635	3.4272e-06	26.981	0.00045919	0.00048119	0.00013406	1100.7	5.3729e-06	5.3557e-06	1209.9	238.57	5.5446e-06	5.6939e-06	300.71	85.318	66.902	19.952	5.9442e-06	27.637	15.132	-130.525	-29.533	-134.570	-37.677	-2.654	-134.749	-127.413	-11.996	16.082	-127.774	-121.203	-120.465	-112.940	-6.591	-113.670	-8191	255	
28552.541	1	1	0	0	0.20125	0.16984	0.075608	0.12979	0.088527	0.074429	0.37444	0.23999	0.23385	0.1323	0.16931	0.12023	0.13859	0.12762	0.13697	0.13563	-2.2438	-2.1146	-2.4375	-2.5292	-2.2687	-2.6833	-2.4562	-2.35	-2.7604	-2.4604	-2.6354	-2.6458	-2.2625	-2.6021	-2.4562	-2.3937	-29.715	47.597	101.005	202.926	-100.330	-34.208	150.227	20.300	132.233	134.937	209.868	108.557	-7.525	105.602	-14.566	137.446	0.00061373	0.00027523	8.5163e-05	1114.8	2.0883e-06	2.0501e-06	1223.9	238.72	3.8004e-06	5.0771e-06	300.33	84.331	66.035	19.431	9.9005e-07	27.06	0.00052093	0.00057423	0.00016292	1101.1	6.3362e-06	6.499e-06	1212.3	238.3	6.4073e-06	6.351e-06	301.01	85.051	66.851	19.899	5.9918e-06	27.716	12.530	-72.222	-81.672	-134.774	-35.704	22.429	-134.721	-127.282	-103.656	-53.466	-127.447	-120.941	-120.137	-113.040	3.140	-114.033	-8191	255	
28552.637	1	1	0	0	0.087496	0.13538	0.11948	0.43118	0.10154	0.076414	0.1286	0.13401	0.26402	0.18749	0.33417	0.2044	0.17164	0.11762	0.22267	0.11184	-2.225	-2.2667	-2.5292	-2.6688	-2.2771	-2.6188	-2.5167	-2.3833	-2.7667	-2.2375	-2.5042	-2.6458	-2.2375	-2.625	-2.3958	-2.2667	-3.474	-2.316	177.259	160.664	22.073	-14.835	116.260	-29.685	13.838	-96.061	172.282	126.500	152.013	-135.521	-23.335	75.653	0.00044853	0.00032386	7.6994e-05	1112.9	6.3178e-06	1.3086e-06	1219.9	237.4	1.1317e-05	3.2185e-06	298.58	84.233	65.742	19.482	5.1437e-06	27.045	0.0005184	0.00055112	0.00014973	1100.9	5.8554e-06	5.878e-06	1208.2	237.69	5.8441e-06	5.7622e-06	299.68	85.082	66.554	19.833	5.8755e-06	27.571	8.973	-139.633	-23.508	-134.587	5.279	42.629	-134.892	-127.233	-1.128	6.027	-127.438	-120.567	-120.610	-113.095	78.135	-113.676	-8191	255	
28552.756	1	1	0	0	0.18964	0.16169	0.30262	0.10062	0.16508	0.1329	0.33336	0.23022	0.2917	0.14847	0.14595	0.12994	0.096937	0.17718	0.036939	0.27676	-2.2625	-2.3104	-2.3771	-2.6896	-2.3396	-2.5687	-2.5708	-2.6	-2.6437	-2.4896	-2.6229	-2.7958	-2.4	-2.5479	-2.4333	-2.4146	-24.542	-95.528	-59.253	138.565	70.022	175.928	77.433	209.496	44.808	6.535	-87.499	208.426	76.704	-98.130	-92.902	-137.314	0.00053294	0.00048932	0.00013998	1109.3	3.3683e-06	3.3541e-06	1222.5	237.46	5.3743e-06	3.1096e-06	297.47	84.012	65.944	19.391	1.2577e-06	26.996	0.00051774	0.00054776	0.00015044	1097	6.0178e-06	6.0275e-06	1208.6	237.2	5.9966e-06	6.1448e-06	298.97	84.456	66.566	19.734	5.9939e-06	27.542	8.982	-58.532	-37.237	-134.724	189.112	11.008	-134.611	-127.228	18.878	-29.078	-127.743	-120.894	-120.023	-113.330	79.209	-113.614	-8191	255	
#DATA ENDS
