BOXY.EXE: ISS Imagent and Oximeter Data Acquisition Program Version 0.80
Ascii Record File

#ACQ INFORMATION
2  Detector Channels 
16  External MUX Channels 
1  Auxiliary Channels 
5000  Waveform (CCF) Frequency (Hz)
1  Waveforms Skipped 
30  Waveforms Averaged 
1  Cycles Averaged 
16  Acquisitions per Waveform 
10.0806  Updata Rate (Hz) 

#FILE INFORMATION
TRUE -- External MUX Channel results are PARSED.
FALSE -- AC DC and Phase are NOT grouped.
TRUE -- Companion Program Settings File CREATED.
FALSE -- AC data not excluded
FALSE -- DC data not excluded
FALSE -- Phase data not excluded
FALSE -- Auxillary Chn. data not excluded
Tab delimiters

#CALIBRATION STATE
TRUE -- Waveform Calibration Values APPLIED.


#AUX CALIBRATION VALUES
Val Type	aux-1	

Term	1.0000e+00	
Factor	0.0000e+00	


#WF CALIBRATION VALUES
A = Detector Channel
Val Type	A-AC1	A-AC2	A-AC3	A-AC4	A-AC5	A-AC6	A-AC7	A-AC8	A-AC9	A-AC10	A-AC11	A-AC12	A-AC13	A-AC14	A-AC15	A-AC16	A-DC1	A-DC2	A-DC3	A-DC4	A-DC5	A-DC6	A-DC7	A-DC8	A-DC9	A-DC10	A-DC11	A-DC12	A-DC13	A-DC14	A-DC15	A-DC16	A-Ph1	A-Ph2	A-Ph3	A-Ph4	A-Ph5	A-Ph6	A-Ph7	A-Ph8	A-Ph9	A-Ph10	A-Ph11	A-Ph12	A-Ph13	A-Ph14	A-Ph15	A-Ph16	

Term	0.00000e+00	0.00000e+00	0.00000e+00	0.00000e+00	0.00000e+00	0.00000e+00	0.00000e+00	0.00000e+00	0.00000e+00	0.00000e+00	0.00000e+00	0.00000e+00	0.00000e+00	0.00000e+00	0.00000e+00	0.00000e+00	0.00000e+00	0.00000e+00	0.00000e+00	0.00000e+00	0.00000e+00	0.00000e+00	0.00000e+00	0.00000e+00	0.00000e+00	0.00000e+00	0.00000e+00	0.00000e+00	0.00000e+00	0.00000e+00	0.00000e+00	0.00000e+00	0.00000e+00	0.00000e+00	0.00000e+00	0.00000e+00	0.00000e+00	0.00000e+00	0.00000e+00	0.00000e+00	0.00000e+00	0.00000e+00	0.00000e+00	0.00000e+00	0.00000e+00	0.00000e+00	0.00000e+00	0.00000e+00	
Factor	1.00000e+00	1.00000e+00	1.00000e+00	1.00000e+00	1.00000e+00	1.00000e+00	1.00000e+00	1.00000e+00	1.00000e+00	1.00000e+00	1.00000e+00	1.00000e+00	1.00000e+00	1.00000e+00	1.00000e+00	1.00000e+00	1.00000e+00	1.00000e+00	1.00000e+00	1.00000e+00	1.00000e+00	1.00000e+00	1.00000e+00	1.00000e+00	1.00000e+00	1.00000e+00	1.00000e+00	1.00000e+00	1.00000e+00	1.00000e+00	1.00000e+00	1.00000e+00	X	X	X	X	X	X	X	X	X	X	X	X	X	X	X	X	

B = Detector Channel
Val Type	B-AC1	B-AC2	B-AC3	B-AC4	B-AC5	B-AC6	B-AC7	B-AC8	B-AC9	B-AC10	B-AC11	B-AC12	B-AC13	B-AC14	B-AC15	B-AC16	B-DC1	B-DC2	B-DC3	B-DC4	B-DC5	B-DC6	B-DC7	B-DC8	B-DC9	B-DC10	B-DC11	B-DC12	B-DC13	B-DC14	B-DC15	B-DC16	B-Ph1	B-Ph2	B-Ph3	B-Ph4	B-Ph5	B-Ph6	B-Ph7	B-Ph8	B-Ph9	B-Ph10	B-Ph11	B-Ph12	B-Ph13	B-Ph14	B-Ph15	B-Ph16	

Term	0.00000e+00	0.00000e+00	0.00000e+00	0.00000e+00	0.00000e+00	0.00000e+00	0.00000e+00	0.00000e+00	0.00000e+00	0.00000e+00	0.00000e+00	0.00000e+00	0.00000e+00	0.00000e+00	0.00000e+00	0.00000e+00	0.00000e+00	0.00000e+00	0.00000e+00	0.00000e+00	0.00000e+00	0.00000e+00	0.00000e+00	0.00000e+00	0.00000e+00	0.00000e+00	0.00000e+00	0.00000e+00	0.00000e+00	0.00000e+00	0.00000e+00	0.00000e+00	3.87151e+01	-1.35358e+02	-1.28243e+02	-1.82075e+02	-6.48011e+01	-7.49837e+01	-1.59417e+02	-1.62015e+02	-5.24993e+01	-7.30037e+01	-1.73374e+02	-1.72547e+02	-1.88450e+02	-1.78024e+02	-6.44271e+01	-1.50473e+02	
Factor	6.20168e-05	1.83616e-04	6.50966e-05	1.67319e-01	3.99798e-06	2.33925e-06	2.07214e-01	7.30801e-02	3.69325e-06	2.57816e-06	1.33795e-01	3.71403e-02	4.41454e-02	1.10510e-02	2.54457e-06	1.56295e-02	9.55063e-06	1.16113e-05	3.25442e-06	8.39797e-02	1.21577e-07	1.29098e-07	9.67151e-02	3.67330e-02	1.22588e-07	1.28699e-07	6.51813e-02	1.80533e-02	2.20184e-02	5.60602e-03	1.24295e-07	7.68503e-03	X	X	X	X	X	X	X	X	X	X	X	X	X	X	X	X	



#DISTANCE SETTINGS
A = Detector Channel
A-1	A-2	A-3	A-4	A-5	A-6	A-7	A-8	A-9	A-10	A-11	A-12	A-13	A-14	A-15	A-16	

2.5000e+00	3.0000e+00	2.5000e+00	3.0000e+00	2.0000e+00	3.0000e+00	1.5000e+00	3.0000e+00	3.0000e+00	3.0000e+00	3.0000e+00	3.0000e+00	3.0000e+00	3.0000e+00	1.5000e+00	3.0000e+00	

B = Detector Channel
B-1	B-2	B-3	B-4	B-5	B-6	B-7	B-8	B-9	B-10	B-11	B-12	B-13	B-14	B-15	B-16	

1.0000e+01	1.0000e+01	1.0000e+01	1.4400e+00	1.0000e+01	1.0000e+01	1.5100e+00	1.9400e+00	1.0000e+01	1.0000e+01	1.9900e+00	2.4900e+00	2.4100e+00	2.9000e+00	1.0000e+01	2.9800e+00	




#DATA BEGINS
time	group	step	mark	flag	A-AC1	A-AC2	A-AC3	A-AC4	A-AC5	A-AC6	A-AC7	A-AC8	A-AC9	A-AC10	A-AC11	A-AC12	A-AC13	A-AC14	A-AC15	A-AC16	A-DC1	A-DC2	A-DC3	A-DC4	A-DC5	A-DC6	A-DC7	A-DC8	A-DC9	A-DC10	A-DC11	A-DC12	A-DC13	A-DC14	A-DC15	A-DC16	A-Ph1	A-Ph2	A-Ph3	A-Ph4	A-Ph5	A-Ph6	A-Ph7	A-Ph8	A-Ph9	A-Ph10	A-Ph11	A-Ph12	A-Ph13	A-Ph14	A-Ph15	A-Ph16	B-AC1	B-AC2	B-AC3	B-AC4	B-AC5	B-AC6	B-AC7	B-AC8	B-AC9	B-AC10	B-AC11	B-AC12	B-AC13	B-AC14	B-AC15	B-AC16	B-DC1	B-DC2	B-DC3	B-DC4	B-DC5	B-DC6	B-DC7	B-DC8	B-DC9	B-DC10	B-DC11	B-DC12	B-DC13	B-DC14	B-DC15	B-DC16	B-Ph1	B-Ph2	B-Ph3	B-Ph4	B-Ph5	B-Ph6	B-Ph7	B-Ph8	B-Ph9	B-Ph10	B-Ph11	B-Ph12	B-Ph13	B-Ph14	B-Ph15	B-Ph16	aux-1	digaux	

28496.072	1	1	0	256	0.095137	0.2849	0.044776	0.24731	0.15163	0.072329	0.17308	0.13298	0.085431	0.14569	0.17526	0.15819	0.25865	0.079285	0.13906	0.25392	-2.1292	-2.1917	-2.3063	-2.6708	-2.2917	-2.625	-2.7917	-2.3083	-2.5	-2.3229	-2.4125	-2.6667	-2.1771	-2.3875	-2.525	-2.3021	0.531	159.107	151.205	61.660	-135.835	-61.748	143.200	165.985	38.906	-102.076	126.314	209.775	-82.182	-81.346	187.392	-134.448	0.00045737	0.00026531	0.00017528	1097.8	5.7971e-06	8.7828e-07	1196.4	233.15	5.9332e-06	3.8591e-06	293.7	82.288	64.335	18.868	3.8994e-06	26.633	0.00030224	0.00028723	8.2018e-05	1083.9	3.2395e-06	3.1228e-06	1183.1	231.59	3.1308e-06	3.081e-06	292.87	82.45	64.621	19.182	3.0222e-06	26.961	8.516	-36.238	-71.607	-134.570	-36.732	147.427	-134.744	-127.133	36.506	50.190	-127.692	-120.550	-120.425	-112.631	25.269	-113.833	-8191	255	
28496.193	1	1	0	0	0.093277	0.052986	0.33313	0.14667	0.39084	0.13097	0.22639	0.22039	0.238	0.061249	0.13172	0.13799	0.15452	0.19623	0.17115	0.17405	-2.2792	-2.3458	-2.4062	-2.6667	-2.2938	-2.5354	-2.6521	-2.3167	-2.5271	-2.5125	-2.3396	-2.5229	-2.2229	-2.2292	-2.5417	-2.3021	25.933	210.684	-66.496	97.594	182.135	67.158	206.608	182.773	28.272	155.463	38.704	182.785	-44.873	-34.006	18.718	-126.473	0.0005154	0.00029146	8.6315e-05	1093.8	5.0293e-06	2.9661e-06	1197.7	232.24	4.1863e-06	2.1783e-06	292.93	82.286	64.787	19.032	1.4865e-06	26.459	0.00029414	0.00027768	8.0805e-05	1082.2	3.1828e-06	3.0908e-06	1183.3	231.01	3.065e-06	3.159e-06	291.94	82.536	64.863	19.248	3.1625e-06	26.843	13.994	-86.970	-36.129	-134.631	10.457	9.897	-134.740	-127.303	-20.485	63.937	-127.451	-120.875	-120.278	-112.882	67.722	-113.391	-8191	255	
28496.287	1	1	0	0	0.28973	0.10419	0.16727	0.20919	0.36162	0.07443	0.057425	0.073424	0.090274	0.19042	0.15402	0.25192	0.28157	0.33616	0.03997	0.23321	-1.9854	-2.4833	-2.1167	-2.6188	-2.1937	-2.2687	-2.7708	-2.4271	-2.4938	-2.7146	-2.4542	-2.6083	-2.4333	-2.1521	-2.6396	-2.1229	-59.723	170.848	163.559	190.092	-99.466	212.225	65.821	81.378	102.390	19.656	166.622	188.873	81.706	-99.830	165.608	116.388	0.00048337	0.00040828	0.00016446	1097.7	3.513e-06	1.5879e-06	1189.8	232.7	3.006e-06	2.931e-06	293.36	82.138	64.778	18.861	2.3799e-06	26.148	0.0003133	0.00029776	8.391e-05	1082	3.3806e-06	3.1769e-06	1181.3	231.24	3.2312e-06	3.1995e-06	292.45	82.555	64.794	19.186	3.176e-06	26.774	9.812	-73.829	-61.080	-134.504	-77.812	0.931	-134.472	-127.116	-3.911	7.240	-127.638	-121.236	-120.521	-112.888	50.342	-113.337	-8191	255	
28496.385	1	1	0	0	0.064368	0.13903	0.17704	0.34343	0.2876	0.27543	0.051029	0.12991	0.10701	0.13409	0.25513	0.25196	0.09559	0.26557	0.22405	0.18606	-1.9271	-2.4396	-2.1542	-2.7625	-2.3792	-2.1875	-2.6354	-2.3375	-2.3688	-2.5708	-2.1708	-2.7188	-2.3958	-2.2167	-2.4375	-2.4792	-45.510	15.407	129.796	173.058	-4.278	48.553	165.354	-135.695	79.786	-33.856	-38.554	149.309	176.296	123.379	57.898	-65.204	0.00049115	0.00024071	7.2067e-05	1096.5	6.6539e-06	1.0902e-06	1191.9	231.92	2.656e-06	4.1434e-06	293.03	82.377	64.758	19.024	1.3703e-06	26.187	0.00031294	0.0002906	8.3747e-05	1082.4	3.4219e-06	3.2778e-06	1182.4	231.39	3.3806e-06	3.2617e-06	292.46	82.372	64.921	19.24	3.1333e-06	26.729	8.245	-110.417	-53.324	-134.495	-41.420	10.688	-134.931	-126.920	-43.382	-19.022	-127.328	-120.822	-120.315	-112.968	-6.500	-113.340	-8191	255	
28496.480	1	1	0	0	0.17939	0.010427	0.075465	0.33368	0.077916	0.15176	0.36424	0.26432	0.14912	0.14466	0.11321	0.10419	0.19922	0.38991	0.11695	0.36134	-1.8563	-2.5667	-2.2125	-2.7646	-2.4292	-2.2479	-2.625	-2.3167	-2.2146	-2.6125	-2.1042	-2.5271	-2.3979	-2.0708	-2.5062	-2.4562	151.896	-45.221	-66.818	150.175	196.561	52.752	143.188	201.129	-70.339	6.262	148.308	-96.630	-143.182	-128.103	0.062	169.199	0.00049064	0.000179	0.00010099	1096.7	4.6423e-06	1.6414e-06	1196.6	231.7	6.1567e-06	3.4672e-06	293.57	81.574	64.167	18.846	5.867e-06	26.197	0.00030572	0.00029372	8.3286e-05	1082.2	3.2965e-06	3.3057e-06	1182	230.78	3.3433e-06	3.2708e-06	292.02	82.31	64.691	19.132	3.2257e-06	26.821	7.699	-112.450	-40.724	-134.482	-4.123	55.504	-134.615	-127.348	30.760	-1.809	-127.176	-120.968	-120.603	-112.823	8.855	-113.465	-8191	255	
28496.602	1	1	0	0	0.23216	0.14756	0.20361	0.078248	0.11397	0.24412	0.028205	0.11925	0.11368	0.23897	0.0613	0.11837	0.11037	0.2648	0.12392	0.042712	-1.6479	-2.5521	-2.0396	-2.5417	-2.7042	-2.3125	-2.6688	-2.4979	-2.2979	-2.7208	-2.2604	-2.4979	-2.5167	-2.2979	-2.4604	-2.5292	95.558	0.606	-88.484	-19.913	103.047	143.265	69.743	-85.249	143.501	202.294	-75.192	-27.840	74.956	172.750	169.260	25.269	0.00044203	0.00037282	0.00012647	1093.1	3.1088e-06	9.2654e-07	1189.7	232.16	3.5837e-06	2.417e-06	294.26	81.423	64.356	18.967	6.6201e-06	26.353	0.00030399	0.00028462	8.1591e-05	1080.1	3.3639e-06	3.2796e-06	1180.1	230.74	3.3104e-06	3.1716e-06	292.51	82.276	64.709	19.193	3.2091e-06	26.752	12.034	-81.967	-27.208	-134.514	-65.833	-57.299	-134.657	-127.071	5.274	89.305	-127.747	-120.816	-120.292	-113.079	-19.223	-113.503	-8191	255	
28496.674	1	1	0	0	0.25064	0.13666	0.084527	0.090225	0.13634	0.033568	0.32996	0.12217	0.11073	0.1981	0.26076	0.2622	0.10541	0.18978	0.23233	0.11887	-1.7458	-2.6	-2.1333	-2.5958	-2.4021	-2.2542	-2.6	-2.5604	-2.1833	-2.7833	-2.3667	-2.4208	-2.6229	-2.1896	-2.4062	-2.4938	-60.306	69.756	63.488	123.281	4.374	117.341	191.908	-143.981	-14.109	35.071	106.158	147.009	49.857	190.883	82.567	65.236	0.00049307	0.00022534	9.1598e-05	1095.8	5.6532e-06	2.7852e-06	1191.9	232.01	1.7832e-06	4.3059e-06	293.5	82.012	64.519	18.823	2.9031e-06	26.175	0.00029891	0.00029795	8.2649e-05	1080.2	3.3223e-06	3.2105e-06	1178.4	230.71	3.3198e-06	3.229e-06	292.39	82.311	64.543	19.164	3.2066e-06	26.74	8.937	-49.943	-39.559	-134.559	-26.188	-14.372	-134.742	-127.131	17.733	-13.067	-127.146	-120.970	-120.238	-112.903	-2.543	-113.249	-8191	255	
28496.770	1	1	0	0	0.22672	0.039503	0.16863	0.25023	0.22202	0.43082	0.19013	0.27512	0.2751	0.14641	0.085779	0.11982	0.1558	0.21283	0.10429	0.15462	-1.9188	-2.6521	-2.1437	-2.4021	-2.7812	-2.2938	-2.6479	-2.6479	-2.2438	-2.5792	-2.4917	-2.3312	-2.575	-2.1312	-2.4917	-2.7229	-109.349	-97.997	206.204	-134.137	38.594	162.122	55.578	141.635	70.169	214.731	-122.699	24.375	-123.192	121.758	114.002	-6.979	0.00044725	0.00037643	5.6157e-05	1093.3	3.316e-06	7.8943e-07	1194.6	231.42	3.6018e-06	3.3841e-06	294.41	81.845	64.783	18.85	4.0209e-06	26.373	0.0003062	0.00030267	8.1476e-05	1078	3.3173e-06	3.2135e-06	1178.6	230.58	3.1579e-06	3.1963e-06	292.4	82.16	64.71	19.147	3.2273e-06	26.776	10.724	-72.105	-40.335	-134.343	7.503	24.810	-134.644	-127.183	11.450	7.685	-127.504	-120.594	-120.324	-113.096	-20.395	-113.310	-8191	255	
28496.865	1	1	0	0	0.12634	0.042473	0.061109	0.15903	0.29157	0.20519	0.19548	0.29067	0.13173	0.30984	0.06285	0.10983	0.11694	0.15145	0.20752	0.20859	-1.6187	-2.4792	-2.4021	-2.2333	-2.4771	-2.3583	-2.6604	-2.5146	-2.1292	-2.45	-2.3771	-2.1312	-2.6688	-2.2229	-2.3458	-2.5667	149.827	32.763	65.031	113.083	-67.604	11.200	147.305	101.459	104.555	3.566	147.244	97.475	-132.724	169.499	-22.682	-84.606	0.00045884	0.00049919	8.1249e-05	1090.2	4.6218e-06	9.4858e-07	1186.6	231.36	6.1229e-06	5.0534e-06	293.24	81.509	64.321	18.812	1.6733e-06	26.237	0.00031843	0.00028813	8.0316e-05	1077.4	3.3755e-06	3.2291e-06	1176	230.5	3.2869e-06	3.1738e-06	291.68	82.13	64.514	19.109	3.1752e-06	26.668	16.793	-61.976	-71.753	-134.453	27.680	-46.640	-134.639	-126.957	24.916	30.763	-127.227	-120.653	-120.486	-112.831	39.641	-113.739	-8191	255	
28496.984	1	1	0	0	0.20548	0.18344	0.089755	0.09432	0.11439	0.16095	0.12808	0.28748	0.17757	0.14992	0.083559	0.10549	0.14645	0.089282	0.096054	0.2758	-1.7958	-2.5542	-2.4313	-2.3417	-2.5292	-2.2896	-2.425	-2.6083	-2.4188	-2.3583	-2.5771	-2.2292	-2.5187	-2.4792	-2.4521	-2.5625	-122.941	-36.044	-65.958	156.717	162.795	117.516	-13.515	180.455	150.943	156.073	148.854	213.689	51.967	-139.557	210.981	168.741	0.00046585	0.00022787	0.00016136	1088.9	5.3665e-06	3.5281e-06	1189.2	231.61	3.4213e-06	3.9627e-06	292.03	81.542	64.673	18.812	4.8243e-06	26.149	0.00031151	0.00030034	8.2493e-05	1077	3.3575e-06	3.2643e-06	1175	230.43	3.3906e-06	3.2416e-06	290.52	81.997	64.594	19.084	3.2723e-06	26.751	1.395	-44.921	-55.917	-134.444	-24.397	11.241	-134.566	-126.882	9.804	-11.227	-127.304	-121.053	-120.467	-113.270	-15.990	-113.211	-8191	255	
28497.080	1	1	0	0	0.19452	0.15795	0.084832	0.17347	0.13286	0.24448	0.13166	0.26058	0.18625	0.057311	0.14064	0.24714	0.15089	0.38566	0.17363	0.12904	-1.7188	-2.3146	-2.5854	-2.3875	-2.4313	-2.4479	-2.3729	-2.6417	-2.2938	-2.3937	-2.6042	-2.2687	-2.6729	-2.3854	-2.2042	-2.7313	170.564	-137.245	81.159	-139.347	-10.293	96.209	25.930	196.852	76.370	-35.781	172.073	-22.004	11.399	-138.217	-86.562	154.193	0.00053356	0.00024325	0.00011144	1089	3.1308e-06	1.9371e-06	1184	232.13	5.7228e-06	2.117e-06	293.11	81.64	64.189	18.727	3.5589e-06	26.11	0.00031157	0.00029824	8.2317e-05	1076.9	3.2527e-06	3.2371e-06	1173.1	230.52	3.2749e-06	3.299e-06	291.67	82.033	64.298	19.066	3.2633e-06	26.739	17.050	-20.495	-123.243	-134.589	-46.191	-55.241	-134.583	-127.120	16.484	37.531	-127.056	-120.601	-120.214	-112.904	4.952	-113.814	-8191	255	
28497.176	1	1	0	0	0.16278	0.30195	0.17457	0.21084	0.18207	0.12152	0.079451	0.031391	0.2164	0.15555	0.24862	0.12364	0.15489	0.10143	0.16934	0.30084	-1.6	-2.4229	-2.575	-2.2125	-2.3625	-2.3937	-2.4313	-2.6292	-2.3583	-2.2062	-2.5687	-2.1604	-2.55	-2.3542	-2.2479	-2.5167	18.784	-94.133	96.269	127.614	185.378	47.535	-26.833	-141.376	-4.348	80.457	167.732	138.221	-29.269	68.257	-74.248	67.676	0.00045382	0.00018591	6.4199e-05	1090	5.8641e-06	2.1498e-06	1183.1	231.45	3.502e-06	3.2235e-06	291.34	81.56	64.025	18.771	5.8416e-06	26.243	0.00031324	0.000292	7.8676e-05	1076	3.3631e-06	3.2283e-06	1171.4	229.85	3.2695e-06	3.2076e-06	290.65	81.989	64.41	19.061	3.2438e-06	26.689	15.149	-84.203	-51.317	-134.562	-4.032	18.905	-134.715	-127.339	13.533	32.708	-127.640	-121.152	-120.482	-112.729	13.888	-113.486	-8191	255	
28497.273	1	1	0	0	0.19799	0.10595	0.1723	0.34657	0.059298	0.017027	0.2754	0.18274	0.022756	0.25923	0.084905	0.068592	0.040515	0.040564	0.081985	0.14075	-1.8833	-2.1625	-2.5729	-2.2458	-2.4417	-2.4292	-2.2812	-2.5521	-2.0938	-2.1729	-2.5583	-2.1542	-2.4958	-2.6375	-2.1583	-2.5417	180.730	-78.106	-103.619	207.853	-12.017	-125.334	184.271	-119.542	36.729	84.986	191.925	-116.221	166.258	-57.999	26.913	165.814	0.00047403	0.00017536	0.00014114	1090.4	7.008e-06	2.6694e-06	1189.8	229.58	5.2827e-06	4.3425e-06	292.44	81.657	63.929	18.921	2.0313e-06	26.285	0.00030618	0.00028668	7.9082e-05	1074.1	3.3353e-06	3.2183e-06	1173.9	229.25	3.2011e-06	3.2749e-06	291.26	81.868	64.328	19.084	3.1434e-06	26.701	10.744	-77.645	-35.447	-134.456	1.910	2.406	-134.745	-127.266	18.678	-5.660	-127.355	-120.544	-120.028	-113.044	43.158	-113.400	-8191	255	
28497.367	1	1	0	0	0.15861	0.059767	0.1468	0.067939	0.15637	0.19882	0.18689	0.31016	0.10234	0.29499	0.030463	0.22835	0.21742	0.082074	0.35196	0.055838	-2.025	-2.1604	-2.4938	-2.3187	-2.3083	-2.5833	-2.4625	-2.5417	-2.4833	-2.4062	-2.6583	-2.2458	-2.4917	-2.4271	-2.1063	-2.3187	40.503	79.664	37.022	168.817	116.720	119.111	81.113	131.661	100.547	-66.988	166.224	134.811	75.735	-134.556	-76.643	-47.973	0.00046118	0.00030506	0.00014172	1088.5	4.4115e-06	4.0349e-06	1188.2	230.56	5.315e-06	2.2841e-06	292.03	81.222	63.765	18.757	2.0928e-06	26.214	0.00030572	0.00029023	8.0961e-05	1073.1	3.3505e-06	3.03e-06	1173.3	229.43	3.243e-06	3.0912e-06	290.68	81.807	64.187	19.08	3.1594e-06	26.668	14.850	-60.614	-71.715	-134.503	0.194	-18.824	-134.611	-126.994	13.857	-30.990	-127.666	-120.785	-120.153	-113.147	-58.395	-113.405	-8191	255	
28497.465	1	1	0	0	0.12455	0.01372	0.32163	0.10645	0.46642	0.13935	0.060146	0.21902	0.14042	0.3171	0.12068	0.23903	0.099619	0.12675	0.22403	0.0624	-1.8813	-2.1875	-2.6688	-2.225	-2.4229	-2.6167	-2.2125	-2.4271	-2.2333	-2.0854	-2.5896	-2.1646	-2.1333	-2.5917	-2.325	-2.5958	-53.220	175.006	-15.401	213.036	180.436	52.693	8.088	-139.327	-5.421	64.033	-37.744	179.232	71.621	-137.793	134.190	46.822	0.0004793	8.9113e-05	9.6534e-05	1089.1	2.4516e-06	3.3063e-06	1185.2	230.09	1.0111e-05	2.5692e-06	292.74	80.859	63.904	18.798	3.4191e-06	26.26	0.00029175	0.00028936	7.8818e-05	1073.3	3.2203e-06	3.1271e-06	1171	229.25	3.0992e-06	3.0931e-06	290.59	81.895	64.138	19.044	3.067e-06	26.651	16.982	-84.884	-57.409	-134.632	21.848	-25.832	-134.567	-127.370	-10.405	22.974	-127.236	-120.751	-120.059	-112.785	22.352	-113.330	-8191	255	
28497.561	1	1	0	0	0.097583	0.12559	0.35119	0.23361	0.32773	0.094638	0.15836	0.26587	0.15684	0.10894	0.1821	0.13011	0.14651	0.30331	0.16415	0.20716	-1.9688	-2.0667	-2.3896	-2.3812	-2.2125	-2.5438	-2.3917	-2.3375	-2.5521	-2.1813	-2.6188	-2.4771	-2.3688	-2.6583	-2.3208	-2.5833	-34.147	130.011	-144.228	148.786	157.366	-99.270	111.967	-139.463	57.468	-78.782	-102.670	-67.926	119.439	51.957	-122.657	154.133	0.00055193	0.00039978	6.9753e-05	1085.2	1.147e-05	4.0167e-06	1187.2	231.12	2.3213e-06	4.1054e-06	291.22	81.643	64.323	18.823	4.61e-06	26.083	0.00029901	0.00028726	7.892e-05	1071.6	3.1967e-06	2.9814e-06	1172.5	229.75	3.0644e-06	3.0622e-06	290.41	82.055	64.372	19.032	2.9551e-06	26.565	7.528	-57.881	-70.873	-134.503	-46.559	5.492	-134.424	-126.969	-17.561	-35.966	-127.541	-120.811	-120.504	-112.724	24.309	-113.656	-8191	255	
28497.682	1	1	0	0	0.20101	0.15915	0.23922	0.21266	0.20536	0.10545	0.19078	0.09003	0.26536	0.21595	0.098838	0.27335	0.050436	0.32994	0.1035	0.093339	-2.075	-2.0833	-2.3417	-2.4458	-2.2583	-2.5583	-2.4188	-2.5667	-2.6458	-2.0333	-2.4292	-2.4917	-2.2292	-2.6521	-2.2938	-2.2854	-55.776	106.623	22.441	199.714	64.119	142.635	165.516	1.666	105.479	157.658	93.186	108.479	-7.397	-112.533	144.055	-123.086	0.00043762	0.00040632	0.00010864	1085.7	6.1551e-06	2.7784e-06	1179.2	231.08	9.9285e-07	4.4134e-06	291.55	82.013	64.122	18.852	6.1481e-06	25.934	0.00028952	0.00027867	7.5896e-05	1071.8	3.3266e-06	3.0233e-06	1169.1	229.62	2.9855e-06	3.1475e-06	290.24	81.884	64.397	19.096	2.9365e-06	26.573	7.168	-47.884	-0.557	-134.400	-37.400	0.098	-134.686	-127.264	126.276	29.403	-127.591	-120.747	-120.626	-112.672	25.743	-113.648	-8191	255	
28497.777	1	1	0	0	0.23858	0.15873	0.20743	0.1829	0.21955	0.24966	0.27205	0.13434	0.30854	0.10366	0.20906	0.18386	0.087128	0.14369	0.207	0.071362	-2.1208	-2.1875	-2.3646	-2.5729	-2.175	-2.7042	-2.6167	-2.2146	-2.6479	-2.2521	-2.4583	-2.5417	-2.2458	-2.4979	-2.325	-2.4375	-68.832	-121.346	-3.562	95.973	-104.035	-61.708	168.108	130.073	-59.572	-66.610	61.192	173.023	186.763	145.600	148.364	172.099	0.00042082	0.00020008	5.0457e-05	1081.8	4.8493e-06	4.2377e-06	1183	229.56	3.8853e-06	5.2747e-06	289.58	80.812	64.276	18.887	1.6474e-06	25.963	0.00029197	0.00027557	7.8425e-05	1068.9	3.1795e-06	2.9956e-06	1168.8	228.99	3.0284e-06	3.1159e-06	289.35	81.536	64.427	19.102	3.1014e-06	26.581	17.633	-45.191	-40.912	-134.425	-32.586	-46.716	-134.547	-127.103	-30.275	-6.830	-127.303	-121.021	-120.380	-112.692	40.450	-113.577	-8191	255	
28497.873	1	1	0	0	0.053402	0.19875	0.10586	0.19551	0.10724	0.18705	0.43449	0.10605	0.06546	0.034203	0.079056	0.062483	0.080843	0.22978	0.29597	0.12192	-2.0646	-2.2542	-2.4875	-2.5896	-2.1792	-2.4917	-2.5792	-2.2521	-2.5208	-2.2146	-2.2521	-2.6958	-2.2854	-2.3708	-2.4625	-2.3208	12.484	-39.626	-94.451	120.760	-65.760	106.536	156.771	201.589	-70.467	108.634	158.488	-130.353	-50.510	171.739	-7.635	168.864	0.00048117	0.0002423	8.6146e-05	1083.7	8.0997e-06	1.1998e-06	1183.6	230.15	1.1503e-06	3.1481e-06	290.44	81.589	63.832	18.814	3.0084e-06	26.298	0.00029197	0.00028765	7.7367e-05	1069.4	3.2443e-06	3.0534e-06	1167.7	229.29	3.0047e-06	3.0499e-06	289.53	81.789	64.098	19.028	2.9321e-06	26.594	15.913	-88.998	-71.892	-134.477	2.538	-21.144	-134.584	-126.818	210.870	45.073	-127.447	-120.757	-120.531	-112.841	5.503	-113.453	-8191	255	
28497.971	1	1	0	0	0.1878	0.17428	0.21296	0.16871	0.30552	0.032415	0.24985	0.10868	0.047895	0.17708	0.41163	0.19866	0.08596	0.11528	0.17419	0.10448	-2.1229	-2.3167	-2.2646	-2.7292	-1.9479	-2.3021	-2.6896	-2.3708	-2.5479	-2.2708	-2.4396	-2.6688	-1.9771	-2.3979	-2.5	-2.1312	23.284	146.160	-0.287	140.923	-122.646	193.876	85.049	130.059	93.110	-81.647	193.942	-110.855	79.645	41.951	99.806	32.276	0.00050964	0.00028072	0.00012761	1085.3	5.3459e-06	6.4413e-07	1180.4	230.29	1.4776e-06	2.0943e-06	290.85	81.192	64.349	18.83	6.6878e-06	26.098	0.00029088	0.00027185	7.6947e-05	1070.5	3.1899e-06	3.0446e-06	1167.8	229.15	3.0279e-06	2.8767e-06	290.13	81.683	64.185	19.057	2.9538e-06	26.577	11.666	-57.159	-33.091	-134.497	-17.050	63.649	-134.706	-126.933	81.878	61.063	-127.200	-120.644	-120.293	-112.973	33.515	-113.935	-8191	255	
28498.066	1	1	0	0	0.28628	0.063255	0.024596	0.31679	0.19469	0.15261	0.34083	0.16263	0.18722	0.086702	0.27565	0.062686	0.29662	0.23114	0.15215	0.28514	-2.1875	-2.3563	-2.2208	-2.6458	-2.3542	-2.4771	-2.6542	-2.225	-2.4625	-2.4021	-2.2	-2.5958	-2.1375	-2.5021	-2.3896	-2.0271	179.234	-62.469	176.568	177.584	32.602	-56.677	180.965	8.907	-111.588	142.051	-127.749	202.952	-53.235	44.632	-84.342	-123.973	0.00054013	0.00037317	5.8148e-05	1084.3	2.4661e-06	3.4153e-06	1175.8	230.1	7.448e-06	1.4003e-06	292.19	80.317	63.693	18.687	6.1526e-06	26.063	0.00028855	0.00026614	7.2974e-05	1068.9	3.1017e-06	3.04e-06	1165.4	228.37	3.0297e-06	2.9995e-06	290.85	81.557	63.98	18.972	2.9297e-06	26.567	10.079	-65.899	-22.852	-134.495	-55.586	-46.494	-134.366	-127.194	27.794	-32.663	-127.597	-120.797	-120.327	-112.483	12.895	-113.032	-8191	255	
28498.160	1	1	0	0	0.05441	0.199	0.36567	0.264	0.012547	0.065229	0.12649	0.12838	0.17425	0.36	0.15347	0.13879	0.16955	0.13934	0.29387	0.10886	-2.0625	-2.3542	-2.2729	-2.7812	-2.2167	-2.4	-2.6437	-2.2438	-2.2188	-2.2875	-2.2333	-2.5083	-2.2729	-2.2354	-2.6021	-2.3271	-9.322	-143.648	205.454	171.929	172.730	158.985	116.220	148.660	-1.523	-15.558	130.160	-123.372	138.416	-65.476	-25.993	-144.389	0.0004496	0.00029911	9.8546e-05	1078.3	7.4137e-06	4.0562e-06	1183.7	229.81	2.147e-06	6.5354e-06	291.18	81.7	63.67	18.925	2.5414e-06	25.972	0.000286	0.00026621	7.7123e-05	1068.7	3.122e-06	3.0556e-06	1169.3	229.14	2.9536e-06	3.066e-06	289.62	81.801	64.026	19.024	2.9119e-06	26.554	17.718	-78.448	-4.583	-134.536	-45.473	-25.186	-134.635	-126.872	-28.732	-1.660	-127.540	-120.791	-120.426	-112.740	-70.322	-113.244	-8191	255	
28498.281	1	1	0	0	0.14186	0.076943	0.28161	0.041329	0.094185	0.3313	0.24989	0.28413	0.16452	0.23951	0.19315	0.16875	0.096456	0.30462	0.24272	0.20503	-2.0417	-2.4458	-2.1625	-2.5438	-2.1229	-2.1562	-2.3875	-2	-2.3208	-2.5563	-2.2375	-2.4042	-2.4042	-2.1437	-2.5417	-2.1333	-79.995	-126.642	-9.059	88.097	152.459	176.550	158.842	92.056	-137.888	-95.427	-118.452	160.036	123.997	33.861	154.201	119.704	0.00053079	0.00027871	0.00010416	1082.1	4.4446e-06	4.836e-06	1180	230.14	5.3735e-06	2.6624e-06	291.37	81.069	64.544	18.818	2.7456e-06	26.255	0.00028574	0.00027062	7.9164e-05	1069.2	3.1385e-06	3.0758e-06	1169	228.98	3.0537e-06	2.9043e-06	290.18	81.782	64.179	19.067	2.8715e-06	26.604	9.303	-39.874	-28.180	-134.555	-26.017	-21.376	-134.468	-127.332	-8.439	-28.030	-127.144	-121.027	-120.204	-113.211	-40.054	-113.689	-8191	255	
28498.377	1	1	0	0	0.14816	0.045496	0.28497	0.34523	0.16725	0.13606	0.17398	0.18866	0.068903	0.16723	0.084971	0.45044	0.1946	0.13551	0.26337	0.19971	-1.8813	-2.3563	-2.0312	-2.5646	-2.3042	-2.0146	-2.8042	-2.3917	-2.325	-2.5583	-2.2292	-2.4771	-2.5208	-2.2625	-2.5771	-2.3	-96.102	-63.200	-52.074	-116.030	185.047	202.625	133.066	-96.746	-64.482	-61.433	-64.085	-15.795	191.210	3.968	-56.091	-95.263	0.00051961	0.00025856	8.3099e-05	1081.4	6.7377e-07	4.9707e-06	1183.1	231.82	4.2742e-06	3.726e-06	291.43	80.778	63.2	18.757	4.3484e-06	25.988	0.00027952	0.00026133	7.3692e-05	1070.2	3.0055e-06	2.8794e-06	1167.6	229.22	2.7429e-06	2.8105e-06	289.12	81.318	63.845	18.976	2.7596e-06	26.539	6.110	-57.166	-36.780	-134.379	0.030	-15.333	-134.563	-127.010	-2.590	25.014	-127.419	-120.787	-120.341	-113.227	-27.344	-113.613	-8191	255	
28498.473	1	1	0	0	0.18747	0.074228	0.31039	0.2518	0.23552	0.059134	0.31581	0.39956	0.20405	0.23044	0.13375	0.041914	0.14552	0.12112	0.10379	0.2734	-1.725	-2.5542	-2.2542	-2.7313	-2.4604	-2.2021	-2.6937	-2.275	-2.2833	-2.6604	-2.4792	-2.6813	-2.5479	-2.25	-2.5521	-2.4542	-51.885	122.179	20.839	-133.665	100.034	-87.948	176.411	165.244	17.235	-40.324	56.425	-72.823	161.311	-17.345	87.671	184.183	0.00042925	0.00033279	7.8232e-05	1081.6	4.9648e-06	2.1542e-07	1181.4	229.35	3.8984e-06	4.2951e-06	290.59	81.479	64.187	18.763	3.4364e-06	26.077	0.00026973	0.00024713	6.9577e-05	1066.5	2.9292e-06	2.7296e-06	1165.5	228.46	2.7664e-06	2.6981e-06	289.87	81.56	64.013	18.999	2.6076e-06	26.523	10.257	-71.546	-78.539	-134.435	-24.002	-63.312	-134.503	-127.206	-44.179	-1.585	-127.548	-120.724	-120.379	-112.945	-9.640	-113.339	-8191	255	
28498.545	1	1	0	0	0.30634	0.18602	0.33971	0.20468	0.23479	0.16906	0.30259	0.035623	0.1547	0.048729	0.244	0.14836	0.12011	0.15945	0.26344	0.26864	-1.9333	-2.5104	-2.0583	-2.6896	-2.4396	-2.225	-2.6333	-2.3896	-2.2333	-2.7188	-2.3979	-2.5583	-2.6188	-2.0812	-2.4562	-2.3812	22.004	100.148	-32.004	141.270	117.510	-110.023	169.097	52.757	-9.606	87.615	-16.437	124.229	74.457	97.723	72.121	-132.511	0.00049038	0.0002808	0.00011888	1078.1	4.9347e-06	4.099e-06	1178.4	230.48	2.604e-06	2.5866e-06	289.66	81.261	63.565	18.763	4.1537e-06	26.205	0.00027267	0.00024713	6.917e-05	1066.2	2.8408e-06	2.7326e-06	1165.9	228.44	2.8137e-06	2.6091e-06	289.11	81.598	63.965	19.043	2.5442e-06	26.572	11.594	-31.386	-74.743	-134.476	-8.406	-16.971	-134.392	-127.204	-33.901	-31.220	-127.285	-120.435	-120.570	-113.014	-20.526	-113.331	-8191	255	
28498.666	1	1	0	0	0.30448	0.11824	0.092342	0.14637	0.16395	0.25619	0.27992	0.22913	0.21783	0.2354	0.058617	0.20087	0.15777	0.13011	0.23329	0.27611	-1.8521	-2.625	-2.3667	-2.4521	-2.4562	-2.1521	-2.5125	-2.4354	-2.2521	-2.5479	-2.425	-2.3833	-2.4938	-2.1646	-2.3167	-2.4729	26.943	-60.330	109.417	194.367	195.113	204.696	180.858	175.582	45.802	-142.063	139.513	180.681	4.876	21.448	90.390	187.472	0.00046873	0.00023007	7.6295e-05	1084.2	5.1513e-06	4.4805e-06	1182.2	229.37	4.6844e-06	1.4492e-06	291.11	81.62	63.453	18.816	2.5396e-06	26.055	0.00026449	0.00023232	6.4783e-05	1067.5	2.6635e-06	2.6003e-06	1165.6	228.4	2.664e-06	2.4713e-06	288.74	81.719	63.891	19.061	2.4307e-06	26.561	14.292	-62.331	-34.483	-134.431	3.485	-29.507	-134.427	-127.473	14.222	-36.832	-127.301	-120.761	-120.257	-113.224	22.695	-113.476	-8191	255	
28498.762	1	1	0	0	0.055958	0.072622	0.30232	0.22564	0.18476	0.14294	0.15165	0.12921	0.091138	0.18974	0.17408	0.084713	0.057479	0.42163	0.10782	0.30825	-1.7	-2.575	-2.2438	-2.3833	-2.6625	-2.2229	-2.5333	-2.4708	-2.175	-2.6458	-2.3625	-2.3708	-2.7208	-2.2062	-2.4583	-2.7917	-88.930	-0.110	81.473	156.603	118.199	-74.945	136.398	-136.040	-48.602	191.890	182.487	-24.695	173.887	76.054	92.994	-13.448	0.00052825	0.0001746	0.00011107	1080.8	5.2223e-06	1.8944e-06	1174.6	229.99	6.1056e-06	4.9079e-06	291.61	81.438	64.034	18.755	2.878e-06	26.241	0.00025785	0.00022354	5.8952e-05	1064.8	2.6473e-06	2.4685e-06	1162.8	228.53	2.5381e-06	2.4949e-06	289.46	81.782	63.977	19.008	2.4688e-06	26.634	17.694	-115.782	-45.435	-134.408	19.327	57.351	-134.615	-126.917	9.225	-10.359	-127.455	-120.741	-120.444	-112.653	33.460	-113.594	-8191	255	
28498.857	1	1	0	0	0.23784	0.052124	0.19421	0.17	0.15154	0.32673	0.1366	0.25416	0.15568	0.16418	0.23049	0.036654	0.13568	0.14599	0.092797	0.092569	-1.7583	-2.5667	-2.4688	-2.2687	-2.5583	-2.4583	-2.6	-2.5521	-2.1896	-2.5917	-2.2833	-2.1833	-2.5229	-2.2104	-2.4083	-2.4625	-55.526	40.363	126.077	67.822	-138.857	144.317	182.624	110.967	119.227	26.526	-120.404	191.350	-85.994	78.436	46.306	77.795	0.00044842	0.00027235	5.7981e-05	1078.1	1.8278e-06	5.7069e-06	1176.3	229.23	4.8121e-06	4.1322e-06	292.18	81.079	63.975	18.796	4.2583e-06	26.12	0.00026286	0.00023278	6.3604e-05	1063	2.6524e-06	2.3872e-06	1162.8	228.05	2.6208e-06	2.482e-06	289.74	81.499	63.946	19.002	2.5325e-06	26.622	14.016	-65.029	-21.627	-134.364	-45.048	-23.009	-134.532	-127.452	-10.120	25.179	-127.307	-120.661	-120.718	-112.843	0.530	-113.509	-8191	255	
28498.953	1	1	0	0	0.12548	0.27601	0.15861	0.24342	0.09258	0.13683	0.21828	0.19225	0.071898	0.062032	0.098129	0.14452	0.088997	0.24394	0.081815	0.1403	-1.9271	-2.4646	-2.4042	-2.4833	-2.7687	-2.4542	-2.5563	-2.5583	-2.3438	-2.5458	-2.5979	-2.3375	-2.5104	-2.2583	-2.2021	-2.7625	17.590	-102.124	14.705	134.121	-60.705	-81.516	101.154	157.244	178.507	-14.967	-61.146	136.922	176.523	98.356	-29.108	134.690	0.00046567	0.00027114	7.434e-05	1076.4	4.0078e-06	3.1902e-06	1180.4	229.63	4.1127e-06	4.963e-06	291.39	81.499	64.115	18.718	1.4216e-06	26.257	0.00026085	0.00023469	6.2329e-05	1064.3	2.6129e-06	2.4865e-06	1165.7	228.78	2.5514e-06	2.4112e-06	289.39	81.623	64.111	18.979	2.4367e-06	26.565	3.538	-58.503	-78.551	-134.512	-24.180	18.685	-134.629	-127.131	22.106	5.074	-127.508	-120.643	-120.510	-112.723	6.943	-113.507	-8191	255	
28499.072	1	1	0	0	0.068381	0.10361	0.18992	0.094058	0.20157	0.12215	0.29681	0.17518	0.16363	0.089805	0.18596	0.18652	0.25363	0.1001	0.17074	0.13883	-2.0667	-2.2979	-2.4813	-2.4313	-2.6271	-2.5229	-2.3187	-2.7354	-2.3396	-2.5271	-2.6521	-2.2042	-2.5271	-2.4625	-2.2833	-2.6542	-54.347	-20.996	-6.998	-56.870	191.252	-2.789	-131.991	178.637	25.068	140.472	-142.415	198.271	-89.823	-25.173	71.424	-56.403	0.00044749	0.00052221	5.8718e-05	1077.2	7.6084e-06	3.2562e-06	1180.8	230.08	3.2467e-06	3.8028e-06	290.52	81.228	63.994	18.768	3.0281e-06	26.048	0.00024917	0.00021902	6.4112e-05	1065	2.6534e-06	2.5024e-06	1165.5	228.73	2.5465e-06	2.4533e-06	289.56	81.594	63.972	19.008	2.5491e-06	26.523	12.227	-42.010	-40.606	-134.429	-20.880	-27.706	-134.473	-127.278	-48.776	-14.368	-127.022	-120.754	-120.548	-112.780	73.785	-113.152	-8191	255	
28499.146	1	1	0	0	0.15618	0.10687	0.14247	0.30503	0.22926	0.14911	0.095646	0.23562	0.29581	0.17604	0.35055	0.076153	0.16317	0.05782	0.074664	0.076718	-1.8354	-2.5312	-2.6729	-2.45	-2.4854	-2.5917	-2.4521	-2.5771	-2.4	-2.2854	-2.6542	-2.5167	-2.5312	-2.5333	-1.9771	-2.5646	-18.566	-22.116	-37.534	180.763	190.619	61.749	87.119	210.376	62.566	171.506	81.868	37.323	133.126	82.127	-63.616	-120.210	0.00052137	0.00020797	9.447e-05	1078.9	3.0218e-06	3.821e-06	1171.8	229.65	4.0079e-06	3.6048e-06	290.09	81.062	63.865	18.817	2.1255e-06	26.235	0.00025655	0.00023484	6.2932e-05	1064.1	2.6321e-06	2.4273e-06	1162	228.51	2.5723e-06	2.5308e-06	288.64	81.32	64.081	19.007	2.4323e-06	26.616	17.489	-103.703	-9.736	-134.440	-42.267	-20.692	-134.626	-127.037	4.804	-44.582	-127.259	-120.759	-120.474	-113.075	-70.794	-113.671	-8191	255	
28499.242	1	1	0	0	0.13613	0.14076	0.1598	0.094141	0.17553	0.083336	0.23616	0.12783	0.20226	0.26513	0.31799	0.14188	0.10202	0.050568	0.18492	0.14472	-1.9813	-2.1479	-2.4729	-2.3125	-2.5729	-2.6354	-2.3771	-2.7167	-2.4729	-2.3563	-2.6646	-2.2417	-2.4458	-2.4542	-2.0479	-2.4917	83.735	150.511	170.771	202.013	-49.827	111.026	150.785	45.117	36.023	79.338	157.114	98.919	-3.896	197.051	182.729	111.536	0.00051066	0.00037042	4.8593e-05	1071.8	2.9117e-06	3.5712e-06	1179.3	229.58	6.9246e-06	3.7481e-06	291.93	81.36	64.015	18.64	3.391e-06	25.838	0.00024422	0.00021899	6.1698e-05	1062.3	2.5518e-06	2.3945e-06	1163.2	228.5	2.4436e-06	2.367e-06	289.04	81.573	64.028	18.99	2.3883e-06	26.426	15.508	-69.846	-103.313	-134.387	-4.950	-5.787	-134.502	-127.187	-4.918	35.664	-127.261	-121.243	-120.609	-112.629	-21.542	-113.370	-8191	255	
28499.361	1	1	0	0	0.36488	0.097318	0.1319	0.439	0.16837	0.10902	0.32598	0.39884	0.22051	0.1358	0.065708	0.069565	0.11375	0.23999	0.083834	0.14417	-1.7875	-2.3604	-2.6229	-2.2979	-2.4188	-2.6271	-2.5563	-2.7896	-2.4292	-2.3854	-2.7146	-2.3229	-2.2542	-2.5812	-2.4167	-2.5062	-31.418	-105.679	41.804	-131.505	23.401	118.972	117.760	180.585	118.555	211.042	-41.966	171.356	213.377	125.680	182.174	210.899	0.00050007	0.00028601	8.7224e-05	1073.4	7.2964e-06	2.004e-06	1170.9	230.05	7.1164e-06	3.2648e-06	290.04	81.078	63.874	18.614	2.3357e-06	26.015	0.00024519	0.00021907	6.0424e-05	1061.4	2.5171e-06	2.4045e-06	1158.4	228.87	2.5378e-06	2.4759e-06	288.74	81.417	63.863	18.952	2.5077e-06	26.449	15.345	-69.985	-67.773	-134.571	3.764	50.032	-134.848	-127.059	-28.459	39.646	-127.204	-120.676	-120.426	-113.046	-8.163	-112.972	-8191	255	
28499.457	1	1	0	0	0.051604	0.071701	0.2628	0.23516	0.11384	0.062656	0.14006	0.1706	0.2488	0.18745	0.095908	0.16454	0.14687	0.20385	0.26726	0.11359	-1.9	-2.2417	-2.5458	-2.4521	-2.4688	-2.6917	-2.3521	-2.5729	-2.4542	-2.0625	-2.7271	-2.4083	-2.2812	-2.575	-2.0854	-2.5604	52.392	155.289	-69.632	-118.395	-15.939	90.444	104.286	127.830	57.555	162.785	-80.622	165.834	213.398	100.380	61.424	97.270	0.00052638	0.00017561	5.2909e-05	1078.8	7.6373e-06	2.5554e-06	1169.3	229.18	3.008e-06	3.9975e-06	288.57	80.393	63.537	18.703	2.5399e-06	25.915	0.00024925	0.00023002	6.4844e-05	1060.9	2.7385e-06	2.4617e-06	1160.5	228.24	2.6132e-06	2.6735e-06	288.04	81.235	63.663	18.891	2.6099e-06	26.328	22.493	-65.309	-53.798	-134.663	0.906	8.877	-134.618	-127.156	17.996	13.881	-127.534	-120.792	-120.641	-113.093	-15.805	-113.332	-8191	255	
28499.555	1	1	0	0	0.15248	0.10761	0.21481	0.21848	0.053658	0.15552	0.2046	0.19453	0.1696	0.10649	0.14886	0.028203	0.036676	0.34559	0.078355	0.12981	-2.0708	-2.0792	-2.5833	-2.4917	-2.2104	-2.6312	-2.3604	-2.6562	-2.6771	-2.325	-2.5083	-2.4542	-2.3208	-2.7854	-2.4125	-2.3583	205.349	-128.868	22.844	-133.359	-67.896	18.189	101.526	-129.241	-77.050	54.857	157.551	189.339	163.067	134.346	161.233	210.296	0.00051232	0.00049952	0.0001079	1072	2.4536e-06	4.0615e-06	1174.9	228.04	3.863e-06	5.9301e-06	290.15	81.223	63.952	18.687	4.0809e-06	25.943	0.00026501	0.00025196	6.8973e-05	1060	2.8576e-06	2.6296e-06	1159.8	227.34	2.7909e-06	2.815e-06	288.71	81.217	63.733	18.901	2.8176e-06	26.431	6.862	-57.497	-79.915	-134.551	-67.341	-44.232	-134.707	-126.879	5.862	5.856	-127.012	-120.998	-120.096	-112.634	16.192	-113.336	-8191	255	
28499.674	1	1	0	0	0.042472	0.30694	0.057657	0.27399	0.037901	0.18079	0.057845	0.22982	0.22074	0.3696	0.11864	0.32914	0.052533	0.20372	0.30607	0.16815	-2.0312	-2.2458	-2.4854	-2.7146	-2.3521	-2.5771	-2.5917	-2.3521	-2.5187	-2.0292	-2.55	-2.5104	-2.1417	-2.6542	-2.3438	-2.2979	180.912	-99.349	49.080	-105.866	101.292	156.101	38.681	213.529	-93.672	127.821	-125.410	160.504	109.611	138.296	86.265	74.169	0.00050334	0.00035055	8.2858e-05	1075.9	1.8054e-06	4.2893e-06	1170.4	228.86	2.0184e-06	4.9627e-06	288.35	80.814	63.255	18.588	2.543e-06	25.989	0.0002677	0.00025293	6.7848e-05	1060.5	2.8505e-06	2.707e-06	1158.2	227.72	2.8218e-06	2.833e-06	287.92	80.968	63.626	18.868	2.6677e-06	26.371	17.330	-82.619	-54.461	-134.464	13.159	-6.378	-134.549	-127.353	20.995	2.149	-127.687	-120.716	-120.208	-112.839	-28.317	-113.162	-8191	255	
28499.770	1	1	0	0	0.23651	0.13575	0.056137	0.21056	0.31792	0.3022	0.072301	0.059158	0.13156	0.17146	0.17819	0.13274	0.07808	0.17008	0.45045	0.21469	-2.2229	-2.3021	-2.4542	-2.6833	-2.3104	-2.5125	-2.5708	-2.2417	-2.5646	-2.4042	-2.4625	-2.5646	-2.2354	-2.6229	-2.4396	-2.3063	156.108	9.410	173.406	169.628	165.187	137.510	184.706	-120.385	73.238	76.187	-61.863	155.683	-7.082	23.364	19.244	135.989	0.00053563	0.00022692	0.00014389	1067.4	4.1598e-06	4.0904e-06	1164.5	228.39	5.2391e-06	7.8571e-07	287.52	81.349	63.173	18.66	2.3294e-06	25.648	0.00026614	0.00024964	6.7611e-05	1056.8	2.8631e-06	2.547e-06	1156.2	227.98	2.782e-06	2.7598e-06	287.56	81.226	63.456	18.802	2.605e-06	26.266	7.314	-85.011	-39.892	-134.417	8.826	-18.037	-134.664	-127.219	-5.655	35.875	-127.177	-120.534	-120.473	-112.744	-0.803	-113.389	-8191	255	
28499.842	1	1	0	0	0.13468	0.12953	0.15834	0.29386	0.11759	0.21692	0.12124	0.31484	0.091391	0.28264	0.28314	0.42435	0.10993	0.17651	0.091099	0.21614	-2.4104	-2.2229	-2.5208	-2.8583	-2.2333	-2.5979	-2.7104	-2.225	-2.6188	-2.1688	-2.5042	-2.6479	-2.0458	-2.5667	-2.5479	-2.3354	47.805	-26.344	-97.601	171.258	86.664	55.806	120.655	-103.526	158.457	110.543	-39.808	189.066	83.800	-140.727	170.882	-64.056	0.00054204	0.00013974	0.00015282	1072.6	6.813e-06	3.7306e-06	1166.1	227.44	2.8232e-06	2.1272e-06	289.21	80.268	63.428	18.532	1.6973e-06	25.81	0.00026758	0.0002443	6.7794e-05	1056.9	2.8049e-06	2.6366e-06	1154.6	227.43	2.6101e-06	2.6818e-06	287.41	80.926	63.536	18.781	2.6032e-06	26.295	5.176	-60.810	-48.171	-134.450	-25.802	-21.503	-134.366	-127.305	-26.205	6.363	-127.326	-120.821	-120.299	-112.784	-95.654	-113.549	-8191	255	
28499.963	1	1	0	0	0.14261	0.28054	0.020825	0.1952	0.068629	0.14781	0.20614	0.018041	0.10216	0.20203	0.19134	0.092796	0.046749	0.11167	0.32568	0.1112	-2.1458	-2.3125	-2.3708	-2.7292	-2.45	-2.6625	-2.7687	-2.4062	-2.5542	-2.3771	-2.45	-2.7188	-2.3604	-2.5208	-2.6937	-2.0833	-121.765	-14.392	-83.419	194.909	-40.805	-90.464	64.926	47.126	-32.460	-111.737	113.529	87.663	2.098	120.058	61.877	104.872	0.0004394	0.00028271	7.4577e-05	1071.3	6.4443e-06	3.705e-06	1166.2	229.21	5.4399e-06	5.7759e-06	290.38	80.22	63.105	18.567	1.8051e-06	26.023	0.00026059	0.00023893	6.5407e-05	1056.5	2.8852e-06	2.6379e-06	1156.1	227.46	2.7659e-06	2.7343e-06	287.83	80.875	63.433	18.798	2.7674e-06	26.38	11.629	-48.895	-81.873	-134.492	-18.001	22.210	-134.638	-127.362	-25.883	-12.060	-127.273	-120.465	-120.462	-112.945	2.752	-113.554	-8191	255	
28500.059	1	1	0	0	0.15077	0.19428	0.13375	0.35977	0.26741	0.10752	0.085393	0.12716	0.075738	0.041687	0.18464	0.18558	0.1194	0.090951	0.25119	0.39956	-2.1229	-2.4125	-2.3125	-2.7021	-2.3729	-2.35	-2.7646	-2.25	-2.6083	-2.4479	-2.4292	-2.8438	-2.2896	-2.3417	-2.725	-2.1417	204.349	31.263	-60.620	171.433	-116.648	-6.206	-112.017	-54.708	78.152	-98.251	197.169	153.815	-31.812	-75.088	175.058	189.257	0.00051934	0.00025884	5.5533e-05	1070.5	6.3309e-06	3.1578e-06	1168	227.57	5.154e-06	2.2131e-06	287.98	80.691	63.495	18.745	2.8763e-06	25.798	0.00026427	0.00025559	7.0397e-05	1057.3	2.9224e-06	2.7998e-06	1156.4	226.93	2.8818e-06	2.7295e-06	287.39	80.933	63.427	18.857	2.8681e-06	26.255	13.867	-58.045	-41.849	-134.444	16.269	-39.969	-134.692	-126.784	2.207	-34.813	-127.586	-120.911	-120.384	-112.424	-24.523	-113.406	-8191	255	
28500.152	1	1	0	0	0.20667	0.1211	0.1182	0.35827	0.22031	0.18978	0.18133	0.30641	0.18375	0.18473	0.065813	0.18876	0.32606	0.12035	0.22286	0.19216	-2.2438	-2.5208	-2.1917	-2.8083	-2.2458	-2.3333	-2.7771	-2.3375	-2.525	-2.55	-2.4375	-2.6979	-2.3604	-2.3479	-2.5292	-2.2188	-18.771	-131.822	-18.644	202.972	59.835	-87.220	187.202	54.734	74.838	105.298	-107.312	115.233	-102.958	13.451	64.962	152.130	0.00048329	0.00016052	4.7571e-05	1070.8	4.3953e-06	2.8163e-06	1173.4	228.14	4.8823e-06	3.9632e-06	288.83	80.212	63.302	18.564	1.6769e-06	25.87	0.00027719	0.00025871	7.3008e-05	1058.5	3.0042e-06	2.8117e-06	1159.3	227.54	2.8205e-06	2.9209e-06	287.7	81.018	63.385	18.801	2.8218e-06	26.346	6.186	-135.883	-27.684	-134.389	-38.381	-27.963	-134.778	-127.160	-47.093	9.854	-127.169	-120.661	-120.369	-112.825	-30.449	-113.448	-8191	255	
28500.248	1	1	0	0	0.30866	0.17449	0.060336	0.1792	0.088364	0.19935	0.2473	0.17114	0.19303	0.19349	0.17968	0.15041	0.14487	0.25391	0.068912	0.28413	-2.1312	-2.6292	-2.4271	-2.7958	-2.5708	-2.3854	-2.7375	-2.3042	-2.6396	-2.6562	-2.3646	-2.6458	-2.4313	-2.2542	-2.5146	-2.5167	-25.282	169.919	-80.033	102.764	151.265	-68.412	175.565	-46.258	-137.673	143.146	27.346	-55.269	-118.325	195.040	127.535	173.768	0.00043253	0.00022167	7.632e-05	1071.9	5.9303e-06	3.3346e-06	1172.3	229.43	5.3317e-06	3.5768e-06	289.67	80.621	63.289	18.689	2.8277e-06	26.065	0.00027717	0.00025654	7.3787e-05	1057.8	2.9606e-06	2.8353e-06	1159.7	227.76	2.9309e-06	2.9301e-06	287.72	81.063	63.393	18.866	2.9127e-06	26.383	19.300	-73.909	-50.264	-134.687	-31.831	-14.215	-134.758	-127.004	-16.757	23.303	-127.648	-120.800	-120.224	-112.665	-17.716	-113.715	-8191	255	
28500.369	1	1	0	0	0.13782	0.13553	0.12171	0.10388	0.10173	0.11491	0.29848	0.18167	0.039221	0.31825	0.079202	0.33241	0.15605	0.29616	0.036494	0.25954	-1.825	-2.5729	-2.2333	-2.7583	-2.5563	-2.3125	-2.8625	-2.3688	-2.6083	-2.6667	-2.3083	-2.4604	-2.4729	-2.2958	-2.5896	-2.3917	-75.972	64.464	206.728	193.366	-129.542	-4.562	149.542	180.588	130.866	79.327	188.293	120.142	126.353	167.537	-76.035	-87.842	0.00041456	0.00013658	0.00010111	1071.3	1.3475e-06	3.092e-06	1170.7	228.76	8.8394e-06	5.0841e-06	286.56	80.549	63.256	18.672	1.8977e-06	25.862	0.00028497	0.00027083	7.7116e-05	1059	2.9781e-06	2.9305e-06	1159	227.32	2.9345e-06	2.8488e-06	287.46	80.994	63.337	18.887	2.9424e-06	26.364	13.081	-61.819	-61.834	-134.303	0.765	-22.260	-134.653	-126.943	25.432	5.848	-127.329	-121.013	-120.387	-112.649	-29.167	-113.777	-8191	255	
28500.441	1	1	0	0	0.088594	0.033039	0.07669	0.15632	0.066186	0.34735	0.26603	0.27171	0.11219	0.10046	0.13356	0.030175	0.10827	0.29137	0.18076	0.2388	-1.8875	-2.5604	-2.2562	-2.5438	-2.6208	-2.25	-2.7812	-2.4521	-2.2833	-2.6458	-2.3167	-2.5083	-2.4417	-1.9667	-2.6896	-2.2583	-75.042	-89.286	147.070	-115.799	146.016	-27.630	161.750	187.715	-99.966	-11.478	-54.418	85.218	178.202	185.516	68.194	-33.410	0.00048957	0.00041806	4.4961e-05	1075	6.941e-06	3.4359e-06	1169	228.57	6.7899e-06	3.8126e-06	288.85	80.705	63.328	18.572	2.1494e-06	25.811	0.00028471	0.00025591	7.2268e-05	1061.2	2.9905e-06	2.9574e-06	1159.8	227.46	3.0003e-06	2.7236e-06	287.32	81.058	63.441	18.84	2.8008e-06	26.368	12.211	-69.621	65.715	-134.591	-24.142	-2.942	-134.501	-127.332	15.082	18.725	-127.523	-120.623	-120.282	-113.029	15.038	-113.212	-8191	255	
28500.537	1	1	0	0	0.091394	0.046931	0.083327	0.21855	0.033894	0.25676	0.12594	0.06639	0.2027	0.22736	0.22009	0.19928	0.14514	0.24026	0.17205	0.10043	-1.8458	-2.6292	-2.2896	-2.8146	-2.6708	-2.2562	-2.7979	-2.4604	-2.3104	-2.7	-2.325	-2.5896	-2.5646	-2.2917	-2.4813	-2.4792	64.452	55.813	-33.400	210.632	185.778	68.563	185.232	196.421	-26.412	-112.595	-92.202	206.234	-11.925	55.907	18.609	-111.608	0.000526	0.00029979	6.936e-05	1074.6	6.1056e-06	3.7829e-06	1173.4	228.39	6.5735e-06	2.9774e-06	287.84	80.493	63.045	18.577	3.2901e-06	25.809	0.00027619	0.00025825	7.0573e-05	1060.3	2.9039e-06	2.8848e-06	1160.3	227.17	2.9061e-06	2.759e-06	287.65	80.819	63.43	18.812	2.712e-06	26.28	5.959	-31.258	-68.774	-134.524	8.681	-16.162	-134.739	-127.292	-27.475	-49.122	-127.697	-120.938	-120.156	-112.442	-32.013	-113.350	-8191	255	
28500.635	1	1	0	0	0.072113	0.13972	0.2885	0.19836	0.13502	0.35343	0.37364	0.31856	0.17752	0.17679	0.11284	0.4479	0.1078	0.14999	0.077255	0.079075	-1.8854	-2.4125	-2.3563	-2.3563	-2.5292	-2.3	-2.7667	-2.4792	-2.275	-2.8125	-2.4771	-2.3271	-2.6708	-2.4354	-2.4292	-2.6958	170.356	119.694	108.223	159.730	-116.669	207.311	80.522	167.265	-44.812	85.418	34.919	81.748	73.837	10.238	60.300	-91.851	0.0004542	0.00023804	9.5147e-05	1067	3.7231e-06	2.032e-06	1167.9	227.6	1.0414e-06	4.9709e-06	288.75	80.265	62.488	18.492	3.3298e-06	25.939	0.00028552	0.00025804	7.4377e-05	1058.7	3.0688e-06	3.0088e-06	1156.5	227.27	3.041e-06	2.8796e-06	287.56	80.797	63.33	18.801	2.8735e-06	26.34	13.766	-54.942	-67.937	-134.500	-30.518	-6.024	-134.947	-126.949	155.448	-6.400	-127.454	-120.746	-120.342	-112.659	6.369	-113.692	-8191	255	
28500.756	1	1	0	0	0.15224	0.11451	0.15897	0.14399	0.13023	0.1993	0.24981	0.19067	0.16171	0.36226	0.31425	0.3433	0.030951	0.13921	0.10852	0.37173	-1.65	-2.6646	-2.3063	-2.3937	-2.5167	-2.2479	-2.6104	-2.6063	-2.3688	-2.5042	-2.4396	-2.4938	-2.6396	-2.3042	-2.5542	-2.5917	65.253	-52.399	-24.821	95.339	26.856	-28.626	135.204	141.810	-15.585	-30.775	198.632	-5.323	-119.526	-73.905	28.249	147.774	0.00045518	0.00026483	0.00013052	1070	2.8394e-06	2.5775e-06	1169	229.6	7.5847e-06	3.1885e-06	287.32	80.399	63.557	18.641	6.1944e-06	26.076	0.00028117	0.00025925	7.296e-05	1059.5	2.9566e-06	2.8235e-06	1158.9	227.55	2.8331e-06	2.9129e-06	287.57	80.993	63.562	18.867	2.815e-06	26.413	8.301	-77.714	-39.905	-134.689	-14.269	14.630	-134.479	-127.006	30.660	23.429	-127.349	-120.880	-120.288	-112.850	13.107	-113.172	-8191	255	
28500.852	1	1	0	0	0.15415	0.14855	0.1322	0.40905	0.33164	0.2022	0.20415	0.08899	0.12345	0.20906	0.32767	0.063136	0.18114	0.030781	0.16841	0.08588	-1.775	-2.3146	-2.4313	-2.4771	-2.6125	-2.2313	-2.6917	-2.4562	-2.3021	-2.5729	-2.5812	-2.5458	-2.6146	-2.4375	-2.4417	-2.7646	-25.744	-5.479	-63.716	137.352	-93.774	-64.342	42.377	-50.494	183.765	-11.802	119.917	143.341	-54.975	-140.056	19.886	-34.024	0.00053085	0.00030957	0.00010873	1074.5	3.2667e-06	2.2406e-06	1177	228.12	4.841e-06	6.6262e-06	288.77	80.682	63.432	18.641	3.7054e-06	26.046	0.00027691	0.00026541	7.1991e-05	1060.6	2.9959e-06	2.7084e-06	1161.2	227.37	2.9728e-06	2.8569e-06	288.01	81.083	63.699	18.865	2.9321e-06	26.376	13.225	-101.594	-54.150	-134.395	1.488	-30.057	-134.768	-126.986	-3.409	6.658	-127.392	-120.915	-120.428	-112.831	-16.334	-113.562	-8191	255	
28500.947	1	1	0	0	0.209	0.20747	0.19925	0.10026	0.034094	0.065778	0.077953	0.11489	0.3168	0.077938	0.15254	0.15271	0.12798	0.032227	0.18607	0.25067	-1.9083	-2.4437	-2.5438	-2.4521	-2.5604	-2.3667	-2.4604	-2.7708	-2.125	-2.4062	-2.4583	-2.4333	-2.4958	-2.2812	-2.1458	-2.6542	-116.348	109.532	98.269	143.650	-135.123	192.623	196.251	-54.959	146.597	-28.515	31.861	142.561	-33.534	121.899	7.045	-5.988	0.00051865	0.00020246	4.3619e-05	1076.2	8.6586e-06	2.8593e-06	1171.6	228.81	5.0598e-06	5.2442e-06	288.45	80.81	63.768	18.5	2.2239e-06	25.904	0.00027651	0.00024374	6.9936e-05	1062.8	2.9378e-06	2.7823e-06	1161.7	227.75	2.8272e-06	2.7719e-06	288.48	81.174	63.56	18.833	2.7555e-06	26.337	14.295	-28.168	-35.388	-134.273	-1.853	-34.679	-134.604	-127.064	6.282	21.302	-127.521	-121.135	-120.616	-112.727	9.242	-113.294	-8191	255	
28501.043	1	1	0	0	0.15923	0.11113	0.14839	0.09695	0.23337	0.15227	0.36806	0.21698	0.10868	0.19207	0.28383	0.14876	0.16752	0.031918	0.084081	0.10958	-1.675	-2.4	-2.3937	-2.3729	-2.5229	-2.5792	-2.5625	-2.8	-2.5521	-2.5271	-2.7896	-2.2438	-2.4958	-2.3812	-2.1813	-2.5812	11.739	108.866	-139.448	171.871	146.991	24.527	211.282	167.210	25.824	213.936	-35.552	206.080	31.194	185.095	-45.682	151.320	0.00044717	0.00024157	0.00010522	1077.5	4.003e-06	3.999e-06	1173.8	227.2	3.7496e-06	3.3622e-06	288.51	80.525	63.909	18.571	1.7883e-06	26.036	0.00026988	0.00025138	7.0112e-05	1063.7	2.8099e-06	2.7673e-06	1162.9	227.36	2.8116e-06	2.7062e-06	288.19	81.2	63.621	18.844	2.6801e-06	26.468	12.007	-78.490	-55.337	-134.531	33.708	5.243	-134.728	-126.905	-71.943	-0.044	-126.980	-120.740	-120.305	-112.872	12.323	-113.378	-8191	255	
28501.139	1	1	0	0	0.41923	0.029429	0.028796	0.20043	0.20001	0.10131	0.31982	0.032327	0.30371	0.12419	0.17253	0.36355	0.18425	0.053674	0.12673	0.066134	-1.7812	-2.4708	-2.5521	-2.4188	-2.4917	-2.6146	-2.2979	-2.6958	-2.4396	-2.3771	-2.6167	-2.2313	-2.7583	-2.4604	-2.2271	-2.5563	-91.704	-4.132	126.944	126.122	-131.822	80.976	179.598	161.878	-25.561	-141.661	2.809	190.343	154.498	39.089	73.806	-34.766	0.00049686	0.00024013	7.9515e-05	1076.1	4.2054e-06	3.361e-06	1177.4	228.79	5.2983e-06	3.5049e-06	286.99	80.484	63.656	18.595	3.6452e-06	25.981	0.0002587	0.00023926	6.6072e-05	1062.8	2.7661e-06	2.5688e-06	1161.9	227.38	2.6755e-06	2.722e-06	287.8	81.122	63.727	18.908	2.6806e-06	26.422	8.594	-49.879	-80.528	-134.581	-1.956	4.692	-134.549	-127.166	-28.355	-5.139	-127.248	-120.581	-120.178	-113.018	-0.547	-113.518	-8191	255	
28501.234	1	1	0	0	0.076293	0.15622	0.13362	0.01409	0.14387	0.21947	0.075286	0.14988	0.25631	0.15354	0.24327	0.069729	0.1256	0.30305	0.12535	0.15078	-2.0625	-2.2458	-2.5021	-2.3812	-2.6667	-2.5833	-2.5729	-2.7833	-2.4646	-2.3542	-2.7875	-2.2708	-2.5312	-2.4583	-2.2687	-2.4396	169.680	-5.719	213.279	-85.563	190.490	106.424	-86.724	119.402	173.172	90.616	-97.987	-73.947	-51.021	18.391	83.013	173.245	0.00047414	0.00015384	6.838e-05	1075.6	2.6472e-06	4.2918e-06	1176	228.87	7.2376e-06	4.3368e-06	288.97	80.985	63.768	18.595	2.4182e-06	26.049	0.00026314	0.00023972	6.5753e-05	1061.6	2.6169e-06	2.5728e-06	1161.8	227.76	2.6114e-06	2.7078e-06	287.88	81.323	63.71	18.931	2.6656e-06	26.489	11.169	-14.732	-53.712	-134.339	-54.920	0.120	-134.524	-127.278	-25.201	28.445	-127.516	-120.714	-120.176	-112.571	69.319	-113.375	-8191	255	
28501.354	1	1	0	0	0.33577	0.18138	0.096605	0.16314	0.21743	0.029495	0.22797	0.33164	0.080909	0.42304	0.037453	0.26096	0.18524	0.21264	0.26493	0.38813	-2.0187	-2.2812	-2.6229	-2.5333	-2.3958	-2.6	-2.2062	-2.6312	-2.4958	-2.1521	-2.6688	-2.3104	-2.3688	-2.5479	-2.1146	-2.6417	6.234	94.039	173.553	212.520	97.692	-123.995	40.546	141.083	-24.727	39.001	8.783	131.433	77.830	-111.866	-57.676	128.273	0.00046966	0.00035033	6.3582e-05	1075.3	3.14e-06	4.4081e-06	1175.8	226.82	6.4304e-06	3.6567e-06	289.26	80.781	63.724	18.686	2.2845e-06	25.964	0.00026228	0.00024809	6.559e-05	1062.1	2.7793e-06	2.7019e-06	1163.1	227.08	2.6602e-06	2.6375e-06	288.15	81.237	63.821	18.906	2.6674e-06	26.418	11.692	-67.272	-32.907	-134.360	45.167	23.698	-134.737	-127.085	13.270	15.807	-127.396	-120.701	-119.957	-112.879	-41.156	-113.484	-8191	255	
28501.449	1	1	0	0	0.11664	0.13887	0.13104	0.24312	0.22299	0.13632	0.15375	0.14438	0.1854	0.21837	0.22587	0.15725	0.15781	0.2374	0.24754	0.13255	-2.1604	-2.2646	-2.4813	-2.4271	-2.1792	-2.8229	-2.4896	-2.6375	-2.4688	-2.3917	-2.6208	-2.4875	-2.2292	-2.6479	-2.2542	-2.6833	166.921	-89.933	79.302	212.320	-58.236	-92.333	164.888	33.837	-39.332	133.429	-8.199	177.626	185.200	209.148	98.053	169.506	0.0004759	0.00034973	0.00012617	1073.6	3.9131e-06	2.2795e-06	1175.6	228.25	7.5095e-06	1.7365e-06	289.74	80.527	63.187	18.704	5.175e-06	25.852	0.00026147	0.00024205	6.8553e-05	1060.6	2.8489e-06	2.6734e-06	1161.9	227.65	2.7631e-06	2.7499e-06	288.45	81.166	63.657	18.859	2.7759e-06	26.35	11.571	-62.501	-53.556	-134.523	-63.053	27.705	-134.708	-127.013	-52.390	51.586	-127.142	-120.478	-119.817	-112.516	-1.320	-113.411	-8191	255	
28501.545	1	1	0	0	0.21976	0.19124	0.18956	0.28944	0.19313	0.17178	0.19553	0.040006	0.17989	0.16686	0.11334	0.19134	0.21156	0.29555	0.27231	0.21727	-1.9646	-2.0917	-2.6083	-2.5438	-2.2146	-2.6417	-2.3792	-2.5104	-2.6875	-2.1646	-2.7938	-2.5083	-2.3812	-2.6021	-2.1521	-2.45	-22.514	-89.979	127.517	-97.341	210.241	-6.176	98.219	88.997	6.769	40.533	211.975	211.342	-121.075	-127.259	26.165	156.526	0.00053676	0.00024074	0.00013012	1076.1	2.4919e-06	3.5783e-06	1176.4	229.4	1.5186e-06	4.2499e-06	289.04	80.938	63.819	18.651	3.5975e-06	25.98	0.00026515	0.0002434	6.8255e-05	1062.2	2.7874e-06	2.696e-06	1162.1	227.76	2.7677e-06	2.6676e-06	288.27	81.361	63.763	18.877	2.7182e-06	26.432	11.947	-52.353	-70.187	-134.529	24.161	-7.935	-134.673	-127.203	23.403	-12.310	-127.322	-121.312	-120.112	-112.710	-1.005	-113.811	-8191	255	
28501.664	1	1	0	0	0.31622	0.01692	0.11463	0.1659	0.030353	0.066443	0.32163	0.16551	0.089815	0.34349	0.085005	0.10548	0.060098	0.10085	0.10782	0.34672	-1.8687	-2.2438	-2.5729	-2.65	-2.2313	-2.7208	-2.3167	-2.4146	-2.4792	-2.3417	-2.7042	-2.5667	-2.2542	-2.6146	-2.3083	-2.25	-144.881	120.879	207.988	210.826	25.521	29.689	125.084	174.157	213.302	-104.160	-36.297	-86.455	86.615	106.421	107.278	-9.427	0.0004792	0.00024289	8.0899e-05	1076.3	3.2302e-06	1.9268e-06	1171	227.05	9.4614e-07	2.7507e-06	290.03	80.712	63.332	18.69	4.5262e-06	25.913	0.00026897	0.00025165	6.8275e-05	1061.6	2.8196e-06	2.6159e-06	1161.1	227.76	2.6696e-06	2.6791e-06	288.93	81.19	63.79	18.906	2.6136e-06	26.394	10.261	-96.954	-37.580	-134.702	96.713	17.348	-134.184	-127.259	139.597	52.855	-127.471	-120.653	-120.520	-112.718	-27.677	-113.692	-8191	255	
28501.736	1	1	0	0	0.31675	0.24948	0.057507	0.021657	0.26692	0.18122	0.15387	0.34013	0.14952	0.014119	0.45607	0.095052	0.15849	0.12751	0.20836	0.11834	-2.1729	-2.2062	-2.2854	-2.7354	-2.2271	-2.6188	-2.4333	-2.4229	-2.4625	-2.3458	-2.5396	-2.5875	-2.1667	-2.8292	-2.4646	-2.3917	24.014	200.844	-7.361	-79.349	64.749	194.934	168.249	131.955	6.399	-76.764	152.841	0.411	127.321	188.090	107.289	-101.219	0.00044881	0.00015489	8.8959e-05	1075.7	2.7177e-06	3.1505e-06	1177.8	230.01	3.1578e-06	6.8216e-06	290.31	81.155	63.61	18.614	3.9154e-06	25.786	0.00026873	0.0002457	6.5543e-05	1062	2.8064e-06	2.5941e-06	1163.2	228.13	2.651e-06	2.5308e-06	288.45	81.234	63.849	18.908	2.6068e-06	26.426	22.259	-15.538	-53.690	-134.496	23.865	10.204	-134.597	-127.106	-25.260	18.538	-127.240	-120.749	-120.580	-112.632	7.084	-113.532	-8191	255	
28501.832	1	1	0	0	0.029248	0.37064	0.050208	0.28479	0.091596	0.24652	0.23032	0.064881	0.090719	0.28492	0.15266	0.26229	0.18682	0.0552	0.10663	0.099853	-2.2396	-2.2208	-2.475	-2.6396	-2.025	-2.4458	-2.7958	-2.1958	-2.6917	-2.4042	-2.4083	-2.6063	-2.0958	-2.6	-2.5625	-2.2583	55.061	104.327	-19.732	159.650	108.274	-107.246	94.410	-77.710	89.060	-76.675	60.463	154.945	207.791	130.539	160.049	199.778	0.00045569	0.00016434	6.6154e-05	1074.2	6.3393e-06	1.3232e-06	1177.5	228.99	4.7268e-06	2.4064e-06	291.09	81.009	63.826	18.664	2.6368e-06	26.228	0.00025433	0.00024069	6.46e-05	1061.3	2.8317e-06	2.5145e-06	1162.6	227.55	2.6635e-06	2.6381e-06	288.26	81.267	63.724	18.921	2.6602e-06	26.485	7.767	-75.735	-46.340	-134.399	-59.947	-43.464	-134.441	-127.202	-30.398	-31.387	-127.287	-120.917	-120.209	-112.830	-6.203	-113.494	-8191	255	
28501.930	1	1	0	0	0.10103	0.069965	0.24167	0.26119	0.10102	0.25529	0.13695	0.20216	0.12191	0.12637	0.27781	0.083886	0.30656	0.04374	0.10569	0.17796	-2.2125	-2.2208	-2.225	-2.8271	-2.3396	-2.4333	-2.6333	-2.3354	-2.8812	-2.3958	-2.4688	-2.6229	-2.3875	-2.4875	-2.4958	-2.225	178.467	72.529	202.012	146.216	-69.403	70.073	202.994	-74.798	149.276	51.816	113.644	167.914	-107.367	-145.297	173.211	34.577	0.00045213	0.00026565	6.1479e-05	1076.2	5.5219e-06	2.6244e-06	1177.2	229.95	1.0509e-05	3.4388e-06	289.97	81.026	63.426	18.61	3.0297e-06	25.798	0.00025546	0.00023808	6.4187e-05	1062	2.7408e-06	2.6274e-06	1163.3	228.04	2.6704e-06	2.5713e-06	288.43	81.487	63.703	18.901	2.5527e-06	26.38	12.177	-99.562	-31.944	-134.655	-21.451	-31.394	-134.627	-127.320	-3.940	25.897	-127.293	-120.917	-120.519	-112.715	0.459	-113.426	-8191	255	
28502.051	1	1	0	0	0.11828	0.25928	0.46771	0.11349	0.17803	0.21281	0.20353	0.47149	0.11504	0.14787	0.041006	0.18062	0.091269	0.14438	0.0785	0.16641	-2.1729	-2.2667	-2.2667	-2.6958	-2.3021	-2.5292	-2.7875	-2.3729	-2.5354	-2.2958	-2.3688	-2.7375	-2.3583	-2.4771	-2.5854	-2.2271	174.658	175.896	-122.606	150.521	-114.613	209.994	134.398	128.865	179.738	160.976	-1.577	129.384	-103.006	65.905	-46.496	79.035	0.00047079	0.00013577	0.00012943	1073.1	1.8178e-06	1.9115e-06	1173.2	230.41	5.5829e-06	8.5369e-07	290.27	80.833	63.651	18.691	2.8014e-06	26.084	0.00025759	0.00024154	6.7516e-05	1061.7	2.7828e-06	2.6331e-06	1161.2	227.99	2.603e-06	2.5662e-06	288.95	81.565	63.717	18.914	2.5703e-06	26.437	7.570	-43.287	-71.641	-134.366	14.170	76.006	-134.519	-127.318	8.382	163.732	-127.401	-120.841	-120.404	-112.814	-4.958	-113.441	-8191	255	
28502.146	1	1	0	0	0.15692	0.21942	0.13015	0.10913	0.029902	0.20729	0.13468	0.32954	0.19358	0.26889	0.27293	0.14487	0.14406	0.015232	0.19521	0.58283	-1.9958	-2.3208	-2.2333	-2.6583	-2.2708	-2.2917	-2.7208	-2.3563	-2.4917	-2.6188	-2.2542	-2.5771	-2.4083	-2.3063	-2.6833	-2.3083	177.861	-66.352	-2.664	174.431	92.678	3.548	124.814	108.289	55.296	159.131	-123.444	26.261	30.581	-125.784	70.164	107.608	0.00050408	0.00027491	5.1018e-05	1075.2	6.7747e-06	2.317e-06	1176.2	228.59	7.3656e-06	4.7461e-06	288.29	81.023	63.252	18.717	1.159e-06	25.782	0.00026338	0.00023382	6.9773e-05	1062.5	2.8897e-06	2.7936e-06	1164.2	227.69	2.6415e-06	2.6635e-06	288.22	81.342	63.552	18.865	2.6868e-06	26.325	10.867	-36.128	-112.791	-134.631	-20.079	33.704	-134.782	-126.856	-6.931	13.960	-126.920	-120.681	-120.579	-112.678	22.340	-113.354	-8191	255	
28502.242	1	1	0	0	0.17986	0.16411	0.20749	0.094122	0.1981	0.26736	0.12331	0.089604	0.10247	0.20893	0.24553	0.14556	0.14982	0.11789	0.18054	0.13898	-2.025	-2.4313	-2.2396	-2.7875	-2.625	-2.3354	-2.6208	-2.3542	-2.4583	-2.5667	-2.1271	-2.5708	-2.5771	-2.1979	-2.65	-2.3792	145.406	-77.315	127.228	189.079	72.638	114.556	82.470	-115.493	-102.015	193.632	-143.193	67.593	198.564	140.587	108.931	-86.051	0.0004457	0.00035093	0.00014265	1072.6	3.4782e-06	4.2217e-06	1173.5	228.67	7.2506e-06	3.3635e-06	289.32	80.693	64.063	18.633	3.968e-06	26.049	0.00026579	0.00023513	6.5441e-05	1061.3	2.6868e-06	2.472e-06	1162.9	227.97	2.5534e-06	2.4506e-06	288.27	81.217	63.984	18.91	2.4595e-06	26.397	12.355	-124.594	-64.063	-134.441	6.269	-20.324	-134.742	-127.087	3.653	0.256	-127.226	-120.830	-120.535	-112.526	-19.377	-113.759	-8191	255	
28502.314	1	1	0	0	0.083793	0.062019	0.11346	0.059646	0.19681	0.18212	0.057487	0.14418	0.086959	0.09437	0.26634	0.0703	0.11984	0.15386	0.088059	0.11329	-2.1354	-2.575	-2.1312	-2.6833	-2.2812	-2.325	-2.6333	-2.325	-2.3875	-2.8812	-2.3042	-2.4938	-2.3458	-2.3187	-2.525	-2.4417	34.673	-86.942	-23.483	56.187	147.204	-28.941	-140.491	80.097	147.668	185.343	133.630	185.014	-73.691	-132.826	180.972	-59.022	0.00045118	0.00022844	7.5597e-05	1071	5.7867e-06	3.8937e-06	1174.8	228.39	5.351e-06	4.4893e-06	290.58	81.703	63.136	18.73	3.7159e-06	26.01	0.00023984	0.00021609	6.0837e-05	1059.1	2.5182e-06	2.3601e-06	1160.4	227.83	2.4903e-06	2.3396e-06	287.84	81.487	63.709	18.972	2.3419e-06	26.437	10.668	-47.277	-17.896	-134.276	12.830	34.760	-134.603	-126.946	-1.099	-0.158	-127.049	-120.816	-120.007	-112.936	-2.667	-113.402	-8191	255	
28502.436	1	1	0	0	0.31211	0.15832	0.065006	0.22818	0.070997	0.27257	0.12966	0.09591	0.13449	0.1402	0.13277	0.15956	0.36895	0.25411	0.071175	0.19601	-1.8687	-2.6188	-2.2104	-2.7958	-2.4875	-2.1646	-2.9542	-2.5979	-2.3354	-2.7208	-2.2438	-2.3729	-2.6188	-2.2	-2.5438	-2.4417	128.933	-39.666	-78.684	-83.057	40.703	124.327	123.245	119.485	137.140	81.389	152.410	-67.922	53.528	-130.663	123.450	1.842	0.00050937	0.00015883	7.5846e-05	1073.9	2.0835e-06	1.958e-06	1170.2	228.37	3.5517e-06	5.1052e-06	288.9	80.645	63.392	18.737	1.3131e-06	25.968	0.00024273	0.00021911	6.3332e-05	1059.8	2.618e-06	2.4642e-06	1157.9	227.73	2.5003e-06	2.4498e-06	287.8	81.378	63.733	18.897	2.336e-06	26.408	16.139	-90.350	-58.477	-134.232	-44.473	36.013	-134.705	-127.148	-14.747	-8.980	-127.393	-120.580	-120.444	-112.623	15.021	-113.411	-8191	255	
28502.531	1	1	0	0	0.1925	0.11758	0.30678	0.24666	0.24995	0.1661	0.42646	0.23764	0.1367	0.14646	0.30395	0.23505	0.20029	0.28893	0.25816	0.12764	-1.8521	-2.4938	-2.2167	-2.5062	-2.6396	-2.2958	-2.7417	-2.4104	-2.3292	-2.7562	-2.45	-2.6021	-2.6729	-2.2521	-2.525	-2.675	139.915	98.560	67.938	132.376	30.184	126.056	174.511	-112.126	132.870	93.195	152.951	189.017	98.505	71.547	18.489	88.250	0.00048188	0.00027693	0.00010652	1070.4	4.9525e-06	2.2341e-06	1168.6	228.21	6.7489e-06	4.657e-06	288.53	81.49	63.822	18.567	3.81e-06	26.089	0.00025454	0.0002194	6.3271e-05	1058.9	2.6281e-06	2.6102e-06	1158.6	227.59	2.51e-06	2.5397e-06	287.87	81.467	63.527	18.87	2.4838e-06	26.456	10.460	-57.092	9.393	-134.430	-12.019	37.526	-134.707	-127.161	-0.854	-0.931	-127.446	-120.874	-120.140	-113.034	-18.512	-113.379	-8191	255	
28502.627	1	1	0	0	0.03871	0.10206	0.096921	0.3356	0.19141	0.29337	0.20481	0.23312	0.16673	0.09387	0.13679	0.21496	0.17101	0.15068	0.19839	0.1922	-1.9458	-2.75	-2.3375	-2.3354	-2.4062	-2.2438	-2.6854	-2.5229	-2.2562	-2.5729	-2.4417	-2.4375	-2.4625	-2.2604	-2.4813	-2.5604	106.801	151.334	-30.924	-118.115	-118.042	41.183	-137.114	108.492	149.965	136.111	131.814	166.017	108.969	-126.808	-38.692	155.298	0.00045894	0.00029873	0.00012824	1074.8	4.9296e-06	4.3459e-06	1174	228.9	4.9315e-06	4.0476e-06	287.65	80.825	63.931	18.655	4.9999e-06	25.849	0.00025548	0.00021781	6.3732e-05	1059.6	2.6534e-06	2.5021e-06	1159	227.3	2.6362e-06	2.4968e-06	287.2	81.224	63.699	18.9	2.589e-06	26.328	16.324	-1.399	-31.781	-134.384	-6.807	-16.833	-134.620	-127.192	-56.207	7.322	-127.483	-120.845	-120.592	-112.587	-15.958	-113.138	-8191	255	
28502.746	1	1	0	0	0.18544	0.11226	0.13887	0.24648	0.37789	0.098951	0.038561	0.18446	0.14225	0.15264	0.017289	0.122	0.15464	0.025199	0.15563	0.28408	-1.6625	-2.5125	-2.3146	-2.4417	-2.6688	-2.1354	-2.6708	-2.4917	-2.3396	-2.8042	-2.4396	-2.3396	-2.7208	-2.3208	-2.3458	-2.5479	57.564	188.903	80.382	166.955	68.447	-7.154	-130.923	213.970	-142.248	78.339	-74.018	96.754	-86.132	-32.016	11.635	210.918	0.00053262	0.00024156	8.2251e-05	1071.5	6.8126e-06	3.2565e-06	1175.8	228.22	2.8414e-06	2.9512e-06	287.58	80.686	63.503	18.762	2.5692e-06	25.95	0.00025677	0.00022393	6.4519e-05	1058.5	2.5346e-06	2.4744e-06	1160.8	227.52	2.5325e-06	2.4528e-06	287.7	81.321	63.53	18.887	2.4732e-06	26.384	14.758	-35.353	-53.611	-134.410	-20.239	-61.931	-134.512	-127.126	-18.122	43.812	-127.331	-120.413	-120.578	-113.010	13.754	-113.060	-8191	255	
28502.842	1	1	0	0	0.19862	0.1005	0.049481	0.071957	0.096793	0.1475	0.39596	0.32926	0.12747	0.29799	0.14726	0.26246	0.038676	0.016303	0.20653	0.23135	-1.6958	-2.5687	-2.2542	-2.2729	-2.625	-2.325	-2.5521	-2.8354	-2.2167	-2.475	-2.725	-2.4708	-2.775	-2.0625	-2.3354	-2.6375	-23.391	-139.957	82.916	-35.127	163.183	161.198	211.060	154.271	-18.177	37.504	133.483	-76.185	96.479	-107.466	161.525	212.603	0.00049929	0.00038251	0.00010995	1074	5.7656e-06	2.5797e-06	1170.7	229.66	6.7853e-06	3.8604e-06	288.38	81.569	63.697	18.588	5.2977e-06	25.93	0.00024426	0.00021573	6.1258e-05	1058.2	2.5536e-06	2.408e-06	1159.5	227.47	2.6221e-06	2.4056e-06	287.66	81.355	63.64	18.862	2.4502e-06	26.419	17.087	-56.826	-36.992	-134.462	-12.747	21.379	-134.412	-127.116	-22.895	13.686	-127.516	-120.632	-120.358	-112.909	-12.480	-113.231	-8191	255	
28502.938	1	1	0	0	0.12647	0.20235	0.087015	0.33331	0.10006	0.14257	0.29719	0.19181	0.16067	0.057919	0.302	0.058844	0.023614	0.11126	0.048137	0.19906	-1.9458	-2.4062	-2.6125	-2.3646	-2.7625	-2.5104	-2.3958	-2.8042	-2.3271	-2.6833	-2.7354	-2.3583	-2.7625	-2.5792	-2.5292	-2.7188	4.437	-64.691	206.118	184.261	-139.367	105.627	143.561	127.013	-91.837	214.924	201.251	161.807	-19.249	177.695	68.316	59.611	0.00051953	0.00031799	6.3955e-05	1073.5	6.4828e-06	4.3791e-06	1165	228.55	4.5526e-06	3.111e-06	289.41	80.772	63.282	18.581	3.5626e-06	25.904	0.00025456	0.00022618	6.1014e-05	1058.5	2.6261e-06	2.4695e-06	1156.3	227.39	2.5524e-06	2.5169e-06	288.15	81.2	63.44	18.835	2.5382e-06	26.378	8.807	-48.939	-89.606	-134.677	-70.377	-18.154	-134.625	-126.912	-23.423	-18.063	-127.363	-120.807	-120.288	-112.716	-10.015	-113.304	-8191	255	
28503.033	1	1	0	0	0.26014	0.094876	0.17706	0.19729	0.022585	0.21323	0.29459	0.31162	0.12949	0.13499	0.1413	0.092997	0.12762	0.21245	0.24624	0.078729	-2.0687	-2.3708	-2.3979	-2.3667	-2.6146	-2.4125	-2.4104	-2.8667	-2.55	-2.3792	-2.775	-2.325	-2.5479	-2.525	-2.2708	-2.7042	14.612	-105.232	16.897	180.757	-12.972	-40.325	157.277	71.776	183.561	-144.812	-130.768	-141.290	-44.278	207.823	67.131	173.939	0.00048751	0.00021508	0.00011541	1073.5	7.5779e-06	3.6128e-06	1171.4	228.03	3.7974e-06	1.6981e-06	288.16	80.863	63.658	18.706	4.2236e-06	25.919	0.00025773	0.0002322	6.3773e-05	1059.2	2.5235e-06	2.4889e-06	1159.3	227.4	2.534e-06	2.545e-06	287.37	81.165	63.633	18.87	2.5486e-06	26.358	21.668	-79.055	-50.699	-134.436	-13.084	7.249	-134.334	-127.311	18.627	-25.794	-127.319	-120.383	-120.090	-112.493	-22.855	-113.430	-8191	255	
28503.131	1	1	0	0	0.17016	0.10827	0.066503	0.26064	0.26714	0.11942	0.092583	0.12611	0.20072	0.13192	0.1155	0.13413	0.043218	0.10327	0.15087	0.27318	-2.0271	-2.1667	-2.65	-2.2458	-2.6813	-2.5187	-2.2375	-2.7042	-2.4062	-2.3792	-2.6458	-2.3021	-2.6729	-2.4271	-2.1854	-2.6792	-98.919	184.355	135.622	198.070	-140.279	116.730	120.380	49.334	39.641	172.217	-138.510	-32.792	162.533	66.262	211.563	15.416	0.00048225	0.00040037	8.2135e-05	1073.2	6.9168e-06	2.566e-06	1170.1	228.16	6.7297e-06	1.8174e-06	290.22	81.461	64.129	18.696	2.8291e-06	26.125	0.00025224	0.00023133	6.2573e-05	1057.7	2.6767e-06	2.5553e-06	1157.7	227.2	2.4354e-06	2.485e-06	287.61	81.471	63.705	18.879	2.481e-06	26.381	6.386	-68.714	-81.106	-134.560	-14.448	17.918	-134.832	-126.700	-35.296	-22.925	-127.211	-120.857	-120.475	-112.757	-38.269	-113.171	-8191	255	
28503.227	1	1	0	0	0.16053	0.27003	0.15824	0.063226	0.15819	0.23513	0.15965	0.1706	0.19599	0.16451	0.090176	0.23592	0.026081	0.053537	0.35692	0.090963	-2.0167	-2.3229	-2.775	-2.4437	-2.4542	-2.6125	-2.5833	-2.5812	-2.4375	-2.3417	-2.7083	-2.4792	-2.5042	-2.5312	-2.3104	-2.5146	5.662	-99.585	-125.621	190.301	-122.573	10.879	164.107	3.959	98.543	145.320	201.701	-125.622	121.621	134.927	150.878	-104.673	0.00054362	0.00019842	7.3318e-05	1073.2	2.9378e-06	1.7499e-06	1169.9	229.37	4.0332e-06	3.4026e-06	291.23	80.869	63.78	18.67	4.4866e-06	25.944	0.00024802	0.00022439	6.1264e-05	1058.5	2.5582e-06	2.3827e-06	1158.7	227.68	2.5751e-06	2.4021e-06	287.85	81.193	63.588	18.892	2.5165e-06	26.448	7.784	-55.634	-25.829	-134.366	47.486	2.247	-134.472	-127.546	15.732	-29.110	-127.174	-120.689	-120.125	-113.078	22.339	-113.808	-8191	255	
28503.348	1	1	0	0	0.060924	0.11046	0.064684	0.11593	0.031926	0.04456	0.124	0.46879	0.10862	0.25858	0.036761	0.22122	0.10189	0.20219	0.20033	0.06418	-2.0083	-2.1208	-2.5292	-2.3438	-2.3021	-2.5646	-2.2896	-2.7042	-2.525	-2.3438	-2.7021	-2.4521	-2.4083	-2.6437	-2.4583	-2.6271	50.337	-6.246	5.901	81.863	51.378	-143.039	119.033	192.013	113.395	-47.612	132.493	-29.513	92.087	23.909	-97.554	-28.365	0.00048312	0.00037742	0.00011211	1066.5	4.8215e-06	3.893e-06	1168.9	227.75	7.7637e-06	3.017e-06	289.23	80.942	63.909	18.644	3.5873e-06	25.897	0.00024969	0.00022896	6.3224e-05	1055.9	2.5012e-06	2.4405e-06	1157.8	227.24	2.4464e-06	2.4075e-06	287.57	81.323	63.697	18.891	2.3466e-06	26.407	10.014	-69.214	-64.562	-134.176	-48.929	5.605	-134.386	-127.007	5.193	34.861	-127.242	-121.014	-120.524	-113.003	-48.753	-113.152	-8191	255	
28503.443	1	1	0	0	0.21058	0.21041	0.039464	0.095149	0.065462	0.052728	0.12659	0.13639	0.23647	0.2569	0.11514	0.12466	0.0867	0.14158	0.075897	0.1761	-2.2042	-2.3208	-2.7375	-2.4938	-2.4729	-2.7125	-2.4521	-2.5312	-2.6625	-2.1708	-2.5521	-2.4479	-2.3854	-2.6312	-2.3021	-2.6479	-125.873	198.587	-43.554	151.209	-58.356	-91.778	67.231	158.797	138.194	18.423	1.053	-112.654	96.506	34.799	-25.257	153.006	0.00042162	0.00014693	7.4603e-05	1072.2	3.1128e-06	2.3705e-06	1170.2	228.93	6.3582e-06	6.0887e-06	287.76	81.222	63.897	18.679	3.6689e-06	26.018	0.00023413	0.00022284	5.6064e-05	1058	2.4265e-06	2.313e-06	1157	228.02	2.3966e-06	2.3222e-06	287.53	81.349	63.717	18.954	2.2536e-06	26.412	15.714	-26.215	-5.532	-134.550	4.110	-28.012	-134.546	-127.128	11.333	-3.331	-127.467	-120.681	-120.284	-112.604	9.198	-113.625	-8191	255	
28503.537	1	1	0	0	0.096793	0.35127	0.068274	0.41717	0.13392	0.25677	0.034889	0.074391	0.15989	0.079398	0.077912	0.081288	0.13892	0.096242	0.14869	0.31679	-2.1083	-2.2062	-2.5187	-2.4708	-2.4604	-2.8375	-2.5563	-2.5083	-2.4875	-2.2458	-2.6875	-2.5958	-2.3042	-2.7	-2.3229	-2.5729	-64.452	110.938	74.625	160.842	201.240	-38.932	137.055	-16.302	-28.165	53.182	-67.363	-139.711	118.981	-22.445	187.368	131.801	0.00044343	0.00036693	8.923e-05	1071.4	4.0798e-06	2.8861e-06	1170.3	229.72	6.4339e-06	3.8532e-06	287.73	81.183	63.154	18.772	2.4037e-06	25.869	0.00023467	0.00020588	5.4722e-05	1057.1	2.332e-06	2.2113e-06	1158.5	228.17	2.2474e-06	2.2391e-06	287.9	81.448	63.769	18.952	2.2329e-06	26.421	10.351	-45.004	-70.288	-134.386	-59.861	-21.643	-134.550	-127.038	0.438	10.934	-127.047	-120.991	-120.299	-112.497	-12.190	-113.617	-8191	255	
28503.611	1	1	0	0	0.053947	0.086962	0.15608	0.27776	0.1559	0.21387	0.062574	0.075796	0.086899	0.20274	0.14329	0.16774	0.19148	0.062601	0.16832	0.07263	-2.2208	-2.3417	-2.5104	-2.7	-2.3312	-2.7729	-2.5687	-2.3563	-2.6	-2.3771	-2.9229	-2.775	-2.2875	-2.6479	-2.4729	-2.3708	-67.326	20.236	-129.759	202.231	130.644	30.265	0.644	-127.162	161.802	114.086	124.642	187.935	-144.232	-27.142	-26.825	-126.691	0.00054153	0.00027207	7.6174e-05	1069.5	3.6262e-06	1.636e-06	1173.5	230.36	4.9614e-06	1.8926e-06	289.8	81.339	63.492	18.664	3.6992e-06	26.132	0.00022444	0.00019217	5.2118e-05	1057.3	2.2152e-06	2.064e-06	1159.2	228.63	2.1057e-06	2.0645e-06	288.66	81.591	63.875	18.938	2.1666e-06	26.487	9.685	-59.592	-95.972	-134.491	-77.429	14.661	-134.715	-126.951	-16.766	-13.379	-127.166	-120.664	-120.383	-113.309	-2.965	-113.465	-8191	255	
28503.707	1	1	0	0	0.16267	0.040968	0.20241	0.032105	0.17378	0.21641	0.094396	0.39782	0.14193	0.36733	0.35818	0.021648	0.13141	0.29807	0.077167	0.1942	-2.1021	-2.2438	-2.4375	-2.7792	-2.3917	-2.7375	-2.6646	-2.4771	-2.7083	-2.2042	-2.4333	-2.6271	-2.4479	-2.6542	-2.3708	-2.3917	212.120	155.524	-80.189	122.091	-23.042	78.953	150.163	203.991	144.816	44.517	199.859	98.051	197.802	29.215	38.548	128.946	0.00050552	0.00034677	7.0432e-05	1067.5	3.7674e-06	3.3623e-06	1171.9	231.65	7.0473e-06	4.5424e-06	289.77	81.311	64.112	18.764	5.0575e-06	26.046	0.00021646	0.00018692	5.2335e-05	1056.3	2.2892e-06	1.9744e-06	1157	229.19	2.1808e-06	2.0903e-06	288.8	81.336	63.84	18.962	2.0936e-06	26.439	15.993	-55.845	-26.123	-134.435	-58.585	-7.049	-134.577	-127.381	-12.457	29.190	-127.073	-120.529	-120.460	-112.930	2.072	-113.468	-8191	255	
28503.826	1	1	0	0	0.094868	0.26947	0.27798	0.24931	0.37663	0.19038	0.062571	0.11492	0.11754	0.19318	0.37378	0.073803	0.085015	0.21672	0.3282	0.083654	-2.2875	-2.3021	-2.4083	-2.7271	-2.2354	-2.6396	-2.6437	-2.3646	-2.7583	-2.2438	-2.525	-2.5479	-2.3438	-2.4667	-2.6167	-2.3021	58.908	31.306	210.850	212.184	-5.368	83.053	205.294	159.959	81.208	-132.448	152.239	193.783	79.364	121.754	145.792	-44.733	0.00047088	0.00016364	6.5846e-05	1066.5	3.2656e-06	2.4275e-06	1167.1	229.13	2.6975e-06	3.2066e-06	289.55	80.917	63.225	18.774	4.5974e-06	26.041	0.00021459	0.00019318	5.3257e-05	1053.3	2.3181e-06	2.1202e-06	1155	228.03	2.1719e-06	2.1796e-06	287.92	81.188	63.5	18.97	2.1545e-06	26.432	15.455	-53.215	-0.385	-134.463	-108.493	14.636	-134.366	-127.045	-18.141	18.900	-127.353	-120.813	-120.138	-112.825	-10.108	-113.098	-8191	255	
28503.922	1	1	0	0	0.085479	0.18192	0.22409	0.34271	0.059276	0.2724	0.24805	0.24984	0.15788	0.27562	0.1109	0.088989	0.02822	0.2507	0.19144	0.29778	-2.275	-2.3958	-2.4458	-2.8688	-2.2938	-2.6479	-2.5938	-2.2875	-2.5542	-2.4813	-2.525	-2.7	-2.1917	-2.4604	-2.6667	-2.2917	-68.114	150.547	-81.005	141.434	-124.518	140.634	155.430	196.641	114.012	-15.835	53.598	-138.678	98.596	25.528	-106.953	89.311	0.00054538	0.00032538	9.8987e-05	1066.1	6.6054e-06	4.3719e-06	1165.4	229.01	5.8833e-06	1.4141e-06	290.36	81.247	63.92	18.717	3.1443e-06	25.8	0.00022553	0.00020407	5.6735e-05	1054.7	2.373e-06	2.1573e-06	1155.5	228.26	2.2418e-06	2.1214e-06	288.71	81.342	63.739	18.904	2.1249e-06	26.385	21.851	-74.395	-66.088	-134.604	-45.344	26.594	-134.627	-126.912	-4.791	-19.752	-126.929	-120.682	-120.410	-113.133	20.370	-113.529	-8191	255	
28504.020	1	1	0	0	0.35338	0.12905	0.13918	0.12581	0.25067	0.17258	0.32938	0.071876	0.15391	0.22993	0.079497	0.28222	0.11103	0.11982	0.098179	0.086368	-2.1708	-2.6458	-2.3396	-2.8083	-2.3979	-2.4688	-2.7625	-2.3042	-2.5563	-2.6521	-2.2542	-2.8271	-2.2	-2.5687	-2.6083	-2.3688	154.664	103.030	162.632	151.422	-20.007	-109.096	84.894	127.144	-132.224	122.981	-66.631	-132.807	-100.516	126.233	109.290	121.173	0.00045474	0.00028741	0.00017307	1071.2	2.1404e-06	1.8738e-06	1170.1	230.62	2.8354e-06	2.8542e-06	289.87	81.314	64.024	18.758	2.9097e-06	25.986	0.00022428	0.00019386	5.4952e-05	1055.8	2.2968e-06	2.2401e-06	1156.7	228.85	2.1757e-06	2.0919e-06	288.58	81.483	63.673	18.928	2.0996e-06	26.393	10.541	-54.639	-78.067	-134.308	48.023	-28.061	-134.608	-127.066	2.818	22.508	-127.216	-120.933	-120.244	-112.806	3.277	-113.209	-8191	255	
28504.115	1	1	0	0	0.1245	0.28641	0.162	0.20878	0.20129	0.22765	0.13576	0.32439	0.17981	0.29692	0.2473	0.042542	0.085384	0.06181	0.12317	0.16432	-2.2771	-2.4771	-2.1813	-2.8187	-2.4583	-2.5125	-2.6833	-2.2792	-2.4688	-2.5667	-2.2375	-2.7417	-2.3042	-2.3896	-2.7438	-2.3208	36.587	14.341	146.050	52.224	57.716	-89.403	17.156	-133.601	34.314	-125.874	-95.837	-118.391	43.166	49.956	-101.755	118.041	0.00049107	0.00011714	0.00011365	1072.9	4.8805e-06	1.7957e-06	1169.3	229.14	5.9353e-06	2.0967e-06	290.8	80.725	63.452	18.714	2.3367e-06	26.059	0.00021569	0.00019386	5.3732e-05	1055.3	2.2917e-06	2.0637e-06	1154.7	228.1	2.1647e-06	2.1321e-06	287.88	81.217	63.579	18.93	2.0387e-06	26.419	15.778	-63.156	-58.058	-134.263	-26.644	24.156	-134.410	-126.956	-1.903	31.109	-127.285	-120.580	-120.247	-112.284	-3.737	-113.339	-8191	255	
28504.211	1	1	0	0	0.07894	0.18555	0.05472	0.077886	0.079088	0.26857	0.079153	0.076607	0.14119	0.1576	0.065932	0.28826	0.12378	0.17753	0.2023	0.022353	-2.1708	-2.4979	-2.2458	-2.7396	-2.3354	-2.4021	-2.8229	-2.4417	-2.6521	-2.5792	-2.1688	-2.6875	-2.5	-2.4542	-2.725	-2.3563	-70.752	182.247	56.052	200.018	-77.394	-12.521	128.978	-105.443	110.646	78.332	-41.842	-129.699	-143.837	191.330	40.727	-19.044	0.00048092	0.0002779	0.00011282	1067.6	1.5995e-06	1.744e-06	1169.2	230.81	3.7555e-06	4.0196e-06	287.23	80.958	63.89	18.698	5.1815e-06	25.833	0.00022814	0.00018907	5.4335e-05	1053.2	2.1547e-06	2.0742e-06	1154.3	228.56	2.1777e-06	2.0817e-06	287.32	81.338	63.8	18.9	2.0926e-06	26.332	12.788	-41.374	-54.164	-134.498	-47.620	-8.412	-134.588	-127.034	-18.812	17.084	-127.185	-120.751	-120.157	-112.729	12.677	-113.765	-8191	255	
28504.307	1	1	0	0	0.017967	0.20572	0.13579	0.25356	0.12154	0.2951	0.1965	0.17852	0.39076	0.11009	0.21294	0.14016	0.14135	0.021005	0.04168	0.16563	-1.8813	-2.6458	-2.1312	-2.725	-2.3438	-2.325	-2.8208	-2.325	-2.4604	-2.7146	-2.1979	-2.5563	-2.6542	-2.4688	-2.4938	-2.3125	-0.212	148.223	-25.417	144.220	-38.906	90.517	9.107	125.815	132.081	124.229	192.086	-35.248	-91.120	171.369	-60.464	190.245	0.00052364	0.00027487	6.1169e-05	1067.3	3.8416e-06	2.0734e-06	1164.2	228.94	4.4133e-06	3.2845e-06	287.84	81.089	63.88	18.723	1.9887e-06	25.912	0.00022227	0.00018389	5.3759e-05	1053.3	2.2393e-06	2.2001e-06	1153.1	228.33	2.2413e-06	2.1447e-06	288.23	81.285	63.559	18.893	2.091e-06	26.369	12.646	-35.525	-88.947	-134.295	-78.196	49.592	-134.701	-127.045	-8.695	14.340	-127.436	-120.420	-120.521	-112.495	-61.860	-113.380	-8191	255	
28504.428	1	1	0	0	0.28218	0.23588	0.17541	0.13907	0.1817	0.17303	0.18366	0.16783	0.13847	0.029086	0.12709	0.22401	0.087825	0.16912	0.043623	0.097593	-2.025	-2.4646	-2.3083	-2.6833	-2.5021	-2.175	-2.7792	-2.3563	-2.2479	-2.7875	-2.2771	-2.5167	-2.5521	-2.3604	-2.5771	-2.3625	206.113	99.125	-8.461	209.270	169.561	47.746	-132.194	71.978	-27.188	-139.506	107.712	-95.281	48.230	116.344	-24.283	157.590	0.00051734	0.00022167	5.8788e-05	1070.7	4.5949e-06	2.8635e-06	1164.1	228.96	3.2234e-06	3.5595e-06	289.15	80.853	64.044	18.589	1.2361e-06	25.847	0.00022209	0.00018709	5.6905e-05	1054.3	2.2246e-06	2.1355e-06	1153.1	227.87	2.2406e-06	2.1753e-06	287.88	81.416	63.64	18.875	2.0737e-06	26.359	14.778	-7.101	-102.519	-134.305	7.567	-14.035	-134.458	-127.018	-19.494	-7.210	-127.114	-120.542	-120.738	-112.491	-18.482	-113.524	-8191	255	
28504.523	1	1	0	0	0.3955	0.1675	0.2062	0.15348	0.19963	0.13929	0.0946	0.13575	0.16394	0.027404	0.34421	0.2871	0.079188	0.35606	0.22625	0.14958	-1.9958	-2.6562	-2.2313	-2.6229	-2.7396	-2.2104	-2.8646	-2.5292	-2.3167	-2.5833	-2.5583	-2.4583	-2.6813	-2.2167	-2.4667	-2.5062	-40.027	-132.230	128.388	118.152	-96.813	-131.770	24.240	154.120	206.544	144.336	88.365	83.097	-92.815	195.336	66.163	-44.479	0.00046654	0.00033772	5.3836e-05	1069.2	9.7502e-06	4.0957e-06	1168.5	229.22	7.9099e-06	2.8922e-06	289.54	81.038	62.959	18.779	4.0835e-06	26.053	0.00022874	0.00019122	5.361e-05	1055.6	2.3135e-06	2.1231e-06	1155.1	228.15	2.3757e-06	2.2214e-06	288.2	81.29	63.336	18.932	2.1374e-06	26.402	4.378	-35.154	-48.322	-134.545	-15.606	14.197	-134.479	-127.088	-25.143	-5.252	-126.862	-120.666	-120.303	-112.645	7.318	-113.240	-8191	255	
28504.617	1	1	0	0	0.045816	0.049618	0.19798	0.24185	0.12601	0.13048	0.52753	0.37485	0.23477	0.17716	0.087656	0.1597	0.16357	0.20548	0.14448	0.11201	-1.7812	-2.6479	-2.4083	-2.525	-2.6292	-2.3208	-2.7896	-2.5208	-2.3417	-2.7083	-2.4208	-2.6104	-2.6437	-2.3604	-2.4396	-2.8167	-71.196	58.213	-68.566	188.386	108.045	-136.668	168.658	-130.773	-72.869	-57.495	134.644	-70.476	-1.644	134.591	-29.190	45.270	0.00047784	0.00036208	9.977e-05	1070.9	2.9178e-06	2.9523e-06	1166.7	229.09	3.5441e-06	4.4123e-06	289.29	81.214	63.277	18.682	3.6879e-06	25.983	0.00022979	0.00019127	5.3095e-05	1055	2.2233e-06	2.1672e-06	1156.3	228.04	2.18e-06	2.1002e-06	287.91	81.392	63.642	18.909	2.046e-06	26.38	6.200	-68.851	-78.169	-134.511	28.601	1.486	-134.556	-127.274	-7.601	11.566	-127.395	-120.593	-120.562	-113.241	36.457	-113.889	-8191	255	
28504.717	1	1	0	0	0.15013	0.15783	0.22364	0.044848	0.18013	0.20884	0.16429	0.33538	0.28704	0.34728	0.097301	0.11367	0.22441	0.1541	0.2871	0.063944	-1.8625	-2.5396	-2.4313	-2.5208	-2.7083	-2.1958	-2.4833	-2.5687	-2.1604	-2.7646	-2.7979	-2.225	-2.8771	-2.5062	-2.4771	-2.6937	153.204	193.706	168.556	212.142	-92.425	-17.755	144.179	-60.664	-77.854	38.198	-134.013	181.056	-31.969	160.943	-113.600	199.607	0.00047806	0.00035719	0.00012703	1071.1	5.8034e-06	4.0526e-06	1167.2	229.25	6.0676e-06	1.9825e-06	288.81	81.067	63.465	18.647	5.0179e-06	25.993	0.00022219	0.00019127	5.0959e-05	1055.2	2.1922e-06	2.1016e-06	1155.6	228.49	2.2326e-06	2.1074e-06	287.89	81.284	63.513	18.908	2.2562e-06	26.37	12.183	-36.813	-28.343	-134.325	12.132	-13.685	-134.451	-127.049	-8.879	-21.419	-127.124	-120.699	-120.403	-112.927	-6.109	-113.584	-8191	255	
28504.836	1	1	0	0	0.19204	0.075865	0.045943	0.2043	0.21613	0.12654	0.27181	0.23714	0.1017	0.1959	0.14498	0.17098	0.33002	0.084334	0.12952	0.15306	-1.8875	-2.6312	-2.4354	-2.3958	-2.4875	-2.4354	-2.7271	-2.7667	-2.1958	-2.5271	-2.7229	-2.3312	-2.6104	-2.3563	-2.3104	-2.6208	69.820	176.208	202.390	-137.631	99.120	115.024	118.456	101.460	-144.642	139.806	72.542	32.940	174.856	210.768	-53.531	207.272	0.00047263	0.00027491	9.6033e-05	1071.6	9.7308e-06	2.2808e-06	1173.2	229.08	4.2628e-06	3.0466e-06	289.23	80.961	63.319	18.701	3.6114e-06	25.826	0.00022864	0.00019509	5.3508e-05	1055.5	2.295e-06	2.1293e-06	1157.8	228.11	2.1905e-06	2.0785e-06	288.16	81.425	63.63	18.913	2.1034e-06	26.297	8.766	-88.401	-48.019	-134.418	-48.560	-13.715	-134.654	-127.138	25.471	70.173	-127.451	-120.773	-120.522	-112.910	9.271	-113.353	-8191	255	
28504.906	1	1	0	0	0.17198	0.15919	0.083206	0.021883	0.089369	0.14857	0.077716	0.042701	0.17582	0.27933	0.2178	0.1376	0.27676	0.18262	0.030409	0.10673	-1.95	-2.7042	-2.4167	-2.375	-2.8312	-2.2917	-2.5125	-2.6792	-2.2396	-2.6729	-2.3937	-2.3167	-2.6583	-2.4979	-2.2667	-2.675	97.078	13.256	-95.774	137.106	13.397	143.337	131.675	-3.279	133.104	173.060	152.339	146.245	30.413	177.846	-4.957	-84.585	0.00052182	0.0001404	0.00011862	1063.1	2.3184e-06	5.0019e-06	1166.8	230.49	5.0599e-06	4.9222e-06	289.04	81.475	64.092	18.621	2.0814e-06	25.94	0.00021935	0.00019541	5.4796e-05	1052.9	2.1891e-06	2.1075e-06	1155.3	228.46	2.3082e-06	2.1522e-06	287.3	81.254	63.886	18.85	2.1739e-06	26.327	6.303	-89.630	-75.786	-134.429	-31.735	-1.891	-134.491	-127.036	-7.350	36.621	-127.453	-121.110	-120.230	-112.771	-16.921	-113.469	-8191	255	
28505.004	1	1	0	0	0.062645	0.13778	0.12905	0.15581	0.15711	0.19307	0.12563	0.13269	0.25368	0.30822	0.091952	0.31544	0.0097219	0.12661	0.27968	0.11829	-1.7896	-2.2583	-2.4417	-2.3312	-2.4437	-2.3875	-2.525	-2.7896	-2.3646	-2.3312	-2.625	-2.1271	-2.4667	-2.4854	-2.1396	-2.6542	7.558	-117.526	185.514	168.351	7.279	89.686	142.200	107.799	-54.932	5.621	211.724	60.285	73.300	-77.395	194.683	-112.854	0.00045226	0.00019314	5.0873e-05	1066.5	3.8317e-06	3.2323e-06	1165.3	230.82	1.0181e-06	4.5593e-06	290.16	80.991	63.66	18.69	2.1093e-06	25.863	0.00021634	0.00019057	5.2281e-05	1053.6	2.2479e-06	2.2331e-06	1153.5	228.25	2.1994e-06	2.2351e-06	288.28	81.104	63.523	18.86	2.199e-06	26.368	11.131	-15.736	-17.677	-134.470	-49.310	45.344	-134.702	-126.883	138.194	-33.587	-127.231	-120.900	-120.494	-112.957	8.689	-113.004	-8191	255	
28505.123	1	1	0	0	0.12221	0.079426	0.20898	0.15493	0.42025	0.10653	0.25763	0.23848	0.068448	0.1677	0.11306	0.25412	0.19962	0.062298	0.13022	0.16654	-1.8229	-2.4167	-2.6333	-2.3333	-2.4521	-2.6083	-2.35	-2.6937	-2.4917	-2.375	-2.7313	-2.2396	-2.4521	-2.6354	-2.2792	-2.4562	-59.255	56.422	197.990	208.046	41.589	-10.123	178.426	-60.768	147.914	72.925	-102.487	211.083	-88.380	175.761	192.994	113.391	0.00051887	0.0002652	7.9501e-05	1070.4	4.879e-06	3.4721e-06	1170.2	229.63	5.0234e-06	4.2506e-06	288.52	80.884	63.478	18.66	2.2565e-06	25.984	0.00021857	0.00019686	5.4539e-05	1056.5	2.3095e-06	2.1511e-06	1156.8	228.26	2.2819e-06	2.1305e-06	287.78	81.192	63.612	18.857	2.1904e-06	26.33	8.495	-46.303	-44.857	-134.479	-25.829	25.872	-134.639	-127.269	-10.852	-3.120	-127.464	-121.019	-120.335	-113.080	2.841	-113.484	-8191	255	
28505.221	1	1	0	0	0.18981	0.10584	0.085365	0.11073	0.2582	0.077587	0.34479	0.37954	0.27114	0.26565	0.19077	0.19768	0.26824	0.2107	0.16209	0.18259	-1.9583	-2.2708	-2.7083	-2.4854	-2.3729	-2.5812	-2.275	-2.675	-2.4333	-2.2104	-2.6479	-2.2833	-2.3875	-2.4854	-2.2667	-2.6271	156.802	113.651	72.734	120.724	51.836	78.839	88.757	152.213	-31.376	190.713	109.256	111.709	37.977	-130.490	178.024	158.403	0.00049156	0.00026006	7.3318e-05	1070.6	6.1482e-06	2.2603e-06	1171.2	228.85	6.2634e-06	1.9203e-06	289.74	81.244	63.574	18.573	2.7881e-06	25.942	0.00022227	0.00020109	5.2857e-05	1055.5	2.2682e-06	2.1446e-06	1154.8	227.39	2.2891e-06	2.1876e-06	287.56	81.095	63.484	18.809	2.1891e-06	26.195	15.232	-43.319	-11.158	-134.462	-45.324	5.285	-134.553	-127.409	9.988	7.908	-127.458	-120.765	-120.346	-112.949	3.963	-113.440	-8191	255	
28505.316	1	1	0	0	0.17792	0.13748	0.13159	0.41899	0.18953	0.10125	0.070345	0.051081	0.26073	0.089815	0.067632	0.11746	0.24385	0.22408	0.082657	0.17108	-2.0354	-2.3083	-2.6604	-2.5062	-2.6396	-2.5917	-2.4771	-2.6646	-2.4833	-2.3063	-2.6688	-2.275	-2.2938	-2.6958	-2.1958	-2.6625	-17.105	52.645	95.535	178.896	4.455	128.110	163.934	-54.200	193.435	-18.908	20.641	139.732	173.131	196.946	170.158	-109.565	0.00049542	0.0002271	7.6207e-05	1066.4	1.4761e-06	1.9265e-06	1167.6	228.79	8.3711e-06	4.2509e-06	287.5	80.238	62.984	18.529	5.1241e-06	25.686	0.00023646	0.00020847	5.6959e-05	1051.8	2.4191e-06	2.1379e-06	1152.6	227.41	2.2766e-06	2.1983e-06	287.89	80.991	63.428	18.802	2.2868e-06	26.222	7.859	-51.304	-35.138	-134.429	89.815	-16.313	-134.690	-127.388	-26.603	-21.180	-127.228	-120.922	-120.035	-112.828	11.102	-113.300	-8191	255	
28505.412	1	1	0	0	0.27879	0.054603	0.12923	0.23025	0.20718	0.27027	0.21856	0.3408	0.18707	0.25944	0.16563	0.17997	0.15265	0.20857	0.089931	0.10012	-2.1604	-2.2208	-2.7375	-2.6562	-2.2687	-2.6562	-2.4417	-2.5646	-2.5021	-2.2375	-2.7417	-2.3271	-2.3229	-2.8896	-2.1937	-2.3875	141.441	173.549	-64.556	153.682	22.112	-50.292	68.491	202.122	190.793	193.520	167.130	29.365	-131.726	212.099	-50.232	-43.155	0.00048499	0.00018305	9.2004e-05	1069.5	6.9125e-06	3.3758e-06	1168.1	229.01	4.6044e-06	3.7424e-06	288.74	80.607	63.317	18.772	2.083e-06	25.88	0.00023264	0.00020037	5.5657e-05	1054.3	2.4143e-06	2.146e-06	1155.7	227.37	2.2786e-06	2.2093e-06	287.8	80.985	63.299	18.851	2.2578e-06	26.307	7.421	-56.120	-47.630	-134.424	-10.108	2.312	-134.688	-127.060	-5.420	-27.071	-127.125	-120.437	-120.330	-112.661	-0.826	-113.302	-8191	255	
28505.508	1	1	0	0	0.1102	0.12244	0.19248	0.073156	0.22905	0.12533	0.019973	0.044849	0.067435	0.035878	0.19872	0.1786	0.09632	0.2222	0.13507	0.19489	-2.1292	-2.2354	-2.5521	-2.5229	-2.3208	-2.7708	-2.4208	-2.5292	-2.6083	-2.2458	-2.5979	-2.5979	-2.3396	-2.6729	-2.1042	-2.5708	16.197	95.016	120.605	-52.318	175.300	93.081	-17.352	-81.946	16.213	-70.845	-28.143	160.552	-135.811	145.139	-33.425	129.315	0.00045409	0.00020253	7.9704e-05	1066.4	3.1849e-06	3.895e-06	1167.2	227.31	4.9371e-06	2.0228e-06	290.74	80.699	63.132	18.644	3.8526e-06	25.878	0.00022581	0.00020419	5.4898e-05	1052.9	2.3523e-06	2.206e-06	1154.2	227.42	2.1565e-06	2.2981e-06	287.84	81.014	63.43	18.845	2.2342e-06	26.258	8.073	-70.620	-66.995	-134.630	23.843	-6.581	-134.377	-126.833	-15.619	6.075	-127.254	-120.824	-120.114	-112.729	10.330	-113.056	-8191	255	
28505.604	1	1	0	0	0.1661	0.24331	0.1053	0.090089	0.18215	0.10694	0.15953	0.082821	0.09732	0.063198	0.20629	0.34595	0.14297	0.037585	0.21091	0.29995	-2.3438	-2.2458	-2.4604	-2.6312	-2.1188	-2.5104	-2.4437	-2.4062	-2.5583	-2.4896	-2.6333	-2.7708	-2.2625	-2.6417	-2.275	-2.3167	181.014	-27.556	-117.867	-131.327	205.190	51.633	133.470	-63.017	-139.396	96.224	161.448	166.399	174.350	89.454	-95.587	157.100	0.00047699	9.0892e-05	0.00013728	1069.1	4.4534e-06	3.9217e-06	1169.2	228.22	6.9058e-06	3.3103e-06	289.97	80.824	63.618	18.599	3.5301e-06	25.814	0.00023198	0.00020687	5.2986e-05	1054.2	2.2884e-06	2.157e-06	1154.8	227.27	2.1902e-06	2.1528e-06	288.06	81.3	63.543	18.829	2.0768e-06	26.285	12.331	-50.454	-26.541	-134.427	-59.379	9.273	-134.726	-127.194	14.297	16.909	-127.409	-121.008	-120.228	-112.802	18.007	-113.485	-8191	255	
28505.699	1	1	0	0	0.15515	0.21501	0.090844	0.18906	0.077667	0.060098	0.14887	0.12288	0.061833	0.24161	0.092731	0.06155	0.21214	0.15024	0.17046	0.28201	-2.2458	-2.0458	-2.4583	-2.6771	-2.2	-2.7188	-2.6625	-2.2542	-2.6562	-2.2833	-2.3542	-2.4521	-2.1	-2.6354	-2.5271	-2.3792	124.072	2.873	87.518	-85.013	165.885	91.768	80.971	42.913	194.062	-74.010	-70.003	212.038	127.567	11.360	-109.530	-116.972	0.00046754	0.0001665	7.9859e-05	1066.5	4.0797e-06	4.5207e-06	1165.6	228.54	4.0901e-06	2.0095e-06	289.73	80.686	62.839	18.649	2.2093e-06	25.865	0.00022742	0.00018994	5.22e-05	1054.2	2.2651e-06	2.0696e-06	1155.4	227.6	2.12e-06	2.1447e-06	287.9	81.235	63.404	18.874	2.1399e-06	26.341	12.668	-36.939	-54.393	-134.533	6.577	-8.213	-134.563	-127.111	-23.183	23.563	-127.206	-120.680	-120.441	-112.863	-10.777	-113.554	-8191	255	
28505.797	1	1	0	0	0.26937	0.26452	0.088688	0.30244	0.15505	0.22643	0.25796	0.14542	0.053508	0.27022	0.20455	0.058743	0.15277	0.066241	0.10618	0.2028	-2.2771	-2.3063	-2.4104	-2.6979	-1.9417	-2.5979	-2.7542	-2.3812	-2.6625	-2.2542	-2.475	-2.7354	-2.2104	-2.4854	-2.4354	-2.4125	-10.846	-133.806	-8.484	-127.153	-33.237	163.362	136.240	-85.753	47.623	60.281	78.826	-112.925	-136.326	125.026	-51.123	181.672	0.00054105	0.00023453	7.9264e-05	1063.6	3.5022e-06	1.8946e-06	1166	227.35	5.9254e-06	2.2533e-06	286.33	80.977	63.035	18.64	4.7654e-06	26.037	0.00022697	0.00019093	5.3664e-05	1051.2	2.2737e-06	2.1073e-06	1155.3	226.78	2.2273e-06	2.0351e-06	287.08	81.117	63.47	18.896	1.9991e-06	26.324	7.583	-66.984	-48.777	-134.610	-28.464	28.868	-134.691	-127.018	-0.961	40.266	-127.319	-120.677	-120.117	-112.936	-11.167	-113.196	-8191	255	
28505.914	1	1	0	0	0.09821	0.27098	0.19061	0.1237	0.18584	0.18486	0.41319	0.040251	0.18198	0.23122	0.11212	0.076935	0.086406	0.19199	0.15642	0.12435	-2.3771	-2.3271	-2.3229	-2.7292	-2.2521	-2.6979	-2.8167	-2.5042	-2.6063	-2.4688	-2.4313	-2.6188	-2.4437	-2.2396	-2.5833	-2.125	-29.324	128.395	173.459	213.867	198.097	-69.901	167.454	110.152	171.373	51.051	-93.033	142.698	-124.145	-39.865	-16.530	192.073	0.00043883	0.00022471	0.00010256	1067.5	4.3749e-06	1.297e-06	1169.5	228.3	1.4469e-06	2.1075e-06	290.68	81.445	63.383	18.602	5.0217e-06	25.969	0.00021547	0.00019754	5.2945e-05	1052.3	2.2763e-06	1.9784e-06	1155.7	227.24	2.1159e-06	1.9801e-06	288.39	81.309	63.649	18.874	2.0296e-06	26.393	10.616	-66.457	-81.657	-134.402	-3.642	15.873	-134.569	-126.917	-35.785	-7.803	-127.309	-120.861	-120.385	-112.780	-16.870	-113.652	-8191	255	
#DATA ENDS
