BOXY.EXE: ISS Imagent and Oximeter Data Acquisition Program Version 0.80
Ascii Record File

#ACQ INFORMATION
2  Detector Channels 
16  External MUX Channels 
1  Auxiliary Channels 
5000  Waveform (CCF) Frequency (Hz)
1  Waveforms Skipped 
30  Waveforms Averaged 
1  Cycles Averaged 
16  Acquisitions per Waveform 
10.0806  Updata Rate (Hz) 

#FILE INFORMATION
TRUE -- External MUX Channel results are PARSED.
FALSE -- AC DC and Phase are NOT grouped.
TRUE -- Companion Program Settings File CREATED.
FALSE -- AC data not excluded
FALSE -- DC data not excluded
FALSE -- Phase data not excluded
FALSE -- Auxillary Chn. data not excluded
Tab delimiters

#CALIBRATION STATE
TRUE -- Waveform Calibration Values APPLIED.


#AUX CALIBRATION VALUES
Val Type	aux-1	

Term	1.0000e+00	
Factor	0.0000e+00	


#WF CALIBRATION VALUES
A = Detector Channel
Val Type	A-AC1	A-AC2	A-AC3	A-AC4	A-AC5	A-AC6	A-AC7	A-AC8	A-AC9	A-AC10	A-AC11	A-AC12	A-AC13	A-AC14	A-AC15	A-AC16	A-DC1	A-DC2	A-DC3	A-DC4	A-DC5	A-DC6	A-DC7	A-DC8	A-DC9	A-DC10	A-DC11	A-DC12	A-DC13	A-DC14	A-DC15	A-DC16	A-Ph1	A-Ph2	A-Ph3	A-Ph4	A-Ph5	A-Ph6	A-Ph7	A-Ph8	A-Ph9	A-Ph10	A-Ph11	A-Ph12	A-Ph13	A-Ph14	A-Ph15	A-Ph16	

Term	0.00000e+00	0.00000e+00	0.00000e+00	0.00000e+00	0.00000e+00	0.00000e+00	0.00000e+00	0.00000e+00	0.00000e+00	0.00000e+00	0.00000e+00	0.00000e+00	0.00000e+00	0.00000e+00	0.00000e+00	0.00000e+00	0.00000e+00	0.00000e+00	0.00000e+00	0.00000e+00	0.00000e+00	0.00000e+00	0.00000e+00	0.00000e+00	0.00000e+00	0.00000e+00	0.00000e+00	0.00000e+00	0.00000e+00	0.00000e+00	0.00000e+00	0.00000e+00	0.00000e+00	0.00000e+00	0.00000e+00	0.00000e+00	0.00000e+00	0.00000e+00	0.00000e+00	0.00000e+00	0.00000e+00	0.00000e+00	0.00000e+00	0.00000e+00	0.00000e+00	0.00000e+00	0.00000e+00	0.00000e+00	
Factor	1.00000e+00	1.00000e+00	1.00000e+00	1.00000e+00	1.00000e+00	1.00000e+00	1.00000e+00	1.00000e+00	1.00000e+00	1.00000e+00	1.00000e+00	1.00000e+00	1.00000e+00	1.00000e+00	1.00000e+00	1.00000e+00	1.00000e+00	1.00000e+00	1.00000e+00	1.00000e+00	1.00000e+00	1.00000e+00	1.00000e+00	1.00000e+00	1.00000e+00	1.00000e+00	1.00000e+00	1.00000e+00	1.00000e+00	1.00000e+00	1.00000e+00	1.00000e+00	X	X	X	X	X	X	X	X	X	X	X	X	X	X	X	X	

B = Detector Channel
Val Type	B-AC1	B-AC2	B-AC3	B-AC4	B-AC5	B-AC6	B-AC7	B-AC8	B-AC9	B-AC10	B-AC11	B-AC12	B-AC13	B-AC14	B-AC15	B-AC16	B-DC1	B-DC2	B-DC3	B-DC4	B-DC5	B-DC6	B-DC7	B-DC8	B-DC9	B-DC10	B-DC11	B-DC12	B-DC13	B-DC14	B-DC15	B-DC16	B-Ph1	B-Ph2	B-Ph3	B-Ph4	B-Ph5	B-Ph6	B-Ph7	B-Ph8	B-Ph9	B-Ph10	B-Ph11	B-Ph12	B-Ph13	B-Ph14	B-Ph15	B-Ph16	

Term	0.00000e+00	0.00000e+00	0.00000e+00	0.00000e+00	0.00000e+00	0.00000e+00	0.00000e+00	0.00000e+00	0.00000e+00	0.00000e+00	0.00000e+00	0.00000e+00	0.00000e+00	0.00000e+00	0.00000e+00	0.00000e+00	0.00000e+00	0.00000e+00	0.00000e+00	0.00000e+00	0.00000e+00	0.00000e+00	0.00000e+00	0.00000e+00	0.00000e+00	0.00000e+00	0.00000e+00	0.00000e+00	0.00000e+00	0.00000e+00	0.00000e+00	0.00000e+00	-1.95322e+02	-1.31664e+02	-1.35514e+02	-1.83507e+02	-9.14092e+01	-5.93382e+01	-1.57852e+02	-1.62015e+02	-9.36674e+01	-6.54123e+01	-1.76234e+02	-1.71211e+02	-1.81698e+02	-1.78091e+02	-8.68548e+01	-1.51000e+02	
Factor	4.07472e-05	1.94038e-04	5.01386e-05	4.44362e-01	1.74494e-06	1.67566e-06	1.66286e-01	6.31906e-02	2.08765e-06	1.66474e-06	2.13853e-01	2.89034e-02	2.88634e-02	9.13376e-03	1.93495e-06	1.32076e-02	3.19055e-06	3.47120e-06	9.67125e-07	2.29784e-01	3.78690e-08	3.80063e-08	8.23849e-02	3.32550e-02	3.75348e-08	3.80335e-08	1.05779e-01	1.48008e-02	1.52162e-02	4.84302e-03	3.76195e-08	6.77457e-03	X	X	X	X	X	X	X	X	X	X	X	X	X	X	X	X	



#DISTANCE SETTINGS
A = Detector Channel
A-1	A-2	A-3	A-4	A-5	A-6	A-7	A-8	A-9	A-10	A-11	A-12	A-13	A-14	A-15	A-16	

2.5000e+00	3.0000e+00	2.5000e+00	3.0000e+00	2.0000e+00	3.0000e+00	1.5000e+00	3.0000e+00	3.0000e+00	3.0000e+00	3.0000e+00	3.0000e+00	3.0000e+00	3.0000e+00	1.5000e+00	3.0000e+00	

B = Detector Channel
B-1	B-2	B-3	B-4	B-5	B-6	B-7	B-8	B-9	B-10	B-11	B-12	B-13	B-14	B-15	B-16	

1.0000e+01	1.0000e+01	1.0000e+01	1.4400e+00	1.0000e+01	1.0000e+01	1.5100e+00	1.9400e+00	1.0000e+01	1.0000e+01	1.9900e+00	2.4900e+00	2.4100e+00	2.9000e+00	1.0000e+01	2.9800e+00	




#DATA BEGINS
time	group	step	mark	flag	A-AC1	A-AC2	A-AC3	A-AC4	A-AC5	A-AC6	A-AC7	A-AC8	A-AC9	A-AC10	A-AC11	A-AC12	A-AC13	A-AC14	A-AC15	A-AC16	A-DC1	A-DC2	A-DC3	A-DC4	A-DC5	A-DC6	A-DC7	A-DC8	A-DC9	A-DC10	A-DC11	A-DC12	A-DC13	A-DC14	A-DC15	A-DC16	A-Ph1	A-Ph2	A-Ph3	A-Ph4	A-Ph5	A-Ph6	A-Ph7	A-Ph8	A-Ph9	A-Ph10	A-Ph11	A-Ph12	A-Ph13	A-Ph14	A-Ph15	A-Ph16	B-AC1	B-AC2	B-AC3	B-AC4	B-AC5	B-AC6	B-AC7	B-AC8	B-AC9	B-AC10	B-AC11	B-AC12	B-AC13	B-AC14	B-AC15	B-AC16	B-DC1	B-DC2	B-DC3	B-DC4	B-DC5	B-DC6	B-DC7	B-DC8	B-DC9	B-DC10	B-DC11	B-DC12	B-DC13	B-DC14	B-DC15	B-DC16	B-Ph1	B-Ph2	B-Ph3	B-Ph4	B-Ph5	B-Ph6	B-Ph7	B-Ph8	B-Ph9	B-Ph10	B-Ph11	B-Ph12	B-Ph13	B-Ph14	B-Ph15	B-Ph16	aux-1	digaux	

3294.166	1	1	0	768	0.10277	0.28434	0.14686	0.16504	0.10973	0.13085	0.13728	0.10816	0.14996	0.081054	0.10362	0.16268	0.19452	0.19906	0.11454	0.2616	-2.2042	-2.9896	-2.9104	-2.8125	-2.9896	-2.5687	-3.0167	-2.8271	-2.675	-3.0083	-2.9646	-2.7062	-2.9792	-2.6708	-2.8521	-3.0458	111.919	92.207	209.727	304.569	10.257	298.678	299.827	263.063	141.610	4.140	130.714	286.499	170.859	107.461	110.340	275.058	0.00054178	0.00038985	0.00021885	575.95	4.8704e-06	8.5959e-06	622.63	212.18	8.1047e-06	5.0034e-06	270.33	101.36	73.492	25.917	1.0781e-05	43.661	0.001394	0.0015254	0.00040819	705.94	1.7021e-05	1.6842e-05	703.22	241.25	1.679e-05	1.6573e-05	327.33	115.18	85.714	30.109	1.4981e-05	49.762	80.995	-4.075	61.145	-20.712	234.992	46.480	-21.351	-15.045	117.587	155.794	-17.026	-12.636	-11.137	-6.361	127.525	-8.293	-8191	255	
3294.261	1	1	0	0	0.3082	0.11304	0.080764	0.24452	0.33286	0.19864	0.11835	0.13179	0.26849	0.15943	0.19567	0.071924	0.21913	0.31341	0.14348	0.40479	-2.2812	-2.8479	-2.6208	-2.6125	-2.9292	-2.8208	-2.7042	-2.95	-2.6104	-2.575	-2.8958	-2.6937	-3.0458	-2.8854	-2.7458	-2.8688	41.319	84.802	60.876	63.593	78.810	110.761	62.048	10.598	154.384	323.094	9.367	251.868	-28.343	182.474	200.532	46.603	0.00046454	0.00028092	0.00027082	578.21	6.8659e-06	5.4399e-06	620.94	211.12	3.0838e-06	5.2724e-06	269.76	100.81	72.576	25.536	5.0852e-06	43.096	0.0014233	0.0014596	0.00039094	703.26	1.7139e-05	1.6339e-05	701.48	241.52	1.7236e-05	1.6495e-05	326.78	115.12	85.11	29.731	1.4892e-05	49.283	78.856	325.972	15.258	-20.366	93.268	157.504	-21.418	-14.895	124.773	53.931	-17.375	-12.709	-11.402	-6.374	82.270	-8.276	-8191	255	
3294.359	1	1	0	0	0.11248	0.10569	0.18065	0.13667	0.23766	0.40424	0.12428	0.19725	0.151	0.060203	0.19767	0.051715	0.10462	0.21187	0.064532	0.090769	-2.1271	-2.7687	-3.0938	-2.6813	-3.0396	-2.7417	-2.7854	-3.1208	-2.7646	-2.9833	-2.7979	-2.5083	-3.1021	-3.0375	-2.7854	-3.1875	4.711	260.776	308.650	-0.869	111.803	223.479	75.311	54.793	17.062	-5.650	323.846	201.126	127.575	158.953	152.298	214.787	0.00038076	0.00084387	0.00021368	573.01	1.5424e-06	7.3689e-06	613.7	209.76	1.012e-05	2.3545e-06	266.74	100.02	72.558	25.38	8.2936e-06	42.503	0.0014011	0.0014042	0.00037455	700.51	1.6385e-05	1.5489e-05	692.18	239.53	1.6187e-05	1.5612e-05	321.72	114.02	84.748	29.543	1.5685e-05	49.013	63.906	-3.201	69.904	-20.553	51.281	116.630	-21.376	-14.903	175.235	-16.295	-17.236	-12.397	-11.252	-6.384	111.473	-8.563	-8191	255	
3294.455	1	1	0	0	0.22967	0.094464	0.06195	0.19095	0.034847	0.08869	0.13742	0.097516	0.16666	0.12975	0.052371	0.18823	0.16099	0.22452	0.17388	0.36974	-2.2812	-2.7687	-2.9083	-2.7792	-2.8479	-2.675	-2.6229	-3.0812	-2.9146	-2.85	-3	-2.6708	-3.0042	-2.9771	-2.6333	-3.1437	-9.792	292.691	247.204	266.642	-27.186	121.851	297.929	84.636	61.108	22.233	178.123	167.711	113.058	261.931	269.404	-16.749	0.00029549	0.00010954	0.00022079	571.96	7.9996e-06	2.5907e-06	615.05	209.55	1.0009e-05	5.4077e-07	267.75	100.07	72.792	25.585	9.1061e-06	42.846	0.0014833	0.0014848	0.00040008	708.53	1.6542e-05	1.5895e-05	693.3	240.13	1.6003e-05	1.5412e-05	322.71	114.69	84.856	29.773	1.5787e-05	49.542	77.734	-17.202	49.477	-20.818	84.544	46.347	-21.336	-15.006	136.154	266.974	-17.136	-12.507	-11.241	-6.358	134.329	-8.458	-8191	255	
3294.549	1	1	0	0	0.19382	0.082916	0.22082	0.1337	0.13558	0.044934	0.21038	0.37916	0.1419	0.33433	0.1808	0.22942	0.18121	0.36694	0.12607	0.32445	-2.3438	-2.8375	-3.0708	-2.6354	-2.7042	-2.8646	-2.5729	-2.9958	-2.775	-2.5521	-2.9562	-2.85	-2.9521	-3.15	-2.8271	-3.0812	34.346	116.994	219.667	16.909	-26.276	257.790	213.428	288.915	16.670	51.280	88.114	205.113	-0.859	7.398	213.911	317.360	0.00027444	0.00016124	0.00017189	572.66	2.0651e-06	3.8046e-06	612.31	209.35	1.1777e-06	3.1844e-06	267.96	100.68	72.766	25.681	1.2379e-06	43.747	0.0014364	0.0014547	0.00041847	711.46	1.6654e-05	1.5767e-05	695.12	240.57	1.6414e-05	1.5864e-05	328.05	115.41	85.034	29.95	1.6791e-05	50.15	78.994	97.902	96.923	-21.054	295.738	-26.743	-21.412	-15.015	208.418	133.512	-17.026	-12.584	-11.173	-6.472	163.342	-8.105	-8191	255	
3294.645	1	1	0	0	0.13225	0.022877	0.057926	0.20729	0.055985	0.27656	0.090538	0.077575	0.17053	0.039306	0.061549	0.038771	0.17178	0.20949	0.041474	0.12356	-2.3375	-2.75	-2.8708	-2.5771	-2.5938	-2.8729	-2.7	-2.8688	-2.7396	-2.7354	-3.1688	-2.7208	-2.9104	-3.0396	-2.6604	-2.9562	146.725	319.041	38.670	265.756	-1.907	-28.898	245.358	275.508	162.043	127.319	325.410	300.595	-0.272	45.036	306.792	283.282	0.00052091	0.00034938	0.00016694	569.22	7.3021e-06	8.8847e-06	615.03	208.49	3.1755e-06	1.4126e-06	264.46	100.36	72.457	25.521	2.8642e-06	42.917	0.0013761	0.0013825	0.00041202	702.64	1.5063e-05	1.4416e-05	695.59	238.84	1.4326e-05	1.406e-05	322.18	113.99	83.866	29.485	1.5715e-05	49.026	58.318	80.214	113.571	-20.938	138.581	90.944	-21.229	-14.930	95.289	4.425	-17.216	-12.772	-11.109	-6.357	233.040	-8.341	-8191	255	
3294.766	1	1	0	0	0.35191	0.15426	0.069379	0.15788	0.17405	0.12362	0.22461	0.077049	0.20043	0.16137	0.064412	0.21933	0.16227	0.28389	0.066757	0.13129	-2.5312	-2.5625	-2.7375	-2.6625	-2.6458	-3.0563	-2.7417	-3.0146	-2.7812	-2.4667	-2.9792	-2.725	-2.7188	-3.0667	-2.6375	-2.8688	-4.749	231.605	109.751	79.793	282.302	205.101	270.385	5.041	291.754	29.726	50.460	-31.168	78.596	317.915	72.837	212.373	0.00033221	0.00074747	0.00014768	564.75	1.5113e-06	5.7243e-06	610.5	208.23	2.0376e-06	4.3739e-06	263.67	99.03	72.473	25.584	6.7399e-06	42.738	0.001273	0.0013485	0.00041319	695.12	1.4656e-05	1.4809e-05	691.04	237.6	1.4642e-05	1.5353e-05	323.71	113.3	84.274	29.73	1.7144e-05	48.976	101.471	92.031	-3.198	-20.984	128.081	239.610	-21.316	-14.967	84.987	186.438	-17.229	-12.599	-11.389	-6.450	96.843	-8.491	-8191	255	
3294.862	1	1	0	0	0.21936	0.075487	0.21771	0.35595	0.11076	0.17988	0.087258	0.014045	0.11604	0.2697	0.19877	0.29348	0.047266	0.17988	0.012896	0.27222	-2.4938	-2.6146	-2.7792	-2.8937	-2.575	-2.9208	-2.6792	-3.0667	-3.0271	-2.6604	-2.9125	-2.7958	-2.5479	-3.0125	-2.4979	-2.7625	173.087	273.751	-30.148	73.190	230.757	-24.305	269.481	324.751	158.812	-19.553	240.987	-24.468	42.061	10.609	277.023	291.142	0.0004314	0.0006317	0.00012904	568.27	9.3042e-06	5.6073e-06	606.94	208.45	1.2233e-05	7.5811e-06	264.6	99.541	73.183	25.776	7.1685e-06	42.925	0.0013406	0.0014855	0.00043455	698.58	1.5222e-05	1.6361e-05	691.12	238.84	1.5907e-05	1.7648e-05	328.23	114.2	85.397	30.336	1.8351e-05	49.514	100.041	292.913	89.507	-21.052	80.286	172.750	-21.411	-15.102	39.644	126.385	-16.771	-12.418	-11.269	-6.172	100.977	-8.125	-8191	255	
3294.958	1	1	0	0	0.3368	0.17476	0.10843	0.057441	0.021189	0.26526	0.013938	0.21772	0.20451	0.06053	0.4139	0.17556	0.14782	0.12082	0.041939	0.029727	-2.3604	-2.8667	-2.8125	-2.85	-2.5729	-3.0812	-2.5604	-2.8021	-3	-2.7938	-2.8229	-2.7667	-2.5896	-3.0167	-2.7812	-2.7729	308.931	9.556	231.352	34.123	127.498	92.537	110.430	289.923	2.341	306.705	-4.848	271.729	181.707	309.917	-1.688	235.973	0.00041001	0.00026278	0.00014313	570.76	3.2468e-06	3.7012e-06	613.51	209.23	3.5867e-06	3.829e-06	268.56	101.1	73.558	26.129	1.0137e-05	43.919	0.001373	0.0015507	0.0004195	693.74	1.467e-05	1.5592e-05	689.67	237.78	1.3524e-05	1.4906e-05	319.87	114.06	84.648	30.119	1.3828e-05	49.738	84.501	63.846	314.478	-20.602	69.194	147.011	-21.357	-14.991	194.846	86.651	-17.168	-12.527	-11.348	-6.497	2.342	-8.221	-8191	255	
3295.055	1	1	0	0	0.1588	0.10472	0.20847	0.19591	0.27264	0.085091	0.18671	0.19022	0.23174	0.084691	0.17959	0.18242	0.11402	0.10316	0.11831	0.15005	-2.5042	-2.6437	-2.8042	-3.0563	-2.5333	-2.9292	-2.7313	-2.8063	-2.9688	-2.4021	-2.7	-2.8146	-2.4083	-3.1583	-2.8646	-2.6958	59.201	78.921	167.648	76.036	-28.316	257.457	237.505	225.268	284.825	223.034	86.510	159.724	172.842	-17.811	147.878	239.340	0.00059749	0.00079009	0.00016871	572.32	3.8291e-06	5.0726e-06	613.78	209.3	1.0159e-05	5.4293e-06	268.82	101.55	73.416	26.002	4.618e-06	44.085	0.00118	0.0013548	0.00035627	682.9	1.3671e-05	1.4703e-05	689.49	236.7	1.3481e-05	1.4314e-05	318.77	114.39	84.504	29.932	1.2885e-05	49.84	66.671	34.366	45.925	-20.748	109.066	61.070	-21.483	-15.114	181.990	144.806	-16.844	-12.623	-11.371	-6.369	98.218	-8.413	-8191	255	
3295.151	1	1	0	0	0.12789	0.16177	0.15549	0.2137	0.25019	0.12028	0.19261	0.11404	0.21283	0.28086	0.2094	0.12929	0.16102	0.18437	0.20497	0.17386	-2.6417	-2.4854	-2.6646	-3.0042	-2.6479	-2.9792	-2.9562	-2.6604	-2.8167	-2.7208	-2.75	-3.0833	-2.575	-3.1625	-2.8937	-2.5875	287.588	-3.611	5.703	138.710	137.643	9.161	165.866	12.644	285.028	225.213	17.704	181.007	308.985	245.764	38.089	83.181	0.00048938	0.00038305	0.0001853	564.52	7.2497e-06	3.6966e-06	610.33	208.79	9.0248e-06	7.5125e-06	267.2	99.997	72.396	25.429	2.5301e-06	42.9	0.0011447	0.0012235	0.00031866	672.47	1.2841e-05	1.2668e-05	682.35	234.31	1.2197e-05	1.2065e-05	311.11	112.12	82.844	29.046	1.1162e-05	48.238	86.500	-8.273	58.066	-20.766	85.113	110.382	-21.220	-15.192	103.604	107.337	-17.042	-12.730	-11.310	-6.528	90.727	-8.320	-8191	255	
3295.247	1	1	0	0	0.18601	0.036055	0.12004	0.17592	0.10804	0.12763	0.19065	0.071335	0.25507	0.023683	0.25424	0.059825	0.24205	0.21224	0.10067	0.14677	-2.3667	-2.575	-2.6729	-3.0375	-2.7167	-2.875	-2.9917	-3.0042	-2.9958	-2.7083	-2.7375	-2.9896	-2.6125	-3.0396	-3.0521	-2.9396	185.611	-6.908	-19.396	97.320	-1.729	232.085	1.110	20.232	41.101	124.557	217.743	259.291	127.435	225.005	177.822	-32.805	0.00050536	0.00071398	0.00011801	563.73	4.6365e-06	8.5498e-06	606.68	207.19	3.5202e-07	9.4803e-06	263.77	99.282	72.509	25.527	2.762e-06	42.537	0.0010751	0.0010988	0.00029613	667.6	1.3042e-05	1.2679e-05	677.48	234.11	1.3644e-05	1.3288e-05	312.47	112.08	83.749	29.391	1.286e-05	48.508	75.278	57.169	49.295	-20.530	23.915	137.410	-21.278	-15.043	248.907	108.525	-17.026	-12.462	-11.539	-6.307	53.252	-8.295	-8191	255	
3295.366	1	1	0	0	0.08652	0.052132	0.23544	0.22271	0.36674	0.074066	0.14343	0.13567	0.1896	0.1663	0.27437	0.15152	0.28492	0.29047	0.15088	0.23439	-2.4854	-2.6375	-2.4833	-2.8667	-2.725	-2.8	-2.8333	-2.8396	-2.9938	-2.875	-2.7458	-3.0687	-2.6625	-2.5083	-2.875	-2.6917	230.314	50.613	283.258	279.609	210.149	157.355	256.619	-32.520	81.325	-5.799	36.557	269.741	19.873	267.802	175.906	234.446	0.00026288	0.00032846	0.00018456	567.09	7.8073e-06	8.6127e-06	605.44	206.95	1.4907e-06	6.1958e-06	262.44	98.824	72.654	25.663	3.3588e-06	42.798	0.001272	0.0012967	0.00034846	685.37	1.5607e-05	1.5007e-05	682.08	236.92	1.6426e-05	1.5855e-05	318.43	113.58	85.172	30.026	1.6178e-05	49.586	75.368	18.312	63.305	-20.572	93.873	166.477	-21.463	-14.929	113.663	-5.662	-17.243	-12.497	-11.595	-6.439	20.417	-8.550	-8191	255	
3295.462	1	1	0	0	0.32653	0.095227	0.039223	0.096746	0.28585	0.18525	0.21333	0.24973	0.092287	0.19427	0.071328	0.31595	0.11719	0.18916	0.30861	0.13	-2.4667	-2.9021	-2.7125	-2.7604	-2.4521	-2.7125	-3.1625	-2.6729	-3.0208	-2.8833	-2.5875	-3.05	-2.5417	-2.5771	-2.7938	-2.55	233.053	286.267	197.434	172.821	322.713	190.507	248.218	278.125	75.580	285.989	253.898	277.917	184.592	243.695	251.367	259.740	0.00042329	0.00036906	0.00024075	567.45	5.0411e-06	3.6551e-06	605.68	205.71	3.4624e-06	6.3474e-06	260.18	98.983	72.524	25.543	8.5267e-06	42.984	0.0015692	0.0016173	0.00044344	714.89	1.9067e-05	1.8224e-05	688.23	239.37	1.9622e-05	1.9144e-05	328.41	115.02	86.269	30.268	2.0365e-05	50.096	55.171	51.415	62.111	-20.528	10.901	179.149	-21.489	-15.173	30.530	57.461	-17.303	-12.660	-11.350	-6.348	144.888	-8.380	-8191	255	
3295.558	1	1	0	0	0.18095	0.011111	0.0398	0.10444	0.050034	0.17912	0.26848	0.251	0.24746	0.24168	0.22911	0.088903	0.34066	0.08834	0.30994	0.17678	-2.4	-2.9188	-2.6188	-3.075	-2.7396	-2.6792	-3.0521	-2.7188	-2.7896	-2.6562	-2.3875	-2.9833	-2.7208	-2.7875	-2.9896	-2.7542	16.192	4.822	172.242	254.003	264.973	282.206	194.759	-14.535	142.792	239.515	162.626	301.060	246.979	323.951	325.359	206.640	0.00031275	0.00079724	4.6664e-05	566.06	3.5914e-06	2.1036e-06	605.85	204.73	3.8284e-06	7.5655e-06	258.46	97.662	71.502	25.08	6.4081e-06	41.966	0.0017884	0.0018722	0.00053577	736.04	2.198e-05	2.0973e-05	695.84	240.47	2.1036e-05	2.008e-05	330.64	113.92	85.004	29.671	1.983e-05	49.063	102.246	86.562	210.011	-20.786	238.534	21.471	-21.177	-15.144	102.112	122.782	-16.600	-12.590	-11.561	-6.270	177.725	-8.072	-8191	255	
3295.654	1	1	0	0	0.098708	0.043688	0.075231	0.2361	0.11943	0.097585	0.31593	0.14506	0.17542	0.17524	0.18127	0.097319	0.12	0.21151	0.19577	0.13424	-2.575	-2.7354	-2.4146	-2.9021	-2.7542	-2.9208	-3.2771	-2.9292	-2.7542	-3.1396	-2.6583	-3.1813	-2.8542	-2.6354	-2.8937	-2.6021	-31.896	56.906	58.446	86.454	128.866	148.313	253.445	220.988	66.127	81.182	202.403	276.407	-25.115	217.405	319.309	326.483	0.00033339	0.00051439	0.00020775	560.96	6.508e-06	2.0203e-06	597.95	203.19	5.3516e-06	2.5389e-06	257.57	97.415	71.455	25.16	9.4556e-06	42.157	0.0016286	0.0016164	0.000477	702.75	1.7181e-05	1.6186e-05	679.86	233.24	1.5334e-05	1.4661e-05	315.05	111.13	82.484	28.979	1.5323e-05	48.065	61.473	249.481	93.578	-20.569	204.192	128.356	-21.358	-15.074	208.864	-23.049	-17.115	-12.542	-11.693	-6.312	109.954	-8.431	-8191	255	
3295.726	1	1	0	0	0.037898	0.21932	0.0072569	0.29542	0.095598	0.01357	0.052628	0.24366	0.052358	0.087886	0.17408	0.1182	0.21831	0.17262	0.09424	0.02762	-2.0708	-2.8312	-2.4729	-2.7562	-2.6479	-2.7125	-3.0625	-2.8125	-2.8021	-2.8063	-2.7438	-2.8979	-2.8792	-2.5083	-2.85	-2.5271	38.817	13.307	305.890	-8.025	312.568	297.937	-22.539	253.489	129.571	30.503	289.955	184.873	-6.972	121.875	190.398	117.911	0.00039457	0.00032931	0.00014092	554.73	5.7428e-06	6.5445e-06	599.02	204.15	2.1233e-06	5.4337e-06	260.32	98.178	72.196	25.302	6.8202e-06	42.492	0.001221	0.0012752	0.00038764	677.48	1.3665e-05	1.361e-05	674.68	231.84	1.2543e-05	1.2745e-05	312.65	111.44	82.579	29.154	1.4161e-05	48.377	62.589	147.695	118.493	-20.903	128.869	176.362	-21.280	-15.111	156.864	79.327	-17.309	-12.768	-11.390	-5.891	103.804	-8.447	-8191	255	
3295.846	1	1	0	0	0.031227	0.17723	0.13527	0.17049	0.095598	0.21447	0.2703	0.086765	0.15221	0.09816	0.26176	0.1306	0.16652	0.2423	0.088521	0.043772	-2.2604	-2.8812	-2.5208	-2.9313	-2.9979	-2.5667	-3.2417	-2.7708	-2.4708	-2.7896	-2.5375	-2.8937	-3.0771	-2.6458	-3.0333	-2.8833	242.600	58.535	25.656	67.537	21.615	10.298	274.687	142.751	59.763	19.408	94.433	212.166	189.294	-18.766	85.382	-1.828	0.00041195	0.00060283	0.00018627	562.57	6.994e-06	4.793e-06	603.88	205.1	7.5417e-06	7.3789e-06	262.9	99.114	72.094	25.519	6.71e-06	42.732	0.001146	0.0012664	0.00037451	677.22	1.3402e-05	1.4254e-05	678.86	233.31	1.356e-05	1.4696e-05	317.24	112.45	83.125	29.397	1.4726e-05	48.624	77.822	-11.153	-8.186	-21.202	98.516	92.518	-21.389	-14.916	58.212	113.670	-17.052	-12.449	-11.217	-6.467	105.861	-8.565	-8191	255	
3295.943	1	1	0	0	0.23639	0.069555	0.12363	0.3244	0.035563	0.18779	0.22285	0.074929	0.049327	0.16318	0.059634	0.21415	0.21894	0.1846	0.10002	0.37484	-2.1333	-2.8312	-2.5146	-2.5938	-2.9146	-2.6417	-3.0354	-3.025	-2.7292	-3.0771	-2.775	-2.8396	-2.9	-2.5938	-2.8042	-3.0771	314.081	-10.937	145.632	196.771	221.531	-15.925	306.394	106.973	158.004	57.533	203.788	94.244	195.895	276.009	73.831	302.721	0.00042184	0.00013603	7.4484e-05	560.5	8.8829e-06	6.741e-06	603.36	206.1	2.1579e-06	8.0279e-06	263.64	98.56	71.433	25.151	7.8998e-06	41.971	0.0011681	0.0013426	0.00037753	676.54	1.3722e-05	1.5309e-05	681.15	233.64	1.4153e-05	1.5767e-05	318.53	112.18	82.801	29.28	1.5792e-05	48.21	85.611	36.360	10.128	-20.554	92.080	169.656	-21.313	-14.979	94.554	154.588	-17.314	-12.595	-11.454	-6.479	16.085	-8.255	-8191	255	
3296.039	1	1	0	0	0.16678	0.055958	0.26436	0.15636	0.065936	0.15197	0.19268	0.25872	0.35041	0.092049	0.32448	0.24017	0.16402	0.12809	0.15498	0.16567	-2.1396	-3.1188	-2.5708	-2.8937	-2.9562	-2.7646	-2.8937	-3.0104	-2.8625	-3.1521	-2.8625	-2.85	-2.9542	-2.7333	-2.8333	-3.1792	71.916	1.930	36.115	124.448	208.321	110.200	218.127	-13.581	119.665	46.062	67.921	323.012	276.911	-3.687	126.084	169.140	0.0003547	0.0008404	0.00030347	555.79	2.4306e-06	3.6395e-06	596.54	203.93	4.9961e-06	2.9297e-06	259.75	97.663	71.27	24.978	3.6194e-06	41.88	0.001343	0.0015553	0.00041891	682.33	1.6081e-05	1.7481e-05	676.49	232.93	1.5882e-05	1.7032e-05	316.74	111.34	82.947	29.151	1.5236e-05	47.823	71.929	7.191	58.083	-20.800	128.734	72.758	-21.275	-15.224	68.385	144.184	-17.064	-12.553	-11.333	-6.364	119.988	-8.514	-8191	255	
3296.159	1	1	0	0	0.21186	0.18388	0.13415	0.26027	0.095352	0.14934	0.18515	0.17616	0.073669	0.16114	0.080822	0.41974	0.12602	0.1429	0.12647	0.10837	-2.3417	-3.1292	-2.7667	-2.7167	-2.9271	-2.7771	-2.8958	-2.9375	-2.7188	-2.9396	-2.7854	-2.8146	-3.0542	-2.6854	-2.7271	-2.9896	155.016	204.094	160.835	5.065	41.181	311.444	217.845	-16.208	216.363	168.950	90.575	36.203	123.579	240.093	157.863	38.562	0.00046827	0.00086104	6.6729e-05	557.41	2.8336e-06	3.3262e-06	598.31	204.91	8.6488e-06	2.8755e-06	261.47	98.542	71.465	25.266	2.7115e-06	42.365	0.0013522	0.0014923	0.0003934	679.59	1.6093e-05	1.6386e-05	676.08	232.65	1.5783e-05	1.6087e-05	316.39	111.88	83.489	29.331	1.5021e-05	48.456	77.153	48.502	8.970	-20.836	99.660	141.765	-21.232	-14.849	119.978	14.717	-17.059	-12.564	-11.622	-6.539	141.994	-8.168	-8191	255	
3296.254	1	1	0	0	0.17836	0.18369	0.1528	0.28165	0.033378	0.29652	0.25328	0.26131	0.039636	0.04965	0.22101	0.063503	0.13456	0.060661	0.014306	0.096209	-2.1437	-2.8563	-2.825	-2.6125	-2.9813	-2.5812	-2.6917	-2.9479	-2.6854	-2.725	-2.7979	-2.5979	-2.9208	-2.85	-2.8375	-3.1396	41.125	200.238	7.089	35.129	317.409	-28.167	232.329	263.025	-4.818	114.176	118.631	79.218	251.497	153.876	18.036	198.613	0.0003438	0.00029117	5.5758e-05	559.97	6.6648e-06	7.2735e-06	601.39	204.67	6.8889e-06	2.4232e-06	263.77	98.964	71.493	25.241	2.3043e-06	42.456	0.0014156	0.0014696	0.0003906	681.17	1.6451e-05	1.6145e-05	679.32	234.27	1.7001e-05	1.6524e-05	319.95	113.06	84.047	29.359	1.5697e-05	48.82	72.378	33.831	69.312	-20.246	54.067	59.794	-21.330	-15.117	213.497	191.034	-16.899	-12.314	-11.260	-6.276	-5.233	-8.100	-8191	255	
3296.327	1	1	0	0	0.32614	0.1508	0.038259	0.13356	0.1202	0.24759	0.089514	0.10436	0.21506	0.22616	0.026621	0.14285	0.068414	0.27524	0.070298	0.2851	-2.3312	-3.1146	-2.9521	-2.7396	-2.9083	-2.6646	-2.7812	-2.9125	-2.8312	-3.0812	-3.0167	-2.9354	-3.0792	-2.9021	-2.7625	-2.8	235.715	145.201	144.046	128.875	301.294	38.696	255.116	208.930	316.960	173.353	323.991	-20.068	-20.369	172.930	132.308	254.311	0.00045241	0.00036195	0.00012039	556.55	3.7982e-06	2.1237e-06	602.08	204.65	5.7125e-06	8.5083e-06	262.88	99.292	70.717	24.957	7.1297e-06	42.393	0.0014885	0.001486	0.00039641	688.59	1.7271e-05	1.6477e-05	682.28	235.17	1.7551e-05	1.6798e-05	320.7	113.77	83.571	29.145	1.5958e-05	48.841	76.695	47.147	93.615	-20.501	45.089	305.978	-21.279	-15.088	73.764	151.075	-17.011	-12.315	-11.116	-6.311	71.125	-8.548	-8191	255	
3296.446	1	1	0	0	0.063847	0.16043	0.069337	0.17691	0.19039	0.16048	0.14419	0.3341	0.17812	0.17465	0.025275	0.071995	0.09884	0.17917	0.20676	0.19598	-2.2354	-2.6083	-2.7979	-2.2313	-2.7979	-2.8312	-2.5187	-2.9062	-2.6813	-2.6583	-3.0812	-2.7229	-2.8167	-3.0229	-2.6833	-3.05	86.446	309.402	215.917	81.420	142.557	273.866	247.788	-5.327	221.429	305.732	83.234	39.988	284.631	248.041	150.733	169.210	0.0003648	0.00025202	0.00019881	552.65	1.9394e-06	3.245e-06	595.37	203.68	4.9593e-06	6.2066e-06	260.52	97.517	70.035	24.559	1.4243e-06	41.688	0.0015145	0.0015177	0.00041301	697.81	1.81e-05	1.7484e-05	678.48	235.45	1.8795e-05	1.8125e-05	323.22	112.94	83.457	29.025	1.8376e-05	48.505	88.087	56.832	74.018	-20.854	149.038	198.119	-21.395	-14.922	45.814	102.531	-16.911	-12.521	-11.236	-6.220	63.140	-8.210	-8191	255	
3296.542	1	1	0	0	0.078542	0.26055	0.19042	0.04505	0.095561	0.25122	0.1226	0.23103	0.348	0.095343	0.16525	0.058843	0.20171	0.1182	0.16142	0.16279	-2.3479	-2.5729	-2.6312	-2.5771	-2.6604	-2.7458	-2.8292	-3.1125	-2.8104	-2.7292	-3.0167	-2.8667	-2.8083	-2.95	-2.4021	-2.9458	-26.158	28.996	188.182	39.044	297.981	133.626	110.205	310.632	184.435	276.560	0.034	291.589	277.038	81.924	231.228	250.868	0.00030294	0.00062065	0.00014419	555.02	5.0127e-06	1.239e-06	596.6	203.39	6.2635e-06	9.0512e-06	259.24	97.204	70.157	24.663	1.7903e-06	41.764	0.0016646	0.0017087	0.00048143	715.13	2.0388e-05	1.9927e-05	687.82	238.85	2.2084e-05	2.1841e-05	336.31	114.75	85.105	29.715	2.4083e-05	49.737	89.446	21.116	298.956	-20.565	84.074	79.394	-21.277	-15.025	313.300	13.313	-16.837	-12.379	-11.282	-6.182	123.348	-8.395	-8191	255	
3296.638	1	1	0	0	0.076293	0.098685	0.10945	0.2968	0.04657	0.13505	0.11337	0.26011	0.083031	0.085813	0.091305	0.32612	0.028409	0.17393	0.16904	0.25939	-2.2521	-2.5354	-2.8917	-2.4667	-2.5938	-2.7771	-2.4708	-2.9188	-2.6021	-2.7333	-2.9146	-2.7146	-2.7604	-2.7938	-2.4958	-2.8688	3.520	-23.497	22.997	195.116	296.971	305.537	92.438	252.767	42.013	303.783	167.554	21.442	298.540	319.814	8.044	198.353	0.000317	0.0004583	0.00029156	557.37	9.4522e-06	2.9258e-06	596.42	202.11	3.9497e-06	7.0577e-06	259.61	97.291	70.211	24.815	7.8248e-06	41.756	0.0021097	0.002193	0.00066073	752.05	2.6198e-05	2.5556e-05	703.69	243.42	2.6917e-05	2.6245e-05	352	116.49	86.538	30.179	2.8381e-05	50.267	87.955	7.151	80.443	-20.461	8.352	129.865	-21.666	-15.110	56.994	137.675	-16.843	-12.491	-10.948	-6.186	186.386	-8.029	-8191	255	
3296.759	1	1	0	0	0.10127	0.20683	0.048652	0.089707	0.10554	0.28606	0.14603	0.161	0.055508	0.19483	0.084232	0.21646	0.12986	0.30688	0.061084	0.13952	-2.45	-2.5375	-2.9542	-2.7521	-2.6771	-3.0062	-2.7771	-3.0521	-2.8125	-2.6979	-2.8521	-2.8	-2.8208	-3.0792	-2.4958	-2.8729	93.242	25.339	113.058	23.414	-12.865	185.588	254.260	268.839	20.392	92.070	40.853	-19.042	81.827	252.732	233.380	27.085	0.00040648	0.00057419	0.00011078	556.61	5.5793e-06	1.5322e-06	598.72	201.46	6.1362e-06	1.0796e-05	260.37	97.285	69.647	24.375	9.8454e-06	41.78	0.002274	0.0023787	0.00072373	756.23	2.6371e-05	2.6081e-05	706.24	241.62	2.5832e-05	2.5996e-05	351.76	115.69	85.17	29.695	2.6677e-05	49.506	73.604	192.951	65.265	-20.113	147.752	180.872	-21.257	-14.805	110.776	127.456	-17.026	-12.473	-11.118	-5.927	128.599	-8.190	-8191	255	
3296.855	1	1	0	0	0.22496	0.16683	0.14037	0.26116	0.17794	0.14724	0.24527	0.25267	0.0394	0.19879	0.11722	0.17	0.22	0.20513	0.11743	0.25381	-2.4437	-2.5417	-2.9313	-2.7438	-2.6479	-3.0104	-2.7021	-2.9917	-3.025	-2.7958	-3.1729	-2.9896	-2.8104	-3.1437	-2.6771	-2.8708	56.238	309.050	300.605	36.074	91.113	133.819	82.450	237.490	49.118	132.288	258.008	-24.752	221.241	183.307	47.514	279.706	0.00036466	0.00020368	6.1911e-05	550.69	1.4033e-06	3.684e-06	594.87	201.05	1.5661e-05	5.5932e-06	259.85	96.522	69.075	24.026	3.4073e-06	41.005	0.0020474	0.002245	0.00065564	730.81	2.3353e-05	2.4377e-05	694.94	237.38	2.3106e-05	2.5014e-05	343.13	113.4	83.622	29.232	2.4898e-05	48.492	90.803	113.773	324.973	-20.695	-17.236	117.882	-21.465	-15.189	15.954	142.216	-16.895	-12.759	-11.214	-5.886	177.545	-8.354	-8191	255	
3296.951	1	1	0	0	0.054877	0.32936	0.10799	0.15065	0.22325	0.21677	0.10632	0.48994	0.060385	0.27023	0.17497	0.1431	0.10068	0.31395	0.27156	0.29965	-2.6188	-2.6625	-2.8812	-2.9938	-2.7896	-3.0208	-2.75	-2.7708	-2.9542	-2.4813	-2.9271	-2.7667	-2.5062	-2.9062	-2.5646	-2.9562	10.905	7.527	173.085	175.912	-27.678	75.127	267.590	244.948	309.504	72.292	247.104	318.955	68.708	301.542	188.568	-6.479	0.0004724	0.0010315	0.00021929	553.08	5.2515e-06	3.19e-06	591.62	201.21	6.5189e-06	9.1418e-06	258.15	96.423	69.887	24.482	7.4942e-06	41.335	0.0019223	0.0022133	0.0006202	721.44	2.2202e-05	2.4356e-05	690.09	236.69	2.23e-05	2.4727e-05	338.85	113.32	84.271	29.742	2.4677e-05	48.924	82.086	50.524	89.847	-20.699	218.512	38.042	-20.971	-14.947	244.638	162.714	-16.677	-12.443	-11.304	-5.965	192.212	-7.985	-8191	255	
3297.023	1	1	0	0	0.3185	0.12915	0.2608	0.11207	0.31055	0.072168	0.13731	0.31738	0.1031	0.289	0.095466	0.32939	0.33206	0.17881	0.2088	0.15495	-2.4979	-2.6854	-3.1646	-2.9604	-2.7583	-2.8563	-2.9688	-2.45	-2.8	-2.7313	-2.8563	-2.8667	-2.6958	-3.0604	-2.8542	-2.5917	32.704	28.326	43.770	-1.263	2.273	148.707	95.458	81.675	-4.965	48.446	-7.178	199.389	317.275	290.740	42.323	-3.890	0.00043218	0.00077424	0.00022493	555.39	6.3955e-06	2.3824e-06	596.12	202.32	9.7135e-06	1.3659e-06	260.8	96.811	69.527	24.489	1.3109e-05	41.482	0.0020405	0.0023865	0.00063816	731.25	2.4272e-05	2.6413e-05	695.06	238.97	2.4476e-05	2.6685e-05	343.06	114.31	85.354	30.011	2.5681e-05	49.376	90.638	54.917	38.080	-21.035	95.958	121.287	-21.251	-14.798	139.062	116.625	-16.809	-12.493	-11.104	-6.196	0.306	-8.130	-8191	255	
3297.144	1	1	0	0	0.10432	0.21578	0.096882	0.21044	0.18237	0.26936	0.16883	0.1697	0.24492	0.1726	0.080916	0.24829	0.081976	0.19873	0.15244	0.15557	-2.3792	-2.5	-2.8417	-2.9521	-2.4979	-2.9167	-2.85	-2.7396	-3.1417	-2.9417	-2.7708	-3.0833	-2.5812	-3.0625	-3.0271	-2.8312	-18.553	32.741	176.712	232.031	291.211	312.432	287.290	61.348	81.944	311.376	198.465	312.264	175.975	232.809	309.646	309.908	0.00064512	0.00054926	0.00014692	556.53	2.2705e-06	5.2155e-06	596.13	202.3	1.4221e-05	3.9422e-06	260.41	96.908	69.841	24.27	1.2897e-05	41.478	0.0022852	0.0025943	0.00069297	742.93	2.7833e-05	2.8553e-05	699.86	240.04	2.7556e-05	2.8429e-05	347.81	114.97	86.151	29.847	2.5321e-05	49.237	75.114	-2.297	118.240	-20.465	104.047	177.030	-21.255	-14.812	141.715	244.832	-17.021	-12.481	-11.272	-6.181	124.832	-8.277	-8191	255	
3297.240	1	1	0	0	0.1145	0.18859	0.30029	0.17731	0.011762	0.047928	0.1617	0.44674	0.1364	0.20641	0.10798	0.0809	0.30216	0.21696	0.085089	0.14993	-2.6688	-2.6542	-2.8271	-3.0896	-2.675	-3.0729	-2.9042	-2.7687	-2.9813	-2.6333	-2.6646	-2.9437	-2.5292	-2.7208	-2.7021	-2.6458	115.177	263.559	22.421	277.240	229.701	105.741	77.782	-29.866	112.920	137.059	216.299	40.700	315.138	216.184	49.679	226.340	0.00055287	0.00072974	6.4443e-05	549.6	8.0538e-06	8.3137e-06	591.35	200.68	6.7023e-06	6.7005e-06	256.17	96.254	68.706	24.014	7.2163e-06	40.749	0.0022375	0.0023368	0.00061263	723.42	2.5434e-05	2.4676e-05	685.73	236.27	2.5694e-05	2.5261e-05	336.66	113.09	84.788	29.248	2.3875e-05	48.317	85.567	-10.924	187.337	-20.991	59.307	53.190	-21.301	-15.042	142.209	58.340	-16.712	-12.535	-11.611	-6.308	70.992	-8.275	-8191	255	
3297.334	1	1	0	0	0.17183	0.058933	0.21443	0.24824	0.22965	0.075371	0.32039	0.091379	0.19846	0.16343	0.16663	0.40193	0.054051	0.11566	0.07793	0.098883	-2.5583	-2.7167	-2.5417	-2.7625	-2.6583	-2.9021	-3.0729	-2.7021	-3.0396	-2.9229	-2.7917	-3.1521	-2.6021	-2.8333	-3.0917	-2.6813	261.683	79.717	43.489	287.329	217.356	141.654	293.349	13.919	238.658	102.397	154.509	287.113	-29.811	267.915	235.120	126.829	0.00038722	0.00085164	9.8741e-05	549.19	1.0292e-05	5.5562e-06	588.4	199.95	1.4304e-05	8.2885e-06	257	95.943	69.14	24.347	6.5197e-06	41.194	0.0022323	0.0022678	0.00059953	726.17	2.5652e-05	2.419e-05	683.75	236.45	2.5348e-05	2.4127e-05	333.72	113.19	84.687	29.381	2.2181e-05	48.877	47.636	8.900	254.239	-20.664	34.410	128.415	-21.377	-15.138	54.500	92.515	-17.143	-12.410	-11.281	-6.182	185.948	-8.173	-8191	255	
3297.430	1	1	0	0	0.10127	0.11756	0.4399	0.15281	0.041159	0.12804	0.21382	0.25133	0.17925	0.11232	0.17615	0.23067	0.19241	0.12683	0.22457	0.11235	-2.4688	-2.7479	-2.5438	-2.9292	-2.5896	-2.7521	-2.8729	-2.4104	-2.8271	-2.6396	-2.3812	-2.9313	-2.7208	-2.7229	-3.0354	-2.6458	300.963	240.330	39.448	295.511	292.144	59.705	294.617	260.256	275.358	-26.719	18.507	244.889	214.806	13.195	90.906	45.351	0.00032631	0.000862	0.00022733	550.39	1.3743e-06	3.477e-06	595.03	201.34	5.3749e-06	8.3434e-06	258.88	96.99	70.322	24.562	3.2402e-06	41.911	0.0020939	0.0021324	0.00057307	732.66	2.489e-05	2.412e-05	689.49	240.44	2.6111e-05	2.5461e-05	340.88	115.28	86.312	30.034	2.5494e-05	50.152	68.140	-3.131	42.716	-20.709	14.576	141.905	-21.268	-14.889	125.634	79.661	-17.089	-12.428	-11.600	-6.090	95.487	-8.533	-8191	255	
3297.551	1	1	0	0	0.18051	0.10893	0.027097	0.31903	0.10916	0.15963	0.15864	0.2417	0.094297	0.10922	0.28801	0.3448	0.0233	0.11613	0.050517	0.066659	-2.525	-2.9521	-2.6604	-3.1083	-2.925	-2.7479	-3.1521	-2.7917	-2.9938	-2.9917	-2.6792	-2.8958	-2.8583	-2.6583	-2.9604	-2.7167	240.501	248.277	267.935	65.670	24.601	72.443	-26.489	-26.158	38.286	187.631	295.970	220.564	209.736	162.911	314.144	25.577	0.00028778	0.00030933	0.00023621	550.68	9.2572e-07	5.7986e-06	592.13	202.57	5.7347e-06	1.6866e-06	259	97.274	69.963	24.729	8.9292e-06	41.836	0.0023511	0.0024275	0.00068504	761.36	2.8338e-05	2.7206e-05	699.33	244.13	2.8442e-05	2.7542e-05	350.26	117	87.188	30.365	2.9986e-05	51.098	70.277	-13.024	157.493	-20.295	249.625	50.600	-21.494	-14.876	147.831	262.024	-16.874	-12.639	-11.397	-5.939	117.855	-8.287	-8191	255	
3297.623	1	1	0	0	0.28777	0.077009	0.26117	0.15326	0.15712	0.21533	0.079982	0.26216	0.16773	0.1701	0.11027	0.1452	0.17568	0.16341	0.24469	0.18093	-2.275	-2.725	-2.4875	-2.7396	-2.7625	-2.6813	-2.8688	-2.6958	-2.7896	-2.9833	-2.5687	-3.0917	-2.9604	-2.7083	-3.0667	-2.7104	180.491	260.452	88.140	55.023	141.673	125.503	-2.637	297.014	194.490	-29.128	-2.651	300.613	272.905	235.692	137.215	14.538	0.00045926	0.0012218	0.00013263	552.2	3.6623e-06	8.1087e-06	591.31	199.1	8.0417e-06	5.3329e-06	255.18	95.379	68.785	24.189	8.5785e-06	40.643	0.0026628	0.0027857	0.00082597	788.81	3.2333e-05	3.1117e-05	704.85	244.52	3.2538e-05	3.1953e-05	364.23	116.51	87.348	30.219	3.274e-05	49.765	76.310	13.306	128.167	-20.713	13.530	99.905	-21.395	-14.922	236.305	58.664	-16.845	-12.581	-11.331	-6.108	148.207	-8.369	-8191	255	
3297.719	1	1	0	0	0.11542	0.19762	0.090866	0.052582	0.26499	0.27011	0.17713	0.19775	0.081371	0.11543	0.093063	0.16008	0.17409	0.19392	0.29662	0.21788	-2.3438	-3.0208	-2.675	-3.05	-2.9833	-2.6271	-2.9229	-2.5312	-2.6813	-2.9	-2.6417	-2.9979	-2.8312	-2.5271	-2.8146	-2.8063	238.556	56.242	326.929	114.947	65.068	223.689	193.400	91.194	105.416	118.329	-0.766	-15.735	305.503	-11.037	272.918	84.784	0.00034203	0.00039889	9.5381e-05	552.41	6.6016e-06	5.4677e-06	584.86	198.71	9.7973e-06	1.1048e-05	256.77	95.215	69.055	24.17	5.448e-06	40.944	0.0025461	0.002625	0.00080503	765.49	2.9149e-05	2.8692e-05	698.07	240.7	2.8923e-05	2.9126e-05	356.76	115.12	86.193	30.136	3.1965e-05	49.646	74.840	107.304	285.224	-20.906	23.593	200.536	-21.116	-14.853	82.383	107.273	-16.624	-12.374	-11.593	-6.356	237.527	-8.248	-8191	255	
3297.839	1	1	0	0	0.10737	0.12461	0.28602	0.1386	0.15853	0.24294	0.15802	0.15659	0.228	0.17231	0.046895	0.11431	0.25705	0.074719	0.13856	0.25859	-2.1229	-2.8937	-2.6063	-2.775	-2.8396	-2.7833	-3.0667	-3.0083	-2.7062	-2.9083	-2.5687	-2.9917	-2.7229	-2.6146	-2.7771	-2.8354	-13.448	-27.843	-7.179	-30.809	243.782	257.173	304.767	206.822	53.449	282.464	20.378	91.567	261.998	311.666	87.726	302.893	0.00022837	0.00036363	0.00016954	545.93	6.3008e-06	7.1575e-06	587.3	198.73	7.7185e-06	7.2794e-06	254.53	95.55	68.959	24.318	6.7673e-06	41.129	0.0024694	0.002675	0.00080257	758.43	2.819e-05	2.9068e-05	698.25	239.68	2.7764e-05	2.9275e-05	353.48	114.61	84.874	29.907	2.8919e-05	49.475	70.029	159.732	298.367	-21.060	102.288	158.921	-20.916	-14.648	93.210	127.965	-16.834	-12.371	-11.301	-5.824	64.859	-8.170	-8191	255	
3297.936	1	1	0	0	0.15195	0.21186	0.23765	0.2548	0.13467	0.16571	0.22101	0.07133	0.33161	0.052889	0.201	0.10897	0.14415	0.2286	0.091075	0.069889	-2.1146	-2.9646	-2.6292	-2.8	-3.0187	-2.8146	-2.8521	-2.9792	-2.6146	-3.1229	-2.8833	-2.9917	-3.1271	-2.7021	-2.8792	-2.7604	34.098	322.665	37.757	316.609	72.010	253.831	-22.700	203.955	13.934	146.908	246.955	177.590	261.066	209.946	154.781	214.929	0.00031368	0.001656	0.00010363	544.75	3.9986e-06	1.1415e-05	590.63	198.71	7.3268e-06	5.0622e-06	257.85	95.969	68.312	23.948	1.1408e-05	41.471	0.002248	0.0025794	0.00073688	742.44	2.677e-05	2.9098e-05	697.7	238.4	2.6335e-05	2.8725e-05	350.63	114.58	84.559	29.875	2.9098e-05	49.761	85.666	99.440	81.139	-20.687	137.816	163.345	-21.186	-14.834	234.608	65.828	-17.050	-12.605	-11.360	-5.984	66.987	-8.193	-8191	255	
3298.032	1	1	0	0	0.20661	0.12916	0.26044	0.14623	0.24246	0.12239	0.16621	0.12609	0.17025	0.12906	0.086745	0.090764	0.1382	0.070718	0.098166	0.26475	-2.0854	-2.7479	-2.6271	-2.7625	-2.8021	-2.6437	-2.9146	-3.0312	-2.6292	-2.9271	-2.9083	-2.75	-3.1437	-2.8375	-2.9396	-3.1104	257.907	-1.073	282.824	305.112	141.390	323.654	296.423	171.594	249.824	134.182	289.414	24.496	-7.373	167.663	265.732	254.930	0.00034885	0.00061941	0.00017449	548.52	6.7209e-06	3.0135e-06	589.03	197.99	9.1172e-06	1.2553e-05	255.6	94.209	67.134	23.546	7.6356e-07	40.052	0.0024065	0.0028036	0.00075284	749.07	2.8089e-05	3.0724e-05	697.89	237.83	2.8716e-05	3.1258e-05	351.4	113.4	84.64	29.646	3.0643e-05	48.517	88.156	25.751	20.290	-20.891	136.321	3.359	-21.143	-14.896	237.286	91.343	-16.743	-12.632	-10.942	-5.952	206.731	-8.023	-8191	255	
3298.128	1	1	0	0	0.24987	0.096455	0.17088	0.10984	0.20277	0.23412	0.10518	0.2077	0.072818	0.040384	0.17982	0.15239	0.2997	0.16921	0.087644	0.15139	-2.2833	-2.9062	-2.6479	-2.6937	-3.0208	-2.7083	-2.9896	-2.9958	-2.4354	-3.2292	-2.9	-2.8271	-3.2729	-2.6417	-2.9354	-3.0479	283.199	7.113	34.565	-8.348	25.226	171.157	269.004	320.111	-29.693	226.567	64.826	242.885	257.403	252.169	234.924	236.557	0.0005228	0.0013505	0.00037756	543.04	2.5491e-06	4.8992e-06	587.59	196.17	6.313e-06	5.1579e-06	251.88	93.26	66.741	23.495	6.6068e-06	40.106	0.0026507	0.0029979	0.00079896	758.07	3.2106e-05	3.3936e-05	700.84	238.56	3.3678e-05	3.511e-05	358.93	113.57	85.851	30.031	3.4252e-05	49.368	67.627	56.433	326.294	-20.393	219.409	131.859	-21.189	-14.786	130.756	23.753	-16.783	-12.635	-11.204	-6.352	85.727	-7.963	-8191	255	
3298.224	1	1	0	0	0.24522	0.12912	0.18954	0.1228	0.19664	0.2134	0.28655	0.086283	0.23783	0.12417	0.11798	0.020265	0.026001	0.14514	0.26298	0.17803	-2.225	-2.9688	-2.8583	-2.6542	-3.1167	-2.825	-2.825	-3.0062	-2.5417	-2.8854	-2.8688	-2.75	-3.1583	-2.7292	-2.725	-3.1542	19.152	44.494	261.486	-24.597	-19.272	308.349	316.415	207.106	32.902	146.173	204.609	210.993	86.708	186.196	186.676	26.641	0.00055221	0.00062249	0.00017244	542.67	1.0411e-05	4.9318e-06	584.43	194.95	9.9674e-06	3.0749e-06	253.27	93.623	66.965	23.519	1.3995e-06	40.238	0.003194	0.0034721	0.00093474	798	4.0138e-05	4.0367e-05	713.49	244.7	4.1984e-05	4.1536e-05	377.26	117.11	89.779	31.012	4.0484e-05	50.883	80.111	231.487	-31.998	-20.936	202.372	160.434	-20.983	-14.526	76.629	51.067	-16.807	-12.218	-10.998	-6.056	274.629	-7.891	-8191	255	
3298.320	1	1	0	0	0.1689	0.17625	0.080096	0.24926	0.13063	0.075957	0.093454	0.16508	0.13017	0.26251	0.092834	0.13268	0.14907	0.19508	0.3655	0.10781	-2.2792	-2.8937	-3.0333	-2.7083	-3.1625	-2.9417	-2.8521	-2.9437	-2.7188	-2.8479	-3.2562	-2.8312	-3.0333	-2.8333	-2.8125	-3.1979	133.439	141.200	294.082	92.957	163.762	306.679	164.217	162.539	-18.255	-8.899	283.302	10.134	286.607	69.100	113.585	6.204	0.00031826	0.0010627	0.00020267	539.85	1.5834e-05	3.8563e-06	586.78	194.88	7.4807e-06	4.3986e-06	254.62	93.766	66.645	23.413	7.5519e-06	40.169	0.0038226	0.0039615	0.0010577	830.99	4.5014e-05	4.2702e-05	719.48	247.37	4.4146e-05	4.204e-05	377.49	117.81	89.338	30.713	3.9648e-05	51.002	66.555	60.572	-2.043	-20.344	90.986	286.154	-21.317	-14.636	138.202	19.668	-16.867	-11.935	-10.869	-6.001	-26.099	-7.719	-8191	255	
3298.439	1	1	0	0	0.075732	0.14022	0.11585	0.13268	0.047415	0.11752	0.094678	0.19449	0.091789	0.16745	0.14176	0.20374	0.16687	0.046644	0.20779	0.14626	-2.2042	-2.6937	-2.9521	-2.6021	-2.9333	-2.6521	-2.6813	-2.9583	-2.6146	-2.8271	-3.2042	-2.725	-2.8688	-2.7083	-2.4437	-3.0917	311.795	51.923	-22.542	145.650	204.048	170.301	59.870	-13.018	197.183	186.557	244.523	312.715	13.062	98.176	221.212	120.010	0.00030129	0.0011873	0.00010803	538.6	9.2164e-06	1.7556e-05	585.57	194.56	8.2637e-07	1.2729e-06	250.49	93.453	65.948	23.284	8.8466e-06	39.715	0.0036566	0.0037244	0.00098428	823.17	4.1134e-05	3.9002e-05	711.55	245.49	3.9918e-05	3.877e-05	370.82	117.04	87.802	30.19	3.8806e-05	50.637	117.972	45.057	31.004	-20.907	73.900	93.663	-21.179	-14.741	145.448	251.584	-16.840	-12.387	-11.205	-5.794	235.159	-7.834	-8191	255	
3298.535	1	1	0	0	0.092468	0.10374	0.18237	0.27209	0.11985	0.1307	0.3642	0.046938	0.20629	0.21653	0.11224	0.14031	0.28542	0.15492	0.19923	0.17429	-2.1458	-2.6083	-2.6896	-2.5292	-3.1604	-2.9437	-2.8104	-3.1813	-2.7375	-2.8667	-2.9021	-2.8208	-2.7854	-2.9583	-2.6708	-3.1104	250.126	308.006	227.150	285.323	191.366	-25.011	300.642	266.095	164.025	37.855	204.570	52.932	282.815	53.720	304.746	218.466	0.00023003	0.00048097	0.00025173	542.25	4.8246e-06	9.4461e-06	582.02	195.5	2.7259e-06	6.5898e-06	252.83	93.538	66.622	23.396	4.8576e-06	40.155	0.0035222	0.0035989	0.00098283	825.41	3.9625e-05	3.7799e-05	710.48	246.59	3.8793e-05	3.738e-05	369.98	116.81	87.019	29.958	3.6179e-05	50.295	76.045	83.282	97.545	-20.426	173.621	129.147	-21.047	-14.818	285.885	16.997	-16.759	-12.157	-11.305	-5.995	152.889	-7.873	-8191	255	
3298.631	1	1	0	0	0.20705	0.012065	0.27271	0.035405	0.18145	0.1881	0.14605	0.14182	0.23643	0.22118	0.18025	0.072547	0.12735	0.25651	0.19337	0.26114	-2.4688	-2.8271	-3.0292	-2.4083	-2.5729	-2.8917	-2.6917	-3.1104	-2.9167	-2.7542	-2.9938	-2.6708	-2.8125	-3.1729	-2.8792	-3.0708	251.040	212.588	159.730	-15.723	235.574	64.986	322.989	320.370	90.267	85.545	253.757	4.115	64.339	287.516	66.003	-20.809	8.3049e-05	0.00082777	6.3623e-05	545.52	3.2576e-06	1.0534e-05	589.15	197.95	8.1703e-06	8.174e-06	256.05	95.452	67.57	23.956	7.7404e-06	40.938	0.0030872	0.0031716	0.00092184	804.49	3.576e-05	3.4228e-05	712.98	245.56	3.4952e-05	3.3719e-05	368.73	117.14	86.806	30.195	3.5172e-05	50.644	48.812	4.755	190.683	-20.368	203.624	136.269	-21.236	-15.073	94.128	109.683	-16.787	-12.405	-11.004	-5.955	222.002	-8.017	-8191	255	
3298.727	1	1	0	0	0.31295	0.087945	0.021447	0.10927	0.091436	0.17263	0.17917	0.10385	0.099759	0.25269	0.21698	0.17413	0.42695	0.16122	0.34271	0.15941	-2.5167	-2.6063	-2.8271	-2.6813	-2.7125	-2.9417	-2.6167	-2.95	-2.9458	-2.5167	-2.8729	-2.7562	-2.9708	-3.1979	-2.6271	-2.9562	309.334	291.805	304.643	225.435	113.654	150.841	-18.048	71.135	156.893	68.506	193.916	250.950	-5.926	251.942	281.333	309.938	0.00020315	0.00097882	0.00010627	549.4	2.6375e-06	1.1949e-05	591.78	198.11	1.1019e-05	9.2262e-06	256.09	95.825	67.749	23.837	1.2752e-05	41.093	0.0028747	0.0029971	0.00090042	792.14	3.3557e-05	3.2952e-05	715.88	244.94	3.3274e-05	3.353e-05	371.48	117.15	86.438	29.998	3.5173e-05	50.484	51.613	14.187	97.838	-20.585	161.691	222.267	-21.158	-14.839	12.461	145.259	-16.508	-12.235	-11.006	-5.911	66.726	-7.688	-8191	255	
3298.848	1	1	0	0	0.17748	0.078347	0.12018	0.21952	0.096112	0.25467	0.049385	0.25318	0.24251	0.18222	0.13928	0.21608	0.19201	0.22225	0.20923	0.239	-2.4562	-2.5667	-2.9104	-2.8167	-2.6458	-2.8937	-2.7646	-3.1021	-3.0896	-2.6937	-3.2896	-2.8042	-2.7771	-3.0542	-2.7938	-3.0104	70.294	217.003	205.731	15.686	206.359	227.186	192.491	201.683	248.969	323.074	136.423	298.350	250.324	214.081	222.816	245.877	0.00037759	0.00049802	0.00027289	549.6	3.0531e-06	9.4139e-06	591.78	198.69	1.225e-05	1.1405e-05	256.7	94.955	66.826	23.314	6.7071e-06	40.216	0.0027578	0.003038	0.00090647	786.3	3.2846e-05	3.4254e-05	716.48	243.56	3.2536e-05	3.4645e-05	370.07	115.75	85.053	29.747	3.5657e-05	49.676	57.782	141.472	157.416	-20.727	141.123	230.997	-20.887	-14.876	150.261	257.174	-16.822	-12.311	-11.243	-5.672	-17.107	-7.955	-8191	255	
3298.920	1	1	0	0	0.17351	0.24442	0.031791	0.12761	0.27412	0.20536	0.10073	0.28489	0.0935	0.10114	0.13473	0.22651	0.032862	0.32736	0.16204	0.18215	-2.4729	-2.8333	-2.8417	-2.8104	-2.7083	-3.1063	-2.875	-2.8063	-2.8563	-2.7375	-3.075	-2.9146	-2.6813	-3.0083	-2.7854	-3.0833	142.666	254.845	224.047	143.199	93.063	104.211	221.972	280.803	156.407	24.173	259.736	307.611	237.667	-25.536	72.075	-25.726	0.00026868	0.0015011	0.0002094	539.89	6.0863e-06	5.2505e-06	587.51	196.04	1.7629e-05	6.3085e-06	254.89	93.993	66.621	23.499	8.4647e-06	40.349	0.002825	0.0032696	0.00093091	785.01	3.343e-05	3.6388e-05	711.96	242.28	3.3677e-05	3.6906e-05	369.54	115.06	85.625	30.251	3.6203e-05	49.781	67.991	149.171	0.243	-20.734	228.170	103.520	-21.335	-15.025	149.351	8.644	-16.575	-12.551	-10.996	-5.858	21.224	-8.016	-8191	255	
3299.016	1	1	0	0	0.057751	0.13742	0.21954	0.26558	0.24169	0.05604	0.10286	0.23354	0.21721	0.22565	0.32852	0.20581	0.17632	0.17694	0.12612	0.10061	-2.5375	-2.6583	-2.7479	-2.7833	-2.5708	-2.8396	-2.8458	-2.7625	-3.1333	-2.7792	-2.8604	-2.7958	-2.7562	-3.0604	-3.0292	-2.6937	84.831	190.285	33.979	138.471	227.806	250.319	-1.272	227.068	171.338	-16.488	324.737	228.410	302.839	268.906	263.915	213.091	0.00055141	0.00055222	0.00010887	548.77	9.1045e-06	7.3953e-06	592.06	198.27	8.7149e-06	6.9067e-06	257.72	95.235	67.593	24.011	5.685e-06	41.11	0.0028818	0.0033563	0.00090184	782.82	3.3608e-05	3.658e-05	713.69	243.37	3.4395e-05	3.8332e-05	371.9	116.98	87.72	30.976	3.6939e-05	50.824	103.567	113.002	22.291	-20.795	178.046	148.600	-21.240	-14.707	85.787	132.520	-17.561	-12.323	-10.931	-5.930	-24.114	-8.001	-8191	255	
3299.112	1	1	0	0	0.14697	0.095282	0.13212	0.20298	0.14608	0.16036	0.26296	0.14006	0.097876	0.16525	0.14291	0.19106	0.31671	0.22919	0.22656	0.12088	-2.5521	-2.6125	-2.8167	-2.6604	-2.6167	-3.0125	-2.7062	-2.6188	-2.9458	-2.7479	-3.0229	-3.0792	-2.4667	-2.8563	-2.5896	-2.7938	268.195	76.098	131.167	187.955	93.489	50.494	302.633	-8.775	-15.183	107.294	146.981	300.927	294.966	33.564	129.774	-19.817	0.00053739	0.00068936	0.00027477	551.52	8.9003e-06	8.597e-06	594.68	198.2	1.1143e-06	2.1226e-06	259.57	95.594	67.421	23.856	6.7161e-06	40.936	0.0031713	0.0036268	0.00096156	801.72	3.8285e-05	4.0361e-05	723.51	246.97	3.9156e-05	4.0711e-05	379.39	117.79	88.939	30.972	3.7351e-05	50.817	60.368	20.905	23.953	-20.525	239.665	195.578	-21.435	-14.658	159.920	48.660	-16.648	-12.258	-11.028	-5.883	25.805	-7.857	-8191	255	
3299.231	1	1	0	0	0.27496	0.29742	0.14338	0.16944	0.237	0.03166	0.19563	0.19557	0.20397	0.26643	0.34957	0.09795	0.17094	0.22368	0.199	0.098844	-2.6167	-2.5771	-2.5792	-2.9354	-2.6417	-3.075	-2.7542	-2.6542	-2.8292	-2.6354	-2.7542	-3.1896	-2.9042	-2.8167	-2.8729	-2.6917	245.607	128.277	-19.172	105.573	-5.740	42.669	228.310	43.109	220.904	222.060	-24.105	14.849	16.786	294.377	44.933	56.698	0.00069752	0.00081774	9.314e-05	548.43	4.5084e-06	1.0344e-05	593.78	198.66	1.5398e-05	5.6451e-06	259.28	95.325	66.527	23.515	1.2115e-06	40.343	0.0033017	0.0035636	0.00094673	798.63	3.9234e-05	3.9176e-05	719.31	245.5	3.9049e-05	3.8314e-05	370.97	116.71	87.583	30.245	3.5331e-05	50.026	74.663	251.743	310.949	-20.350	117.274	15.507	-21.220	-14.969	159.292	25.712	-16.530	-12.471	-10.972	-6.177	57.488	-7.972	-8191	255	
3299.327	1	1	0	0	0.060982	0.13491	0.11396	0.23959	0.11513	0.11671	0.19845	0.047067	0.22532	0.17091	0.19116	0.20606	0.17703	0.30486	0.12214	0.27018	-2.6625	-2.8146	-2.675	-2.9521	-2.6083	-2.7417	-2.7917	-2.4958	-2.7792	-2.7604	-2.8292	-3.0812	-2.7771	-2.9062	-2.8417	-2.9125	50.627	68.859	298.365	146.788	-21.692	91.884	-5.714	319.944	321.562	269.678	151.554	18.924	254.432	226.905	238.282	198.548	0.00048095	0.00062824	0.00028279	542.58	3.9792e-06	5.1608e-06	589.5	196.04	9.7757e-06	4.4394e-06	256.44	94.106	66.266	23.507	3.644e-06	40.411	0.0032608	0.0033316	0.00089609	790.07	3.842e-05	3.6417e-05	708.22	242.82	3.7008e-05	3.5452e-05	361.38	115.2	86.164	29.799	3.2484e-05	49.843	67.602	65.287	79.711	-20.827	3.396	123.419	-21.259	-14.710	107.359	128.712	-17.121	-12.123	-10.904	-5.781	121.977	-8.031	-8191	255	
3299.423	1	1	0	0	0.15789	0.02045	0.14756	0.12056	0.10782	0.34269	0.10379	0.22361	0.17207	0.1032	0.25016	0.11716	0.13425	0.072084	0.040904	0.20085	-2.6854	-2.6437	-2.6625	-3.2979	-2.7562	-2.8438	-2.8333	-2.9125	-3.0583	-3.0146	-2.6979	-3.1708	-2.6021	-2.9417	-2.8646	-2.6042	90.606	261.951	1.203	12.345	162.929	-17.160	272.349	-16.719	102.301	322.034	-6.717	311.426	274.754	205.658	225.970	236.511	0.00037334	0.00036893	9.5971e-05	545.8	7.0695e-06	9.2003e-06	590.19	197.31	1.1834e-05	5.643e-06	257.63	94.616	66.613	23.65	8.9607e-06	40.883	0.0030933	0.0031543	0.00084726	795.62	3.6624e-05	3.5308e-05	708.59	245.38	3.6602e-05	3.5365e-05	364.72	116.97	87.199	30.164	3.3792e-05	50.86	60.173	87.233	19.529	-20.329	79.502	44.583	-21.210	-14.646	106.687	42.244	-16.573	-12.265	-11.085	-5.855	155.146	-8.114	-8191	255	
3299.519	1	1	0	0	0.1449	0.24286	0.091465	0.23116	0.083531	0.28077	0.25776	0.20897	0.038148	0.10841	0.13567	0.18847	0.095468	0.19007	0.076332	0.05238	-2.5583	-2.675	-2.5771	-3.0375	-2.7687	-2.8125	-3.075	-2.7	-2.7979	-2.8604	-2.5896	-3.0125	-2.6979	-2.7708	-2.9854	-2.7646	73.895	253.962	292.739	287.061	-7.965	180.176	-3.797	134.177	34.588	46.897	275.262	307.596	317.490	-10.189	54.375	30.415	0.00028359	0.00019074	0.0004567	547.15	2.585e-06	3.675e-06	593.13	197.71	6.9518e-06	6.7048e-06	258.41	95.06	66.413	23.637	9.7615e-06	40.87	0.0030925	0.0031687	0.00088665	809.21	3.6722e-05	3.5364e-05	714.5	246.7	3.6576e-05	3.5563e-05	370.81	117.96	86.855	30.158	3.5859e-05	51.006	99.495	305.186	106.882	-20.678	43.393	80.455	-20.870	-14.671	147.616	53.507	-16.403	-12.304	-11.041	-5.905	199.772	-7.959	-8191	255	
3299.616	1	1	0	0	0.21942	0.13233	0.27612	0.25311	0.22626	0.04856	0.21594	0.40662	0.12204	0.054546	0.051913	0.12584	0.21725	0.11431	0.52483	0.074045	-2.4813	-2.8563	-2.6	-2.8792	-2.6146	-2.6292	-3.1104	-2.6333	-2.6458	-3.0062	-2.6792	-2.9813	-2.6979	-2.9708	-3.1625	-2.7083	167.959	94.620	23.135	267.519	71.606	6.985	225.651	243.999	120.416	122.915	297.637	-20.551	250.080	176.748	108.349	106.125	0.00040615	0.0005712	0.00027167	551.24	1.5225e-05	3.1317e-06	591.9	197.55	5.3453e-06	2.4822e-06	256.1	94.271	66.279	23.29	9.0021e-06	40.181	0.0030932	0.003187	0.00093122	813.41	3.6899e-05	3.5784e-05	720.29	247	3.7e-05	3.5922e-05	376.55	117.5	86.278	29.806	3.7898e-05	50.369	54.837	66.011	72.412	-20.576	7.223	228.074	-21.146	-14.995	4.093	111.563	-16.917	-12.640	-11.204	-5.644	97.961	-8.269	-8191	255	
3299.712	1	1	0	0	0.20212	0.25357	0.056211	0.043463	0.21613	0.035653	0.21724	0.14855	0.094691	0.17288	0.27637	0.15678	0.23015	0.14888	0.22439	0.28841	-2.3667	-2.925	-2.4208	-2.9708	-2.7771	-2.6583	-2.9333	-2.9042	-2.8604	-3.0187	-2.5375	-2.8542	-2.9542	-2.8146	-3.0125	-2.7812	234.001	19.550	19.799	205.611	99.505	139.755	302.223	196.894	258.085	309.832	174.178	-26.818	210.360	281.590	119.627	294.483	0.00041221	0.00082125	0.00025509	542.99	7.9465e-06	4.5791e-06	587.55	194.86	5.0072e-06	4.1222e-06	253.95	93.306	65.853	23.228	4.2869e-06	39.873	0.0031015	0.0031931	0.00096477	796.92	3.504e-05	3.4258e-05	713.14	241.8	3.431e-05	3.3839e-05	370.19	114.79	84.746	29.561	3.7194e-05	49.702	65.617	-29.524	160.589	-20.971	38.566	200.000	-20.969	-14.786	-26.058	103.774	-16.781	-12.122	-11.207	-5.911	-28.609	-8.027	-8191	255	
3299.808	1	1	0	0	0.27893	0.18417	0.26706	0.2261	0.24089	0.22965	0.13674	0.10368	0.10913	0.094352	0.12186	0.17967	0.076229	0.12824	0.23896	0.051386	-2.2333	-2.9	-2.6042	-3.0354	-2.9813	-2.7729	-2.9354	-2.6646	-2.6188	-3.0125	-2.7854	-3.0229	-2.9958	-2.5146	-2.9167	-2.6854	51.579	-2.964	102.910	125.435	180.179	54.675	325.149	56.287	125.961	95.597	-21.529	314.648	3.995	68.821	66.758	238.245	0.00042111	0.00027504	9.2648e-05	547.78	1.3626e-06	1.3027e-05	586.54	196.25	9.2125e-06	2.6293e-06	253.71	94.084	66.404	23.514	5.4599e-06	40.723	0.0029572	0.0032549	0.00098589	801.99	3.5339e-05	3.6401e-05	717.39	243.87	3.518e-05	3.7212e-05	377.82	116.32	86.015	30.394	3.936e-05	50.513	90.044	29.103	150.814	-20.686	74.578	188.913	-21.149	-14.800	13.240	-19.321	-16.832	-12.312	-10.773	-5.646	96.040	-8.089	-8191	255	
3299.929	1	1	0	0	0.13493	0.18228	0.27126	0.10998	0.18748	0.14565	0.10551	0.073674	0.17408	0.10826	0.089469	0.27826	0.28797	0.14077	0.054613	0.37305	-2.0917	-2.8958	-2.6104	-2.6771	-2.7562	-2.55	-2.9938	-2.9542	-2.8875	-3.0479	-2.8042	-2.7083	-3.1125	-2.7042	-3.0354	-3.0521	86.916	289.256	319.481	237.307	250.740	48.681	155.448	149.419	177.234	83.087	115.655	223.435	282.445	180.567	305.217	224.149	0.0003727	0.00085226	0.00014784	548.11	5.9823e-06	6.7955e-06	593.02	197.72	9.5619e-06	1.3704e-05	254.01	94.391	66.839	23.483	5.6558e-06	40.559	0.0030917	0.0035474	0.0010261	813.39	3.737e-05	4.1041e-05	727.29	247.37	3.8209e-05	4.2014e-05	386.43	117.78	87.497	30.893	4.1303e-05	50.834	64.233	67.572	203.929	-20.931	303.365	216.285	-21.263	-14.867	201.805	122.741	-16.702	-12.626	-10.957	-5.810	173.142	-7.941	-8191	255	
3300.025	1	1	0	0	0.35098	0.18148	0.28986	0.084144	0.29809	0.145	0.042405	0.10636	0.2305	0.17523	0.25534	0.45437	0.048735	0.090781	0.16018	0.11874	-2.1188	-2.9896	-2.7521	-2.5646	-3.1208	-2.8083	-2.7875	-2.9313	-2.6833	-3.0771	-2.8	-2.6979	-3.0333	-2.7271	-2.8625	-3.0896	74.021	322.340	112.663	257.717	197.158	302.027	275.424	193.728	187.613	31.199	291.534	271.107	193.370	210.189	207.875	258.851	0.00043469	0.001007	0.00023259	547.35	1.0115e-05	1.1137e-05	594.35	197.36	1.4392e-05	3.6435e-06	257.71	94.803	66.635	23.273	5.8572e-06	40.296	0.0033168	0.0038668	0.0010523	819.75	3.9083e-05	4.2957e-05	728.77	247.03	3.9171e-05	4.3261e-05	385.31	117.75	87.681	30.756	4.0155e-05	50.455	83.957	15.616	223.640	-20.791	142.324	104.543	-21.329	-14.923	201.207	134.065	-17.247	-12.265	-11.072	-5.898	35.221	-8.278	-8191	255	
3300.121	1	1	0	0	0.13026	0.16568	0.20716	0.32147	0.22914	0.11324	0.21179	0.15845	0.054339	0.037408	0.10686	0.22938	0.17141	0.15969	0.093078	0.27558	-2.275	-3.0312	-2.4917	-2.7292	-3.0104	-2.6188	-2.9729	-3.0167	-2.7562	-3.1521	-2.75	-2.8667	-2.9062	-2.7188	-2.8896	-3.1562	3.367	159.893	2.139	148.261	271.709	88.112	180.459	174.758	157.644	-20.187	253.162	194.405	32.727	85.059	-22.204	240.598	0.00041772	0.0011953	0.00031099	545.32	7.9644e-06	6.1705e-06	583.88	194.26	1.579e-05	9.5459e-06	251.94	93.026	65.545	23.055	2.02e-06	39.487	0.0034455	0.0039424	0.0010464	814.76	4.1617e-05	4.4085e-05	721.51	245.44	4.2649e-05	4.4562e-05	382.83	116.39	88.238	30.646	4.1742e-05	50.007	63.208	6.261	-4.648	-20.656	68.832	126.835	-21.258	-14.728	204.945	58.188	-17.008	-12.433	-11.007	-6.176	7.551	-8.114	-8191	255	
3300.217	1	1	0	0	0.22146	0.2203	0.21535	0.068407	0.12248	0.17844	0.1747	0.14165	0.26695	0.02972	0.17468	0.15778	0.094761	0.1703	0.26113	0.15766	-2.2771	-2.875	-2.8083	-2.6688	-3.2062	-2.7333	-2.6417	-2.9313	-2.5958	-2.9792	-2.6625	-2.7292	-3.0854	-2.8292	-2.6292	-2.7313	270.441	-21.734	88.535	283.087	11.157	83.049	294.268	222.709	221.943	25.046	94.238	166.969	261.954	13.861	115.838	154.505	0.00040767	0.00097984	0.00018967	540.79	1.6586e-05	2.0478e-06	582.72	193.95	7.0207e-06	1.2018e-05	254.53	93.341	66.019	23.053	2.8624e-06	39.855	0.0037079	0.00397	0.0010495	814.27	4.2999e-05	4.272e-05	716.57	244.22	4.2619e-05	4.2097e-05	376.33	115.95	88.087	30.365	3.8561e-05	50.031	67.467	-18.597	171.945	-20.990	109.086	81.712	-21.278	-14.654	204.389	69.103	-17.570	-12.354	-11.232	-5.981	270.262	-8.141	-8191	255	
3300.313	1	1	0	0	0.18078	0.16449	0.15538	0.062925	0.023662	0.1163	0.1899	0.11938	0.13027	0.11554	0.30972	0.031201	0.15993	0.25174	0.076611	0.037343	-2.1229	-2.9208	-2.9354	-2.5542	-2.9938	-2.6813	-2.65	-2.8958	-2.4375	-2.8792	-3.0625	-2.6458	-3.0708	-2.5563	-2.4917	-3.1312	139.364	210.372	-2.726	256.320	150.253	287.442	277.325	193.218	323.096	181.784	265.481	34.700	26.399	176.416	187.005	177.495	0.00020738	0.0006327	0.00011001	538	6.1541e-06	6.321e-06	585.36	193.87	5.6109e-06	6.524e-06	252.95	93.477	65.741	23.024	1.373e-05	39.769	0.0035459	0.0036228	0.00096762	806.67	4.086e-05	3.8757e-05	710.45	242.46	3.9427e-05	3.7836e-05	366.96	115.72	86.849	29.823	3.5839e-05	49.924	74.529	40.767	64.959	-20.478	29.654	165.090	-21.418	-14.662	58.471	176.966	-16.663	-12.285	-11.059	-6.155	260.953	-7.923	-8191	255	
3300.408	1	1	0	0	0.16645	0.24863	0.20597	0.21499	0.22232	0.034029	0.13934	0.090322	0.12839	0.18983	0.079209	0.11042	0.074203	0.29064	0.29371	0.24005	-2.2125	-2.8667	-3.0896	-2.7875	-2.7083	-2.6813	-2.7479	-3.0542	-2.8354	-3.1458	-2.9375	-2.6854	-2.9521	-2.7438	-2.4938	-3.125	249.228	217.060	2.020	133.336	326.277	249.850	228.700	111.558	220.548	214.881	323.599	280.442	-7.407	215.407	91.144	253.655	0.00059387	0.0011307	0.00016636	540.67	7.8332e-06	7.7722e-06	585.33	193.71	4.8997e-06	4.5413e-06	256.01	93.739	65.641	23.115	1.0986e-05	39.843	0.0033183	0.0033468	0.00087314	793.05	3.6867e-05	3.4965e-05	703.63	240.84	3.5765e-05	3.447e-05	359.07	115.4	84.991	29.277	3.2549e-05	49.59	100.782	-7.371	4.164	-20.482	60.663	76.975	-21.315	-14.716	66.891	209.075	-16.788	-12.147	-11.319	-6.112	230.083	-8.039	-8191	255	
3300.528	1	1	0	0	0.175	0.060452	0.076749	0.27031	0.12262	0.21458	0.14858	0.15449	0.055059	0.3666	0.080124	0.3354	0.087611	0.056425	0.1189	0.071281	-2.4	-2.8542	-2.9875	-2.7771	-2.8854	-2.8542	-2.6771	-2.9896	-2.6479	-2.7042	-3.0667	-2.4062	-2.7146	-3.0146	-2.5104	-2.9062	260.859	-23.082	153.601	186.651	68.110	306.861	206.315	321.798	257.966	309.922	-3.386	324.931	264.974	149.715	72.247	224.231	0.00029797	0.00064122	0.00022029	537.21	1.1506e-05	5.1003e-06	583.48	193.03	6.9395e-06	1.1035e-05	250.64	91.852	64.61	22.556	1.3002e-05	39.534	0.0030031	0.0030634	0.00084327	788.83	3.5065e-05	3.3722e-05	701.52	239.82	3.5208e-05	3.4437e-05	361.06	114.29	84.009	28.956	3.4732e-05	49.234	41.209	-1.208	28.553	-20.657	44.216	85.377	-21.265	-15.153	212.536	49.191	-16.958	-12.160	-10.925	-5.851	221.154	-8.127	-8191	255	
3300.624	1	1	0	0	0.21954	0.30629	0.22296	0.12265	0.22605	0.15005	0.133	0.11969	0.22423	0.12334	0.1812	0.056577	0.2107	0.30827	0.14281	0.11233	-2.2271	-2.6437	-2.7167	-2.4437	-2.85	-3.0396	-2.6604	-3	-2.8063	-2.8604	-2.9021	-2.9062	-2.7729	-2.9813	-2.6021	-3.0646	282.263	151.765	240.438	4.731	211.363	39.793	0.687	314.431	142.007	279.303	236.984	-10.545	305.694	-23.278	287.283	251.678	0.00043057	0.00064287	7.2684e-05	535.71	4.2965e-06	8.6489e-06	580.93	192.04	9.0747e-06	8.614e-06	253.25	92.528	64.676	22.968	1.4367e-05	39.593	0.0029625	0.0030346	0.00086624	787.19	3.4059e-05	3.2442e-05	700.08	238.5	3.367e-05	3.2971e-05	361.28	113.92	83.52	29.142	3.6379e-05	49.522	66.596	51.197	157.485	-20.636	45.458	61.883	-21.088	-14.991	33.197	178.639	-16.850	-12.243	-11.278	-5.860	165.100	-8.101	-8191	255	
3300.720	1	1	0	0	0.1249	0.23132	0.24865	0.11009	0.1406	0.16645	0.12546	0.11466	0.12189	0.18766	0.18206	0.34238	0.074462	0.12085	0.15822	0.1268	-2.2792	-2.5	-3.0083	-2.7146	-2.5312	-2.8354	-2.8167	-2.975	-2.8896	-2.5354	-2.825	-2.7375	-2.9729	-3.0354	-2.4188	-2.7729	70.895	179.977	22.692	275.040	27.065	-27.534	227.545	-24.339	302.214	-22.351	67.752	296.280	264.822	291.451	227.804	292.576	0.00038499	0.00071048	0.00020436	536.11	2.2194e-06	2.192e-06	583.35	192.13	8.9662e-06	1.0647e-05	250.47	92.443	64.758	22.947	2.0308e-06	39.879	0.0030419	0.0032003	0.0009677	803.38	3.6658e-05	3.6017e-05	715.64	241.83	3.7392e-05	3.7438e-05	378.22	115.82	85.542	29.929	4.2969e-05	50.451	44.784	129.602	106.914	-20.572	277.425	77.852	-20.994	-14.928	109.369	200.951	-16.979	-12.179	-10.964	-5.736	162.379	-8.023	-8191	255	
3300.792	1	1	0	0	0.16357	0.20499	0.11542	0.079073	0.25785	0.0056116	0.048717	0.081094	0.2408	0.10906	0.27456	0.16993	0.088765	0.054421	0.19558	0.12987	-2.3229	-2.7333	-2.8896	-2.6375	-2.8271	-2.9708	-2.6208	-2.825	-3.0271	-2.6979	-3.0646	-2.7833	-2.5438	-3.0771	-2.7292	-2.8875	239.902	320.860	311.268	222.786	66.248	-32.164	74.060	186.948	-21.555	12.259	67.364	16.501	275.799	213.324	16.001	29.100	0.00027128	0.00086061	0.00040636	542.55	3.873e-06	4.02e-06	584.55	192.06	8.2073e-06	1.9117e-05	251.59	92.064	64.127	22.789	6.4702e-06	39.518	0.0034352	0.0038005	0.0011696	841.38	4.3323e-05	4.4757e-05	736.38	247.85	4.4917e-05	4.7626e-05	404.18	118.49	87.759	30.875	4.983e-05	51.315	62.168	140.622	280.494	-21.240	323.065	150.483	-21.338	-14.692	199.675	197.361	-16.904	-12.459	-10.747	-5.705	36.096	-7.794	-8191	255	
3300.888	1	1	0	0	0.21918	0.22324	0.076858	0.11318	0.063324	0.14147	0.033612	0.15372	0.14326	0.2347	0.20235	0.055807	0.17417	0.10739	0.35999	0.11082	-2.5854	-2.6354	-3.0833	-2.7562	-2.6521	-2.8167	-2.6167	-2.8708	-3.0187	-2.5708	-3.0938	-2.8021	-2.3812	-2.9979	-2.7333	-2.9146	279.823	85.882	29.619	278.148	269.319	-14.618	27.279	-31.558	-26.645	185.238	255.347	164.622	92.107	259.647	265.220	60.345	0.000212	0.0014458	0.00021755	538.24	3.9344e-06	9.6164e-06	579.95	189.86	1.4278e-05	1.0345e-05	245.81	90.158	63.276	22.412	1.3281e-05	38.831	0.0038839	0.0044978	0.0012992	859.87	4.6264e-05	4.9673e-05	734.15	247.48	4.622e-05	5.112e-05	401.99	116.59	87.3	30.764	4.9281e-05	50.476	89.804	123.868	69.484	-20.580	265.393	154.637	-21.163	-14.886	237.032	230.603	-17.003	-12.446	-10.837	-5.613	159.939	-7.796	-8191	255	
3301.009	1	1	0	0	0.17758	0.27089	0.12038	0.30965	0.25884	0.10149	0.18843	0.11217	0.21127	0.15532	0.10977	0.1445	0.078197	0.07667	0.055131	0.28252	-2.6	-2.475	-2.8563	-2.8958	-2.6417	-2.8625	-2.9167	-2.9042	-2.8646	-2.4833	-2.7854	-3.1104	-2.55	-3.1625	-2.6292	-2.6562	116.293	189.062	193.110	125.025	172.605	-2.747	258.926	169.447	269.137	224.920	61.218	253.781	208.714	118.664	298.995	233.918	0.00044934	0.00065295	0.00039953	534.3	1.3422e-05	4.5293e-06	577.27	190.2	9.5425e-06	2.8072e-06	247.78	90.956	64.009	22.822	1.3278e-05	39.513	0.0038647	0.0045333	0.0012211	840.48	4.4807e-05	4.8777e-05	725.81	245.41	4.4834e-05	4.9466e-05	392.25	116	87.586	30.981	4.6113e-05	50.564	110.962	32.389	31.617	-20.564	74.194	97.540	-21.202	-14.726	44.984	199.109	-17.614	-12.497	-10.763	-5.657	323.507	-8.125	-8191	255	
3301.105	1	1	0	0	0.11268	0.10749	0.12541	0.17453	0.13167	0.12508	0.030611	0.12729	0.16428	0.14363	0.16245	0.093242	0.21275	0.16166	0.16039	0.22293	-2.5687	-2.7188	-2.9125	-3.0312	-2.8187	-2.9583	-2.9479	-2.6833	-2.8688	-2.4625	-2.7792	-2.9479	-2.5125	-2.9042	-2.775	-2.6333	261.642	272.830	283.589	155.943	121.007	7.030	1.188	235.333	-17.276	252.896	221.853	-7.312	21.469	224.286	272.504	293.360	0.00055396	0.00029672	0.00017609	535.06	1.4071e-05	1.2091e-05	583.1	191.96	1.2804e-05	2.6627e-06	249.62	92.331	64.573	23.026	1.5079e-05	39.768	0.0038464	0.0044418	0.0011735	835.13	4.5968e-05	4.8649e-05	727.96	245.88	4.5933e-05	4.8391e-05	389.16	116.37	88.317	30.931	4.3368e-05	50.447	90.639	218.252	-17.008	-20.753	221.810	22.264	-21.486	-14.683	244.387	130.491	-16.919	-12.347	-10.753	-5.843	162.674	-8.031	-8191	255	
3301.201	1	1	0	0	0.06353	0.36151	0.046132	0.21835	0.089284	0.21045	0.33185	0.21957	0.23744	0.24017	0.41049	0.071786	0.19469	0.35471	0.31692	0.1177	-2.5583	-2.3521	-2.7458	-2.8438	-2.5646	-3.0438	-2.8438	-2.6625	-2.7792	-2.5646	-2.7875	-2.75	-2.6958	-2.8667	-2.7833	-2.6	25.322	293.053	220.332	27.493	66.598	42.738	263.943	287.116	132.117	309.169	243.095	204.587	244.621	-29.497	288.812	307.400	0.00057692	0.00043657	0.00010845	535.8	9.0208e-06	6.1406e-06	584.43	193.61	2.7648e-06	6.2885e-06	251.85	92.569	65.228	22.984	8.4076e-06	40.033	0.0038152	0.0041451	0.0011007	821.91	4.5263e-05	4.4633e-05	721.37	243.52	4.3638e-05	4.3356e-05	378.96	115.8	87.636	30.33	3.9924e-05	50.432	96.842	156.351	280.780	-20.186	137.741	6.213	-21.200	-14.513	218.484	214.921	-17.262	-12.115	-10.944	-5.938	75.418	-7.774	-8191	255	
3301.322	1	1	0	0	0.19636	0.073355	0.10225	0.25594	0.10789	0.10156	0.1996	0.067364	0.09046	0.14963	0.080933	0.10841	0.1103	0.10129	0.17546	0.055419	-2.3625	-2.5792	-2.6042	-2.8396	-2.7354	-3.0542	-2.9229	-2.4688	-2.9083	-2.5375	-2.5708	-3.1271	-2.7812	-2.8604	-3.0333	-2.7896	-25.281	192.799	218.370	78.546	249.205	-2.973	-18.531	189.279	239.796	279.553	138.093	135.376	59.615	256.531	75.539	304.897	0.00047585	0.00088141	0.00022266	533.46	1.8465e-05	1.6296e-06	582.5	192.13	1.0949e-05	1.078e-05	251.66	91.779	64.543	22.64	8.1059e-06	39.439	0.003665	0.0037877	0.0010012	806.53	4.2182e-05	4.0077e-05	710.13	241.34	4.0883e-05	3.9355e-05	368.74	114.58	86.04	29.628	3.6294e-05	49.353	73.298	287.809	308.651	-20.735	97.801	16.273	-21.424	-14.685	176.104	39.114	-16.621	-12.318	-11.204	-5.667	294.173	-8.022	-8191	255	
3301.393	1	1	0	0	0.28508	0.05108	0.24551	0.17441	0.20548	0.22241	0.037897	0.10961	0.022333	0.2158	0.20591	0.25805	0.093704	0.07298	0.19303	0.26843	-2.575	-2.5833	-2.4354	-2.95	-2.45	-2.7479	-3.0875	-2.5104	-2.8042	-2.6979	-2.7958	-3.1354	-2.5812	-2.6042	-2.9021	-2.7542	317.220	90.944	72.799	92.375	93.834	252.489	296.579	318.830	62.499	291.721	222.840	294.194	82.259	291.967	86.168	251.825	0.00029616	0.00089453	4.7005e-05	536.64	1.0745e-05	1.0839e-05	584.12	193.46	5.7436e-06	4.3498e-06	253.79	92.556	65.571	23.106	1.1049e-05	40.097	0.0032991	0.003298	0.00087234	784.95	3.6433e-05	3.4604e-05	698.83	239.4	3.5259e-05	3.4147e-05	356.25	114.08	84.702	29.424	3.2684e-05	49.756	84.963	230.969	183.832	-20.441	86.249	85.949	-21.437	-14.708	319.666	269.557	-16.036	-12.235	-11.247	-5.635	180.328	-8.052	-8191	255	
3301.490	1	1	0	0	0.28371	0.3264	0.051137	0.22283	0.072127	0.17675	0.04923	0.082182	0.11358	0.14492	0.10265	0.11524	0.0087395	0.18614	0.23386	0.17109	-2.3229	-2.6562	-2.4271	-2.8917	-2.6688	-2.8979	-2.825	-2.5687	-2.8646	-3.0625	-2.525	-3.0896	-2.6917	-2.6	-2.875	-2.6937	20.442	113.040	253.247	-4.001	189.253	270.045	49.240	312.189	126.190	93.328	22.736	184.404	238.886	286.320	103.201	296.257	0.00045653	0.0010585	9.9428e-05	541.92	1.8767e-06	1.0915e-05	586.67	194.62	4.8776e-06	1.0206e-05	255.39	93.555	65.729	23.489	5.8797e-06	40.67	0.0030463	0.0030923	0.00084869	791.38	3.4861e-05	3.3343e-05	703.65	241.44	3.4148e-05	3.3081e-05	359.45	115.17	84.634	29.608	3.3287e-05	50.351	81.763	11.508	128.401	-20.490	125.743	54.090	-20.922	-14.677	287.926	148.791	-16.497	-12.288	-10.913	-5.550	264.843	-7.713	-8191	255	
3301.609	1	1	0	0	0.10713	0.18519	0.24995	0.089477	0.14158	0.16028	0.22307	0.042455	0.15217	0.18002	0.2022	0.037757	0.10655	0.18487	0.013012	0.16878	-2.5667	-2.8812	-2.4896	-3.1208	-2.5438	-2.5042	-2.9708	-2.6958	-2.8292	-3.0292	-2.6521	-2.9437	-2.5917	-2.45	-2.9458	-2.5771	212.898	172.701	230.087	111.242	146.350	135.700	123.865	316.136	50.297	241.026	266.539	184.667	259.259	307.229	220.191	261.872	0.00046514	0.00085911	0.00017046	544.86	6.6203e-06	6.3065e-06	585.04	195.46	6.9247e-06	1.1472e-05	255.98	94.239	66.212	23.425	4.3455e-06	40.381	0.0029738	0.0030774	0.00089764	802.76	3.6043e-05	3.4811e-05	714.16	244.63	3.663e-05	3.5671e-05	374.42	117.27	86.505	30.096	3.9153e-05	51.032	45.169	137.902	94.508	-20.320	75.767	52.620	-21.106	-14.846	49.839	176.923	-16.898	-12.391	-11.374	-5.769	124.588	-8.068	-8191	255	
3301.705	1	1	0	0	0.2692	0.040296	0.16586	0.18789	0.061083	0.35531	0.095407	0.1302	0.1257	0.075391	0.015369	0.22985	0.31408	0.21785	0.16634	0.11729	-2.2979	-3.0083	-2.7687	-2.9271	-2.8125	-2.6833	-2.8583	-2.5625	-2.6979	-2.7313	-2.5292	-2.7562	-2.6583	-2.4646	-2.9042	-2.8	67.350	138.632	22.856	298.322	147.586	29.871	51.738	-25.252	-1.133	277.101	101.345	290.854	320.633	53.910	97.756	127.828	0.00055695	0.00098865	0.00025182	542.22	5.0632e-06	1.196e-06	586.24	195.03	1.2537e-06	9.0721e-06	253.78	92.679	65.073	22.866	2.2334e-05	39.686	0.0032283	0.0033134	0.0010057	811.97	3.7042e-05	3.6146e-05	717.53	243.43	3.6278e-05	3.5774e-05	375.05	115.3	85.012	29.546	3.9468e-05	49.699	76.828	134.662	157.807	-20.162	30.322	71.961	-20.895	-14.940	296.944	149.701	-16.527	-12.208	-11.093	-5.531	153.603	-7.925	-8191	255	
3301.801	1	1	0	0	0.16017	0.23584	0.24946	0.27598	0.15984	0.19871	0.12687	0.14533	0.235	0.074066	0.21953	0.22083	0.21022	0.15643	0.11835	0.13621	-2.1354	-2.9917	-2.8125	-2.9104	-2.8729	-2.6771	-3.0167	-2.8417	-2.6979	-2.8708	-2.3875	-2.7438	-2.9417	-2.6646	-3.2042	-2.8271	6.373	85.197	220.910	31.145	312.267	220.548	26.364	247.095	148.520	0.764	261.561	264.198	279.918	160.483	110.689	218.490	0.00023499	0.0017766	0.00020959	536.77	2.3209e-06	2.9271e-06	582.92	193.74	1.4965e-05	1.0994e-05	251.26	92.147	65.031	22.966	9.3401e-06	39.678	0.003116	0.003305	0.00099077	796.12	3.4791e-05	3.5651e-05	712.05	240.32	3.4485e-05	3.5953e-05	369.38	113.71	83.66	29.526	3.7506e-05	49.291	110.835	115.101	5.244	-20.586	16.342	252.239	-21.176	-14.870	-28.516	179.966	-16.559	-12.240	-10.711	-5.814	8.188	-7.906	-8191	255	
3301.921	1	1	0	0	0.053723	0.17741	0.06951	0.23648	0.070348	0.14073	0.10293	0.26224	0.083536	0.22887	0.072171	0.26458	0.08317	0.24412	0.13815	0.11901	-2.175	-2.8146	-2.6042	-2.7708	-3.0521	-2.4125	-3.0354	-2.8667	-2.6521	-3.15	-2.6833	-2.8833	-2.9542	-2.7708	-3.0271	-2.9188	306.631	20.547	157.445	208.249	-28.690	199.421	276.405	257.447	210.831	1.007	116.264	-15.570	254.960	-14.645	171.525	309.191	0.00030146	0.00080377	0.00032746	537.23	1.1982e-05	2.0279e-06	585.76	193.31	2.728e-06	1.4859e-05	250.38	92.218	64.766	23.087	1.0886e-05	39.855	0.002955	0.0033726	0.0009785	791.31	3.4903e-05	3.7896e-05	713.55	239.88	3.5424e-05	3.8757e-05	373.37	114.5	84.697	30.246	3.9945e-05	50.016	90.036	117.983	48.707	-20.656	96.325	30.940	-21.201	-14.771	-8.173	171.493	-17.078	-12.381	-10.549	-5.435	169.968	-7.769	-8191	255	
3302.018	1	1	0	0	0.20765	0.079282	0.11183	0.17174	0.15964	0.10507	0.21659	0.054217	0.15886	0.23738	0.08912	0.26005	0.20423	0.085871	0.21814	0.10832	-2.0729	-2.5812	-2.4583	-2.8312	-3.0667	-2.7708	-2.9854	-2.75	-2.5312	-2.9875	-2.625	-2.6833	-2.9938	-2.8604	-2.8854	-2.7292	240.549	211.845	298.365	83.253	-26.852	9.735	220.375	135.342	7.431	21.555	126.263	125.841	292.018	12.291	49.145	230.897	0.00041043	0.0012198	0.00026463	540.64	1.72e-05	7.261e-06	584.46	191.92	8.164e-06	1.4232e-06	250.2	92.065	65.001	22.944	5.1028e-06	39.716	0.0032263	0.0037865	0.0010452	810.65	3.9058e-05	4.3539e-05	722.37	243.48	4.1397e-05	4.6313e-05	390.06	116.84	88.046	31.288	4.7407e-05	51.18	92.315	58.142	293.456	-20.855	135.502	242.151	-21.345	-14.393	108.851	14.628	-17.341	-12.254	-10.815	-5.550	15.425	-8.141	-8191	255	
3302.089	1	1	0	0	0.13702	0.22341	0.15484	0.065795	0.17056	0.10977	0.12655	0.15649	0.19531	0.13749	0.35797	0.18683	0.052562	0.1705	0.1196	0.086895	-2.0396	-2.6479	-2.6292	-2.2938	-2.6958	-2.6437	-2.8479	-3.1437	-2.6333	-2.9146	-2.8292	-2.5146	-2.8896	-2.3771	-2.6229	-3.0812	115.296	207.399	307.069	62.557	87.241	298.208	37.144	67.758	76.658	39.739	288.896	274.422	209.144	315.206	247.156	244.855	0.00049242	0.00088804	0.00045	543.27	1.1942e-05	2.0641e-06	584.29	191.61	1.8551e-05	3.0689e-06	248.91	90.719	63.571	22.425	6.6292e-06	38.684	0.004059	0.0047197	0.0012613	861.74	4.9428e-05	5.3003e-05	739.48	248.93	5.1163e-05	5.3901e-05	403.02	117.12	89.278	31.193	4.986e-05	50.557	94.645	301.396	-5.596	-20.495	127.153	231.354	-21.293	-14.664	195.485	149.843	-16.926	-12.213	-10.950	-5.805	-8.599	-7.879	-8191	255	
3302.210	1	1	0	0	0.1572	0.27094	0.031639	0.023219	0.25301	0.15844	0.23814	0.10036	0.22966	0.16504	0.17388	0.14753	0.055561	0.04853	0.22791	0.11683	-2.0292	-2.9813	-2.725	-2.7188	-2.9979	-2.5938	-2.9833	-2.8937	-2.4167	-2.9354	-2.7417	-2.9021	-2.9104	-2.8187	-2.6208	-2.8667	127.430	195.189	113.408	90.135	163.485	121.143	121.895	152.412	325.169	324.336	18.523	53.487	313.208	25.751	91.788	37.815	0.00073676	0.0010112	0.00019867	532.5	5.2311e-06	6.8363e-06	578.61	189.71	5.4793e-06	4.0147e-06	245.52	89.809	63.115	22.438	6.5005e-06	38.679	0.0044258	0.0048362	0.0012718	858.45	5.1636e-05	5.1281e-05	726.28	244.53	4.9218e-05	4.8435e-05	384.79	114.41	87.367	30.366	4.4559e-05	49.809	71.034	104.606	29.561	-20.923	180.743	92.262	-21.339	-14.674	-13.508	82.929	-17.054	-12.347	-10.598	-5.545	104.575	-7.881	-8191	255	
3302.304	1	1	0	0	0.15942	0.24635	0.032947	0.1796	0.17876	0.11963	0.069559	0.20672	0.12474	0.074611	0.060164	0.16128	0.11035	0.13116	0.34423	0.18316	-2.1625	-2.7875	-2.9083	-2.7083	-2.9083	-2.7521	-2.7604	-2.8375	-2.6521	-2.9208	-2.9521	-2.7583	-2.8792	-2.8229	-2.4167	-2.9688	191.583	85.024	272.010	234.228	21.917	-8.272	159.654	240.591	113.179	-11.725	150.866	131.930	314.342	180.370	36.556	298.536	0.00026552	0.0020913	0.00017128	534.18	6.0779e-06	6.0856e-06	579.31	190.57	1.0576e-05	7.073e-06	246.11	90.487	63.959	22.865	6.9319e-06	39.291	0.0040737	0.0042319	0.0011103	831.66	4.7229e-05	4.517e-05	717.03	243	4.621e-05	4.4386e-05	378.16	115.45	87.797	30.396	4.1708e-05	50.384	66.077	43.696	273.973	-20.437	157.537	-5.528	-21.188	-14.478	164.394	81.767	-16.745	-12.242	-10.993	-5.539	39.828	-7.779	-8191	255	
3302.400	1	1	0	0	0.29379	0.048374	0.14757	0.10516	0.14926	0.26409	0.181	0.12542	0.20923	0.28991	0.23941	0.19527	0.2298	0.13583	0.17126	0.27417	-2.0042	-2.5792	-2.8667	-2.6917	-3.0062	-2.6521	-2.6708	-2.7958	-2.575	-2.675	-2.8312	-2.8187	-2.9771	-2.8271	-2.6521	-2.9792	47.596	97.861	-11.518	137.137	87.352	213.876	138.120	210.704	63.302	52.243	2.382	269.516	22.078	0.120	226.474	222.783	0.00031062	0.0014949	0.00051411	537.64	1.1994e-06	2.6442e-06	580.8	190.78	1.7792e-05	6.5508e-06	250.15	91.555	64.22	22.765	1.2821e-05	39.415	0.0039027	0.0040185	0.0010689	840.99	4.6691e-05	4.4703e-05	720.79	247.14	4.7236e-05	4.5941e-05	385.14	117.71	88.645	30.638	4.4514e-05	51.397	81.392	46.476	76.551	-20.049	207.302	87.274	-21.082	-14.643	11.713	-9.926	-17.024	-12.208	-10.992	-5.760	225.329	-7.921	-8191	255	
3302.497	1	1	0	0	0.14171	0.052802	0.30656	0.049075	0.171	0.28261	0.083598	0.045756	0.064891	0.077293	0.21611	0.19082	0.060169	0.18458	0.20225	0.25433	-2.0563	-2.4167	-2.7458	-2.5792	-2.8646	-2.9646	-2.8125	-2.8979	-2.5646	-2.7875	-2.9792	-2.7167	-2.6833	-3.0438	-2.7021	-3	94.255	142.415	-21.402	49.976	244.916	253.153	179.302	284.999	5.401	254.775	193.208	301.461	42.830	188.250	19.925	169.370	0.00029358	0.00066749	5.5331e-05	540.34	8.7649e-06	5.2206e-06	582.08	191.22	3.0586e-06	7.4461e-06	248.92	90.652	63.784	22.486	1.4489e-05	38.815	0.0040987	0.0042774	0.0011675	877	4.925e-05	4.7493e-05	732.87	252.19	4.9902e-05	4.8252e-05	395.72	118.61	88.792	30.545	4.8364e-05	51.366	82.745	80.046	40.847	-20.552	50.581	34.988	-21.122	-14.759	-1.641	280.908	-17.082	-12.198	-11.033	-5.853	187.523	-8.038	-8191	255	
3302.593	1	1	0	0	0.11897	0.23095	0.15469	0.041338	0.1611	0.18968	0.20241	0.10725	0.12469	0.28342	0.26016	0.086461	0.22568	0.19686	0.23391	0.13098	-2.1208	-2.6396	-2.8375	-2.4583	-2.7938	-2.9396	-2.6937	-3.0771	-2.75	-2.5333	-3.2396	-2.8146	-2.7167	-2.8271	-2.6333	-2.9833	130.106	48.756	44.789	287.491	222.932	121.819	138.439	190.443	184.429	267.259	278.906	307.121	6.140	322.529	94.383	57.131	5.3619e-05	0.00095025	0.00020555	535.78	3.0813e-06	5.8771e-06	576.83	189.3	2.0691e-06	6.7636e-06	244.57	89.618	63.064	22.486	1.3923e-05	38.123	0.0042746	0.0044539	0.0012825	897.31	5.2161e-05	5.0506e-05	737.92	254.11	5.3517e-05	5.2332e-05	411.71	119.15	90.007	30.937	5.5276e-05	51.688	146.701	22.196	136.925	-20.786	1.491	124.196	-21.263	-14.524	18.675	282.178	-16.561	-12.321	-11.187	-5.646	117.455	-8.105	-8191	255	
3302.689	1	1	0	0	0.11544	0.20464	0.21601	0.1674	0.094879	0.27445	0.20114	0.06118	0.093964	0.28302	0.21053	0.18836	0.1149	0.13992	0.1727	0.20734	-2.3479	-2.5938	-2.7188	-2.6896	-2.7042	-2.9708	-2.7396	-3.1375	-2.7146	-2.55	-2.9479	-2.8063	-2.6792	-2.7667	-2.6271	-2.9562	123.298	211.781	35.345	242.441	296.081	81.399	181.382	277.966	233.459	75.713	109.998	18.444	19.149	-24.006	291.477	9.631	0.00018981	0.00078067	0.00040485	530.51	3.6693e-06	6.2131e-06	575.3	188.77	1.6564e-05	3.8221e-06	244.61	89.566	63.423	22.538	8.8833e-06	38.713	0.0046375	0.0048447	0.0014507	913.42	5.4436e-05	5.2238e-05	742.86	251.91	5.1363e-05	5.0147e-05	407.35	117.27	88.365	30.744	5.2046e-05	50.892	112.521	116.525	134.782	-21.018	157.169	138.154	-21.143	-14.576	135.247	264.723	-16.509	-12.301	-10.983	-5.583	267.944	-7.793	-8191	255	
3302.785	1	1	0	0	0.13232	0.19098	0.24752	0.20199	0.25191	0.29939	0.18034	0.07445	0.21641	0.08318	0.20857	0.11308	0.092192	0.097269	0.081875	0.18398	-2.5333	-2.4417	-2.8917	-2.6417	-2.6688	-3.0521	-2.8312	-2.7479	-2.5375	-2.2083	-2.9854	-2.7792	-2.7313	-2.8583	-2.4042	-2.7708	-31.101	10.242	202.228	199.151	174.478	100.801	230.386	35.215	38.239	202.129	226.994	319.416	215.729	19.549	211.287	29.828	0.00023139	0.0016147	0.00011015	535.81	7.216e-06	5.6392e-06	576.46	189.73	1.3255e-05	1.064e-05	246.01	90.38	63.72	22.75	2.5529e-06	39.195	0.0039873	0.0042546	0.0012662	852.49	4.4384e-05	4.4193e-05	723.6	243.35	4.155e-05	4.3401e-05	386.79	114.64	85.504	30.099	4.4824e-05	49.865	112.713	116.292	46.970	-20.590	74.032	237.925	-21.442	-14.607	109.356	171.075	-16.561	-12.215	-11.000	-5.635	137.531	-7.848	-8191	255	
3302.881	1	1	0	0	0.12192	0.085857	0.24132	0.19957	0.162	0.16379	0.082915	0.12994	0.072526	0.12635	0.06446	0.17706	0.083601	0.019481	0.010122	0.30668	-2.375	-2.3542	-2.9021	-2.6896	-2.4958	-2.7917	-2.5729	-2.9417	-3.0354	-2.5771	-2.8688	-2.8937	-2.5708	-2.9	-2.4604	-2.5104	117.883	165.448	217.494	220.585	284.562	44.774	241.985	-24.840	207.931	124.567	278.650	-16.911	223.711	80.680	212.094	317.862	0.00026678	0.0016234	0.00018372	535.62	7.8701e-06	9.1775e-06	582.72	191.1	7.0465e-06	8.6883e-06	250.46	90.76	63.847	22.563	1.3978e-05	38.567	0.0034031	0.0038744	0.0011151	819.46	4.0188e-05	4.327e-05	724.75	243.39	4.0656e-05	4.4807e-05	387.86	115.12	85.776	30.357	4.6306e-05	49.773	108.119	143.796	21.569	-20.708	125.437	217.859	-21.193	-14.961	198.351	180.649	-16.709	-12.181	-10.972	-5.839	28.064	-7.945	-8191	255	
3303.002	1	1	0	0	0.10872	0.073532	0.31914	0.14884	0.16815	0.21858	0.065046	0.11927	0.017928	0.12275	0.0976	0.14802	0.15967	0.2422	0.075898	0.20468	-2.5375	-2.5229	-2.7708	-2.65	-2.6083	-2.9979	-2.7729	-2.4896	-2.8417	-2.5771	-2.7708	-2.7687	-2.6292	-2.8333	-2.6375	-2.475	92.349	203.977	114.382	127.396	211.643	209.861	231.855	226.853	158.028	267.637	112.982	-19.442	2.083	-26.235	302.830	259.413	0.00014708	0.00061518	0.00047666	535.53	5.4545e-06	1.3089e-05	573.82	189.03	6.517e-06	5.0211e-06	244.49	89.285	63.361	22.167	1.723e-05	38.288	0.0036928	0.0043603	0.0012014	839.84	4.4424e-05	4.8106e-05	720.95	242.7	4.282e-05	4.623e-05	379.75	112.54	84.596	29.811	4.087e-05	48.43	75.237	59.016	323.505	-20.672	161.132	199.327	-21.234	-14.454	27.360	104.911	-17.060	-12.326	-10.964	-5.827	322.582	-8.173	-8191	255	
3303.098	1	1	0	0	0.31274	0.37172	0.37877	0.053126	0.20967	0.13136	0.096456	0.20216	0.21866	0.028965	0.071446	0.14769	0.035359	0.23075	0.055877	0.21136	-2.4521	-2.3292	-2.7875	-2.7979	-2.4938	-2.9125	-2.8083	-2.6521	-2.6708	-2.6437	-2.8875	-2.8271	-2.3146	-2.7333	-2.6479	-2.8104	101.397	84.860	256.256	11.780	242.031	28.937	174.524	263.527	103.783	28.906	121.467	241.294	48.443	46.652	232.837	172.925	0.00035092	0.00088136	0.00012882	532.57	3.1372e-06	7.909e-06	572.34	188.33	1.2821e-06	5.3129e-06	245.45	89.625	62.928	22.523	1.1495e-05	38.463	0.0033844	0.0038984	0.0010378	796.69	4.0252e-05	4.2587e-05	704	236.81	4.0002e-05	4.2371e-05	368.37	111.32	84.409	29.827	3.9858e-05	48.513	77.574	108.957	-22.639	-20.401	179.743	59.350	-21.263	-14.694	126.824	169.433	-16.716	-12.349	-11.161	-5.463	77.899	-7.912	-8191	255	
3303.194	1	1	0	0	0.15471	0.26672	0.068663	0.22106	0.043976	0.14079	0.14908	0.22219	0.12348	0.22428	0.18584	0.20526	0.2632	0.22765	0.097603	0.13809	-2.5583	-2.5438	-2.5687	-2.8167	-2.4979	-2.8896	-2.6833	-2.5875	-2.9271	-2.5812	-2.8146	-3.0687	-2.5458	-2.9542	-2.8292	-2.5062	312.363	295.760	125.582	-8.067	10.395	138.130	280.640	6.537	282.292	159.442	77.483	315.101	223.380	56.694	192.650	313.240	0.00041808	0.00068535	0.00024737	532.61	1.0285e-05	3.7863e-06	576.29	188.79	9.9212e-06	1.246e-05	244.98	89.603	63.233	22.601	1.2408e-05	38.581	0.0035904	0.0039564	0.0010554	803.33	4.3342e-05	4.3584e-05	710.1	239.5	4.4381e-05	4.5254e-05	378.51	113.89	87.993	30.663	4.6749e-05	50.215	76.910	104.135	324.668	-20.476	152.504	121.820	-21.596	-14.572	230.078	35.117	-16.835	-12.230	-10.889	-5.870	-0.015	-7.834	-8191	255	
3303.290	1	1	0	0	0.17396	0.081497	0.16443	0.14845	0.052141	0.10564	0.24394	0.27203	0.24037	0.10067	0.081613	0.23351	0.13383	0.14764	0.06332	0.045407	-2.5062	-2.7083	-2.7812	-2.8542	-2.5333	-2.6542	-2.7667	-2.5938	-2.9708	-2.9854	-2.6646	-2.9729	-2.5167	-2.7479	-2.75	-2.4396	88.265	10.392	41.377	112.504	137.763	237.887	212.627	240.887	240.356	125.510	16.910	-12.576	274.255	-31.220	151.478	256.409	0.00073181	0.0014555	0.00036609	533.58	1.2007e-05	7.5766e-06	581.77	189.98	1.6525e-05	1.004e-05	244.85	90.161	64.014	22.706	1.1824e-05	38.605	0.004444	0.0047739	0.0013165	885.22	5.8582e-05	5.8312e-05	747.98	257.35	6.5025e-05	6.4278e-05	432.15	122.9	96.991	33.135	6.3398e-05	54.011	83.566	84.485	-0.121	-20.675	133.351	176.247	-21.562	-14.574	33.761	91.984	-17.348	-12.515	-10.914	-5.673	66.900	-8.188	-8191	255	
3303.385	1	1	0	0	0.24755	0.10698	0.18548	0.31785	0.10377	0.16507	0.22276	0.20656	0.19269	0.14015	0.20258	0.18705	0.044181	0.23865	0.11868	0.15064	-2.325	-2.5333	-2.3708	-2.9083	-2.7042	-2.8063	-3.0583	-2.6188	-3.0542	-2.7771	-2.7479	-2.9938	-2.7333	-2.8229	-2.9021	-2.5438	44.782	-20.571	4.302	52.687	78.421	107.431	136.897	160.477	7.982	130.864	19.031	276.620	115.609	-11.666	48.588	313.639	0.00030682	0.00053483	0.00020499	537.45	8.0056e-06	8.2687e-06	572.24	188.73	8.0446e-06	7.346e-06	242.17	88.99	63.824	22.577	1.6059e-05	38.457	0.0060307	0.0062462	0.001687	992.93	7.2948e-05	7.0088e-05	762.1	266.09	7.1516e-05	6.8414e-05	438.13	123.48	96.556	32.817	6.1067e-05	53.35	128.388	106.695	315.324	-20.284	94.395	152.328	-21.406	-14.812	-11.472	185.380	-16.867	-12.701	-11.010	-5.855	234.137	-8.266	-8191	255	
3303.481	1	1	0	0	0.25749	0.10062	0.052119	0.26463	0.32426	0.17161	0.093971	0.31627	0.14419	0.25056	0.079327	0.26867	0.021327	0.096605	0.1859	0.1046	-2.4542	-2.8729	-2.6875	-3.0354	-2.5833	-2.5187	-2.6688	-2.3583	-2.7792	-2.7438	-2.7021	-3.0417	-2.7354	-2.3375	-2.7833	-2.5354	148.144	218.626	246.966	130.502	30.898	102.925	55.215	310.826	271.951	165.182	64.691	189.037	95.239	112.928	193.319	320.819	0.00028283	0.001313	0.00019256	535.99	8.028e-06	7.9382e-06	571.24	189.5	6.9805e-06	2.6433e-06	243.43	89.594	64.082	22.97	4.8083e-06	39.085	0.0055166	0.0056792	0.0015535	964.76	6.4645e-05	6.2007e-05	746.96	261.95	6.2461e-05	6e-05	423.66	122.17	94.026	32.317	5.6737e-05	53.062	-3.900	12.550	50.362	-20.678	10.874	58.312	-21.079	-14.702	138.804	297.424	-16.661	-12.200	-11.077	-6.006	288.818	-8.257	-8191	255	
3303.601	1	1	0	0	0.31011	0.13688	0.29997	0.12386	0.03331	0.237	0.17835	0.088971	0.1185	0.13701	0.1397	0.1963	0.37236	0.342	0.10855	0.10732	-2.4146	-2.8771	-2.5125	-2.6813	-2.65	-2.7667	-3.2146	-2.6979	-2.7333	-2.7083	-2.4875	-3.1375	-2.9958	-2.5479	-2.9667	-2.7708	14.289	181.946	216.951	-5.645	162.312	26.590	231.723	20.155	-22.589	-11.112	113.416	293.147	324.182	-30.021	318.820	291.792	0.00017345	0.001575	0.00027461	530.2	1.1306e-05	7.713e-06	574.64	191.54	9.1434e-06	6.4158e-06	245.94	91.087	65.027	23.3	1.0385e-05	39.843	0.0049079	0.0050334	0.0014439	927.31	5.5798e-05	5.3382e-05	736.37	256.28	5.2798e-05	5.0708e-05	408.11	119.95	91.032	31.544	5.1807e-05	52.438	85.969	-10.031	129.179	-19.962	176.806	96.205	-21.250	-14.911	47.114	54.026	-16.555	-12.383	-10.882	-6.020	255.232	-8.254	-8191	255	
3303.698	1	1	0	0	0.2952	0.09409	0.14369	0.041674	0.31587	0.17734	0.30091	0.17233	0.082423	0.21698	0.21152	0.16304	0.2696	0.10913	0.18013	0.12977	-2.4771	-2.8729	-2.3833	-2.9042	-2.8167	-2.7229	-2.9062	-2.6521	-2.7604	-3.1417	-2.5229	-2.7708	-2.8125	-2.3208	-2.8563	-2.8229	209.617	-7.806	154.791	-12.854	100.594	161.199	212.518	21.534	-1.070	61.827	309.399	136.692	291.227	122.383	183.291	262.306	0.00049929	0.0013352	4.794e-05	541.57	6.6045e-06	8.1906e-06	577.9	193.09	4.2298e-06	1.1735e-05	248.9	92.132	66.005	23.403	1.0118e-05	40.223	0.0042843	0.0043862	0.0013044	877.29	4.8057e-05	4.6736e-05	732.37	252.54	4.7665e-05	4.6965e-05	404.8	119.64	90.704	31.582	5.1626e-05	52.324	107.638	125.225	178.796	-20.582	249.863	63.236	-21.193	-14.606	12.056	153.897	-16.891	-12.380	-11.068	-5.485	181.633	-8.174	-8191	255	
3303.794	1	1	0	0	0.16081	0.252	0.22459	0.10284	0.25367	0.017803	0.15215	0.21072	0.0053085	0.13501	0.12434	0.029804	0.14828	0.20765	0.036228	0.05854	-2.1792	-2.7021	-2.3563	-2.5938	-2.9354	-2.4146	-3.0375	-2.4771	-2.7062	-2.8667	-2.45	-2.7812	-2.9792	-2.5875	-2.8187	-2.9979	207.968	223.250	230.241	63.222	132.000	111.726	255.045	195.543	171.940	112.098	267.455	304.366	76.081	216.446	119.477	44.049	0.00012402	0.00047786	9.8651e-05	531.87	1.1696e-05	3.1642e-06	575.69	192.61	1.4126e-05	6.9273e-06	244.71	90.939	65.165	23.141	1.582e-05	39.589	0.00411	0.0043911	0.0013306	871.92	4.7415e-05	4.784e-05	731.28	249.62	4.5614e-05	4.6651e-05	395.3	116.54	88.047	30.871	4.6169e-05	50.343	62.892	10.226	67.655	-20.957	121.591	167.136	-21.308	-14.922	120.362	292.295	-16.928	-12.357	-11.221	-5.870	276.912	-8.038	-8191	255	
3303.890	1	1	0	0	0.11869	0.14031	0.15264	0.2351	0.14507	0.23436	0.057212	0.11192	0.11551	0.31615	0.12754	0.050165	0.19657	0.11632	0.20079	0.10856	-2.25	-2.8104	-2.5917	-2.8812	-2.8521	-2.4167	-2.9708	-2.8896	-2.5833	-2.8417	-2.3521	-2.7875	-2.9604	-2.5	-2.7583	-2.7729	29.463	250.936	277.042	223.818	242.371	29.873	305.536	314.715	241.869	166.845	148.078	143.588	32.108	38.282	263.944	184.174	0.00022132	0.00075426	0.0003067	535.16	8.1962e-06	1.4328e-05	575.91	193.24	3.6551e-06	8.4275e-06	248.09	91.634	65.967	23.536	2.8109e-06	39.639	0.0035064	0.0038891	0.0011268	821.37	3.9503e-05	4.2304e-05	713.66	243.44	3.8794e-05	4.1707e-05	376.96	114.29	86.459	30.899	4.1224e-05	50.019	66.405	139.537	20.048	-20.223	50.807	229.088	-21.447	-14.805	-16.012	220.172	-17.034	-12.504	-11.171	-6.004	164.248	-8.048	-8191	255	
3303.986	1	1	0	0	0.041052	0.41449	0.12743	0.20244	0.14381	0.15297	0.25151	0.22973	0.16083	0.13983	0.12307	0.11986	0.33856	0.23442	0.085453	0.11759	-2.1083	-2.8771	-2.6021	-2.6958	-3.0083	-2.6042	-2.7771	-2.8167	-2.4458	-2.9708	-2.5312	-2.8229	-2.9771	-2.7479	-2.8729	-3.0146	88.880	115.204	78.060	32.980	267.998	12.717	187.016	203.606	168.694	27.126	194.006	289.560	-12.082	209.733	124.305	45.798	0.0004715	0.00091357	5.107e-05	539.5	6.4604e-06	3.0071e-06	578.73	193.42	4.6497e-06	2.7602e-06	250.47	93	66.814	23.917	2.3065e-06	40.339	0.0033129	0.0038806	0.0010734	815.55	3.9506e-05	4.351e-05	715.63	245.02	4.0416e-05	4.445e-05	382.05	116.37	89.068	31.87	4.4875e-05	51.406	101.021	127.932	148.894	-20.969	201.706	175.124	-21.278	-14.871	286.856	76.226	-17.139	-12.255	-10.896	-6.039	313.203	-7.901	-8191	255	
#DATA ENDS
