BOXY.EXE: ISS Imagent and Oximeter Data Acquisition Program Version 0.80
Ascii Record File

#ACQ INFORMATION
2  Detector Channels 
16  External MUX Channels 
1  Auxiliary Channels 
5000  Waveform (CCF) Frequency (Hz)
1  Waveforms Skipped 
30  Waveforms Averaged 
1  Cycles Averaged 
16  Acquisitions per Waveform 
10.0806  Updata Rate (Hz) 

#FILE INFORMATION
TRUE -- External MUX Channel results are PARSED.
FALSE -- AC DC and Phase are NOT grouped.
TRUE -- Companion Program Settings File CREATED.
FALSE -- AC data not excluded
FALSE -- DC data not excluded
FALSE -- Phase data not excluded
FALSE -- Auxillary Chn. data not excluded
Tab delimiters

#CALIBRATION STATE
TRUE -- Waveform Calibration Values APPLIED.


#AUX CALIBRATION VALUES
Val Type	aux-1	

Term	1.0000e+00	
Factor	0.0000e+00	


#WF CALIBRATION VALUES
A = Detector Channel
Val Type	A-AC1	A-AC2	A-AC3	A-AC4	A-AC5	A-AC6	A-AC7	A-AC8	A-AC9	A-AC10	A-AC11	A-AC12	A-AC13	A-AC14	A-AC15	A-AC16	A-DC1	A-DC2	A-DC3	A-DC4	A-DC5	A-DC6	A-DC7	A-DC8	A-DC9	A-DC10	A-DC11	A-DC12	A-DC13	A-DC14	A-DC15	A-DC16	A-Ph1	A-Ph2	A-Ph3	A-Ph4	A-Ph5	A-Ph6	A-Ph7	A-Ph8	A-Ph9	A-Ph10	A-Ph11	A-Ph12	A-Ph13	A-Ph14	A-Ph15	A-Ph16	

Term	0.00000e+00	0.00000e+00	0.00000e+00	0.00000e+00	0.00000e+00	0.00000e+00	0.00000e+00	0.00000e+00	0.00000e+00	0.00000e+00	0.00000e+00	0.00000e+00	0.00000e+00	0.00000e+00	0.00000e+00	0.00000e+00	0.00000e+00	0.00000e+00	0.00000e+00	0.00000e+00	0.00000e+00	0.00000e+00	0.00000e+00	0.00000e+00	0.00000e+00	0.00000e+00	0.00000e+00	0.00000e+00	0.00000e+00	0.00000e+00	0.00000e+00	0.00000e+00	0.00000e+00	0.00000e+00	0.00000e+00	0.00000e+00	0.00000e+00	0.00000e+00	0.00000e+00	0.00000e+00	0.00000e+00	0.00000e+00	0.00000e+00	0.00000e+00	0.00000e+00	0.00000e+00	0.00000e+00	0.00000e+00	
Factor	1.00000e+00	1.00000e+00	1.00000e+00	1.00000e+00	1.00000e+00	1.00000e+00	1.00000e+00	1.00000e+00	1.00000e+00	1.00000e+00	1.00000e+00	1.00000e+00	1.00000e+00	1.00000e+00	1.00000e+00	1.00000e+00	1.00000e+00	1.00000e+00	1.00000e+00	1.00000e+00	1.00000e+00	1.00000e+00	1.00000e+00	1.00000e+00	1.00000e+00	1.00000e+00	1.00000e+00	1.00000e+00	1.00000e+00	1.00000e+00	1.00000e+00	1.00000e+00	X	X	X	X	X	X	X	X	X	X	X	X	X	X	X	X	

B = Detector Channel
Val Type	B-AC1	B-AC2	B-AC3	B-AC4	B-AC5	B-AC6	B-AC7	B-AC8	B-AC9	B-AC10	B-AC11	B-AC12	B-AC13	B-AC14	B-AC15	B-AC16	B-DC1	B-DC2	B-DC3	B-DC4	B-DC5	B-DC6	B-DC7	B-DC8	B-DC9	B-DC10	B-DC11	B-DC12	B-DC13	B-DC14	B-DC15	B-DC16	B-Ph1	B-Ph2	B-Ph3	B-Ph4	B-Ph5	B-Ph6	B-Ph7	B-Ph8	B-Ph9	B-Ph10	B-Ph11	B-Ph12	B-Ph13	B-Ph14	B-Ph15	B-Ph16	

Term	0.00000e+00	0.00000e+00	0.00000e+00	0.00000e+00	0.00000e+00	0.00000e+00	0.00000e+00	0.00000e+00	0.00000e+00	0.00000e+00	0.00000e+00	0.00000e+00	0.00000e+00	0.00000e+00	0.00000e+00	0.00000e+00	0.00000e+00	0.00000e+00	0.00000e+00	0.00000e+00	0.00000e+00	0.00000e+00	0.00000e+00	0.00000e+00	0.00000e+00	0.00000e+00	0.00000e+00	0.00000e+00	0.00000e+00	0.00000e+00	0.00000e+00	0.00000e+00	-1.64124e+02	-1.34331e+02	-1.17949e+02	-1.82253e+02	-7.52879e+01	-6.26450e+01	-1.59673e+02	-1.62015e+02	-8.49910e+01	-7.28985e+01	-1.73437e+02	-1.73160e+02	-1.87935e+02	-1.78155e+02	-8.18410e+01	-1.50763e+02	
Factor	2.74309e-05	2.13387e-04	5.50513e-05	1.62759e-01	1.60481e-06	1.83435e-06	1.95155e-01	6.40897e-02	1.52885e-06	1.60519e-06	1.16290e-01	3.27102e-02	3.94705e-02	9.72176e-03	1.66134e-06	1.39751e-02	3.49212e-06	3.85682e-06	1.07645e-06	8.19710e-02	4.17040e-08	4.23842e-08	9.17160e-02	3.23082e-02	4.18294e-08	4.23276e-08	5.66427e-02	1.59731e-02	1.97584e-02	4.92990e-03	4.20100e-08	6.86893e-03	X	X	X	X	X	X	X	X	X	X	X	X	X	X	X	X	



#DISTANCE SETTINGS
A = Detector Channel
A-1	A-2	A-3	A-4	A-5	A-6	A-7	A-8	A-9	A-10	A-11	A-12	A-13	A-14	A-15	A-16	

2.5000e+00	3.0000e+00	2.5000e+00	3.0000e+00	2.0000e+00	3.0000e+00	1.5000e+00	3.0000e+00	3.0000e+00	3.0000e+00	3.0000e+00	3.0000e+00	3.0000e+00	3.0000e+00	1.5000e+00	3.0000e+00	

B = Detector Channel
B-1	B-2	B-3	B-4	B-5	B-6	B-7	B-8	B-9	B-10	B-11	B-12	B-13	B-14	B-15	B-16	

1.0000e+01	1.0000e+01	1.0000e+01	1.4400e+00	1.0000e+01	1.0000e+01	1.5100e+00	1.9400e+00	1.0000e+01	1.0000e+01	1.9900e+00	2.4900e+00	2.4100e+00	2.9000e+00	1.0000e+01	2.9800e+00	




#DATA BEGINS
time	group	step	mark	flag	A-AC1	A-AC2	A-AC3	A-AC4	A-AC5	A-AC6	A-AC7	A-AC8	A-AC9	A-AC10	A-AC11	A-AC12	A-AC13	A-AC14	A-AC15	A-AC16	A-DC1	A-DC2	A-DC3	A-DC4	A-DC5	A-DC6	A-DC7	A-DC8	A-DC9	A-DC10	A-DC11	A-DC12	A-DC13	A-DC14	A-DC15	A-DC16	A-Ph1	A-Ph2	A-Ph3	A-Ph4	A-Ph5	A-Ph6	A-Ph7	A-Ph8	A-Ph9	A-Ph10	A-Ph11	A-Ph12	A-Ph13	A-Ph14	A-Ph15	A-Ph16	B-AC1	B-AC2	B-AC3	B-AC4	B-AC5	B-AC6	B-AC7	B-AC8	B-AC9	B-AC10	B-AC11	B-AC12	B-AC13	B-AC14	B-AC15	B-AC16	B-DC1	B-DC2	B-DC3	B-DC4	B-DC5	B-DC6	B-DC7	B-DC8	B-DC9	B-DC10	B-DC11	B-DC12	B-DC13	B-DC14	B-DC15	B-DC16	B-Ph1	B-Ph2	B-Ph3	B-Ph4	B-Ph5	B-Ph6	B-Ph7	B-Ph8	B-Ph9	B-Ph10	B-Ph11	B-Ph12	B-Ph13	B-Ph14	B-Ph15	B-Ph16	aux-1	digaux	

22455.396	1	1	0	256	0.078346	0.15244	0.20102	0.154	0.1431	0.1079	0.29243	0.23978	0.05317	0.074665	0.20397	0.19981	0.077846	0.12955	0.32871	0.26057	-2.1521	-2.7687	-2.9667	-2.5333	-2.9313	-2.6562	-2.6625	-3.0583	-2.5333	-2.9771	-2.8875	-2.5854	-3.0938	-2.7271	-2.5729	-3.075	233.966	200.425	473.095	217.051	441.124	356.203	170.951	403.739	407.809	411.373	485.529	393.966	183.678	485.967	322.849	291.672	0.00046889	0.00054269	0.00012194	1084.4	8.2973e-06	5.5538e-06	744.44	401.34	3.6384e-06	6.3011e-06	278.59	100.84	153.78	57.68	7.1219e-06	37.087	0.000487	0.00048422	0.00013625	1064.4	5.3223e-06	5.278e-06	732.3	394.2	5.3072e-06	5.2616e-06	274.83	99.299	151.2	57.4	5.4357e-06	37.06	156.377	224.292	249.932	146.261	266.960	342.577	143.926	151.020	261.814	233.088	147.996	152.214	155.648	161.462	257.410	157.364	-8191	255	
22455.492	1	1	0	0	0.17339	0.17567	0.086843	0.084267	0.16946	0.11674	0.24803	0.17045	0.15233	0.2487	0.21206	0.089763	0.14593	0.195	0.08979	0.24175	-1.9354	-2.4437	-2.8375	-2.6771	-2.7958	-2.7438	-2.7479	-3.0979	-2.5062	-2.8187	-2.7479	-2.5375	-2.7792	-2.8521	-2.5646	-3.0396	468.677	230.738	402.246	296.329	438.777	196.450	405.598	235.916	180.154	202.215	238.174	312.218	455.212	407.043	157.451	425.858	0.00061542	0.00042875	9.729e-05	1085.8	5.5931e-06	2.1074e-06	751.94	400.75	9.0018e-06	5.2766e-06	281.07	102.51	155.13	58.424	7.0009e-06	37.857	0.00049456	0.00048981	0.00013468	1065.5	5.3229e-06	5.2786e-06	737.96	394.38	5.3355e-06	5.2917e-06	278.64	100.98	151.98	57.979	5.4119e-06	37.839	151.737	332.637	235.367	146.274	269.496	252.580	143.537	151.072	232.684	264.254	148.126	152.200	155.931	161.578	242.177	157.021	-8191	255	
22455.611	1	1	0	0	0.2107	0.15052	0.34436	0.23947	0.14605	0.22972	0.16726	0.30757	0.26374	0.14556	0.22738	0.32131	0.13647	0.17629	0.14395	0.11683	-2.1562	-2.7667	-2.8979	-2.725	-2.8896	-2.7021	-2.5708	-3	-2.5667	-2.875	-2.8042	-2.7604	-2.7125	-3.0292	-2.6583	-2.9562	190.096	347.153	341.743	134.781	322.966	322.604	405.940	437.750	310.396	210.886	156.301	435.750	473.629	464.992	295.112	470.023	0.0005276	0.00037363	6.1321e-05	1089.2	6.1984e-06	3.2797e-06	755.81	401.59	5.0865e-06	3.4756e-06	279.92	100.83	152.94	57.467	1.032e-05	36.543	0.00048948	0.00048369	0.00013447	1068.1	5.3056e-06	5.2993e-06	742.48	394.33	5.2674e-06	5.2686e-06	275.86	99.533	150.55	57.053	5.2787e-06	36.441	147.441	212.763	152.605	146.170	246.151	248.599	144.236	151.262	244.077	256.305	148.347	152.368	155.812	161.635	288.536	156.951	-8191	255	
22455.707	1	1	0	0	0.28211	0.097388	0.19841	0.29105	0.073982	0.17986	0.22024	0.22725	0.14962	0.34832	0.19402	0.1481	0.14879	0.11166	0.13288	0.28946	-2.2438	-2.6688	-2.7687	-2.6958	-3.0479	-2.6854	-2.6604	-2.8167	-2.6688	-2.5604	-2.9083	-2.6167	-2.6896	-2.8625	-2.5875	-3.05	382.602	314.593	387.236	377.849	415.327	236.905	415.616	227.518	425.350	430.661	473.340	139.486	202.964	261.252	417.340	480.947	0.00070297	0.00076341	0.00010759	1074.2	3.3291e-06	8.6981e-06	734.83	399.82	7.9952e-06	5.2869e-06	276.59	100.06	152.72	57.522	4.4791e-06	36.792	0.00048924	0.0004777	0.00013172	1053.8	5.2494e-06	5.2826e-06	724.23	390.83	5.2898e-06	5.2551e-06	273.19	98.877	150.15	57.174	5.2923e-06	36.761	156.618	253.083	141.366	146.066	333.585	339.134	143.861	151.423	288.479	216.165	148.074	152.698	155.777	161.545	241.430	157.139	-8191	255	
22455.803	1	1	0	0	0.065587	0.1147	0.019361	0.17725	0.052471	0.16869	0.14092	0.16078	0.17653	0.21902	0.085019	0.061424	0.19037	0.1723	0.064887	0.15211	-2.1604	-2.5062	-2.9125	-2.7458	-2.725	-2.8875	-2.5854	-3.0333	-2.7729	-2.5687	-2.9229	-2.6125	-2.8833	-3.0521	-2.4229	-2.7604	452.845	399.446	421.297	335.847	382.262	475.513	151.600	415.322	196.851	272.233	352.133	371.832	380.493	419.144	206.250	371.564	0.00057986	0.00091886	0.00019747	1076.3	7.3563e-06	5.1375e-06	743.15	400.42	6.5404e-06	1.004e-06	278.96	101.15	153	58.126	5.8897e-06	37.173	0.00047684	0.00047195	0.00013032	1053.1	5.1859e-06	5.2391e-06	727.68	391.48	5.3893e-06	5.2589e-06	274.87	99.778	150.57	57.666	5.2693e-06	37.198	155.087	247.427	215.870	146.135	258.375	305.189	144.047	151.332	237.505	172.433	147.951	152.454	155.913	161.626	226.247	157.034	-8191	255	
22455.900	1	1	0	0	0.067499	0.10986	0.13335	0.31823	0.38697	0.13516	0.14689	0.19122	0.13961	0.15844	0.13755	0.31158	0.23021	0.28433	0.19511	0.21522	-2.3792	-2.5062	-2.7979	-2.775	-2.6813	-3	-2.5833	-2.95	-2.7604	-2.3875	-2.9229	-2.5625	-2.6354	-3.0229	-2.475	-2.8875	281.796	134.080	292.964	422.692	356.330	175.188	389.889	454.390	208.132	437.806	318.984	467.141	268.803	492.393	420.080	151.436	0.00063236	0.00059816	0.00020855	1071.8	4.8495e-06	2.7836e-06	746.88	398.41	5.4333e-06	3.0047e-06	282.04	102.31	153.54	58.257	3.854e-06	37.981	0.00048503	0.00048145	0.00013434	1052.1	5.2678e-06	5.338e-06	731.11	391.51	5.2946e-06	5.3643e-06	277.07	101.06	151.15	58.057	5.2611e-06	37.864	152.493	320.505	198.520	145.767	265.490	245.200	143.771	151.206	223.203	258.860	148.537	152.301	156.017	161.771	218.982	157.072	-8191	255	
22455.996	1	1	0	0	0.24475	0.17354	0.19137	0.29709	0.24765	0.27423	0.2481	0.091316	0.15017	0.23983	0.18203	0.26543	0.04203	0.072758	0.10698	0.2057	-2.3208	-2.4771	-2.85	-2.7833	-2.5042	-2.8958	-2.6688	-2.9188	-2.7021	-2.5271	-3.0917	-2.7562	-2.6479	-3.1958	-2.6958	-2.7333	201.508	424.575	311.209	429.487	206.829	468.633	431.906	162.603	398.441	371.772	442.802	149.028	486.035	461.776	344.987	296.477	0.00055274	0.00073191	0.00028539	1074.4	3.0362e-06	2.9253e-06	748.34	399.94	6.198e-06	3.4319e-06	283.46	104.43	154.44	58.66	1.144e-05	37.62	0.00048812	0.00047905	0.00013374	1053	5.2636e-06	5.3e-06	735.93	393.09	5.2878e-06	5.2536e-06	280.35	102.53	151.81	58.381	5.3179e-06	37.669	148.873	207.694	231.231	146.424	251.260	395.792	144.244	151.286	266.934	327.400	148.537	152.617	155.732	161.864	260.988	157.419	-8191	255	
22456.092	1	1	0	0	0.26213	0.26023	0.15052	0.3197	0.20411	0.10018	0.12652	0.22726	0.25224	0.33682	0.15271	0.24307	0.19834	0.079621	0.17201	0.25834	-2.4542	-2.5917	-2.7958	-2.6437	-2.4417	-2.7896	-2.5604	-2.875	-2.8604	-2.4896	-2.9813	-2.6646	-2.75	-3	-2.6542	-2.7958	453.332	333.211	398.468	487.263	245.354	266.119	402.658	439.562	344.741	490.190	460.253	353.411	140.207	367.197	330.728	401.845	0.00055313	0.00047091	0.00018976	1066.2	1.8471e-06	5.2552e-06	733.71	394.71	7.1272e-06	2.9345e-06	276.67	100.01	152.51	57.819	8.0178e-06	36.624	0.00048593	0.00047362	0.00013099	1047.4	5.1802e-06	5.1785e-06	722.54	389.09	5.2019e-06	5.138e-06	273.17	98.696	149.65	57.241	5.2112e-06	36.467	154.675	206.940	235.347	146.057	262.462	281.307	144.207	151.453	240.104	273.272	148.072	152.557	155.632	161.616	236.879	156.959	-8191	255	
22456.188	1	1	0	0	0.05679	0.032421	0.2643	0.091766	0.25519	0.19413	0.24264	0.42376	0.076923	0.12613	0.12038	0.033698	0.18135	0.03715	0.24821	0.22048	-2.3167	-2.5521	-2.7917	-2.8792	-2.6167	-2.8792	-2.7667	-2.8	-2.9	-2.5708	-2.8667	-2.9167	-2.5625	-2.9604	-2.5792	-2.5458	202.412	249.658	327.229	357.911	463.671	232.195	425.777	421.875	455.136	469.836	170.780	297.752	188.063	467.880	476.534	405.148	0.00060701	0.00042118	0.0001216	1062.9	3.1066e-06	1.0831e-05	737.04	398.37	5.4202e-06	4.7892e-06	279.95	101.24	153.14	57.897	5.8562e-06	37.005	0.00048008	0.00046963	0.00013037	1043	5.1093e-06	5.2103e-06	722.97	390.42	5.0691e-06	5.0678e-06	275.17	99.308	150.65	57.575	5.1316e-06	36.951	152.872	266.507	239.647	146.148	206.541	287.852	143.684	151.257	290.680	319.908	147.783	152.432	155.823	161.596	244.308	157.021	-8191	255	
22456.309	1	1	0	0	0.17438	0.40845	0.074123	0.072126	0.27041	0.018075	0.21116	0.15379	0.17922	0.22047	0.14072	0.28078	0.1986	0.17961	0.20551	0.14451	-2.4104	-2.3812	-2.7771	-2.8667	-2.4688	-2.9271	-2.6042	-2.8417	-2.8312	-2.6917	-2.8479	-2.8146	-2.5438	-3.1875	-2.7062	-2.4437	278.165	485.087	272.861	478.600	339.258	202.524	160.276	469.478	386.425	201.941	334.396	144.949	373.518	144.984	279.459	434.014	0.00062999	0.00021299	0.00021026	1070.3	4.9553e-06	1.5703e-06	741.54	398.47	5.7601e-06	8.1854e-06	281.43	102	153.69	58.176	4.0214e-06	37.593	0.00047354	0.00047618	0.00013082	1050.1	5.1578e-06	5.245e-06	727.12	391.51	5.2101e-06	5.2462e-06	276.82	100.65	151.26	57.969	5.328e-06	37.552	153.807	338.092	292.542	145.948	234.563	396.024	143.923	151.303	292.165	287.741	148.278	152.376	155.644	161.694	282.471	157.511	-8191	255	
22456.404	1	1	0	0	0.10695	0.053081	0.1976	0.28164	0.11086	0.2176	0.1723	0.26268	0.071345	0.2009	0.27414	0.20414	0.21248	0.048062	0.10804	0.038702	-2.4437	-2.5021	-2.7542	-2.9875	-2.5125	-3.0979	-2.9062	-2.9062	-2.9458	-2.5333	-2.7417	-2.9521	-2.4813	-2.7687	-2.8312	-2.5083	197.369	339.780	203.713	409.887	194.167	225.215	469.670	329.544	367.875	329.976	213.074	254.354	198.553	196.102	272.430	488.799	0.00054327	0.0010528	4.35e-05	1068.7	6.5977e-06	5.5468e-06	741.01	398.34	5.9903e-06	6.2058e-06	282.67	103.33	154.25	58.984	7.41e-06	38.663	0.00048458	0.0004734	0.00013545	1047	5.1974e-06	5.3099e-06	730.29	391.4	5.3093e-06	5.3026e-06	279.39	102.05	152.13	58.718	5.3899e-06	38.606	155.610	196.893	317.858	146.095	245.715	345.483	143.766	151.451	235.406	276.558	148.351	152.457	155.943	161.810	277.918	157.053	-8191	255	
22456.502	1	1	0	0	0.32786	0.27413	0.072165	0.049092	0.30192	0.078891	0.26885	0.19038	0.1567	0.20266	0.1684	0.090294	0.1815	0.092208	0.27323	0.26532	-2.5417	-2.5854	-2.6292	-3.0333	-2.5458	-2.8812	-2.7771	-2.6354	-2.8729	-2.8646	-2.7062	-2.9271	-2.5604	-2.8729	-2.7938	-2.5708	456.498	446.096	427.367	287.565	445.418	189.739	452.383	446.189	221.529	464.554	461.851	175.045	447.999	211.763	392.890	483.372	0.00060304	0.00026601	0.00015552	1073.1	7.9454e-06	3.6014e-06	751.41	397.14	6.574e-06	4.7659e-06	282.17	102.53	154.47	58.442	4.9944e-06	36.867	0.00049473	0.00049142	0.000135	1053	5.3445e-06	5.2953e-06	735.76	391.35	5.3533e-06	5.2459e-06	278.01	100.89	151.04	57.842	5.2488e-06	37.009	150.034	244.407	229.449	146.082	252.290	351.309	144.037	151.436	263.765	278.629	148.168	152.349	155.970	161.426	242.226	156.821	-8191	255	
22456.598	1	1	0	0	0.092507	0.13641	0.38606	0.1336	0.13524	0.053775	0.22534	0.10369	0.18505	0.16837	0.24911	0.14792	0.25207	0.20314	0.13826	0.15734	-2.3208	-2.7271	-2.5729	-2.9979	-2.5563	-2.7229	-2.7687	-2.5479	-2.9771	-2.5042	-2.5458	-3.0125	-2.5271	-2.7583	-2.7792	-2.4375	271.167	331.335	223.466	138.607	385.171	462.422	418.643	310.733	409.121	290.184	423.107	459.682	462.757	465.480	315.615	387.204	0.0006131	0.0006371	0.00020375	1064.9	5.9533e-06	3.2285e-06	731.71	395.35	5.5005e-06	5.8821e-07	280.44	101.52	152.62	58.17	9.366e-06	37.368	0.00048895	0.00048416	0.00013256	1044.7	5.2226e-06	5.2005e-06	721.89	388.62	5.2553e-06	5.2858e-06	275.72	100.21	150.48	57.753	5.2075e-06	37.291	150.754	225.717	268.449	146.019	281.924	219.706	144.013	151.512	281.056	256.972	148.395	152.870	156.099	161.511	237.523	157.383	-8191	255	
22456.693	1	1	0	0	0.12797	0.13537	0.10169	0.35749	0.094631	0.1817	0.23523	0.25792	0.11356	0.15394	0.12683	0.15726	0.22771	0.069855	0.32713	0.11927	-2.5479	-2.7792	-2.6021	-2.9542	-2.5229	-2.6	-2.8792	-2.3458	-2.7479	-2.8271	-2.5438	-2.9396	-2.6333	-2.5292	-2.9021	-2.4354	220.691	143.011	311.495	429.423	164.372	355.858	458.180	458.320	256.376	203.624	178.221	174.276	477.095	331.546	226.096	437.632	0.00053341	0.00098279	0.00011448	1067.2	5.2945e-06	6.3675e-06	739.94	397.03	5.4292e-06	5.1546e-06	281.27	103.34	154.11	58.628	7.3817e-06	38.008	0.00049162	0.00047582	0.00013199	1045.7	5.3083e-06	5.2556e-06	725.9	389.93	5.2392e-06	5.2385e-06	277.32	101.37	151.36	58.118	5.3874e-06	37.723	147.758	228.293	208.993	146.248	244.446	270.355	144.050	151.523	245.676	291.572	148.066	152.609	155.953	161.672	248.251	157.514	-8191	255	
22456.787	1	1	0	0	0.45308	0.1993	0.1807	0.19919	0.14822	0.015669	0.13163	0.17472	0.27203	0.1804	0.30488	0.11366	0.098207	0.13557	0.072713	0.028328	-2.1688	-2.5542	-2.5604	-2.9042	-2.5854	-2.5687	-2.8417	-2.5812	-2.7583	-2.8375	-2.5417	-2.8229	-2.7271	-2.65	-2.8229	-2.3625	375.007	481.895	417.933	421.205	371.217	335.957	312.573	467.754	427.150	346.652	433.408	224.232	319.871	156.143	390.008	264.737	0.00061646	0.00085485	0.00021453	1070.4	6.9508e-06	8.4013e-06	748.22	398.11	2.6007e-06	6.5455e-06	281.79	103.55	154.23	58.64	2.0083e-06	38.361	0.00048705	0.00047257	0.00013357	1049.5	5.364e-06	5.2391e-06	732.75	391.66	5.3373e-06	5.25e-06	279.09	102.21	151.95	58.44	5.3642e-06	38.25	147.873	196.766	213.045	146.216	265.249	269.211	143.992	151.495	238.771	320.030	148.178	152.537	156.003	161.634	270.862	157.041	-8191	255	
22456.887	1	1	0	0	0.32223	0.29666	0.1776	0.20874	0.12653	0.18203	0.20894	0.36582	0.048634	0.14205	0.084038	0.040128	0.086851	0.30187	0.08627	0.27624	-2.2062	-2.7313	-2.4562	-2.8729	-2.5938	-2.4604	-2.8333	-2.3792	-2.4854	-2.6583	-2.2125	-2.7542	-2.7562	-2.3125	-2.7958	-2.5646	330.858	451.173	458.904	434.560	234.228	349.521	442.329	462.983	439.323	359.434	400.939	242.358	139.811	143.129	262.423	412.639	0.0006282	0.00040612	0.00014123	1070.4	6.1774e-06	1.1789e-05	753.04	400.09	6.7209e-06	4.8163e-06	283.97	104.65	154.54	59.113	4.6658e-06	37.894	0.00049589	0.00048736	0.00013701	1051	5.2656e-06	5.3604e-06	739.47	393.25	5.3717e-06	5.2939e-06	282.15	103.29	152.43	58.603	5.3133e-06	37.788	153.951	179.212	281.794	146.053	311.162	283.284	143.619	151.476	265.867	271.934	148.320	152.448	155.706	161.869	221.116	157.349	-8191	255	
22457.004	1	1	0	0	0.15214	0.11215	0.19956	0.34266	0.30201	0.17307	0.37474	0.17445	0.22851	0.096787	0.1598	0.10771	0.11169	0.12762	0.24752	0.09368	-1.8125	-2.8792	-2.2646	-2.7833	-2.6292	-2.3625	-2.8708	-2.5229	-2.2687	-2.6896	-2.3833	-2.3667	-2.7583	-2.4104	-2.5917	-2.4583	268.077	215.661	333.932	436.477	461.732	259.835	410.070	374.391	295.153	156.471	446.760	480.698	274.929	451.747	435.722	152.254	0.00061001	0.00064956	0.0001757	1066	6.4408e-06	4.9247e-06	740.51	396.46	7.6636e-06	5.283e-06	276.63	100.88	153.24	57.701	7.1493e-06	36.667	0.00048679	0.00048683	0.00013655	1048	5.2498e-06	5.3203e-06	726.87	390	5.3283e-06	5.2387e-06	274.58	99.596	150.43	57.328	5.3214e-06	36.54	157.862	245.331	195.892	145.935	254.869	308.410	143.964	151.459	192.779	256.270	147.996	152.313	155.774	161.579	252.773	156.848	-8191	255	
22457.076	1	1	0	0	0.34591	0.22141	0.16562	0.33164	0.038124	0.1979	0.095827	0.1452	0.30271	0.17902	0.16987	0.094626	0.20291	0.086174	0.11281	0.18723	-1.95	-2.6896	-2.3271	-2.6354	-2.7812	-2.425	-2.8125	-2.7	-2.3854	-2.8083	-2.2917	-2.45	-2.7708	-2.2875	-2.6312	-2.475	369.115	491.580	474.893	155.599	417.938	413.326	374.030	138.935	476.085	295.681	423.838	388.304	179.026	160.154	252.260	456.146	0.00053849	0.00044989	0.0002216	1065.2	6.7497e-06	1.236e-06	737.18	396.44	7.3624e-06	4.2457e-06	280.5	101.73	153.72	57.987	4.8274e-06	37.057	0.00048691	0.00047265	0.0001353	1044.1	5.2752e-06	5.3151e-06	724.31	389.47	5.2524e-06	5.2507e-06	275.71	100.15	150.91	57.623	5.1904e-06	37.072	149.125	231.472	237.511	146.084	266.088	317.054	144.172	151.266	269.290	249.305	148.129	152.525	155.602	161.766	261.723	157.118	-8191	255	
22457.172	1	1	0	0	0.17366	0.16554	0.011569	0.076051	0.032092	0.16549	0.065916	0.11223	0.14145	0.098885	0.039068	0.088944	0.15949	0.032976	0.35385	0.12566	-1.8687	-2.625	-2.3292	-2.5687	-2.5146	-2.4854	-2.6083	-2.5687	-2.2625	-2.8042	-2.4437	-2.3229	-2.8792	-2.3917	-2.5625	-2.7021	470.596	235.576	373.048	195.882	491.625	241.892	143.422	141.524	172.422	310.881	420.555	196.836	440.974	160.266	354.876	476.381	0.00064837	0.00033809	9.3103e-05	1068.8	4.286e-06	1.5942e-06	742.74	397.03	4.4283e-06	1.0058e-05	281.32	102.52	153.09	58.283	3.0725e-06	37.454	0.00048468	0.00048873	0.00013263	1047.4	5.1821e-06	5.2648e-06	727.61	390.32	5.4364e-06	5.2112e-06	277.34	101.09	151.27	57.871	5.4568e-06	37.52	143.261	171.156	284.923	146.098	250.122	240.255	143.929	151.439	300.175	222.875	147.977	152.351	155.935	161.573	261.236	157.124	-8191	255	
22457.268	1	1	0	0	0.16795	0.081225	0.11019	0.26215	0.19014	0.25476	0.18241	0.19946	0.30377	0.091204	0.24632	0.097305	0.2223	0.079965	0.30073	0.14229	-1.6333	-2.675	-2.3104	-2.5854	-2.6333	-2.2979	-2.6958	-2.6729	-2.1875	-2.625	-2.6083	-2.3	-2.7292	-2.4875	-2.5333	-2.5354	170.528	486.693	401.796	465.577	247.758	363.542	396.258	167.042	197.115	466.783	474.536	472.947	411.279	137.770	477.490	406.458	0.00061968	0.00069349	0.00017587	1069.6	6.2552e-06	1.9099e-06	747.81	399.56	7.0115e-06	5.0544e-06	283.78	103.88	155.02	58.552	2.4427e-06	38.327	0.00048865	0.00048743	0.0001359	1050.6	5.3115e-06	5.2767e-06	734.55	392.42	5.3312e-06	5.2562e-06	279.22	102.11	152.07	58.38	5.3277e-06	38.2	148.289	256.961	288.392	146.275	271.257	278.926	144.063	151.396	225.321	304.933	148.703	152.727	156.179	161.456	313.087	157.142	-8191	255	
22457.389	1	1	0	0	0.3067	0.10833	0.22923	0.43077	0.18632	0.10372	0.28746	0.10475	0.18997	0.38271	0.22714	0.15968	0.17754	0.30979	0.15182	0.22307	-1.8729	-2.5938	-2.3896	-2.3396	-2.6292	-2.4021	-2.6604	-2.7208	-2.425	-2.675	-2.4271	-2.3729	-2.6708	-2.4354	-2.6229	-2.7229	402.837	209.400	297.072	151.316	433.580	463.844	487.735	388.106	147.186	477.021	417.884	419.575	470.160	473.093	262.950	461.364	0.00062337	0.00066146	0.000159	1072.9	3.0915e-06	5.8589e-06	750.5	397.2	4.3168e-06	7.119e-06	281.8	101.27	153.18	57.604	1.87e-06	36.309	0.00050356	0.00048484	0.00013668	1054	5.4254e-06	5.2646e-06	734.56	391.78	5.3744e-06	5.2429e-06	276.48	100.05	150.4	57.326	5.4215e-06	36.387	144.632	222.921	245.751	146.180	285.037	238.667	143.836	151.443	278.120	238.883	147.964	152.886	156.050	161.717	277.983	157.170	-8191	255	
22457.484	1	1	0	0	0.18454	0.18299	0.27075	0.18551	0.24879	0.16798	0.14567	0.25953	0.083037	0.16299	0.067742	0.12551	0.12161	0.13195	0.14991	0.17245	-1.7146	-2.6458	-2.4771	-2.3667	-2.5438	-2.2833	-2.3333	-2.7083	-2.3896	-2.6813	-2.5687	-2.3125	-2.7396	-2.3187	-2.3854	-2.5687	375.859	270.714	323.443	371.631	198.523	455.863	148.876	442.401	174.420	397.266	471.509	417.029	334.200	315.970	328.599	316.129	0.00063736	0.0010153	0.00019523	1058.6	8.2244e-06	2.5476e-06	730.56	394	8.3365e-06	6.9653e-06	276.56	100.51	152.1	57.427	5.7805e-06	36.561	0.0004956	0.00048421	0.00013231	1040.6	5.2644e-06	5.3746e-06	716.48	387.2	5.3274e-06	5.2844e-06	272.6	98.93	150.05	57.165	5.3011e-06	36.401	157.284	189.309	177.082	146.230	290.490	316.169	143.931	151.260	282.209	283.174	147.946	152.484	155.878	161.597	280.943	157.348	-8191	255	
22457.580	1	1	0	0	0.20241	0.063795	0.096806	0.10112	0.063015	0.018301	0.46288	0.16146	0.028144	0.16558	0.01315	0.039427	0.18211	0.25678	0.18315	0.054387	-1.6854	-2.3458	-2.5042	-2.4333	-2.6562	-2.4313	-2.4146	-2.8208	-2.1479	-2.5479	-2.4771	-2.2875	-2.6542	-2.4437	-2.3396	-2.9208	273.942	235.167	221.250	155.356	470.894	401.712	392.335	145.351	241.069	266.682	140.878	278.850	136.887	143.162	248.539	250.863	0.00056717	0.00044869	7.7228e-05	1060.3	8.101e-06	6.2146e-06	731.25	394.56	5.704e-06	7.2312e-06	277.98	101.55	153.26	57.879	6.7454e-06	37.188	0.00049034	0.0004891	0.00013474	1040.7	5.3019e-06	5.2356e-06	720.48	388.31	5.3578e-06	5.2301e-06	274.69	99.884	150.6	57.725	5.4354e-06	37.105	155.469	236.444	260.138	146.098	230.863	271.909	143.852	151.474	262.400	270.429	148.596	152.004	156.373	161.611	240.171	157.266	-8191	255	
22457.701	1	1	0	0	0.20975	0.044758	0.23188	0.13072	0.11118	0.13088	0.15843	0.29634	0.10937	0.29917	0.061212	0.26057	0.069891	0.32024	0.23175	0.14508	-1.9937	-2.3979	-2.6396	-2.3063	-2.6396	-2.5167	-2.3375	-2.7792	-2.4437	-2.5292	-2.7479	-2.3187	-2.6083	-2.6104	-2.2667	-2.7917	314.769	350.886	362.336	433.003	253.843	363.241	164.245	391.968	379.235	313.622	411.940	412.485	449.594	159.676	443.320	374.828	0.00064929	0.0011434	0.00011635	1062.9	3.8744e-06	6.5817e-06	739.66	395.79	3.6774e-06	7.7905e-06	281.72	102.68	154.5	58.615	7.0034e-06	37.889	0.00049349	0.00048454	0.00013811	1044.7	5.377e-06	5.2655e-06	725.69	389.44	5.3561e-06	5.3694e-06	277.91	101.46	151.76	58.329	5.4001e-06	37.97	156.119	221.873	220.856	146.098	234.133	277.111	143.786	151.317	236.346	305.007	148.275	152.198	156.323	161.526	266.753	157.157	-8191	255	
22457.773	1	1	0	0	0.34953	0.094213	0.16586	0.18928	0.14504	0.088862	0.094059	0.34822	0.18073	0.10487	0.37803	0.075973	0.27917	0.13199	0.06672	0.046661	-2.0125	-2.3792	-2.6708	-2.4771	-2.5917	-2.5854	-2.4479	-2.8812	-2.4104	-2.3604	-2.7208	-2.2208	-2.6833	-2.8667	-2.0708	-2.7687	457.259	405.926	155.687	398.038	231.081	475.051	227.293	487.340	482.937	365.162	413.857	468.949	445.759	185.165	347.362	489.377	0.00066144	0.00030732	0.00018437	1067.9	4.5035e-06	4.059e-06	751.5	397.26	4.1024e-06	5.7903e-06	284.14	104.8	155.17	58.938	2.6002e-06	38.026	0.0005048	0.00049945	0.00013912	1049.5	5.4392e-06	5.4778e-06	735.2	392.67	5.4576e-06	5.5092e-06	281.46	103.13	152.74	58.543	5.5244e-06	38.092	154.569	222.822	198.043	146.059	256.004	381.840	143.663	151.462	280.867	342.294	148.378	152.397	155.950	161.800	234.522	157.429	-8191	255	
22457.869	1	1	0	0	0.11646	0.13972	0.14652	0.076529	0.14909	0.11913	0.25492	0.15055	0.063919	0.23844	0.29552	0.24246	0.077022	0.19387	0.14366	0.27657	-1.8208	-2.1229	-2.6417	-2.4458	-2.6979	-2.5896	-2.4479	-2.8167	-2.5479	-2.3333	-2.6688	-2.4146	-2.5958	-2.9125	-2.4396	-2.675	378.740	367.556	412.277	136.948	153.334	237.052	309.865	146.027	273.746	141.617	183.592	415.278	384.976	378.622	382.127	138.791	0.00058608	0.00052329	0.00025019	1069.7	7.0805e-06	1.9356e-06	742.2	397.12	6.3401e-06	3.6151e-06	280.72	101.66	153.17	58.039	1.4776e-06	36.819	0.00050201	0.00050071	0.0001379	1048.4	5.4398e-06	5.2795e-06	727.9	390.77	5.425e-06	5.3847e-06	276.37	100.38	150.86	57.651	5.4063e-06	36.905	161.556	345.561	252.324	146.268	224.863	376.312	143.762	151.519	273.196	202.966	147.947	152.349	155.977	161.609	197.853	157.319	-8191	255	
22457.988	1	1	0	0	0.25952	0.086678	0.036863	0.21821	0.13814	0.057237	0.21543	0.31243	0.19112	0.077143	0.24448	0.067887	0.10015	0.27301	0.15962	0.10094	-2.1021	-2.1021	-2.7729	-2.525	-2.3958	-2.8479	-2.3979	-2.6583	-2.4354	-2.4	-2.8125	-2.6146	-2.475	-2.8667	-2.2438	-2.6521	184.040	477.675	464.751	416.773	444.073	437.367	478.440	433.447	316.676	173.512	236.219	370.614	151.860	479.401	373.275	239.055	0.00069952	0.00033888	0.00035078	1067.7	6.2206e-06	3.3423e-06	742.51	397.58	7.9577e-06	5.3899e-06	280.66	102.7	154.53	58.259	5.5449e-06	37.734	0.00049093	0.00048875	0.00013723	1047.8	5.3873e-06	5.3668e-06	728.38	391.18	5.4588e-06	5.347e-06	277.08	101.39	152.04	58.032	5.3606e-06	37.646	147.156	278.496	227.399	146.226	281.185	312.380	143.958	151.509	236.432	259.675	148.614	152.517	155.861	161.536	224.580	157.141	-8191	255	
22458.086	1	1	0	0	0.069708	0.012638	0.32295	0.29098	0.10207	0.18319	0.058776	0.1787	0.14473	0.25137	0.16885	0.24563	0.28231	0.47459	0.1441	0.060613	-2.1104	-2.3792	-2.6	-2.5104	-2.2812	-2.6208	-2.2625	-2.6688	-2.5687	-2.1562	-2.5875	-2.3187	-2.3333	-2.7667	-2.3063	-2.5563	158.371	480.481	181.726	481.108	343.155	404.057	340.076	197.893	361.054	302.583	487.484	169.524	451.124	447.786	150.043	471.994	0.00054598	5.8822e-05	0.00026227	1074.1	3.2437e-06	2.0221e-06	749.44	400.27	4.3927e-06	4.175e-06	282.6	104.15	155.46	58.554	7.6655e-06	37.904	0.00048492	0.0004898	0.0001366	1054.6	5.2365e-06	5.3155e-06	733.65	392.73	5.3223e-06	5.3415e-06	280.26	102.66	152.83	58.202	5.3877e-06	38.109	153.217	489.574	210.177	146.301	255.032	341.449	143.776	151.414	269.898	229.627	148.023	152.467	155.981	161.805	218.155	157.188	-8191	255	
22458.182	1	1	0	0	0.194	0.20523	0.048427	0.070509	0.31658	0.19219	0.22887	0.3389	0.15266	0.18634	0.16337	0.12254	0.22147	0.32073	0.10534	0.026126	-2.1958	-2.2729	-2.4229	-2.4688	-2.4125	-2.6583	-2.5021	-2.4938	-2.7979	-2.1396	-2.7167	-2.5312	-2.3583	-2.8708	-2.425	-2.575	469.764	416.786	364.404	165.492	144.487	386.200	156.603	485.671	356.135	134.948	166.131	155.078	349.871	475.597	311.668	482.534	0.00065156	0.0010702	0.00011982	1080.4	3.7323e-06	7.0128e-06	755.99	399.48	4.384e-06	1.8812e-06	287.67	105.58	155.81	59.7	2.6405e-06	39.342	0.00049807	0.00048554	0.00013989	1057.7	5.4343e-06	5.4103e-06	741.87	393.29	5.5548e-06	5.4686e-06	283.73	104.46	153.67	59.165	5.4164e-06	39.291	146.869	218.251	227.119	146.185	236.115	198.118	143.682	151.227	237.369	208.332	147.983	152.332	155.907	161.555	240.028	156.997	-8191	255	
22458.303	1	1	0	0	0.13181	0.12226	0.091338	0.11924	0.1532	0.026489	0.37117	0.21666	0.16322	0.059035	0.030134	0.34467	0.23972	0.28595	0.33173	0.094314	-2.2104	-2.1729	-2.8271	-2.6792	-2.1875	-2.5938	-2.5833	-2.5438	-2.6229	-2.2771	-2.7604	-2.6708	-2.4604	-2.8458	-2.3083	-2.5333	170.662	206.845	257.684	454.853	365.029	171.797	424.244	478.154	270.763	349.421	427.521	236.264	485.648	486.618	341.653	316.630	0.00066789	0.00040863	0.00020664	1081.8	8.0236e-06	8.2636e-07	759.8	398.77	4.3794e-06	3.7854e-06	284.05	104.66	154.79	58.424	7.8021e-06	37.666	0.00050544	0.00050137	0.00013847	1061.5	5.4351e-06	5.3928e-06	745.68	392.97	5.4955e-06	5.3976e-06	281.24	103.29	152.68	58.118	5.3614e-06	37.537	140.933	176.627	236.859	145.926	265.487	226.455	144.129	151.501	253.947	299.243	148.245	152.649	155.925	161.603	233.967	157.488	-8191	255	
22458.373	1	1	0	0	0.071862	0.16626	0.1563	0.17946	0.10563	0.18801	0.19473	0.045449	0.10384	0.26226	0.40088	0.010494	0.072846	0.19753	0.098397	0.11393	-2.3396	-2.3708	-2.3083	-2.7313	-2.3063	-2.7	-2.3729	-2.3729	-2.8229	-2.3917	-2.625	-2.8125	-2.1646	-2.7604	-2.3917	-2.5708	459.621	187.443	364.278	459.682	228.540	306.472	491.084	338.613	349.395	273.292	422.395	465.730	146.086	230.133	323.914	167.564	0.00059094	0.00055925	7.8398e-05	1071.6	6.4051e-06	4.2014e-06	746.26	396.78	2.8682e-06	2.551e-06	279.04	103.89	155.53	58.347	6.0636e-06	37.746	0.00049442	0.00048701	0.00013404	1048.3	5.4554e-06	5.3222e-06	730.11	390.18	5.4353e-06	5.3118e-06	277.25	102.62	152.72	58.054	5.3437e-06	37.785	153.496	235.370	395.962	145.818	240.128	314.300	143.711	151.496	181.029	321.020	148.479	151.968	155.776	161.385	245.004	157.239	-8191	255	
22458.469	1	1	0	0	0.26664	0.36149	0.15188	0.18298	0.229	0.13567	0.066234	0.26677	0.029427	0.29605	0.13134	0.20754	0.1121	0.1629	0.26211	0.12235	-2.1083	-2.3021	-2.525	-2.6979	-2.2396	-2.7875	-2.5687	-2.525	-2.9375	-2.4188	-2.4479	-2.8396	-2.3917	-2.6312	-2.6417	-2.4562	382.326	151.145	414.763	443.605	162.774	153.709	375.847	474.225	241.878	167.749	415.462	383.785	247.240	226.202	491.993	325.711	0.00059754	0.00058411	0.00013911	1074.5	8.0248e-06	6.6061e-06	753.69	398.52	4.4231e-06	9.2482e-06	286.68	105.46	156.25	58.996	2.6355e-06	38.748	0.00049052	0.00048659	0.00013509	1054.4	5.3317e-06	5.3141e-06	739.91	392.87	5.3718e-06	5.3904e-06	282.17	104.1	153.77	58.731	5.3488e-06	38.566	149.744	227.985	260.587	146.136	274.807	321.946	143.936	151.364	271.556	257.484	148.261	152.580	156.048	161.511	284.200	157.024	-8191	255	
22458.566	1	1	0	0	0.13957	0.068529	0.17005	0.20119	0.39208	0.073057	0.28946	0.08052	0.12337	0.13931	0.16934	0.38346	0.078714	0.16796	0.040789	0.16402	-2.1729	-2.3521	-2.5146	-2.5667	-2.3458	-2.4375	-2.6562	-2.3771	-2.7625	-2.3104	-2.3063	-2.7396	-2.4604	-2.65	-2.7438	-2.5312	226.806	280.882	277.076	465.305	407.626	390.280	449.853	316.838	428.403	407.253	401.156	388.223	476.408	488.981	243.826	157.332	0.00058717	0.00019252	0.0001609	1079.1	2.9063e-06	3.0776e-06	763.17	401.16	8.137e-06	3.3371e-06	290.5	107.81	157.97	59.791	7.3085e-06	39.8	0.00050179	0.00048099	0.00013875	1059.4	5.3869e-06	5.3518e-06	747.7	395.28	5.4935e-06	5.3268e-06	285.1	105.87	155.13	59.4	5.5445e-06	39.543	151.444	152.903	225.622	146.068	405.543	191.070	144.214	151.282	238.591	284.775	148.419	152.506	155.748	161.788	251.019	157.123	-8191	255	
22458.684	1	1	0	0	0.14604	0.20026	0.29385	0.16186	0.13031	0.12437	0.20513	0.22128	0.069599	0.22058	0.073139	0.028082	0.3167	0.21663	0.3046	0.10079	-2.4583	-2.5563	-2.4354	-2.8229	-2.4625	-2.6354	-2.5396	-2.2958	-2.6813	-2.6771	-2.3292	-2.6167	-2.3438	-2.5	-2.7938	-2.3104	312.982	209.917	147.771	470.577	449.806	313.524	456.335	446.584	159.356	233.238	372.697	267.255	262.361	136.252	364.150	379.368	0.00066219	0.00050439	0.00019978	1087.1	5.1643e-06	2.0787e-06	768.2	401.31	5.101e-06	2.1677e-06	292.62	109.87	158.31	60.237	6.2898e-06	39.566	0.00049933	0.00049023	0.00013979	1066.6	5.3274e-06	5.4839e-06	753.2	396.97	5.461e-06	5.4978e-06	288.49	107.72	156	59.913	5.5002e-06	39.528	148.017	247.750	271.694	145.960	272.896	267.463	143.876	151.264	281.822	242.748	148.284	152.449	155.791	161.820	243.522	157.153	-8191	255	
22458.781	1	1	0	0	0.073283	0.26284	0.01633	0.095356	0.22067	0.11696	0.04886	0.16846	0.076553	0.13154	0.14518	0.26572	0.15685	0.098256	0.12238	0.18929	-2.1896	-2.6167	-2.4354	-2.8958	-2.375	-2.4375	-2.8375	-2.5583	-2.85	-2.675	-2.1896	-2.7854	-2.5229	-2.5417	-2.6625	-2.2708	422.277	292.911	460.863	342.415	441.401	365.693	480.738	486.988	362.321	217.368	296.706	462.044	197.515	435.315	160.441	269.075	0.00056878	0.00085851	3.4061e-05	1077.5	4.7227e-06	1.9238e-06	760.15	400.88	4.5633e-06	2.6772e-06	286.52	105.75	156.85	59.015	6.0251e-06	38.212	0.0005086	0.00049259	0.00014155	1059.9	5.4039e-06	5.4216e-06	743.51	394.33	5.4345e-06	5.4234e-06	282.7	104.17	154.2	58.703	5.5592e-06	38.138	152.908	165.018	196.687	146.269	267.409	342.646	143.709	151.441	179.874	152.689	147.864	152.696	155.851	161.696	221.587	156.919	-8191	255	
22458.877	1	1	0	0	0.26859	0.21186	0.14965	0.38417	0.087551	0.1602	0.23296	0.17629	0.10213	0.25002	0.18732	0.11716	0.17447	0.20621	0.15554	0.15158	-2.1063	-2.5938	-2.3958	-2.7729	-2.4271	-2.4313	-2.7188	-2.4062	-2.6	-2.5875	-2.425	-2.725	-2.5667	-2.5771	-2.7833	-2.5875	462.630	421.608	453.058	154.051	402.076	314.620	385.344	378.934	305.971	356.258	153.821	177.427	190.323	479.035	382.399	418.619	0.00053153	0.00070605	0.00015681	1073.3	6.7362e-06	3.392e-06	751.11	399.93	3.6714e-06	4.1137e-06	287.87	106.39	157.68	59.498	4.8547e-06	38.64	0.00049034	0.00049208	0.00013857	1054.4	5.3595e-06	5.4187e-06	739.35	394.15	5.38e-06	5.3877e-06	283.34	104.95	154.73	59.183	5.5395e-06	38.774	147.914	224.511	264.460	145.917	276.929	260.259	143.615	151.468	259.299	227.408	147.975	152.621	155.837	161.743	268.615	156.864	-8191	255	
22458.973	1	1	0	0	0.034008	0.057368	0.02693	0.278	0.15417	0.083921	0.20973	0.18431	0.29233	0.25387	0.050867	0.21004	0.05495	0.32922	0.15283	0.25733	-2.0625	-2.5583	-2.3	-2.7771	-2.3937	-2.4229	-2.8	-2.6021	-2.7875	-2.6896	-2.3042	-2.6708	-2.5083	-2.4542	-2.775	-2.4938	147.932	470.589	277.586	434.764	322.583	175.720	415.390	355.639	341.512	313.542	364.388	331.505	177.449	448.596	254.829	354.857	0.00067555	0.00055279	0.00017222	1077.8	2.8553e-06	4.79e-06	753.78	399.03	7.1773e-06	2.129e-06	286.84	106.88	157.73	60.051	7.7533e-06	39.617	0.00050389	0.00049981	0.000142	1056.5	5.4763e-06	5.4402e-06	742.26	393.51	5.4916e-06	5.5611e-06	284.04	105.74	155.41	59.714	5.5728e-06	39.452	154.983	230.271	278.730	145.923	208.180	288.670	143.731	151.386	280.957	316.717	148.342	152.331	155.941	161.752	214.860	157.266	-8191	255	
22459.068	1	1	0	0	0.17649	0.13774	0.1332	0.20491	0.035684	0.16551	0.18535	0.34178	0.22793	0.10774	0.18479	0.28491	0.22864	0.35254	0.21787	0.038069	-2.1875	-2.6646	-2.2438	-2.7354	-2.3583	-2.2792	-2.7521	-2.4313	-2.4854	-2.5604	-2.3208	-2.7188	-2.6792	-2.3812	-2.6229	-2.5083	136.769	395.856	186.202	448.401	281.154	185.202	413.453	401.631	249.514	263.860	159.169	188.853	136.909	389.476	370.169	437.161	0.00061721	0.00061211	0.000189	1077.4	3.2071e-06	6.203e-07	760.77	401.94	5.8018e-06	3.0042e-06	289.57	108.45	158.44	60.761	3.0411e-06	40.186	0.00050906	0.00051289	0.00014324	1056.4	5.4643e-06	5.6062e-06	746.19	395.1	5.5117e-06	5.5573e-06	286.34	107.05	155.79	60.237	5.6118e-06	40.115	151.712	296.926	220.965	146.008	283.452	313.359	143.557	151.610	286.004	275.245	148.321	152.824	155.904	161.510	205.768	157.111	-8191	255	
22459.164	1	1	0	0	0.09095	0.16861	0.13821	0.054884	0.1468	0.096408	0.43559	0.028691	0.19958	0.056508	0.18074	0.053447	0.35156	0.21203	0.39633	0.031794	-1.9042	-2.4771	-2.35	-2.6437	-2.5604	-2.2354	-2.6875	-2.6708	-2.1437	-2.5083	-2.3458	-2.5687	-2.6042	-2.3875	-2.6792	-2.3229	254.831	325.776	462.381	159.530	295.134	273.164	401.166	379.288	340.748	358.390	308.928	386.780	468.754	462.550	341.117	386.243	0.00062537	0.00084134	0.00022094	1079.8	1.1934e-06	2.7686e-06	763.46	402.1	3.5769e-06	5.1219e-06	288.06	106.64	157.58	59.278	3.8514e-06	38.419	0.00051229	0.0005083	0.00014346	1059.1	5.5666e-06	5.5631e-06	748.32	394.36	5.5465e-06	5.4732e-06	283.74	105.23	154.69	59.176	5.4681e-06	38.417	151.368	211.683	224.545	146.265	137.008	328.109	143.773	151.456	280.467	295.861	148.656	152.558	155.758	161.675	287.776	156.971	-8191	255	
22459.262	1	1	0	0	0.13483	0.068405	0.26747	0.29751	0.041676	0.4699	0.15128	0.12195	0.12084	0.082268	0.22458	0.17278	0.070623	0.199	0.16207	0.2537	-1.975	-2.7167	-2.2667	-2.6979	-2.5896	-2.3438	-2.7854	-2.7125	-2.2229	-2.7438	-2.4292	-2.5375	-2.7021	-2.4042	-2.6708	-2.5771	387.178	281.548	460.461	459.763	399.480	365.778	455.265	367.610	398.153	422.986	335.036	322.885	256.394	470.205	338.455	364.984	0.00062227	0.00058967	0.00025935	1070.4	8.065e-06	1.2822e-06	746.79	396.74	7.4112e-06	4.3559e-06	283.83	106.05	157.58	59.388	6.5014e-06	38.71	0.00050973	0.00050323	0.00013649	1048.9	5.4685e-06	5.5582e-06	732.88	390.44	5.5244e-06	5.4006e-06	280.14	104.48	154.2	59.015	5.3918e-06	38.542	150.762	257.499	212.552	146.119	294.175	290.015	143.763	151.573	251.656	275.155	148.271	152.636	155.810	161.774	227.080	156.989	-8191	255	
22459.383	1	1	0	0	0.19829	0.24464	0.17248	0.31495	0.15172	0.12016	0.062609	0.16864	0.24446	0.1305	0.15014	0.32708	0.11854	0.249	0.12558	0.10173	-1.8104	-2.7583	-2.3708	-2.4333	-2.5875	-2.3312	-2.5187	-2.5521	-2.2833	-2.625	-2.4208	-2.5125	-2.7062	-2.5208	-2.375	-2.7562	215.122	417.467	147.233	167.246	144.171	138.805	440.931	450.004	146.323	397.757	394.320	389.078	383.596	271.883	297.049	418.628	0.00057699	0.00024572	0.00022422	1069	3.2397e-06	7.2428e-06	745.37	396.49	5.1412e-06	3.0993e-06	284.03	106.47	157.1	59.807	8.0533e-06	39.353	0.00050455	0.00049761	0.00013851	1049.7	5.4977e-06	5.5224e-06	734.27	391.32	5.5395e-06	5.4711e-06	281.65	105.2	154.74	59.611	5.5371e-06	39.264	154.045	179.129	245.733	146.122	234.401	219.004	143.709	151.227	233.474	273.589	148.390	152.750	155.930	161.524	268.631	157.106	-8191	255	
22459.479	1	1	0	0	0.28996	0.12269	0.29014	0.10141	0.13229	0.20635	0.068697	0.22558	0.18246	0.16511	0.18824	0.14616	0.29934	0.10495	0.29562	0.17384	-1.8083	-2.7917	-2.2479	-2.5229	-2.6562	-2.2833	-2.5479	-2.675	-2.2438	-2.6646	-2.5146	-2.5979	-2.8917	-2.4542	-2.4625	-2.7604	455.793	399.770	236.644	457.941	349.619	334.145	418.010	459.516	300.769	480.607	462.033	403.273	418.283	336.104	214.712	464.808	0.00060268	0.00092262	0.0002034	1071	7.9923e-06	4.5209e-06	754.24	398.19	5.6222e-06	4.4894e-06	287.8	108.56	158.57	60.726	8.6174e-06	40.409	0.00051168	0.00049352	0.00014032	1051.8	5.5119e-06	5.4711e-06	742.97	392.89	5.5404e-06	5.4181e-06	284.57	107.13	155.93	60.292	5.597e-06	40.21	153.911	213.082	249.935	146.184	284.008	237.669	144.066	151.325	288.319	241.610	148.443	152.429	155.909	161.656	281.465	157.180	-8191	255	
22459.574	1	1	0	0	0.24527	0.17339	0.104	0.18714	0.14863	0.11027	0.046942	0.30121	0.12496	0.20593	0.36561	0.22097	0.17478	0.051674	0.46897	0.12555	-1.7667	-2.7958	-2.5771	-2.475	-2.6375	-2.2229	-2.5271	-2.5667	-2.1937	-2.7812	-2.4708	-2.5729	-2.9542	-2.4396	-2.5146	-2.7667	179.060	374.568	292.649	461.489	284.588	343.072	390.744	477.029	175.803	272.801	473.307	487.506	220.965	308.927	433.714	479.334	0.00063346	0.00060183	0.00023039	1078	4.5346e-06	2.5327e-06	761.68	401.3	6.5452e-06	5.8783e-06	289.65	109.99	159.28	60.735	3.8865e-06	39.91	0.00051129	0.00050128	0.00013862	1056.9	5.5212e-06	5.4593e-06	748.98	395.56	5.5536e-06	5.4952e-06	287.94	108.69	156.39	60.363	5.5049e-06	39.832	154.892	176.089	224.244	146.179	292.095	303.269	143.863	151.172	260.986	272.514	148.239	152.691	156.050	161.650	276.959	156.821	-8191	255	
22459.670	1	1	0	0	0.11577	0.21127	0.24974	0.24673	0.11065	0.091101	0.1237	0.085615	0.24948	0.038993	0.084085	0.1372	0.23124	0.34103	0.14088	0.21172	-1.7771	-2.4479	-2.6146	-2.3688	-2.525	-2.4729	-2.6021	-2.8271	-2.4104	-2.5896	-2.7458	-2.2104	-2.7083	-2.6271	-2.6354	-2.7583	238.934	220.241	464.781	182.351	285.068	369.917	361.526	424.797	399.226	150.757	176.315	151.646	441.433	140.395	399.362	393.308	0.00059248	0.00069753	0.00022541	1076.6	3.644e-06	1.6397e-06	744.94	395.86	6.1978e-06	4.8036e-06	284.77	106.65	157.33	59.356	7.2869e-06	38.495	0.00050823	0.00049064	0.00014052	1053.7	5.5112e-06	5.3976e-06	736.14	391.25	5.5577e-06	5.3756e-06	281.4	105.19	154.57	59.227	5.525e-06	38.476	149.108	208.176	233.426	145.958	248.148	387.635	143.785	151.371	243.264	238.228	147.926	152.262	155.714	161.723	249.077	157.280	-8191	255	
22459.768	1	1	0	0	0.30488	0.082105	0.18428	0.20959	0.0097337	0.01977	0.053512	0.14753	0.10643	0.23572	0.20592	0.25432	0.17951	0.2136	0.086571	0.16196	-2.025	-2.4938	-2.6167	-2.5354	-2.5458	-2.4104	-2.5062	-2.7083	-2.4896	-2.525	-2.7771	-2.2333	-2.8021	-2.7313	-2.45	-2.7833	299.479	289.275	379.063	424.650	332.136	336.533	259.260	448.795	211.287	260.697	364.863	371.325	375.123	485.387	181.247	425.955	0.00064772	0.00082237	0.00021122	1068.7	4.6399e-06	5.8062e-07	747.31	398.23	3.219e-06	9.1903e-06	285.9	108.2	157.11	60.446	4.5284e-06	39.746	0.00050471	0.00049425	0.00013877	1044.8	5.4349e-06	5.4809e-06	733.5	391.1	5.5231e-06	5.4718e-06	282	106.28	155.03	59.961	5.6042e-06	39.67	156.361	197.047	247.392	146.100	315.529	330.934	143.785	151.311	261.793	255.696	148.487	152.350	155.856	161.637	257.630	157.040	-8191	255	
22459.861	1	1	0	0	0.13987	0.42232	0.17788	0.30497	0.033653	0.040361	0.12609	0.17669	0.26233	0.1042	0.1355	0.11012	0.11862	0.22617	0.28754	0.060383	-1.8583	-2.3312	-2.6458	-2.3479	-2.6	-2.6708	-2.4625	-2.7917	-2.4021	-2.4667	-2.6813	-2.3833	-2.7479	-2.6479	-2.3333	-2.8354	248.574	163.628	160.612	475.026	489.709	167.202	135.480	489.186	448.981	208.319	359.005	187.944	425.363	478.339	231.999	287.958	0.00063233	0.00035012	0.0001875	1062.9	4.2158e-06	7.5625e-06	747.99	395.07	2.8341e-06	7.6054e-06	287.74	109.29	158.63	61.201	4.5281e-06	40.591	0.00051093	0.00049858	0.00014249	1040.7	5.4407e-06	5.4385e-06	735.53	388.69	5.4898e-06	5.5962e-06	284.69	108.08	155.94	60.879	5.6326e-06	40.542	154.619	187.713	245.813	146.150	278.051	294.815	144.008	151.662	223.735	248.592	148.453	152.462	155.809	161.692	258.653	157.020	-8191	255	
22459.982	1	1	0	0	0.11894	0.1724	0.077696	0.34963	0.36574	0.063031	0.13031	0.21659	0.067444	0.24948	0.48727	0.1867	0.24824	0.13464	0.32768	0.088374	-2.1167	-2.3625	-2.5187	-2.4375	-2.5458	-2.7313	-2.4208	-2.8854	-2.3979	-2.5833	-2.7375	-2.4146	-2.65	-2.6396	-2.3083	-2.8312	439.269	406.828	412.590	439.692	292.754	341.057	424.515	190.011	405.268	368.939	385.507	369.639	212.829	446.296	492.520	158.895	0.00070902	0.00056186	0.00017091	1065.2	4.7405e-06	3.8864e-06	756.65	396.61	4.8081e-06	5.222e-06	292.15	111.4	159.72	61.879	5.0971e-06	41.67	0.00051584	0.00050614	0.00014357	1045.2	5.5341e-06	5.6862e-06	741.87	391.01	5.5474e-06	5.6774e-06	287.84	109.72	157.15	61.445	5.6791e-06	41.613	155.020	200.482	233.555	145.937	264.166	336.485	144.210	151.599	312.104	324.890	148.472	152.627	155.912	161.811	237.510	157.160	-8191	255	
22460.078	1	1	0	0	0.25991	0.092901	0.14016	0.14467	0.088676	0.12764	0.056261	0.18677	0.063008	0.15383	0.215	0.12898	0.070111	0.2869	0.039715	0.16798	-1.975	-2.3521	-2.7687	-2.3563	-2.5812	-2.675	-2.2938	-2.7812	-2.6583	-2.4375	-2.7812	-2.4583	-2.625	-2.8479	-2.2417	-2.5	206.709	247.432	306.441	482.997	416.802	261.286	276.801	140.463	449.163	313.436	468.265	410.772	462.699	153.385	380.652	278.797	0.00071203	0.00075393	8.4548e-05	1073.7	6.8852e-06	7.1899e-06	764.19	399.39	7.0883e-06	3.4945e-06	288.88	109.73	158.04	60.777	4.913e-06	39.644	0.00051782	0.00051513	0.00014417	1049.6	5.6525e-06	5.6555e-06	748.3	392.22	5.6188e-06	5.617e-06	286.11	108.16	156.09	60.483	5.6195e-06	39.809	151.488	227.739	217.159	146.038	258.828	292.868	143.882	151.336	267.050	335.954	148.486	152.561	155.895	161.860	228.948	156.858	-8191	255	
22460.174	1	1	0	0	0.21128	0.058298	0.098885	0.20813	0.11185	0.091718	0.07857	0.12888	0.070437	0.23014	0.07674	0.15473	0.19783	0.063434	0.028405	0.066133	-2.0583	-2.4167	-2.6792	-2.4938	-2.4896	-2.6833	-2.4167	-2.75	-2.4354	-2.2188	-2.6063	-2.4792	-2.4833	-3.0938	-2.1979	-2.7313	230.170	440.136	442.796	135.160	410.304	137.866	425.332	268.651	140.343	303.471	176.982	459.185	455.180	234.264	219.420	271.629	0.00063281	0.00041118	0.0001576	1062.9	4.1465e-06	6.8564e-06	744.64	394.1	7.4032e-06	6.9339e-06	286.48	109.3	158.69	60.753	2.7348e-06	40.251	0.00050924	0.00051227	0.00014013	1044	5.4898e-06	5.5832e-06	735.01	389.51	5.5571e-06	5.5277e-06	284.08	107.44	156.21	60.384	5.5141e-06	40.089	149.065	178.968	264.407	146.040	302.013	298.568	144.090	151.214	310.620	256.581	148.297	152.479	156.046	161.727	214.115	157.043	-8191	255	
22460.246	1	1	0	0	0.31957	0.23631	0.047621	0.2617	0.19982	0.26939	0.14947	0.056418	0.19456	0.20212	0.24035	0.098659	0.26796	0.17907	0.27428	0.18956	-2.1521	-2.225	-2.5417	-2.6646	-2.2521	-2.9271	-2.4313	-2.7917	-2.6479	-2.4958	-2.775	-2.6229	-2.4292	-2.8438	-2.4021	-2.675	252.969	304.234	190.220	398.932	401.958	206.257	384.020	441.291	375.525	261.524	384.205	151.798	139.950	407.192	290.087	184.734	0.00062677	0.00041429	0.00024099	1066.9	7.8459e-06	4.575e-06	752.95	397.32	7.6718e-06	5.5208e-06	288.14	109.75	159.25	61.195	1.0335e-05	40.208	0.00051262	0.00050138	0.00013965	1047	5.5557e-06	5.5997e-06	740.11	391.88	5.6109e-06	5.6204e-06	285.07	108.08	156.05	60.44	5.6103e-06	40.091	156.274	241.438	231.832	146.348	314.044	310.997	144.030	151.388	256.951	266.530	148.421	152.140	155.926	161.899	268.370	157.152	-8191	255	
22460.365	1	1	0	0	0.15794	0.085584	0.10486	0.2456	0.21781	0.088389	0.2786	0.15198	0.13445	0.11941	0.18024	0.20173	0.008541	0.19758	0.13269	0.16463	-2.2646	-2.325	-2.5229	-2.6312	-2.2792	-2.6417	-2.3646	-2.5146	-2.7542	-2.3021	-2.5312	-2.7146	-2.4667	-2.8417	-2.4396	-2.4792	148.897	343.612	472.791	387.599	265.993	136.739	361.705	392.324	137.523	445.179	413.102	142.081	171.351	231.142	268.696	485.541	0.00060993	0.00024715	0.00023395	1074.8	6.446e-06	1.3355e-06	757.24	398.42	4.4629e-06	5.7113e-06	292.12	109.89	158.99	61.379	5.5671e-06	40.934	0.0005174	0.00051613	0.0001396	1054.3	5.5952e-06	5.617e-06	744.78	392.84	5.5951e-06	5.5862e-06	287.41	108.6	156.89	60.818	5.5395e-06	40.645	151.808	425.390	274.822	146.163	280.443	325.320	143.807	151.360	265.581	316.800	148.452	152.707	156.023	161.550	282.445	157.427	-8191	255	
22460.463	1	1	0	0	0.15871	0.28148	0.11075	0.31688	0.095965	0.15409	0.016886	0.20775	0.12786	0.12808	0.12052	0.1813	0.23638	0.019267	0.24027	0.35252	-2.2729	-2.1583	-2.3792	-2.6875	-2.1813	-2.7917	-2.7	-2.4708	-2.7938	-2.375	-2.7479	-2.5042	-2.2938	-2.7562	-2.275	-2.4875	140.984	152.917	197.011	454.439	281.939	322.045	291.818	312.573	396.182	425.646	379.091	189.378	198.991	418.802	306.733	447.276	0.00065534	0.00086221	0.00020815	1082.4	6.4479e-06	6.2473e-06	766.66	401.94	8.3471e-06	1.1556e-06	295.43	112.15	160.99	61.484	7.8925e-06	40.25	0.00052195	0.00050234	0.00014153	1061.3	5.5508e-06	5.5692e-06	752.44	396.84	5.5452e-06	5.5233e-06	291.07	110.09	158.03	61.101	5.5437e-06	40.26	154.842	224.049	264.671	146.240	270.152	288.649	144.082	151.547	232.716	237.587	148.430	152.819	156.079	161.260	262.084	157.025	-8191	255	
22460.559	1	1	0	0	0.1039	0.20036	0.073498	0.25782	0.062245	0.14226	0.3518	0.13166	0.097458	0.25206	0.051128	0.11745	0.13812	0.11037	0.30605	0.17966	-2.1333	-2.2854	-2.5729	-2.9313	-2.3187	-2.7292	-2.7292	-2.3479	-2.8208	-2.4437	-2.5854	-2.7146	-2.3354	-2.6208	-2.3875	-2.4917	475.137	214.710	293.708	439.571	469.553	285.557	439.447	426.144	357.076	422.260	436.756	420.164	342.528	434.876	425.219	151.689	0.00061095	0.0008328	6.1488e-05	1074.6	4.3634e-06	7.1641e-06	757.89	398.59	3.4978e-06	6.6223e-06	287.42	108.12	157.93	59.973	7.3219e-06	38.898	0.00051428	0.00050037	0.00013956	1056.2	5.3964e-06	5.3627e-06	742.61	394.23	5.4149e-06	5.2962e-06	284.11	106.46	155.77	59.684	5.435e-06	38.903	152.198	278.245	275.358	146.051	279.675	274.523	143.927	151.357	216.319	310.227	148.252	152.388	155.626	161.695	253.518	157.152	-8191	255	
22460.654	1	1	0	0	0.11222	0.29201	0.14187	0.25501	0.24816	0.050762	0.21412	0.33456	0.14107	0.3419	0.26679	0.2844	0.22859	0.17477	0.12858	0.16093	-2.0708	-2.5125	-2.5083	-2.6937	-2.2583	-2.675	-2.6375	-2.3854	-2.7104	-2.4562	-2.4479	-2.7146	-2.3729	-2.575	-2.6562	-2.3333	264.853	346.164	395.040	137.352	365.101	232.984	289.807	481.159	145.158	155.215	481.424	441.945	386.894	144.092	442.591	156.437	0.00057666	0.00018817	0.00016929	1071.9	6.5608e-06	7.6216e-06	751.18	400.93	7.6722e-06	1.8541e-06	287.56	109.07	159.16	60.563	3.2363e-06	39.724	0.00049021	0.00048924	0.0001388	1053.9	5.4183e-06	5.3206e-06	739.02	393.91	5.3818e-06	5.3593e-06	284.68	107.35	156.62	60.18	5.4592e-06	39.568	151.315	192.814	247.324	146.109	280.488	275.450	143.859	151.427	255.572	287.354	148.495	152.805	155.899	161.431	260.452	157.332	-8191	255	
22460.773	1	1	0	0	0.10871	0.063428	0.3774	0.17897	0.062176	0.19783	0.24715	0.055245	0.48124	0.27481	0.33831	0.1841	0.30041	0.38708	0.23948	0.20356	-2.2	-2.4729	-2.4208	-2.8167	-2.2667	-2.4458	-2.7417	-2.4333	-2.6875	-2.5563	-2.4042	-2.6583	-2.2875	-2.5021	-2.9521	-2.1125	341.389	279.974	257.545	379.318	146.636	381.780	138.942	441.747	341.450	203.004	212.655	164.692	476.622	475.282	137.960	338.874	0.00070979	0.00075628	5.9858e-05	1076.1	7.5368e-06	5.6471e-06	758.48	402.65	5.3752e-06	4.0543e-06	290.3	110.31	160.13	61.034	6.3922e-06	40.375	0.00051189	0.00047709	0.00013682	1058.4	5.3079e-06	5.3943e-06	745.05	396.43	5.4169e-06	5.4315e-06	286.93	108.55	157.69	60.721	5.4657e-06	40.304	153.223	230.393	191.223	146.147	273.550	295.449	144.096	151.354	280.076	258.609	148.372	152.714	155.907	161.532	291.769	156.988	-8191	255	
22460.869	1	1	0	0	0.071959	0.13303	0.13543	0.2563	0.11757	0.049513	0.22761	0.092693	0.2796	0.10172	0.061212	0.095988	0.26058	0.26521	0.15183	0.28606	-2.1354	-2.4167	-2.1354	-2.6813	-2.3042	-2.4396	-2.6042	-2.4396	-2.6312	-2.3875	-2.2354	-2.6292	-2.2792	-2.5125	-2.725	-2.2729	332.452	327.287	360.931	491.776	419.831	443.285	487.528	489.640	383.739	255.771	347.003	234.833	177.208	135.769	480.399	441.034	0.00065184	0.00056556	0.00038362	1083.6	2.0408e-06	2.7437e-06	761.41	402.96	5.4839e-06	3.0368e-06	293.26	110.97	160.2	61.463	7.0437e-06	41.192	0.00050996	0.00050503	0.00014009	1061.7	5.4772e-06	5.5955e-06	749.71	397.06	5.5998e-06	5.536e-06	289.58	109.33	158.07	61.22	5.5248e-06	41.185	145.074	175.459	221.398	146.024	411.153	247.598	144.113	151.466	267.711	220.942	148.264	152.705	155.998	161.554	269.623	156.713	-8191	255	
22460.943	1	1	0	0	0.24958	0.087687	0.14367	0.16079	0.33366	0.074365	0.026007	0.28146	0.18886	0.14304	0.052853	0.1242	0.12875	0.22657	0.12567	0.046788	-2.0146	-2.3458	-2.1146	-2.8979	-2.3354	-2.5771	-2.7542	-2.3187	-2.475	-2.45	-2.4292	-2.5604	-2.5042	-2.4729	-2.6396	-2.3104	231.828	248.572	207.298	386.747	338.568	187.476	443.589	414.873	157.318	293.781	397.051	223.109	482.019	394.302	235.705	368.889	0.00069127	0.00051151	0.00023403	1081.2	7.1088e-06	7.0808e-06	766.62	402.49	5.864e-06	1.6396e-06	292.33	108.73	159.45	60.312	9.6915e-06	39.273	0.00051643	0.00050243	0.00014393	1062	5.5799e-06	5.4859e-06	752.09	396.69	5.549e-06	5.5686e-06	287.33	107.24	156.74	60.143	5.5383e-06	39.256	147.634	254.274	209.411	146.225	286.959	266.654	143.840	151.409	239.835	246.183	148.336	152.406	155.681	161.838	262.286	156.772	-8191	255	
22461.062	1	1	0	0	0.28504	0.16041	0.10322	0.22475	0.16408	0.12902	0.22665	0.063406	0.21179	0.045936	0.1391	0.13816	0.24582	0.20614	0.16765	0.31592	-2.0646	-2.4688	-2.1625	-2.7354	-2.3979	-2.4208	-2.675	-2.5146	-2.6083	-2.7292	-2.3667	-2.5062	-2.4021	-2.45	-2.575	-2.4771	178.961	292.273	369.036	448.097	446.081	224.397	435.381	454.552	181.642	158.690	381.349	320.602	314.599	429.863	320.788	368.292	0.00067978	0.00075508	0.0003092	1072.4	5.111e-06	7.429e-06	745.72	400.84	6.188e-06	1.7157e-07	289.2	108.58	159.16	60.422	5.5251e-06	39.801	0.00051106	0.00051546	0.00014026	1053.3	5.5913e-06	5.6081e-06	735.72	394.27	5.6172e-06	5.5343e-06	284.4	106.66	156.7	60.17	5.5952e-06	39.633	158.812	194.502	222.776	146.088	285.278	295.305	143.800	151.505	259.887	225.337	148.386	152.228	155.870	161.531	225.512	157.354	-8191	255	
22461.158	1	1	0	0	0.16293	0.11384	0.070149	0.30092	0.27944	0.046958	0.34891	0.098285	0.15601	0.081136	0.19208	0.20676	0.17678	0.31269	0.28662	0.027384	-2.0438	-2.7229	-2.0687	-2.7583	-2.5375	-2.1625	-2.7354	-2.5021	-2.3646	-2.6396	-2.3792	-2.65	-2.5771	-2.5604	-2.7125	-2.4646	448.651	271.667	360.066	484.911	279.474	359.008	370.882	411.416	199.133	288.908	354.847	428.012	452.707	470.111	458.402	282.044	0.00059057	0.00053431	0.00014438	1073.9	4.154e-06	7.8118e-06	751.54	401.24	6.0026e-06	5.268e-06	287.93	109.6	159.64	60.887	5.381e-06	40.258	0.00051151	0.00051342	0.00014332	1052.2	5.6833e-06	5.6546e-06	737.33	394.29	5.6283e-06	5.5733e-06	285.32	107.82	156.93	60.663	5.5361e-06	40.094	151.818	234.756	255.630	146.179	285.254	302.262	143.914	151.640	313.901	314.489	148.477	152.816	156.266	161.311	247.001	156.898	-8191	255	
22461.254	1	1	0	0	0.29646	0.10159	0.11314	0.16338	0.16115	0.03691	0.11586	0.34744	0.15393	0.27342	0.083881	0.23127	0.10288	0.30019	0.10573	0.23399	-1.9813	-2.5792	-2.2542	-2.7021	-2.5979	-2.1917	-2.5604	-2.5604	-2.3229	-2.7375	-2.3187	-2.5667	-2.6562	-2.4042	-2.8292	-2.3875	462.447	467.469	368.810	437.517	308.917	254.592	384.172	408.020	276.328	408.313	348.791	361.325	364.734	143.309	340.905	360.710	0.00061691	0.00073764	0.0001268	1076.2	3.1165e-06	7.5625e-06	756.3	400.29	5.822e-06	4.1543e-06	289.49	110.18	160.05	61.238	7.398e-06	40.907	0.00052297	0.00052343	0.00014191	1055.3	5.7486e-06	5.6136e-06	741.24	394.67	5.715e-06	5.6124e-06	286.42	108.67	157.37	60.996	5.6497e-06	40.815	157.589	237.850	160.725	146.189	300.565	289.624	143.782	151.238	265.209	280.019	148.324	152.666	155.923	161.718	240.450	156.851	-8191	255	
22461.350	1	1	0	0	0.19538	0.23717	0.20025	0.30488	0.044886	0.1183	0.26257	0.22145	0.066427	0.22176	0.18809	0.13096	0.15953	0.19777	0.12261	0.098281	-1.8854	-2.5563	-2.35	-2.7292	-2.4833	-2.3521	-2.5896	-2.7729	-2.3146	-2.6479	-2.325	-2.675	-2.6521	-2.4188	-2.7896	-2.5979	327.439	451.822	303.093	475.133	296.673	191.152	467.010	483.122	353.122	334.969	466.000	454.368	313.639	161.412	453.646	412.033	0.00063587	0.00083218	0.00018003	1079.1	6.8141e-06	3.4455e-06	760.15	401.19	5.3103e-06	4.6702e-06	290.58	111.08	161.36	61.173	6.0578e-06	40.002	0.00052739	0.00050824	0.00014421	1056.4	5.6754e-06	5.6948e-06	745.26	395.92	5.7371e-06	5.5745e-06	287.75	109.16	157.96	61.073	5.6282e-06	40.207	154.752	206.281	263.635	146.105	254.273	301.584	143.948	151.518	262.735	273.613	148.307	152.386	156.035	161.647	255.001	157.487	-8191	255	
22461.471	1	1	0	0	0.14464	0.34322	0.049165	0.21897	0.10819	0.081049	0.25084	0.15998	0.16982	0.15022	0.25462	0.18308	0.17373	0.16914	0.15792	0.072413	-1.7708	-2.4854	-2.5229	-2.6583	-2.8917	-2.1312	-2.5438	-2.5417	-2.375	-2.6937	-2.4104	-2.3688	-2.8271	-2.4417	-2.5521	-2.7208	477.860	149.573	162.064	451.449	190.096	344.312	304.467	351.760	363.326	177.124	441.495	451.191	456.635	401.223	365.585	292.304	0.0006908	0.00064499	0.00017364	1069.1	5.359e-06	4.7172e-06	747.82	398.96	4.0652e-06	3.2129e-06	284.78	107.17	158.34	60.365	2.5575e-06	39.302	0.00052185	0.0005187	0.00014244	1050.9	5.5501e-06	5.5674e-06	733.14	392.98	5.5967e-06	5.4522e-06	281.99	105.91	155.83	60.004	5.6454e-06	39.223	160.019	238.812	222.516	146.112	305.878	349.914	144.024	151.346	291.592	321.432	148.583	152.578	156.138	161.643	175.603	157.242	-8191	255	
22461.543	1	1	0	0	0.17567	0.25078	0.21286	0.24178	0.13443	0.31085	0.096227	0.12208	0.073451	0.14245	0.15229	0.29216	0.032673	0.1366	0.21782	0.091415	-1.7938	-2.8021	-2.3187	-2.6542	-2.5438	-2.4458	-2.7062	-2.7458	-2.3167	-2.7812	-2.6521	-2.475	-2.7438	-2.5292	-2.7271	-2.4813	226.859	213.679	152.629	438.504	263.065	157.449	431.771	381.427	470.700	182.254	164.803	226.473	178.765	180.022	477.827	381.725	0.00060397	0.00067734	0.0001483	1063.8	4.7159e-06	3.1795e-06	740.76	400.38	6.0128e-06	6.4427e-06	285.75	108.11	159.75	60.519	5.7425e-06	40.017	0.0005156	0.00050802	0.00014172	1045.9	5.5491e-06	5.4909e-06	730.8	393.17	5.5772e-06	5.5671e-06	282.34	106.84	156.66	60.413	5.6438e-06	39.886	154.329	220.615	272.376	146.079	302.797	310.314	143.957	151.381	232.249	228.776	147.972	152.563	155.772	161.576	262.246	156.849	-8191	255	
22461.662	1	1	0	0	0.13335	0.068291	0.15443	0.25951	0.19459	0.22779	0.22937	0.284	0.12496	0.13895	0.14658	0.17224	0.21348	0.089594	0.049584	0.13525	-1.7958	-2.4167	-2.5125	-2.5438	-2.6854	-2.4188	-2.6021	-2.7062	-2.3604	-2.9	-2.4604	-2.4292	-2.675	-2.6729	-2.5563	-2.75	426.711	344.074	297.877	472.857	179.254	392.743	428.769	460.311	486.800	135.266	442.452	450.144	238.345	152.112	375.011	479.542	0.00069348	0.00078868	0.00021096	1065.6	8.0586e-06	3.4513e-06	747.32	400.81	6.7087e-06	1.4594e-06	287.83	109.6	160.47	61.325	5.4162e-06	40.765	0.00050677	0.00050609	0.0001414	1049.9	5.4999e-06	5.5512e-06	735.75	394.03	5.5909e-06	5.5121e-06	284.04	107.94	157.13	60.866	5.6806e-06	40.545	153.202	257.004	228.864	146.218	250.046	327.099	143.832	151.586	286.576	207.036	148.296	152.709	155.916	161.885	243.034	156.783	-8191	255	
22461.760	1	1	0	0	0.24218	0.2001	0.055425	0.44575	0.04634	0.20025	0.26507	0.38847	0.20593	0.041249	0.27006	0.049646	0.29668	0.30082	0.16254	0.21962	-1.6313	-2.5896	-2.5687	-2.3625	-2.6333	-2.4792	-2.4646	-2.6562	-2.4	-2.4729	-2.6979	-2.2104	-2.9104	-2.4938	-2.3063	-2.6646	220.005	359.898	291.661	468.993	222.127	463.807	274.461	401.440	164.398	188.175	267.006	430.376	285.264	455.090	370.790	401.032	0.00062555	0.00089062	0.00012562	1072.5	4.952e-06	8.2816e-06	753.82	400.78	2.2787e-06	4.0872e-06	289.63	110.4	159.99	62.01	7.2126e-06	41.672	0.00051558	0.00051587	0.0001444	1051.7	5.5571e-06	5.6382e-06	739.84	394.5	5.6527e-06	5.577e-06	286.92	109.02	157.3	61.434	5.7398e-06	41.444	149.072	152.075	218.776	146.107	281.366	253.489	143.956	151.421	347.642	210.157	148.202	152.604	155.741	161.638	270.937	157.019	-8191	255	
22461.854	1	1	0	0	0.089204	0.1136	0.10591	0.21996	0.082055	0.17406	0.14994	0.23867	0.036083	0.1356	0.066661	0.13359	0.15134	0.11461	0.20294	0.17644	-1.9917	-2.4062	-2.6479	-2.2875	-2.6583	-2.1896	-2.5104	-2.7812	-2.3292	-2.5708	-2.5125	-2.2417	-2.6833	-2.7083	-2.2729	-2.7188	178.207	436.572	315.375	383.616	255.124	441.269	452.476	444.183	408.778	242.685	457.776	375.942	182.997	477.107	190.711	179.507	0.00065948	0.00068061	0.00020198	1073.1	2.2314e-06	3.1886e-06	751.11	399.7	9.9336e-06	8.3464e-06	286.81	108.71	158.09	60.397	4.7335e-06	39.413	0.00052017	0.00051624	0.00014411	1051.8	5.5544e-06	5.4994e-06	738.53	393.71	5.687e-06	5.6553e-06	284.14	107.04	155.98	60.213	5.5632e-06	39.439	154.184	248.851	207.557	146.154	184.453	368.981	143.750	151.556	252.654	287.526	148.664	152.144	156.024	161.633	316.379	157.112	-8191	255	
22461.949	1	1	0	0	0.092079	0.072328	0.2129	0.16447	0.11249	0.2762	0.080481	0.14893	0.055257	0.225	0.089755	0.2018	0.18456	0.16962	0.041595	0.027987	-1.9	-2.3833	-2.6542	-2.375	-2.6646	-2.4437	-2.4542	-2.7875	-2.375	-2.4417	-2.7646	-2.3833	-2.6375	-2.525	-2.3688	-2.5896	449.180	150.806	382.089	444.760	300.356	248.969	421.181	386.740	365.602	290.100	452.449	425.120	451.303	239.937	376.615	161.257	0.00065472	0.00033437	0.00018825	1065.2	5.3379e-06	4.6064e-06	738.87	396.92	5.8846e-06	6.7689e-06	284.16	108.62	159.02	60.689	6.585e-06	39.982	0.00051272	0.0005116	0.00014364	1042.8	5.5035e-06	5.6507e-06	726.11	389.86	5.6247e-06	5.6941e-06	280.73	106.59	155.76	60.336	5.6726e-06	39.797	146.697	172.649	265.238	146.395	261.846	312.514	143.950	151.443	234.311	319.336	148.096	152.793	156.210	161.513	284.399	157.074	-8191	255	
22462.070	1	1	0	0	0.27721	0.12389	0.40224	0.045967	0.075822	0.074007	0.077365	0.14584	0.020707	0.2297	0.051962	0.28856	0.25317	0.028152	0.18716	0.31921	-2.0417	-2.6208	-2.6083	-2.3333	-2.4917	-2.7125	-2.3271	-2.8125	-2.4875	-2.4167	-2.85	-2.6354	-2.7417	-2.8063	-2.1917	-2.5875	438.823	164.428	185.136	294.641	404.763	291.795	473.829	168.362	373.744	375.416	469.979	463.045	191.239	403.829	382.127	463.599	0.00056372	0.00025393	0.00015763	1064.9	9.4687e-06	4.3598e-06	745.37	398.36	8.1026e-06	4.8115e-06	287.22	109.81	159.04	61.325	4.2131e-06	40.569	0.00051442	0.00050984	0.00014198	1045	5.5252e-06	5.5166e-06	729.59	391.83	5.6529e-06	5.6651e-06	283.7	107.48	156.34	60.923	5.5579e-06	40.37	151.167	167.682	264.439	146.021	287.922	331.974	143.651	151.628	256.611	293.996	148.384	152.463	155.856	161.663	299.430	157.323	-8191	255	
22462.168	1	1	0	0	0.30235	0.16916	0.17976	0.17033	0.05709	0.099088	0.16238	0.43756	0.25412	0.066366	0.070236	0.24291	0.16665	0.18516	0.13591	0.16401	-2.0417	-2.4188	-2.5979	-2.3688	-2.5	-2.7583	-2.4813	-2.6104	-2.3521	-2.3333	-2.725	-2.3937	-2.625	-2.8958	-2.2583	-2.7708	317.858	138.242	144.867	492.910	300.530	238.472	436.800	434.274	252.454	476.045	147.484	156.340	476.793	465.892	443.072	415.128	0.00070662	0.00064181	0.00026302	1068.2	9.652e-06	4.0442e-06	747.49	400.5	6.7094e-06	5.2592e-06	288.4	110.26	159.91	61.794	5.9834e-06	41.246	0.00051644	0.00050835	0.00014031	1049.5	5.5619e-06	5.5722e-06	734.86	393.61	5.6715e-06	5.6368e-06	285.69	108.4	157.27	61.355	5.6811e-06	41.254	150.200	254.203	245.479	146.238	273.392	290.745	144.402	151.648	283.156	209.354	148.541	152.569	156.301	161.653	294.369	157.388	-8191	255	
22462.238	1	1	0	0	0.062036	0.29819	0.071994	0.032009	0.13648	0.094331	0.14085	0.097936	0.08301	0.056716	0.087435	0.11128	0.18147	0.11466	0.28605	0.083322	-2.0542	-2.2208	-2.5979	-2.4562	-2.7146	-2.6604	-2.5854	-2.8271	-2.5875	-2.4167	-2.8312	-2.4792	-2.6813	-2.9375	-2.2708	-2.7917	398.422	267.641	309.937	241.559	472.763	458.552	428.473	450.002	456.393	315.864	368.580	469.128	402.692	441.162	225.830	139.735	0.0006844	0.00047589	0.00011425	1071.9	4.0271e-06	1.5228e-06	753.9	400.76	1.1758e-05	9.332e-06	289.18	111.35	160.79	61.845	5.3396e-06	40.912	0.00052826	0.00052114	0.00014194	1049.9	5.6742e-06	5.625e-06	740.43	394.32	5.6987e-06	5.6299e-06	287.26	110	157.92	61.573	5.6223e-06	40.913	154.614	223.248	243.534	146.298	202.887	142.001	144.267	151.424	254.505	309.351	148.404	152.934	156.065	161.880	295.210	157.143	-8191	255	
22462.336	1	1	0	0	0.15099	0.082336	0.05386	0.40384	0.22145	0.26728	0.20926	0.33906	0.2294	0.11822	0.12276	0.13714	0.21646	0.22578	0.10947	0.11346	-2.3583	-2.2729	-2.6146	-2.675	-2.6583	-2.8	-2.3125	-2.6125	-2.6417	-2.2708	-2.7958	-2.2833	-2.4313	-2.7021	-2.4083	-2.3937	276.801	300.099	374.663	146.253	280.380	229.871	298.496	443.384	319.781	271.979	272.495	156.038	377.281	476.583	317.623	417.958	0.00057292	0.00074214	0.00030414	1064.3	1.6215e-06	1.4871e-06	743.15	396.9	8.9597e-06	9.1669e-06	284.6	108.48	159.17	61.1	9.262e-06	40.252	0.00052293	0.00050679	0.00014276	1046.5	5.5509e-06	5.531e-06	730.38	391.64	5.5553e-06	5.498e-06	282.05	107.01	156.39	60.832	5.5384e-06	40.188	154.780	231.420	216.741	146.211	265.165	195.228	143.814	151.587	225.564	295.884	148.474	152.715	155.868	161.811	262.356	156.901	-8191	255	
22462.432	1	1	0	0	0.15632	0.18878	0.072317	0.19157	0.2602	0.070038	0.20945	0.45438	0.14335	0.35811	0.1954	0.20348	0.21478	0.12119	0.20654	0.050492	-2.2917	-2.3042	-2.7188	-2.575	-2.3271	-2.7687	-2.5125	-2.6562	-2.6917	-2.3667	-2.6021	-2.5958	-2.325	-2.925	-2.4396	-2.4771	424.108	463.219	236.137	463.909	241.055	276.815	337.143	448.569	251.005	404.700	437.571	459.840	180.539	363.365	448.526	364.244	0.00065002	0.00033435	4.9456e-05	1060.8	6.0111e-06	5.5864e-06	742.58	398.66	6.3307e-06	4.4711e-06	289.09	110.18	159.34	61.802	6.6721e-06	40.956	0.00051413	0.0004987	0.00013931	1043.4	5.4929e-06	5.4642e-06	729.77	391.61	5.6431e-06	5.485e-06	284.13	108.18	156.77	61.32	5.5748e-06	40.765	155.152	138.676	387.268	146.294	281.821	307.353	143.865	151.356	255.412	247.245	148.333	152.468	155.933	161.740	321.451	157.256	-8191	255	
22462.551	1	1	0	0	0.045837	0.11941	0.03905	0.21412	0.050339	0.16988	0.27673	0.077798	0.18748	0.2025	0.11183	0.31559	0.10627	0.31326	0.40731	0.043688	-2.3354	-2.2792	-2.4833	-2.7104	-2.2896	-2.7625	-2.6271	-2.8708	-2.5604	-2.3375	-2.5812	-2.7042	-2.3312	-2.8708	-2.4917	-2.4146	448.581	461.493	167.215	479.410	336.673	356.354	216.921	395.412	396.816	278.238	375.230	442.222	245.243	487.363	323.600	437.864	0.00064298	0.00061865	0.00022033	1064.4	4.9664e-06	6.942e-06	745.25	398.18	7.7207e-06	6.7004e-06	287.9	110.73	159.52	61.791	9.6687e-06	41.571	0.00050873	0.00050283	0.00014118	1042.5	5.5129e-06	5.5826e-06	732.35	391.67	5.579e-06	5.6233e-06	284.82	109.13	157.13	61.522	5.6883e-06	41.428	157.052	312.753	229.952	146.337	243.081	279.813	144.251	151.373	226.089	325.737	148.307	152.707	155.951	161.664	288.001	157.282	-8191	255	
22462.648	1	1	0	0	0.14465	0.18179	0.19032	0.2809	0.12026	0.21268	0.27072	0.082331	0.0070477	0.11484	0.12637	0.13829	0.24584	0.12123	0.099991	0.14214	-2.3688	-2.3438	-2.4646	-2.8208	-2.225	-2.6979	-2.4604	-2.4875	-2.6417	-2.4542	-2.525	-2.7771	-2.4125	-2.7271	-2.5042	-2.3937	398.871	387.955	250.060	415.926	468.670	240.229	349.460	378.282	382.625	268.406	482.110	389.591	485.426	182.654	213.042	366.118	0.00071728	0.00053127	8.4521e-05	1056.5	4.8397e-06	7.5162e-06	749.3	398.41	3.4349e-06	2.0608e-06	291.72	111.78	160.42	62.55	5.7162e-06	42.544	0.00052219	0.00050223	0.00014221	1042.1	5.4853e-06	5.6092e-06	734.56	392.07	5.5812e-06	5.6222e-06	287.25	110.55	157.78	62.282	5.6617e-06	42.415	149.598	264.618	293.498	146.054	292.945	296.777	143.880	151.443	264.340	370.730	148.746	152.533	155.865	161.824	297.129	157.136	-8191	255	
22462.744	1	1	0	0	0.21068	0.20351	0.14851	0.198	0.18312	0.32987	0.26157	0.22222	0.20201	0.12621	0.27637	0.16152	0.086504	0.21413	0.15656	0.025102	-2.2417	-2.3563	-2.4917	-2.7271	-2.2292	-2.5083	-2.5563	-2.375	-2.7104	-2.4813	-2.3979	-2.6292	-2.2062	-2.7979	-2.4604	-2.4083	380.472	397.283	333.611	475.567	265.609	160.588	390.712	282.191	261.458	376.769	454.687	410.792	160.396	424.277	260.890	254.268	0.00068759	0.00082384	0.00015336	1064.1	1.8918e-06	2.7848e-06	746.42	398.84	6.0467e-06	2.8667e-06	287.67	109.64	159.15	61.421	6.2756e-06	40.373	0.00051931	0.00050023	0.0001427	1043.8	5.5664e-06	5.5676e-06	734.22	391.73	5.6099e-06	5.5003e-06	284.42	107.91	156.73	61.095	5.5076e-06	40.313	146.495	242.921	195.023	146.120	270.952	394.375	143.894	151.266	220.298	281.281	148.709	152.230	155.962	161.338	238.759	157.204	-8191	255	
22462.840	1	1	0	0	0.14424	0.15867	0.23578	0.081386	0.058719	0.25947	0.16532	0.039203	0.067766	0.18469	0.069872	0.092834	0.1379	0.17759	0.18484	0.21154	-2.3063	-2.3875	-2.4188	-2.9646	-2.2438	-2.6375	-2.8104	-2.4208	-2.7	-2.5438	-2.55	-2.7667	-2.2646	-2.4125	-2.5333	-2.2458	416.887	185.314	234.935	171.747	237.278	180.848	385.367	282.389	459.925	336.460	484.151	330.841	149.636	434.214	381.946	155.086	0.00057987	0.00099813	0.00011723	1060.6	6.7142e-06	7.5585e-06	742.5	399.29	1.0245e-05	1.9828e-06	287.58	109.42	159.42	61.644	2.8942e-06	40.853	0.00050127	0.00048946	0.00013742	1041.7	5.4871e-06	5.3138e-06	727.39	392.26	5.3736e-06	5.2784e-06	283.77	107.94	156.93	61.185	5.4881e-06	40.683	153.489	224.769	215.286	146.183	291.514	310.793	144.272	151.622	228.559	265.261	148.101	152.604	155.643	161.414	269.430	157.427	-8191	255	
22462.934	1	1	0	0	0.092177	0.091778	0.21633	0.44336	0.24191	0.17959	0.17767	0.26465	0.23777	0.095742	0.10187	0.1481	0.12744	0.077664	0.004643	0.047809	-2.2062	-2.4625	-2.3312	-2.8271	-2.3583	-2.5875	-2.9062	-2.4813	-2.7	-2.5729	-2.4271	-2.7188	-2.4667	-2.7208	-2.7667	-2.4854	185.571	303.442	171.688	481.651	249.146	469.448	448.835	475.299	379.348	268.800	404.342	188.526	431.722	458.209	439.548	172.219	0.00064357	0.0010162	0.00016582	1063.1	6.84e-06	5.5382e-06	743.1	400.11	5.9952e-06	3.4913e-06	288.88	111.23	159.65	62.07	2.7005e-06	41.352	0.00050055	0.00049174	0.00013869	1044.2	5.4381e-06	5.3793e-06	732.5	393.06	5.4934e-06	5.5118e-06	285.02	109.19	157.25	61.627	5.5388e-06	41.198	149.883	176.290	214.756	146.137	247.760	340.437	144.044	151.424	250.585	323.992	148.567	152.845	156.215	161.832	267.458	157.114	-8191	255	
22463.031	1	1	0	0	0.057784	0.12616	0.27066	0.22878	0.20633	0.13547	0.10198	0.028974	0.26263	0.18334	0.0071082	0.11652	0.08232	0.17741	0.31548	0.24521	-2.1688	-2.5646	-2.2208	-2.7229	-2.2354	-2.5833	-2.825	-2.6646	-2.6833	-2.6437	-2.4792	-2.8958	-2.475	-2.6333	-2.6833	-2.4333	229.485	453.622	240.516	139.824	319.003	259.132	447.102	322.742	462.649	230.211	427.722	293.161	141.283	487.527	172.878	363.215	0.00076876	0.00060378	0.0002783	1066.6	4.0542e-06	6.1025e-06	749.23	398.98	3.9441e-06	4.3033e-06	291.78	111.77	159.04	62.028	6.6824e-06	42.044	0.00051028	0.00050225	0.00014075	1045.6	5.5548e-06	5.498e-06	735.08	392.75	5.5623e-06	5.612e-06	286.86	109.87	156.88	61.552	5.6974e-06	42.055	148.703	208.942	245.265	145.962	266.198	264.892	144.119	151.773	231.176	331.907	148.450	152.797	156.215	161.791	259.126	157.033	-8191	255	
22463.150	1	1	0	0	0.0088531	0.12512	0.12649	0.14548	0.18029	0.080998	0.039489	0.19053	0.1417	0.13237	0.20577	0.15466	0.28781	0.3496	0.072978	0.16055	-2.3063	-2.6417	-2.2917	-2.6875	-2.2979	-2.4688	-2.7604	-2.4292	-2.6667	-2.8583	-2.3542	-2.7125	-2.45	-2.4396	-2.8604	-2.3896	246.591	384.636	135.803	377.670	316.123	387.753	441.943	401.315	387.385	187.544	461.953	378.657	423.861	489.345	280.386	428.083	0.00070398	0.00061823	0.00013378	1063.4	2.9587e-06	6.7475e-06	753.63	396.46	5.0004e-06	1.4496e-06	293.93	111.92	159.38	62.001	5.3574e-06	41.733	0.00052122	0.00051234	0.00014197	1043.7	5.5638e-06	5.6603e-06	738.84	391.04	5.6416e-06	5.5811e-06	288.94	110.56	156.75	61.504	5.6411e-06	41.403	145.680	197.899	249.505	146.420	241.496	313.038	144.010	151.465	231.067	289.668	148.739	152.609	156.348	161.883	260.496	157.251	-8191	255	
22463.246	1	1	0	0	0.27044	0.066158	0.079164	0.38105	0.1575	0.41496	0.053351	0.19397	0.060198	0.20346	0.082053	0.132	0.087639	0.33529	0.092161	0.18991	-2.2271	-2.6896	-2.0979	-2.7354	-2.3146	-2.3063	-2.7354	-2.4854	-2.5854	-2.7812	-2.2146	-2.7208	-2.7208	-2.5542	-2.9062	-2.6792	334.076	266.229	406.955	452.945	351.574	308.736	237.962	437.082	342.479	468.451	186.418	381.608	385.650	400.922	244.326	217.199	0.0006116	0.00051789	0.00020601	1057.2	4.4821e-06	6.2858e-06	739.74	394.39	7.2214e-06	5.6091e-06	286.37	109.58	157.94	61.047	2.9981e-06	40.802	0.00052094	0.0005088	0.00014272	1036.8	5.6575e-06	5.6146e-06	727.25	387.77	5.5976e-06	5.569e-06	283.37	107.79	155.17	60.607	5.6639e-06	40.677	149.222	149.898	207.941	146.034	299.772	261.739	143.954	151.424	274.931	283.865	148.148	152.713	156.423	161.708	224.355	157.399	-8191	255	
22463.344	1	1	0	0	0.22287	0.15205	0.12438	0.50729	0.18991	0.14603	0.03274	0.11243	0.19005	0.24201	0.31452	0.17593	0.13366	0.44436	0.24956	0.19405	-2.075	-2.6292	-2.2729	-2.775	-2.6958	-2.3333	-2.7917	-2.5938	-2.2896	-2.8625	-2.3542	-2.7208	-2.6104	-2.3312	-2.7812	-2.5021	279.385	229.527	476.228	481.946	313.424	180.608	395.380	420.485	204.639	342.484	402.201	485.215	478.605	476.066	322.109	334.618	0.00059533	0.00061749	0.00019073	1055.8	4.2618e-06	4.8887e-06	744.14	394.57	2.8361e-06	2.1769e-06	288.4	110.06	158.16	61.476	1.3619e-06	41.494	0.00050555	0.00050463	0.00014116	1036.2	5.5173e-06	5.5766e-06	728.36	388.78	5.6164e-06	5.4664e-06	284.11	108.72	155.73	60.977	5.7249e-06	41.369	154.333	199.245	219.429	146.223	230.992	355.361	144.194	151.417	277.211	406.770	148.398	152.600	156.100	161.697	249.331	157.407	-8191	255	
22463.439	1	1	0	0	0.26172	0.1668	0.43853	0.24302	0.12255	0.23934	0.076531	0.44676	0.28706	0.13534	0.044183	0.080682	0.12876	0.4866	0.067067	0.26384	-2.0083	-2.675	-2.1875	-2.6958	-2.4729	-2.4437	-2.7188	-2.6	-2.3438	-2.7083	-2.3625	-2.5396	-2.9604	-2.4229	-2.6729	-2.4646	274.836	161.355	298.100	406.622	456.520	403.231	462.027	456.215	179.680	207.477	136.787	298.230	373.871	473.092	157.776	466.158	0.00063094	0.00016068	0.00014548	1055.8	6.1601e-06	6.1671e-06	742.16	393.52	6.9619e-06	4.5173e-06	291.91	111.49	158.47	61.782	2.4249e-06	42.377	0.00050888	0.00051215	0.00014056	1036.8	5.5691e-06	5.4792e-06	730.66	388.79	5.5989e-06	5.5488e-06	286.66	109.81	156.13	61.405	5.5565e-06	42.05	153.711	475.285	210.340	145.786	250.804	223.775	143.800	151.416	261.860	270.638	148.292	152.605	156.147	161.822	239.084	157.751	-8191	255	
22463.535	1	1	0	0	0.25458	0.16141	0.18304	0.33936	0.03132	0.10762	0.21898	0.28911	0.367	0.26144	0.30636	0.2743	0.27552	0.19191	0.023276	0.21903	-2.0229	-2.7729	-2.3937	-2.6875	-2.7729	-2.4188	-2.6521	-2.7625	-2.2979	-2.7375	-2.4667	-2.4667	-2.675	-2.4167	-2.6708	-2.75	192.854	249.112	214.347	438.621	474.278	211.917	400.553	474.606	158.555	452.712	402.281	425.845	471.976	475.496	464.740	431.631	0.00060578	0.0011313	0.0002286	1061.1	7.3951e-06	3.2841e-06	748.01	399.99	6.0368e-06	4.6415e-06	292.14	112.77	159.92	62.369	7.3535e-06	42.93	0.00052278	0.00051197	0.00014374	1040.2	5.5835e-06	5.6382e-06	735.64	391.73	5.5639e-06	5.536e-06	289.07	111.12	157.05	61.921	5.5823e-06	42.784	144.931	221.219	252.472	145.934	288.553	221.165	144.152	151.373	253.768	305.047	148.733	152.835	156.165	161.616	224.934	157.156	-8191	255	
22463.633	1	1	0	0	0.14926	0.10727	0.13038	0.27238	0.1931	0.15173	0.097263	0.21013	0.2675	0.15978	0.15235	0.1534	0.28749	0.338	0.29959	0.19894	-2.0187	-2.4979	-2.4583	-2.3771	-2.7917	-2.35	-2.7313	-2.6896	-2.3625	-2.6646	-2.3458	-2.3354	-2.7042	-2.3688	-2.4604	-2.7375	337.162	386.104	185.947	137.975	245.017	306.056	140.656	467.723	335.340	163.044	481.102	172.993	386.987	458.553	315.638	411.635	0.00064093	0.00078645	0.00023434	1067.4	2.1157e-06	6.4852e-06	752	395.69	4.7086e-06	6.6496e-06	289.67	110.44	157.28	60.645	8.0436e-06	40.14	0.00051288	0.00050001	0.00013903	1043.9	5.4851e-06	5.4661e-06	736.67	388.91	5.4367e-06	5.4851e-06	284.9	108.31	154.58	60.245	5.3608e-06	40.213	153.033	203.078	221.649	146.067	297.331	301.448	144.036	151.398	261.086	279.967	147.967	152.968	155.994	161.827	262.843	157.193	-8191	255	
22463.729	1	1	0	0	0.12619	0.17066	0.064554	0.025184	0.23294	0.37417	0.23716	0.167	0.070301	0.13548	0.18556	0.052821	0.15096	0.31098	0.095343	0.037021	-1.6917	-2.4542	-2.4479	-2.4979	-2.6229	-2.2771	-2.6625	-2.7917	-2.2521	-2.6958	-2.5833	-2.3729	-2.825	-2.4583	-2.675	-2.7271	443.634	213.527	203.392	243.744	242.650	331.068	452.232	378.382	138.358	397.658	444.746	192.119	435.587	139.498	359.697	145.800	0.00059325	0.0005883	7.8392e-05	1056.6	3.9486e-06	6.8062e-06	741.49	393.42	5.8372e-06	1.9459e-06	287.49	109.21	156.84	60.82	9.5044e-06	40.892	0.00050353	0.00049387	0.00013651	1034.5	5.4275e-06	5.3473e-06	725.48	387.42	5.5489e-06	5.3325e-06	283.49	107.9	154.57	60.435	5.4589e-06	40.738	156.431	184.137	267.190	146.304	224.242	275.810	143.904	151.646	213.672	236.752	148.354	153.178	156.156	161.633	246.381	157.244	-8191	255	
22463.848	1	1	0	0	0.24763	0.3375	0.25135	0.27926	0.17532	0.030505	0.19116	0.30663	0.03505	0.18892	0.06698	0.092969	0.1456	0.18803	0.17775	0.3122	-1.8333	-2.5646	-2.5687	-2.3104	-2.7812	-2.4396	-2.4833	-2.725	-2.2833	-2.45	-2.3333	-2.2146	-2.7917	-2.6792	-2.4417	-2.775	320.312	222.307	452.233	445.214	251.822	429.108	360.959	394.629	191.338	447.028	482.993	433.599	467.392	447.308	370.116	338.339	0.00069199	0.00057441	0.00010649	1060.3	7.6085e-06	5.0234e-06	744.38	396.44	4.8218e-06	2.0907e-06	289.29	110.54	158.49	61.336	7.6498e-06	41.595	0.00050786	0.00049187	0.00013892	1039.2	5.4762e-06	5.5077e-06	732.33	389.35	5.4527e-06	5.479e-06	286.38	109.09	155.92	60.765	5.5589e-06	41.419	152.262	218.716	201.447	146.051	281.421	266.683	143.832	151.768	236.311	285.341	148.560	152.615	156.274	161.662	268.711	157.377	-8191	255	
22463.943	1	1	0	0	0.3919	0.08252	0.21897	0.27773	0.21519	0.15362	0.13113	0.20636	0.24148	0.098358	0.26043	0.33279	0.20946	0.099746	0.25398	0.053109	-1.9021	-2.3083	-2.4125	-2.5125	-2.5542	-2.4229	-2.3708	-2.6458	-2.3646	-2.5021	-2.625	-2.2313	-2.8208	-2.3458	-2.2229	-2.8125	283.474	399.938	394.608	460.404	321.054	288.911	394.820	444.049	452.584	336.292	360.914	409.909	250.612	435.656	321.334	421.904	0.00060232	2.0112e-05	6.6518e-05	1063.9	6.9677e-06	4.1994e-06	750.65	397.24	4.5493e-06	3.1491e-06	293.16	111.45	159.11	61.357	4.6328e-06	42.631	0.00051206	0.00049697	0.00014014	1043.3	5.5758e-06	5.5895e-06	736.87	390.74	5.553e-06	5.4934e-06	288.59	110.13	156.49	61.207	5.6093e-06	42.286	149.349	474.714	327.310	146.156	265.330	264.876	144.089	151.638	285.870	165.571	148.298	152.524	155.920	161.673	279.111	157.523	-8191	255	
22464.039	1	1	0	0	0.2558	0.14594	0.16004	0.19969	0.22641	0.10744	0.21256	0.25279	0.28552	0.12836	0.06487	0.18899	0.085848	0.39874	0.11776	0.22436	-1.8917	-2.4562	-2.6813	-2.25	-2.6021	-2.575	-2.5792	-2.7458	-2.4646	-2.4562	-2.7021	-2.2812	-2.7083	-2.8083	-2.2313	-2.6667	176.718	352.351	251.618	157.189	429.160	426.067	379.674	381.223	279.133	238.817	432.999	355.706	480.860	480.406	428.977	283.888	0.00075118	0.00093032	0.00019999	1067	6.2858e-06	2.8925e-06	760.11	398.7	4.5215e-06	3.5466e-06	293.84	112.07	159.87	61.086	6.75e-06	41.16	0.00052417	0.00050438	0.00014312	1047.8	5.5524e-06	5.5906e-06	745.56	393.37	5.6136e-06	5.5735e-06	289.71	110.59	156.53	60.772	5.7144e-06	41.003	153.744	213.424	204.687	146.332	254.827	275.143	144.111	151.492	263.490	300.226	148.515	152.747	155.702	161.807	267.642	157.426	-8191	255	
22464.113	1	1	0	0	0.13521	0.11885	0.18873	0.31867	0.1345	0.2993	0.43177	0.23544	0.22526	0.31433	0.12074	0.071305	0.17716	0.16523	0.081318	0.23338	-1.75	-2.3917	-2.7062	-2.4167	-2.6042	-2.4062	-2.4646	-2.625	-2.1688	-2.6521	-2.6813	-2.4	-2.5125	-2.6896	-2.2104	-2.5604	162.909	324.434	345.469	438.708	256.793	239.275	390.003	432.356	356.704	249.436	438.326	344.463	156.865	466.195	143.152	443.763	0.00066198	0.00034506	0.00027559	1061	4.932e-06	8.5671e-06	746.59	395.23	9.3898e-06	6.0012e-06	287.9	109.49	156.24	59.837	6.9404e-06	40.384	0.00052601	0.00050721	0.00014269	1041.8	5.551e-06	5.5796e-06	730.15	388.15	5.677e-06	5.5593e-06	283.27	107.29	153.87	59.579	5.7143e-06	40.051	154.827	217.093	222.427	146.055	256.856	309.437	143.741	151.600	278.654	282.370	148.555	152.532	156.188	161.821	255.696	157.043	-8191	255	
22464.230	1	1	0	0	0.044218	0.083369	0.075465	0.1369	0.39722	0.023101	0.19505	0.15895	0.22682	0.090423	0.12073	0.14042	0.15854	0.11673	0.13975	0.10133	-1.9729	-2.2708	-2.6021	-2.3021	-2.5417	-2.525	-2.3854	-2.8083	-2.5	-2.3833	-2.6	-2.3208	-2.5042	-2.7396	-2.3375	-2.8917	317.042	262.253	255.291	395.602	303.673	479.444	324.309	327.610	280.109	240.046	316.492	469.280	208.360	451.057	237.889	137.512	0.0006819	0.00051449	6.2427e-05	1053.8	9.2186e-06	1.2661e-06	733.95	391.38	1.0162e-06	7.481e-06	285.42	108.8	156.09	59.442	8.4069e-06	40.418	0.00051369	0.00050809	0.00014463	1035.8	5.6292e-06	5.6612e-06	725.76	385.84	5.7225e-06	5.6763e-06	282.12	106.99	153.37	59.266	5.7102e-06	40.172	150.124	293.957	329.595	146.132	260.948	386.559	144.152	151.658	210.818	275.712	148.911	152.853	156.176	161.764	248.042	157.281	-8191	255	
22464.328	1	1	0	0	0.17676	0.17533	0.24661	0.27262	0.066623	0.18561	0.28994	0.15256	0.066281	0.16385	0.2408	0.18371	0.4152	0.14881	0.1619	0.14748	-2.075	-2.0271	-2.5792	-2.5958	-2.4958	-2.7938	-2.2875	-2.6229	-2.3229	-2.2542	-2.7396	-2.3771	-2.3542	-2.9292	-2.4437	-2.6875	230.933	273.394	290.265	476.366	389.241	148.225	374.067	358.215	210.488	349.654	453.487	176.815	487.575	441.203	235.584	364.973	0.00062284	0.00090942	0.00018247	1056.1	5.9003e-06	2.8622e-06	742.38	391.76	2.2337e-06	3.9063e-06	284.77	107.96	156.17	59.437	2.7584e-06	40.415	0.00052607	0.00052807	0.00014808	1033.5	5.631e-06	5.8163e-06	725.84	385.55	5.727e-06	5.724e-06	281.63	106.61	153.15	59.227	5.734e-06	40.306	150.186	190.971	258.081	146.202	271.967	361.444	144.108	151.449	234.983	259.556	148.262	152.998	156.214	161.674	251.831	157.391	-8191	255	
22464.424	1	1	0	0	0.071588	0.14067	0.074152	0.099329	0.16578	0.086264	0.072483	0.1864	0.18601	0.14601	0.036955	0.14134	0.09827	0.21863	0.050013	0.086168	-1.9688	-2.2229	-2.6396	-2.5583	-2.4833	-2.7062	-2.275	-2.7104	-2.4979	-2.1937	-2.6146	-2.4292	-2.6042	-2.8063	-2.2396	-2.4354	492.486	251.952	443.799	134.366	417.778	481.144	199.485	435.803	416.968	459.825	217.085	180.762	304.916	250.835	272.612	368.607	0.0005821	0.00089724	9.1488e-05	1060	2.7779e-06	4.5836e-06	746.42	394.08	4.4026e-06	3.4616e-07	288.23	109.31	156.3	59.836	2.9656e-06	40.968	0.00052995	0.00052721	0.00014445	1037.2	5.839e-06	5.7667e-06	729.92	386.53	5.664e-06	5.726e-06	283.92	107.91	153.66	59.503	5.6908e-06	41.003	150.557	235.073	169.629	146.169	232.531	299.960	143.785	151.652	240.329	305.020	148.595	152.692	156.235	161.863	236.394	157.274	-8191	255	
22464.545	1	1	0	0	0.14329	0.31842	0.29377	0.039542	0.40621	0.14243	0.10713	0.10265	0.11936	0.21509	0.14873	0.088518	0.13747	0.11985	0.068536	0.29602	-2.1813	-2.2229	-2.4667	-2.5833	-2.35	-2.7375	-2.2188	-2.5292	-2.6458	-2.1958	-2.6917	-2.5104	-2.1521	-2.8187	-2.3563	-2.55	408.868	412.882	476.188	318.794	367.655	468.224	479.885	140.087	188.965	262.745	487.831	274.020	141.408	198.868	140.294	471.028	0.00056584	0.00094127	0.00016726	1054.3	5.7622e-06	2.0064e-06	739.97	391.96	7.9329e-06	3.2467e-06	283.91	106.39	154.49	58.458	6.1447e-06	39.002	0.00052143	0.00051349	0.00014255	1036.3	5.5983e-06	5.5635e-06	726.75	385.19	5.5896e-06	5.6007e-06	279.99	104.97	151.99	58.127	5.5982e-06	38.935	157.773	219.531	221.408	146.256	238.971	370.993	144.163	151.707	297.329	286.172	148.754	153.014	155.934	161.658	236.607	157.333	-8191	255	
22464.641	1	1	0	0	0.23176	0.1407	0.25054	0.19489	0.10235	0.11393	0.23173	0.40301	0.17641	0.11129	0.22569	0.36939	0.29378	0.25792	0.26809	0.10624	-2.1958	-2.0375	-2.6042	-2.6604	-2.2583	-2.575	-2.3521	-2.5958	-2.575	-2.1437	-2.4792	-2.5521	-2.1896	-2.8375	-2.4313	-2.4542	250.168	482.296	328.908	174.269	224.672	396.833	151.173	452.748	419.205	291.939	333.216	425.803	177.513	439.255	343.894	457.722	0.00065401	0.00080011	0.00016211	1054	5.5632e-06	4.5611e-06	727.36	388.86	6.2008e-06	6.1458e-06	283.41	107.04	154.6	58.642	4.9969e-06	39.612	0.00051669	0.00050935	0.00013811	1031.3	5.6336e-06	5.5717e-06	717.21	383.42	5.561e-06	5.6568e-06	278.63	105.22	151.8	58.365	5.5522e-06	39.393	156.474	226.142	264.607	146.319	297.744	267.597	143.941	151.561	227.217	301.228	148.285	152.781	156.114	161.884	306.659	157.139	-8191	255	
22464.713	1	1	0	0	0.34052	0.29139	0.21034	0.45395	0.095035	0.13119	0.090829	0.1657	0.14364	0.16931	0.24644	0.1847	0.21405	0.276	0.13203	0.12834	-2.3229	-2.3042	-2.5021	-2.5979	-2.2354	-2.6583	-2.5292	-2.5375	-2.6604	-2.2833	-2.5167	-2.6896	-2.3125	-2.8	-2.3542	-2.5021	208.901	253.930	361.404	473.453	229.042	473.243	174.449	423.842	331.695	455.116	373.398	491.272	433.939	396.274	255.532	173.571	0.0006644	0.00050483	7.8108e-05	1054.6	5.2181e-06	9.8514e-06	737.66	392.63	9.9455e-06	2.0549e-06	284.09	107.16	154.88	59.126	4.3263e-06	40.167	0.00051202	0.00051102	0.00014111	1033.4	5.6417e-06	5.5421e-06	723.18	385.06	5.7806e-06	5.5604e-06	280.96	106.02	152.55	59.013	5.6007e-06	40.132	142.722	263.400	270.247	145.974	262.938	328.401	144.123	151.361	262.083	231.696	148.669	152.626	155.882	161.701	223.380	157.222	-8191	255	
22464.832	1	1	0	0	0.043995	0.20692	0.2042	0.3078	0.16603	0.15691	0.073975	0.12808	0.19495	0.2266	0.11258	0.22403	0.26251	0.14021	0.063075	0.19921	-2.1896	-2.2146	-2.4271	-2.6021	-2.4792	-2.6771	-2.4688	-2.4667	-2.7125	-2.4125	-2.3875	-2.6208	-2.2167	-2.5125	-2.4313	-2.1562	281.763	469.152	493.459	136.283	411.988	414.448	408.806	378.444	232.035	157.400	392.891	319.291	154.947	156.216	464.707	139.103	0.00068709	0.0011069	2.7721e-05	1051.5	1.1354e-05	8.116e-06	741.45	392.36	1.5712e-06	6.1461e-06	286.71	108.99	156.02	59.964	5.9906e-06	41.223	0.00051906	0.00051125	0.00014242	1033.7	5.6143e-06	5.6374e-06	727.33	385.39	5.6862e-06	5.6251e-06	283.16	107.54	153.38	59.459	5.64e-06	40.955	152.563	200.103	177.842	146.264	294.109	261.143	144.001	151.615	206.972	313.483	148.511	152.897	155.895	161.820	247.579	157.483	-8191	255	
22464.928	1	1	0	0	0.028483	0.09049	0.2269	0.17313	0.20839	0.21084	0.34409	0.40856	0.26149	0.18368	0.16633	0.096224	0.20974	0.16518	0.17657	0.28235	-2.2313	-2.2917	-2.3187	-2.6312	-2.3417	-2.7479	-2.45	-2.2375	-2.5021	-2.2938	-2.3563	-2.7854	-2.3688	-2.8333	-2.6375	-2.2687	164.689	346.070	287.298	458.069	143.100	318.555	459.792	423.907	376.017	141.175	420.557	474.428	260.752	177.937	425.384	416.665	0.00070294	0.00061503	0.00018249	1055	5.6391e-06	6.768e-06	743.36	391.85	9.3252e-06	3.2271e-06	288.07	109.08	156.23	59.466	7.2368e-06	39.933	0.00052492	0.00051815	0.00014524	1035	5.6543e-06	5.636e-06	732.74	386.26	5.7274e-06	5.594e-06	284.87	107.83	152.98	59.074	5.7298e-06	39.842	150.973	273.362	248.719	146.381	267.062	290.298	144.163	151.352	268.253	258.106	148.527	152.819	155.872	161.809	264.308	157.447	-8191	255	
22465.023	1	1	0	0	0.1681	0.3085	0.31936	0.31756	0.1693	0.2028	0.08497	0.1012	0.31184	0.16677	0.25631	0.23866	0.26917	0.16059	0.28849	0.33771	-2.15	-2.4354	-2.35	-2.7271	-2.3146	-2.4104	-2.6312	-2.2479	-2.5146	-2.3187	-2.3375	-2.9521	-2.4958	-2.45	-2.55	-2.1625	458.353	310.573	270.180	423.068	462.846	294.257	165.955	338.283	332.981	456.715	189.997	406.556	177.862	438.446	354.953	403.869	0.00063155	0.00051868	0.00014277	1047.2	6.1611e-06	2.6835e-06	729.86	388.77	8.4713e-06	2.1067e-06	280.18	106.2	154.19	58.65	3.1789e-06	38.993	0.00052372	0.00050535	0.00014319	1028.8	5.624e-06	5.6066e-06	718.75	382.79	5.5725e-06	5.6319e-06	278.55	104.73	151.07	58.228	5.675e-06	39.067	149.987	228.554	226.317	146.174	290.888	338.549	144.264	151.413	209.884	352.251	148.132	152.840	156.018	161.778	285.441	157.091	-8191	255	
22465.145	1	1	0	0	0.20714	0.21058	0.26066	0.26713	0.094301	0.24061	0.20455	0.18142	0.16155	0.17486	0.19748	0.13754	0.08346	0.33476	0.20888	0.026067	-2.0396	-2.3688	-2.0854	-2.6646	-2.1792	-2.5417	-2.5479	-2.2667	-2.5542	-2.4396	-2.2646	-2.8063	-2.3417	-2.6312	-2.475	-2.1583	428.929	216.712	281.987	202.185	226.931	409.131	460.930	393.383	200.944	450.787	318.419	249.520	181.527	156.323	487.313	463.760	0.00066131	0.00042338	0.00019628	1050.1	1.0223e-05	5.992e-06	730.9	388.66	8.4549e-06	5.0938e-06	282.31	106.62	153.76	58.518	5.5158e-06	39.799	0.00051722	0.00051331	0.00014615	1026.9	5.5414e-06	5.5963e-06	717.06	381.94	5.5449e-06	5.4934e-06	278.48	105.03	151.08	58.315	5.569e-06	39.45	147.710	231.617	268.068	146.170	254.399	295.367	144.089	151.413	231.281	221.765	148.748	152.941	155.984	161.718	269.667	157.252	-8191	255	
22465.240	1	1	0	0	0.13695	0.041441	0.12933	0.057432	0.094771	0.15266	0.22622	0.2628	0.28469	0.21536	0.36115	0.1799	0.311	0.11195	0.059204	0.28256	-2.1667	-2.2792	-2.075	-2.5563	-2.3208	-2.3021	-2.6354	-2.375	-2.4542	-2.6542	-2.1479	-2.6667	-2.3833	-2.4167	-2.4	-2.4437	421.342	336.795	484.865	167.132	337.976	447.984	382.167	435.276	390.087	361.720	461.201	475.571	148.531	219.435	143.234	459.440	0.00058399	0.00070336	0.00022433	1044.3	3.8174e-06	1.8677e-06	731.97	388.82	6.8051e-06	8.5798e-06	283.11	107.31	153.09	58.626	8.5206e-06	39.503	0.00050808	0.00050227	0.00014278	1026.7	5.4884e-06	5.5511e-06	719	381.95	5.6227e-06	5.6054e-06	279.48	105.51	150.71	58.381	5.6668e-06	39.657	155.864	187.415	212.153	146.152	325.007	264.860	144.039	151.386	270.770	271.788	148.761	152.756	156.166	161.930	248.056	157.210	-8191	255	
#DATA ENDS
