BOXY.EXE: ISS Imagent and Oximeter Data Acquisition Program Version 0.80
Ascii Record File

#ACQ INFORMATION
2  Detector Channels 
16  External MUX Channels 
1  Auxiliary Channels 
5000  Waveform (CCF) Frequency (Hz)
1  Waveforms Skipped 
30  Waveforms Averaged 
1  Cycles Averaged 
16  Acquisitions per Waveform 
10.0806  Updata Rate (Hz) 

#FILE INFORMATION
TRUE -- External MUX Channel results are PARSED.
FALSE -- AC DC and Phase are NOT grouped.
TRUE -- Companion Program Settings File CREATED.
FALSE -- AC data not excluded
FALSE -- DC data not excluded
FALSE -- Phase data not excluded
FALSE -- Auxillary Chn. data not excluded
Tab delimiters

#CALIBRATION STATE
TRUE -- Waveform Calibration Values APPLIED.


#AUX CALIBRATION VALUES
Val Type	aux-1	

Term	1.0000e+00	
Factor	0.0000e+00	


#WF CALIBRATION VALUES
A = Detector Channel
Val Type	A-AC1	A-AC2	A-AC3	A-AC4	A-AC5	A-AC6	A-AC7	A-AC8	A-AC9	A-AC10	A-AC11	A-AC12	A-AC13	A-AC14	A-AC15	A-AC16	A-DC1	A-DC2	A-DC3	A-DC4	A-DC5	A-DC6	A-DC7	A-DC8	A-DC9	A-DC10	A-DC11	A-DC12	A-DC13	A-DC14	A-DC15	A-DC16	A-Ph1	A-Ph2	A-Ph3	A-Ph4	A-Ph5	A-Ph6	A-Ph7	A-Ph8	A-Ph9	A-Ph10	A-Ph11	A-Ph12	A-Ph13	A-Ph14	A-Ph15	A-Ph16	

Term	0.00000e+00	0.00000e+00	0.00000e+00	0.00000e+00	0.00000e+00	0.00000e+00	0.00000e+00	0.00000e+00	0.00000e+00	0.00000e+00	0.00000e+00	0.00000e+00	0.00000e+00	0.00000e+00	0.00000e+00	0.00000e+00	0.00000e+00	0.00000e+00	0.00000e+00	0.00000e+00	0.00000e+00	0.00000e+00	0.00000e+00	0.00000e+00	0.00000e+00	0.00000e+00	0.00000e+00	0.00000e+00	0.00000e+00	0.00000e+00	0.00000e+00	0.00000e+00	0.00000e+00	0.00000e+00	0.00000e+00	0.00000e+00	0.00000e+00	0.00000e+00	0.00000e+00	0.00000e+00	0.00000e+00	0.00000e+00	0.00000e+00	0.00000e+00	0.00000e+00	0.00000e+00	0.00000e+00	0.00000e+00	
Factor	1.00000e+00	1.00000e+00	1.00000e+00	1.00000e+00	1.00000e+00	1.00000e+00	1.00000e+00	1.00000e+00	1.00000e+00	1.00000e+00	1.00000e+00	1.00000e+00	1.00000e+00	1.00000e+00	1.00000e+00	1.00000e+00	1.00000e+00	1.00000e+00	1.00000e+00	1.00000e+00	1.00000e+00	1.00000e+00	1.00000e+00	1.00000e+00	1.00000e+00	1.00000e+00	1.00000e+00	1.00000e+00	1.00000e+00	1.00000e+00	1.00000e+00	1.00000e+00	X	X	X	X	X	X	X	X	X	X	X	X	X	X	X	X	

B = Detector Channel
Val Type	B-AC1	B-AC2	B-AC3	B-AC4	B-AC5	B-AC6	B-AC7	B-AC8	B-AC9	B-AC10	B-AC11	B-AC12	B-AC13	B-AC14	B-AC15	B-AC16	B-DC1	B-DC2	B-DC3	B-DC4	B-DC5	B-DC6	B-DC7	B-DC8	B-DC9	B-DC10	B-DC11	B-DC12	B-DC13	B-DC14	B-DC15	B-DC16	B-Ph1	B-Ph2	B-Ph3	B-Ph4	B-Ph5	B-Ph6	B-Ph7	B-Ph8	B-Ph9	B-Ph10	B-Ph11	B-Ph12	B-Ph13	B-Ph14	B-Ph15	B-Ph16	

Term	0.00000e+00	0.00000e+00	0.00000e+00	0.00000e+00	0.00000e+00	0.00000e+00	0.00000e+00	0.00000e+00	0.00000e+00	0.00000e+00	0.00000e+00	0.00000e+00	0.00000e+00	0.00000e+00	0.00000e+00	0.00000e+00	0.00000e+00	0.00000e+00	0.00000e+00	0.00000e+00	0.00000e+00	0.00000e+00	0.00000e+00	0.00000e+00	0.00000e+00	0.00000e+00	0.00000e+00	0.00000e+00	0.00000e+00	0.00000e+00	0.00000e+00	0.00000e+00	-1.64124e+02	-1.34331e+02	-1.17949e+02	-1.82253e+02	-7.52879e+01	-6.26450e+01	-1.59673e+02	-1.62015e+02	-8.49910e+01	-7.28985e+01	-1.73437e+02	-1.73160e+02	-1.87935e+02	-1.78155e+02	-8.18410e+01	-1.50763e+02	
Factor	2.74309e-05	2.13387e-04	5.50513e-05	1.62759e-01	1.60481e-06	1.83435e-06	1.95155e-01	6.40897e-02	1.52885e-06	1.60519e-06	1.16290e-01	3.27102e-02	3.94705e-02	9.72176e-03	1.66134e-06	1.39751e-02	3.49212e-06	3.85682e-06	1.07645e-06	8.19710e-02	4.17040e-08	4.23842e-08	9.17160e-02	3.23082e-02	4.18294e-08	4.23276e-08	5.66427e-02	1.59731e-02	1.97584e-02	4.92990e-03	4.20100e-08	6.86893e-03	X	X	X	X	X	X	X	X	X	X	X	X	X	X	X	X	



#DISTANCE SETTINGS
A = Detector Channel
A-1	A-2	A-3	A-4	A-5	A-6	A-7	A-8	A-9	A-10	A-11	A-12	A-13	A-14	A-15	A-16	

2.5000e+00	3.0000e+00	2.5000e+00	3.0000e+00	2.0000e+00	3.0000e+00	1.5000e+00	3.0000e+00	3.0000e+00	3.0000e+00	3.0000e+00	3.0000e+00	3.0000e+00	3.0000e+00	1.5000e+00	3.0000e+00	

B = Detector Channel
B-1	B-2	B-3	B-4	B-5	B-6	B-7	B-8	B-9	B-10	B-11	B-12	B-13	B-14	B-15	B-16	

1.0000e+01	1.0000e+01	1.0000e+01	1.4400e+00	1.0000e+01	1.0000e+01	1.5100e+00	1.9400e+00	1.0000e+01	1.0000e+01	1.9900e+00	2.4900e+00	2.4100e+00	2.9000e+00	1.0000e+01	2.9800e+00	




#DATA BEGINS
time	group	step	mark	flag	A-AC1	A-AC2	A-AC3	A-AC4	A-AC5	A-AC6	A-AC7	A-AC8	A-AC9	A-AC10	A-AC11	A-AC12	A-AC13	A-AC14	A-AC15	A-AC16	A-DC1	A-DC2	A-DC3	A-DC4	A-DC5	A-DC6	A-DC7	A-DC8	A-DC9	A-DC10	A-DC11	A-DC12	A-DC13	A-DC14	A-DC15	A-DC16	A-Ph1	A-Ph2	A-Ph3	A-Ph4	A-Ph5	A-Ph6	A-Ph7	A-Ph8	A-Ph9	A-Ph10	A-Ph11	A-Ph12	A-Ph13	A-Ph14	A-Ph15	A-Ph16	B-AC1	B-AC2	B-AC3	B-AC4	B-AC5	B-AC6	B-AC7	B-AC8	B-AC9	B-AC10	B-AC11	B-AC12	B-AC13	B-AC14	B-AC15	B-AC16	B-DC1	B-DC2	B-DC3	B-DC4	B-DC5	B-DC6	B-DC7	B-DC8	B-DC9	B-DC10	B-DC11	B-DC12	B-DC13	B-DC14	B-DC15	B-DC16	B-Ph1	B-Ph2	B-Ph3	B-Ph4	B-Ph5	B-Ph6	B-Ph7	B-Ph8	B-Ph9	B-Ph10	B-Ph11	B-Ph12	B-Ph13	B-Ph14	B-Ph15	B-Ph16	aux-1	digaux	

22402.217	1	1	0	131840	0.21857	0.14027	0.12657	0.44837	0.022423	0.054538	0.24881	0.09056	0.1441	0.284	0.20554	0.11301	0.20257	0.067879	0.14778	0.13331	-2.2542	-2.2229	-2.6729	-2.4229	-2.3333	-2.65	-2.2958	-2.4542	-2.7292	-2.3917	-2.7167	-2.5042	-2.3354	-2.8542	-2.3792	-2.6396	455.410	335.066	298.529	463.403	476.862	185.154	477.866	435.403	382.719	413.879	286.654	421.568	470.670	155.315	497.613	166.196	0.017978	0.00017421	0.00048198	478.62	1.7585e-06	0.0011872	323.14	185.23	3.0085e-05	3.6623e-06	58.901	52.84	74.668	27.448	9.3547e-06	20.909	0.025725	0.00072288	0.00027021	513.46	7.8562e-06	0.00030656	350.89	198.2	1.6106e-05	8.0605e-06	343.48	93.499	81.205	30.156	8.814e-06	23.098	438.089	188.296	309.915	151.812	284.995	302.355	148.881	157.770	189.408	306.416	192.830	155.853	162.120	168.494	301.861	162.985	-8191	255	
22402.312	1	1	0	131072	0.1157	0.26796	0.034874	0.038727	0.12306	0.14026	0.14453	0.26227	0.24579	0.099161	0.23267	0.10384	0.027886	0.10031	0.32862	0.13367	-2.4	-2.3604	-2.6188	-2.6437	-2.5542	-2.8833	-2.4875	-2.5583	-2.7125	-2.4042	-2.55	-2.5729	-2.2438	-2.7375	-2.3771	-2.3833	368.465	270.066	464.630	467.198	170.673	187.235	459.871	469.005	159.129	389.123	156.623	459.831	426.829	313.492	250.871	360.464	0.017847	3.3901e-05	0.00073193	477.35	3.7385e-06	0.0011853	323.81	184.38	2.0821e-05	2.1914e-06	125.16	44.305	75.624	27.268	1.952e-05	20.312	0.025353	0.00073358	0.00024211	524.85	7.9722e-06	0.00031032	356.16	198.6	1.1927e-05	7.9757e-06	139.01	153.81	81.642	30.399	9.5789e-06	22.47	445.560	402.254	341.485	151.742	280.453	306.562	148.681	157.375	201.956	315.292	154.206	151.511	162.873	168.617	299.738	163.233	-8191	255	
22402.408	1	1	0	131072	0.16298	0.098127	0.10933	0.090516	0.17757	0.14594	0.25785	0.14919	0.10884	0.17964	0.18362	0.2277	0.31231	0.18212	0.19879	0.15352	-2.2771	-2.3958	-2.6292	-2.6042	-2.2979	-2.8583	-2.5812	-2.3167	-2.6521	-2.3125	-2.4521	-2.7542	-2.0875	-2.5833	-2.4062	-2.3604	325.624	156.736	268.455	216.811	215.973	335.629	259.820	398.653	331.220	287.281	382.110	299.708	203.453	446.855	339.518	149.802	0.018112	0.00015025	0.00010619	479.52	6.3087e-06	0.0011814	323.48	183.96	3.1434e-05	1.8209e-06	122.03	26.458	73.677	26.48	1.1535e-05	19.781	0.025741	0.00072368	0.00020154	522.92	7.8719e-06	0.0003062	352.58	197.93	1.6077e-05	7.8823e-06	136.13	163.21	79.957	29.182	8.7315e-06	21.783	450.163	220.832	434.203	151.959	271.634	314.506	149.245	157.738	204.885	370.284	154.129	168.680	162.210	168.452	316.601	163.122	-8191	255	
22402.506	1	1	0	131072	0.16948	0.14636	0.092908	0.19584	0.1302	0.10287	0.15132	0.1027	0.22744	0.076014	0.25274	0.38917	0.087254	0.10531	0.31833	0.2468	-2.1479	-2.3792	-2.5833	-2.6896	-2.3229	-2.7146	-2.3875	-2.4	-2.6646	-2.4188	-2.4125	-2.6292	-2.1604	-2.7729	-2.7083	-2.5375	473.211	213.626	324.170	140.988	460.092	191.330	453.040	435.261	237.880	460.381	214.689	182.998	270.671	227.392	186.347	492.793	0.017829	0.0017676	0.00020851	474.37	3.8169e-06	0.0010246	380.75	184.23	1.0161e-05	3.6291e-06	122.65	25.086	74.3	26.937	1.8826e-05	20.186	0.02529	0.00075027	0.00020012	529.29	7.8012e-06	0.00015974	558.14	197.4	1.0866e-05	8.6104e-06	136.59	161.74	80.597	29.295	1.3769e-05	22.261	457.893	148.671	277.230	151.885	285.944	362.978	151.318	157.405	205.593	229.779	154.204	163.228	162.672	168.517	303.785	162.987	-8191	255	
22402.602	1	1	0	131072	0.052001	0.072988	0.31913	0.11199	0.022944	0.0573	0.15263	0.060996	0.38591	0.092695	0.3158	0.26634	0.20625	0.15639	0.10982	0.20696	-2.2854	-2.4604	-2.3771	-2.8146	-2.4375	-2.5042	-2.5396	-2.6875	-2.6	-2.4854	-2.2354	-2.8604	-2.3417	-2.475	-2.5583	-2.3812	233.881	380.780	314.071	327.562	373.436	346.717	336.834	493.755	429.424	423.105	401.144	485.373	247.378	233.168	472.986	373.934	0.017904	0.0023265	2.9182e-05	480.82	3.9014e-06	2.9948e-06	322.53	184.22	1.8136e-05	1.4643e-05	123.03	26.21	74.185	27.06	1.7642e-05	20.415	0.025575	0.00087657	0.00019935	521.83	7.8284e-06	7.7803e-06	904.36	197.62	1.4274e-05	9.6629e-06	137.01	164.19	80.272	29.349	1.1963e-05	22.647	462.784	164.543	236.599	151.778	266.787	297.485	153.428	157.772	211.776	241.226	153.563	160.003	161.729	168.566	312.538	163.109	-8191	255	
22402.697	1	1	0	131072	0.21082	0.10025	0.19881	0.10391	0.20639	0.082271	0.21326	0.24412	0.091317	0.031713	0.23602	0.074785	0.15666	0.24966	0.19908	0.20461	-2.2396	-2.4229	-2.2479	-2.6875	-2.2771	-2.4542	-2.8187	-2.3812	-2.6208	-2.6021	-2.2479	-2.7625	-2.3125	-2.4125	-2.7271	-2.1708	288.085	230.086	236.148	178.529	494.849	145.830	422.339	428.204	415.778	451.382	400.755	200.685	241.172	456.033	343.407	212.149	0.017837	0.0011409	0.00021756	478.1	6.6526e-07	1.3146e-06	292.84	183.95	1.9802e-06	2.001e-05	124.52	26.347	74.553	27.343	3.6368e-05	21.031	0.025257	0.0008135	0.00020263	531.17	7.8245e-06	7.955e-06	943	197.69	1.0394e-05	8.9862e-06	138.31	162.71	81.239	29.782	1.6303e-05	23.329	471.103	193.338	270.893	151.752	180.118	384.400	171.565	157.357	296.921	221.909	154.579	153.798	162.341	168.426	332.477	162.954	-8191	255	
22402.818	1	1	0	131072	0.06095	0.080379	0.070124	0.10537	0.16978	0.23801	0.085688	0.097548	0.17029	0.2254	0.32027	0.13677	0.21993	0.21425	0.1631	0.40281	-2.1646	-2.3979	-2.2687	-2.6729	-2.2521	-2.525	-2.7146	-2.1854	-2.6458	-2.5167	-2.4042	-2.9875	-2.1896	-2.45	-2.5687	-2.2021	329.918	427.229	435.273	454.738	321.208	320.882	300.778	440.739	420.413	147.210	310.616	142.973	272.997	362.684	223.263	165.068	0.001308	0.14149	7.8424e-05	480.71	6.0237e-06	5.6741e-06	278.08	184.55	5.3574e-06	3.9524e-05	122.22	26.446	73.579	26.62	1.7518e-05	19.834	0.012141	0.011574	0.00020658	521.18	8.8643e-06	8.177e-06	933.57	197.89	8.9993e-06	1.437e-05	137.11	163.31	80.675	29	1.203e-05	22.032	205.710	142.135	285.803	151.962	476.548	331.276	173.360	157.505	145.805	238.350	154.555	151.882	161.510	168.209	341.710	163.245	-8191	255	
22402.914	1	1	0	131072	0.40461	0.063434	0.10196	0.089808	0.091243	0.17529	0.13106	0.18216	0.20848	0.054513	0.17316	0.090424	0.14417	0.024584	0.044123	0.15948	-2.0458	-2.65	-2.3063	-2.6979	-2.4292	-2.4042	-2.8854	-2.2042	-2.4688	-2.5375	-2.0771	-2.7438	-2.6	-2.5917	-2.6292	-2.3563	437.071	187.703	228.328	374.563	190.657	457.083	277.455	411.039	276.803	276.937	477.485	317.564	456.966	394.039	328.604	178.121	0.0003126	0.13904	0.00014367	476.65	8.1257e-06	2.9673e-06	265.2	182.18	1.5894e-06	1.7311e-05	121.79	26.566	74.212	26.751	3.4331e-05	20.415	0.00068908	0.027891	0.00020527	523.11	9.5804e-06	7.9547e-06	939.05	195.35	7.8522e-06	1.1803e-05	136.09	161.27	80.998	29.147	1.6064e-05	22.466	151.596	149.996	238.993	151.717	457.724	200.778	174.523	157.047	180.054	237.905	154.201	144.908	162.210	168.058	370.155	162.799	-8191	255	
22403.010	1	1	0	131072	0.28666	0.1867	0.14091	0.12704	0.18297	0.17893	0.21348	0.051999	0.10984	0.22499	0.12397	0.18381	0.12693	0.10917	0.029506	0.1685	-1.9646	-2.9	-2.1396	-2.6333	-2.6083	-2.4396	-2.9562	-2.2417	-2.4625	-2.7938	-2.2771	-2.5938	-2.7771	-2.3167	-2.7646	-2.4604	323.792	430.522	279.653	210.933	334.148	408.475	195.193	426.979	480.609	296.138	316.681	308.507	385.273	460.161	151.564	470.141	0.0003595	0.13951	0.0001122	477.42	1.277e-05	2.8126e-06	249.61	184.02	3.0905e-06	3.5091e-05	123.31	37.452	63.16	27.064	6.5551e-06	20.662	0.00069692	0.028385	0.0002065	515	9.1999e-06	8.2081e-06	927.18	197.16	8.0453e-06	1.632e-05	136.97	103.84	136.49	29.49	1.1207e-05	23.088	159.568	157.939	203.180	151.896	163.990	379.731	175.093	157.392	281.999	235.651	154.155	161.283	152.827	168.094	365.364	163.223	-8191	255	
22403.105	1	1	0	131072	0.26487	0.045959	0.047912	0.53774	0.094463	0.16683	0.012945	0.14847	0.06307	0.26244	0.39103	0.11967	0.22029	0.17223	0.091899	0.28461	-1.9625	-2.4917	-2.2354	-2.525	-2.6583	-2.2438	-2.8	-2.4583	-2.5312	-2.4917	-2.3312	-2.6667	-2.6896	-2.2458	-2.7208	-2.4896	479.237	304.704	369.071	460.270	383.855	434.741	139.586	221.051	418.909	211.539	470.041	259.580	198.782	386.528	330.940	238.541	0.00034076	0.13887	0.00022737	476.16	3.3543e-05	2.2657e-06	243.15	182.86	3.1505e-06	2.011e-05	123.6	56.861	37.586	27.276	1.9738e-05	20.967	0.00069804	0.027981	0.00020674	513.51	1.4435e-05	8.1695e-06	939.05	197.64	8.0696e-06	1.2169e-05	137.66	62.079	205.2	29.807	1.4479e-05	23.654	150.649	166.026	293.176	152.256	172.559	207.570	174.742	156.868	374.508	245.157	154.164	158.416	153.752	168.504	338.321	163.081	-8191	255	
22403.201	1	1	0	131072	0.19803	0.11244	0.071718	0.12987	0.095856	0.13512	0.029995	0.2038	0.17746	0.17625	0.063315	0.30498	0.11663	0.075578	0.066145	0.17509	-1.7437	-2.7729	-2.3167	-2.6333	-2.4208	-2.1875	-2.8104	-2.4313	-2.4167	-2.7729	-2.25	-2.3833	-2.7542	-2.3854	-2.7146	-2.3208	175.917	373.810	233.110	167.584	384.893	370.350	254.618	159.972	396.008	238.918	233.321	495.190	478.103	400.341	301.889	474.092	0.00032634	0.13993	4.9001e-05	478.17	1.5258e-05	3.0871e-06	193.51	184.41	3.0448e-06	2.0599e-05	124.54	57.798	38.963	27.076	1.1036e-05	20.456	0.00070867	0.028395	0.00020608	513.23	1.195e-05	8.2409e-06	921.02	199.51	8.2352e-06	1.5899e-05	138.75	62.393	207.59	29.36	1.0242e-05	22.868	150.138	171.544	230.874	151.459	492.774	448.118	174.330	157.411	231.889	303.344	154.585	158.361	152.046	167.892	354.520	163.376	-8191	255	
22403.297	1	1	0	131072	0.06719	0.040135	0.21571	0.15192	0.10855	0.24096	0.1064	0.17052	0.21542	0.30208	0.094176	0.04231	0.024524	0.23247	0.21283	0.32617	-1.9312	-2.8187	-2.1667	-2.3688	-2.6813	-2.2771	-2.5021	-2.5125	-2.4021	-2.675	-2.3875	-2.4979	-2.6521	-2.3979	-2.5896	-2.5708	213.965	484.709	357.755	314.089	305.264	413.556	261.990	400.544	231.936	265.151	479.527	167.676	251.727	191.856	240.146	477.589	0.00038626	0.13734	0.00039701	477.61	2.8383e-05	3.7774e-06	211.44	179.48	2.3721e-06	1.139e-05	123.25	55.605	39.929	26.718	2.2916e-05	19.963	0.00070043	0.027885	0.00022227	509.87	1.5936e-05	7.9485e-06	566.66	290.24	7.8252e-06	1.0961e-05	137.19	60.642	204.47	28.936	8.1632e-06	23.185	155.856	179.081	181.711	151.951	495.354	488.957	169.424	158.482	270.345	267.199	154.819	158.637	147.521	168.426	353.427	162.951	-8191	255	
22403.418	1	1	0	131072	0.22022	0.16427	0.29902	0.20029	0.33049	0.073885	0.35304	0.15855	0.1593	0.16412	0.097028	0.17703	0.21876	0.046835	0.25449	0.10594	-1.8458	-2.8792	-2.4917	-2.4896	-2.6042	-2.4375	-2.5542	-2.7104	-2.3271	-2.7812	-2.4729	-2.4667	-3.05	-2.5333	-2.3125	-2.5687	224.907	208.808	391.743	228.719	297.502	332.515	321.372	474.613	192.521	422.721	218.516	486.229	469.151	248.485	194.916	195.178	0.00039255	0.1386	0.00051585	476.11	1.4884e-05	4.0248e-06	320.72	131.4	3.88e-06	2.2697e-05	124.44	56.147	42.225	26.824	7.497e-06	20.406	0.00068822	0.028213	0.00024205	508.99	1.1754e-05	7.8036e-06	348.55	386.62	7.9273e-06	1.429e-05	139.29	61.184	207.4	29.136	7.8264e-06	23.303	162.128	183.242	235.089	511.862	498.348	239.742	509.625	170.742	253.719	272.952	154.343	158.410	506.852	167.665	302.996	163.166	-8191	255	
22403.514	1	1	0	131072	0.073384	0.14701	0.083399	0.22843	0.2324	0.20329	0.25582	0.09678	0.022921	0.10902	0.21576	0.16858	0.11354	0.26096	0.26661	0.038483	-1.8188	-2.7208	-2.4979	-2.6271	-2.675	-2.2958	-2.4125	-2.6688	-2.3937	-2.5604	-2.5	-2.5208	-2.6937	-2.3583	-2.5333	-2.8	456.038	250.263	233.953	468.183	398.760	306.313	489.547	377.488	444.369	275.599	340.124	380.534	198.185	455.014	419.188	413.889	0.00033122	0.050246	0.000277	479.66	1.7126e-05	5.6478e-06	326.34	131.12	6.3348e-06	8.4132e-06	125.53	57.402	44.98	27.577	3.2135e-06	21.252	0.00068424	0.026315	0.00022647	512.63	1.5142e-05	7.808e-06	353.22	391.54	7.7995e-06	9.9794e-06	140.7	62.63	205.45	29.984	7.7803e-06	25.053	507.538	259.492	207.384	152.102	160.102	274.895	509.506	169.632	266.751	306.940	154.807	158.406	504.719	167.899	277.468	163.280	-8191	255	
22403.609	1	1	0	131072	0.11199	0.24451	0.059314	0.15693	0.14561	0.24166	0.097252	0.23769	0.18307	0.25611	0.043594	0.1138	0.16887	0.12702	0.17664	0.094532	-1.8479	-2.5479	-2.5958	-2.4646	-2.8292	-2.5167	-2.3854	-2.8625	-2.2771	-2.5833	-2.5729	-2.2396	-2.6792	-2.45	-2.3208	-2.9062	500.747	331.373	165.268	488.820	299.966	477.936	347.348	443.413	390.822	174.567	492.055	390.671	351.197	427.096	222.820	248.861	0.00033671	0.071036	0.034275	479.95	8.089e-06	9.393e-06	332.99	127.89	2.5697e-06	6.7387e-06	131.13	61.378	49.144	28.806	4.1899e-06	23.019	0.00067997	0.0097535	0.0042176	514.7	1.0701e-05	8.4266e-06	358.81	390.13	7.4867e-06	7.5897e-06	151.98	65.821	209.39	31.447	7.4585e-06	26.099	510.074	266.898	183.665	151.375	167.237	181.427	509.435	169.051	286.289	309.544	154.565	158.284	505.136	167.188	166.864	162.902	-8191	255	
22403.705	1	1	0	131072	0.38765	0.058485	0.061572	0.1406	0.096793	0.19095	0.19575	0.21029	0.20468	0.18463	0.13123	0.20645	0.16686	0.069901	0.185	0.17245	-1.85	-2.6167	-2.6625	-2.3917	-2.6167	-2.5167	-2.4104	-2.7417	-2.2333	-2.5563	-2.6229	-2.2	-2.8312	-2.6896	-2.2917	-2.6375	430.660	212.118	497.883	171.053	425.435	194.989	468.424	327.551	422.652	426.875	246.098	458.136	495.916	457.347	329.843	444.308	0.00045235	0.00023758	0.035624	486.78	2.1218e-05	1.3707e-05	339.13	130.36	4.8441e-06	4.1783e-06	131.66	61.062	53.13	29.434	1.9528e-06	22.664	0.00065451	0.00068703	0.0077919	519.67	1.3673e-05	9.3471e-06	364.82	397.47	7.6888e-06	7.6867e-06	149.83	66.487	195.48	32.061	7.8922e-06	26.353	151.176	205.040	221.394	151.902	171.380	182.993	509.299	167.638	319.120	194.287	154.375	158.075	164.697	167.722	228.847	162.837	-8191	255	
22403.803	1	1	0	131072	0.1003	0.12208	0.21947	0.24536	0.038116	0.224	0.27996	0.22036	0.10284	0.21837	0.12327	0.25031	0.16032	0.18709	0.096758	0.14063	-1.8833	-2.4125	-2.6562	-2.2792	-2.7167	-2.5521	-2.3083	-2.8167	-2.2938	-2.3312	-2.6937	-2.2854	-2.65	-2.6917	-2.3438	-2.7542	260.326	198.424	500.635	347.285	220.233	468.081	445.676	397.028	287.028	281.757	167.620	189.130	397.070	358.547	503.700	466.043	0.00041649	0.00054149	0.036028	480.92	4.2455e-06	2.1581e-05	285.81	100.74	4.6317e-06	3.3589e-06	110.37	51.687	53.616	22.046	3.4679e-06	19.39	0.00069171	0.00072429	0.0079167	514.18	9.6752e-06	8.9451e-06	315.18	367.87	7.5827e-06	7.0045e-06	132.54	57.029	109.74	44.309	7.0355e-06	22.098	165.549	512.247	226.394	511.330	436.300	205.947	153.791	171.216	404.369	324.082	156.383	159.504	164.321	156.906	278.439	164.204	-8191	255	
22403.898	1	1	0	131072	0.2514	0.047207	0.19956	0.37937	0.24127	0.079472	0.084993	0.23223	0.15156	0.1604	0.088843	0.14729	0.14381	0.21874	0.1117	0.2158	-2	-2.35	-2.7521	-2.4542	-2.5854	-2.5687	-2.2687	-2.8917	-2.5292	-2.2833	-2.6083	-2.25	-2.6542	-2.5354	-2.2313	-2.8083	331.394	453.179	200.449	194.847	170.952	264.072	468.126	318.248	253.256	182.423	267.050	392.740	324.465	200.935	171.893	456.089	0.00018755	0.00029855	0.034677	406.09	5.9226e-07	3.4428e-05	281.67	99.265	1.1522e-05	3.9371e-06	109.25	51.474	66.723	18.253	3.0128e-06	17.492	0.00066781	0.0006473	0.0077425	441.69	6.9544e-06	1.3165e-05	310.52	371	8.5531e-06	7.126e-06	128.55	56.876	73.254	56.406	6.8789e-06	20.53	152.021	484.360	234.367	152.920	260.326	205.012	510.674	169.061	404.416	269.354	155.985	159.197	163.731	154.069	348.607	176.191	-8191	255	
22403.994	1	1	0	131072	0.25287	0.17207	0.17879	0.096637	0.097032	0.12876	0.18494	0.10304	0.17687	0.12768	0.26856	0.16245	0.11945	0.16644	0.19553	0.065258	-2.0979	-2.2042	-2.7229	-2.4375	-2.3771	-2.6229	-2.2562	-2.6917	-2.425	-2.3187	-2.7687	-2.3833	-2.6458	-2.8375	-2.3583	-2.7188	251.659	159.956	268.535	366.303	284.022	366.546	467.216	274.333	401.297	427.219	395.951	273.984	367.179	442.805	403.269	343.971	9.7559e-05	0.00027333	0.036426	337.71	3.4985e-06	1.1444e-05	237.87	82.76	2.0158e-05	3.2729e-06	93.643	43.62	55.267	15.625	1.7486e-06	16.407	0.00062431	0.00054527	0.0078264	373.17	5.6344e-06	8.5379e-06	266.6	315.79	6.6154e-06	5.4559e-06	113.31	48.725	61.515	53.71	5.2208e-06	18.852	465.477	204.321	239.896	513.627	285.561	199.312	512.053	176.239	258.917	288.978	517.567	160.351	164.753	511.324	267.552	164.855	-8191	255	
22404.090	1	1	0	131072	0.28249	0.11882	0.28023	0.30262	0.18584	0.19342	0.20344	0.030023	0.20162	0.14675	0.20458	0.30282	0.21655	0.35087	0.14695	0.21135	-2.05	-2.3104	-2.8604	-2.5	-2.5208	-2.7188	-2.2625	-2.7771	-2.6312	-2.2604	-2.75	-2.3812	-2.3312	-2.5667	-2.3	-2.5646	454.400	448.118	500.840	429.049	444.786	473.867	481.844	267.213	219.434	326.825	510.080	392.806	394.495	443.010	217.811	450.497	0.00017563	0.00026691	0.033507	338.59	3.036e-06	2.7798e-05	241.41	94.62	0.0001993	3.6639e-06	94.614	43.604	54.972	16.17	3.2965e-06	15.53	0.00055749	0.00046709	0.0076595	374.78	4.9031e-06	1.1193e-05	269.86	196.42	0.00018627	4.8522e-06	110.14	48.862	61.021	52.803	4.7635e-06	17.598	475.195	290.304	246.078	153.871	275.971	205.606	511.759	169.824	490.894	274.866	156.689	161.306	164.994	511.096	247.707	165.439	-8191	255	
22404.186	1	1	0	131072	0.15263	0.1035	0.12151	0.17184	0.20852	0.14515	0.26965	0.17257	0.07735	0.33797	0.23303	0.14701	0.11587	0.17752	0.23835	0.093216	-2.2333	-2.3646	-2.8125	-2.3438	-2.375	-2.6583	-2.4313	-2.6646	-2.7104	-2.4229	-2.6208	-2.5333	-2.3167	-2.9	-2.2271	-2.6229	341.611	244.473	472.744	407.155	329.609	287.182	391.092	186.819	202.955	419.470	483.323	374.133	293.491	147.367	241.289	347.296	0.00025006	0.00046252	0.035859	337.72	1.9331e-06	1.4613e-05	236.04	132.56	0.00093292	1.0677e-06	91.768	42.2	54.187	16.427	3.872e-06	15.318	0.00089891	0.00044206	0.0077777	373.25	4.7504e-06	7.7957e-06	262.01	146.33	0.00029807	4.8022e-06	109.79	47.368	60.59	53.095	4.6411e-06	17.256	433.216	226.636	253.378	153.740	197.302	217.990	151.757	160.273	407.713	260.784	156.508	160.540	165.246	151.829	264.832	164.953	-8191	255	
22404.305	1	1	0	131072	0.24237	0.038332	0.28524	0.1347	0.089919	0.18127	0.19315	0.16929	0.21657	0.043809	0.19639	0.043616	0.078497	0.19876	0.08121	0.23244	-2.1167	-2.1271	-2.8896	-2.5417	-2.2687	-2.4667	-2.1646	-2.4271	-2.775	-2.2562	-2.55	-2.6688	-2.2708	-2.8021	-2.3917	-2.5583	384.564	428.959	390.798	480.092	397.391	238.824	378.479	190.319	242.585	280.529	461.369	327.637	166.760	157.218	386.892	330.873	0.0001141	0.00012426	0.023815	393.99	3.2512e-06	1.1596e-05	236.04	133.12	0.0010072	1.6931e-06	91.89	42.661	55.298	17.505	7.6013e-06	16.033	0.0006542	0.00042573	0.0062364	391.08	4.5576e-06	9.4101e-06	261.25	147	0.00030336	4.4687e-06	104.8	47.954	61.37	52.896	5.1367e-06	17.962	456.356	238.975	297.010	153.041	273.561	260.286	151.403	160.050	414.585	290.949	156.441	160.690	164.825	152.959	213.288	164.978	-8191	255	
22404.379	1	1	0	131072	0.10349	0.055079	0.21926	0.069874	0.39033	0.14438	0.12156	0.19616	0.29515	0.17497	0.053628	0.077878	0.30388	0.1144	0.086725	0.25475	-2.0812	-2.3854	-2.4562	-2.5896	-2.3979	-2.5771	-2.1917	-2.425	-2.8958	-2.4	-2.5625	-2.4813	-2.2812	-2.7646	-2.2396	-2.2979	445.577	320.701	329.500	143.517	319.637	368.516	433.463	155.414	397.963	498.574	426.007	145.080	143.380	183.687	342.473	264.773	0.00020041	0.000325	0.030167	356.79	3.094e-06	8.2544e-06	234.23	133.9	0.00091196	1.8336e-06	91.487	43.781	56.093	18.327	1.2762e-05	16.688	0.00089878	0.00041012	0.0016286	706.14	4.5626e-06	6.852e-06	261.85	147.71	0.00029745	4.5925e-06	103.88	50.606	62.182	53.925	5.9857e-06	18.762	374.983	301.402	306.281	151.843	311.285	241.755	151.566	159.937	421.159	225.950	156.600	161.051	164.582	154.117	226.468	165.252	-8191	255	
22404.498	1	1	0	131072	0.16973	0.16862	0.14809	0.20082	0.23563	0.25807	0.11695	0.1203	0.13417	0.10367	0.074939	0.071918	0.11101	0.15891	0.17968	0.24095	-2.0438	-2.3312	-2.5896	-2.6542	-2.2042	-2.6	-2.3708	-2.3812	-2.7021	-2.5229	-2.5854	-2.8063	-2.1896	-2.9583	-2.5563	-2.3146	216.115	423.702	254.381	391.517	278.592	425.933	336.392	385.946	417.779	214.038	171.636	173.928	156.005	235.294	467.867	494.717	8.8927e-05	0.00044837	4.3073e-05	330.53	3.1831e-06	1.86e-05	237.25	134.22	0.0010075	6.4927e-07	92.196	44.293	56.745	17.525	0.0010954	17.267	0.00067072	0.00043881	0.00012294	873.87	4.9386e-06	9.7125e-06	265.99	148.73	0.00030385	4.9332e-06	104.75	50.321	62.929	46.994	2.8062e-05	19.427	456.692	346.697	314.292	166.261	277.219	220.568	151.779	160.033	427.621	370.551	156.230	160.850	164.700	170.075	203.200	165.102	-8191	255	
22404.594	1	1	0	131072	0.17222	0.097353	0.16795	0.23472	0.20418	0.15289	0.13752	0.16581	0.2394	0.14265	0.22178	0.12537	0.02391	0.069411	0.2372	0.15632	-2.4021	-2.3312	-2.6792	-2.6667	-2.1625	-2.6188	-2.7	-2.3479	-2.9188	-2.4021	-2.5375	-2.7729	-2.3396	-2.7125	-2.6562	-2.3354	192.258	237.390	370.409	353.408	200.700	468.388	501.366	474.063	401.539	345.811	353.630	399.863	211.707	152.968	404.668	210.241	0.00011335	0.00050456	1.0276e-05	324.88	2.1911e-06	9.6224e-07	235.78	134.16	0.0009221	4.9564e-06	90.911	42.868	55.303	20.698	0.0011031	16.225	0.0008475	0.00052581	0.00012836	884.11	5.0934e-06	6.2537e-06	265.31	148.2	0.00029751	5.7987e-06	103.61	50.081	61.894	28.373	0.00021333	18.333	467.828	448.360	186.117	167.980	266.746	227.816	151.552	160.046	433.439	495.219	156.219	160.935	165.044	170.723	198.100	164.603	-8191	255	
22404.689	1	1	0	131072	0.20176	0.25029	0.12953	0.046621	0.13112	0.099101	0.097534	0.12688	0.099734	0.1955	0.17663	0.32859	0.1568	0.2845	0.1812	0.17045	-2.1042	-2.3833	-2.4396	-2.8354	-2.1604	-2.4896	-2.5146	-2.4646	-2.5958	-2.4938	-2.5208	-2.6625	-2.2333	-2.4854	-2.7208	-2.2188	291.372	405.716	324.600	496.231	394.167	383.148	326.692	465.308	255.379	174.575	303.670	414.474	482.338	168.928	410.514	468.994	0.00020452	0.00075099	9.5007e-05	313.96	8.1179e-07	2.9841e-06	236.81	133.33	0.00099212	1.0808e-05	91.24	43.242	55.43	21.363	0.0010136	16.655	0.00065962	0.00054201	0.00013589	872.19	5.3725e-06	5.3502e-06	273.66	147.45	0.00030267	6.7157e-06	104.09	49.331	62.033	23.874	0.00029982	18.925	487.892	424.886	178.979	169.253	235.551	278.039	151.749	159.795	440.407	489.702	156.251	160.943	164.764	170.368	205.884	164.951	-8191	255	
22404.785	1	1	0	131072	0.22256	0.20328	0.15897	0.18372	0.34984	0.047384	0.11153	0.25768	0.23315	0.19382	0.1133	0.32392	0.11585	0.22847	0.20939	0.019524	-2.1312	-2.3729	-2.3625	-2.7333	-2.2792	-2.6229	-2.4833	-2.2958	-2.6854	-2.4042	-2.2604	-2.4583	-2.5167	-2.4833	-2.6458	-2.2812	218.340	336.412	281.414	428.024	489.961	244.766	457.236	151.281	368.651	459.261	203.031	417.403	241.754	346.299	362.854	397.173	0.000228	0.0015097	0.0001133	285.15	4.1791e-06	8.9606e-07	195.17	109.39	0.00079648	0.00067074	76.985	36.599	46.509	18.007	0.0010962	14.332	0.00086191	0.00060452	0.00012648	846.2	4.3063e-06	4.3305e-06	227.2	123.26	0.00019861	3.7034e-05	88.82	43.135	52.574	20.395	0.00030346	16.331	447.834	429.241	191.489	179.690	305.491	450.600	152.721	161.233	401.621	166.209	157.224	162.265	165.439	171.376	212.360	165.601	-8191	255	
22404.906	1	1	0	131072	0.14094	0.21299	0.16582	0.14362	0.2732	0.11301	0.10885	0.11574	0.18915	0.098171	0.20412	0.36474	0.16682	0.10125	0.21835	0.15	-2.0604	-2.4375	-2.0583	-2.7938	-2.3	-2.4479	-2.6646	-2.3312	-2.4521	-2.4646	-2.3812	-2.4833	-2.2875	-2.4875	-2.7771	-2.325	386.555	421.101	188.372	414.182	383.895	229.532	394.872	247.275	364.140	427.843	175.553	305.817	247.917	462.452	311.884	242.676	0.0001036	0.0015267	2.7224e-05	255.31	6.3795e-06	1.723e-06	203.16	110.13	0.00081214	0.00064618	78.186	34.56	39.023	15.152	0.00076588	12.411	0.00040097	0.00047495	9.1963e-05	821.79	4.1007e-06	3.4949e-06	237.74	123.48	3.634e-05	0.00022657	89.721	39.658	45.089	17.484	0.00023921	14.392	165.886	460.347	284.619	175.078	339.611	314.758	152.687	161.246	415.378	158.479	157.144	175.245	169.960	172.802	219.388	166.873	-8191	255	
22405.004	1	1	0	131072	0.05226	0.080461	0.087844	0.11904	0.043984	0.25193	0.049673	0.062881	0.10535	0.073933	0.18361	0.10468	0.19695	0.15553	0.1844	0.11182	-2.1312	-2.6229	-2.3146	-2.7875	-2.3563	-2.2792	-2.6292	-2.3646	-2.4667	-2.5979	-2.2604	-2.5687	-2.4417	-2.3792	-2.7354	-2.35	205.134	317.759	448.258	220.007	225.960	387.374	455.702	190.892	184.406	417.771	161.141	242.159	398.964	197.274	491.465	394.888	0.00018471	0.0023789	5.9435e-05	215.21	7.4147e-06	5.2036e-07	162.85	90.678	1.6423e-06	0.0007232	63.525	30.98	38.79	15.484	0.0010777	12.46	0.0002723	0.00069551	7.9402e-05	789.19	4.1436e-06	3.2567e-06	191.55	104.62	3.2386e-06	0.00022747	74.824	37.008	45.304	17.977	0.00030132	14.524	159.046	426.356	245.616	182.518	360.008	382.321	153.955	161.832	230.969	472.101	158.182	162.785	166.648	172.648	225.278	166.181	-8191	255	
22405.074	1	1	0	131072	0.18698	0.051778	0.20935	0.03843	0.16371	0.051971	0.13565	0.19192	0.13647	0.03422	0.11953	0.12654	0.13331	0.12125	0.14255	0.067225	-1.9729	-2.4688	-2.1167	-2.5833	-2.5563	-2.3521	-2.7438	-2.3729	-2.4833	-2.7354	-2.25	-2.5708	-2.3438	-2.1875	-2.7583	-2.4375	386.899	288.806	295.504	293.251	209.154	391.895	287.943	491.888	419.590	408.177	277.047	340.175	232.698	488.593	372.323	465.839	0.00021639	0.00083148	4.0412e-05	228.59	0.00011358	1.354e-06	160.38	90.745	2.5746e-06	0.0010505	61.904	29.967	38.211	15.129	0.00072729	12.232	0.00029941	0.00050687	8.6973e-05	558.88	3.9676e-05	3.4689e-06	191.2	104.47	3.4676e-06	0.00030395	73.353	34.881	44.894	17.561	0.0002228	14.318	154.976	435.932	295.631	174.418	262.940	192.008	153.491	161.951	253.769	478.358	158.433	162.724	166.699	172.318	232.022	166.557	-8191	255	
22405.193	1	1	0	131072	0.043945	0.099237	0.31583	0.15928	0.23672	0.15375	0.075031	0.12014	0.24832	0.33284	0.164	0.18395	0.052461	0.16846	0.16341	0.12734	-2.0854	-2.4813	-2.2458	-2.5687	-2.4667	-2.1229	-2.6042	-2.2313	-2.4146	-2.6375	-2.2562	-2.7125	-2.55	-2.0375	-2.6312	-2.4021	272.813	338.588	377.223	502.494	244.555	163.834	195.729	390.514	190.233	363.555	267.367	263.005	283.618	456.184	160.463	145.506	0.00017083	0.001883	2.36e-05	213.17	0.00021002	2.5355e-06	160.34	90.103	2.1309e-06	0.00059877	51.858	24.801	31.364	12.455	0.0010608	10.22	0.00031898	0.00071963	9.1086e-05	295.03	0.00023498	3.6654e-06	188.7	103.96	3.1836e-06	0.00019137	61.999	29.243	38.667	14.727	0.00029893	12.271	155.565	448.871	453.228	181.947	271.414	318.660	153.216	161.867	299.469	486.066	159.450	163.305	168.191	173.022	237.812	167.013	-8191	255	
22405.289	1	1	0	131072	0.30575	0.25437	0.10499	0.038567	0.0088714	0.22431	0.15703	0.12371	0.17668	0.10595	0.15702	0.16085	0.21056	0.12811	0.32237	0.11005	-1.8646	-2.6813	-2.1208	-2.7146	-2.6333	-2.1792	-2.4125	-2.375	-2.2354	-2.8021	-2.0854	-2.3146	-2.5687	-2.3229	-2.8083	-2.4542	250.324	477.540	396.433	177.082	444.727	158.288	472.526	198.612	191.506	255.852	149.576	308.199	259.550	379.635	373.331	203.404	0.00017333	0.00087487	4.1259e-05	184.73	0.00058502	2.1131e-07	130.44	73.136	1.0728e-06	0.001021	51.308	25.227	31.247	12.577	0.00017978	14.827	0.00027772	0.00045223	7.9162e-05	215.66	0.0001836	3.1663e-06	160.36	86.348	3.1523e-06	0.00030167	62.237	29.729	37.777	14.81	0.00012098	18.336	153.128	440.506	276.841	156.998	368.397	412.806	154.719	162.670	247.896	491.079	158.741	163.228	167.627	172.650	320.329	170.695	-8191	255	
22405.387	1	1	0	131072	0.058466	0.21109	0.17247	0.18886	0.31059	0.044418	0.15488	0.25516	0.19163	0.0029771	0.0089925	0.1732	0.1739	0.31062	0.093419	0.076629	-1.6854	-2.5083	-2.2021	-2.425	-2.5354	-2.4062	-2.5667	-2.3958	-2.2667	-2.6333	-2.2188	-2.3479	-2.7333	-2.0583	-2.4229	-2.3771	260.224	195.859	454.863	430.678	223.754	191.456	184.202	248.720	353.478	495.517	434.358	150.835	270.446	474.267	364.270	492.553	0.00017727	0.0008986	0.00019407	149.38	0.00094341	4.5977e-07	109.06	59.629	1.8271e-06	0.00049769	42.814	20.818	25.216	10.09	0.00036029	14.632	0.00022921	0.00044599	8.0602e-05	178.02	0.00029441	2.5094e-06	131.49	71.666	2.4991e-06	0.0001611	53.012	24.947	31.958	12.145	7.1807e-06	48.726	150.697	449.846	475.639	157.725	373.689	345.632	155.782	163.654	309.958	498.750	159.556	164.260	168.931	173.854	314.793	164.332	-8191	255	
22405.482	1	1	0	131072	0.30226	0.16035	0.093658	0.24506	0.31726	0.12983	0.13037	0.23068	0.22665	0.12972	0.21174	0.097335	0.11248	0.19556	0.13963	0.23507	-1.5438	-2.6333	-2.525	-2.3937	-2.7271	-2.2062	-2.4625	-2.2167	-2.2062	-2.6792	-2.3125	-2.3792	-2.4792	-2.1688	-2.375	-2.7	213.256	391.945	427.273	179.685	395.626	369.366	279.069	205.190	376.206	494.889	231.327	492.306	192.871	315.095	330.734	238.376	0.00012847	0.0002804	8.1704e-05	151.21	0.00052393	5.3846e-07	110.62	59.851	1.0566e-06	0.00096865	42.494	20.145	24.703	9.6855	2.1267e-06	12.302	0.00021713	0.00033243	7.0378e-05	179.77	0.00016375	2.4392e-06	132.43	73.236	2.4481e-06	0.00029897	52.899	24.143	30.578	11.647	2.4755e-06	36.17	504.931	439.780	179.642	157.726	380.577	205.874	155.337	163.857	263.107	503.319	159.230	163.889	168.374	173.882	259.518	176.026	-8191	255	
22405.602	1	1	0	131072	0.16227	0.25869	0.090858	0.12152	0.13848	0.07653	0.22849	0.13295	0.09829	0.079512	0.2746	0.17565	0.042569	0.10601	0.19365	0.13108	-1.7437	-2.4333	-2.4646	-2.3083	-2.7771	-2.3417	-2.3063	-2.5479	-2.2667	-2.6958	-2.5812	-2.1417	-2.5854	-2.4958	-2.4167	-2.7417	477.050	302.577	395.868	345.321	164.378	167.984	349.564	452.023	147.094	448.572	415.492	259.290	440.119	386.305	365.507	395.266	0.00013399	0.00056207	0.0001991	148.65	0.00097632	2.4218e-06	108.07	59.156	1.7205e-06	0.00034878	67.399	20.129	24.733	9.6751	5.7027e-07	14.39	0.00021615	0.00042967	8.0129e-05	177.16	0.00029502	2.5243e-06	130.09	71.477	2.5055e-06	0.00010008	108.41	24.289	31.026	11.764	2.5231e-06	56.177	155.351	359.937	493.125	157.795	385.835	280.841	155.354	163.628	166.626	436.286	485.400	164.129	168.420	174.086	264.324	183.029	-8191	255	
22405.674	1	1	0	131072	0.20861	0.20868	0.050415	0.14401	0.21546	0.06018	0.1322	0.1552	0.15771	0.15734	0.32837	0.3302	0.14496	0.10841	0.27964	0.20429	-1.9896	-2.5625	-2.6375	-2.2458	-2.8479	-2.3792	-2.4313	-2.3833	-2.1562	-2.6417	-2.6042	-2.2313	-2.5292	-2.2313	-2.3708	-2.6458	349.347	372.102	208.923	215.083	464.094	416.491	162.117	423.332	242.668	217.933	399.229	277.698	149.146	336.003	233.463	488.190	0.00015551	0.0002078	0.00031475	149.7	0.00052645	4.568e-06	110.27	60.083	1.3368e-06	2.8307e-07	89.363	20.548	25.121	9.9046	9.6274e-07	12.584	0.00022625	0.00026694	9.1978e-05	178.5	0.00016546	2.9459e-06	133.45	73.554	2.5995e-06	2.575e-06	391.97	24.85	30.848	11.979	2.6197e-06	37.127	158.893	366.966	169.044	157.724	392.386	457.162	155.387	163.758	394.409	171.333	471.367	163.973	168.553	173.741	288.212	180.693	-8191	255	
22405.770	1	1	0	131072	0.08564	0.31357	0.1873	0.08741	0.16394	0.25612	0.22274	0.11724	0.10412	0.10824	0.085179	0.097584	0.11369	0.178	0.12621	0.12019	-1.7563	-2.5167	-2.5854	-2.1146	-2.7479	-2.3292	-2.425	-2.6479	-2.2292	-2.4896	-2.6813	-2.2062	-2.475	-2.475	-2.1813	-2.5833	163.368	341.324	184.212	311.697	329.609	337.268	214.434	390.717	187.836	415.482	402.500	372.682	501.056	481.690	468.519	209.718	0.0001395	3.2079e-05	0.00053024	150.48	0.00097642	3.5899e-06	111.46	59.666	2.5183e-07	1.096e-06	54.322	20.857	25.377	9.9505	2.1415e-07	14.24	0.00023465	0.00023969	0.00014889	179.22	0.00029479	3.4102e-06	134.43	72.449	2.654e-06	2.6763e-06	274.62	25.242	31.491	12.173	2.7137e-06	56.606	148.483	195.533	496.093	157.759	398.269	451.746	155.162	163.709	493.325	178.345	476.258	164.020	168.664	173.848	304.374	190.066	-8191	255	
22405.865	1	1	0	131072	0.19026	0.24437	0.33399	0.097254	0.47185	0.12393	0.1932	0.12189	0.10864	0.17041	0.24735	0.23773	0.10056	0.044701	0.20468	0.27757	-1.7646	-2.3542	-2.4896	-2.1583	-2.6375	-2.5208	-2.2583	-2.5146	-2.4667	-2.375	-2.4417	-2.2062	-2.4562	-2.4833	-2.0625	-2.8417	459.071	364.407	215.629	436.048	276.886	319.680	168.170	443.769	317.750	294.681	238.146	176.045	308.891	405.707	353.005	469.501	0.00023411	0.00028262	0.00024294	150.05	0.0005876	0.00021466	112.67	59.765	5.4071e-06	9.576e-07	78.183	20.894	25.133	9.7537	1.2279e-06	12.815	0.00024662	0.00024693	0.00010947	179.33	9.1374e-05	5.1622e-05	135.66	73.189	3.3533e-06	2.6808e-06	441.78	25.128	30.391	11.981	2.7603e-06	41.064	151.882	320.298	503.508	157.393	387.801	155.937	155.339	163.894	301.833	311.574	456.093	163.953	168.469	173.873	352.124	177.494	-8191	255	
22405.986	1	1	0	131072	0.24999	0.19462	0.21469	0.08212	0.30389	0.13314	0.42866	0.31449	0.094797	0.21137	0.18777	0.023586	0.19521	0.080464	0.16399	0.40918	-1.9125	-2.3521	-2.6562	-2.3187	-2.4417	-2.5417	-2.0396	-2.6417	-2.375	-2.3167	-2.8604	-2.1917	-2.4437	-2.5479	-2.1542	-2.5854	282.805	483.940	359.773	441.643	238.938	189.269	278.457	477.005	487.946	376.745	422.306	476.126	344.626	301.817	441.271	466.427	0.00021586	0.00017941	0.00061606	183.45	7.8712e-07	0.00034542	132.96	72.5	4.4003e-06	3.8835e-07	74.925	24.752	30.573	11.779	1.3637e-06	14.649	0.00031377	0.00029421	0.00018048	214.79	3.1496e-06	0.00027753	158.25	86.268	3.6029e-06	3.2067e-06	334.09	29.398	36.158	14.591	3.2031e-06	57.866	172.602	180.574	158.528	156.891	246.950	154.589	154.410	163.106	290.550	408.659	481.700	163.162	167.366	173.280	256.374	195.421	-8191	255	
22406.082	1	1	0	131072	0.043071	0.19733	0.17605	0.22069	0.10614	0.10564	0.13744	0.056518	0.12913	0.077422	0.19352	0.13314	0.12471	0.14052	0.30552	0.14137	-1.7958	-2.2812	-2.5729	-2.2	-2.4042	-2.7146	-2.3271	-2.4542	-2.3292	-2.4	-2.8063	-2.3583	-2.325	-2.675	-2.2542	-2.4979	416.103	335.119	328.383	380.314	414.315	422.115	269.090	491.293	249.448	157.837	413.692	435.833	152.553	204.945	462.820	319.572	0.00024643	0.00027134	0.00026914	183.26	2.8057e-06	0.00074358	142.79	86.614	1.0421e-05	1.6975e-06	98.738	31.155	37.928	14.778	9.5593e-07	12.69	0.00035353	0.00029075	0.00013187	214.21	3.1335e-06	0.00020555	162.83	101.62	4.8395e-06	3.8133e-06	463.66	36.129	43.946	17.571	3.7721e-06	34.987	180.468	260.527	157.965	157.166	324.706	430.143	143.158	158.899	291.458	257.905	473.408	161.677	166.546	172.387	275.593	189.445	-8191	255	
22406.180	1	1	0	131072	0.15811	0.20517	0.18225	0.21867	0.26949	0.10526	0.14046	0.087651	0.074036	0.14803	0.1501	0.08998	0.24843	0.096194	0.08699	0.096846	-2.1625	-2.2083	-2.4	-2.1771	-2.5583	-2.7083	-2.2604	-2.4542	-2.4708	-2.3958	-2.625	-2.4854	-2.4271	-2.6167	-2.1833	-2.5646	245.068	443.770	258.875	397.055	262.283	265.199	170.551	146.224	227.607	152.355	296.539	437.122	308.449	173.262	225.801	442.159	0.0086261	0.00023953	0.00042782	226.72	2.6256e-06	0.0012021	167.74	89.145	5.4724e-06	1.9739e-06	103.82	31.768	38.292	15.285	1.4924e-07	15.743	0.0073998	0.00034887	0.00019091	262.13	3.7726e-06	0.00030507	194.73	103.4	5.5145e-06	3.7713e-06	415.07	36.987	44.301	17.924	4.4077e-06	18.043	167.973	343.131	146.338	156.048	243.991	438.001	153.643	162.254	298.745	184.323	487.114	162.228	166.391	162.389	370.743	164.811	-8191	255	
22406.275	1	1	0	131072	0.15086	0.14728	0.064999	0.086543	0.27041	0.23583	0.062799	0.10058	0.15592	0.25964	0.061036	0.13628	0.26496	0.14373	0.338	0.33127	-1.9792	-2.1833	-2.5729	-2.3312	-2.4521	-2.7958	-2.2979	-2.5083	-2.2979	-2.3458	-2.6771	-2.3042	-2.3937	-2.7479	-2.2479	-2.525	228.105	335.548	248.214	317.922	397.918	429.051	229.640	221.632	498.667	387.455	470.210	423.435	269.719	480.969	461.980	497.356	0.011656	0.00028548	0.00021039	280.06	2.6858e-06	0.0010997	210.31	111.44	2.2043e-05	2.111e-06	116.73	40.153	47.57	18.836	2.0383e-06	16.284	0.024179	0.00041845	0.00017559	317.02	4.5807e-06	0.00030137	239.75	125.67	1.0286e-05	4.6493e-06	479.12	45.948	53.947	21.884	4.6519e-06	18.708	164.399	212.530	180.383	155.101	320.529	444.118	152.841	161.220	311.828	338.046	484.280	160.705	165.615	171.323	345.597	166.103	-8191	255	
22406.369	1	1	0	131072	0.064329	0.18558	0.17904	0.045651	0.17235	0.26899	0.095019	0.2587	0.15274	0.080953	0.19549	0.17544	0.13464	0.074654	0.12279	0.080164	-2.1271	-2.1396	-2.5625	-2.4542	-2.2396	-2.7146	-2.3104	-2.5187	-2.4833	-2.1354	-2.5646	-2.65	-2.1688	-2.7229	-2.3042	-2.4083	295.425	420.435	338.698	292.044	366.311	443.810	448.025	402.269	162.302	215.147	279.366	475.069	296.620	330.383	171.871	424.909	0.016397	0.00041983	0.00012353	283.27	8.7216e-07	0.0011951	246.84	133.1	1.3809e-05	3.2972e-06	81.533	57.335	56.478	22.223	1.1215e-05	18.486	0.024854	0.00042568	0.00020774	319.23	4.8139e-06	0.00030689	278.74	148.2	9.0194e-06	5.486e-06	284.15	92.221	63.289	25.58	6.9634e-06	20.957	225.913	231.498	376.236	154.943	259.562	449.928	149.228	159.640	323.761	225.096	154.407	145.009	164.637	170.395	462.167	164.807	-8191	255	
22406.469	1	1	0	131072	0.218	0.21728	0.16281	0.20367	0.045198	0.29956	0.10823	0.22032	0.28818	0.058853	0.17584	0.14945	0.047715	0.20081	0.36899	0.067518	-2.35	-2.3146	-2.4958	-2.4271	-2.2875	-2.6646	-2.3542	-2.4854	-2.6188	-2.3187	-2.4271	-2.5708	-2.2354	-2.6042	-2.3688	-2.3021	301.914	170.965	296.860	420.469	491.151	293.297	466.707	229.808	255.458	425.289	404.295	430.222	292.172	314.795	456.298	470.355	0.018085	0.0001105	0.00011458	338.51	7.0378e-07	0.0011647	244.58	132.72	2.5771e-05	1.1002e-06	97.188	51.012	56.653	22.4	8.2141e-06	19.02	0.025472	0.00050361	0.00015109	376.31	5.4693e-06	0.00030334	275.63	147.32	1.2177e-05	5.5231e-06	110.54	155.9	63.164	25.508	6.2191e-06	21.441	232.666	419.413	398.230	153.984	264.221	456.958	151.170	160.035	329.876	273.026	156.474	501.834	163.946	169.605	470.363	164.864	-8191	255	
22406.588	1	1	0	131072	0.11052	0.20995	0.17457	0.22167	0.20763	0.007171	0.14648	0.11146	0.070145	0.13635	0.058261	0.14008	0.093574	0.14781	0.29714	0.18896	-2.2833	-2.1	-2.4417	-2.3396	-2.2917	-2.7583	-2.3479	-2.4792	-2.8458	-2.2396	-2.5062	-2.7229	-2.0854	-2.525	-2.4437	-2.3167	432.015	347.540	239.592	244.037	451.965	418.978	387.126	380.559	391.176	260.716	442.600	425.008	307.393	500.111	417.964	364.315	0.017552	0.00022318	1.319e-05	338.92	3.3437e-06	0.0012008	247.38	132.57	1.5374e-05	1.7145e-06	96.986	52.952	56.746	22.57	2.6724e-05	19.338	0.025081	0.00049338	0.0001374	384.13	5.3352e-06	0.00030672	280.12	147.15	8.7278e-06	5.3273e-06	111.17	154.8	63.212	25.748	7.455e-06	21.754	239.427	319.085	310.490	153.802	221.233	463.142	150.497	159.844	364.313	292.553	156.348	145.780	164.494	170.336	154.029	165.069	-8191	255	
22406.684	1	1	0	131072	0.2029	0.15	0.38496	0.22739	0.21395	0.22623	0.30878	0.22431	0.12306	0.0046633	0.25283	0.19216	0.19619	0.26689	0.092624	0.12177	-2.3	-2.2583	-2.4271	-2.7562	-2.225	-2.5146	-2.4979	-2.2938	-2.6292	-2.3146	-2.4146	-2.5208	-2.2625	-2.5042	-2.5312	-2.2625	220.459	277.065	247.842	454.766	291.739	399.057	430.781	379.653	167.685	401.303	212.683	452.713	470.489	175.840	472.923	465.251	0.017862	0.0016205	4.1502e-05	338.03	1.5375e-06	0.0010584	255.82	133.59	1.5772e-05	1.1433e-05	98.446	54.267	56.83	22.756	1.7398e-05	19.802	0.025343	0.0005674	0.00013645	379.18	5.2827e-06	0.00012871	537.36	148.18	1.0536e-05	6.7241e-06	112.53	157.13	63.41	25.538	8.0908e-06	22.197	244.744	182.353	264.746	154.081	268.681	429.477	495.012	159.826	339.417	369.873	156.220	147.228	164.000	170.016	169.307	164.971	-8191	255	
22406.779	1	1	0	131072	0.15068	0.18168	0.16295	0.087518	0.065226	0.054618	0.16195	0.19787	0.081705	0.26191	0.15839	0.056249	0.26232	0.13657	0.23812	0.044694	-2.1979	-2.3396	-2.2646	-2.525	-2.1271	-2.4146	-2.7458	-2.1437	-2.4854	-2.3167	-2.3354	-2.7792	-2.3333	-2.3854	-2.4229	-2.3625	358.163	195.581	413.882	184.421	402.372	286.293	349.438	276.147	479.395	232.779	455.679	207.360	481.601	202.959	490.658	283.012	0.017412	0.00052884	0.00010647	342.48	3.5429e-06	2.9182e-06	149.31	133.87	9.3808e-06	6.1909e-06	98.577	54.674	56.793	22.246	3.0755e-05	18.537	0.025032	0.0005476	0.00013415	389.01	5.2318e-06	5.2433e-06	885.01	148.65	8.0372e-06	6.0318e-06	112.24	154.84	63.111	24.912	1.2101e-05	20.866	251.750	280.182	178.770	154.203	267.328	287.497	476.628	159.695	325.276	370.056	156.120	150.088	164.229	169.908	483.446	164.701	-8191	255	
22406.900	1	1	0	131072	0.15097	0.21368	0.036808	0.24661	0.13488	0.16374	0.039992	0.1803	0.26081	0.19287	0.34923	0.2063	0.18775	0.10962	0.21781	0.15471	-2.1562	-2.2917	-2.2333	-2.5292	-2.2896	-2.6271	-2.5125	-2.0833	-2.6188	-2.3187	-2.1583	-2.6813	-2.2917	-2.2833	-2.4729	-2.2479	194.270	490.834	407.447	446.452	276.796	409.848	261.563	321.576	267.226	416.808	252.241	470.037	274.851	457.840	341.438	400.158	0.017986	0.0012946	0.00010487	337.45	3.1099e-06	1.9801e-06	160.12	132.31	1.3752e-05	9.1369e-06	96.081	54.056	55.732	21.902	1.4701e-05	18.282	0.024807	0.00063117	0.00013371	376.92	5.2014e-06	5.2284e-06	866.85	146.31	8.8316e-06	7.6075e-06	109.59	154.93	62.559	24.488	8.7617e-06	20.645	279.905	282.237	241.195	154.086	266.842	261.809	474.794	159.757	348.206	394.011	156.312	151.899	163.116	169.869	496.883	165.125	-8191	255	
22406.971	1	1	0	131072	0.29058	0.152	0.12117	0.28922	0.1284	0.075849	0.095945	0.032958	0.038032	0.091206	0.1568	0.11775	0.19321	0.16724	0.29845	0.20791	-2.1375	-2.3958	-2.075	-2.6583	-2.275	-2.5687	-2.7188	-2.2687	-2.4562	-2.3792	-2.1688	-2.6875	-2.1792	-2.4333	-2.6146	-2.1917	270.169	353.346	415.701	453.970	324.015	179.172	268.267	200.840	253.031	156.733	142.612	495.005	379.876	495.458	432.576	354.035	0.017471	0.029463	8.0011e-06	337.07	1.5421e-05	3.4221e-06	174.68	132.55	1.1337e-05	6.3944e-06	98.559	55.592	56.121	22.219	2.7842e-05	19.052	0.0095459	0.013455	0.00013396	382.4	6.6953e-06	5.2528e-06	881.4	146.63	5.3856e-06	8.2668e-06	111.88	154.42	62.972	24.85	1.2285e-05	21.432	277.509	212.088	400.866	153.916	279.988	272.107	476.482	159.721	339.725	373.085	156.956	154.308	163.916	170.378	500.643	164.812	-8191	255	
22407.066	1	1	0	131072	0.25926	0.24308	0.15657	0.12808	0.1319	0.31264	0.31188	0.16216	0.20539	0.055757	0.20433	0.16882	0.24931	0.07099	0.30522	0.17392	-1.8708	-2.6937	-2.1521	-2.525	-2.3229	-2.1917	-2.7292	-2.1604	-2.4021	-2.5604	-2.1521	-2.65	-2.3812	-2.1625	-2.5687	-2.2417	463.142	173.828	466.819	390.548	469.333	457.865	259.595	474.936	377.501	463.520	194.872	393.603	190.429	381.818	410.656	363.675	0.00032421	0.13977	2.9672e-05	341	1.1553e-05	3.2861e-06	195.85	135.16	2.5946e-06	3.0466e-05	102.05	43.495	56.779	22.404	4.0203e-06	19.625	0.00046627	0.028118	0.0001375	380.95	6.0923e-06	5.4009e-06	881.48	148.87	5.3826e-06	1.2563e-05	116.02	150.24	64.228	25.013	8.8386e-06	22.131	154.311	301.891	361.252	154.274	285.716	350.771	478.768	159.958	222.969	381.656	156.548	170.044	163.800	170.037	142.238	165.399	-8191	255	
22407.164	1	1	0	131072	0.033692	0.11051	0.27555	0.12112	0.17632	0.059746	0.27333	0.32191	0.15435	0.043817	0.061141	0.075486	0.073699	0.29402	0.20797	0.12887	-1.8563	-2.4292	-2.1979	-2.5292	-2.4333	-2.3042	-2.6729	-2.1396	-2.2417	-2.5792	-2.1667	-2.4792	-2.5625	-2.3312	-2.6229	-2.4354	439.760	266.988	439.254	291.099	398.687	202.440	309.090	457.220	215.683	152.437	271.303	383.884	463.536	156.623	257.637	220.511	0.00035269	0.13846	0.00011769	344.81	2.7406e-05	7.6258e-07	210.56	134.03	9.6747e-07	1.384e-05	105.06	50.83	67.024	22.448	1.0218e-05	19.636	0.00048028	0.027746	0.0001406	387.29	8.118e-06	5.5113e-06	898.68	150.1	5.5166e-06	9.3394e-06	119.78	89.026	129.77	25.058	1.1086e-05	22.387	154.696	308.681	297.964	154.555	257.692	465.315	481.661	159.087	224.510	395.103	156.674	167.757	151.001	169.922	480.143	164.433	-8191	255	
22407.283	1	1	0	131072	0.16947	0.14894	0.11655	0.23097	0.11223	0.36173	0.18922	0.17085	0.22582	0.1613	0.11146	0.11576	0.081145	0.14279	0.18298	0.30664	-1.9458	-2.6271	-2.175	-2.45	-2.275	-1.8604	-2.4896	-2.225	-1.9438	-2.3063	-1.7083	-2.225	-2.2042	-1.8188	-2.1958	-2.0187	410.672	290.870	360.426	461.765	415.364	395.537	180.845	235.351	464.494	171.871	499.857	270.313	348.689	290.874	483.775	345.238	0.00040006	0.14036	9.0248e-05	343	1.4091e-05	1.0637e-07	2.1034	0.1433	4.989e-07	5.6442e-07	0.043055	0.0058659	0.0038106	0.0023329	1.4942e-07	0.00079988	0.00048281	0.028133	0.00013957	379.76	7.794e-06	-2.5768e-06	4.912	-1.0392	-1.3616e-06	-1.1449e-06	-1.2467	-0.30525	-0.32667	-0.071165	-5.5453e-07	-0.080037	157.867	313.953	197.715	514.133	252.960	468.433	168.286	173.693	390.920	211.794	224.923	176.328	364.348	356.546	255.864	366.193	-8191	255	
22407.379	1	1	0	0	0.14324	0.11112	0.23086	0.086025	0.22436	0.30563	0.11991	0.24918	0.13946	0.10305	0.23439	0.079797	0.0352	0.24962	0.25424	0.16496	-1.4979	-2.1792	-2.0125	-2.2875	-2.2979	-1.7833	-2.225	-1.9896	-2.1208	-2.4125	-2.0271	-2.1063	-2.2521	-1.9521	-2.225	-2.2083	214.959	193.471	380.278	488.936	379.409	464.149	283.582	192.756	461.230	193.518	217.408	333.018	442.293	503.310	426.748	231.482	1.3459e-06	3.3589e-05	1.6729e-05	0.034339	1.7412e-07	2.5355e-07	0.038859	0.0097622	3.4243e-07	2.5294e-07	0.012763	0.0058699	0.001865	0.00086183	3.5817e-07	0.0013019	-3.594e-05	-3.9179e-05	-9.6029e-06	-0.70495	-3.4006e-07	-3.1364e-07	-0.66284	-0.22104	-2.637e-07	-2.6816e-07	-0.33006	-0.089116	-0.11303	-0.024639	-2.2152e-07	-0.033243	481.891	416.001	176.197	439.588	210.837	294.889	512.992	189.801	494.556	191.176	426.471	237.750	411.335	349.725	241.920	189.144	-8191	255	
22407.475	1	1	0	0	0.26679	0.23401	0.22916	0.035199	0.20781	0.16957	0.087445	0.27279	0.28841	0.18496	0.062294	0.16046	0.11775	0.11702	0.054813	0.24312	-1.5229	-2.2521	-1.9625	-2.2438	-2.4146	-1.925	-2.3187	-2.2438	-1.8875	-2.4083	-2.0812	-2.2854	-2.25	-2.0125	-2.1917	-2.2667	141.552	-79.040	34.383	61.168	84.778	132.410	188.912	25.626	-58.046	6.698	134.857	208.655	134.367	166.261	99.532	11.798	2.6751e-06	3.0219e-05	7.0723e-06	0.016479	1.4042e-07	2.4002e-07	0.020431	0.016325	7.7282e-08	5.0417e-07	0.015761	0.0059718	0.004304	0.00080143	5.0948e-07	0.0022633	-1.4398e-05	-1.8416e-05	-4.6153e-06	-0.34701	-1.835e-07	-1.608e-07	-0.37393	-0.13024	-1.4797e-07	-1.6561e-07	-0.1986	-0.05554	-0.073024	-0.016464	-1.4625e-07	-0.023197	166.348	230.209	137.368	44.863	129.669	47.452	121.972	-87.102	130.804	73.605	239.617	36.284	-73.459	152.273	54.416	32.510	-8191	255	
22407.549	1	1	0	0	0.25811	0.10034	0.31666	0.09254	0.15258	0.30463	0.23077	0.17804	0.14757	0.25304	0.18869	0.4381	0.0073785	0.19783	0.11403	0.043927	-1.5187	-2.2792	-1.8417	-1.9792	-2.4167	-1.9813	-2.2313	-2.2542	-1.7938	-2.3417	-2.2604	-2.0833	-2.35	-1.9625	-2.2146	-2.3146	295.986	296.324	433.769	248.013	170.434	435.426	217.351	361.949	242.039	278.407	159.086	264.098	380.396	163.442	362.463	492.906	6.7662e-06	3.4349e-05	2.4134e-05	0.033632	4.8918e-07	3.3215e-07	0.023529	0.0032491	1.2244e-07	3.7291e-07	0.026851	0.0065459	0.0082194	0.00019671	3.9734e-07	0.0020851	-9.1304e-06	-1.3507e-05	-3.4357e-06	-0.23567	-1.4075e-07	-1.1567e-07	-0.28394	-0.1046	-1.1433e-07	-1.3712e-07	-0.16863	-0.042562	-0.059399	-0.013239	-1.1728e-07	-0.020621	420.205	307.972	264.333	357.342	280.859	262.084	303.777	151.797	481.208	301.616	282.091	399.585	233.331	216.327	386.734	163.785	-8191	255	
22407.668	1	1	0	0	0.49572	0.11786	0.059233	0.15435	0.082	0.18969	0.033743	0.41894	0.073172	0.1358	0.08308	0.033869	0.18658	0.12348	0.12537	0.21574	-1.5271	-2.325	-2.0563	-2.0917	-2.4417	-2.1479	-2.1437	-2.1396	-1.7958	-2.35	-2.1479	-1.8833	-2.1333	-1.8833	-2.1479	-2.3125	258.841	190.105	151.355	126.318	199.351	-24.260	-62.968	158.249	55.938	148.522	251.731	187.644	104.897	137.406	243.350	-52.969	2.2298e-06	3.7298e-06	8.2526e-06	0.011319	1.6571e-07	5.4925e-07	0.039909	0.0046489	2.3038e-07	2.0641e-07	0.0088829	0.0043788	0.0064782	0.0014368	5.2798e-07	0.0026765	-6.7951e-06	-1.1161e-05	-3.0657e-06	-0.19946	-1.2433e-07	-1.0508e-07	-0.24095	-0.089184	-9.2025e-08	-1.1984e-07	-0.14892	-0.037637	-0.055694	-0.012941	-1.0441e-07	-0.018646	-42.338	168.884	31.979	130.857	46.438	132.950	288.782	-45.478	260.417	232.258	252.520	238.741	111.261	95.482	-38.925	49.992	-8191	255	
22407.764	1	1	0	0	0.072559	0.36942	0.17663	0.10714	0.072902	0.04294	0.19722	0.32101	0.050187	0.19949	0.119	0.2292	0.12209	0.13778	0.19658	0.031744	-1.6333	-2.2188	-2.1813	-1.9125	-2.2812	-2.2104	-2.0062	-2.2208	-2.0854	-2.3125	-2.4833	-2.0604	-2.3917	-2.1604	-1.925	-2.3646	113.890	400.289	321.134	215.851	152.248	225.613	114.056	130.498	245.756	174.750	345.460	393.493	166.506	207.925	188.508	210.416	4.0828e-06	2.514e-05	4.1575e-06	0.053362	2.6661e-07	2.9753e-07	0.023966	0.012745	3.2966e-07	2.0595e-07	0.021159	0.0074604	0.0024266	0.0017101	3.503e-07	0.0016725	-7.2607e-06	-1.092e-05	-2.8167e-06	-0.18358	-1.0782e-07	-1.0155e-07	-0.24095	-0.090867	-9.429e-08	-1.1411e-07	-0.15506	-0.035407	-0.053183	-0.011914	-1.0327e-07	-0.01743	411.481	231.602	198.393	177.781	224.112	394.690	145.023	108.123	384.022	129.797	287.095	382.904	90.791	157.975	390.393	179.725	-8191	255	
22407.859	1	1	0	0	0.096762	0.065134	0.13836	0.17529	0.07829	0.12371	0.056736	0.1249	0.1508	0.2284	0.30248	0.084612	0.17879	0.18602	0.3602	0.17733	-1.4646	-2.1437	-2.1708	-1.7375	-2.3187	-2.0292	-1.9354	-2.2062	-1.9625	-2.2479	-2.1562	-2.0646	-2.2625	-2.0354	-2.0146	-2.3229	179.628	-55.789	-52.074	120.055	-93.013	30.710	-125.070	48.530	182.406	-113.515	-23.462	-129.936	-72.822	-98.948	-55.661	95.424	6.9153e-06	2.3713e-05	7.6889e-06	0.017357	1.0297e-07	2.7556e-07	0.025165	0.011158	2.3758e-07	2.5892e-07	0.0089225	0.0039152	0.0054127	0.0012563	2.8332e-07	0.0012504	-5.8929e-06	-9.626e-06	-2.6934e-06	-0.19263	-1.1668e-07	-1.1276e-07	-0.19738	-0.080434	-9.0979e-08	-1.0185e-07	-0.13346	-0.03544	-0.051701	-0.011472	-9.0584e-08	-0.017888	177.134	52.931	-88.005	116.112	-136.907	-39.661	-21.753	-139.255	100.096	20.099	-133.427	-118.150	-51.977	126.414	-80.652	-33.747	-8191	255	
22407.980	1	1	0	0	0.19987	0.28839	0.16384	0.02859	0.23678	0.079025	0.19507	0.2813	0.30516	0.055883	0.13989	0.15847	0.35179	0.092036	0.13707	0.16454	-1.4375	-2.0646	-2.3521	-1.9167	-2.25	-2.2771	-1.8729	-2.2812	-2.15	-2.1833	-2.1521	-1.8062	-2.2479	-2.0646	-1.9188	-2.5271	345.132	450.568	421.587	489.980	295.262	178.496	234.830	213.528	437.362	230.133	358.041	215.909	469.822	253.233	481.531	329.715	2.1952e-06	4.4337e-05	8.2586e-06	0.0017758	8.4994e-08	3.0331e-07	0.018591	0.009273	3.8697e-08	2.326e-07	0.0077171	0.0018247	0.0057925	0.00040736	1.7223e-07	0.0031224	-6.4531e-06	-8.9109e-06	-2.6889e-06	-0.16019	-1.0139e-07	-1.102e-07	-0.19241	-0.080838	-8.9062e-08	-1.0079e-07	-0.14161	-0.032212	-0.048943	-0.012078	-8.6471e-08	-0.018002	514.421	502.509	375.696	386.557	459.753	480.717	281.520	187.065	259.711	443.967	358.995	359.018	229.680	326.587	331.454	180.651	-8191	255	
22408.076	1	1	0	0	0.18472	0.31201	0.063072	0.09213	0.13438	0.19884	0.12837	0.10963	0.31373	0.17331	0.15818	0.053594	0.23843	0.14489	0.026278	0.12451	-1.4417	-2.1562	-2.425	-2.0479	-2.3875	-2.3542	-1.8458	-2.3146	-2.1437	-2.15	-2.3333	-2.0167	-2.1542	-2.1688	-2.0104	-2.2083	105.414	46.872	-95.127	32.143	143.883	-102.532	-138.046	-115.959	-81.509	-106.485	-92.771	-89.264	-95.967	134.335	40.923	206.709	2.0259e-06	4.5106e-05	3.2782e-06	0.033993	4.2574e-07	1.1673e-07	0.029125	0.0076325	2.0071e-07	3.2132e-07	0.023407	0.0039666	0.010237	0.001374	1.2753e-07	0.001943	-5.7911e-06	-8.5654e-06	-2.6979e-06	-0.17026	-1.0183e-07	-1.1082e-07	-0.18305	-0.084136	-9.9693e-08	-1.0053e-07	-0.15258	-0.031414	-0.048532	-0.011483	-8.1132e-08	-0.016443	47.391	105.932	73.675	-130.984	-118.211	53.022	-69.569	-126.580	137.273	-139.377	19.664	195.042	-139.338	133.857	146.410	-107.760	-8191	255	
22408.172	1	1	0	0	0.12221	0.24403	0.045554	0.086901	0.16226	0.12474	0.205	0.11229	0.18677	0.045897	0.127	0.27087	0.20614	0.19773	0.15531	0.03511	-1.7417	-2.0417	-2.3729	-2.025	-2.0479	-2.3	-1.9708	-2.3604	-2.2188	-2.0542	-2.5208	-2.2	-2.2313	-2.3167	-1.7646	-2.4688	127.094	291.009	111.914	65.173	84.653	244.768	117.901	198.520	50.348	51.488	378.248	107.790	316.478	178.320	260.065	266.300	8.1939e-06	3.5766e-05	1.2448e-06	0.026872	1.7726e-07	2.9497e-07	0.0087188	0.0089493	2.0507e-07	3.4833e-07	0.012388	0.0049002	0.013139	0.00012167	2.8671e-07	0.0022442	-6.424e-06	-7.794e-06	-2.7427e-06	-0.16463	-9.2096e-08	-1.0852e-07	-0.18974	-0.078751	-9.6295e-08	-8.0511e-08	-0.14656	-0.035407	-0.046185	-0.012243	-7.8069e-08	-0.017201	341.944	72.206	45.239	150.154	319.212	246.531	367.337	61.462	256.403	257.633	74.622	139.382	395.650	288.333	97.768	231.811	-8191	255	
22408.268	1	1	0	0	0.4336	0.060509	0.098452	0.29571	0.049355	0.31783	0.13217	0.42443	0.09856	0.10949	0.07265	0.29836	0.054412	0.10906	0.19185	0.078655	-1.6938	-1.8417	-2.3312	-2.1167	-2.1979	-2.425	-2.0167	-2.1229	-2.3354	-1.9042	-2.3542	-2.0979	-2.1167	-2.3667	-2.1521	-2.1375	216.397	368.520	220.808	288.258	255.146	114.210	52.611	142.180	374.670	207.410	355.259	196.522	123.645	79.156	386.427	99.114	5.6838e-06	1.367e-05	1.8518e-06	0.035194	3.3341e-07	1.831e-07	0.066985	0.0078835	3.8685e-07	2.3304e-07	0.0076601	0.012615	0.0050216	0.0032435	3.8389e-07	0.0017931	-6.1912e-06	-8.0913e-06	-2.6194e-06	-0.17931	-9.2704e-08	-1.0543e-07	-0.17292	-0.077203	-9.6992e-08	-8.5802e-08	-0.14397	-0.034741	-0.042604	-0.011709	-8.6208e-08	-0.014926	56.353	158.412	279.639	241.661	226.633	203.574	347.876	56.800	75.796	330.408	345.059	319.115	322.502	276.177	81.380	138.860	-8191	255	
22408.363	1	1	0	0	0.14737	0.22686	0.31767	0.29681	0.12362	0.07227	0.25428	0.21008	0.10288	0.12507	0.037765	0.16976	0.30093	0.11067	0.14885	0.10555	-1.875	-1.8458	-2.3229	-2.0521	-2.1375	-2.3812	-1.9583	-2.325	-2.2458	-2.0875	-2.2125	-2.2521	-2.0792	-2.3438	-1.9833	-2.1625	-62.037	13.957	-13.056	-9.428	-33.079	-41.974	-137.968	29.072	-34.643	172.229	-139.221	150.725	-117.828	148.672	-133.160	102.350	3.7914e-06	5.2601e-05	5.0638e-06	0.01905	4.0338e-07	3.2083e-07	0.028096	0.013506	1.7729e-07	2.7287e-07	0.016002	0.0077176	0.0092287	0.00074561	3.8645e-07	0.0021503	-6.4022e-06	-7.2235e-06	-2.514e-06	-0.16275	-8.2887e-08	-1.0676e-07	-0.18611	-0.072357	-9.7515e-08	-7.8218e-08	-0.13323	-0.034841	-0.041122	-0.012397	-8.1569e-08	-0.014997	-29.711	-84.666	-134.310	158.402	-3.468	67.400	-82.794	-135.058	53.858	206.346	-143.731	-73.300	76.790	110.258	-106.741	113.452	-8191	255	
22408.459	1	1	0	0	0.17671	0.07847	0.23414	0.17062	0.15574	0.18452	0.14584	0.03018	0.16935	0.24068	0.055696	0.1376	0.22359	0.17959	0.056496	0.13646	-1.8146	-1.8687	-2.2271	-2.15	-2.1042	-2.2375	-2.0854	-2.0792	-2.3146	-2.0542	-2.2896	-2.2208	-2.1063	-2.3042	-2.0146	-2.0833	117.951	176.865	172.428	454.423	472.450	435.298	273.671	420.972	147.595	122.335	405.987	298.903	148.345	178.815	434.643	452.736	3.6188e-06	5.1301e-05	1.4102e-05	0.0082101	1.855e-07	4.564e-07	0.036052	0.018516	3.2904e-07	3.5122e-07	0.0063783	0.0092706	0.003953	0.00078688	1.0905e-07	0.00225	-7.2534e-06	-7.4083e-06	-2.8661e-06	-0.18341	-8.5493e-08	-1.0614e-07	-0.18744	-0.069597	-9.978e-08	-7.5837e-08	-0.13854	-0.035474	-0.040711	-0.011709	-8.2095e-08	-0.014282	403.940	373.801	344.007	311.261	163.962	315.110	447.042	134.651	193.320	135.654	300.129	410.435	192.018	262.208	230.545	443.911	-8191	255	
22408.580	1	1	0	0	0.061297	0.24726	0.14456	0.28621	0.22306	0.30405	0.20199	0.35875	0.058058	0.11005	0.15505	0.32542	0.10409	0.096489	0.12911	0.19028	-1.8125	-1.8229	-2.2729	-2.1562	-2.0417	-2.3021	-1.9958	-2.1729	-2.4458	-1.9021	-2.2875	-2.2062	-1.9042	-2.5083	-2.2104	-2.05	328.048	329.008	112.552	49.204	94.339	127.745	234.047	173.595	357.914	251.823	312.614	63.206	355.503	295.245	297.987	59.245	2.6615e-06	2.4689e-05	1.0531e-05	0.016303	5.8494e-08	3.6663e-07	0.035313	0.010312	2.513e-07	4.9529e-07	0.0075492	0.0043809	0.0073301	0.0010382	1.6163e-07	0.0012288	-7.1079e-06	-7.3681e-06	-2.4108e-06	-0.18939	-8.2539e-08	-1.0322e-07	-0.20598	-0.062934	-1.0571e-07	-8.1745e-08	-0.13618	-0.038136	-0.032354	-0.011031	-8.8221e-08	-0.014096	35.631	205.410	51.703	259.704	254.872	342.021	244.069	52.483	144.293	99.393	87.249	256.069	124.301	128.748	119.712	329.008	-8191	255	
22408.676	1	1	0	0	0.21302	0.21396	0.16689	0.22077	0.15958	0.19142	0.26604	0.075617	0.2457	0.1323	0.2475	0.18003	0.15716	0.1671	0.17966	0.40713	-2.0042	-2.0875	-2.4333	-2.3271	-2.0563	-2.275	-2.275	-1.875	-2.3583	-2.0875	-2.175	-2.3438	-1.9729	-2.0479	-2.2521	-1.925	-142.814	-9.777	120.253	160.526	139.284	82.083	168.059	48.934	42.016	52.812	-36.842	83.443	53.028	123.926	94.547	46.464	2.5818e-06	7.6008e-06	5.7048e-06	0.053511	7.1263e-08	4.8313e-08	0.041816	0.017909	3.3822e-07	4.4546e-07	0.038849	0.005979	0.0052339	0.0014976	3.3742e-07	0.0034493	-7.2898e-06	-7.802e-06	-2.4198e-06	-0.18956	-7.5849e-08	-9.1921e-08	-0.20808	-0.066636	-9.8473e-08	-7.813e-08	-0.11683	-0.036439	-0.035483	-0.011462	-9.3385e-08	-0.014368	215.384	79.621	-77.619	128.385	144.762	102.439	-85.887	-125.715	-40.806	110.350	21.565	148.656	14.848	168.187	163.769	211.229	-8191	255	
22408.771	1	1	0	0	0.19708	0.041367	0.15136	0.24264	0.039035	0.20927	0.31235	0.24355	0.24626	0.15447	0.29056	0.090552	0.40676	0.088007	0.060496	0.24516	-2.0646	-2.0187	-2.0083	-2.3729	-2.1896	-2.4708	-2.3333	-1.8208	-2.4104	-2.2125	-2.2208	-2.425	-2.0458	-2.3354	-2.4479	-1.9229	-51.462	224.171	43.196	1.914	77.254	56.000	-10.466	-9.706	108.092	-26.152	-10.754	232.945	-13.925	-16.050	-6.413	49.456	5.6385e-06	2.6069e-05	4.9871e-06	0.040797	2.6673e-07	3.9447e-07	0.040093	0.014539	1.321e-08	2.3855e-07	0.020451	0.0045929	0.010706	0.0021857	7.8448e-08	0.0014306	-6.6932e-06	-7.4806e-06	-2.0453e-06	-0.20322	-8.1497e-08	-1.0093e-07	-0.2163	-0.058155	-1.0292e-07	-8.8976e-08	-0.12072	-0.037004	-0.037376	-0.012099	-9.4347e-08	-0.01225	178.710	-41.618	-33.607	99.321	7.343	145.750	193.850	-51.588	30.005	246.234	71.926	37.194	27.601	269.483	-31.935	182.516	-8191	255	
22408.844	1	1	0	0	0.094962	0.22233	0.2894	0.54274	0.038531	0.074316	0.15002	0.014218	0.10772	0.065351	0.17381	0.28161	0.06726	0.15073	0.14546	0.20222	-2.0375	-1.9792	-2.0146	-2.3542	-2.0812	-2.0812	-2.3875	-2.1021	-2.4125	-2.2917	-2.1708	-2.4938	-2.0146	-2.3	-2.2875	-1.975	370.913	279.492	169.361	488.665	468.835	351.936	394.979	183.474	157.662	215.881	416.367	502.693	301.700	187.453	385.080	287.779	1.2357e-06	3.4218e-05	5.1821e-06	0.0012951	5.7691e-08	2.007e-07	0.024178	0.013893	4.738e-07	4.4896e-07	0.017424	0.0037636	0.0060072	0.0017602	2.3602e-07	0.0022315	-6.7005e-06	-8.0431e-06	-2.3076e-06	-0.18836	-7.1331e-08	-9.457e-08	-0.21916	-0.058424	-1.0466e-07	-9.947e-08	-0.10939	-0.0398	-0.038323	-0.011031	-1.0354e-07	-0.01265	452.806	414.926	266.092	373.071	360.763	379.718	251.973	171.496	317.889	168.731	323.786	183.693	326.371	251.974	369.716	361.816	-8191	255	
22408.965	1	1	0	0	0.081137	0.1101	0.28551	0.20267	0.095169	0.2476	0.089036	0.070903	0.021823	0.037712	0.1862	0.13867	0.24255	0.12506	0.36391	0.13083	-1.7833	-2.2562	-2.0896	-2.3542	-1.9646	-2.2229	-2.2896	-1.9062	-2.3563	-2.3708	-2.1208	-2.4646	-2.0708	-2.2646	-2.3896	-1.9333	320.317	394.770	135.980	284.314	444.884	173.863	125.308	228.864	470.514	375.909	133.920	430.908	180.752	197.426	301.444	220.770	5.0533e-06	1.3464e-05	8.9851e-06	0.054755	3.1012e-07	1.2684e-07	0.04382	0.0076479	2.3375e-07	5.7547e-07	0.026139	0.0017302	0.0084517	0.0017269	2.432e-07	0.002489	-6.8969e-06	-8.027e-06	-2.0251e-06	-0.19161	-8.3929e-08	-8.0265e-08	-0.21286	-0.06179	-8.9149e-08	-9.3474e-08	-0.10326	-0.038701	-0.03717	-0.0096236	-1.0441e-07	-0.011963	277.114	273.867	239.454	386.080	436.895	380.776	369.839	139.104	255.391	450.690	272.261	419.397	233.968	277.867	159.631	216.588	-8191	255	
22409.061	1	1	0	0	0.28327	0.17247	0.11976	0.10361	0.12409	0.15024	0.103	0.045163	0.12301	0.054409	0.072409	0.18404	0.20509	0.14676	0.14792	0.11753	-1.8438	-2.1854	-2.0292	-2.3646	-2.2729	-2.2292	-2.5521	-1.8729	-2.6042	-2.4542	-2.125	-2.2625	-2.2792	-2.1833	-2.4854	-2.275	-115.245	209.589	96.262	-106.628	-5.401	195.923	-44.789	83.364	144.325	45.689	19.721	-2.781	172.759	117.158	136.698	47.254	6.027e-06	1.9189e-05	4.2266e-06	0.0052552	1.9667e-07	3.0385e-07	0.033756	0.01638	1.9033e-07	4.5508e-07	0.033601	0.0033748	0.011441	0.0024815	2.067e-07	0.0022608	-6.264e-06	-8.2118e-06	-2.0475e-06	-0.19912	-8.7665e-08	-9.1214e-08	-0.21783	-0.060174	-9.8212e-08	-9.9205e-08	-0.10526	-0.037304	-0.044045	-0.011082	-1.0205e-07	-0.013566	55.355	-63.667	-111.519	221.929	106.038	-65.138	196.484	-100.124	-38.859	-1.005	218.107	77.116	-44.133	-11.541	25.953	-108.196	-8191	255	
22409.156	1	1	0	0	0.18961	0.15069	0.056685	0.18441	0.39199	0.26259	0.22838	0.18322	0.17752	0.057	0.26213	0.16361	0.073365	0.24906	0.1887	0.24125	-1.9125	-2.2583	-2.0458	-2.2438	-2.2583	-2.2542	-2.5271	-2.0042	-2.3604	-2.3688	-1.9438	-2.4625	-2.2292	-2.1458	-2.3458	-2.1625	174.797	355.993	356.097	370.872	407.833	220.719	216.207	356.241	352.043	78.023	78.846	244.529	280.545	310.951	135.057	198.699	5.7585e-06	2.6721e-05	1.0504e-06	0.04196	1.877e-07	2.5869e-07	0.022939	0.025696	3.1126e-08	2.3225e-07	0.034721	0.0029177	0.010148	0.0012579	8.1291e-08	0.0013128	-6.0239e-06	-8.2761e-06	-2.0453e-06	-0.19861	-8.7057e-08	-7.947e-08	-0.22986	-0.057078	-9.3419e-08	-9.7442e-08	-0.10349	-0.036073	-0.042481	-0.009449	-1.0039e-07	-0.01431	61.347	357.415	161.716	230.016	154.883	391.285	253.053	76.146	209.080	278.734	390.958	364.768	301.796	284.874	404.141	369.735	-8191	255	
22409.252	1	1	0	0	0.1094	0.20345	0.16943	0.023559	0.12731	0.19993	0.18456	0.097727	0.050679	0.24161	0.36064	0.059372	0.17869	0.087666	0.10376	0.071306	-1.7125	-2.45	-1.8833	-2.3104	-2.2208	-2.0042	-2.4417	-2.225	-2.2271	-2.4021	-1.9146	-2.4417	-2.1292	-1.9729	-2.3521	-2.0583	75.852	281.348	263.380	259.392	28.697	326.197	82.898	123.201	257.185	235.729	181.922	8.967	132.998	266.704	125.866	5.086	7.8057e-07	1.966e-05	9.4516e-06	0.017444	2.5111e-07	2.6584e-07	0.047756	0.01242	2.1369e-07	3.0832e-07	0.018283	0.0031838	0.0089177	0.002918	4.4613e-07	0.0013971	-5.8638e-06	-9.5938e-06	-1.7918e-06	-0.17368	-8.2626e-08	-8.2473e-08	-0.21248	-0.060039	-8.5663e-08	-9.9646e-08	-0.10691	-0.034375	-0.041451	-0.0085143	-9.8811e-08	-0.013208	141.042	244.044	114.740	77.062	278.146	31.267	53.291	4.762	227.309	6.525	319.255	173.273	207.656	141.259	283.009	290.671	-8191	255	
22409.350	1	1	0	0	0.15574	0.22972	0.26247	0.15019	0.036423	0.053158	0.1423	0.25507	0.030244	0.23435	0.036764	0.19254	0.29479	0.089445	0.17624	0.29903	-1.8062	-2.3479	-2.1146	-2.2646	-2.2729	-2.0354	-2.5021	-2.2229	-2.2125	-2.4917	-1.95	-2.3667	-2.2125	-2.1104	-2.4083	-2.2646	338.428	196.918	21.504	47.369	356.890	301.582	213.905	244.890	253.314	70.232	73.037	246.667	113.008	202.971	21.912	145.693	2.4501e-06	3.6308e-05	1.3892e-05	0.031248	2.6607e-08	8.1883e-08	0.011645	0.01205	2.6389e-07	2.5317e-07	0.021604	0.0058276	0.0048908	0.0027886	2.8941e-07	0.00086633	-5.4928e-06	-9.4733e-06	-2.0632e-06	-0.17555	-9.5919e-08	-8.1854e-08	-0.21916	-0.063136	-7.6339e-08	-1.0423e-07	-0.11458	-0.038335	-0.048161	-0.0090587	-9.8461e-08	-0.014368	213.007	108.048	82.747	364.049	357.755	353.897	227.114	30.684	282.008	231.098	91.723	270.512	196.703	187.136	203.765	64.692	-8191	255	
22409.443	1	1	0	0	0.20168	0.043752	0.26	0.26582	0.36805	0.19877	0.047517	0.27691	0.10343	0.26513	0.22556	0.21664	0.055827	0.15402	0.18687	0.23904	-1.7	-2.4229	-2.0812	-2.3125	-2.1521	-1.8958	-2.2625	-2.3542	-2.1667	-2.5	-2.1396	-2.2146	-2.4021	-2.0021	-2.3417	-2.0708	250.774	304.444	341.000	368.709	324.814	420.917	407.255	373.673	493.321	458.688	351.322	387.557	200.815	297.394	279.014	487.725	3.6241e-06	2.0385e-05	8.4547e-06	0.03846	1.1675e-07	3.1917e-07	0.045784	0.013965	1.8313e-07	1.7795e-07	0.021505	0.0069134	0.0016542	0.0028771	4.3773e-07	0.00058153	-5.3109e-06	-9.1921e-06	-2.0654e-06	-0.18307	-9.8873e-08	-7.5673e-08	-0.21553	-0.073703	-8.0522e-08	-1.0688e-07	-0.10491	-0.031946	-0.044456	-0.0083397	-9.7673e-08	-0.015555	222.728	470.723	399.645	329.542	198.772	369.070	404.374	183.851	316.786	343.810	258.903	471.808	276.633	433.774	203.709	300.281	-8191	255	
22409.541	1	1	0	0	0.28542	0.10422	0.16543	0.19036	0.18088	0.25679	0.27796	0.11969	0.14526	0.14661	0.15892	0.15787	0.17266	0.25163	0.16195	0.081336	-1.7396	-2.4521	-2.0604	-2.1688	-2.5604	-2.0979	-2.3271	-2.2625	-2.0583	-2.2521	-2.1167	-2.0458	-2.2604	-1.9667	-2.1396	-2.4375	211.808	218.008	84.245	271.987	71.025	156.847	301.282	298.705	23.199	130.827	140.181	-4.245	243.549	98.837	51.813	-36.401	4.8295e-06	6.5108e-05	4.9357e-06	0.02967	5.1902e-07	4.3475e-07	0.036763	0.013076	1.2709e-07	1.423e-07	0.013083	0.0015996	0.0098061	0.0011517	1.2905e-07	0.00074676	-4.8817e-06	-9.2885e-06	-2.2471e-06	-0.16309	-9.5398e-08	-7.4261e-08	-0.1991	-0.075521	-7.9824e-08	-1.0282e-07	-0.11494	-0.032578	-0.046226	-0.0095106	-8.9621e-08	-0.015412	-13.044	148.967	202.558	147.722	230.748	183.143	245.838	-32.018	105.909	55.394	266.142	83.315	266.242	-5.182	239.682	-18.365	-8191	255	
22409.660	1	1	0	0	0.16808	0.19517	0.17417	0.21522	0.25161	0.12537	0.158	0.15091	0.084345	0.28336	0.28137	0.24824	0.16051	0.11514	0.098211	0.13557	-1.5083	-2.4125	-2.0583	-2.2625	-2.5708	-2.1813	-2.4146	-2.2083	-1.9229	-2.4083	-2.1896	-1.9271	-2.4625	-2.0438	-2.3417	-2.4542	302.613	249.582	326.223	299.553	399.505	447.232	228.730	265.677	375.441	393.084	316.921	517.195	236.600	470.024	197.108	271.454	5.1847e-06	2.6549e-05	1.1354e-05	0.048511	8.1839e-08	3.5325e-07	0.044145	0.0070642	1.7219e-07	1.8538e-07	0.0014638	0.0032821	0.0065692	0.0025416	6.1812e-08	0.0038716	-4.6198e-06	-8.6537e-06	-2.2493e-06	-0.15557	-1.027e-07	-8.1854e-08	-0.19662	-0.072694	-7.904e-08	-9.6736e-08	-0.11671	-0.028685	-0.048984	-0.0094182	-8.3232e-08	-0.015827	398.863	486.042	482.560	403.314	248.110	510.354	502.801	197.455	453.083	529.406	404.579	506.088	455.886	296.681	270.408	255.952	-8191	255	
22409.756	1	1	0	0	0.09185	0.24749	0.17853	0.20571	0.18745	0.029635	0.14405	0.12054	0.23907	0.058715	0.28121	0.02368	0.25465	0.12804	0.23913	0.069542	-1.6771	-2.4458	-2.1437	-2	-2.625	-2.2938	-2.3688	-2.4021	-1.9937	-2.4896	-2.2333	-1.9646	-2.4479	-2.025	-2.2083	-2.1437	67.395	218.925	57.686	308.750	289.724	32.862	-2.612	133.088	212.539	50.781	325.770	186.953	-15.214	204.334	100.098	-11.747	6.0175e-06	4.3752e-05	1.4836e-05	0.03898	4.1682e-07	2.3983e-07	0.045792	0.013234	4.1087e-07	1.4801e-07	0.029624	0.0036593	0.0060289	0.0028991	4.0364e-07	0.0037528	-5.3473e-06	-9.0957e-06	-2.2987e-06	-0.13423	-1.0191e-07	-9.0596e-08	-0.2098	-0.074444	-8.0522e-08	-9.2504e-08	-0.12084	-0.02975	-0.047461	-0.0098495	-8.2532e-08	-0.01514	160.132	65.758	42.241	54.201	129.275	52.795	238.915	-15.926	235.574	140.324	221.105	14.426	215.853	280.176	186.080	308.389	-8191	255	
22409.852	1	1	0	0	0.18079	0.068836	0.21753	0.2492	0.25359	0.20724	0.12374	0.19548	0.11345	0.082	0.26797	0.23118	0.15589	0.30905	0.039827	0.25133	-1.6771	-2.1875	-2.0479	-2.1396	-2.3875	-2.0771	-2.0229	-2.4833	-2.1667	-2.0792	-2.2833	-2.1021	-2.4229	-2.0167	-2.2125	-2.4271	-126.366	110.536	-135.369	-131.487	108.339	41.326	133.536	123.745	-53.846	16.226	18.526	-148.374	190.932	-157.954	-0.998	-99.657	3.8877e-06	3.9453e-06	1.0813e-05	0.017339	3.9453e-08	2.8266e-07	0.031715	0.008159	2.1561e-07	1.0743e-07	0.019266	0.0075386	0.012198	0.0011658	3.4415e-07	0.0047244	-4.7798e-06	-8.5975e-06	-2.3032e-06	-0.1385	-1.0018e-07	-8.8036e-08	-0.18897	-0.083732	-7.8604e-08	-8.9153e-08	-0.11742	-0.028585	-0.041987	-0.010363	-7.9294e-08	-0.016743	-5.213	-124.269	-39.526	130.077	-33.305	-28.011	136.085	-150.942	-115.590	-132.498	-168.845	-104.090	-65.483	33.649	25.766	-135.376	-8191	255	
22409.947	1	1	0	0	0.25514	0.15336	0.040926	0.27438	0.20551	0.14991	0.059632	0.16061	0.10415	0.14339	0.34093	0.22544	0.10364	0.052127	0.13306	0.1379	-1.5896	-2.3083	-2.225	-1.9708	-2.3021	-2.1813	-2.1	-2.3812	-2.1646	-2.1792	-2.2208	-2.3104	-2.4354	-2.1271	-2.1458	-2.6583	317.750	352.015	323.286	131.512	466.880	407.121	362.570	234.420	181.801	260.505	422.456	308.771	182.865	155.010	186.879	385.227	3.7261e-06	4.2228e-05	7.758e-06	0.023708	1.8744e-07	1.9325e-07	0.030312	0.013005	2.5519e-07	2.2832e-07	0.012307	0.0067899	0.0057434	0.0020128	2.9227e-07	0.0031301	-4.7944e-06	-7.5288e-06	-2.4826e-06	-0.12757	-9.5658e-08	-9.2097e-08	-0.18152	-0.072694	-7.6949e-08	-8.9505e-08	-0.12733	-0.028851	-0.043016	-0.010877	-7.1242e-08	-0.016156	264.270	159.003	205.668	316.929	435.846	371.644	208.043	131.763	220.879	182.936	385.560	155.008	379.339	301.067	234.268	191.596	-8191	255	
22410.068	1	1	0	0	0.21221	0.13629	0.2792	0.17114	0.26486	0.047401	0.13343	0.21898	0.19152	0.37085	0.16347	0.19444	0.16722	0.17504	0.13622	0.17374	-1.5458	-2.2167	-2.3604	-2.0271	-2.3125	-2.1271	-2.125	-2.3937	-1.9833	-2.3479	-2.2979	-2.0854	-2.1625	-2.2583	-2.1375	-2.3208	284.621	312.279	145.402	9.142	209.143	259.836	184.458	10.582	104.219	321.173	203.040	155.618	337.483	66.683	245.729	333.426	1.485e-06	4.1284e-05	6.6613e-06	0.016541	8.7608e-08	3.9031e-07	0.057253	0.015109	1.874e-07	2.2581e-07	0.012118	0.0050402	0.0088691	0.0016497	2.1088e-07	0.0024534	-4.9108e-06	-7.2235e-06	-2.6665e-06	-0.13679	-9.757e-08	-9.1126e-08	-0.16069	-0.079223	-8.5924e-08	-8.4303e-08	-0.13476	-0.031314	-0.041122	-0.010907	-7.6056e-08	-0.01411	125.882	31.318	-14.466	-0.311	63.368	-3.041	189.642	2.918	291.661	87.680	140.251	330.624	293.945	168.513	337.237	142.307	-8191	255	
22410.141	1	1	0	0	0.087106	0.16498	0.34965	0.14101	0.22762	0.39258	0.084696	0.22436	0.17431	0.24198	0.10162	0.28499	0.17146	0.11065	0.16203	0.14701	-1.5667	-2.1688	-2.3063	-1.9146	-2.3646	-2.3708	-1.9271	-2.3187	-2.0583	-2.2833	-2.225	-1.8479	-2.2354	-2.1917	-1.9688	-2.3229	160.116	220.444	169.769	38.277	264.875	149.107	220.665	27.017	328.967	270.561	41.483	172.332	297.350	283.953	38.487	258.540	3.2931e-06	7.1634e-05	9.1722e-06	0.044396	2.6499e-07	3.5691e-07	0.012276	0.020622	6.7413e-08	6.2287e-07	0.0058654	0.0062407	0.010116	0.002612	1.0289e-07	0.0016912	-4.9908e-06	-7.7699e-06	-2.2942e-06	-0.14652	-8.8013e-08	-9.0066e-08	-0.14961	-0.067174	-8.1393e-08	-7.9629e-08	-0.14066	-0.028685	-0.04141	-0.011144	-7.5355e-08	-0.015784	5.663	343.088	363.146	195.217	241.697	231.606	33.902	22.338	336.239	264.682	33.155	130.063	146.905	203.587	279.641	37.527	-8191	255	
22410.262	1	1	0	0	0.43246	0.20868	0.21403	0.09751	0.18302	0.081511	0.19276	0.061381	0.048134	0.131	0.24526	0.26237	0.19934	0.21278	0.20446	0.10955	-1.6313	-2.0729	-2.4146	-1.925	-2.0229	-2.4083	-1.9583	-2.0979	-2.0917	-2.0438	-2.4083	-2.0167	-2.1979	-2.2521	-2.0021	-2.4354	108.464	183.735	94.546	256.579	314.491	370.071	87.481	174.250	291.069	285.120	52.500	160.839	77.662	125.774	350.988	151.136	3.0251e-06	4.5205e-05	1.36e-05	0.030578	1.838e-07	3.003e-07	0.021707	0.012343	1.4911e-07	4.7785e-07	0.0008318	0.00069414	0.0083248	0.0032518	1.4512e-07	0.0011216	-5.4055e-06	-7.2637e-06	-2.6261e-06	-0.14584	-8.4537e-08	-1.0075e-07	-0.14235	-0.070136	-7.9476e-08	-7.4162e-08	-0.13807	-0.028519	-0.037829	-0.010928	-7.1505e-08	-0.014382	311.171	78.540	176.214	376.094	153.734	312.038	204.964	55.616	92.338	301.668	111.672	296.582	259.974	287.143	83.457	200.091	-8191	255	
22410.355	1	1	0	0	0.19395	0.11758	0.090556	0.26412	0.15055	0.18605	0.17851	0.061463	0.31098	0.14011	0.11986	0.22866	0.22716	0.043477	0.15998	0.36773	-1.5833	-1.9667	-2.4	-2.0292	-2.2896	-2.5479	-1.9917	-2.2167	-2.3271	-2.075	-2.4354	-2.0312	-2.1125	-2.3958	-2.0083	-2.4167	207.688	101.688	227.914	184.014	409.380	203.786	409.096	335.294	84.599	175.888	232.725	74.298	212.679	236.496	105.254	348.385	1.2347e-06	6.9699e-05	1.7515e-05	0.028254	4.4802e-07	3.6733e-07	0.020172	0.010284	1.5963e-07	3.3502e-07	0.01476	0.0043606	0.0061939	0.0014193	3.1883e-07	0.00072394	-5.7474e-06	-6.0424e-06	-2.4265e-06	-0.14635	-8.7144e-08	-9.9779e-08	-0.15917	-0.06603	-9.4726e-08	-7.7336e-08	-0.13453	-0.027653	-0.036265	-0.011441	-7.6056e-08	-0.014425	115.060	162.466	87.922	353.141	163.129	354.041	367.606	76.442	114.575	105.732	226.892	110.228	100.747	207.576	245.900	361.960	-8191	255	
22410.451	1	1	0	0	0.149	0.23499	0.12678	0.22094	0.24063	0.19025	0.083428	0.36879	0.18241	0.069742	0.11267	0.27468	0.099497	0.10287	0.18815	0.25407	-1.8625	-2.0375	-2.3417	-2.0042	-2.0604	-2.3354	-1.8896	-2.0604	-2.2833	-2.0646	-2.4125	-2.1375	-2.0708	-2.2687	-1.9333	-2.3	20.331	56.313	42.854	-40.590	128.817	-29.522	-65.224	148.435	3.052	-91.857	171.818	-49.300	-114.182	8.753	43.712	122.211	7.6348e-06	3.4693e-06	4.0385e-06	0.015175	2.0153e-07	1.5323e-07	0.01386	0.026073	1.5258e-08	2.328e-07	0.0077735	0.0017611	0.0055588	0.0018676	1.4478e-07	0.0035482	-6.8096e-06	-6.0263e-06	-2.5678e-06	-0.16309	-7.8195e-08	-9.6424e-08	-0.15343	-0.064011	-8.9933e-08	-6.8342e-08	-0.12579	-0.033743	-0.035771	-0.011698	-8.1657e-08	-0.01265	13.211	119.324	78.336	184.518	-160.873	-133.938	-70.645	-151.388	115.899	162.407	32.051	126.842	-97.776	149.001	-141.224	88.969	-8191	255	
22410.549	1	1	0	0	0.082364	0.11258	0.38423	0.090332	0.25083	0.2384	0.10994	0.15176	0.2772	0.18738	0.11274	0.17261	0.17817	0.30045	0.24286	0.17796	-1.9958	-1.9792	-2.475	-2.1167	-2.0625	-2.3792	-1.9958	-2.0833	-2.3167	-2.0125	-2.3187	-2.2542	-1.8229	-2.4042	-2.1167	-2.3958	392.377	57.587	67.536	241.471	117.585	335.475	119.984	63.031	201.325	109.759	342.903	105.264	271.913	392.592	84.892	64.435	7.3976e-06	2.0811e-05	8.3285e-06	0.0076966	1.755e-07	1.4553e-07	0.011775	0.0068208	2.6102e-07	3.2863e-07	0.015391	0.0057306	0.0024081	0.00074092	4.384e-07	0.0018204	-5.5728e-06	-6.7816e-06	-2.1776e-06	-0.16685	-8.1323e-08	-1.0843e-07	-0.18171	-0.064078	-9.9519e-08	-7.4867e-08	-0.12473	-0.032545	-0.035442	-0.011493	-8.3845e-08	-0.013938	366.482	303.047	119.409	253.992	350.666	201.391	107.145	51.010	174.218	136.961	350.880	373.349	49.977	224.283	168.353	67.338	-8191	255	
22410.645	1	1	0	0	0.32239	0.20623	0.23738	0.29268	0.10217	0.17039	0.18061	0.10589	0.16156	0.44666	0.12806	0.10429	0.22613	0.27294	0.10008	0.079326	-1.9333	-2.1063	-2.3771	-2.2542	-2.0021	-2.5896	-2.0875	-2.1542	-2.5187	-2.2042	-2.1688	-2.2625	-1.9208	-2.4042	-2.1437	-2.2333	301.173	279.291	-31.797	127.769	41.682	303.664	138.929	227.018	24.082	0.800	85.489	141.989	224.340	-20.884	19.758	251.498	6.1871e-06	3.5547e-05	6.3779e-06	0.026496	1.0688e-07	1.0966e-07	0.045804	0.00428	2.447e-07	2.2363e-07	0.023508	0.0073951	0.0041757	0.00058439	2.9961e-07	0.0011299	-6.555e-06	-6.7012e-06	-2.3525e-06	-0.17197	-7.9151e-08	-9.4305e-08	-0.18515	-0.061318	-9.7166e-08	-8.2803e-08	-0.1114	-0.034009	-0.034906	-0.011349	-8.9446e-08	-0.012135	187.438	131.377	114.500	63.305	297.782	227.414	6.025	-34.364	-24.855	65.297	187.267	191.132	292.108	250.283	232.906	91.996	-8191	255	
22410.740	1	1	0	0	0.18623	0.17576	0.089234	0.20728	0.20754	0.2298	0.13078	0.019184	0.0069783	0.17636	0.10156	0.17022	0.25631	0.13866	0.20386	0.11749	-1.9521	-1.8479	-2.3375	-2.2521	-2.0458	-2.4104	-2.1458	-1.9917	-2.4396	-2.0896	-2.0187	-2.2438	-1.925	-2.3229	-2.2521	-2.0292	111.843	-78.546	-88.215	113.798	38.661	154.789	3.318	83.554	132.010	-94.500	33.071	195.856	-96.997	145.641	178.008	-91.685	2.5652e-06	2.8474e-05	1.2866e-05	0.024909	1.7304e-07	5.7733e-07	0.031149	0.0087276	6.3443e-07	4.6093e-08	0.031496	0.0074917	0.0063984	0.0016036	4.2027e-07	0.0026018	-5.9439e-06	-6.1147e-06	-2.135e-06	-0.18187	-7.0115e-08	-9.3598e-08	-0.19069	-0.059434	-9.9083e-08	-7.8042e-08	-0.11093	-0.03554	-0.034906	-0.011082	-8.0869e-08	-0.011863	-117.664	-5.457	10.085	172.364	-129.535	171.067	-7.492	-123.651	-105.325	178.008	161.360	174.259	48.473	89.810	68.892	-47.237	-8191	255	
22410.838	1	1	0	0	0.1204	0.1177	0.23177	0.17055	0.37553	0.12679	0.23689	0.14848	0.21586	0.19849	0.28211	0.19227	0.30891	0.15205	0.14245	0.12921	-1.9667	-1.9562	-2.2375	-2.2812	-1.9042	-2.0917	-2.2958	-1.9396	-2.4208	-2.0917	-2.0729	-2.3688	-1.8583	-2.1854	-2.4396	-1.9771	302.017	367.584	47.960	42.994	113.173	375.091	357.678	177.893	172.268	77.201	27.498	257.078	61.921	137.297	294.617	198.591	5.9694e-06	5.0759e-05	6.7512e-06	0.014324	3.7035e-07	4.4048e-07	0.023113	0.011865	4.1086e-07	3.2234e-07	0.0033811	0.0044373	0.0020062	0.0016154	5.4434e-07	0.0025583	-5.8929e-06	-6.8459e-06	-2.117e-06	-0.18017	-7.2982e-08	-8.8654e-08	-0.17617	-0.058828	-9.6992e-08	-7.8923e-08	-0.10455	-0.03737	-0.035524	-0.010199	-8.9271e-08	-0.012149	231.915	53.054	238.841	297.891	248.214	41.397	266.149	34.875	125.564	303.728	319.373	279.661	193.159	39.799	353.200	210.665	-8191	255	
22410.934	1	1	0	0	0.17763	0.12043	0.31677	0.15688	0.17501	0.20294	0.16404	0.12753	0.15164	0.056005	0.14121	0.035345	0.19875	0.13954	0.21025	0.22456	-1.8896	-2.1229	-1.9729	-2.3417	-1.8687	-2.1958	-2.3729	-2.0229	-2.3521	-2.2125	-2.0125	-2.3833	-1.9688	-2.2542	-2.4667	-1.9937	190.539	294.185	283.723	340.459	347.109	247.041	274.715	147.401	356.708	445.147	159.124	208.958	273.057	316.537	182.918	429.744	3.0704e-06	4.7272e-05	4.0146e-06	0.012909	4.2351e-07	2.3809e-08	0.020346	0.0078651	1.4963e-07	4.6692e-08	0.015202	0.009119	0.0020825	0.000969	3.6553e-07	0.0030587	-6.6932e-06	-7.0467e-06	-1.8816e-06	-0.17863	-6.9159e-08	-8.8212e-08	-0.20464	-0.060443	-9.5162e-08	-7.7953e-08	-0.10361	-0.036871	-0.036718	-0.010281	-9.1372e-08	-0.01182	126.646	294.688	308.042	347.292	155.990	163.077	395.684	124.344	400.356	211.850	363.325	427.584	259.747	285.420	253.022	350.632	-8191	255	
22411.029	1	1	0	0	0.15531	0.10679	0.15323	0.084072	0.18519	0.32943	0.069981	0.04	0.087124	0.44575	0.15566	0.05819	0.17238	0.30172	0.22013	0.087473	-1.9333	-2.2396	-2.1875	-2.4417	-2.0062	-2.1917	-2.4021	-2.1312	-2.4229	-2.1	-2.1208	-2.4646	-2.0417	-2.1083	-2.3854	-1.975	404.457	408.125	183.174	455.301	428.267	468.511	142.979	145.307	345.730	155.386	386.703	320.839	172.136	336.170	296.830	209.765	1.9514e-06	1.7933e-05	6.8576e-06	0.0060424	1.5511e-07	3.0557e-07	0.049819	0.011402	3.1085e-07	4.4133e-07	0.014454	0.0028612	0.0060387	0.0019011	1.26e-07	0.0050812	-5.6601e-06	-8.2199e-06	-2.0453e-06	-0.19536	-7.2113e-08	-8.4415e-08	-0.20178	-0.059501	-9.3767e-08	-9.3121e-08	-0.086852	-0.036971	-0.0382	-0.0098393	-9.3122e-08	-0.01328	383.873	145.813	460.798	444.022	374.869	318.290	351.003	154.351	444.785	227.483	209.610	372.328	293.640	154.064	487.020	313.376	-8191	255	
22411.148	1	1	0	0	0.25317	0.067507	0.061201	0.24152	0.15316	0.10653	0.14218	0.11785	0.11589	0.064029	0.094663	0.15061	0.32747	0.29945	0.055662	0.09941	-1.9917	-2.2042	-2.0146	-2.2958	-2.0604	-2.125	-2.4771	-1.9021	-2.3354	-2.4083	-2.1312	-2.2958	-2.0167	-2.1063	-2.3854	-2.175	-138.988	135.075	-71.356	112.045	-57.121	127.641	-120.154	-140.483	-155.376	-75.847	59.196	-134.930	25.427	-130.531	48.684	-166.667	1.6676e-07	1.7633e-05	3.2912e-06	0.02342	3.7675e-07	3.8138e-07	0.043756	0.032603	1.7782e-07	5.8286e-08	0.021347	0.00077776	0.0072439	0.0017249	2.0664e-07	0.0026575	-5.8275e-06	-7.4967e-06	-1.9197e-06	-0.17846	-8.7231e-08	-8.5828e-08	-0.20713	-0.05277	-8.6273e-08	-9.3121e-08	-0.10739	-0.039633	-0.037376	-0.0091511	-9.5048e-08	-0.011577	120.171	-42.376	-173.985	122.614	-17.752	121.741	32.793	-160.129	136.416	-85.176	145.787	-106.627	-143.627	38.727	44.671	61.238	-8191	255	
22411.244	1	1	0	0	0.22486	0.18416	0.18216	0.1065	0.1556	0.072209	0.30165	0.31095	0.060177	0.048077	0.27481	0.11623	0.1735	0.22739	0.070752	0.16496	-2.0042	-2.125	-2.0104	-2.4479	-2.1979	-2.2104	-2.4083	-2.1208	-2.2208	-2.125	-1.975	-2.3833	-2.1708	-2.1854	-2.3667	-2.0146	170.343	100.558	50.399	312.267	401.553	311.974	201.878	343.057	188.128	332.354	403.084	310.828	80.127	358.794	206.362	399.299	2.8598e-06	3.6189e-05	1.4149e-05	0.020327	7.6286e-07	2.6969e-07	0.024539	0.0098802	8.0783e-08	3.1005e-07	0.016896	0.0064678	0.0023893	0.0016133	2.1171e-07	0.0020165	-5.2891e-06	-8.1958e-06	-1.8165e-06	-0.1788	-8.558e-08	-7.7351e-08	-0.21439	-0.063405	-7.7733e-08	-9.7442e-08	-0.087914	-0.036372	-0.041451	-0.0095209	-9.496e-08	-0.011448	82.824	372.435	100.085	363.006	99.957	199.469	228.541	64.834	371.060	375.020	137.650	64.377	332.751	302.022	95.258	132.598	-8191	255	
22411.342	1	1	0	0	0.019514	0.14199	0.22602	0.24714	0.20261	0.12824	0.13999	0.075244	0.061794	0.16905	0.13171	0.29511	0.10189	0.13231	0.099399	0.13604	-1.7417	-2.3729	-2.1146	-2.3	-2.2104	-1.8958	-2.4021	-1.9104	-2.1562	-2.4021	-1.875	-2.275	-2.4229	-2.1083	-2.3771	-2.1958	234.194	283.991	113.352	125.183	105.275	28.402	225.215	238.389	6.791	217.451	90.390	300.724	174.879	122.142	244.643	15.248	6.9183e-06	4.2526e-05	2.958e-06	0.022671	2.379e-08	3.1809e-07	0.020539	0.025752	2.4044e-07	8.4356e-07	0.032522	0.0054737	0.0076472	0.0014348	3.2178e-07	0.0017355	-5.4346e-06	-8.019e-06	-1.7941e-06	-0.17163	-7.8542e-08	-7.479e-08	-0.20292	-0.063809	-7.8169e-08	-9.753e-08	-0.1042	-0.035507	-0.036635	-0.0084116	-9.9074e-08	-0.013523	7.419	57.393	328.780	72.349	113.869	152.676	58.805	-6.836	53.755	72.779	123.919	305.833	186.664	224.839	48.938	310.724	-8191	255	
22411.436	1	1	0	0	0.052669	0.20119	0.14293	0.39941	0.14223	0.17338	0.23717	0.1072	0.10392	0.16394	0.097454	0.18798	0.039876	0.10769	0.13883	0.17673	-1.6625	-2.3521	-1.9792	-2.1854	-2.125	-1.9771	-2.3667	-2.2167	-2.1688	-2.5458	-1.8958	-2.175	-2.2833	-1.9438	-2.4729	-1.8937	277.088	159.966	245.729	81.010	130.316	286.200	138.567	277.827	329.788	211.276	275.986	295.673	13.316	244.867	359.023	362.285	3.9395e-06	4.661e-05	1.0382e-05	0.0055706	4.5843e-07	3.0009e-07	0.039505	0.00158	9.8825e-08	1.3296e-07	0.03696	0.011013	0.0026064	0.00086207	2.2702e-07	0.0022416	-4.889e-06	-8.0993e-06	-1.8883e-06	-0.18461	-8.9403e-08	-7.1435e-08	-0.21114	-0.065963	-7.1807e-08	-9.1886e-08	-0.094405	-0.033477	-0.043386	-0.0086684	-1.0074e-07	-0.012436	267.872	68.728	294.632	224.088	142.520	132.639	163.903	27.708	283.961	355.441	199.789	203.494	307.443	309.319	92.985	179.937	-8191	255	
22411.531	1	1	0	0	0.048111	0.085581	0.22442	0.10729	0.14108	0.056945	0.086259	0.28544	0.061839	0.24906	0.080465	0.22121	0.22311	0.15599	0.19696	0.10635	-1.7167	-2.3521	-2.0917	-2.0354	-2.4146	-1.9667	-2.3333	-2.1583	-2.0729	-2.4583	-1.9708	-2.1854	-2.3646	-1.8542	-2.3083	-2.1813	-97.492	106.061	155.112	82.103	-122.122	7.382	-117.716	-75.941	-50.771	135.159	-49.970	98.555	-118.770	167.652	196.195	-124.062	1.5852e-06	4.401e-05	1.3663e-05	0.038935	2.818e-07	2.308e-07	0.0183	0.0067732	3.7957e-07	2.6635e-07	0.0028211	0.0039846	0.0048052	0.0011589	5.9514e-07	0.0026859	-4.6125e-06	-8.3484e-06	-1.7313e-06	-0.16975	-9.1662e-08	-7.479e-08	-0.20655	-0.064886	-7.6861e-08	-9.3738e-08	-0.11588	-0.031048	-0.046473	-0.0084425	-8.332e-08	-0.014139	-119.237	174.180	-126.913	94.371	-139.165	-102.391	-31.191	-126.428	8.787	98.245	84.551	99.409	183.732	-65.043	159.710	-18.787	-8191	255	
22411.629	1	1	0	0	0.093337	0.29302	0.096449	0.16971	0.087255	0.12105	0.19873	0.072238	0.046116	0.16181	0.15303	0.25328	0.094513	0.30942	0.21935	0.23936	-1.3146	-2.4458	-1.9958	-2.1146	-2.5062	-1.8771	-2.3792	-2.1375	-2.0625	-2.4125	-2.0417	-2.0563	-2.2583	-2.0208	-2.3042	-2.1896	28.168	311.139	167.855	72.412	131.852	81.716	45.426	35.221	123.133	-2.559	343.617	6.531	272.964	7.948	315.617	167.378	2.9215e-06	4.7515e-05	1.6503e-05	0.025267	3.3643e-07	7.313e-07	0.033118	0.0082302	4.4897e-07	1.9847e-07	0.026133	0.0047002	0.0039886	0.0013997	2.225e-07	0.00085604	-4.9326e-06	-8.6136e-06	-2.0497e-06	-0.1665	-9.5137e-08	-6.7638e-08	-0.20426	-0.069395	-7.2417e-08	-9.1357e-08	-0.10514	-0.030881	-0.044251	-0.0086479	-8.9184e-08	-0.01401	146.825	140.038	209.362	185.550	79.515	104.792	80.533	3.689	76.322	245.811	340.175	84.713	220.157	298.011	244.860	7.221	-8191	255	
22411.748	1	1	0	0	0.19918	0.025499	0.093077	0.070737	0.082637	0.20227	0.18727	0.1812	0.13183	0.11379	0.21494	0.14275	0.16356	0.16933	0.42674	0.07402	-1.5938	-2.475	-2.0583	-1.9896	-2.5875	-1.9104	-2.3333	-2.1021	-2.0354	-2.3833	-2.125	-2.1458	-2.4292	-2.0104	-2.175	-2.25	284.517	248.698	361.578	218.930	233.268	312.832	205.736	246.463	261.578	292.804	196.130	101.005	349.068	222.082	110.249	395.539	1.41e-06	1.0575e-05	1.5655e-05	0.02686	4.1112e-07	2.2352e-07	0.044514	0.024832	3.4068e-07	2.5738e-07	0.014317	0.0023814	0.0026266	0.00073946	3.8167e-07	0.0022365	-4.7289e-06	-8.6055e-06	-2.135e-06	-0.14806	-9.505e-08	-7.6821e-08	-0.18611	-0.066838	-6.6927e-08	-9.5061e-08	-0.11128	-0.027287	-0.045238	-0.0084425	-8.4195e-08	-0.015727	49.924	159.100	207.668	381.987	116.871	277.825	115.006	61.818	176.522	156.367	258.328	245.759	105.699	255.416	192.526	367.269	-8191	255	
22411.846	1	1	0	0	0.086017	0.1491	0.22944	0.30855	0.15967	0.16611	0.15763	0.011035	0.043841	0.32526	0.068342	0.17661	0.20486	0.17364	0.14701	0.061676	-1.3	-2.2771	-2.0979	-2.0042	-2.3854	-2.0083	-2.2292	-2.3667	-1.9146	-2.4125	-2.3167	-2.0938	-2.3667	-2.2188	-2.2396	-2.5396	58.408	54.465	34.994	-54.304	37.188	102.995	52.475	171.563	15.910	-120.524	-11.524	42.660	-5.216	-38.763	-91.307	53.626	8.4876e-06	2.2197e-05	1.2569e-05	0.018143	1.4165e-07	3.8584e-07	0.044442	0.010484	2.3107e-07	3.4667e-07	0.0064206	0.0012246	0.0030211	0.001499	2.1136e-07	0.00071977	-4.5325e-06	-8.2118e-06	-2.0744e-06	-0.13781	-9.479e-08	-7.2141e-08	-0.17407	-0.074646	-7.3463e-08	-9.2592e-08	-0.12273	-0.028319	-0.047914	-0.0085657	-8.5683e-08	-0.016242	56.641	137.475	72.548	78.875	164.981	188.287	21.039	-119.719	-104.670	74.352	185.205	57.855	31.006	72.784	78.011	7.724	-8191	255	
22411.941	1	1	0	0	0.12113	0.23795	0.020988	0.13643	0.20162	0.14992	0.16686	0.13897	0.15368	0.11552	0.24079	0.077015	0.12925	0.18848	0.20201	0.093635	-1.4771	-2.3604	-2.2562	-1.9375	-2.2792	-2.075	-2.1021	-2.5458	-1.9333	-2.4021	-2.2854	-1.9062	-2.5083	-2.1771	-2.1292	-2.2958	272.327	81.235	313.713	241.592	157.090	231.940	209.181	383.428	81.392	201.080	389.032	227.253	367.999	263.539	137.919	377.585	3.8044e-06	1.9799e-05	9.9555e-06	0.010034	1.3628e-07	6.7795e-08	0.034609	0.016194	8.6515e-08	9.6325e-08	0.010461	0.0025916	0.005314	0.0002249	2.8342e-08	0.0023574	-5.0054e-06	-8.2359e-06	-2.366e-06	-0.14277	-9.8873e-08	-7.7881e-08	-0.17082	-0.070338	-6.8234e-08	-9.4884e-08	-0.12886	-0.024592	-0.045156	-0.0086684	-7.9907e-08	-0.015956	227.224	326.081	214.595	387.174	136.640	299.021	275.822	85.057	99.578	329.019	427.072	407.494	114.609	67.790	339.796	217.836	-8191	255	
22412.037	1	1	0	0	0.056902	0.084063	0.29164	0.28694	0.23408	0.10654	0.12403	0.23474	0.054344	0.2647	0.2864	0.15768	0.18003	0.17397	0.074808	0.13012	-1.5104	-2.175	-2.3625	-1.9646	-2.3958	-2.2875	-2.0979	-2.2708	-2.1083	-2.3146	-2.4583	-1.9646	-2.3438	-2.1896	-2.0812	-2.4896	394.042	301.321	435.963	90.696	119.418	427.960	438.847	269.296	387.920	148.944	172.644	388.685	174.649	245.018	288.642	380.728	5.6445e-06	4.0358e-05	1.5845e-05	0.024485	4.5658e-07	5.0421e-07	0.058497	0.0087352	3.1984e-07	2.9088e-07	0.024278	0.00082936	0.0058513	0.000993	1.2026e-07	0.0034112	-4.8453e-06	-7.9065e-06	-2.3256e-06	-0.14106	-9.505e-08	-8.0795e-08	-0.17006	-0.075117	-7.294e-08	-8.8183e-08	-0.12733	-0.028219	-0.04528	-0.010158	-8.0869e-08	-0.015426	178.629	439.646	83.449	320.393	241.332	419.013	369.762	98.679	435.182	322.549	126.414	116.260	416.038	230.448	226.951	422.348	-8191	255	
#DATA ENDS
