BOXY.EXE: ISS Imagent and Oximeter Data Acquisition Program Version 0.80
Ascii Record File

#ACQ INFORMATION
2  Detector Channels 
16  External MUX Channels 
1  Auxiliary Channels 
5000  Waveform (CCF) Frequency (Hz)
1  Waveforms Skipped 
30  Waveforms Averaged 
1  Cycles Averaged 
16  Acquisitions per Waveform 
10.0806  Updata Rate (Hz) 

#FILE INFORMATION
TRUE -- External MUX Channel results are PARSED.
FALSE -- AC DC and Phase are NOT grouped.
TRUE -- Companion Program Settings File CREATED.
FALSE -- AC data not excluded
FALSE -- DC data not excluded
FALSE -- Phase data not excluded
FALSE -- Auxillary Chn. data not excluded
Tab delimiters

#CALIBRATION STATE
TRUE -- Waveform Calibration Values APPLIED.


#AUX CALIBRATION VALUES
Val Type	aux-1	

Term	1.0000e+00	
Factor	0.0000e+00	


#WF CALIBRATION VALUES
A = Detector Channel
Val Type	A-AC1	A-AC2	A-AC3	A-AC4	A-AC5	A-AC6	A-AC7	A-AC8	A-AC9	A-AC10	A-AC11	A-AC12	A-AC13	A-AC14	A-AC15	A-AC16	A-DC1	A-DC2	A-DC3	A-DC4	A-DC5	A-DC6	A-DC7	A-DC8	A-DC9	A-DC10	A-DC11	A-DC12	A-DC13	A-DC14	A-DC15	A-DC16	A-Ph1	A-Ph2	A-Ph3	A-Ph4	A-Ph5	A-Ph6	A-Ph7	A-Ph8	A-Ph9	A-Ph10	A-Ph11	A-Ph12	A-Ph13	A-Ph14	A-Ph15	A-Ph16	

Term	0.00000e+00	0.00000e+00	0.00000e+00	0.00000e+00	0.00000e+00	0.00000e+00	0.00000e+00	0.00000e+00	0.00000e+00	0.00000e+00	0.00000e+00	0.00000e+00	0.00000e+00	0.00000e+00	0.00000e+00	0.00000e+00	0.00000e+00	0.00000e+00	0.00000e+00	0.00000e+00	0.00000e+00	0.00000e+00	0.00000e+00	0.00000e+00	0.00000e+00	0.00000e+00	0.00000e+00	0.00000e+00	0.00000e+00	0.00000e+00	0.00000e+00	0.00000e+00	0.00000e+00	0.00000e+00	0.00000e+00	0.00000e+00	0.00000e+00	0.00000e+00	0.00000e+00	0.00000e+00	0.00000e+00	0.00000e+00	0.00000e+00	0.00000e+00	0.00000e+00	0.00000e+00	0.00000e+00	0.00000e+00	
Factor	1.00000e+00	1.00000e+00	1.00000e+00	1.00000e+00	1.00000e+00	1.00000e+00	1.00000e+00	1.00000e+00	1.00000e+00	1.00000e+00	1.00000e+00	1.00000e+00	1.00000e+00	1.00000e+00	1.00000e+00	1.00000e+00	1.00000e+00	1.00000e+00	1.00000e+00	1.00000e+00	1.00000e+00	1.00000e+00	1.00000e+00	1.00000e+00	1.00000e+00	1.00000e+00	1.00000e+00	1.00000e+00	1.00000e+00	1.00000e+00	1.00000e+00	1.00000e+00	X	X	X	X	X	X	X	X	X	X	X	X	X	X	X	X	

B = Detector Channel
Val Type	B-AC1	B-AC2	B-AC3	B-AC4	B-AC5	B-AC6	B-AC7	B-AC8	B-AC9	B-AC10	B-AC11	B-AC12	B-AC13	B-AC14	B-AC15	B-AC16	B-DC1	B-DC2	B-DC3	B-DC4	B-DC5	B-DC6	B-DC7	B-DC8	B-DC9	B-DC10	B-DC11	B-DC12	B-DC13	B-DC14	B-DC15	B-DC16	B-Ph1	B-Ph2	B-Ph3	B-Ph4	B-Ph5	B-Ph6	B-Ph7	B-Ph8	B-Ph9	B-Ph10	B-Ph11	B-Ph12	B-Ph13	B-Ph14	B-Ph15	B-Ph16	

Term	0.00000e+00	0.00000e+00	0.00000e+00	0.00000e+00	0.00000e+00	0.00000e+00	0.00000e+00	0.00000e+00	0.00000e+00	0.00000e+00	0.00000e+00	0.00000e+00	0.00000e+00	0.00000e+00	0.00000e+00	0.00000e+00	0.00000e+00	0.00000e+00	0.00000e+00	0.00000e+00	0.00000e+00	0.00000e+00	0.00000e+00	0.00000e+00	0.00000e+00	0.00000e+00	0.00000e+00	0.00000e+00	0.00000e+00	0.00000e+00	0.00000e+00	0.00000e+00	8.46578e+01	-1.29976e+02	-1.28913e+02	-1.82245e+02	-8.85818e+01	-6.99744e+01	-1.59545e+02	-1.62015e+02	-6.78612e+01	-6.70692e+01	-1.73581e+02	-1.72846e+02	-1.88869e+02	-1.78099e+02	-7.30646e+01	-1.50538e+02	
Factor	7.38116e-05	2.11506e-04	5.81731e-05	1.66666e-01	2.97355e-06	2.33124e-06	2.08068e-01	7.32009e-02	3.78836e-06	2.32691e-06	1.33904e-01	3.72556e-02	4.39331e-02	1.07740e-02	2.74621e-06	1.56278e-02	2.35785e-05	4.15781e-05	1.15262e-05	8.37818e-02	3.77995e-07	4.73963e-07	9.73646e-02	3.68828e-02	3.96265e-07	4.67267e-07	6.56016e-02	1.81804e-02	2.20209e-02	5.48808e-03	4.14571e-07	7.72833e-03	X	X	X	X	X	X	X	X	X	X	X	X	X	X	X	X	



#DISTANCE SETTINGS
A = Detector Channel
A-1	A-2	A-3	A-4	A-5	A-6	A-7	A-8	A-9	A-10	A-11	A-12	A-13	A-14	A-15	A-16	

2.5000e+00	3.0000e+00	2.5000e+00	3.0000e+00	2.0000e+00	3.0000e+00	1.5000e+00	3.0000e+00	3.0000e+00	3.0000e+00	3.0000e+00	3.0000e+00	3.0000e+00	3.0000e+00	1.5000e+00	3.0000e+00	

B = Detector Channel
B-1	B-2	B-3	B-4	B-5	B-6	B-7	B-8	B-9	B-10	B-11	B-12	B-13	B-14	B-15	B-16	

1.0000e+01	1.0000e+01	1.0000e+01	1.4400e+00	1.0000e+01	1.0000e+01	1.5100e+00	1.9400e+00	1.0000e+01	1.0000e+01	1.9900e+00	2.4900e+00	2.4100e+00	2.9000e+00	1.0000e+01	2.9800e+00	




#DATA BEGINS
time	group	step	mark	flag	A-AC1	A-AC2	A-AC3	A-AC4	A-AC5	A-AC6	A-AC7	A-AC8	A-AC9	A-AC10	A-AC11	A-AC12	A-AC13	A-AC14	A-AC15	A-AC16	A-DC1	A-DC2	A-DC3	A-DC4	A-DC5	A-DC6	A-DC7	A-DC8	A-DC9	A-DC10	A-DC11	A-DC12	A-DC13	A-DC14	A-DC15	A-DC16	A-Ph1	A-Ph2	A-Ph3	A-Ph4	A-Ph5	A-Ph6	A-Ph7	A-Ph8	A-Ph9	A-Ph10	A-Ph11	A-Ph12	A-Ph13	A-Ph14	A-Ph15	A-Ph16	B-AC1	B-AC2	B-AC3	B-AC4	B-AC5	B-AC6	B-AC7	B-AC8	B-AC9	B-AC10	B-AC11	B-AC12	B-AC13	B-AC14	B-AC15	B-AC16	B-DC1	B-DC2	B-DC3	B-DC4	B-DC5	B-DC6	B-DC7	B-DC8	B-DC9	B-DC10	B-DC11	B-DC12	B-DC13	B-DC14	B-DC15	B-DC16	B-Ph1	B-Ph2	B-Ph3	B-Ph4	B-Ph5	B-Ph6	B-Ph7	B-Ph8	B-Ph9	B-Ph10	B-Ph11	B-Ph12	B-Ph13	B-Ph14	B-Ph15	B-Ph16	aux-1	digaux	

36018.164	1	1	0	768	0.21887	0.20158	0.11156	0.28313	0.075449	0.045622	0.34673	0.03759	0.2289	0.16161	0.13825	0.33125	0.19995	0.10757	0.11054	0.093733	-2.1146	-2.2167	-2.0958	-2.4333	-2.1854	-2.2833	-2.4417	-1.9583	-2.4167	-2.3458	-1.9771	-2.4437	-2.0083	-2.1833	-2.2812	-1.9542	-152.965	-32.814	-21.025	151.572	-139.804	-58.138	-4.700	-90.649	67.161	23.445	-121.033	-57.430	167.543	189.560	113.935	146.762	0.001186	0.00042215	8.0261e-05	487.14	8.8105e-05	2.6656e-06	452.66	200.5	5.6846e-06	3.8765e-05	212.46	91.56	89.734	43.427	7.9537e-05	42.976	0.00056019	0.00065711	0.00013253	494.79	0.00012402	5.5256e-06	460.6	205.43	5.0119e-06	9.3282e-05	217.51	93.6	92.307	45.178	0.0001582	44.404	54.422	-54.549	-50.619	-142.979	-149.268	1.698	-144.826	-137.237	-14.668	8.226	-140.747	-136.623	-133.670	-128.266	117.772	-132.671	-8191	255	
36018.258	1	1	0	0	0.085208	0.33092	0.080418	0.18473	0.084199	0.13083	0.12108	0.22576	0.14425	0.086006	0.16993	0.13072	0.2412	0.10623	0.0906	0.33644	-1.8333	-2.025	-1.9042	-2.4313	-2.0687	-2.2229	-2.3812	-2.125	-2.1583	-2.2896	-2.1917	-2.3521	-2.0479	-2.1771	-2.4062	-2.1688	25.304	174.936	168.576	-123.360	105.773	56.896	82.920	166.547	-75.363	116.131	187.807	177.716	179.369	86.956	58.368	91.967	0.0011709	0.00057849	0.00011297	485.05	5.0228e-05	3.9529e-06	455.15	200.6	5.9439e-06	7.7666e-05	213.29	92.192	90.261	43.592	3.6503e-05	43.192	0.00056854	0.00058426	0.00013061	493.56	7.254e-05	5.6441e-06	461.81	206.03	4.9475e-06	0.00017202	218.96	94.358	92.646	45.337	4.845e-05	45.128	53.670	-71.844	-70.089	-143.272	-124.470	-11.452	-145.212	-137.489	-31.844	13.547	-140.203	-136.772	-133.787	-128.380	62.441	-132.857	-8191	255	
36018.352	1	1	0	0	0.29637	0.056862	0.089169	0.051146	0.13958	0.16536	0.18622	0.1587	0.15177	0.0733	0.17567	0.16483	0.070537	0.23149	0.30962	0.12813	-1.8792	-2.2208	-1.7979	-2.25	-2.1229	-2.2792	-2.5042	-2.1542	-2.2062	-2.3292	-2.0854	-2.4292	-2.3104	-2.0417	-2.4042	-2.0771	129.079	-134.408	-124.789	189.847	-83.943	163.458	139.955	173.527	-129.268	127.035	-123.263	92.514	143.645	54.353	165.638	187.014	0.0011897	0.00049933	9.5975e-05	486.02	8.43e-05	3.3927e-06	455.16	201.09	5.8054e-06	3.4181e-05	214.19	91.807	89.087	43.043	5.0401e-06	42.129	0.00056805	0.00060999	0.00013983	495.23	0.00013479	5.4358e-06	464.05	206.16	4.8014e-06	8.3868e-05	219.14	93.95	91.694	44.717	5.0439e-06	46.166	54.005	-57.103	-67.409	-143.430	-122.332	-10.948	-145.218	-137.306	-30.491	11.257	-140.075	-136.596	-133.706	-128.240	-41.305	-132.868	-8191	255	
36018.449	1	1	0	0	0.093514	0.20154	0.098481	0.21356	0.35785	0.1695	0.12927	0.18781	0.18413	0.19083	0.10262	0.25277	0.071211	0.32821	0.22459	0.15102	-1.7208	-2.3354	-2.0854	-2.3854	-2.2146	-2.0687	-2.3646	-1.9833	-2.2583	-2.2479	-2.0292	-2.4875	-2.2833	-2.1312	-2.3896	-2.2542	-149.462	43.029	66.154	-40.087	-109.522	-147.537	-53.778	-18.111	-27.702	38.955	-109.292	105.995	58.090	-138.831	-35.577	-77.303	0.0012528	0.00034505	9.1962e-05	480.77	4.0127e-05	4.3673e-06	446.99	199.56	4.7739e-06	6.9824e-05	208.46	90.002	89.284	42.781	3.0751e-06	41.759	0.00055183	0.00051626	0.00013327	490.62	6.7998e-05	5.4456e-06	456.09	204.32	4.9219e-06	0.00016069	214.72	91.924	91.484	44.493	5.1001e-06	44.689	53.303	-75.933	-73.794	-143.313	-115.575	-24.339	-145.033	-137.332	-14.827	25.906	-140.262	-136.377	-133.409	-128.359	-38.193	-132.628	-8191	255	
36018.547	1	1	0	0	0.057031	0.22288	0.11503	0.20726	0.12445	0.24312	0.28635	0.22306	0.11512	0.12737	0.1343	0.11303	0.073082	0.080265	0.043933	0.14923	-1.8937	-2.3417	-2.0083	-2.2292	-2.2396	-2.0583	-2.2417	-2.0604	-2.2104	-2.3792	-2.0521	-2.2458	-2.1875	-2.0604	-2.4208	-2.1375	-42.192	-71.942	164.875	121.618	177.416	-101.138	185.486	-119.357	-153.164	8.486	175.093	17.128	195.794	-155.583	159.284	126.599	0.0011575	0.00039213	8.6762e-05	480.41	8.9497e-05	3.6453e-06	450.74	200.25	6.8558e-06	3.3253e-05	211.98	90.58	89.765	43.144	6.4903e-06	41.99	0.0005624	0.00055923	0.00014211	491.51	0.00012801	5.3123e-06	458.46	205.34	4.8501e-06	4.5642e-05	220.3	92.808	92.078	44.856	5.2184e-06	46.313	56.090	-60.254	-65.108	-143.097	-107.824	-16.013	-145.132	-137.683	-44.817	20.622	-140.666	-136.419	-133.683	-128.153	-21.571	-132.800	-8191	255	
36018.641	1	1	0	0	0.12551	0.21881	0.17877	0.092113	0.29709	0.19476	0.1399	0.13695	0.25668	0.11716	0.13103	0.1463	0.19424	0.26397	0.20066	0.12792	-1.5708	-2.3	-1.9667	-2.3292	-2.2333	-2.1104	-2.3104	-2.2604	-2.0187	-2.5271	-2.0583	-2.1417	-2.4104	-1.9417	-2.6021	-2.2521	81.876	164.776	158.275	199.006	117.221	115.858	189.252	35.693	85.224	2.064	54.607	133.409	-103.011	129.438	-17.585	63.840	0.0011891	0.00030095	9.3256e-05	486.91	4.1135e-05	2.821e-06	452.83	201.43	6.5966e-06	2.6034e-06	214.62	91.021	90.242	43.756	3.7946e-06	42.801	0.00056082	0.00046004	0.00013632	494.19	6.3328e-05	5.1415e-06	460.54	206.74	4.6825e-06	4.6814e-06	237.79	93.458	92.678	45.331	4.9869e-06	45.651	53.790	-61.765	-64.203	-142.983	-96.928	-13.512	-145.285	-137.655	-43.465	24.768	-140.330	-136.682	-133.743	-128.230	-25.887	-132.490	-8191	255	
36018.762	1	1	0	0	0.18897	0.10892	0.17301	0.18973	0.24294	0.096273	0.10936	0.28989	0.078387	0.22206	0.096874	0.40751	0.24287	0.21151	0.15253	0.22488	-1.6917	-2.3417	-2.0271	-2.1437	-2.2646	-1.8646	-2.4188	-2.4083	-2.1229	-2.6562	-2.2229	-2.3312	-2.4792	-1.9979	-2.3583	-2.1604	103.348	36.016	-86.009	107.131	-152.960	-9.855	39.072	167.378	-41.241	-62.450	56.004	134.541	80.906	155.838	-69.496	94.405	0.0011715	0.00036108	0.00011204	487.11	8.5289e-05	3.6231e-06	457.37	203.43	5.7047e-06	3.4091e-06	213.48	91.879	90.602	43.935	4.0165e-06	43.013	0.00055994	0.0004215	0.00016699	496.03	0.00012037	5.103e-06	464.59	208.1	4.5802e-06	4.4848e-06	229.67	94.196	93.194	45.636	5.0232e-06	47.072	56.964	-65.375	-61.364	-143.477	-97.007	-13.203	-145.044	-137.393	-30.900	-5.841	-139.761	-136.385	-133.602	-128.228	-5.754	-132.942	-8191	255	
36018.859	1	1	0	0	0.32219	0.23168	0.37603	0.1367	0.065782	0.18361	0.11146	0.094274	0.033886	0.30153	0.22063	0.069317	0.16994	0.18201	0.30134	0.29955	-1.6458	-2.2083	-2.1375	-2.1875	-2.5542	-2.0958	-2.2438	-2.1875	-1.8979	-2.3417	-2.1417	-2.0958	-2.5479	-2.1875	-2.175	-2.3646	146.361	-93.047	-117.814	138.182	15.095	64.717	-105.506	39.706	-84.249	187.496	166.268	-15.360	-20.651	26.605	-62.482	147.882	0.0011477	0.00043824	0.00011425	486.29	3.1546e-05	2.2278e-05	449.62	199.99	5.8764e-06	4.8728e-06	210.15	89.362	89.153	42.983	4.2839e-06	41.401	0.00054334	0.00040158	0.00014088	495.71	3.1663e-05	2.904e-05	458.48	205.55	4.8055e-06	4.5588e-06	234.55	91.533	91.804	44.698	4.8505e-06	44.219	53.897	-82.703	-57.832	-143.484	-41.263	-100.340	-145.303	-137.679	-23.882	7.243	-139.552	-136.658	-133.634	-128.109	-35.942	-132.712	-8191	255	
36018.953	1	1	0	0	0.078374	0.18447	0.21533	0.11283	0.13651	0.29308	0.042325	0.2159	0.14243	0.35974	0.089854	0.31776	0.1672	0.28163	0.17589	0.18631	-1.5208	-2.3417	-2.1875	-2.2375	-2.4667	-2.325	-2.2292	-2.2708	-1.9854	-2.3208	-2.1729	-2.025	-2.6063	-2.2354	-2.3187	-2.4188	-137.837	-120.605	-58.025	180.518	110.986	33.160	40.766	106.454	-24.113	153.417	-15.568	-76.222	16.762	-122.572	-71.220	-90.844	0.0011474	0.00033847	0.00013679	479.42	4.0758e-06	4.5539e-05	445.27	200.04	5.7875e-06	3.0984e-06	209.06	89.187	89.434	43.018	5.413e-06	41.434	0.00053312	0.00042999	0.00015976	489.4	4.1469e-06	0.00014349	451.55	205.11	4.8873e-06	4.7291e-06	223.91	91.198	91.977	44.751	5.0958e-06	45.512	54.402	-68.970	-58.467	-143.436	-39.783	-106.239	-144.915	-137.561	-41.044	-10.424	-140.041	-136.607	-133.380	-128.198	-38.806	-133.044	-8191	255	
36019.051	1	1	0	0	0.1398	0.14176	0.037066	0.1632	0.14264	0.22036	0.11423	0.34503	0.13525	0.12735	0.10547	0.13913	0.12641	0.28777	0.09624	0.0091602	-1.4937	-2.2333	-2.2271	-2.1229	-2.5062	-2.1021	-2.1063	-2.375	-2.0208	-2.2125	-2.1208	-2.1604	-2.4542	-2.1646	-2.2417	-2.3667	-146.703	68.302	-132.126	56.720	-131.774	110.888	-33.014	-133.155	190.037	13.971	31.864	169.012	204.575	-81.688	97.036	148.443	0.0011801	0.00037352	0.0001026	482.09	4.4765e-06	2.9853e-05	443.62	201.34	5.5411e-06	3.4955e-06	211.12	89.842	89.983	43.152	2.8768e-06	41.764	0.00055655	0.00044159	0.00014105	491.65	4.2249e-06	7.4839e-05	453.56	205.94	4.9054e-06	4.8372e-06	235.74	91.97	92.496	44.938	5.0042e-06	43.979	53.226	-59.299	-51.481	-143.221	-34.226	-50.657	-145.196	-137.255	-56.198	4.266	-139.706	-136.500	-133.143	-128.407	-18.644	-132.736	-8191	255	
36019.148	1	1	0	0	0.032911	0.24872	0.080004	0.082917	0.1228	0.16728	0.05751	0.08974	0.20304	0.18928	0.18841	0.13608	0.071537	0.093465	0.12187	0.20984	-1.6437	-2.2542	-2.2625	-1.9458	-2.4021	-2.3667	-2.175	-2.45	-2.1979	-2.4062	-2.3125	-1.9188	-2.3771	-2.2375	-2.25	-2.7	179.880	-30.881	-155.344	118.393	-133.849	21.831	124.207	24.517	88.492	-27.908	184.322	19.094	-12.909	198.067	-87.671	108.301	0.0019785	0.00043074	0.00010393	484.38	5.207e-06	6.495e-05	450.14	202.3	4.5459e-06	3.0892e-06	211.96	90.154	90.179	43.306	3.0104e-06	42.245	0.0019345	0.00049019	0.00015685	494.34	4.3028e-06	0.00015199	457.54	207.16	5.2728e-06	5.2052e-06	227.49	92.729	92.665	44.957	5.1821e-06	43.72	28.064	-73.246	-74.470	-143.659	-57.086	-53.246	-145.273	-137.389	-31.753	-3.155	-140.277	-136.414	-133.579	-128.271	-38.413	-132.496	-8191	255	
36019.242	1	1	0	0	0.14857	0.10415	0.29978	0.2689	0.26342	0.11014	0.14508	0.10347	0.11345	0.13819	0.10341	0.17521	0.046492	0.24282	0.061546	0.080981	-1.8167	-2.0792	-2.2896	-1.9188	-2.4208	-2.1833	-2.0167	-2.4917	-1.9312	-2.1771	-2.2604	-2.0458	-2.2417	-2.425	-2.0729	-2.6396	41.213	124.983	-120.242	1.043	-11.655	-128.914	142.980	32.817	143.874	-120.001	-90.774	117.150	-61.729	179.964	198.545	77.156	0.0026369	0.000301	9.1582e-05	488.21	4.4892e-06	3.226e-05	451.25	201.98	6.9882e-06	3.324e-06	208.47	89.241	89.68	42.674	6.0642e-06	41.071	0.0081242	0.00047113	0.00014482	495.24	4.5115e-06	8.0984e-05	459.39	206.1	6.4195e-06	5.5011e-06	236.7	91.508	91.7	44.322	5.1666e-06	42.584	10.463	-70.361	-73.782	-143.416	-28.555	-49.757	-145.066	-137.846	-40.238	-7.644	-139.860	-136.480	-133.141	-128.349	-21.151	-132.535	-8191	255	
36019.363	1	1	0	0	0.12069	0.33475	0.15751	0.1332	0.09361	0.12751	0.24948	0.059184	0.065119	0.28315	0.22474	0.11536	0.11798	0.33568	0.13472	0.12165	-1.8438	-2.0187	-2.5208	-2.1125	-2.2958	-2.2896	-2.0521	-2.3896	-2.1479	-2.2104	-2.3438	-1.8917	-2.3937	-2.2646	-2.0208	-2.4313	-87.863	-152.582	170.861	-84.147	-43.479	40.847	137.088	117.273	-149.309	196.610	193.963	-75.157	91.179	194.731	141.628	-25.687	0.001756	0.00030133	0.00010332	479.07	3.5041e-06	6.4978e-05	440.68	200.31	5.3363e-06	1.7091e-06	207.37	87.231	89.002	42.862	5.0996e-06	41.133	0.0042601	0.00049209	0.00014357	489.41	4.4737e-06	0.00015505	448.17	204.43	5.4305e-06	5.2071e-06	215.79	91.29	91.427	44.463	5.4585e-06	42.641	27.971	-53.854	-56.383	-143.461	-14.064	-42.332	-145.053	-137.608	-38.105	-6.174	-140.263	-136.553	-133.610	-128.414	-20.120	-132.544	-8191	255	
36019.457	1	1	0	0	0.028059	0.14088	0.078243	0.19917	0.23706	0.033047	0.26205	0.18204	0.16036	0.23844	0.07534	0.23381	0.24209	0.07368	0.24296	0.37459	-1.7313	-2.0792	-2.4229	-2.0042	-2.3167	-2.3271	-2.1208	-2.4896	-2.2292	-2.1063	-2.3833	-2.1542	-2.2062	-2.2792	-1.8833	-2.325	-136.975	134.856	146.819	59.998	-98.505	-36.164	53.829	96.315	-121.880	-22.114	-37.040	136.779	148.546	-44.292	123.551	83.418	0.0028525	0.00025896	6.7182e-05	483.21	1.9719e-06	3.6112e-05	441.62	200.39	7.2215e-06	4.2286e-06	209.01	88.698	89.679	43.138	4.9348e-06	41.706	0.0080116	0.00046784	0.00012237	491.23	4.569e-06	7.8845e-05	451.27	205.23	6.2329e-06	5.1429e-06	213.35	97.066	91.978	44.855	5.3609e-06	43.214	16.015	-82.856	-63.928	-143.002	-35.258	-35.915	-145.115	-137.432	-66.923	-7.163	-140.250	-136.075	-133.764	-128.435	-33.250	-132.316	-8191	255	
36019.555	1	1	0	0	0.13804	0.19596	0.22824	0.085477	0.27043	0.2512	0.050588	0.08418	0.11984	0.26256	0.053028	0.19674	0.017119	0.10558	0.058049	0.10207	-1.6729	-2.0104	-2.55	-2.0062	-2.275	-2.3292	-1.9646	-2.3083	-2.3021	-2.0333	-2.4062	-2.2042	-2.3	-2.3042	-1.9292	-2.4562	-50.672	15.094	-83.836	-108.042	-65.655	-125.050	-127.510	135.694	47.153	-92.781	-155.157	116.703	187.017	-115.112	-62.290	-150.118	0.0018611	0.00050645	9.7818e-05	481.19	3.552e-06	6.1636e-05	446.73	199.21	7.3774e-06	3.8741e-06	210.77	89.254	89.777	43.625	6.6541e-06	42.436	0.0042919	0.00049565	0.00012847	491.39	4.5407e-06	0.00015401	453.93	204.79	5.4197e-06	5.2967e-06	214.23	94.809	92.221	45.304	6.0691e-06	43.89	31.973	-79.632	-69.846	-143.292	-12.453	-2.806	-145.352	-137.428	-24.240	-2.646	-140.527	-136.446	-133.835	-128.417	-16.177	-132.514	-8191	255	
36019.652	1	1	0	0	0.14337	0.14861	0.22297	0.12376	0.27226	0.17336	0.073385	0.099016	0.12132	0.19819	0.11423	0.05907	0.1601	0.1264	0.069635	0.086445	-1.8333	-1.9562	-2.3542	-2.0854	-2.1771	-2.2333	-1.9188	-2.3187	-2.275	-2.0812	-2.4167	-2	-2.0458	-2.4042	-2.0812	-2.2062	201.769	197.116	79.700	83.897	-10.506	10.288	-5.074	31.574	18.260	-149.728	117.181	-125.614	-96.746	-116.583	-62.530	150.931	0.0030856	0.00025378	0.00011208	484.71	5.2187e-06	2.9049e-05	449.2	199.4	6.6031e-06	2.8286e-06	209.45	89.475	89.875	43.761	4.6123e-06	42.772	0.0080049	0.00050422	0.00012612	492.55	4.6911e-06	3.1789e-05	464.5	204.97	5.7136e-06	5.7513e-06	215.45	98.474	92.351	45.46	5.9007e-06	44.088	30.915	-71.528	-72.733	-143.318	-34.126	-5.559	-145.138	-137.676	-17.799	15.061	-140.297	-135.831	-133.542	-128.352	-22.295	-132.413	-8191	255	
36019.723	1	1	0	0	0.32294	0.12039	0.12289	0.064212	0.248	0.27243	0.17678	0.12788	0.12214	0.12546	0.15927	0.080688	0.28028	0.27189	0.062285	0.39854	-1.7854	-2.0208	-2.2792	-2.2042	-2.2625	-2.4917	-2.2667	-2.4354	-2.1021	-1.9958	-2.5042	-2.1396	-2.1396	-2.5563	-2.1708	-2.2	166.422	14.989	-10.543	146.736	171.219	99.319	-101.912	165.308	-71.109	-96.258	114.496	143.262	155.580	172.004	-40.530	37.254	0.0019335	0.00035698	8.342e-05	479.66	6.086e-06	4.74e-06	445.73	197.9	6.9938e-06	4.4667e-06	205.17	87.255	88.867	43.219	5.5204e-06	41.766	0.0042023	0.00048265	0.00012876	489.16	4.6186e-06	5.0655e-06	482.6	202.68	5.2901e-06	5.357e-06	210.28	93.306	91.086	45.022	6.8396e-06	43.245	37.512	-68.772	-66.025	-143.112	-55.613	-14.032	-144.730	-137.624	-43.993	-29.215	-141.101	-136.299	-133.658	-128.383	-28.201	-132.591	-8191	255	
36019.844	1	1	0	0	0.26418	0.24166	0.19396	0.23191	0.084725	0.26365	0.1757	0.17214	0.068732	0.097678	0.17182	0.05499	0.15226	0.090112	0.012913	0.1065	-1.8542	-1.9958	-2.1021	-2.4646	-2.0854	-2.4771	-2.1042	-2.1833	-2.3292	-2.1063	-2.2938	-2.2562	-2.1604	-2.5167	-2.0021	-2.2292	-151.283	-103.072	29.301	41.273	5.183	-68.053	40.135	-94.643	-76.701	183.892	73.037	-8.230	17.800	-85.384	99.114	160.301	0.0011237	0.00040617	6.2545e-05	477.42	5.3268e-06	3.9288e-06	441.84	197	6.722e-06	3.6511e-06	204.26	87.515	89.127	43.693	5.2886e-06	42.075	0.0075925	0.00051418	0.00012888	486.18	4.8328e-06	5.1919e-06	463.77	202.49	5.1556e-06	5.9401e-06	210.52	96.846	91.61	45.331	5.9232e-06	43.641	56.934	-58.984	-79.466	-143.583	-39.811	4.915	-145.387	-137.378	-52.254	-31.007	-140.609	-136.248	-133.533	-128.452	-25.389	-132.623	-8191	255	
36019.938	1	1	0	0	0.26617	0.25178	0.4281	0.10731	0.12353	0.11756	0.33947	0.23772	0.34204	0.23674	0.23824	0.20199	0.041867	0.21347	0.043259	0.15116	-1.8292	-2.0729	-2.3417	-2.4479	-2.0687	-2.5042	-2.1333	-2.1333	-2.4354	-2.0021	-2.3396	-2.2479	-1.9833	-2.3604	-2.1708	-2.2438	-90.620	51.407	-50.393	-133.211	-18.430	-95.686	153.594	-96.568	1.409	127.261	194.252	99.683	7.089	188.712	38.868	67.512	0.0011496	0.0032621	0.00012764	477.53	3.609e-06	4.8303e-06	447.39	198.17	5.3246e-06	1.7835e-06	208.96	88.414	89.145	43.847	5.7625e-06	42.527	0.0017896	0.0040822	0.00012876	487.48	5.1628e-06	5.2896e-06	483.75	203.15	4.8708e-06	5.9333e-06	212.5	94.663	91.813	45.594	6.748e-06	44.027	61.968	178.372	-61.271	-143.514	-42.341	-17.360	-144.506	-137.453	-20.306	-33.536	-140.449	-136.495	-133.482	-128.132	-5.948	-132.435	-8191	255	
36020.035	1	1	0	0	0.2951	0.22329	0.016628	0.18436	0.10258	0.099541	0.052811	0.18103	0.084054	0.26662	0.19842	0.086914	0.5026	0.18533	0.057562	0.15011	-1.95	-2.1271	-2.1271	-2.2646	-2.0125	-2.2479	-2.2208	-2.0167	-2.4229	-2.1729	-2.1729	-2.2	-2.0167	-2.3812	-2.1854	-2.1	81.850	83.564	155.467	29.706	-29.093	-49.189	122.272	-151.471	177.064	-27.107	-152.504	13.921	-137.362	22.263	42.719	93.324	0.0011472	0.0058678	0.00011788	480.56	4.1285e-06	2.5122e-06	447.93	198.71	6.1923e-06	3.7383e-06	209.76	89.511	89.479	43.952	4.5122e-06	42.896	0.00055292	0.014611	0.00013527	489.55	5.0258e-06	5.2037e-06	470.2	203.8	4.7114e-06	6.9379e-06	213.77	97.905	92.152	45.698	5.6986e-06	44.442	56.278	183.990	-71.381	-143.396	-60.059	-12.012	-144.833	-137.416	-22.001	-6.907	-140.484	-136.134	-133.740	-128.425	-9.851	-132.393	-8191	255	
36020.133	1	1	0	0	0.2672	0.19214	0.12482	0.42621	0.11789	0.34652	0.2251	0.17938	0.17766	0.11897	0.26265	0.12718	0.048624	0.14939	0.31154	0.18489	-1.9958	-1.9729	-2.2583	-2.3083	-2.1021	-2.3208	-2.2396	-1.9833	-2.3479	-2.1229	-2.025	-2.2917	-2.0146	-2.2917	-2.3104	-2.075	127.116	105.244	-65.570	174.170	-30.931	-93.568	146.639	155.966	11.772	166.666	113.186	162.198	152.167	156.145	-10.696	151.738	0.0011896	0.0034294	0.00011847	480.77	3.4762e-06	3.1205e-06	451.72	199.74	5.2582e-06	1.8471e-06	207.82	89.356	88.49	43.612	3.7527e-06	42.223	0.00056151	0.0072709	0.00013397	490.27	5.3187e-06	5.1188e-06	487.88	203.69	4.8286e-06	6.0316e-06	212.64	92.152	93.645	45.278	6.45e-06	43.612	54.010	188.753	-42.067	-143.349	-25.017	-14.906	-144.322	-137.330	-38.529	-41.036	-140.453	-136.659	-133.623	-128.442	-23.429	-132.439	-8191	255	
36020.254	1	1	0	0	0.12887	0.052185	0.054364	0.22083	0.21782	0.19332	0.27022	0.15699	0.12489	0.12706	0.12734	0.11172	0.23392	0.03223	0.16509	0.12803	-1.8917	-1.9937	-2.0417	-2.5583	-1.9729	-2.2687	-2.3104	-2.0896	-2.4021	-2.2417	-2.0625	-2.325	-1.9583	-2.3375	-2.4354	-2.1021	85.730	-47.172	38.718	167.879	2.491	-124.071	-14.722	-57.183	-56.645	-18.382	-115.176	87.740	145.458	-144.048	-88.523	184.976	0.0011365	0.0059009	6.1536e-05	478.75	5.6763e-06	3.379e-06	442.18	199.2	5.1052e-06	3.8339e-06	207.42	89.385	88.134	43.764	3.6703e-06	42.392	0.0005509	0.013992	0.00013387	486.65	5.4124e-06	5.259e-06	463.8	203.28	4.8666e-06	6.6829e-06	212.2	91.428	99.354	45.522	5.4697e-06	43.903	56.496	201.432	-80.642	-143.343	-44.235	-1.911	-144.733	-137.641	-19.004	-23.583	-140.626	-136.926	-133.194	-128.344	-35.752	-132.736	-8191	255	
36020.324	1	1	0	0	0.0080986	0.054742	0.16088	0.208	0.12008	0.12496	0.1862	0.096174	0.31711	0.12357	0.15392	0.18851	0.13227	0.32137	0.10897	0.089046	-1.8729	-2.1146	-2.1271	-2.3583	-2.1396	-2.1167	-2.3083	-1.8042	-2.3187	-2.3833	-2.1271	-2.4104	-2.25	-2.3083	-2.4729	-2.1271	-41.649	-96.453	135.454	-130.167	35.193	123.272	146.225	48.595	-74.387	140.040	8.288	87.731	173.742	-143.245	65.029	-146.769	0.0012001	0.0028399	9.5064e-05	481.24	2.9912e-06	2.3902e-06	445.21	199.49	7.9575e-06	2.2408e-06	207.52	90.187	89.499	44.121	4.2361e-06	42.708	0.00055468	0.0071226	0.00012991	489.1	6.1534e-06	5.2452e-06	479.11	203.98	4.827e-06	5.7162e-06	212.89	92.027	95.732	45.657	5.766e-06	44.222	54.340	-144.110	-57.029	-143.324	-44.140	-11.544	-144.369	-137.619	-30.835	-22.167	-140.188	-136.738	-133.641	-128.373	-31.920	-132.684	-8191	255	
36020.445	1	1	0	0	0.31109	0.046701	0.17259	0.10564	0.35586	0.03963	0.38748	0.10356	0.20558	0.29351	0.13677	0.16317	0.41289	0.16213	0.094504	0.23584	-1.7729	-2.0729	-2.0521	-2.3083	-2.1104	-2.1792	-2.5875	-2.1021	-2.1958	-2.3542	-1.9708	-2.4542	-2.2167	-2.2375	-2.5875	-2.1688	96.244	-40.696	-147.777	-133.382	191.711	99.856	-146.496	168.086	-63.877	-140.540	-83.232	126.457	113.842	137.239	-62.483	3.520	0.0011472	0.0060521	0.00013606	483.97	3.2361e-06	4.979e-06	447.03	198.14	5.5779e-06	5.769e-06	208.39	90.797	88.83	44.412	3.4675e-06	43.02	0.0005594	0.014263	0.00014093	489.88	5.3022e-06	5.2689e-06	457.55	207.68	5.0788e-06	6.5515e-06	213.72	92.735	99.871	46.013	5.0699e-06	44.521	54.488	-149.669	-49.402	-143.260	-23.221	-24.822	-144.765	-137.481	-48.104	-18.835	-140.183	-136.802	-133.431	-128.344	-34.053	-132.703	-8191	255	
36020.539	1	1	0	0	0.15993	0.114	0.23573	0.090802	0.2418	0.16932	0.08656	0.25779	0.17579	0.23013	0.18295	0.15505	0.28949	0.18775	0.12704	0.22064	-1.7708	-2.2146	-1.7792	-2.4688	-2.15	-1.9229	-2.2938	-2.0938	-2.375	-2.3729	-2.0563	-2.5375	-2.3583	-2.0417	-2.5333	-2.0271	115.718	58.245	-22.137	77.359	182.135	-83.636	-108.122	71.102	-137.884	-63.982	138.338	-144.229	174.690	137.168	-78.648	91.453	0.0011677	0.0032266	0.00012042	481.45	4.1825e-06	2.1428e-06	449.62	199.94	5.4773e-06	3.7423e-06	209.98	90.789	89.373	44.205	3.4879e-06	42.692	0.00057581	0.007118	0.0001416	489.06	5.9897e-06	5.3992e-06	456.46	216.19	4.7717e-06	5.4271e-06	214.65	92.777	95.861	45.864	5.2391e-06	44.254	53.699	-139.473	-53.452	-143.365	-64.667	-4.088	-144.927	-136.865	-33.839	-2.859	-140.187	-136.838	-133.447	-128.186	-38.722	-132.471	-8191	255	
36020.637	1	1	0	0	0.041787	0.14184	0.13719	0.072091	0.17646	0.18906	0.10346	0.24178	0.24065	0.1295	0.15946	0.2169	0.050668	0.10728	0.12914	0.14247	-1.9354	-2.475	-1.8917	-2.3271	-2.2313	-2.1833	-2.4833	-2.2562	-2.1125	-2.4292	-1.9104	-2.4583	-2.3771	-1.95	-2.2333	-2.0146	175.867	-29.454	-18.426	-55.058	7.720	49.370	70.000	75.607	-8.369	9.758	-70.519	31.723	38.378	192.908	-5.461	158.372	0.0011271	0.0027235	0.0012109	477.18	3.9242e-06	3.6634e-06	442.57	197.59	6.056e-06	4.6782e-06	207.36	89.485	88.209	43.937	3.545e-06	42.326	0.00055527	0.010852	0.00028765	486.77	4.9352e-06	5.4328e-06	449.64	208.14	4.9451e-06	5.6413e-06	211.87	91.408	98.82	45.712	5.4758e-06	43.943	57.374	-93.152	195.846	-143.121	-19.922	7.770	-144.867	-137.072	-26.688	-10.333	-140.302	-136.776	-133.673	-128.659	-43.109	-132.697	-8191	255	
36020.730	1	1	0	0	0.16175	0.29965	0.059905	0.19743	0.22627	0.12431	0.04737	0.14408	0.24841	0.35807	0.055074	0.071497	0.093111	0.18743	0.2382	0.1632	-1.75	-2.4771	-1.9104	-2.4042	-2.4667	-2.2104	-2.3917	-2.1937	-2.1375	-2.5125	-2.1688	-2.3063	-2.2979	-2.0083	-2.4104	-2.1958	184.144	-7.455	188.843	-153.602	188.642	-95.045	-121.650	64.554	11.636	-87.076	85.267	197.745	115.157	120.769	132.428	84.446	0.0012156	0.0018208	0.00064314	479.12	3.7215e-06	2.8116e-06	444.73	198.49	4.7011e-06	4.2765e-06	207.26	89.901	89.077	44.278	5.9598e-07	42.86	0.00056038	0.0016532	0.0013043	487.88	5.5557e-06	5.7122e-06	451.86	214.78	4.8361e-06	5.0815e-06	213.06	92.013	95.571	45.991	5.3998e-06	44.428	54.717	-78.878	196.860	-143.448	-17.965	-34.761	-145.171	-136.793	-13.447	-10.830	-140.439	-136.718	-133.620	-128.457	-56.205	-132.638	-8191	255	
36020.852	1	1	0	0	0.15439	0.22764	0.089273	0.09647	0.082663	0.19612	0.064237	0.30664	0.13708	0.24822	0.069203	0.30123	0.10261	0.23202	0.085916	0.31122	-1.4625	-2.2521	-2.1625	-2.2167	-2.4104	-1.9917	-2.3875	-2.2562	-2.0333	-2.4625	-2.1813	-2.1417	-2.275	-1.8438	-2.1146	-2.2208	134.052	108.661	-101.250	-114.014	110.921	81.392	138.087	-127.430	199.959	-39.983	53.641	-84.986	116.272	-79.176	165.255	57.040	0.0011743	0.00036128	0.0015707	479.55	3.8477e-06	3.6089e-06	443.17	199.22	7.1543e-06	4.8613e-06	208.13	90.058	89.913	44.305	4.7916e-06	43.081	0.00057153	0.00045363	0.0038002	487.84	5.1344e-06	5.6866e-06	452.31	209.42	4.8666e-06	5.3668e-06	213.29	92.259	98.079	46.273	5.3471e-06	44.628	56.448	-60.604	-122.806	-143.175	-63.425	3.102	-144.864	-137.218	-41.923	-18.197	-140.192	-136.941	-133.029	-128.629	-33.211	-132.616	-8191	255	
36020.949	1	1	0	0	0.32781	0.20262	0.12612	0.23487	0.14787	0.18388	0.091754	0.2485	0.067843	0.090029	0.081675	0.2184	0.085065	0.24318	0.13587	0.088688	-1.6167	-2.2438	-2.1396	-2.2167	-2.4625	-1.9813	-2.3688	-2.2042	-1.9771	-2.4542	-2.1542	-2.1646	-2.3688	-2.1792	-2.175	-2.3917	70.374	-134.218	101.481	159.077	58.694	112.495	-30.964	195.022	-48.022	110.468	205.028	84.399	-52.612	196.260	98.327	155.101	0.001187	0.00047677	0.0008788	480.88	5.7605e-06	2.2317e-06	449.1	198.72	6.4227e-06	2.7982e-06	209.55	90.24	89.684	44.669	4.8162e-06	43.227	0.00056107	0.00050335	0.0020106	489.47	5.0746e-06	6.6217e-06	457.08	216.83	5.2447e-06	5.2509e-06	214.47	92.72	93.066	46.961	5.3471e-06	44.959	53.711	-63.082	-112.397	-143.211	-39.074	-11.210	-145.176	-136.588	-16.957	-8.307	-140.253	-136.475	-133.336	-128.711	-29.492	-132.505	-8191	255	
36021.020	1	1	0	0	0.078863	0.029432	0.061443	0.19892	0.21762	0.1079	0.060292	0.10669	0.13908	0.18697	0.26472	0.28303	0.16984	0.2087	0.099583	0.065541	-1.3479	-2.3375	-2.0229	-2.1667	-2.3312	-2.0438	-2.3083	-2.3375	-1.9292	-2.375	-2.2042	-1.9729	-2.4375	-1.9229	-2.3917	-2.4729	102.346	69.673	69.239	125.274	167.464	-138.943	6.716	174.351	201.031	20.310	17.733	-147.880	72.414	81.260	174.834	193.908	0.0011434	0.00045969	0.0018266	482.29	3.6639e-06	3.8746e-06	447.38	197.48	5.2203e-06	4.7885e-06	207.65	89.295	89.721	43.774	2.9655e-06	42.646	0.00058981	0.00048586	0.0040768	490.92	4.6052e-06	6.3945e-06	454.93	209.87	5.2389e-06	5.4573e-06	212.49	91.458	92.028	47.763	5.2599e-06	44.079	54.412	-66.887	-111.945	-143.111	-39.790	-52.368	-144.864	-137.135	-18.277	2.504	-140.619	-136.618	-133.609	-128.484	-46.219	-132.808	-8191	255	
36021.141	1	1	0	0	0.14956	0.27415	0.17809	0.047957	0.18303	0.1864	0.37989	0.11358	0.21053	0.17178	0.21065	0.071067	0.27708	0.23871	0.2611	0.17142	-1.5646	-2.4313	-2.0271	-2.0958	-2.3187	-2.2062	-2.3021	-2.3021	-1.9562	-2.2125	-2.3917	-1.975	-2.3229	-2.0958	-2.0812	-2.4396	96.359	-129.789	188.502	-124.752	-87.417	-6.717	109.285	-140.523	-120.436	-68.701	129.930	108.935	-44.397	186.545	-77.819	134.276	0.0010813	0.00041081	0.00085429	479.42	5.5863e-06	2.5314e-06	443.99	197.89	5.6593e-05	3.3892e-06	207.05	89.713	90.315	44.249	3.9402e-06	43.051	0.00056746	0.00050665	0.0021225	488.21	4.6714e-06	7.381e-06	451.22	212.51	2.3508e-05	5.0153e-06	211.94	91.887	92.262	47.07	5.4171e-06	44.424	53.903	-52.113	-110.901	-143.404	-42.740	-24.019	-145.003	-136.691	158.137	-0.110	-140.103	-136.865	-133.850	-128.543	-27.997	-132.474	-8191	255	
36021.234	1	1	0	0	0.21076	0.14331	0.12441	0.077177	0.17072	0.095725	0.15019	0.18221	0.18707	0.17919	0.049147	0.28332	0.09963	0.18977	0.2268	0.021505	-1.5458	-2.3625	-2.2479	-1.9937	-2.3917	-2.0312	-2.2104	-2.1125	-2.0875	-2.2979	-2.3521	-1.9188	-2.4167	-2.2188	-2.0396	-2.4375	175.753	-77.014	-150.035	194.734	129.018	-124.073	89.523	117.596	40.879	-34.933	195.463	80.828	-145.416	56.622	121.970	202.105	0.001222	0.00041997	0.0019213	481.49	4.4743e-06	2.4913e-06	446.03	197.66	2.6765e-05	3.8867e-06	208.04	90.327	90.497	44.321	6.6747e-06	43.316	0.00064998	0.00048291	0.0041386	489.3	4.6352e-06	6.2277e-06	453.81	203.87	5.585e-05	5.3716e-06	213.04	92.417	92.549	48.188	5.4231e-06	44.741	52.718	-84.200	-93.027	-143.189	-33.465	-31.882	-144.859	-137.316	149.225	-0.489	-140.484	-136.881	-133.419	-128.677	-45.215	-132.760	-8191	255	
36021.332	1	1	0	0	0.15351	0.12273	0.21225	0.24733	0.10781	0.23272	0.093596	0.29996	0.1275	0.1217	0.13984	0.1935	0.17562	0.22197	0.26807	0.27211	-1.6104	-2.1479	-2.3208	-1.9854	-2.4125	-2.0438	-2.0521	-2.5375	-2.1792	-2.2021	-2.2729	-1.9375	-2.3708	-2.0792	-1.9979	-2.4708	-56.700	40.422	104.215	117.618	116.471	15.229	94.103	-115.172	45.859	40.805	105.541	43.937	190.497	-115.846	176.752	86.449	0.0012275	0.00044384	0.0011173	480.03	3.9505e-06	1.6865e-06	449.45	199.17	0.00010501	3.2796e-06	210.91	91.078	91.227	44.866	4.3927e-06	43.972	0.00061781	0.00047165	0.0020994	489.32	4.6241e-06	6.9258e-06	457.1	205	0.0001447	5.2743e-06	216.48	93.738	93.442	47.769	5.3316e-06	45.459	52.936	-86.490	-90.238	-143.371	-58.284	-65.147	-145.072	-137.142	87.654	-10.879	-140.636	-136.568	-133.658	-128.524	-50.809	-132.580	-8191	255	
36021.426	1	1	0	0	0.086032	0.096398	0.090097	0.2698	0.078465	0.26138	0.25818	0.26287	0.10906	0.15999	0.047805	0.12983	0.047116	0.02138	0.25545	0.14594	-1.5083	-2.15	-2.3021	-2.0125	-2.1917	-2.3708	-2.1083	-2.4	-2.1208	-2.2625	-2.1896	-1.9146	-2.3708	-2.2687	-2.1125	-2.5687	94.756	57.036	85.046	192.517	128.172	139.509	-89.871	12.759	29.609	41.798	45.162	-41.976	-119.689	185.644	-17.713	158.726	0.0011176	0.00046538	0.0017907	482.52	1.8047e-06	4.4777e-06	451.91	200.5	5.532e-05	3.9887e-06	212.46	91.937	91.129	44.746	3.9027e-06	43.785	0.00066226	0.00049521	0.0028876	496.4	4.6438e-06	5.8426e-06	460.17	205.69	7.5171e-05	5.0776e-06	217.39	94.097	93.477	48.635	5.6831e-06	45.302	55.033	-74.791	-61.590	-143.575	-33.604	-0.662	-144.956	-137.720	88.680	-2.900	-140.649	-136.633	-133.573	-128.752	-31.525	-132.885	-8191	255	
36021.547	1	1	0	0	0.35098	0.13158	0.13177	0.079486	0.22491	0.18057	0.19648	0.31601	0.11904	0.14446	0.096191	0.12089	0.083595	0.14919	0.25013	0.04985	-1.8125	-2.35	-2.3604	-2.0229	-2.1542	-2.3729	-1.9875	-2.4458	-2.1458	-2.175	-2.55	-2.125	-2.2646	-2.3875	-2.1	-2.4104	-81.063	26.755	-14.423	143.176	-48.534	-66.074	186.667	164.517	60.224	28.609	41.249	192.351	108.369	89.934	92.997	-65.858	0.0011567	0.0002702	0.00088997	484.33	5.3599e-06	3.0832e-06	449.02	201.21	0.0001314	2.7085e-06	211.92	92.221	91.287	44.768	5.7555e-06	43.526	0.00062159	0.00046715	0.00022711	503.52	4.699e-06	6.5042e-06	457.89	206.23	0.00015019	5.2022e-06	217.07	94.059	93.972	47.693	5.5501e-06	45.269	54.987	-68.126	-60.521	-143.467	-34.793	-31.483	-145.026	-137.435	99.312	1.120	-140.529	-136.755	-133.611	-128.491	-30.114	-132.474	-8191	255	
36021.617	1	1	0	0	0.066723	0.069171	0.18976	0.072628	0.088948	0.12633	0.09843	0.13099	0.1122	0.063477	0.18678	0.16017	0.40755	0.07655	0.10344	0.14333	-1.8125	-2.0646	-2.2958	-2.1521	-2.1417	-2.3708	-2.2667	-2.4188	-2.2146	-2.0604	-2.6396	-2.3438	-2.2729	-2.4542	-2.0021	-2.3333	-136.750	145.915	146.176	173.747	-151.906	39.701	138.007	6.434	-16.918	196.747	21.549	-78.558	7.741	178.737	10.032	99.678	0.0012232	0.00036624	9.7594e-05	489.48	4.2705e-06	4.5406e-06	451.75	201.42	5.0029e-05	4.528e-06	211.68	91.703	90.875	44.626	9.0111e-05	43.868	0.00067096	0.0004895	0.00013587	524.23	4.5667e-06	6.0559e-06	459.66	206.14	7.7734e-05	5.3045e-06	216.56	93.991	93.406	47.724	3.9695e-05	45.347	54.430	-56.843	-57.719	-143.115	-29.851	11.569	-145.260	-137.456	94.337	-1.318	-140.602	-136.655	-133.649	-128.375	-134.994	-132.688	-8191	255	
36021.715	1	1	0	0	0.33868	0.10706	0.27022	0.18113	0.076879	0.1985	0.21798	0.35828	0.16865	0.17653	0.11721	0.073989	0.13148	0.33169	0.23234	0.14059	-1.7208	-2.0875	-2.4792	-2.2687	-2.325	-2.4667	-2.0875	-2.4083	-2.2271	-2.2313	-2.2188	-2.1021	-2.1167	-2.6375	-2.2188	-2.2	70.484	146.883	-38.441	174.461	116.363	187.189	203.630	136.076	-28.211	-33.751	180.305	126.261	-88.602	-91.189	-34.151	-0.875	0.0012319	0.00029578	0.00013025	484.25	4.2128e-06	2.3343e-06	451.81	201.17	0.00011497	3.6515e-06	212.3	92.556	91.671	44.854	4.7315e-05	43.488	0.00059786	0.00051964	0.00013238	506.73	4.6289e-06	6.0154e-06	460.31	206.49	0.00015286	5.7338e-06	217.78	94.494	93.925	46.557	7.0817e-05	45.13	52.892	-63.233	-62.100	-143.163	-43.746	-10.747	-145.228	-137.638	115.825	10.336	-140.630	-136.548	-133.685	-128.399	-127.776	-132.615	-8191	255	
36021.812	1	1	0	0	0.17267	0.051398	0.15927	0.15349	0.12974	0.27478	0.14766	0.15873	0.086145	0.17658	0.3601	0.13255	0.16827	0.12777	0.041066	0.052888	-2.0146	-2.0583	-2.2625	-2.1333	-1.9417	-2.5563	-2.0792	-2.2896	-2.2313	-2.0625	-2.2833	-2.1542	-1.8792	-2.4625	-2.0229	-2.3396	195.675	-36.562	118.740	156.178	-15.191	42.790	151.495	166.107	-43.588	-34.651	-134.418	-96.428	-152.270	52.352	153.378	40.319	0.0011839	0.00028067	0.00014013	487.29	4.5512e-06	3.8169e-06	449.13	201.69	6.1619e-05	4.8557e-06	211.89	91.48	91.549	44.447	8.3991e-05	43.203	0.00064335	0.00052562	0.0001295	524.95	4.8021e-06	5.2837e-06	458.84	206.52	7.9365e-05	5.6773e-06	217.49	93.765	93.802	46.16	0.00016179	44.821	53.337	-71.197	-61.735	-143.141	-44.884	-34.305	-145.053	-137.744	108.123	-7.034	-140.628	-136.761	-133.690	-128.320	-119.882	-132.531	-8191	255	
36021.934	1	1	0	0	0.066623	0.11328	0.027296	0.16192	0.18755	0.075038	0.35827	0.16633	0.21624	0.20593	0.20098	0.10265	0.05174	0.23258	0.13195	0.26051	-1.7833	-1.9354	-2.3167	-2.1521	-2.0604	-2.2417	-2.2438	-2.0542	-2.3521	-1.8521	-2.4083	-2.2438	-2.1063	-2.4896	-2.1271	-2.2771	71.443	123.222	-130.733	-144.051	75.176	-120.360	123.826	-50.748	181.123	-21.878	37.841	-80.818	177.009	95.823	178.936	57.581	0.0011615	0.00027899	7.9082e-05	484.84	4.1422e-06	3.502e-06	454.03	202.87	0.00010449	6.0456e-05	213.19	91.66	91.31	44.194	4.91e-05	43.211	0.00059457	0.0005186	0.0001241	509.9	4.6367e-06	5.3518e-06	462.88	207.77	9.2491e-05	5.161e-05	217.88	93.715	93.584	45.909	8.3426e-05	44.701	56.189	-87.027	-38.600	-143.297	-25.725	-17.943	-145.175	-137.302	70.345	183.252	-140.208	-136.590	-133.687	-128.382	-113.761	-132.246	-8191	255	
36022.027	1	1	0	0	0.14068	0.099484	0.22788	0.13796	0.16242	0.33816	0.17465	0.14146	0.18053	0.26953	0.19859	0.15106	0.30318	0.17456	0.17617	0.24507	-1.9292	-2.0062	-2.3167	-2.3229	-2.1042	-2.45	-2.1562	-2.1292	-2.5687	-2.0271	-2.3604	-2.4313	-1.9438	-2.4583	-2.2208	-2.0458	-71.987	-120.001	75.951	148.814	69.739	56.263	-155.181	198.964	-131.841	56.081	-0.146	139.939	-65.992	-96.784	-148.680	148.859	0.0011747	0.00027516	8.2224e-05	490.66	3.7152e-06	4.1534e-06	456.02	204.12	8.5708e-06	3.4299e-05	216.41	92.426	91.672	44.103	9.8807e-05	43.167	0.00059153	0.00059994	0.00012496	529.47	5.1281e-06	5.1514e-06	466.75	209.42	4.9649e-06	8.3287e-05	221.35	94.595	94.291	45.712	0.0001619	44.691	55.541	-69.096	-75.616	-142.874	-19.357	-5.979	-145.002	-137.448	-41.490	182.542	-140.597	-136.919	-133.543	-128.094	-103.850	-132.194	-8191	255	
36022.125	1	1	0	0	0.02992	0.17178	0.12711	0.13757	0.21478	0.11279	0.14387	0.13968	0.21823	0.14843	0.24887	0.26378	0.095701	0.12014	0.24984	0.20735	-1.8687	-2.2313	-2.1562	-2.3958	-2.1937	-2.5542	-2.1958	-2.0417	-2.625	-2.1958	-2.3208	-2.3167	-1.9917	-2.5646	-2.35	-2.2438	28.672	96.138	-79.122	-120.739	113.027	-52.173	124.744	159.244	-83.000	-143.958	-108.634	-128.508	19.973	198.790	171.134	59.260	0.0011589	0.00034547	9.815e-05	494.45	3.7724e-06	4.4861e-06	462.17	205.47	8.3362e-06	6.346e-05	216.83	92.042	91.359	43.667	4.7272e-05	42.753	0.00055714	0.00056044	0.00012537	517.19	4.9258e-06	4.9529e-06	471.01	210.65	4.7089e-06	0.0001855	221.91	94.536	94.045	45.316	8.4754e-05	44.398	52.922	-69.812	-62.824	-142.991	-31.245	-10.957	-145.168	-137.615	-29.802	138.977	-140.168	-136.652	-133.589	-128.206	-95.403	-132.283	-8191	255	
36022.219	1	1	0	0	0.24386	0.29015	0.10934	0.18889	0.27866	0.095671	0.10978	0.16513	0.20825	0.24564	0.066974	0.19139	0.18391	0.29992	0.078901	0.056333	-1.9417	-2.0812	-2.1875	-2.3667	-2.2	-2.1875	-2.2854	-2.075	-2.4458	-2.1729	-2.125	-2.4854	-2.2292	-2.45	-2.0833	-2.0833	108.455	-32.344	-77.353	110.068	-41.315	-114.925	98.256	78.001	22.688	-6.706	28.095	-100.017	171.840	-21.045	121.080	-118.723	0.0011696	0.00022201	7.082e-05	491.85	6.0863e-06	5.012e-06	455.83	203.3	6.8865e-06	3.3682e-05	210.99	89.026	89.799	42.175	8.9771e-05	40.571	0.00054329	0.00063632	0.00012974	517.1	4.9739e-05	4.8433e-06	464.4	208.94	4.6214e-06	9.577e-05	215.84	91.002	92.378	44.076	0.00017031	42.13	53.115	-60.300	-75.005	-142.928	204.401	-3.505	-145.123	-137.367	-29.236	142.491	-140.263	-136.613	-133.560	-128.088	-92.122	-132.262	-8191	255	
36022.316	1	1	0	0	0.028064	0.0782	0.076111	0.17997	0.10951	0.08112	0.11808	0.02978	0.10758	0.27729	0.1022	0.061261	0.099858	0.14809	0.30883	0.031888	-1.8958	-2.1521	-1.9875	-2.2604	-2.1188	-2.2625	-2.4625	-1.9396	-2.4292	-2.2708	-2.1646	-2.4958	-2.0792	-2.3708	-2.2583	-2.0833	117.423	-40.176	0.610	193.096	23.241	171.906	104.083	-100.908	72.834	72.347	-0.084	35.307	123.374	-116.550	69.270	-10.361	0.0010896	0.00022058	0.00010008	484.08	1.6922e-06	3.8629e-06	444.86	202.17	7.2481e-06	7.5114e-05	210.31	88.416	90.185	42.67	4.9519e-05	41.083	0.00053012	0.00052103	0.00012314	493.86	7.3396e-05	4.785e-06	454	208.24	4.5166e-06	0.00019267	213.91	90.316	92.629	44.285	8.7901e-05	42.331	54.475	-62.987	-62.120	-143.532	129.408	-18.567	-145.485	-137.599	-32.748	151.302	-140.838	-136.950	-133.644	-127.951	-92.896	-132.257	-8191	255	
36022.414	1	1	0	0	0.077988	0.16975	0.11161	0.29228	0.10101	0.20043	0.22503	0.26701	0.1125	0.011437	0.14101	0.21635	0.020442	0.055585	0.25061	0.10726	-2.0187	-2.2208	-2.1312	-2.5021	-2.2917	-2.3667	-2.5646	-1.925	-2.3542	-2.2333	-2.1271	-2.6958	-2.0583	-2.15	-2.3917	-2.1458	-45.978	38.544	-61.309	144.161	-44.303	119.459	119.590	-45.593	-112.529	145.476	152.835	154.057	-90.664	-82.130	175.660	-110.899	0.0011265	0.00034644	6.3313e-05	487.38	0.00011518	3.6481e-06	449.78	204.47	6.2034e-06	3.8075e-05	212.34	89.571	90.972	42.806	5.607e-05	41.521	0.00051288	0.00065399	0.00012674	496.1	0.00015952	4.9223e-06	456.61	209.5	4.6214e-06	9.9896e-05	216.79	91.626	93.335	44.548	9.0572e-05	43.93	55.980	-78.950	-68.865	-143.157	11.941	-4.999	-144.913	-137.478	-41.942	155.825	-140.383	-136.449	-133.553	-128.058	-26.968	-132.692	-8191	255	
36022.531	1	1	0	0	0.2935	0.1599	0.093741	0.21315	0.44519	0.19977	0.068202	0.13208	0.33417	0.13384	0.31905	0.083384	0.057209	0.19788	0.23298	0.18254	-1.7542	-2.1229	-2.0417	-2.3479	-2.0917	-2.2042	-2.5229	-1.9708	-2.4	-2.4125	-2.1896	-2.5021	-2	-2.2542	-2.3771	-2.0396	132.833	-80.215	-116.628	177.559	-136.262	-153.704	69.859	1.290	-107.450	-65.292	152.061	-151.205	99.122	187.355	-138.103	155.971	0.0011115	0.00035496	9.4185e-05	486.85	5.6614e-05	3.8597e-06	451.98	205.09	5.2514e-06	8.0054e-05	213.91	90.519	91.596	43.369	3.6865e-06	42.213	0.00051647	0.00052059	0.00013392	497.47	8.1886e-05	5.025e-06	461.88	210.89	4.5546e-06	0.00020135	219.52	92.836	93.968	44.976	4.7494e-06	45.092	53.283	-87.368	-82.445	-143.442	20.873	-16.383	-145.116	-137.492	-19.737	166.410	-140.853	-136.557	-133.757	-128.273	-1.954	-132.637	-8191	255	
36022.629	1	1	0	0	0.38408	0.21924	0.14038	0.1402	0.24242	0.093649	0.16805	0.2359	0.25665	0.28826	0.12805	0.060812	0.046084	0.083108	0.14344	0.16348	-1.8417	-2.2729	-1.9458	-2.3812	-2.2687	-2.1937	-2.4104	-2.0062	-2.4375	-2.2854	-2.1646	-2.3396	-2.2521	-2.1688	-2.4479	-2.2021	-86.995	-48.115	134.363	103.541	-59.095	-109.053	-150.412	134.600	63.105	132.541	112.518	88.630	-14.344	85.497	-152.671	-125.051	0.0011766	0.00019086	0.00011406	488.1	0.00011166	4.7683e-06	454.35	205.27	7.3926e-06	4.5553e-05	215.65	91.065	91.839	43.292	4.2268e-06	42.552	0.00052904	0.00058616	0.0001448	498.67	0.00016513	5.0714e-06	464.25	210.92	4.5356e-06	0.00010448	220.77	93.274	93.993	44.928	5.1536e-06	46.74	54.990	-86.770	-86.522	-143.105	29.019	10.921	-145.176	-137.399	-36.769	163.903	-140.425	-136.757	-133.461	-127.995	-41.843	-132.810	-8191	255	
36022.723	1	1	0	0	0.20344	0.081198	0.040891	0.27057	0.15164	0.2206	0.15725	0.27096	0.40401	0.047621	0.26809	0.12262	0.23712	0.30544	0.31324	0.10785	-1.7021	-2.2292	-1.7875	-2.3375	-2.3167	-2.025	-2.4958	-2.1208	-2.2083	-2.2896	-1.9854	-2.2625	-2.3396	-2.0771	-2.2812	-2.2083	85.349	2.881	-75.278	169.001	24.566	-45.808	66.824	149.325	72.703	-23.411	-74.241	47.618	194.094	190.212	10.435	-84.134	0.0011699	0.00029921	8.4237e-05	484.11	5.5107e-05	4.0971e-06	441.75	203.5	8.8617e-06	3.8455e-05	206.15	87.959	89.858	42.895	4.3155e-06	41.126	0.00053626	0.00052085	0.00013306	493.04	8.6437e-05	5.4703e-06	451.05	208.65	4.7048e-06	9.8333e-05	225.4	90.398	92.8	44.532	4.9144e-06	43.947	54.499	-66.901	-90.433	-143.366	27.037	-0.401	-145.146	-137.390	-22.780	90.093	-141.404	-137.007	-133.722	-128.026	-27.317	-132.165	-8191	255	
36022.844	1	1	0	0	0.43619	0.1443	0.21489	0.22531	0.028967	0.21721	0.04087	0.15831	0.21521	0.089078	0.094819	0.016751	0.1576	0.30607	0.096741	0.2568	-1.6396	-2.3896	-2.075	-2.3729	-2.3563	-2.1667	-2.4958	-2.075	-2.0083	-2.3646	-1.975	-2.3271	-2.3417	-2.1646	-2.3896	-2.1688	-77.008	-142.041	-45.012	104.358	-83.464	-102.354	93.724	27.978	-9.991	-116.914	124.611	-23.820	51.513	73.765	-88.457	156.326	0.0011551	0.00035042	8.6407e-05	481.2	0.00012309	2.599e-06	444.32	203.33	5.1499e-06	4.5364e-06	208.76	89.013	90.576	42.943	4.0382e-06	41.67	0.00052855	0.00047044	0.00016468	491.77	0.00017007	5.5868e-06	451.84	208.96	4.6058e-06	4.9073e-06	230.06	91.026	93.344	44.625	5.0016e-06	46.074	54.700	-56.716	-95.528	-143.404	40.222	-9.718	-145.201	-137.572	-17.203	-5.722	-140.946	-136.411	-133.660	-127.880	-24.434	-132.637	-8191	255	
36022.914	1	1	0	0	0.13359	0.063832	0.051925	0.12548	0.098922	0.090115	0.066547	0.19681	0.11786	0.10836	0.07457	0.22921	0.26629	0.09591	0.18937	0.049275	-1.5875	-2.2729	-2.2083	-2.4188	-2.3875	-1.6688	-2.3333	-2.1479	-2.0563	-2.4854	-2.0479	-2.3042	-2.2417	-2.0375	-2.4917	-2.2896	-30.558	127.620	-78.966	-2.844	-29.446	-131.614	110.414	134.412	-65.135	105.196	165.163	120.545	-140.575	193.131	126.843	-97.239	0.0010961	0.00030004	4.4199e-05	487.64	5.7157e-05	2.7872e-06	448.9	204.82	5.5657e-06	3.0869e-06	208.73	89.209	90.76	42.965	5.4669e-06	41.434	0.00052777	0.00044714	0.00014096	495.67	8.5503e-05	5.335e-06	456.86	210.63	4.7874e-06	4.8722e-06	246.89	91.583	93.523	44.604	5.139e-06	44.418	55.005	-66.881	-66.252	-143.382	43.573	0.080	-145.118	-137.619	-31.547	9.072	-141.637	-136.663	-133.264	-128.035	-27.692	-132.531	-8191	255	
36023.012	1	1	0	0	0.10139	0.057701	0.20442	0.19735	0.089027	0.29596	0.2733	0.077668	0.040639	0.1499	0.1416	0.28281	0.092681	0.37558	0.26198	0.22261	-1.6708	-2.3812	-2.0542	-2.2146	-2.3833	-2.1208	-2.4437	-2.3021	-2.0958	-2.5187	-2.1479	-2.1833	-2.35	-2.1229	-2.4667	-2.4167	-49.589	-127.082	165.375	177.416	-25.068	154.636	-58.112	-123.030	125.512	-114.233	162.008	160.344	162.113	193.823	56.409	112.028	0.0012152	0.00031026	9.7662e-05	490.2	0.00012763	4.2056e-05	454.21	206.22	6.8475e-06	4.0462e-06	212.89	90.712	91.372	42.998	3.1168e-06	42.12	0.00056313	0.00044047	0.00017856	499.33	7.2875e-05	9.8644e-05	462.21	211.86	5.0119e-06	4.7856e-06	234.07	92.475	94.066	44.701	4.8427e-06	46.552	53.345	-71.718	-85.386	-143.385	26.050	149.430	-145.039	-137.479	-16.264	7.846	-141.043	-136.923	-133.502	-127.958	-30.453	-132.032	-8191	255	
36023.109	1	1	0	0	0.17171	0.13804	0.16276	0.18532	0.21714	0.30941	0.1558	0.069945	0.282	0.068345	0.28353	0.054088	0.17403	0.2025	0.19469	0.12583	-1.6729	-2.6167	-2.1958	-2.2438	-2.1958	-1.9729	-2.2792	-2.1979	-1.8375	-2.3333	-2.1521	-2.2542	-2.5792	-1.8438	-2.4083	-2.3438	-76.852	40.962	-16.488	-66.553	-100.364	180.583	142.142	165.649	-133.615	-21.715	-35.252	196.879	151.737	200.369	139.552	186.364	0.0011632	0.00046606	5.7465e-05	490.01	3.2943e-06	4.3784e-05	454.76	205.94	7.2897e-06	3.9829e-06	209.94	88.742	90.31	42.486	2.7188e-06	40.867	0.00058082	0.00041699	0.00014446	500.27	4.2808e-06	0.00010768	464.25	211.98	5.2282e-06	4.8284e-06	247.73	90.966	92.999	44.021	4.8272e-06	43.589	56.804	-79.480	-100.374	-143.417	-29.520	79.514	-145.146	-137.449	-41.928	-10.075	-142.013	-136.617	-133.528	-128.025	0.503	-132.093	-8191	255	
36023.227	1	1	0	0	0.11121	0.084928	0.32698	0.16667	0.11406	0.28862	0.29166	0.24302	0.12798	0.29382	0.37419	0.3418	0.36172	0.31946	0.022057	0.15868	-1.4917	-2.3229	-2.2375	-2.1312	-2.3604	-2.0708	-2.1958	-2.3021	-1.9688	-2.45	-2.1417	-2.1312	-2.5396	-2.2625	-2.3042	-2.6688	92.992	-36.311	-75.473	-131.779	182.094	101.825	162.087	23.625	108.250	202.927	-154.626	153.377	-128.021	193.591	-108.647	57.144	0.0010463	0.0003848	9.5415e-05	488.59	4.5112e-06	8.8963e-05	450.18	205.68	5.6805e-06	2.798e-06	212.96	88.708	90.928	42.469	2.6189e-06	41.228	0.00054913	0.00042687	0.00016672	497.79	4.0516e-06	0.00021037	457.35	211.19	4.7841e-06	4.2531e-06	232.24	90.931	93.348	44.169	4.9757e-06	43.391	55.186	-67.460	-69.328	-143.233	-62.867	86.959	-145.167	-137.555	-14.954	12.067	-141.042	-136.314	-133.610	-127.960	-24.467	-131.786	-8191	255	
36023.324	1	1	0	0	0.35136	0.11805	0.051166	0.058484	0.14451	0.25091	0.12238	0.14225	0.091354	0.26189	0.22854	0.21183	0.26535	0.23052	0.21924	0.068353	-1.5354	-2.375	-2.2354	-2.025	-2.5479	-2.0979	-2.1021	-2.3396	-2.1354	-2.3646	-2.3438	-2.0729	-2.35	-2.3187	-2.1396	-2.5875	164.631	40.930	152.661	-129.455	-65.744	-61.998	120.327	183.251	197.368	65.379	191.059	-38.729	-142.518	0.108	-118.460	-140.346	0.002293	0.00028058	9.5142e-05	491.47	4.8235e-06	4.0588e-05	452.1	206.95	7.4966e-06	3.4337e-06	214.56	89.149	90.829	42.902	4.6905e-06	41.034	0.0054942	0.00041907	0.00014201	500.49	4.1705e-06	0.00010689	460.44	211.96	6.0752e-06	4.7642e-06	248.31	91.741	93.699	44.471	5.1977e-06	42.478	55.096	-64.243	-75.543	-143.435	-33.782	92.929	-144.754	-137.208	-41.656	-3.590	-141.874	-136.851	-133.716	-128.012	-30.300	-132.003	-8191	255	
36023.422	1	1	0	0	0.14534	0.18582	0.072598	0.058965	0.28045	0.24669	0.1193	0.078089	0.04619	0.18539	0.12316	0.46323	0.132	0.29454	0.1994	0.11093	-1.6812	-2.3208	-2.1771	-2.0125	-2.3167	-2.2708	-2.1479	-2.4625	-2.0729	-2.3125	-2.3167	-2.0458	-2.4417	-2.2188	-2.1333	-2.4167	-105.064	-11.960	-47.177	-67.175	96.135	-139.090	-17.355	90.167	20.619	160.428	114.739	57.433	-122.153	174.672	-119.586	144.482	0.0020937	0.00046087	9.2575e-05	491.96	4.477e-06	8.7541e-05	454.36	207.72	7.2165e-06	3.3848e-06	216.54	90.695	91.409	43.173	4.2486e-06	41.87	0.0056592	0.00043744	0.00016113	500.97	4.1115e-06	0.00021471	464.41	212.74	5.5188e-06	4.6775e-06	234.86	92.816	94.343	44.826	5.3022e-06	43.364	94.931	-77.570	-89.998	-143.092	-51.891	98.014	-144.838	-137.595	-29.656	22.632	-140.298	-136.377	-133.304	-128.030	-45.289	-132.235	-8191	255	
36023.492	1	1	0	0	0.29955	0.056225	0.32622	0.11331	0.24193	0.12814	0.039064	0.21502	0.14417	0.21669	0.12925	0.223	0.24069	0.3654	0.24185	0.35281	-1.5917	-2.1312	-2.1354	-1.925	-2.6833	-2.5229	-2.0333	-2.4625	-2.0875	-2.0458	-2.5271	-2.1021	-2.2667	-2.3438	-1.9438	-2.4979	-85.130	166.420	1.444	48.905	-49.599	-64.505	-136.340	-47.173	25.233	-76.543	142.216	-93.613	-144.852	-72.529	-77.654	170.803	0.0031208	0.0004059	0.00010941	495.1	4.1549e-06	4.2389e-05	461.93	208.59	1.05e-05	4.5297e-06	218.51	91.28	91.924	43.429	3.1932e-06	41.948	0.011099	0.00044731	0.00013565	502.98	4.3462e-06	0.00010861	469.98	213.96	6.6482e-06	5.029e-06	232.57	98.021	94.46	45.018	5.4119e-06	43.311	114.322	-58.333	-83.552	-143.136	-33.536	94.633	-144.707	-137.463	-18.314	-6.935	-140.697	-137.435	-133.533	-128.090	-28.742	-132.296	-8191	255	
36023.613	1	1	0	0	0.18504	0.16716	0.11828	0.12567	0.21318	0.25407	0.26842	0.14537	0.035195	0.18083	0.16765	0.06711	0.20334	0.27436	0.3081	0.10505	-1.775	-2.0104	-2.2625	-2.0917	-2.2042	-2.4104	-2.1188	-2.6104	-1.9958	-2.2687	-2.3667	-2.0479	-2.3542	-2.4167	-1.8875	-2.3396	118.225	42.777	-66.883	156.208	-37.972	-130.826	93.710	72.639	107.099	-77.797	-65.301	-74.056	-128.390	-94.531	196.752	69.356	0.0017904	0.00042462	9.923e-05	493	4.7085e-06	8.1737e-05	454.37	208.13	6.8824e-06	2.7692e-06	215.6	89.943	91.103	43.038	2.9752e-06	41.443	0.0057124	0.00047096	0.00011641	501.26	4.5115e-06	0.00021645	463.48	212.73	5.589e-06	5.0251e-06	219.59	96.184	94.016	44.785	5.5924e-06	42.964	108.250	-62.020	-61.698	-143.136	-40.260	111.366	-145.155	-137.174	-10.705	-31.702	-140.498	-136.769	-133.489	-127.945	-49.764	-132.170	-8191	255	
36023.707	1	1	0	0	0.093623	0.042096	0.38027	0.13111	0.10538	0.26059	0.28044	0.21226	0.17601	0.093736	0.23513	0.034282	0.10582	0.11813	0.071352	0.16169	-1.6562	-2.2792	-2.4625	-2.0187	-2.4292	-2.35	-2.0333	-2.4188	-2.1292	-2.1042	-2.7604	-2.1437	-2.1396	-2.4458	-2	-2.3333	103.794	-146.820	176.560	-44.531	-134.259	155.057	179.158	23.915	128.726	43.059	48.700	92.349	178.271	177.593	-129.066	136.433	0.0028033	0.00035397	0.00012817	492.45	3.8703e-06	3.9004e-05	454.7	208.29	9.1949e-06	3.11e-06	215.55	90.405	91.887	43.33	4.6109e-06	41.798	0.011072	0.00045528	0.00012335	501.45	4.3493e-06	9.7223e-05	464.46	213.09	6.2684e-06	4.9968e-06	221.36	100.87	94.521	45.069	5.525e-06	43.395	127.512	-71.764	-58.833	-143.069	-41.874	56.611	-145.318	-137.564	-31.527	-13.163	-140.572	-137.050	-133.611	-128.027	-33.275	-132.493	-8191	255	
36023.805	1	1	0	0	0.20722	0.14467	0.22669	0.090822	0.14087	0.42551	0.3012	0.090288	0.058345	0.28041	0.21664	0.22194	0.084311	0.1569	0.17292	0.25678	-1.825	-1.9458	-2.3229	-1.9438	-2.2021	-2.4896	-1.9542	-2.3125	-2.0979	-1.9167	-2.5021	-2.1562	-2.2542	-2.3021	-1.9646	-2.1854	189.296	-31.848	62.837	102.767	204.043	51.415	114.977	193.710	172.213	5.642	95.825	-101.972	-6.762	-153.457	71.021	130.599	0.0015144	0.00038004	0.00013061	492.56	4.4832e-06	7.7049e-05	454.14	208.48	8.0167e-06	3.252e-06	217.47	91.927	92.323	44.344	5.1246e-06	43.299	0.005703	0.00047486	0.00012357	502.51	4.5367e-06	6.2743e-05	492.5	213.7	5.584e-06	5.2149e-06	222.55	98.283	95.278	46.038	7.2593e-06	44.635	110.106	-84.868	-70.448	-143.340	-26.950	64.831	-145.611	-137.462	-13.648	9.247	-140.462	-136.880	-133.435	-128.162	-41.779	-132.427	-8191	255	
36023.926	1	1	0	0	0.059624	0.12479	0.025854	0.14579	0.15166	0.097764	0.17102	0.14008	0.17018	0.046223	0.066676	0.058842	0.12254	0.10197	0.27566	0.17229	-1.9021	-2.0312	-2.425	-2.0542	-2.175	-2.3854	-2.1021	-2.3021	-2.3208	-2.0542	-2.3625	-2.2458	-2.0417	-2.4208	-2.0646	-2.3688	127.358	-121.630	183.620	-43.034	187.248	-30.412	103.435	165.878	-64.183	-28.637	100.676	-108.059	146.856	-71.370	20.023	-153.175	0.002889	0.00036756	9.5305e-05	491.86	4.2977e-06	3.7919e-06	455.05	209.43	7.4946e-06	4.9046e-06	221.04	93.613	93.317	45.017	3.7806e-06	43.973	0.011404	0.00049513	0.00012323	501.55	4.5084e-06	4.9144e-06	491.79	214.38	6.3997e-06	5.7941e-06	225.68	103.76	96.264	46.77	5.9905e-06	45.568	144.224	-48.365	-66.405	-143.430	-25.153	-30.125	-145.192	-137.391	-11.558	7.136	-140.521	-137.600	-133.688	-127.966	-25.406	-132.289	-8191	255	
36024.020	1	1	0	0	0.028866	0.12224	0.2318	0.22374	0.16875	0.076611	0.24869	0.24072	0.041677	0.19232	0.043576	0.24608	0.24332	0.35339	0.093131	0.076129	-1.7396	-2	-2.2396	-2.2708	-2.1188	-2.4292	-2.1188	-2.1771	-2.3542	-2.0125	-2.325	-2.3042	-2.0417	-2.5646	-2.0917	-2.1667	43.517	-27.874	159.017	-151.629	156.500	5.405	77.549	174.269	78.381	-38.227	-28.349	-123.306	187.751	128.071	-145.131	177.530	0.0012655	0.00052502	7.3554e-05	491.04	4.0644e-06	3.1884e-06	457.6	209.44	8.9533e-06	4.2633e-06	218.97	93.551	93.714	44.876	2.2041e-06	43.633	0.0047242	0.000538	0.00012878	500.87	4.6808e-06	4.871e-06	513.51	215.15	5.1159e-06	5.3531e-06	224.84	99.028	96.422	46.583	7.0062e-06	45.12	114.917	-94.912	-29.504	-143.182	-46.480	-23.893	-145.231	-137.339	-36.266	-0.773	-140.460	-136.789	-133.716	-128.087	-64.506	-132.456	-8191	255	
36024.117	1	1	0	0	0.30029	0.1711	0.20067	0.21242	0.12151	0.19964	0.15412	0.046065	0.19494	0.18428	0.18894	0.25267	0.11318	0.11211	0.15183	0.24622	-2.0125	-2.0687	-2.325	-2.3125	-1.85	-2.4875	-2.1833	-2.2062	-2.6104	-2.0958	-2.2729	-2.325	-2.1354	-2.4083	-2.3042	-2.0667	95.294	120.849	-34.908	182.595	-1.678	143.270	200.927	-131.150	52.855	-11.835	-118.876	115.445	72.932	-84.458	-13.289	169.357	0.0025432	0.00030374	0.00011935	493.97	4.9293e-06	4.4349e-06	456.56	211.32	7.0462e-06	4.5736e-06	219.18	93.907	93.892	44.551	4.0069e-06	43.325	0.0027961	0.011188	0.00012275	503.43	4.8163e-06	4.8147e-06	489.64	216.61	4.7255e-06	7.0071e-06	225.21	103.54	96.52	46.313	5.9836e-06	44.882	150.350	90.972	-61.146	-143.115	-38.756	-14.606	-145.473	-137.348	-28.648	13.683	-140.348	-137.504	-133.716	-128.062	-20.687	-132.593	-8191	255	
36024.215	1	1	0	0	0.15432	0.073468	0.2015	0.08018	0.10042	0.082127	0.23008	0.088247	0.032874	0.17072	0.17742	0.081885	0.14667	0.21896	0.079039	0.20644	-2.0417	-1.9979	-2.1396	-2.4708	-1.9917	-2.375	-2.2896	-2.2062	-2.3208	-2.0958	-2.0667	-2.2542	-1.9292	-2.4708	-2.3042	-2.2333	139.208	16.628	-77.703	11.430	120.595	-89.733	150.938	184.237	130.023	120.083	163.639	-112.143	-95.187	122.479	122.528	37.751	0.0011546	0.0041897	0.0001431	493.02	4.4321e-06	4.6423e-06	452.67	210.2	7.2521e-06	4.5752e-06	219.72	93.583	93.815	44.581	4.7852e-06	43.612	0.0005452	0.0099616	0.00012652	503.85	5.0037e-06	4.7959e-06	517.61	215.71	4.6041e-06	5.9489e-06	225.78	99.019	96.618	46.355	7.0149e-06	45.074	54.063	-27.125	-57.817	-143.201	-30.416	-10.262	-145.544	-137.236	-15.213	3.874	-140.393	-136.329	-133.744	-128.120	-34.707	-132.398	-8191	255	
36024.309	1	1	0	0	0.17197	0.10979	0.054372	0.11876	0.12991	0.27858	0.29243	0.24346	0.27053	0.16181	0.13422	0.1808	0.04674	0.090722	0.080086	0.36289	-1.9646	-1.9438	-2.2271	-2.4208	-2.1208	-2.3958	-2.2208	-2.0042	-2.3979	-2.1688	-2.3104	-2.4042	-2.0333	-2.3625	-2.2896	-2.0854	154.787	-122.497	158.255	-143.165	-75.885	-143.100	38.444	101.775	-17.651	-55.252	19.708	155.909	-53.679	69.734	45.045	154.066	0.0011708	0.0085482	0.00013808	492.34	5.8875e-06	4.9842e-06	456.8	209.51	8.1526e-06	5.6239e-06	219.12	94.403	94.328	45.218	4.0116e-06	44.177	0.00055046	0.02086	0.00013061	502.29	4.9399e-06	5.0309e-06	492.87	214.54	4.6685e-06	7.4432e-06	224.98	97.854	104.16	46.904	6.1745e-06	45.7	55.955	-22.151	-59.133	-143.265	-19.470	-11.214	-145.384	-137.386	-32.708	17.918	-140.536	-136.562	-134.650	-128.028	-47.819	-132.472	-8191	255	
36024.402	1	1	0	0	0.10484	0.083206	0.35243	0.085597	0.10197	0.25237	0.22014	0.15757	0.18103	0.072362	0.17348	0.21765	0.028103	0.18141	0.17925	0.32645	-1.8979	-2.1917	-2.15	-2.4896	-1.9542	-2.1292	-2.4188	-1.9688	-2.4083	-2.1042	-2.125	-2.4333	-2.0375	-2.3708	-2.2313	-2.0979	157.953	-5.974	49.510	101.245	-26.848	49.825	125.054	13.162	89.486	-95.769	142.070	20.529	-91.400	195.961	159.895	143.771	0.0012201	0.0051261	9.8364e-05	495.25	3.4207e-06	4.1437e-06	455.73	209.11	6.4637e-06	2.0375e-06	218.85	92.354	93.663	44.289	4.0231e-06	42.625	0.00056284	0.01066	0.00013039	503.21	6.444e-06	5.2037e-06	520.55	214.46	4.4596e-06	6.0346e-06	223.94	94.643	101.22	45.958	7.0149e-06	44.248	54.836	-29.040	-114.382	-143.339	-43.936	-8.592	-145.742	-137.566	-56.900	43.097	-140.615	-136.812	-134.065	-128.217	-42.462	-132.417	-8191	255	
36024.523	1	1	0	0	0.089656	0.08616	0.25242	0.12573	0.17031	0.11596	0.19707	0.14865	0.23018	0.25984	0.09089	0.091458	0.088335	0.11049	0.09327	0.12388	-2.0479	-2.2896	-2.1792	-2.4313	-2.0646	-2.3292	-2.4229	-2.0917	-2.3187	-2.3125	-2	-2.3729	-2.0458	-2.3042	-2.2188	-1.9917	10.066	-65.411	199.408	-124.511	98.755	141.261	75.145	-70.957	-15.910	74.852	-99.253	-151.408	156.363	-148.639	140.010	181.532	0.0011663	0.0086187	7.1838e-05	487.96	4.6675e-06	1.9672e-06	446.05	205.51	3.2053e-06	2.7581e-06	213.03	90.307	93.724	44.368	4.3065e-06	42.753	0.00054859	0.020901	0.00013106	497.77	5.4282e-06	4.9282e-06	475.93	212.68	4.5405e-06	6.7929e-06	218.18	92.689	106.57	45.895	5.3963e-06	44.111	54.983	-15.518	-60.599	-143.338	-65.220	0.809	-144.455	-137.817	-27.410	28.764	-140.446	-136.464	-134.558	-128.241	-41.522	-132.254	-8191	255	
36024.621	1	1	0	0	0.18904	0.13031	0.099345	0.21621	0.13079	0.23647	0.10934	0.12044	0.10036	0.13411	0.10992	0.15098	0.25205	0.35205	0.32886	0.080927	-1.9438	-2.2542	-1.9438	-2.3438	-2.0604	-2.0312	-2.2083	-2.125	-2.3896	-2.4104	-2.1729	-2.4125	-2.2583	-2.1917	-2.3583	-2.05	-146.940	117.433	-38.438	-47.260	195.584	38.622	-122.882	-101.188	47.888	63.181	64.701	155.399	-152.664	162.752	-151.992	199.940	0.0012147	0.005053	9.1529e-05	487.01	7.1923e-06	5.1757e-06	445.59	204.63	7.0717e-06	3.099e-06	214.55	91.388	94.461	45.334	4.0808e-06	43.724	0.00055193	0.010966	0.0001368	495.42	6.4929e-06	5.3459e-06	463.56	225.3	4.756e-06	5.8535e-06	219.01	94.1	101.51	46.91	5.0932e-06	45.297	54.235	-19.420	-70.105	-143.166	-36.265	-19.144	-144.973	-138.380	-23.233	7.213	-140.708	-136.726	-134.016	-128.269	-46.995	-132.227	-8191	255	
36024.719	1	1	0	0	0.10199	0.15783	0.19675	0.17263	0.16375	0.15508	0.1768	0.15042	0.149	0.34451	0.071357	0.13577	0.36468	0.097219	0.31805	0.31372	-2.0083	-2.3271	-2.0375	-2.3187	-2.2938	-2.3021	-2.5021	-2.125	-2.1729	-2.2479	-2.0187	-2.425	-2.0417	-2.3583	-2.5021	-2.2313	27.630	-94.341	-73.816	-15.714	94.295	-111.700	60.345	-127.802	79.739	148.912	139.880	46.522	-144.327	111.194	22.918	104.331	0.0012274	0.0094007	5.9631e-05	484.09	4.6044e-06	4.4914e-06	448.92	204.34	7.4965e-06	3.7171e-06	214.1	92.793	94.55	45.694	4.5604e-06	44.237	0.00055444	0.022234	0.00014648	494.54	5.3368e-06	5.5197e-06	456.36	220.5	4.9162e-06	7.0372e-06	219.58	95.005	107.55	47.37	5.1813e-06	45.849	51.596	-6.689	-65.788	-143.264	-44.286	3.221	-144.907	-137.624	-12.052	-2.369	-140.709	-136.640	-134.492	-128.105	-22.834	-132.376	-8191	255	
36024.789	1	1	0	0	0.10911	0.21514	0.39629	0.30942	0.18376	0.10935	0.12939	0.12762	0.14238	0.13685	0.088357	0.11768	0.068406	0.13889	0.1931	0.13124	-1.6646	-2.2938	-1.925	-2.3771	-2.1792	-2.175	-2.4875	-2.0146	-1.9937	-2.2625	-2.0417	-2.5187	-2.2042	-2.2875	-2.4667	-2.3083	-78.702	15.243	113.174	-33.873	-110.434	40.145	191.728	-144.593	63.147	106.469	56.769	-125.505	-52.621	-116.606	-46.117	104.763	0.0011948	0.0054459	0.00046814	488.1	4.6298e-06	3.0427e-06	450.36	204.59	5.2224e-06	5.1613e-06	216.86	93.634	94.385	45.604	4.6167e-06	44.366	0.00057772	0.007903	0.00051789	495.72	6.2125e-06	5.9285e-06	459.22	230.36	4.9351e-06	5.5498e-06	221.39	95.874	101.8	47.405	5.0914e-06	46.042	54.631	-26.172	92.655	-143.123	-57.919	-22.439	-145.196	-138.514	-18.644	-0.752	-140.360	-136.689	-133.781	-128.086	-20.695	-132.298	-8191	255	
36024.887	1	1	0	0	0.137	0.16977	0.22717	0.31176	0.057001	0.11501	0.19549	0.078975	0.1817	0.054783	0.27856	0.23022	0.22456	0.26813	0.33444	0.15654	-1.8083	-2.2687	-2.125	-2.3833	-2.3438	-2.0875	-2.5354	-2.0521	-2.2938	-2.5458	-2.2667	-2.3625	-2.2958	-2.1875	-2.2771	-2.2208	-59.119	-100.774	66.189	-88.936	98.887	74.600	29.475	-27.077	-40.077	-32.437	190.237	123.423	-87.845	-134.040	-38.261	-118.275	0.001235	0.010104	0.0011836	487.76	2.9818e-06	3.9623e-06	447.64	204.76	6.5776e-06	3.6073e-06	213.93	91.844	95.076	45.185	3.6541e-06	43.597	0.00056397	0.0023227	0.0043466	496.85	5.2935e-06	5.5651e-06	457.2	220.43	4.9508e-06	4.9725e-06	219.58	94.035	106.83	46.938	4.9239e-06	45.123	51.909	-18.144	100.762	-143.465	-49.547	-12.273	-144.845	-137.944	-7.156	-9.418	-140.684	-136.757	-134.483	-128.252	-41.843	-132.429	-8191	255	
36025.004	1	1	0	0	0.087381	0.22274	0.056524	0.24837	0.030757	0.32715	0.099476	0.40968	0.25083	0.14825	0.46031	0.086412	0.18208	0.31564	0.20285	0.19974	-1.7021	-2.4604	-1.9625	-2.3521	-2.3271	-1.9167	-2.3292	-2.3083	-2.1375	-2.5146	-2.0938	-2.2104	-2.3646	-2.2062	-2.3521	-2.1104	200.332	13.257	-123.114	-106.304	186.390	42.077	176.745	153.703	171.014	-47.367	80.189	80.834	131.588	185.657	-109.055	105.701	0.0012134	0.00044033	0.0011777	488.98	6.0355e-06	5.0374e-06	452.35	207.16	6.1319e-06	4.436e-06	216.08	92.484	93.821	45.315	4.002e-06	43.739	0.00055498	0.00044038	0.0028179	496.55	5.8511e-06	5.6431e-06	459.62	230.68	4.8113e-06	4.8021e-06	221.68	94.991	99.543	47.227	5.2936e-06	45.379	52.226	-83.719	18.378	-143.208	-48.915	2.259	-145.030	-138.490	-41.259	9.863	-140.539	-136.843	-133.682	-128.361	-22.580	-132.772	-8191	255	
36025.102	1	1	0	0	0.065173	0.16899	0.11123	0.08232	0.17736	0.089692	0.18951	0.17848	0.21895	0.098364	0.10282	0.092692	0.20589	0.19892	0.032192	0.075579	-1.4208	-2.3438	-1.9312	-2.3833	-2.3896	-1.9813	-2.3375	-2.1729	-2.125	-2.4375	-2.2146	-2.1375	-2.4646	-1.9042	-2.425	-2.3146	33.178	-11.422	110.847	-149.546	122.949	74.907	187.341	-148.288	-102.022	147.497	56.291	130.619	58.100	139.480	158.316	-95.123	0.0011709	0.00030907	0.002532	491.68	6.208e-06	5.1799e-06	453.95	207.52	7.7725e-06	3.1336e-06	217.11	93.778	95.857	45.467	3.125e-06	44.026	0.00058651	0.00044437	0.0054686	498.65	4.5871e-06	5.7113e-06	464.2	221.81	4.9566e-06	5.0173e-06	223.72	95.941	97.185	49.209	5.2642e-06	45.742	52.550	-74.782	21.188	-143.137	-26.630	-18.867	-145.313	-137.708	-22.108	3.525	-140.468	-136.689	-133.709	-128.221	-46.344	-132.402	-8191	255	
36025.199	1	1	0	0	0.070008	0.17233	0.04869	0.20178	0.13735	0.21343	0.22028	0.12071	0.19656	0.20604	0.12528	0.15247	0.12592	0.15033	0.12417	0.10803	-1.4188	-2.5062	-2.0271	-2.2438	-2.5167	-2.0125	-2.4458	-2.3104	-1.7521	-2.4625	-2.2396	-2.0646	-2.4625	-2.1708	-2.2979	-2.4479	121.246	160.329	71.843	131.169	195.019	85.879	-75.362	123.025	107.174	-105.857	145.877	86.923	-48.460	157.049	67.719	-107.259	0.0012062	0.00041859	0.0010021	492.15	4.5084e-06	3.8574e-06	459.18	209.71	8.5616e-06	3.5004e-06	220.2	93.496	94.107	45.133	5.5254e-06	43.85	0.00057797	0.00046074	0.0027458	502.02	4.1737e-06	7.4916e-06	468.45	232.35	5.6319e-06	5.1273e-06	225.29	95.98	96.553	47.957	5.4482e-06	45.472	54.494	-55.735	26.244	-143.242	-48.623	-17.054	-145.281	-138.263	-36.797	4.769	-140.458	-136.523	-133.689	-128.282	-28.689	-132.350	-8191	255	
36025.293	1	1	0	0	0.15204	0.25124	0.20972	0.21438	0.11578	0.079146	0.098648	0.24136	0.32204	0.08234	0.17564	0.11214	0.20046	0.074766	0.095811	0.12615	-1.4479	-2.4542	-2.1292	-2.1	-2.3875	-2.1813	-2.375	-2.3542	-1.8625	-2.2958	-2.3979	-2.1792	-2.6625	-2.1937	-2.2208	-2.4375	134.788	-48.420	-51.411	-129.075	-17.311	-71.018	-82.008	200.993	-74.180	-57.100	89.376	6.115	24.842	88.840	-55.558	118.757	0.0012157	0.00031888	0.0023744	492.58	3.7523e-06	3.9669e-06	460.69	208.82	7.8455e-05	3.029e-06	216.51	90.943	92.405	44.55	5.8107e-06	42.441	0.00058259	0.00044662	0.0054577	502.72	4.2902e-06	6.5417e-06	468.59	218.65	2.5782e-05	5.2061e-06	221.43	93.711	94.84	48.565	5.4913e-06	44.035	52.217	-48.674	41.317	-143.349	-21.387	-29.133	-144.806	-137.448	-127.871	-28.211	-140.835	-136.632	-133.485	-128.116	-37.320	-132.329	-8191	255	
36025.391	1	1	0	0	0.35388	0.10963	0.13783	0.14227	0.070853	0.12127	0.26229	0.068696	0.21707	0.06069	0.21105	0.17453	0.15215	0.021218	0.12556	0.17035	-1.6063	-2.3146	-2.2021	-2.0208	-2.4854	-2.1083	-2.1833	-2.475	-2.0417	-2.3167	-2.4417	-1.9208	-2.3167	-2.1562	-2.1333	-2.4604	-64.250	-52.410	-58.309	188.735	-98.729	87.936	-101.493	-91.605	-15.539	133.157	-10.922	-110.627	-135.950	-115.223	85.306	13.596	0.0013172	0.00034103	0.001313	488.76	4.7277e-06	4.3361e-06	445.36	204.88	0.00015616	4.9514e-06	211.02	90.045	92.149	44.653	5.0701e-06	42.564	0.00059177	0.00047096	0.002903	495.94	4.4068e-06	7.8974e-06	451.76	209.81	0.00017188	5.2762e-06	216.04	92.145	94.496	47.571	5.2115e-06	44.102	54.034	-68.657	41.169	-143.114	-21.173	-30.437	-145.129	-137.318	-129.436	10.064	-140.672	-136.603	-133.544	-128.160	-20.579	-132.678	-8191	255	
36025.484	1	1	0	0	0.1704	0.27762	0.090432	0.16178	0.24322	0.054662	0.21027	0.083155	0.13685	0.10263	0.055584	0.15802	0.15064	0.14051	0.20615	0.24312	-1.6313	-2.3083	-2.2833	-1.9708	-2.2479	-2.1188	-2.0938	-2.4813	-2.3167	-2.2375	-2.3167	-1.9083	-2.5187	-2.3458	-2.0958	-2.4542	-16.536	-38.800	176.679	162.610	83.042	153.025	90.793	-35.232	79.573	-56.602	-104.481	57.418	167.732	119.428	66.602	-139.955	0.0012913	0.00044243	0.0025334	483.8	3.7289e-06	3.7547e-06	441.98	204.43	7.6337e-05	1.5804e-06	210.05	90.477	91.435	45.12	5.8499e-06	43.149	0.00068461	0.00047053	0.0061147	493.02	4.421e-06	6.8112e-06	449.93	209.45	0.00010626	5.2636e-06	216.09	92.537	94.506	49.35	5.3281e-06	44.557	50.839	-81.487	49.652	-143.411	-26.295	-13.683	-144.945	-137.657	-117.292	-10.851	-140.665	-136.742	-133.564	-127.966	-29.199	-132.475	-8191	255	
36025.605	1	1	0	0	0.16255	0.040455	0.16488	0.12135	0.1514	0.16245	0.22024	0.20986	0.37392	0.077589	0.25503	0.22277	0.13897	0.25917	0.35738	0.13659	-1.6771	-2.1	-2.3917	-2.0354	-2.4521	-2.3521	-2.2583	-2.4896	-2.2146	-2.2646	-2.4792	-2.0042	-2.3063	-2.1833	-2.2313	-2.4062	-143.707	78.132	-21.125	141.946	48.467	46.215	82.772	-47.275	44.864	-59.880	142.921	144.296	42.046	195.024	-143.521	182.440	0.0011512	0.00030568	0.0012013	479.95	4.6558e-06	3.8187e-06	444.88	205.42	0.00016894	4.0976e-06	211.96	91.223	93.179	45.115	4.3069e-06	43.376	0.00061884	0.00046065	0.0017892	497.83	4.6808e-06	7.2013e-06	453.47	210.37	0.00020413	4.9452e-06	218.61	93.677	95.224	48.023	5.6416e-06	45.004	55.819	-58.756	2.014	-143.295	-38.629	6.197	-145.081	-137.559	-111.963	-1.944	-140.617	-136.431	-133.737	-128.026	-14.770	-132.858	-8191	255	
36025.699	1	1	0	0	0.089792	0.072642	0.090017	0.18842	0.2167	0.13338	0.020223	0.25959	0.027964	0.16266	0.255	0.17703	0.09397	0.097815	0.1203	0.22071	-1.6437	-2.0687	-2.4896	-2.0563	-2.3729	-2.35	-2.075	-2.4562	-2.1813	-1.9292	-2.4188	-2.1083	-2.1229	-2.3125	-2.2313	-2.35	-8.221	-113.183	168.407	164.755	-132.960	191.602	112.282	-129.579	46.019	131.137	-13.799	131.564	170.869	-31.900	-147.704	191.970	0.0012677	0.00043279	9.9347e-05	484.37	5.1566e-06	3.4717e-06	457.84	206.82	7.9556e-05	4.3331e-06	217.01	92.007	93.105	45.048	4.3417e-06	43.172	0.00069881	0.00049539	0.00012105	534.5	4.58e-06	5.7586e-06	463.73	212.36	9.5663e-05	5.4699e-06	221.81	94.796	95.468	49.032	5.5777e-06	44.732	55.393	-73.044	-64.405	-143.833	-37.518	-33.058	-144.930	-137.549	-109.427	10.833	-140.556	-136.667	-133.541	-127.901	-28.347	-132.597	-8191	255	
36025.797	1	1	0	0	0.052138	0.10649	0.14981	0.1506	0.052188	0.16436	0.045588	0.13996	0.21378	0.21126	0.35158	0.19442	0.12096	0.070911	0.065041	0.069165	-1.7625	-2.2875	-2.4146	-2.0333	-2.1271	-2.2854	-1.9396	-2.2917	-2.15	-2.0271	-2.4104	-2.0146	-2.2396	-2.3417	-1.8375	-2.5979	-41.926	-64.245	-22.254	150.616	197.552	118.427	28.974	123.158	95.395	121.065	178.759	-148.024	39.084	99.759	-80.549	-134.519	0.0011869	0.00037318	8.6611e-05	484.81	6.0697e-06	5.6233e-06	448.86	206.42	0.00015069	3.6328e-06	214.17	90.426	92.349	44.521	6.1089e-06	42.349	0.00061997	0.00045	0.0001252	516.48	4.6793e-06	6.5545e-06	458.09	211.91	0.00018649	5.1351e-06	219.01	92.812	95.023	46.635	3.4596e-05	43.895	53.358	-75.995	-70.465	-143.084	-26.054	3.252	-145.365	-137.442	-106.565	-25.087	-140.489	-136.691	-133.467	-127.752	-85.685	-132.568	-8191	255	
36025.895	1	1	0	0	0.23688	0.080587	0.17674	0.16007	0.15277	0.052037	0.11433	0.24313	0.25598	0.26846	0.20712	0.22488	0.17276	0.17976	0.049375	0.040701	-1.7229	-1.9188	-2.3896	-2.0229	-2.0604	-2.3771	-2.1	-2.5208	-2.0542	-2.0771	-2.4188	-2.1229	-2.2354	-2.2833	-1.8146	-2.2542	-35.510	-112.836	-2.371	-96.185	-19.692	130.654	179.400	-85.217	-68.770	56.371	107.513	88.218	51.482	36.557	95.511	111.982	0.0011852	0.00047066	8.9973e-05	481.53	4.2894e-06	4.2694e-06	448.73	207.38	7.6193e-05	2.6205e-06	214.8	90.595	92.785	44.394	1.0278e-05	42.904	0.00065195	0.00051903	0.00011999	537.3	4.5753e-06	5.0013e-06	457.73	212.06	9.6039e-05	5.248e-06	218.98	93.365	95.292	46.257	0.00018952	44.428	54.765	-72.962	-53.597	-143.199	-32.096	-28.707	-145.171	-137.518	-95.023	-24.863	-140.310	-136.597	-133.574	-128.336	199.321	-132.224	-8191	255	
36026.016	1	1	0	0	0.087541	0.20029	0.04806	0.31425	0.055574	0.090745	0.15457	0.16895	0.16404	0.081685	0.05248	0.14883	0.37387	0.12956	0.13599	0.074554	-2.0083	-1.9646	-2.3229	-2.0958	-2.2979	-2.4625	-2.0042	-2.2562	-2.5	-1.9708	-2.5062	-2.1813	-2.125	-2.3625	-2.3542	-2.5229	172.686	-28.486	22.703	129.366	-136.458	-65.920	93.056	53.043	-125.802	-12.579	-142.192	64.622	-1.610	178.631	173.943	132.201	0.0011727	0.00051594	9.5731e-05	483.86	5.2657e-06	4.0194e-06	451.25	206.93	0.00016157	5.2439e-06	215.23	91.479	92.782	44.695	5.0889e-05	43.255	0.00059388	0.00046827	0.00012953	516.46	4.6131e-06	4.8937e-06	458.45	211.96	0.0001915	5.7192e-06	220.44	94.001	95.627	46.412	0.0001025	44.779	54.991	-69.950	-82.028	-142.821	-49.147	-22.067	-145.074	-137.524	-90.533	-24.059	-140.252	-136.578	-133.411	-128.207	22.717	-132.457	-8191	255	
36026.086	1	1	0	0	0.32928	0.12768	0.22137	0.19881	0.0752	0.15217	0.22532	0.24096	0.22189	0.059686	0.012304	0.14208	0.11217	0.11895	0.17214	0.016642	-1.6938	-1.8958	-2.1688	-2.0604	-1.9646	-2.3292	-1.9583	-2.2	-2.3396	-2.0167	-2.3292	-2.0125	-2.0417	-2.55	-2.2833	-2.3688	-105.417	-65.594	17.020	95.047	-73.885	-64.394	129.965	-12.690	91.396	-73.081	-122.793	1.846	37.004	-57.010	44.932	-144.176	0.0011794	0.00038598	0.00012823	484.58	4.3839e-06	3.4925e-06	450.98	207.84	3.8288e-05	3.8203e-05	216.02	91.723	92.809	44.751	0.00011792	43.029	0.00062468	0.0004979	0.00012535	540.96	4.7927e-06	5.1069e-06	460.35	212.48	5.1358e-05	4.5041e-05	220.14	93.994	95.548	46.349	0.00020984	44.643	57.203	-87.728	-62.923	-143.293	-30.132	-14.298	-144.925	-137.236	-27.757	-108.808	-140.389	-136.758	-133.637	-128.282	26.053	-132.291	-8191	255	
36026.184	1	1	0	0	0.16554	0.19046	0.044527	0.1432	0.1871	0.20033	0.14439	0.10488	0.14227	0.048302	0.075313	0.23003	0.062089	0.10816	0.13132	0.27524	-1.8958	-2.0167	-2.2	-1.9833	-1.8229	-2.4208	-1.9813	-1.9604	-2.4333	-1.8208	-2.3812	-2.2646	-1.9333	-2.6875	-2.1833	-2.1979	-19.218	198.599	-5.055	42.372	108.527	-32.896	-39.349	197.915	-126.323	136.106	139.856	3.482	45.172	148.872	-11.797	-145.608	0.0012141	0.00021021	8.545e-05	482.69	4.3102e-06	3.7216e-06	448.27	204.88	6.6116e-06	7.8208e-05	210.64	89.451	91.718	44.013	6.5708e-05	41.954	0.00056348	0.00054502	0.00013358	517.46	4.8226e-06	4.8996e-06	456.93	210.36	4.7321e-06	0.00023105	215.64	91.529	94.155	45.613	0.0001048	43.51	52.304	-106.410	-63.030	-143.227	-38.487	-7.102	-144.980	-137.685	-33.330	-105.229	-140.651	-136.724	-133.395	-128.373	27.515	-132.675	-8191	255	
36026.301	1	1	0	0	0.32336	0.16149	0.27358	0.18858	0.22682	0.14251	0.093154	0.28297	0.012904	0.32369	0.18341	0.24149	0.19732	0.11552	0.25144	0.23717	-2.0167	-1.9188	-2.1917	-2.4729	-1.7958	-2.4646	-2.1729	-2.1625	-2.3021	-2.2292	-2.2396	-2.4271	-1.9542	-2.3854	-2.225	-2.1937	20.183	-131.040	139.892	183.643	20.239	-121.373	150.369	-106.973	-98.845	120.776	-134.801	183.999	-82.307	180.173	134.113	18.195	0.0010807	0.00035297	0.00012057	474.25	3.4498e-06	2.8984e-06	440.85	204.53	8.9444e-06	5.1219e-05	210.46	89.056	92.197	44.143	0.00011964	42.228	0.00054407	0.00069176	0.0001327	533.68	5.188e-06	5.1178e-06	448.85	209.84	4.8031e-06	0.00011631	215.23	91.342	94.496	45.868	0.00020253	43.703	52.558	-64.419	-46.953	-143.612	-33.480	-6.766	-145.136	-137.313	-20.533	-58.791	-140.424	-136.690	-133.391	-128.058	41.692	-132.419	-8191	255	
36026.398	1	1	0	0	0.23015	0.18003	0.28042	0.32116	0.02353	0.12032	0.21383	0.24926	0.20863	0.028244	0.32005	0.15352	0.10147	0.06095	0.21734	0.03895	-2.0187	-2.0875	-2.1271	-2.3521	-1.9312	-2.3875	-2.2375	-2.1729	-2.2042	-2.0312	-2.2375	-2.4271	-2.1458	-2.2917	-2.3729	-2.1875	161.256	104.235	170.004	-144.712	116.475	-46.505	73.490	168.174	183.146	-64.169	142.837	183.883	96.124	28.205	-143.016	204.625	0.001159	0.00028281	9.1193e-05	483.36	6.3209e-05	3.8658e-06	445.61	204.79	7.9086e-06	0.0001009	211.04	89.638	92.074	44.449	5.3292e-05	42.217	0.0005454	0.00058937	0.00013049	502.39	3.9258e-05	5.1889e-06	452.27	210.64	4.671e-06	0.00021767	216.46	92.145	94.648	46.072	9.7067e-05	43.894	52.011	-75.919	-81.332	-143.176	183.003	-20.202	-144.878	-137.305	-24.512	-58.063	-140.840	-136.489	-133.421	-128.198	43.876	-132.474	-8191	255	
36026.492	1	1	0	0	0.1769	0.13067	0.036306	0.18009	0.25069	0.20027	0.13249	0.077124	0.15553	0.12744	0.097909	0.20062	0.16345	0.11826	0.12577	0.018244	-2.0917	-2.0146	-2.2208	-2.4083	-1.9	-2.3729	-2.1688	-1.9542	-2.3229	-2.1833	-2.1417	-2.4208	-2.0187	-2.25	-2.3083	-1.9083	-51.183	170.082	-16.341	-79.096	67.178	-32.025	136.444	-33.127	-52.358	-2.047	-113.513	50.975	17.825	-120.047	154.507	86.461	0.0011667	0.00035599	6.3737e-05	480.32	0.00011454	4.7839e-06	439.77	204.72	3.8224e-06	4.449e-05	211.04	90.257	91.652	43.711	0.00010478	41.967	0.00055655	0.00066204	0.00012986	490.89	0.00017714	5.1573e-06	448.34	209.37	4.9129e-06	0.00010727	215.73	92.216	94.284	45.496	0.00018716	43.496	55.178	-80.738	-81.646	-143.242	155.898	-4.443	-144.709	-137.317	-48.332	-53.392	-140.344	-136.807	-133.339	-128.180	59.588	-132.403	-8191	255	
36026.613	1	1	0	0	0.092471	0.26984	0.13564	0.16169	0.30926	0.18882	0.23234	0.23902	0.014353	0.14294	0.2165	0.12063	0.03042	0.27496	0.31229	0.25788	-1.8312	-1.9708	-2.1792	-2.2583	-2.0021	-2.1708	-2.3979	-2.1625	-2.4292	-2.25	-2.2396	-2.3646	-2.1583	-2.3125	-2.3187	-2.0438	-3.734	-74.061	193.152	138.380	70.758	110.498	189.090	-133.534	7.164	146.031	158.716	46.668	193.175	97.422	134.060	-114.160	0.0011186	0.00055004	0.000111	485.71	5.6467e-05	3.9334e-06	448.05	205.71	6.5704e-06	9.8856e-05	212.29	89.374	90.982	43.106	5.5941e-05	40.978	0.00053268	0.00055489	0.00012993	494.55	8.3792e-05	5.0072e-06	456.65	210.85	4.7213e-06	0.00020699	217.3	91.633	93.531	44.711	4.1467e-05	43.218	55.104	-63.272	-61.312	-143.310	171.218	-6.473	-145.010	-137.547	-44.181	-49.838	-140.619	-136.690	-133.460	-127.975	34.248	-132.315	-8191	255	
36026.684	1	1	0	0	0.1084	0.18231	0.1406	0.17458	0.13429	0.15576	0.31665	0.16163	0.15485	0.08061	0.27332	0.21613	0.03913	0.19868	0.019897	0.081878	-1.7083	-2.3021	-2.0292	-2.5083	-2.2042	-2.2146	-2.5083	-2.1479	-2.225	-2.4083	-1.9917	-2.3563	-2.2146	-2.2562	-2.4958	-2.0375	-77.626	-118.696	180.613	29.995	18.259	101.124	113.330	120.991	28.190	-40.760	121.174	48.246	103.684	194.140	9.369	34.770	0.0011226	0.00038839	0.00010361	478.59	0.00012769	4.5263e-06	431.44	202.68	6.8551e-06	5.0189e-05	205.29	87.817	90.05	43.184	3.6508e-06	40.596	0.00052978	0.00061596	0.0001388	486.99	0.00018141	5.1504e-06	440.48	207.27	4.6421e-06	0.00011159	210.57	89.557	92.93	44.866	4.8919e-06	46.159	54.433	-89.112	-42.371	-143.406	168.073	16.534	-145.365	-137.444	-20.924	-35.602	-140.698	-136.659	-133.591	-128.110	-47.097	-131.596	-8191	255	
36026.781	1	1	0	0	0.21182	0.17899	0.13513	0.089566	0.099973	0.015909	0.27639	0.11114	0.27141	0.14632	0.30335	0.27476	0.23317	0.15675	0.16849	0.17085	-1.9417	-2.2333	-2.1688	-2.4958	-2.2417	-2.2125	-2.4875	-2.0375	-2.375	-2.1562	-2.2146	-2.3229	-2.1813	-2.075	-2.4021	-1.8292	-147.338	191.712	-124.233	-34.344	30.241	106.889	47.486	124.300	-53.602	193.584	-112.513	177.368	-133.645	-140.223	-122.176	152.658	0.0010979	0.00039723	9.6822e-05	475.98	5.5378e-05	2.7735e-06	434.21	202.1	7.8192e-06	8.1584e-05	208.14	87.957	90.554	43.283	3.723e-06	41.239	0.00054078	0.00050422	0.00013577	485.41	9.0975e-05	4.7712e-06	442.29	207.59	4.8774e-06	0.00022077	213.1	90.344	93.338	45.113	5.0897e-06	44.69	53.273	-62.392	-68.954	-143.059	186.603	-56.140	-144.946	-137.159	-27.482	-12.654	-140.609	-136.594	-133.514	-128.400	-30.556	-131.979	-8191	255	
36026.879	1	1	0	0	0.24336	0.25395	0.24623	0.041294	0.18107	0.075779	0.2288	0.19635	0.18137	0.090294	0.096962	0.23679	0.1933	0.28768	0.091959	0.05051	-1.8979	-2.2646	-1.8708	-2.3875	-2.075	-2.0146	-2.4542	-2.0896	-2.0938	-2.4771	-2.025	-2.3729	-2.3104	-2.0146	-2.5104	-2.1167	-45.963	-151.254	19.841	-80.008	-95.806	-72.666	62.195	25.149	73.774	46.641	171.572	-148.957	162.356	64.928	-124.080	195.009	0.0011392	0.00042978	0.00014242	476.85	0.0001137	4.5218e-06	436.79	203.38	6.3274e-06	4.0711e-05	210.74	89.619	91.607	44.146	3.558e-06	42.134	0.00054201	0.00055949	0.00015404	487.55	0.00018575	5.6905e-06	445.43	208.83	4.718e-06	4.3259e-05	223	92.184	94.405	45.93	5.075e-06	47.681	53.942	-74.637	-83.807	-143.169	180.827	-17.730	-145.361	-137.481	-6.846	-5.349	-140.420	-136.546	-133.742	-128.039	-24.758	-131.602	-8191	255	
36026.973	1	1	0	0	0.00731	0.20248	0.071139	0.15407	0.1998	0.10704	0.15305	0.33468	0.069977	0.017829	0.050724	0.15435	0.44898	0.12668	0.18809	0.16544	-1.6792	-2.275	-1.975	-2.3042	-2.3	-1.875	-2.5208	-2.1	-2.1063	-2.3583	-1.9604	-2.3125	-2.4062	-2.0687	-2.5438	-2.1125	-87.807	-31.749	-136.694	127.643	162.777	24.719	16.950	-95.258	193.162	73.152	-53.719	36.039	-138.917	108.311	-17.552	85.704	0.0011932	0.00040239	0.00011058	477.71	5.335e-05	3.6153e-06	443.19	204.63	2.2405e-06	4.1092e-06	218.47	91.982	93.008	44.796	3.213e-06	43.445	0.00055655	0.00044593	0.00015191	487.46	8.7385e-05	5.5957e-06	450.87	210.01	4.6148e-06	5.0007e-06	247.86	94.308	95.696	46.707	5.1528e-06	46.814	53.549	-72.785	-57.442	-142.971	196.697	-21.463	-145.124	-137.322	-73.675	-11.036	-140.400	-136.477	-133.552	-128.185	-47.224	-132.064	-8191	255	
36027.094	1	1	0	0	0.11067	0.2502	0.16547	0.10517	0.15776	0.23422	0.21044	0.28234	0.088966	0.15052	0.24321	0.25003	0.1208	0.19734	0.26834	0.11066	-1.6625	-2.3167	-1.9667	-2.4854	-2.3792	-2.1188	-2.3271	-2.3625	-2.15	-2.475	-1.9792	-2.1875	-2.325	-1.9333	-2.4813	-2.3625	108.750	158.391	-102.603	-58.147	168.750	200.849	-143.076	133.817	163.530	106.091	-82.170	-48.237	115.687	-69.260	137.020	-38.540	0.0011655	0.00054332	0.0001429	482.56	1.4839e-05	3.8429e-06	446.25	205.33	5.5443e-06	3.2253e-06	216.63	91.249	93.16	44.844	3.1942e-06	42.656	0.00055763	0.00047053	0.00018166	489.71	0.00014596	5.8485e-06	453.58	210.46	4.7832e-06	5.0484e-06	231.8	93.599	95.506	46.622	5.2374e-06	47.716	53.863	-60.272	-63.521	-143.144	29.598	-15.084	-145.231	-137.337	-20.582	-14.555	-140.366	-136.861	-133.435	-128.050	-17.447	-132.081	-8191	255	
36027.191	1	1	0	0	0.21166	0.31467	0.20144	0.22445	0.081515	0.033408	0.065416	0.21287	0.32029	0.15274	0.090623	0.095736	0.12534	0.10582	0.45598	0.17214	-1.7437	-2.3729	-1.8792	-2.1854	-2.3646	-1.9062	-2.3604	-2.1771	-2.0875	-2.3771	-2.125	-2.2854	-2.4875	-2.0271	-2.2687	-2.2146	-79.309	-50.417	81.642	153.833	-91.899	126.149	-105.016	112.227	21.147	-96.296	130.705	-124.701	-103.518	-100.488	183.941	129.980	0.0011654	0.00045589	0.00012675	476.08	5.6979e-06	3.9385e-05	439.8	204.7	6.6519e-06	3.4228e-06	216.98	91.356	93.184	45.007	5.0822e-06	42.717	0.00059099	0.000448	0.0001539	486.79	2.7806e-05	5.4378e-05	450.04	210.62	5.4495e-06	4.7739e-06	246.36	93.413	95.709	46.728	5.2124e-06	46.274	54.007	-79.610	-72.144	-143.216	11.219	-135.331	-145.190	-137.400	-38.610	-0.643	-140.420	-136.611	-133.604	-128.192	-30.633	-132.426	-8191	255	
36027.285	1	1	0	0	0.1312	0.19977	0.1182	0.17235	0.17251	0.068594	0.10872	0.090019	0.14816	0.17476	0.3047	0.26522	0.070637	0.21773	0.090578	0.10684	-1.3625	-2.2792	-2.0208	-2.3937	-2.2375	-2.0646	-2.2729	-2.3208	-1.9562	-2.3563	-1.9021	-2.25	-2.4083	-2.1542	-2.3042	-2.4583	172.184	-7.248	-109.037	194.996	72.317	122.096	122.568	58.556	-111.516	48.672	161.644	40.613	-40.470	105.127	1.860	200.656	0.0011171	0.00046437	0.00011354	478.75	5.042e-06	8.9219e-05	442.88	203.69	5.2687e-06	4.145e-06	215.04	90.943	93.17	44.991	4.9512e-06	42.819	0.00057281	0.00048335	0.00019179	487.83	4.5359e-06	0.00022278	448.94	209.07	5.3686e-06	5.1487e-06	232.3	93.355	95.447	46.785	5.3963e-06	48.072	53.129	-88.123	-62.923	-143.166	-44.726	-129.206	-145.227	-137.751	-22.665	-9.902	-140.111	-137.025	-133.339	-128.227	-55.631	-131.611	-8191	255	
36027.383	1	1	0	0	0.099311	0.16807	0.20829	0.098806	0.43148	0.1004	0.36813	0.13585	0.18578	0.33345	0.32993	0.1767	0.13812	0.0093025	0.19456	0.097922	-1.6104	-2.2	-2.1542	-2.2562	-2.5333	-2.0625	-2.3229	-2.4271	-1.9042	-2.5271	-2.2333	-2.1188	-2.4979	-2.2729	-2.2396	-2.4313	43.966	-35.431	188.108	-1.843	-104.573	53.787	148.573	195.023	55.815	124.250	-73.596	-130.341	84.106	151.329	163.368	-127.614	0.0011773	0.00030869	0.00011498	476.59	4.936e-06	4.1625e-05	442.23	204.21	5.1896e-06	3.7136e-06	217.27	91.525	92.884	44.868	3.5738e-06	43.467	0.00060833	0.0004642	0.00014871	486.74	4.5163e-06	0.00011771	450.02	209.31	5.9729e-06	5.0932e-06	250.82	93.529	95.317	46.775	5.1415e-06	45.616	53.451	-69.462	-75.544	-143.199	-51.595	-121.559	-144.858	-137.510	-57.816	-5.637	-139.528	-136.984	-133.567	-128.106	-18.085	-132.145	-8191	255	
36027.477	1	1	0	0	0.30897	0.10226	0.099891	0.24335	0.21717	0.21932	0.32287	0.29488	0.18588	0.084718	0.2321	0.028746	0.059534	0.14066	0.19358	0.24902	-1.6042	-2.3646	-2.2625	-2.0417	-2.5438	-2.3042	-2.4375	-2.3208	-1.9188	-2.3	-2.1708	-2.0396	-2.3479	-2.2375	-2.325	-2.4313	198.378	201.247	197.792	48.963	103.282	1.553	-92.887	164.231	-24.818	97.174	-88.760	-110.360	192.085	158.842	-72.673	-6.137	0.0018073	0.00034368	0.00010414	476.11	5.6953e-06	0.00010369	444.97	203.3	5.7123e-06	4.6375e-06	214.83	90.241	91.557	44.597	2.6886e-06	42.56	0.0038675	0.00048976	0.00017933	486	4.6241e-06	0.00024374	450.5	208.39	5.8003e-06	5.3288e-06	232.2	92.352	94.335	46.322	4.9619e-06	44.085	7.331	-58.362	-57.045	-143.284	-0.140	-121.282	-145.237	-137.597	-63.620	-23.024	-140.136	-136.887	-133.733	-128.407	-31.361	-132.497	-8191	255	
36027.574	1	1	0	0	0.25848	0.10917	0.14174	0.13789	0.031572	0.28382	0.083609	0.29747	0.27896	0.10492	0.28638	0.3698	0.093826	0.17706	0.4029	0.085386	-1.6479	-2.0625	-2.3312	-2.0812	-2.3542	-2.1479	-2.1479	-2.3375	-2.0708	-2.4	-2.3688	-1.9979	-2.4188	-2.2396	-2.1583	-2.4271	82.450	168.798	107.126	58.592	85.042	-4.132	189.630	182.908	-133.062	-150.544	73.678	156.748	141.010	125.174	-117.774	54.362	0.0025782	0.00042151	9.2986e-05	473.77	5.8721e-06	5.5333e-05	431.64	201.26	5.9212e-06	4.2758e-06	212.27	88.67	91.886	44.792	5.3392e-06	42.501	0.012475	0.00045823	0.00014648	481.4	4.4162e-06	0.00012082	437.68	206.36	6.9891e-06	4.8012e-06	240.46	91.007	94.308	46.475	5.3462e-06	43.996	-68.968	-68.767	-73.570	-143.358	-52.046	-109.278	-145.208	-137.468	-28.702	26.483	-139.297	-136.804	-133.761	-128.036	-23.187	-132.332	-8191	255	
36027.695	1	1	0	0	0.10731	0.078851	0.073076	0.13121	0.1213	0.26132	0.12011	0.19676	0.18797	0.10352	0.014069	0.03074	0.15738	0.11332	0.1309	0.15788	-1.6479	-2.1396	-2.3937	-2.0875	-2.3583	-2.3917	-2.0083	-2.4729	-2.0771	-2.2062	-2.2521	-1.9896	-2.3229	-2.3771	-2.0542	-2.4729	45.636	91.882	40.246	163.499	-56.042	-34.360	-116.782	189.363	121.849	-133.179	181.691	21.915	-13.153	39.825	101.115	-145.636	0.0012132	0.00032019	0.00010619	474.72	5.4783e-06	0.00010519	432.37	201.6	7.1951e-06	4.2643e-06	210.08	90.035	91.894	44.694	4.425e-06	42.98	0.0062463	0.00046342	0.00014842	483.44	4.4336e-06	0.00024168	441.17	206.85	5.9976e-06	4.8839e-06	217.41	94.781	94.677	46.519	5.7453e-06	44.343	-34.009	-72.567	-72.112	-143.365	-49.768	-103.799	-145.022	-137.244	-24.617	5.459	-139.878	-136.715	-133.301	-128.140	-23.261	-133.021	-8191	255	
36027.789	1	1	0	0	0.23804	0.28034	0.042715	0.47073	0.19064	0.17977	0.050174	0.15325	0.17001	0.080773	0.16069	0.18112	0.27349	0.36746	0.086515	0.087539	-1.6354	-2.0729	-2.4625	-2.0271	-2.4667	-2.2583	-1.9146	-2.5708	-2.1458	-2.3021	-2.2188	-2	-2.3917	-2.3583	-2.2438	-2.425	-35.677	-56.355	-134.821	202.468	168.386	121.385	-56.659	174.655	29.099	-85.789	148.098	203.228	146.746	131.809	-111.826	96.459	0.0028215	0.00041383	8.9388e-05	479.48	5.9153e-06	4.4625e-05	440.99	202.84	5.6695e-06	2.0898e-06	212.5	92.444	92.695	44.849	4.5519e-06	43.404	0.012074	0.00046082	0.00012376	486.17	4.5958e-06	0.00011428	448.64	208.33	7.0428e-06	4.8956e-06	216.59	102.46	95.108	46.716	5.367e-06	44.918	-47.114	-60.012	-77.883	-143.331	-48.561	-97.669	-145.181	-137.483	-60.107	1.487	-140.569	-136.218	-133.695	-128.045	-38.460	-132.457	-8191	255	
36027.887	1	1	0	0	0.16679	0.21589	0.13561	0.37545	0.23432	0.049104	0.13622	0.33202	0.12985	0.29279	0.26282	0.065205	0.20742	0.14447	0.18084	0.19876	-1.7271	-2.0062	-2.3312	-2.1042	-2.1479	-2.3333	-2.0229	-2.3396	-2.15	-2.0229	-2.5312	-2.1354	-2.5	-2.3625	-1.9583	-2.1625	158.234	96.427	175.904	125.910	180.760	-109.419	154.134	190.755	-127.993	-9.604	91.166	88.071	-116.582	170.428	-37.728	13.983	0.0013929	0.00031245	0.00011394	479.13	4.2633e-06	3.1936e-05	449.69	204.63	8.5551e-06	4.0073e-06	215.04	92.353	93.025	45.175	5.9297e-06	43.499	0.0058901	0.00045788	0.0001259	488.86	4.3918e-06	0.00018199	456.41	209.53	5.5304e-06	5.3083e-06	219.17	98.857	95.493	46.966	6.3749e-06	45.138	-15.434	-74.742	-68.600	-143.278	-34.140	-35.814	-145.864	-137.308	-25.943	-3.985	-140.570	-136.389	-133.751	-128.274	-42.180	-132.365	-8191	255	
36027.980	1	1	0	0	0.14804	0.17958	0.073926	0.19922	0.15973	0.13345	0.14248	0.16337	0.16014	0.04608	0.11596	0.17964	0.055446	0.11038	0.44619	0.14045	-1.8188	-2.0312	-2.3771	-2.0687	-2.3917	-2.2896	-2.0458	-2.4708	-2.4562	-2.1688	-2.4042	-2.2562	-2.2146	-2.4604	-1.9917	-2.3667	0.044	-6.387	127.362	168.863	-77.873	46.658	-32.094	-16.016	-61.454	51.196	53.591	120.735	73.579	179.306	196.664	181.910	0.0030383	0.00022773	0.00010865	478.3	5.4812e-06	2.4908e-05	441.21	202.21	6.7929e-06	2.4021e-06	209.81	90.795	92.36	44.802	3.8589e-06	42.649	0.011794	0.00053852	0.00013253	486.8	4.5643e-06	2.4861e-05	462.75	207.68	6.242e-06	5.908e-06	214.23	101.13	94.615	46.547	6.2652e-06	44.188	-29.018	-79.826	-62.504	-143.351	-33.480	-24.383	-145.113	-137.495	-40.897	42.529	-140.622	-135.962	-133.859	-128.340	-44.176	-132.476	-8191	255	
#DATA ENDS
