BOXY.EXE: ISS Imagent and Oximeter Data Acquisition Program Version 0.80
Ascii Record File

#ACQ INFORMATION
2  Detector Channels 
16  External MUX Channels 
1  Auxiliary Channels 
5000  Waveform (CCF) Frequency (Hz)
1  Waveforms Skipped 
30  Waveforms Averaged 
1  Cycles Averaged 
16  Acquisitions per Waveform 
10.0806  Updata Rate (Hz) 

#FILE INFORMATION
TRUE -- External MUX Channel results are PARSED.
FALSE -- AC DC and Phase are NOT grouped.
TRUE -- Companion Program Settings File CREATED.
FALSE -- AC data not excluded
FALSE -- DC data not excluded
FALSE -- Phase data not excluded
FALSE -- Auxillary Chn. data not excluded
Tab delimiters

#CALIBRATION STATE
TRUE -- Waveform Calibration Values APPLIED.


#AUX CALIBRATION VALUES
Val Type	aux-1	

Term	1.0000e+00	
Factor	0.0000e+00	


#WF CALIBRATION VALUES
A = Detector Channel
Val Type	A-AC1	A-AC2	A-AC3	A-AC4	A-AC5	A-AC6	A-AC7	A-AC8	A-AC9	A-AC10	A-AC11	A-AC12	A-AC13	A-AC14	A-AC15	A-AC16	A-DC1	A-DC2	A-DC3	A-DC4	A-DC5	A-DC6	A-DC7	A-DC8	A-DC9	A-DC10	A-DC11	A-DC12	A-DC13	A-DC14	A-DC15	A-DC16	A-Ph1	A-Ph2	A-Ph3	A-Ph4	A-Ph5	A-Ph6	A-Ph7	A-Ph8	A-Ph9	A-Ph10	A-Ph11	A-Ph12	A-Ph13	A-Ph14	A-Ph15	A-Ph16	

Term	0.00000e+00	0.00000e+00	0.00000e+00	0.00000e+00	0.00000e+00	0.00000e+00	0.00000e+00	0.00000e+00	0.00000e+00	0.00000e+00	0.00000e+00	0.00000e+00	0.00000e+00	0.00000e+00	0.00000e+00	0.00000e+00	0.00000e+00	0.00000e+00	0.00000e+00	0.00000e+00	0.00000e+00	0.00000e+00	0.00000e+00	0.00000e+00	0.00000e+00	0.00000e+00	0.00000e+00	0.00000e+00	0.00000e+00	0.00000e+00	0.00000e+00	0.00000e+00	0.00000e+00	0.00000e+00	0.00000e+00	0.00000e+00	0.00000e+00	0.00000e+00	0.00000e+00	0.00000e+00	0.00000e+00	0.00000e+00	0.00000e+00	0.00000e+00	0.00000e+00	0.00000e+00	0.00000e+00	0.00000e+00	
Factor	1.00000e+00	1.00000e+00	1.00000e+00	1.00000e+00	1.00000e+00	1.00000e+00	1.00000e+00	1.00000e+00	1.00000e+00	1.00000e+00	1.00000e+00	1.00000e+00	1.00000e+00	1.00000e+00	1.00000e+00	1.00000e+00	1.00000e+00	1.00000e+00	1.00000e+00	1.00000e+00	1.00000e+00	1.00000e+00	1.00000e+00	1.00000e+00	1.00000e+00	1.00000e+00	1.00000e+00	1.00000e+00	1.00000e+00	1.00000e+00	1.00000e+00	1.00000e+00	X	X	X	X	X	X	X	X	X	X	X	X	X	X	X	X	

B = Detector Channel
Val Type	B-AC1	B-AC2	B-AC3	B-AC4	B-AC5	B-AC6	B-AC7	B-AC8	B-AC9	B-AC10	B-AC11	B-AC12	B-AC13	B-AC14	B-AC15	B-AC16	B-DC1	B-DC2	B-DC3	B-DC4	B-DC5	B-DC6	B-DC7	B-DC8	B-DC9	B-DC10	B-DC11	B-DC12	B-DC13	B-DC14	B-DC15	B-DC16	B-Ph1	B-Ph2	B-Ph3	B-Ph4	B-Ph5	B-Ph6	B-Ph7	B-Ph8	B-Ph9	B-Ph10	B-Ph11	B-Ph12	B-Ph13	B-Ph14	B-Ph15	B-Ph16	

Term	0.00000e+00	0.00000e+00	0.00000e+00	0.00000e+00	0.00000e+00	0.00000e+00	0.00000e+00	0.00000e+00	0.00000e+00	0.00000e+00	0.00000e+00	0.00000e+00	0.00000e+00	0.00000e+00	0.00000e+00	0.00000e+00	0.00000e+00	0.00000e+00	0.00000e+00	0.00000e+00	0.00000e+00	0.00000e+00	0.00000e+00	0.00000e+00	0.00000e+00	0.00000e+00	0.00000e+00	0.00000e+00	0.00000e+00	0.00000e+00	0.00000e+00	0.00000e+00	-1.95322e+02	-1.31664e+02	-1.35514e+02	-1.83507e+02	-9.14092e+01	-5.93382e+01	-1.57852e+02	-1.62015e+02	-9.36674e+01	-6.54123e+01	-1.76234e+02	-1.71211e+02	-1.81698e+02	-1.78091e+02	-8.68548e+01	-1.51000e+02	
Factor	4.07472e-05	1.94038e-04	5.01386e-05	4.44362e-01	1.74494e-06	1.67566e-06	1.66286e-01	6.31906e-02	2.08765e-06	1.66474e-06	2.13853e-01	2.89034e-02	2.88634e-02	9.13376e-03	1.93495e-06	1.32076e-02	3.19055e-06	3.47120e-06	9.67125e-07	2.29784e-01	3.78690e-08	3.80063e-08	8.23849e-02	3.32550e-02	3.75348e-08	3.80335e-08	1.05779e-01	1.48008e-02	1.52162e-02	4.84302e-03	3.76195e-08	6.77457e-03	X	X	X	X	X	X	X	X	X	X	X	X	X	X	X	X	



#DISTANCE SETTINGS
A = Detector Channel
A-1	A-2	A-3	A-4	A-5	A-6	A-7	A-8	A-9	A-10	A-11	A-12	A-13	A-14	A-15	A-16	

2.5000e+00	3.0000e+00	2.5000e+00	3.0000e+00	2.0000e+00	3.0000e+00	1.5000e+00	3.0000e+00	3.0000e+00	3.0000e+00	3.0000e+00	3.0000e+00	3.0000e+00	3.0000e+00	1.5000e+00	3.0000e+00	

B = Detector Channel
B-1	B-2	B-3	B-4	B-5	B-6	B-7	B-8	B-9	B-10	B-11	B-12	B-13	B-14	B-15	B-16	

1.0000e+01	1.0000e+01	1.0000e+01	1.4400e+00	1.0000e+01	1.0000e+01	1.5100e+00	1.9400e+00	1.0000e+01	1.0000e+01	1.9900e+00	2.4900e+00	2.4100e+00	2.9000e+00	1.0000e+01	2.9800e+00	




#DATA BEGINS
time	group	step	mark	flag	A-AC1	A-AC2	A-AC3	A-AC4	A-AC5	A-AC6	A-AC7	A-AC8	A-AC9	A-AC10	A-AC11	A-AC12	A-AC13	A-AC14	A-AC15	A-AC16	A-DC1	A-DC2	A-DC3	A-DC4	A-DC5	A-DC6	A-DC7	A-DC8	A-DC9	A-DC10	A-DC11	A-DC12	A-DC13	A-DC14	A-DC15	A-DC16	A-Ph1	A-Ph2	A-Ph3	A-Ph4	A-Ph5	A-Ph6	A-Ph7	A-Ph8	A-Ph9	A-Ph10	A-Ph11	A-Ph12	A-Ph13	A-Ph14	A-Ph15	A-Ph16	B-AC1	B-AC2	B-AC3	B-AC4	B-AC5	B-AC6	B-AC7	B-AC8	B-AC9	B-AC10	B-AC11	B-AC12	B-AC13	B-AC14	B-AC15	B-AC16	B-DC1	B-DC2	B-DC3	B-DC4	B-DC5	B-DC6	B-DC7	B-DC8	B-DC9	B-DC10	B-DC11	B-DC12	B-DC13	B-DC14	B-DC15	B-DC16	B-Ph1	B-Ph2	B-Ph3	B-Ph4	B-Ph5	B-Ph6	B-Ph7	B-Ph8	B-Ph9	B-Ph10	B-Ph11	B-Ph12	B-Ph13	B-Ph14	B-Ph15	B-Ph16	aux-1	digaux	

1160.706	1	1	0	256	0.085019	0.11609	0.061776	0.19508	0.066078	0.17079	0.31144	0.092954	0.05499	0.21967	0.099951	0.14108	0.30548	0.1574	0.20659	0.048454	-2.6	-3.2354	-2.8063	-3.2458	-3.0729	-2.9792	-3.3104	-3.1208	-2.9646	-3.1	-2.5854	-3.25	-2.975	-2.8667	-3.3896	-2.9604	1.050	316.547	229.946	163.232	46.808	151.631	261.673	214.103	85.439	107.207	240.600	221.650	166.314	-14.109	87.766	70.302	0.00020097	0.00054392	7.1481e-05	1069	1.1943e-06	3.5156e-06	1154.6	238.32	5.1605e-06	5.2049e-06	298.96	85.703	68.579	19.795	3.5834e-06	27.425	0.00026091	0.00024753	7.6161e-05	1050.3	2.9191e-06	2.7508e-06	1140.2	236.81	3.0007e-06	2.6995e-06	294.32	85.855	68.658	20.107	3.0794e-06	27.811	61.004	31.830	50.946	-32.023	127.257	102.637	-32.003	-24.614	57.402	135.730	-25.265	-18.332	-17.970	-10.409	81.218	-11.450	-8191	255	
1160.827	1	1	0	0	0.18721	0.22252	0.029676	0.03688	0.17643	0.2413	0.30969	0.21067	0.040661	0.10092	0.11567	0.15132	0.039696	0.13631	0.21546	0.25138	-2.4854	-3.1958	-2.7979	-3.1729	-3.1125	-2.9479	-3.4354	-3.0875	-2.7917	-3.2792	-3.0479	-3.1167	-3.1437	-2.9417	-3.1833	-2.9229	157.272	82.429	203.738	259.191	174.179	289.944	259.481	276.021	10.360	-7.411	261.839	-41.862	269.617	48.921	145.871	235.643	0.00019654	0.00022595	7.6908e-05	1076.5	3.5177e-06	3.9861e-06	1153.2	237.17	2.7044e-06	1.3604e-06	296.71	84.743	67.939	19.604	4.0638e-06	27.146	0.00027221	0.00024601	8.2355e-05	1050.7	2.8316e-06	2.836e-06	1136.2	234.67	2.8982e-06	2.8571e-06	292.95	85.379	68.261	19.965	3.2514e-06	27.648	56.759	37.162	119.589	-32.125	34.065	101.543	-31.909	-24.573	72.799	152.011	-24.711	-17.990	-17.393	-10.897	83.438	-10.965	-8191	255	
1160.923	1	1	0	0	0.1289	0.087289	0.18076	0.016023	0.089804	0.18612	0.19743	0.23025	0.22821	0.32434	0.12396	0.32366	0.20241	0.21249	0.10213	0.18412	-2.4313	-3.0062	-2.7917	-3.0667	-3.0812	-2.8083	-3.4688	-2.9417	-3.1458	-3.2938	-3.0896	-3.0187	-3.2583	-2.9208	-3.025	-2.975	213.502	-28.423	-12.741	166.814	101.224	248.204	305.091	185.841	297.886	57.954	15.536	59.645	14.049	44.400	119.577	-42.519	0.00026769	0.00078495	4.1599e-05	1071.6	1.2275e-06	2.2152e-06	1147.9	237.1	1.3024e-06	2.6096e-06	295.46	84.873	68.082	19.782	2.8546e-06	27.067	0.00026208	0.00026379	8.5641e-05	1047	2.8254e-06	2.9019e-06	1134.6	234.94	2.7759e-06	2.9501e-06	292.42	85.086	68.196	19.997	3.1545e-06	27.47	66.534	34.409	125.934	-32.450	-29.775	-13.606	-32.037	-24.803	109.664	98.378	-24.583	-18.523	-17.668	-10.444	73.104	-11.233	-8191	255	
1161.019	1	1	0	0	0.26412	0.15296	0.0021781	0.069131	0.30226	0.1836	0.34265	0.17122	0.15107	0.10967	0.17945	0.40376	0.13356	0.0097847	0.19994	0.14269	-2.5417	-3.2021	-2.9542	-2.9479	-3.1542	-2.8271	-3.3563	-3.05	-2.9667	-3.2625	-3.0354	-2.9708	-3.25	-2.9313	-3.0771	-3.0812	282.119	259.418	82.746	147.903	142.705	-36.232	219.438	311.655	287.444	159.898	26.212	254.674	197.834	136.593	167.098	274.946	0.00014212	0.00027667	0.00021865	1071	2.6579e-06	4.2261e-06	1148.7	235.45	3.7171e-06	5.6823e-06	295.11	84.657	68.175	19.508	3.8301e-06	26.898	0.00024683	0.00027235	7.7817e-05	1043.7	2.5776e-06	3.0162e-06	1133.9	233.39	2.6374e-06	2.9421e-06	289.98	84.731	67.815	19.86	2.8248e-06	27.306	61.948	57.644	60.483	-32.012	51.450	118.171	-32.138	-24.648	27.871	97.973	-24.948	-18.099	-17.800	-10.692	71.290	-11.352	-8191	255	
1161.115	1	1	0	0	0.30231	0.10748	0.10072	0.14817	0.024188	0.24752	0.10073	0.087097	0.093745	0.26715	0.17887	0.096237	0.27467	0.17097	0.17293	0.067762	-2.3583	-3.1625	-2.975	-2.7938	-3.1917	-2.8625	-3.1188	-3.2021	-2.9313	-3.1958	-3.1458	-2.8812	-3.1354	-2.8104	-3.1146	-3.1854	145.287	-36.393	268.491	315.646	95.469	90.303	194.119	296.127	-25.032	271.180	205.111	-10.954	314.437	18.249	152.940	-23.174	0.00031099	0.0005198	0.00015947	1058.1	4.4968e-06	5.4807e-06	1140.3	233.5	2.7177e-06	3.8551e-06	291.93	83.647	67.877	19.559	4.7453e-06	27.114	0.00023544	0.00026461	7.0354e-05	1035.6	2.4284e-06	2.9437e-06	1126.9	231.25	2.509e-06	2.837e-06	287.8	83.96	67.624	19.857	2.4899e-06	27.276	73.641	36.565	67.142	-32.208	75.939	189.482	-31.891	-24.751	101.614	86.312	-24.675	-18.291	-17.905	-10.893	35.745	-11.074	-8191	255	
1161.210	1	1	0	0	0.14818	0.19784	0.10996	0.23058	0.14344	0.15459	0.26371	0.21532	0.041052	0.29836	0.10492	0.17771	0.32176	0.26435	0.017825	0.42308	-2.2917	-3.3167	-2.8271	-2.8417	-3.2562	-3	-3.1937	-3.2417	-2.7646	-3.0687	-3.0375	-2.8375	-3.0583	-2.9271	-3.1104	-3.3187	-22.365	177.630	199.830	281.042	42.805	115.831	270.067	294.492	229.950	142.983	215.318	134.615	30.337	-25.269	240.921	243.694	0.00014534	0.0008702	8.1326e-05	1059.4	3.2327e-06	1.7033e-06	1138.6	233.65	4.5273e-06	1.5891e-06	293.49	84.414	67.498	19.596	5.4306e-06	27.071	0.00022708	0.00024364	6.1828e-05	1029.4	2.4635e-06	2.7199e-06	1123.9	231.74	2.5517e-06	2.7328e-06	287.5	84.414	67.63	19.848	2.4735e-06	27.303	84.329	75.169	32.498	-32.186	101.032	53.261	-31.831	-24.544	173.748	31.639	-24.862	-18.391	-17.773	-11.063	210.744	-11.178	-8191	255	
1161.308	1	1	0	0	0.052899	0.080863	0.13986	0.057692	0.071039	0.094992	0.094522	0.099275	0.19669	0.21045	0.21318	0.075168	0.11888	0.24194	0.27083	0.11928	-2.6229	-3.0708	-3.0792	-2.8521	-3.3333	-2.9417	-3.2687	-3.3208	-2.7	-3.2104	-3.0479	-2.9833	-3.2687	-2.9562	-2.8833	-3.2271	32.673	97.020	242.284	109.902	36.958	135.271	40.933	297.452	287.594	39.837	269.344	218.439	282.117	192.048	75.830	32.395	0.00016055	0.00073743	0.00010996	1059.6	2.1077e-06	1.0114e-06	1145	233.91	2.7361e-06	4.1192e-06	296.41	84.358	67.912	19.526	5.1819e-06	26.84	0.00025377	0.00025088	6.359e-05	1030.6	2.8029e-06	2.6756e-06	1124.4	231.95	2.8838e-06	2.7434e-06	288.91	84.236	67.941	19.759	2.4848e-06	27.277	43.141	69.711	137.581	-32.291	123.430	60.209	-32.093	-24.842	57.355	112.600	-25.314	-18.433	-17.926	-10.993	84.115	-10.904	-8191	255	
1161.427	1	1	0	0	0.225	0.21847	0.3108	0.13444	0.20241	0.27461	0.26191	0.25824	0.1674	0.1438	0.30595	0.18971	0.090388	0.2449	0.22945	0.16832	-2.45	-3.0563	-3.1688	-2.9104	-3.2333	-2.7646	-2.9042	-3.1854	-2.8917	-2.9562	-3.2229	-3.0708	-3.2604	-2.9396	-2.7979	-3.1729	247.757	5.357	-29.879	238.695	159.026	82.103	-42.439	261.964	16.607	212.765	-34.717	213.667	143.583	278.329	292.179	317.187	0.00018951	0.00042764	0.00012089	1058.5	3.4657e-06	1.3226e-06	1135.2	233.81	8.2961e-07	1.1973e-06	290.6	84.054	67.414	19.395	2.607e-06	26.682	0.00027069	0.00024097	6.0157e-05	1031.1	2.8402e-06	2.5898e-06	1120.2	231.12	2.7947e-06	2.4195e-06	285.58	83.965	67.48	19.677	2.203e-06	27.105	57.718	100.249	294.559	-32.556	139.095	275.733	-31.917	-24.486	271.544	136.571	-25.127	-18.262	-17.963	-10.574	83.573	-11.062	-8191	255	
1161.523	1	1	0	0	0.19869	0.1741	0.21302	0.3505	0.31802	0.035229	0.14419	0.13206	0.25571	0.36353	0.21469	0.13707	0.12342	0.33428	0.16576	0.23236	-2.3083	-2.9437	-2.9396	-2.9208	-3.1417	-3.125	-3.1167	-3.3208	-3.0708	-3.0708	-3.3083	-3.0104	-3.2958	-3.0167	-2.7521	-3.2271	84.333	123.652	-29.866	306.145	68.585	274.413	-36.113	299.053	232.420	304.648	127.446	-25.728	-8.792	286.062	272.194	218.334	0.00016623	0.00045675	5.2086e-05	1048.7	3.2784e-06	5.6569e-06	1134.5	232.55	1.9294e-06	1.7249e-06	292.74	83.832	66.799	19.523	5.2993e-06	27.022	0.0002391	0.00021108	5.3984e-05	1024.8	2.5801e-06	2.212e-06	1116.9	230.16	2.4925e-06	2.2299e-06	284.71	83.759	66.956	19.66	2.1771e-06	27.227	94.739	39.016	63.588	-31.888	74.527	126.586	-31.838	-24.436	20.153	179.841	-25.094	-18.020	-17.905	-10.505	130.010	-10.952	-8191	255	
1161.619	1	1	0	0	0.38351	0.13603	0.15999	0.099782	0.13203	0.11053	0.088417	0.03635	0.30505	0.12868	0.12358	0.039561	0.18834	0.096499	0.15173	0.049961	-2.4833	-2.9833	-3.2417	-2.9583	-3.1437	-2.9292	-2.9604	-3.3	-3.0604	-2.9833	-3.0771	-2.9271	-3.0125	-3.2458	-2.9396	-3.1417	-40.299	81.369	21.046	-3.627	271.712	83.087	181.390	269.205	-26.008	-19.264	311.842	-13.846	115.896	268.242	256.406	-19.294	0.00018679	0.00058186	0.00011377	1051	2.4785e-06	4.0143e-06	1131.6	232.81	3.5768e-06	3.7396e-06	289.22	83.45	66.917	19.332	6.3867e-07	26.897	0.00022216	0.00019179	5.2628e-05	1025.5	2.3122e-06	2.0663e-06	1113.3	229.83	2.2677e-06	2.1036e-06	284.16	83.707	66.836	19.603	2.221e-06	27.119	103.211	24.669	59.075	-31.970	66.270	112.924	-31.992	-24.376	48.781	184.681	-25.431	-18.222	-17.468	-10.536	279.868	-10.872	-8191	255	
1161.715	1	1	0	0	0.12206	0.16794	0.2234	0.10691	0.33598	0.11351	0.28508	0.17161	0.20108	0.20541	0.15923	0.099235	0.11012	0.20614	0.059227	0.037543	-2.5583	-2.9521	-3.0833	-3	-2.9583	-3.1854	-3.0208	-3.1562	-3.0771	-2.8	-3.1562	-2.9437	-2.9729	-3.1271	-2.7979	-3.0854	239.837	219.923	310.465	281.456	47.698	89.909	288.024	-41.160	116.590	298.362	229.027	294.236	115.640	252.951	215.081	273.200	0.00021387	0.00014374	5.4795e-05	1047.3	3.1274e-06	2.2299e-06	1129	231.62	4.0529e-06	1.7001e-06	292.93	83.596	67.225	19.456	4.1917e-06	26.635	0.00020957	0.00019304	5.5575e-05	1019.2	2.1588e-06	2.0453e-06	1110.3	229.62	2.2015e-06	2.1207e-06	285.53	83.454	66.924	19.586	2.3546e-06	27.045	75.714	-28.248	65.869	-32.429	45.016	257.788	-31.698	-24.334	68.975	124.919	-24.723	-17.987	-17.799	-10.761	136.090	-11.168	-8191	255	
1161.836	1	1	0	0	0.063884	0.099116	0.24445	0.1682	0.12583	0.22685	0.28849	0.065384	0.22538	0.11192	0.17768	0.13277	0.17087	0.23862	0.22789	0.206	-2.6562	-2.9042	-3.2438	-2.9042	-2.9729	-3.1979	-3.0167	-3.1396	-3.1375	-2.9979	-3.4062	-3.1667	-2.9313	-3.225	-2.8542	-3.0521	314.499	-0.646	170.708	266.691	-32.913	219.179	269.133	150.590	185.008	186.583	205.728	-32.963	294.938	-42.561	38.104	-5.903	0.00021206	0.00031268	4.8099e-05	1045.5	4.1568e-06	2.5971e-06	1130.5	231.13	4.2803e-06	3.744e-06	290.88	83.131	66.758	19.273	1.7958e-06	26.87	0.0002105	0.00019799	6.3484e-05	1017.9	2.2923e-06	2.1319e-06	1111.8	228.88	2.2677e-06	2.2307e-06	285.37	83.26	66.914	19.574	2.6034e-06	27.077	56.812	43.177	7.366	-32.003	110.507	75.894	-31.837	-24.613	86.630	98.230	-24.462	-18.026	-17.702	-10.504	148.125	-10.953	-8191	255	
1161.907	1	1	0	0	0.10429	0.15916	0.090385	0.18145	0.084888	0.16397	0.28023	0.19476	0.15943	0.22263	0.38552	0.076258	0.28314	0.12583	0.057691	0.057897	-2.8333	-2.8792	-3.1354	-3.0979	-2.9583	-3.2542	-3.1958	-3.1396	-3.3042	-2.8292	-3.2708	-3.0667	-2.8771	-3.3333	-3.0729	-3.1562	-35.622	217.733	108.752	317.139	317.371	-35.378	-35.888	308.666	138.964	174.412	314.156	282.066	-26.182	203.868	209.029	-6.097	0.0001948	0.00045125	0.00012636	1045.9	6.1669e-06	3.4313e-06	1126.8	231.69	7.1527e-06	2.9375e-06	291.64	83.437	66.963	19.365	4.7335e-07	26.998	0.00020927	0.00021446	6.7147e-05	1021.1	2.2398e-06	2.2733e-06	1111.8	229.08	2.2574e-06	2.3916e-06	285.48	83.579	66.825	19.555	2.6748e-06	27.118	55.212	58.264	79.717	-32.110	90.323	103.356	-31.785	-24.433	106.619	19.222	-24.471	-18.451	-17.421	-10.638	-40.445	-11.091	-8191	255	
1162.004	1	1	0	0	0.29002	0.13193	0.11526	0.12294	0.20968	0.076104	0.17572	0.083842	0.28174	0.16142	0.11268	0.21056	0.15408	0.0054671	0.22778	0.075676	-2.8563	-2.8917	-3.275	-3.1271	-2.9229	-3.1437	-3.1396	-2.9729	-3.2521	-2.8937	-3.125	-3.3271	-2.8354	-3.1063	-2.9792	-2.9771	31.151	170.987	102.376	5.178	4.429	116.895	241.679	70.358	244.532	87.039	-27.403	302.549	289.566	248.608	65.507	79.652	0.00026345	0.00019027	7.6319e-05	1047.3	3.5432e-06	2.4127e-06	1127.3	231.78	1.205e-06	4.9193e-06	289.94	83.29	67.088	19.421	4.1893e-06	26.759	0.00021153	0.00022557	6.8194e-05	1020.7	2.3453e-06	2.5338e-06	1112.1	229.18	2.2695e-06	2.5257e-06	284.95	83.407	66.807	19.638	2.5774e-06	26.999	67.954	137.954	194.224	-31.908	66.193	122.876	-31.903	-24.786	136.600	109.305	-24.814	-17.704	-17.491	-10.772	139.540	-10.949	-8191	255	
1162.100	1	1	0	0	0.24167	0.19335	0.11343	0.10227	0.074457	0.3348	0.33659	0.43899	0.11415	0.12072	0.062352	0.12901	0.14083	0.15056	0.1503	0.17597	-2.9	-2.8563	-3.0542	-3.3563	-2.9708	-3.2646	-3.2396	-2.9437	-3.2167	-2.8917	-3.1375	-3.4167	-3.0062	-3.2354	-3.0938	-2.9458	114.687	190.207	139.222	146.839	18.779	52.564	225.692	290.361	144.438	-19.453	243.721	162.247	110.607	-12.178	44.481	-26.261	0.00027697	0.00078268	0.00013874	1046.7	7.1727e-07	3.67e-06	1127.9	230.53	6.0185e-06	4.5997e-06	290.29	83.445	66.421	19.37	5.0079e-06	26.684	0.000215	0.00024377	6.3909e-05	1018.6	2.3386e-06	2.5414e-06	1110.8	229.65	2.2555e-06	2.6271e-06	284.17	83.341	66.681	19.606	2.3976e-06	26.96	56.178	50.949	11.311	-32.118	232.139	153.716	-31.971	-24.501	122.020	103.683	-24.718	-18.037	-17.590	-10.130	73.412	-10.859	-8191	255	
1162.219	1	1	0	0	0.15095	0.16817	0.10427	0.19774	0.22134	0.03311	0.24389	0.082382	0.082393	0.1488	0.25732	0.20506	0.31959	0.40904	0.14353	0.22595	-2.9	-2.9771	-2.9958	-3.0187	-2.7271	-3.2271	-3.0583	-2.9708	-3.2833	-3.0479	-3.0042	-3.325	-2.85	-3.2417	-3.0896	-2.9083	16.103	228.814	140.749	50.630	250.524	277.747	253.529	288.307	183.728	65.586	166.379	184.394	277.019	310.419	59.955	235.798	0.0002871	0.00052211	0.00010856	1048.2	2.4321e-06	2.9139e-06	1127.8	230.8	3.4944e-06	3.2144e-06	291.14	83.365	66.609	19.337	3.952e-06	26.508	0.00021594	0.0002417	5.9506e-05	1018	2.4227e-06	2.6005e-06	1109.2	229.14	2.3969e-06	2.6369e-06	283.54	83.18	66.843	19.595	2.3138e-06	26.883	68.930	65.478	103.438	-32.255	59.211	51.015	-32.078	-24.759	61.895	154.322	-24.990	-18.124	-18.028	-10.342	44.228	-11.861	-8191	255	
1162.315	1	1	0	0	0.10069	0.15488	0.35783	0.18802	0.19902	0.099225	0.14511	0.063127	0.16147	0.27821	0.14441	0.087499	0.16275	0.22085	0.21436	0.24546	-2.875	-2.9854	-2.8667	-3.1583	-2.8854	-3.1167	-3.2458	-2.9208	-3.2354	-3.0146	-2.8021	-3.2083	-3.0354	-2.9979	-3.0208	-2.8937	46.357	-39.463	293.218	80.175	154.775	94.969	-12.852	243.499	106.313	-38.709	258.255	-7.284	285.333	123.865	78.231	182.864	0.00026933	0.00029922	0.00011111	1050.2	4.511e-07	4.1874e-06	1129.4	232.68	5.3867e-06	5.761e-06	288.67	82.946	67.075	19.358	3.2923e-06	26.691	0.00023083	0.00023604	5.8745e-05	1019.9	2.6445e-06	2.5435e-06	1111.4	229.2	2.6785e-06	2.6074e-06	284.56	83.149	66.989	19.669	2.5145e-06	27.036	64.944	134.322	44.984	-31.958	295.092	85.048	-31.957	-24.415	161.803	110.233	-25.140	-17.942	-17.593	-10.257	96.562	-10.967	-8191	255	
1162.411	1	1	0	0	0.12222	0.18714	0.05434	0.15953	0.12524	0.17904	0.28363	0.23544	0.044938	0.2483	0.23005	0.081537	0.24143	0.17704	0.060357	0.21898	-2.6792	-2.9688	-2.9208	-3.1792	-2.9354	-2.975	-3.3229	-2.7542	-3.1021	-2.9042	-2.9104	-3.2792	-2.9958	-3.1	-3.2188	-2.8812	66.417	5.034	-19.679	257.205	284.447	103.385	284.645	-21.133	219.304	73.080	278.977	298.802	-29.388	171.569	264.499	11.954	0.00021967	0.00071197	4.5868e-05	1043.8	2.5994e-06	3.9555e-06	1128	231.09	3.335e-06	3.9827e-06	288.31	83.406	67.545	19.369	1.5898e-06	26.566	0.00026494	0.00024392	6.5746e-05	1020.5	2.9905e-06	2.738e-06	1111.7	229.71	3.0718e-06	2.758e-06	285.07	83.666	67.391	19.62	2.5864e-06	27.032	42.183	37.500	114.117	-31.835	66.446	50.735	-32.128	-24.988	150.533	104.826	-24.967	-18.428	-17.983	-10.552	140.103	-11.706	-8191	255	
1162.507	1	1	0	0	0.14918	0.17774	0.28789	0.25336	0.052175	0.099116	0.20991	0.19247	0.2805	0.09464	0.1663	0.046326	0.21549	0.21475	0.086397	0.12635	-2.7917	-2.9354	-2.7042	-3.3729	-2.9604	-3.15	-3.3104	-2.9729	-3.2562	-3.1396	-2.8937	-3.2562	-2.9125	-2.9125	-3.0896	-2.9896	131.059	283.457	-10.237	-15.448	-24.242	240.654	225.039	290.447	229.414	107.741	35.188	245.061	260.321	-27.657	115.721	210.238	0.00020568	0.00036861	0.00012783	1055.4	3.7817e-06	2.4558e-06	1129.9	232.38	2.4623e-06	5.1772e-06	289.51	83.392	66.911	19.4	2.1362e-06	26.569	0.00028347	0.0002509	6.5694e-05	1027.4	3.1093e-06	2.7031e-06	1115	230.09	3.0328e-06	2.7891e-06	285.12	83.758	67.251	19.631	2.5788e-06	27.081	58.554	88.784	45.401	-31.950	102.624	109.119	-32.151	-24.523	150.977	113.226	-25.394	-18.399	-17.799	-10.668	163.724	-11.205	-8191	255	
1162.603	1	1	0	0	0.16375	0.10659	0.13221	0.14719	0.11461	0.17948	0.19927	0.19087	0.031618	0.18048	0.2897	0.053333	0.03172	0.14287	0.13003	0.12677	-2.6167	-3.3521	-2.85	-3.3167	-3.0292	-3.0104	-3.2875	-3.0604	-3.1146	-3.2646	-2.8729	-3.1583	-3.1396	-2.9	-3.3333	-2.9188	13.412	241.865	309.784	-35.638	287.533	305.927	240.959	-19.619	105.876	85.772	-30.996	117.908	265.857	5.707	237.273	100.550	0.00016664	0.00029409	9.0605e-05	1054	3.4382e-06	3.1054e-06	1133	233.29	4.8984e-06	1.0525e-06	288.8	83.085	66.946	19.245	5.6869e-06	26.49	0.00027429	0.00024711	6.8775e-05	1032.7	2.9565e-06	2.7267e-06	1116.6	231.02	2.987e-06	2.6792e-06	285.61	83.667	67.088	19.57	2.9087e-06	27.078	70.407	6.859	29.871	-31.991	39.159	174.927	-32.064	-24.562	-37.075	143.664	-25.476	-18.190	-17.853	-10.712	113.724	-11.307	-8191	255	
1162.699	1	1	0	0	0.15701	0.18544	0.10312	0.20729	0.049204	0.24513	0.4182	0.48133	0.21098	0.22087	0.20219	0.32714	0.17109	0.14764	0.2695	0.10015	-2.7479	-3.0625	-2.7333	-3.1625	-3.0896	-2.9208	-3.3812	-2.9292	-2.8812	-3.1417	-2.8375	-3.0646	-3.0917	-2.9188	-3.3833	-2.8417	110.434	1.486	107.593	-4.348	259.067	6.104	267.856	283.777	183.035	304.871	118.250	284.482	-23.036	296.380	195.827	10.536	0.0002192	0.00061092	0.00015886	1058.2	2.2303e-06	5.4919e-06	1142.6	232.71	1.5548e-06	3.6957e-07	288.8	83.222	66.826	19.267	3.5953e-06	26.498	0.00027607	0.00025495	7.7445e-05	1035.5	3.0399e-06	2.859e-06	1122.1	231.36	3.0162e-06	2.836e-06	286.73	83.707	66.833	19.527	3.2178e-06	26.947	67.634	68.621	83.049	-32.177	135.937	121.673	-32.014	-24.698	110.688	257.523	-25.248	-18.183	-17.912	-10.759	188.290	-11.067	-8191	255	
1162.795	1	1	0	0	0.069263	0.11316	0.019154	0.32201	0.15583	0.17504	0.26817	0.085774	0.14345	0.18295	0.1138	0.041778	0.083292	0.1674	0.24134	0.24397	-2.6562	-3.0708	-2.9146	-3.0875	-3.1458	-2.8333	-3.3646	-3.0896	-2.9688	-3.1958	-2.8	-2.9667	-3.0771	-3.0104	-3.2042	-3.1479	103.057	-6.401	-2.500	275.500	52.559	109.944	213.634	141.585	118.154	128.563	46.029	-39.784	305.106	229.719	3.624	-0.470	0.0002308	0.00056042	1.8945e-05	1057.9	2.9739e-06	5.7624e-06	1134.9	232.7	1.1795e-06	6.7026e-06	290.73	82.842	66.877	19.29	2.6491e-06	26.519	0.00027923	0.0002619	8.4176e-05	1037.1	3.008e-06	2.9639e-06	1123.2	230.95	3.029e-06	3.0065e-06	288.78	83.422	66.732	19.511	3.4633e-06	26.944	54.347	41.764	17.679	-32.235	186.871	156.881	-31.977	-24.653	267.879	56.842	-25.053	-18.051	-17.985	-10.564	57.582	-11.165	-8191	255	
1162.916	1	1	0	0	0.22315	0.28991	0.094271	0.32157	0.12294	0.12592	0.070338	0.36142	0.10635	0.13377	0.40812	0.21164	0.22562	0.096534	0.17314	0.10643	-2.6021	-2.9917	-2.8771	-3.0354	-3.1729	-2.6354	-3.2021	-2.9375	-2.9813	-3.2125	-2.7875	-3.2021	-3.2292	-3.0875	-3.2208	-3.1437	27.700	290.451	58.112	204.855	245.770	101.103	281.456	213.041	127.457	219.844	268.899	304.012	278.359	223.275	125.254	23.061	0.00016223	0.00055521	0.00010101	1058.8	1.234e-06	1.8914e-06	1138.3	233.58	2.5695e-06	8.0479e-07	293.19	82.528	66.613	19.091	4.2362e-06	26.395	0.00028242	0.00027655	9.2008e-05	1035.9	3.0186e-06	3.1613e-06	1124.8	231.12	2.9765e-06	3.1188e-06	288.66	82.888	66.471	19.48	3.5357e-06	26.841	45.425	68.663	283.800	-32.081	-34.657	154.421	-31.911	-24.618	58.580	231.571	-24.567	-18.114	-18.083	-10.516	127.614	-11.017	-8191	255	
1163.011	1	1	0	0	0.16262	0.14097	0.19004	0.1409	0.14947	0.18433	0.071714	0.080418	0.091999	0.0095038	0.026144	0.19532	0.15101	0.034051	0.098127	0.26377	-2.4188	-3.2271	-2.8229	-2.9979	-3.1708	-2.8667	-3.3042	-2.9771	-2.7521	-3.2417	-3.0312	-2.9458	-3.2667	-2.8396	-3.2125	-3.1688	185.904	303.016	153.579	229.740	249.980	-28.936	160.043	189.579	169.400	56.670	-38.126	165.894	257.476	-41.445	311.667	210.477	0.00013784	0.00043932	7.2898e-05	1060	3.5436e-06	7.9481e-07	1136.1	231.33	2.6603e-06	3.7807e-06	288.23	82.996	66.072	19.129	3.265e-06	26.587	0.00026674	0.00029476	8.9407e-05	1035.7	2.8802e-06	3.313e-06	1122.7	230.34	3.0169e-06	3.3068e-06	285.11	82.869	66.357	19.428	3.4448e-06	26.842	84.333	1.479	52.316	-31.958	48.681	143.694	-31.883	-24.658	-11.174	181.100	-25.217	-17.964	-17.965	-10.538	223.413	-11.193	-8191	255	
1163.108	1	1	0	0	0.22532	0.19204	0.43337	0.20286	0.015505	0.073577	0.064298	0.246	0.23635	0.15256	0.21213	0.36076	0.11334	0.045388	0.10016	0.13701	-2.4729	-3.225	-2.8479	-3.1625	-3.2292	-2.8979	-3.2625	-3.4167	-2.7438	-3.1542	-2.9479	-3.0187	-3.1729	-2.85	-3.0521	-3.225	8.828	-19.789	-26.337	-23.809	52.074	140.277	238.232	261.098	14.624	224.808	11.247	-19.414	32.721	228.919	170.158	207.594	0.00027876	0.00085558	1.3153e-05	1058.2	4.7121e-06	5.3403e-06	1130.8	231.24	5.4296e-06	2.2012e-06	291.51	83.123	65.764	19.006	5.2775e-06	26.292	0.00027167	0.0003259	8.7819e-05	1035.5	3.039e-06	3.5344e-06	1121.5	229.62	3.1253e-06	3.5129e-06	287.14	82.928	66.262	19.438	3.241e-06	26.722	59.295	65.116	234.753	-32.188	140.032	108.762	-32.003	-24.715	223.745	92.009	-24.824	-18.213	-17.912	-10.623	45.591	-11.103	-8191	255	
1163.203	1	1	0	0	0.14189	0.073201	0.16139	0.042662	0.14389	0.11762	0.17579	0.20107	0.073057	0.28295	0.25835	0.092865	0.14118	0.16153	0.017478	0.1061	-2.3063	-3.0479	-2.9417	-2.9854	-3.2542	-2.8833	-3.1792	-3.2583	-2.8292	-3.1583	-3.125	-2.8333	-3.1875	-3.0104	-2.9042	-3.2396	256.451	-16.912	-39.115	274.082	176.107	263.094	282.732	294.480	277.828	112.584	145.215	205.155	246.633	-22.389	204.249	186.418	0.00014734	0.00059453	0.00012571	1065.6	4.4557e-06	8.4232e-06	1136.5	231.14	5.3964e-06	3.3965e-06	289.04	82.271	65.582	19.131	2.4428e-06	26.18	0.00029553	0.00032399	8.064e-05	1037.9	3.22e-06	3.5847e-06	1123.8	229.79	3.2942e-06	3.4607e-06	285.89	82.667	66.063	19.368	3.0636e-06	26.624	80.945	57.000	111.137	-32.202	198.159	84.708	-31.894	-24.654	112.710	105.867	-25.264	-18.225	-17.559	-10.743	167.052	-11.666	-8191	255	
1163.299	1	1	0	0	0.24125	0.11336	0.1267	0.22984	0.092932	0.12299	0.19299	0.19858	0.099733	0.28706	0.18786	0.088861	0.13052	0.049169	0.21044	0.20409	-2.425	-3.1125	-3.1229	-2.8208	-3.2938	-2.9062	-3.0875	-3.3167	-2.9104	-3.0458	-3.0563	-2.8479	-3.1271	-2.9396	-2.85	-3.2604	187.077	66.829	135.991	25.140	292.365	-28.474	279.553	228.482	176.978	228.405	311.293	265.862	-13.194	125.001	68.712	134.550	0.00027574	0.00072431	1.5995e-05	1056.6	2.2784e-06	2.7358e-06	1146	229.43	3.9264e-06	5.9039e-06	287.55	82.695	66.086	19.043	2.4265e-06	26.187	0.00029615	0.00030388	7.6248e-05	1033.4	3.2784e-06	3.265e-06	1121.7	228.85	3.3284e-06	3.1512e-06	283.64	82.397	66.254	19.292	2.8353e-06	26.61	72.070	17.706	309.404	-32.330	146.589	70.122	-32.085	-24.459	127.332	63.906	-25.014	-17.980	-17.614	-10.749	93.027	-11.023	-8191	255	
1163.395	1	1	0	0	0.11679	0.10007	0.1003	0.12341	0.085098	0.10789	0.22838	0.27879	0.13463	0.21714	0.090605	0.12054	0.1168	0.16416	0.20795	0.16258	-2.5417	-3.0417	-2.9708	-3.0583	-3.2521	-2.9708	-3.0396	-3.3104	-2.8354	-2.9229	-3.2479	-3.0042	-3.3125	-3.0187	-2.8812	-3.1833	179.337	-31.841	195.857	235.763	298.353	114.247	315.082	261.774	227.120	186.264	-28.291	276.744	310.494	143.268	62.055	297.115	0.00023939	0.00089439	3.9083e-05	1060.5	2.0078e-06	3.0012e-06	1136.7	230.42	2.038e-06	5.9846e-06	285.28	81.676	65.441	18.948	4.3393e-06	26.253	0.0003017	0.00027815	7.1978e-05	1030.7	3.3348e-06	3.0631e-06	1117.8	228.8	3.4161e-06	2.9629e-06	282.91	82.209	66.028	19.263	2.8446e-06	26.645	84.691	37.987	192.027	-32.196	128.169	242.946	-31.903	-24.990	-4.313	43.608	-25.080	-18.032	-17.642	-10.153	-7.568	-11.074	-8191	255	
1163.516	1	1	0	0	0.23542	0.26056	0.1964	0.16162	0.15919	0.096932	0.1851	0.2362	0.099797	0.11574	0.10671	0.11169	0.22193	0.09219	0.20028	0.10456	-2.5229	-2.9396	-3.1312	-2.9729	-3.0792	-3.0042	-3.2021	-3.3937	-2.9125	-3.0979	-3.2417	-3.0042	-3.2542	-3.0729	-2.8104	-3.4	79.936	167.002	128.624	-40.788	238.696	197.139	278.909	-41.579	285.340	-21.735	79.765	-31.972	241.070	88.559	-13.681	314.107	0.00017945	0.00024695	1.9327e-05	1052.8	2.7287e-06	3.0004e-06	1136.8	231.83	2.925e-06	6.3967e-07	285.99	82.41	65.374	19.068	2.2098e-06	26.266	0.00030136	0.00027026	7.2986e-05	1034.1	3.3351e-06	2.932e-06	1118.7	229.02	3.2727e-06	2.9414e-06	283.24	82.391	65.941	19.255	2.7892e-06	26.653	68.989	286.692	264.578	-32.079	93.011	112.072	-31.902	-24.754	227.122	109.347	-25.004	-18.199	-17.458	-10.578	91.847	-10.589	-8191	255	
1163.612	1	1	0	0	0.14263	0.2063	0.228	0.28522	0.2253	0.1184	0.18777	0.071684	0.14015	0.12609	0.20266	0.094739	0.032533	0.15076	0.24153	0.22979	-2.6521	-2.9229	-3.1958	-2.9562	-3.05	-3.1688	-2.9833	-3.3083	-3.0354	-3.125	-3.3792	-3.0625	-3.1292	-3.2062	-3.0458	-3.4292	41.310	127.264	218.488	251.527	306.216	236.793	213.709	200.993	221.769	286.931	259.636	260.563	148.825	285.326	78.038	269.401	0.00023444	0.00039845	0.00014755	1053.1	3.186e-07	3.3126e-06	1132.4	228.45	1.1671e-06	3.7164e-06	288.59	81.894	65.53	18.884	4.0516e-06	26.161	0.00028461	0.0002597	7.1956e-05	1033.6	3.1424e-06	2.8385e-06	1117.9	228.33	3.0852e-06	2.8254e-06	282.9	82.035	65.85	19.158	2.8635e-06	26.608	63.820	134.391	37.323	-32.598	101.904	131.775	-32.183	-24.768	143.423	5.518	-24.854	-17.975	-17.477	-10.612	110.985	-11.498	-8191	255	
1163.708	1	1	0	0	0.10921	0.21884	0.095898	0.27698	0.14033	0.19092	0.12117	0.31992	0.19474	0.080553	0.019153	0.16611	0.046218	0.12869	0.2547	0.22771	-2.8	-2.9083	-3.325	-2.9208	-3.1188	-3.225	-3.1167	-3.0438	-3.1417	-2.9688	-3.3521	-2.6833	-3.0417	-3.0458	-2.8812	-3.0104	-28.807	68.427	32.565	269.089	65.193	146.958	170.110	271.514	150.787	133.402	196.251	85.569	56.022	53.909	9.582	219.480	0.00020952	0.00045798	0.00015284	1056.1	6.1218e-06	3.3476e-06	1127	229.98	8.4851e-06	4.6187e-06	288.6	81.557	65.664	19.067	4.2541e-06	25.985	0.00026948	0.00025296	7.1771e-05	1033	2.8892e-06	2.6532e-06	1115.5	228.44	2.8014e-06	2.6974e-06	282.62	82.133	65.547	19.217	2.9674e-06	26.582	43.178	32.357	81.268	-32.129	99.227	206.682	-31.896	-24.724	120.546	67.141	-25.012	-17.943	-17.846	-10.939	130.246	-11.123	-8191	255	
1163.780	1	1	0	0	0.18676	0.17939	0.028914	0.23018	0.1741	0.19741	0.1084	0.35569	0.047623	0.23368	0.18044	0.15012	0.27784	0.19122	0.17356	0.064171	-2.6729	-2.8854	-3.1979	-3.0771	-3.0833	-3.2104	-3.0021	-3.3042	-3.1	-2.8	-3.3521	-3.1125	-2.8312	-3.1583	-2.7792	-3.2062	96.486	-33.528	105.129	275.546	9.241	152.034	278.303	241.073	256.629	246.736	188.760	75.018	262.206	305.704	143.699	190.924	0.00019965	0.000305	9.6292e-05	1047.4	7.0141e-06	6.8555e-07	1128.8	227.32	3.1753e-06	2.5101e-06	284.53	81.327	65.024	19.059	6.9013e-06	25.91	0.00025715	0.00024214	7.5976e-05	1029.3	2.771e-06	2.6311e-06	1114.4	227.34	2.7367e-06	2.6851e-06	282.64	81.704	65.458	19.161	3.2184e-06	26.443	72.329	259.593	46.324	-32.005	105.120	141.756	-32.128	-24.489	84.404	37.366	-24.665	-18.366	-18.129	-10.334	138.199	-11.122	-8191	255	
1163.900	1	1	0	0	0.075773	0.21731	0.17614	0.092113	0.17229	0.25046	0.11435	0.025699	0.202	0.20097	0.11818	0.27317	0.091712	0.14899	0.15272	0.30137	-2.7687	-2.6813	-3.1646	-2.875	-2.95	-3.2208	-3.1229	-2.9229	-3.1521	-2.8792	-3.2812	-2.8042	-2.8396	-3.3771	-2.9208	-3.1042	179.912	258.425	123.718	260.766	-38.281	119.551	260.969	104.729	201.166	57.845	150.882	198.979	62.499	-29.220	120.284	103.900	0.00016313	0.00078328	0.00011063	1054.1	1.6812e-06	5.681e-06	1131.5	228.28	2.8219e-06	6.7985e-06	287.41	80.866	65.367	18.899	4.0114e-07	25.744	0.00024616	0.000248	8.0247e-05	1028.4	2.7599e-06	2.729e-06	1112.7	226.9	2.6382e-06	2.8331e-06	282.99	81.509	65.393	19.133	3.1368e-06	26.364	68.080	40.641	-20.452	-32.081	58.836	219.097	-32.009	-24.490	43.418	142.527	-25.243	-18.018	-17.579	-10.413	2.458	-10.927	-8191	255	
1163.996	1	1	0	0	0.31257	0.16786	0.20928	0.12455	0.085058	0.11836	0.27869	0.14028	0.05871	0.092307	0.21176	0.084609	0.10976	0.2075	0.23761	0.11942	-2.8229	-2.9417	-3.0312	-3.1542	-2.8312	-3.1354	-3.0625	-3.2646	-3.3167	-2.8875	-3.2229	-3.2146	-2.7167	-3.0417	-3.0333	-2.9688	68.198	163.059	177.768	207.978	-40.603	95.565	275.348	162.741	103.857	80.172	42.559	254.115	223.799	279.042	19.368	-3.964	0.00026447	0.00040261	0.00019964	1042.7	1.2305e-06	6.5203e-06	1131.9	227.73	1.1359e-06	3.8645e-06	288.91	81.441	65.83	19.011	2.2247e-06	26.249	0.00024095	0.00026091	7.9989e-05	1023.2	2.7203e-06	2.9563e-06	1111.5	226.68	2.6546e-06	3.0216e-06	282.61	81.79	65.619	19.189	3.0567e-06	26.515	38.979	66.869	45.908	-32.207	132.069	117.956	-32.119	-24.624	64.868	108.576	-24.846	-18.175	-17.775	-10.182	121.842	-11.442	-8191	255	
1164.091	1	1	0	0	0.057338	0.25318	0.10827	0.024954	0.1993	0.32889	0.43706	0.14936	0.17333	0.19048	0.057834	0.039987	0.15014	0.10449	0.13229	0.11951	-2.8646	-2.7021	-3.1958	-3.1188	-3.0312	-3.2562	-3.0542	-2.9917	-3.2917	-3.0125	-3.0854	-3.1083	-3.0062	-3.0979	-2.9562	-2.8958	93.400	290.843	266.912	69.312	31.701	106.091	258.472	235.606	87.790	291.978	-10.527	228.736	130.662	307.340	70.122	289.774	0.00019676	0.00040854	0.00017951	1052	1.2794e-07	7.913e-06	1125.4	228.02	1.5651e-06	9.9877e-07	286.86	81.59	65.321	18.92	3.1461e-06	25.955	0.00024186	0.00028672	7.6534e-05	1023.2	2.7029e-06	3.1913e-06	1111.7	226.32	2.7404e-06	3.1546e-06	281.33	81.578	65.298	19.271	2.9166e-06	26.437	72.830	66.397	80.771	-32.034	287.044	120.512	-32.222	-24.474	65.193	83.750	-24.892	-18.408	-17.636	-10.572	155.784	-10.943	-8191	255	
1164.189	1	1	0	0	0.024951	0.17123	0.089945	0.23007	0.037587	0.13156	0.27874	0.31465	0.027095	0.17957	0.32046	0.072813	0.094012	0.16895	0.13562	0.11186	-3.0208	-2.9188	-3.1042	-3.1792	-2.8021	-3.1479	-3.1125	-2.7729	-3.0021	-3.0771	-3.0729	-3.175	-3.0062	-3.2271	-3.0708	-2.8021	255.045	299.710	232.577	256.743	145.052	-18.499	271.377	235.777	79.145	29.035	-26.837	199.601	-34.109	267.483	272.108	121.725	0.0002142	0.0001533	9.977e-05	1047.3	4.3184e-06	1.6602e-06	1130.3	229	4.8025e-06	4.6914e-06	284.96	80.883	65.256	19.072	6.079e-06	25.818	0.00025977	0.0002909	7.2526e-05	1024.9	2.9092e-06	3.2124e-06	1113	226.77	2.9304e-06	3.2204e-06	281.3	81.493	65.517	19.281	2.8266e-06	26.277	56.098	-23.477	-11.360	-32.232	78.550	113.004	-32.055	-24.789	-26.778	82.545	-25.110	-18.084	-17.620	-10.750	97.235	-11.040	-8191	255	
1164.308	1	1	0	0	0.17806	0.14706	0.36044	0.027532	0.31472	0.19186	0.12502	0.097548	0.21701	0.091098	0.20399	0.045235	0.206	0.10899	0.15193	0.23683	-2.6021	-2.9042	-2.7958	-3.1896	-2.7729	-3.1229	-3.0062	-2.9458	-3.2875	-2.9813	-3.0312	-3.1729	-3.0896	-3.2313	-3.0667	-2.8521	46.773	288.817	256.726	56.204	32.561	-31.486	249.888	52.506	52.724	254.841	176.999	38.349	63.174	223.209	193.215	294.593	0.00026501	0.00012664	6.127e-05	1051.7	7.5731e-06	5.3162e-06	1131.3	228.68	3.3682e-06	1.1719e-06	285.58	81.045	65.553	19.028	5.5853e-06	26.259	0.0002867	0.00029478	7.4968e-05	1025.6	3.2298e-06	3.1952e-06	1112.6	227.18	3.2416e-06	3.1745e-06	282.09	81.493	65.61	19.243	2.7836e-06	26.536	60.642	8.306	109.341	-32.426	126.877	83.389	-31.955	-24.456	142.347	-11.028	-25.581	-18.399	-17.278	-10.641	53.261	-10.880	-8191	255	
1164.379	1	1	0	0	0.16386	0.062973	0.061392	0.13291	0.098067	0.23577	0.17056	0.040162	0.20335	0.17652	0.17422	0.27698	0.29498	0.25104	0.1316	0.19689	-2.9333	-2.9104	-2.9021	-3.4479	-2.9688	-3.2646	-3.3896	-2.8771	-3.2021	-2.9417	-2.8333	-3.2333	-2.8917	-2.9813	-3.1833	-2.9625	-34.442	111.277	-8.402	242.027	15.951	146.337	-33.227	182.500	189.125	85.232	192.397	247.185	92.929	161.295	190.468	165.175	0.00024446	0.00053102	5.5996e-05	1053.6	5.0262e-06	4.8573e-06	1132.4	227.58	1.492e-06	5.6389e-06	283.66	81.367	64.792	18.816	4.0285e-06	25.89	0.00030423	0.00028143	7.2478e-05	1026.4	3.3414e-06	3.0209e-06	1113.9	226.57	3.3969e-06	3.0209e-06	280.87	81.971	65.549	19.153	2.7722e-06	26.453	62.436	22.044	-7.640	-31.932	72.096	167.339	-31.939	-24.468	291.504	121.286	-25.010	-17.943	-17.818	-10.603	16.516	-11.316	-8191	255	
1164.475	1	1	0	0	0.22044	0.13143	0.27154	0.15347	0.2192	0.13242	0.10712	0.179	0.090629	0.34472	0.17912	0.20831	0.038033	0.048168	0.15069	0.29684	-2.7812	-2.9229	-2.8312	-3.2687	-2.7958	-3.0208	-3.2896	-3.0583	-3.1167	-3.1146	-2.9813	-3.2375	-3.1167	-3.2	-3.1917	-2.9188	130.539	100.384	9.794	252.137	195.710	-40.472	248.551	299.201	90.174	-8.999	115.254	190.688	190.839	78.001	276.694	93.877	0.00024753	0.0003709	7.7692e-05	1049.3	1.6466e-06	4.0538e-06	1127.8	228.59	2.3089e-06	4.4093e-06	285.12	81.258	65.15	18.873	3.402e-06	25.941	0.00030108	0.00027091	7.0634e-05	1025.1	3.2945e-06	2.9614e-06	1112.5	227.12	3.2688e-06	2.82e-06	280.93	81.488	65.371	19.06	2.6948e-06	26.461	68.254	1.844	242.865	-32.261	96.747	155.837	-31.966	-24.909	283.981	127.180	-25.325	-18.246	-17.962	-10.783	44.922	-11.205	-8191	255	
1164.596	1	1	0	0	0.17114	0.14224	0.25463	0.19898	0.027975	0.1831	0.06204	0.25161	0.16489	0.063206	0.12281	0.33008	0.097064	0.17989	0.036778	0.11522	-2.5479	-3.0229	-2.8417	-3.2396	-3.0083	-3.1458	-3.5229	-2.9979	-3.0625	-3.1562	-2.925	-3.3458	-2.9708	-3.1375	-3.3333	-3.0458	114.257	75.557	256.128	-7.433	46.186	46.536	239.299	-16.823	79.915	84.515	65.596	203.206	163.720	263.829	156.065	262.405	0.00022654	0.0001527	6.7135e-05	1051	2.4871e-06	2.086e-06	1128.9	227.79	5.592e-06	8.951e-07	286.59	80.741	65.407	18.754	4.6285e-06	26.122	0.00028357	0.00026371	7.27e-05	1027.8	3.1344e-06	2.8616e-06	1111.5	226.81	3.0614e-06	2.8081e-06	282.22	81.504	65.451	19.129	2.8869e-06	26.46	80.868	75.532	257.100	-32.030	43.201	163.525	-32.117	-24.726	46.953	46.358	-25.760	-18.337	-17.954	-10.364	172.500	-11.150	-8191	255	
1164.692	1	1	0	0	0.11025	0.061098	0.053397	0.13955	0.22911	0.063279	0.096418	0.24443	0.10697	0.1745	0.16019	0.15834	0.25095	0.26324	0.05504	0.088047	-2.7062	-3.1833	-2.7375	-3.0958	-2.8854	-2.775	-3.3354	-2.9208	-2.7438	-3.2458	-2.7167	-3.1104	-3.1021	-2.9229	-3.125	-2.9042	14.036	203.524	49.940	247.014	288.137	195.855	312.386	308.890	8.335	56.227	25.708	2.047	8.138	289.987	252.661	81.317	0.00017478	0.00037758	0.00011976	1052.3	2.5722e-06	4.1742e-06	1127.3	227.4	4.7434e-06	7.3173e-07	284.28	81.292	65.332	18.861	9.4412e-06	26.071	0.00027506	0.00025737	7.6222e-05	1030.5	2.9904e-06	2.8271e-06	1112.7	226.62	3.0255e-06	2.7135e-06	281.13	81.64	65.339	19.098	3.1471e-06	26.418	63.397	27.818	183.627	-31.969	136.880	88.697	-31.858	-24.596	66.237	-24.711	-25.016	-17.961	-17.970	-10.288	199.927	-10.828	-8191	255	
1164.788	1	1	0	0	0.22988	0.17086	0.2064	0.266	0.048697	0.2916	0.12734	0.16031	0.035836	0.23964	0.3272	0.24262	0.10509	0.18987	0.088606	0.12117	-2.5854	-3.0729	-2.8833	-3.2021	-3.0833	-2.9667	-3.4792	-3.0104	-2.8312	-3.2062	-2.9208	-2.9167	-3.2833	-2.6625	-3.0938	-2.9167	9.933	-6.855	241.326	195.987	-10.034	-41.167	280.209	235.586	4.904	34.113	180.246	288.808	260.005	298.454	18.757	160.185	0.00031193	0.00041216	4.9358e-05	1048.8	2.6045e-06	4.3076e-06	1134.7	227.89	5.6819e-06	2.9152e-06	286.9	80.626	64.944	18.828	4.5878e-06	25.988	0.00026597	0.00025313	8.3036e-05	1028	2.9524e-06	2.7696e-06	1113.9	226.38	3.0134e-06	2.8443e-06	282.26	81.276	65.155	19.102	3.3397e-06	26.435	64.709	7.182	315.353	-32.578	32.273	178.489	-32.073	-24.668	91.083	152.875	-24.965	-18.239	-17.728	-10.513	55.109	-11.470	-8191	255	
1164.909	1	1	0	0	0.35083	0.13947	0.089634	0.33782	0.057556	0.13402	0.14496	0.40783	0.28745	0.05788	0.13347	0.2781	0.14047	0.21507	0.17125	0.22369	-2.4417	-3.1021	-2.9854	-2.7833	-3.0958	-2.8375	-3.2333	-2.9979	-2.9333	-3.2562	-2.9625	-3.1625	-3.0729	-2.8417	-3.2104	-3.1188	148.441	122.554	248.231	300.356	210.144	136.519	291.936	21.112	20.090	240.126	256.375	22.925	308.415	-11.164	81.090	205.351	0.00020475	0.00042586	0.00013783	1047.3	2.7907e-06	2.194e-06	1131.3	227.69	3.5081e-06	4.3462e-06	282.12	81.033	65.136	18.961	6.3218e-06	25.715	0.00026706	0.00026386	8.8091e-05	1026.5	2.949e-06	3.0463e-06	1115.5	226.63	2.9435e-06	2.9705e-06	281.53	81.58	65.368	19.165	3.3691e-06	26.276	63.776	140.515	68.846	-32.280	70.684	129.111	-32.155	-24.521	108.532	56.209	-25.263	-18.383	-17.503	-10.053	154.317	-11.253	-8191	255	
1165.003	1	1	0	0	0.30357	0.29853	0.33853	0.33759	0.18027	0.19356	0.16255	0.25722	0.12245	0.1348	0.23457	0.26227	0.28848	0.24497	0.085291	0.15731	-2.5667	-3.3375	-2.8812	-3.1917	-3.1729	-2.9479	-3.4604	-3.0563	-2.9813	-3.2833	-3.0208	-3.1875	-3.1792	-2.9583	-3.1229	-3.2604	3.483	177.491	206.030	7.976	311.615	185.175	-18.915	282.403	-27.315	115.756	-8.093	261.982	283.781	-30.014	-13.567	215.565	0.00024473	0.00036384	8.6388e-05	1052.1	2.3743e-06	1.9862e-06	1130.2	229.15	2.7898e-06	1.8771e-06	283.88	80.421	64.894	18.776	4.9864e-06	25.936	0.00025884	0.00028459	8.5069e-05	1024.9	2.7951e-06	3.1996e-06	1114.9	226.81	2.8118e-06	3.1199e-06	281.06	81.199	65.203	19.135	3.1933e-06	26.355	53.947	64.772	168.072	-32.054	47.483	47.413	-31.913	-24.867	36.645	104.085	-25.220	-18.168	-17.877	-10.246	49.136	-10.937	-8191	255	
1165.077	1	1	0	0	0.31025	0.29536	0.21436	0.12687	0.10887	0.37647	0.26333	0.025166	0.19802	0.1162	0.11364	0.23307	0.22192	0.046356	0.10144	0.097971	-2.5083	-3.2562	-2.9917	-2.9542	-3.3875	-2.7875	-3.1625	-3.0583	-2.9062	-3.225	-3.1854	-2.9542	-3.2646	-3.0083	-3.0625	-3.2604	162.846	129.049	257.468	284.371	70.912	219.086	238.036	284.848	75.907	56.883	268.502	266.561	-39.091	-17.721	245.990	117.516	0.0001891	0.00033104	4.9638e-05	1039.6	4.272e-06	6.132e-06	1129.7	228.23	6.5346e-06	2.6617e-06	284.39	80.904	64.774	18.857	7.3026e-06	26.03	0.00025221	0.00029669	7.879e-05	1023.3	2.7611e-06	3.2845e-06	1112	226.32	2.9115e-06	3.253e-06	280.89	81.185	65.078	19.148	2.9797e-06	26.295	59.483	59.121	1.438	-32.018	88.641	126.930	-32.059	-24.603	157.019	152.432	-24.867	-17.856	-17.809	-10.566	141.831	-10.988	-8191	255	
1165.196	1	1	0	0	0.126	0.22757	0.14585	0.025613	0.22674	0.052675	0.17121	0.14752	0.11623	0.084829	0.068459	0.19027	0.17962	0.149	0.11155	0.065973	-2.3958	-3.2458	-3.0312	-2.9688	-3.3167	-2.9125	-3.225	-3.2854	-2.7208	-3.0271	-3.0917	-3.0083	-3.1896	-2.975	-2.9333	-3.3625	113.337	74.835	181.734	-4.803	149.388	45.917	-40.420	33.044	32.367	155.802	197.716	309.071	265.726	64.713	265.972	270.566	0.00023049	0.00081659	0.00015112	1049.1	4.232e-06	3.1042e-06	1123.6	227.28	6.7678e-06	1.6803e-06	281.06	81.125	65.445	18.754	1.1383e-06	25.739	0.00027148	0.00030711	7.415e-05	1023.6	2.9804e-06	3.3031e-06	1109.6	225.31	3.0963e-06	3.2576e-06	280.21	81.389	65.201	19.128	2.936e-06	26.209	59.183	100.299	50.445	-32.238	157.341	169.790	-32.058	-24.970	98.515	83.265	-25.126	-18.372	-17.810	-10.496	41.626	-11.604	-8191	255	
1165.292	1	1	0	0	0.13365	0.067158	0.21494	0.26094	0.16342	0.12655	0.038933	0.081103	0.17237	0.2428	0.15999	0.033844	0.032456	0.15517	0.15586	0.12298	-2.4813	-2.9292	-3.1146	-3.0104	-3.35	-2.775	-3.1625	-3.1583	-2.9146	-2.9813	-3.1833	-2.8458	-3.1792	-3.0687	-3.0062	-3.1604	248.485	32.632	208.487	127.021	202.911	-28.315	91.501	312.232	-33.580	286.083	147.511	255.683	148.846	158.548	303.507	206.997	0.00024273	0.00068839	0.00011824	1045.4	2.4795e-06	6.5207e-06	1129.5	227.44	7.188e-07	2.6898e-06	284.39	80.918	64.914	18.871	1.7594e-06	26.091	0.00028554	0.00029851	7.2685e-05	1023	3.1733e-06	3.174e-06	1111.6	225.33	3.2818e-06	3.1443e-06	279.65	81.117	65.085	19.114	2.826e-06	26.3	48.173	35.781	308.843	-32.133	134.237	163.836	-31.778	-24.786	0.411	190.835	-25.414	-18.025	-17.635	-10.540	56.311	-11.266	-8191	255	
1165.388	1	1	0	0	0.14916	0.29017	0.12254	0.24454	0.17565	0.16918	0.15944	0.14146	0.10853	0.097117	0.32734	0.027242	0.031819	0.099941	0.088819	0.17071	-2.6021	-2.9229	-2.9938	-2.8021	-3.2667	-2.9104	-2.9479	-3.3625	-2.9667	-2.9646	-3.1479	-2.9313	-3.325	-3.0021	-2.8646	-3.2521	304.422	96.240	104.591	213.514	8.785	175.685	237.444	316.933	172.998	255.960	-30.964	294.165	36.853	251.318	16.954	-41.450	0.00017396	0.00051916	0.00015807	1045.9	2.985e-06	1.7255e-06	1127.6	227.55	5.6574e-06	4.148e-06	285.67	80.955	64.466	18.864	6.1138e-07	25.915	0.00029485	0.00028185	7.2738e-05	1020.9	3.3476e-06	3.0639e-06	1111.8	225.94	3.364e-06	3.0112e-06	279.73	81.173	65.215	19.065	2.8699e-06	26.271	64.857	-2.678	5.094	-31.733	294.210	24.634	-32.059	-24.428	232.573	92.469	-25.302	-18.104	-17.677	-10.274	133.947	-11.011	-8191	255	
1165.484	1	1	0	0	0.21905	0.2096	0.085939	0.31079	0.1026	0.19301	0.23222	0.19079	0.25377	0.13373	0.32223	0.051303	0.28346	0.22844	0.10444	0.24771	-2.45	-3.0333	-3.1896	-2.8833	-3.0062	-2.9979	-2.9771	-3.0917	-2.9771	-2.9313	-3.2062	-2.8896	-3.2313	-3.2375	-2.8583	-3.2646	240.471	195.190	259.101	273.390	100.199	290.848	298.124	274.309	56.447	42.711	314.354	303.248	18.947	44.331	228.003	205.989	0.00024978	0.00076349	8.9482e-05	1045.2	3.2579e-06	4.1107e-06	1121.6	226.72	2.9343e-06	3.0697e-06	284.78	80.503	64.906	18.782	5.2517e-06	25.983	0.0003056	0.00027341	7.0052e-05	1023.3	3.3008e-06	2.9718e-06	1108.5	225.98	3.2547e-06	2.8703e-06	278.8	81.222	65.034	19.015	2.8458e-06	26.308	74.476	27.858	19.115	-31.957	101.875	179.471	-32.056	-24.604	188.883	-21.016	-25.069	-18.432	-17.507	-10.895	54.163	-11.026	-8191	255	
1165.605	1	1	0	0	0.17841	0.28024	0.21374	0.27377	0.18319	0.18695	0.2478	0.18714	0.11387	0.16292	0.12251	0.16908	0.16821	0.24238	0.091561	0.12284	-2.475	-2.8771	-3.15	-2.8625	-3.1042	-3.1729	-3.0396	-3.3667	-3.2188	-2.9313	-3.2625	-2.9354	-3.1083	-3.1125	-2.925	-3.2042	-39.068	280.628	128.232	297.970	28.870	307.522	198.702	203.929	244.109	233.819	-8.800	50.481	251.793	227.383	93.251	58.746	0.00019879	0.00053386	4.9409e-05	1041	1.8181e-06	3.3537e-06	1124	227.38	4.159e-06	7.2845e-06	281.98	79.997	64.731	18.698	4.371e-06	25.84	0.00028664	0.00026273	6.9857e-05	1021.4	3.1891e-06	2.8426e-06	1108.3	225.77	3.0627e-06	2.8123e-06	279.14	80.93	65.115	19.052	2.9244e-06	26.317	105.140	42.641	71.144	-31.794	14.535	63.476	-31.873	-24.435	274.698	97.537	-25.547	-18.369	-17.736	-10.477	170.300	-11.481	-8191	255	
1165.676	1	1	0	0	0.1514	0.17291	0.16039	0.2242	0.17194	0.17291	0.09653	0.052092	0.13729	0.22791	0.2139	0.29094	0.32148	0.19712	0.23495	0.38938	-2.6583	-2.7458	-3.0833	-3.0708	-2.9688	-3.1458	-2.9542	-2.9688	-3.1312	-2.8146	-3.0979	-2.8958	-2.9917	-3.1958	-2.6979	-3.0229	268.094	148.717	176.359	244.516	233.702	270.756	275.652	158.035	288.617	170.535	-21.317	-19.198	27.408	-14.047	142.635	-33.914	0.00018458	0.00036116	0.00021118	1043.7	3.6668e-06	4.4663e-06	1120	226.44	8.6291e-06	5.713e-07	281.04	80.707	64.672	18.651	7.067e-06	25.884	0.00027582	0.00025013	7.432e-05	1022.8	2.8737e-06	2.7333e-06	1107	225.06	2.9342e-06	2.7408e-06	279.26	81.079	64.789	19.02	3.0793e-06	26.358	53.486	93.658	67.799	-32.517	78.336	219.517	-32.062	-24.543	168.742	144.915	-25.089	-17.795	-17.499	-10.330	76.907	-10.827	-8191	255	
1165.773	1	1	0	0	0.045248	0.059864	0.18123	0.036585	0.22612	0.087915	0.24549	0.21768	0.046397	0.30226	0.20582	0.14686	0.083035	0.072802	0.064594	0.27385	-2.6042	-2.8187	-3.0083	-3.1792	-3.05	-3.0917	-2.9875	-3.1479	-3.0938	-2.8583	-3.2812	-2.9375	-3.0167	-3.2083	-2.8979	-3.0646	38.266	137.282	70.604	220.244	46.736	146.051	241.335	214.075	116.138	216.732	226.260	43.245	-36.177	255.717	123.223	180.164	0.00032454	0.0004662	0.00016197	1043.7	4.0405e-06	3.672e-06	1126.7	226.75	3.1707e-06	2.9849e-06	282.89	80.65	64.586	18.781	1.4254e-06	25.847	0.00026217	0.00025295	7.8359e-05	1026.7	2.9511e-06	2.6733e-06	1108.7	225.25	2.7604e-06	2.74e-06	278.79	81.184	64.778	18.992	3.2285e-06	26.281	71.854	19.240	59.195	-32.217	86.350	-3.129	-32.033	-24.640	141.165	235.944	-25.023	-18.410	-17.954	-10.489	130.175	-11.409	-8191	255	
1165.869	1	1	0	0	0.016595	0.27478	0.097234	0.096173	0.13059	0.10208	0.014569	0.44684	0.14522	0.19908	0.28498	0.24504	0.053494	0.3145	0.16573	0.12894	-2.7	-2.7562	-3.1104	-2.9688	-2.8667	-3.5125	-2.9083	-3.1292	-3.2708	-2.8667	-3.1604	-2.975	-2.9271	-3.2979	-2.9104	-3.2313	-26.867	25.260	289.562	218.948	88.209	155.270	313.341	295.415	238.922	299.692	245.912	-26.022	292.252	4.793	-36.729	160.936	0.00017792	0.00015427	2.4046e-05	1048.1	3.7356e-06	4.3835e-06	1123.5	226.32	3.5579e-06	1.683e-06	282.48	80.421	64.96	18.914	3.2587e-06	25.614	0.00025718	0.00025943	8.2699e-05	1021.8	2.8566e-06	2.8441e-06	1107.9	224.86	2.7423e-06	2.9082e-06	279.77	80.856	64.865	19.065	3.2997e-06	26.175	68.707	311.999	241.931	-31.997	9.560	75.152	-32.058	-24.713	21.367	99.911	-24.693	-17.998	-17.929	-10.879	9.787	-11.179	-8191	255	
1165.989	1	1	0	0	0.14794	0.15728	0.1322	0.16375	0.11898	0.12076	0.31382	0.11408	0.25296	0.17358	0.19628	0.12547	0.016749	0.18879	0.20457	0.16744	-2.7333	-2.6437	-3.3271	-2.9604	-2.8063	-3.2083	-3.1625	-3.0563	-3.175	-2.8646	-3.2208	-3.2125	-2.7396	-3.2417	-2.9104	-3.1688	93.417	2.760	309.769	22.387	294.881	152.845	249.299	241.401	297.384	117.703	-33.829	272.765	285.565	289.683	3.658	74.132	0.00019349	0.00058883	0.00016641	1045.6	5.952e-06	6.0914e-06	1118.1	225.71	5.4081e-06	1.7473e-06	282.48	80.631	64.228	18.736	5.9336e-06	25.624	0.00025078	0.00027273	7.9838e-05	1019.3	2.7515e-06	3.0604e-06	1105.8	224.37	2.6572e-06	3.0433e-06	278.93	80.87	64.622	19.021	3.0761e-06	26.117	53.146	82.972	112.781	-32.235	119.657	152.269	-32.135	-24.751	130.534	64.230	-25.183	-18.432	-17.712	-10.650	82.490	-10.659	-8191	255	
1166.086	1	1	0	0	0.35345	0.085894	0.20641	0.19166	0.18329	0.18262	0.20297	0.10453	0.089467	0.27181	0.21825	0.12578	0.21396	0.24891	0.087973	0.22033	-2.7667	-2.6625	-3.0979	-3.0729	-2.9167	-3.2062	-3.0583	-2.9167	-3.1917	-2.7542	-3.2021	-3.2375	-3.1354	-3.2146	-3.0104	-2.9646	123.671	-28.505	173.058	26.651	5.263	3.403	216.498	19.507	-29.008	37.542	272.322	224.993	213.146	298.026	202.752	-24.259	0.00014684	0.00075365	9.0551e-05	1039.6	2.5173e-06	2.3023e-06	1120.6	226.79	3.761e-06	1.3517e-06	282.01	80.999	64.002	18.666	3.2793e-06	25.613	0.00024877	0.00029633	7.8784e-05	1017.2	2.8136e-06	3.1344e-06	1105.1	224.47	2.7729e-06	3.197e-06	278.43	80.85	64.737	19.069	2.9572e-06	26.174	66.833	5.258	24.003	-32.280	19.638	79.250	-32.091	-24.460	107.903	283.179	-24.636	-18.271	-17.576	-10.319	207.103	-11.078	-8191	255	
1166.180	1	1	0	0	0.27273	0.2258	0.20972	0.064406	0.16621	0.17398	0.026058	0.063667	0.18502	0.22565	0.11935	0.16933	0.10036	0.34917	0.22423	0.0080201	-2.7562	-2.9292	-3.0125	-3.1542	-2.8521	-3.3354	-3.3187	-2.8729	-3.35	-2.9625	-2.9562	-3.2458	-3.0938	-3.325	-2.9021	-2.9583	0.166	149.707	1.803	2.590	287.097	158.044	120.741	313.698	256.688	-16.494	107.257	260.810	249.622	236.343	279.450	166.163	0.00029992	0.00027128	4.9837e-05	1043.9	2.9488e-06	2.8938e-06	1125.2	224.56	2.7081e-06	4.0848e-06	282.53	80.014	63.702	18.736	1.9444e-06	25.764	0.00026333	0.0003005	7.3217e-05	1019.3	2.9655e-06	3.2626e-06	1105.9	224.1	2.9886e-06	3.2485e-06	278.58	80.681	64.554	19.003	2.7983e-06	26.115	58.530	92.235	58.838	-32.144	63.501	104.507	-32.195	-24.511	78.960	47.010	-24.727	-18.427	-17.423	-10.307	100.242	-11.201	-8191	255	
1166.278	1	1	0	0	0.066799	0.087667	0.17712	0.042401	0.11973	0.30215	0.025153	0.19103	0.18816	0.090803	0.1181	0.30557	0.14176	0.20138	0.077422	0.048176	-2.7958	-2.9688	-3.0521	-3.1	-2.9354	-3.0938	-3.0958	-2.8333	-2.9896	-3.1708	-2.925	-3.2729	-2.8021	-3.0979	-3.0687	-3.0083	49.880	216.450	277.819	46.803	56.203	-22.200	198.447	42.016	33.012	147.605	276.717	312.700	313.017	4.992	287.208	-21.109	0.0001177	0.00062679	9.9584e-05	1038.8	3.8321e-06	6.1339e-06	1118.8	225.7	7.7724e-07	4.1732e-06	280.18	79.91	63.919	18.824	3.0041e-06	25.947	0.00028294	0.00029761	7.2121e-05	1017.3	3.2359e-06	3.1456e-06	1103.4	224.26	3.2511e-06	3.1853e-06	277.51	80.653	64.618	18.997	2.7583e-06	26.232	24.160	-8.307	106.875	-32.573	61.359	111.636	-31.972	-24.743	156.725	61.782	-25.116	-18.444	-17.602	-10.537	58.669	-10.779	-8191	255	
1166.372	1	1	0	0	0.043438	0.19628	0.23768	0.13824	0.10573	0.20674	0.23192	0.073785	0.044309	0.39981	0.15525	0.2844	0.075454	0.096408	0.18922	0.15352	-2.8271	-2.95	-2.9604	-3.0896	-2.8604	-3.1792	-3.3125	-2.9958	-3.3604	-3.1708	-2.8708	-3.3229	-2.8583	-3.0812	-3.3	-2.9625	36.196	227.153	192.420	30.323	269.387	225.358	222.845	-16.304	53.365	-7.792	-37.337	277.959	311.281	187.005	94.944	287.567	0.00022021	0.00031472	0.00015269	1040.8	5.2608e-06	2.1786e-06	1119.8	224.34	6.1496e-07	1.7539e-06	280.59	79.965	64.444	18.681	2.758e-06	26.064	0.00028631	0.0002717	7.2002e-05	1019	3.3311e-06	2.985e-06	1103.3	223.82	3.2101e-06	2.9818e-06	277.09	80.594	64.713	19.011	2.7231e-06	26.239	71.459	83.360	10.197	-32.242	64.472	162.796	-31.749	-24.758	13.843	55.151	-24.868	-18.063	-17.768	-10.181	78.553	-11.316	-8191	255	
1166.468	1	1	0	0	0.0056341	0.092346	0.3254	0.1975	0.14498	0.15594	0.24473	0.39553	0.1783	0.15025	0.095189	0.12376	0.21159	0.076219	0.32712	0.068053	-2.9125	-3.0792	-3.0125	-3.3312	-2.8604	-2.9125	-3.3729	-2.7208	-3.0625	-3.1083	-2.8875	-3.2708	-2.9375	-3.0646	-3.2333	-2.9688	-4.421	312.800	194.061	249.794	84.825	57.303	254.138	310.340	-38.983	108.799	104.949	203.045	-38.596	258.400	-24.911	-17.935	0.00017534	0.00020691	0.0001702	1043.3	4.3667e-06	3.9096e-06	1118.6	225.46	3.3353e-06	3.4688e-06	282.31	80.349	64.455	18.669	3.8531e-06	25.834	0.0002885	0.00026812	7.0755e-05	1020.6	3.2765e-06	2.8795e-06	1103.5	224.07	3.1902e-06	2.8343e-06	277.93	80.726	64.639	18.94	2.783e-06	26.125	85.024	63.436	67.533	-31.780	84.440	58.738	-32.156	-24.210	278.631	146.115	-25.008	-18.101	-17.369	-10.319	22.971	-10.767	-8191	255	
1166.589	1	1	0	0	0.19819	0.082344	0.15563	0.23997	0.30556	0.1994	0.11677	0.33901	0.23036	0.076407	0.2951	0.081347	0.24643	0.20055	0.31381	0.17771	-2.6729	-3.0271	-3.0042	-3.2062	-3.0792	-3.1042	-3.2792	-2.9771	-3.1167	-3.1792	-2.9896	-3.2604	-3.0542	-3.0042	-3.1771	-2.9375	203.078	231.008	-36.839	156.850	147.798	142.804	147.619	274.806	1.372	171.960	-0.036	33.294	175.818	226.037	155.763	144.754	0.00017253	0.0005257	0.00010847	1034.9	3.5168e-06	7.1974e-07	1115.8	225.68	3.418e-06	2.8372e-06	280.06	80.058	64.237	18.603	6.3585e-07	25.78	0.00028535	0.00025495	7.0632e-05	1017.9	3.0853e-06	2.8375e-06	1102.3	224.11	3.059e-06	2.8138e-06	277.96	80.846	64.525	18.964	2.7969e-06	26.152	94.332	45.524	89.655	-32.232	41.682	314.140	-32.019	-24.793	45.015	110.042	-24.727	-18.237	-18.057	-10.872	103.815	-11.616	-8191	255	
1166.685	1	1	0	0	0.14398	0.25105	0.082352	0.085443	0.29939	0.064906	0.35446	0.16649	0.17991	0.053127	0.23398	0.25947	0.11247	0.084896	0.12197	0.073288	-2.6542	-3.1333	-2.8958	-3.2021	-3.0146	-2.8896	-3.3146	-2.9625	-2.8354	-3.3229	-3.0062	-3.1562	-3.175	-2.9562	-3.3312	-2.9979	-38.329	213.555	14.586	223.064	65.386	76.265	253.579	313.454	223.504	267.502	312.461	304.740	164.510	16.915	-11.468	283.064	0.00033725	0.00034464	0.00013947	1034.1	7.7974e-06	1.8602e-06	1118.3	224.64	3.1632e-06	6.8427e-07	280.03	79.903	64.857	18.727	3.1615e-06	25.793	0.00026967	0.00024856	7.4209e-05	1016.8	2.9152e-06	2.7089e-06	1102.7	224.3	2.9111e-06	2.6969e-06	277.59	80.591	64.497	18.968	2.9733e-06	26.188	79.608	4.833	77.115	-32.263	86.440	161.874	-31.817	-24.469	50.911	-21.255	-24.950	-18.258	-17.685	-10.353	198.412	-11.306	-8191	255	
1166.781	1	1	0	0	0.2076	0.2582	0.07851	0.15317	0.082526	0.057393	0.12436	0.31346	0.20223	0.19726	0.18434	0.16889	0.10898	0.1343	0.17991	0.12116	-2.6917	-3.2875	-2.6146	-3.0542	-3.1146	-3.0021	-3.2854	-2.9792	-3.0958	-3.1479	-3.0667	-3.1396	-3.1146	-2.6271	-3.1625	-2.9062	33.017	229.615	-29.526	298.799	148.259	119.269	-42.455	301.013	94.656	40.794	220.345	245.374	125.698	147.810	280.938	308.908	0.00028611	0.00025554	0.00022514	1046.2	5.4173e-06	4.7119e-06	1117.5	226.19	3.4565e-06	3.346e-06	279.44	80.069	64.511	18.826	2.6858e-06	25.777	0.00026555	0.00023917	7.9405e-05	1016.3	2.8408e-06	2.6802e-06	1102.4	223.85	2.8616e-06	2.6904e-06	277.5	80.731	64.425	18.96	3.2223e-06	26.156	70.768	62.954	139.088	-32.295	68.365	187.105	-32.255	-24.813	178.556	80.316	-24.949	-17.950	-17.727	-10.623	17.128	-11.487	-8191	255	
1166.877	1	1	0	0	0.22736	0.18478	0.16398	0.22819	0.13255	0.19481	0.19258	0.20362	0.10677	0.19318	0.058205	0.069155	0.25723	0.13867	0.12308	0.11975	-2.4583	-3.1875	-2.8875	-3.1375	-3.1146	-3.0083	-3.2604	-3.0979	-2.7875	-3.05	-3.0708	-2.9792	-3.2938	-2.6917	-3.2792	-3.2021	70.045	163.487	95.468	-5.854	130.099	62.383	298.162	270.382	232.192	232.313	181.521	106.417	-13.608	32.887	71.854	180.948	0.00026584	0.00043816	0.0001258	1035.3	1.5976e-06	4.5303e-06	1118.4	225.51	5.347e-06	1.6793e-06	280.02	80.009	64.315	18.631	6.9873e-06	25.478	0.00026019	0.00025423	8.1891e-05	1015.5	2.806e-06	2.9323e-06	1103.9	224.05	2.6883e-06	2.9221e-06	277.2	80.425	64.445	18.976	3.2734e-06	26.132	63.345	61.864	3.420	-32.264	142.692	129.224	-32.102	-24.506	159.271	124.483	-25.105	-18.235	-17.359	-10.609	104.551	-11.098	-8191	255	
1166.974	1	1	0	0	0.21471	0.020041	0.067318	0.063203	0.2588	0.28003	0.27046	0.066179	0.12312	0.066156	0.19528	0.20605	0.20449	0.17144	0.2949	0.047994	-2.4208	-3.1646	-2.9583	-3.0812	-3.3542	-2.9125	-3.2979	-3.1833	-2.7833	-3.3125	-2.9458	-2.9417	-3.1958	-2.8125	-3.1833	-3.2458	273.822	182.408	28.392	218.141	303.007	11.534	225.290	181.687	12.226	237.159	32.659	-27.732	265.144	224.339	-16.832	38.993	0.00018549	0.00049969	0.00016563	1042.8	2.9508e-06	3.0507e-06	1118.8	225.39	4.5125e-06	3.8864e-06	282.35	80.215	64.131	18.723	1.1883e-06	25.825	0.00025125	0.00027201	8.1404e-05	1018.7	2.6711e-06	3.0174e-06	1102.2	223.55	2.7246e-06	3.1376e-06	277.99	80.25	64.394	18.993	3.073e-06	26.059	75.785	148.245	50.467	-32.265	92.037	126.541	-32.026	-24.462	-16.644	91.018	-25.380	-18.301	-17.474	-10.435	47.432	-11.257	-8191	255	
1167.070	1	1	0	0	0.12143	0.13979	0.062064	0.026222	0.19489	0.056492	0.12002	0.27189	0.30038	0.18727	0.14572	0.19257	0.21662	0.18034	0.114	0.054779	-2.4708	-3.1729	-2.95	-3.0729	-3.1792	-2.9146	-3.3708	-3.0021	-2.7979	-3.1292	-3.0167	-2.8563	-3.2313	-2.9437	-3.1625	-3.1292	315.722	265.854	-42.082	265.620	-36.559	18.425	221.639	-33.419	298.722	220.482	-29.483	306.508	-0.083	283.570	-8.458	182.628	0.00029892	0.0005093	8.9196e-06	1041.9	2.9415e-06	3.9506e-06	1117.5	224.43	2.8653e-06	3.0711e-06	278.35	80.252	64.519	18.608	4.2511e-06	25.929	0.00024317	0.0002836	7.7856e-05	1016.1	2.6631e-06	3.1352e-06	1101.5	222.63	2.7435e-06	3.107e-06	276.74	80.588	64.619	18.967	2.9444e-06	26.103	84.658	82.157	146.644	-31.844	114.919	125.925	-32.055	-24.485	-3.611	173.262	-24.697	-18.231	-17.678	-10.723	173.771	-10.974	-8191	255	
1167.166	1	1	0	0	0.25019	0.24795	0.10254	0.17781	0.12375	0.16742	0.19139	0.27693	0.25501	0.20419	0.18399	0.11858	0.14861	0.11545	0.049348	0.32025	-2.4792	-3.0625	-2.9354	-3.0271	-3.1125	-2.8708	-2.8229	-3.2375	-2.8	-3.3979	-3.0438	-2.9708	-3.15	-2.9333	-2.9521	-3.2542	280.587	-2.438	190.368	-33.686	64.024	63.363	200.517	292.997	105.837	106.304	259.240	-24.900	4.638	234.604	176.517	262.011	0.00022074	0.00048212	0.00013946	1045.4	4.8054e-06	1.1192e-06	1118.1	224.25	4.7633e-06	6.559e-06	280.8	80.253	64.235	18.688	5.3413e-06	25.809	0.00026395	0.00029421	7.4013e-05	1017.9	2.8734e-06	3.2733e-06	1101.9	222.92	2.9426e-06	3.1752e-06	277.85	80.469	64.47	18.981	2.8527e-06	26.065	71.819	38.831	97.477	-32.198	172.795	175.009	-31.894	-24.680	161.491	99.695	-24.736	-17.999	-17.533	-10.121	98.420	-10.589	-8191	255	
1167.260	1	1	0	0	0.22192	0.041729	0.13739	0.13749	0.1394	0.065532	0.26823	0.0025951	0.19465	0.13265	0.23655	0.024248	0.1091	0.16677	0.1448	0.36393	-2.4792	-3.0854	-2.9188	-2.9562	-3.075	-2.9229	-3.0521	-3.1479	-2.8146	-3.0542	-3.0583	-2.9708	-3.3042	-2.8979	-2.7812	-3.3417	37.596	205.255	-31.872	76.279	-20.003	105.223	250.661	299.690	129.362	220.173	170.356	110.646	127.612	230.601	267.975	295.204	0.00016727	0.00070458	0.00011233	1035.4	2.3005e-06	5.7762e-06	1114.7	224.25	1.2311e-06	2.1614e-06	280.22	80.036	64.005	18.702	7.6425e-06	25.464	0.0002827	0.0002923	7.3354e-05	1014	3.1934e-06	3.2052e-06	1100.6	222.56	3.2103e-06	3.0145e-06	276.56	80.308	64.376	18.942	2.7523e-06	25.977	60.630	61.522	-6.406	-32.546	193.875	176.377	-32.043	-24.433	314.250	109.228	-24.672	-18.094	-17.677	-10.560	112.162	-11.345	-8191	255	
1167.381	1	1	0	0	0.15702	0.14918	0.14366	0.15723	0.073435	0.30127	0.14722	0.17922	0.33352	0.23967	0.081595	0.24329	0.23151	0.17922	0.16411	0.18174	-2.5667	-3.1604	-3.1396	-2.7625	-3.2958	-3.0917	-3.0146	-3.3063	-2.8354	-3.1104	-3.1875	-2.9417	-3.3354	-3.0875	-2.9521	-3.3812	11.469	260.156	216.362	28.031	143.946	19.996	-3.206	244.268	78.834	87.807	88.377	-35.829	184.657	-42.333	-31.779	268.831	0.00022453	0.00045326	0.00013491	1036.4	5.2726e-06	3.8615e-06	1113.5	223.67	4.428e-06	2.0752e-06	281.15	79.931	64.385	18.728	2.7976e-06	25.729	0.00029085	0.0002721	6.8694e-05	1011.3	3.1687e-06	2.9006e-06	1097.4	223	3.1503e-06	2.9068e-06	275.63	80.329	64.561	18.936	2.7091e-06	26.088	61.854	31.528	-1.511	-32.049	159.672	178.113	-32.348	-24.429	168.865	125.800	-25.325	-18.145	-17.940	-10.387	45.842	-11.310	-8191	255	
1167.477	1	1	0	0	0.13915	0.17194	0.19814	0.28127	0.17199	0.13229	0.10234	0.096513	0.17556	0.067413	0.1749	0.19761	0.04262	0.20042	0.14672	0.19218	-2.6813	-2.9292	-3.2896	-2.8854	-3.15	-3.1021	-2.9667	-3.1583	-2.9625	-3.0729	-3.1333	-2.8	-3.1188	-2.9958	-2.8729	-3.3792	247.279	108.768	122.570	281.700	-19.061	4.408	-20.947	277.194	134.346	11.602	237.211	226.763	-20.801	277.290	150.341	194.309	0.0002148	0.00049794	0.00014135	1042	4.0358e-06	4.9231e-06	1121.8	223.58	5.0109e-06	4.9092e-06	279.43	79.838	64.343	18.571	5.336e-06	25.75	0.00028371	0.00026086	6.6796e-05	1014.5	3.1248e-06	2.7352e-06	1101.8	222.58	3.0528e-06	2.7607e-06	275.65	80.231	64.355	18.944	2.6391e-06	26.094	62.154	20.521	-1.715	-31.998	133.382	144.222	-32.063	-24.689	64.288	91.642	-24.558	-17.625	-17.586	-10.569	102.735	-11.220	-8191	255	
1167.549	1	1	0	0	0.24422	0.1959	0.061307	0.09931	0.14334	0.11261	0.098173	0.023243	0.09908	0.19158	0.28799	0.19809	0.14499	0.22491	0.077753	0.058636	-2.5021	-2.7687	-3.2271	-2.7875	-3.2354	-3.1167	-2.8187	-3.2208	-3.0312	-2.9104	-3.15	-2.9479	-3.0687	-3.0042	-2.8187	-3.2687	195.114	102.589	179.899	311.850	138.864	67.983	255.205	271.857	137.236	20.145	-34.087	217.464	315.955	286.625	93.713	222.567	0.00028134	0.00014394	9.0897e-05	1039.8	2.1847e-06	2.2127e-06	1121.4	225.44	1.3272e-06	5.1102e-06	281.8	79.716	64.195	18.673	3.1712e-06	25.761	0.00027182	0.00025186	6.5567e-05	1017	3.0254e-06	2.6711e-06	1100	223.71	2.8883e-06	2.6726e-06	275.54	80.294	64.332	18.906	2.726e-06	26.193	61.129	-2.024	53.018	-31.718	134.871	76.854	-32.039	-24.790	220.592	61.046	-24.840	-18.332	-17.599	-10.518	77.565	-10.931	-8191	255	
1167.669	1	1	0	0	0.19891	0.079761	0.22453	0.076591	0.044602	0.081012	0.32144	0.29619	0.13213	0.17471	0.12542	0.43676	0.12262	0.24036	0.071515	0.16172	-2.5521	-3.0271	-3.3125	-2.8396	-2.9313	-3.2271	-2.9688	-3.2646	-2.8833	-2.7562	-3.2083	-2.9792	-3.2313	-3.3333	-2.7438	-3.0958	-33.393	134.536	214.085	292.087	83.769	232.990	288.081	-41.473	56.691	142.652	315.136	264.169	28.935	272.967	-42.293	-13.653	0.00023193	0.00067615	5.0363e-05	1033.7	3.1072e-06	4.2536e-06	1116.1	224.55	2.573e-06	4.0589e-06	281.64	80.236	63.942	18.608	2.9903e-06	25.737	0.00025479	0.00024442	7.083e-05	1015.5	2.8619e-06	2.5902e-06	1100.3	222.69	2.7916e-06	2.6605e-06	276.99	80.44	64.354	18.911	2.8906e-06	26.085	37.484	55.609	-19.349	-32.159	187.234	126.731	-31.904	-24.557	241.245	184.260	-25.000	-18.332	-17.813	-10.711	193.973	-11.322	-8191	255	
1167.766	1	1	0	0	0.16635	0.097676	0.24433	0.14809	0.18475	0.13768	0.14441	0.2533	0.2087	0.22854	0.12807	0.2405	0.13049	0.099262	0.25275	0.19027	-2.7896	-2.9521	-3.1333	-3.0354	-2.9313	-3.1729	-2.9521	-3.1063	-3.1375	-2.8604	-3.0979	-2.7917	-3.0271	-3.1604	-2.7583	-2.9688	97.841	-0.164	189.584	-17.013	149.126	12.151	308.464	-15.045	-4.383	44.191	37.255	-24.347	258.673	58.892	252.317	-13.840	0.00024096	0.00040389	6.3587e-05	1037.2	4.045e-06	1.2569e-06	1115.9	224.57	9.7131e-07	3.2207e-06	280.91	79.37	64.381	18.562	4.7141e-06	25.766	0.00025443	0.00023206	7.5514e-05	1015	2.8143e-06	2.5908e-06	1100.1	222.39	2.6948e-06	2.6382e-06	276.26	80.249	64.322	18.864	3.0826e-06	26.102	65.160	13.442	161.488	-32.054	63.366	110.480	-31.936	-24.790	195.410	100.904	-25.095	-18.030	-18.157	-9.979	88.184	-11.044	-8191	255	
1167.862	1	1	0	0	0.059044	0.1428	0.2379	0.12012	0.11175	0.16537	0.09646	0.073783	0.23571	0.21818	0.28099	0.22024	0.21031	0.051656	0.19881	0.091443	-2.6688	-2.8354	-3.225	-2.9979	-2.9688	-3.2792	-3.075	-3.1354	-3.1521	-2.7479	-3.325	-2.8979	-2.8479	-3.1875	-2.7917	-2.9479	301.456	12.374	208.028	155.179	-32.460	279.826	253.773	-40.803	51.286	158.923	306.842	288.592	48.507	-19.853	267.535	-17.716	0.0001557	0.00012847	0.00013925	1029.5	4.239e-06	1.5725e-06	1114.4	223.98	2.1135e-06	2.2014e-06	279.07	79.639	63.959	18.604	4.3302e-06	25.516	0.00024636	0.00024233	7.8035e-05	1009.9	2.6589e-06	2.7035e-06	1098.8	221.83	2.6235e-06	2.7309e-06	275.59	80.124	64.203	18.88	3.1855e-06	26.047	84.301	282.472	66.474	-32.250	74.062	29.737	-32.224	-24.523	71.157	94.571	-25.252	-17.977	-17.639	-9.982	85.597	-10.900	-8191	255	
1167.958	1	1	0	0	0.25462	0.067813	0.25479	0.38599	0.095458	0.29372	0.30329	0.13653	0.13083	0.263	0.12894	0.090282	0.090704	0.11508	0.20855	0.14165	-2.7771	-2.7729	-3.2229	-3.0021	-2.8104	-3.2104	-2.8979	-3.0521	-3.2979	-2.8854	-3.1771	-3.0542	-2.7708	-3.2521	-2.8958	-3.0292	106.075	-6.917	316.918	299.048	98.610	53.853	295.224	145.352	255.682	206.397	233.552	268.644	279.899	307.707	36.522	43.445	0.00019644	0.00048287	6.1717e-05	1028.7	6.2931e-06	4.1693e-06	1112.8	223.1	4.1925e-06	5.3647e-06	278.16	80.048	63.562	18.469	4.4839e-06	25.958	0.00023405	0.00026673	8.0076e-05	1007.9	2.6375e-06	2.9066e-06	1098.1	222.11	2.5399e-06	2.9258e-06	276.27	80.222	64.107	18.879	3.0416e-06	26.097	73.711	20.987	-17.587	-32.383	22.923	162.882	-32.156	-24.615	98.344	157.140	-24.872	-17.872	-17.951	-10.613	58.326	-11.015	-8191	255	
1168.079	1	1	0	0	0.34525	0.096456	0.10528	0.40731	0.047961	0.17529	0.16977	0.19391	0.089845	0.11563	0.14589	0.139	0.34523	0.30984	0.16966	0.29762	-2.6604	-2.7313	-2.8646	-3.1437	-2.9646	-3.1729	-3.1479	-2.9208	-3.1896	-2.8708	-3.1542	-3.2021	-2.8417	-3.1854	-2.925	-2.8937	51.897	109.460	302.493	113.410	229.309	233.434	266.553	294.793	96.126	146.651	173.161	301.914	288.216	-40.531	227.860	233.170	0.0002497	0.00011619	0.0001173	1039.8	2.901e-06	3.1439e-06	1116.1	223.63	2.2144e-06	7.2201e-07	278.79	79.869	64.213	18.48	4.7031e-06	25.752	0.00024161	0.0002799	7.5736e-05	1011.3	2.6707e-06	3.0931e-06	1096.4	221.97	2.6828e-06	3.0921e-06	274.63	80.322	64.204	18.91	2.8419e-06	26.076	52.921	21.742	33.166	-31.933	127.320	46.144	-32.012	-24.536	111.516	150.539	-24.434	-17.901	-17.656	-10.406	157.882	-11.216	-8191	255	
1168.173	1	1	0	0	0.014851	0.064952	0.25641	0.082289	0.068927	0.1511	0.25588	0.044731	0.078331	0.22863	0.20753	0.11923	0.24273	0.20764	0.12265	0.12548	-2.7729	-3	-2.9667	-3.1021	-2.925	-3.1292	-3.3479	-2.9938	-3.2771	-3.0167	-3.1229	-3.2771	-2.95	-3.1917	-3.1729	-2.7958	186.245	292.332	-26.231	-1.224	240.424	146.442	294.342	305.582	160.069	-7.429	63.578	297.374	-9.211	-26.928	155.737	-40.533	0.00020599	0.00052791	0.00016074	1040.9	3.1389e-06	3.7022e-06	1110.3	223.05	6.5865e-07	2.3791e-06	279.38	79.61	64.154	18.718	6.0146e-06	25.601	0.00024851	0.00028966	7.3512e-05	1009	2.8689e-06	3.1402e-06	1096.5	221.62	2.7984e-06	3.1656e-06	275.33	79.944	64.191	18.941	2.7842e-06	26.05	73.986	57.157	73.777	-32.265	83.340	221.811	-31.952	-24.352	20.836	267.117	-25.758	-17.943	-17.798	-10.335	98.156	-11.314	-8191	255	
1168.269	1	1	0	0	0.13509	0.12548	0.12488	0.25866	0.12781	0.066543	0.11528	0.10313	0.2205	0.17226	0.10768	0.086792	0.042717	0.16589	0.034267	0.16128	-2.8167	-3.15	-2.9646	-3.2333	-2.7438	-3.35	-3.3208	-3.025	-3.1375	-2.8167	-3.1521	-3.3042	-3.05	-3.0062	-3.0333	-2.8625	137.624	126.186	80.688	-9.799	-32.687	253.267	272.915	150.660	-13.373	-34.640	96.766	264.909	294.732	68.813	295.487	-27.171	0.00030511	0.0004086	7.3965e-05	1041.6	3.4426e-06	1.969e-06	1109.7	224.54	3.5553e-06	4.9603e-06	277.73	80.015	64.065	18.535	4.0427e-06	25.583	0.00027443	0.00028426	7.1825e-05	1012.3	3.0962e-06	3.1092e-06	1095.4	222.75	3.0738e-06	3.0552e-06	274.52	80.103	64.365	18.883	2.7263e-06	25.962	79.030	44.911	285.080	-31.899	3.147	54.093	-32.042	-24.409	150.578	106.650	-25.043	-18.553	-17.670	-10.389	157.274	-11.156	-8191	255	
1168.365	1	1	0	0	0.04782	0.29012	0.11809	0.15477	0.092558	0.21578	0.10686	0.14742	0.17579	0.13227	0.13619	0.20724	0.17764	0.065972	0.084639	0.047531	-2.7271	-2.85	-2.8896	-3.2146	-2.8937	-3.1021	-3.1229	-2.8146	-3.1354	-2.8292	-2.875	-3.1646	-2.8896	-2.9021	-3.0167	-2.9125	-39.233	23.262	-3.145	-11.178	-12.495	252.907	274.597	163.741	135.359	-36.735	-9.776	288.314	262.312	91.782	2.121	13.156	0.00029966	0.00035998	3.4161e-05	1030.3	3.0103e-06	1.7005e-06	1114.8	223.41	4.6451e-06	3.1497e-06	281.56	80.004	64.109	18.492	1.709e-06	25.86	0.00028878	0.00027444	6.8932e-05	1008.3	3.175e-06	2.9287e-06	1096.9	222.15	3.2823e-06	2.8314e-06	275.28	80.298	64.318	18.84	2.6384e-06	26.107	60.290	46.509	30.282	-32.038	132.408	79.628	-32.400	-24.970	162.885	101.518	-24.946	-18.440	-17.563	-10.532	158.478	-11.215	-8191	255	
1168.461	1	1	0	0	0.034636	0.26468	0.14939	0.18604	0.019177	0.20933	0.24632	0.1016	0.26046	0.28043	0.23936	0.087904	0.139	0.055971	0.28058	0.10584	-2.6708	-2.9688	-2.8646	-3.1521	-2.8208	-2.8312	-3.3167	-2.9	-3.0812	-2.9083	-2.9708	-3.2604	-2.9958	-2.8812	-3.3146	-2.8563	191.512	238.260	109.577	165.879	243.071	134.245	-5.852	-17.460	84.187	192.327	302.282	102.399	-12.612	217.773	260.063	290.447	0.00019436	8.6712e-05	6.9699e-05	1042.7	2.9549e-06	7.3164e-06	1109.7	223.23	3.4316e-06	5.3314e-06	277.84	79.887	64.168	18.667	3.0496e-06	25.81	0.00029093	0.00025513	6.9081e-05	1014.4	3.171e-06	2.7977e-06	1095	222.16	3.1633e-06	2.8276e-06	274.48	80.178	64.401	18.886	2.5548e-06	26.117	89.797	10.856	-32.857	-31.966	-16.819	103.766	-31.886	-24.669	130.276	126.646	-24.836	-18.349	-18.058	-10.203	94.825	-10.874	-8191	255	
1168.558	1	1	0	0	0.074713	0.063056	0.14144	0.25575	0.31151	0.12113	0.13524	0.037973	0.093874	0.1444	0.01454	0.046182	0.2142	0.24427	0.24249	0.11417	-2.625	-3.0792	-2.8271	-3.2583	-2.9875	-2.9188	-3.3229	-2.7313	-3.0229	-3.0792	-2.8979	-3.2333	-2.9708	-3.0042	-3.1521	-2.8604	265.729	78.509	63.227	273.613	212.732	82.813	-33.227	126.740	254.705	43.788	-14.905	310.378	302.648	282.859	75.803	268.273	0.00018105	0.00012167	8.6993e-05	1034.7	3.9345e-06	2.2452e-06	1116.9	223.06	2.1655e-06	2.8031e-06	278.91	79.696	63.93	18.577	9.0551e-07	25.713	0.00027885	0.00025098	6.9125e-05	1012.4	2.9562e-06	2.7464e-06	1097	221.96	2.9621e-06	2.635e-06	276.08	80.217	64.212	18.843	2.7901e-06	26.203	45.170	84.490	12.021	-32.247	102.698	178.899	-32.077	-24.637	117.714	121.085	-24.819	-18.027	-18.014	-10.542	34.370	-11.296	-8191	255	
1168.678	1	1	0	0	0.16782	0.16044	0.056855	0.13432	0.1672	0.31004	0.17953	0.10775	0.11902	0.11847	0.077867	0.043864	0.3616	0.2043	0.12827	0.054445	-2.5458	-3.0708	-2.6708	-3.2562	-3.0625	-2.9375	-3.2083	-3.025	-3.0104	-3.075	-2.825	-3.0667	-3.0792	-2.8708	-3.2208	-3.0583	97.476	14.396	181.919	205.355	11.177	70.563	81.113	129.565	210.301	24.255	109.640	44.747	295.232	259.592	80.304	218.641	0.00016334	6.8761e-05	0.0001139	1038	6.2235e-06	2.2514e-06	1114.5	222.46	2.9641e-06	7.458e-06	279.7	79.919	64.304	18.564	5.4227e-06	25.589	0.00027263	0.00024088	7.1251e-05	1016.3	2.8453e-06	2.6733e-06	1096.4	222.36	2.8675e-06	2.66e-06	275.32	80.341	64.173	18.807	2.9809e-06	26.015	66.404	6.096	100.818	-31.870	86.035	111.587	-31.945	-24.804	16.770	71.483	-24.839	-17.730	-17.830	-10.561	134.954	-11.224	-8191	255	
1168.774	1	1	0	0	0.21253	0.046173	0.06498	0.21576	0.16786	0.051659	0.14795	0.28232	0.16785	0.092227	0.2812	0.29734	0.17722	0.21223	0.24583	0.15526	-2.6312	-3.1167	-2.85	-3.125	-3.0563	-2.9208	-3.2583	-3	-2.9667	-3.2146	-2.775	-2.9771	-3.0042	-2.7417	-3.1667	-3.25	126.372	227.430	300.578	42.169	102.580	310.594	40.254	169.182	310.423	266.138	167.421	280.792	290.236	202.560	100.286	52.161	0.00024921	0.0008932	0.00011346	1039.4	2.4412e-06	1.1771e-06	1121.3	222.14	3.9042e-06	3.052e-06	278.8	80.108	63.668	18.607	3.9656e-06	25.761	0.00025952	0.00024079	7.8613e-05	1012.3	2.8521e-06	2.6574e-06	1100.7	221.67	2.8519e-06	2.6279e-06	276.1	80.334	64.075	18.804	3.0947e-06	26.073	77.431	28.776	57.832	-32.125	-10.182	56.039	-32.152	-24.815	68.448	211.032	-24.407	-18.288	-17.391	-10.695	90.522	-10.500	-8191	255	
1168.846	1	1	0	0	0.12458	0.079497	0.10751	0.21542	0.039694	0.24013	0.4137	0.24484	0.21661	0.13185	0.32611	0.15987	0.061097	0.27174	0.27356	0.053356	-2.5021	-3.1167	-2.8917	-3.1333	-2.9917	-2.8375	-3.2521	-3.1583	-2.9229	-3.15	-2.9042	-3.0625	-3.3292	-2.9667	-3.2208	-3.0771	-21.003	33.509	279.621	204.572	173.786	266.276	243.977	-40.541	124.465	111.096	271.470	38.799	162.681	23.596	308.152	244.629	0.00026624	0.0006564	6.0456e-05	1038.8	4.1339e-06	5.2528e-06	1113	224.52	2.7732e-06	2.3087e-06	279.31	80.05	63.967	18.593	1.4796e-06	25.413	0.00025055	0.0002493	8.118e-05	1012.3	2.7928e-06	2.8073e-06	1097.1	222.35	2.7744e-06	2.7061e-06	276.41	79.977	64.153	18.844	3.1839e-06	25.945	48.731	89.916	306.189	-32.203	101.653	103.555	-32.057	-24.419	-5.006	208.009	-25.210	-18.036	-17.644	-10.262	208.898	-11.150	-8191	255	
1168.942	1	1	0	0	0.11515	0.15199	0.14945	0.16801	0.1549	0.13429	0.21219	0.11	0.20957	0.12557	0.12128	0.24127	0.07952	0.093903	0.12194	0.059521	-2.4813	-3.2062	-2.825	-2.975	-3.2354	-2.8896	-3.35	-3.1417	-2.8312	-3.4375	-3.0729	-3.1104	-3.3438	-2.8583	-3.1354	-3.1937	270.825	184.410	100.201	101.403	34.118	-32.073	238.799	0.351	73.490	159.804	213.136	296.002	95.387	260.511	194.669	270.243	0.00025687	0.00022433	0.00012827	1039.4	4.8025e-06	2.244e-06	1113.6	222.52	1.7768e-06	3.5376e-06	279.84	79.9	63.928	18.611	2.0661e-06	25.733	0.00024502	0.00026971	8.2274e-05	1012.4	2.6606e-06	2.9544e-06	1096.9	221.5	2.6912e-06	2.954e-06	276.22	79.843	64.08	18.846	3.1017e-06	26.043	55.242	19.324	15.968	-32.264	67.060	128.704	-31.746	-24.894	12.762	92.559	-25.182	-18.031	-17.480	-10.714	73.038	-11.497	-8191	255	
1169.063	1	1	0	0	0.21924	0.15765	0.14426	0.23627	0.22461	0.048921	0.0058484	0.070385	0.15021	0.063069	0.061415	0.23509	0.33976	0.021587	0.12275	0.10782	-2.4042	-3.1479	-2.8604	-2.7562	-3.1813	-2.8542	-3.3625	-3.2188	-2.8479	-3.2625	-3.0062	-3.1021	-3.2479	-2.75	-3.0271	-3.2792	109.338	-31.551	52.288	80.245	219.241	47.191	205.248	163.155	252.446	227.328	47.545	278.345	303.771	42.962	263.886	289.737	0.00018283	0.00046873	7.7009e-05	1034.2	5.5545e-06	8.296e-07	1114.9	224.66	3.5383e-06	1.9826e-06	278.31	79.478	64.276	18.531	8.2804e-06	25.652	0.00024561	0.00027711	7.764e-05	1012.2	2.6116e-06	3.116e-06	1096.9	221.99	2.6943e-06	3.0681e-06	275.38	79.803	64.128	18.874	2.8256e-06	26.004	68.711	8.632	301.175	-32.275	136.406	116.392	-32.010	-24.707	98.147	131.865	-24.663	-18.044	-17.851	-10.528	146.350	-11.151	-8191	255	
1169.157	1	1	0	0	0.29243	0.23287	0.10263	0.15186	0.067403	0.21384	0.30818	0.20254	0.18328	0.11258	0.32233	0.11211	0.17968	0.22534	0.15267	0.096493	-2.5167	-3.3604	-2.9	-2.8729	-3.3125	-2.7979	-3.2104	-3.2771	-3.0167	-3.2438	-3.05	-2.9333	-3.2917	-2.9437	-3.0333	-3.2354	-37.817	119.308	143.666	295.271	57.929	290.915	246.910	210.102	240.906	103.966	-18.868	244.115	119.263	44.369	124.382	106.080	0.00021564	0.00022185	0.00019162	1041.2	1.9048e-06	4.1128e-06	1108.4	222.75	1.9525e-06	2.4372e-06	278.27	79.635	64.33	18.703	1.9366e-06	25.594	0.00025213	0.00028227	7.2619e-05	1010.6	2.8223e-06	3.1029e-06	1093	221.26	2.8605e-06	3.1593e-06	274.84	79.781	64.326	18.93	2.7581e-06	25.874	77.537	161.181	70.399	-32.399	131.717	152.016	-32.245	-24.572	171.453	69.314	-25.173	-17.954	-17.655	-10.350	139.406	-11.269	-8191	255	
1169.253	1	1	0	0	0.16968	0.26407	0.23944	0.22624	0.17421	0.15607	0.23774	0.15716	0.12177	0.11211	0.32416	0.060615	0.20232	0.15253	0.3161	0.090134	-2.3729	-3.1271	-2.9875	-2.8646	-3.1625	-2.9917	-3.1917	-3.4396	-2.8875	-3.2438	-3.0875	-3.0521	-3.2896	-3.1146	-2.9437	-3.4333	161.425	292.673	58.772	52.083	96.580	5.734	273.185	170.646	186.206	102.312	231.620	252.271	112.147	308.432	180.104	172.916	0.00020146	0.00081834	3.9922e-05	1035.9	3.5028e-06	3.7041e-06	1114.6	221.54	3.1776e-06	1.7897e-06	279.15	79.716	64.058	18.521	5.2965e-06	25.546	0.0002784	0.00028835	7.0254e-05	1010.1	3.08e-06	3.0156e-06	1097.1	221.49	3.1434e-06	3.0761e-06	274.98	79.902	64.19	18.853	2.6943e-06	25.936	83.998	23.124	298.831	-32.393	87.879	83.855	-32.185	-24.390	34.140	98.669	-24.505	-18.113	-17.510	-10.326	48.692	-11.171	-8191	255	
1169.349	1	1	0	0	0.22113	0.076866	0.28017	0.07318	0.18079	0.16445	0.24215	0.13243	0.18796	0.20372	0.1062	0.17183	0.39944	0.081872	0.19627	0.24106	-2.4417	-3.2375	-3.1667	-2.9271	-3.1437	-3.0896	-2.9458	-3.5229	-2.9562	-3.1375	-3.3292	-2.9792	-3.2188	-3.1583	-2.9521	-3.4292	300.415	72.808	272.393	17.617	3.115	16.802	193.662	-10.034	-27.087	26.607	57.079	287.706	292.526	212.020	154.647	78.755	0.00029586	0.0002803	0.00017493	1033.9	1.5945e-06	3.6657e-06	1115.1	222.78	3.1696e-06	3.3725e-06	278.3	79.624	63.781	18.562	1.8234e-06	25.618	0.00028845	0.00027116	6.7963e-05	1010.6	3.1672e-06	2.9615e-06	1096.7	221.7	3.2099e-06	2.7633e-06	275.51	80.003	64.267	18.877	2.7057e-06	25.927	66.754	14.260	51.081	-32.180	44.382	140.811	-32.209	-24.461	138.570	102.978	-25.278	-18.351	-17.911	-10.497	161.403	-10.922	-8191	255	
1169.446	1	1	0	0	0.12074	0.097642	0.094626	0.32518	0.10557	0.13173	0.26476	0.19646	0.18373	0.25979	0.092553	0.096159	0.13228	0.046222	0.12517	0.072395	-2.4833	-3.1167	-2.8583	-2.9	-3.1312	-3.1375	-3.0771	-3.3125	-2.9896	-2.9229	-3.1437	-2.8333	-2.9625	-3.0479	-2.9104	-3.2833	42.925	5.109	73.877	305.135	-1.903	207.145	173.737	303.409	49.719	36.615	270.006	14.209	13.687	308.520	212.892	27.354	0.00024331	0.0005707	9.9138e-05	1036.6	5.0402e-06	8.4928e-07	1110.7	223.82	5.2725e-06	5.9811e-06	278.55	79.279	64.387	18.423	1.4509e-06	25.697	0.00029464	0.00026105	6.6431e-05	1013	3.1442e-06	2.8126e-06	1095.1	222.06	3.1589e-06	2.7948e-06	274.87	80.043	64.228	18.76	2.6697e-06	26.094	85.541	42.370	53.670	-31.866	86.127	-27.379	-32.029	-24.631	33.028	85.680	-24.678	-18.194	-17.898	-10.381	112.885	-10.904	-8191	255	
1169.542	1	1	0	0	0.21851	0.23545	0.20219	0.19115	0.10138	0.14281	0.21433	0.11002	0.18217	0.18992	0.14753	0.12669	0.017815	0.22912	0.26673	0.16883	-2.6083	-2.975	-3.2396	-2.8937	-3.1604	-3.0875	-2.95	-3.2313	-2.9583	-2.9354	-3.2375	-2.925	-3.0646	-3.1188	-2.8937	-3.2625	82.918	87.882	108.193	38.260	54.010	156.929	185.172	242.515	296.668	204.213	-8.895	79.568	297.616	236.392	254.703	312.982	0.00016316	0.00015937	8.8772e-05	1031.7	1.8657e-06	5.2158e-06	1109.8	223.21	3.3795e-06	1.8346e-06	279.48	79.775	63.943	18.521	3.6551e-06	25.544	0.00028068	0.00025094	6.8053e-05	1011.9	3.1116e-06	2.7555e-06	1094.6	222.08	3.0486e-06	2.7678e-06	274.63	80.029	64.224	18.83	2.7356e-06	26.032	65.519	165.227	97.147	-31.805	-37.980	126.134	-31.827	-24.635	165.812	-11.882	-24.618	-18.490	-17.610	-10.454	26.991	-11.390	-8191	255	
1169.638	1	1	0	0	0.21329	0.13088	0.15662	0.074318	0.14485	0.19791	0.1319	0.21817	0.29618	0.1872	0.025412	0.046409	0.23415	0.15562	0.17481	0.1572	-2.5458	-2.8917	-3.2292	-3.0125	-3.0792	-3.2625	-3.0583	-3.2313	-3.1437	-2.8688	-3.3604	-2.9	-3.1271	-3.2875	-2.8854	-3.3292	152.221	90.129	51.686	85.599	-8.913	102.052	-35.312	74.470	74.809	213.038	55.978	244.233	241.766	79.491	194.180	252.352	0.00022675	0.000362	0.00019797	1039.1	1.6993e-06	4.5723e-06	1107.8	223.06	2.7372e-06	2.697e-07	278.04	79.472	63.919	18.381	2.7598e-06	25.629	0.00027021	0.00024763	6.8249e-05	1012.7	2.9118e-06	2.7095e-06	1094.9	222.26	2.8991e-06	2.7159e-06	274.92	80.052	64.116	18.746	2.9846e-06	25.978	53.388	-15.613	73.718	-31.909	114.434	121.440	-32.080	-24.494	188.446	103.605	-24.849	-18.085	-17.786	-10.364	183.072	-10.934	-8191	255	
1169.759	1	1	0	0	0.039404	0.18872	0.17026	0.068241	0.22833	0.15278	0.096059	0.096562	0.089778	0.11646	0.06848	0.2533	0.13353	0.10958	0.066724	0.099935	-2.7333	-2.9396	-3.1979	-2.8729	-2.9021	-3.2021	-3.1625	-3.2729	-3.1146	-2.9542	-3.175	-3.0771	-2.9542	-3.1646	-2.7042	-3.1646	160.084	-20.849	88.921	18.981	277.300	3.676	280.347	45.526	254.301	34.263	111.985	-23.333	264.772	45.977	265.753	0.505	0.00026837	0.00035498	0.0001868	1035.5	5.8563e-06	4.0029e-06	1110.4	223.74	2.5566e-06	2.444e-06	276.03	79.884	63.524	18.629	2.5215e-06	25.36	0.00025694	0.00023824	7.5035e-05	1013.7	2.7808e-06	2.5967e-06	1095.9	222.06	2.7106e-06	2.5727e-06	274.59	80.135	63.881	18.852	3.069e-06	25.968	75.810	101.162	31.197	-31.828	108.895	129.702	-32.046	-24.686	112.444	136.209	-25.071	-18.587	-17.376	-10.114	155.725	-10.827	-8191	255	
1169.855	1	1	0	0	0.095734	0.31655	0.090202	0.17294	0.29901	0.26368	0.041696	0.17972	0.13549	0.082315	0.19885	0.15729	0.082557	0.31743	0.18357	0.27045	-2.7313	-2.7625	-3.1583	-3.0792	-2.975	-3.1875	-3.0292	-3.2229	-3.2833	-2.8604	-3.15	-3.0167	-2.8146	-3.3854	-2.9208	-3.0396	264.006	81.035	16.062	72.951	118.991	50.289	-6.922	275.073	131.671	284.067	-42.558	-32.053	97.750	275.035	203.221	18.623	0.00021964	0.0001666	0.00017197	1033.2	4.9974e-06	2.5729e-06	1113.4	222.91	7.1348e-06	2.7892e-06	276.76	80.223	63.367	18.677	4.6787e-06	25.669	0.00024242	0.00024392	8.0336e-05	1010.7	2.6694e-06	2.6434e-06	1095.8	221.61	2.6815e-06	2.7433e-06	275.05	80.063	63.836	18.833	3.1513e-06	25.996	56.312	33.899	107.416	-31.728	7.008	196.931	-32.303	-24.613	97.829	214.474	-25.066	-17.988	-17.708	-10.682	70.556	-10.976	-8191	255	
1169.951	1	1	0	0	0.02194	0.20753	0.31261	0.24926	0.14436	0.24706	0.20975	0.12967	0.15777	0.17752	0.11315	0.07188	0.1662	0.2402	0.11781	0.12799	-2.6875	-2.8542	-3.2125	-3.125	-3.0792	-3.3104	-3.1854	-3.0812	-3.2604	-2.8021	-3.3021	-3.1354	-2.8896	-3.2188	-2.8167	-3.1167	244.030	-33.485	249.613	28.644	242.386	270.097	234.313	244.225	4.056	8.291	116.341	-28.000	-27.219	271.242	127.268	59.734	0.000129	0.00039035	0.00022933	1032.1	8.7852e-07	1.4303e-06	1110.5	224.03	5.6346e-06	8.2361e-06	276.44	79.265	63.923	18.595	3.6759e-06	25.561	0.000237	0.00025673	7.6608e-05	1007.5	2.6586e-06	2.8783e-06	1094.2	221.97	2.5478e-06	2.9254e-06	275.83	79.942	64.031	18.86	2.9041e-06	25.926	65.599	43.222	15.961	-32.321	35.611	75.335	-32.122	-24.518	4.909	149.635	-25.439	-18.366	-17.588	-9.924	61.995	-11.250	-8191	255	
1170.071	1	1	0	0	0.12448	0.25047	0.10381	0.017433	0.12003	0.17304	0.072361	0.28435	0.16334	0.10732	0.12986	0.23698	0.20169	0.16859	0.1013	0.25665	-2.8625	-2.9625	-3.0854	-3.1792	-2.9833	-3.2917	-3.2146	-3.1188	-3.1729	-2.8667	-3.2042	-3.2292	-2.85	-3.2729	-2.9437	-2.9208	187.652	272.197	290.337	294.116	-31.660	-27.291	300.800	286.076	-22.271	-40.373	10.513	-9.910	121.767	296.938	181.060	313.105	0.00021379	0.000641	0.0002003	1031.7	2.5442e-06	4.3454e-06	1112.6	223.5	5.1506e-06	2.6896e-06	276.79	79.727	63.142	18.536	4.227e-06	25.716	0.00023837	0.00027266	7.4259e-05	1007.2	2.6638e-06	2.9951e-06	1093.8	221.52	2.5944e-06	3.098e-06	274.77	79.796	63.695	18.868	2.8505e-06	25.963	60.498	71.625	2.587	-31.791	123.413	188.607	-31.869	-24.636	172.692	140.320	-24.803	-18.264	-17.966	-10.702	153.622	-11.307	-8191	255	
1170.143	1	1	0	0	0.15397	0.25688	0.24214	0.15695	0.15675	0.27445	0.27976	0.071414	0.14998	0.11076	0.1853	0.21793	0.09597	0.178	0.048909	0.15305	-2.8104	-2.7771	-2.9229	-3.1958	-2.9542	-3.2625	-3.25	-3.1	-3.1979	-3.0062	-3.0458	-3.3	-2.9146	-3.2188	-3.0833	-2.9083	142.362	96.782	299.658	278.333	240.386	276.546	255.715	252.419	59.845	7.895	-18.427	235.373	151.336	262.521	286.343	113.887	0.00019446	0.00067215	7.3184e-05	1028.7	3.1102e-06	9.6818e-06	1112.2	222.46	5.817e-06	2.4857e-06	280.42	79.331	63.637	18.59	3.2276e-06	25.533	0.00024667	0.00028528	7.2514e-05	1006.9	2.806e-06	3.173e-06	1094.6	220.81	2.8221e-06	3.1357e-06	275.34	79.664	63.961	18.888	2.789e-06	25.901	54.934	37.245	211.470	-32.211	145.361	108.500	-32.010	-24.699	137.045	169.460	-24.941	-18.331	-17.722	-9.952	174.983	-10.628	-8191	255	
1170.239	1	1	0	0	0.17722	0.4494	0.24858	0.32247	0.052091	0.3008	0.23298	0.42055	0.19102	0.26136	0.1377	0.18158	0.068102	0.081956	0.040418	0.27166	-2.85	-2.9354	-3.0646	-3.2771	-3.0938	-3.2458	-3.175	-2.7438	-3.0542	-2.9188	-2.8354	-3.3	-2.9688	-3.2042	-3.1021	-2.8917	264.712	38.876	276.397	57.235	23.365	133.214	257.821	292.053	214.241	132.123	240.110	-23.126	19.935	311.760	15.348	-13.077	0.00018577	0.00054103	3.7557e-05	1039.7	6.3513e-06	2.7015e-06	1113.6	223.41	1.8788e-06	2.3171e-06	278.42	79.667	63.19	18.552	2.8784e-06	25.472	0.0002617	0.00028203	7.0213e-05	1010.7	2.9905e-06	3.1133e-06	1095	221.77	3.03e-06	3.026e-06	274.58	79.712	63.902	18.798	2.7197e-06	25.857	76.492	46.197	-14.960	-32.229	139.677	14.445	-32.248	-24.609	36.390	138.408	-25.282	-17.967	-17.753	-10.234	68.102	-10.689	-8191	255	
1170.358	1	1	0	0	0.26258	0.091583	0.12086	0.024199	0.083284	0.079145	0.06989	0.15076	0.11833	0.10636	0.28769	0.13388	0.067259	0.065639	0.2162	0.19458	-2.8438	-2.8854	-2.8667	-3.3208	-2.7229	-3.175	-3.2333	-2.8854	-3.3458	-2.9188	-2.8583	-3.2	-2.725	-3.0062	-3.2625	-2.8875	284.737	38.585	120.217	217.312	85.915	289.384	-31.067	161.555	21.448	315.528	126.862	165.057	83.354	257.195	202.083	52.439	0.00021202	0.00045365	0.00015092	1030.6	3.5305e-06	4.6665e-06	1112.1	223.03	2.5333e-06	3.6155e-06	280.92	79.39	63.51	18.549	4.3224e-06	25.419	0.00028308	0.00027415	6.901e-05	1009.6	3.1888e-06	2.9172e-06	1093.5	221.39	3.0582e-06	2.7956e-06	274.8	79.852	64.103	18.826	2.604e-06	25.856	55.509	67.479	8.284	-32.040	45.321	94.650	-31.935	-24.780	118.546	75.159	-25.129	-18.061	-18.059	-10.605	72.883	-11.020	-8191	255	
1170.454	1	1	0	0	0.25025	0.24505	0.33334	0.27498	0.06206	0.051964	0.1967	0.12251	0.20765	0.26333	0.12379	0.14161	0.050889	0.14982	0.16863	0.12564	-2.7792	-2.9813	-2.7687	-3.0896	-2.9396	-3.0021	-3.2771	-2.9917	-3.3083	-2.925	-2.8479	-3.3937	-2.9083	-2.9583	-3.2479	-3.0167	213.058	66.469	100.660	22.311	232.480	1.941	264.219	281.263	115.166	70.418	174.416	219.402	-4.112	295.301	114.606	-26.851	0.00021708	0.00039351	0.00014601	1030.1	3.5146e-06	3.3596e-06	1110.6	222.25	2.9868e-06	3.2235e-06	281.5	80.004	64.098	18.592	7.3858e-06	25.587	0.00027977	0.00025104	6.7485e-05	1008	3.1109e-06	2.8057e-06	1093.9	221.12	3.1434e-06	2.7669e-06	275.24	80.118	64.03	18.801	2.5772e-06	26.001	77.134	-36.718	56.762	-32.431	101.308	124.849	-32.082	-24.854	138.799	187.685	-25.068	-18.424	-17.934	-10.067	98.564	-10.645	-8191	255	
1170.550	1	1	0	0	0.013458	0.17884	0.11544	0.14891	0.13632	0.064177	0.31727	0.22023	0.17899	0.091061	0.069762	0.10927	0.19945	0.13473	0.076432	0.28658	-2.6583	-3.0521	-2.8771	-3.3333	-3.0042	-3.0208	-3.4313	-3.0875	-3.1813	-3.1792	-2.9083	-3.2521	-3.05	-3.0146	-3.3312	-2.8563	129.334	289.478	138.911	208.791	104.869	46.903	218.077	3.670	-37.564	-36.453	183.640	266.404	8.019	65.412	215.539	253.736	0.00024765	0.0002298	0.00014716	1028.2	3.5513e-06	3.0531e-06	1107.6	222.55	5.0302e-06	4.3943e-06	276.56	79.135	63.303	18.534	2.7141e-06	25.678	0.000276	0.00024959	6.5053e-05	1009	3.0252e-06	2.7797e-06	1093.5	221.46	3.0141e-06	2.7238e-06	273.71	79.676	63.927	18.81	2.6862e-06	25.985	72.360	76.232	108.783	-32.281	51.290	147.900	-31.822	-24.757	62.112	75.843	-25.231	-17.911	-17.729	-10.014	151.133	-11.191	-8191	255	
#DATA ENDS
