BOXY.EXE: ISS Imagent and Oximeter Data Acquisition Program Version 0.80
Ascii Record File

#ACQ INFORMATION
2  Detector Channels 
16  External MUX Channels 
1  Auxiliary Channels 
5000  Waveform (CCF) Frequency (Hz)
1  Waveforms Skipped 
30  Waveforms Averaged 
1  Cycles Averaged 
16  Acquisitions per Waveform 
10.0806  Updata Rate (Hz) 

#FILE INFORMATION
TRUE -- External MUX Channel results are PARSED.
FALSE -- AC DC and Phase are NOT grouped.
TRUE -- Companion Program Settings File CREATED.
FALSE -- AC data not excluded
FALSE -- DC data not excluded
FALSE -- Phase data not excluded
FALSE -- Auxillary Chn. data not excluded
Tab delimiters

#CALIBRATION STATE
TRUE -- Waveform Calibration Values APPLIED.


#AUX CALIBRATION VALUES
Val Type	aux-1	

Term	1.0000e+00	
Factor	0.0000e+00	


#WF CALIBRATION VALUES
A = Detector Channel
Val Type	A-AC1	A-AC2	A-AC3	A-AC4	A-AC5	A-AC6	A-AC7	A-AC8	A-AC9	A-AC10	A-AC11	A-AC12	A-AC13	A-AC14	A-AC15	A-AC16	A-DC1	A-DC2	A-DC3	A-DC4	A-DC5	A-DC6	A-DC7	A-DC8	A-DC9	A-DC10	A-DC11	A-DC12	A-DC13	A-DC14	A-DC15	A-DC16	A-Ph1	A-Ph2	A-Ph3	A-Ph4	A-Ph5	A-Ph6	A-Ph7	A-Ph8	A-Ph9	A-Ph10	A-Ph11	A-Ph12	A-Ph13	A-Ph14	A-Ph15	A-Ph16	

Term	0.00000e+00	0.00000e+00	0.00000e+00	0.00000e+00	0.00000e+00	0.00000e+00	0.00000e+00	0.00000e+00	0.00000e+00	0.00000e+00	0.00000e+00	0.00000e+00	0.00000e+00	0.00000e+00	0.00000e+00	0.00000e+00	0.00000e+00	0.00000e+00	0.00000e+00	0.00000e+00	0.00000e+00	0.00000e+00	0.00000e+00	0.00000e+00	0.00000e+00	0.00000e+00	0.00000e+00	0.00000e+00	0.00000e+00	0.00000e+00	0.00000e+00	0.00000e+00	0.00000e+00	0.00000e+00	0.00000e+00	0.00000e+00	0.00000e+00	0.00000e+00	0.00000e+00	0.00000e+00	0.00000e+00	0.00000e+00	0.00000e+00	0.00000e+00	0.00000e+00	0.00000e+00	0.00000e+00	0.00000e+00	
Factor	1.00000e+00	1.00000e+00	1.00000e+00	1.00000e+00	1.00000e+00	1.00000e+00	1.00000e+00	1.00000e+00	1.00000e+00	1.00000e+00	1.00000e+00	1.00000e+00	1.00000e+00	1.00000e+00	1.00000e+00	1.00000e+00	1.00000e+00	1.00000e+00	1.00000e+00	1.00000e+00	1.00000e+00	1.00000e+00	1.00000e+00	1.00000e+00	1.00000e+00	1.00000e+00	1.00000e+00	1.00000e+00	1.00000e+00	1.00000e+00	1.00000e+00	1.00000e+00	X	X	X	X	X	X	X	X	X	X	X	X	X	X	X	X	

B = Detector Channel
Val Type	B-AC1	B-AC2	B-AC3	B-AC4	B-AC5	B-AC6	B-AC7	B-AC8	B-AC9	B-AC10	B-AC11	B-AC12	B-AC13	B-AC14	B-AC15	B-AC16	B-DC1	B-DC2	B-DC3	B-DC4	B-DC5	B-DC6	B-DC7	B-DC8	B-DC9	B-DC10	B-DC11	B-DC12	B-DC13	B-DC14	B-DC15	B-DC16	B-Ph1	B-Ph2	B-Ph3	B-Ph4	B-Ph5	B-Ph6	B-Ph7	B-Ph8	B-Ph9	B-Ph10	B-Ph11	B-Ph12	B-Ph13	B-Ph14	B-Ph15	B-Ph16	

Term	0.00000e+00	0.00000e+00	0.00000e+00	0.00000e+00	0.00000e+00	0.00000e+00	0.00000e+00	0.00000e+00	0.00000e+00	0.00000e+00	0.00000e+00	0.00000e+00	0.00000e+00	0.00000e+00	0.00000e+00	0.00000e+00	0.00000e+00	0.00000e+00	0.00000e+00	0.00000e+00	0.00000e+00	0.00000e+00	0.00000e+00	0.00000e+00	0.00000e+00	0.00000e+00	0.00000e+00	0.00000e+00	0.00000e+00	0.00000e+00	0.00000e+00	0.00000e+00	-1.95322e+02	-1.31664e+02	-1.35514e+02	-1.83507e+02	-9.14092e+01	-5.93382e+01	-1.57852e+02	-1.62015e+02	-9.36674e+01	-6.54123e+01	-1.76234e+02	-1.71211e+02	-1.81698e+02	-1.78091e+02	-8.68548e+01	-1.51000e+02	
Factor	4.07472e-05	1.94038e-04	5.01386e-05	4.44362e-01	1.74494e-06	1.67566e-06	1.66286e-01	6.31906e-02	2.08765e-06	1.66474e-06	2.13853e-01	2.89034e-02	2.88634e-02	9.13376e-03	1.93495e-06	1.32076e-02	3.19055e-06	3.47120e-06	9.67125e-07	2.29784e-01	3.78690e-08	3.80063e-08	8.23849e-02	3.32550e-02	3.75348e-08	3.80335e-08	1.05779e-01	1.48008e-02	1.52162e-02	4.84302e-03	3.76195e-08	6.77457e-03	X	X	X	X	X	X	X	X	X	X	X	X	X	X	X	X	



#DISTANCE SETTINGS
A = Detector Channel
A-1	A-2	A-3	A-4	A-5	A-6	A-7	A-8	A-9	A-10	A-11	A-12	A-13	A-14	A-15	A-16	

2.5000e+00	3.0000e+00	2.5000e+00	3.0000e+00	2.0000e+00	3.0000e+00	1.5000e+00	3.0000e+00	3.0000e+00	3.0000e+00	3.0000e+00	3.0000e+00	3.0000e+00	3.0000e+00	1.5000e+00	3.0000e+00	

B = Detector Channel
B-1	B-2	B-3	B-4	B-5	B-6	B-7	B-8	B-9	B-10	B-11	B-12	B-13	B-14	B-15	B-16	

1.0000e+01	1.0000e+01	1.0000e+01	1.4400e+00	1.0000e+01	1.0000e+01	1.5100e+00	1.9400e+00	1.0000e+01	1.0000e+01	1.9900e+00	2.4900e+00	2.4100e+00	2.9000e+00	1.0000e+01	2.9800e+00	




#DATA BEGINS
time	group	step	mark	flag	A-AC1	A-AC2	A-AC3	A-AC4	A-AC5	A-AC6	A-AC7	A-AC8	A-AC9	A-AC10	A-AC11	A-AC12	A-AC13	A-AC14	A-AC15	A-AC16	A-DC1	A-DC2	A-DC3	A-DC4	A-DC5	A-DC6	A-DC7	A-DC8	A-DC9	A-DC10	A-DC11	A-DC12	A-DC13	A-DC14	A-DC15	A-DC16	A-Ph1	A-Ph2	A-Ph3	A-Ph4	A-Ph5	A-Ph6	A-Ph7	A-Ph8	A-Ph9	A-Ph10	A-Ph11	A-Ph12	A-Ph13	A-Ph14	A-Ph15	A-Ph16	B-AC1	B-AC2	B-AC3	B-AC4	B-AC5	B-AC6	B-AC7	B-AC8	B-AC9	B-AC10	B-AC11	B-AC12	B-AC13	B-AC14	B-AC15	B-AC16	B-DC1	B-DC2	B-DC3	B-DC4	B-DC5	B-DC6	B-DC7	B-DC8	B-DC9	B-DC10	B-DC11	B-DC12	B-DC13	B-DC14	B-DC15	B-DC16	B-Ph1	B-Ph2	B-Ph3	B-Ph4	B-Ph5	B-Ph6	B-Ph7	B-Ph8	B-Ph9	B-Ph10	B-Ph11	B-Ph12	B-Ph13	B-Ph14	B-Ph15	B-Ph16	aux-1	digaux	

2234.806	1	1	0	768	0.21135	0.30118	0.222	0.4061	0.063986	0.11827	0.30152	0.33015	0.10567	0.056283	0.11488	0.1721	0.12847	0.21858	0.16475	0.23385	-2.4375	-2.5229	-2.7125	-2.9729	-2.6021	-2.9375	-2.6188	-2.7229	-2.9271	-2.7146	-2.8729	-3.0167	-2.5583	-2.7812	-2.6146	-2.7062	201.570	166.201	33.213	259.150	150.650	18.731	326.833	276.740	166.329	140.412	132.529	276.836	247.511	261.412	88.788	278.592	0.0010573	0.00075514	0.0003519	1031.1	7.0748e-06	1.5698e-05	1159.4	296.46	2.8097e-06	1.1339e-05	398.49	153.05	100.81	43.462	1.0056e-06	85.446	0.0026752	0.0033493	0.00086639	1150.4	3.1577e-05	3.6504e-05	1181.1	308.82	3.1574e-05	3.6792e-05	466.16	158.72	109.3	46.403	3.2295e-05	87.37	62.465	274.923	36.851	-20.107	154.595	143.875	-20.727	-14.978	223.980	70.169	-16.926	-12.014	-10.861	-7.160	136.128	-9.472	-8191	255	
2234.902	1	1	0	0	0.1962	0.096842	0.0973	0.074685	0.42063	0.086518	0.4603	0.31643	0.076079	0.15942	0.081012	0.23309	0.073742	0.30102	0.056727	0.05948	-2.5208	-2.5396	-2.5958	-2.8187	-2.4958	-2.9042	-2.8271	-2.5979	-2.9917	-2.5208	-2.8187	-3.0667	-2.4938	-2.925	-2.5625	-2.7979	166.771	216.890	137.229	182.170	133.611	264.312	-31.350	309.933	222.336	239.461	325.759	297.094	315.442	10.443	14.231	293.922	0.00099835	0.0022158	0.00061246	1028	1.4852e-05	9.7929e-06	1169.8	295.12	2.5656e-05	9.6018e-06	409.42	154.48	101.04	44.188	1.3336e-05	86.555	0.0028802	0.0033063	0.00083352	1147.1	3.4145e-05	3.5827e-05	1187.5	308.91	3.439e-05	3.5765e-05	468.16	159.61	110.64	46.763	3.1827e-05	88.651	81.040	-6.521	320.759	-20.208	198.423	142.753	-20.687	-15.403	161.936	-1.847	-16.372	-11.915	-11.068	-7.347	4.062	-9.393	-8191	255	
2234.998	1	1	0	0	0.096094	0.11805	0.1513	0.18192	0.14157	0.13362	0.23883	0.15921	0.19631	0.23014	0.21376	0.16143	0.362	0.30336	0.12182	0.064508	-2.4917	-2.5396	-2.6396	-2.7458	-2.7146	-2.9146	-2.9292	-2.7313	-2.8583	-2.675	-2.6688	-2.9354	-2.8896	-2.8979	-2.8354	-2.7146	9.207	198.537	105.935	85.227	29.975	183.329	249.092	220.464	30.454	160.526	201.989	316.850	283.431	286.239	45.037	26.691	0.0011357	0.0031507	0.0003957	1036.5	6.6918e-06	1.3308e-05	1172	297.48	1.3431e-05	1.5403e-05	411.97	158.43	104.34	45.941	8.0424e-06	91.351	0.0030803	0.0031816	0.00080852	1155.5	3.6201e-05	3.3989e-05	1188.2	311.81	3.5291e-05	3.3193e-05	468.4	164.48	113.46	48.255	2.9483e-05	92.98	68.868	290.333	303.850	-20.424	56.238	145.102	-20.499	-15.011	296.443	85.536	-16.009	-11.852	-11.077	-7.520	109.235	-9.594	-8191	255	
2235.094	1	1	0	0	0.092434	0.15915	0.3166	0.080449	0.1905	0.21746	0.44453	0.15429	0.12506	0.21943	0.078134	0.2653	0.30224	0.28622	0.16614	0.21048	-2.6021	-2.6646	-2.5417	-3.0083	-2.5312	-2.7542	-3.1604	-2.5667	-2.9375	-2.7833	-2.6396	-3.0563	-2.5958	-2.9396	-2.7438	-2.8667	-24.064	28.084	76.563	10.347	40.361	-25.794	234.646	326.227	186.459	0.913	315.705	271.326	10.508	310.348	200.740	238.673	0.00076289	0.0020146	0.00031551	1038.5	3.6864e-06	1.4441e-06	1181.7	303.64	2.0634e-06	1.0969e-05	421.25	166.42	108.28	47.778	1.3812e-05	92.405	0.0030024	0.002889	0.00073523	1158.5	3.4577e-05	3.097e-05	1194.8	317.83	3.3345e-05	3.0067e-05	471.74	171.49	115.94	49.623	2.7092e-05	94.322	52.170	306.638	52.102	-19.905	213.453	307.740	-20.543	-15.027	227.879	62.473	-16.697	-12.146	-11.266	-7.521	169.713	-9.631	-8191	255	
2235.191	1	1	0	0	0.069481	0.095492	0.26898	0.15552	0.083707	0.26305	0.088154	0.051108	0.082385	0.057716	0.13019	0.097507	0.1122	0.10873	0.091585	0.11881	-2.4437	-2.6333	-2.5354	-2.9062	-2.4646	-2.7146	-3.1	-2.4813	-2.8438	-2.7583	-2.6521	-3.0938	-2.6958	-2.9292	-2.9	-2.6729	163.779	210.201	57.888	276.682	172.255	26.155	273.828	230.633	228.478	143.649	203.982	175.513	326.717	91.078	67.350	272.164	0.00068678	0.0013345	0.0003699	1031.2	1.513e-05	4.6395e-06	1184.8	305.88	7.7064e-06	1.1815e-05	419.29	165.35	107.31	46.869	1.6783e-05	89.986	0.0027784	0.0026815	0.00070688	1165.2	3.1875e-05	2.9257e-05	1191.2	320.87	3.132e-05	2.8877e-05	469.26	171.14	115.38	48.71	2.8059e-05	92.331	39.966	37.660	35.751	-20.052	-0.518	249.363	-20.512	-14.791	73.993	-10.712	-16.861	-12.166	-10.921	-7.225	133.159	-9.536	-8191	255	
2235.287	1	1	0	0	0.34298	0.081391	0.1463	0.085658	0.035923	0.13664	0.14606	0.1693	0.20494	0.052262	0.16892	0.29866	0.072792	0.1665	0.057135	0.10026	-2.5104	-2.8604	-2.6562	-3.1208	-2.5708	-2.6708	-2.9083	-2.6625	-2.4646	-2.7687	-2.6625	-2.8729	-2.6375	-2.7521	-2.8812	-2.6667	296.190	268.704	316.844	14.916	148.908	36.151	311.253	246.815	226.965	204.713	303.731	80.347	-6.209	305.295	110.139	255.341	0.00054192	0.0014861	0.00032266	1040.5	2.5826e-06	6.9906e-06	1191.3	304.28	1.0638e-05	1.0768e-05	417.54	166.41	108.27	47.328	1.2815e-05	91.063	0.0026802	0.0025822	0.00074952	1173.9	3.0687e-05	2.8429e-05	1199	319.74	2.9629e-05	2.7454e-05	473.5	171.51	115.08	48.805	2.9245e-05	92.98	37.825	3.125	1.943	-20.200	184.897	21.033	-20.429	-14.938	57.987	124.892	-16.546	-11.917	-10.984	-7.707	240.411	-9.652	-8191	255	
2235.407	1	1	0	0	0.35829	0.12178	0.04392	0.11798	0.26047	0.15424	0.099947	0.14351	0.17357	0.16288	0.21957	0.1402	0.37128	0.23482	0.071777	0.27017	-2.3354	-2.7542	-2.6375	-2.9	-2.5771	-2.5104	-2.9854	-2.6021	-2.6792	-3.0687	-2.4562	-2.9813	-2.8146	-2.5292	-2.7833	-2.7333	28.424	131.824	173.282	254.300	13.181	81.357	252.100	283.999	85.750	311.703	10.947	-4.468	316.426	56.997	24.179	268.627	0.00062345	0.0011026	0.00045912	1034.9	1.3383e-05	2.6271e-06	1190.3	306.01	9.6826e-06	8.3802e-06	424.87	168.13	109.54	48.189	9.638e-06	92.949	0.0024859	0.0024152	0.0007678	1161.4	2.8157e-05	2.6228e-05	1203.3	317.92	2.7035e-05	2.5183e-05	477.76	172.65	115.22	49.426	2.9308e-05	94.097	30.309	50.109	80.547	-19.885	92.826	252.687	-20.595	-15.156	33.656	159.985	-16.149	-12.349	-11.315	-7.835	133.106	-9.726	-8191	255	
2235.503	1	1	0	0	0.078272	0.15879	0.15204	0.16715	0.19117	0.14531	0.25073	0.056034	0.085815	0.08954	0.10892	0.12243	0.23519	0.12047	0.278	0.22873	-2.175	-2.8208	-2.5792	-2.8042	-2.8396	-2.5479	-3.1646	-2.5917	-2.5542	-2.9375	-2.7812	-2.8312	-2.9667	-2.6833	-2.825	-2.6833	145.207	139.796	167.667	240.173	152.577	73.090	273.483	267.533	308.457	273.951	48.365	247.934	275.080	292.705	277.307	281.995	0.00046069	0.00030454	7.5511e-05	1030.6	2.3447e-05	1.5068e-05	1207.1	309.96	5.0486e-06	1.5956e-05	441.06	172.61	113.03	49.402	1.351e-05	95.102	0.0022677	0.0022798	0.00074751	1144.1	2.5119e-05	2.4818e-05	1214.4	318.34	2.4347e-05	2.4877e-05	486.63	176.12	117.37	50.782	2.7866e-05	95.542	82.935	143.195	35.084	-20.289	93.762	192.712	-20.863	-15.189	80.248	103.227	-16.410	-12.527	-11.527	-7.667	135.832	-9.791	-8191	255	
2235.600	1	1	0	0	0.16842	0.18214	0.43986	0.043811	0.14655	0.042876	0.13644	0.22413	0.15817	0.22739	0.2669	0.34946	0.22148	0.055251	0.16306	0.14407	-2.0583	-2.8833	-2.3229	-2.9625	-2.7583	-2.5854	-3.1833	-2.6833	-2.7125	-2.9875	-2.6021	-2.8875	-2.9667	-2.6562	-3.0354	-2.8167	109.901	101.233	279.934	78.520	22.093	26.204	257.353	279.021	232.506	250.768	-16.364	303.232	251.649	173.708	326.131	48.879	0.00068077	0.0010658	0.00027196	1059.2	9.4546e-06	1.5434e-05	1219.1	316.55	1.8242e-05	1.5678e-05	439.71	175.25	114.21	49.709	1.7435e-05	93.621	0.0020339	0.002268	0.00069986	1137.2	2.2334e-05	2.4856e-05	1226.5	321.99	2.2098e-05	2.5478e-05	483.96	177.35	118.21	51.017	2.6066e-05	94.005	66.768	125.115	62.657	-20.186	-2.136	185.002	-20.656	-15.056	-12.395	178.366	-16.557	-12.362	-11.221	-7.705	14.519	-9.632	-8191	255	
2235.696	1	1	0	0	0.10992	0.025812	0.10053	0.30191	0.2899	0.19744	0.16479	0.034336	0.066058	0.11586	0.044372	0.2921	0.18679	0.12304	0.035488	0.15521	-2.3625	-2.8896	-2.475	-2.7521	-2.8583	-2.7062	-2.8542	-2.9313	-2.6646	-3.1917	-2.6562	-2.9292	-2.9938	-2.8812	-2.8333	-3.0104	165.370	58.635	169.331	251.743	-11.306	59.682	-19.128	65.339	291.468	90.668	318.247	258.523	275.969	9.755	70.817	285.374	0.0011537	0.001507	0.00041897	1058.8	1.1791e-05	1.1718e-05	1228.2	316.59	1.6255e-05	6.1163e-06	439.25	176.27	115.01	50.133	1.754e-05	95.002	0.00193	0.0023756	0.00065693	1133.9	2.1806e-05	2.6005e-05	1229.8	321.23	2.1961e-05	2.6352e-05	481.15	177.44	119.36	51.547	2.3918e-05	94.704	70.675	156.167	-30.986	-20.233	129.854	173.246	-20.518	-15.260	151.380	165.791	-16.747	-12.038	-11.282	-7.521	7.573	-9.729	-8191	255	
2235.790	1	1	0	0	0.12409	0.26004	0.24005	0.14758	0.10941	0.23657	0.26598	0.035431	0.32735	0.22934	0.12411	0.057809	0.19801	0.28093	0.10485	0.17843	-2.1667	-2.9021	-2.6958	-2.55	-3.0375	-2.5729	-2.8896	-3.1833	-2.5958	-2.9229	-2.7146	-2.7167	-3.0125	-2.6833	-2.6771	-3.1229	-6.472	48.241	40.380	-12.929	296.366	109.684	319.636	290.945	97.664	219.103	57.673	302.740	13.637	313.436	56.308	228.605	0.00093966	0.0020272	0.00036563	1069.6	1.2242e-05	6.7501e-06	1238.3	317.32	8.812e-06	2.3011e-05	442.23	175.48	114.96	49.585	1.7571e-05	94.796	0.0019733	0.0024193	0.00062124	1135.2	2.3051e-05	2.6432e-05	1234.7	321.01	2.3481e-05	2.6375e-05	478.65	176.59	119.44	50.997	2.3611e-05	94.722	69.637	16.962	-4.691	-20.083	55.699	82.167	-20.464	-15.022	130.860	122.522	-16.099	-12.341	-11.215	-7.672	67.352	-9.556	-8191	255	
2235.886	1	1	0	0	0.11069	0.20424	0.30609	0.037292	0.1656	0.049454	0.1047	0.31669	0.1588	0.18034	0.1896	0.095751	0.2413	0.28954	0.26896	0.28944	-2.0396	-3.1417	-2.5146	-2.7562	-2.9542	-2.6958	-2.925	-3.05	-2.5729	-2.8292	-2.7625	-2.6979	-3.0708	-2.5958	-2.7417	-3.0812	239.229	248.041	99.600	33.787	103.874	158.725	18.910	232.086	2.357	234.410	269.149	23.267	234.623	-19.356	165.577	302.865	0.00099148	0.0010614	0.00043096	1077.2	5.2419e-06	7.1632e-06	1252.9	317.06	1.508e-05	2.2226e-05	451.87	176.13	115.24	50.198	9.4858e-06	95.003	0.0021497	0.0023886	0.00059808	1141.7	2.5055e-05	2.6058e-05	1245.8	322.51	2.5568e-05	2.5904e-05	482.9	178.02	121.03	51.511	2.3453e-05	95.001	85.044	-3.199	89.066	-20.107	-24.477	81.601	-20.405	-15.006	143.644	16.241	-16.013	-12.432	-11.086	-7.733	73.048	-9.632	-8191	255	
2236.007	1	1	0	0	0.17096	0.096309	0.19958	0.10723	0.11579	0.088192	0.326	0.19735	0.17974	0.15129	0.21935	0.18584	0.3474	0.3089	0.14765	0.10897	-1.9562	-2.7333	-2.7083	-2.5792	-2.7646	-2.6083	-2.7104	-2.8104	-2.6125	-2.7625	-2.8	-2.6771	-2.8688	-2.5667	-2.4396	-2.9479	88.775	229.662	264.662	254.538	132.846	-18.645	289.169	-1.746	159.214	275.450	64.178	314.640	-12.629	198.615	278.774	18.547	0.00097683	0.00097905	0.00014456	1074.3	1.0454e-05	1.1357e-05	1234	313.61	9.9535e-06	1.5325e-05	435.73	169.97	112.98	48.319	1.145e-05	91.165	0.0023536	0.0023488	0.0005929	1143.9	2.726e-05	2.5323e-05	1231.6	319.66	2.7169e-05	2.5205e-05	469.43	172.56	118.43	49.431	2.2448e-05	91.295	59.808	36.406	246.031	-19.580	140.919	128.372	-20.699	-15.229	103.015	40.218	-16.952	-12.024	-11.347	-7.755	98.300	-9.357	-8191	255	
2236.103	1	1	0	0	0.15655	0.19727	0.14444	0.20935	0.10098	0.13421	0.24998	0.1484	0.27183	0.17328	0.17187	0.23982	0.16705	0.098806	0.14105	0.0046818	-1.9271	-2.6146	-2.6729	-2.3875	-2.7375	-2.5396	-2.5021	-2.9917	-2.5167	-2.8979	-3.025	-2.5458	-2.8896	-2.8083	-2.6042	-2.9979	159.271	169.892	34.930	29.214	73.877	255.370	230.582	272.913	45.335	261.027	268.240	-1.245	-5.095	44.685	146.935	-17.138	0.00079892	0.0020255	0.00028741	1057.6	1.9355e-05	1.5888e-05	1221	310.27	1.0894e-05	1.1798e-05	436.26	170.03	113.17	48.325	2.2485e-06	91.652	0.0023318	0.0022463	0.00056813	1147.2	2.6818e-05	2.4222e-05	1216	318.62	2.6353e-05	2.414e-05	465.25	172.99	117.94	49.518	2.2274e-05	92.495	67.364	24.068	44.979	-20.395	49.100	88.056	-20.723	-14.984	287.935	-2.567	-16.550	-12.184	-11.338	-7.593	141.586	-9.515	-8191	255	
2236.199	1	1	0	0	0.1791	0.034391	0.029839	0.11455	0.097966	0.062444	0.24977	0.24627	0.10749	0.13438	0.14931	0.13652	0.16227	0.070608	0.12255	0.13488	-2.1271	-2.6937	-2.6854	-2.5542	-2.8937	-2.725	-2.7875	-2.8417	-2.6708	-2.6958	-2.8146	-2.6729	-2.8625	-3.0146	-2.4521	-3.0917	25.450	318.177	-18.881	287.231	256.136	-15.041	148.110	230.631	97.626	93.992	285.485	175.566	-28.216	315.988	266.137	211.060	0.0007697	0.0016464	0.00024285	1047.1	1.3131e-05	7.886e-06	1213.9	308.46	2.9044e-05	2.006e-06	429.77	168.07	110.58	48.013	1.1068e-05	91.761	0.0022461	0.0021614	0.00056549	1146.2	2.5565e-05	2.3509e-05	1206.4	317.68	2.5054e-05	2.3082e-05	464.12	171.57	115.87	49.037	2.2977e-05	92.958	57.707	49.810	29.685	-19.901	84.556	191.348	-20.540	-15.030	58.381	20.444	-16.562	-12.473	-11.269	-7.532	176.391	-9.545	-8191	255	
2236.295	1	1	0	0	0.20806	0.2489	0.029425	0.11073	0.18153	0.074613	0.097356	0.26581	0.15788	0.051205	0.24013	0.19262	0.21147	0.067459	0.11837	0.21226	-2.2104	-2.7375	-2.8958	-2.6417	-2.7708	-2.9146	-2.5812	-3.0438	-2.5542	-2.5438	-3.2021	-2.5333	-2.775	-2.9375	-2.475	-3.0792	20.037	-27.855	16.095	225.578	142.537	96.886	286.812	302.428	287.332	170.557	208.789	314.877	248.927	-8.215	68.156	277.226	0.00072737	0.0011836	0.00034721	1057.9	6.5967e-06	1.5242e-05	1214.8	311.42	8.5658e-06	9.0969e-06	434.95	170.46	112.81	49.1	1.7661e-05	92.561	0.0021243	0.0020781	0.00059484	1151	2.423e-05	2.2273e-05	1216.3	320.15	2.3974e-05	2.2232e-05	473.31	174.29	117.16	49.641	2.4609e-05	93.511	65.659	44.691	210.844	-20.377	109.322	70.696	-20.744	-15.506	253.228	50.813	-15.864	-12.491	-11.454	-7.607	184.012	-9.659	-8191	255	
2236.392	1	1	0	0	0.19208	0.080238	0.1025	0.053185	0.16666	0.37034	0.12917	0.35463	0.14107	0.12474	0.17737	0.20292	0.35016	0.19052	0.20872	0.068636	-2.225	-2.5062	-2.8583	-2.4562	-2.7438	-2.8521	-2.6875	-2.9146	-2.7333	-2.4646	-3.0458	-2.7458	-2.7708	-2.9771	-2.3958	-3.0354	155.727	160.502	293.687	144.039	210.658	126.810	273.848	265.163	167.078	242.967	252.261	301.156	321.571	316.415	74.036	292.756	0.00070759	0.00059911	0.0002498	1056	1.0985e-05	3.3752e-06	1226	310.24	1.6986e-05	5.19e-06	431.39	169.85	111.77	48.04	1.7069e-05	90.569	0.0020421	0.0020163	0.00063707	1149.3	2.3431e-05	2.1773e-05	1227.4	318.63	2.2879e-05	2.1535e-05	474.23	172.01	116.05	48.792	2.5428e-05	90.995	73.603	142.357	130.894	-20.909	49.497	102.787	-20.666	-15.369	29.150	47.619	-16.419	-12.464	-11.417	-7.498	147.184	-9.654	-8191	255	
2236.488	1	1	0	0	0.16695	0.0808	0.2141	0.23882	0.11492	0.29489	0.30957	0.12921	0.071395	0.20506	0.063469	0.17082	0.34116	0.1797	0.068898	0.29767	-2.4771	-2.5708	-2.9479	-2.5833	-2.7188	-2.7687	-2.6292	-2.8583	-2.6417	-2.6167	-2.75	-2.8417	-2.4083	-2.9729	-2.5979	-2.9708	206.551	292.811	-17.732	81.049	306.785	23.894	270.831	82.798	184.638	142.369	50.358	-14.420	324.183	140.916	237.854	298.776	0.00078338	0.00052895	0.00031238	1057.7	9.1747e-06	3.2429e-06	1221.7	312.96	1.6425e-05	1.7435e-06	435.57	171.26	112.97	48.299	6.1967e-06	91.49	0.0019138	0.0019699	0.00064443	1134.7	2.1586e-05	2.1696e-05	1221.4	317.86	2.0931e-05	2.2156e-05	475.73	172.56	116.5	49.279	2.4562e-05	91.794	77.591	60.658	134.905	-20.307	315.354	-10.481	-20.520	-15.316	76.580	188.678	-16.032	-12.311	-11.544	-7.809	121.372	-9.508	-8191	255	
2236.584	1	1	0	0	0.044444	0.13627	0.12714	0.15777	0.19917	0.062223	0.31147	0.22615	0.18169	0.14929	0.27581	0.28638	0.30031	0.047034	0.14617	0.12719	-2.6771	-2.3333	-2.8292	-2.4875	-2.7042	-2.8021	-2.9229	-2.5292	-3.1229	-2.7	-2.975	-2.7958	-2.5896	-2.9542	-2.5333	-2.8583	165.517	249.911	107.378	3.638	108.914	263.797	269.539	261.152	196.853	324.997	230.345	271.562	25.348	-29.240	53.712	-28.154	0.00066288	0.0009545	0.00032926	1058.7	2.0902e-06	1.9053e-05	1229.1	312.48	8.1578e-06	5.9992e-06	442.19	173.36	114.37	48.828	1.6835e-05	92.272	0.0017738	0.002071	0.00063061	1123.4	2.0371e-05	2.2826e-05	1228.7	318.78	2.0052e-05	2.381e-05	477.43	174.55	117.41	49.966	2.3639e-05	92.495	80.761	65.233	19.717	-19.619	221.784	175.241	-20.793	-15.115	82.941	79.335	-16.374	-12.350	-11.212	-7.378	189.942	-9.423	-8191	255	
2236.680	1	1	0	0	0.022432	0.016856	0.20534	0.030573	0.028548	0.16798	0.098804	0.14383	0.0503	0.16375	0.034371	0.036265	0.12645	0.20784	0.09773	0.30841	-2.2812	-2.5167	-2.9562	-2.6312	-2.3875	-3.0771	-2.7542	-2.8	-2.8521	-2.3688	-2.8958	-2.7479	-2.75	-2.7333	-2.5083	-2.6208	285.056	115.716	324.606	298.534	149.524	-2.198	291.558	54.883	318.949	-26.794	310.901	161.000	242.878	239.411	165.448	266.923	0.00089841	0.0015777	0.00010313	1066.8	7.8973e-06	5.6732e-06	1236.5	315.11	1.7626e-05	1.1234e-05	446.22	173.15	114.47	49.245	8.9207e-06	93.956	0.0017824	0.0022343	0.00060783	1132.4	2.0893e-05	2.4588e-05	1233.2	319.17	2.0595e-05	2.4815e-05	476.33	174.54	117.93	50.583	2.301e-05	93.87	74.660	67.244	289.568	-20.169	111.747	205.321	-20.688	-14.852	85.435	162.791	-16.689	-12.206	-11.249	-7.469	122.585	-9.440	-8191	255	
2236.776	1	1	0	0	0.060207	0.26399	0.24765	0.17331	0.1404	0.12711	0.088709	0.087861	0.10464	0.16063	0.19631	0.041764	0.17253	0.22334	0.080624	0.35865	-2.3542	-2.4875	-2.7062	-2.7854	-2.3396	-2.9688	-2.7021	-2.7417	-2.9313	-2.4583	-2.7958	-2.7479	-2.3625	-3.1104	-2.5021	-2.5708	198.073	119.598	25.641	198.955	253.831	62.871	236.550	295.304	59.258	141.478	321.122	259.576	-25.532	217.981	195.543	243.061	0.000978	0.00067992	0.00020313	1072.5	1.5405e-06	8.5895e-06	1236.6	311.39	1.8576e-05	1.3757e-05	433.22	166.38	110.11	46.547	1.7887e-05	87.868	0.0019099	0.0023521	0.00059868	1133.6	2.2803e-05	2.5326e-05	1230.9	315.08	2.2882e-05	2.5325e-05	462.91	167.68	114.69	48.106	2.2272e-05	88.003	64.676	11.226	5.877	-19.723	142.240	101.615	-20.565	-15.293	204.263	79.721	-16.753	-12.275	-11.288	-7.693	189.461	-9.728	-8191	255	
2236.895	1	1	0	0	0.22012	0.19841	0.054213	0.085784	0.14198	0.18664	0.028835	0.17565	0.15757	0.28986	0.10163	0.19905	0.047323	0.067792	0.23397	0.099673	-2.5958	-2.4292	-2.6625	-2.8833	-2.6792	-2.8979	-2.8	-2.5479	-2.9896	-2.55	-2.5917	-3.1292	-2.4854	-2.9292	-2.7562	-2.7146	181.128	288.623	225.994	282.953	128.592	161.257	145.703	271.311	170.054	172.215	51.307	298.721	310.174	287.229	284.548	-2.940	0.00076394	0.00089145	0.00034154	1043.2	1.3731e-05	1.4159e-05	1219.6	308.07	1.5648e-05	1.2024e-05	430.98	167.39	111	47.386	9.3324e-06	89.497	0.0020559	0.0022475	0.00056502	1111	2.3837e-05	2.3888e-05	1207.7	311.83	2.3788e-05	2.3528e-05	459.51	168.6	115.91	48.55	2.0896e-05	89.527	92.417	38.018	20.352	-19.896	133.979	71.411	-20.599	-15.082	154.641	49.857	-16.252	-12.075	-11.109	-7.559	71.585	-9.038	-8191	255	
2236.968	1	1	0	0	0.10798	0.10298	0.15769	0.16756	0.11319	0.17587	0.36231	0.14481	0.24156	0.21128	0.16602	0.14268	0.41394	0.19085	0.19086	0.21829	-2.5687	-2.7104	-2.6021	-2.9125	-2.6562	-2.6083	-2.925	-2.4396	-2.9292	-2.3583	-2.65	-2.9458	-2.6188	-2.7375	-2.9	-2.5292	309.523	212.793	67.359	19.465	-16.358	241.196	59.653	172.125	169.898	187.102	281.888	47.862	253.477	-5.029	14.273	292.303	0.00072923	0.0014984	8.0676e-05	1055.2	1.3672e-05	9.5398e-06	1216.1	308.54	7.6403e-06	7.8855e-06	430.2	168.39	110.93	47.317	2.3715e-06	89.333	0.0021135	0.0020795	0.0005301	1112	2.4431e-05	2.2607e-05	1200.8	313.39	2.3875e-05	2.1888e-05	454.71	168.82	115.38	48.295	1.9388e-05	89.772	65.775	93.444	86.388	-20.009	122.949	131.846	-20.787	-15.058	198.139	-20.597	-16.818	-12.340	-11.314	-7.680	129.645	-9.519	-8191	255	
2237.087	1	1	0	0	0.18752	0.21373	0.12769	0.16191	0.10928	0.1594	0.40164	0.22752	0.10267	0.12665	0.23845	0.1358	0.28801	0.36414	0.28203	0.2479	-2.5563	-2.5625	-2.6292	-2.6125	-2.6021	-2.7354	-2.9958	-2.675	-2.7958	-2.7062	-2.4667	-2.9813	-2.6104	-2.6646	-2.8125	-2.5938	241.387	43.679	197.486	134.466	300.379	228.786	312.509	315.128	193.022	-27.869	97.898	310.242	231.120	262.122	-28.311	219.142	0.00029248	0.00071369	0.00017294	1056.2	1.1351e-05	1.0229e-05	1216.4	307.9	5.2285e-06	1.7092e-05	433.23	168.82	112	48.191	1.8059e-05	91.789	0.0020426	0.0019258	0.00050208	1116.2	2.3451e-05	2.131e-05	1202.5	314.39	2.3079e-05	2.117e-05	457.63	170.85	115.7	48.717	1.9267e-05	92.037	88.781	51.364	267.890	-19.991	67.141	49.829	-20.856	-14.952	209.302	112.975	-16.753	-12.097	-11.653	-7.595	101.896	-9.517	-8191	255	
2237.183	1	1	0	0	0.20508	0.25856	0.21916	0.10477	0.10333	0.13244	0.099649	0.15392	0.12123	0.083081	0.12907	0.083446	0.15054	0.25527	0.079349	0.22895	-2.3625	-2.6208	-2.7354	-2.7729	-2.5292	-2.6604	-3.1021	-2.5375	-2.6896	-2.5062	-2.5292	-3.0104	-2.6021	-2.7792	-3.0833	-2.475	326.378	252.834	128.600	186.366	200.382	31.357	281.966	240.569	282.815	318.833	13.752	206.927	297.721	289.285	293.381	197.846	0.00072997	0.00040255	0.00041224	1039.3	9.9589e-06	5.4299e-06	1218.2	309.2	1.1176e-05	1.2929e-05	435.71	170.97	112.84	48.119	1.1091e-05	90.611	0.0019627	0.001873	0.00050289	1123.7	2.2284e-05	2.0532e-05	1208.2	317.17	2.1824e-05	2.0168e-05	460.44	172.67	116.53	48.886	2.0358e-05	91.319	70.819	251.126	82.098	-20.463	47.552	11.487	-20.576	-15.187	75.574	77.198	-16.988	-12.127	-11.596	-7.486	112.386	-9.564	-8191	255	
2237.280	1	1	0	0	0.18081	0.13251	0.22225	0.069281	0.23798	0.17831	0.27279	0.17197	0.07487	0.11667	0.029706	0.20292	0.2343	0.1696	0.030763	0.11914	-2.4208	-2.7521	-2.3083	-3.0146	-2.6521	-2.4917	-3.2333	-2.5438	-2.8292	-2.9604	-2.3563	-3.0604	-2.6479	-2.7167	-2.8646	-2.7458	-15.822	286.685	-28.960	310.825	76.653	287.987	303.702	228.060	9.547	152.998	310.618	251.266	292.567	308.642	193.017	223.173	0.00074911	0.00052496	0.00046479	1045.5	1.1703e-05	1.437e-05	1210.6	311.89	9.362e-06	1.3124e-05	434.88	172.37	114.19	49.34	8.2165e-06	92.483	0.0018703	0.0018019	0.00053776	1123.6	2.1175e-05	1.9637e-05	1204.2	318.12	2.0952e-05	1.962e-05	467.74	174.06	117.31	49.764	2.1853e-05	92.829	58.050	273.083	122.174	-20.571	111.884	101.944	-20.741	-15.469	19.843	6.653	-16.218	-12.288	-11.160	-7.639	229.027	-9.728	-8191	255	
2237.376	1	1	0	0	0.34744	0.061509	0.19607	0.031001	0.14914	0.13526	0.26154	0.23144	0.2088	0.13148	0.18661	0.092531	0.1335	0.18503	0.18071	0.44347	-2.275	-2.7646	-2.6208	-2.8458	-2.5	-2.5687	-3.0542	-2.6417	-2.6479	-2.7792	-2.4792	-3.0771	-2.6479	-2.4437	-2.95	-2.8125	-4.414	15.798	298.189	41.643	-14.204	162.382	263.663	31.517	-26.764	277.366	313.977	-7.804	-13.074	321.104	141.420	204.279	0.00054023	0.0012718	0.00019858	1049.9	8.5409e-06	3.4264e-06	1219.9	314.24	9.3039e-06	4.4536e-06	440.18	175.24	115.14	50.021	1.4297e-05	94.704	0.0018053	0.0017435	0.00057422	1120.7	2.0455e-05	1.9628e-05	1212.5	319.36	2.0086e-05	1.9614e-05	473.84	176.33	118.26	50.67	2.3197e-05	94.79	83.382	77.632	270.464	-20.179	198.686	188.617	-20.680	-15.201	95.631	111.474	-16.356	-11.876	-11.357	-7.563	170.265	-9.593	-8191	255	
2237.496	1	1	0	0	0.18646	0.23633	0.2144	0.16367	0.16011	0.25556	0.19641	0.17412	0.14737	0.11281	0.17898	0.30097	0.15561	0.039115	0.16145	0.3413	-2.1458	-2.875	-2.5458	-2.6625	-2.7583	-2.4375	-2.975	-2.7021	-2.5729	-2.8875	-2.4875	-2.675	-2.9938	-2.5958	-2.9083	-2.7021	113.915	232.328	124.431	263.215	122.285	190.672	263.311	243.588	50.340	52.694	-31.899	231.567	10.517	212.176	52.914	294.781	0.00063918	0.00044169	0.00030544	1062.5	4.0556e-06	1.0694e-05	1218.3	317.14	2.0554e-06	6.752e-06	447.38	176.3	115.95	50.739	3.6438e-06	96.966	0.0017638	0.0018507	0.00060212	1119.1	2.0009e-05	2.0747e-05	1219	320.51	1.9584e-05	2.081e-05	480.41	177.56	119.06	51.636	2.3295e-05	96.821	77.227	41.703	32.215	-20.221	23.988	112.046	-20.730	-14.976	113.495	171.073	-16.722	-12.408	-11.298	-7.404	170.665	-9.613	-8191	255	
2237.593	1	1	0	0	0.12255	0.32124	0.15626	0.011236	0.24322	0.097233	0.34679	0.14305	0.15208	0.066732	0.25252	0.20805	0.32601	0.31001	0.10255	0.16048	-2.0563	-2.9271	-2.4437	-2.7042	-2.9583	-2.6896	-2.9729	-2.8688	-2.6208	-2.6562	-2.6396	-2.8833	-3.0396	-2.55	-3.0438	-2.7229	165.391	2.721	244.697	237.752	211.080	47.466	256.565	309.141	-2.287	109.025	260.983	-29.821	275.198	-5.822	285.558	271.130	0.00069487	0.00067557	0.00016012	1051.4	3.0561e-06	1.6564e-05	1227.5	318.55	5.4291e-06	4.6983e-06	445.33	177.27	116.41	50.373	7.3159e-07	94.944	0.0017158	0.0020058	0.00059473	1116.4	1.9564e-05	2.236e-05	1222.7	322.07	1.9314e-05	2.2711e-05	477.61	178.2	119.26	51.424	2.2684e-05	94.581	64.813	43.941	55.472	-19.948	-10.264	202.970	-20.535	-15.145	-22.509	173.429	-16.762	-12.166	-11.053	-7.748	254.784	-9.823	-8191	255	
2237.664	1	1	0	0	0.034539	0.15904	0.041333	0.14272	0.14613	0.13507	0.25852	0.063784	0.096634	0.22083	0.11299	0.26017	0.09339	0.29813	0.18985	0.16719	-2.0458	-2.8771	-2.55	-2.7208	-3.0792	-2.4854	-3.2292	-2.7812	-2.6063	-2.8458	-2.5479	-2.9437	-2.825	-2.7083	-2.7896	-3.0771	22.356	97.276	229.177	206.515	221.313	188.356	257.887	286.448	240.792	187.916	315.121	256.203	28.259	245.751	144.474	32.589	0.00055229	0.0010713	9.2175e-05	1040.8	1.0287e-05	8.9086e-06	1198.6	316.69	1.3175e-05	3.889e-06	438.55	176.83	117.27	50.676	8.0338e-06	95.331	0.0017369	0.0021314	0.00057404	1103.7	1.9909e-05	2.3617e-05	1199.3	318.45	2.0027e-05	2.365e-05	470.21	176.66	120.1	51.713	2.13e-05	95.123	57.799	90.037	130.472	-20.190	13.137	137.110	-20.697	-14.780	87.726	232.027	-16.468	-12.353	-11.161	-7.819	61.953	-9.864	-8191	255	
2237.783	1	1	0	0	0.18167	0.17407	0.012961	0.18158	0.16527	0.16076	0.080293	0.25482	0.20033	0.15402	0.14835	0.44363	0.013911	0.16103	0.18234	0.1054	-2.0021	-3.0333	-2.6375	-2.6792	-2.9708	-2.4938	-3.0812	-2.9521	-2.3917	-2.9813	-2.8104	-2.7438	-2.9083	-2.5687	-2.5458	-3.0896	-32.644	197.496	95.712	-17.731	267.121	298.831	-26.184	260.357	151.039	126.110	252.815	296.665	89.417	316.237	311.739	209.463	0.0006922	0.00031582	0.00037977	1033.2	1.0839e-05	8.5616e-06	1203	314.3	1.5938e-05	6.0238e-06	442.86	176.54	115.6	50.476	1.1172e-05	94.518	0.0018244	0.0021515	0.00054637	1092.1	2.1219e-05	2.3797e-05	1196.7	317.74	2.1725e-05	2.3362e-05	468.63	176.18	119.51	51.48	2.0701e-05	94.114	77.747	308.478	92.819	-20.320	146.206	190.234	-20.779	-15.070	125.596	245.697	-16.748	-12.480	-10.871	-8.062	3.176	-9.711	-8191	255	
2237.879	1	1	0	0	0.022219	0.36429	0.26654	0.22994	0.29691	0.11545	0.13471	0.16424	0.11656	0.036401	0.13631	0.18837	0.069967	0.21065	0.087376	0.26498	-2.1188	-2.8479	-2.8375	-2.6146	-2.8021	-2.4479	-2.7417	-2.8417	-2.4062	-2.7812	-2.7687	-2.6208	-2.9333	-2.7562	-2.5771	-2.9208	316.013	212.854	141.428	49.040	178.708	292.251	260.245	191.681	59.555	250.133	286.038	214.724	290.157	302.716	200.550	261.383	0.0010951	0.0010605	0.00037073	1027.5	8.9222e-06	1.0687e-05	1194.3	308.78	2.1576e-05	1.1132e-05	436.86	171.41	113.11	49.145	2.3394e-06	92.7	0.0019749	0.002091	0.00052308	1088.3	2.2955e-05	2.2942e-05	1188.6	313.03	2.3406e-05	2.2813e-05	461.83	171.88	117.3	50.008	2.0458e-05	92.606	71.107	-11.478	199.806	-20.070	168.515	122.742	-20.583	-14.949	73.571	19.871	-16.469	-12.256	-11.103	-7.574	113.485	-9.662	-8191	255	
2237.975	1	1	0	0	0.15134	0.082655	0.11695	0.045832	0.025875	0.1291	0.20998	0.47652	0.1547	0.20895	0.22163	0.19538	0.19706	0.14563	0.071839	0.2153	-2.0854	-2.4521	-2.6521	-2.3354	-2.7958	-2.5833	-2.7812	-2.9313	-2.7625	-2.9167	-2.9354	-2.7625	-2.825	-2.7042	-2.4146	-3.1312	237.365	132.901	219.558	96.333	208.426	100.810	291.509	292.227	212.778	107.484	119.933	11.966	-21.360	204.798	191.767	260.728	0.00063985	0.00079859	0.00026812	1035.9	1.095e-05	1.7959e-06	1200	310.6	1.1753e-05	1.6049e-05	432.45	173.79	115.64	49.523	6.5996e-06	92.945	0.0020925	0.0020184	0.0005179	1100.5	2.3936e-05	2.162e-05	1192.1	314.72	2.3192e-05	2.1236e-05	458.74	174.66	119.17	50.18	1.9059e-05	92.828	85.531	29.269	270.041	-20.279	5.626	235.414	-20.418	-15.176	105.132	60.041	-16.915	-12.199	-11.420	-7.646	179.151	-9.603	-8191	255	
2238.072	1	1	0	0	0.13568	0.30399	0.075469	0.23252	0.14612	0.10122	0.061243	0.35796	0.076626	0.093506	0.24882	0.058478	0.098549	0.11174	0.16565	0.25081	-2.0875	-2.8375	-2.5979	-2.5417	-2.9375	-2.5875	-2.6708	-2.9958	-2.4229	-2.6396	-2.8583	-2.5458	-2.7146	-2.7	-2.4625	-3.0458	283.646	289.864	323.446	-19.629	163.344	326.921	284.088	276.244	100.837	75.702	-15.791	156.500	-13.021	254.768	137.575	295.389	0.00071592	0.0010229	0.00014955	1029.8	6.187e-06	1.8134e-05	1207.1	312.74	9.715e-06	4.0815e-06	441.91	175.43	117.2	50.425	1.722e-05	95.079	0.0020062	0.001888	0.00048469	1100.9	2.282e-05	2.0536e-05	1191	318.47	2.2271e-05	2.0481e-05	462.38	177.01	120.55	51.135	1.9155e-05	95.044	66.628	91.397	69.954	-20.080	4.835	118.727	-20.804	-15.002	284.165	236.304	-16.894	-12.260	-11.403	-7.740	169.644	-9.622	-8191	255	
2238.192	1	1	0	0	0.2941	0.30763	0.24767	0.28697	0.18947	0.18073	0.10353	0.176	0.071232	0.20477	0.13367	0.11911	0.29837	0.29382	0.17936	0.2838	-1.9646	-2.6083	-2.9062	-2.5958	-2.975	-2.5708	-2.625	-3.0021	-2.4792	-2.6	-2.9417	-2.6188	-2.675	-2.9688	-2.4062	-3.0667	71.503	17.014	26.945	325.442	195.736	293.478	245.570	251.377	324.269	110.058	64.125	196.203	-10.638	323.962	-6.560	-30.946	0.000523	0.00074078	0.00020308	1040	2.0025e-06	1.0093e-05	1208.2	315.84	6.0611e-06	6.9742e-06	446.58	180.04	118.95	52.093	1.1006e-05	98.096	0.0019011	0.0018459	0.00049825	1111.6	2.1437e-05	1.9655e-05	1194.7	322.24	2.1183e-05	1.9708e-05	469.88	181.43	122.14	52.527	2.0337e-05	98.336	77.243	15.155	152.326	-20.457	27.387	94.651	-20.578	-15.099	32.116	48.090	-16.458	-12.611	-11.253	-7.785	196.421	-9.639	-8191	255	
2238.264	1	1	0	0	0.11837	0.081453	0.40477	0.064366	0.027265	0.14008	0.12194	0.082974	0.10656	0.13369	0.16823	0.23525	0.2691	0.14298	0.065264	0.35418	-2.1437	-2.5729	-2.7479	-2.7062	-2.7062	-2.9708	-2.4813	-3.0646	-2.5896	-2.5833	-3.0208	-2.6937	-2.6708	-2.9542	-2.4958	-2.9625	123.046	144.340	110.856	85.703	266.345	-18.904	312.209	254.943	159.728	102.083	290.218	316.446	326.586	288.668	271.765	243.020	0.00076015	0.00079285	0.00029467	1032.7	1.9938e-05	4.2179e-06	1210.3	318.78	1.2211e-05	9.3323e-06	450.41	180.8	120.23	52.404	1.4076e-05	100.11	0.0018518	0.0017836	0.00053328	1113.5	2.0906e-05	1.9062e-05	1202.8	323.88	2.0558e-05	1.9373e-05	478.21	182.64	122.54	52.92	2.1924e-05	99.83	67.469	62.787	64.423	-20.384	41.434	38.343	-20.778	-15.241	167.738	24.725	-15.812	-12.252	-11.262	-7.626	225.047	-9.579	-8191	255	
2238.360	1	1	0	0	0.051598	0.2402	0.097408	0.13725	0.25228	0.14278	0.42916	0.23579	0.12413	0.15089	0.26141	0.30339	0.11129	0.22187	0.063014	0.14863	-2.0854	-2.6229	-2.8958	-2.4854	-2.6604	-2.8583	-2.6583	-2.9896	-2.6479	-2.7208	-2.8604	-2.7271	-2.7354	-3.0812	-2.45	-3.0854	84.790	257.800	126.635	93.126	248.267	187.087	260.079	307.650	102.013	201.649	88.767	-2.388	108.584	304.537	-2.239	248.447	0.00086	0.00086499	0.00027553	1048.6	6.3087e-06	3.8401e-06	1217.5	318.45	4.4666e-06	8.4572e-06	449.05	178.93	118.18	50.956	7.8715e-07	95.377	0.0017837	0.0017649	0.00056965	1116.8	2.0164e-05	1.9202e-05	1212.3	323.19	1.9847e-05	1.9566e-05	480.43	180.12	120.61	51.591	2.3083e-05	95.346	63.174	10.447	141.365	-20.024	60.866	-12.053	-20.825	-15.101	92.678	152.975	-16.835	-12.144	-11.048	-7.681	-21.424	-9.888	-8191	255	
2238.456	1	1	0	0	0.10485	0.28794	0.31651	0.044219	0.19729	0.30213	0.28048	0.28312	0.33045	0.16549	0.059506	0.18074	0.24626	0.3414	0.41959	0.22988	-2.2917	-2.4396	-2.7	-2.6146	-2.7104	-2.8042	-3.0146	-2.8792	-2.9813	-2.4604	-2.9917	-2.5104	-2.6771	-3.0208	-2.3854	-2.9396	33.481	125.726	22.293	220.086	21.469	218.715	272.110	248.838	-9.657	249.530	218.919	43.854	304.501	222.617	110.869	270.952	0.00077998	0.00061718	0.0002797	1040.9	5.4753e-06	2.1576e-06	1203.3	313.19	1.1047e-05	3.9742e-06	435.62	174.71	116.12	49.911	6.2656e-06	94.898	0.0017287	0.0018619	0.00059605	1100.8	1.9514e-05	2.0255e-05	1196.4	316.94	1.9078e-05	2.1037e-05	471.11	175.6	118.65	50.867	2.2496e-05	94.279	66.402	108.846	85.809	-19.787	154.190	14.297	-20.420	-15.334	65.563	11.111	-16.983	-12.204	-11.373	-7.658	291.996	-10.065	-8191	255	
2238.577	1	1	0	0	0.13472	0.046349	0.20882	0.071761	0.12954	0.1797	0.06064	0.023782	0.14123	0.25996	0.043939	0.15697	0.13437	0.3201	0.08005	0.084515	-2.2729	-2.3417	-2.8083	-2.6583	-2.5875	-2.9396	-2.6229	-2.6667	-2.8271	-2.55	-2.7271	-2.8792	-2.6958	-2.7146	-2.5938	-2.7854	212.753	131.167	47.227	209.355	-3.644	309.825	128.389	161.464	43.426	41.464	221.143	276.664	6.007	311.152	111.344	221.361	0.00063741	0.0023637	0.00029896	1035.4	1.0365e-05	3.1111e-06	1195	314.68	1.3095e-05	1.2938e-05	437.57	176.1	116.98	50.795	1.2106e-05	94.413	0.0016616	0.0019807	0.000571	1087.3	1.892e-05	2.1701e-05	1189.5	317.27	1.8509e-05	2.2047e-05	468.68	176.15	118.74	51.516	2.1118e-05	94.311	69.568	94.927	-1.878	-20.275	62.899	211.616	-20.571	-15.145	151.734	146.753	-16.242	-12.385	-11.002	-7.562	318.865	-9.633	-8191	255	
2238.673	1	1	0	0	0.13983	0.21836	0.23574	0.15405	0.29045	0.12858	0.17443	0.32833	0.14688	0.15556	0.13779	0.11331	0.26291	0.10592	0.13048	0.040179	-2.4521	-2.4562	-2.7104	-2.8083	-2.3563	-3.1063	-2.6646	-2.7333	-2.8646	-2.6937	-2.7417	-3.0042	-2.4958	-3.0646	-2.5563	-2.7	-2.776	100.776	222.282	119.497	-8.926	106.086	267.922	250.363	82.155	246.499	221.699	216.592	228.330	74.489	248.018	311.210	0.00082236	0.0014237	0.00033068	1023.7	3.3031e-06	7.1405e-06	1189.9	312.06	2.1838e-05	1.4479e-05	438.28	175.17	115.72	50.384	7.9893e-06	94.476	0.0016482	0.0020471	0.00053359	1076	1.9277e-05	2.2328e-05	1179.9	313.18	1.9109e-05	2.2458e-05	463.67	174.76	118.5	51.133	1.9678e-05	93.988	71.971	12.755	49.470	-20.081	75.669	122.015	-20.441	-15.180	126.081	159.059	-16.559	-12.340	-11.473	-7.613	35.272	-9.682	-8191	255	
2238.769	1	1	0	0	0.11942	0.10106	0.16951	0.23771	0.12072	0.059622	0.32668	0.25635	0.26135	0.15154	0.15217	0.11353	0.14629	0.19785	0.10961	0.33342	-2.4396	-2.175	-2.7	-2.8458	-2.3229	-2.9062	-2.7146	-2.6167	-2.875	-2.5917	-2.6875	-2.9875	-2.5479	-2.8438	-2.4938	-2.4813	-29.585	-4.398	309.684	259.645	50.837	199.152	290.655	223.960	215.061	34.654	293.996	2.190	264.210	291.948	151.156	254.690	0.00081006	0.00052474	0.00018976	1025.3	6.5652e-06	1.0316e-05	1195.3	312.89	1.3304e-05	7.6256e-06	442.07	178.03	117.38	50.764	8.8195e-06	95.197	0.0017374	0.0020177	0.00050754	1071.2	2.0294e-05	2.155e-05	1185.6	314.09	1.9974e-05	2.1185e-05	462.98	176.8	120.17	51.421	1.8635e-05	94.428	70.606	-0.987	62.918	-20.490	83.371	90.554	-20.582	-15.068	130.887	79.031	-16.566	-12.441	-11.591	-7.692	-0.785	-9.606	-8191	255	
2238.863	1	1	0	0	0.15677	0.092259	0.21313	0.24937	0.24991	0.11161	0.16395	0.24787	0.27831	0.21762	0.018078	0.43326	0.042498	0.052843	0.33789	0.1881	-2.4667	-2.6479	-2.4667	-2.9333	-2.3833	-2.75	-2.9667	-2.5625	-2.9646	-2.7313	-2.6125	-2.9271	-2.6917	-2.9708	-2.7	-2.9917	118.508	-10.606	36.340	240.809	12.701	56.344	301.064	306.006	110.849	321.373	50.636	269.938	-19.500	319.102	52.569	286.424	0.0008017	0.00076073	0.00037962	1028.2	1.8751e-05	9.4763e-06	1192.6	313.41	2.2728e-05	7.4676e-06	439.04	175.36	117.95	50.213	9.7915e-07	93.793	0.0017795	0.001876	0.00047824	1070.2	2.1141e-05	2.0418e-05	1181.2	315.09	2.1356e-05	2.0606e-05	459.72	175.59	120.66	50.713	1.8149e-05	93.286	88.596	58.407	21.609	-19.893	115.871	236.099	-20.468	-15.004	134.825	73.261	-16.214	-12.076	-10.877	-7.661	58.624	-9.694	-8191	255	
2238.960	1	1	0	0	0.21717	0.3031	0.28109	0.065139	0.18456	0.11342	0.31525	0.28226	0.12389	0.27566	0.15977	0.43782	0.12045	0.32622	0.067027	0.1424	-2.5479	-2.6417	-2.5604	-2.95	-2.5312	-2.8458	-2.9938	-2.7417	-2.8854	-2.7417	-2.6854	-3.0125	-2.5438	-3.0021	-2.8167	-2.7083	29.615	162.254	45.810	190.994	69.535	94.332	231.176	279.760	201.659	122.799	278.749	290.226	102.307	310.029	296.326	80.978	0.00082329	0.00056524	0.00034878	1030.8	7.6148e-06	1.557e-05	1197.7	315.1	1.5775e-05	3.1966e-06	439.5	176.66	116.25	50.16	5.6615e-06	93.81	0.0018826	0.001808	0.00046355	1081.1	2.1653e-05	1.978e-05	1181.7	318	2.164e-05	1.989e-05	460.91	177.06	120.37	50.712	1.8005e-05	93.586	91.835	79.832	28.131	-20.621	91.949	115.984	-20.516	-15.023	7.388	86.108	-16.355	-12.156	-11.270	-7.621	230.871	-9.507	-8191	255	
2239.058	1	1	0	0	0.13099	0.26642	0.1502	0.22403	0.15702	0.16215	0.15171	0.072824	0.025206	0.15235	0.18994	0.25139	0.19014	0.023603	0.091383	0.28467	-2.4854	-2.6896	-2.5354	-2.8167	-2.5458	-2.5958	-3.0729	-2.6646	-2.9562	-2.7583	-2.5833	-2.9896	-2.5667	-2.7625	-2.875	-2.7812	-6.465	283.903	218.760	243.649	235.705	299.203	147.498	192.785	185.696	131.031	312.977	317.565	36.512	94.512	188.778	281.347	0.0010157	0.0012814	0.00019633	1032.1	1.5e-05	1.3293e-06	1203.3	312.96	1.2404e-05	1.1811e-05	441.2	174.91	117.09	49.999	2.0283e-05	95.689	0.0018721	0.0017914	0.00045786	1095.8	2.1275e-05	1.9313e-05	1189.1	317.17	2.0618e-05	1.8951e-05	458.68	176.03	119.35	50.583	1.8093e-05	95.463	85.834	73.128	73.838	-19.713	65.858	261.008	-20.708	-15.224	78.721	156.406	-16.142	-12.373	-11.243	-7.299	120.250	-9.425	-8191	255	
2239.176	1	1	0	0	0.34544	0.26675	0.14675	0.26535	0.19182	0.12244	0.25773	0.079462	0.072836	0.16495	0.16119	0.27788	0.05249	0.33563	0.1196	0.14424	-2.4083	-2.5563	-2.5021	-2.8333	-2.6292	-2.7313	-2.9708	-2.6333	-2.675	-2.9417	-2.6688	-2.9792	-2.8187	-2.4583	-2.9542	-2.5479	257.584	287.624	284.107	163.562	200.062	153.450	-21.782	189.630	54.822	-31.790	155.577	306.494	166.969	305.156	282.695	295.624	0.0006169	0.0012335	0.00033684	1039.8	4.3866e-06	8.2588e-06	1212.8	318.39	1.0201e-05	5.5844e-06	448.04	182.17	121.06	52.3	1.7435e-05	98.133	0.0017698	0.0016766	0.00046652	1103.2	1.9964e-05	1.8179e-05	1198.5	321.68	1.9582e-05	1.79e-05	471.81	183.04	122.84	52.432	1.9179e-05	97.642	68.477	30.843	8.960	-20.021	205.821	-18.499	-20.312	-15.042	74.152	44.681	-16.634	-12.399	-11.168	-7.575	147.957	-9.664	-8191	255	
2239.273	1	1	0	0	0.30583	0.27365	0.32233	0.037904	0.27641	0.16026	0.27724	0.046745	0.10295	0.32195	0.1938	0.10827	0.10059	0.19934	0.014094	0.079876	-2.2583	-2.7354	-2.2375	-3.1	-2.6292	-2.5417	-3.1375	-2.5979	-2.7854	-2.6667	-2.5375	-3.0708	-2.9583	-2.5708	-2.7167	-2.8417	286.059	258.479	297.686	202.398	49.367	-9.525	253.625	114.716	315.261	-24.424	320.756	268.604	326.163	286.498	44.999	297.150	0.0006339	0.00086417	0.00014988	1042.9	9.9842e-06	8.6972e-06	1210.8	316.84	5.74e-06	9.5261e-06	439.97	178.15	118.62	50.891	1.2824e-05	94.772	0.0016677	0.0016099	0.00050119	1101.7	1.9191e-05	1.7827e-05	1198.6	321.56	1.9218e-05	1.7916e-05	469.83	178.77	120.86	51.055	2.0818e-05	94.768	84.069	-19.807	39.104	-20.012	132.197	160.726	-20.622	-15.033	71.921	30.530	-16.030	-12.421	-11.374	-7.938	-10.173	-9.923	-8191	255	
2239.369	1	1	0	0	0.18911	0.28697	0.055794	0.069901	0.075298	0.080958	0.038781	0.35542	0.063206	0.19703	0.2023	0.34468	0.074456	0.16263	0.16647	0.23499	-2.3646	-2.8312	-2.7458	-2.7938	-2.8583	-2.6458	-2.8521	-2.775	-2.6417	-2.8583	-2.6021	-2.9167	-2.8312	-2.8833	-2.9125	-2.8896	302.221	161.698	165.681	283.499	249.934	326.723	245.231	238.480	7.046	-26.156	296.365	320.597	33.967	128.077	-3.265	-19.312	0.00067869	0.001771	0.00011985	1034.7	1.2817e-05	5.1747e-06	1198.7	318.37	1.8532e-05	8.0974e-06	447.35	179.75	119.51	51.788	5.217e-06	96.779	0.0016618	0.0016488	0.00054331	1094.5	1.8704e-05	1.8493e-05	1193.4	320.96	1.8581e-05	1.8601e-05	478.37	179.89	121.48	52.074	2.1712e-05	96.005	69.197	100.082	96.913	-20.400	52.098	125.664	-20.502	-15.046	41.187	159.267	-16.315	-12.291	-11.312	-7.819	161.114	-9.890	-8191	255	
2239.489	1	1	0	0	0.25647	0.26847	0.12509	0.066903	0.2078	0.082834	0.32171	0.30314	0.18881	0.15142	0.15797	0.20981	0.21378	0.23693	0.14737	0.42333	-2.1271	-2.9	-2.4979	-2.9042	-2.8458	-2.3625	-3.0687	-2.5896	-2.925	-2.8667	-2.4729	-2.85	-2.8812	-2.5187	-3.0708	-2.8021	107.877	-32.007	167.274	297.717	10.945	178.497	314.230	277.567	187.079	285.550	19.649	-7.199	316.587	238.908	210.862	244.080	0.00041072	0.0008143	8.1305e-05	1027.8	6.045e-06	1.2305e-05	1189.2	314.92	9.3621e-06	5.97e-06	442.04	178.23	117.33	50.926	5.5204e-06	95.178	0.0016119	0.0017538	0.00055715	1085.2	1.819e-05	1.9742e-05	1187.7	317.85	1.7834e-05	1.9725e-05	470.55	177.81	119.53	51.444	2.0808e-05	94.51	78.294	72.786	123.274	-19.921	48.978	186.177	-20.725	-15.039	149.530	30.393	-16.947	-12.289	-11.307	-7.787	214.258	-9.522	-8191	255	
2239.561	1	1	0	0	0.15512	0.21266	0.19367	0.18751	0.12039	0.22271	0.35375	0.17467	0.16761	0.21311	0.24569	0.26787	0.12979	0.30016	0.14522	0.24543	-2.2062	-2.7667	-2.5042	-2.5021	-2.8958	-2.6312	-3.0542	-2.8417	-2.6521	-2.9458	-2.7354	-2.8187	-3.0375	-2.8104	-2.9396	-2.9917	290.572	126.921	36.665	-5.941	293.480	40.505	7.721	-26.715	231.248	244.501	201.355	289.004	0.434	-16.135	211.410	263.427	0.00060008	0.0010177	0.00013916	1021.5	1.4377e-05	6.861e-06	1197.9	315.09	2.4494e-06	3.273e-06	442.25	178.52	117.78	50.814	1.2086e-05	94.666	0.0015463	0.0018737	0.00053186	1076.6	1.768e-05	2.0711e-05	1189.6	317.48	1.7627e-05	2.1098e-05	470.56	177.94	120.05	51.581	2.0209e-05	94.141	83.570	5.776	7.267	-20.073	232.529	165.203	-20.426	-15.274	208.867	103.560	-16.387	-12.331	-11.298	-7.551	10.952	-9.770	-8191	255	
2239.657	1	1	0	0	0.27644	0.18272	0.09791	0.19118	0.20731	0.080399	0.074733	0.065792	0.14801	0.15646	0.15516	0.25632	0.24398	0.16855	0.24071	0.16401	-1.9792	-2.9083	-2.6896	-2.6937	-2.8875	-2.4313	-3.1229	-2.8125	-2.5792	-2.9958	-2.7292	-2.7771	-3.0833	-2.7396	-2.8229	-2.925	118.404	195.209	130.310	180.978	58.259	-6.898	320.388	79.945	119.908	-1.780	37.244	296.565	246.835	-22.094	299.210	35.202	0.00080216	0.0013347	0.00038534	1040.3	1.4496e-05	1.2004e-05	1201.5	315.73	1.58e-05	5.377e-06	439.29	176.94	118.56	50.367	1.174e-05	92.925	0.0016389	0.0019923	0.000515	1079.3	1.8766e-05	2.2024e-05	1185.9	315.8	1.9143e-05	2.1746e-05	463.65	176.4	120.78	51.121	1.934e-05	92.501	67.374	40.633	18.886	-19.998	139.844	111.377	-20.590	-15.109	132.240	150.084	-16.383	-12.338	-11.221	-7.971	321.483	-9.838	-8191	255	
2239.753	1	1	0	0	0.066921	0.083973	0.28245	0.2292	0.126	0.14652	0.37602	0.25361	0.060585	0.1588	0.19368	0.11342	0.24801	0.096184	0.19136	0.085484	-2.0583	-2.8146	-2.7604	-2.4667	-2.9917	-2.4562	-2.95	-2.6333	-2.6	-2.8458	-2.8833	-2.7438	-3.0042	-2.7042	-2.6021	-3.1229	326.447	130.753	-29.554	325.501	264.092	280.343	235.009	289.025	237.595	156.456	19.931	278.057	272.552	300.561	144.846	254.111	0.000855	0.00067719	0.00020993	1023.9	7.8089e-06	3.8356e-06	1194.9	315.42	2.2577e-05	4.3604e-06	445.57	176.56	118.08	50.267	7.4662e-06	93.404	0.0017373	0.0019934	0.00049067	1071.4	2.0231e-05	2.1717e-05	1181.5	316.32	2.0824e-05	2.1355e-05	464.66	176.03	121.3	51.123	1.9136e-05	92.756	61.206	300.013	27.030	-20.073	135.020	112.767	-20.523	-15.031	146.195	-27.968	-16.355	-12.505	-11.285	-7.900	69.005	-9.531	-8191	255	
2239.872	1	1	0	0	0.087742	0.065196	0.26419	0.17257	0.21853	0.18241	0.11246	0.19073	0.29105	0.28085	0.20802	0.10987	0.15501	0.20002	0.187	0.17649	-2.0583	-2.6208	-2.7708	-2.7271	-2.9979	-2.5833	-2.8438	-3.0312	-2.5333	-2.925	-2.8187	-2.5667	-3.0604	-2.5021	-2.6063	-2.8104	213.450	4.252	103.716	106.406	106.990	74.023	200.249	244.155	99.169	305.580	325.414	-32.523	173.753	257.290	26.842	76.890	0.00073421	0.0012026	4.4385e-05	1032.8	4.5046e-06	1.0538e-05	1195.3	313.2	1.261e-05	1.1525e-05	439.16	175.19	117.61	50.159	8.947e-06	93.577	0.0018879	0.0019278	0.00049295	1079.5	2.2189e-05	2.095e-05	1183.7	315.64	2.2226e-05	2.0989e-05	462.16	175.76	121.47	50.821	1.8903e-05	93.204	75.214	-21.634	310.520	-20.094	179.996	59.842	-20.569	-14.981	126.012	82.130	-16.145	-12.353	-11.238	-7.825	9.946	-9.389	-8191	255	
2239.968	1	1	0	0	0.084366	0.13997	0.13345	0.14613	0.32851	0.098299	0.19255	0.03166	0.23059	0.063915	0.10156	0.16314	0.074312	0.29794	0.25701	0.060492	-2.2167	-2.8625	-2.7708	-2.4542	-2.95	-2.6854	-2.8042	-2.9083	-2.6375	-2.7542	-2.7333	-2.5979	-2.8	-2.7938	-2.5208	-3.1813	63.118	171.023	25.929	38.442	206.609	242.737	260.093	20.022	27.151	324.019	200.636	274.638	16.914	1.179	-28.458	272.419	0.00078878	0.0012057	0.00021364	1031.3	5.4552e-06	1.044e-05	1209.5	318.58	6.8574e-06	4.8599e-06	450.77	179.18	120.87	51.558	4.8774e-06	95.562	0.0020185	0.001926	0.00049158	1094.1	2.3108e-05	2.0704e-05	1197	321.81	2.3045e-05	2.0694e-05	470.08	181	124.32	52.131	1.9167e-05	95.818	47.977	318.305	-2.149	-19.653	64.961	111.557	-20.518	-15.108	124.080	87.099	-16.081	-12.041	-11.390	-7.743	215.661	-9.587	-8191	255	
2240.064	1	1	0	0	0.23703	0.14665	0.18703	0.2144	0.1036	0.025026	0.27866	0.099935	0.077428	0.0058278	0.17914	0.23483	0.077656	0.046706	0.12013	0.25282	-2.1104	-2.7458	-2.8104	-2.6042	-2.9646	-2.7042	-2.8542	-2.9604	-2.6125	-2.8083	-2.8375	-2.8646	-2.975	-2.6917	-2.7854	-2.8979	312.619	88.116	9.871	19.525	40.420	-3.353	251.368	265.409	197.112	31.432	208.715	2.667	168.385	-6.167	293.745	293.664	0.00067373	0.0018833	0.00017303	1030.4	9.3138e-06	3.5077e-06	1204.1	318.98	2.1007e-05	3.7814e-06	449.61	178.08	120.06	50.866	8.6618e-06	92.872	0.0019772	0.001874	0.00049099	1107.6	2.2424e-05	2.0322e-05	1193	324.23	2.1854e-05	1.9947e-05	470.82	180.03	123.72	51.396	1.9843e-05	93.636	61.575	64.116	39.380	-19.880	116.579	164.801	-20.570	-14.882	47.740	-18.805	-16.670	-12.167	-11.375	-7.694	140.579	-9.340	-8191	255	
2240.138	1	1	0	0	0.17976	0.097162	0.061615	0.12336	0.12586	0.10353	0.23276	0.099312	0.068342	0.19091	0.3132	0.1831	0.1108	0.1274	0.19682	0.34455	-2.2	-2.3542	-3.1646	-2.5292	-2.6375	-2.7	-2.7396	-3.0146	-2.4833	-2.6604	-3.05	-2.5438	-2.8875	-2.7625	-2.5938	-2.9979	86.807	124.298	53.853	287.391	200.139	163.259	248.483	169.278	253.521	200.003	275.079	294.301	224.331	323.039	88.651	308.391	0.00070909	0.0012158	0.00040775	1032.2	7.7347e-06	2.863e-06	1198.5	319.65	2.0652e-06	1.5238e-05	448.96	178.27	121.25	50.747	1.8763e-05	93.878	0.0018963	0.0018338	0.00051164	1110.4	2.1393e-05	1.9888e-05	1192.5	325.03	2.0847e-05	1.9508e-05	473.88	180.57	123.94	51.29	2.1212e-05	94.403	91.745	1.115	50.843	-19.944	95.107	313.606	-20.430	-14.958	113.434	130.147	-15.884	-12.598	-11.617	-7.597	154.031	-9.196	-8191	255	
2240.257	1	1	0	0	0.12713	0.11523	0.078301	0.12919	0.087916	0.15919	0.19688	0.37465	0.11082	0.092525	0.04457	0.16546	0.057901	0.35592	0.14732	0.10797	-2.1021	-2.7208	-2.9354	-2.6167	-2.7208	-3.0583	-2.6833	-3.0333	-2.5271	-2.7167	-2.8271	-2.7896	-2.7438	-2.7625	-2.4625	-2.9	25.149	17.763	211.114	259.370	254.435	183.532	219.348	301.823	182.368	34.136	25.902	265.002	282.480	311.487	234.452	222.226	0.00064106	0.00085258	0.00040228	1041	3.0824e-06	3.5505e-06	1201.6	318.7	1.4342e-05	1.0066e-05	444.17	178.13	120.64	50.849	2.7965e-05	93.891	0.0018311	0.0017762	0.00056174	1112.4	2.0646e-05	1.927e-05	1199.5	323.46	2.0337e-05	1.9319e-05	476.45	179.68	123.16	51.162	2.2581e-05	93.828	69.813	88.676	86.081	-20.322	8.640	88.004	-20.455	-15.213	60.259	83.566	-16.151	-12.272	-10.895	-7.179	135.453	-9.253	-8191	255	
2240.353	1	1	0	0	0.033622	0.042286	0.24051	0.24622	0.12848	0.07504	0.10888	0.11805	0.15009	0.24942	0.027775	0.22168	0.30188	0.26891	0.27239	0.11686	-2.2	-2.5083	-2.7771	-2.6125	-2.6854	-2.8312	-2.8229	-2.8042	-2.8604	-2.5896	-2.8771	-2.8063	-2.4938	-2.9854	-2.3458	-3.1437	28.451	62.005	323.385	183.401	298.626	151.921	306.949	292.838	207.123	313.809	304.914	121.819	169.806	222.403	55.555	237.658	0.00068101	0.000653	0.00031096	1043	1.1436e-05	1.8081e-05	1201.4	311.41	9.5995e-06	1.924e-05	433	175.51	118.29	50.06	3.7798e-06	93.223	0.0017617	0.0017904	0.00059219	1104.2	1.9838e-05	1.9775e-05	1201.4	317.44	1.9356e-05	2.0258e-05	469.37	176.25	120.64	50.747	2.2936e-05	92.956	61.926	158.862	121.483	-20.015	29.823	139.266	-20.607	-14.724	112.285	171.101	-16.726	-12.158	-11.294	-7.178	145.790	-8.987	-8191	255	
2240.449	1	1	0	0	0.10361	0.31795	0.11996	0.090971	0.16074	0.11563	0.26636	0.06066	0.15209	0.15162	0.089513	0.081682	0.021969	0.095148	0.199	0.17788	-2.4146	-2.5896	-2.8333	-2.8812	-2.5604	-2.9708	-2.7333	-2.7708	-2.9229	-2.6021	-2.7438	-2.8875	-2.5479	-2.9354	-2.6208	-2.8063	31.622	211.024	70.205	102.478	225.370	190.776	277.590	275.691	152.485	195.126	229.433	326.080	165.368	297.996	129.333	235.272	0.00058531	0.00070812	0.00020797	1034.6	2.4531e-06	1.3935e-05	1202	311.39	1.5142e-05	6.4702e-06	437.25	175.44	117.96	51.65	7.4554e-06	93.095	0.00169	0.0018796	0.00058301	1093.6	1.8884e-05	2.0798e-05	1198	315.16	1.8392e-05	2.1427e-05	466.52	175.83	120.26	52.327	2.208e-05	92.702	77.476	-20.187	50.038	-20.265	84.319	181.197	-20.544	-15.085	92.139	61.746	-16.916	-12.314	-11.062	-7.246	33.855	-9.262	-8191	255	
2240.570	1	1	0	0	0.12604	0.26141	0.13999	0.09289	0.21561	0.11547	0.095789	0.36071	0.40134	0.18819	0.27276	0.12828	0.10523	0.35622	0.17549	0.31655	-2.5062	-2.6875	-2.9021	-2.7833	-2.6458	-2.8604	-2.7	-2.8771	-2.8833	-2.7083	-2.9646	-2.875	-2.4021	-2.8125	-2.5646	-2.7313	-11.279	324.178	259.004	251.643	285.196	287.521	-18.886	256.028	-22.329	185.442	315.952	-31.018	227.059	298.027	315.168	283.536	0.00081078	0.0017055	0.00025646	1032.5	1.4844e-05	1.803e-05	1210.6	316.52	1.4154e-05	9.3991e-06	445.77	182.92	120.13	53.693	2.2349e-05	94.229	0.0016406	0.0020057	0.00055851	1087	1.8795e-05	2.2376e-05	1198.7	318.52	1.9011e-05	2.2746e-05	473.43	183.72	122.7	54.574	2.1301e-05	93.919	70.575	35.559	-18.715	-20.052	170.577	106.637	-20.634	-14.893	28.230	45.327	-16.280	-12.391	-11.160	-7.314	48.303	-9.029	-8191	255	
2240.666	1	1	0	0	0.12896	0.14238	0.18137	0.20215	0.15778	0.3051	0.26926	0.16809	0.10541	0.2734	0.25593	0.043293	0.22503	0.23483	0.09331	0.10071	-2.4896	-2.6292	-2.7333	-2.8667	-2.5896	-2.9125	-2.7333	-2.5229	-2.7729	-2.5958	-2.8021	-2.9062	-2.625	-2.9292	-2.7271	-2.5479	249.940	57.416	231.098	298.870	275.663	129.401	284.833	298.604	77.460	67.683	293.624	-18.100	148.490	-12.192	207.832	245.432	0.00087621	0.0015149	0.00048296	1052.8	1.2152e-05	5.0058e-06	1210.9	318.17	1.4977e-05	1.1654e-05	455.89	180.69	119.39	53.686	4.4768e-06	97.287	0.001729	0.0021122	0.00053707	1098.3	2.0161e-05	2.301e-05	1204.5	319.84	2.0068e-05	2.2615e-05	478.19	180.19	121.73	54.41	1.9781e-05	96.553	93.037	17.825	-15.259	-19.713	161.052	51.052	-20.242	-14.855	189.875	112.205	-16.540	-12.126	-11.396	-7.333	246.809	-9.433	-8191	255	
2240.760	1	1	0	0	0.28518	0.3082	0.25611	0.14314	0.072179	0.11356	0.17307	0.20956	0.23216	0.17661	0.017572	0.11875	0.22157	0.118	0.20965	0.28742	-2.6646	-2.5354	-2.8396	-2.9208	-2.5333	-2.9083	-2.8625	-2.6104	-3.0396	-2.4771	-2.6583	-3.0792	-2.5083	-2.8667	-2.6917	-2.8125	276.810	155.771	256.263	325.441	54.996	282.958	296.331	294.473	181.315	237.268	278.074	254.949	71.243	324.678	4.447	290.125	0.00084948	0.0011039	1.7788e-05	1039.3	1.6586e-05	1.0444e-05	1202.2	317.41	1.0031e-05	7.8611e-06	459.67	184.99	120.78	55.464	4.8295e-06	101.01	0.0018145	0.0020075	0.00049889	1082.1	2.0739e-05	2.1628e-05	1193.7	318.87	2.0845e-05	2.0931e-05	480.66	183.72	123.83	55.785	1.8535e-05	100.26	65.757	80.559	23.914	-20.558	146.820	68.915	-20.823	-14.831	23.018	46.519	-16.897	-12.133	-11.158	-7.386	38.721	-9.524	-8191	255	
2240.858	1	1	0	0	0.15322	0.03167	0.11473	0.041221	0.16223	0.21353	0.20956	0.15128	0.071218	0.18624	0.039704	0.22467	0.02543	0.025732	0.077454	0.25051	-2.3917	-2.65	-2.7458	-2.9646	-2.7646	-2.6646	-2.9729	-2.7042	-2.8625	-2.775	-2.625	-2.9375	-2.6646	-2.8625	-2.8417	-2.8354	179.713	194.099	42.012	202.365	317.737	60.455	274.566	35.550	35.909	165.922	322.276	-25.565	301.559	295.268	229.700	262.981	0.00098342	0.0016347	0.00044304	1034.7	5.3035e-06	2.0156e-06	1204.1	322.19	1.5924e-05	4.7812e-06	464.15	188.09	122.41	56.235	9.3499e-06	100.36	0.0018465	0.0018496	0.00046835	1078.5	2.122e-05	1.9864e-05	1189.6	322.97	2.1158e-05	1.9691e-05	480.25	187.25	125.67	56.497	1.7599e-05	100	68.233	53.725	21.571	-20.432	13.684	136.058	-20.752	-15.154	114.552	-27.760	-16.632	-12.488	-11.276	-7.860	13.505	-9.533	-8191	255	
2240.953	1	1	0	0	0.44595	0.094308	0.18768	0.047968	0.24517	0.053174	0.1343	0.20169	0.27896	0.27532	0.15831	0.29999	0.2292	0.21963	0.13107	0.23943	-2.4625	-2.7271	-2.6063	-3.0563	-2.5687	-2.7521	-2.9396	-2.7167	-2.8896	-2.7417	-2.6979	-2.9396	-2.6104	-2.9313	-2.7979	-2.7833	20.660	158.798	153.117	49.597	-8.065	257.492	225.314	270.036	-11.654	99.545	-12.648	287.416	266.167	164.070	219.471	265.035	0.00074831	0.00087759	0.00029199	1018.5	1.7439e-06	4.5692e-06	1184.8	317.13	8.0662e-06	7.3355e-06	450.17	181.57	118.25	54.127	5.2309e-06	98.69	0.0018586	0.0017537	0.000452	1078.1	2.12e-05	1.9209e-05	1171.5	319.42	2.1177e-05	1.9139e-05	469.02	181.93	121.64	54.548	1.7573e-05	98.109	60.793	90.280	20.173	-20.037	-21.441	33.139	-20.485	-15.017	51.900	15.185	-16.613	-12.478	-11.465	-7.449	171.177	-9.635	-8191	255	
2241.049	1	1	0	0	0.027467	0.29626	0.11433	0.1382	0.049709	0.20737	0.30057	0.22516	0.10883	0.17811	0.056918	0.16166	0.17432	0.15134	0.25054	0.10872	-2.4333	-2.5687	-2.3021	-2.9146	-2.5146	-2.8667	-3.0062	-2.8167	-2.8979	-2.8312	-2.5417	-3.1167	-2.7021	-2.8167	-2.8833	-2.5438	-26.791	-4.023	168.004	59.019	135.961	166.082	231.560	260.613	170.301	-14.464	109.691	273.551	260.677	285.484	186.669	301.512	0.00091577	0.0016899	0.00052385	1015	6.2122e-06	1.0493e-05	1182.1	315.53	8.0408e-06	9.5263e-06	452.95	182.58	119.55	54.844	1.2918e-05	100.13	0.0018091	0.0017272	0.00045675	1084.2	2.0675e-05	1.8668e-05	1170.1	319.6	1.9824e-05	1.8458e-05	472.19	183.07	121.91	55.141	1.8253e-05	100.1	82.964	86.099	36.847	-19.741	43.139	133.782	-20.682	-15.032	16.570	122.968	-16.611	-12.364	-11.195	-7.728	98.055	-9.543	-8191	255	
2241.169	1	1	0	0	0.12263	0.15169	0.21923	0.062144	0.24434	0.2425	0.2217	0.18574	0.1105	0.17352	0.077391	0.24598	0.066434	0.34575	0.26721	0.16624	-2.6542	-2.7354	-2.5104	-2.9646	-2.7333	-2.6396	-3.0042	-2.6708	-2.7708	-2.8979	-2.5708	-3.0646	-2.7917	-2.7875	-3.1771	-2.7729	133.077	159.817	172.277	149.123	216.552	-21.906	290.597	252.036	40.771	136.633	128.527	303.972	287.289	274.021	172.924	187.829	0.00065538	0.0012785	5.4321e-05	1016.8	6.7132e-06	1.1206e-05	1186.2	315.98	1.5607e-05	4.5323e-06	456.21	186.48	120.19	56.266	4.071e-06	104.18	0.0017105	0.0016332	0.00047865	1084.8	1.9377e-05	1.7812e-05	1175.2	320.51	1.8832e-05	1.7384e-05	479.72	186.66	122.53	56.33	1.9124e-05	103.64	74.619	127.110	284.564	-20.306	-3.925	291.236	-20.442	-14.945	97.100	49.409	-16.185	-12.220	-11.071	-7.808	111.061	-9.427	-8191	255	
2241.265	1	1	0	0	0.14383	0.20004	0.12863	0.14523	0.29768	0.075514	0.184	0.11021	0.092851	0.18496	0.22528	0.13791	0.20261	0.14532	0.11829	0.31388	-2.35	-2.9396	-2.4208	-3.0146	-2.5979	-2.6188	-2.9667	-2.6188	-2.5854	-2.8292	-2.5771	-3.0542	-2.7708	-2.5042	-2.9958	-2.8958	146.366	-21.435	88.994	194.650	310.526	5.134	-28.838	277.566	27.773	236.581	276.752	-1.812	19.191	324.705	-21.631	262.936	0.00097026	0.0011095	0.00030243	1024.6	1.6076e-06	9.7247e-06	1197.6	322.36	1.6279e-05	9.2593e-06	469.14	189.76	122.55	56.228	4.3487e-06	102.14	0.0016147	0.0015366	0.00049982	1078.8	1.7894e-05	1.6966e-05	1188.1	326.1	1.7653e-05	1.6931e-05	490.57	189.5	123.96	56.37	2.0008e-05	101.69	65.224	52.061	174.162	-20.112	185.126	70.668	-20.687	-15.072	41.409	118.417	-17.168	-12.125	-11.374	-7.771	169.614	-9.410	-8191	255	
2241.362	1	1	0	0	0.20751	0.15549	0.14359	0.076036	0.17817	0.074374	0.066772	0.11858	0.10523	0.19957	0.090789	0.097098	0.28374	0.22716	0.081694	0.42651	-2.2354	-2.9479	-2.4854	-2.7479	-2.7938	-2.6729	-2.7625	-2.775	-2.6771	-2.9792	-2.7042	-2.9813	-2.9896	-2.6937	-2.95	-2.8063	297.573	77.007	86.797	-4.210	30.698	144.417	146.340	37.212	28.852	-15.537	136.187	14.427	303.175	14.079	142.887	269.505	0.00080217	0.00055772	0.00020038	1018.8	1.0733e-05	4.6197e-06	1186	317.9	3.7585e-06	1.0345e-05	458.4	184.76	120.18	54.941	1.0036e-05	100.51	0.0015636	0.0015906	0.00052143	1071.4	1.7413e-05	1.7854e-05	1182.1	320.13	1.7413e-05	1.8231e-05	484.88	184.48	121.55	55.226	2.0581e-05	99.997	76.451	32.158	40.478	-20.100	21.827	249.380	-20.571	-15.227	78.973	201.096	-16.944	-12.026	-11.468	-7.579	68.711	-9.322	-8191	255	
2241.433	1	1	0	0	0.10414	0.37004	0.16062	0.23711	0.14449	0.10858	0.13743	0.15816	0.18832	0.10833	0.2636	0.38498	0.20257	0.12279	0.17311	0.19402	-2.0042	-3.0104	-2.5187	-2.8333	-2.85	-2.4625	-3.2333	-2.7104	-2.5521	-3.0125	-2.625	-3.0771	-2.8729	-2.5521	-2.8771	-2.8354	220.939	-30.415	281.789	-6.524	116.461	240.119	139.721	311.090	95.071	290.835	168.495	-32.597	269.383	313.043	98.436	213.481	0.00047977	0.00015438	0.00012111	1023.6	1.0221e-05	1.3123e-05	1199.3	319.69	5.5862e-06	2.968e-06	461.99	187.85	121.23	56.219	1.767e-05	103.56	0.0015214	0.0017322	0.00053529	1072.7	1.7519e-05	1.97e-05	1187.6	321.34	1.7282e-05	2.0119e-05	487.21	186.99	122.91	56.68	2.0228e-05	102.51	95.370	16.839	-8.979	-19.625	83.889	196.512	-20.596	-15.226	11.086	213.833	-16.773	-12.447	-11.313	-7.713	134.509	-9.315	-8191	255	
2241.529	1	1	0	0	0.32347	0.29148	0.11831	0.14537	0.20892	0.14672	0.3237	0.11936	0.15226	0.13962	0.24992	0.20544	0.10124	0.23288	0.064005	0.2205	-2.0083	-2.7625	-2.3229	-2.8187	-2.9375	-2.6625	-3.1167	-2.8125	-2.4646	-2.9667	-2.7229	-2.7229	-2.9271	-2.6479	-2.6271	-2.9938	28.878	249.712	275.622	253.441	280.995	298.723	222.704	307.211	-3.854	154.454	-27.133	6.623	218.475	262.453	-30.476	296.436	0.00076993	0.0015882	0.00024313	1034.5	2.8369e-06	5.5984e-06	1206.9	323.21	2.6641e-06	5.7106e-06	471.93	193.52	124.28	59.032	8.1277e-06	108.31	0.0015493	0.0018884	0.00051215	1076.7	1.7656e-05	2.1144e-05	1192	325.32	1.7854e-05	2.1258e-05	493.62	193.21	126.73	59.424	1.9411e-05	107.31	77.488	59.678	78.154	-20.747	-9.844	168.324	-20.586	-14.991	266.424	235.750	-16.892	-12.388	-11.295	-7.419	46.224	-9.783	-8191	255	
2241.650	1	1	0	0	0.026326	0.1198	0.043646	0.18859	0.12991	0.12884	0.33022	0.11612	0.17348	0.10325	0.1742	0.061348	0.26321	0.20888	0.32081	0.22794	-2.1083	-2.8771	-2.5917	-2.5917	-2.8625	-2.6875	-2.9313	-2.8937	-2.5438	-2.8167	-2.65	-2.7229	-2.9771	-2.5521	-2.7667	-3.1292	67.171	-27.445	64.472	260.990	267.487	-15.512	240.343	319.291	103.561	217.340	322.876	307.164	257.357	294.629	168.097	254.500	0.00085386	0.00077879	5.8719e-05	1029.6	3.4811e-06	3.3046e-06	1204	325.35	1.9611e-05	8.8437e-06	474.87	195.28	125.66	59.198	1.2603e-05	108.04	0.0016731	0.001977	0.00050326	1074.1	1.917e-05	2.1676e-05	1192.5	326.56	1.9352e-05	2.1066e-05	492.35	193.82	127.69	59.478	1.8506e-05	106.62	71.541	137.434	5.098	-20.305	156.987	90.959	-20.476	-15.037	160.616	227.414	-16.784	-12.391	-11.294	-8.097	72.209	-10.025	-8191	255	
2241.746	1	1	0	0	0.067766	0.11694	0.11488	0.13713	0.31205	0.24253	0.22469	0.16411	0.2687	0.23623	0.12698	0.20713	0.3058	0.26518	0.0397	0.18597	-2.1771	-2.7438	-2.4938	-2.3771	-2.8563	-2.4083	-2.9396	-2.8208	-2.3688	-2.7708	-2.8042	-2.6437	-2.9604	-2.6813	-2.4917	-3.0917	-21.997	260.711	34.666	155.809	250.721	196.658	304.720	245.376	31.203	10.565	15.258	246.531	258.834	311.857	10.154	214.175	0.00086551	0.0016894	0.00028778	1027.2	4.8841e-06	6.0262e-06	1188.8	322.92	6.8431e-06	3.7179e-06	465.44	194.33	125.86	58.738	4.9714e-06	107.3	0.00176	0.0018712	0.00047243	1063.7	2.0238e-05	2.021e-05	1176.5	323.88	2.049e-05	2.0247e-05	485.81	193.07	128.13	59.083	1.8075e-05	105.86	67.096	37.577	119.444	-19.840	71.446	132.479	-20.446	-15.280	11.600	119.094	-17.183	-12.459	-11.375	-7.895	134.743	-9.671	-8191	255	
2241.842	1	1	0	0	0.2197	0.097757	0.13814	0.25933	0.092885	0.04155	0.20163	0.033514	0.18098	0.23305	0.1848	0.20928	0.079377	0.21753	0.19772	0.23056	-2.1312	-2.775	-2.7771	-2.5229	-3.1083	-2.4896	-2.7979	-3.1458	-2.6042	-2.8208	-2.8271	-2.6229	-2.9542	-2.6708	-2.5583	-3.2104	34.154	246.987	164.923	42.318	247.348	71.984	224.406	81.354	-32.903	25.356	128.032	242.704	311.655	270.296	159.162	249.579	0.00089639	0.0010413	0.00047042	1019.2	9.8165e-06	6.0175e-06	1191.1	323.62	8.2642e-06	2.4105e-06	469.11	193.06	124.68	58.579	2.3715e-06	106.77	0.0018662	0.0017999	0.0004674	1067.7	2.1297e-05	1.9786e-05	1175.5	324.91	2.1175e-05	1.9474e-05	484.21	192.59	127.2	58.753	1.7846e-05	105.94	70.868	32.487	81.271	-19.760	61.381	30.230	-20.715	-15.325	106.628	145.507	-16.624	-12.590	-11.552	-8.197	235.178	-9.686	-8191	255	
2241.961	1	1	0	0	0.15172	0.15591	0.050694	0.097832	0.19637	0.18594	0.2297	0.19717	0.2243	0.19188	0.21736	0.28882	0.19488	0.14379	0.18049	0.5249	-2.0687	-2.9521	-2.8187	-2.5479	-2.8333	-2.8396	-2.7188	-3.0458	-2.6042	-2.6188	-2.8708	-2.6625	-2.8708	-2.7271	-2.5187	-3.0625	-1.381	194.105	126.192	246.743	277.301	238.600	256.279	269.580	41.416	284.677	302.415	259.640	102.391	298.655	-4.263	-23.741	0.00078083	0.00081965	0.00050806	1012.7	9.73e-06	4.5339e-06	1180.5	320.28	1.6972e-05	9.3385e-06	462.77	193.77	123.55	58.961	7.4136e-06	109.54	0.0018852	0.0017629	0.00045654	1071.2	2.1167e-05	1.933e-05	1168.6	323.49	2.0857e-05	1.9118e-05	481.28	193.61	126.65	59.219	1.7655e-05	108.68	101.684	50.324	29.688	-20.353	95.984	262.993	-20.293	-15.119	-21.586	46.439	-16.526	-12.737	-11.300	-8.308	40.397	-9.786	-8191	255	
2242.033	1	1	0	0	0.20088	0.073262	0.1039	0.13873	0.23407	0.10996	0.12885	0.10077	0.14434	0.2468	0.16211	0.26641	0.2228	0.2946	0.37824	0.30627	-2.1813	-2.625	-2.7313	-2.4708	-2.8896	-2.8333	-2.7417	-2.9313	-2.5833	-2.6937	-2.8854	-2.6146	-2.9542	-2.8187	-2.2625	-2.9542	-3.517	69.150	187.830	144.153	84.411	98.119	235.551	-7.251	225.125	129.642	201.696	-26.344	3.010	238.703	322.577	204.704	0.00069943	0.0017641	0.00039587	1022.2	7.2393e-06	1.3961e-05	1192.9	323.54	4.722e-06	4.2413e-06	473.4	198.88	126.96	60.116	1.5276e-05	109.5	0.0017811	0.0016615	0.00045183	1078.8	1.9614e-05	1.7993e-05	1176.1	328.58	1.9294e-05	1.7846e-05	491.69	198.72	129.5	60.111	1.8612e-05	109.14	67.729	9.549	47.392	-20.220	81.642	116.836	-20.491	-15.156	124.842	98.788	-16.827	-12.619	-11.443	-8.022	175.934	-10.154	-8191	255	
2242.131	1	1	0	0	0.1794	0.073408	0.035726	0.10473	0.17676	0.1641	0.17147	0.20461	0.14221	0.10875	0.14956	0.071593	0.066541	0.047664	0.12336	0.15136	-2.3312	-2.5667	-2.675	-2.5125	-2.6292	-2.7417	-2.7458	-2.9167	-2.5854	-2.6063	-2.8542	-2.5583	-2.8438	-3	-2.3833	-2.95	75.056	194.504	243.872	-24.219	66.119	325.953	9.478	275.916	41.666	238.207	267.175	315.434	305.624	146.038	242.895	245.587	0.00083708	0.0010739	0.00043915	1001.4	1.4721e-05	3.6451e-06	1183	325.92	9.8149e-06	1.1872e-06	474.45	197.6	128.19	59.48	4.7249e-06	109.02	0.0017103	0.001612	0.00048558	1077.4	1.9234e-05	1.7625e-05	1177	329.34	1.895e-05	1.7644e-05	495.18	197.33	128.96	59.59	2.0294e-05	108.3	72.849	45.676	160.774	-19.857	31.969	37.222	-20.501	-14.959	33.419	226.810	-17.082	-12.622	-11.226	-7.837	190.947	-9.619	-8191	255	
2242.250	1	1	0	0	0.17992	0.020544	0.07769	0.12459	0.30919	0.16617	0.22667	0.20255	0.18832	0.20187	0.25087	0.13333	0.22987	0.1513	0.024617	0.32582	-2.2354	-2.5333	-2.7292	-2.6208	-2.6188	-2.9896	-2.5167	-3.1417	-2.7583	-2.5146	-3.0687	-2.8063	-2.5542	-2.9333	-2.6417	-3.1125	224.390	321.318	182.387	197.389	99.158	277.619	256.520	283.789	202.211	191.584	133.754	183.557	318.645	-31.672	253.114	295.694	0.00085963	0.00095863	0.00024407	1010.3	1.2902e-05	9.0451e-06	1193	327.03	8.6321e-06	1.122e-06	476.6	198.43	126.77	59.447	9.0061e-06	108.79	0.0016788	0.0016276	0.00053282	1078.7	1.8767e-05	1.7929e-05	1184.6	329.81	1.8536e-05	1.8397e-05	501.33	197.53	128.96	59.852	2.1384e-05	108.06	79.008	95.252	20.313	-20.043	23.832	145.236	-20.504	-14.999	-7.231	189.492	-16.807	-12.517	-11.301	-7.603	95.380	-9.757	-8191	255	
2242.346	1	1	0	0	0.075256	0.16098	0.093298	0.16822	0.1063	0.25927	0.049547	0.20823	0.24023	0.024769	0.30753	0.17553	0.12421	0.23461	0.070079	0.21932	-2.3854	-2.6125	-2.75	-2.4917	-2.5375	-3.0125	-2.65	-2.9271	-2.9896	-2.5375	-3.0417	-2.6854	-2.8063	-3.1688	-2.2812	-2.9417	17.698	225.958	158.903	68.197	80.159	48.034	230.587	275.338	97.039	19.240	230.866	322.577	-25.051	2.133	224.510	195.287	0.00077608	0.0005647	6.1534e-05	1022.5	3.4785e-06	1.0632e-05	1200	326.21	3.9542e-06	2.2776e-06	472.5	194.01	124.74	58.874	4.9131e-06	108.22	0.0016546	0.0017394	0.00055907	1078	1.8571e-05	1.935e-05	1190.1	328.02	1.8259e-05	1.9837e-05	498.61	194.45	126.78	59.193	2.1885e-05	107.64	63.048	43.458	211.038	-20.096	196.519	168.739	-20.732	-15.297	126.951	127.376	-16.069	-12.424	-11.566	-7.650	83.756	-9.558	-8191	255	
2242.442	1	1	0	0	0.20205	0.10224	0.22054	0.06135	0.063725	0.016875	0.28912	0.13964	0.11922	0.15644	0.03648	0.1569	0.3462	0.344	0.11547	0.21126	-2.4542	-2.6146	-2.9104	-2.7792	-2.6083	-2.975	-2.7542	-2.6437	-2.8521	-2.4688	-2.7625	-3.0354	-2.6625	-3.1417	-2.8083	-2.8417	300.324	200.857	83.608	276.184	122.962	63.328	274.323	257.166	230.240	-19.443	252.753	231.710	322.030	273.889	38.680	300.882	0.00074413	0.00067056	0.00054532	1021.7	6.1994e-06	5.5219e-07	1200.1	325.17	3.3456e-06	1.1208e-05	471.98	194.47	124.53	58.426	2.2606e-05	106.33	0.0016269	0.0019071	0.00055201	1078.5	1.8204e-05	2.0885e-05	1192.1	326.73	1.8026e-05	2.1404e-05	496.64	193.93	126.29	58.854	2.0495e-05	105.51	66.236	288.439	-8.706	-20.240	126.862	247.829	-20.626	-15.128	70.020	123.176	-16.428	-12.369	-11.365	-7.860	31.427	-9.642	-8191	255	
2242.538	1	1	0	0	0.12643	0.24385	0.10153	0.13325	0.20954	0.046086	0.29286	0.36961	0.074553	0.066383	0.0517	0.19492	0.075855	0.12956	0.080118	0.23759	-2.4313	-2.475	-2.8937	-2.6437	-2.7417	-2.8958	-2.6937	-2.725	-2.9125	-2.4667	-2.6167	-3.075	-2.525	-3.0583	-2.6958	-2.8875	126.390	294.612	233.572	322.477	16.588	-0.445	274.549	248.637	23.863	240.668	86.193	301.432	37.366	-27.219	192.395	274.082	0.0010291	0.00102	0.00040982	1011.5	4.8704e-06	2.0282e-06	1183	321.31	4.2924e-06	1.0642e-05	461.41	190.84	123.38	58.14	2.4737e-06	105.19	0.0016129	0.001982	0.00051865	1064.9	1.8409e-05	2.1528e-05	1174.5	321.77	1.8316e-05	2.1399e-05	485.17	190.27	125.54	58.305	1.9354e-05	104.26	83.675	83.470	9.163	-20.593	97.924	229.626	-20.594	-15.276	99.428	119.942	-16.508	-12.413	-11.275	-7.760	141.063	-9.501	-8191	255	
2242.659	1	1	0	0	0.095131	0.18495	0.20912	0.16354	0.13207	0.19299	0.053719	0.11233	0.18583	0.14393	0.11429	0.12566	0.23445	0.11225	0.2878	0.027225	-2.5271	-2.7083	-2.8604	-3.0333	-2.5979	-3.0167	-2.925	-2.6667	-2.9146	-2.7417	-2.8854	-2.9688	-2.5958	-3.1625	-2.7292	-2.7479	44.855	182.037	299.243	116.247	264.516	167.974	131.091	203.446	227.109	-3.379	40.194	214.183	294.122	243.771	234.497	12.853	0.0011147	0.0013484	8.8479e-05	1008.5	5.7179e-06	6.1824e-06	1178	321.02	3.5574e-06	3.6411e-06	462.65	193.43	124.02	58.585	1.0877e-05	106.14	0.0016724	0.0019394	0.00048876	1054.8	1.9468e-05	2.1004e-05	1168.9	323.02	1.9748e-05	2.0924e-05	485.39	191.82	126.99	58.779	1.8858e-05	105.15	68.413	41.594	242.828	-20.256	185.165	127.729	-20.539	-15.049	216.251	204.559	-16.603	-12.430	-11.336	-7.874	-15.750	-9.948	-8191	255	
2242.730	1	1	0	0	0.13827	0.15965	0.11231	0.057392	0.16531	0.16355	0.3911	0.21118	0.082185	0.20479	0.1583	0.47373	0.13654	0.13311	0.3263	0.28885	-2.5396	-2.5771	-2.65	-2.9042	-2.4917	-2.9104	-3.0271	-2.6854	-2.9917	-2.7938	-2.8688	-3.125	-2.6562	-2.9875	-2.7979	-2.7188	208.541	19.020	189.988	113.621	9.466	224.318	276.507	-7.216	9.761	71.476	93.030	267.247	64.884	-16.301	41.563	-0.956	0.0010569	0.00027196	0.00024665	1010.4	1.07e-05	4.4083e-06	1174.4	320.73	9.336e-06	1.3679e-05	463.46	189.75	122.27	56.861	1.2792e-05	104.97	0.0018176	0.0018895	0.00047946	1055.3	2.111e-05	2.0724e-05	1163.4	321.43	2.0985e-05	2.033e-05	480.39	188.75	125.57	57.274	1.8359e-05	103.65	69.256	2.063	111.671	-19.958	84.096	260.366	-20.548	-14.924	153.732	99.364	-17.045	-12.365	-11.181	-7.670	108.440	-9.739	-8191	255	
2242.827	1	1	0	0	0.22403	0.41028	0.17886	0.076922	0.23958	0.17876	0.38228	0.24958	0.064927	0.053303	0.47048	0.28568	0.34047	0.12349	0.1212	0.21311	-2.5917	-2.6	-2.775	-2.8896	-2.5542	-2.8208	-3.0875	-2.55	-2.9708	-2.7	-2.6146	-2.925	-2.7979	-2.9333	-2.8187	-2.8542	82.622	46.962	301.269	306.190	89.259	280.342	305.981	173.359	47.236	53.051	290.464	245.461	284.098	243.391	227.236	247.672	0.0006546	0.00066488	0.00045057	1012.9	1.799e-05	2.733e-06	1184.6	318.74	3.4092e-06	5.3829e-06	459.63	189.46	120.95	56.613	1.2113e-05	103.84	0.0018848	0.0018219	0.00046838	1062.9	2.1833e-05	1.9862e-05	1166.3	321.54	2.1365e-05	1.9809e-05	477.71	188.3	124.47	56.849	1.7818e-05	103.4	81.122	137.392	-8.212	-19.932	111.993	52.735	-20.519	-15.020	209.129	192.306	-16.562	-12.472	-11.211	-7.913	140.676	-9.817	-8191	255	
2242.945	1	1	0	0	0.16888	0.10596	0.061216	0.14359	0.22545	0.019803	0.1719	0.24562	0.066543	0.22848	0.21435	0.14045	0.18451	0.25645	0.17367	0.14809	-2.6021	-2.6167	-2.6854	-2.9542	-2.4208	-2.9667	-2.9667	-2.7229	-2.8604	-2.8208	-2.6604	-2.9562	-2.8708	-2.7542	-2.7458	-2.8312	191.285	311.795	143.737	123.547	8.821	25.637	265.268	222.786	227.424	80.938	247.600	-28.528	304.360	25.069	238.629	322.725	0.00059448	0.001359	0.00010011	1011.4	1.508e-05	9.9556e-06	1177.2	319.66	5.5012e-06	1.5316e-05	460.46	189.36	122.35	56.779	1.2953e-05	103.76	0.0018593	0.0017683	0.00045821	1073.8	2.1244e-05	1.9147e-05	1162.3	322.65	2.0625e-05	1.9103e-05	478.39	189.14	125.14	56.904	1.7864e-05	103.22	69.486	161.696	201.173	-20.206	86.617	162.098	-20.458	-14.971	133.830	78.314	-16.338	-12.225	-11.528	-7.864	177.660	-9.797	-8191	255	
2243.042	1	1	0	0	0.16015	0.23071	0.10827	0.17778	0.24175	0.191	0.2222	0.21478	0.053752	0.14898	0.16977	0.18459	0.1267	0.34255	0.18603	0.066711	-2.3271	-2.8333	-2.4833	-3.0521	-2.7021	-2.6479	-3.1333	-2.8104	-2.7771	-2.8896	-2.5604	-3.125	-2.7104	-2.8021	-3.0042	-2.5896	287.808	25.218	49.113	313.950	240.167	227.548	284.530	242.061	57.354	47.310	272.814	268.691	252.186	292.664	-10.662	325.010	0.00090685	0.0015458	0.00040159	1016	1.8621e-05	1.3264e-05	1176.1	319.1	1.1504e-05	5.3716e-06	460.76	189	121.98	56.468	1.0118e-05	103.08	0.0017742	0.0016851	0.00047137	1078.9	2.0084e-05	1.833e-05	1163.1	324.76	1.9775e-05	1.8239e-05	482.75	189.39	124.73	56.709	1.9254e-05	102.5	72.160	8.703	37.168	-20.369	94.880	77.377	-20.440	-14.950	62.383	109.584	-16.825	-12.487	-11.251	-7.652	120.347	-9.572	-8191	255	
2243.138	1	1	0	0	0.22889	0.1879	0.27867	0.21398	0.16187	0.06736	0.057686	0.15177	0.23664	0.072335	0.23017	0.15335	0.49148	0.16439	0.15821	0.46405	-2.4333	-2.8	-2.6229	-2.775	-2.7125	-2.6375	-3.1188	-2.5563	-2.6375	-3.0167	-2.5396	-3.1042	-2.9813	-2.6396	-2.8104	-2.9313	72.094	-10.090	-14.035	266.604	318.606	313.402	278.551	103.433	211.965	117.728	274.698	246.272	294.530	247.160	65.088	309.100	0.00066941	0.0017401	0.00016801	1006.2	1.1638e-05	8.974e-06	1180.5	320.13	8.7855e-06	1.2458e-05	461.15	187.99	121.36	56.456	1.1718e-05	103.1	0.0017417	0.0016449	0.00051456	1077.2	1.9597e-05	1.8061e-05	1172.4	325.43	1.9348e-05	1.8141e-05	487.87	188.79	124.21	56.613	2.1299e-05	103	83.819	72.612	38.511	-20.305	88.915	317.336	-20.450	-15.047	176.251	93.109	-16.073	-12.386	-11.493	-7.515	206.910	-9.578	-8191	255	
2243.234	1	1	0	0	0.25289	0.01914	0.06227	0.14696	0.28435	0.063257	0.11582	0.3359	0.38638	0.073724	0.29221	0.31163	0.1107	0.15901	0.15521	0.23603	-2.3479	-2.7458	-2.5979	-2.8458	-2.6688	-2.5917	-3.1146	-2.6688	-2.5958	-2.8271	-2.3812	-2.9542	-2.6521	-2.5521	-2.8271	-2.7146	81.259	321.673	185.442	141.188	68.064	170.794	279.559	288.472	274.762	203.870	259.374	283.267	24.817	-15.037	295.293	271.421	0.00070032	0.0013818	0.0006088	1025.8	1.2744e-05	9.5632e-06	1182.5	322.16	9.122e-06	1.9367e-06	458.17	187.52	121.79	56.155	1.5713e-05	102.11	0.0017135	0.0016835	0.00055549	1083.9	1.936e-05	1.8821e-05	1182.6	324.95	1.8839e-05	1.8834e-05	491.35	187.88	123.51	56.407	2.1874e-05	101.77	81.496	89.330	74.002	-20.463	96.724	186.033	-20.403	-15.303	33.789	291.031	-16.643	-12.368	-11.659	-7.547	137.726	-9.582	-8191	255	
2243.330	1	1	0	0	0.11858	0.090876	0.32119	0.23435	0.084491	0.061874	0.11415	0.18687	0.1827	0.10999	0.15373	0.1168	0.054451	0.23749	0.12959	0.15756	-2.1292	-2.9583	-2.3479	-2.7896	-2.7354	-2.6063	-2.8792	-2.8542	-2.5062	-2.9396	-2.6583	-2.8958	-2.7562	-2.6312	-2.9292	-2.7875	309.488	14.432	249.823	240.578	139.462	128.533	85.282	-6.330	194.347	-5.655	261.737	171.219	218.060	42.930	315.475	288.000	0.00054126	0.002094	9.6899e-05	1008.5	1.9127e-05	1.3608e-05	1166.1	315.3	1.0806e-05	1.7555e-06	448.63	182.26	118.3	54.123	7.0426e-06	98.369	0.0016281	0.0017708	0.00056191	1067.7	1.8236e-05	1.9553e-05	1167.1	318.03	1.7881e-05	1.9692e-05	478.9	182.48	120.37	54.664	2.0734e-05	97.74	55.640	80.117	33.414	-20.447	99.715	135.085	-20.428	-15.110	95.760	238.008	-16.500	-12.395	-11.144	-7.902	43.653	-9.700	-8191	255	
2243.426	1	1	0	0	0.12647	0.048072	0.17284	0.15563	0.19328	0.21109	0.2434	0.1911	0.013464	0.31231	0.098725	0.26224	0.092224	0.27446	0.11621	0.32589	-2.0438	-2.875	-2.4354	-2.8104	-2.6125	-2.4229	-3.1271	-2.8875	-2.3625	-3	-2.6104	-2.75	-2.9125	-2.6937	-2.7792	-2.7854	144.665	202.578	171.972	38.613	254.668	123.236	200.763	310.634	42.115	206.834	247.251	30.744	249.830	235.153	138.606	235.008	0.00082574	0.00056675	0.00028956	1013.3	6.0363e-06	1.0978e-05	1167.7	316.03	3.344e-06	1.4211e-05	453.48	183.72	120.53	54.674	5.0555e-06	99.41	0.0015569	0.0018462	0.00053303	1062.4	1.755e-05	2.0669e-05	1159.9	317.82	1.7373e-05	2.0713e-05	478.61	182.97	121.95	55.226	1.9576e-05	98.322	58.034	107.905	-28.523	-20.017	137.985	219.704	-20.498	-15.056	114.245	168.756	-16.511	-12.424	-11.044	-7.729	11.725	-9.485	-8191	255	
2243.522	1	1	0	0	0.17993	0.10206	0.069135	0.1368	0.15696	0.1049	0.054125	0.30199	0.22326	0.15232	0.21363	0.2829	0.27163	0.20584	0.16747	0.39861	-2.1729	-2.8146	-2.4104	-2.5875	-2.6813	-2.5375	-2.85	-2.8021	-2.5438	-2.8042	-2.5625	-2.7604	-2.8583	-2.7167	-2.8458	-2.725	215.334	113.003	219.322	91.854	258.598	222.970	261.260	323.401	55.005	87.600	311.767	320.651	326.643	319.771	105.669	285.734	0.00076257	0.0009879	0.00035084	1013.3	1.2348e-05	6.1863e-06	1176.5	318.33	3.1871e-05	1.0083e-05	453.2	183.21	119.93	54.231	6.0102e-06	98.914	0.0015826	0.0019507	0.00050658	1057.5	1.824e-05	2.1524e-05	1166.1	319.06	1.8768e-05	2.1438e-05	477.01	182.15	122.13	54.855	1.9212e-05	98.086	47.342	-4.744	25.026	-20.311	101.736	326.461	-20.466	-14.854	140.754	134.377	-16.628	-12.475	-11.050	-7.629	39.812	-9.450	-8191	255	
2243.619	1	1	0	0	0.202	0.094789	0.03683	0.043146	0.092677	0.094793	0.21251	0.22127	0.3563	0.14451	0.14102	0.39705	0.36125	0.14483	0.14313	0.18682	-2.1417	-2.7792	-2.5979	-2.4708	-2.9771	-2.5479	-2.8354	-2.8396	-2.4042	-3.0146	-2.6	-2.5583	-2.9562	-2.6771	-2.6625	-2.9562	59.232	203.147	-25.615	173.155	144.730	50.446	295.417	237.213	7.893	55.865	4.031	215.575	57.402	266.916	279.985	161.498	0.00087614	0.00085406	0.00010877	1023.3	1.6369e-05	5.6638e-06	1186.7	320.58	1.4675e-05	1.0677e-05	461.75	184.84	121.7	55.658	1.111e-05	101.11	0.0017326	0.001941	0.00049187	1064.3	2.0189e-05	2.1318e-05	1175.4	321.79	2.077e-05	2.1345e-05	483.13	184.93	124.74	56.159	1.9192e-05	100.32	74.938	20.408	-26.605	-19.344	156.934	313.596	-20.724	-15.055	133.581	105.166	-16.217	-12.259	-11.212	-7.594	147.602	-9.583	-8191	255	
2243.737	1	1	0	0	0.075623	0.37141	0.21926	0.5453	0.081298	0.099352	0.1251	0.24791	0.018832	0.1173	0.07405	0.16491	0.12192	0.51744	0.13459	0.12328	-2.0062	-2.8104	-2.7208	-2.6479	-2.8854	-2.7	-2.8646	-2.9125	-2.55	-2.8187	-2.825	-2.8896	-2.8167	-2.5187	-2.6458	-3.0146	257.359	-24.505	60.123	-27.191	56.989	118.258	166.850	30.547	127.873	35.945	142.342	241.522	289.949	-22.025	112.471	202.768	0.00059958	0.0019878	0.00047321	1022.2	6.3537e-06	4.5503e-06	1178.6	320.18	9.8043e-06	4.0667e-06	454.58	185.52	122.08	55.309	1.8503e-05	99.772	0.0018911	0.0019007	0.00048673	1064.5	2.1762e-05	2.0848e-05	1172.8	322.35	2.1813e-05	2.0495e-05	479.28	185.35	124.86	55.597	1.8555e-05	98.987	84.004	40.684	2.002	-20.042	164.062	22.866	-20.626	-15.054	226.100	-19.948	-16.284	-12.121	-11.288	-7.631	76.391	-9.574	-8191	255	
2243.834	1	1	0	0	0.14704	0.074947	0.14042	0.20243	0.088623	0.080899	0.13813	0.13987	0.1215	0.11129	0.16019	0.22157	0.26625	0.29749	0.17843	0.34918	-2.1375	-2.8333	-2.7313	-2.5375	-2.9667	-2.6021	-2.5979	-3.0479	-2.625	-2.6896	-2.8896	-2.7229	-3.0167	-2.6229	-2.4771	-3.0333	66.575	194.522	146.253	300.202	92.899	100.053	306.109	195.320	92.506	174.471	40.835	320.024	221.929	267.165	9.357	266.897	0.0007537	0.00047149	0.00023388	1019	1.7172e-05	8.9742e-06	1181.8	317.02	9.8419e-06	8.6071e-06	459.2	184.06	120.79	55.295	5.5219e-06	100.26	0.0019461	0.0018341	0.00047169	1074.1	2.2225e-05	2.0092e-05	1166.5	321.44	2.1801e-05	1.9691e-05	475.03	184.39	124.19	55.6	1.7989e-05	99.866	73.363	-7.024	28.189	-19.786	82.498	179.006	-20.192	-14.802	38.684	89.095	-16.385	-12.475	-11.304	-7.571	323.505	-9.476	-8191	255	
2243.931	1	1	0	0	0.042688	0.14402	0.18407	0.19057	0.25101	0.060612	0.38827	0.1056	0.34132	0.13211	0.24737	0.45326	0.40335	0.2694	0.14833	0.040967	-2.0979	-2.6583	-2.925	-2.5687	-2.6646	-2.7396	-2.7062	-2.9083	-2.5458	-2.7958	-2.9938	-2.5708	-2.8208	-2.7521	-2.5979	-2.9958	120.563	119.859	3.941	242.706	227.326	91.408	179.285	298.291	29.139	162.443	299.884	318.035	209.967	316.152	120.890	213.094	0.0007442	0.001032	0.00033887	1000.5	6.8939e-06	1.0542e-05	1171.9	321.53	1.2473e-05	2.1001e-06	455.19	185.67	121.49	55.895	5.8843e-06	102	0.0018697	0.0017832	0.00046397	1073.9	2.1057e-05	1.9296e-05	1160.9	323.87	2.078e-05	1.897e-05	476.38	187.08	124.02	56.04	1.8395e-05	101.69	58.378	91.838	19.269	-20.442	58.914	163.494	-20.243	-14.882	20.646	90.502	-16.574	-12.536	-11.410	-7.884	158.967	-9.592	-8191	255	
2244.026	1	1	0	0	0.061247	0.16166	0.31906	0.06836	0.20124	0.22717	0.30136	0.14162	0.25538	0.067414	0.1219	0.11967	0.054525	0.14128	0.22513	0.17537	-2.2083	-2.6375	-3.0146	-2.6	-2.7646	-2.7854	-2.6833	-3.0354	-2.6854	-2.5208	-2.7771	-2.7833	-2.8458	-2.9708	-2.4542	-2.9688	-6.624	136.776	88.430	4.728	133.614	225.061	213.597	153.298	303.853	16.622	268.402	249.646	250.303	310.074	114.160	270.690	0.00077007	0.0014645	0.00020974	994.85	1.4286e-05	1.1396e-05	1178.3	322.12	6.9651e-06	4.4839e-06	460.34	190.71	123.39	57.265	5.8906e-06	105.04	0.0017691	0.0016925	0.00048089	1072.6	1.9807e-05	1.8181e-05	1162.2	325.23	1.94e-05	1.786e-05	485.11	191.38	125.81	57.397	1.9343e-05	104.61	74.756	-9.484	132.496	-20.321	67.694	87.375	-20.336	-15.233	66.473	-27.369	-16.501	-12.637	-11.370	-7.568	198.653	-9.676	-8191	255	
2244.122	1	1	0	0	0.070448	0.17793	0.10561	0.39801	0.37808	0.18456	0.074351	0.14273	0.14999	0.13537	0.091037	0.13354	0.23567	0.066053	0.092269	0.21648	-2.2396	-2.7271	-2.8708	-2.5563	-2.6688	-3.05	-2.7562	-2.9313	-2.65	-2.4896	-2.9521	-2.7521	-2.6521	-2.8396	-2.3667	-2.9458	33.588	37.926	16.326	221.327	206.207	237.837	207.211	-18.441	131.314	63.273	209.457	-23.758	276.676	-4.071	-18.890	218.951	0.00079836	0.00069497	0.000358	1006.6	7.2074e-06	1.22e-05	1167.5	322.14	1.3639e-05	1.1074e-05	467.54	195.58	126.18	59.127	8.4282e-06	107.71	0.0016591	0.0016032	0.00049877	1063.6	1.8595e-05	1.7113e-05	1159	325.05	1.8378e-05	1.7174e-05	490.56	194.64	127.83	58.861	2.0178e-05	106.7	69.470	9.376	79.568	-19.917	23.018	147.710	-20.287	-15.248	14.601	151.740	-16.354	-12.627	-11.424	-7.876	159.342	-9.920	-8191	255	
2244.218	1	1	0	0	0.21266	0.22393	0.12544	0.11937	0.14994	0.41465	0.1481	0.26673	0.37568	0.23397	0.03822	0.163	0.11857	0.21848	0.21381	0.26937	-2.3563	-2.5	-2.8667	-2.65	-2.4396	-2.9188	-2.7333	-2.85	-2.9437	-2.5229	-3.1292	-2.7062	-2.6688	-3.0083	-2.5292	-2.8312	239.408	258.855	192.441	170.474	30.548	274.421	273.740	303.002	40.252	272.209	87.723	281.398	141.093	296.146	18.901	163.132	0.00089918	0.0011817	0.00041046	1006.5	7.3112e-06	1.308e-05	1165.9	324.31	1.3513e-05	4.4236e-06	468.56	195.93	126.56	58.938	4.0379e-06	107.33	0.0015851	0.0015801	0.0005237	1054.5	1.7793e-05	1.7602e-05	1159.6	326.58	1.7585e-05	1.8078e-05	495.5	195.38	128.17	58.949	2.0845e-05	106.25	64.141	68.504	119.958	-20.175	79.969	105.607	-20.703	-15.131	21.863	190.493	-16.869	-12.383	-11.568	-7.915	140.095	-9.613	-8191	255	
2244.339	1	1	0	0	0.17009	0.059741	0.14897	0.159	0.22568	0.2235	0.16742	0.077727	0.21651	0.07464	0.22002	0.32189	0.1661	0.081807	0.19224	0.17883	-2.5417	-2.2833	-2.8354	-2.5875	-2.4021	-2.7583	-2.8542	-2.7146	-2.7438	-2.5917	-3.0542	-2.7458	-2.5354	-3.2021	-2.5979	-2.7	110.576	4.880	167.167	-29.807	98.605	296.684	268.732	111.660	195.168	-16.926	276.457	277.658	284.545	277.053	63.736	255.544	0.00082192	0.0017991	0.00028971	997.21	5.905e-06	8.6129e-06	1170.6	324.56	5.5323e-06	9.2879e-06	470.83	194.43	126.02	58.792	2.3216e-05	107.22	0.0015653	0.0017458	0.00054026	1052.7	1.7722e-05	1.9497e-05	1164.9	327.27	1.7416e-05	2.0062e-05	496.59	193.88	127.32	59.034	2.109e-05	106.32	64.662	128.542	107.938	-20.241	83.036	262.381	-20.320	-14.814	72.967	211.678	-16.389	-12.478	-11.420	-7.637	130.103	-9.721	-8191	255	
2244.435	1	1	0	0	0.20668	0.11795	0.16017	0.15409	0.056671	0.043251	0.30877	0.088429	0.1206	0.23883	0.1853	0.32692	0.14746	0.066187	0.028964	0.12637	-2.475	-2.4437	-2.75	-2.9958	-2.5167	-2.6958	-2.8125	-2.7708	-2.8042	-2.4479	-2.7021	-2.8229	-2.5708	-3.1229	-2.6354	-2.8667	45.670	155.505	286.979	-11.619	88.564	27.429	245.746	171.903	127.865	240.051	304.383	294.016	281.078	210.150	289.448	300.532	0.00073064	0.00084905	0.00050887	1005.6	1.16e-05	8.8137e-06	1177.9	325.52	5.7823e-06	8.1085e-06	477.68	197.75	128.1	60.275	1.6456e-05	110.53	0.0015699	0.0018959	0.00053379	1055.1	1.7818e-05	2.1057e-05	1168.5	327.8	1.8031e-05	2.1695e-05	499.32	197.17	129.72	60.58	2.0257e-05	109.67	89.576	79.609	20.432	-20.154	165.671	197.083	-20.585	-15.220	130.096	212.366	-16.939	-12.350	-11.161	-7.810	61.586	-9.669	-8191	255	
2244.531	1	1	0	0	0.092127	0.23303	0.25881	0.11191	0.19081	0.1808	0.22482	0.25452	0.11205	0.30372	0.15892	0.28596	0.10335	0.29505	0.13962	0.33217	-2.6792	-2.4146	-2.7	-3.0021	-2.5667	-2.8208	-2.9521	-2.7521	-2.8688	-2.5812	-2.8333	-3.0208	-2.6917	-3.0875	-2.75	-2.7875	6.333	277.697	87.337	201.334	98.284	134.328	271.103	34.237	-1.373	63.796	237.708	280.014	41.627	-9.244	28.944	256.635	0.00087692	0.0011675	0.000107	1017.1	2.9545e-07	2.2476e-05	1184.8	330.18	1.3821e-05	6.0786e-06	483.8	200.94	128.47	59.894	9.6642e-06	108.85	0.0016742	0.002028	0.00051418	1061	1.9478e-05	2.2195e-05	1178.1	332.84	1.964e-05	2.2445e-05	502.45	199.02	131.44	60.368	2.0016e-05	107.85	76.253	68.252	109.533	-19.508	-9.168	98.909	-20.465	-14.983	150.457	74.248	-16.836	-12.357	-11.234	-7.699	53.746	-9.628	-8191	255	
2244.627	1	1	0	0	0.11771	0.24816	0.082983	0.088499	0.15822	0.0073266	0.1223	0.15988	0.22455	0.19979	0.16254	0.20002	0.20853	0.070122	0.030257	0.30172	-2.525	-2.4396	-2.575	-2.8708	-2.5667	-2.8187	-2.7729	-2.7417	-2.8417	-2.5083	-2.8125	-2.9958	-2.3396	-2.9292	-2.6458	-2.6562	83.690	225.186	243.889	325.189	166.121	79.449	62.784	325.535	-3.955	-13.781	320.620	199.936	301.196	222.324	25.042	263.814	0.00066047	0.0016456	0.00015529	1007.9	1.1909e-05	6.3723e-06	1170.9	326	3.7493e-05	1.4035e-05	470.9	195.52	126.15	58.703	1.3551e-05	107.29	0.0018157	0.0020214	0.00050592	1054.5	2.1444e-05	2.1746e-05	1160.7	326.26	2.1459e-05	2.1925e-05	491.73	194.29	129.82	59.181	1.9422e-05	106.3	90.501	-5.922	-22.874	-19.982	150.127	268.983	-20.609	-14.970	175.269	27.657	-16.505	-12.336	-11.312	-7.713	81.850	-9.744	-8191	255	
#DATA ENDS
