BOXY.EXE: ISS Imagent and Oximeter Data Acquisition Program Version 0.80
Ascii Record File

#ACQ INFORMATION
2  Detector Channels 
16  External MUX Channels 
1  Auxiliary Channels 
5000  Waveform (CCF) Frequency (Hz)
1  Waveforms Skipped 
30  Waveforms Averaged 
1  Cycles Averaged 
16  Acquisitions per Waveform 
10.0806  Updata Rate (Hz) 

#FILE INFORMATION
TRUE -- External MUX Channel results are PARSED.
FALSE -- AC DC and Phase are NOT grouped.
TRUE -- Companion Program Settings File CREATED.
FALSE -- AC data not excluded
FALSE -- DC data not excluded
FALSE -- Phase data not excluded
FALSE -- Auxillary Chn. data not excluded
Tab delimiters

#CALIBRATION STATE
TRUE -- Waveform Calibration Values APPLIED.


#AUX CALIBRATION VALUES
Val Type	aux-1	

Term	1.0000e+00	
Factor	0.0000e+00	


#WF CALIBRATION VALUES
A = Detector Channel
Val Type	A-AC1	A-AC2	A-AC3	A-AC4	A-AC5	A-AC6	A-AC7	A-AC8	A-AC9	A-AC10	A-AC11	A-AC12	A-AC13	A-AC14	A-AC15	A-AC16	A-DC1	A-DC2	A-DC3	A-DC4	A-DC5	A-DC6	A-DC7	A-DC8	A-DC9	A-DC10	A-DC11	A-DC12	A-DC13	A-DC14	A-DC15	A-DC16	A-Ph1	A-Ph2	A-Ph3	A-Ph4	A-Ph5	A-Ph6	A-Ph7	A-Ph8	A-Ph9	A-Ph10	A-Ph11	A-Ph12	A-Ph13	A-Ph14	A-Ph15	A-Ph16	

Term	0.00000e+00	0.00000e+00	0.00000e+00	0.00000e+00	0.00000e+00	0.00000e+00	0.00000e+00	0.00000e+00	0.00000e+00	0.00000e+00	0.00000e+00	0.00000e+00	0.00000e+00	0.00000e+00	0.00000e+00	0.00000e+00	0.00000e+00	0.00000e+00	0.00000e+00	0.00000e+00	0.00000e+00	0.00000e+00	0.00000e+00	0.00000e+00	0.00000e+00	0.00000e+00	0.00000e+00	0.00000e+00	0.00000e+00	0.00000e+00	0.00000e+00	0.00000e+00	0.00000e+00	0.00000e+00	0.00000e+00	0.00000e+00	0.00000e+00	0.00000e+00	0.00000e+00	0.00000e+00	0.00000e+00	0.00000e+00	0.00000e+00	0.00000e+00	0.00000e+00	0.00000e+00	0.00000e+00	0.00000e+00	
Factor	1.00000e+00	1.00000e+00	1.00000e+00	1.00000e+00	1.00000e+00	1.00000e+00	1.00000e+00	1.00000e+00	1.00000e+00	1.00000e+00	1.00000e+00	1.00000e+00	1.00000e+00	1.00000e+00	1.00000e+00	1.00000e+00	1.00000e+00	1.00000e+00	1.00000e+00	1.00000e+00	1.00000e+00	1.00000e+00	1.00000e+00	1.00000e+00	1.00000e+00	1.00000e+00	1.00000e+00	1.00000e+00	1.00000e+00	1.00000e+00	1.00000e+00	1.00000e+00	X	X	X	X	X	X	X	X	X	X	X	X	X	X	X	X	

B = Detector Channel
Val Type	B-AC1	B-AC2	B-AC3	B-AC4	B-AC5	B-AC6	B-AC7	B-AC8	B-AC9	B-AC10	B-AC11	B-AC12	B-AC13	B-AC14	B-AC15	B-AC16	B-DC1	B-DC2	B-DC3	B-DC4	B-DC5	B-DC6	B-DC7	B-DC8	B-DC9	B-DC10	B-DC11	B-DC12	B-DC13	B-DC14	B-DC15	B-DC16	B-Ph1	B-Ph2	B-Ph3	B-Ph4	B-Ph5	B-Ph6	B-Ph7	B-Ph8	B-Ph9	B-Ph10	B-Ph11	B-Ph12	B-Ph13	B-Ph14	B-Ph15	B-Ph16	

Term	0.00000e+00	0.00000e+00	0.00000e+00	0.00000e+00	0.00000e+00	0.00000e+00	0.00000e+00	0.00000e+00	0.00000e+00	0.00000e+00	0.00000e+00	0.00000e+00	0.00000e+00	0.00000e+00	0.00000e+00	0.00000e+00	0.00000e+00	0.00000e+00	0.00000e+00	0.00000e+00	0.00000e+00	0.00000e+00	0.00000e+00	0.00000e+00	0.00000e+00	0.00000e+00	0.00000e+00	0.00000e+00	0.00000e+00	0.00000e+00	0.00000e+00	0.00000e+00	-1.95322e+02	-1.31664e+02	-1.35514e+02	-1.83507e+02	-9.14092e+01	-5.93382e+01	-1.57852e+02	-1.62015e+02	-9.36674e+01	-6.54123e+01	-1.76234e+02	-1.71211e+02	-1.81698e+02	-1.78091e+02	-8.68548e+01	-1.51000e+02	
Factor	4.07472e-05	1.94038e-04	5.01386e-05	4.44362e-01	1.74494e-06	1.67566e-06	1.66286e-01	6.31906e-02	2.08765e-06	1.66474e-06	2.13853e-01	2.89034e-02	2.88634e-02	9.13376e-03	1.93495e-06	1.32076e-02	3.19055e-06	3.47120e-06	9.67125e-07	2.29784e-01	3.78690e-08	3.80063e-08	8.23849e-02	3.32550e-02	3.75348e-08	3.80335e-08	1.05779e-01	1.48008e-02	1.52162e-02	4.84302e-03	3.76195e-08	6.77457e-03	X	X	X	X	X	X	X	X	X	X	X	X	X	X	X	X	



#DISTANCE SETTINGS
A = Detector Channel
A-1	A-2	A-3	A-4	A-5	A-6	A-7	A-8	A-9	A-10	A-11	A-12	A-13	A-14	A-15	A-16	

2.5000e+00	3.0000e+00	2.5000e+00	3.0000e+00	2.0000e+00	3.0000e+00	1.5000e+00	3.0000e+00	3.0000e+00	3.0000e+00	3.0000e+00	3.0000e+00	3.0000e+00	3.0000e+00	1.5000e+00	3.0000e+00	

B = Detector Channel
B-1	B-2	B-3	B-4	B-5	B-6	B-7	B-8	B-9	B-10	B-11	B-12	B-13	B-14	B-15	B-16	

1.0000e+01	1.0000e+01	1.0000e+01	1.4400e+00	1.0000e+01	1.0000e+01	1.5100e+00	1.9400e+00	1.0000e+01	1.0000e+01	1.9900e+00	2.4900e+00	2.4100e+00	2.9000e+00	1.0000e+01	2.9800e+00	




#DATA BEGINS
time	group	step	mark	flag	A-AC1	A-AC2	A-AC3	A-AC4	A-AC5	A-AC6	A-AC7	A-AC8	A-AC9	A-AC10	A-AC11	A-AC12	A-AC13	A-AC14	A-AC15	A-AC16	A-DC1	A-DC2	A-DC3	A-DC4	A-DC5	A-DC6	A-DC7	A-DC8	A-DC9	A-DC10	A-DC11	A-DC12	A-DC13	A-DC14	A-DC15	A-DC16	A-Ph1	A-Ph2	A-Ph3	A-Ph4	A-Ph5	A-Ph6	A-Ph7	A-Ph8	A-Ph9	A-Ph10	A-Ph11	A-Ph12	A-Ph13	A-Ph14	A-Ph15	A-Ph16	B-AC1	B-AC2	B-AC3	B-AC4	B-AC5	B-AC6	B-AC7	B-AC8	B-AC9	B-AC10	B-AC11	B-AC12	B-AC13	B-AC14	B-AC15	B-AC16	B-DC1	B-DC2	B-DC3	B-DC4	B-DC5	B-DC6	B-DC7	B-DC8	B-DC9	B-DC10	B-DC11	B-DC12	B-DC13	B-DC14	B-DC15	B-DC16	B-Ph1	B-Ph2	B-Ph3	B-Ph4	B-Ph5	B-Ph6	B-Ph7	B-Ph8	B-Ph9	B-Ph10	B-Ph11	B-Ph12	B-Ph13	B-Ph14	B-Ph15	B-Ph16	aux-1	digaux	

2366.717	1	1	0	131840	0.24744	0.19259	0.19332	0.035442	0.12242	0.13125	0.22213	0.051038	0.092842	0.18993	0.21387	0.21754	0.027507	0.20961	0.30536	0.070543	-2.6604	-2.8292	-3.25	-2.8312	-3.0896	-3.1542	-2.85	-3.1688	-2.8708	-3.025	-3.2417	-2.7854	-2.8208	-3.1688	-2.8417	-3.3771	221.773	8.623	-80.050	158.382	229.959	47.102	223.861	117.670	181.846	-77.769	136.650	203.775	40.384	-14.344	47.845	233.682	0.0022514	0.0059	0.0048914	557.85	3.6014e-05	4.3841e-05	606.79	135.16	9.554e-05	2.1198e-05	147.74	45.293	33.1	9.9381	0.00018745	17.405	0.054039	0.05429	0.016158	4791.6	0.00061817	0.00057879	2061.3	738.12	0.00060504	0.00057399	1965.3	309.58	277.46	82.721	0.00063686	133.68	-61.476	-11.408	149.978	-72.678	30.478	4.348	-72.932	-67.369	-3.047	4.144	-70.230	-63.374	-63.290	-56.501	196.091	-57.107	-8191	255	
2366.813	1	1	0	0	0.17419	0.088756	0.081011	0.18762	0.046905	0.19085	0.21054	0.19227	0.25169	0.086968	0.27318	0.21772	0.19397	0.17694	0.049817	0.13362	-2.6229	-2.6604	-3.2	-2.8417	-3.0396	-3.2812	-2.9104	-2.8688	-2.9896	-2.8042	-3.3083	-2.7729	-3	-3.1562	-2.8896	-3.0396	186.415	166.477	186.793	216.239	-12.227	61.920	179.663	121.375	-84.495	271.654	114.651	157.840	117.159	-53.046	-25.256	264.924	0.00070627	0.0069677	0.0043365	556.18	5.7606e-05	8.2977e-05	589.8	126.88	2.1739e-05	9.6137e-05	141.03	43.228	31.986	9.2075	5.5005e-05	16.68	0.049058	0.05059	0.016159	4329.8	0.00055916	0.00053676	1998.7	647.85	0.00052559	0.00051389	1789	256.87	230.89	72.059	0.00054509	107.67	-79.986	115.322	161.334	-72.567	44.684	229.736	-72.502	-67.026	140.633	220.011	-68.195	-62.558	-62.517	-53.343	207.452	-57.153	-8191	255	
2366.909	1	1	0	0	0.13193	0.070233	0.25268	0.28619	0.2592	0.20429	0.16926	0.065925	0.33802	0.025519	0.21232	0.061053	0.084941	0.17038	0.10308	0.089861	-2.5312	-2.6562	-3.0187	-2.9417	-2.6979	-3.3042	-2.8229	-2.9813	-3.15	-2.7896	-3.1646	-2.9354	-3.0333	-3.0521	-2.9375	-2.9271	237.108	117.448	154.156	220.846	165.734	200.963	184.741	65.450	47.760	1.067	41.933	-27.855	212.243	-5.608	16.407	-56.090	0.00083608	0.010297	0.00080967	511.1	2.3774e-05	0.00013748	575.52	115.43	7.5944e-05	0.00013299	157.52	41.654	30.263	8.7466	0.00011105	15.726	0.03897	0.042938	0.013484	3444.1	0.00044272	0.00046349	1745.7	536.4	0.00043521	0.00047819	1617.2	230.99	212.82	73.593	0.00053103	103.97	207.745	136.779	75.629	-71.533	-12.792	221.167	-72.312	-66.495	24.572	204.814	-69.296	-62.167	-61.998	-54.093	6.646	-57.273	-8191	255	
2367.005	1	1	0	0	0.069374	0.14029	0.21729	0.1739	0.099597	0.031395	0.168	0.066851	0.24231	0.22553	0.081105	0.048528	0.25257	0.11794	0.1337	0.28865	-2.7104	-2.8604	-3.0917	-3.0271	-2.9729	-3.4313	-2.7938	-3.0125	-3.1063	-2.9083	-3.1937	-3.0104	-2.95	-3.1542	-2.9562	-3.0187	100.017	76.828	141.234	197.069	30.133	-22.077	-23.713	120.545	78.817	97.462	163.787	90.051	-28.788	16.343	-78.617	74.376	0.00067253	0.0095214	0.0022556	495.6	1.6833e-05	7.8176e-05	563.23	111.64	2.4539e-05	8.4981e-05	150.33	39.623	27.192	8.4058	7.246e-05	15.071	0.038434	0.047177	0.013659	3465.2	0.00045722	0.00052285	1749.1	538.37	0.00044897	0.00052656	1585.4	226.15	213.06	76.53	0.00050211	99.001	-42.645	139.839	-33.560	-72.540	-16.910	216.779	-72.390	-66.483	138.791	227.656	-70.010	-60.912	-60.916	-55.032	10.754	-57.807	-8191	255	
2367.102	1	1	0	0	0.050811	0.19583	0.22035	0.17491	0.23304	0.070785	0.033736	0.097695	0.23986	0.087341	0.03717	0.14255	0.21092	0.042398	0.094406	0.10704	-2.7042	-2.8729	-3.1875	-3.0125	-2.6583	-3.1875	-3.1271	-3.0062	-3.1896	-2.8563	-3.1292	-3.1	-2.825	-3.1562	-2.9104	-2.9062	-79.424	164.829	-41.948	-20.342	266.131	60.289	84.894	-17.933	34.960	29.803	42.656	18.204	141.697	257.335	62.424	-73.817	0.001709	0.0062376	0.0019418	486.83	8.6661e-05	4.3501e-05	546.96	108.55	0.00015364	8.0576e-06	147.87	39.226	25.946	8.7032	6.6407e-05	14.361	0.038102	0.048057	0.012614	3260	0.00045311	0.00052023	1631.8	502.52	0.0004421	0.00050747	1428.1	206.25	207.43	71.381	0.00043534	87.898	105.594	156.887	-21.698	-72.554	193.166	201.904	-72.139	-66.325	178.024	210.578	-68.442	-62.159	-59.721	-54.708	3.023	-57.033	-8191	255	
2367.198	1	1	0	0	0.17365	0.010823	0.20978	0.13312	0.2813	0.038903	0.083847	0.14979	0.08076	0.30808	0.12822	0.12784	0.29511	0.082652	0.25221	0.12291	-2.7875	-2.9958	-2.9104	-3.3375	-2.4458	-3.3563	-3.0125	-2.8792	-3.0604	-2.775	-3.0938	-3.2542	-2.7687	-3.0563	-2.8042	-2.9479	104.246	121.697	-62.184	200.119	79.979	103.765	-61.216	245.913	-74.225	-71.636	-31.011	213.009	73.210	17.249	198.397	142.094	0.0022107	0.002778	0.0011683	486.91	0.00011981	6.559e-05	548.92	104.58	0.00011643	5.0107e-05	138.97	37.01	25.597	8.4303	4.7582e-05	13.461	0.036073	0.042428	0.010561	2807.6	0.00040951	0.0004267	1410.4	417.25	0.00037532	0.00038526	1093.7	161.06	168.03	51.97	0.00029876	64.524	108.780	-18.814	-1.078	-71.964	194.788	38.478	-72.196	-66.405	196.206	10.147	-67.837	-61.975	-59.854	-55.945	54.134	-56.876	-8191	255	
2367.318	1	1	0	0	0.17451	0.099983	0.20741	0.13163	0.11644	0.13756	0.097919	0.036938	0.27661	0.13304	0.22212	0.18682	0.14584	0.17416	0.24658	0.21636	-2.4792	-2.7687	-2.7167	-3.0396	-2.7521	-3.1021	-2.9021	-2.8354	-3.2458	-2.8646	-2.8729	-3.0792	-2.9208	-3.0521	-2.9333	-2.8208	113.398	-12.510	138.183	0.494	217.205	235.292	-74.976	92.776	19.325	98.551	185.339	26.744	20.380	-80.006	218.444	233.840	0.0018407	0.0043813	0.0011001	480.08	3.0213e-05	2.5467e-05	561.74	104.87	3.871e-05	4.0662e-05	142.82	36.114	27.114	8.1862	1.9778e-05	13.302	0.026352	0.027662	0.0069524	2069	0.00029464	0.00028163	1155.5	332.38	0.00028096	0.00026792	829.54	134.25	140.57	41.315	0.00023275	57.089	85.844	-32.958	-49.213	-70.845	190.360	84.297	-72.204	-66.176	208.318	13.683	-67.899	-62.438	-61.706	-55.875	46.916	-56.843	-8191	255	
2367.413	1	1	0	0	0.15063	0.22004	0.23688	0.24687	0.22998	0.044386	0.18199	0.12405	0.30462	0.20457	0.22665	0.19467	0.12747	0.1682	0.099028	0.012259	-2.5979	-2.9646	-2.5104	-3.2104	-2.8063	-2.9917	-2.9813	-2.7021	-3.0396	-2.9021	-2.8438	-3.3042	-2.8292	-3.0625	-3.0271	-2.6833	104.748	-54.315	269.629	127.805	49.468	103.408	176.653	-34.865	199.032	257.100	121.714	-47.030	198.843	-30.788	152.999	91.685	0.00045011	0.0042122	0.00017034	471.26	2.1905e-05	2.9682e-05	563.54	104.2	3.5765e-05	2.4752e-05	138.77	35.892	27.349	8.0742	2.2011e-05	13.247	0.022242	0.021926	0.005576	1873.5	0.00024398	0.00021983	1038	299.68	0.00022424	0.00020525	665.71	118.15	113.79	33.024	0.00017596	49.496	100.544	10.069	93.124	-70.787	-34.530	28.139	-72.099	-66.153	-4.308	26.894	-68.327	-61.795	-60.665	-55.497	47.151	-57.198	-8191	255	
2367.509	1	1	0	0	0.26728	0.266	0.0060035	0.20839	0.019775	0.28756	0.28324	0.015446	0.23561	0.17798	0.10093	0.18544	0.20114	0.27627	0.19065	0.080168	-2.725	-2.8396	-2.6521	-3.0687	-2.7167	-2.9667	-3.2	-2.5833	-3.1229	-2.9479	-2.7687	-3.1354	-2.7375	-2.8729	-2.9875	-2.7938	-39.374	158.993	52.430	-46.750	2.490	186.660	254.385	54.208	61.675	224.436	39.019	197.790	254.684	141.190	80.241	182.468	0.00044855	0.004086	0.0002979	442.01	3.8495e-05	1.0991e-05	517.92	100.4	1.8411e-05	9.6361e-06	127.43	35.22	26.519	8.0477	1.9739e-05	12.985	0.016868	0.016815	0.0043872	1648.1	0.00019455	0.00017939	916.37	279.27	0.00019041	0.00018055	623.48	117.05	107.33	32.076	0.00018195	52.509	-57.637	-27.916	188.107	-70.530	26.104	-65.698	-71.997	-65.956	40.720	87.315	-66.678	-62.141	-61.849	-55.519	179.601	-57.182	-8191	255	
2367.605	1	1	0	0	0.28574	0.063698	0.15628	0.16549	0.061203	0.15364	0.25543	0.11803	0.15481	0.25087	0.21824	0.1216	0.1223	0.20385	0.17956	0.081869	-2.4146	-2.8667	-2.6833	-3.1625	-2.8063	-2.7938	-3.225	-2.6375	-3.0646	-2.9458	-2.8292	-3.0458	-2.9417	-2.825	-3.0667	-2.8	75.031	214.472	-62.259	-3.699	66.090	55.511	140.073	-8.251	179.885	30.993	227.413	188.360	261.556	109.550	97.174	-74.831	0.00016794	0.0032558	0.0011039	413.04	4.5747e-05	1.9308e-05	471.12	102.51	1.3693e-05	1.6565e-05	125.94	36.258	27.398	8.2338	3.9457e-05	13.36	0.017508	0.017996	0.0051171	1839.6	0.00021875	0.00020664	969.31	322.16	0.00022168	0.0002104	754.16	134.17	118.93	35.423	0.00022505	58.492	246.143	-34.940	142.705	-70.688	-35.648	-15.879	-72.065	-65.208	27.782	32.853	-66.185	-62.188	-61.199	-55.397	196.794	-57.139	-8191	255	
2367.701	1	1	0	0	0.22694	0.086649	0.17611	0.046387	0.17436	0.21563	0.085116	0.10721	0.075083	0.075522	0.096608	0.33258	0.19956	0.038924	0.18234	0.060156	-2.5646	-3.2979	-2.5729	-3.2146	-2.9938	-2.8063	-3.1958	-2.7625	-2.9542	-3.2687	-2.7208	-2.9229	-2.7104	-2.8417	-3.0958	-2.7979	-46.472	12.185	99.767	242.576	229.874	-45.961	-35.767	187.353	185.126	259.544	168.723	169.694	11.551	87.311	4.342	218.169	0.00046604	0.0030643	0.0026424	419.95	2.8274e-05	4.9443e-06	467.33	105.37	3.5275e-05	5.8421e-06	126.13	37.062	27.34	8.2184	6.4659e-05	14.398	0.019065	0.019509	0.0060064	1939	0.00022983	0.00021852	1041.9	338.29	0.0002374	0.00022963	882.08	144.92	130.78	40.066	0.000283	65.745	-65.990	-53.916	125.728	-70.763	9.400	27.040	-72.090	-66.226	37.487	109.698	-67.681	-62.485	-61.971	-55.861	186.573	-56.669	-8191	255	
2367.797	1	1	0	0	0.10102	0.059902	0.1165	0.03617	0.24864	0.096564	0.29019	0.15117	0.11877	0.20251	0.075391	0.062556	0.18793	0.069722	0.14274	0.27742	-2.4875	-3.1813	-2.7042	-2.8729	-2.9667	-2.7146	-3.325	-2.8333	-2.9271	-3.2396	-2.7042	-3.0708	-3.1958	-2.875	-3.2667	-2.9604	104.332	245.388	112.670	141.256	-66.699	111.654	216.175	29.878	56.322	-7.408	176.014	264.836	-69.700	-38.898	-77.383	237.230	0.00052022	0.0012871	0.0015653	426.28	2.6192e-05	6.3869e-05	486.95	108.82	5.0317e-05	3.4864e-05	135.62	38.429	28.799	8.2759	1.9609e-05	14.768	0.022329	0.023746	0.0077548	2219.9	0.00027461	0.00027369	1209.5	378.41	0.00027736	0.00028208	1043.7	156.75	140.15	45.026	0.00031031	66.473	254.270	112.911	152.555	-71.134	42.843	258.340	-72.142	-65.773	44.434	190.604	-67.776	-62.554	-61.318	-55.688	189.587	-56.435	-8191	255	
2367.918	1	1	0	0	0.21897	0.39732	0.087601	0.11751	0.057191	0.12962	0.25851	0.20098	0.099376	0.17779	0.080126	0.013976	0.22575	0.23607	0.083957	0.16209	-2.55	-3.0333	-2.6458	-2.9667	-3.0896	-2.7917	-3.125	-2.9188	-2.6667	-3.2812	-2.7771	-2.8958	-3.2854	-2.8167	-3.0812	-2.8208	-74.799	-24.026	24.487	87.558	240.928	46.064	-78.570	-82.022	-30.632	191.796	-11.944	173.607	60.249	16.692	232.460	44.276	0.00062965	0.0071475	0.00094954	425.74	2.7469e-05	7.6434e-05	491.96	108.31	3.1006e-05	4.1122e-05	140.47	38.611	28.608	8.4493	6.4759e-05	14.452	0.02204	0.025041	0.0076568	2079.3	0.00024864	0.00026776	1143	341.3	0.00023569	0.00026279	914.47	138.68	124.27	42.853	0.00026595	59.044	-78.795	140.216	-20.795	-70.905	-23.998	215.108	-72.234	-66.286	5.238	213.142	-69.036	-62.009	-61.642	-53.979	7.726	-57.464	-8191	255	
2368.014	1	1	0	0	0.27055	0.25424	0.06554	0.065358	0.10355	0.21585	0.024711	0.11184	0.20264	0.289	0.16048	0.18934	0.039108	0.055353	0.11974	0.044916	-2.4854	-3.2583	-2.6979	-3.1167	-3.025	-2.9417	-2.9208	-3.0604	-2.8854	-3.4625	-2.6792	-2.9479	-2.9875	-3.0146	-2.9979	-3.0229	29.825	82.709	-66.211	16.070	69.858	-55.465	-70.049	38.063	94.617	-10.312	214.533	132.729	-83.230	23.111	-67.701	117.754	0.00092703	0.0027981	0.0011247	424.12	9.423e-06	5.3519e-05	495.85	109.72	4.8382e-05	4.7332e-05	142.62	39.404	28.335	8.7256	5.2781e-05	15.061	0.019381	0.023885	0.0066931	1894.1	0.00022748	0.00026357	1084.1	324.96	0.00022773	0.00026782	873.23	135.93	127.08	45.052	0.00026256	59.623	65.284	167.332	9.825	-70.792	231.270	205.618	-71.732	-66.195	216.852	195.467	-66.748	-61.933	-60.726	-55.923	28.687	-56.450	-8191	255	
2368.110	1	1	0	0	0.16059	0.30288	0.2358	0.08978	0.11539	0.14154	0.085007	0.095924	0.16279	0.22119	0.27015	0.19809	0.14071	0.30986	0.33486	0.075487	-2.2833	-3.2667	-2.8	-2.8229	-3.3021	-2.9562	-3.0896	-3.0479	-2.7875	-2.9562	-2.8354	-2.8021	-3.3083	-2.8563	-3.0979	-3.2313	185.587	-82.002	78.623	23.388	-11.583	30.888	-73.458	217.404	-36.062	186.078	186.237	121.859	119.782	12.775	20.184	186.895	0.00097584	0.0041452	0.0011553	442.02	5.4483e-05	1.7706e-05	503.8	112.34	7.7266e-05	3.5381e-05	145.83	40.401	29.003	9.2516	4.7034e-05	15.409	0.021083	0.026279	0.0068419	1963.4	0.00025655	0.00029167	1114.2	336.82	0.00026149	0.00029274	897.54	140.44	141.08	47.488	0.00026872	61.698	106.079	150.561	-49.499	-71.563	184.444	20.455	-72.091	-65.971	195.443	13.526	-68.170	-62.043	-61.674	-56.316	34.134	-57.075	-8191	255	
2368.207	1	1	0	0	0.18327	0.20593	0.086727	0.12821	0.16352	0.24949	0.38478	0.18896	0.034854	0.24708	0.24661	0.17681	0.10373	0.25651	0.25202	0.088307	-2.4979	-3.1896	-3.0563	-2.9875	-3.1292	-2.8937	-3.2854	-2.9104	-3.0229	-3.0312	-2.9938	-2.8521	-3.1562	-2.7708	-2.8667	-3.05	-11.516	242.413	135.680	222.603	-43.701	81.982	213.181	-63.460	-53.461	101.250	17.134	230.023	198.412	225.075	-59.383	193.375	0.0019193	0.0032079	0.00091382	446.51	6.5869e-05	5.4266e-05	513.02	114.86	4.9834e-05	5.7232e-05	150.95	41.59	30.139	9.6569	3.9804e-05	15.226	0.024037	0.027682	0.0071018	2059.3	0.00029821	0.00030935	1162.9	359.76	0.0003091	0.00031459	963.44	152.97	161.97	50.291	0.0002873	66.682	102.809	-37.389	-12.558	-71.012	188.246	52.049	-71.934	-66.201	187.544	53.329	-67.736	-61.761	-60.442	-56.215	-11.090	-56.554	-8191	255	
2368.278	1	1	0	0	0.26586	0.060059	0.065384	0.049941	0.034264	0.12133	0.12471	0.14527	0.17472	0.36241	0.11302	0.13821	0.080302	0.18385	0.34865	0.32573	-2.4437	-3.0271	-2.8896	-2.7521	-3.2479	-2.7979	-3.0542	-3.0438	-3.0417	-3.125	-3.2562	-2.7979	-3.2	-2.875	-3.0208	-3.2854	265.378	-74.105	246.788	7.974	155.852	55.009	172.868	65.229	-3.225	113.904	145.943	246.097	113.144	228.548	1.964	216.488	0.0013485	0.0051447	0.0011293	433.91	2.425e-05	6.5011e-05	514.97	113.35	3.8009e-05	3.7031e-05	146.26	40.346	31.107	9.2266	1.2852e-05	14.49	0.027399	0.0284	0.0072913	2171.6	0.00032085	0.00030029	1142.1	361.59	0.00030664	0.00028348	879.64	148.51	152.33	44.416	0.00024951	63.49	95.397	11.370	-0.702	-71.858	207.340	52.768	-72.262	-65.875	192.926	-14.669	-68.661	-61.466	-61.354	-55.807	25.189	-57.413	-8191	255	
2368.397	1	1	0	0	0.11227	0.2419	0.36262	0.03629	0.059803	0.10956	0.14912	0.18518	0.17279	0.089129	0.088438	0.12132	0.20052	0.039618	0.073328	0.11376	-2.1729	-2.95	-2.9625	-2.6333	-3.2792	-3.0208	-3.0042	-3.2438	-2.9729	-2.9771	-3.0104	-2.9125	-3.075	-3.0375	-2.7583	-3.2917	18.637	149.843	238.151	59.319	-71.544	-22.930	-12.643	104.145	136.793	-37.326	-81.092	139.577	-52.072	-35.579	171.398	-33.693	0.0010293	0.0032495	0.0013217	430.61	3.8238e-05	7.7677e-06	514.35	113.77	4.235e-05	3.3803e-05	151.64	40.191	31.821	9.3691	3.8006e-05	14.621	0.02465	0.024487	0.0063671	2118	0.00029244	0.00026893	1092.6	367.54	0.00029075	0.00026803	851.49	155.22	149.36	43.56	0.0002471	66.923	-65.640	275.181	-77.389	-70.878	48.248	153.737	-71.975	-66.408	18.237	5.529	-67.009	-61.616	-61.206	-56.122	218.493	-56.849	-8191	255	
2368.493	1	1	0	0	0.22048	0.35007	0.094367	0.22367	0.10928	0.035603	0.1115	0.085569	0.1599	0.12685	0.10003	0.08066	0.13907	0.11574	0.14947	0.15679	-2.4167	-2.8917	-3	-2.8312	-3.0708	-3.0104	-2.9104	-3.2896	-2.7979	-2.8896	-3.2396	-2.8312	-2.9604	-3.0563	-2.7771	-3.2146	146.795	-22.055	-64.570	-60.402	206.186	101.423	110.373	-29.679	-2.807	77.596	11.599	-1.856	216.604	129.276	-54.734	246.913	0.0013562	0.0022831	0.00059302	434.41	3.5145e-05	3.0432e-05	514.03	113.28	6.744e-05	4.1987e-05	144.96	41.571	32.832	9.1076	7.1098e-05	15.138	0.023774	0.023705	0.0062907	2198.9	0.00027637	0.00025498	1088.2	371.03	0.0002658	0.00024745	833.78	154.3	138.83	40.893	0.0002454	66.738	251.654	42.271	134.994	-70.343	-16.097	-2.469	-71.865	-66.255	-18.035	17.032	-69.321	-62.153	-61.929	-56.524	190.281	-56.422	-8191	255	
2368.589	1	1	0	0	0.28477	0.18101	0.0099485	0.10934	0.11771	0.30807	0.14854	0.15331	0.16428	0.13804	0.12412	0.26211	0.11496	0.11292	0.29225	0.037528	-2.4792	-2.8625	-3.0312	-2.8021	-3.0229	-3.0208	-2.8625	-3.2146	-2.9271	-2.7083	-3.4188	-2.8979	-3.2042	-3.1771	-2.8792	-3.175	-72.024	33.193	5.381	207.869	219.816	214.653	169.498	90.877	118.998	172.200	-56.490	137.361	-61.225	138.538	-63.244	195.281	0.00093667	0.00067291	0.0025147	461.09	6.4446e-05	5.1371e-05	524.17	119.08	3.1554e-05	1.3653e-05	143.24	43.335	32.492	9.5666	8.5787e-05	15.668	0.022266	0.0226	0.0065662	2247.7	0.00026905	0.00025413	1155.5	388.39	0.00027241	0.00025844	941.42	163.9	144.76	42.735	0.00028351	69.575	258.736	7.616	135.181	-70.035	-4.438	42.230	-72.216	-66.086	0.600	38.409	-67.963	-62.333	-61.850	-56.390	205.002	-57.222	-8191	255	
2368.686	1	1	0	0	0.10864	0.29419	0.16452	0.2303	0.14347	0.16501	0.026744	0.19124	0.099893	0.099439	0.090357	0.092993	0.092045	0.15748	0.16822	0.063518	-2.5917	-2.7958	-3.1396	-2.7625	-2.8937	-3.025	-2.95	-3.1083	-2.9437	-2.7771	-3.1417	-2.7458	-2.7792	-3.2646	-2.9521	-2.9979	206.629	16.369	22.045	138.169	23.251	-38.415	50.199	241.183	158.419	215.360	-73.345	134.637	49.065	274.819	167.036	-26.425	0.00065366	0.0037239	0.0014348	474.71	3.2618e-05	2.2521e-05	525.55	119.47	1.1618e-05	3.7252e-05	146.2	42.39	32.191	8.763	5.3354e-05	15.29	0.022701	0.023154	0.0072409	2222.5	0.00026104	0.00024581	1171.6	366.39	0.00024818	0.00023757	912.66	147.52	130.36	39.61	0.00026896	62.079	241.736	184.295	170.394	-71.761	9.433	174.855	-72.226	-65.771	145.065	270.787	-67.761	-62.442	-60.715	-54.630	190.096	-57.043	-8191	255	
2368.806	1	1	0	0	0.13082	0.047486	0.19379	0.10082	0.20939	0.03572	0.11817	0.098153	0.13847	0.13925	0.10576	0.37299	0.15785	0.11272	0.22092	0.19256	-2.5521	-2.9958	-3.0062	-2.9875	-2.8958	-3.1813	-2.8167	-3.0687	-3.0958	-2.9292	-3.1958	-3.0375	-2.8063	-3.1458	-2.9875	-3.0646	-81.149	206.403	143.262	228.373	30.639	270.714	-3.445	41.720	-30.759	179.423	263.045	58.390	257.435	66.611	62.571	96.833	0.00039889	0.0064425	0.00035155	469.53	2.73e-05	5.136e-05	527.61	118.08	3.8654e-05	7.3375e-05	147.51	41.968	32.142	8.6711	5.8052e-05	14.795	0.020136	0.021783	0.0070129	2048.7	0.00024048	0.00024586	1175.3	352.09	0.00023964	0.00025518	955.42	146.73	131.03	42.796	0.00028435	62.094	-69.471	165.915	147.101	-71.656	-15.603	221.839	-72.268	-65.859	-1.386	209.219	-68.021	-62.051	-61.714	-54.341	41.236	-57.262	-8191	255	
2368.878	1	1	0	0	0.031425	0.15759	0.028065	0.35201	0.078021	0.053246	0.20176	0.22596	0.10695	0.006332	0.10417	0.26685	0.17315	0.16726	0.30662	0.25823	-2.6542	-2.8479	-3.1833	-3.0021	-2.9167	-3.2188	-2.9417	-3.0062	-3.2167	-2.8104	-3.2167	-3.1229	-2.9354	-3.1479	-2.8896	-2.7896	16.967	-33.695	122.550	87.048	110.696	86.785	-78.941	-45.824	249.202	-44.611	145.036	164.876	70.195	164.835	164.692	195.884	0.00055048	0.0064831	7.271e-05	456.66	1.9938e-05	5.4143e-05	526.46	116.55	1.3002e-05	5.1613e-05	152.68	42.043	31.254	8.6411	5.4273e-05	15.369	0.020244	0.024119	0.0071892	2029.1	0.00024009	0.00026867	1171.9	348.16	0.00023908	0.00027629	934.79	144	129.73	44.083	0.00026213	58.686	265.934	171.059	-37.729	-71.080	17.869	211.416	-71.969	-66.214	91.963	215.871	-68.835	-61.541	-61.000	-54.390	10.482	-56.271	-8191	255	
2368.998	1	1	0	0	0.2687	0.13709	0.16697	0.17781	0.31067	0.17409	0.052345	0.14748	0.024581	0.16927	0.17341	0.10771	0.17602	0.061642	0.035059	0.059473	-2.9	-2.7604	-3.1625	-2.7625	-2.8917	-3.15	-3.0042	-2.9208	-3.1646	-2.9604	-3.2646	-3.1708	-2.8312	-3.2729	-2.9417	-2.7729	108.090	145.611	246.501	173.763	115.078	107.234	108.032	223.122	235.082	-65.819	189.534	-23.513	264.319	216.728	-51.456	-66.028	0.00084645	0.0045024	0.0010894	459.61	5.981e-05	4.4606e-05	524.15	117.32	4.0715e-05	3.5436e-05	153.42	43.002	30.817	8.9803	4.1587e-05	15.291	0.019032	0.02373	0.0063511	1854.5	0.00022099	0.00025544	1082.7	320.71	0.00022189	0.00026077	831	132.74	125.5	42.858	0.00023628	55.744	142.594	139.757	-65.017	-71.677	223.640	242.392	-72.044	-66.243	199.616	253.866	-68.497	-62.385	-61.181	-54.729	11.479	-56.364	-8191	255	
2369.095	1	1	0	0	0.34907	0.049326	0.24197	0.099935	0.16368	0.28542	0.24455	0.4186	0.19665	0.10365	0.21046	0.20982	0.046557	0.27288	0.13787	0.097276	-2.7083	-2.9417	-3.1375	-3.1604	-2.7417	-3.1479	-3.0167	-2.8917	-3.1417	-2.85	-3.1729	-2.9458	-2.775	-3.0083	-3.1688	-2.9854	93.748	173.763	178.610	-75.345	34.260	35.248	182.863	210.722	235.361	195.137	263.463	151.290	140.741	271.276	173.788	240.405	0.0012077	0.0020904	0.0013436	452.85	3.0499e-05	2.7897e-05	524.28	117.7	5.5487e-05	2.5534e-05	156.37	42.154	30.902	9.4125	2.1213e-05	15.172	0.019156	0.023187	0.005844	1752.4	0.00022325	0.00024145	1028.5	301.34	0.00021568	0.00023315	741.77	121.2	120.8	38.529	0.00020289	50.619	108.237	152.917	-14.517	-70.963	207.170	-4.195	-71.778	-66.057	164.155	141.326	-67.882	-62.181	-61.635	-55.743	7.064	-58.314	-8191	255	
2369.191	1	1	0	0	0.085313	0.10265	0.21766	0.10183	0.037066	0.072371	0.057782	0.20652	0.37134	0.18401	0.14808	0.22182	0.18185	0.072813	0.22015	0.083386	-2.6771	-3.0812	-2.8563	-3.1542	-2.8563	-3.1896	-3.0771	-2.8563	-3.425	-3	-3.0625	-3.3271	-2.7625	-3.1208	-3.1729	-3.0708	174.115	267.356	-10.175	109.817	-51.111	147.244	202.036	263.909	242.346	176.835	-39.306	183.092	-53.337	163.643	220.545	-30.142	0.0016256	0.0026162	0.00056956	455.42	3.782e-05	3.5891e-05	521.86	116.39	4.0576e-05	2.1699e-05	154.05	42.286	31.848	9.4396	3.417e-05	15.202	0.018312	0.02029	0.0051744	1637.2	0.00021917	0.00021598	983.78	290.41	0.00021327	0.00020906	688.71	117.81	120.06	35.997	0.00018857	50.502	91.733	-1.995	-48.604	-71.741	189.511	42.189	-72.113	-66.487	206.608	23.408	-67.754	-61.986	-61.215	-55.933	19.655	-56.957	-8191	255	
2369.287	1	1	0	0	0.27052	0.14742	0.17681	0.2065	0.032483	0.081577	0.20505	0.076511	0.31309	0.23493	0.20085	0.19176	0.043264	0.17612	0.08408	0.081204	-2.7167	-2.9792	-2.7396	-3.1688	-2.8375	-3	-3.1979	-2.675	-3.1208	-2.9979	-2.8792	-3.0979	-2.6875	-3.2792	-3.0042	-2.9229	124.778	78.536	165.501	98.075	36.863	214.256	153.390	-31.486	-79.500	40.719	-23.403	-63.072	204.644	-26.452	237.983	17.944	0.00041909	0.0043762	0.0010739	445.8	1.1802e-05	4.7452e-05	531.09	117.88	1.5578e-05	3.3437e-05	156.78	42.564	33.784	9.6091	3.907e-06	15.403	0.018548	0.019183	0.0050542	1720.1	0.00023722	0.00022461	1028.1	326.71	0.0002549	0.00024049	789.34	141.4	141.92	41.305	0.00022408	61.201	51.505	-26.123	-19.607	-70.519	85.017	52.249	-71.681	-66.355	215.472	45.869	-68.779	-62.345	-61.078	-55.942	200.264	-57.343	-8191	255	
2369.406	1	1	0	0	0.24497	0.034939	0.20234	0.030336	0.1242	0.12405	0.054359	0.0097213	0.11295	0.20692	0.095975	0.13165	0.068484	0.25262	0.17754	0.18525	-2.6229	-3.0438	-2.9188	-3.25	-2.7479	-3.0687	-3.0979	-2.8937	-3.0938	-3.0396	-2.9833	-3.3667	-3.0396	-2.9479	-3.2104	-2.8542	-67.767	72.684	5.829	192.940	162.725	258.002	-40.757	121.177	140.600	79.178	214.323	26.071	168.968	-64.394	274.227	-81.325	0.00099202	0.0023148	0.00056235	453.37	4.0766e-05	2.9081e-05	532.09	118.39	6.4061e-05	4.8087e-05	150.58	43.429	33.927	9.8815	4.7195e-05	16.118	0.022008	0.021814	0.0057324	2009	0.00026417	0.00024494	1072.3	363.74	0.00027156	0.00025637	842.74	157.86	148.4	43.41	0.00024511	68.452	-67.747	-40.002	-12.936	-70.263	46.007	83.759	-71.598	-66.175	20.906	87.964	-67.941	-62.032	-61.667	-55.628	188.179	-56.557	-8191	255	
2369.502	1	1	0	0	0.11199	0.18174	0.15088	0.40649	0.041954	0.08302	0.090123	0.2875	0.22537	0.16828	0.18407	0.21105	0.11548	0.22539	0.087614	0.22986	-2.7708	-3.0104	-2.7812	-3.3167	-2.8521	-2.9437	-3.2542	-2.9062	-3.0125	-3.0062	-2.7333	-3.2833	-2.8542	-2.9854	-3.2021	-2.8083	200.878	-25.875	32.231	224.490	208.676	-39.600	-32.511	-40.709	259.548	147.218	-64.281	257.510	-4.813	18.811	8.700	-34.470	0.0010457	0.0017417	0.00071724	456.23	2.2828e-05	3.5002e-05	531.53	120.68	4.0119e-05	1.5359e-05	151.92	45.202	34.132	9.8279	0.00012271	16.292	0.02311	0.022973	0.0062323	2184.2	0.00026537	0.00024572	1100.4	374.85	0.00025863	0.00024483	863.45	160.25	143.46	42.682	0.00026391	71.057	235.411	-67.124	174.653	-71.176	-69.450	14.691	-71.924	-65.444	-26.156	97.755	-68.038	-61.739	-61.149	-56.213	174.914	-56.994	-8191	255	
2369.574	1	1	0	0	0.077537	0.13172	0.24165	0.10215	0.12576	0.11412	0.02205	0.21018	0.07013	0.12846	0.093602	0.098669	0.048941	0.26091	0.080729	0.17035	-2.6083	-3.1375	-2.7667	-3.3458	-2.9771	-3.1583	-3.1417	-2.8042	-3.0354	-3.0375	-2.9062	-3.1667	-2.9125	-2.8083	-3.15	-2.9	-15.360	56.645	12.017	-17.450	18.498	97.925	-47.893	239.135	170.139	49.049	69.565	183.465	-72.241	190.861	62.065	151.306	0.00032775	0.0019584	0.0023132	470.68	4.7116e-05	1.7463e-05	534.35	121.91	2.6482e-05	5.963e-06	146.9	45.149	33.388	9.6403	8.9872e-05	16.158	0.023248	0.023629	0.0071184	2331	0.00027713	0.00025981	1189.5	393.24	0.00027236	0.00025884	977.5	166.11	148.19	44.468	0.00030444	73.411	247.659	49.229	149.289	-71.222	21.600	-59.501	-72.118	-65.919	-3.046	221.722	-68.607	-62.346	-61.957	-56.044	189.587	-57.490	-8191	255	
2369.694	1	1	0	0	0.10133	0.25196	0.011427	0.39674	0.13817	0.10739	0.11504	0.10729	0.090543	0.080147	0.080102	0.048753	0.031939	0.10985	0.13051	0.028843	-2.7188	-3.0875	-2.625	-3.0083	-3.1063	-2.8396	-3.0958	-2.9417	-3.0854	-3.1479	-2.6125	-3.0646	-3.1688	-2.8167	-3.2229	-2.9396	17.806	128.988	143.688	240.792	64.694	66.220	-69.489	-44.060	-19.116	251.726	19.189	-43.495	79.046	24.873	267.032	206.225	0.00046874	0.0019743	0.0016209	479.14	2.2138e-05	1.8147e-05	533.26	122.32	5.2435e-05	4.9415e-05	151.2	44.669	33.734	9.2751	3.699e-05	16.294	0.024548	0.025438	0.0082771	2442.1	0.00029687	0.00028629	1292.5	406.35	0.00028891	0.00028553	1081.9	168.94	150.92	47.223	0.00032988	72.832	244.490	250.194	154.782	-71.162	20.284	276.051	-71.857	-65.602	35.119	225.065	-68.594	-62.357	-61.628	-55.064	116.832	-57.389	-8191	255	
2369.790	1	1	0	0	0.089838	0.047024	0.090903	0.22987	0.090867	0.093425	0.2446	0.087345	0.096651	0.096654	0.29545	0.17316	0.09542	0.099064	0.21394	0.15661	-2.575	-2.8979	-2.9458	-2.9458	-3.125	-2.8042	-3.3396	-3.0521	-2.9167	-3.1542	-2.95	-2.9917	-3.1667	-2.8458	-3.2062	-3.075	208.956	256.053	241.217	203.892	-72.031	-81.431	108.182	255.185	13.145	-57.374	0.257	-43.252	156.214	12.384	184.198	-1.404	0.00076884	0.0091328	0.0001269	479.07	3.3966e-05	7.1044e-05	538.24	120.09	2.7538e-05	8.1895e-05	159.62	44.006	32.624	9.2618	4.0334e-05	16.148	0.024475	0.027312	0.0087245	2406.7	0.00029542	0.00031402	1338.1	407.96	0.00029513	0.00032127	1137.5	170.93	153.88	51.828	0.00033883	72.55	209.487	145.200	4.476	-71.521	2.350	222.081	-72.237	-65.619	-6.624	233.764	-67.320	-62.143	-61.476	-54.631	21.796	-57.815	-8191	255	
2369.887	1	1	0	0	0.17381	0.13914	0.10968	0.23776	0.26447	0.21127	0.044022	0.14579	0.071261	0.072196	0.19182	0.3027	0.12807	0.21325	0.21353	0.2201	-2.4271	-3.0708	-2.9313	-2.7979	-3.2604	-2.6167	-3.2792	-3.0687	-2.8063	-3.0875	-2.9083	-2.9896	-3.2375	-2.7396	-3.05	-3.0771	260.775	-43.954	270.230	140.034	35.063	185.149	-35.011	174.821	144.299	104.947	218.763	165.512	-49.887	-52.783	114.449	-80.856	0.00039324	0.0087241	0.001428	470.36	1.5658e-05	6.3409e-05	546.37	119.7	3.3299e-05	6.6376e-05	159.54	43.982	31.629	9.0995	5.0443e-05	15.823	0.024398	0.029495	0.008481	2316.7	0.00028239	0.00032229	1279.7	385.36	0.00027692	0.00032143	1037.1	158.85	144.98	50.638	0.00030038	66.397	-20.332	142.694	253.494	-72.287	148.449	203.734	-72.001	-66.016	192.768	207.536	-68.120	-61.752	-61.903	-54.386	-2.198	-57.646	-8191	255	
2369.983	1	1	0	0	0.19863	0.2899	0.1978	0.06647	0.1419	0.18271	0.18728	0.25862	0.25183	0.11422	0.08255	0.21857	0.15019	0.18868	0.032065	0.18478	-2.3792	-3.2646	-2.7188	-2.9375	-3.1292	-2.9625	-3.1167	-3.1625	-2.8542	-3.1958	-2.9458	-3.0375	-3.2229	-2.9375	-2.9875	-3.1667	-62.315	92.100	173.974	66.404	189.368	211.129	-6.045	145.682	-68.920	-29.119	181.787	-46.232	69.430	-17.204	231.279	-14.787	0.0010078	0.0054078	0.002332	469.53	3.1841e-05	2.1559e-05	539.67	118.05	4.4686e-05	1.3149e-05	154.92	42.368	31.011	9.1904	2.3433e-05	15.17	0.022822	0.028336	0.0074164	2110.5	0.00026568	0.00030552	1183.9	353.08	0.00026247	0.00029873	916.47	143.57	139.19	46.962	0.00026142	59.634	78.023	138.564	-20.915	-70.399	186.784	260.302	-72.001	-65.604	156.094	-8.472	-67.989	-61.865	-60.925	-55.523	16.084	-56.555	-8191	255	
2370.102	1	1	0	0	0.33666	0.18559	0.045686	0.024502	0.11547	0.072098	0.072077	0.044383	0.19683	0.055398	0.036283	0.23299	0.050141	0.14964	0.14349	0.15775	-2.4333	-3.125	-2.8937	-2.9479	-3.2083	-2.8958	-3.0271	-3.1375	-2.9083	-3.0438	-2.9896	-2.95	-3.4188	-2.8375	-3.0479	-3.2042	-64.770	114.711	195.323	-73.112	-53.524	-60.665	271.495	-15.928	15.688	242.063	199.866	272.667	-35.685	-44.924	11.986	12.530	0.0016446	0.0047848	0.00064116	451.23	5.1552e-05	2.4746e-05	536.3	117.1	8.9535e-05	2.9614e-05	148.07	41.488	31.232	9.2198	3.4044e-05	14.81	0.022063	0.025798	0.0065589	1933.3	0.00026245	0.00028032	1127	333.22	0.00026735	0.00027992	870.45	138.89	143.55	45.223	0.00025299	59.436	88.228	21.283	-11.840	-70.665	159.416	48.289	-72.073	-66.500	197.973	75.220	-67.182	-62.515	-60.449	-56.883	59.174	-57.149	-8191	255	
2370.175	1	1	0	0	0.21282	0.14047	0.084426	0.13146	0.1138	0.14408	0.10351	0.11048	0.21639	0.13164	0.15229	0.098246	0.045436	0.21539	0.043097	0.10217	-2.4437	-2.9375	-3.0792	-2.7667	-3.2833	-2.8958	-3.0438	-3.1125	-2.9062	-2.9729	-3.1521	-2.8708	-3.2083	-3.0062	-2.9813	-3.2188	-66.718	177.245	161.966	173.495	83.584	274.312	173.444	-50.096	-31.156	209.920	150.237	-2.424	234.274	197.392	36.766	139.416	0.0012733	0.0024048	0.0005111	447.74	4.6552e-05	6.9307e-05	539.56	113.78	4.4228e-05	2.8851e-05	153.86	41.481	31.076	9.2595	1.6559e-05	14.868	0.023568	0.02517	0.0064418	1962.2	0.0002819	0.00027326	1124.2	340.62	0.00028498	0.00027465	869.22	146.07	153.21	45.832	0.00026378	65.733	105.583	-23.818	-4.184	-70.348	198.750	76.110	-71.954	-66.055	183.900	83.472	-67.495	-62.320	-60.722	-56.877	16.521	-57.243	-8191	255	
2370.271	1	1	0	0	0.15462	0.12558	0.07086	0.1198	0.15471	0.088915	0.097378	0.097986	0.12071	0.12832	0.044472	0.31958	0.19409	0.093935	0.22325	0.19617	-2.3917	-2.9708	-3.1604	-2.7104	-3.2792	-2.9125	-2.9833	-3.2687	-2.9167	-3.1104	-3.0979	-2.9521	-3.1083	-3.1083	-2.9104	-3.3521	103.045	119.782	-42.835	149.978	-76.671	99.185	223.607	91.803	244.032	269.208	10.620	255.769	208.531	-6.815	-35.928	228.464	0.00038385	0.0044562	0.00073383	449.59	3.8328e-05	1.1035e-05	548.69	114.38	1.1248e-05	5.4989e-06	156.1	41.558	32.229	9.4345	1.7353e-05	14.974	0.026829	0.027259	0.0071429	2306.8	0.00033641	0.00031231	1216.6	402.32	0.00034043	0.00031385	975.3	172.15	170.55	49.514	0.00028755	74.943	22.803	-40.411	21.190	-71.889	-16.277	32.227	-72.272	-66.215	-38.897	139.508	-66.798	-62.086	-61.704	-56.473	68.722	-56.887	-8191	255	
2370.367	1	1	0	0	0.33196	0.16819	0.25226	0.057164	0.075836	0.10622	0.12364	0.16049	0.17753	0.10935	0.28032	0.086802	0.12361	0.088479	0.16459	0.21013	-2.2542	-3.0187	-3.0875	-2.9208	-3.0958	-3.0563	-3.0312	-3.1333	-2.9646	-2.9625	-3.1104	-2.7687	-3.1542	-3.2313	-2.8667	-3.1542	-68.229	247.178	-49.311	118.231	224.756	261.930	189.192	240.217	-72.611	-49.810	121.780	-73.349	-45.107	98.847	14.604	2.901	0.00082615	0.0042404	0.00090013	434.59	3.7725e-05	1.9153e-05	538.54	115.16	4.6572e-05	3.3438e-05	143.83	41.869	32.53	9.3646	5.1452e-05	15.297	0.028262	0.028101	0.0073127	2462.4	0.00032272	0.00029409	1179.1	399.71	0.00030147	0.00027897	899.72	165.93	152.26	44.851	0.00026857	72.596	245.302	251.651	222.629	-70.716	30.566	24.198	-72.361	-65.650	6.714	50.765	-66.565	-62.056	-61.125	-56.506	184.418	-57.354	-8191	255	
2370.486	1	1	0	0	0.14356	0.12188	0.051447	0.12226	0.17194	0.10982	0.055645	0.1508	0.26396	0.19693	0.29997	0.12108	0.1416	0.1785	0.28276	0.051216	-2.5354	-2.8042	-3.2083	-2.9562	-3.0917	-2.9521	-2.9437	-3.3438	-2.9188	-3.075	-3.0187	-2.95	-3.1792	-3.1208	-2.8063	-3.0333	134.475	-0.913	-46.149	-19.362	167.918	76.012	-82.256	84.416	-77.640	255.146	166.533	167.821	39.209	125.468	76.500	-44.626	0.00054706	0.0045882	0.0020232	460.3	5.5338e-05	1.8206e-05	534.61	116.94	7.3119e-05	2.1652e-06	145.21	43.081	32.121	9.4219	7.0741e-05	15.931	0.025123	0.025355	0.0071047	2430.8	0.0002969	0.00027488	1192.2	401.37	0.00028398	0.00026517	927.77	164.2	143.61	42.376	0.0002709	69.253	-56.419	-8.602	136.593	-70.729	-10.113	-56.462	-72.591	-66.063	-1.412	183.207	-68.271	-62.486	-61.623	-55.923	182.676	-57.397	-8191	255	
2370.582	1	1	0	0	0.24024	0.26511	0.10143	0.24215	0.16052	0.3025	0.24859	0.019929	0.121	0.15991	0.089724	0.24909	0.026265	0.093898	0.19042	0.10297	-2.5979	-3.0875	-3.2354	-2.875	-3.0646	-3.0458	-2.7292	-3.2667	-3.0479	-2.8312	-3.2062	-2.8375	-2.8208	-2.9729	-2.9125	-3.0083	5.537	-51.595	64.305	158.910	137.240	46.503	-68.361	-57.271	6.029	159.249	214.063	105.489	-53.791	14.419	200.813	-35.969	0.00048547	0.0028893	0.0021179	465.62	5.575e-05	1.2782e-05	533.43	118.14	3.39e-05	1.0546e-05	146.91	43.977	31.714	9.395	6.3732e-05	16.072	0.022504	0.022929	0.007039	2263.5	0.00026795	0.00025092	1194.6	379.19	0.00026162	0.0002501	945.48	156.68	137.36	41.268	0.00028061	66.37	-49.185	-13.591	152.191	-71.210	21.654	225.314	-72.125	-65.267	0.630	170.994	-67.182	-62.374	-61.905	-55.097	189.034	-56.834	-8191	255	
2370.678	1	1	0	0	0.15227	0.10506	0.07114	0.12542	0.145	0.081449	0.15169	0.33627	0.25969	0.056676	0.066686	0.10932	0.18465	0.18171	0.07303	0.088005	-2.7125	-2.8417	-3.0542	-2.8917	-2.9	-3.2521	-2.8042	-3.0646	-2.9875	-2.8375	-3.1771	-2.8979	-2.8792	-3.1167	-3.1312	-3.1083	101.770	-66.216	152.174	-76.263	35.131	230.945	137.051	188.203	242.059	-6.753	72.176	146.153	121.674	189.633	83.325	29.658	0.00088719	0.0012076	0.00067724	473.3	1.3525e-05	3.3854e-05	538.83	118.46	4.5704e-05	5.4741e-05	154.62	44.808	32.715	9.3101	1.1892e-05	16.364	0.021386	0.022679	0.0072605	2138.4	0.00025286	0.00024779	1201.2	359.31	0.00024177	0.00024526	933.1	146.29	128.35	40.786	0.00026728	60.943	227.142	139.599	120.241	-72.155	10.907	224.004	-72.055	-66.021	9.391	222.259	-67.585	-62.134	-61.641	-55.307	182.919	-56.308	-8191	255	
2370.775	1	1	0	0	0.28057	0.13096	0.090726	0.22576	0.21485	0.14981	0.15328	0.13436	0.13414	0.21981	0.27544	0.056647	0.045761	0.30502	0.049652	0.079235	-2.7917	-2.5708	-3.1437	-2.8625	-2.6208	-3.1146	-2.8812	-3.1229	-2.9542	-2.9125	-3.0667	-3.1042	-2.9354	-3.2938	-2.8604	-3.0979	216.102	86.216	-67.730	77.204	-38.500	161.843	203.717	-59.996	-43.681	93.613	104.539	155.367	-31.538	132.524	123.824	91.730	0.00075593	0.0047593	0.00030397	469.55	1.8755e-05	5.8171e-05	546.48	119.52	2.7065e-05	6.0497e-05	157.14	43.395	31.975	9.0859	4.4063e-05	15.933	0.019004	0.021814	0.0066937	1933.5	0.00022247	0.00023987	1139.4	328.51	0.00021169	0.00023727	853.62	135.53	120.6	41.095	0.0002491	57.83	-47.520	169.364	14.834	-70.720	20.191	211.511	-71.335	-65.792	-12.036	209.178	-67.006	-61.678	-61.344	-55.707	47.093	-56.889	-8191	255	
2370.871	1	1	0	0	0.18158	0.20645	0.11691	0.15723	0.13006	0.27545	0.052642	0.071718	0.1969	0.14142	0.20502	0.031025	0.16041	0.36192	0.27906	0.40043	-2.5396	-2.8167	-3.2958	-2.8917	-2.8125	-3.1917	-3.0104	-3.2083	-3.2354	-2.8187	-3.1667	-2.9896	-2.9125	-3.2271	-2.9562	-2.7896	-31.709	46.423	89.186	183.494	14.686	56.044	251.591	30.329	104.688	168.347	247.899	179.701	-74.582	275.299	-82.429	-51.290	0.00046504	0.0067603	0.0016005	466.27	1.5118e-05	3.7894e-05	548.52	118.74	6.3192e-05	3.2304e-05	158.98	43.222	31.208	9.1689	4.464e-05	15.797	0.018234	0.02286	0.0063416	1854.4	0.00021404	0.00024253	1089.9	313.07	0.00020318	0.00023779	788.99	127.22	117.01	40.361	0.00022413	54.306	75.870	163.446	-68.769	-71.048	148.063	198.850	-71.924	-65.389	209.270	218.267	-67.632	-62.410	-61.504	-54.581	2.545	-56.748	-8191	255	
2370.967	1	1	0	0	0.035907	0.084582	0.13923	0.1915	0.16904	0.18893	0.22403	0.11787	0.11856	0.061751	0.29689	0.002037	0.062638	0.1819	0.17681	0.2823	-2.7625	-2.8958	-2.9958	-3.0875	-2.8729	-3.1667	-3.1437	-2.6292	-3.2583	-3.0979	-3.2062	-3.0646	-2.8729	-3.1833	-2.9437	-2.7333	171.949	70.987	172.875	-22.859	-13.209	202.311	234.845	211.119	-5.093	143.761	135.615	180.000	178.550	191.528	259.959	-46.793	0.0010556	0.0015409	0.00082653	474.08	5.2461e-05	1.7014e-05	558.5	118.94	6.7763e-05	2.7363e-05	155.72	43.676	31.823	9.4994	2.935e-05	15.844	0.017923	0.022454	0.0058182	1770.7	0.00021947	0.0002467	1080.2	310.66	0.00021955	0.0002461	786.21	127.77	125.39	41.258	0.00022268	54.579	70.149	126.325	-33.001	-70.694	189.328	-20.706	-71.869	-65.838	196.383	44.204	-67.674	-62.589	-60.317	-55.003	23.627	-56.616	-8191	255	
2371.088	1	1	0	0	0.24597	0.18388	0.1818	0.16739	0.076764	0.24724	0.15632	0.091263	0.13911	0.19167	0.047272	0.047385	0.18539	0.14662	0.12929	0.090713	-2.8583	-2.9146	-2.9083	-3.3917	-2.7479	-3.1667	-3.1417	-2.9146	-3.3187	-2.875	-2.9917	-3.3875	-2.7313	-3.2375	-3.2479	-2.7146	-50.271	189.220	264.719	226.527	90.953	207.261	-35.770	233.986	30.436	46.375	138.066	174.206	22.102	261.077	-3.329	162.693	0.0012937	0.0037059	0.0010528	468.2	5.5439e-05	3.8953e-05	558.97	118.67	8.6373e-05	2.1181e-05	159.53	43.396	32.38	9.5198	2.7374e-05	15.769	0.019763	0.02278	0.0058225	1788.5	0.00024376	0.00025056	1090.6	317.02	0.00024372	0.00024584	789.22	129.87	132.88	40.226	0.00021431	54.373	107.777	-19.794	-15.878	-70.979	169.579	68.906	-71.929	-66.349	181.039	0.696	-68.328	-61.955	-60.469	-56.618	-7.937	-56.748	-8191	255	
2371.184	1	1	0	0	0.12804	0.2357	0.074777	0.30204	0.11447	0.12233	0.1603	0.14001	0.1482	0.25593	0.13769	0.11821	0.20907	0.067173	0.16096	0.066426	-2.8937	-2.8146	-2.8917	-3.3063	-2.9229	-3.1292	-3.1354	-2.9688	-3.3896	-3.0771	-2.7938	-3.2208	-2.8458	-2.9437	-3.2	-2.6042	-10.095	61.868	22.818	-82.927	-9.759	147.982	193.480	33.880	99.932	81.124	-54.033	-56.514	185.323	-10.676	36.583	103.311	0.00072046	0.0020792	0.0014848	459.35	4.6244e-05	3.4443e-05	564.27	118.2	2.3736e-05	2.6705e-05	158.24	43.34	32.342	9.4014	1.5489e-05	15.186	0.020071	0.020807	0.0053459	1739.7	0.00023604	0.00022082	1035.8	305.61	0.00022647	0.00021019	703	123.56	122.55	35.404	0.00018267	51.571	73.399	-32.920	-61.679	-71.484	238.822	12.717	-71.738	-66.209	265.108	26.711	-67.327	-62.085	-60.688	-55.578	238.187	-56.871	-8191	255	
2371.278	1	1	0	0	0.088412	0.13478	0.10705	0.049034	0.1243	0.12834	0.18188	0.082335	0.30907	0.20259	0.20094	0.17708	0.18435	0.094889	0.092173	0.11813	-2.8396	-2.8854	-2.9	-3.1646	-2.9729	-3.1937	-3.2042	-2.7875	-3.0729	-3.0604	-2.9021	-3.025	-3.0146	-2.875	-3.1521	-2.75	261.964	39.758	232.719	-32.392	207.335	217.161	-41.789	-47.241	227.570	53.061	228.086	-31.183	-68.491	147.683	43.224	222.825	0.00065896	0.0032742	0.0009555	455.02	4.0744e-05	2.5253e-05	553.31	117.15	4.2722e-05	1.8775e-05	152.96	42.565	32.383	9.2811	2.2298e-05	15.426	0.017934	0.017858	0.0046894	1698.6	0.00021638	0.00019982	996.69	310.5	0.00021907	0.00020431	697.45	131.17	123.75	35.998	0.0001914	56.29	-66.648	-4.059	22.695	-71.528	33.404	36.713	-71.805	-66.612	45.273	32.686	-68.368	-62.026	-61.505	-56.085	201.728	-57.531	-8191	255	
2371.399	1	1	0	0	0.093733	0.12329	0.24765	0.19317	0.12937	0.08153	0.14473	0.032548	0.22938	0.12746	0.15076	0.16203	0.048721	0.1953	0.13964	0.2714	-2.6667	-2.9125	-3.0312	-3.0125	-2.8771	-3.0229	-3.2083	-2.8875	-3.0083	-3.0479	-2.9375	-3.2125	-2.9688	-2.7042	-3.1437	-2.9208	226.403	229.096	-70.390	219.998	90.890	55.022	273.699	83.199	171.855	-69.729	99.780	-55.244	25.265	-27.268	116.918	-39.751	0.00035913	0.001752	0.00073008	465.67	2.0836e-05	1.2747e-05	557.29	118.05	6.2468e-05	2.4272e-05	154.46	42.606	32.443	9.4815	3.9503e-05	15.665	0.018532	0.018557	0.0049758	1852.3	0.00021872	0.00020383	1025.3	328.24	0.00021779	0.00020412	727.64	137.65	122.71	36.152	0.00020581	59.317	-73.489	-49.310	181.044	-70.571	30.330	75.752	-72.093	-65.563	21.540	81.154	-68.385	-61.901	-61.981	-56.348	174.851	-56.549	-8191	255	
2371.470	1	1	0	0	0.08156	0.073193	0.15292	0.18555	0.18372	0.13401	0.15802	0.12246	0.081521	0.14304	0.22213	0.24346	0.060219	0.10001	0.13457	0.1991	-2.4708	-3.1667	-2.7208	-3.3208	-2.7604	-2.9333	-3.0792	-2.9292	-3.075	-3.1479	-2.9479	-3.2042	-3.0979	-2.85	-3.1688	-3	58.053	166.663	117.691	41.464	-72.753	181.031	202.946	259.065	145.505	94.056	260.737	111.372	57.944	184.778	-64.467	-3.742	0.00030487	0.0030067	0.0012807	480.29	3.486e-05	2.1581e-05	558.83	119.96	3.7072e-05	1.1735e-05	152.61	44.589	32.154	9.4808	8.2872e-05	16.307	0.018522	0.018819	0.0054628	1957.2	0.00022222	0.00020964	1087.6	346.54	0.00022845	0.00021853	835.99	149.75	132.06	39.598	0.0002583	67.114	236.481	25.625	151.805	-71.676	-5.125	64.069	-72.236	-66.497	-16.209	-8.755	-67.644	-62.540	-62.380	-56.669	196.338	-57.541	-8191	255	
2371.567	1	1	0	0	0.22244	0.12807	0.19231	0.010149	0.29242	0.20619	0.11172	0.060768	0.05559	0.11856	0.047177	0.12875	0.26109	0.24569	0.16942	0.19259	-2.5208	-3.0917	-2.7792	-3.0646	-3.0521	-2.8854	-3.4042	-2.8146	-3.0979	-3.0396	-2.9792	-3.3187	-3.1063	-3.0229	-3.0417	-2.7521	-23.615	9.018	222.431	209.515	104.660	39.427	250.778	168.043	-36.681	-83.407	139.191	31.352	-80.558	83.336	21.364	223.496	0.0004726	0.0019505	0.0017769	488.8	8.9488e-05	2.2575e-05	569.43	121.51	6.3393e-05	3.4718e-05	156.4	45.625	32.594	9.3502	2.9282e-05	16.556	0.021716	0.022552	0.0072859	2298.3	0.00027427	0.00026542	1281.2	400.81	0.00028483	0.00027588	1060.1	169.37	148.5	45.253	0.00031073	70.329	-62.952	-62.249	127.882	-70.572	7.856	223.896	-72.165	-65.470	13.198	193.942	-67.152	-61.978	-62.008	-55.774	214.922	-57.510	-8191	255	
2371.663	1	1	0	0	0.053184	0.12497	0.046364	0.23614	0.09082	0.040283	0.31379	0.14809	0.14523	0.085034	0.10369	0.21186	0.028186	0.088063	0.32527	0.13395	-2.6667	-3.075	-2.975	-3.025	-3.2188	-2.7042	-3.3125	-3.0833	-2.9333	-3.175	-2.9479	-3.1417	-3.2083	-2.8854	-3.3104	-2.8833	-42.059	221.322	-52.828	43.923	121.025	59.958	-36.089	-21.861	182.198	178.409	-16.058	-53.881	-19.311	5.858	-53.692	-77.811	0.00060373	0.0030132	0.0011043	489.95	4.7397e-05	4.4153e-05	568.4	121.2	5.8392e-05	7.8614e-05	155.82	45.422	33.535	9.2057	4.7022e-05	16.15	0.022844	0.024406	0.0078469	2238.3	0.00026426	0.00027037	1276.2	377.03	0.0002631	0.00027793	1038.9	159.72	142.12	46.946	0.00031395	69.013	258.730	164.137	114.773	-71.879	8.031	236.420	-72.187	-66.406	-20.554	208.375	-68.061	-62.302	-61.313	-55.555	28.243	-56.709	-8191	255	
2371.783	1	1	0	0	0.25065	0.12826	0.1715	0.16858	0.27323	0.37845	0.045392	0.03803	0.14229	0.13985	0.013923	0.18133	0.16219	0.23621	0.22248	0.17644	-2.6063	-3.1667	-2.9375	-3.0333	-3.3083	-2.9021	-3.4792	-3.0854	-2.7375	-3.2687	-2.7896	-3.0187	-3.1479	-3.1146	-2.9917	-3	-17.827	79.739	-54.568	-10.829	-15.462	269.946	-15.240	256.522	127.909	88.336	-40.746	2.170	177.970	216.454	-44.963	258.389	0.00040327	0.0075869	0.00088056	481.93	1.6039e-05	5.9899e-05	573.87	122.08	1.3749e-05	6.3615e-05	165.92	45.678	33.145	9.6334	8.666e-05	17.098	0.022752	0.02701	0.0081296	2266.7	0.00027324	0.00030982	1320.4	391.81	0.00028356	0.00032981	1120.1	172.6	157.79	56.192	0.00035477	76.918	262.676	152.713	-29.632	-72.177	108.868	222.697	-71.971	-66.272	100.209	224.941	-68.557	-61.995	-61.884	-55.732	-25.674	-56.646	-8191	255	
2371.879	1	1	0	0	0.17081	0.16349	0.27816	0.049397	0.064609	0.24295	0.1185	0.073394	0.21249	0.098773	0.11149	0.16845	0.10605	0.044391	0.045064	0.080819	-2.5146	-3.2812	-2.7854	-3.1833	-3.1333	-2.8833	-3.325	-3.2021	-3.0271	-3.2104	-2.6792	-2.7229	-3.2188	-3.075	-3.0521	-3.2417	4.971	-9.097	132.479	8.574	-47.175	144.750	222.437	8.271	204.397	244.617	193.353	256.028	22.743	236.958	-57.822	207.104	0.0011903	0.0059588	0.0016145	494.98	4.074e-05	4.3852e-05	574.89	123.55	8.2558e-05	2.9508e-05	168.33	47.289	33.097	10.142	6.5203e-05	17.809	0.026923	0.033896	0.0092387	2538.3	0.0003267	0.00038478	1413.5	429.88	0.00034113	0.00040459	1235.6	190.93	184.96	65.94	0.00039607	85.609	97.805	164.819	-25.037	-71.388	177.924	208.988	-71.394	-66.331	176.866	228.907	-67.909	-62.292	-60.441	-56.032	44.629	-56.818	-8191	255	
2371.976	1	1	0	0	0.076573	0.23406	0.1794	0.2043	0.013909	0.12126	0.10739	0.11797	0.084907	0.42106	0.16661	0.18222	0.12675	0.12945	0.17886	0.27966	-2.3354	-3.2292	-2.7771	-3.1083	-3.3396	-3.0438	-3.0083	-3.2083	-2.7479	-3.0354	-2.9437	-3.0375	-3.1729	-3.0687	-3.0271	-3.3208	55.133	46.672	40.776	164.874	223.350	11.722	200.733	118.667	-53.181	-35.118	-2.174	272.737	65.015	179.862	149.992	-45.756	0.002193	0.0039246	0.001533	485.8	9.4215e-05	4.9064e-05	572.56	123.91	0.00013277	6.9225e-05	169.13	47.637	33.098	10.471	4.365e-05	17.441	0.033111	0.040544	0.010335	2798.6	0.00040241	0.00044577	1484.4	458.65	0.0004041	0.0004376	1269.1	194.4	200.86	65.401	0.00037869	82.738	97.628	12.076	-16.873	-71.315	199.405	37.273	-72.374	-65.689	192.754	49.636	-67.527	-61.526	-60.746	-56.253	98.526	-57.199	-8191	255	
2372.047	1	1	0	0	0.084776	0.088476	0.10834	0.1757	0.19305	0.11571	0.14307	0.19358	0.26821	0.14205	0.042999	0.030427	0.20426	0.22229	0.20128	0.12646	-2.4292	-3.2938	-2.9938	-2.9875	-3.0833	-3.0792	-2.9146	-3.2687	-2.9354	-3.2687	-3.0417	-3.0104	-3.2313	-3.025	-3.0312	-3.2833	123.280	0.757	35.301	195.866	250.746	53.219	192.514	-10.151	-45.146	46.041	37.974	131.525	166.646	-16.364	204.661	-10.904	0.0017423	0.0078141	0.00034176	476.16	5.2334e-05	4.8438e-05	564.18	120.59	8.1261e-05	8.1135e-05	164.41	46.394	33.355	10.426	3.4254e-05	16.643	0.034145	0.037454	0.0094623	2639.7	0.0004019	0.00040027	1400.9	436.45	0.00040365	0.00039828	1188.8	191.19	205.25	62.229	0.00036747	84.573	96.364	-25.840	-36.715	-70.495	181.362	47.000	-71.932	-66.508	204.338	45.359	-69.482	-62.141	-61.457	-56.170	-6.198	-57.027	-8191	255	
2372.168	1	1	0	0	0.28756	0.27735	0.093332	0.39483	0.12179	0.19234	0.23725	0.083218	0.1069	0.14217	0.51143	0.11323	0.20739	0.14395	0.052922	0.049925	-2.4313	-3.2042	-3.025	-2.7625	-3.1542	-2.9896	-2.9729	-3.2792	-2.8708	-3.225	-3.0708	-2.9146	-3.2854	-3.0625	-2.7354	-3.3771	74.681	-28.797	38.063	164.217	203.480	175.101	-74.849	228.274	232.444	243.812	-16.064	205.212	214.308	19.849	-48.106	36.009	0.00058271	0.007675	0.0016868	466.22	3.2784e-05	6.447e-05	569.32	118.63	4.613e-05	3.5337e-05	168.56	45.761	35.322	10.608	4.0958e-05	16.684	0.036224	0.036841	0.0094791	2821	0.00043559	0.00040246	1422.8	474.16	0.00043747	0.00040428	1215.7	208.82	215.96	62.678	0.00037478	92.832	100.652	-42.053	-22.701	-71.625	139.619	16.333	-72.114	-66.556	17.256	-6.001	-68.066	-60.736	-61.217	-55.917	-2.773	-57.976	-8191	255	
2372.264	1	1	0	0	0.18401	0.14259	0.2283	0.066309	0.097304	0.060874	0.20795	0.11197	0.17592	0.17876	0.22067	0.048832	0.12615	0.019024	0.12064	0.28396	-2.575	-3.2167	-3.15	-2.9854	-3.2271	-3.0021	-2.8542	-3.2021	-2.9875	-2.9875	-3.0729	-2.9521	-3.2	-2.9146	-2.9625	-3.0646	70.514	185.668	85.436	7.375	166.622	-64.408	147.355	12.531	133.099	-81.456	175.814	240.582	86.035	55.412	-33.921	171.119	0.00073825	0.0043914	0.00097717	458.5	3.0227e-05	3.0247e-05	572.5	120.98	8.1394e-05	6.6113e-05	166.84	46.735	36.379	10.733	2.4808e-05	17.581	0.037549	0.036843	0.0096319	3100.9	0.00044615	0.00041013	1458.3	523.31	0.00045393	0.00042514	1302.9	237.88	228.72	67.056	0.00042048	107.91	-48.560	-47.704	30.493	-70.175	25.612	16.424	-72.719	-66.052	45.149	48.344	-67.087	-61.699	-62.290	-55.962	190.562	-57.510	-8191	255	
2372.360	1	1	0	0	0.25815	0.25775	0.22665	0.075456	0.12504	0.16754	0.15328	0.24236	0.12509	0.22876	0.13383	0.19313	0.18264	0.088325	0.12003	0.038105	-2.6042	-2.975	-3.2792	-2.9229	-3.3396	-3.0583	-3.1417	-3.2979	-3.1437	-2.975	-3.2687	-2.7812	-3.2667	-3.1396	-3.0708	-3.2313	136.274	0.162	77.247	224.817	51.167	84.683	26.394	165.477	14.104	244.538	-43.127	-72.576	83.273	155.426	215.052	-41.391	0.0018713	0.0053673	0.0017094	478.52	7.528e-05	9.4712e-05	573.87	123.8	6.3821e-05	3.5552e-05	156.6	49.009	37.008	11.062	0.00013569	18.882	0.04075	0.040932	0.011165	3659.9	0.00049247	0.00045746	1636.5	609.23	0.00050385	0.00047986	1545.1	276.74	251.2	75.092	0.00052344	127.38	259.374	-25.448	144.871	-70.831	4.984	34.501	-72.437	-66.524	-5.684	46.062	-65.882	-63.301	-62.985	-57.266	199.470	-56.677	-8191	255	
2372.479	1	1	0	0	0.14575	0.12377	0.11576	0.25998	0.10043	0.14549	0.32878	0.10546	0.021742	0.20456	0.19924	0.082197	0.090257	0.071614	0.31693	0.089226	-2.5792	-2.8521	-3.2958	-2.8708	-3.1292	-3.4938	-2.9813	-3.3958	-3.0583	-2.7938	-3.4062	-3.1792	-3.1813	-3.4292	-2.9688	-3.3312	-5.525	-3.378	-38.329	-7.830	60.630	195.675	228.844	151.186	171.885	116.146	110.941	88.492	236.085	141.285	56.633	-12.312	0.0020163	0.0085016	0.0035276	509.89	3.3915e-05	3.4505e-05	572.2	125.83	8.0678e-05	3.4422e-05	152.92	50.718	35.763	10.394	0.00017597	18.761	0.046189	0.046894	0.014003	4206.7	0.00054483	0.00050646	1847.6	660.15	0.00053093	0.00050583	1750	284.52	253.25	76.203	0.00058186	127.47	274.068	-22.135	134.159	-72.096	-8.069	-15.639	-72.810	-65.864	12.445	-25.202	-68.182	-62.798	-61.047	-56.651	192.043	-56.812	-8191	255	
2372.575	1	1	0	0	0.17505	0.21679	0.13662	0.11507	0.20758	0.12476	0.26177	0.0424	0.16145	0.096289	0.1224	0.096002	0.042625	0.13702	0.30619	0.1804	-2.7333	-2.925	-3.3896	-3.0125	-2.9958	-3.1625	-2.95	-3.3542	-3.1771	-3.2042	-3.2146	-3.1104	-3.0083	-3.3083	-2.9979	-3.2854	110.435	75.403	-18.043	230.054	255.389	52.403	202.974	107.198	271.710	86.623	79.626	81.452	213.217	-35.922	-15.943	129.429	0.0024394	0.0083926	0.0035119	522.32	5.3912e-05	5.0686e-05	587.66	129.61	9.4767e-05	9.529e-05	155.44	52.154	37.087	10.275	7.6775e-05	19.625	0.046646	0.048923	0.015921	4349.5	0.00058136	0.00056436	2102.3	711.64	0.00059598	0.0006011	2140.4	316.05	286.59	90.887	0.00071823	140.7	240.351	150.082	113.640	-70.666	9.825	230.586	-72.804	-66.945	-11.815	209.746	-65.918	-62.631	-62.154	-54.697	158.430	-58.764	-8191	255	
2372.671	1	1	0	131072	0.14114	0.47734	0.2745	0.3392	0.2175	0.11865	0.19892	0.12178	0.20979	0.059044	0.072213	0.096607	0.070944	0.14505	0.081937	0.1395	-2.8167	-2.9521	-3.3583	-3.0292	-3.0625	-3.2417	-3.0667	-3.2438	-3.1063	-3.0708	-3.1958	-3.1417	-2.9896	-3.4667	-3.1437	-3.1542	187.749	15.472	246.051	252.060	1.763	132.732	227.992	36.306	3.734	-40.012	-38.552	-12.189	75.097	10.287	62.578	72.996	0.0015327	0.019229	0.0012174	524.17	4.7303e-05	0.0001614	585.97	127.87	7.9759e-05	0.00014209	173.14	51.482	36.192	10.114	0.00010161	19.355	0.052255	0.058306	0.018645	4588.5	0.00062043	0.00064855	2236.6	714.39	0.00060143	0.00065641	2182.9	306.4	281.14	96.757	0.00070985	136.09	-73.631	150.678	152.495	-71.653	-21.351	221.672	-72.332	-66.907	14.697	219.165	-67.371	-62.714	-64.073	-54.527	26.247	-58.078	-8191	255	
2372.768	1	1	0	131072	0.073331	0.19423	0.070359	0.2356	0.16251	0.044804	0.1073	0.12132	0.086571	0.048302	0.12554	0.26307	0.1497	0.096889	0.048589	0.39387	-2.8167	-2.9125	-3.3396	-2.9771	-2.9792	-3.2771	-2.9354	-3.2	-3.1646	-2.9896	-3.275	-3.1208	-2.9542	-3.1333	-2.9729	-3.0208	59.860	69.238	-70.198	-53.776	34.230	251.846	126.821	28.478	73.699	237.250	71.947	259.426	24.028	77.582	169.080	271.519	0.00044669	0.015074	0.0040784	500.93	5.0407e-05	0.00016848	591.61	125.59	6.8777e-05	0.00013057	178.37	50.593	35.103	10.407	0.00011975	19.356	0.050776	0.062561	0.01816	4417.2	0.0006029	0.00068786	2148.5	684.83	0.00058149	0.00068077	2029.9	287.32	266.71	95.176	0.00061557	120.4	143.962	147.401	-24.465	-71.918	159.287	207.472	-71.797	-66.615	200.281	207.121	-68.549	-62.913	-61.752	-56.270	17.727	-57.486	-8191	255	
2372.864	1	1	0	0	0.10527	0.26501	0.28285	0.18435	0.29064	0.051744	0.26187	0.14721	0.077217	0.16717	0.2717	0.025407	0.07759	0.036065	0.25922	0.042002	-2.9833	-2.9333	-3.1188	-3.0021	-2.9271	-3.2896	-3.2271	-3.0333	-3.4396	-2.8292	-3.2021	-3.2188	-3.0583	-3.2104	-3.0583	-2.9771	177.801	63.558	49.870	244.088	20.155	27.791	135.979	193.592	-21.276	18.699	197.366	-74.548	82.586	217.532	58.473	97.574	0.0024206	0.0079658	0.0024549	501.06	0.00011966	7.7663e-05	577.44	125.01	0.00012314	3.5008e-05	173.61	49.579	32.513	10.75	8.5839e-05	18.573	0.04517	0.056582	0.014635	3642.3	0.00051029	0.00058225	1774.4	557.93	0.00048422	0.00055779	1579.4	233.41	232.57	80.645	0.00048373	100.89	80.178	139.652	-45.063	-72.853	180.376	205.286	-71.785	-66.740	194.684	194.297	-68.463	-63.373	-60.408	-56.388	7.140	-57.374	-8191	255	
2372.960	1	1	0	0	0.067367	0.06541	0.072749	0.21526	0.019323	0.16045	0.14192	0.094231	0.11293	0.15336	0.13431	0.030239	0.040339	0.1497	0.10085	0.095406	-2.7958	-2.8021	-3.1208	-3.1312	-2.8708	-3.1854	-3.0771	-2.6979	-3.1729	-3.1354	-3.1167	-3.1167	-2.7875	-3.4125	-2.9833	-3.0396	260.732	14.110	223.395	48.280	60.038	211.549	235.756	226.445	-74.401	106.445	237.649	-74.365	-21.052	186.846	-34.557	62.188	0.0026164	0.0088564	0.00047922	493.71	0.00016378	4.1516e-05	575.71	122.16	0.00014561	5.7936e-05	166.78	47.733	33.222	10.647	6.5306e-05	17.739	0.040762	0.048597	0.012165	3194	0.00048423	0.00051454	1615.7	506.07	0.00047064	0.00049402	1404.4	213.28	226.94	72.022	0.00042618	92.185	83.348	-15.288	-43.656	-71.126	183.118	63.096	-72.348	-66.231	179.553	14.526	-67.820	-62.047	-60.539	-56.779	7.948	-57.639	-8191	255	
2373.080	1	1	0	0	0.16885	0.18931	0.083703	0.38668	0.25417	0.12781	0.086594	0.17688	0.10912	0.25493	0.11618	0.24476	0.22932	0.20203	0.22199	0.13927	-2.7167	-3.0208	-2.9042	-3.2333	-2.9167	-3.1188	-3.2188	-2.8021	-3.2833	-2.9875	-3.0479	-3.2	-2.9792	-3.1917	-3.1125	-2.8042	98.437	62.660	-58.828	170.087	98.660	202.538	222.832	3.080	113.456	118.027	101.753	205.298	228.190	56.755	89.269	257.584	0.002099	0.0094908	0.00070471	467.43	5.5698e-05	4.6337e-05	575.81	118.86	5.283e-05	5.9861e-05	166.69	46.209	34.067	10.561	2.279e-05	17.289	0.039177	0.041942	0.010562	2889.7	0.0004518	0.00042962	1452.5	458.64	0.00042106	0.00039531	1168	188.01	196.66	57.286	0.00032686	78.431	84.448	-34.958	-27.013	-70.839	187.872	70.238	-72.153	-66.219	177.276	60.113	-68.758	-61.739	-60.650	-57.067	13.609	-58.196	-8191	255	
2373.177	1	1	0	0	0.051916	0.048836	0.16287	0.092258	0.081574	0.070212	0.079029	0.020151	0.15861	0.21671	0.2106	0.14054	0.1843	0.1503	0.11292	0.052897	-2.5917	-2.7479	-2.85	-3.2521	-2.8083	-3.3458	-3.1771	-2.8542	-3.1562	-2.8833	-2.8708	-3.2917	-2.6458	-3.1875	-3.0396	-2.7479	-77.682	23.937	217.307	-53.660	-66.746	193.356	96.322	89.482	32.109	-73.463	-73.137	-58.567	40.150	49.636	158.741	118.215	0.00088229	0.0067018	0.0011519	463.53	1.4897e-05	1.5408e-05	571.5	118.66	2.8876e-05	4.204e-05	163.01	46.127	34.498	10.148	2.0366e-05	17.043	0.031216	0.030549	0.0077879	2390.6	0.00034028	0.00030321	1204.1	382.96	0.00030465	0.00027339	868.47	155.43	149.13	42.582	0.0002281	64.219	78.717	-28.384	-62.550	-71.625	5.621	42.195	-72.230	-65.996	13.578	43.817	-68.727	-61.750	-61.583	-55.943	-74.643	-56.986	-8191	255	
2373.271	1	1	0	0	0.2198	0.17701	0.13994	0.18844	0.23848	0.14807	0.38036	0.24422	0.15523	0.21816	0.086023	0.14107	0.14117	0.040438	0.17433	0.15967	-2.5542	-2.9104	-2.8792	-3.2208	-2.8208	-2.8208	-3.1688	-2.8667	-3.2062	-3.0833	-2.6437	-3.1937	-2.8771	-2.7896	-2.9958	-2.7812	13.420	-35.506	-64.753	-51.991	14.311	227.422	208.372	-79.478	62.889	158.356	-31.180	230.945	-43.166	134.956	1.293	-77.659	0.0010889	0.0049868	0.00033246	461.2	8.6853e-06	7.9872e-06	564.48	118.47	1.3069e-05	1.6783e-05	156.44	45.826	33.477	9.7962	4.3427e-05	16.657	0.021833	0.02129	0.0055148	1966.4	0.00024114	0.0002184	1043.2	329.88	0.00022137	0.00020377	706.19	135.43	120.31	35.188	0.000188	57.191	214.393	-58.069	126.751	-70.036	34.646	84.244	-71.944	-65.840	22.679	63.734	-67.724	-62.085	-61.658	-55.732	235.548	-57.556	-8191	255	
2373.344	1	1	0	0	0.16521	0.16334	0.1946	0.1161	0.14308	0.1863	0.24422	0.24182	0.078469	0.26054	0.23057	0.27386	0.16141	0.12179	0.088262	0.26179	-2.6	-2.8542	-2.5917	-3.2354	-2.7604	-2.9542	-3.2167	-2.9208	-3	-3.0792	-2.6521	-3.2083	-2.8875	-2.8688	-3.2062	-2.7854	53.099	51.349	77.086	-3.779	23.472	222.161	100.587	86.173	34.821	21.126	96.580	-12.153	31.418	247.975	224.863	124.475	0.00076006	0.0017941	0.0012278	476.79	1.2965e-05	3.0198e-05	557.56	118.33	5.5394e-05	3.2181e-05	153.59	46.061	33.921	9.7052	5.7467e-05	16.711	0.017516	0.017703	0.004956	1850.6	0.00020957	0.00019742	1035	328.78	0.00021104	0.00019997	753.9	141.55	122.95	36.555	0.00021858	61.349	269.138	-51.323	203.997	-71.400	23.842	11.903	-71.990	-65.662	15.834	35.437	-67.767	-61.725	-61.705	-56.314	172.974	-56.897	-8191	255	
2373.463	1	1	0	0	0.23535	0.11894	0.36349	0.19436	0.15156	0.049631	0.21027	0.15175	0.11965	0.07114	0.14324	0.13673	0.23795	0.24451	0.064857	0.15663	-2.5979	-2.9083	-2.6729	-3.2188	-2.7479	-2.6667	-3.275	-2.7458	-3.0396	-3.0312	-2.6354	-3.1021	-2.8563	-2.9313	-3.0271	-2.9146	88.618	28.065	198.795	223.857	-8.866	86.282	249.895	-30.320	173.094	252.915	179.606	219.127	227.156	183.668	275.956	-7.565	0.00081962	0.0015276	0.0014826	482.08	7.0979e-06	2.4973e-05	567.44	120.69	2.4387e-05	8.4521e-06	156.16	46.539	33.833	9.5113	6.7109e-05	17.013	0.018582	0.018784	0.0057742	1956.7	0.0002175	0.00020473	1102.1	333.85	0.00021067	0.00019991	798.59	137.83	117.49	35.082	0.00021782	56.485	-82.044	235.248	137.623	-71.084	150.316	-34.977	-72.131	-65.529	7.753	189.683	-67.712	-62.154	-61.924	-55.315	181.115	-57.011	-8191	255	
2373.559	1	1	0	0	0.20454	0.054817	0.30662	0.1491	0.21792	0.23202	0.20023	0.17118	0.21525	0.10448	0.13436	0.093429	0.12905	0.036929	0.02462	0.080907	-2.4396	-2.9667	-2.7854	-3.0458	-2.95	-2.6083	-3.3646	-2.5896	-2.875	-3.0667	-2.8708	-3.0458	-3.15	-2.7708	-3.0979	-2.7625	3.957	241.176	-37.176	62.049	106.222	162.432	180.795	256.755	141.448	234.551	-27.872	236.953	-51.378	204.252	216.189	129.322	0.00049146	0.0016766	0.00035284	482.66	4.9018e-05	2.0537e-05	571.31	120.66	2.3169e-05	5.3431e-05	162.55	46.74	34.291	9.633	3.1767e-05	17.405	0.016467	0.017177	0.0055358	1767.4	0.00019249	0.00019232	1094.5	314.7	0.00019772	0.00020151	822.02	135.79	117.87	37.401	0.00023547	57.219	222.586	-79.368	74.634	-71.563	22.704	260.251	-72.140	-65.708	-16.128	232.826	-67.924	-62.238	-61.968	-55.214	163.574	-56.741	-8191	255	
2373.656	1	1	0	0	0.044315	0.27828	0.30328	0.17109	0.1115	0.12131	0.1986	0.11218	0.19287	0.16565	0.20461	0.074308	0.06829	0.1231	0.068352	0.36468	-2.3375	-2.9938	-2.9146	-2.9583	-3.125	-2.6958	-3.3688	-3.1396	-2.7854	-3.4917	-2.8104	-2.7687	-3.1229	-2.775	-3.2042	-3.0938	150.815	220.273	58.752	208.025	77.046	197.075	64.880	83.864	189.365	257.295	98.160	8.476	132.757	-1.932	71.215	228.318	0.00015906	0.0058928	0.00037189	487.01	1.9651e-05	3.5296e-05	579.22	121.04	1.4503e-05	6.5158e-05	162.89	46.278	33.573	9.5765	3.0125e-05	16.956	0.016988	0.019102	0.0059137	1769	0.0001925	0.00020654	1099	304.55	0.00018629	0.0002065	782.34	127.97	111.53	37.925	0.00022432	55.446	-32.501	125.072	74.405	-71.860	44.475	195.539	-71.703	-66.118	-28.644	206.509	-67.590	-61.737	-61.438	-54.990	4.984	-57.088	-8191	255	
2373.752	1	1	0	0	0.10407	0.17811	0.26232	0.13466	0.11748	0.22393	0.093506	0.087551	0.23654	0.27481	0.12696	0.18228	0.071012	0.22124	0.0064445	0.088687	-2.4583	-2.9958	-2.8312	-2.8979	-3.2812	-2.6958	-3.2667	-3.0125	-2.9854	-3.1542	-2.8979	-2.9792	-3.0396	-2.7479	-3.1375	-3.1208	173.017	190.784	235.154	45.984	-18.788	-61.165	249.962	267.880	-21.550	37.833	-43.147	-26.468	4.326	166.896	-33.371	63.948	0.00056053	0.0028566	0.0010843	491.63	2.1911e-05	2.9914e-05	589.58	121.87	1.8383e-05	5.0621e-05	165.3	46.878	33.64	10.004	5.92e-05	17.367	0.016858	0.021245	0.0061174	1864.2	0.0002144	0.0002534	1173.1	332.47	0.00022402	0.00026433	887.94	143.82	131.17	46.345	0.00026455	62.606	112.038	170.371	-72.183	-70.466	147.613	227.999	-72.169	-65.882	191.357	211.825	-69.136	-62.243	-60.963	-55.699	8.186	-57.692	-8191	255	
2373.872	1	1	0	0	0.046166	0.1443	0.1255	0.14018	0.09814	0.31663	0.14663	0.42067	0.1087	0.23953	0.045768	0.14447	0.26267	0.16648	0.081476	0.13578	-2.2604	-3.0333	-2.8521	-2.775	-3.3292	-2.8104	-3.1333	-2.9333	-2.8438	-3.0771	-2.9708	-2.9729	-3.2896	-2.8937	-2.8	-3.0938	162.357	65.952	30.858	251.283	-59.527	31.871	207.452	247.279	174.816	98.907	141.575	-68.779	43.684	273.581	-28.963	196.500	0.0015117	0.0015663	0.0015589	501.58	7.8328e-05	1.1454e-05	596.55	122.99	0.00010277	2.5908e-05	170.33	47.445	33.051	10.04	6.2197e-05	17.192	0.021231	0.026881	0.0070666	2084.7	0.00026607	0.00030827	1245.9	357.99	0.00027198	0.00030531	936.33	150.01	145.4	48.384	0.00026237	61.85	57.589	98.913	-21.708	-71.603	198.624	-0.534	-71.893	-65.777	192.019	188.384	-69.080	-61.917	-60.726	-56.766	41.485	-56.415	-8191	255	
2373.944	1	1	0	0	0.13305	0.049834	0.17111	0.16127	0.22963	0.22087	0.22443	0.18656	0.074193	0.083428	0.1979	0.047093	0.20263	0.12979	0.21885	0.071674	-2.2792	-3.2042	-2.825	-2.7229	-3.4062	-3.0333	-2.9208	-3.1771	-2.8	-3.1188	-3.1583	-3.0396	-3.1542	-2.8417	-2.9042	-3.1958	126.799	120.258	213.705	-30.902	74.683	56.055	-40.233	172.773	-61.914	118.601	35.660	1.626	-30.416	-69.173	23.500	123.735	0.0017431	0.0034288	0.00087915	489.8	6.3612e-05	3.1544e-05	588.12	120.7	5.3208e-05	3.8399e-05	162.8	47.065	33.603	10.086	2.3317e-05	17.172	0.0224	0.025498	0.0063681	1922.4	0.00025691	0.00026524	1146.9	323.53	0.00025016	0.00025406	811.95	135.51	136.99	42.3	0.00022704	57.877	68.766	-43.722	-31.323	-71.072	171.145	120.368	-71.844	-66.297	176.253	12.524	-67.678	-62.017	-60.735	-56.559	-37.245	-57.239	-8191	255	
2374.040	1	1	0	0	0.082549	0.17216	0.038559	0.1591	0.047433	0.14526	0.12984	0.18003	0.050796	0.10495	0.061578	0.055172	0.19847	0.29503	0.15394	0.25649	-2.3458	-3.1292	-2.9833	-2.7812	-3.0729	-2.8792	-2.9625	-3.1896	-2.9688	-3.2042	-3.0604	-2.8063	-3.225	-2.8708	-2.9417	-3.0229	64.633	274.643	-31.141	81.139	-25.822	74.254	225.651	25.190	-30.557	86.756	-25.124	146.489	261.082	248.704	-47.309	24.661	0.0011603	0.0041431	0.0014963	488.22	1.8853e-05	4.2838e-05	598.67	121.71	3.6093e-05	3.9989e-05	172.86	47.234	34.326	10.135	2.5759e-05	17.016	0.021785	0.022943	0.0059513	1920.4	0.00026821	0.00025705	1161.3	341.46	0.00027555	0.00025957	840.88	146.84	147.82	43.143	0.0002336	62.462	72.017	-32.953	-12.669	-70.180	165.264	67.884	-72.365	-66.371	207.167	91.854	-67.515	-62.246	-61.080	-55.792	44.653	-57.004	-8191	255	
2374.161	1	1	0	0	0.17632	0.077337	0.27615	0.081481	0.18556	0.15762	0.18166	0.31043	0.15825	0.12773	0.11172	0.21572	0.22285	0.31447	0.066654	0.23532	-2.3771	-3.1042	-3.0042	-2.9958	-3.0187	-2.8563	-2.9104	-3.0604	-3.0146	-2.9125	-3.2083	-2.7854	-3.0521	-3.1813	-2.8021	-3.1875	150.336	215.303	163.883	-9.378	231.165	253.693	185.149	105.874	2.621	251.096	229.402	-70.627	275.022	266.300	191.549	-68.568	0.00054954	0.0018323	0.00075561	488.6	2.3378e-05	1.6446e-05	614.4	122.05	3.6899e-05	5.2516e-06	165.75	46.778	34.459	9.9684	1.2467e-05	16.565	0.02297	0.022701	0.0058869	2045.9	0.00026944	0.00024546	1150.6	350.25	0.00025944	0.00023645	777.62	145.28	135	38.732	0.00020314	59.354	239.709	-25.780	23.623	-69.710	2.315	-34.918	-71.902	-66.385	11.741	136.999	-67.214	-61.925	-61.304	-56.621	156.333	-56.902	-8191	255	
2374.257	1	1	0	0	0.13682	0.046228	0.23748	0.06763	0.051155	0.22871	0.4055	0.059302	0.15011	0.081244	0.36397	0.20129	0.20734	0.18898	0.088247	0.1102	-2.3979	-3.0979	-3.0021	-2.9021	-3.1021	-2.9021	-2.7438	-3.1458	-2.8667	-2.95	-3.1146	-2.9167	-2.9875	-3.0458	-2.6396	-3.1542	211.180	145.042	244.801	11.461	-48.780	13.123	235.767	223.800	-58.979	-62.357	-36.475	67.297	160.796	187.777	137.957	167.558	0.00053702	0.0023178	0.0003484	502.68	4.4536e-05	1.1245e-05	604.63	121.48	5.9047e-05	2.5863e-05	163.01	47.126	34.535	9.9781	6.0925e-05	17.09	0.019357	0.019136	0.0050525	1919.3	0.00022484	0.00020797	1084.9	336.65	0.00022585	0.00021461	760.32	147.41	131.37	38.918	0.00022416	65.243	-68.014	16.908	86.018	-71.393	13.320	101.291	-72.114	-65.853	64.964	67.704	-68.430	-62.068	-61.797	-55.937	217.998	-56.747	-8191	255	
2374.351	1	1	0	0	0.2525	0.20168	0.18559	0.25157	0.068335	0.15844	0.29007	0.36144	0.18605	0.14581	0.1766	0.2488	0.32545	0.17908	0.070725	0.12006	-2.6625	-2.9875	-3.0396	-2.7479	-2.9354	-3.2438	-2.8958	-3.1375	-2.8396	-2.6729	-3.1667	-2.7792	-2.875	-3.2083	-2.8021	-3.3167	-31.525	-36.785	85.422	-74.286	243.467	260.938	226.853	-42.623	-68.708	70.277	25.480	-39.529	176.982	216.219	-62.267	269.944	0.0010977	0.0015207	0.0010335	511.95	3.4917e-05	1.9757e-05	605.04	124.65	1.9958e-05	3.5389e-05	160.69	48.04	34.56	10.14	9.2559e-05	17.925	0.020718	0.02106	0.0060706	2195.4	0.00025232	0.00023693	1205.9	381.21	0.00025753	0.0002466	915.9	165.94	144	42.848	0.00027785	72.008	273.461	76.784	144.880	-71.506	16.042	24.932	-72.428	-66.229	-32.287	24.529	-67.150	-62.512	-60.880	-56.493	190.832	-57.529	-8191	255	
2374.449	1	1	0	0	0.32369	0.14002	0.18725	0.16753	0.19051	0.11761	0.090958	0.0078201	0.1554	0.22631	0.047001	0.1871	0.24004	0.16183	0.2414	0.13425	-2.4938	-2.8771	-3.0979	-2.7667	-3.0354	-3.15	-2.8083	-3.025	-2.9792	-2.6854	-3.0687	-2.8979	-2.9271	-3.2125	-2.8979	-3.05	-80.552	-64.163	47.528	-26.689	-29.678	225.645	188.542	-28.048	40.715	-82.866	33.200	-81.568	150.527	85.434	131.565	203.933	0.00072436	0.0030043	0.0011075	524.97	3.2248e-05	1.7275e-05	624.13	125.45	4.0278e-05	3.446e-05	162.44	48.016	34.477	9.8974	2.5874e-05	17.199	0.022759	0.02324	0.0072681	2343.4	0.0002685	0.00025313	1299.6	387.95	0.0002597	0.00025132	969.53	159.24	137.09	41.097	0.00027175	64.84	248.219	80.441	155.082	-71.170	53.362	53.817	-72.467	-66.316	20.280	217.161	-67.779	-62.134	-61.729	-54.563	177.673	-57.440	-8191	255	
2374.568	1	1	0	0	0.066603	0.17336	0.12286	0.14252	0.12321	0.14426	0.26209	0.23958	0.10363	0.13313	0.1838	0.040241	0.033815	0.16016	0.13781	0.31155	-2.5792	-2.9521	-3.2938	-2.7104	-3.1229	-3.0521	-2.9938	-3.1542	-3.1437	-2.8417	-3.0687	-3.1083	-2.7458	-3.1042	-2.8125	-3.2042	9.205	196.198	50.992	225.487	-9.577	165.014	146.669	214.387	75.691	-35.099	270.534	217.567	113.256	167.183	185.263	132.352	0.0002897	0.0034839	0.00034213	526.78	5.8251e-05	2.6601e-05	625.24	126.48	3.9443e-05	6.3602e-05	170.4	47.969	34.617	9.7272	1.2586e-05	17.611	0.020081	0.021423	0.0068992	2092.7	0.0002384	0.00024164	1285.3	365.13	0.00024523	0.00026143	1016.6	159.91	142.81	46.529	0.00031226	69.633	-69.618	144.364	238.833	-72.109	32.999	243.396	-72.252	-66.134	-12.016	193.516	-68.678	-62.385	-60.506	-55.089	83.400	-57.219	-8191	255	
2374.640	1	1	0	0	0.052258	0.10324	0.060445	0.20433	0.14168	0.24105	0.41036	0.15698	0.28313	0.07374	0.24366	0.18129	0.20285	0.070719	0.09579	0.25911	-2.45	-2.8958	-3.0583	-2.9479	-2.8021	-3.1937	-3.0333	-2.9458	-3.1167	-2.8104	-3.075	-2.8708	-3.0187	-3.1625	-2.8854	-2.9542	-65.259	-54.558	33.492	234.877	-64.419	5.857	198.058	-22.766	145.589	81.085	-73.895	186.432	-63.121	2.837	106.388	272.395	0.0005727	0.0083501	0.0010223	545.83	8.2637e-06	4.8296e-05	655.9	129.29	1.6455e-05	7.2946e-05	180.96	48.431	34.955	10.189	4.7994e-05	17.882	0.022585	0.026558	0.0080523	2300.7	0.00026526	0.00029382	1377.1	385.61	0.00026108	0.00030035	1042.9	161.68	145	50.591	0.00031274	70.876	-80.092	164.454	-64.475	-71.576	-68.686	194.655	-72.261	-66.888	93.453	206.394	-69.093	-62.464	-62.246	-55.637	46.381	-57.398	-8191	255	
2374.760	1	1	0	0	0.28831	0.20743	0.22231	0.089994	0.2047	0.12492	0.15586	0.23128	0.21421	0.22492	0.082364	0.1184	0.20172	0.13747	0.1424	0.19168	-2.7167	-2.6646	-3.2167	-2.9771	-2.8271	-3.0646	-3.0604	-2.9521	-3.2062	-2.7625	-3.0833	-2.9688	-2.9604	-3.3625	-2.9604	-2.9854	209.420	47.524	-26.091	79.615	175.655	160.959	242.198	-37.593	135.067	103.760	-76.047	62.105	-70.785	30.738	-0.100	-25.557	0.00042154	0.0063274	0.0013747	561.14	6.0216e-05	3.4967e-05	671.51	134.25	4.1389e-05	4.4642e-05	182.45	49.577	34.435	10.517	5.0255e-05	18.264	0.023442	0.02987	0.0082107	2378	0.00029053	0.00034086	1437.1	415.13	0.00030426	0.00036261	1142.8	176.9	168.29	59.235	0.0003459	77.035	118.970	133.485	-17.825	-71.104	182.573	159.324	-72.559	-66.967	216.982	209.233	-68.805	-62.979	-62.154	-56.285	9.376	-57.011	-8191	255	
2374.857	1	1	0	0	0.13569	0.23428	0.12605	0.086732	0.14453	0.20207	0.21655	0.32869	0.13785	0.13428	0.18744	0.21746	0.27064	0.20059	0.15741	0.08816	-2.7354	-2.7833	-2.8563	-3.1437	-2.8187	-3.2208	-3.0604	-2.8271	-3.1646	-2.9	-3.225	-3.2125	-2.8521	-3.1042	-2.7979	-2.8688	40.135	124.020	222.119	-39.695	183.208	63.228	263.119	111.308	51.918	192.730	214.087	272.538	94.870	130.103	259.159	-62.687	0.0017935	0.0019354	0.0021815	557.53	7.8274e-05	5.3775e-05	679.78	135.78	0.00011789	2.0706e-05	184.04	50.139	35.133	10.962	6.1739e-05	18.528	0.027989	0.034688	0.0087955	2527.2	0.00033981	0.00038135	1477.1	430.8	0.00035213	0.00039711	1206.1	187.27	195	65.264	0.00038536	86.015	75.627	73.756	-41.917	-72.456	191.276	49.012	-72.228	-66.358	166.800	51.834	-68.185	-62.149	-61.236	-56.887	58.652	-58.152	-8191	255	
2374.953	1	1	0	0	0.11161	0.1603	0.16305	0.074852	0.13667	0.089729	0.21235	0.23676	0.11075	0.19549	0.28769	0.096301	0.080095	0.14339	0.11926	0.13822	-2.675	-2.7333	-2.8021	-3.2042	-2.7062	-3.2521	-3.0687	-2.7438	-3.0938	-3.0396	-2.9854	-3.375	-2.7521	-3.2042	-3.1354	-2.9104	36.131	70.810	73.582	204.923	193.010	36.836	35.069	-82.834	33.964	-73.396	157.343	-5.853	115.104	273.946	117.731	-74.071	0.0026401	0.011074	0.0013494	570.38	9.1015e-05	4.5265e-05	688.29	136.01	0.00012465	0.00014188	185.85	49.081	36.445	11.147	4.9764e-05	17.76	0.036074	0.041595	0.010603	2998.7	0.00046146	0.00047021	1661.8	510.13	0.00047494	0.00047704	1415.9	219.38	239.6	72.633	0.00043497	96.951	71.796	-30.763	-14.069	-72.540	178.913	61.182	-72.610	-67.111	177.630	41.121	-69.271	-63.107	-62.135	-57.943	25.006	-58.645	-8191	255	
2375.049	1	1	0	0	0.23819	0.017438	0.16574	0.095206	0.23484	0.11142	0.1557	0.16149	0.17923	0.25924	0.088211	0.20895	0.2017	0.17745	0.069602	0.07822	-2.875	-2.8208	-2.9646	-3.2521	-2.8208	-3.1646	-3.1271	-3.1396	-3.2313	-2.9458	-2.8292	-3.4229	-2.9875	-3.2354	-3.175	-2.8312	-71.648	94.656	204.928	247.533	-40.137	139.399	252.262	45.051	2.019	12.073	111.145	231.956	200.485	6.599	34.694	-31.980	0.0020626	0.0073594	0.0014376	552.18	4.554e-05	8.3726e-05	688.75	134.09	4.4772e-05	9.1044e-05	189.04	49.25	39.69	11.596	5.7255e-05	17.772	0.042343	0.043472	0.011183	3285.4	0.00051925	0.00048843	1731.1	575.64	0.00056122	0.00053068	1607.1	270.34	294.71	85.871	0.00053857	128.04	86.262	-32.091	-34.081	-72.075	178.165	61.757	-72.254	-66.523	-44.662	40.597	-69.000	-63.170	-62.114	-58.764	-3.098	-58.637	-8191	255	
2375.170	1	1	0	0	0.14849	0.22499	0.19925	0.070182	0.14083	0.10586	0.02026	0.15872	0.015378	0.062272	0.24295	0.20444	0.029454	0.20944	0.28749	0.49596	-2.8042	-2.9188	-2.8771	-3.2042	-2.9208	-3.2729	-3.4042	-3.0417	-3.0979	-3.0104	-2.9354	-3.2854	-3.0312	-2.7938	-3.2542	-2.8771	266.793	241.484	-40.987	19.630	12.242	273.866	21.197	136.163	228.555	26.854	115.169	238.799	-9.028	262.582	231.135	260.970	0.00089705	0.012851	0.0012576	545.04	7.697e-05	4.5413e-05	704.27	141.84	0.00013506	8.1678e-05	190.05	51.336	41.272	11.794	4.5813e-05	18.843	0.055481	0.054396	0.014195	4385.6	0.00066098	0.000594	1963.4	714.75	0.00064705	0.00059016	1762.1	307.42	297.05	85.148	0.00053181	132.42	-82.355	-25.727	-54.991	-70.071	50.918	26.417	-73.096	-67.337	17.792	19.773	-70.350	-62.732	-62.709	-57.365	183.811	-58.070	-8191	255	
2375.241	1	1	0	0	0.10795	0.13605	0.039421	0.20164	0.08047	0.25147	0.20548	0.20676	0.18437	0.018775	0.22374	0.055385	0.31122	0.11383	0.17274	0.034742	-2.9146	-2.9917	-2.8312	-3.3729	-2.7792	-3.0354	-3.1479	-2.9292	-3.1146	-3.1396	-2.9083	-3.175	-3.0938	-2.875	-3.3646	-2.8917	-37.411	44.342	181.943	32.899	2.683	205.874	-53.094	244.941	194.837	252.052	38.557	-38.102	-34.127	244.359	149.367	39.282	0.0027712	0.0076372	0.0010575	565.81	9.0818e-05	5.252e-05	688.55	140.46	7.8597e-05	4.7411e-05	183.74	53.27	40.568	11.687	0.00014683	19.816	0.050287	0.049257	0.01314	4214.4	0.00056014	0.0005115	1837.1	662.89	0.00053416	0.00049549	1596.7	282.94	253.73	74.89	0.00049945	124.34	258.151	-6.636	115.573	-71.567	3.189	44.932	-72.868	-66.816	-3.234	21.636	-68.464	-62.486	-63.582	-58.250	188.056	-57.031	-8191	255	
2375.337	1	1	0	0	0.23292	0.14933	0.12454	0.10355	0.11902	0.11875	0.25474	0.20703	0.20536	0.092676	0.034915	0.14731	0.18541	0.054665	0.14702	0.28832	-2.5104	-3.2521	-2.8104	-3.1979	-2.9979	-2.9104	-3.3979	-2.7146	-3.2354	-3.1417	-2.8854	-3.1479	-3.0417	-2.8979	-3.3833	-2.7917	146.307	118.519	33.979	108.589	-6.798	171.029	169.039	-9.986	-67.249	-83.873	202.894	94.096	75.431	-17.607	178.145	142.610	0.0014684	0.0051666	0.0036804	605.96	5.6094e-05	4.6118e-05	693.79	144.6	7.3528e-05	6.8746e-05	175.29	53.652	38.048	11.234	9.139e-05	19.99	0.043418	0.043575	0.012794	3976.6	0.00049255	0.00045918	1825.5	618.69	0.00046831	0.00043888	1556.7	257.03	226.16	67.411	0.00048258	110.55	256.585	-13.059	135.497	-71.427	13.486	55.769	-72.466	-66.392	-12.746	48.916	-68.101	-63.919	-63.394	-57.232	175.916	-57.364	-8191	255	
2375.432	1	1	0	0	0.11257	0.11511	0.20363	0.10881	0.15584	0.14095	0.06091	0.18862	0.12649	0.32458	0.052382	0.096329	0.051158	0.14951	0.10542	0.27863	-2.7104	-3.1417	-2.6542	-3.3187	-3	-2.9604	-3.3583	-3.0917	-3.0104	-3.2833	-2.925	-3.2833	-3.2625	-2.9042	-3.2625	-2.9708	139.962	24.160	71.525	32.810	81.215	-68.652	69.275	154.938	-54.735	231.002	108.230	-1.227	-62.765	90.628	227.533	248.432	0.00083521	0.0032156	0.0021412	595.55	2.6526e-05	5.0285e-05	692.49	143.42	2.3006e-05	7.8622e-05	182.28	52.378	37.924	10.743	4.3038e-05	19.996	0.03784	0.038697	0.012409	3564.1	0.00043982	0.00042254	1809.9	565.07	0.00042185	0.00040678	1493.5	225.79	195.72	60.101	0.00042125	90.801	-72.415	-77.941	127.548	-71.290	-2.092	227.824	-72.410	-66.578	14.868	230.294	-69.271	-62.271	-61.941	-56.044	193.049	-56.991	-8191	255	
2375.530	1	1	0	0	0.27611	0.18717	0.10949	0.19259	0.095672	0.22661	0.21229	0.026697	0.057178	0.089207	0.19686	0.13293	0.22124	0.19657	0.21125	0.18119	-2.5646	-3.2604	-2.6979	-3.2542	-3.025	-2.8833	-3.1833	-2.9646	-2.9437	-3.1333	-2.8667	-2.9688	-3.1312	-2.9833	-3.0146	-3.0833	222.586	107.539	118.390	262.038	-25.657	-70.525	47.705	122.101	60.670	-41.559	99.565	273.025	209.139	169.995	9.249	-81.962	0.00055595	0.009784	0.00033489	595.72	4.2069e-05	9.1976e-05	707.35	143.84	4.2073e-05	5.6831e-05	192.74	52.057	37.671	10.767	4.8613e-05	19.579	0.029766	0.031901	0.010071	2793.4	0.00032894	0.00033889	1585.8	454.27	0.00031787	0.00033778	1250.5	189.42	168.47	56.493	0.00037566	82.485	220.570	153.032	166.961	-71.650	35.185	227.787	-72.208	-67.029	-9.249	212.020	-68.334	-63.166	-62.476	-55.003	8.010	-57.681	-8191	255	
2375.649	1	1	0	0	0.17308	0.055657	0.042526	0.1847	0.038996	0.20162	0.25125	0.17804	0.081438	0.10689	0.23781	0.29352	0.05333	0.10558	0.18995	0.19695	-2.3021	-3.2667	-2.9625	-3.0438	-3.0979	-2.7833	-3.4396	-2.875	-2.9021	-3.2188	-2.925	-3.0167	-3.2896	-3.0021	-3.2333	-3.0208	-31.210	110.574	245.811	97.857	43.629	174.962	-72.807	151.355	-52.077	80.751	-27.002	148.752	108.619	3.139	71.275	132.785	0.00057481	0.008799	0.0010112	609.47	6.96e-06	5.869e-05	728.69	145.76	5.2786e-06	8.1889e-05	198.95	53.66	37.499	10.908	5.436e-05	20.134	0.02723	0.032679	0.009657	2709.6	0.00032006	0.00036277	1582.1	449.12	0.0003108	0.00035798	1199.8	183.44	164.09	57.56	0.00034428	78.173	241.985	156.067	-46.683	-72.589	263.317	226.827	-72.455	-66.758	241.100	201.989	-68.648	-62.682	-62.084	-55.009	47.717	-57.037	-8191	255	
2375.745	1	1	0	0	0.19738	0.22729	0.09798	0.17174	0.06186	0.22553	0.36917	0.037036	0.26662	0.11702	0.44273	0.046151	0.17316	0.13678	0.074714	0.23838	-2.5042	-3.3208	-2.9062	-3.0354	-3.25	-3.0812	-2.9271	-3.1	-3.05	-3.1	-2.9458	-2.9354	-3.2042	-2.9542	-3.1	-3.2562	105.670	125.287	254.598	270.556	43.446	129.849	163.946	115.559	-35.864	159.714	199.587	146.990	91.097	255.920	249.984	196.244	0.001609	0.0062937	0.0015647	610.33	3.914e-05	2.2249e-05	723.82	143.72	5.5498e-05	2.633e-05	194.31	51.884	36.477	10.918	9.0429e-05	19.286	0.026028	0.032866	0.008831	2567.9	0.00031309	0.00036625	1518	429.64	0.00031505	0.00036403	1132	175.73	167.09	57.572	0.00032401	74.665	94.697	150.897	-29.938	-71.540	158.922	202.758	-72.365	-66.955	175.306	208.227	-69.208	-62.383	-61.228	-56.112	5.907	-56.961	-8191	255	
2375.841	1	1	0	0	0.11183	0.2721	0.13207	0.27822	0.07266	0.095326	0.2133	0.13337	0.16173	0.070638	0.18003	0.11747	0.25501	0.21421	0.25346	0.041165	-2.275	-3.1542	-2.9167	-2.7938	-3.2562	-3.0938	-3.2354	-3.1271	-2.8333	-3.1813	-3.1104	-2.9375	-3.2625	-2.8312	-3.0917	-3.2	76.799	153.418	22.142	220.264	77.047	274.994	151.150	-30.759	-44.956	131.370	90.424	130.201	215.486	55.378	60.803	168.777	0.0018763	0.004139	0.00041446	600.18	6.1205e-05	3.0503e-05	703.96	140.42	8.6111e-05	4.7976e-05	190.44	50.378	35.235	11.084	4.8965e-05	18.873	0.02704	0.032495	0.0082217	2440.9	0.00032348	0.00035179	1442.1	408.58	0.00032378	0.00034345	1057.6	167.63	169.11	53.968	0.00029868	70.949	98.036	21.918	5.136	-71.651	204.085	74.420	-72.200	-66.831	168.158	49.510	-68.002	-62.560	-61.517	-56.406	48.392	-58.391	-8191	255	
2375.937	1	1	0	0	0.16069	0.15555	0.24914	0.13484	0.038549	0.29169	0.11718	0.2732	0.29948	0.29194	0.21971	0.26858	0.25694	0.25802	0.18488	0.16359	-2.5354	-3.0812	-2.9313	-2.8417	-3.3312	-2.8438	-3.2542	-3.1042	-2.9417	-3.2	-3.3146	-3.0229	-3.0958	-2.975	-2.8521	-3.2	122.698	168.065	-50.944	238.000	126.439	187.709	228.781	243.622	-60.178	1.996	118.192	39.470	254.746	72.097	-54.300	148.491	0.0014591	0.0070973	0.0017539	580.5	4.7128e-05	5.9513e-05	705.88	139.5	5.079e-05	3.4635e-05	191.46	50.446	36.862	11.156	4.0791e-05	18.644	0.027511	0.030016	0.0077036	2381.8	0.00033579	0.00033368	1420.6	413.32	0.00034547	0.00033537	1059.4	174.56	180.98	53.971	0.000304	75.128	94.230	-3.411	-4.050	-71.442	189.119	55.299	-72.205	-67.455	197.281	41.097	-68.804	-63.035	-61.314	-57.249	24.164	-58.019	-8191	255	
2376.033	1	1	0	0	0.14712	0.053545	0.28489	0.086617	0.22402	0.20062	0.08817	0.23566	0.048706	0.022666	0.1396	0.11428	0.10625	0.16765	0.26889	0.045589	-2.2583	-3.1083	-2.9896	-2.7958	-3.3167	-3.2396	-2.9271	-3.3292	-2.8396	-3.2583	-3.2	-2.8583	-3.1437	-3.1958	-2.8688	-3.5292	-60.495	231.319	120.190	123.595	166.476	-43.235	18.364	253.088	195.691	96.284	46.715	257.148	-62.619	103.760	13.464	241.670	0.0006844	0.0041806	0.00079251	577.92	2.0034e-05	3.8531e-05	709.29	140.44	1.9817e-05	3.2006e-05	196.34	51.068	37.998	11.158	3.3668e-05	19.174	0.029555	0.029691	0.0076503	2505.5	0.00035115	0.00032476	1410.2	432.91	0.00035168	0.00032564	1039.6	184.95	183.82	53.25	0.00030315	81.289	174.877	-61.136	-43.786	-71.611	223.095	63.198	-72.393	-67.568	257.522	41.890	-69.049	-62.484	-62.722	-56.851	58.937	-57.753	-8191	255	
2376.129	1	1	0	0	0.29392	0.097975	0.046048	0.26208	0.03149	0.14979	0.12414	0.24545	0.066006	0.15065	0.056886	0.1015	0.060954	0.12823	0.21212	0.1227	-2.5625	-3.1458	-3.3875	-2.8271	-3.1729	-2.8708	-3.0938	-3.1604	-2.9646	-3.2313	-3.1167	-2.8625	-3.2687	-2.9688	-2.9854	-3.2333	227.014	207.001	264.485	38.071	141.358	-14.123	-81.190	220.767	6.275	260.163	217.447	21.427	-72.500	244.299	-13.236	267.898	0.00068726	0.0020078	0.00032536	574.35	7.4869e-05	1.545e-05	697.02	140.23	9.9552e-05	4.4197e-05	185.12	50.611	37.497	10.735	6.1018e-05	18.42	0.030179	0.02979	0.0077744	2717.4	0.0003513	0.00031853	1399.4	445.81	0.00032746	0.00029947	970.5	178.53	160.84	46.289	0.00026083	73.263	274.703	-50.916	140.937	-71.098	16.739	125.749	-72.629	-67.011	-0.115	60.580	-69.682	-62.794	-62.557	-56.182	199.269	-57.356	-8191	255	
2376.250	1	1	0	0	0.13006	0.10151	0.21127	0.20223	0.13235	0.10874	0.23444	0.11026	0.12371	0.090056	0.10336	0.28786	0.13408	0.02543	0.18253	0.064949	-2.5521	-3.1688	-3.0167	-2.9729	-2.9396	-2.9938	-2.7938	-3.3229	-2.7208	-2.9604	-3.1708	-3	-2.8833	-3.1813	-2.8958	-3.1708	-26.436	100.170	273.351	268.173	12.323	-1.196	162.190	194.712	223.571	-59.394	2.693	225.297	182.468	134.133	255.802	-81.492	0.0010936	0.0013296	0.0021695	581.24	4.8405e-05	2.89e-05	699.92	142.43	5.4729e-05	3.2565e-05	183.17	50.518	37.357	10.403	5.695e-05	18.35	0.02365	0.02353	0.0063636	2359.9	0.0002655	0.00024457	1284.3	395.57	0.0002517	0.00023571	865.07	158.96	136.95	39.804	0.00023528	65.898	-64.699	236.598	155.869	-71.489	-24.259	14.044	-72.514	-66.749	-28.676	11.508	-69.106	-62.822	-62.485	-56.317	188.692	-57.588	-8191	255	
2376.344	1	1	0	0	0.39463	0.11695	0.159	0.10401	0.17935	0.26655	0.14086	0.097424	0.08722	0.16034	0.23039	0.11322	0.2387	0.066937	0.15402	0.13399	-2.4771	-2.8021	-3.3	-2.875	-3.0125	-3.0667	-2.875	-3.1729	-2.9917	-2.8063	-3.2333	-2.7917	-2.8812	-3.0667	-2.75	-3.0125	76.366	262.071	239.211	42.938	3.109	136.480	149.157	39.562	19.342	136.546	-39.552	141.130	186.523	117.753	176.063	205.824	0.00060388	0.00066348	0.0012463	610.45	5.5441e-06	7.3112e-06	711.77	146.67	2.0973e-05	1.6144e-05	186	51.812	37.467	10.377	3.2274e-05	18.598	0.019664	0.019923	0.0059374	2150.2	0.00022594	0.0002102	1272.5	368.7	0.00021829	0.00020729	849.92	148.11	127.27	37.376	0.00023515	61.833	-80.009	64.963	129.578	-71.765	-57.070	271.169	-72.453	-67.154	-2.012	106.058	-68.550	-62.973	-63.461	-56.359	209.384	-56.844	-8191	255	
2376.440	1	1	0	0	0.10183	0.23814	0.25588	0.08608	0.19255	0.069005	0.17506	0.085262	0.10209	0.27238	0.066479	0.1784	0.10168	0.013957	0.17771	0.16014	-2.5667	-2.6521	-2.9375	-2.8375	-2.9854	-3.1896	-3	-2.9333	-3.0083	-2.6979	-3.15	-2.8146	-2.7583	-3.2896	-2.7583	-3.2375	131.412	159.944	171.163	227.275	78.261	8.461	78.492	24.091	-72.294	256.993	-23.631	256.084	-32.670	91.886	101.365	219.802	0.00071943	0.0012299	0.00094487	633.52	3.0049e-05	3.8684e-05	733.55	155.01	2.7775e-05	1.9939e-05	200.34	52.717	38.794	10.307	4.4142e-06	18.771	0.018096	0.018823	0.0060207	2038.4	0.00020971	0.00020368	1300.6	358.04	0.00020117	0.00020159	851.15	140.32	121.06	37.063	0.00023105	58.354	213.848	188.950	161.605	-72.732	49.491	232.458	-72.685	-67.501	74.268	270.643	-68.707	-63.674	-62.068	-56.152	52.851	-57.620	-8191	255	
2376.537	1	1	0	0	0.12018	0.21346	0.349	0.31071	0.11274	0.26032	0.2002	0.070569	0.13169	0.17261	0.044995	0.11081	0.15096	0.1104	0.060737	0.042048	-2.5292	-2.7854	-2.8792	-3.0104	-2.9062	-3.0875	-2.8417	-3.025	-3.1792	-2.7375	-3.1875	-2.7687	-2.8646	-3.15	-2.8542	-2.9229	48.103	39.536	243.201	195.671	144.856	240.086	225.388	-0.041	-9.544	61.480	50.680	235.730	133.419	30.682	230.034	176.737	0.00056066	0.0053162	0.00012909	641.83	2.0923e-05	3.8552e-05	748.75	153.68	3.1825e-05	6.2104e-05	204.11	53.928	38.614	10.195	5.1251e-05	18.652	0.016942	0.019222	0.0060452	1980	0.00020411	0.00021626	1319.2	355.11	0.00020109	0.00022273	878.84	141.61	123.55	40.425	0.00024309	60.203	-80.926	141.238	50.231	-71.840	-4.691	193.179	-72.590	-67.606	-4.979	224.994	-67.836	-62.684	-62.344	-55.936	52.354	-57.847	-8191	255	
#DATA ENDS
