BOXY.EXE: ISS Imagent and Oximeter Data Acquisition Program Version 0.80
Ascii Record File

#ACQ INFORMATION
2  Detector Channels 
16  External MUX Channels 
1  Auxiliary Channels 
5000  Waveform (CCF) Frequency (Hz)
1  Waveforms Skipped 
30  Waveforms Averaged 
1  Cycles Averaged 
16  Acquisitions per Waveform 
10.0806  Updata Rate (Hz) 

#FILE INFORMATION
TRUE -- External MUX Channel results are PARSED.
FALSE -- AC DC and Phase are NOT grouped.
TRUE -- Companion Program Settings File CREATED.
FALSE -- AC data not excluded
FALSE -- DC data not excluded
FALSE -- Phase data not excluded
FALSE -- Auxillary Chn. data not excluded
Tab delimiters

#CALIBRATION STATE
TRUE -- Waveform Calibration Values APPLIED.


#AUX CALIBRATION VALUES
Val Type	aux-1	

Term	1.0000e+00	
Factor	0.0000e+00	


#WF CALIBRATION VALUES
A = Detector Channel
Val Type	A-AC1	A-AC2	A-AC3	A-AC4	A-AC5	A-AC6	A-AC7	A-AC8	A-AC9	A-AC10	A-AC11	A-AC12	A-AC13	A-AC14	A-AC15	A-AC16	A-DC1	A-DC2	A-DC3	A-DC4	A-DC5	A-DC6	A-DC7	A-DC8	A-DC9	A-DC10	A-DC11	A-DC12	A-DC13	A-DC14	A-DC15	A-DC16	A-Ph1	A-Ph2	A-Ph3	A-Ph4	A-Ph5	A-Ph6	A-Ph7	A-Ph8	A-Ph9	A-Ph10	A-Ph11	A-Ph12	A-Ph13	A-Ph14	A-Ph15	A-Ph16	

Term	0.00000e+00	0.00000e+00	0.00000e+00	0.00000e+00	0.00000e+00	0.00000e+00	0.00000e+00	0.00000e+00	0.00000e+00	0.00000e+00	0.00000e+00	0.00000e+00	0.00000e+00	0.00000e+00	0.00000e+00	0.00000e+00	0.00000e+00	0.00000e+00	0.00000e+00	0.00000e+00	0.00000e+00	0.00000e+00	0.00000e+00	0.00000e+00	0.00000e+00	0.00000e+00	0.00000e+00	0.00000e+00	0.00000e+00	0.00000e+00	0.00000e+00	0.00000e+00	0.00000e+00	0.00000e+00	0.00000e+00	0.00000e+00	0.00000e+00	0.00000e+00	0.00000e+00	0.00000e+00	0.00000e+00	0.00000e+00	0.00000e+00	0.00000e+00	0.00000e+00	0.00000e+00	0.00000e+00	0.00000e+00	
Factor	1.00000e+00	1.00000e+00	1.00000e+00	1.00000e+00	1.00000e+00	1.00000e+00	1.00000e+00	1.00000e+00	1.00000e+00	1.00000e+00	1.00000e+00	1.00000e+00	1.00000e+00	1.00000e+00	1.00000e+00	1.00000e+00	1.00000e+00	1.00000e+00	1.00000e+00	1.00000e+00	1.00000e+00	1.00000e+00	1.00000e+00	1.00000e+00	1.00000e+00	1.00000e+00	1.00000e+00	1.00000e+00	1.00000e+00	1.00000e+00	1.00000e+00	1.00000e+00	X	X	X	X	X	X	X	X	X	X	X	X	X	X	X	X	

B = Detector Channel
Val Type	B-AC1	B-AC2	B-AC3	B-AC4	B-AC5	B-AC6	B-AC7	B-AC8	B-AC9	B-AC10	B-AC11	B-AC12	B-AC13	B-AC14	B-AC15	B-AC16	B-DC1	B-DC2	B-DC3	B-DC4	B-DC5	B-DC6	B-DC7	B-DC8	B-DC9	B-DC10	B-DC11	B-DC12	B-DC13	B-DC14	B-DC15	B-DC16	B-Ph1	B-Ph2	B-Ph3	B-Ph4	B-Ph5	B-Ph6	B-Ph7	B-Ph8	B-Ph9	B-Ph10	B-Ph11	B-Ph12	B-Ph13	B-Ph14	B-Ph15	B-Ph16	

Term	0.00000e+00	0.00000e+00	0.00000e+00	0.00000e+00	0.00000e+00	0.00000e+00	0.00000e+00	0.00000e+00	0.00000e+00	0.00000e+00	0.00000e+00	0.00000e+00	0.00000e+00	0.00000e+00	0.00000e+00	0.00000e+00	0.00000e+00	0.00000e+00	0.00000e+00	0.00000e+00	0.00000e+00	0.00000e+00	0.00000e+00	0.00000e+00	0.00000e+00	0.00000e+00	0.00000e+00	0.00000e+00	0.00000e+00	0.00000e+00	0.00000e+00	0.00000e+00	-1.95322e+02	-1.31664e+02	-1.35514e+02	-1.83507e+02	-9.14092e+01	-5.93382e+01	-1.57852e+02	-1.62015e+02	-9.36674e+01	-6.54123e+01	-1.76234e+02	-1.71211e+02	-1.81698e+02	-1.78091e+02	-8.68548e+01	-1.51000e+02	
Factor	4.07472e-05	1.94038e-04	5.01386e-05	4.44362e-01	1.74494e-06	1.67566e-06	1.66286e-01	6.31906e-02	2.08765e-06	1.66474e-06	2.13853e-01	2.89034e-02	2.88634e-02	9.13376e-03	1.93495e-06	1.32076e-02	3.19055e-06	3.47120e-06	9.67125e-07	2.29784e-01	3.78690e-08	3.80063e-08	8.23849e-02	3.32550e-02	3.75348e-08	3.80335e-08	1.05779e-01	1.48008e-02	1.52162e-02	4.84302e-03	3.76195e-08	6.77457e-03	X	X	X	X	X	X	X	X	X	X	X	X	X	X	X	X	



#DISTANCE SETTINGS
A = Detector Channel
A-1	A-2	A-3	A-4	A-5	A-6	A-7	A-8	A-9	A-10	A-11	A-12	A-13	A-14	A-15	A-16	

2.5000e+00	3.0000e+00	2.5000e+00	3.0000e+00	2.0000e+00	3.0000e+00	1.5000e+00	3.0000e+00	3.0000e+00	3.0000e+00	3.0000e+00	3.0000e+00	3.0000e+00	3.0000e+00	1.5000e+00	3.0000e+00	

B = Detector Channel
B-1	B-2	B-3	B-4	B-5	B-6	B-7	B-8	B-9	B-10	B-11	B-12	B-13	B-14	B-15	B-16	

1.0000e+01	1.0000e+01	1.0000e+01	1.4400e+00	1.0000e+01	1.0000e+01	1.5100e+00	1.9400e+00	1.0000e+01	1.0000e+01	1.9900e+00	2.4900e+00	2.4100e+00	2.9000e+00	1.0000e+01	2.9800e+00	




#DATA BEGINS
time	group	step	mark	flag	A-AC1	A-AC2	A-AC3	A-AC4	A-AC5	A-AC6	A-AC7	A-AC8	A-AC9	A-AC10	A-AC11	A-AC12	A-AC13	A-AC14	A-AC15	A-AC16	A-DC1	A-DC2	A-DC3	A-DC4	A-DC5	A-DC6	A-DC7	A-DC8	A-DC9	A-DC10	A-DC11	A-DC12	A-DC13	A-DC14	A-DC15	A-DC16	A-Ph1	A-Ph2	A-Ph3	A-Ph4	A-Ph5	A-Ph6	A-Ph7	A-Ph8	A-Ph9	A-Ph10	A-Ph11	A-Ph12	A-Ph13	A-Ph14	A-Ph15	A-Ph16	B-AC1	B-AC2	B-AC3	B-AC4	B-AC5	B-AC6	B-AC7	B-AC8	B-AC9	B-AC10	B-AC11	B-AC12	B-AC13	B-AC14	B-AC15	B-AC16	B-DC1	B-DC2	B-DC3	B-DC4	B-DC5	B-DC6	B-DC7	B-DC8	B-DC9	B-DC10	B-DC11	B-DC12	B-DC13	B-DC14	B-DC15	B-DC16	B-Ph1	B-Ph2	B-Ph3	B-Ph4	B-Ph5	B-Ph6	B-Ph7	B-Ph8	B-Ph9	B-Ph10	B-Ph11	B-Ph12	B-Ph13	B-Ph14	B-Ph15	B-Ph16	aux-1	digaux	

1196.142	1	1	0	256	0.084746	0.087253	0.23311	0.24945	0.031112	0.26816	0.035927	0.088176	0.25556	0.05746	0.061164	0.078228	0.026082	0.03242	0.10904	0.22316	-2.8792	-2.7812	-3.2167	-3.1542	-2.8854	-3.3187	-3.1479	-3.1083	-3.2833	-2.8458	-3.1188	-3.1583	-3.0021	-3.2938	-2.9292	-3.275	254.169	17.310	140.130	249.009	221.021	256.868	307.702	274.308	23.165	266.021	128.768	219.462	-4.917	241.938	220.523	-13.950	0.00023121	7.4243e-05	0.00021863	1243	3.3666e-06	4.0287e-06	1312	271.26	4.6835e-06	4.2073e-06	331.79	95.327	78.157	22.521	7.6132e-06	30.788	0.00034752	0.00039386	0.00011922	1215.8	3.9773e-06	4.2312e-06	1296.2	269.72	3.7146e-06	4.4014e-06	332.02	96.32	78.566	22.877	4.2452e-06	31.102	79.548	-26.425	40.591	-32.485	124.184	118.134	-32.129	-24.602	98.620	83.228	-25.006	-18.349	-18.178	-10.882	69.971	-11.528	-8191	255	
1196.238	1	1	0	0	0.13927	0.11025	0.081291	0.15553	0.081998	0.1181	0.14895	0.28687	0.1761	0.21477	0.2059	0.36475	0.46355	0.15925	0.22309	0.17152	-2.8896	-2.9958	-3.1021	-3.2104	-2.9896	-3.2604	-3.2146	-2.8146	-3.3479	-2.8625	-3.2021	-3.2583	-2.8271	-3.2812	-3.0979	-3.0563	240.497	55.189	209.301	67.599	265.362	75.759	176.511	283.901	226.993	278.401	309.932	305.997	297.263	57.793	56.584	-17.283	0.00021109	0.00027104	6.1418e-05	1226.6	1.0907e-06	3.3718e-06	1294.3	267.78	3.3001e-06	5.0225e-06	330.41	95.201	77.709	22.221	3.756e-06	30.251	0.00033765	0.00039346	0.00010548	1200.8	3.7108e-06	4.1616e-06	1279.8	267.11	3.6342e-06	4.1354e-06	327.36	95.628	77.887	22.611	3.7848e-06	30.766	67.354	-8.208	135.992	-32.490	-26.300	231.806	-32.262	-24.842	73.890	132.287	-25.105	-18.539	-18.430	-10.673	3.279	-11.448	-8191	255	
1196.334	1	1	0	0	0.18957	0.12517	0.11801	0.37597	0.134	0.08489	0.33	0.24141	0.18519	0.21273	0.061011	0.11649	0.23735	0.49861	0.26319	0.11253	-2.9375	-2.9104	-3.2375	-3.2104	-3	-3.1854	-3.1292	-2.9604	-3.1688	-3.0646	-3.0667	-3.3396	-2.9375	-3.3542	-3.1854	-3.0875	-29.623	-24.476	299.003	257.015	14.699	-21.649	241.957	251.267	316.250	161.822	18.060	147.645	-34.858	285.672	65.967	294.713	0.00037973	0.00056121	9.5746e-05	1216.9	3.829e-06	5.9599e-06	1292.5	267.57	4.5957e-06	2.697e-06	326.78	94.564	77.081	22.128	1.1321e-06	30.075	0.000326	0.00037663	9.4903e-05	1190	3.5447e-06	4.0541e-06	1271.2	264.87	3.498e-06	3.7721e-06	324.29	94.692	77.489	22.5	3.334e-06	30.517	55.511	99.115	97.733	-32.380	-33.675	48.516	-32.103	-24.800	27.538	103.020	-24.819	-18.479	-17.780	-10.566	43.620	-11.420	-8191	255	
1196.455	1	1	0	0	0.21149	0.17901	0.23494	0.044649	0.062485	0.10312	0.24786	0.17185	0.045953	0.20972	0.33507	0.081364	0.074186	0.23034	0.072124	0.0437	-3.0042	-2.9771	-3.1146	-3.4208	-2.9708	-3.2458	-3.3396	-3.1354	-3.4292	-3.1125	-3.0646	-3.3729	-2.9104	-3.1396	-3.1292	-2.975	161.951	230.941	47.595	-16.164	199.805	210.808	232.411	300.300	-27.157	83.728	277.900	262.458	38.806	234.498	224.673	294.568	0.00028326	0.00073907	0.00012309	1195.9	4.2135e-06	5.2482e-06	1276.2	264.37	1.3379e-06	2.2952e-06	328.44	94.178	76.82	21.884	1.2315e-06	30.156	0.00030469	0.00032537	8.0517e-05	1173.4	3.503e-06	3.4569e-06	1259.1	262.32	3.4165e-06	3.3504e-06	322.52	94.201	76.943	22.289	2.9814e-06	30.438	76.900	56.536	-4.008	-31.881	190.472	103.295	-32.239	-24.671	190.575	89.360	-24.894	-18.422	-18.065	-10.583	55.270	-11.564	-8191	255	
1196.551	1	1	0	0	0.12163	0.2976	0.15473	0.15068	0.16121	0.28594	0.22934	0.03673	0.083829	0.076588	0.17291	0.13875	0.17932	0.28262	0.056854	0.093226	-2.8438	-3.1708	-3.2292	-3.3792	-2.9437	-2.8875	-3.2708	-2.9479	-3.2583	-2.9958	-3.1729	-3.2708	-3.0687	-3.125	-3.4313	-3.0083	151.232	-21.629	241.104	-14.428	109.572	283.213	142.654	-20.836	68.754	82.399	-20.783	285.676	1.660	18.674	245.799	265.352	0.00040452	0.00044789	0.00011476	1199	1.7565e-06	3.1695e-06	1276.9	263	6.9676e-06	2.7218e-06	325.53	93.962	76.652	21.902	7.4413e-06	30.241	0.00031622	0.00029703	7.8454e-05	1168.2	3.5107e-06	3.2263e-06	1254.7	261.43	3.5592e-06	3.1471e-06	320.41	93.96	76.939	22.237	2.9261e-06	30.341	69.063	45.730	68.103	-31.875	152.890	84.121	-32.084	-24.575	90.255	168.596	-24.988	-18.139	-17.920	-10.526	89.767	-11.291	-8191	255	
1196.647	1	1	0	0	0.17124	0.10049	0.18601	0.067751	0.26027	0.28234	0.34785	0.25051	0.12375	0.1094	0.1158	0.20467	0.14271	0.24306	0.21433	0.18329	-2.7438	-2.9625	-2.8604	-3.1167	-2.9604	-3.0833	-3.55	-2.8646	-3.2104	-3.1396	-2.9375	-3.3146	-3.1417	-2.9333	-3.2896	-3.0979	245.693	-24.894	-16.124	36.672	35.322	20.598	220.815	224.093	28.928	209.394	186.001	282.391	292.124	-35.757	149.100	260.849	0.00030681	0.00095607	0.00015007	1194.1	4.8274e-06	5.8583e-06	1268.4	263.03	2.8993e-06	3.7965e-06	323.91	93.782	76.414	22.021	1.6851e-06	29.953	0.00031403	0.00028887	7.5591e-05	1167.7	3.5779e-06	3.1932e-06	1253.7	261.09	3.4734e-06	3.1725e-06	319.57	93.936	76.68	22.248	2.9083e-06	30.357	42.258	50.843	-9.820	-32.208	209.491	92.256	-32.200	-24.578	32.299	102.071	-25.068	-18.269	-17.870	-10.852	123.075	-11.391	-8191	255	
1196.744	1	1	0	0	0.03385	0.066599	0.36144	0.19243	0.10489	0.050063	0.28004	0.17113	0.14746	0.079991	0.29875	0.2425	0.21524	0.20509	0.18874	0.17794	-2.8896	-3.1021	-2.7958	-3.1771	-2.9646	-2.9875	-3.5396	-3.0417	-3.2062	-3.25	-2.9792	-3.3396	-3.1375	-3.0104	-3.4021	-2.95	37.634	41.429	76.269	96.722	313.551	220.282	261.165	255.050	-36.337	198.705	288.488	0.067	-11.707	31.875	207.799	180.937	0.00029249	0.00033435	7.2628e-05	1194.1	3.005e-06	3.3426e-06	1264.7	261.65	4.4712e-06	1.7084e-06	324.64	92.931	76.366	21.862	8.7178e-06	29.909	0.0003107	0.0002772	7.5821e-05	1167.7	3.321e-06	2.9971e-06	1247.1	260.02	3.3185e-06	2.8957e-06	319.38	93.608	76.338	22.154	2.9092e-06	30.233	65.342	136.607	50.807	-32.263	80.923	144.075	-32.010	-24.780	162.630	138.197	-25.259	-18.093	-17.955	-10.669	59.593	-11.361	-8191	255	
1196.840	1	1	0	0	0.24333	0.15127	0.0073861	0.0471	0.0082634	0.28767	0.24024	0.046581	0.053422	0.33712	0.049984	0.054186	0.22021	0.14881	0.10384	0.12383	-2.7062	-3.2542	-2.8667	-3.2188	-3.0479	-3.0104	-3.4979	-3.1292	-3.0521	-3.2542	-2.8979	-3.2313	-3.0458	-2.8354	-3.2896	-3.0896	178.505	227.540	-40.550	134.252	236.943	99.781	266.433	279.097	126.659	267.875	267.647	295.295	211.997	309.556	211.733	296.346	0.00027013	0.00021104	2.3932e-05	1185.5	1.8439e-06	3.123e-06	1264.7	261.66	1.3676e-06	4.8944e-06	323.65	92.685	76.426	21.646	5.5143e-06	29.83	0.00029253	0.00026762	7.6361e-05	1161.2	3.1402e-06	2.9684e-06	1245.7	259.57	3.1476e-06	2.8686e-06	319.23	93.496	76.111	22.073	3.2147e-06	30.303	58.791	47.364	55.799	-32.292	105.252	123.927	-32.104	-24.475	131.877	111.740	-24.995	-18.360	-18.057	-10.661	43.307	-10.995	-8191	255	
1196.936	1	1	0	0	0.10436	0.12418	0.23219	0.30259	0.045655	0.10768	0.045734	0.14325	0.11119	0.17513	0.15843	0.118	0.05881	0.12656	0.12662	0.0883	-2.6083	-3.0563	-2.8563	-3.1396	-3.0479	-3.0833	-3.5312	-3.0417	-3.1167	-3.2	-3.0938	-3.1458	-3.1979	-2.8854	-3.2812	-3.1979	17.012	181.089	-3.117	278.770	169.172	46.211	267.234	238.908	109.964	257.509	55.688	247.311	26.571	167.259	300.309	205.641	0.00012505	0.00037581	9.5751e-05	1187.4	2.9065e-06	3.2712e-06	1258.9	262.3	4.0772e-06	1.5488e-06	323.69	92.4	75.584	21.932	3.1588e-06	29.576	0.00028482	0.00026043	8.357e-05	1160.7	3.0057e-06	2.904e-06	1241.8	259.64	3.1446e-06	2.8755e-06	319.05	93.145	75.868	22.108	3.3716e-06	30.106	43.656	-27.604	-20.879	-32.365	153.913	111.022	-32.170	-24.705	-25.534	-16.589	-25.099	-18.434	-17.764	-10.544	240.756	-11.300	-8191	255	
1197.032	1	1	0	0	0.13882	0.047706	0.073335	0.095998	0.12748	0.11515	0.18503	0.19372	0.08863	0.15624	0.24781	0.23535	0.21078	0.18098	0.087234	0.030576	-2.5542	-3.2292	-2.9188	-3.0167	-3.3417	-2.9021	-3.3229	-3.2521	-3.0958	-3.3187	-3.0438	-3.2167	-3.4125	-2.9208	-3.25	-3.2188	74.268	-32.885	77.048	150.768	137.319	54.268	214.620	-31.086	95.895	141.923	69.557	307.517	107.007	300.511	166.353	50.041	0.00020929	0.00046441	0.00016097	1187.2	1.0805e-06	2.7111e-06	1255	261.48	7.4457e-06	2.343e-06	320.88	92.49	75.905	21.842	2.4664e-06	29.821	0.00028106	0.00026892	8.8619e-05	1157.3	3.0237e-06	3.0624e-06	1240.1	259.14	3.0754e-06	2.9743e-06	318.31	93.054	75.825	22.068	3.6034e-06	30.121	67.289	31.589	128.811	-31.974	20.753	123.814	-32.013	-24.697	122.282	102.082	-25.038	-18.211	-17.779	-10.647	-39.563	-11.048	-8191	255	
1197.153	1	1	0	0	0.17188	0.22948	0.122	0.035965	0.16167	0.1841	0.07269	0.058748	0.11863	0.09885	0.21144	0.12829	0.10611	0.095236	0.20703	0.12037	-2.6417	-3.2313	-2.8937	-3.0521	-3.0271	-2.7792	-3.2854	-3.3292	-2.7292	-3.3	-3.1271	-3.1542	-3.3146	-2.9271	-3.3167	-3.1	49.116	216.962	43.026	152.936	178.814	99.438	309.191	218.873	97.128	-13.615	160.615	262.026	-40.818	12.012	148.936	-27.919	0.0003034	0.00073409	0.00015233	1182.4	1.0276e-06	2.2557e-06	1255.7	260	4.6775e-06	4.4272e-06	319.94	93.124	75.741	21.649	7.5494e-06	29.681	0.00028462	0.00029247	9.2016e-05	1155.1	3.0344e-06	3.1742e-06	1237.8	258	3.0386e-06	3.1962e-06	317.58	93.102	75.748	22	3.503e-06	30.033	50.812	19.962	47.611	-32.167	1.432	21.254	-32.187	-24.723	154.057	125.746	-24.963	-18.533	-17.799	-10.742	98.377	-11.355	-8191	255	
1197.247	1	1	0	0	0.20979	0.17443	0.13463	0.15103	0.06956	0.097374	0.21236	0.21664	0.17947	0.095379	0.21401	0.13422	0.17589	0.09685	0.097939	0.08179	-2.3958	-3.1188	-3.0229	-2.9271	-3.2833	-2.9708	-3.2562	-3.2188	-2.8937	-3.2896	-3.1125	-3.0896	-3.3896	-2.8375	-3.1625	-3.2417	166.147	225.619	305.981	137.801	115.640	244.443	215.660	274.541	265.124	279.514	-35.925	-40.414	304.503	9.660	-17.497	302.477	0.00031176	0.00027023	0.00023619	1178.4	3.7582e-06	6.5801e-06	1253.6	259.53	1.417e-06	4.4114e-06	318.02	92.176	75.213	21.67	5.8359e-06	29.463	0.00027546	0.00030835	8.6767e-05	1150.4	3.0399e-06	3.4381e-06	1236.4	257.63	2.9846e-06	3.4219e-06	316.01	92.659	75.639	22.022	3.2316e-06	30.019	76.714	265.618	27.837	-32.124	168.292	163.492	-32.015	-24.500	58.200	117.038	-25.088	-18.372	-17.412	-10.734	66.517	-11.220	-8191	255	
1197.343	1	1	0	0	0.0362	0.22684	0.17973	0.23937	0.14771	0.092415	0.08202	0.30908	0.22036	0.062545	0.23485	0.24286	0.067133	0.14797	0.17691	0.20323	-2.4292	-3.3375	-2.95	-3.0292	-3.4688	-2.9625	-3.2896	-3.2167	-2.8333	-3.1396	-3.175	-2.9896	-3.2292	-2.9688	-3.1104	-3.2708	83.684	299.830	273.879	-31.018	173.750	116.827	200.100	172.804	40.707	233.323	287.521	303.420	171.753	241.249	301.864	309.347	0.00034977	7.8169e-05	5.051e-05	1185.8	8.4959e-06	3.8417e-06	1249.2	258.89	3.2013e-06	5.9242e-06	317.97	92.887	75.596	21.786	1.0736e-06	29.756	0.00027592	0.00031825	8.032e-05	1151.6	3.0046e-06	3.4641e-06	1234.9	257.09	3.1368e-06	3.4446e-06	314.5	92.751	75.652	22.076	3.1914e-06	29.941	69.969	-9.172	236.218	-32.052	102.631	140.226	-32.066	-24.677	161.034	156.032	-24.572	-18.260	-18.091	-10.496	17.303	-11.526	-8191	255	
1197.439	1	1	0	0	0.14611	0.097218	0.1382	0.16733	0.071774	0.029999	0.13531	0.28779	0.16084	0.061337	0.11061	0.08607	0.0734	0.15748	0.029924	0.097828	-2.4625	-3.2667	-3.0687	-2.8521	-3.3208	-3.0687	-3.3604	-3.3125	-2.8458	-3.2438	-3.2104	-2.9208	-3.3917	-3.0083	-2.9333	-3.2479	-34.668	110.740	185.558	297.171	207.754	58.391	230.071	17.849	48.787	190.767	-37.892	63.167	204.409	-19.054	229.240	212.632	0.00029897	2.6804e-05	0.00016283	1176.9	8.4067e-06	3.2613e-06	1253	259.94	3.4385e-06	4.4279e-06	319.38	92.128	75.631	21.661	5.9248e-06	29.383	0.00029711	0.00031975	8.167e-05	1150.8	3.3196e-06	3.5441e-06	1233.1	257.96	3.3152e-06	3.4331e-06	315.15	92.316	75.787	21.981	3.0738e-06	29.828	90.470	-10.561	32.111	-32.360	133.280	98.951	-31.889	-24.361	220.800	114.515	-25.166	-18.329	-18.060	-10.868	66.520	-11.369	-8191	255	
1197.535	1	1	0	0	0.23321	0.070081	0.25953	0.30789	0.15528	0.072261	0.13355	0.10372	0.2353	0.14565	0.17477	0.069451	0.22162	0.3226	0.025483	0.05486	-2.4271	-3.1125	-3.1708	-3.0042	-3.0938	-2.9604	-3.2292	-3.1958	-2.875	-3.05	-3.275	-2.9208	-3.2208	-3.0646	-2.9	-3.2375	93.216	198.691	104.969	313.107	232.647	216.024	209.528	299.027	70.260	307.380	230.551	217.728	9.210	137.951	214.286	25.899	0.00030944	0.00044827	6.5531e-05	1179.5	6.3846e-06	3.312e-06	1249.4	259.42	6.656e-06	2.3799e-06	319.09	92.517	75.174	21.637	4.0376e-06	29.5	0.00030544	0.00030345	7.5125e-05	1147.3	3.4828e-06	3.2175e-06	1232.8	256.85	3.4311e-06	3.1901e-06	313.94	92.487	75.726	21.956	3.0052e-06	29.851	52.888	64.726	23.792	-32.178	133.158	73.060	-31.995	-24.775	146.368	108.315	-24.888	-18.306	-17.748	-11.065	176.093	-11.710	-8191	255	
1197.632	1	1	0	0	0.18127	0.21866	0.12521	0.14037	0.08125	0.1133	0.29164	0.21003	0.19686	0.13104	0.15099	0.060911	0.084998	0.2557	0.13616	0.089723	-2.5646	-3.1729	-3.2771	-2.8354	-3.125	-2.9188	-3.1375	-3.4292	-2.9417	-3.1312	-3.1375	-2.8646	-3.2146	-3.1271	-2.9229	-3.3417	97.029	272.949	241.819	304.862	4.610	179.104	214.999	157.754	199.464	267.724	148.243	-26.953	281.451	306.524	254.501	91.583	0.00016265	0.00025968	7.8797e-05	1172.8	4.4858e-06	1.0577e-06	1246.6	258.37	3.8022e-06	2.1259e-06	319.74	91.473	75.165	21.906	3.9032e-06	29.768	0.00031579	0.00028605	7.3639e-05	1149.9	3.4577e-06	3.1091e-06	1231.2	256.61	3.4661e-06	3.0816e-06	314.79	92.423	75.589	22.044	2.9754e-06	30.014	72.723	127.933	93.080	-31.939	149.296	126.601	-32.064	-24.406	143.466	61.201	-24.585	-18.326	-17.685	-10.649	51.099	-11.346	-8191	255	
1197.752	1	1	0	0	0.27883	0.28092	0.13754	0.23692	0.1412	0.11932	0.22933	0.16513	0.064281	0.041855	0.2045	0.15286	0.045518	0.085228	0.028111	0.10513	-2.5	-3.0042	-3.2021	-2.8688	-3.2062	-3.1104	-2.8604	-3.3063	-2.8979	-2.9396	-3.2021	-2.8979	-3.2521	-3.0729	-2.6458	-2.9667	263.233	134.792	185.255	253.030	205.779	144.513	257.079	203.139	311.054	208.956	310.842	280.860	95.333	105.840	32.007	312.421	0.0002758	0.00065821	8.545e-05	1176.3	4.8331e-06	2.9648e-06	1250.1	258.48	5.3e-06	5.6598e-06	320.56	91.829	75.333	21.714	3.6977e-06	29.522	0.00030657	0.00027968	7.3074e-05	1150.2	3.4013e-06	2.9516e-06	1229.4	256.89	3.3587e-06	3.0909e-06	314.85	92.46	75.496	21.926	3.0489e-06	30.002	56.124	37.373	21.496	-32.094	54.129	45.294	-32.001	-24.569	61.681	89.186	-24.422	-18.446	-17.431	-10.587	280.316	-11.164	-8191	255	
1197.848	1	1	0	0	0.25184	0.094951	0.030874	0.12204	0.17955	0.13248	0.41679	0.14429	0.23856	0.20884	0.26368	0.33589	0.11394	0.0896	0.19666	0.22627	-2.6312	-2.9125	-3.2438	-2.9417	-3.1333	-3.2604	-3.1646	-3.3354	-2.8875	-2.85	-3.325	-2.8208	-2.9979	-3.3396	-2.7125	-3.2208	47.314	171.517	192.894	302.477	23.887	280.032	283.664	307.015	108.005	-6.630	96.659	242.100	129.687	200.669	36.704	232.296	0.00022209	0.0003966	0.00015725	1167.1	5.5568e-06	2.6079e-06	1247.1	258.9	2.7338e-06	2.0247e-06	322.7	92.392	75.412	21.713	2.0036e-06	29.287	0.00030357	0.0002781	7.6711e-05	1144.2	3.3301e-06	3.0476e-06	1229.2	257.43	3.2294e-06	3.0268e-06	315.88	92.769	75.515	21.937	3.1622e-06	29.944	66.410	298.072	7.871	-32.151	102.337	182.344	-32.074	-24.867	261.171	106.424	-25.283	-17.937	-17.721	-10.697	141.207	-11.494	-8191	255	
1197.945	1	1	0	0	0.14853	0.20126	0.27549	0.26613	0.093518	0.038205	0.035113	0.062287	0.25374	0.14072	0.14566	0.24558	0.22852	0.11878	0.017704	0.21946	-2.5042	-2.8812	-3.3125	-2.9375	-3.1646	-3.3042	-3.2271	-3.2354	-3.0938	-2.9396	-3.1833	-2.9938	-3.0708	-3.425	-2.9625	-3.2229	80.137	109.719	199.149	297.470	265.469	-21.124	50.221	6.758	178.387	196.717	159.822	204.730	-11.992	271.425	84.012	-8.127	0.00023169	0.0004895	5.5765e-05	1181.9	2.1394e-06	4.8047e-06	1244.5	257.98	4.2145e-06	6.6267e-07	318.18	91.968	75.484	21.555	3.5578e-06	29.305	0.00028523	0.00027254	7.9141e-05	1151.5	3.0652e-06	2.7264e-06	1230.6	256.91	2.8789e-06	2.7585e-06	314.29	92.34	75.263	21.809	3.0197e-06	29.758	50.389	15.257	33.640	-32.067	-39.212	78.724	-31.917	-24.561	191.810	144.901	-24.740	-18.135	-18.121	-10.323	97.750	-11.265	-8191	255	
1198.016	1	1	0	0	0.24682	0.057416	0.16903	0.043712	0.26103	0.12958	0.13476	0.23803	0.12257	0.16371	0.3242	0.19623	0.12203	0.022846	0.34282	0.10895	-2.7687	-2.7646	-3.0979	-2.8854	-2.9875	-3.2292	-2.9729	-3.1396	-3.1542	-2.9792	-3.2792	-3.1	-3.1	-3.1625	-2.825	-3.0479	192.497	178.277	64.292	253.168	-34.985	90.641	284.526	88.867	249.918	241.587	-22.526	180.618	227.349	169.297	93.327	234.913	0.00017199	0.00024691	7.4585e-05	1170.9	3.8041e-06	2.9822e-06	1240.7	257.68	2.7542e-06	1.2714e-06	317.07	91.808	74.522	21.638	6.7246e-07	29.096	0.00024988	0.00023705	7.49e-05	1139.3	2.6911e-06	2.481e-06	1222.4	255.16	2.6455e-06	2.6478e-06	313.25	91.771	74.845	21.797	3.079e-06	29.675	63.133	42.983	-28.472	-31.930	116.790	121.100	-31.748	-24.689	175.729	307.952	-24.746	-18.320	-17.967	-10.559	-41.580	-11.305	-8191	255	
1198.135	1	1	0	0	0.08034	0.13477	0.17337	0.09969	0.22376	0.21712	0.088524	0.25309	0.16073	0.18504	0.12351	0.25703	0.15992	0.17033	0.12729	0.12071	-2.725	-2.9208	-3.325	-3.1354	-3.0479	-3.3521	-3.2	-3.2062	-3.3292	-2.8208	-3.1688	-3.1708	-2.9958	-3.3563	-3.0167	-3.1583	173.108	206.359	125.784	179.403	117.478	216.307	306.933	287.496	285.155	233.770	33.456	279.130	304.067	235.898	85.709	206.451	0.0002777	0.00041561	0.00013303	1165.1	4.9284e-06	3.4202e-06	1237.4	255.58	3.8246e-06	2.776e-06	319.73	91.509	74.968	21.602	4.3951e-06	29.107	0.00024908	0.00025821	7.9772e-05	1136.4	2.7397e-06	2.7812e-06	1220.3	254.14	2.7336e-06	2.8882e-06	312.6	91.698	74.807	21.828	3.117e-06	29.636	64.161	109.909	-15.390	-32.016	106.636	52.426	-32.031	-24.699	111.561	126.990	-24.424	-18.520	-17.830	-10.809	56.459	-11.058	-8191	255	
1198.231	1	1	0	0	0.21796	0.3209	0.016349	0.15158	0.22461	0.11286	0.23491	0.15411	0.19887	0.053621	0.10065	0.12366	0.24234	0.17682	0.18397	0.038588	-2.8667	-2.8396	-3.2729	-3.0771	-2.8604	-3.2062	-3.1167	-3.1583	-3.4875	-2.9	-3.3063	-3.2	-2.8104	-3.3646	-3.1271	-3.1833	231.301	200.780	131.085	239.877	162.174	167.041	248.000	171.070	140.250	276.874	104.385	159.846	-24.876	-35.307	98.051	-8.263	0.00015193	0.00067841	0.00010846	1162.2	2.0565e-06	2.2404e-06	1238.2	256.18	3.4976e-06	3.1209e-06	316.63	91.42	74.693	21.569	4.0642e-06	29.477	0.00024485	0.00027151	7.9081e-05	1133.3	2.6248e-06	3.0734e-06	1222.4	254.21	2.7368e-06	3.1153e-06	312.86	91.726	74.774	21.836	3.0632e-06	29.726	51.808	104.655	68.207	-32.048	132.809	104.806	-32.118	-24.684	176.270	128.919	-24.834	-18.401	-17.991	-10.564	75.721	-11.336	-8191	255	
1198.327	1	1	0	0	0.16169	0.30501	0.048426	0.14127	0.28073	0.11655	0.26636	0.16608	0.070272	0.14097	0.047637	0.27061	0.19917	0.23736	0.14288	0.021654	-2.9604	-3.0021	-3.05	-3.1292	-3.0104	-3.3208	-3.0458	-3.2	-3.3688	-3.0104	-3.1063	-3.375	-2.8688	-3.4542	-3.0187	-3.15	29.694	263.901	238.564	-12.674	166.199	230.511	287.440	233.823	312.148	306.190	130.718	245.582	-33.731	-29.913	179.635	182.266	0.00031041	0.00091086	0.00011712	1165.1	3.3684e-06	4.0745e-06	1235.3	257.2	5.3711e-06	2.7793e-06	319.57	91.066	74.894	21.56	6.6078e-06	29.298	0.00025048	0.00028848	7.7604e-05	1137.5	2.7961e-06	3.2098e-06	1218.3	254.49	2.8039e-06	3.2256e-06	313.07	91.627	74.976	21.874	3.0274e-06	29.663	70.016	51.455	40.491	-32.217	156.628	139.233	-31.954	-24.799	102.231	212.790	-25.549	-18.311	-17.683	-10.462	101.695	-11.234	-8191	255	
1198.424	1	1	0	0	0.057446	0.043948	0.21457	0.12407	0.32477	0.31611	0.20767	0.27455	0.17165	0.062454	0.040617	0.25934	0.095562	0.12547	0.062461	0.24002	-2.7271	-2.8937	-3.0083	-3.325	-2.9646	-3.2104	-3.3104	-3.1333	-3.3312	-3.0187	-3.1021	-3.2438	-3.1271	-3.2062	-3.1688	-2.8187	245.888	256.188	144.649	158.914	-8.130	177.520	256.036	13.913	183.678	10.454	2.023	194.943	145.125	84.773	126.147	301.863	0.00025443	0.0010885	8.0365e-05	1167.6	2.1591e-06	2.6704e-06	1234.3	256.75	5.1265e-06	3.0663e-06	315.44	91.929	74.564	21.486	5.8034e-06	29.268	0.00028182	0.00030897	7.7831e-05	1139.8	3.1733e-06	3.3923e-06	1218.2	254.54	3.2219e-06	3.415e-06	311.73	91.823	74.691	21.75	3.0636e-06	29.62	68.952	33.440	11.958	-32.258	241.235	154.414	-32.118	-24.457	143.686	121.286	-25.564	-18.509	-18.072	-10.558	108.027	-11.175	-8191	255	
1198.520	1	1	0	0	0.075514	0.12222	0.33563	0.3648	0.19805	0.046408	0.18028	0.071277	0.14008	0.22639	0.081449	0.10798	0.22906	0.057262	0.030678	0.12144	-2.9021	-3.025	-3.0146	-3.2417	-2.8958	-3.275	-3.3125	-3.0479	-3.3792	-3.0729	-3.1021	-3.3187	-2.9958	-3.1208	-3.1312	-2.9729	247.895	29.762	34.986	276.680	-10.248	-11.410	283.227	201.547	194.063	274.636	-6.159	271.586	159.521	-38.324	225.087	70.532	0.00035104	0.00039955	5.9724e-05	1166.1	7.0045e-06	2.6625e-06	1233.9	255.93	3.4114e-06	2.5861e-06	317.1	91.555	75.16	21.334	3.8495e-06	28.792	0.00030969	0.00032138	8.0872e-05	1137.4	3.5797e-06	3.4829e-06	1218.1	254.71	3.6784e-06	3.4744e-06	312.14	91.716	75.141	21.743	3.188e-06	29.496	59.292	22.874	-6.051	-31.947	108.606	115.388	-32.154	-24.944	110.986	50.259	-24.660	-18.192	-18.405	-10.896	137.406	-11.396	-8191	255	
1198.640	1	1	0	0	0.19421	0.25758	0.13	0.14905	0.055313	0.097868	0.29964	0.19647	0.092035	0.11095	0.082897	0.1476	0.099917	0.15156	0.22217	0.075185	-2.8292	-3.0896	-3.1042	-3.2646	-3.1	-3.1896	-3.3563	-2.9542	-3.0833	-3.1833	-2.9125	-3.2125	-3.0354	-3.1417	-3.2375	-3.0354	80.604	163.848	21.508	252.297	13.250	68.645	267.791	-32.793	-18.655	271.039	308.937	143.399	38.090	171.495	-29.794	158.270	0.00028002	0.00092206	4.5574e-05	1170.5	2.3865e-06	4.1555e-06	1241.6	255.63	5.8985e-06	4.4726e-06	319.49	91.679	74.503	21.362	1.8332e-06	28.904	0.00034033	0.00031916	8.4349e-05	1141.4	4.0029e-06	3.518e-06	1222	254.2	3.9032e-06	3.4663e-06	313.87	91.651	74.898	21.653	3.2441e-06	29.51	60.234	-1.195	14.839	-31.948	50.566	122.721	-32.079	-24.529	77.257	20.360	-24.928	-18.360	-18.230	-10.402	18.441	-11.214	-8191	255	
1198.712	1	1	0	0	0.16112	0.19088	0.031267	0.24322	0.32464	0.10105	0.087107	0.1696	0.21031	0.08834	0.25437	0.21586	0.24794	0.05733	0.15407	0.21805	-2.9167	-3.1229	-2.9792	-3.2667	-3.0333	-3.0792	-3.4354	-2.925	-3.1125	-3.1042	-2.9188	-3.2042	-2.8771	-3.0062	-3.1813	-2.9125	-39.496	128.644	159.365	147.089	32.613	306.581	206.244	-26.951	42.948	300.237	221.158	178.185	-40.297	114.401	36.012	138.709	0.00026837	0.00067157	0.00011543	1174.6	3.033e-06	2.8107e-06	1240.9	255.67	5.4805e-06	1.1708e-06	314.5	90.104	74.756	21.297	5.8667e-06	29.049	0.00034311	0.00031767	8.3761e-05	1147.7	3.8524e-06	3.4023e-06	1221.1	254.9	3.7607e-06	3.3496e-06	311.75	91.283	74.523	21.584	3.2571e-06	29.468	61.744	53.748	-23.579	-31.991	155.026	74.649	-32.083	-24.561	34.573	97.928	-25.177	-18.199	-17.839	-10.594	49.686	-11.120	-8191	255	
1198.833	1	1	0	0	0.01518	0.075712	0.12876	0.10423	0.37291	0.23811	0.10088	0.071935	0.086283	0.23375	0.3124	0.022125	0.2259	0.042816	0.061085	0.080186	-2.8375	-3.3104	-2.7958	-3.2167	-2.8708	-2.8521	-3.5396	-2.8479	-2.8542	-3.1562	-2.8563	-3.2625	-2.9854	-2.9688	-3.4188	-2.9354	218.723	217.974	114.552	45.819	54.100	16.066	245.507	260.932	-30.810	137.786	155.058	48.294	85.126	289.389	83.616	242.173	0.00027939	0.00020386	4.1708e-05	1169.5	6.8485e-06	4.2939e-06	1236.8	258.4	1.8517e-06	5.51e-06	316.77	91.322	74.342	21.191	3.2176e-06	28.828	0.00032239	0.00030152	8.282e-05	1144.7	3.6113e-06	3.3588e-06	1221.6	255.33	3.5283e-06	3.1785e-06	311.7	91.587	74.308	21.482	3.3076e-06	29.384	48.477	2.930	133.146	-32.173	42.591	138.445	-32.044	-24.894	11.888	41.516	-25.401	-18.312	-18.160	-10.958	148.493	-11.804	-8191	255	
1198.929	1	1	0	0	0.10922	0.22116	0.089804	0.27231	0.13152	0.12168	0.27683	0.21898	0.32468	0.051848	0.11427	0.25223	0.052123	0.22648	0.14303	0.27422	-2.6188	-3.2625	-2.9813	-3.4083	-2.9542	-2.9562	-3.2542	-3.0479	-2.9042	-3.2417	-2.9333	-3.2271	-3.1875	-3.0062	-3.3833	-3.0833	-7.460	177.021	249.785	115.228	-1.635	43.524	289.795	264.418	303.885	239.873	157.474	291.131	214.228	281.429	27.440	264.250	0.00022367	0.00043706	2.9309e-05	1173.3	1.764e-06	4.6626e-06	1233.8	255.5	5.1257e-06	2.6717e-06	315.69	90.891	74.01	21.246	2.9699e-06	29.104	0.00031048	0.00029075	8.7229e-05	1143.6	3.3681e-06	3.1331e-06	1220.7	254	3.3298e-06	3.0463e-06	311.17	91.344	74.065	21.517	3.5497e-06	29.396	57.216	14.296	88.520	-31.976	167.046	48.673	-31.852	-24.799	92.867	166.439	-24.976	-18.584	-17.759	-10.772	139.526	-11.634	-8191	255	
1199.025	1	1	0	0	0.13616	0.14124	0.21991	0.078989	0.16584	0.11959	0.13215	0.2317	0.055143	0.13354	0.16393	0.17449	0.34428	0.060199	0.1844	0.16492	-2.5687	-3.0375	-2.8917	-3.1021	-3.1396	-2.7729	-3.3604	-3.0021	-3.0125	-3.1083	-3.0417	-3.0333	-3.3063	-2.8917	-3.3833	-3.0958	313.542	-17.191	187.619	267.021	50.733	218.358	9.733	305.205	81.866	98.309	-29.381	-23.408	-16.151	310.766	132.146	7.443	0.00028916	0.00036553	0.00016988	1167.8	3.3036e-06	2.2853e-06	1233.8	255.92	4.4394e-06	1.135e-07	315.19	90.568	73.984	21.212	3.5863e-06	28.838	0.00030137	0.0002805	9.064e-05	1143.2	3.2046e-06	3.0569e-06	1219.9	254.35	3.1784e-06	3.1497e-06	311.64	90.972	74.03	21.453	3.5788e-06	29.278	65.267	-21.797	73.701	-32.142	104.565	9.860	-32.205	-24.811	128.068	286.688	-24.951	-18.141	-17.765	-10.176	59.804	-11.330	-8191	255	
1199.121	1	1	0	0	0.13905	0.14969	0.15388	0.24006	0.012917	0.19942	0.17168	0.15657	0.33388	0.19622	0.2706	0.1451	0.153	0.23216	0.26802	0.093384	-2.5979	-3.3167	-2.8583	-3.0792	-3.2667	-2.8854	-3.5687	-3.1063	-2.9771	-3.2104	-3.0479	-3.0271	-3.2375	-2.8604	-3.2708	-3.1437	231.884	-15.042	109.417	-35.619	192.604	-7.522	282.635	170.772	63.571	12.136	-40.258	50.601	2.117	218.253	73.950	-35.308	0.00021493	0.00035761	0.00010486	1168.7	2.9522e-06	4.1392e-06	1238.4	254.53	6.1899e-06	4.993e-06	315.65	90.656	74.095	21.054	3.1314e-06	28.857	0.00028967	0.00029242	9.4371e-05	1140	3.1154e-06	3.1894e-06	1218.1	253.16	3.1876e-06	3.2265e-06	311.89	91.014	74.077	21.38	3.6086e-06	29.205	77.787	70.575	106.873	-31.980	149.228	145.082	-32.025	-24.897	61.364	166.621	-25.158	-18.118	-17.762	-10.369	-17.674	-11.382	-8191	255	
1199.240	1	1	0	0	0.035092	0.20817	0.03421	0.20889	0.16722	0.14473	0.13928	0.20446	0.13901	0.15197	0.096309	0.24501	0.24037	0.045428	0.080152	0.14199	-2.5	-3.3333	-2.8979	-2.9958	-3.3833	-2.9188	-3.2958	-3.2896	-2.9	-3.2792	-3.0979	-2.9771	-3.2792	-2.9292	-3.1	-3.0667	246.025	315.527	41.841	313.150	9.248	215.363	222.207	297.958	287.909	40.065	111.230	185.724	-22.645	177.776	123.970	147.951	0.00024292	0.0004	0.00019751	1160.6	3.9305e-06	4.1349e-06	1231.9	253.57	3.8423e-06	1.7328e-06	312.71	89.83	73.877	21.109	2.1583e-06	28.791	0.00028379	0.0003001	9.2137e-05	1137.5	2.976e-06	3.3837e-06	1217.4	252.3	3.1033e-06	3.3882e-06	310.41	90.594	73.765	21.412	3.465e-06	29.168	40.907	96.468	0.191	-31.857	39.029	129.940	-32.304	-24.574	150.305	140.248	-24.439	-18.073	-17.800	-10.904	231.005	-11.262	-8191	255	
1199.312	1	1	0	0	0.1526	0.1793	0.14837	0.10131	0.038229	0.19036	0.073821	0.051084	0.1108	0.10397	0.21224	0.059347	0.13772	0.27611	0.13443	0.16861	-2.3937	-3.1604	-3.05	-3.0104	-3.3312	-2.9771	-3.175	-3.0292	-2.8625	-3.2979	-3.1562	-3.0667	-3.2708	-2.9896	-2.9688	-3.2188	-15.080	126.283	205.880	250.974	-35.084	136.007	25.899	80.140	148.320	97.262	300.608	245.049	-30.835	-21.483	62.264	269.467	0.00021925	0.00039629	0.00015759	1163.2	4.7965e-06	1.9354e-06	1234.1	253.09	3.6336e-06	6.1221e-06	314.06	90.506	73.129	21.119	6.1797e-06	28.797	0.00028716	0.00032691	8.6711e-05	1136.1	3.1427e-06	3.7508e-06	1216.3	252.31	3.2665e-06	3.8196e-06	311.16	90.757	73.842	21.435	3.4916e-06	29.178	86.387	13.272	36.193	-32.522	66.630	187.162	-31.935	-24.493	156.665	128.524	-24.734	-18.292	-18.279	-10.937	27.945	-10.874	-8191	255	
1199.432	1	1	0	0	0.14178	0.25302	0.15668	0.10733	0.26759	0.18575	0.16419	0.18287	0.15618	0.10095	0.30517	0.21179	0.22964	0.091231	0.22244	0.31017	-2.525	-3.1417	-2.9938	-3.05	-3.3208	-2.9708	-3.2458	-3.4188	-2.7771	-3.3083	-3.2104	-3.0104	-3.2938	-3.1375	-3.0479	-3.3187	130.977	41.025	31.159	88.783	10.020	60.052	257.534	205.034	47.764	51.831	248.049	280.590	210.936	189.062	135.839	48.181	0.00018666	0.0007557	0.00012104	1167.8	8.4655e-07	4.5886e-06	1227	254.22	4.2941e-06	4.3501e-06	314.01	90.29	74.302	21.159	1.3751e-06	28.662	0.00030205	0.0003509	8.818e-05	1137.8	3.4408e-06	3.8017e-06	1215.2	252.23	3.5029e-06	3.8099e-06	312.09	90.534	74.14	21.391	3.2896e-06	29.104	68.613	69.801	-37.515	-32.399	180.085	105.528	-32.089	-25.091	154.759	49.249	-25.157	-18.362	-18.109	-10.867	136.894	-11.417	-8191	255	
1199.528	1	1	0	0	0.16197	0.24535	0.0057633	0.20527	0.31081	0.15525	0.28497	0.19912	0.14608	0.23689	0.11464	0.1169	0.16556	0.10892	0.10055	0.2383	-2.3646	-3.1958	-3.0042	-2.9958	-3.3167	-2.8917	-3.0417	-3.4604	-3.0208	-3.1625	-3.3125	-2.9104	-3.3812	-3.1396	-3.1	-3.2229	43.476	115.930	28.717	254.918	257.481	171.503	220.673	289.113	175.454	80.950	124.590	169.640	-25.645	161.617	72.542	39.054	0.00020111	0.00035163	5.2789e-05	1164.9	1.9019e-06	2.8805e-06	1233.6	254.84	6.4967e-06	3.8203e-06	312.77	90.139	73.475	21.094	2.7682e-06	28.739	0.00032252	0.000328	8.1893e-05	1135.7	3.5497e-06	3.5013e-06	1215.7	252.21	3.6253e-06	3.535e-06	309.91	90.784	74.056	21.381	3.2073e-06	29.113	72.769	34.097	17.729	-32.031	-33.823	48.265	-32.035	-24.944	270.444	103.067	-25.457	-18.401	-17.722	-10.658	193.469	-11.223	-8191	255	
1199.625	1	1	0	0	0.1463	0.14755	0.14326	0.34102	0.089491	0.34301	0.20035	0.29646	0.28028	0.21769	0.27452	0.27216	0.15494	0.16226	0.097416	0.24417	-2.6167	-3.1729	-3.0771	-3.0771	-3.3458	-2.7771	-2.9792	-3.3771	-2.9938	-3.2229	-3.3	-3.1729	-3.3104	-3.1146	-2.9729	-3.2667	163.023	94.960	0.901	232.260	-36.918	10.346	204.896	212.758	301.764	311.374	248.308	280.273	-25.156	13.093	-20.013	-32.783	0.00037779	0.00027703	2.8435e-05	1170	2.8246e-06	5.2684e-06	1237.1	254.42	4.5201e-06	5.3987e-06	312.42	90.429	73.744	20.963	2.7604e-06	28.826	0.00033485	0.00031127	8.1222e-05	1138.2	3.7037e-06	3.3639e-06	1215.4	252.7	3.7411e-06	3.3429e-06	308.72	90.622	73.882	21.327	3.1176e-06	29.156	84.466	26.378	71.152	-32.078	171.598	106.396	-32.043	-24.696	26.244	114.577	-25.235	-18.311	-17.848	-10.604	314.147	-11.520	-8191	255	
1199.721	1	1	0	0	0.037665	0.014697	0.093036	0.11584	0.22811	0.055775	0.17887	0.11946	0.049224	0.17772	0.28624	0.16597	0.069766	0.3445	0.21357	0.21993	-2.7396	-3.0146	-3.2083	-3.0667	-3.1604	-3.0875	-3.0292	-3.3458	-3.0854	-3.15	-3.2042	-2.8229	-3.1667	-3.0792	-2.8333	-3.1917	-23.465	-40.865	115.009	294.590	307.714	46.959	282.186	307.856	220.140	94.602	173.501	218.954	55.109	315.270	68.346	-0.352	0.00023374	0.00048525	0.00011447	1162.7	7.14e-07	5.1536e-06	1232.9	253.58	3.7415e-06	2.6999e-06	313.26	90.086	73.597	20.958	6.714e-06	28.716	0.00031893	0.00030069	7.7253e-05	1138.3	3.6045e-06	3.1719e-06	1213.7	252.63	3.5348e-06	3.2848e-06	309.65	90.621	73.753	21.258	3.0114e-06	29.144	84.748	65.482	-3.663	-32.385	121.953	164.778	-31.923	-24.950	33.833	130.233	-25.372	-18.332	-17.930	-10.691	68.537	-11.013	-8191	255	
1199.841	1	1	0	0	0.19769	0.052999	0.15876	0.087818	0.21306	0.1736	0.19712	0.12254	0.13415	0.20226	0.21873	0.057905	0.18811	0.13728	0.17722	0.27551	-2.6854	-3.1	-3.0104	-2.8937	-3.1667	-3.0646	-2.9771	-3.3646	-3.1562	-2.9979	-3.2604	-2.8729	-3.2479	-3.325	-3.05	-3.1292	11.443	82.190	237.269	99.775	73.025	250.751	289.754	-37.168	254.144	178.408	308.987	-22.771	195.948	253.536	41.686	-38.930	0.0001095	0.00025476	0.00014313	1150.1	4.3133e-06	4.0364e-06	1231.8	252.88	2.8609e-06	5.422e-06	314.33	89.757	73.591	21.171	3.278e-06	28.63	0.0003099	0.00028182	7.6832e-05	1134.8	3.4335e-06	3.079e-06	1213.4	252.27	3.4025e-06	3.0301e-06	310.19	90.452	73.622	21.317	3.1943e-06	29.134	67.669	46.416	102.465	-32.290	67.487	207.799	-31.966	-24.945	44.682	156.095	-25.211	-18.052	-17.983	-10.684	127.799	-10.818	-8191	255	
1199.937	1	1	0	0	0.21936	0.18762	0.10733	0.15442	0.15459	0.11387	0.13269	0.29734	0.11269	0.24824	0.18093	0.031516	0.15813	0.29293	0.031869	0.24535	-2.6854	-2.9562	-3.2729	-3.0229	-3.0042	-3.2667	-2.9688	-3.3375	-3.0958	-2.95	-3.2271	-3.0917	-3.1312	-3.2875	-2.8917	-3.25	217.520	4.999	23.154	-38.353	52.472	140.003	114.155	300.241	194.289	41.552	13.728	20.023	219.672	3.615	30.142	305.832	0.00020404	0.00039443	0.00013701	1160.3	1.5007e-06	5.5129e-06	1231.5	252.76	2.9029e-06	5.7894e-06	311.81	90.138	73.558	20.961	1.1674e-06	28.677	0.00029722	0.00028187	8.0132e-05	1134.2	3.2923e-06	2.8902e-06	1213.6	252	3.2607e-06	3.029e-06	309.61	90.64	73.699	21.273	3.3006e-06	29.152	65.356	58.105	69.996	-32.350	73.035	112.275	-31.942	-24.475	162.855	78.790	-24.713	-18.726	-17.994	-10.488	85.448	-11.554	-8191	255	
1200.009	1	1	0	0	0.39347	0.12208	0.12281	0.3014	0.16482	0.079169	0.071516	0.2093	0.12526	0.21847	0.14652	0.23803	0.077949	0.041594	0.15037	0.096861	-2.6958	-2.7708	-3.1646	-2.9896	-3.1125	-3.2896	-3.1083	-3.2542	-3.1333	-2.8771	-3.2646	-3.0479	-2.8396	-3.2188	-3	-3.3396	287.054	200.030	92.533	144.362	290.975	31.722	252.263	-41.670	234.896	78.401	-20.608	256.125	287.984	201.394	-16.333	-32.283	0.00022935	0.00041121	8.6075e-06	1156	2.9757e-06	5.7745e-06	1231.2	253.09	3.1754e-06	1.5851e-06	313.67	89.896	73.914	20.987	2.1025e-06	28.536	0.00027882	0.00027174	8.6322e-05	1133.1	2.9853e-06	2.8785e-06	1212.8	251.61	3.0156e-06	2.9417e-06	309.21	90.432	73.517	21.236	3.3186e-06	28.976	50.897	120.242	310.093	-32.182	106.345	136.875	-32.194	-24.822	270.353	-17.930	-25.087	-18.603	-17.934	-10.397	140.339	-11.783	-8191	255	
1200.105	1	1	0	0	0.25036	0.22613	0.21614	0.07133	0.094336	0.10457	0.12289	0.089367	0.069596	0.22372	0.20707	0.37393	0.24678	0.15264	0.27839	0.06833	-2.7938	-2.8604	-3.3438	-3.0438	-3.1292	-3.3667	-3.0687	-3.2521	-3.3896	-3.0271	-3.1458	-3.1437	-3.0125	-3.3375	-3.0667	-3.1604	192.334	215.127	108.546	14.918	263.463	305.866	190.874	171.650	24.031	161.913	227.094	280.881	232.070	310.867	135.192	153.712	0.00020611	0.00017416	7.4437e-05	1155.3	2.1753e-06	3.5519e-06	1231	252.33	1.4338e-06	7.6631e-07	314.66	89.745	73.574	20.921	6.7583e-06	28.515	0.00026987	0.00027011	8.6262e-05	1129.6	2.9836e-06	2.9423e-06	1212.7	251.01	2.857e-06	3.0035e-06	310.07	90.008	73.663	21.255	3.358e-06	28.918	87.869	142.709	52.044	-32.056	98.094	124.321	-32.012	-24.537	210.565	238.742	-24.962	-18.242	-17.748	-10.242	72.940	-11.465	-8191	255	
1200.201	1	1	0	0	0.025015	0.11073	0.096879	0.11653	0.034424	0.16958	0.12067	0.16656	0.25926	0.057978	0.07814	0.21594	0.11201	0.13443	0.075276	0.25305	-2.7917	-2.9917	-3.15	-3.0729	-2.9854	-3.2667	-3.0646	-3.1688	-3.2583	-3.0938	-3	-3.1708	-3.0563	-3.2083	-2.9958	-3.0271	-34.457	82.250	105.851	62.243	-29.541	249.234	307.854	179.884	224.114	199.004	267.057	186.748	22.745	228.360	292.200	305.228	0.00025099	0.00015296	0.0001469	1154.7	5.6686e-06	2.4952e-06	1226.8	252.96	2.2703e-06	3.2401e-06	311.73	90.093	73.315	20.929	4.9731e-06	28.6	0.00025756	0.00028524	8.551e-05	1127.3	2.9282e-06	3.1031e-06	1209.6	251.28	2.8111e-06	3.1523e-06	309.21	90.193	73.399	21.247	3.2504e-06	28.964	69.583	24.756	1.505	-32.053	79.423	113.189	-32.016	-24.873	29.019	156.001	-24.981	-18.504	-18.139	-11.040	121.135	-11.598	-8191	255	
1200.320	1	1	0	0	0.066418	0.23165	0.079549	0.28129	0.2288	0.10051	0.18764	0.12625	0.20232	0.15231	0.11428	0.14949	0.059667	0.25064	0.25714	0.28089	-2.7583	-2.7896	-3.1896	-3.1604	-2.8979	-3.2708	-3.3063	-3.0271	-3.2792	-2.8771	-3.1167	-3.3083	-2.7896	-3.2313	-3.0021	-2.9917	54.371	106.038	226.136	-40.516	258.438	256.840	234.415	125.734	162.005	63.281	211.617	241.852	175.481	242.068	125.046	275.909	0.00020538	5.1446e-05	0.00016417	1154.1	3.5474e-06	2.9942e-06	1226.5	252.65	2.5583e-06	3.2668e-06	314.97	90.494	73.233	21.047	2.3669e-06	28.347	0.0002611	0.00030152	8.0765e-05	1128.2	2.8658e-06	3.3274e-06	1209.1	251.07	2.9008e-06	3.2691e-06	309.31	90.442	73.334	21.363	3.1332e-06	28.944	46.772	150.025	75.247	-32.417	71.240	156.097	-31.870	-24.685	128.757	147.332	-24.800	-18.475	-18.275	-10.813	-11.066	-11.409	-8191	255	
1200.416	1	1	0	0	0.42317	0.21345	0.13955	0.32914	0.15336	0.38221	0.33304	0.32965	0.07173	0.11093	0.11966	0.19457	0.13863	0.1852	0.090746	0.25516	-2.8667	-2.8479	-3.0625	-3.0375	-2.9708	-3.15	-3.2438	-2.7812	-3.2667	-3.0438	-3.1417	-3.2562	-2.8375	-3.2896	-3.2042	-2.9437	-37.790	177.196	194.204	183.989	204.204	-38.572	286.583	281.128	104.655	4.604	110.439	-38.101	275.572	300.712	141.277	181.372	0.0003618	0.00051409	0.00011713	1156.6	2.4829e-06	2.8461e-06	1230	254.11	5.1995e-06	2.896e-06	314.18	89.831	73.578	21.012	2.8523e-06	28.619	0.00026946	0.00030875	7.9385e-05	1126.8	3.1345e-06	3.4045e-06	1210.8	250.89	3.1363e-06	3.4874e-06	308.16	90.065	73.656	21.351	3.0491e-06	28.879	66.778	78.955	42.142	-32.154	105.076	223.454	-32.003	-24.532	131.584	60.375	-25.612	-17.859	-17.627	-10.202	126.814	-11.214	-8191	255	
1200.513	1	1	0	0	0.21211	0.13014	0.10924	0.089463	0.084687	0.090725	0.1682	0.19141	0.13129	0.1639	0.1945	0.2146	0.10295	0.12432	0.084231	0.09071	-2.725	-2.8958	-2.9021	-3.2979	-2.95	-3.0771	-3.2521	-2.9062	-3.325	-2.8854	-2.8521	-3.375	-2.9583	-3.2604	-3.1354	-2.9125	275.427	-34.895	67.637	75.782	299.340	305.942	10.111	266.955	243.391	104.613	64.350	-15.256	-42.154	120.012	42.354	307.995	0.00024179	0.0001379	0.00010951	1164.9	3.7005e-06	3.2833e-06	1226.5	252.65	3.2302e-06	4.6224e-06	310.84	89.806	73.13	20.862	3.4795e-06	28.448	0.00029735	0.0003233	7.8797e-05	1131.4	3.3744e-06	3.5247e-06	1209.8	251.26	3.4291e-06	3.3817e-06	307.73	90.135	73.434	21.287	3.0565e-06	28.851	53.618	226.868	48.193	-32.122	27.223	99.577	-32.151	-24.639	45.723	151.684	-25.088	-17.964	-17.685	-10.444	109.964	-11.223	-8191	255	
1200.609	1	1	0	0	0.35269	0.12809	0.1468	0.28606	0.19649	0.2243	0.043206	0.23128	0.10822	0.16696	0.082025	0.073542	0.054576	0.13518	0.24599	0.11654	-3.0021	-2.8896	-3.0083	-3.2354	-2.7917	-3.25	-3.2604	-3.1521	-3.2229	-2.9875	-2.8854	-3.4313	-3.05	-3.1229	-3.2687	-2.8646	194.656	18.115	106.890	-13.274	191.299	169.423	106.932	10.506	23.472	128.663	135.670	35.772	282.680	33.125	119.683	315.235	0.00014941	0.00042825	2.3362e-05	1155.2	3.5898e-06	4.0765e-06	1234.7	253.11	4.2927e-06	6.5599e-06	314.71	89.737	73.345	20.899	1.505e-06	28.618	0.00032327	0.00030249	7.7803e-05	1129.1	3.5244e-06	3.2627e-06	1213.3	251.4	3.6119e-06	3.37e-06	308.81	90.063	73.666	21.237	3.0357e-06	28.945	65.309	29.743	113.027	-31.963	102.085	89.822	-31.979	-24.776	94.917	111.930	-25.294	-18.324	-17.510	-10.774	132.804	-10.941	-8191	255	
1200.705	1	1	0	0	0.17169	0.0504	0.1087	0.10237	0.15702	0.081574	0.33622	0.043984	0.0053249	0.10196	0.24078	0.21681	0.17982	0.24021	0.089358	0.28431	-2.8354	-2.9875	-2.9854	-3.3	-2.9229	-3.2292	-3.3708	-2.9604	-3.2562	-3.1813	-2.9604	-3.3979	-3.1	-2.9521	-3.1	-3.1458	28.592	247.818	218.055	-21.199	12.553	98.988	242.266	41.297	268.850	301.314	210.203	-22.055	309.829	28.203	187.760	276.400	0.00022541	0.00050223	0.00011705	1151.8	5.6092e-06	2.5442e-06	1227.7	252.19	3.7999e-06	3.2969e-06	313.24	89.827	73.426	21.089	2.9473e-06	28.452	0.00031934	0.0002962	7.5935e-05	1129.3	3.566e-06	3.1297e-06	1209.6	251.1	3.5434e-06	3.1282e-06	307.65	90.166	73.525	21.294	2.879e-06	29.001	57.592	34.052	-11.265	-32.107	81.825	199.273	-32.080	-24.762	54.162	112.808	-25.732	-18.212	-18.075	-10.191	95.988	-11.266	-8191	255	
1200.801	1	1	0	0	0.10522	0.097455	0.16792	0.067002	0.40139	0.032421	0.1752	0.028337	0.14412	0.22655	0.29855	0.065965	0.13225	0.078736	0.15926	0.17046	-2.6375	-3.0271	-2.8583	-3.2687	-2.9458	-3.0187	-3.4167	-3.0167	-3.125	-3.1625	-3.0187	-3.1854	-3.0062	-3.0187	-3.175	-2.9958	171.950	133.649	-34.845	157.578	143.643	27.981	282.637	-19.218	241.982	188.102	216.271	192.967	252.903	241.313	282.671	241.148	0.00024974	0.00013849	5.3684e-05	1163.6	4.9128e-06	6.5581e-06	1226.6	252.35	6.2599e-06	3.9958e-06	315.25	89.76	72.887	21.022	5.663e-06	28.579	0.00030811	0.00027665	7.4785e-05	1133.6	3.4193e-06	3.0863e-06	1210.1	251.59	3.3519e-06	3.0707e-06	308.07	90.377	73.435	21.216	3.0241e-06	28.998	67.598	-18.174	46.768	-32.082	62.642	107.600	-32.083	-24.968	303.584	128.571	-25.006	-18.315	-17.900	-10.992	115.014	-11.087	-8191	255	
1200.922	1	1	0	0	0.05214	0.12645	0.098042	0.081812	0.086396	0.091601	0.28542	0.10702	0.045708	0.11627	0.33897	0.23774	0.094693	0.15965	0.19449	0.16899	-2.75	-3.1188	-2.9479	-3.2271	-3.2521	-2.9396	-3.3521	-3.1896	-3.1646	-3.1333	-2.9208	-3.1562	-3.2292	-2.8417	-3.2958	-3.0333	131.741	260.360	240.862	109.798	141.585	-7.161	221.061	254.474	12.584	202.162	237.582	164.762	310.537	211.326	75.280	254.188	0.00025993	0.0007493	0.0001427	1150.8	3.4378e-06	1.1653e-06	1224.2	253.05	2.513e-06	4.1893e-06	309.18	89.968	73.739	20.773	6.615e-06	28.658	0.00029989	0.0002703	7.818e-05	1129.8	3.2059e-06	2.9966e-06	1209.2	251.57	3.2644e-06	2.9976e-06	306.91	90.362	73.456	21.152	3.1759e-06	29.074	66.546	33.448	40.169	-32.197	62.610	143.297	-32.189	-24.438	145.302	13.825	-24.868	-18.366	-18.062	-10.610	110.134	-11.494	-8191	255	
1201.018	1	1	0	0	0.20528	0.048157	0.13558	0.13366	0.14234	0.10664	0.040215	0.18135	0.15578	0.1564	0.18363	0.16835	0.10078	0.13914	0.026354	0.16191	-2.6458	-3.2771	-2.9042	-3.2438	-2.9583	-2.9833	-3.5229	-3.0187	-3.0187	-3.3063	-3.0958	-3.1125	-3.1646	-2.9771	-3.3229	-3.1083	301.391	287.625	176.875	250.271	114.275	23.928	-34.967	40.593	190.064	205.400	216.417	46.993	181.608	215.419	133.184	315.495	0.00011175	0.00020778	3.5173e-05	1159.5	2.7085e-06	1.7879e-06	1230.5	254.24	4.002e-06	7.0473e-06	312.85	90.338	73.603	20.904	6.729e-06	28.696	0.00028495	0.0002673	8.4581e-05	1130.6	3.1345e-06	2.9213e-06	1210.7	251.84	3.1758e-06	2.8772e-06	309.21	90.464	73.517	21.191	3.4365e-06	29.041	91.588	103.162	-8.661	-32.282	74.991	191.185	-32.244	-24.594	11.917	157.153	-24.919	-18.223	-17.981	-10.687	152.849	-11.215	-8191	255	
1201.114	1	1	0	0	0.19548	0.15353	0.088826	0.15039	0.25559	0.22896	0.282	0.13188	0.16529	0.10731	0.048738	0.075739	0.28475	0.33232	0.35714	0.21479	-2.6354	-3.2875	-2.8208	-3.2458	-3.1937	-2.8625	-3.4167	-3.0229	-2.9042	-3.3021	-2.9021	-3.2625	-3.3937	-3.0687	-3.3563	-3.3292	302.419	165.628	297.386	-17.408	124.483	287.155	261.804	33.722	316.602	186.016	114.260	61.202	-5.320	-19.617	150.400	271.582	0.00017187	0.00067349	0.00015085	1162.8	3.9513e-06	3.9049e-06	1221.3	253.02	8.6931e-06	4.8261e-06	313.77	89.445	73.709	21.053	2.8265e-06	28.555	0.0002787	0.00026649	8.9524e-05	1132.5	3.0806e-06	3.0593e-06	1209.1	251.66	3.0043e-06	3.0442e-06	309.62	90.046	73.454	21.271	3.4582e-06	28.994	62.831	22.677	78.199	-31.887	95.327	277.352	-31.926	-24.595	138.197	153.916	-25.407	-18.169	-17.908	-10.468	103.842	-11.109	-8191	255	
1201.208	1	1	0	0	0.1583	0.2498	0.037649	0.27994	0.17138	0.19549	0.065014	0.21746	0.048996	0.14709	0.12798	0.12292	0.23673	0.2646	0.25279	0.14685	-2.6729	-3.2917	-2.9708	-3.2021	-3.3292	-3.0146	-3.4375	-3.1667	-3	-3.4396	-3.1146	-3.1458	-3.3458	-2.8792	-3.1271	-3.0917	10.427	157.380	-6.532	245.372	-42.497	-24.262	68.271	316.230	255.323	74.726	261.631	228.169	254.186	281.042	-8.371	219.827	0.0002323	0.00055913	0.00011208	1157.5	2.3116e-06	4.0453e-06	1231.6	252.69	2.4298e-06	3.0279e-06	310.47	89.611	73.092	20.812	4.2049e-06	28.763	0.00028327	0.00028628	9.2044e-05	1127.6	2.964e-06	3.1883e-06	1212.3	250.98	2.9792e-06	3.2904e-06	308.37	90.095	73.393	21.272	3.4601e-06	28.947	69.946	46.414	5.481	-32.156	-15.252	180.770	-31.998	-24.784	-20.166	173.036	-24.985	-18.370	-18.062	-10.651	106.149	-10.973	-8191	255	
1201.305	1	1	0	0	0.027549	0.14018	0.26574	0.10335	0.046488	0.1687	0.21891	0.16182	0.40575	0.14186	0.12371	0.34804	0.19288	0.069502	0.23495	0.078925	-2.4917	-3.2354	-3.0333	-3.1833	-3.2125	-2.9646	-3.4833	-3.2042	-2.8667	-3.2167	-3.1542	-2.9229	-3.3646	-2.8646	-3.2625	-3.2562	1.391	269.288	125.271	94.662	190.463	212.097	-37.273	154.410	261.587	133.292	116.865	279.410	-24.687	-14.211	162.548	126.368	0.000197	8.1682e-05	0.00018899	1167.5	4.8551e-06	4.8903e-06	1228.7	250.39	3.7122e-06	4.3693e-06	312.43	89.934	73.34	20.884	2.5167e-06	28.728	0.00027507	0.00030549	8.5969e-05	1129.9	2.9947e-06	3.364e-06	1208.3	250.17	2.9893e-06	3.3338e-06	309.04	90.108	73.363	21.254	3.3093e-06	28.936	65.773	227.426	6.782	-32.367	78.018	162.955	-32.214	-24.469	173.246	52.890	-25.074	-18.175	-18.120	-10.156	112.213	-11.416	-8191	255	
1201.401	1	1	0	0	0.1842	0.092249	0.24717	0.022683	0.050825	0.29224	0.18477	0.21881	0.17355	0.028484	0.30792	0.23698	0.26158	0.20946	0.16526	0.22243	-2.6771	-3.2438	-2.9688	-2.8458	-3.2333	-2.9083	-3.1479	-3.1937	-2.9729	-3.3354	-3.0271	-2.9708	-3.2604	-2.9958	-3.175	-3.0875	39.095	249.714	-11.092	104.954	-11.744	282.688	231.564	239.154	241.849	285.474	226.700	71.898	316.294	227.431	14.572	31.049	0.0002088	0.00056268	0.00017578	1156.9	1.9381e-06	3.8307e-06	1227.3	252.32	5.5756e-06	5.4245e-07	313.01	89.853	73.924	21.03	5.2221e-06	28.774	0.00027881	0.00031963	8.1001e-05	1127.7	3.1337e-06	3.5026e-06	1209.1	250.23	3.1411e-06	3.6145e-06	308.49	90.036	73.396	21.324	3.1151e-06	28.954	74.940	21.220	299.600	-31.851	149.463	28.146	-31.986	-24.908	118.337	186.838	-25.117	-18.137	-17.856	-10.686	87.559	-11.397	-8191	255	
1201.497	1	1	0	0	0.061193	0.24326	0.10498	0.19304	0.21535	0.24411	0.22381	0.080068	0.10753	0.054727	0.029531	0.081474	0.048869	0.10887	0.12919	0.043355	-2.4521	-3.175	-3.0062	-2.8521	-3.2521	-3.1646	-3.3292	-3.2083	-2.925	-3.025	-3.1979	-2.9813	-3.3854	-3.0438	-2.9604	-3.2958	161.060	203.290	47.496	278.630	210.928	259.982	239.744	137.772	261.202	18.894	5.073	3.717	65.902	-16.070	206.418	78.907	0.0003015	0.00023802	8.2293e-05	1160.8	5.6143e-06	3.0191e-06	1230.2	252.74	5.5386e-06	3.9951e-06	313.07	90.052	73.045	21.041	3.8131e-06	28.545	0.00029594	0.00032462	8.1613e-05	1128.4	3.2379e-06	3.5538e-06	1209.8	250.64	3.3673e-06	3.4227e-06	308.44	90.277	73.408	21.281	3.1295e-06	28.874	49.424	124.978	56.085	-32.235	109.337	99.020	-31.984	-24.693	117.865	120.721	-24.964	-18.520	-17.974	-10.507	107.321	-11.323	-8191	255	
1201.617	1	1	0	0	0.11098	0.16196	0.09007	0.11575	0.36301	0.052632	0.028894	0.18912	0.14564	0.25763	0.12909	0.058517	0.073283	0.082516	0.14378	0.25276	-2.5187	-3.2333	-3.0062	-3.0062	-3.2771	-3.2521	-3.1792	-3.4104	-2.9458	-3.0021	-3.3729	-3.0271	-3.1688	-3.1083	-2.6937	-3.2	300.519	-30.937	281.955	166.752	87.208	2.552	84.146	149.633	227.426	5.164	150.963	211.901	261.577	267.967	174.875	7.067	0.00028144	0.00016813	6.6769e-05	1149.2	3.0391e-06	3.1533e-06	1225.4	253.38	7.1153e-06	7.1592e-07	312.62	89.567	73.285	21.052	5.1172e-06	28.675	0.00031429	0.00031035	7.7162e-05	1124.4	3.5165e-06	3.3431e-06	1209	250.86	3.618e-06	3.3078e-06	307.55	89.97	73.666	21.276	3.0769e-06	29.01	74.907	204.271	262.846	-31.806	234.944	35.241	-32.095	-24.874	163.121	37.813	-25.115	-17.891	-17.817	-10.544	126.140	-11.693	-8191	255	
1201.714	1	1	0	0	0.070434	0.14054	0.14528	0.19254	0.15384	0.30355	0.22991	0.10438	0.048144	0.25166	0.21482	0.34653	0.29467	0.11782	0.052213	0.13884	-2.5021	-2.9833	-3.1521	-2.9333	-3.2583	-2.8417	-2.9167	-3.3979	-3.1063	-3.0896	-3.2812	-2.8312	-3.3083	-3.15	-3.1104	-3.15	283.895	67.304	119.723	122.278	10.378	307.078	245.869	240.303	263.605	217.973	218.939	-21.927	257.185	253.805	59.483	220.574	0.00028031	0.0008374	1.6513e-05	1158.7	4.8042e-06	1.8106e-06	1224.7	251.72	4.316e-06	6.363e-06	311.17	89.616	73.02	20.973	3.5719e-06	28.608	0.00032867	0.00030461	7.874e-05	1128.9	3.6528e-06	3.2978e-06	1208	250.66	3.6087e-06	3.2847e-06	307.72	90.15	73.376	21.246	3.1002e-06	28.979	54.185	48.350	302.108	-32.422	122.886	265.397	-31.973	-24.606	148.018	104.193	-25.212	-17.994	-17.632	-10.601	132.281	-11.485	-8191	255	
1201.810	1	1	0	0	0.073474	0.26202	0.21404	0.26256	0.26603	0.096577	0.20656	0.047665	0.17725	0.20975	0.20021	0.14196	0.2526	0.059694	0.058048	0.22082	-2.5396	-2.8833	-3.2292	-2.9208	-3.0563	-2.9708	-3.0583	-3.2979	-2.9792	-3.1063	-3.35	-2.8417	-3.2458	-3.075	-3.1479	-3.1542	281.934	283.574	0.332	169.945	-37.246	30.629	-15.950	256.536	7.139	251.531	264.902	308.572	-6.341	-8.884	269.227	100.389	0.00028628	0.00033109	3.1207e-05	1157.3	1.6624e-06	5.0342e-06	1226.2	251.74	6.8381e-06	6.8224e-07	309.73	90.09	73.309	21.052	5.6594e-06	28.437	0.00032269	0.00029118	7.8319e-05	1131.2	3.5837e-06	3.1201e-06	1208.5	250.86	3.5213e-06	3.1519e-06	307.52	90.149	73.467	21.2	3.0816e-06	29.01	55.881	67.875	-18.165	-32.119	138.355	165.948	-32.196	-24.621	82.495	-17.133	-25.002	-18.272	-17.936	-10.569	115.190	-11.235	-8191	255	
1201.881	1	1	0	0	0.1963	0.060102	0.058667	0.20336	0.047666	0.093261	0.211	0.14119	0.10163	0.055763	0.042946	0.11781	0.29293	0.017113	0.21165	0.14891	-2.7292	-2.8937	-3.3479	-3.0729	-3.2958	-3.225	-3.1292	-3.2792	-3.0292	-3.0187	-3.125	-3.0271	-3.1188	-3.2438	-2.9229	-3.2625	190.162	160.860	191.078	240.466	127.706	49.381	297.285	-9.123	28.709	253.738	58.894	233.234	200.801	280.574	-33.110	107.670	0.0002368	0.00036729	9.3173e-05	1155.4	2.7256e-07	4.8418e-06	1224.4	253.58	1.3377e-06	1.1203e-06	311.24	89.512	73.041	20.902	5.38e-06	28.443	0.00030106	0.00028382	7.7787e-05	1129.8	3.3416e-06	2.9471e-06	1207	251.48	3.2481e-06	3.0438e-06	307.11	90.09	73.387	21.182	3.2785e-06	29.001	71.998	-18.424	81.098	-32.233	311.139	146.524	-32.112	-24.656	194.440	85.532	-24.863	-18.037	-17.964	-10.339	75.962	-11.234	-8191	255	
1202.002	1	1	0	0	0.22958	0.024495	0.15872	0.086603	0.25121	0.22313	0.18543	0.31111	0.30481	0.32023	0.16033	0.28735	0.26913	0.13752	0.29308	0.067982	-2.7208	-2.7729	-3.1667	-2.9938	-3.0187	-3.3312	-3.0458	-3.2958	-3.0167	-2.925	-3.1271	-3.0479	-3.0979	-3.2917	-2.7271	-3.3667	115.014	235.386	310.070	279.152	128.611	296.637	217.431	240.494	116.425	246.413	200.080	315.942	316.146	14.981	0.946	311.337	0.00012846	0.00056238	0.00014568	1152.3	4.863e-06	4.2995e-06	1224.4	252.33	4.4226e-06	3.4543e-06	311.48	89.708	73.089	20.864	9.1122e-07	28.406	0.00029031	0.00027458	8.2387e-05	1127.2	3.1656e-06	2.9116e-06	1207.2	250.87	3.1744e-06	2.9883e-06	308.19	90.284	73.345	21.154	3.4412e-06	29.01	38.740	30.691	102.271	-32.178	83.966	252.054	-32.309	-24.460	62.937	125.004	-25.406	-18.575	-17.932	-10.459	228.871	-11.299	-8191	255	
1202.098	1	1	0	0	0.16925	0.12756	0.22225	0.32106	0.23803	0.079977	0.23693	0.24723	0.15698	0.045873	0.090073	0.088376	0.18403	0.17279	0.041948	0.36581	-2.8583	-2.8354	-3.4521	-2.9375	-2.9604	-3.3375	-3.0542	-3.2458	-3.1854	-2.8979	-3.3312	-3.1104	-2.8146	-3.2604	-2.925	-3.0938	244.094	169.675	306.723	136.740	-42.244	102.867	234.055	201.848	7.387	277.218	218.195	171.165	5.647	30.189	97.365	250.321	0.00026155	0.0005774	5.7129e-05	1155.1	4.2746e-06	1.9216e-06	1224.9	252.67	1.3103e-06	2.5846e-06	314.19	89.25	73.071	20.876	7.2339e-06	28.529	0.00027792	0.00026582	8.7366e-05	1129	3.1358e-06	3.01e-06	1207.2	250.68	3.0614e-06	2.9985e-06	310.31	90.013	73.322	21.24	3.488e-06	28.968	78.668	37.804	35.977	-31.902	96.163	92.714	-32.079	-24.608	68.971	136.720	-24.912	-18.316	-17.716	-10.866	100.490	-11.029	-8191	255	
1202.194	1	1	0	0	0.096838	0.13112	0.060888	0.39197	0.17953	0.11925	0.27189	0.095003	0.26999	0.2325	0.28724	0.22757	0.23624	0.11454	0.27492	0.17596	-2.65	-2.8625	-3.2667	-3.075	-2.8688	-3.4146	-2.95	-3.2396	-3.2875	-2.8646	-3.2667	-3.1229	-2.8875	-3.2646	-3.0542	-3.1208	189.417	173.322	178.699	266.681	40.553	16.615	241.682	156.362	316.728	96.435	308.358	307.051	243.332	9.514	278.585	268.774	0.00018566	0.00040054	3.1894e-05	1150.1	3.7532e-06	2.2019e-06	1228	251.38	3.0452e-06	4.2604e-06	310.83	89.705	73.54	20.98	9.7942e-06	28.64	0.00027899	0.00029061	8.7819e-05	1127.5	2.9898e-06	3.077e-06	1207.9	249.98	3.015e-06	3.1703e-06	308.51	89.869	73.377	21.241	3.3805e-06	28.826	62.938	54.843	299.761	-32.170	138.885	108.790	-32.108	-24.741	90.203	90.560	-24.895	-18.209	-18.033	-10.730	86.096	-11.560	-8191	255	
1202.313	1	1	0	0	0.10837	0.039456	0.051258	0.05047	0.094938	0.13992	0.31013	0.20962	0.063467	0.24843	0.16689	0.25844	0.3304	0.26816	0.18662	0.16764	-2.8125	-2.8896	-3.1937	-3.0833	-2.8771	-3.1917	-3.0833	-2.9313	-3.3146	-2.9833	-3.1896	-2.975	-2.9958	-3.175	-3	-3.0312	60.651	81.809	267.169	255.591	80.926	-8.166	298.076	-37.641	48.187	81.982	170.199	200.443	212.700	-37.942	95.790	272.724	0.0001599	0.00018837	0.00015586	1155.1	2.7464e-06	9.6834e-07	1225.9	251.54	3.801e-06	3.1669e-06	311.87	89.423	73.303	20.863	4.512e-06	28.317	0.00026594	0.00029582	8.7869e-05	1125.4	2.9577e-06	3.2984e-06	1207.6	250.08	2.957e-06	3.4412e-06	307.99	89.935	73.218	21.28	3.3947e-06	28.863	47.387	114.532	-0.463	-32.326	152.752	268.377	-32.067	-24.668	47.091	68.723	-25.246	-18.161	-18.564	-10.229	96.524	-11.347	-8191	255	
1202.409	1	1	0	0	0.12913	0.067694	0.15457	0.30369	0.034271	0.032848	0.23753	0.021037	0.19696	0.069903	0.17365	0.061932	0.11807	0.048513	0.23118	0.27776	-2.8438	-2.8083	-3.0208	-2.9688	-2.8917	-3.3	-3.0687	-3.0229	-3.1437	-2.8771	-3.0854	-3.3792	-3.0771	-3.0958	-2.9938	-2.9917	238.243	3.780	221.264	312.832	-25.482	163.049	222.051	311.423	84.621	93.021	270.236	307.864	-24.244	67.645	5.872	305.554	0.00024699	0.0011441	0.00024594	1152.1	3.4785e-06	1.5512e-06	1226.6	252.29	1.0246e-06	2.4687e-06	311.37	89.372	73.303	20.971	1.4793e-06	28.499	0.00027444	0.00031862	8.2312e-05	1123.6	3.0315e-06	3.4777e-06	1206.2	250.32	3.0359e-06	3.4885e-06	307.45	89.815	73.36	21.276	3.1805e-06	28.857	80.663	22.492	67.138	-31.648	132.252	17.014	-32.079	-24.532	312.711	38.250	-25.090	-18.301	-17.536	-10.866	269.795	-11.594	-8191	255	
1202.483	1	1	0	0	0.12007	0.047786	0.17094	0.093196	0.1165	0.11679	0.15804	0.25466	0.047133	0.25949	0.039097	0.27396	0.085933	0.064615	0.081603	0.17216	-2.725	-2.9208	-3.1771	-3.1688	-2.775	-3.1521	-3.225	-3.1208	-3.1292	-2.8458	-3.0333	-3.2125	-2.825	-3.1896	-3.1229	-3.0333	161.497	266.352	189.866	56.662	172.962	296.781	202.413	261.417	128.784	57.401	172.471	12.048	127.280	194.182	171.762	316.909	0.00025769	0.00045441	0.00014723	1153.2	3.4724e-06	1.4474e-06	1222.2	253.08	6.2851e-06	3.0543e-06	311.42	89.386	73.175	20.814	3.4671e-06	28.373	0.00028553	0.00031491	7.9262e-05	1123.9	3.2535e-06	3.4416e-06	1204.5	250.89	3.3153e-06	3.4982e-06	306.87	89.715	73.164	21.209	3.0559e-06	28.816	66.055	36.744	15.024	-32.237	98.531	164.535	-31.903	-24.781	139.900	229.912	-24.858	-18.414	-17.872	-10.883	61.811	-11.253	-8191	255	
1202.602	1	1	0	0	0.14649	0.30358	0.26403	0.14882	0.38312	0.24942	0.17133	0.19522	0.15823	0.21482	0.049226	0.032783	0.13193	0.26806	0.14018	0.28031	-3.0292	-3.0125	-2.9333	-3.3812	-2.825	-3.1896	-3.4896	-3.025	-3.1979	-2.825	-2.825	-3.3417	-3.0271	-3.2229	-3.15	-2.8104	24.415	27.412	163.241	299.792	58.372	187.950	239.620	32.329	189.273	53.808	225.196	161.319	232.917	2.121	7.414	279.154	0.00033125	0.00064469	6.9068e-05	1150.8	5.0691e-06	3.3057e-06	1222.5	251.81	1.1603e-06	4.2877e-06	310.94	90.026	73.445	21.007	5.379e-06	28.516	0.00030185	0.00030257	7.708e-05	1125.1	3.3194e-06	3.2912e-06	1204.2	250.05	3.4301e-06	3.3284e-06	307.61	90.151	73.62	21.274	3.0094e-06	28.898	71.188	43.817	16.147	-32.344	70.564	291.475	-32.028	-24.552	163.656	127.302	-24.987	-18.031	-18.025	-10.393	77.925	-11.259	-8191	255	
1202.698	1	1	0	0	0.16719	0.18839	0.25314	0.11776	0.11628	0.065156	0.15112	0.14741	0.12296	0.043767	0.17707	0.25434	0.12096	0.15994	0.14982	0.13686	-2.6937	-2.9521	-2.7708	-3.2917	-2.9292	-2.8875	-3.475	-3.0104	-3.2687	-3.2604	-2.9479	-3.4	-3.2646	-2.9833	-3.0583	-2.9979	232.707	108.062	278.124	55.120	169.141	176.856	-7.183	188.098	-3.322	144.082	155.643	255.893	-20.146	172.114	224.559	227.780	0.00018924	0.00073886	9.9887e-05	1153.2	2.1382e-06	5.4731e-06	1222.1	253.11	5.6701e-06	1.5504e-06	309.93	89.533	72.949	21.03	1.9096e-06	28.491	0.00031097	0.00029264	7.603e-05	1124.5	3.5632e-06	3.0853e-06	1204.5	250.78	3.4646e-06	3.0173e-06	306.81	89.811	73.334	21.183	2.9438e-06	28.94	29.153	-33.143	78.886	-32.392	118.956	171.641	-32.068	-24.820	148.140	211.400	-25.028	-18.198	-17.513	-10.555	102.712	-11.179	-8191	255	
1202.794	1	1	0	0	0.094867	0.10071	0.12053	0.078545	0.18572	0.29339	0.13247	0.31676	0.15303	0.15825	0.17167	0.26312	0.12578	0.118	0.27832	0.10437	-2.7396	-2.9771	-2.8187	-3.4396	-2.9375	-3.0812	-3.3271	-2.9354	-3.2083	-3.0667	-2.9708	-3.3646	-3.0375	-2.9729	-3.2313	-3.1	-0.321	281.062	-13.769	-38.955	162.758	272.109	297.990	279.707	229.752	87.102	-8.706	276.657	88.543	310.200	45.843	221.241	0.00023278	0.00037767	0.00013774	1152.7	2.0543e-06	5.9279e-06	1222.1	253.82	1.4158e-06	1.7845e-06	312.05	89.591	73.174	21.104	3.2306e-06	28.339	0.00031348	0.00028081	7.3604e-05	1128.4	3.3557e-06	3.0402e-06	1204.2	251.1	3.3889e-06	3.066e-06	307.62	89.993	73.345	21.236	2.8541e-06	28.871	46.147	96.836	61.266	-32.121	289.694	128.717	-31.946	-24.302	3.407	178.922	-25.104	-18.312	-17.593	-10.770	93.827	-11.097	-8191	255	
1202.915	1	1	0	0	0.16614	0.20276	0.055496	0.19523	0.24713	0.24277	0.083303	0.23405	0.19209	0.088157	0.076519	0.14468	0.26787	0.099341	0.077458	0.11346	-2.6708	-3.1437	-2.8104	-3.3271	-2.9062	-3.1229	-3.3812	-2.9646	-3.2354	-3.3333	-2.9354	-3.3625	-3.1958	-3.0812	-3.2729	-3.0458	295.335	197.689	128.097	51.850	95.111	-38.332	251.159	238.270	-15.674	208.475	54.384	181.446	207.902	310.157	1.529	8.970	0.00021264	0.00031434	3.4069e-05	1159.7	1.2235e-06	5.7711e-07	1222.3	251.06	2.7215e-06	5.3252e-06	309.84	89.668	73.435	20.89	4.5402e-06	28.305	0.00029608	0.00028065	7.5242e-05	1127.2	3.1927e-06	3.0199e-06	1206.1	250.37	3.2533e-06	2.8598e-06	307.11	90.15	73.364	21.131	3.0617e-06	28.87	10.389	20.771	85.804	-32.127	61.603	65.055	-31.912	-24.893	95.915	105.854	-24.917	-18.473	-17.527	-10.696	114.562	-11.590	-8191	255	
1203.011	1	1	0	0	0.19284	0.084176	0.18523	0.12427	0.10499	0.13239	0.29102	0.29023	0.22213	0.089005	0.20237	0.11045	0.22579	0.10279	0.3275	0.086759	-2.5625	-3.1771	-2.8875	-3.0958	-3.0187	-2.9146	-3.525	-3.2104	-3.0729	-3.3	-3.1458	-3.2542	-3.0417	-2.9271	-3.3	-3.1437	98.590	171.668	202.474	286.609	95.870	235.360	249.358	294.332	156.215	118.945	133.922	53.675	248.595	125.673	96.323	35.382	0.00031024	0.00050586	0.0001601	1157.6	1.5039e-06	4.5217e-06	1223.2	253.34	1.7999e-06	5.3594e-06	310.4	89.658	72.992	21.032	5.711e-06	28.553	0.00028952	0.00026828	7.7688e-05	1131	3.1249e-06	2.9285e-06	1205.7	250.9	3.0715e-06	2.8593e-06	307.4	89.837	73.165	21.197	3.3052e-06	28.926	73.003	-15.425	52.504	-32.189	15.098	149.720	-32.009	-24.879	151.149	94.455	-25.056	-17.948	-18.110	-10.627	109.001	-11.619	-8191	255	
1203.105	1	1	0	0	0.41374	0.071623	0.21282	0.15925	0.087301	0.24231	0.22813	0.093567	0.085006	0.16006	0.066776	0.073545	0.25386	0.038309	0.1345	0.17251	-2.5312	-3.2438	-2.8625	-3.3146	-3.1125	-2.8396	-3.5083	-3.0229	-2.9771	-3.3708	-2.9146	-3.3146	-3.3229	-2.8583	-3.1979	-3.0021	22.214	44.672	295.289	271.389	127.149	38.837	270.789	266.663	177.889	153.187	140.663	255.157	-24.143	214.474	55.379	314.657	0.00020949	0.00030802	6.964e-05	1159	3.502e-06	7.0161e-07	1219.6	252.76	2.1163e-07	1.2326e-06	312.94	89.516	72.734	20.934	3.8003e-06	28.333	0.00028257	0.00026371	8.657e-05	1129.1	3.0077e-06	2.877e-06	1204.2	250.71	3.0689e-06	2.9043e-06	307.73	89.855	73.197	21.18	3.4636e-06	28.816	64.925	75.196	-27.381	-32.201	101.490	155.684	-32.085	-24.888	296.026	123.136	-25.145	-18.064	-18.360	-10.667	136.222	-11.583	-8191	255	
1203.179	1	1	0	0	0.37904	0.17429	0.12911	0.33599	0.10668	0.096077	0.16533	0.25393	0.10846	0.15095	0.12745	0.10521	0.17134	0.032062	0.08969	0.11016	-2.5917	-3.0375	-2.9583	-3.1875	-3.1458	-3.0125	-3.4229	-3.1146	-2.9271	-3.2396	-3.1625	-3.0771	-3.3125	-3.0062	-3.1583	-3.1958	236.910	274.367	162.801	236.753	283.325	-30.209	231.602	237.641	107.381	260.667	112.405	-21.986	303.441	23.006	-16.850	248.893	0.00022596	0.0003152	0.0001494	1150	2.9549e-06	3.8159e-06	1217.4	251.17	3.204e-06	4.8097e-06	308.53	88.966	72.57	21.164	2.7756e-06	28.383	0.00027338	0.00027589	8.7539e-05	1124.6	2.9423e-06	3.0489e-06	1203.7	249.66	3.0597e-06	3.078e-06	307.11	89.787	72.893	21.278	3.4401e-06	28.88	65.014	68.198	256.118	-31.790	64.452	269.658	-32.127	-24.634	131.971	133.049	-24.930	-18.495	-18.245	-10.925	80.492	-11.318	-8191	255	
1203.297	1	1	0	0	0.085022	0.069707	0.090733	0.12953	0.27545	0.032258	0.11136	0.10269	0.046553	0.10513	0.51202	0.15004	0.15586	0.040953	0.20799	0.29869	-2.4104	-3.3271	-3.0125	-3.2062	-3.1667	-2.8979	-3.4292	-3.2479	-3.0667	-3.3479	-3.0208	-3.0833	-3.3563	-3.1229	-3.2229	-3.0542	178.587	-11.400	294.722	306.023	185.593	160.029	223.978	244.808	316.549	-3.334	306.105	310.899	273.648	-41.459	123.034	218.481	0.00030464	0.00061224	0.00011002	1156.2	6.2424e-06	4.1115e-06	1221.5	252.54	3.6149e-06	1.267e-06	310.82	89.148	73.057	20.969	2.3072e-06	28.331	0.00026993	0.00028954	8.708e-05	1123	2.849e-06	3.2705e-06	1204.6	250.11	2.9332e-06	3.277e-06	307.18	89.743	73.029	21.241	3.2404e-06	28.758	88.063	57.906	85.773	-32.240	121.067	178.727	-31.988	-24.694	138.019	48.835	-25.268	-18.319	-18.035	-10.385	118.573	-10.855	-8191	255	
1203.394	1	1	0	0	0.059503	0.067349	0.26252	0.15106	0.12572	0.12588	0.1284	0.14986	0.16163	0.20551	0.080612	0.22457	0.18846	0.33853	0.15377	0.22053	-2.3771	-3.3875	-2.9604	-2.9792	-3.2521	-2.9458	-3.3854	-3.2708	-3.0208	-3.1542	-2.9875	-2.8854	-3.2375	-2.9646	-3.0563	-3.1708	-5.734	71.346	221.728	231.956	159.308	251.453	275.436	230.643	177.605	-21.074	200.609	300.597	260.214	-17.307	259.450	-17.251	0.00024853	0.00055545	0.00017113	1158	5.6466e-06	1.1513e-06	1221.9	253.21	4.8916e-07	2.1006e-06	313.24	89.97	73.02	20.997	6.5179e-07	28.576	0.00026524	0.00030725	8.2564e-05	1124.6	2.9093e-06	3.3841e-06	1205.1	249.83	2.9628e-06	3.3274e-06	307.35	89.955	73.196	21.262	3.1645e-06	28.838	48.340	99.021	40.097	-32.186	77.560	231.404	-32.230	-24.694	139.388	78.079	-25.139	-18.417	-18.095	-10.508	117.345	-11.278	-8191	255	
1203.490	1	1	0	0	0.19264	0.24133	0.086909	0.18927	0.18145	0.21926	0.30181	0.19709	0.11353	0.040197	0.14417	0.20264	0.22077	0.076812	0.14911	0.17195	-2.5583	-3.3625	-3.0958	-2.9917	-3.3187	-2.875	-3.2458	-3.1937	-2.8	-3	-3.1104	-3.0479	-3.4729	-3.0708	-3.0083	-3.5042	58.953	87.272	41.440	110.323	4.515	128.694	285.453	-33.726	96.766	131.295	232.353	72.360	218.252	294.943	-22.280	16.128	0.00030562	0.00018491	0.0001774	1147.1	6.1612e-06	3.4029e-06	1224	251.5	6.488e-06	4.3811e-06	310.3	89.365	72.95	20.835	2.5341e-06	28.407	0.0002806	0.00031652	7.8093e-05	1121.6	3.0698e-06	3.4436e-06	1206	249.13	3.1539e-06	3.3683e-06	306.27	89.828	73.086	21.177	2.9633e-06	28.763	60.998	64.911	13.735	-32.368	94.950	168.320	-32.122	-24.636	142.471	131.682	-25.306	-18.117	-17.650	-10.320	84.609	-11.154	-8191	255	
1203.586	1	1	0	0	0.39219	0.30652	0.35635	0.15197	0.10347	0.29862	0.17431	0.30974	0.19562	0.27916	0.17392	0.10604	0.15217	0.049522	0.20189	0.23541	-2.5833	-3.1521	-3.15	-2.9208	-3.275	-3.1167	-3.1813	-3.3563	-2.9292	-3.2729	-3.2	-2.8917	-3.3146	-3.0771	-3.0167	-3.3542	158.131	4.184	-28.613	-6.242	287.902	-35.774	274.946	286.941	56.413	219.007	190.957	36.088	291.068	170.329	-24.958	-17.293	0.00024137	0.0003868	0.00010197	1151.1	1.1218e-06	1.3165e-06	1218.9	252.51	5.8056e-06	6.0138e-06	311.93	89.171	72.593	20.922	2.897e-06	28.536	0.00029723	0.00030549	7.5678e-05	1122.6	3.2744e-06	3.2727e-06	1203.6	249.87	3.2845e-06	3.2324e-06	307.37	89.556	73.093	21.189	2.926e-06	28.825	72.777	53.938	40.500	-32.309	228.989	6.584	-31.953	-24.728	84.843	57.522	-25.145	-18.486	-17.779	-10.561	244.923	-11.287	-8191	255	
1203.707	1	1	0	0	0.041064	0.13024	0.15057	0.15521	0.19748	0.069611	0.19005	0.10899	0.048315	0.16485	0.19646	0.017819	0.23923	0.16709	0.14129	0.15202	-2.5187	-3.1312	-3.1396	-2.9604	-3.2562	-3.1437	-3.1458	-3.2583	-3.0542	-3.1542	-3.2167	-2.9229	-3.2188	-3.1417	-2.8667	-3.3667	39.937	69.697	238.804	310.190	-8.228	304.651	190.641	293.959	62.497	-41.827	7.939	42.586	-27.416	-14.093	127.270	149.439	0.00030887	0.00049091	0.00010326	1154	1.7824e-06	2.7763e-06	1222.7	250.23	5.1537e-06	6.0892e-06	310.12	89.543	73.219	20.939	1.7697e-06	28.566	0.00030932	0.00028603	7.2506e-05	1125.6	3.3862e-06	3.14e-06	1204.3	250.05	3.4135e-06	3.1317e-06	306.49	89.667	73.429	21.168	2.8824e-06	28.84	81.557	-1.850	307.365	-31.848	128.048	163.105	-32.064	-24.464	184.856	61.444	-25.053	-17.889	-17.965	-10.595	44.263	-11.435	-8191	255	
1203.778	1	1	0	0	0.17355	0.25686	0.08765	0.17062	0.37804	0.1524	0.21734	0.18012	0.08522	0.081695	0.12512	0.078396	0.23544	0.10573	0.027204	0.12776	-2.6667	-3.1229	-3.4583	-2.7687	-3.2562	-3.0417	-3.0729	-3.1688	-2.9125	-2.9229	-3.2771	-2.925	-3.2167	-3.1354	-2.9771	-3.4042	198.331	-6.937	97.616	-37.640	9.869	72.026	172.751	272.730	261.012	211.611	151.625	-28.678	308.967	214.678	164.083	9.436	0.00023332	0.0004923	0.00015552	1151.1	3.3347e-06	5.0415e-06	1216.3	251.72	4.4369e-06	2.2866e-06	313.47	89.486	73.317	20.791	5.3712e-06	28.562	0.00031857	0.0002768	7.2565e-05	1121.1	3.3308e-06	2.948e-06	1201.5	249.95	3.3254e-06	3.0194e-06	306.34	89.909	73.233	21.157	2.809e-06	28.874	61.815	42.705	48.246	-32.301	144.477	91.181	-31.927	-24.519	109.533	167.300	-25.154	-18.371	-17.491	-10.344	104.240	-11.035	-8191	255	
1203.874	1	1	0	0	0.30015	0.21168	0.22859	0.2076	0.12554	0.21442	0.27582	0.051827	0.072103	0.12313	0.23669	0.072684	0.14339	0.15022	0.16618	0.18951	-2.7146	-2.9604	-3.3479	-2.9521	-3.2438	-3.2313	-3.0563	-3.2729	-3.0521	-3.0312	-3.2188	-2.9354	-3.2208	-3.1667	-2.8354	-3.3396	102.008	292.522	199.900	175.026	36.233	-16.429	261.955	5.244	153.149	245.846	69.667	206.332	24.816	55.309	186.641	-28.951	0.00024743	0.00037533	8.3882e-05	1142.7	5.3363e-06	4.2502e-06	1218.3	250.73	3.9644e-06	2.9507e-06	311.84	89.263	73.341	20.873	2.6407e-06	28.587	0.00030137	0.00027162	7.28e-05	1122.7	3.2539e-06	2.9277e-06	1203	249.4	3.1762e-06	2.965e-06	305.81	89.916	73.181	21.161	3.0004e-06	28.94	49.519	132.692	37.672	-31.824	-14.616	86.379	-32.226	-24.820	168.408	88.168	-25.454	-18.021	-17.942	-10.533	45.523	-11.693	-8191	255	
1203.995	1	1	0	0	0.20059	0.12481	0.063252	0.20215	0.038076	0.12642	0.14699	0.15896	0.32912	0.12064	0.23073	0.13342	0.28143	0.18312	0.18447	0.20025	-2.6458	-2.8271	-3.3771	-3.1042	-3.0729	-3.4083	-2.9354	-3.3208	-3.1542	-2.8708	-3.3146	-2.9708	-3.1917	-3.1854	-2.9813	-3.225	150.546	-28.523	170.101	75.725	114.465	234.569	273.881	239.559	51.597	98.953	29.781	229.725	-3.196	276.333	194.156	116.402	0.00028342	0.00059021	0.00015302	1148.1	3.6343e-06	1.8577e-06	1220.7	252.04	2.2157e-06	1.5519e-06	311.16	89.472	72.619	20.783	1.7631e-06	28.391	0.00027996	0.000269	7.6955e-05	1125	3.15e-06	2.8691e-06	1204.3	250.05	3.0391e-06	2.8793e-06	306.46	89.82	72.993	21.08	3.1199e-06	28.86	69.244	7.336	53.324	-32.106	68.588	183.891	-32.163	-24.421	27.624	117.484	-24.704	-18.258	-18.154	-10.633	164.219	-11.171	-8191	255	
1204.091	1	1	0	0	0.1627	0.09645	0.10926	0.1965	0.054444	0.23834	0.35137	0.47296	0.13433	0.22506	0.14114	0.28991	0.13258	0.096154	0.19892	0.13645	-2.5563	-2.7333	-3.3292	-2.8667	-3.1042	-3.3833	-3.1813	-3.2208	-3.0833	-3.0271	-3.3563	-2.9542	-3.0521	-3.3667	-2.9562	-3.2396	143.083	163.978	118.765	-29.149	286.876	225.587	241.931	305.088	251.765	179.165	235.142	299.389	51.660	213.237	201.114	-11.178	0.00024751	0.00033337	0.00011485	1150.1	2.4321e-06	3.2836e-06	1220.3	251.75	5.0218e-06	8.3215e-07	309.66	89.282	72.835	20.797	1.876e-06	28.424	0.00027344	0.00026511	8.1104e-05	1123.9	3.0384e-06	2.8059e-06	1201.2	249.39	2.9771e-06	2.8164e-06	306	89.605	73.031	21.087	3.3281e-06	28.879	74.537	1.808	23.858	-31.962	0.772	102.013	-31.993	-24.572	168.006	93.168	-25.195	-18.176	-17.834	-10.304	309.014	-11.473	-8191	255	
1204.186	1	1	0	0	0.14501	0.22984	0.09754	0.069928	0.27926	0.09854	0.052587	0.21737	0.14151	0.23307	0.19279	0.3179	0.28087	0.026417	0.18961	0.11455	-2.8625	-2.8292	-3.1188	-3.1	-2.8563	-3.1854	-3.1063	-3.1792	-3.1521	-2.9292	-3.4292	-3.0771	-2.9208	-3.2292	-2.9896	-3.2833	100.993	266.462	310.827	64.106	110.861	178.435	1.286	19.412	121.489	178.791	208.839	304.262	-29.277	-16.368	24.058	272.271	0.00024381	0.00055263	5.7224e-05	1152.1	4.4524e-06	5.1377e-06	1222.8	250.34	5.9437e-06	3.1043e-06	308.58	89.032	73.058	20.902	3.1158e-06	28.476	0.00026442	0.0002663	8.6951e-05	1125.6	2.9289e-06	2.8875e-06	1202.7	249.5	2.9128e-06	2.9808e-06	307.5	89.689	73.004	21.174	3.4202e-06	28.749	55.530	22.938	114.248	-32.198	66.008	149.607	-31.986	-24.761	15.177	111.418	-24.766	-18.184	-18.024	-10.542	96.093	-11.141	-8191	255	
1204.283	1	1	0	0	0.066106	0.18802	0.03917	0.16405	0.16824	0.1095	0.20956	0.23807	0.11794	0.15774	0.15965	0.16388	0.26158	0.14478	0.1332	0.11581	-2.8563	-2.8146	-3.2396	-3.0375	-2.85	-3.3229	-3.1229	-3.1854	-3.3688	-3.1896	-3.1354	-3.2521	-2.9146	-3.3812	-3.0333	-3.1125	305.766	37.125	238.510	158.496	160.629	315.686	192.735	34.913	85.761	154.884	294.523	35.547	19.417	-26.102	230.765	62.813	0.00028761	0.00051722	0.00019858	1150.7	2.2935e-06	7.4331e-07	1220.1	251.37	6.541e-06	3.4076e-06	312.74	89.088	72.868	20.875	1.0083e-05	28.478	0.00025911	0.00027679	8.6108e-05	1123.7	2.8731e-06	3.0674e-06	1202.1	249.46	2.9104e-06	3.249e-06	306.59	89.581	72.986	21.178	3.3001e-06	28.823	73.215	15.211	66.289	-31.921	254.086	36.702	-31.729	-24.678	103.433	161.897	-24.518	-18.100	-17.773	-10.393	78.057	-11.037	-8191	255	
1204.378	1	1	0	0	0.29815	0.1427	0.16726	0.32197	0.21667	0.2166	0.2642	0.031452	0.28403	0.26365	0.13569	0.14088	0.11388	0.096942	0.052092	0.10837	-2.7104	-2.9229	-3.0771	-3.1771	-2.9188	-3.2458	-2.9896	-3.1104	-3.3146	-2.9208	-3.1854	-3.2479	-2.8667	-3.25	-3.0042	-2.8292	-14.603	-34.320	237.909	269.262	278.514	-38.601	315.192	238.529	222.969	-21.166	31.329	277.148	-19.897	292.945	132.851	-4.212	0.00025789	0.00011776	1.6798e-05	1151.9	4.9661e-06	3.0574e-06	1220.6	249.69	4.6385e-06	4.616e-06	311.29	89.026	72.763	20.899	3.24e-06	28.537	0.00026199	0.00030619	8.361e-05	1124.3	2.9292e-06	3.327e-06	1201.4	249.37	2.9161e-06	3.3804e-06	306.32	89.488	72.959	21.192	3.0814e-06	28.847	44.723	105.033	98.037	-31.651	133.672	40.150	-31.915	-24.749	120.464	149.978	-24.910	-18.183	-17.859	-10.611	-21.100	-11.179	-8191	255	
1204.474	1	1	0	0	0.15404	0.15739	0.30888	0.16038	0.080023	0.27055	0.11177	0.12551	0.14225	0.15734	0.11477	0.17066	0.07521	0.098296	0.099494	0.056199	-2.75	-2.8688	-3.0792	-3.2083	-2.8	-3.1854	-3.1375	-3.0438	-3.1042	-2.8208	-3.1021	-3.1833	-2.8958	-3.2667	-3.0917	-2.8333	251.937	237.858	19.649	196.495	179.378	293.161	218.977	85.734	54.001	312.910	247.690	264.370	129.746	-42.139	68.626	223.027	0.00025419	0.00063787	0.00014613	1157	3.462e-06	6.7486e-07	1217.1	252.03	1.3285e-06	7.5267e-06	311.03	89.174	72.779	20.857	3.9502e-06	28.156	0.00026896	0.00030854	7.8311e-05	1121.2	3.0275e-06	3.2728e-06	1201.1	249.5	3.0861e-06	3.4675e-06	306.31	89.251	73.192	21.152	2.9785e-06	28.668	58.306	5.476	16.081	-32.169	72.821	111.361	-31.901	-24.637	316.571	133.410	-24.700	-18.358	-17.632	-10.543	87.749	-11.542	-8191	255	
1204.595	1	1	0	0	0.29387	0.058514	0.21082	0.20679	0.20536	0.042468	0.10485	0.13821	0.10822	0.20244	0.40894	0.068671	0.12418	0.15298	0.18661	0.1014	-2.8125	-3	-3.0667	-3.425	-2.8271	-3.2396	-3.2146	-3.2125	-3.2292	-2.975	-2.9938	-3.2812	-2.8792	-2.9458	-3.2042	-3	279.919	-4.913	-3.849	289.302	302.028	125.420	-34.063	35.824	234.668	60.435	157.516	234.492	136.864	294.311	196.051	236.299	0.00024643	0.00056459	0.0001559	1148.8	4.7755e-06	4.1681e-06	1216.5	251.61	5.4303e-06	2.1822e-06	308.14	89.075	72.633	20.922	6.6606e-06	28.32	0.00028213	0.0003032	7.6085e-05	1119.1	3.2426e-06	3.3036e-06	1197.8	249.45	3.2991e-06	3.2279e-06	304.35	89.344	72.98	21.164	2.9611e-06	28.717	67.084	-6.238	95.785	-32.114	94.942	122.723	-32.051	-24.594	65.047	68.096	-25.536	-18.306	-17.603	-10.423	68.527	-11.308	-8191	255	
1204.691	1	1	0	0	0.111	0.025561	0.10446	0.22047	0.20113	0.092383	0.29316	0.13136	0.069	0.29968	0.061872	0.21737	0.19282	0.35347	0.24541	0.13633	-2.7958	-3.1063	-2.875	-3.3521	-3.0021	-3.0896	-3.1458	-2.9229	-3.2521	-3.0312	-3.1979	-3.1479	-2.7917	-2.9479	-3.1437	-2.7833	54.210	7.891	172.151	240.587	207.871	253.859	240.708	200.171	-5.049	236.490	223.882	46.640	231.942	-4.923	130.367	133.620	0.00022643	0.00050255	8.5237e-05	1149.9	3.8439e-06	2.8293e-06	1224.3	252.56	3.2907e-06	1.4794e-06	312.65	89.768	73.166	20.869	2.7208e-06	28.528	0.00031067	0.00029222	7.5502e-05	1119.8	3.4686e-06	3.1726e-06	1203.7	249.65	3.4393e-06	3.1543e-06	306.43	89.723	73.22	21.136	2.9137e-06	28.822	76.159	51.863	66.020	-32.154	78.381	177.888	-32.092	-24.641	81.262	64.919	-25.095	-18.376	-17.887	-10.665	55.633	-10.948	-8191	255	
1204.787	1	1	0	0	0.2055	0.069645	0.18226	0.16718	0.13433	0.15605	0.21164	0.040713	0.20342	0.27277	0.23034	0.16511	0.058921	0.085289	0.25226	0.19109	-2.8833	-3.0458	-2.9146	-3.1583	-2.9104	-3.0542	-3.2583	-2.9208	-3.1167	-3.1583	-2.7729	-3.3417	-3.1	-3.0896	-3.2646	-2.8479	233.218	251.185	-21.453	-4.138	290.309	99.448	278.290	215.268	150.823	77.300	-30.017	-32.941	315.960	190.289	309.329	-20.167	0.00026223	0.00054872	6.9598e-05	1147	3.8806e-06	3.7863e-06	1215.6	250.14	1.6911e-06	1.8546e-06	312.03	89.252	73.047	20.833	1.7122e-06	28.423	0.00031186	0.00027428	7.3183e-05	1120.3	3.4024e-06	3.1035e-06	1200.4	249.49	3.333e-06	3.1298e-06	307	89.619	73.126	21.136	2.8196e-06	28.815	70.211	-9.075	211.850	-32.491	29.677	68.564	-32.124	-24.657	108.811	153.566	-25.065	-18.659	-18.106	-10.261	102.439	-11.272	-8191	255	
1204.883	1	1	0	0	0.096487	0.074909	0.13632	0.22291	0.17467	0.062675	0.18907	0.11561	0.3049	0.15063	0.23501	0.11474	0.055772	0.091998	0.15124	0.32708	-2.8146	-3.1479	-2.8229	-3.4	-3.0146	-2.7958	-3.3917	-2.8583	-3.1104	-3.1604	-2.9625	-3.2854	-3.0167	-2.9792	-3.2021	-2.9375	260.234	219.301	232.354	247.567	94.126	60.863	238.131	-3.615	-18.228	-39.488	200.180	243.385	233.163	213.240	29.792	258.711	0.00026817	0.00064439	0.00010396	1148.5	2.4882e-06	3.8931e-06	1215	251.55	7.6272e-06	2.2232e-07	309.46	89.019	73.042	20.822	2.7803e-06	28.389	0.00031148	0.00027805	7.249e-05	1121.1	3.2981e-06	3.0251e-06	1199.7	249.59	3.3357e-06	2.9951e-06	304.89	89.626	73.279	21.149	2.9393e-06	28.867	28.695	16.427	76.899	-31.935	23.453	116.246	-32.099	-24.481	74.242	45.996	-25.438	-18.077	-17.989	-10.652	132.210	-11.320	-8191	255	
1205.004	1	1	0	0	0.22435	0.15071	0.24987	0.20074	0.063538	0.14001	0.3763	0.065341	0.09915	0.1717	0.086881	0.28895	0.20509	0.28641	0.11229	0.24725	-2.7083	-3.0104	-2.7667	-3.0375	-2.8563	-2.8667	-3.3917	-2.9562	-3.0062	-3.2604	-2.9542	-3.2521	-3.1208	-2.8583	-3.3458	-3.0083	-12.693	40.270	-34.147	128.084	132.078	275.732	235.449	76.411	111.702	235.998	240.152	276.989	15.610	-17.477	22.017	196.784	0.00024017	0.0001505	0.00029106	1155.3	5.3992e-06	3.4614e-06	1218.7	252.15	5.1613e-06	3.3033e-06	307.94	89.467	72.986	20.719	2.2945e-06	28.287	0.00029122	0.00026631	7.7189e-05	1125.6	3.2492e-06	3.0009e-06	1202.3	249.72	3.1982e-06	2.8935e-06	306.5	89.753	73.023	21.036	3.1294e-06	28.781	78.961	-29.733	33.439	-32.265	50.094	80.101	-32.166	-24.712	86.470	88.712	-24.971	-18.636	-18.005	-10.458	70.034	-11.121	-8191	255	
1205.075	1	1	0	0	0.19008	0.11589	0.13645	0.31483	0.019865	0.12955	0.15699	0.19694	0.21373	0.087908	0.24526	0.12267	0.27527	0.32712	0.13877	0.19885	-2.6312	-3.1042	-3.0083	-3.1708	-2.9667	-2.7729	-3.2188	-3.0271	-2.8833	-3.3021	-2.9062	-3.2625	-3.0875	-2.9188	-3.1229	-2.9833	307.184	230.849	53.030	296.460	0.509	274.607	188.373	-0.108	114.000	286.820	252.272	-32.692	112.295	295.269	157.537	32.118	0.00011986	0.00047681	0.00016042	1140.2	2.5255e-06	1.8748e-06	1218.5	250.81	2.4482e-06	3.7817e-06	312.85	89.311	73.239	20.899	4.0943e-06	28.258	0.00028176	0.0002614	8.2778e-05	1120.1	3.1192e-06	2.9145e-06	1203.3	249.25	3.1446e-06	2.8299e-06	307.95	89.689	72.932	21.116	3.3626e-06	28.763	40.025	81.002	87.907	-32.127	99.257	-3.748	-31.989	-24.726	135.180	94.368	-25.132	-18.185	-18.122	-10.288	79.703	-11.430	-8191	255	
1205.172	1	1	0	0	0.28874	0.20705	0.18825	0.083321	0.24362	0.051706	0.45033	0.10156	0.16105	0.040906	0.089258	0.10799	0.17468	0.17261	0.047525	0.23911	-2.7083	-3.15	-2.8375	-3.2062	-3.0583	-2.8812	-3.3792	-3.0979	-2.8312	-3.1125	-3	-3.175	-3.2104	-2.7729	-3.2104	-3.0729	124.995	68.062	50.064	97.657	284.172	117.968	247.780	223.596	317.332	224.570	-30.018	46.658	171.576	244.794	288.689	158.227	0.00026474	0.00057284	0.00011378	1146.9	2.4915e-06	4.3601e-06	1217.5	251.89	3.1569e-06	2.1915e-06	310.6	88.869	72.887	20.836	1.9563e-06	28.436	0.00027616	0.0002657	8.8474e-05	1121.8	3.0032e-06	2.9586e-06	1200.1	249.55	3.0258e-06	2.9146e-06	307.3	89.519	73.001	21.085	3.4697e-06	28.775	74.058	22.757	39.829	-31.944	140.862	218.168	-32.088	-24.313	79.069	201.838	-24.672	-18.476	-17.464	-10.363	108.206	-11.268	-8191	255	
1205.266	1	1	0	0	0.10852	0.12981	0.13962	0.049578	0.1866	0.027137	0.2675	0.15765	0.062601	0.073341	0.1935	0.22986	0.044737	0.15848	0.20984	0.14757	-2.5167	-3.1104	-2.8042	-3.0938	-3.3396	-2.9292	-3.3604	-3.1063	-2.7708	-3.1125	-2.9479	-3.0812	-3.2167	-3.025	-3.2208	-3.225	155.044	71.805	-18.930	260.454	56.265	-38.295	246.360	280.177	84.502	279.264	264.574	51.930	263.922	258.465	300.586	39.197	0.00026874	0.00060375	0.00010885	1142.9	2.0496e-06	2.701e-06	1220.8	251.18	1.3296e-06	3.8861e-06	312.28	89.535	73.123	20.78	5.888e-06	28.226	0.00026856	0.00028074	8.849e-05	1120	2.9375e-06	3.1348e-06	1204	249.74	3.009e-06	3.1245e-06	307.7	89.69	72.942	21.055	3.4178e-06	28.71	73.467	20.777	-16.328	-32.175	4.659	144.061	-32.009	-24.698	131.994	84.297	-24.853	-18.542	-18.084	-10.746	65.806	-11.362	-8191	255	
1205.387	1	1	0	0	0.05062	0.24952	0.21726	0.11179	0.09381	0.17815	0.36695	0.16638	0.19791	0.023375	0.1344	0.19464	0.044296	0.37593	0.25647	0.078952	-2.3438	-3.2562	-2.8	-3.0417	-3.2917	-3.0333	-3.5792	-3.1292	-3.0438	-3.3125	-3.0542	-2.9104	-3.2313	-2.8375	-3.1396	-3.3604	2.665	42.372	127.135	237.491	-42.165	25.290	222.776	281.066	232.004	148.695	171.473	143.745	273.390	266.559	144.482	204.057	0.00024406	0.00064941	7.6932e-05	1139.2	6.3559e-07	4.5961e-06	1218.6	250.75	5.2271e-06	4.8363e-06	311.84	89.403	72.822	20.799	1.2097e-06	28.35	0.00026666	0.00030147	8.553e-05	1118.6	2.9541e-06	3.3315e-06	1202.8	248.85	3.0017e-06	3.3706e-06	306.86	89.568	72.816	21.143	3.3003e-06	28.784	72.168	46.309	35.944	-32.240	166.571	194.875	-31.953	-24.702	107.698	118.676	-24.966	-18.401	-18.187	-10.866	-42.609	-11.507	-8191	255	
1205.483	1	1	0	0	0.24949	0.13367	0.036112	0.092442	0.15753	0.092312	0.12172	0.16366	0.14371	0.14938	0.3086	0.10795	0.18423	0.03441	0.057536	0.19048	-2.4771	-3.2188	-2.8896	-3.0563	-3.1458	-2.7375	-3.3167	-3.3937	-2.825	-3.1042	-3.2167	-2.9667	-3.1104	-3.125	-3.0271	-3.1458	-20.442	83.364	156.989	190.510	2.661	-32.570	312.961	312.651	126.041	169.590	295.066	176.138	247.556	-1.934	57.173	306.281	0.00030028	0.00034047	0.00013139	1148.3	4.1509e-06	1.4168e-06	1214.9	251.09	7.1701e-07	3.7238e-06	309.88	89.051	72.61	20.904	2.0043e-06	28.488	0.00028074	0.00031384	8.1061e-05	1118.3	3.0513e-06	3.4079e-06	1200.9	248.75	3.0778e-06	3.4155e-06	306.33	89.708	72.87	21.218	3.1986e-06	28.789	76.460	20.067	-17.244	-32.021	79.802	119.273	-31.773	-24.520	95.481	68.460	-25.070	-18.349	-18.063	-10.636	83.526	-11.447	-8191	255	
1205.579	1	1	0	0	0.1248	0.24753	0.033315	0.14337	0.018572	0.24166	0.29302	0.098292	0.12283	0.08134	0.15899	0.1957	0.16148	0.15586	0.14221	0.30967	-2.4313	-3.2729	-2.9458	-2.9125	-3.3187	-2.825	-3.1667	-3.2979	-2.8667	-3.0938	-3.0729	-2.7313	-3.15	-2.9625	-2.9292	-3.2583	272.308	151.012	103.852	219.432	56.216	35.812	212.233	26.515	114.399	268.011	230.621	198.775	103.690	203.067	54.371	-33.508	0.00026871	0.0006932	8.2528e-05	1139.2	5.8872e-06	3.51e-06	1220.2	250.97	6.4477e-06	5.564e-06	310.87	89.173	73.029	20.793	6.165e-06	28.171	0.00029567	0.00032386	7.8597e-05	1116.3	3.3109e-06	3.5004e-06	1202.4	248.39	3.3146e-06	3.4141e-06	306.26	89.593	73.341	21.161	3.1032e-06	28.681	65.792	54.696	96.845	-32.477	85.046	62.260	-32.197	-24.674	151.491	160.422	-25.123	-18.260	-17.741	-10.602	70.942	-11.438	-8191	255	
1205.675	1	1	0	0	0.26311	0.051574	0.13762	0.16232	0.082565	0.30816	0.19603	0.16862	0.17473	0.13869	0.22757	0.17547	0.21304	0.19772	0.27981	0.18958	-2.5312	-3.0979	-3.1771	-2.8833	-3.2833	-3.0167	-3.1771	-3.2083	-2.9479	-3.0271	-3.1312	-3.0187	-3.2062	-3.1729	-2.9771	-3.2271	63.941	35.602	228.735	-8.173	151.583	74.786	191.319	281.276	-39.701	-1.961	175.938	0.561	208.318	205.121	61.308	61.908	0.00029556	0.00081575	2.4729e-05	1144.9	3.2381e-06	5.8276e-06	1221.3	252.42	4.0262e-06	3.8282e-06	313.75	89.403	72.732	20.906	8.4904e-07	28.263	0.00030961	0.0003103	7.7753e-05	1118.6	3.5439e-06	3.3212e-06	1201.3	249.91	3.5102e-06	3.3577e-06	306.56	89.43	73.237	21.113	3.0617e-06	28.772	59.365	59.959	-38.282	-32.161	139.733	118.093	-32.088	-24.527	69.978	30.361	-24.578	-18.261	-17.976	-10.505	133.108	-11.527	-8191	255	
1205.771	1	1	0	0	0.19089	0.052873	0.14616	0.14713	0.064725	0.14039	0.1542	0.19664	0.13513	0.11305	0.15551	0.1091	0.15246	0.14775	0.035956	0.20572	-2.2917	-3.1021	-3.1979	-2.9542	-3.0062	-3.1188	-3.1542	-3.2333	-2.7271	-3.0187	-3.1083	-2.7188	-3.075	-2.8417	-2.8125	-3.1792	189.760	-3.686	56.647	311.400	263.478	233.398	163.016	227.365	218.073	210.155	-35.788	42.557	255.320	19.882	316.444	193.005	0.0002541	0.00060083	0.0001968	1143.5	4.0103e-06	2.883e-06	1216.8	250.76	1.8362e-06	2.6091e-06	310.23	88.985	72.391	20.746	1.4344e-06	28.264	0.00032541	0.00029408	7.7005e-05	1118.5	3.6477e-06	3.1486e-06	1201.9	248.79	3.6279e-06	3.2107e-06	304.93	89.445	72.836	21.068	2.989e-06	28.703	79.732	224.039	56.963	-32.044	191.714	109.042	-31.895	-24.497	215.409	167.027	-24.978	-18.591	-17.854	-10.665	200.928	-11.406	-8191	255	
1205.867	1	1	0	0	0.22525	0.14121	0.29795	0.20326	0.19224	0.079416	0.28299	0.24853	0.28125	0.26211	0.16474	0.21955	0.14021	0.18384	0.19495	0.2292	-2.4958	-2.8771	-3.1479	-2.8146	-3.0208	-3.0438	-2.9021	-3.3375	-2.9854	-2.8917	-3.0521	-2.8667	-3.1542	-3.1792	-2.6833	-3.3187	49.681	-6.576	-21.721	-36.810	204.924	308.953	307.726	246.971	-32.831	138.896	129.682	310.272	226.273	6.314	265.217	298.412	0.00012457	0.00064016	0.00013858	1154.1	3.4911e-06	3.7551e-06	1217.1	250.46	1.1264e-06	3.1152e-06	310.64	89.578	72.953	20.774	4.2686e-06	28.431	0.0003163	0.00028593	7.4438e-05	1124.5	3.4329e-06	3.1391e-06	1200.7	249.58	3.3985e-06	3.0527e-06	305.77	89.699	73.164	21.116	2.9592e-06	28.839	53.068	79.684	13.214	-32.059	39.361	65.716	-31.858	-24.528	58.557	59.360	-25.151	-18.333	-17.883	-10.587	91.515	-11.407	-8191	255	
1205.963	1	1	0	0	0.34243	0.16581	0.061936	0.25546	0.055261	0.23864	0.19851	0.12711	0.10384	0.038491	0.087889	0.17051	0.066713	0.11524	0.20443	0.2564	-2.5604	-2.8979	-3.1292	-2.8167	-3.0375	-3.1667	-2.9688	-3.1667	-3.0417	-2.7792	-3.1167	-3.0958	-3.0542	-3.2875	-2.9979	-3.1521	79.298	138.299	301.730	19.043	25.450	223.197	315.447	176.484	55.355	69.596	294.373	178.013	48.086	-28.395	-7.451	137.626	0.00020765	0.00056645	0.00015755	1147.4	6.5399e-06	5.6263e-07	1217.6	251.37	3.2288e-06	3.5568e-06	309.88	89.419	73.116	20.846	2.6345e-06	28.432	0.00030155	0.00028083	7.6888e-05	1125.4	3.3113e-06	2.9631e-06	1200.1	249.44	3.2669e-06	3.0116e-06	305.27	89.653	73.068	21.027	3.1707e-06	28.847	72.613	120.540	82.306	-32.255	107.406	-10.846	-32.181	-24.751	139.586	115.946	-24.743	-18.267	-18.060	-10.885	16.538	-11.129	-8191	255	
#DATA ENDS
