BOXY.EXE: ISS Imagent and Oximeter Data Acquisition Program Version 0.80
Ascii Record File

#ACQ INFORMATION
2  Detector Channels 
16  External MUX Channels 
1  Auxiliary Channels 
5000  Waveform (CCF) Frequency (Hz)
1  Waveforms Skipped 
30  Waveforms Averaged 
1  Cycles Averaged 
16  Acquisitions per Waveform 
10.0806  Updata Rate (Hz) 

#FILE INFORMATION
TRUE -- External MUX Channel results are PARSED.
FALSE -- AC DC and Phase are NOT grouped.
TRUE -- Companion Program Settings File CREATED.
FALSE -- AC data not excluded
FALSE -- DC data not excluded
FALSE -- Phase data not excluded
FALSE -- Auxillary Chn. data not excluded
Tab delimiters

#CALIBRATION STATE
TRUE -- Waveform Calibration Values APPLIED.


#AUX CALIBRATION VALUES
Val Type	aux-1	

Term	1.0000e+00	
Factor	0.0000e+00	


#WF CALIBRATION VALUES
A = Detector Channel
Val Type	A-AC1	A-AC2	A-AC3	A-AC4	A-AC5	A-AC6	A-AC7	A-AC8	A-AC9	A-AC10	A-AC11	A-AC12	A-AC13	A-AC14	A-AC15	A-AC16	A-DC1	A-DC2	A-DC3	A-DC4	A-DC5	A-DC6	A-DC7	A-DC8	A-DC9	A-DC10	A-DC11	A-DC12	A-DC13	A-DC14	A-DC15	A-DC16	A-Ph1	A-Ph2	A-Ph3	A-Ph4	A-Ph5	A-Ph6	A-Ph7	A-Ph8	A-Ph9	A-Ph10	A-Ph11	A-Ph12	A-Ph13	A-Ph14	A-Ph15	A-Ph16	

Term	0.00000e+00	0.00000e+00	0.00000e+00	0.00000e+00	0.00000e+00	0.00000e+00	0.00000e+00	0.00000e+00	0.00000e+00	0.00000e+00	0.00000e+00	0.00000e+00	0.00000e+00	0.00000e+00	0.00000e+00	0.00000e+00	0.00000e+00	0.00000e+00	0.00000e+00	0.00000e+00	0.00000e+00	0.00000e+00	0.00000e+00	0.00000e+00	0.00000e+00	0.00000e+00	0.00000e+00	0.00000e+00	0.00000e+00	0.00000e+00	0.00000e+00	0.00000e+00	0.00000e+00	0.00000e+00	0.00000e+00	0.00000e+00	0.00000e+00	0.00000e+00	0.00000e+00	0.00000e+00	0.00000e+00	0.00000e+00	0.00000e+00	0.00000e+00	0.00000e+00	0.00000e+00	0.00000e+00	0.00000e+00	
Factor	1.00000e+00	1.00000e+00	1.00000e+00	1.00000e+00	1.00000e+00	1.00000e+00	1.00000e+00	1.00000e+00	1.00000e+00	1.00000e+00	1.00000e+00	1.00000e+00	1.00000e+00	1.00000e+00	1.00000e+00	1.00000e+00	1.00000e+00	1.00000e+00	1.00000e+00	1.00000e+00	1.00000e+00	1.00000e+00	1.00000e+00	1.00000e+00	1.00000e+00	1.00000e+00	1.00000e+00	1.00000e+00	1.00000e+00	1.00000e+00	1.00000e+00	1.00000e+00	X	X	X	X	X	X	X	X	X	X	X	X	X	X	X	X	

B = Detector Channel
Val Type	B-AC1	B-AC2	B-AC3	B-AC4	B-AC5	B-AC6	B-AC7	B-AC8	B-AC9	B-AC10	B-AC11	B-AC12	B-AC13	B-AC14	B-AC15	B-AC16	B-DC1	B-DC2	B-DC3	B-DC4	B-DC5	B-DC6	B-DC7	B-DC8	B-DC9	B-DC10	B-DC11	B-DC12	B-DC13	B-DC14	B-DC15	B-DC16	B-Ph1	B-Ph2	B-Ph3	B-Ph4	B-Ph5	B-Ph6	B-Ph7	B-Ph8	B-Ph9	B-Ph10	B-Ph11	B-Ph12	B-Ph13	B-Ph14	B-Ph15	B-Ph16	

Term	0.00000e+00	0.00000e+00	0.00000e+00	0.00000e+00	0.00000e+00	0.00000e+00	0.00000e+00	0.00000e+00	0.00000e+00	0.00000e+00	0.00000e+00	0.00000e+00	0.00000e+00	0.00000e+00	0.00000e+00	0.00000e+00	0.00000e+00	0.00000e+00	0.00000e+00	0.00000e+00	0.00000e+00	0.00000e+00	0.00000e+00	0.00000e+00	0.00000e+00	0.00000e+00	0.00000e+00	0.00000e+00	0.00000e+00	0.00000e+00	0.00000e+00	0.00000e+00	-1.95322e+02	-1.31664e+02	-1.35514e+02	-1.83507e+02	-9.14092e+01	-5.93382e+01	-1.57852e+02	-1.62015e+02	-9.36674e+01	-6.54123e+01	-1.76234e+02	-1.71211e+02	-1.81698e+02	-1.78091e+02	-8.68548e+01	-1.51000e+02	
Factor	4.07472e-05	1.94038e-04	5.01386e-05	4.44362e-01	1.74494e-06	1.67566e-06	1.66286e-01	6.31906e-02	2.08765e-06	1.66474e-06	2.13853e-01	2.89034e-02	2.88634e-02	9.13376e-03	1.93495e-06	1.32076e-02	3.19055e-06	3.47120e-06	9.67125e-07	2.29784e-01	3.78690e-08	3.80063e-08	8.23849e-02	3.32550e-02	3.75348e-08	3.80335e-08	1.05779e-01	1.48008e-02	1.52162e-02	4.84302e-03	3.76195e-08	6.77457e-03	X	X	X	X	X	X	X	X	X	X	X	X	X	X	X	X	



#DISTANCE SETTINGS
A = Detector Channel
A-1	A-2	A-3	A-4	A-5	A-6	A-7	A-8	A-9	A-10	A-11	A-12	A-13	A-14	A-15	A-16	

2.5000e+00	3.0000e+00	2.5000e+00	3.0000e+00	2.0000e+00	3.0000e+00	1.5000e+00	3.0000e+00	3.0000e+00	3.0000e+00	3.0000e+00	3.0000e+00	3.0000e+00	3.0000e+00	1.5000e+00	3.0000e+00	

B = Detector Channel
B-1	B-2	B-3	B-4	B-5	B-6	B-7	B-8	B-9	B-10	B-11	B-12	B-13	B-14	B-15	B-16	

1.0000e+01	1.0000e+01	1.0000e+01	1.4400e+00	1.0000e+01	1.0000e+01	1.5100e+00	1.9400e+00	1.0000e+01	1.0000e+01	1.9900e+00	2.4900e+00	2.4100e+00	2.9000e+00	1.0000e+01	2.9800e+00	




#DATA BEGINS
time	group	step	mark	flag	A-AC1	A-AC2	A-AC3	A-AC4	A-AC5	A-AC6	A-AC7	A-AC8	A-AC9	A-AC10	A-AC11	A-AC12	A-AC13	A-AC14	A-AC15	A-AC16	A-DC1	A-DC2	A-DC3	A-DC4	A-DC5	A-DC6	A-DC7	A-DC8	A-DC9	A-DC10	A-DC11	A-DC12	A-DC13	A-DC14	A-DC15	A-DC16	A-Ph1	A-Ph2	A-Ph3	A-Ph4	A-Ph5	A-Ph6	A-Ph7	A-Ph8	A-Ph9	A-Ph10	A-Ph11	A-Ph12	A-Ph13	A-Ph14	A-Ph15	A-Ph16	B-AC1	B-AC2	B-AC3	B-AC4	B-AC5	B-AC6	B-AC7	B-AC8	B-AC9	B-AC10	B-AC11	B-AC12	B-AC13	B-AC14	B-AC15	B-AC16	B-DC1	B-DC2	B-DC3	B-DC4	B-DC5	B-DC6	B-DC7	B-DC8	B-DC9	B-DC10	B-DC11	B-DC12	B-DC13	B-DC14	B-DC15	B-DC16	B-Ph1	B-Ph2	B-Ph3	B-Ph4	B-Ph5	B-Ph6	B-Ph7	B-Ph8	B-Ph9	B-Ph10	B-Ph11	B-Ph12	B-Ph13	B-Ph14	B-Ph15	B-Ph16	aux-1	digaux	

2311.163	1	1	0	256	0.2861	0.12252	0.33542	0.16926	0.26209	0.03367	0.091685	0.35213	0.17437	0.10217	0.090985	0.2681	0.048737	0.26265	0.17638	0.019252	-2.5812	-3.1646	-2.6375	-3.3667	-2.8646	-2.9688	-3.2687	-2.8792	-3.225	-3.1792	-2.8937	-3.3125	-2.9875	-2.8646	-3.1042	-2.9667	-0.750	-14.235	210.638	186.190	-24.873	13.407	249.619	132.420	293.931	197.160	298.728	17.005	-40.601	308.430	195.011	-10.786	0.0003235	0.00044918	0.00036918	864.63	7.4475e-06	1.0726e-05	1090.2	222.66	2.8338e-06	9.6267e-06	304.45	85.164	59.836	16.044	9.4274e-06	28.53	0.0014671	0.0014389	0.00041995	944.6	1.6195e-05	1.4916e-05	1108.3	234.75	1.5978e-05	1.4769e-05	338.61	91.118	64.726	17.762	1.6155e-05	31.29	45.341	55.988	90.204	-30.435	312.376	34.006	-31.024	-25.951	247.115	18.578	-27.295	-21.133	-20.783	-14.616	128.360	-15.999	-8191	255	
2311.259	1	1	0	0	0.12699	0.13682	0.046788	0.40909	0.15424	0.044042	0.17523	0.027059	0.15658	0.24053	0.10592	0.32747	0.14139	0.17665	0.093768	0.17252	-2.4667	-3.05	-2.8208	-3.075	-2.9938	-2.8083	-3.3042	-2.8667	-2.7917	-3.3083	-2.9604	-3.2333	-3.0292	-3.0396	-3.1979	-2.8417	35.332	124.338	120.878	269.376	184.945	91.554	181.485	171.798	215.726	182.233	211.014	16.292	287.508	-25.943	-0.655	201.169	4.6521e-05	0.00080795	5.171e-05	860.73	3.0903e-06	6.4381e-06	1090.7	222.72	1.3935e-05	9.2647e-06	301.05	83.771	58.819	15.638	9.7447e-06	27.913	0.0013611	0.001343	0.00044481	943.33	1.6479e-05	1.5938e-05	1114.3	234.72	1.7116e-05	1.637e-05	343.12	89.981	64.49	17.608	1.9466e-05	30.865	279.560	14.622	309.188	-30.390	258.442	48.306	-31.196	-26.005	-22.579	243.041	-27.254	-20.931	-20.819	-15.063	288.264	-15.892	-8191	255	
2311.355	1	1	0	0	0.19862	0.09879	0.23075	0.1556	0.11473	0.24677	0.36427	0.22553	0.10582	0.13352	0.16086	0.16725	0.053609	0.11357	0.14122	0.037134	-2.5667	-3.2396	-2.8729	-3.0792	-3.1729	-2.7062	-3.3375	-2.8187	-2.8167	-3.2313	-2.7896	-3.2271	-3.1646	-2.6854	-3.1354	-2.9271	269.034	220.169	24.857	194.645	247.328	17.186	267.611	192.858	105.567	113.929	128.261	279.162	175.413	236.114	57.133	291.167	0.00039279	0.00047298	0.0002567	868.53	4.9552e-06	2.2656e-06	1094.8	221.56	2.9339e-06	7.1672e-06	306.86	85.549	59.466	15.884	3.7467e-06	28.078	0.0015097	0.0015806	0.00053442	957.36	1.8192e-05	1.8356e-05	1124.5	235.92	1.805e-05	1.8659e-05	353.87	91.575	65.639	18.197	2.1192e-05	31.131	60.442	-15.759	-7.374	-30.525	272.313	134.390	-31.159	-25.817	120.386	279.243	-27.091	-21.433	-20.576	-14.648	208.658	-16.271	-8191	255	
2311.452	1	1	0	0	0.25984	0.11519	0.48983	0.34369	0.052325	0.25152	0.2161	0.28233	0.29538	0.24652	0.1313	0.052243	0.2413	0.13494	0.035859	0.11538	-2.6	-3.0146	-2.9521	-3.1188	-3.1125	-2.7958	-3.1042	-3.0958	-2.7792	-3.3479	-2.9313	-2.95	-3.2625	-2.725	-3.3104	-3.0563	191.077	37.069	182.797	282.845	114.234	264.897	259.015	271.892	196.100	155.130	-37.761	7.728	27.972	32.571	306.719	68.130	0.00017281	0.00062693	0.00015254	870.73	9.0904e-06	7.5032e-06	1105.7	223.18	1.0541e-05	8.0406e-06	309.88	85.728	60.151	15.916	1.1154e-05	28.428	0.0014934	0.0017241	0.0005235	953.74	1.7056e-05	1.9531e-05	1132.9	237.26	1.7858e-05	2.0608e-05	356.66	92.187	66.651	18.738	2.2916e-05	31.939	55.063	163.549	96.575	-30.249	-7.136	253.625	-31.236	-26.109	-32.130	194.003	-26.958	-21.206	-20.984	-15.113	40.261	-16.021	-8191	255	
2311.548	1	1	0	0	0.16411	0.059168	0.12914	0.15798	0.16786	0.19715	0.38237	0.020816	0.1644	0.22971	0.19236	0.11156	0.1473	0.093848	0.12111	0.11746	-2.3792	-3.1667	-2.85	-2.8875	-3.2417	-2.8438	-3.3417	-3.175	-2.8667	-3.2042	-2.7417	-2.9042	-3.0542	-2.7375	-2.9146	-3.0125	63.726	157.889	13.340	8.775	236.743	261.164	271.685	11.431	11.205	-2.678	166.041	286.169	199.770	235.214	0.516	224.658	0.00011524	0.0006873	0.00048422	888.67	1.0912e-05	2.6156e-07	1125.2	223.81	6.083e-06	9.6483e-06	306.26	83.903	58.866	15.902	3.9719e-06	27.947	0.0017588	0.0022354	0.00061613	992.87	2.1218e-05	2.5371e-05	1163.8	239.34	2.18e-05	2.5886e-05	361.57	91.738	66.846	18.885	2.2488e-05	31.287	108.796	46.174	-5.133	-30.642	118.804	263.916	-31.161	-25.888	51.257	146.355	-26.855	-21.246	-20.558	-14.944	273.083	-15.902	-8191	255	
2311.668	1	1	0	0	0.18495	0.13853	0.33491	0.27164	0.24621	0.15905	0.3033	0.21821	0.031297	0.10454	0.21137	0.060041	0.2883	0.2958	0.061393	0.025192	-2.3854	-3.1833	-2.9292	-2.9188	-2.9938	-2.8	-3.2417	-3.0938	-3.0125	-3.2396	-3.0021	-3.0083	-3.1479	-2.8021	-3.0938	-3.0333	49.229	256.519	22.627	274.375	283.390	135.443	212.583	261.901	255.719	210.127	-30.558	258.370	232.015	279.847	264.009	283.400	0.00028734	0.00072471	0.00017448	858.41	4.8227e-06	1.1041e-05	1077.5	215.57	1.4135e-05	5.6754e-06	295.42	82.558	56.819	15.318	7.519e-06	27.396	0.0017576	0.002085	0.00051257	938.57	1.8446e-05	2.0735e-05	1105.9	226.66	1.8328e-05	2.0245e-05	336.31	88.046	63.765	17.826	1.7979e-05	30.219	79.570	239.765	279.848	-30.351	103.054	196.837	-31.387	-25.555	168.673	139.658	-27.349	-21.287	-20.867	-14.537	110.130	-15.723	-8191	255	
2311.763	1	1	0	0	0.2368	0.18325	0.12246	0.011895	0.051707	0.14219	0.11606	0.10507	0.31452	0.34684	0.078175	0.031924	0.081204	0.17379	0.11496	0.10354	-2.425	-3.1083	-2.9	-2.7458	-3.1917	-2.7583	-2.9542	-3.2625	-2.8563	-3.0396	-3.0438	-2.8417	-3.2917	-2.7708	-2.8688	-3.0729	102.478	33.783	1.397	-0.194	305.325	123.805	174.077	191.949	279.470	114.146	50.933	106.426	214.227	282.437	259.569	277.863	0.00039562	0.0017631	0.00015856	854.73	1.1225e-05	9.1992e-06	1104.7	208.84	7.2907e-06	1.5232e-05	295.49	82.446	56.03	15.129	7.8238e-06	27.789	0.0016482	0.0018084	0.00045346	930.87	1.9085e-05	1.91e-05	1126.5	221.15	1.8845e-05	1.8707e-05	330.79	88.135	63.091	17.528	1.7986e-05	30.776	115.507	-13.026	65.584	-30.498	139.784	65.427	-31.558	-25.715	70.252	95.871	-27.388	-20.551	-20.119	-14.547	-22.001	-15.395	-8191	255	
2311.859	1	1	0	0	0.12832	0.13507	0.11338	0.044941	0.14433	0.30419	0.13642	0.051377	0.21743	0.079412	0.28579	0.15347	0.28728	0.15609	0.11834	0.074206	-2.2917	-3.0375	-3.0271	-2.8396	-3.1479	-2.9521	-2.9333	-3.2333	-2.7208	-3.0271	-3.1417	-2.7708	-3.2062	-2.9875	-2.8021	-3.1896	254.549	56.461	147.393	151.742	261.858	233.607	294.665	14.208	49.219	43.296	18.003	212.203	27.930	271.461	64.369	75.935	0.00058357	0.00096761	0.00025348	944.94	4.2878e-06	1.6794e-06	1287.1	221.61	1.5271e-05	7.8111e-06	307.23	82.064	55.931	14.957	6.9192e-06	27.429	0.0018473	0.0019221	0.00049943	1036.4	2.3961e-05	2.3176e-05	1317.6	237.76	2.5956e-05	2.41e-05	356.92	90.407	65.269	17.705	2.1268e-05	31.092	77.711	-11.181	305.805	-31.061	43.910	152.711	-32.044	-26.795	116.621	60.201	-27.520	-21.136	-21.140	-14.984	298.224	-15.387	-8191	255	
2311.955	1	1	0	0	0.37885	0.19432	0.093176	0.046589	0.40495	0.12959	0.28737	0.064738	0.21839	0.13216	0.18011	0.15859	0.24101	0.17779	0.20905	0.085156	-2.4792	-3	-2.9396	-2.825	-3.0812	-3.0521	-2.9083	-3.2104	-2.6583	-3.0271	-3.0583	-2.8896	-3.2188	-2.9604	-2.7667	-3.1979	236.985	253.583	-37.433	235.324	96.682	148.156	276.693	231.884	-33.689	231.051	283.706	218.601	-15.920	88.525	87.146	218.494	0.00026654	0.0016718	0.00034811	998.9	4.0391e-06	6.909e-07	1345.6	232.16	7.9487e-06	1.0896e-05	331.53	82.398	58.325	15.343	8.3741e-06	26.652	0.0021741	0.0021019	0.00054637	1115.6	2.5887e-05	2.3982e-05	1376	252.22	2.7111e-05	2.4978e-05	380.59	92.441	68.438	18.393	2.3205e-05	31.428	105.579	23.456	282.331	-31.383	19.228	145.354	-32.219	-27.029	146.988	69.549	-28.467	-21.628	-21.689	-15.252	163.909	-16.196	-8191	255	
2312.051	1	1	0	0	0.21727	0.12872	0.181	0.16771	0.10846	0.11146	0.063068	0.16068	0.12114	0.075528	0.079659	0.39368	0.024647	0.17438	0.077549	0.21784	-2.4896	-2.8583	-3.2604	-2.7667	-3.1333	-3.0563	-2.9208	-3.2854	-2.7396	-2.9417	-3.3771	-2.7458	-3.1562	-2.9938	-2.6854	-3.0917	196.684	229.234	228.047	-39.581	193.684	151.456	94.192	236.804	236.073	137.717	209.665	284.210	164.276	30.798	2.481	310.041	0.00032519	0.000678	0.00025145	1129.3	2.951e-06	4.2765e-06	1383.7	227.98	2.2811e-05	6.4732e-06	303.47	78.554	55.042	14.302	1.2591e-05	25.02	0.0022999	0.0022631	0.00059623	1267	2.6564e-05	2.4293e-05	1418.1	248.68	2.4977e-05	2.3106e-05	353.52	88.111	63.896	16.993	2.3185e-05	29.41	-34.487	51.023	293.096	-31.881	191.204	21.912	-32.345	-26.806	32.950	21.314	-27.725	-21.628	-20.625	-15.231	141.519	-16.145	-8191	255	
2312.147	1	1	0	0	0.13557	0.098703	0.27829	0.11518	0.24585	0.21794	0.143	0.10453	0.19114	0.15188	0.056624	0.22518	0.041	0.11408	0.022545	0.23536	-2.4146	-2.9479	-3.1	-2.6646	-2.9771	-2.8563	-2.9896	-3.1729	-3.0021	-2.6646	-3.3292	-2.85	-3.1167	-3.0479	-2.9333	-3.1958	84.492	294.233	-40.409	223.062	224.869	100.929	-35.240	283.934	84.312	208.244	206.542	241.453	19.009	218.611	315.237	209.079	1.4627e-05	0.00083451	3.3661e-05	1001	3.4583e-06	2.0116e-06	1312.2	220.48	2.5312e-07	2.7608e-06	304.91	78.958	55.507	14.567	1.4849e-05	25.294	0.0021082	0.0020942	0.000609	1139.9	2.4655e-05	2.2564e-05	1350.8	240.87	2.4593e-05	2.2649e-05	362.29	88.879	64.393	17.185	2.5255e-05	29.856	38.862	194.657	163.205	-31.671	3.495	163.662	-32.219	-26.560	241.609	64.531	-27.998	-21.825	-21.420	-14.788	160.460	-16.176	-8191	255	
2312.268	1	1	0	0	0.060997	0.21305	0.098539	0.22271	0.33942	0.097573	0.23391	0.16301	0.32031	0.23536	0.22512	0.12024	0.19973	0.12097	0.1155	0.1747	-2.5708	-2.6979	-3.1937	-2.9333	-2.9354	-3.2333	-3.0333	-3.0146	-3.0771	-3.025	-3.1083	-2.9604	-2.9896	-3.1125	-2.7562	-3.1396	79.658	19.463	222.693	-38.271	310.785	80.198	281.857	194.168	56.538	114.848	7.104	-8.866	-31.678	213.853	307.165	231.147	0.00024867	0.00079604	0.00044293	1056.6	1.1264e-05	3.8043e-06	1311.7	216.51	9.3369e-06	5.7249e-06	294.03	77.533	54.258	14.087	1.1793e-05	24.514	0.0020496	0.0020465	0.00066034	1173.9	2.3912e-05	2.238e-05	1350.4	236.09	2.2694e-05	2.1697e-05	355.36	86.195	62.409	16.548	2.5091e-05	28.475	67.575	67.468	154.258	-31.929	76.301	207.040	-32.287	-26.264	85.181	-34.284	-28.178	-21.582	-21.023	-14.879	30.972	-15.955	-8191	255	
2312.364	1	1	0	0	0.073333	0.10933	0.18253	0.10508	0.075509	0.071403	0.185	0.19427	0.18177	0.10857	0.29883	0.11059	0.12256	0.11118	0.044774	0.23039	-2.5625	-2.7208	-2.9208	-3.0542	-2.7562	-3.2667	-2.8563	-3.0083	-2.9188	-2.7625	-3.2042	-2.8854	-3.0396	-3.2021	-2.7854	-3.175	84.920	146.709	128.090	152.092	199.785	268.862	246.939	230.273	254.463	144.925	304.576	294.493	2.635	302.764	194.033	303.323	0.00034981	0.00024173	0.0001048	983.38	1.4056e-05	9.725e-06	1260.7	211.34	1.3554e-05	1.0766e-05	290.7	76.894	53.174	13.609	1.0811e-05	24.054	0.0018725	0.0019777	0.00064309	1095.5	2.1631e-05	2.2078e-05	1301.1	229.13	2.1112e-05	2.2289e-05	349.06	84.645	60.92	16.342	2.4217e-05	27.717	7.328	28.843	72.565	-31.071	96.061	230.521	-31.956	-26.477	31.554	39.130	-27.582	-21.555	-20.966	-14.665	10.859	-15.712	-8191	255	
2312.460	1	1	0	0	0.16003	0.2056	0.1385	0.17556	0.05051	0.19134	0.25862	0.1847	0.26705	0.19964	0.11455	0.25794	0.21108	0.27063	0.27648	0.14531	-2.8063	-2.7938	-3.0375	-2.8271	-2.8604	-3.1333	-2.9833	-3.0396	-3.0083	-2.8812	-3.1188	-3.1063	-2.8979	-3.2479	-2.7792	-2.9958	23.969	131.544	-7.349	267.023	23.372	58.601	291.650	229.250	-26.275	145.077	-23.050	283.198	249.080	236.431	232.327	225.621	0.00011925	0.0011786	0.00027212	944.87	4.1118e-06	1.5691e-05	1196.6	206.76	2.6647e-06	1.0804e-05	284.33	75.233	52.539	13.274	5.5182e-06	23.639	0.0016951	0.0020107	0.00060358	1042	1.9397e-05	2.1945e-05	1227	222.05	1.8888e-05	2.2147e-05	334.72	82.168	59.247	16.006	2.171e-05	26.997	110.848	136.635	125.059	-31.564	187.365	175.797	-31.918	-26.160	224.750	220.835	-27.607	-21.730	-20.538	-14.771	35.009	-16.449	-8191	255	
2312.532	1	1	0	0	0.24097	0.25559	0.07518	0.074571	0.14245	0.25111	0.18797	0.16488	0.28575	0.084603	0.26118	0.12873	0.098826	0.10836	0.064714	0.24172	-2.7542	-2.7812	-3.075	-2.9042	-2.8292	-2.9979	-3.0312	-3.0396	-3.175	-2.8104	-3.1063	-3.1521	-2.9458	-3.0875	-2.9833	-3.0542	188.399	-43.094	63.839	178.118	271.857	157.642	-39.613	22.726	94.747	123.701	290.705	231.394	-19.996	255.762	48.420	195.741	0.00021522	0.00083816	0.00011072	903.88	9.8984e-06	1.1058e-05	1162.2	209.48	1.1631e-05	6.9286e-06	287.63	75.968	52.942	13.438	6.3391e-06	23.666	0.0016165	0.0020294	0.00054493	995.23	1.9144e-05	2.2343e-05	1192.2	222.54	1.8814e-05	2.259e-05	332.83	82.305	60.021	16.169	2.061e-05	26.807	85.699	46.748	116.922	-31.165	148.067	243.628	-31.757	-25.814	175.554	52.429	-27.558	-21.529	-20.627	-15.352	-11.777	-16.376	-8191	255	
2312.651	1	1	0	0	0.076143	0.12359	0.040874	0.24762	0.13398	0.13842	0.31797	0.21243	0.19194	0.12583	0.091111	0.21567	0.13261	0.2169	0.24666	0.2698	-2.6479	-2.7625	-2.9833	-3.2333	-2.7021	-3.1146	-3.0792	-2.9271	-3.2083	-2.9042	-3.0667	-3.1188	-2.7667	-3.1042	-2.9875	-2.5187	266.293	2.101	46.006	43.442	308.813	307.470	229.465	252.996	288.009	92.582	8.325	275.330	174.490	283.261	-11.857	18.191	0.00034233	0.0012018	0.00014772	918.93	5.404e-06	5.4384e-06	1192.7	212.16	7.6624e-06	8.4404e-06	292.22	77.666	54.735	13.755	9.1066e-06	24.717	0.0016952	0.0020879	0.00052848	1004.7	2.0747e-05	2.3133e-05	1220.1	225.66	2.1428e-05	2.3502e-05	339.1	84.323	62.448	16.692	2.0857e-05	27.825	73.624	9.793	23.424	-31.071	12.729	66.456	-31.787	-26.124	144.468	11.074	-27.324	-21.301	-21.028	-14.680	68.227	-15.667	-8191	255	
2312.747	1	1	0	0	0.11507	0.084121	0.17715	0.15363	0.23147	0.21083	0.29256	0.10743	0.29797	0.23698	0.13023	0.11948	0.2118	0.18405	0.29376	0.20546	-2.7271	-2.7521	-3.0083	-3.1333	-2.8521	-3.1292	-3.0771	-3.0938	-3.025	-3.0438	-2.9583	-3.2396	-2.9208	-3.0104	-2.8958	-2.7646	127.898	59.959	281.038	151.470	-2.429	201.338	175.329	114.955	257.822	53.583	-32.363	243.602	143.513	249.127	34.095	98.280	0.00047679	0.0019093	0.00035037	906.9	9.7252e-06	6.8708e-06	1154.4	216.38	1.1694e-06	7.7228e-07	297.78	79.43	55.274	14.19	3.8121e-06	25.037	0.0018987	0.0020884	0.00052503	999.06	2.2729e-05	2.2763e-05	1181.8	229.95	2.2816e-05	2.247e-05	342.84	86.1	63.934	16.828	1.9924e-05	28.348	75.646	304.395	5.076	-30.611	179.064	70.300	-31.562	-25.961	48.293	278.007	-27.342	-21.471	-20.792	-15.268	-29.551	-15.714	-8191	255	
2312.843	1	1	0	0	0.15976	0.23552	0.1908	0.2059	0.1578	0.29605	0.085921	0.29332	0.21699	0.13135	0.16949	0.11012	0.30856	0.26492	0.17553	0.19411	-2.7208	-2.7792	-2.9729	-3.0833	-2.9458	-3.175	-3.2021	-2.8521	-3.2625	-3.0104	-2.7562	-3.2354	-2.8688	-2.9562	-3.1667	-2.7979	280.445	217.881	6.287	-8.099	184.716	24.414	173.826	308.523	103.635	101.388	302.532	159.082	307.318	306.688	278.758	-40.156	0.00038211	0.00061838	0.00014936	884.94	5.115e-06	2.8007e-06	1126.6	218.99	9.5447e-06	1.1684e-06	299.92	80.067	56.847	14.649	1.0375e-05	25.642	0.0019677	0.0019669	0.00050565	979.71	2.3054e-05	2.1102e-05	1151.4	232.91	2.2805e-05	2.12e-05	341.83	87.171	64.997	17.121	1.9135e-05	29.049	49.877	-5.825	87.469	-30.903	71.441	59.733	-31.194	-25.852	-29.968	244.847	-26.860	-21.207	-21.020	-15.074	286.293	-15.994	-8191	255	
2312.939	1	1	0	0	0.29659	0.092476	0.21836	0.2793	0.19712	0.16101	0.2154	0.087704	0.07782	0.12975	0.10236	0.056658	0.10534	0.27717	0.081178	0.14502	-2.6562	-2.8583	-2.8708	-3.2292	-2.8229	-3.0771	-3.2917	-2.9396	-3.0938	-2.9146	-2.9333	-3.1833	-2.8229	-2.8521	-3.2562	-2.7417	3.120	3.959	0.715	314.449	19.390	279.215	145.936	105.989	174.120	90.380	223.968	134.574	199.136	221.117	230.155	209.745	0.00011201	0.0014125	9.4754e-05	880.88	3.2049e-06	5.9272e-06	1116.2	223.03	9.614e-06	3.8581e-06	308.62	81.94	57.972	15.014	6.2227e-06	26.553	0.0019483	0.0019108	0.00049565	983.52	2.3182e-05	2.1309e-05	1141.1	239.63	2.3158e-05	2.1259e-05	350.49	90.184	66.485	17.678	2.0053e-05	30.511	159.824	2.165	-32.308	-30.418	128.985	144.416	-31.363	-25.584	90.096	298.287	-27.075	-21.329	-20.648	-14.342	78.021	-15.666	-8191	255	
2313.060	1	1	0	0	0.21725	0.050916	0.30505	0.059789	0.15412	0.18151	0.31156	0.28282	0.12986	0.018906	0.10562	0.081886	0.17232	0.22168	0.12319	0.34079	-2.5708	-3.0646	-2.7667	-3.1375	-2.9271	-2.9958	-3.1854	-2.9146	-3.1937	-3.1146	-2.8375	-3.1604	-2.9521	-2.925	-3.1688	-2.5625	-28.609	-23.566	6.590	41.209	87.288	239.239	260.267	247.770	77.277	265.505	107.740	56.369	108.098	90.449	222.969	-31.980	0.00040507	0.0010021	0.00018666	891.25	1.256e-05	2.1225e-06	1128.7	224.49	1.8977e-05	8.9663e-06	311.98	82.965	58.145	15.12	1.7732e-05	27.353	0.0020072	0.0019564	0.00052817	1011.3	2.3021e-05	2.1422e-05	1159.5	243.15	2.3063e-05	2.1109e-05	356.49	91.975	66.591	17.766	2.1491e-05	31.385	44.138	300.933	20.402	-30.881	111.080	63.576	-31.410	-25.753	315.186	-6.481	-26.718	-21.356	-20.980	-14.939	159.810	-15.803	-8191	255	
2313.132	1	1	0	0	0.12712	0.25655	0.11553	0.18436	0.181	0.16024	0.20684	0.18054	0.15764	0.093136	0.21244	0.14496	0.24614	0.0087439	0.18693	0.34441	-2.6875	-3.1083	-2.8854	-3.3688	-2.7417	-2.85	-3.3688	-2.9479	-3.1104	-2.8979	-2.875	-3.2562	-2.8833	-2.8542	-3.2104	-2.9229	257.110	45.750	-17.298	13.969	102.119	-35.483	248.445	194.517	-15.457	-41.439	-29.051	285.265	-8.582	126.907	83.985	188.911	0.00019254	0.00070245	0.00019262	887.78	1.6356e-05	7.125e-06	1116.9	225.2	4.4042e-06	1.5115e-05	309.9	83.213	58.638	15.404	9.9361e-06	27.017	0.0019435	0.0018992	0.00056744	1015.3	2.2397e-05	2.0803e-05	1155.7	243.09	2.187e-05	2.0326e-05	360.22	91.877	66.46	17.767	2.2526e-05	30.977	51.260	90.924	213.863	-30.662	-40.627	9.653	-31.425	-25.684	63.161	31.514	-26.592	-20.860	-20.400	-14.831	164.239	-15.933	-8191	255	
2313.228	1	1	0	0	0.10431	0.14291	0.12186	0.24061	0.14261	0.097524	0.27355	0.17849	0.18651	0.16669	0.072543	0.17583	0.12192	0.19959	0.1223	0.16511	-2.5521	-3.1813	-2.9437	-3.175	-3.1271	-2.6813	-3.4562	-2.9125	-2.9583	-3.2083	-2.6937	-3.275	-2.8729	-2.9583	-3.2146	-2.9021	56.688	-21.829	77.626	261.766	288.294	3.227	208.713	-20.715	50.860	87.409	247.861	-31.662	276.643	1.131	22.046	152.550	0.00013552	0.00094944	0.00023516	877.33	1.7605e-05	4.7754e-06	1098.9	227.69	9.6879e-06	5.1552e-06	315.19	84.613	60.538	15.931	8.9895e-06	27.646	0.0018367	0.0018221	0.00059158	998.69	2.153e-05	2.0296e-05	1136.7	245.81	2.1661e-05	2.0649e-05	370.32	93.107	68.33	18.479	2.5106e-05	31.52	73.729	-30.548	-21.473	-30.795	12.538	231.175	-31.150	-25.232	306.541	73.564	-26.176	-21.474	-20.630	-15.231	144.981	-15.727	-8191	255	
2313.348	1	1	0	0	0.29883	0.27081	0.084933	0.049273	0.23664	0.21328	0.074635	0.1671	0.12028	0.085358	0.15409	0.18933	0.10112	0.076044	0.21645	0.099087	-2.5625	-3.1437	-2.8771	-3.0542	-3.0938	-2.8604	-3.2792	-3.0125	-2.8667	-3.2417	-2.9146	-3.15	-3.1667	-2.7917	-3.2042	-3.1688	50.573	8.599	223.637	53.781	219.433	275.236	208.693	258.226	10.450	85.760	-29.721	281.332	-38.494	95.577	141.829	50.032	0.00021948	0.00053044	0.00019824	896.91	3.0533e-06	1.0085e-05	1092.4	235.27	1.6613e-05	7.496e-06	313.64	84.744	60.343	15.886	5.0523e-06	27.192	0.0018849	0.0020188	0.00066545	1014.9	2.2029e-05	2.3016e-05	1133.1	253.1	2.2196e-05	2.343e-05	376.7	93.057	68.622	18.841	2.5408e-05	31.135	26.379	267.036	105.211	-30.855	244.667	9.886	-31.341	-26.029	108.837	268.345	-27.288	-21.322	-20.642	-14.947	110.770	-16.018	-8191	255	
2313.445	1	1	0	0	0.084431	0.34072	0.19975	0.19083	0.20131	0.088437	0.074257	0.37485	0.057488	0.16982	0.31122	0.033349	0.1309	0.25563	0.15266	0.19612	-2.4958	-3.2458	-2.8667	-3.0312	-3.0229	-2.8125	-3.3292	-2.9854	-2.9854	-3.1813	-3.0625	-3.2375	-3.2208	-2.8854	-3.4417	-3.0438	57.257	-4.630	54.200	233.987	116.256	-4.504	123.629	252.305	198.044	-26.766	284.468	88.876	-10.419	301.656	97.923	226.914	0.00032303	0.0012686	0.00022563	883.86	7.7093e-06	8.8311e-07	1078.6	239.96	2.1072e-06	9.5058e-06	319.67	84.123	63.116	16.883	9.4228e-06	27.465	0.0018052	0.0021284	0.0006408	992.05	2.0666e-05	2.3724e-05	1119.1	255.78	2.0322e-05	2.3389e-05	370.62	91.704	69.871	19.65	2.1939e-05	30.726	83.467	93.477	136.228	-30.519	210.787	37.016	-31.140	-25.990	273.063	204.982	-27.033	-21.920	-21.260	-15.661	-11.663	-16.754	-8191	255	
2313.541	1	1	0	0	0.12449	0.069801	0.10989	0.12741	0.083878	0.093296	0.027893	0.225	0.10845	0.13741	0.14264	0.048398	0.10648	0.14583	0.16547	0.124	-2.5083	-3.2938	-2.6708	-3.1125	-3.1312	-3.0125	-3.1562	-3.2458	-2.6771	-3.3542	-3	-2.8917	-3.2979	-2.8937	-3.2917	-3.0625	42.593	231.370	-9.511	289.437	52.876	58.844	180.378	239.925	-38.206	168.485	29.233	269.304	227.885	41.987	176.203	306.943	0.00011423	0.00025369	9.649e-05	890.6	5.8277e-06	2.6342e-06	1118	241.52	1.038e-05	5.9248e-06	326.18	87.44	66.428	17.304	6.7359e-06	27.362	0.0016429	0.0020407	0.00055243	982.51	1.8725e-05	2.2165e-05	1151	253.3	1.8683e-05	2.1976e-05	368.31	93.832	73.09	19.915	1.9759e-05	30.331	194.207	214.169	275.614	-31.273	135.848	-29.878	-31.112	-26.147	221.960	169.270	-27.790	-22.493	-21.304	-16.441	52.146	-17.278	-8191	255	
2313.660	1	1	0	0	0.17844	0.24199	0.17561	0.090693	0.17404	0.18207	0.11772	0.16397	0.039747	0.095526	0.23486	0.1668	0.27334	0.19325	0.25145	0.046671	-2.5292	-3.1333	-2.9771	-2.9979	-3.1771	-2.9104	-3.2	-3.3	-2.8229	-3.2604	-3.0958	-3.05	-3.2458	-3.0104	-2.9958	-3.1646	51.829	294.985	313.376	-39.901	49.853	151.892	234.695	177.509	223.677	306.737	259.690	40.545	-20.170	225.589	286.356	24.466	0.00030961	0.00043357	0.00015782	886.61	1.1719e-05	2.5854e-06	1112	238.04	8.3834e-06	3.4426e-06	322.44	87.556	68.17	17.337	4.1881e-06	26.733	0.0016908	0.0020627	0.00052727	974.59	2.0674e-05	2.3284e-05	1141.5	251.94	2.2312e-05	2.4524e-05	371.72	94.672	76.309	20.421	2.4034e-05	30.482	61.088	-15.361	171.578	-30.863	150.308	227.682	-31.736	-25.945	220.813	137.044	-27.751	-22.378	-21.792	-16.403	-11.889	-17.801	-8191	255	
2313.756	1	1	0	0	0.18489	0.026253	0.12497	0.26279	0.057814	0.24924	0.15363	0.14989	0.25896	0.28747	0.12882	0.21381	0.21231	0.081712	0.18014	0.14166	-2.45	-3.2229	-2.8458	-2.6958	-3.2	-2.8083	-3.1125	-3.2979	-2.7104	-3.1771	-3.2062	-2.9333	-3.4229	-2.8958	-3.0563	-3.4521	174.304	12.989	45.663	306.147	274.609	303.423	226.311	139.867	119.169	154.741	165.269	208.741	236.226	-17.649	122.589	56.927	0.00038839	0.00080892	0.00018643	879.61	8.7995e-06	1.0091e-05	1129.2	236.18	1.3596e-05	9.0886e-06	319.3	87.344	67.389	17.588	9.9322e-06	27.015	0.0022506	0.0025304	0.00064454	1001.8	2.8871e-05	2.9734e-05	1171	256.33	3.171e-05	3.1152e-05	384.39	97.368	79.92	21.364	2.9848e-05	32.04	60.389	-11.201	-5.455	-30.740	268.494	21.944	-31.532	-26.242	84.844	156.593	-27.994	-22.295	-21.325	-17.043	20.742	-17.937	-8191	255	
2313.827	1	1	0	0	0.1026	0.099681	0.15148	0.085285	0.24916	0.32969	0.31986	0.28453	0.14649	0.077677	0.36277	0.034628	0.094384	0.089801	0.15564	0.17208	-2.1667	-3.2167	-3.1458	-2.8208	-3.2333	-3.1688	-3.1125	-3.2667	-2.7625	-3.1979	-3.0625	-2.8125	-3.0938	-3.0771	-2.7146	-3.2	110.996	262.338	-19.859	286.741	129.738	31.629	241.210	270.704	-18.271	92.088	287.014	187.281	274.692	286.813	170.197	275.750	0.00029723	0.0016499	0.00078728	906.82	1.0171e-05	7.1647e-06	1150.6	235.14	8.293e-06	1.1069e-05	317.97	87.821	68.366	17.509	1.503e-05	26.656	0.0030914	0.0031777	0.00083345	1084	4.0461e-05	3.7765e-05	1211.5	265.67	4.4657e-05	4.1975e-05	414.29	103.44	86.038	22.627	3.8074e-05	34.047	115.437	-22.223	-41.058	-30.781	268.380	194.764	-31.753	-26.526	167.523	80.303	-28.379	-22.497	-22.089	-16.746	266.375	-17.250	-8191	255	
2313.948	1	1	0	0	0.11485	0.20218	0.082466	0.11883	0.046368	0.26708	0.079171	0.074332	0.16111	0.28353	0.21612	0.1549	0.12619	0.19925	0.16414	0.012464	-2.4333	-2.9042	-3.225	-2.6083	-3.1042	-2.8875	-3.0271	-3.2354	-2.8208	-3.1979	-3.0521	-2.9708	-3.1646	-3.0792	-2.9854	-3.2271	231.171	142.865	128.669	207.615	156.776	68.681	-2.830	-42.622	223.431	4.678	107.867	139.170	36.311	133.184	122.441	299.417	0.00031579	0.0014537	7.3207e-05	894.66	8.6179e-07	1.0042e-06	1147.3	235.82	2.0683e-05	1.7136e-05	317.1	88.345	67.934	17.412	1.8675e-05	27.097	0.0038121	0.0036305	0.0009198	1121.1	4.3682e-05	4.0768e-05	1217.2	271.75	4.8103e-05	4.4807e-05	423.07	106.68	86.106	22.461	3.6867e-05	34.249	41.885	-0.093	-11.179	-31.086	27.761	-11.095	-31.699	-26.079	10.822	14.742	-27.052	-22.688	-22.032	-16.882	97.407	-18.048	-8191	255	
2314.044	1	1	0	0	0.29009	0.1249	0.15344	0.11165	0.080921	0.17673	0.29911	0.062719	0.14631	0.071368	0.13037	0.13552	0.058803	0.19657	0.16867	0.08486	-2.4229	-3.0458	-3.0271	-2.9604	-3	-3.0604	-2.9854	-3.0729	-2.8979	-2.9896	-3.0542	-2.8875	-3.1229	-2.9146	-2.9104	-3.3104	232.674	109.832	74.908	200.640	169.146	205.270	289.643	279.946	85.345	30.126	124.770	97.867	13.825	193.540	2.308	-6.920	0.00014331	0.00058312	0.00023565	892.61	5.0955e-06	6.9973e-08	1130	233	1.5306e-05	1.4079e-05	312.69	86.69	67.214	17.129	6.9646e-07	26.852	0.0032372	0.0030696	0.00079348	1080.7	3.3824e-05	3.0826e-05	1178.2	260.17	3.257e-05	3.0668e-05	387.8	100.11	79.767	21.136	3.4369e-05	33.507	6.426	291.947	83.209	-31.017	29.233	110.072	-31.737	-26.370	33.617	45.711	-27.545	-22.762	-21.844	-16.452	-13.891	-17.761	-8191	255	
2314.140	1	1	0	0	0.20318	0.15623	0.23539	0.14599	0.2852	0.071404	0.081921	0.11278	0.09727	0.094671	0.13409	0.091361	0.3471	0.23755	0.030367	0.20659	-2.5938	-2.9583	-3.1375	-2.9542	-3.1417	-3.2083	-3.0438	-3.2292	-3.0312	-2.7021	-3.2396	-3.0042	-3.0333	-3.1188	-2.6729	-3.2542	296.995	315.362	73.833	-39.065	14.718	282.404	53.503	7.126	-43.826	-33.228	-6.050	265.749	-33.829	15.913	132.375	11.235	0.00013545	0.00059144	0.00021105	857.02	1.8023e-05	9.0932e-06	1097.9	229.92	1.0264e-05	6.1079e-06	311.64	84.653	65.176	16.404	1.0849e-05	25.136	0.0030589	0.0030138	0.00089738	1075.4	3.5654e-05	3.2843e-05	1159.9	260.82	3.5889e-05	3.4571e-05	407.86	100.42	79.069	20.635	3.9183e-05	32.175	266.561	12.934	205.019	-31.123	167.906	104.903	-31.807	-26.325	302.438	-20.354	-27.229	-22.545	-22.283	-16.349	152.280	-17.820	-8191	255	
2314.237	1	1	0	0	0.10538	0.1466	0.040725	0.10637	0.064425	0.1873	0.18414	0.2366	0.23528	0.080915	0.021974	0.36324	0.19583	0.14656	0.16237	0.069992	-2.7021	-3.0062	-3.1417	-2.7854	-2.8417	-3.0542	-2.7562	-3.25	-2.8937	-2.9146	-3.2708	-3.0021	-3.0625	-3.1417	-2.8521	-3.0854	216.426	257.829	114.385	-13.844	280.158	223.187	286.360	15.317	58.519	234.594	225.777	202.610	183.787	5.247	-13.879	304.149	0.00015065	0.0010565	9.7021e-05	852.12	6.8638e-06	1.2196e-05	1081.1	219.63	1.6391e-05	3.0169e-06	290.57	77.163	58.239	14.378	6.0849e-06	23.797	0.0029483	0.0028986	0.00092576	1042	3.1775e-05	2.978e-05	1141.9	245.34	2.9706e-05	2.8881e-05	374.66	88.747	68.9	17.995	3.3121e-05	28.887	184.450	-4.567	128.324	-31.443	-39.946	246.038	-31.517	-26.563	166.020	255.439	-27.285	-22.765	-21.922	-16.284	11.751	-16.914	-8191	255	
2314.357	1	1	0	0	0.17255	0.17496	0.065139	0.076181	0.21836	0.15559	0.056298	0.03959	0.057773	0.16762	0.029503	0.073698	0.16172	0.050495	0.12104	0.094037	-2.5917	-2.725	-3.2333	-3.0396	-2.9125	-3.0354	-3.0583	-3.1375	-3.0417	-2.8917	-3.1604	-2.9854	-2.7396	-3.2458	-2.8458	-3.0417	-25.056	115.636	-33.580	-24.031	104.960	131.826	67.950	315.112	-40.366	10.545	134.260	94.839	245.413	207.947	301.321	174.548	0.00011693	0.0023997	0.00011325	840.94	6.5117e-06	9.4769e-06	1065.3	215.12	1.6292e-05	2.0183e-05	295.52	77.426	58.161	14.695	4.8019e-06	24.449	0.0024507	0.002651	0.00085685	997.04	2.8045e-05	2.8926e-05	1123.9	238.13	2.6111e-05	2.7929e-05	365.71	87.063	67.136	17.915	2.8582e-05	28.674	-1.385	145.124	18.927	-30.761	66.336	232.169	-31.837	-25.883	97.917	198.749	-27.851	-22.349	-21.959	-15.805	88.981	-16.630	-8191	255	
2314.429	1	1	0	0	0.22451	0.12977	0.14245	0.21222	0.17603	0.14837	0.058579	0.1064	0.19388	0.28742	0.16259	0.22299	0.37047	0.18417	0.090065	0.093427	-2.7167	-2.8542	-3.0458	-3.1104	-2.7938	-3.0354	-2.9854	-2.9771	-3	-2.8021	-3.2438	-3.0563	-2.6688	-3.3292	-2.9292	-2.9583	63.620	117.765	182.959	222.571	35.876	207.449	216.736	211.924	203.139	-40.967	4.120	-16.174	-43.797	5.671	56.372	231.449	0.00027139	0.0017781	0.00016202	825.25	1.1529e-05	1.0723e-05	1057.8	215.02	9.4176e-06	1.226e-05	294.98	78.307	58.163	14.979	4.9646e-06	24.571	0.001975	0.0024022	0.00070879	946.06	2.2879e-05	2.6012e-05	1099.7	233.44	2.1592e-05	2.5267e-05	352.23	85.593	65.543	17.727	2.2681e-05	27.786	-11.388	132.147	3.680	-30.445	57.370	252.853	-31.548	-26.051	97.627	174.759	-28.516	-22.462	-22.029	-16.169	150.514	-16.819	-8191	255	
2314.525	1	1	0	0	0.13048	0.059133	0.24358	0.065528	0.077095	0.18861	0.12936	0.23129	0.18661	0.06992	0.15813	0.052527	0.1281	0.084708	0.1738	0.074587	-2.8083	-2.7042	-2.9625	-3.0646	-3.0042	-3.025	-3.0125	-3.0292	-3.1729	-2.9062	-3.0021	-3.2188	-2.7313	-3.1979	-2.9146	-3.0042	280.406	302.772	253.219	-41.182	13.231	283.143	281.078	127.838	218.962	106.649	252.636	18.872	-33.275	201.883	135.141	297.989	0.00016748	0.00094912	0.00012164	804.94	7.6045e-06	5.6448e-06	1035.4	214.23	1.0911e-05	5.5571e-06	294.39	75.931	57.075	14.359	4.3072e-06	23.865	0.0016456	0.0020799	0.00055208	897.01	1.9056e-05	2.2364e-05	1064	227.55	1.911e-05	2.2692e-05	336.84	82.647	64.369	17.247	2.1076e-05	26.982	92.817	282.669	38.685	-30.652	166.917	246.811	-31.597	-26.221	159.596	312.634	-27.773	-22.470	-21.513	-16.383	283.850	-17.103	-8191	255	
2314.621	1	1	0	0	0.16756	0.24593	0.23333	0.087269	0.1891	0.13427	0.039521	0.10209	0.091945	0.27662	0.17037	0.073841	0.21931	0.33073	0.12522	0.12368	-2.8979	-2.8292	-2.9542	-3.1417	-2.7729	-3.2125	-2.9667	-2.9813	-3.0854	-2.9521	-3.0771	-3.2271	-2.9042	-3.1979	-2.9208	-2.9354	40.667	53.507	-18.141	78.002	79.168	248.983	294.451	265.498	224.804	171.455	282.807	101.775	167.425	212.791	270.709	58.658	0.00025507	0.0012171	3.7714e-05	800.17	1.1784e-05	4.1378e-06	1021.2	214.4	1.9828e-05	3.091e-06	290.57	77.051	58.622	14.846	8.5503e-06	24.422	0.0017305	0.0021215	0.00053819	888.29	2.1276e-05	2.3303e-05	1056.7	227.42	2.1573e-05	2.3387e-05	338.35	83.655	66.41	17.679	2.1255e-05	27.733	58.951	-15.767	168.908	-30.781	145.893	279.388	-32.074	-25.901	143.250	294.076	-27.662	-22.595	-21.597	-16.212	311.691	-17.105	-8191	255	
2314.740	1	1	0	0	0.12773	0.07082	0.21391	0.26865	0.10386	0.25913	0.094458	0.071483	0.18543	0.24622	0.25212	0.1491	0.02644	0.12459	0.080162	0.17719	-2.8104	-2.7042	-3.0438	-3.3583	-2.8729	-3.2958	-3.1312	-3.0417	-2.9979	-2.8896	-2.9917	-3.3917	-2.7729	-3.1437	-2.8438	-2.9292	41.452	234.618	112.206	233.848	44.723	17.280	292.240	90.300	19.386	307.711	300.254	242.169	97.363	58.477	289.335	169.860	0.00044682	0.0014174	0.00032702	793.34	7.8749e-06	5.1985e-06	1022.4	214.58	1.4434e-05	5.3402e-06	292.5	78.901	59.591	15.283	2.6425e-06	24.851	0.0019836	0.0021824	0.00055405	886.9	2.3921e-05	2.3829e-05	1053.2	229.29	2.4012e-05	2.3731e-05	341.37	85.717	68.378	18.076	2.1063e-05	28.209	45.962	297.767	-40.414	-30.238	122.655	115.483	-31.782	-25.994	156.160	-0.292	-27.584	-22.652	-21.649	-15.827	39.098	-17.142	-8191	255	
2314.836	1	1	0	0	0.23987	0.10402	0.19733	0.18749	0.24091	0.13205	0.016957	0.20602	0.08513	0.21102	0.208	0.14156	0.05631	0.076209	0.30082	0.11581	-2.8229	-2.9167	-2.8187	-3.2438	-2.8	-3.2042	-3.1604	-2.8854	-3.2583	-2.8667	-2.8833	-3.5333	-2.6521	-3.0521	-3.0375	-2.9021	197.600	203.757	148.417	254.708	228.067	83.604	235.473	245.117	251.626	47.646	-22.958	34.134	-16.631	95.239	72.199	290.441	0.00014638	0.0014396	0.00027478	777.42	1.1572e-05	6.2137e-06	1015	214.72	6.5529e-06	1.2219e-05	290.84	78.517	58.543	14.913	4.1951e-06	23.933	0.0021069	0.0020866	0.00053696	886.62	2.449e-05	2.2537e-05	1043.9	230.53	2.4088e-05	2.1905e-05	336.58	85.548	66.986	17.488	1.9257e-05	27.433	103.470	25.260	25.273	-30.887	117.058	185.925	-31.419	-25.922	172.439	111.203	-27.223	-22.102	-22.104	-16.515	127.406	-17.013	-8191	255	
2314.932	1	1	0	0	0.22835	0.028262	0.14589	0.10253	0.20027	0.11075	0.10464	0.26409	0.19525	0.22121	0.16135	0.2326	0.20976	0.07415	0.041478	0.19049	-2.6792	-3.0083	-2.6625	-3.0833	-2.8812	-3.1146	-3.3042	-2.9562	-3.075	-3.0917	-2.9083	-3.2271	-2.7875	-3.0125	-3.0729	-2.7583	260.608	228.386	246.792	308.780	43.796	188.270	254.668	-31.555	173.510	230.136	57.494	273.583	-30.826	278.609	252.157	310.057	0.00019857	0.00084693	0.0001064	765.96	3.876e-06	9.2192e-06	989.94	210.72	1.656e-05	4.0492e-06	286.8	75.435	57.625	14.678	8.4198e-06	23.478	0.001905	0.0018443	0.0004712	865.18	2.1744e-05	1.9721e-05	1015	226.07	2.1141e-05	1.9108e-05	324.21	83.057	65.014	16.859	1.7804e-05	27.014	108.698	264.724	88.237	-30.656	-14.618	5.680	-31.691	-25.917	26.331	257.803	-28.075	-22.323	-21.933	-16.286	13.282	-16.774	-8191	255	
2315.028	1	1	0	0	0.066259	0.17886	0.10067	0.35117	0.12351	0.068017	0.19469	0.10287	0.23097	0.17761	0.050517	0.16773	0.15151	0.040459	0.085767	0.33028	-2.8729	-2.8937	-2.7896	-3.1792	-2.9	-2.9188	-3.0771	-3.0792	-3.1542	-3.1667	-2.7792	-3.2854	-3.0187	-2.9292	-3.1625	-2.8542	243.496	116.157	211.274	34.064	217.921	4.057	173.092	268.342	203.164	272.331	182.504	-40.950	79.402	175.061	-43.093	270.691	0.00013538	0.00016468	0.00029112	762.83	2.0672e-06	9.6918e-06	986.33	212.23	1.0868e-05	3.5612e-06	285.04	77.484	57.898	14.825	5.8759e-06	23.786	0.0017336	0.0016983	0.00045947	863.88	1.9802e-05	1.8277e-05	1009.2	225.64	1.9356e-05	1.7674e-05	324.25	83.986	64.619	16.841	1.8254e-05	27.29	155.764	-32.008	137.476	-30.752	24.318	-2.854	-31.628	-26.179	62.973	148.524	-27.624	-22.285	-21.392	-16.490	177.812	-17.425	-8191	255	
2315.125	1	1	0	0	0.14025	0.096309	0.082399	0.12218	0.22404	0.10681	0.044526	0.17146	0.27881	0.34515	0.067769	0.084828	0.18947	0.12567	0.19012	0.27166	-2.5708	-2.9813	-2.9729	-3.1229	-2.8979	-2.7979	-3.3771	-2.7062	-2.8854	-3.0438	-2.8271	-3.2167	-2.7521	-2.9896	-3.1958	-2.95	279.833	-42.199	191.468	80.189	71.561	241.376	-22.143	225.088	135.671	144.263	261.272	315.602	209.168	143.281	-22.353	295.436	0.00020965	0.00095081	0.00010874	760.51	7.1585e-06	5.63e-06	985.7	210.76	9.8106e-06	6.8623e-06	287.41	77.386	58.517	15.136	1.1839e-05	23.817	0.0016296	0.0015955	0.00047584	858.89	1.8619e-05	1.7373e-05	1010.2	224.68	1.8321e-05	1.6796e-05	328.75	83.931	64.87	16.917	1.9067e-05	27.007	179.388	60.829	233.929	-30.587	162.841	45.293	-31.653	-26.337	9.646	33.561	-27.295	-22.520	-21.302	-16.822	266.618	-17.622	-8191	255	
2315.221	1	1	0	0	0.14053	0.047501	0.12473	0.026652	0.10138	0.03565	0.08716	0.31344	0.1872	0.13231	0.099441	0.33039	0.12758	0.012091	0.17313	0.13275	-2.4646	-3.1562	-2.7	-2.9417	-3.1792	-2.8187	-3.2542	-2.8167	-2.9417	-3.1229	-2.8021	-3.2354	-3.0458	-2.7646	-3.2021	-2.9896	44.788	269.253	117.351	-9.450	213.413	-5.546	24.519	133.354	77.297	157.939	245.821	309.211	-40.230	242.867	163.348	8.745	0.0001224	0.00063179	0.00028086	767.8	3.0841e-06	7.6162e-06	980.65	209.25	4.5376e-06	8.2854e-06	282.43	76.611	58.123	14.91	7.3734e-06	23.862	0.0015334	0.0015259	0.00050729	851.19	1.768e-05	1.7124e-05	1008.9	223.07	1.7669e-05	1.7093e-05	329.79	83.221	64.16	16.891	1.9698e-05	26.914	177.863	14.902	128.277	-30.455	149.920	182.187	-31.522	-26.024	119.332	243.002	-27.582	-22.169	-21.464	-16.364	78.746	-17.373	-8191	255	
2315.341	1	1	0	0	0.26552	0.15576	0.12864	0.10132	0.19152	0.054285	0.22372	0.36774	0.33076	0.28047	0.13464	0.21528	0.091918	0.079742	0.071371	0.12384	-2.4	-2.9938	-2.9229	-2.9813	-2.9375	-2.9833	-3.2583	-2.8583	-2.8104	-3.0312	-2.6729	-3.1042	-3.1688	-2.7188	-2.9708	-3.0042	61.309	232.422	208.898	195.014	74.768	301.306	208.121	237.514	75.760	19.319	24.831	8.452	7.795	306.527	54.557	237.261	0.00029944	0.00054005	0.00030978	745.33	8.0906e-06	6.5879e-06	963.43	208.39	3.7426e-06	8.3874e-06	280.24	75.644	57.521	14.563	3.0877e-06	23.655	0.0014713	0.0015757	0.00050396	829.51	1.6505e-05	1.7534e-05	993.95	220.17	1.6265e-05	1.7252e-05	322.65	81.727	62.68	16.649	1.8765e-05	26.168	52.231	173.788	135.578	-30.966	247.612	227.523	-31.480	-26.084	72.903	267.670	-27.820	-22.111	-21.972	-16.586	59.235	-17.314	-8191	255	
2315.438	1	1	0	0	0.17785	0.1555	0.088546	0.15718	0.13407	0.12675	0.20782	0.041308	0.12964	0.009391	0.21267	0.18568	0.093688	0.16721	0.10614	0.25193	-2.275	-3.2604	-2.7583	-3.1979	-3.1604	-2.7875	-3.1875	-2.9271	-2.8979	-3.0917	-2.8271	-2.7979	-3.2	-2.7354	-3.2667	-2.9792	226.350	261.434	314.269	167.727	165.274	295.664	273.080	137.680	298.450	110.331	44.221	299.267	308.562	45.904	249.186	312.292	0.00011948	0.0015208	0.00024655	736.74	1.4887e-06	2.7226e-06	952.23	205.92	4.9689e-06	7.4649e-06	276.87	76.133	57.205	14.472	6.0468e-06	23.644	0.0013326	0.0015942	0.00046966	811.95	1.5076e-05	1.7589e-05	981.41	217.13	1.5151e-05	1.7946e-05	318.42	81.221	62.387	16.662	1.7573e-05	26.134	171.288	122.962	75.846	-30.798	-23.159	201.217	-31.355	-26.093	150.492	134.941	-27.763	-22.740	-21.807	-16.291	271.385	-17.160	-8191	255	
2315.534	1	1	0	0	0.1218	0.32894	0.064487	0.04071	0.21487	0.24799	0.15625	0.25346	0.076234	0.31039	0.1865	0.30856	0.14736	0.18593	0.093753	0.22347	-2.4479	-3.0104	-2.8	-2.9521	-3.175	-2.7938	-3.1333	-3.1146	-2.7854	-3.2604	-2.8958	-2.8563	-3.2833	-2.7458	-3.0458	-3.275	147.825	210.866	-13.877	97.726	227.155	205.607	207.507	-13.577	66.840	92.943	11.206	263.300	26.918	84.536	136.047	206.486	0.00032393	0.00092521	0.00026185	737.11	5.4857e-06	5.1094e-06	961.22	206.24	2.9896e-06	8.725e-06	284.66	76.048	56.636	14.497	1.0467e-05	23.609	0.0013359	0.0016726	0.00044841	814.22	1.5612e-05	1.8337e-05	985.38	216.86	1.573e-05	1.8278e-05	318.21	81.078	62.413	16.702	1.6397e-05	25.948	55.116	143.968	112.137	-30.642	128.891	182.016	-31.545	-26.029	175.840	141.592	-27.554	-22.221	-21.797	-15.996	-25.625	-17.436	-8191	255	
2315.630	1	1	0	0	0.22668	0.098034	0.12181	0.16856	0.072835	0.30509	0.13385	0.20176	0.20586	0.17261	0.17711	0.052294	0.052578	0.094639	0.18302	0.046135	-2.3479	-3.0271	-3.0542	-2.8646	-3.2521	-2.6458	-3.1813	-3.0979	-2.7438	-3.1917	-3.175	-2.7333	-3.0208	-2.9	-2.8667	-3.3146	155.810	188.744	47.705	242.390	194.172	307.902	232.815	251.978	55.376	243.186	160.532	73.626	286.187	99.512	5.642	225.785	0.00014718	0.0009447	0.00015978	734.8	7.5247e-06	3.7064e-06	963.27	207.89	5.018e-06	1.065e-05	283.07	76.25	56.864	14.564	8.4325e-06	23.505	0.0013841	0.0016536	0.00042026	807.87	1.6467e-05	1.7982e-05	984.18	216.76	1.668e-05	1.7677e-05	315.03	80.793	62.93	16.567	1.5618e-05	25.805	112.309	20.715	30.210	-30.518	214.464	92.959	-31.556	-26.195	55.229	69.967	-27.727	-22.493	-21.831	-16.206	113.665	-17.108	-8191	255	
2315.724	1	1	0	0	0.15236	0.047104	0.25362	0.048941	0.2743	0.091077	0.40168	0.15387	0.099968	0.14193	0.37691	0.049873	0.2088	0.31859	0.21705	0.12512	-2.4083	-3.2167	-2.925	-2.9542	-3.1562	-2.9062	-3.0146	-3.325	-2.7854	-3.0875	-3.0083	-2.675	-3.1083	-2.7958	-2.9396	-3.1688	127.396	264.789	78.661	195.311	115.189	55.437	306.989	-10.584	289.748	223.496	186.669	262.292	298.449	48.534	17.844	294.656	0.00010489	0.00096957	0.00021113	734.61	6.1402e-06	7.5572e-06	952.11	206.98	1.6914e-06	1.0094e-05	280.55	75.124	57.387	14.449	2.428e-06	23.275	0.0014553	0.0015585	0.000394	799.02	1.6989e-05	1.6711e-05	973.59	215.71	1.7035e-05	1.6639e-05	310.63	80.049	63.367	16.378	1.5449e-05	25.806	93.859	1.570	46.412	-30.549	276.249	65.636	-31.603	-25.602	-26.078	130.478	-27.487	-22.845	-21.906	-16.478	140.475	-17.097	-8191	255	
2315.820	1	1	0	0	0.16522	0.14652	0.046181	0.024894	0.13173	0.39201	0.29339	0.16854	0.16818	0.092531	0.12475	0.13216	0.063731	0.32692	0.27381	0.19105	-2.5292	-2.9625	-2.8229	-2.6021	-3.0708	-2.9792	-2.6792	-3.0729	-2.8563	-3.0125	-3.0979	-2.7646	-3.2	-2.7771	-2.7896	-3.2396	270.732	280.716	100.090	-26.524	153.822	-43.473	185.375	209.591	140.105	248.723	285.724	210.084	35.843	-35.372	125.293	195.317	0.00025936	0.0011013	3.4665e-05	730.37	6.1407e-06	5.3264e-06	950.3	204.65	2.3844e-06	1.2293e-05	277.19	74.769	56.135	14.318	6.9534e-06	23.259	0.0015475	0.0015411	0.00039304	803.82	1.8003e-05	1.6703e-05	969.19	215.09	1.7927e-05	1.6351e-05	307.72	80.045	62.19	16.138	1.4657e-05	25.919	125.621	101.011	283.295	-30.892	263.682	86.100	-31.657	-25.945	271.497	71.161	-27.720	-21.911	-21.812	-16.347	169.666	-16.921	-8191	255	
2315.917	1	1	0	0	0.19004	0.23887	0.13308	0.12751	0.054664	0.274	0.20438	0.24965	0.17728	0.19541	0.1835	0.17181	0.2703	0.1834	0.11955	0.03887	-2.2812	-2.9646	-3.1104	-2.7313	-3.0604	-2.9	-2.8729	-3.2438	-2.9771	-2.8479	-3.1562	-2.8646	-3.1562	-2.9417	-2.8854	-3.2062	246.417	-32.960	-32.308	165.599	44.117	271.795	299.150	144.595	136.557	59.694	311.413	69.754	289.108	229.289	29.703	214.606	0.00031445	0.00041322	8.9264e-05	722.76	4.6851e-06	7.8972e-06	950.76	201.58	1.7384e-05	5.9059e-06	278.09	74.164	54.963	14.007	6.5163e-06	23.216	0.0014976	0.0014691	0.0003704	803.75	1.735e-05	1.5708e-05	965.65	213.53	1.6891e-05	1.5607e-05	305.32	79.541	61.066	15.734	1.4559e-05	25.909	69.747	45.997	67.177	-30.967	67.519	136.391	-31.554	-26.109	22.257	19.036	-26.996	-22.350	-21.790	-16.737	154.807	-17.100	-8191	255	
2316.013	1	1	0	0	0.21155	0.22457	0.13108	0.17024	0.16759	0.061706	0.079376	0.092447	0.041246	0.21099	0.098672	0.12026	0.37768	0.15686	0.18558	0.12408	-2.4604	-2.6729	-3.2458	-2.7938	-3.1729	-2.9771	-2.8312	-3.2104	-3.0417	-2.8958	-3.1167	-2.9229	-3.1	-3.1104	-2.6646	-3.2562	118.514	-11.708	85.739	313.887	199.815	-21.487	214.216	122.982	279.102	8.061	237.726	272.739	-11.441	-14.365	302.638	108.710	0.0001075	0.00097764	0.00014494	715.46	1.2499e-05	7.7517e-06	936.42	197.68	7.8794e-06	2.3048e-06	272.24	73.018	54.032	13.839	5.8894e-06	23.143	0.0014095	0.0013955	0.00036995	802.68	1.5936e-05	1.4551e-05	955.59	209.95	1.5486e-05	1.4319e-05	302.24	78.524	59.304	15.416	1.4892e-05	25.787	143.628	8.361	77.913	-30.695	43.043	131.101	-31.367	-25.918	68.102	211.137	-27.958	-22.230	-21.699	-16.251	212.142	-16.780	-8191	255	
2316.133	1	1	0	0	0.094686	0.08671	0.143	0.077717	0.16179	0.021796	0.21045	0.10603	0.059638	0.17514	0.1759	0.10199	0.19414	0.27661	0.24807	0.17022	-2.2625	-2.9813	-3.1271	-3.0375	-3.0792	-3.2792	-2.8667	-3.2729	-2.8917	-2.8688	-3.2229	-2.7646	-2.8854	-3.0312	-2.6729	-2.9833	69.980	43.115	173.740	214.103	122.047	138.266	285.112	120.011	38.264	-32.233	249.740	232.627	35.584	-38.294	101.667	-36.631	0.00011309	0.00099794	0.00010274	720.48	6.4753e-06	8.0682e-06	940.7	198.11	7.1969e-06	2.9674e-06	272.9	72.752	53.805	13.638	4.912e-06	22.724	0.0013112	0.0013163	0.00038827	797.9	1.5219e-05	1.4137e-05	957.4	209.9	1.4768e-05	1.3788e-05	303.62	77.955	58.624	15.146	1.5329e-05	25.22	68.872	111.843	66.694	-30.791	24.910	103.849	-31.488	-26.379	71.347	137.903	-27.165	-22.198	-22.249	-16.433	214.791	-17.121	-8191	255	
2316.229	1	1	0	0	0.074337	0.16284	0.22095	0.16497	0.16773	0.10268	0.18455	0.36392	0.21507	0.16698	0.12513	0.32391	0.20559	0.20746	0.11898	0.40628	-2.45	-2.925	-3.2	-2.6813	-2.7083	-3.1	-2.9229	-3.2833	-3.0792	-2.725	-3.3208	-2.9	-2.8479	-3.1833	-2.7146	-3.1958	253.426	205.935	38.162	255.646	218.229	100.739	251.876	-10.362	285.809	-10.017	279.551	192.926	178.760	57.560	216.172	266.691	0.00014826	0.0001114	0.00010353	714.16	2.7653e-06	6.4785e-06	927.97	196.75	2.6457e-06	2.1138e-06	270.36	72.161	52.974	13.599	1.2352e-05	22.478	0.0012161	0.0012251	0.00039763	780.06	1.4281e-05	1.3433e-05	948.04	206.84	1.3981e-05	1.3699e-05	302.64	76.727	57.699	15.097	1.599e-05	24.86	43.060	29.951	37.724	-30.924	82.928	113.328	-31.412	-26.243	160.643	259.434	-27.317	-22.103	-21.668	-16.364	38.422	-17.317	-8191	255	
2316.301	1	1	0	0	0.17302	0.14482	0.11052	0.10052	0.27132	0.28249	0.21165	0.15855	0.17228	0.2931	0.33343	0.13702	0.18228	0.12583	0.22632	0.079501	-2.6396	-2.7438	-2.9188	-2.8729	-2.7938	-3.3	-2.9083	-3.0854	-3.0667	-2.9271	-3.0208	-2.9708	-2.875	-3.1354	-2.8125	-3.1	144.915	210.520	25.395	279.138	88.021	144.969	228.579	217.160	29.046	17.497	294.231	67.900	232.332	0.843	67.348	15.836	0.00025094	0.00020489	0.00019732	705.39	3.5015e-06	7.5559e-06	922.08	194.02	8.0756e-06	1.5285e-06	265.74	70.775	52.393	13.334	1.1171e-05	22.263	0.0011626	0.0012716	0.00040397	769.78	1.3199e-05	1.3823e-05	943.01	203.51	1.2952e-05	1.4096e-05	298.35	75.387	56.904	14.974	1.4778e-05	24.338	98.349	156.326	24.491	-30.931	304.221	206.222	-31.426	-26.088	-20.008	300.121	-27.371	-22.042	-21.746	-16.581	-6.145	-16.924	-8191	255	
2316.422	1	1	0	0	0.035163	0.24811	0.09953	0.11388	0.11979	0.30557	0.2153	0.33105	0.10089	0.048804	0.073399	0.13194	0.17691	0.17406	0.22115	0.10943	-2.7479	-2.8667	-2.9792	-3.1646	-2.6396	-3.3396	-2.8063	-2.9792	-3.0375	-2.9021	-3.0625	-2.9396	-2.925	-3.0958	-2.9125	-2.825	294.573	128.337	2.349	-31.204	41.588	272.924	230.375	184.696	64.073	68.920	154.820	-26.617	-31.030	204.643	137.497	190.395	0.00017037	0.0011964	0.00021749	694.4	5.7959e-06	8.6885e-06	910.25	193.77	7.467e-06	6.9153e-06	268.38	71.634	52.774	13.527	5.0787e-06	22.323	0.0010397	0.0012728	0.00036969	751.34	1.2193e-05	1.4113e-05	927.46	202.75	1.2092e-05	1.4451e-05	296.32	75.539	56.981	15.175	1.376e-05	24.397	110.953	111.979	65.918	-31.050	23.126	225.454	-31.721	-25.988	125.016	141.097	-28.039	-22.304	-21.901	-15.675	15.034	-16.836	-8191	255	
2316.518	1	1	0	0	0.14835	0.10545	0.067418	0.17009	0.15612	0.24477	0.157	0.17319	0.15033	0.30286	0.242	0.081782	0.42303	0.2107	0.21843	0.11819	-2.6937	-2.8604	-3.0687	-3.0354	-2.7396	-3.2125	-2.8583	-2.8354	-3.0271	-2.8604	-2.8479	-3.225	-2.7292	-3.1229	-2.9583	-3.025	218.979	80.813	152.651	165.372	36.147	55.874	-2.950	208.782	41.532	8.107	-2.403	152.690	269.715	233.574	200.044	80.650	9.3331e-05	0.0010927	0.00013682	700.04	8.0554e-06	2.7006e-06	916.24	195.12	8.8499e-06	8.2511e-07	268.62	71.488	53.636	13.498	8.012e-06	22.182	0.0010407	0.0013299	0.00034952	752.99	1.2452e-05	1.4576e-05	931.07	202.91	1.2574e-05	1.4665e-05	294.1	75.431	57.798	15.213	1.3083e-05	24.142	100.643	130.891	5.210	-30.832	162.468	302.159	-31.507	-26.088	170.675	16.146	-27.576	-22.277	-22.029	-16.319	36.388	-16.869	-8191	255	
2316.614	1	1	0	0	0.1059	0.21863	0.090518	0.11476	0.23226	0.18649	0.3369	0.1692	0.18695	0.13297	0.10704	0.19984	0.15991	0.086826	0.14861	0.19674	-2.6542	-2.7729	-3.0604	-3.1104	-2.8583	-3.1604	-3.0625	-2.825	-3.1688	-2.8417	-2.9479	-3.1104	-2.7604	-3.0979	-2.9042	-2.9396	149.685	311.491	230.760	32.342	162.638	36.881	307.221	-16.184	125.936	75.004	201.234	-34.708	29.605	160.855	80.595	80.644	0.00038421	0.0011632	0.00022522	699.27	4.0529e-06	3.6865e-06	906.32	195.25	1.2069e-05	5.0975e-06	269.07	70.629	53.003	13.467	3.1017e-06	22.18	0.0011181	0.0013236	0.00033635	750.03	1.3081e-05	1.4445e-05	920.49	202.93	1.3589e-05	1.4408e-05	290.95	74.673	57.97	15.074	1.2681e-05	23.92	46.462	99.703	-11.173	-30.748	223.490	189.208	-31.124	-26.384	153.679	89.569	-27.697	-22.361	-21.415	-16.175	181.304	-16.992	-8191	255	
2316.710	1	1	0	0	0.18538	0.078966	0.12986	0.18414	0.10041	0.26389	0.14605	0.15616	0.29831	0.15344	0.12301	0.27324	0.17014	0.19842	0.0089228	0.17614	-2.6604	-3.0271	-2.6396	-3.1958	-2.7104	-3.1646	-3.3333	-2.8812	-3.0542	-3.0062	-2.8271	-3.0812	-2.7021	-3.0375	-2.9542	-2.8979	215.168	134.095	0.146	2.112	-2.809	306.603	84.703	195.361	-23.585	208.949	190.757	236.797	217.969	177.724	159.494	315.463	0.00034555	0.00055898	0.00015011	699.23	2.7103e-06	5.6912e-06	906.85	197.19	9.8828e-06	7.8458e-06	271.71	71.905	54.01	13.621	8.9746e-06	22.341	0.0011863	0.0012632	0.00032129	748.29	1.4132e-05	1.3744e-05	919.4	203.98	1.4329e-05	1.3659e-05	292.84	75.753	59.124	15.283	1.2501e-05	24.469	66.208	-34.233	270.992	-30.570	23.416	151.150	-31.530	-25.899	136.780	50.094	-27.090	-22.408	-21.468	-16.222	50.203	-17.701	-8191	255	
2316.829	1	1	0	0	0.21702	0.18442	0.13981	0.11839	0.042751	0.21582	0.24716	0.23273	0.082353	0.17343	0.21648	0.25116	0.37	0.071562	0.3132	0.26828	-2.6833	-2.8271	-2.6708	-3.0625	-2.7333	-3.1646	-3.2562	-2.9229	-3.2062	-2.8458	-2.8312	-3.1667	-2.8521	-2.9833	-3.05	-2.7958	60.813	151.553	94.507	-3.868	-40.002	194.002	262.081	-20.069	130.566	72.116	195.029	277.338	73.866	170.756	78.268	-31.581	0.00025779	0.00048346	8.8621e-05	697.34	1.0682e-06	4.7497e-06	911.27	194.78	1.2827e-05	3.9241e-06	269.2	72.045	53.812	13.6	1.19e-05	22.233	0.0012535	0.0012192	0.00031709	753.51	1.4614e-05	1.319e-05	920.58	203.68	1.4261e-05	1.2913e-05	290.41	76.159	58.699	15.118	1.1724e-05	24.497	98.949	82.793	126.613	-30.420	199.135	6.117	-31.425	-26.233	72.564	198.042	-27.206	-22.207	-21.107	-16.183	48.833	-16.973	-8191	255	
2316.925	1	1	0	0	0.33114	0.11558	0.16334	0.35227	0.19323	0.14132	0.019734	0.20169	0.20458	0.298	0.15963	0.25698	0.13213	0.084259	0.11601	0.32391	-2.6625	-2.9521	-2.7646	-3.0729	-2.7896	-2.9688	-3.1813	-2.8208	-3.1583	-2.8271	-2.7792	-3.125	-2.7083	-2.9292	-2.9833	-2.8667	-18.832	291.503	246.371	-17.398	274.539	-34.936	51.355	250.113	48.876	162.289	127.612	44.127	148.385	128.591	271.967	194.800	0.00016576	0.00038205	0.00017507	692.81	7.3974e-06	3.4433e-06	903.47	195	9.6369e-06	4.5679e-06	268.62	71.776	53.368	13.565	3.9459e-06	22.458	0.0012119	0.0011717	0.00030134	753.48	1.4097e-05	1.2813e-05	916	203.73	1.3817e-05	1.2559e-05	289.47	76.112	57.839	14.919	1.1935e-05	24.699	97.692	312.210	-29.660	-30.446	204.770	-17.483	-31.472	-25.897	5.094	-41.075	-27.587	-21.748	-22.108	-16.971	110.770	-17.164	-8191	255	
2317.021	1	1	0	0	0.1034	0.22691	0.13753	0.072068	0.2095	0.18886	0.14674	0.15371	0.16988	0.13613	0.24396	0.24877	0.26078	0.11742	0.1691	0.18809	-2.5646	-3.0187	-2.7104	-3.1146	-2.8292	-2.7938	-3.2646	-2.6708	-3.1	-3.0583	-2.9292	-3.0708	-2.9958	-2.7542	-3.0896	-2.6083	81.725	52.048	262.823	-21.983	76.269	120.689	308.979	-27.374	-25.154	59.139	45.579	257.083	307.369	211.926	161.021	-26.000	0.00036499	0.00091453	0.00010048	686.14	6.6179e-06	1.7336e-06	896.35	191.53	5.3492e-06	6.2107e-06	264.38	70.936	52.297	13.338	1.1455e-05	22.135	0.001153	0.0011245	0.00031061	748.94	1.3092e-05	1.2132e-05	906.37	200.67	1.3066e-05	1.1945e-05	286.78	75.369	56.742	14.701	1.2636e-05	24.399	81.637	-37.081	90.992	-30.676	89.267	2.624	-31.501	-26.011	243.590	28.061	-27.308	-22.357	-21.421	-15.966	97.862	-17.263	-8191	255	
2317.118	1	1	0	0	0.093561	0.16275	0.12618	0.080808	0.153	0.15278	0.091356	0.18216	0.046995	0.093106	0.12949	0.108	0.13828	0.10652	0.19776	0.11087	-2.6063	-2.8563	-2.6063	-3.0979	-2.9146	-2.7812	-3.1583	-2.8937	-2.9583	-3.0958	-2.75	-3.1583	-3.0021	-2.7896	-3.1063	-2.7021	-39.071	286.282	20.185	183.123	134.163	191.078	203.230	-10.821	165.125	125.378	170.577	-30.844	34.194	191.874	134.405	179.418	0.00012946	0.00089365	0.00012661	687.01	1.1646e-05	1.8931e-06	893.96	190.8	1.5857e-06	3.6182e-06	262.34	70.086	51.595	13.1	2.5142e-06	22.393	0.001111	0.0010962	0.00033272	749.65	1.2839e-05	1.1714e-05	908.38	199.77	1.2516e-05	1.1615e-05	288.38	74.725	56.001	14.533	1.3611e-05	24.394	53.347	2.159	193.552	-30.488	2.007	80.437	-31.484	-26.327	30.525	43.287	-27.325	-22.328	-21.623	-16.011	201.369	-16.889	-8191	255	
2317.214	1	1	0	0	0.20961	0.2445	0.070095	0.27407	0.26594	0.1074	0.15492	0.083077	0.19984	0.11556	0.19027	0.1665	0.19214	0.1446	0.29759	0.20896	-2.4229	-3.225	-2.8	-3.1208	-3.0312	-2.6667	-3.1292	-2.775	-2.7958	-3.2375	-2.8438	-2.7792	-3.1083	-2.7687	-3.0854	-2.8812	134.188	261.857	-40.819	198.855	52.151	223.755	224.989	-23.550	91.900	164.233	187.061	246.024	78.339	56.106	246.111	-26.249	0.00021861	0.00015904	0.00023891	685.06	2.4314e-06	6.3506e-06	898.73	189.44	4.7496e-06	4.2612e-06	261.58	69.335	51.251	13.027	6.9212e-06	22.259	0.0010758	0.0010728	0.00035945	751.05	1.232e-05	1.1894e-05	912.86	197.26	1.209e-05	1.1967e-05	290.51	73.841	55.136	14.48	1.42e-05	24.233	58.132	43.146	107.890	-30.621	195.267	194.471	-31.546	-26.317	2.752	76.223	-27.511	-22.038	-21.416	-16.021	72.556	-16.462	-8191	255	
2317.310	1	1	0	0	0.15543	0.1026	0.18034	0.087289	0.19848	0.33768	0.39169	0.11015	0.16078	0.22236	0.15794	0.37813	0.28213	0.16452	0.083134	0.12125	-2.4021	-3.0938	-2.7062	-3.1937	-2.9479	-2.9375	-3.2875	-3.1021	-2.7875	-3.25	-2.8958	-3.1417	-3.1458	-2.725	-3.3021	-2.8792	281.443	297.640	298.946	314.075	26.566	205.618	307.534	27.609	-6.834	164.848	67.327	-13.125	258.665	30.023	114.631	36.456	0.00012137	0.00062218	0.00028909	686.54	5.8363e-06	4.8927e-06	908.56	192.47	3.0789e-06	4.9849e-06	266.15	72.044	52.625	13.787	1.4846e-06	22.974	0.0010492	0.0011349	0.00036799	745.5	1.2096e-05	1.28e-05	924.92	200.4	1.2204e-05	1.3461e-05	297.85	76.298	56.799	15.325	1.5077e-05	25.205	45.515	162.968	-11.377	-30.505	78.336	144.737	-31.551	-26.112	-17.315	231.590	-27.535	-21.510	-21.350	-15.810	185.787	-17.040	-8191	255	
2317.430	1	1	0	0	0.059676	0.13134	0.10173	0.060043	0.21926	0.11759	0.055509	0.13732	0.12536	0.10382	0.066543	0.055589	0.2172	0.3733	0.21005	0.18005	-2.2583	-3.1917	-2.8354	-2.8771	-3.1229	-2.8479	-3.0271	-2.775	-2.8292	-3.2271	-2.9083	-2.9958	-3.0979	-2.6375	-2.9896	-2.8771	292.639	1.688	24.137	211.365	-9.013	31.967	134.818	107.878	148.434	208.598	293.314	85.119	-31.665	-26.670	207.460	-1.417	0.00010631	0.00050257	7.9865e-05	699.51	7.4166e-06	5.7351e-06	914.1	194.81	3.5251e-06	4.0624e-06	270.69	71.766	53.073	13.718	1.0709e-05	23.053	0.0010874	0.0013381	0.00038546	758.26	1.2562e-05	1.4817e-05	933.74	202.79	1.2861e-05	1.5115e-05	299.06	76.384	57.366	15.467	1.4678e-05	25.08	93.558	170.058	251.361	-30.893	65.212	-15.059	-31.396	-25.723	221.220	-27.982	-27.347	-21.998	-21.505	-15.998	77.566	-16.586	-8191	255	
2317.525	1	1	0	0	0.2472	0.060687	0.13034	0.19181	0.089	0.084535	0.16659	0.12017	0.07727	0.14632	0.14759	0.25423	0.17516	0.10973	0.15059	0.042638	-2.3604	-2.8812	-2.7062	-2.8667	-3.1521	-2.6292	-3.1437	-3.0729	-2.7021	-3.2125	-2.9229	-2.8	-3.1625	-2.6917	-2.9292	-3.1979	183.111	260.463	228.144	87.812	283.142	91.054	261.025	166.173	315.710	37.992	168.180	21.861	139.784	206.206	18.144	-9.566	0.0002137	0.00029762	4.9557e-05	693.22	1.1501e-05	9.7076e-06	898.13	193.13	3.4554e-06	1.7635e-06	267.53	71.845	52.994	13.878	1.0479e-05	22.982	0.0011085	0.0013945	0.00035919	746.16	1.2624e-05	1.4691e-05	917.37	200.65	1.2623e-05	1.4409e-05	291.12	75.629	57.253	15.448	1.2789e-05	24.765	61.155	166.927	-5.756	-30.649	193.316	14.896	-31.288	-25.705	189.650	315.703	-27.524	-21.635	-21.309	-15.488	12.054	-16.699	-8191	255	
2317.598	1	1	0	0	0.046215	0.076419	0.17607	0.10862	0.072899	0.20239	0.13518	0.034458	0.11096	0.081455	0.18909	0.033278	0.14146	0.12604	0.078986	0.21052	-2.4396	-3.0938	-2.7917	-2.7333	-3.1583	-2.8688	-2.9667	-3.0083	-2.5792	-3.1458	-2.8292	-2.8875	-3.0792	-2.9562	-2.7896	-2.9229	17.171	37.158	314.018	305.460	-32.217	10.001	285.497	106.013	273.384	128.325	-21.285	230.360	171.650	-20.049	283.227	156.997	0.00025238	0.0011545	0.00024255	696.21	4.127e-06	1.3666e-06	916.67	197.16	1.2653e-05	6.5922e-06	271.92	73.556	54.509	14.269	5.4132e-06	23.532	0.0011063	0.0012955	0.00032204	749.14	1.3032e-05	1.4223e-05	931.45	204.5	1.3675e-05	1.4305e-05	295.97	77.218	59.522	15.906	1.2845e-05	25.437	106.075	47.952	33.583	-30.284	137.087	251.661	-31.552	-25.723	194.422	30.098	-26.922	-21.561	-21.169	-15.894	-17.578	-16.740	-8191	255	
2317.694	1	1	0	0	0.16786	0.19063	0.13989	0.15433	0.10087	0.22484	0.19555	0.12498	0.17186	0.10317	0.17448	0.1566	0.055727	0.08393	0.028977	0.084325	-2.275	-3.0042	-2.9417	-2.7438	-3.1583	-2.8104	-3.0542	-3.0583	-2.6417	-3.0917	-3.1562	-2.7875	-3.2604	-2.8521	-2.8875	-3.3833	289.232	149.726	153.553	204.815	182.130	300.324	287.218	313.873	-14.539	126.603	61.015	84.982	217.615	218.619	181.709	253.599	0.00046572	0.00058346	0.00011717	717	1.3299e-05	1.4657e-06	936.86	200.9	7.6872e-06	3.727e-06	279.01	75.64	55.69	14.514	1.1622e-05	24.106	0.0012385	0.0012989	0.0003308	768.94	1.4683e-05	1.4224e-05	950.94	209.67	1.498e-05	1.4278e-05	303.02	79.315	61.098	16.219	1.2963e-05	26.126	61.682	273.478	49.292	-30.516	154.565	179.425	-31.045	-26.054	96.904	159.942	-27.011	-21.558	-20.761	-15.534	50.881	-16.351	-8191	255	
2317.813	1	1	0	0	0.16122	0.11593	0.18713	0.29741	0.19755	0.19559	0.24082	0.054599	0.14739	0.032732	0.16058	0.04803	0.25328	0.23737	0.1618	0.323	-2.2417	-2.9396	-2.8125	-2.6958	-2.9896	-2.8104	-2.8417	-2.9167	-2.7375	-2.9375	-2.9917	-2.5896	-3.0708	-2.7729	-2.8625	-3.0187	225.911	268.779	204.490	310.423	170.587	214.259	300.620	303.260	-36.728	24.000	297.314	289.009	-39.057	260.410	80.549	240.853	0.00028045	0.00078965	7.4747e-05	726.94	3.5954e-06	1.3006e-06	934.78	201.91	5.0582e-06	7.1945e-06	273.71	73.664	55.951	14.343	1.0866e-05	23.237	0.0013113	0.0012843	0.00032437	786.62	1.5046e-05	1.3568e-05	952.23	211.13	1.445e-05	1.3112e-05	297.2	78.404	60.604	15.838	1.1794e-05	25.413	31.008	9.242	6.860	-30.347	87.209	93.906	-31.022	-25.749	240.199	-17.298	-26.615	-21.230	-20.672	-15.717	61.264	-16.538	-8191	255	
2317.909	1	1	0	0	0.28207	0.088781	0.17491	0.28017	0.36266	0.17827	0.1131	0.26005	0.10946	0.089741	0.14852	0.082036	0.065811	0.083056	0.026667	0.096165	-2.3375	-2.9167	-2.9104	-2.7104	-3.0917	-2.7687	-2.8646	-3.0354	-2.8021	-2.8521	-2.8375	-2.8979	-3.0979	-2.8708	-2.6688	-3.0792	-14.957	299.895	256.294	-0.705	29.841	24.660	214.478	226.560	261.314	96.589	-32.129	291.278	143.831	174.652	95.826	214.623	0.00024066	7.193e-05	0.00015017	729.93	3.5069e-06	3.8712e-06	929.24	201.72	5.6117e-06	1.0097e-05	272.5	73.573	55.565	14.211	4.6626e-06	22.916	0.0011841	0.0011494	0.00029251	787.47	1.3574e-05	1.2304e-05	940.27	210.61	1.2867e-05	1.1875e-05	292.06	77.534	59.83	15.471	1.117e-05	24.986	22.659	195.677	34.265	-30.263	268.852	33.157	-31.424	-25.480	288.744	51.231	-27.509	-21.620	-21.748	-16.032	200.210	-16.347	-8191	255	
2318.006	1	1	0	0	0.17434	0.13166	0.069766	0.14338	0.16849	0.17468	0.22166	0.12595	0.1058	0.10978	0.20918	0.067874	0.13462	0.16149	0.10286	0.10659	-2.4167	-2.7708	-3.1208	-2.7021	-2.9708	-3.0208	-3.0542	-3.0125	-2.6146	-2.9292	-2.9729	-2.8104	-3.0354	-3.0854	-2.7313	-3.2958	230.611	8.299	-34.745	241.859	94.759	-10.115	249.296	261.952	47.463	48.173	136.057	172.414	173.671	60.855	73.637	177.085	7.4475e-05	0.00056745	0.00017316	728.46	7.7762e-06	4.2508e-06	923.75	202.59	1.4342e-05	5.7353e-06	271.11	72.944	55.622	14.032	8.3516e-06	22.793	0.0010816	0.0010523	0.00028985	787.45	1.2336e-05	1.1448e-05	937.97	210.93	1.216e-05	1.1472e-05	292.99	77.23	59.493	15.309	1.1963e-05	24.917	87.886	93.777	39.055	-30.786	18.595	54.194	-31.449	-25.707	-39.319	130.904	-27.376	-22.254	-21.481	-15.948	-32.818	-16.979	-8191	255	
2318.102	1	1	0	0	0.070802	0.20979	0.27842	0.10275	0.14562	0.20242	0.10908	0.15017	0.344	0.098698	0.083528	0.11157	0.060122	0.029305	0.23345	0.079321	-2.5625	-2.8542	-3.1021	-2.8167	-2.825	-2.8771	-2.8167	-3.2104	-2.7188	-2.8937	-3.1667	-3.0062	-2.9396	-3.1958	-2.7354	-3.0792	22.689	-42.750	124.306	214.820	-33.280	225.926	290.484	-9.689	19.499	265.308	200.670	209.502	200.444	-34.396	184.538	265.274	8.7545e-05	0.00076999	0.00028567	728.08	1.3116e-05	5.825e-06	913.71	200.95	3.8767e-06	6.0121e-06	270.78	73.098	55.49	13.955	4.3554e-06	22.993	0.0010456	0.00104	0.00031551	777.36	1.2309e-05	1.1322e-05	929.25	209.6	1.2251e-05	1.1498e-05	296.54	77.584	59.48	15.369	1.3623e-05	25.232	70.166	144.041	104.643	-30.553	94.780	75.574	-31.022	-25.659	54.801	202.858	-27.034	-21.947	-21.120	-16.037	-13.022	-16.542	-8191	255	
2318.198	1	1	0	0	0.15418	0.10045	0.1114	0.25648	0.20562	0.093033	0.2566	0.28408	0.27468	0.10142	0.11737	0.061056	0.14924	0.26939	0.046563	0.38933	-2.7229	-2.7667	-3.1104	-2.8229	-2.9521	-3.2792	-2.6937	-3.1167	-2.8354	-2.7208	-3.1292	-2.8542	-2.7542	-3.0417	-2.5771	-3.0521	118.079	38.583	77.382	262.498	41.268	125.378	170.664	272.195	40.565	108.252	295.634	27.266	-26.961	230.174	111.172	257.562	7.6857e-05	0.00065199	0.00014851	717.15	3.2932e-06	1.3267e-06	913.38	198.46	5.561e-06	5.9767e-06	266.48	71.95	54.214	13.756	7.3476e-07	22.536	0.001081	0.0010985	0.00035672	776.05	1.2473e-05	1.2102e-05	931.67	207.37	1.2166e-05	1.2125e-05	295.36	76.372	58.282	15.17	1.3886e-05	24.496	136.002	41.372	269.390	-30.194	279.186	207.868	-31.307	-25.608	87.201	249.575	-27.118	-21.957	-21.282	-16.052	104.716	-16.864	-8191	255	
2318.294	1	1	0	0	0.22696	0.025533	0.15028	0.14447	0.30624	0.10222	0.083351	0.20997	0.25426	0.018804	0.29822	0.11292	0.082877	0.050883	0.080128	0.21729	-2.5583	-2.7333	-2.9292	-2.7833	-2.6646	-3.1063	-2.8104	-2.9792	-3.0042	-2.9208	-3.1229	-2.9292	-2.6583	-3.0833	-2.6354	-2.8583	269.629	107.260	80.027	277.686	68.899	302.540	220.415	308.169	290.643	-29.231	58.319	308.002	81.058	-1.418	265.048	47.498	0.00025081	0.00023859	7.8857e-05	700.78	3.6528e-06	2.6585e-06	895.62	196.21	7.0293e-06	1.4991e-05	262.93	70.894	53.443	13.619	8.1081e-06	22.219	0.0010159	0.00113	0.00035655	755.08	1.1673e-05	1.2486e-05	913.94	203.7	1.1554e-05	1.2886e-05	292.39	74.952	57.367	15.139	1.3507e-05	24.159	35.798	85.547	19.579	-30.489	-25.049	190.296	-31.176	-26.246	90.999	129.966	-27.087	-21.627	-21.535	-15.666	210.298	-16.572	-8191	255	
2318.390	1	1	0	0	0.067971	0.17389	0.22747	0.17851	0.15191	0.079973	0.36201	0.063602	0.12739	0.17639	0.24411	0.15138	0.092041	0.14412	0.17747	0.016168	-2.6333	-2.7021	-3.1813	-2.9229	-2.65	-3.0792	-2.8	-3	-3.0292	-2.95	-3.1833	-3.0021	-2.8896	-3.0479	-2.9021	-2.7104	4.501	112.867	50.845	19.953	35.899	263.010	265.941	214.202	55.847	240.956	312.847	169.353	206.534	252.954	277.304	47.202	0.00015632	0.00067806	0.00019533	696.06	5.5161e-06	2.6898e-06	890.07	195.97	6.6968e-06	2.0475e-06	263.47	70.702	53.241	13.645	3.3588e-06	22.409	0.00097054	0.0011989	0.00034331	748.68	1.1288e-05	1.3241e-05	907.8	203.17	1.1233e-05	1.3492e-05	289.47	74.647	57.207	15.184	1.2808e-05	24.138	54.095	287.701	9.404	-30.506	183.558	60.461	-31.549	-25.995	141.906	315.452	-27.454	-22.143	-21.217	-15.982	26.917	-16.618	-8191	255	
2318.511	1	1	0	0	0.2651	0.021811	0.083629	0.13342	0.16181	0.16114	0.14254	0.16829	0.14396	0.10328	0.14324	0.20642	0.032923	0.14234	0.1061	0.1077	-2.6646	-2.8104	-2.8958	-3.0542	-2.8042	-3.1979	-2.9042	-3.0062	-3.3458	-2.9458	-3.0667	-3.0292	-2.6958	-3.1375	-2.9708	-2.8021	201.626	21.654	305.252	-4.392	315.446	129.284	207.379	244.259	156.529	-7.618	219.608	165.597	286.187	-42.727	20.573	94.352	0.00017086	0.0011112	0.00025036	702.42	8.318e-06	9.7309e-06	898.35	197.35	5.5021e-06	5.0249e-06	267.06	71.682	53.726	13.573	9.8492e-06	22.572	0.00098237	0.0012227	0.00032418	749	1.1681e-05	1.3427e-05	910.32	203.57	1.145e-05	1.3389e-05	289.06	74.885	57.71	15.249	1.181e-05	24.237	57.841	34.821	4.940	-30.260	153.120	144.957	-31.284	-25.873	124.841	171.253	-27.741	-21.702	-21.413	-16.018	86.546	-16.564	-8191	255	
2318.607	1	1	0	0	0.4181	0.20352	0.17524	0.081109	0.045402	0.075828	0.14004	0.12521	0.16495	0.051858	0.078148	0.086976	0.24187	0.066544	0.14087	0.029503	-2.7479	-2.8063	-2.8187	-3.025	-2.7292	-3.0479	-2.9458	-2.7396	-3.0292	-2.7687	-3.1312	-3.1583	-2.8667	-3.1063	-2.9229	-2.6937	158.455	-6.787	60.611	307.234	143.179	76.481	240.193	-36.414	76.153	127.086	315.234	69.941	278.948	231.292	-40.389	256.024	0.00022502	0.0013526	0.00019509	701.97	9.5275e-06	4.9943e-06	897.31	196.65	9.6159e-06	3.6515e-06	267.1	71.676	54.483	13.778	6.5318e-06	22.383	0.0010168	0.0011823	0.00029583	744.53	1.1933e-05	1.2838e-05	910	203.55	1.1997e-05	1.2544e-05	288.05	74.817	58.221	15.162	1.0942e-05	23.89	133.798	57.855	-28.976	-30.742	162.005	123.199	-31.455	-25.888	102.269	41.994	-27.522	-22.048	-21.468	-16.289	46.737	-16.925	-8191	255	
2318.703	1	1	0	0	0.14179	0.082396	0.037545	0.11209	0.18261	0.14495	0.16455	0.12337	0.14441	0.071924	0.18476	0.15075	0.12938	0.15572	0.23877	0.21236	-2.4729	-2.7604	-2.8792	-2.9604	-2.8375	-3.1417	-3.15	-2.8125	-3.1312	-2.7521	-2.8875	-3.2396	-2.7729	-2.9062	-2.9604	-2.7083	37.908	-20.032	224.740	172.848	185.146	123.338	268.167	107.229	108.737	311.061	15.956	30.520	312.811	104.841	157.366	89.539	0.00023763	0.00031638	8.713e-05	691.53	7.914e-06	5.1965e-06	879.59	196.08	5.7954e-06	5.0222e-06	263.82	70.385	53.816	13.682	6.7303e-06	21.923	0.0010291	0.0010873	0.00027342	733.2	1.2061e-05	1.1666e-05	890.21	201.95	1.2012e-05	1.1477e-05	281.34	73.267	57.794	14.908	1.0042e-05	23.563	59.699	92.508	-20.871	-30.253	284.136	99.979	-31.652	-25.923	171.943	142.517	-26.852	-21.894	-21.548	-16.256	49.627	-17.234	-8191	255	
2318.822	1	1	0	0	0.080235	0.047504	0.14256	0.18368	0.080676	0.2507	0.17196	0.073207	0.12522	0.12545	0.19912	0.17236	0.15234	0.07244	0.084347	0.12181	-2.6542	-2.7333	-2.7583	-3.0938	-2.8271	-2.9417	-3.1937	-2.9417	-3.0479	-2.9333	-2.7458	-3.0958	-2.6479	-3.0687	-3.05	-2.7708	18.871	85.903	312.789	172.069	0.403	124.725	275.947	283.537	70.624	40.968	309.468	272.131	27.541	254.570	307.361	77.175	0.00011005	0.00083652	0.00016572	695.16	4.0766e-06	3.2059e-06	881.56	196.22	6.309e-06	7.639e-06	261.67	70.09	53.739	13.751	5.791e-06	21.786	0.0010337	0.0010009	0.00025245	735.84	1.175e-05	1.0803e-05	890.1	202.18	1.1691e-05	1.0624e-05	278.58	73.698	57.514	14.802	9.4819e-06	23.544	10.900	25.433	102.812	-30.592	24.732	-15.888	-31.325	-25.636	-26.083	126.084	-27.225	-21.955	-21.555	-15.784	94.121	-17.424	-8191	255	
2318.894	1	1	0	0	0.17751	0.16043	0.18891	0.10779	0.36538	0.048946	0.11246	0.29683	0.25315	0.1841	0.18419	0.062888	0.16796	0.080222	0.27035	0.15714	-2.5854	-2.8937	-2.7708	-3.1271	-2.8917	-2.7771	-3.2479	-2.9729	-3.0417	-2.9021	-2.8104	-3.1521	-2.7938	-2.9021	-2.975	-2.7479	-43.212	152.438	266.561	60.772	248.216	265.466	132.677	280.529	34.758	313.659	250.137	22.128	183.356	289.206	176.134	218.541	0.0001946	0.00080566	0.00023901	689.07	7.8153e-06	8.6826e-06	876.52	195.79	7.3278e-06	8.1138e-06	263.17	70.718	53.362	13.578	4.424e-06	21.993	0.0009866	0.00093622	0.00024135	734.76	1.1146e-05	1.0021e-05	884.93	202.23	1.0988e-05	1.0065e-05	277.85	73.878	57.05	14.682	9.6651e-06	23.693	12.021	56.990	234.387	-29.857	181.477	45.458	-31.170	-26.071	296.849	97.404	-27.090	-22.434	-21.490	-15.602	35.123	-16.731	-8191	255	
2318.990	1	1	0	0	0.28966	0.094405	0.13176	0.10901	0.15433	0.30013	0.13947	0.16745	0.17144	0.18559	0.2863	0.17361	0.073001	0.11165	0.14357	0.25538	-2.6604	-2.9375	-2.8229	-3.0417	-2.9271	-2.8646	-3.1479	-2.9333	-3.0792	-2.9958	-2.8479	-3.1083	-2.9854	-2.8729	-3.0062	-2.8812	71.958	198.132	257.403	-36.983	290.323	13.105	310.983	123.583	123.584	-37.602	-26.416	3.737	118.226	15.156	255.107	-9.371	0.00028776	0.00032632	7.7706e-05	688.37	6.5536e-06	3.3486e-06	878.25	195.78	3.0832e-06	3.1161e-06	261.64	70.304	53.52	13.454	5.5842e-06	22.071	0.00092204	0.00089628	0.00025146	735.23	1.053e-05	9.6199e-06	886.84	202.04	1.0472e-05	9.5805e-06	278.07	73.745	56.687	14.535	9.9738e-06	23.536	117.518	81.832	202.396	-30.769	-22.220	90.526	-31.340	-25.869	-34.236	30.414	-27.640	-22.193	-21.580	-16.419	167.873	-17.110	-8191	255	
2319.110	1	1	0	0	0.1138	0.1539	0.14203	0.11659	0.11145	0.20459	0.18202	0.28087	0.12297	0.19742	0.02629	0.25196	0.10093	0.070812	0.16036	0.17679	-2.3604	-2.975	-2.8917	-3.15	-2.8063	-2.9417	-3.3187	-2.7021	-2.9062	-2.9313	-2.7396	-3.0875	-3.0354	-2.7854	-3.1604	-2.8104	310.052	20.619	79.818	60.227	182.962	311.462	-12.496	290.356	275.078	134.186	214.698	209.519	205.146	174.617	274.681	160.390	0.00021465	0.00049754	0.00021954	690.16	4.7789e-06	2.0701e-06	868.55	191.98	2.9531e-06	3.0723e-06	258.48	68.9	52.604	13.299	5.0633e-06	21.328	0.00086606	0.00084352	0.00026119	731.04	9.8283e-06	9.1606e-06	877.32	199.18	9.9542e-06	9.1212e-06	276.2	72.316	56.032	14.359	1.0787e-05	23	41.931	-35.881	105.741	-30.963	118.537	177.295	-31.381	-25.939	173.507	47.110	-27.644	-22.456	-21.849	-16.435	203.760	-17.145	-8191	255	
2319.207	1	1	0	0	0.24543	0.29431	0.16284	0.08413	0.36427	0.28409	0.23799	0.13717	0.15628	0.089671	0.14323	0.065012	0.082909	0.093105	0.24233	0.35295	-2.4292	-3.1688	-2.7354	-2.9667	-2.85	-2.7562	-3.3104	-2.7687	-2.8521	-3.2042	-2.75	-3.1	-3.0917	-2.6917	-3.2	-2.85	34.081	147.807	138.147	224.340	101.695	247.380	195.061	289.646	46.996	215.119	272.951	52.411	280.175	-29.486	-4.407	13.764	0.00016228	0.00039621	0.00015965	683.97	4.4729e-06	1.4626e-06	859.63	192.37	6.5444e-06	1.2394e-06	257.71	68.63	52.674	13.241	2.4122e-06	21.499	0.00084649	0.00085815	0.00028145	726.59	9.7494e-06	9.6215e-06	875.47	198.96	9.7094e-06	9.6649e-06	279.49	71.981	55.65	14.402	1.146e-05	23.043	32.974	-28.970	163.535	-30.730	182.639	50.692	-31.489	-25.744	47.952	252.783	-27.327	-22.088	-21.770	-16.197	24.752	-17.282	-8191	255	
2319.303	1	1	0	0	0.0864	0.17453	0.032091	0.11612	0.17304	0.25847	0.37187	0.083716	0.14921	0.33078	0.10422	0.28436	0.15228	0.25645	0.092532	0.17806	-2.4375	-2.9646	-2.8667	-2.85	-3.1958	-2.75	-3.1583	-2.7583	-2.5417	-3.1188	-2.8875	-2.8042	-3.1146	-2.7021	-3.1813	-2.8583	309.378	211.625	207.940	314.207	170.129	13.426	292.093	118.961	88.082	172.403	280.804	265.441	29.315	-40.906	234.007	236.231	3.6506e-05	0.0003851	0.00022445	692.45	1.207e-06	6.8919e-06	870.41	192.57	4.4417e-06	4.4998e-06	255.31	69.107	52.42	13.227	3.3769e-06	21.541	0.00084829	0.00091886	0.00029607	729.91	9.772e-06	1.0551e-05	881.26	198.75	9.8069e-06	1.0688e-05	279.13	72.227	55.565	14.556	1.1723e-05	23.208	231.984	100.521	35.687	-30.325	184.149	186.724	-31.423	-25.979	308.103	206.833	-27.076	-22.216	-21.287	-16.130	9.997	-16.881	-8191	255	
2319.399	1	1	0	0	0.21862	0.18295	0.10419	0.046907	0.15846	0.18311	0.13421	0.25857	0.064565	0.10694	0.1248	0.035536	0.21196	0.15426	0.065256	0.15506	-2.3021	-3.1604	-2.6542	-2.7792	-3.0104	-2.6292	-3.2917	-2.9333	-2.8375	-3.1917	-2.6021	-3.0167	-3.2354	-2.7271	-3.0812	-2.9333	312.675	306.804	196.314	-43.847	120.890	23.061	306.855	-41.937	0.217	-25.979	260.116	287.661	62.127	307.563	141.553	183.598	0.00021572	0.00068822	0.00013353	692.27	3.8565e-06	4.5325e-06	872.11	192.11	2.9385e-06	4.4354e-06	256.74	69.331	52.183	13.266	9.2873e-06	21.674	0.0008512	0.0010338	0.00029793	731.46	9.6541e-06	1.1618e-05	884.61	198.11	9.9038e-06	1.1642e-05	277.53	72.132	55.339	14.578	1.1019e-05	23.117	84.971	100.329	-28.389	-30.450	-6.089	4.481	-31.372	-26.426	137.139	16.676	-27.782	-22.269	-21.700	-16.411	65.900	-17.092	-8191	255	
2319.495	1	1	0	0	0.16872	0.20419	0.1057	0.10882	0.30093	0.15322	0.13746	0.17592	0.15975	0.066821	0.088908	0.12906	0.11441	0.12223	0.019513	0.096502	-2.2729	-3.0771	-2.9188	-2.8958	-2.9896	-2.7521	-3.2708	-2.9479	-2.8896	-3.1625	-2.8208	-2.8063	-3.2	-2.6479	-3.0021	-3.1229	13.654	300.651	80.520	10.389	248.091	-18.900	289.126	72.540	28.850	58.468	280.666	202.242	312.200	-13.413	280.199	63.578	0.00024198	0.00026491	0.00032102	687.48	2.0168e-06	5.1127e-06	870.33	190.88	5.7868e-06	3.5249e-06	254.05	68.668	52.063	13.208	4.1482e-06	21.725	0.00085829	0.0010482	0.00027118	720.98	9.6168e-06	1.1454e-05	876.94	196.35	1.001e-05	1.1503e-05	273.92	71.421	55.324	14.519	1.0513e-05	23.013	68.103	31.696	-3.071	-30.837	196.190	95.077	-31.545	-26.051	0.551	27.450	-27.639	-22.314	-21.588	-15.894	-37.762	-16.900	-8191	255	
2319.591	1	1	0	0	0.22891	0.14677	0.13455	0.19836	0.057439	0.2938	0.033366	0.28621	0.14047	0.26375	0.28158	0.24471	0.21837	0.084797	0.077376	0.29401	-2.1854	-3.1917	-2.8271	-2.8604	-3.2458	-2.6	-3.0625	-3.2812	-2.6229	-3.2354	-2.8958	-2.9	-3.1813	-2.9083	-2.8333	-3.1104	118.883	165.876	-5.041	265.382	79.924	296.752	38.307	7.892	15.087	313.643	103.841	41.266	51.515	276.991	133.013	182.703	0.00047394	0.00079977	0.00022231	684.52	6.9113e-06	6.9754e-06	865.95	188.76	4.4851e-06	1.1167e-05	255.03	67.905	51.067	12.915	7.3749e-06	21.327	0.00090732	0.0010446	0.00026636	720.4	1.0528e-05	1.1197e-05	874.65	194.75	1.068e-05	1.1118e-05	271.41	70.512	54.988	14.258	1.0071e-05	22.714	67.758	17.944	56.966	-31.035	83.130	100.628	-31.542	-26.295	113.037	42.247	-26.951	-22.409	-21.249	-16.109	65.281	-17.060	-8191	255	
2319.687	1	1	0	0	0.15078	0.19638	0.14682	0.14117	0.049319	0.11846	0.14635	0.29906	0.11878	0.080797	0.020523	0.23129	0.26286	0.16778	0.055852	0.25064	-2.3125	-2.9396	-2.8375	-2.6979	-3.1458	-2.9667	-2.9958	-3.1417	-2.7292	-3.2146	-2.8292	-2.8063	-3.1542	-2.85	-2.6875	-3.0979	131.903	165.797	8.633	133.264	18.989	110.854	310.972	226.086	139.043	94.576	300.677	311.907	-19.303	28.032	245.023	35.880	0.00031184	8.836e-05	0.00013167	683.87	5.8348e-06	4.6314e-06	863.34	189.44	2.6233e-06	4.8937e-06	252.68	67.888	51.887	13.059	4.9414e-06	21.247	0.00094504	0.0010072	0.00025493	718.95	1.1217e-05	1.0826e-05	870.97	194.99	1.1138e-05	1.0623e-05	269.82	70.711	55.288	14.211	9.607e-06	22.774	82.569	246.607	290.338	-30.320	96.151	187.454	-31.438	-25.894	215.116	90.660	-27.540	-22.496	-21.958	-15.783	65.920	-17.151	-8191	255	
2319.783	1	1	0	0	0.3372	0.1612	0.10626	0.27199	0.11891	0.19686	0.075564	0.16449	0.088532	0.21176	0.33307	0.050408	0.2093	0.11084	0.060193	0.10538	-2.5062	-2.9396	-2.9021	-2.8646	-2.8604	-3.0271	-2.8812	-3.0938	-2.7062	-2.9188	-3.1688	-2.7833	-3.0083	-2.7625	-2.7479	-3.2896	138.764	277.281	88.234	202.490	63.190	108.386	-30.353	166.578	45.360	206.504	201.528	-1.537	-32.638	217.357	248.402	268.068	8.9494e-05	0.0001943	0.000183	682.88	6.1545e-06	1.058e-05	867.16	190.11	5.5072e-06	5.0979e-06	255.81	67.868	51.771	13.18	3.1796e-06	21.793	0.00097318	0.00093826	0.00023673	723.64	1.1051e-05	1.0076e-05	873.98	196.82	1.0921e-05	9.9632e-06	270.73	71.433	55.249	14.228	8.8737e-06	23.174	67.323	313.182	80.220	-30.629	103.188	155.407	-31.445	-25.855	27.357	202.827	-27.952	-21.971	-21.882	-15.831	50.456	-16.726	-8191	255	
2319.902	1	1	0	0	0.11205	0.046387	0.105	0.1166	0.1665	0.30016	0.39726	0.2156	0.13436	0.078786	0.11349	0.037614	0.16452	0.1389	0.28752	0.25274	-2.45	-2.8479	-2.9604	-2.8229	-2.9917	-2.8875	-2.8208	-3.1271	-2.7812	-3	-3.0625	-2.8667	-2.8708	-3.1083	-2.5458	-3.2646	153.352	300.884	137.408	160.476	224.887	266.101	227.362	215.806	220.671	3.281	204.991	81.608	174.418	129.749	-39.031	304.548	0.00010398	0.00025238	0.00021114	685.86	6.721e-06	3.8981e-06	872.3	192.27	8.604e-07	2.0903e-06	256.57	68.075	51.485	13.114	5.502e-06	21.131	0.00091056	0.00087581	0.0002213	725.98	1.0238e-05	9.3634e-06	876.45	198.16	1.0047e-05	9.1801e-06	269.41	71.088	54.67	14.074	8.6225e-06	22.727	110.553	125.211	94.865	-31.353	86.411	159.625	-31.679	-26.078	-12.551	200.663	-27.799	-21.780	-21.868	-16.023	66.149	-17.020	-8191	255	
2319.999	1	1	0	0	0.23105	0.2362	0.15459	0.27884	0.17409	0.14229	0.15401	0.28341	0.18722	0.077443	0.067351	0.081063	0.056503	0.16909	0.060668	0.15574	-2.3083	-2.8146	-3.0667	-3.1188	-2.9167	-3.1167	-2.8708	-3.0396	-2.9813	-2.8396	-3.0458	-2.8042	-3.2	-2.9271	-2.9	-3.1417	-10.613	-32.797	139.115	225.930	78.654	-38.084	203.014	262.193	121.637	163.050	98.008	314.816	207.795	51.784	238.422	66.416	9.9612e-05	0.00079345	8.3113e-05	682.44	6.538e-06	6.17e-06	848.23	187.76	1.0074e-05	4.1818e-06	249.95	66.32	51.143	12.829	8.3869e-06	20.902	0.00081088	0.00078855	0.00022048	719.92	9.3741e-06	8.5072e-06	859.44	194.18	9.1098e-06	8.5888e-06	265.42	69.561	53.746	13.715	9.16e-06	22.217	184.928	44.300	150.702	-30.501	117.852	117.014	-31.263	-25.985	30.796	227.189	-27.777	-22.450	-21.886	-16.257	220.003	-16.607	-8191	255	
2320.095	1	1	0	0	0.27698	0.18457	0.30595	0.19686	0.023558	0.12686	0.21666	0.094317	0.20654	0.10595	0.16919	0.25831	0.099353	0.12189	0.133	0.32306	-2.4208	-2.9292	-3.1562	-2.85	-3.0646	-2.9917	-2.9104	-3.1854	-2.7917	-2.7021	-2.9938	-2.8271	-2.9271	-3.1646	-2.5625	-3.1417	7.328	184.559	205.072	27.258	98.293	-30.292	282.859	71.815	212.213	-36.431	59.798	56.919	285.407	247.814	-13.577	303.543	0.00011782	0.00079917	2.3047e-05	673.88	4.8615e-06	5.0841e-06	856.48	187.48	5.3975e-06	5.1981e-06	252.74	65.965	50.306	12.549	7.4264e-06	20.573	0.00078668	0.00077434	0.00024021	716.92	9.2381e-06	8.534e-06	864.4	193.76	9.1816e-06	8.5793e-06	268.44	69.306	53.251	13.618	1.0165e-05	22.229	88.089	42.402	76.885	-30.625	276.817	128.208	-31.222	-25.978	17.239	15.214	-27.568	-22.137	-21.656	-15.913	113.784	-17.161	-8191	255	
2320.191	1	1	0	0	0.43522	0.1988	0.14359	0.2022	0.14704	0.13325	0.067538	0.084186	0.24833	0.076921	0.11475	0.10386	0.11987	0.16313	0.1892	0.1914	-2.4583	-2.6583	-3.1271	-2.7208	-2.8833	-3.0604	-2.9271	-3.0125	-2.8167	-2.7687	-3.0312	-2.7375	-2.9229	-2.9771	-2.6625	-3.1937	51.493	100.732	97.114	70.523	10.057	-14.784	270.964	-6.238	21.666	273.164	111.531	281.132	100.282	16.719	59.533	204.913	0.00018627	0.00063505	0.00011393	674.98	8.115e-06	3.6343e-06	856.69	186.77	1.9332e-06	4.2529e-06	252.35	65.363	49.938	12.36	3.6552e-06	20.465	0.00079334	0.0008017	0.00025996	717.22	9.1112e-06	8.6882e-06	865	192.73	8.7871e-06	8.9078e-06	268.43	68.279	52.482	13.417	1.0297e-05	21.83	48.900	36.711	-8.289	-31.087	57.156	156.068	-31.516	-26.069	-24.092	144.078	-27.526	-22.246	-21.629	-16.533	154.869	-16.656	-8191	255	
2320.287	1	1	0	0	0.12771	0.21758	0.10317	0.046205	0.17624	0.014441	0.093488	0.47962	0.2485	0.16675	0.31409	0.17477	0.11166	0.11102	0.13019	0.35344	-2.5812	-2.6229	-3.0229	-2.7354	-2.7417	-3.0771	-2.9125	-2.7771	-2.9292	-2.6542	-3.0792	-2.7208	-2.7625	-3.1625	-2.6167	-2.8396	218.320	280.843	-20.542	284.039	225.646	136.114	285.624	273.234	59.280	81.680	-20.260	-28.725	111.786	-9.287	174.283	-42.468	9.7128e-05	0.0010128	0.00017454	684.05	5.7118e-06	6.5656e-06	851.88	186.99	5.1397e-06	1.0252e-06	248.33	64.612	49.378	12.223	5.8554e-06	20.103	0.00073589	0.00084122	0.00025934	716.78	8.5429e-06	9.2198e-06	863.39	191.87	8.3621e-06	9.32e-06	265.85	67.615	51.885	13.301	9.8294e-06	21.401	56.728	48.811	125.883	-30.851	140.570	186.383	-31.579	-26.315	120.514	97.374	-28.088	-21.808	-21.836	-15.590	39.984	-17.303	-8191	255	
2320.383	1	1	0	0	0.094165	0.12196	0.087439	0.15064	0.14537	0.11594	0.077129	0.10275	0.071135	0.21942	0.11311	0.18444	0.040867	0.187	0.10768	0.2201	-2.6729	-2.475	-2.9375	-2.7229	-2.8458	-3.1833	-2.8792	-2.7854	-3.1042	-2.7333	-2.8833	-3.0125	-2.6562	-3.0938	-2.8625	-2.9125	-43.041	122.919	-26.414	155.458	250.217	-5.330	199.339	79.900	271.961	245.880	290.612	-10.972	138.481	264.555	68.679	260.995	0.00022655	0.0008684	0.00011341	677	2.8171e-06	1.4708e-06	845.19	184.28	2.3349e-06	1.9405e-06	245.76	63.1	47.77	11.87	5.9468e-06	19.492	0.00070842	0.00088272	0.00025233	710.2	8.6745e-06	1.0092e-05	855.38	189.03	8.7949e-06	1.0567e-05	262.3	65.972	50.899	13.132	1.003e-05	20.82	81.438	74.747	65.299	-30.854	215.448	38.140	-31.508	-26.379	282.352	101.619	-27.538	-22.087	-21.661	-15.915	248.996	-17.414	-8191	255	
2320.504	1	1	0	0	0.086971	0.15129	0.154	0.18534	0.27225	0.11075	0.23559	0.12006	0.09256	0.0096385	0.15736	0.17534	0.10691	0.076624	0.11195	0.14705	-2.7438	-2.5708	-3.0438	-2.9417	-2.6958	-3.1896	-2.9708	-2.825	-3.0417	-2.6979	-3.0417	-3	-2.9583	-3.0104	-2.8479	-2.8646	100.687	253.644	255.134	314.885	-29.608	220.628	210.527	221.523	82.121	5.305	63.539	93.426	314.400	-13.348	108.385	187.524	0.00022753	0.00056333	8.8832e-05	681.69	2.8082e-06	7.8012e-06	849.07	184.58	6.4181e-06	5.4992e-06	246.41	62.848	48.16	12.001	6.8465e-06	19.944	0.00078952	0.0009943	0.00025525	713.85	9.476e-06	1.0945e-05	856.09	189.14	9.5902e-06	1.0999e-05	261.14	65.66	51.133	13.154	9.7161e-06	21.219	76.776	-2.136	-30.843	-30.568	266.467	140.983	-31.547	-26.025	181.914	93.601	-28.142	-21.954	-21.472	-16.048	-2.356	-16.887	-8191	255	
2320.600	1	1	0	0	0.20773	0.15421	0.2032	0.22544	0.21274	0.27653	0.22789	0.1251	0.16964	0.18607	0.14588	0.29519	0.05843	0.1392	0.26725	0.11793	-2.6604	-2.7521	-2.8125	-3.1167	-2.7438	-2.9542	-2.9208	-2.5396	-2.975	-2.7417	-2.9229	-3.2208	-2.6583	-3.1896	-2.9	-2.6312	21.899	59.474	-25.464	81.846	168.585	92.025	253.625	-37.955	156.365	-8.011	149.755	310.982	55.518	212.502	56.727	230.373	0.00023242	0.00025218	0.00016192	681.46	7.1099e-06	3.7558e-06	865.14	183.45	1.2303e-05	4.8458e-06	245.19	63.295	47.844	12.083	1.0677e-05	20.033	0.00084389	0.00097797	0.00024936	715.21	1.0271e-05	1.0823e-05	872.16	188.97	1.0241e-05	1.0619e-05	261.58	66.186	51.323	13.191	9.4603e-06	21.527	52.511	194.687	283.056	-30.559	97.353	75.791	-31.662	-26.283	167.760	68.029	-27.610	-22.050	-21.678	-16.147	53.398	-16.521	-8191	255	
2320.694	1	1	0	0	0.16709	0.14417	0.22273	0.059086	0.18892	0.2929	0.1445	0.24137	0.27861	0.2748	0.24783	0.17524	0.17221	0.1046	0.20481	0.29781	-2.75	-2.8083	-2.7479	-3.1063	-2.7542	-3.0625	-3.2438	-2.7021	-3.0583	-2.9521	-2.7979	-3.1146	-2.7146	-2.9167	-3.0438	-2.8917	183.914	276.780	152.829	-4.568	239.399	224.342	296.124	275.137	294.544	311.085	-39.372	132.051	195.091	266.068	254.955	290.016	0.00018912	0.00060566	0.00033179	681.14	7.4114e-06	6.6547e-06	860.94	182.35	2.1322e-06	3.7639e-06	245.86	63.426	47.168	11.928	1.6287e-06	20.062	0.00090977	0.00095266	0.0002447	716.6	1.0878e-05	1.0263e-05	866.28	187.9	1.082e-05	1.0104e-05	260.3	66.037	50.895	12.971	9.2419e-06	21.426	29.850	-18.458	55.681	-30.178	266.328	66.086	-31.553	-26.367	159.113	198.060	-27.408	-21.962	-21.557	-16.334	274.872	-16.961	-8191	255	
2320.792	1	1	0	0	0.18264	0.19002	0.11516	0.13893	0.021033	0.1887	0.21312	0.11211	0.12272	0.38689	0.050329	0.19748	0.20761	0.10229	0.32131	0.2343	-2.5771	-2.8125	-2.6354	-3.0708	-2.6333	-2.9333	-3.1312	-2.5583	-3.2042	-2.7583	-2.8271	-3.1813	-2.7438	-3.0208	-3.2042	-2.7542	71.532	-37.880	72.081	41.865	166.761	47.905	290.372	196.285	97.053	270.632	287.050	85.588	37.433	-3.568	203.515	178.847	0.00010206	0.00053405	0.00023498	677.1	3.513e-06	7.3308e-06	846.35	180.13	7.4264e-06	4.1186e-06	241.08	62.449	47.004	11.784	1.0396e-05	19.684	0.00094077	0.00091989	0.00023807	715.71	1.1166e-05	1.026e-05	854.39	187.03	1.1301e-05	1.0322e-05	256.59	65.629	50.529	12.883	9.2654e-06	21.348	-4.140	43.590	138.719	-30.807	135.100	61.374	-31.542	-25.947	52.806	82.350	-27.785	-22.040	-21.738	-15.963	109.596	-16.827	-8191	255	
2320.887	1	1	0	0	0.28604	0.18324	0.30809	0.21764	0.069194	0.086166	0.058263	0.22943	0.31425	0.021422	0.21045	0.44589	0.22735	0.075686	0.11995	0.054509	-2.7104	-2.7	-2.7625	-3.2625	-2.7854	-2.9417	-3.2646	-2.7604	-3.0896	-2.9271	-2.8083	-3.1813	-2.7917	-2.8438	-3.1458	-2.6396	59.767	171.232	8.694	-36.427	-36.246	225.952	6.115	286.467	270.331	195.606	288.640	314.383	-9.866	96.540	30.707	171.966	0.00011696	0.00043712	0.00022073	679.41	7.4915e-06	5.9279e-06	844.17	181.78	6.0943e-06	5.1485e-06	241.38	62.037	47.313	11.716	2.5862e-06	19.69	0.00094449	0.0009303	0.00024104	721.11	1.1181e-05	1.0044e-05	853.05	188.62	1.0932e-05	9.9226e-06	258.47	65.803	50.737	12.864	9.4598e-06	21.482	151.974	273.115	127.660	-30.543	-34.750	270.318	-31.400	-25.996	117.910	90.473	-27.702	-21.995	-21.650	-15.845	243.435	-16.540	-8191	255	
2320.983	1	1	0	0	0.37667	0.14194	0.20216	0.19857	0.069956	0.10181	0.22964	0.10897	0.22298	0.023395	0.065799	0.091459	0.26493	0.012705	0.015267	0.094255	-2.6542	-2.9417	-2.7167	-3.1792	-2.8438	-3.0438	-3.1875	-2.7958	-3.0333	-2.9854	-2.75	-3.0104	-2.6229	-2.7979	-3.0521	-2.6333	48.875	171.487	143.019	10.709	-15.352	179.422	-36.426	-15.141	53.408	49.632	314.420	236.336	237.315	156.467	-29.752	223.872	0.00013871	0.00067722	7.1078e-05	672.83	5.6876e-06	3.4012e-06	850.46	182.99	3.5793e-06	6.3967e-06	245.47	62.99	48.279	12.273	9.4594e-06	20.178	0.00090975	0.00088695	0.00025069	725.11	1.048e-05	9.6663e-06	857.32	189.98	1.0309e-05	9.6817e-06	262.83	67.243	51.497	13.192	1.0472e-05	21.858	44.514	72.132	-16.098	-30.775	180.007	125.904	-31.557	-25.917	212.487	-30.424	-27.404	-22.403	-21.490	-16.250	206.524	-17.050	-8191	255	
#DATA ENDS
