BOXY.EXE: ISS Imagent and Oximeter Data Acquisition Program Version 0.80
Ascii Record File

#ACQ INFORMATION
2  Detector Channels 
16  External MUX Channels 
1  Auxiliary Channels 
5000  Waveform (CCF) Frequency (Hz)
1  Waveforms Skipped 
30  Waveforms Averaged 
1  Cycles Averaged 
16  Acquisitions per Waveform 
10.0806  Updata Rate (Hz) 

#FILE INFORMATION
TRUE -- External MUX Channel results are PARSED.
FALSE -- AC DC and Phase are NOT grouped.
TRUE -- Companion Program Settings File CREATED.
FALSE -- AC data not excluded
FALSE -- DC data not excluded
FALSE -- Phase data not excluded
FALSE -- Auxillary Chn. data not excluded
Tab delimiters

#CALIBRATION STATE
TRUE -- Waveform Calibration Values APPLIED.


#AUX CALIBRATION VALUES
Val Type	aux-1	

Term	1.0000e+00	
Factor	0.0000e+00	


#WF CALIBRATION VALUES
A = Detector Channel
Val Type	A-AC1	A-AC2	A-AC3	A-AC4	A-AC5	A-AC6	A-AC7	A-AC8	A-AC9	A-AC10	A-AC11	A-AC12	A-AC13	A-AC14	A-AC15	A-AC16	A-DC1	A-DC2	A-DC3	A-DC4	A-DC5	A-DC6	A-DC7	A-DC8	A-DC9	A-DC10	A-DC11	A-DC12	A-DC13	A-DC14	A-DC15	A-DC16	A-Ph1	A-Ph2	A-Ph3	A-Ph4	A-Ph5	A-Ph6	A-Ph7	A-Ph8	A-Ph9	A-Ph10	A-Ph11	A-Ph12	A-Ph13	A-Ph14	A-Ph15	A-Ph16	

Term	0.00000e+00	0.00000e+00	0.00000e+00	0.00000e+00	0.00000e+00	0.00000e+00	0.00000e+00	0.00000e+00	0.00000e+00	0.00000e+00	0.00000e+00	0.00000e+00	0.00000e+00	0.00000e+00	0.00000e+00	0.00000e+00	0.00000e+00	0.00000e+00	0.00000e+00	0.00000e+00	0.00000e+00	0.00000e+00	0.00000e+00	0.00000e+00	0.00000e+00	0.00000e+00	0.00000e+00	0.00000e+00	0.00000e+00	0.00000e+00	0.00000e+00	0.00000e+00	0.00000e+00	0.00000e+00	0.00000e+00	0.00000e+00	0.00000e+00	0.00000e+00	0.00000e+00	0.00000e+00	0.00000e+00	0.00000e+00	0.00000e+00	0.00000e+00	0.00000e+00	0.00000e+00	0.00000e+00	0.00000e+00	
Factor	1.00000e+00	1.00000e+00	1.00000e+00	1.00000e+00	1.00000e+00	1.00000e+00	1.00000e+00	1.00000e+00	1.00000e+00	1.00000e+00	1.00000e+00	1.00000e+00	1.00000e+00	1.00000e+00	1.00000e+00	1.00000e+00	1.00000e+00	1.00000e+00	1.00000e+00	1.00000e+00	1.00000e+00	1.00000e+00	1.00000e+00	1.00000e+00	1.00000e+00	1.00000e+00	1.00000e+00	1.00000e+00	1.00000e+00	1.00000e+00	1.00000e+00	1.00000e+00	X	X	X	X	X	X	X	X	X	X	X	X	X	X	X	X	

B = Detector Channel
Val Type	B-AC1	B-AC2	B-AC3	B-AC4	B-AC5	B-AC6	B-AC7	B-AC8	B-AC9	B-AC10	B-AC11	B-AC12	B-AC13	B-AC14	B-AC15	B-AC16	B-DC1	B-DC2	B-DC3	B-DC4	B-DC5	B-DC6	B-DC7	B-DC8	B-DC9	B-DC10	B-DC11	B-DC12	B-DC13	B-DC14	B-DC15	B-DC16	B-Ph1	B-Ph2	B-Ph3	B-Ph4	B-Ph5	B-Ph6	B-Ph7	B-Ph8	B-Ph9	B-Ph10	B-Ph11	B-Ph12	B-Ph13	B-Ph14	B-Ph15	B-Ph16	

Term	0.00000e+00	0.00000e+00	0.00000e+00	0.00000e+00	0.00000e+00	0.00000e+00	0.00000e+00	0.00000e+00	0.00000e+00	0.00000e+00	0.00000e+00	0.00000e+00	0.00000e+00	0.00000e+00	0.00000e+00	0.00000e+00	0.00000e+00	0.00000e+00	0.00000e+00	0.00000e+00	0.00000e+00	0.00000e+00	0.00000e+00	0.00000e+00	0.00000e+00	0.00000e+00	0.00000e+00	0.00000e+00	0.00000e+00	0.00000e+00	0.00000e+00	0.00000e+00	-1.95322e+02	-1.31664e+02	-1.35514e+02	-1.83507e+02	-9.14092e+01	-5.93382e+01	-1.57852e+02	-1.62015e+02	-9.36674e+01	-6.54123e+01	-1.76234e+02	-1.71211e+02	-1.81698e+02	-1.78091e+02	-8.68548e+01	-1.51000e+02	
Factor	4.07472e-05	1.94038e-04	5.01386e-05	4.44362e-01	1.74494e-06	1.67566e-06	1.66286e-01	6.31906e-02	2.08765e-06	1.66474e-06	2.13853e-01	2.89034e-02	2.88634e-02	9.13376e-03	1.93495e-06	1.32076e-02	3.19055e-06	3.47120e-06	9.67125e-07	2.29784e-01	3.78690e-08	3.80063e-08	8.23849e-02	3.32550e-02	3.75348e-08	3.80335e-08	1.05779e-01	1.48008e-02	1.52162e-02	4.84302e-03	3.76195e-08	6.77457e-03	X	X	X	X	X	X	X	X	X	X	X	X	X	X	X	X	



#DISTANCE SETTINGS
A = Detector Channel
A-1	A-2	A-3	A-4	A-5	A-6	A-7	A-8	A-9	A-10	A-11	A-12	A-13	A-14	A-15	A-16	

2.5000e+00	3.0000e+00	2.5000e+00	3.0000e+00	2.0000e+00	3.0000e+00	1.5000e+00	3.0000e+00	3.0000e+00	3.0000e+00	3.0000e+00	3.0000e+00	3.0000e+00	3.0000e+00	1.5000e+00	3.0000e+00	

B = Detector Channel
B-1	B-2	B-3	B-4	B-5	B-6	B-7	B-8	B-9	B-10	B-11	B-12	B-13	B-14	B-15	B-16	

1.0000e+01	1.0000e+01	1.0000e+01	1.4400e+00	1.0000e+01	1.0000e+01	1.5100e+00	1.9400e+00	1.0000e+01	1.0000e+01	1.9900e+00	2.4900e+00	2.4100e+00	2.9000e+00	1.0000e+01	2.9800e+00	




#DATA BEGINS
time	group	step	mark	flag	A-AC1	A-AC2	A-AC3	A-AC4	A-AC5	A-AC6	A-AC7	A-AC8	A-AC9	A-AC10	A-AC11	A-AC12	A-AC13	A-AC14	A-AC15	A-AC16	A-DC1	A-DC2	A-DC3	A-DC4	A-DC5	A-DC6	A-DC7	A-DC8	A-DC9	A-DC10	A-DC11	A-DC12	A-DC13	A-DC14	A-DC15	A-DC16	A-Ph1	A-Ph2	A-Ph3	A-Ph4	A-Ph5	A-Ph6	A-Ph7	A-Ph8	A-Ph9	A-Ph10	A-Ph11	A-Ph12	A-Ph13	A-Ph14	A-Ph15	A-Ph16	B-AC1	B-AC2	B-AC3	B-AC4	B-AC5	B-AC6	B-AC7	B-AC8	B-AC9	B-AC10	B-AC11	B-AC12	B-AC13	B-AC14	B-AC15	B-AC16	B-DC1	B-DC2	B-DC3	B-DC4	B-DC5	B-DC6	B-DC7	B-DC8	B-DC9	B-DC10	B-DC11	B-DC12	B-DC13	B-DC14	B-DC15	B-DC16	B-Ph1	B-Ph2	B-Ph3	B-Ph4	B-Ph5	B-Ph6	B-Ph7	B-Ph8	B-Ph9	B-Ph10	B-Ph11	B-Ph12	B-Ph13	B-Ph14	B-Ph15	B-Ph16	aux-1	digaux	

3193.971	1	1	0	768	0.19429	0.12588	0.19841	0.18873	0.092322	0.086205	0.25792	0.086955	0.12854	0.26581	0.094949	0.21649	0.16262	0.1504	0.14459	0.076394	-2.4646	-3.0771	-2.8521	-2.9917	-3.1562	-2.7396	-3.1729	-2.8167	-2.8229	-3.1312	-2.7208	-3.1104	-2.9667	-2.7771	-3.2958	-2.7938	59.315	183.535	-32.306	226.762	145.671	38.059	204.564	62.383	31.135	-2.906	-46.506	-115.240	-104.287	58.692	128.545	-108.612	0.00042902	0.00052247	0.00019935	347.31	1.904e-05	1.8282e-05	398.07	111.37	2.6717e-05	1.1971e-05	164.01	60.222	40.844	17.302	1.321e-05	32.446	0.0062401	0.0066142	0.0020962	837.16	7.2031e-05	7.0892e-05	600.95	184.27	6.701e-05	6.8629e-05	385.62	92.278	70.125	27.515	7.3147e-05	47.422	127.816	149.265	-64.672	-120.097	-35.804	-104.502	-120.764	-114.837	-13.460	-121.737	-115.913	-111.669	-111.542	-104.764	23.275	-106.911	-8191	255	
3194.067	1	1	0	0	0.20125	0.28615	0.083119	0.054222	0.18884	0.07634	0.10233	0.23113	0.16512	0.087814	0.32253	0.24604	0.20758	0.089327	0.19941	0.10965	-2.6208	-2.9875	-2.9417	-2.8625	-3.1562	-2.8438	-3.1437	-3.0042	-2.625	-3.175	-2.7833	-3.3667	-3.125	-2.7875	-3.0646	-3.2375	50.613	-82.743	-89.709	221.661	11.854	109.306	66.555	-115.529	22.157	207.577	42.025	2.643	1.324	-66.034	111.361	129.049	0.00059065	0.00049374	0.00037283	342.98	1.3806e-05	1.7395e-05	393.03	109.79	3.8937e-06	1.4118e-05	162.49	58.349	39.769	16.936	2.9964e-05	31.63	0.0053487	0.0061256	0.0018433	760.52	6.1076e-05	6.6232e-05	576.83	175.56	6.0175e-05	6.7941e-05	367.92	88.409	67.404	27.183	6.8985e-05	45.929	133.744	187.978	21.939	-120.055	35.477	-116.584	-120.847	-114.860	202.954	-121.984	-117.022	-111.793	-111.485	-105.095	3.842	-106.930	-8191	255	
3194.163	1	1	0	0	0.15403	0.27532	0.14479	0.098499	0.12074	0.24203	0.096438	0.17205	0.25705	0.15182	0.15998	0.25845	0.075651	0.20876	0.039664	0.1669	-2.4604	-3.1729	-2.9021	-2.8312	-3.3187	-2.6458	-3.175	-3.025	-2.8271	-3.2333	-3.0542	-2.7438	-3.2333	-2.7958	-3.1167	-3.2458	61.433	-30.237	-89.274	-93.938	125.570	193.531	-64.180	173.147	176.505	40.540	129.939	-28.865	180.725	211.274	155.536	199.224	0.00040527	0.0021858	0.00035987	344.08	6.708e-06	2.5614e-06	392.89	109.62	1.0186e-05	2.4557e-06	163.93	58.814	39.759	16.984	1.5179e-05	31.947	0.0051741	0.0063725	0.0017833	755.24	6.2305e-05	7.1552e-05	575.08	175.28	6.2068e-05	7.2559e-05	366.73	88.886	69.015	28.011	7.0564e-05	46.591	137.774	149.859	-11.307	-119.327	99.332	-122.394	-120.758	-115.020	199.038	-62.573	-116.164	-111.838	-111.916	-104.584	23.746	-107.078	-8191	255	
3194.259	1	1	0	0	0.068609	0.11343	0.18863	0.10021	0.19448	0.12107	0.12274	0.096021	0.18702	0.14703	0.083403	0.11203	0.18492	0.073331	0.13306	0.23582	-2.2021	-3.3167	-2.9813	-2.8312	-3.2479	-2.7687	-3.1667	-3.0917	-2.8229	-3.2188	-3.0187	-2.8833	-3.0021	-2.9292	-2.9813	-3.1271	42.102	-82.163	-112.102	-128.268	-66.920	198.566	69.669	-5.440	-129.058	-45.764	138.622	184.193	65.249	-114.944	-35.358	69.882	0.00080044	0.0011616	0.00032879	346.61	1.0346e-05	1.5123e-05	397.65	111.19	2.9504e-05	7.0199e-06	166.05	59.98	40.341	17.144	2.3256e-05	32.288	0.0057691	0.0071586	0.0018927	785.36	7.2169e-05	8.2054e-05	594.09	182.55	7.4779e-05	8.3213e-05	388.26	92.574	74.887	29.309	7.5894e-05	47.835	109.111	52.717	-40.917	-120.030	173.651	88.517	-120.770	-114.563	184.576	-47.845	-116.395	-111.699	-111.751	-104.532	0.957	-106.702	-8191	255	
3194.356	1	1	0	0	0.13205	0.075707	0.013778	0.043681	0.20295	0.10604	0.17553	0.061979	0.26299	0.11494	0.24513	0.20529	0.11447	0.11366	0.16163	0.05469	-2.4688	-3.1	-2.9688	-2.8458	-3.1396	-2.7833	-3.0375	-3.0792	-2.6437	-3.025	-3.075	-2.6604	-3.3625	-2.8667	-2.7854	-3.2396	204.023	143.164	198.908	-6.763	-128.883	-83.083	170.119	71.009	-54.895	198.295	-60.642	-129.160	190.621	100.357	73.647	-115.172	0.00097961	0.0023614	0.00030322	345.41	1.5157e-05	9.5723e-06	402.23	112.74	3.8015e-05	1.6339e-05	167.31	60.585	41.273	17.35	2.0354e-05	32.149	0.0067633	0.007766	0.0020154	816.06	8.3675e-05	8.7318e-05	607.77	188.06	8.5747e-05	8.7778e-05	405.45	96.189	80.682	30.278	8.0908e-05	49.151	108.470	-1.639	-26.684	-120.550	159.610	161.862	-120.365	-114.675	213.289	34.651	-115.848	-111.627	-111.627	-104.540	22.342	-106.997	-8191	255	
3194.452	1	1	0	0	0.32128	0.17921	0.23465	0.071569	0.12094	0.13483	0.050577	0.19128	0.29837	0.21592	0.16157	0.11272	0.072346	0.28309	0.15961	0.25414	-2.1083	-2.8771	-2.9917	-2.7354	-3.1854	-2.8812	-2.8583	-3.1271	-2.7729	-3.0292	-2.8958	-2.8292	-3.2417	-3.0771	-2.8333	-2.9979	204.937	203.688	46.681	100.426	-61.511	-85.532	-100.150	76.099	131.876	-92.431	-50.706	-11.698	43.618	173.007	68.227	-83.458	0.00070148	0.0017798	0.00042119	340.05	8.9165e-06	9.2334e-06	394.23	109.25	2.0565e-05	2.7678e-05	159.66	57.95	38.846	16.641	2.0177e-05	31.229	0.007641	0.0079927	0.0020585	839.31	9.0305e-05	8.6e-05	596.43	186.86	8.9456e-05	8.4349e-05	386.8	94.031	78.265	28.657	7.5307e-05	48.241	109.053	-2.485	-44.503	-120.582	-101.331	-71.222	-120.593	-114.908	215.543	45.044	-116.073	-111.822	-111.827	-104.964	40.516	-107.250	-8191	255	
3194.572	1	1	0	0	0.037085	0.11508	0.29461	0.082758	0.10518	0.038223	0.15683	0.10516	0.30135	0.094185	0.11163	0.056951	0.10683	0.084569	0.12223	0.13355	-2.4562	-3.0792	-3.1813	-2.8333	-3.1167	-2.8563	-2.9313	-3.1333	-2.7208	-2.9333	-3.0167	-2.8125	-3.1437	-3.0479	-2.7583	-3.0938	87.754	50.102	129.715	45.052	79.357	150.092	142.041	53.780	-13.976	-54.462	-123.617	-59.843	42.863	177.020	175.768	162.176	0.00032368	0.0009379	0.0008175	335.91	1.3583e-05	1.2867e-05	388.12	106.09	1.7064e-05	1.8756e-05	159.31	57.707	39.37	16.993	6.363e-06	31.885	0.0074208	0.0073517	0.001912	838.91	8.6545e-05	7.9765e-05	577.02	185.54	8.5338e-05	7.9423e-05	376.57	95.299	77.765	28.834	7.5917e-05	50.357	127.181	-23.537	-37.984	-120.508	32.010	108.024	-121.064	-115.086	-19.206	25.808	-116.212	-112.029	-110.847	-104.589	-110.494	-106.997	-8191	255	
3194.668	1	1	0	0	0.19891	0.26546	0.29229	0.12284	0.11309	0.16258	0.2737	0.32806	0.070041	0.20113	0.15279	0.09059	0.17523	0.1305	0.16727	0.17657	-2.45	-3.0104	-2.9979	-2.7354	-3.1417	-3.025	-2.7271	-3.3958	-2.8708	-2.8312	-3.3	-2.7729	-3.0167	-3.2146	-2.7833	-3.0958	40.568	132.159	24.772	102.155	-101.630	67.966	-125.668	15.002	-11.452	216.841	54.601	35.147	-114.111	221.899	6.393	226.800	0.00050198	0.0034297	0.00014522	339.66	2.174e-05	1.1375e-05	392.68	109.04	3.935e-05	2.3814e-05	162.66	59.084	40.743	17.475	1.7058e-05	32.872	0.0075716	0.007572	0.002023	913.21	9.0634e-05	8.4359e-05	596.27	198.65	8.7731e-05	8.1272e-05	390	99.536	78.598	29.317	7.9153e-05	52.182	157.259	-70.406	41.801	-121.077	3.487	-24.871	-120.741	-114.603	22.405	33.236	-117.283	-111.788	-111.053	-104.731	-131.602	-107.061	-8191	255	
3194.763	1	1	0	0	0.13577	0.18357	0.10583	0.47434	0.14548	0.23591	0.2526	0.10705	0.074002	0.26388	0.12977	0.044501	0.1866	0.20249	0.21541	0.052991	-2.5708	-3.0521	-3.175	-2.8375	-3.1	-3.1583	-2.875	-3.0833	-2.8833	-2.9562	-3.1104	-2.8312	-3.0833	-3.0875	-2.6729	-3.1958	148.802	141.735	-117.533	117.083	106.416	94.815	193.499	105.880	81.111	103.584	175.168	-14.651	227.524	-30.067	158.678	33.370	0.00018181	0.0020834	0.00023824	345.12	2.0078e-05	1.3829e-05	392.89	110.68	2.3532e-05	2.1468e-05	161.7	60.197	40.826	17.519	3.2699e-05	32.494	0.0073627	0.0073903	0.0020837	933.82	8.677e-05	8.2301e-05	611.52	204.53	8.9717e-05	8.4514e-05	422.1	103.64	80.225	29.861	9.0486e-05	52.972	98.460	-25.444	66.611	-120.862	-4.113	23.634	-121.153	-114.263	-32.378	-14.505	-117.045	-111.714	-111.216	-104.592	189.289	-106.574	-8191	255	
3194.861	1	1	0	0	0.024463	0.050154	0.19116	0.30873	0.1352	0.064182	0.16065	0.033165	0.20071	0.13936	0.047422	0.07883	0.088309	0.19736	0.066235	0.34883	-2.6188	-2.8	-3.1125	-2.8521	-3.0354	-3.1917	-2.7396	-3.1979	-2.9875	-2.8521	-3.2	-2.9292	-2.9375	-3.1354	-2.9042	-3.1292	24.609	-47.984	-48.256	93.336	181.594	194.171	103.629	-10.534	-4.399	180.982	90.992	84.454	-100.345	52.121	219.833	127.369	0.0003178	0.0014302	0.0004428	348.47	1.6603e-05	7.6559e-06	386.37	107.38	2.0685e-05	4.6143e-06	157.21	57.044	38.613	16.66	6.4233e-06	31.297	0.0076112	0.0075944	0.002312	942.88	8.7324e-05	8.1687e-05	617.31	198.23	8.6496e-05	8.1729e-05	427.57	99.295	77.077	28.703	9.579e-05	50.959	91.039	221.759	119.608	-120.211	17.518	-4.369	-121.000	-114.773	18.307	118.218	-117.144	-111.578	-111.784	-104.855	220.191	-106.845	-8191	255	
3194.955	1	1	0	0	0.060346	0.087325	0.10772	0.14516	0.48973	0.15371	0.13343	0.12278	0.2355	0.068475	0.16068	0.33345	0.069097	0.11992	0.30041	0.097902	-2.5271	-2.825	-3.0875	-2.7792	-2.8438	-3.2188	-2.9708	-3.2271	-2.9813	-2.9354	-3.1083	-2.8812	-3.0438	-3.2354	-2.6604	-3.2146	-6.257	217.921	-105.531	67.165	88.349	120.263	129.653	40.241	-13.601	128.100	55.958	173.279	74.476	204.917	220.759	0.056	0.00056287	0.000871	0.00014293	344.17	1.3593e-05	2.0388e-05	382.89	107.77	2.1351e-05	1.1807e-05	159	58.15	39.364	16.532	6.913e-06	31.358	0.0074473	0.0077418	0.0024975	938.6	8.7998e-05	8.6287e-05	633.82	199.01	8.7418e-05	8.8346e-05	452.08	99.999	78.3	29.751	0.00010329	51.241	164.289	169.670	103.288	-119.406	189.272	-113.894	-120.961	-115.043	25.504	-124.399	-117.314	-111.661	-111.443	-104.957	16.687	-106.974	-8191	255	
3195.051	1	1	0	0	0.12185	0.022912	0.33538	0.24694	0.16821	0.12821	0.2382	0.097306	0.014841	0.047426	0.097192	0.3916	0.15607	0.14566	0.31165	0.11053	-2.5521	-2.8146	-3.0958	-2.8	-2.7583	-3.2167	-2.7729	-3.1583	-3.0083	-2.7188	-3.1125	-2.9292	-2.9917	-3.2083	-3.0417	-2.9854	-62.331	40.092	224.792	79.937	22.626	149.963	127.094	167.464	189.862	158.445	174.828	131.669	195.026	-5.067	217.618	-110.946	0.00017602	0.0032035	0.00032845	344.11	9.0402e-06	1.0418e-05	390.69	109.38	2.5157e-05	1.8713e-05	162.51	59.334	40.443	16.888	4.1286e-05	31.897	0.0076091	0.0085806	0.0026873	952.32	9.0379e-05	9.7429e-05	655.43	204.05	9.0366e-05	9.9404e-05	466.32	102	79.796	31.473	0.00010615	52.226	68.008	149.537	-2.490	-119.589	11.248	226.170	-121.024	-114.690	-56.488	218.297	-116.266	-112.249	-111.597	-105.569	-10.917	-106.844	-8191	255	
3195.172	1	1	0	0	0.032108	0.20677	0.070025	0.17913	0.17568	0.059287	0.15676	0.25518	0.091206	0.17632	0.045031	0.29572	0.1539	0.25919	0.016973	0.25543	-2.8354	-2.8854	-3.0917	-3	-2.6562	-3.2687	-2.9083	-2.9583	-3.1417	-2.8708	-2.9479	-3.0438	-2.7625	-3.0146	-2.7687	-2.9104	86.606	223.685	206.668	135.146	73.801	83.773	113.260	18.162	155.090	-120.249	141.102	100.711	18.566	178.389	217.905	209.438	0.00070048	0.0028887	0.00040387	345.74	8.4858e-06	1.295e-05	390.96	109.61	9.2794e-06	1.0598e-05	164.93	58.745	39.682	16.707	1.7944e-05	31.598	0.0078011	0.0095426	0.0027077	951.83	9.0288e-05	0.00010311	643.46	198.98	8.7053e-05	0.00010104	445.6	99.206	78.326	31.24	9.6419e-05	50.245	117.177	152.509	29.462	-120.570	206.980	-56.517	-120.862	-114.283	-109.888	220.493	-116.461	-111.600	-111.440	-105.268	-9.979	-107.367	-8191	255	
3195.268	1	1	0	0	0.16944	0.1567	0.14658	0.18571	0.15669	0.20463	0.34738	0.072366	0.26837	0.13651	0.077838	0.069183	0.1923	0.080971	0.046767	0.057529	-2.6604	-2.7333	-3.0104	-2.8417	-2.8104	-3.1354	-3.0125	-2.8792	-3.0521	-2.9437	-2.8208	-2.9667	-2.8167	-3.1042	-2.8417	-2.9479	-63.171	110.587	197.413	75.892	-101.167	-112.428	154.399	135.177	87.892	121.312	123.941	-93.255	-10.721	62.956	7.797	143.300	0.00057178	0.0016706	0.00054717	341.37	1.3062e-05	8.5943e-06	384.03	107.48	3.2516e-05	2.5506e-05	162.27	57.696	38.767	16.322	1.2301e-05	30.81	0.007387	0.0091423	0.0023723	877.51	8.5197e-05	9.7585e-05	615.13	190.21	8.6287e-05	9.9045e-05	421.4	95.449	77.964	30.387	8.9959e-05	48.473	112.329	218.474	-78.853	-119.940	207.151	111.033	-120.667	-114.449	194.047	175.622	-115.822	-111.952	-111.693	-104.972	13.133	-107.053	-8191	255	
3195.364	1	1	0	0	0.035827	0.0052522	0.052068	0.18001	0.26379	0.053388	0.075121	0.22711	0.033389	0.23308	0.48379	0.227	0.026014	0.2084	0.18734	0.27535	-2.6458	-2.7604	-2.9771	-2.9646	-2.6833	-3.0146	-2.9479	-2.7021	-3.1667	-2.6333	-2.9375	-3.0854	-2.6333	-3.1	-2.6792	-2.8458	101.624	131.601	41.437	145.076	44.216	-41.679	155.743	184.574	40.943	-15.674	26.194	141.933	-4.409	-21.499	-38.320	-75.980	0.0010054	0.0017128	0.00036286	340.45	1.5867e-05	1.9249e-05	384.72	108.58	2.9145e-05	8.8533e-06	162.16	58.115	39.753	16.803	1.8611e-05	31.316	0.0075915	0.0089871	0.0022758	866.13	9.1891e-05	9.7993e-05	610.83	189.82	9.2067e-05	9.727e-05	413.76	94.76	80.61	30.32	8.7209e-05	48.866	104.516	-17.828	-67.060	-120.038	186.018	107.530	-120.671	-114.935	-130.798	82.133	-116.101	-111.996	-111.462	-104.605	3.154	-107.231	-8191	255	
3195.460	1	1	0	0	0.13078	0.18604	0.16332	0.10423	0.086614	0.24429	0.095631	0.134	0.24243	0.21537	0.094756	0.17209	0.073909	0.11348	0.14782	0.24192	-2.5958	-2.6542	-3.0146	-3.0125	-2.8042	-3.2333	-3.0375	-2.8	-3.1312	-2.8812	-3.0521	-3.0208	-2.8479	-2.9771	-2.8792	-2.7938	219.053	-24.050	111.352	217.147	-27.451	145.350	74.530	157.057	-25.805	176.932	12.737	-119.612	13.832	-107.841	-103.059	154.744	0.00079977	0.0023573	0.00031971	342.41	8.7238e-06	1.7298e-05	388.89	111.57	2.0068e-05	7.1417e-06	165.12	58.977	40.804	17.314	8.2115e-06	31.93	0.0080288	0.0086394	0.0022129	864.73	9.5117e-05	9.1916e-05	605.86	192.35	9.4201e-05	9.1693e-05	408.6	97.064	83.287	30.26	8.2227e-05	49.574	127.373	-58.981	-21.229	-121.091	178.400	29.711	-120.758	-114.776	149.277	68.738	-116.104	-112.183	-112.380	-104.917	13.319	-107.386	-8191	255	
3195.532	1	1	0	0	0.11884	0.12673	0.16071	0.02549	0.13974	0.1906	0.069219	0.26018	0.19885	0.27036	0.24847	0.084392	0.069143	0.14806	0.065457	0.25957	-2.6646	-2.7896	-2.7521	-3.2021	-2.7292	-3.1729	-3.1	-2.6125	-3.0229	-2.9396	-3.0021	-2.9917	-2.8	-3.125	-3.1125	-2.7771	-41.702	179.865	-105.714	201.999	141.624	99.868	144.818	129.102	-88.711	-75.366	-18.951	-34.307	118.387	-37.258	7.561	181.108	0.00040087	0.0027215	0.00046421	339.22	8.6507e-06	2.1325e-05	393.34	111.98	1.9275e-05	6.4495e-06	169.4	60.509	41.603	17.396	1.9627e-05	32.087	0.007874	0.0078476	0.0019906	849.57	8.8578e-05	8.0098e-05	586.76	189.99	8.5069e-05	7.8934e-05	376.86	95.979	78.349	28.436	6.9718e-05	48.842	134.188	-9.357	-124.558	-121.372	-9.293	18.088	-120.768	-114.531	-23.894	-6.104	-115.802	-112.152	-111.289	-105.158	27.353	-107.242	-8191	255	
3195.653	1	1	0	0	0.08395	0.24109	0.17416	0.24309	0.12907	0.027084	0.18364	0.18973	0.069758	0.11069	0.1453	0.20322	0.35671	0.25221	0.078897	0.23119	-2.8688	-2.95	-2.6583	-3.2333	-2.7125	-2.9104	-3.2417	-2.5917	-3.0521	-3.0292	-2.6437	-3.2208	-2.6937	-2.9646	-3.2812	-2.7208	-41.561	183.803	168.402	-48.682	-42.056	-110.662	176.828	145.232	112.528	13.733	64.646	172.722	178.123	-117.188	136.002	48.509	0.00050919	0.0017156	0.00028717	340.47	9.6559e-06	4.6473e-06	391.72	110.85	2.7708e-05	1.6646e-05	163.46	58.978	40.739	17.089	5.0068e-06	31.449	0.0068634	0.0068223	0.0017744	836.56	8.0067e-05	7.3192e-05	571.51	188.59	7.7238e-05	7.2449e-05	362.91	94.505	75.072	27.52	6.8472e-05	48.514	176.791	-48.078	-61.638	-120.570	108.608	222.432	-120.672	-114.789	45.982	-4.551	-116.368	-111.968	-111.878	-104.900	172.525	-107.246	-8191	255	
3195.749	1	1	0	0	0.17461	0.16394	0.16011	0.13328	0.28565	0.14841	0.017408	0.39284	0.14962	0.10593	0.22382	0.27143	0.092507	0.10069	0.1059	0.21655	-2.7083	-2.7771	-2.7208	-3	-2.8083	-3.0812	-3.0938	-2.7292	-3.2562	-2.9667	-2.4875	-3.2958	-2.8354	-2.8625	-3.1188	-2.9562	-107.581	46.536	59.815	-43.714	99.114	-34.178	203.856	122.885	139.202	-89.116	-17.923	76.358	159.066	87.015	-59.028	128.745	0.00035942	0.0014677	0.00037242	338.39	1.0504e-05	1.6423e-05	385.86	110.21	1.1309e-05	1.1779e-05	161.73	58.298	40.204	17.034	2.5356e-05	31.527	0.0065057	0.0066272	0.0018086	856.64	7.8617e-05	7.3004e-05	576.91	193.18	7.8167e-05	7.4248e-05	380.02	96.276	75.127	27.589	7.4524e-05	48.865	206.444	-26.407	150.363	-120.153	-25.956	5.390	-120.792	-114.497	-23.964	-12.815	-116.932	-112.326	-111.650	-105.029	216.217	-107.208	-8191	255	
3195.843	1	1	0	0	0.074277	0.33657	0.20056	0.13436	0.24147	0.21654	0.29709	0.069481	0.089858	0.36471	0.13575	0.044037	0.1644	0.095964	0.24354	0.11275	-2.4292	-3.0604	-2.7646	-3.2167	-2.725	-2.8021	-3.1833	-2.8604	-3.0062	-3.1479	-2.8667	-3.075	-2.7604	-2.8354	-3.3563	-2.8542	170.036	88.881	-101.585	-105.172	8.970	221.504	179.907	197.114	75.519	121.886	-39.433	94.752	-55.625	202.124	209.973	184.063	0.00022108	0.0020727	0.0003407	341.79	1.1517e-05	1.3234e-05	387.22	110.04	5.348e-06	5.5495e-06	164.16	59.262	40.766	17.062	1.8157e-05	32.054	0.00629	0.0062813	0.0018338	828.5	7.0843e-05	6.5343e-05	572.52	184.66	6.7702e-05	6.3858e-05	369.13	92.497	70.909	26.465	6.9184e-05	47.41	162.065	-0.923	116.435	-119.379	-21.740	-60.130	-120.886	-114.037	186.681	109.147	-117.196	-111.695	-111.041	-105.079	-103.853	-106.637	-8191	255	
3195.941	1	1	0	0	0.21947	0.070282	0.17544	0.062053	0.13932	0.28931	0.1708	0.26589	0.20158	0.12393	0.062968	0.11025	0.025876	0.34515	0.12947	0.092339	-2.5229	-3.1604	-2.7083	-3.0812	-3.0104	-2.6708	-3.0875	-2.8521	-3.0687	-3.2708	-2.7521	-3.0542	-3.0375	-2.7604	-3.0083	-2.8937	183.695	217.530	-21.917	-0.468	165.874	57.381	-35.949	-31.796	120.104	187.973	10.517	-102.562	196.385	-120.412	-128.164	131.771	0.00057084	0.0013117	0.00011863	340.14	1.7546e-05	1.0103e-05	390.33	109.55	1.0406e-05	4.7052e-06	164.41	60.312	40.923	17.125	5.3933e-06	32.229	0.0054556	0.0055439	0.0017452	765.78	6.1499e-05	5.8256e-05	567.72	175.33	5.8445e-05	5.7671e-05	358.88	89.997	67.833	26.075	6.5699e-05	46.342	183.010	68.248	117.551	-120.461	-8.835	-51.318	-120.742	-114.400	-3.546	-84.113	-117.285	-111.728	-111.585	-104.879	-99.662	-106.845	-8191	255	
3196.060	1	1	0	0	0.12477	0.11385	0.1353	0.09038	0.19437	0.35435	0.23239	0.12338	0.22436	0.03387	0.086796	0.079185	0.10061	0.095507	0.16961	0.27663	-2.5271	-3.0646	-2.5229	-3.0542	-2.9208	-2.6979	-3.3396	-3	-2.9375	-2.8521	-2.6854	-3.1771	-3.0646	-2.6958	-3.0812	-3.0146	186.668	209.675	-57.602	-123.839	176.375	170.606	210.452	-93.302	94.379	15.257	-19.274	-34.057	-90.152	38.811	-19.123	72.495	0.00069153	0.0016944	0.0004083	338.02	1.1155e-05	5.6842e-06	389.81	111.02	1.7058e-05	1.2231e-05	164.74	59.336	40.284	16.917	1.0609e-05	31.745	0.0048767	0.0052951	0.0016705	725.09	5.6554e-05	5.7765e-05	561.76	171.14	5.4653e-05	5.8418e-05	351.45	86.832	65.524	25.894	6.2721e-05	44.745	144.032	153.421	111.296	-119.948	39.101	165.342	-120.548	-114.381	-69.342	215.874	-117.252	-112.386	-111.171	-105.283	9.818	-106.848	-8191	255	
3196.133	1	1	0	0	0.21342	0.15177	0.18999	0.13887	0.093579	0.087963	0.1859	0.27711	0.11617	0.11737	0.26531	0.17658	0.075387	0.21416	0.2719	0.11994	-2.2708	-3.1104	-2.6021	-2.8167	-2.95	-2.5729	-3.1229	-2.7542	-2.6604	-3.0292	-2.6312	-2.7938	-3.2208	-2.7917	-3.1104	-2.8979	-74.843	148.477	-117.387	-52.240	165.031	74.445	112.453	-105.648	-49.180	55.268	-46.697	25.425	108.484	-108.652	78.868	-125.682	0.00044545	0.0009926	0.00048924	343.99	6.5645e-06	1.5971e-05	386.14	110.4	3.9822e-06	4.6519e-06	166.58	59.115	40.691	17.09	2.532e-06	32.009	0.0045242	0.0053699	0.0015723	697.21	5.2407e-05	5.8871e-05	549.93	168.31	5.2549e-05	6.0763e-05	343.76	85.782	65.443	26.467	6.0223e-05	44.847	142.879	164.248	-30.325	-119.867	-36.728	-122.108	-120.544	-114.334	6.411	209.228	-116.579	-112.136	-111.731	-105.150	-23.579	-106.821	-8191	255	
3196.252	1	1	0	0	0.22529	0.36266	0.14483	0.12504	0.25621	0.21863	0.20105	0.040376	0.14793	0.23973	0.1637	0.12492	0.28662	0.30473	0.091727	0.07033	-2.2625	-3.1479	-2.825	-2.9604	-3.1063	-2.5458	-3.2167	-3.1188	-2.8187	-3.1125	-2.9833	-2.9062	-3.0708	-2.7917	-3.1979	-2.95	55.153	-124.940	34.608	-25.197	121.233	227.302	163.060	218.778	160.418	-96.148	-61.571	-101.197	-7.275	78.499	-113.852	88.352	0.00061016	0.00059954	0.0003593	340.06	1.6012e-05	1.361e-05	389.47	111.55	1.2249e-05	1.2191e-05	167.13	59.946	41.295	17.482	2.0454e-06	32.586	0.0045704	0.0057141	0.0015465	698.47	5.4635e-05	6.3093e-05	551.71	168.79	5.4801e-05	6.3796e-05	343.23	86.62	67.708	27.337	5.9769e-05	45.429	122.494	101.102	-2.346	-120.727	220.264	-72.594	-120.580	-114.456	209.257	-97.420	-116.772	-111.809	-112.213	-104.786	145.076	-107.253	-8191	255	
3196.348	1	1	0	0	0.12594	0.089033	0.082187	0.13633	0.32909	0.23503	0.10103	0.1273	0.1127	0.34251	0.28928	0.21867	0.14803	0.10901	0.43455	0.1185	-2.2271	-3.2333	-2.8229	-2.7521	-3.05	-2.6229	-2.9625	-3.1104	-2.65	-3.1667	-2.8271	-2.8063	-3.325	-2.8187	-3.2083	-3.1625	-119.130	40.601	227.001	-92.192	96.175	100.587	-84.952	156.938	135.808	-27.109	30.963	-70.953	67.594	-55.715	-29.483	216.875	0.00079805	0.001891	9.2665e-05	343.94	1.825e-05	4.1195e-06	393.56	113.13	2.7891e-05	6.2113e-06	168.45	61.121	42.199	17.872	1.4148e-05	32.941	0.0049414	0.0059685	0.0015438	705.56	5.9777e-05	6.5884e-05	556.91	172.22	6.0921e-05	6.6307e-05	348.45	88.336	70.985	27.839	6.0402e-05	46.039	103.311	-42.833	-47.776	-119.852	190.018	-68.679	-120.629	-114.826	189.444	20.371	-116.432	-111.822	-111.777	-104.765	-22.956	-107.039	-8191	255	
3196.445	1	1	0	0	0.28395	0.055541	0.17863	0.1222	0.069253	0.18039	0.14892	0.15289	0.45775	0.17663	0.047703	0.17498	0.070879	0.31799	0.31836	0.023577	-2.2417	-3.1188	-3.0417	-2.7354	-3.0375	-2.8542	-2.6875	-3.225	-2.6375	-3.1146	-2.9938	-2.7896	-2.9417	-2.7562	-2.7979	-3.1958	-26.084	119.841	-117.754	-42.174	-57.843	166.221	164.684	-116.634	2.755	18.306	-39.935	189.741	-17.685	64.811	220.790	-8.699	0.00090464	0.0013153	0.00038499	343.37	1.1975e-05	7.2583e-06	393.8	111.9	2.2754e-05	1.6855e-05	164.52	59.209	40.677	16.947	9.7623e-06	31.576	0.0054485	0.0060432	0.0015614	714.23	6.6183e-05	6.7208e-05	558.67	172.73	6.8014e-05	6.7929e-05	350.32	88.227	72.612	27.392	6.4034e-05	45.904	134.679	-70.035	-31.992	-120.591	220.536	-4.474	-120.455	-115.083	176.492	29.777	-116.384	-112.086	-112.069	-104.783	-42.531	-107.177	-8191	255	
3196.541	1	1	0	0	0.16617	0.24314	0.17241	0.15299	0.18117	0.22962	0.1004	0.11332	0.12634	0.03709	0.14127	0.17231	0.041005	0.29733	0.31054	0.31888	-2.4625	-2.8563	-2.9917	-2.8083	-2.9146	-2.95	-3.1208	-3.0229	-2.7979	-2.9833	-2.9	-2.7708	-3.1146	-2.9583	-2.9833	-3.0792	109.611	132.292	-98.237	205.694	-118.699	225.268	152.608	108.022	-109.152	137.517	-21.659	-52.846	144.576	133.125	-8.479	-119.597	0.00092428	0.001854	0.00074039	338.49	5.2457e-06	2.3524e-05	385.12	109.17	1.8173e-05	5.0093e-06	160.14	58.115	40.389	16.703	1.237e-05	31.158	0.0063455	0.0065821	0.0017325	773.84	7.8651e-05	7.4473e-05	566.04	180.82	8.0034e-05	7.4737e-05	363.79	91.513	75.6	27.526	6.7093e-05	46.862	115.083	0.848	-63.159	-121.059	3.187	9.660	-121.002	-114.957	-61.632	-6.110	-116.269	-112.046	-111.463	-104.802	16.239	-106.842	-8191	255	
3196.661	1	1	0	0	0.099751	0.14541	0.17776	0.18866	0.04218	0.14541	0.12145	0.037044	0.203	0.18727	0.16789	0.14327	0.15886	0.17654	0.033635	0.075947	-2.2292	-2.7792	-3.0021	-2.6729	-3.1	-2.8521	-2.5854	-3.1354	-2.8583	-3.1271	-3.1	-2.8667	-2.9771	-2.8812	-2.6542	-3.1646	31.824	-57.460	-72.463	3.047	-78.572	63.509	97.712	53.877	43.561	127.357	-112.635	-108.534	155.412	-46.589	169.175	-55.508	0.00035884	0.0014301	0.00035073	332.54	1.4862e-05	1.4659e-05	385	110.75	2.5938e-05	1.3989e-05	166.58	59.675	41.759	17.223	7.2253e-06	31.821	0.0066586	0.0065226	0.0016968	796.17	7.6609e-05	7.0505e-05	558.84	183.82	7.5113e-05	6.9164e-05	354	93.457	74.513	27.408	6.3467e-05	47.815	156.484	4.896	216.841	-120.766	10.419	-27.343	-120.660	-115.146	10.513	50.573	-116.771	-112.107	-111.559	-104.789	-49.209	-106.969	-8191	255	
3196.756	1	1	0	0	0.12084	0.088115	0.058315	0.14073	0.098361	0.301	0.16282	0.31739	0.26806	0.20428	0.12455	0.13617	0.15161	0.10959	0.16821	0.066469	-2.3417	-2.9375	-3.1625	-2.5979	-3.0229	-2.8458	-2.7625	-3.2146	-2.8	-2.9375	-3.2208	-2.8021	-2.85	-3.0812	-2.7062	-3.2458	209.197	-12.975	180.706	57.720	196.067	226.564	192.546	222.846	-111.890	156.793	87.266	-106.112	205.761	176.382	-42.154	196.079	0.00052523	0.001342	0.00017876	340.82	8.4243e-06	7.8828e-06	391.38	113.87	1.3903e-05	2.2731e-05	167.66	61.164	42.57	17.635	2.1556e-05	32.196	0.0061603	0.0061115	0.0016341	812.47	7.1368e-05	6.6523e-05	561.82	188.04	7.0193e-05	6.5098e-05	357.77	95.657	74.336	27.561	6.6976e-05	48.715	149.464	-98.795	216.453	-120.882	-76.283	67.514	-120.826	-114.614	-42.190	51.719	-116.870	-111.965	-111.814	-104.898	-128.913	-106.897	-8191	255	
3196.854	1	1	0	0	0.12989	0.082664	0.11985	0.1211	0.14536	0.10834	0.13257	0.24198	0.034122	0.067206	0.12443	0.31125	0.11837	0.11985	0.25597	0.07037	-2.5021	-2.7521	-3.0979	-2.6708	-2.9333	-3.0667	-2.7542	-2.9188	-2.8396	-2.7354	-2.8812	-2.7583	-3.0458	-2.9437	-2.8438	-3.1354	-2.967	199.658	-64.301	125.575	-31.037	52.048	104.980	-78.115	-120.190	85.209	3.198	-116.967	205.742	-43.523	53.972	1.190	0.00048726	0.00072914	0.00072264	341.19	2.2445e-05	1.5527e-05	389.55	113.9	5.1298e-06	1.5953e-05	164.6	59.696	41.596	16.992	1.7948e-05	31.104	0.0060399	0.0059891	0.0017279	822.05	6.834e-05	6.3814e-05	567.21	186.97	6.7726e-05	6.3389e-05	367.91	94.142	72.541	26.742	7.1897e-05	47.502	163.009	-7.496	149.147	-119.864	4.001	-24.683	-120.948	-114.623	147.506	-15.368	-117.548	-111.816	-111.360	-105.318	196.774	-106.894	-8191	255	
3196.948	1	1	0	0	0.33449	0.35337	0.087853	0.050936	0.16238	0.081848	0.17356	0.07464	0.2288	0.11243	0.11372	0.28319	0.03588	0.071463	0.22942	0.21798	-2.3604	-2.6958	-3.1188	-2.7292	-2.9354	-3.0292	-2.8458	-3.2333	-2.9083	-2.7646	-3.1417	-2.65	-2.6375	-2.9979	-2.7167	-3.1167	4.708	2.707	205.632	84.302	-119.781	63.995	-98.849	218.826	47.880	-89.729	-26.992	13.526	-27.410	-131.399	123.908	147.469	0.00044406	0.0024737	0.00064604	338.94	8.6788e-06	8.344e-06	382.79	111.27	1.3036e-05	1.3623e-05	161.37	59.018	41.439	16.9	1.6781e-05	31.141	0.0059537	0.0059744	0.0018815	820.05	6.9262e-05	6.565e-05	575.03	184.92	6.7307e-05	6.408e-05	376.41	92.02	71.138	26.528	7.4146e-05	46.659	174.530	38.589	181.914	-120.977	-15.339	112.740	-120.859	-114.684	71.634	-109.270	-116.977	-111.951	-111.433	-105.147	210.074	-106.849	-8191	255	
3197.044	1	1	0	0	0.062702	0.23827	0.18953	0.2378	0.19245	0.16884	0.10476	0.27551	0.18147	0.32939	0.045334	0.30851	0.25714	0.25245	0.28001	0.22451	-2.6729	-2.825	-3.0896	-2.75	-2.8271	-3.3042	-2.7604	-3.0125	-3.1854	-2.9333	-3.1208	-2.8021	-2.7375	-3.0833	-2.6208	-3.1312	162.642	95.264	-37.606	191.720	-75.073	220.866	84.457	99.688	63.587	-9.465	198.436	184.006	205.055	-105.860	-91.420	-30.983	0.00021923	0.00085609	0.00034042	341.43	4.3082e-06	6.8901e-06	386.81	112.02	1.3674e-05	2.1449e-05	167.05	59.609	41.929	17.191	6.9243e-06	31.83	0.0056928	0.0060375	0.0019381	796.66	6.668e-05	6.7301e-05	583.55	183.96	6.6219e-05	6.8291e-05	389.58	92.861	71.613	27.695	7.749e-05	47.41	152.618	-113.647	86.202	-119.524	149.084	-97.522	-121.006	-114.705	32.927	-130.947	-116.008	-112.088	-111.729	-105.265	171.938	-106.995	-8191	255	
3197.140	1	1	0	0	0.13246	0.10768	0.22264	0.041138	0.086106	0.13937	0.056624	0.14909	0.16177	0.10306	0.31606	0.10089	0.13061	0.21749	0.099171	0.093983	-2.6771	-2.5646	-3.1458	-2.875	-2.5687	-3.2875	-2.7583	-2.9	-3.2146	-2.7667	-3.0333	-3.0208	-2.5708	-3.0708	-2.8083	-3.0104	91.964	-46.295	-65.408	39.033	-118.654	-98.271	156.029	113.392	102.507	31.292	20.602	97.898	86.265	125.404	204.872	-39.804	0.00021836	0.0023724	0.00054745	342.71	1.0663e-05	1.9891e-05	388.92	113.77	7.6552e-06	3.2804e-06	169.35	60.473	42.135	17.24	7.9727e-06	31.987	0.0056875	0.006626	0.002014	805.2	6.7991e-05	7.5075e-05	593.15	187.39	6.8135e-05	7.7053e-05	398.9	94.389	73.082	28.899	7.8531e-05	47.746	70.932	163.663	-27.445	-120.019	-35.211	-121.011	-120.804	-114.761	-3.342	219.759	-116.161	-111.570	-111.762	-105.363	64.869	-106.989	-8191	255	
3197.237	1	1	0	0	0.32943	0.20554	0.15611	0.092412	0.2067	0.17764	0.025855	0.21083	0.068929	0.22604	0.37672	0.094203	0.17948	0.13178	0.062726	0.098328	-2.6625	-2.6437	-2.975	-3.0479	-2.7562	-3.0542	-3.0083	-2.95	-2.9688	-2.7188	-3.2042	-2.8271	-2.8	-3.3583	-2.8396	-2.7875	-95.108	126.375	-130.710	-126.757	26.958	150.378	181.028	-52.555	-50.960	-63.534	-73.501	66.841	8.963	213.163	-32.321	224.836	0.00065011	0.0020592	0.00020769	342.23	2.0479e-05	1.5985e-05	386.95	112.88	5.2638e-06	1.1318e-05	165.66	59.267	40.647	16.761	1.2749e-05	30.976	0.0057794	0.0071582	0.0019758	794.69	6.8343e-05	7.9292e-05	585.18	183.18	6.8351e-05	8.0022e-05	383.77	91.732	72.114	28.521	7.4993e-05	46.215	122.159	142.918	-85.640	-120.008	131.212	199.365	-120.697	-114.294	-91.096	220.726	-116.398	-111.755	-111.807	-105.176	16.894	-106.853	-8191	255	
3197.357	1	1	0	0	0.059258	0.077655	0.1613	0.11453	0.35497	0.25752	0.050473	0.087139	0.22273	0.10717	0.22007	0.16129	0.058504	0.014491	0.18241	0.38512	-2.5667	-2.6167	-3.1813	-3.1375	-2.6813	-3.0375	-2.8875	-2.8812	-3.2	-2.8875	-3.1292	-3.05	-2.7292	-3.175	-3.0812	-2.6937	-26.270	-82.834	41.162	196.265	-124.315	-53.740	-127.219	99.473	-62.102	26.209	12.138	-28.732	-28.142	-40.482	-40.654	132.228	0.00074605	0.0016071	0.00042512	331.32	1.5776e-05	1.0925e-05	379.8	109.76	2.0938e-05	4.0191e-06	159.3	58.272	40.306	16.824	5.4436e-06	30.83	0.0059285	0.0073458	0.0018928	775.78	7.0981e-05	7.9999e-05	570.49	178.36	7.1715e-05	8.0192e-05	374.25	89.567	73.38	28.222	7.1587e-05	45.46	121.236	140.161	-50.685	-120.001	153.483	29.584	-120.772	-115.316	166.184	0.577	-116.763	-111.991	-111.995	-104.738	66.354	-107.175	-8191	255	
3197.429	1	1	0	0	0.23761	0.095171	0.26003	0.12538	0.17546	0.48114	0.087949	0.23138	0.09246	0.21768	0.131	0.0030665	0.2399	0.46006	0.10046	0.028394	-2.725	-2.8042	-3.0563	-2.9813	-2.7875	-3.2062	-2.9396	-2.8458	-3.1146	-2.8187	-2.9167	-3.1833	-2.8688	-2.8	-2.9688	-2.9188	-20.694	-19.894	-80.429	198.862	-91.017	81.948	-114.767	-114.927	-124.632	54.489	-104.780	95.955	213.188	148.134	-63.725	-25.375	0.0010289	0.00083048	0.00017	334.71	4.1701e-06	6.7351e-06	380.13	111.33	2.552e-05	1.1492e-05	164.74	59.556	40.954	17.071	1.1235e-05	31.722	0.006191	0.0070952	0.0018012	755.08	7.3805e-05	7.6011e-05	562.95	176.29	7.217e-05	7.343e-05	358.71	88.984	73.778	27.744	6.6322e-05	45.93	98.029	-34.049	35.562	-120.241	-86.467	27.222	-120.363	-114.843	219.524	104.173	-116.736	-112.190	-111.825	-105.076	-27.754	-107.558	-8191	255	
3197.525	1	1	0	0	0.18512	0.19409	0.10089	0.21527	0.12745	0.21889	0.046164	0.13785	0.083457	0.022185	0.2165	0.13407	0.17221	0.1132	0.22801	0.26243	-2.7979	-2.8042	-2.775	-3.1667	-2.5729	-3.0812	-3.0687	-2.6271	-3.0271	-2.8438	-2.5542	-3.2229	-2.7583	-3.0312	-3.0625	-2.8896	30.139	-110.616	189.500	-14.276	-130.865	203.896	190.384	-117.100	37.854	147.180	-121.353	-79.171	155.166	-101.378	-32.983	63.182	0.00064377	0.00092417	0.0003669	339.89	1.65e-05	1.0629e-05	384.72	112.72	5.0435e-06	9.1866e-06	168.33	60.223	42.133	17.45	1.8059e-05	32.214	0.0062679	0.0066035	0.0016974	755.15	7.5206e-05	7.1597e-05	561.13	179.86	7.5198e-05	7.1881e-05	360.01	91.906	76.512	28.065	6.6414e-05	47.373	90.885	-20.854	-60.609	-120.638	132.679	88.513	-120.587	-115.359	181.506	-0.824	-116.341	-112.224	-111.481	-104.978	-0.023	-107.423	-8191	255	
3197.621	1	1	0	0	0.23345	0.082656	0.13485	0.036011	0.092759	0.13238	0.16064	0.20747	0.1949	0.23793	0.31067	0.13322	0.074956	0.049558	0.21303	0.21118	-2.6875	-2.8792	-2.8896	-3.1917	-2.7479	-2.925	-3.0521	-2.8542	-3.2708	-2.9375	-2.6437	-3.1917	-2.7521	-2.9479	-3.1083	-2.8458	147.188	105.607	-109.859	-77.316	-51.448	225.979	153.980	-117.505	-38.844	61.181	23.581	75.283	-24.493	10.065	-126.724	148.715	0.00043013	0.0013267	0.00014437	337.93	3.3518e-06	7.816e-06	387.27	111.65	6.0901e-06	7.7738e-06	165.12	58.826	40.863	16.951	1.7446e-05	30.999	0.0065714	0.0065625	0.0016973	790.51	7.7406e-05	7.0519e-05	558.98	182.95	7.4863e-05	6.9745e-05	351.51	92.076	74.244	27.145	6.4305e-05	46.965	147.631	-70.749	180.168	-120.124	108.316	70.424	-120.835	-114.805	-27.169	37.674	-117.023	-112.377	-111.384	-104.779	129.363	-107.149	-8191	255	
3197.740	1	1	0	0	0.10429	0.27664	0.21052	0.26355	0.14816	0.057963	0.21638	0.21004	0.10608	0.12323	0.21077	0.12085	0.14411	0.11038	0.14698	0.077372	-2.5687	-2.9688	-2.5667	-3.1292	-2.6042	-3.0458	-3.1521	-2.7938	-3.0542	-3.0438	-2.825	-3.1312	-2.6854	-2.8958	-3.1729	-2.9896	-89.327	-25.549	91.744	-35.611	-49.025	-101.139	-90.298	-111.071	171.499	-28.015	-84.310	-19.293	-119.363	-37.125	-127.319	221.473	0.00029424	0.0017405	0.00019377	332.82	1.6129e-05	5.4697e-06	379.96	109.5	1.998e-05	1.2825e-05	159.93	57.537	39.964	16.672	1.1989e-05	30.722	0.0063225	0.006305	0.0016547	806.98	7.4455e-05	6.8441e-05	552.25	183.69	7.2059e-05	6.7429e-05	348.65	91.59	71.828	26.371	6.4721e-05	47.012	159.514	-65.545	148.014	-120.458	-9.894	-17.689	-121.092	-115.445	3.537	49.674	-117.080	-111.966	-111.517	-105.018	187.563	-107.485	-8191	255	
3197.836	1	1	0	0	0.29048	0.1423	0.3534	0.20365	0.18858	0.075494	0.092811	0.06858	0.22333	0.1602	0.29062	0.031431	0.033551	0.16068	0.10791	0.27791	-2.5417	-3.0521	-2.7188	-3.1333	-2.8271	-2.9479	-3.2292	-2.9521	-3.0604	-3.0438	-2.75	-3.2687	-2.9167	-2.8063	-3.2271	-2.8958	103.624	158.818	85.648	187.997	-34.460	143.461	86.316	-24.795	167.650	-23.496	165.958	122.833	68.823	31.136	-88.238	-108.300	0.0003193	0.0025274	0.00029043	336.89	1.7997e-06	8.6467e-06	378.42	109.75	1.6784e-05	6.7698e-06	158.71	58.338	40.511	16.804	1.9832e-05	31.516	0.0060067	0.0060673	0.0016992	814.72	7.0798e-05	6.5707e-05	557.35	185.48	6.9218e-05	6.5206e-05	360.57	92.941	71.637	26.503	6.7971e-05	47.57	183.684	-52.655	134.004	-119.923	129.593	8.617	-121.048	-114.894	-22.811	117.864	-116.694	-112.082	-111.906	-104.852	148.080	-106.959	-8191	255	
3197.934	1	1	0	0	0.2814	0.18882	0.14526	0.21093	0.050327	0.1468	0.1355	0.25385	0.073704	0.18247	0.25737	0.20703	0.19774	0.24252	0.10912	0.22847	-2.6188	-3.1542	-2.6167	-3.2854	-3.0812	-2.7729	-3.1688	-2.7271	-2.9396	-3.175	-2.5687	-3.1063	-2.9917	-2.7875	-3.0042	-2.7562	171.641	52.733	93.373	110.142	145.866	-48.496	185.822	37.505	-6.104	-0.769	-64.400	-95.456	195.582	8.111	93.547	162.918	0.00054604	0.00023565	0.00045353	336.89	7.9708e-06	6.1437e-06	383.63	112.09	4.9031e-06	6.1565e-06	165.42	59.784	41.146	17.08	1.6969e-05	32.127	0.0057309	0.0057997	0.0017639	799.41	6.7104e-05	6.2274e-05	567.87	183.58	6.5288e-05	6.2298e-05	369.18	92.248	70.568	26.459	6.9737e-05	47.153	149.476	98.182	102.421	-120.142	208.646	96.229	-120.830	-114.520	80.692	-31.158	-117.241	-111.950	-111.525	-104.701	206.767	-106.505	-8191	255	
3198.028	1	1	0	0	0.062909	0.032048	0.12035	0.13297	0.13941	0.11569	0.14717	0.18261	0.1657	0.11224	0.1513	0.16984	0.0965	0.42018	0.061275	0.09198	-2.6146	-3.0792	-2.7438	-2.9083	-2.9083	-2.7042	-3.2083	-2.8667	-2.7583	-3.2604	-2.7146	-2.9958	-2.9521	-2.7042	-2.9729	-2.8438	-3.988	131.780	-28.188	-58.039	-125.739	-101.147	-33.306	78.807	181.300	99.997	43.630	-69.238	-122.288	56.753	100.592	56.525	0.00026442	0.0010985	0.00019004	337.42	1.2655e-05	1.2994e-05	386.63	110.29	2.5802e-06	1.8575e-06	164.03	58.384	40.371	16.622	1.1987e-05	31.32	0.0054338	0.0056701	0.0018201	774.24	6.4207e-05	6.2599e-05	571.35	179.13	6.3079e-05	6.3335e-05	373.24	89.777	68.51	26.115	7.0602e-05	45.683	145.907	174.404	161.493	-119.695	-10.897	-101.531	-120.995	-114.464	-86.645	-30.466	-117.039	-111.794	-111.686	-105.355	105.900	-106.643	-8191	255	
3198.125	1	1	0	0	0.30652	0.078935	0.30663	0.18285	0.042527	0.17384	0.25962	0.1421	0.078863	0.25517	0.21925	0.12018	0.069124	0.10239	0.1619	0.10336	-2.3771	-3.0625	-2.7938	-2.9708	-2.9021	-2.6458	-3.2125	-2.7479	-2.8292	-3.1521	-2.6813	-2.9375	-2.8583	-2.7104	-3.0229	-3.0062	196.249	-3.925	105.536	181.226	-84.214	62.260	190.866	-82.507	-7.322	101.827	-79.757	33.870	70.412	80.582	-109.270	-90.965	0.00031344	0.00092682	0.0002761	336.33	1.717e-05	1.3764e-05	378.98	108.22	1.139e-05	1.9565e-05	160.83	57.458	39.219	16.219	1.9197e-05	30.777	0.0051503	0.005789	0.0018052	748.35	6.0858e-05	6.4596e-05	563.24	173.14	5.9285e-05	6.514e-05	361.4	86.796	66.139	26.126	6.8029e-05	44.815	133.970	85.967	-126.728	-120.031	-3.087	201.164	-120.683	-114.555	12.255	-116.069	-116.163	-112.216	-111.657	-105.440	-49.839	-107.110	-8191	255	
3198.221	1	1	0	0	0.10627	0.10263	0.17814	0.18395	0.10908	0.16679	0.24737	0.21145	0.1404	0.29202	0.26742	0.28713	0.29179	0.079206	0.067368	0.108	-2.3479	-3.1083	-2.5771	-3.0146	-3.0583	-2.7687	-3.1562	-2.7687	-2.7875	-3.1875	-2.8354	-2.7833	-2.9896	-2.7479	-3.0917	-2.775	-117.000	-27.730	-107.916	197.164	125.182	166.996	29.769	192.259	187.593	-121.831	-122.963	31.819	208.192	120.196	-57.487	169.051	0.00049729	0.0018768	0.00043175	337.24	4.2858e-06	1.2428e-05	383.21	109.23	1.1088e-05	5.7842e-06	161.36	58.358	40.049	16.627	1.3963e-05	31.312	0.0050196	0.00614	0.0017631	736.2	5.9438e-05	6.8186e-05	558.58	172.2	5.878e-05	6.8351e-05	356.43	86.893	67.02	26.943	6.5648e-05	45.1	94.060	157.293	-30.574	-119.300	-63.900	196.756	-120.500	-114.704	206.131	-89.186	-116.773	-112.012	-111.819	-105.177	45.139	-106.927	-8191	255	
3198.341	1	1	0	0	0.11871	0.1005	0.082261	0.16568	0.094798	0.18518	0.19432	0.080092	0.049236	0.15592	0.31538	0.052743	0.10839	0.19514	0.029243	0.18217	-2.4979	-2.8771	-2.7958	-2.7583	-3.0417	-2.7646	-2.9813	-2.8688	-2.7958	-3.0375	-2.7979	-2.8917	-3.0312	-2.6729	-3.0521	-3.2479	-42.644	106.174	-130.881	42.951	80.442	142.038	165.283	215.693	125.052	98.556	38.006	192.981	214.844	-74.197	138.336	158.661	0.0006284	0.0010645	0.00050275	340.67	1.4548e-05	1.4567e-05	385.87	110.68	2.4361e-05	8.3346e-07	165.56	59.346	40.651	17.02	1.923e-05	31.91	0.0051141	0.0063762	0.0016861	728.02	6.1144e-05	7.0116e-05	556.23	171.92	6.1139e-05	6.9483e-05	350.9	87.172	68.781	27.334	6.2691e-05	45.287	130.220	189.473	-5.333	-119.842	183.295	217.024	-120.908	-114.451	171.949	-29.173	-116.704	-111.779	-111.614	-104.872	-5.050	-107.065	-8191	255	
3198.438	1	1	0	0	0.26347	0.12388	0.12538	0.19382	0.15242	0.14018	0.12541	0.25369	0.16803	0.11262	0.17549	0.10815	0.09087	0.17901	0.13587	0.17151	-2.0312	-3.1542	-2.7438	-2.7458	-3.2792	-2.8833	-3.1208	-3.0896	-2.5667	-3.0625	-2.8688	-2.8458	-3.0479	-2.7875	-2.8208	-3.2854	24.213	6.247	207.948	-8.945	62.566	-112.580	146.594	159.128	-51.123	27.421	25.969	-74.874	-106.010	-16.537	18.782	146.390	0.00083976	0.0019346	0.00024534	343.92	4.9676e-07	2.0126e-05	388.55	111.32	3.3169e-05	1.2252e-05	165.89	59.356	40.56	17.055	9.3488e-06	31.762	0.0053361	0.0062545	0.0015994	713.33	6.4017e-05	6.8799e-05	555.74	171.36	6.5286e-05	6.8549e-05	348.64	87.026	70.586	27.006	6.0439e-05	44.859	111.296	-39.931	186.870	-120.572	-77.378	-4.625	-120.785	-114.766	184.865	22.276	-116.562	-111.674	-111.885	-104.709	-28.660	-107.080	-8191	255	
3198.534	1	1	0	0	0.078598	0.17911	0.18085	0.12457	0.10287	0.35522	0.26364	0.23794	0.19629	0.046539	0.25212	0.11939	0.1329	0.19281	0.17636	0.24296	-2.1896	-3.0646	-2.8667	-2.7375	-3.1729	-2.6833	-3.1708	-3.1437	-2.6333	-2.9708	-2.9979	-2.5938	-3.0875	-2.8271	-2.7687	-3.1083	20.277	71.216	126.241	170.585	1.231	32.808	225.704	99.729	172.034	140.153	73.783	-92.864	-58.738	-131.377	75.045	7.138	0.00068858	0.0014427	0.00048426	339.9	1.3917e-05	6.6507e-06	386.14	110.02	1.9431e-05	7.0968e-06	162.55	58.156	40.09	16.826	1.38e-05	31.317	0.0056193	0.0059981	0.0015397	709.96	6.5925e-05	6.4885e-05	544.75	169.84	6.6551e-05	6.4005e-05	337.17	86.344	70.685	26.444	5.8991e-05	44.879	111.200	3.375	-107.976	-119.842	188.798	35.908	-120.510	-115.231	151.428	85.862	-117.093	-112.073	-111.423	-105.262	9.128	-107.145	-8191	255	
3198.654	1	1	0	0	0.10522	0.2247	0.11762	0.086849	0.089313	0.15296	0.1382	0.23003	0.12686	0.1143	0.11818	0.2482	0.20141	0.081503	0.20108	0.064766	-2.1583	-2.9583	-3.1167	-2.6063	-3.1625	-2.9917	-2.8187	-3.1833	-2.6458	-2.9604	-2.8333	-2.6625	-3.0771	-2.9062	-2.6167	-3.0938	0.405	168.967	115.837	12.257	172.460	26.898	20.790	-90.371	73.521	165.398	209.496	-113.725	-25.554	142.205	107.087	84.583	0.00038985	0.0011653	0.00021247	338.21	1.0546e-05	1.761e-05	383.55	110.1	1.0323e-05	1.1419e-05	162.18	58.72	41.247	16.971	6.0107e-06	31.82	0.0058141	0.005827	0.0015122	731.52	6.8799e-05	6.4427e-05	544.69	174.95	6.9543e-05	6.5071e-05	341.13	89.747	72.799	26.947	6.0892e-05	46.863	117.056	-25.592	153.877	-120.385	7.498	77.488	-120.825	-115.049	16.377	28.985	-116.268	-112.418	-111.098	-104.977	-72.449	-107.235	-8191	255	
3198.726	1	1	0	0	0.23202	0.16906	0.22546	0.096887	0.28119	0.22115	0.23424	0.1733	0.24242	0.094112	0.26758	0.1972	0.18758	0.07143	0.13484	0.13532	-2.3979	-2.8417	-3.0563	-2.75	-3.0896	-3.0938	-2.7708	-3.0771	-2.6167	-2.7729	-3.1167	-2.8021	-3.0417	-2.8792	-2.5042	-3.0625	-98.862	165.976	-98.519	85.452	-9.741	-87.354	37.659	44.262	6.706	-18.525	-62.498	-64.772	39.019	83.866	143.623	16.181	0.00034405	0.00034755	9.1594e-05	337.09	1.5683e-05	9.9898e-06	387.46	111.08	3.0511e-05	1.9399e-05	167.06	59.909	41.523	17.448	9.1677e-06	32.588	0.0061111	0.0060799	0.0015976	789.3	7.2497e-05	6.7382e-05	556.06	184.53	7.2855e-05	6.7735e-05	353.8	94.058	73.974	27.517	6.4446e-05	48.748	153.032	142.560	206.704	-120.605	-8.012	33.030	-120.828	-114.603	18.919	63.848	-117.078	-112.357	-111.449	-104.948	-125.560	-107.311	-8191	255	
3198.822	1	1	0	0	0.2126	0.16949	0.17472	0.088106	0.21311	0.30106	0.15882	0.1593	0.14612	0.28205	0.22153	0.099975	0.31276	0.21548	0.15648	0.15369	-2.2521	-2.6333	-2.9188	-2.6667	-3.2229	-2.8729	-2.8479	-3.1271	-2.7458	-2.9	-3.0208	-2.7062	-3.1	-3.1333	-2.7812	-3.3396	-78.474	166.704	-14.423	-121.906	-111.953	-90.824	156.952	134.577	-90.410	81.454	-17.344	40.009	-124.649	-126.609	141.494	57.234	0.00043978	0.0021443	0.00063	339.47	1.4998e-05	6.7899e-06	390.5	112.76	2.7832e-06	5.7922e-06	165.35	61.077	42.095	17.48	1.774e-05	32.403	0.0061918	0.0061981	0.0016985	826.74	7.1906e-05	6.7634e-05	567.41	189.48	7.1646e-05	6.7026e-05	366.58	96.111	73.616	27.456	6.8765e-05	49.098	185.057	-3.860	196.000	-120.204	6.663	30.344	-120.758	-114.926	-36.096	39.014	-116.410	-111.847	-111.642	-104.856	193.761	-107.220	-8191	255	
3198.917	1	1	0	0	0.28364	0.20593	0.16254	0.061601	0.32461	0.1915	0.18132	0.050028	0.31338	0.18302	0.089701	0.14556	0.17038	0.098912	0.025003	0.2153	-2.2875	-2.9062	-3.0271	-2.7396	-2.9417	-3.0896	-2.8292	-3.15	-2.7313	-2.7687	-3.0208	-2.5896	-3.025	-2.9146	-2.8812	-3.0667	-108.447	103.251	99.488	177.995	115.163	181.115	218.744	90.890	210.943	162.383	55.424	-130.955	114.743	77.492	-66.354	104.038	0.00048292	0.0015459	0.00027958	342.83	1.0366e-05	1.2365e-05	384.56	111.06	8.1585e-06	1.1164e-05	159.49	58.57	40.522	16.87	1.7069e-05	31.525	0.0060015	0.0060011	0.0017806	820.13	6.8937e-05	6.4213e-05	568.07	183.93	6.7081e-05	6.2922e-05	366.38	92.16	70.226	26.342	7.0535e-05	47.152	171.467	30.645	156.324	-120.019	77.425	-34.850	-120.999	-114.875	-88.152	-32.458	-116.910	-112.073	-111.431	-105.337	187.592	-106.763	-8191	255	
3199.037	1	1	0	0	0.075987	0.13044	0.084091	0.091242	0.12076	0.076775	0.088391	0.049059	0.1346	0.064475	0.060863	0.28502	0.1155	0.21994	0.12341	0.14225	-2.4188	-2.6	-3.1312	-2.7417	-2.8333	-3.0292	-2.7896	-3.0687	-2.7979	-2.675	-3.1229	-3.0292	-2.7771	-3.2375	-2.5917	-3.1708	57.123	122.800	175.184	113.618	-10.506	-83.689	225.859	126.568	-12.161	208.513	-30.821	139.627	-52.026	-129.766	182.473	177.762	0.00052145	0.0014136	0.00036567	345.46	1.7505e-05	7.3702e-06	383.7	110.74	1.3081e-05	3.7931e-06	162.73	59.36	40.891	17.012	6.863e-06	32.078	0.0056541	0.0057644	0.0018243	794.1	6.567e-05	6.3264e-05	572.51	180.88	6.4835e-05	6.3561e-05	375.3	91.207	70.059	26.721	7.2872e-05	47.104	140.654	-83.239	145.377	-120.250	31.132	-118.775	-121.096	-114.939	24.471	217.961	-117.936	-112.158	-111.416	-105.081	-2.997	-106.885	-8191	255	
3199.133	1	1	0	0	0.059719	0.14467	0.15922	0.060854	0.29993	0.14197	0.23235	0.097191	0.077403	0.17586	0.10883	0.12802	0.19648	0.038697	0.29323	0.26596	-2.6792	-2.5021	-3.1021	-2.7521	-2.625	-3.1729	-2.725	-2.9271	-2.9938	-2.5875	-2.9313	-2.8667	-2.6063	-3.1917	-2.7146	-2.9208	-119.504	-124.718	-8.642	132.898	55.823	-81.469	-10.847	-89.442	-78.173	24.158	33.381	204.177	-3.663	30.831	-72.820	134.866	0.00047682	0.0016183	0.00011826	342.57	5.1419e-06	5.7647e-06	388.12	112.03	1.2544e-05	1.4153e-05	165.56	59.9	42.032	17.278	1.0272e-05	32.706	0.0054473	0.0059347	0.0018749	778.35	6.3737e-05	6.5958e-05	580.52	180.73	6.3377e-05	6.7522e-05	381.41	91.776	70.594	27.801	7.4189e-05	47.704	140.304	183.507	-116.497	-119.603	-29.766	-111.903	-120.666	-114.683	1.829	202.250	-116.800	-112.007	-111.233	-105.084	90.061	-106.851	-8191	255	
3199.229	1	1	0	0	0.20943	0.11888	0.15476	0.12446	0.19963	0.028076	0.1573	0.20014	0.07872	0.17568	0.051617	0.061312	0.133	0.073406	0.081333	0.095065	-2.7208	-2.625	-3.1229	-2.8104	-2.5542	-3.2083	-2.7229	-2.9333	-3.1375	-2.5083	-3.0979	-3.0812	-2.7292	-3.1625	-2.7958	-3.05	-30.735	-126.245	87.716	176.156	53.978	146.845	-15.366	-81.932	-76.749	-87.620	-7.559	-36.936	30.519	46.685	197.014	70.825	0.0005168	0.0011495	0.00049363	348.31	4.0299e-06	4.0289e-06	391.99	114.22	4.511e-06	2.0435e-05	167.17	60.755	41.833	17.459	2.1787e-05	32.717	0.0054469	0.006481	0.0018982	784.55	6.4023e-05	7.2229e-05	584.93	183.1	6.4325e-05	7.4669e-05	385	92.904	71.641	28.655	7.3483e-05	47.667	135.121	112.727	-5.237	-119.635	226.229	4.943	-120.381	-114.752	19.661	-126.301	-115.705	-112.147	-111.721	-104.901	23.170	-106.780	-8191	255	
3199.301	1	1	0	0	0.098161	0.24322	0.076156	0.23162	0.26863	0.36717	0.18577	0.22894	0.19638	0.18376	0.20552	0.10375	0.11503	0.29538	0.02757	0.095811	-2.4229	-2.4646	-3.0438	-2.9813	-2.6396	-2.9813	-2.7812	-2.8104	-3.1875	-2.7604	-2.875	-2.9708	-2.6312	-2.9396	-2.7583	-2.8688	224.934	-121.766	-15.334	-9.422	33.446	-40.174	-76.366	131.803	171.318	46.721	193.413	129.722	-109.297	-78.194	206.643	212.477	0.0006083	0.00057287	0.00042272	347.38	1.2284e-05	1.1979e-05	387.58	111.22	2.1526e-05	8.5939e-06	165.15	58.594	40.547	16.882	9.8174e-06	31.526	0.005548	0.0069296	0.0018575	773.98	6.5957e-05	7.62e-05	575.99	178.99	6.6224e-05	7.6781e-05	370.84	89.804	71.137	28.208	7.1244e-05	46.151	121.941	107.163	-66.016	-120.691	211.655	-109.728	-120.549	-114.632	207.236	-77.427	-116.749	-111.718	-111.343	-105.198	-36.847	-107.201	-8191	255	
3199.422	1	1	0	0	0.13137	0.16158	0.035393	0.073263	0.26044	0.093131	0.4841	0.14956	0.037575	0.12053	0.10431	0.17529	0.13206	0.24681	0.15008	0.10139	-2.7708	-2.6854	-2.9396	-3.0896	-2.6562	-3.0521	-2.9688	-2.6625	-2.9229	-2.9292	-3.0563	-2.9062	-2.8	-2.8958	-2.8354	-2.9354	-38.051	-9.596	58.539	13.552	-130.679	-130.741	131.017	145.505	188.733	149.111	-7.296	127.828	13.028	24.015	-5.068	-73.010	0.00093794	0.00092635	0.0003778	343.05	8.6524e-06	1.6841e-05	385.07	111.34	1.4532e-05	1.4579e-05	164.19	58.863	40.771	16.973	1.0528e-05	31.62	0.0058587	0.007049	0.0018048	761.41	7.0409e-05	7.6652e-05	568.64	177.08	7.1166e-05	7.7428e-05	368.29	89.529	73.643	28.225	7.0399e-05	46.148	114.431	19.397	4.787	-119.437	-98.434	66.879	-120.545	-114.909	188.177	38.057	-116.385	-111.934	-111.495	-104.793	-10.461	-107.059	-8191	255	
3199.518	1	1	0	0	0.15953	0.29465	0.058038	0.048681	0.23041	0.24207	0.084213	0.22843	0.18205	0.16756	0.1094	0.16347	0.12345	0.19072	0.069536	0.13312	-2.7771	-2.7687	-2.8104	-3.0479	-2.6	-3.1667	-3.0396	-2.8354	-3.1479	-2.7354	-2.9542	-3.0646	-2.6083	-3.1188	-2.9062	-2.7083	-121.535	-60.510	152.520	139.129	202.896	29.245	-71.748	204.694	-26.332	-5.808	150.834	-82.039	-68.403	184.531	-54.030	70.748	0.00073309	0.00071925	0.00030236	341.93	1.5821e-05	1.9672e-05	387.93	112.84	1.8084e-05	1.0128e-05	166.81	59.846	41.64	17.326	1.6788e-05	31.926	0.0063595	0.0070637	0.0018192	777.58	7.7961e-05	7.8194e-05	578.17	183.14	7.9687e-05	7.9714e-05	379.24	93.031	78.643	29.1	7.461e-05	47.93	108.157	-11.635	-3.268	-120.183	-120.883	42.469	-120.575	-114.791	-90.252	44.341	-115.506	-111.982	-111.583	-104.799	9.573	-107.252	-8191	255	
3199.614	1	1	0	0	0.2792	0.1803	0.13572	0.04935	0.11425	0.25814	0.12528	0.11651	0.11407	0.088455	0.076403	0.094488	0.06022	0.18107	0.15946	0.053808	-2.5979	-2.7792	-2.6521	-3.1083	-2.6292	-2.9604	-3.0333	-2.7167	-3.1042	-2.8229	-2.7854	-3.1667	-2.825	-2.9875	-2.9396	-2.8771	7.719	-39.224	138.577	-8.070	160.963	-75.610	-43.406	215.065	29.017	68.864	-17.155	-107.837	-31.094	16.122	-6.529	28.806	0.00037979	0.00040004	0.00012511	344.39	1.3979e-05	1.2869e-05	391.41	114.45	1.1739e-05	1.5816e-05	167.2	60.749	42.548	17.563	1.5181e-05	32.138	0.0071406	0.0073225	0.0018828	819.59	8.4509e-05	7.8488e-05	579.82	189.07	8.2106e-05	7.6985e-05	374.6	95.067	78.831	28.593	6.9583e-05	48.411	97.866	55.652	-54.984	-120.390	-112.022	6.766	-120.391	-115.124	134.763	11.786	-116.732	-112.031	-111.652	-104.851	-31.471	-107.473	-8191	255	
3199.735	1	1	0	0	0.31516	0.32556	0.20152	0.16478	0.044568	0.3799	0.20501	0.16524	0.24974	0.14155	0.10009	0.28593	0.078745	0.17902	0.093885	0.16374	-2.4833	-3.0021	-2.5979	-2.8438	-2.9292	-2.9562	-3.1188	-2.6917	-3.075	-2.8542	-2.8438	-3.3167	-2.7	-2.975	-2.9708	-2.8563	207.044	-69.532	-106.067	11.733	148.688	-113.017	96.917	188.592	-34.349	184.290	207.842	168.376	180.361	156.588	226.966	80.094	0.00034799	0.00136	0.00029837	344.7	7.2873e-06	1.4449e-05	391.32	113.82	1.3355e-05	7.089e-06	165.67	59.308	41.894	16.975	9.5745e-06	31.127	0.0067684	0.0067729	0.0017425	823.33	7.948e-05	7.3113e-05	570.52	190.08	7.7706e-05	7.2944e-05	363.8	94.96	76.92	27.941	7.1121e-05	48.82	135.194	-47.598	51.844	-121.146	155.194	-6.630	-120.475	-114.890	19.439	37.305	-116.688	-112.285	-111.603	-105.325	169.273	-107.155	-8191	255	
3199.829	1	1	0	0	0.17326	0.21071	0.13458	0.17908	0.20582	0.19589	0.12015	0.22981	0.12792	0.21524	0.22432	0.037395	0.18271	0.28093	0.12645	0.22747	-2.7708	-2.9417	-2.6813	-2.8604	-2.6292	-2.9479	-3.1813	-2.8563	-2.9062	-2.8917	-2.8646	-3.1167	-2.8583	-2.8979	-2.9146	-2.9333	-42.086	151.690	-4.236	139.568	63.560	223.237	175.875	140.386	-131.667	-22.409	198.338	-87.983	38.822	-99.254	-130.008	162.369	0.00040248	0.0024806	0.00031614	342.61	1.2474e-05	7.2352e-06	382.87	113.55	6.2464e-06	1.8649e-05	162.28	59.351	41.777	17.011	1.4911e-05	31.358	0.007089	0.0073027	0.0019726	916.48	8.9061e-05	8.3138e-05	592.81	205.14	8.8894e-05	8.5008e-05	407.2	102.03	81.933	29.35	8.5759e-05	51.583	-129.748	-43.437	203.053	-120.567	-14.583	45.714	-121.059	-114.953	107.573	79.405	-117.050	-112.200	-111.643	-105.058	213.996	-107.345	-8191	255	
3199.925	1	1	0	0	0.263	0.1403	0.22953	0.10753	0.17953	0.12123	0.13803	0.22397	0.23714	0.13569	0.19786	0.28279	0.11905	0.16988	0.26336	0.15036	-2.5479	-3.0146	-2.8354	-3.0896	-2.8396	-2.7438	-3.1083	-2.8792	-2.9729	-3.0375	-2.6771	-3.1	-3.1521	-2.7292	-3.1771	-2.9562	19.309	-11.869	176.967	-10.552	-53.157	96.466	-17.946	86.159	-42.793	114.695	217.290	109.623	52.624	120.181	-27.241	-91.521	0.00017982	0.0033028	0.00058605	347.17	1.5955e-05	2.6206e-05	383.79	114.28	5.4877e-06	1.3064e-05	164.54	60.493	43.079	17.491	2.1359e-05	32.216	0.0076061	0.0077621	0.0022367	960.35	9.0542e-05	8.4781e-05	613.09	210.67	9.0211e-05	8.4928e-05	429.62	103.3	81.746	29.474	9.0565e-05	51.909	217.748	-44.063	193.612	-120.984	15.461	33.565	-121.260	-114.152	-22.044	10.595	-116.510	-111.833	-111.674	-104.868	174.612	-107.107	-8191	255	
3200.021	1	1	0	0	0.472	0.27122	0.10933	0.065521	0.27572	0.14114	0.35238	0.19961	0.041158	0.03925	0.23392	0.20555	0.17552	0.11233	0.20788	0.2573	-2.5146	-2.9625	-2.7979	-3.0875	-2.8979	-2.8063	-3.2125	-2.6958	-2.9333	-3.1521	-2.6792	-2.9729	-2.8979	-2.6375	-3.2917	-2.6979	56.712	35.631	193.744	165.856	163.236	115.243	32.744	153.505	-43.014	107.415	24.018	201.887	-28.342	-123.935	-84.316	164.663	0.00048004	0.00024007	0.00046293	348.45	2.1429e-05	4.5763e-06	387.57	116.24	2.5825e-05	1.4585e-06	163.37	61.095	43.057	17.396	7.7603e-06	32.197	0.0074093	0.0075601	0.0023808	945.31	8.8352e-05	8.357e-05	626.78	208.09	8.7138e-05	8.4835e-05	447.24	102.61	80.718	29.56	9.3163e-05	51.156	147.970	122.778	137.287	-119.379	6.432	-0.320	-120.766	-114.312	35.106	41.189	-117.107	-111.907	-111.326	-105.391	56.406	-107.003	-8191	255	
3200.118	1	1	0	0	0.27837	0.1949	0.16944	0.1704	0.050761	0.14749	0.11568	0.32344	0.044347	0.31941	0.040876	0.15568	0.1395	0.22822	0.061089	0.21885	-2.4125	-2.9104	-2.725	-3.1354	-2.9333	-2.9167	-2.9667	-2.7229	-2.5958	-3.2604	-3.0438	-2.9542	-3.0104	-2.8083	-3.0854	-2.7729	116.402	189.218	92.389	201.046	-40.640	135.515	180.371	74.910	74.207	-24.981	-53.550	225.208	197.183	196.667	195.384	169.529	0.00072813	0.0019244	0.00026841	352.22	1.0845e-05	9.727e-06	387.16	114.02	8.8514e-06	1.3637e-05	163.01	59.559	41.897	16.968	8.7627e-06	31.112	0.0069949	0.007472	0.0023802	900.58	8.1775e-05	8.1724e-05	618.25	198.26	7.8025e-05	8.0814e-05	422.78	96.26	75.521	28.581	8.5987e-05	48.126	167.712	157.185	89.614	-119.341	-11.790	219.894	-120.539	-114.762	-69.585	-126.288	-116.840	-111.923	-111.519	-105.412	32.451	-107.031	-8191	255	
3200.214	1	1	0	0	0.0069135	0.039742	0.24941	0.16056	0.22531	0.040953	0.1064	0.079852	0.10477	0.14416	0.14622	0.15988	0.091479	0.16963	0.026223	0.25824	-2.3833	-3.1667	-2.6833	-2.9875	-2.8729	-2.7479	-3	-3.0062	-2.7458	-3.1229	-2.8875	-2.9271	-3.2	-2.6896	-3.025	-3.0687	-119.773	-56.606	223.579	-128.694	-42.462	-103.133	-81.289	107.960	-99.749	108.390	-88.547	67.117	185.211	-112.864	-93.996	-108.595	0.0004	0.0013241	0.00065527	350.42	1.2462e-05	3.3773e-05	383.38	112.46	1.03e-05	1.3169e-05	162.78	58.382	41.119	16.789	1.8704e-05	31.239	0.0062088	0.007187	0.0021482	830.59	7.1109e-05	7.802e-05	589.56	186.7	6.8844e-05	7.7836e-05	395.36	92.274	72.704	28.57	8.0027e-05	47.497	157.147	138.665	-71.874	-120.084	9.080	-131.593	-120.632	-114.550	48.682	207.680	-116.423	-112.153	-111.610	-104.903	34.425	-106.908	-8191	255	
3200.334	1	1	0	0	0.11578	0.1195	0.28423	0.19178	0.07459	0.077647	0.1076	0.15794	0.11144	0.16062	0.10174	0.26414	0.13161	0.078175	0.13292	0.19606	-2.3833	-3.0938	-2.8667	-2.9833	-3.1021	-2.5667	-3.0104	-3.05	-2.5542	-3.0271	-2.7667	-3.1083	-3.1292	-2.6729	-3.0833	-3.0354	27.482	137.624	-75.202	-109.087	-46.310	215.273	137.811	142.448	208.203	128.488	177.874	80.430	155.895	-67.428	-124.305	-80.352	0.00074838	0.0010597	0.0003239	347.85	9.7637e-06	1.3062e-05	384.62	114.3	9.9607e-06	1.3336e-05	166.02	59.607	42.233	17.491	1.0399e-05	31.829	0.006067	0.0075013	0.0020766	822.76	7.2075e-05	8.2637e-05	590.15	188.92	7.2082e-05	8.4186e-05	397.67	93.719	75.491	29.699	7.7852e-05	47.726	130.116	184.838	4.983	-120.024	57.728	197.645	-120.279	-114.562	172.052	174.947	-116.118	-112.018	-111.849	-105.640	71.478	-106.824	-8191	255	
3200.430	1	1	0	0	0.093301	0.19459	0.059517	0.11158	0.12011	0.09432	0.13523	0.084599	0.1817	0.15493	0.37328	0.091078	0.065645	0.16386	0.05756	0.067342	-2.4604	-3.0417	-2.8083	-2.8417	-3.0458	-2.7833	-3.0021	-3.1188	-2.8688	-3.1208	-2.8729	-2.8917	-3.0375	-2.7562	-2.8396	-3.0938	36.526	9.870	-100.197	-123.464	14.332	39.608	19.464	173.635	97.835	-68.387	198.250	-39.261	150.394	121.395	-103.521	98.201	0.00095616	0.00062429	0.00040953	352.43	2.5689e-05	5.832e-06	391.01	116.37	2.8078e-05	1.5705e-05	169.72	61.196	42.862	17.735	1.9951e-05	32.473	0.0062227	0.0075424	0.0019643	803.02	7.3957e-05	8.2844e-05	586.58	187.42	7.4332e-05	8.1782e-05	389.16	93.593	77.451	29.771	7.5118e-05	47.954	116.202	-67.712	-98.733	-120.557	159.948	-9.242	-120.466	-114.519	177.890	-19.973	-116.203	-111.841	-111.935	-104.702	98.992	-106.972	-8191	255	
3200.527	1	1	0	0	0.12966	0.1576	0.0572	0.14168	0.27706	0.1372	0.25018	0.11068	0.24495	0.12718	0.21986	0.066515	0.011694	0.016553	0.040192	0.207	-2.1792	-2.9688	-2.8667	-2.5938	-3.2313	-2.5833	-2.9938	-2.9125	-2.85	-3.0771	-3.0417	-2.8354	-3.1042	-2.7354	-2.7729	-3.0458	-91.598	-51.290	150.572	163.340	144.704	185.392	9.644	-121.385	111.476	140.280	123.518	203.946	126.783	-6.288	42.852	171.274	0.0012905	0.00074392	0.00040802	344.87	1.9582e-05	2.2516e-05	390.88	115.03	1.0124e-05	1.5295e-05	166.44	60.079	41.982	17.222	9.4588e-06	31.582	0.0066532	0.0074439	0.001904	787.71	7.7665e-05	7.9547e-05	580	184.46	7.8583e-05	7.9668e-05	381.73	92.795	77.954	28.935	7.3351e-05	47.321	119.317	-13.226	-21.901	-121.029	170.616	32.234	-120.311	-114.565	220.761	59.405	-116.109	-112.090	-111.607	-105.090	-42.212	-106.981	-8191	255	
3200.598	1	1	0	0	0.33648	0.24426	0.24363	0.13879	0.22562	0.20289	0.12835	0.10262	0.32072	0.08372	0.051277	0.23197	0.076082	0.42729	0.39495	0.15531	-2.4667	-3.0854	-2.9	-2.8125	-3.2646	-2.8729	-3.0187	-2.8833	-2.8875	-2.7833	-2.9583	-2.5438	-3.1688	-2.8167	-2.8604	-3.2292	167.492	-37.439	117.870	180.738	188.482	191.824	184.334	37.177	103.893	99.864	-22.767	210.310	127.176	97.714	-53.697	149.170	0.00087651	0.0026463	0.00023016	345.55	1.2128e-05	1.6035e-05	383.87	112.93	1.3987e-06	1.0459e-05	164.01	58.695	41.49	17.102	9.9928e-06	31.18	0.0070213	0.0073307	0.0019133	815	8.4964e-05	8.103e-05	575.53	187.67	8.4699e-05	7.9357e-05	377.11	93.384	78.947	28.583	7.253e-05	47.858	115.355	-21.082	-14.585	-120.563	182.308	54.845	-120.355	-115.295	-80.310	-0.511	-116.847	-112.161	-111.842	-105.087	-32.211	-107.471	-8191	255	
3200.694	1	1	0	0	0.12615	0.20182	0.16796	0.20116	0.1237	0.14343	0.23851	0.22868	0.076022	0.14924	0.076561	0.045812	0.18165	0.17817	0.11511	0.080526	-2.2083	-2.9083	-3.0312	-2.7313	-2.9917	-2.8875	-2.9583	-3.0417	-2.7083	-2.975	-2.9979	-2.675	-3.1292	-2.8458	-2.7583	-3.0687	-34.985	95.540	-52.463	66.213	-12.573	-32.589	-122.840	-124.299	106.947	-65.537	196.000	-109.791	-32.176	140.695	33.902	105.727	0.00045463	0.0011666	0.00028079	339.1	1.2555e-05	5.9122e-06	383.47	113.31	1.8204e-05	5.5003e-06	165.85	59.596	42.428	17.225	1.4044e-05	31.483	0.0072434	0.0072337	0.001909	853.88	8.6774e-05	8.0714e-05	575.75	194.6	8.5667e-05	7.9503e-05	380.27	97.252	80.157	28.943	7.4339e-05	49.66	95.158	-52.998	191.423	-120.755	-7.532	41.001	-120.589	-114.699	53.903	146.058	-116.222	-112.466	-111.556	-104.966	134.766	-107.069	-8191	255	
3200.813	1	1	0	0	0.14783	0.15999	0.13591	0.092406	0.20695	0.27265	0.20041	0.18933	0.049966	0.12616	0.0069066	0.086234	0.18726	0.086488	0.1294	0.18203	-2.3771	-2.8875	-2.9458	-2.4688	-3.0521	-2.8563	-2.7812	-3.2812	-2.7604	-3.0521	-3.0875	-3.0021	-2.9792	-3.0208	-2.6	-2.9917	15.952	-60.135	-127.370	198.030	-98.671	205.175	117.916	32.326	-108.156	-37.799	34.077	163.354	224.527	216.736	73.660	132.969	0.00024397	0.0022585	0.00014071	352.25	2.0766e-05	7.9879e-06	388.09	116.73	1.7022e-05	7.0773e-06	165.51	60.726	43.417	17.441	1.6306e-05	31.537	0.0074278	0.0075103	0.0020194	926.65	9.1062e-05	8.6234e-05	598.09	208.65	9.1338e-05	8.5212e-05	408.65	103.49	83.412	29.909	8.4178e-05	51.81	127.956	1.176	124.989	-120.204	23.691	80.599	-120.736	-114.489	19.993	61.794	-116.965	-112.244	-111.840	-105.416	105.776	-107.377	-8191	255	
3200.909	1	1	0	0	0.093125	0.10985	0.097582	0.16569	0.06934	0.11752	0.072786	0.19792	0.12197	0.12301	0.18045	0.21995	0.11133	0.30182	0.14965	0.25486	-2.4062	-2.8479	-3.1729	-2.6375	-3.0896	-2.9396	-2.5333	-3.1667	-2.8104	-2.9083	-3.0625	-2.7354	-2.7917	-2.9292	-2.8563	-2.9938	120.785	206.106	-127.645	195.817	46.224	31.357	-116.722	211.168	-105.446	177.319	102.734	-38.548	96.720	61.219	144.498	223.437	0.0006535	0.0025113	0.00083775	353.6	1.1864e-05	1.4982e-05	388.03	114.99	4.3779e-06	1.7805e-05	163.95	60.463	42.251	17.088	3.8383e-05	30.898	0.0077491	0.0077633	0.0022259	975.36	9.1033e-05	8.5445e-05	609.12	208.89	8.7736e-05	8.1973e-05	417.72	102.41	80.623	28.873	8.7841e-05	50.348	196.702	-27.517	148.407	-119.484	-7.012	159.481	-120.893	-114.515	-44.908	34.721	-117.014	-112.227	-111.742	-105.471	199.728	-106.961	-8191	255	
3201.006	1	1	0	0	0.16709	0.22199	0.24357	0.20353	0.1618	0.26729	0.076998	0.15686	0.087644	0.11671	0.2458	0.08425	0.10994	0.13471	0.15714	0.11964	-2.5583	-2.8229	-3.0708	-2.8271	-2.9604	-2.975	-2.9354	-3.0896	-2.8896	-3.025	-3.0271	-2.6833	-3.2146	-3.0458	-2.7938	-3.2438	164.333	32.721	-28.852	118.492	137.664	165.930	85.430	-87.868	-20.565	178.825	44.483	146.603	-116.746	216.180	153.788	-87.901	0.00028596	0.0015375	0.00041871	346.34	5.069e-06	5.3271e-06	380.97	112.73	1.7325e-05	1.1208e-05	160.24	58.336	41.281	16.661	7.0931e-06	30.356	0.007219	0.007166	0.0022235	916.15	8.2203e-05	7.7809e-05	601.11	199.12	8.0677e-05	7.6353e-05	411.93	96.869	76.018	27.668	8.4828e-05	48.052	79.122	-37.451	160.330	-119.336	-72.062	-71.925	-121.178	-114.813	41.103	24.532	-116.718	-111.915	-111.914	-105.024	211.429	-106.884	-8191	255	
3201.126	1	1	0	0	0.33081	0.31177	0.22064	0.072988	0.13918	0.1302	0.10682	0.23108	0.16212	0.42444	0.11059	0.18427	0.080271	0.16257	0.10456	0.035633	-2.5187	-2.8146	-3.2104	-2.9292	-2.8854	-3.2562	-2.6958	-3.2062	-2.9271	-2.7958	-3.1021	-2.8354	-2.9	-3.0438	-2.8167	-3.0292	-24.789	25.425	5.406	219.693	168.711	18.835	148.534	219.688	-113.517	-2.063	-91.490	192.888	-47.021	107.586	140.226	-76.079	0.00046681	0.001135	0.00024351	345.98	8.3075e-06	2.1295e-05	378.8	113.82	1.1965e-05	1.555e-05	162.86	59.115	41.366	16.867	3.9137e-06	31.275	0.0065113	0.0067374	0.0021559	858.15	7.4482e-05	7.3948e-05	594.3	190.73	7.2385e-05	7.3058e-05	401.87	94.019	73.336	27.729	8.0668e-05	47.182	188.475	182.038	131.487	-120.402	190.137	208.449	-120.620	-114.973	3.461	209.443	-117.228	-111.564	-111.577	-105.025	161.895	-106.919	-8191	255	
3201.198	1	1	0	0	0.28583	0.13276	0.14928	0.13267	0.10668	0.08269	0.18682	0.16452	0.14051	0.26497	0.050113	0.13174	0.31566	0.14883	0.26162	0.13673	-2.5229	-2.8354	-3.1104	-2.8667	-2.7333	-2.9917	-2.7458	-2.7021	-2.9271	-2.7271	-2.9562	-2.7542	-2.9479	-2.8646	-2.6063	-3.0542	132.358	-34.225	92.448	156.998	114.156	61.037	209.264	140.664	1.682	46.801	-17.950	211.823	40.136	-117.677	89.600	155.681	0.00040186	0.0013862	0.00033527	346.12	1.4284e-05	1.9259e-05	386.16	113.77	5.7726e-06	1.3008e-05	167.28	59.82	41.88	16.996	1.1442e-05	31.62	0.0058887	0.0066551	0.0020258	811.27	6.7122e-05	7.2473e-05	586.35	185.54	6.5905e-05	7.3181e-05	387.34	92.236	71.608	27.975	7.5697e-05	46.476	100.333	178.691	-79.327	-120.279	-8.799	-121.266	-120.551	-114.803	217.250	217.084	-116.390	-111.862	-111.898	-105.487	1.972	-107.279	-8191	255	
3201.294	1	1	0	0	0.16263	0.25382	0.22467	0.26323	0.11665	0.25407	0.21499	0.27254	0.13913	0.14843	0.17506	0.26545	0.090132	0.10609	0.089859	0.0094978	-2.5375	-2.7542	-2.9417	-2.8646	-2.7229	-3.2438	-2.7042	-3.0229	-3.0083	-2.7979	-3.2	-2.8875	-2.6813	-3.0854	-2.8688	-2.9083	92.039	-42.313	119.336	164.787	41.711	106.460	-72.246	-65.458	203.795	60.443	96.541	120.028	48.139	220.491	94.595	129.497	0.00083931	0.0012417	0.00070795	351.63	1.1245e-05	1.4244e-05	388.29	114.48	5.8367e-06	1.6165e-05	164.77	58.971	41.424	16.835	1.8365e-05	31.255	0.0055341	0.0067384	0.0018782	783.2	6.4142e-05	7.3644e-05	577.25	181.84	6.4503e-05	7.5171e-05	375.23	90.298	70.935	27.875	7.1083e-05	45.653	109.256	227.187	-24.425	-119.997	-110.202	-116.251	-120.544	-114.659	-85.398	-110.030	-116.066	-112.120	-111.989	-105.471	-13.206	-106.755	-8191	255	
3201.415	1	1	0	0	0.17666	0.1068	0.052785	0.13094	0.076487	0.072675	0.088006	0.16674	0.18495	0.20208	0.1914	0.1634	0.040385	0.15646	0.11398	0.17093	-2.7333	-2.7354	-2.9354	-2.8625	-2.9083	-3.1167	-3.0062	-2.7708	-3.0854	-2.6521	-2.8792	-3.0771	-2.6813	-2.9708	-2.6312	-2.8333	-35.594	188.535	222.440	208.580	13.671	158.087	63.793	-57.509	154.519	106.497	125.699	167.925	144.344	-68.007	176.890	144.462	0.0007128	0.0017361	0.00050183	346.45	9.5288e-06	1.9036e-05	385.5	112.92	2.0839e-05	6.601e-06	163.69	58.6	40.825	16.769	1.1386e-05	30.823	0.0056244	0.0069723	0.0018266	773.34	6.8118e-05	7.667e-05	570.28	179.01	6.7853e-05	7.6534e-05	366.87	88.917	72.474	28.02	7.0929e-05	45.375	114.494	169.161	-28.666	-120.575	139.396	130.920	-120.729	-115.199	213.160	82.763	-116.740	-111.783	-111.856	-104.683	118.170	-107.154	-8191	255	
3201.511	1	1	0	0	0.24997	0.15086	0.20587	0.26228	0.042525	0.10889	0.12432	0.29513	0.097855	0.11895	0.2673	0.19434	0.16042	0.2504	0.15068	0.20973	-2.6354	-2.7	-2.8208	-2.9813	-2.7375	-3.1604	-2.8771	-2.6375	-3.1646	-2.6354	-2.9542	-3.1271	-2.5958	-3.0687	-2.9208	-2.9125	140.043	-27.388	198.650	99.312	59.860	210.145	197.145	-95.236	97.876	-26.734	31.717	-62.666	16.519	148.957	162.523	115.379	0.00073083	0.00047351	0.0003199	345.14	1.7825e-05	1.4296e-05	384.28	114.1	2.5323e-05	6.2735e-06	164.2	58.92	41.461	17.217	1.1325e-05	31.505	0.0061186	0.0070911	0.0018195	772.67	7.4103e-05	7.7233e-05	571.11	181.23	7.4949e-05	7.7328e-05	368.32	89.822	75.374	28.138	6.8993e-05	45.945	105.221	127.464	11.708	-120.193	165.524	29.270	-120.600	-114.725	225.216	15.044	-116.743	-112.037	-111.482	-105.099	6.601	-107.305	-8191	255	
3201.607	1	1	0	0	0.3051	0.33526	0.058944	0.048656	0.14169	0.28792	0.18395	0.28098	0.03707	0.043963	0.18651	0.14517	0.16887	0.21201	0.24107	0.11855	-2.4646	-2.9021	-2.7354	-3.1104	-2.8854	-2.7979	-3.1208	-2.7042	-3.2292	-2.8458	-2.7208	-3.0396	-2.6958	-2.9792	-2.9604	-2.7604	107.149	6.771	-50.438	-7.000	126.654	203.406	69.980	57.823	179.926	35.027	48.505	-66.716	-70.230	189.208	217.314	126.437	0.00072309	0.0027027	0.00052336	350	1.2335e-05	1.3538e-05	389.06	114.98	8.659e-06	1.1574e-05	169.22	60.03	42.433	17.395	1.2385e-05	31.695	0.0063951	0.006862	0.0017723	780.68	7.7852e-05	7.4984e-05	571.58	184.07	7.7264e-05	7.4779e-05	367.84	92.327	77.816	28.39	6.9166e-05	47.348	95.598	-16.668	-57.831	-120.132	203.930	59.536	-120.473	-115.010	225.798	-0.370	-116.240	-112.219	-111.589	-104.968	73.145	-107.307	-8191	255	
3201.703	1	1	0	0	0.13415	0.014781	0.10389	0.079915	0.22789	0.1451	0.16423	0.047563	0.12704	0.16532	0.18335	0.20103	0.1105	0.20523	0.19566	0.22018	-2.4917	-2.7729	-3.0667	-3.0125	-2.6854	-2.8854	-3.0167	-2.9021	-3.1875	-3.0146	-2.7417	-3.2104	-2.5917	-2.8438	-3.0125	-2.7188	5.680	-62.891	206.380	-25.538	183.500	191.154	204.113	-69.180	34.038	186.298	-122.094	227.068	107.757	223.176	175.556	142.859	0.00027646	0.00164	1.4257e-05	347.79	4.3127e-06	7.0432e-06	390.87	115.26	8.3452e-06	1.8197e-06	167.42	60.923	43.234	17.505	1.681e-06	31.728	0.0068221	0.0069172	0.0017862	821.87	8.1107e-05	7.4514e-05	574.37	190.92	7.9145e-05	7.4453e-05	366.96	95.268	78.226	28.254	6.7403e-05	48.173	155.213	-0.769	210.436	-120.796	-126.193	-5.440	-120.650	-114.862	37.759	-12.183	-116.439	-111.865	-111.561	-104.824	-58.766	-107.498	-8191	255	
3201.824	1	1	0	0	0.088987	0.13892	0.27763	0.17726	0.089975	0.16245	0.20896	0.20122	0.056577	0.12427	0.2516	0.15646	0.2967	0.2201	0.19115	0.19439	-2.575	-2.7979	-2.8333	-3.125	-2.8312	-2.7833	-3.2458	-2.775	-2.8292	-2.9625	-2.7104	-3.1333	-2.8375	-2.7479	-3.2292	-2.5458	81.802	-66.258	155.264	70.809	180.138	75.325	86.215	200.267	204.199	-37.165	21.103	192.005	161.556	190.952	-22.644	-104.873	0.00040146	0.00098066	0.00024693	345.98	7.9761e-06	1.5078e-05	387.32	114.25	9.2624e-06	1.687e-05	163.72	58.955	41.819	17.016	1.0028e-05	31.022	0.0065828	0.0066626	0.0017342	839.86	7.8466e-05	7.256e-05	568.56	192.88	7.6821e-05	7.2991e-05	367.08	95.438	76.481	27.688	7.0193e-05	48.301	190.125	-9.382	-69.297	-120.647	70.578	-20.727	-120.521	-114.778	-36.394	67.331	-117.571	-112.173	-111.592	-105.207	139.569	-107.127	-8191	255	
3201.894	1	1	0	0	0.034188	0.31607	0.38592	0.19893	0.16243	0.23808	0.33821	0.11927	0.085401	0.16285	0.27651	0.20781	0.034176	0.17144	0.17503	0.18242	-2.5438	-2.75	-2.7208	-3.2146	-2.7375	-3.0187	-3.0146	-2.7625	-2.8708	-3.0187	-2.8	-3.1479	-2.9562	-2.6437	-3.1833	-2.7271	-43.508	-62.610	-110.253	-82.473	77.310	161.692	201.525	207.172	217.158	119.391	120.669	103.222	80.832	-80.800	-121.898	71.200	0.00011623	0.0012022	0.00028964	344.9	1.6019e-05	7.2009e-06	383.76	113.7	1.4576e-05	6.9362e-06	163.82	59.579	42.202	17.168	1.0338e-05	31.228	0.006536	0.0066105	0.001821	860.11	7.6799e-05	7.0711e-05	570.9	193.74	7.3967e-05	7.019e-05	375.41	95.584	75.417	27.51	7.355e-05	48.476	197.670	-96.062	169.879	-120.425	-0.911	66.884	-120.688	-115.044	-10.269	5.989	-117.465	-111.814	-111.835	-104.553	181.126	-106.981	-8191	255	
3202.014	1	1	0	0	0.25466	0.29423	0.15583	0.17781	0.17438	0.12146	0.11057	0.22745	0.19538	0.40733	0.16214	0.12132	0.044236	0.029182	0.087197	0.15104	-2.4313	-3.0062	-2.725	-3.1479	-2.7917	-2.7042	-3.0792	-2.7396	-2.9125	-2.9938	-2.6021	-3.0312	-2.9	-2.8646	-2.8958	-2.8521	-73.483	128.530	103.728	49.080	85.282	-97.927	172.615	124.633	-63.772	128.728	93.375	151.480	19.861	210.787	20.425	-51.591	0.00015334	4.8879e-05	0.00037868	351.13	1.8846e-05	4.6039e-06	385.64	115.45	2.5116e-05	1.3227e-05	165.18	60.295	42.998	17.532	4.5396e-06	31.907	0.0062712	0.0063841	0.0019303	857.68	7.4641e-05	6.9425e-05	586.35	195.75	7.3302e-05	7.0617e-05	395.53	96.187	75.986	27.837	7.836e-05	48.662	92.833	28.829	83.592	-120.318	-15.783	52.795	-120.625	-114.870	-84.759	44.090	-116.785	-111.956	-111.652	-104.960	212.274	-106.945	-8191	255	
3202.110	1	1	0	0	0.15342	0.1302	0.12807	0.089265	0.023042	0.11261	0.14118	0.13271	0.14437	0.30057	0.12781	0.11191	0.10061	0.15977	0.080253	0.31816	-2.5646	-2.8937	-2.8125	-2.9688	-3.1042	-2.7417	-3.1646	-2.9042	-2.7979	-2.925	-2.6937	-2.9458	-3.0417	-2.7604	-3.0271	-2.7271	205.851	146.596	-106.703	-102.598	28.634	205.596	-108.487	140.658	24.011	-55.784	-28.110	-34.210	112.427	112.284	208.283	223.786	0.00055969	0.00086247	6.5239e-05	352.08	9.3731e-06	2.2011e-05	389.33	116.8	1.3899e-05	1.7148e-05	168.89	61.189	43.246	17.542	1.1042e-05	32.152	0.0060932	0.0063076	0.0020161	838.09	7.1896e-05	6.9253e-05	595.29	193.06	7.0489e-05	7.0898e-05	402.95	95.74	75.034	28.196	7.9674e-05	48.323	128.444	179.654	186.530	-119.877	36.149	-102.208	-120.786	-114.602	14.267	-127.718	-116.846	-112.160	-111.985	-105.111	-111.738	-106.940	-8191	255	
3202.207	1	1	0	0	0.27896	0.15187	0.20047	0.18783	0.30361	0.32325	0.23982	0.25798	0.29706	0.084256	0.12824	0.23726	0.28427	0.29558	0.057456	0.12014	-2.3875	-3.2833	-2.75	-2.9437	-2.9062	-2.7313	-2.9292	-2.6521	-2.9271	-3.1625	-2.5708	-2.9583	-3.0417	-2.775	-2.8958	-2.8521	43.710	-88.196	148.117	67.713	130.967	224.776	-54.983	-47.254	209.556	82.376	155.914	101.173	170.854	79.950	-73.915	90.161	0.00050683	0.0022075	0.00044733	349.3	1.5876e-05	8.2772e-06	388.13	114.27	8.0315e-06	1.3508e-05	163.95	59.141	41.976	16.965	2.1447e-05	31.26	0.0058683	0.0065662	0.002051	817.02	6.9165e-05	7.2671e-05	590.74	187.16	6.6887e-05	7.3089e-05	392.17	92.007	72.05	27.927	7.6797e-05	46.657	118.874	125.388	17.414	-119.701	-54.685	208.013	-120.647	-114.558	-7.723	189.104	-116.459	-111.634	-111.942	-105.284	14.712	-107.150	-8191	255	
3202.303	1	1	0	0	0.11962	0.10549	0.23063	0.011943	0.1968	0.11483	0.30311	0.16617	0.14828	0.20543	0.14255	0.17965	0.18543	0.18282	0.048983	0.12046	-2.4167	-2.8458	-2.6396	-2.7313	-3.0771	-2.6375	-3.1229	-2.9646	-2.6417	-3.2167	-2.7292	-2.8021	-3.2062	-2.5104	-2.9042	-3.0438	-1.953	181.680	-105.869	90.986	118.891	-106.341	174.592	-6.710	137.185	-35.168	-126.972	-57.410	-89.945	212.701	212.848	205.053	0.00039089	0.0013449	0.00038242	346.27	1.7428e-05	8.9377e-06	384	113.12	8.3168e-06	2.1053e-05	163.21	59.442	41.74	17.196	3.4536e-06	31.44	0.0056747	0.0068665	0.0019849	797	6.7266e-05	7.6003e-05	578.89	183.24	6.4852e-05	7.4399e-05	377.5	90.146	70.954	28.22	7.0929e-05	46.009	110.234	167.563	15.051	-120.297	59.514	220.122	-120.676	-114.755	10.385	182.685	-116.725	-111.946	-111.680	-105.357	-0.746	-107.249	-8191	255	
3202.399	1	1	0	0	0.27892	0.15207	0.12168	0.11059	0.12604	0.21286	0.16027	0.28606	0.1281	0.29171	0.15379	0.15026	0.041817	0.13513	0.20742	0.076793	-2.2771	-2.9833	-2.6188	-2.725	-3.0812	-2.8271	-3.0604	-2.9354	-2.7438	-2.9396	-3.0312	-2.8354	-3.2583	-2.6417	-2.8417	-3.0229	-105.584	-13.383	99.600	21.396	-33.672	-78.414	-12.444	-35.230	-20.195	185.106	210.788	161.420	155.914	-105.820	-78.248	160.313	0.00082429	0.0021301	0.00020794	349.88	1.0464e-05	1.2983e-05	388.36	114.63	1.8964e-05	4.5086e-06	165.96	60.307	42.38	17.635	1.4268e-05	32.052	0.0054799	0.0067611	0.0018035	757.84	6.4902e-05	7.4253e-05	567.91	179.26	6.4072e-05	7.3078e-05	363.3	89.468	71.942	28.263	6.5695e-05	45.926	112.349	-132.132	-113.415	-119.764	185.844	112.682	-120.695	-114.695	218.846	76.621	-116.216	-112.285	-111.706	-105.101	-5.161	-107.311	-8191	255	
3202.495	1	1	0	0	0.14508	0.26509	0.13563	0.2089	0.088618	0.1309	0.19668	0.08423	0.20587	0.077701	0.17446	0.40038	0.0875	0.20526	0.11147	0.23906	-2.0563	-3.0021	-3.0021	-2.7646	-3.2292	-2.7375	-2.9771	-3.2083	-2.5729	-3.2042	-2.8083	-2.7687	-3.0563	-2.6333	-3.0521	-3.1021	219.571	35.342	164.588	-99.582	-75.096	162.763	63.754	21.298	-5.964	214.279	159.346	119.747	-3.069	-86.576	40.772	72.657	0.00054727	0.0012168	0.00030589	347.7	1.8546e-05	1.418e-05	390.43	115.87	2.1122e-05	1.1309e-05	168.3	61.076	42.978	17.821	1.8149e-05	32.444	0.0055941	0.0065876	0.0016923	740.73	6.7224e-05	7.1995e-05	564.92	179.11	6.7314e-05	7.0388e-05	358.31	89.497	73.458	28.018	6.2039e-05	45.795	110.038	-26.419	-74.461	-120.091	-104.300	83.126	-120.465	-114.672	212.081	-5.934	-116.370	-112.190	-112.075	-104.985	19.655	-107.240	-8191	255	
3202.591	1	1	0	0	0.24002	0.17477	0.1034	0.063738	0.050688	0.15201	0.31183	0.19374	0.22091	0.21775	0.2276	0.33264	0.15872	0.24774	0.21989	0.44314	-2.4479	-3.0375	-2.8104	-2.825	-2.9875	-2.6854	-2.7479	-2.8854	-2.8521	-2.8604	-2.9917	-2.7271	-3.1042	-2.9271	-2.7313	-3.2854	17.617	85.912	-122.444	-41.763	140.766	18.302	-106.532	189.706	82.120	30.264	-83.747	190.418	116.696	71.882	142.624	-88.385	0.00063347	0.0010222	6.5982e-05	346.58	8.9711e-06	2.5567e-06	390.73	114.53	1.9268e-05	1.4926e-05	167.54	59.192	41.613	17.142	1.3032e-05	31.18	0.0056752	0.0060602	0.0015681	720.47	6.6658e-05	6.5643e-05	552.31	175.67	6.7688e-05	6.5433e-05	344.6	87.53	72.553	26.927	5.9951e-05	44.908	116.576	-20.881	87.577	-119.627	201.181	-17.329	-120.734	-115.194	224.897	23.818	-116.666	-112.021	-111.734	-105.142	35.150	-106.931	-8191	255	
3202.687	1	1	0	0	0.16951	0.3079	0.33539	0.092705	0.025848	0.032615	0.17409	0.15384	0.33642	0.1891	0.19739	0.11844	0.28354	0.10782	0.079849	0.19169	-2.3875	-2.9167	-2.875	-2.8187	-3.0563	-2.6937	-2.9938	-3.0979	-2.975	-2.8604	-3.0625	-2.8958	-2.9958	-2.9	-2.8417	-2.95	-99.988	56.483	118.979	188.036	209.522	152.082	100.227	128.037	-5.473	-131.072	174.900	184.643	143.504	-52.240	-13.986	196.184	0.00052027	0.0006877	0.00037425	344.67	1.5398e-05	1.5867e-05	386.44	113.22	1.3119e-05	2.0535e-05	165.66	58.965	41.818	17.295	3.1208e-06	31.411	0.005859	0.005875	0.0015348	741.66	6.9084e-05	6.4627e-05	546.38	177.86	6.8426e-05	6.3346e-05	337.8	88.822	72.477	26.713	5.7775e-05	45.629	99.102	-95.630	-37.660	-120.994	-1.900	1.977	-120.719	-114.625	40.947	18.192	-116.492	-112.179	-111.996	-105.017	-48.850	-107.211	-8191	255	
3202.784	1	1	0	0	0.17938	0.18424	0.14355	0.14409	0.14964	0.045817	0.12935	0.14891	0.25127	0.23147	0.29646	0.24304	0.19562	0.14903	0.16456	0.099091	-2.4479	-2.9979	-3.2125	-2.6792	-3.175	-3	-2.9167	-3.3187	-2.7208	-2.8708	-3.1104	-2.7646	-3.1354	-2.9208	-2.6875	-3.0687	-40.534	214.763	54.466	95.151	-44.058	126.273	161.055	207.661	180.294	-97.106	27.121	-16.358	107.441	150.359	2.120	196.330	0.00055463	0.0010052	0.00026045	346.16	2.0683e-05	8.1462e-06	388.81	114.68	2.1152e-05	8.0579e-06	165.97	60.319	43.209	17.488	9.7985e-06	31.991	0.0057138	0.0056585	0.0014906	762.25	6.6795e-05	6.2302e-05	546.38	182.39	6.6296e-05	6.1818e-05	341.07	91.776	73.087	27.042	5.9415e-05	47.101	159.227	-77.924	-92.119	-119.375	6.112	1.542	-120.443	-114.915	59.417	16.824	-117.242	-112.165	-111.698	-105.194	174.155	-107.332	-8191	255	
3202.902	1	1	0	0	0.1099	0.31143	0.18598	0.1706	0.050741	0.087147	0.13238	0.13418	0.15564	0.17237	0.16572	0.20001	0.11861	0.097403	0.13707	0.10231	-2.2625	-2.8167	-3.0062	-2.6854	-2.9521	-2.9313	-2.8333	-3.125	-2.9	-2.8187	-3.0458	-2.9875	-2.9396	-3.0021	-2.7229	-3.0646	-60.741	-65.224	153.307	41.666	207.319	-63.846	-27.467	12.364	-129.904	-120.790	222.944	-71.352	123.567	20.770	188.787	172.185	0.00043243	0.00058691	0.00060022	348.03	6.0664e-06	2.6228e-06	392.09	116.56	1.8938e-05	1.0925e-05	167.72	60.811	43.212	17.826	1.0864e-05	32.756	0.0056366	0.0056159	0.0015433	793.17	6.5631e-05	6.2002e-05	557.87	187.65	6.5808e-05	6.1503e-05	354.03	93.919	72.872	27.154	6.3283e-05	47.905	155.675	-41.015	179.262	-119.897	-89.603	-42.845	-120.655	-114.988	-14.413	-54.567	-116.709	-111.945	-111.217	-104.898	174.399	-107.085	-8191	255	
3202.999	1	1	0	0	0.073453	0.29544	0.12804	0.2329	0.24079	0.19317	0.17307	0.30504	0.073396	0.10132	0.21286	0.21364	0.18617	0.2618	0.09249	0.28722	-2.2771	-2.8479	-3.2604	-2.6396	-2.8312	-3.2562	-2.6604	-3.2667	-2.9188	-2.8604	-3.0438	-2.9229	-2.9396	-2.975	-3.0229	-2.975	28.537	5.358	-70.673	132.806	205.872	53.041	110.456	-73.737	3.620	-63.213	195.970	99.471	-127.854	123.890	6.784	152.457	0.00028359	0.0013898	0.00014464	350.99	6.8155e-06	1.3396e-05	389.68	115.61	7.338e-06	7.0308e-06	164.93	59.98	42.007	17.387	1.8115e-05	31.639	0.0055354	0.0055272	0.0016515	799.18	6.4539e-05	6.1123e-05	567.02	186.22	6.4516e-05	6.0523e-05	363.99	92.504	71.335	26.625	6.868e-05	46.961	176.403	176.400	-65.861	-120.378	-72.909	45.546	-120.914	-114.293	-44.865	69.771	-117.072	-111.982	-111.544	-105.174	218.969	-107.331	-8191	255	
3203.095	1	1	0	0	0.16698	0.25864	0.21818	0.041474	0.028896	0.21498	0.040423	0.058603	0.086073	0.34428	0.08823	0.23439	0.24079	0.14229	0.20113	0.075935	-2.4229	-2.9625	-3.05	-2.8396	-2.7708	-3.0917	-3.0292	-2.9646	-2.9229	-2.9271	-3.0167	-2.9167	-2.9146	-2.9896	-2.8854	-3.0542	-52.741	226.270	122.777	211.417	198.507	-10.293	197.124	-45.779	-19.392	181.958	212.446	66.091	27.480	29.210	159.833	104.639	0.00026241	0.00043722	0.00032477	345.35	1.6686e-05	9.5146e-06	382.22	113.89	5.2507e-06	1.6363e-05	163.51	59.039	41.754	16.978	4.6083e-06	31.456	0.0055443	0.0056384	0.0018041	794.13	6.5081e-05	6.2992e-05	573.48	183.8	6.5583e-05	6.4168e-05	376.81	91.311	70.642	26.743	7.2797e-05	46.408	189.042	-48.574	93.803	-119.722	-27.382	-131.927	-120.799	-114.968	-130.743	202.128	-117.547	-111.850	-111.303	-105.402	-129.302	-106.981	-8191	255	
3203.191	1	1	0	0	0.21497	0.27817	0.1485	0.20059	0.26052	0.14456	0.084049	0.15097	0.20514	0.23445	0.16744	0.24625	0.041633	0.19297	0.153	0.12337	-2.6604	-2.6854	-2.9396	-2.7625	-2.85	-3.2958	-2.7375	-3.1729	-3.1146	-2.7917	-3.0708	-2.9833	-2.6625	-3.1521	-2.5708	-2.9542	12.128	54.921	-123.940	99.303	-64.506	-8.518	2.582	95.880	157.824	206.963	-113.335	111.555	29.376	134.103	-111.810	136.007	0.00047502	0.00069802	0.00013093	342.64	2.9496e-06	1.9968e-05	384.54	113.78	8.2326e-06	1.2621e-05	166.55	60.185	41.867	17.488	2.4e-05	32.351	0.0054327	0.0058903	0.0018648	776.6	6.304e-05	6.5535e-05	576.36	181.4	6.1918e-05	6.602e-05	374.91	90.762	69.895	27.528	7.1439e-05	46.533	147.509	149.008	62.919	-119.794	54.091	-130.739	-120.883	-114.607	99.228	-126.030	-116.123	-111.987	-111.884	-105.171	-6.382	-107.097	-8191	255	
3203.287	1	1	0	0	0.053714	0.36459	0.21743	0.067655	0.028049	0.19669	0.03089	0.044969	0.15676	0.10516	0.16554	0.12362	0.15627	0.13969	0.10669	0.28382	-2.5312	-2.6958	-2.9875	-2.7771	-2.8479	-3.0042	-2.8146	-2.8271	-2.8917	-2.5958	-2.9188	-3.1146	-2.8688	-3.0062	-2.7167	-2.9417	-120.085	-131.437	49.376	85.608	-131.556	93.892	146.097	42.087	-31.869	45.554	146.259	209.401	35.802	144.110	216.361	152.632	0.00052832	0.001675	0.00031712	347.63	1.0538e-05	1.3021e-05	392.71	115.58	1.1513e-05	1.2305e-05	168.5	60.936	42.923	17.667	7.5497e-06	32.256	0.0052447	0.0061773	0.0017995	763.1	6.0554e-05	6.867e-05	575.67	181.52	6.0993e-05	7.0168e-05	371.88	91.19	70.62	28.234	6.821e-05	46.356	134.171	148.320	-54.139	-120.094	106.056	157.692	-120.568	-114.590	201.274	-118.855	-116.511	-111.838	-111.971	-104.764	30.686	-107.130	-8191	255	
3203.383	1	1	0	0	0.1976	0.26273	0.071939	0.24874	0.17009	0.18319	0.2273	0.046786	0.12231	0.12438	0.060227	0.15571	0.17666	0.10891	0.011937	0.26777	-2.9437	-2.8104	-3.0021	-2.8125	-2.8042	-3.1375	-2.8	-2.8	-2.9271	-2.9479	-2.9917	-2.7604	-2.8312	-3.1083	-2.6979	-2.9292	-89.716	15.142	37.668	-34.764	68.380	115.782	31.526	63.611	99.547	154.822	156.064	191.824	103.378	226.003	-64.841	-44.863	0.00064765	0.0013332	0.0005143	349.6	4.5771e-06	8.1235e-06	390.46	115.55	2.492e-05	1.1032e-05	169.38	59.819	41.788	17.321	5.7894e-06	31.566	0.0051407	0.0063545	0.001679	741.5	5.9748e-05	6.8805e-05	564.92	177.19	5.9968e-05	6.9557e-05	356.05	88.249	69.83	27.595	6.4015e-05	44.788	121.902	154.956	-20.578	-119.582	-115.359	199.505	-120.517	-114.830	184.278	173.795	-116.286	-111.893	-111.831	-105.013	54.050	-107.379	-8191	255	
3203.504	1	1	0	0	0.24967	0.15044	0.090246	0.041611	0.12816	0.18479	0.1342	0.1019	0.058576	0.20616	0.047088	0.37029	0.19485	0.15874	0.14704	0.22887	-2.5208	-2.7167	-2.7979	-2.975	-2.6917	-2.9896	-2.875	-2.55	-3.1708	-2.7271	-2.8438	-2.9938	-2.7146	-3.2042	-2.975	-2.8875	-68.519	102.961	195.599	163.820	95.372	166.625	197.626	129.742	28.538	19.876	-91.867	47.068	186.406	78.555	2.996	20.638	0.00083234	0.0010769	0.00032986	343.18	9.3125e-06	4.1559e-06	385.1	114.32	6.1897e-06	6.9618e-06	164	58.656	41.231	17.041	1.4107e-05	31.061	0.0052564	0.00625	0.0015871	719.96	6.1803e-05	6.7058e-05	551.22	172.33	6.2732e-05	6.8133e-05	345.48	86.263	70.482	27.024	6.1401e-05	44.043	122.425	224.707	-69.876	-119.813	203.531	88.750	-120.621	-114.497	185.361	27.498	-116.722	-112.248	-112.116	-105.021	-50.379	-107.157	-8191	255	
3203.600	1	1	0	0	0.13915	0.073731	0.071027	0.13738	0.040668	0.046837	0.22416	0.22818	0.1531	0.17408	0.055415	0.22591	0.13004	0.1745	0.19437	0.26494	-2.6917	-2.6	-2.8208	-2.9958	-2.5667	-3.1188	-2.9604	-2.675	-3.1208	-2.8208	-2.8979	-3.1708	-2.6688	-2.8125	-2.8958	-2.9167	136.923	-27.607	221.176	116.665	63.981	180.678	-72.246	-129.739	13.350	157.705	20.236	-85.375	112.073	-86.888	44.878	77.961	0.00072443	0.00067258	0.00023275	346.24	9.0837e-06	1.4901e-05	387.76	113.98	5.1279e-06	2.5198e-05	165.58	59.805	42.412	17.38	1.4543e-05	31.575	0.005502	0.0060533	0.001532	715.46	6.5389e-05	6.4725e-05	551.04	173.79	6.5907e-05	6.5353e-05	341.08	87.418	72.666	27.105	5.9832e-05	44.899	142.555	-68.307	-65.527	-120.406	-62.470	23.137	-120.490	-115.298	135.884	43.341	-116.303	-112.250	-112.004	-104.811	-39.276	-107.561	-8191	255	
3203.696	1	1	0	0	0.067295	0.20871	0.35699	0.22869	0.28024	0.073438	0.075721	0.13249	0.12705	0.23023	0.062426	0.36695	0.076932	0.033814	0.22433	0.026909	-2.6	-2.8521	-2.9417	-3.1542	-2.9896	-3.0375	-2.8812	-2.8833	-3.0625	-2.8688	-2.7562	-3.1625	-2.9688	-2.7771	-3.1813	-2.75	-31.663	-112.184	89.460	7.941	-70.811	81.243	131.108	10.695	-84.553	191.665	203.272	-45.171	-81.639	157.182	210.854	161.859	0.00061306	0.00073659	0.00040553	347.29	2.0983e-06	1.4219e-05	391.45	117.16	2.0334e-05	1.2865e-05	169.57	60.456	43.042	17.689	6.9594e-06	31.984	0.0057472	0.005916	0.0015178	739.51	6.9244e-05	6.4663e-05	554.91	180.57	6.9459e-05	6.5673e-05	345.3	90.767	74.91	27.425	6.0243e-05	46.524	129.771	6.282	-29.588	-120.894	156.625	7.466	-120.596	-114.910	-52.630	-10.910	-117.156	-112.262	-111.819	-104.941	-27.868	-107.546	-8191	255	
3203.792	1	1	0	0	0.15197	0.12807	0.32945	0.062371	0.2775	0.064416	0.058347	0.16284	0.21023	0.3268	0.25992	0.16936	0.21739	0.19564	0.26927	0.30306	-2.675	-2.7792	-2.625	-3.1333	-2.6896	-2.9271	-2.95	-2.7458	-2.8937	-2.775	-2.7812	-3.0229	-2.8083	-2.8229	-3.1437	-2.7438	226.413	180.530	49.106	59.357	-23.670	-100.371	20.287	52.741	3.937	41.279	-100.058	108.523	-59.958	154.423	-79.971	161.170	0.00038137	0.0016277	0.00049097	348.08	1.2503e-05	1.7432e-05	391.58	115.55	1.1956e-05	8.5204e-06	166.26	59.555	42.136	17.195	9.1524e-06	31.196	0.0059259	0.0059818	0.0015382	778.13	7.0555e-05	6.4642e-05	555.78	184.55	6.8659e-05	6.4944e-05	343.05	91.744	73.291	26.793	6.0822e-05	46.4	124.573	86.026	-21.821	-120.754	-22.776	46.862	-120.789	-114.945	-39.413	28.339	-116.473	-112.359	-111.796	-105.011	191.755	-107.434	-8191	255	
#DATA ENDS
