BOXY.EXE: ISS Imagent and Oximeter Data Acquisition Program Version 0.80
Ascii Record File

#ACQ INFORMATION
2  Detector Channels 
16  External MUX Channels 
1  Auxiliary Channels 
5000  Waveform (CCF) Frequency (Hz)
1  Waveforms Skipped 
30  Waveforms Averaged 
1  Cycles Averaged 
16  Acquisitions per Waveform 
10.0806  Updata Rate (Hz) 

#FILE INFORMATION
TRUE -- External MUX Channel results are PARSED.
FALSE -- AC DC and Phase are NOT grouped.
TRUE -- Companion Program Settings File CREATED.
FALSE -- AC data not excluded
FALSE -- DC data not excluded
FALSE -- Phase data not excluded
FALSE -- Auxillary Chn. data not excluded
Tab delimiters

#CALIBRATION STATE
TRUE -- Waveform Calibration Values APPLIED.


#AUX CALIBRATION VALUES
Val Type	aux-1	

Term	1.0000e+00	
Factor	0.0000e+00	


#WF CALIBRATION VALUES
A = Detector Channel
Val Type	A-AC1	A-AC2	A-AC3	A-AC4	A-AC5	A-AC6	A-AC7	A-AC8	A-AC9	A-AC10	A-AC11	A-AC12	A-AC13	A-AC14	A-AC15	A-AC16	A-DC1	A-DC2	A-DC3	A-DC4	A-DC5	A-DC6	A-DC7	A-DC8	A-DC9	A-DC10	A-DC11	A-DC12	A-DC13	A-DC14	A-DC15	A-DC16	A-Ph1	A-Ph2	A-Ph3	A-Ph4	A-Ph5	A-Ph6	A-Ph7	A-Ph8	A-Ph9	A-Ph10	A-Ph11	A-Ph12	A-Ph13	A-Ph14	A-Ph15	A-Ph16	

Term	0.00000e+00	0.00000e+00	0.00000e+00	0.00000e+00	0.00000e+00	0.00000e+00	0.00000e+00	0.00000e+00	0.00000e+00	0.00000e+00	0.00000e+00	0.00000e+00	0.00000e+00	0.00000e+00	0.00000e+00	0.00000e+00	0.00000e+00	0.00000e+00	0.00000e+00	0.00000e+00	0.00000e+00	0.00000e+00	0.00000e+00	0.00000e+00	0.00000e+00	0.00000e+00	0.00000e+00	0.00000e+00	0.00000e+00	0.00000e+00	0.00000e+00	0.00000e+00	0.00000e+00	0.00000e+00	0.00000e+00	0.00000e+00	0.00000e+00	0.00000e+00	0.00000e+00	0.00000e+00	0.00000e+00	0.00000e+00	0.00000e+00	0.00000e+00	0.00000e+00	0.00000e+00	0.00000e+00	0.00000e+00	
Factor	1.00000e+00	1.00000e+00	1.00000e+00	1.00000e+00	1.00000e+00	1.00000e+00	1.00000e+00	1.00000e+00	1.00000e+00	1.00000e+00	1.00000e+00	1.00000e+00	1.00000e+00	1.00000e+00	1.00000e+00	1.00000e+00	1.00000e+00	1.00000e+00	1.00000e+00	1.00000e+00	1.00000e+00	1.00000e+00	1.00000e+00	1.00000e+00	1.00000e+00	1.00000e+00	1.00000e+00	1.00000e+00	1.00000e+00	1.00000e+00	1.00000e+00	1.00000e+00	X	X	X	X	X	X	X	X	X	X	X	X	X	X	X	X	

B = Detector Channel
Val Type	B-AC1	B-AC2	B-AC3	B-AC4	B-AC5	B-AC6	B-AC7	B-AC8	B-AC9	B-AC10	B-AC11	B-AC12	B-AC13	B-AC14	B-AC15	B-AC16	B-DC1	B-DC2	B-DC3	B-DC4	B-DC5	B-DC6	B-DC7	B-DC8	B-DC9	B-DC10	B-DC11	B-DC12	B-DC13	B-DC14	B-DC15	B-DC16	B-Ph1	B-Ph2	B-Ph3	B-Ph4	B-Ph5	B-Ph6	B-Ph7	B-Ph8	B-Ph9	B-Ph10	B-Ph11	B-Ph12	B-Ph13	B-Ph14	B-Ph15	B-Ph16	

Term	0.00000e+00	0.00000e+00	0.00000e+00	0.00000e+00	0.00000e+00	0.00000e+00	0.00000e+00	0.00000e+00	0.00000e+00	0.00000e+00	0.00000e+00	0.00000e+00	0.00000e+00	0.00000e+00	0.00000e+00	0.00000e+00	0.00000e+00	0.00000e+00	0.00000e+00	0.00000e+00	0.00000e+00	0.00000e+00	0.00000e+00	0.00000e+00	0.00000e+00	0.00000e+00	0.00000e+00	0.00000e+00	0.00000e+00	0.00000e+00	0.00000e+00	0.00000e+00	-1.95322e+02	-1.31664e+02	-1.35514e+02	-1.83507e+02	-9.14092e+01	-5.93382e+01	-1.57852e+02	-1.62015e+02	-9.36674e+01	-6.54123e+01	-1.76234e+02	-1.71211e+02	-1.81698e+02	-1.78091e+02	-8.68548e+01	-1.51000e+02	
Factor	4.07472e-05	1.94038e-04	5.01386e-05	4.44362e-01	1.74494e-06	1.67566e-06	1.66286e-01	6.31906e-02	2.08765e-06	1.66474e-06	2.13853e-01	2.89034e-02	2.88634e-02	9.13376e-03	1.93495e-06	1.32076e-02	3.19055e-06	3.47120e-06	9.67125e-07	2.29784e-01	3.78690e-08	3.80063e-08	8.23849e-02	3.32550e-02	3.75348e-08	3.80335e-08	1.05779e-01	1.48008e-02	1.52162e-02	4.84302e-03	3.76195e-08	6.77457e-03	X	X	X	X	X	X	X	X	X	X	X	X	X	X	X	X	



#DISTANCE SETTINGS
A = Detector Channel
A-1	A-2	A-3	A-4	A-5	A-6	A-7	A-8	A-9	A-10	A-11	A-12	A-13	A-14	A-15	A-16	

2.5000e+00	3.0000e+00	2.5000e+00	3.0000e+00	2.0000e+00	3.0000e+00	1.5000e+00	3.0000e+00	3.0000e+00	3.0000e+00	3.0000e+00	3.0000e+00	3.0000e+00	3.0000e+00	1.5000e+00	3.0000e+00	

B = Detector Channel
B-1	B-2	B-3	B-4	B-5	B-6	B-7	B-8	B-9	B-10	B-11	B-12	B-13	B-14	B-15	B-16	

1.0000e+01	1.0000e+01	1.0000e+01	1.4400e+00	1.0000e+01	1.0000e+01	1.5100e+00	1.9400e+00	1.0000e+01	1.0000e+01	1.9900e+00	2.4900e+00	2.4100e+00	2.9000e+00	1.0000e+01	2.9800e+00	




#DATA BEGINS
time	group	step	mark	flag	A-AC1	A-AC2	A-AC3	A-AC4	A-AC5	A-AC6	A-AC7	A-AC8	A-AC9	A-AC10	A-AC11	A-AC12	A-AC13	A-AC14	A-AC15	A-AC16	A-DC1	A-DC2	A-DC3	A-DC4	A-DC5	A-DC6	A-DC7	A-DC8	A-DC9	A-DC10	A-DC11	A-DC12	A-DC13	A-DC14	A-DC15	A-DC16	A-Ph1	A-Ph2	A-Ph3	A-Ph4	A-Ph5	A-Ph6	A-Ph7	A-Ph8	A-Ph9	A-Ph10	A-Ph11	A-Ph12	A-Ph13	A-Ph14	A-Ph15	A-Ph16	B-AC1	B-AC2	B-AC3	B-AC4	B-AC5	B-AC6	B-AC7	B-AC8	B-AC9	B-AC10	B-AC11	B-AC12	B-AC13	B-AC14	B-AC15	B-AC16	B-DC1	B-DC2	B-DC3	B-DC4	B-DC5	B-DC6	B-DC7	B-DC8	B-DC9	B-DC10	B-DC11	B-DC12	B-DC13	B-DC14	B-DC15	B-DC16	B-Ph1	B-Ph2	B-Ph3	B-Ph4	B-Ph5	B-Ph6	B-Ph7	B-Ph8	B-Ph9	B-Ph10	B-Ph11	B-Ph12	B-Ph13	B-Ph14	B-Ph15	B-Ph16	aux-1	digaux	

1249.736	1	1	0	256	0.028405	0.054124	0.1082	0.10753	0.30359	0.21157	0.25766	0.12685	0.17227	0.10877	0.16149	0.11745	0.101	0.077318	0.20795	0.17216	-2.9479	-2.9208	-3.0271	-3.1708	-2.8708	-3.0604	-3.2229	-2.8896	-3.2875	-3.1271	-3.0417	-3.1667	-2.8583	-3.15	-2.9625	-2.8958	169.056	137.283	41.967	275.339	94.155	29.333	241.114	119.340	19.482	50.814	152.236	55.875	108.376	98.768	303.779	252.566	0.00031628	0.00022352	8.6024e-05	1181.7	4.2097e-06	1.3354e-06	1264	250.97	1.7965e-06	3.7664e-06	312.68	89.7	71.584	20.392	2.3381e-06	27.852	0.00024079	0.00025177	6.4092e-05	1149.9	2.6657e-06	2.7351e-06	1240.7	248.71	2.6055e-06	2.6615e-06	305.34	89.111	71.709	20.651	2.3101e-06	28.161	70.052	81.259	154.624	7.623	192.224	165.583	7.385	15.133	243.066	95.994	14.828	20.903	21.654	29.159	78.126	28.509	-8191	255	
1249.832	1	1	0	0	0.11014	0.16383	0.26065	0.096741	0.18228	0.095186	0.24663	0.071202	0.2467	0.11529	0.10025	0.12703	0.14781	0.16226	0.12229	0.017675	-2.8333	-2.9479	-2.9062	-3.4625	-2.875	-3.0625	-3.2729	-2.9833	-3.2042	-3.0521	-2.9917	-3.3771	-2.8396	-3.2271	-3.2313	-3.0854	287.273	294.466	127.074	73.092	288.413	85.345	273.528	106.427	273.887	339.650	83.872	237.046	347.167	350.165	306.407	137.256	0.00036481	0.00078793	3.8921e-05	1173	6.1191e-06	2.9903e-06	1253.4	249.11	1.3235e-06	1.9414e-06	313.33	88.924	71.999	20.209	4.1219e-06	27.724	0.00024543	0.0002335	5.9124e-05	1144	2.6552e-06	2.5646e-06	1233.3	247.99	2.6679e-06	2.4406e-06	304.5	88.738	71.613	20.519	2.3112e-06	28.048	76.909	144.895	242.830	7.268	232.425	178.169	7.698	15.014	162.290	42.517	14.634	21.458	21.748	28.658	158.462	28.673	-8191	255	
1249.929	1	1	0	0	0.2917	0.041146	0.12727	0.033375	0.11733	0.22493	0.20757	0.048475	0.15401	0.091325	0.17931	0.23547	0.068167	0.26621	0.044381	0.41675	-2.8458	-3.0229	-3.0354	-3.3708	-2.9333	-3.0083	-3.3479	-2.8625	-3.1667	-3.05	-3.05	-3.3875	-3.0812	-2.8812	-3.4833	-2.7625	241.762	173.769	59.711	195.389	37.058	224.287	300.234	14.755	237.894	232.550	75.001	324.260	307.498	102.052	259.311	284.599	0.00027371	0.00051254	0.0001756	1163.1	3.7086e-06	2.9829e-06	1250	249.74	1.8749e-06	2.6665e-06	307.82	88.886	71.9	20.415	5.7868e-06	27.791	0.0002479	0.00022593	5.9097e-05	1139.2	2.6955e-06	2.4485e-06	1231	247.91	2.6985e-06	2.3832e-06	302.25	88.655	71.455	20.562	2.2385e-06	28.121	64.129	57.631	20.578	7.521	152.440	174.663	7.658	14.943	177.581	138.483	14.599	21.252	21.689	28.892	271.011	28.645	-8191	255	
1250.025	1	1	0	0	0.014431	0.081534	0.053171	0.1581	0.20759	0.21957	0.14184	0.25757	0.17418	0.19949	0.098701	0.36514	0.3486	0.15685	0.19041	0.023465	-2.6979	-3.0354	-2.9167	-3.3083	-2.9292	-3.0729	-3.5854	-3.0104	-2.9521	-3.1021	-3.0771	-3.2771	-2.9896	-3.0438	-3.1646	-3.0708	74.366	107.645	201.198	257.697	116.964	126.369	299.209	323.481	279.763	113.674	141.458	290.902	10.356	85.134	226.406	205.091	0.00028286	0.00055049	9.765e-05	1165.2	2.219e-06	3.266e-06	1251.7	249.36	5.9989e-06	5.1246e-06	308.05	88.34	71.366	20.331	5.707e-06	27.616	0.00024701	0.00021193	5.8888e-05	1139.1	2.6511e-06	2.3638e-06	1230.3	247.04	2.5571e-06	2.3288e-06	303.59	88.287	71.131	20.516	2.2504e-06	28.079	65.350	82.721	95.787	7.695	66.377	145.762	7.554	15.039	86.219	102.241	14.780	21.351	21.939	29.256	149.593	28.580	-8191	255	
1250.121	1	1	0	0	0.23675	0.074848	0.13532	0.2705	0.23667	0.17749	0.25011	0.22697	0.092931	0.13677	0.29847	0.18281	0.14282	0.22539	0.12266	0.073541	-2.6833	-3.1875	-2.9708	-3.2083	-3.2083	-3.1042	-3.3208	-2.9021	-3.0563	-3.3146	-2.7729	-3.1979	-3.15	-2.9667	-3.3187	-3.0979	298.612	120.923	23.977	2.307	62.587	31.599	9.998	259.301	39.502	166.894	175.482	354.329	344.281	337.060	38.591	88.761	0.00034075	0.00028674	0.00014333	1163.5	2.5155e-06	2.2924e-06	1247.3	250.1	6.6817e-06	4.3809e-06	306.09	87.89	71.374	20.184	2.3265e-06	27.832	0.00023621	0.00020684	5.9666e-05	1135.6	2.4746e-06	2.3658e-06	1226.8	247.09	2.4793e-06	2.2597e-06	302.54	88.004	71.01	20.437	2.4495e-06	27.998	82.776	46.609	102.380	7.580	178.127	129.765	7.555	15.269	168.163	155.729	14.644	21.394	22.218	29.452	79.734	28.660	-8191	255	
1250.242	1	1	0	0	0.20401	0.11833	0.27978	0.26996	0.29903	0.049564	0.29944	0.062012	0.098935	0.062473	0.14687	0.10522	0.13019	0.095938	0.23383	0.25819	-2.5729	-3.2396	-2.8333	-3.2479	-3.0667	-2.7958	-3.45	-3.1333	-3.025	-3.3125	-2.9229	-3.0104	-3.0833	-2.9583	-3.3063	-3.1479	212.070	96.477	214.393	46.228	74.848	108.428	-1.244	125.025	259.523	-0.198	9.558	314.737	279.211	150.894	116.607	-0.891	0.00035224	0.00053552	5.4811e-05	1157.1	2.9895e-06	3.4019e-06	1236.5	247.73	2.2193e-06	1.8052e-06	309.66	87.541	71.154	20.036	1.7869e-06	27.526	0.00023026	0.00020751	6.1582e-05	1133.7	2.4179e-06	2.2985e-06	1222.9	246.14	2.4114e-06	2.2572e-06	302.79	87.842	70.838	20.33	2.5547e-06	27.888	78.334	116.178	355.760	7.508	64.356	151.689	7.682	14.870	242.070	178.929	14.595	21.459	21.893	28.833	77.849	28.305	-8191	255	
1250.336	1	1	0	0	0.065135	0.065077	0.21227	0.30479	0.25646	0.16654	0.19103	0.21504	0.1074	0.23146	0.13763	0.033532	0.11034	0.19393	0.092572	0.40994	-2.6042	-3.2271	-2.8854	-3.1042	-3.2354	-2.8292	-3.2396	-2.9625	-3.0271	-3.3042	-3.025	-3.2188	-3.25	-3.0896	-3.2021	-3.1417	326.783	195.413	309.343	342.169	287.536	336.197	268.289	323.120	269.838	330.633	320.785	74.787	304.069	335.054	270.541	355.978	0.0003878	0.00056768	0.00014645	1164.1	3.3638e-06	5.1126e-06	1237.1	248.01	4.248e-06	2.1635e-06	311.85	87.428	70.806	20.163	7.7234e-06	27.492	0.00022691	0.00020633	6.6006e-05	1131.6	2.2615e-06	2.1868e-06	1218.3	245.64	2.2698e-06	2.1391e-06	303.69	87.724	70.464	20.343	2.491e-06	27.82	70.653	85.500	85.494	7.412	135.740	214.477	7.374	15.190	150.412	169.817	14.374	21.199	21.712	29.101	161.495	27.937	-8191	255	
1250.409	1	1	0	0	0.072843	0.018642	0.11189	0.22903	0.12079	0.31765	0.3485	0.10218	0.3664	0.1164	0.15004	0.10878	0.0277	0.2287	0.072648	0.3361	-2.6354	-3.3542	-2.8604	-3.1354	-3.425	-2.975	-3.5542	-3.1125	-2.8125	-3.3917	-2.8625	-3.1521	-3.4792	-2.9854	-3.3583	-3.175	106.011	212.246	168.636	317.963	149.981	296.017	325.970	207.843	253.577	107.321	142.946	69.460	155.771	343.609	150.623	182.482	0.00035097	0.00052647	4.2348e-05	1147.2	3.6921e-06	3.4173e-06	1235.6	246.49	1.8151e-06	8.6528e-07	307.85	87.417	70.841	20.053	5.0191e-06	27.761	0.00020908	0.00020455	6.6141e-05	1124.1	2.1981e-06	2.3242e-06	1216.5	245.12	2.2837e-06	2.4179e-06	301.17	87.544	70.652	20.393	2.5944e-06	27.897	68.125	53.448	94.545	7.818	117.172	138.425	7.593	14.919	201.233	50.560	14.847	21.387	21.833	29.292	125.008	28.421	-8191	255	
1250.528	1	1	0	0	0.13681	0.14986	0.11728	0.11617	0.12208	0.09339	0.097856	0.24213	0.20153	0.060161	0.080481	0.27476	0.34944	0.21846	0.055724	0.12707	-2.3958	-3.1542	-2.7833	-3.1708	-3.2438	-2.95	-3.2979	-3.2042	-2.8563	-2.9875	-2.9938	-2.9625	-3.1958	-2.8625	-3.0792	-3.0708	69.349	26.845	12.836	226.134	180.442	325.732	141.161	319.195	229.797	12.402	39.074	344.199	23.469	346.073	333.341	131.804	0.00044203	0.00063908	4.2265e-05	1154.5	3.403e-06	4.4168e-06	1232.8	246.89	4.3194e-06	2.2626e-06	305.07	86.964	70.771	20.168	2.5935e-06	27.545	0.00022227	0.00022853	6.5051e-05	1123.5	2.2247e-06	2.5271e-06	1214.3	244.49	2.3186e-06	2.5179e-06	299.83	87.42	70.499	20.392	2.5242e-06	27.84	76.578	117.397	74.376	7.517	185.010	202.509	7.817	14.939	168.591	167.580	14.658	21.260	21.843	29.320	62.733	28.439	-8191	255	
1250.624	1	1	0	0	0.051196	0.21068	0.066039	0.29872	0.24481	0.12172	0.12371	0.21027	0.085088	0.26695	0.032842	0.23105	0.15391	0.17732	0.11403	0.11609	-2.2958	-3.3	-2.8042	-2.9792	-3.3438	-2.9875	-3.2083	-3.1875	-2.7625	-3.0771	-2.9917	-3.1083	-3.275	-3.0333	-3.1896	-3.3396	320.224	30.647	187.871	11.036	324.550	253.943	2.811	308.070	277.466	291.843	116.779	269.376	208.081	292.154	109.422	276.617	0.00039891	0.00017088	8.1832e-05	1148.2	3.4658e-06	1.6306e-06	1230.6	247.17	5.1863e-06	3.155e-06	306.04	87.029	70.814	20.073	5.3211e-06	27.606	0.00022778	0.00024706	6.4977e-05	1120.9	2.3266e-06	2.7581e-06	1212.4	244.3	2.4157e-06	2.7383e-06	301.72	87.345	70.564	20.343	2.596e-06	27.809	74.769	27.945	77.056	7.543	157.143	248.548	7.635	15.127	137.337	145.665	14.783	21.377	22.034	29.636	85.874	28.330	-8191	255	
1250.721	1	1	0	0	0.15325	0.22325	0.16241	0.064992	0.23003	0.094898	0.34227	0.10772	0.10956	0.14609	0.02737	0.18035	0.050644	0.11785	0.24861	0.1394	-2.5208	-3.0271	-2.9062	-3.0625	-3.2646	-2.8708	-3.1979	-3.4521	-3.0646	-3.2604	-3.1063	-3.1229	-3.275	-3.0292	-2.9104	-3.2208	286.871	267.976	183.682	337.911	159.686	162.792	299.167	228.034	101.092	217.334	116.581	333.475	230.436	293.866	228.440	207.731	0.00042622	0.00047442	9.6229e-05	1150.1	2.8892e-06	1.7958e-06	1230	247.1	4.2252e-06	4.7766e-06	303.39	87.197	70.786	20.066	1.8035e-06	27.485	0.00024211	0.00025458	6.4586e-05	1122.8	2.6631e-06	2.8716e-06	1214.9	244.33	2.7763e-06	2.8467e-06	299.88	87.347	70.547	20.35	2.599e-06	27.799	70.788	116.934	136.029	7.196	139.501	28.849	7.710	15.091	244.632	237.127	14.856	21.228	21.960	29.169	234.027	28.818	-8191	255	
1250.841	1	1	0	0	0.21272	0.19319	0.22817	0.15785	0.079618	0.090058	0.27851	0.10255	0.095242	0.048153	0.21098	0.078797	0.16706	0.1731	0.41706	0.11687	-2.4896	-3.2687	-3.2625	-2.8354	-3.2938	-3.1312	-3.2125	-3.2042	-2.9854	-3.0292	-3.075	-3.1604	-3.2667	-2.9917	-2.9854	-3.1417	13.685	233.156	23.398	78.286	290.036	321.261	326.400	156.339	70.042	258.735	225.029	85.012	334.945	343.359	161.990	297.372	0.00035106	6.8639e-05	5.7688e-05	1149.3	6.799e-06	1.4874e-06	1236.4	246.36	5.3679e-06	4.4379e-06	304.24	87.057	70.131	20.126	5.2625e-06	27.404	0.0002716	0.00026017	6.5696e-05	1121.8	2.9038e-06	2.8187e-06	1215.9	244.69	3.0019e-06	2.8266e-06	299.81	87.291	70.408	20.271	2.6374e-06	27.799	64.510	213.072	25.900	7.260	159.055	64.865	7.555	15.171	147.706	138.593	14.640	21.534	22.074	29.393	149.707	28.680	-8191	255	
1250.937	1	1	0	0	0.24096	0.24297	0.12638	0.23355	0.065752	0.050173	0.21735	0.21681	0.061497	0.21425	0.060371	0.16047	0.16019	0.15192	0.13123	0.39226	-2.5125	-3.1562	-3.2354	-2.9896	-3.2313	-3.1521	-3.2708	-3.3104	-2.9292	-3.3042	-3.1896	-3.1125	-3.2958	-3.0583	-2.8708	-3.2562	353.812	240.102	157.105	40.219	271.789	111.427	219.105	23.144	308.337	85.226	123.025	10.416	295.673	126.611	291.143	302.607	0.00033151	0.00061292	0.00011632	1152.3	2.0625e-06	5.2333e-06	1237.1	246.51	3.1857e-06	3.4805e-06	308.15	86.722	70.241	19.873	2.7664e-06	27.412	0.00027805	0.00025315	6.4715e-05	1122.3	2.949e-06	2.7636e-06	1216.6	243.9	3.0097e-06	2.7332e-06	300.19	87.098	70.298	20.23	2.5643e-06	27.82	74.159	30.950	156.487	7.567	227.750	177.908	7.483	15.310	246.347	222.619	15.092	21.304	21.914	29.475	133.789	27.941	-8191	255	
1251.009	1	1	0	0	0.19925	0.34391	0.042246	0.018582	0.28924	0.13831	0.18561	0.16299	0.036069	0.10837	0.21109	0.16752	0.13668	0.15964	0.18383	0.22514	-2.4167	-3.0229	-3.3396	-2.9896	-3.2729	-3.1063	-3.1208	-3.3187	-3.0771	-2.9896	-3.2313	-2.7313	-3.2958	-3.2042	-2.9146	-3.3	112.391	239.051	63.890	147.314	18.868	284.197	333.134	157.590	6.757	356.324	48.117	15.798	318.464	298.205	-0.386	275.458	0.0003052	0.0001762	0.00010711	1146.2	2.6365e-06	2.5388e-06	1233.8	246.67	8.7245e-07	5.1608e-06	305.95	86.587	70.328	20.146	5.6576e-06	27.252	0.00028133	0.0002493	6.3915e-05	1121	3.0115e-06	2.6635e-06	1216	244.11	2.9521e-06	2.6551e-06	300.05	87.295	70.142	20.309	2.6234e-06	27.712	86.144	122.518	43.786	7.467	148.701	244.783	7.376	15.295	113.202	99.377	14.527	21.415	21.329	28.948	133.743	28.362	-8191	255	
1251.130	1	1	0	0	0.052513	0.15414	0.21318	0.050438	0.093985	0.2109	0.18542	0.31892	0.071128	0.063244	0.19842	0.22212	0.30721	0.38804	0.10426	0.11874	-2.6354	-2.9979	-3.3542	-3.1437	-3.2292	-3.2146	-3.0917	-3.2104	-3.0625	-3.0812	-3.3021	-3.0375	-3.3646	-3.0938	-2.8438	-3.1854	3.338	138.542	125.653	111.833	230.955	288.767	317.581	330.846	31.548	66.194	62.330	325.143	26.053	57.659	353.104	8.688	0.00030028	0.00037102	0.0001057	1156.1	1.8592e-06	5.528e-06	1232.6	246.22	4.3321e-06	1.9087e-06	303.01	86.158	70.066	20.007	3.9648e-06	27.238	0.0002689	0.0002484	6.4713e-05	1127.2	2.9767e-06	2.6554e-06	1215.7	244.36	2.9366e-06	2.7126e-06	299.23	86.759	70.022	20.183	2.8059e-06	27.568	43.764	44.019	71.300	7.417	158.800	173.736	7.447	15.010	67.277	218.344	14.681	21.368	21.783	29.324	145.387	28.536	-8191	255	
1251.224	1	1	0	0	0.1897	0.30057	0.25794	0.039124	0.21618	0.27836	0.35323	0.06675	0.052841	0.25289	0.23687	0.15269	0.089091	0.10531	0.28509	0.11958	-2.7438	-2.9125	-3.2521	-3.1125	-3.0667	-3.1937	-3.0833	-3.1312	-3.2562	-3.1375	-3.2625	-3.0771	-3.1458	-3.3271	-2.8792	-3.1813	130.686	196.630	46.655	70.917	55.926	63.270	294.418	295.388	105.262	317.124	93.078	296.182	333.814	222.526	228.175	25.901	0.00020801	0.00045145	0.00015117	1149.5	3.6221e-06	4.5039e-06	1238.1	245.08	2.6665e-06	1.9951e-06	302.19	86.227	69.906	19.895	3.866e-06	27.199	0.00026147	0.00024078	6.9798e-05	1126.6	2.8279e-06	2.6473e-06	1217.3	243.7	2.7507e-06	2.6903e-06	299.31	86.581	70.051	20.119	2.8443e-06	27.609	80.910	74.489	62.427	7.595	138.432	118.790	7.379	14.973	200.721	39.220	14.185	21.547	21.509	29.233	87.912	28.491	-8191	255	
1251.320	1	1	0	0	0.11396	0.12201	0.1986	0.077804	0.25745	0.21445	0.33244	0.23256	0.20744	0.16702	0.25766	0.097671	0.15536	0.12001	0.13647	0.20705	-2.8604	-2.8979	-3.2458	-2.9917	-2.9583	-3.2042	-2.9688	-3.2271	-3.125	-2.8146	-3.2479	-2.9125	-2.9896	-3.0896	-2.9688	-3.3604	180.695	329.720	42.346	265.850	348.491	131.680	325.106	189.398	266.235	310.872	332.079	39.882	191.277	21.088	154.411	0.758	0.00033518	0.00054176	5.5036e-05	1144.6	2.3396e-06	4.9454e-06	1232	245.63	7.8611e-06	1.7229e-06	299.75	85.527	69.648	19.847	4.2182e-06	26.977	0.00025443	0.0002359	7.4243e-05	1119.9	2.7533e-06	2.622e-06	1214.3	243.36	2.6833e-06	2.5963e-06	299	86.153	69.492	20.115	3.034e-06	27.463	75.009	48.102	103.500	7.739	99.071	142.847	7.733	15.222	151.084	199.256	14.764	21.723	21.592	28.739	86.139	28.021	-8191	255	
1251.416	1	1	0	0	0.14523	0.13093	0.17333	0.1069	0.1409	0.14202	0.043236	0.23172	0.15603	0.10444	0.057539	0.12041	0.18357	0.16287	0.27014	0.066309	-2.95	-2.8646	-2.9854	-3.0146	-2.85	-3.2854	-3.3417	-3.1833	-3.1208	-3.0167	-3.2438	-3.1021	-3.0375	-3.2458	-2.9042	-3.1375	168.057	3.565	350.747	119.289	199.758	84.435	35.757	216.358	190.070	184.910	267.801	348.094	8.898	206.206	118.023	60.869	0.00036382	0.00018875	7.5809e-05	1146.7	5.5592e-06	1.7115e-06	1235.6	243.74	4.7527e-06	2.4967e-06	303.04	86.118	69.309	19.769	2.5228e-06	27.187	0.00024564	0.00024515	7.6784e-05	1119.8	2.6794e-06	2.682e-06	1215.3	242.13	2.6303e-06	2.7071e-06	298.01	85.953	69.392	20.083	3.0282e-06	27.5	73.180	103.180	342.556	7.902	108.050	213.729	7.842	15.035	141.066	203.623	14.379	21.638	21.548	29.161	106.143	28.580	-8191	255	
1251.512	1	1	0	0	0.16177	0.2398	0.2369	0.30928	0.049266	0.099375	0.20808	0.12383	0.19577	0.072845	0.091109	0.19247	0.094744	0.25027	0.15926	0.054188	-2.6813	-2.8604	-3.3063	-3.1854	-2.8937	-3.3229	-3.0771	-3	-3.3312	-3.0458	-3.1312	-3.275	-3.0146	-3.4313	-2.9521	-3.2062	100.978	171.882	306.318	305.275	253.217	341.691	224.674	113.388	217.565	148.199	311.298	328.222	313.962	7.312	3.890	311.196	0.00039263	0.00058268	0.00014948	1147.7	1.6974e-06	2.118e-06	1228.9	243.23	3.4385e-06	5.0041e-06	298.2	85.502	68.994	19.736	2.4387e-06	26.892	0.00024607	0.0002577	7.9613e-05	1118.7	2.5689e-06	2.8477e-06	1211.1	241.54	2.5897e-06	2.9081e-06	296.94	85.918	69.209	20.058	2.982e-06	27.292	82.452	144.826	81.855	7.488	120.418	204.357	7.401	14.897	142.135	179.900	14.935	21.475	21.776	28.987	82.595	28.343	-8191	255	
1251.633	1	1	0	0	0.070136	0.14815	0.18772	0.19107	0.12283	0.016956	0.34676	0.24933	0.014969	0.21772	0.105	0.1154	0.19939	0.17586	0.15932	0.15716	-2.9333	-2.8417	-3.0083	-3.075	-2.975	-3.1521	-3.2979	-3.0146	-3.3292	-2.8812	-3.1917	-3.1458	-2.9313	-3.3063	-3.0312	-3.0125	85.584	219.527	68.865	133.804	192.218	13.982	9.750	321.493	270.520	230.392	163.330	113.517	9.778	8.929	33.860	269.958	0.00031081	0.00080525	9.2272e-05	1146.3	4.3242e-06	3.1857e-06	1226.6	243.3	5.3144e-06	1.1602e-05	302.29	85.569	69.627	19.939	3.8125e-06	27.124	0.00024107	0.00027086	7.352e-05	1115.7	2.6067e-06	2.9859e-06	1209.2	241.48	2.6336e-06	3.0348e-06	296.74	85.76	69.193	20.126	2.824e-06	27.397	71.693	72.874	96.087	7.446	171.386	227.446	7.288	14.738	135.409	178.513	14.522	21.536	22.002	29.200	163.996	28.565	-8191	255	
1251.705	1	1	0	0	0.10993	0.17624	0.11079	0.29093	0.17193	0.13908	0.055826	0.15359	0.14619	0.36053	0.23452	0.071003	0.10582	0.39918	0.1672	0.091694	-2.7979	-3.0292	-3.0396	-3.3104	-3.075	-3.1792	-3.1292	-3.1396	-3.275	-2.9083	-3.0792	-3.2896	-3.0167	-3.3125	-3.1479	-2.9313	218.289	166.923	353.220	293.245	244.660	335.904	158.664	269.191	195.261	149.013	340.453	279.772	8.587	35.189	89.002	344.681	0.00030869	0.00058895	0.00016617	1143.7	2.8779e-07	2.8904e-06	1223.6	243.02	4.4991e-06	1.4429e-06	301.74	85.296	68.933	19.865	1.6421e-06	26.925	0.00024844	0.00028008	6.899e-05	1113.4	2.7061e-06	3.034e-06	1207.6	240.89	2.7341e-06	2.9511e-06	296.47	85.58	69.035	20.08	2.6774e-06	27.34	66.616	92.923	44.952	7.632	60.072	154.547	7.509	15.263	136.289	273.913	14.919	21.539	21.302	29.114	260.299	28.211	-8191	255	
1251.801	1	1	0	0	0.24471	0.12077	0.15279	0.1202	0.068114	0.1193	0.22445	0.24492	0.2824	0.10437	0.11439	0.16451	0.26604	0.026757	0.096722	0.24172	-2.8146	-2.9729	-3.0667	-3.2375	-2.7896	-3.2583	-3.3479	-3.1354	-3.2438	-3.0917	-3.2062	-3.2521	-2.9188	-3.0729	-3.0625	-2.9938	103.892	266.944	281.584	47.938	329.905	353.182	248.941	264.935	115.148	159.141	332.906	49.853	303.267	75.052	12.611	3.726	0.00039815	0.00025973	3.6033e-05	1143.8	5.2765e-06	2.6421e-06	1225.3	242.9	4.1757e-06	3.6451e-06	302.49	85.248	69.028	19.75	3.5263e-06	26.976	0.00025701	0.0002823	6.8545e-05	1114.2	2.9719e-06	2.9635e-06	1206.6	240.87	2.8996e-06	2.8333e-06	296.76	85.76	69.32	19.991	2.5965e-06	27.347	89.443	117.191	102.488	7.504	190.661	77.733	7.449	15.109	223.904	163.062	14.560	21.147	22.020	29.368	103.584	28.467	-8191	255	
1251.922	1	1	0	0	0.1242	0.10656	0.11318	0.37259	0.23682	0.21543	0.17174	0.091655	0.11116	0.055166	0.31746	0.019491	0.39412	0.1698	0.2328	0.18811	-2.8771	-3.0604	-2.8333	-3.3583	-2.9437	-3.2583	-3.4729	-3.0604	-3.2646	-3.1292	-3.125	-3.2	-3.2208	-3.1375	-3.1917	-2.9625	313.736	289.300	268.233	19.109	90.826	301.545	283.050	32.440	175.620	3.288	284.990	312.737	45.367	142.541	317.546	333.188	0.00032607	0.00022282	0.00011505	1142.4	1.6414e-06	2.377e-06	1224.6	242.26	4.027e-06	3.2028e-06	302.52	85.993	69.274	19.691	4.5784e-06	26.937	0.0002647	0.00026279	6.7596e-05	1114.6	3.0687e-06	2.8196e-06	1206.8	240.66	3.0108e-06	2.8069e-06	296.02	85.835	69.238	19.963	2.5662e-06	27.325	81.473	141.421	106.621	7.453	54.076	118.124	7.482	14.990	190.933	200.502	14.504	21.275	21.895	29.002	217.702	28.469	-8191	255	
1252.018	1	1	0	0	0.15835	0.20456	0.081321	0.13034	0.095172	0.037936	0.13446	0.036546	0.19444	0.16776	0.043134	0.22423	0.13395	0.21068	0.008177	0.11444	-2.7917	-2.9562	-2.975	-3.1562	-3.0167	-3.0708	-3.5438	-2.8271	-3.1229	-3.0604	-3.0146	-3.3333	-3.125	-3.1667	-3.1854	-3.0875	217.696	68.926	19.792	341.132	332.906	182.014	294.839	269.703	195.639	103.331	65.415	293.664	83.912	255.294	298.242	236.872	0.00034606	0.00052346	0.00013385	1139.1	2.6524e-06	4.1764e-06	1224.8	242.89	1.9611e-06	4.663e-06	303.6	85.539	68.669	19.73	7.05e-06	26.819	0.0002784	0.00024594	6.5013e-05	1115	3.0429e-06	2.7669e-06	1205.5	240.49	2.9951e-06	2.6436e-06	296.31	85.767	69.109	19.943	2.5561e-06	27.372	76.911	20.109	76.220	7.616	105.648	138.324	7.437	15.097	115.441	120.825	14.718	21.358	22.108	29.627	134.693	29.003	-8191	255	
1252.114	1	1	0	0	0.28671	0.22311	0.20223	0.088637	0.24186	0.01323	0.21286	0.27891	0.10351	0.034196	0.16129	0.064041	0.11086	0.11002	0.037626	0.15359	-2.6646	-3.3021	-2.7667	-3.3604	-3.1104	-2.9625	-3.2417	-3.0792	-3.3979	-3.1479	-3.0375	-3.3688	-2.8333	-3.1146	-3.3917	-3.1292	297.329	42.299	128.431	298.866	294.074	19.145	313.761	68.938	322.595	265.891	113.691	146.743	196.292	104.416	140.822	206.625	0.00035421	0.00022031	0.00011368	1138.9	4.0612e-06	2.2601e-06	1219.1	241.71	4.0727e-06	1.407e-06	301.23	85.911	69.165	19.699	5.0422e-06	27.034	0.00026905	0.00023231	6.4278e-05	1113.2	2.8115e-06	2.588e-06	1205.9	240.8	2.8586e-06	2.5352e-06	295.05	85.866	69.084	19.954	2.4594e-06	27.357	64.475	316.786	13.954	7.628	74.129	120.040	7.675	15.300	197.615	165.692	14.245	21.286	21.895	29.558	163.018	28.315	-8191	255	
1252.210	1	1	0	0	0.12365	0.083133	0.1031	0.26858	0.2147	0.20282	0.10418	0.22561	0.23777	0.13013	0.23133	0.26188	0.13748	0.050054	0.14711	0.35719	-2.7479	-3.1125	-3.0646	-3.4271	-3.0917	-2.7896	-3.4396	-2.9271	-3.2875	-3.0792	-2.9313	-3.3833	-3.1521	-3.0021	-3.3229	-2.9938	148.832	276.918	280.239	341.171	109.276	352.671	259.297	353.629	113.574	93.777	5.585	14.844	318.904	208.328	84.197	117.752	0.00033177	0.00018994	0.00016662	1145.1	3.4599e-06	4.1202e-06	1227	241.34	2.0286e-06	5.2534e-06	301.17	85.383	68.947	19.607	4.3675e-06	26.643	0.00025401	0.00023235	6.4479e-05	1115	2.7517e-06	2.5419e-06	1205.7	240.14	2.5846e-06	2.4136e-06	295.95	85.715	68.928	19.867	2.5548e-06	27.247	60.841	55.443	93.995	7.378	189.120	191.060	7.528	15.074	118.138	135.577	14.848	21.506	21.577	29.247	162.875	28.143	-8191	255	
1252.304	1	1	0	0	0.236	0.19424	0.34729	0.075188	0.15651	0.13568	0.077557	0.38809	0.24133	0.15481	0.23051	0.22117	0.19064	0.19013	0.038879	0.26013	-2.6167	-3.1729	-2.7583	-3.3208	-3.1521	-3.0396	-3.3396	-3.1417	-2.9229	-3.2292	-3.1104	-3.1417	-3.3146	-3.0083	-3.3479	-3.1125	327.770	117.029	184.824	131.840	105.659	33.008	319.947	349.289	176.462	6.908	40.756	46.183	163.181	20.766	146.721	29.061	0.00034216	0.00016069	6.3555e-05	1134.5	4.6886e-06	3.5573e-06	1223.4	241.32	5.4358e-06	4.2854e-06	298.32	84.825	68.933	19.672	4.2593e-06	26.616	0.00024317	0.00022269	6.9083e-05	1112	2.594e-06	2.4707e-06	1205.2	239.91	2.6414e-06	2.4028e-06	295.21	85.206	68.819	19.901	2.8388e-06	27.222	65.329	2.688	54.420	7.709	119.024	183.576	7.430	14.805	200.784	129.765	14.653	21.774	21.735	29.416	193.054	28.594	-8191	255	
1252.401	1	1	0	0	0.097378	0.16874	0.083237	0.20451	0.10691	0.20146	0.14046	0.064114	0.096383	0.19612	0.11524	0.08907	0.083939	0.046064	0.15674	0.21644	-2.6146	-3.2896	-2.8979	-3.0979	-3.0604	-2.85	-3.4021	-3.2062	-2.9437	-3.2583	-2.9188	-3.3042	-3.1958	-2.825	-3.2792	-3.1688	80.835	294.580	318.314	17.812	55.088	262.445	225.049	23.990	219.279	74.574	224.727	75.915	55.304	228.917	75.459	325.881	0.00041738	0.00050675	0.00012818	1140.5	5.2369e-06	3.3133e-06	1217.5	244.07	4.7066e-07	2.5626e-06	299.74	85.042	68.4	19.504	1.8024e-06	26.832	0.00023492	0.00022514	7.2563e-05	1111.4	2.5131e-06	2.4847e-06	1204.3	240.63	2.5765e-06	2.5311e-06	295.19	85.453	68.572	19.871	3.0094e-06	27.28	65.707	162.910	128.941	7.696	110.100	157.160	7.462	15.226	94.994	341.514	14.534	21.418	21.769	29.176	99.625	28.472	-8191	255	
1252.521	1	1	0	0	0.14071	0.17629	0.27162	0.26526	0.05546	0.04498	0.039948	0.17178	0.19955	0.1244	0.22009	0.13958	0.085958	0.21815	0.065105	0.11617	-2.3958	-3.1875	-2.9313	-3.2042	-3.1	-2.9521	-3.3854	-3.1396	-2.925	-3.2438	-2.8646	-3.0792	-3.2917	-2.9146	-3.1813	-3.1813	5.872	188.709	315.585	310.915	44.506	188.972	41.118	56.324	21.653	308.554	83.904	240.104	108.317	43.335	339.215	169.602	0.00030585	0.00077109	2.7021e-05	1141.3	4.7242e-06	4.5497e-06	1224.1	242.49	3.923e-06	1.646e-06	300.51	85.095	68.59	19.607	1.308e-06	26.832	0.0002403	0.00023836	7.5371e-05	1109.6	2.4837e-06	2.63e-06	1203.7	239.91	2.5156e-06	2.5979e-06	294.32	85.215	68.6	19.869	2.8266e-06	27.175	65.402	164.733	66.101	7.478	170.643	171.807	7.380	14.963	118.429	188.783	14.447	21.584	21.734	29.080	-1.629	28.266	-8191	255	
1252.617	1	1	0	0	0.159	0.25207	0.073733	0.45227	0.17236	0.085158	0.1251	0.050614	0.097667	0.24277	0.034727	0.17608	0.10303	0.079702	0.16611	0.16653	-2.5146	-3.2896	-2.6917	-3.1208	-3.3312	-2.8417	-3.5854	-3.2417	-3.0646	-3.3312	-2.9813	-3.0812	-3.2542	-2.9042	-3.2333	-3.1813	55.042	262.898	299.096	332.958	282.527	148.184	329.349	23.905	315.422	260.041	199.683	56.681	54.207	333.572	289.888	118.738	0.00033967	0.00049767	7.0431e-05	1140.8	4.3371e-06	5.1892e-06	1218.7	241.04	8.3626e-07	4.8586e-06	302.44	84.634	68.575	19.479	1.0027e-06	26.691	0.00022568	0.00024755	7.193e-05	1107.6	2.3575e-06	2.7629e-06	1202.8	239.31	2.4139e-06	2.7226e-06	294.65	85.145	68.606	19.874	2.6991e-06	27.048	83.530	94.152	101.546	7.423	150.356	203.201	7.568	15.269	165.410	245.839	14.347	21.209	21.665	29.188	229.642	28.133	-8191	255	
1252.713	1	1	0	0	0.073274	0.15008	0.19049	0.046171	0.28565	0.24498	0.25741	0.27455	0.0961	0.17549	0.16839	0.082393	0.20574	0.080365	0.28792	0.49236	-2.4813	-3.2	-3.0479	-3.0917	-3.3521	-3.0479	-3.2687	-3.3438	-2.9521	-3.2667	-3.1292	-2.9062	-3.1521	-3.0687	-3.0146	-3.4104	148.450	147.183	177.873	276.460	12.855	249.724	330.462	279.853	243.815	37.669	67.601	272.977	268.240	217.446	27.470	326.872	0.00032016	0.00060362	9.9517e-05	1136	2.0961e-06	2.0201e-06	1223.2	239.3	6.3753e-06	1.2511e-06	300.57	84.721	68.201	19.515	4.7301e-06	26.757	0.00022846	0.00025599	6.8841e-05	1109.4	2.4547e-06	2.8588e-06	1203.2	238.66	2.4787e-06	2.8001e-06	294.34	84.968	68.528	19.896	2.4586e-06	27.109	74.782	176.271	78.331	7.508	211.863	200.941	7.588	14.866	139.273	197.576	14.448	21.628	22.068	29.240	131.197	28.378	-8191	255	
1252.810	1	1	0	0	0.19546	0.29199	0.23094	0.21358	0.085361	0.079468	0.28002	0.13836	0.21252	0.20218	0.12711	0.17297	0.36931	0.36529	0.042522	0.16618	-2.4646	-3.2438	-3.0125	-2.9042	-3.2646	-2.9354	-3.2646	-3.3792	-2.8312	-3.2875	-3.0771	-2.9188	-3.3396	-3.0417	-3.1917	-3.2667	295.530	299.880	234.347	29.684	285.780	3.468	305.810	52.893	234.174	312.234	346.329	224.441	309.764	88.401	110.326	209.484	0.00035287	0.00018988	0.00011541	1138	4.7081e-06	1.0835e-06	1216.2	239.64	4.2715e-06	6.0425e-06	300.61	84.479	68.668	19.54	2.0332e-06	26.882	0.00024305	0.0002537	6.329e-05	1107.3	2.5539e-06	2.8021e-06	1200	238.05	2.7148e-06	2.8223e-06	294.28	84.839	68.482	19.826	2.4424e-06	27.093	66.671	88.670	130.421	7.411	122.755	106.259	7.569	15.394	201.993	138.157	14.878	21.596	21.698	28.881	184.495	28.323	-8191	255	
1252.930	1	1	0	0	0.14783	0.091433	0.096834	0.12043	0.010864	0.076924	0.33306	0.30059	0.24639	0.13249	0.16929	0.17901	0.18715	0.1318	0.0071573	0.1375	-2.5708	-3.225	-3.1417	-3.0042	-3.45	-2.9938	-3.2438	-3.4688	-2.8688	-3.1833	-3.3125	-3.0333	-3.1667	-3.0625	-3.1208	-3.3667	345.822	241.375	352.533	221.878	28.903	294.594	309.403	18.829	294.946	8.150	279.310	277.345	268.868	351.252	183.209	343.245	0.00045333	0.00061573	7.9951e-05	1130.9	2.9903e-06	5.5485e-06	1214.6	240.13	2.218e-06	7.2667e-06	296.03	84.591	69.074	19.435	8.8765e-06	26.738	0.00025744	0.00025199	6.3552e-05	1105.7	2.7213e-06	2.7222e-06	1198.8	238.45	2.7907e-06	2.7132e-06	292.29	84.746	68.799	19.812	2.4812e-06	27.055	61.692	42.537	338.705	7.692	126.670	140.181	7.371	15.036	147.777	135.252	14.784	21.462	21.608	29.047	116.731	28.761	-8191	255	
1253.002	1	1	0	0	0.12756	0.17226	0.108	0.2536	0.13559	0.084574	0.30051	0.24725	0.037738	0.26185	0.19585	0.21015	0.089567	0.17431	0.11535	0.23345	-2.6688	-2.9583	-3.2917	-2.725	-3.2854	-3.2354	-3.0875	-3.3688	-2.9729	-2.9458	-3.2979	-2.9313	-3.3125	-3.0896	-2.9458	-3.4021	126.290	183.612	242.928	11.252	217.346	45.812	282.469	302.426	177.901	159.946	97.414	41.856	350.829	215.739	180.813	311.481	0.00043729	0.00061517	7.0668e-05	1135.9	5.4091e-07	3.3794e-06	1215.8	239.57	6.544e-07	1.1735e-06	300.55	84.538	68.618	19.567	2.5135e-06	26.693	0.00027366	0.00024162	6.0993e-05	1106	2.8717e-06	2.6235e-06	1197	238.13	2.863e-06	2.5756e-06	293.34	84.828	68.757	19.782	2.4242e-06	27.024	72.567	102.252	109.412	7.185	32.186	160.735	7.669	15.043	161.237	107.600	14.419	21.101	22.073	28.859	113.991	28.487	-8191	255	
1253.098	1	1	0	0	0.31361	0.034427	0.15854	0.19012	0.083603	0.13734	0.20757	0.052979	0.21276	0.18507	0.17383	0.21663	0.20962	0.19136	0.20695	0.30116	-2.575	-2.9208	-3.3937	-2.7167	-3.3063	-3.1875	-2.9021	-3.4188	-3.1021	-3.0687	-3.3292	-3.0062	-3.4104	-3.1979	-2.9813	-3.2583	263.386	308.894	118.851	314.170	290.074	121.271	289.400	350.987	99.218	276.327	332.999	44.988	339.494	-2.905	115.310	315.262	0.00037983	0.00027506	0.00017391	1129.5	1.5744e-06	2.3123e-06	1219.4	239.94	1.7933e-06	3.2238e-06	298.37	84.924	68.445	19.637	3.2236e-06	26.919	0.00026385	0.00023225	6.186e-05	1107.3	2.869e-06	2.4922e-06	1197.4	238.62	2.7823e-06	2.5383e-06	292.31	85.118	68.533	19.848	2.4382e-06	27.245	72.683	40.310	58.689	7.833	151.734	166.325	7.683	15.042	60.954	87.632	14.913	21.571	22.114	28.780	116.922	28.504	-8191	255	
1253.194	1	1	0	0	0.0044756	0.21764	0.062554	0.096162	0.20756	0.12115	0.31925	0.10247	0.14846	0.15661	0.03162	0.091536	0.16035	0.36117	0.15458	0.046271	-2.525	-2.9021	-3.1875	-3.0062	-3.0417	-3.2375	-3.1396	-3.2354	-3.0458	-2.9583	-3.4083	-2.9417	-3.2125	-3.4	-2.8646	-3.1833	303.940	79.857	79.850	152.035	147.804	126.812	27.113	185.221	354.965	47.186	55.160	240.633	101.985	33.021	290.622	135.977	0.00037094	0.00044232	8.2639e-05	1134.9	4.0229e-06	1.3796e-06	1214.6	240.28	7.0404e-06	4.1209e-06	295.93	84.901	68.641	19.51	5.1946e-06	26.768	0.0002567	0.00022242	6.1421e-05	1105	2.6784e-06	2.4607e-06	1197.1	238.4	2.639e-06	2.4844e-06	292.35	84.955	68.498	19.787	2.5979e-06	27.171	78.037	24.445	112.247	7.426	277.016	110.635	7.686	15.079	144.708	178.478	14.513	20.897	22.031	28.973	159.126	28.147	-8191	255	
1253.313	1	1	0	0	0.25322	0.21593	0.076425	0.24177	0.21155	0.14532	0.30637	0.212	0.055493	0.26273	0.13139	0.35265	0.22691	0.23334	0.2699	0.10591	-2.6729	-2.9583	-3.2	-3.1042	-3.0375	-3.2667	-3.0062	-3.4708	-3.1208	-2.9792	-3.1729	-2.9417	-2.9917	-3.1167	-2.9	-3.1583	344.403	127.442	345.525	319.990	83.993	194.064	289.741	141.134	176.679	92.294	288.742	323.068	19.557	3.453	81.470	179.339	0.00034296	4.2824e-05	0.00011207	1134	1.5417e-06	5.5835e-06	1214.1	240.33	3.0488e-06	2.4266e-06	295.83	85.01	68.411	19.546	3.2817e-06	27.03	0.00024061	0.00022381	6.4967e-05	1107.7	2.6131e-06	2.4264e-06	1197.4	238.39	2.5573e-06	2.4288e-06	291.51	84.824	68.211	19.794	2.686e-06	27.256	86.033	56.183	115.262	7.430	99.406	172.256	7.469	14.988	90.187	249.197	14.846	21.187	21.623	29.420	148.187	28.389	-8191	255	
1253.409	1	1	0	0	0.25977	0.056453	0.091628	0.078711	0.3473	0.26981	0.34365	0.28437	0.21744	0.21588	0.15014	0.21681	0.074495	0.069076	0.25584	0.051011	-2.6708	-2.8583	-3.2	-3.0104	-2.8146	-3.2313	-2.9896	-3.2542	-3.125	-2.95	-3.3417	-3.0167	-2.9688	-3.3208	-2.725	-3.2208	315.439	128.276	244.382	311.663	273.358	121.567	298.899	291.132	354.226	16.548	295.980	312.188	123.899	178.722	224.212	276.131	0.00035092	0.00011244	0.00013817	1137.2	1.9556e-06	1.73e-06	1212.4	239.51	2.9481e-06	4.2152e-06	298.86	84.855	68.291	19.464	3.9612e-06	26.587	0.00024229	0.00021713	6.9667e-05	1108.6	2.5389e-06	2.3135e-06	1196.6	238.61	2.4951e-06	2.4106e-06	292.85	85.025	68.219	19.766	2.8675e-06	26.995	64.005	132.162	138.636	7.506	113.797	167.523	7.455	15.382	185.490	131.967	14.745	21.731	21.808	29.122	167.437	28.679	-8191	255	
1253.505	1	1	0	0	0.28764	0.29762	0.075514	0.24094	0.15781	0.12275	0.15809	0.18017	0.1098	0.051442	0.070194	0.056748	0.19036	0.16281	0.084776	0.12926	-2.7896	-2.7687	-3.2771	-3.0479	-2.9188	-3.2292	-3.15	-3.1854	-3.3208	-2.9042	-3.1437	-3.0875	-2.8771	-3.1917	-3.0292	-3.1854	126.649	43.630	132.924	34.732	174.877	275.866	314.307	274.238	270.038	159.035	95.803	100.500	345.367	38.872	268.706	15.557	0.00032389	0.00050609	0.00013197	1126.3	1.6169e-06	2.2048e-06	1213.4	239.75	6.2518e-06	3.2068e-06	298.21	84.339	68.62	19.583	9.8049e-07	26.662	0.00024109	0.00022501	7.3459e-05	1105.4	2.5047e-06	2.5341e-06	1196.3	238.16	2.4322e-06	2.5286e-06	292.73	84.651	68.152	19.807	2.8498e-06	27.122	62.292	131.437	72.964	7.636	138.941	176.960	7.620	15.123	150.395	164.334	14.336	21.396	21.885	29.423	215.950	28.241	-8191	255	
1253.602	1	1	0	0	0.088294	0.1049	0.15126	0.061956	0.079006	0.16656	0.24172	0.14935	0.21638	0.11322	0.11434	0.24243	0.20696	0.36802	0.24276	0.15862	-2.7687	-2.7833	-2.95	-3.1083	-2.9708	-3.3104	-3.1646	-3.1333	-3.3812	-2.8396	-3.3479	-3.1333	-2.9146	-3.1146	-2.9167	-2.9042	96.833	4.722	294.028	313.064	246.117	21.485	294.056	225.953	166.630	213.563	288.658	253.616	304.836	262.552	130.166	101.217	0.00029016	0.00015579	0.00012124	1132.7	4.3087e-06	2.7862e-06	1209.7	239.89	1.6435e-06	2.8742e-06	298.74	83.933	67.742	19.494	3.7827e-06	26.655	0.00022076	0.00024118	7.1138e-05	1103.9	2.4461e-06	2.5453e-06	1194.9	237.99	2.399e-06	2.7618e-06	293.9	84.489	68.188	19.761	2.7586e-06	26.992	82.057	204.436	39.684	7.802	198.720	168.570	7.601	14.939	238.379	203.733	14.254	21.493	21.931	29.281	138.167	28.683	-8191	255	
1253.698	1	1	0	0	0.06416	0.23847	0.30103	0.13324	0.082106	0.17941	0.35022	0.25052	0.14513	0.25687	0.041398	0.12478	0.1518	0.15524	0.32598	0.10721	-2.9354	-2.8104	-3.2104	-3.1521	-2.9	-3.2479	-3.1292	-3.15	-3.3	-3.0229	-3.15	-3.3312	-2.9208	-3.2333	-3.125	-2.8083	346.605	245.028	37.328	175.954	217.511	35.799	288.986	314.221	223.802	69.156	252.963	142.219	261.122	293.875	87.058	302.092	0.00034847	0.00024855	8.4378e-05	1133.9	3.2283e-06	4.4327e-06	1216.2	238.89	3.1516e-06	1.8607e-06	296.97	84.235	68.252	19.542	4.9478e-06	26.696	0.00022806	0.00025886	7.0767e-05	1105.4	2.4915e-06	2.8042e-06	1197.8	237.88	2.442e-06	2.8402e-06	292.6	84.663	68.195	19.843	2.6956e-06	27.037	78.255	64.278	117.792	7.683	122.501	182.254	7.561	15.304	84.561	151.395	14.263	21.486	21.919	28.806	121.305	28.420	-8191	255	
1253.794	1	1	0	0	0.18156	0.12696	0.07853	0.063366	0.18081	0.18135	0.080502	0.20178	0.046334	0.14064	0.14288	0.13929	0.14359	0.069362	0.031022	0.20636	-2.8	-2.9521	-3.0438	-3.0979	-2.85	-3.225	-3.1042	-2.8104	-3.2083	-2.925	-3.1104	-3.2313	-3.0083	-3.1792	-3.0917	-2.8979	56.825	314.606	7.605	64.508	31.858	107.737	278.205	353.111	82.020	205.110	260.775	226.571	318.269	189.669	254.410	44.955	0.00034006	0.00034494	6.8628e-06	1126.9	2.1163e-06	3.4028e-06	1209.7	241.55	6.0412e-06	1.9828e-06	298.09	84.496	68.288	19.413	1.5927e-06	26.66	0.00023386	0.00026302	6.8438e-05	1102.9	2.6141e-06	2.9566e-06	1196.4	238.61	2.6306e-06	2.9127e-06	292.68	84.597	68.376	19.776	2.5905e-06	27.01	78.520	58.619	69.761	7.671	85.838	184.768	7.642	15.064	100.909	210.933	14.413	21.523	21.894	29.191	328.446	28.080	-8191	255	
1253.890	1	1	0	0	0.11789	0.068751	0.23197	0.0090256	0.25545	0.20106	0.13677	0.32292	0.19539	0.10019	0.086901	0.21514	0.164	0.07127	0.18827	0.19604	-2.7479	-3.1063	-3.1042	-3.25	-2.9771	-3.1813	-3.1708	-2.975	-3.2271	-3.1063	-3.0563	-3.1562	-2.9292	-3.1292	-3.1625	-2.9083	338.144	10.054	233.755	248.051	77.751	169.837	4.801	287.482	269.225	322.053	8.648	41.996	83.566	283.859	81.215	352.705	0.00036169	0.0001913	6.9351e-05	1129.2	2.0744e-06	2.2291e-06	1219.1	240.48	4.5063e-06	4.9551e-06	296.83	84.63	68.192	19.421	3.1715e-06	26.819	0.00025331	0.00026219	6.595e-05	1103.7	2.7645e-06	2.8796e-06	1197	237.79	2.7858e-06	2.7631e-06	292.2	84.611	68.241	19.771	2.4545e-06	27.007	73.096	-2.922	171.594	7.614	109.661	56.083	7.342	14.774	183.720	109.085	15.027	21.219	22.212	29.608	102.839	28.195	-8191	255	
1254.011	1	1	0	0	0.061877	0.21836	0.064347	0.058257	0.11707	0.16697	0.11946	0.06176	0.16448	0.10385	0.11576	0.13986	0.17646	0.26801	0.16307	0.069667	-2.8146	-2.9167	-2.8563	-3.4958	-2.95	-3.0958	-3.3042	-2.9062	-3.1396	-3.1292	-2.9625	-3.4521	-3.1688	-3.0583	-3.0396	-3.0479	205.582	219.925	272.029	235.141	263.038	274.916	296.357	169.631	-1.245	351.534	327.986	322.091	173.588	4.366	29.741	282.595	0.00029961	0.00054008	0.0001486	1134.1	2.4695e-06	1.5135e-06	1215.5	239.36	9.8515e-06	1.6008e-06	298.52	84.102	68.412	19.464	1.0561e-05	26.587	0.00026329	0.00024352	6.4683e-05	1101.8	2.8281e-06	2.692e-06	1195.9	237.78	2.847e-06	2.6792e-06	292.77	84.375	68.374	19.758	2.4152e-06	27.04	58.094	62.690	93.545	7.272	121.261	211.281	7.668	15.338	206.615	192.893	14.772	21.553	21.838	29.335	96.690	28.427	-8191	255	
1254.107	1	1	0	0	0.3325	0.17952	0.13347	0.20533	0.21426	0.2236	0.16628	0.044067	0.22439	0.13525	0.20324	0.23218	0.081702	0.10538	0.04487	0.17975	-2.7562	-3.2188	-3.0396	-3.3271	-3.1292	-3.1042	-3.3375	-3.0729	-3.175	-3.0417	-2.9437	-3.2854	-3.0396	-2.9917	-3.2917	-2.8083	86.134	318.454	130.243	304.745	79.184	15.172	240.739	159.207	118.093	163.407	184.846	93.409	346.271	85.948	153.662	113.604	0.00024188	0.00076195	0.0001309	1142.4	1.2599e-06	3.4403e-06	1216.3	238.87	2.7517e-06	2.4928e-06	299.44	84.271	67.85	19.728	1.6317e-06	26.461	0.00026994	0.00024	6.1836e-05	1108	2.8666e-06	2.613e-06	1194.2	237.46	2.8318e-06	2.6129e-06	292.88	84.423	68.209	19.806	2.3795e-06	26.991	70.032	99.863	81.394	7.290	40.197	159.240	7.422	15.388	222.257	135.592	14.162	21.560	21.649	29.220	108.558	28.202	-8191	255	
1254.203	1	1	0	0	0.22067	0.093306	0.094778	0.078018	0.14002	0.14546	0.13534	0.18212	0.30927	0.098004	0.15703	0.20867	0.36838	0.17359	0.26087	0.14692	-2.7583	-3.0833	-2.9583	-3.2229	-2.9875	-3.1042	-3.2708	-2.9313	-3.2146	-3.1708	-2.9479	-3.3125	-3.1458	-3.1125	-3.4375	-2.9625	248.986	238.461	65.216	235.304	283.515	73.891	120.316	348.153	120.148	27.925	79.264	29.016	313.104	2.927	66.839	319.539	0.00034303	0.00050039	0.0001075	1119.7	6.5147e-07	6.6542e-06	1210.1	239.02	2.1333e-06	4.7217e-06	294.88	84.155	68.187	19.393	3.7949e-06	26.602	0.00025416	0.00022115	6.1374e-05	1099.5	2.6665e-06	2.3913e-06	1193.1	237.74	2.707e-06	2.4107e-06	289.95	84.502	68.122	19.646	2.404e-06	26.994	68.178	111.150	84.539	7.444	263.302	190.271	7.451	15.380	163.395	109.033	14.869	21.402	21.991	29.322	47.701	28.981	-8191	255	
1254.297	1	1	0	0	0.16018	0.095917	0.070495	0.26226	0.16453	0.11176	0.10157	0.14503	0.13794	0.11931	0.19005	0.12819	0.26698	0.19667	0.27332	0.40879	-2.5833	-3.1063	-3.0229	-3.2313	-3.0083	-3.0625	-3.375	-3.2229	-3.0312	-3.1292	-2.6958	-3.3063	-3.1688	-2.7667	-3.2354	-3.0021	28.323	52.434	98.174	270.617	289.669	300.263	-1.209	107.261	89.038	20.174	260.798	128.700	29.245	316.749	129.651	175.452	0.00031125	0.00030315	7.9904e-05	1135.3	2.7274e-06	4.2008e-06	1210.5	240.24	5.1922e-06	1.8037e-06	295.02	84.649	67.902	19.589	5.982e-06	26.646	0.00024103	0.00021628	6.3556e-05	1102.2	2.5379e-06	2.3558e-06	1193.9	238	2.543e-06	2.3788e-06	291.09	84.48	68.028	19.703	2.5383e-06	27.094	54.832	39.556	135.370	7.581	102.188	116.344	7.508	15.034	165.047	132.899	14.506	21.490	22.158	29.404	138.360	28.959	-8191	255	
1254.393	1	1	0	0	0.097751	0.2614	0.09429	0.032928	0.042348	0.21204	0.36957	0.19011	0.066843	0.13313	0.10336	0.45697	0.21639	0.21745	0.13697	0.27471	-2.6562	-3.1312	-2.9083	-3.1208	-3.0396	-3.0042	-3.5729	-3.1729	-2.8854	-3.3708	-2.9125	-3.3688	-3.1542	-2.8187	-3.2333	-2.8229	100.492	70.959	249.457	33.320	131.966	47.526	269.833	324.260	61.541	263.396	52.857	356.751	333.368	354.139	356.769	52.883	0.00034262	0.00018147	0.00016845	1123.2	3.0443e-06	2.6099e-06	1207.3	238.22	3.8453e-06	2.3815e-06	298.35	83.927	67.777	19.552	1.4234e-06	26.564	0.00023466	0.00020837	6.6619e-05	1104	2.4497e-06	2.3362e-06	1194.3	237.19	2.4745e-06	2.2897e-06	292.4	84.433	68.046	19.699	2.6675e-06	26.95	67.644	89.028	127.166	7.621	145.929	137.407	7.490	15.174	169.887	128.521	14.494	21.554	22.180	29.712	328.089	28.311	-8191	255	
1254.490	1	1	0	0	0.18904	0.24654	0.2907	0.27551	0.13972	0.14598	0.095528	0.24713	0.22952	0.30756	0.14601	0.1613	0.25658	0.17566	0.14725	0.11429	-2.5062	-3.2854	-2.9083	-3.0563	-3.2562	-2.9583	-3.3854	-3.1271	-3.1104	-3.5187	-2.8104	-3.2375	-3.175	-3.0417	-3.3146	-3.1542	58.462	301.142	20.835	350.326	334.097	348.933	343.824	132.861	350.582	160.159	160.138	296.960	278.132	328.869	186.429	15.433	0.00039815	0.00067193	7.2542e-05	1129.9	3.9764e-06	2.1627e-06	1213.8	239.35	2.6431e-06	2.6764e-06	297.02	83.891	68.082	19.536	4.7597e-06	26.484	0.00023301	0.00021668	7.0528e-05	1101.9	2.4379e-06	2.4041e-06	1193.6	237.44	2.3831e-06	2.2802e-06	291.54	84.289	68.065	19.708	2.7102e-06	26.874	70.154	108.005	45.597	7.445	132.520	132.998	7.503	15.188	183.242	111.079	14.751	21.466	21.785	29.012	162.312	28.336	-8191	255	
1254.610	1	1	0	0	0.29308	0.19063	0.30864	0.31854	0.17253	0.092602	0.13002	0.27758	0.14701	0.041888	0.02753	0.17459	0.15054	0.19224	0.35981	0.17171	-2.7333	-3.1458	-2.8958	-3.0458	-3.2042	-2.9521	-3.4062	-3.1271	-2.9437	-3.2479	-3.0187	-3.025	-3.2833	-2.9375	-3.2146	-3.1875	138.511	175.635	65.398	298.760	153.852	75.290	197.737	260.007	32.591	159.183	135.955	309.930	72.233	343.872	297.298	345.330	0.00026371	0.00046776	9.063e-05	1136.2	1.8981e-06	1.7552e-06	1212.6	239.27	4.8244e-06	5.4843e-06	295.11	84.472	67.75	19.342	3.5266e-06	26.629	0.00022687	0.00022766	7.0435e-05	1107.2	2.3422e-06	2.6002e-06	1195.3	237	2.494e-06	2.6098e-06	291.54	84.53	67.904	19.69	2.8611e-06	26.974	74.033	73.310	96.211	7.480	96.604	170.270	7.651	14.799	205.794	262.516	15.163	21.744	21.838	28.982	149.786	28.608	-8191	255	
1254.706	1	1	0	0	0.22854	0.13154	0.30423	0.037596	0.10665	0.057611	0.16819	0.25546	0.19343	0.20696	0.054229	0.15052	0.11556	0.13329	0.14815	0.058104	-2.3104	-3.2521	-3.0354	-3.0646	-3.3063	-2.6917	-3.4646	-3.2792	-2.8563	-3.2875	-3.1104	-3.1833	-3.5479	-2.975	-3.1333	-3.2354	176.796	293.174	329.004	336.346	70.987	86.008	266.827	326.441	157.171	27.081	295.514	41.215	175.039	131.994	292.100	354.924	0.0003505	0.00071487	8.808e-05	1130	1.7564e-06	5.0823e-06	1215.3	239.83	2.2087e-06	4.7107e-06	295.67	84.264	67.639	19.485	5.4888e-07	26.66	0.00022951	0.00025002	7.2653e-05	1101.4	2.4653e-06	2.8205e-06	1196.5	238.38	2.5173e-06	2.8693e-06	292.21	84.512	68.096	19.777	2.9228e-06	26.977	84.588	131.496	40.004	7.516	151.007	149.364	7.683	15.144	175.378	151.819	14.845	21.752	22.495	28.962	249.341	28.350	-8191	255	
1254.803	1	1	0	0	0.28474	0.09213	0.14445	0.19533	0.019801	0.18014	0.34956	0.17682	0.18631	0.10649	0.049955	0.14493	0.2614	0.1061	0.089067	0.10831	-2.5792	-3.2083	-2.9917	-3.0604	-3.2708	-2.8312	-3.35	-3.275	-2.8146	-3.0792	-3.2125	-2.8792	-3.1854	-2.9208	-3.1667	-3.3021	270.778	93.301	77.969	326.042	12.466	237.364	303.523	243.696	353.047	283.659	11.809	224.249	302.463	127.700	280.592	301.120	0.00036019	0.00062249	0.00015586	1134.1	2.4645e-06	4.7687e-06	1214.9	239.86	2.3721e-06	1.0436e-06	297.8	83.989	68.101	19.412	3.2605e-06	26.481	0.00024788	0.00028115	7.6399e-05	1107.9	2.7481e-06	3.2157e-06	1198.9	237.6	2.8438e-06	3.1876e-06	293.22	84.487	68.104	19.788	2.8389e-06	26.995	78.380	51.280	34.042	7.611	52.057	192.205	7.566	14.942	179.506	272.809	14.732	21.719	21.864	29.151	116.595	28.427	-8191	255	
1254.874	1	1	0	0	0.16961	0.082364	0.24605	0.32819	0.1374	0.17182	0.16092	0.15464	0.066237	0.16792	0.11746	0.29774	0.12122	0.11663	0.24969	0.16883	-2.5979	-3.1875	-3.0021	-3.0271	-3.3125	-2.7896	-3.0062	-3.4521	-3.0479	-3.225	-3.1042	-2.9375	-3.2812	-2.95	-3.0917	-3.3021	131.210	132.885	107.363	94.135	318.621	291.865	274.795	125.994	31.510	189.642	316.587	2.980	336.183	200.101	3.936	350.795	0.00036455	0.00058351	9.6183e-05	1132.6	3.1115e-06	1.6829e-06	1219.3	240.16	3.1312e-06	2.6773e-06	299.65	84.138	68.458	19.446	5.3397e-06	26.39	0.00026779	0.00027987	7.3147e-05	1104.3	2.9134e-06	3.1427e-06	1199	237.86	2.9277e-06	3.0775e-06	292.41	84.256	68.225	19.775	2.8321e-06	27	75.680	74.273	67.767	7.762	40.886	157.393	7.634	14.892	263.719	142.387	14.649	21.765	21.786	29.295	161.387	28.265	-8191	255	
1254.995	1	1	0	0	0.18378	0.31705	0.092805	0.05917	0.20761	0.28033	0.2028	0.15236	0.10339	0.25272	0.074077	0.31255	0.1868	0.21244	0.1906	0.15999	-2.6417	-3.1771	-3.1479	-2.9292	-3.3458	-2.9542	-3.1771	-3.3167	-2.9625	-3.1646	-3.0875	-2.9542	-3.2188	-3.1583	-3.0312	-3.4167	287.527	72.018	306.543	29.466	40.507	50.273	292.957	260.810	137.406	23.088	159.627	280.525	66.625	247.862	286.128	295.686	0.00034096	0.00094122	0.00010874	1136	1.4563e-06	2.238e-06	1213.6	238.96	2.6603e-06	1.4119e-06	298.04	84.257	67.902	19.419	6.8243e-07	26.528	0.0002858	0.00027814	7.1215e-05	1106.4	3.1539e-06	3.0891e-06	1197.5	237.78	3.2662e-06	3.055e-06	292.95	84.547	68.266	19.713	2.8192e-06	27.012	82.062	57.134	134.728	7.272	262.103	58.774	7.436	15.264	157.004	217.557	14.591	21.850	22.053	28.830	112.356	28.735	-8191	255	
1255.091	1	1	0	0	0.10482	0.19437	0.052095	0.056734	0.11829	0.1336	0.17709	0.16204	0.18737	0.074981	0.26614	0.15492	0.097672	0.081011	0.078924	0.21906	-2.6292	-3.1229	-3.2313	-3.0729	-3.2354	-3.0958	-3.0687	-3.3292	-3.1021	-3.0667	-3.2896	-3.0354	-3.2938	-3.1521	-2.9708	-3.2854	87.066	214.377	153.275	103.031	237.678	220.340	288.434	312.948	13.837	8.882	67.603	225.706	221.134	292.912	222.404	309.502	0.00037014	0.00042649	0.00017733	1133	2.6181e-06	3.3893e-06	1214	238.88	5.2097e-07	1.0668e-06	295.49	84.928	68.142	19.412	6.7319e-06	26.58	0.0002937	0.00027449	7.0689e-05	1105.9	3.1391e-06	2.9053e-06	1196.3	238.1	3.2095e-06	2.908e-06	291.73	84.781	68.231	19.714	2.6856e-06	27.009	85.170	42.732	99.714	7.528	114.358	161.847	7.602	14.994	152.871	179.784	14.485	21.347	21.915	28.959	163.859	28.398	-8191	255	
1255.187	1	1	0	0	0.26782	0.18384	0.0013722	0.062421	0.11707	0.14806	0.28643	0.088635	0.19125	0.21564	0.054172	0.28587	0.27089	0.26091	0.15743	0.059463	-2.4646	-3.0208	-3.2375	-2.8896	-3.1	-3.0729	-2.9188	-3.3125	-3.025	-3.0458	-3.3875	-2.7958	-3.2604	-3.1125	-2.95	-3.2542	121.695	191.723	180.000	-2.222	87.100	101.575	281.463	28.856	0.991	263.919	107.651	59.928	309.462	265.797	140.784	13.246	0.00030962	0.00028828	0.00016506	1132	4.0784e-06	3.5798e-06	1214.4	239.55	4.125e-06	4.8298e-06	298.4	83.631	68.239	19.382	2.9421e-06	26.445	0.00028847	0.00025638	6.6313e-05	1105	3.0802e-06	2.741e-06	1195.3	237.7	3.121e-06	2.7767e-06	292.68	84.395	68.268	19.7	2.6228e-06	26.917	74.958	68.988	100.686	7.568	176.395	200.855	7.499	15.139	186.342	167.093	14.417	21.223	21.801	29.341	198.824	28.141	-8191	255	
1255.283	1	1	0	0	0.26128	0.20121	0.12519	0.034478	0.086412	0.14888	0.39783	0.1071	0.13661	0.10632	0.086855	0.31618	0.098428	0.27246	0.13269	0.1915	-2.7583	-3.1229	-3.2604	-2.9021	-3.2083	-3.1188	-2.9938	-3.3438	-3	-2.9938	-3.2938	-3.0729	-3.3042	-3.25	-2.7375	-3.3063	356.711	166.709	71.968	23.082	158.842	352.156	280.032	315.238	291.774	160.742	328.713	253.984	108.000	28.025	298.710	160.476	0.00035719	0.00076544	0.00010401	1129.3	1.6811e-06	1.0333e-06	1213.2	238.84	4.8136e-06	1.4325e-06	294.26	84.199	67.72	19.307	1.7087e-06	26.505	0.00027452	0.00024152	6.5545e-05	1105.4	2.8988e-06	2.5463e-06	1194.4	236.85	2.807e-06	2.6238e-06	291.51	84.342	68.05	19.713	2.7026e-06	27.03	62.030	98.257	76.672	7.104	159.088	129.644	7.404	15.202	158.912	183.782	14.533	21.604	21.767	29.088	137.450	28.523	-8191	255	
1255.402	1	1	0	0	0.21099	0.13512	0.18827	0.39741	0.11679	0.17456	0.24937	0.12468	0.19379	0.18277	0.10637	0.14277	0.23006	0.213	0.066919	0.14683	-2.7938	-2.9333	-3.2562	-2.8646	-2.9833	-3.4229	-3.0417	-3.2438	-3.0625	-2.7417	-3.3208	-3.0354	-3.1042	-3.1437	-2.6542	-3.3063	8.010	130.410	100.223	2.305	191.465	215.943	351.905	77.696	0.750	161.283	176.102	309.807	14.402	344.553	164.448	132.397	0.00035764	0.00041572	6.2258e-05	1139.6	1.4321e-06	1.7402e-06	1209.1	238.81	4.7944e-06	2.1925e-06	295.49	84.107	67.497	19.267	1.069e-06	26.54	0.00025927	0.00023953	6.9329e-05	1109.4	2.807e-06	2.5927e-06	1192.8	236.96	2.7336e-06	2.5837e-06	291.14	84.374	67.909	19.654	2.7828e-06	27.08	52.448	81.799	122.078	7.052	140.174	187.001	7.491	15.010	129.241	311.396	14.792	21.459	22.178	29.120	267.300	28.919	-8191	255	
1255.474	1	1	0	0	0.24979	0.28384	0.15424	0.050562	0.069178	0.29189	0.11134	0.19854	0.40866	0.10884	0.29304	0.13823	0.21149	0.092608	0.13741	0.33947	-2.6604	-2.7667	-3.2146	-2.9708	-2.9167	-3.3	-3.0042	-3.2667	-3.0396	-2.9958	-3.1354	-3.1708	-2.9396	-3.3	-2.8542	-3.15	252.928	83.535	324.552	303.723	186.686	62.041	7.673	350.825	186.603	154.567	276.323	113.608	37.049	52.408	133.057	8.213	0.00036159	0.00029629	0.00013912	1128	6.2293e-06	2.9532e-06	1210.8	237.8	2.8396e-06	1.5214e-06	293.66	84.343	68.145	19.265	3.1334e-06	26.578	0.00024624	0.00023319	7.2587e-05	1104.4	2.6741e-06	2.5224e-06	1194.7	236.9	2.6802e-06	2.5642e-06	291.65	84.372	67.969	19.622	2.9554e-06	26.976	70.945	53.806	75.568	7.535	76.023	202.835	7.221	15.196	150.683	232.980	14.571	21.486	22.124	29.334	204.951	28.040	-8191	255	
1255.572	1	1	0	0	0.13516	0.23749	0.098245	0.21287	0.32778	0.25141	0.20171	0.34729	0.08786	0.35488	0.2227	0.025297	0.15842	0.22922	0.18046	0.24817	-2.7917	-2.8063	-3.1896	-3.0771	-2.9313	-3.0938	-3.1208	-3.1958	-3.1354	-2.8333	-3.1937	-3.1396	-2.8312	-3.2417	-2.9708	-3.1396	242.256	161.781	213.536	336.337	152.431	48.268	43.117	120.880	90.109	248.221	315.230	86.641	91.323	223.608	34.375	120.197	0.00027329	0.00024641	8.2964e-05	1134.4	3.2815e-06	1.7685e-06	1206.4	238.3	4.2674e-07	4.8194e-06	295.65	84.499	68.33	19.547	1.0272e-06	26.702	0.0002441	0.00023726	7.57e-05	1103.4	2.5525e-06	2.5705e-06	1193.2	237.01	2.4767e-06	2.5899e-06	292.07	84.24	68.033	19.714	2.9306e-06	26.913	58.411	115.986	343.163	7.391	118.243	97.184	7.343	15.460	97.371	207.353	15.178	21.272	21.643	29.244	64.266	28.580	-8191	255	
1255.691	1	1	0	0	0.1783	0.327	0.33153	0.040977	0.17336	0.03439	0.42357	0.19598	0.14722	0.1905	0.14592	0.42448	0.36503	0.21802	0.092931	0.11566	-3.0083	-2.9125	-3.0458	-3.2083	-2.9875	-3.3187	-3.2583	-3.0833	-3.3229	-2.8417	-3.1146	-3.0938	-2.875	-3.3667	-2.9437	-3.0479	277.862	252.402	312.148	61.783	129.463	162.023	292.694	18.717	298.848	223.053	179.216	231.237	283.255	290.578	72.050	262.114	0.00041422	0.00045667	0.00014297	1130.1	4.6487e-06	1.1636e-06	1209.7	238.61	3.9833e-06	1.3365e-06	296	84.131	68.242	19.421	1.6442e-06	26.477	0.00023488	0.0002485	7.4364e-05	1101.6	2.4824e-06	2.7289e-06	1192.2	236.56	2.4726e-06	2.7862e-06	292.27	84.225	68.034	19.748	2.9719e-06	26.877	68.951	81.218	121.444	7.593	180.891	158.020	7.270	15.125	112.636	297.004	15.124	21.123	21.912	29.715	220.458	28.671	-8191	255	
1255.787	1	1	0	0	0.20552	0.13341	0.063108	0.2838	0.25403	0.10611	0.31122	0.031694	0.13355	0.4221	0.21402	0.33166	0.25615	0.1086	0.36331	0.13978	-2.7979	-2.8479	-3.2583	-3.1146	-2.8292	-3.3812	-3.0917	-2.9	-3.1458	-2.9813	-3.1583	-3.2625	-3.0854	-3.2458	-2.9375	-2.9479	13.852	241.824	322.850	7.857	84.809	55.549	6.984	249.402	138.219	281.358	-1.190	69.572	339.484	355.469	23.325	254.037	0.00033376	0.00044703	4.0322e-05	1119.6	6.4097e-06	1.6665e-06	1211.8	236.75	5.5902e-06	3.5452e-06	296.46	83.953	67.625	19.309	5.9691e-06	26.709	0.00023048	0.00026699	7.5258e-05	1100.9	2.5041e-06	2.8844e-06	1193.3	236.27	2.5943e-06	2.9817e-06	291.77	84.155	67.928	19.705	2.8011e-06	26.992	80.615	122.520	6.860	7.432	128.662	237.071	7.541	15.214	151.600	151.733	14.907	21.415	21.852	29.376	157.791	28.287	-8191	255	
1255.883	1	1	0	0	0.14526	0.16047	0.17512	0.09352	0.13544	0.1581	0.16702	0.13971	0.089452	0.33626	0.21765	0.03121	0.13164	0.31489	0.076094	0.16433	-2.9458	-2.8375	-2.9146	-3.4458	-2.8458	-3.2104	-3.1208	-3	-3.3354	-3.0042	-3.1354	-3.4188	-2.9917	-3.3167	-2.9833	-2.9458	294.859	307.329	106.418	77.622	191.039	291.045	298.488	259.685	234.439	317.103	146.334	71.396	198.298	277.641	179.731	281.800	0.00031625	0.0001773	5.0094e-05	1126.8	2.4937e-06	3.8627e-06	1209.1	239.92	6.2446e-06	5.5201e-06	295.32	83.743	67.945	19.343	5.4995e-07	26.565	0.00024514	0.00027412	6.9051e-05	1097.7	2.6971e-06	2.9731e-06	1191.5	236.69	2.7169e-06	2.914e-06	291.08	84.128	67.931	19.656	2.5847e-06	26.843	75.942	204.809	355.092	7.704	123.399	178.223	7.560	14.929	200.535	19.071	14.498	21.800	21.643	29.666	133.744	28.159	-8191	255	
1256.004	1	1	0	0	0.073282	0.11636	0.17497	0.18069	0.16909	0.13042	0.051113	0.17885	0.28178	0.12704	0.11443	0.11151	0.1007	0.23553	0.23196	0.084686	-2.85	-3.0312	-3.0167	-3.2062	-2.9146	-3.1333	-3.3042	-3.0333	-3.2479	-2.8521	-3.075	-3.2083	-3.0312	-3.3187	-3.2208	-2.9854	304.955	325.089	11.370	348.559	42.992	39.800	287.052	293.093	163.930	148.602	158.835	6.675	55.658	308.671	201.713	354.331	0.00034975	0.00031278	7.3938e-05	1126.8	1.8565e-06	2.1108e-06	1207.3	238.15	4.1943e-06	1.8103e-06	296.78	83.723	67.76	19.372	6.641e-06	26.635	0.00025871	0.00026813	6.6433e-05	1098	2.8522e-06	2.8486e-06	1191.9	236.29	2.8127e-06	2.8081e-06	291.43	84	67.987	19.644	2.4714e-06	26.913	66.867	13.161	160.562	7.472	121.178	140.526	7.734	14.973	138.276	235.369	14.481	21.530	22.004	29.605	136.861	28.402	-8191	255	
1256.100	1	1	0	0	0.17158	0.1845	0.20766	0.070219	0.2448	0.13341	0.21835	0.10365	0.088809	0.10094	0.20182	0.19101	0.21369	0.18242	0.16236	0.016583	-2.8542	-2.8854	-2.9062	-3.4083	-3.2396	-3.3729	-3.2875	-3.0417	-3.35	-3.2958	-2.8771	-3.3354	-3.0687	-3.1792	-3.1646	-2.9792	11.915	-1.857	269.250	291.833	189.634	272.525	300.384	7.633	234.192	245.926	356.902	80.502	281.737	196.279	159.465	331.067	0.00035871	0.00034012	6.0764e-05	1132.1	8.0147e-06	2.8774e-06	1211.6	237.57	2.3365e-06	1.3217e-06	296.35	83.453	67.514	19.376	3.6331e-06	26.538	0.0002618	0.0002486	6.3357e-05	1100	2.9329e-06	2.6739e-06	1192	236.13	2.8497e-06	2.6658e-06	291.01	84.115	67.857	19.651	2.3834e-06	26.921	59.539	115.592	282.690	7.540	112.626	128.412	7.503	15.174	266.831	15.972	14.290	21.889	21.796	29.282	121.014	28.091	-8191	255	
1256.171	1	1	0	0	0.20719	0.28463	0.36194	0.1273	0.13914	0.22098	0.13139	0.20865	0.1656	0.37208	0.064575	0.090598	0.12567	0.087419	0.30176	0.23684	-2.7271	-3.0563	-2.8875	-3.2854	-3.15	-2.9833	-3.3417	-2.9792	-3.2062	-3.0792	-2.9625	-3.3292	-3.05	-3.0938	-3.2979	-2.8354	116.923	251.046	73.382	213.532	287.170	19.351	20.185	309.521	256.983	174.296	306.606	88.718	275.324	6.677	215.831	237.748	0.00031299	0.00019445	3.8185e-05	1127.6	1.9708e-06	4.7263e-06	1202.6	238.32	2.7343e-06	2.5122e-06	292.34	83.331	68.224	19.292	2.9926e-06	26.594	0.00026359	0.00023544	6.3145e-05	1098.5	2.974e-06	2.5829e-06	1189	236.44	2.8673e-06	2.5008e-06	289.28	84.012	67.991	19.571	2.3707e-06	26.967	60.406	22.244	46.057	7.619	179.141	161.530	7.552	15.054	197.928	111.692	14.480	21.389	21.870	29.693	176.815	28.420	-8191	255	
1256.292	1	1	0	0	0.098822	0.22353	0.21371	0.1703	0.083098	0.16315	0.18549	0.11538	0.23314	0.19274	0.041842	0.12268	0.14621	0.28862	0.063875	0.13516	-2.7083	-3.0667	-2.7521	-3.3167	-3.0563	-2.9938	-3.4708	-3.1333	-3.0812	-3.3438	-3.0167	-3.3271	-2.9938	-3.0646	-3.2062	-3.025	199.593	220.132	92.009	103.518	137.887	81.050	310.975	271.745	221.489	213.879	125.477	71.094	260.922	274.470	27.588	15.001	0.00036935	0.00054526	7.1016e-05	1131.4	2.4704e-06	3.0689e-06	1210.5	236.85	1.7817e-06	3.3946e-06	294.53	83.538	67.735	19.344	3.3607e-06	26.482	0.00026045	0.00022929	5.9736e-05	1102.6	2.7891e-06	2.4809e-06	1191.8	236.32	2.6424e-06	2.4395e-06	289.58	84.029	67.822	19.577	2.3542e-06	26.976	66.079	72.057	346.168	7.490	113.706	315.663	7.364	15.014	7.343	136.834	14.468	21.230	22.007	29.192	99.184	28.720	-8191	255	
1256.386	1	1	0	0	0.072475	0.16564	0.037564	0.1347	0.14943	0.16783	0.22707	0.29958	0.19461	0.1352	0.21609	0.20704	0.20119	0.10248	0.021104	0.073012	-2.6417	-3.2104	-2.8875	-3.3292	-3.15	-3.0729	-3.3	-3.0771	-3.1562	-3.4229	-2.9104	-3.1063	-3.0604	-2.9771	-3.2687	-3	124.332	289.735	137.841	223.312	108.958	158.547	281.987	351.551	350.609	100.938	182.035	277.367	144.687	336.319	253.643	335.714	0.00037642	0.0003378	0.00010278	1123.3	6.0554e-06	3.6729e-06	1206.9	237.99	1.9816e-06	4.6018e-06	293.6	84.068	67.89	19.459	4.2229e-06	26.722	0.00024883	0.00021563	6.2928e-05	1099.2	2.5973e-06	2.4099e-06	1190.5	236.36	2.5345e-06	2.3427e-06	289.76	84.131	67.763	19.58	2.5237e-06	26.973	74.608	149.471	92.175	7.566	77.373	134.620	7.548	14.964	206.877	205.453	14.775	21.180	22.075	29.571	104.205	28.578	-8191	255	
1256.483	1	1	0	0	0.17627	0.14439	0.26202	0.22615	0.13357	0.092808	0.11697	0.068954	0.074771	0.42083	0.28259	0.041129	0.26594	0.028459	0.039808	0.22592	-2.7833	-3.3604	-2.8354	-3.2062	-3.125	-2.8625	-3.4021	-2.9396	-3.1833	-3.4104	-2.8792	-3.325	-3.1604	-2.9375	-3.2604	-3.2792	89.329	99.549	115.329	336.211	150.517	325.081	166.769	72.231	122.368	55.039	64.188	267.947	334.330	322.664	221.934	344.340	0.00035873	0.00097762	7.4358e-05	1120.4	2.0058e-06	5.2168e-06	1206	236.87	5.5957e-06	3.5216e-06	293.59	83.117	67.726	19.525	3.5684e-06	26.524	0.00023298	0.00020915	6.4975e-05	1098.1	2.3968e-06	2.3655e-06	1189.1	235.76	2.447e-06	2.3167e-06	289.98	83.887	67.638	19.657	2.7412e-06	26.938	89.102	87.202	152.589	7.673	160.491	160.702	7.829	14.945	115.219	173.268	14.534	21.614	21.794	29.053	107.339	28.823	-8191	255	
1256.579	1	1	0	0	0.32303	0.27711	0.28149	0.12599	0.15766	0.20479	0.13851	0.08204	0.049803	0.11987	0.18343	0.16927	0.13071	0.15812	0.13821	0.11051	-2.6708	-3.1396	-2.7188	-3.1375	-3.3146	-3.1146	-3.5146	-3.1729	-2.9521	-3.275	-3.1417	-3.2562	-3.2646	-2.7042	-3.4188	-3.1375	154.180	81.042	134.943	231.805	177.802	102.651	245.305	342.945	310.592	104.497	246.472	210.853	211.778	74.021	7.395	261.998	0.00027279	0.00020317	0.00012371	1126.2	5.8071e-06	2.9989e-06	1209	238.39	1.121e-06	5.6069e-06	293.73	83.335	67.692	19.34	6.4356e-06	26.445	0.00023407	0.00022045	7.1936e-05	1098.8	2.4601e-06	2.3285e-06	1189.3	236.53	2.4756e-06	2.4385e-06	290.28	83.868	67.696	19.557	2.8654e-06	26.811	75.835	130.729	111.020	7.360	116.920	132.973	7.557	14.929	229.031	115.280	14.710	21.482	21.900	29.284	150.894	28.331	-8191	255	
1256.699	1	1	0	0	0.22272	0.25719	0.18122	0.14841	0.14254	0.037391	0.23988	0.29337	0.091922	0.066967	0.23732	0.081279	0.17368	0.036399	0.28477	0.004674	-2.7229	-3.2562	-2.8063	-2.9938	-3.2625	-2.9313	-3.375	-3.2125	-2.9521	-3.4021	-2.9167	-3.1188	-3.2333	-2.9708	-3.2917	-3.2021	125.139	13.566	217.862	336.196	130.415	6.766	330.737	287.821	145.947	132.504	63.957	321.599	-1.957	164.083	271.308	263.770	0.00035798	0.00039051	2.0538e-05	1124.7	2.5245e-06	2.8508e-06	1210.7	237.91	3.8248e-06	4.1883e-06	294.41	83.673	67.372	19.393	3.8379e-06	26.572	0.00023354	0.00023159	7.3894e-05	1098.6	2.4683e-06	2.5993e-06	1191.4	236.17	2.5001e-06	2.673e-06	291.59	84.024	67.534	19.716	2.9442e-06	26.883	67.284	93.750	48.656	7.552	186.906	190.686	7.436	15.127	46.144	88.723	14.302	21.177	22.180	29.368	148.084	28.435	-8191	255	
1256.771	1	1	0	0	0.27201	0.21938	0.14733	0.22098	0.1528	0.15117	0.30467	0.049233	0.19391	0.32621	0.28193	0.099397	0.11367	0.044186	0.17916	0.12101	-2.425	-3.4125	-3.0708	-3.0687	-3.4083	-3.1354	-3.3917	-3.2708	-2.9688	-3.375	-3.0396	-3.2479	-3.4354	-3.0354	-3.1437	-3.3354	210.559	277.824	102.147	276.109	332.361	60.135	314.947	192.238	157.529	279.113	324.947	239.179	326.325	100.963	38.737	94.425	0.00039115	0.0004947	0.00012371	1115.8	5.0623e-06	2.7571e-06	1205.8	238.71	6.3313e-06	3.212e-06	297.14	84.102	67.855	19.441	4.772e-06	26.536	0.00023905	0.00026231	7.633e-05	1096.3	2.511e-06	2.9268e-06	1189.9	236.21	2.6377e-06	2.8989e-06	292.68	84.368	67.946	19.72	2.9012e-06	26.892	77.967	71.290	120.111	7.530	124.585	94.161	7.638	14.855	163.065	233.318	15.205	21.442	21.980	29.077	215.033	28.482	-8191	255	
1256.867	1	1	0	0	0.1846	0.13851	0.10126	0.083243	0.050396	0.24159	0.11592	0.051554	0.16602	0.26233	0.17883	0.086821	0.35077	0.10158	0.15738	0.11137	-2.7458	-3.0896	-2.9	-3.1667	-3.2708	-2.9979	-3.4042	-3.3146	-2.8792	-3.1917	-3.1271	-3.0229	-3.2104	-3.0479	-3.1167	-3.3604	183.588	103.869	319.519	279.485	302.356	192.989	338.053	146.096	318.702	313.098	-2.084	63.564	50.842	287.813	177.122	220.216	0.00040653	0.00036917	0.00019352	1121.4	6.6985e-06	3.5821e-06	1210.3	239.08	5.9121e-06	2.4833e-06	295.47	83.98	67.832	19.5	4.9314e-07	26.551	0.00024172	0.00027197	7.1199e-05	1097.6	2.6572e-06	3.0397e-06	1190.5	236.73	2.7918e-06	2.9843e-06	291.85	84.02	67.854	19.73	2.7708e-06	26.929	62.631	46.611	7.959	8.147	151.765	212.003	7.617	14.914	155.049	203.513	14.886	21.569	21.818	29.353	106.022	28.634	-8191	255	
1256.963	1	1	0	0	0.25086	0.1828	0.14635	0.083745	0.25997	0.22027	0.21263	0.10417	0.10938	0.080814	0.05386	0.19479	0.007871	0.15447	0.058966	0.17672	-2.5021	-3.3042	-2.9979	-3.0062	-3.3604	-3.2021	-3.1688	-3.3438	-2.9958	-3.4146	-3.1271	-3.0146	-3.2917	-3.0625	-3.0312	-3.2292	269.920	341.431	181.050	4.873	350.227	162.733	311.986	80.599	90.149	353.481	6.661	345.704	121.038	48.781	43.016	20.229	0.00034222	0.00029932	6.417e-05	1129.4	2.702e-06	2.0875e-06	1209.2	237.72	4.582e-06	1.9091e-06	295.77	84.158	67.58	19.307	4.1488e-06	26.548	0.000258	0.00028311	7.1847e-05	1099.5	2.8591e-06	3.1187e-06	1191.7	236.58	2.9261e-06	3.0062e-06	290.77	84.311	67.986	19.66	2.7494e-06	26.918	70.671	47.885	31.147	7.405	165.203	138.674	7.444	15.242	168.437	106.486	15.012	21.731	21.808	29.439	136.258	28.646	-8191	255	
1257.084	1	1	0	0	0.26422	0.02783	0.13325	0.11792	0.12798	0.24418	0.1534	0.091197	0.07909	0.24026	0.053918	0.20362	0.074977	0.29023	0.17815	0.22293	-2.5708	-3.1375	-3.2583	-2.9938	-3.3021	-3.175	-3.2208	-3.3417	-2.9688	-3.1875	-3.1125	-2.8875	-3.3104	-2.9646	-3.1104	-3.3917	271.365	0.115	209.320	222.723	279.699	218.850	331.196	10.091	113.732	98.413	8.240	342.500	338.239	356.452	11.047	350.611	0.00042152	0.00045363	2.2225e-05	1130.5	5.7002e-07	4.0331e-06	1213	237.81	2.8373e-06	4.0169e-06	297.43	83.827	67.953	19.388	3.8479e-06	26.508	0.00027645	0.00027378	6.9319e-05	1098.2	2.9847e-06	2.8934e-06	1191.1	236.65	3.098e-06	2.9687e-06	290.39	84.06	68.035	19.655	2.6233e-06	26.861	62.470	87.630	79.253	7.441	216.708	79.536	7.352	15.468	202.704	154.574	14.195	21.368	21.945	28.941	159.278	28.802	-8191	255	
1257.180	1	1	0	0	0.23305	0.24702	0.098655	0.42224	0.24437	0.37316	0.3301	0.11966	0.10039	0.13077	0.041397	0.09422	0.11592	0.14562	0.17857	0.23954	-2.6	-3.0396	-3.2167	-2.9896	-3.2875	-3.2021	-3.0583	-3.3333	-3.0271	-3.1792	-3.325	-3.0417	-3.3104	-3.0958	-2.9646	-3.175	133.029	134.614	51.572	317.793	224.495	164.059	290.422	318.489	258.269	323.356	40.892	101.026	145.715	273.633	69.432	314.650	0.00041518	0.00082873	0.00010059	1129.2	3.7415e-06	2.9728e-06	1205.6	237.89	5.6718e-06	1.6555e-06	294.88	83.471	67.482	19.406	5.1934e-06	26.223	0.00028626	0.00026132	6.5202e-05	1101.8	3.0806e-06	2.7495e-06	1187.5	236.52	3.0578e-06	2.7271e-06	289.97	84.172	67.74	19.655	2.5472e-06	26.881	74.720	121.201	76.129	7.716	145.328	165.399	7.546	15.176	194.528	229.054	15.014	21.718	21.920	29.431	115.624	28.101	-8191	255	
1257.274	1	1	0	0	0.32523	0.17173	0.18329	0.24908	0.15177	0.34972	0.14221	0.17494	0.1163	0.2745	0.053325	0.21403	0.20171	0.11668	0.073432	0.22319	-2.6	-3.0396	-3.2958	-3.1021	-3.1646	-3.0438	-2.9917	-3.2938	-3.0104	-3.0729	-3.2562	-2.9458	-3.2812	-3.3333	-2.9188	-3.3479	353.793	198.376	159.723	164.899	331.698	324.820	247.657	126.232	225.228	192.533	149.117	38.076	329.382	280.536	46.492	339.329	0.00031655	0.00027983	4.8147e-05	1129.8	2.9479e-06	3.815e-06	1206.1	237.35	4.482e-06	6.4379e-06	293.25	84.379	67.702	19.307	5.7866e-06	26.277	0.00028042	0.00024744	6.3967e-05	1103	2.998e-06	2.7107e-06	1190.1	235.73	3.045e-06	2.6605e-06	289.44	84.268	67.725	19.631	2.5439e-06	26.889	72.767	52.344	66.811	7.574	79.314	170.310	7.733	15.178	109.397	166.319	14.815	21.622	21.786	29.349	168.764	28.515	-8191	255	
1257.372	1	1	0	0	0.11131	0.10925	0.36703	0.19921	0.16768	0.26912	0.12004	0.2797	0.076106	0.18406	0.080117	0.080568	0.10771	0.10564	0.20154	0.14039	-2.7438	-2.9562	-3.1167	-3.0521	-3.2104	-3.1583	-3.0333	-3.3208	-3.1562	-2.975	-3.4125	-3.1583	-3.0438	-3.275	-2.925	-3.3396	124.316	256.298	332.235	83.241	28.338	263.253	270.461	340.704	60.113	258.676	189.226	164.269	227.302	137.459	187.859	180.053	0.00026881	0.00043911	5.1582e-05	1124.8	4.5219e-06	5.9624e-06	1208.3	236.85	1.758e-06	8.7803e-07	294.78	83.499	67.308	19.348	3.1704e-06	26.446	0.00027813	0.00024908	6.5412e-05	1100.1	2.9087e-06	2.6139e-06	1190.5	236.07	2.8786e-06	2.5729e-06	289.68	84.086	67.5	19.611	2.6453e-06	26.861	62.443	77.983	337.484	7.339	150.005	153.818	7.580	15.089	222.433	117.208	14.831	21.434	21.843	29.397	236.813	28.315	-8191	255	
1257.467	1	1	0	0	0.24178	0.1556	0.25174	0.16407	0.22442	0.19217	0.22749	0.31571	0.15239	0.23757	0.1058	0.034152	0.13525	0.2505	0.28106	0.20062	-2.7208	-2.9979	-3.2479	-3.025	-3.1	-3.2521	-3.1125	-3.3583	-3.1208	-2.9313	-3.2687	-2.9958	-3.2833	-3.3146	-3.1188	-3.2562	338.635	22.907	221.003	31.237	98.774	285.247	293.855	296.404	336.831	335.011	329.609	232.309	324.976	14.698	22.577	285.283	0.00022617	0.00022652	0.00027224	1123.8	1.7301e-06	3.0074e-06	1207.9	238.37	2.7913e-06	2.5573e-06	293.79	83.671	67.74	19.435	4.0921e-06	26.635	0.00026087	0.00023682	7.0379e-05	1100.2	2.7894e-06	2.5859e-06	1189.6	236.5	2.711e-06	2.5431e-06	290.19	84.271	67.677	19.597	2.8418e-06	26.943	86.804	140.504	115.466	7.479	146.004	156.050	7.296	15.081	99.638	266.090	14.739	21.564	21.858	29.056	197.449	28.464	-8191	255	
1257.563	1	1	0	0	0.21595	0.25624	0.053679	0.031387	0.023927	0.26948	0.062485	0.094438	0.055559	0.329	0.32787	0.17211	0.049642	0.096002	0.18946	0.045135	-2.6625	-2.9646	-3.0062	-3.0438	-3.0521	-3.2625	-3.1125	-3.3312	-2.9292	-2.8729	-3.3479	-3.2	-3.025	-3.1979	-2.775	-3.0354	250.971	189.176	268.137	253.212	325.629	90.552	294.231	147.733	225.042	99.982	13.842	308.426	220.076	246.829	304.223	165.222	0.0004066	0.00026265	0.00016665	1124	6.0878e-06	5.9236e-06	1207.1	238.25	6.7949e-06	5.0404e-06	294.16	83.536	68.022	19.265	5.5319e-06	26.565	0.00024803	0.00023068	7.3499e-05	1100.5	2.7491e-06	2.6425e-06	1190.3	236.55	2.7396e-06	2.5836e-06	291.01	84.115	67.781	19.608	3.007e-06	26.916	70.230	104.693	64.741	7.787	140.149	124.314	7.758	14.803	121.194	209.706	14.304	21.348	21.579	29.277	146.268	28.572	-8191	255	
1257.684	1	1	0	0	0.15767	0.027698	0.016038	0.076486	0.14221	0.15771	0.13468	0.17227	0.025577	0.031669	0.08385	0.20265	0.23117	0.26518	0.16427	0.093873	-2.7875	-2.9604	-3.275	-3.0229	-2.9521	-3.2958	-3.0021	-3.0583	-3.2479	-2.925	-3.1208	-3.0708	-3.0292	-3.3833	-3.0021	-3.0938	108.341	-1.784	284.404	196.410	7.036	71.845	316.274	302.648	212.561	180.213	63.119	0.732	25.243	169.452	224.225	198.754	0.00033662	8.3005e-05	0.00010572	1124.3	1.9333e-06	5.4044e-06	1203.5	236.21	6.4981e-06	4.942e-07	292.86	83.675	67.503	19.323	3.5969e-06	26.475	0.00025206	0.00024016	7.9324e-05	1100	2.7169e-06	2.6698e-06	1191.4	235.79	2.6582e-06	2.7626e-06	290.8	83.917	67.634	19.625	3.2002e-06	26.846	73.154	308.761	80.608	7.285	160.073	182.342	7.668	15.093	181.237	52.700	14.833	21.455	22.265	29.656	48.145	28.629	-8191	255	
1257.780	1	1	0	0	0.27268	0.18625	0.13513	0.11658	0.22991	0.20226	0.18397	0.13435	0.1399	0.034417	0.097832	0.11697	0.27003	0.25831	0.19756	0.15842	-2.825	-2.8708	-3.1604	-3.1396	-2.9854	-3.1667	-3.2083	-3.1083	-3.2021	-2.8583	-3.1458	-3.1063	-2.9396	-3.2042	-3.05	-3.0208	300.928	209.148	326.361	210.113	235.723	164.163	320.997	257.581	219.059	30.458	290.345	353.545	32.146	149.826	262.683	345.393	0.00023011	0.000721	6.1066e-05	1132.2	4.5646e-06	7.6694e-06	1204.9	237.62	3.125e-06	1.5225e-06	295.62	83.637	67.676	19.366	3.3218e-06	26.545	0.00024669	0.00026472	8.0948e-05	1098.8	2.6582e-06	2.939e-06	1190.2	236.45	2.6077e-06	3.0613e-06	292.14	84.004	67.628	19.662	3.1172e-06	26.929	64.510	129.426	51.770	7.709	166.739	167.157	7.502	15.183	156.245	218.846	14.684	21.332	22.151	28.958	107.552	28.549	-8191	255	
1257.876	1	1	0	0	0.1318	0.092717	0.069866	0.056629	0.23906	0.19576	0.32141	0.080387	0.15226	0.16122	0.1083	0.086712	0.061685	0.044374	0.13758	0.12558	-2.8125	-2.8833	-3.2313	-3.1792	-3.0792	-3.4125	-3.1479	-3.0271	-3.3292	-2.8937	-3.1937	-3.2229	-3.0396	-3.275	-2.9917	-2.8875	330.874	126.170	308.182	326.182	48.085	100.277	297.156	45.362	216.288	233.253	221.635	246.259	110.580	162.646	247.752	288.857	0.00033074	0.00056224	0.00017107	1134.7	3.0769e-06	5.406e-06	1203.2	238.2	4.3449e-06	1.461e-06	295.78	83.396	68.106	19.241	5.8818e-06	26.421	0.00024625	0.00027721	7.6078e-05	1102.1	2.6564e-06	3.0076e-06	1189.8	236.11	2.6654e-06	3.0374e-06	290.46	83.749	67.789	19.623	2.8666e-06	26.764	77.394	75.720	88.173	7.896	106.523	171.279	7.325	15.422	151.848	211.459	14.680	21.097	21.519	29.687	150.855	28.516	-8191	255	
1257.972	1	1	0	0	0.10106	0.18398	0.37415	0.33463	0.17752	0.079325	0.33102	0.20765	0.22512	0.14781	0.18605	0.38071	0.17974	0.26922	0.062515	0.16327	-2.8063	-2.8521	-2.9708	-2.9875	-2.9667	-3.3312	-3.1604	-3.0458	-3.1771	-3.1063	-3.0812	-3.2687	-2.9854	-3.2604	-3.1583	-3.0042	55.779	246.754	336.439	200.112	79.929	96.661	329.157	356.359	101.973	277.561	326.306	326.815	45.109	37.218	195.157	79.375	0.00038205	0.00046731	8.0148e-05	1126.7	1.4303e-06	2.7276e-06	1201.9	237.64	8.2285e-06	1.6718e-06	294.51	83.597	67.686	19.287	7.8732e-06	26.519	0.00025869	0.00028969	7.1483e-05	1095.1	2.7849e-06	3.0974e-06	1188	235.69	2.7792e-06	3.052e-06	289.59	83.777	67.509	19.642	2.7151e-06	26.854	65.084	79.327	52.657	7.496	230.802	91.352	7.473	15.318	174.816	159.794	14.682	21.225	22.075	28.933	135.302	28.159	-8191	255	
1258.068	1	1	0	0	0.11582	0.10136	0.17032	0.1637	0.22905	0.063278	0.19178	0.060074	0.24786	0.078553	0.051876	0.16978	0.11148	0.096544	0.19637	0.07481	-2.8125	-2.8583	-3.0938	-3.2667	-2.8229	-3.2667	-3.0229	-2.9146	-3.2687	-3.0667	-3.0333	-3.2438	-2.8563	-3.225	-3.225	-3.0604	73.179	142.129	160.580	344.414	53.921	193.818	259.686	182.882	221.944	238.944	201.142	35.281	161.656	100.540	212.994	288.750	0.0004162	0.00040452	0.00012143	1121	4.2505e-06	2.1552e-06	1208.7	236.09	5.1901e-06	6.2034e-06	292.1	83.587	68.005	19.215	2.2032e-06	26.606	0.00026597	0.00027663	7.0177e-05	1095.3	2.886e-06	3.0301e-06	1189.5	235.55	2.9444e-06	2.9263e-06	288.93	83.822	67.972	19.608	2.6099e-06	26.892	70.385	50.605	17.449	7.161	267.254	155.526	7.450	15.236	148.028	197.878	14.489	21.180	22.065	29.317	195.191	28.545	-8191	255	
1258.164	1	1	0	0	0.29236	0.12731	0.20464	0.12472	0.040559	0.040883	0.023447	0.061306	0.062034	0.056578	0.2278	0.14504	0.23597	0.11396	0.094558	0.096076	-2.9125	-2.9583	-2.9854	-3.3583	-2.9896	-3.1708	-3.2812	-2.9042	-3.4	-3.0625	-3.0021	-3.0917	-3.1521	-2.9167	-3.1792	-2.9271	243.282	227.742	275.326	83.890	200.008	189.043	39.662	284.203	92.383	87.314	330.298	270.416	20.251	178.864	40.861	337.070	0.00034243	0.00042598	4.479e-05	1119	3.1024e-06	7.4935e-06	1205.6	236.64	1.0302e-05	3.3193e-06	292.93	83.713	67.578	19.382	6.41e-06	26.471	0.00027569	0.00026352	6.7255e-05	1094.7	3.0626e-06	2.7855e-06	1187	236.09	3.117e-06	2.8689e-06	289.79	83.895	67.811	19.652	2.5457e-06	26.9	50.589	51.320	130.080	7.358	166.699	144.948	7.356	15.017	96.753	163.157	14.598	21.542	22.021	29.424	115.819	28.491	-8191	255	
1258.260	1	1	0	0	0.097409	0.079169	0.27783	0.26041	0.21393	0.14192	0.33763	0.0709	0.15466	0.1145	0.065939	0.034868	0.099957	0.074683	0.18257	0.17746	-2.7104	-3.0375	-2.8563	-3.3854	-2.9479	-3.2208	-3.2417	-2.9188	-3.1396	-3.0021	-2.9104	-3.3729	-2.9729	-3.0771	-3.2104	-3.0312	66.920	161.588	154.560	1.343	86.960	351.283	315.038	194.926	168.213	58.881	158.215	107.277	168.450	347.823	181.703	302.553	0.00035682	0.00027597	5.5685e-05	1118.6	8.7978e-07	4.8174e-06	1203	235.81	5.1117e-06	5.2116e-06	295.94	83.259	67.766	19.119	4.7628e-06	26.41	0.00027733	0.0002444	6.5448e-05	1094.7	3.1138e-06	2.7771e-06	1186.5	235.68	3.0762e-06	2.7512e-06	290.06	83.94	67.806	19.568	2.5633e-06	26.864	55.584	44.471	178.684	7.201	332.789	240.347	7.591	14.988	238.448	153.226	14.406	21.272	21.879	29.045	141.476	28.593	-8191	255	
1258.379	1	1	0	0	0.05842	0.3153	0.24769	0.13009	0.11318	0.10201	0.35443	0.17822	0.10044	0.13225	0.11569	0.10446	0.17872	0.14283	0.19454	0.16617	-2.6333	-3.2354	-2.9646	-3.3375	-3.1	-3.1813	-3.45	-3.0458	-3.2396	-3.2104	-2.9521	-3.2333	-3.1375	-3.0729	-3.2896	-2.9333	307.794	142.690	111.031	295.258	55.273	226.003	257.168	2.732	145.324	191.296	283.085	333.991	269.514	349.708	84.686	199.379	0.00033206	0.00014881	0.00012142	1122.9	8.1318e-06	4.4645e-06	1209.1	237.87	2.1065e-06	2.3615e-06	294.68	84.246	67.778	19.223	5.7264e-06	26.506	0.0002774	0.00024785	6.7542e-05	1097.4	2.9328e-06	2.7857e-06	1187.9	236.64	2.8874e-06	2.6174e-06	290.63	84.122	67.875	19.6	2.5147e-06	26.876	69.512	2.328	47.374	7.698	165.327	142.596	7.274	15.184	29.957	140.999	14.369	21.367	21.705	29.401	123.555	28.650	-8191	255	
1258.475	1	1	0	0	0.16814	0.18939	0.23069	0.19744	0.1495	0.17268	0.24296	0.23503	0.27741	0.21587	0.11493	0.039461	0.12829	0.10734	0.08343	0.11111	-2.7646	-3.175	-2.875	-3.3833	-3.0729	-2.8396	-3.4062	-3.0375	-3.0062	-3.1979	-2.9833	-3.2375	-2.9729	-3.1458	-3.3	-3.2396	230.903	94.568	46.266	300.512	53.162	11.915	287.165	271.161	289.270	338.644	294.007	150.092	8.425	275.339	190.430	36.409	0.00029355	0.00035592	7.0356e-05	1118.1	1.3635e-06	2.8594e-06	1209.2	236.68	4.2141e-06	3.3547e-06	294.19	83.62	67.807	19.415	2.3736e-06	26.467	0.00026221	0.0002356	6.5569e-05	1094.1	2.736e-06	2.5511e-06	1187.7	235.69	2.7933e-06	2.5848e-06	290.72	84.294	67.669	19.584	2.5972e-06	26.85	75.071	165.420	168.536	7.137	304.590	165.524	7.448	15.375	81.030	126.199	14.533	21.929	21.871	29.428	126.609	28.497	-8191	255	
1258.572	1	1	0	0	0.086598	0.11923	0.11361	0.18751	0.054886	0.085612	0.20246	0.11179	0.059938	0.19106	0.11691	0.19529	0.17925	0.13494	0.098771	0.1149	-2.6229	-3.2313	-2.8937	-3.1958	-3.225	-2.7667	-3.3333	-2.9562	-3.0208	-3.3729	-2.9437	-3.1896	-3.1188	-2.8979	-3.1042	-3.0167	37.260	20.416	69.544	289.193	105.962	265.975	290.751	194.118	285.648	29.326	356.141	1.731	326.751	85.221	184.466	225.706	0.00028928	0.00039279	6.455e-05	1123.3	2.3945e-07	4.3374e-06	1204.2	237.99	2.8089e-06	3.1336e-06	293.83	84.075	67.654	19.342	5.3206e-06	26.375	0.00024958	0.00022137	7.0326e-05	1097.9	2.7029e-06	2.4942e-06	1188.1	236.09	2.6959e-06	2.4811e-06	291.06	84.126	67.649	19.568	2.8534e-06	26.844	78.409	46.826	81.582	7.698	211.678	131.453	7.376	15.149	152.991	199.597	14.696	21.514	21.728	28.685	198.909	28.746	-8191	255	
1258.645	1	1	0	0	0.41236	0.10204	0.37205	0.15079	0.26628	0.26073	0.44462	0.043141	0.14746	0.011049	0.055727	0.12571	0.01577	0.26369	0.14923	0.16815	-2.5479	-3.3333	-2.7771	-3.2604	-3.1417	-2.9313	-3.4542	-3.0125	-2.7979	-3.3479	-2.9271	-3.475	-3.3271	-3.0125	-3.5	-3.2917	246.506	340.983	338.638	299.894	160.212	344.862	316.471	319.069	323.366	198.484	297.362	134.078	74.992	54.491	77.809	314.353	0.00027211	0.00048486	0.00010868	1114.7	3.8925e-06	3.9079e-06	1204.8	236.84	1.0388e-06	3.4333e-06	295.49	83.831	67.279	19.335	3.3023e-06	26.382	0.00024638	0.00022944	7.4579e-05	1096.7	2.639e-06	2.5996e-06	1187.8	235.87	2.6527e-06	2.5276e-06	291.05	83.893	67.435	19.611	3.0965e-06	26.862	87.994	103.764	55.209	7.213	78.596	163.816	7.302	15.040	167.125	185.656	14.589	21.458	21.707	29.001	185.676	28.526	-8191	255	
1258.764	1	1	0	0	0.21225	0.15738	0.17175	0.11932	0.051816	0.074483	0.16065	0.2034	0.023734	0.10654	0.21644	0.15796	0.14994	0.16631	0.27935	0.21804	-2.6063	-3.2417	-3.0417	-3.1854	-3.2542	-3.0375	-3.4188	-3.1688	-3	-3.3167	-3.2104	-3.0979	-3.2833	-2.9542	-3.3167	-3.2458	190.964	213.461	100.742	241.575	33.311	294.714	283.983	296.449	236.611	66.593	177.237	234.246	86.664	138.832	108.219	49.019	0.00033699	0.0003406	5.7199e-05	1121.8	2.626e-06	6.4791e-06	1206.1	235.88	8.0476e-06	4.9426e-06	294	83.307	67.326	19.252	4.5141e-06	26.384	0.00024992	0.00024417	7.8615e-05	1097.5	2.573e-06	2.7867e-06	1190.1	235.29	2.6223e-06	2.7235e-06	291.23	83.882	67.446	19.622	3.0577e-06	26.855	66.783	162.440	63.941	7.765	232.114	177.096	7.820	15.328	112.810	157.572	14.235	21.717	21.576	29.416	146.910	28.070	-8191	255	
1258.860	1	1	0	0	0.086026	0.075455	0.30105	0.2	0.10146	0.27172	0.12865	0.12673	0.065495	0.13646	0.22957	0.30153	0.069632	0.16969	0.13705	0.16661	-2.6125	-3.2812	-2.7208	-3.2313	-3.2729	-2.9917	-3.1646	-3.1396	-3.0125	-3.5271	-3.0146	-3.0417	-3.1625	-2.9958	-3.1833	-3.2938	353.487	310.458	90.050	263.729	324.541	94.148	213.184	276.342	61.355	295.390	232.765	6.872	185.431	353.891	144.799	319.528	0.00026376	0.0003741	4.2065e-05	1120.7	2.418e-06	7.0426e-07	1206.5	238.83	4.1321e-06	2.2766e-06	294.94	83.815	67.096	19.34	2.2895e-06	26.515	0.0002464	0.00026132	7.6645e-05	1096.4	2.519e-06	2.9414e-06	1187.5	236.02	2.5823e-06	2.9236e-06	290.37	83.897	67.296	19.641	2.8736e-06	26.867	77.815	221.815	119.554	7.662	198.090	22.025	7.527	15.413	148.970	97.818	15.131	21.392	22.005	28.945	170.753	28.574	-8191	255	
1258.956	1	1	0	0	0.17394	0.15275	0.15379	0.086976	0.23487	0.086081	0.2228	0.060453	0.14954	0.094103	0.12907	0.11661	0.15966	0.030719	0.15702	0.11463	-2.4667	-3.2729	-3.025	-2.8792	-3.1604	-3.0771	-3.5521	-3.2875	-2.9854	-3.3563	-3.175	-3.0812	-3.1896	-3.1104	-3.2396	-3.1417	263.216	197.072	23.150	229.613	159.315	126.284	270.249	4.476	83.879	265.162	105.897	112.265	261.016	259.633	195.895	66.056	0.00030552	0.00040651	9.6842e-05	1129.4	5.1278e-06	6.1145e-06	1202.9	237.73	3.3343e-06	4.4433e-06	292.46	83.559	67.375	19.287	4.8731e-06	26.438	0.00024073	0.00027263	7.3004e-05	1098.1	2.6488e-06	3.0259e-06	1185.8	235.94	2.6653e-06	3.0027e-06	289.77	83.703	67.486	19.663	2.6889e-06	26.743	59.277	110.963	51.493	7.342	132.875	222.657	7.518	15.100	144.483	119.031	14.216	21.524	21.860	29.183	147.657	28.762	-8191	255	
1259.052	1	1	0	0	0.2247	0.18511	0.1593	0.11435	0.16354	0.026936	0.27289	0.20704	0.12232	0.070842	0.061667	0.029931	0.18414	0.08042	0.05968	0.096067	-2.4417	-3.1937	-3.0083	-3.1542	-3.1479	-2.9771	-3.3479	-3.4104	-2.9208	-3.2771	-3.2396	-2.9188	-3.4	-3.025	-3.0458	-3.3312	247.368	295.192	199.413	168.442	222.590	140.588	350.226	51.165	72.327	339.284	291.465	130.459	327.635	43.229	284.081	8.592	0.00040162	0.00033334	3.629e-05	1120.7	2.8606e-06	4.9063e-06	1205.3	237.56	3.8985e-06	1.6179e-06	296.27	83.162	67.621	19.416	4.4017e-06	26.321	0.00025272	0.00027018	6.9556e-05	1091.7	2.7392e-06	2.9916e-06	1186.8	235.77	2.8636e-06	2.9783e-06	289.39	83.528	67.485	19.634	2.6099e-06	26.799	62.753	49.978	113.919	7.880	116.882	134.191	7.825	15.217	122.155	185.744	14.579	21.241	22.033	28.908	115.103	28.153	-8191	255	
1259.173	1	1	0	0	0.092361	0.053484	0.28634	0.039128	0.048378	0.15756	0.17749	0.030823	0.098335	0.28672	0.030804	0.029242	0.034376	0.18371	0.16971	0.053266	-2.5021	-3.1937	-3.1396	-2.8604	-3.2521	-2.9917	-3.1083	-3.3625	-2.7604	-3.25	-3.1875	-2.9917	-3.1813	-2.9521	-2.9688	-3.1958	307.721	347.174	188.670	305.641	38.080	106.254	290.967	111.064	203.624	178.753	288.813	297.843	338.602	59.218	158.134	305.603	0.00028371	0.00052697	0.00012558	1122.9	4.7901e-06	1.9891e-06	1208.2	236.41	3.7633e-06	6.6759e-07	295.27	84.024	67.367	19.312	4.3398e-06	26.351	0.00026654	0.00025997	6.5972e-05	1094.6	2.8602e-06	2.8709e-06	1187.8	235.15	2.9405e-06	2.7503e-06	289.69	83.813	67.63	19.588	2.6595e-06	26.768	60.020	47.857	64.254	7.788	154.488	120.896	7.685	14.897	116.910	228.970	14.902	21.419	21.918	29.616	257.334	28.728	-8191	255	
1259.267	1	1	0	0	0.18014	0.13217	0.11712	0.06707	0.1667	0.1237	0.30424	0.35954	0.11687	0.1535	0.14503	0.24207	0.2393	0.12481	0.17425	0.16813	-2.5812	-3.0896	-3.1271	-2.9833	-3.2271	-3.075	-2.9771	-3.3792	-2.8854	-3.0771	-3.1958	-2.9292	-3.2146	-3.1396	-2.9521	-3.1562	323.124	238.735	126.191	21.757	287.104	326.622	3.373	35.171	293.482	65.972	303.960	306.189	71.246	13.361	259.277	262.343	0.00027498	0.00071292	8.1482e-05	1126.2	3.6744e-06	2.2478e-06	1205.2	236.93	2.4097e-06	2.4458e-06	295.73	84.201	67.471	19.207	3.1021e-06	26.391	0.0002808	0.00025395	6.3478e-05	1095.4	3.0013e-06	2.7754e-06	1186.2	234.9	3.074e-06	2.6695e-06	289.7	84.042	67.722	19.519	2.5274e-06	26.8	86.081	76.078	17.492	7.519	210.568	237.239	7.585	15.060	266.560	102.982	14.296	21.657	22.079	29.293	53.684	28.468	-8191	255	
1259.364	1	1	0	0	0.052226	0.19961	0.21785	0.21249	0.15761	0.0701	0.20304	0.36509	0.12376	0.25978	0.33426	0.034228	0.13235	0.17116	0.12389	0.24543	-2.4667	-2.9125	-3.3792	-2.7625	-3.1375	-3.1667	-2.9583	-3.4021	-3.0479	-3.1771	-3.3646	-2.9917	-3.2646	-3.0667	-2.8521	-3.2687	89.747	3.761	353.226	349.753	33.489	156.796	5.876	296.047	192.640	150.724	100.762	304.454	336.273	354.548	181.802	24.382	0.00038253	1.2087e-05	4.4849e-05	1119.5	4.1137e-06	2.7446e-06	1205.6	236.28	1.4186e-06	1.4791e-06	295.33	82.956	67.442	19.185	4.025e-06	26.444	0.00028078	0.00024813	6.4606e-05	1094.7	2.9283e-06	2.5931e-06	1186.4	235.1	2.9376e-06	2.6391e-06	289.38	83.807	67.763	19.5	2.5341e-06	26.807	66.073	252.305	19.146	7.366	140.271	93.438	7.758	15.188	174.632	178.279	14.341	21.486	22.260	29.348	111.072	28.337	-8191	255	
1259.460	1	1	0	0	0.105	0.21856	0.024241	0.23192	0.088774	0.18713	0.28537	0.29897	0.2222	0.19516	0.08276	0.093975	0.092799	0.045791	0.17029	0.25285	-2.7646	-3.1646	-3.3812	-2.9896	-3.1708	-3.4167	-3.2729	-3.3083	-3.0479	-2.8146	-3.3625	-2.8625	-3.0542	-3.1396	-2.8688	-3.2271	119.554	130.811	211.587	67.291	229.179	96.250	244.231	265.809	67.194	15.967	342.292	63.554	22.730	37.944	4.989	173.416	0.00026382	0.00056666	0.00016099	1130.9	2.0181e-06	3.7695e-06	1204.2	235.71	3.6083e-06	1.5723e-06	292.59	83.207	68.059	19.318	6.2342e-06	26.342	0.00026313	0.0002365	6.5813e-05	1098.6	2.8661e-06	2.6015e-06	1185	235.32	2.7935e-06	2.584e-06	289.07	83.718	67.783	19.537	2.6976e-06	26.812	74.670	112.322	60.836	7.558	236.101	153.865	7.465	15.177	126.962	155.449	14.681	21.536	21.833	29.263	151.751	28.351	-8191	255	
1259.556	1	1	0	0	0.036538	0.12363	0.17464	0.14696	0.29572	0.17764	0.19859	0.26079	0.32437	0.18098	0.19516	0.1822	0.093965	0.11469	0.1828	0.22972	-2.6417	-3.075	-3.2958	-3.05	-3.1813	-3.4313	-3.0687	-3.2104	-3.125	-3.0854	-3.2646	-2.9688	-3.0875	-3.2875	-2.9604	-3.2042	195.906	293.443	264.387	269.217	43.454	13.263	299.202	322.607	202.323	45.463	277.695	207.793	8.900	304.619	226.844	292.880	0.00042474	0.00012524	0.00019082	1120.8	3.7972e-06	3.6428e-06	1197.9	237.71	3.1522e-06	1.8375e-06	293.27	83.416	68.14	19.293	6.2311e-06	26.544	0.00025617	0.00023709	6.7616e-05	1094	2.8429e-06	2.5241e-06	1184.2	235.64	2.743e-06	2.6421e-06	288.88	83.926	67.565	19.58	2.8991e-06	26.922	71.945	282.036	80.085	7.340	42.765	210.054	7.591	15.212	271.544	139.130	14.878	21.315	21.745	29.201	146.043	28.387	-8191	255	
#DATA ENDS
