BOXY.EXE: ISS Imagent and Oximeter Data Acquisition Program Version 0.80
Ascii Record File

#ACQ INFORMATION
2  Detector Channels 
16  External MUX Channels 
1  Auxiliary Channels 
5000  Waveform (CCF) Frequency (Hz)
1  Waveforms Skipped 
30  Waveforms Averaged 
1  Cycles Averaged 
16  Acquisitions per Waveform 
10.0806  Updata Rate (Hz) 

#FILE INFORMATION
TRUE -- External MUX Channel results are PARSED.
FALSE -- AC DC and Phase are NOT grouped.
TRUE -- Companion Program Settings File CREATED.
FALSE -- AC data not excluded
FALSE -- DC data not excluded
FALSE -- Phase data not excluded
FALSE -- Auxillary Chn. data not excluded
Tab delimiters

#CALIBRATION STATE
TRUE -- Waveform Calibration Values APPLIED.


#AUX CALIBRATION VALUES
Val Type	aux-1	

Term	1.0000e+00	
Factor	0.0000e+00	


#WF CALIBRATION VALUES
A = Detector Channel
Val Type	A-AC1	A-AC2	A-AC3	A-AC4	A-AC5	A-AC6	A-AC7	A-AC8	A-AC9	A-AC10	A-AC11	A-AC12	A-AC13	A-AC14	A-AC15	A-AC16	A-DC1	A-DC2	A-DC3	A-DC4	A-DC5	A-DC6	A-DC7	A-DC8	A-DC9	A-DC10	A-DC11	A-DC12	A-DC13	A-DC14	A-DC15	A-DC16	A-Ph1	A-Ph2	A-Ph3	A-Ph4	A-Ph5	A-Ph6	A-Ph7	A-Ph8	A-Ph9	A-Ph10	A-Ph11	A-Ph12	A-Ph13	A-Ph14	A-Ph15	A-Ph16	

Term	0.00000e+00	0.00000e+00	0.00000e+00	0.00000e+00	0.00000e+00	0.00000e+00	0.00000e+00	0.00000e+00	0.00000e+00	0.00000e+00	0.00000e+00	0.00000e+00	0.00000e+00	0.00000e+00	0.00000e+00	0.00000e+00	0.00000e+00	0.00000e+00	0.00000e+00	0.00000e+00	0.00000e+00	0.00000e+00	0.00000e+00	0.00000e+00	0.00000e+00	0.00000e+00	0.00000e+00	0.00000e+00	0.00000e+00	0.00000e+00	0.00000e+00	0.00000e+00	0.00000e+00	0.00000e+00	0.00000e+00	0.00000e+00	0.00000e+00	0.00000e+00	0.00000e+00	0.00000e+00	0.00000e+00	0.00000e+00	0.00000e+00	0.00000e+00	0.00000e+00	0.00000e+00	0.00000e+00	0.00000e+00	
Factor	1.00000e+00	1.00000e+00	1.00000e+00	1.00000e+00	1.00000e+00	1.00000e+00	1.00000e+00	1.00000e+00	1.00000e+00	1.00000e+00	1.00000e+00	1.00000e+00	1.00000e+00	1.00000e+00	1.00000e+00	1.00000e+00	1.00000e+00	1.00000e+00	1.00000e+00	1.00000e+00	1.00000e+00	1.00000e+00	1.00000e+00	1.00000e+00	1.00000e+00	1.00000e+00	1.00000e+00	1.00000e+00	1.00000e+00	1.00000e+00	1.00000e+00	1.00000e+00	X	X	X	X	X	X	X	X	X	X	X	X	X	X	X	X	

B = Detector Channel
Val Type	B-AC1	B-AC2	B-AC3	B-AC4	B-AC5	B-AC6	B-AC7	B-AC8	B-AC9	B-AC10	B-AC11	B-AC12	B-AC13	B-AC14	B-AC15	B-AC16	B-DC1	B-DC2	B-DC3	B-DC4	B-DC5	B-DC6	B-DC7	B-DC8	B-DC9	B-DC10	B-DC11	B-DC12	B-DC13	B-DC14	B-DC15	B-DC16	B-Ph1	B-Ph2	B-Ph3	B-Ph4	B-Ph5	B-Ph6	B-Ph7	B-Ph8	B-Ph9	B-Ph10	B-Ph11	B-Ph12	B-Ph13	B-Ph14	B-Ph15	B-Ph16	

Term	0.00000e+00	0.00000e+00	0.00000e+00	0.00000e+00	0.00000e+00	0.00000e+00	0.00000e+00	0.00000e+00	0.00000e+00	0.00000e+00	0.00000e+00	0.00000e+00	0.00000e+00	0.00000e+00	0.00000e+00	0.00000e+00	0.00000e+00	0.00000e+00	0.00000e+00	0.00000e+00	0.00000e+00	0.00000e+00	0.00000e+00	0.00000e+00	0.00000e+00	0.00000e+00	0.00000e+00	0.00000e+00	0.00000e+00	0.00000e+00	0.00000e+00	0.00000e+00	8.46578e+01	-1.29976e+02	-1.28913e+02	-1.82245e+02	-8.85818e+01	-6.99744e+01	-1.59545e+02	-1.62015e+02	-6.78612e+01	-6.70692e+01	-1.73581e+02	-1.72846e+02	-1.88869e+02	-1.78099e+02	-7.30646e+01	-1.50538e+02	
Factor	7.38116e-05	2.11506e-04	5.81731e-05	1.66666e-01	2.97355e-06	2.33124e-06	2.08068e-01	7.32009e-02	3.78836e-06	2.32691e-06	1.33904e-01	3.72556e-02	4.39331e-02	1.07740e-02	2.74621e-06	1.56278e-02	2.35785e-05	4.15781e-05	1.15262e-05	8.37818e-02	3.77995e-07	4.73963e-07	9.73646e-02	3.68828e-02	3.96265e-07	4.67267e-07	6.56016e-02	1.81804e-02	2.20209e-02	5.48808e-03	4.14571e-07	7.72833e-03	X	X	X	X	X	X	X	X	X	X	X	X	X	X	X	X	



#DISTANCE SETTINGS
A = Detector Channel
A-1	A-2	A-3	A-4	A-5	A-6	A-7	A-8	A-9	A-10	A-11	A-12	A-13	A-14	A-15	A-16	

2.5000e+00	3.0000e+00	2.5000e+00	3.0000e+00	2.0000e+00	3.0000e+00	1.5000e+00	3.0000e+00	3.0000e+00	3.0000e+00	3.0000e+00	3.0000e+00	3.0000e+00	3.0000e+00	1.5000e+00	3.0000e+00	

B = Detector Channel
B-1	B-2	B-3	B-4	B-5	B-6	B-7	B-8	B-9	B-10	B-11	B-12	B-13	B-14	B-15	B-16	

1.0000e+01	1.0000e+01	1.0000e+01	1.4400e+00	1.0000e+01	1.0000e+01	1.5100e+00	1.9400e+00	1.0000e+01	1.0000e+01	1.9900e+00	2.4900e+00	2.4100e+00	2.9000e+00	1.0000e+01	2.9800e+00	




#DATA BEGINS
time	group	step	mark	flag	A-AC1	A-AC2	A-AC3	A-AC4	A-AC5	A-AC6	A-AC7	A-AC8	A-AC9	A-AC10	A-AC11	A-AC12	A-AC13	A-AC14	A-AC15	A-AC16	A-DC1	A-DC2	A-DC3	A-DC4	A-DC5	A-DC6	A-DC7	A-DC8	A-DC9	A-DC10	A-DC11	A-DC12	A-DC13	A-DC14	A-DC15	A-DC16	A-Ph1	A-Ph2	A-Ph3	A-Ph4	A-Ph5	A-Ph6	A-Ph7	A-Ph8	A-Ph9	A-Ph10	A-Ph11	A-Ph12	A-Ph13	A-Ph14	A-Ph15	A-Ph16	B-AC1	B-AC2	B-AC3	B-AC4	B-AC5	B-AC6	B-AC7	B-AC8	B-AC9	B-AC10	B-AC11	B-AC12	B-AC13	B-AC14	B-AC15	B-AC16	B-DC1	B-DC2	B-DC3	B-DC4	B-DC5	B-DC6	B-DC7	B-DC8	B-DC9	B-DC10	B-DC11	B-DC12	B-DC13	B-DC14	B-DC15	B-DC16	B-Ph1	B-Ph2	B-Ph3	B-Ph4	B-Ph5	B-Ph6	B-Ph7	B-Ph8	B-Ph9	B-Ph10	B-Ph11	B-Ph12	B-Ph13	B-Ph14	B-Ph15	B-Ph16	aux-1	digaux	

36000.949	1	1	0	768	0.26649	0.1599	0.30445	0.22463	0.23123	0.061195	0.22013	0.056612	0.16766	0.29119	0.28497	0.20024	0.18949	0.14974	0.21612	0.08007	-1.8417	-1.9896	-2.2896	-2.2167	-2.2	-2.5	-2.1167	-2.3604	-2.2479	-2.1271	-2.4979	-2.0625	-2.2646	-2.7042	-2.0979	-2.2042	379.128	250.356	340.305	461.307	426.487	197.015	212.698	507.965	493.722	192.314	472.251	306.398	293.307	217.276	456.666	227.108	0.0011745	0.00030248	0.00010712	543.32	3.9075e-06	7.9404e-05	473.04	215.47	7.7138e-06	2.5238e-06	211.6	81.324	86.594	36.588	4.5956e-06	34.383	0.0018308	0.00043813	0.0001514	554.01	4.506e-06	0.00018758	483.56	221.36	5.3355e-06	4.9929e-06	228.4	83.263	88.821	38.238	4.8513e-06	35.797	380.724	260.720	249.591	177.123	289.236	179.644	175.451	183.065	297.954	291.277	180.184	184.512	187.173	193.030	305.232	189.043	-8191	255	
36001.047	1	1	0	0	0.15046	0.19975	0.38934	0.242	0.26215	0.044436	0.36205	0.22845	0.080509	0.27356	0.22361	0.24448	0.11298	0.25016	0.081361	0.082606	-1.7771	-1.9646	-2.3792	-2.0396	-1.9979	-2.5646	-2.0062	-2.3958	-2.4375	-1.8708	-2.5167	-2.1813	-2.0646	-2.4167	-2.1708	-2.2667	214.978	425.905	320.170	371.328	319.234	329.276	389.174	191.989	277.792	506.556	187.897	507.233	362.957	487.068	271.922	170.429	0.001478	0.00027529	0.00010734	542.23	5.7481e-06	3.6896e-05	481.71	217.36	8.3762e-06	2.862e-06	217.83	82.219	87.437	36.941	6.4719e-06	35.172	0.0086495	0.00045849	0.00013896	555.19	4.4808e-06	9.2155e-05	490.67	222.7	6.3221e-06	5.0299e-06	243.77	84.49	89.586	38.688	4.9455e-06	36.495	351.597	298.956	259.639	177.188	287.388	189.374	175.170	183.044	299.293	322.721	180.498	184.157	187.260	193.182	290.721	189.017	-8191	255	
36001.141	1	1	0	0	0.37604	0.11132	0.10337	0.18448	0.32019	0.14014	0.32461	0.13306	0.081285	0.1275	0.1574	0.077262	0.23576	0.30275	0.23807	0.40629	-1.9146	-1.7375	-2.225	-2.3292	-2.0729	-2.3979	-2.1542	-2.3125	-2.4958	-2.0479	-2.4417	-2.4271	-2.0667	-2.3542	-2.2	-2.2042	179.796	216.326	417.912	419.867	509.922	371.556	397.390	504.469	249.146	173.585	410.948	370.299	390.853	439.640	379.543	388.060	0.00023676	0.00036503	8.0348e-05	549.48	5.6638e-06	7.8914e-05	482.77	219.28	6.9992e-06	3.8233e-06	218.34	84.012	87.903	37.496	3.6928e-06	35.693	0.0049298	0.00045866	0.00015486	560.65	4.4808e-06	0.00017802	497.07	225.01	5.2943e-06	4.7759e-06	229.03	86.746	90.225	39.035	5.272e-06	37.077	406.223	269.878	251.304	177.792	307.644	195.863	175.187	182.993	308.626	306.660	180.709	184.221	187.583	193.336	293.359	188.802	-8191	255	
36001.238	1	1	0	0	0.193	0.15626	0.33165	0.12936	0.025748	0.087977	0.15782	0.12964	0.1151	0.23966	0.087455	0.19614	0.2553	0.060745	0.06595	0.13001	-1.8958	-1.8813	-2.2625	-2.2562	-2.0062	-2.6063	-2.1458	-2.1875	-2.5292	-2.1667	-2.3729	-2.3563	-1.8792	-2.5479	-2.0229	-2.1312	364.759	253.698	328.833	418.580	233.629	345.550	476.180	443.630	475.025	476.101	178.480	486.688	176.799	196.172	394.934	257.802	0.001425	0.00039306	8.17e-05	550.65	6.1519e-06	2.7356e-05	490.63	218.97	8.3563e-06	3.4124e-06	216.25	84.028	88.307	37.496	6.3201e-06	35.796	0.0091583	0.00043648	0.00012256	562.14	4.3871e-06	9.1507e-05	501.35	225.49	5.9795e-06	4.6201e-06	222.98	92.23	90.467	39.09	5.0897e-06	37	241.529	270.314	256.639	177.336	286.278	205.091	175.682	183.199	269.801	344.131	180.091	184.384	187.016	192.981	286.277	189.149	-8191	255	
36001.332	1	1	0	0	0.14261	0.23717	0.24714	0.11155	0.070266	0.09875	0.04559	0.038335	0.27492	0.16952	0.23618	0.08156	0.13656	0.14813	0.16368	0.18766	-1.975	-2.1104	-2.1312	-2.275	-1.9542	-2.4271	-2.2646	-2.3312	-2.6083	-2.1833	-2.1	-2.2333	-1.9146	-2.25	-2.1729	-1.9875	430.617	522.090	484.282	175.334	310.369	210.119	209.613	486.755	291.717	483.086	169.235	376.393	236.443	283.217	412.726	420.481	0.00027689	0.00033238	7.9208e-05	547.78	5.6988e-06	8.0312e-05	486.22	220.38	5.5833e-06	4.0692e-06	217.17	84.812	89.399	38.302	5.5055e-06	35.934	0.0050248	0.00045346	0.00012059	560.17	4.4422e-06	0.00020766	495.22	226.33	5.556e-06	5.0854e-06	223.26	90.822	91.858	39.903	5.8066e-06	37.439	297.733	252.179	247.321	177.181	262.267	202.824	175.427	182.957	288.475	316.191	180.020	184.425	187.513	193.125	278.674	188.928	-8191	255	
36001.430	1	1	0	0	0.19943	0.17501	0.054974	0.089755	0.081813	0.061366	0.17186	0.22446	0.15453	0.10845	0.039591	0.21822	0.12271	0.17162	0.20497	0.21597	-1.9854	-2.1813	-2.3688	-2.4354	-1.9229	-2.425	-2.3083	-1.9396	-2.3667	-2.2333	-2.1521	-2.3229	-2.0521	-2.2313	-2.2021	-1.9854	171.119	480.540	516.607	210.742	319.509	282.469	423.133	250.975	385.601	482.339	453.737	517.074	201.070	253.370	382.767	387.107	0.0024538	0.00035088	0.00012778	548.01	4.605e-06	1.5943e-06	490.27	221.95	4.8705e-06	2.7379e-06	217.26	84.956	89.036	37.498	3.8263e-06	35.192	0.013828	0.00048291	0.0001272	562.01	4.4981e-06	6.9203e-05	508.09	228	6.4913e-06	5.4446e-06	223.6	96.259	91.243	39.114	6.0078e-06	36.613	246.824	251.237	239.836	177.315	271.608	334.155	175.405	182.911	279.660	339.038	179.998	185.144	186.967	192.939	292.063	188.969	-8191	255	
36001.551	1	1	0	0	0.10148	0.17522	0.12861	0.11069	0.058067	0.14322	0.051746	0.23718	0.1572	0.085306	0.25899	0.23726	0.24648	0.17737	0.13256	0.10005	-1.9167	-2.0542	-1.9188	-2.3729	-2.0396	-2.3563	-2.2896	-2.0604	-2.5938	-2.1979	-1.9646	-2.5125	-2.1063	-2.1917	-2.3771	-2.0271	220.314	371.738	398.465	368.493	488.607	520.115	441.875	468.597	489.805	446.528	285.793	181.553	495.925	183.479	295.770	493.204	0.00077565	0.00024028	8.5704e-05	556.41	4.1167e-06	3.7441e-06	500.22	223.36	8.3696e-06	3.6085e-06	217.03	83.569	87.759	37.033	6.6281e-06	34.956	0.0069958	0.00048664	0.00012201	568.73	4.5887e-06	5.1316e-06	557.77	229.2	5.6129e-06	5.4748e-06	223.79	90.147	90.638	38.599	7.4018e-06	36.386	313.543	259.872	286.245	177.120	286.663	322.911	174.358	182.842	284.850	325.525	179.700	184.853	187.585	193.100	271.999	189.200	-8191	255	
36001.645	1	1	0	0	0.11152	0.15448	0.31225	0.11818	0.10926	0.076528	0.13089	0.049092	0.083003	0.065666	0.15162	0.20204	0.21653	0.10894	0.41713	0.36051	-1.8979	-2.2021	-1.9354	-2.2979	-2.0438	-2.3937	-2.3042	-1.9167	-2.4688	-2.1792	-1.9792	-2.3125	-1.8542	-2.3167	-2.2979	-1.8563	264.364	188.211	373.120	166.202	373.881	447.284	426.776	371.165	262.237	449.744	513.946	364.195	461.567	234.554	242.798	296.459	0.0022742	0.0003352	0.00013074	557.92	5.3555e-06	2.3856e-06	503.03	222.92	5.1364e-06	2.3234e-06	218.18	84.037	87.941	37.124	4.7533e-06	35.067	0.013278	0.0005361	0.00012398	570.71	4.6675e-06	5.0052e-06	533.55	228.76	6.1289e-06	5.7513e-06	224.27	95.412	90.265	38.587	6.0406e-06	36.301	273.608	259.039	249.478	177.105	294.150	324.561	174.995	183.000	297.695	297.844	180.362	185.310	187.324	193.057	289.194	188.986	-8191	255	
36001.742	1	1	0	0	0.25973	0.050373	0.21892	0.19063	0.16308	0.18025	0.12874	0.06393	0.15269	0.075295	0.15289	0.12188	0.17223	0.35872	0.076889	0.086724	-2.0812	-2.0354	-1.8979	-2.4042	-2.1729	-2.0792	-2.5333	-1.9521	-2.3312	-2.2229	-1.9083	-2.3583	-2.1063	-2.3187	-2.4125	-1.9604	246.051	266.810	206.649	496.393	365.707	383.824	279.411	491.494	242.479	218.525	467.232	228.505	279.484	204.717	398.506	205.697	0.00042962	0.0038661	0.00011587	552.05	3.4524e-06	1.8663e-06	493.36	219.16	4.2134e-06	1.2691e-06	213.09	81.791	87.615	36.926	5.8333e-06	34.306	0.0033282	0.0053173	0.00011939	565.18	5.0494e-06	4.7653e-06	549.82	225.9	4.7164e-06	5.6276e-06	219.49	89.003	90.165	38.483	7.3405e-06	35.734	179.094	480.232	224.038	177.404	296.820	300.592	174.844	183.121	301.461	301.675	180.286	184.963	187.257	193.186	276.062	188.866	-8191	255	
36001.840	1	1	0	0	0.14096	0.19777	0.25557	0.051045	0.11637	0.052442	0.15454	0.069389	0.10817	0.025348	0.10465	0.35278	0.22885	0.12266	0.12448	0.18447	-1.7958	-2.2438	-2.0646	-2.5687	-1.9604	-2.1688	-2.3917	-2.1104	-2.2792	-2.3958	-2.0687	-2.4333	-2.4042	-2.1917	-2.3792	-2.25	468.208	247.742	183.671	352.298	354.076	220.885	239.992	459.862	427.587	456.495	233.975	315.225	517.729	488.915	508.327	496.625	0.0012564	0.010015	6.9846e-05	550.69	4.7772e-06	2.946e-06	487.87	218.75	7.2569e-06	2.9858e-06	214.63	81.584	87.236	36.75	4.3072e-06	34.406	0.00052644	0.024099	0.00012239	562.85	4.7549e-06	4.8838e-06	522.37	225.75	4.6305e-06	7.5892e-06	220.13	93.982	89.946	38.292	5.8835e-06	35.763	407.487	419.295	244.335	177.329	289.022	321.064	174.837	183.065	296.112	386.069	180.095	185.517	187.229	193.202	276.244	189.113	-8191	255	
36001.934	1	1	0	0	0.10972	0.049034	0.10739	0.3071	0.062664	0.084543	0.14967	0.17159	0.34868	0.159	0.050684	0.055667	0.40444	0.15996	0.1799	0.21308	-1.75	-2.3021	-2.0542	-2.3521	-2.2208	-2.0625	-2.6271	-2.1167	-2.1437	-2.4042	-2.0333	-2.3542	-2.0271	-2.2771	-2.4417	-2.1042	279.741	196.582	215.808	501.646	442.409	503.928	405.166	181.063	277.667	236.061	510.376	206.269	227.014	203.760	500.991	427.421	0.0012017	0.0041238	4.2733e-05	551.58	4.6932e-06	1.8971e-06	497.83	219.57	6.7876e-06	1.9721e-06	214.54	82.601	88.253	37.114	4.768e-06	34.645	0.00052944	0.01198	0.00012016	564.93	5.0273e-06	5.0596e-06	551.88	225.71	4.7056e-06	6.2244e-06	220.61	86.707	93.354	38.639	6.64e-06	36.196	410.534	422.851	283.972	177.160	303.552	315.831	174.859	182.761	301.037	338.228	180.232	184.735	187.049	193.298	273.010	189.083	-8191	255	
36002.027	1	1	0	0	0.30301	0.054437	0.1766	0.36233	0.35105	0.15612	0.1547	0.022928	0.10815	0.079378	0.3331	0.38327	0.047363	0.085956	0.024239	0.31243	-1.7792	-2.2458	-2.0438	-2.5333	-2.1562	-2.1292	-2.5438	-2.3729	-2.1167	-2.3792	-2.1979	-2.2917	-2.3688	-2.0563	-2.4833	-2.2708	323.531	416.454	441.360	322.593	383.331	304.648	384.609	429.338	469.028	426.341	504.733	237.444	487.775	424.030	392.358	462.333	0.0012818	0.0092704	0.00013444	552.34	3.7648e-06	3.6341e-06	494.32	218.98	8.6681e-06	2.9172e-06	213.62	83.305	88.818	36.944	5.6024e-06	34.95	0.00053111	0.023023	0.00012364	564.13	5.4534e-06	4.947e-06	524.78	225.22	4.7989e-06	7.5717e-06	221.02	85.271	102.56	38.637	5.9292e-06	36.445	407.588	431.733	284.259	177.421	281.151	294.308	175.112	182.821	303.595	288.294	179.780	184.080	188.477	192.895	312.375	188.983	-8191	255	
36002.148	1	1	0	0	0.146	0.10345	0.057146	0.23272	0.099051	0.1354	0.12317	0.29162	0.25676	0.23795	0.13794	0.061536	0.15295	0.11408	0.22686	0.092301	-1.6313	-2.5375	-2.0917	-2.3104	-2.2917	-2.0646	-2.4875	-2.2667	-2.2333	-2.3438	-1.975	-2.2229	-2.3667	-2.1542	-2.3167	-2.2604	174.975	463.415	279.479	216.677	210.115	424.442	269.765	481.946	418.567	484.820	260.132	463.518	486.237	204.187	269.135	341.981	0.0012355	0.0046698	7.5854e-05	552.15	6.0419e-06	4.2902e-06	487.31	218.1	6.8939e-06	4.4942e-06	210.51	80.899	86.896	36.429	3.0652e-06	33.837	0.00053818	0.011968	0.00012335	563.39	6.4401e-06	5.0912e-06	544.06	224.2	4.7477e-06	5.5829e-06	217.25	83.007	94.957	37.952	6.1054e-06	35.201	410.238	441.257	229.730	177.128	287.250	289.373	175.519	182.875	286.497	309.704	179.902	184.340	188.075	193.279	298.943	188.957	-8191	255	
36002.246	1	1	0	0	0.17829	0.092695	0.10149	0.18655	0.12648	0.21578	0.084715	0.010922	0.14865	0.10547	0.032751	0.20601	0.060582	0.18205	0.070069	0.29787	-1.5958	-2.3354	-2.0563	-2.3083	-2.4437	-2.0458	-2.4125	-2.4021	-2.0083	-2.4542	-2.2625	-2.2188	-2.4021	-2.0958	-2.3646	-2.2271	171.421	184.989	435.590	514.988	212.115	252.763	464.629	399.877	497.153	400.284	455.630	276.119	397.583	267.886	173.749	188.473	0.0011971	0.0095017	8.9186e-05	546.96	4.0492e-06	2.0966e-06	484.13	219.76	8.7079e-06	1.5972e-06	211.4	81.078	87.214	36.696	4.9032e-06	34.186	0.00053449	0.021665	0.00013507	559.15	5.2281e-06	5.0062e-06	498.84	228.48	4.7989e-06	6.9545e-06	217.33	83.146	100.91	38.254	4.9913e-06	35.603	407.975	449.452	246.576	177.186	298.958	328.299	175.454	182.572	290.482	350.406	180.295	184.203	188.709	193.416	305.179	188.853	-8191	255	
36002.344	1	1	0	0	0.11625	0.1137	0.22772	0.071335	0.050674	0.35218	0.1954	0.40311	0.34382	0.099534	0.077054	0.066093	0.10681	0.233	0.13371	0.18655	-1.3354	-2.3729	-1.9438	-1.9479	-2.3396	-2.1542	-2.3812	-2.4688	-1.9521	-2.4292	-2.0521	-2.2854	-2.3708	-2.1104	-2.2875	-2.4958	402.771	359.765	357.668	252.910	391.178	388.741	223.641	427.910	454.192	366.979	493.807	462.901	418.662	183.057	507.335	390.008	0.0011843	0.0042974	5.6176e-05	546.44	4.3329e-06	2.4599e-06	481.63	221.97	9.7136e-06	3.9503e-06	213.19	82.505	87.729	37.311	5.0753e-06	35.04	0.00053896	0.011378	0.00012854	559.83	6.3212e-06	5.2501e-06	490.9	243.93	4.8105e-06	5.9197e-06	219.1	84.489	96.146	38.868	5.0647e-06	36.462	411.014	445.832	246.322	177.304	287.955	308.407	175.468	182.847	298.856	328.993	180.331	184.487	188.119	193.228	288.340	188.720	-8191	255	
36002.438	1	1	0	0	0.1139	0.15232	0.23944	0.15904	0.21471	0.15222	0.24125	0.11696	0.2602	0.16899	0.22486	0.31038	0.10069	0.18249	0.11554	0.27562	-1.5646	-2.3187	-2.0812	-2.1083	-2.2812	-2.0854	-2.3083	-2.2458	-1.9062	-2.3146	-2.325	-1.925	-2.45	-2.1646	-2.3083	-2.3438	453.291	181.847	437.689	468.593	213.875	281.968	506.524	271.764	449.567	239.766	391.850	438.931	247.738	392.296	362.643	192.623	0.0012191	0.005812	4.0978e-05	547.89	4.1026e-06	3.7555e-06	487.92	221.82	7.303e-06	2.7198e-06	216.31	83.92	88.556	37.807	4.9619e-06	36.039	0.00055572	0.020439	0.00014079	560.18	5.3912e-06	5.2857e-06	497.26	236.2	4.8939e-06	6.165e-06	222.8	85.899	102.6	39.414	5.2815e-06	37.367	410.355	385.440	246.771	177.269	281.441	314.050	175.350	183.037	303.640	314.358	180.240	184.170	188.815	193.115	294.772	188.527	-8191	255	
36002.512	1	1	0	0	0.24848	0.11363	0.078038	0.057913	0.15714	0.10197	0.29347	0.24	0.26456	0.11127	0.13567	0.26649	0.16223	0.24618	0.13043	0.11621	-1.625	-2.2646	-2.1458	-1.9583	-2.4125	-2.2042	-2.3354	-2.3625	-1.9083	-2.3271	-2.1354	-2.0083	-2.3771	-2.3979	-2.1708	-2.4521	423.669	258.967	258.987	187.804	417.733	522.528	509.194	456.907	480.580	214.900	200.867	310.417	442.307	265.648	239.172	517.780	0.0012376	0.0027288	0.0012805	547.85	4.8126e-06	3.2606e-06	494.43	224.09	4.0819e-06	5.4962e-06	219.15	85.394	89.22	38.216	4.703e-06	36.517	0.00055675	0.0036165	0.0018069	561.45	6.1109e-06	5.6569e-06	504.56	245.97	5.182e-06	5.1273e-06	225.95	87.633	97.685	39.938	4.9489e-06	37.87	408.122	384.806	499.776	177.162	291.381	331.280	175.829	183.039	308.705	322.062	180.069	184.328	187.809	193.021	329.638	188.888	-8191	255	
36002.629	1	1	0	0	0.1503	0.091859	0.19076	0.14148	0.075981	0.10883	0.16096	0.39906	0.19176	0.16661	0.21888	0.17922	0.22367	0.15486	0.1313	0.17825	-1.7812	-2.2917	-2.2896	-1.9062	-2.5438	-2.1833	-2.3208	-2.475	-2.0958	-2.2146	-2.3792	-1.9188	-2.2583	-2.175	-1.9083	-2.2562	188.039	240.450	513.898	406.688	212.581	453.379	364.179	475.409	513.508	346.430	405.106	201.438	209.585	462.545	418.636	444.280	0.0012911	0.00042839	0.0025259	545.79	4.9735e-06	3.6325e-06	485.39	221.43	8.0196e-06	1.7096e-06	216.55	84.718	89.051	38.36	5.0663e-06	36.326	0.00056829	0.00045753	0.0060913	557.55	5.3723e-06	5.572e-06	496.63	235.6	4.8113e-06	4.9764e-06	222.96	86.63	101.36	39.961	5.0094e-06	37.686	407.037	250.123	474.521	177.361	275.513	298.649	175.592	183.100	300.997	342.050	180.270	184.087	188.685	193.039	296.645	188.642	-8191	255	
36002.727	1	1	0	0	0.22319	0.10487	0.16654	0.17478	0.28957	0.10004	0.21207	0.19112	0.18404	0.36789	0.13869	0.27	0.29778	0.37927	0.28965	0.33038	-1.3604	-2.1604	-2.2917	-2.025	-2.3563	-2.2167	-1.9021	-2.2292	-2.0896	-2.2188	-2.3	-2.0438	-2.3063	-2.1479	-1.9875	-2.2938	246.866	235.052	274.161	387.324	428.032	255.996	186.803	401.860	341.764	412.845	195.302	419.980	199.866	452.831	347.796	476.780	0.0012787	0.00033495	0.0012426	543.29	4.3449e-06	2.8292e-06	489.78	224.44	8.6183e-06	3.0101e-06	218.2	84.699	88.52	38.038	3.0721e-06	36.259	0.00056102	0.00046204	0.0030736	557.08	5.4006e-06	6.3551e-06	500.1	245.48	5.3801e-06	4.8927e-06	225.01	86.771	92.696	40.586	5.037e-06	37.584	408.763	263.090	478.348	177.302	301.525	305.055	175.367	183.197	307.875	319.809	180.422	184.400	187.976	193.072	279.711	188.886	-8191	255	
36002.824	1	1	0	0	0.1299	0.13531	0.12755	0.2328	0.24217	0.23638	0.04513	0.18249	0.13321	0.15859	0.16496	0.10828	0.25067	0.16182	0.051639	0.22699	-1.4729	-2.1958	-2.2188	-2.1875	-2.1167	-2.3396	-2.2021	-2.2646	-1.95	-2.15	-2.3125	-1.9625	-2.1292	-2.4396	-1.9062	-2.4854	194.604	472.968	281.757	427.613	425.601	276.256	430.524	167.928	374.691	296.807	498.823	508.036	184.155	496.129	296.039	213.542	0.0012831	0.00047442	0.0022331	550.42	4.6965e-06	3.091e-06	498.36	223.24	7.2825e-06	3.7015e-06	221.75	85.478	89.154	38.03	5.5117e-06	36.399	0.00058357	0.00045571	0.00559	562.22	4.5493e-06	6.2119e-06	507.7	237.09	4.9261e-06	4.806e-06	227.75	87.403	91.783	42.493	5.1821e-06	37.911	411.027	242.236	487.426	177.316	280.766	298.244	175.067	183.245	321.975	319.282	179.817	184.370	187.047	193.724	283.597	188.760	-8191	255	
36002.918	1	1	0	0	0.11056	0.16079	0.20527	0.10548	0.14184	0.39397	0.10265	0.28337	0.12901	0.22162	0.030687	0.16094	0.041032	0.18004	0.039601	0.24677	-1.5604	-2.0042	-2.2208	-2.2188	-2.1688	-2.3021	-2	-2.1896	-2.1	-2.025	-2.5271	-2.0125	-2.0833	-2.3438	-2.0583	-2.4396	294.053	388.212	330.206	223.850	364.145	251.648	258.475	462.404	494.451	365.284	474.457	197.281	349.906	458.882	465.821	440.614	0.0012962	0.00021535	0.0013962	549.3	4.3743e-06	1.9809e-06	500.86	222.96	9.8956e-05	3.462e-06	222.46	85.917	89.779	38.376	6.0541e-06	36.638	0.00057148	0.00045242	0.0029043	563.33	4.5123e-06	7.1924e-06	509.93	243.39	1.0669e-05	5.0504e-06	228.37	88.186	92.208	41.445	5.4119e-06	38.194	410.829	259.175	496.725	177.160	278.685	318.780	175.272	183.463	268.808	346.174	180.190	184.432	187.427	193.343	296.797	189.140	-8191	255	
36003.039	1	1	0	0	0.23163	0.16773	0.16332	0.22654	0.055909	0.19789	0.16724	0.093509	0.077027	0.053585	0.42712	0.12933	0.13012	0.07401	0.15109	0.25998	-1.7896	-2.0812	-2.275	-2.2417	-2.2542	-2.4292	-1.9937	-2.4917	-2.3271	-2.0458	-2.4083	-2.1188	-2.1	-2.3292	-2.0146	-2.3333	513.453	494.074	413.028	447.589	180.279	406.331	317.806	448.844	216.861	500.952	509.406	489.348	165.685	200.955	468.351	288.383	0.0012911	0.00030444	0.0023949	548.07	6.0123e-06	3.4026e-06	490.35	220.26	4.6871e-05	3.9955e-06	217.68	84.635	88.617	37.599	5.9336e-06	35.814	0.00060297	0.00047053	0.0057084	561.4	4.5249e-06	6.1309e-06	501.24	227.99	6.7755e-05	4.9277e-06	224.48	86.469	91.247	42.528	5.132e-06	37.301	410.139	257.252	496.982	176.976	275.698	327.247	175.442	183.235	275.325	314.447	180.155	184.309	187.000	193.577	302.745	188.845	-8191	255	
36003.109	1	1	0	0	0.20005	0.071796	0.16351	0.14592	0.25317	0.11904	0.14531	0.23523	0.19153	0.23065	0.16211	0.16356	0.21409	0.3188	0.050147	0.2135	-1.8188	-2	-2.5083	-2.1396	-2.0958	-2.55	-1.8563	-2.2229	-2.4667	-1.9646	-2.125	-2.3146	-2.1354	-2.5479	-2.1125	-2.4562	332.728	205.878	433.814	492.361	303.374	392.419	451.087	374.191	369.733	500.201	422.366	236.036	438.284	201.794	436.528	419.750	0.0012149	0.0004345	0.0012899	544.43	6.0652e-06	1.9359e-06	485.97	219.32	0.00016168	3.0778e-06	217.04	84.861	89.138	38.166	4.4783e-06	36.165	0.00058278	0.00044627	0.0030031	555.55	4.5218e-06	7.3257e-06	496.31	225.64	0.00019986	5.1526e-06	223.91	86.853	91.482	41.412	4.9463e-06	37.612	407.750	249.804	509.286	176.992	273.702	310.446	175.286	183.034	319.149	300.376	180.172	184.257	187.278	193.131	294.840	188.816	-8191	255	
36003.230	1	1	0	0	0.082743	0.18615	0.019185	0.26281	0.041212	0.21691	0.28887	0.091734	0.089075	0.18958	0.1742	0.20389	0.44221	0.17229	0.20775	0.066447	-1.9729	-1.9625	-2.4271	-2.1292	-2.1542	-2.4188	-2.1312	-2.3604	-2.4542	-2.0167	-2.3563	-2.3729	-2.1458	-2.5771	-2.0104	-2.3083	397.014	300.910	303.814	178.807	521.772	467.878	176.969	286.874	244.413	489.446	315.573	398.898	490.736	456.644	357.308	500.239	0.0012776	0.00037334	0.0003474	545.89	4.1053e-06	3.0959e-06	489.02	219.77	8.9706e-05	3.6201e-06	218.61	84.389	89.749	37.735	4.6854e-06	36.329	0.00067086	0.00045632	0.0045334	560.53	4.2217e-06	5.8525e-06	498.22	226.27	0.00010358	5.1565e-06	224.65	86.936	91.772	42.673	5.4922e-06	37.768	409.576	256.382	396.792	176.523	286.508	307.155	175.561	182.852	330.569	331.317	180.120	184.347	187.474	193.359	299.694	188.982	-8191	255	
36003.324	1	1	0	0	0.40362	0.23636	0.2354	0.050544	0.096582	0.31975	0.074927	0.095122	0.096452	0.29964	0.13783	0.16058	0.20391	0.070202	0.19799	0.23035	-1.8687	-1.925	-2.2646	-2.2146	-2.0979	-2.4521	-2.1354	-2.15	-2.3187	-2.1271	-2.3875	-2.2687	-1.9229	-2.3542	-2.2021	-2.3667	454.089	235.518	494.757	194.611	196.411	429.518	413.896	223.462	359.319	168.346	201.133	500.367	233.811	294.917	327.343	506.672	0.00126	0.00037217	0.00013833	544.61	5.1702e-06	2.5065e-06	488.2	220.35	0.00018104	2.7601e-06	219.5	85.535	89.604	38.282	4.3021e-06	36.711	0.00059663	0.00046619	0.00057021	572.04	4.4462e-06	6.9021e-06	500.22	226.29	0.0002021	5.2762e-06	225.74	87.596	91.718	41.598	5.5e-06	38.137	410.647	272.565	390.134	176.805	276.652	333.993	175.608	182.783	335.343	327.514	180.598	184.547	187.329	193.390	303.891	188.769	-8191	255	
36003.422	1	1	0	0	0.30456	0.15005	0.28638	0.1453	0.37159	0.13146	0.17864	0.11055	0.28784	0.039922	0.069193	0.21874	0.16594	0.10083	0.28743	0.046222	-1.9042	-1.9979	-2.2479	-2.3667	-2.125	-2.2417	-2.3771	-2.1562	-2.4708	-2.1125	-2.2458	-2.1813	-2.0521	-2.4854	-2.3104	-2.1479	329.424	322.729	357.768	184.928	265.750	369.613	418.537	461.017	245.837	206.005	169.961	253.335	438.312	469.562	426.956	246.235	0.0012418	0.00028954	9.4518e-05	547.9	4.5462e-06	3.776e-06	492.55	220.66	8.7282e-05	3.0413e-06	218.05	84.134	88.745	38.159	9.0189e-05	35.819	0.00068387	0.00046481	0.00012727	600.46	4.6934e-06	6.0647e-06	502.33	225.94	0.00010865	5.064e-06	224.43	86.847	91.237	42.025	3.0624e-05	37.265	411.332	215.007	268.818	176.276	291.350	324.375	175.504	182.916	342.113	306.074	180.160	184.252	187.158	193.652	168.465	188.442	-8191	255	
36003.520	1	1	0	0	0.19048	0.16096	0.086707	0.27339	0.075252	0.22497	0.21859	0.083333	0.21065	0.16056	0.27919	0.17444	0.10797	0.28549	0.061727	0.18372	-1.8625	-2.0542	-2.0563	-2.5125	-2.1958	-2.4375	-2.2375	-2.2562	-2.6437	-2.1125	-2.275	-2.3958	-2.1083	-2.3646	-2.4604	-2.0458	250.867	330.221	435.782	470.116	453.865	311.429	391.311	186.869	277.242	352.908	174.615	385.660	415.464	500.871	275.175	443.074	0.001249	0.00035658	7.8644e-05	540.54	5.7083e-06	2.175e-06	475.94	217.09	0.00017483	2.4407e-06	213.59	82.909	88.009	37.776	4.7572e-05	35.369	0.00060091	0.00047156	0.00012136	572.69	4.7029e-06	5.885e-06	485.78	223.07	0.0002084	5.4699e-06	219.2	84.901	90.722	39.689	8.3863e-05	36.855	410.618	245.490	257.552	176.841	282.567	336.199	175.243	183.061	347.206	321.140	180.289	183.924	187.479	193.605	176.062	189.026	-8191	255	
36003.641	1	1	0	0	0.13863	0.18425	0.37415	0.17689	0.04215	0.081619	0.24955	0.1319	0.23333	0.098862	0.023863	0.22583	0.11171	0.11201	0.21621	0.2164	-2.1708	-2.2062	-2.2062	-2.3375	-2.075	-2.5542	-2.2854	-1.9625	-2.4562	-2.2625	-2.1667	-2.2896	-1.95	-2.3875	-2.3917	-1.9521	471.941	301.351	437.434	503.382	324.716	494.174	404.548	502.923	340.025	475.323	514.201	387.836	497.385	513.939	170.281	224.589	0.0012479	0.00034745	7.4068e-05	543.54	3.4451e-06	3.8772e-06	477.77	217.5	9.4779e-05	3.354e-06	213.36	82.943	88.351	37.922	0.00012332	35.423	0.00063603	0.00051314	0.000121	594.86	4.6312e-06	4.8561e-06	488.38	223.86	0.00010546	5.1458e-06	219.94	85.402	90.733	39.469	0.00020997	36.954	409.895	247.493	253.412	176.284	265.563	317.887	175.241	183.050	354.604	329.471	180.178	184.050	187.368	192.786	483.817	188.776	-8191	255	
36003.734	1	1	0	0	0.30342	0.31321	0.31499	0.1234	0.15367	0.081745	0.30769	0.16816	0.28799	0.30318	0.18553	0.16548	0.22608	0.33222	0.096778	0.15753	-1.9417	-2.1354	-2.1063	-2.5479	-2.0583	-2.3375	-2.3958	-1.9583	-2.4583	-2.2229	-2.0708	-2.6437	-2.0104	-2.3833	-2.5687	-2.0229	486.054	174.901	260.389	443.773	414.980	362.236	486.851	482.220	524.493	315.234	448.393	440.935	470.931	184.155	478.131	191.722	0.0011633	0.000485	7.4353e-05	545.24	3.2193e-06	2.6964e-06	482.58	218.91	0.00017919	1.4797e-05	217.1	83.848	88.941	38.135	5.3543e-05	36.113	0.00057507	0.00046273	0.0001204	575.88	4.6155e-06	4.7752e-06	494.53	225.02	0.00013887	4.2212e-05	223.18	86.324	91.214	39.705	0.0001113	37.465	410.334	264.370	264.802	176.981	285.364	325.691	175.822	182.779	372.925	279.669	180.329	184.060	187.174	193.077	486.242	188.774	-8191	255	
36003.809	1	1	0	0	0.094409	0.087682	0.271	0.035068	0.13371	0.17095	0.31259	0.14353	0.25937	0.14905	0.32091	0.22664	0.14121	0.11682	0.13207	0.14392	-1.9854	-2.1104	-2.1542	-2.4083	-2.2229	-2.2479	-2.3667	-2.1146	-2.2896	-2.3208	-2.1312	-2.4646	-2.0625	-2.4062	-2.4854	-2.1833	173.292	201.598	241.844	514.762	179.808	417.458	500.071	178.345	241.178	263.183	522.043	281.004	290.409	451.129	478.597	364.328	0.0011947	0.00038757	0.00010294	551.35	6.2116e-06	4.235e-06	486.18	219.28	9.4058e-05	5.9999e-06	218.13	84.662	88.585	38.407	0.00011922	36.034	0.00057139	0.00055905	0.0001271	599.45	5.0541e-06	4.8492e-06	497.9	225.54	1.1078e-05	9.9002e-05	224.26	87	91.275	39.883	0.00021392	37.519	412.480	278.627	265.665	176.668	280.083	321.665	175.295	183.152	370.921	299.304	180.069	184.527	187.672	192.894	482.327	188.727	-8191	255	
36003.926	1	1	0	0	0.092324	0.19515	0.20469	0.14816	0.28817	0.2794	0.12681	0.15516	0.17539	0.17234	0.03985	0.056506	0.25115	0.22297	0.076519	0.17781	-1.8667	-2.1479	-2.0875	-2.4708	-2.0687	-2.35	-2.3271	-2.0583	-2.2917	-2.3542	-2.0708	-2.4667	-2.1521	-2.1188	-2.5458	-2.1833	294.632	272.536	370.564	496.542	257.767	234.264	509.580	329.157	427.198	368.502	510.643	263.264	297.518	475.345	216.635	403.832	0.0012581	0.00038959	8.1692e-05	545.05	4.9026e-06	2.6888e-06	481.24	218.02	7.3903e-06	9.4622e-05	214.11	82.307	88.028	37.711	5.3533e-05	35.196	0.00052659	0.00055671	0.00012698	576.47	4.4808e-06	4.7949e-06	492.17	223.88	4.4695e-06	0.00023698	219.49	84.665	90.376	39.371	0.00010741	36.482	407.601	241.786	244.126	176.681	281.827	290.781	175.309	183.171	283.211	376.519	179.914	184.520	187.560	193.094	497.500	188.750	-8191	255	
36004.023	1	1	0	0	0.26696	0.072506	0.16312	0.18063	0.10942	0.072599	0.27859	0.19993	0.1327	0.22089	0.16477	0.14678	0.062695	0.13106	0.16591	0.12174	-1.6854	-2.2354	-1.8104	-2.4146	-2.1833	-2.1063	-2.5042	-2.2167	-2.4479	-2.2771	-2.1063	-2.5875	-2.1583	-2.125	-2.4813	-1.8854	409.058	366.202	217.963	436.992	255.975	230.301	277.187	234.590	327.958	199.269	212.083	218.896	437.435	375.493	377.959	448.940	0.0012416	0.0004501	7.2879e-05	541.04	0.00011701	4.9806e-06	477.24	217.26	9.0889e-06	4.9629e-05	212.53	82.825	88.552	38.191	0.00010593	35.796	0.00052821	0.00065945	0.00012816	577.35	4.2417e-05	5.0921e-06	487.63	223.96	4.6008e-06	0.00011824	219.51	85.177	91.065	39.808	0.00020311	37.094	410.600	275.423	263.431	177.125	223.004	323.901	175.311	182.836	305.599	382.965	180.176	184.367	187.489	192.992	503.968	188.805	-8191	255	
36004.117	1	1	0	0	0.18448	0.1623	0.10867	0.16441	0.089862	0.14348	0.090206	0.13885	0.2289	0.07839	0.077773	0.17725	0.28367	0.01628	0.31596	0.099046	-1.8354	-2.2417	-2.0438	-2.4896	-2.1792	-2.0396	-2.45	-2.05	-2.1729	-2.4875	-2.1125	-2.4396	-2.3229	-2.2125	-2.5062	-2.2917	447.840	191.744	513.200	484.615	439.287	294.844	444.333	341.185	329.012	362.047	272.793	232.107	289.779	179.135	365.195	428.068	0.0012283	0.00038685	7.8225e-05	540.06	5.7506e-05	4.1571e-06	482.82	218.63	6.3663e-06	8.6408e-05	217.08	84.195	88.817	38.583	5.1989e-05	36.45	0.00052025	0.00053566	0.00012869	551.56	8.0006e-05	5.2955e-06	491.59	224.69	4.4993e-06	0.00023114	221.9	86.261	91.554	40.264	0.00010811	37.818	407.505	256.037	255.257	177.303	223.192	313.630	175.294	182.962	300.875	388.694	180.058	184.217	187.635	193.138	512.677	188.680	-8191	255	
36004.215	1	1	0	0	0.34241	0.23673	0.17398	0.0054857	0.28348	0.16004	0.16183	0.15455	0.17214	0.31366	0.28002	0.2203	0.047516	0.22257	0.20774	0.15527	-1.8333	-2.4292	-2.0708	-2.3937	-2.3	-1.9438	-2.2271	-2.1875	-2.1729	-2.2979	-2.0542	-2.2542	-2.2188	-1.9854	-2.2479	-2.0896	512.350	371.567	226.431	190.698	344.908	396.100	291.163	357.714	442.143	271.008	404.814	395.096	241.899	444.243	466.771	439.572	0.0012877	0.0003281	0.00012357	537.74	0.00013945	3.9284e-06	483.3	217.86	8.2205e-06	5.5611e-05	218.44	85.342	89.51	39.371	7.4274e-05	37.489	0.00053292	0.00068405	0.00012876	549.47	0.00019394	5.0112e-06	492.81	224.36	4.6338e-06	0.00012527	223.56	87.582	92.355	40.882	0.00013247	39.563	412.267	280.632	253.398	176.889	257.831	316.941	175.517	183.122	278.601	392.117	180.238	184.086	187.163	192.861	441.351	187.577	-8191	255	
36004.336	1	1	0	0	0.22672	0.082498	0.071964	0.039554	0.15153	0.178	0.24813	0.23027	0.028463	0.14226	0.25212	0.042425	0.041504	0.2235	0.24736	0.11826	-1.6063	-2.2729	-2.1771	-2.3438	-2.4854	-2.0417	-2.4167	-2.3312	-2.0917	-2.4604	-2.15	-2.1104	-2.3	-2.0167	-2.2562	-2.4313	232.897	317.099	383.712	344.390	494.918	522.450	487.270	190.934	447.327	466.589	342.249	475.898	432.530	281.192	239.050	316.446	0.0013147	0.00029767	0.00011288	535.6	7.162e-05	2.0864e-06	482.94	216.96	6.208e-06	0.0001004	215.02	84.494	89.511	38.932	5.7926e-06	36.534	0.00055169	0.00051695	0.00012849	548.67	0.00010372	5.339e-06	491.8	223.74	4.7733e-06	0.00024621	220.57	86.725	91.746	40.565	4.7917e-06	39.638	407.016	223.723	267.358	177.431	258.965	311.531	175.452	183.123	285.947	398.761	180.201	183.912	187.058	192.965	299.346	188.376	-8191	255	
36004.406	1	1	0	0	0.15771	0.063985	0.24883	0.2977	0.13332	0.076149	0.097796	0.18738	0.099651	0.092043	0.11945	0.2431	0.27771	0.21733	0.12904	0.082775	-1.625	-2.3646	-2.1792	-2.1604	-2.4042	-2.1375	-2.3542	-2.3146	-2.0021	-2.4083	-2.2979	-2.1479	-2.4667	-2.1063	-2.3333	-2.3646	221.093	396.631	350.374	497.481	211.191	362.714	174.777	453.285	349.641	169.235	510.305	178.769	203.950	183.299	376.332	315.226	0.0012329	0.00037533	9.4311e-05	530.02	0.0001324	5.1933e-06	472.19	216.57	7.1845e-06	4.8433e-05	213.19	84.385	89.193	38.99	4.3651e-06	36.669	0.00053287	0.00060158	0.00013759	543.98	0.00019951	5.1504e-06	480.32	222.41	4.7618e-06	0.00012544	218.73	86.266	91.938	40.677	4.7028e-06	42.17	408.135	266.221	261.075	177.070	268.630	315.003	175.403	182.673	310.488	403.781	180.137	184.526	187.327	193.106	304.733	187.386	-8191	255	
36004.504	1	1	0	0	0.076085	0.22185	0.06277	0.090043	0.077248	0.14481	0.15961	0.15192	0.039447	0.058348	0.2222	0.089662	0.095342	0.078969	0.11179	0.22889	-1.8563	-2.3063	-2.0375	-2.3312	-2.5625	-1.9292	-2.1708	-2.3896	-1.9354	-2.3229	-2.1229	-2.1854	-2.425	-2.2313	-2.2104	-2.5125	183.970	396.724	300.168	490.110	344.960	238.561	353.407	506.490	487.315	214.187	468.225	492.074	195.494	379.181	377.136	474.933	0.0012164	0.00031817	9.0574e-05	533.19	7.4282e-05	3.7683e-06	478.44	218.95	5.7719e-06	0.00011194	215.15	84.864	90.241	39.219	4.6459e-06	36.95	0.0005425	0.00052224	0.00012566	545.18	0.00010197	4.8848e-06	485.75	224.89	4.8906e-06	0.00013614	232.6	87.297	92.553	40.919	4.5162e-06	40.45	409.406	267.268	242.710	177.549	279.507	310.763	175.119	182.871	316.253	397.563	179.588	184.325	187.314	193.150	277.880	187.944	-8191	255	
36004.598	1	1	0	0	0.21703	0.11419	0.12094	0.2215	0.26525	0.089784	0.3332	0.026821	0.14238	0.14686	0.2443	0.27899	0.065052	0.080545	0.059166	0.19518	-1.5979	-2.4313	-2.0812	-1.9542	-2.3792	-2.1979	-2.1417	-2.3771	-2.1292	-2.3833	-2.2687	-2.1604	-2.5708	-2.2375	-2.1979	-2.5438	469.096	291.174	217.899	504.702	306.060	177.843	474.998	191.328	388.370	499.780	354.523	478.589	498.052	211.478	426.703	178.707	0.0013159	0.00037096	6.4927e-05	536.7	0.00013573	4.2651e-06	485.29	220.71	4.7103e-06	3.2867e-06	219.12	86.746	91.178	39.807	7.9741e-06	38.038	0.00055424	0.00048005	0.00016257	549.36	0.00019241	5.3587e-06	494.6	226.9	4.8088e-06	4.7262e-06	241.95	88.998	93.591	41.533	5.0629e-06	43.42	409.199	263.806	258.445	177.173	282.319	323.058	175.408	183.366	272.197	306.876	179.721	184.333	187.286	193.075	278.490	187.796	-8191	255	
36004.719	1	1	0	0	0.11023	0.1378	0.13059	0.20993	0.14039	0.20621	0.13266	0.057633	0.31377	0.014134	0.11984	0.24801	0.3841	0.061707	0.32597	0.18039	-1.4646	-2.3292	-2.1188	-2.0229	-2.3583	-2.2125	-2.075	-2.4292	-2.2542	-2.4917	-2.2938	-2.0646	-2.4458	-2.2146	-2.2667	-2.6083	296.095	504.480	241.566	210.775	432.426	402.169	391.800	485.124	436.283	249.906	165.208	414.307	410.405	175.396	461.320	409.537	0.0012802	0.00024632	7.1771e-05	540.26	7.2159e-05	4.0441e-06	487.92	220.94	7.4876e-06	5.1244e-06	218.35	88.501	91.356	40.129	3.5474e-06	38.466	0.0005593	0.00043094	0.00015212	553.5	9.9253e-05	5.1306e-06	500.07	227.57	4.8575e-06	4.6746e-06	262.88	90.415	93.919	41.81	4.9705e-06	41.962	407.178	218.527	254.351	177.386	288.588	315.689	175.210	183.026	288.142	302.773	180.643	184.119	186.883	193.143	294.812	188.227	-8191	255	
36004.812	1	1	0	0	0.3177	0.14815	0.2016	0.17132	0.32814	0.11489	0.14335	0.1441	0.052341	0.11986	0.17687	0.16929	0.14603	0.19652	0.18962	0.35482	-1.5417	-2.2687	-2.2271	-2.1521	-2.5	-2.2188	-2.2271	-2.5271	-2.0854	-2.3792	-2.4271	-1.7354	-2.2812	-2.2667	-2.2313	-2.55	335.969	458.272	195.156	500.432	384.768	427.373	278.197	477.628	372.705	219.202	439.571	212.555	180.710	441.086	443.418	503.126	0.0013845	0.00036094	7.973e-05	536.5	9.6254e-05	6.3685e-05	486.14	219.9	6.2275e-06	4.2503e-06	217.01	86.332	90.581	39.807	4.5873e-06	37.945	0.00056785	0.00043501	0.00018821	549.99	0.00010197	8.5482e-05	495.76	226.44	5.026e-06	4.7924e-06	242.5	88.479	92.99	41.425	5.215e-06	43.067	409.106	259.788	298.014	177.076	327.737	269.492	175.265	183.020	296.254	314.824	180.173	184.205	187.502	192.931	285.181	187.786	-8191	255	
36004.910	1	1	0	0	0.281	0.33055	0.18635	0.25033	0.18284	0.043371	0.19715	0.25402	0.060449	0.096775	0.17766	0.15441	0.03811	0.19926	0.081889	0.0659	-1.8104	-2.1375	-2.3042	-2.0979	-2.3604	-2.4396	-2.3063	-2.4479	-2.3646	-2.1667	-2.4333	-2	-2.4083	-2.3917	-2.0958	-2.35	299.015	522.329	476.650	461.972	232.699	189.609	486.989	509.158	306.017	264.177	170.124	482.228	359.622	474.898	502.619	508.782	0.0013346	0.00032935	9.752e-05	538.39	3.2508e-06	3.5644e-05	483.88	220.47	7.9169e-06	3.8588e-06	214.88	85.866	90.375	39.633	4.6394e-06	37.381	0.00058494	0.00043891	0.00015102	549.93	4.1217e-06	0.00012277	492.76	226.44	4.9971e-06	4.9102e-06	260.34	87.856	92.954	41.259	5.2055e-06	40.93	407.130	239.344	275.298	176.889	264.872	261.838	175.334	183.179	287.498	326.775	180.895	184.113	187.134	193.070	285.270	188.001	-8191	255	
36005.008	1	1	0	0	0.1848	0.16502	0.18019	0.18391	0.10514	0.27377	0.17341	0.03467	0.31398	0.38751	0.55791	0.11387	0.044709	0.15769	0.061611	0.19272	-1.6604	-2.1542	-2.3625	-2.1937	-2.4479	-2.3625	-1.9646	-2.6042	-2.1708	-2.05	-2.5958	-2.1188	-2.2521	-2.4208	-1.9833	-2.2833	249.879	237.855	405.335	225.844	412.334	398.754	188.057	200.542	437.259	318.706	400.447	194.176	338.309	496.860	290.107	382.983	0.0013507	0.00024971	4.9598e-05	537.25	5.9639e-06	0.00011911	476.89	218.54	7.7111e-06	5.013e-06	213.93	85.5	90.793	39.832	3.4408e-06	37.333	0.00057109	0.00046316	0.0001904	549.13	4.28e-06	0.00025824	488.88	225.63	4.8559e-06	5.2714e-06	241.68	87.675	92.967	41.343	5.1364e-06	40.922	407.209	241.618	237.186	177.229	283.764	322.354	175.562	182.723	292.637	313.490	180.296	184.295	187.344	192.890	282.835	188.878	-8191	255	
36005.102	1	1	0	0	0.096109	0.14236	0.30741	0.056619	0.35358	0.29925	0.075275	0.18252	0.15627	0.29746	0.07857	0.11369	0.24651	0.14856	0.35195	0.019401	-1.9208	-1.9896	-2.2833	-1.9729	-2.1271	-2.2167	-1.925	-2.5438	-2.2292	-2.0729	-2.4854	-2.1208	-1.9542	-2.4188	-2.0312	-2.4375	232.727	513.552	439.944	188.209	495.212	410.067	166.786	236.768	300.784	353.739	442.723	240.857	241.739	511.001	484.245	224.717	0.0049602	0.00033662	8.562e-05	539.25	5.0319e-06	6.1833e-05	478.44	220.46	1.1464e-05	3.412e-06	212.35	85.955	90.56	39.826	3.9391e-06	37.72	0.0054983	0.00047624	0.00015073	549.66	4.4265e-06	0.00013579	488.81	226.15	6.6209e-06	5.2568e-06	261.15	88.133	93.162	41.484	5.0664e-06	39.108	380.530	267.017	255.343	177.209	291.977	329.341	175.171	183.187	280.540	301.505	180.989	183.953	187.545	193.167	279.738	188.736	-8191	255	
36005.199	1	1	0	0	0.19178	0.24118	0.21701	0.086983	0.17301	0.15866	0.13531	0.067016	0.25241	0.021156	0.067962	0.25711	0.31735	0.19834	0.056121	0.20465	-1.8021	-2.0896	-2.3958	-2.1688	-2.1771	-2.4604	-2.0104	-2.5333	-2.2521	-2.125	-2.4917	-2.0854	-2.2271	-2.4417	-2.025	-2.4708	305.676	202.136	218.154	191.894	417.612	370.398	234.640	431.567	324.483	294.393	287.735	354.356	427.801	230.354	372.944	437.181	0.0030524	0.0004107	0.00010381	534.84	5.2774e-06	0.00011056	475.41	218.07	6.5788e-06	3.1072e-06	212.26	84.214	89.246	39.012	6.3774e-06	36.161	0.007096	0.00046082	0.00017208	547.72	4.4627e-06	0.00026504	485.95	223.88	5.7029e-06	5.0601e-06	238.16	86.097	91.711	40.726	4.8306e-06	37.712	382.967	257.344	248.727	177.072	287.368	329.111	175.172	182.879	307.324	325.727	179.875	183.894	187.260	192.885	295.470	188.778	-8191	255	
36005.320	1	1	0	0	0.084551	0.031205	0.20095	0.15416	0.086765	0.037673	0.36906	0.22257	0.081877	0.17009	0.049759	0.052529	0.063155	0.18604	0.022484	0.11025	-2.1021	-2.0646	-2.3125	-2.1167	-2.3167	-2.5354	-1.9729	-2.35	-2.3104	-2.0312	-2.4354	-2.1875	-2.225	-2.5312	-2.1312	-2.4	496.133	487.627	425.685	441.429	307.729	257.892	460.629	431.225	484.079	206.991	392.949	409.337	424.378	430.498	493.113	463.348	0.0043841	0.00018797	0.00010394	529.28	4.4154e-06	5.5512e-05	469.33	217.05	9.1936e-06	3.2961e-06	207.51	82.818	89.29	38.986	4.0962e-06	36.151	0.013136	0.00045597	0.00013762	543.58	4.3414e-06	0.00013138	477.87	223.04	6.999e-06	4.8829e-06	232.8	89.989	91.852	40.7	5.158e-06	37.669	383.760	226.426	269.675	177.340	285.688	336.610	175.229	182.864	278.627	286.918	181.258	183.556	187.217	193.144	307.914	188.812	-8191	255	
36005.414	1	1	0	0	0.40575	0.27425	0.22685	0.22315	0.21994	0.12708	0.16958	0.058285	0.23172	0.18806	0.11822	0.042034	0.11595	0.10938	0.24639	0.088298	-1.9146	-1.9854	-2.2542	-2.1562	-2.0646	-2.525	-2.0771	-2.2479	-2.4375	-2.0875	-2.4229	-2.225	-2.1042	-2.7042	-2.2583	-2.1229	514.062	270.767	283.719	288.320	436.266	440.843	447.903	228.880	479.172	456.459	350.434	223.867	260.110	170.748	263.122	395.418	0.0029232	0.0002655	9.5618e-05	530.81	5.2016e-06	0.00010253	469.61	217.18	8.497e-06	3.7661e-06	214.93	83.349	89.384	39.122	6.2914e-06	36.249	0.0068497	0.00044861	0.00011613	544.87	4.3698e-06	0.00025683	479.99	223.24	5.5461e-06	4.7671e-06	219.54	90.827	91.877	40.571	5.4196e-06	37.615	393.875	250.924	251.440	177.065	284.893	347.486	175.229	182.965	274.275	294.328	179.835	184.017	187.387	192.957	303.124	188.787	-8191	255	
36005.512	1	1	0	0	0.059518	0.094251	0.03977	0.22342	0.3979	0.068367	0.1809	0.1767	0.21323	0.061541	0.12282	0.053433	0.19939	0.21514	0.22131	0.28541	-1.8167	-2.0062	-2.3896	-2.1854	-2.0854	-2.2479	-2.175	-2.1792	-2.2708	-2.0396	-2.1708	-2.4583	-2.0917	-2.4417	-2.3625	-2.1479	481.979	253.541	228.707	315.016	316.993	367.204	213.066	428.106	315.589	473.981	441.357	338.526	502.570	511.904	328.352	248.436	0.0045083	0.00043612	8.937e-05	536.41	5.1521e-06	4.9175e-05	475.99	218.96	8.8964e-06	3.7851e-06	213.45	82.636	89.525	38.725	5.9119e-06	36.514	0.012788	0.00044263	0.0001204	548.18	4.5627e-06	0.00012488	485.34	224.47	6.5697e-06	4.7963e-06	220.69	95.721	92.009	40.397	5.132e-06	37.852	394.809	268.564	256.334	176.874	271.000	365.299	175.008	182.949	300.022	296.847	179.751	184.004	187.175	193.004	284.623	188.865	-8191	255	
36005.633	1	1	0	0	0.070673	0.083428	0.25987	0.17176	0.11101	0.20236	0.32115	0.036007	0.23305	0.25569	0.20506	0.04521	0.13494	0.21287	0.18318	0.17543	-1.9271	-2.2375	-2.2562	-2.3375	-2.1458	-2.4125	-2.3125	-2.0187	-2.4604	-2.0729	-2.2667	-2.2792	-2.0229	-2.3625	-2.1646	-2.0563	395.274	385.704	190.934	240.849	491.604	501.374	438.368	396.270	429.507	368.494	249.235	347.640	449.198	470.822	246.688	169.203	0.0030038	0.00031258	7.4359e-05	536.91	4.9564e-06	9.6014e-05	482.18	219.22	6.1701e-06	1.816e-06	215.67	83.775	89.483	38.668	5.9921e-06	36.147	0.0065702	0.0004642	0.00012203	551.03	4.4462e-06	9.5085e-05	513.98	225.12	5.4825e-06	4.9121e-06	221.69	91.14	91.857	40.273	6.5822e-06	37.586	398.316	236.039	249.285	176.935	291.520	367.156	175.559	182.879	289.117	330.915	180.411	184.156	187.209	193.075	289.337	188.525	-8191	255	
36005.703	1	1	0	0	0.088093	0.22142	0.12775	0.12153	0.02391	0.16746	0.067456	0.34612	0.3614	0.16327	0.111	0.15444	0.082408	0.13314	0.14284	0.14395	-2.0187	-2.2583	-2.1271	-2.3208	-1.9167	-2.25	-2.3208	-2.3292	-2.3417	-2.2167	-2.2146	-2.2854	-1.9813	-2.3438	-2.4229	-2.1396	218.507	435.680	328.974	502.209	288.405	365.856	379.110	258.627	519.400	460.399	444.593	511.766	268.916	491.869	198.485	480.024	0.0043103	0.00035031	9.3877e-05	533.12	4.1413e-06	4.2633e-06	465.48	215.96	8.0858e-06	4.4235e-06	210.51	81.26	88.889	38.593	5.4745e-06	35.747	0.012424	0.00048031	0.00012319	544.94	4.3824e-06	4.6636e-06	502.07	222.68	6.1636e-06	5.1516e-06	215.61	94.205	91.237	40.204	5.8774e-06	37.011	402.220	259.199	233.147	177.093	287.098	306.903	175.592	183.056	278.063	304.299	180.201	183.543	187.169	192.897	303.462	188.679	-8191	255	
36005.801	1	1	0	0	0.081728	0.13561	0.13216	0.34966	0.067284	0.28976	0.072737	0.2884	0.17063	0.040678	0.22779	0.11112	0.18122	0.2576	0.24852	0.19204	-1.9646	-2.1437	-2.3187	-2.4896	-2.0167	-2.3771	-2.4062	-1.9833	-2.4792	-2.1188	-2.175	-2.55	-2.1063	-2.275	-2.2604	-2.2583	259.864	483.554	507.069	174.823	322.043	514.082	395.727	198.021	170.950	357.038	199.035	501.900	223.858	421.233	245.465	279.451	0.001642	0.00040723	9.9618e-05	530.21	3.618e-06	3.8348e-06	461.72	216.04	6.2525e-06	3.5208e-06	210.8	81.676	88.819	38.403	4.3509e-06	35.698	0.0062806	0.00045788	0.00012232	542.37	4.2178e-06	4.6596e-06	526.65	221.99	4.7965e-06	4.9628e-06	215.71	89.136	90.994	40.05	7.1773e-06	36.929	429.912	256.637	250.780	177.275	272.580	322.949	176.179	183.080	294.444	339.441	180.017	184.042	187.444	193.141	327.272	188.936	-8191	255	
36005.895	1	1	0	0	0.29753	0.18456	0.3079	0.30085	0.081071	0.067502	0.2034	0.070443	0.063297	0.23976	0.23047	0.10433	0.14345	0.13357	0.27694	0.19703	-2.0687	-2.2625	-2.2083	-2.4125	-2.0167	-2.4042	-2.5396	-2.1396	-2.3521	-2.1875	-2.2625	-2.4396	-2.0833	-2.1542	-2.3208	-2.0312	413.424	436.179	247.708	454.646	376.747	277.829	492.810	392.846	442.233	483.169	482.638	244.467	297.541	482.578	337.949	180.950	0.0018886	0.0089317	0.0001148	531.01	2.9569e-06	2.4685e-06	465.02	215.59	7.6257e-06	4.2151e-06	209.55	80.873	88.864	38.49	6.1151e-06	35.838	0.00465	0.011748	0.00012607	543.8	4.4714e-06	4.6567e-06	502.44	221.64	4.458e-06	7.1599e-06	215.44	94.691	91.182	40.168	6.0631e-06	37.224	444.735	186.718	248.242	176.964	256.282	318.910	175.735	183.227	307.637	308.000	180.138	183.622	187.565	192.960	313.481	188.897	-8191	255	
36006.016	1	1	0	0	0.22893	0.14808	0.16835	0.15039	0.36781	0.22406	0.19322	0.17639	0.1913	0.15271	0.22478	0.20505	0.2248	0.2413	0.10931	0.047492	-1.9375	-2.15	-2.0438	-2.2562	-2.1396	-2.1979	-2.4417	-2.0583	-2.4313	-2.4375	-2.1458	-2.4208	-2.0875	-2.4625	-2.425	-1.9833	316.024	305.335	467.587	323.996	328.610	281.563	265.357	434.985	339.087	420.812	175.094	331.137	231.176	514.818	239.561	471.228	0.001208	0.0047124	9.1257e-05	530.5	4.4131e-06	3.6721e-06	459.84	215.7	6.7944e-06	3.2441e-06	211.47	82.339	88.515	38.431	3.4745e-06	35.793	0.00052398	0.011776	0.00012998	543.22	4.9037e-06	4.9865e-06	529.73	221.55	4.6157e-06	5.9051e-06	216.63	89.456	91.01	40.17	6.5589e-06	37.218	410.568	205.595	237.668	177.244	275.223	302.585	176.119	182.775	290.485	305.741	180.000	184.385	187.245	192.980	335.137	188.586	-8191	255	
36006.109	1	1	0	0	0.18932	0.24094	0.15134	0.16264	0.25347	0.39481	0.1574	0.2385	0.063963	0.18209	0.1936	0.067574	0.12628	0.15934	0.1836	0.073779	-1.8	-2.1188	-2.0021	-2.3458	-2.3875	-2.1979	-2.5729	-2.2896	-2.2583	-2.4333	-1.8479	-2.5375	-2.3292	-2.1833	-2.6354	-2.2646	512.710	431.487	392.732	446.896	253.998	177.281	405.079	182.396	317.048	451.366	302.996	279.376	311.199	223.855	412.590	296.745	0.0012134	0.0092851	5.9317e-05	532.81	4.9568e-06	4.1837e-06	461.45	215.21	7.4215e-06	5.0528e-06	207.58	80.737	87.149	38.174	5.7283e-06	34.949	0.00052148	0.022391	0.00011478	543.51	4.6194e-06	4.8453e-06	499.64	221.17	4.4993e-06	7.2105e-06	213.71	86.52	96.796	39.705	5.3972e-06	36.381	408.624	214.819	260.294	177.044	268.827	331.627	175.780	182.843	298.848	318.109	179.934	184.415	186.296	193.154	292.166	188.904	-8191	255	
36006.207	1	1	0	0	0.080899	0.20201	0.17956	0.080733	0.13496	0.065136	0.17227	0.29489	0.10396	0.03895	0.23879	0.13076	0.12208	0.22222	0.36602	0.13179	-1.8396	-2.4333	-1.9542	-2.4062	-2.1375	-2.125	-2.4521	-2.1542	-2.3187	-2.45	-2.0458	-2.4813	-2.2417	-2.1292	-2.475	-2.2333	434.930	201.678	383.930	380.811	352.220	430.705	325.992	299.218	296.251	394.007	342.283	166.914	389.675	245.261	482.270	509.755	0.0012088	0.0046926	9.3933e-05	529.05	6.3216e-06	3.7547e-06	455.54	214.58	8.4269e-06	5.0334e-06	206.31	81.304	87.079	38.289	5.5761e-06	35.233	0.00053464	0.011215	0.00011836	541.33	6.3747e-06	4.949e-06	521.23	220.98	4.557e-06	5.9771e-06	213.18	83.661	96.342	39.917	6.1175e-06	36.727	409.971	225.450	265.049	177.171	242.495	326.273	176.386	183.139	315.369	312.487	180.271	184.225	186.944	193.148	280.227	188.758	-8191	255	
36006.277	1	1	0	0	0.10382	0.085434	0.17504	0.26916	0.15463	0.2173	0.14585	0.065226	0.10717	0.18269	0.11642	0.030234	0.05848	0.1013	0.14022	0.14189	-1.8646	-2.2333	-2.1583	-2.5875	-2.2812	-2.1917	-2.4979	-2.1333	-2.2812	-2.3208	-2.1583	-2.3312	-2.3604	-2.0104	-2.4688	-2.2917	247.812	481.070	280.261	172.791	389.936	242.268	477.881	426.412	188.424	332.368	455.285	278.635	314.407	520.541	317.587	174.098	0.0012002	0.0095936	9.7884e-05	531.02	3.6651e-06	3.8295e-06	463.16	216.12	8.9562e-06	4.3709e-06	208.7	82.598	87.483	38.685	5.0045e-06	35.918	0.00052958	0.021703	0.00011987	542.57	5.314e-06	4.8255e-06	496.3	222.2	4.6446e-06	6.7647e-06	215.12	84.627	102.51	40.235	5.0085e-06	37.187	409.611	227.764	253.199	177.457	294.689	331.754	175.871	183.018	299.049	330.384	180.204	184.526	186.260	193.026	289.897	188.662	-8191	255	
36006.398	1	1	0	0	0.34803	0.18505	0.24108	0.36633	0.18989	0.18739	0.14461	0.16873	0.29445	0.054167	0.13766	0.1555	0.079569	0.040964	0.46106	0.33904	-1.4667	-2.3146	-2.0229	-2.3542	-2.5521	-2.0375	-2.525	-2.2542	-2.0083	-2.4875	-2.1542	-2.3125	-2.4083	-2.1437	-2.4333	-2.1667	223.574	352.816	255.002	496.472	371.950	505.276	476.768	448.718	440.959	357.866	177.177	489.410	433.795	281.535	524.092	492.550	0.0012854	0.0049707	9.4934e-05	533.01	4.5743e-06	3.9288e-06	461.45	216.4	8.9548e-06	4.658e-06	213.09	83.364	88.709	38.708	5.5043e-06	36.546	0.00054157	0.010955	0.00012688	544.43	6.2818e-06	5.0487e-06	491.32	234.59	4.7263e-06	5.4787e-06	218.47	85.864	97.65	40.602	4.7209e-06	37.902	407.996	231.219	242.292	177.138	260.557	291.220	176.402	182.687	309.584	316.236	179.770	184.468	186.941	193.119	281.550	188.709	-8191	255	
36006.496	1	1	0	0	0.13243	0.25688	0.11804	0.18385	0.16648	0.16242	0.35271	0.28867	0.1919	0.032919	0.29917	0.068931	0.16945	0.1556	0.20472	0.13349	-1.6354	-2.4667	-1.8792	-2.2479	-2.2771	-1.95	-2.4771	-2.4479	-2.0062	-2.7646	-2.3021	-2.2604	-2.4313	-2.2875	-2.5625	-2.3521	210.367	173.576	471.262	356.412	235.214	475.898	507.990	495.853	173.331	428.331	510.268	459.176	232.379	445.970	233.293	210.299	0.0012614	0.0094933	9.293e-05	536.14	5.0627e-06	2.4699e-06	474.47	217.02	9.5942e-06	3.803e-06	212.77	83.721	88.407	39.011	4.1873e-06	36.463	0.00054525	0.021115	0.00013183	547.51	5.2541e-06	5.0724e-06	483.52	232.94	4.5612e-06	6.7773e-06	218.54	86.249	102.97	40.639	4.7589e-06	37.761	409.273	238.052	273.160	177.360	274.353	302.236	175.393	183.353	292.234	327.661	179.763	184.453	186.175	193.002	278.496	188.580	-8191	255	
36006.594	1	1	0	0	0.25589	0.15469	0.13318	0.19907	0.08278	0.039704	0.1343	0.16275	0.10114	0.058472	0.20602	0.24432	0.044988	0.20891	0.1589	0.13782	-1.6	-2.3312	-2.2	-2.3104	-2.4375	-2.1875	-2.4833	-2.325	-1.9104	-2.5104	-2.2458	-2.2	-2.6854	-2.1937	-2.2771	-2.2188	521.244	304.128	521.352	428.291	409.945	223.628	472.586	500.178	295.856	428.508	379.580	407.580	460.158	200.325	217.811	511.014	0.0012581	0.0031776	0.00086539	531.6	4.6409e-06	2.9812e-06	467.55	213.46	8.0829e-06	4.1261e-06	209.44	82.077	87.799	38.286	4.9969e-06	35.376	0.00053818	0.0087875	0.00022174	543.25	5.8266e-06	4.9667e-06	476.71	239.85	4.619e-06	4.9939e-06	215.39	84.437	96.029	39.992	4.8444e-06	36.886	407.237	276.082	204.285	177.238	276.414	291.341	175.456	183.115	302.801	323.626	180.121	183.979	186.507	193.141	316.763	188.841	-8191	255	
36006.711	1	1	0	0	0.20304	0.24608	0.2478	0.19885	0.14798	0.28742	0.28206	0.25541	0.23925	0.32417	0.11761	0.26598	0.18442	0.40549	0.14729	0.13834	-1.6104	-2.4875	-2.2729	-1.9667	-2.3167	-2.1271	-2.3312	-2.35	-1.9188	-2.3167	-2.35	-2.2083	-2.4583	-2.3104	-2.2542	-2.3833	307.915	265.568	331.045	435.243	290.365	298.920	363.164	169.409	489.477	365.137	168.641	192.420	389.918	169.859	208.939	428.530	0.0012989	0.0058608	0.0011407	536.84	5.1694e-06	2.9831e-06	471.62	214.67	6.2409e-06	2.7556e-06	209.24	81.85	87.615	37.844	5.4625e-06	35.148	0.00053941	0.0039167	0.003351	548.22	4.5761e-06	4.8561e-06	480.86	230.11	4.4538e-06	4.7389e-06	215.69	83.855	99.425	39.538	5.0077e-06	36.665	409.956	284.504	218.097	177.300	287.210	318.518	175.629	183.180	296.685	328.630	180.225	184.194	186.229	192.999	289.570	188.884	-8191	255	
36006.809	1	1	0	0	0.21957	0.14965	0.14149	0.17587	0.19724	0.10371	0.25282	0.22143	0.18438	0.13765	0.080475	0.36103	0.1138	0.14699	0.11936	0.27851	-1.5375	-2.0187	-2.2229	-1.9875	-2.4792	-2.1208	-2.3396	-2.3146	-1.9021	-2.4021	-2.3792	-1.9875	-2.4313	-2.1042	-2.1437	-2.3312	266.074	300.234	477.934	463.214	206.774	217.540	446.879	225.455	401.656	523.063	277.841	262.450	219.267	507.116	441.609	508.181	0.0012384	0.00039181	0.0011	537.57	2.1478e-06	3.932e-06	475.98	213.55	6.945e-06	4.6686e-06	211.35	82.568	87.823	38.052	4.3834e-06	35.36	0.00053233	0.00043579	0.0024776	550.12	5.3604e-06	5.102e-06	485.02	237.6	4.5736e-06	4.6581e-06	216.97	84.491	94.023	39.72	4.9066e-06	36.965	409.468	254.794	252.243	177.392	280.381	282.014	175.348	183.195	291.852	330.150	180.104	184.214	187.428	192.710	295.229	188.746	-8191	255	
36006.902	1	1	0	0	0.16454	0.14094	0.21137	0.24946	0.24374	0.14453	0.27809	0.3346	0.18311	0.099083	0.25454	0.030099	0.11245	0.1645	0.079361	0.11577	-1.6167	-2.3396	-2.1229	-2.0062	-2.4833	-2.0979	-2.1958	-2.5792	-1.9979	-2.2875	-2.2396	-2.0021	-2.4	-2.3812	-2.1979	-2.6146	169.979	334.081	231.164	277.020	358.527	488.423	475.708	474.185	175.578	273.865	315.081	210.922	426.647	176.183	455.968	346.563	0.0012739	0.00034086	0.0019752	541.45	5.5258e-06	3.8867e-06	478.26	216.23	6.3691e-06	3.0711e-06	211.68	83.032	88.013	38.125	6.7099e-06	35.661	0.00053695	0.00044644	0.0046635	553.9	4.1879e-06	5.4002e-06	489.48	231.47	4.5934e-06	4.8031e-06	218.49	85.113	91.917	41.096	5.0016e-06	36.94	408.337	243.894	256.925	177.166	271.905	307.526	174.830	183.138	304.719	319.686	179.857	183.975	187.307	192.470	303.085	188.615	-8191	255	
36007.000	1	1	0	0	0.16784	0.32988	0.2373	0.13137	0.086878	0.1532	0.079763	0.16002	0.17676	0.15195	0.21131	0.11507	0.18065	0.11213	0.12982	0.1256	-1.6083	-2.4417	-2.2896	-2.0729	-2.3438	-2.2313	-2.2604	-2.5938	-2.3208	-2.2583	-2.675	-1.9729	-2.3438	-2.3187	-2.05	-2.3604	486.166	170.964	309.624	428.574	245.834	435.271	410.777	426.950	346.874	255.511	482.744	177.279	499.094	501.117	231.670	356.132	0.001209	0.00029624	0.0010009	539.08	4.8469e-06	4.8684e-06	471.88	212.25	7.4099e-06	2.8567e-06	207.5	80.81	87.674	37.536	4.2158e-06	34.423	0.00053499	0.00042375	0.0024145	550.61	3.9564e-06	6.6523e-06	481.51	236.04	4.9261e-06	4.662e-06	213.42	82.818	89.698	40.24	4.5085e-06	35.942	409.899	275.214	267.738	177.156	278.369	295.095	174.981	182.731	288.981	305.024	180.144	184.384	187.011	192.698	309.179	188.635	-8191	255	
36007.094	1	1	0	0	0.15458	0.036291	0.18843	0.32756	0.33212	0.23437	0.15869	0.36225	0.28568	0.10988	0.25053	0.14747	0.2401	0.073399	0.26297	0.096729	-1.6208	-2.1521	-2.2958	-2.0687	-2.4521	-2.4562	-2.0396	-2.4813	-2.1646	-2.1833	-2.4479	-2.1396	-2.3396	-2.5229	-2.0354	-2.5104	438.153	429.710	342.163	500.440	391.780	176.616	431.880	180.670	435.325	241.378	180.334	465.560	473.682	505.773	180.899	260.404	0.0012331	0.00031831	0.0020552	536.83	5.5896e-06	4.4079e-06	468.65	214.71	4.1303e-05	4.2227e-06	206.79	80.957	87.907	37.918	4.6457e-06	34.899	0.00054496	0.00041388	0.0047027	548.46	4.0453e-06	5.6086e-06	476.87	226.78	1.4279e-05	4.8012e-06	212.75	83.16	90.246	41.706	4.6717e-06	36.271	407.440	277.858	274.846	177.270	268.149	293.641	175.318	183.515	175.934	302.187	180.691	184.321	187.655	192.445	283.551	188.592	-8191	255	
36007.191	1	1	0	0	0.17804	0.15018	0.12697	0.039212	0.36345	0.049867	0.38765	0.29681	0.25433	0.1893	0.17055	0.17841	0.083722	0.19523	0.15513	0.22478	-1.5708	-2	-2.4958	-1.9958	-2.0854	-2.1521	-2.05	-2.3104	-2.0333	-2.1521	-2.4437	-2.0667	-2.2917	-2.1792	-2.1667	-2.3729	226.422	268.175	240.838	177.654	484.136	236.970	512.868	466.586	313.672	284.453	377.553	422.380	461.655	454.042	177.335	380.320	0.0011571	0.00023934	0.0010901	533.84	4.5755e-06	4.5048e-06	470.24	212.88	9.8965e-05	3.9353e-06	208.83	81.566	88.199	37.871	3.8201e-06	34.903	0.00054908	0.00042046	0.0024312	546.35	4.3942e-06	6.6661e-06	477.95	222.59	0.0001207	4.6853e-06	213.81	83.627	90.62	40.598	4.7909e-06	36.434	408.283	234.390	281.320	177.438	303.766	299.277	175.322	183.515	175.297	316.457	180.185	184.447	187.309	192.890	300.465	188.964	-8191	255	
36007.312	1	1	0	0	0.12504	0.076006	0.071176	0.1781	0.1726	0.21211	0.21142	0.14299	0.26436	0.20668	0.075206	0.17194	0.4139	0.076395	0.19485	0.47493	-1.75	-2.0938	-2.425	-2.1937	-2.05	-2.5	-2.0292	-2.4979	-2.2062	-1.9083	-2.5125	-2.1042	-2.2771	-2.3917	-2.0479	-2.4188	248.541	171.347	318.288	339.187	371.385	346.927	197.398	334.251	234.252	317.875	398.782	514.941	500.295	381.503	296.138	307.058	0.0012007	0.00020668	0.0020106	535.2	5.091e-06	4.4287e-06	468.05	215.56	6.1311e-05	4.7405e-06	207.89	81.722	88.367	38.193	7.1673e-06	35.264	0.00062188	0.00044324	0.0045933	547.68	4.4036e-06	5.7122e-06	479.5	221.2	8.261e-05	4.8216e-06	213.82	83.992	90.795	41.913	4.8617e-06	36.703	409.167	245.621	283.552	176.807	277.509	305.338	175.494	182.943	475.981	333.683	180.040	184.096	187.428	192.363	302.795	188.619	-8191	255	
36007.406	1	1	0	0	0.073563	0.13471	0.2782	0.10789	0.089853	0.15414	0.12783	0.18084	0.1788	0.20079	0.12256	0.19328	0.077772	0.2788	0.27366	0.14409	-1.6146	-1.7521	-2.3979	-2.0646	-2.2396	-2.4396	-1.9542	-2.2979	-2.2917	-1.9562	-2.3979	-2.2104	-2.1937	-2.5375	-2.0146	-2.3875	506.569	169.092	341.181	362.827	309.321	408.717	378.791	473.023	334.172	518.491	166.654	458.940	508.117	478.795	268.672	434.030	0.0012359	0.00032477	0.0010063	537.84	5.0228e-06	2.4294e-06	469.21	214.84	0.00011981	4.2218e-06	206.79	80.892	88.019	37.872	4.423e-06	34.5	0.00056367	0.00043969	0.001664	550.74	4.3603e-06	6.1605e-06	480.05	221.12	0.00016037	4.809e-06	211.88	83.055	90.402	40.527	5.183e-06	35.901	407.635	244.244	310.627	177.081	272.169	296.713	175.423	183.080	472.122	313.750	179.781	184.188	187.360	192.867	283.623	188.761	-8191	255	
36007.504	1	1	0	0	0.13247	0.13819	0.096355	0.27673	0.10692	0.43048	0.1626	0.19366	0.31533	0.091737	0.079559	0.18638	0.10402	0.073949	0.10038	0.10361	-1.7188	-1.8771	-2.2354	-2.2292	-2.0583	-2.3479	-2.2	-2.3896	-2.2104	-2.0333	-2.3438	-2.275	-2.1521	-2.5896	-2.0354	-2.2687	221.582	263.526	257.008	298.110	305.777	216.375	473.549	440.750	406.913	349.601	219.365	263.480	463.464	185.982	488.545	351.475	0.0011861	0.00034606	0.0022112	533.5	4.1661e-06	2.4248e-06	461.5	213.22	5.4777e-05	2.2442e-06	204.32	80.694	87.49	37.99	5.8362e-06	34.491	0.00062395	0.00041864	0.00040179	570.35	4.2761e-06	5.3943e-06	470.41	219.64	8.6665e-05	4.4848e-06	209.71	82.74	90.252	41.919	5.4974e-06	35.947	406.086	248.755	308.793	177.123	269.619	336.600	175.154	182.795	484.246	312.781	179.623	183.883	187.185	192.390	293.737	188.433	-8191	255	
36007.574	1	1	0	0	0.28416	0.29735	0.1758	0.15654	0.19539	0.26257	0.29067	0.30066	0.10097	0.28367	0.10481	0.033684	0.23823	0.027963	0.23382	0.234	-1.9562	-1.8667	-2.2375	-2.3792	-2.0729	-2.2396	-2.1417	-2.2438	-2.4375	-2.075	-2.3479	-2.2896	-2.0062	-2.5312	-2.0229	-2.3354	189.896	193.639	301.836	394.209	468.745	514.531	349.174	431.554	481.174	485.590	171.930	457.925	327.817	290.901	396.271	505.348	0.0011779	0.00038028	9.5076e-05	533.99	3.6974e-06	2.8446e-06	459.91	213.81	0.00014421	3.4846e-06	205.74	81.505	88.787	38.365	5.1881e-05	35.242	0.00056917	0.00045208	0.00011937	563.19	4.0217e-06	6.1823e-06	470.99	220.46	0.00018406	4.6337e-06	211.15	83.586	90.956	40.713	2.5037e-05	36.638	406.939	250.392	287.575	177.608	285.661	322.829	175.367	183.087	493.217	310.626	180.200	184.387	187.175	193.089	240.053	188.645	-8191	255	
36007.695	1	1	0	0	0.030213	0.065378	0.083388	0.29928	0.07369	0.13762	0.22943	0.24476	0.23508	0.09174	0.096938	0.11857	0.052129	0.35393	0.091329	0.19121	-1.9667	-1.85	-2.1562	-2.3833	-1.8896	-2.2417	-2.1771	-2.3312	-2.4375	-2.1	-2.3458	-2.2417	-1.8188	-2.3125	-2.275	-2.0938	494.271	412.297	283.905	478.869	406.557	207.057	465.532	431.979	442.695	286.859	441.473	521.812	523.799	190.467	455.108	441.032	0.0012495	0.00028992	6.4095e-05	532.25	4.0783e-06	4.1121e-06	468.1	215.87	7.1735e-05	4.0488e-06	209.16	82.916	89.705	38.816	9.7616e-05	36.006	0.00060327	0.00048664	0.00011589	583.51	4.2863e-06	5.104e-06	476.72	221.36	9.3559e-05	5.0903e-06	214.63	85.351	91.94	40.468	0.00015481	37.377	406.278	241.667	258.301	177.740	286.690	312.784	175.426	182.954	497.933	309.456	180.087	184.273	187.251	193.047	239.396	188.519	-8191	255	
36007.793	1	1	0	0	0.17009	0.15953	0.26693	0.035222	0.17658	0.082956	0.08394	0.026634	0.11024	0.25406	0.098677	0.1771	0.11644	0.062949	0.10261	0.24327	-1.9896	-1.9542	-2.2021	-2.3937	-1.9146	-2.3146	-2.275	-2.1646	-2.35	-1.9396	-1.9292	-2.3396	-1.8937	-2.3354	-2.2083	-1.9708	506.755	463.917	348.640	377.879	281.612	358.403	384.631	281.460	202.346	237.425	318.480	517.933	169.816	402.541	490.903	211.417	0.001179	0.00030637	0.00011364	535.81	4.9953e-06	3.8185e-06	473.91	216.52	0.00013256	1.3372e-06	210.57	84.159	90.311	39.166	5.9675e-05	36.264	0.00054899	0.00046689	0.00012103	566.07	4.5336e-06	4.9776e-06	483.17	222.42	0.00017604	5.4378e-06	216.23	86.608	92.625	40.75	9.4342e-05	37.691	409.671	254.542	252.407	177.608	280.132	307.982	175.283	182.965	505.259	312.770	180.010	184.148	187.458	192.826	256.090	188.835	-8191	255	
36007.891	1	1	0	0	0.14771	0.40136	0.12233	0.34272	0.22979	0.25988	0.14299	0.23458	0.19731	0.045494	0.18791	0.18104	0.11406	0.14484	0.15157	0.12107	-1.7167	-2.0625	-1.9188	-2.3625	-1.8771	-2.2917	-2.2604	-1.9979	-2.325	-2.0979	-2.0896	-2.4292	-2.0542	-2.2042	-2.4729	-2.0208	283.181	419.155	225.124	468.672	288.157	517.502	275.206	406.647	515.468	459.686	178.707	501.350	513.716	437.752	330.592	506.950	0.0012471	0.00038059	7.9686e-05	533.94	4.6797e-06	3.5826e-06	467.35	216.35	4.165e-05	4.183e-05	208.36	83.241	89.755	38.894	0.00010041	35.838	0.00061727	0.00048135	0.00012223	581.45	4.5682e-06	4.8897e-06	477.5	221.91	5.4599e-05	3.0108e-05	214.06	85.437	92.13	40.556	0.00017952	37.243	407.858	266.265	256.296	177.584	283.262	321.085	175.112	183.071	427.625	193.417	179.871	183.983	187.117	192.964	272.526	188.510	-8191	255	
36007.984	1	1	0	0	0.32955	0.13442	0.16841	0.098185	0.23135	0.075265	0.2619	0.26256	0.19476	0.19653	0.10573	0.099493	0.18967	0.19677	0.07621	0.097533	-1.9146	-2.0229	-1.8792	-2.3542	-1.9729	-2.4458	-2.3146	-1.9438	-2.3187	-2.2188	-2.1333	-2.5812	-2.0646	-2.3542	-2.3104	-2.0333	413.942	403.672	312.883	262.742	220.388	399.056	422.689	343.598	190.564	251.294	264.894	424.384	523.045	408.584	310.597	306.585	0.0012849	0.00048298	7.6074e-05	530.78	5.5932e-06	2.4244e-06	467.32	215.9	8.4645e-06	8.8598e-05	208.81	83.651	89.768	39.34	5.53e-05	36.32	0.00054304	0.00050552	0.00012364	561.26	4.7832e-06	4.8907e-06	478.3	221.36	4.5678e-06	0.00017477	214.68	85.907	92.6	40.991	9.1697e-05	37.752	407.792	228.802	246.713	177.727	285.822	311.349	175.272	182.889	298.326	199.633	180.298	184.170	187.248	192.968	283.538	188.795	-8191	255	
36008.105	1	1	0	0	0.075642	0.17445	0.13756	0.07474	0.31652	0.19655	0.032241	0.0054578	0.1866	0.20953	0.20005	0.1038	0.20041	0.25932	0.3753	0.17389	-1.8771	-2.3042	-2.0875	-2.4333	-2.0875	-2.2333	-2.5083	-2.2083	-2.6333	-2.3208	-2.0771	-2.575	-2.0667	-2.2167	-2.5	-2.1646	334.891	354.591	388.871	397.585	322.508	510.080	383.479	184.994	285.372	253.502	433.802	507.112	512.323	406.948	446.801	448.163	0.0013224	0.00023976	0.00010912	529.54	5.5939e-06	3.2044e-06	472.21	215.48	8.3997e-06	4.4017e-05	211.18	85.316	90.306	39.647	0.00010401	36.87	0.00053877	0.00062125	0.00011874	579.63	4.7431e-06	5.0556e-06	480.98	221.39	4.5612e-06	0.00010335	216.73	87.389	92.853	41.283	0.00017747	38.351	408.722	257.372	232.112	177.871	282.978	309.767	175.327	182.816	289.918	168.839	180.117	184.251	187.262	193.027	280.981	188.505	-8191	255	
36008.176	1	1	0	0	0.25629	0.132	0.24231	0.20867	0.29006	0.24315	0.10631	0.136	0.17739	0.10063	0.14068	0.1485	0.12197	0.17605	0.10182	0.18697	-1.9937	-2.15	-1.8896	-2.4437	-2.1063	-2.0938	-2.3208	-2.2604	-2.1896	-2.1521	-2.075	-2.3312	-2.2146	-2.2375	-2.4938	-2.0042	489.596	170.120	254.302	518.828	463.723	395.021	310.925	339.329	306.570	258.226	411.415	258.444	224.228	468.765	359.090	505.233	0.0013124	0.00027418	3.9048e-05	534.9	1.2251e-05	3.4338e-06	477.57	217.14	6.5646e-06	8.935e-05	211.5	85.47	90.726	39.572	4.8464e-05	36.862	0.00056544	0.00051427	0.00011841	556.53	2.8497e-05	5.1079e-06	486.28	223.51	4.7354e-06	0.00020003	218.61	87.797	93.262	41.309	9.1274e-05	38.394	408.849	229.841	264.745	177.486	502.441	297.294	175.547	183.007	296.227	173.393	179.840	184.095	187.209	192.977	285.281	188.822	-8191	255	
36008.273	1	1	0	0	0.079822	0.14474	0.13909	0.21325	0.13441	0.17124	0.16609	0.089542	0.11268	0.10334	0.17145	0.18382	0.23755	0.17065	0.1375	0.25415	-1.9979	-2.3167	-1.8854	-2.3604	-2.1521	-2.2854	-2.4521	-2.1188	-2.2021	-2.3479	-1.95	-2.2958	-2.1625	-2.1583	-2.4583	-2.05	495.221	263.036	214.503	454.001	436.696	330.284	433.864	253.679	403.318	189.000	524.170	196.051	464.683	429.591	288.784	386.133	0.0013503	0.00039109	9.9611e-05	537.39	2.8966e-05	3.7165e-06	477.69	217.25	8.8958e-06	4.1258e-05	210.76	83.999	89.999	39.207	0.00010055	36.324	0.00053494	0.00062203	0.00011829	548.13	0.00014928	4.7495e-06	487.1	222.95	4.723e-06	0.00010315	216.7	86.303	92.425	40.801	0.00017933	37.798	409.665	231.512	240.489	177.208	495.116	298.974	175.648	183.015	309.335	190.709	180.107	184.067	187.300	192.969	295.785	188.537	-8191	255	
36008.391	1	1	0	0	0.15286	0.19445	0.046239	0.09801	0.10149	0.36797	0.027051	0.090046	0.61171	0.28965	0.31083	0.23968	0.18316	0.24576	0.092693	0.10117	-2.0083	-2.2458	-1.9917	-2.3875	-2.275	-2.1063	-2.4604	-2.1125	-2.2125	-2.4646	-2.1104	-2.3854	-2.4542	-2.1688	-2.4396	-2.2354	448.407	202.501	449.272	424.861	339.228	351.900	319.567	248.498	362.955	364.207	461.814	475.116	443.510	375.226	463.936	494.635	0.0013563	0.00035748	0.00011371	529.21	5.1667e-05	3.5678e-06	468.78	215.73	7.6978e-06	8.0122e-05	210.44	84.673	90.492	39.785	3.8153e-05	37.471	0.0005512	0.00052189	0.00012211	542.45	8.6014e-05	4.9934e-06	478.5	221.86	4.5207e-06	0.00020691	215.9	86.77	92.806	41.469	5.1917e-05	39.319	409.092	244.314	255.649	177.454	390.087	318.272	175.325	183.293	296.770	187.781	180.870	183.959	187.208	192.960	334.409	188.518	-8191	255	
36008.488	1	1	0	0	0.20044	0.20749	0.29143	0.12838	0.12744	0.12549	0.18516	0.094764	0.10121	0.11398	0.23309	0.062338	0.28527	0.15922	0.38648	0.27919	-1.7021	-2.2583	-2.0479	-2.2687	-2.3792	-2.0563	-2.3771	-2.2271	-2.125	-2.5292	-2.3187	-2.2938	-2.25	-2.0833	-2.3312	-2.2604	272.248	353.839	269.917	291.307	451.743	446.847	221.723	356.689	388.912	196.783	491.542	460.457	227.474	407.905	234.712	427.951	0.0012721	0.00034967	9.5725e-05	528.7	0.00011803	4.3817e-06	468.36	216.96	8.803e-06	4.924e-05	211.68	86.123	91.889	40.491	6.2519e-06	38.049	0.00055242	0.00059344	0.00013668	542.4	0.00017797	4.7021e-06	478.79	222.54	4.5843e-06	0.00011028	218.13	87.992	94.029	42.026	5.0154e-06	42.37	409.481	230.273	217.993	177.217	403.762	306.915	175.024	183.126	281.867	197.398	179.949	184.193	187.167	192.908	295.574	188.466	-8191	255	
36008.586	1	1	0	0	0.096065	0.15797	0.10993	0.18491	0.19394	0.48796	0.12852	0.24722	0.13987	0.055182	0.0825	0.23192	0.17486	0.181	0.098067	0.23234	-1.6	-2.4104	-1.8583	-2.3167	-2.3063	-2.0687	-2.3146	-2.2229	-2.0771	-2.4833	-1.9458	-2.1937	-2.375	-2.1396	-2.3646	-2.0917	294.109	417.765	406.415	445.768	338.219	399.480	408.484	486.073	270.707	437.199	422.484	466.710	353.403	408.189	268.341	281.975	0.001286	0.00028698	8.3967e-05	534.36	4.682e-05	3.3177e-06	473.22	217.09	6.6382e-06	7.1204e-05	212.02	85.777	90.914	39.843	5.1203e-06	37.468	0.00054437	0.00049105	0.00012559	544.25	7.99e-05	5.0921e-06	482.87	222.94	4.4778e-06	0.00017478	217.54	87.859	93.373	41.625	4.8004e-06	40.115	407.149	275.268	244.304	177.339	407.526	309.884	175.360	183.015	307.026	197.483	180.217	184.135	187.068	193.033	291.970	188.783	-8191	255	
36008.680	1	1	0	0	0.1522	0.086145	0.084461	0.18514	0.077229	0.25932	0.034621	0.17716	0.12767	0.12597	0.31705	0.07834	0.27975	0.20712	0.15361	0.31915	-1.5688	-2.3875	-2.0146	-1.9625	-2.2375	-1.9667	-2.2979	-2.4042	-2.0583	-2.5333	-2.0438	-2.2896	-2.3729	-2.1271	-2.3729	-2.5417	500.846	364.378	410.667	506.968	498.107	474.645	402.083	178.604	245.990	409.996	425.166	301.422	206.319	204.079	173.080	473.364	0.0012943	0.00022892	9.9831e-05	536.53	7.5856e-05	3.0012e-06	477.69	217.19	6.4466e-06	4.7697e-06	212.61	83.747	89.266	39.025	4.0654e-06	36.162	0.00055405	0.00051617	0.00013138	547.86	0.00012649	4.8216e-06	485.71	222.65	4.5686e-06	3.8421e-05	220.5	86.149	91.873	40.459	4.5836e-06	39.707	408.978	249.697	245.482	177.415	413.348	319.125	175.573	182.834	318.844	409.414	179.594	183.981	187.046	193.007	298.613	189.018	-8191	255	
36008.801	1	1	0	0	0.073516	0.075415	0.10917	0.32391	0.019661	0.42878	0.35754	0.1928	0.32315	0.23669	0.12044	0.24205	0.12239	0.13905	0.34445	0.16714	-1.3583	-2.4521	-2.1667	-2.2542	-2.3083	-2.0979	-2.2208	-2.3563	-2.025	-2.4042	-2.1833	-2.0125	-2.3542	-2.3771	-2.2167	-2.5479	435.160	483.724	371.552	489.147	333.066	352.543	283.174	377.298	264.663	403.249	178.100	461.468	435.868	360.537	382.242	318.714	0.001238	0.00034651	8.8946e-05	531.43	4.3429e-05	4.046e-06	464.34	214.09	8.0338e-06	3.0964e-06	207	81.421	88.325	38.237	5.8377e-06	35.455	0.00053376	0.00043518	0.00013255	543.72	6.55e-05	4.9776e-06	473.08	220.1	4.6346e-06	4.3504e-06	233.46	83.734	90.984	39.953	4.5689e-06	38.163	407.886	252.758	249.187	177.072	414.989	333.719	175.325	182.970	283.330	321.934	179.026	184.187	187.020	193.125	291.006	188.808	-8191	255	
36008.871	1	1	0	0	0.152	0.26773	0.24826	0.11937	0.029858	0.13091	0.037068	0.14816	0.15706	0.31206	0.15784	0.058441	0.078291	0.05862	0.18203	0.10744	-1.5167	-2.175	-2.2208	-2.1354	-2.4271	-2.075	-2.2375	-2.2896	-2.1083	-2.4333	-2.2062	-2.1083	-2.3312	-1.9583	-2.0167	-2.3563	500.029	239.331	231.103	462.031	425.079	346.637	176.556	180.517	167.839	378.519	420.409	222.474	202.041	488.491	421.628	393.234	0.0012412	0.00037551	9.886e-05	530.77	9.7456e-05	3.9486e-06	462.61	213.43	6.6577e-06	5.6551e-06	206.85	82.441	89.118	38.66	4.5895e-06	35.886	0.00054132	0.00041318	0.00016389	541.24	0.00015085	5.3123e-06	471	219.62	4.5851e-06	4.7856e-06	224.5	84.392	91.607	40.272	4.5534e-06	40.209	408.307	247.029	255.317	177.426	428.955	325.047	175.322	182.829	296.161	307.872	179.494	184.334	187.123	193.135	290.108	189.537	-8191	255	
36008.992	1	1	0	0	0.14541	0.26006	0.19369	0.094296	0.19568	0.22315	0.03931	0.073194	0.13947	0.12743	0.27464	0.31248	0.061038	0.20292	0.14452	0.019818	-1.5833	-2.3292	-2.1104	-2.0729	-2.4333	-2.275	-2.1396	-2.5021	-2.0187	-2.2313	-2.3104	-2.1042	-2.3146	-2.1479	-1.9792	-2.4479	291.610	275.870	283.117	213.079	267.807	315.409	306.896	490.626	406.695	301.775	385.960	184.360	189.404	174.612	499.879	466.672	0.0012663	0.00039517	0.00011926	531.26	4.8882e-05	2.6102e-05	462.21	214.53	7.2446e-06	4.5827e-06	210.35	83.467	89.59	39.168	5.3789e-06	36.31	0.00056092	0.00041483	0.00013541	541.84	3.5473e-05	4.4887e-05	473.06	220.82	5.2191e-06	4.8742e-06	240.21	85.428	92.253	40.76	4.9878e-06	39.246	408.773	280.545	253.377	177.200	392.472	522.195	175.432	183.339	307.966	311.322	178.968	184.344	187.240	193.066	291.288	189.092	-8191	255	
36009.090	1	1	0	0	0.053379	0.15173	0.15112	0.020332	0.19266	0.092551	0.27902	0.085004	0.02014	0.081011	0.092238	0.12097	0.17761	0.053935	0.22846	0.12716	-1.4396	-2.4021	-2.25	-2.0396	-2.3167	-2.1542	-2.1875	-2.4125	-2.125	-2.2687	-2.4021	-2.05	-2.2979	-2.225	-1.9896	-2.4333	524.684	345.304	276.392	431.366	228.045	404.648	196.779	505.230	275.287	381.931	398.094	403.707	279.488	179.757	408.356	421.099	0.0012367	0.00046297	0.00010145	532.06	4.6146e-06	7.2754e-05	469.5	216.4	6.4479e-06	2.4616e-06	212.98	85.2	90.818	39.831	3.9583e-06	37.115	0.0005563	0.00043259	0.00016739	543.61	4.328e-06	0.00019519	478.23	222.31	5.0251e-06	4.2726e-06	230.76	87.366	93.227	41.473	4.7287e-06	41.824	407.538	250.645	228.480	177.232	304.525	463.496	175.490	183.396	304.856	302.335	179.651	184.233	187.081	193.053	294.048	189.312	-8191	255	
36009.184	1	1	0	0	0.18993	0.13837	0.014762	0.20033	0.11555	0.32051	0.20009	0.035905	0.044449	0.081088	0.043195	0.12625	0.029585	0.085737	0.066342	0.30782	-1.625	-2.1292	-2.275	-1.9729	-2.2854	-2.2792	-1.9917	-2.3167	-2.1042	-2.1896	-2.3125	-2.0792	-2.3396	-2.3604	-2.1833	-2.3896	439.200	256.184	203.614	468.260	434.052	223.768	514.691	510.190	446.168	298.244	460.429	226.152	264.856	446.108	461.037	297.268	0.0013309	0.00045214	0.00011416	529.48	5.5156e-06	3.8528e-05	467.37	216.59	5.9074e-06	1.9603e-06	211.55	83.675	89.459	39.319	5.3219e-06	36.348	0.00057512	0.00042722	0.00013877	541.22	4.2154e-06	9.9088e-05	474.42	221.77	5.3413e-06	4.6386e-06	240.97	86.068	92.185	41.097	5.0016e-06	38.481	407.354	249.406	281.214	177.257	286.522	461.923	175.129	182.896	310.435	254.625	179.169	183.884	187.323	193.027	304.599	188.716	-8191	255	
36009.281	1	1	0	0	0.16999	0.16478	0.32758	0.19712	0.044466	0.17514	0.12802	0.044487	0.2761	0.18855	0.15867	0.14966	0.1138	0.10206	0.084768	0.27519	-1.8583	-2.1792	-2.2542	-1.9167	-2.075	-2.4042	-2.0354	-2.3708	-2.1896	-2.2812	-2.2958	-1.9917	-2.3021	-2.2833	-1.8729	-2.4021	381.738	331.829	183.065	165.292	433.697	503.087	522.804	442.307	449.301	327.487	485.855	489.263	417.716	474.960	496.920	435.580	0.0016337	0.00035264	0.00010877	521.69	5.6505e-06	8.5438e-05	454.56	214.27	8.0118e-06	2.6209e-06	210.04	83.379	89.556	39.447	4.1477e-06	36.531	0.0027788	0.00041769	0.00015729	533.45	4.1698e-06	0.00020003	465.57	219.57	5.1944e-06	4.734e-06	227.87	85.56	91.949	41.161	4.8945e-06	37.954	406.444	270.880	245.858	177.165	299.341	482.535	175.600	182.789	308.752	322.335	179.703	184.238	187.213	193.115	277.770	188.824	-8191	255	
36009.379	1	1	0	0	0.13863	0.32523	0.38084	0.20045	0.15084	0.077339	0.17614	0.24742	0.1357	0.04155	0.17309	0.24992	0.029045	0.22748	0.074877	0.1785	-1.6812	-2.2313	-2.4125	-1.9354	-2.2313	-2.2812	-2.1854	-2.3729	-2.1729	-2.1	-2.4271	-1.8354	-2.2979	-2.4313	-1.9604	-2.5104	253.439	345.111	413.936	169.909	185.118	261.639	513.704	504.061	455.841	229.688	435.696	168.515	480.652	238.797	445.228	232.784	0.002907	0.00044871	9.6378e-05	521.56	3.7415e-06	4.5169e-05	455.16	213.66	7.394e-06	4.1682e-06	208.71	83.442	89.03	39.511	3.8369e-06	36.671	0.011092	0.00046516	0.00013783	532.19	4.2674e-06	0.00011159	464.01	219.82	6.299e-06	4.7651e-06	241.76	85.654	91.958	41.2	5.0267e-06	38.143	489.808	244.190	251.953	177.115	272.729	482.831	175.409	183.238	298.686	323.215	180.121	184.400	187.253	192.976	294.786	188.811	-8191	255	
36009.473	1	1	0	0	0.14762	0.19698	0.033287	0.24696	0.30377	0.21387	0.11652	0.34662	0.21318	0.21544	0.23398	0.36029	0.22403	0.17172	0.33704	0.13927	-1.6271	-2.0542	-2.4167	-2.1271	-2.1708	-2.3042	-2.0104	-2.1833	-2.2521	-2.0375	-2.4667	-2.0479	-2.2208	-2.5833	-2.0292	-2.2938	191.495	307.825	409.979	523.497	305.998	297.419	446.084	404.132	515.481	277.859	367.226	424.222	200.047	467.141	264.487	329.854	0.0017738	0.00026044	0.00010678	523.25	4.4407e-06	9.5511e-05	459.78	214.91	9.5707e-06	2.573e-06	211.2	85.009	89.854	39.563	2.678e-06	37.117	0.0059454	0.00045415	0.00014754	533.29	4.2005e-06	0.00022811	467.85	220.57	5.5584e-06	5.0621e-06	221.24	88.915	92.536	41.302	5.4473e-06	38.542	467.932	255.027	245.086	177.088	277.749	487.570	175.356	182.788	294.008	301.768	180.201	184.005	187.212	193.091	269.915	188.946	-8191	255	
36009.570	1	1	0	0	0.23854	0.20632	0.15007	0.27484	0.12545	0.16159	0.30817	0.30124	0.19435	0.15138	0.18254	0.045078	0.14262	0.19667	0.13528	0.12485	-1.6042	-1.7812	-2.4	-2.3479	-2.2104	-2.4833	-2.0062	-2.3187	-2.3896	-2.1375	-2.45	-2.2875	-2.1562	-2.4354	-2.2458	-2.2938	220.846	252.316	276.400	476.230	387.000	303.632	428.340	448.643	446.441	325.945	228.824	350.422	507.391	176.038	445.906	492.152	0.0029025	0.00048313	9.5744e-05	525.13	4.1556e-06	4.6435e-05	461.14	215.72	7.5441e-06	3.9346e-06	210.69	86.456	89.681	39.511	6.5966e-06	36.845	0.011987	0.00046308	0.00011807	536.46	4.3501e-06	0.0001196	472.43	221.5	6.6094e-06	5.1944e-06	217.13	96.185	92.214	41.186	5.2124e-06	38.374	502.865	241.898	269.512	177.099	289.976	497.020	175.644	182.834	312.462	334.849	180.515	183.636	186.995	192.995	279.145	188.632	-8191	255	
36009.664	1	1	0	0	0.14612	0.24902	0.27025	0.087595	0.2452	0.17289	0.22515	0.24442	0.16022	0.10001	0.076495	0.25037	0.22043	0.27882	0.15579	0.049246	-1.8271	-1.9583	-2.125	-2.1917	-2.1	-2.375	-2.075	-2.0979	-2.2812	-1.9958	-2.3729	-2.275	-2.0563	-2.5438	-2.1813	-2.1708	315.571	368.492	369.151	352.314	284.623	186.235	516.712	461.920	327.171	339.293	381.507	402.658	199.896	268.576	419.467	325.320	0.0016635	0.00040594	0.00010146	526.52	5.4646e-06	7.182e-05	460.76	214.84	8.0581e-06	3.1704e-06	209.33	85.14	90.366	39.598	6.0631e-06	37.043	0.0063658	0.00045225	0.00011716	536.58	4.3808e-06	0.00021735	470.37	221.29	5.371e-06	4.9579e-06	215.73	91.12	92.633	41.292	5.9456e-06	38.441	472.831	240.970	258.440	177.204	290.244	433.655	175.315	182.877	285.159	324.407	179.666	183.756	187.090	193.021	255.937	188.711	-8191	255	
36009.762	1	1	0	0	0.11016	0.22335	0.23295	0.075338	0.027056	0.051955	0.032916	0.047824	0.10779	0.10743	0.07164	0.12415	0.14305	0.015446	0.18986	0.057209	-1.8667	-1.9708	-2.15	-2.1646	-1.9688	-2.4479	-2.2417	-2.175	-2.3667	-2.1063	-2.3438	-2.3792	-2.2417	-2.5104	-2.1562	-2.1958	333.661	484.166	426.357	176.766	384.880	318.071	489.554	275.812	233.481	333.012	182.332	488.661	334.165	499.697	476.060	344.925	0.0025672	0.00028625	9.6242e-05	527.96	6.2003e-06	3.2105e-05	467	215.54	9.1077e-06	1.7955e-06	211.12	86.634	90.901	39.61	6.3445e-06	36.9	0.012302	0.00050509	0.00011922	538.51	4.6108e-06	3.7815e-05	487.2	222.08	6.5136e-06	5.1448e-06	217.15	96.118	92.699	41.288	5.867e-06	38.431	519.606	268.263	256.135	177.453	283.768	438.291	174.734	182.906	303.132	349.126	180.365	183.576	187.341	193.181	288.030	188.712	-8191	255	
36009.879	1	1	0	0	0.25156	0.14993	0.090129	0.2001	0.20905	0.042781	0.068692	0.15601	0.33081	0.053113	0.12708	0.38898	0.23273	0.093273	0.081117	0.12828	-1.9583	-2.0792	-2.2687	-2.2958	-2.0938	-2.4604	-2.3146	-1.9708	-2.2062	-2.225	-2.3854	-2.4125	-1.9	-2.4021	-2.2104	-2.0667	420.465	255.696	335.854	501.198	355.770	249.405	169.672	252.678	393.297	326.115	196.185	418.030	324.917	305.938	219.191	317.817	0.00092066	0.00038232	0.00010959	530.45	4.9316e-06	3.6837e-06	463.77	216.52	6.4961e-06	3.9289e-06	213.63	86.089	90.028	39.803	5.554e-06	37.337	0.006327	0.00046853	0.00011925	541.07	4.4225e-06	4.6883e-06	525.77	222.71	5.4131e-06	5.0543e-06	219.01	91.963	92.741	41.377	6.9492e-06	38.822	488.286	254.235	240.946	177.165	275.685	300.261	174.633	183.117	295.700	311.251	180.247	183.864	187.185	193.045	279.447	188.597	-8191	255	
36009.977	1	1	0	0	0.16294	0.21491	0.10746	0.17483	0.11711	0.2039	0.41137	0.06718	0.18689	0.08462	0.35958	0.17191	0.10908	0.27629	0.12443	0.22603	-2.1604	-1.9979	-2.2208	-2.4021	-1.8042	-2.5583	-2.3479	-2.0604	-2.4917	-2.1417	-2.2438	-2.25	-2.2687	-2.3458	-2.4208	-2.1063	450.094	194.720	354.656	443.220	322.067	485.215	456.973	424.321	422.349	291.517	401.088	347.945	239.335	487.925	454.808	445.662	0.002429	0.00067025	7.5296e-05	527.44	5.6458e-06	3.0271e-06	471.83	217.75	8.5298e-06	2.0789e-06	216.57	87.647	90.65	39.783	4.6171e-06	37.491	0.010342	0.0005296	0.00011557	541.94	4.5525e-06	4.6942e-06	506.65	223.71	5.5972e-06	5.9742e-06	221.18	97.281	93.096	41.329	5.8411e-06	38.845	523.208	244.865	262.287	176.955	270.127	303.475	174.900	182.852	325.181	320.813	179.923	184.052	187.122	192.728	296.574	188.526	-8191	255	
36010.070	1	1	0	0	0.060766	0.1402	0.29188	0.19487	0.32839	0.08356	0.22625	0.13832	0.16162	0.26899	0.087288	0.23008	0.15125	0.19927	0.050735	0.15704	-2.0292	-2.2167	-2.2104	-2.4188	-1.9146	-2.4292	-2.3438	-2.1083	-2.55	-2.3875	-2.1917	-2.3312	-2.1146	-2.3	-2.4313	-2.0771	442.647	468.318	480.008	195.926	186.480	493.940	362.468	397.733	215.963	513.972	395.342	481.366	195.855	498.091	335.125	394.990	0.0012165	0.0011488	0.0001271	530.55	4.3952e-06	1.6979e-06	467.25	215.12	6.4999e-06	3.292e-06	210.08	84.375	89.154	38.952	5.3055e-06	36.185	0.0018889	0.0065962	0.00012285	541.05	4.7738e-06	4.4474e-06	523.9	221.1	4.4134e-06	5.6286e-06	215.14	90.056	91.537	40.646	6.837e-06	37.583	499.883	456.218	263.338	177.187	278.165	337.514	174.245	182.956	284.674	331.001	179.756	184.075	187.307	192.646	272.047	188.585	-8191	255	
36010.168	1	1	0	0	0.2667	0.12074	0.18768	0.24987	0.082691	0.25737	0.10798	0.21719	0.10606	0.057385	0.10958	0.099828	0.17581	0.12159	0.11641	0.21439	-1.9333	-2.1167	-2.0812	-2.5312	-1.9771	-2.2229	-2.4375	-2.025	-2.3	-2.2604	-2.0292	-2.4396	-2.0333	-2.2687	-2.1708	-2.0187	504.195	217.515	180.375	235.361	271.184	196.679	438.511	385.749	221.752	480.065	501.062	479.463	232.250	474.923	319.751	445.961	0.001245	0.0091569	7.9573e-05	524.77	4.8113e-06	3.1337e-06	458.91	214.71	6.4926e-06	1.9368e-06	208.44	84.842	90.187	39.043	4.687e-06	36.511	0.0005149	0.020645	0.00011985	534.57	4.5233e-06	4.5639e-06	493.3	220.41	4.1682e-06	7.1794e-06	214.47	93.211	92.323	40.783	5.5224e-06	37.83	407.583	351.309	235.386	176.921	289.665	325.936	174.436	182.782	292.064	358.629	180.203	184.675	186.462	192.896	268.005	188.610	-8191	255	
36010.266	1	1	0	0	0.16443	0.26712	0.43148	0.068433	0.18192	0.048372	0.038556	0.20869	0.13427	0.1882	0.097677	0.31125	0.14279	0.10956	0.25752	0.15943	-1.8958	-2.1792	-1.9083	-2.4458	-2.1208	-2.2458	-2.4146	-2.0625	-2.3063	-2.2854	-2.1188	-2.3896	-1.8958	-2.15	-2.4542	-2.2917	369.390	185.034	180.464	240.896	328.576	322.943	186.041	484.103	464.594	292.107	308.457	438.589	397.677	477.413	480.972	191.322	0.001242	0.0045081	0.00011335	524.15	4.6299e-06	4.2352e-06	465.31	214.67	5.0737e-06	1.7701e-06	211.63	84.615	90.007	39.41	6.2269e-06	36.865	0.00053086	0.010567	0.00012347	535.58	5.1738e-06	4.8719e-06	520.74	220.97	4.2557e-06	5.8029e-06	216.27	87.342	95.687	41.143	6.5226e-06	38.45	408.056	348.704	253.193	177.298	292.599	322.473	174.103	182.907	291.683	306.255	180.217	184.364	186.858	192.868	301.484	188.864	-8191	255	
36010.359	1	1	0	0	0.19903	0.18649	0.042191	0.19761	0.062051	0.18414	0.19876	0.14658	0.062211	0.12907	0.12154	0.10379	0.27047	0.18822	0.10256	0.12315	-1.8167	-2.2458	-1.8	-2.5146	-2.1646	-2.2125	-2.5854	-1.9458	-2.2521	-2.3146	-2.1604	-2.3521	-2.1979	-2.2208	-2.4542	-2.0917	380.306	232.266	502.357	515.803	200.653	180.248	519.515	186.647	481.241	258.292	362.369	435.135	462.157	490.647	301.208	433.128	0.0013239	0.0076164	0.00011251	525.43	5.0606e-06	1.4219e-06	467.71	216.08	6.3224e-06	1.831e-06	213.25	85.233	92.788	39.811	4.1727e-06	37.727	0.00053857	0.020761	0.00012693	537.42	5.2888e-06	4.9302e-06	499.14	221.8	4.4926e-06	6.973e-06	218.71	87.614	103.39	41.441	5.6995e-06	39.068	409.000	359.997	253.509	176.969	305.037	358.103	174.968	182.829	299.060	310.564	180.106	184.079	187.011	192.866	302.587	188.717	-8191	255	
36010.480	1	1	0	0	0.19619	0.19075	0.16382	0.18281	0.36131	0.24141	0.15389	0.17332	0.2393	0.24818	0.056487	0.092154	0.12648	0.16425	0.17996	0.13923	-1.8188	-2.2292	-1.8563	-2.2479	-2.325	-1.9417	-2.4062	-2.2687	-2.2792	-2.2958	-2.1979	-2.2021	-2.2854	-2.1042	-2.4521	-2.2313	261.661	301.202	510.018	312.115	217.681	343.970	301.823	186.684	391.882	336.877	362.727	478.179	471.972	223.459	228.687	167.924	0.0012886	0.0037921	0.00011737	527.28	6.8136e-06	4.0701e-06	467.71	216.58	4.7065e-06	4.0031e-06	213.55	84.469	89.986	39.223	3.2305e-06	36.606	0.00054186	0.0099011	0.00012676	539.08	6.0841e-06	5.2373e-06	515.07	223.56	4.5306e-06	5.5683e-06	219.15	86.747	96.82	40.832	5.5457e-06	38.059	410.686	358.029	251.168	177.295	295.226	323.206	175.264	182.088	302.627	311.158	179.935	184.236	187.199	192.801	290.521	188.952	-8191	255	
36010.578	1	1	0	0	0.17476	0.13762	0.1214	0.18801	0.23754	0.32286	0.23713	0.082803	0.21092	0.0407	0.19905	0.1726	0.032808	0.12953	0.24527	0.098755	-1.8312	-2.2104	-2.0438	-2.375	-2.2417	-2.2417	-2.45	-2.3021	-2.0542	-2.325	-2.0854	-2.4479	-2.1813	-2.0333	-2.575	-2.1813	428.915	419.506	282.498	486.587	283.709	268.119	448.191	368.300	284.311	511.005	461.986	313.865	523.195	241.353	362.950	330.990	0.0012593	0.008244	0.00011426	521.63	3.0897e-06	3.8395e-06	460.01	215.67	5.6315e-06	2.8769e-06	209.77	83.534	90.641	39.185	6.4726e-06	36.609	0.00052762	0.018214	0.00013397	534.35	5.0258e-06	4.9815e-06	472.12	225.79	4.4365e-06	6.201e-06	215.5	85.616	100.97	40.797	4.7572e-06	38.125	408.949	377.554	247.381	177.186	265.607	296.310	175.275	182.424	316.267	328.089	180.149	184.220	187.614	193.040	294.753	188.534	-8191	255	
36010.676	1	1	0	0	0.19321	0.28047	0.06909	0.29262	0.056588	0.25634	0.087346	0.2646	0.047661	0.050009	0.14554	0.21794	0.25378	0.1519	0.12297	0.14669	-1.8125	-2.4333	-2.1125	-2.3375	-2.3458	-2.0208	-2.4479	-2.1896	-2.3042	-2.5396	-1.9792	-2.2438	-2.3208	-2.1437	-2.3146	-2.3542	401.647	409.647	318.750	340.870	268.884	338.750	322.897	400.702	189.989	289.395	507.399	209.744	203.845	249.408	395.065	441.393	0.0012873	0.0037986	8.7886e-05	523.08	4.7974e-06	3.6314e-06	457.21	214.08	6.5411e-06	3.0938e-06	208.9	84.35	89.807	39.333	4.5142e-06	37.104	0.00054913	0.0090682	0.00012722	531.85	6.044e-06	4.9193e-06	466.93	235.07	4.6561e-06	5.6753e-06	215.29	86.275	96.509	41.055	4.6268e-06	38.518	408.919	382.385	249.150	177.141	286.145	298.113	175.394	182.449	298.032	304.323	179.978	184.175	187.290	193.001	300.391	188.985	-8191	255	
36010.770	1	1	0	0	0.13972	0.16696	0.23108	0.2112	0.14173	0.060285	0.013025	0.090219	0.27461	0.24401	0.15904	0.21258	0.12689	0.083542	0.25869	0.077386	-1.6708	-2.3479	-1.9583	-2.3021	-2.4271	-1.9167	-2.3708	-2.2188	-2.0167	-2.2771	-2.175	-2.3167	-2.5375	-2.0042	-2.2896	-2.2875	448.678	454.653	509.162	488.341	462.807	496.249	313.060	516.951	388.380	424.243	175.100	190.683	236.216	214.833	346.432	345.355	0.0012122	0.0080509	0.0012855	518.91	4.0979e-06	3.7449e-06	459.49	213.84	7.2004e-06	4.094e-06	210.07	84.071	90.699	39.383	5.0916e-06	37.312	0.00053621	0.013206	0.00074354	529.98	5.0336e-06	5.3262e-06	467.25	226.86	4.5595e-06	5.4349e-06	216.13	86.495	101.22	41.193	4.7417e-06	38.743	408.081	350.448	467.137	177.032	275.017	321.067	175.132	182.529	310.014	335.183	180.251	183.947	187.566	193.089	296.309	188.902	-8191	255	
#DATA ENDS
