BOXY.EXE: ISS Imagent and Oximeter Data Acquisition Program Version 0.80
Ascii Record File

#ACQ INFORMATION
2  Detector Channels 
16  External MUX Channels 
1  Auxiliary Channels 
5000  Waveform (CCF) Frequency (Hz)
1  Waveforms Skipped 
30  Waveforms Averaged 
1  Cycles Averaged 
16  Acquisitions per Waveform 
10.0806  Updata Rate (Hz) 

#FILE INFORMATION
TRUE -- External MUX Channel results are PARSED.
FALSE -- AC DC and Phase are NOT grouped.
TRUE -- Companion Program Settings File CREATED.
FALSE -- AC data not excluded
FALSE -- DC data not excluded
FALSE -- Phase data not excluded
FALSE -- Auxillary Chn. data not excluded
Tab delimiters

#CALIBRATION STATE
TRUE -- Waveform Calibration Values APPLIED.


#AUX CALIBRATION VALUES
Val Type	aux-1	

Term	1.0000e+00	
Factor	0.0000e+00	


#WF CALIBRATION VALUES
A = Detector Channel
Val Type	A-AC1	A-AC2	A-AC3	A-AC4	A-AC5	A-AC6	A-AC7	A-AC8	A-AC9	A-AC10	A-AC11	A-AC12	A-AC13	A-AC14	A-AC15	A-AC16	A-DC1	A-DC2	A-DC3	A-DC4	A-DC5	A-DC6	A-DC7	A-DC8	A-DC9	A-DC10	A-DC11	A-DC12	A-DC13	A-DC14	A-DC15	A-DC16	A-Ph1	A-Ph2	A-Ph3	A-Ph4	A-Ph5	A-Ph6	A-Ph7	A-Ph8	A-Ph9	A-Ph10	A-Ph11	A-Ph12	A-Ph13	A-Ph14	A-Ph15	A-Ph16	

Term	0.00000e+00	0.00000e+00	0.00000e+00	0.00000e+00	0.00000e+00	0.00000e+00	0.00000e+00	0.00000e+00	0.00000e+00	0.00000e+00	0.00000e+00	0.00000e+00	0.00000e+00	0.00000e+00	0.00000e+00	0.00000e+00	0.00000e+00	0.00000e+00	0.00000e+00	0.00000e+00	0.00000e+00	0.00000e+00	0.00000e+00	0.00000e+00	0.00000e+00	0.00000e+00	0.00000e+00	0.00000e+00	0.00000e+00	0.00000e+00	0.00000e+00	0.00000e+00	0.00000e+00	0.00000e+00	0.00000e+00	0.00000e+00	0.00000e+00	0.00000e+00	0.00000e+00	0.00000e+00	0.00000e+00	0.00000e+00	0.00000e+00	0.00000e+00	0.00000e+00	0.00000e+00	0.00000e+00	0.00000e+00	
Factor	1.00000e+00	1.00000e+00	1.00000e+00	1.00000e+00	1.00000e+00	1.00000e+00	1.00000e+00	1.00000e+00	1.00000e+00	1.00000e+00	1.00000e+00	1.00000e+00	1.00000e+00	1.00000e+00	1.00000e+00	1.00000e+00	1.00000e+00	1.00000e+00	1.00000e+00	1.00000e+00	1.00000e+00	1.00000e+00	1.00000e+00	1.00000e+00	1.00000e+00	1.00000e+00	1.00000e+00	1.00000e+00	1.00000e+00	1.00000e+00	1.00000e+00	1.00000e+00	X	X	X	X	X	X	X	X	X	X	X	X	X	X	X	X	

B = Detector Channel
Val Type	B-AC1	B-AC2	B-AC3	B-AC4	B-AC5	B-AC6	B-AC7	B-AC8	B-AC9	B-AC10	B-AC11	B-AC12	B-AC13	B-AC14	B-AC15	B-AC16	B-DC1	B-DC2	B-DC3	B-DC4	B-DC5	B-DC6	B-DC7	B-DC8	B-DC9	B-DC10	B-DC11	B-DC12	B-DC13	B-DC14	B-DC15	B-DC16	B-Ph1	B-Ph2	B-Ph3	B-Ph4	B-Ph5	B-Ph6	B-Ph7	B-Ph8	B-Ph9	B-Ph10	B-Ph11	B-Ph12	B-Ph13	B-Ph14	B-Ph15	B-Ph16	

Term	0.00000e+00	0.00000e+00	0.00000e+00	0.00000e+00	0.00000e+00	0.00000e+00	0.00000e+00	0.00000e+00	0.00000e+00	0.00000e+00	0.00000e+00	0.00000e+00	0.00000e+00	0.00000e+00	0.00000e+00	0.00000e+00	0.00000e+00	0.00000e+00	0.00000e+00	0.00000e+00	0.00000e+00	0.00000e+00	0.00000e+00	0.00000e+00	0.00000e+00	0.00000e+00	0.00000e+00	0.00000e+00	0.00000e+00	0.00000e+00	0.00000e+00	0.00000e+00	-1.95322e+02	-1.31664e+02	-1.35514e+02	-1.83507e+02	-9.14092e+01	-5.93382e+01	-1.57852e+02	-1.62015e+02	-9.36674e+01	-6.54123e+01	-1.76234e+02	-1.71211e+02	-1.81698e+02	-1.78091e+02	-8.68548e+01	-1.51000e+02	
Factor	4.07472e-05	1.94038e-04	5.01386e-05	4.44362e-01	1.74494e-06	1.67566e-06	1.66286e-01	6.31906e-02	2.08765e-06	1.66474e-06	2.13853e-01	2.89034e-02	2.88634e-02	9.13376e-03	1.93495e-06	1.32076e-02	3.19055e-06	3.47120e-06	9.67125e-07	2.29784e-01	3.78690e-08	3.80063e-08	8.23849e-02	3.32550e-02	3.75348e-08	3.80335e-08	1.05779e-01	1.48008e-02	1.52162e-02	4.84302e-03	3.76195e-08	6.77457e-03	X	X	X	X	X	X	X	X	X	X	X	X	X	X	X	X	



#DISTANCE SETTINGS
A = Detector Channel
A-1	A-2	A-3	A-4	A-5	A-6	A-7	A-8	A-9	A-10	A-11	A-12	A-13	A-14	A-15	A-16	

2.5000e+00	3.0000e+00	2.5000e+00	3.0000e+00	2.0000e+00	3.0000e+00	1.5000e+00	3.0000e+00	3.0000e+00	3.0000e+00	3.0000e+00	3.0000e+00	3.0000e+00	3.0000e+00	1.5000e+00	3.0000e+00	

B = Detector Channel
B-1	B-2	B-3	B-4	B-5	B-6	B-7	B-8	B-9	B-10	B-11	B-12	B-13	B-14	B-15	B-16	

1.0000e+01	1.0000e+01	1.0000e+01	1.4400e+00	1.0000e+01	1.0000e+01	1.5100e+00	1.9400e+00	1.0000e+01	1.0000e+01	1.9900e+00	2.4900e+00	2.4100e+00	2.9000e+00	1.0000e+01	2.9800e+00	




#DATA BEGINS
time	group	step	mark	flag	A-AC1	A-AC2	A-AC3	A-AC4	A-AC5	A-AC6	A-AC7	A-AC8	A-AC9	A-AC10	A-AC11	A-AC12	A-AC13	A-AC14	A-AC15	A-AC16	A-DC1	A-DC2	A-DC3	A-DC4	A-DC5	A-DC6	A-DC7	A-DC8	A-DC9	A-DC10	A-DC11	A-DC12	A-DC13	A-DC14	A-DC15	A-DC16	A-Ph1	A-Ph2	A-Ph3	A-Ph4	A-Ph5	A-Ph6	A-Ph7	A-Ph8	A-Ph9	A-Ph10	A-Ph11	A-Ph12	A-Ph13	A-Ph14	A-Ph15	A-Ph16	B-AC1	B-AC2	B-AC3	B-AC4	B-AC5	B-AC6	B-AC7	B-AC8	B-AC9	B-AC10	B-AC11	B-AC12	B-AC13	B-AC14	B-AC15	B-AC16	B-DC1	B-DC2	B-DC3	B-DC4	B-DC5	B-DC6	B-DC7	B-DC8	B-DC9	B-DC10	B-DC11	B-DC12	B-DC13	B-DC14	B-DC15	B-DC16	B-Ph1	B-Ph2	B-Ph3	B-Ph4	B-Ph5	B-Ph6	B-Ph7	B-Ph8	B-Ph9	B-Ph10	B-Ph11	B-Ph12	B-Ph13	B-Ph14	B-Ph15	B-Ph16	aux-1	digaux	

3233.153	1	1	0	256	0.22798	0.16035	0.065388	0.10591	0.10029	0.14065	0.057167	0.078164	0.17802	0.10424	0.1832	0.038416	0.24637	0.12034	0.12494	0.17207	-2.5333	-2.7604	-3.0646	-2.8271	-2.7896	-2.9521	-2.6063	-3.0438	-2.7938	-2.8896	-3.0687	-2.6937	-2.875	-2.9042	-2.7687	-2.9688	-18.886	17.084	45.905	-54.240	154.613	42.144	-102.209	-70.218	-62.866	-31.762	-6.222	178.297	133.355	-109.098	175.584	181.896	0.00053218	0.0020955	0.0004649	383.54	1.5589e-05	3.4657e-05	407.21	113.47	1.9083e-05	2.1588e-05	154.85	63.423	42.793	19.298	2.2195e-05	32.923	0.011347	0.011621	0.0033358	1282.9	0.00013314	0.00012536	730.52	246.86	0.00012949	0.000124	533.42	123.52	97.65	36.548	0.0001318	60.355	156.204	-2.126	161.870	-120.428	29.958	17.060	-121.408	-114.730	-20.797	24.629	-117.333	-113.026	-112.019	-107.627	-124.562	-109.555	-8191	255	
3233.274	1	1	0	0	0.18342	0.095924	0.076017	0.1878	0.3824	0.078539	0.050487	0.16715	0.028879	0.13112	0.049396	0.25778	0.088156	0.129	0.22945	0.17926	-2.2792	-2.6292	-2.9729	-2.5875	-2.9792	-2.9646	-2.6875	-3.2083	-2.8958	-2.9396	-2.9562	-2.5646	-2.8812	-3.1354	-2.5833	-2.9542	1.990	-16.975	186.205	158.041	-105.672	196.997	226.831	40.826	-49.820	37.825	-85.507	126.927	105.378	-78.147	3.343	204.567	0.0004919	0.0012168	0.00071945	388.79	1.6648e-05	1.1854e-05	407.93	111.8	2.4401e-06	1.3539e-05	153.55	60.902	40.873	17.977	1.9817e-05	30.76	0.010606	0.011014	0.0033724	1224.6	0.00012452	0.00011919	730.89	235.59	0.00012005	0.00011822	529.63	116.36	91.983	34.299	0.00013013	55.971	126.825	-38.185	141.033	-119.875	83.335	119.991	-121.341	-114.814	208.649	125.170	-117.550	-112.439	-112.744	-107.960	178.317	-109.428	-8191	255	
3233.370	1	1	0	0	0.054131	0.16121	0.26551	0.18549	0.062508	0.25132	0.013601	0.014842	0.147	0.25791	0.088915	0.11354	0.12832	0.15458	0.28508	0.22225	-2.6562	-2.6292	-3.0125	-2.8625	-2.7188	-3.1167	-2.6396	-2.7833	-3.025	-2.8229	-2.9583	-2.9104	-2.5042	-3.1292	-2.8125	-2.9854	-85.532	-13.705	10.069	192.053	137.109	43.089	-37.066	128.787	204.572	-12.723	210.485	144.037	176.324	179.400	-41.356	213.943	0.00050542	0.0014394	0.0003634	382.51	8.24e-06	1.8452e-05	406.36	110.54	4.8951e-06	4.0684e-05	155.31	61.778	41.578	18.317	2.2889e-05	31.956	0.0098364	0.010604	0.0033048	1147.3	0.00011478	0.00011528	721.65	223.97	0.00011078	0.00011494	515.36	111.85	88.585	34.442	0.00012326	55.059	168.141	158.893	130.289	-120.392	-57.328	182.650	-121.527	-114.861	-106.689	-119.322	-117.216	-112.791	-112.375	-107.594	-19.862	-109.111	-8191	255	
3233.466	1	1	0	0	0.056858	0.20411	0.20669	0.10089	0.11411	0.26032	0.12869	0.17163	0.38659	0.4052	0.19835	0.056873	0.33955	0.2511	0.35096	0.28313	-2.7	-2.7354	-3.0354	-2.6771	-3.0458	-3.1479	-2.6771	-3.0542	-2.9313	-2.7271	-3.1125	-2.7979	-2.7896	-2.9958	-2.6646	-2.9313	-90.688	209.716	217.275	-4.310	-61.994	-103.425	70.623	-121.636	-61.860	56.761	179.130	-111.068	27.268	160.485	11.178	69.068	0.00050917	0.0020069	0.00019961	386.15	5.7213e-06	1.1009e-05	415.54	115.18	2.2251e-05	1.9691e-05	163.75	66.072	45.507	20.673	1.1634e-05	34.718	0.009077	0.010548	0.0031519	1094	0.00010762	0.00011615	715.52	222.85	0.00010605	0.00011915	512.49	115.25	91.913	37.843	0.00012028	57.723	135.677	138.101	4.574	-119.753	13.187	195.798	-120.717	-114.543	37.116	205.833	-116.842	-112.790	-112.285	-107.766	-0.489	-109.643	-8191	255	
3233.562	1	1	0	0	0.21024	0.16984	0.12242	0.12142	0.31565	0.063505	0.052849	0.031402	0.14573	0.15998	0.035931	0.082538	0.054542	0.087066	0.19423	0.17535	-2.2562	-2.5146	-2.9292	-2.7646	-2.6458	-3.1458	-2.8042	-2.7292	-3.2313	-2.65	-3.1083	-3.1	-2.7146	-3.0167	-2.7979	-2.8812	151.579	-127.639	83.951	-93.315	0.652	194.223	-132.267	-42.738	223.156	168.177	39.715	181.634	113.675	133.667	-132.876	118.150	0.00058054	0.0038816	0.00051272	391.59	1.1397e-05	1.6613e-05	419.74	117.14	2.4792e-05	1.9974e-05	165.55	67.209	45.207	20.749	2.8079e-05	34.674	0.0090275	0.011133	0.0030632	1087.4	0.00010845	0.00012268	711.17	222.74	0.00010577	0.00012214	495.28	114.04	92.427	38.062	0.00011251	56.592	117.619	172.085	-21.177	-119.797	214.393	-75.489	-121.125	-115.072	211.784	-119.353	-116.150	-112.933	-111.759	-107.845	21.941	-109.553	-8191	255	
3233.658	1	1	0	0	0.14544	0.056404	0.14588	0.14431	0.22515	0.20613	0.046605	0.17408	0.24431	0.069088	0.13836	0.21602	0.10783	0.37048	0.071448	0.21037	-2.6208	-2.7208	-2.925	-2.9417	-2.8667	-3.1896	-2.8333	-2.8812	-3.1021	-2.6813	-2.8958	-2.9479	-2.8021	-3.0021	-2.7104	-2.9	53.312	61.821	166.748	112.879	172.606	22.636	-102.531	141.463	213.055	-47.899	-24.665	203.578	-107.405	-94.969	7.125	-106.573	0.00074583	0.0015018	0.00070662	399.43	3.3491e-05	9.2025e-06	417.89	114.77	2.6004e-05	1.3193e-05	159.82	64.659	43.71	19.821	2.7191e-05	32.945	0.0091151	0.011086	0.0028497	1045.5	0.00010832	0.00011916	688.29	214.98	0.00010739	0.00011844	470.48	109.34	91.648	36.477	0.0001055	53.763	105.788	175.265	-52.447	-120.402	168.249	25.931	-121.168	-114.581	170.286	48.254	-116.172	-112.901	-112.433	-107.715	1.069	-109.699	-8191	255	
3233.754	1	1	0	0	0.19112	0.20975	0.27533	0.061304	0.19402	0.015315	0.20467	0.14099	0.16864	0.21353	0.053664	0.25723	0.28689	0.15251	0.21743	0.0068779	-2.6562	-2.7729	-2.9229	-3.0563	-2.3875	-3.1083	-3.0354	-2.525	-2.9938	-2.8896	-2.9542	-2.9125	-2.5292	-2.9875	-2.9375	-2.8937	7.327	14.254	124.329	168.935	170.825	222.934	95.663	7.888	75.762	-59.890	47.188	110.672	131.070	-108.143	134.369	42.360	0.00077483	0.0021635	6.0356e-05	394.52	2.0693e-05	1.394e-05	414.07	113.46	2.9868e-05	1.0127e-05	160	63.417	43.4	19.626	1.2388e-05	32.725	0.0092605	0.010486	0.0026866	1014.6	0.00011121	0.00011364	672.09	210.5	0.00011054	0.00011215	454.11	107.43	92.347	35.338	0.00010161	53.518	122.380	-74.314	-104.944	-120.309	190.896	74.581	-120.881	-115.152	177.977	-15.825	-116.009	-112.961	-112.394	-107.604	10.376	-109.545	-8191	255	
3233.851	1	1	0	0	0.13977	0.15183	0.052803	0.12609	0.2281	0.13013	0.13987	0.080899	0.11667	0.064043	0.065711	0.16747	0.21569	0.059399	0.10056	0.074225	-2.5604	-2.5604	-2.9458	-3.0917	-2.7917	-2.8063	-2.9542	-2.8854	-3.0896	-2.7125	-2.9062	-3.05	-2.8646	-2.9729	-2.9125	-2.8271	147.363	139.049	218.931	164.419	176.786	108.762	-75.332	62.897	143.319	17.465	195.926	-118.768	47.495	-111.991	78.261	155.356	0.00088675	0.0016564	0.00043278	386.8	3.2902e-06	4.1641e-05	416.05	114.45	4.2742e-06	2.7543e-05	159.13	63.671	43.741	19.888	2.3004e-05	33.077	0.0096189	0.010074	0.0026347	1030.4	0.00011647	0.00011023	668.72	214.48	0.00011403	0.00010774	449.98	109.82	93.977	35.173	9.9835e-05	55.049	125.250	18.857	-43.259	-120.951	-102.887	42.079	-120.826	-115.073	-71.761	16.953	-116.622	-113.083	-111.593	-107.770	-14.057	-109.768	-8191	255	
3233.947	1	1	0	0	0.097009	0.22994	0.30646	0.11975	0.18629	0.044057	0.10427	0.31467	0.069576	0.15193	0.13599	0.37692	0.05481	0.20266	0.11065	0.096419	-2.7646	-2.7417	-2.5854	-2.9375	-2.8104	-2.8771	-3.0229	-2.7271	-3.2812	-2.9625	-2.8	-3.0125	-2.7313	-2.8875	-3.0458	-2.7625	131.580	63.941	39.513	23.562	155.324	106.238	102.498	-78.663	-33.884	126.511	-116.093	-56.853	-98.788	183.006	166.677	53.846	0.0004006	0.0007558	0.0001089	388.69	1.3459e-05	5.3584e-06	414.11	114.12	1.7556e-05	1.5728e-05	158.81	63.595	43.886	19.54	1.1896e-05	32.803	0.0097702	0.0097527	0.0025782	1064.4	0.00011542	0.00010644	664.93	219.71	0.00011353	0.00010561	447.31	112.52	92.98	34.65	9.9658e-05	55.791	142.960	-46.600	-57.391	-120.580	21.771	-95.423	-121.246	-115.359	38.411	35.725	-117.220	-112.950	-111.990	-107.628	137.821	-110.006	-8191	255	
3234.066	1	1	0	0	0.19064	0.27719	0.18531	0.17373	0.34403	0.12954	0.25296	0.19153	0.15661	0.04799	0.10451	0.087716	0.15316	0.13485	0.13998	0.31165	-2.4938	-2.7687	-2.7333	-2.9062	-2.5583	-2.9125	-3.0375	-2.5521	-3.0354	-2.7958	-2.7583	-3.0229	-2.7458	-2.8479	-3.0792	-2.6104	146.225	-122.018	-4.697	217.839	-129.369	-67.218	219.369	140.134	-92.859	-39.612	-44.102	210.576	177.549	107.061	121.480	211.790	0.00031361	0.0011624	0.00049874	390.43	2.6247e-05	1.9398e-05	412.9	113.41	2.6442e-05	1.7385e-05	154.52	62.893	43.226	19.205	1.8336e-05	32.018	0.0095839	0.0096448	0.002599	1106.2	0.00011284	0.00010495	666.45	223.05	0.00010975	0.00010255	446.48	112.27	89.7	33.596	9.9756e-05	55.335	193.963	-12.333	177.326	-121.051	5.480	39.647	-121.376	-115.318	-7.355	49.015	-117.523	-113.102	-111.673	-107.423	205.465	-110.050	-8191	255	
3234.162	1	1	0	0	0.17819	0.165	0.30037	0.094452	0.27355	0.19362	0.17956	0.2901	0.060031	0.22917	0.093501	0.23376	0.26564	0.09262	0.25348	0.10197	-2.6375	-2.9875	-2.7812	-2.8917	-2.7208	-2.9208	-3.1542	-2.7875	-2.7479	-3.0708	-2.7896	-3.1646	-2.9479	-2.8979	-3.0458	-2.5958	-16.996	223.633	200.538	45.808	-109.614	164.043	146.130	28.996	24.256	-74.488	-55.653	48.480	3.281	203.419	189.854	198.198	0.00019557	0.0015531	0.00052133	383.32	2.6213e-05	9.0243e-06	408.23	112.66	5.7065e-05	9.6898e-06	154.02	63.493	43.519	19.647	1.5979e-05	32.701	0.0090081	0.0091242	0.002606	1097	0.00010528	0.0001001	664.8	221.12	0.00010313	9.8133e-05	455.13	112.3	88.543	33.792	0.00010447	55.566	134.353	-123.477	123.911	-120.289	-27.809	122.630	-121.596	-114.839	13.332	-105.941	-118.562	-112.974	-112.125	-107.462	-131.686	-109.431	-8191	255	
3234.258	1	1	0	0	0.25366	0.092095	0.16017	0.23227	0.14398	0.21121	0.43334	0.19294	0.077785	0.29258	0.11383	0.15812	0.19783	0.15519	0.27383	0.13243	-2.2313	-2.8875	-2.6437	-3.0792	-3.0229	-2.6521	-3.1188	-2.7479	-3.1083	-3.0458	-2.5062	-3.1312	-2.8542	-2.7708	-2.8438	-2.6771	-111.245	109.336	-58.324	35.875	-83.451	81.691	-108.754	179.407	35.857	216.140	129.353	153.954	-122.830	167.564	-119.692	-68.295	0.00012242	0.00067891	0.00036915	393.08	6.3299e-06	8.3722e-06	409.96	115.45	2.9032e-05	7.5528e-06	156.25	64.819	44.714	20.083	1.1731e-05	33.453	0.008745	0.0089383	0.0027523	1090.9	0.0001027	9.8818e-05	680.33	221.19	0.00010216	9.9177e-05	478.06	113.43	89.511	34.809	0.00011244	56.381	195.040	137.721	164.143	-120.174	-32.276	-94.771	-121.064	-114.785	21.500	97.215	-117.267	-112.770	-112.202	-108.164	204.826	-110.118	-8191	255	
3234.354	1	1	0	0	0.15828	0.12436	0.10902	0.19205	0.065956	0.25472	0.12376	0.19392	0.074585	0.1242	0.063801	0.18603	0.10323	0.16724	0.038439	0.26205	-2.65	-3.2354	-2.5125	-2.9938	-3.05	-2.8229	-3.2229	-2.7562	-2.6979	-3.05	-2.9479	-3.075	-2.9833	-2.7083	-2.9625	-2.9562	129.014	134.287	88.731	71.419	122.309	178.317	128.933	115.829	-90.005	90.402	63.760	10.296	-58.187	5.836	36.122	193.446	0.00042091	0.0011411	0.00022266	392.4	8.1013e-06	1.4824e-05	411.12	114.97	2.1287e-05	1.5686e-05	158.49	65.005	45.177	20.21	1.0416e-05	33.629	0.0087603	0.0092399	0.0029297	1080	0.00010238	0.00010265	695	219.21	0.00010167	0.0001042	494.65	112.6	89.131	35.612	0.00011644	55.958	217.401	157.259	138.010	-119.955	45.952	211.889	-121.084	-114.674	66.913	209.710	-116.560	-112.778	-111.682	-108.145	37.512	-109.705	-8191	255	
3234.450	1	1	0	0	0.30913	0.10019	0.28446	0.077293	0.32299	0.12934	0.2298	0.25503	0.13682	0.30352	0.19594	0.095104	0.12373	0.21811	0.094099	0.27251	-2.2708	-2.9271	-2.7375	-2.9729	-3.0792	-2.7083	-2.9854	-2.7917	-3.0208	-3.0292	-2.6188	-2.9604	-3.0271	-2.6271	-2.8771	-2.8937	-92.707	119.158	59.435	-66.260	69.575	31.670	206.210	95.085	-68.032	132.030	107.598	-125.252	-108.623	198.741	-39.365	-118.606	0.00069884	0.002198	0.00022549	394.25	1.1683e-05	4.6537e-06	410.72	114.02	1.9684e-05	1.9522e-05	159.06	63.962	43.273	19.612	1.297e-05	32.937	0.008727	0.0098644	0.0030112	1074.8	0.00010223	0.0001111	699.97	217.84	0.00010156	0.00011119	491.56	110.65	87.809	35.875	0.00011482	54.534	127.644	105.938	-109.371	-119.693	9.077	-129.266	-121.023	-114.859	-10.436	-128.011	-116.737	-112.840	-112.204	-108.189	-29.199	-109.556	-8191	255	
3234.546	1	1	0	0	0.11042	0.057856	0.070244	0.10323	0.073878	0.11963	0.085798	0.124	0.17722	0.1757	0.14202	0.10913	0.065215	0.084996	0.2687	0.17566	-2.3917	-3.2	-2.8688	-2.75	-3.0479	-2.8583	-3.15	-2.6792	-2.7271	-3.2292	-2.7812	-2.7104	-3.0062	-2.9479	-3.0479	-2.8167	116.727	183.272	69.691	61.063	209.024	148.155	219.068	-115.248	-71.118	180.703	153.468	-111.044	-51.752	-35.588	-9.402	130.414	0.00071169	0.0014085	0.00035773	386.86	1.6586e-05	2.5022e-05	405.66	112.52	7.2279e-06	1.069e-05	156.39	62.751	43.041	19.514	3.3008e-05	32.748	0.0086706	0.010436	0.0029258	1051.8	0.00010137	0.00011545	684.47	213.14	0.00010204	0.00011632	477.12	108.76	88.114	36.374	0.00011162	54.036	130.902	140.511	-15.358	-120.024	118.689	-132.453	-120.979	-114.692	39.861	197.689	-116.881	-113.085	-112.344	-107.811	-4.719	-109.793	-8191	255	
3234.667	1	1	0	0	0.007471	0.1063	0.12318	0.062551	0.1207	0.20078	0.097123	0.089557	0.094342	0.22413	0.33856	0.097614	0.21566	0.14123	0.24017	0.16736	-2.225	-3.0875	-2.7646	-2.7188	-3.0104	-2.6813	-2.925	-2.825	-2.5667	-3.1229	-2.8229	-2.6562	-2.8438	-2.7229	-2.9646	-2.8292	-118.447	-34.087	-107.545	142.316	169.811	-128.288	41.254	147.443	118.840	-67.332	218.248	34.264	-9.414	119.215	188.287	-36.732	0.0011743	0.0014649	0.00054043	387.56	2.4813e-05	2.471e-05	403.64	112.42	1.0674e-05	5.9312e-06	158.64	63.887	43.498	20.175	1.4515e-05	33.395	0.0089265	0.010875	0.0028423	1047.4	0.00010666	0.00011952	678.41	212.24	0.00010784	0.00012004	471.79	109.52	91.596	37.089	0.00010885	54.91	113.266	56.474	-9.512	-119.825	175.051	36.968	-120.563	-115.070	202.493	41.068	-117.436	-112.739	-112.525	-108.064	-41.190	-109.734	-8191	255	
3234.761	1	1	0	0	0.25887	0.020692	0.18449	0.1522	0.24483	0.010402	0.092945	0.23648	0.3343	0.25561	0.14243	0.22843	0.12022	0.34859	0.0906	0.23661	-2.2292	-3.0208	-2.8667	-2.6896	-2.8667	-2.7854	-3.0062	-3.0104	-2.7792	-3.0146	-2.9813	-2.6375	-3.1208	-2.5958	-2.75	-3.2729	115.246	-70.921	-22.648	115.129	183.458	155.456	155.270	197.864	187.442	71.449	75.867	153.251	186.502	-111.224	-58.306	97.859	0.00090906	0.0027471	0.0002396	387.12	2.0929e-05	1.2249e-05	407.84	113.1	1.8083e-05	4.9218e-06	158.71	64.482	44.098	20.684	1.9307e-05	34.089	0.009469	0.010821	0.0027651	1037.6	0.00011249	0.00011727	673.88	212.18	0.00011242	0.000115	460.92	109.8	93.88	36.795	0.00010456	55.18	86.985	1.854	-14.672	-120.044	176.025	1.188	-121.029	-114.796	177.080	51.184	-115.853	-112.866	-112.207	-107.825	-36.019	-109.644	-8191	255	
3234.858	1	1	0	0	0.11613	0.15226	0.13248	0.23093	0.072194	0.153	0.14061	0.14606	0.17883	0.097118	0.22179	0.041763	0.099893	0.19296	0.18727	0.17313	-2.2562	-2.7729	-2.8063	-2.6417	-3.1667	-2.7438	-2.8708	-2.8875	-2.8354	-2.9125	-2.8958	-2.7833	-3.0854	-2.8083	-2.7417	-3.0062	178.522	171.817	90.629	-84.166	-98.485	19.856	226.393	-81.954	174.474	-8.928	26.138	26.655	194.705	221.044	117.076	-110.857	0.00075973	0.00051411	0.00017917	386.7	7.5337e-06	2.5319e-05	408.34	113.68	2.265e-05	9.3092e-06	158.8	64.148	44.11	20.165	7.0238e-06	33.16	0.0097457	0.010293	0.0026491	1029.3	0.00011444	0.00011037	664.95	211.91	0.00011392	0.00010913	448.51	110.02	93.648	35.357	9.9715e-05	54.443	123.379	-56.183	-123.340	-120.523	2.089	46.605	-120.948	-115.160	89.040	57.620	-116.018	-113.048	-112.182	-107.516	38.772	-110.145	-8191	255	
3234.954	1	1	0	0	0.2939	0.27499	0.023396	0.14582	0.18925	0.14352	0.17589	0.14663	0.13269	0.17202	0.10263	0.15112	0.035995	0.098605	0.13379	0.27299	-2.4583	-2.8438	-2.9458	-2.8021	-2.975	-2.9396	-2.8917	-3.0062	-2.6854	-2.7958	-2.8521	-2.7333	-3.1958	-3.0146	-2.5187	-2.9021	122.053	5.500	22.820	-10.046	185.444	-112.914	-120.417	213.416	-64.920	95.345	2.886	26.087	12.807	123.565	217.213	12.845	0.0007534	0.00080493	0.00015759	381.49	1.5362e-05	1.3585e-05	403.64	111.53	6.8726e-06	9.1181e-06	153.9	62.437	43.35	19.699	6.3275e-06	32.486	0.0096134	0.009641	0.0025246	1042.1	0.00011314	0.00010424	650.88	213.16	0.00011174	0.00010437	436.27	109.63	91.568	34.432	9.728e-05	54.847	123.832	-65.596	19.315	-120.684	0.699	41.203	-120.944	-115.043	-34.628	30.444	-117.222	-113.156	-112.025	-107.707	-64.715	-109.879	-8191	255	
3235.050	1	1	0	0	0.44651	0.26984	0.097077	0.10229	0.13841	0.11441	0.25283	0.22971	0.30755	0.19209	0.19442	0.4565	0.12721	0.15994	0.17601	0.022356	-2.2583	-2.7875	-2.9646	-2.4417	-2.85	-2.9208	-2.8083	-3.0812	-2.7583	-2.9021	-3.0271	-2.6604	-2.9833	-2.8271	-2.7646	-3.1042	9.089	195.183	170.929	63.105	-66.465	-19.391	-37.762	189.083	-20.624	63.117	-102.200	127.819	-57.107	156.613	-30.543	169.248	0.00052532	0.0011001	5.4357e-05	381.28	2.2367e-05	2.0807e-05	403.94	111.39	1.6075e-05	4.9364e-06	154.1	63.612	44.034	20.096	2.0398e-05	33.255	0.009407	0.009458	0.002509	1080.8	0.00011144	0.00010346	654.02	220.34	0.00011046	0.00010479	446.73	113.91	92.057	35.042	0.00010267	57.219	146.958	-78.011	-122.744	-121.334	17.564	66.737	-120.938	-115.127	53.191	-3.571	-116.632	-113.308	-112.157	-107.885	180.892	-110.200	-8191	255	
3235.146	1	1	0	0	0.12292	0.24672	0.18807	0.22292	0.14464	0.15121	0.24786	0.25684	0.14728	0.12681	0.21918	0.047484	0.15186	0.084237	0.16888	0.28566	-2.2792	-2.4896	-2.6875	-2.7917	-3.0667	-2.8563	-2.4729	-2.8625	-2.8688	-2.8187	-3.0625	-2.4979	-2.7562	-2.8417	-2.65	-3.325	47.167	-101.543	8.364	-93.078	201.960	145.868	190.484	186.947	-112.598	-117.731	-38.123	69.047	-109.805	147.561	-123.879	193.796	0.00015953	0.0016364	0.00060729	390.08	1.8387e-05	2.7371e-05	404.18	114.09	2.3202e-05	1.5422e-05	156.45	64.908	44.456	20.667	2.5836e-05	34.044	0.0094067	0.0096018	0.0026858	1129.3	0.00011108	0.00010435	671.03	226.99	0.00010944	0.00010525	468.87	117.06	92.624	35.734	0.00011215	58.803	202.051	-20.781	146.011	-120.613	36.621	58.238	-121.399	-114.988	-20.382	59.274	-117.519	-113.014	-111.943	-107.986	203.543	-109.814	-8191	255	
3235.242	1	1	0	0	0.064319	0.13143	0.13225	0.13163	0.096251	0.13869	0.20136	0.097643	0.15932	0.087126	0.20892	0.18805	0.11209	0.27868	0.42802	0.12136	-2.2292	-2.6937	-3.1542	-2.6833	-2.9917	-3.0146	-2.9354	-2.9875	-2.6583	-2.7438	-2.9271	-2.65	-2.8438	-3.25	-2.5854	-3.0438	119.349	29.226	-10.664	129.942	177.188	191.456	160.482	132.744	56.607	199.350	52.019	120.650	161.232	162.691	142.353	121.184	0.00053943	0.0018794	0.00090914	385.76	2.6032e-06	1.5276e-05	406.22	113.11	2.4392e-05	1.3136e-05	155.36	64.698	43.536	20.122	1.422e-05	33.202	0.0094301	0.0097044	0.0029271	1142.5	0.00011146	0.00010615	692.22	227.97	0.00010988	0.000107	496.06	116.26	91.529	35.292	0.00011849	57.322	163.598	15.155	116.632	-119.856	-70.728	56.820	-120.936	-114.681	5.949	-72.487	-117.547	-112.639	-112.169	-108.192	-117.617	-109.710	-8191	255	
3235.338	1	1	0	0	0.16381	0.2029	0.12771	0.17668	0.042163	0.28319	0.26477	0.096656	0.076517	0.031643	0.087729	0.32234	0.048149	0.028662	0.11117	0.15993	-2.4583	-2.4854	-2.85	-2.8458	-2.9396	-2.9542	-2.4938	-3.0104	-3	-2.9	-3.2958	-2.6708	-2.7708	-3.2938	-2.675	-2.8792	146.832	145.282	-61.156	-33.672	12.927	-12.039	121.359	156.198	-80.049	-54.099	8.557	-103.763	219.116	156.334	75.220	141.122	0.00035651	0.0010653	0.00038327	383.55	7.0078e-06	1.7347e-05	398.2	111.33	3.2561e-06	8.7999e-06	151.43	62.294	42.249	19.139	7.6779e-06	32.175	0.0092374	0.0096931	0.0030538	1109.6	0.00010867	0.00010665	696.28	220.57	0.00010631	0.00010808	499.92	111.49	88.619	34.621	0.00012022	55	159.490	-109.274	163.804	-120.378	-25.838	-110.906	-121.303	-114.491	77.583	195.526	-117.196	-112.774	-112.294	-108.508	178.796	-109.881	-8191	255	
3235.459	1	1	0	0	0.12072	0.33353	0.19125	0.17544	0.074966	0.23594	0.20465	0.067122	0.17024	0.24874	0.12105	0.069364	0.18736	0.046814	0.2092	0.21892	-2.6792	-2.7083	-3.125	-2.7479	-2.6583	-3.0354	-2.7062	-2.75	-3.0479	-2.6937	-3.0792	-2.6979	-2.7479	-3.0812	-2.6958	-2.9542	60.820	-58.387	-78.482	186.879	-1.834	106.406	8.191	160.683	74.018	200.298	-63.931	-53.082	100.027	91.876	182.799	-1.493	0.00038842	0.00099353	0.00055083	378.81	5.1792e-06	4.3073e-05	399.89	110.72	2.4741e-05	1.6898e-05	151.5	62.813	43.155	19.606	2.5211e-05	32.833	0.0089364	0.010113	0.0031016	1079.6	0.00010582	0.00011156	695.41	217.36	0.00010381	0.00011424	500.67	111.22	89.006	36.153	0.00012051	55.592	141.884	99.143	13.992	-120.627	-90.180	-112.226	-120.704	-114.406	-37.277	198.061	-115.772	-112.797	-112.011	-108.216	-15.239	-109.854	-8191	255	
3235.531	1	1	0	0	0.13643	0.10851	0.3087	0.29912	0.23509	0.1008	0.18683	0.28781	0.16046	0.19974	0.11536	0.016146	0.11944	0.11225	0.068625	0.11086	-2.4354	-2.5042	-3.0896	-2.7958	-2.7417	-2.8542	-2.8646	-2.9437	-2.95	-2.6667	-3.0125	-2.8604	-2.6917	-2.8812	-2.6479	-2.8563	14.497	48.366	51.513	18.296	66.873	175.867	160.095	158.868	180.800	211.722	-107.124	-117.608	73.453	224.528	-92.722	-127.358	0.00046601	0.0022408	0.00096701	379.5	1.3016e-05	1.4619e-05	401.96	112.58	1.6564e-05	1.3017e-05	158.46	64.06	43.975	20.149	2.6289e-05	33.874	0.0089517	0.010815	0.0030712	1074.5	0.00010664	0.00011947	694.95	218.48	0.00010576	0.00012186	496.82	112.22	90.745	37.576	0.00011735	56.387	147.947	118.305	-25.171	-120.849	-42.057	192.433	-120.754	-114.429	121.239	222.924	-115.277	-112.825	-112.114	-107.887	-18.168	-109.726	-8191	255	
3235.627	1	1	0	0	0.15597	0.096033	0.14357	0.23248	0.17321	0.058597	0.0088935	0.19989	0.056747	0.29141	0.16061	0.019721	0.15208	0.13596	0.094315	0.1064	-2.6771	-2.6604	-2.725	-2.8333	-2.75	-3.1917	-2.8625	-2.8542	-2.9542	-2.6833	-3.0312	-3.0583	-2.5167	-2.8375	-2.7625	-2.8896	-54.808	-10.979	224.142	-110.830	81.635	144.234	27.581	150.324	-37.961	-99.867	-124.222	90.029	183.752	-51.225	184.291	48.122	0.00065292	0.0027276	0.00051268	381.22	1.6848e-05	7.0355e-06	403.82	111.87	8.668e-06	1.3393e-05	157.41	63.54	43.306	20.04	2.0851e-05	33.028	0.0092196	0.011375	0.0030047	1068.1	0.0001112	0.00012502	688.5	217.1	0.00011061	0.00012506	485.48	111.22	92.399	37.437	0.00011237	55.132	91.106	184.417	-50.085	-119.630	168.866	139.500	-120.940	-114.915	-71.412	137.463	-116.972	-113.013	-112.415	-107.747	-19.302	-110.085	-8191	255	
3235.747	1	1	0	0	0.30963	0.14735	0.29468	0.1579	0.23327	0.032432	0.099968	0.17436	0.066546	0.24662	0.29672	0.012516	0.16883	0.34725	0.2164	0.23974	-2.7625	-2.6875	-2.6417	-2.8125	-2.6	-3.1896	-3.1146	-2.8104	-2.9542	-2.7771	-2.8917	-3.2438	-2.6833	-2.9417	-2.8812	-2.825	-64.955	-41.557	184.675	-31.153	156.527	125.790	61.907	-69.233	109.355	35.285	113.098	174.396	81.768	6.119	-44.118	187.497	0.00095543	0.0016401	0.0010268	378.22	2.1353e-05	2.2072e-06	398.37	111.15	2.4239e-05	2.5082e-05	152.69	62.311	42.396	19.493	1.1059e-05	32.24	0.0095802	0.011236	0.0028692	1041.9	0.00011519	0.00012175	672.71	212.69	0.00011469	0.00012021	470.41	108.23	93.484	36.15	0.00010813	53.667	124.529	-79.564	4.893	-120.544	180.436	-71.805	-121.158	-115.179	172.047	33.234	-116.563	-112.773	-112.178	-107.725	-65.532	-110.005	-8191	255	
3235.843	1	1	0	0	0.096507	0.14378	0.17245	0.15767	0.13439	0.11578	0.26062	0.25982	0.10503	0.12938	0.14168	0.087738	0.05865	0.12258	0.073918	0.2794	-2.7208	-2.7271	-2.825	-2.925	-2.8708	-3.1083	-2.9646	-2.7	-3.1042	-3.0667	-2.7875	-3.125	-2.6813	-2.8729	-3.1583	-2.9146	-17.030	25.826	5.516	-52.227	200.270	6.065	180.353	-85.356	-115.258	53.422	-105.008	-36.952	-89.526	-73.170	-125.025	220.395	0.0008023	0.0016343	0.00062205	376.1	2.3814e-05	2.5631e-05	398.23	111.14	7.1657e-06	3.3021e-05	156.07	63.023	43.358	19.859	2.3702e-05	33.01	0.009956	0.010714	0.0027528	1034	0.00011874	0.00011539	662.47	212.57	0.00011804	0.00011423	459.08	109.52	94.993	35.811	0.00010398	54.953	120.966	-43.340	-39.857	-120.017	188.572	39.526	-120.836	-114.813	106.122	52.678	-116.734	-113.161	-112.147	-107.514	37.769	-109.822	-8191	255	
3235.940	1	1	0	0	0.080627	0.18043	0.29354	0.19777	0.29509	0.28306	0.28613	0.032672	0.12181	0.28212	0.20229	0.17532	0.2242	0.046351	0.11396	0.12806	-2.5292	-2.7396	-2.6146	-3.25	-2.8833	-3.0146	-3.0125	-2.7479	-3.0938	-2.8292	-2.7146	-3.0771	-2.6896	-2.9396	-2.95	-2.8521	155.973	-22.551	-32.464	40.897	99.910	54.771	216.774	30.944	-109.878	64.943	29.773	88.889	-67.426	129.124	-47.516	54.293	0.00049921	0.0013945	0.00051618	374.32	2.1005e-05	3.0632e-05	404.98	112.33	3.8346e-06	6.0313e-06	157.86	64.239	44.433	20.365	1.9849e-05	33.551	0.010107	0.010159	0.0026803	1060.7	0.00012016	0.00011119	659.96	218.61	0.00011785	0.00010928	453.39	113.15	95.367	35.867	0.00010121	56.711	131.507	2.495	-7.975	-120.537	-42.031	7.862	-120.856	-115.032	67.982	37.655	-116.867	-113.371	-111.643	-107.538	152.361	-109.899	-8191	255	
3236.059	1	1	0	0	0.069863	0.21305	0.19453	0.09289	0.036572	0.082333	0.21876	0.22796	0.18236	0.26759	0.14081	0.16577	0.10811	0.17535	0.01225	0.19721	-2.7479	-2.7833	-2.6958	-3.0312	-2.7667	-2.9125	-3.0729	-2.7562	-3.0646	-2.6562	-2.6646	-3.1063	-2.7417	-2.7687	-2.8875	-2.8271	152.431	53.893	-5.137	-53.202	-94.096	-69.429	164.558	-114.286	-80.486	-20.091	-5.029	104.248	188.349	-130.595	-25.155	156.674	0.00057154	0.00052423	0.00036735	377.44	2.8821e-05	2.2025e-05	403.94	113.42	2.0863e-05	1.6095e-05	157.38	64.805	44.14	20.15	1.4425e-05	33.285	0.0098993	0.0098688	0.0026132	1093.8	0.00011597	0.00010767	658.14	224.31	0.00011444	0.00010723	454.56	115.7	93.841	35.431	0.00010303	57.473	174.862	221.396	-49.853	-120.364	-7.389	18.695	-121.113	-114.923	-19.958	24.662	-116.405	-112.984	-112.181	-107.554	168.513	-109.648	-8191	255	
3236.130	1	1	0	0	0.088477	0.28363	0.052775	0.16613	0.17271	0.2491	0.21569	0.077797	0.080854	0.13785	0.060294	0.14535	0.10393	0.13782	0.2104	0.10245	-2.4521	-2.5438	-2.7167	-2.9604	-2.6542	-2.65	-3.1813	-2.9875	-2.8479	-2.8896	-2.8438	-3.2708	-2.8083	-2.6604	-2.925	-2.8229	-40.882	-9.423	122.347	-118.988	179.732	-37.151	118.366	-5.517	94.587	197.735	132.945	56.019	141.322	186.154	74.737	-9.863	0.00058488	0.00068529	0.00022242	383.54	2.2028e-05	2.9133e-05	399.37	112.15	2.3702e-05	2.2943e-05	154.56	63.07	43.516	19.514	2.783e-05	32.618	0.009582	0.0096468	0.0026956	1127.2	0.00011237	0.00010592	664.52	225.97	0.00011039	0.00010453	462.46	114.71	90.828	34.387	0.00010729	56.585	-129.769	1.400	110.433	-120.046	-13.337	91.880	-121.170	-114.957	13.816	-68.301	-117.477	-112.850	-112.267	-107.667	204.895	-109.508	-8191	255	
3236.226	1	1	0	0	0.1485	0.09828	0.024446	0.18673	0.14468	0.30657	0.11684	0.073174	0.16493	0.15529	0.20679	0.084975	0.19075	0.11078	0.1513	0.22009	-2.4521	-2.8333	-2.725	-3.0542	-2.875	-2.825	-3.1833	-2.9354	-3.0708	-3.0042	-2.8042	-3.2167	-2.925	-2.7479	-2.9437	-2.9646	-106.454	150.292	216.409	-25.278	153.739	-100.586	-54.957	-24.532	135.987	-129.762	-66.324	-79.351	-41.144	-108.833	-60.110	218.818	0.00043808	0.0019095	0.00085349	381	1.0412e-05	1.7062e-05	397.73	111.58	5.8189e-06	7.7242e-06	153.63	63.272	43.68	19.73	2.9878e-05	33.102	0.0092554	0.009458	0.0028332	1123	0.00010949	0.00010436	675.8	225.07	0.0001084	0.00010414	485.79	114.87	90.931	34.949	0.00011699	57.034	156.279	-45.207	152.035	-119.681	93.334	-24.632	-121.199	-114.822	63.256	-77.253	-118.111	-112.963	-112.418	-107.655	195.953	-109.818	-8191	255	
3236.347	1	1	0	0	0.14323	0.21487	0.126	0.16383	0.10638	0.0096619	0.032765	0.074597	0.21632	0.31846	0.073325	0.1243	0.20874	0.070915	0.34212	0.18885	-2.5687	-3.0938	-2.7646	-3.0396	-2.9854	-2.7104	-3.1646	-2.7375	-2.7521	-2.9062	-2.75	-3.2208	-3.0062	-2.7333	-3.1854	-2.8354	79.304	-5.806	-127.179	179.400	18.164	129.032	158.269	201.483	-96.988	140.365	-103.922	-56.019	-31.403	88.326	-111.882	106.677	0.00094187	0.0016238	0.00094095	383.66	1.653e-05	1.3163e-05	398.75	113.02	5.3563e-06	1.6103e-05	153.19	64.552	44.561	20.325	9.8384e-06	33.772	0.0093409	0.0097132	0.0030648	1121.2	0.00010937	0.0001075	696.22	224.58	0.00010818	0.00010753	505.82	115.09	91.449	36.091	0.00012171	57.196	139.469	190.689	140.120	-119.174	71.319	197.625	-121.390	-114.814	23.941	-110.265	-116.562	-112.959	-111.715	-107.902	209.488	-109.619	-8191	255	
3236.443	1	1	0	0	0.073212	0.089887	0.075181	0.13505	0.12531	0.22783	0.21221	0.22872	0.097151	0.22471	0.13137	0.15579	0.15794	0.13703	0.1445	0.1124	-2.5729	-3.2042	-2.4688	-2.8521	-3.0917	-2.6958	-2.9917	-2.6979	-2.9146	-3.3	-2.6937	-2.8771	-2.875	-2.7125	-3.0375	-2.9104	167.114	116.375	-98.918	-86.192	-58.646	-124.156	215.326	59.045	-124.683	-70.362	-84.035	-60.638	22.309	181.773	-106.822	1.463	0.00056821	0.00087974	0.0005207	388.16	1.0238e-05	1.2047e-05	406.46	114.14	4.3459e-06	1.7373e-05	159.4	64.512	44.489	20.112	1.775e-05	33.7	0.0090748	0.0099839	0.0031253	1096.3	0.00010649	0.00011143	702.4	220.89	0.00010597	0.00011297	509.07	113.69	90.387	36.604	0.00012013	56.247	190.129	171.974	78.588	-120.124	8.279	156.602	-120.728	-114.382	103.882	204.175	-115.997	-112.703	-111.551	-107.811	-130.354	-110.014	-8191	255	
3236.539	1	1	0	0	0.21305	0.21812	0.17284	0.25775	0.36622	0.13157	0.1358	0.04384	0.21063	0.29418	0.053115	0.055896	0.077208	0.087177	0.11891	0.16866	-2.3708	-3.2125	-2.6083	-2.7625	-3.1562	-2.9271	-3.0896	-2.9042	-2.7292	-3.2583	-2.7083	-2.7917	-2.8583	-2.9604	-3.0667	-2.6833	-16.344	98.339	-8.461	50.922	181.286	49.428	-95.276	-65.313	-125.612	96.309	-20.357	138.009	-132.300	33.772	68.136	136.276	0.00060299	0.0025974	0.0006992	382.51	9.3813e-06	2.0175e-05	404.14	112.23	4.532e-06	2.3295e-05	154.8	63.83	43.143	19.458	2.3811e-05	32.408	0.0088296	0.010482	0.0030445	1070.1	0.00010391	0.00011688	693.92	216.43	0.00010346	0.0001175	488.75	110.44	88.453	36.333	0.00011479	54.352	196.350	144.057	-26.742	-119.728	177.694	214.562	-120.482	-115.031	-106.868	-105.834	-115.942	-112.425	-112.389	-107.471	-2.255	-109.578	-8191	255	
3236.660	1	1	0	0	0.36986	0.21935	0.05244	0.11401	0.10518	0.30535	0.050717	0.15691	0.042119	0.032923	0.23389	0.1041	0.13127	0.20927	0.17699	0.2001	-2.2208	-3.1937	-2.7792	-2.7083	-3.0521	-2.7313	-2.9542	-2.8292	-2.8146	-3.0938	-2.8854	-2.7333	-3.0896	-2.8229	-2.7125	-3.1333	133.864	94.492	-116.810	174.579	87.382	196.300	37.938	139.638	75.093	26.364	170.787	89.101	116.599	-19.674	139.501	119.842	0.00069624	0.002779	0.00071751	383.16	3.6039e-05	2.1123e-06	399.9	111.41	2.9029e-05	9.8543e-06	155.27	62.825	42.853	19.774	2.1038e-05	32.578	0.0088998	0.010919	0.0029189	1045.1	0.00010477	0.00011966	675.76	211.92	0.00010552	0.00011967	473.51	108.79	90.062	36.717	0.00011008	53.943	106.225	162.265	-30.315	-119.855	200.569	122.928	-120.913	-114.673	-131.833	161.798	-115.540	-112.732	-111.884	-108.068	30.303	-109.700	-8191	255	
3236.754	1	1	0	0	0.115	0.2588	0.033883	0.30446	0.19322	0.05575	0.11669	0.13205	0.21927	0.13347	0.076287	0.15358	0.15636	0.10879	0.27282	0.11307	-2.3521	-3.0021	-2.7896	-2.8271	-3.0438	-2.8542	-3.0792	-3.0417	-2.5521	-2.9667	-2.8	-2.8292	-2.925	-2.7771	-2.925	-2.8833	140.603	-89.075	51.282	-51.300	181.313	175.448	167.423	83.084	177.569	-73.973	37.098	5.205	126.061	-110.813	121.597	25.947	0.0012042	0.0012087	0.00053558	381.3	3.3837e-05	1.9672e-05	400.22	112.44	1.2247e-05	7.8504e-06	157.13	64.06	43.886	20.32	6.39e-06	33.487	0.009281	0.010999	0.0028247	1038.4	0.000112	0.0001212	675.22	213.29	0.00011377	0.00012123	473.48	110.32	94.435	37.312	0.00010921	54.952	105.133	78.118	-1.370	-120.440	220.604	13.123	-120.584	-114.719	197.596	41.053	-115.644	-112.898	-112.091	-107.981	54.738	-109.667	-8191	255	
3236.828	1	1	0	0	0.060757	0.23944	0.26531	0.15786	0.16222	0.081809	0.26258	0.27612	0.24295	0.18508	0.268	0.095886	0.090534	0.14436	0.11331	0.24931	-2.35	-2.9292	-3.0146	-2.7833	-2.8917	-2.8042	-3.1021	-3.0771	-2.5083	-2.8792	-2.8458	-2.6688	-3.0792	-2.7292	-2.725	-2.9646	157.542	65.647	7.046	-31.264	101.593	12.752	152.009	-90.771	-103.422	-39.470	-125.110	91.747	78.951	100.067	44.278	127.066	0.00086477	0.0012129	0.000365	378.69	1.8504e-05	2.627e-05	401.36	113.25	6.4376e-06	2.4379e-05	156.32	64.184	43.945	20.316	3.6281e-06	33.168	0.0099015	0.010843	0.0027821	1047.5	0.00011883	0.00011836	672.68	215.41	0.0001202	0.00011806	469.16	111.93	97.332	37.076	0.00010885	55.829	123.328	-65.874	67.230	-119.652	209.876	69.559	-120.816	-114.680	180.476	20.191	-116.655	-113.265	-112.804	-107.848	136.983	-110.073	-8191	255	
3236.924	1	1	0	0	0.26865	0.2907	0.11143	0.11657	0.089276	0.31307	0.16954	0.08437	0.23962	0.21084	0.20266	0.20031	0.14493	0.32301	0.25465	0.085303	-2.4542	-3.1854	-3.0792	-2.6042	-2.8208	-2.7646	-2.9583	-2.8458	-2.5479	-3.0667	-2.8979	-2.7458	-3.0792	-2.8479	-2.6875	-3.2458	-114.564	-13.903	189.247	50.872	66.560	-30.853	110.118	-104.222	-108.345	28.370	122.139	177.901	-31.625	103.942	-124.355	-91.926	0.00099074	0.0022584	0.00061396	380.45	7.9695e-06	1.2085e-05	401.44	112.14	1.68e-05	1.9496e-06	154.74	62.389	43.385	19.692	1.6189e-05	31.973	0.010506	0.010714	0.0027962	1085.6	0.00012481	0.00011651	670.98	219.75	0.00012372	0.00011565	462.61	112.71	96.589	35.807	0.00010712	55.758	115.527	-33.777	9.295	-121.230	-17.928	33.605	-121.096	-115.173	-75.403	-80.339	-116.803	-113.683	-111.889	-108.010	12.350	-110.227	-8191	255	
3237.020	1	1	0	0	0.064802	0.14162	0.050505	0.023042	0.22239	0.23509	0.17438	0.3488	0.050448	0.13762	0.18342	0.16094	0.15012	0.30245	0.16518	0.038707	-2.1729	-2.7229	-3.0187	-2.7396	-3.1688	-2.7396	-2.5771	-3.0021	-2.6458	-2.9333	-2.9604	-2.7958	-3.0187	-2.8208	-2.7396	-3.0021	201.814	37.507	33.723	-73.795	181.369	-59.331	-125.682	199.455	-17.663	108.845	147.273	155.860	-94.229	-131.572	16.782	223.571	0.00023065	0.0023971	0.00039302	375.81	9.1875e-06	7.3936e-06	397.21	110.05	1.9396e-05	2.1274e-05	154.07	61.302	42.99	19.495	1.5009e-05	32.044	0.010418	0.010374	0.0027277	1116.4	0.00012183	0.00011177	660.32	222.6	0.00011896	0.00011162	455.81	113.73	94.483	35.121	0.00010608	56.457	104.827	-63.414	206.423	-121.497	10.353	-9.813	-120.906	-115.213	-35.151	-1.436	-116.559	-113.209	-111.835	-107.524	-115.611	-110.010	-8191	255	
3237.139	1	1	0	0	0.19721	0.054767	0.11574	0.15594	0.15277	0.1546	0.24904	0.21705	0.18335	0.028229	0.31385	0.1984	0.29454	0.25822	0.12866	0.032221	-2.4354	-2.95	-3.2396	-2.7562	-2.8	-2.7208	-2.6604	-3.3	-2.9146	-3.0583	-3.1021	-2.5438	-3.0021	-2.8438	-2.5729	-3.225	-51.389	140.601	42.382	140.513	78.620	170.273	115.292	-23.259	101.138	-13.301	164.316	138.239	-120.902	108.118	149.892	6.030	0.00053726	0.0015225	0.0004479	379.36	1.8271e-05	9.5553e-06	396.31	111.07	2.1485e-05	1.7476e-05	152.02	63.115	43.868	20.011	1.6284e-05	32.619	0.0099657	0.010023	0.00272	1138.2	0.00011674	0.00010891	666.19	229.2	0.0001152	0.00010987	469.34	116.87	93.781	35.477	0.00011165	57.918	223.429	-2.237	145.095	-120.679	19.432	47.941	-121.116	-115.158	-28.918	-36.490	-117.475	-113.061	-111.270	-107.735	162.709	-109.813	-8191	255	
3237.235	1	1	0	0	0.25684	0.091858	0.15104	0.027514	0.3159	0.056399	0.18215	0.15704	0.19955	0.23013	0.21392	0.14937	0.16797	0.10452	0.15772	0.14675	-2.4958	-2.8354	-3.15	-2.6854	-2.9042	-2.9562	-2.5312	-3.1229	-2.7083	-2.7792	-2.975	-2.6854	-2.7667	-3.0583	-2.7792	-3.0875	-111.867	-102.834	48.950	162.871	130.864	90.474	163.081	106.119	215.264	-102.504	28.635	-66.410	-131.523	-104.377	-130.710	-123.610	0.00033137	0.0022636	0.0005575	383.3	3.4469e-06	2.1087e-05	397.82	112.12	1.694e-05	6.2678e-06	151.28	63.234	43.667	19.793	4.0752e-05	32.524	0.0097836	0.0099884	0.002921	1167.4	0.00011489	0.00010821	683.94	229.88	0.00011258	0.00010894	489.7	116.39	92.638	35.178	0.00011955	57.386	144.558	-29.466	144.879	-120.051	0.909	32.290	-121.357	-115.195	-6.119	-48.273	-117.757	-112.825	-112.316	-108.086	196.414	-109.829	-8191	255	
3237.331	1	1	0	0	0.14617	0.13426	0.3	0.11801	0.097224	0.086883	0.24857	0.10012	0.18825	0.25866	0.061431	0.21003	0.0504	0.23637	0.18052	0.03627	-2.2708	-2.7771	-2.9458	-2.5542	-2.9896	-3.2417	-2.8271	-3.075	-2.7854	-2.8333	-3.0167	-2.6167	-2.7812	-2.9646	-2.7583	-3.0083	-89.117	153.731	-5.152	88.075	-126.315	67.923	156.885	-103.422	36.981	24.883	88.392	218.521	58.205	153.943	220.608	190.501	0.00071941	0.0017172	0.00065539	381.3	1.7107e-05	9.7606e-06	397.26	112.61	2.135e-05	1.0283e-05	152.15	62.2	42.33	19.303	1.2774e-05	32.043	0.0095946	0.0099334	0.0031022	1149.3	0.00011387	0.00010891	700.44	227.32	0.00011072	0.00011032	505.85	113.75	90.78	34.891	0.00012292	55.992	116.323	3.492	154.195	-119.373	-84.203	215.596	-121.251	-114.657	-16.962	212.541	-116.787	-112.722	-111.814	-108.049	203.621	-109.588	-8191	255	
3237.427	1	1	0	0	0.064138	0.12613	0.1568	0.13804	0.16321	0.42425	0.17116	0.18962	0.18238	0.2612	0.043853	0.31854	0.17089	0.12956	0.18329	0.12872	-2.5417	-2.5917	-2.9542	-2.7104	-2.9125	-3.1083	-2.8021	-3.0854	-2.8958	-2.6	-3.0312	-2.9146	-2.6875	-3.0187	-2.7667	-3.05	61.045	-85.437	-33.402	7.859	-36.743	66.100	-77.499	161.278	-64.002	-38.428	-33.477	139.431	58.187	67.618	194.272	91.180	0.00044753	0.00061732	0.00022481	385.71	2.1536e-05	1.6518e-05	397.98	110.37	3.1171e-05	2.2523e-05	151.8	61.734	42.893	19.336	2.2887e-05	32.075	0.0093142	0.010207	0.0032006	1114.5	0.00011078	0.00011243	703.2	221.76	0.00010769	0.00011468	510.61	111.73	90.432	35.985	0.00012574	55.563	176.697	98.590	175.921	-120.716	-38.097	-101.770	-121.120	-115.082	16.373	-128.780	-116.081	-112.813	-111.985	-107.941	-25.487	-110.042	-8191	255	
3237.524	1	1	0	0	0.30021	0.167	0.24898	0.28565	0.051157	0.25763	0.13561	0.08776	0.084552	0.057053	0.070544	0.066545	0.22616	0.11156	0.29721	0.1929	-2.5625	-2.5583	-2.8271	-2.6688	-2.6833	-3.1042	-2.7396	-2.7188	-3.0833	-2.9104	-2.9313	-2.8979	-2.9417	-3.1958	-2.5375	-3.0833	190.643	14.971	-67.244	-95.536	117.156	28.975	194.878	163.396	204.325	-113.021	-89.625	113.199	-13.862	123.726	-51.812	2.656	0.00050105	0.0011422	0.00021234	384.49	1.8543e-05	2.291e-05	398.33	112.27	1.0026e-05	2.8854e-05	156.34	62.443	43.956	20.086	2.0897e-05	33.022	0.0092306	0.010908	0.0032333	1110.5	0.00011075	0.00012137	705.73	223.45	0.00010909	0.00012442	513.4	112.87	92.167	37.828	0.0001244	56.565	166.098	164.129	31.368	-120.444	44.657	-126.072	-121.102	-114.840	146.499	219.210	-116.209	-112.836	-112.005	-108.339	32.852	-109.791	-8191	255	
3237.620	1	1	0	0	0.151	0.017678	0.070297	0.084398	0.092651	0.11149	0.31977	0.080508	0.15498	0.24828	0.065897	0.17684	0.23101	0.29615	0.14613	0.085054	-2.6896	-2.6417	-2.9313	-2.9542	-2.8875	-2.9958	-2.775	-2.9292	-3.1708	-2.6937	-3.15	-2.9542	-2.7333	-3.2354	-2.675	-2.6208	60.476	144.002	88.239	173.051	-120.205	-44.856	150.129	170.726	190.970	147.989	-66.319	48.953	-80.916	166.804	130.827	67.059	0.00070103	0.0029175	0.0011568	388.5	5.3926e-06	2.324e-05	398.77	113.27	1.9382e-05	2.0463e-05	157.26	63.729	43.592	20.502	4.4364e-05	33.261	0.0095045	0.011768	0.0032171	1111.5	0.00011484	0.00013021	702.73	224.51	0.00011425	0.00013259	514.24	114.49	95.868	39.422	0.00012444	57.299	134.180	135.571	-45.538	-119.315	-85.410	169.347	-120.840	-114.723	179.832	187.859	-115.550	-112.796	-111.978	-107.703	23.887	-109.755	-8191	255	
3237.740	1	1	0	0	0.080298	0.11477	0.22428	0.17886	0.19713	0.13428	0.33003	0.08677	0.13713	0.12349	0.083697	0.082507	0.14329	0.25364	0.11386	0.044351	-2.4854	-2.8146	-3.0021	-2.7542	-2.7354	-3.1125	-2.85	-2.9208	-3.1521	-2.725	-2.8146	-3.1312	-2.8729	-3.0417	-2.7313	-2.8979	85.004	216.855	-76.044	-112.997	173.854	140.710	123.109	57.963	127.898	91.108	-66.894	20.878	-76.330	87.038	-44.567	225.704	0.0010152	0.00082343	0.00085586	382.22	3.5026e-05	2.085e-05	399.42	112.29	2.3297e-05	2.0157e-05	154.08	62.664	43.343	20.311	1.3009e-05	32.766	0.01023	0.012405	0.0032114	1118.5	0.00012462	0.00013712	706.17	226.48	0.00012607	0.0001373	513.93	114.03	99.308	39.229	0.00012352	56.735	83.395	114.435	-47.079	-119.494	194.245	48.563	-120.710	-114.501	189.322	-3.113	-116.507	-113.111	-112.253	-107.658	48.481	-109.861	-8191	255	
3237.835	1	1	0	0	0.21883	0.17535	0.11805	0.05172	0.16464	0.22811	0.075745	0.14456	0.13395	0.05226	0.027	0.048781	0.35286	0.26671	0.28659	0.10758	-2.8438	-2.6583	-2.7875	-2.8854	-2.6437	-3.0458	-2.7667	-2.7062	-3.1854	-2.7208	-2.7604	-3.2021	-2.7958	-2.9062	-2.9375	-2.8667	36.456	-12.026	-70.777	59.863	88.261	100.476	81.926	-78.907	16.302	54.127	188.842	176.671	-65.052	170.889	12.895	139.020	0.00098667	0.0006359	0.00017255	384.49	2.7116e-05	8.4432e-06	396.3	110.48	4.3366e-05	5.3703e-06	152.43	61.419	42.378	19.576	1.6494e-05	31.602	0.011005	0.012354	0.0031791	1118.4	0.00013218	0.00013343	694.42	223.95	0.00013188	0.00013244	502.02	112.58	100.64	37.995	0.00012107	56.254	105.030	119.730	-89.955	-120.557	183.526	7.575	-121.057	-115.086	171.766	99.825	-115.928	-113.125	-112.934	-108.065	59.674	-110.434	-8191	255	
3237.931	1	1	0	0	0.19326	0.27257	0.14037	0.20002	0.13281	0.222	0.19763	0.25179	0.18313	0.12556	0.24915	0.16284	0.22447	0.031142	0.045098	0.024289	-2.4958	-2.7021	-2.8417	-3.0958	-2.8063	-2.9813	-2.6333	-2.8667	-3.0521	-2.6875	-2.6312	-3.0062	-2.7479	-2.9771	-2.9188	-2.5312	99.732	186.524	-53.350	46.834	-55.187	-93.655	92.818	-11.526	48.656	51.253	83.031	175.143	167.544	-119.693	-86.079	-47.122	0.001058	0.0019327	0.00032602	380.17	7.9737e-06	2.5456e-05	396.9	111.23	1.7973e-05	2.0055e-05	152.31	61.895	43.526	20.156	1.4078e-05	32.689	0.011532	0.011957	0.0031225	1146.3	0.0001387	0.00013025	690.61	229.03	0.0001366	0.0001285	499.09	115.97	102.85	38.234	0.00011967	58.521	105.400	-21.024	-55.786	-120.242	208.947	31.291	-121.110	-115.071	14.289	8.933	-116.074	-113.234	-111.968	-107.614	-59.387	-110.165	-8191	255	
3238.027	1	1	0	0	0.22491	0.17868	0.20664	0.13946	0.20762	0.17553	0.060932	0.18881	0.032833	0.070384	0.076137	0.11664	0.23033	0.15199	0.18202	0.18961	-2.3958	-2.8063	-2.8792	-2.95	-2.7104	-3.0083	-3.2062	-2.6437	-3.0771	-2.7854	-2.7542	-3.0354	-2.8042	-2.8417	-3.0354	-2.7354	-10.634	149.289	207.480	96.906	-40.446	-69.280	123.611	176.825	123.574	-96.179	-72.224	223.623	23.909	-20.901	-120.552	-16.281	0.00013942	0.00091848	0.00015825	375.29	9.3693e-06	8.7449e-06	397.24	111.89	2.0077e-05	1.6414e-05	152.42	63.144	45.221	20.517	2.4875e-05	33.204	0.011828	0.011784	0.0031133	1205.3	0.00013946	0.00012895	692.88	239.32	0.00013723	0.000127	500.83	120.58	103.02	38.399	0.00011881	60.378	-106.475	-9.847	-64.142	-120.338	30.492	36.549	-120.889	-115.161	25.952	27.188	-116.338	-112.905	-111.551	-107.933	-91.827	-110.066	-8191	255	
3238.123	1	1	0	0	0.052393	0.3004	0.10945	0.080708	0.11495	0.21875	0.25545	0.21006	0.1575	0.051646	0.10144	0.23247	0.23138	0.27682	0.10884	0.1388	-2.6979	-2.8021	-2.5729	-3.2417	-2.7104	-2.8771	-2.8729	-2.6729	-2.9771	-2.9229	-2.7646	-3.2229	-2.8521	-2.7125	-3.1604	-2.8333	105.724	80.989	-65.151	-118.903	42.952	200.525	128.650	198.191	119.492	-11.603	223.280	200.853	157.861	50.577	222.722	202.144	0.00059306	0.0016769	0.00056088	383.06	1.9204e-05	1.8958e-05	396.87	113.04	3.1583e-05	1.445e-05	152.02	62.948	44.172	20.102	2.3737e-05	32.886	0.011409	0.011399	0.0030966	1237.9	0.00013372	0.00012481	693.32	243.12	0.00013063	0.00012234	503.67	121.85	99.624	37.422	0.00012115	60.414	-99.154	-30.630	183.540	-120.927	9.684	81.771	-120.834	-114.781	-3.758	-74.627	-117.145	-113.003	-112.171	-107.965	184.157	-109.745	-8191	255	
3238.219	1	1	0	0	0.21026	0.41481	0.10595	0.12409	0.11615	0.25427	0.15928	0.027449	0.21	0.19092	0.24983	0.24809	0.078598	0.1029	0.11212	0.14938	-2.2854	-2.8854	-2.475	-3.0396	-2.8958	-2.6312	-3.0708	-2.625	-3.0625	-3.1979	-2.6958	-3.1292	-2.6813	-2.8292	-3.1312	-2.8	199.655	5.033	-1.179	-66.090	111.725	203.916	-109.288	-81.130	-98.293	9.285	-32.881	178.818	217.054	121.639	-114.592	-105.176	0.00017463	0.0023849	0.00084296	382.07	6.4214e-06	1.7643e-05	396.32	112.32	2.4982e-05	1.7233e-05	148.85	62.586	43.846	19.738	2.6293e-05	32.041	0.010849	0.010951	0.0031479	1236.3	0.00012552	0.00011934	697.86	239.53	0.00012289	0.00011627	508.67	119.45	95.955	36.216	0.00012424	58.516	125.713	-76.524	150.446	-119.984	-8.451	6.659	-121.088	-114.875	-1.499	41.562	-117.204	-112.908	-111.758	-108.219	198.021	-109.720	-8191	255	
3238.315	1	1	0	0	0.38214	0.059255	0.11012	0.054637	0.13067	0.18597	0.46169	0.12225	0.24818	0.12649	0.041392	0.11832	0.098396	0.13179	0.13892	0.15507	-2.3792	-2.975	-2.6583	-2.7875	-2.8396	-2.8167	-3.2229	-2.6646	-2.8208	-3.2271	-2.7417	-3.1771	-2.625	-2.8708	-3.0354	-2.6354	93.707	-129.228	55.975	-9.142	9.546	38.569	174.246	208.357	140.484	165.999	35.910	183.053	67.145	202.954	145.604	-39.168	0.00034851	0.00061477	0.00068209	387.77	1.5467e-05	2.0741e-05	396.81	112.67	1.5847e-05	1.6495e-05	150.65	62.685	44.265	20.229	2.0132e-05	32.717	0.010282	0.010498	0.0032497	1203	0.00012022	0.00011649	710.17	236.51	0.00012101	0.00011702	531.63	119.03	96.303	37.119	0.00013324	58.839	178.097	12.610	110.776	-119.422	-39.215	-33.242	-121.479	-114.768	-10.597	-82.342	-118.010	-112.697	-111.774	-107.560	170.949	-109.551	-8191	255	
3238.436	1	1	0	0	0.13964	0.036824	0.088112	0.15271	0.22381	0.12813	0.13053	0.16218	0.14142	0.26735	0.14282	0.099067	0.16414	0.17206	0.079424	0.15108	-2.3292	-2.8271	-2.6604	-2.9938	-2.8833	-2.6937	-2.9771	-2.8125	-2.775	-3.2708	-2.6979	-2.8	-2.9083	-2.7604	-3.0812	-2.6854	212.991	21.443	106.340	98.474	-79.625	-15.610	133.484	-63.064	-58.323	26.548	140.446	204.291	184.526	-121.617	146.283	209.790	0.00030751	0.0022781	0.00043504	388.41	2.6222e-05	9.4079e-06	398.78	113.72	1.4752e-05	2.2964e-05	152.75	63.752	44.994	20.447	1.4973e-05	33.425	0.010327	0.010911	0.003482	1205.4	0.00012206	0.00012361	732.7	236.54	0.0001215	0.00012382	551.09	119.46	97.003	38.527	0.00013817	59.275	-106.072	130.183	226.852	-119.110	87.889	-126.369	-120.806	-114.261	72.562	-107.806	-117.015	-112.264	-111.991	-107.942	-120.807	-109.755	-8191	255	
3238.532	1	1	0	0	0.11576	0.17498	0.068605	0.14735	0.22155	0.27456	0.16415	0.21386	0.048309	0.24337	0.034492	0.14022	0.17923	0.162	0.14755	0.27659	-2.2812	-3.0667	-2.8792	-2.9625	-2.85	-2.5812	-3.0708	-2.7792	-2.8542	-3.0958	-2.6333	-2.8937	-3.0292	-2.8125	-3.2417	-2.8521	59.134	-3.136	-106.086	117.389	-112.851	-23.744	155.906	-63.962	-80.483	-89.501	-116.997	213.951	197.163	-85.465	100.324	193.233	0.00064474	0.002383	0.00017831	395.23	3.8713e-06	2.2635e-05	401.91	113.68	1.1034e-05	1.7738e-05	155.06	63.787	44.666	20.441	2.0106e-05	33.069	0.010379	0.011757	0.0035629	1196.8	0.00012072	0.00013199	739.55	236.31	0.00012126	0.00013355	551.48	119.09	96.563	39.538	0.00013589	58.543	-126.941	191.442	-60.577	-119.754	-12.378	203.882	-120.965	-114.843	68.601	193.999	-117.225	-112.584	-111.645	-107.955	-0.510	-109.929	-8191	255	
3238.628	1	1	0	0	0.13968	0.18111	0.16763	0.14422	0.093282	0.21877	0.20576	0.11775	0.091752	0.22935	0.09255	0.11916	0.059774	0.1245	0.19866	0.24515	-2.3708	-3.0563	-2.8312	-2.9625	-3.0333	-2.6479	-3.0896	-2.8312	-2.6771	-3.1562	-2.7854	-2.6063	-3.1396	-2.7188	-2.7229	-2.8896	151.506	-118.950	186.652	-119.620	165.496	-121.506	169.469	42.476	188.148	216.122	142.510	24.056	-95.761	-83.905	22.562	-40.291	0.00013239	0.0017717	0.00059097	385.89	5.3734e-06	2.5566e-05	401.68	113.31	1.5374e-05	3.1392e-05	153.53	62.395	43.578	19.738	3.279e-05	32.033	0.010242	0.012404	0.0034614	1179.5	0.00012068	0.00013811	729.16	232.07	0.00012205	0.00013878	533.51	116.17	96.598	39.545	0.00013198	56.952	101.991	118.871	15.513	-120.138	100.917	215.324	-120.578	-114.377	167.292	185.426	-115.829	-112.826	-112.235	-108.062	6.973	-109.990	-8191	255	
3238.700	1	1	0	0	0.22792	0.15877	0.067847	0.094621	0.17367	0.14683	0.086103	0.20599	0.12945	0.12189	0.13396	0.027481	0.18822	0.16273	0.13304	0.10023	-2.3771	-3.0479	-2.575	-2.6937	-3.2	-2.7521	-2.825	-3	-2.8583	-3.1042	-2.8021	-2.8958	-2.9792	-2.8083	-2.9396	-3.1396	1.098	-95.000	-38.816	225.258	-73.950	-49.978	-28.744	191.802	-130.947	188.763	-106.403	14.998	-0.554	155.207	-128.354	209.093	0.0011994	0.001404	0.00051565	388.18	2.6018e-05	8.8011e-06	397.69	113.68	3.6572e-05	1.0541e-05	154.13	62.219	44.159	20.285	8.5496e-06	32.527	0.010619	0.0129	0.0033642	1167.4	0.00012683	0.00014192	717.13	229.69	0.00012845	0.00014158	524.25	115.87	100.32	40.045	0.00013025	57.381	127.919	-92.835	-16.279	-119.188	166.698	19.843	-120.881	-114.857	217.883	43.296	-116.218	-112.678	-111.985	-107.819	20.417	-109.990	-8191	255	
3238.821	1	1	0	0	0.21206	0.03941	0.075216	0.17689	0.13035	0.16245	0.15735	0.10034	0.17507	0.052091	0.24373	0.26903	0.16929	0.22404	0.20771	0.17843	-2.0854	-3.0771	-2.975	-2.6208	-3.0979	-2.7125	-2.9562	-3.0771	-2.7479	-3.1771	-2.8354	-2.8812	-3.2979	-2.7458	-2.7375	-3.1063	16.078	14.651	1.746	196.340	-23.071	200.889	-4.292	173.192	201.291	71.475	221.935	157.089	209.609	202.748	25.262	-15.343	0.00060509	0.0021482	0.000275	391.02	3.9358e-05	2.0777e-05	403.51	114.01	2.9365e-05	4.2475e-05	154.95	63.166	44.602	20.66	1.296e-05	33.174	0.011407	0.01301	0.0033409	1169.6	0.00013662	0.00014196	719.68	232.18	0.00013774	0.0001412	523.96	117.78	104.97	40.26	0.00012904	58.43	122.219	-79.391	39.876	-119.786	201.779	16.176	-121.005	-114.914	218.645	36.044	-115.557	-113.021	-112.153	-107.439	-14.316	-109.982	-8191	255	
3238.917	1	1	0	0	0.16123	0.16157	0.21786	0.25216	0.19189	0.22038	0.084962	0.13559	0.15573	0.31955	0.27308	0.15839	0.13191	0.25466	0.23025	0.19819	-2.3708	-2.8917	-2.8083	-2.9146	-2.9333	-2.6083	-2.7792	-3.1188	-2.5563	-3.0542	-2.9667	-2.6521	-3.0625	-2.9646	-2.8021	-3.1021	87.649	191.620	-47.595	205.623	-4.996	-112.843	80.493	44.094	98.912	-68.087	107.184	-112.838	-109.200	77.474	-76.995	169.652	0.00058709	0.00090781	0.00013157	390.4	1.2291e-05	2.3886e-05	404.07	114.93	3.03e-05	2.195e-05	156.54	63.302	44.991	20.777	1.7226e-05	33.171	0.012018	0.012738	0.0032816	1189.9	0.00014363	0.00013777	718.72	236.77	0.00014362	0.00013753	518.06	120.04	106.8	39.679	0.00012656	59.492	128.104	2.425	-8.566	-120.822	99.244	58.398	-120.763	-114.860	188.872	60.908	-116.226	-112.975	-112.066	-107.629	-21.620	-110.241	-8191	255	
3239.011	1	1	0	0	0.099237	0.14264	0.16177	0.097909	0.06195	0.17882	0.25603	0.21727	0.12014	0.0908	0.1246	0.29931	0.28809	0.16241	0.10479	0.049525	-2.3958	-2.9854	-2.9125	-2.5438	-3.1604	-2.6271	-2.8937	-3.2375	-2.8625	-2.7667	-2.9979	-2.7625	-3.15	-2.6604	-2.7375	-3.2521	-3.393	145.880	171.924	-44.874	47.913	65.034	179.489	129.886	27.461	-23.866	163.165	-63.578	-12.626	0.736	118.282	144.707	0.00045565	0.003363	0.00022805	392.71	2.5324e-05	2.2511e-05	406.59	114.81	2.4036e-05	8.8249e-06	153.72	62.33	44.744	20.032	1.5848e-05	32.422	0.012212	0.012303	0.0032152	1227.1	0.00014404	0.00013261	710.74	241.08	0.00014012	0.00013151	503.22	121.2	104.4	38.278	0.00012246	59.591	133.018	-36.120	-105.433	-120.926	-16.210	3.800	-120.916	-115.317	-49.100	69.068	-115.728	-113.276	-111.903	-108.036	88.239	-109.961	-8191	255	
3239.109	1	1	0	0	0.27736	0.29169	0.093671	0.13797	0.23335	0.10196	0.3876	0.17132	0.060855	0.11683	0.1351	0.17432	0.14462	0.13119	0.074291	0.035518	-2.1979	-2.9146	-3.1479	-2.7042	-2.9208	-2.9167	-2.9396	-3.1104	-2.6667	-2.8208	-2.9042	-2.7125	-2.9833	-3.0833	-2.6146	-3.1125	192.578	59.942	206.321	86.804	146.458	-30.439	124.933	152.779	6.752	56.737	66.345	-12.940	-95.693	-100.924	194.085	166.177	0.00034921	0.00056725	0.00024973	386	1.8455e-05	1.8593e-05	400.8	113.48	3.6992e-05	2.4989e-05	151.52	62.8	44.768	20.244	2.1738e-05	32.536	0.011736	0.011871	0.0031183	1253.6	0.00013832	0.00012787	705.79	245.9	0.00013565	0.00012905	507.42	123.18	102.91	38.077	0.00012538	60.858	-91.066	212.599	133.623	-120.648	-68.585	51.214	-121.134	-114.868	-15.127	16.294	-116.692	-112.993	-111.534	-107.815	214.876	-110.300	-8191	255	
3239.228	1	1	0	0	0.046126	0.069661	0.17916	0.29221	0.28715	0.12388	0.22708	0.22366	0.059508	0.13268	0.17474	0.29593	0.071571	0.10013	0.027184	0.25958	-2.4333	-2.7646	-2.9	-2.6875	-2.7604	-2.8208	-2.9021	-3.1417	-2.7042	-2.95	-3.1229	-2.5979	-2.8312	-3.0833	-2.6125	-2.9854	-23.708	132.920	53.007	-124.441	-68.916	-104.677	147.498	196.131	-100.880	198.546	93.186	-104.791	85.298	-11.023	-68.704	158.823	0.00032742	0.0013637	0.00073365	397.13	2.2799e-05	2.5564e-05	403.21	114.83	3.0579e-05	2.7034e-05	152.45	64.105	45.543	20.743	3.0871e-05	33.506	0.0113	0.011613	0.0032358	1289.2	0.0001347	0.00012564	718.67	250.21	0.00013051	0.00012574	522.36	124.36	101.27	38.134	0.00013062	61.658	169.783	7.933	195.111	-120.907	17.842	37.017	-121.135	-114.677	-12.952	70.752	-117.635	-112.198	-111.777	-107.877	208.728	-109.760	-8191	255	
3239.300	1	1	0	0	0.21919	0.25647	0.044147	0.21135	0.094291	0.12539	0.19815	0.094024	0.10557	0.16853	0.16934	0.091097	0.015578	0.10143	0.25491	0.1384	-2.5687	-2.7562	-2.9333	-2.6354	-3.0417	-2.8917	-2.7646	-3.0604	-3.0542	-2.8854	-3.1521	-2.6354	-2.9854	-3.0479	-2.5604	-3.0604	-71.377	170.033	226.764	-128.220	-111.127	46.366	3.415	158.230	128.452	227.262	193.617	3.478	-71.460	217.299	-38.007	-72.771	0.00056688	0.0026066	0.00085734	397.51	1.5931e-05	7.187e-06	405.93	117.25	2.3257e-05	1.7147e-05	157.32	65.155	45.335	20.88	2.155e-05	33.98	0.010945	0.011335	0.0033861	1270.1	0.00013031	0.00012282	735.73	248.91	0.00012723	0.00012392	546.35	123.91	100.36	38.047	0.00013485	60.711	219.547	-52.231	166.271	-118.994	-51.632	41.207	-121.267	-114.399	34.449	14.382	-116.670	-112.549	-111.613	-107.992	-132.209	-109.537	-8191	255	
3239.420	1	1	0	0	0.15085	0.19719	0.31789	0.078967	0.099535	0.24119	0.12156	0.13772	0.1027	0.055581	0.046347	0.16299	0.22714	0.23917	0.13331	0.32794	-2.4708	-2.6625	-3.1417	-2.7687	-2.6688	-2.9875	-2.8979	-2.9792	-2.8875	-2.7542	-2.8854	-2.7458	-2.7146	-3.1479	-2.8208	-3.1271	-95.573	44.417	9.778	104.669	67.229	58.486	61.091	-12.421	142.636	-64.741	51.719	-90.351	-114.158	123.461	-11.696	224.398	0.00021081	0.00094407	0.00024098	396.59	8.5549e-06	1.8772e-05	406.55	116.88	1.0704e-05	4.5631e-06	156.79	64.184	44.834	20.101	9.6103e-06	33.012	0.010453	0.011144	0.0034768	1222	0.00012366	0.00012069	739.09	240.34	0.00012009	0.00012265	548.9	119.72	97.461	37.811	0.00013674	58.705	162.114	171.811	152.613	-119.687	59.246	-121.581	-120.646	-114.384	126.035	-78.724	-116.491	-112.966	-112.078	-107.856	215.489	-109.756	-8191	255	
3239.516	1	1	0	0	0.04227	0.1562	0.082097	0.086531	0.42604	0.18242	0.20379	0.2952	0.22823	0.19627	0.19588	0.06417	0.082212	0.23659	0.081076	0.30027	-2.5042	-2.6333	-3.0771	-2.8104	-2.7521	-2.9542	-2.5729	-2.9125	-3.0687	-2.8646	-3.1542	-2.8854	-2.9417	-3.2812	-2.6479	-2.9625	146.425	-57.000	126.821	-92.955	3.622	112.026	174.799	198.305	91.020	178.393	147.016	-22.171	127.120	162.767	-44.718	151.079	0.00060598	0.0031019	0.0003466	398.8	1.3333e-05	4.4204e-05	407.32	115.14	2.3077e-05	9.5396e-06	156.73	63.97	44.941	20.311	2.8665e-05	32.961	0.010056	0.01149	0.0035109	1184.9	0.00011956	0.00012561	736.85	235.29	0.00011673	0.00012965	547.8	117.88	97.153	38.958	0.00013738	58.539	201.915	156.571	63.566	-119.076	84.508	217.805	-120.971	-114.602	47.773	222.834	-116.131	-112.488	-111.929	-107.766	25.514	-109.631	-8191	255	
3239.613	1	1	0	0	0.11671	0.083009	0.31031	0.41234	0.1056	0.10618	0.082114	0.075125	0.13165	0.3689	0.10146	0.13512	0.21173	0.22783	0.28773	0.13703	-2.2896	-2.7021	-3.1333	-2.775	-2.7938	-3.0896	-2.7062	-2.7875	-3.1479	-2.8542	-3.0563	-2.9104	-2.7708	-2.9271	-2.8667	-3.2583	126.955	15.799	146.125	186.618	-128.635	-130.420	81.147	18.636	19.967	-36.663	-28.491	176.726	120.982	123.517	-49.913	168.211	0.00061353	0.00058121	0.00072782	401.33	5.8157e-06	1.9181e-05	408.62	115.9	1.4896e-05	2.1502e-05	158.91	64.16	45.522	20.786	3.8769e-05	33.659	0.010174	0.012409	0.0035332	1192.3	0.00012324	0.00013787	740.47	238.91	0.000122	0.00014134	552.97	119.4	100.21	40.983	0.00013682	59.681	109.938	101.542	1.923	-118.967	-121.714	-129.149	-120.475	-114.490	178.585	-132.181	-117.062	-112.712	-112.200	-107.547	-6.202	-109.727	-8191	255	
3239.709	1	1	0	0	0.24291	0.029745	0.22956	0.089225	0.072446	0.15307	0.080803	0.237	0.24504	0.33206	0.14227	0.35007	0.057269	0.11867	0.22565	0.17029	-2.65	-2.8	-2.9375	-2.9813	-3	-3.2104	-2.5354	-2.8958	-3.1063	-2.725	-2.9083	-2.8354	-2.7646	-3.0292	-2.7146	-2.7917	108.857	-57.372	199.340	-54.572	-89.988	123.139	-9.087	-10.614	172.344	155.823	-91.593	172.319	176.528	149.852	-96.830	-129.253	0.00071514	0.0012343	0.00045609	397.92	2.4207e-05	1.1131e-05	407.63	118.01	3.2812e-05	7.6452e-06	159.68	64.487	45.217	21.125	1.7815e-05	33.977	0.010715	0.013259	0.0035057	1193	0.00012945	0.00014605	738.81	240.18	0.00012944	0.00014707	547.52	119.64	103.83	41.757	0.00013432	59.788	96.771	91.049	-55.884	-119.064	190.287	116.432	-120.686	-114.236	209.375	130.370	-116.922	-112.684	-112.060	-107.545	-36.999	-109.690	-8191	255	
3239.829	1	1	0	0	0.31948	0.18559	0.21391	0.092559	0.068404	0.28349	0.21435	0.20638	0.13726	0.25925	0.054761	0.094161	0.094499	0.095827	0.095281	0.2588	-2.2958	-2.8125	-2.7667	-2.8979	-2.7188	-3.1896	-2.8937	-2.7229	-3.1354	-2.8688	-3.0521	-2.7562	-2.8896	-3.1458	-2.7479	-2.8417	206.061	97.271	161.710	-69.523	-101.156	-37.004	205.111	-69.550	143.991	106.911	-43.578	76.742	-79.017	107.390	105.211	67.148	0.0014575	0.0021695	0.00082131	402.77	3.3383e-05	7.9785e-06	408.3	116.86	2.6798e-05	2.5095e-05	159.03	63.536	44.312	20.582	1.562e-05	32.59	0.011496	0.013546	0.0035021	1196.7	0.0001401	0.00014853	735.45	239.75	0.00014062	0.00014795	548.38	119.26	107.18	41.133	0.00013539	59.137	100.054	-57.539	-57.380	-119.913	180.794	7.023	-120.960	-114.932	193.322	71.605	-115.730	-112.683	-112.474	-107.670	1.723	-109.863	-8191	255	
3239.924	1	1	0	0	0.1544	0.15914	0.30206	0.04796	0.096295	0.18254	0.2797	0.13565	0.27436	0.2672	0.25608	0.27625	0.12136	0.21207	0.078707	0.12188	-2.8083	-2.6458	-2.75	-3.2208	-2.8083	-2.9542	-3.0396	-2.6708	-3.125	-2.7396	-2.6542	-3.1625	-2.7771	-2.8729	-2.9813	-2.7104	41.381	78.870	-62.037	153.311	-118.341	193.459	0.245	182.478	45.293	155.315	68.520	168.730	107.812	61.053	33.002	55.427	0.00082142	0.0022377	0.00027313	391.55	2.202e-05	1.3305e-05	406.9	115.41	2.965e-05	1.5e-05	155.6	62.418	44.439	20.059	1.3476e-05	32.105	0.012423	0.013385	0.0034867	1214.9	0.00014983	0.00014661	733.4	242.68	0.00014866	0.00014443	544.17	119.98	108.91	40.039	0.00013307	59.733	104.355	-47.170	-57.268	-119.831	216.053	48.261	-120.637	-115.312	206.274	18.560	-116.710	-113.480	-112.030	-107.324	-45.655	-110.071	-8191	255	
3239.997	1	1	0	0	0.29241	0.35922	0.1269	0.0355	0.24865	0.27277	0.087749	0.26761	0.070619	0.14333	0.084342	0.22635	0.11842	0.030942	0.050763	0.064619	-2.7792	-2.8438	-2.8292	-2.8812	-2.4375	-2.8979	-2.9021	-2.6625	-3.0875	-2.9708	-2.7479	-3.1375	-2.8833	-2.9562	-3.0521	-3	-38.285	166.451	118.859	-105.023	182.170	56.209	23.193	-91.099	124.643	-127.084	24.960	226.311	193.571	53.845	91.254	192.740	0.00048562	0.0023405	0.00061908	393.29	1.7316e-05	3.3044e-05	408.37	116.54	1.7342e-05	2.1675e-05	155.67	63.528	46.15	20.585	5.6058e-06	32.973	0.012931	0.01315	0.0034963	1272.7	0.00015468	0.00014508	735.64	253.04	0.00015405	0.00014484	551.96	126.56	113.03	41.444	0.00013958	63.66	160.954	-71.826	-27.956	-120.099	199.244	50.144	-120.797	-114.825	-68.703	12.582	-116.452	-112.799	-112.038	-107.444	183.949	-110.155	-8191	255	
3240.116	1	1	0	0	0.017408	0.094288	0.16215	0.17934	0.1131	0.12501	0.091571	0.23722	0.12093	0.088282	0.097546	0.27282	0.1444	0.15716	0.21984	0.1259	-2.7354	-2.8083	-2.7146	-3.1917	-2.6417	-2.8625	-3.0938	-2.6646	-3.1479	-2.9813	-2.6729	-3.1437	-2.8875	-3.0375	-3.0875	-2.6312	-49.144	-122.080	-37.581	208.163	107.914	-74.810	105.849	90.627	35.664	49.141	-71.962	160.187	62.404	5.890	-80.360	-117.211	0.00049016	0.0018895	0.00022002	391.44	3.7128e-05	1.8183e-05	409.56	117.22	3.8338e-05	1.5646e-05	157.34	64.087	46.424	20.88	2.815e-05	33.315	0.013628	0.01378	0.0037132	1391.5	0.00016296	0.00015282	760.09	269.31	0.0001603	0.00015062	576.38	133.21	114.19	41.914	0.0001465	65.953	187.734	-38.106	42.957	-119.966	-2.364	99.124	-121.062	-115.104	-15.214	28.224	-116.588	-112.729	-111.988	-107.767	-76.742	-109.625	-8191	255	
3240.212	1	1	0	0	0.1536	0.22858	0.067042	0.3658	0.16228	0.12827	0.15862	0.13983	0.14125	0.23736	0.11422	0.23888	0.18652	0.091968	0.28568	0.12849	-2.475	-2.9479	-2.7958	-2.9354	-2.6375	-2.825	-3.0479	-2.8375	-3.1229	-3.0333	-2.7771	-3.0812	-2.9313	-2.9542	-3.1021	-2.8021	42.516	-43.039	95.495	137.162	-68.606	-41.224	151.249	185.181	49.631	36.388	-61.859	-128.726	17.134	-23.069	129.977	33.367	0.00035406	0.0043932	0.00049755	399.56	6.9162e-06	3.104e-05	410.73	117.21	1.7e-05	3.2133e-05	157.25	64.169	45.455	20.336	3.196e-05	32.737	0.013657	0.013903	0.0038849	1452.2	0.00016188	0.00015492	779.46	277.1	0.00016106	0.00015319	605.16	136.46	113.29	41.681	0.00015515	66.172	218.444	-9.963	107.407	-120.444	163.117	59.266	-121.264	-114.708	89.014	-35.549	-117.665	-112.390	-111.930	-107.651	212.520	-109.775	-8191	255	
3240.308	1	1	0	0	0.11758	0.18946	0.14804	0.20285	0.3136	0.04031	0.25914	0.13192	0.22827	0.2032	0.087093	0.16112	0.21297	0.2122	0.10956	0.15202	-2.4208	-2.9062	-2.7542	-3.1333	-2.7854	-2.6833	-3.1333	-2.7042	-3.0958	-3.0083	-2.7208	-3.0604	-2.8917	-2.6396	-2.8187	-2.6729	186.491	227.603	-81.596	71.605	-121.248	9.444	132.155	48.555	-127.838	-89.485	138.296	-120.544	146.617	-99.737	183.177	185.069	0.00055126	0.0010614	0.00043864	402.07	2.2945e-05	1.0895e-05	410.12	116.52	1.427e-05	1.4571e-05	153.95	63.243	44.694	19.849	2.4281e-05	32.35	0.01343	0.013699	0.0040458	1446.6	0.00015563	0.00015012	789	273.14	0.00015463	0.00014752	614.09	133.03	109.59	40.485	0.0001583	63.976	-97.423	-79.790	175.659	-119.968	-61.286	0.503	-121.200	-114.322	50.154	35.765	-117.252	-112.598	-112.092	-107.774	149.383	-109.506	-8191	255	
3240.405	1	1	0	0	0.1809	0.26797	0.13415	0.31736	0.16244	0.04203	0.050392	0.11205	0.10417	0.083808	0.17884	0.17617	0.22554	0.08708	0.24215	0.31718	-2.5604	-2.9604	-2.6688	-2.9437	-2.9229	-2.9042	-3.1958	-2.675	-2.7875	-2.925	-2.6646	-3.0271	-2.9292	-2.9104	-2.8667	-2.7812	218.511	214.555	-59.341	-94.163	-103.113	203.937	94.308	43.182	-49.993	45.387	-8.876	2.441	90.211	194.253	205.919	116.709	0.00019972	0.0020283	0.00059708	406.21	1.4357e-05	1.6415e-06	409.42	117.6	1.8737e-05	3.3302e-05	157.03	64.554	45.886	20.484	1.3499e-05	33.4	0.01276	0.013202	0.0041077	1399.9	0.00014988	0.00014719	795.28	265.5	0.00014708	0.00014423	612.2	129.7	106.67	40.517	0.00015575	62.888	180.340	105.984	126.418	-119.487	-54.444	-20.411	-120.689	-115.095	2.397	197.593	-117.278	-112.932	-111.640	-107.883	155.161	-109.465	-8191	255	
3240.501	1	1	0	0	0.25744	0.25204	0.23196	0.12368	0.28996	0.23701	0.15273	0.26713	0.32823	0.12505	0.12455	0.25629	0.22969	0.034292	0.28664	0.14098	-2.3771	-3.2375	-2.7479	-2.7625	-2.8958	-2.8833	-3.0292	-2.7979	-2.6688	-2.9167	-2.8667	-3.0646	-2.9437	-2.675	-3.0708	-3.0438	136.269	185.755	200.605	-58.667	-63.796	70.279	71.284	-128.924	-79.674	-27.453	141.099	223.386	-39.994	83.050	87.191	213.973	0.00037645	0.0029617	0.00035659	402.89	8.594e-06	2.4105e-05	414.95	119.08	2.3607e-05	3.1242e-05	160.8	65.91	46.843	21.089	2.1131e-05	34.011	0.011991	0.012955	0.0040057	1322.3	0.00013871	0.00014338	783.64	255.04	0.00013598	0.00014147	596.62	127.29	104.32	41.341	0.00014872	61.899	141.111	178.397	160.065	-119.059	115.101	216.053	-120.979	-114.159	25.674	-116.801	-117.475	-112.428	-112.038	-107.776	-31.514	-109.769	-8191	255	
3240.597	1	1	0	0	0.23829	0.17854	0.17469	0.16496	0.10396	0.12218	0.064869	0.015824	0.11691	0.050863	0.22961	0.17027	0.047597	0.25222	0.19113	0.16886	-2.2958	-3.0687	-2.8646	-3.0646	-3.1312	-2.8438	-3.05	-2.9083	-2.775	-2.9479	-2.7542	-3.0021	-3.0333	-2.7125	-3.0875	-3.1083	176.785	123.898	-95.660	-9.947	-35.975	-67.168	-52.163	-85.514	-2.746	224.063	205.005	155.897	99.619	186.903	-82.211	-89.035	9.8792e-05	0.0026055	0.00069301	408.95	7.1185e-06	2.1267e-05	419.26	120.77	1.5256e-05	1.5903e-05	164.31	66.86	47.481	21.286	2.2613e-05	34.214	0.01126	0.012964	0.0037785	1268.6	0.00012998	0.00014288	770.73	249.4	0.00012934	0.00014305	572.16	124.84	103.07	41.738	0.00014253	61.446	-56.840	130.325	-8.567	-119.456	-55.728	-119.636	-120.601	-114.630	-83.979	216.863	-116.511	-112.720	-111.612	-107.713	30.555	-109.702	-8191	255	
3240.693	1	1	0	0	0.12375	0.15904	0.096288	0.21331	0.06171	0.26626	0.24544	0.13468	0.14384	0.15183	0.10522	0.33167	0.20809	0.031388	0.31818	0.27003	-2.225	-3.0604	-2.7167	-2.8375	-3.0458	-2.5729	-2.9854	-3.0667	-2.6188	-3.1979	-2.7042	-2.7146	-3.0875	-2.8375	-2.9354	-2.8833	-81.201	-50.704	205.099	213.197	94.846	58.999	2.110	149.814	136.949	-10.302	-95.594	148.763	145.793	-60.807	37.029	-3.986	0.00076992	0.0016663	0.00072289	412.36	3.5254e-05	6.2272e-06	421.26	121.97	2.6019e-05	1.9013e-05	164.72	65.241	46.326	20.859	3.0838e-05	33.576	0.011187	0.013409	0.0036497	1257.9	0.00013281	0.00014905	765.85	247.67	0.00013393	0.00015006	567.93	123.92	105.15	42.034	0.00014141	60.384	106.712	221.253	-19.418	-120.182	201.226	168.517	-120.396	-114.408	225.304	207.933	-115.815	-112.877	-111.776	-107.802	57.332	-109.856	-8191	255	
3240.789	1	1	0	0	0.10635	0.15974	0.29099	0.060879	0.23685	0.13501	0.075003	0.019422	0.13472	0.22183	0.096401	0.1046	0.27198	0.19881	0.29895	0.053997	-2.2687	-3.0125	-2.6125	-2.7604	-3.1083	-2.5625	-2.9354	-2.9833	-2.4521	-3.0729	-2.8125	-2.6104	-2.9917	-2.8312	-2.7979	-2.8729	-3.608	-13.574	189.347	0.748	-71.368	161.194	83.756	203.345	43.823	-11.056	-105.898	-118.799	-6.845	221.801	98.497	109.380	0.0010096	0.0019024	0.00035944	415.1	3.1829e-05	1.5859e-05	420.25	119.95	4.2048e-05	3.1533e-05	160.08	65.721	46.09	21.024	4.3067e-06	34.18	0.011763	0.013785	0.0035658	1252.5	0.00013922	0.0001506	758.52	246.78	0.00014191	0.00015174	563.08	124.08	109.28	42.407	0.00014219	61.444	108.033	-88.842	-15.819	-119.666	152.686	-12.817	-121.021	-114.799	196.685	13.995	-115.675	-112.855	-111.936	-107.304	62.784	-109.757	-8191	255	
3240.910	1	1	0	0	0.21889	0.30873	0.1297	0.032349	0.05092	0.13255	0.19731	0.28158	0.02957	0.22741	0.27939	0.13166	0.052535	0.10209	0.053915	0.092275	-2.2	-2.9229	-2.8146	-2.7125	-3.1104	-2.6312	-2.9062	-2.975	-2.6896	-3.0042	-2.7708	-2.7625	-2.8646	-2.4042	-2.5771	-2.9979	140.841	-6.943	-41.495	29.986	-21.946	169.818	-84.115	-15.502	225.106	64.028	165.686	147.511	132.792	-93.231	220.340	75.843	0.00094831	0.0031365	0.00080383	417.22	2.6054e-05	2.4468e-05	423.36	121.23	7.1108e-06	1.6696e-05	164.63	66.003	46.881	21.694	1.1733e-05	34.579	0.012673	0.014005	0.0036318	1281.1	0.00015134	0.00015192	768.64	251.44	0.00015207	0.0001514	564.75	125.99	112.72	42.466	0.00013983	62.542	133.746	-36.560	2.324	-119.735	136.297	79.535	-120.999	-114.825	219.291	29.200	-116.386	-112.858	-112.032	-107.024	218.084	-110.122	-8191	255	
3241.004	1	1	0	0	0.098658	0.22995	0.031451	0.34883	0.090125	0.2109	0.207	0.20559	0.22893	0.12853	0.17603	0.17525	0.11664	0.22255	0.053472	0.21711	-2.2833	-2.9292	-2.9562	-2.7875	-2.8396	-2.6312	-2.7833	-3.1146	-2.4646	-2.8833	-2.9354	-2.7313	-3.1312	-2.6937	-2.7021	-3.0958	201.895	-131.683	14.081	23.029	132.911	-16.644	207.276	213.950	85.406	-10.070	-111.961	165.718	-94.053	187.082	-125.341	194.930	0.00081583	0.0015377	0.00027523	419.86	2.2858e-05	2.6623e-05	425.1	120.28	9.0606e-06	5.7981e-06	167.57	66.002	46.903	21.079	2.4302e-06	34.033	0.013069	0.013534	0.0035266	1294.8	0.00015417	0.00014585	759.32	254.65	0.00015218	0.00014509	552.19	127.63	112.46	41.068	0.00013485	62.353	107.751	-47.492	24.060	-119.927	-116.065	22.366	-120.539	-114.770	63.185	-112.061	-116.681	-112.690	-111.817	-107.620	147.033	-110.187	-8191	255	
3241.100	1	1	0	0	0.30209	0.20137	0.064233	0.2617	0.13009	0.16293	0.076177	0.12372	0.048199	0.16645	0.10809	0.37906	0.27049	0.19034	0.21906	0.18211	-2.15	-2.9354	-2.8167	-2.5771	-3.0438	-2.9813	-2.6833	-2.9	-2.6188	-3	-2.9208	-2.5875	-2.8583	-2.825	-2.5542	-3.0438	147.737	223.392	182.219	173.778	78.029	153.650	17.329	137.191	-42.943	47.002	42.506	-117.360	140.134	-128.930	-13.066	-23.981	0.00046588	0.0011258	0.00039934	413.14	1.8951e-05	1.4995e-05	427.88	120.85	4.2895e-05	1.7555e-05	161.19	65.604	47.084	20.981	1.0705e-05	33.486	0.0127	0.012778	0.003349	1307.7	0.00014808	0.00013789	750.75	257.22	0.00014547	0.00013722	530.89	126.91	107.84	39.478	0.00012782	61.631	180.748	207.591	-6.552	-119.977	33.449	35.316	-120.795	-114.902	40.082	94.021	-115.993	-113.308	-111.583	-107.839	-131.628	-109.820	-8191	255	
3241.221	1	1	0	0	0.23674	0.20927	0.15647	0.15787	0.12728	0.22637	0.14651	0.13105	0.071281	0.044708	0.24943	0.25231	0.072938	0.067725	0.22691	0.12338	-2.3479	-2.7812	-3.0375	-2.5854	-2.9479	-2.8229	-2.7229	-3.1042	-2.7292	-2.9083	-2.9	-2.4458	-2.725	-2.9333	-2.8667	-3.2062	182.023	194.112	37.082	-42.112	180.566	105.938	136.548	-9.312	48.061	209.096	-108.501	173.252	96.201	78.647	47.582	125.816	0.00055567	0.0025162	0.00029006	407.75	2.5422e-05	5.4162e-06	424.08	120.96	2.5773e-05	1.3963e-06	160.14	66.209	46.596	21.137	1.7616e-05	34.042	0.011771	0.01203	0.0032265	1300.6	0.0001375	0.00012894	735.7	253.9	0.00013351	0.00012845	524.39	126.79	104.53	38.924	0.00012771	62.328	-132.082	-23.828	174.352	-120.151	14.224	25.242	-120.994	-114.970	6.677	-20.642	-116.984	-112.788	-111.640	-107.809	219.077	-109.674	-8191	255	
3241.293	1	1	0	0	0.14799	0.13313	0.1292	0.16056	0.058778	0.26692	0.18181	0.28616	0.18627	0.0901	0.13136	0.21436	0.093922	0.2107	0.10187	0.20337	-2.4125	-2.5729	-2.9646	-2.7979	-2.9854	-2.8958	-2.5896	-3.025	-2.9313	-2.6875	-2.9208	-2.8417	-2.8542	-3.0917	-2.675	-3.1854	-104.298	31.164	-77.090	-96.318	0.576	208.166	-106.539	108.288	-3.344	-19.299	119.734	-104.259	116.515	-132.279	-65.792	-101.373	0.00070642	0.0038837	0.00064022	424.97	2.1816e-05	4.455e-06	423.5	122.76	1.9323e-05	1.5653e-05	161.4	67.262	47.903	21.7	2.1199e-05	34.753	0.011162	0.0116	0.0032853	1298	0.00013148	0.00012438	746.32	255.86	0.00012921	0.00012572	543.95	127.93	104.35	39.429	0.00013407	62.907	206.207	-47.730	132.448	-119.857	29.227	-46.255	-121.258	-114.564	-13.965	63.320	-117.049	-112.833	-111.481	-107.608	-95.254	-109.939	-8191	255	
3241.389	1	1	0	0	0.29292	0.053959	0.04811	0.090607	0.20549	0.12863	0.11409	0.2248	0.1606	0.24172	0.12115	0.24448	0.085393	0.13426	0.16729	0.42474	-2.2042	-2.4667	-3.0583	-2.8208	-2.9542	-2.8563	-2.6375	-3.1396	-2.9167	-2.7875	-3.0312	-2.7562	-2.9625	-3.0417	-2.9542	-3.0958	138.594	-118.789	185.549	88.693	152.760	212.304	190.713	112.873	-47.076	0.366	-66.442	-14.347	-25.729	-127.896	-60.642	137.095	0.00060023	0.0011635	0.00079114	421.91	1.6354e-05	1.3459e-05	424.31	122.55	2.3724e-05	1.0874e-05	162.01	66.964	47.461	21.235	1.9743e-05	34.396	0.010942	0.011489	0.0034635	1284.8	0.00012999	0.00012418	760.57	253.65	0.00012764	0.00012716	562.02	125.86	103.09	39.196	0.00014022	62.14	161.518	-99.359	128.580	-119.908	76.823	-71.537	-120.922	-114.692	-16.630	205.969	-117.253	-112.571	-111.606	-107.881	190.047	-109.784	-8191	255	
3241.509	1	1	0	0	0.3057	0.13532	0.12711	0.23842	0.16201	0.098815	0.14859	0.15889	0.10617	0.07215	0.15779	0.15202	0.1767	0.11831	0.27999	0.223	-2.5542	-2.5333	-2.9688	-2.5854	-2.6292	-3.0521	-2.8563	-2.8271	-2.9021	-2.7292	-3.1854	-2.8229	-2.7854	-2.9021	-2.7479	-3.0687	113.708	-112.545	58.845	-78.529	3.249	137.678	-108.329	185.897	154.257	20.734	141.218	79.441	-36.897	-92.378	49.517	155.044	0.00031131	0.0015904	0.00034648	417.85	1.8622e-05	1.1769e-05	426.84	121.73	2.4947e-05	2.0314e-05	160.29	65.501	46.186	20.817	1.139e-06	33.672	0.010879	0.011794	0.0036408	1270.7	0.00012977	0.0001297	771.34	249.37	0.00012456	0.00013036	566.45	122.82	100.74	39.232	0.00013931	60.288	136.478	145.631	63.811	-119.637	-107.935	-109.850	-120.932	-114.741	-2.803	-128.230	-116.452	-112.256	-111.647	-107.999	-90.927	-109.190	-8191	255	
3241.606	1	1	0	0	0.3067	0.17718	0.063903	0.12044	0.11287	0.10202	0.12619	0.26128	0.21061	0.15426	0.13575	0.20048	0.18404	0.042592	0.10747	0.032735	-2.4437	-2.4396	-3.0167	-2.8479	-2.7042	-2.9333	-2.5646	-2.8104	-2.9604	-2.75	-2.8063	-2.6604	-2.5938	-3.1833	-2.7271	-2.95	-58.232	194.512	121.914	222.044	127.064	22.719	-62.622	217.908	73.050	20.089	220.502	216.172	141.616	-55.687	-0.300	-99.370	0.00020875	0.0010344	0.00027138	417.32	2.0212e-05	1.3168e-05	421.84	120.08	2.2923e-06	8.3906e-06	163.68	65.773	46.442	21.055	3.1814e-05	34.182	0.010477	0.012136	0.0035794	1231.3	0.00012451	0.00013189	757.11	243.56	0.00012072	0.00013296	550.49	120.48	99.301	39.906	0.00013382	59.825	213.276	115.876	50.293	-119.846	-53.789	178.032	-120.754	-114.673	-85.936	172.820	-116.089	-112.787	-111.922	-107.959	46.333	-109.655	-8191	255	
3241.702	1	1	0	0	0.11706	0.094563	0.081256	0.20727	0.094292	0.049273	0.24088	0.087839	0.13575	0.20676	0.3199	0.10561	0.14703	0.12191	0.23363	0.1312	-2.6125	-2.5812	-2.8667	-2.8229	-2.7	-2.9667	-2.7062	-2.7687	-3.0208	-2.5292	-2.9104	-3.0021	-2.7417	-2.9458	-2.7854	-2.8583	-80.719	138.827	100.787	130.463	-43.505	-11.863	114.001	46.920	150.343	-49.889	13.083	89.220	112.807	75.186	53.918	-111.670	0.00052274	0.001199	0.00072256	422.95	9.1085e-06	1.5408e-05	423.91	122.49	7.8299e-06	2.9943e-05	168.42	67.252	47.456	21.749	1.7582e-05	34.974	0.010243	0.012396	0.00345	1205.8	0.00012357	0.00013584	745.66	241.63	0.00012069	0.00013662	539.54	120.7	100.85	40.87	0.00012747	59.953	93.499	160.118	-30.321	-120.157	174.238	-67.142	-120.775	-114.336	-23.378	-108.399	-116.004	-112.669	-112.325	-108.006	-16.232	-109.904	-8191	255	
3241.822	1	1	0	0	0.18225	0.1061	0.054347	0.026154	0.12605	0.030253	0.2456	0.088049	0.11576	0.13635	0.26022	0.075852	0.20503	0.18146	0.2373	0.076501	-2.3521	-2.5646	-2.9417	-2.75	-2.5354	-2.8812	-2.7313	-2.85	-2.9354	-2.5021	-2.8458	-3.0812	-2.5833	-3.1208	-2.9896	-2.7125	122.928	150.308	-38.245	86.879	224.105	218.836	149.435	96.726	131.135	199.429	-60.516	130.404	-131.943	204.243	171.180	135.779	0.00064389	0.0022754	0.0005979	420.01	6.7828e-06	1.7975e-05	426.3	122.78	1.9853e-05	3.3737e-06	167.06	67.385	46.953	21.617	1.9808e-05	34.635	0.01034	0.012403	0.0032814	1177	0.00012558	0.00013733	737.62	239.88	0.00012493	0.00013647	528.07	119.45	102.56	40.479	0.00012294	59.06	99.484	-108.271	-18.791	-120.075	-125.561	63.912	-120.752	-114.528	163.483	-63.012	-116.625	-112.816	-112.046	-107.793	8.419	-109.989	-8191	255	
3241.894	1	1	0	0	0.2186	0.18564	0.16377	0.1311	0.20907	0.1499	0.12234	0.20197	0.090586	0.099703	0.13026	0.090744	0.093978	0.16601	0.045985	0.13213	-2.6688	-2.7083	-2.8125	-3.0833	-2.8729	-3.1167	-2.8812	-2.6604	-3.0896	-2.7333	-2.65	-2.8417	-2.7729	-2.9979	-2.6896	-2.625	125.591	106.094	-41.652	216.226	-15.733	142.099	181.294	31.879	205.281	25.136	221.748	80.112	217.484	-3.590	-93.617	203.860	0.001213	0.00054994	0.0005975	421.97	2.3705e-05	1.8704e-05	424.05	122.52	1.744e-05	8.434e-06	167.62	67.642	47.457	21.308	6.4889e-06	34.185	0.010746	0.01219	0.0031636	1157.3	0.00012849	0.00013152	722.98	235.46	0.00012714	0.00012982	513.91	118	103.31	39.467	0.00011893	58.297	117.778	59.115	-76.000	-119.868	179.267	19.497	-120.771	-114.442	175.987	-35.550	-116.202	-112.987	-112.091	-107.427	-0.494	-109.754	-8191	255	
3241.988	1	1	0	0	0.062313	0.11204	0.13446	0.10507	0.24998	0.13538	0.15498	0.16467	0.1094	0.034341	0.23501	0.21451	0.034861	0.30306	0.06177	0.21185	-2.5812	-2.5625	-2.6646	-2.9479	-2.5083	-2.8833	-2.8042	-2.7875	-2.7917	-2.7729	-2.8625	-3.0333	-2.5375	-2.8812	-2.9458	-2.8396	118.734	148.907	75.102	192.837	160.915	117.207	142.739	208.898	-131.704	-50.802	173.315	-1.590	166.402	104.374	98.537	212.677	0.0012265	0.0024564	0.00026225	417.96	1.2972e-05	2.2182e-05	424.33	121.14	1.7491e-05	1.8952e-05	164.19	66.606	46.929	21.201	2.4531e-05	34.218	0.010956	0.011559	0.0030308	1148.1	0.00013014	0.00012542	710.47	234.67	0.00012865	0.00012404	503.02	118.46	103.51	38.615	0.00011511	58.965	117.249	18.687	-2.029	-119.781	191.313	91.125	-120.550	-115.098	222.974	47.822	-116.164	-112.855	-112.188	-107.951	-60.196	-109.920	-8191	255	
3242.085	1	1	0	0	0.059955	0.19614	0.26452	0.13151	0.1978	0.13442	0.12396	0.19259	0.17971	0.049574	0.16636	0.28449	0.094046	0.20218	0.12133	0.20499	-2.4813	-2.6375	-2.6417	-3.1937	-2.5167	-2.7417	-2.9417	-2.8083	-2.8688	-2.6708	-2.7604	-3.2167	-2.65	-2.8771	-3.025	-2.6021	176.781	142.213	146.555	203.558	156.604	37.696	114.801	-96.190	-8.296	33.870	24.482	190.516	158.980	-127.983	126.764	39.002	0.00011574	0.0013113	0.00040432	413.31	1.0238e-05	7.5843e-06	419.6	121.04	1.4693e-05	1.5339e-05	167.44	67.129	47.805	21.603	1.543e-05	34.813	0.01106	0.011204	0.0030061	1185.6	0.00013235	0.00012443	711.73	243.11	0.00013175	0.00012383	505.52	122.65	104.54	39.273	0.00011665	61.209	191.261	-81.097	-54.547	-120.466	-33.239	129.554	-120.185	-115.373	-2.432	-46.319	-116.369	-113.038	-111.617	-108.074	-59.878	-109.942	-8191	255	
3242.182	1	1	0	0	0.14472	0.23622	0.14086	0.17421	0.19474	0.13393	0.25064	0.12341	0.14402	0.18663	0.20874	0.14797	0.22797	0.25243	0.19453	0.10128	-2.4583	-2.9333	-2.6604	-2.7917	-2.6083	-2.8875	-3.0375	-2.7562	-2.9875	-2.7896	-2.8542	-3.0625	-2.4813	-2.8375	-3.0521	-2.4875	34.590	6.587	45.338	-32.136	-24.389	-100.171	191.461	-111.780	17.958	9.272	-103.421	-106.245	-80.427	76.007	-124.172	76.502	0.00072277	0.0009377	0.00038875	414.98	2.265e-05	1.4762e-05	421.46	122.06	2.9856e-05	9.8265e-08	164.59	66.517	47.442	21.435	8.5976e-06	34.746	0.011117	0.011219	0.0030474	1235.6	0.00013044	0.00012276	713.27	247.83	0.00012838	0.00012175	509.57	124.25	102.57	38.827	0.00011965	61.81	115.373	-46.992	155.866	-120.055	27.789	10.648	-120.473	-115.261	23.636	-31.278	-117.584	-112.991	-111.930	-107.992	219.926	-109.833	-8191	255	
3242.301	1	1	0	0	0.28833	0.14601	0.27169	0.10786	0.16617	0.25503	0.11606	0.35119	0.25123	0.25737	0.21121	0.24181	0.12284	0.10388	0.040613	0.35829	-2.4917	-2.8625	-2.6667	-2.7438	-2.6813	-2.6937	-3.1333	-2.4021	-2.875	-3.0125	-2.6271	-3.0333	-2.8646	-2.8792	-3.0062	-2.5833	-11.346	-2.257	-116.731	-115.168	208.710	-59.833	112.077	151.283	-7.725	-86.678	115.426	-20.719	124.370	212.771	-0.078	124.824	0.00027018	0.0028829	0.00068609	417.1	1.013e-05	2.1348e-05	421.41	122.34	3.4369e-05	5.1533e-06	161.32	67.07	46.959	21.036	2.0481e-05	34.513	0.010857	0.010992	0.0031074	1251.8	0.00012578	0.00012064	720.09	248.99	0.00012427	0.00011905	520.45	124.49	100.27	37.97	0.00012189	60.81	199.398	-64.346	158.195	-120.405	-11.136	60.473	-121.102	-114.443	28.850	34.143	-117.714	-112.833	-111.460	-107.797	-130.194	-109.694	-8191	255	
3242.397	1	1	0	0	0.12324	0.13103	0.092952	0.14211	0.11527	0.19694	0.17633	0.1356	0.31169	0.068788	0.1493	0.16327	0.29393	0.34711	0.1284	0.22179	-2.3479	-3.0292	-2.5958	-2.9562	-2.9208	-2.8021	-3.0458	-2.7542	-2.975	-3.0958	-2.7188	-2.925	-2.7917	-2.7938	-3.0125	-2.7208	96.587	142.029	73.667	20.834	-104.700	198.239	81.497	71.423	113.647	-44.225	-71.234	71.923	196.757	127.330	169.536	39.963	6.1804e-05	0.0018661	0.00037552	415.04	1.7633e-05	1.1798e-05	416.61	121.12	1.7829e-05	1.3001e-05	159.62	66.383	46.562	20.964	2.0372e-05	34.395	0.010278	0.010543	0.0031634	1222.7	0.00011935	0.0001159	723.63	242.84	0.00011892	0.00011444	522.92	121.44	97.678	37.494	0.00012531	59.588	114.885	-54.368	151.044	-119.385	32.478	22.840	-121.144	-114.726	-33.940	-42.436	-116.788	-112.756	-111.985	-108.240	-110.135	-109.783	-8191	255	
3242.469	1	1	0	0	0.17554	0.2004	0.23327	0.26359	0.19563	0.16009	0.1271	0.1999	0.047887	0.21556	0.066734	0.22474	0.23513	0.028908	0.037736	0.10438	-2.1333	-3.1146	-2.4646	-2.9708	-3.0479	-2.6875	-3.0187	-2.7479	-2.725	-2.8312	-2.6729	-3.1104	-2.7812	-2.5521	-3.2333	-2.9146	-36.792	-31.446	202.542	214.043	63.068	21.315	-41.412	51.426	115.469	-4.849	120.033	-81.030	132.305	179.433	-24.405	134.418	0.00013962	0.00086127	0.00084924	420.47	1.1341e-05	9.9282e-07	419.29	121.86	1.6475e-05	1.5159e-05	164.04	67.487	47.393	21.535	6.5947e-06	34.981	0.009979	0.010426	0.0032526	1197.6	0.00011693	0.00011659	732.75	239.92	0.00011644	0.00011706	536.19	121.09	97.722	38.62	0.00012954	60.1	130.437	68.143	147.495	-119.288	-20.553	122.505	-120.991	-114.769	-58.161	-126.927	-117.531	-112.462	-111.628	-107.974	143.141	-109.921	-8191	255	
3242.590	1	1	0	0	0.080189	0.24392	0.21708	0.13199	0.10587	0.34934	0.094316	0.17235	0.086013	0.22094	0.10002	0.26	0.22251	0.39086	0.31272	0.19522	-2.1562	-3.0292	-2.5417	-2.7167	-2.8396	-2.7333	-3.0792	-2.7938	-2.85	-3.1625	-2.6063	-2.7625	-2.775	-2.6875	-3.1375	-2.9146	217.207	-49.957	58.919	141.531	69.056	-61.072	-84.953	141.146	34.877	188.519	-2.271	210.732	110.246	208.958	-13.007	-123.396	0.00052038	0.0027059	0.00018306	420.88	1.2703e-05	1.7878e-05	420.08	122.09	1.3085e-05	2.7634e-05	165.94	67.328	46.792	21.387	2.0244e-05	34.761	0.0099447	0.01091	0.0033262	1182	0.00011513	0.00012246	739.26	237.9	0.00011543	0.00012364	540.16	120.62	97.56	39.494	0.00013004	59.628	123.924	174.834	162.092	-119.446	13.891	170.233	-120.975	-114.504	-43.477	-85.944	-116.209	-112.896	-111.563	-108.014	-17.975	-109.890	-8191	255	
3242.686	1	1	0	0	0.077149	0.29399	0.084495	0.082402	0.010894	0.056502	0.057041	0.062295	0.11445	0.077306	0.26029	0.12654	0.16137	0.11098	0.069811	0.28118	-2.2583	-2.9292	-2.7271	-2.7354	-2.9479	-2.6917	-2.9833	-2.7542	-2.8042	-3.225	-2.7917	-2.8896	-3.0354	-2.7562	-2.9271	-2.7917	156.612	145.898	165.740	90.658	161.258	63.049	185.150	183.603	-34.343	187.666	-25.131	200.239	198.897	133.136	135.706	135.935	0.00083593	0.0011212	0.00078615	414.53	1.6619e-05	1.7595e-05	417.08	120.19	3.0927e-05	2.7144e-06	164.9	66.497	46.331	21.135	2.5659e-05	34.349	0.0099397	0.011651	0.0033213	1179.2	0.00011601	0.00012954	734.74	236.07	0.00011719	0.00013062	530.09	118.88	96.92	39.617	0.00012594	58.546	121.307	182.549	-26.306	-119.485	70.656	-106.461	-120.649	-114.822	147.564	59.066	-115.578	-112.780	-112.247	-108.128	-20.535	-109.819	-8191	255	
3242.782	1	1	0	0	0.50189	0.18714	0.12435	0.16835	0.10397	0.12807	0.053821	0.29781	0.20189	0.16886	0.092471	0.14173	0.039186	0.2532	0.10003	0.085999	-2.1708	-3	-2.8208	-2.6854	-2.9	-2.5104	-2.8792	-2.9354	-2.5396	-3	-2.7188	-2.6396	-2.95	-2.7062	-2.9604	-3.1729	187.882	198.478	-124.912	91.782	142.046	1.326	176.557	-4.947	65.640	166.901	132.422	18.135	56.836	60.621	-102.849	-77.115	0.00071442	0.0029851	0.00048155	410.2	1.9518e-05	1.8819e-05	418.55	118.81	2.4322e-05	1.328e-05	164.48	65.386	45.29	20.716	1.2217e-05	34.077	0.0099462	0.011907	0.0031723	1151.5	0.00011702	0.00013048	717.04	229.15	0.00011718	0.00013028	509.28	115.96	96.984	38.986	0.00011958	57.249	110.977	160.728	-30.676	-120.521	190.097	128.220	-120.538	-114.726	190.073	-93.361	-117.279	-112.834	-112.805	-107.885	38.197	-109.561	-8191	255	
3242.903	1	1	0	0	0.34393	0.079781	0.050792	0.14621	0.25708	0.089858	0.18189	0.31369	0.17628	0.15669	0.083928	0.16446	0.16654	0.15487	0.14602	0.187	-2.1729	-2.9229	-2.6917	-2.6437	-3.1458	-2.5917	-3.0146	-2.8542	-2.4625	-2.8125	-2.9667	-2.8042	-3.0187	-2.7062	-2.6021	-3.0479	73.536	56.926	-76.949	-33.670	163.394	101.846	-55.854	170.824	-129.237	-105.469	-113.252	-128.741	-32.929	-46.525	109.538	28.177	0.00095822	0.00078641	0.00037419	407.9	2.3624e-05	8.083e-06	413.51	118.5	2.2905e-05	1.349e-05	162.89	66.205	46.049	21.22	1.8644e-05	34.713	0.010245	0.011841	0.0030602	1129.9	0.00012189	0.00012949	709.66	228.42	0.00012387	0.00012969	505.9	117.23	100.74	39.447	0.00011976	58.219	115.717	-47.382	-12.321	-119.891	196.021	87.559	-120.715	-115.003	-128.378	71.480	-116.084	-112.962	-112.660	-107.398	-27.884	-110.237	-8191	255	
3242.997	1	1	0	0	0.11192	0.14909	0.030691	0.16078	0.24784	0.047927	0.031883	0.093869	0.19976	0.075679	0.12705	0.23905	0.1337	0.46971	0.2569	0.19679	-2.2417	-2.8375	-2.8104	-2.4979	-2.9625	-2.7125	-2.8104	-2.8729	-2.6583	-2.8146	-2.9104	-2.5854	-3.0187	-2.5229	-2.5146	-3.0417	159.617	-76.594	140.099	96.197	76.441	33.549	-58.193	223.812	86.965	-9.674	-52.036	-96.464	-65.446	164.207	183.682	130.901	0.0010691	0.0025213	0.00033605	407.8	2.2671e-05	8.8713e-06	416	119.59	7.7732e-06	1.4536e-05	163.29	66.65	46.133	21.119	2.4407e-05	34.515	0.010805	0.011673	0.0030299	1139.7	0.00012804	0.00012644	707.36	230.57	0.00012862	0.00012594	498.86	118.14	102.17	38.701	0.00011656	58.557	103.510	-42.800	95.039	-120.525	171.536	166.739	-120.761	-114.637	176.483	28.865	-116.013	-113.004	-112.871	-107.476	-19.103	-110.237	-8191	255	
#DATA ENDS
