BOXY.EXE: ISS Imagent and Oximeter Data Acquisition Program Version 0.80
Ascii Record File

#ACQ INFORMATION
2  Detector Channels 
16  External MUX Channels 
1  Auxiliary Channels 
5000  Waveform (CCF) Frequency (Hz)
1  Waveforms Skipped 
30  Waveforms Averaged 
1  Cycles Averaged 
16  Acquisitions per Waveform 
10.0806  Updata Rate (Hz) 

#FILE INFORMATION
TRUE -- External MUX Channel results are PARSED.
FALSE -- AC DC and Phase are NOT grouped.
TRUE -- Companion Program Settings File CREATED.
FALSE -- AC data not excluded
FALSE -- DC data not excluded
FALSE -- Phase data not excluded
FALSE -- Auxillary Chn. data not excluded
Tab delimiters

#CALIBRATION STATE
TRUE -- Waveform Calibration Values APPLIED.


#AUX CALIBRATION VALUES
Val Type	aux-1	

Term	1.0000e+00	
Factor	0.0000e+00	


#WF CALIBRATION VALUES
A = Detector Channel
Val Type	A-AC1	A-AC2	A-AC3	A-AC4	A-AC5	A-AC6	A-AC7	A-AC8	A-AC9	A-AC10	A-AC11	A-AC12	A-AC13	A-AC14	A-AC15	A-AC16	A-DC1	A-DC2	A-DC3	A-DC4	A-DC5	A-DC6	A-DC7	A-DC8	A-DC9	A-DC10	A-DC11	A-DC12	A-DC13	A-DC14	A-DC15	A-DC16	A-Ph1	A-Ph2	A-Ph3	A-Ph4	A-Ph5	A-Ph6	A-Ph7	A-Ph8	A-Ph9	A-Ph10	A-Ph11	A-Ph12	A-Ph13	A-Ph14	A-Ph15	A-Ph16	

Term	0.00000e+00	0.00000e+00	0.00000e+00	0.00000e+00	0.00000e+00	0.00000e+00	0.00000e+00	0.00000e+00	0.00000e+00	0.00000e+00	0.00000e+00	0.00000e+00	0.00000e+00	0.00000e+00	0.00000e+00	0.00000e+00	0.00000e+00	0.00000e+00	0.00000e+00	0.00000e+00	0.00000e+00	0.00000e+00	0.00000e+00	0.00000e+00	0.00000e+00	0.00000e+00	0.00000e+00	0.00000e+00	0.00000e+00	0.00000e+00	0.00000e+00	0.00000e+00	0.00000e+00	0.00000e+00	0.00000e+00	0.00000e+00	0.00000e+00	0.00000e+00	0.00000e+00	0.00000e+00	0.00000e+00	0.00000e+00	0.00000e+00	0.00000e+00	0.00000e+00	0.00000e+00	0.00000e+00	0.00000e+00	
Factor	1.00000e+00	1.00000e+00	1.00000e+00	1.00000e+00	1.00000e+00	1.00000e+00	1.00000e+00	1.00000e+00	1.00000e+00	1.00000e+00	1.00000e+00	1.00000e+00	1.00000e+00	1.00000e+00	1.00000e+00	1.00000e+00	1.00000e+00	1.00000e+00	1.00000e+00	1.00000e+00	1.00000e+00	1.00000e+00	1.00000e+00	1.00000e+00	1.00000e+00	1.00000e+00	1.00000e+00	1.00000e+00	1.00000e+00	1.00000e+00	1.00000e+00	1.00000e+00	X	X	X	X	X	X	X	X	X	X	X	X	X	X	X	X	

B = Detector Channel
Val Type	B-AC1	B-AC2	B-AC3	B-AC4	B-AC5	B-AC6	B-AC7	B-AC8	B-AC9	B-AC10	B-AC11	B-AC12	B-AC13	B-AC14	B-AC15	B-AC16	B-DC1	B-DC2	B-DC3	B-DC4	B-DC5	B-DC6	B-DC7	B-DC8	B-DC9	B-DC10	B-DC11	B-DC12	B-DC13	B-DC14	B-DC15	B-DC16	B-Ph1	B-Ph2	B-Ph3	B-Ph4	B-Ph5	B-Ph6	B-Ph7	B-Ph8	B-Ph9	B-Ph10	B-Ph11	B-Ph12	B-Ph13	B-Ph14	B-Ph15	B-Ph16	

Term	0.00000e+00	0.00000e+00	0.00000e+00	0.00000e+00	0.00000e+00	0.00000e+00	0.00000e+00	0.00000e+00	0.00000e+00	0.00000e+00	0.00000e+00	0.00000e+00	0.00000e+00	0.00000e+00	0.00000e+00	0.00000e+00	0.00000e+00	0.00000e+00	0.00000e+00	0.00000e+00	0.00000e+00	0.00000e+00	0.00000e+00	0.00000e+00	0.00000e+00	0.00000e+00	0.00000e+00	0.00000e+00	0.00000e+00	0.00000e+00	0.00000e+00	0.00000e+00	-1.95322e+02	-1.31664e+02	-1.35514e+02	-1.83507e+02	-9.14092e+01	-5.93382e+01	-1.57852e+02	-1.62015e+02	-9.36674e+01	-6.54123e+01	-1.76234e+02	-1.71211e+02	-1.81698e+02	-1.78091e+02	-8.68548e+01	-1.51000e+02	
Factor	4.07472e-05	1.94038e-04	5.01386e-05	4.44362e-01	1.74494e-06	1.67566e-06	1.66286e-01	6.31906e-02	2.08765e-06	1.66474e-06	2.13853e-01	2.89034e-02	2.88634e-02	9.13376e-03	1.93495e-06	1.32076e-02	3.19055e-06	3.47120e-06	9.67125e-07	2.29784e-01	3.78690e-08	3.80063e-08	8.23849e-02	3.32550e-02	3.75348e-08	3.80335e-08	1.05779e-01	1.48008e-02	1.52162e-02	4.84302e-03	3.76195e-08	6.77457e-03	X	X	X	X	X	X	X	X	X	X	X	X	X	X	X	X	



#DISTANCE SETTINGS
A = Detector Channel
A-1	A-2	A-3	A-4	A-5	A-6	A-7	A-8	A-9	A-10	A-11	A-12	A-13	A-14	A-15	A-16	

2.5000e+00	3.0000e+00	2.5000e+00	3.0000e+00	2.0000e+00	3.0000e+00	1.5000e+00	3.0000e+00	3.0000e+00	3.0000e+00	3.0000e+00	3.0000e+00	3.0000e+00	3.0000e+00	1.5000e+00	3.0000e+00	

B = Detector Channel
B-1	B-2	B-3	B-4	B-5	B-6	B-7	B-8	B-9	B-10	B-11	B-12	B-13	B-14	B-15	B-16	

1.0000e+01	1.0000e+01	1.0000e+01	1.4400e+00	1.0000e+01	1.0000e+01	1.5100e+00	1.9400e+00	1.0000e+01	1.0000e+01	1.9900e+00	2.4900e+00	2.4100e+00	2.9000e+00	1.0000e+01	2.9800e+00	




#DATA BEGINS
time	group	step	mark	flag	A-AC1	A-AC2	A-AC3	A-AC4	A-AC5	A-AC6	A-AC7	A-AC8	A-AC9	A-AC10	A-AC11	A-AC12	A-AC13	A-AC14	A-AC15	A-AC16	A-DC1	A-DC2	A-DC3	A-DC4	A-DC5	A-DC6	A-DC7	A-DC8	A-DC9	A-DC10	A-DC11	A-DC12	A-DC13	A-DC14	A-DC15	A-DC16	A-Ph1	A-Ph2	A-Ph3	A-Ph4	A-Ph5	A-Ph6	A-Ph7	A-Ph8	A-Ph9	A-Ph10	A-Ph11	A-Ph12	A-Ph13	A-Ph14	A-Ph15	A-Ph16	B-AC1	B-AC2	B-AC3	B-AC4	B-AC5	B-AC6	B-AC7	B-AC8	B-AC9	B-AC10	B-AC11	B-AC12	B-AC13	B-AC14	B-AC15	B-AC16	B-DC1	B-DC2	B-DC3	B-DC4	B-DC5	B-DC6	B-DC7	B-DC8	B-DC9	B-DC10	B-DC11	B-DC12	B-DC13	B-DC14	B-DC15	B-DC16	B-Ph1	B-Ph2	B-Ph3	B-Ph4	B-Ph5	B-Ph6	B-Ph7	B-Ph8	B-Ph9	B-Ph10	B-Ph11	B-Ph12	B-Ph13	B-Ph14	B-Ph15	B-Ph16	aux-1	digaux	

2384.676	1	1	0	256	0.15699	0.13639	0.30766	0.11004	0.19883	0.30348	0.18817	0.099676	0.18705	0.12504	0.073562	0.097734	0.21694	0.14417	0.16736	0.14306	-2.5917	-2.8604	-2.8063	-2.9938	-2.7938	-2.95	-3.1917	-2.6042	-3.0333	-2.7271	-2.8146	-3.2417	-2.7125	-3.0438	-2.9583	-2.9896	246.123	-42.745	217.003	77.952	-61.397	-19.485	153.938	171.647	12.964	-53.994	182.358	116.263	30.453	187.733	39.830	126.907	9.9565e-05	0.00050487	5.013e-05	334.27	1.2511e-06	1.9263e-06	399.36	81.271	3.2037e-06	2.2189e-06	112.44	33.07	22.442	6.4586	1.278e-07	12.081	0.00046534	0.00045467	0.00011625	378.53	5.4492e-06	4.9451e-06	439.39	91.054	5.3546e-06	4.8493e-06	130.23	37.421	26.391	7.5576	4.2332e-06	13.888	127.861	24.607	-32.672	-70.633	65.733	136.035	-71.193	-65.336	181.858	-68.757	-66.793	-60.545	-60.745	-54.751	16.718	-56.268	-8191	255	
2384.772	1	1	0	0	0.14921	0.1305	0.17161	0.17094	0.065453	0.041467	0.22986	0.12456	0.1196	0.15639	0.27543	0.20053	0.17853	0.25841	0.061025	0.24759	-2.7146	-2.675	-2.7938	-3.3438	-2.7292	-3.0542	-3.0833	-2.8958	-3.1813	-3.0542	-2.7438	-3.3083	-2.7542	-2.7458	-3.1688	-2.825	101.451	214.365	2.700	19.438	-64.135	73.603	199.971	226.113	-39.761	-48.322	103.973	64.563	47.900	78.415	143.973	233.981	0.00011621	0.000359	8.8236e-05	336.42	3.1805e-06	1.5042e-06	403.56	81.808	1.5427e-06	2.6815e-06	115.12	33.084	22.907	6.4773	1.1856e-06	11.932	0.00044128	0.00041241	0.00010678	382.16	4.9847e-06	4.3175e-06	442.08	91.951	4.5068e-06	3.9975e-06	129.71	37.257	26.211	7.4245	3.5157e-06	13.583	92.366	3.933	43.683	-70.207	45.227	152.604	-71.086	-65.267	-36.938	60.581	-66.690	-61.354	-60.475	-54.912	271.015	-55.928	-8191	255	
2384.867	1	1	0	0	0.36948	0.10815	0.11724	0.10061	0.068831	0.14609	0.095302	0.033211	0.30139	0.023617	0.2312	0.2159	0.12873	0.39442	0.10886	0.24782	-2.4979	-2.9938	-2.8583	-3.1583	-2.9833	-3.025	-3.1063	-2.7458	-3.0271	-3.1792	-3.0042	-3.1437	-2.9271	-2.8354	-3.15	-2.7396	12.849	-23.273	-54.772	-36.578	39.424	170.952	-81.905	90.143	94.075	29.920	47.228	-71.533	183.496	255.518	173.336	65.220	0.00011818	0.00015692	3.1765e-05	340.08	2.6113e-06	2.7149e-06	403.83	82.399	2.6011e-06	1.0592e-06	113.37	32.543	22.638	6.3646	3.1663e-06	11.541	0.00034998	0.00033514	8.9465e-05	380.84	3.906e-06	3.5389e-06	441.25	91.791	3.6581e-06	3.3009e-06	127.53	36.441	25.764	7.2303	3.2934e-06	13.081	132.418	118.962	67.304	-71.033	28.659	106.633	-71.435	-65.446	-69.478	171.406	-66.824	-60.979	-60.371	-54.135	64.441	-55.956	-8191	255	
2384.963	1	1	0	0	0.15657	0.090693	0.15076	0.17701	0.12176	0.20848	0.19438	0.19941	0.21013	0.11875	0.33533	0.15302	0.11706	0.13105	0.14975	0.038421	-2.5458	-2.975	-2.7854	-2.8229	-2.7729	-2.8875	-3.1	-2.9521	-2.9104	-3.1646	-2.8438	-3.0271	-2.9417	-2.8063	-3.1646	-2.8229	9.955	201.025	186.611	246.456	106.920	245.510	73.570	-20.023	125.988	-72.758	252.542	17.408	-25.440	252.374	190.153	22.471	3.5167e-05	0.00018866	9.0088e-05	336.4	2.2306e-06	2.3402e-06	403.16	82.417	3.6705e-06	1.3159e-06	112.28	31.729	22.321	6.157	3.6441e-06	10.907	0.00029982	0.00028538	8.6268e-05	376.6	3.4256e-06	3.1243e-06	439.78	91.402	3.4649e-06	3.268e-06	127.88	35.702	25.478	7.0246	3.8132e-06	12.503	85.092	106.234	13.215	-70.427	51.000	245.190	-71.321	-65.059	21.266	143.033	-67.144	-60.520	-61.257	-54.934	12.259	-56.001	-8191	255	
2385.083	1	1	0	0	0.10796	0.30351	0.12534	0.088461	0.1859	0.034318	0.2077	0.0795	0.30427	0.18532	0.29046	0.078193	0.046333	0.17368	0.030286	0.25112	-2.5979	-3.0625	-2.7812	-2.9979	-2.9458	-2.6604	-3.1792	-3.0396	-2.8583	-3.025	-2.6417	-2.9521	-2.8937	-2.6833	-3.2479	-2.8396	252.018	134.487	62.082	241.451	-47.806	82.352	131.295	64.911	44.638	241.986	189.951	161.008	38.108	245.942	-23.305	-48.784	6.0289e-05	0.00012896	5.7345e-05	339.14	1.2653e-06	5.3876e-07	401.8	80.514	3.2574e-06	1.9342e-06	109.07	30.874	21.977	5.9351	2.2021e-06	10.712	0.00031031	0.00030426	0.00010153	379.33	3.5881e-06	3.5365e-06	439.9	89.912	3.6585e-06	3.6552e-06	126.69	34.933	25.07	6.8971	4.6276e-06	12.337	120.760	189.448	73.519	-70.170	186.503	98.137	-71.264	-65.484	105.070	204.661	-67.191	-61.727	-60.450	-55.133	63.347	-56.656	-8191	255	
2385.180	1	1	0	0	0.11054	0.20491	0.21964	0.2185	0.074853	0.034791	0.042493	0.13514	0.19429	0.13231	0.22886	0.30775	0.14059	0.1084	0.040318	0.27182	-2.3042	-3.0917	-2.7917	-3.0187	-3.0542	-2.7042	-3.225	-2.9208	-2.8292	-3.1229	-2.8812	-2.95	-3.0292	-2.7833	-3.2354	-2.7979	-25.657	155.452	100.227	180.914	82.045	18.487	79.031	171.097	230.215	268.785	238.331	126.162	172.924	108.955	115.046	-17.405	6.9223e-05	0.00014464	9.6998e-05	338.37	6.487e-07	1.8643e-06	402.35	80.76	3.0486e-06	2.961e-06	109.39	31.146	21.948	5.9336	4.8009e-06	10.748	0.00035182	0.00038076	0.00012681	383.48	4.1823e-06	4.4246e-06	441.44	90.161	4.2826e-06	4.5532e-06	129.23	35.287	25.242	7.0127	5.2021e-06	12.453	116.669	75.425	-11.153	-71.110	14.504	129.778	-71.462	-65.380	-77.063	213.547	-67.716	-61.368	-60.763	-54.440	41.437	-56.372	-8191	255	
2385.276	1	1	0	0	0.25255	0.17912	0.19625	0.18154	0.08911	0.24802	0.019002	0.03991	0.34337	0.066657	0.15125	0.039759	0.086697	0.3623	0.09509	0.24007	-2.4271	-3.0479	-2.6896	-2.825	-3.2438	-2.7125	-3.0396	-3.0854	-2.6458	-3.0042	-3.0542	-2.8937	-3.0938	-2.8688	-2.8979	-2.9854	271.962	165.470	34.686	-7.035	171.505	213.488	93.522	-19.960	18.260	226.944	-81.069	72.230	212.897	202.854	-43.949	111.535	9.4924e-05	0.00015559	7.759e-05	334.4	3.0628e-06	3.7088e-06	398.23	80.571	2.8029e-06	1.2109e-06	110.32	31.327	22.077	5.9928	3.2903e-06	11.062	0.00037548	0.00044765	0.00013404	380.96	4.3704e-06	5.1323e-06	439.05	90.162	4.505e-06	5.2974e-06	129.81	35.542	25.574	7.2348	5.7774e-06	12.763	98.658	83.061	30.125	-70.730	73.049	-50.224	-71.397	-65.339	-0.209	230.611	-67.503	-61.591	-61.056	-54.716	34.183	-56.140	-8191	255	
2385.372	1	1	0	0	0.1307	0.28076	0.12105	0.13688	0.21952	0.078213	0.14895	0.18046	0.10753	0.055814	0.23464	0.2235	0.18195	0.1118	0.15389	0.084628	-2.3854	-2.8958	-2.8792	-2.8917	-3.0521	-2.575	-3.2229	-2.925	-2.7646	-3.2125	-2.9021	-2.7042	-3.1042	-2.9042	-2.9729	-3.1354	172.194	-29.707	-13.550	136.992	190.086	223.174	15.081	37.225	214.254	-9.890	-13.108	138.740	-1.865	155.827	147.657	121.934	0.00011374	0.00030653	9.8166e-05	335.43	1.852e-06	3.9784e-06	400.57	80.628	1.4763e-06	3.3992e-06	109.96	31.761	22.247	6.1585	5.1052e-06	11.247	0.00046168	0.00059676	0.00016047	389.07	5.8538e-06	7.0494e-06	443.63	91.719	6.2693e-06	7.4548e-06	134.37	36.586	26.583	7.6083	6.6616e-06	13.237	112.177	79.786	8.058	-70.231	58.653	95.931	-71.298	-65.264	247.214	-36.017	-66.566	-60.993	-60.756	-54.631	105.181	-55.935	-8191	255	
2385.468	1	1	0	0	0.038864	0.14081	0.19474	0.13369	0.16141	0.067843	0.20481	0.16921	0.22992	0.092689	0.17765	0.26106	0.1678	0.17842	0.094707	0.13891	-2.3271	-3.0687	-2.7979	-2.9896	-3.3	-3	-3.1	-3.0271	-2.8438	-2.9958	-2.9417	-2.8167	-3.1813	-2.8958	-2.8438	-3.0521	251.115	260.059	137.383	175.502	161.609	137.197	47.643	147.302	123.237	205.070	249.136	262.796	76.370	270.003	186.024	-35.951	8.4411e-05	0.0008689	3.7293e-05	335	1.6063e-06	4.5459e-06	405.27	81.314	4.0451e-06	6.4744e-06	113.7	32.688	22.917	6.395	2.5081e-06	11.872	0.00056974	0.00068102	0.00016898	392.62	7.0029e-06	7.7763e-06	449.65	93.048	7.9279e-06	8.7342e-06	140.02	38.202	28.11	8.0776	8.0308e-06	14.085	61.141	-47.106	53.404	-70.495	261.951	188.557	-71.375	-65.086	211.889	74.756	-67.320	-61.239	-61.072	-54.927	109.120	-55.784	-8191	255	
2385.564	1	1	0	0	0.23765	0.24753	0.14171	0.12368	0.21689	0.1051	0.1702	0.16031	0.20483	0.14919	0.16467	0.23965	0.10251	0.29951	0.11437	0.18547	-2.4875	-3.0375	-3.0271	-2.5979	-3.1562	-2.8771	-3.125	-3.2812	-2.6417	-3.0479	-2.9417	-2.9542	-3.2542	-2.8688	-2.85	-3.1562	51.620	231.638	53.200	26.584	-40.404	53.420	145.042	-15.442	196.404	132.295	106.987	207.795	185.780	-11.878	-40.175	145.489	0.00011804	0.00015725	6.5311e-05	342.52	1.8826e-06	3.4195e-06	407.26	81.556	7.8196e-06	1.4647e-06	113.63	32.148	22.713	6.2828	2.8035e-06	11.622	0.00075376	0.00079118	0.00019594	404.62	8.4722e-06	8.2569e-06	454.36	93.716	8.6892e-06	8.4101e-06	139.2	37.93	28.034	7.9053	8.0748e-06	13.941	98.008	-3.140	204.379	-70.180	78.074	18.795	-71.050	-65.154	214.339	135.275	-67.036	-61.017	-60.474	-54.809	15.209	-56.289	-8191	255	
2385.660	1	1	0	0	0.056368	0.31147	0.15538	0.24891	0.27957	0.068251	0.15728	0.15579	0.14893	0.16221	0.25236	0.32546	0.049732	0.26311	0.029431	0.089737	-2.3833	-2.9771	-2.9437	-2.6813	-3.0854	-2.8937	-3.0479	-3.0667	-2.8229	-3.0312	-2.9875	-2.6875	-3.3104	-2.6646	-2.7458	-3.3604	129.588	221.997	153.344	263.320	-41.266	123.677	227.307	203.600	-65.673	61.703	-59.067	217.809	-6.491	59.680	-27.702	134.206	3.6489e-05	0.00020561	0.00014494	338.61	1.0294e-06	4.5074e-06	405.44	80.653	3.1439e-06	3.3873e-06	110.86	31.861	22.51	6.2846	2.7753e-06	11.474	0.0008578	0.00084722	0.00022131	412.5	1.0465e-05	9.368e-06	453.18	94.37	9.9586e-06	8.7313e-06	138.53	37.915	27.866	7.8269	7.683e-06	13.914	48.835	-65.798	53.802	-70.773	-30.374	-19.487	-71.384	-65.745	18.962	61.487	-66.264	-61.144	-60.752	-54.871	134.674	-56.173	-8191	255	
2385.757	1	1	0	0	0.064107	0.16589	0.15856	0.2099	0.17324	0.42962	0.15122	0.15893	0.14679	0.095629	0.036698	0.21563	0.12354	0.098164	0.1568	0.13809	-2.4062	-2.9875	-3.1479	-2.6562	-3.0958	-2.9437	-2.6833	-3.1312	-2.6896	-2.8604	-3.1521	-2.6792	-3.0083	-2.8104	-2.7667	-3.3271	104.838	38.015	66.972	64.339	-63.819	99.785	198.928	111.629	252.883	86.260	238.300	137.495	-17.373	178.839	-3.700	72.603	7.8225e-05	0.00019015	6.8773e-05	337.99	2.9861e-06	2.3663e-06	403.25	80.42	1.9565e-06	3.8391e-06	111.98	32.096	22.665	6.3531	4.3636e-07	11.763	0.00078437	0.00074365	0.0001946	410.12	8.9768e-06	8.0559e-06	450.13	94.202	8.7327e-06	7.9267e-06	137.52	38.201	27.604	7.8296	7.3325e-06	14.132	85.559	-77.108	102.599	-70.543	22.714	60.165	-71.349	-65.475	238.806	-29.371	-66.859	-61.283	-60.910	-55.404	200.098	-56.058	-8191	255	
2385.875	1	1	0	0	0.033862	0.25162	0.099982	0.33145	0.35804	0.23747	0.25725	0.095364	0.10483	0.27606	0.048498	0.23432	0.18668	0.17809	0.078318	0.17113	-2.4062	-2.5917	-3.2083	-2.8479	-2.8812	-3.0292	-2.9354	-3.2167	-2.8458	-2.9854	-3.1229	-2.7354	-2.9729	-2.9938	-2.6125	-3.325	157.001	83.699	197.905	227.099	197.922	131.419	223.245	239.841	42.776	222.926	60.139	32.825	13.750	169.599	233.934	180.051	0.00020583	0.00047746	0.00010108	335.84	5.556e-06	3.8385e-06	402.26	80.468	4.1346e-06	1.4474e-06	110.63	32.152	22.542	6.3494	1.0048e-06	11.677	0.00069876	0.00067106	0.00018766	408.56	8.0574e-06	7.4134e-06	449.06	93.806	7.9962e-06	7.5924e-06	137.62	38.196	27.571	7.8532	8.4826e-06	14.321	111.948	-26.940	253.055	-70.561	-77.560	109.599	-71.291	-65.460	109.788	109.885	-66.483	-61.218	-60.815	-54.776	93.654	-56.657	-8191	255	
2385.972	1	1	0	0	0.13158	0.48539	0.064367	0.27005	0.36233	0.17675	0.047992	0.15051	0.14881	0.085056	0.18422	0.063239	0.13117	0.13517	0.13354	0.057151	-2.2458	-2.7208	-3.0208	-2.8667	-2.8417	-3.0854	-2.8792	-3.0167	-2.7375	-2.7479	-3.0167	-2.8688	-2.7875	-3.1708	-2.8667	-3.0438	102.917	40.172	-62.036	-54.039	58.935	-1.622	47.731	105.107	-19.194	152.913	155.994	208.422	53.172	-34.929	155.502	15.544	0.00011387	0.00048524	0.00011439	341.52	4.1077e-06	5.3937e-06	404.75	81.125	2.848e-06	4.6793e-06	111.08	32.663	22.626	6.3526	3.6241e-06	11.809	0.00074239	0.00073759	0.00022924	416.66	8.7013e-06	8.1213e-06	455.03	95.092	8.6462e-06	8.225e-06	143.54	38.818	27.768	7.9587	9.9099e-06	14.462	157.073	-18.411	110.383	-71.169	101.364	20.342	-71.388	-65.524	-4.490	91.245	-67.145	-60.920	-60.512	-54.643	181.567	-56.081	-8191	255	
2386.045	1	1	0	0	0.18276	0.12863	0.14517	0.14149	0.25761	0.03393	0.12316	0.11399	0.081116	0.14766	0.14265	0.1496	0.26948	0.224	0.10643	0.098586	-2.6354	-2.7667	-3.0812	-2.9104	-2.675	-3.075	-2.9396	-3.1312	-2.8521	-2.8812	-3.1521	-2.7771	-2.8625	-3.0792	-2.4729	-3.0625	255.738	12.144	141.697	200.924	153.671	67.882	137.865	141.314	191.904	128.970	21.192	-6.281	248.589	6.378	69.586	108.933	0.00013155	0.00049884	0.00013633	341.64	6.5149e-06	4.1291e-06	406.96	81.063	4.8677e-06	1.4863e-06	112.2	32.523	22.728	6.4837	7.9992e-07	11.894	0.0007682	0.00079075	0.00025689	417.03	8.7699e-06	8.485e-06	457.9	95.132	8.4007e-06	8.4545e-06	144.65	38.58	27.654	8.0353	9.8971e-06	14.33	24.504	84.023	259.986	-70.530	4.036	241.516	-71.283	-65.469	-13.449	205.283	-66.662	-61.345	-60.730	-55.322	-20.221	-56.106	-8191	255	
2386.164	1	1	0	0	0.23418	0.303	0.053365	0.11117	0.18363	0.11912	0.22582	0.19085	0.032992	0.045267	0.20571	0.24878	0.135	0.30633	0.13761	0.18991	-2.6625	-2.8542	-3.0312	-2.8042	-2.9667	-3.1854	-2.7313	-2.9437	-3.0396	-2.7083	-3.0229	-2.9604	-3.0625	-3.1271	-2.85	-3.05	95.644	216.824	212.974	82.931	-31.591	92.152	230.027	-25.470	-5.292	142.341	24.572	45.748	148.081	208.340	-49.742	-64.490	7.9229e-05	0.00017602	3.9773e-06	341.54	5.2993e-06	9.6718e-07	403.5	81.057	4.7789e-06	2.4439e-06	112.52	32.612	22.819	6.5751	3.4154e-06	11.972	0.00072041	0.00081361	0.00025708	413.03	8.6182e-06	9.4764e-06	457.26	95.112	9.0268e-06	1.029e-05	148.56	39.137	28.448	8.516	1.2153e-05	14.892	208.744	212.555	55.091	-70.888	-59.477	122.085	-71.705	-65.409	-79.380	-74.995	-66.877	-60.707	-60.606	-54.811	34.926	-56.243	-8191	255	
2386.260	1	1	0	0	0.12208	0.10981	0.19926	0.13021	0.30726	0.23137	0.20612	0.28222	0.174	0.30904	0.18528	0.16501	0.11601	0.14996	0.10808	0.029429	-2.575	-2.6917	-3.025	-2.9917	-2.7438	-3.3021	-2.8354	-2.9771	-3.1688	-2.7438	-3.175	-2.9208	-2.9583	-3.1583	-2.8375	-2.9562	-18.939	-60.220	183.685	53.539	101.387	141.077	153.984	124.438	-66.965	82.699	27.224	30.324	-8.115	112.492	62.400	-75.385	8.4013e-05	0.00058114	0.00012095	339.76	6.4881e-06	1.6899e-06	408.99	81.66	7.202e-06	3.5205e-06	114.18	33.677	23.489	6.8739	2.5553e-06	12.811	0.00090063	0.0011386	0.00032292	428.82	1.0879e-05	1.2666e-05	466.63	97.767	1.1058e-05	1.3684e-05	157.23	41.304	30.417	9.3749	1.4889e-05	16.207	104.146	123.203	37.057	-70.728	112.761	29.780	-71.474	-65.292	144.176	164.305	-67.356	-61.120	-60.648	-54.407	239.540	-56.142	-8191	255	
2386.356	1	1	0	0	0.083138	0.18898	0.23654	0.052194	0.030328	0.2472	0.074149	0.12095	0.11468	0.15856	0.17343	0.14202	0.14072	0.096358	0.031154	0.26721	-2.7583	-2.8375	-3.0438	-3.0167	-2.9729	-3.1479	-2.7333	-2.825	-3.0583	-2.775	-2.9854	-2.9125	-2.7583	-2.8063	-2.9917	-3.0646	-17.985	95.111	-48.980	140.974	-74.833	148.813	47.367	49.062	-67.296	217.171	-9.342	-46.328	1.787	-23.392	-3.970	97.494	0.00020415	0.00061042	0.00026445	350.82	5.1124e-06	2.0093e-06	421.69	82.645	9.2262e-06	6.186e-06	115.92	34.327	23.502	6.9131	5.3567e-06	12.681	0.001194	0.001496	0.00038493	453.25	1.4182e-05	1.6404e-05	483.11	101.26	1.4402e-05	1.677e-05	162.74	42.277	31.376	9.5631	1.4732e-05	16.17	43.313	96.592	-43.976	-70.545	141.760	79.458	-71.576	-65.190	186.093	128.645	-67.152	-61.431	-60.283	-54.384	27.932	-56.168	-8191	255	
2386.477	1	1	0	0	0.18347	0.32632	0.2638	0.24198	0.21659	0.11517	0.095322	0.14291	0.20044	0.058798	0.057865	0.073999	0.20137	0.14308	0.12935	0.18383	-2.6688	-2.9208	-2.8604	-3.25	-2.6604	-3.1667	-3.0312	-2.7875	-2.975	-2.8479	-2.8625	-2.9917	-2.6292	-2.8521	-2.8896	-2.6792	162.278	-25.547	108.692	214.496	7.578	-71.184	211.791	186.553	161.722	197.198	-68.816	103.060	219.403	231.282	180.311	106.121	0.00029421	0.00095113	0.00020888	347.73	1.0666e-05	3.3482e-06	416.88	83.268	5.4241e-06	2.6481e-06	116.68	34.342	23.848	6.991	3.7789e-06	12.887	0.001273	0.0014814	0.0003658	446.15	1.5384e-05	1.6236e-05	478.92	100.93	1.5678e-05	1.6518e-05	162.68	42.382	32.075	9.581	1.4677e-05	16.454	127.676	96.602	-66.909	-70.680	222.891	112.189	-71.402	-65.239	197.692	140.309	-66.213	-61.312	-60.517	-54.719	34.414	-56.589	-8191	255	
2386.573	1	1	0	0	0.09752	0.05078	0.11306	0.21344	0.10392	0.11937	0.086331	0.14372	0.11229	0.042742	0.1992	0.10876	0.21223	0.13766	0.15636	0.079484	-2.5729	-2.7938	-2.6167	-3.0896	-2.7687	-3.0187	-2.9313	-2.6479	-3.0062	-2.8688	-2.8187	-3.0292	-2.6813	-2.8812	-3.0271	-2.7188	84.478	126.534	250.705	-4.871	141.783	-5.350	170.408	88.216	-4.522	194.237	271.744	51.348	-48.737	236.922	156.418	-79.701	0.00023136	2.0912e-05	8.0325e-05	347.91	4.1342e-06	4.8575e-06	416.19	83.389	1.2271e-05	7.2674e-06	117.88	35.096	24.256	7.3441	5.1445e-06	13.389	0.0014541	0.0015411	0.00039286	459.03	1.8258e-05	1.7404e-05	483.63	103.71	1.8867e-05	1.7959e-05	168.57	44.495	34.09	10.199	1.6991e-05	17.712	115.662	-67.305	-24.103	-70.339	167.832	72.657	-71.228	-65.426	221.360	82.006	-66.631	-61.098	-60.395	-54.925	25.290	-56.195	-8191	255	
2386.645	1	1	0	0	0.38746	0.11746	0.11653	0.070355	0.048419	0.28944	0.23613	0.11867	0.18256	0.12865	0.18231	0.24644	0.089046	0.13723	0.18648	0.037792	-2.4792	-2.9125	-2.5792	-3.1792	-2.8958	-2.9896	-3.0396	-2.5687	-3.0958	-2.8812	-2.8354	-3.2854	-2.6396	-3.0312	-2.9813	-2.7396	37.963	133.631	-39.151	230.637	26.401	41.241	225.653	167.126	86.302	-79.493	-26.725	130.526	167.547	156.844	-50.786	-58.169	0.0001078	0.0002811	3.7022e-05	352.33	6.8773e-06	7.6432e-06	427.67	84.754	5.7853e-06	3.8826e-06	117.53	35.933	24.706	7.4713	3.8178e-06	13.725	0.0017703	0.001731	0.0004532	487.55	2.1427e-05	1.9474e-05	499.45	108.84	2.2032e-05	2.014e-05	176.95	47.03	35.611	10.604	1.8878e-05	18.777	148.433	-69.328	271.150	-70.312	45.974	82.384	-71.164	-65.434	71.506	49.719	-67.013	-61.175	-61.232	-55.496	153.523	-56.053	-8191	255	
2386.765	1	1	0	0	0.16219	0.094573	0.13284	0.069959	0.15055	0.15868	0.12939	0.16811	0.021006	0.065646	0.19888	0.13564	0.21422	0.251	0.21029	0.38853	-2.5479	-2.8104	-2.9729	-2.9062	-2.8688	-2.9729	-3.2708	-2.8812	-2.9521	-3.0083	-2.7062	-3.0521	-2.7938	-2.7125	-3.0875	-2.7896	272.773	219.025	-23.447	155.960	87.809	232.618	118.601	82.057	122.667	25.170	-33.527	-31.489	221.560	242.738	-75.838	257.852	3.953e-06	0.0010319	0.00012201	368.58	5.5362e-06	1.2221e-06	466.38	87.933	7.8881e-06	8.9897e-06	126.46	38.213	26.186	8.0175	6.4174e-06	15.036	0.001918	0.0018838	0.00049926	529.87	2.3468e-05	2.1788e-05	545.11	116.94	2.5651e-05	2.4311e-05	200.15	52.732	39.555	12.061	2.6677e-05	21.959	124.985	-49.086	-76.626	-71.048	25.292	196.506	-71.572	-65.107	63.364	37.802	-66.683	-61.148	-60.345	-55.379	271.492	-57.004	-8191	255	
2386.860	1	1	0	0	0.10864	0.17838	0.21837	0.091593	0.12823	0.12027	0.19201	0.32683	0.16887	0.11454	0.21914	0.29657	0.11256	0.16014	0.06772	0.099041	-2.5938	-3.0396	-2.6104	-3.0042	-2.9417	-2.7771	-3.275	-2.7542	-2.9313	-3.0812	-2.8875	-2.8333	-3.0271	-2.8667	-3.1375	-2.8167	120.380	142.762	214.463	-27.154	242.969	271.768	208.688	205.257	78.443	-77.943	-80.623	-61.871	-5.159	-48.618	91.843	97.888	0.00025738	0.00024082	0.00024339	422.2	7.8245e-06	1.3853e-06	517.67	94.205	5.6471e-06	7.987e-06	133.04	39.673	27.481	8.4281	7.9221e-06	15.877	0.0025171	0.0025247	0.00072501	642.24	3.0417e-05	2.8248e-05	620.68	130.87	2.9726e-05	2.8164e-05	225.61	56.599	42.251	13.044	3.4832e-05	24.063	169.499	48.449	120.030	-70.833	31.628	36.219	-71.836	-65.587	27.893	25.955	-67.236	-61.090	-60.358	-55.133	150.563	-56.449	-8191	255	
2386.956	1	1	0	0	0.18793	0.091111	0.2159	0.26114	0.12914	0.032164	0.11926	0.1709	0.11477	0.05888	0.26384	0.056727	0.14767	0.060869	0.078474	0.11444	-2.4958	-3.0042	-2.5854	-3.1229	-2.8979	-2.6771	-3.3042	-2.7521	-3.0083	-2.95	-2.6729	-3.0604	-2.9833	-2.725	-3.1896	-2.85	227.839	255.181	7.859	-55.711	136.052	-80.576	236.564	211.249	90.986	249.651	272.626	-22.775	193.503	234.822	263.383	-82.548	0.00023324	0.00048352	0.00011148	453.11	5.6082e-06	7.2616e-06	554.46	104.09	1.2639e-05	1.0328e-05	144.21	41.27	28.326	8.6698	5.2617e-06	16.157	0.0030857	0.0032148	0.0010323	737.57	4.0253e-05	3.8604e-05	694.11	153.15	4.2446e-05	4.1661e-05	289.01	63.72	48.815	15.095	5.2178e-05	26.532	269.267	-37.370	130.178	-71.154	17.643	102.973	-71.890	-66.480	49.612	98.341	-66.980	-61.308	-61.025	-55.335	265.929	-56.757	-8191	255	
2387.052	1	1	0	0	0.12888	0.033216	0.10782	0.16257	0.20985	0.049832	0.17296	0.10147	0.046381	0.091314	0.28856	0.22543	0.13431	0.04586	0.092545	0.099504	-2.5792	-3.0812	-2.6937	-2.9437	-3.0438	-2.8125	-3.1771	-2.7875	-2.8333	-3.1875	-2.6479	-3.1292	-3.0042	-2.7583	-2.8646	-2.9062	234.845	251.440	82.885	258.393	213.125	66.109	273.556	7.132	152.596	133.943	151.057	178.615	-45.324	267.728	-33.331	149.321	0.00015694	0.0021538	0.00037091	494.89	7.7934e-06	1.7618e-05	602.62	121.59	1.2016e-05	2.2111e-05	162.78	43.116	30.178	8.9453	7.9667e-06	16.531	0.0039968	0.0043043	0.0014376	845.44	5.1178e-05	5.2006e-05	781.94	181.64	5.4213e-05	5.7142e-05	358.72	70.648	56.253	17.857	7.2334e-05	29.721	185.070	109.206	106.363	-71.100	157.934	220.642	-71.777	-67.289	-68.375	165.144	-67.711	-61.585	-61.882	-54.979	28.554	-56.563	-8191	255	
2387.173	1	1	0	0	0.10509	0.072924	0.10459	0.087019	0.14424	0.1508	0.077816	0.18923	0.080396	0.056909	0.049043	0.099728	0.17924	0.075985	0.10667	0.13153	-2.3729	-3.1042	-2.7667	-2.8563	-3.2583	-2.6333	-3.0042	-3.1188	-3.0229	-3.1271	-2.9708	-3.0042	-3.2042	-2.7771	-3.1354	-2.8083	62.260	266.489	53.721	-19.732	229.836	230.168	-34.388	81.269	224.375	-0.321	203.027	169.319	216.118	-54.200	234.801	-21.301	0.00026287	0.0021307	0.00040616	513.22	1.1516e-05	1.6694e-05	636.23	139.62	3.0679e-06	2.8701e-05	182.36	44.684	32.164	9.1795	1.7131e-05	16.52	0.0053004	0.0062816	0.0019541	958.97	6.4781e-05	7.179e-05	854.15	210.95	6.4955e-05	7.4508e-05	412.64	76.183	62.047	20.138	7.9635e-05	30.648	-61.969	128.261	-6.701	-71.040	37.949	235.517	-71.740	-68.090	228.273	209.406	-69.005	-62.429	-62.073	-55.551	-10.948	-57.525	-8191	255	
2387.269	1	1	0	0	0.24947	0.17689	0.11805	0.23877	0.070939	0.17799	0.04368	0.23644	0.18304	0.18141	0.090199	0.081321	0.13357	0.21937	0.25236	0.13909	-2.3958	-3.2167	-2.675	-2.8646	-3.0292	-2.8375	-3.3479	-3.0062	-2.8604	-3.1	-2.6604	-2.7917	-3.0417	-2.8646	-3.0312	-2.8917	39.979	211.863	148.792	262.615	-81.493	124.548	0.687	245.686	96.793	62.345	87.822	240.865	32.581	60.761	16.765	7.682	0.0004098	0.000657	0.00040451	548.91	2.4438e-06	1.9627e-05	663.37	153.91	1.4908e-05	1.4643e-05	195.6	45.609	32.361	9.2867	3.3771e-05	16.264	0.0057803	0.0073553	0.0020594	1016.9	7.1737e-05	8.5211e-05	892.24	231.2	7.1974e-05	8.5128e-05	425.44	77.049	63.756	20.533	7.4314e-05	29.982	81.492	178.538	-44.925	-71.236	-49.383	214.087	-71.926	-68.355	227.126	232.209	-69.193	-62.644	-62.209	-56.070	30.665	-56.802	-8191	255	
2387.340	1	1	0	0	0.062296	0.21344	0.16237	0.15296	0.099589	0.073525	0.11196	0.20912	0.078855	0.055689	0.21175	0.16052	0.16036	0.2796	0.17656	0.15964	-2.3958	-3.1354	-2.7521	-2.8958	-2.9729	-2.7042	-3.1042	-2.9021	-2.8458	-2.9479	-2.9833	-2.6729	-3.1146	-2.6875	-2.6208	-3.2021	203.964	96.256	197.920	168.170	24.576	-37.985	209.560	19.396	106.643	257.724	-41.354	-71.686	248.429	-60.446	102.005	125.035	0.00051126	0.0008886	0.0002015	568.56	1.2416e-05	1.3099e-05	689.3	160.86	2.0996e-05	3.0982e-06	197.24	44.172	32.299	9.1546	6.6835e-06	15.566	0.0059532	0.0075229	0.0019024	1007.7	7.0851e-05	7.9809e-05	890.54	229.68	6.5953e-05	7.2238e-05	381.99	70.286	60.227	18.305	5.8045e-05	26.547	97.536	172.319	219.523	-71.452	159.534	112.828	-72.129	-68.464	175.438	-51.323	-69.736	-62.698	-62.252	-56.108	88.908	-57.490	-8191	255	
2387.437	1	1	0	0	0.038365	0.3267	0.20043	0.1187	0.11344	0.2124	0.10973	0.27693	0.062764	0.16347	0.16596	0.24539	0.073143	0.12874	0.35282	0.1846	-2.4083	-3.0667	-2.9854	-2.7479	-3.2271	-2.9375	-2.9688	-3.1042	-2.8187	-3.1708	-3.125	-2.8896	-3.0375	-2.7729	-2.8875	-3.0292	235.934	32.171	64.172	-14.901	78.296	214.453	-29.405	148.832	95.194	176.864	150.081	259.722	-65.025	-25.374	212.199	205.448	0.00027783	0.0019956	0.00037172	593.73	1.2616e-05	7.2186e-06	722.9	182.56	1.0297e-05	1.4916e-05	217.03	46.078	34.263	9.1938	9.0386e-06	15.284	0.0052546	0.0060928	0.0015541	980.84	6.8376e-05	7.107e-05	915.75	249.76	6.8544e-05	6.7376e-05	392.37	71.283	62.778	17.554	5.2001e-05	25.584	54.293	-61.329	2.224	-71.294	177.721	93.348	-72.017	-69.311	199.517	47.815	-69.722	-62.994	-62.524	-56.481	153.289	-57.429	-8191	255	
2387.557	1	1	0	0	0.19637	0.19512	0.18971	0.2211	0.12484	0.083885	0.22754	0.07987	0.15736	0.18777	0.015365	0.14669	0.17386	0.15592	0.1382	0.27852	-2.4917	-2.7958	-3.0083	-2.6833	-3.0958	-2.8	-3.0792	-3.0854	-2.8729	-2.9437	-3.0646	-2.7396	-3.3479	-2.7896	-2.7812	-3.2333	-61.414	97.482	19.071	232.416	165.985	91.488	191.016	112.433	158.056	105.591	88.563	-70.336	104.503	210.671	11.509	-66.810	0.0003612	0.00088812	0.00022049	618.56	1.0455e-05	1.5648e-05	760.86	192.69	8.9193e-06	6.6708e-06	225.27	46.075	34.964	9.1143	6.9216e-06	15.26	0.0048476	0.004773	0.0011827	930.31	5.1683e-05	4.737e-05	906.23	244.66	4.8747e-05	4.3694e-05	345.01	65.635	55.94	14.996	3.5954e-05	23.394	91.398	-18.337	-69.059	-71.543	-40.012	44.190	-72.167	-69.904	-16.237	35.474	-70.403	-62.831	-62.925	-56.567	-11.020	-57.360	-8191	255	
2387.653	1	1	0	0	0.047537	0.055071	0.21283	0.09686	0.019368	0.092082	0.053583	0.12222	0.30493	0.12028	0.24612	0.18314	0.36117	0.15764	0.15804	0.13368	-2.1229	-2.9625	-3.1437	-2.6271	-3.1625	-3.0667	-2.9042	-3.3021	-2.9375	-2.9292	-3.0979	-2.8292	-2.9854	-2.8396	-2.9042	-3.1188	259.188	-54.591	121.292	19.475	194.758	-34.483	-45.296	-73.418	216.248	186.247	261.236	217.467	4.554	116.121	107.436	-9.904	0.00015642	0.00045092	0.0002171	666.85	6.5858e-06	1.0033e-05	814.8	217.85	1.705e-05	4.9754e-06	239.46	46.859	35.983	9.2598	3.8693e-06	15.181	0.0036062	0.0034162	0.00087539	933.43	3.8854e-05	3.4081e-05	941.4	265.11	3.5289e-05	3.085e-05	330.04	63.705	51.777	13.742	2.8338e-05	22.335	8.862	-52.674	-12.047	-72.038	-3.665	79.635	-72.495	-70.394	82.578	154.863	-71.015	-63.448	-62.763	-56.193	195.083	-57.314	-8191	255	
2387.748	1	1	0	0	0.10527	0.25211	0.054376	0.22817	0.12352	0.2426	0.12827	0.023923	0.071621	0.32774	0.33749	0.18163	0.22748	0.09684	0.27559	0.042271	-2.4708	-2.8229	-3.0125	-2.6021	-3.0083	-2.9417	-2.7333	-3.2375	-2.9958	-2.625	-3.1	-2.6333	-3.1188	-3.0812	-2.9104	-3.1958	-14.881	115.036	198.645	-68.461	43.082	-24.936	21.511	10.201	223.772	-38.148	161.276	-73.823	268.335	-83.973	32.798	-14.060	0.0001763	0.00097648	0.0003305	657.72	5.088e-06	8.3996e-06	810.09	216.57	9.3609e-06	3.6078e-06	252.47	47.836	37.366	9.3645	3.3511e-06	15.142	0.0028212	0.002739	0.00073964	905.91	3.232e-05	2.9592e-05	931.02	263.47	3.2632e-05	2.9972e-05	347.29	65.541	52.926	13.788	2.961e-05	22.519	265.187	-1.392	187.105	-71.949	4.919	19.233	-72.404	-70.731	-19.354	240.871	-70.999	-63.770	-63.455	-56.847	200.986	-57.710	-8191	255	
2387.846	1	1	0	0	0.1087	0.07889	0.19286	0.10422	0.19033	0.23107	0.14372	0.21588	0.06768	0.15751	0.17183	0.25271	0.14326	0.062502	0.32257	0.20745	-2.3063	-2.8958	-3.1125	-2.65	-3.2062	-3.3833	-2.9542	-3.1229	-2.8083	-2.6979	-3.1354	-2.7333	-3.0104	-3.0625	-2.8771	-3.1063	159.921	12.155	267.475	-24.226	177.063	-50.251	-43.005	162.991	142.343	215.452	226.327	-84.856	265.305	229.062	119.957	142.486	0.00014778	0.00059759	0.00016188	705.04	7.9264e-06	6.8305e-06	833.76	234.21	9.0785e-06	7.0345e-06	261.92	48.295	37.818	9.3068	8.712e-06	14.765	0.0026685	0.002677	0.00078947	953.4	3.0932e-05	2.8331e-05	960.31	280.52	2.8461e-05	2.6218e-05	352.12	63.556	50.81	13.041	2.6032e-05	20.712	-57.453	-73.403	15.162	-71.883	-6.298	55.084	-72.564	-71.149	85.480	-49.251	-71.531	-63.626	-63.603	-56.179	175.325	-57.842	-8191	255	
2387.940	1	1	0	0	0.17416	0.059199	0.26956	0.16959	0.19811	0.25363	0.067342	0.19081	0.21105	0.23903	0.23211	0.050941	0.018022	0.082668	0.092786	0.13267	-2.5104	-2.9437	-3.075	-2.6667	-2.9604	-3.1271	-2.8438	-3.2708	-2.9104	-2.6042	-2.9333	-2.8083	-2.8833	-3.0938	-2.7771	-2.9354	28.874	55.442	70.440	159.607	-57.652	45.772	80.709	-86.156	210.275	198.139	-25.878	27.671	-70.941	80.404	-77.057	192.447	0.00012899	0.00072703	0.00023394	708.52	4.9351e-06	4.4198e-07	845.38	234.56	2.3947e-06	8.7411e-06	258.85	46.845	36.915	8.9358	7.2385e-06	14.054	0.0020144	0.0020285	0.0006453	901.62	2.2854e-05	2.1463e-05	963.79	272.58	2.1503e-05	2.0861e-05	339.66	59.378	47.973	12.249	2.361e-05	19.027	173.216	-12.558	96.340	-72.667	15.615	31.034	-72.970	-71.604	254.254	239.141	-72.066	-63.849	-63.412	-56.647	143.257	-57.478	-8191	255	
2388.038	1	1	0	0	0.10325	0.22397	0.062621	0.25656	0.032398	0.11499	0.088806	0.12872	0.27467	0.051015	0.20202	0.31218	0.20078	0.1277	0.10064	0.24851	-2.6792	-2.75	-3.0479	-2.8583	-2.6792	-2.9083	-2.8021	-2.9062	-3.0563	-2.725	-3.1521	-2.9208	-2.8063	-3.275	-3.05	-2.9562	78.274	53.367	240.886	158.770	256.904	175.868	-70.223	213.734	15.246	162.038	162.095	-79.371	221.183	48.753	-5.883	205.880	1.5722e-05	0.0012397	0.00015244	736.13	4.3545e-06	2.0193e-06	857.65	221.57	8.2769e-06	5.1297e-06	241.3	44.519	34.896	8.4571	7.5701e-06	13.206	0.0017093	0.0018644	0.0006115	908.51	2.0554e-05	2.1144e-05	973.28	257.03	2.0439e-05	2.2076e-05	322.25	56.618	46.079	12.061	2.4957e-05	18.154	25.167	129.616	-41.344	-72.889	70.084	140.036	-73.374	-72.011	-54.918	202.175	-71.967	-64.149	-63.394	-56.490	24.434	-57.932	-8191	255	
2388.157	1	1	0	0	0.14983	0.30453	0.068429	0.22182	0.18071	0.22286	0.15652	0.27921	0.10178	0.31406	0.18021	0.11216	0.16211	0.23898	0.072469	0.17987	-2.5375	-2.6188	-2.9917	-3.0687	-2.8	-3.1667	-2.8208	-3.0396	-3.0625	-2.6729	-3.2083	-2.875	-2.6562	-3.2979	-2.8583	-2.8667	134.182	3.801	254.718	258.295	245.167	-49.463	219.283	-57.327	231.711	135.574	-16.299	255.888	-64.285	67.438	87.400	260.285	9.7962e-05	0.00023608	0.00021899	711.17	5.8357e-06	1.0648e-05	814.97	179.29	4.1902e-06	2.5369e-06	200.59	40.527	31.538	7.8466	1.1579e-05	12.262	0.0017175	0.0020564	0.0006186	878.98	2.007e-05	2.2872e-05	924.53	211.32	2.0109e-05	2.3826e-05	277.88	52.087	42.331	11.54	2.3824e-05	16.963	204.161	52.105	-16.815	-73.428	-46.035	254.722	-73.520	-70.878	258.482	200.144	-71.264	-63.823	-62.970	-56.659	19.723	-58.195	-8191	255	
2388.253	1	1	0	0	0.17282	0.041558	0.11266	0.19338	0.17609	0.10624	0.33299	0.17288	0.085913	0.11608	0.082417	0.10155	0.19318	0.16643	0.44057	0.14095	-2.7708	-2.7542	-2.9188	-2.9	-2.6437	-3.05	-3.0375	-2.9	-3.0438	-2.8208	-3.0396	-2.8104	-2.7792	-3.2271	-2.7875	-2.975	156.147	-44.930	-8.701	135.103	177.654	-65.478	251.326	97.725	20.210	-69.142	-45.258	-52.655	240.399	95.252	60.994	230.554	0.00023018	0.0010153	0.00018342	689.74	4.9857e-06	5.9465e-06	792.98	169.98	9.3579e-06	5.3555e-06	194.68	39.921	31.125	7.8121	5.4497e-06	12.135	0.0017369	0.002216	0.0005887	848.66	2.017e-05	2.4006e-05	899.4	200.6	2.0285e-05	2.448e-05	265.34	50.838	41.831	11.466	2.1538e-05	16.607	114.780	86.919	94.918	-73.411	-32.354	226.988	-73.699	-70.859	131.759	-87.339	-71.155	-63.589	-63.014	-56.841	0.025	-58.134	-8191	255	
2388.349	1	1	0	0	0.0063349	0.26851	0.15786	0.26466	0.030502	0.49242	0.18946	0.15201	0.1609	0.34912	0.17052	0.13615	0.069998	0.11435	0.15369	0.20074	-2.8625	-2.7562	-2.9833	-3.1396	-2.6833	-3.225	-3.0812	-2.9208	-3.3542	-2.7146	-3.1146	-3.2562	-2.7333	-2.95	-2.8917	-2.6042	223.291	217.526	79.649	125.107	157.472	-20.024	189.286	246.054	23.018	188.040	172.334	85.055	239.841	-81.100	-85.826	266.212	0.00015788	0.00068839	0.00030085	671.06	1.227e-05	1.0165e-05	762.05	153.82	7.7821e-06	6.1124e-06	174.27	37.868	29.105	7.4626	2.9335e-06	11.668	0.0017588	0.0022217	0.00055726	831.56	2.2294e-05	2.4958e-05	867.72	183.04	2.1957e-05	2.4118e-05	242.11	48.273	40.068	10.86	1.9706e-05	15.919	144.682	28.002	-45.438	-73.258	171.981	27.225	-73.391	-69.953	217.208	81.564	-70.455	-63.370	-62.690	-56.230	264.726	-57.919	-8191	255	
2388.445	1	1	0	0	0.04286	0.169	0.050221	0.12562	0.15025	0.11683	0.23492	0.16275	0.27262	0.089187	0.25033	0.17701	0.30417	0.29292	0.16342	0.2154	-2.7958	-2.7479	-2.7271	-3.0187	-2.8271	-3.1292	-3.0625	-2.7792	-3.2104	-2.7125	-2.8333	-3.1417	-2.5604	-3.0896	-2.925	-2.7313	157.452	-61.198	93.769	77.769	195.364	58.066	-25.433	-86.895	82.584	-71.230	-5.949	215.438	265.268	-73.578	-60.462	-15.322	0.00022641	0.0011279	0.00014152	633.04	7.6037e-06	5.7866e-06	744.04	147.72	1.2012e-05	6.574e-06	166.19	36.192	27.073	6.9159	8.0253e-06	10.917	0.0018246	0.0020208	0.00050913	783.68	2.2614e-05	2.2668e-05	843.07	176.55	2.2973e-05	2.2331e-05	228.4	46.409	38.087	10.076	1.8137e-05	15.024	75.262	-16.383	17.386	-73.262	184.447	3.465	-73.482	-69.882	149.630	54.266	-69.792	-62.576	-61.761	-56.379	-20.576	-57.000	-8191	255	
2388.566	1	1	0	0	0.20675	0.19879	0.24304	0.32878	0.044087	0.24726	0.17752	0.082557	0.10679	0.071104	0.11636	0.061652	0.12879	0.11698	0.080928	0.070306	-2.5021	-2.7354	-2.8146	-2.9229	-2.8896	-2.8646	-3.0208	-2.7417	-3.0646	-3.0062	-2.8458	-3.2062	-2.7854	-3.0042	-3.1146	-2.6708	160.382	68.659	-63.836	-17.073	66.969	-31.745	270.404	-53.073	3.938	89.436	-2.157	45.331	254.021	211.497	83.844	-82.304	3.0939e-05	0.00077997	0.0001377	494.58	5.7969e-06	8.3789e-06	584.85	96.978	4.2506e-06	4.6389e-06	125.57	31.362	23.132	6.0938	3.8968e-06	9.9334	0.0017409	0.0016955	0.00042131	625.07	1.8841e-05	1.6846e-05	662.32	118.27	1.7613e-05	1.5771e-05	172.46	39.858	31.954	8.5108	1.4349e-05	13.67	136.130	-28.108	-74.562	-72.408	24.294	57.477	-72.947	-67.024	-40.605	70.153	-68.207	-62.159	-61.549	-56.130	32.158	-57.916	-8191	255	
2388.638	1	1	0	0	0.072014	0.039866	0.16411	0.17332	0.19847	0.1647	0.34416	0.05778	0.18607	0.14179	0.12283	0.08067	0.12841	0.074062	0.11163	0.26133	-2.7188	-2.7812	-2.725	-3.1521	-2.7167	-3.0312	-3.2396	-2.8312	-3.0854	-2.7667	-2.7354	-2.8396	-2.8271	-2.9375	-2.8917	-2.7417	150.676	-68.464	-32.107	125.583	-12.035	-34.565	176.504	255.436	-83.983	182.584	256.109	-37.274	49.801	155.942	136.873	-79.596	9.1862e-05	0.00046589	0.0001005	441.35	1.0213e-06	2.063e-06	539.47	88.813	8.6058e-06	1.6751e-06	119.77	30.04	22.383	5.9275	4.8552e-06	9.7479	0.0015299	0.0014641	0.00038729	573.21	1.8361e-05	1.6455e-05	612.05	110.86	1.7754e-05	1.5812e-05	166.2	39.119	30.743	8.2731	1.4511e-05	13.566	-34.404	-70.758	86.496	-72.227	224.109	229.354	-72.487	-66.759	25.089	-32.301	-68.434	-62.057	-61.787	-55.578	229.663	-57.225	-8191	255	
2388.734	1	1	0	0	0.17934	0.094685	0.29029	0.095094	0.069568	0.27897	0.13737	0.20429	0.25566	0.16558	0.033114	0.24146	0.21569	0.28851	0.13267	0.07973	-2.5417	-2.95	-2.7729	-2.8833	-2.7958	-2.5625	-3.1604	-2.6542	-3.0854	-3.0396	-2.6083	-3.2042	-2.7417	-2.8667	-2.9917	-2.8563	252.829	164.096	-69.270	101.727	-45.911	35.434	-39.119	197.123	68.032	272.028	196.569	80.935	16.798	-6.825	192.230	107.788	6.9645e-05	0.00069436	0.00016043	424.95	7.1684e-06	1.6323e-06	517.81	85.249	8.9458e-06	3.2994e-06	114.99	29.644	21.714	5.8456	5.165e-06	9.6554	0.0014372	0.0014048	0.00038971	557.68	1.7037e-05	1.551e-05	588.76	107.66	1.6713e-05	1.5541e-05	165.6	39.153	30.119	8.2271	1.6207e-05	13.828	255.859	-23.170	73.867	-72.227	-7.744	246.161	-72.574	-66.500	7.767	69.906	-68.609	-62.302	-61.728	-56.206	-14.692	-57.226	-8191	255	
2388.830	1	1	0	0	0.084863	0.11901	0.2121	0.041642	0.053163	0.13492	0.19212	0.19906	0.18948	0.31073	0.078108	0.15832	0.099454	0.0329	0.17213	0.19014	-2.5125	-3.2938	-2.7958	-2.9771	-2.9167	-2.6937	-3.3042	-2.7938	-3.0417	-3.1833	-2.7	-3.1229	-2.8271	-2.775	-3.1021	-2.8125	108.958	47.215	-33.967	216.089	123.106	-68.237	242.335	196.304	86.911	82.852	-35.128	148.506	222.179	15.601	19.327	50.038	5.1454e-05	0.00072911	0.00014038	420.24	2.8964e-06	4.6852e-06	527.6	86.928	7.2214e-06	5.0678e-06	116.7	30.094	21.996	5.862	3.4645e-06	9.8903	0.0014382	0.0014509	0.00044229	564.73	1.7519e-05	1.6693e-05	606.56	111.13	1.7729e-05	1.6815e-05	175.75	40.052	30.507	8.3651	1.8296e-05	13.813	209.391	64.094	45.292	-71.647	31.864	57.601	-72.498	-66.539	-62.496	-50.645	-67.904	-62.250	-61.799	-55.841	-37.476	-56.957	-8191	255	
2388.949	1	1	0	0	0.10341	0.12188	0.2021	0.16999	0.21807	0.18108	0.048102	0.068886	0.020887	0.18051	0.38429	0.13987	0.18957	0.071857	0.091461	0.28762	-2.475	-3.1333	-2.6229	-3.0333	-2.8542	-2.8479	-2.9708	-2.825	-2.8063	-3.1021	-2.5333	-3.0062	-3.0062	-2.6729	-3.1063	-2.75	-69.873	25.882	245.002	-59.149	85.903	-47.885	177.805	188.263	257.418	270.950	138.710	-15.420	33.775	-51.972	187.186	133.810	4.3529e-05	0.00074565	0.00016367	403.29	7.6123e-06	2.7269e-06	489.61	80.79	8.3556e-06	4.508e-06	110.12	28.513	21.099	5.5579	3.7491e-06	9.2955	0.0013783	0.0013862	0.0004576	532.63	1.5538e-05	1.4984e-05	564.83	101.75	1.5104e-05	1.4818e-05	164.39	37.129	28.417	7.8814	1.7119e-05	12.831	130.472	113.027	102.119	-72.130	25.760	266.986	-72.325	-66.587	-59.131	209.218	-67.919	-62.041	-61.298	-55.116	100.786	-57.299	-8191	255	
2389.045	1	1	0	0	0.31292	0.11106	0.45815	0.17013	0.021272	0.21473	0.021351	0.42077	0.15184	0.02176	0.085226	0.13432	0.144	0.097202	0.081927	0.15357	-2.5042	-3.1104	-2.6042	-2.9938	-2.9625	-2.8375	-3.1063	-2.875	-2.7833	-3.0271	-2.9813	-2.8563	-3.1396	-2.7875	-2.9875	-3.2146	123.336	210.484	246.244	217.954	145.187	240.619	-56.439	235.580	-3.361	60.116	-9.445	258.569	-42.459	275.094	207.173	63.171	3.2013e-05	0.00049642	0.00023803	400.7	8.114e-06	5.1709e-06	486.38	78.852	1.8406e-06	2.0056e-06	108.43	27.523	20.323	5.3913	1.6251e-06	8.8802	0.0012063	0.0013108	0.00042363	511.45	1.3279e-05	1.3911e-05	556.58	97.379	1.2112e-05	1.2832e-05	152.21	34.625	26.196	7.3	1.2151e-05	11.555	168.941	91.069	-70.709	-71.514	35.684	195.854	-72.692	-65.826	53.896	233.267	-68.134	-62.169	-61.095	-55.348	15.942	-57.157	-8191	255	
2389.141	1	1	0	0	0.50643	0.050275	0.16185	0.30803	0.17851	0.096701	0.10037	0.24793	0.20598	0.11614	0.16652	0.14996	0.078124	0.22368	0.075994	0.1594	-2.3521	-3.2667	-2.5479	-3.0708	-3.0979	-2.4771	-3.1396	-2.9146	-2.6292	-3.1917	-2.8063	-2.8563	-3.2729	-2.8729	-3.0687	-2.9146	54.072	150.057	38.008	-42.804	70.962	15.220	259.387	207.173	35.927	14.641	173.844	46.204	-19.878	107.879	121.509	-7.122	0.00018889	0.00036569	0.00019073	372.21	3.5179e-06	2.6246e-06	464.19	77.014	4.4574e-06	8.09e-06	105.94	27.282	19.806	5.2393	4.6273e-06	8.6986	0.00083868	0.00098986	0.0002818	450.92	8.76e-06	1.0165e-05	519.73	90.174	8.0616e-06	9.3217e-06	134.69	32.365	24.234	6.7144	7.9329e-06	10.617	109.236	92.622	-34.859	-70.834	219.990	183.670	-72.065	-66.130	121.980	119.143	-67.836	-61.993	-60.413	-55.270	-25.134	-56.354	-8191	255	
2389.237	1	1	0	0	0.24041	0.13071	0.12629	0.096007	0.18222	0.32557	0.20427	0.11324	0.1333	0.16278	0.14628	0.1748	0.17175	0.052535	0.060898	0.19738	-2.3771	-3.0396	-2.7542	-2.7167	-3.1042	-2.9354	-2.9062	-3.0312	-2.8563	-3.1021	-3.0312	-2.7875	-3.0667	-2.7792	-2.9208	-3.2667	150.928	272.226	131.102	213.547	242.935	-53.291	178.975	145.304	130.843	-64.945	107.095	111.019	-49.954	160.166	153.078	-31.918	0.00015295	0.00039119	0.00016569	368.35	4.0518e-06	1.1793e-06	457.64	74.352	1.9187e-06	1.224e-06	103.94	26.507	18.925	5.006	5.1466e-06	8.6178	0.00058364	0.00072954	0.00018586	424.97	6.3427e-06	7.4497e-06	505.02	85.255	6.1219e-06	7.0833e-06	124.93	30.715	22.944	6.2522	5.9731e-06	10.169	38.082	65.330	-80.369	-71.083	212.518	224.503	-72.318	-66.128	243.424	9.617	-67.155	-61.849	-60.942	-54.977	-66.575	-56.396	-8191	255	
2389.333	1	1	0	0	0.24434	0.14053	0.079584	0.10606	0.10085	0.51866	0.19088	0.10789	0.03306	0.022259	0.20936	0.088853	0.22806	0.20037	0.1267	0.10573	-2.2354	-3.2354	-3	-2.9167	-3.1396	-2.7	-3.0042	-3.0625	-2.8021	-3.1063	-2.9	-2.9938	-3.1125	-2.8604	-2.8625	-3.1375	198.565	118.539	240.201	209.187	80.768	199.015	157.785	248.504	-20.851	57.580	262.665	1.823	141.114	-58.171	16.106	-79.315	9.3912e-05	0.00026007	7.2846e-05	379.41	1.8049e-06	5.295e-07	471.63	75.841	6.5407e-06	1.0955e-06	105.1	26.872	19.357	5.0868	3.309e-07	8.8363	0.00050673	0.00059472	0.00014731	429.52	5.8676e-06	6.3331e-06	519.32	85.882	5.8721e-06	6.1717e-06	124.2	30.935	23.22	6.2114	5.2414e-06	10.327	126.159	102.719	-8.998	-71.643	-35.277	-59.163	-71.913	-65.998	135.444	-62.714	-67.374	-61.741	-61.140	-54.776	-65.093	-56.305	-8191	255	
2389.429	1	1	0	0	0.1186	0.21803	0.13773	0.12888	0.052546	0.055542	0.07234	0.12727	0.2012	0.23087	0.19674	0.11079	0.30849	0.08078	0.18882	0.27257	-2.4021	-3.0333	-3.0333	-2.6083	-3.175	-2.7979	-2.9229	-3.1188	-2.5604	-3.2271	-2.9271	-2.8896	-3.2208	-2.9625	-3.0229	-3.0812	-81.413	-18.551	219.739	44.828	-16.685	192.029	173.324	207.445	253.135	-8.624	180.400	72.660	-58.182	201.895	187.986	122.780	0.00010751	0.0003371	3.5273e-05	368.19	4.8278e-07	4.6443e-06	440.49	74.14	2.9183e-06	2.5362e-06	101.73	26.729	19.454	5.1288	2.2076e-06	8.8431	0.00050322	0.00053156	0.00013241	416.05	5.905e-06	5.6924e-06	484.19	83.619	5.9408e-06	5.6269e-06	119.49	30.879	23.3	6.2049	5.0057e-06	10.475	89.104	40.726	273.551	-71.220	166.543	64.547	-71.648	-65.700	110.494	82.933	-67.421	-61.119	-60.420	-54.920	18.984	-56.395	-8191	255	
2389.526	1	1	0	0	0.14647	0.08333	0.084946	0.12332	0.22259	0.21308	0.12097	0.19768	0.11041	0.26635	0.23779	0.16111	0.066768	0.12006	0.10517	0.19822	-2.4417	-3.1167	-2.9833	-2.6875	-3.0896	-2.775	-2.9625	-3.2271	-2.6312	-3.075	-3.0563	-3.025	-3.0646	-2.9333	-2.75	-3.2354	34.291	269.110	53.916	190.755	34.365	154.771	105.519	-77.427	171.787	84.019	188.550	-9.730	-22.724	26.293	62.814	226.708	1.4322e-05	9.4983e-05	8.5059e-05	341.38	4.2188e-06	1.0783e-06	424.16	75.789	2.1592e-06	1.839e-06	102.58	27.487	20.119	5.335	2.217e-06	9.1249	0.00050945	0.00049201	0.00012694	391.54	5.9887e-06	5.321e-06	464.66	86.172	6.0625e-06	5.4821e-06	122.02	31.923	24.12	6.4721	5.4309e-06	10.938	218.229	202.276	4.470	-70.596	-2.570	-15.909	-71.776	-65.603	268.225	-5.130	-67.289	-61.544	-61.203	-55.151	263.323	-55.857	-8191	255	
2389.646	1	1	0	0	0.20019	0.16335	0.12809	0.26473	0.23242	0.15703	0.10616	0.22926	0.26058	0.037594	0.14487	0.30119	0.11612	0.11652	0.25015	0.074618	-2.3396	-2.7083	-3.0917	-2.8292	-3.1792	-3.0667	-2.9062	-3.125	-2.8729	-2.9167	-3.1667	-2.9	-3.1	-2.9646	-2.8312	-3.2854	230.542	206.649	153.731	-45.018	-79.532	215.520	222.061	-34.679	184.808	-1.549	242.626	31.752	255.438	33.627	-55.953	192.018	2.6795e-05	0.00018828	6.7971e-05	340.85	3.4436e-06	4.0934e-06	417.94	76.674	4.3421e-06	7.4806e-07	104.63	27.862	20.269	5.4426	2.483e-06	9.2707	0.00057272	0.00056518	0.00015041	400.36	7.2621e-06	6.5793e-06	462.19	88.898	7.5644e-06	6.9991e-06	128.36	33.287	25.181	6.8259	7.9599e-06	11.754	111.509	-21.473	22.609	-71.118	20.002	56.087	-71.610	-65.975	16.769	-19.910	-67.505	-61.478	-60.669	-55.607	168.454	-56.424	-8191	255	
2389.742	1	1	0	0	0.083889	0.25794	0.19715	0.10623	0.11404	0.12405	0.1691	0.20855	0.3068	0.1726	0.090619	0.22364	0.30229	0.028262	0.18762	0.039122	-2.6083	-2.8812	-3.0792	-2.8229	-3.0708	-3.1854	-3.0021	-3.2333	-2.8896	-2.9646	-3.1063	-2.8875	-3.0458	-2.9771	-2.8063	-3.2812	108.256	154.653	-29.015	-73.667	-66.419	71.902	270.797	129.073	-36.683	22.919	152.509	-82.405	216.360	244.364	127.536	74.660	0.00015267	0.00040292	0.00020709	349.69	3.8085e-06	5.4529e-06	426.77	77.444	5.7786e-06	6.0499e-06	104.46	28.482	20.471	5.5325	2.8643e-06	9.3113	0.00080849	0.00081946	0.00023661	436.51	1.0769e-05	1.0273e-05	481.68	94.675	1.1842e-05	1.13e-05	143.36	35.786	26.828	7.2819	1.2099e-05	12.43	147.989	231.962	101.918	-70.993	27.049	30.561	-71.665	-65.243	-45.618	-34.163	-67.396	-61.001	-60.666	-54.855	60.031	-55.834	-8191	255	
2389.839	1	1	0	0	0.091176	0.20356	0.26626	0.094108	0.18082	0.20235	0.22502	0.12815	0.19546	0.027935	0.18863	0.051332	0.1754	0.13913	0.2089	0.050643	-2.3187	-2.9521	-3.0229	-2.7292	-2.9625	-3.1104	-2.7458	-2.8917	-2.9875	-2.825	-3.0563	-2.9917	-2.9792	-3.2125	-2.7229	-3.175	179.967	14.356	118.976	267.688	241.259	100.849	192.200	147.766	127.142	-48.967	-50.255	233.790	234.941	49.582	146.747	251.550	4.3973e-05	0.00052608	9.2518e-05	336.77	2.774e-06	5.1347e-06	406.14	75.557	3.8494e-06	2.6004e-06	101.49	27.361	19.741	5.2415	1.0671e-06	9.0789	0.0010026	0.00099191	0.00030061	432.51	1.1155e-05	1.0234e-05	461.99	91.368	1.039e-05	9.8638e-06	137.1	33.797	25.282	6.8419	1.1132e-05	11.765	242.411	-16.651	227.924	-70.810	248.744	183.950	-71.398	-65.478	91.556	225.029	-68.020	-60.850	-60.634	-54.332	90.666	-55.846	-8191	255	
2389.935	1	1	0	0	0.19027	0.11403	0.071075	0.18786	0.041862	0.057377	0.10413	0.089789	0.14096	0.14963	0.13366	0.081033	0.071537	0.11901	0.043642	0.071833	-2.7062	-2.7083	-3.2125	-2.7854	-2.9833	-2.9729	-2.7438	-3.1104	-3.0104	-2.6813	-3.1063	-2.7271	-2.7833	-3.2562	-2.6083	-3.1896	-6.564	106.029	156.346	46.672	186.367	125.777	35.321	-6.410	-79.253	141.528	-36.608	264.923	203.183	273.516	69.912	79.589	4.8904e-05	0.00030121	8.9588e-05	331.16	9.3476e-07	1.0315e-06	400.48	75.536	4.86e-06	1.2765e-06	100.78	27.593	19.705	5.3006	8.4806e-06	9.1366	0.00085008	0.00089031	0.0002938	413.37	9.9921e-06	9.7485e-06	452.96	89.987	9.6159e-06	9.7668e-06	137.39	33.482	25.038	6.9149	1.1325e-05	11.638	17.162	-58.294	52.598	-70.917	46.998	156.776	-71.250	-65.086	23.937	150.147	-66.818	-61.240	-60.069	-54.439	184.586	-55.939	-8191	255	
2390.029	1	1	0	0	0.054458	0.26545	0.065644	0.21902	0.15214	0.028002	0.28283	0.14665	0.31644	0.14673	0.2347	0.15807	0.10612	0.040467	0.0523	0.14623	-2.6208	-2.7958	-3.1021	-2.8896	-2.8812	-2.9188	-2.8583	-2.9042	-3.2083	-2.7812	-3.1083	-2.8021	-2.6854	-3.0083	-2.7771	-3.0958	246.436	-58.183	126.901	79.315	27.576	11.033	223.870	115.555	0.242	86.864	257.106	241.712	194.580	24.816	38.434	180.976	1.2312e-05	0.0003196	4.0953e-05	326.33	2.1924e-06	2.0541e-06	396.48	76.089	2.0611e-06	2.6525e-06	103.62	27.677	20.168	5.3517	5.2158e-06	9.3589	0.00081126	0.00093189	0.00029474	408.86	9.705e-06	1.0558e-05	452.71	90.069	9.6494e-06	1.0775e-05	138.89	33.656	25.253	7.0618	1.0667e-05	11.744	151.230	98.780	-3.564	-70.477	269.934	218.445	-71.443	-65.276	92.417	236.712	-66.905	-60.998	-60.287	-54.931	23.959	-56.547	-8191	255	
2390.125	1	1	0	0	0.195	0.13128	0.38712	0.15832	0.18419	0.062166	0.10738	0.42223	0.093866	0.071111	0.093612	0.2502	0.1648	0.2261	0.09487	0.27513	-2.6458	-2.8937	-3.0583	-2.9958	-2.7375	-3.0604	-2.8771	-2.9771	-2.9688	-2.8333	-3.1	-2.875	-2.9854	-2.8958	-3.0229	-3.0458	-41.339	91.879	203.700	106.672	22.449	230.240	201.909	254.387	160.248	231.156	-39.637	-41.685	235.455	263.923	97.861	195.850	0.00018035	0.00064254	8.2337e-05	330.8	1.8064e-06	4.0759e-06	398.74	75.905	3.055e-06	1.9422e-06	103.6	27.879	19.987	5.3683	2.2444e-06	9.1878	0.000755	0.00093018	0.00026321	403.96	8.8508e-06	1.042e-05	450.74	90.209	9.1216e-06	1.1057e-05	137.37	33.734	25.327	7.1602	1.038e-05	11.559	68.139	109.602	31.515	-70.044	-69.407	235.624	-71.518	-65.120	66.550	192.301	-67.001	-60.697	-60.013	-54.536	10.784	-56.315	-8191	255	
2390.246	1	1	0	0	0.14052	0.084053	0.27376	0.19581	0.16168	0.29302	0.092623	0.051736	0.067951	0.10424	0.082913	0.13214	0.17389	0.11088	0.27834	0.053195	-2.6937	-2.8229	-2.6958	-3.0687	-2.6521	-3	-2.7771	-2.9208	-3.0875	-2.8417	-2.9521	-3.025	-2.6146	-3.25	-2.8937	-2.7313	205.799	81.711	230.548	62.480	258.921	113.302	-73.697	206.836	-57.242	113.180	242.624	57.463	77.717	132.886	175.089	-26.990	0.00019203	0.00053172	0.00017005	326.63	6.1932e-06	2.875e-06	383.34	73.612	2.8803e-06	5.731e-06	100.11	26.369	19.197	5.0612	4.9969e-06	8.5115	0.00079612	0.0010192	0.00025503	395.63	9.3121e-06	1.0686e-05	432.43	86.929	9.2756e-06	1.0947e-05	130.35	31.744	24.657	6.8811	1.0289e-05	10.935	94.718	3.568	-42.960	-70.515	174.937	82.308	-71.468	-65.132	239.844	-76.335	-66.469	-61.815	-60.582	-54.544	44.039	-56.113	-8191	255	
2390.342	1	1	0	0	0.14555	0.07854	0.1355	0.080126	0.064956	0.11398	0.26489	0.028283	0.081171	0.17683	0.14333	0.076776	0.14752	0.13662	0.18851	0.10871	-2.6792	-2.8792	-2.6604	-3.1375	-2.6792	-3.1208	-2.8792	-2.9396	-3.2188	-2.6979	-2.9271	-3.1625	-2.7938	-2.8896	-2.7354	-2.8292	276.554	12.856	119.471	27.837	258.757	-56.110	153.805	262.147	220.969	-52.445	207.003	52.725	89.527	200.547	30.220	-51.946	0.00025601	0.00080664	0.00014398	320.42	4.1129e-06	3.0084e-06	381.23	72.849	7.5199e-06	4.535e-06	96.157	25.667	18.917	4.9053	4.5372e-06	8.3352	0.00092067	0.00109	0.00027321	397.82	1.1468e-05	1.1874e-05	431.89	86.652	1.114e-05	1.1441e-05	129.12	31.477	24.777	6.6972	9.5834e-06	10.683	73.248	-40.882	11.577	-70.594	164.881	120.284	-71.524	-65.413	216.431	47.444	-67.001	-61.464	-61.057	-54.870	203.513	-56.275	-8191	255	
2390.438	1	1	0	0	0.056624	0.15381	0.34587	0.25507	0.16774	0.18261	0.27842	0.16032	0.13826	0.12737	0.14217	0.0032473	0.11394	0.10532	0.14207	0.21076	-2.825	-2.875	-2.8312	-2.9333	-2.8167	-3.1188	-2.9771	-2.5875	-3.1417	-2.925	-2.7417	-2.9958	-2.6125	-3.0563	-2.9354	-2.75	91.915	-66.573	30.233	130.573	85.176	59.561	234.946	-82.686	105.606	3.883	229.826	127.081	53.057	238.445	-24.764	-83.166	0.00018053	0.00054359	0.0001498	319.22	4.592e-06	2.528e-06	377.03	71.921	8.1794e-07	4.6097e-06	96.577	25.291	18.504	4.8607	4.7486e-07	8.2381	0.00092818	0.00095035	0.00023793	389.67	1.0712e-05	1.003e-05	425.55	85.139	1.0609e-05	9.6999e-06	124.93	30.775	24.082	6.4281	8.3656e-06	10.536	71.628	33.182	-16.113	-70.652	230.822	92.162	-71.244	-65.465	208.977	89.967	-67.025	-61.393	-61.204	-55.100	-76.126	-56.630	-8191	255	
2390.510	1	1	0	0	0.32072	0.10993	0.078606	0.028632	0.10934	0.20002	0.28437	0.12194	0.078938	0.21678	0.2044	0.2476	0.096673	0.18624	0.12543	0.052893	-2.5896	-2.7875	-2.7354	-3.0375	-2.7042	-3.0042	-3.0417	-2.7875	-2.9833	-3.0167	-2.825	-3.0708	-2.8146	-2.8292	-3.0854	-2.7562	137.165	151.997	-58.248	59.342	32.324	127.704	179.849	202.079	-4.482	-80.349	241.995	175.944	100.230	27.401	138.025	173.608	0.00017442	0.00039899	0.000104	316.05	2.8475e-06	1.2219e-06	375.49	70.267	4.1879e-06	3.7579e-06	94.385	25.095	18.263	4.713	3.1607e-06	8.1883	0.0008355	0.00078432	0.00020321	385.02	9.4346e-06	8.2675e-06	418.26	83.282	9.085e-06	8.244e-06	120.14	30.288	23.206	6.1365	7.7627e-06	10.429	124.670	-22.898	24.221	-70.470	-40.686	-33.606	-71.550	-64.889	-26.939	47.752	-67.450	-61.516	-60.631	-54.793	134.004	-56.770	-8191	255	
2390.630	1	1	0	0	0.068867	0.073233	0.14605	0.11869	0.20302	0.14091	0.05226	0.046042	0.16829	0.28743	0.058819	0.080993	0.14767	0.15982	0.10765	0.10394	-2.6312	-2.9229	-2.7208	-3.1125	-2.8833	-2.9583	-3.1562	-2.6417	-3.0146	-2.9208	-2.7917	-3.0208	-2.8521	-2.9729	-3.2125	-2.7812	212.503	266.462	156.883	123.606	77.659	96.859	-66.655	44.159	242.930	51.877	30.076	114.671	207.469	-6.541	130.336	38.155	9.9121e-05	0.00047358	7.8849e-05	316.69	3.2463e-06	5.9621e-06	375.81	69.967	4.8702e-06	1.7241e-06	94.354	24.692	18.553	4.812	3.6767e-06	8.3334	0.00080707	0.00077526	0.00020905	389.64	9.4803e-06	8.7137e-06	419.62	84.206	9.8171e-06	9.0977e-06	123.37	31.075	23.718	6.3581	9.3784e-06	10.903	123.445	23.231	105.166	-70.919	18.043	22.180	-71.599	-65.747	32.520	116.103	-66.999	-61.028	-60.719	-54.705	35.739	-56.375	-8191	255	
2390.727	1	1	0	0	0.10883	0.11902	0.12292	0.050747	0.11359	0.14584	0.22745	0.10082	0.19712	0.32817	0.20235	0.18356	0.1344	0.099881	0.18996	0.32948	-2.6979	-2.9292	-2.7958	-3.1146	-2.8812	-2.8667	-3.0354	-2.8042	-2.9354	-3.15	-2.7521	-3.0542	-2.8812	-2.7354	-3.0417	-2.7854	52.820	-48.330	55.466	-52.622	201.919	1.958	111.178	214.362	217.499	117.948	-54.058	27.185	239.551	127.887	-16.628	183.647	0.0001158	0.00024761	0.00012577	314.68	4.7975e-06	1.5134e-06	373.43	69.564	1.3688e-06	2.0752e-06	92.534	24.9	18.183	4.7074	4.916e-06	8.2386	0.00086241	0.00084092	0.00024273	397.34	9.7256e-06	8.9236e-06	420.98	83.986	9.3978e-06	8.6526e-06	124.15	30.747	23.251	6.234	9.8242e-06	10.742	110.429	-27.904	110.264	-70.819	29.888	70.364	-71.314	-65.392	250.783	43.425	-66.179	-60.795	-60.525	-54.850	141.319	-56.188	-8191	255	
2390.823	1	1	0	0	0.18989	0.21384	0.1661	0.11143	0.055821	0.13055	0.10378	0.1311	0.13472	0.053198	0.14365	0.080798	0.13102	0.17032	0.1488	0.13904	-2.6625	-2.9979	-2.7292	-2.9042	-2.8812	-2.8354	-2.8771	-2.7292	-2.7542	-3.0938	-2.5812	-3.0667	-2.8896	-2.6875	-3.2146	-2.5833	-34.223	176.981	142.933	-2.220	147.460	-50.173	104.506	170.085	136.565	195.699	-60.263	231.142	14.205	52.211	37.023	52.078	7.3265e-05	0.00031533	0.00010357	320.62	7.1301e-06	2.2848e-06	376.38	70.165	2.8042e-06	6.9776e-06	94.735	24.963	18.23	4.8277	1.7977e-06	8.3923	0.00081917	0.00082582	0.00026819	401.29	9.9278e-06	9.5017e-06	427.66	85.162	1.0193e-05	9.829e-06	131	31.518	23.979	6.5858	1.2741e-05	11.305	113.985	-40.485	112.625	-70.590	31.336	205.408	-71.157	-65.236	46.658	187.673	-66.998	-61.326	-60.636	-54.331	-53.862	-55.413	-8191	255	
2390.919	1	1	0	0	0.19075	0.078755	0.22975	0.032624	0.044317	0.15648	0.29623	0.2539	0.11519	0.15939	0.2285	0.104	0.21801	0.12303	0.22838	0.080213	-2.5938	-3.0646	-2.4708	-2.8875	-2.9917	-2.6583	-3.1188	-3.0396	-2.7542	-2.9792	-2.75	-2.9604	-2.9896	-2.9292	-3.1896	-2.8375	138.321	6.661	176.398	23.485	179.723	-36.653	219.523	94.937	137.111	248.101	224.343	243.913	20.903	167.306	155.627	108.604	0.00021437	0.00082683	4.9629e-05	322.83	8.5118e-06	8.8498e-07	384.16	70.937	1.0297e-05	9.1569e-06	97.055	26.04	18.885	5.045	5.6159e-06	8.9062	0.00099919	0.0010917	0.00037244	424.95	1.3108e-05	1.3757e-05	447.56	89.565	1.3976e-05	1.4865e-05	149.04	34.202	26.007	7.4664	1.7816e-05	12.417	47.952	118.878	59.347	-71.216	20.772	269.885	-71.275	-64.575	-11.315	140.160	-66.874	-60.952	-60.766	-54.853	-21.807	-55.600	-8191	255	
2391.038	1	1	0	0	0.33033	0.10598	0.19539	0.073332	0.22513	0.20143	0.11883	0.29558	0.071545	0.20049	0.048035	0.15425	0.071201	0.22439	0.19988	0.11579	-2.5167	-3.0292	-2.8833	-3.1479	-3.3083	-2.7458	-3.2125	-2.9104	-2.8812	-3.4167	-2.5417	-3.025	-3.1229	-2.65	-3.0375	-2.8458	-31.480	223.306	-37.122	-27.915	199.949	237.126	40.254	207.904	-61.472	55.874	259.871	254.190	205.382	253.186	225.491	267.191	0.00016523	0.0008937	0.00017635	328.74	1.7444e-06	1.1364e-06	390.28	71.826	2.305e-06	7.6647e-06	98.162	26.537	19.304	5.1496	3.923e-07	9.1115	0.0012571	0.0014984	0.00046634	444.42	1.5122e-05	1.7005e-05	457.75	91.277	1.5205e-05	1.7406e-05	152.43	34.921	26.711	7.8583	1.8033e-05	12.62	141.836	201.188	272.672	-70.655	-18.175	272.762	-71.174	-64.999	-5.147	161.147	-66.402	-61.020	-60.297	-54.552	201.450	-56.028	-8191	255	
2391.109	1	1	0	0	0.081924	0.082084	0.13579	0.08337	0.21745	0.088277	0.15455	0.17451	0.16555	0.12593	0.18386	0.15663	0.10857	0.2251	0.14462	0.18639	-2.35	-2.9333	-2.6979	-2.9437	-3.2167	-2.6354	-2.9667	-2.8542	-2.7167	-3.2083	-2.5563	-2.8	-3.1562	-2.6833	-2.9021	-3.0792	16.578	-40.236	101.845	82.194	-41.411	145.986	218.854	161.313	188.632	239.062	238.623	269.571	218.218	226.705	-13.348	95.276	8.5398e-05	0.00058248	7.7353e-05	327.39	2.5961e-06	8.0975e-06	382.54	70.984	4.6338e-06	4.4366e-06	95.935	26.146	18.793	5.1312	1.2246e-05	8.9891	0.0013013	0.0016474	0.00044999	439.51	1.5138e-05	1.7952e-05	446.34	89.676	1.4939e-05	1.756e-05	145.91	33.908	26.347	7.8265	1.6414e-05	12.466	152.502	200.487	-28.272	-70.637	134.670	195.666	-71.207	-65.409	215.044	31.480	-67.566	-60.618	-60.317	-54.614	16.668	-56.264	-8191	255	
2391.206	1	1	0	0	0.12176	0.15881	0.17385	0.38049	0.16847	0.1829	0.096236	0.11957	0.20463	0.16846	0.16994	0.24427	0.087251	0.14023	0.23532	0.14885	-2.3542	-3.0938	-2.6396	-2.7667	-3.1208	-2.7375	-3.0438	-2.9896	-2.7	-3.1271	-2.8417	-2.7208	-3.2542	-2.7333	-2.9813	-3.2167	70.508	69.993	9.787	189.578	156.966	5.948	205.727	-12.437	274.738	258.646	248.180	-62.324	-38.230	180.053	221.412	-72.129	0.00022133	0.00061033	0.00026738	325.85	1.5391e-06	4.0513e-06	385.87	71.024	5.9846e-06	4.3e-06	95.581	26.164	18.871	5.1764	3.2566e-06	9.0581	0.0013742	0.0017269	0.00044005	442.07	1.7348e-05	1.9747e-05	451.01	90.695	1.7758e-05	1.9734e-05	148.29	34.547	27.497	7.9747	1.6427e-05	12.462	53.300	84.764	-50.768	-70.437	152.664	171.928	-71.123	-65.192	127.306	-3.796	-66.635	-60.544	-60.279	-54.353	28.319	-56.295	-8191	255	
2391.326	1	1	0	0	0.20127	0.28109	0.14291	0.2137	0.21961	0.08691	0.17483	0.21887	0.14893	0.15908	0.11895	0.10178	0.095017	0.036346	0.22773	0.24548	-2.45	-3.1063	-2.9938	-2.8208	-3.275	-2.7146	-2.8854	-3.0771	-2.7646	-3.1854	-2.8729	-2.6958	-3.0438	-2.6521	-3	-3.0438	201.431	262.757	205.288	6.323	-79.134	148.577	228.351	46.787	-77.634	255.996	-51.823	165.812	-74.565	125.212	156.155	-7.077	0.00020907	0.00028618	0.00010735	322.14	3.7855e-06	1.7304e-06	376.66	70.99	4.1406e-06	1.5212e-06	95.251	26.08	19.042	5.177	4.8216e-07	9.126	0.0014467	0.0016134	0.00039599	428.1	1.6647e-05	1.6652e-05	437.95	87.994	1.6195e-05	1.5699e-05	138.29	33.363	26.482	7.4511	1.352e-05	12.198	122.784	256.429	-29.991	-70.812	99.181	91.646	-71.498	-64.815	242.103	123.605	-67.038	-60.467	-60.258	-54.261	82.586	-56.150	-8191	255	
2391.422	1	1	0	0	0.071532	0.17054	0.021436	0.097179	0.22108	0.22146	0.23849	0.14877	0.10773	0.23132	0.070638	0.048923	0.16721	0.10598	0.16859	0.21731	-2.3375	-3.0167	-2.975	-2.6667	-3.1583	-2.8292	-2.7812	-2.8896	-2.875	-2.9667	-3.0229	-2.6771	-2.9583	-2.8917	-2.75	-3.0604	164.965	184.126	95.148	-37.801	119.954	-11.936	-53.441	15.787	173.319	259.093	64.283	-73.050	257.259	245.686	195.676	-64.321	0.00025575	0.00045296	1.1981e-05	325.15	2.5194e-06	6.2959e-06	380.3	70.033	1.164e-06	1.8955e-06	95.338	26.074	19.008	5.1693	4.459e-06	9.0398	0.0013365	0.00135	0.00034758	425.09	1.6413e-05	1.5143e-05	438.98	88.596	1.6916e-05	1.5432e-05	139.4	34.168	27.203	7.5022	1.4132e-05	12.496	101.682	-17.675	-47.349	-70.555	-79.238	51.641	-71.331	-65.388	182.095	222.190	-66.671	-61.191	-60.068	-54.523	102.410	-56.446	-8191	255	
2391.519	1	1	0	0	0.033896	0.20069	0.031025	0.093042	0.050498	0.2948	0.10822	0.12696	0.094046	0.11057	0.075568	0.13282	0.30555	0.18383	0.28869	0.1722	-2.4896	-2.9854	-3.0687	-2.7979	-3.0167	-2.8125	-2.8771	-2.8812	-2.9208	-2.8833	-3.1312	-2.5687	-3.0979	-3	-2.8625	-3.1083	90.802	-80.117	159.789	-41.662	99.116	24.099	138.514	-79.356	38.499	114.370	203.784	195.553	95.836	82.350	-34.396	181.292	0.00011666	0.0006476	0.00013408	321.57	2.2321e-06	2.193e-06	383.05	71.021	3.2484e-06	4.5822e-06	96.849	26.589	19.242	5.2569	1.0118e-05	9.2326	0.0014502	0.0014225	0.00037396	440.23	1.82e-05	1.6661e-05	444.84	92.213	1.9606e-05	1.7888e-05	147.46	36.329	28.643	8.0005	1.6888e-05	13.549	94.840	65.715	80.057	-70.444	269.774	14.905	-71.243	-65.361	249.756	104.664	-66.645	-60.420	-60.035	-54.852	211.112	-56.376	-8191	255	
2391.639	1	1	0	0	0.24307	0.09014	0.12307	0.21285	0.047992	0.11845	0.14479	0.22632	0.097651	0.19407	0.29509	0.045119	0.23827	0.090639	0.20255	0.41746	-2.4833	-2.8729	-2.8542	-2.7208	-3.2188	-2.8604	-2.6125	-3.0854	-3.0083	-2.9625	-3.1188	-2.8	-2.9625	-2.9354	-2.7854	-3.1917	166.961	254.030	-65.123	117.071	-56.437	255.787	-76.122	218.919	261.537	43.895	36.886	190.100	68.608	-42.517	-67.180	227.765	0.00012399	0.00039313	9.5832e-05	326.97	1.0172e-05	1.312e-06	384.48	71.628	6.1099e-06	7.2252e-06	96.889	27.036	19.308	5.3766	1.4669e-06	9.5208	0.001605	0.0015627	0.00041596	461.53	1.8332e-05	1.6697e-05	449.89	93.581	1.8294e-05	1.6979e-05	149.11	36.887	28.179	7.9742	1.7969e-05	13.909	125.282	131.455	-69.360	-70.671	50.593	57.895	-71.457	-65.080	35.185	44.210	-67.633	-61.201	-60.353	-53.926	243.194	-56.586	-8191	255	
2391.735	1	1	0	0	0.10195	0.27827	0.055048	0.069243	0.34951	0.1248	0.035437	0.1584	0.25277	0.42046	0.35541	0.21676	0.022442	0.14499	0.12426	0.1116	-2.2521	-2.8583	-2.9104	-2.6417	-3.1854	-3.0292	-2.6354	-3.3479	-2.7125	-2.7917	-2.925	-2.7417	-3.1312	-2.9979	-2.8625	-3.2042	63.140	227.209	242.124	22.933	177.569	59.354	26.899	-65.069	-26.853	2.826	169.941	-70.258	-30.012	216.324	134.880	-2.383	0.00010227	0.00025615	8.2922e-05	331.12	1.1763e-06	5.0131e-06	393.31	71.562	8.7016e-06	4.0551e-06	97.57	27.205	19.499	5.4885	5.7333e-06	9.8125	0.0015777	0.0015918	0.00046995	475.62	1.8982e-05	1.7832e-05	462.46	95.851	1.9393e-05	1.8365e-05	159.2	38.037	28.961	8.2919	2.1369e-05	14.495	-64.811	271.759	162.781	-70.341	226.840	35.599	-71.311	-64.973	-21.995	147.665	-66.526	-61.321	-60.250	-53.875	146.363	-55.903	-8191	255	
2391.807	1	1	0	0	0.10988	0.051522	0.17501	0.14453	0.0608	0.22145	0.16038	0.19751	0.10686	0.12089	0.21841	0.16345	0.19486	0.25973	0.24583	0.23712	-2.6417	-2.7396	-3.2042	-2.8417	-2.8167	-3.2542	-2.6813	-3.0792	-3.0667	-2.7646	-3.1854	-2.8667	-2.7708	-3.3771	-2.8854	-3.1646	165.051	-74.167	77.596	-61.583	-7.579	-8.808	256.359	208.828	80.646	41.858	67.980	191.420	78.986	126.775	-16.337	218.491	0.00011707	0.00023247	0.00013458	335.94	1.0508e-05	6.655e-06	390.77	71.687	1.4263e-05	8.8882e-06	97.68	27.629	19.673	5.4867	9.2119e-06	9.5558	0.0016766	0.0017261	0.00055018	481.18	1.9438e-05	1.8512e-05	466.89	95.635	1.8789e-05	1.8541e-05	162.97	37.59	28.538	8.2583	2.1846e-05	14.095	152.004	220.675	42.491	-70.898	35.559	244.482	-71.283	-64.668	-44.747	209.806	-66.594	-60.852	-60.245	-54.264	177.999	-56.203	-8191	255	
2391.926	1	1	0	0	0.13705	0.097292	0.056284	0.058061	0.086755	0.12682	0.067493	0.15743	0.25037	0.35135	0.22773	0.20706	0.11726	0.25281	0.15033	0.11305	-2.65	-2.6521	-2.8792	-3.0812	-2.8042	-3.1312	-2.6833	-2.9542	-3.2313	-2.8042	-3.0167	-3.0708	-2.8208	-2.9271	-2.8396	-3.1521	8.535	-71.494	35.909	113.031	106.928	122.586	98.095	-66.461	-1.439	219.745	102.718	26.862	-35.833	232.060	-74.513	151.105	9.2483e-05	0.0005929	0.0001322	329.05	1.3023e-05	5.7725e-06	387.93	71.87	1.8931e-06	6.6402e-06	97.747	27.235	19.69	5.4121	7.3429e-06	9.5145	0.0016052	0.0017864	0.00058835	476.03	1.9957e-05	2.0793e-05	469.64	96.041	1.9901e-05	2.1498e-05	166.86	37.33	28.716	8.5213	2.2079e-05	13.751	61.100	158.596	136.198	-70.441	-2.889	268.656	-71.279	-65.158	15.402	133.480	-66.685	-61.100	-60.709	-54.441	62.993	-55.820	-8191	255	
2392.022	1	1	0	0	0.13546	0.067597	0.018115	0.17109	0.18615	0.28104	0.22819	0.023288	0.10287	0.35843	0.14828	0.10041	0.19364	0.072388	0.29965	0.25173	-2.7875	-2.8792	-3.1042	-3.1042	-2.6792	-3.1562	-3.0458	-2.7479	-3.2271	-2.9375	-3.1688	-3.2188	-2.9771	-3.2062	-2.9979	-2.9062	203.013	147.695	204.773	268.406	55.646	216.527	173.036	206.506	-11.260	257.290	9.808	121.365	117.392	13.734	108.146	70.610	5.3222e-05	0.000727	7.3004e-05	321.18	5.5153e-06	9.6715e-06	374.69	70.406	1.3098e-06	4.3875e-06	94.412	26.258	18.994	5.3411	3.7439e-06	9.4386	0.0014937	0.0017882	0.00051945	445.39	1.6198e-05	1.8258e-05	441.9	89.433	1.5143e-05	1.7671e-05	147.25	34.547	26.596	8.0394	1.7922e-05	13.035	122.899	137.121	29.707	-70.856	86.475	237.039	-71.510	-64.755	206.593	111.147	-66.963	-60.495	-60.100	-54.374	231.888	-55.274	-8191	255	
2392.118	1	1	0	0	0.22069	0.093088	0.26684	0.31692	0.23521	0.17702	0.098055	0.039108	0.23324	0.40843	0.08527	0.12915	0.055563	0.43531	0.17646	0.079137	-2.7792	-2.9625	-2.9083	-2.9458	-2.6896	-3.1917	-2.8521	-2.8917	-3.3187	-2.7021	-3.0187	-3.025	-2.8021	-3.1042	-2.9583	-2.9396	204.172	251.556	10.974	213.999	75.902	-70.499	46.709	72.295	49.534	258.816	122.192	-22.599	268.154	36.541	-0.949	89.815	0.00024323	0.00045146	0.00040109	326.55	7.0946e-06	4.5375e-06	378.09	70.25	1.1862e-05	1.7312e-06	95.257	26.823	19.22	5.3994	1.2977e-05	9.4883	0.0013605	0.0017821	0.00048104	443.77	1.7346e-05	2.0694e-05	447.79	90.994	1.7897e-05	2.13e-05	152.77	35.661	27.961	8.4945	1.8839e-05	13.318	83.776	140.435	-13.597	-70.682	170.151	194.190	-71.430	-65.230	170.245	71.744	-66.896	-60.648	-60.475	-54.590	10.823	-56.034	-8191	255	
2392.214	1	1	0	0	0.2071	0.36848	0.11897	0.10076	0.11794	0.19036	0.20672	0.12952	0.10289	0.1922	0.1933	0.17232	0.16809	0.29933	0.20433	0.20178	-2.7687	-2.6542	-3.1063	-2.9542	-2.7792	-3.125	-2.6396	-2.7854	-3.1333	-2.7167	-2.9229	-3.0146	-2.5625	-3.0979	-2.8292	-2.8438	189.404	-40.375	-41.172	25.263	250.341	-20.364	221.004	-34.096	-42.170	96.619	53.331	123.714	39.044	-52.704	173.547	-34.343	0.00021563	0.00063187	3.4929e-05	320.21	2.9521e-06	5.661e-06	376.33	70.04	4.8474e-06	1.6867e-06	94.863	26.614	19.021	5.3502	1.7232e-06	9.377	0.0015449	0.0018896	0.00046594	439.15	1.836e-05	2.0138e-05	442.82	89.424	1.8289e-05	1.9775e-05	148	35.08	28.078	8.2136	1.74e-05	13.042	90.258	208.878	-33.158	-70.665	148.104	130.945	-71.269	-65.034	238.726	192.909	-65.976	-60.905	-60.165	-53.998	-44.593	-55.879	-8191	255	
2392.335	1	1	0	0	0.076922	0.17333	0.16695	0.18593	0.17618	0.10315	0.25823	0.16372	0.24503	0.066831	0.03485	0.23945	0.088781	0.15352	0.22194	0.16957	-2.7188	-2.5646	-2.8312	-3.2083	-2.7208	-3.0833	-3.15	-2.5729	-3.2583	-2.7646	-3.0563	-3.2	-2.8021	-2.9813	-3.0896	-2.5979	157.689	167.956	205.021	5.829	144.293	188.715	115.005	130.766	127.901	204.341	250.186	2.513	47.695	109.037	153.042	2.060	0.00022051	0.00054258	0.00010283	316.88	5.5676e-06	1.0203e-05	371.91	68.906	4.8713e-06	1.2258e-06	93.59	25.726	18.832	5.1489	1.6257e-06	8.9943	0.0016176	0.0017463	0.00043287	430.91	1.8794e-05	1.8332e-05	433	87.863	1.8371e-05	1.7699e-05	141.72	33.968	27.58	7.781	1.5674e-05	12.618	37.164	123.954	264.675	-70.512	200.053	14.229	-71.349	-65.219	157.714	154.544	-66.664	-61.347	-60.806	-54.343	81.243	-55.912	-8191	255	
2392.407	1	1	0	0	0.098847	0.15768	0.078975	0.1076	0.26507	0.067505	0.23526	0.14106	0.19433	0.14916	0.12219	0.037848	0.17038	0.15358	0.12933	0.26485	-2.725	-3.0771	-2.7375	-3.0521	-2.8229	-3.025	-2.9062	-2.9042	-3.0938	-2.9146	-2.8438	-2.8958	-2.7687	-3.1562	-3.1667	-2.6125	45.372	233.281	131.410	69.807	29.708	42.307	248.010	-46.919	34.388	84.322	232.977	-33.454	212.277	171.907	265.325	164.186	0.00015949	0.00036371	0.00013857	317.61	4.3358e-06	5.2676e-06	369.66	69.151	2.2442e-06	7.2488e-06	91.528	26.071	19.112	5.2132	1.0001e-06	9.1188	0.0015936	0.0015823	0.00040552	433.3	1.9237e-05	1.7379e-05	432	89.297	1.9458e-05	1.7778e-05	142.97	35.102	28.385	7.9185	1.6706e-05	13.302	124.002	59.779	118.563	-70.538	116.853	28.782	-71.482	-65.423	49.810	36.658	-66.511	-61.440	-60.538	-53.914	109.795	-56.023	-8191	255	
2392.503	1	1	0	0	0.15149	0.064583	0.10682	0.021443	0.23576	0.26504	0.23022	0.18508	0.12487	0.19772	0.055181	0.05956	0.035206	0.20228	0.086575	0.18954	-2.8417	-3.0208	-2.8167	-3.0833	-2.7167	-3.025	-3.2687	-2.6542	-2.9354	-3.0333	-2.8833	-3.1188	-2.8187	-2.8417	-2.9646	-2.7313	-4.963	124.807	52.471	-20.565	74.342	226.546	-24.589	98.101	186.168	33.367	145.459	23.628	-79.331	2.267	240.629	-10.253	0.00017969	0.00053344	4.7443e-05	320.15	8.4248e-06	1.7892e-06	371.52	68.392	7.4199e-06	5.2955e-06	94.016	25.988	18.757	5.308	8.2512e-06	9.1287	0.001711	0.0016524	0.00043467	456.18	2.0167e-05	1.8097e-05	436.72	91.341	1.9507e-05	1.7808e-05	145.11	35.944	28.127	7.8828	1.6695e-05	13.484	46.594	238.361	261.409	-70.790	-1.509	160.095	-71.340	-65.262	273.186	-24.961	-66.928	-60.889	-60.685	-54.694	122.044	-55.953	-8191	255	
2392.599	1	1	0	0	0.24823	0.037998	0.25764	0.028061	0.1272	0.25356	0.16998	0.082675	0.25286	0.021029	0.16417	0.21538	0.16676	0.17335	0.21761	0.14033	-2.4271	-2.9167	-2.7625	-3.1875	-2.8042	-3.0729	-3.1688	-2.6875	-3.0479	-3.05	-2.625	-3.3	-2.8729	-2.5958	-3.2333	-2.8729	101.313	-57.751	127.853	160.694	141.217	247.582	75.363	245.408	-21.863	45.526	260.469	-12.805	-32.857	-72.144	133.505	118.028	7.3557e-05	0.00029011	0.00016584	318.44	7.8073e-06	7.7922e-06	374.05	68.892	6.6243e-06	6.1985e-06	92.598	26.092	18.702	5.1864	4.2937e-06	9.1747	0.0016127	0.0015805	0.00044358	459.11	1.9001e-05	1.7699e-05	439.31	92.422	1.9373e-05	1.8433e-05	151.14	36.875	28.423	8.0489	2.047e-05	14.134	44.143	267.816	160.524	-70.120	38.332	48.548	-71.253	-65.147	7.946	72.281	-67.474	-61.422	-60.005	-53.683	88.590	-56.304	-8191	255	
2392.720	1	1	0	0	0.20031	0.17894	0.19319	0.081603	0.094886	0.1967	0.17214	0.053832	0.15396	0.24161	0.24208	0.10095	0.16068	0.12033	0.14306	0.27461	-2.5333	-3.175	-2.7417	-3.1521	-2.9625	-2.8187	-3.0229	-2.9396	-2.6917	-3.2313	-2.9229	-3.1	-2.8271	-2.8	-3.0917	-2.825	-23.470	81.569	126.951	196.416	210.821	112.054	129.287	224.825	-66.343	105.254	199.140	142.933	270.827	-75.922	-43.732	168.987	6.0207e-05	0.00021527	0.00025701	320.8	8.0686e-06	4.6983e-06	373.68	68.835	3.5434e-06	1.502e-06	90.379	25.864	18.904	5.2941	7.9949e-06	9.4087	0.0017765	0.0017832	0.00055086	480.87	2.1307e-05	2.0095e-05	450.51	94.753	2.1775e-05	2.0956e-05	164.43	37.924	29.509	8.5295	2.5994e-05	14.933	128.794	38.040	95.545	-70.821	70.274	189.737	-71.379	-65.222	-8.248	73.812	-66.449	-60.685	-60.385	-54.481	255.883	-55.719	-8191	255	
2392.814	1	1	0	0	0.23957	0.096787	0.035368	0.39908	0.25582	0.40921	0.11675	0.1039	0.13195	0.1711	0.18866	0.24528	0.11047	0.11752	0.21424	0.048423	-2.5104	-2.9896	-2.6646	-2.7792	-2.8208	-2.8104	-3.1083	-2.85	-2.9688	-3.2021	-2.6958	-3.1146	-3.1083	-2.8458	-2.9479	-2.9292	9.914	-23.438	155.354	55.522	84.050	-82.195	247.039	81.259	102.824	2.664	243.455	65.319	127.440	-25.783	188.552	271.795	6.0045e-05	0.00051378	8.9455e-05	325.2	8.3072e-06	7.3338e-06	381.32	69.074	3.8078e-06	1.0017e-05	95.604	26.664	19.254	5.4468	2.9342e-06	9.7281	0.0021052	0.0021873	0.0007244	511.44	2.5492e-05	2.5057e-05	471.71	99.194	2.5354e-05	2.5393e-05	182.31	39.686	31.224	9.2785	3.0414e-05	15.514	0.516	59.941	102.519	-70.588	-31.499	110.661	-71.411	-65.011	33.755	238.246	-66.747	-60.880	-59.840	-53.803	90.820	-55.750	-8191	255	
2392.910	1	1	0	0	0.28512	0.082783	0.15038	0.06434	0.19099	0.091373	0.27088	0.10825	0.28982	0.11687	0.11861	0.25594	0.13098	0.16474	0.27314	0.056631	-2.7729	-3.0458	-2.7542	-3.1729	-3.0417	-2.8146	-3.1229	-2.6437	-2.5896	-3.1167	-2.7604	-2.8958	-2.9125	-2.9542	-3.0312	-2.9167	188.859	226.274	125.763	85.129	84.657	243.858	162.878	-60.335	59.026	148.361	168.903	271.657	95.571	26.479	101.809	120.404	0.00013882	0.0010412	3.3294e-05	326.65	4.6354e-06	1.8903e-06	380.48	69.555	6.7182e-06	6.8714e-06	96.775	27.343	19.883	5.6769	4.2513e-06	10.331	0.0021999	0.0024595	0.0007953	511.12	2.5842e-05	2.7418e-05	472.94	98.619	2.5401e-05	2.8019e-05	186.76	40.537	32.069	10.137	3.3621e-05	16.666	3.152	146.208	207.439	-70.827	137.520	242.578	-71.523	-64.962	9.056	206.637	-67.269	-60.628	-60.260	-54.179	91.154	-55.603	-8191	255	
2393.008	1	1	0	0	0.098019	0.090351	0.12676	0.057846	0.10013	0.34422	0.12078	0.18441	0.15627	0.072854	0.18587	0.3348	0.14109	0.15051	0.19992	0.24235	-2.3729	-3.1354	-2.8104	-2.9479	-3.1437	-2.6188	-3.2167	-2.9813	-2.7313	-3.0083	-2.8667	-2.8875	-3.1833	-2.7625	-3.2042	-3.0771	125.516	207.070	226.350	79.432	175.484	118.771	223.924	-15.021	86.083	72.585	244.610	117.610	12.810	66.058	45.107	-45.277	2.1106e-05	0.0012063	0.0001068	331.89	1.8526e-06	5.7277e-06	387.19	71.556	1.5734e-06	8.894e-06	98.582	28.407	20.243	5.8314	6.9557e-06	10.55	0.0025063	0.003111	0.00090074	541.1	2.9617e-05	3.4249e-05	488.67	103.07	2.8196e-05	3.2675e-05	189.54	41.446	32.532	10.38	2.9508e-05	16.161	116.965	149.768	53.430	-70.386	32.890	184.718	-71.440	-65.214	178.850	193.494	-66.555	-60.906	-59.958	-54.101	41.734	-55.843	-8191	255	
2393.102	1	1	0	0	0.17768	0.056235	0.1416	0.070748	0.041748	0.029685	0.14385	0.12952	0.29304	0.09081	0.10485	0.21052	0.21927	0.1894	0.13235	0.3298	-2.2542	-3.1437	-2.875	-2.7417	-3.0729	-2.9229	-3.1188	-3.1479	-2.725	-2.9562	-2.8521	-2.6125	-3.1125	-2.9	-2.9854	-3.0042	264.358	5.720	-55.920	26.325	89.876	174.701	248.070	-58.744	195.184	232.031	217.685	98.280	-37.587	132.357	110.638	168.199	0.0001301	0.0014093	4.0873e-05	326.67	8.9499e-06	1.545e-05	381.89	70.861	4.0899e-06	2.3699e-06	97.439	27.859	19.777	5.7984	5.1451e-06	10.383	0.0022467	0.0028059	0.00072274	500.39	2.5523e-05	2.9641e-05	468.21	97.279	2.4861e-05	2.8494e-05	172.26	39.274	31.579	9.8897	2.5524e-05	15.404	116.105	190.227	257.589	-70.396	224.400	56.746	-70.957	-65.016	178.855	273.894	-67.089	-60.304	-59.767	-53.785	-45.207	-56.046	-8191	255	
2393.199	1	1	0	0	0.093599	0.25793	0.11829	0.072641	0.17269	0.20737	0.08115	0.093225	0.2051	0.15341	0.055054	0.16895	0.29055	0.068059	0.20371	0.22988	-2.3479	-3.1688	-2.8333	-2.7854	-2.9479	-2.7917	-2.9979	-3.1271	-2.875	-3.125	-2.95	-2.8	-3.1854	-2.7812	-2.8187	-2.9229	179.763	217.852	208.643	250.425	268.632	255.352	244.368	244.804	134.332	219.270	63.775	19.257	165.780	272.018	23.361	67.184	0.00033899	0.00068813	0.00011203	324.05	7.3053e-06	1.1082e-05	377.63	70.853	4.3627e-06	7.3139e-06	95.936	27.694	19.629	5.7491	3.9591e-06	10.095	0.0022475	0.0026607	0.0006647	489.91	2.6872e-05	2.8571e-05	460.29	96.157	2.588e-05	2.6517e-05	165.4	38.228	31.344	9.3343	2.1904e-05	14.622	89.393	13.228	-35.293	-70.496	139.310	39.946	-71.203	-64.858	185.101	59.577	-67.014	-60.513	-60.175	-55.258	-5.301	-55.468	-8191	255	
2393.319	1	1	0	0	0.18515	0.1949	0.032591	0.26319	0.23061	0.16152	0.20276	0.14546	0.12417	0.084756	0.13543	0.071391	0.18424	0.30546	0.21843	0.2585	-2.2833	-2.8854	-3.0896	-2.7854	-2.8833	-2.8271	-2.9583	-3.0021	-2.6292	-2.8146	-2.9271	-2.9708	-3.0792	-2.7646	-2.8187	-3.0167	26.895	195.222	-15.127	-46.285	-78.203	258.941	-53.559	187.981	203.647	-2.337	59.624	1.174	42.261	157.719	2.714	197.915	0.00028433	0.00090939	0.00013335	324.29	6.9186e-06	8.1614e-06	375.46	70.861	1.0101e-05	3.317e-06	96.178	27.833	19.936	5.7725	5.2665e-06	10.125	0.0020418	0.0021489	0.00054059	466.08	2.4193e-05	2.3076e-05	448.87	94.32	2.3844e-05	2.2204e-05	156.31	37.824	30.831	8.8717	1.9194e-05	14.477	51.620	-10.846	-41.530	-70.840	211.362	19.128	-71.231	-65.220	142.131	23.415	-66.421	-60.277	-60.128	-54.250	44.949	-55.044	-8191	255	
2393.415	1	1	0	0	0.28551	0.27182	0.13666	0.098042	0.087766	0.042061	0.062716	0.13659	0.16254	0.27076	0.15602	0.2885	0.3015	0.14821	0.2241	0.19211	-2.3333	-2.7958	-2.7625	-2.9021	-3.0646	-2.6792	-2.6688	-3.2021	-2.7854	-2.7583	-2.925	-2.6958	-3.1292	-2.8312	-2.8958	-3.2938	32.580	240.801	36.269	-37.068	137.183	209.833	212.132	169.670	-2.575	176.539	263.249	157.227	-74.008	271.150	25.724	172.506	0.00013278	0.00020589	0.00017065	316.93	2.3606e-06	1.1132e-05	374.89	71.302	9.7237e-06	7.2959e-06	97.853	28.142	20.17	5.834	2.5741e-06	10.364	0.0019208	0.0018682	0.00047842	461.77	2.234e-05	2.0272e-05	444.68	94.626	2.2501e-05	2.0684e-05	154.75	38.596	30.99	8.9618	1.9735e-05	15.233	102.741	273.645	-19.584	-70.361	70.189	68.900	-71.400	-64.722	-44.721	-23.962	-66.613	-60.789	-59.947	-53.973	78.919	-56.127	-8191	255	
2393.511	1	1	0	0	0.20363	0.14891	0.34226	0.052011	0.19268	0.054446	0.22656	0.024481	0.082914	0.10847	0.055182	0.17268	0.12578	0.36629	0.1168	0.158	-2.2042	-2.8542	-2.7333	-2.6312	-2.9813	-2.9292	-2.8271	-2.7917	-2.7938	-2.9188	-3.0979	-2.75	-2.8187	-2.9146	-2.7625	-3.3042	189.530	54.561	26.860	-52.639	-21.883	225.280	204.540	-41.618	-28.507	134.072	212.900	253.925	-35.337	197.896	233.396	137.193	4.146e-05	0.001215	9.0199e-05	323.51	4.995e-06	1.59e-06	379.12	70.692	4.4386e-06	4.1717e-06	94.753	27.389	19.836	5.7144	1.1054e-05	9.9617	0.0020336	0.0019821	0.00052127	487.97	2.353e-05	2.0928e-05	448.37	96.261	2.1624e-05	1.9526e-05	150.91	38.003	29.232	8.3773	1.7057e-05	14.339	63.356	0.882	110.485	-69.697	67.657	125.539	-71.479	-64.853	25.974	185.683	-65.971	-60.441	-60.141	-54.227	270.782	-55.875	-8191	255	
2393.608	1	1	0	0	0.3305	0.18806	0.13548	0.17302	0.062572	0.12343	0.25779	0.19023	0.071809	0.26166	0.060906	0.20137	0.16804	0.28286	0.23584	0.080708	-2.2125	-2.6292	-3.0604	-2.7708	-2.8375	-2.8146	-2.8479	-2.9813	-2.6104	-2.9021	-3.0687	-2.5792	-2.8917	-3.0896	-2.6854	-2.8854	248.606	139.436	141.692	97.402	-72.647	129.032	89.626	147.727	255.910	49.924	-28.574	189.066	-27.067	-13.015	239.215	-28.445	0.00014639	5.0947e-05	9.6805e-05	316.91	5.1249e-06	7.3812e-06	368.36	69.416	3.6886e-06	1.2798e-06	93.381	27.082	19.861	5.6146	7.6632e-06	9.9794	0.0015382	0.001515	0.00041245	449.64	1.7044e-05	1.534e-05	428.88	90.132	1.5296e-05	1.3971e-05	138.67	35.491	26.783	7.6784	1.3776e-05	13.29	123.516	126.705	174.004	-70.968	73.864	65.936	-71.383	-65.110	-13.590	33.304	-65.259	-61.107	-60.614	-54.315	212.531	-55.477	-8191	255	
2393.704	1	1	0	0	0.10693	0.124	0.1736	0.26096	0.17889	0.15546	0.13893	0.20098	0.10832	0.21687	0.13997	0.27742	0.075322	0.090575	0.13699	0.18364	-2.4354	-2.7083	-3.1125	-2.7521	-2.9604	-3.1937	-2.7438	-2.9083	-2.9188	-3.0292	-3.0479	-2.6	-3.0542	-3.1542	-2.5458	-3.0854	159.792	-21.955	-75.096	-76.954	227.788	205.456	1.111	232.806	26.564	29.422	226.378	-69.075	-69.619	163.840	-17.789	-33.661	3.5838e-05	0.00025298	0.0001959	316.93	2.1244e-06	3.2588e-06	367.08	69.991	8.8071e-06	3.6507e-06	92.382	27.056	19.539	5.5984	5.6198e-06	10.025	0.00109	0.0010916	0.00033866	418.78	1.2213e-05	1.1288e-05	422.45	86.318	1.1656e-05	1.1214e-05	134.48	34.379	25.898	7.5584	1.433e-05	13.262	264.911	-26.942	211.646	-70.344	65.894	113.528	-71.293	-64.673	4.624	80.499	-66.208	-61.210	-60.103	-54.363	224.832	-55.851	-8191	255	
2393.800	1	1	0	0	0.11675	0.063794	0.059126	0.25579	0.16471	0.28043	0.093125	0.039178	0.079467	0.071117	0.14729	0.17659	0.31595	0.17764	0.42003	0.20232	-2.5104	-2.8375	-3.1437	-2.8021	-2.9583	-2.9813	-2.6042	-3.0792	-3.025	-2.6917	-3.0187	-2.7667	-2.9646	-3.1875	-2.6521	-2.9562	108.919	-56.079	91.990	-44.552	84.882	30.848	58.874	-66.844	59.124	41.289	-43.695	141.272	-47.478	-17.887	19.487	-80.195	2.8284e-05	0.0003871	0.00019737	322.01	2.2139e-06	1.4114e-06	371.51	70.207	5.9321e-06	6.0431e-06	96.023	27.547	19.935	5.6854	3.9306e-06	10.241	0.0011155	0.001206	0.00041146	431.49	1.4534e-05	1.45e-05	436.23	89.279	1.459e-05	1.5357e-05	150.39	36.25	27.533	8.224	1.84e-05	13.981	65.800	226.124	125.623	-70.632	45.946	26.252	-71.148	-64.992	67.842	218.012	-66.405	-61.080	-60.115	-53.876	145.447	-56.007	-8191	255	
2393.896	1	1	0	0	0.083764	0.098728	0.24063	0.27217	0.16711	0.050389	0.17485	0.12468	0.047141	0.099445	0.16242	0.06438	0.17131	0.14157	0.12409	0.25124	-2.7125	-2.6771	-2.9854	-2.9	-2.7333	-3.1479	-3.0042	-3.1063	-2.9146	-2.5521	-3.2	-2.9708	-2.6813	-2.9458	-2.8667	-2.9479	84.552	-77.838	-82.150	216.903	236.885	-39.924	22.260	23.008	246.204	58.773	167.025	129.389	-77.405	197.207	156.309	-47.904	9.5383e-05	0.00098836	9.7776e-05	321.51	3.6077e-06	8.8014e-06	374.67	70.647	4.8641e-06	9.8634e-06	96.531	27.843	20.098	5.7475	5.8647e-06	10.246	0.0012922	0.001505	0.00047783	437.93	1.528e-05	1.684e-05	442.92	90.28	1.5096e-05	1.7465e-05	151.49	36.385	27.589	8.4142	1.7912e-05	13.897	177.711	52.015	241.563	-70.280	74.356	196.727	-71.286	-65.144	15.330	179.700	-67.037	-60.288	-60.233	-54.523	-3.669	-55.779	-8191	255	
2393.991	1	1	0	0	0.13187	0.18093	0.28605	0.31158	0.32942	0.1375	0.050105	0.09012	0.022468	0.32864	0.20249	0.22691	0.17109	0.09262	0.14132	0.18472	-2.3875	-2.6771	-3.0292	-2.9271	-2.6583	-3.0583	-3.0375	-2.7292	-3.2104	-2.7125	-3.1125	-2.775	-2.75	-3.2792	-2.725	-2.8146	127.791	66.046	47.007	259.015	-12.050	-13.382	158.063	-44.314	-46.428	-40.874	29.415	261.405	114.978	87.817	163.879	195.063	0.0001619	0.00043024	0.00020866	323.34	3.4362e-06	3.277e-06	374.52	70.504	2.4705e-06	2.7771e-06	95.97	27.672	19.91	5.7226	3.7069e-06	10.123	0.0012799	0.0016266	0.00045098	433.39	1.4913e-05	1.7318e-05	437.86	88.426	1.4309e-05	1.7127e-05	143.46	35.211	27.152	8.2971	1.4944e-05	13.326	100.335	189.619	-1.431	-70.042	184.253	265.089	-71.202	-65.003	134.350	215.905	-66.656	-60.979	-60.166	-54.512	73.854	-56.203	-8191	255	
2394.111	1	1	0	0	0.10966	0.072302	0.13183	0.19115	0.28101	0.21087	0.20194	0.10016	0.28462	0.16773	0.11359	0.094396	0.2033	0.1056	0.27438	0.14299	-2.7083	-2.6229	-3.1229	-2.9896	-2.6437	-3.0583	-2.9229	-2.7042	-3.0729	-2.8063	-2.9208	-3.0604	-2.7146	-3.075	-3.0792	-2.7458	-22.650	103.583	-74.841	174.475	134.745	-13.579	229.801	83.910	-22.355	153.337	116.306	57.758	147.819	227.971	131.862	241.654	0.00024069	0.00041414	8.2801e-05	319.88	5.1872e-06	5.5161e-06	372.25	70.162	8.045e-06	7.6083e-06	95.833	27.782	20.229	5.8573	4.8168e-06	10.48	0.0011576	0.0014723	0.00036364	415.11	1.3566e-05	1.5611e-05	430.89	86.9	1.3886e-05	1.5941e-05	139.23	35.123	27.576	8.294	1.3779e-05	13.487	103.466	-69.729	-18.240	-70.404	231.098	19.233	-71.340	-64.501	180.578	57.397	-66.373	-60.802	-59.927	-54.141	76.091	-55.109	-8191	255	
2394.207	1	1	0	0	0.10971	0.18405	0.095905	0.089016	0.074544	0.16422	0.18441	0.053467	0.088374	0.24426	0.037712	0.068408	0.20583	0.13712	0.1164	0.13941	-2.8458	-2.8021	-2.8479	-3.0229	-3.0375	-3.0125	-2.9896	-2.5438	-3.1479	-2.7521	-2.8542	-3.1896	-2.95	-2.9437	-3.0125	-2.7979	206.749	-25.925	117.555	194.042	241.923	-14.309	149.728	-73.912	91.151	135.216	-65.077	229.883	184.753	204.313	197.686	7.945	0.00023158	9.2095e-05	0.00030791	319.98	3.8824e-06	2.3177e-06	377.08	71.346	5.6062e-06	5.4527e-06	96.431	28.074	20.336	5.9121	6.0663e-06	10.581	0.0012323	0.0014009	0.00034506	416	1.4575e-05	1.4898e-05	431.92	87.632	1.4623e-05	1.4983e-05	138.29	35.454	28.125	8.2935	1.3616e-05	13.759	46.427	-26.297	20.587	-70.575	75.218	9.733	-71.228	-64.664	230.501	43.767	-66.238	-60.738	-60.197	-54.110	44.436	-55.679	-8191	255	
2394.281	1	1	0	0	0.12896	0.12368	0.27833	0.2928	0.20627	0.1385	0.17762	0.20777	0.064112	0.15693	0.091288	0.13225	0.081912	0.098243	0.18236	0.18285	-2.6813	-2.7271	-2.8229	-3.3125	-2.7833	-2.9042	-3.1896	-2.6958	-3.0729	-2.7958	-2.7375	-3.1437	-2.8104	-2.9146	-2.9583	-2.7958	-14.613	266.653	186.887	-61.026	86.985	53.911	-56.163	-52.967	115.473	80.949	154.351	223.903	-16.629	269.126	111.020	235.925	0.00011659	0.00036312	1.4235e-05	325.26	5.928e-06	6.2211e-06	378.92	71.547	3.5042e-06	4.0241e-06	98.352	28.614	20.279	5.8532	2.5524e-06	10.282	0.0013714	0.0014162	0.00036035	427.86	1.6881e-05	1.5603e-05	437.41	89.009	1.6203e-05	1.4663e-05	138.7	35.911	27.917	8.0443	1.2066e-05	13.417	119.277	91.673	215.720	-70.523	-48.353	62.210	-71.410	-65.007	216.025	-30.563	-66.583	-60.815	-59.934	-54.197	98.515	-56.094	-8191	255	
2394.400	1	1	0	0	0.12814	0.23368	0.044749	0.19715	0.14545	0.18945	0.19515	0.16587	0.22109	0.12168	0.043057	0.14156	0.16408	0.25877	0.069414	0.11491	-2.5896	-2.8	-2.7354	-3.1271	-2.6562	-3.1354	-3.1521	-2.5208	-3.1042	-2.9146	-2.4562	-3.1063	-2.8583	-2.9917	-2.9521	-2.8438	159.939	-49.651	42.249	114.476	247.390	81.319	203.851	44.649	-64.748	-15.805	39.471	-18.445	-16.646	136.966	43.945	74.266	1.5529e-05	0.00043221	0.0001247	319.51	3.3888e-06	4.3062e-06	370.3	70.464	7.0207e-06	4.4582e-06	95.025	27.662	19.944	5.6275	4.9368e-06	10.099	0.0012084	0.0011392	0.00029162	411.9	1.3505e-05	1.1976e-05	420.93	86.319	1.3197e-05	1.1819e-05	129.93	34.543	26.667	7.604	1.0793e-05	13.145	40.896	14.296	-69.444	-70.639	-60.451	31.047	-71.036	-65.281	214.899	63.559	-67.170	-60.606	-60.333	-54.041	-71.513	-55.524	-8191	255	
2394.496	1	1	0	0	0.209	0.1836	0.19891	0.10894	0.20591	0.026757	0.20193	0.18153	0.40037	0.11	0.12396	0.1638	0.22992	0.27045	0.060112	0.16887	-2.5542	-3	-2.8458	-3.3542	-2.8812	-3.0521	-3.2667	-2.6813	-3.1437	-3.0896	-2.6229	-3.3646	-2.8521	-2.925	-3.2917	-2.7271	25.060	90.239	-0.480	155.759	85.833	141.568	187.673	-36.837	-78.704	228.648	-10.484	3.094	-1.127	102.033	149.535	13.270	3.3349e-05	0.00027294	0.0002189	316.5	4.9959e-06	3.5183e-06	370.33	69.586	2.0581e-06	4.3562e-06	94.596	27.611	19.797	5.7039	5.4529e-06	10.117	0.0010744	0.0010459	0.0002732	409.98	1.2161e-05	1.0999e-05	419.39	85.964	1.1831e-05	1.0992e-05	129.85	34.779	26.36	7.6264	1.1641e-05	13.424	-81.732	11.608	78.090	-70.760	-3.701	-21.359	-71.012	-64.860	35.075	125.674	-67.123	-60.852	-59.747	-54.203	176.575	-56.072	-8191	255	
#DATA ENDS
