BOXY.EXE: ISS Imagent and Oximeter Data Acquisition Program Version 0.80
Ascii Record File

#ACQ INFORMATION
2  Detector Channels 
16  External MUX Channels 
1  Auxiliary Channels 
5000  Waveform (CCF) Frequency (Hz)
1  Waveforms Skipped 
30  Waveforms Averaged 
1  Cycles Averaged 
16  Acquisitions per Waveform 
10.0806  Updata Rate (Hz) 

#FILE INFORMATION
TRUE -- External MUX Channel results are PARSED.
FALSE -- AC DC and Phase are NOT grouped.
TRUE -- Companion Program Settings File CREATED.
FALSE -- AC data not excluded
FALSE -- DC data not excluded
FALSE -- Phase data not excluded
FALSE -- Auxillary Chn. data not excluded
Tab delimiters

#CALIBRATION STATE
TRUE -- Waveform Calibration Values APPLIED.


#AUX CALIBRATION VALUES
Val Type	aux-1	

Term	1.0000e+00	
Factor	0.0000e+00	


#WF CALIBRATION VALUES
A = Detector Channel
Val Type	A-AC1	A-AC2	A-AC3	A-AC4	A-AC5	A-AC6	A-AC7	A-AC8	A-AC9	A-AC10	A-AC11	A-AC12	A-AC13	A-AC14	A-AC15	A-AC16	A-DC1	A-DC2	A-DC3	A-DC4	A-DC5	A-DC6	A-DC7	A-DC8	A-DC9	A-DC10	A-DC11	A-DC12	A-DC13	A-DC14	A-DC15	A-DC16	A-Ph1	A-Ph2	A-Ph3	A-Ph4	A-Ph5	A-Ph6	A-Ph7	A-Ph8	A-Ph9	A-Ph10	A-Ph11	A-Ph12	A-Ph13	A-Ph14	A-Ph15	A-Ph16	

Term	0.00000e+00	0.00000e+00	0.00000e+00	0.00000e+00	0.00000e+00	0.00000e+00	0.00000e+00	0.00000e+00	0.00000e+00	0.00000e+00	0.00000e+00	0.00000e+00	0.00000e+00	0.00000e+00	0.00000e+00	0.00000e+00	0.00000e+00	0.00000e+00	0.00000e+00	0.00000e+00	0.00000e+00	0.00000e+00	0.00000e+00	0.00000e+00	0.00000e+00	0.00000e+00	0.00000e+00	0.00000e+00	0.00000e+00	0.00000e+00	0.00000e+00	0.00000e+00	0.00000e+00	0.00000e+00	0.00000e+00	0.00000e+00	0.00000e+00	0.00000e+00	0.00000e+00	0.00000e+00	0.00000e+00	0.00000e+00	0.00000e+00	0.00000e+00	0.00000e+00	0.00000e+00	0.00000e+00	0.00000e+00	
Factor	1.00000e+00	1.00000e+00	1.00000e+00	1.00000e+00	1.00000e+00	1.00000e+00	1.00000e+00	1.00000e+00	1.00000e+00	1.00000e+00	1.00000e+00	1.00000e+00	1.00000e+00	1.00000e+00	1.00000e+00	1.00000e+00	1.00000e+00	1.00000e+00	1.00000e+00	1.00000e+00	1.00000e+00	1.00000e+00	1.00000e+00	1.00000e+00	1.00000e+00	1.00000e+00	1.00000e+00	1.00000e+00	1.00000e+00	1.00000e+00	1.00000e+00	1.00000e+00	X	X	X	X	X	X	X	X	X	X	X	X	X	X	X	X	

B = Detector Channel
Val Type	B-AC1	B-AC2	B-AC3	B-AC4	B-AC5	B-AC6	B-AC7	B-AC8	B-AC9	B-AC10	B-AC11	B-AC12	B-AC13	B-AC14	B-AC15	B-AC16	B-DC1	B-DC2	B-DC3	B-DC4	B-DC5	B-DC6	B-DC7	B-DC8	B-DC9	B-DC10	B-DC11	B-DC12	B-DC13	B-DC14	B-DC15	B-DC16	B-Ph1	B-Ph2	B-Ph3	B-Ph4	B-Ph5	B-Ph6	B-Ph7	B-Ph8	B-Ph9	B-Ph10	B-Ph11	B-Ph12	B-Ph13	B-Ph14	B-Ph15	B-Ph16	

Term	0.00000e+00	0.00000e+00	0.00000e+00	0.00000e+00	0.00000e+00	0.00000e+00	0.00000e+00	0.00000e+00	0.00000e+00	0.00000e+00	0.00000e+00	0.00000e+00	0.00000e+00	0.00000e+00	0.00000e+00	0.00000e+00	0.00000e+00	0.00000e+00	0.00000e+00	0.00000e+00	0.00000e+00	0.00000e+00	0.00000e+00	0.00000e+00	0.00000e+00	0.00000e+00	0.00000e+00	0.00000e+00	0.00000e+00	0.00000e+00	0.00000e+00	0.00000e+00	-1.95322e+02	-1.31664e+02	-1.35514e+02	-1.83507e+02	-9.14092e+01	-5.93382e+01	-1.57852e+02	-1.62015e+02	-9.36674e+01	-6.54123e+01	-1.76234e+02	-1.71211e+02	-1.81698e+02	-1.78091e+02	-8.68548e+01	-1.51000e+02	
Factor	4.07472e-05	1.94038e-04	5.01386e-05	4.44362e-01	1.74494e-06	1.67566e-06	1.66286e-01	6.31906e-02	2.08765e-06	1.66474e-06	2.13853e-01	2.89034e-02	2.88634e-02	9.13376e-03	1.93495e-06	1.32076e-02	3.19055e-06	3.47120e-06	9.67125e-07	2.29784e-01	3.78690e-08	3.80063e-08	8.23849e-02	3.32550e-02	3.75348e-08	3.80335e-08	1.05779e-01	1.48008e-02	1.52162e-02	4.84302e-03	3.76195e-08	6.77457e-03	X	X	X	X	X	X	X	X	X	X	X	X	X	X	X	X	



#DISTANCE SETTINGS
A = Detector Channel
A-1	A-2	A-3	A-4	A-5	A-6	A-7	A-8	A-9	A-10	A-11	A-12	A-13	A-14	A-15	A-16	

2.5000e+00	3.0000e+00	2.5000e+00	3.0000e+00	2.0000e+00	3.0000e+00	1.5000e+00	3.0000e+00	3.0000e+00	3.0000e+00	3.0000e+00	3.0000e+00	3.0000e+00	3.0000e+00	1.5000e+00	3.0000e+00	

B = Detector Channel
B-1	B-2	B-3	B-4	B-5	B-6	B-7	B-8	B-9	B-10	B-11	B-12	B-13	B-14	B-15	B-16	

1.0000e+01	1.0000e+01	1.0000e+01	1.4400e+00	1.0000e+01	1.0000e+01	1.5100e+00	1.9400e+00	1.0000e+01	1.0000e+01	1.9900e+00	2.4900e+00	2.4100e+00	2.9000e+00	1.0000e+01	2.9800e+00	




#DATA BEGINS
time	group	step	mark	flag	A-AC1	A-AC2	A-AC3	A-AC4	A-AC5	A-AC6	A-AC7	A-AC8	A-AC9	A-AC10	A-AC11	A-AC12	A-AC13	A-AC14	A-AC15	A-AC16	A-DC1	A-DC2	A-DC3	A-DC4	A-DC5	A-DC6	A-DC7	A-DC8	A-DC9	A-DC10	A-DC11	A-DC12	A-DC13	A-DC14	A-DC15	A-DC16	A-Ph1	A-Ph2	A-Ph3	A-Ph4	A-Ph5	A-Ph6	A-Ph7	A-Ph8	A-Ph9	A-Ph10	A-Ph11	A-Ph12	A-Ph13	A-Ph14	A-Ph15	A-Ph16	B-AC1	B-AC2	B-AC3	B-AC4	B-AC5	B-AC6	B-AC7	B-AC8	B-AC9	B-AC10	B-AC11	B-AC12	B-AC13	B-AC14	B-AC15	B-AC16	B-DC1	B-DC2	B-DC3	B-DC4	B-DC5	B-DC6	B-DC7	B-DC8	B-DC9	B-DC10	B-DC11	B-DC12	B-DC13	B-DC14	B-DC15	B-DC16	B-Ph1	B-Ph2	B-Ph3	B-Ph4	B-Ph5	B-Ph6	B-Ph7	B-Ph8	B-Ph9	B-Ph10	B-Ph11	B-Ph12	B-Ph13	B-Ph14	B-Ph15	B-Ph16	aux-1	digaux	

3332.555	1	1	0	256	0.065415	0.14692	0.044179	0.13889	0.14147	0.22577	0.23432	0.02244	0.20229	0.3591	0.15167	0.11719	0.12922	0.28918	0.19026	0.18665	-2.3958	-2.4688	-2.7271	-2.6479	-2.5771	-2.9417	-2.625	-2.6271	-2.8187	-2.5042	-3.1188	-2.6708	-2.7583	-2.9125	-2.4125	-2.7708	250.542	-25.013	152.734	-29.252	268.917	297.140	316.420	156.030	-21.703	-20.901	272.266	154.829	49.520	-14.687	219.112	-26.947	0.00027443	0.0024919	0.00026832	401.39	1.1415e-05	8.907e-06	488.89	133.01	1.0444e-05	1.8875e-05	193.88	71.594	50.879	19.019	2.7569e-05	32.553	0.010325	0.011417	0.0034012	1201.9	0.00012233	0.00012559	813.4	252.49	0.00011394	0.0001177	532.91	120.7	96.894	34.419	0.00010855	53.823	-28.770	139.594	179.407	-22.549	-5.347	180.874	-22.045	-15.541	21.013	244.743	-18.055	-13.341	-11.864	-6.707	85.029	-8.885	-8191	255	
3332.653	1	1	0	0	0.14164	0.051677	0.083753	0.2375	0.14899	0.14831	0.14494	0.14273	0.088368	0.055274	0.18127	0.21831	0.12284	0.33703	0.080145	0.10816	-2.5354	-2.6646	-2.8583	-2.8146	-2.5792	-2.8958	-2.7646	-2.6979	-2.8875	-2.3667	-2.7938	-2.7833	-2.725	-2.7292	-2.6688	-2.8083	269.461	36.766	203.122	261.020	-30.763	52.996	47.259	234.255	-12.857	105.477	301.978	-16.117	271.158	282.738	234.752	203.509	0.00011581	0.00070848	0.00050844	396.9	8.7776e-06	2.0548e-05	477.01	131.17	5.6086e-06	1.8259e-06	186.98	70.082	50.212	18.807	3.5649e-06	32.107	0.0083535	0.009746	0.0027842	1048.3	9.9733e-05	0.00010604	742.3	228.25	9.2298e-05	9.9022e-05	466.8	111.37	90.12	32.688	9.3251e-05	50.737	114.483	154.372	9.842	-22.462	-30.538	204.981	-22.163	-15.187	7.059	243.422	-17.772	-13.003	-11.751	-6.952	102.101	-8.407	-8191	255	
3332.772	1	1	0	0	0.11018	0.11121	0.08012	0.089182	0.25591	0.11155	0.21745	0.17257	0.1907	0.087447	0.21828	0.19538	0.26314	0.04801	0.1275	0.11238	-2.5062	-2.5812	-2.7979	-2.9	-2.6479	-2.9104	-2.6146	-2.6333	-2.7104	-2.7167	-2.9188	-2.8729	-2.4521	-2.9667	-2.8708	-2.6312	275.779	202.732	202.236	69.032	-24.699	181.812	270.213	75.080	119.457	63.652	137.157	101.324	227.466	67.012	142.079	208.471	0.00060554	0.0013258	5.6524e-05	392.02	1.767e-05	2.1003e-05	477.33	130.98	1.7463e-05	7.6351e-06	190.53	71.353	50.224	19.052	1.3964e-05	32.71	0.0073785	0.0088265	0.0024478	991	9.7851e-05	0.0001085	742.57	229.84	0.00010006	0.00010955	494.21	117.17	98.376	35.679	0.00011319	55.418	63.264	131.406	155.495	-21.934	228.460	113.949	-22.363	-15.090	213.947	-6.962	-17.977	-12.841	-11.579	-6.704	36.345	-8.611	-8191	255	
3332.868	1	1	0	0	0.30659	0.14836	0.12388	0.20299	0.15026	0.24533	0.12117	0.050892	0.1352	0.14822	0.11196	0.070547	0.14332	0.24233	0.11994	0.19809	-2.4562	-2.6312	-2.8917	-2.8646	-2.3708	-3.0271	-2.8667	-2.6167	-2.8896	-2.6833	-2.8333	-2.9667	-2.7208	-2.8146	-2.875	-2.5833	28.284	131.266	219.660	58.583	-11.328	179.211	234.115	34.534	159.955	45.845	33.161	255.071	309.354	91.182	180.895	126.858	0.00030024	0.002141	0.00018901	393.52	2.5428e-05	1.1073e-05	487.03	131.58	1.4815e-05	1.5923e-05	190.93	72.111	51.12	19.186	2.4063e-05	33.102	0.0099201	0.011479	0.0031006	1132.7	0.00012481	0.0001305	797.97	251.88	0.00013474	0.00014487	600.55	133	118.08	41.28	0.00015081	62.3	72.192	22.246	150.206	-21.982	205.749	177.719	-22.173	-15.140	106.459	39.548	-17.078	-13.095	-11.622	-6.989	55.721	-8.928	-8191	255	
3332.964	1	1	0	0	0.23773	0.0237	0.15971	0.018499	0.090646	0.22226	0.16561	0.077771	0.16473	0.37389	0.1694	0.20972	0.29142	0.33546	0.012469	0.17023	-2.6542	-2.5187	-2.7542	-2.9562	-2.4375	-2.7729	-2.8792	-2.7333	-3.0458	-2.7292	-2.6042	-2.9	-2.3875	-2.9417	-3.0771	-2.4979	291.552	125.545	91.472	86.929	233.650	33.643	4.198	287.634	323.481	18.699	40.902	314.946	286.290	-6.692	293.491	43.603	0.00077487	0.0019887	0.00017515	404.1	5.1328e-06	1.9499e-05	496.4	133	1.2623e-05	2.6887e-05	193.73	71.761	51.139	19.112	1.0901e-05	32.59	0.013417	0.014605	0.0039028	1334.5	0.00016326	0.00016226	870.29	278.53	0.00016265	0.00016058	631.69	137.3	121.39	40.812	0.00014792	62.421	71.567	231.381	149.778	-21.236	197.074	122.490	-22.266	-15.179	-24.556	53.955	-18.475	-12.706	-11.852	-6.715	21.576	-8.644	-8191	255	
3333.085	1	1	0	0	0.20761	0.11859	0.11571	0.30331	0.18384	0.039813	0.16487	0.056356	0.12497	0.069579	0.25275	0.25749	0.17524	0.14663	0.23684	0.25209	-2.4792	-2.6396	-2.6167	-2.9875	-2.4917	-2.7396	-3.0167	-2.6104	-2.9437	-2.5875	-2.4708	-3.0917	-2.7792	-2.8646	-3.0187	-2.4313	314.936	38.673	-21.521	118.915	261.555	227.410	116.249	108.108	104.648	30.188	-19.314	117.683	-25.123	295.014	76.057	66.668	0.00014436	0.0015083	9.6624e-05	392.1	7.3608e-06	1.3824e-05	485.57	131.84	1.4295e-05	1.5781e-05	194.23	71.05	50.501	18.651	2.2017e-05	31.836	0.013729	0.014332	0.0038405	1348.5	0.00016328	0.0001555	844.77	278.72	0.00015926	0.00015429	611.41	137.19	119.66	40.033	0.00014537	62.878	-7.635	134.922	231.299	-20.593	139.440	76.013	-22.514	-15.058	310.322	290.833	-17.277	-12.845	-11.868	-6.757	-26.123	-8.488	-8191	255	
3333.156	1	1	0	0	0.21441	0.094574	0.14614	0.068589	0.14355	0.081843	0.13833	0.15765	0.15669	0.16649	0.066943	0.075772	0.093525	0.14319	0.19113	0.10958	-2.6396	-2.7854	-2.5542	-3.1063	-2.8167	-2.7854	-2.9688	-2.6417	-2.85	-3	-2.7458	-2.8958	-2.7938	-2.6958	-3.1688	-2.5979	320.459	111.548	-21.011	176.787	325.790	283.259	284.902	231.492	-5.496	-0.756	136.950	286.378	157.350	27.142	100.721	241.762	0.00047502	0.0018881	0.0011458	389.6	5.9306e-06	4.3949e-06	471.88	129.15	4.1236e-05	1.3487e-05	184.17	70.651	50.49	18.703	1.7068e-05	32.133	0.01349	0.013976	0.0037478	1369.6	0.00015985	0.00015259	830.26	280.1	0.00015636	0.00015163	610.01	139.42	118.6	39.915	0.00014935	64.46	-10.649	326.484	29.869	-20.968	314.880	-26.181	-22.229	-14.633	70.480	74.719	-17.234	-13.126	-11.748	-7.015	188.810	-8.015	-8191	255	
3333.252	1	1	0	0	0.29512	0.20551	0.12715	0.066285	0.15885	0.24502	0.20151	0.25394	0.18673	0.077531	0.17005	0.11859	0.08837	0.16918	0.16671	0.075034	-2.375	-2.5979	-2.5833	-3.0146	-2.7625	-2.5812	-2.9375	-2.3917	-2.9542	-2.8187	-2.5312	-2.8917	-2.8312	-2.9313	-2.9437	-2.6521	95.730	27.094	4.852	130.700	65.232	97.799	262.277	-32.929	126.881	254.080	147.569	204.919	87.909	304.336	115.141	282.599	0.00049739	0.0030641	0.00088241	395.78	2.0979e-05	1.716e-05	474.43	130.88	3.2868e-05	1.2287e-05	188.56	71.675	50.883	18.962	1.4708e-05	32.842	0.013484	0.013967	0.0038871	1414.5	0.00016171	0.00015679	858.75	294.05	0.00016534	0.00016125	661.2	147.56	124.62	42.334	0.00017596	70.071	294.373	216.134	136.527	-20.668	307.476	138.248	-21.708	-15.078	82.362	4.651	-17.608	-13.360	-11.586	-6.614	150.473	-8.930	-8191	255	
3333.349	1	1	0	0	0.11567	0.18719	0.24034	0.094046	0.099896	0.12512	0.17583	0.068117	0.24443	0.14464	0.26797	0.17775	0.1924	0.020154	0.24113	0.26028	-2.3917	-2.8979	-2.6	-2.8479	-2.6958	-2.6146	-3.0771	-2.5396	-2.7646	-2.9458	-2.4313	-2.6708	-2.7667	-2.525	-3.0917	-2.7396	-10.628	4.637	190.169	292.535	247.696	-20.576	203.144	20.505	69.548	148.461	229.004	188.676	35.891	21.407	112.789	313.957	0.00045815	0.0052668	0.0010816	389.08	2.4739e-05	7.3851e-06	484.6	133.97	4.1067e-05	2.2658e-05	189.48	72.736	51.095	19.056	3.1877e-05	33.095	0.015515	0.016346	0.0048007	1615.8	0.00018779	0.0001804	939.26	318.55	0.00018716	0.00018199	749.09	156.56	131.12	44.015	0.0001945	71.222	234.435	309.438	142.873	-22.462	-9.786	33.013	-22.022	-15.524	29.636	23.513	-16.849	-12.813	-11.830	-6.625	184.468	-8.993	-8191	255	
3333.467	1	1	0	0	0.12471	0.01363	0.034167	0.15553	0.14269	0.10305	0.076608	0.12212	0.24859	0.031428	0.24964	0.19134	0.086878	0.39397	0.080846	0.079105	-2.3229	-2.8312	-2.3958	-2.8021	-2.8583	-2.6229	-2.9313	-2.4604	-2.7854	-3.1042	-2.6312	-2.8312	-2.95	-2.7542	-3.1146	-2.6646	288.716	102.761	197.022	141.147	237.541	229.829	92.909	-11.500	93.745	23.673	212.924	116.711	115.954	209.904	128.628	70.829	0.00038373	0.0024163	0.0003682	396.72	1.5593e-05	2.1755e-05	473.44	130.99	3.9715e-05	3.4669e-06	187.5	70.783	49.972	18.508	6.4111e-06	32.348	0.015932	0.016643	0.0050323	1596.3	0.00018544	0.0001818	940.87	310.35	0.0001821	0.00018028	746.94	151.63	127.68	43.642	0.00019391	68.535	-15.619	237.527	132.061	-22.252	-9.659	161.756	-22.171	-15.332	33.977	216.449	-16.359	-12.795	-11.626	-6.225	234.113	-8.715	-8191	255	
3333.564	1	1	0	0	0.24714	0.098674	0.17778	0.16374	0.31916	0.18987	0.20661	0.20427	0.17526	0.20748	0.091305	0.11692	0.17422	0.11437	0.28322	0.24713	-2.1229	-2.6521	-2.5667	-2.9125	-2.9313	-2.5021	-3.1688	-2.875	-2.8271	-2.9146	-2.4729	-2.8979	-2.9938	-2.8708	-2.8833	-2.6771	52.271	11.485	224.817	75.564	156.621	314.820	294.973	22.247	75.807	76.390	145.828	60.399	58.302	94.144	218.020	274.533	0.00023933	0.0026053	0.00029182	390.93	4.2489e-06	2.77e-05	467.29	129.85	2.1882e-05	2.5177e-05	187.48	70.279	49.735	18.514	2.6647e-05	32.292	0.015122	0.016531	0.0049326	1528.8	0.00017505	0.00018007	918.38	299.81	0.0001715	0.00018099	731.06	148.57	125.21	44.289	0.00019335	68.489	250.746	168.040	98.989	-20.807	18.453	194.305	-21.845	-15.159	12.909	226.582	-18.259	-13.038	-11.807	-6.020	-7.566	-8.783	-8191	255	
3333.660	1	1	0	0	0.17911	0.010904	0.12318	0.17639	0.31796	0.077084	0.15646	0.092969	0.20306	0.060644	0.082935	0.17611	0.068069	0.035646	0.06384	0.25358	-2.4104	-3.0417	-2.6958	-2.7354	-3.0083	-2.5583	-3.0812	-2.8667	-2.5729	-3.0833	-2.6	-2.6188	-2.8937	-2.5458	-2.9271	-2.8896	85.537	95.680	48.343	71.044	182.960	179.503	256.745	200.767	279.768	237.407	18.485	284.427	56.841	316.590	25.960	42.252	0.00020246	0.0029252	0.00051094	385.94	1.1795e-05	3.1494e-05	470.18	130.87	1.2264e-05	1.7182e-05	189.06	71.265	49.77	18.624	2.8909e-05	32.53	0.01498	0.017076	0.0048251	1499.1	0.00017171	0.0001853	912.32	296.56	0.0001682	0.00018211	701.11	144.81	120.78	43.221	0.00017335	64.843	57.028	183.801	45.410	-22.216	325.678	222.822	-21.959	-15.260	99.124	240.802	-17.645	-13.043	-11.431	-5.761	39.100	-8.513	-8191	255	
3333.756	1	1	0	0	0.32165	0.17566	0.1228	0.1765	0.18807	0.23448	0.13213	0.08867	0.068705	0.13487	0.10412	0.25127	0.19074	0.2656	0.014634	0.090084	-2.1896	-2.975	-2.7333	-2.5542	-2.9229	-2.625	-2.8375	-2.8104	-2.6583	-3.0229	-2.6729	-2.675	-3.0458	-2.6292	-2.7708	-3.0354	34.705	18.564	98.131	-11.981	79.116	135.798	317.932	250.672	240.397	315.723	114.988	291.547	210.666	82.778	306.613	31.993	0.0007852	0.0012446	0.00052937	382.78	2.8534e-05	9.079e-06	463.62	128.03	1.5353e-05	1.466e-05	188.72	70.526	48.401	18.289	1.0342e-05	32.014	0.013565	0.015748	0.0041974	1349.2	0.0001517	0.0001633	841.38	269.6	0.00014853	0.00016054	619.65	132.68	111.3	39.433	0.00014303	59.142	83.358	87.229	289.145	-21.212	176.723	145.914	-22.207	-14.961	163.741	48.557	-17.502	-13.181	-11.135	-6.020	307.130	-8.312	-8191	255	
3333.852	1	1	0	0	0.090944	0.20768	0.032579	0.20199	0.25459	0.15369	0.065422	0.24357	0.18178	0.016779	0.18145	0.11666	0.1851	0.092468	0.12342	0.23915	-2.1479	-2.7542	-2.6646	-2.5812	-2.9396	-2.6042	-2.9479	-3.1875	-2.6479	-2.925	-2.7271	-2.6979	-2.8833	-2.8104	-2.7062	-2.9396	323.228	268.669	119.178	77.242	161.456	301.051	2.120	266.244	270.312	-23.957	116.393	105.019	94.060	190.989	238.067	301.415	0.00081855	0.0017155	0.00046068	378.84	2.6453e-05	1.5706e-05	460.94	126.69	2.1526e-05	1.8526e-05	184.64	68.554	48.159	17.921	1.2185e-05	31.3	0.01179	0.013246	0.0034669	1175.1	0.00013134	0.0001338	767.44	240.33	0.00012305	0.00012617	522.34	117.9	98.253	33.747	0.00010095	50.804	80.640	265.496	225.329	-21.544	204.447	112.012	-21.686	-14.450	180.120	82.577	-17.221	-12.660	-11.087	-6.181	69.844	-8.485	-8191	255	
3333.948	1	1	0	0	0.19263	0.11624	0.12039	0.11197	0.19463	0.16443	0.37805	0.26258	0.18442	0.11026	0.095439	0.07214	0.28213	0.16078	0.30042	0.16377	-2.3854	-3.0208	-2.6333	-2.5062	-2.8125	-2.625	-2.7521	-3.1417	-2.6583	-3.0104	-2.7708	-2.8167	-2.8875	-2.4083	-2.725	-3.2021	61.439	127.508	78.835	251.216	152.229	234.414	289.944	35.219	-29.948	311.316	22.578	47.765	28.923	232.891	306.955	2.929	0.00099647	0.00038182	0.00040205	373.61	1.2341e-05	1.8376e-05	460.3	128.36	1.0483e-05	1.1111e-06	188.79	70.1	49.581	18.276	1.5366e-05	32.069	0.0082083	0.0085404	0.0022007	893.48	8.6126e-05	8.4279e-05	665.63	205.97	7.9783e-05	7.6946e-05	396.86	103.49	83.164	28.751	6.4853e-05	46.134	55.033	43.285	197.233	-21.306	178.476	77.778	-22.029	-14.844	111.664	116.671	-17.322	-12.582	-11.141	-5.941	119.737	-8.319	-8191	255	
3334.044	1	1	0	0	0.27425	0.16228	0.20077	0.42566	0.13761	0.11629	0.36478	0.18402	0.30415	0.025062	0.12553	0.19572	0.097475	0.36401	0.32369	0.1829	-2.4354	-2.7979	-2.6354	-2.7417	-2.8771	-2.7979	-2.7875	-2.8667	-2.3729	-2.8875	-2.8937	-2.6771	-3.0792	-2.7854	-2.5917	-2.7562	56.442	250.112	75.234	134.244	-1.575	254.761	202.117	-28.101	147.715	-4.949	261.199	233.259	262.771	319.162	85.180	264.576	0.000156	0.0022749	0.00011069	377.54	1.1849e-05	4.3412e-06	462.98	132	8.2456e-06	9.2153e-06	190.72	71.479	50.557	18.684	7.1862e-06	32.449	0.0056932	0.0058737	0.0015621	777.86	6.6336e-05	6.3537e-05	629.36	197.15	6.5176e-05	6.2935e-05	366.3	101.73	80.113	28.043	5.8334e-05	46.352	119.931	-10.273	173.694	-20.872	25.434	-15.911	-21.555	-14.862	-30.569	59.040	-17.380	-12.553	-11.266	-5.921	279.273	-8.492	-8191	255	
3334.165	1	1	0	0	0.19929	0.1459	0.2487	0.039803	0.15275	0.16828	0.39885	0.12937	0.13658	0.047	0.13582	0.091228	0.27871	0.22448	0.11033	0.21581	-2.0312	-2.5125	-3.0125	-2.6937	-2.8854	-2.7458	-2.4542	-2.8375	-2.5604	-2.7333	-3.1146	-2.6333	-2.9396	-2.7812	-2.6958	-3.0438	186.600	112.479	49.173	205.649	186.460	309.356	222.927	17.213	257.027	239.626	19.286	253.485	-6.414	144.140	73.935	307.267	0.00040511	0.00051678	0.00020482	378.4	7.5314e-06	9.1058e-06	459.94	130.4	1.3133e-05	2.464e-05	188.88	71.033	49.832	18.531	1.5565e-05	32.224	0.0055071	0.0057686	0.0015397	790.81	6.4313e-05	6.0907e-05	623.92	196.27	6.206e-05	6.0017e-05	359.64	101.41	78.542	27.516	5.6262e-05	45.668	84.446	49.749	152.212	-20.771	33.078	126.860	-21.665	-14.589	-23.843	99.180	-17.112	-12.419	-11.289	-6.360	174.848	-8.035	-8191	255	
3334.261	1	1	0	0	0.19287	0.13927	0.25709	0.2718	0.19205	0.18943	0.16982	0.19374	0.14161	0.10029	0.22668	0.059871	0.021985	0.25504	0.17582	0.25674	-2.0792	-2.5812	-2.7417	-2.525	-2.8292	-2.975	-2.7562	-3.1333	-2.7083	-2.9458	-3.0146	-2.6917	-2.8417	-2.825	-2.4042	-2.8896	-3.584	-4.585	277.562	220.924	35.583	30.429	288.703	314.134	138.029	245.577	59.371	268.817	230.567	133.693	52.223	231.519	0.00018309	0.00053561	0.00056984	373.15	1.1949e-05	1.0534e-05	455.51	128.59	1.1305e-05	5.2177e-06	186.41	69.833	48.768	18.136	9.2891e-06	31.727	0.004866	0.0049885	0.0013578	742.8	5.5168e-05	5.2356e-05	606.61	189.41	5.6258e-05	5.564e-05	354.21	99.415	76.352	26.911	5.9062e-05	45.606	113.078	153.473	129.910	-21.037	-16.266	49.750	-21.626	-14.802	79.478	62.538	-17.366	-12.344	-10.919	-6.302	199.976	-8.372	-8191	255	
3334.356	1	1	0	0	0.057624	0.17049	0.1729	0.15975	0.21544	0.14881	0.12054	0.019614	0.089649	0.23698	0.10416	0.16368	0.099649	0.19359	0.19946	0.11921	-2.1875	-2.6271	-2.9792	-2.6417	-2.6562	-2.9458	-2.7104	-3.0292	-2.8604	-2.6	-2.9604	-2.4042	-2.9938	-3.175	-2.6562	-2.8187	134.379	144.986	281.214	95.177	-8.792	205.039	208.558	15.241	55.968	194.852	98.705	-26.765	138.468	264.866	179.384	247.814	0.00052098	0.00068887	0.00020812	377.72	7.4786e-06	9.3734e-06	456.24	128.81	1.1488e-05	4.4112e-06	185.34	69.601	49.454	18.425	1.3649e-05	32.004	0.0050691	0.0052444	0.0015016	762.97	5.6936e-05	5.384e-05	612.05	189.41	5.4343e-05	5.3084e-05	353.33	98.064	75.846	26.954	5.9069e-05	45.431	62.675	-3.836	153.716	-21.247	39.120	93.589	-21.453	-14.837	116.076	94.040	-17.022	-12.818	-11.352	-6.335	115.477	-8.514	-8191	255	
3334.453	1	1	0	0	0.21087	0.11238	0.054736	0.2298	0.18751	0.054267	0.18317	0.088548	0.26609	0.1176	0.022278	0.082909	0.27559	0.20233	0.027431	0.35707	-2.4313	-2.6729	-2.8708	-2.5208	-2.7313	-3.1188	-2.6771	-2.8875	-2.8	-2.4354	-2.9458	-2.7875	-2.6188	-2.7896	-2.5625	-2.7479	-32.058	220.421	121.879	273.703	25.481	54.644	138.536	227.396	187.226	149.883	180.518	-29.225	305.843	320.200	163.589	1.395	0.00017368	0.0014297	0.00023516	378.52	4.4515e-06	1.1264e-05	458.42	130.27	3.0497e-06	1.509e-05	187.31	70.737	49.762	18.691	1.2083e-05	32.451	0.004893	0.0051574	0.0015619	771.76	5.9759e-05	5.87e-05	632.29	196.19	5.9861e-05	6.0791e-05	380.5	101.67	78.981	28.382	6.8041e-05	47.122	17.510	109.956	100.490	-21.432	7.858	182.165	-22.078	-14.862	125.124	196.845	-17.102	-13.195	-11.519	-6.070	310.481	-8.572	-8191	255	
3334.548	1	1	0	0	0.049946	0.21667	0.17985	0.083838	0.28921	0.14426	0.12958	0.13455	0.10935	0.18936	0.24089	0.10081	0.18884	0.10815	0.12785	0.027381	-2.3042	-2.6188	-2.7521	-2.6458	-2.5187	-2.9667	-2.4729	-2.7917	-3.0938	-2.6063	-3	-2.7979	-2.6271	-3.1729	-2.6729	-3.0729	83.067	186.664	320.288	56.568	161.981	-1.228	121.559	307.203	314.796	233.537	-5.487	274.871	174.729	320.937	128.792	303.174	0.00045063	0.0011352	0.00031416	376.75	1.2598e-05	6.5377e-06	459.92	130.21	9.1081e-06	7.1978e-06	188.05	70.642	49.923	18.705	9.0325e-06	32.509	0.005468	0.0060306	0.0017863	806.73	6.5128e-05	6.7341e-05	650.38	201	6.5953e-05	7.0054e-05	403.09	104.24	81.259	29.497	7.422e-05	48.025	2.499	134.941	240.356	-21.606	137.685	267.699	-22.075	-14.923	-29.275	78.909	-17.311	-12.675	-11.522	-6.092	286.128	-8.492	-8191	255	
3334.644	1	1	0	0	0.11245	0.21809	0.084699	0.31919	0.10639	0.095261	0.13413	0.34342	0.1497	0.26168	0.10818	0.11019	0.151	0.071222	0.17286	0.19103	-2.6354	-2.4062	-2.9375	-2.4437	-2.6083	-3.0646	-2.8542	-3.0292	-2.9146	-2.6417	-2.825	-2.7917	-2.5792	-2.9229	-3.05	-2.8667	-30.799	92.471	129.360	319.584	311.132	315.193	233.170	302.829	276.645	35.883	-17.754	136.355	9.885	-3.414	145.017	131.090	0.00058212	0.0005491	0.00051891	376.22	2.9436e-06	1.3746e-05	460.62	130.29	7.9683e-06	5.9705e-06	186.69	70.69	49.615	18.488	9.6762e-06	32.059	0.0058066	0.006729	0.0019177	832.11	6.9063e-05	7.4081e-05	658.72	202.67	6.8975e-05	7.519e-05	404.72	104.32	82.107	29.957	7.6176e-05	47.987	42.303	211.404	26.048	-21.474	14.975	216.413	-21.789	-15.114	75.340	214.730	-17.460	-12.362	-11.520	-5.878	88.192	-8.475	-8191	255	
3334.765	1	1	0	0	0.23221	0.081733	0.2523	0.17045	0.040794	0.039873	0.38963	0.33176	0.3845	0.061309	0.06315	0.12908	0.12439	0.068503	0.039796	0.23236	-2.5125	-2.5521	-2.6417	-2.9083	-2.6562	-3.075	-2.75	-2.5563	-2.925	-2.5	-2.7938	-2.9604	-2.7104	-2.9042	-2.5854	-2.6771	19.026	289.883	273.567	152.387	80.475	256.038	70.319	309.201	15.149	286.005	21.866	274.009	283.025	217.318	236.382	34.686	0.00061655	0.0013048	0.00014275	382.64	8.2974e-06	1.1137e-05	458.82	128.51	9.0068e-06	2.7657e-06	185.11	69.765	49.45	18.543	7.1199e-06	31.969	0.0061324	0.00721	0.0019545	842.98	7.2724e-05	7.7972e-05	655.08	201.5	7.1525e-05	7.806e-05	402.55	103.04	82.677	30.006	7.4798e-05	47.755	54.504	24.107	23.184	-21.484	264.100	155.114	-21.916	-14.860	163.016	78.012	-16.799	-12.880	-11.066	-6.813	313.803	-8.571	-8191	255	
3334.861	1	1	0	0	0.20857	0.070814	0.18771	0.11324	0.42596	0.1125	0.10478	0.11075	0.21445	0.065579	0.093194	0.35591	0.097095	0.27352	0.23637	0.0211	-2.3083	-2.5938	-2.7812	-2.8625	-2.55	-3.0438	-2.8604	-2.7729	-3.0396	-2.6042	-3.0062	-3.1917	-2.8979	-2.9646	-2.7354	-2.8604	242.584	126.682	209.536	-26.121	299.542	15.499	247.796	322.174	313.825	36.989	224.790	-14.984	222.612	66.128	162.556	37.302	0.00067722	0.0020175	0.00051348	375.61	1.154e-05	2.839e-06	458.54	129.64	5.9503e-06	9.1006e-06	186.57	70.722	49.814	18.707	7.7153e-06	32.314	0.0063646	0.00733	0.0019689	849.92	7.8776e-05	8.191e-05	663.59	205.17	7.7385e-05	8.1092e-05	413.6	105.33	86.194	30.621	7.6072e-05	48.273	79.509	289.361	12.336	-21.726	298.918	2.137	-21.842	-14.534	212.611	26.062	-17.055	-12.537	-11.373	-6.541	107.376	-8.493	-8191	255	
3334.957	1	1	0	0	0.097296	0.21058	0.26394	0.16937	0.093645	0.075263	0.12421	0.24198	0.29048	0.20429	0.15408	0.080491	0.096358	0.19131	0.15946	0.073609	-2.5312	-2.6458	-2.5104	-2.8396	-2.6917	-2.9062	-2.9562	-2.3625	-2.8625	-2.6667	-2.775	-3.0792	-2.7229	-3.0312	-2.9021	-2.7458	185.518	265.107	247.459	324.597	161.552	105.447	197.103	92.260	63.810	-0.075	127.217	78.579	196.446	28.918	322.127	77.811	0.0007285	0.00045643	0.00026778	376.66	1.8237e-05	1.5466e-06	462.7	130.11	1.3717e-05	1.0525e-05	188.66	70.853	49.879	18.667	1.5924e-05	32.575	0.0067266	0.007276	0.0019424	843.08	7.8154e-05	7.6321e-05	652.63	202.04	7.4744e-05	7.3476e-05	392.68	103.71	84.363	29.596	6.8388e-05	47.513	68.569	150.260	56.277	-21.351	243.498	156.434	-21.950	-14.719	138.209	111.973	-17.695	-12.809	-10.688	-6.039	13.084	-8.222	-8191	255	
3335.053	1	1	0	0	0.089006	0.28528	0.10036	0.1378	0.23268	0.27444	0.12274	0.33367	0.19727	0.055322	0.19535	0.13478	0.20104	0.11455	0.21995	0.22661	-2.5417	-2.7333	-2.5292	-2.7854	-2.5646	-2.6063	-2.6729	-2.5062	-2.8292	-2.5812	-2.4729	-2.9125	-2.5229	-2.7625	-2.8625	-2.3667	154.764	146.343	267.358	285.193	139.320	142.899	15.105	279.326	195.847	30.894	120.314	132.486	68.603	165.087	183.757	292.585	0.00060897	0.0013868	0.00013674	376.14	1.0259e-05	1.4099e-05	461.69	128.93	2.0005e-05	8.0491e-06	186.85	70.738	49.42	18.509	7.2939e-06	32.337	0.0061415	0.0063308	0.0016815	801.41	7.1182e-05	6.8091e-05	635.27	198.22	7.0083e-05	6.879e-05	381.8	103.73	83.396	29.126	6.7913e-05	47.862	63.170	284.386	72.394	-21.902	5.406	110.542	-21.840	-14.533	72.001	84.962	-17.257	-12.316	-11.214	-6.126	47.554	-8.213	-8191	255	
3335.125	1	1	0	0	0.1532	0.41643	0.029256	0.22264	0.24468	0.039929	0.13288	0.13019	0.17308	0.092351	0.13666	0.14551	0.34717	0.18356	0.1375	0.14162	-2.3229	-2.6521	-2.4188	-2.6729	-2.8438	-2.7833	-3.0042	-2.6375	-2.9938	-2.8375	-2.8	-2.9854	-2.6604	-2.5312	-2.6813	-2.4	245.799	318.866	-14.564	247.219	285.486	218.049	-28.033	209.774	135.390	71.945	144.159	270.324	-9.457	52.532	68.051	327.178	0.00024315	0.0016873	0.00010058	375.48	1.0997e-05	5.6537e-06	457.92	128.85	2.5618e-05	2.2383e-05	184.19	70.036	49.778	18.323	1.5103e-05	31.85	0.0062619	0.0064459	0.0017206	835.52	7.4096e-05	7.1633e-05	642.67	204.22	7.3107e-05	7.0357e-05	382.56	103.65	81.279	28.313	6.3377e-05	46.938	68.402	277.433	50.750	-21.419	186.278	126.882	-21.907	-14.403	58.318	6.102	-17.284	-12.510	-11.619	-6.344	204.265	-8.437	-8191	255	
3335.245	1	1	0	0	0.14057	0.27102	0.35405	0.071628	0.076079	0.045012	0.15144	0.053957	0.16097	0.26321	0.19713	0.092522	0.083247	0.32023	0.1183	0.069233	-2.2438	-2.5458	-2.2979	-2.8625	-2.625	-2.8458	-3.0375	-2.6083	-2.7854	-2.8792	-2.6354	-2.7771	-2.525	-2.5812	-2.9562	-2.6104	84.311	3.569	142.719	246.280	307.122	28.810	315.718	54.986	188.925	91.610	104.934	178.575	11.351	266.051	280.777	252.602	0.00038234	6.2098e-05	0.00032837	375.17	1.1374e-05	1.5445e-05	453.13	128.51	1.0348e-05	1.1944e-05	184.25	70.12	49.424	18.408	1.2817e-05	32.09	0.0057168	0.0059628	0.0016585	824.96	7.0558e-05	6.8944e-05	640.65	204.67	7.1374e-05	6.9403e-05	391.61	105.16	82.661	28.951	7.1127e-05	48.223	5.743	-22.344	67.837	-20.438	325.332	13.313	-21.475	-14.699	35.097	247.206	-17.291	-12.514	-10.666	-6.403	167.038	-8.437	-8191	255	
3335.342	1	1	0	0	0.049425	0.13832	0.26824	0.17442	0.1975	0.24016	0.047149	0.18021	0.1433	0.21329	0.045421	0.15143	0.058094	0.20255	0.22453	0.33377	-2.5729	-3.0687	-2.6771	-2.95	-2.7917	-2.7062	-3.0875	-2.6875	-2.7417	-2.7687	-2.7333	-2.9771	-2.6771	-2.6021	-2.8021	-2.5146	280.458	233.148	55.765	129.840	49.502	285.142	236.088	-17.602	51.594	84.300	243.286	49.165	106.978	173.044	149.236	222.354	0.00043643	0.00089774	0.00015828	375.62	5.9786e-06	6.6654e-06	453.72	128.63	7.5519e-06	6.6164e-06	186.26	70.006	49.288	18.461	1.2549e-05	32.273	0.0060447	0.0062228	0.0017832	836.89	6.9338e-05	6.6089e-05	639.45	200.76	6.6279e-05	6.4065e-05	384.74	102.63	79.186	27.934	6.5275e-05	46.624	86.677	109.952	117.998	-21.064	-27.093	250.196	-21.899	-14.689	61.950	-13.025	-17.307	-12.497	-11.257	-6.157	244.218	-8.439	-8191	255	
3335.436	1	1	0	0	0.081423	0.1949	0.15036	0.3621	0.27012	0.14597	0.23068	0.35484	0.10101	0.061293	0.40032	0.03668	0.16049	0.10455	0.36929	0.16781	-2.3979	-2.9375	-2.5458	-2.8979	-2.6562	-2.5229	-2.9271	-2.6354	-2.7125	-2.8083	-2.6458	-2.9875	-2.8208	-2.7833	-2.9854	-2.7521	106.752	102.768	172.919	292.939	117.200	277.783	72.325	115.414	316.406	316.013	107.431	210.374	90.308	266.408	270.061	18.912	0.00016591	0.00094764	0.00053206	372.44	1.143e-05	1.0884e-05	457.86	130.41	6.5072e-06	5.0634e-06	186.8	71.508	49.91	18.46	7.151e-06	32.402	0.00527	0.0054813	0.0016549	783.31	6.1067e-05	5.9664e-05	631.09	195.7	5.976e-05	5.9387e-05	375.7	101.12	77.315	27.512	6.1558e-05	45.72	31.785	68.385	122.031	-21.485	197.600	191.277	-21.607	-14.915	138.702	10.074	-17.228	-12.654	-11.309	-6.110	298.625	-8.388	-8191	255	
3335.534	1	1	0	0	0.23198	0.32139	0.32277	0.063359	0.14096	0.23482	0.037633	0.17883	0.21941	0.1648	0.049995	0.15994	0.13728	0.039072	0.18567	0.12774	-2.1958	-2.8271	-2.4292	-2.6333	-2.7708	-2.6854	-2.8583	-2.7292	-2.6875	-2.9083	-2.5625	-2.4604	-2.6583	-2.5271	-2.6979	-2.6792	211.244	309.297	-18.263	-11.857	184.138	326.646	177.661	284.050	276.786	282.785	179.617	100.810	-25.320	195.689	200.560	96.484	0.00034217	0.00099462	0.00035711	377.11	8.1394e-06	1.5492e-05	454.3	129.83	6.4648e-06	5.7523e-06	187.97	70.388	49.782	18.32	7.177e-06	31.995	0.0048298	0.0052175	0.0015511	746.57	5.5562e-05	5.7969e-05	622.68	191.85	5.6128e-05	5.9454e-05	373.64	100.07	77.169	27.817	6.3906e-05	45.786	81.729	180.500	131.476	-21.085	12.958	179.936	-21.460	-14.636	197.588	46.934	-17.452	-12.544	-11.167	-5.886	79.101	-8.453	-8191	255	
3335.653	1	1	0	0	0.086387	0.075282	0.19322	0.034902	0.15451	0.16232	0.2315	0.13247	0.21374	0.062643	0.042157	0.088649	0.12561	0.17308	0.2857	0.16862	-2.2062	-3.0896	-2.7125	-2.7979	-3.0792	-2.8708	-3.0479	-2.9042	-2.7208	-3.0458	-2.7271	-2.8812	-3.075	-2.5875	-2.9917	-2.9458	-23.997	77.159	75.051	69.766	131.845	307.863	268.068	-31.733	275.932	304.155	46.394	160.956	258.696	68.692	-1.949	275.741	0.00019524	0.0008993	0.00036363	374.19	8.4863e-06	7.2071e-06	453.08	129.16	4.1312e-06	1.1954e-05	187.31	70.535	49.146	18.301	1.591e-05	31.941	0.0050568	0.0058085	0.0016602	775	6.0554e-05	6.5797e-05	634.95	196.41	6.2497e-05	6.8535e-05	387.66	102.11	79.306	28.906	6.8863e-05	46.517	12.122	94.524	314.369	-21.225	146.639	263.849	-21.761	-14.914	66.387	187.540	-17.257	-12.466	-11.020	-6.155	281.690	-8.516	-8191	255	
3335.724	1	1	0	0	0.032932	0.30583	0.076701	0.10014	0.21852	0.23419	0.23553	0.27593	0.24203	0.17243	0.17814	0.18937	0.18174	0.17767	0.27286	0.10741	-2.1042	-2.7938	-2.5604	-2.6208	-2.9417	-2.8063	-3.0458	-3.1292	-2.7292	-2.8917	-2.7146	-2.5354	-3.0146	-2.5333	-2.7562	-3.0083	269.767	190.134	74.356	104.037	98.655	136.815	10.834	276.319	322.762	113.722	87.770	232.861	228.709	194.146	-5.162	-13.386	0.00024383	0.0015659	0.0001174	366.59	9.0787e-06	5.2248e-06	456.91	128.37	2.486e-05	1.4325e-05	187.61	70.044	48.854	18.287	9.2014e-06	32.032	0.0055041	0.0064488	0.0017574	794.04	6.4615e-05	6.9928e-05	636.74	195.02	6.3946e-05	6.873e-05	378.78	100.37	78.751	28.654	6.5033e-05	45.853	53.207	150.379	319.396	-21.751	172.384	229.174	-22.157	-15.010	143.421	141.822	-17.453	-12.741	-10.337	-5.770	-31.086	-8.192	-8191	255	
3335.845	1	1	0	0	0.23615	0.14677	0.22788	0.077294	0.25802	0.097635	0.13809	0.069314	0.19133	0.067699	0.21331	0.26409	0.42497	0.21396	0.26513	0.038042	-2.1729	-3.0687	-2.6854	-2.6	-2.9208	-2.5708	-2.9562	-3	-2.6521	-2.9646	-2.9688	-2.675	-3.1021	-2.8583	-2.875	-2.9625	180.480	276.413	262.242	46.668	284.998	243.572	188.570	306.452	58.335	76.780	-5.105	299.135	20.053	-10.160	28.136	269.025	0.00059343	0.0010676	0.00040598	370.33	2.2948e-05	6.8592e-06	454.85	128.88	1.2757e-05	4.1255e-06	188.07	70.976	49.194	18.515	7.7446e-06	32.077	0.0054759	0.0062434	0.0016747	775.65	6.6148e-05	6.9917e-05	637.76	197.14	7.083e-05	7.4299e-05	395.06	103.33	82.652	29.456	6.9941e-05	46.796	76.844	307.531	41.420	-20.857	214.839	278.551	-21.509	-14.833	129.186	296.794	-17.243	-12.515	-11.350	-6.292	-4.135	-8.317	-8191	255	
3335.941	1	1	0	0	0.080445	0.11084	0.15261	0.19207	0.037492	0.14835	0.36931	0.27888	0.20488	0.14307	0.20952	0.079138	0.11086	0.13793	0.16279	0.13785	-2.4896	-2.975	-2.7208	-2.7854	-2.9271	-2.7479	-2.8917	-3.1458	-2.8333	-2.9708	-3.0229	-2.6937	-2.9583	-2.875	-2.7479	-3.1354	139.351	191.033	126.268	157.810	-17.311	247.255	-32.691	201.627	184.220	-16.207	78.032	247.207	178.952	-15.545	56.924	204.849	0.00036603	0.00092849	0.00014684	374.04	4.7312e-06	1.6624e-05	451.17	127.38	1.5463e-05	1.1081e-05	181.34	68.83	48.088	17.9	9.8071e-06	31.023	0.0060873	0.0065546	0.0017437	795.63	7.0634e-05	7.0249e-05	632.31	195.74	7.1573e-05	7.1496e-05	383.67	100.91	81.389	28.536	6.8204e-05	45.941	50.110	258.619	-0.828	-21.227	71.436	12.391	-22.079	-15.011	125.040	1.183	-17.207	-12.380	-10.819	-6.291	250.830	-8.128	-8191	255	
3336.037	1	1	0	0	0.096254	0.1156	0.2559	0.145	0.039296	0.19474	0.19882	0.0080554	0.32186	0.047657	0.12153	0.26912	0.086718	0.21419	0.12061	0.27915	-2.2771	-2.9146	-2.8479	-2.6792	-3.0958	-2.8021	-2.7938	-3.1271	-2.55	-2.7979	-2.9896	-2.6375	-3.0479	-2.8521	-2.8396	-2.95	246.748	12.491	158.959	96.435	29.521	184.167	300.934	-9.494	105.464	79.186	241.514	40.069	51.964	264.491	230.135	273.522	0.00041327	0.0002712	0.00019622	368.66	1.3737e-05	1.0771e-05	447.81	125.05	7.628e-06	1.2136e-05	179.78	67.997	47.963	17.797	5.3843e-06	31.03	0.0062177	0.006456	0.0017189	805.21	7.2185e-05	6.8837e-05	624.63	193.69	6.9266e-05	6.6564e-05	366.21	99.3	78.962	27.533	6.1756e-05	45.442	90.225	232.232	249.904	-20.889	145.305	95.727	-21.851	-14.707	-2.537	46.750	-16.960	-12.123	-11.304	-6.239	214.958	-8.104	-8191	255	
3336.133	1	1	0	0	0.15782	0.027219	0.14792	0.085612	0.29467	0.045907	0.21634	0.10338	0.085756	0.15074	0.2461	0.19208	0.20024	0.24888	0.17133	0.20508	-2.0979	-2.4667	-3.0167	-2.6021	-2.9583	-2.8792	-2.4813	-2.9583	-2.4688	-2.95	-2.9125	-2.7625	-3.0583	-2.8563	-2.5125	-2.9292	260.535	-14.123	212.779	25.995	22.554	64.473	137.548	291.086	171.408	63.473	156.535	133.927	322.413	36.901	129.892	-18.463	5.8171e-05	0.0006864	0.00012601	361.43	7.2797e-06	1.1183e-05	446.7	123.95	1.0582e-05	2.1896e-06	181.59	68.361	48.293	17.858	1.0092e-05	31.223	0.0057418	0.0059168	0.001558	778.79	6.5438e-05	6.2409e-05	608.1	189.98	6.2181e-05	5.99e-05	350.41	97.976	76.068	26.71	5.5913e-05	44.641	123.304	271.106	84.301	-20.842	223.778	98.271	-21.713	-14.583	113.530	323.872	-17.027	-12.204	-11.262	-6.303	24.169	-8.619	-8191	255	
3336.254	1	1	0	0	0.16971	0.0034538	0.19338	0.089	0.1107	0.2771	0.36118	0.18523	0.18956	0.1594	0.030791	0.16668	0.25652	0.039737	0.17257	0.022713	-2.1437	-2.7458	-3.0542	-2.7521	-3.0458	-2.9729	-2.6271	-2.8958	-2.5125	-2.7542	-3.1667	-2.5812	-2.7604	-2.8063	-2.7125	-2.9396	142.805	125.677	242.384	112.136	142.676	113.176	262.672	153.313	260.563	241.041	-13.681	-18.055	34.068	255.696	-20.022	292.790	0.0002944	0.00057839	0.00039621	362.12	4.2139e-06	2.8949e-06	442.77	124.52	8.6282e-06	3.1699e-06	181.35	68.444	47.878	17.635	4.7247e-06	31.255	0.0050346	0.0052223	0.001436	760.11	6.0617e-05	5.8566e-05	605.14	190.44	5.9968e-05	5.8579e-05	356.09	98.977	76.277	26.683	6.0146e-05	45.3	66.515	5.391	50.629	-21.121	64.068	78.846	-21.378	-14.658	307.187	17.255	-16.667	-12.283	-11.369	-6.076	188.316	-7.974	-8191	255	
3336.326	1	1	0	0	0.2185	0.14327	0.080839	0.1386	0.1265	0.16238	0.32014	0.17915	0.28326	0.1794	0.21675	0.024355	0.19135	0.1953	0.16334	0.13361	-2.4521	-2.8125	-2.975	-2.6917	-2.9208	-2.8729	-2.8563	-3.1521	-2.7833	-2.6833	-3.0375	-2.5667	-2.7604	-3.1729	-2.7188	-3.0187	138.216	183.524	107.692	245.994	64.906	273.505	302.344	97.841	80.943	316.101	-30.916	255.128	-15.166	33.551	88.890	77.179	0.00036313	0.00088786	0.00045885	365.81	4.7104e-06	5.8839e-06	445.13	125.13	1.2393e-05	9.9891e-06	181.16	67.954	47.032	17.458	1.3254e-05	30.874	0.0052145	0.0054757	0.0015838	781.82	6.3063e-05	6.0561e-05	615.72	192.72	6.2183e-05	6.0548e-05	367.83	98.841	76.125	26.704	6.4828e-05	45.006	51.216	258.120	116.899	-21.230	165.534	136.785	-21.689	-14.901	72.360	284.748	-16.810	-12.648	-10.854	-5.953	157.174	-8.183	-8191	255	
3336.446	1	1	0	0	0.32074	0.11942	0.12026	0.18145	0.19339	0.090876	0.25842	0.066808	0.28209	0.11684	0.17258	0.040112	0.03045	0.23785	0.13178	0.20903	-2.3792	-2.7208	-2.9938	-2.7562	-2.6979	-2.9667	-2.8083	-2.875	-2.875	-2.5938	-3.0167	-2.8042	-2.8187	-2.9146	-2.6292	-2.8563	151.065	124.888	288.787	-16.633	285.877	326.913	301.154	24.501	32.759	185.789	277.971	-16.017	218.686	148.667	139.591	146.102	0.00016781	0.00068184	0.00037241	355.3	1.6827e-06	1.6362e-05	439.21	122.96	9.1692e-06	6.7708e-06	178.03	67.286	46.811	17.396	6.6593e-06	30.743	0.005323	0.0056221	0.001685	780.71	6.3736e-05	6.1777e-05	620.68	191.05	6.1326e-05	6.0681e-05	369.73	97.278	74.815	26.47	6.4287e-05	44.594	24.634	149.986	106.716	-21.092	309.816	205.995	-21.670	-15.043	114.737	272.158	-17.156	-12.586	-11.211	-5.952	222.847	-7.960	-8191	255	
3336.541	1	1	0	0	0.22709	0.37521	0.30704	0.055064	0.18118	0.15487	0.062164	0.057171	0.050774	0.12327	0.10191	0.076978	0.27104	0.0095888	0.32914	0.30628	-2.5729	-2.6479	-2.8812	-2.8875	-2.6292	-2.9604	-2.4938	-2.6562	-3.0417	-2.6583	-3.0021	-2.6792	-2.8312	-3.0854	-2.6375	-2.8229	76.905	56.651	52.939	224.409	57.331	86.301	23.726	19.926	149.254	-13.657	300.887	209.435	268.747	188.068	88.346	276.823	0.00049534	0.0012724	0.00011815	360.45	9.3024e-06	1.0891e-05	443.06	124.79	1.3634e-05	6.895e-06	183.46	68.022	47.147	17.664	1.6173e-05	31.121	0.0051314	0.0056579	0.0017019	777.31	6.2856e-05	6.4609e-05	627.71	192.66	6.2883e-05	6.6083e-05	384.33	99.256	76.692	27.611	6.8114e-05	45.445	51.649	201.142	136.431	-21.416	11.749	159.280	-21.811	-14.394	-13.096	251.304	-16.929	-12.461	-11.106	-5.858	111.469	-8.099	-8191	255	
3336.637	1	1	0	0	0.16875	0.1403	0.070102	0.31395	0.13919	0.23225	0.22822	0.11019	0.1045	0.11214	0.21566	0.12576	0.23879	0.13366	0.27414	0.025904	-2.5979	-2.5292	-2.9146	-2.625	-2.5229	-2.9667	-2.6354	-2.7667	-3.0708	-2.6333	-2.9188	-3.0021	-2.6063	-3.1521	-2.7375	-2.6854	-12.844	90.288	243.289	104.495	100.619	65.884	-19.355	205.213	192.224	43.055	172.611	283.745	285.457	259.341	303.756	190.432	0.00012942	0.0013876	0.00015613	364.89	8.5189e-06	1.3705e-05	446.25	125.54	2.4383e-06	3.3864e-06	184.67	68.647	47.307	17.754	1.6827e-05	31.399	0.0053315	0.0061551	0.0017774	789.82	6.453e-05	6.8918e-05	632.16	193.66	6.3508e-05	6.9973e-05	388.38	100.56	78.104	28.504	7.1171e-05	46.348	-11.770	147.525	95.969	-21.520	163.946	238.622	-21.706	-14.992	-22.714	86.115	-16.844	-12.616	-10.884	-5.662	-8.215	-8.475	-8191	255	
3336.733	1	1	0	0	0.051415	0.19045	0.16615	0.12721	0.19389	0.16153	0.044303	0.059737	0.25561	0.15219	0.073011	0.13548	0.031002	0.049036	0.22511	0.27353	-2.6229	-2.7458	-2.9437	-2.9521	-2.6646	-3.1042	-2.8688	-2.7521	-3.0062	-2.7188	-2.8625	-3.1229	-2.6521	-3.1771	-2.7479	-2.7729	106.698	239.575	108.662	62.813	282.293	39.045	283.830	117.519	22.520	1.226	275.748	153.402	175.230	310.172	81.432	138.216	0.00031033	0.0012889	0.0003828	359.74	1.7649e-05	1.4326e-05	442.92	124.27	4.091e-06	3.1425e-06	181.13	67.235	46.469	17.458	1.1209e-05	30.546	0.0056362	0.0066351	0.0018015	789.64	6.6144e-05	7.1355e-05	626.53	191.17	6.3893e-05	6.9639e-05	375.7	97.658	76.645	27.811	6.6144e-05	44.579	50.662	145.103	24.104	-21.279	202.700	251.620	-21.869	-14.720	140.282	-29.548	-16.426	-12.543	-10.575	-5.996	2.776	-8.190	-8191	255	
3336.829	1	1	0	0	0.3752	0.10386	0.37256	0.25688	0.12611	0.24168	0.14516	0.085562	0.19301	0.068719	0.21869	0.097893	0.047815	0.13747	0.058528	0.29906	-2.5812	-2.5208	-2.7375	-2.9417	-2.5896	-3.0521	-2.6708	-2.6375	-2.95	-2.5208	-2.8	-3.0062	-2.7729	-3.0771	-2.8271	-2.8521	275.073	-26.095	76.494	68.912	243.517	193.800	326.175	55.089	46.500	251.804	-2.221	100.911	115.996	260.492	5.842	-3.724	0.0006596	0.00156	0.00029123	362.94	1.8946e-05	1.1381e-06	440.85	122.44	1.0021e-05	1.4215e-05	178.33	66.171	46.159	17.294	1.6392e-05	30.525	0.0055531	0.0063523	0.0016934	764.38	6.6349e-05	6.9426e-05	617.09	187.76	6.6047e-05	6.8604e-05	368.3	95.671	76.509	27.401	6.2975e-05	43.954	101.473	308.072	-2.596	-21.564	139.509	160.380	-21.654	-14.231	232.562	45.625	-16.618	-12.468	-10.528	-6.007	1.311	-8.280	-8191	255	
3336.950	1	1	0	0	0.14738	0.31401	0.099612	0.05706	0.27333	0.11026	0.31159	0.073782	0.23205	0.093748	0.1999	0.11291	0.18834	0.11234	0.15109	0.12775	-2.6458	-2.6562	-2.6042	-3.0854	-2.6437	-3.0958	-2.9333	-2.7375	-3.1646	-2.6479	-2.8187	-2.975	-2.6958	-2.7729	-2.9292	-2.6896	224.482	-22.626	14.262	236.387	266.227	241.849	320.746	242.711	236.956	50.418	12.055	-16.960	286.004	303.692	117.788	298.063	0.00024975	0.00074497	0.00038389	359.8	6.7338e-06	7.9845e-06	439.07	122.74	7.1967e-06	1.8123e-05	177.3	67.179	46.832	17.603	1.1935e-05	31.091	0.0054858	0.0059305	0.0015731	738.89	6.386e-05	6.392e-05	605.95	185.52	6.3502e-05	6.3339e-05	357.57	95.887	76.812	27.282	6.0486e-05	44.603	51.420	237.150	29.734	-21.013	152.282	127.371	-21.883	-14.631	59.554	-18.928	-17.116	-12.463	-11.094	-6.019	18.138	-7.681	-8191	255	
3337.022	1	1	0	0	0.29651	0.068235	0.15107	0.27117	0.1002	0.092972	0.088271	0.19729	0.14376	0.11757	0.35127	0.30971	0.14447	0.23457	0.25478	0.12221	-2.4625	-2.4042	-2.4292	-2.9313	-2.475	-2.7292	-2.8542	-2.6688	-2.8042	-2.6083	-2.5333	-3.0854	-2.5021	-2.8292	-2.95	-2.4271	72.867	-26.124	309.217	267.990	33.746	22.247	327.154	147.274	43.319	157.805	277.931	261.774	19.720	36.815	106.420	130.497	0.00043791	0.00070566	0.00023291	364.22	7.8556e-06	8.2467e-07	444.04	123.28	1.6658e-05	8.6482e-06	180.9	67.634	47.421	17.772	2.4625e-05	31.116	0.0056549	0.005969	0.0016151	772.35	7.0174e-05	6.9078e-05	623.79	195.66	7.5009e-05	7.4286e-05	392.55	103.34	84.663	29.835	7.9463e-05	49.185	84.168	-10.975	58.638	-20.220	129.121	45.940	-21.898	-14.428	3.028	210.270	-17.414	-12.712	-11.095	-6.170	63.295	-8.120	-8191	255	
3337.118	1	1	0	0	0.11974	0.30583	0.044049	0.072847	0.1212	0.17656	0.23146	0.051757	0.30219	0.13265	0.20627	0.26402	0.24899	0.28664	0.098953	0.092747	-2.4437	-2.7479	-2.6979	-3.0354	-2.7833	-2.9375	-2.9792	-2.8896	-3.1771	-2.85	-2.775	-3.0583	-2.9542	-2.9333	-2.9437	-2.4708	208.469	232.811	191.908	325.568	178.533	93.201	-11.467	55.089	72.604	94.487	51.688	301.080	53.189	241.111	248.695	253.702	0.00046196	0.0014059	0.00048793	366.27	3.5047e-06	2.8863e-05	447.33	123.95	2.0847e-05	1.6164e-05	180.54	67.246	46.911	17.582	1.2512e-05	30.504	0.0075966	0.0079684	0.0021652	936.87	9.3354e-05	9.0285e-05	669.61	214.93	9.2199e-05	8.8802e-05	427.71	108.76	87.609	30.298	8.4169e-05	49.591	83.099	-8.380	235.841	-21.232	-20.882	79.013	-21.773	-14.685	75.949	14.906	-17.317	-12.109	-11.115	-6.297	115.140	-8.190	-8191	255	
3337.214	1	1	0	0	0.19175	0.23746	0.10425	0.14004	0.096687	0.17542	0.37185	0.099028	0.13623	0.1331	0.044475	0.43193	0.087864	0.078904	0.078367	0.15862	-2.5438	-2.8917	-2.7167	-3.1021	-2.5604	-2.9083	-3.1854	-2.8187	-2.8688	-2.9729	-2.7417	-3.1479	-2.8438	-2.7188	-2.8375	-2.4729	73.109	282.210	-26.804	0.167	316.597	224.239	265.280	180.743	231.782	139.940	43.917	305.685	17.599	263.334	177.983	297.685	0.00045948	0.0013753	0.00049332	362.12	1.8696e-06	3.6176e-06	444.75	121.44	7.2379e-06	9.1632e-06	177.14	65.88	46.55	17.506	8.4761e-06	30.556	0.0075985	0.007719	0.0020994	915.38	8.4051e-05	8.0358e-05	647.02	205.2	7.9693e-05	7.6289e-05	400.24	103.72	81.817	28.512	7.5553e-05	47.449	57.832	-18.877	155.705	-19.918	281.732	116.187	-21.716	-14.891	106.215	37.556	-16.935	-12.500	-11.428	-6.042	103.895	-8.444	-8191	255	
3337.333	1	1	0	0	0.081718	0.1307	0.059394	0.072886	0.082955	0.14765	0.10074	0.020187	0.15385	0.08215	0.14241	0.16244	0.28208	0.13485	0.25381	0.14534	-2.2042	-2.8271	-2.1833	-2.8333	-2.9688	-2.7271	-3.0354	-2.7375	-2.9042	-2.9833	-2.4562	-2.8812	-2.9917	-2.8208	-3.1375	-2.8438	30.116	309.484	294.668	166.593	175.872	276.199	-12.260	6.668	4.586	125.521	309.956	230.271	-18.115	-4.276	163.010	257.444	0.00024966	0.0010748	0.00022252	366.85	3.7468e-06	4.1432e-06	442.83	123.48	1.0208e-05	8.0685e-06	177.21	67.428	47.477	17.762	1.3929e-05	31.158	0.0065257	0.0067147	0.0019434	867.91	7.5451e-05	7.2911e-05	640.01	201.03	7.3622e-05	7.0955e-05	398.04	102.8	80.533	28.256	7.4785e-05	47.419	83.371	32.636	108.536	-21.105	109.622	215.980	-21.722	-14.894	117.904	57.138	-17.129	-12.318	-10.785	-5.909	145.145	-8.346	-8191	255	
3337.429	1	1	0	0	0.20267	0.12385	0.14703	0.071613	0.1077	0.29065	0.22034	0.15923	0.19748	0.18028	0.091304	0.20325	0.057019	0.14284	0.22797	0.050269	-2.0917	-2.8125	-2.5938	-3.0563	-2.9479	-2.6688	-2.8792	-2.6583	-2.6229	-3.2208	-2.6646	-2.6833	-2.8979	-2.5687	-2.9708	-2.775	108.888	91.453	92.849	217.512	23.391	76.317	303.020	44.256	190.613	-2.163	28.752	-11.832	60.476	293.476	259.653	116.090	0.00011089	0.00069714	0.00019832	365.19	8.4591e-06	4.9493e-06	442.47	124.79	3.5909e-06	1.0635e-05	180.54	68.628	47.598	17.762	5.6922e-06	31.382	0.0061953	0.0063824	0.0019209	839.21	7.0786e-05	6.8354e-05	637.94	197.06	6.7642e-05	6.6981e-05	391.92	101.52	78.746	28.019	7.2113e-05	46.613	19.126	215.600	112.386	-21.765	7.371	196.777	-21.500	-14.604	233.008	16.241	-17.196	-12.362	-11.315	-5.994	244.319	-8.288	-8191	255	
3337.527	1	1	0	0	0.31277	0.053309	0.10028	0.18917	0.21216	0.25057	0.2105	0.28411	0.10482	0.071397	0.10669	0.23501	0.068076	0.21992	0.10867	0.24978	-2.4771	-3.0979	-2.7333	-2.7875	-2.8021	-2.6604	-2.9375	-2.8063	-2.6562	-3.15	-2.4333	-2.8875	-2.7542	-2.4938	-3.0167	-2.9125	261.218	238.844	219.385	267.545	248.065	42.059	5.602	275.166	202.633	-9.316	189.118	298.426	1.471	87.414	38.709	187.367	0.00015252	0.0010831	0.00052986	368.35	1.4192e-05	1.0572e-05	444.62	124.28	9.3031e-06	1.0418e-05	180.04	67.501	47.076	17.625	2.2103e-05	30.877	0.0058381	0.0063798	0.0019519	842.53	7.3007e-05	7.5652e-05	655.79	201.63	7.3475e-05	7.6173e-05	413.94	103.33	81.318	29.376	8.332e-05	47.944	64.754	165.389	196.639	-21.218	14.581	206.971	-21.882	-14.848	222.599	234.422	-17.719	-12.661	-11.711	-6.012	111.483	-8.539	-8191	255	
3337.623	1	1	0	0	0.13888	0.075809	0.085408	0.089327	0.16427	0.057952	0.1405	0.03529	0.093321	0.12139	0.13086	0.14579	0.081962	0.1918	0.24507	0.18563	-2.1646	-2.9875	-2.8063	-2.7375	-2.9125	-2.5833	-3.025	-2.775	-2.5333	-2.925	-2.4333	-2.8354	-2.7917	-2.6188	-2.6646	-2.8542	47.932	320.553	175.177	185.124	15.530	26.758	73.711	225.152	100.543	13.048	71.818	215.333	129.936	123.179	325.379	87.244	0.00040162	0.00092142	0.00032346	362.65	7.1333e-06	2.0873e-06	443.97	123.29	9.2571e-06	2.0283e-05	177.52	67.122	46.873	17.65	1.296e-05	30.833	0.0066634	0.0076784	0.0022438	897.95	8.12e-05	8.7735e-05	672.15	207.16	8.2702e-05	8.9864e-05	439.34	106.12	84.275	30.712	8.8624e-05	48.634	57.763	87.686	234.048	-21.926	-10.695	247.652	-21.589	-14.820	209.749	233.678	-17.860	-12.418	-11.016	-5.993	38.377	-8.426	-8191	255	
3337.717	1	1	0	0	0.12037	0.073311	0.12067	0.18933	0.42278	0.050925	0.25464	0.02018	0.25775	0.15861	0.082538	0.029083	0.052126	0.28439	0.10052	0.20495	-2.2729	-2.9521	-2.4437	-2.6958	-2.7646	-2.6	-2.7854	-2.7375	-2.5167	-2.9417	-2.55	-2.5167	-2.9333	-2.7333	-2.9042	-2.8729	-27.415	290.177	138.134	300.700	267.466	159.948	260.039	158.229	62.489	-29.854	156.071	59.594	150.245	208.594	171.503	106.477	0.00064471	0.0010029	0.00049623	367.97	1.6734e-05	2.1286e-05	446.12	122.97	1.4799e-05	1.3985e-05	181.47	66.618	47.225	17.754	1.9489e-06	31.122	0.0070922	0.0083332	0.0022878	913.14	8.5912e-05	9.4484e-05	678.74	209.43	8.6047e-05	9.3753e-05	438.07	105.78	85.473	31.169	8.8556e-05	48.884	108.217	108.392	324.072	-21.923	102.920	191.224	-21.688	-14.702	216.057	144.598	-17.111	-12.759	-10.986	-5.834	283.514	-8.793	-8191	255	
3337.813	1	1	0	0	0.14284	0.14499	0.2111	0.011776	0.33775	0.15958	0.10846	0.055857	0.13763	0.12164	0.10822	0.092905	0.10809	0.23013	0.1414	0.06744	-2.2313	-2.9833	-2.8146	-2.6937	-2.8833	-2.5479	-2.9917	-2.8292	-2.6958	-3.1229	-2.8042	-2.7354	-3.0396	-2.8229	-2.8	-2.9271	314.398	128.045	133.955	203.900	296.031	2.774	264.507	190.713	106.653	95.441	207.465	144.944	187.432	-3.176	68.089	278.678	0.0004854	0.0022534	0.00021962	365.63	9.2105e-06	5.0859e-06	444.64	122.69	8.1764e-06	5.5875e-06	179.33	66.961	46.784	17.739	9.5818e-06	31.126	0.0074201	0.0085872	0.0022973	912.44	8.917e-05	9.372e-05	673.44	206.47	8.7818e-05	9.2266e-05	432.58	105.55	86.619	30.986	8.586e-05	48.4	62.481	39.469	4.668	-20.975	267.543	245.444	-21.766	-15.124	134.851	266.952	-17.720	-12.702	-10.692	-6.136	-18.164	-8.407	-8191	255	
3337.934	1	1	0	0	0.16382	0.04883	0.21794	0.1065	0.20041	0.18313	0.22706	0.099598	0.080351	0.10008	0.093795	0.12573	0.24917	0.16655	0.15628	0.11808	-2.0479	-2.9375	-2.7292	-2.5646	-2.9458	-2.6604	-2.7292	-3.0708	-2.7104	-2.9479	-2.9646	-2.5875	-2.8917	-2.7167	-2.8396	-3.125	62.890	130.340	188.957	-13.989	105.665	290.658	-26.518	256.872	316.194	-28.806	230.286	239.050	305.279	295.264	310.467	176.431	0.00041405	0.0014524	0.00053799	360.36	1.2252e-05	1.039e-05	446.26	123.65	8.1117e-06	9.6463e-06	182.13	67.038	47.44	17.704	6.8094e-06	30.88	0.0074952	0.0080977	0.002136	876.42	8.5904e-05	8.5665e-05	657.41	201.93	8.3571e-05	8.3179e-05	409.45	103.12	84.398	29.447	7.5893e-05	46.859	108.828	-22.970	23.064	-21.835	242.515	307.988	-21.776	-15.162	127.011	157.422	-17.220	-12.547	-11.022	-6.040	223.323	-8.375	-8191	255	
3338.030	1	1	0	0	0.23325	0.17487	0.10701	0.18097	0.12336	0.088467	0.18702	0.22332	0.16947	0.17233	0.20791	0.10291	0.21707	0.20407	0.15359	0.11001	-2.0312	-2.9688	-3.0583	-2.7229	-3.1146	-2.6771	-2.625	-3.0667	-2.425	-2.6833	-2.8771	-2.4437	-2.9562	-2.6021	-2.7417	-3.0042	11.993	163.961	50.288	211.187	275.626	196.137	321.647	96.800	185.294	-30.175	314.103	78.706	152.823	-23.593	252.784	263.186	0.0004742	0.0021091	0.00027772	362.58	3.4035e-06	1.4078e-05	442.52	121.39	1.6282e-05	9.1218e-06	178.11	65.747	46.536	17.39	9.582e-06	30.153	0.0069109	0.0072468	0.0019318	849.09	8.1824e-05	7.8975e-05	640.75	199.53	8.1491e-05	7.863e-05	392.87	101.27	82.143	28.625	7.2631e-05	46.604	87.986	322.254	82.783	-21.310	321.602	-27.218	-21.993	-14.726	159.508	27.570	-17.661	-12.749	-11.333	-6.360	-23.912	-8.109	-8191	255	
3338.126	1	1	0	0	0.037338	0.17536	0.14035	0.20055	0.12015	0.21215	0.071911	0.16373	0.22451	0.17349	0.29986	0.15001	0.22838	0.060953	0.050093	0.054145	-2.1167	-2.6333	-2.7562	-2.4896	-3.0292	-2.8063	-2.8625	-3.1375	-2.6437	-3.025	-2.8167	-2.5875	-2.8646	-2.7792	-2.6729	-3.0458	245.238	164.716	-20.778	53.535	44.203	218.254	261.244	309.022	116.011	211.089	136.653	266.422	34.013	251.136	129.807	97.040	0.00016371	0.00050658	0.00051902	364.62	1.4884e-05	1.5928e-06	442.41	121.24	1.6393e-05	1.1676e-05	177.29	65.806	46.495	17.515	1.8007e-05	30.776	0.006793	0.0071427	0.0019288	882.64	8.5482e-05	8.283e-05	650.98	207.36	8.8059e-05	8.6513e-05	419.31	107.51	88.042	30.735	8.9968e-05	50.966	54.646	39.458	267.246	-20.746	18.193	18.915	-21.557	-14.950	81.050	88.183	-17.008	-12.258	-11.774	-6.024	119.947	-8.205	-8191	255	
3338.247	1	1	0	0	0.31581	0.043303	0.034024	0.12372	0.09439	0.13799	0.18937	0.099063	0.056033	0.015601	0.091656	0.21928	0.072908	0.16	0.036686	0.063842	-2.3146	-2.8438	-3.1	-2.7	-2.8771	-2.6083	-2.3958	-2.7562	-2.7375	-2.6604	-3.0271	-2.8958	-3.0125	-2.9708	-2.4917	-2.7708	145.465	85.523	67.960	204.569	33.978	29.493	35.044	11.647	162.152	213.177	311.876	147.148	41.374	181.441	279.412	-24.395	0.00011075	0.0012919	0.00020074	364.21	2.0268e-05	1.4665e-05	442.59	120.51	1.4604e-05	1.1975e-05	172.66	65.426	46.386	17.41	1.6726e-05	30.234	0.008447	0.0089238	0.0024499	1028.8	0.00010433	0.00010096	698.96	227.33	0.00010759	0.00010659	486.97	117.52	97.227	33.788	0.00011836	56.23	91.140	317.114	137.100	-20.506	38.265	296.106	-21.835	-14.805	-17.961	154.813	-16.776	-12.704	-11.526	-6.465	161.754	-8.326	-8191	255	
3338.319	1	1	0	0	0.26748	0.20052	0.19294	0.26806	0.095755	0.20675	0.27935	0.30301	0.12124	0.17999	0.12238	0.19235	0.18517	0.15991	0.084893	0.088906	-2.1417	-2.7333	-2.9708	-2.6375	-2.6667	-2.8438	-2.8229	-3.075	-2.8375	-2.5896	-2.8979	-2.5812	-2.7	-2.9229	-2.5312	-2.9104	229.595	237.514	2.541	303.825	182.901	118.363	218.953	194.480	-1.958	311.283	168.656	2.644	-21.430	74.105	180.153	190.424	0.00063438	0.0010931	0.00088012	371.68	1.0216e-05	8.4236e-06	445.48	119.12	9.8365e-06	4.583e-06	170.9	64.679	45.478	17.393	3.6915e-05	30.193	0.010689	0.01134	0.0032722	1231.4	0.00013409	0.00013006	783.95	254.74	0.00013656	0.00013363	573.67	126.84	105.43	36.203	0.00014416	59.341	42.795	39.138	85.618	-21.347	250.092	126.507	-21.853	-15.157	311.370	269.746	-16.780	-12.520	-10.833	-6.405	204.590	-8.546	-8191	255	
3338.413	1	1	0	0	0.22115	0.28621	0.058532	0.35033	0.15145	0.138	0.031932	0.1605	0.19645	0.1162	0.20529	0.12508	0.15595	0.30819	0.24072	0.11928	-2.1458	-2.6688	-2.85	-2.55	-2.9188	-2.9479	-2.825	-2.9917	-2.8417	-2.8208	-3.1	-2.7562	-2.6333	-2.9125	-2.3583	-2.7896	168.617	169.194	50.345	304.941	156.571	-8.472	94.909	215.667	173.248	257.467	62.585	296.027	321.692	-17.418	170.411	86.582	0.00031863	0.00057593	0.00059832	372.56	1.2998e-05	1.3636e-05	446.39	119.19	2.3541e-05	2.619e-05	172.18	63.784	45.58	17.223	1.5202e-05	30.13	0.01191	0.01247	0.0036965	1276.9	0.00013946	0.00013435	800.37	252.92	0.00013404	0.00013204	576.2	123.47	102.27	35.438	0.00013943	56.867	48.285	304.961	143.108	-21.042	111.780	-33.380	-22.292	-15.499	298.007	183.480	-17.680	-12.613	-11.056	-6.254	120.932	-8.633	-8191	255	
3338.509	1	1	0	0	0.092147	0.13404	0.044437	0.20971	0.15791	0.0045205	0.17812	0.11676	0.26181	0.32003	0.13757	0.17981	0.095324	0.2953	0.12664	0.14937	-2.4083	-2.4292	-2.925	-2.5625	-2.7479	-2.9542	-2.6875	-3.0292	-2.9292	-2.5125	-3.0146	-2.5958	-2.3396	-2.9104	-2.5604	-2.9083	316.591	61.019	287.337	215.118	91.898	318.202	222.108	154.281	197.565	-22.051	169.664	-29.872	240.136	279.575	-21.857	-21.442	0.00030195	0.00092282	0.00011385	367.11	5.4205e-06	1.9784e-05	448.13	121.39	2.0587e-05	2.2491e-05	176.64	65.186	46.865	17.456	1.801e-05	30.761	0.010838	0.011685	0.0034635	1177	0.00012244	0.00012212	765.62	238.26	0.00011518	0.00011931	531.92	117.04	95.183	33.758	0.00011755	53.188	143.101	69.991	300.809	-21.759	-3.171	198.287	-22.189	-15.159	267.140	209.063	-17.266	-12.921	-11.420	-5.873	3.525	-8.399	-8191	255	
3338.630	1	1	0	0	0.17492	0.15319	0.13806	0.28278	0.28378	0.042503	0.058943	0.091625	0.10552	0.1139	0.30775	0.34185	0.12972	0.21507	0.12589	0.13882	-2.4792	-2.3688	-2.7583	-2.8125	-2.5646	-3.0417	-2.6688	-2.9354	-3.1479	-2.9229	-3.1771	-2.8083	-2.6771	-2.9875	-2.6312	-2.8146	90.834	-0.262	218.615	5.904	133.175	199.353	182.495	136.489	277.809	-32.977	43.314	325.212	28.098	94.612	165.018	314.677	0.00032824	0.0012923	0.00029169	367.22	1.5195e-05	3.0976e-06	450	122	3.4791e-06	2.2498e-05	175.73	66.379	46.832	17.618	6.83e-06	30.79	0.0089465	0.010136	0.0029072	1046	0.00010342	0.00010939	726.8	224.61	0.0001011	0.00011011	494.01	112.96	91.392	33.281	0.00010849	51.994	92.278	168.196	-10.786	-21.459	119.321	46.895	-22.147	-15.162	230.208	220.730	-17.932	-12.920	-10.881	-6.186	283.658	-8.337	-8191	255	
3338.726	1	1	0	0	0.30934	0.19528	0.1075	0.13492	0.30185	0.28216	0.11236	0.16837	0.16306	0.27748	0.097714	0.08275	0.14675	0.24575	0.099042	0.20753	-2.3854	-2.4958	-2.5979	-2.8354	-2.6646	-2.8688	-2.6375	-2.5521	-2.8792	-2.6375	-2.7	-2.9083	-2.8292	-3.1	-2.7229	-2.6833	33.629	234.160	12.884	325.925	201.966	79.982	85.555	125.781	-30.463	122.125	212.042	-8.170	-31.490	21.840	108.488	319.917	0.00044681	0.0011983	0.00043322	365.49	1.8009e-05	7.2477e-06	446.56	120.08	2.3987e-05	1.5209e-05	176.94	65.257	46.327	17.531	3.454e-06	30.409	0.0086588	0.010239	0.0028233	1033.2	0.00010541	0.00011608	733.04	227.78	0.00011025	0.00012159	512.37	114.8	95.818	34.856	0.00011869	53.51	106.897	221.361	-2.769	-21.351	144.660	28.176	-22.019	-14.832	239.780	170.402	-18.748	-13.129	-11.434	-6.710	13.794	-8.875	-8191	255	
3338.822	1	1	0	0	0.14541	0.25368	0.097626	0.14854	0.17293	0.046591	0.15795	0.15586	0.17204	0.28934	0.074538	0.041994	0.13988	0.061671	0.21403	0.14698	-2.5354	-2.4271	-2.7104	-2.9292	-2.625	-2.9938	-2.6875	-2.5979	-3.0625	-2.7021	-2.9896	-3.125	-2.7687	-3.0333	-3.0687	-2.7938	308.671	180.401	250.837	73.980	49.018	169.716	203.018	153.004	20.810	46.541	293.230	303.108	85.766	28.185	287.811	-22.615	0.00045157	0.0013903	0.00044553	364.27	2.4308e-05	8.2155e-06	448.67	120.07	3.1343e-05	2.7489e-06	172.8	64.113	45.14	17.21	1.3751e-05	29.512	0.0097675	0.011235	0.0029756	1060.3	0.00011463	0.00011996	728.7	223.73	0.00011192	0.00011859	495.93	111.33	94.705	33.56	0.00011049	51.138	67.084	126.483	306.327	-21.807	176.592	315.415	-21.968	-14.848	178.603	278.614	-16.986	-13.198	-11.085	-6.466	234.113	-8.457	-8191	255	
3338.894	1	1	0	0	0.23235	0.011434	0.2196	0.23764	0.28546	0.19892	0.073863	0.15633	0.096247	0.052372	0.273	0.22137	0.26555	0.098335	0.15956	0.22762	-2.4521	-2.5208	-2.7188	-2.6979	-2.5667	-2.9521	-3.0708	-2.8458	-3.2208	-2.7792	-2.7313	-3.0708	-2.5833	-3.0042	-2.7771	-2.375	126.109	197.811	317.123	191.157	207.435	315.468	62.776	15.234	189.391	200.792	-10.978	-23.675	128.925	298.929	158.598	208.833	0.00036028	0.0010154	0.00069778	361.95	1.986e-05	8.638e-06	441.93	117.24	2.106e-05	9.2354e-06	171.68	62.572	44.97	17.029	2.3635e-05	29.469	0.0095171	0.010459	0.0027728	1009.9	0.00011058	0.00011001	704.18	216.28	0.00010919	0.00011029	475.85	108.66	94.145	32.921	0.0001084	51.376	104.485	199.531	50.535	-22.378	183.310	80.833	-21.966	-15.052	137.017	52.371	-17.449	-12.477	-11.141	-6.362	-16.778	-8.501	-8191	255	
3339.014	1	1	0	0	0.14158	0.13486	0.10487	0.31724	0.21568	0.12643	0.124	0.11063	0.1802	0.14944	0.073265	0.084739	0.13089	0.15632	0.10439	0.048287	-2.4188	-2.4562	-2.6458	-2.7771	-2.4979	-2.6542	-2.6417	-2.3104	-2.8937	-2.6604	-2.5042	-2.9375	-2.5312	-2.6437	-2.7979	-2.6542	302.495	227.869	246.346	324.638	165.548	90.188	77.867	231.058	143.122	144.101	10.465	187.525	69.117	240.662	268.088	54.081	0.00015053	0.00029393	0.00065682	361.86	1.4178e-05	1.3828e-05	441.46	115.91	2.6283e-05	1.6399e-05	170.21	62.752	44.856	17.099	1.4902e-05	29.415	0.0099805	0.010581	0.002844	1061.1	0.00012079	0.00011736	721.13	226.68	0.00012054	0.00011641	486.82	112.28	95.673	32.862	0.00010477	51.729	107.650	34.091	321.635	-21.415	142.858	119.959	-21.993	-14.769	54.585	260.437	-17.467	-12.317	-11.274	-6.567	220.956	-8.489	-8191	255	
3339.111	1	1	0	0	0.12123	0.16103	0.10041	0.088103	0.16189	0.25857	0.29252	0.19919	0.057988	0.049464	0.21982	0.31264	0.26341	0.1537	0.17016	0.16246	-2.4333	-2.6688	-2.6125	-2.9188	-2.7083	-2.9688	-3.15	-2.6875	-3.0229	-2.8688	-2.5646	-3.0792	-2.6208	-2.9688	-3.0354	-2.7104	309.021	166.304	303.037	292.133	16.545	277.022	294.425	136.550	165.340	181.479	222.900	269.193	16.153	231.660	148.901	200.897	0.00035968	0.0022586	0.00046128	357.48	1.7396e-06	5.8666e-06	440.09	116.85	2.1986e-05	1.736e-05	170.55	63.019	44.495	16.968	1.3859e-05	29.257	0.0095742	0.0098987	0.0026491	1051.9	0.0001142	0.00011141	710.21	228.3	0.00011845	0.00011569	491.77	115.2	97.033	33.391	0.00011248	53.915	184.043	40.207	-13.697	-20.705	18.776	125.962	-22.063	-14.693	69.348	61.987	-17.501	-12.660	-11.497	-6.249	260.465	-8.375	-8191	255	
3339.207	1	1	0	0	0.20816	0.13222	0.3996	0.10425	0.13331	0.21205	0.2943	0.22428	0.17212	0.22436	0.12403	0.2468	0.189	0.091976	0.051754	0.30311	-2.3104	-2.8063	-2.4875	-3.0354	-2.9333	-2.8271	-3.05	-2.85	-2.8375	-2.9479	-2.7417	-3.1146	-2.8979	-2.7896	-3.1604	-2.7479	281.034	81.358	209.186	287.288	57.775	19.221	124.962	292.824	160.182	-24.879	81.651	68.908	75.861	163.188	261.383	-14.786	0.00036621	0.0016187	0.00042154	360.25	2.5711e-05	1.9583e-05	437.57	114.79	8.1609e-06	1.7768e-06	168.74	62.046	43.57	16.497	3.8765e-05	28.665	0.010385	0.010729	0.0029218	1133	0.00012124	0.00011697	726.65	235.35	0.00012189	0.00011918	511.62	117.79	97.871	33.692	0.00012283	55.055	44.795	81.100	95.919	-20.465	101.593	45.008	-21.942	-15.294	17.763	0.910	-17.166	-13.228	-11.905	-6.526	216.127	-8.389	-8191	255	
3339.327	1	1	0	0	0.17389	0.292	0.03888	0.003032	0.39509	0.023728	0.011518	0.25908	0.12172	0.099711	0.21464	0.0059453	0.15481	0.31825	0.16964	0.14183	-2.6167	-2.8271	-2.7229	-3.0896	-2.7958	-2.6667	-2.9604	-2.8	-2.8812	-2.9938	-2.5563	-3.1229	-2.7188	-2.8	-3.0521	-2.6813	305.374	242.506	216.406	198.395	267.596	326.764	253.919	258.122	217.091	58.011	37.806	308.344	279.863	3.210	107.816	51.086	0.00031596	0.00059804	0.00056702	361.1	2.0791e-05	1.2757e-05	436.71	114.65	2.2841e-05	2.4297e-05	163.23	60.946	43.516	16.671	2.6101e-05	28.723	0.01084	0.011241	0.0032077	1186	0.00012597	0.00012136	743.52	238.23	0.00012243	0.00011807	520.24	116.18	95.301	32.725	0.00012041	53.342	14.527	262.768	78.141	-21.744	299.290	136.316	-22.009	-14.750	304.743	285.578	-17.116	-13.002	-11.636	-6.755	188.101	-8.792	-8191	255	
3339.424	1	1	0	0	0.28915	0.26371	0.19258	0.37123	0.18694	0.037079	0.13353	0.073617	0.16523	0.27581	0.28772	0.12644	0.16907	0.26766	0.087212	0.10245	-2.2979	-2.8604	-2.575	-2.8583	-2.6771	-2.5125	-2.9229	-2.6646	-2.7396	-2.9354	-2.5833	-2.9875	-2.8833	-2.7771	-3.075	-2.9583	309.662	133.981	260.336	70.676	74.548	193.889	280.656	51.215	64.820	130.413	303.541	88.591	-25.705	-21.039	260.218	153.908	0.00032432	0.0011201	0.00016433	361.19	1.1969e-05	2.9316e-06	435.16	115.17	1.072e-05	1.6739e-05	168.25	62.272	43.846	16.705	1.4655e-05	29.257	0.010018	0.010434	0.0031043	1123.5	0.00011688	0.00011352	739.35	231.53	0.00011652	0.0001148	524.38	115.9	95.663	33.566	0.00012925	54.759	190.960	206.748	119.222	-21.291	54.752	-20.733	-22.062	-15.403	21.700	254.639	-16.803	-12.972	-11.539	-5.967	288.377	-8.200	-8191	255	
3339.495	1	1	0	0	0.22932	0.048546	0.17465	0.10477	0.092682	0.10408	0.14052	0.097952	0.076923	0.1785	0.1524	0.034827	0.1842	0.12221	0.23933	0.032282	-2.3812	-3.0042	-2.5958	-2.7083	-2.8854	-2.6917	-3.1937	-2.6417	-2.4333	-3.0583	-2.6688	-2.9583	-2.9708	-2.7604	-2.9375	-2.6521	99.037	193.099	41.220	283.381	69.896	-15.545	314.937	240.764	317.627	42.358	-12.815	70.244	66.810	4.337	236.178	159.427	0.00066159	0.0048826	0.00018935	361.79	1.154e-05	9.0904e-06	441.46	115.36	2.0533e-05	3.2353e-05	168.77	62.685	43.936	16.924	1.1726e-05	29.228	0.010499	0.011321	0.0034487	1187.6	0.00012703	0.00012852	775.3	239.78	0.00012485	0.00012756	556.05	118.85	97.413	34.734	0.00013272	54.645	133.215	178.969	47.810	-21.893	305.046	135.134	-22.104	-14.481	69.355	226.138	-17.154	-12.840	-11.175	-6.063	114.328	-8.192	-8191	255	
3339.614	1	1	0	0	0.065533	0.085755	0.14106	0.17089	0.13248	0.22863	0.15048	0.085829	0.12332	0.21334	0.085218	0.082671	0.11982	0.25783	0.059938	0.0731	-2.2	-2.8417	-2.5146	-2.7208	-2.9604	-2.5396	-3.1937	-2.8083	-2.6354	-2.9188	-2.5146	-2.7646	-2.8833	-2.6271	-2.9708	-2.9188	113.247	88.181	124.008	21.967	257.905	76.530	-28.856	78.308	130.163	46.821	308.025	157.507	313.315	-31.872	195.929	43.148	0.00040341	0.0024899	0.000317	361.93	6.4254e-06	2.1456e-05	440.51	114.31	6.0935e-06	1.1535e-05	167.64	62.209	43.488	16.61	7.6772e-06	28.793	0.010315	0.011624	0.0033675	1145.8	0.00011924	0.00012699	758.04	232.41	0.00011617	0.00012376	522.62	113.27	92.429	33.66	0.00011999	51.966	89.436	199.765	79.045	-22.099	-27.615	205.555	-22.154	-15.233	28.579	271.937	-18.090	-12.678	-10.936	-6.039	-7.282	-8.414	-8191	255	
3339.710	1	1	0	0	0.18859	0.11712	0.15034	0.13934	0.28647	0.12241	0.24417	0.12924	0.068645	0.11845	0.11927	0.042947	0.14397	0.19109	0.26545	0.1016	-2.3438	-3.0646	-2.5792	-2.6417	-3.0083	-2.4813	-2.8896	-2.8917	-2.7917	-2.9708	-2.8792	-2.8771	-2.9229	-2.8979	-2.6333	-2.9354	-9.170	60.019	47.677	0.826	215.156	131.477	249.386	173.984	3.379	119.158	100.670	4.466	143.618	-16.539	-5.293	84.775	0.00036648	0.0019439	0.00033829	358.55	2.3703e-05	7.0838e-06	436.03	114.02	8.0867e-06	1.706e-05	166.09	61.288	42.97	16.552	2.5121e-05	28.651	0.0094366	0.010961	0.0030171	1066.5	0.00010892	0.00011757	718.24	218.1	0.00010644	0.00011613	489.4	108.42	89.936	32.781	0.00011063	50.027	104.797	137.707	-1.709	-22.176	253.456	95.163	-21.975	-15.213	200.506	170.332	-17.647	-12.652	-10.931	-5.947	-12.691	-8.635	-8191	255	
3339.806	1	1	0	0	0.20378	0.10438	0.18104	0.19236	0.029076	0.20518	0.021536	0.1167	0.19559	0.086298	0.020711	0.14238	0.052852	0.19625	0.20316	0.068465	-2.2021	-3.0833	-2.7062	-2.8187	-2.9062	-2.4667	-2.7708	-2.9271	-2.5812	-2.8729	-2.8604	-2.6729	-2.7583	-2.5229	-2.6312	-2.9833	202.022	174.971	66.439	162.379	14.928	-3.611	204.637	233.147	317.599	192.643	210.730	10.430	273.614	48.901	150.682	272.377	0.0005996	0.0011119	0.00071517	358.31	1.3892e-05	1.2353e-05	436.11	114	3.4935e-06	2.0153e-05	165.66	61.251	43.021	16.662	5.1619e-06	28.835	0.0091502	0.01055	0.0028185	1026	0.00010944	0.00011611	713.5	216.31	0.00011017	0.00011639	487.66	108.53	92.974	33.412	0.00011457	51.209	55.030	160.733	55.303	-21.896	230.948	136.182	-21.979	-15.597	155.377	-7.059	-16.776	-13.052	-10.444	-6.598	-4.987	-8.537	-8191	255	
3339.927	1	1	0	0	0.12628	0.054766	0.04619	0.16632	0.096641	0.12052	0.17781	0.1156	0.172	0.077328	0.2886	0.099208	0.093761	0.21949	0.089915	0.088373	-2.1479	-2.8542	-2.5687	-2.3458	-2.8521	-2.6458	-3.05	-2.8292	-2.675	-2.8083	-2.6604	-2.4979	-2.8271	-2.8792	-2.8063	-3.0312	-27.117	31.516	99.276	233.168	316.555	264.523	287.961	6.889	27.044	-6.640	305.749	-30.380	301.328	20.235	226.246	-17.789	0.00044631	0.0015516	0.00032549	357.59	1.9833e-05	1.8161e-05	440.19	113.99	3.2934e-05	2.2059e-05	166.37	61.876	43.344	16.931	2.6873e-05	29.155	0.010234	0.011521	0.0031149	1108	0.00012957	0.00013384	757.25	235.09	0.00013857	0.00014177	555.26	119.21	105.3	36.707	0.00013617	55.523	25.723	15.005	117.228	-22.525	217.081	109.776	-22.163	-15.068	113.435	-11.186	-18.200	-12.950	-11.041	-6.137	324.261	-8.206	-8191	255	
3340.023	1	1	0	0	0.31355	0.089522	0.10713	0.30682	0.11349	0.16717	0.093122	0.27379	0.034569	0.19869	0.22262	0.26618	0.32162	0.16446	0.18823	0.14954	-2.0979	-2.8312	-2.9562	-2.6542	-2.9708	-2.6813	-2.9667	-3.0833	-2.7646	-2.8563	-2.8583	-2.7396	-3.0812	-2.8854	-2.525	-2.9708	95.161	-6.523	97.149	34.328	164.864	50.703	113.257	264.037	230.182	282.933	299.726	2.236	-10.046	258.128	226.706	250.090	0.00062184	0.0026152	0.00043956	360.11	2.4223e-05	2.1261e-05	441.84	114.62	1.6456e-05	5.8425e-06	168.86	62.061	43.827	16.859	3.3517e-05	28.794	0.012076	0.012634	0.0033046	1162.3	0.00013551	0.00012998	745.47	232.15	0.0001303	0.0001271	513.47	115.89	100.6	34.63	0.00012266	54.426	109.672	262.197	73.971	-21.621	224.318	71.619	-21.981	-14.745	115.715	277.392	-17.905	-12.466	-11.335	-6.474	20.196	-8.293	-8191	255	
3340.119	1	1	0	0	0.44267	0.095739	0.1545	0.29092	0.14937	0.2071	0.15334	0.12296	0.14637	0.37604	0.14573	0.17333	0.33275	0.2643	0.17497	0.072098	-2.2104	-2.8229	-2.7562	-2.5292	-2.7938	-2.7042	-2.6542	-2.9104	-2.4854	-2.6479	-2.8021	-2.4896	-2.9896	-2.8417	-2.6208	-2.9604	-18.285	246.093	-5.870	41.698	307.126	132.662	-30.789	88.685	-24.411	325.620	307.637	69.340	-15.910	322.177	121.053	285.413	9.5341e-05	0.00066596	0.00046553	359	1.1635e-05	7.4372e-06	436.98	112.9	2.0945e-05	3.5663e-06	163.16	60.727	43.253	16.577	1.2392e-05	28.474	0.011489	0.012089	0.0032201	1185.4	0.00013588	0.00012915	738.49	235.38	0.00012866	0.00012292	494.01	113.36	94.953	32.464	0.00010744	51.407	16.206	223.955	52.129	-21.423	13.136	76.693	-21.928	-14.676	-25.463	257.173	-17.407	-12.823	-11.340	-6.913	-19.286	-8.387	-8191	255	
3340.191	1	1	0	0	0.084966	0.4049	0.11395	0.21334	0.20179	0.15584	0.19404	0.21358	0.22614	0.24509	0.23455	0.093873	0.066049	0.21338	0.08555	0.11427	-2.1521	-2.5479	-2.9042	-2.675	-2.95	-2.8667	-2.7271	-2.7958	-2.5583	-2.6125	-2.7167	-2.5729	-3.0812	-2.9708	-2.7375	-2.8167	135.157	315.902	242.516	304.772	107.902	276.231	112.375	186.986	143.925	311.737	121.434	207.114	71.009	229.763	224.090	171.537	0.00056272	0.0009163	0.00028554	353.16	1.2743e-05	1.2031e-05	433.1	113.78	3.7305e-05	2.1096e-05	164.73	61.432	43.868	16.81	2.5366e-05	28.889	0.0095022	0.0097941	0.0026068	1047	0.00010702	0.00010099	678.8	214.06	9.8423e-05	9.4822e-05	431.54	105.12	85.007	29.538	8.7347e-05	47.982	42.630	299.803	187.506	-21.150	299.676	59.030	-21.892	-14.736	100.050	57.116	-17.495	-12.825	-11.172	-6.308	163.042	-8.497	-8191	255	
3340.287	1	1	0	0	0.27145	0.29063	0.084037	0.17652	0.18574	0.13709	0.10944	0.38685	0.15199	0.26241	0.047947	0.30147	0.10459	0.1515	0.20885	0.20783	-2.2562	-2.5208	-2.9396	-2.4208	-2.8854	-3.0333	-2.5854	-2.9313	-2.4958	-2.5792	-2.9625	-2.7062	-2.8438	-2.9938	-2.2854	-2.9958	23.172	176.203	17.418	-31.796	39.903	158.951	208.915	256.024	150.346	247.146	15.357	9.256	203.302	253.844	290.333	293.698	0.00032185	0.0014175	0.00028092	359.05	1.7641e-05	3.9666e-06	431.54	115.09	5.3168e-06	1.6518e-05	166.63	61.868	44.009	16.806	1.9703e-05	28.993	0.0074384	0.0077275	0.0021679	930.42	8.8042e-05	8.528e-05	660.64	207.39	9.1004e-05	9.0894e-05	443.03	106.63	86.969	30.359	0.0001005	50.531	28.790	166.116	137.196	-22.270	193.008	91.765	-22.071	-15.085	-11.427	281.983	-17.194	-12.916	-10.962	-6.260	180.051	-8.350	-8191	255	
3340.406	1	1	0	0	0.10365	0.11086	0.1523	0.11345	0.22497	0.13799	0.064217	0.035328	0.15807	0.16012	0.079475	0.069019	0.2042	0.080058	0.050433	0.249	-2.3917	-2.6917	-3.0917	-2.7146	-2.7604	-2.8688	-2.5167	-2.9042	-2.8187	-2.6688	-2.6583	-2.625	-2.7167	-2.8125	-2.5104	-2.9313	218.342	150.187	78.580	6.912	-30.450	103.849	221.941	279.994	185.644	63.343	302.121	150.076	190.162	34.165	279.994	51.429	0.0002031	0.00053532	0.00078261	356.58	7.6643e-06	2.6773e-05	435.59	114.07	6.9135e-06	1.8569e-05	166.05	62.218	43.621	16.81	1.0298e-05	28.904	0.0087472	0.0093004	0.0028152	1069.7	0.00011079	0.0001079	730.79	230.61	0.00011826	0.00011827	531.86	116.86	96.551	33.515	0.00012922	54.353	63.566	295.320	131.319	-21.085	289.388	138.677	-21.812	-15.280	211.550	130.043	-15.910	-13.043	-11.243	-6.127	185.678	-8.658	-8191	255	
3340.502	1	1	0	0	0.14103	0.15011	0.085166	0.16537	0.10948	0.1511	0.11462	0.14956	0.11317	0.22653	0.28695	0.2797	0.16716	0.09661	0.092606	0.10551	-2.5563	-2.6458	-3.1271	-2.6312	-2.4167	-2.9417	-2.6729	-3.0563	-3.0146	-2.4458	-2.9313	-2.7125	-2.6792	-3.0687	-2.6729	-2.8812	102.636	215.911	259.238	180.281	126.137	273.383	110.124	229.579	259.704	305.772	300.531	217.059	292.425	233.452	139.743	185.727	0.00030869	0.0017176	0.00055886	363.81	1.1559e-05	1.9836e-05	438.88	113.42	4.5075e-06	1.5343e-05	165.38	60.748	43.06	16.454	8.3313e-06	28.396	0.010441	0.011314	0.0034159	1180.6	0.00012662	0.00012613	765.9	236.5	0.00012151	0.00012398	537.47	113.91	93.339	32.912	0.00012133	51.431	298.372	181.000	129.313	-21.432	9.035	199.172	-21.805	-15.069	142.409	236.255	-17.289	-12.894	-11.788	-6.015	-25.365	-8.382	-8191	255	
3340.598	1	1	0	0	0.034395	0.29468	0.16677	0.066076	0.081804	0.15268	0.08937	0.06597	0.041438	0.2681	0.16432	0.19637	0.084215	0.18604	0.26224	0.14929	-2.3646	-2.6771	-2.8729	-2.8396	-2.6792	-3.0812	-2.6146	-2.6688	-3.05	-2.5667	-3.0083	-2.9	-2.4917	-3.0417	-2.7167	-2.8146	91.874	20.823	-31.219	108.575	209.159	196.988	-8.101	133.757	291.937	317.225	155.090	272.813	271.436	231.913	188.238	166.554	0.0003682	0.0010826	0.00022468	360.9	7.3475e-06	2.7725e-05	433.59	114.16	1.3522e-05	8.3602e-06	163.62	61.175	43.322	16.571	5.0211e-06	28.751	0.00914	0.01019	0.0029305	1034.4	0.00010254	0.00010634	702.46	212.61	9.5367e-05	0.0001019	457.87	103.89	84.038	30.675	9.8066e-05	47.969	76.785	152.766	185.895	-22.138	-3.212	233.892	-21.806	-15.129	152.901	150.953	-18.166	-12.492	-11.092	-5.823	181.879	-8.650	-8191	255	
3340.719	1	1	0	0	0.027335	0.15285	0.37233	0.19021	0.11296	0.090109	0.16271	0.19393	0.080676	0.12153	0.27882	0.14737	0.039103	0.084157	0.2453	0.071276	-2.4229	-2.5563	-3.1917	-2.8	-2.4583	-3.0167	-2.8187	-2.5521	-3.0563	-2.5854	-3.05	-2.8854	-2.6813	-3.0062	-2.6	-2.7396	230.374	24.780	-13.511	181.776	311.165	97.603	207.323	33.412	-0.061	276.604	89.973	11.145	167.254	208.376	304.120	208.636	0.00030344	0.00071166	0.00010612	359.56	8.0229e-06	8.9383e-06	431.54	114.98	1.5756e-05	1.0292e-05	166.62	61.704	43.587	16.65	8.186e-06	28.78	0.0076125	0.0088582	0.0024375	926.21	8.7546e-05	9.378e-05	662.06	199.31	8.2934e-05	9.1093e-05	420.48	99.331	80.405	29.343	8.4486e-05	45.875	96.785	36.259	-7.245	-21.579	98.128	167.218	-22.278	-15.008	226.828	153.201	-17.505	-12.493	-10.736	-5.967	288.014	-8.445	-8191	255	
3340.791	1	1	0	0	0.20289	0.30557	0.2014	0.13159	0.32329	0.08639	0.14233	0.046154	0.10376	0.065955	0.10814	0.15496	0.21619	0.037704	0.15542	0.3129	-2.6917	-2.7333	-2.4813	-2.8292	-2.5938	-3.075	-2.9104	-2.5792	-3.0812	-2.4896	-2.6125	-2.9625	-2.4062	-3.0729	-2.8771	-2.5542	59.156	319.684	25.386	239.656	278.465	-18.935	228.826	47.953	171.966	323.033	59.592	61.326	117.340	27.549	8.301	281.660	0.00052053	0.00041048	8.9227e-05	357.22	1.2546e-05	3.4813e-06	430.09	114.78	1.3152e-05	5.0981e-06	166.79	61.548	43.497	16.533	1.8659e-05	28.66	0.0069422	0.0080563	0.0021622	862.91	8.2341e-05	8.6944e-05	643.97	193.12	7.9782e-05	8.4945e-05	401.78	96.936	79.65	28.839	8.0382e-05	45.057	90.445	256.237	246.050	-21.986	153.904	118.565	-21.842	-14.895	204.217	-2.265	-17.528	-12.621	-10.889	-6.004	19.156	-8.477	-8191	255	
3340.887	1	1	0	0	0.25718	0.086387	0.10194	0.11248	0.17267	0.25434	0.35318	0.3075	0.11468	0.14715	0.074829	0.34302	0.022283	0.2299	0.063486	0.27127	-2.5208	-2.5625	-2.7542	-2.9792	-2.6146	-2.9354	-2.7667	-2.4521	-2.6771	-2.5187	-2.8312	-3.1063	-2.6875	-2.9333	-2.675	-2.6646	174.644	272.550	253.049	211.179	23.323	318.073	293.657	194.983	125.270	213.856	269.176	319.138	186.396	29.566	28.360	297.305	0.00038161	0.00040925	0.00024468	349.56	1.1246e-05	7.0865e-06	431.7	114.5	1.4614e-05	2.0999e-05	166.34	61.796	43.387	16.501	8.9962e-06	28.676	0.0069291	0.0076991	0.0020544	842.21	8.3946e-05	8.6495e-05	644.13	195.68	8.776e-05	8.9614e-05	415.8	99.184	83.4	29.341	8.4809e-05	46.105	101.292	116.606	268.594	-21.556	137.806	163.523	-21.949	-14.797	185.740	122.474	-16.636	-12.395	-11.027	-6.444	81.763	-8.437	-8191	255	
3341.007	1	1	0	0	0.11431	0.16206	0.13564	0.15934	0.11775	0.20923	0.18621	0.20029	0.29365	0.23348	0.069016	0.22138	0.041801	0.11077	0.22805	0.12332	-2.4396	-2.6625	-2.6583	-2.8854	-2.5875	-2.9062	-2.9958	-2.5729	-2.7396	-2.6167	-2.4271	-2.725	-2.6292	-2.8187	-2.8958	-2.5854	142.401	200.839	142.038	225.721	-26.577	292.961	181.683	217.541	48.996	67.695	197.876	255.931	127.093	296.822	87.382	-2.644	0.0003985	0.0010736	0.00026412	355.64	5.512e-06	1.442e-05	431.12	114.3	1.2485e-05	1.2241e-05	166.65	62.029	43.932	16.599	9.7416e-06	28.813	0.0076187	0.0080231	0.0021531	878.61	8.9971e-05	8.7582e-05	645.11	198.78	8.9744e-05	8.7845e-05	413.43	101	84.736	29.54	8.4933e-05	47.364	35.450	-1.102	224.338	-21.256	150.245	134.338	-21.988	-14.959	98.247	78.927	-17.901	-12.232	-11.081	-6.195	23.509	-8.473	-8191	255	
3341.104	1	1	0	0	0.086459	0.26503	0.16562	0.31208	0.16283	0.22973	0.053842	0.048948	0.040985	0.12157	0.2349	0.1294	0.20953	0.50277	0.2034	0.186	-2.4833	-2.6708	-2.8	-2.8312	-2.7062	-2.8146	-2.9875	-2.5667	-3.0396	-2.7104	-2.5833	-2.9062	-2.5229	-2.7812	-3.175	-2.8729	232.359	-0.632	281.822	-19.778	58.394	284.133	158.167	-17.600	35.270	201.704	273.547	263.903	297.933	291.546	269.782	175.811	0.00056041	0.0019001	0.00056562	358.7	2.7224e-05	1.0713e-05	431.67	115.86	8.8224e-06	7.0962e-06	170.33	63.024	44.716	17.036	1.212e-05	29.245	0.0079649	0.008322	0.0022378	930.68	9.4952e-05	9.1694e-05	656.43	207.38	9.4422e-05	9.0983e-05	420.61	104.03	85.026	29.611	8.3501e-05	47.879	100.397	303.650	285.358	-19.956	79.788	12.004	-22.234	-14.733	288.111	144.783	-19.163	-12.538	-11.451	-6.289	173.604	-8.292	-8191	255	
3341.200	1	1	0	0	0.13587	0.14127	0.25532	0.25903	0.16585	0.055365	0.12768	0.25128	0.12756	0.25474	0.18951	0.20614	0.060927	0.21774	0.27014	0.28651	-2.6833	-2.8708	-2.5604	-2.8167	-2.5375	-2.6312	-3.0667	-2.8187	-2.9583	-2.9625	-2.5563	-2.8479	-2.7687	-2.8729	-2.7479	-2.6896	321.843	287.769	154.592	4.552	246.047	300.249	134.770	-21.979	147.504	40.479	232.282	317.786	125.534	314.464	301.787	223.680	0.00040966	0.0010854	0.00037763	357.14	1.1966e-05	7.5619e-06	432.38	116.78	1.4288e-06	4.2713e-06	171.77	64.109	45.204	16.944	1.1846e-05	29.732	0.0075705	0.0078071	0.0021066	908.62	8.5206e-05	8.0384e-05	632.94	198.22	7.8104e-05	7.4309e-05	385.3	100.13	79.064	27.651	6.9638e-05	45.63	41.957	28.435	100.492	-20.148	44.665	60.219	-21.632	-14.821	132.768	68.427	-17.056	-12.463	-11.553	-6.173	224.032	-8.433	-8191	255	
3341.296	1	1	0	0	0.071567	0.12958	0.089684	0.25766	0.13203	0.075444	0.13274	0.079742	0.22741	0.12464	0.1639	0.08139	0.041528	0.18334	0.15165	0.22488	-2.4646	-2.9	-2.525	-3.0854	-2.5438	-2.7854	-2.9458	-2.7313	-2.9604	-2.7896	-2.6167	-2.8208	-2.6562	-2.7229	-3.1354	-2.6292	303.909	225.409	304.565	173.477	165.752	138.117	260.387	124.032	240.081	46.792	-27.033	31.046	129.758	183.443	152.764	9.811	0.00037369	0.00062089	0.00024117	352.31	6.0983e-06	1.4351e-05	432.87	118.91	1.4137e-05	3.1411e-06	171.49	64.108	45.612	16.923	1.5103e-05	29.581	0.0060302	0.0061856	0.0017429	815.17	6.9431e-05	6.7149e-05	616.35	192.74	7.0134e-05	6.7843e-05	378.55	98.213	77.21	27.083	7.0678e-05	45.182	96.445	246.652	194.197	-21.259	78.379	48.369	-21.833	-15.275	43.067	43.323	-17.533	-12.572	-11.048	-6.560	188.132	-8.150	-8191	255	
3341.415	1	1	0	0	0.28784	0.13325	0.30234	0.15959	0.10039	0.2287	0.13551	0.11854	0.076849	0.30448	0.015475	0.2774	0.1884	0.089321	0.13656	0.07566	-2.2438	-2.6125	-2.4313	-2.8563	-2.8604	-2.6542	-2.85	-2.6771	-2.65	-2.8354	-2.5583	-3.0375	-2.9917	-2.6083	-2.9167	-2.6688	58.374	-10.774	67.738	134.386	25.647	311.588	271.979	43.073	124.650	22.677	12.939	304.330	158.561	285.826	185.410	180.463	0.00024365	0.0013555	0.00022918	354.21	1.2467e-05	6.9663e-06	434.31	119.92	9.0175e-06	1.003e-05	174.02	64.109	45.127	17.014	1.4313e-05	29.646	0.0059291	0.0060932	0.0018222	818	6.9653e-05	6.7873e-05	626.35	193.36	7.0154e-05	6.861e-05	387.63	98.107	77.079	27.349	7.4059e-05	45.185	112.583	40.791	-29.832	-21.101	11.212	286.442	-21.597	-14.971	149.651	279.278	-17.306	-12.804	-11.261	-5.890	174.523	-8.587	-8191	255	
3341.486	1	1	0	0	0.26833	0.14643	0.11479	0.21742	0.13337	0.16359	0.12246	0.12067	0.15746	0.41111	0.30529	0.076726	0.14285	0.23843	0.14245	0.10161	-2.3229	-2.8417	-2.8438	-2.7229	-2.8271	-2.5604	-3.1354	-2.9062	-2.5146	-2.9417	-2.5604	-2.7188	-2.875	-2.6667	-3.0333	-2.6854	113.794	221.420	324.408	115.486	-22.933	10.127	218.932	324.580	322.521	61.605	76.960	283.526	51.308	289.725	124.188	306.548	0.00026964	0.00075295	0.00069285	357.45	6.7946e-06	5.5915e-06	431.17	118.76	1.4333e-05	6.1914e-06	173.77	64.63	45.706	17.125	1.4724e-05	29.665	0.0059433	0.0063007	0.001889	812.33	6.7695e-05	6.8237e-05	625.62	190	6.652e-05	6.7513e-05	384.08	96.667	75.728	27.387	7.1972e-05	44.49	69.689	223.537	104.018	-20.733	-25.088	-8.342	-21.740	-15.089	95.898	218.154	-17.515	-12.572	-11.053	-5.964	38.904	-8.271	-8191	255	
3341.583	1	1	0	0	0.16337	0.42912	0.20635	0.24266	0.066182	0.14396	0.13849	0.14048	0.2037	0.30964	0.1747	0.084429	0.035571	0.043661	0.14116	0.23479	-2.0292	-3.0167	-2.5958	-2.8625	-2.85	-2.6562	-3.05	-2.8333	-2.6312	-2.9062	-2.5521	-2.6271	-2.8937	-2.65	-2.925	-2.8708	193.966	-1.221	99.317	319.533	149.848	-17.514	269.069	-26.482	188.502	263.335	80.828	7.697	-9.289	-3.407	257.116	37.764	0.00022724	0.001499	0.00037198	355.03	8.9919e-06	1.6781e-05	432.17	119.53	9.3405e-06	1.4522e-05	175	64.452	45.638	17.032	6.4115e-06	29.642	0.0056523	0.0063021	0.0018495	796.19	6.5694e-05	6.837e-05	619.94	186.83	6.3078e-05	6.7736e-05	376.35	95.896	74.741	27.381	6.8793e-05	43.983	188.361	106.832	-7.680	-20.631	88.197	216.121	-21.549	-15.165	-2.413	149.474	-18.058	-12.740	-10.775	-5.697	70.618	-8.389	-8191	255	
3341.703	1	1	0	0	0.09525	0.23747	0.21617	0.14402	0.048068	0.075943	0.20013	0.058544	0.13365	0.16824	0.23091	0.084412	0.15847	0.15179	0.10576	0.10993	-2.2375	-2.9083	-2.5958	-2.5563	-2.8854	-2.8271	-2.8438	-2.8187	-2.6583	-3.0979	-2.7708	-2.5104	-3.0354	-2.775	-3.0312	-3.0812	152.197	324.334	-11.751	66.488	136.034	56.323	40.642	201.210	275.073	173.932	248.876	237.602	246.869	272.846	-5.991	-9.904	0.00045058	0.0020735	0.00023567	358.17	1.5022e-05	1.315e-05	432.74	119.49	7.7974e-06	7.7838e-06	172.33	63.72	44.986	16.709	1.1062e-05	29.201	0.0054532	0.0063281	0.0017579	778.9	6.4012e-05	7.0112e-05	616.87	186.82	6.4988e-05	7.1507e-05	375.31	95.344	75.538	27.734	7.2377e-05	44.045	106.554	104.261	313.375	-21.605	143.660	178.948	-21.588	-15.054	259.291	116.126	-17.920	-12.599	-11.072	-5.996	77.617	-8.503	-8191	255	
3341.799	1	1	0	0	0.25669	0.17622	0.17179	0.097707	0.1937	0.14038	0.16447	0.1023	0.11584	0.16555	0.038929	0.16091	0.22341	0.17149	0.17267	0.099812	-1.9688	-3.0187	-2.8979	-2.5625	-3.025	-2.6417	-3.0062	-2.8667	-2.65	-3.0625	-2.6375	-2.5438	-3.1604	-2.6417	-2.9854	-2.75	248.119	1.516	222.705	28.462	280.678	19.310	266.746	141.033	160.749	248.829	174.808	162.390	75.880	306.979	234.927	49.523	0.00027728	0.00020573	0.00025659	351.97	1.3588e-05	4.9883e-06	431.08	117.61	3.0556e-06	4.3154e-06	172.71	62.52	44.587	16.705	4.3718e-06	29.205	0.0060656	0.0071033	0.001926	822.18	7.5257e-05	8.1772e-05	637.33	193.79	8.0222e-05	8.6983e-05	414.81	100.44	83.054	29.907	8.7702e-05	46.643	109.553	77.331	303.166	-21.050	159.695	44.060	-21.745	-15.024	167.464	266.226	-18.054	-12.358	-10.938	-6.391	-22.198	-8.600	-8191	255	
3341.895	1	1	0	0	0.16508	0.21901	0.15154	0.065008	0.23119	0.054059	0.3605	0.037878	0.016026	0.083165	0.37682	0.083233	0.090951	0.12335	0.15479	0.32132	-2.2167	-2.9771	-2.8271	-2.7479	-2.7979	-2.6479	-2.8896	-2.9458	-2.6354	-3.0354	-2.9979	-2.6979	-2.825	-2.5812	-2.5938	-3.1188	-23.031	35.486	69.560	121.746	8.412	57.977	223.530	171.476	208.164	91.692	94.591	205.575	-22.528	182.339	30.098	308.403	0.00049591	0.0018307	0.00016225	350.6	2.5613e-05	1.4208e-05	433.1	116.51	2.6759e-05	8.622e-06	172.45	63.334	44.708	17.015	4.2672e-06	29.331	0.007631	0.0084974	0.0022481	892.08	8.9816e-05	9.1281e-05	656.58	199.96	8.9703e-05	9.1797e-05	424.05	102.11	85.529	30.114	8.7457e-05	47.137	131.818	101.470	43.818	-21.381	146.616	62.121	-21.918	-14.920	211.844	123.445	-17.962	-12.524	-10.879	-6.286	105.591	-8.121	-8191	255	
3342.016	1	1	0	0	0.059699	0.11685	0.19761	0.10635	0.11127	0.27511	0.22727	0.16612	0.13533	0.28393	0.44483	0.34683	0.23084	0.22095	0.12241	0.11284	-2.2833	-2.9479	-2.8417	-2.5083	-2.7917	-2.4917	-2.7604	-2.9604	-2.5292	-2.6833	-2.825	-2.6396	-3.1271	-2.7167	-2.6042	-2.9729	205.990	317.837	224.628	94.071	1.767	142.316	186.494	45.348	-31.680	-15.628	178.807	217.515	66.295	129.911	-0.349	39.652	0.00034823	0.0022351	0.0003455	353.56	1.1633e-05	6.9969e-06	436.2	116.63	1.3297e-05	1.3475e-05	169.57	63.709	44.6	16.836	4.1692e-06	29.201	0.0078872	0.0083952	0.0022301	902.28	9.3031e-05	9.0896e-05	656.83	201.82	9.0295e-05	8.6822e-05	404.97	100.44	82.563	28.575	7.73e-05	45.787	122.227	-9.665	-10.913	-21.624	90.565	22.163	-22.013	-15.180	41.982	78.770	-18.254	-11.957	-11.522	-6.189	232.609	-8.245	-8191	255	
3342.088	1	1	0	0	0.33123	0.26314	0.17118	0.19061	0.22102	0.12736	0.14363	0.21027	0.073914	0.38118	0.14022	0.17634	0.19465	0.21529	0.17475	0.11004	-2.1729	-2.875	-3.0396	-2.5979	-2.775	-2.7771	-2.7792	-3.0583	-2.8792	-2.7062	-2.9188	-2.5083	-2.7313	-2.6021	-2.5604	-3.0083	138.009	178.657	51.157	95.075	306.143	-13.044	113.580	313.389	246.502	80.999	315.107	168.056	294.423	-13.639	31.649	221.442	0.00011978	0.00095703	0.00041721	352.77	1.2717e-05	9.9839e-06	430.35	116.95	6.8986e-06	1.8226e-05	170.35	63.069	44.206	16.311	3.268e-06	28.609	0.0070157	0.0072331	0.00189	839.94	7.879e-05	7.443e-05	616.52	190.35	7.4592e-05	7.1898e-05	366.84	96.067	76.813	26.614	6.5782e-05	43.729	76.530	305.731	29.798	-20.877	37.401	252.293	-21.749	-14.664	-12.504	172.306	-17.830	-12.126	-11.289	-6.558	220.077	-8.313	-8191	255	
3342.184	1	1	0	0	0.32738	0.030111	0.16443	0.21858	0.11639	0.34264	0.31835	0.14157	0.15763	0.1476	0.13291	0.14982	0.11559	0.021385	0.28357	0.16765	-2.2625	-2.6875	-2.7021	-2.3812	-2.7896	-2.9417	-2.8208	-3.0292	-2.625	-2.725	-2.8563	-2.5771	-2.8312	-2.8708	-2.8292	-3.1437	69.339	55.970	-9.477	252.728	277.510	30.193	324.592	-11.065	100.982	137.124	252.547	131.928	231.018	165.607	144.710	181.147	0.00015568	0.0017346	0.00023785	349.75	9.7142e-06	4.662e-06	422.88	116.85	1.9923e-05	5.819e-06	170.04	62.931	44.356	16.494	4.47e-06	28.939	0.0059772	0.0061315	0.0016287	784.41	6.7156e-05	6.3724e-05	592.7	184.63	6.5299e-05	6.4085e-05	353.27	94.944	74.814	26.097	6.449e-05	43.892	14.386	80.618	313.454	-21.116	124.884	53.471	-21.876	-14.965	322.736	228.940	-16.744	-12.484	-11.116	-6.247	129.109	-8.060	-8191	255	
3342.280	1	1	0	0	0.16723	0.017806	0.11757	0.1904	0.13871	0.10938	0.051809	0.21006	0.10107	0.27734	0.46291	0.02253	0.14523	0.22018	0.07231	0.22258	-2.2042	-2.475	-2.975	-2.6437	-2.9875	-3.1188	-2.4458	-2.8688	-2.6521	-2.8667	-3.0354	-2.6708	-2.7354	-2.8937	-2.75	-3.0354	63.042	248.980	225.882	42.532	321.239	94.232	267.195	204.378	34.842	186.601	219.042	-7.226	110.041	-6.780	74.568	113.374	0.00031709	0.001374	3.5719e-05	348.43	1.107e-05	9.0883e-06	425.96	118.43	1.056e-05	2.4923e-06	170.28	63.731	44.526	16.783	2.2975e-05	29.362	0.0058276	0.0061437	0.0017435	824.02	7.2562e-05	7.0606e-05	621.3	196.31	7.5605e-05	7.4579e-05	393.48	100.49	79.539	27.712	8.0061e-05	46.609	37.801	98.229	89.675	-20.994	8.190	13.461	-22.053	-14.977	-18.412	179.986	-17.169	-12.340	-11.276	-6.173	202.432	-8.086	-8191	255	
3342.376	1	1	0	0	0.20102	0.132	0.13649	0.099761	0.20771	0.20814	0.20715	0.2643	0.12698	0.10615	0.062289	0.076348	0.28918	0.13101	0.15872	0.21989	-2.3542	-2.6937	-2.8875	-2.5583	-2.8333	-3.0604	-2.675	-2.8438	-2.7938	-2.8146	-3.0271	-2.6063	-2.6896	-2.9646	-2.6917	-2.9125	156.000	95.074	324.624	1.482	284.820	224.280	290.941	185.445	105.197	302.059	33.621	242.307	-20.715	252.601	325.287	64.895	0.00026369	0.00039801	0.00059475	350.58	5.1876e-06	1.0642e-05	429.74	116.49	5.3551e-06	5.9798e-06	169.5	63.407	44.933	16.522	1.3609e-05	29.277	0.0067837	0.0070582	0.0020933	881.86	8.0613e-05	7.7052e-05	643.69	199.22	7.765e-05	7.6704e-05	407.94	100.59	79.617	27.682	8.1375e-05	45.941	156.265	-4.156	113.757	-21.585	9.878	62.753	-21.660	-14.773	205.146	160.662	-17.041	-12.579	-10.988	-5.799	182.769	-8.268	-8191	255	
#DATA ENDS
