BOXY.EXE: ISS Imagent and Oximeter Data Acquisition Program Version 0.80
Ascii Record File

#ACQ INFORMATION
2  Detector Channels 
16  External MUX Channels 
1  Auxiliary Channels 
5000  Waveform (CCF) Frequency (Hz)
1  Waveforms Skipped 
30  Waveforms Averaged 
1  Cycles Averaged 
16  Acquisitions per Waveform 
10.0806  Updata Rate (Hz) 

#FILE INFORMATION
TRUE -- External MUX Channel results are PARSED.
FALSE -- AC DC and Phase are NOT grouped.
TRUE -- Companion Program Settings File CREATED.
FALSE -- AC data not excluded
FALSE -- DC data not excluded
FALSE -- Phase data not excluded
FALSE -- Auxillary Chn. data not excluded
Tab delimiters

#CALIBRATION STATE
TRUE -- Waveform Calibration Values APPLIED.


#AUX CALIBRATION VALUES
Val Type	aux-1	

Term	1.0000e+00	
Factor	0.0000e+00	


#WF CALIBRATION VALUES
A = Detector Channel
Val Type	A-AC1	A-AC2	A-AC3	A-AC4	A-AC5	A-AC6	A-AC7	A-AC8	A-AC9	A-AC10	A-AC11	A-AC12	A-AC13	A-AC14	A-AC15	A-AC16	A-DC1	A-DC2	A-DC3	A-DC4	A-DC5	A-DC6	A-DC7	A-DC8	A-DC9	A-DC10	A-DC11	A-DC12	A-DC13	A-DC14	A-DC15	A-DC16	A-Ph1	A-Ph2	A-Ph3	A-Ph4	A-Ph5	A-Ph6	A-Ph7	A-Ph8	A-Ph9	A-Ph10	A-Ph11	A-Ph12	A-Ph13	A-Ph14	A-Ph15	A-Ph16	

Term	0.00000e+00	0.00000e+00	0.00000e+00	0.00000e+00	0.00000e+00	0.00000e+00	0.00000e+00	0.00000e+00	0.00000e+00	0.00000e+00	0.00000e+00	0.00000e+00	0.00000e+00	0.00000e+00	0.00000e+00	0.00000e+00	0.00000e+00	0.00000e+00	0.00000e+00	0.00000e+00	0.00000e+00	0.00000e+00	0.00000e+00	0.00000e+00	0.00000e+00	0.00000e+00	0.00000e+00	0.00000e+00	0.00000e+00	0.00000e+00	0.00000e+00	0.00000e+00	0.00000e+00	0.00000e+00	0.00000e+00	0.00000e+00	0.00000e+00	0.00000e+00	0.00000e+00	0.00000e+00	0.00000e+00	0.00000e+00	0.00000e+00	0.00000e+00	0.00000e+00	0.00000e+00	0.00000e+00	0.00000e+00	
Factor	1.00000e+00	1.00000e+00	1.00000e+00	1.00000e+00	1.00000e+00	1.00000e+00	1.00000e+00	1.00000e+00	1.00000e+00	1.00000e+00	1.00000e+00	1.00000e+00	1.00000e+00	1.00000e+00	1.00000e+00	1.00000e+00	1.00000e+00	1.00000e+00	1.00000e+00	1.00000e+00	1.00000e+00	1.00000e+00	1.00000e+00	1.00000e+00	1.00000e+00	1.00000e+00	1.00000e+00	1.00000e+00	1.00000e+00	1.00000e+00	1.00000e+00	1.00000e+00	X	X	X	X	X	X	X	X	X	X	X	X	X	X	X	X	

B = Detector Channel
Val Type	B-AC1	B-AC2	B-AC3	B-AC4	B-AC5	B-AC6	B-AC7	B-AC8	B-AC9	B-AC10	B-AC11	B-AC12	B-AC13	B-AC14	B-AC15	B-AC16	B-DC1	B-DC2	B-DC3	B-DC4	B-DC5	B-DC6	B-DC7	B-DC8	B-DC9	B-DC10	B-DC11	B-DC12	B-DC13	B-DC14	B-DC15	B-DC16	B-Ph1	B-Ph2	B-Ph3	B-Ph4	B-Ph5	B-Ph6	B-Ph7	B-Ph8	B-Ph9	B-Ph10	B-Ph11	B-Ph12	B-Ph13	B-Ph14	B-Ph15	B-Ph16	

Term	0.00000e+00	0.00000e+00	0.00000e+00	0.00000e+00	0.00000e+00	0.00000e+00	0.00000e+00	0.00000e+00	0.00000e+00	0.00000e+00	0.00000e+00	0.00000e+00	0.00000e+00	0.00000e+00	0.00000e+00	0.00000e+00	0.00000e+00	0.00000e+00	0.00000e+00	0.00000e+00	0.00000e+00	0.00000e+00	0.00000e+00	0.00000e+00	0.00000e+00	0.00000e+00	0.00000e+00	0.00000e+00	0.00000e+00	0.00000e+00	0.00000e+00	0.00000e+00	-1.95322e+02	-1.31664e+02	-1.35514e+02	-1.83507e+02	-9.14092e+01	-5.93382e+01	-1.57852e+02	-1.62015e+02	-9.36674e+01	-6.54123e+01	-1.76234e+02	-1.71211e+02	-1.81698e+02	-1.78091e+02	-8.68548e+01	-1.51000e+02	
Factor	4.07472e-05	1.94038e-04	5.01386e-05	4.44362e-01	1.74494e-06	1.67566e-06	1.66286e-01	6.31906e-02	2.08765e-06	1.66474e-06	2.13853e-01	2.89034e-02	2.88634e-02	9.13376e-03	1.93495e-06	1.32076e-02	3.19055e-06	3.47120e-06	9.67125e-07	2.29784e-01	3.78690e-08	3.80063e-08	8.23849e-02	3.32550e-02	3.75348e-08	3.80335e-08	1.05779e-01	1.48008e-02	1.52162e-02	4.84302e-03	3.76195e-08	6.77457e-03	X	X	X	X	X	X	X	X	X	X	X	X	X	X	X	X	



#DISTANCE SETTINGS
A = Detector Channel
A-1	A-2	A-3	A-4	A-5	A-6	A-7	A-8	A-9	A-10	A-11	A-12	A-13	A-14	A-15	A-16	

2.5000e+00	3.0000e+00	2.5000e+00	3.0000e+00	2.0000e+00	3.0000e+00	1.5000e+00	3.0000e+00	3.0000e+00	3.0000e+00	3.0000e+00	3.0000e+00	3.0000e+00	3.0000e+00	1.5000e+00	3.0000e+00	

B = Detector Channel
B-1	B-2	B-3	B-4	B-5	B-6	B-7	B-8	B-9	B-10	B-11	B-12	B-13	B-14	B-15	B-16	

1.0000e+01	1.0000e+01	1.0000e+01	1.4400e+00	1.0000e+01	1.0000e+01	1.5100e+00	1.9400e+00	1.0000e+01	1.0000e+01	1.9900e+00	2.4900e+00	2.4100e+00	2.9000e+00	1.0000e+01	2.9800e+00	




#DATA BEGINS
time	group	step	mark	flag	A-AC1	A-AC2	A-AC3	A-AC4	A-AC5	A-AC6	A-AC7	A-AC8	A-AC9	A-AC10	A-AC11	A-AC12	A-AC13	A-AC14	A-AC15	A-AC16	A-DC1	A-DC2	A-DC3	A-DC4	A-DC5	A-DC6	A-DC7	A-DC8	A-DC9	A-DC10	A-DC11	A-DC12	A-DC13	A-DC14	A-DC15	A-DC16	A-Ph1	A-Ph2	A-Ph3	A-Ph4	A-Ph5	A-Ph6	A-Ph7	A-Ph8	A-Ph9	A-Ph10	A-Ph11	A-Ph12	A-Ph13	A-Ph14	A-Ph15	A-Ph16	B-AC1	B-AC2	B-AC3	B-AC4	B-AC5	B-AC6	B-AC7	B-AC8	B-AC9	B-AC10	B-AC11	B-AC12	B-AC13	B-AC14	B-AC15	B-AC16	B-DC1	B-DC2	B-DC3	B-DC4	B-DC5	B-DC6	B-DC7	B-DC8	B-DC9	B-DC10	B-DC11	B-DC12	B-DC13	B-DC14	B-DC15	B-DC16	B-Ph1	B-Ph2	B-Ph3	B-Ph4	B-Ph5	B-Ph6	B-Ph7	B-Ph8	B-Ph9	B-Ph10	B-Ph11	B-Ph12	B-Ph13	B-Ph14	B-Ph15	B-Ph16	aux-1	digaux	

2288.739	1	1	0	768	0.13801	0.22783	0.26029	0.092014	0.1908	0.071848	0.093556	0.37895	0.12607	0.015056	0.42042	0.23432	0.21344	0.45233	0.21293	0.20179	-2.4125	-2.8292	-3.1021	-2.9062	-3.1604	-3.1354	-3.0229	-3.3312	-2.9896	-2.6667	-3.4042	-3.0479	-3	-3.4396	-2.8583	-3.1937	126.724	257.830	88.225	1.678	55.615	206.641	291.595	-38.821	123.089	59.120	293.910	295.454	269.701	294.140	241.364	287.917	0.00093549	0.0011472	0.00028687	1022.4	1.358e-05	7.3323e-06	1160	379.06	1.0212e-05	1.6067e-05	556.75	243.89	169.78	75.354	9.757e-06	120.56	0.001492	0.0014258	0.00043445	1100.3	1.69e-05	1.5563e-05	1183.1	389.77	1.6645e-05	1.5588e-05	588.14	248.92	174.44	77.063	1.8401e-05	122.74	78.206	68.708	57.587	-30.887	98.554	151.342	-31.163	-26.182	43.241	89.531	-27.438	-24.229	-23.590	-19.863	133.113	-21.283	-8191	255	
2288.835	1	1	0	0	0.18827	0.067613	0.13596	0.24227	0.1459	0.13633	0.10602	0.33514	0.12339	0.12851	0.19242	0.26068	0.23907	0.29761	0.45719	0.16567	-2.4562	-2.8271	-3.25	-3.0271	-2.8563	-3.1188	-3.0292	-3.0312	-3.1229	-2.8708	-3.2938	-3.1729	-3.1125	-3.2521	-2.7729	-3.2958	304.852	34.794	6.131	225.551	275.343	32.905	286.679	259.102	299.324	215.314	290.605	-25.383	274.953	312.061	-36.252	241.700	0.00083227	0.00034998	0.00012931	1030.8	1.123e-05	1.3965e-05	1197.3	399.8	9.2486e-06	1.3517e-05	579.55	244.23	175.27	71.365	1.3156e-05	114.22	0.0015002	0.0014984	0.00049093	1119.2	1.764e-05	1.7377e-05	1228.8	411.74	1.9018e-05	1.9402e-05	624.18	249.86	181.33	73.683	2.6686e-05	117.81	84.137	-9.410	84.291	-31.187	73.713	191.180	-31.070	-25.882	64.643	181.005	-27.626	-24.153	-23.759	-19.267	33.107	-20.200	-8191	255	
2288.932	1	1	0	0	0.092962	0.20627	0.12317	0.24182	0.053676	0.099927	0.23872	0.22992	0.13756	0.25148	0.039462	0.28123	0.37433	0.31023	0.019919	0.44241	-2.5792	-2.7229	-3.1562	-2.975	-2.85	-3.125	-3.0146	-3.0833	-3.2313	-2.9146	-3.2729	-3.3229	-2.8812	-3.4125	-2.8	-3.1521	-24.404	45.674	-20.664	-18.216	166.344	100.124	240.521	217.024	80.389	-12.323	293.335	-36.497	218.918	-33.893	241.984	236.812	0.00059215	0.0020979	0.00069923	1097	2.8604e-06	1.0879e-06	1238.7	403.69	1.5459e-05	1.2972e-05	580.15	235.19	167.59	67.732	1.2629e-05	112.29	0.0021241	0.002392	0.00078503	1237.2	2.6448e-05	2.8852e-05	1298.3	424.4	2.7292e-05	3.0769e-05	647.42	245.14	176.99	71.528	3.2946e-05	116.85	103.192	51.703	0.032	-30.728	131.518	103.309	-31.101	-25.912	62.439	122.387	-27.335	-24.069	-23.299	-18.241	28.343	-19.909	-8191	255	
2289.028	1	1	0	0	0.011471	0.066697	0.15723	0.1068	0.13523	0.13765	0.1537	0.20986	0.081343	0.13089	0.16469	0.055931	0.071413	0.37471	0.19552	0.24089	-2.9542	-2.7417	-3.1354	-3.0979	-2.9542	-3.2021	-2.9875	-3.1396	-3.2479	-2.6625	-3.1229	-3.2271	-2.9417	-3.25	-2.8833	-3.0396	56.362	108.994	232.799	212.301	56.408	141.550	-19.974	227.274	211.845	-26.396	185.684	235.544	164.687	-38.309	175.478	225.638	0.00087258	0.0012101	0.00053229	1072.3	7.2924e-06	9.528e-06	1206.7	391.86	5.6242e-06	1.4282e-05	570.95	237.28	168.76	69.661	9.6425e-06	116	0.0023943	0.0029214	0.00082876	1215.1	2.6862e-05	3.0915e-05	1259.8	411.83	2.5751e-05	3.0631e-05	631.09	245.9	176.99	72.968	2.8308e-05	119.41	71.329	125.928	35.671	-30.566	126.563	160.073	-31.007	-26.083	27.719	189.791	-27.707	-24.159	-23.272	-18.662	-0.905	-20.404	-8191	255	
2289.124	1	1	0	0	0.28587	0.23975	0.19118	0.12079	0.090044	0.043571	0.39347	0.18048	0.22848	0.17765	0.073036	0.19771	0.11391	0.36358	0.11276	0.23196	-2.7375	-2.9292	-3.0479	-3.1042	-2.6875	-3.2583	-3.0896	-3.0312	-3.0292	-2.9125	-3.0667	-3.1271	-2.9083	-3.2979	-2.7604	-3.15	106.338	14.411	-42.177	223.549	218.580	262.037	293.762	256.001	194.130	159.265	269.485	291.104	239.589	290.456	31.923	277.747	0.0010067	0.0024198	0.00047978	1046.2	1.8295e-05	1.0305e-05	1173.5	385.12	9.9131e-06	9.8573e-06	568.53	242.48	169.18	71.477	1.1066e-05	118.88	0.0022047	0.0026909	0.00068661	1162.3	2.4599e-05	2.793e-05	1215.1	400.08	2.3481e-05	2.7187e-05	611.85	249.28	176.67	74.513	2.369e-05	121.64	82.610	127.974	293.031	-30.675	106.955	200.217	-31.148	-26.003	168.295	-5.916	-27.597	-24.257	-23.441	-19.542	61.757	-20.673	-8191	255	
2289.220	1	1	0	0	0.2151	0.096001	0.23385	0.038321	0.10891	0.068939	0.12152	0.33607	0.045542	0.076341	0.25445	0.13458	0.18601	0.22773	0.18232	0.39715	-2.675	-2.8125	-2.8979	-3.2375	-2.75	-3.2333	-3.0625	-3.0396	-3.2833	-2.9292	-3.1646	-3.4958	-2.8479	-3.3479	-3.1354	-2.8937	237.901	169.011	214.038	191.024	64.601	189.199	226.873	255.173	237.051	27.921	173.982	1.303	42.779	236.325	-7.632	153.052	0.0010801	0.0013991	0.00029466	1027.8	1.1311e-05	1.2376e-05	1153.1	375.65	7.3572e-06	9.1248e-06	556.44	239.66	168.12	72.667	3.3106e-06	119.65	0.0020888	0.0023602	0.00058799	1122.5	2.3683e-05	2.5103e-05	1186.2	388.78	2.3443e-05	2.4316e-05	594.56	245.54	175.41	75.22	2.1371e-05	122.37	82.106	7.281	-10.502	-31.148	116.268	138.636	-31.328	-25.892	155.384	69.934	-27.543	-24.267	-23.472	-19.626	132.607	-20.941	-8191	255	
2289.339	1	1	0	0	0.21355	0.35384	0.19213	0.045898	0.30301	0.042097	0.18473	0.27463	0.094339	0.18166	0.1632	0.098198	0.10739	0.24158	0.10241	0.28453	-2.8625	-2.6896	-2.8667	-3.2146	-2.6458	-3.0479	-3.1521	-2.7396	-3.2917	-2.7438	-2.8708	-3.4625	-2.8917	-3.1875	-2.9813	-3.0083	298.343	108.664	-37.994	10.653	246.781	-11.331	241.695	214.424	4.069	292.298	239.318	263.679	287.992	278.861	25.798	270.597	0.00095389	0.00091392	0.00040499	1017.8	1.4272e-05	7.277e-06	1148.3	378.59	2.1054e-05	1.3726e-05	559.56	241.33	169.55	73.977	2.3605e-06	120.52	0.0020974	0.0021433	0.00053715	1110.4	2.3769e-05	2.2597e-05	1174.2	391.78	2.3897e-05	2.2742e-05	595.23	247.21	177.74	76.31	2.0118e-05	123.58	74.849	17.033	4.574	-31.007	98.907	142.944	-31.273	-25.996	118.946	84.616	-27.293	-24.346	-23.662	-19.714	315.070	-21.076	-8191	255	
2289.435	1	1	0	0	0.052425	0.13808	0.088518	0.18396	0.14354	0.058656	0.27693	0.069615	0.34184	0.18391	0.043035	0.21225	0.024593	0.33425	0.22925	0.2373	-2.8604	-2.8417	-2.8812	-3.3021	-2.6021	-2.9562	-3.3104	-2.8479	-3.0979	-2.8896	-2.8479	-3.2938	-3.0563	-3.0812	-3.0729	-3.1021	211.719	41.653	224.839	83.720	107.395	-38.031	207.229	304.631	-29.734	-15.539	128.766	257.072	4.227	281.742	276.838	270.902	0.00088929	0.0013163	0.00042249	1022.9	1.313e-05	7.8553e-06	1147.2	381.43	9.8054e-06	3.6422e-06	565.02	242.2	170.47	73.242	3.1942e-06	120.63	0.0020916	0.0019847	0.00051008	1118.1	2.378e-05	2.1441e-05	1177.2	396.82	2.3225e-05	2.1255e-05	598.95	247.96	177.75	75.706	1.9399e-05	123.63	77.957	-23.529	31.407	-31.160	79.605	15.251	-31.329	-26.034	163.860	97.102	-27.493	-24.378	-23.542	-19.579	263.561	-20.887	-8191	255	
2289.531	1	1	0	0	0.23159	0.19269	0.18225	0.03338	0.16318	0.057071	0.12187	0.18373	0.17041	0.27657	0.24887	0.1286	0.28989	0.201	0.21734	0.2304	-2.7083	-2.9271	-2.7521	-3.0271	-2.7917	-2.8542	-3.1125	-2.9813	-3.0479	-2.9667	-2.8563	-3.2438	-2.9625	-3.1167	-3.1729	-3.0667	302.442	99.789	86.393	95.206	91.975	261.647	275.286	310.552	281.049	138.045	241.077	-17.938	-34.246	282.983	72.640	253.256	0.00070231	0.00091098	0.00026296	1030.5	5.6992e-06	9.6756e-06	1151.6	382.22	8.8148e-06	2.9828e-06	568.51	243.49	170.4	72.952	9.0705e-06	119.73	0.0020291	0.0019435	0.00050861	1135.5	2.3326e-05	2.1183e-05	1183.4	398.97	2.3067e-05	2.1034e-05	599.92	249.62	177.52	75.156	2.0474e-05	123.15	88.847	-7.833	-40.706	-31.271	93.752	117.427	-30.879	-25.977	38.200	128.790	-27.882	-24.178	-23.594	-19.454	200.804	-20.719	-8191	255	
2289.627	1	1	0	0	0.22634	0.32172	0.11088	0.19347	0.13581	0.061619	0.33916	0.17386	0.097315	0.14259	0.058736	0.3702	0.2798	0.26356	0.18115	0.11685	-2.6104	-2.8604	-2.6292	-3.0729	-3.0208	-2.8563	-3.4604	-2.8563	-3.1583	-2.975	-2.8937	-3.1271	-3.125	-3.0042	-3.2896	-3.0833	88.878	40.084	28.808	-15.623	117.662	85.503	271.549	272.083	273.873	80.915	310.436	265.866	224.311	-43.069	267.016	130.294	0.0008779	0.0019493	0.00021553	1030.5	1.5829e-05	1.0619e-05	1143.7	377.9	1.3988e-05	9.3555e-06	556.48	237.2	167.48	71.928	1.6049e-05	118.44	0.0019718	0.0018828	0.00052685	1141	2.209e-05	2.0409e-05	1178.1	394.98	2.1532e-05	1.9876e-05	596.07	244.27	174.07	74.08	2.1509e-05	121.56	64.369	-8.170	91.830	-31.070	-3.225	148.972	-30.892	-25.777	64.862	134.446	-27.841	-24.334	-23.519	-19.651	126.157	-20.998	-8191	255	
2289.723	1	1	0	0	0.11061	0.076248	0.27282	0.18891	0.18992	0.080267	0.16008	0.15438	0.22056	0.13829	0.21103	0.36211	0.11915	0.15082	0.3543	0.3676	-2.5438	-3.1854	-2.6792	-3.2417	-2.9292	-2.7771	-3.4354	-2.9979	-2.9625	-3.0438	-2.6771	-3.3021	-3.1875	-3.0417	-3.0604	-3.1729	54.265	298.999	206.828	31.413	-9.146	33.573	308.611	277.187	56.811	254.570	188.062	-24.150	10.517	-18.456	35.395	275.443	0.00092701	0.00075287	0.00038531	1025.6	3.8595e-06	2.5868e-06	1144.8	378.13	4.8706e-06	6.78e-06	564.98	238.79	168.71	72.092	8.7368e-06	118.28	0.0018856	0.0017864	0.0005679	1128.9	2.0797e-05	1.9439e-05	1178.4	395.37	2.0514e-05	1.9075e-05	603.23	244.86	175.06	74.059	2.2726e-05	121.62	66.705	62.503	157.652	-31.002	-24.405	174.638	-31.172	-26.133	261.533	51.053	-27.304	-24.505	-23.709	-19.479	136.593	-20.890	-8191	255	
2289.820	1	1	0	0	0.20872	0.16288	0.19802	0.040563	0.20575	0.097558	0.11082	0.36409	0.066168	0.084221	0.17619	0.036121	0.22226	0.12421	0.029138	0.28514	-2.4271	-3.2687	-2.6854	-3.1937	-3.0604	-2.8604	-3.3979	-2.9833	-2.9813	-2.8812	-2.8708	-3.1729	-3.2313	-2.7708	-3.3312	-3.0979	67.576	166.123	-26.803	114.770	198.047	263.277	315.875	189.631	167.668	244.099	71.129	209.547	287.699	36.712	288.189	282.787	0.00058135	0.0017167	0.00014226	1020.2	4.565e-06	4.4649e-06	1142.7	380.27	1.2796e-05	1.0063e-05	562.18	239.8	168.78	72.592	5.5808e-06	119.6	0.0017961	0.0017762	0.00059121	1121.3	1.9948e-05	1.9745e-05	1180.9	395.04	1.9778e-05	2.0235e-05	606.07	245.71	174.71	74.736	2.3167e-05	122.31	80.613	52.896	93.112	-30.784	-39.967	144.722	-30.930	-26.105	35.656	176.863	-27.494	-24.313	-23.378	-19.607	69.799	-20.844	-8191	255	
2289.940	1	1	0	0	0.17387	0.087666	0.070256	0.23102	0.15176	0.077234	0.23319	0.30714	0.1085	0.19277	0.063855	0.35328	0.092091	0.10941	0.21404	0.24088	-2.4437	-3.2042	-2.8083	-3.0021	-3.1042	-2.8	-3.4146	-3.0062	-2.9958	-2.9792	-2.8708	-3.2479	-3.4271	-2.7938	-3.2583	-2.9583	289.436	155.295	275.000	272.427	39.672	-15.688	235.300	261.352	141.136	112.967	306.741	312.244	267.497	177.502	66.522	-39.723	0.0010728	0.0010867	9.6628e-05	1011	5.4238e-06	9.1248e-06	1152.1	380.64	9.2199e-06	1.0243e-05	564.76	241.71	169.58	73.413	2.1002e-05	120.43	0.0017211	0.0018771	0.00059042	1112.9	1.9155e-05	2.0884e-05	1186	394.7	1.8743e-05	2.1086e-05	605.17	247.43	175.34	75.448	2.2377e-05	123.14	70.457	28.942	194.487	-30.935	45.684	199.839	-30.809	-26.023	63.945	172.674	-27.950	-24.202	-23.531	-19.539	24.010	-21.040	-8191	255	
2290.035	1	1	0	0	0.074452	0.13902	0.314	0.16975	0.11362	0.2124	0.065452	0.36214	0.25572	0.25288	0.20959	0.030842	0.2773	0.30769	0.29718	0.33928	-2.5812	-3.2479	-2.8917	-3.0125	-3	-2.8563	-3.3833	-3.0938	-2.9667	-3.1146	-2.8125	-3.025	-3.2146	-3.1021	-3.0187	-3.3021	253.138	0.949	39.118	-6.374	253.553	313.655	287.612	-14.615	277.274	125.065	219.159	275.073	-35.493	282.918	39.470	284.373	0.00069762	0.0010712	0.00016034	1019.7	6.6033e-06	1.1234e-05	1138.6	377.67	6.2737e-06	1.1743e-05	556.1	236.12	166.35	72.242	2.0419e-06	118.8	0.0016832	0.0020245	0.00056598	1110	1.9241e-05	2.2423e-05	1177.1	390.72	1.922e-05	2.2913e-05	596.8	241.61	172.21	74.848	2.1946e-05	121.41	74.408	73.199	305.113	-31.299	143.329	113.529	-30.881	-26.108	41.367	178.883	-27.972	-24.347	-23.633	-19.530	36.428	-21.015	-8191	255	
2290.131	1	1	0	0	0.31863	0.081217	0.29069	0.15829	0.092356	0.17872	0.0057275	0.21735	0.035723	0.10008	0.094973	0.12761	0.049596	0.17502	0.1567	0.18148	-2.3083	-3.2458	-2.9125	-2.9021	-3.2812	-2.8083	-3.1167	-3.2292	-2.8146	-3.0979	-2.9583	-3.0792	-3.2229	-3.1042	-2.9125	-3.5083	-29.992	158.456	211.790	146.484	247.958	315.023	174.296	226.438	60.595	240.644	237.828	-2.883	241.145	195.815	125.706	183.680	0.00089641	0.00071143	0.00028618	1015	2.7787e-06	1.3819e-05	1140.3	377.51	4.7249e-06	1.7509e-05	558.59	238.21	167.64	72.062	1.0555e-05	119.09	0.0018215	0.0022166	0.00056932	1105.8	2.0936e-05	2.4347e-05	1173.8	390.85	2.1557e-05	2.4603e-05	598.48	243.75	174.82	74.991	2.2196e-05	121.88	72.201	48.185	64.433	-30.322	53.199	139.271	-30.938	-25.957	261.241	172.296	-27.740	-24.141	-23.346	-19.573	69.060	-20.678	-8191	255	
2290.227	1	1	0	0	0.0072388	0.31863	0.14912	0.17265	0.1534	0.14043	0.045014	0.18093	0.10235	0.011462	0.22567	0.1375	0.068926	0.22649	0.13246	0.21363	-2.1792	-3.025	-2.9375	-2.7792	-3.2125	-2.8521	-3.0563	-3.4229	-2.7271	-3.2188	-3.1125	-3.0375	-3.3125	-3.0812	-3.0979	-3.4125	13.054	123.011	195.518	22.004	87.800	57.172	256.206	298.517	263.921	212.952	-28.058	235.385	-32.978	291.542	-38.133	286.479	0.00083795	0.00087472	8.6619e-05	1023.2	5.3773e-06	4.9873e-06	1153	380.61	1.461e-05	1.0783e-05	565.79	242.46	170.97	72.585	9.9114e-06	120.15	0.0020248	0.0022582	0.00056721	1110.3	2.3364e-05	2.4416e-05	1184.6	394.38	2.3727e-05	2.4228e-05	605.23	248.81	178.51	75.245	2.1563e-05	123.36	91.178	7.382	173.240	-30.758	142.325	138.926	-30.933	-26.126	138.490	94.407	-27.567	-24.182	-23.551	-19.307	-8.040	-20.829	-8191	255	
2290.300	1	1	0	0	0.1093	0.056725	0.11472	0.063614	0.20579	0.14668	0.13396	0.07218	0.19437	0.097554	0.089116	0.3636	0.123	0.14128	0.062973	0.24733	-2.5625	-3.0417	-3.0542	-2.8854	-3.1875	-2.8438	-3.2687	-3.1583	-2.9437	-3.0125	-3.1625	-3.0771	-3.2646	-2.9604	-2.9292	-3.4521	113.797	312.998	278.591	26.907	156.297	37.563	85.231	315.614	250.510	195.740	236.025	315.475	274.614	298.081	204.553	259.207	0.0010121	0.0010484	0.00017131	1020.6	9.6452e-06	1.6094e-05	1163.7	384.66	7.1355e-06	5.8708e-06	572.33	250	173.75	73.771	6.3412e-06	123.13	0.0021369	0.0021348	0.00054109	1112.9	2.4284e-05	2.3154e-05	1194.3	398.78	2.4296e-05	2.2524e-05	608.71	255.9	181.25	76.186	1.995e-05	126.03	79.688	-6.629	267.342	-30.881	145.026	65.601	-31.144	-25.832	101.849	108.720	-27.942	-24.154	-23.247	-19.546	24.557	-20.721	-8191	255	
2290.419	1	1	0	0	0.28732	0.091768	0.081345	0.14537	0.09259	0.2408	0.15337	0.30936	0.08104	0.26388	0.26323	0.21383	0.11815	0.19451	0.23461	0.13513	-2.3583	-2.8479	-3.0438	-2.9208	-3.1417	-2.8958	-3.1813	-3.4375	-2.8417	-2.9854	-3.1792	-3.0229	-3.2083	-3.0938	-3.0146	-3.5062	204.856	228.247	238.525	264.623	45.101	32.461	246.494	295.189	49.069	34.046	38.992	271.144	273.712	281.918	52.821	81.515	0.00066685	0.0015427	0.00041748	1027.6	1.3841e-05	1.4405e-05	1161.5	381	1.627e-05	1.6365e-05	567.25	242.59	169.65	72.52	4.4349e-06	120.1	0.0020961	0.0019778	0.00050348	1124.4	2.3635e-05	2.1467e-05	1191.9	397.12	2.3228e-05	2.1259e-05	600.15	248.81	176.58	74.857	1.9412e-05	123.39	80.203	16.195	11.881	-30.703	102.134	70.368	-30.994	-25.974	68.435	78.562	-27.351	-24.193	-23.573	-19.510	220.508	-20.678	-8191	255	
2290.515	1	1	0	0	0.33462	0.077765	0.11409	0.085442	0.11963	0.14339	0.12607	0.2279	0.089851	0.12092	0.15575	0.28269	0.18821	0.10524	0.21242	0.25665	-2.375	-3.0771	-3.2104	-2.7958	-3.0625	-2.8208	-2.9708	-3.1771	-2.9396	-3.0687	-3.0979	-3.0729	-3.25	-3.2188	-2.8375	-3.2562	53.048	235.864	141.523	315.301	224.633	111.025	-12.883	283.519	80.868	-41.526	180.922	265.387	-31.870	-17.930	86.494	281.269	0.00059479	0.00085428	0.00028987	1007.6	8.2923e-06	8.7748e-06	1140.8	377.49	1.6804e-05	6.0308e-06	559.73	238.34	166.28	71.708	7.7348e-06	120.21	0.0020002	0.0018985	0.00049375	1118.5	2.2383e-05	2.0422e-05	1171	392.28	2.2022e-05	2.043e-05	592.46	245.72	173.7	74.078	2.0342e-05	123.32	63.323	-0.221	50.718	-30.818	72.064	145.330	-30.984	-25.931	90.887	121.861	-27.683	-24.314	-23.692	-19.514	162.711	-20.751	-8191	255	
2290.612	1	1	0	0	0.11967	0.092779	0.19726	0.078506	0.082279	0.18718	0.079527	0.39047	0.21838	0.22552	0.044638	0.17889	0.29957	0.38811	0.15968	0.22035	-2.3229	-2.9146	-3.1833	-2.975	-3.1729	-3.1167	-3.1958	-3.3625	-2.8292	-2.9708	-3.0958	-2.8688	-3.1667	-3.2896	-2.7583	-3.3125	211.834	303.559	185.806	217.499	221.827	102.970	241.564	296.632	202.350	69.146	134.750	256.870	313.190	290.071	190.087	273.041	0.00095069	0.0017679	0.00015216	1010.3	1.0232e-05	8.4226e-06	1142.4	377.4	2.0282e-05	8.4042e-06	559.86	238.88	167.34	71.989	6.8385e-06	119.93	0.0019354	0.0018536	0.00052667	1124	2.1677e-05	2.0276e-05	1176.4	393.44	2.1567e-05	1.9869e-05	598.93	246.63	173.62	74	2.1999e-05	123.28	67.388	-6.655	22.462	-30.510	26.650	163.021	-30.987	-25.795	51.165	76.453	-27.282	-24.269	-23.762	-19.296	178.529	-20.900	-8191	255	
2290.708	1	1	0	0	0.088326	0.1879	0.21051	0.1185	0.31353	0.032114	0.08573	0.15627	0.26215	0.057707	0.31886	0.18474	0.14967	0.14261	0.16891	0.31139	-2.4229	-2.9458	-3.1625	-2.9688	-3.0833	-3.2521	-3.0146	-3.3771	-2.9458	-2.8563	-3.2771	-3.2021	-3.0896	-3.2687	-2.7375	-3.5083	303.418	93.834	273.421	87.546	-0.191	28.098	7.821	189.532	43.849	39.194	16.847	39.796	-17.022	-43.178	23.331	209.409	0.00069467	0.0012724	0.00049745	1013.6	9.7564e-06	4.6157e-06	1141.1	377.18	1.4785e-05	6.5085e-06	559.68	240.4	166.99	71.682	1.3249e-05	119.6	0.0018818	0.001811	0.00057173	1119.9	2.1179e-05	1.9571e-05	1179.8	391.59	2.0591e-05	1.9871e-05	604.37	247.59	173.69	73.86	2.3334e-05	122.98	70.776	60.836	62.038	-30.963	77.125	60.884	-31.131	-26.282	43.411	223.069	-27.768	-24.345	-23.655	-19.742	44.609	-20.579	-8191	255	
2290.828	1	1	0	0	0.28	0.19703	0.059846	0.34299	0.20626	0.090061	0.027084	0.1973	0.358	0.17985	0.11655	0.12506	0.24473	0.12665	0.18023	0.29478	-2.5417	-2.8375	-3.2146	-2.8729	-2.825	-3.2208	-3.0292	-3.325	-3.0979	-2.9583	-3.1833	-3.1583	-2.7042	-3.2875	-2.8354	-3.3583	176.682	38.464	175.187	25.514	17.102	140.812	121.519	296.977	79.947	62.589	36.127	-33.238	256.846	312.275	34.971	280.228	0.00089715	0.0011238	0.00011183	1009.6	9.9056e-06	7.9721e-06	1138.8	373.79	5.1467e-06	1.0367e-05	554.45	234.9	164.35	70.418	3.3397e-06	116.79	0.0018277	0.0018336	0.00059892	1111.4	2.0528e-05	2.0457e-05	1179.9	388.91	2.0182e-05	2.1108e-05	601.89	241.4	170.32	72.858	2.4645e-05	120.22	83.283	156.694	172.990	-31.168	28.682	177.735	-31.154	-26.157	299.154	153.234	-27.733	-24.347	-23.930	-19.763	228.690	-20.886	-8191	255	
2290.900	1	1	0	0	0.08401	0.23954	0.13835	0.12517	0.15848	0.15376	0.12599	0.088389	0.16815	0.1474	0.1627	0.037896	0.037426	0.12273	0.1875	0.10245	-2.6875	-3.0104	-3.125	-3.0979	-2.8354	-3.4229	-3.1375	-3.2125	-3.0438	-2.8146	-3.1771	-3.2521	-3.2167	-3.1729	-2.9562	-3.2229	157.403	16.134	-38.898	48.430	177.970	78.453	246.978	296.674	195.594	260.502	53.032	6.567	-9.972	179.999	42.281	261.304	0.00053746	0.00055668	0.00029713	1007.4	2.962e-06	1.1971e-05	1132.2	371.3	6.1727e-06	2.1994e-05	548.71	233.73	163.5	70.428	1.1709e-05	117.17	0.0018198	0.0020709	0.00063919	1109.2	2.0967e-05	2.3306e-05	1173.6	387.01	2.1114e-05	2.4635e-05	599.16	239.72	170.32	73.333	2.5334e-05	120.45	60.698	108.866	32.593	-31.043	83.693	176.419	-31.391	-26.108	69.342	149.580	-27.761	-24.430	-23.314	-19.625	36.647	-20.905	-8191	255	
2291.021	1	1	0	0	0.041281	0.011217	0.091444	0.071594	0.061611	0.1837	0.20581	0.17573	0.19025	0.22532	0.14876	0.29652	0.17737	0.17216	0.31854	0.24597	-2.7542	-2.9083	-3.1	-2.9333	-2.7542	-3.2417	-2.95	-3.0458	-3.2125	-2.9	-3.1104	-3.1875	-2.7729	-3.4583	-2.7917	-3.2083	-20.033	154.742	76.000	306.703	301.668	41.894	279.377	229.099	272.418	104.485	183.536	240.755	272.607	23.392	-36.820	280.906	0.00090694	0.00072785	9.7261e-05	1000.7	7.3321e-06	1.3157e-05	1131.1	371.14	1.5369e-05	9.9679e-06	548.09	233.22	162.14	70.774	1.1387e-05	117.95	0.0019203	0.0023526	0.00064897	1110.9	2.223e-05	2.5974e-05	1172.2	385.43	2.1924e-05	2.6459e-05	593.93	238.97	169.35	73.782	2.4588e-05	120.8	81.365	179.264	-18.981	-30.882	152.721	174.633	-31.004	-26.206	164.515	134.806	-27.665	-24.175	-23.351	-19.779	-16.401	-20.731	-8191	255	
2291.117	1	1	0	0	0.19222	0.17537	0.19413	0.25512	0.10119	0.043237	0.19611	0.13669	0.092184	0.17597	0.13436	0.29541	0.30642	0.39455	0.12437	0.22336	-2.7	-2.8375	-2.9229	-3.0583	-2.8063	-3.2083	-3.0479	-3.0187	-3.2208	-2.7583	-3.0979	-3.2313	-2.7875	-3.55	-2.9417	-3.1229	-10.087	230.028	85.077	89.946	42.006	62.739	191.417	238.217	134.687	292.435	-39.595	303.383	299.932	283.263	252.176	203.894	0.00091544	0.00059029	0.00075481	999.63	1.5014e-05	1.3408e-05	1121.4	367.38	9.1975e-06	6.924e-06	549.18	231.9	162.28	70.181	1.9046e-05	116.74	0.0020298	0.0024594	0.00061673	1104	2.3523e-05	2.6727e-05	1162.5	383.07	2.3645e-05	2.6777e-05	591.75	238.58	169.92	73.158	2.3724e-05	119.76	83.048	54.540	31.809	-31.039	104.049	149.489	-31.037	-25.571	190.214	111.319	-27.806	-24.064	-23.450	-19.868	47.617	-20.916	-8191	255	
2291.211	1	1	0	0	0.031849	0.36869	0.1131	0.082305	0.20045	0.14846	0.025678	0.076277	0.1526	0.13234	0.13066	0.28918	0.22631	0.015608	0.076752	0.36902	-2.7875	-2.8208	-3.0521	-3.1813	-2.7708	-3.2958	-3.0833	-3.0958	-3.0187	-3.0292	-2.975	-3.4583	-2.8146	-3.3521	-2.8937	-3.05	204.791	232.509	-43.191	34.601	52.069	99.511	42.017	50.667	83.195	207.332	-0.491	231.176	315.642	156.951	299.868	-42.314	0.0011235	0.00096062	4.695e-05	997.54	1.9456e-06	7.1638e-06	1117.6	365.17	5.1791e-06	1.9893e-05	540.24	227.64	158.88	69.093	5.9222e-06	114.83	0.0021904	0.0024079	0.00060594	1102.5	2.5346e-05	2.584e-05	1158.7	380.82	2.5683e-05	2.5867e-05	584.03	234.34	168.13	71.958	2.2943e-05	117.95	74.777	-8.107	0.829	-31.032	210.277	102.130	-31.219	-25.805	43.043	85.168	-27.326	-24.379	-23.453	-19.575	152.478	-21.068	-8191	255	
2291.309	1	1	0	0	0.20217	0.27244	0.11846	0.053481	0.18065	0.14125	0.041389	0.068322	0.21677	0.16432	0.048069	0.14798	0.20125	0.13918	0.080543	0.45145	-2.5917	-2.9292	-2.8688	-2.9979	-2.6979	-3.2167	-3.3146	-3.0771	-3.1917	-3.0604	-2.8646	-3.2562	-3.0646	-3.1792	-3.1875	-2.9021	-40.340	207.302	279.161	252.165	269.392	-10.605	141.713	270.760	82.367	-25.954	134.785	288.791	-7.686	40.379	-43.249	268.579	0.0010048	0.001579	1.3734e-05	995.25	6.0634e-06	9.2596e-06	1119.7	366.65	4.3732e-06	1.3084e-05	541.36	228.4	158.46	69.604	7.9683e-06	116.23	0.0022975	0.0022915	0.00058152	1102.1	2.656e-05	2.4643e-05	1154.9	380.84	2.6691e-05	2.4504e-05	581.2	234.94	168.08	72.515	2.2427e-05	119.7	72.139	-1.002	20.032	-31.222	148.028	162.011	-31.204	-25.867	126.959	141.663	-27.558	-24.303	-23.412	-19.500	101.912	-20.958	-8191	255	
2291.428	1	1	0	0	0.18387	0.094257	0.17821	0.19887	0.10826	0.12333	0.39489	0.15818	0.16287	0.31963	0.12087	0.19166	0.22209	0.26111	0.22805	0.24551	-2.5667	-2.6979	-2.8875	-3.1562	-2.7979	-2.9313	-3.3917	-3.0604	-3.0167	-2.9313	-2.8875	-3.3708	-2.6875	-3.2958	-3.1646	-2.9417	-6.822	228.651	-28.297	-14.045	90.069	-16.654	0.577	281.125	293.546	90.878	39.686	287.095	-37.562	8.500	-0.631	287.814	0.00068689	0.00082408	0.00016668	986.72	1.187e-05	2.5448e-06	1111.2	361.41	7.5316e-06	7.2475e-06	535.09	228.03	157.9	70.566	3.7845e-06	117.78	0.0023683	0.0022567	0.00058183	1115.9	2.7279e-05	2.4546e-05	1148.4	379.6	2.6358e-05	2.4221e-05	578.13	235.98	166.68	73.223	2.2263e-05	121.46	74.282	21.795	26.102	-30.913	48.577	123.368	-30.987	-26.061	54.130	142.756	-27.803	-24.221	-23.258	-19.782	59.976	-20.898	-8191	255	
2291.524	1	1	0	0	0.14903	0.25859	0.11669	0.032754	0.067839	0.14329	0.11544	0.20145	0.016682	0.29527	0.26411	0.058413	0.3043	0.20536	0.048208	0.104	-2.775	-2.7313	-2.8604	-2.95	-2.8854	-2.9313	-3.4104	-3.0583	-2.8771	-3.2354	-2.9375	-3.4229	-2.9458	-3.1063	-3.0563	-3.1208	19.606	271.898	1.830	97.865	42.174	106.476	291.118	302.646	177.101	95.023	284.873	283.633	309.812	292.631	82.706	292.375	0.0009029	0.00090447	0.00053172	991.59	1.188e-05	4.664e-06	1114.4	360.67	8.4397e-06	4.0502e-06	533.57	229.02	158.02	70.989	1.8122e-05	119.2	0.0022742	0.0021643	0.0005752	1123.1	2.5699e-05	2.3575e-05	1149	379.33	2.4868e-05	2.2887e-05	577.74	238.37	166.43	73.706	2.2987e-05	123.08	80.685	88.535	41.859	-31.056	31.527	309.655	-31.063	-26.006	-17.307	114.090	-27.595	-24.092	-23.693	-19.817	182.036	-21.341	-8191	255	
2291.596	1	1	0	0	0.0429	0.23829	0.036053	0.17286	0.14659	0.1372	0.2059	0.067689	0.26239	0.11912	0.18217	0.11752	0.16136	0.042991	0.16635	0.12246	-2.5896	-3.2125	-2.4458	-3.2854	-2.8021	-2.875	-3.3312	-3.0417	-2.9167	-2.8875	-2.8521	-3.3875	-2.9625	-2.9437	-3.2042	-2.9167	279.994	307.920	129.614	275.891	65.200	-11.993	299.771	-36.859	70.475	122.579	312.987	269.370	315.067	0.252	286.909	198.390	0.00088189	0.00066649	0.00017572	996.44	1.1545e-05	8.7619e-06	1110.7	360.02	6.0753e-06	1.2256e-05	533.3	227.08	156.66	70.201	7.7093e-06	117.69	0.0021392	0.0020463	0.00060118	1125.4	2.4422e-05	2.2799e-05	1152.5	378.71	2.4416e-05	2.2559e-05	583.9	235.43	164.58	72.584	2.5582e-05	121.33	85.838	102.238	104.922	-31.228	162.135	12.960	-30.980	-26.127	310.008	53.820	-27.373	-24.235	-23.562	-19.787	196.526	-21.115	-8191	255	
2291.716	1	1	0	0	0.092495	0.22148	0.041555	0.19403	0.02016	0.24615	0.16047	0.097903	0.11464	0.11699	0.16305	0.11525	0.26841	0.081686	0.12999	0.27588	-2.5104	-3.0687	-2.8083	-3.0604	-2.9896	-2.8021	-3.1854	-2.9917	-2.6667	-3.275	-2.5958	-3.2812	-3.0771	-2.7687	-3.1875	-3.0604	150.537	268.861	299.509	-32.612	180.248	262.072	-23.678	243.842	263.887	249.309	256.658	315.865	256.299	304.781	29.129	250.581	0.00072977	0.0010879	0.00051881	986.23	1.1365e-05	7.3918e-06	1112.1	359.32	2.0732e-05	9.232e-06	528.68	226.74	156.13	70.135	1.0147e-05	117.17	0.0021266	0.0020625	0.00067061	1127.1	2.435e-05	2.3063e-05	1157	378.74	2.4125e-05	2.3158e-05	588.67	235.38	164.61	72.81	2.7406e-05	120.77	73.525	306.629	54.125	-31.459	66.590	154.051	-31.303	-25.919	35.364	114.641	-27.833	-24.026	-23.427	-19.771	148.139	-21.130	-8191	255	
2291.813	1	1	0	0	0.037402	0.2354	0.13891	0.10855	0.058217	0.19411	0.13189	0.15688	0.19205	0.1137	0.18294	0.25435	0.2055	0.19186	0.091939	0.18799	-2.4333	-3.0354	-2.7396	-3.1042	-3.0062	-2.7833	-3.1646	-2.8438	-2.8417	-3.1104	-2.9313	-3.1813	-3.0833	-2.8542	-2.9417	-3.3708	256.091	181.239	275.906	204.466	113.818	209.372	-38.012	-40.064	136.161	101.074	239.012	256.309	264.311	288.511	212.300	291.557	0.00082514	0.0011845	0.00050754	996.96	1.1622e-05	9.5507e-06	1118	360.24	6.0644e-06	5.4748e-06	538.65	230.02	158.57	70.615	5.5161e-06	118.4	0.0020977	0.0021535	0.00070283	1117.6	2.3086e-05	2.381e-05	1161.5	378.15	2.2468e-05	2.3723e-05	594.57	237.14	165.57	73.298	2.6972e-05	121.58	77.622	60.511	33.328	-31.170	64.868	138.018	-31.264	-26.058	93.087	202.628	-27.977	-24.183	-23.266	-19.665	102.343	-21.190	-8191	255	
2291.909	1	1	0	0	0.083577	0.25124	0.21958	0.10642	0.093318	0.063109	0.079242	0.11175	0.084465	0.1212	0.26761	0.3047	0.17314	0.20414	0.33039	0.024575	-2.2375	-3.1937	-2.9042	-3.0333	-3.075	-2.7458	-3.2208	-2.9208	-2.8187	-3.1271	-2.8208	-3.2104	-3.1771	-2.975	-2.8937	-3.1646	259.765	275.573	155.010	230.205	34.530	205.926	191.286	214.346	69.536	202.612	157.921	316.196	170.269	255.773	34.387	17.624	0.00068522	0.00069457	0.00034761	990.03	1.468e-05	1.0433e-05	1117.2	363.63	1.0732e-05	1.1285e-05	542.14	233.57	159.39	71.182	7.2093e-06	119.83	0.0019931	0.0022903	0.00068968	1107.5	2.215e-05	2.5432e-05	1164.4	379.29	2.212e-05	2.5544e-05	593.69	240.38	166.99	74.085	2.5991e-05	122.86	91.331	96.008	66.032	-31.257	86.281	115.931	-30.963	-25.802	103.645	206.439	-27.553	-24.272	-23.732	-19.819	125.747	-20.903	-8191	255	
2292.005	1	1	0	0	0.23226	0.40054	0.16358	0.30014	0.15967	0.12291	0.2938	0.060749	0.070831	0.15552	0.0014975	0.29058	0.21779	0.14514	0.17402	0.26297	-2.2167	-2.8667	-2.7875	-3.0167	-3.1625	-2.9688	-3.0812	-3.2333	-2.775	-3.2271	-2.9917	-3.1312	-3.1792	-3.0854	-2.9396	-3.3146	75.959	254.230	74.100	199.779	162.677	160.280	272.133	293.739	277.374	88.149	180.000	301.338	-32.296	-39.467	37.265	313.936	0.000965	0.0013847	0.00040017	995.52	1.4731e-05	9.6456e-06	1114.5	361.62	6.266e-06	1.0076e-05	537.38	228.08	156.56	69.695	7.6177e-06	117.38	0.0019882	0.0024404	0.00065954	1107.5	2.2647e-05	2.6891e-05	1159.6	377.31	2.2966e-05	2.7405e-05	587.36	235.1	164.79	72.937	2.4755e-05	120.4	70.052	86.305	38.497	-31.269	66.630	62.074	-31.105	-25.979	-37.792	257.131	-27.470	-23.974	-23.557	-19.774	79.628	-21.079	-8191	255	
2292.124	1	1	0	0	0.12058	0.16981	0.088835	0.081777	0.16877	0.15329	0.13039	0.37996	0.067466	0.15427	0.07511	0.27233	0.028426	0.31365	0.043118	0.22981	-2.3312	-3.2542	-2.8208	-3.0292	-3.1688	-2.825	-3.0896	-3.1417	-2.6646	-3.3229	-2.9083	-2.9667	-3.3479	-2.8708	-2.9167	-3.3958	147.624	177.860	187.017	174.148	315.835	-16.830	-40.927	258.370	161.710	306.651	241.680	-41.543	114.320	259.030	284.784	293.553	0.00085827	0.0016656	0.00024377	988.61	1.3506e-05	5.7647e-06	1113	360.13	1.2732e-05	9.1888e-06	533.08	226.67	155.75	69.796	8.0376e-06	116.59	0.0021301	0.0025342	0.00063814	1101.2	2.4803e-05	2.7907e-05	1155.1	375.24	2.5554e-05	2.781e-05	582.45	233.3	164.7	72.694	2.5039e-05	119.98	99.105	313.393	70.588	-31.007	136.994	-27.173	-31.236	-25.948	178.289	67.548	-27.701	-24.066	-23.197	-19.580	82.828	-20.931	-8191	255	
2292.197	1	1	0	0	0.2677	0.13614	0.1178	0.035134	0.11406	0.17298	0.32326	0.15703	0.066477	0.16045	0.12655	0.30582	0.010804	0.20805	0.024955	0.3235	-2.4188	-3.1375	-2.8896	-2.7521	-3.1646	-2.8688	-3.0021	-3.1167	-2.7062	-3.225	-2.9167	-2.9479	-3.2708	-3.075	-2.8333	-3.3917	126.533	-32.345	267.170	64.074	175.562	234.677	229.539	306.482	204.148	129.311	-1.347	269.844	294.333	252.089	232.402	263.721	0.001144	0.0012833	0.00030258	992.48	4.9553e-06	1.0682e-05	1115	359.03	1.2196e-05	1.3889e-05	533.63	226.12	156.23	69.909	4.2767e-06	117.58	0.0023737	0.0025464	0.00063956	1104.1	2.7667e-05	2.7813e-05	1153.5	374.84	2.7814e-05	2.7216e-05	582.84	233.82	165.43	72.918	2.4448e-05	120.98	71.181	58.928	278.434	-31.039	32.054	69.649	-31.052	-26.033	142.416	67.018	-27.448	-23.935	-23.047	-19.922	-39.439	-21.021	-8191	255	
2292.292	1	1	0	0	0.18827	0.36538	0.078636	0.14437	0.10039	0.25894	0.112	0.2001	0.14021	0.1678	0.1689	0.073619	0.2595	0.3143	0.21217	0.13042	-2.5521	-3.0812	-3	-2.7354	-3.0708	-2.975	-3.1208	-3.2958	-2.7979	-2.8208	-3.2271	-2.9542	-3.0938	-2.9896	-2.8896	-3.3104	210.666	13.500	263.763	-21.402	63.821	-28.383	64.402	176.657	-38.748	310.751	-27.331	269.690	6.544	298.995	62.666	291.766	0.00048767	0.0015647	5.3409e-05	980.03	1.3167e-05	1.711e-05	1116.1	356.76	2.3657e-05	1.3832e-05	538.05	228.63	157.16	69.943	1.1868e-05	117.94	0.0024965	0.0024294	0.00061835	1105.8	2.8323e-05	2.5939e-05	1149.9	374.62	2.8095e-05	2.5563e-05	581.24	236.59	166.3	72.836	2.3087e-05	121.68	97.635	14.589	222.376	-30.734	61.576	98.982	-30.943	-25.964	67.884	84.668	-27.690	-23.880	-23.174	-19.785	122.582	-20.923	-8191	255	
2292.389	1	1	0	0	0.30054	0.15898	0.30148	0.27897	0.20729	0.27529	0.15886	0.12508	0.31699	0.14144	0.1279	0.16502	0.22671	0.18757	0.073039	0.15861	-2.3979	-2.8708	-2.8979	-2.7438	-3.2958	-2.8937	-3.0208	-3.2708	-2.9208	-2.9375	-3.1542	-3.0708	-3.1833	-3.1	-2.8958	-3.3438	129.405	302.239	290.249	278.239	102.336	-11.404	256.004	0.583	-25.066	71.083	217.811	170.565	295.133	-29.463	66.756	271.395	0.00098947	0.0013964	0.00053014	980.08	2.1331e-05	1.2527e-05	1109.3	355.12	1.1342e-05	3.0187e-06	531.7	223.9	153.71	68.692	1.0074e-05	115.85	0.0024109	0.0022895	0.00058145	1114	2.722e-05	2.47e-05	1146.4	375.09	2.6876e-05	2.478e-05	573.95	232.53	162.9	71.45	2.2748e-05	119.66	80.021	298.154	78.200	-31.139	57.521	146.914	-31.150	-25.870	45.252	52.879	-27.789	-24.059	-23.319	-19.762	207.377	-20.881	-8191	255	
2292.508	1	1	0	0	0.15518	0.050145	0.31452	0.13071	0.088202	0.22472	0.22332	0.34854	0.24393	0.16165	0.11661	0.28196	0.21816	0.083144	0.23827	0.33759	-2.6354	-2.8458	-3.0729	-2.8312	-3.0687	-3.1083	-2.9167	-3.3208	-2.8604	-2.9896	-3.1146	-2.7687	-3.2521	-3.2313	-2.8688	-3.375	246.289	281.190	158.918	247.349	60.858	299.745	242.664	247.553	189.074	258.184	262.266	296.050	301.860	29.158	86.553	249.233	0.00073251	0.0020587	0.00038923	982.83	3.5055e-06	3.7043e-06	1105.5	355.84	8.7094e-06	6.3756e-06	526.73	223.8	153.59	68.853	1.1908e-05	116.26	0.0023059	0.0022219	0.0005909	1121.2	2.609e-05	2.3975e-05	1142.9	375.16	2.5902e-05	2.3833e-05	575.35	232.47	162.14	71.48	2.4486e-05	120.33	60.226	7.582	91.019	-31.066	28.390	74.794	-30.951	-25.867	44.301	98.943	-27.416	-24.074	-23.646	-19.596	170.822	-21.080	-8191	255	
2292.604	1	1	0	0	0.30618	0.23856	0.14501	0.34304	0.20019	0.058302	0.20592	0.027618	0.29734	0.12793	0.075389	0.42635	0.23329	0.19574	0.15879	0.14833	-2.5125	-2.8125	-3.0354	-2.9333	-2.8271	-3.1396	-2.8125	-3.2146	-2.8458	-2.8896	-3.1167	-3.0458	-3.0771	-3.15	-2.9875	-3.2812	243.006	279.122	314.075	-6.909	175.338	91.379	210.932	264.656	153.958	205.503	160.934	267.546	295.255	298.854	315.756	265.690	0.00073141	0.0015664	0.00035707	983.58	9.9447e-06	1.285e-05	1105.4	354.72	2.0347e-05	3.7446e-06	526.74	222.52	152.82	69.044	1.1232e-05	115.84	0.0022442	0.002177	0.00064295	1126.7	2.5649e-05	2.3739e-05	1147.8	374.36	2.549e-05	2.3909e-05	580.02	231.95	161.13	71.423	2.6686e-05	120.01	81.795	7.696	83.587	-31.236	41.327	74.778	-31.112	-25.873	70.966	-15.923	-27.569	-24.208	-23.504	-19.469	116.908	-20.987	-8191	255	
2292.701	1	1	0	0	0.27029	0.017317	0.23502	0.03469	0.098161	0.16886	0.11109	0.22109	0.14642	0.19742	0.11334	0.081636	0.18368	0.21064	0.16625	0.16966	-2.6708	-2.7458	-3.3146	-2.9417	-3.1542	-3.1667	-3.1271	-3.3083	-3.1146	-2.9437	-3.2875	-3.2687	-3.1167	-3.4208	-3.0083	-3.4396	85.313	154.559	138.048	309.928	88.164	242.814	-23.284	282.259	289.814	107.472	-10.802	295.423	27.304	-37.599	-42.381	310.718	0.00055951	0.00031647	0.00026645	986.42	7.9999e-06	2.0576e-05	1101	353.62	8.7246e-06	7.7645e-06	524.24	225	152.95	69.049	9.9722e-06	116.43	0.0022003	0.0021453	0.00070113	1116.9	2.4587e-05	2.3158e-05	1148.9	372.01	2.3915e-05	2.3444e-05	582.42	232.84	161.14	71.619	2.7338e-05	120.36	84.006	-32.268	66.869	-31.525	6.233	119.422	-31.116	-25.943	57.796	143.165	-27.721	-24.100	-23.382	-19.454	92.975	-20.973	-8191	255	
2292.797	1	1	0	0	0.077211	0.15141	0.14646	0.16559	0.034504	0.23264	0.254	0.1279	0.29924	0.073501	0.053656	0.2734	0.1223	0.17468	0.092032	0.20744	-2.5938	-2.9875	-3.1854	-3.1208	-3.0917	-3.3125	-3.2438	-2.9042	-3.2646	-2.9021	-3.2333	-3.225	-2.9062	-3.3625	-2.8521	-3.1896	117.296	248.014	93.112	292.068	105.134	121.678	278.835	249.482	13.864	5.096	297.953	279.199	248.840	-24.151	-8.771	-36.170	0.00089761	0.0020554	0.00022908	976.72	8.2639e-06	9.2238e-06	1103.6	353.91	4.3345e-06	1.1939e-05	529.11	223.6	152.19	68.333	1.6804e-05	115.73	0.0020464	0.0021676	0.00069774	1101.6	2.3072e-05	2.3711e-05	1148.3	370.49	2.2393e-05	2.4129e-05	583.29	230.29	159.47	71.056	2.7084e-05	118.88	86.869	137.301	38.906	-30.928	207.077	173.282	-31.255	-25.683	113.437	114.777	-27.459	-24.385	-23.346	-19.610	111.653	-20.949	-8191	255	
2292.893	1	1	0	0	0.14652	0.037326	0.084884	0.059292	0.15051	0.066651	0.18939	0.27162	0.024818	0.1949	0.080584	0.28678	0.10633	0.27765	0.20741	0.10994	-2.8208	-2.8583	-3.2062	-2.8333	-2.9437	-3.175	-3	-3.3312	-3.0917	-2.9	-3.1292	-3.1896	-2.9021	-3.2604	-3.0375	-2.9875	211.154	155.533	-17.306	-38.573	297.989	39.393	194.980	265.918	48.164	-4.371	-40.877	-32.889	10.828	-25.080	0.225	213.490	0.00089992	0.0018526	0.00022486	984.19	7.557e-06	4.1033e-06	1100.1	352.09	6.6596e-06	1.2481e-05	525.35	223.27	153.22	68.499	1.0106e-05	115.98	0.0019592	0.0023429	0.00068894	1098.4	2.263e-05	2.5926e-05	1146.8	368.92	2.2354e-05	2.6441e-05	581	230.69	160.19	71.508	2.6103e-05	119.21	76.429	76.900	-24.097	-30.839	20.033	52.574	-31.066	-25.880	81.670	119.030	-27.798	-24.171	-23.641	-19.855	302.554	-20.827	-8191	255	
2292.989	1	1	0	0	0.22343	0.21279	0.15366	0.2309	0.14275	0.049667	0.26793	0.12496	0.31033	0.10104	0.23221	0.25074	0.049662	0.10632	0.12066	0.22218	-2.8729	-2.6292	-3.1292	-3.1729	-3.0167	-2.9583	-3.0125	-3.1375	-3.2375	-2.95	-3.1458	-3.2958	-3.1146	-3.3771	-3.0979	-3.1479	74.017	125.587	60.171	309.044	18.236	190.227	269.007	311.259	110.038	8.502	-40.067	280.915	274.644	105.583	85.950	245.260	0.00089806	0.0017565	0.00033179	987.44	1.8082e-06	8.214e-06	1102.5	352.35	7.3337e-06	1.1664e-05	531.95	224.9	153.33	68.634	1.2143e-05	116.63	0.001987	0.0024812	0.00065959	1094.1	2.3306e-05	2.7301e-05	1146.5	369.58	2.3192e-05	2.751e-05	580.07	232.35	161.36	71.712	2.4773e-05	119.86	76.689	63.978	-11.965	-31.054	157.772	228.424	-31.128	-25.985	176.857	126.461	-27.240	-24.005	-23.475	-19.437	105.244	-20.961	-8191	255	
2293.110	1	1	0	0	0.18689	0.055543	0.081619	0.053261	0.38077	0.070085	0.11969	0.099483	0.19898	0.044545	0.28959	0.26721	0.20772	0.13548	0.24895	0.28683	-2.8625	-2.7271	-3.1458	-3.0812	-2.7583	-2.9521	-3.0354	-2.9021	-3.2021	-2.6167	-3.1417	-3.2833	-2.9604	-3.2938	-3.1063	-3.0396	286.147	170.347	99.905	203.629	82.545	153.149	254.339	247.738	72.776	208.186	209.757	-24.232	-27.155	-30.007	274.101	217.821	0.00098386	0.0014239	4.2977e-05	992.71	1.1673e-05	1.0416e-05	1108.7	353.64	1.96e-05	7.4295e-06	527.78	226.1	153.9	68.547	6.3661e-06	116.93	0.0021308	0.0025301	0.00063893	1092.3	2.5319e-05	2.7939e-05	1151	369.42	2.5736e-05	2.7902e-05	581.32	233.45	162.88	71.688	2.5196e-05	119.95	82.164	71.369	6.639	-31.122	144.457	139.843	-31.356	-26.211	155.860	88.159	-27.492	-24.015	-23.272	-19.435	216.471	-20.928	-8191	255	
2293.204	1	1	0	0	0.15185	0.12175	0.049647	0.097841	0.23883	0.08178	0.18457	0.32706	0.20851	0.17166	0.31487	0.27995	0.24707	0.20522	0.036118	0.30569	-2.8187	-2.7479	-2.9396	-3.15	-2.9542	-3.0479	-3.1167	-3.0312	-3.0958	-3.1646	-3.0271	-3.4792	-2.9542	-3.025	-3.1792	-3.0042	289.087	192.954	-3.986	74.989	137.210	-16.325	289.102	265.823	288.951	258.088	289.113	269.624	255.173	241.990	126.236	266.495	0.00090947	0.0017484	0.00036458	982.27	3.5467e-06	1.2e-05	1108.4	351.96	1.2081e-05	1.7047e-05	528.26	223.09	151.37	67.137	1.1963e-05	114.61	0.0023909	0.0025586	0.00064477	1096.7	2.7961e-05	2.7574e-05	1150.3	368.15	2.7968e-05	2.7386e-05	575.61	230.12	161.14	70.164	2.4325e-05	117.99	100.316	25.560	4.042	-30.838	109.860	120.057	-31.183	-25.893	131.091	109.892	-27.406	-24.040	-23.213	-19.697	148.819	-20.859	-8191	255	
2293.300	1	1	0	0	0.25049	0.1873	0.12632	0.029989	0.10646	0.11273	0.071156	0.29211	0.12283	0.12787	0.18229	0.44425	0.19334	0.14755	0.11234	0.30065	-2.7417	-2.7458	-2.8542	-3.1583	-2.9688	-3.1646	-3.375	-2.9771	-3.2479	-3.1604	-2.9062	-3.3187	-3.1125	-3.1646	-3.1208	-2.8583	-16.014	-30.734	47.437	92.498	92.580	-17.104	271.507	264.303	238.560	6.015	62.958	276.179	281.494	275.741	305.606	285.506	0.00089389	0.00096126	0.00018211	976.65	1.5919e-05	1.4466e-05	1101.6	350.35	8.6457e-06	9.7412e-06	520.96	222.13	150.37	67.105	8.2215e-06	114.27	0.0024935	0.0024245	0.0006155	1100.3	2.8633e-05	2.6189e-05	1142	367.72	2.8603e-05	2.6322e-05	569.41	230.16	160.51	69.91	2.3596e-05	118.4	66.745	212.025	-4.492	-30.838	83.912	87.206	-31.112	-25.860	62.613	121.473	-27.493	-24.133	-23.549	-19.533	55.780	-20.724	-8191	255	
2293.421	1	1	0	0	0.18574	0.19471	0.17647	0.299	0.095239	0.055288	0.22812	0.17275	0.095701	0.057379	0.1076	0.34236	0.1585	0.050103	0.064631	0.27622	-2.9042	-2.8167	-2.9062	-3.2396	-3.0792	-3.025	-3.2375	-3.0625	-3.1229	-2.9771	-2.7625	-3.4	-2.9854	-3.1167	-3.2125	-3.0563	20.377	57.971	16.077	225.464	165.056	148.588	284.428	273.956	251.328	41.667	174.458	276.795	19.005	223.700	-37.802	202.312	0.00078367	0.0010082	7.4081e-05	973.47	1.0639e-05	1.434e-05	1102.4	349.83	1.0783e-05	4.5809e-06	526.91	223.1	150.62	66.738	1.6658e-05	114.82	0.0025051	0.0023719	0.00061365	1113	2.8402e-05	2.5605e-05	1144.4	370.11	2.7857e-05	2.5252e-05	571.26	231.59	160.23	69.574	2.3727e-05	118.88	62.389	32.087	51.391	-30.830	117.747	77.742	-31.072	-25.994	96.967	201.519	-27.275	-23.977	-23.100	-19.431	188.811	-20.730	-8191	255	
2293.493	1	1	0	0	0.33225	0.28131	0.1812	0.090326	0.12504	0.11749	0.26165	0.2373	0.048023	0.23551	0.23119	0.16722	0.25631	0.17065	0.18241	0.41113	-2.7687	-2.8729	-2.7167	-3.3896	-2.9375	-3.0667	-3.3979	-3.0438	-3.1562	-2.9958	-2.875	-3.4229	-3.0312	-3.0854	-3.3271	-2.9021	117.468	99.485	69.979	95.654	39.981	14.161	210.442	260.210	9.909	157.011	199.136	262.706	312.823	274.426	104.860	287.975	0.00053656	0.0014443	0.00010058	977.61	3.4712e-06	1.6812e-06	1111.1	349.39	2.7982e-06	1.6343e-05	526.48	223.4	150.73	66.66	1.4627e-05	115.01	0.0023754	0.0022756	0.00062043	1125.2	2.6837e-05	2.4929e-05	1150.9	369.74	2.6488e-05	2.467e-05	576.93	232.78	159.81	69.313	2.6021e-05	119.17	84.063	15.755	230.030	-30.913	279.560	185.635	-31.088	-25.932	225.922	131.121	-27.681	-23.832	-23.232	-19.520	98.510	-20.814	-8191	255	
2293.589	1	1	0	0	0.13128	0.10231	0.15456	0.32739	0.13345	0.09761	0.066723	0.088053	0.031357	0.1058	0.27245	0.13828	0.089379	0.19091	0.11664	0.21298	-2.6542	-3.1125	-2.7083	-3.1854	-3.0021	-2.8833	-3.4104	-3.2083	-3.0958	-3.1583	-3.1271	-3.2188	-2.9875	-3.0979	-3.2021	-2.9458	306.002	53.276	-3.484	56.981	180.307	217.923	287.219	208.697	133.987	-17.139	121.934	287.538	189.454	-4.619	-8.278	238.183	0.00088493	0.00074612	0.00012865	981.38	2.0068e-05	6.8027e-06	1104	345.81	6.5855e-06	1.3039e-05	518.4	218.56	146.98	65.167	1.4029e-05	112.34	0.0023587	0.0022717	0.00069078	1132.2	2.7019e-05	2.497e-05	1153.2	367.44	2.6665e-05	2.4978e-05	578.19	227.9	156.42	68.094	2.8955e-05	116.65	91.320	26.850	110.967	-30.566	79.274	128.736	-31.080	-25.797	79.810	84.080	-27.628	-24.015	-23.299	-19.521	155.713	-20.735	-8191	255	
2293.685	1	1	0	0	0.13965	0.24005	0.25019	0.096118	0.10504	0.24128	0.27766	0.27273	0.088138	0.12935	0.31302	0.36293	0.24775	0.099102	0.1499	0.091388	-2.6354	-3.1625	-2.9271	-3.2083	-3.0917	-2.9208	-3.1333	-3.1667	-2.8875	-3.2979	-2.8542	-3.3646	-3.0729	-3.1646	-3.1896	-3.1896	267.236	254.358	273.174	278.897	262.054	26.798	243.302	-33.983	308.621	230.264	-39.611	294.269	311.601	-8.919	10.956	234.543	0.00058581	0.0013551	0.00052222	982.51	3.0109e-06	8.4697e-06	1099.7	344.13	1.6342e-05	5.7e-06	512.95	217.98	147.34	65.132	7.4538e-06	112.81	0.0023437	0.0022995	0.00076057	1125.2	2.6374e-05	2.5448e-05	1152.8	364.65	2.6202e-05	2.5321e-05	580.36	226.75	156.04	68.179	3.0156e-05	116.64	57.752	135.686	77.676	-31.122	104.553	165.054	-30.957	-25.847	52.443	97.478	-27.312	-23.981	-23.288	-19.681	3.838	-20.732	-8191	255	
2293.805	1	1	0	0	0.088898	0.12119	0.21681	0.041116	0.14338	0.32591	0.13299	0.18448	0.13005	0.17912	0.16763	0.31358	0.30251	0.096025	0.11489	0.090188	-2.5438	-3.0625	-2.6021	-3.1771	-3.1708	-2.7562	-3.3646	-2.9771	-2.9958	-3.2188	-3.0708	-3.2292	-3.1646	-2.9437	-3.1937	-3.175	154.321	314.502	147.364	134.658	260.684	44.324	286.913	278.846	270.006	107.940	10.673	268.781	288.328	158.989	144.057	281.288	0.00071576	0.0016301	0.00042912	975.34	5.903e-06	7.0919e-06	1098	345.02	4.6813e-06	1.4795e-05	515.56	218.87	147.82	65.635	3.595e-06	113	0.0022665	0.0024007	0.0007794	1111.7	2.528e-05	2.6996e-05	1152.7	363.67	2.5187e-05	2.7382e-05	582.41	227.67	155.61	68.964	2.993e-05	117.05	71.284	91.335	2.551	-31.110	313.614	163.070	-31.016	-26.063	-30.838	181.542	-27.883	-24.009	-23.130	-19.368	14.503	-20.920	-8191	255	
2293.902	1	1	0	0	0.41596	0.18478	0.21724	0.19269	0.051343	0.097	0.34131	0.23228	0.20674	0.14772	0.095656	0.27121	0.13373	0.13422	0.23455	0.19602	-2.2479	-3.1833	-2.7375	-3.1125	-3.0938	-3.0333	-3.2083	-2.9958	-2.875	-3.2687	-3.1083	-3.0146	-3.2938	-3.0625	-3.1792	-3.2458	120.894	126.740	194.781	206.676	-27.506	114.911	314.419	290.272	-4.179	258.343	220.737	-23.572	20.490	295.709	263.670	296.913	0.00060585	0.00064474	0.00029906	973.39	1.0251e-05	1.5208e-05	1101.2	343.36	9.146e-06	9.5828e-06	516.34	217.49	146.49	65.189	9.5481e-06	112.4	0.0022089	0.0026023	0.0007695	1108.7	2.521e-05	2.9602e-05	1154.2	362.31	2.5461e-05	3.028e-05	579.23	226.55	155.13	68.814	2.9505e-05	116.5	89.731	122.506	5.748	-31.079	119.086	186.907	-31.091	-26.197	101.922	170.676	-27.605	-23.886	-23.406	-19.408	62.128	-20.796	-8191	255	
2293.998	1	1	0	0	0.24026	0.22725	0.062276	0.14352	0.13113	0.30706	0.23821	0.24868	0.10813	0.0322	0.18058	0.27605	0.27576	0.17167	0.23755	0.43197	-2.3917	-3.3312	-2.7708	-2.9688	-3.3208	-2.9062	-3.225	-3.0271	-2.5729	-3.3	-2.9708	-2.925	-3.2583	-2.9813	-2.9708	-3.4625	68.208	79.387	-9.073	180.605	185.533	-38.766	261.616	300.087	161.900	114.347	241.933	232.060	273.573	278.975	-27.689	233.861	0.00054197	0.0021814	8.4726e-05	973.56	6.5264e-06	1.2367e-05	1098.7	340.63	1.7305e-05	8.5816e-06	509.05	214.72	144.53	64.112	8.8441e-06	110.79	0.0023042	0.0028364	0.00074372	1103.5	2.6582e-05	3.1424e-05	1146.4	358.17	2.6885e-05	3.1455e-05	568.88	222.15	153.3	67.671	2.8062e-05	114.52	62.658	104.673	184.730	-31.283	19.252	145.538	-31.067	-26.014	159.503	169.855	-26.996	-24.306	-23.317	-19.462	277.950	-20.628	-8191	255	
2294.069	1	1	0	0	0.21152	0.084096	0.072844	0.12682	0.17798	0.15729	0.095383	0.11137	0.057161	0.18372	0.17595	0.34946	0.11986	0.40872	0.094979	0.19406	-2.4437	-2.9792	-2.95	-2.7854	-3.2313	-2.8917	-3.1063	-3.1875	-2.7125	-3.2625	-3.1292	-2.9896	-3.1042	-2.7833	-2.9	-3.1875	64.429	198.150	200.247	273.431	48.749	287.339	285.977	163.011	38.765	47.225	82.385	-32.866	197.689	305.862	199.901	266.268	0.00092737	0.0023527	0.00062275	972.24	2.1463e-05	1.4015e-05	1094.6	338.37	1.5844e-05	1.2607e-06	506.78	213.99	144.27	64.612	5.6822e-06	111.03	0.0024309	0.0028601	0.00071139	1095.6	2.8385e-05	3.1033e-05	1140.3	356.55	2.9434e-05	3.1262e-05	567.64	222.09	154.43	68.031	2.7812e-05	115.22	98.179	18.953	-0.516	-31.174	179.487	137.262	-31.232	-26.113	176.746	63.508	-27.482	-24.035	-23.249	-19.495	158.000	-20.708	-8191	255	
2294.188	1	1	0	0	0.053324	0.18436	0.12029	0.32434	0.25684	0.2022	0.21726	0.30947	0.16184	0.24988	0.031679	0.061589	0.27377	0.24554	0.025583	0.26403	-2.6021	-3.1542	-2.9188	-2.7625	-3.1312	-3.0812	-3.0396	-3.1896	-2.675	-3.0104	-3.1354	-2.9292	-3.2062	-2.925	-2.9354	-3.25	283.773	180.428	260.838	-30.579	243.071	272.359	286.543	236.123	-8.594	122.741	60.749	280.910	315.647	19.644	44.875	285.322	0.00092821	0.001702	0.00043819	968.11	8.7191e-06	7.5313e-06	1097.1	338.52	2.3335e-05	7.4617e-06	508.5	214.27	144.26	64.454	1.3357e-05	111.41	0.0026678	0.0028031	0.00070729	1098.5	3.1299e-05	3.0634e-05	1143	357.73	3.1679e-05	3.0232e-05	568.02	223.27	155.28	67.732	2.7243e-05	115.5	81.215	-7.917	19.374	-31.205	142.592	64.042	-30.858	-25.525	53.854	20.066	-27.591	-24.008	-23.341	-19.445	48.045	-20.716	-8191	255	
2294.284	1	1	0	0	0.30408	0.1262	0.022016	0.18337	0.11255	0.014959	0.2874	0.11173	0.15977	0.067131	0.31187	0.41468	0.035981	0.11134	0.25949	0.4414	-2.5812	-3.0479	-3.1875	-2.8479	-3.05	-3.1333	-3.1021	-3.3354	-2.9062	-3.0563	-3.15	-2.9542	-3.2	-3.1188	-2.9562	-3.4125	281.456	36.180	4.166	287.611	-9.941	-5.042	278.992	212.109	-8.494	118.917	271.082	292.783	135.016	275.276	133.522	206.260	0.00078629	0.0017732	0.00044224	967.38	1.3532e-05	3.099e-06	1102	339	5.8319e-06	9.6709e-06	507.76	216.07	143.44	64.03	1.0023e-05	112.01	0.0028087	0.0027174	0.0006911	1113.7	3.2417e-05	2.9163e-05	1144.9	359.47	3.1835e-05	2.905e-05	563.05	225.22	154.96	67.293	2.6322e-05	116.36	73.708	28.665	8.628	-30.994	117.553	87.093	-31.137	-25.815	48.763	75.676	-27.394	-23.801	-23.090	-19.452	91.815	-20.534	-8191	255	
2294.382	1	1	0	0	0.15263	0.098057	0.15082	0.11997	0.34086	0.2055	0.13722	0.13696	0.18191	0.065571	0.075082	0.26631	0.1829	0.27015	0.2535	0.13038	-2.4083	-2.8063	-3.0333	-2.65	-3.075	-2.9292	-2.9208	-3.1521	-2.8438	-2.9458	-3.2229	-3.0458	-2.9458	-3.0854	-2.8479	-3.4562	113.601	77.696	226.700	-5.271	55.241	-41.330	288.953	264.754	251.795	50.921	-38.251	287.981	285.719	290.123	39.254	260.528	0.00084338	0.0013111	6.0346e-05	962.91	5.663e-06	5.6209e-06	1097.6	336.89	1.0804e-05	1.6201e-05	506.65	211.15	141.17	62.777	3.494e-06	110.03	0.0027365	0.0026161	0.00067579	1121	3.0941e-05	2.7961e-05	1140.4	359.4	3.0619e-05	2.8211e-05	561.14	221.9	151.8	65.944	2.6778e-05	114.6	75.967	-8.695	189.120	-31.175	57.558	194.490	-31.246	-25.837	54.270	121.447	-27.192	-23.840	-23.303	-19.174	127.185	-20.633	-8191	255	
2294.501	1	1	0	0	0.2526	0.12286	0.14966	0.21976	0.10832	0.17118	0.1387	0.28735	0.13956	0.11604	0.19247	0.10892	0.20736	0.20972	0.27166	0.19004	-2.4896	-2.7833	-3.1271	-2.8167	-3.0708	-2.9833	-3.0146	-3.3083	-2.9813	-3.0229	-3.2438	-2.9917	-3.2083	-3.2125	-2.975	-3.3604	181.768	23.341	263.966	-37.177	43.033	71.834	240.059	220.286	301.562	64.471	49.652	152.572	-12.271	-38.920	81.797	-33.116	0.00063239	0.0013384	8.3397e-05	966.21	9.1233e-06	7.353e-06	1091.5	334.79	6.4128e-06	1.6871e-05	506.43	210.74	140.38	62.348	9.4569e-06	109.14	0.0025983	0.0025073	0.00069304	1133.1	2.9758e-05	2.7106e-05	1142.1	359.17	2.9291e-05	2.7372e-05	564.35	221.63	150.9	65.463	2.8686e-05	114.37	69.276	57.966	137.624	-31.458	86.830	117.077	-31.178	-25.801	10.360	85.567	-27.231	-23.799	-22.880	-19.414	171.314	-20.721	-8191	255	
2294.597	1	1	0	0	0.11494	0.24855	0.11313	0.14494	0.223	0.20268	0.35104	0.26188	0.091636	0.30235	0.2441	0.41767	0.085351	0.20542	0.19134	0.32297	-2.4104	-2.8729	-3.1646	-2.9521	-3.0958	-3.1833	-2.8187	-3.2583	-2.9938	-2.8521	-3.1437	-2.9188	-3.0687	-3.4271	-2.675	-3.3833	68.743	296.471	-7.117	220.861	-3.987	-11.826	216.857	246.576	215.108	10.894	177.054	259.490	191.607	223.634	113.792	-23.699	0.0010213	0.00095049	0.00013875	964.29	9.7347e-06	1.284e-05	1098.3	333.69	3.1506e-06	1.4018e-05	501.88	210.88	138.89	61.754	5.5724e-06	108.96	0.0025039	0.0024662	0.00074647	1130.1	2.8891e-05	2.667e-05	1148.3	357.2	2.8807e-05	2.6991e-05	569.4	221.21	149.34	65.008	3.2258e-05	113.93	87.031	50.379	291.311	-31.006	83.206	90.710	-31.144	-25.869	306.631	158.802	-27.102	-23.585	-22.768	-19.282	188.207	-20.595	-8191	255	
2294.694	1	1	0	0	0.31397	0.11552	0.16318	0.21185	0.096294	0.16895	0.26618	0.077676	0.047694	0.097037	0.039634	0.34915	0.23451	0.16769	0.2951	0.15583	-2.5125	-2.9625	-3.1708	-2.8833	-2.925	-3.2542	-2.9854	-3.1813	-3.0479	-2.8354	-3.1979	-3.0042	-3.0208	-3.3563	-2.8521	-3.4125	34.370	202.272	130.580	106.793	306.050	128.580	208.460	66.066	42.242	162.839	-25.113	263.117	-11.613	-26.050	140.764	237.853	0.00093047	0.0013428	0.00051775	962.28	1.0742e-05	1.0005e-05	1099.6	330.02	1.6068e-05	6.8982e-06	499.97	208.43	137.48	61.31	1.6517e-05	108.18	0.0025432	0.0025718	0.00084195	1129.8	2.9377e-05	2.8474e-05	1157.1	354.94	2.8953e-05	2.9472e-05	576.76	219.6	148	64.711	3.4337e-05	113.06	86.410	56.600	122.308	-31.503	-7.813	197.747	-31.116	-25.783	28.688	144.899	-28.036	-23.642	-22.997	-19.237	43.565	-20.546	-8191	255	
2294.790	1	1	0	0	0.12093	0.37666	0.25692	0.080276	0.13067	0.043804	0.24317	0.064736	0.31855	0.23886	0.17712	0.22326	0.13533	0.2276	0.22184	0.21565	-2.6937	-2.825	-3.175	-2.9292	-2.9396	-3.25	-3.1063	-3.0417	-3.1458	-2.725	-3.2708	-2.8833	-2.9479	-3.2542	-2.9083	-3.1875	2.311	66.539	195.068	139.436	164.663	193.169	268.907	171.879	36.188	52.664	-14.663	307.673	237.176	251.952	-35.695	230.342	0.00086666	0.0015608	0.00031859	963.8	6.1302e-06	1.4394e-05	1089.7	330.17	5.4878e-06	1.9919e-05	496.44	203.19	135.56	59.931	6.0897e-06	106.57	0.0025001	0.0027609	0.00088267	1121.2	2.8817e-05	3.0862e-05	1153.8	352.3	2.7933e-05	3.1551e-05	571.91	214.69	145.77	63.929	3.369e-05	110.99	57.334	68.627	66.428	-31.202	146.099	203.689	-31.196	-25.961	100.024	193.976	-27.661	-23.794	-22.979	-19.285	71.964	-20.454	-8191	255	
2294.886	1	1	0	0	0.16371	0.059834	0.22163	0.056077	0.11468	0.10542	0.15667	0.11534	0.19817	0.042175	0.24525	0.31533	0.13537	0.15525	0.11871	0.039591	-2.6271	-2.6917	-3.0375	-3.1125	-2.8625	-3.2896	-3.0438	-3.0792	-3.0812	-2.9	-3.2521	-3.275	-2.9708	-3.4813	-3.0271	-3.0563	127.088	315.680	90.686	228.326	263.199	15.542	101.917	218.751	-20.453	68.332	274.503	264.850	181.950	263.694	110.260	13.967	0.00098037	0.0010249	0.00045068	963.42	7.9797e-06	1.641e-05	1084.8	328.59	2.1298e-05	1.0763e-05	497.04	204.62	136.21	60.512	1.3631e-05	106.82	0.0024578	0.003023	0.00086426	1118.2	2.8766e-05	3.3514e-05	1146.7	350.72	2.8531e-05	3.4383e-05	570.1	214.32	146.38	64.614	3.2806e-05	111.22	106.441	51.873	-2.294	-30.950	152.656	213.504	-31.207	-25.960	174.270	182.453	-27.085	-23.807	-22.764	-19.312	-32.550	-20.507	-8191	255	
2294.982	1	1	0	0	0.12746	0.10637	0.13867	0.043358	0.055555	0.048637	0.29343	0.4398	0.19193	0.14989	0.15284	0.27477	0.18738	0.13347	0.34013	0.090654	-2.8333	-2.9437	-3.1542	-3.0354	-2.8271	-3.3792	-3.1083	-2.9813	-3.2729	-2.6854	-3.1646	-3.1021	-2.8875	-3.2917	-2.9979	-3.0771	141.504	203.652	86.522	139.389	31.256	259.010	305.985	305.592	55.075	77.164	227.471	286.054	273.648	268.066	-35.761	-16.503	0.00070585	0.0014896	0.00053898	959.45	1.4762e-05	6.303e-06	1088.2	331.21	2.4269e-05	7.8464e-06	501.56	206.03	138.05	61.108	8.6938e-06	106.71	0.0025621	0.0032195	0.0008392	1111.5	3.0524e-05	3.5562e-05	1147.6	353.01	3.0647e-05	3.5663e-05	568.91	216.11	148.93	65.019	3.1557e-05	111.26	83.933	85.477	10.864	-31.610	113.713	35.151	-31.236	-25.911	131.978	40.622	-27.541	-23.522	-22.836	-19.387	155.760	-20.619	-8191	255	
2295.103	1	1	0	0	0.16858	0.21521	0.056831	0.027342	0.17327	0.30573	0.20235	0.32601	0.26351	0.35952	0.089193	0.318	0.2427	0.11526	0.12882	0.22525	-2.7979	-2.9062	-3.0292	-3.2979	-2.7062	-3.2792	-3.0312	-3	-3.1792	-2.8708	-2.9708	-3.2833	-2.8417	-3.4708	-3.1125	-3.0542	119.853	16.926	141.836	302.730	50.663	-0.248	264.264	225.224	20.595	245.233	113.845	273.251	-15.011	233.634	172.338	282.332	0.00091427	0.0013057	0.00026217	958.67	7.4431e-06	1.2387e-05	1088.6	330.51	9.5405e-06	1.0029e-05	495.97	207.48	138.01	60.919	1.4288e-05	106.86	0.0028035	0.0032397	0.00081654	1112.6	3.3696e-05	3.5378e-05	1146.9	352.99	3.3778e-05	3.5278e-05	567.98	217.3	150.43	64.976	3.0937e-05	111.51	68.883	77.852	86.103	-30.577	141.797	121.445	-30.901	-26.121	168.927	132.628	-27.555	-24.030	-22.983	-19.010	53.454	-20.570	-8191	255	
2295.197	1	1	0	0	0.072509	0.11166	0.025479	0.24979	0.23802	0.13714	0.18143	0.20508	0.1188	0.10676	0.077103	0.078332	0.29888	0.16043	0.42355	0.1041	-2.7771	-2.8896	-2.9458	-3.0354	-2.6979	-2.9938	-3.0958	-2.925	-3.2833	-3.0083	-3.0479	-3.325	-2.9771	-3.3875	-3.3104	-2.9188	170.447	58.128	193.875	48.885	124.851	-40.674	236.725	225.029	145.609	-35.320	12.468	230.149	286.887	268.133	95.549	34.822	0.0009068	0.0010745	0.0001882	964.67	1.9097e-05	4.8674e-06	1094.1	329.01	1.064e-05	9.5416e-06	496.16	205.56	136.89	59.911	3.1279e-06	105.53	0.0030159	0.0030831	0.00079046	1113.2	3.5069e-05	3.3709e-05	1144.4	351.6	3.4927e-05	3.3289e-05	562.32	215.18	149.73	63.879	3.0123e-05	110.44	67.467	-10.237	-23.900	-31.212	169.355	96.407	-31.159	-25.978	165.463	46.146	-27.733	-23.908	-22.836	-19.277	199.616	-20.504	-8191	255	
2295.293	1	1	0	0	0.023414	0.075382	0.044311	0.47313	0.12412	0.18869	0.12639	0.23025	0.056097	0.073269	0.073094	0.34888	0.12972	0.07064	0.12105	0.2628	-2.6604	-2.6542	-3.0729	-3.1396	-2.7979	-3.0812	-3.0979	-2.8958	-2.9167	-2.9167	-2.9104	-3.2771	-2.8958	-3.2375	-3.2687	-3.0083	222.840	313.284	120.885	312.420	274.910	64.239	315.671	270.655	160.356	290.760	240.759	301.821	38.938	-5.133	188.086	282.708	0.00071929	0.00025042	0.00026025	965.34	2.3133e-05	6.9043e-06	1093.2	331.23	1.7619e-05	7.3623e-06	493.11	206.32	138.21	60.584	8.2532e-06	106.82	0.0030945	0.0030023	0.00076905	1132.4	3.6263e-05	3.2666e-05	1143.9	356.34	3.599e-05	3.2241e-05	561.18	217.7	151.01	64.402	2.9612e-05	111.8	61.790	312.180	27.142	-31.076	60.244	-37.927	-31.225	-25.625	147.632	93.102	-27.202	-24.025	-22.866	-19.293	125.140	-20.524	-8191	255	
2295.365	1	1	0	0	0.11396	0.12735	0.116	0.11742	0.09729	0.1234	0.13535	0.15735	0.21519	0.080518	0.17253	0.17969	0.23867	0.23288	0.28429	0.54541	-2.7354	-3.0604	-2.9333	-3.1958	-3.0458	-2.9771	-3.4583	-2.9417	-3.1958	-3.0792	-2.9854	-3.3833	-2.9792	-3.1125	-3.2396	-2.9833	119.679	106.058	118.235	289.144	71.967	180.373	-32.303	-42.331	104.298	-29.114	72.597	265.946	-34.903	316.291	97.876	262.827	0.00077212	0.0011476	0.00032465	965.91	2.1331e-05	1.3467e-05	1094.3	336.68	1.1768e-05	1.7222e-05	510.09	212.56	143.3	62.319	1.4321e-05	108.72	0.003032	0.0029085	0.0007551	1148.3	3.4119e-05	3.0985e-05	1145.7	362.05	3.2958e-05	3.0263e-05	568.44	223.85	153.96	65.716	2.8624e-05	113.92	46.072	87.512	65.981	-31.323	60.310	103.813	-31.101	-25.692	-2.490	88.682	-27.514	-23.635	-23.147	-19.435	116.613	-20.643	-8191	255	
2295.485	1	1	0	0	0.14616	0.20763	0.10691	0.077625	0.25259	0.16544	0.33237	0.056021	0.20538	0.14044	0.093851	0.33494	0.25597	0.26338	0.21465	0.12684	-2.6708	-3.2687	-2.675	-3.1958	-2.8625	-2.9792	-3.3979	-3.0229	-3.1437	-3.1458	-2.7375	-3.2417	-2.8146	-3.0417	-3.2	-3.0667	158.960	92.122	181.909	120.934	257.047	-32.097	245.787	42.177	215.199	32.099	235.030	282.987	281.825	274.286	115.838	12.736	0.00063077	0.00092472	0.00055252	974.52	1.972e-05	1.1677e-05	1102.5	337.79	1.8268e-05	1.3982e-05	508.83	214.37	143.35	61.781	1.6355e-05	107.68	0.0027985	0.0027077	0.00076298	1155.9	3.1975e-05	2.9661e-05	1157.5	364.85	3.1366e-05	2.9061e-05	577.82	226.17	154.58	65.125	3.1542e-05	113.4	90.247	-5.125	82.333	-30.840	68.594	92.942	-30.976	-25.931	1.032	50.223	-27.514	-23.863	-23.159	-19.333	182.354	-20.450	-8191	255	
2295.582	1	1	0	0	0.23447	0.15981	0.21945	0.28289	0.15934	0.12107	0.17502	0.28178	0.06995	0.27337	0.1697	0.15291	0.22971	0.1996	0.12819	0.055556	-2.4771	-3.0479	-2.7542	-3.3312	-2.9083	-2.8771	-3.3396	-3.0312	-3.1604	-3.1125	-2.9458	-3.1625	-3.0417	-3.1021	-3.3	-2.9458	284.783	211.958	-39.757	171.011	34.374	182.869	302.209	228.671	139.257	-37.202	226.828	291.569	-6.484	304.670	141.717	147.311	0.00080866	0.00053043	0.00031252	970.41	7.7193e-06	1.1268e-05	1105.7	337.94	1.4127e-05	1.0919e-05	507.06	209.81	141.13	59.724	7.0005e-06	105.07	0.0027213	0.002662	0.00083774	1158.1	3.176e-05	2.9772e-05	1169.9	364.1	3.1535e-05	2.9498e-05	582.5	221.36	151.65	63.134	3.422e-05	110.09	41.586	39.243	95.610	-31.534	307.425	88.410	-31.101	-25.899	64.032	94.288	-27.138	-23.743	-23.278	-18.885	109.301	-20.636	-8191	255	
2295.678	1	1	0	0	0.050023	0.17994	0.23436	0.14291	0.25018	0.040606	0.070494	0.42168	0.11062	0.31895	0.064246	0.29352	0.33287	0.27858	0.18935	0.14001	-2.7562	-3.175	-2.8271	-3.1188	-3.1479	-2.8229	-3.3438	-3.0042	-2.8333	-3.2646	-3.025	-3.0833	-3.1104	-2.8292	-2.9521	-3.0312	191.601	-13.555	276.879	-14.432	74.132	249.536	86.861	259.500	121.831	64.537	125.916	-24.543	278.388	267.077	14.623	171.464	0.0010865	0.00074991	0.00058909	972.94	9.1793e-06	4.1846e-06	1102.3	338.11	8.1552e-06	7.0154e-06	504.55	209.01	140.08	59.477	8.5702e-06	104.25	0.002668	0.0027019	0.0009004	1147	3.0581e-05	3.0171e-05	1168.3	361.19	2.9694e-05	2.9839e-05	581.63	219.41	150.05	62.905	3.487e-05	109.2	92.086	148.974	92.626	-31.177	150.519	133.095	-31.001	-26.079	261.022	201.208	-27.484	-23.888	-23.120	-19.064	240.746	-20.346	-8191	255	
2295.774	1	1	0	0	0.22682	0.088316	0.075618	0.15091	0.11533	0.28958	0.082462	0.20896	0.29639	0.15313	0.018022	0.30947	0.11539	0.18009	0.23219	0.13719	-2.5167	-3.1063	-2.7979	-2.925	-2.9792	-2.9938	-3.2875	-2.9521	-2.6688	-3.2479	-2.9083	-3.0417	-3.2333	-2.8646	-3.3021	-3.1583	85.701	-43.032	-5.511	-18.415	82.151	76.453	154.276	-33.810	146.301	184.169	286.867	225.741	236.098	265.301	85.325	195.024	0.00063197	0.00086884	0.00024904	971.24	1.453e-05	4.6901e-06	1105	335.59	1.2808e-05	8.4665e-06	507.73	210.26	140.7	59.587	1.2428e-05	105.01	0.0025398	0.0028433	0.00089239	1134.1	2.9008e-05	3.2047e-05	1169.2	359.56	2.8812e-05	3.243e-05	584.05	220.49	150.93	63.406	3.3411e-05	109.54	81.159	218.898	97.238	-31.288	87.173	258.417	-31.039	-25.906	143.880	155.099	-27.393	-23.870	-22.987	-19.173	33.899	-20.233	-8191	255	
2295.870	1	1	0	0	0.14952	0.1483	0.19045	0.22003	0.13641	0.22153	0.29667	0.25936	0.33259	0.20509	0.09546	0.091379	0.19831	0.22504	0.39003	0.007265	-2.4729	-3.0646	-2.7062	-3.0312	-3.0854	-2.75	-3.1521	-2.975	-2.7667	-3.0625	-2.8312	-3.1625	-3.2396	-2.925	-2.9875	-3.1021	291.500	-13.512	209.372	-41.376	66.650	198.330	264.409	232.970	269.912	201.954	63.248	254.436	10.067	263.077	228.915	-9.044	0.00062665	0.0015499	0.00013237	969.9	7.0506e-06	1.3844e-05	1111.6	336.55	3.5896e-06	1.1412e-05	508.31	210.4	140.22	59.221	5.1898e-06	105.02	0.0024404	0.002994	0.00084017	1122.6	2.8106e-05	3.3546e-05	1167.9	358.51	2.861e-05	3.4153e-05	579.04	220.04	150.4	63.36	3.2009e-05	109.39	89.807	29.344	296.553	-30.836	196.952	95.609	-31.303	-26.155	128.738	225.728	-27.096	-23.651	-22.907	-19.111	-3.173	-20.454	-8191	255	
2295.966	1	1	0	0	0.031177	0.094289	0.11696	0.20664	0.30258	0.3236	0.050869	0.1003	0.052412	0.07999	0.22164	0.070673	0.19926	0.12648	0.088002	0.16367	-2.3312	-3.1688	-2.8583	-2.8542	-3.1437	-2.7896	-2.9771	-3.1375	-2.6542	-3.1083	-2.8458	-2.7875	-3.1333	-3.0104	-3.0208	-3.3458	265.091	92.667	150.725	175.891	147.183	122.164	27.728	-13.760	95.215	-35.216	4.827	281.474	-42.068	198.327	239.698	86.206	0.00083027	0.00094147	0.00042272	974.83	1.1457e-05	6.2839e-06	1114.6	336.34	2.0504e-05	1.1903e-05	506.61	209.43	139.52	58.717	1.9661e-06	103.82	0.0025558	0.0031592	0.0008131	1121.9	2.9918e-05	3.4679e-05	1165.8	356.79	3.0096e-05	3.455e-05	573	217.99	150.21	62.675	3.0438e-05	107.81	95.054	-11.596	-24.838	-30.794	159.827	17.897	-30.816	-26.067	197.521	43.042	-27.348	-23.948	-23.310	-19.063	54.030	-20.413	-8191	255	
2296.062	1	1	0	0	0.14387	0.28077	0.22558	0.0053316	0.26982	0.29627	0.16632	0.15964	0.078447	0.096672	0.17044	0.20596	0.4198	0.2614	0.15683	0.13887	-2.2583	-3.0583	-2.9229	-2.6646	-3.2271	-2.9	-2.9833	-3.1479	-2.8646	-3.1396	-2.85	-2.8667	-3.4104	-2.8083	-2.9833	-3.2604	49.455	219.290	-42.406	80.114	207.078	-27.646	183.349	258.199	-9.340	242.970	256.079	246.488	265.606	252.331	115.378	315.334	0.0011567	0.0011939	0.00023843	964.39	1.2626e-05	1.8217e-05	1102.1	335.17	8.2524e-06	5.3473e-06	502.76	209.8	140.22	59.575	2.2715e-05	104.65	0.0027554	0.0030878	0.00076813	1106	3.1625e-05	3.3165e-05	1153.3	354.67	3.2221e-05	3.2842e-05	567.51	218.52	151.92	63.499	2.941e-05	109.06	85.911	246.302	-19.669	-31.222	97.865	16.989	-31.155	-26.108	125.646	147.521	-27.756	-23.912	-23.426	-19.444	118.228	-20.501	-8191	255	
2296.183	1	1	0	0	0.26141	0.18193	0.021158	0.15093	0.17437	0.13068	0.088274	0.13777	0.10937	0.072204	0.20644	0.14446	0.23102	0.151	0.17187	0.32427	-2.5083	-3.3	-2.8688	-2.85	-3.1833	-2.825	-2.9562	-3.0771	-2.7667	-2.8229	-3.1792	-2.8646	-3.3083	-3.0125	-2.7271	-3.1875	82.506	205.298	247.842	-8.104	39.732	98.848	247.405	161.571	63.594	263.644	5.017	307.011	-27.656	264.456	101.732	268.551	0.0010389	0.0023447	0.00011084	967.14	4.4486e-06	1.4525e-05	1102.6	336.62	3.1063e-05	1.2773e-05	506.34	210.59	141.12	60.703	1.199e-05	105.96	0.0028998	0.002954	0.0007506	1113.9	3.3956e-05	3.224e-05	1151.9	356.43	3.4293e-05	3.1794e-05	566.78	220.62	153.16	64.265	2.8731e-05	110.62	65.009	-0.762	118.899	-31.147	38.957	123.142	-31.335	-26.094	156.556	112.891	-28.005	-23.914	-23.245	-19.264	74.945	-20.470	-8191	255	
2296.277	1	1	0	0	0.13743	0.10493	0.13502	0.21914	0.10726	0.10921	0.28241	0.26899	0.15272	0.21483	0.28187	0.16358	0.11034	0.065887	0.15519	0.35652	-2.3	-2.9854	-2.9146	-2.6437	-3.125	-2.9396	-3.0208	-3.2062	-2.8104	-2.875	-3.1354	-2.8688	-3.2042	-2.9688	-2.7708	-3.1417	40.568	252.866	16.345	287.172	69.780	171.160	226.581	279.994	81.697	95.837	303.177	280.598	48.371	-37.954	210.912	273.031	0.00046223	0.00036636	0.00022427	974.57	8.4033e-06	6.1625e-06	1099.8	334.49	1.6465e-05	7.9615e-06	496.89	209.34	139.94	59.829	1.1369e-05	104.97	0.0029934	0.0028742	0.0007347	1127.5	3.4588e-05	3.1007e-05	1149.7	357.27	3.3649e-05	3.0763e-05	560.48	220.56	151.67	63.262	2.8162e-05	110.24	102.531	256.113	46.085	-30.724	21.931	66.602	-31.042	-25.916	164.235	105.419	-27.986	-23.841	-23.281	-19.062	61.186	-20.560	-8191	255	
2296.374	1	1	0	0	0.096004	0.17301	0.14087	0.233	0.20866	0.052132	0.30418	0.19752	0.21052	0.055621	0.15451	0.21604	0.085991	0.45239	0.079968	0.35931	-2.4688	-2.8063	-3.1479	-2.7479	-3.1542	-2.8979	-2.7979	-3.2354	-2.7042	-2.8042	-3.1813	-2.8979	-3.1854	-3.0625	-2.8333	-3.3854	244.401	-13.651	222.667	-40.818	182.537	122.744	212.196	258.684	192.364	26.135	63.413	237.100	255.103	271.047	21.953	286.995	0.00081057	0.00021925	0.00023067	967.52	6.8342e-06	1.1915e-05	1106.6	335.22	1.7356e-05	8.6698e-06	503.21	207.06	137.7	58.644	3.4593e-06	103.76	0.0028742	0.0027497	0.00071574	1139.4	3.2346e-05	2.9621e-05	1154.2	358.94	3.1609e-05	2.9268e-05	562.13	219.01	149.19	62.002	2.8928e-05	109.19	79.505	305.182	82.870	-30.765	142.299	129.151	-31.239	-25.895	-17.533	87.532	-27.308	-23.776	-23.330	-19.166	189.104	-20.334	-8191	255	
2296.470	1	1	0	0	0.16615	0.024137	0.2077	0.29479	0.25422	0.10954	0.30044	0.15036	0.26401	0.12545	0.16277	0.1011	0.27516	0.12589	0.18945	0.15114	-2.55	-2.9208	-3.0896	-2.6583	-3.0979	-3.0729	-2.8438	-3.3229	-2.8542	-2.9229	-3.1437	-2.9708	-2.9646	-3.4021	-2.6354	-3.3708	-24.486	87.313	298.142	95.804	161.766	58.769	254.220	264.132	229.810	275.927	46.459	275.952	285.404	94.122	24.261	208.688	0.00067735	0.0029078	0.00016638	961.32	1.4096e-05	1.0229e-05	1096.1	333.5	9.1726e-06	1.3782e-05	502.83	209.2	138.9	59.616	2.3133e-05	104.96	0.0026879	0.0026018	0.00074721	1139.7	3.0731e-05	2.7979e-05	1151	358.11	3.0027e-05	2.8019e-05	567.04	219.69	149.78	62.796	3.0505e-05	110.48	68.791	80.781	160.156	-31.161	61.856	50.883	-30.892	-25.893	-3.706	114.908	-26.951	-23.917	-23.281	-19.173	141.337	-20.405	-8191	255	
2296.590	1	1	0	0	0.23348	0.1561	0.1818	0.30506	0.024889	0.074971	0.16384	0.24948	0.13874	0.079586	0.19555	0.19835	0.19229	0.12359	0.12869	0.060888	-2.4562	-2.7667	-3.0979	-2.6854	-3.0083	-2.8292	-2.9542	-3.0833	-2.9729	-2.7958	-3.2458	-2.9229	-3.1417	-3.1229	-2.9	-2.9896	226.718	50.877	312.918	80.262	257.841	-40.582	-27.517	240.242	299.236	59.469	200.017	299.017	283.606	295.667	82.524	224.027	0.00068537	0.0013508	0.00031634	969.72	1.0133e-05	8.084e-06	1094.1	334	3.5056e-06	1.1771e-05	503.5	209.43	139.75	60.528	4.2479e-06	107.33	0.0025624	0.0025309	0.00080436	1140.4	3.024e-05	2.803e-05	1158.2	359.05	3.0181e-05	2.8457e-05	577.71	220.66	150.27	63.913	3.3484e-05	112.06	90.071	-15.382	84.829	-31.686	110.508	64.104	-31.210	-25.833	88.625	231.606	-27.256	-23.789	-23.116	-19.259	223.263	-20.614	-8191	255	
2296.662	1	1	0	0	0.061897	0.13769	0.14185	0.20041	0.19007	0.10467	0.24697	0.085366	0.11709	0.11067	0.21442	0.23194	0.12401	0.18433	0.097354	0.22955	-2.7062	-2.6896	-3.0521	-2.8521	-2.8833	-3.2521	-2.8771	-3.1	-2.9729	-2.7417	-3.0417	-3.0167	-2.8292	-3.4313	-2.6896	-3.2812	247.763	-43.607	133.668	35.817	166.291	194.859	21.326	308.279	314.214	144.483	-27.716	286.760	279.110	262.282	21.373	161.375	0.00053205	0.00081215	0.00010186	970.93	1.076e-05	1.0168e-05	1098.8	333.09	1.2421e-05	1.5102e-05	504.11	210.2	140.24	61.18	1.0445e-05	107.94	0.0025163	0.0026068	0.00086109	1128.6	2.9059e-05	2.8787e-05	1160.5	356.28	2.8343e-05	2.9561e-05	579.51	220.72	150.04	64.716	3.4301e-05	112.65	78.843	3.028	50.324	-31.057	74.997	165.763	-31.005	-26.016	32.259	158.845	-27.769	-23.987	-23.409	-19.151	58.033	-20.623	-8191	255	
2296.783	1	1	0	0	0.085846	0.21313	0.20868	0.22174	0.19954	0.13366	0.099265	0.11641	0.19294	0.062919	0.23801	0.081189	0.29711	0.15269	0.28347	0.12083	-2.4417	-2.9292	-3.1292	-2.8521	-2.7396	-3.2083	-2.8167	-3.1292	-3.0458	-2.8688	-2.9646	-3.0812	-2.7792	-3.3958	-2.6646	-3.2104	262.428	-28.838	168.667	312.931	40.146	50.038	240.170	291.210	20.760	51.524	289.250	171.204	306.912	12.089	304.004	306.130	0.00091915	0.0016254	8.1881e-05	965.76	5.357e-06	7.5492e-06	1103.9	332.69	8.8025e-06	7.5012e-06	501.75	209.11	138.59	60.348	3.1556e-06	105.94	0.0024802	0.0028611	0.00087557	1124.2	2.873e-05	3.2215e-05	1165.1	355.63	2.8726e-05	3.3433e-05	580.03	219.18	148.34	64.244	3.4457e-05	110.82	64.752	72.887	-7.535	-31.153	202.197	181.476	-31.186	-25.888	97.031	190.222	-27.442	-23.655	-23.145	-19.101	30.546	-20.524	-8191	255	
2296.879	1	1	0	0	0.17299	0.092926	0.16862	0.3986	0.18284	0.093387	0.12349	0.18479	0.13463	0.041464	0.12902	0.1507	0.29394	0.16673	0.04256	0.12464	-2.4688	-2.7208	-2.9	-2.8792	-2.65	-3.2083	-2.925	-3.175	-2.9813	-3.0042	-3.0104	-3.2271	-2.9146	-3.1354	-2.8271	-2.9208	130.220	138.458	176.467	310.951	37.541	81.733	173.363	281.557	8.272	113.988	130.872	244.476	-25.013	-39.057	3.138	266.890	0.00090283	0.0016299	0.00025209	967.25	3.1978e-06	4.6387e-06	1095	328.7	1.5683e-05	1.546e-05	496.28	204.38	136.48	60.023	1.8983e-05	105.42	0.0025772	0.0032176	0.00089336	1128.1	3.0089e-05	3.5522e-05	1157.1	351.71	2.9935e-05	3.5982e-05	570.46	215.28	147.96	64.299	3.353e-05	109.97	87.910	142.982	264.279	-31.323	260.268	115.376	-31.131	-25.959	104.166	162.782	-27.620	-23.985	-22.880	-19.229	60.692	-20.619	-8191	255	
2296.975	1	1	0	0	0.1772	0.38842	0.090994	0.047234	0.14688	0.17721	0.35504	0.56167	0.17406	0.13067	0.021273	0.36016	0.11091	0.089715	0.082542	0.093529	-2.6604	-2.7417	-3.1188	-3.0271	-2.8354	-3.0708	-2.9375	-2.8771	-3.1646	-2.7125	-3.1583	-3.1375	-2.9604	-3.1771	-2.9875	-2.9062	126.873	113.839	75.062	149.157	71.236	248.872	238.967	268.022	17.195	-14.885	73.399	298.371	191.084	252.243	77.960	246.654	0.0008508	0.00019137	0.00056172	958.14	1.3254e-05	2.5832e-06	1093.9	328.26	1.8166e-05	8.6629e-06	502.01	205.38	137.44	60.53	9.1541e-06	106.43	0.0027293	0.0033416	0.00085694	1119.7	3.2746e-05	3.7189e-05	1151.6	352.18	3.2719e-05	3.6994e-05	569.38	215.9	149.44	64.648	3.2068e-05	110.58	65.342	60.333	53.163	-31.337	131.462	47.539	-31.079	-25.916	181.847	-42.058	-27.244	-23.956	-23.138	-19.430	160.725	-20.735	-8191	255	
2297.071	1	1	0	0	0.10146	0.15657	0.19148	0.051218	0.092068	0.17549	0.3554	0.12497	0.1974	0.11519	0.26173	0.25291	0.074346	0.16866	0.15799	0.19682	-2.6875	-2.7479	-3	-3.0021	-2.9458	-2.95	-3.0792	-2.9396	-3.1854	-2.7854	-2.9917	-3.2458	-2.8312	-3.0375	-2.9875	-2.8583	-31.451	-5.629	274.147	103.253	-0.996	83.852	249.500	22.673	239.569	314.775	244.379	292.765	38.164	312.382	7.603	283.321	0.0007547	0.0013591	0.00020432	959.23	1.1683e-05	9.9245e-06	1090.7	326.77	2.6223e-06	1.5986e-05	495.18	204.36	136.49	59.782	6.1281e-06	105.51	0.0029318	0.0032857	0.0008212	1111	3.4887e-05	3.5786e-05	1149.4	349.62	3.5049e-05	3.5451e-05	564	214.66	149.4	63.841	3.1792e-05	109.92	82.944	35.848	42.733	-31.072	176.799	35.606	-31.009	-25.664	235.500	88.939	-27.468	-23.749	-23.255	-19.243	2.755	-20.377	-8191	255	
2297.165	1	1	0	0	0.19374	0.14177	0.069956	0.31349	0.25123	0.05175	0.25425	0.32204	0.085635	0.17029	0.19529	0.070987	0.23904	0.21582	0.048338	0.10306	-2.6875	-2.8438	-2.7938	-3.2271	-2.8187	-2.9896	-3.2208	-2.5812	-3.3521	-2.9125	-3.0917	-3.1854	-2.8812	-3.2104	-3.0292	-2.9583	-14.330	-23.775	159.498	268.428	274.986	280.303	247.584	289.973	-37.872	299.389	261.943	245.790	225.094	249.554	73.161	183.144	0.0011216	0.001843	0.00037797	963.09	1.3172e-05	1.5873e-05	1093.9	328.04	1.8742e-05	1.1562e-05	496.32	204.06	136.17	59.363	1.8088e-05	103.81	0.0031558	0.0032078	0.0008211	1129.7	3.7561e-05	3.5e-05	1150.4	352.5	3.726e-05	3.434e-05	563.07	215.58	149.58	63.292	3.0778e-05	109.21	90.954	10.465	50.969	-31.368	138.672	43.653	-31.310	-25.751	152.157	38.554	-27.488	-23.694	-23.026	-19.435	85.152	-20.688	-8191	255	
2297.262	1	1	0	0	0.12924	0.12751	0.21495	0.23065	0.039271	0.13913	0.26512	0.18287	0.13528	0.10895	0.10222	0.10349	0.24375	0.16866	0.25222	0.098375	-2.575	-2.9896	-2.8271	-3.1958	-2.8646	-2.9437	-3.1729	-2.8875	-2.9542	-2.7938	-2.7687	-3.2438	-2.9458	-2.9292	-3.0438	-2.9562	202.781	123.522	23.531	246.975	303.485	21.561	218.225	222.631	258.116	197.746	35.537	241.308	28.335	51.229	-30.735	194.069	0.00027286	0.0023469	0.00046144	960.77	1.3169e-05	1.9968e-05	1085.4	328.32	8.5773e-06	1.2144e-05	486.77	204.2	136.12	60.19	5.2051e-06	105.01	0.003205	0.0030597	0.00078505	1139	3.6642e-05	3.3087e-05	1140.5	354.12	3.5548e-05	3.2173e-05	555.02	216.02	149.46	63.886	2.9592e-05	110.69	77.590	-11.219	-29.175	-30.723	99.717	158.718	-31.156	-25.962	84.855	69.734	-27.320	-23.768	-23.411	-19.493	126.452	-20.856	-8191	255	
2297.358	1	1	0	0	0.12102	0.2209	0.14732	0.042619	0.051409	0.24175	0.09987	0.052476	0.17062	0.14071	0.15206	0.49335	0.28218	0.23897	0.1244	0.40563	-2.6042	-2.8688	-2.7167	-3.15	-2.7146	-2.9729	-3.1312	-2.8438	-2.7438	-2.9479	-2.8708	-3.0062	-2.9854	-2.9396	-3.1833	-2.9708	297.078	89.846	300.767	186.786	-25.533	159.424	-9.394	-20.256	271.096	259.446	129.788	268.850	-34.868	38.277	228.690	212.114	0.00062095	0.0010192	0.00041998	961.98	1.5746e-05	1.1374e-05	1087.6	328.87	1.0027e-05	3.9247e-07	492.36	205.71	137.66	60.411	2.0585e-05	105.49	0.0030486	0.0029527	0.00078472	1153.3	3.508e-05	3.2072e-05	1142	357.46	3.4394e-05	3.1542e-05	562.89	218.79	150.19	64.053	3.1343e-05	111.5	80.254	26.941	75.202	-31.215	51.347	77.077	-31.011	-25.892	35.547	59.879	-27.319	-23.798	-23.028	-19.234	151.051	-20.632	-8191	255	
2297.454	1	1	0	0	0.079956	0.14739	0.22468	0.060355	0.081981	0.17614	0.21415	0.21362	0.21455	0.1327	0.32512	0.32887	0.2009	0.10776	0.23464	0.2898	-2.7958	-3.1229	-2.7604	-3.0021	-2.8187	-2.75	-3.3646	-2.7812	-3.0646	-2.9958	-2.7917	-3.1688	-3.0375	-2.8812	-3.2625	-2.9021	136.109	286.363	69.548	49.793	49.885	2.867	302.850	196.675	109.586	163.478	-35.916	281.962	233.053	126.141	-41.168	203.573	0.00054174	0.0019073	0.00012666	967.41	1.0388e-05	7.9023e-06	1093.1	328.66	2.1635e-05	1.225e-05	497.13	207.65	139.54	60.788	1.1321e-05	106.67	0.0028952	0.0028073	0.00081769	1154	3.2613e-05	3.0141e-05	1149.6	356.18	3.1552e-05	2.9203e-05	568.13	219.92	150.39	64.197	3.2467e-05	112	62.993	-9.246	111.442	-30.870	30.239	134.395	-31.107	-25.898	59.949	107.867	-27.235	-23.790	-23.345	-19.246	183.924	-20.747	-8191	255	
2297.550	1	1	0	0	0.1407	0.21226	0.14189	0.15679	0.21293	0.23278	0.24344	0.14118	0.12014	0.078991	0.33198	0.25993	0.08484	0.17541	0.14339	0.16607	-2.4813	-3.1813	-2.5875	-3.3833	-2.8438	-2.9292	-3.2333	-2.9104	-2.8542	-2.9896	-2.8125	-3.1958	-3.1917	-2.8104	-3.0667	-3.125	-24.921	170.009	269.075	100.145	260.855	261.558	185.576	95.412	54.054	288.177	-0.012	269.561	314.519	305.854	-25.605	210.374	0.0006579	0.0016591	0.00016688	956.81	5.7034e-06	1.2601e-05	1099.5	332.96	2.3098e-05	3.5007e-06	501.13	210.7	140.38	61.008	1.3272e-05	107.63	0.002681	0.002643	0.00084586	1137.6	3.0458e-05	2.8985e-05	1156.8	357.9	2.9973e-05	2.8536e-05	576.49	221.7	150.66	64.503	3.3123e-05	112.17	86.169	36.711	93.811	-31.080	-42.666	28.509	-31.025	-25.812	50.914	200.204	-27.436	-23.687	-23.284	-19.615	129.726	-20.872	-8191	255	
2297.671	1	1	0	0	0.19564	0.090819	0.17035	0.32603	0.095308	0.15404	0.17415	0.15153	0.10747	0.31964	0.26565	0.056262	0.29389	0.2319	0.10013	0.29609	-2.4979	-3.15	-2.5542	-3.1375	-3.025	-3.0625	-3.2833	-2.9667	-2.7938	-2.8688	-2.8563	-3.1229	-3.0375	-2.7542	-3.1208	-2.9854	248.213	144.605	301.695	138.473	30.645	6.478	292.108	261.107	260.069	145.791	159.280	307.645	272.336	90.677	35.961	289.632	0.00063642	0.0011317	0.00025923	963.56	1.5947e-05	7.2996e-06	1090.4	330.52	1.3703e-05	1.306e-05	498.06	209.06	139.67	60.954	1.6245e-05	106.76	0.0025061	0.0025781	0.000857	1117.4	2.8255e-05	2.8821e-05	1149.1	353.2	2.7999e-05	2.9495e-05	574.06	218.46	149.07	64.297	3.3042e-05	111.06	93.145	57.075	-42.803	-31.328	91.353	197.385	-30.897	-26.169	47.729	160.358	-27.569	-23.967	-23.047	-19.571	68.006	-20.570	-8191	255	
2297.767	1	1	0	0	0.14121	0.17299	0.16279	0.33048	0.14717	0.14633	0.12501	0.14104	0.041463	0.097767	0.043333	0.10859	0.26171	0.10169	0.068864	0.2766	-2.4917	-3.0479	-2.8063	-2.9313	-3.0792	-2.6021	-3.3438	-2.8771	-2.6542	-3.1396	-2.7125	-3.1646	-3.1979	-2.9771	-3.0312	-3.0333	57.021	115.532	80.482	252.865	238.566	187.637	301.237	-33.390	173.071	145.848	-34.081	263.190	287.044	88.745	262.429	288.196	0.00059558	0.00070651	0.00014832	946.19	5.367e-06	7.5112e-06	1085.4	328.54	9.2468e-06	4.5762e-06	497.52	209.38	139.66	61.326	1.1922e-05	107.49	0.002436	0.0028067	0.00085866	1108.2	2.7794e-05	3.1751e-05	1149.1	352.03	2.7696e-05	3.2305e-05	572.67	219.11	149.22	65.103	3.1768e-05	111.97	70.366	111.108	123.251	-31.058	22.781	188.857	-31.317	-25.707	-27.040	93.594	-27.650	-24.189	-23.247	-19.296	49.413	-20.953	-8191	255	
2297.863	1	1	0	0	0.17907	0.18513	0.05456	0.20226	0.22648	0.19703	0.26771	0.22591	0.16295	0.11407	0.11976	0.29508	0.44543	0.35066	0.19023	0.34043	-2.4896	-3.1167	-2.9958	-2.8458	-3.2458	-2.7271	-3.2625	-3.0438	-2.7188	-3.3208	-2.9083	-2.9938	-3.05	-2.8104	-3.1042	-3.1354	166.565	276.080	234.737	284.325	234.343	264.490	291.535	-29.277	278.892	59.494	78.049	282.993	273.320	243.160	-4.417	192.461	0.00069612	0.0009284	0.00044958	957.86	7.6959e-06	8.9285e-06	1094.1	334.52	4.9526e-06	1.2124e-05	504.12	213.93	142.73	62.134	6.9283e-06	108.44	0.0023829	0.0029328	0.00078867	1098.6	2.7217e-05	3.2082e-05	1147.3	353.95	2.7141e-05	3.2407e-05	570.59	222.13	152.07	65.933	2.9212e-05	112.45	64.587	49.018	21.134	-31.096	93.766	73.558	-31.210	-25.946	312.108	127.739	-27.940	-24.112	-23.419	-19.571	42.020	-20.636	-8191	255	
2297.959	1	1	0	0	0.062299	0.12976	0.18689	0.050221	0.033441	0.15098	0.10021	0.037417	0.11979	0.27418	0.20852	0.20556	0.17297	0.20129	0.069443	0.21061	-2.3708	-3.1458	-2.8875	-2.7896	-3.2146	-2.7417	-3.2375	-3.1021	-2.8646	-3.2062	-2.8563	-2.9417	-3.0792	-2.8208	-2.9813	-3.0958	241.239	10.566	78.334	279.488	255.002	219.854	237.327	170.378	137.497	299.730	312.795	-42.353	-31.225	245.378	92.179	291.048	0.0011716	0.00091774	0.00026154	962.45	8.0815e-06	1.3725e-05	1096.9	336.35	1.9514e-05	4.9718e-06	511.21	214.57	143.46	62.377	1.0347e-05	108.47	0.0024536	0.0029928	0.00074755	1094.3	2.883e-05	3.2413e-05	1148.5	355.98	2.9085e-05	3.2179e-05	573.49	223.96	154.48	66.023	2.9267e-05	112.4	72.337	-11.584	281.401	-30.633	125.447	85.301	-31.223	-25.988	191.779	209.269	-27.433	-24.080	-22.960	-19.608	69.392	-20.793	-8191	255	
2298.055	1	1	0	0	0.14597	0.10054	0.1293	0.03799	0.12314	0.24207	0.27192	0.13783	0.11133	0.0708	0.10362	0.078285	0.18879	0.28615	0.15478	0.18269	-2.4521	-2.8833	-2.9938	-2.7583	-3.1396	-2.875	-2.8896	-3.1375	-2.6542	-3.1292	-3.0833	-3.1292	-3.3458	-3.1063	-2.9771	-3.3021	105.127	-22.812	124.696	-23.770	288.064	-23.351	-30.328	146.893	260.177	256.965	234.698	-41.057	-39.878	224.083	268.080	255.718	0.0011333	0.0013975	0.00053429	960.39	1.8324e-05	1.3449e-05	1093.7	333.44	7.0438e-06	1.2441e-05	505.96	208.7	140.49	60.856	1.1294e-05	105.95	0.0027562	0.0030148	0.00075984	1101.6	3.2767e-05	3.3195e-05	1145.4	354.54	3.3845e-05	3.3428e-05	567.81	218.9	152.9	64.758	2.9988e-05	110.41	69.738	-17.358	275.127	-30.826	134.839	62.881	-31.040	-25.944	131.535	110.475	-27.571	-24.081	-23.159	-19.316	172.993	-20.718	-8191	255	
2298.151	1	1	0	0	0.068679	0.073455	0.09662	0.12046	0.26315	0.030605	0.35691	0.16957	0.095601	0.17471	0.38252	0.29678	0.23248	0.33008	0.069367	0.13591	-2.45	-3.1417	-3.0354	-2.9938	-3.0083	-2.8937	-3.1771	-3.2646	-2.8625	-3.0083	-3.0896	-2.9542	-3.1854	-3.0833	-2.8917	-3.3083	61.827	25.928	207.662	124.628	60.861	311.869	250.352	4.723	35.721	114.899	268.272	-33.858	300.780	295.428	244.411	238.397	0.00096249	0.0010104	0.00048151	963.09	1.2708e-05	1.7901e-05	1090.2	330.22	1.4318e-05	7.4213e-06	502.03	208.18	139.54	60.72	1.1005e-05	105.9	0.0030284	0.0030092	0.00076492	1114.2	3.5118e-05	3.2399e-05	1141.7	353.34	3.4787e-05	3.1681e-05	560.19	218.68	152.16	64.354	2.856e-05	110.91	82.197	-8.668	27.490	-30.941	116.897	109.116	-31.139	-25.552	26.089	152.083	-27.405	-23.959	-23.265	-19.473	88.294	-20.767	-8191	255	
2298.270	1	1	0	0	0.092239	0.19713	0.12096	0.12595	0.19259	0.21137	0.058199	0.13241	0.23438	0.17169	0.25824	0.17663	0.068052	0.17824	0.19292	0.12016	-2.3833	-3.0042	-3.1521	-2.8667	-3.3583	-2.975	-3.1583	-3.2833	-2.7729	-2.9583	-3.0979	-3.15	-3.3479	-2.975	-2.9854	-3.1021	187.599	191.957	-12.557	28.585	-22.841	100.345	161.034	-13.703	187.968	160.734	-21.051	297.320	-21.336	294.363	-35.112	187.308	0.00065002	0.00089553	0.00034071	949.22	9.4704e-06	1.8738e-05	1089.7	329.59	1.2025e-06	4.9824e-06	500.9	208.95	139.65	60.181	2.982e-05	106.07	0.002968	0.002809	0.00072789	1122.8	3.4018e-05	3.0654e-05	1139.4	355.6	3.3509e-05	3.0818e-05	559.02	219.86	151.43	63.888	2.8427e-05	111.07	79.907	71.333	-26.976	-31.193	83.550	84.353	-31.006	-25.818	135.494	67.622	-27.279	-23.973	-23.103	-19.334	125.877	-20.727	-8191	255	
2298.366	1	1	0	0	0.3415	0.21761	0.30802	0.20071	0.11422	0.048082	0.2923	0.1158	0.1249	0.10876	0.14004	0.3302	0.28833	0.28311	0.12738	0.29551	-2.3542	-2.7958	-3.1146	-2.8604	-3.0479	-2.9292	-3.0917	-3.0958	-3.1229	-2.9146	-3.1813	-2.8979	-3.1542	-3.2396	-2.6958	-3.4542	146.053	161.152	146.319	145.271	19.596	22.564	293.781	298.852	264.616	289.007	241.020	269.354	282.505	272.383	174.389	232.764	0.00076586	0.00078243	0.00013363	960.03	9.0732e-06	4.2814e-06	1096.8	331.16	3.579e-06	1.8297e-06	497.99	208.42	139.98	60.258	1.9393e-05	106.05	0.0028444	0.0027606	0.00072764	1137.5	3.2549e-05	2.9759e-05	1145.2	358.07	3.1942e-05	2.9633e-05	562.98	220.99	150.95	63.692	2.9788e-05	111.3	86.370	4.098	214.770	-30.920	64.471	168.446	-30.946	-25.766	107.586	205.457	-27.561	-23.960	-23.293	-19.292	150.928	-20.749	-8191	255	
2298.463	1	1	0	0	0.017691	0.036038	0.18793	0.064568	0.3747	0.21313	0.021832	0.20506	0.08298	0.11548	0.055522	0.17487	0.21013	0.11344	0.16205	0.33268	-2.3396	-3.0042	-3.2	-2.9854	-3.0125	-3.05	-2.9271	-3.2021	-3.0375	-2.8625	-3.25	-2.8937	-3.1229	-3.2333	-2.6708	-3.3167	264.427	116.907	153.236	229.984	56.521	212.532	-38.831	293.072	28.984	127.532	151.034	314.677	269.115	258.527	-20.266	294.216	0.00058578	0.001186	0.0003612	957.88	1.1684e-05	5.9827e-06	1090.6	330.66	4.0129e-06	2.8637e-06	493.63	206.87	139.13	60.244	2.5297e-05	105.15	0.0026851	0.0026343	0.00076797	1132.9	3.0737e-05	2.8165e-05	1145.5	355.56	3.0087e-05	2.8143e-05	564.34	218.23	149.1	63.33	3.1778e-05	110.34	72.096	263.312	119.104	-31.221	37.851	105.769	-31.192	-26.014	67.240	216.876	-27.603	-23.850	-23.294	-19.432	176.037	-20.824	-8191	255	
2298.559	1	1	0	0	0.15486	0.19901	0.09326	0.076659	0.010029	0.08865	0.18099	0.16886	0.30985	0.26701	0.10525	0.25142	0.24042	0.065829	0.13311	0.1133	-2.4667	-2.7667	-3.0687	-2.975	-3.0375	-3.1292	-3.0542	-3.2708	-3.1208	-2.8063	-3.2646	-2.9271	-3.2604	-3.1875	-2.9167	-3.3792	223.301	189.496	-7.739	-41.259	191.174	180.625	247.764	101.364	-21.732	261.648	-42.940	-33.828	258.657	1.128	46.323	286.095	0.00072577	0.00056388	4.0448e-05	959.34	4.0756e-06	1.0797e-05	1087.3	331.83	2.6047e-06	5.6757e-06	496.8	208.81	140.01	61.091	2.3207e-06	107.17	0.0025855	0.0025508	0.00081887	1121.9	2.9224e-05	2.7595e-05	1144.8	354.2	2.8815e-05	2.8083e-05	571.15	219.31	149.93	64.432	3.2692e-05	111.86	67.583	61.385	200.123	-31.423	65.591	104.921	-31.397	-26.056	108.117	212.304	-27.552	-23.995	-23.416	-19.419	154.178	-20.744	-8191	255	
#DATA ENDS
