BOXY.EXE: ISS Imagent and Oximeter Data Acquisition Program Version 0.80
Ascii Record File

#ACQ INFORMATION
2  Detector Channels 
16  External MUX Channels 
1  Auxiliary Channels 
5000  Waveform (CCF) Frequency (Hz)
1  Waveforms Skipped 
30  Waveforms Averaged 
1  Cycles Averaged 
16  Acquisitions per Waveform 
10.0806  Updata Rate (Hz) 

#FILE INFORMATION
TRUE -- External MUX Channel results are PARSED.
FALSE -- AC DC and Phase are NOT grouped.
TRUE -- Companion Program Settings File CREATED.
FALSE -- AC data not excluded
FALSE -- DC data not excluded
FALSE -- Phase data not excluded
FALSE -- Auxillary Chn. data not excluded
Tab delimiters

#CALIBRATION STATE
TRUE -- Waveform Calibration Values APPLIED.


#AUX CALIBRATION VALUES
Val Type	aux-1	

Term	1.0000e+00	
Factor	0.0000e+00	


#WF CALIBRATION VALUES
A = Detector Channel
Val Type	A-AC1	A-AC2	A-AC3	A-AC4	A-AC5	A-AC6	A-AC7	A-AC8	A-AC9	A-AC10	A-AC11	A-AC12	A-AC13	A-AC14	A-AC15	A-AC16	A-DC1	A-DC2	A-DC3	A-DC4	A-DC5	A-DC6	A-DC7	A-DC8	A-DC9	A-DC10	A-DC11	A-DC12	A-DC13	A-DC14	A-DC15	A-DC16	A-Ph1	A-Ph2	A-Ph3	A-Ph4	A-Ph5	A-Ph6	A-Ph7	A-Ph8	A-Ph9	A-Ph10	A-Ph11	A-Ph12	A-Ph13	A-Ph14	A-Ph15	A-Ph16	

Term	0.00000e+00	0.00000e+00	0.00000e+00	0.00000e+00	0.00000e+00	0.00000e+00	0.00000e+00	0.00000e+00	0.00000e+00	0.00000e+00	0.00000e+00	0.00000e+00	0.00000e+00	0.00000e+00	0.00000e+00	0.00000e+00	0.00000e+00	0.00000e+00	0.00000e+00	0.00000e+00	0.00000e+00	0.00000e+00	0.00000e+00	0.00000e+00	0.00000e+00	0.00000e+00	0.00000e+00	0.00000e+00	0.00000e+00	0.00000e+00	0.00000e+00	0.00000e+00	0.00000e+00	0.00000e+00	0.00000e+00	0.00000e+00	0.00000e+00	0.00000e+00	0.00000e+00	0.00000e+00	0.00000e+00	0.00000e+00	0.00000e+00	0.00000e+00	0.00000e+00	0.00000e+00	0.00000e+00	0.00000e+00	
Factor	1.00000e+00	1.00000e+00	1.00000e+00	1.00000e+00	1.00000e+00	1.00000e+00	1.00000e+00	1.00000e+00	1.00000e+00	1.00000e+00	1.00000e+00	1.00000e+00	1.00000e+00	1.00000e+00	1.00000e+00	1.00000e+00	1.00000e+00	1.00000e+00	1.00000e+00	1.00000e+00	1.00000e+00	1.00000e+00	1.00000e+00	1.00000e+00	1.00000e+00	1.00000e+00	1.00000e+00	1.00000e+00	1.00000e+00	1.00000e+00	1.00000e+00	1.00000e+00	X	X	X	X	X	X	X	X	X	X	X	X	X	X	X	X	

B = Detector Channel
Val Type	B-AC1	B-AC2	B-AC3	B-AC4	B-AC5	B-AC6	B-AC7	B-AC8	B-AC9	B-AC10	B-AC11	B-AC12	B-AC13	B-AC14	B-AC15	B-AC16	B-DC1	B-DC2	B-DC3	B-DC4	B-DC5	B-DC6	B-DC7	B-DC8	B-DC9	B-DC10	B-DC11	B-DC12	B-DC13	B-DC14	B-DC15	B-DC16	B-Ph1	B-Ph2	B-Ph3	B-Ph4	B-Ph5	B-Ph6	B-Ph7	B-Ph8	B-Ph9	B-Ph10	B-Ph11	B-Ph12	B-Ph13	B-Ph14	B-Ph15	B-Ph16	

Term	0.00000e+00	0.00000e+00	0.00000e+00	0.00000e+00	0.00000e+00	0.00000e+00	0.00000e+00	0.00000e+00	0.00000e+00	0.00000e+00	0.00000e+00	0.00000e+00	0.00000e+00	0.00000e+00	0.00000e+00	0.00000e+00	0.00000e+00	0.00000e+00	0.00000e+00	0.00000e+00	0.00000e+00	0.00000e+00	0.00000e+00	0.00000e+00	0.00000e+00	0.00000e+00	0.00000e+00	0.00000e+00	0.00000e+00	0.00000e+00	0.00000e+00	0.00000e+00	3.87151e+01	-1.35358e+02	-1.28243e+02	-1.82075e+02	-6.48011e+01	-7.49837e+01	-1.59417e+02	-1.62015e+02	-5.24993e+01	-7.30037e+01	-1.73374e+02	-1.72547e+02	-1.88450e+02	-1.78024e+02	-6.44271e+01	-1.50473e+02	
Factor	6.20168e-05	1.83616e-04	6.50966e-05	1.67319e-01	3.99798e-06	2.33925e-06	2.07214e-01	7.30801e-02	3.69325e-06	2.57816e-06	1.33795e-01	3.71403e-02	4.41454e-02	1.10510e-02	2.54457e-06	1.56295e-02	9.55063e-06	1.16113e-05	3.25442e-06	8.39797e-02	1.21577e-07	1.29098e-07	9.67151e-02	3.67330e-02	1.22588e-07	1.28699e-07	6.51813e-02	1.80533e-02	2.20184e-02	5.60602e-03	1.24295e-07	7.68503e-03	X	X	X	X	X	X	X	X	X	X	X	X	X	X	X	X	



#DISTANCE SETTINGS
A = Detector Channel
A-1	A-2	A-3	A-4	A-5	A-6	A-7	A-8	A-9	A-10	A-11	A-12	A-13	A-14	A-15	A-16	

2.5000e+00	3.0000e+00	2.5000e+00	3.0000e+00	2.0000e+00	3.0000e+00	1.5000e+00	3.0000e+00	3.0000e+00	3.0000e+00	3.0000e+00	3.0000e+00	3.0000e+00	3.0000e+00	1.5000e+00	3.0000e+00	

B = Detector Channel
B-1	B-2	B-3	B-4	B-5	B-6	B-7	B-8	B-9	B-10	B-11	B-12	B-13	B-14	B-15	B-16	

1.0000e+01	1.0000e+01	1.0000e+01	1.4400e+00	1.0000e+01	1.0000e+01	1.5100e+00	1.9400e+00	1.0000e+01	1.0000e+01	1.9900e+00	2.4900e+00	2.4100e+00	2.9000e+00	1.0000e+01	2.9800e+00	




#DATA BEGINS
time	group	step	mark	flag	A-AC1	A-AC2	A-AC3	A-AC4	A-AC5	A-AC6	A-AC7	A-AC8	A-AC9	A-AC10	A-AC11	A-AC12	A-AC13	A-AC14	A-AC15	A-AC16	A-DC1	A-DC2	A-DC3	A-DC4	A-DC5	A-DC6	A-DC7	A-DC8	A-DC9	A-DC10	A-DC11	A-DC12	A-DC13	A-DC14	A-DC15	A-DC16	A-Ph1	A-Ph2	A-Ph3	A-Ph4	A-Ph5	A-Ph6	A-Ph7	A-Ph8	A-Ph9	A-Ph10	A-Ph11	A-Ph12	A-Ph13	A-Ph14	A-Ph15	A-Ph16	B-AC1	B-AC2	B-AC3	B-AC4	B-AC5	B-AC6	B-AC7	B-AC8	B-AC9	B-AC10	B-AC11	B-AC12	B-AC13	B-AC14	B-AC15	B-AC16	B-DC1	B-DC2	B-DC3	B-DC4	B-DC5	B-DC6	B-DC7	B-DC8	B-DC9	B-DC10	B-DC11	B-DC12	B-DC13	B-DC14	B-DC15	B-DC16	B-Ph1	B-Ph2	B-Ph3	B-Ph4	B-Ph5	B-Ph6	B-Ph7	B-Ph8	B-Ph9	B-Ph10	B-Ph11	B-Ph12	B-Ph13	B-Ph14	B-Ph15	B-Ph16	aux-1	digaux	

28450.744	1	1	0	256	0.038105	0.090978	0.12413	0.238	0.027479	0.073363	0.19637	0.22548	0.12059	0.26861	0.13277	0.20911	0.25503	0.1596	0.15018	0.16027	-2.0042	-2.3292	-2.6854	-2.3312	-2.5771	-2.4604	-2.2687	-2.7583	-2.5917	-2.2646	-2.6646	-2.3896	-2.5396	-2.4437	-2.3542	-2.8125	10.941	42.269	2.702	131.999	100.547	150.399	67.480	115.346	156.631	158.320	195.208	-142.895	157.330	105.159	-56.632	182.428	0.00043738	0.00027031	0.00014088	1074.2	4.2154e-06	3.6964e-06	1175.8	231.21	1.121e-05	2.7163e-06	293.18	81.77	64.001	18.883	2.2015e-06	26.116	0.00026591	0.00025313	6.9109e-05	1060	2.9391e-06	2.8006e-06	1159.8	229.79	2.844e-06	2.8464e-06	292.27	82.333	64.379	19.125	2.7997e-06	26.635	4.475	-41.244	-52.271	-134.550	-20.019	-29.159	-134.639	-127.317	0.890	-14.868	-127.727	-120.679	-120.289	-112.594	19.139	-113.756	-8191	255	
28450.840	1	1	0	0	0.37054	0.18545	0.14565	0.29873	0.17465	0.21935	0.18073	0.039285	0.075729	0.094205	0.1398	0.1246	0.18476	0.087876	0.034384	0.051572	-1.7604	-2.2188	-2.6937	-2.3812	-2.4292	-2.625	-2.3438	-2.65	-2.5625	-2.3042	-2.6146	-2.5042	-2.4042	-2.4875	-2.0312	-2.4625	128.249	151.977	203.472	203.308	-114.876	32.963	78.950	-49.028	168.785	-1.699	-58.802	153.244	-77.145	-58.693	181.768	90.045	0.00046174	0.00032912	6.5773e-05	1073.4	3.0279e-06	1.201e-06	1176.4	232.14	7.5353e-06	3.7583e-06	296.45	81.858	64.571	19.019	4.1431e-06	26.264	0.00026965	0.00025479	6.8743e-05	1062.2	2.8522e-06	2.5847e-06	1165.3	230.57	2.6298e-06	2.4632e-06	294.13	82.331	64.63	19.186	2.5325e-06	26.736	12.009	-41.984	-90.858	-134.479	-67.691	151.900	-134.709	-127.235	-27.858	-21.558	-127.346	-121.030	-121.018	-113.073	-3.605	-113.614	-8191	255	
28450.912	1	1	0	0	0.099552	0.11137	0.17341	0.11356	0.16503	0.11907	0.25569	0.10867	0.18668	0.178	0.2442	0.15025	0.074014	0.030471	0.1858	0.08833	-2.1354	-2.1604	-2.6792	-2.5479	-2.4292	-2.575	-2.3312	-2.4354	-2.525	-2.1583	-2.5583	-2.2687	-2.4792	-2.5771	-2.45	-2.6042	10.923	39.265	213.337	194.579	2.824	136.311	76.145	-62.861	-105.542	8.350	157.749	-12.699	129.457	2.912	190.194	-120.268	0.00047512	0.00025209	8.3622e-05	1071.8	6.8539e-06	4.34e-06	1167.3	231.85	4.059e-06	4.7746e-06	293.54	81.851	64.035	18.756	3.5042e-06	26.16	0.00025126	0.00023024	6.178e-05	1056.2	2.5549e-06	2.3977e-06	1157.4	229.52	2.5051e-06	2.5541e-06	292.64	82.216	64.4	19.034	2.4367e-06	26.674	7.307	-54.807	-57.951	-134.429	-25.518	3.454	-134.716	-127.278	2.358	-1.133	-127.687	-120.789	-120.328	-113.021	-37.554	-113.821	-8191	255	
28451.033	1	1	0	0	0.13774	0.093153	0.026093	0.17718	0.057803	0.074272	0.22248	0.22053	0.058582	0.14015	0.23428	0.29942	0.098641	0.13846	0.15683	0.13067	-2.1583	-2.1854	-2.825	-2.5604	-2.2479	-2.7125	-2.4375	-2.7042	-2.6167	-2.4062	-2.8	-2.2812	-2.2604	-2.7979	-2.2396	-2.6146	52.917	70.166	-7.074	164.002	-75.398	51.448	197.778	-109.402	13.838	88.666	-143.968	-39.055	146.524	-113.334	114.930	145.601	0.000546	0.00040906	0.00013118	1066.6	5.7113e-06	3.5866e-06	1166.8	230.51	2.1405e-06	5.8559e-06	292.81	81.79	64.149	18.795	3.1035e-06	25.958	0.00024364	0.00022794	5.8539e-05	1053.7	2.4842e-06	2.4227e-06	1155.6	229.56	2.4112e-06	2.475e-06	291.11	82.082	64.257	19.045	2.2756e-06	26.569	11.782	-45.988	-64.905	-134.514	-8.921	-14.229	-134.694	-127.278	7.176	-1.436	-127.175	-120.847	-120.605	-112.826	36.062	-113.280	-8191	255	
28451.127	1	1	0	0	0.24743	0.19968	0.11731	0.30935	0.20199	0.055525	0.25216	0.15014	0.3041	0.20507	0.072059	0.10021	0.34029	0.17662	0.19399	0.14662	-2.1104	-2.2958	-2.525	-2.4938	-2.3021	-2.6333	-2.3937	-2.4292	-2.5083	-2.2167	-2.5938	-2.4896	-2.2854	-2.7083	-2.2625	-2.3354	0.993	145.496	0.094	93.200	27.214	90.331	202.427	-46.923	-34.505	100.244	31.955	51.607	174.076	38.907	184.314	-75.500	0.00048544	0.00036411	7.8904e-05	1062	8.119e-06	4.3393e-06	1157.7	228.29	1.2018e-06	1.3807e-06	291.54	81.526	63.913	18.832	3.3024e-06	26.052	0.0002404	0.00021096	5.9895e-05	1047	2.5065e-06	2.338e-06	1145.5	227.89	2.4007e-06	2.4045e-06	290.08	81.789	63.769	19.008	2.3551e-06	26.538	10.085	-68.089	-56.843	-134.546	-36.029	-45.932	-134.516	-127.011	-52.919	26.458	-127.483	-120.789	-120.313	-113.192	-26.330	-113.436	-8191	255	
28451.225	1	1	0	0	0.11299	0.2473	0.17727	0.25531	0.19535	0.13374	0.29773	0.22081	0.21206	0.24606	0.35531	0.13778	0.19932	0.061522	0.29309	0.18393	-2.1792	-2.325	-2.5896	-2.6917	-2.3958	-2.6458	-2.55	-2.3771	-2.7812	-2.3417	-2.6396	-2.2646	-2.175	-2.6396	-2.225	-2.4917	181.597	-45.112	146.618	-107.382	-137.573	178.067	133.475	-34.428	204.469	90.965	200.305	21.665	138.988	147.862	-48.354	-90.168	0.00056158	0.00019057	9.4297e-05	1056.6	2.5858e-06	2.7235e-06	1160.9	229.76	6.1622e-06	3.5411e-06	291.68	81.37	64.131	18.883	3.6026e-06	26.178	0.00023359	0.00021457	6.0403e-05	1044.2	2.5339e-06	2.3049e-06	1144.8	228.71	2.3402e-06	2.47e-06	290.39	81.673	63.914	19.05	2.3803e-06	26.59	15.553	-81.481	-84.680	-134.699	18.074	12.030	-134.515	-127.101	-4.703	48.164	-127.660	-120.665	-120.667	-112.792	10.591	-113.674	-8191	255	
28451.344	1	1	0	0	0.12209	0.27189	0.17532	0.12261	0.14255	0.1139	0.11296	0.27503	0.1976	0.11768	0.075754	0.23247	0.15918	0.018806	0.1113	0.081448	-2.0854	-2.0417	-2.5042	-2.5375	-2.2229	-2.6188	-2.4958	-2.5021	-2.6667	-2.225	-2.3937	-2.7438	-2.1604	-2.5771	-2.4083	-2.2271	114.928	-122.144	-1.345	156.731	89.324	95.343	209.026	179.680	99.429	144.001	103.494	170.397	160.834	147.204	21.561	41.668	0.00050851	0.00028624	7.5913e-05	1053.9	2.8104e-06	3.3691e-06	1154.6	227.98	4.335e-06	3.8683e-06	290.41	80.668	64.055	18.816	3.9615e-06	26.064	0.00024728	0.00022141	6.2254e-05	1041.6	2.7757e-06	2.5873e-06	1139.9	227	2.6252e-06	2.6271e-06	289.76	81.107	63.738	19.002	2.9051e-06	26.531	10.862	-43.977	-44.261	-134.415	-68.890	3.918	-134.697	-127.283	7.704	31.550	-127.378	-120.836	-120.228	-112.977	10.823	-113.645	-8191	255	
28451.439	1	1	0	0	0.1715	0.23054	0.095649	0.12798	0.34052	0.048884	0.2811	0.10141	0.17941	0.19803	0.27445	0.060156	0.33891	0.13913	0.08349	0.25981	-2.1562	-2.2896	-2.3792	-2.6604	-2.2625	-2.6917	-2.55	-2.4792	-2.6312	-2.3896	-2.525	-2.6562	-2.1333	-2.6083	-2.6021	-2.2354	-6.702	94.644	71.621	-106.553	58.915	50.258	130.005	119.784	-93.972	85.899	-84.207	148.677	175.541	28.592	154.702	-13.955	0.00051019	0.00034008	9.4133e-05	1050.5	7.0167e-06	3.08e-06	1150.2	228.02	6.4366e-06	1.4495e-06	289.86	81.479	63.513	18.78	4.4311e-06	26.031	0.00028578	0.00027173	7.4777e-05	1039.7	3.2124e-06	3.0155e-06	1140.6	226.98	3.0016e-06	2.9971e-06	289.39	81.548	63.712	19.023	3.4318e-06	26.536	19.210	-45.437	-54.418	-134.399	2.883	-28.839	-134.579	-127.072	13.223	21.644	-127.300	-120.801	-120.027	-113.145	13.761	-113.489	-8191	255	
28451.512	1	1	0	0	0.054585	0.19111	0.19603	0.015678	0.053755	0.22894	0.080027	0.22979	0.1839	0.24806	0.1282	0.12198	0.067245	0.1637	0.18716	0.15824	-2.1771	-2.3917	-2.3667	-2.6688	-2.3167	-2.4625	-2.7313	-2.2062	-2.7354	-2.2667	-2.4104	-2.6333	-2.2521	-2.3104	-2.6833	-2.5	46.543	-124.997	182.156	-68.671	138.341	-2.196	-37.433	-123.408	73.501	211.923	-12.764	-90.284	-13.789	-17.822	172.783	61.353	0.00037162	6.9307e-05	0.0001528	1055.3	9.4542e-06	3.2297e-07	1150.9	230.25	3.9354e-06	2.1494e-06	290.64	81.725	63.575	18.712	4.5581e-06	25.907	0.00032534	0.00033293	9.8853e-05	1041.9	4.0997e-06	4.2974e-06	1143.2	228.1	4.4962e-06	4.5321e-06	289.63	81.845	64.041	19.065	4.5738e-06	26.597	8.862	-48.237	-38.710	-134.364	8.781	-81.695	-134.593	-127.171	32.141	10.031	-127.281	-121.059	-120.831	-113.225	-14.642	-113.890	-8191	255	
28451.633	1	1	0	0	0.13414	0.11941	0.12183	0.10426	0.1387	0.15405	0.17107	0.26166	0.069946	0.077446	0.16275	0.026288	0.047987	0.09749	0.3187	0.21287	-2.2792	-2.2792	-2.4542	-2.7062	-2.2583	-2.4979	-2.6354	-2.2521	-2.6667	-2.4313	-2.4604	-2.7979	-2.4375	-2.525	-2.4	-2.4104	115.814	156.166	-111.606	132.419	60.947	194.916	141.071	135.396	-63.238	-64.923	161.885	78.745	-85.389	63.156	-113.101	-88.947	0.00047743	0.00022491	0.00010331	1059.6	6.2772e-06	3.819e-06	1162.9	229.01	7.0738e-06	3.156e-06	290.76	81.372	63.803	18.81	3.8874e-06	26.038	0.0004022	0.00040862	0.0001131	1048.5	4.3165e-06	4.2944e-06	1149.5	228.46	4.0735e-06	3.9993e-06	291.11	81.926	64.092	19.12	3.85e-06	26.614	20.617	-109.853	-139.152	-134.325	-36.507	-4.032	-134.506	-127.266	-2.706	9.495	-127.531	-120.801	-120.791	-112.887	-17.047	-113.306	-8191	255	
28451.729	1	1	0	0	0.01068	0.14558	0.17788	0.20802	0.073617	0.21287	0.3434	0.16298	0.19275	0.048312	0.18681	0.1044	0.21918	0.066153	0.1538	0.35237	-2.275	-2.3521	-2.1813	-2.7208	-2.3063	-2.3708	-2.6625	-2.2188	-2.6063	-2.5917	-2.2875	-2.6562	-2.1875	-2.2667	-2.6729	-2.2687	208.014	-5.489	159.656	189.713	36.657	-24.730	196.700	187.551	-45.646	-116.895	13.801	14.489	-91.630	43.708	52.727	48.049	0.00042023	9.293e-05	4.3344e-05	1062.4	3.6708e-06	3.6533e-06	1167.7	229.73	4.3523e-06	4.695e-06	290.68	81.17	64.181	18.785	3.352e-06	25.979	0.00035274	0.00035918	9.5388e-05	1051.4	3.7952e-06	3.859e-06	1152.8	228.7	3.5783e-06	3.444e-06	290.91	81.939	64.094	19.058	3.111e-06	26.588	11.262	-4.084	-73.056	-134.556	48.273	5.507	-134.699	-127.412	28.837	-7.067	-127.490	-120.532	-120.632	-112.684	48.343	-113.575	-8191	255	
28451.824	1	1	0	0	0.17689	0.095798	0.13136	0.16952	0.13078	0.1909	0.147	0.16027	0.25143	0.095881	0.31927	0.30524	0.20697	0.044082	0.094313	0.24853	-2.0646	-2.4562	-2.2292	-2.7875	-2.3917	-2.3917	-2.8333	-2.5042	-2.55	-2.5333	-2.3438	-2.575	-2.6417	-2.2604	-2.7417	-2.1979	137.601	-81.316	62.805	85.325	48.939	2.564	121.541	193.337	12.104	-75.256	180.283	-59.598	155.872	171.286	203.166	-140.715	0.00049521	0.00021064	0.00010316	1066.6	5.2864e-06	1.5834e-06	1165.1	228.94	2.8169e-06	1.8032e-06	291.81	81.513	63.846	18.743	4.2948e-07	26.02	0.00030787	0.00028092	8.2167e-05	1052.1	3.3426e-06	3.2519e-06	1151.7	227.93	3.3198e-06	3.2446e-06	290.36	81.833	64.028	19.006	3.2203e-06	26.498	17.925	-67.721	-26.591	-134.611	-48.109	-65.507	-134.728	-127.401	-13.271	6.975	-127.441	-120.972	-120.489	-113.121	-41.607	-113.477	-8191	255	
28451.922	1	1	0	0	0.39525	0.20135	0.23089	0.24367	0.21058	0.24117	0.18683	0.19537	0.12486	0.27373	0.16881	0.027333	0.024226	0.13922	0.080364	0.11349	-2.0938	-2.4938	-2.1729	-2.8042	-2.2896	-2.2313	-2.6229	-2.3375	-2.5563	-2.6396	-2.1937	-2.5042	-2.2583	-2.2979	-2.4437	-2.2812	61.802	-119.784	154.319	125.454	62.223	202.298	178.450	166.198	64.862	44.771	153.400	185.003	-45.689	-129.213	7.553	68.698	0.00052235	0.00010999	8.788e-05	1066.6	2.0361e-06	1.9617e-06	1176.6	228.87	5.013e-06	3.9593e-06	290.85	81.834	63.697	18.871	2.7282e-06	26.258	0.00030876	0.00029964	8.5401e-05	1053.8	3.39e-06	3.3738e-06	1159.5	228.34	3.4074e-06	3.4301e-06	290.52	81.955	64.174	19.09	3.2855e-06	26.584	10.637	-79.444	-30.441	-134.449	-20.786	-32.689	-134.753	-127.098	18.928	4.672	-127.317	-120.926	-120.714	-112.962	-25.452	-113.955	-8191	255	
28452.039	1	1	0	0	0.087119	0.19869	0.10436	0.34431	0.14748	0.022227	0.25346	0.030899	0.029243	0.17326	0.28269	0.15538	0.13144	0.083188	0.14632	0.11922	-1.9042	-2.4938	-2.4313	-2.7146	-2.3187	-2.4	-2.7771	-2.4646	-2.2229	-2.5979	-2.3312	-2.5083	-2.4375	-2.1458	-2.6292	-2.3792	-4.499	-56.816	-92.570	203.322	44.981	-99.845	159.490	119.470	106.361	58.114	-129.657	-60.778	66.016	-24.741	29.331	-46.125	0.00045767	0.00027676	0.00011683	1069.4	7.7159e-06	2.4019e-06	1170	228.95	6.0499e-06	3.6887e-06	291.99	81.447	63.858	18.794	3.0277e-06	26.281	0.00033057	0.00031745	8.9164e-05	1057.4	3.5065e-06	3.5279e-06	1157	228.46	3.5742e-06	3.4601e-06	291.24	82.09	64.234	19.177	3.4564e-06	26.714	9.317	-59.468	-69.208	-134.395	-24.535	5.087	-134.686	-127.097	-26.131	46.203	-127.424	-120.784	-120.210	-113.254	-13.362	-113.820	-8191	255	
28452.137	1	1	0	0	0.18067	0.070936	0.2367	0.23616	0.17298	0.13376	0.19236	0.065088	0.1627	0.083942	0.20102	0.13246	0.24918	0.2924	0.3685	0.19641	-1.6979	-2.4875	-2.2542	-2.5438	-2.5292	-2.2875	-2.7438	-2.5187	-2.3292	-2.5646	-2.3792	-2.6375	-2.5208	-2.3479	-2.5583	-2.4292	-2.699	199.881	73.768	205.729	90.184	200.615	175.746	168.028	-128.590	149.656	-54.312	207.563	175.030	-3.197	-8.621	-118.853	0.00049556	0.00040052	3.3202e-05	1074.1	4.7532e-06	3.349e-06	1174.4	230.08	9.0431e-06	3.5348e-06	293.05	81.921	64.128	18.791	6.0413e-06	26.052	0.00034034	0.00031334	9.1619e-05	1060.8	3.5556e-06	3.4265e-06	1162.2	229.47	3.5111e-06	3.3818e-06	292.06	82.215	64.471	19.079	3.3557e-06	26.629	11.319	-71.703	-16.983	-134.535	19.911	34.236	-134.607	-127.292	11.940	4.548	-127.690	-120.691	-120.803	-113.197	10.302	-113.743	-8191	255	
28452.207	1	1	0	0	0.086376	0.038356	0.15208	0.075638	0.075943	0.10422	0.18034	0.088562	0.17289	0.24824	0.16059	0.080382	0.082103	0.14715	0.16013	0.21948	-1.9438	-2.525	-2.3417	-2.6729	-2.6667	-2.3625	-2.7188	-2.5563	-2.4562	-2.4771	-2.3646	-2.475	-2.6188	-2.2042	-2.6333	-2.4208	-78.230	202.376	-120.423	34.981	115.954	196.192	72.206	-144.211	103.682	108.163	182.254	98.336	-10.449	110.683	155.912	89.372	0.00052569	0.00031023	0.00010289	1073.3	5.3908e-06	2.8488e-06	1169.3	230.99	4.5658e-06	3.5744e-06	291.84	81.727	64.212	18.925	3.1247e-06	26.065	0.00032492	0.00031164	8.5015e-05	1060.6	3.448e-06	3.3751e-06	1159.5	229.1	3.4585e-06	3.3379e-06	290.95	82.299	64.21	19.146	3.3767e-06	26.644	18.518	-112.039	-68.684	-134.401	25.668	17.642	-134.614	-127.157	-7.518	-3.711	-127.329	-120.925	-120.815	-112.852	21.538	-113.722	-8191	255	
28452.305	1	1	0	0	0.0051092	0.056278	0.32095	0.24363	0.047133	0.091151	0.25259	0.23046	0.18341	0.29316	0.23739	0.17704	0.10864	0.20238	0.08164	0.15254	-1.7437	-2.4167	-2.4646	-2.5312	-2.5167	-2.4542	-2.7542	-2.5417	-2.2188	-2.7583	-2.4479	-2.4	-2.6688	-2.3771	-2.4729	-2.5625	140.152	-125.214	-47.648	-20.137	30.643	72.692	90.284	184.731	125.313	40.579	-67.356	-93.975	8.817	147.554	-62.022	-52.531	0.00053009	0.00051943	8.5502e-05	1068.2	3.5503e-06	3.9364e-06	1170.2	229.67	8.9723e-06	3.4764e-06	292.16	81.717	64.32	18.84	2.3079e-06	26.168	0.00032064	0.00030172	8.7903e-05	1058.2	3.4652e-06	3.416e-06	1159	228.76	3.5316e-06	3.3097e-06	291.43	82.25	64.354	19.143	3.4575e-06	26.614	8.278	-45.550	-77.357	-134.392	-7.938	-35.681	-134.711	-127.078	-2.818	-13.423	-127.595	-120.806	-120.100	-112.776	-0.294	-113.671	-8191	255	
28452.424	1	1	0	0	0.044373	0.11847	0.14228	0.16393	0.026074	0.18474	0.12978	0.09589	0.18126	0.1736	0.19301	0.1076	0.29001	0.16307	0.2415	0.08203	-1.8062	-2.4625	-2.3479	-2.2938	-2.5687	-2.3979	-2.5187	-2.5958	-2.0958	-2.6	-2.6271	-2.2417	-2.6146	-2.2229	-2.45	-2.6708	-65.288	207.016	83.947	123.727	196.437	125.057	137.786	177.317	138.764	25.439	-96.294	48.669	-123.567	45.274	-145.307	-3.041	0.00046717	0.00018203	4.6302e-05	1075.7	5.6057e-06	2.7867e-06	1174.8	230.6	6.7807e-06	4.3469e-06	290.44	81.675	64.02	18.957	7.7723e-06	26.194	0.00033182	0.00031994	8.6547e-05	1059.7	3.6012e-06	3.5437e-06	1160.6	228.89	3.4904e-06	3.4489e-06	290.78	82.059	64.238	19.15	3.4971e-06	26.661	9.727	-64.804	133.920	-134.393	-44.912	17.388	-134.535	-127.581	7.316	65.026	-127.501	-120.965	-120.291	-112.798	12.204	-113.973	-8191	255	
28452.520	1	1	0	0	0.088876	0.19778	0.43017	0.24166	0.11371	0.10379	0.17763	0.087961	0.2097	0.19192	0.084533	0.21031	0.24442	0.40368	0.0080549	0.26868	-1.6313	-2.4417	-2.325	-2.3729	-2.6583	-2.35	-2.45	-2.5375	-2.1188	-2.3583	-2.5521	-2.3583	-2.9	-2.2	-2.1333	-2.7729	50.575	79.362	-34.957	199.511	-55.294	37.083	93.640	33.472	104.059	-49.211	148.542	87.849	199.905	106.802	-41.095	49.053	0.00048075	0.00010764	5.3171e-05	1069.9	5.1914e-06	2.8023e-06	1171.9	230.29	4.1182e-06	2.5121e-06	292.84	81.486	63.885	18.716	1.8685e-06	26.297	0.00033819	0.0003217	9.2026e-05	1058.4	3.5513e-06	3.5593e-06	1159.6	229.04	3.6337e-06	3.4642e-06	291.82	81.928	64.145	19.042	3.4844e-06	26.64	10.439	-61.506	-64.566	-134.477	-18.119	27.277	-134.568	-127.014	-32.638	43.901	-127.595	-121.142	-120.717	-112.885	-65.818	-113.747	-8191	255	
28452.617	1	1	0	0	0.13768	0.17073	0.14849	0.16538	0.14555	0.17979	0.51261	0.1471	0.2893	0.2028	0.071189	0.20718	0.13867	0.07876	0.099683	0.15976	-1.8062	-2.4771	-2.6125	-2.1854	-2.5271	-2.5542	-2.275	-2.6646	-2.1958	-2.4104	-2.5083	-2.3021	-2.675	-2.4458	-2.2271	-2.5667	136.460	-96.526	-56.361	204.522	-50.089	75.528	189.299	145.795	-52.475	41.708	-2.610	-122.285	-134.763	-68.064	63.762	-72.630	0.00044208	0.00035437	8.5784e-05	1062.2	7.3339e-06	4.3363e-06	1166.6	229.42	4.0971e-06	3.5154e-06	289.85	81.537	63.741	18.816	4.1965e-06	26.186	0.00032844	0.00031999	8.81e-05	1053.1	3.5364e-06	3.4851e-06	1154.8	228.3	3.4649e-06	3.4899e-06	290.23	81.798	64.04	19.03	3.4564e-06	26.568	14.843	-48.534	-77.697	-134.561	-38.914	-57.084	-134.523	-127.308	-28.655	11.442	-127.366	-120.629	-120.242	-112.885	-21.468	-113.525	-8191	255	
28452.713	1	1	0	0	0.19562	0.080104	0.23205	0.10334	0.21045	0.18638	0.13931	0.21564	0.10538	0.098005	0.24815	0.19469	0.22128	0.15615	0.14605	0.13919	-1.7729	-2.5521	-2.6271	-2.3063	-2.4646	-2.4854	-2.5333	-2.6646	-2.3167	-2.6479	-2.5375	-2.2167	-2.5563	-2.5271	-2.1667	-2.6979	85.574	32.384	172.978	-19.831	174.259	141.385	200.737	-89.919	35.839	194.875	173.655	-86.842	-48.367	68.977	-48.211	-46.377	0.00049091	0.00022024	6.0761e-05	1063.7	6.8793e-06	3.9777e-06	1163.6	227.71	7.2945e-06	4.9808e-06	291.89	81.519	64.058	18.797	2.8244e-06	26.086	0.00031049	0.00032325	8.5042e-05	1051.8	3.4923e-06	3.3668e-06	1150.3	227.48	3.3257e-06	3.3684e-06	289.55	81.843	63.939	19.011	3.2249e-06	26.53	10.553	-99.472	-41.746	-134.175	-19.397	37.721	-134.626	-127.053	-22.616	-13.059	-127.311	-121.040	-120.563	-112.799	3.034	-114.081	-8191	255	
28452.809	1	1	0	0	0.11326	0.18467	0.077104	0.348	0.18004	0.18917	0.14149	0.16536	0.094444	0.14109	0.22157	0.21653	0.17633	0.28166	0.23757	0.14938	-1.8771	-2.2583	-2.3875	-2.1521	-2.3333	-2.6833	-2.175	-2.7271	-2.3563	-1.9521	-2.6958	-2.2271	-2.5125	-2.45	-2.325	-2.6042	-8.262	98.864	63.641	155.221	92.377	-54.806	101.524	-127.795	-101.412	-7.714	193.157	81.525	34.284	171.964	32.978	-107.387	0.00041858	0.00036253	0.00014443	1059.9	2.6029e-06	1.6322e-06	1157	228.4	3.5766e-06	2.5113e-06	290.58	81.018	63.815	18.653	1.6605e-06	25.827	0.0003126	0.00030189	8.4744e-05	1047.6	3.3831e-06	3.3697e-06	1148.7	227.57	3.4276e-06	3.3518e-06	288.84	81.451	63.902	18.924	3.2625e-06	26.502	10.844	-62.850	-68.846	-134.560	-9.052	50.457	-134.581	-127.294	-2.951	-14.823	-127.619	-121.100	-120.407	-112.916	-25.116	-113.437	-8191	255	
28452.904	1	1	0	0	0.17152	0.14963	0.13891	0.15021	0.23315	0.14032	0.21765	0.063926	0.1532	0.019928	0.073024	0.32249	0.031631	0.15021	0.23232	0.12794	-1.9125	-2.1292	-2.5792	-2.4375	-2.3187	-2.6542	-2.1937	-2.5125	-2.3	-2.3187	-2.6958	-2.4104	-2.3854	-2.5521	-2.2417	-2.4854	-14.843	110.717	-53.332	13.806	130.797	97.406	106.852	157.532	81.206	-63.036	-56.164	-85.664	178.658	123.754	-134.336	92.293	0.00048299	0.00037484	3.3825e-05	1058.9	7.7603e-06	4.1364e-06	1155	227.48	5.1341e-06	2.7796e-06	290.29	80.887	63.338	18.821	2.0362e-06	25.9	0.00031628	0.00030068	8.0418e-05	1047.7	3.4746e-06	3.2939e-06	1148.4	227.17	3.3829e-06	3.4001e-06	289.72	81.502	63.84	19.039	3.3301e-06	26.515	4.274	-45.842	29.661	-134.529	-25.358	-4.330	-134.790	-127.268	8.772	-1.337	-127.645	-120.706	-120.627	-113.278	-23.123	-113.387	-8191	255	
28453.025	1	1	0	0	0.26873	0.22975	0.1493	0.20611	0.042548	0.063526	0.19347	0.14519	0.18921	0.18467	0.038767	0.045139	0.14269	0.19085	0.1224	0.081295	-2.0563	-2.1833	-2.4917	-2.3396	-2.3937	-2.6646	-2.3	-2.5458	-2.6312	-2.1104	-2.6354	-2.3333	-2.4229	-2.4313	-2.2729	-2.5833	-15.556	52.840	-41.500	-63.124	-95.902	34.137	157.217	-34.627	183.876	-72.928	63.714	59.462	176.059	-42.571	-85.876	158.107	0.0004801	0.00021081	3.5422e-05	1062.6	3.9232e-06	4.9432e-06	1164.4	228.89	6.4659e-06	3.1271e-06	291.17	81.538	63.568	18.76	2.2083e-06	26.086	0.00031133	0.00030214	8.273e-05	1050.1	3.3112e-06	3.2856e-06	1150.9	228.05	3.3275e-06	3.3733e-06	289.82	81.729	63.894	19.019	3.4194e-06	26.61	8.664	-113.789	-128.495	-134.508	-63.757	25.921	-134.466	-127.174	-16.643	-43.461	-127.488	-120.986	-120.400	-112.742	32.572	-113.940	-8191	255	
28453.119	1	1	0	0	0.17505	0.14983	0.11795	0.2376	0.29426	0.081167	0.38625	0.062281	0.16737	0.16229	0.20438	0.1526	0.3124	0.21376	0.19606	0.12327	-2.0333	-2.0604	-2.5667	-2.5083	-2.2125	-2.5438	-2.3625	-2.6333	-2.6042	-2.2188	-2.575	-2.3729	-2.3438	-2.5896	-2.3083	-2.4208	-59.874	-56.582	159.472	132.587	173.891	118.620	154.587	167.040	-62.663	81.618	127.694	56.282	-122.482	-24.548	-84.850	137.728	0.00050853	0.00021068	0.00014361	1064.2	3.4298e-06	5.9339e-06	1161.8	228.65	3.6911e-06	2.5209e-06	291.07	81.283	63.642	18.799	4.7662e-06	26.126	0.00031177	0.00030513	8.3761e-05	1050.1	3.4639e-06	3.5179e-06	1149.6	227.79	3.4636e-06	3.3977e-06	289.87	81.764	63.956	19.041	3.3008e-06	26.584	9.566	-2.485	-52.396	-134.577	-44.169	-40.806	-134.487	-127.222	6.034	13.048	-127.382	-121.007	-120.231	-112.671	-22.232	-113.447	-8191	255	
28453.217	1	1	0	0	0.19248	0.29996	0.19176	0.30015	0.17689	0.13836	0.05591	0.08781	0.18322	0.043053	0.071517	0.10971	0.13873	0.14052	0.28085	0.05154	-2.0187	-2.3375	-2.4604	-2.7354	-2.3271	-2.5854	-2.4167	-2.3021	-2.4729	-2.1625	-2.675	-2.5104	-2.325	-2.6188	-2.3396	-2.4771	-84.244	64.711	-33.178	176.087	124.543	-129.542	182.202	201.500	29.291	5.567	-53.516	19.025	-11.188	211.001	62.114	49.552	0.00050322	0.00021308	0.00012861	1067.6	7.2789e-06	2.744e-06	1162	229.25	5.636e-06	3.8618e-06	289.73	82.596	63.722	18.754	5.0463e-06	25.94	0.00031549	0.00030327	8.5062e-05	1051.3	3.5353e-06	3.2361e-06	1150.4	227.67	3.2861e-06	3.2344e-06	289.4	81.943	64.009	18.991	3.3914e-06	26.493	20.241	-92.209	-77.944	-134.750	8.996	31.423	-134.684	-127.299	4.488	30.872	-127.397	-120.725	-120.530	-113.462	2.233	-113.613	-8191	255	
28453.312	1	1	0	0	0.096088	0.09367	0.24264	0.27404	0.15633	0.098704	0.30357	0.037268	0.18978	0.36652	0.15263	0.32777	0.17379	0.15465	0.10542	0.2424	-1.9958	-2.2687	-2.5542	-2.6729	-2.3271	-2.6854	-2.2896	-2.5729	-2.6875	-2.275	-2.5667	-2.5	-2.1854	-2.7333	-2.3083	-2.2708	-71.661	-51.425	205.442	186.113	1.639	67.014	165.753	-85.281	-47.650	115.363	53.145	83.233	72.982	178.356	164.609	62.457	0.00042005	0.00021475	6.936e-05	1062.4	4.9971e-06	2.2961e-06	1160.5	227.86	7.3785e-06	2.3793e-06	291.76	81.426	63.5	18.774	4.7884e-06	26.059	0.00031684	0.00030042	8.2113e-05	1049.3	3.357e-06	3.3375e-06	1151.9	227.09	3.2683e-06	3.2598e-06	289.57	81.755	63.844	19.057	3.2822e-06	26.508	8.051	-64.434	-67.576	-134.582	-27.617	22.040	-134.644	-127.318	-52.515	-47.239	-127.495	-121.075	-120.688	-112.902	-1.522	-113.616	-8191	255	
28453.408	1	1	0	0	0.29689	0.072753	0.12353	0.15673	0.20533	0.2786	0.13799	0.2616	0.20122	0.11877	0.063688	0.18417	0.16436	0.14247	0.034415	0.045713	-2.2208	-2.2604	-2.5333	-2.5708	-2.3937	-2.7354	-2.6813	-2.3125	-2.6646	-2.3917	-2.6042	-2.6042	-2.1292	-2.5729	-2.4458	-2.3479	-114.866	-23.980	66.908	-128.464	-29.875	-126.731	159.791	-121.535	-138.314	43.221	-26.239	54.505	-16.916	40.870	-128.798	-126.331	0.00051251	0.00021322	8.0221e-05	1062.5	8.6154e-06	3.9227e-06	1158.5	228	5.5502e-06	4.8395e-06	290.87	81.194	63.861	18.666	4.9526e-06	26.086	0.00031473	0.00030596	8.2872e-05	1048.3	3.3902e-06	3.3165e-06	1147.4	227.06	3.3096e-06	3.3403e-06	289.59	81.573	63.85	19	3.321e-06	26.53	12.535	-77.786	-45.080	-134.497	-15.307	8.019	-134.669	-127.456	-3.212	13.665	-127.267	-120.525	-120.211	-112.895	-1.876	-113.688	-8191	255	
28453.506	1	1	0	0	0.070009	0.17314	0.20464	0.26255	0.10628	0.10275	0.15303	0.16393	0.10718	0.16722	0.26808	0.069028	0.1185	0.16349	0.046517	0.071631	-2.2167	-2.1604	-2.3312	-2.6354	-2.3458	-2.5771	-2.5896	-2.3063	-2.7	-2.3771	-2.1917	-2.7917	-2.0917	-2.225	-2.6688	-2.5042	-101.665	150.128	12.687	143.701	17.804	-69.369	192.716	180.939	212.694	-58.272	-125.804	-110.665	194.048	-43.569	-100.602	144.197	0.00053681	0.00030035	5.7931e-06	1057.4	9.482e-06	1.2268e-06	1156.3	228.73	3.9501e-06	4.3735e-06	289.66	81.196	63.567	18.665	4.6568e-06	26.009	0.00030898	0.00029892	8.5822e-05	1046.1	3.3517e-06	3.1392e-06	1147	227.15	3.3295e-06	3.3505e-06	288.92	81.574	63.626	18.938	3.2648e-06	26.473	12.515	-64.604	5.631	-134.380	-2.188	-7.984	-134.553	-127.086	-4.895	-23.586	-126.956	-120.911	-120.664	-113.121	0.885	-113.664	-8191	255	
28453.602	1	1	0	0	0.16882	0.23846	0.077346	0.2941	0.085822	0.28277	0.20653	0.15899	0.045694	0.16578	0.034031	0.2303	0.24913	0.14401	0.24987	0.16339	-2.3354	-2.3125	-2.0583	-2.8167	-2.2167	-2.4938	-2.6312	-2.2396	-2.5812	-2.3021	-2.2729	-2.7	-2.1229	-2.4771	-2.4354	-2.2479	-78.270	140.827	-135.828	196.695	-111.721	114.526	35.556	-129.505	-134.068	-6.734	-79.093	-145.009	-138.376	56.131	73.992	97.539	0.00052374	6.8407e-05	8.7817e-05	1063.1	3.3935e-06	4.5583e-06	1161.3	228.3	3.731e-06	1.9999e-06	288.75	80.676	63.677	18.688	4.5028e-06	26.098	0.00031555	0.00029526	8.4574e-05	1047.2	3.4849e-06	3.2318e-06	1147.3	227.02	3.3942e-06	3.199e-06	288.04	81.38	63.673	18.975	3.1861e-06	26.52	16.293	-21.245	-30.332	-134.432	-41.453	36.992	-134.653	-127.137	0.178	-21.075	-127.691	-120.950	-120.494	-113.000	13.317	-113.737	-8191	255	
28453.721	1	1	0	0	0.38067	0.098692	0.30795	0.2555	0.16153	0.05187	0.099027	0.18214	0.28989	0.26798	0.10111	0.34635	0.15976	0.19989	0.098194	0.25384	-2.0542	-2.4292	-2.1833	-2.7	-2.3333	-2.475	-2.8042	-2.1604	-2.5771	-2.45	-2.1021	-2.4958	-2.2833	-2.3375	-2.4542	-2.2938	5.830	83.670	-88.751	-134.228	164.001	188.450	51.202	194.180	167.385	110.001	129.844	133.822	158.609	134.201	176.218	-74.641	0.00049488	0.00046992	5.8195e-05	1058.6	8.1238e-06	3.4429e-06	1157.6	228.24	4.5488e-06	4.6172e-06	287.95	81.024	63.028	18.664	2.7406e-06	25.875	0.00030236	0.00030146	8.6025e-05	1046.4	3.3905e-06	3.3345e-06	1145	226.87	3.1911e-06	3.2998e-06	288.35	81.431	63.379	18.989	3.2099e-06	26.456	7.910	-54.009	-78.024	-134.347	-9.882	23.394	-134.435	-127.299	31.088	10.883	-127.392	-120.723	-120.761	-112.605	19.457	-113.530	-8191	255	
28453.818	1	1	0	0	0.20087	0.10287	0.11111	0.23268	0.30032	0.22073	0.10763	0.061189	0.25017	0.047725	0.095047	0.15146	0.15832	0.099709	0.20578	0.097501	-2.1896	-2.4458	-2.1729	-2.7333	-2.4	-2.2062	-2.7167	-2.2708	-2.4938	-2.5667	-2.0854	-2.5125	-2.2167	-2.2333	-2.6104	-2.4104	-26.569	27.659	-63.951	192.289	145.461	-113.633	22.681	81.103	-130.894	157.245	-105.540	-92.371	-3.414	139.784	-49.617	-69.758	0.00047666	0.00014348	0.0001247	1058.6	6.2664e-06	3.8631e-06	1157.1	228.42	5.9523e-06	4.3277e-06	290.98	80.885	63.356	18.621	2.7212e-06	26.05	0.00031111	0.00028895	8.4995e-05	1044.9	3.3811e-06	3.3393e-06	1144.4	226.89	3.2266e-06	3.2765e-06	288.69	81.343	63.716	18.963	3.0483e-06	26.49	3.057	212.194	-69.635	-134.499	-13.462	-51.592	-134.613	-127.204	-24.432	14.322	-127.662	-120.863	-120.407	-112.829	-0.410	-113.611	-8191	255	
28453.914	1	1	0	0	0.065096	0.36105	0.085999	0.3154	0.1323	0.099522	0.070878	0.14221	0.063483	0.13101	0.24363	0.13631	0.070464	0.21228	0.1001	0.22965	-1.9917	-2.4167	-2.1688	-2.5938	-2.5125	-2.2104	-2.7521	-2.3229	-2.4104	-2.5604	-2.2062	-2.4604	-2.3625	-2.2125	-2.5646	-2.4083	0.624	-116.499	-34.751	117.425	-131.455	72.456	197.316	33.158	185.656	-15.432	136.353	-110.899	-111.460	34.418	97.015	148.335	0.0004583	0.00032745	7.5793e-05	1055.5	4.774e-06	4.0546e-06	1151.3	227.79	2.9279e-06	2.127e-06	289.13	80.957	63.516	18.637	4.2619e-06	26.075	0.00030644	0.00029205	8.4357e-05	1044.4	3.3084e-06	3.295e-06	1143.7	226.49	3.4138e-06	3.3038e-06	288.65	81.228	63.667	18.935	3.2099e-06	26.488	19.372	-77.993	-75.221	-134.474	42.208	40.911	-134.600	-127.395	-61.548	-5.372	-127.712	-121.053	-120.611	-112.648	-26.025	-113.360	-8191	255	
28454.008	1	1	0	0	0.16575	0.067555	0.08832	0.11444	0.11183	0.31259	0.24202	0.21535	0.17713	0.084263	0.055621	0.092763	0.1255	0.060278	0.20479	0.12131	-1.9271	-2.4792	-2.225	-2.5625	-2.4313	-2.3708	-2.8292	-2.3354	-2.5	-2.6792	-2.2208	-2.4938	-2.4042	-2.3208	-2.6792	-2.4979	197.944	154.195	53.137	190.877	-2.820	-0.664	154.764	141.213	-65.477	150.794	-136.720	179.140	-122.057	-134.768	131.810	88.025	0.00044947	0.00018178	0.00012973	1056.2	2.146e-06	3.3342e-06	1154.1	226.84	2.6175e-06	2.7711e-06	290.45	81.304	63.346	18.622	3.8447e-06	26.055	0.00030242	0.00029263	8.473e-05	1043.6	3.3948e-06	3.3356e-06	1144.6	226.05	3.3341e-06	3.2186e-06	288.23	81.312	63.554	18.924	3.17e-06	26.458	13.225	-53.349	-12.210	-134.176	25.049	13.315	-134.711	-126.897	-81.354	9.756	-127.728	-120.980	-120.583	-112.853	34.539	-113.512	-8191	255	
28454.105	1	1	0	0	0.19919	0.2426	0.30921	0.11089	0.21463	0.058023	0.46326	0.46625	0.24862	0.17599	0.0099349	0.16754	0.35369	0.077368	0.033256	0.25174	-1.8542	-2.5229	-2.2062	-2.6667	-2.525	-2.0292	-2.7812	-2.5375	-2.0146	-2.5	-2.4208	-2.3646	-2.5312	-2.3542	-2.6562	-2.5417	12.774	10.561	154.669	193.738	174.086	158.842	146.473	174.675	-87.283	34.394	187.015	-4.243	135.850	-131.045	-102.831	-24.428	0.00048979	0.0003657	5.7213e-05	1058.3	1.555e-06	3.7887e-06	1158.3	228.1	5.8711e-06	3.0313e-06	289.17	81.063	63.565	18.792	3.999e-06	25.853	0.00030685	0.00029488	8.6181e-05	1045.4	3.3575e-06	3.2568e-06	1147.3	226.67	3.2915e-06	3.2234e-06	288.96	81.538	63.727	18.97	3.1157e-06	26.352	11.107	-25.203	-32.794	-134.513	-44.241	6.238	-134.470	-127.227	4.874	9.936	-127.305	-120.694	-120.299	-113.240	8.194	-113.499	-8191	255	
28454.199	1	1	0	0	0.21016	0.14181	0.27409	0.32679	0.13687	0.23143	0.071628	0.082684	0.15231	0.16391	0.27409	0.077026	0.12893	0.074065	0.1767	0.073388	-1.8771	-2.5896	-2.2521	-2.5604	-2.6542	-2.1562	-2.6708	-2.3958	-2.2292	-2.7625	-2.3563	-2.425	-2.5854	-2.2667	-2.5771	-2.4354	-131.778	13.985	113.958	-140.680	24.816	69.292	155.929	-70.503	166.672	-102.230	-134.371	163.488	102.258	97.454	-44.960	73.552	0.0004944	0.00041082	6.6743e-05	1053.4	1.4201e-06	3.3048e-06	1153	227.58	5.7439e-06	5.2585e-06	288.16	81.346	63.209	18.817	5.6237e-06	25.774	0.00031163	0.00029229	8.2798e-05	1042.4	3.2337e-06	3.2909e-06	1143.3	226.2	3.2248e-06	3.1416e-06	287.85	81.235	63.46	18.962	3.1284e-06	26.35	10.730	-84.796	-72.478	-134.558	-138.931	35.425	-134.578	-127.449	5.605	-25.651	-127.335	-120.903	-120.098	-112.942	43.155	-113.547	-8191	255	
28454.297	1	1	0	0	0.077991	0.11534	0.19137	0.089903	0.067655	0.20438	0.24482	0.12408	0.03794	0.15629	0.082523	0.085878	0.10123	0.22365	0.20581	0.27313	-1.825	-2.6354	-2.2812	-2.4188	-2.7521	-2.2042	-2.7417	-2.5583	-2.2271	-2.7313	-2.625	-2.3333	-2.6562	-2.5062	-2.7479	-2.65	-117.115	-123.006	108.450	-116.452	193.648	204.468	155.353	193.466	-115.121	-77.248	-18.133	214.610	121.572	112.458	124.856	187.767	0.00056851	0.00014301	0.00012482	1050.7	5.3118e-06	9.6225e-07	1147.5	227.31	4.4316e-06	4.3358e-06	289.1	80.295	63.199	18.709	2.3971e-06	25.699	0.00030482	0.00028247	8.0961e-05	1040	3.2167e-06	3.289e-06	1140.3	226.12	3.2866e-06	3.2985e-06	287.76	81.2	63.567	18.969	3.3016e-06	26.378	16.156	-81.756	-61.358	-134.515	-16.082	-67.930	-134.593	-127.065	-44.816	3.518	-127.824	-120.954	-120.417	-112.971	-46.882	-113.741	-8191	255	
28454.393	1	1	0	0	0.1514	0.17913	0.20181	0.12678	0.11036	0.15616	0.36811	0.20665	0.1904	0.19184	0.089472	0.1899	0.20031	0.088887	0.12301	0.04512	-1.6688	-2.4792	-2.4375	-2.3458	-2.8167	-2.3937	-2.5833	-2.5687	-2.2708	-2.5896	-2.475	-2.3875	-2.6896	-2.3271	-2.5667	-2.8417	-33.439	-18.413	155.059	182.942	123.116	113.606	210.142	86.527	-55.818	59.382	-125.747	-96.685	74.268	37.611	-111.412	-6.652	0.00058158	0.00031923	0.00011468	1059.7	2.5469e-06	2.1552e-06	1158.6	228.45	6.7844e-06	8.3794e-06	289.89	80.944	62.828	18.704	1.8668e-06	25.972	0.00032699	0.000307	8.7442e-05	1047.9	3.3626e-06	3.5577e-06	1148.8	226.99	3.5729e-06	3.5475e-06	289.46	81.53	63.646	19.012	3.4254e-06	26.486	8.388	-64.521	-87.777	-134.480	29.076	-10.171	-134.691	-127.346	24.761	5.593	-127.729	-120.615	-120.321	-112.874	33.484	-113.774	-8191	255	
28454.514	1	1	0	0	0.29153	0.33994	0.11511	0.082433	0.10083	0.12429	0.11809	0.34862	0.082106	0.10325	0.094162	0.32871	0.16578	0.23208	0.2314	0.18081	-1.8062	-2.6375	-2.4792	-2.5375	-2.6458	-2.6542	-2.5604	-2.6521	-2.4229	-2.5417	-2.6167	-2.1292	-2.5771	-2.3854	-2.3646	-2.7021	84.088	-131.474	41.419	196.382	209.703	-88.069	-118.843	33.768	166.848	-114.262	-134.155	167.941	-108.323	193.917	147.286	-7.472	0.00047279	0.00022634	8.581e-05	1063.2	4.4393e-06	3.6067e-06	1164.1	229.02	5.5308e-06	4.1035e-06	289.47	81.27	63.641	18.705	1.8228e-06	25.739	0.00032385	0.00031307	8.6324e-05	1052.9	3.4928e-06	3.4792e-06	1153.5	228.01	3.4381e-06	3.3816e-06	288.92	81.488	63.771	19.001	3.4722e-06	26.46	14.495	-45.972	-64.189	-134.473	-5.384	18.120	-134.639	-127.332	-36.435	2.400	-127.470	-120.753	-120.631	-112.967	-16.900	-113.563	-8191	255	
28454.609	1	1	0	0	0.32488	0.2985	0.23577	0.24734	0.21749	0.15885	0.3158	0.19295	0.18532	0.21038	0.08499	0.17265	0.11628	0.13879	0.205	0.3583	-1.8333	-2.4167	-2.6771	-2.3979	-2.6979	-2.5	-2.4208	-2.6083	-2.3937	-2.4729	-2.7062	-2.3229	-2.7542	-2.5187	-2.4688	-2.6229	118.077	-31.192	98.569	-119.671	95.842	27.576	140.751	155.923	133.719	-123.435	-128.749	-131.834	-75.664	-59.192	4.404	10.219	0.00052227	9.1101e-05	0.00014086	1061.4	6.7913e-06	1.3781e-06	1162.4	227.46	1.7982e-06	4.484e-06	289.98	80.974	63.677	18.72	3.896e-06	25.969	0.00032617	0.00031568	8.69e-05	1050.3	3.5842e-06	3.5013e-06	1152.2	226.92	3.5479e-06	3.4322e-06	288.82	81.549	63.887	18.993	3.5191e-06	26.435	15.207	-77.941	-27.478	-134.541	-0.475	-60.088	-134.787	-127.214	-16.177	-20.167	-127.459	-120.520	-120.213	-112.968	20.268	-113.838	-8191	255	
28454.705	1	1	0	0	0.31423	0.25934	0.19906	0.03756	0.10183	0.17856	0.1221	0.16718	0.16301	0.29502	0.22543	0.023133	0.26635	0.11749	0.17165	0.18145	-1.8104	-2.3875	-2.5521	-2.4729	-2.4396	-2.6063	-2.3646	-2.7812	-2.5292	-2.4604	-2.6271	-2.2104	-2.6458	-2.4542	-2.2667	-2.7521	-4.983	-144.348	-20.407	-116.321	118.493	98.728	102.498	-108.011	-99.693	-110.956	-37.314	-0.067	115.599	116.720	76.481	-35.675	0.00038398	0.00029362	0.00011418	1066.2	1.4289e-06	1.3502e-06	1165.6	228.18	5.7169e-06	3.1826e-06	290.57	81.476	63.785	18.736	5.7209e-06	25.919	0.00032687	0.00032514	8.6846e-05	1051.6	3.5954e-06	3.4241e-06	1152.3	227.59	3.5157e-06	3.4784e-06	289.66	81.63	63.763	18.968	3.4606e-06	26.45	10.533	-47.952	-18.109	-134.707	111.924	49.831	-134.747	-127.192	-0.073	-47.066	-127.431	-121.297	-120.584	-113.127	-7.791	-113.886	-8191	255	
28454.803	1	1	0	0	0.075684	0.077949	0.34085	0.17286	0.36549	0.21952	0.12484	0.089425	0.31877	0.019799	0.23489	0.049688	0.17392	0.097667	0.2044	0.23214	-1.9438	-2.325	-2.6167	-2.3312	-2.6167	-2.6229	-2.35	-2.7729	-2.4313	-2.4292	-2.7875	-2.2979	-2.4458	-2.7042	-2.3083	-2.6625	164.957	-40.195	140.979	185.436	158.548	-52.187	124.073	30.664	-78.032	-25.071	20.496	-90.212	5.694	186.607	-122.323	-42.283	0.00047916	0.00020446	7.8925e-05	1065.3	2.7238e-06	4.295e-06	1165.5	229.13	4.5027e-06	4.0234e-06	291.09	81.106	63.996	18.636	7.605e-07	26.091	0.00032934	0.00031435	8.7029e-05	1050.5	3.5055e-06	3.5169e-06	1153.6	227.28	3.4659e-06	3.5215e-06	289.74	81.632	63.975	18.994	3.4997e-06	26.605	11.903	-7.534	-56.579	-134.414	-34.186	8.342	-134.558	-127.567	80.160	37.475	-127.225	-120.601	-120.665	-113.178	-25.404	-113.520	-8191	255	
28454.898	1	1	0	0	0.2267	0.18969	0.22858	0.1642	0.31357	0.13966	0.20236	0.059152	0.22614	0.042244	0.14161	0.24685	0.17068	0.057596	0.13318	0.080555	-1.9521	-2.4021	-2.7771	-2.3729	-2.4562	-2.5021	-2.3542	-2.6854	-2.6	-2.5667	-2.7938	-2.4521	-2.4938	-2.6271	-2.4	-2.6583	-81.649	46.343	188.125	-143.595	-21.785	21.904	3.000	-136.736	-23.464	-58.252	152.137	143.160	190.035	-82.588	31.485	58.295	0.00053906	0.00023057	0.00017044	1064.1	8.4443e-07	2.2048e-06	1164.5	228.88	3.6418e-06	3.5539e-06	289.61	81.631	63.723	18.797	3.5973e-06	26.025	0.00032383	0.00031249	8.6724e-05	1052.3	3.5987e-06	3.3783e-06	1153.6	227.78	3.4669e-06	3.5454e-06	289.53	81.604	63.874	19.025	3.5339e-06	26.564	4.751	-58.486	-59.717	-134.557	3.528	10.492	-134.579	-127.466	7.579	-4.234	-127.727	-120.936	-120.058	-113.066	-12.753	-113.564	-8191	255	
28454.994	1	1	0	0	0.18874	0.067994	0.17206	0.21946	0.059618	0.22291	0.10486	0.13459	0.14441	0.1226	0.088501	0.39065	0.23269	0.062705	0.014665	0.18325	-2.0479	-2.2208	-2.6063	-2.5271	-2.3063	-2.6583	-2.525	-2.5875	-2.5833	-2.325	-2.7354	-2.4313	-2.3292	-2.6375	-2.3167	-2.5875	190.069	-138.454	-25.406	174.951	20.728	-143.407	-98.947	136.475	194.304	124.722	191.411	210.707	192.842	-120.625	150.311	30.158	0.00049982	0.00034216	6.8807e-05	1063.5	5.0709e-06	4.2123e-06	1166.3	227.79	2.0323e-06	4.5081e-06	288.77	81.092	64.119	18.762	3.6315e-06	26.189	0.00033368	0.00032855	8.6527e-05	1052.1	3.5969e-06	3.4577e-06	1153.8	227.3	3.5599e-06	3.6173e-06	289.2	81.669	64.13	19.05	3.5051e-06	26.538	14.796	-68.250	-18.695	-134.340	-8.017	26.797	-134.526	-127.258	25.521	7.630	-127.204	-121.062	-120.513	-113.098	-30.849	-113.416	-8191	255	
28455.113	1	1	0	0	0.06358	0.14634	0.22569	0.12854	0.35362	0.13321	0.11232	0.28554	0.094064	0.18027	0.37032	0.12111	0.24741	0.090551	0.27234	0.14553	-2.2979	-2.1271	-2.6458	-2.4271	-2.2375	-2.7687	-2.4021	-2.7	-2.6625	-2.2188	-2.7812	-2.4542	-2.2729	-2.6083	-2.3521	-2.5458	-134.538	82.832	-118.302	136.588	-83.022	-86.749	179.912	153.551	171.268	116.440	-108.061	-120.476	21.852	44.823	-11.954	-34.225	0.00046713	0.00010138	0.00010308	1067.7	5.3433e-06	3.6469e-06	1161.5	228.58	5.4671e-06	3.2636e-06	291.28	81.417	63.516	18.825	4.9451e-06	26.157	0.00032138	0.00032978	9.0866e-05	1053.7	3.6501e-06	3.4504e-06	1153.2	227.77	3.5362e-06	3.5199e-06	290.19	81.836	63.903	19.08	3.4189e-06	26.592	15.659	-34.595	-28.319	-134.443	-52.532	-4.732	-134.699	-127.281	-20.329	31.646	-127.175	-120.852	-120.825	-113.026	12.628	-113.821	-8191	255	
28455.209	1	1	0	0	0.20695	0.08586	0.077219	0.14486	0.099034	0.004284	0.14484	0.20935	0.28919	0.32635	0.099712	0.24288	0.1956	0.29244	0.2392	0.063469	-2.025	-2.2417	-2.675	-2.6458	-2.2958	-2.7042	-2.5396	-2.6063	-2.6854	-2.3187	-2.6396	-2.4104	-2.2667	-2.8063	-2.35	-2.3625	172.656	207.622	17.128	67.085	54.725	194.272	-93.058	154.250	124.327	-52.822	62.970	157.369	-14.298	144.730	-10.416	-97.170	0.00056432	0.00027047	0.00010401	1066.3	3.192e-06	2.3823e-06	1162.6	228.72	3.365e-06	4.7111e-06	289.08	81.323	63.946	18.846	3.0626e-06	26.12	0.00032062	0.00031658	8.8527e-05	1052.2	3.5442e-06	3.5502e-06	1152.6	227.74	3.4823e-06	3.4679e-06	289.67	81.714	63.944	19.022	3.4034e-06	26.546	13.821	-40.272	-29.964	-134.492	-43.009	24.595	-134.583	-127.153	55.866	-30.074	-127.445	-120.823	-120.470	-113.161	23.214	-113.641	-8191	255	
28455.305	1	1	0	0	0.076585	0.15625	0.039609	0.13025	0.10906	0.10692	0.27314	0.048535	0.21005	0.093646	0.15785	0.1887	0.1422	0.11577	0.16028	0.10908	-2.2313	-2.0938	-2.7479	-2.6188	-2.2062	-2.7646	-2.4604	-2.4125	-2.5542	-2.5271	-2.6188	-2.5375	-2.3583	-2.7708	-2.4562	-2.4042	211.996	-0.710	94.189	-135.459	-22.342	-49.422	166.620	149.167	13.763	46.339	186.677	144.405	212.798	19.461	66.344	93.036	0.00046835	0.00041984	3.1863e-05	1061.4	7.0004e-06	4.2501e-06	1165.3	228.27	5.4387e-06	2.4891e-06	289.06	81.201	63.811	18.725	7.9908e-07	25.978	0.00031434	0.00031215	8.6418e-05	1050.4	3.4824e-06	3.3942e-06	1153.5	227.49	3.3375e-06	3.3293e-06	290.03	81.673	63.852	19.075	3.458e-06	26.504	9.544	-40.332	15.901	-134.603	-9.662	-0.065	-134.685	-127.236	-47.804	-141.099	-127.264	-121.049	-120.280	-112.817	-35.860	-113.744	-8191	255	
28455.400	1	1	0	0	0.20594	0.13868	0.15691	0.31097	0.23969	0.075316	0.13658	0.19345	0.13959	0.12013	0.11451	0.11225	0.19912	0.22694	0.1555	0.12795	-2.2292	-2.3354	-2.3917	-2.7479	-2.2292	-2.675	-2.7	-2.5187	-2.7125	-2.4271	-2.6188	-2.7062	-2.2167	-2.6854	-2.3917	-2.2354	94.172	64.946	-131.636	201.722	144.153	-68.669	135.204	17.481	175.924	-127.553	108.079	161.490	175.063	197.205	23.339	201.597	0.00045925	0.00018598	0.0001269	1061.1	7.894e-06	3.1207e-06	1166.4	228	5.2458e-06	3.4823e-06	288.62	81.221	63.906	18.579	3.9932e-06	25.963	0.00031973	0.00030656	8.8527e-05	1049.9	3.354e-06	3.2982e-06	1151.4	227.15	3.2866e-06	3.4934e-06	289.14	81.575	63.829	18.963	3.3215e-06	26.478	7.466	-105.439	-63.088	-134.352	-55.148	20.279	-134.543	-127.264	42.372	-35.078	-127.845	-120.706	-120.703	-113.524	-6.921	-113.279	-8191	255	
28455.498	1	1	0	0	0.21873	0.12852	0.21213	0.23664	0.27811	0.079491	0.091724	0.027299	0.060275	0.17113	0.25544	0.13439	0.24901	0.11761	0.19996	0.16541	-2.2292	-2.2458	-2.4458	-2.5938	-2.2375	-2.4833	-2.7146	-2.275	-2.675	-2.1562	-2.55	-2.6542	-2.2833	-2.575	-2.5375	-2.3812	-5.826	-132.896	90.969	-45.983	-72.338	-80.882	108.801	-2.654	49.831	198.540	-119.473	192.421	213.896	-109.214	159.386	-102.178	0.00053956	0.00035825	0.00013577	1061.5	4.9191e-06	2.6823e-06	1164.9	227.7	2.7805e-06	1.9428e-06	289.36	81.055	62.982	18.679	2.5024e-06	26.092	0.00031971	0.00029793	8.5001e-05	1048.8	3.5437e-06	3.5085e-06	1149.8	226.88	3.5612e-06	3.432e-06	288.75	81.402	63.581	18.957	3.3956e-06	26.54	17.043	-33.754	-52.359	-134.679	-101.412	14.023	-134.486	-127.152	31.632	-75.307	-127.577	-120.735	-120.563	-113.090	-3.212	-113.407	-8191	255	
28455.594	1	1	0	0	0.1755	0.11633	0.13966	0.28851	0.24969	0.26309	0.11611	0.1912	0.11672	0.29851	0.16574	0.080905	0.14188	0.18003	0.16898	0.24277	-2.2812	-2.4229	-2.2917	-2.7438	-2.4813	-2.6937	-2.8104	-2.2583	-2.6229	-2.5312	-2.3042	-2.6562	-2.1229	-2.4021	-2.6271	-2.3625	211.092	164.033	102.537	-133.507	91.787	3.267	131.566	32.633	126.207	129.982	198.701	49.547	-16.018	-113.546	-24.821	10.354	0.00050096	0.00019437	7.2333e-05	1061.8	4.2695e-06	2.3029e-06	1164.4	227.36	5.8387e-06	1.7973e-06	289.9	81.679	63.51	18.747	3.5334e-06	26.158	0.00032794	0.00031696	8.7856e-05	1050.9	3.5364e-06	3.3291e-06	1152.1	226.68	3.4348e-06	3.3194e-06	289.52	81.646	63.851	19.028	3.4091e-06	26.549	7.480	-34.077	-46.022	-134.359	9.280	-7.546	-134.734	-127.456	-26.045	5.338	-127.449	-120.802	-120.305	-112.431	8.736	-113.714	-8191	255	
28455.689	1	1	0	0	0.20251	0.055252	0.0794	0.30497	0.15935	0.25935	0.25625	0.18128	0.13511	0.12503	0.18985	0.06626	0.30149	0.16454	0.20965	0.096575	-1.9625	-2.4417	-2.4062	-2.7604	-2.3292	-2.4396	-2.6208	-2.225	-2.5729	-2.55	-2.4813	-2.7771	-2.3146	-2.4	-2.3417	-2.3271	120.752	80.186	69.148	198.646	-18.647	-51.427	177.672	118.184	82.856	-62.742	27.763	142.945	-13.804	171.324	-33.046	3.289	0.00050035	0.00051273	0.00014514	1060.4	3.1355e-06	4.4164e-06	1160.7	228	8.9908e-06	2.4294e-06	290.12	81.399	63.332	18.715	2.263e-06	26.047	0.00032271	0.00031401	8.9334e-05	1051	3.4652e-06	3.4389e-06	1150.8	227.49	3.4925e-06	3.4293e-06	289.38	81.6	63.648	19	3.3712e-06	26.55	10.628	-40.744	-62.159	-134.637	-4.270	9.173	-134.809	-127.200	-15.851	-120.439	-127.461	-120.881	-120.773	-113.041	-76.087	-113.748	-8191	255	
28455.785	1	1	0	0	0.15703	0.11665	0.065136	0.1009	0.22082	0.06709	0.22375	0.21111	0.10645	0.27471	0.16813	0.1731	0.18124	0.28724	0.04463	0.11889	-2.1417	-2.5625	-2.2417	-2.7146	-2.3063	-2.4375	-2.8208	-2.3	-2.6937	-2.6083	-2.3229	-2.6083	-2.3854	-2.3458	-2.6271	-2.3271	-124.100	64.276	65.016	182.950	51.659	175.663	200.256	-144.450	-94.291	-46.559	60.348	-142.620	7.786	-127.530	-142.569	-119.260	0.00042936	0.00024377	9.4236e-05	1064	5.4833e-06	1.6039e-06	1167.3	228.71	7.3544e-06	6.5148e-06	289.11	81.286	63.686	18.752	2.9421e-06	25.992	0.00032494	0.00031563	8.7666e-05	1052.1	3.4791e-06	3.4063e-06	1152.1	227.46	3.446e-06	3.3896e-06	289.25	81.565	63.773	19.019	3.228e-06	26.505	7.902	-85.382	-68.124	-134.544	-27.966	-22.208	-134.493	-127.307	18.074	-18.883	-127.172	-121.046	-119.905	-113.281	40.849	-113.583	-8191	255	
28455.904	1	1	0	0	0.28553	0.11517	0.13632	0.21324	0.022392	0.25388	0.13202	0.17619	0.1962	0.14558	0.34119	0.20329	0.14863	0.23034	0.15287	0.14183	-1.9958	-2.6688	-2.4562	-2.7854	-2.4021	-2.2479	-2.9604	-2.3521	-2.5583	-2.6396	-2.3625	-2.5583	-2.5354	-2.4	-2.6104	-2.3708	73.291	103.677	212.313	152.910	-12.160	182.889	91.425	112.568	-75.627	21.273	63.175	-79.061	7.346	-99.100	84.514	-58.693	0.00050906	0.0002939	0.00017713	1060.7	1.4211e-06	2.2065e-06	1162	227.54	5.4092e-06	3.5249e-06	290.4	81.134	63.441	18.621	4.6106e-06	26.088	0.00031364	0.00030777	8.4323e-05	1047.9	3.373e-06	3.3757e-06	1148.5	226.92	3.3507e-06	3.4001e-06	289.31	81.515	63.695	18.985	3.3184e-06	26.494	19.380	-64.857	-59.439	-134.482	32.723	56.552	-134.534	-126.988	2.509	-35.853	-127.626	-120.945	-120.544	-112.659	-8.785	-113.697	-8191	255	
28455.979	1	1	0	0	0.14433	0.10851	0.12078	0.27991	0.11408	0.15121	0.22611	0.21011	0.24419	0.089681	0.12787	0.1325	0.084999	0.18272	0.19789	0.19269	-2.0708	-2.5667	-2.2708	-2.5646	-2.3854	-2.3146	-2.9604	-2.4458	-2.425	-2.6583	-2.2604	-2.7229	-2.6625	-2.3792	-2.7604	-2.4313	-60.123	184.472	-20.891	-84.324	10.910	147.232	-35.424	165.905	-65.443	-118.025	-136.489	-5.907	-132.694	54.186	52.526	138.535	0.00050802	0.00021574	0.0001158	1064.5	3.8821e-06	2.5126e-06	1162.7	227.17	8.8119e-06	3.926e-06	288.89	81.377	63.133	18.762	2.4516e-06	26.084	0.00031646	0.00030218	8.3767e-05	1049.7	3.5169e-06	3.4499e-06	1148.4	226.78	3.456e-06	3.3092e-06	288.79	81.579	63.696	19.042	3.356e-06	26.493	10.597	-78.649	-29.198	-134.483	17.584	7.931	-134.457	-127.086	-3.027	-72.096	-127.419	-120.795	-120.392	-112.903	-20.394	-113.943	-8191	255	
28456.074	1	1	0	0	0.095492	0.075338	0.23152	0.37085	0.083251	0.10578	0.14596	0.18901	0.058022	0.1125	0.21431	0.33916	0.16747	0.34461	0.24512	0.1839	-1.8937	-2.4792	-2.2771	-2.7208	-2.5146	-2.3479	-2.7542	-2.3708	-2.2333	-2.6354	-2.4229	-2.3979	-2.4729	-2.1979	-2.6979	-2.4833	-39.198	87.356	166.214	126.786	157.979	117.131	123.195	196.855	-110.352	-136.950	138.214	181.333	61.858	178.151	135.060	36.026	0.00052409	0.00019937	0.000117	1057.5	3.5702e-06	4.4551e-06	1162.4	226.66	3.3878e-06	5.0867e-06	291.08	80.692	63.771	18.65	1.9431e-06	26.035	0.00031581	0.0003068	8.7781e-05	1047.4	3.5543e-06	3.3937e-06	1147.9	226.63	3.4493e-06	3.3108e-06	289.54	81.23	63.699	18.954	3.4062e-06	26.464	-0.469	-88.721	-45.024	-134.471	-47.950	17.660	-134.458	-127.335	-1.871	23.327	-127.297	-121.074	-120.292	-112.800	33.074	-113.398	-8191	255	
28456.193	1	1	0	0	0.13383	0.35578	0.0805	0.10045	0.063928	0.20792	0.3641	0.086445	0.10802	0.16922	0.095752	0.17414	0.21813	0.25044	0.24816	0.32307	-1.8125	-2.5812	-2.3417	-2.6375	-2.725	-2.3479	-2.7271	-2.4917	-2.2979	-2.7792	-2.5896	-2.5	-2.5667	-2.2625	-2.4938	-2.5687	134.268	50.235	55.591	-118.720	142.036	69.763	29.270	31.439	-29.809	-84.244	46.413	-144.494	54.966	199.221	73.479	106.144	0.00047492	0.00036524	0.00011297	1055.9	6.2321e-06	4.2519e-06	1156.9	227.18	2.8919e-06	3.5283e-06	289.12	81.054	63.517	18.795	7.4265e-07	26.013	0.00031893	0.00031055	8.7381e-05	1045	3.5526e-06	3.4458e-06	1146	226.75	3.4271e-06	3.492e-06	289.44	81.596	63.619	18.978	3.5168e-06	26.508	11.211	-22.385	-11.705	-134.491	-41.848	18.809	-134.588	-127.166	-13.136	-38.001	-127.446	-120.535	-120.299	-112.918	44.295	-113.583	-8191	255	
28456.289	1	1	0	0	0.16753	0.0796	0.28236	0.14166	0.24961	0.02855	0.41862	0.039165	0.14493	0.15814	0.11285	0.28115	0.2166	0.34282	0.23286	0.1212	-1.9312	-2.575	-2.3583	-2.5333	-2.5104	-2.3375	-2.6833	-2.6167	-2.3646	-2.575	-2.3208	-2.5792	-2.7625	-2.3146	-2.3667	-2.6417	56.288	-137.672	145.880	-117.329	-69.059	-62.154	122.766	-4.397	-54.699	-78.226	-60.682	206.182	149.406	82.666	0.366	208.862	0.00050902	0.00014916	0.00010578	1062	5.3477e-06	4.2032e-06	1160.4	228.08	9.228e-06	1.5688e-06	290.31	81.516	63.374	18.709	3.7902e-06	25.867	0.00032779	0.00032018	8.8432e-05	1048	3.606e-06	3.5814e-06	1148.6	227.26	3.5997e-06	3.4733e-06	290.05	81.509	63.732	19.007	3.4507e-06	26.439	8.197	47.329	-72.881	-134.573	-52.793	-3.994	-134.515	-127.405	-44.543	7.214	-127.817	-120.835	-120.517	-113.078	18.215	-113.840	-8191	255	
28456.387	1	1	0	0	0.47496	0.21577	0.12282	0.29631	0.26623	0.21522	0.088355	0.039877	0.04983	0.1631	0.24588	0.22752	0.04186	0.12356	0.40508	0.19444	-1.8188	-2.6312	-2.4062	-2.3583	-2.7292	-2.1271	-2.5792	-2.4979	-2.2896	-2.7667	-2.5229	-2.2875	-2.7313	-2.1521	-2.5708	-2.7687	182.444	-107.084	-12.825	120.198	-74.851	74.079	2.422	97.627	197.263	-142.429	153.198	198.550	52.897	-86.751	-125.630	203.738	0.00056644	0.00019448	0.00010948	1061.2	4.6851e-06	3.1549e-06	1160.9	228.3	4.9448e-06	2.596e-06	289.01	80.853	63.8	18.776	5.7496e-06	26.131	0.00033125	0.00031338	8.8452e-05	1049.1	3.4153e-06	3.5252e-06	1151.5	227.02	3.4978e-06	3.3869e-06	288.87	81.502	63.699	18.974	3.3684e-06	26.555	5.381	-45.910	-64.120	-134.557	18.878	-23.449	-134.825	-127.411	16.056	-26.253	-127.451	-120.603	-120.585	-113.306	-34.449	-113.386	-8191	255	
28456.506	1	1	0	0	0.046469	0.21989	0.016652	0.42952	0.20537	0.15355	0.32449	0.23052	0.08618	0.12382	0.19292	0.22866	0.20836	0.031876	0.1269	0.21613	-1.7292	-2.6646	-2.5208	-2.4688	-2.7062	-2.4042	-2.3542	-2.6604	-2.1417	-2.6271	-2.6063	-2.2562	-2.6104	-2.4437	-2.4146	-2.6333	-39.707	108.566	183.741	180.193	-11.917	16.605	135.278	157.883	106.632	175.747	5.653	176.144	-103.304	213.765	125.674	70.041	0.00050794	0.00021582	6.1678e-05	1062.8	6.8881e-06	3.5012e-06	1158.4	228.18	5.5802e-06	1.2017e-06	288.97	80.837	63.79	18.627	5.164e-06	26.067	0.00032552	0.00031384	8.2961e-05	1049.1	3.4976e-06	3.4789e-06	1149.6	226.86	3.3737e-06	3.4577e-06	288.59	81.552	64.001	18.965	3.5082e-06	26.525	2.156	-51.085	-37.240	-134.492	-19.840	-19.720	-134.556	-127.024	-15.831	-106.308	-127.042	-120.810	-119.994	-113.116	-19.993	-113.154	-8191	255	
28456.578	1	1	0	0	0.24092	0.18017	0.21677	0.066846	0.16868	0.023778	0.091574	0.1513	0.056428	0.022293	0.064527	0.071967	0.15786	0.14162	0.089566	0.10101	-1.7604	-2.5687	-2.375	-2.4125	-2.7	-2.4562	-2.45	-2.7667	-2.2958	-2.4958	-2.7229	-2.2938	-2.5729	-2.5042	-2.2917	-2.6271	6.581	-67.607	-74.335	26.563	38.008	180.351	128.588	106.557	-68.106	209.111	145.995	97.083	-2.600	129.399	14.698	-135.803	0.00048088	0.0002879	8.9305e-05	1061.4	7.2338e-06	4.3069e-06	1162	227.56	6.5958e-06	9.3696e-07	291.07	80.929	63.038	18.685	2.1803e-06	25.966	0.00033055	0.00030794	8.8486e-05	1049.4	3.5744e-06	3.3332e-06	1151	226.69	3.5249e-06	3.3641e-06	289.35	81.466	63.594	19.007	3.4839e-06	26.577	16.266	-27.084	-1.645	-134.363	-2.503	16.945	-134.532	-127.331	-16.039	20.311	-127.575	-120.757	-120.282	-112.944	-41.019	-113.588	-8191	255	
28456.674	1	1	0	0	0.071738	0.293	0.31872	0.13596	0.29062	0.20757	0.25407	0.17313	0.32285	0.14716	0.06185	0.21804	0.12912	0.13627	0.075302	0.13705	-1.8354	-2.2958	-2.65	-2.4021	-2.6104	-2.4938	-2.625	-2.8875	-2.5521	-2.5333	-2.7771	-2.3167	-2.6083	-2.4313	-2.3792	-2.8458	84.911	85.329	117.366	171.289	170.889	143.424	88.450	179.729	-30.362	125.955	-131.135	214.359	-47.548	-117.680	-83.042	186.367	0.00050105	0.0003015	9.6845e-05	1063.9	5.1238e-06	2.5078e-06	1161.6	227.96	4.5996e-06	4.9655e-06	290.4	81.193	63.958	18.675	4.0696e-06	25.959	0.00032279	0.00032279	8.8208e-05	1050.2	3.5037e-06	3.5177e-06	1150.3	226.85	3.6003e-06	3.4255e-06	289.66	81.556	63.85	19.025	3.5981e-06	26.564	15.910	-57.884	210.193	-134.490	27.449	-49.156	-134.546	-127.366	-30.054	-12.241	-127.533	-120.889	-120.045	-113.146	-41.058	-113.646	-8191	255	
28456.795	1	1	0	0	0.012038	0.2453	0.17949	0.33937	0.13146	0.060399	0.13607	0.32182	0.093756	0.10753	0.27118	0.37793	0.37896	0.15572	0.13585	0.25301	-1.8312	-2.2958	-2.5812	-2.3604	-2.55	-2.3354	-2.2729	-2.7708	-2.3792	-2.3646	-2.5292	-2.2729	-2.6479	-2.6708	-2.2938	-2.5375	27.637	112.454	127.505	172.391	124.276	184.802	172.895	182.890	114.681	-75.862	158.090	92.678	177.613	86.426	136.444	165.956	0.00049986	0.00018025	5.8677e-05	1061.9	2.1967e-06	3.5879e-06	1162.8	227.54	4.1707e-06	6.3576e-06	291.65	81.281	63.727	18.739	5.3487e-06	26.153	0.00033007	0.00032013	9.1849e-05	1049.8	3.645e-06	3.4733e-06	1153	227.21	3.624e-06	3.4663e-06	289.96	81.682	63.894	19.028	3.5955e-06	26.533	12.780	-26.838	-70.664	-134.540	-81.211	-10.370	-134.641	-127.443	24.705	23.869	-127.552	-120.935	-120.775	-113.229	38.363	-113.498	-8191	255	
28456.891	1	1	0	0	0.21345	0.059511	0.13784	0.12065	0.15449	0.03847	0.17873	0.23578	0.078525	0.17602	0.088159	0.23478	0.12086	0.13039	0.16017	0.25733	-1.8833	-2.4938	-2.6063	-2.3	-2.1854	-2.5042	-2.2875	-2.6042	-2.4771	-2.4521	-2.7062	-2.2792	-2.5125	-2.5563	-2.1396	-2.5875	0.960	124.442	-139.408	193.627	-116.713	-40.301	201.073	165.741	2.781	105.079	97.385	102.646	-45.516	73.733	123.663	180.778	0.00047157	0.00016251	1.9182e-05	1062.7	5.556e-06	2.4498e-06	1169.7	228.21	5.016e-06	6.2368e-06	291.84	81.381	63.878	18.68	3.2743e-06	25.807	0.0003286	0.00031404	9.2487e-05	1052.2	3.53e-06	3.4692e-06	1154.6	227.45	3.3875e-06	3.495e-06	289.85	81.506	63.892	19.006	3.2928e-06	26.5	12.989	-38.995	113.739	-134.376	-49.393	-138.669	-134.876	-127.116	28.498	-6.917	-127.465	-120.679	-120.498	-112.941	-35.622	-113.713	-8191	255	
28456.986	1	1	0	0	0.11129	0.052305	0.022481	0.089147	0.10264	0.21512	0.20396	0.14862	0.29107	0.047157	0.24088	0.32752	0.35833	0.30267	0.14161	0.025183	-1.9125	-2.1688	-2.5042	-2.4604	-2.3875	-2.6771	-2.3583	-2.5521	-2.425	-2.5187	-2.825	-2.5417	-2.3708	-2.7083	-2.3187	-2.5062	113.738	118.759	3.769	-61.121	-23.890	42.660	172.727	94.683	121.083	61.788	-50.395	-21.744	134.358	-77.272	49.739	192.437	0.0005084	0.00026315	9.0602e-05	1067.9	7.1126e-06	4.325e-06	1163.6	228.09	8.3073e-06	5.1154e-07	289.51	81.229	63.696	18.807	2.8546e-06	26.101	0.000313	0.00031309	8.4784e-05	1051.3	3.5721e-06	3.3821e-06	1151.5	227.3	3.4069e-06	3.5588e-06	288.65	81.542	63.873	19.017	3.6061e-06	26.566	11.415	-65.570	-77.258	-134.710	-23.548	34.868	-134.487	-126.980	-7.266	-65.016	-127.325	-120.659	-120.351	-112.403	-13.502	-113.531	-8191	255	
28457.082	1	1	0	0	0.11277	0.12414	0.095133	0.24045	0.090119	0.22793	0.29308	0.097608	0.073294	0.15677	0.58156	0.21226	0.076738	0.26149	0.24048	0.097469	-1.9604	-2.0938	-2.5438	-2.5896	-2.4292	-2.6229	-2.4979	-2.7646	-2.4479	-2.3479	-2.6875	-2.3812	-2.5167	-2.7292	-2.2146	-2.5917	-67.380	-84.186	-77.661	-106.096	-80.589	57.017	58.531	-46.894	-28.262	174.230	-118.242	2.517	152.236	-118.241	0.459	2.498	0.00053926	0.00042177	0.00010099	1061.3	7.1596e-06	1.4666e-06	1165.3	227.7	3.2636e-06	3.3634e-06	289.23	81.293	63.498	18.668	3.3199e-06	26.099	0.00032926	0.00033588	9.0981e-05	1050.9	3.7291e-06	3.6279e-06	1153.7	227.6	3.5165e-06	3.6875e-06	289.29	81.664	63.767	19.027	3.5533e-06	26.568	7.546	-32.769	-38.582	-134.745	-41.224	36.822	-134.703	-127.102	32.125	42.548	-127.341	-121.130	-120.670	-113.015	10.472	-113.525	-8191	255	
28457.201	1	1	0	0	0.13709	0.039475	0.16083	0.28425	0.14239	0.087746	0.25423	0.23851	0.3648	0.18362	0.2052	0.02756	0.19173	0.028673	0.15413	0.1377	-2.0604	-2.1375	-2.5917	-2.6437	-2.1375	-2.6208	-2.6167	-2.4396	-2.4292	-2.1917	-2.675	-2.5542	-2.2271	-2.6375	-2.35	-2.4042	190.061	173.254	-137.067	-137.812	-7.493	78.346	151.496	-139.368	80.250	5.215	147.538	200.638	101.958	126.139	-56.423	75.693	0.00052874	0.00032671	0.00017758	1063.8	4.2423e-06	3.8766e-06	1166.1	227.37	7.3701e-06	2.5167e-06	290.35	81.783	63.749	18.748	2.9022e-06	26.039	0.00033417	0.00032698	8.9361e-05	1052.4	3.6557e-06	3.4652e-06	1154	227.21	3.4971e-06	3.5272e-06	289.27	81.739	64.091	19.031	3.3645e-06	26.551	6.874	-39.511	-38.826	-134.500	17.932	11.936	-134.496	-127.447	-49.712	11.599	-127.359	-120.554	-120.447	-113.143	26.701	-113.741	-8191	255	
28457.273	1	1	0	0	0.08232	0.14293	0.1456	0.14952	0.12943	0.19829	0.31242	0.32637	0.28692	0.22197	0.32199	0.31541	0.15457	0.086048	0.083261	0.029895	-2.2771	-2.0854	-2.6458	-2.6437	-2.2271	-2.8646	-2.5479	-2.5146	-2.5687	-2.5229	-2.4521	-2.4729	-2.2167	-2.6583	-2.45	-2.4188	30.236	102.808	67.256	202.245	-57.753	-39.814	167.327	128.175	32.966	64.362	-101.251	-102.484	149.797	26.318	97.595	191.720	0.00050092	0.00028255	7.9223e-05	1062.8	3.4219e-06	3.2693e-06	1166.1	227.32	6.3995e-06	3.1763e-06	289.94	81.102	63.672	18.755	3.3341e-06	26.087	0.0003168	0.0003129	8.4703e-05	1051.4	3.4981e-06	3.3506e-06	1152.4	227.54	3.3988e-06	3.4995e-06	289.3	81.707	64.043	19.084	3.4236e-06	26.562	15.736	-79.477	-64.321	-134.451	-40.619	5.024	-134.516	-127.219	13.509	5.491	-127.151	-121.194	-120.615	-113.075	-5.035	-113.985	-8191	255	
28457.369	1	1	0	0	0.21344	0.013913	0.1454	0.22553	0.30406	0.1813	0.034619	0.10991	0.25496	0.15965	0.14179	0.1268	0.23834	0.074372	0.10329	0.24499	-2.3083	-2.1708	-2.4208	-2.7333	-2.2542	-2.7396	-2.75	-2.3521	-2.7333	-2.4	-2.6312	-2.5146	-2.1646	-2.7313	-2.3083	-2.225	-123.615	-138.395	-89.267	-80.137	201.904	-64.976	-118.786	140.136	17.945	152.877	208.136	169.699	169.156	169.414	-128.273	-70.744	0.00051378	0.00041147	3.3773e-05	1066.6	3.8182e-06	3.8086e-06	1160.4	229.18	4.8029e-06	2.3708e-06	288.89	81.09	63.419	18.925	5.9296e-06	26.187	0.00032052	0.00031181	8.5503e-05	1052.3	3.469e-06	3.4055e-06	1151.1	227.7	3.4917e-06	3.3553e-06	289.58	81.777	63.813	19.097	3.3013e-06	26.563	7.022	-61.077	-96.147	-134.445	-72.790	-5.188	-134.844	-127.198	45.572	59.795	-127.346	-121.127	-120.551	-112.801	8.794	-113.563	-8191	255	
28457.467	1	1	0	0	0.32605	0.15831	0.12892	0.17739	0.051091	0.1639	0.11433	0.2522	0.070758	0.17314	0.2607	0.30511	0.16164	0.28156	0.17226	0.15773	-2.1708	-2.2542	-2.4917	-2.8479	-2.2188	-2.6312	-2.525	-2.3771	-2.5667	-2.4604	-2.4083	-2.6104	-2.1021	-2.4479	-2.3458	-2.3417	146.744	87.930	160.839	-122.139	177.021	188.980	51.654	47.900	-106.199	96.417	83.394	200.352	-56.644	-107.087	125.138	-127.064	0.00048916	0.00029401	2.4037e-05	1064.3	4.913e-06	4.8396e-06	1164.5	228.54	3.1218e-06	4.0692e-06	289.37	81.123	63.651	18.907	6.2757e-06	26.043	0.00031392	0.00030441	8.6039e-05	1051.1	3.4497e-06	3.3275e-06	1153.3	227.51	3.3336e-06	3.3636e-06	288.78	81.606	63.861	19.106	3.3044e-06	26.567	11.696	-44.487	-26.173	-134.730	-1.084	-27.856	-134.691	-127.083	-26.592	6.665	-127.348	-120.662	-120.612	-112.853	-11.534	-113.563	-8191	255	
28457.588	1	1	0	0	0.24763	0.20455	0.18206	0.064794	0.072584	0.19646	0.2244	0.17514	0.08561	0.08043	0.11339	0.18903	0.31544	0.086412	0.077231	0.26446	-2.2521	-2.55	-2.5542	-2.8646	-2.2188	-2.5875	-2.7313	-2.3104	-2.6437	-2.4792	-2.2812	-2.6667	-2.3167	-2.5521	-2.5521	-2.1854	75.120	172.075	135.515	-27.024	168.016	145.613	181.123	-21.700	128.942	175.740	-64.776	-91.362	206.036	2.997	-27.007	-91.718	0.00056905	0.00011675	8.6972e-05	1069.7	5.506e-06	2.3184e-06	1167.1	228.38	4.6852e-06	1.5922e-06	289.09	81.432	63.746	18.822	2.7239e-06	25.96	0.00032444	0.00028781	8.1191e-05	1053.9	3.4054e-06	3.2783e-06	1153.7	227.56	3.3255e-06	3.2649e-06	289.51	81.735	63.968	19.063	3.1807e-06	26.584	9.916	-62.100	-54.823	-134.402	-50.264	-20.837	-134.559	-127.050	-27.191	108.038	-127.436	-120.953	-120.454	-112.755	-36.143	-113.439	-8191	255	
28457.684	1	1	0	0	0.099449	0.20068	0.10693	0.20182	0.085988	0.11624	0.054304	0.23512	0.068172	0.11558	0.19679	0.1368	0.1836	0.25987	0.14068	0.07022	-2.2062	-2.5479	-2.3375	-2.925	-2.2562	-2.4938	-2.7208	-2.3667	-2.5625	-2.4729	-2.2521	-2.7604	-2.4917	-2.5833	-2.6521	-2.3292	213.403	170.540	24.693	213.977	88.215	190.849	185.587	192.841	-101.707	101.247	200.066	60.508	87.229	138.338	-88.820	130.868	0.00053588	0.00010843	0.00013686	1068.8	1.9068e-06	3.6333e-06	1167.2	227.16	1.3716e-06	3.4142e-06	289.98	81.212	63.651	18.711	2.995e-06	26.138	0.00030693	0.00028914	8.7741e-05	1051.3	3.3046e-06	3.3189e-06	1153	227.19	3.1508e-06	3.2834e-06	289.26	81.563	63.59	19.066	3.1483e-06	26.613	8.213	-22.038	-52.132	-134.621	-9.038	-50.450	-134.682	-127.283	-72.068	13.509	-127.360	-120.968	-120.248	-112.956	2.272	-113.365	-8191	255	
28457.779	1	1	0	0	0.17362	0.26891	0.20485	0.13925	0.16113	0.11709	0.055918	0.097459	0.14428	0.14004	0.20805	0.38182	0.25497	0.094158	0.10415	0.22075	-2.0792	-2.5812	-2.4417	-2.7146	-2.2979	-2.3958	-2.6437	-2.2625	-2.3667	-2.5083	-2.3896	-2.5729	-2.5417	-2.2854	-2.6479	-2.15	-44.358	-12.774	90.972	184.442	48.645	-95.108	147.657	-56.787	158.129	56.873	74.866	139.585	205.279	193.302	42.989	-141.375	0.00046092	0.00034978	8.9635e-05	1059.6	1.658e-06	4.5579e-06	1160.4	229.66	9.4743e-06	4.3937e-06	290	81.22	63.953	18.798	6.2682e-06	26.015	0.00030757	0.00028346	8.2818e-05	1048.3	3.2871e-06	3.2207e-06	1149	227.28	3.2861e-06	3.1939e-06	288.92	81.524	63.876	19.072	3.1998e-06	26.553	10.403	-57.145	-33.152	-134.399	-10.589	-43.654	-134.558	-127.152	-11.602	39.493	-127.456	-120.611	-120.505	-112.765	-30.866	-113.743	-8191	255	
28457.875	1	1	0	0	0.1577	0.1463	0.027043	0.25836	0.25678	0.11204	0.063786	0.082581	0.22111	0.13434	0.32955	0.20314	0.1704	0.25643	0.091202	0.24488	-2.1646	-2.5208	-2.2625	-2.7708	-2.4167	-2.2729	-2.8958	-2.3708	-2.5312	-2.6917	-2.1354	-2.4708	-2.2771	-2.25	-2.6021	-2.1688	-67.380	113.992	-16.147	-95.081	-110.631	-14.404	100.438	-111.987	172.392	114.586	158.038	179.214	171.671	54.695	-14.662	85.077	0.00049528	0.00039729	0.00011688	1062.2	5.1368e-06	3.2985e-06	1156.3	228.19	4.9286e-06	3.9337e-06	289.24	81.473	63.302	18.705	4.7507e-06	26.246	0.00030347	0.00030066	8.3747e-05	1048.7	3.3378e-06	3.2495e-06	1147.4	227.09	3.4092e-06	3.2282e-06	288.64	81.533	63.762	19.036	3.2029e-06	26.562	11.748	-50.902	-14.218	-134.446	-47.613	22.936	-134.891	-127.315	13.300	22.119	-127.378	-121.004	-120.453	-112.678	29.924	-113.610	-8191	255	
28457.971	1	1	0	0	0.13268	0.18772	0.333	0.16553	0.035468	0.11708	0.35319	0.36582	0.19266	0.20613	0.080428	0.38836	0.30817	0.28071	0.25447	0.36157	-1.8292	-2.5833	-2.0896	-2.7521	-2.3208	-2.4083	-2.9229	-2.175	-2.5771	-2.7188	-2.4271	-2.6729	-2.3271	-2.2687	-2.7062	-2.3875	204.318	20.352	192.120	173.636	0.833	41.086	166.747	77.847	16.957	41.609	34.054	207.443	192.869	72.304	1.964	193.996	0.00051882	0.00024474	0.00019301	1061.2	7.867e-06	3.0852e-06	1161.3	227.84	4.823e-06	3.8235e-06	289.97	81.377	63.256	18.824	3.096e-06	25.902	0.00030011	0.00029316	8.412e-05	1049	3.2372e-06	3.3076e-06	1149.3	227.18	3.1778e-06	3.2612e-06	288.84	81.726	63.737	19.053	3.0854e-06	26.523	6.776	-89.103	-53.877	-134.370	-5.276	55.954	-134.509	-127.413	-14.323	8.478	-127.552	-120.718	-120.425	-112.812	-22.920	-113.880	-8191	255	
28458.066	1	1	0	0	0.22925	0.16762	0.12486	0.24357	0.40482	0.065743	0.119	0.37981	0.24541	0.25414	0.26608	0.17567	0.057828	0.091742	0.233	0.3038	-1.9354	-2.5812	-2.3333	-2.5708	-2.3042	-2.3833	-2.7979	-2.3625	-2.5125	-2.7229	-2.4125	-2.6958	-2.7146	-2.2458	-2.675	-2.3729	-2.710	-5.153	-94.606	211.850	49.363	211.114	21.587	96.488	107.056	132.044	127.208	200.454	-28.388	92.094	130.626	71.202	0.00044997	9.1788e-05	0.00010154	1065.4	5.6992e-06	4.091e-06	1159.5	227.36	4.1812e-06	5.1184e-06	289.2	81.224	64.095	18.711	3.9795e-06	25.92	0.00030954	0.00029026	8.3056e-05	1049.2	3.3375e-06	3.2388e-06	1149.2	226.94	3.3112e-06	3.236e-06	289.04	81.407	63.963	19.017	3.199e-06	26.48	8.549	65.489	-19.764	-134.652	-44.608	36.912	-134.463	-127.317	24.342	14.898	-126.986	-120.454	-120.621	-112.927	14.820	-113.471	-8191	255	
28458.186	1	1	0	0	0.11446	0.046363	0.22002	0.13266	0.044283	0.17966	0.18001	0.15764	0.19755	0.24333	0.27416	0.11918	0.080948	0.19422	0.05633	0.27485	-1.825	-2.7167	-2.4062	-2.7229	-2.5604	-2.15	-2.7333	-2.4833	-2.3833	-2.6979	-2.3812	-2.4313	-2.6396	-2.2938	-2.6729	-2.4979	-27.289	81.363	-106.174	-131.869	50.233	-87.075	99.571	-116.692	-64.844	101.047	-27.144	10.047	165.162	-111.743	77.563	-81.561	0.00051335	0.00016648	0.000147	1057.3	3.6462e-06	2.2425e-06	1158.9	228.63	6.7065e-06	3.4413e-06	288.32	80.489	63.587	18.805	2.3622e-06	26.022	0.00031004	0.0002927	8.2513e-05	1046.3	3.3378e-06	3.3151e-06	1148.9	226.96	3.3954e-06	3.2598e-06	288.98	81.308	63.761	19.035	3.1822e-06	26.513	12.000	22.690	-9.306	-134.498	-24.177	14.210	-134.643	-127.125	-24.310	-10.158	-127.593	-120.503	-120.312	-112.899	-3.668	-113.620	-8191	255	
28458.283	1	1	0	0	0.09123	0.21446	0.12477	0.18835	0.068449	0.19092	0.085755	0.16912	0.30405	0.1936	0.062165	0.1312	0.18689	0.1707	0.063213	0.1979	-1.9917	-2.7208	-2.225	-2.3438	-2.6271	-2.2979	-2.8979	-2.4458	-2.2792	-2.9	-2.4208	-2.4125	-2.7792	-2.3375	-2.7125	-2.4875	-28.801	-62.031	113.726	130.487	-135.926	-6.935	190.410	94.027	22.516	24.267	149.168	75.826	143.863	-118.138	-35.568	172.428	0.0004927	0.00015372	0.00010348	1060.4	5.1075e-06	3.2589e-06	1162.5	226.87	7.258e-06	2.7003e-06	292.68	81.213	63.783	18.621	3.209e-06	25.845	0.00030285	0.00029444	8.1293e-05	1046	3.3023e-06	3.2791e-06	1148	226.91	3.2174e-06	3.1818e-06	290.05	81.429	63.859	19.008	3.2063e-06	26.488	15.674	-59.112	-72.075	-134.496	-32.815	15.847	-134.648	-126.890	-5.414	-19.314	-127.465	-120.270	-120.304	-112.940	13.437	-113.786	-8191	255	
28458.379	1	1	0	0	0.13291	0.24519	0.14946	0.2423	0.25235	0.15558	0.12126	0.26834	0.11684	0.049544	0.085668	0.05661	0.035723	0.038099	0.18354	0.096001	-1.9625	-2.7229	-2.4604	-2.6146	-2.8187	-2.4437	-2.8187	-2.5083	-2.3875	-2.65	-2.6042	-2.3333	-2.6125	-2.3125	-2.6729	-2.5042	-32.709	158.490	112.428	142.746	-131.200	201.881	182.976	-10.535	120.999	119.555	11.091	195.286	39.492	129.186	212.948	-25.902	0.0004382	0.00027507	0.00011056	1057.9	7.8528e-06	1.485e-06	1157.8	226.99	7.0137e-06	4.363e-06	288.74	80.143	63.163	18.822	3.5048e-06	26.061	0.00030713	0.00028537	8.1659e-05	1045.8	3.241e-06	3.1855e-06	1146	226.63	3.3326e-06	3.2035e-06	288.79	81.243	63.582	19.053	3.2674e-06	26.484	19.955	-69.420	-58.042	-134.625	-0.499	24.016	-134.596	-127.236	38.335	58.599	-127.338	-121.224	-120.321	-113.235	16.049	-113.768	-8191	255	
28458.475	1	1	0	0	0.30903	0.086034	0.010126	0.071975	0.2949	0.051274	0.21103	0.21248	0.056086	0.19639	0.25435	0.11581	0.35909	0.10256	0.1975	0.14833	-1.7521	-2.5604	-2.3333	-2.5333	-2.8771	-2.4708	-2.7021	-2.675	-2.3563	-2.5	-2.5125	-2.3063	-2.7104	-2.4	-2.4979	-2.5979	66.488	150.345	82.189	-66.375	132.141	147.400	201.374	200.555	124.000	8.068	118.502	207.479	-72.803	196.245	-83.128	-24.038	0.0004843	0.00020098	0.00013691	1056.8	2.5965e-06	2.4666e-06	1158.4	227.21	3.6668e-06	4.4403e-06	288.89	81.026	63.133	18.825	8.7999e-07	25.967	0.00030847	0.00028421	8.115e-05	1044.4	3.3135e-06	3.2417e-06	1146.1	226.72	3.2992e-06	3.1161e-06	288.36	81.414	63.654	19.031	3.1084e-06	26.454	15.107	-82.941	-30.217	-134.396	-59.446	-64.601	-134.560	-127.136	14.717	11.516	-127.185	-120.962	-120.596	-112.543	80.303	-113.979	-8191	255	
28458.570	1	1	0	0	0.2322	0.29022	0.14476	0.072216	0.12329	0.30209	0.30091	0.095065	0.17587	0.11691	0.14234	0.18724	0.17597	0.19669	0.24348	0.13592	-1.7333	-2.6188	-2.3667	-2.4375	-2.7062	-2.2729	-2.5708	-2.7729	-2.3104	-2.5542	-2.4646	-2.4188	-2.4854	-2.2875	-2.2667	-2.7	-129.761	64.529	-74.442	178.514	119.928	-54.261	111.987	-123.227	29.297	84.077	144.631	185.514	201.744	65.964	207.304	185.524	0.00046532	0.0001561	0.00011183	1060.1	1.1867e-06	3.223e-06	1160.3	228.34	5.2732e-06	3.2737e-06	290.33	80.93	64.055	18.786	4.0334e-06	25.967	0.00030492	0.00029872	8.4357e-05	1045.7	3.3497e-06	3.1086e-06	1146.8	226.96	3.2838e-06	3.1137e-06	288.39	81.221	63.728	19.017	3.1139e-06	26.477	13.208	-58.753	-66.817	-134.413	-50.212	27.597	-134.490	-127.290	-36.151	-34.214	-127.316	-120.462	-120.348	-112.672	-2.700	-113.845	-8191	255	
28458.668	1	1	0	0	0.19741	0.1258	0.1031	0.25463	0.16948	0.11048	0.19565	0.10756	0.041035	0.31436	0.13459	0.038855	0.25253	0.17919	0.1624	0.087649	-1.675	-2.4208	-2.5687	-2.2479	-2.5458	-2.3271	-2.3833	-2.8271	-2.1792	-2.4313	-2.5812	-2.3	-2.7896	-2.3396	-2.3542	-2.6437	148.636	109.151	-23.346	207.642	-94.672	149.769	157.183	-15.547	-122.557	194.154	199.338	-1.379	65.258	107.198	112.800	-122.576	0.00051599	0.00023635	9.4675e-05	1058.4	9.0722e-06	3.9273e-06	1157.3	227.14	4.1031e-06	3.0658e-06	290.2	80.916	63.73	18.701	2.1788e-06	26.052	0.00030751	0.00027582	7.934e-05	1044.6	3.1899e-06	3.231e-06	1145.4	226.51	3.1653e-06	3.1604e-06	288.74	81.286	63.478	18.967	3.1822e-06	26.495	5.589	-19.341	-34.346	-134.469	-40.550	9.542	-134.733	-126.962	-2.922	-30.083	-127.206	-120.908	-120.049	-112.930	-39.587	-113.731	-8191	255	
28458.764	1	1	0	0	0.27663	0.2931	0.07479	0.31088	0.27872	0.098758	0.068882	0.16013	0.15914	0.30448	0.29347	0.12471	0.25902	0.27066	0.047226	0.085942	-1.8396	-2.3896	-2.9208	-2.3875	-2.6063	-2.5833	-2.2375	-2.7833	-2.4104	-2.4083	-2.7188	-2.1813	-2.4542	-2.6583	-2.4021	-2.5708	142.727	-90.614	11.256	159.585	199.342	95.893	95.811	186.141	98.654	-117.466	107.452	17.361	16.523	96.684	134.637	-14.941	0.00047817	0.0003816	5.4534e-05	1052.3	5.3574e-06	4.2985e-06	1156.1	228.14	1.7189e-06	1.8665e-06	289.89	80.492	63.542	18.783	2.5554e-06	26.094	0.00030994	0.00029422	8.0303e-05	1043.3	3.2139e-06	3.2557e-06	1144.8	226.57	3.1441e-06	3.1864e-06	288.26	81.128	63.62	18.994	3.1952e-06	26.532	13.360	-41.802	-76.822	-134.206	29.991	-24.759	-134.603	-127.113	-69.003	-27.242	-127.241	-121.046	-120.355	-112.795	-77.025	-113.577	-8191	255	
28458.885	1	1	0	0	0.094427	0.15872	0.085265	0.42604	0.17844	0.16371	0.29793	0.23546	0.14217	0.33211	0.26863	0.061532	0.14435	0.046606	0.13934	0.049098	-1.8229	-2.2208	-2.6208	-2.4417	-2.6312	-2.6708	-2.5604	-2.7167	-2.4188	-2.3417	-2.7542	-2.4104	-2.5417	-2.7938	-2.3979	-2.4917	57.360	-82.322	-132.131	191.774	24.435	-69.626	-125.649	94.014	53.932	143.194	75.655	208.544	-64.468	149.771	-98.604	138.091	0.00041006	0.00053406	7.9634e-05	1060.8	6.4871e-06	2.0791e-06	1151.7	228.26	9.0048e-06	3.7666e-06	290.31	80.797	63.527	18.807	3.2721e-06	26.038	0.00029955	0.00029101	7.8649e-05	1045.3	3.2661e-06	3.083e-06	1143.5	226.75	3.1732e-06	3.1019e-06	288.3	81.303	63.567	19.023	3.1436e-06	26.491	17.064	-83.331	-0.915	-134.460	17.345	-25.011	-134.648	-127.343	-8.223	-24.580	-127.587	-120.515	-120.793	-112.956	-66.162	-113.647	-8191	255	
28458.979	1	1	0	0	0.15853	0.061498	0.16682	0.31908	0.052995	0.062122	0.33245	0.23161	0.14486	0.17809	0.13515	0.2501	0.18162	0.19555	0.4482	0.12956	-1.8979	-2.4542	-2.75	-2.4875	-2.3083	-2.3917	-2.3667	-2.6312	-2.5125	-2.425	-2.8583	-2.1417	-2.4083	-2.6083	-2.3896	-2.5625	16.762	109.111	2.385	159.259	-81.202	97.568	197.433	90.772	-34.084	-132.058	15.158	170.225	-136.130	-114.197	157.856	-64.352	0.00057086	0.00014958	0.00012895	1056.1	8.4738e-06	2.3465e-06	1158.9	227.44	3.5217e-06	3.0805e-06	288.48	80.769	63.155	18.597	2.4967e-06	25.866	0.00030166	0.00029955	7.9272e-05	1043.1	3.395e-06	3.1715e-06	1145.1	226.58	3.1183e-06	3.1743e-06	287.79	81.046	63.613	18.945	3.169e-06	26.397	13.748	-33.932	-57.018	-134.379	-38.141	-18.819	-134.632	-127.188	10.467	-8.852	-127.330	-120.949	-120.318	-112.972	13.487	-113.277	-8191	255	
28459.074	1	1	0	0	0.25385	0.25483	0.10903	0.21595	0.27537	0.45229	0.089681	0.028575	0.056119	0.33857	0.076596	0.18073	0.22771	0.031636	0.14836	0.088223	-2.1813	-2.1125	-2.7479	-2.5687	-2.5	-2.6937	-2.4792	-2.575	-2.5771	-2.4917	-2.7708	-2.2833	-2.3208	-2.7229	-2.1854	-2.3521	112.270	66.157	-133.190	153.425	-127.707	187.649	-78.563	-38.510	0.141	19.816	24.973	-76.757	-88.865	-133.611	123.428	-27.093	0.00048584	0.00025905	9.3399e-05	1054.1	1.808e-06	3.7263e-06	1156.1	227.88	1.8126e-06	4.7063e-06	288.42	81.015	63.438	18.718	1.3704e-06	26.023	0.00030548	0.00029546	7.8791e-05	1042.8	3.2795e-06	3.1634e-06	1142.4	226.43	3.2006e-06	3.2765e-06	287.86	81.158	63.511	18.981	3.061e-06	26.5	13.071	-39.780	-106.710	-134.370	-108.342	16.771	-134.586	-127.243	-49.628	14.676	-127.252	-120.515	-120.800	-112.663	-43.128	-113.527	-8191	255	
28459.148	1	1	0	0	0.040859	0.083147	0.14378	0.11828	0.05674	0.18373	0.34341	0.16647	0.21553	0.21221	0.11045	0.19752	0.16543	0.19167	0.077562	0.14002	-2.0271	-2.2833	-2.6958	-2.6271	-2.2729	-2.675	-2.4396	-2.5458	-2.6562	-2.2062	-2.6875	-2.5625	-2.2938	-2.7854	-2.3125	-2.5292	22.926	16.201	197.245	-96.640	113.550	-141.268	170.135	104.893	117.881	-52.097	179.193	-70.038	8.449	-24.948	138.987	-84.064	0.00048475	0.0001318	7.2784e-05	1054	6.7955e-06	3.5081e-06	1155	227.01	6.3377e-06	4.0598e-06	286.33	80.771	63.692	18.753	4.8088e-06	25.993	0.00030073	0.00029369	8.111e-05	1043.4	3.2965e-06	3.2708e-06	1142.8	226.12	3.3308e-06	3.159e-06	287.09	81.135	63.627	18.958	3.1069e-06	26.482	3.303	-110.967	14.374	-134.324	-54.326	5.713	-134.604	-127.340	-28.110	28.528	-127.441	-120.663	-120.488	-112.600	41.274	-113.584	-8191	255	
28459.268	1	1	0	0	0.11106	0.16647	0.16359	0.42588	0.17525	0.12984	0.21609	0.267	0.20307	0.22217	0.30492	0.14958	0.044584	0.064368	0.092686	0.29264	-2.2854	-2.0604	-2.6188	-2.5042	-2.4313	-2.6188	-2.4667	-2.4479	-2.6708	-2.3625	-2.7812	-2.5854	-2.3917	-2.7875	-2.4875	-2.375	118.402	193.508	-86.313	170.376	126.252	138.755	109.231	180.693	172.287	207.306	-133.264	-116.052	-122.234	-135.373	33.653	28.817	0.00043731	0.00019299	4.8348e-05	1055.6	6.1153e-06	8.5291e-07	1151.7	227.16	4.0158e-06	2.343e-06	289.02	80.409	63.666	18.896	4.4815e-06	25.868	0.0003058	0.00029432	7.7747e-05	1041.8	3.3365e-06	3.1121e-06	1142.4	226.19	3.2527e-06	3.1311e-06	288.17	81.235	63.644	18.971	3.1643e-06	26.448	12.727	-26.102	-64.505	-134.579	2.289	-0.319	-134.556	-126.977	-13.434	-21.507	-127.298	-120.954	-120.136	-113.211	-13.517	-113.119	-8191	255	
28459.363	1	1	0	0	0.22588	0.095099	0.31416	0.21033	0.18286	0.073006	0.12088	0.059668	0.22589	0.082508	0.18934	0.16325	0.092106	0.19138	0.08454	0.1729	-2.3521	-2.3896	-2.4313	-2.4917	-2.2146	-2.5604	-2.6063	-2.3417	-2.7708	-2.2667	-2.575	-2.6188	-2.2667	-2.7708	-2.4562	-2.5042	-104.505	142.087	-20.858	122.669	212.847	39.700	107.124	38.361	-135.373	-30.513	38.291	96.256	-136.829	152.184	-122.105	196.091	0.00049502	0.00015378	0.00011372	1052.9	4.0999e-06	3.5738e-06	1155.6	227.11	6.0937e-06	4.8865e-06	288.43	80.582	63.904	18.652	2.527e-06	26.117	0.00029979	0.00029393	7.9374e-05	1041.7	3.333e-06	3.1314e-06	1144.1	226.39	3.136e-06	3.1521e-06	288.24	81.269	63.674	18.934	3.1113e-06	26.502	12.213	-42.098	-80.891	-134.439	5.267	36.233	-134.621	-126.986	2.943	-8.001	-127.342	-120.582	-120.562	-112.682	-25.513	-113.563	-8191	255	
28459.459	1	1	0	0	0.14562	0.31719	0.2224	0.301	0.24683	0.26921	0.095364	0.13263	0.18797	0.1947	0.17081	0.036215	0.20035	0.12094	0.12567	0.12192	-2.3229	-2.3083	-2.6125	-2.8	-2.2417	-2.7104	-2.5729	-2.3021	-2.5729	-2.4833	-2.4229	-2.6625	-2.3604	-2.7354	-2.6167	-2.4854	97.209	204.839	91.874	212.368	143.832	-2.210	-126.962	-138.757	5.461	88.033	-15.270	157.118	96.216	-106.091	-83.944	40.576	0.00054838	0.00012597	4.308e-05	1057.5	6.8976e-06	1.1941e-06	1151.3	226.62	3.4967e-06	5.9302e-06	289.74	80.38	63.435	18.697	2.8698e-06	25.841	0.0002972	0.00028506	7.6567e-05	1041.8	3.2385e-06	3.1223e-06	1141.8	226.25	3.184e-06	3.0585e-06	287.97	80.991	63.394	18.96	3.1488e-06	26.361	8.381	-62.371	-72.467	-134.584	-30.084	98.280	-134.756	-126.968	-16.433	41.560	-127.691	-121.130	-120.435	-113.083	83.379	-113.590	-8191	255	
28459.555	1	1	0	0	0.11275	0.22017	0.12855	0.35764	0.067573	0.063942	0.1451	0.36107	0.19812	0.1155	0.38775	0.24212	0.12766	0.15129	0.12966	0.30614	-2.1417	-2.3021	-2.3708	-2.6375	-2.4458	-2.8583	-2.6729	-2.3458	-2.6729	-2.3563	-2.5208	-2.5563	-2.1583	-2.5875	-2.5187	-2.3438	-124.851	92.217	36.180	168.927	-61.518	-91.215	60.619	189.433	172.613	-15.053	144.439	7.642	130.074	194.954	88.018	61.683	0.00046581	0.00030485	9.3557e-05	1054.1	1.1829e-06	1.9068e-06	1154.8	226.74	7.9748e-06	4.1692e-06	290.84	80.664	63.42	18.761	3.037e-06	26.107	0.00029165	0.00027773	8.2174e-05	1040.7	3.2722e-06	3.1137e-06	1143.5	226.39	3.1508e-06	3.1563e-06	288.37	81.221	63.283	19.01	3.2047e-06	26.436	15.305	-61.675	-65.125	-134.581	170.804	14.414	-134.723	-127.295	-12.524	6.507	-127.641	-120.677	-120.205	-113.229	3.858	-113.697	-8191	255	
28459.676	1	1	0	0	0.055078	0.20349	0.17381	0.20042	0.092509	0.19624	0.17272	0.14917	0.095837	0.062769	0.012435	0.13906	0.22978	0.079618	0.15899	0.16271	-2.2917	-2.4604	-2.225	-2.7208	-2.2229	-2.5729	-2.6729	-2.3083	-2.4792	-2.45	-2.4021	-2.7375	-2.1208	-2.5146	-2.4583	-2.1562	-58.516	-99.160	97.817	157.000	153.352	207.739	143.213	58.648	35.181	28.986	163.363	-3.249	-13.531	151.134	115.339	41.023	0.00044865	0.00030048	9.1616e-05	1053	2.9411e-06	3.8471e-06	1150.3	228.07	6.6463e-06	3.246e-06	289.51	80.66	63.415	18.766	2.4933e-06	26.027	0.00029698	0.00027995	8.1408e-05	1041.3	3.1752e-06	3.033e-06	1142.5	226.74	3.0629e-06	3.1537e-06	288.24	81.237	63.422	18.96	3.0232e-06	26.428	16.357	-42.714	-35.969	-134.480	0.841	46.891	-134.445	-127.189	-19.201	23.067	-127.264	-120.784	-120.592	-112.849	50.587	-113.425	-8191	255	
28459.746	1	1	0	0	0.23013	0.14341	0.14318	0.21057	0.2576	0.037762	0.37859	0.23101	0.077452	0.43215	0.27849	0.024568	0.15969	0.14298	0.058968	0.29681	-2.1271	-2.2083	-2.3396	-2.7667	-2.1229	-2.4562	-2.8979	-2.3667	-2.4625	-2.4688	-2.3146	-2.5583	-2.2812	-2.4104	-2.6125	-2.2938	-1.264	91.492	-136.088	195.281	-127.207	181.374	207.222	156.274	-26.517	211.855	113.399	107.823	172.267	-6.685	-14.074	205.643	0.0004839	0.00035976	9.9146e-05	1054.9	2.483e-06	2.9379e-06	1156	226.86	7.0511e-06	6.1131e-06	286.06	80.643	62.879	18.559	3.4936e-06	25.968	0.00029565	0.00027567	7.9462e-05	1040.7	3.1324e-06	3.0935e-06	1141.7	225.67	3.209e-06	3.0258e-06	286.8	81.054	63.318	18.946	3.1032e-06	26.457	9.858	-54.581	-22.869	-134.369	-57.017	-37.978	-134.761	-127.008	-18.557	47.001	-127.176	-121.126	-120.477	-113.000	49.886	-113.408	-8191	255	
28459.867	1	1	0	0	0.30245	0.14143	0.22017	0.21535	0.17961	0.13958	0.34817	0.17679	0.091932	0.18172	0.15545	0.19644	0.16704	0.089655	0.14077	0.34072	-2.0375	-2.3771	-2.0229	-2.65	-2.3208	-2.225	-2.8	-2.1625	-2.5271	-2.5896	-2.4646	-2.6833	-2.4208	-2.4188	-2.6521	-2.3563	-114.323	-21.455	-118.598	148.516	-92.761	-135.799	160.396	-76.048	173.472	-15.422	127.789	62.564	3.008	36.574	-79.790	108.069	0.00044168	0.0003792	0.00016392	1049.8	2.9321e-06	2.8927e-06	1149.5	226.4	9.0521e-06	3.3309e-06	291.52	80.351	62.763	18.814	2.2952e-06	25.904	0.00029931	0.0002898	7.6547e-05	1039	3.1726e-06	3.1193e-06	1140.4	225.8	3.0874e-06	2.9885e-06	288.5	80.943	63.338	19.025	3.0116e-06	26.426	7.979	-56.658	-51.218	-134.455	-63.679	2.811	-134.757	-127.081	2.429	60.026	-127.369	-121.086	-120.009	-112.535	9.332	-113.708	-8191	255	
28459.965	1	1	0	0	0.30721	0.17448	0.23079	0.085845	0.068782	0.017351	0.11452	0.1841	0.2342	0.16779	0.054431	0.10887	0.12775	0.23447	0.18059	0.13907	-2.1896	-2.4667	-2.3083	-2.5542	-2.4271	-2.3042	-2.8333	-2.4313	-2.5187	-2.725	-2.4146	-2.625	-2.4896	-2.3958	-2.5563	-2.2417	127.867	212.448	-42.702	-94.604	38.460	20.917	207.345	155.940	122.251	168.842	142.941	-102.692	-109.417	-120.948	159.791	-98.186	0.00047206	0.00017326	6.6916e-05	1050.8	6.3289e-06	2.42e-06	1150.5	226.35	8.6937e-06	3.3415e-06	288.18	80.017	63.064	18.606	3.0716e-06	26.051	0.00029611	0.00027891	7.7143e-05	1038.8	3.1744e-06	3.0416e-06	1138.8	225.72	3.091e-06	2.9839e-06	287.69	80.896	63.304	18.876	2.9657e-06	26.419	14.732	-46.684	-43.167	-134.489	-28.072	-15.109	-134.639	-127.065	-17.261	-0.028	-127.458	-120.817	-120.218	-113.035	1.877	-113.705	-8191	255	
28460.059	1	1	0	0	0.069386	0.22565	0.1606	0.14384	0.29072	0.11323	0.17537	0.17665	0.15687	0.12925	0.2923	0.27664	0.16049	0.14124	0.11414	0.20992	-1.8646	-2.3312	-2.1021	-2.7417	-2.4833	-2.4229	-2.7229	-2.3937	-2.4083	-2.7792	-2.2521	-2.5	-2.5646	-2.1208	-2.5438	-2.4396	3.768	-52.012	-101.560	-113.462	-134.066	-52.371	167.462	83.958	32.035	-80.905	185.671	196.072	106.217	171.683	189.269	36.406	0.00055265	0.00037848	0.0001313	1049.1	5.5909e-06	2.5413e-06	1154.8	227.54	8.8755e-06	2.3649e-06	288.41	80.407	62.984	18.654	6.2273e-06	25.907	0.00029143	0.0002717	7.8974e-05	1036.9	3.0759e-06	3.0655e-06	1139.7	225.6	3.162e-06	2.9539e-06	287.09	80.933	63.462	18.974	2.9611e-06	26.366	8.396	-76.074	-53.228	-134.381	9.311	-24.007	-134.685	-127.070	-3.527	-16.968	-127.311	-120.837	-120.649	-113.167	20.079	-113.477	-8191	255	
28460.156	1	1	0	0	0.33178	0.1642	0.11517	0.18621	0.058688	0.06099	0.083295	0.20689	0.3913	0.1094	0.17576	0.18271	0.28104	0.099891	0.26909	0.11251	-2.0271	-2.5229	-2.3146	-2.5146	-2.5896	-2.4062	-2.7667	-2.4729	-2.2313	-2.6375	-2.2333	-2.5	-2.5521	-2.2354	-2.5792	-2.4813	116.650	-8.874	172.594	152.468	-125.414	133.738	-109.389	-108.767	198.580	-135.649	149.437	-114.650	-103.256	104.734	38.696	174.352	0.00052963	0.00032957	0.00012353	1051.4	4.2954e-06	2.0582e-06	1145.1	227.7	2.7722e-06	1.7641e-06	287.52	80.602	63.453	18.711	2.4028e-06	25.876	0.00029597	0.0002756	7.8215e-05	1038.6	3.1217e-06	3.0435e-06	1137.8	225.94	3.1477e-06	3.0102e-06	286.9	81.02	63.378	18.916	2.9901e-06	26.399	13.776	-47.928	-33.592	-134.359	-5.826	57.014	-134.736	-127.440	-29.820	-20.205	-127.490	-121.036	-120.380	-112.744	-46.278	-113.494	-8191	255	
28460.275	1	1	0	0	0.07657	0.055939	0.17036	0.24523	0.14285	0.13778	0.11042	0.23222	0.043655	0.19146	0.1379	0.1818	0.23111	0.19567	0.26897	0.1373	-1.7729	-2.525	-2.1625	-2.5	-2.7146	-2.1604	-2.7667	-2.4729	-2.2167	-2.7354	-2.4292	-2.5375	-2.5104	-2.2625	-2.6208	-2.5521	199.012	205.356	142.047	168.382	112.947	-87.527	207.259	-79.180	201.155	-132.448	139.019	44.380	17.285	152.024	-94.991	144.814	0.00045682	0.00039654	8.2559e-05	1051.3	3.8195e-06	3.1752e-06	1149.7	226.66	7.4602e-06	5.1787e-06	288.33	80.6	62.965	18.735	2.1274e-06	26.01	0.00029989	0.00027993	7.513e-05	1038.5	3.0901e-06	3.1161e-06	1138.1	225.85	3.0969e-06	2.8847e-06	287.05	80.819	63.249	18.954	3.0033e-06	26.456	13.230	-45.296	-74.118	-134.624	23.949	-4.789	-134.669	-127.165	-3.176	-0.905	-127.536	-121.056	-120.566	-112.822	-30.432	-113.371	-8191	255	
28460.371	1	1	0	0	0.24619	0.35821	0.13128	0.05756	0.20179	0.045411	0.13765	0.14431	0.21349	0.1724	0.13366	0.22896	0.071874	0.029978	0.26991	0.18942	-1.8167	-2.5208	-2.3125	-2.5896	-2.5187	-2.2292	-2.6104	-2.3958	-2.1979	-2.6208	-2.4896	-2.2396	-2.4146	-2.3	-2.5604	-2.5146	214.260	-4.434	71.169	107.783	74.520	129.167	209.616	13.501	-106.023	94.970	-110.109	137.020	143.091	-128.797	101.926	75.021	0.00048965	0.00013219	0.00013411	1051.5	5.1143e-06	3.0841e-06	1154.1	226.63	3.5174e-06	1.4134e-06	285.88	80.855	62.84	18.692	4.4681e-06	25.797	0.00030039	0.00026735	7.5706e-05	1036.9	3.0908e-06	3.0333e-06	1138.3	225.51	3.0931e-06	2.989e-06	285.89	80.712	63.332	18.94	2.9033e-06	26.315	6.892	-68.016	-78.565	-134.371	-69.501	-7.245	-134.614	-127.407	34.060	-112.512	-127.342	-120.607	-121.037	-112.976	30.006	-113.419	-8191	255	
28460.443	1	1	0	0	0.2788	0.14011	0.10195	0.29146	0.23951	0.36595	0.33366	0.16462	0.24696	0.16775	0.05742	0.25564	0.23347	0.14233	0.17209	0.23306	-1.8229	-2.6688	-2.4313	-2.4979	-2.6125	-2.1896	-2.675	-2.5958	-2.2771	-2.6479	-2.4646	-2.5146	-2.7083	-2.3937	-2.3917	-2.7125	109.244	-60.491	48.897	188.772	-123.801	3.420	153.046	108.806	60.465	-54.819	-120.234	157.705	-49.475	50.241	122.023	-83.214	0.00052106	0.00018785	0.00011342	1051.3	4.9558e-06	4.0398e-06	1147.3	225.88	4.2053e-06	2.5422e-06	286.88	80.512	63.041	18.572	4.0445e-06	25.773	0.00029438	0.0002637	7.496e-05	1038.5	3.1471e-06	2.9585e-06	1139.3	225.04	2.9212e-06	2.8783e-06	286.12	81.122	63.259	18.945	2.9518e-06	26.343	16.737	-17.923	-31.114	-134.744	19.918	23.626	-134.382	-127.092	25.693	8.838	-127.480	-120.720	-120.342	-112.697	19.602	-113.393	-8191	255	
28460.564	1	1	0	0	0.18344	0.056008	0.2098	0.37261	0.32019	0.038165	0.20012	0.1392	0.13354	0.12839	0.14988	0.16433	0.16922	0.1392	0.013473	0.039629	-1.7583	-2.5771	-2.5583	-2.3937	-2.7604	-2.3854	-2.3271	-2.675	-2.1104	-2.5354	-2.7021	-2.35	-2.55	-2.4583	-2.4604	-2.625	-29.424	-97.699	181.858	185.747	197.449	191.323	82.188	72.317	-19.093	205.883	91.898	101.022	38.548	100.841	-102.240	43.020	0.00048232	0.00056043	8.1779e-05	1048.9	4.6594e-06	2.0168e-06	1149.8	226.69	5.1813e-06	3.091e-06	287.14	80.629	62.7	18.672	4.1729e-06	25.747	0.0002975	0.00027144	7.7225e-05	1037.2	3.0445e-06	3.0661e-06	1136.9	225	3.0565e-06	2.8802e-06	286.65	80.846	63.205	18.926	3.0468e-06	26.343	12.677	-85.233	-0.312	-134.424	-15.298	-10.244	-134.591	-127.285	22.702	40.062	-127.429	-120.855	-120.550	-113.007	9.745	-113.802	-8191	255	
#DATA ENDS
