BOXY.EXE: ISS Imagent and Oximeter Data Acquisition Program Version 0.80
Ascii Record File

#ACQ INFORMATION
2  Detector Channels 
16  External MUX Channels 
1  Auxiliary Channels 
5000  Waveform (CCF) Frequency (Hz)
1  Waveforms Skipped 
30  Waveforms Averaged 
1  Cycles Averaged 
16  Acquisitions per Waveform 
10.0806  Updata Rate (Hz) 

#FILE INFORMATION
TRUE -- External MUX Channel results are PARSED.
FALSE -- AC DC and Phase are NOT grouped.
TRUE -- Companion Program Settings File CREATED.
FALSE -- AC data not excluded
FALSE -- DC data not excluded
FALSE -- Phase data not excluded
FALSE -- Auxillary Chn. data not excluded
Tab delimiters

#CALIBRATION STATE
TRUE -- Waveform Calibration Values APPLIED.


#AUX CALIBRATION VALUES
Val Type	aux-1	

Term	1.0000e+00	
Factor	0.0000e+00	


#WF CALIBRATION VALUES
A = Detector Channel
Val Type	A-AC1	A-AC2	A-AC3	A-AC4	A-AC5	A-AC6	A-AC7	A-AC8	A-AC9	A-AC10	A-AC11	A-AC12	A-AC13	A-AC14	A-AC15	A-AC16	A-DC1	A-DC2	A-DC3	A-DC4	A-DC5	A-DC6	A-DC7	A-DC8	A-DC9	A-DC10	A-DC11	A-DC12	A-DC13	A-DC14	A-DC15	A-DC16	A-Ph1	A-Ph2	A-Ph3	A-Ph4	A-Ph5	A-Ph6	A-Ph7	A-Ph8	A-Ph9	A-Ph10	A-Ph11	A-Ph12	A-Ph13	A-Ph14	A-Ph15	A-Ph16	

Term	0.00000e+00	0.00000e+00	0.00000e+00	0.00000e+00	0.00000e+00	0.00000e+00	0.00000e+00	0.00000e+00	0.00000e+00	0.00000e+00	0.00000e+00	0.00000e+00	0.00000e+00	0.00000e+00	0.00000e+00	0.00000e+00	0.00000e+00	0.00000e+00	0.00000e+00	0.00000e+00	0.00000e+00	0.00000e+00	0.00000e+00	0.00000e+00	0.00000e+00	0.00000e+00	0.00000e+00	0.00000e+00	0.00000e+00	0.00000e+00	0.00000e+00	0.00000e+00	0.00000e+00	0.00000e+00	0.00000e+00	0.00000e+00	0.00000e+00	0.00000e+00	0.00000e+00	0.00000e+00	0.00000e+00	0.00000e+00	0.00000e+00	0.00000e+00	0.00000e+00	0.00000e+00	0.00000e+00	0.00000e+00	
Factor	1.00000e+00	1.00000e+00	1.00000e+00	1.00000e+00	1.00000e+00	1.00000e+00	1.00000e+00	1.00000e+00	1.00000e+00	1.00000e+00	1.00000e+00	1.00000e+00	1.00000e+00	1.00000e+00	1.00000e+00	1.00000e+00	1.00000e+00	1.00000e+00	1.00000e+00	1.00000e+00	1.00000e+00	1.00000e+00	1.00000e+00	1.00000e+00	1.00000e+00	1.00000e+00	1.00000e+00	1.00000e+00	1.00000e+00	1.00000e+00	1.00000e+00	1.00000e+00	X	X	X	X	X	X	X	X	X	X	X	X	X	X	X	X	

B = Detector Channel
Val Type	B-AC1	B-AC2	B-AC3	B-AC4	B-AC5	B-AC6	B-AC7	B-AC8	B-AC9	B-AC10	B-AC11	B-AC12	B-AC13	B-AC14	B-AC15	B-AC16	B-DC1	B-DC2	B-DC3	B-DC4	B-DC5	B-DC6	B-DC7	B-DC8	B-DC9	B-DC10	B-DC11	B-DC12	B-DC13	B-DC14	B-DC15	B-DC16	B-Ph1	B-Ph2	B-Ph3	B-Ph4	B-Ph5	B-Ph6	B-Ph7	B-Ph8	B-Ph9	B-Ph10	B-Ph11	B-Ph12	B-Ph13	B-Ph14	B-Ph15	B-Ph16	

Term	0.00000e+00	0.00000e+00	0.00000e+00	0.00000e+00	0.00000e+00	0.00000e+00	0.00000e+00	0.00000e+00	0.00000e+00	0.00000e+00	0.00000e+00	0.00000e+00	0.00000e+00	0.00000e+00	0.00000e+00	0.00000e+00	0.00000e+00	0.00000e+00	0.00000e+00	0.00000e+00	0.00000e+00	0.00000e+00	0.00000e+00	0.00000e+00	0.00000e+00	0.00000e+00	0.00000e+00	0.00000e+00	0.00000e+00	0.00000e+00	0.00000e+00	0.00000e+00	-1.95322e+02	-1.31664e+02	-1.35514e+02	-1.83507e+02	-9.14092e+01	-5.93382e+01	-1.57852e+02	-1.62015e+02	-9.36674e+01	-6.54123e+01	-1.76234e+02	-1.71211e+02	-1.81698e+02	-1.78091e+02	-8.68548e+01	-1.51000e+02	
Factor	4.07472e-05	1.94038e-04	5.01386e-05	4.44362e-01	1.74494e-06	1.67566e-06	1.66286e-01	6.31906e-02	2.08765e-06	1.66474e-06	2.13853e-01	2.89034e-02	2.88634e-02	9.13376e-03	1.93495e-06	1.32076e-02	3.19055e-06	3.47120e-06	9.67125e-07	2.29784e-01	3.78690e-08	3.80063e-08	8.23849e-02	3.32550e-02	3.75348e-08	3.80335e-08	1.05779e-01	1.48008e-02	1.52162e-02	4.84302e-03	3.76195e-08	6.77457e-03	X	X	X	X	X	X	X	X	X	X	X	X	X	X	X	X	



#DISTANCE SETTINGS
A = Detector Channel
A-1	A-2	A-3	A-4	A-5	A-6	A-7	A-8	A-9	A-10	A-11	A-12	A-13	A-14	A-15	A-16	

2.5000e+00	3.0000e+00	2.5000e+00	3.0000e+00	2.0000e+00	3.0000e+00	1.5000e+00	3.0000e+00	3.0000e+00	3.0000e+00	3.0000e+00	3.0000e+00	3.0000e+00	3.0000e+00	1.5000e+00	3.0000e+00	

B = Detector Channel
B-1	B-2	B-3	B-4	B-5	B-6	B-7	B-8	B-9	B-10	B-11	B-12	B-13	B-14	B-15	B-16	

1.0000e+01	1.0000e+01	1.0000e+01	1.4400e+00	1.0000e+01	1.0000e+01	1.5100e+00	1.9400e+00	1.0000e+01	1.0000e+01	1.9900e+00	2.4900e+00	2.4100e+00	2.9000e+00	1.0000e+01	2.9800e+00	




#DATA BEGINS
time	group	step	mark	flag	A-AC1	A-AC2	A-AC3	A-AC4	A-AC5	A-AC6	A-AC7	A-AC8	A-AC9	A-AC10	A-AC11	A-AC12	A-AC13	A-AC14	A-AC15	A-AC16	A-DC1	A-DC2	A-DC3	A-DC4	A-DC5	A-DC6	A-DC7	A-DC8	A-DC9	A-DC10	A-DC11	A-DC12	A-DC13	A-DC14	A-DC15	A-DC16	A-Ph1	A-Ph2	A-Ph3	A-Ph4	A-Ph5	A-Ph6	A-Ph7	A-Ph8	A-Ph9	A-Ph10	A-Ph11	A-Ph12	A-Ph13	A-Ph14	A-Ph15	A-Ph16	B-AC1	B-AC2	B-AC3	B-AC4	B-AC5	B-AC6	B-AC7	B-AC8	B-AC9	B-AC10	B-AC11	B-AC12	B-AC13	B-AC14	B-AC15	B-AC16	B-DC1	B-DC2	B-DC3	B-DC4	B-DC5	B-DC6	B-DC7	B-DC8	B-DC9	B-DC10	B-DC11	B-DC12	B-DC13	B-DC14	B-DC15	B-DC16	B-Ph1	B-Ph2	B-Ph3	B-Ph4	B-Ph5	B-Ph6	B-Ph7	B-Ph8	B-Ph9	B-Ph10	B-Ph11	B-Ph12	B-Ph13	B-Ph14	B-Ph15	B-Ph16	aux-1	digaux	

3272.863	1	1	0	256	0.052413	0.095183	0.25441	0.13558	0.30081	0.093815	0.14939	0.14099	0.13548	0.17107	0.20772	0.37453	0.183	0.084829	0.18297	0.31569	-2.3917	-2.6396	-2.6146	-3.0438	-2.5563	-2.9021	-2.8812	-2.6562	-2.8438	-2.625	-2.5292	-3	-2.5833	-2.7146	-2.9875	-2.4146	145.176	72.147	-130.326	2.099	62.796	-9.934	216.769	-109.125	-5.072	219.491	8.830	145.284	-107.433	166.620	-106.141	-43.234	0.00051379	0.00062726	0.00034555	452.05	1.009e-05	9.1374e-06	507.04	152.37	1.544e-05	1.3611e-05	197.7	75.337	56.501	20.848	5.1083e-06	34.379	0.0053504	0.0052256	0.0013838	823.04	5.9762e-05	5.5244e-05	656.13	213.18	5.7071e-05	5.2274e-05	346.85	102.3	82.863	29.03	4.7753e-05	46.898	127.446	9.566	-118.835	-119.557	25.951	14.914	-120.462	-113.720	-12.517	33.011	-115.416	-111.148	-109.683	-104.102	-117.377	-106.907	-8191	255	
3272.959	1	1	0	0	0.20629	0.077348	0.24041	0.15756	0.20986	0.1596	0.12976	0.093856	0.19432	0.10361	0.23548	0.31235	0.16876	0.12613	0.27953	0.16373	-2.2667	-2.5229	-2.4583	-2.7208	-2.6312	-2.7562	-3.125	-2.5604	-2.9521	-2.7438	-2.5833	-2.8812	-2.3375	-2.5875	-3.0708	-2.7625	-17.961	111.785	106.203	195.577	81.203	-26.161	179.832	37.738	-101.949	218.228	75.094	142.318	116.222	-25.917	200.646	161.962	0.00029586	0.0011066	0.0001574	454.33	1.4528e-05	1.2861e-05	508.02	151.84	1.4307e-05	1.0433e-05	197.62	75.058	56.52	20.787	3.7562e-06	34.146	0.00459	0.0045627	0.0012485	812.03	5.3746e-05	5.1233e-05	654.47	213.41	5.4413e-05	5.1191e-05	351.66	103.66	82.851	29.173	5.1942e-05	47.432	177.422	-8.764	-63.404	-120.046	49.774	28.757	-120.303	-113.735	-2.049	-24.600	-115.899	-111.013	-110.019	-104.498	192.370	-106.814	-8191	255	
3273.055	1	1	0	0	0.010818	0.19016	0.20193	0.29725	0.10969	0.077527	0.26892	0.35123	0.16211	0.091784	0.13649	0.22034	0.11987	0.040292	0.14074	0.23501	-2.4708	-2.8292	-2.3937	-2.8229	-2.8042	-2.6292	-3.025	-2.5208	-2.8833	-2.8333	-2.3312	-2.9854	-2.8396	-2.5438	-3.0187	-2.6937	65.873	119.752	109.944	122.234	171.899	202.808	213.928	-76.911	-39.292	-48.681	187.496	225.728	155.253	-8.912	51.500	153.508	0.0004807	0.0013633	0.00022244	459.43	1.2731e-05	9.6205e-06	502.98	150.82	1.5579e-05	1.0674e-05	190.18	72.829	54.925	20.223	1.6879e-05	33.091	0.0047458	0.0047719	0.0013824	846.49	5.5429e-05	5.37e-05	664.63	215.59	5.7145e-05	5.3993e-05	366.85	103.47	83.071	29.254	6.0841e-05	47.513	180.480	-41.279	182.742	-119.243	-8.879	8.476	-120.429	-113.583	58.088	30.253	-115.715	-110.862	-110.271	-104.835	185.339	-106.752	-8191	255	
3273.152	1	1	0	0	0.081882	0.050746	0.31391	0.20905	0.16577	0.23493	0.23827	0.20494	0.02937	0.048336	0.03235	0.17454	0.11123	0.095354	0.38311	0.29729	-2.4958	-3.0792	-2.5333	-2.9062	-2.8979	-2.5271	-3.2375	-2.7188	-2.7708	-2.7854	-2.45	-2.9792	-2.7479	-2.5729	-3.0917	-2.4625	45.424	-59.938	0.738	164.922	24.584	-85.430	149.879	-119.778	7.398	66.637	-110.457	-122.484	21.110	-9.082	-102.710	10.431	0.00044565	0.0011185	0.00021739	461.09	1.8101e-05	4.281e-06	503.25	150.53	1.1253e-05	6.5309e-06	194.66	74.185	56.268	20.675	1.0512e-05	33.901	0.0051769	0.0052153	0.0016054	876.99	5.8218e-05	5.5991e-05	674.11	215.03	5.5839e-05	5.3203e-05	372.09	103.73	83.058	29.585	6.3826e-05	48.257	137.206	1.584	-87.937	-119.396	57.063	-29.517	-120.287	-113.557	40.030	94.288	-115.952	-110.870	-110.121	-104.747	1.794	-106.517	-8191	255	
3273.248	1	1	0	0	0.15869	0.052821	0.309	0.012212	0.10405	0.031138	0.091767	0.16118	0.23287	0.11722	0.067842	0.13692	0.094936	0.19384	0.24709	0.10167	-2.1521	-3.0812	-2.7021	-2.9417	-2.9521	-2.7917	-2.8646	-2.4146	-2.7292	-3.0667	-2.5354	-2.6312	-2.7375	-2.7167	-3.0104	-2.9437	194.736	168.657	58.529	-84.359	209.148	-125.103	-31.665	94.312	-106.372	-58.180	104.853	96.174	192.106	-83.901	-74.797	50.782	0.00025133	0.00075905	0.00028708	461.17	2.108e-05	3.8582e-06	507.84	153.15	9.9608e-06	9.083e-06	198.01	75.219	56.733	20.901	5.3776e-06	34.532	0.0052347	0.0055161	0.0017615	892.65	6.2399e-05	6.3838e-05	702.66	224.25	6.4348e-05	6.5101e-05	411.39	108.06	87.198	31.377	7.3784e-05	49.764	144.204	-30.984	83.208	-119.847	35.359	-113.502	-120.057	-113.477	-57.657	162.668	-115.981	-111.157	-110.451	-104.494	227.831	-106.555	-8191	255	
3273.344	1	1	0	0	0.097197	0.29792	0.14856	0.21865	0.16888	0.32134	0.15064	0.22321	0.16257	0.064572	0.34157	0.2195	0.13361	0.31805	0.16623	0.1631	-2.2417	-2.8208	-2.7375	-2.8271	-2.9292	-2.6437	-3.0542	-2.6042	-2.7354	-2.9	-2.5375	-2.9104	-2.9854	-2.8208	-2.9333	-2.8771	100.785	-76.224	50.602	169.815	48.767	-111.121	-62.578	-8.992	57.992	-76.399	148.433	35.788	-26.763	226.515	159.848	-61.535	0.00034935	0.0013894	0.00032513	464.25	1.9664e-05	8.4732e-06	514.15	154.79	1.3111e-05	7.5091e-06	201.09	76.542	58.017	21.122	1.1453e-05	35.115	0.0056521	0.0063509	0.0019611	931.6	6.7563e-05	7.2278e-05	718.93	226.63	6.5183e-05	7.0959e-05	421.19	110.9	90.205	33.242	8.1943e-05	51.908	146.688	186.604	-57.939	-118.586	-10.164	-120.637	-120.113	-113.310	23.199	-48.687	-115.392	-111.066	-110.216	-104.866	25.766	-106.513	-8191	255	
3273.464	1	1	0	0	0.022753	0.059115	0.21318	0.29723	0.28918	0.21231	0.10704	0.10997	0.053847	0.27213	0.25285	0.28257	0.099495	0.19886	0.26997	0.25722	-2.3438	-2.7271	-2.6437	-2.8792	-2.7229	-2.5333	-2.8396	-2.6625	-2.4688	-2.8896	-2.5187	-2.5771	-3.0146	-2.3479	-2.925	-3.0146	-87.201	127.162	140.210	7.211	153.628	128.634	134.836	195.955	201.892	154.735	213.347	-100.456	149.008	-20.666	39.834	-52.988	0.00074626	0.0012553	0.00030843	470.58	6.336e-06	1.4419e-05	514.03	156.15	2.4587e-05	5.0118e-06	201.62	76.486	57.745	21.342	2.7779e-05	34.627	0.0064823	0.0078335	0.0022625	1015.9	8.3055e-05	9.5355e-05	759.35	243.91	8.6805e-05	0.00010026	492.36	121.51	103.26	38.499	0.00012031	58.634	121.923	211.911	-42.247	-118.795	36.833	-41.777	-120.246	-113.728	224.713	3.420	-115.794	-111.048	-110.235	-104.769	24.956	-106.592	-8191	255	
3273.561	1	1	0	0	0.098821	0.2071	0.11673	0.10393	0.28033	0.18027	0.10111	0.14562	0.16697	0.15091	0.14618	0.18965	0.095468	0.24354	0.11383	0.096709	-2.3104	-2.9479	-2.6813	-2.6854	-2.9938	-2.5229	-2.9813	-3.0417	-2.7021	-2.9396	-2.9125	-2.7917	-3.0062	-2.6833	-2.75	-2.7375	205.190	29.419	-32.025	211.328	157.340	101.679	62.829	88.325	-112.252	-31.033	-101.953	74.859	105.993	120.559	-64.563	226.768	0.0010171	0.00019227	0.00031139	467.2	1.4613e-05	3.7797e-06	512.01	154.64	2.0885e-05	1.2797e-05	201.62	75.903	57.415	21.097	3.0422e-05	34.546	0.010164	0.01235	0.0032327	1190.4	0.00010275	0.00010208	750.79	243.19	9.8024e-05	0.00011974	546	128.82	111.75	39.163	0.00011089	55.351	126.259	189.765	-71.966	-118.771	196.236	-107.577	-120.350	-113.307	200.602	32.476	-115.878	-111.173	-110.667	-104.636	78.283	-106.673	-8191	255	
3273.632	1	1	0	0	0.31785	0.13276	0.17863	0.17011	0.21061	0.21944	0.050426	0.14864	0.079852	0.060151	0.16674	0.35262	0.17874	0.32797	0.15267	0.075181	-2.1625	-2.9167	-2.6292	-2.6542	-3.1521	-2.7292	-2.9146	-3.1125	-2.6562	-2.9042	-2.8354	-2.8187	-2.9083	-2.6708	-2.7271	-2.8417	172.884	-83.243	-100.414	69.648	86.226	27.477	152.406	50.868	35.270	31.709	109.518	226.835	-70.490	200.819	-84.797	20.267	0.00080063	0.0014939	0.00071055	469.41	2.313e-05	2.1553e-05	513.39	157.03	2.589e-05	8.1957e-06	201.35	77.11	58.405	21.805	9.818e-06	35.619	0.008755	0.0096413	0.0024217	1044.1	9.7703e-05	0.00010606	777.72	249.95	9.4343e-05	8.8489e-05	420.59	110.3	92.375	32.488	6.3624e-05	49.146	103.951	-45.879	-9.528	-119.300	209.302	19.463	-120.287	-113.866	188.541	29.123	-115.033	-110.991	-110.177	-104.376	26.162	-106.853	-8191	255	
3273.753	1	1	0	0	0.18787	0.27021	0.26453	0.011	0.18399	0.074119	0.15595	0.12523	0.1004	0.081795	0.093932	0.39669	0.34529	0.37115	0.32889	0.1893	-2.0687	-2.7354	-2.7333	-2.4813	-2.9688	-2.5917	-2.5917	-3.1167	-2.6	-2.8458	-2.8521	-2.7521	-2.8417	-2.8542	-2.7938	-3.1104	-41.225	61.183	118.021	95.502	5.442	-44.688	190.585	35.211	55.630	172.389	30.962	152.636	-34.307	205.866	1.124	-47.825	0.0006786	0.0015463	0.00032399	461.4	5.4732e-06	6.2387e-06	515.98	155.76	5.2147e-06	4.1034e-06	203.43	77.442	58.168	21.387	4.3434e-06	35.36	0.0055422	0.0057155	0.0014506	830.8	6.1404e-05	5.8154e-05	673.36	215.83	6.2248e-05	6.1317e-05	373.76	106.82	89.196	30.898	5.757e-05	48.626	116.874	-21.167	-92.315	-119.916	129.283	16.066	-120.238	-113.507	51.101	17.395	-115.448	-111.220	-109.977	-104.731	37.280	-106.762	-8191	255	
3273.849	1	1	0	0	0.10778	0.1973	0.148	0.034973	0.043982	0.16441	0.20445	0.12914	0.17203	0.32602	0.16205	0.19267	0.13785	0.22438	0.21315	0.1129	-2.1604	-2.8521	-2.9583	-2.8104	-3.0938	-2.8375	-2.8042	-3.0292	-2.7583	-2.775	-2.8146	-2.6604	-2.8937	-2.75	-2.5021	-3.0979	13.081	118.479	132.189	0.357	29.002	112.497	222.188	-86.757	122.290	37.081	-75.208	157.452	167.330	35.501	-8.680	155.028	0.00058607	0.001245	7.3858e-05	465.03	7.3078e-06	3.8745e-06	516.97	155.39	1.7756e-05	4.855e-06	199.88	76.095	57.873	20.829	1.4262e-05	34.232	0.0055132	0.0055935	0.0014619	864.38	6.5509e-05	6.0424e-05	682.03	220.39	6.2957e-05	5.9458e-05	364.4	106.35	87.746	30.113	5.6934e-05	48.202	137.840	-31.286	115.303	-119.470	15.665	31.852	-120.003	-113.859	-32.675	3.559	-116.302	-110.934	-109.837	-104.534	60.839	-106.683	-8191	255	
3273.945	1	1	0	0	0.25623	0.12584	0.05657	0.10809	0.23203	0.062428	0.14701	0.29344	0.36577	0.1509	0.12406	0.04579	0.22718	0.13994	0.1038	0.041162	-2.2271	-2.6646	-3.1125	-2.5854	-2.8667	-3.0604	-2.5708	-3.075	-2.7042	-2.7	-3.0187	-2.6063	-2.9437	-2.8125	-2.5042	-3.0875	144.571	56.841	13.190	109.300	57.499	-49.350	119.585	2.179	148.531	-82.646	-93.760	165.359	133.974	-84.070	-130.413	21.775	0.00033159	0.00095998	0.00020193	466.89	1.7748e-05	1.8519e-06	514.76	155.71	1.5634e-05	9.3632e-06	202.26	76.263	57.99	20.841	1.9772e-05	34.019	0.0054453	0.0055229	0.0014546	883.86	6.4461e-05	5.9859e-05	682.73	224.39	6.3171e-05	6.079e-05	373.3	108.67	88.574	30.337	6.1147e-05	49.448	177.068	-13.517	215.767	-119.620	-0.180	169.401	-120.163	-113.553	-21.045	57.935	-115.608	-111.064	-110.041	-104.433	145.981	-106.956	-8191	255	
3274.064	1	1	0	0	0.20704	0.10307	0.24136	0.30061	0.10564	0.054855	0.024613	0.15774	0.17535	0.20053	0.18409	0.074138	0.14359	0.1534	0.088831	0.24623	-2.3375	-2.4521	-3.0958	-2.7062	-2.8937	-2.8	-2.7396	-3.0604	-2.6375	-2.975	-2.9229	-2.4542	-2.9542	-2.8396	-2.5354	-2.8875	74.815	-35.057	-79.450	-93.690	148.109	57.378	54.675	-112.789	-120.681	-40.138	23.118	-60.121	183.618	-82.185	45.905	120.492	0.00050086	0.00051595	0.00019988	470.26	1.2761e-05	1.8291e-05	520.67	156.87	1.9422e-05	1.1708e-05	203.36	77.214	58.476	21.043	1.7324e-05	34.391	0.0056744	0.0058499	0.0016217	937.44	6.8899e-05	6.4545e-05	707.7	233.71	6.7917e-05	6.5937e-05	399.68	112.31	90.767	31.03	6.841e-05	50.692	163.199	21.483	171.187	-119.472	58.165	15.692	-120.430	-113.622	-35.153	7.054	-115.879	-110.813	-109.888	-104.194	-130.872	-106.458	-8191	255	
3274.160	1	1	0	0	0.099527	0.25524	0.076212	0.05809	0.020248	0.16114	0.24913	0.099156	0.16603	0.14285	0.11123	0.037814	0.26555	0.15431	0.015991	0.14295	-2.1417	-2.6604	-2.9479	-2.6917	-2.7583	-2.9562	-2.6854	-3.0667	-2.6312	-2.4917	-2.8771	-2.4146	-2.7979	-2.8854	-2.4271	-2.8125	135.613	-20.230	172.159	165.706	87.184	-49.917	110.447	191.893	116.249	-25.884	-115.382	-21.507	146.359	207.116	-31.751	144.505	0.00074628	0.0009148	0.00030955	472.52	9.3704e-06	6.7125e-06	521.33	157.98	1.8028e-05	1.436e-05	201.47	77.765	58.633	21.174	1.609e-05	35.023	0.0057677	0.0059637	0.0017582	945.71	6.7576e-05	6.3383e-05	718.04	234.08	6.6338e-05	6.5765e-05	415.12	112.89	91.436	31.477	7.5638e-05	51.433	135.156	-77.307	102.858	-119.515	25.527	21.833	-120.140	-113.778	-69.378	124.281	-115.317	-110.858	-110.093	-104.625	227.865	-106.404	-8191	255	
3274.232	1	1	0	0	0.067643	0.33597	0.17194	0.087537	0.08204	0.25445	0.14948	0.15456	0.088428	0.12856	0.046848	0.36171	0.12926	0.12042	0.18141	0.15785	-2.2625	-2.6417	-2.8104	-2.6333	-2.5438	-2.8958	-2.7188	-2.8625	-2.8521	-2.7042	-2.8896	-2.9917	-2.7146	-2.8146	-2.5146	-2.8833	-78.305	-32.109	-106.640	223.465	72.837	47.905	24.907	208.217	168.565	-88.853	139.107	-108.534	161.480	-109.817	208.311	161.626	0.00057557	0.00054592	0.00038877	475.84	8.4814e-06	1.4134e-05	526.93	157.64	6.9946e-06	7.6681e-06	202.56	76.606	58.124	20.855	8.3227e-06	34.347	0.0059617	0.0063417	0.0019555	960.67	7.0473e-05	6.7788e-05	732.25	234.41	6.6714e-05	6.8041e-05	421.29	110.57	89.389	31.215	7.4934e-05	49.904	119.334	152.451	174.196	-119.259	-47.110	-109.866	-120.558	-113.775	90.397	210.196	-115.427	-110.877	-109.851	-104.532	-95.806	-106.455	-8191	255	
3274.353	1	1	0	0	0.18635	0.16928	0.21187	0.19179	0.10825	0.21962	0.11907	0.16791	0.11692	0.15181	0.07261	0.23272	0.23524	0.16089	0.229	0.10419	-2.3396	-2.425	-3.0208	-2.5938	-2.6271	-2.9354	-2.8	-3.0229	-3.0292	-2.7729	-2.8708	-2.4313	-2.5625	-2.9396	-3	-2.9396	46.896	198.883	127.709	130.394	36.593	110.860	166.175	-118.384	220.752	114.113	176.249	207.846	135.252	-123.442	29.617	148.471	0.00040968	0.0012921	0.00051062	476.96	1.0345e-05	1.1893e-05	519.81	156.57	1.6057e-05	1.0488e-05	199.26	76.855	58.34	20.832	9.3596e-06	34.809	0.0056091	0.0063149	0.0019144	921.56	6.6152e-05	6.8445e-05	722.59	230.16	6.468e-05	7.0862e-05	420.9	110.12	89.89	32.019	7.5549e-05	50.339	128.647	134.374	-75.384	-119.166	-38.882	-130.666	-120.509	-113.431	6.681	182.861	-115.864	-110.704	-110.085	-104.380	11.793	-106.377	-8191	255	
3274.449	1	1	0	0	0.10073	0.078424	0.10036	0.25505	0.10558	0.14954	0.042673	0.18101	0.22204	0.16445	0.33213	0.13984	0.11003	0.28918	0.15476	0.51887	-2.4875	-2.6042	-2.7583	-2.45	-2.3354	-2.7875	-2.5542	-2.825	-3.0708	-2.7021	-2.975	-2.9104	-2.6208	-2.8396	-2.7396	-2.8208	-11.776	-96.712	-115.772	14.738	197.793	119.895	-100.647	76.886	48.173	103.653	183.706	65.264	205.959	-77.989	54.529	224.805	0.00061257	0.00022659	0.00046102	472.52	1.6938e-05	1.0476e-05	520.85	158.25	1.8214e-06	1.634e-05	204.57	77.623	58.36	21.251	3.3488e-05	35.218	0.0056894	0.0068122	0.0019586	928.25	6.8256e-05	7.4354e-05	726.35	231.67	6.5289e-05	7.4951e-05	420.39	110.5	90.375	32.717	7.2362e-05	50.461	136.757	196.593	-45.145	-118.856	19.906	-130.330	-120.007	-113.357	197.648	164.890	-115.724	-110.968	-110.056	-104.538	-6.221	-106.561	-8191	255	
3274.545	1	1	0	0	0.15082	0.35767	0.085499	0.1557	0.40843	0.24866	0.077374	0.1017	0.021975	0.18446	0.21588	0.17948	0.050003	0.090051	0.12414	0.45358	-2.3104	-2.4229	-2.8812	-2.4833	-2.4625	-3.0333	-2.7562	-2.5146	-2.9167	-2.5625	-3.0375	-3.0229	-2.7271	-3.1271	-2.8021	-2.7479	226.656	112.770	32.608	-57.599	70.601	152.843	163.741	-44.846	126.380	-8.487	-35.053	-115.502	-20.230	75.987	36.111	169.981	0.00051818	0.0012258	0.0002014	476.24	1.0086e-05	5.8093e-06	528.37	158.69	5.7315e-06	1.0786e-05	205.97	78.619	58.885	21.498	9.9311e-06	35.655	0.005654	0.0069112	0.0018637	911.35	6.8132e-05	7.5716e-05	722.59	231.08	6.7229e-05	7.6023e-05	415.5	110.9	91.97	33.048	6.9546e-05	50.629	123.472	-129.978	-125.404	-118.823	185.916	-11.714	-120.462	-113.265	116.672	-18.002	-115.289	-110.660	-110.366	-104.449	49.517	-106.510	-8191	255	
3274.641	1	1	0	0	0.048881	0.0923	0.20254	0.16011	0.12537	0.2721	0.10647	0.30755	0.078116	0.08251	0.056893	0.19791	0.21439	0.12829	0.17231	0.13469	-2.5292	-2.6583	-2.95	-2.9417	-2.7687	-2.8438	-2.9646	-2.85	-3.2042	-2.7167	-2.7979	-2.9271	-2.5979	-3.1479	-2.9771	-2.525	81.119	-107.368	32.553	77.517	37.994	193.489	-121.241	189.212	209.172	135.292	74.453	155.329	196.639	50.286	-12.791	-75.631	0.00093299	0.001995	0.00040639	480.13	1.6157e-05	9.6801e-06	528.96	160.21	2.85e-05	2.342e-05	206.19	78.199	58.601	21.529	6.1195e-06	34.982	0.0059229	0.0069442	0.0017922	906.22	7.136e-05	7.5225e-05	719.5	230.75	6.983e-05	7.3975e-05	408.23	109.97	92.695	32.69	6.7386e-05	49.922	134.464	-37.816	-31.001	-119.455	189.805	24.903	-120.354	-113.379	199.010	39.537	-115.519	-110.983	-109.936	-104.679	-108.996	-106.880	-8191	255	
3274.737	1	1	0	0	0.18365	0.15136	0.23348	0.16729	0.15866	0.11981	0.31327	0.071025	0.14149	0.25822	0.17977	0.20459	0.052519	0.11808	0.083151	0.22803	-2.5208	-2.7208	-2.7687	-2.8083	-2.4729	-2.775	-2.5958	-2.6896	-2.9854	-2.7812	-2.8375	-3.075	-2.6125	-3.0563	-3.0292	-2.8125	4.519	170.549	80.657	206.013	146.770	-46.992	-106.641	88.644	-98.501	-92.457	143.916	-129.409	-30.686	-118.192	146.604	192.434	0.00057242	0.0018748	0.00014217	477.85	8.4932e-06	9.1167e-06	522.62	157.33	1.1259e-05	1.8348e-05	205.01	77.565	58.521	21.171	1.8566e-05	34.728	0.006186	0.0067211	0.0017567	902.73	7.4055e-05	7.2728e-05	708.63	228.91	7.2781e-05	7.1267e-05	402.06	109.23	92.788	32.015	6.4916e-05	49.734	109.704	-12.312	-47.828	-119.699	125.489	-36.197	-120.351	-113.902	174.508	32.893	-115.374	-110.769	-110.214	-104.462	25.872	-106.730	-8191	255	
3274.856	1	1	0	0	0.18478	0.11704	0.13565	0.024737	0.13794	0.29436	0.15415	0.16212	0.18375	0.15356	0.22411	0.20088	0.27412	0.029342	0.1265	0.2528	-2.85	-2.6958	-2.6708	-2.9333	-2.4875	-3	-2.8146	-2.6437	-2.8104	-2.6146	-2.7271	-2.9833	-2.5271	-2.7313	-2.8354	-2.65	26.089	16.657	-100.766	-36.589	211.119	-64.839	-119.168	20.569	94.271	-93.650	29.072	138.593	198.613	65.897	-122.411	197.259	0.0008777	0.0019803	8.0749e-05	472.19	1.1526e-05	8.4578e-06	523.31	157.83	5.9969e-06	1.4179e-05	203.4	76.999	58.738	21.083	1.877e-05	34.664	0.00626	0.0063398	0.0016868	911.07	7.4634e-05	7.0677e-05	708.39	232.38	7.4762e-05	7.0041e-05	401.18	111.08	93.332	31.813	6.3951e-05	50.279	128.059	-24.359	-63.975	-119.670	54.424	5.392	-120.207	-113.690	57.420	38.301	-115.399	-111.291	-109.911	-104.406	-38.095	-106.743	-8191	255	
3274.929	1	1	0	0	0.25036	0.15788	0.12931	0.12778	0.21557	0.10557	0.3339	0.31348	0.22154	0.12661	0.14444	0.18556	0.038734	0.39766	0.28411	0.088059	-2.4271	-2.6021	-2.6063	-3.1063	-2.5854	-3.0042	-3.0417	-2.6208	-3.1271	-3.0542	-2.8438	-3.0354	-2.9146	-2.8958	-3.0167	-2.6667	-66.300	158.657	44.649	107.087	-98.843	162.299	131.246	-88.376	130.497	-58.452	-58.120	103.924	66.366	180.369	-41.227	163.751	0.00075737	0.00074592	0.00012651	477.17	1.6375e-05	1.145e-05	525.76	159.11	2.7206e-06	8.7274e-06	202.88	77.657	58.568	21.238	1.3699e-05	34.931	0.0062112	0.0061649	0.0016578	932.43	7.2549e-05	6.8708e-05	707.48	234.45	7.242e-05	6.8095e-05	399.32	112.5	92.481	31.867	6.5785e-05	51.59	151.939	-128.244	89.958	-119.593	-42.746	43.784	-120.085	-113.501	-62.927	86.390	-115.472	-111.176	-109.725	-104.583	220.855	-106.654	-8191	255	
3275.026	1	1	0	0	0.15224	0.076186	0.10241	0.16382	0.18097	0.17749	0.11083	0.33501	0.14387	0.17246	0.15348	0.10961	0.069498	0.3313	0.30648	0.23095	-2.2979	-2.7646	-2.7292	-2.9667	-2.7146	-2.7354	-2.9708	-2.7812	-3.1125	-3.0896	-2.5896	-3.2146	-2.8792	-2.8583	-3.0708	-2.65	87.221	107.194	80.382	127.453	35.744	69.983	-115.836	-108.074	42.753	-54.730	-48.663	138.743	-69.232	-22.903	89.790	123.024	0.00050491	0.002658	0.00023095	482.15	5.6408e-06	9.7565e-06	531.29	160.02	1.3507e-05	9.3241e-06	204.6	78.457	59.163	21.621	2.2064e-05	35.248	0.0061968	0.0062131	0.0017272	965.9	7.2092e-05	6.8674e-05	719.59	239.54	7.1876e-05	6.7835e-05	411.19	114.95	92.413	32.034	6.8707e-05	52.004	143.549	-27.720	97.855	-119.581	-50.844	-26.408	-120.131	-113.478	73.542	160.490	-116.152	-111.207	-110.353	-104.401	210.912	-106.378	-8191	255	
3275.144	1	1	0	0	0.37871	0.064073	0.071371	0.18322	0.20131	0.3789	0.1188	0.22944	0.2776	0.079237	0.25862	0.2101	0.24124	0.19079	0.2207	0.17829	-2.475	-2.8	-2.5708	-3.0521	-2.6917	-2.6625	-3.1792	-2.6667	-2.9625	-3.0396	-2.6937	-3.0958	-2.9875	-2.7083	-3.1021	-2.7771	198.967	-46.576	-98.320	-46.786	71.416	-66.282	-98.818	115.918	-111.074	-37.988	195.185	-79.690	166.641	95.161	-106.049	225.222	0.00081334	0.0010985	0.00041855	481.97	1.6641e-05	4.6244e-06	522.29	159.41	1.0661e-05	7.0792e-06	201.92	77.61	58.629	21.295	1.5286e-05	34.838	0.0060562	0.0060991	0.001797	965.66	6.9107e-05	6.6812e-05	717.4	236.8	6.8818e-05	6.5169e-05	414.09	112.91	90.557	31.573	7.1523e-05	50.97	167.043	-24.912	112.297	-118.982	13.230	50.837	-120.394	-113.640	185.497	-6.389	-116.577	-111.069	-110.210	-104.685	200.616	-106.890	-8191	255	
3275.241	1	1	0	0	0.12945	0.1683	0.079092	0.036061	0.14809	0.093312	0.1084	0.11656	0.21028	0.14571	0.22747	0.20665	0.19492	0.20144	0.082218	0.15201	-2.4771	-2.9917	-2.4417	-3.0583	-2.9354	-2.7292	-3.2583	-2.7479	-2.6875	-3.05	-2.7625	-2.9458	-2.9688	-2.5542	-2.9562	-2.7646	-9.613	79.717	-84.983	-66.406	-101.645	146.308	193.204	-17.568	-112.798	170.923	38.561	103.389	198.067	-108.633	-80.888	101.284	0.00046675	0.0013282	0.0002592	481.63	1.6552e-05	9.703e-06	523.06	159.1	1.3556e-05	6.8411e-06	202.63	77.275	58.092	20.89	1.0451e-05	34.751	0.0058526	0.0059822	0.0018779	956.49	6.8419e-05	6.6925e-05	724.79	234.22	6.7387e-05	6.5173e-05	418.1	110.76	88.601	31.115	7.1204e-05	49.875	152.938	137.127	194.412	-119.544	-12.998	-126.475	-120.326	-113.434	-1.056	-124.854	-116.488	-111.047	-110.246	-104.632	-62.501	-106.588	-8191	255	
3275.337	1	1	0	0	0.086553	0.36466	0.17379	0.034824	0.0541	0.059201	0.091358	0.11294	0.072921	0.22775	0.097491	0.10405	0.10097	0.30037	0.049303	0.10366	-2.2833	-3.0812	-2.6271	-3.0292	-2.8625	-2.9083	-3.1646	-2.8292	-2.7562	-3.1854	-2.7667	-2.9229	-2.9188	-2.7458	-3.05	-2.7521	-110.970	141.715	176.419	4.377	103.985	202.818	169.063	218.923	-112.711	159.304	-108.774	-92.894	52.822	-75.163	163.828	101.882	0.00045258	0.0012723	0.00032622	479.18	1.11e-05	3.0923e-06	523.66	157.73	8.3497e-06	8.2087e-06	202.35	76.786	57.583	20.987	8.8648e-06	34.959	0.0055013	0.0058492	0.0018358	917.28	6.2822e-05	6.5644e-05	720.6	227.61	6.3284e-05	6.5618e-05	413.02	109.19	87.386	31.419	7.163e-05	49.649	122.996	169.420	-34.987	-118.848	31.856	163.511	-120.176	-113.534	-74.325	195.701	-115.309	-110.891	-110.280	-104.266	-48.013	-106.650	-8191	255	
3275.433	1	1	0	0	0.19541	0.31785	0.28895	0.19737	0.18506	0.21852	0.29422	0.11313	0.22476	0.16782	0.042468	0.39226	0.25665	0.068607	0.048209	0.26401	-2.2604	-2.9417	-2.6875	-2.7146	-3.1562	-2.7667	-3.1583	-2.7604	-2.6479	-2.7542	-2.7333	-2.7417	-2.8479	-2.7	-2.9792	-2.8833	90.845	59.961	-2.052	87.115	124.228	59.568	119.001	214.312	-12.052	8.592	188.126	109.941	181.861	190.979	108.733	29.244	0.00043372	0.0014552	0.00029183	481.44	6.7043e-06	1.0153e-05	527.32	157.58	1.2094e-05	1.0182e-05	203.89	77.514	58.025	21.1	1.4422e-05	34.908	0.0054506	0.0062457	0.0018458	913.62	6.2767e-05	6.9774e-05	725.06	227.83	6.378e-05	7.038e-05	412.69	109.78	87.699	31.928	6.9229e-05	49.351	134.310	148.511	182.930	-119.032	15.624	212.085	-120.198	-113.804	-44.362	204.077	-115.636	-110.929	-110.099	-104.552	-9.997	-106.777	-8191	255	
3275.529	1	1	0	0	0.06008	0.25702	0.066408	0.10848	0.097496	0.09796	0.27778	0.073179	0.18315	0.16615	0.23485	0.35783	0.048843	0.3702	0.16402	0.029037	-2.2687	-2.9688	-2.4417	-2.6875	-2.9	-2.4729	-2.9062	-2.9646	-2.5917	-2.9646	-2.7479	-2.8625	-3.1354	-2.925	-2.9813	-2.9021	-53.252	-37.179	170.116	41.418	26.119	210.792	199.184	-104.191	-114.103	-113.637	113.241	210.065	208.132	115.883	-21.071	-66.668	0.00065064	0.00057611	8.0682e-05	475.66	1.0816e-05	7.8178e-06	520.19	155.44	1.1192e-05	7.1275e-06	199.22	75.102	56.962	20.534	1.6857e-05	33.693	0.0053412	0.0064156	0.0017437	895.78	6.2519e-05	7.0974e-05	709.16	223	6.3097e-05	7.0556e-05	392.93	105.95	85.922	31.134	6.4711e-05	47.452	110.971	-32.195	13.470	-119.341	-108.534	-4.976	-120.117	-113.653	60.191	6.220	-115.154	-110.739	-110.729	-104.598	37.365	-106.803	-8191	255	
3275.625	1	1	0	0	0.12296	0.18559	0.26828	0.074901	0.23492	0.05031	0.039635	0.19766	0.089707	0.29458	0.25164	0.14859	0.21476	0.056059	0.23199	0.13296	-2.1813	-2.9146	-2.575	-2.4667	-3.0042	-2.7979	-2.7979	-3.0042	-2.4646	-2.8146	-2.7729	-2.9042	-3.2354	-2.8146	-2.7229	-2.9729	-110.414	30.115	-33.663	227.861	51.257	49.290	163.485	46.154	144.583	-93.332	29.399	-120.670	192.406	210.077	116.615	-3.685	0.00063937	0.0013028	0.00019121	473.12	8.9529e-06	1.9094e-05	517.11	154.82	6.8086e-06	2.3605e-06	197.76	74.239	55.992	20.415	1.8959e-05	33.556	0.00537	0.0063454	0.0016447	873.71	6.3429e-05	6.936e-05	697.68	218.57	6.367e-05	6.7826e-05	380.29	103.68	85.961	30.538	6.1373e-05	46.801	114.262	-29.863	-7.993	-118.988	184.448	51.041	-120.253	-113.721	201.654	-46.948	-114.930	-111.015	-110.468	-104.653	-37.657	-106.837	-8191	255	
3275.746	1	1	0	0	0.18863	0.18777	0.33767	0.062108	0.24326	0.11789	0.16416	0.070766	0.18036	0.28096	0.055543	0.249	0.16721	0.14239	0.06993	0.16754	-2.0208	-2.775	-2.7042	-2.3854	-3.0917	-2.65	-2.6688	-2.8875	-2.6063	-3.025	-2.9729	-2.7417	-3.1667	-2.9813	-2.9313	-3.2042	192.154	94.992	37.492	35.700	79.289	-36.264	11.763	141.257	-44.620	-79.092	-90.761	-21.976	-94.121	-28.804	202.773	-5.827	0.00080891	0.0018556	0.00046442	468.44	1.936e-05	1.8588e-05	516.83	154.61	1.3638e-05	2.0527e-05	198.95	75.38	57.019	20.704	1.6315e-05	34.43	0.0054646	0.0060475	0.0015531	858.4	6.5201e-05	6.5725e-05	693.39	218.13	6.6086e-05	6.6512e-05	379.44	105.47	88.41	30.863	6.2036e-05	48.192	132.801	-51.937	-44.915	-119.677	196.327	49.459	-120.341	-113.747	170.032	38.941	-115.747	-111.241	-110.157	-104.668	-65.515	-106.736	-8191	255	
3275.842	1	1	0	0	0.23437	0.024882	0.041529	0.042979	0.12441	0.33637	0.24504	0.32349	0.12588	0.21225	0.25156	0.14335	0.32453	0.23918	0.12068	0.1484	-2.2729	-2.9062	-2.9125	-2.7708	-3.0854	-2.7896	-2.7979	-3.0146	-2.7208	-3.075	-3.0604	-2.6146	-3.0104	-2.9271	-2.8417	-2.9083	-0.904	-21.958	130.686	-15.330	10.176	85.041	219.918	-101.939	-41.992	-76.847	65.585	-37.220	225.912	-98.376	166.412	-30.155	0.00031945	0.0021953	0.00058108	467.38	1.3806e-05	8.4735e-06	520.25	155.16	1.5164e-05	3.3735e-06	201.27	76.253	57.635	20.882	2.1174e-05	34.81	0.0058224	0.0060716	0.0015669	881.36	6.937e-05	6.5281e-05	697.07	222.57	6.8537e-05	6.523e-05	379.87	107.84	89.344	30.738	6.0347e-05	49.027	129.893	-79.116	-38.968	-119.486	191.748	-43.568	-120.274	-113.436	44.224	112.008	-115.692	-110.925	-110.040	-104.654	-40.716	-106.990	-8191	255	
3275.936	1	1	0	0	0.052288	0.29882	0.054454	0.1604	0.15822	0.086381	0.013142	0.12871	0.21536	0.15646	0.061062	0.072782	0.062074	0.082972	0.28114	0.050273	-2.375	-2.8438	-2.9229	-2.3854	-2.8875	-2.6104	-2.6333	-2.9938	-2.625	-2.7375	-2.7542	-2.5521	-2.9521	-2.9208	-2.7479	-3.0604	88.411	18.938	-106.027	-110.837	-57.205	183.342	175.626	107.596	67.692	-25.755	-101.867	85.036	151.671	-12.562	-86.416	-60.971	0.00041071	0.00073803	0.00013782	472.85	8.9885e-06	9.1189e-06	513.98	152.47	1.9578e-05	1.2643e-05	197.96	74.774	56.523	20.37	6.1394e-06	33.591	0.0057481	0.0057647	0.0015036	886.23	6.7092e-05	6.1927e-05	686.62	222.06	6.562e-05	6.2224e-05	369.81	106.34	87.066	29.752	5.8513e-05	48.085	124.079	-51.740	-51.194	-119.862	55.091	18.955	-120.296	-113.850	51.138	-12.309	-116.031	-111.417	-110.244	-104.476	171.726	-106.601	-8191	255	
3276.033	1	1	0	0	0.12853	0.16581	0.33295	0.040601	0.070342	0.049274	0.17012	0.23564	0.21093	0.16828	0.16881	0.10715	0.22825	0.062886	0.44549	0.36701	-2.3167	-2.6625	-3.0125	-2.8583	-3.175	-2.7375	-2.7812	-3.1292	-2.6958	-2.8958	-3.2313	-2.6542	-3.1104	-3.1146	-2.7042	-3.0542	61.877	-116.602	-12.081	163.832	44.648	186.874	93.514	-105.878	-120.694	71.601	3.910	48.315	211.362	9.936	-3.894	140.648	0.0002713	0.00054661	0.00042108	466.81	1.5322e-05	2.1184e-05	513.4	152.88	2.2524e-05	8.8745e-06	195.57	74.501	56.117	20.443	8.7351e-06	34.126	0.0054798	0.0056105	0.0014863	897.65	6.475e-05	5.9889e-05	683.33	223.28	6.29e-05	6.0626e-05	371.44	106.95	86.448	29.706	6.0138e-05	48.879	128.300	-115.238	181.179	-119.647	-20.035	17.191	-120.297	-113.638	-9.613	50.738	-115.464	-111.135	-110.084	-104.848	-8.853	-106.708	-8191	255	
3276.153	1	1	0	0	0.046427	0.14104	0.18924	0.3608	0.16865	0.16547	0.27225	0.054427	0.078676	0.1261	0.16507	0.23941	0.42675	0.3098	0.18802	0.25209	-2.3875	-2.9542	-2.9854	-2.775	-2.9396	-3.0458	-2.8958	-3.0312	-2.8417	-2.775	-3.1208	-2.7771	-3.1333	-3.0333	-2.7229	-2.9583	-55.532	-70.603	-97.144	48.421	-18.907	-52.337	108.024	177.378	97.768	160.796	-127.975	170.455	172.210	161.839	-25.346	113.850	0.00017384	0.0020819	0.00017601	469.98	9.5376e-06	9.8205e-06	513.74	153.7	1.5903e-05	1.6957e-05	198.65	75.563	56.959	20.627	1.3133e-05	34.502	0.0052614	0.0054484	0.0015445	905.68	6.2658e-05	5.8796e-05	691.2	225.53	6.1036e-05	5.9324e-05	381.42	107.67	85.693	29.662	6.2162e-05	48.934	206.320	-14.793	-108.667	-119.101	10.171	21.702	-120.835	-113.827	-16.403	34.677	-116.562	-111.058	-110.162	-104.451	220.637	-106.717	-8191	255	
3276.225	1	1	0	0	0.11615	0.34646	0.22296	0.21874	0.16374	0.24409	0.34428	0.083385	0.19141	0.080617	0.088918	0.11755	0.19183	0.078304	0.16252	0.27402	-2.425	-2.5187	-2.9667	-2.8958	-2.8896	-2.9729	-2.6271	-2.975	-3.1937	-2.7833	-3.0729	-2.9667	-2.8042	-3.1125	-2.6083	-3.1688	-97.624	-130.330	100.714	39.414	82.923	20.147	53.970	94.388	-45.474	42.042	-120.140	197.634	-41.300	-118.862	134.133	1.834	0.00049058	0.00030951	0.00062863	467.94	1.4286e-05	6.3856e-06	517.55	155	1.2758e-05	1.0566e-05	196.93	76.079	56.776	20.683	1.3473e-05	34.644	0.0050622	0.0053195	0.0016071	889.44	6.0759e-05	5.7657e-05	699.48	223.98	6.0088e-05	5.9977e-05	394.28	107.82	85.981	30.064	6.7181e-05	49.329	138.643	-14.954	156.876	-119.381	-8.042	-24.520	-120.512	-113.681	42.928	-10.221	-115.575	-110.921	-110.003	-104.874	132.880	-106.560	-8191	255	
3276.321	1	1	0	0	0.26173	0.17272	0.15326	0.25269	0.13912	0.17311	0.12254	0.091463	0.11168	0.17692	0.031302	0.26072	0.23637	0.14822	0.23772	0.086794	-2.5583	-2.7208	-3.1292	-2.7562	-2.85	-3.0708	-2.6042	-2.6937	-2.7833	-2.4625	-3.0146	-2.8063	-2.4938	-2.8333	-2.4833	-2.7292	54.388	-69.065	-2.385	130.905	-110.760	-90.059	172.482	-88.084	162.650	179.820	-52.595	103.570	207.653	-72.957	-98.899	116.191	0.00019671	0.001698	0.00031627	472.06	1.8693e-05	1.2457e-05	514.74	152.52	1.9648e-05	5.2095e-06	195.29	74.274	55.805	20.183	1.8313e-05	33.717	0.0051785	0.0056142	0.0017367	890.48	6.1078e-05	6.0081e-05	700.38	220.5	5.8122e-05	6.1e-05	392.87	104.57	83.877	29.66	6.5892e-05	47.474	168.505	182.115	125.434	-119.142	-46.871	173.049	-120.506	-113.592	38.781	120.589	-115.412	-110.762	-110.137	-104.372	-51.678	-106.738	-8191	255	
3276.417	1	1	0	0	0.16758	0.071387	0.28964	0.14539	0.071782	0.1293	0.23855	0.069748	0.23707	0.27636	0.16099	0.16532	0.28577	0.28157	0.11523	0.13761	-2.5104	-2.5687	-2.9917	-2.7458	-2.8271	-3.0396	-2.6813	-2.9792	-2.9938	-2.7104	-3.075	-2.9104	-2.9229	-2.9583	-2.7021	-2.6604	-49.392	-28.333	21.401	184.853	4.869	74.678	158.014	162.446	82.526	-72.289	144.337	74.810	113.291	-126.198	93.872	40.065	0.00041225	0.0017887	0.0004252	468.26	8.4895e-06	1.1777e-05	509.18	152.3	7.8179e-06	9.9635e-06	193.71	73.739	55.661	20.169	4.8693e-06	33.783	0.0048868	0.0056554	0.0016887	862.52	5.837e-05	6.1994e-05	692.14	217.02	5.6587e-05	6.3317e-05	387.6	103.26	83.21	30.002	6.4027e-05	47.243	117.791	166.154	-32.472	-119.849	-40.992	209.267	-120.320	-113.793	35.622	154.029	-115.353	-110.928	-110.478	-104.665	83.174	-106.625	-8191	255	
3276.538	1	1	0	0	0.24154	0.11937	0.24245	0.14436	0.20839	0.31008	0.13679	0.038644	0.13751	0.028228	0.30742	0.078924	0.11278	0.24819	0.067445	0.38909	-2.3896	-2.5042	-2.8083	-2.5979	-2.6375	-2.9313	-2.6625	-2.8187	-3.05	-2.7729	-2.8688	-2.8187	-2.5417	-2.8854	-2.8812	-2.8563	-4.595	-109.586	120.473	25.836	-9.858	46.738	128.106	107.328	89.279	169.486	-25.753	157.663	-18.703	220.747	97.531	-111.149	0.00039549	0.0013956	0.0001821	469.12	6.981e-06	6.1157e-06	512.13	152.69	7.7023e-06	1.1595e-05	197.76	74.689	55.713	20.288	1.296e-05	34.129	0.0048545	0.0059315	0.0016432	852.91	5.8339e-05	6.4983e-05	689.56	216.71	5.7061e-05	6.5569e-05	382.41	103.56	83.982	30.417	6.1293e-05	47.456	108.285	198.813	42.918	-119.175	-112.823	-84.666	-120.332	-113.590	132.528	223.128	-115.899	-111.143	-110.298	-104.663	-25.957	-106.727	-8191	255	
3276.634	1	1	0	0	0.14958	0.0073098	0.15359	0.041313	0.086564	0.10216	0.30592	0.13277	0.093158	0.26815	0.037425	0.072235	0.18387	0.30944	0.14873	0.14624	-2.6896	-2.7562	-2.9375	-3	-2.7	-3.1708	-2.8292	-2.6667	-2.9562	-2.5979	-2.7625	-2.9021	-2.5771	-2.9646	-2.7021	-2.6354	-112.585	-100.235	190.020	116.153	-44.918	62.228	107.525	188.234	53.631	22.971	-113.862	97.611	149.866	151.224	2.274	208.234	0.00055327	0.00076384	0.00028589	473.18	1.3972e-05	1.1143e-05	516.04	153.01	2.2179e-05	5.8844e-06	196.99	75.339	56.407	20.605	1.3631e-05	34.658	0.0049682	0.0060129	0.0015813	846.27	6.0433e-05	6.6058e-05	688.13	216.16	5.9449e-05	6.5721e-05	378.99	103.63	85.114	30.538	5.8788e-05	47.692	119.071	112.448	-67.633	-119.433	194.266	-31.606	-120.144	-113.789	194.163	72.216	-115.830	-111.425	-110.150	-104.362	24.731	-106.560	-8191	255	
3276.730	1	1	0	0	0.22856	0.31755	0.18964	0.15163	0.14419	0.1113	0.1941	0.28661	0.15157	0.12043	0.13636	0.13147	0.024597	0.2098	0.11963	0.21987	-2.3708	-2.4708	-2.75	-2.9562	-2.5333	-2.9167	-2.7917	-2.6729	-3.1458	-2.6729	-2.7438	-3.0375	-2.8208	-3.1688	-2.9083	-2.75	220.402	21.780	-122.878	193.177	105.619	-89.184	135.052	140.356	-82.367	167.012	55.580	221.267	-61.899	216.858	-86.913	19.343	0.00035898	0.0014734	0.00065307	468.45	3.246e-06	3.1142e-06	514.82	153.84	6.6442e-06	8.6161e-06	197.13	75.173	55.842	20.438	2.7563e-05	33.878	0.0052107	0.0059004	0.0015355	836.28	6.2669e-05	6.4339e-05	683.48	215.5	6.2451e-05	6.355e-05	374.54	103.02	86.031	30.172	5.8254e-05	47.123	112.725	-51.735	-80.316	-118.623	169.268	99.436	-120.482	-113.947	158.533	-33.474	-115.344	-111.039	-110.328	-104.402	27.218	-106.838	-8191	255	
3276.826	1	1	0	0	0.10112	0.31525	0.12977	0.1854	0.072691	0.091377	0.12944	0.12698	0.062587	0.13441	0.16568	0.24578	0.10084	0.29607	0.17951	0.16522	-2.8354	-2.7854	-2.825	-2.975	-2.6937	-3.0521	-3.0375	-2.8229	-3.0854	-2.8438	-2.6792	-2.825	-2.5229	-2.9896	-2.9146	-2.7667	15.405	-19.578	-114.593	220.118	-83.343	-40.741	157.700	-80.449	-52.765	-128.019	176.514	224.938	-123.449	204.691	168.727	219.655	0.00066037	0.00050227	0.00013404	465.51	1.1815e-05	1.1091e-05	510.58	151.99	5.0462e-06	1.5581e-05	197.62	74.598	56.061	20.569	1.4204e-05	33.976	0.0054628	0.0057066	0.001515	844.4	6.5457e-05	6.2948e-05	678.08	216.07	6.5452e-05	6.2409e-05	372.25	103.83	86.942	30.155	5.785e-05	47.938	106.187	-46.972	126.081	-119.439	221.349	17.071	-120.296	-113.800	105.049	26.773	-115.679	-111.365	-110.164	-104.781	-62.197	-107.108	-8191	255	
3276.921	1	1	0	0	0.18626	0.20763	0.092876	0.10463	0.096785	0.052978	0.098102	0.071457	0.094496	0.12205	0.025552	0.083136	0.050255	0.26326	0.17467	0.049746	-2.6979	-2.8333	-2.7625	-3.0583	-2.5687	-3.0812	-2.9437	-2.6292	-2.7292	-2.6229	-2.5896	-3.0583	-2.6125	-2.8042	-2.9583	-2.5542	-2.447	-118.919	35.926	204.025	8.752	192.647	148.738	125.450	148.491	53.186	-33.673	149.221	4.418	-104.796	-63.032	-53.714	0.00041786	0.0019468	0.00033612	470.03	1.208e-06	1.9491e-05	515.34	153.78	1.235e-05	5.2055e-06	198.12	75.308	56.065	20.586	1.5886e-05	34.303	0.005657	0.0056736	0.0015176	874.41	6.7243e-05	6.268e-05	681.64	221.18	6.6011e-05	6.1754e-05	373.78	106.43	87.244	30.184	5.8183e-05	48.999	93.825	-67.997	-42.039	-119.467	-122.738	100.096	-120.536	-113.972	0.388	9.543	-115.613	-111.311	-110.396	-104.598	-86.944	-106.989	-8191	255	
3277.017	1	1	0	0	0.18616	0.085736	0.32857	0.28254	0.15972	0.11849	0.071773	0.30172	0.21887	0.26073	0.18673	0.072311	0.18242	0.16207	0.26338	0.17768	-2.3458	-2.5625	-2.6437	-2.9479	-2.6854	-2.8792	-3.0438	-2.6792	-3.0563	-2.8771	-2.55	-3.1271	-2.7042	-2.9417	-3.2604	-2.7062	-117.801	213.573	104.175	120.122	-86.836	-5.347	-130.715	181.262	-48.181	-13.768	35.942	99.778	-81.027	-73.524	-106.106	92.815	0.00038517	0.0020805	0.00022326	463.93	1.0315e-05	1.2031e-05	514.73	153.66	3.5388e-05	1.1755e-05	198.52	76.092	56.79	20.705	4.5754e-06	35.005	0.0056309	0.0056234	0.0015243	898.75	6.5757e-05	6.2082e-05	686.6	225.16	6.5027e-05	6.1307e-05	380.59	108.75	87.262	30.435	6.0116e-05	50.184	133.443	-78.096	-125.329	-119.149	-55.500	121.454	-120.191	-114.037	24.059	122.219	-116.125	-111.208	-109.923	-104.663	-101.932	-106.616	-8191	255	
3277.115	1	1	0	0	0.10841	0.12078	0.24317	0.16025	0.2511	0.17316	0.14799	0.074578	0.11848	0.10149	0.1456	0.045765	0.14154	0.42514	0.28755	0.2276	-2.3771	-2.7396	-2.5083	-3.2208	-2.9271	-2.8604	-3.0417	-2.6083	-2.6875	-2.7792	-2.6875	-3.0729	-2.6458	-2.5958	-2.875	-2.7125	27.061	-44.472	1.610	93.273	-127.436	-41.253	82.680	149.396	160.739	212.706	100.057	-115.247	84.189	198.959	-73.817	93.203	0.00040536	0.00034653	0.00024371	472.24	9.0678e-06	7.2445e-06	517.53	156.11	6.1633e-06	1.0219e-05	197.88	75.975	56.636	20.79	1.4482e-05	34.506	0.0054929	0.0055489	0.001584	914.06	6.3811e-05	6.1078e-05	694.3	227	6.2849e-05	5.9383e-05	384.97	108.5	85.921	30.151	6.2742e-05	49.656	138.087	-121.731	145.255	-119.459	23.123	2.844	-120.511	-113.629	31.223	116.269	-115.645	-110.960	-110.261	-104.528	217.742	-106.877	-8191	255	
3277.234	1	1	0	0	0.13658	0.13328	0.25188	0.11956	0.23817	0.14465	0.3218	0.10576	0.12676	0.25575	0.047335	0.14188	0.2319	0.075419	0.17674	0.17021	-2.4167	-2.9875	-2.5625	-3.0375	-2.8937	-2.6854	-3.075	-2.8917	-2.7979	-2.7958	-2.5583	-3.0646	-2.9604	-2.9292	-3.1604	-2.8542	-56.362	-130.464	-41.014	198.781	167.671	144.889	202.799	5.689	-47.263	-45.044	-15.109	124.322	113.645	-38.949	-90.075	-52.746	0.00056052	0.00033357	0.00063442	471.05	9.6901e-06	7.1932e-06	514.14	153.79	5.5762e-06	4.835e-06	197.41	75.717	56.364	20.477	8.2871e-07	34.354	0.005349	0.005405	0.0016563	906.93	6.2084e-05	6.003e-05	694.02	223.9	6.1234e-05	5.8704e-05	390.98	107.49	85.273	29.926	6.5838e-05	49.057	99.900	217.630	172.759	-118.833	39.559	73.870	-120.281	-113.807	-2.168	-92.022	-116.035	-110.703	-110.175	-104.721	142.150	-106.940	-8191	255	
3277.330	1	1	0	0	0.22741	0.063465	0.22717	0.1447	0.087979	0.17288	0.12486	0.037305	0.04228	0.02851	0.14076	0.22519	0.027968	0.16936	0.20076	0.11818	-2.3479	-3.0292	-2.6271	-2.9792	-2.6125	-2.4167	-2.9542	-2.8563	-2.8312	-3.2479	-2.7146	-2.85	-2.8937	-2.7729	-3.0354	-2.9375	-94.792	131.855	-35.117	192.040	18.330	23.476	-79.722	184.905	150.034	200.521	-46.612	-115.135	78.423	186.202	-47.198	82.002	0.0003648	0.0010533	0.00023536	468.98	2.231e-05	1.2047e-05	515.38	154.49	2.812e-06	1.0807e-05	194.67	76.323	56.91	20.785	1.2501e-05	35.093	0.0052654	0.0055019	0.0017361	899.05	6.1311e-05	6.1525e-05	705.52	224.06	6.1269e-05	6.1114e-05	401.44	108.06	85.54	30.508	6.797e-05	49.252	79.186	141.470	74.096	-119.365	-12.630	206.415	-120.469	-113.509	167.062	191.726	-116.427	-111.144	-110.217	-104.821	-79.750	-106.627	-8191	255	
3277.426	1	1	0	0	0.071465	0.18582	0.2607	0.058054	0.13876	0.33302	0.23827	0.099559	0.10819	0.25566	0.17625	0.27376	0.17449	0.18745	0.045025	0.12271	-2.2167	-2.8917	-2.7375	-2.9417	-2.9771	-2.7375	-3.0771	-2.6771	-2.7646	-2.9729	-2.7104	-2.9646	-2.9958	-2.6771	-3.1521	-2.7417	-119.233	-73.574	-43.817	103.368	-63.026	20.327	211.051	171.998	28.271	224.000	-27.846	188.425	208.825	-72.971	69.407	-118.422	0.00051979	0.0011988	0.0004562	470.77	1.4049e-05	1.2764e-05	520.5	156.42	4.7459e-06	1.029e-05	204.48	78.003	57.449	21.013	1.8678e-05	35.843	0.0051717	0.0056931	0.0017452	891.3	5.9881e-05	6.4406e-05	712.06	224.59	6.1462e-05	6.6036e-05	409.24	109.53	86.823	31.565	6.9632e-05	50.17	153.120	82.424	-60.821	-119.131	47.708	198.152	-120.390	-113.703	12.620	-127.918	-114.842	-111.003	-110.075	-104.370	-26.820	-106.783	-8191	255	
3277.522	1	1	0	0	0.15355	0.14564	0.028512	0.16548	0.28529	0.10878	0.059451	0.31936	0.0072875	0.1925	0.19108	0.42142	0.22482	0.22465	0.18086	0.074762	-2.1542	-2.8604	-2.6625	-2.7833	-2.9833	-2.7896	-3.2625	-2.9479	-2.7021	-3.1	-2.8083	-2.7042	-2.9833	-2.6271	-2.9979	-2.7417	-31.700	-93.259	-102.936	-107.440	-90.187	-124.996	166.242	164.476	141.659	-52.053	-105.735	44.565	142.168	157.741	197.628	77.084	0.00048638	0.001679	0.00024641	474.52	5.0379e-06	1.7274e-05	522.63	157.3	9.341e-06	9.0062e-06	203.77	77.538	57.18	20.923	1.9694e-05	35.177	0.0052754	0.0062213	0.0017644	897.8	6.1538e-05	6.9873e-05	716.12	225.48	6.1821e-05	6.9396e-05	403.14	108.86	86.713	31.787	6.7465e-05	49.319	105.971	-119.823	-15.787	-119.543	227.449	206.611	-119.867	-113.735	110.601	226.613	-115.442	-110.968	-110.126	-104.527	23.840	-106.613	-8191	255	
3277.618	1	1	0	0	0.29149	0.020961	0.15575	0.11618	0.1632	0.13507	0.24047	0.16012	0.11523	0.12482	0.17149	0.13558	0.40563	0.22051	0.08674	0.43378	-2.1312	-2.8854	-2.4771	-2.6583	-2.9667	-2.4771	-3.0583	-3.1625	-2.8063	-3.1396	-2.8583	-2.625	-2.9708	-2.7417	-2.8187	-3.0833	181.302	203.272	-32.683	-72.595	188.289	-22.255	122.171	54.050	143.254	139.731	60.841	225.581	199.940	-37.149	135.918	169.604	0.00072892	0.00018226	0.00024879	472.34	9.299e-06	1.1279e-05	516.58	155.67	2.3407e-05	4.8334e-06	200.56	76.182	56.674	20.873	8.0595e-06	34.885	0.005379	0.0064635	0.001712	887.13	6.3198e-05	7.0985e-05	702.74	221.73	6.379e-05	7.0414e-05	393.09	106.99	87.33	31.585	6.564e-05	48.714	104.240	107.467	26.473	-119.473	198.870	139.681	-120.063	-113.277	182.984	212.748	-115.731	-110.911	-110.199	-104.291	138.417	-106.848	-8191	255	
3277.714	1	1	0	0	0.27458	0.3328	0.17408	0.041508	0.070136	0.13354	0.41377	0.1848	0.42594	0.44036	0.16601	0.18493	0.11345	0.082212	0.18988	0.35119	-2.1937	-3.0229	-2.8125	-2.8271	-3.0583	-2.8375	-3.0042	-3.2417	-2.6542	-2.8563	-2.6771	-2.55	-2.7458	-2.7708	-3.075	-3.2229	-7.819	-75.013	39.980	82.680	205.031	44.098	188.194	48.146	0.684	-80.752	-16.740	187.737	62.852	30.293	93.030	180.949	0.00087432	0.0011925	0.00025527	474.2	9.3691e-06	3.5904e-06	519.75	156.85	1.7369e-05	1.7382e-05	203.11	76.845	57.16	21.106	1.2336e-05	35.009	0.0056318	0.0064702	0.0016549	879.09	6.6418e-05	7.0576e-05	702.26	222.32	6.7787e-05	7.0688e-05	392.13	107.94	89.517	31.596	6.5128e-05	49.19	114.125	106.801	-90.333	-119.183	158.085	0.182	-120.243	-113.539	191.383	42.972	-116.008	-111.061	-110.142	-104.879	64.876	-106.658	-8191	255	
3277.835	1	1	0	0	0.11361	0.11708	0.15115	0.33055	0.30886	0.06859	0.083226	0.30727	0.19789	0.078594	0.14818	0.11234	0.093385	0.18115	0.32914	0.098503	-2.2021	-3.0271	-2.9375	-2.4542	-3.0167	-2.7771	-2.9042	-3.1396	-2.8896	-2.9958	-2.8354	-2.7833	-3.1542	-2.6688	-2.5563	-2.8708	142.500	92.699	152.183	70.012	85.600	212.739	-97.983	-128.186	168.520	-116.831	86.916	211.769	180.029	154.808	-71.906	-15.849	0.00063087	0.0018439	0.00010126	468.56	1.5253e-05	1.7717e-05	522.17	156.59	1.8152e-06	1.48e-05	203.26	77.562	57.386	21.023	9.4612e-06	35.314	0.0059695	0.0063946	0.0016408	887.48	7.0479e-05	6.8739e-05	703.2	224.79	7.0859e-05	6.8992e-05	392.28	109.27	91	31.454	6.4561e-05	50.097	89.935	11.446	179.597	-119.323	-91.907	24.803	-120.233	-113.374	125.278	63.636	-115.435	-111.319	-110.578	-104.581	-45.306	-106.854	-8191	255	
3277.929	1	1	0	0	0.12989	0.10279	0.089858	0.15456	0.091113	0.18297	0.16467	0.16825	0.20143	0.19916	0.11347	0.35283	0.097846	0.18055	0.15536	0.11524	-2.3521	-2.8104	-3.0083	-2.6188	-3.0479	-2.6958	-2.7562	-3.0458	-2.5271	-2.8917	-2.9062	-2.6542	-2.8812	-2.8271	-2.6146	-3.1792	101.663	141.108	227.724	49.826	-51.806	42.601	124.427	-127.791	195.926	-32.292	205.109	214.332	-91.090	48.535	-90.940	110.573	0.00066566	0.0012693	0.00039929	468.72	2.5064e-05	1.3809e-05	525.78	158.44	4.5246e-06	4.5853e-06	204.81	78.467	58.271	21.309	1.7259e-05	35.63	0.006168	0.0062657	0.0016326	915.96	7.3485e-05	6.8273e-05	709.71	230.35	7.3324e-05	6.9125e-05	396.31	112.18	92.303	31.611	6.4501e-05	51.158	118.416	33.612	-24.093	-119.099	68.085	77.387	-120.306	-113.709	36.082	90.731	-115.499	-110.875	-109.977	-104.334	71.625	-106.573	-8191	255	
3278.025	1	1	0	0	0.17501	0.093665	0.060317	0.15609	0.265	0.35029	0.16031	0.27644	0.20257	0.13509	0.040294	0.075682	0.20363	0.1438	0.35339	0.21091	-2.2708	-2.8229	-2.9729	-2.6604	-2.9792	-2.8854	-2.8833	-2.9729	-2.725	-2.85	-3.0646	-2.7062	-3.15	-2.8708	-2.6583	-3.0438	-76.604	-20.170	-114.575	31.792	53.394	11.782	188.573	-102.113	82.774	-87.574	178.085	-104.719	174.172	54.563	165.767	171.987	0.00028259	0.0015897	0.00027918	477.66	1.189e-05	2.0592e-05	519.66	157.21	1.7073e-05	5.2198e-06	202.22	77.518	57.952	20.909	1.0058e-05	35.305	0.0061595	0.0062269	0.0016401	945.26	7.33e-05	6.8013e-05	706.53	233.95	7.1984e-05	6.8707e-05	395.62	112.66	91.271	31.337	6.6156e-05	51.494	115.290	-118.008	193.597	-119.646	-3.150	20.485	-120.430	-114.128	-55.811	-124.327	-115.433	-111.090	-110.021	-104.618	-86.045	-107.113	-8191	255	
3278.099	1	1	0	0	0.072375	0.10659	0.32061	0.046078	0.20728	0.098977	0.33307	0.079641	0.19484	0.07757	0.26956	0.17321	0.10396	0.3455	0.073531	0.10925	-2.2354	-2.7771	-2.9083	-2.6646	-2.875	-2.8063	-2.7333	-3.1292	-2.9375	-2.7604	-2.9188	-2.825	-2.7646	-2.8667	-2.6208	-3.2625	-108.382	138.802	-87.183	84.735	-83.350	-91.909	-78.882	-126.170	216.790	-125.942	105.266	-38.903	-103.375	190.133	104.077	198.492	0.00019797	0.0017656	0.0003506	476.01	1.3983e-05	1.455e-05	522.1	158.24	1.2021e-05	1.036e-05	201.95	77.955	58.201	21.043	8.3349e-06	35.48	0.006034	0.0062416	0.0016997	962.13	7.2201e-05	6.7703e-05	712.99	238.54	7.2403e-05	7.022e-05	412.13	115.09	91.991	31.569	7.1676e-05	52.408	181.310	-23.409	182.917	-119.559	22.808	-0.908	-120.448	-113.558	62.606	-33.179	-115.630	-111.032	-110.019	-104.681	188.745	-106.826	-8191	255	
3278.218	1	1	0	0	0.25714	0.063668	0.16211	0.38191	0.026715	0.21001	0.18068	0.07765	0.12125	0.075261	0.40996	0.063315	0.035962	0.043898	0.32298	0.027706	-2.425	-2.4667	-2.7042	-2.4729	-2.7313	-2.9771	-2.6042	-3.2479	-2.775	-2.6437	-3.0333	-2.5312	-2.875	-2.9479	-2.6083	-2.9625	47.988	-9.777	39.162	166.969	4.812	-17.846	-101.223	191.470	181.675	221.820	-57.237	80.087	4.175	-103.259	105.109	26.443	0.00042003	0.0010741	0.00042645	480.01	3.721e-06	3.7707e-06	521.9	160.21	3.4448e-05	7.8209e-06	203.94	79.039	58.883	21.315	5.2867e-06	36.342	0.0060348	0.0063173	0.0018389	972.03	7.1851e-05	6.7705e-05	727.04	239.48	7.0446e-05	6.9356e-05	425.81	115.47	92.384	32.025	7.7573e-05	53.306	136.012	13.554	144.533	-119.676	157.035	175.033	-120.380	-113.539	19.684	137.039	-116.028	-110.910	-110.359	-104.400	-95.452	-106.562	-8191	255	
3278.314	1	1	0	0	0.19176	0.16069	0.013205	0.11425	0.21132	0.09938	0.20008	0.22513	0.31174	0.38739	0.14892	0.067621	0.10524	0.23966	0.18704	0.19623	-2.1896	-2.6646	-2.9104	-2.6625	-2.7812	-3.0625	-2.7833	-2.8688	-2.6937	-2.625	-2.8729	-2.8458	-2.8375	-3.0146	-2.6104	-2.9979	-94.904	31.487	156.720	-111.557	-91.278	213.893	195.617	-107.660	104.692	23.653	-65.361	44.062	161.254	-113.547	154.079	-89.619	0.0003184	0.00051262	0.00046229	484.14	6.0394e-06	6.6664e-06	528.48	161.16	9.8062e-06	1.0702e-06	207.83	79.816	59.006	21.443	9.2092e-06	36.668	0.0061907	0.0066007	0.0020331	987.82	7.4472e-05	7.183e-05	747.77	242.19	7.1828e-05	7.299e-05	445.4	116.6	93.31	32.595	8.0516e-05	53.402	157.097	208.049	175.345	-119.161	38.225	-108.561	-120.237	-113.524	-10.136	33.766	-115.835	-111.119	-110.443	-104.660	-97.971	-106.768	-8191	255	
3278.410	1	1	0	0	0.14028	0.054315	0.11747	0.11085	0.096069	0.1733	0.29747	0.20453	0.0616	0.053042	0.17631	0.21258	0.15691	0.12668	0.15251	0.072854	-2.3958	-2.5083	-2.7646	-2.8187	-2.8187	-3.0167	-2.5438	-2.8146	-3.0312	-2.7438	-3.0062	-2.9729	-2.8375	-3.1792	-2.7708	-2.9062	-43.467	83.439	27.899	-108.079	195.560	157.119	202.945	-72.352	125.243	-53.688	-78.332	101.097	50.478	-16.377	-1.565	-131.156	0.00062376	0.00073295	0.00025797	480.09	1.7357e-05	9.5089e-06	524.29	160.43	1.0768e-05	1.4738e-05	204.75	79.168	58.239	21.099	1.8089e-05	35.719	0.0060489	0.0067948	0.0020786	966.87	7.24e-05	7.4323e-05	744.62	239.07	7.0581e-05	7.681e-05	444.26	114.69	92.169	32.81	8.0028e-05	52.26	128.114	125.859	142.481	-119.527	18.129	-103.970	-120.267	-113.591	108.499	-55.380	-115.647	-111.047	-110.236	-104.648	94.072	-106.889	-8191	255	
3278.506	1	1	0	0	0.12227	0.050593	0.23825	0.098436	0.17112	0.22156	0.20096	0.081465	0.029123	0.12585	0.1731	0.28107	0.25964	0.020798	0.059911	0.27645	-2.7938	-2.6729	-3.0146	-2.9479	-2.6063	-2.9625	-2.7188	-2.725	-3.1167	-2.6667	-2.7812	-2.8354	-2.6208	-3.0271	-2.6188	-2.8667	228.038	21.605	115.653	143.864	7.969	91.826	-86.929	154.602	139.225	60.541	3.275	196.688	-80.892	-32.065	-89.282	-48.072	0.0007803	0.0022751	0.00013457	475.17	5.0169e-06	2.0481e-05	523.83	161.17	1.863e-05	1.2695e-05	207.38	79.005	58.831	21.186	1.4919e-05	36.064	0.0059594	0.0070963	0.0020412	954.79	7.1178e-05	7.829e-05	739.27	237.53	6.9671e-05	7.9489e-05	438.31	114.1	92.244	33.233	7.693e-05	52.1	146.931	148.047	-107.884	-119.203	-109.018	-113.215	-120.237	-113.655	107.088	-121.899	-116.282	-110.725	-110.381	-104.599	-13.614	-106.735	-8191	255	
3278.627	1	1	0	0	0.34465	0.097367	0.16514	0.13649	0.24266	0.088422	0.21188	0.10741	0.12828	0.027066	0.066035	0.12279	0.14954	0.20093	0.26384	0.16624	-2.5792	-2.6937	-2.7938	-2.7604	-2.8312	-3.1562	-2.7146	-2.5458	-2.8042	-2.5521	-2.9604	-3.1042	-2.7687	-3.0521	-2.6437	-2.75	-102.898	71.700	-109.621	8.441	165.254	-38.120	86.833	213.833	33.045	-77.770	17.704	101.016	-38.288	-111.075	-62.053	205.894	0.0006253	0.00059588	0.00057515	478.48	1.4548e-05	5.8833e-06	526.01	160.47	1.7322e-05	8.4506e-06	210.54	79.862	59.115	21.584	1.269e-05	36.44	0.0059872	0.0073827	0.0019756	940.57	7.2225e-05	8.0078e-05	732.2	236.2	7.0943e-05	8.03e-05	430.19	114.12	93.512	33.699	7.4044e-05	52.406	107.797	174.652	-61.292	-119.017	122.894	-121.895	-120.520	-113.265	132.268	45.275	-115.034	-110.954	-110.472	-104.400	43.456	-106.937	-8191	255	
3278.699	1	1	0	0	0.16373	0.17076	0.067666	0.43886	0.15204	0.16299	0.13446	0.30327	0.23433	0.11684	0.39927	0.014217	0.091758	0.15774	0.19912	0.23012	-2.7021	-2.7354	-3.1208	-2.7208	-2.6771	-2.9479	-2.7729	-2.8042	-2.8812	-2.8792	-2.875	-3.0438	-2.6646	-2.8458	-2.65	-2.6813	171.547	90.549	146.550	-57.264	152.895	220.643	165.345	119.610	-23.414	-23.806	157.841	82.081	140.856	-4.236	-42.100	81.978	0.00072996	0.001796	0.00028115	479.97	7.0074e-06	2.0552e-06	530.83	162.39	2.6625e-05	7.5272e-06	210.65	81.028	59.842	21.838	2.3217e-05	37.073	0.0062375	0.0073687	0.0019233	935.39	7.6359e-05	8.1245e-05	735.11	238.28	7.5996e-05	8.0502e-05	431.94	115.2	96.024	33.845	7.3005e-05	52.983	113.149	-16.851	14.742	-119.285	-125.292	131.264	-120.372	-113.529	182.343	13.347	-114.984	-111.262	-110.404	-104.432	55.103	-106.813	-8191	255	
3278.795	1	1	0	0	0.0855	0.22563	0.029511	0.21611	0.31721	0.14912	0.28647	0.18656	0.38939	0.14546	0.24165	0.23631	0.11837	0.058016	0.073329	0.15429	-2.6188	-2.5854	-2.9396	-3	-2.6458	-2.925	-2.9896	-2.6188	-3.1896	-2.7042	-2.9479	-3.1	-2.7375	-3.1229	-3.075	-2.8167	-36.701	9.932	97.048	-77.345	-99.906	-38.627	-80.583	194.774	-71.123	-94.707	-35.857	-118.770	65.150	-62.693	-96.306	-41.495	0.0008098	0.0017812	0.00063698	483.23	1.2211e-05	4.9983e-06	531.53	162.45	3.8008e-06	1.5222e-05	208.31	80.152	59.174	21.388	1.5373e-05	36.006	0.0066211	0.0072265	0.001894	938.96	7.9887e-05	7.9557e-05	732.24	238.71	7.9822e-05	7.8533e-05	426.78	114.86	96.893	33.143	7.1067e-05	52.197	115.700	-55.590	-56.523	-119.118	-83.951	180.242	-120.136	-114.071	185.201	57.091	-115.331	-111.045	-110.239	-104.657	8.819	-107.075	-8191	255	
3278.915	1	1	0	0	0.035115	0.14979	0.28313	0.17379	0.10288	0.23841	0.25481	0.17584	0.075618	0.066756	0.22314	0.17727	0.089272	0.14656	0.10345	0.12998	-2.7667	-2.7042	-2.425	-2.9833	-2.7833	-2.9896	-3.0521	-2.5146	-2.8688	-2.7104	-2.9104	-3.1083	-2.4854	-2.9313	-3.0563	-2.8354	64.328	223.736	0.859	-114.682	57.605	209.482	63.651	-39.467	-43.588	58.823	202.594	168.622	-108.787	-122.088	-115.093	-123.105	0.00058787	0.0028444	0.00017487	478.75	6.0641e-06	9.0444e-06	526.63	160.81	5.9557e-06	8.0106e-06	209.65	79.687	59.498	21.447	7.2168e-06	36.309	0.0068046	0.0069296	0.0018303	943.41	7.9519e-05	7.4762e-05	719.63	238.26	7.8872e-05	7.4149e-05	417.55	115.26	96.234	32.757	6.9171e-05	52.929	128.590	-75.737	-56.907	-119.160	58.722	60.841	-120.084	-113.711	63.739	-39.750	-115.050	-111.175	-110.153	-104.461	-0.229	-106.920	-8191	255	
3279.010	1	1	0	0	0.19752	0.35336	0.14363	0.10238	0.059932	0.15703	0.10222	0.21731	0.18302	0.1275	0.055597	0.22106	0.16825	0.038154	0.23153	0.22829	-2.6437	-2.6292	-2.6208	-3.1375	-2.7396	-2.875	-2.9146	-2.5104	-2.9875	-2.8917	-2.5646	-3.3708	-2.8083	-2.7083	-2.9896	-2.7583	178.500	-103.242	-46.483	-94.987	178.113	-1.840	72.562	44.605	215.102	0.871	-43.153	125.860	-41.862	-13.733	-3.318	71.189	0.00034446	0.001416	0.00014454	479.58	1.7117e-05	1.1783e-05	525.71	161.4	2.2308e-05	1.7029e-05	209.9	80.185	59.431	21.511	1.4603e-05	36.58	0.0067335	0.0067022	0.0017951	970.16	7.8697e-05	7.3458e-05	717.84	241.92	7.7125e-05	7.2042e-05	415.32	116.93	94.826	32.493	6.7389e-05	53.449	144.548	-61.983	-72.521	-119.676	1.871	106.963	-120.220	-114.082	31.580	-8.944	-115.525	-110.833	-110.178	-104.602	212.620	-107.074	-8191	255	
3279.108	1	1	0	0	0.22929	0.12216	0.016159	0.051051	0.33529	0.040477	0.12564	0.1826	0.1223	0.07777	0.27058	0.12612	0.056625	0.32532	0.17775	0.039776	-2.6583	-2.6813	-2.6354	-2.9958	-2.6125	-2.6833	-2.8792	-2.5833	-3.0292	-3	-2.8542	-3.1	-2.625	-2.8396	-3.0917	-2.8396	200.388	182.122	59.536	-62.332	60.919	-130.508	227.809	-82.111	203.108	220.923	-58.412	-131.591	-101.689	124.549	-92.734	152.770	0.00052724	0.0013037	0.00010694	484.71	1.0737e-05	6.22e-06	526.73	161.27	2.1915e-05	1.0842e-05	210.04	80.344	59.385	21.507	1.6291e-05	36.573	0.0063678	0.00638	0.0017714	976.38	7.402e-05	7.0892e-05	721.68	243.23	7.3688e-05	6.9613e-05	420.13	117.94	93.744	32.337	7.076e-05	54.076	158.065	-3.814	221.722	-119.789	-64.476	62.915	-120.159	-113.717	23.850	85.031	-116.261	-110.961	-109.816	-104.518	-101.714	-106.683	-8191	255	
3279.226	1	1	0	0	0.19321	0.12605	0.11366	0.17533	0.1136	0.10092	0.038976	0.27923	0.27526	0.063527	0.10848	0.1846	0.26788	0.055933	0.12882	0.31703	-2.5438	-2.8417	-2.4938	-2.9	-2.65	-2.6646	-3.15	-2.7896	-3	-2.9979	-2.4729	-3.0229	-2.7854	-2.7667	-3.0729	-2.8625	42.454	161.309	-21.176	194.277	-110.365	40.964	-22.410	181.780	113.622	-89.201	99.506	-109.109	-69.491	-17.875	75.894	161.421	0.00050626	0.0014963	0.00054248	479.26	1.1431e-05	1.1265e-05	525.76	161.04	7.3841e-06	2.1731e-05	205.52	79.623	59.138	21.125	1.8097e-05	35.972	0.0062842	0.0063377	0.0018783	989.93	7.2685e-05	6.9758e-05	729.52	242.86	7.223e-05	6.8621e-05	428.08	116.76	92.4	31.841	7.4481e-05	52.755	131.603	-51.739	205.985	-119.319	-80.818	88.546	-120.514	-113.874	16.697	7.001	-116.180	-110.778	-110.298	-104.729	214.407	-106.644	-8191	255	
3279.323	1	1	0	0	0.17371	0.070755	0.19578	0.13203	0.15506	0.33962	0.14112	0.1387	0.10869	0.18673	0.27514	0.065235	0.1375	0.15546	0.38636	0.096253	-2.5271	-3.0979	-2.6396	-3.1146	-2.8917	-2.675	-3.1583	-2.8208	-2.9417	-3.0625	-2.6667	-2.8458	-2.7542	-2.6125	-3.0229	-2.9417	222.715	118.120	219.876	-7.816	90.183	110.717	-50.517	91.751	78.584	21.533	129.318	-111.402	95.754	215.533	170.574	-86.757	0.00032355	0.00054926	0.0003476	477.25	1.0052e-05	1.0308e-05	521.51	160.27	1.6687e-05	5.8759e-06	207.03	78.994	58.649	20.942	1.9483e-05	35.781	0.0060799	0.0062123	0.0019427	967.3	7.0577e-05	6.955e-05	731.86	239.22	7.1474e-05	6.9733e-05	438.82	115.55	91.772	31.924	7.8256e-05	52.151	147.418	-105.719	128.792	-118.751	45.859	193.551	-120.259	-113.684	5.431	-66.867	-115.833	-110.980	-109.956	-104.659	-78.232	-106.648	-8191	255	
3279.394	1	1	0	0	0.1835	0.17303	0.019641	0.17746	0.20861	0.22404	0.12221	0.098302	0.20642	0.16422	0.31328	0.31438	0.15482	0.12653	0.11104	0.24195	-2.3292	-2.9938	-2.6375	-2.8063	-2.9729	-2.8854	-3.2521	-2.8375	-2.6542	-2.7646	-2.5604	-3.0646	-3.0958	-2.8521	-2.975	-2.8542	110.995	-11.510	153.329	-115.930	183.843	-51.938	184.823	155.847	2.462	86.268	-83.070	207.384	188.088	-7.635	207.998	129.437	0.00027456	0.0011458	8.2621e-05	479.22	1.0303e-05	1.3537e-05	523.82	160.85	1.3328e-05	1.0839e-05	208.63	80.25	59.234	21.247	2.853e-05	36.267	0.0060486	0.0064693	0.0020334	961.09	6.9887e-05	7.2724e-05	739.53	237.87	6.9699e-05	7.2335e-05	440.06	115.34	91.436	32.549	7.8459e-05	52.494	150.612	91.683	140.185	-118.901	3.803	-127.584	-120.044	-113.009	20.977	-102.524	-115.654	-111.061	-110.180	-104.887	43.322	-106.852	-8191	255	
3279.515	1	1	0	0	0.30361	0.17904	0.24504	0.07557	0.050298	0.17496	0.099058	0.062711	0.11998	0.2189	0.06809	0.045732	0.074002	0.16892	0.18195	0.21402	-2.4125	-2.9042	-2.3937	-2.7396	-2.9292	-2.6562	-3.1063	-2.8229	-2.6604	-3.0458	-2.7333	-2.7167	-2.9646	-2.5958	-2.9292	-3.15	-13.616	201.132	-108.120	-49.603	87.113	-37.576	97.766	-24.657	89.464	-44.046	174.477	-9.794	49.475	164.450	114.460	-9.981	0.00067227	0.0013474	0.00025924	483.41	3.9985e-06	2.0468e-05	526.78	162.96	7.1454e-06	1.5613e-05	212.03	80.921	59.574	21.565	2.054e-05	36.993	0.0059258	0.0068211	0.0020143	955.97	6.9278e-05	7.6652e-05	742.62	238.44	7.022e-05	7.8008e-05	443.97	116.89	92.736	33.652	7.8917e-05	53.342	141.027	182.045	-28.509	-118.888	-0.927	205.520	-119.920	-113.317	191.550	-118.072	-115.860	-110.708	-110.164	-104.703	-0.081	-107.019	-8191	255	
3279.611	1	1	0	0	0.23112	0.14627	0.2111	0.065327	0.13414	0.2624	0.16444	0.28176	0.18166	0.27195	0.20508	0.11074	0.32333	0.049172	0.094248	0.16712	-2.3208	-2.9333	-2.5938	-2.8542	-3.0979	-2.6333	-3.025	-2.6604	-2.6083	-3.2562	-2.7958	-2.8146	-2.9583	-2.6583	-2.9896	-3.1271	223.508	-21.012	-86.779	22.434	-95.175	110.793	-126.906	-65.822	171.264	97.356	-3.840	101.268	180.748	34.069	-94.094	144.090	0.00074334	0.0011604	0.0001178	485.37	1.0817e-05	1.9361e-05	534.33	162.79	2.2324e-05	6.6469e-06	212.32	81.585	59.508	21.615	2.7173e-05	36.717	0.0061457	0.0073884	0.0020271	962.61	7.2463e-05	8.234e-05	746.53	240.23	7.3353e-05	8.2178e-05	438.26	116.7	94.277	34.042	7.7683e-05	52.994	120.606	184.091	-27.363	-118.901	192.885	-96.034	-119.987	-113.312	168.346	57.605	-115.070	-110.791	-110.603	-104.547	-25.253	-106.648	-8191	255	
3279.707	1	1	0	0	0.20629	0.070674	0.20571	0.18492	0.17012	0.25275	0.13756	0.074805	0.10286	0.206	0.077653	0.15139	0.11971	0.17069	0.079857	0.1754	-2.1396	-3.0021	-2.6125	-2.6688	-3.1792	-2.9708	-3.0563	-3.0667	-2.7479	-2.9542	-2.6312	-2.7833	-3.0708	-2.6375	-2.6333	-2.9979	-60.293	-90.987	218.232	138.489	-29.384	93.461	164.955	134.343	132.612	46.630	15.034	212.196	90.093	145.197	220.514	209.878	0.00064455	0.00056332	0.0002624	481.72	2.3548e-05	5.8446e-06	528.37	162.16	2.2811e-05	1.8562e-05	212.52	81.49	59.799	21.751	6.5178e-06	36.999	0.0065058	0.0077172	0.0019984	962.96	7.7571e-05	8.4522e-05	741.97	240.05	7.9289e-05	8.5411e-05	442.23	117.19	97.427	34.365	7.8711e-05	53.464	109.361	-32.177	-45.134	-119.575	198.719	88.766	-120.167	-113.483	144.579	-36.544	-115.741	-110.901	-110.317	-104.486	-72.322	-106.832	-8191	255	
3279.803	1	1	0	0	0.08838	0.16285	0.26029	0.09211	0.1173	0.29712	0.07884	0.17215	0.10338	0.29063	0.12504	0.2671	0.1808	0.16239	0.23106	0.16381	-2.0292	-2.7771	-2.8146	-2.7375	-3.0938	-2.7146	-2.85	-2.7938	-2.55	-2.8375	-2.8104	-2.6937	-3.1688	-2.7167	-2.8604	-2.9396	63.760	-66.494	-71.075	-9.660	-41.168	-99.711	106.112	-64.750	60.667	16.981	-41.728	107.605	-64.620	156.718	115.675	-108.010	0.00081382	0.0018226	0.00044721	476.51	5.7823e-06	1.1841e-05	531.18	164	7.6281e-06	8.9874e-06	213.41	82.43	60.56	22.202	1.5953e-05	37.386	0.0070305	0.0077975	0.0019993	972.99	8.4422e-05	8.5539e-05	748.12	244.64	8.6155e-05	8.6637e-05	449.93	120.6	101.84	35.152	8.3052e-05	55.356	117.285	19.416	-110.829	-119.737	210.897	97.097	-120.011	-113.823	118.556	-9.742	-115.602	-110.990	-110.176	-104.819	-36.004	-106.916	-8191	255	
3279.922	1	1	0	0	0.25311	0.2006	0.21356	0.18106	0.10575	0.22853	0.080341	0.23415	0.086574	0.044425	0.16272	0.11061	0.15956	0.056324	0.20398	0.085924	-2.2188	-2.7167	-2.9	-2.6146	-2.8937	-2.7229	-2.7542	-2.9125	-2.6792	-2.9917	-2.8312	-2.7542	-3.0333	-2.9458	-2.7417	-3.1271	17.323	200.061	173.893	94.875	162.221	28.982	176.473	-28.343	3.508	208.327	228.149	213.842	-4.862	-28.031	-17.518	76.369	0.00097205	0.0017692	0.00012603	481.28	6.8693e-06	1.4969e-05	533.56	165.68	8.817e-06	1.2962e-05	215.6	83.274	61.672	22.339	2.4083e-05	38.437	0.0077459	0.0080102	0.0020702	1012.9	9.0543e-05	8.5487e-05	753.15	250.85	9.0532e-05	8.6367e-05	452.75	123.66	103.65	35.164	8.2655e-05	57.194	122.770	-63.324	-7.460	-118.873	-126.448	29.147	-120.135	-113.407	122.586	50.068	-115.470	-111.192	-110.147	-104.607	22.580	-106.783	-8191	255	
3279.996	1	1	0	0	0.23967	0.073045	0.18461	0.083845	0.076253	0.076882	0.14778	0.15977	0.07383	0.049523	0.011183	0.24596	0.09242	0.24055	0.061725	0.042771	-2.2188	-2.9938	-2.9458	-2.625	-3.0583	-2.725	-2.7583	-2.8604	-2.6833	-2.7812	-2.8729	-2.6292	-3.1458	-3.0062	-2.4833	-2.975	195.029	227.764	-93.789	17.602	-17.202	39.561	-62.935	-44.979	-24.501	124.028	51.253	128.635	45.489	-99.556	-15.364	208.410	0.0003959	0.0013852	0.00026339	485.03	1.0973e-05	6.8747e-06	539.81	168.33	1.6333e-05	1.1084e-05	219.16	84.578	61.943	22.463	1.0772e-05	38.24	0.007935	0.0080314	0.0021114	1063.3	9.5046e-05	8.8031e-05	768.02	262	9.4067e-05	8.8941e-05	462.6	127.8	104.3	35.189	8.2364e-05	58.126	159.653	-54.204	20.743	-120.053	-45.743	1.135	-120.005	-113.411	-17.760	5.347	-115.808	-111.121	-110.051	-104.798	44.297	-106.851	-8191	255	
3280.090	1	1	0	0	0.23389	0.12451	0.16078	0.19911	0.22899	0.41477	0.098921	0.15282	0.19028	0.17682	0.09339	0.18822	0.29082	0.1464	0.04717	0.086832	-2.1792	-2.6146	-2.8438	-2.7604	-2.9208	-2.9542	-2.6229	-3.1646	-2.5771	-2.6833	-2.9667	-2.7333	-2.9021	-2.9	-2.6271	-2.8833	16.631	14.341	-15.155	-18.294	126.835	94.211	116.996	-46.465	120.416	117.004	-42.674	109.645	88.381	148.865	169.050	167.391	0.00054421	0.0021897	0.00031112	486.45	1.5547e-05	9.7359e-06	534.69	166.29	2.0094e-05	1.9338e-05	216.35	83.59	61.731	22.248	1.2905e-05	38.041	0.0077292	0.0079049	0.0021148	1089.2	9.2546e-05	8.599e-05	764.95	264.11	9.0518e-05	8.6995e-05	465.98	128.25	103.3	34.957	8.6469e-05	58.442	154.624	24.306	74.711	-119.688	5.847	80.202	-120.111	-113.554	-16.710	-4.014	-115.539	-111.211	-109.855	-104.661	155.382	-106.951	-8191	255	
3280.188	1	1	0	0	0.026929	0.25004	0.19614	0.20946	0.1885	0.20119	0.12536	0.15122	0.069787	0.05707	0.041683	0.094602	0.22102	0.17843	0.16317	0.2659	-2.1896	-2.8208	-2.8812	-2.6021	-2.9333	-2.6813	-2.3854	-3.0625	-2.7771	-2.7292	-3.2062	-2.625	-2.8458	-2.8854	-2.5896	-2.9479	204.344	-92.598	107.585	209.077	-27.216	-26.084	149.730	157.352	0.565	83.543	3.269	-107.385	176.534	139.200	-97.780	183.015	0.00031827	0.0017201	0.00071167	484.34	1.7152e-05	4.8647e-06	536.86	168.11	8.317e-06	1.0896e-05	218.16	84.897	61.904	22.376	2.1235e-05	38.536	0.0075895	0.0078412	0.0022209	1100.4	8.9793e-05	8.4002e-05	773.09	265.68	8.8815e-05	8.6939e-05	486.11	129.91	104.14	35.435	9.5302e-05	59.725	175.549	-50.683	160.702	-118.457	3.139	-43.316	-120.253	-113.243	-3.439	66.130	-115.901	-110.827	-110.169	-104.721	-99.234	-106.904	-8191	255	
3280.307	1	1	0	0	0.075972	0.20286	0.4819	0.25773	0.13021	0.21007	0.099966	0.12082	0.18988	0.073368	0.042083	0.22578	0.1745	0.37461	0.2793	0.086836	-2.3917	-2.5417	-2.9125	-2.5625	-2.6229	-2.9229	-2.7438	-3.1333	-2.8229	-2.6875	-2.8583	-2.5396	-2.8792	-3.0375	-2.6792	-3.0167	-131.423	-21.033	218.904	70.441	151.969	211.835	136.178	72.564	125.721	-4.568	192.646	198.625	-91.244	-54.598	28.954	-23.076	0.00071434	0.00064441	0.00033194	492.03	1.8205e-05	1.49e-05	538.11	169	2.2641e-05	2.578e-05	220.37	85.559	63.028	22.442	1.6146e-05	39.092	0.0078604	0.0082652	0.0025141	1134	9.4825e-05	9.0209e-05	802.99	272.25	9.3734e-05	9.3729e-05	524.82	133.06	107.31	36.647	0.00010671	61.249	170.494	-31.225	187.860	-119.113	-26.492	61.561	-120.530	-113.533	49.725	214.345	-116.146	-110.861	-110.254	-104.781	-86.813	-106.746	-8191	255	
3280.403	1	1	0	0	0.16247	0.13211	0.16112	0.12327	0.21958	0.16444	0.10097	0.19169	0.14766	0.1356	0.15251	0.14153	0.34202	0.22108	0.1717	0.29478	-2.55	-2.7917	-3.1104	-2.8604	-2.7646	-3.0479	-2.5417	-2.8563	-2.7667	-2.8312	-3.0875	-2.8042	-2.7938	-2.8542	-2.6167	-2.9854	-38.375	-96.014	218.871	94.876	118.980	-53.521	133.059	178.744	79.648	226.151	-73.766	-127.222	181.805	-128.206	108.981	224.463	0.0005481	0.0019532	0.00011861	493.94	1.6079e-05	1.2231e-05	545.09	171.12	1.9747e-05	1.8755e-05	224.44	86.576	62.9	22.645	5.8069e-06	39.29	0.0082203	0.0089593	0.002761	1148.9	9.8346e-05	9.7953e-05	829.44	275.93	9.6335e-05	0.00010058	541.93	133.31	107.1	37.376	0.0001067	60.438	124.855	-125.866	-126.122	-119.110	25.005	-121.562	-119.884	-113.337	8.588	-117.816	-115.368	-111.017	-110.203	-104.671	23.843	-106.793	-8191	255	
3280.499	1	1	0	0	0.078936	0.081535	0.032915	0.093884	0.23685	0.33179	0.05985	0.1381	0.12634	0.18168	0.1198	0.37641	0.18531	0.083473	0.2117	0.14673	-2.5104	-2.5938	-2.7562	-2.8292	-2.7958	-2.9542	-2.8646	-2.9979	-3.0458	-2.6375	-3.1792	-2.9604	-2.6583	-3.1437	-2.6729	-2.8125	-5.283	88.466	118.172	160.384	98.994	185.250	100.357	-33.998	168.421	14.709	13.462	210.803	14.547	100.612	111.544	-14.941	0.00047885	0.0020972	0.00054387	490.75	1.482e-05	2.7337e-05	538.99	169.65	1.0689e-05	1.9062e-05	222.25	84.508	62.156	22.204	2.4171e-05	38.275	0.0078743	0.0091716	0.0027167	1116.4	9.5044e-05	0.00010147	817.08	270.94	9.3296e-05	0.00010464	532.07	130.4	105.81	37.668	0.0001057	59.462	118.229	159.526	-46.782	-119.544	-40.712	189.187	-120.060	-113.336	-6.405	209.167	-115.447	-110.947	-110.252	-104.766	5.399	-106.836	-8191	255	
3280.595	1	1	0	0	0.1186	0.16901	0.35516	0.035739	0.24408	0.19761	0.29181	0.054398	0.028507	0.10109	0.065391	0.17275	0.10107	0.075312	0.080617	0.086881	-2.475	-2.6188	-2.8208	-2.7333	-2.3917	-2.8583	-2.7021	-2.7708	-2.9354	-2.7229	-3.075	-3.1208	-2.7875	-3.1021	-2.6792	-2.7875	-56.926	17.977	117.456	132.546	-46.246	72.946	193.518	-16.316	223.973	-12.335	-43.942	180.249	-94.929	195.017	155.502	-62.629	0.00069109	0.0020234	0.00066768	486.03	3.1887e-06	1.0508e-05	542.56	169.08	2.6172e-05	1.5279e-05	219.9	85.222	62.675	22.33	1.779e-05	38.766	0.0080287	0.0098938	0.002751	1127	9.9865e-05	0.00011135	821.64	274.82	0.00010001	0.0001149	541.1	132.57	109.71	39.28	0.00010901	60.736	133.181	212.739	-56.933	-119.235	223.347	-115.734	-120.031	-113.210	215.883	77.136	-114.978	-111.022	-110.316	-104.480	-20.103	-106.747	-8191	255	
3280.691	1	1	0	0	0.20903	0.10459	0.14267	0.097805	0.072718	0.0647	0.30529	0.24523	0.06139	0.13258	0.11158	0.10371	0.038116	0.32607	0.062051	0.24204	-2.4458	-2.3604	-2.6542	-2.8812	-2.6854	-3.0062	-2.9771	-2.7333	-3.2167	-2.7687	-3.0938	-3.2188	-2.8563	-3.1021	-2.9583	-2.775	-109.774	-86.662	191.770	44.494	163.037	186.830	166.280	225.740	-117.597	-88.687	12.901	155.558	6.972	124.665	70.466	-92.253	0.00097039	0.0016339	0.00084383	499.38	1.9755e-05	2.9919e-06	545.54	171.15	3.0699e-05	2.8295e-05	225.6	85.283	62.539	22.656	1.5995e-05	38.847	0.0088402	0.010764	0.0028623	1165.8	0.00011101	0.00012187	833.56	279.65	0.00011108	0.00012144	548.29	133.76	113.57	39.879	0.00010947	61.574	112.180	-124.652	-78.068	-118.553	193.722	189.149	-120.156	-113.079	207.152	17.527	-114.841	-111.096	-110.299	-104.191	-0.893	-106.634	-8191	255	
3280.788	1	1	0	0	0.031268	0.29669	0.17026	0.22285	0.25246	0.13874	0.051082	0.19661	0.40154	0.077205	0.22991	0.099451	0.29571	0.16196	0.048069	0.16208	-2.5083	-2.7062	-2.8083	-2.95	-2.6604	-2.9417	-2.9979	-2.7562	-3.1917	-2.7083	-2.9437	-3.1854	-2.8479	-2.975	-2.8333	-2.7958	196.207	-61.237	-116.061	-111.369	217.553	-14.007	37.510	102.029	71.848	7.665	-30.109	28.877	174.416	-114.126	128.615	155.056	0.00084603	0.0013492	0.0005021	499.01	1.5027e-05	1.2829e-05	549.09	170.65	3.1294e-05	5.3437e-06	225.83	86.359	62.821	22.868	2.0665e-05	39.354	0.0096766	0.010964	0.0028681	1166.5	0.00011817	0.00012106	833.27	280.9	0.00011899	0.00012111	554.59	136.53	118.06	40.301	0.00011018	62.398	108.623	-69.479	-43.123	-119.005	213.009	53.899	-119.970	-113.333	205.630	-49.571	-115.440	-111.078	-110.633	-104.674	12.518	-106.810	-8191	255	
3280.908	1	1	0	0	0.13031	0.10417	0.23434	0.064126	0.19189	0.216	0.03241	0.18294	0.12298	0.099001	0.12075	0.14535	0.17013	0.13858	0.19791	0.18326	-2.7875	-2.9313	-2.7792	-3.1	-2.7729	-2.7729	-2.9437	-2.6479	-2.9271	-2.7062	-2.8	-3.0917	-2.7812	-2.9833	-2.9417	-2.7625	1.508	128.957	12.227	-123.260	105.393	-32.205	-66.036	167.865	-51.992	11.331	-35.991	129.966	-17.764	166.320	46.637	204.977	0.00089091	0.0027465	0.00016732	490.45	6.7585e-06	9.5935e-06	542.32	170.34	1.0009e-05	2.2334e-05	218.47	84.257	62.182	22.345	1.5207e-05	38.32	0.010127	0.010497	0.002768	1160.9	0.00011735	0.00011266	812.7	277.54	0.00011645	0.00011104	526.03	133.41	114.67	38.347	0.00010184	61.006	121.141	-34.155	206.458	-119.675	189.563	-39.733	-120.135	-113.701	-56.876	13.037	-115.672	-111.208	-110.438	-104.830	33.582	-107.073	-8191	255	
3281.003	1	1	0	0	0.25305	0.22034	0.26399	0.25757	0.24862	0.1427	0.16166	0.092557	0.17972	0.24132	0.093688	0.20551	0.28514	0.14048	0.12362	0.22897	-2.7375	-2.8125	-2.6875	-3.1417	-2.7229	-2.7812	-2.95	-2.5729	-2.95	-2.5896	-2.6229	-2.9354	-2.5854	-2.875	-2.8333	-2.4542	-66.164	50.065	-90.122	7.591	-21.333	172.998	-79.864	-123.520	-41.117	179.508	104.496	-112.523	-67.468	-70.127	-122.668	-86.114	0.00022773	0.0027821	0.00053835	489.19	1.3125e-05	8.0812e-06	537.43	169.19	1.7626e-05	2.4523e-06	219.7	84.151	62.314	22.137	1.5447e-05	38.266	0.0098149	0.0098337	0.002647	1178.9	0.0001161	0.00010877	804.16	280.55	0.0001148	0.00010732	519.42	135.17	113.55	38.047	0.00010053	62.051	159.478	-56.977	28.435	-119.567	59.665	82.865	-120.227	-113.846	-75.745	177.603	-115.698	-111.091	-109.946	-104.686	80.835	-106.888	-8191	255	
3281.099	1	1	0	0	0.24157	0.2215	0.32689	0.23256	0.19335	0.15236	0.034321	0.11746	0.39882	0.091533	0.17906	0.062504	0.022912	0.3854	0.063838	0.1316	-2.4896	-2.7021	-2.6437	-3.0563	-2.5854	-2.7146	-2.9833	-2.6688	-2.9979	-2.8958	-2.8563	-3.0042	-2.8646	-2.8771	-3.0042	-2.7562	68.938	-23.299	33.808	198.153	-129.860	131.127	103.594	21.796	-59.963	112.530	52.746	31.646	108.295	-105.248	39.162	-54.406	0.00051831	0.0022842	0.00048581	489.93	1.9632e-05	1.5442e-05	540.78	170.7	1.1341e-05	8.759e-06	220.15	85.36	62.92	22.525	2.1191e-05	39.151	0.0096864	0.0097374	0.0026625	1219.1	0.00011409	0.00010839	812.16	287.27	0.00011356	0.00010697	530.6	138.88	113.88	38.551	0.00010768	64.415	132.030	2.979	-77.711	-119.038	25.781	64.090	-120.230	-113.919	15.826	42.408	-116.462	-111.345	-110.030	-104.768	176.638	-107.213	-8191	255	
3281.219	1	1	0	0	0.15109	0.17125	0.13827	0.13847	0.085853	0.027607	0.21758	0.028338	0.22942	0.12368	0.17203	0.10186	0.12606	0.15128	0.066862	0.043595	-2.4292	-2.6562	-2.5917	-3.1083	-2.5687	-2.5938	-3.0875	-2.8208	-2.8354	-2.8729	-2.65	-2.8667	-2.7417	-2.5854	-3.1583	-2.7833	32.494	58.368	5.585	181.476	148.640	184.378	172.701	9.014	-52.764	13.412	-82.376	-125.103	67.137	-74.785	133.193	212.240	0.00046599	0.0033245	0.00021076	493.84	2.0369e-05	1.8765e-05	545.09	171.76	2.0502e-05	1.2873e-05	221.56	86.488	63.491	22.827	1.27e-05	39.439	0.00996	0.010173	0.0029453	1302.6	0.00011965	0.00011588	847.83	299.36	0.0001201	0.00011471	574.29	144.55	116.67	39.504	0.00012057	66.043	129.248	-43.604	228.202	-118.743	55.805	0.232	-120.259	-113.246	13.794	105.617	-115.738	-110.795	-110.321	-104.766	140.406	-106.766	-8191	255	
3281.291	1	1	0	0	0.22228	0.12528	0.10906	0.15465	0.047174	0.19624	0.18131	0.28258	0.27972	0.046341	0.24141	0.11651	0.1904	0.099044	0.13308	0.12218	-2.3417	-3.0521	-2.5896	-2.9437	-2.7188	-2.6146	-3.1271	-2.6604	-2.8875	-3.1937	-2.4833	-2.9458	-2.8854	-2.5938	-2.9146	-2.7521	164.713	132.456	-100.599	-15.282	11.107	-69.948	53.947	-116.569	183.649	177.821	154.907	-70.700	168.434	170.868	209.170	-59.184	0.00043499	0.0016528	0.00059817	497.4	3.5745e-06	2.0807e-05	543.46	170.83	1.3199e-05	6.1831e-06	219.5	84.939	62.573	22.117	2.2877e-05	38.445	0.010116	0.010214	0.0031103	1284.2	0.0001139	0.00010968	845.71	289.25	0.00011037	0.00010566	562.29	138.52	111.76	38.027	0.00011825	62.623	136.364	209.334	208.911	-118.441	-24.286	21.959	-120.466	-113.534	-7.334	23.869	-116.279	-110.995	-110.430	-104.976	201.574	-106.795	-8191	255	
3281.387	1	1	0	0	0.19542	0.35261	0.052263	0.28864	0.11905	0.13653	0.172	0.093354	0.21086	0.26337	0.12161	0.23929	0.084881	0.35879	0.24465	0.18307	-2.3063	-2.8229	-2.5625	-2.9437	-2.8	-2.5812	-2.9479	-2.7792	-2.7938	-3.0396	-2.6	-3.0062	-2.9375	-2.7292	-3	-2.8479	101.552	93.441	89.775	-72.811	44.305	103.697	155.297	-64.904	21.323	-87.816	225.182	160.427	-25.753	142.601	195.598	188.768	0.00034627	0.0025905	0.00018852	489.46	1.1186e-05	5.2713e-06	537.01	168.99	1.971e-05	1.3239e-05	219.14	84.807	62.395	22.28	8.2536e-06	38.241	0.0092959	0.0097312	0.0030628	1227.3	0.00010686	0.0001081	843.31	281.72	0.0001056	0.00010633	561.53	134.8	108.69	37.878	0.00011556	61.008	190.765	221.036	221.685	-119.920	29.110	-111.409	-120.403	-113.349	-53.143	-89.482	-115.324	-110.904	-110.019	-104.881	44.734	-106.827	-8191	255	
3281.482	1	1	0	0	0.16155	0.10615	0.07314	0.29045	0.12076	0.061022	0.17277	0.16446	0.14371	0.15255	0.037235	0.11234	0.19449	0.37744	0.156	0.18829	-2.2958	-2.875	-2.5375	-2.8146	-2.9604	-2.8833	-3.0167	-2.8958	-2.4458	-2.9583	-2.5646	-2.7167	-2.975	-2.7167	-3.1604	-3.0479	-33.845	152.707	71.877	124.832	85.727	35.996	122.362	136.951	35.209	-47.205	-112.932	208.723	150.821	166.591	217.859	-118.864	0.00070464	0.00258	0.00028481	492.84	5.3705e-06	3.9294e-06	541.64	170.52	1.5251e-05	2.2087e-05	222.9	85.445	62.548	22.471	2.6844e-05	38.724	0.0087092	0.0097091	0.0029384	1172.7	0.00010055	0.00010881	837.95	277.74	0.00010281	0.00011163	560.41	135.1	108.87	38.905	0.00011411	61.145	152.968	172.435	-62.779	-119.643	67.159	223.123	-120.111	-113.021	-89.248	179.014	-115.504	-110.913	-110.052	-105.097	31.072	-106.630	-8191	255	
3281.602	1	1	0	0	0.11175	0.05751	0.16274	0.276	0.1438	0.092065	0.25791	0.13336	0.16421	0.17546	0.11953	0.11082	0.088808	0.074248	0.092517	0.17017	-2.2667	-2.8875	-2.5812	-2.6729	-2.8771	-2.6396	-3.2833	-3.1771	-2.5854	-3.0563	-2.7458	-2.8396	-2.8521	-2.525	-2.7521	-2.6396	-60.379	-99.204	21.238	135.736	21.840	-110.835	-78.193	137.050	-17.068	14.499	167.149	57.375	-38.849	224.083	174.693	153.883	0.00056636	0.0028781	0.00080899	488.91	1.1999e-05	1.2388e-05	542.03	171.92	7.5384e-06	1.0761e-05	228.14	86.285	63.119	22.685	3.7164e-05	39.215	0.0086532	0.010248	0.0028764	1165.1	0.00010168	0.00011541	839.27	279.07	0.00010505	0.00011863	558.6	136.2	110.75	39.853	0.0001124	61.585	130.853	138.563	-53.859	-119.458	190.022	-90.132	-119.801	-113.687	214.793	213.376	-115.235	-111.023	-110.505	-105.070	51.749	-106.756	-8191	255	
3281.698	1	1	0	0	0.18184	0.27381	0.13423	0.12534	0.2319	0.026194	0.24569	0.060711	0.046015	0.20472	0.1717	0.14185	0.25571	0.28827	0.029782	0.34701	-2.0604	-2.875	-2.5521	-2.5438	-2.9167	-2.7438	-3.0625	-2.9708	-2.7125	-3.0854	-2.8521	-2.8708	-3.0625	-2.6646	-2.7396	-3.0292	-88.090	-13.086	74.306	215.939	76.378	103.413	126.138	55.053	-36.093	-116.893	104.899	-69.652	-87.572	168.617	-77.271	170.016	0.00095345	0.0012355	0.00039233	492.49	5.9456e-06	2.7627e-05	542.92	171.72	2.1977e-05	1.3716e-05	222.92	85.681	62.779	22.654	8.1369e-06	38.649	0.0089823	0.010685	0.0027969	1155	0.00010382	0.00011539	824.13	273.72	0.00010594	0.00011693	537.01	133.78	112.07	39.659	0.00011062	60.529	107.286	116.702	-80.213	-118.436	110.983	116.927	-120.156	-113.785	169.018	165.205	-115.176	-110.887	-110.071	-104.906	81.487	-106.818	-8191	255	
3281.795	1	1	0	0	0.16225	0.060556	0.036323	0.1681	0.091859	0.096292	0.079004	0.11371	0.089825	0.17725	0.1242	0.27354	0.18369	0.045366	0.091275	0.1423	-2.075	-2.7083	-2.5979	-2.6292	-3.1417	-2.7979	-3.0187	-2.8396	-2.6583	-2.9875	-2.7021	-2.725	-3.075	-2.7625	-2.9708	-2.8042	-25.362	91.357	109.455	61.885	30.960	43.318	138.017	-100.031	-92.724	172.604	166.606	149.206	-91.003	171.847	109.049	189.635	0.0011074	0.0017409	0.0001413	489.5	2.0114e-05	1.7389e-05	540.1	168.92	2.4758e-05	2.3464e-05	223.32	84.966	62.15	22.356	2.6326e-05	38.698	0.0094099	0.010519	0.0026541	1117.7	0.00010424	0.00010735	798.65	264.67	0.0001036	0.00010766	514.4	131.23	112.82	38.769	0.00010615	60.303	105.088	-37.467	-56.329	-119.210	217.712	90.839	-120.002	-113.275	195.324	16.283	-115.505	-111.201	-110.346	-104.545	72.845	-106.973	-8191	255	
3281.866	1	1	0	0	0.092444	0.15426	0.1427	0.11039	0.24972	0.19472	0.23673	0.058472	0.076503	0.30565	0.098048	0.13637	0.18199	0.085278	0.074518	0.13936	-1.9354	-2.9146	-2.9146	-2.7687	-3.0729	-2.9229	-3.0604	-3.0438	-2.575	-2.9458	-2.9667	-2.7229	-3.0396	-2.9	-2.825	-2.9458	-7.203	11.112	-25.790	-96.432	40.809	143.704	122.684	80.634	-53.147	2.766	200.485	204.827	129.193	197.684	103.163	227.299	0.00069583	0.0029512	0.00072119	485.38	1.7154e-05	7.3676e-06	538.67	169.73	1.101e-05	1.9925e-05	224.21	85.27	63.082	22.567	1.5935e-05	38.985	0.0097623	0.010298	0.0026165	1135.6	0.00011076	0.00010551	798.36	269.03	0.00010756	0.0001043	505.23	132.32	113.39	38.062	0.00010136	61.366	127.235	-21.947	-31.436	-119.220	162.663	170.245	-119.978	-113.710	-11.575	76.343	-115.680	-111.234	-110.300	-104.696	40.882	-106.840	-8191	255	
3281.987	1	1	0	0	0.066052	0.13232	0.10998	0.20884	0.21937	0.063799	0.13223	0.21204	0.205	0.090321	0.24922	0.2788	0.18486	0.25763	0.096915	0.15355	-2.2917	-3.0083	-3.0854	-2.7104	-2.9479	-2.8771	-2.65	-2.9479	-2.8104	-2.875	-3.0021	-2.75	-2.7938	-2.375	-2.55	-2.8917	34.301	87.935	4.709	121.642	129.164	-89.439	204.788	-72.184	104.395	-17.133	106.244	-65.647	-83.454	174.758	101.014	9.277	0.00065766	0.0023849	0.00021137	487.45	1.4395e-05	7.9374e-06	543.05	171.62	1.274e-05	1.5268e-05	226.33	86.238	63.678	22.841	1.1177e-05	39.558	0.0098633	0.010074	0.0026431	1191.9	0.00011857	0.00010999	817.42	283.36	0.00011734	0.00011087	526.72	138.3	115.83	38.49	0.0001033	63.258	153.979	-57.323	-96.939	-119.611	52.267	30.258	-119.907	-113.380	69.351	19.323	-115.668	-111.334	-110.081	-104.573	57.103	-107.049	-8191	255	
3282.083	1	1	0	0	0.1046	0.067116	0.23443	0.15714	0.19669	0.1373	0.24641	0.24752	0.1176	0.19601	0.23488	0.20826	0.043464	0.20324	0.24341	0.066505	-2.0854	-2.8229	-3.0146	-2.7792	-3.0167	-2.9271	-2.7292	-2.8812	-2.7208	-2.7125	-3.0438	-2.8396	-3.0375	-2.8583	-2.625	-3.1729	105.987	181.119	20.299	-108.637	-9.186	39.436	220.661	70.936	-59.640	224.416	-10.384	97.700	-31.857	-119.179	-68.861	115.208	0.00028916	0.001527	0.00033467	487.07	8.1359e-06	1.4858e-05	546.96	172.57	3.0151e-05	9.2918e-06	224.85	86.444	63.204	22.436	5.1664e-06	38.863	0.0098293	0.010003	0.0026339	1232.7	0.00011728	0.00010888	819.3	289.06	0.00011231	0.00010683	521.94	138.83	112.39	37.368	0.00010063	62.425	126.222	0.478	-35.992	-120.034	121.519	74.713	-120.051	-113.929	-44.074	-108.762	-115.639	-110.995	-109.903	-104.700	36.337	-107.097	-8191	255	
3282.179	1	1	0	0	0.20851	0.10471	0.21944	0.12211	0.17829	0.28466	0.21219	0.20667	0.11374	0.08723	0.15346	0.17377	0.21621	0.10796	0.21453	0.20874	-2.3146	-2.6625	-2.8688	-2.6604	-3.0938	-2.9688	-2.6708	-3.0583	-2.675	-2.4917	-2.8167	-2.7313	-3.0312	-3.0646	-2.5604	-3.0417	19.716	-125.003	121.368	38.992	179.392	224.553	78.604	132.377	-41.978	37.896	210.740	98.371	113.242	210.196	37.293	78.681	0.00052786	0.0022017	0.00046457	484.17	7.8377e-06	8.8813e-06	537.82	171.8	1.7896e-05	1.9243e-05	218.18	85.444	62.693	22.325	1.6127e-05	38.375	0.0090515	0.0093274	0.002567	1205.6	0.00010593	9.8469e-05	804.4	281.8	0.00010259	9.9327e-05	515.97	136.29	109.8	36.855	0.00010584	62.205	132.103	7.318	189.320	-119.450	48.196	30.594	-120.122	-113.835	36.957	24.423	-116.044	-110.856	-110.160	-104.677	194.494	-107.104	-8191	255	
3282.300	1	1	0	0	0.27284	0.16505	0.22133	0.088118	0.43957	0.1778	0.10119	0.14007	0.18891	0.21394	0.23373	0.082724	0.15884	0.08669	0.13395	0.15118	-2.2062	-2.55	-3.1167	-2.6792	-2.8271	-2.8187	-2.6437	-2.8167	-2.7229	-2.6854	-2.9792	-2.6375	-2.9042	-2.9667	-2.5896	-3.1146	-112.500	45.657	119.300	-92.629	227.758	-42.811	205.527	157.854	-116.217	198.645	-53.932	164.339	41.758	-129.752	224.613	227.526	0.00028299	0.00078876	0.0003346	490.63	1.2465e-05	7.2906e-06	536.51	170.89	2.1671e-05	1.3901e-05	223.53	86.147	63.201	22.382	1.9236e-05	39.036	0.0088921	0.0092588	0.0027287	1202.7	0.00010476	9.8801e-05	819.66	282.88	0.00010223	0.00010076	543.12	137.29	110.72	37.341	0.00011339	62.932	100.857	197.431	129.639	-119.125	-12.407	43.127	-120.234	-113.498	-14.092	-79.305	-115.988	-111.283	-110.072	-104.723	143.366	-106.764	-8191	255	
3282.396	1	1	0	0	0.1923	0.1476	0.21371	0.069772	0.13427	0.047811	0.26909	0.044187	0.098128	0.058327	0.059588	0.049147	0.1112	0.09923	0.28817	0.089876	-2.3917	-2.6937	-2.8729	-2.5146	-2.6583	-2.8771	-2.7583	-3.0771	-3.0604	-2.7146	-3.0375	-2.8063	-2.7667	-2.95	-2.5396	-3.0292	198.743	60.046	-109.093	41.690	80.882	6.004	43.748	163.765	79.143	38.320	220.351	117.825	206.406	-19.216	191.871	48.554	0.00053517	0.0019357	0.00054153	495.11	1.9664e-05	6.8919e-06	540.93	171.67	1.264e-05	1.8441e-05	223.65	87.109	63.475	22.597	1.1771e-05	39.518	0.0089993	0.0096583	0.0029814	1216	0.00010776	0.00010496	844.15	286.31	0.00010471	0.00010762	568.58	138.6	112.19	38.524	0.00012005	63.469	162.330	42.019	160.983	-119.185	-24.446	-67.446	-119.990	-113.521	77.694	225.302	-115.785	-110.992	-110.117	-104.614	158.273	-106.781	-8191	255	
3282.490	1	1	0	0	0.10868	0.19313	0.03194	0.26743	0.16318	0.035482	0.11657	0.071277	0.36085	0.085802	0.21254	0.030369	0.091142	0.26457	0.11527	0.29677	-2.4333	-2.7396	-3.05	-2.4958	-2.8563	-2.9542	-2.9542	-2.7708	-3.0062	-2.675	-2.8312	-2.8542	-2.7125	-3.1479	-2.5271	-2.7417	220.806	-82.682	-21.303	-96.896	-82.888	-41.065	164.297	56.945	149.521	-51.945	183.077	141.840	191.238	-124.026	-75.576	179.732	0.00062829	0.0016709	0.00030158	498.04	1.3717e-05	3.0985e-05	549.37	173.54	1.2149e-05	2.3036e-05	228.85	87.773	63.382	22.579	2.0948e-05	39.313	0.0089997	0.010237	0.0031085	1210.4	0.00010904	0.00011331	860.01	288.88	0.00010749	0.00011786	586.54	139.52	113.15	39.778	0.00012178	63.415	171.559	121.487	-42.438	-119.469	17.708	216.156	-120.231	-113.211	6.712	227.414	-115.477	-111.019	-110.484	-104.951	22.996	-106.726	-8191	255	
3282.586	1	1	0	0	0.23389	0.17066	0.12183	0.21731	0.1095	0.28458	0.041407	0.090545	0.065273	0.15973	0.18794	0.24605	0.060734	0.088598	0.051592	0.22071	-2.6521	-2.6896	-3.1271	-2.7104	-2.6688	-2.9333	-2.875	-2.9458	-3.1792	-2.4917	-2.8042	-2.7271	-2.6958	-3.1042	-2.7625	-2.8167	211.844	-15.557	-77.579	187.292	100.445	87.352	44.928	137.801	184.537	183.492	71.541	182.937	175.276	-92.774	140.483	-103.198	0.00038764	0.0036921	0.00060573	490.78	7.7195e-06	2.2612e-05	540.96	172.19	2.9819e-05	2.0882e-05	228.15	86.46	62.983	22.4	1.464e-05	39.246	0.0091108	0.010927	0.0031131	1204.9	0.00010962	0.00012092	849.91	286.47	0.0001075	0.00012243	574.36	138	113.39	40.48	0.00011941	63.08	115.572	131.332	-94.768	-119.163	215.229	196.214	-120.122	-113.449	193.749	218.190	-114.810	-110.865	-110.054	-104.693	39.651	-106.700	-8191	255	
3282.683	1	1	0	0	0.056039	0.21174	0.078655	0.10482	0.072629	0.17452	0.24727	0.23615	0.34085	0.32908	0.1023	0.15953	0.15803	0.081696	0.038871	0.10893	-2.7854	-2.6437	-2.9125	-2.85	-2.4542	-2.8438	-2.7083	-2.7396	-3.0375	-2.5854	-2.8771	-2.9813	-2.6458	-3.1229	-2.6333	-2.7875	136.596	68.905	43.906	227.180	162.250	226.110	133.604	8.692	76.491	104.394	8.867	-42.924	68.110	-73.398	151.483	10.695	0.00083361	0.0012196	0.00053683	494.14	2.1681e-05	9.8927e-06	542.59	174.55	2.8609e-05	1.1714e-05	228.45	87.182	63.022	22.901	2.5478e-05	39.382	0.0094052	0.011542	0.0030811	1206.1	0.00011488	0.0001276	849.15	288.75	0.00011607	0.00013061	584.3	140	118.39	41.931	0.00012354	64.422	111.007	180.728	-48.261	-119.476	202.630	-106.855	-119.865	-113.776	207.160	-4.523	-115.389	-110.919	-110.382	-104.784	69.213	-106.604	-8191	255	
#DATA ENDS
