BOXY.EXE: ISS Imagent and Oximeter Data Acquisition Program Version 0.80
Ascii Record File

#ACQ INFORMATION
2  Detector Channels 
16  External MUX Channels 
1  Auxiliary Channels 
5000  Waveform (CCF) Frequency (Hz)
1  Waveforms Skipped 
30  Waveforms Averaged 
1  Cycles Averaged 
16  Acquisitions per Waveform 
10.0806  Updata Rate (Hz) 

#FILE INFORMATION
TRUE -- External MUX Channel results are PARSED.
FALSE -- AC DC and Phase are NOT grouped.
TRUE -- Companion Program Settings File CREATED.
FALSE -- AC data not excluded
FALSE -- DC data not excluded
FALSE -- Phase data not excluded
FALSE -- Auxillary Chn. data not excluded
Tab delimiters

#CALIBRATION STATE
TRUE -- Waveform Calibration Values APPLIED.


#AUX CALIBRATION VALUES
Val Type	aux-1	

Term	1.0000e+00	
Factor	0.0000e+00	


#WF CALIBRATION VALUES
A = Detector Channel
Val Type	A-AC1	A-AC2	A-AC3	A-AC4	A-AC5	A-AC6	A-AC7	A-AC8	A-AC9	A-AC10	A-AC11	A-AC12	A-AC13	A-AC14	A-AC15	A-AC16	A-DC1	A-DC2	A-DC3	A-DC4	A-DC5	A-DC6	A-DC7	A-DC8	A-DC9	A-DC10	A-DC11	A-DC12	A-DC13	A-DC14	A-DC15	A-DC16	A-Ph1	A-Ph2	A-Ph3	A-Ph4	A-Ph5	A-Ph6	A-Ph7	A-Ph8	A-Ph9	A-Ph10	A-Ph11	A-Ph12	A-Ph13	A-Ph14	A-Ph15	A-Ph16	

Term	0.00000e+00	0.00000e+00	0.00000e+00	0.00000e+00	0.00000e+00	0.00000e+00	0.00000e+00	0.00000e+00	0.00000e+00	0.00000e+00	0.00000e+00	0.00000e+00	0.00000e+00	0.00000e+00	0.00000e+00	0.00000e+00	0.00000e+00	0.00000e+00	0.00000e+00	0.00000e+00	0.00000e+00	0.00000e+00	0.00000e+00	0.00000e+00	0.00000e+00	0.00000e+00	0.00000e+00	0.00000e+00	0.00000e+00	0.00000e+00	0.00000e+00	0.00000e+00	0.00000e+00	0.00000e+00	0.00000e+00	0.00000e+00	0.00000e+00	0.00000e+00	0.00000e+00	0.00000e+00	0.00000e+00	0.00000e+00	0.00000e+00	0.00000e+00	0.00000e+00	0.00000e+00	0.00000e+00	0.00000e+00	
Factor	1.00000e+00	1.00000e+00	1.00000e+00	1.00000e+00	1.00000e+00	1.00000e+00	1.00000e+00	1.00000e+00	1.00000e+00	1.00000e+00	1.00000e+00	1.00000e+00	1.00000e+00	1.00000e+00	1.00000e+00	1.00000e+00	1.00000e+00	1.00000e+00	1.00000e+00	1.00000e+00	1.00000e+00	1.00000e+00	1.00000e+00	1.00000e+00	1.00000e+00	1.00000e+00	1.00000e+00	1.00000e+00	1.00000e+00	1.00000e+00	1.00000e+00	1.00000e+00	X	X	X	X	X	X	X	X	X	X	X	X	X	X	X	X	

B = Detector Channel
Val Type	B-AC1	B-AC2	B-AC3	B-AC4	B-AC5	B-AC6	B-AC7	B-AC8	B-AC9	B-AC10	B-AC11	B-AC12	B-AC13	B-AC14	B-AC15	B-AC16	B-DC1	B-DC2	B-DC3	B-DC4	B-DC5	B-DC6	B-DC7	B-DC8	B-DC9	B-DC10	B-DC11	B-DC12	B-DC13	B-DC14	B-DC15	B-DC16	B-Ph1	B-Ph2	B-Ph3	B-Ph4	B-Ph5	B-Ph6	B-Ph7	B-Ph8	B-Ph9	B-Ph10	B-Ph11	B-Ph12	B-Ph13	B-Ph14	B-Ph15	B-Ph16	

Term	0.00000e+00	0.00000e+00	0.00000e+00	0.00000e+00	0.00000e+00	0.00000e+00	0.00000e+00	0.00000e+00	0.00000e+00	0.00000e+00	0.00000e+00	0.00000e+00	0.00000e+00	0.00000e+00	0.00000e+00	0.00000e+00	0.00000e+00	0.00000e+00	0.00000e+00	0.00000e+00	0.00000e+00	0.00000e+00	0.00000e+00	0.00000e+00	0.00000e+00	0.00000e+00	0.00000e+00	0.00000e+00	0.00000e+00	0.00000e+00	0.00000e+00	0.00000e+00	-2.26776e+02	-1.29708e+02	-1.25081e+02	-1.81324e+02	-8.13396e+01	-6.84428e+01	-1.55273e+02	-1.62015e+02	-8.44135e+01	-6.57107e+01	-1.73287e+02	-1.69603e+02	-1.82427e+02	-1.77112e+02	-7.61088e+01	-1.49999e+02	
Factor	5.15204e-05	1.63359e-04	4.63749e-05	1.65014e-01	2.13459e-06	1.73112e-06	1.63714e-01	5.20409e-02	2.66509e-06	1.65289e-06	8.93901e-02	2.90941e-02	2.44411e-02	9.00888e-03	1.89399e-06	1.31364e-02	1.97274e-05	3.71382e-05	1.04766e-05	8.31389e-02	3.49691e-07	4.20036e-07	7.75769e-02	2.62501e-02	3.44574e-07	4.22086e-07	4.38463e-02	1.42514e-02	1.24700e-02	4.59518e-03	3.71019e-07	6.48508e-03	X	X	X	X	X	X	X	X	X	X	X	X	X	X	X	X	



#DISTANCE SETTINGS
A = Detector Channel
A-1	A-2	A-3	A-4	A-5	A-6	A-7	A-8	A-9	A-10	A-11	A-12	A-13	A-14	A-15	A-16	

2.5000e+00	3.0000e+00	2.5000e+00	3.0000e+00	2.0000e+00	3.0000e+00	1.5000e+00	3.0000e+00	3.0000e+00	3.0000e+00	3.0000e+00	3.0000e+00	3.0000e+00	3.0000e+00	1.5000e+00	3.0000e+00	

B = Detector Channel
B-1	B-2	B-3	B-4	B-5	B-6	B-7	B-8	B-9	B-10	B-11	B-12	B-13	B-14	B-15	B-16	

1.0000e+01	1.0000e+01	1.0000e+01	1.4400e+00	1.0000e+01	1.0000e+01	1.5100e+00	1.9400e+00	1.0000e+01	1.0000e+01	1.9900e+00	2.4900e+00	2.4100e+00	2.9000e+00	1.0000e+01	2.9800e+00	




#DATA BEGINS
time	group	step	mark	flag	A-AC1	A-AC2	A-AC3	A-AC4	A-AC5	A-AC6	A-AC7	A-AC8	A-AC9	A-AC10	A-AC11	A-AC12	A-AC13	A-AC14	A-AC15	A-AC16	A-DC1	A-DC2	A-DC3	A-DC4	A-DC5	A-DC6	A-DC7	A-DC8	A-DC9	A-DC10	A-DC11	A-DC12	A-DC13	A-DC14	A-DC15	A-DC16	A-Ph1	A-Ph2	A-Ph3	A-Ph4	A-Ph5	A-Ph6	A-Ph7	A-Ph8	A-Ph9	A-Ph10	A-Ph11	A-Ph12	A-Ph13	A-Ph14	A-Ph15	A-Ph16	B-AC1	B-AC2	B-AC3	B-AC4	B-AC5	B-AC6	B-AC7	B-AC8	B-AC9	B-AC10	B-AC11	B-AC12	B-AC13	B-AC14	B-AC15	B-AC16	B-DC1	B-DC2	B-DC3	B-DC4	B-DC5	B-DC6	B-DC7	B-DC8	B-DC9	B-DC10	B-DC11	B-DC12	B-DC13	B-DC14	B-DC15	B-DC16	B-Ph1	B-Ph2	B-Ph3	B-Ph4	B-Ph5	B-Ph6	B-Ph7	B-Ph8	B-Ph9	B-Ph10	B-Ph11	B-Ph12	B-Ph13	B-Ph14	B-Ph15	B-Ph16	aux-1	digaux	

6208.515	1	1	0	768	0.32757	0.17501	0.15849	0.052171	0.072918	0.062981	0.043629	0.20795	0.13629	0.37797	0.12292	0.10484	0.081207	0.11806	0.10317	0.31239	-2.725	-2.8458	-2.85	-3.2458	-2.7583	-3.2208	-3.1083	-2.725	-3.2438	-2.9896	-3.0917	-3.3063	-2.7271	-3.2208	-3.0667	-2.9125	-51.304	122.131	-30.163	-94.545	-84.263	30.706	176.480	172.526	-32.840	165.696	65.976	68.679	192.016	-131.880	-115.754	114.497	0.00038829	0.00013485	0.00011514	256.39	6.7163e-06	9.8823e-06	295.21	72.024	3.0747e-06	1.3713e-06	102.78	37.409	22.941	10.535	7.0625e-06	18.212	0.010118	0.018749	0.0052907	292.47	0.00017887	0.00021171	330.57	83.813	0.00017662	0.00021282	123.01	44.151	28.951	12.746	0.00019214	21.382	117.846	-22.408	140.609	-141.700	-132.786	30.836	-143.186	-137.659	98.392	-107.043	-139.456	-136.741	-135.004	-130.047	-50.523	-132.939	-8191	255	
6208.611	1	1	0	0	0.24912	0.26077	0.13771	0.21492	0.14534	0.18282	0.15381	0.083729	0.1212	0.12723	0.036748	0.11629	0.11178	0.27757	0.12798	0.12262	-2.825	-2.8333	-3.125	-3.1813	-2.8083	-3.2896	-3.1208	-2.7583	-3.2917	-3.1583	-3.0042	-3.4167	-2.8396	-3.3646	-3.3521	-2.9625	198.258	112.082	-76.705	51.631	34.907	-134.946	131.583	65.275	197.573	45.595	-72.907	152.888	72.482	169.663	-59.076	146.810	0.00049389	0.00091831	0.00029725	257.97	3.8746e-06	2.3908e-06	297.94	72.169	8.8587e-06	1.1059e-05	103.36	37.613	22.609	10.431	1.1487e-05	18.209	0.010248	0.019165	0.0053713	294.82	0.00018246	0.00021675	333.94	84.299	0.00017953	0.0002216	124.32	44.349	29.022	12.776	0.00019965	21.387	102.835	11.303	-142.027	-141.795	0.974	67.942	-143.181	-137.814	20.066	99.981	-139.213	-135.955	-134.277	-129.965	-21.553	-133.033	-8191	255	
6208.707	1	1	0	0	0.17682	0.26072	0.17223	0.072804	0.11388	0.075965	0.089312	0.27766	0.041195	0.21329	0.094344	0.15497	0.15095	0.16134	0.15886	0.11331	-2.8812	-2.9625	-2.9479	-3.4229	-2.9958	-3.2375	-3.2125	-2.7875	-3.3542	-2.7917	-2.8979	-3.2292	-2.9813	-3.1021	-3.3542	-2.8521	-91.772	-51.312	196.565	27.157	5.880	-61.876	107.843	99.940	78.987	199.282	70.281	21.269	43.571	103.499	148.081	166.996	0.00057471	0.00061382	0.00028752	257.89	2.13e-06	5.7869e-06	299.85	71.477	9.9928e-06	6.0135e-06	101.03	37.144	22.358	10.347	6.2117e-06	17.936	0.010508	0.019824	0.005552	295.88	0.00018464	0.00022106	333.42	84.038	0.00018111	0.00022391	123.17	43.913	28.767	12.665	0.00020098	21.114	127.330	-86.499	28.403	-141.911	112.067	-132.600	-143.241	-137.621	7.713	-59.548	-139.271	-136.446	-134.358	-130.080	-138.909	-133.090	-8191	255	
6208.804	1	1	0	0	0.21888	0.095433	0.10744	0.143	0.098557	0.19139	0.21892	0.27882	0.13424	0.15434	0.16144	0.27015	0.058122	0.11726	0.14279	0.13813	-2.7938	-3.0312	-2.8229	-3.3542	-2.9062	-2.975	-3.1979	-2.7479	-3.0958	-3.1833	-2.9062	-3.1937	-3.2333	-2.9062	-3.2854	-2.8083	-149.864	-147.361	45.268	-76.463	152.649	112.292	-2.703	49.982	-68.436	-39.349	148.761	134.687	116.468	-30.566	-19.766	70.807	0.00036577	0.00072179	0.00019076	257.86	4.3979e-06	1.0134e-05	296.23	70.99	5.1409e-06	6.8202e-06	101.85	36.673	22.571	10.267	4.5561e-06	17.673	0.010552	0.019995	0.0056001	295.4	0.00018579	0.0002233	331.42	83.729	0.0001822	0.00022554	123.22	43.664	28.757	12.659	0.00019987	21.106	84.829	-119.314	-93.630	-141.524	39.326	56.312	-143.316	-137.284	185.531	-83.442	-139.302	-136.187	-134.052	-130.476	-91.526	-133.483	-8191	255	
6208.900	1	1	0	0	0.2265	0.19357	0.31182	0.23257	0.13088	0.10435	0.23886	0.085978	0.19327	0.015604	0.20279	0.14574	0.089782	0.083216	0.15392	0.18735	-2.7583	-3.1833	-2.9208	-3.175	-3.075	-3.1104	-3.2125	-2.9604	-3.2271	-3.0875	-2.8479	-3.3438	-2.8958	-3.025	-3.3729	-2.9625	131.671	7.822	-60.320	-17.712	198.823	95.671	171.517	167.800	-142.755	91.168	47.528	65.831	146.936	-114.225	-28.775	-111.517	0.00020664	0.00010729	0.00022602	256.14	5.1924e-06	6.9838e-06	296.01	71.581	8.3833e-06	2.9325e-06	102.05	36.496	22.494	10.344	7.3407e-06	17.82	0.010538	0.019878	0.0055943	294.08	0.00018389	0.0002238	330.98	83.635	0.00018048	0.00022348	122.78	43.373	28.765	12.648	0.00019742	21.069	111.955	103.229	196.145	-141.902	-48.783	200.941	-143.225	-137.500	-69.341	84.362	-139.617	-136.493	-134.110	-130.238	69.154	-133.599	-8191	255	
6208.996	1	1	0	0	0.18765	0.20985	0.24933	0.079414	0.14513	0.049917	0.20645	0.28018	0.17136	0.23712	0.18964	0.058369	0.15938	0.096623	0.092885	0.24636	-2.7521	-3.2958	-3.0229	-3.1792	-3.1167	-2.9771	-3.3146	-2.9375	-3.3167	-3.3	-2.8708	-3.2687	-3.1229	-3.0708	-3.2021	-2.9688	-62.148	11.186	67.783	-15.076	92.239	-22.195	98.401	145.295	-100.797	-127.666	2.519	95.838	71.743	91.367	-6.883	20.830	0.00051939	0.00038893	0.00011384	257.76	7.1251e-06	9.0522e-06	295.15	70.729	8.9873e-06	5.4417e-07	100.28	37.179	22.449	10.289	7.7806e-06	17.789	0.010579	0.020124	0.0056203	295.18	0.00018875	0.00022582	331.51	83.948	0.00018433	0.00023038	123.06	43.729	28.828	12.702	0.00019785	21.104	80.957	105.404	-18.480	-141.744	-39.514	44.330	-142.911	-137.538	-23.439	120.984	-139.358	-136.080	-134.668	-129.762	198.566	-133.100	-8191	255	
6209.115	1	1	0	0	0.080893	0.087036	0.37637	0.12652	0.096032	0.039688	0.2403	0.065206	0.081773	0.24884	0.2211	0.085765	0.064249	0.19358	0.19849	0.0789	-2.4667	-3.2854	-2.7771	-3.125	-3.1167	-2.9604	-3.1896	-3.0438	-3.075	-3.3521	-3.0146	-3.1271	-3.1917	-2.7875	-3.3438	-3.2125	163.487	-25.149	111.567	-26.580	179.809	100.733	-149.006	31.552	14.118	-66.421	0.350	144.108	95.951	-134.975	-119.620	-88.122	0.00052196	0.00052615	0.00023213	256.49	9.0095e-06	8.838e-06	294.09	70.363	1.3209e-05	7.3389e-06	100.59	36.143	22.256	10.138	9.9477e-06	17.515	0.010711	0.02038	0.0056888	295.29	0.00019113	0.00022843	329.99	83.348	0.00018339	0.0002276	121.65	43.068	28.571	12.504	0.0001961	20.842	139.077	-124.044	147.857	-142.130	-110.845	-28.822	-142.569	-137.576	-89.473	89.600	-139.036	-136.514	-134.633	-129.663	-29.932	-133.495	-8191	255	
6209.211	1	1	0	0	0.10676	0.030462	0.081184	0.16236	0.28918	0.064726	0.16381	0.18222	0.088899	0.17242	0.13781	0.14562	0.17241	0.11901	0.060693	0.085956	-2.5271	-3.3479	-2.6479	-3.1063	-3.2854	-3.0271	-3.4229	-2.9896	-3.0146	-3.2833	-2.9792	-3.0229	-3.3021	-2.7521	-3.225	-3.2188	-7.159	127.332	-68.820	119.667	51.181	143.114	46.380	-71.541	126.921	-120.390	45.978	143.264	-88.625	86.803	87.872	-28.584	0.00052221	0.00039966	0.00010089	257.63	3.0943e-06	8.9533e-07	291.85	70.615	1.0302e-05	5.6329e-06	99.403	36.027	21.983	10.21	6.0017e-06	17.474	0.010643	0.020024	0.0055618	294.4	0.00018738	0.00022487	326.02	83.134	0.00018103	0.00022266	120.64	42.809	28.212	12.387	0.0001923	20.659	92.737	118.054	-111.974	-141.795	-59.487	-0.577	-142.680	-136.948	199.924	10.021	-138.987	-136.411	-133.877	-129.334	-90.187	-133.084	-8191	255	
6209.307	1	1	0	0	0.24742	0.080769	0.13012	0.044978	0.096459	0.21853	0.17673	0.13156	0.13796	0.049597	0.24525	0.29663	0.062343	0.090647	0.19145	0.1179	-2.5021	-3.2562	-2.8583	-3.3167	-3.2208	-2.7083	-3.1771	-3.0917	-2.7333	-3.225	-2.9708	-2.9458	-3.2042	-2.9292	-3.1792	-3.1708	8.564	15.011	147.954	164.571	125.483	-132.752	103.793	164.793	199.801	109.732	153.918	81.329	-23.054	45.221	-62.821	29.435	0.00066511	0.0006798	0.0002076	254.74	8.3084e-06	6.8586e-06	294.46	70.298	1.2702e-06	1.0033e-05	98.202	36.045	22.3	10.173	5.8878e-06	17.375	0.010529	0.019528	0.0054939	291.86	0.00018485	0.00022102	326.96	82.692	0.0001807	0.00022202	120.06	42.866	28.362	12.429	0.00019283	20.699	125.027	11.479	-119.960	-141.522	-70.616	-56.683	-143.026	-137.554	95.078	47.056	-139.426	-135.643	-134.342	-129.548	25.097	-133.115	-8191	255	
6209.403	1	1	0	0	0.19652	0.19493	0.17327	0.10399	0.095212	0.10358	0.089738	0.33371	0.319	0.070094	0.22984	0.27666	0.041166	0.1813	0.13364	0.03497	-2.6063	-3.1292	-2.8292	-3.0125	-3.2604	-2.7521	-3.2646	-3.0479	-2.7938	-3.4188	-2.9917	-2.9083	-3.0958	-2.8333	-2.9729	-3.2188	90.828	41.258	23.109	-74.509	97.353	-100.554	112.143	109.192	84.885	154.822	-1.591	-152.568	60.516	-77.151	17.347	197.301	0.00023558	0.00066685	0.0001632	254.2	3.1452e-06	1.1127e-05	294.11	70.829	6.6518e-06	6.1692e-06	99.485	36.079	22.246	10.297	5.0762e-06	17.529	0.010523	0.019357	0.0054809	291.6	0.00018535	0.00021906	326.48	82.941	0.00018168	0.00021973	121.06	43.011	28.559	12.512	0.00019625	20.939	140.871	93.037	-140.345	-141.432	-58.289	-34.549	-143.336	-137.145	-41.901	-48.913	-139.141	-136.301	-134.663	-129.800	13.829	-132.573	-8191	255	
6209.499	1	1	0	0	0.090362	0.15143	0.056028	0.091481	0.085197	0.18267	0.16423	0.14092	0.051762	0.097312	0.11987	0.056903	0.20712	0.25971	0.28943	0.10428	-2.4125	-3.2708	-2.8	-2.8167	-3.3125	-2.8104	-3.1479	-3.1458	-2.8	-3.0792	-2.9333	-2.8104	-3.3083	-2.7562	-2.8812	-3.1312	-58.526	144.680	-127.112	162.697	146.149	-119.019	186.542	-114.127	-56.543	-18.689	-121.555	156.889	-110.729	-31.829	166.956	188.540	0.00050007	0.00051682	0.00022835	255.59	9.0801e-06	9.3927e-06	292.42	70.154	1.4001e-05	5.8282e-06	99.083	36.326	22.138	10.1	8.0936e-06	17.616	0.010657	0.019477	0.0056039	293.02	0.00018797	0.00022416	327.25	83.008	0.00018428	0.00022377	121.04	43.052	28.387	12.479	0.00020018	20.885	89.201	-130.687	-9.492	-142.016	15.581	-44.675	-143.271	-137.784	-82.227	57.846	-139.752	-135.657	-134.100	-129.901	-77.439	-132.941	-8191	255	
6209.595	1	1	0	0	0.21063	0.25678	0.13979	0.088901	0.09427	0.17896	0.21255	0.12542	0.019546	0.055106	0.13295	0.24865	0.24194	0.078864	0.10828	0.054175	-2.3708	-2.9208	-2.9896	-2.8083	-3.1125	-2.7875	-3.1354	-3.0833	-2.7292	-3.15	-3.2	-2.9458	-3.1625	-2.9896	-2.9958	-3.2333	124.308	-64.819	-149.125	70.972	80.403	169.887	196.759	131.640	-26.592	48.847	-69.180	190.701	149.403	-4.670	-26.367	150.227	0.00043703	0.0012107	4.3055e-05	251.49	3.7649e-06	1.8103e-05	292.62	70.824	1.7185e-05	6.2052e-06	98.686	35.969	22.168	10.116	4.0518e-06	17.516	0.010851	0.019813	0.0057381	292.07	0.00019058	0.0002303	328.05	83.527	0.00018919	0.0002303	121.46	43.203	28.618	12.537	0.00020544	20.933	111.625	135.468	133.871	-141.845	-112.480	-148.201	-142.353	-137.301	-122.234	2.551	-139.157	-136.446	-134.287	-129.652	45.874	-133.125	-8191	255	
6209.716	1	1	0	0	0.051124	0.17376	0.095565	0.30249	0.029216	0.14965	0.14008	0.21864	0.37368	0.1246	0.182	0.2345	0.16535	0.163	0.059031	0.1431	-2.3958	-3.2313	-3.3063	-2.75	-3.2208	-3.1521	-2.8312	-3.2521	-2.8417	-3.1542	-3.2687	-2.8375	-3.2625	-2.9813	-2.8812	-3.3542	138.126	-126.873	-24.202	-20.288	88.262	81.015	171.409	173.492	-20.464	28.421	36.155	176.340	141.155	-56.607	-133.218	93.802	0.00053727	0.00035488	0.0002315	251.63	6.7675e-06	9.5071e-06	288.68	69.894	6.3201e-06	7.5418e-06	99.024	36.13	22.289	10.143	2.607e-06	17.699	0.011092	0.020429	0.0058899	293.06	0.00019425	0.00023429	327.87	83.351	0.00019239	0.00023525	122.14	43.407	28.741	12.704	0.00021109	21.087	83.817	13.328	-31.340	-141.795	-154.711	-5.127	-142.530	-137.678	55.297	20.217	-139.279	-136.187	-134.506	-130.238	36.680	-132.488	-8191	255	
6209.812	1	1	0	0	0.13877	0.20174	0.099865	0.15255	0.17964	0.12317	0.26588	0.074276	0.18768	0.21112	0.10277	0.16667	0.21353	0.20768	0.21924	0.10511	-2.4396	-2.9917	-3.1063	-2.8729	-3.1	-3.1188	-2.8479	-3.1708	-2.8292	-3.0583	-3.2396	-2.6792	-3.1396	-2.9146	-2.8146	-3.325	-6.165	-142.222	-133.802	-126.713	-133.235	-151.168	-148.370	-149.541	99.904	145.790	-98.555	112.309	-150.963	171.625	146.841	123.392	0.00059308	0.0010551	0.0002353	253.66	1.7063e-06	3.0199e-06	290.81	69.856	1.9941e-05	3.538e-06	100.07	36.571	22.368	10.247	3.561e-06	17.72	0.011304	0.020862	0.0060039	294.2	0.00019592	0.00024145	330.21	83.646	0.00019481	0.00023808	122.92	43.579	28.788	12.735	0.00020923	21.141	104.289	185.640	70.867	-141.645	160.114	66.585	-142.919	-136.698	-22.265	39.926	-139.318	-136.359	-134.063	-130.085	66.378	-133.107	-8191	255	
6209.907	1	1	0	0	0.10607	0.40345	0.16047	0.13557	0.10375	0.077938	0.34089	0.17004	0.088073	0.18889	0.11537	0.11148	0.10572	0.23221	0.2961	0.14086	-2.4979	-3.0458	-3.225	-2.9354	-3.1437	-3.0354	-2.8354	-3.3667	-2.9229	-3.0792	-3.1688	-2.8708	-3.0667	-3.0938	-2.8896	-3.3625	-141.925	134.873	120.654	-52.663	-54.812	-145.199	173.594	-25.239	-7.411	184.733	-7.796	14.698	43.094	-118.102	47.776	10.741	0.00046859	0.00038095	0.00032627	255.54	5.1921e-06	1.7985e-06	292.2	70.731	1.6711e-05	2.4742e-06	99.492	35.992	22.169	10.16	1.1598e-05	17.509	0.01121	0.02103	0.0060078	296.05	0.00019698	0.00024147	330.58	83.836	0.00019484	0.00024091	122.65	43.359	28.933	12.7	0.00021289	20.948	100.649	-40.538	-9.982	-141.764	174.017	-6.019	-142.973	-137.299	12.000	-26.991	-139.125	-136.631	-133.978	-130.209	-41.243	-132.336	-8191	255	
6210.003	1	1	0	0	0.31035	0.26716	0.24526	0.34829	0.11026	0.10557	0.16094	0.13057	0.15637	0.29666	0.18629	0.233	0.12496	0.21663	0.15635	0.026022	-2.55	-2.8833	-3.2	-2.6667	-2.8583	-3.3125	-2.9271	-3.2646	-3.0333	-2.9708	-3.375	-2.8187	-3.0104	-3.1958	-2.8542	-3.1792	142.448	122.762	180.584	175.282	47.968	27.954	147.748	104.586	-68.189	98.210	-136.578	180.390	148.124	2.778	-3.770	47.455	0.000204	0.00037652	7.5476e-05	254.28	4.0883e-06	3.9206e-06	291.12	69.761	1.2256e-05	9.6755e-06	98.701	35.649	21.942	10.13	4.2663e-06	17.445	0.011456	0.021442	0.0060686	295.79	0.00019928	0.00024368	327.76	83.282	0.00019939	0.00024251	121.69	43.187	28.803	12.689	0.00021389	20.902	102.212	139.476	-69.759	-141.939	-77.594	175.904	-142.723	-137.108	-18.974	33.232	-138.786	-136.505	-134.258	-130.242	36.200	-132.809	-8191	255	
6210.076	1	1	0	0	0.08617	0.13118	0.069461	0.21901	0.06838	0.21732	0.37877	0.062967	0.22772	0.15104	0.32818	0.19001	0.17939	0.12119	0.16713	0.28866	-2.7062	-2.9167	-3.3271	-2.9646	-3.0292	-3.3104	-2.9	-3.25	-3.1813	-3.0333	-3.3063	-2.9583	-3.1	-3.05	-2.6562	-3.1375	-26.718	-73.561	-63.107	-102.621	11.341	53.914	129.234	-108.343	104.974	-80.638	54.735	-29.535	-91.596	102.711	119.738	59.050	0.00046807	0.00025287	5.5437e-05	253.03	7.6877e-06	1.1892e-05	290.22	69.513	9.6106e-06	6.3885e-06	98.906	36.003	21.938	10.036	5.599e-06	17.251	0.011499	0.021319	0.0060008	294.35	0.00019964	0.00024378	327.77	83.105	0.00019943	0.00024436	121.58	43.295	28.741	12.676	0.00021382	20.949	128.194	129.109	-111.742	-141.966	186.185	-6.940	-143.129	-137.701	-27.552	153.198	-139.172	-136.500	-134.366	-129.634	114.573	-132.628	-8191	255	
6210.195	1	1	0	0	0.38194	0.24413	0.21198	0.21778	0.39541	0.33162	0.12741	0.11856	0.16348	0.10923	0.20035	0.13107	0.14626	0.16889	0.062074	0.038526	-2.6646	-2.9042	-3.1208	-3.0521	-2.875	-3.2458	-2.875	-2.9875	-3.0938	-2.7292	-3.2979	-2.9875	-2.75	-3.2271	-2.9521	-3.1813	-54.725	-117.478	-137.054	200.458	136.716	2.935	167.183	83.963	137.499	174.251	12.870	80.309	49.851	-103.542	59.802	179.541	0.00046998	0.00062762	0.00019847	255.25	8.1073e-06	7.49e-06	290.4	69.483	8.3448e-06	9.1456e-06	98.09	36.041	22.149	10.126	1.251e-05	17.332	0.011725	0.021822	0.0060629	296.1	0.00020573	0.00024738	327.3	83.46	0.00020262	0.00024602	121.35	43.374	28.886	12.687	0.00021278	20.942	112.455	-22.013	-83.660	-142.011	47.313	27.373	-142.894	-137.812	-42.401	-15.310	-140.009	-136.517	-134.341	-129.682	136.763	-132.829	-8191	255	
6210.291	1	1	0	0	0.1632	0.22563	0.144	0.12603	0.081107	0.14621	0.024776	0.05131	0.24472	0.18988	0.13781	0.15829	0.19512	0.069494	0.1452	0.16943	-2.7625	-2.775	-3.1375	-2.9958	-2.8479	-3.2125	-2.8854	-2.7938	-3.3146	-2.7938	-3.1854	-3.0479	-2.7146	-3.1479	-2.8229	-2.8937	-97.730	164.163	-84.310	74.307	92.939	110.098	-128.202	175.801	170.123	114.596	103.412	81.631	-39.824	171.454	-144.479	90.576	0.00037671	0.00040916	0.0001043	252.08	9.7641e-06	4.6807e-06	289.73	70.074	1.7354e-06	3.8247e-06	98.683	35.854	22.034	10.07	2.5761e-06	17.269	0.011496	0.021108	0.0059487	294.7	0.00020184	0.00024256	326.94	83.346	0.00020154	0.00024329	121.18	43.138	28.679	12.592	0.00021016	20.785	96.899	29.585	-74.717	-141.993	5.092	-14.155	-143.075	-136.992	2.455	94.533	-139.119	-135.861	-134.171	-129.489	166.784	-133.396	-8191	255	
6210.387	1	1	0	0	0.2605	0.19519	0.038711	0.08991	0.089373	0.12672	0.092787	0.27829	0.19164	0.25935	0.22253	0.2492	0.10134	0.14596	0.25854	0.13496	-2.65	-2.6437	-2.9375	-3.0833	-2.875	-3.2938	-2.9688	-2.8646	-3.2146	-2.7896	-3.3021	-3.2229	-2.8187	-3.1896	-3.075	-2.8333	-9.049	104.446	-65.128	-37.166	-35.830	-6.997	133.843	163.787	193.198	143.038	115.357	-127.388	-93.743	107.165	-120.365	115.652	0.00044461	0.0014001	4.0883e-05	251.84	1.4709e-05	4.7773e-06	284.87	69.249	1.587e-05	5.6288e-07	97.384	35.194	21.647	9.9388	1.5705e-06	17.187	0.011483	0.021158	0.0059039	293.21	0.00020111	0.00023721	323.84	82.559	0.00019683	0.0002369	119.22	42.513	28.406	12.429	0.00020824	20.592	109.312	-110.068	76.683	-141.769	143.184	94.197	-143.139	-137.190	-76.751	117.401	-139.539	-136.616	-134.119	-129.847	-119.006	-132.900	-8191	255	
6210.508	1	1	0	0	0.1733	0.058645	0.041263	0.20917	0.21222	0.13729	0.1783	0.19037	0.077905	0.22669	0.1517	0.056161	0.24278	0.17595	0.036662	0.2102	-2.8667	-2.8521	-3.1083	-3.275	-2.7354	-3.3979	-2.9917	-2.9167	-3.3812	-2.9562	-2.9521	-3.2417	-2.7292	-3.2083	-3.1542	-2.875	181.656	93.166	199.151	126.379	110.025	-58.703	-91.896	163.501	-102.104	-144.043	-145.620	113.091	-139.627	-20.467	130.135	96.027	0.00016188	0.0005653	0.00011718	250.93	2.0539e-06	8.1306e-06	285.63	68.803	2.7387e-06	7.8034e-06	97.579	34.823	21.472	9.9729	6.8528e-06	17.078	0.011267	0.020769	0.0058159	292.28	0.00019639	0.0002329	322.78	82.511	0.00019442	0.00023631	119.61	42.447	28.197	12.378	0.00020593	20.632	114.939	-79.502	-145.801	-142.291	80.724	25.784	-143.131	-137.522	-56.612	-99.033	-139.188	-136.642	-134.141	-129.585	162.886	-133.440	-8191	255	
6210.604	1	1	0	0	0.125	0.035054	0.11391	0.060187	0.17858	0.17365	0.44386	0.16113	0.072184	0.17315	0.10411	0.028712	0.16173	0.077967	0.078605	0.19913	-2.8563	-2.7604	-3.05	-3.2271	-2.7979	-3.1229	-3.05	-2.8104	-3.2167	-3.0021	-2.8792	-3.1688	-2.7521	-3.1	-3.0458	-2.7958	125.184	-108.539	-94.096	-48.187	-30.840	-49.888	130.459	184.137	79.305	-31.817	87.615	188.840	144.369	201.707	160.229	-96.339	0.00026381	0.00054553	0.00044164	249.34	8.7563e-06	1.0679e-05	285.97	69.302	1.1455e-05	6.2233e-06	98.016	35.347	22.046	10.141	1.2289e-05	17.398	0.011148	0.020537	0.0058254	290.51	0.00019424	0.00022923	322.32	82.453	0.0001892	0.0002313	119.79	42.693	28.365	12.517	0.00020508	20.873	88.872	-89.958	-147.261	-141.497	-113.184	16.001	-143.118	-137.737	-29.919	-121.032	-139.658	-136.402	-134.154	-129.768	7.772	-133.324	-8191	255	
6210.676	1	1	0	0	0.11597	0.24528	0.2562	0.20696	0.16877	0.23699	0.23144	0.20858	0.053191	0.17341	0.21666	0.12297	0.13816	0.061345	0.27805	0.11734	-2.6708	-2.9292	-2.9396	-3.3167	-2.7812	-3.1771	-3.2771	-2.9	-3.2438	-2.8958	-3.0083	-3.2146	-2.7917	-3.1083	-3.0625	-2.8375	182.569	117.414	85.199	-96.126	-123.991	-147.231	-105.903	57.399	10.712	-118.217	178.241	163.443	-10.800	78.183	13.190	-151.062	0.0004585	0.00027979	3.1943e-05	249.82	9.571e-06	1.1133e-05	287.58	69.612	1.3964e-05	4.8572e-06	97.502	35.626	22.031	10.212	1.2966e-05	17.523	0.010979	0.020478	0.0057649	291.13	0.00019303	0.00022959	323.96	82.686	0.00018868	0.00023312	120.51	42.867	28.57	12.575	0.00020818	20.927	110.209	155.789	5.514	-142.006	-105.482	-13.813	-142.907	-137.620	-4.900	-100.833	-138.995	-136.306	-134.473	-129.967	-79.899	-133.545	-8191	255	
6210.796	1	1	0	0	0.26767	0.21165	0.44856	0.16899	0.06949	0.077225	0.27705	0.12224	0.15263	0.15632	0.078034	0.1427	0.21809	0.36276	0.25962	0.27328	-2.8479	-2.8271	-2.7375	-3.1417	-2.8083	-3.0229	-3.0708	-2.9104	-3.1229	-3.1	-2.9583	-3.1625	-2.9104	-2.8521	-3.2	-2.8667	35.686	156.987	3.626	101.927	-100.640	170.206	-68.474	-153.188	-53.132	101.862	11.737	146.939	122.164	105.449	106.088	184.604	0.00035758	0.0012106	0.00024597	250.48	3.7222e-07	3.9677e-06	283.44	69.814	6.9197e-06	7.9287e-06	97.42	35.501	21.88	10.044	6.3866e-06	17.259	0.010942	0.020848	0.0058964	291.24	0.00019634	0.0002372	323.2	82.933	0.00019492	0.00024358	120.93	42.944	28.54	12.579	0.00021346	20.816	119.256	-48.913	-114.884	-141.857	-103.456	30.088	-142.954	-137.257	143.586	-134.747	-139.331	-136.169	-134.197	-130.154	102.954	-132.913	-8191	255	
6210.893	1	1	0	0	0.087542	0.048402	0.21388	0.11736	0.078372	0.12145	0.15812	0.098117	0.082516	0.21713	0.19198	0.2543	0.13097	0.14716	0.16121	0.11112	-2.6292	-3.0979	-2.6792	-3.1146	-2.9208	-2.9146	-3.0563	-2.6937	-3.1833	-3.0042	-2.7896	-3.3479	-3.0417	-2.9938	-3.1917	-2.7854	135.481	66.292	-54.755	-39.682	-13.830	13.289	-10.053	-5.094	-58.105	-63.317	116.135	173.787	-108.257	157.782	104.975	108.194	0.00038741	0.0005408	0.00019707	247.66	1.6721e-05	2.6888e-06	283.83	69.147	8.7311e-06	1.6366e-05	97.503	35.44	21.843	10.091	5.2314e-06	17.426	0.011252	0.021434	0.0060581	290.89	0.00019989	0.00024048	322.3	82.649	0.00019433	0.00024315	120.24	42.816	28.635	12.634	0.00021328	20.935	112.497	-18.996	-122.391	-142.304	17.127	165.046	-142.911	-137.372	-149.986	88.487	-139.532	-136.275	-134.145	-130.043	-44.244	-133.125	-8191	255	
6210.989	1	1	0	0	0.16422	0.093109	0.13745	0.20466	0.12111	0.13951	0.26354	0.073631	0.15533	0.16	0.15737	0.26685	0.29639	0.040301	0.075936	0.1677	-2.6792	-3.0792	-2.8125	-3.2229	-2.8729	-3.0396	-3.2875	-2.7917	-2.9542	-3.1958	-2.5833	-3.1729	-2.8438	-2.8396	-3.1688	-2.8771	106.632	139.982	191.619	65.432	91.725	180.454	120.715	116.823	133.770	88.955	-39.952	179.509	-141.555	153.503	1.388	-80.901	0.00036933	0.0010471	9.0242e-05	249.14	5.2117e-07	7.6461e-06	288.17	68.837	3.9189e-06	1.0225e-05	97.283	35.808	21.715	10.161	6.9213e-06	17.597	0.011209	0.021415	0.0059907	289.22	0.00019874	0.00023881	323.21	82.434	0.00019544	0.00024587	120.72	43.111	28.817	12.762	0.0002165	21.066	112.804	-66.790	28.764	-142.034	193.374	-130.684	-142.701	-137.485	-106.704	-27.523	-139.099	-136.163	-134.832	-129.988	1.213	-133.126	-8191	255	
6211.108	1	1	0	0	0.12249	0.17425	0.25852	0.22613	0.14279	0.22219	0.12023	0.26424	0.080331	0.31461	0.25133	0.081893	0.22552	0.17909	0.043099	0.1222	-2.6354	-3.1896	-2.7292	-3.0521	-2.9813	-2.8708	-3.325	-2.8563	-2.9479	-3.3292	-2.9396	-3.2938	-3.0667	-2.9917	-3.2729	-2.9479	-138.075	-68.303	23.911	-124.477	91.836	-117.231	65.327	135.671	186.221	65.293	185.249	201.454	88.731	100.053	123.547	65.172	0.00046246	0.001127	0.00014517	248.87	5.6913e-06	9.3173e-06	284.38	69.042	2.1345e-05	8.8314e-06	97.96	36.326	22.089	10.25	9.1453e-07	17.6	0.011492	0.021715	0.006048	290.82	0.00020167	0.00024083	322.67	82.788	0.00019482	0.00024424	121.09	43.197	28.904	12.755	0.00021273	21.08	106.611	184.760	59.897	-141.748	-82.135	-15.949	-143.239	-137.391	-98.977	25.180	-139.851	-136.153	-135.027	-130.278	86.348	-133.386	-8191	255	
6211.204	1	1	0	0	0.20574	0.31732	0.082828	0.17362	0.086688	0.28503	0.085756	0.17744	0.18527	0.080088	0.17969	0.19676	0.10307	0.10621	0.12654	0.23781	-2.6667	-3.2396	-2.7438	-3.3854	-3.0396	-2.9437	-3.3229	-3.1396	-2.9958	-3.2125	-2.8021	-3.1063	-3.125	-2.8167	-3.0854	-3.0875	93.463	14.208	124.854	10.794	-112.357	-96.746	162.948	101.267	-66.761	96.694	201.507	-118.453	104.606	-53.760	84.323	180.780	0.00040854	0.00067007	0.00021689	248.63	5.0514e-06	9.8244e-06	282.15	68.462	2.7511e-06	3.4549e-06	97.102	35.518	21.942	9.913	6.1967e-06	17.434	0.011417	0.021566	0.0059742	290.7	0.00020167	0.00024182	322.37	82.855	0.00019779	0.00024581	120.29	42.755	28.761	12.63	0.00021499	20.889	93.267	94.977	156.318	-141.940	33.787	26.034	-142.794	-136.793	-148.781	-22.830	-139.767	-136.250	-134.390	-129.511	78.244	-133.201	-8191	255	
6211.300	1	1	0	0	0.14826	0.046812	0.1305	0.11514	0.19702	0.2022	0.33952	0.17051	0.062903	0.25891	0.28892	0.033858	0.26392	0.018217	0.056444	0.17761	-2.6104	-3.2167	-2.9188	-2.9417	-3.0792	-2.8667	-3.25	-3.0583	-2.7562	-3.25	-2.8104	-3.1562	-3.125	-2.975	-3.3563	-3.1146	-34.604	81.852	12.895	-53.388	-135.676	174.407	71.058	42.851	-120.785	-77.145	112.187	-91.670	123.101	6.759	36.443	-151.268	0.0002553	0.0013928	0.00022698	251.15	1.0998e-05	4.7602e-06	283.89	68.74	5.5751e-06	5.8388e-06	96.181	35.319	21.668	9.9809	5.776e-06	17.399	0.011515	0.021532	0.0060449	291.25	0.00020301	0.00023912	320.23	82.637	0.00019738	0.00024203	119.56	42.532	28.711	12.57	0.00021045	20.749	118.337	-68.777	142.568	-142.197	50.072	72.809	-143.027	-137.317	-82.938	-108.364	-139.166	-136.079	-134.392	-129.511	-59.347	-133.173	-8191	255	
6211.372	1	1	0	0	0.43671	0.11034	0.061233	0.3431	0.098548	0.20218	0.21873	0.22939	0.19465	0.32334	0.21672	0.13084	0.19577	0.18232	0.15174	0.18269	-2.3146	-3.2188	-2.8021	-2.7792	-3.1312	-2.9437	-3.275	-2.9938	-2.8271	-3.2979	-3.1042	-2.9917	-3.1354	-2.8521	-3.1583	-3.2479	160.107	86.939	55.231	164.820	-32.648	156.184	-13.357	85.382	61.392	158.068	149.560	-32.631	24.816	-149.087	99.075	-140.687	0.00014632	0.00090752	0.00012343	248.45	4.015e-06	5.5381e-06	280.52	69.345	2.3279e-05	5.148e-06	96.204	35.279	21.629	9.9828	5.7593e-06	17.183	0.011429	0.021137	0.0059608	290.24	0.0002011	0.00023686	320.15	82.632	0.00019828	0.00023897	119.7	42.586	28.657	12.555	0.00021208	20.861	110.417	-153.498	9.765	-141.937	73.722	163.757	-143.290	-136.921	-1.764	13.117	-139.650	-136.002	-134.470	-129.619	50.481	-133.262	-8191	255	
6211.492	1	1	0	0	0.23083	0.12187	0.17458	0.061948	0.29365	0.216	0.14305	0.12112	0.021436	0.097323	0.13449	0.3062	0.09295	0.23671	0.1213	0.069981	-2.2438	-3.2729	-2.7417	-2.8854	-3.2583	-2.9292	-3.1646	-3.0625	-2.9208	-3.2646	-3.0167	-2.7667	-3.2979	-2.9354	-3.1729	-3.1542	-135.527	146.671	43.461	128.513	-124.464	111.904	172.987	-9.137	62.802	129.146	76.858	150.719	199.498	165.545	-139.790	72.985	0.00050229	0.00053952	8.89e-05	249.93	4.8678e-06	9.2365e-06	282.41	69.327	9.7075e-06	4.8215e-06	97.382	34.748	21.748	10.071	8.8256e-06	17.214	0.011461	0.021105	0.0060533	291.51	0.00020096	0.00023965	320.41	82.84	0.00019574	0.00023851	120.15	42.55	28.568	12.522	0.00021218	20.749	117.434	23.089	-98.768	-142.294	-128.445	-119.527	-143.135	-137.130	-97.094	-148.381	-139.171	-136.219	-133.626	-130.202	14.028	-133.308	-8191	255	
6211.588	1	1	0	0	0.1113	0.14324	0.10938	0.094597	0.018873	0.17045	0.25891	0.032313	0.044016	0.2174	0.02847	0.14985	0.066348	0.131	0.073416	0.02337	-2.2458	-3.2396	-3.175	-2.9125	-3.2354	-2.8292	-3.0375	-3.1	-2.7083	-3.2271	-3.1958	-2.9771	-3.1958	-2.6896	-3.0479	-3.0938	-46.912	60.634	15.760	0.890	-47.289	-135.050	103.642	86.080	7.871	114.613	44.305	55.368	-18.804	-132.628	-26.835	152.966	0.00032089	0.0010831	0.00020907	249.7	1.5836e-05	5.4229e-06	282.95	69.118	1.7176e-05	2.6386e-06	94.87	34.821	21.563	9.8557	1.1794e-05	16.814	0.011456	0.020787	0.0060281	291.7	0.00019856	0.0002376	319.95	82.406	0.00019527	0.00023564	119.03	42.063	28.246	12.402	0.00020908	20.365	112.342	-101.119	38.063	-142.008	-154.762	-35.225	-142.808	-137.472	147.984	-5.056	-139.885	-136.006	-134.126	-129.637	-141.455	-132.863	-8191	255	
6211.685	1	1	0	0	0.055526	0.35765	0.067516	0.28416	0.1221	0.085974	0.059176	0.34138	0.090169	0.13149	0.13343	0.13224	0.19887	0.095663	0.066871	0.082305	-2.4188	-3.1479	-2.95	-2.7646	-3.3688	-2.9854	-2.9833	-3.1708	-2.8146	-3.1396	-2.9792	-2.8021	-3.0979	-2.85	-3	-3.4125	-20.087	-60.764	76.518	148.147	-99.236	85.570	-137.115	-114.580	-113.792	85.845	-143.859	82.662	-137.116	83.579	152.620	-113.883	0.00063961	0.00080315	7.5689e-05	247.86	1.1541e-05	4.1181e-06	277.33	68.625	1.4668e-05	5.6739e-06	96.721	34.401	21.434	9.796	5.4497e-06	16.671	0.011179	0.020748	0.0060233	289.97	0.00019856	0.00023952	317.84	81.898	0.00019522	0.00023783	118.77	41.869	28.203	12.317	0.00021324	20.301	88.105	-62.964	20.011	-142.160	-10.172	-11.669	-143.353	-137.274	-88.120	130.254	-139.877	-135.736	-134.390	-130.005	-7.818	-132.734	-8191	255	
6211.781	1	1	0	0	0.17226	0.11032	0.038737	0.43049	0.076793	0.21263	0.14426	0.23426	0.15844	0.26345	0.19386	0.22949	0.2295	0.1974	0.04406	0.35771	-2.3771	-3.1167	-3.0542	-2.5854	-3.1917	-3.1188	-3.0042	-3.2458	-2.825	-3.1042	-3.2771	-2.6	-3.0458	-2.9979	-2.7042	-3.2417	116.014	55.108	-38.099	134.989	-5.071	-28.991	53.680	201.741	16.041	124.550	-44.090	-82.641	178.913	-130.188	-23.794	120.177	0.00019725	0.00060558	0.00026448	247.86	9.9598e-06	6.0285e-06	278.39	68.39	1.0538e-05	4.6078e-06	94.514	34.485	21.302	9.7282	6.2799e-06	16.748	0.011355	0.021014	0.0060401	289.39	0.00019649	0.00023786	317.02	81.753	0.00019641	0.00023902	118.45	41.761	28.026	12.347	0.00021406	20.357	71.851	-125.895	-6.989	-141.880	24.786	-37.867	-143.156	-138.025	27.524	-25.634	-139.580	-135.616	-133.428	-130.136	8.893	-132.710	-8191	255	
6211.900	1	1	0	0	0.053157	0.12822	0.28519	0.241	0.052423	0.095378	0.12364	0.15039	0.21137	0.16871	0.14461	0.24838	0.092453	0.19956	0.27093	0.18491	-2.5333	-2.9021	-3.1229	-2.8208	-3.0875	-3.0687	-2.8083	-3.2958	-2.8229	-2.7875	-3.2562	-2.8917	-3.0396	-3.125	-2.8667	-3.3438	100.187	10.272	87.054	93.791	127.975	168.394	49.350	107.737	144.493	-76.576	195.866	71.799	-31.425	40.097	87.198	-106.381	0.00052682	0.00069401	9.1648e-05	245.54	1.0194e-05	4.5407e-06	279.89	67.909	1.0666e-05	1.0573e-05	94.491	34.12	21.336	9.7945	4.4837e-06	16.832	0.011286	0.021144	0.0060388	288.41	0.00019687	0.00024471	317.42	81.605	0.00020101	0.00024709	118.67	41.86	28.155	12.383	0.00021919	20.396	86.547	-62.134	203.576	-142.001	192.076	39.036	-143.243	-137.410	172.998	41.956	-140.003	-136.387	-134.317	-130.414	-57.732	-133.161	-8191	255	
6211.973	1	1	0	0	0.085911	0.20235	0.21687	0.26872	0.15899	0.19182	0.20402	0.084059	0.10482	0.11744	0.040003	0.23156	0.14142	0.081405	0.23078	0.28955	-2.3646	-2.8833	-3.25	-2.8229	-3.2687	-3.1917	-2.7854	-3.1958	-2.8438	-2.9146	-3.2292	-2.6354	-3.1583	-3.1188	-2.7021	-3.2521	159.312	-110.767	146.795	131.492	183.769	-143.098	134.018	168.516	-63.933	121.758	125.467	-53.041	-153.165	-139.340	-6.291	165.618	0.00019234	0.00058298	2.7245e-05	248.19	8.4539e-06	8.2567e-06	279.96	68.01	8.3268e-06	7.8219e-06	94.502	33.98	21.177	9.6338	4.4483e-06	16.575	0.011668	0.021802	0.006157	289.18	0.00020534	0.00025043	317.51	81.741	0.0002037	0.00024852	118.15	41.59	28.061	12.309	0.00021909	20.146	79.165	32.563	20.327	-141.973	-13.179	198.352	-143.399	-137.571	-108.746	-98.374	-139.017	-136.921	-134.387	-129.795	18.295	-133.084	-8191	255	
6212.069	1	1	0	0	0.33058	0.087857	0.19056	0.15395	0.047105	0.19004	0.16848	0.25729	0.33904	0.13439	0.21034	0.14891	0.057055	0.15246	0.12746	0.10084	-2.6333	-2.875	-3.1042	-2.7	-2.975	-3.3667	-2.825	-3.2938	-3.0021	-2.9958	-3.3125	-2.9688	-2.9354	-3.3271	-2.7875	-3.2021	109.222	-48.026	105.291	-136.615	-8.247	-43.762	53.807	126.848	86.030	121.932	-40.867	-31.372	-12.353	-72.655	-148.033	158.913	0.00034006	0.0013165	0.00027774	242.7	1.7271e-05	5.6431e-06	274.82	66.94	1.3683e-05	1.8216e-06	93.84	33.827	20.944	9.6483	4.6824e-06	16.422	0.011855	0.022055	0.0061871	287.38	0.00020531	0.00024875	315.04	81.021	0.00020504	0.00025134	117.38	41.352	27.985	12.327	0.00021976	20.04	28.654	-42.309	41.204	-141.352	-70.999	-6.794	-143.446	-137.876	-100.453	186.090	-139.475	-136.269	-134.276	-129.849	25.495	-132.363	-8191	255	
6212.188	1	1	0	0	0.053759	0.3137	0.095475	0.38956	0.17083	0.16334	0.12438	0.19087	0.1111	0.21233	0.13008	0.096597	0.13018	0.16608	0.092365	0.29654	-2.5792	-2.625	-3.0271	-2.8854	-2.8438	-3.2812	-2.8688	-3.0625	-3.1146	-2.8479	-3.2438	-3.1271	-2.8563	-3.1854	-2.775	-2.9979	184.345	129.455	69.320	203.081	-81.729	199.553	54.548	-62.164	-17.679	-103.223	-78.105	131.900	-112.902	23.689	166.847	175.139	0.00048409	0.00060739	0.00039431	242.03	1.2007e-05	9.8492e-07	275.94	67.055	9.7002e-06	2.8689e-06	93.256	33.786	21.13	9.6796	1.0198e-05	16.518	0.011956	0.022106	0.0061885	287.07	0.00020777	0.00024959	314.9	81.224	0.00020723	0.00025136	117.42	41.541	28.215	12.323	0.00021995	20.276	107.886	-91.078	-9.465	-141.769	38.489	-7.023	-142.963	-137.652	-81.523	-46.297	-139.555	-136.078	-133.959	-130.781	-30.082	-132.905	-8191	255	
6212.284	1	1	0	0	0.17804	0.050501	0.1024	0.077921	0.12253	0.066599	0.27912	0.24103	0.25186	0.068802	0.29541	0.20167	0.24349	0.11484	0.19044	0.15071	-2.7458	-2.8021	-3.1729	-3.0958	-2.8396	-3.1875	-2.9229	-3.1542	-3.2313	-2.8271	-3.2313	-3.0458	-2.8917	-3.2729	-2.9458	-3.1021	88.460	162.720	123.040	-33.048	-31.013	-53.449	158.199	-143.790	163.373	82.037	188.937	-22.580	113.299	-15.125	-97.330	-5.311	0.00056917	0.0001352	0.00036616	242.5	1.6401e-05	6.5481e-06	275.08	67.705	7.0817e-06	7.7117e-06	92.98	34.327	21.345	9.706	9.2393e-06	16.713	0.011953	0.022274	0.0061339	287.79	0.00021058	0.00025327	315.32	81.685	0.00021	0.00025476	117.88	42.119	28.403	12.388	0.00022219	20.471	115.976	113.234	-62.804	-141.752	-70.470	78.665	-142.560	-137.842	188.554	204.109	-139.197	-136.537	-134.489	-130.104	-28.569	-133.009	-8191	255	
6212.380	1	1	0	0	0.15452	0.26879	0.14571	0.20961	0.26157	0.081573	0.23131	0.18906	0.23151	0.1566	0.21853	0.11921	0.34787	0.11209	0.10991	0.1254	-2.7146	-2.8542	-3.2417	-3.0312	-2.9354	-3.3396	-2.9042	-3.0208	-3.2	-2.7125	-3.1375	-3.1667	-2.8125	-3.1188	-3.0687	-2.9042	-93.201	103.384	86.294	71.804	12.408	16.433	-67.654	59.017	182.074	188.825	-144.358	78.515	176.023	-10.017	-7.503	-139.246	0.00048127	0.00073257	0.00023178	244.49	1.0035e-05	4.6845e-06	276.74	67.618	5.3595e-06	1.159e-05	94.882	34.08	21.276	9.6528	5.3183e-06	16.867	0.012091	0.022511	0.006285	290.04	0.00021291	0.00025114	316.53	81.959	0.00021095	0.00025475	118.45	42.052	28.578	12.413	0.00022312	20.458	144.833	-35.629	160.752	-141.830	54.462	108.132	-143.014	-137.176	130.009	60.145	-139.687	-135.708	-134.517	-129.913	-71.937	-132.946	-8191	255	
6212.476	1	1	0	0	0.30076	0.19885	0.15042	0.088911	0.17668	0.14408	0.093639	0.22351	0.18523	0.11225	0.13076	0.074553	0.15213	0.029369	0.094438	0.14569	-2.8771	-2.7729	-2.9979	-3.1125	-2.7521	-3.2542	-3.0958	-2.9979	-3.2625	-2.6833	-3.0646	-3.0625	-2.6604	-3.2042	-3.05	-2.8708	190.534	12.665	36.548	60.897	-131.597	139.506	-152.247	-148.436	3.704	-85.573	196.632	119.400	141.094	-126.387	64.349	152.669	0.00034268	0.00029112	0.00029288	243.35	7.565e-06	3.554e-06	276.29	67.21	1.6434e-05	1.4793e-06	94.199	33.847	21.197	9.7746	2.96e-06	16.782	0.012171	0.022287	0.0063033	289.3	0.00021244	0.00025301	316.65	81.698	0.00020877	0.00025467	118.19	41.94	28.346	12.403	0.00022501	20.48	105.619	-116.178	-1.066	-141.748	85.374	14.304	-142.897	-137.515	-54.735	44.561	-139.636	-136.565	-134.346	-129.876	-110.728	-132.877	-8191	255	
6212.573	1	1	0	0	0.10187	0.26885	0.1215	0.22315	0.16381	0.20673	0.196	0.20237	0.085489	0.28308	0.055814	0.087491	0.065749	0.24963	0.11809	0.051809	-2.8042	-2.6979	-3.0979	-3.0667	-2.7625	-3.1729	-2.95	-2.8521	-3.3396	-2.7833	-3.0854	-3.0333	-2.7708	-3.2979	-3.0604	-2.7958	182.147	-40.093	-125.206	55.079	144.846	-67.699	153.973	38.015	-40.563	63.818	-56.463	172.995	75.014	122.515	1.756	-42.857	0.00044956	0.00045981	0.00020007	242.17	2.421e-06	4.5603e-06	277.34	67.532	7.4699e-06	1.0377e-05	94.563	34.264	21.145	9.8093	2.8495e-06	16.674	0.012065	0.022359	0.0062777	288.88	0.00021199	0.00025229	316.47	81.808	0.00020818	0.00025458	118.68	42.092	28.542	12.458	0.00022485	20.543	141.400	-11.359	35.452	-141.414	-100.616	-57.906	-143.177	-136.884	34.568	36.563	-138.843	-136.764	-134.274	-128.922	-80.357	-133.347	-8191	255	
6212.669	1	1	0	0	0.059642	0.091392	0.18639	0.076796	0.14841	0.15349	0.16759	0.10232	0.092854	0.21462	0.045991	0.14701	0.18637	0.041057	0.19998	0.1521	-2.9479	-2.8458	-2.9458	-3.1583	-2.9875	-3.1646	-3.0458	-2.9583	-3.2229	-3.1063	-3.1063	-3.1292	-2.8792	-3.1271	-3.3229	-2.8229	-115.320	59.031	132.745	113.367	204.131	-21.475	-78.241	-125.990	-7.954	67.060	16.018	-79.795	143.276	181.321	54.408	-152.516	0.00059901	0.00081404	0.0001591	242.4	1.2161e-05	5.3469e-06	275.55	68.217	2.0692e-05	1.0753e-05	95.061	34.631	21.478	9.9157	1.5154e-05	17.074	0.011996	0.022403	0.0063102	288.76	0.00021016	0.00025026	316.56	82.13	0.00020898	0.00025663	119.13	42.54	28.695	12.528	0.00023054	20.764	105.910	52.080	-141.609	-141.652	-52.325	172.358	-143.155	-137.193	-34.981	67.643	-139.649	-136.796	-133.945	-130.313	-13.154	-133.257	-8191	255	
6212.789	1	1	0	0	0.32271	0.19464	0.15124	0.14277	0.13122	0.16001	0.3215	0.071448	0.12822	0.13995	0.26459	0.26264	0.1416	0.085745	0.12455	0.066506	-2.6583	-3.0104	-2.9229	-3.2604	-2.8458	-3.1417	-3.3083	-2.8792	-3.1979	-3.1604	-3.0271	-3.3187	-2.9042	-3.1417	-3.1958	-2.9146	-26.447	0.728	57.246	157.575	165.595	182.026	-148.052	90.660	104.520	-109.500	-138.178	152.923	186.062	54.229	-61.866	-141.955	0.00054091	0.00023805	0.00027746	244.96	7.1131e-06	5.3986e-06	277.3	67.215	5.8059e-06	4.0903e-06	94.366	34.321	21.235	9.7271	2.4123e-06	16.898	0.011975	0.022727	0.0063882	289.05	0.0002108	0.0002527	318.19	82.014	0.00020767	0.00025735	119.23	42.366	28.647	12.485	0.00022662	20.618	115.694	102.688	70.088	-142.303	49.556	158.059	-143.334	-137.328	-36.915	34.036	-138.486	-136.386	-135.069	-130.229	197.584	-132.748	-8191	255	
6212.886	1	1	0	0	0.22944	0.3104	0.24494	0.1465	0.17048	0.21126	0.20981	0.27995	0.12137	0.090415	0.061483	0.089324	0.08467	0.06905	0.14758	0.20274	-2.7646	-2.9583	-2.7562	-3.2979	-2.8479	-3.05	-3.3146	-2.7104	-3.2083	-3.05	-2.7396	-3.2417	-2.7208	-2.8375	-3.25	-2.7958	141.531	203.472	171.184	-128.833	-83.863	-77.449	154.009	8.245	-132.342	149.042	-100.362	91.073	126.609	126.889	105.711	112.047	0.0006137	0.00045057	5.0245e-05	243	4.0312e-06	8.5662e-06	277.05	67.702	2.0143e-05	7.9406e-06	93.902	34.405	21.198	9.7978	7.4942e-06	16.852	0.011869	0.022421	0.0062641	287.47	0.00020774	0.00024866	315.63	82.048	0.00020303	0.00025428	118.69	41.989	28.337	12.392	0.00022302	20.444	101.435	-7.412	-129.504	-142.013	-65.764	-83.472	-143.101	-136.963	104.315	-3.691	-139.473	-136.083	-133.794	-129.893	-39.284	-133.205	-8191	255	
6212.980	1	1	0	0	0.19724	0.14903	0.23308	0.058384	0.22007	0.14908	0.20325	0.046443	0.12773	0.21068	0.085596	0.20723	0.2989	0.13811	0.16653	0.25688	-2.5583	-2.975	-2.7125	-3.2375	-3.0458	-2.9146	-3.4542	-2.7521	-3.0229	-3.0792	-2.95	-3.3	-3.0979	-3.0104	-3.3063	-2.6896	31.661	70.149	19.738	8.769	-154.934	200.909	174.860	160.318	-140.033	76.722	-101.400	-56.874	79.758	73.292	-143.089	141.063	0.00024781	0.00047996	0.00024749	245.66	3.7465e-06	3.77e-06	276.37	67.669	9.4707e-06	9.9225e-06	93.682	34.003	21.134	9.8761	5.2068e-06	16.79	0.011581	0.022156	0.006205	287.33	0.00020448	0.00024608	315.03	81.519	0.00020083	0.00024832	118.05	41.63	28.269	12.359	0.00021564	20.304	70.320	-43.262	78.251	-141.649	-108.512	179.257	-142.820	-137.300	1.467	62.685	-139.526	-136.711	-133.903	-130.251	-29.605	-133.351	-8191	255	
6213.076	1	1	0	0	0.22154	0.21227	0.21771	0.22416	0.14835	0.097387	0.10908	0.21714	0.13425	0.10999	0.15975	0.17599	0.20173	0.16151	0.12874	0.1728	-2.4562	-3.1292	-2.725	-3.275	-3.0729	-2.8083	-3.2562	-2.7958	-3.0333	-3.3167	-2.8604	-3.1063	-3.0625	-2.7604	-3.225	-2.8396	130.595	-45.465	188.534	148.637	-28.232	101.586	129.110	47.138	84.838	156.136	-3.352	131.095	100.499	163.867	-116.936	114.056	0.00041962	0.00078321	0.00012694	244.34	1.5273e-05	1.7754e-06	275.18	67.629	7.4016e-06	4.1484e-06	94.154	34.289	21.224	9.7295	6.7739e-06	16.701	0.011362	0.021873	0.0061456	287.25	0.00020546	0.00025078	315.04	81.74	0.00020466	0.00025532	118.54	41.985	28.482	12.413	0.00022075	20.397	90.297	50.435	-118.965	-141.442	144.248	115.367	-143.249	-137.246	-149.015	-115.263	-139.558	-136.197	-134.100	-130.393	-66.561	-132.936	-8191	255	
6213.197	1	1	0	0	0.18954	0.019149	0.068951	0.054624	0.1866	0.097424	0.16891	0.21291	0.18881	0.2152	0.15928	0.10929	0.2356	0.091432	0.35304	0.26542	-2.55	-3.2521	-2.7625	-3.0354	-2.9646	-2.7938	-3.5042	-2.9	-3.0583	-3.1375	-2.925	-3.1396	-3.0687	-2.7354	-3.1854	-2.9229	-87.523	143.917	64.695	112.337	35.164	-31.228	51.459	173.616	63.229	25.328	-3.874	76.577	107.633	185.766	195.049	-42.294	0.00033122	0.0011991	0.0002732	244.88	7.1505e-06	7.1303e-06	276.52	67.976	1.3211e-05	6.2353e-06	94.385	34.267	21.228	9.7296	1.0029e-05	16.527	0.011823	0.02232	0.0062259	287.87	0.00020926	0.00025166	315.22	81.915	0.00020497	0.000251	117.73	41.617	28.303	12.302	0.00021874	20.247	98.912	50.699	-120.297	-141.301	-5.795	64.593	-143.550	-137.300	105.877	72.198	-139.808	-136.240	-134.085	-130.122	3.347	-132.986	-8191	255	
6213.268	1	1	0	0	0.25874	0.11214	0.39865	0.1932	0.075068	0.18597	0.194	0.085936	0.18188	0.34971	0.1369	0.1312	0.26544	0.10902	0.39166	0.054634	-2.6167	-3.1792	-3.0146	-3.1937	-3.2062	-2.875	-3.4292	-2.9313	-2.9875	-3.2854	-2.7854	-2.9729	-3.1417	-2.9188	-3.2021	-2.9458	167.116	131.687	-26.009	-55.832	126.748	102.426	81.056	89.923	-73.322	191.304	115.763	177.289	-101.822	-23.522	83.607	-73.074	0.00022636	0.00055871	0.00015707	243.38	1.1933e-06	8.7333e-06	272.8	67.223	8.6016e-06	6.4974e-06	93.776	33.779	21.208	9.569	8.1035e-06	16.358	0.011783	0.022162	0.0061814	286.84	0.00021094	0.00025105	313.18	81.257	0.00020463	0.00025198	117.01	41.545	28.196	12.231	0.00022236	20.122	85.127	-116.865	198.503	-142.028	202.034	-18.658	-142.962	-137.135	-21.476	120.967	-139.787	-136.223	-134.548	-129.670	96.652	-132.923	-8191	255	
6213.365	1	1	0	0	0.14741	0.1213	0.039245	0.0923	0.22335	0.22473	0.067085	0.085197	0.031983	0.25754	0.038355	0.31643	0.095969	0.17809	0.15238	0.24775	-2.45	-3.4208	-2.9354	-3.1542	-3.4813	-2.7896	-3.1271	-2.9646	-2.8417	-3.2021	-2.9313	-2.9125	-3.1271	-2.9125	-3.2229	-2.9042	113.659	89.940	135.341	184.459	188.199	47.263	84.703	-102.661	134.685	118.092	114.504	-146.172	-104.830	20.387	16.082	175.208	0.00033262	0.00046756	0.00010933	243.32	3.4105e-06	1.5411e-05	269.09	66.855	4.6501e-06	9.4272e-06	92.779	33.318	20.508	9.4356	8.5901e-06	16.31	0.012151	0.022404	0.0063393	287.14	0.00021472	0.00025366	311.29	81.182	0.00021287	0.00025893	117.05	41.374	28.214	12.251	0.00022942	20.132	115.125	-9.551	109.397	-142.224	62.775	107.368	-142.844	-137.429	57.102	92.608	-140.200	-136.647	-133.680	-129.772	-126.171	-133.814	-8191	255	
6213.461	1	1	0	0	0.2801	0.043589	0.19099	0.2309	0.15774	0.18197	0.14415	0.14396	0.12805	0.26491	0.12397	0.10929	0.037433	0.071228	0.089833	0.26071	-2.4521	-3.2729	-2.9542	-3.1771	-3.2042	-2.8417	-3.175	-3.0396	-2.825	-3.2479	-2.9917	-2.7833	-3.225	-2.8521	-2.9229	-3.2333	86.506	131.024	111.939	75.705	26.322	107.816	82.949	-55.323	-151.040	191.055	-91.327	-29.803	-139.780	46.438	23.775	44.405	0.00050669	0.0012102	0.00024895	241.01	1.204e-05	5.2523e-06	269.78	66.482	2.0284e-05	8.1543e-06	91.812	33.008	20.775	9.4469	1.1672e-06	16.332	0.012554	0.023189	0.0065617	288.46	0.00022422	0.00026689	313.03	81.515	0.0002189	0.0002655	117.92	41.569	28.378	12.252	0.00023392	20.334	82.470	-16.074	-137.945	-141.899	60.205	85.088	-143.048	-137.717	-5.562	-31.509	-139.930	-136.094	-134.324	-130.010	170.556	-133.116	-8191	255	
6213.581	1	1	0	0	0.33465	0.24247	0.15656	0.078781	0.21917	0.17329	0.22042	0.16758	0.23325	0.014351	0.18436	0.11565	0.11577	0.2343	0.098395	0.17807	-2.3563	-3.1417	-2.8563	-2.9562	-3.3979	-2.7667	-2.9083	-3.3875	-2.7208	-3.2	-3.2021	-2.8417	-3.2417	-2.8937	-3.1604	-3.2	23.899	77.295	127.958	59.410	84.656	-35.718	-64.259	99.509	169.624	38.840	-43.320	-155.052	-127.892	19.361	201.220	161.693	0.00020507	0.00039071	0.00025312	239.98	1.9908e-05	7.4796e-06	268.93	65.792	1.0338e-05	3.1758e-06	92.188	33.752	20.727	9.4047	5.9978e-06	16.143	0.012814	0.023804	0.0068117	289.08	0.0002281	0.00027273	314.19	81.659	0.00022434	0.00027173	118.35	41.949	28.499	12.298	0.00024034	20.333	140.359	85.538	20.178	-142.093	-49.179	111.585	-142.829	-137.477	-22.546	123.500	-139.770	-136.142	-134.342	-129.880	52.756	-133.424	-8191	255	
6213.677	1	1	0	0	0.11817	0.11186	0.039249	0.15287	0.26898	0.073689	0.24753	0.11696	0.13056	0.18488	0.10068	0.12998	0.16517	0.085385	0.10251	0.25571	-2.3917	-3.2104	-3.0146	-2.6521	-3.1292	-2.825	-3.0312	-3.2229	-2.8312	-3.1458	-2.9979	-2.7812	-3.0854	-2.8104	-3.0708	-3.1208	110.717	-101.686	26.928	-57.475	139.595	71.359	-145.427	179.349	29.903	60.340	22.209	176.691	-95.380	104.709	127.041	116.998	0.00072294	0.00026958	0.00033674	238.5	8.0864e-06	3.6606e-07	270.72	65.663	5.2878e-06	8.2073e-06	90.842	32.878	20.329	9.2794	1.1003e-05	16.083	0.012935	0.023893	0.006873	288.12	0.00022686	0.00027443	313.82	81.581	0.00022549	0.00027076	117.01	41.455	28.109	12.182	0.00023874	20.129	90.542	168.654	147.123	-142.089	71.865	-79.819	-143.322	-137.584	-153.680	-127.916	-139.421	-136.348	-134.358	-129.845	-34.585	-133.034	-8191	255	
6213.774	1	1	0	0	0.15928	0.16433	0.18557	0.10752	0.13053	0.074904	0.061393	0.1705	0.15324	0.27339	0.21088	0.19468	0.22492	0.13769	0.031548	0.099502	-2.4229	-3.0271	-3.1146	-2.8021	-3.1042	-2.9938	-3.0271	-3.2562	-2.8146	-3.2125	-3.1583	-2.7021	-3.1958	-2.9125	-2.975	-3.2479	68.307	-7.664	23.134	-99.169	78.412	-97.742	-18.821	93.631	-112.644	155.786	122.011	146.559	-73.445	167.287	63.720	93.706	0.00022482	0.0012387	0.00012654	237.67	3.6053e-06	7.131e-06	266.72	65.403	1.5122e-06	1.1693e-05	91.367	32.523	20.42	9.3713	3.6134e-06	16.106	0.012766	0.023709	0.0068093	286.48	0.00022284	0.00026985	310.23	81.048	0.00022154	0.00026741	117.37	41.078	27.936	12.162	0.00023742	20.011	137.480	-36.135	-104.366	-142.430	64.804	-74.348	-143.819	-137.481	150.278	189.199	-139.493	-136.072	-133.969	-129.639	186.497	-133.064	-8191	255	
6213.870	1	1	0	0	0.11315	0.13503	0.11331	0.10107	0.3293	0.1447	0.079591	0.086504	0.10691	0.079401	0.15334	0.25319	0.17207	0.12814	0.24099	0.16427	-2.4417	-3.0833	-3.2229	-2.7417	-3.1312	-3.0979	-2.8396	-3.2313	-2.9417	-3.0917	-3.2625	-2.6542	-3.175	-3.0583	-2.8688	-3.1063	97.704	40.484	-57.314	29.862	182.773	-82.022	151.032	162.423	59.030	62.086	64.918	-135.190	133.293	-66.805	200.464	46.732	0.00014896	0.0010731	0.00019094	239.32	1.7656e-05	2.8941e-06	266.98	65.091	6.1855e-06	1.0072e-05	90.862	32.677	20.23	9.4247	1.1309e-05	16.195	0.012575	0.023558	0.0067636	285.36	0.00021678	0.00026663	310.01	80.708	0.00021739	0.00026614	116.94	41.213	27.813	12.184	0.00023608	20.112	90.145	149.989	-15.727	-142.198	47.604	-39.329	-142.908	-136.759	107.733	201.364	-139.873	-136.100	-134.907	-129.601	-121.947	-132.710	-8191	255	
6213.966	1	1	0	0	0.15072	0.14745	0.16221	0.045406	0.27163	0.11998	0.30213	0.11133	0.18598	0.18874	0.13591	0.16285	0.087642	0.15302	0.25098	0.19911	-2.3458	-2.9542	-3.2146	-2.6479	-3.0312	-3.2104	-2.8438	-3.0604	-2.75	-2.8521	-3.1417	-2.6625	-3.2521	-3.0104	-2.8833	-3.3063	-89.095	204.315	62.492	-63.746	-52.744	114.365	182.895	-145.332	26.610	-62.489	-66.458	-41.279	51.349	17.923	-65.537	94.937	0.00035338	0.00052215	0.00014636	236.28	5.3053e-06	7.7921e-06	269.84	65.615	4.7482e-06	1.2124e-05	91.474	32.899	20.611	9.5209	8.2166e-06	16.19	0.012475	0.023401	0.0066237	284.55	0.00021918	0.00026982	312.16	80.795	0.00021943	0.00027047	117.39	41.497	28.235	12.328	0.00023741	20.169	74.769	-66.200	-100.872	-141.621	158.441	167.225	-143.616	-137.153	-86.410	50.126	-139.713	-136.328	-134.612	-129.748	-13.228	-133.150	-8191	255	
6214.060	1	1	0	0	0.16771	0.046734	0.13183	0.1149	0.27858	0.20823	0.079805	0.32157	0.081115	0.11001	0.1769	0.24477	0.16743	0.022754	0.11015	0.18051	-2.6229	-2.9042	-3.3021	-2.7208	-3.0229	-3.1146	-2.9188	-3.1021	-3.0875	-2.8167	-3.2812	-2.8438	-3.0583	-3.0646	-2.7833	-3.1917	-7.174	-77.310	-143.210	164.639	-132.189	160.424	123.644	-95.979	183.121	77.358	137.390	-84.693	-43.864	136.784	182.489	146.787	0.00039432	0.00091112	0.00011325	237.08	8.6531e-06	7.8372e-06	268.38	65.429	1.6223e-05	4.9507e-06	90.873	32.981	20.749	9.4482	9.0064e-06	16.134	0.012724	0.023978	0.0067697	285.72	0.00022153	0.00027209	311.77	80.988	0.00022439	0.00027621	117.61	41.49	28.293	12.308	0.00024145	20.117	94.899	-59.321	-25.250	-141.631	77.533	108.925	-143.260	-137.710	-120.325	165.277	-139.730	-136.127	-134.655	-129.982	153.738	-132.998	-8191	255	
6214.158	1	1	0	0	0.13969	0.14387	0.12754	0.15597	0.07163	0.12703	0.34405	0.20241	0.33203	0.15685	0.026348	0.29297	0.23585	0.18247	0.068614	0.064166	-2.7333	-2.8	-3.2625	-2.9333	-3.0917	-3.2125	-2.7792	-3.2021	-3.1229	-2.8833	-3.0833	-2.8083	-2.9958	-3.1875	-2.85	-3.1396	-31.866	-10.680	192.850	180.349	-38.589	165.312	70.493	94.190	172.686	95.837	-41.541	-153.563	51.831	-95.873	156.028	-54.278	0.00045616	0.00025046	0.00045275	238.25	7.549e-06	8.4033e-06	263.88	65.442	9.5607e-06	3.499e-06	91.421	33.294	20.569	9.4135	3.5656e-06	16.284	0.012917	0.024234	0.0067259	286.17	0.00022634	0.00027633	311.01	80.998	0.00022743	0.00027522	117.4	41.638	28.379	12.336	0.00024369	20.287	101.584	-152.367	-63.163	-142.350	-54.141	17.042	-142.863	-137.188	-86.834	70.991	-139.733	-136.392	-133.612	-130.179	108.612	-132.639	-8191	255	
6214.277	1	1	0	0	0.18255	0.34075	0.17293	0.11789	0.046021	0.15451	0.17821	0.3112	0.25049	0.2766	0.14789	0.15123	0.33312	0.21548	0.25225	0.031313	-2.6583	-2.8187	-3.2167	-2.8021	-2.9938	-3.1708	-2.9771	-3.0833	-3.1125	-2.8896	-3.1271	-3.1458	-2.8458	-3.1979	-2.7375	-3.0542	-13.319	112.174	-22.731	156.856	-100.298	19.922	41.722	-93.751	58.412	-29.380	185.631	39.162	181.237	-47.123	66.464	169.805	0.00034323	0.00063691	0.00032188	237.15	1.0022e-05	7.1853e-06	266.9	65.289	1.6346e-05	7.301e-06	90.036	32.955	20.466	9.4344	9.1006e-06	16.047	0.013316	0.024825	0.0069266	286.92	0.00023354	0.00028091	311.81	81.292	0.00023211	0.00027802	117.38	41.639	28.449	12.372	0.00024587	20.247	94.041	44.995	-50.662	-142.228	-20.593	85.317	-143.322	-137.181	-79.770	-2.984	-139.376	-136.471	-134.797	-129.524	-36.502	-133.012	-8191	255	
6214.373	1	1	0	0	0.25441	0.19755	0.036914	0.25939	0.1992	0.14898	0.10996	0.096375	0.19882	0.094747	0.09079	0.051613	0.25352	0.1837	0.13659	0.22337	-2.7875	-2.7125	-3.1729	-3.2313	-2.8083	-3.3792	-2.8833	-2.8917	-3.0958	-2.8583	-3.2708	-3.1708	-2.9604	-3.1521	-2.9667	-3.0438	-99.855	-105.860	-38.077	158.852	134.535	60.593	61.770	45.043	168.511	43.017	-6.684	4.868	169.954	117.034	174.282	165.278	0.00063283	0.00049612	0.00020725	236.43	7.7109e-06	4.3302e-06	266.26	65.486	1.194e-05	7.5651e-06	91.126	33.079	20.755	9.3982	8.1985e-06	16.319	0.013442	0.024729	0.0068606	287.81	0.000233	0.0002772	312.63	81.38	0.0002306	0.00027954	117.85	41.945	28.528	12.362	0.00024392	20.391	97.667	66.023	100.904	-141.932	-45.420	-130.805	-143.171	-137.419	158.749	173.560	-138.963	-136.554	-134.150	-129.543	29.213	-133.031	-8191	255	
6214.469	1	1	0	0	0.18117	0.16624	0.11206	0.15365	0.090705	0.097655	0.18761	0.14192	0.12076	0.25584	0.36345	0.15568	0.078861	0.34081	0.20537	0.33656	-2.6333	-2.7625	-3.1271	-3.15	-2.6333	-3.2083	-2.9813	-2.8563	-3.2562	-2.6708	-3.0687	-2.9958	-2.8271	-3.125	-3.0312	-2.7188	82.028	-134.771	133.587	-53.632	136.244	56.748	67.276	-118.035	9.278	-20.158	81.346	-50.930	-111.998	181.003	114.955	-23.449	0.00055613	0.00058057	0.00019082	236.73	3.2266e-06	8.1077e-06	266.84	64.912	1.6625e-05	1.1337e-05	91.383	32.845	20.598	9.3158	2.6003e-06	15.955	0.013376	0.024546	0.0068952	287.38	0.00023201	0.00027618	311.79	81.239	0.000229	0.00027643	117.67	41.518	28.261	12.19	0.00024451	20.078	100.937	-59.412	200.794	-142.203	40.155	11.559	-143.141	-137.081	-50.404	-5.041	-139.925	-136.545	-134.411	-129.589	119.929	-133.089	-8191	255	
6214.566	1	1	0	0	0.164	0.24016	0.11172	0.048899	0.088636	0.48486	0.18044	0.17031	0.28022	0.13197	0.23588	0.25406	0.18232	0.15185	0.044015	0.049805	-2.9042	-2.7646	-3.1208	-3.2229	-2.7542	-3.2562	-3.0667	-3.0042	-3.2354	-2.8292	-3.1688	-3.1458	-2.5521	-3.1729	-3.0667	-2.7167	55.069	200.556	24.558	102.954	-61.827	89.218	71.091	-85.754	-61.286	-129.133	122.984	148.574	157.583	-36.987	-131.733	-119.439	0.00032283	0.00040807	0.00035658	239.18	1.1077e-05	7.3245e-06	267.16	64.802	1.2267e-05	6.4804e-06	90.449	32.543	20.244	9.2597	7.6682e-06	16.066	0.013219	0.02434	0.0068116	287.1	0.00022854	0.00027216	310.22	80.733	0.00022602	0.00027254	116.68	41.177	28.091	12.099	0.00024144	20.047	76.143	-118.692	114.898	-141.752	109.946	164.250	-143.128	-137.435	22.139	162.855	-138.855	-136.377	-134.350	-129.922	1.927	-133.384	-8191	255	
6214.662	1	1	0	0	0.12695	0.044163	0.023724	0.25243	0.15325	0.1134	0.34765	0.16866	0.037449	0.13301	0.2075	0.03392	0.097801	0.27395	0.16379	0.075614	-2.8542	-2.8625	-2.7896	-3.1562	-2.6333	-3.2021	-3.0042	-2.7687	-3.1437	-2.8979	-3.0062	-2.9938	-2.7896	-3.1042	-3.1188	-3.0062	-83.717	70.718	-17.279	108.542	172.543	37.430	155.822	-144.034	-81.805	42.604	35.878	-65.504	91.578	68.375	-98.173	-76.151	0.00022285	0.0003909	0.00011887	237.19	9.0097e-06	5.7836e-06	263.12	65.175	5.4636e-06	5.4216e-06	89.468	32.736	20.179	9.2191	9.3058e-06	16.048	0.012913	0.023996	0.0067416	285.44	0.00022516	0.00026599	308.65	80.54	0.00022153	0.00027383	116.41	41.227	27.967	12.083	0.00024074	20.11	124.681	-95.681	192.620	-141.631	75.089	46.350	-143.112	-137.255	204.509	-4.478	-139.652	-136.129	-134.477	-129.637	6.887	-132.822	-8191	255	
6214.758	1	1	0	0	0.19576	0.22291	0.19097	0.069908	0.13238	0.17282	0.19261	0.11299	0.076558	0.21993	0.23388	0.15521	0.11434	0.13604	0.14357	0.13491	-2.8146	-2.8312	-2.8396	-3.2583	-2.8125	-3.1646	-3.2167	-2.8042	-3.2687	-3.0104	-3.0167	-3.2167	-2.9688	-2.9208	-3.1396	-2.675	73.671	-14.428	-137.898	-60.800	-84.640	120.287	117.159	68.126	-82.512	165.298	132.961	-57.218	-35.360	-5.578	-148.732	-71.831	0.00070107	0.00026203	0.00029812	236.52	6.7855e-06	1.5346e-05	265.84	65.025	4.4518e-06	7.3674e-06	90.389	32.724	20.324	9.4051	9.6142e-06	16.156	0.012701	0.023915	0.0067656	285.05	0.00022591	0.00026801	310.1	80.491	0.00021806	0.00026991	116.63	41.168	28.022	12.195	0.00024117	20.171	145.598	176.558	139.836	-141.957	49.953	158.432	-143.100	-137.819	-41.307	-136.582	-140.393	-136.089	-134.652	-129.933	-57.905	-132.926	-8191	255	
6214.878	1	1	0	0	0.14275	0.11054	0.068111	0.095897	0.033771	0.17701	0.096314	0.19294	0.16067	0.14193	0.10015	0.076723	0.11568	0.1379	0.12389	0.16993	-2.8854	-2.8167	-2.7917	-3.2646	-2.8833	-3.1021	-3.175	-2.7313	-3.175	-3.0271	-2.7375	-3.1937	-2.8521	-2.8688	-3.1813	-2.6917	193.574	35.166	77.590	-154.782	-69.795	142.767	173.521	130.040	85.728	17.523	88.954	32.265	-56.028	-7.424	-24.950	27.986	0.00032242	0.00038344	0.00037499	237.43	3.1138e-06	3.1411e-06	265.59	65.054	6.2634e-06	4.9396e-06	91.768	32.725	20.29	9.4142	5.269e-06	16.038	0.012653	0.023806	0.006728	285.18	0.00022507	0.00026919	311.08	80.844	0.00021919	0.00027355	117.2	41.35	28.144	12.191	0.00024135	20.13	108.415	-143.169	16.348	-141.810	32.362	95.653	-143.264	-137.450	160.789	-141.342	-139.596	-136.297	-134.182	-130.164	-5.211	-132.640	-8191	255	
6214.973	1	1	0	0	0.095925	0.028233	0.13986	0.10707	0.13757	0.11435	0.22017	0.21586	0.036089	0.054188	0.053052	0.11012	0.1243	0.17596	0.28327	0.084792	-2.7833	-3.0042	-2.8917	-3.1167	-3.0062	-3.1354	-3.2562	-2.7333	-3.1729	-3.0146	-2.7333	-3.1708	-3.0542	-2.8458	-3.2854	-2.6562	-120.383	79.696	-37.011	79.791	-92.827	29.613	91.083	-130.702	-154.044	-78.715	-27.210	181.546	19.119	74.307	203.387	-149.238	0.00037339	0.00068788	0.00015922	237.61	4.7198e-06	6.7098e-07	264.74	64.869	2.1066e-05	1.0039e-05	90.303	32.428	20.106	9.2952	1.0618e-05	16.012	0.012769	0.02439	0.006825	285.02	0.00022698	0.00027067	310.52	80.691	0.00022207	0.00027691	117.19	41.183	28.251	12.224	0.00024833	20.136	75.307	49.671	-39.821	-142.236	-106.659	72.102	-142.753	-137.339	-0.017	-55.833	-139.397	-136.559	-134.835	-130.227	-35.417	-133.565	-8191	255	
6215.069	1	1	0	0	0.070189	0.18066	0.26556	0.20105	0.055955	0.17527	0.059003	0.11107	0.1693	0.27282	0.07892	0.19434	0.2694	0.17668	0.029912	0.19455	-2.7854	-2.975	-2.7792	-3.3625	-2.9521	-2.95	-3.1479	-2.8625	-2.8729	-3.2292	-2.8438	-3.2313	-3.0896	-2.8979	-3.2667	-2.9458	49.560	46.412	27.321	120.171	-58.740	93.205	145.557	197.112	-80.913	183.879	-25.538	102.929	154.181	107.977	77.788	141.809	0.00018441	0.001088	0.00018157	235.63	4.804e-06	1.578e-05	263.89	65.304	1.2133e-05	2.2867e-06	92.017	32.243	20.357	9.3118	4.3057e-06	16.173	0.013155	0.024918	0.0070137	285.19	0.00023278	0.00028089	310.8	80.72	0.00022608	0.000282	117.43	41.308	28.36	12.285	0.00024643	20.25	143.220	-59.185	164.730	-141.880	131.498	190.338	-143.086	-137.030	138.890	-29.453	-140.182	-136.256	-134.363	-129.614	110.485	-132.682	-8191	255	
6215.142	1	1	0	0	0.25012	0.0302	0.02864	0.32343	0.2697	0.28055	0.21163	0.16948	0.18937	0.16232	0.092909	0.10758	0.16074	0.20909	0.14105	0.11149	-2.7167	-3.1312	-2.8625	-3.1271	-3.0521	-2.7042	-3.325	-2.8958	-2.9167	-3.1271	-2.7208	-3.1188	-3.2083	-2.85	-3.3354	-2.9979	-154.969	-69.279	3.064	96.074	-134.893	-30.344	165.732	204.257	125.249	-74.114	-82.364	165.085	-40.316	90.922	52.288	108.961	0.00049565	0.00064483	1.0587e-05	236.54	1.319e-05	5.1035e-06	263.8	64.746	1.1014e-05	6.88e-06	89.963	32.932	20.685	9.4011	8.0021e-06	16.145	0.013063	0.024908	0.0069343	284.71	0.00023212	0.00027903	310.56	81.127	0.00022803	0.00028456	117.73	41.585	28.55	12.34	0.00024769	20.396	66.214	66.970	-62.124	-141.366	-128.247	-36.507	-142.938	-137.351	155.178	-80.678	-139.575	-136.182	-133.725	-130.182	-47.253	-132.951	-8191	255	
6215.261	1	1	0	0	0.2414	0.22983	0.10137	0.1137	0.20258	0.084908	0.13368	0.14608	0.16188	0.10315	0.057095	0.17524	0.11782	0.02704	0.17748	0.14664	-2.4292	-3.1604	-2.6188	-3.2229	-3.1396	-2.9833	-3.1583	-2.8875	-2.9188	-3.3875	-3.0104	-3.1021	-3.2104	-2.5479	-3.3479	-3.1458	188.580	36.864	191.404	123.180	72.021	-74.047	115.090	-79.698	-131.589	-109.794	-137.133	140.927	189.932	-138.629	148.371	-133.696	0.0004428	0.00038039	0.00014718	238.05	1.2235e-05	2.826e-06	266.71	65.26	9.9345e-06	7.3398e-06	90.684	32.952	20.492	9.3901	8.8612e-06	16.155	0.013272	0.024977	0.0069668	287.19	0.00023536	0.00027971	311.54	81.362	0.00023017	0.00028287	117.77	41.664	28.489	12.301	0.00024347	20.348	110.285	142.538	164.982	-141.845	191.403	-49.803	-143.020	-137.596	104.641	42.982	-138.744	-136.255	-134.464	-129.537	200.418	-133.365	-8191	255	
6215.357	1	1	0	0	0.090943	0.28805	0.13807	0.097009	0.15096	0.05995	0.25627	0.073177	0.063682	0.077804	0.11965	0.079891	0.10212	0.11179	0.201	0.12814	-2.5333	-3.1729	-2.8646	-3.1125	-3.3125	-2.9208	-3.2604	-2.9333	-2.925	-3.4146	-2.9104	-3.1188	-3.075	-2.65	-3.1333	-3.1417	-106.182	122.841	28.548	82.730	118.022	36.267	98.940	59.960	-149.156	61.765	87.996	6.453	86.639	-6.388	-10.511	-109.378	0.00031808	3.816e-05	0.00011901	237.32	1.1772e-05	1.6257e-06	266.08	65.079	4.9636e-06	1.2134e-05	90.299	32.545	20.052	9.1877	1.1655e-05	16.024	0.013083	0.024415	0.0068471	285.93	0.00023109	0.00027213	308.83	81.095	0.00022358	0.00027097	116.55	41.034	28.114	12.07	0.00023654	19.979	98.555	182.107	99.895	-142.356	136.562	69.356	-143.175	-137.525	54.453	15.644	-139.652	-136.332	-134.342	-130.536	149.739	-133.410	-8191	255	
6215.454	1	1	0	0	0.16418	0.24517	0.15086	0.12602	0.051986	0.11544	0.12268	0.16462	0.16988	0.10488	0.11303	0.09218	0.098681	0.18293	0.17515	0.092597	-2.3771	-3.1292	-2.9333	-2.9833	-3.3125	-2.8125	-3.2208	-3.1354	-2.8771	-3.1625	-3.1	-2.8375	-3.0333	-2.8271	-3.05	-3.3667	198.297	-58.716	151.769	134.648	-124.688	121.106	120.354	-3.070	-147.052	149.834	53.259	-75.035	75.603	-49.578	-128.131	17.547	0.00061798	0.00053809	0.00015313	238.01	7.5971e-06	2.5782e-06	265.25	65.179	1.3283e-05	3.5145e-06	89.215	32.512	20.512	9.222	1.8454e-05	15.913	0.012822	0.023766	0.0067116	285.25	0.00022756	0.00027028	308.4	80.74	0.00022301	0.00026945	116.11	41.061	28.15	12.131	0.00024071	20.12	135.821	-110.950	125.758	-142.621	-92.591	50.050	-142.940	-137.765	52.688	-51.252	-139.873	-136.390	-134.612	-129.943	-77.506	-133.203	-8191	255	
6215.550	1	1	0	0	0.074811	0.11742	0.086701	0.1121	0.19744	0.12527	0.22519	0.10717	0.23485	0.1458	0.29794	0.21962	0.20422	0.12749	0.16636	0.07588	-2.3833	-3.1021	-2.7875	-2.9854	-3.0542	-2.8375	-3.0125	-3.0438	-2.8667	-3.1083	-2.8917	-2.8146	-3.3021	-2.9688	-2.9958	-3.2104	72.920	100.539	143.186	42.047	-70.277	116.389	169.318	-77.846	0.876	199.420	148.687	74.819	198.031	19.750	-100.081	119.939	0.00041627	0.00046043	0.00035659	237.62	4.2209e-06	7.648e-06	262.68	65.308	7.5464e-06	5.5637e-06	89.97	32.375	20.337	9.1695	1.3531e-06	16.148	0.013134	0.024185	0.0068516	285.23	0.00023097	0.00027042	308.2	80.969	0.00022508	0.00027347	116.54	41.233	28.116	12.121	0.00023805	20.185	99.673	22.112	-124.936	-142.143	-104.515	32.707	-143.264	-137.536	-142.257	93.471	-139.869	-136.359	-133.939	-129.432	182.343	-132.753	-8191	255	
6215.670	1	1	0	0	0.12295	0.13272	0.010129	0.018366	0.071177	0.26522	0.15154	0.1125	0.23311	0.13672	0.21817	0.089242	0.18979	0.063592	0.12482	0.2287	-2.4771	-3.3333	-2.85	-2.7417	-3.2542	-3.1271	-3.0208	-3.1708	-2.8292	-3.3646	-2.8896	-2.7271	-3.2687	-2.825	-3	-3.2833	56.594	-26.385	-143.239	101.191	142.721	200.756	128.509	68.560	-5.857	64.924	-124.667	71.746	129.868	-55.656	-90.875	33.957	0.00069081	0.00020933	0.00021293	236.28	5.8035e-06	8.0971e-06	263.95	65.013	2.9644e-06	5.6999e-06	90.465	32.652	20.225	9.4028	6.3387e-07	15.97	0.012876	0.023827	0.006801	284.61	0.00022691	0.00027088	309.64	81.076	0.00022102	0.00027016	117.4	41.347	28.083	12.181	0.00024184	20.136	133.059	-103.192	9.486	-141.873	145.025	-23.238	-143.151	-137.674	48.844	172.508	-139.871	-136.213	-134.539	-129.706	59.009	-133.537	-8191	255	
6215.742	1	1	0	0	0.22519	0.197	0.076261	0.15913	0.05569	0.10075	0.2576	0.18698	0.16503	0.18079	0.070926	0.16454	0.11761	0.08265	0.065942	0.30165	-2.3854	-3.2417	-3.0375	-2.8021	-3.2	-2.9167	-3.0229	-3.1875	-2.85	-3.0979	-3.1188	-2.7833	-3.0812	-2.9917	-2.825	-3.2604	79.688	-46.940	-63.091	86.315	121.396	28.639	101.454	-142.706	-152.547	-141.624	-85.081	49.847	87.023	152.088	97.512	54.794	0.00059245	0.00056315	0.0003008	235.56	9.823e-06	3.889e-06	264.17	64.613	1.7104e-05	1.4102e-05	90	32.516	20.306	9.2629	1.2525e-05	16.057	0.012994	0.02402	0.0069194	284.73	0.00022806	0.00027608	308.89	80.691	0.00022401	0.00027364	116.94	41.151	28.003	12.18	0.00024429	20.132	129.405	-62.439	-145.482	-141.398	-51.146	-96.653	-143.183	-137.511	17.365	-139.689	-138.786	-135.770	-134.050	-129.822	-22.310	-133.382	-8191	255	
6215.838	1	1	0	0	0.11404	0.1608	0.10556	0.22492	0.19693	0.1271	0.049164	0.15973	0.22262	0.062174	0.12066	0.14765	0.17991	0.17084	0.18532	0.24324	-2.5042	-2.9729	-3.0917	-2.8625	-3.2562	-3.1042	-2.9	-3.3354	-2.8208	-3.0583	-3.0729	-2.7708	-3.0729	-2.8688	-2.8688	-3.35	-24.581	-60.501	64.767	-71.190	-85.572	43.233	-35.766	-63.231	-55.697	189.072	37.892	34.953	116.864	32.512	-20.832	-138.988	0.0004114	0.00079207	8.5488e-05	233.51	3.9065e-06	9.4561e-06	262.11	65.128	2.4819e-06	4.0015e-06	89.019	32.62	20.007	9.2354	7.6763e-06	16.204	0.013093	0.024322	0.0069649	284.68	0.00022659	0.0002787	308.01	80.686	0.00022571	0.00027742	117.28	41.417	27.978	12.208	0.00024525	20.154	84.956	-124.853	51.004	-141.681	20.942	-49.490	-143.210	-137.481	77.127	-56.220	-139.619	-136.222	-133.796	-130.012	-69.556	-133.089	-8191	255	
6215.959	1	1	0	0	0.15317	0.20511	0.19419	0.056253	0.27455	0.14455	0.30933	0.16883	0.25789	0.070927	0.10486	0.073859	0.097837	0.031784	0.10948	0.049941	-2.4417	-3.0646	-3.1292	-2.7229	-3.0771	-3.1271	-2.8208	-3.2021	-2.8167	-2.9729	-3.0687	-2.6979	-3.0229	-2.8563	-2.7833	-3.2417	71.774	-9.340	143.160	24.999	149.137	-106.225	153.964	-25.009	160.195	-67.571	53.043	-4.911	25.474	-38.541	57.284	194.574	0.00021937	0.00083306	8.7086e-05	233.29	6.3443e-06	2.5654e-06	264.44	64.802	9.3528e-06	4.5212e-06	91.189	32.675	20.637	9.2884	6.8583e-06	16.162	0.012975	0.024036	0.006898	283.28	0.0002253	0.00027295	308.22	80.667	0.00022192	0.00027468	117.56	41.403	28.152	12.212	0.00024362	20.215	116.920	-89.158	6.193	-141.969	76.844	69.848	-142.768	-136.889	78.339	126.758	-139.393	-135.936	-134.623	-130.152	134.555	-133.183	-8191	255	
6216.053	1	1	0	0	0.20097	0.074385	0.079374	0.12708	0.073375	0.26183	0.021719	0.23884	0.24116	0.1498	0.10718	0.17276	0.15316	0.18169	0.19514	0.040982	-2.5229	-2.7979	-3.1208	-2.7667	-3.0771	-3.0938	-2.7396	-3.3229	-2.8854	-2.925	-3.2646	-2.7646	-3.0375	-3.1167	-2.7583	-3.1167	-120.230	154.932	110.508	-57.007	-51.616	157.818	-16.965	116.261	24.147	103.771	-139.450	-139.413	-14.056	-78.961	-132.412	18.767	0.00052371	0.00080684	0.00037332	235.96	1.2101e-05	5.0423e-06	264.62	65.458	2.0652e-05	6.2731e-06	91.083	32.869	20.43	9.2799	1.4385e-05	16.233	0.012895	0.024332	0.0068742	284.81	0.00022661	0.00027918	309.77	80.986	0.00022805	0.00028156	118.05	41.619	28.32	12.263	0.00024604	20.229	91.113	-77.368	197.541	-141.497	73.931	150.726	-142.991	-137.060	-69.294	-25.312	-139.236	-136.488	-134.762	-129.707	121.095	-132.647	-8191	255	
6216.151	1	1	0	0	0.25114	0.11262	0.22234	0.29882	0.17513	0.26966	0.12614	0.089269	0.29082	0.086888	0.1961	0.053793	0.11466	0.17066	0.045394	0.056954	-2.5958	-2.7354	-3.4667	-2.8667	-3.0542	-3.2	-2.8875	-3.05	-2.9958	-2.7354	-3.3146	-2.9833	-2.9062	-3.1104	-2.7521	-3.2562	161.022	-84.913	126.635	-107.762	38.224	-75.215	172.586	-94.760	96.548	85.705	-138.040	155.036	122.484	-6.224	183.759	-138.882	0.00038105	0.00048981	0.00030291	236.97	6.707e-06	5.0993e-06	264.5	65.385	1.4533e-05	6.5978e-06	91.034	32.595	20.428	9.1647	1.3121e-05	16.014	0.013254	0.024794	0.0069477	286.74	0.00022997	0.00028015	309.57	80.708	0.0002282	0.00027634	117.12	41.284	28.197	12.151	0.00024192	20.052	90.274	-138.619	-112.365	-141.897	-36.209	-41.067	-142.752	-137.530	17.488	49.932	-139.513	-136.492	-134.746	-129.315	-67.053	-132.654	-8191	255	
6216.270	1	1	0	0	0.21235	0.078227	0.23694	0.22147	0.089756	0.16261	0.2495	0.34774	0.034715	0.060613	0.16051	0.093272	0.19831	0.19833	0.12254	0.24414	-2.5417	-2.8688	-3.3563	-2.95	-2.9208	-3.2479	-2.8563	-2.9896	-3.2021	-2.8625	-3.2771	-2.9958	-3.0062	-3.2125	-2.7812	-2.9646	-89.381	142.722	-149.339	166.522	-4.527	-105.211	95.008	176.648	-34.359	36.873	-87.655	72.451	97.465	-20.377	-80.040	32.952	0.00058683	0.00031505	0.00012242	235.11	8.5103e-06	6.0892e-06	263.96	65.412	1.8429e-05	9.8808e-06	90.03	32.3	20.331	9.2268	6.7973e-06	15.849	0.013124	0.024392	0.0068625	284.61	0.00022807	0.00027584	307.14	80.61	0.00022646	0.00027683	116.38	40.996	28.026	12.12	0.00024181	19.914	107.750	10.991	-109.480	-142.032	125.182	24.226	-143.487	-137.113	-137.178	-83.088	-139.162	-135.836	-134.337	-130.067	-3.258	-132.662	-8191	255	
6216.366	1	1	0	0	0.2234	0.15558	0.11745	0.039838	0.097868	0.12834	0.25938	0.37016	0.12939	0.05945	0.087374	0.18316	0.20112	0.32329	0.17137	0.096506	-2.7333	-2.7646	-3.2396	-2.9562	-3.025	-3.3812	-2.9146	-2.8875	-3.2646	-2.8396	-3.2354	-2.8146	-2.9021	-3.2604	-3.0292	-3.1437	49.193	131.411	-73.920	-104.571	40.651	110.782	187.379	134.817	127.787	-57.600	32.978	68.489	-42.666	-66.555	137.510	179.571	0.00046524	0.00031561	0.00023613	233.44	8.1518e-06	1.2426e-05	262.18	64.521	1.7191e-05	9.9643e-06	90.741	32.38	20.322	9.2116	5.0175e-06	15.827	0.013092	0.024263	0.0067019	284.18	0.00022579	0.00027223	306.8	80.281	0.00022552	0.00027509	116.22	41.044	28.105	12.132	0.00024077	20.027	92.919	-31.197	182.768	-142.072	-66.564	-84.573	-142.950	-137.189	52.199	-128.323	-139.174	-136.471	-134.523	-129.983	27.157	-132.926	-8191	255	
6216.438	1	1	0	0	0.074593	0.088336	0.14496	0.092356	0.16067	0.24214	0.078286	0.12057	0.21035	0.26744	0.072513	0.089412	0.064918	0.13167	0.27848	0.31113	-2.7375	-2.8792	-3.1708	-2.9313	-2.8042	-3.3417	-2.8979	-2.9729	-3.4813	-3.0479	-3.2729	-3.0604	-2.8312	-3.3458	-3.0687	-2.9938	53.977	79.486	187.631	85.959	202.762	158.669	14.548	-152.684	198.341	117.217	-25.401	151.107	-78.413	-56.895	93.657	-31.182	0.00034077	0.0021467	0.00019069	236.41	8.5247e-06	9.209e-06	262.72	64.904	2.6911e-06	1.1831e-05	89.597	32.207	20.202	9.2347	7.75e-06	15.825	0.013104	0.024166	0.0067196	285.14	0.00022678	0.00027093	307.51	80.668	0.00022691	0.00027484	116.41	41.184	28.076	12.036	0.00024069	20.002	98.311	0.595	-80.329	-141.936	120.249	53.019	-143.209	-137.029	117.427	-27.375	-139.672	-136.483	-134.996	-129.385	-108.762	-132.987	-8191	255	
6216.558	1	1	0	0	0.066363	0.18735	0.22427	0.21431	0.16522	0.0035287	0.2261	0.02143	0.049335	0.14388	0.25784	0.12665	0.14564	0.039097	0.097322	0.24221	-2.9125	-2.9125	-3.2562	-3.0333	-2.7417	-3.3083	-3.0625	-2.9771	-3.4437	-2.9479	-3.0542	-3.075	-2.875	-3.2333	-3.0938	-2.9479	4.088	-91.364	-21.581	108.765	131.543	-32.690	-2.947	82.232	-93.919	6.699	187.583	-136.278	5.387	185.197	-47.867	196.510	0.00039188	0.00053932	0.00025993	235.54	8.4819e-06	1.1579e-05	261.44	64.466	6.8845e-06	5.1878e-06	89.944	32.176	20.216	9.049	4.1188e-06	15.647	0.01312	0.024151	0.0067813	284.7	0.00023146	0.00027203	307.31	80.246	0.00022803	0.00027615	116.04	41.042	27.928	11.926	0.00024357	19.866	94.272	176.457	169.908	-141.651	-49.295	-86.251	-143.602	-137.041	-122.720	122.584	-139.603	-136.344	-134.715	-130.194	-109.377	-132.821	-8191	255	
6216.655	1	1	0	0	0.05699	0.2007	0.10464	0.21742	0.16361	0.23173	0.11256	0.16117	0.23288	0.16558	0.18389	0.081381	0.1189	0.053102	0.15786	0.22422	-2.8271	-2.8583	-3.0979	-3.2	-3.0125	-3.1458	-2.9917	-2.9854	-3.3521	-3.0062	-3.1979	-3.1917	-2.9646	-3.1625	-3.0687	-2.6979	80.666	-112.306	-40.501	-136.255	-43.289	8.623	-138.634	39.379	71.393	-106.574	-149.113	200.196	-42.795	-34.400	14.317	98.076	0.00058422	0.00084131	0.00016559	233.69	5.7913e-06	7.3096e-06	261.06	64.577	4.4345e-06	7.4076e-06	88.152	32.194	20.143	9.064	1.3883e-05	15.758	0.01301	0.023916	0.0067698	283.35	0.00022841	0.00026815	305.53	80.101	0.00022134	0.00026981	115.04	40.749	27.753	11.892	0.00024108	19.775	91.887	-112.326	12.218	-142.103	193.508	-121.865	-143.383	-137.939	5.750	85.339	-139.201	-136.403	-134.346	-130.249	-38.901	-132.548	-8191	255	
6216.751	1	1	0	0	0.19772	0.24833	0.14087	0.12189	0.16855	0.15786	0.03476	0.24768	0.097421	0.084106	0.11541	0.31998	0.080193	0.047623	0.19434	0.1449	-3.1146	-2.975	-3.0604	-3.2292	-2.7729	-3.3042	-3.0104	-2.8583	-3.2333	-3.0021	-3.0958	-3.175	-2.9229	-3.0271	-3.1854	-2.8625	125.206	95.498	-148.060	202.473	174.978	187.592	-31.159	156.035	11.081	96.003	-154.633	190.457	-89.870	54.962	29.188	-145.657	0.00062482	0.00038089	2.8465e-05	233.83	1.6841e-05	5.0171e-06	261.7	64.3	1.148e-05	2.7146e-06	89.16	32.069	20.242	9.1418	1.0878e-05	16.025	0.01266	0.023594	0.0067015	282.3	0.00022485	0.00026734	306.28	79.958	0.00022133	0.00027141	115.58	40.982	27.821	11.926	0.00023994	19.989	84.764	96.327	-61.138	-141.731	-25.772	-121.459	-143.487	-137.711	71.487	-124.584	-139.402	-136.870	-134.202	-130.243	109.686	-132.551	-8191	255	
6216.847	1	1	0	0	0.048002	0.12435	0.08197	0.3375	0.26273	0.22222	0.14231	0.068158	0.29316	0.0678	0.032409	0.098016	0.17516	0.22495	0.16205	0.07585	-2.8583	-3.0104	-2.9437	-3.2458	-2.8333	-3.1188	-3.2687	-2.7313	-3.2833	-3.0833	-3.0104	-3.2958	-2.8625	-3.0083	-3.3229	-2.8187	-29.558	184.882	-111.765	-39.510	-64.138	106.053	-142.457	196.458	10.230	-31.315	186.916	9.443	180.376	89.530	-19.217	-125.811	0.00024677	0.00050739	0.00013922	235.27	8.3309e-06	8.0136e-06	261.77	64.583	7.8224e-06	8.146e-06	91.129	32.982	20.321	9.1975	1.1327e-05	16.023	0.01273	0.023997	0.0067936	283.56	0.00022381	0.0002681	307.43	80.477	0.00021932	0.00027289	117.44	41.475	28.094	12.083	0.00024096	20.081	103.444	-90.092	72.414	-141.308	28.039	167.024	-142.864	-137.522	-92.369	65.980	-139.880	-136.016	-134.391	-130.202	-14.275	-133.355	-8191	255	
6216.943	1	1	0	0	0.065546	0.22056	0.1019	0.11664	0.30152	0.094806	0.10424	0.17923	0.26377	0.20322	0.096898	0.01309	0.024313	0.12613	0.020677	0.12577	-2.7917	-3.1458	-2.8792	-3.3187	-2.8979	-3.0896	-3.2396	-2.825	-3.2042	-3.0729	-2.8083	-3.1688	-2.9583	-2.9958	-3.3542	-3.025	161.970	9.108	39.194	124.904	-80.648	-89.845	190.249	184.252	154.160	-126.722	-4.397	-94.770	-134.875	-15.281	-2.985	-20.517	0.00041624	0.00092492	0.00035086	236.12	1.1653e-05	6.3598e-06	265.61	65.372	1.7759e-06	5.536e-06	90.747	32.491	20.518	9.3486	3.3848e-06	16.098	0.012522	0.023821	0.0067166	285.25	0.00022432	0.00026836	310.18	80.802	0.00022045	0.00027757	117.36	41.285	28.204	12.178	0.00024667	20.131	80.908	-86.877	-112.697	-141.858	-141.792	102.036	-143.299	-137.300	130.039	-39.068	-139.607	-135.879	-134.425	-129.326	119.290	-133.164	-8191	255	
6217.039	1	1	0	0	0.1599	0.3156	0.07476	0.14999	0.046119	0.046383	0.12863	0.36573	0.23912	0.056796	0.11696	0.12496	0.14609	0.12885	0.17669	0.072822	-2.8125	-3.1604	-2.7729	-3.4104	-3.0208	-2.9875	-3.2375	-2.9375	-3.2708	-3.1	-2.8875	-3.1396	-3.0604	-2.9271	-3.4833	-2.8542	-128.548	95.186	187.109	181.422	109.129	-54.160	-18.800	185.240	191.379	34.299	108.525	136.448	62.000	33.884	-71.142	123.886	0.00037667	0.0006168	0.00019412	234.67	7.742e-06	1.3269e-05	262.39	65.899	1.067e-05	7.0356e-06	90.946	32.617	20.545	9.1333	5.6826e-06	16.024	0.012908	0.024737	0.0069273	285.37	0.00023209	0.00027813	308.94	81.202	0.00022738	0.00028525	117.92	41.265	28.325	12.149	0.0002479	20.096	150.408	23.654	-120.960	-141.920	88.298	106.796	-143.117	-136.942	156.991	21.764	-139.069	-136.659	-134.340	-130.090	19.734	-133.064	-8191	255	
6217.134	1	1	0	0	0.22127	0.105	0.19861	0.13263	0.21193	0.10743	0.20388	0.15257	0.32775	0.17426	0.13034	0.17472	0.24823	0.24975	0.20654	0.014932	-2.65	-3.2167	-2.9458	-3.2375	-3.2104	-3.0438	-3.1958	-2.9583	-3.2625	-3.2854	-2.8125	-3.2188	-3	-2.9646	-3.3312	-2.8708	-7.073	3.146	189.807	194.789	11.284	-73.019	61.843	-136.652	-151.487	6.658	-68.070	63.821	-97.958	179.203	-82.010	-77.941	0.00041014	0.0002803	0.00011644	237.17	3.2072e-06	5.7352e-06	261.59	64.143	5.9557e-06	4.818e-06	90.259	32.281	20.41	9.2119	6.1417e-06	15.983	0.013072	0.024757	0.0069627	285.73	0.00023238	0.00027806	308.41	80.809	0.00022657	0.00028233	117.49	41.146	28.243	12.174	0.00024833	20.213	98.612	-141.579	-68.141	-141.914	-147.996	-0.054	-143.231	-136.895	49.256	-73.934	-138.806	-136.554	-134.435	-129.479	92.454	-133.015	-8191	255	
6217.232	1	1	0	0	0.12993	0.13117	0.21429	0.12735	0.14665	0.13295	0.27337	0.045842	0.38955	0.096499	0.15775	0.32191	0.078752	0.2127	0.15485	0.021826	-2.6417	-3.0312	-2.8063	-3.0812	-2.9521	-2.8312	-3.1583	-3.0479	-2.9813	-3.2854	-2.8458	-3.1104	-3.0896	-2.9146	-3.1583	-2.9	115.100	-32.118	137.189	83.045	157.013	101.842	200.494	-78.827	189.456	173.078	-84.005	-108.293	133.126	130.656	143.985	154.104	0.00042809	0.00052696	0.00029772	236.13	6.2898e-06	4.4796e-06	262.38	64.65	1.0855e-05	7.8886e-06	89.497	32.537	20.34	9.1565	2.9781e-06	16.061	0.013321	0.02511	0.0070039	284.76	0.00023838	0.00028286	308.44	80.981	0.00023287	0.00028804	117.31	41.264	28.345	12.073	0.00024265	20.104	118.484	183.479	-57.256	-142.038	60.740	53.394	-142.962	-137.164	4.532	162.747	-140.042	-135.642	-134.416	-129.720	143.893	-133.526	-8191	255	
6217.350	1	1	0	0	0.12744	0.16352	0.13653	0.074181	0.12541	0.059702	0.25961	0.21038	0.37458	0.17242	0.1453	0.07582	0.15248	0.19585	0.28626	0.12425	-2.4708	-3.3021	-2.8125	-3.1875	-3.2188	-2.8625	-3.1896	-3.05	-2.9854	-3.375	-2.9229	-3.0917	-3.2062	-2.7792	-3.3937	-3.0333	-71.154	-144.268	-138.106	46.349	-117.337	116.090	-92.016	192.601	36.296	67.621	147.041	-128.253	165.917	-17.036	47.271	104.859	0.00050492	0.00090382	0.00030223	235.74	1.0491e-05	6.2261e-06	262.59	64.787	1.6372e-05	7.9186e-06	89.218	32.184	19.777	9.146	7.2841e-06	15.697	0.012979	0.024515	0.006851	284.61	0.00023013	0.00027499	307.98	80.415	0.00022573	0.00027605	115.98	40.85	27.884	11.957	0.00024032	19.793	112.172	-70.215	-108.319	-141.915	74.697	160.907	-142.951	-137.465	10.345	96.846	-139.362	-136.360	-134.709	-129.902	-129.713	-132.927	-8191	255	
6217.447	1	1	0	0	0.12368	0.15845	0.17193	0.048469	0.16771	0.05923	0.32527	0.33822	0.14111	0.14894	0.2171	0.12082	0.095762	0.23146	0.10554	0.16492	-2.5521	-3.2625	-2.9208	-2.9979	-3.2979	-3	-3.1833	-3.15	-2.8208	-3.3063	-3.0271	-2.9167	-3.1146	-2.7979	-3.2896	-3.1937	193.992	-55.213	-63.170	89.886	-80.274	119.835	59.795	-144.079	-114.714	122.171	152.196	-16.632	-154.731	-64.020	-32.155	138.059	0.00023529	0.0010702	0.00021492	235.69	6.2751e-06	5.1472e-06	261.97	64.105	6.4522e-06	1.1558e-05	87.517	32.146	19.758	8.9076	5.6991e-06	15.593	0.013078	0.024321	0.0069251	284.56	0.00023307	0.00027702	305.54	80.32	0.00023025	0.00028051	115.17	40.576	27.739	11.852	0.00023994	19.744	69.532	22.449	160.570	-142.017	26.095	158.392	-143.019	-137.931	136.572	13.509	-139.594	-136.006	-133.937	-130.049	-34.322	-133.351	-8191	255	
6217.543	1	1	0	0	0.22682	0.23174	0.2568	0.13373	0.040788	0.073573	0.078833	0.093047	0.21726	0.025835	0.28383	0.022861	0.068024	0.25039	0.067112	0.098486	-2.3667	-3.1063	-2.8583	-3.0021	-3.1979	-2.7896	-3.075	-3.1479	-2.8833	-3.3021	-3.1083	-2.925	-3.3333	-2.925	-3.0542	-3.025	-103.119	115.972	140.498	53.571	192.621	-153.796	176.346	-83.274	-86.906	57.248	136.642	161.735	38.742	118.871	69.022	82.597	0.0004682	0.00012316	0.00010888	234.48	7.8942e-06	4.0801e-06	260.04	63.865	1.0219e-05	1.1951e-05	89.246	31.962	19.953	8.8757	6.1149e-06	15.821	0.01303	0.023879	0.0067577	281.75	0.00022734	0.00027099	304.09	79.923	0.00022732	0.00027221	115.61	40.598	27.749	11.874	0.00024262	19.909	129.354	-27.043	182.809	-141.873	54.390	-136.245	-143.135	-137.208	-0.452	-12.061	-139.709	-135.789	-134.148	-129.667	27.934	-133.230	-8191	255	
6217.639	1	1	0	0	0.32401	0.23315	0.14701	0.069799	0.076599	0.057044	0.079255	0.2862	0.12654	0.12441	0.18812	0.33792	0.22275	0.17071	0.062613	0.28476	-2.5396	-3.3521	-2.7667	-3.1083	-3.2917	-2.9667	-3.2208	-3.0958	-2.9437	-3.225	-3.0854	-3.0375	-3.3271	-2.8792	-3.0833	-3.3958	-16.596	132.066	48.609	105.799	-40.429	140.270	44.813	138.641	106.357	-132.366	118.187	142.578	94.966	-67.665	55.622	98.463	0.00050874	0.00044931	3.1724e-05	231.26	4.538e-06	1.3238e-05	260.28	63.93	1.2875e-05	1.4073e-06	89.829	32.387	20.312	9.1145	1.2259e-05	15.791	0.012996	0.024168	0.0068639	282.7	0.00023186	0.00027707	304.29	80.092	0.00022796	0.00027396	116.68	41.11	28.001	12.018	0.00024331	20.164	139.245	201.103	12.683	-141.872	-47.313	34.113	-142.564	-137.706	180.251	188.539	-139.782	-135.626	-133.797	-130.005	-109.088	-133.376	-8191	255	
6217.735	1	1	0	0	0.41868	0.094964	0.23388	0.21182	0.12673	0.11351	0.11412	0.031975	0.22606	0.03423	0.095949	0.10232	0.13037	0.22891	0.13408	0.23986	-2.4104	-3.2417	-2.8937	-2.9521	-3.3063	-3.0187	-2.9813	-3.1375	-2.7708	-3.2167	-2.8792	-2.6104	-3.2125	-3.0042	-2.9729	-3.1188	-58.921	169.553	-121.069	-120.544	-0.610	97.517	57.747	-88.070	-138.789	89.486	-20.297	-47.338	198.374	202.355	127.930	45.241	0.00031468	0.0007311	5.8065e-05	234.41	3.0717e-06	7.0323e-06	261.25	64.771	1.3802e-05	4.7185e-06	89.45	32.667	19.94	9.0447	8.4044e-06	16.066	0.013074	0.024034	0.0069286	283.9	0.00022626	0.00027205	307.2	80.456	0.0002238	0.00027225	117.02	41.34	27.857	12.058	0.00024497	20.158	127.494	-1.550	19.516	-141.722	-135.360	-77.215	-143.409	-138.161	-10.072	-94.775	-139.420	-136.355	-134.045	-130.341	52.961	-133.210	-8191	255	
6217.831	1	1	0	0	0.073276	0.16141	0.15107	0.2063	0.11904	0.07171	0.1436	0.18824	0.28661	0.3346	0.10607	0.14141	0.21724	0.14657	0.19127	0.063987	-2.4042	-3.0125	-3.0833	-3.0229	-3.3083	-3.0938	-2.9083	-3.1688	-2.925	-3.1083	-3.0354	-2.6479	-3.275	-2.9583	-2.9688	-3.2417	-129.985	203.471	-9.195	-58.021	-128.989	191.762	122.246	-102.584	198.953	-72.653	116.933	-63.370	169.645	168.464	82.849	-63.473	0.00011091	0.00029264	4.8317e-05	234.51	3.2885e-06	7.7307e-06	261.23	64.394	1.3606e-05	5.4259e-06	89.554	32.284	19.981	9.0384	5.5746e-06	15.882	0.013131	0.024223	0.0069459	283.84	0.00022805	0.00027675	307.22	80.33	0.00022794	0.00027772	116.56	40.95	27.711	11.996	0.00024688	19.985	-4.501	30.258	79.404	-141.709	-46.969	33.324	-142.752	-136.934	10.797	65.601	-139.666	-136.364	-134.299	-130.538	36.540	-132.828	-8191	255	
6217.952	1	1	0	0	0.38879	0.20669	0.24254	0.12685	0.33181	0.077118	0.064239	0.15658	0.07976	0.08479	0.15252	0.081831	0.091223	0.14214	0.14948	0.26035	-2.5146	-3.1604	-3.1667	-2.9771	-3.2667	-3.0542	-2.9417	-3.3333	-2.925	-3.0687	-3.2771	-2.7208	-3.0625	-3.1188	-2.9938	-3.25	165.256	-104.017	-7.220	111.781	-0.932	-8.835	187.340	156.728	11.022	59.542	146.792	30.614	33.411	129.038	5.076	-139.990	0.00053046	0.00041098	0.00017562	234.71	1.4505e-05	6.907e-06	260.56	64.418	1.02e-05	4.7348e-06	89.292	32.131	19.972	9.1846	3.3465e-06	15.779	0.012996	0.024333	0.0070164	284.09	0.00022843	0.00028013	306.94	80.328	0.00022853	0.00028213	116.68	41.042	27.948	12.063	0.00024882	19.984	76.872	172.563	30.129	-141.385	-26.467	91.599	-143.098	-137.327	-146.324	-3.528	-139.494	-136.282	-133.816	-130.294	-31.242	-133.117	-8191	255	
6218.048	1	1	0	0	0.13171	0.2808	0.1689	0.10515	0.24064	0.14618	0.15523	0.090781	0.12453	0.086021	0.092844	0.060581	0.087698	0.089725	0.16827	0.11348	-2.4979	-3.075	-3.2667	-2.6875	-3.1292	-3.2292	-2.9396	-3.1958	-3.1271	-3.0854	-3.2792	-2.8604	-3.1937	-2.9375	-2.9417	-3.1021	104.251	15.448	-33.455	-80.026	-109.702	99.208	-122.034	-65.097	44.031	-129.090	61.065	68.077	175.005	2.455	-43.236	-83.057	0.00045525	0.00042658	0.00022299	234.61	4.9464e-06	8.1418e-06	259.89	64.304	1.7695e-05	5.1702e-06	88.709	32.183	19.687	8.9869	2.4821e-06	15.848	0.013213	0.024641	0.0070292	283.28	0.00022922	0.00028019	307.65	80.317	0.00023087	0.00028258	117.17	41.127	27.874	12.059	0.00024923	20.009	109.799	65.143	-24.433	-141.931	-49.611	-72.426	-143.101	-137.491	63.429	138.404	-139.230	-136.209	-134.447	-130.085	66.040	-132.906	-8191	255	
6218.142	1	1	0	0	0.12158	0.15929	0.071205	0.22377	0.2664	0.15823	0.085014	0.059853	0.16105	0.16736	0.19663	0.0923	0.2141	0.18122	0.15518	0.17315	-2.4167	-2.8542	-3.2188	-2.7917	-3.2896	-3.2896	-2.7104	-3.1604	-3.0687	-2.9313	-3.2958	-2.8667	-3.0083	-3.1125	-2.8917	-3.1458	-71.401	-2.963	-111.825	159.045	111.846	-102.926	56.865	125.742	-48.833	-108.136	173.420	198.220	110.133	-62.014	-136.001	166.249	0.00054376	0.00034174	4.5947e-05	235.55	4.2023e-06	8.5987e-06	260.13	63.728	1.4565e-05	7.6944e-06	88.663	31.985	19.778	8.8324	1.0922e-05	15.691	0.013282	0.024851	0.0070766	284.84	0.00023135	0.00028096	306.34	79.931	0.00022782	0.00028001	115.83	40.6	27.596	11.911	0.00024472	19.766	108.763	97.890	-148.138	-142.161	47.834	36.167	-143.428	-137.263	-33.320	46.925	-139.214	-136.409	-133.491	-129.902	11.475	-133.239	-8191	255	
6218.238	1	1	0	0	0.10962	0.14342	0.10998	0.23036	0.32644	0.0065396	0.16684	0.31407	0.16596	0.15309	0.35313	0.35346	0.081778	0.16934	0.097159	0.16022	-2.6021	-2.8958	-3.2479	-2.8833	-2.9875	-3.1813	-2.7271	-3.1958	-2.9604	-2.65	-3.1542	-2.8146	-2.9333	-3.2938	-2.9896	-3.1312	51.618	45.587	-39.421	-142.245	-101.534	49.626	173.437	117.003	140.887	152.717	87.962	85.064	-125.530	2.585	202.874	60.217	0.00036907	0.00075373	0.00018123	235.57	1.1309e-05	9.9164e-06	259.64	63.118	1.1384e-05	4.734e-06	87.35	31.618	19.311	8.8129	2.4623e-06	15.373	0.013205	0.024574	0.0068593	283.48	0.00022862	0.00028261	304.89	79.2	0.00023111	0.00028185	114.85	40.35	27.44	11.809	0.00024649	19.551	91.218	93.306	-11.804	-141.601	-107.731	-128.048	-143.185	-136.995	100.331	-42.948	-139.853	-136.367	-134.733	-129.794	80.160	-132.896	-8191	255	
6218.335	1	1	0	0	0.10655	0.044936	0.044306	0.13382	0.18139	0.051818	0.18575	0.11622	0.28872	0.12353	0.089858	0.0051002	0.23191	0.079273	0.1096	0.11977	-2.6958	-2.7938	-3.0958	-2.9167	-2.8958	-3.225	-2.7667	-2.95	-2.9333	-2.8625	-3.05	-3.1437	-2.8	-3.2833	-2.9188	-3.0521	52.032	58.386	1.181	141.677	56.395	-125.408	11.235	-101.479	-103.298	185.099	137.637	11.942	129.632	-50.048	97.473	120.365	0.00047535	0.00065668	0.00021482	231.22	2.1767e-05	9.3479e-06	255.56	62.685	6.8121e-06	1.1683e-05	87.695	31.374	19.338	8.8759	1.6972e-05	15.511	0.013389	0.024817	0.006931	282.4	0.00023531	0.00028356	303.34	79.428	0.00023334	0.00028501	114.99	40.308	27.535	11.857	0.00024767	19.63	90.217	-76.348	196.340	-141.697	153.942	-11.302	-143.189	-137.232	9.218	-134.738	-139.525	-136.670	-134.239	-129.760	93.885	-133.252	-8191	255	
#DATA ENDS
