BOXY.EXE: ISS Imagent and Oximeter Data Acquisition Program Version 0.80
Ascii Record File

#ACQ INFORMATION
2  Detector Channels 
16  External MUX Channels 
1  Auxiliary Channels 
5000  Waveform (CCF) Frequency (Hz)
1  Waveforms Skipped 
30  Waveforms Averaged 
1  Cycles Averaged 
16  Acquisitions per Waveform 
10.0806  Updata Rate (Hz) 

#FILE INFORMATION
TRUE -- External MUX Channel results are PARSED.
FALSE -- AC DC and Phase are NOT grouped.
TRUE -- Companion Program Settings File CREATED.
FALSE -- AC data not excluded
FALSE -- DC data not excluded
FALSE -- Phase data not excluded
FALSE -- Auxillary Chn. data not excluded
Tab delimiters

#CALIBRATION STATE
TRUE -- Waveform Calibration Values APPLIED.


#AUX CALIBRATION VALUES
Val Type	aux-1	

Term	1.0000e+00	
Factor	0.0000e+00	


#WF CALIBRATION VALUES
A = Detector Channel
Val Type	A-AC1	A-AC2	A-AC3	A-AC4	A-AC5	A-AC6	A-AC7	A-AC8	A-AC9	A-AC10	A-AC11	A-AC12	A-AC13	A-AC14	A-AC15	A-AC16	A-DC1	A-DC2	A-DC3	A-DC4	A-DC5	A-DC6	A-DC7	A-DC8	A-DC9	A-DC10	A-DC11	A-DC12	A-DC13	A-DC14	A-DC15	A-DC16	A-Ph1	A-Ph2	A-Ph3	A-Ph4	A-Ph5	A-Ph6	A-Ph7	A-Ph8	A-Ph9	A-Ph10	A-Ph11	A-Ph12	A-Ph13	A-Ph14	A-Ph15	A-Ph16	

Term	0.00000e+00	0.00000e+00	0.00000e+00	0.00000e+00	0.00000e+00	0.00000e+00	0.00000e+00	0.00000e+00	0.00000e+00	0.00000e+00	0.00000e+00	0.00000e+00	0.00000e+00	0.00000e+00	0.00000e+00	0.00000e+00	0.00000e+00	0.00000e+00	0.00000e+00	0.00000e+00	0.00000e+00	0.00000e+00	0.00000e+00	0.00000e+00	0.00000e+00	0.00000e+00	0.00000e+00	0.00000e+00	0.00000e+00	0.00000e+00	0.00000e+00	0.00000e+00	0.00000e+00	0.00000e+00	0.00000e+00	0.00000e+00	0.00000e+00	0.00000e+00	0.00000e+00	0.00000e+00	0.00000e+00	0.00000e+00	0.00000e+00	0.00000e+00	0.00000e+00	0.00000e+00	0.00000e+00	0.00000e+00	
Factor	1.00000e+00	1.00000e+00	1.00000e+00	1.00000e+00	1.00000e+00	1.00000e+00	1.00000e+00	1.00000e+00	1.00000e+00	1.00000e+00	1.00000e+00	1.00000e+00	1.00000e+00	1.00000e+00	1.00000e+00	1.00000e+00	1.00000e+00	1.00000e+00	1.00000e+00	1.00000e+00	1.00000e+00	1.00000e+00	1.00000e+00	1.00000e+00	1.00000e+00	1.00000e+00	1.00000e+00	1.00000e+00	1.00000e+00	1.00000e+00	1.00000e+00	1.00000e+00	X	X	X	X	X	X	X	X	X	X	X	X	X	X	X	X	

B = Detector Channel
Val Type	B-AC1	B-AC2	B-AC3	B-AC4	B-AC5	B-AC6	B-AC7	B-AC8	B-AC9	B-AC10	B-AC11	B-AC12	B-AC13	B-AC14	B-AC15	B-AC16	B-DC1	B-DC2	B-DC3	B-DC4	B-DC5	B-DC6	B-DC7	B-DC8	B-DC9	B-DC10	B-DC11	B-DC12	B-DC13	B-DC14	B-DC15	B-DC16	B-Ph1	B-Ph2	B-Ph3	B-Ph4	B-Ph5	B-Ph6	B-Ph7	B-Ph8	B-Ph9	B-Ph10	B-Ph11	B-Ph12	B-Ph13	B-Ph14	B-Ph15	B-Ph16	

Term	0.00000e+00	0.00000e+00	0.00000e+00	0.00000e+00	0.00000e+00	0.00000e+00	0.00000e+00	0.00000e+00	0.00000e+00	0.00000e+00	0.00000e+00	0.00000e+00	0.00000e+00	0.00000e+00	0.00000e+00	0.00000e+00	0.00000e+00	0.00000e+00	0.00000e+00	0.00000e+00	0.00000e+00	0.00000e+00	0.00000e+00	0.00000e+00	0.00000e+00	0.00000e+00	0.00000e+00	0.00000e+00	0.00000e+00	0.00000e+00	0.00000e+00	0.00000e+00	-2.26776e+02	-1.29708e+02	-1.25081e+02	-1.81324e+02	-8.13396e+01	-6.84428e+01	-1.55273e+02	-1.62015e+02	-8.44135e+01	-6.57107e+01	-1.73287e+02	-1.69603e+02	-1.82427e+02	-1.77112e+02	-7.61088e+01	-1.49999e+02	
Factor	5.15204e-05	1.63359e-04	4.63749e-05	1.65014e-01	2.13459e-06	1.73112e-06	1.63714e-01	5.20409e-02	2.66509e-06	1.65289e-06	8.93901e-02	2.90941e-02	2.44411e-02	9.00888e-03	1.89399e-06	1.31364e-02	1.97274e-05	3.71382e-05	1.04766e-05	8.31389e-02	3.49691e-07	4.20036e-07	7.75769e-02	2.62501e-02	3.44574e-07	4.22086e-07	4.38463e-02	1.42514e-02	1.24700e-02	4.59518e-03	3.71019e-07	6.48508e-03	X	X	X	X	X	X	X	X	X	X	X	X	X	X	X	X	



#DISTANCE SETTINGS
A = Detector Channel
A-1	A-2	A-3	A-4	A-5	A-6	A-7	A-8	A-9	A-10	A-11	A-12	A-13	A-14	A-15	A-16	

2.5000e+00	3.0000e+00	2.5000e+00	3.0000e+00	2.0000e+00	3.0000e+00	1.5000e+00	3.0000e+00	3.0000e+00	3.0000e+00	3.0000e+00	3.0000e+00	3.0000e+00	3.0000e+00	1.5000e+00	3.0000e+00	

B = Detector Channel
B-1	B-2	B-3	B-4	B-5	B-6	B-7	B-8	B-9	B-10	B-11	B-12	B-13	B-14	B-15	B-16	

1.0000e+01	1.0000e+01	1.0000e+01	1.4400e+00	1.0000e+01	1.0000e+01	1.5100e+00	1.9400e+00	1.0000e+01	1.0000e+01	1.9900e+00	2.4900e+00	2.4100e+00	2.9000e+00	1.0000e+01	2.9800e+00	




#DATA BEGINS
time	group	step	mark	flag	A-AC1	A-AC2	A-AC3	A-AC4	A-AC5	A-AC6	A-AC7	A-AC8	A-AC9	A-AC10	A-AC11	A-AC12	A-AC13	A-AC14	A-AC15	A-AC16	A-DC1	A-DC2	A-DC3	A-DC4	A-DC5	A-DC6	A-DC7	A-DC8	A-DC9	A-DC10	A-DC11	A-DC12	A-DC13	A-DC14	A-DC15	A-DC16	A-Ph1	A-Ph2	A-Ph3	A-Ph4	A-Ph5	A-Ph6	A-Ph7	A-Ph8	A-Ph9	A-Ph10	A-Ph11	A-Ph12	A-Ph13	A-Ph14	A-Ph15	A-Ph16	B-AC1	B-AC2	B-AC3	B-AC4	B-AC5	B-AC6	B-AC7	B-AC8	B-AC9	B-AC10	B-AC11	B-AC12	B-AC13	B-AC14	B-AC15	B-AC16	B-DC1	B-DC2	B-DC3	B-DC4	B-DC5	B-DC6	B-DC7	B-DC8	B-DC9	B-DC10	B-DC11	B-DC12	B-DC13	B-DC14	B-DC15	B-DC16	B-Ph1	B-Ph2	B-Ph3	B-Ph4	B-Ph5	B-Ph6	B-Ph7	B-Ph8	B-Ph9	B-Ph10	B-Ph11	B-Ph12	B-Ph13	B-Ph14	B-Ph15	B-Ph16	aux-1	digaux	

5483.443	1	1	0	768	0.34528	0.18927	0.25862	0.14324	0.12772	0.18507	0.1307	0.1335	0.12905	0.32851	0.13487	0.14225	0.17144	0.26771	0.096791	0.084284	-2.7146	-2.8625	-3.0958	-3.2229	-2.8271	-3.4458	-2.9229	-3.0563	-3.2479	-3.0167	-3.3417	-3.1896	-2.9042	-3.2896	-3.0667	-3.0563	265.036	65.439	-3.209	118.164	325.854	54.725	271.140	214.862	-8.882	224.467	25.745	229.643	45.227	-18.057	314.308	192.478	0.00029753	0.00046782	0.00024271	515.17	5.0714e-06	2.5636e-06	590.21	157.21	9.3767e-06	7.2199e-06	195.98	56.405	43.166	19.212	7.5159e-06	26.594	0.003891	0.007111	0.001975	497.32	6.748e-05	8.0306e-05	564.2	152.51	6.6445e-05	8.1205e-05	192.3	55.171	42.919	19.02	7.1426e-05	26.319	22.195	107.122	67.202	-14.023	188.659	137.514	-15.362	-9.397	118.208	149.905	-11.454	-7.670	-5.559	-1.335	90.887	-4.461	-8191	255	
5483.539	1	1	0	0	0.14064	0.16807	0.19601	0.22993	0.37769	0.039365	0.30972	0.090981	0.24171	0.031956	0.26495	0.24715	0.089111	0.16158	0.082782	0.097875	-2.9896	-2.7771	-3.0896	-3.1083	-3.0271	-3.2979	-3.0812	-2.9771	-3.2917	-2.9229	-3.2729	-3.3187	-2.6063	-3.2229	-3.1104	-2.9271	279.854	104.129	144.924	-17.526	45.790	291.631	194.512	142.974	194.547	4.987	80.644	234.103	327.293	246.763	309.143	252.720	0.00038793	0.00065679	5.5186e-05	515.41	4.9522e-06	4.7368e-06	586.12	156.04	6.9144e-06	1.0671e-06	195.67	55.609	42.824	19.18	7.9013e-06	26.572	0.0039135	0.0070751	0.0019857	496.56	6.7316e-05	7.9908e-05	559.51	151.7	6.4369e-05	7.9678e-05	191.07	54.903	42.69	19.005	7.0446e-05	26.255	70.420	312.635	314.222	-14.103	199.628	181.246	-15.561	-9.427	128.423	59.395	-11.745	-7.936	-5.141	-1.400	64.414	-4.282	-8191	255	
5483.635	1	1	0	0	0.051499	0.22812	0.042375	0.026885	0.18385	0.21099	0.13708	0.24135	0.11859	0.067871	0.14016	0.29003	0.18229	0.21803	0.095035	0.2432	-3.0312	-2.8187	-3.2625	-3.3187	-2.8521	-3.1146	-3.1708	-2.8312	-3.4208	-3.0187	-3.2792	-3.3417	-3.0792	-3.1688	-3.2104	-2.7375	189.065	-8.225	285.876	287.969	219.376	307.167	302.129	303.270	302.275	-22.363	-23.718	-3.939	248.342	323.693	174.519	232.143	0.00024772	0.00054056	4.5279e-05	512.09	5.2922e-06	3.6074e-06	584.77	155.56	2.1188e-06	4.5353e-06	196.98	55.774	43.024	19.295	4.1053e-06	26.966	0.0038256	0.0069956	0.0019652	495.08	6.6065e-05	7.8511e-05	559.3	151.55	6.6705e-05	8.013e-05	192.13	55.093	42.808	19.147	6.9059e-05	26.566	14.340	88.618	99.799	-14.354	119.730	121.796	-15.558	-9.229	163.176	187.585	-11.923	-7.441	-5.457	-1.007	317.467	-4.266	-8191	255	
5483.731	1	1	0	0	0.21709	0.11022	0.094876	0.14321	0.31883	0.12619	0.18341	0.11602	0.10241	0.23526	0.28103	0.099885	0.23653	0.09181	0.21852	0.20422	-2.9354	-2.825	-3.0146	-3.3521	-2.9938	-3.2771	-3.1229	-2.9375	-3.4833	-2.9729	-3.0563	-3.3354	-3.0229	-3.1958	-3.1813	-2.9188	145.083	324.215	85.192	-24.950	69.006	168.376	274.686	320.812	-11.832	242.437	-17.926	55.439	230.381	92.121	285.008	265.791	0.00020997	0.00013899	0.00023968	516.77	6.368e-06	4.4964e-06	585.78	156.89	9.792e-06	4.5669e-06	196.26	56.991	43.049	19.488	2.9121e-06	27.2	0.0038257	0.0070798	0.0019594	496.52	6.6206e-05	7.8872e-05	562.24	152.3	6.4542e-05	7.9116e-05	193.01	55.869	43.082	19.34	7.0183e-05	26.95	39.901	119.174	38.034	-14.273	188.710	144.136	-15.566	-9.226	23.700	127.463	-11.750	-8.132	-5.420	-1.157	104.834	-4.498	-8191	255	
5483.827	1	1	0	0	0.090965	0.060207	0.24677	0.24468	0.09416	0.12143	0.090972	0.087593	0.13463	0.30775	0.096949	0.21701	0.24645	0.25952	0.17262	0.2695	-2.7917	-3.0833	-3.0604	-3.3854	-2.8854	-3.2104	-3.1875	-2.7708	-3.2083	-3.2875	-3.1417	-3.4896	-2.925	-3.1813	-3.1813	-2.7042	120.770	121.775	290.413	60.985	164.662	14.369	198.254	291.332	297.580	199.410	313.053	290.217	-8.528	-18.189	145.531	259.328	0.00023776	0.00018617	0.00016177	515.26	4.8735e-06	2.3573e-06	590.93	157.69	1.2895e-05	3.7668e-06	199.03	57.121	43.413	19.636	9.1999e-06	27.569	0.0037808	0.0069759	0.0019795	496.19	6.6976e-05	7.7699e-05	564.98	153.45	6.4977e-05	7.9718e-05	194.29	56.198	43.312	19.497	6.9344e-05	27.058	68.823	108.038	105.506	-14.361	96.268	70.617	-15.216	-9.080	167.932	165.622	-11.841	-7.346	-5.441	-1.456	137.447	-4.881	-8191	255	
5483.923	1	1	0	0	0.25127	0.073448	0.17262	0.17865	0.25096	0.25162	0.10536	0.17143	0.081289	0.17036	0.12804	0.18774	0.2252	0.25738	0.27018	0.20549	-2.8625	-3.15	-2.9792	-3.15	-2.975	-3.0333	-3.3854	-3.0521	-3.0687	-3.2292	-2.9354	-3.2083	-2.9146	-3.0396	-3.0729	-2.8583	286.081	34.150	237.525	169.084	250.043	9.608	199.307	257.668	180.256	101.191	283.600	250.996	-15.644	49.211	268.180	57.193	0.00016905	0.00072907	8.3571e-05	516.62	4.2191e-06	4.2967e-06	592.09	158.08	5.8636e-06	3.3225e-06	198.94	56.197	42.961	19.57	6.0988e-06	27.429	0.0038429	0.0069088	0.0019633	497.36	6.6003e-05	7.8293e-05	563.56	152.79	6.4955e-05	7.9e-05	193.24	55.771	43.089	19.46	6.9041e-05	26.938	8.671	58.073	44.226	-14.155	320.093	90.847	-15.261	-9.263	76.882	189.652	-12.069	-7.394	-5.449	-1.426	196.674	-4.667	-8191	255	
5484.044	1	1	0	0	0.039537	0.16438	0.10617	0.22705	0.30098	0.1509	0.042311	0.09633	0.25787	0.060605	0.15131	0.049797	0.14414	0.14806	0.17744	0.074263	-2.6708	-2.9771	-2.7542	-3.3771	-2.9854	-2.9833	-3.2833	-2.9208	-3.0625	-3.2021	-2.7604	-3.2229	-3.0438	-2.9521	-3.3583	-2.8042	137.272	152.323	241.111	5.256	154.254	17.890	220.794	3.067	225.040	76.068	253.607	130.319	177.541	280.946	245.710	245.001	0.0002082	0.00055711	0.00022651	514.97	6.3887e-06	4.7395e-06	588.95	157.91	9.8386e-06	3.1164e-06	197.7	56.604	43.467	19.649	9.2458e-06	27.315	0.0038405	0.0070656	0.0020123	496.5	6.6809e-05	7.9358e-05	563.19	153.13	6.5776e-05	8.0545e-05	193.87	56.167	43.326	19.523	7.0885e-05	27.041	31.061	117.015	62.295	-14.160	41.864	248.838	-15.409	-9.252	85.243	98.073	-11.424	-7.735	-5.551	-1.461	117.512	-4.320	-8191	255	
5484.138	1	1	0	0	0.10202	0.34203	0.27357	0.12635	0.19582	0.17154	0.046533	0.23314	0.30922	0.30297	0.067552	0.28587	0.12837	0.17079	0.13028	0.13218	-2.6771	-3.4354	-2.7167	-3.4167	-2.9854	-2.9708	-3.4083	-3.1437	-3.0938	-3.3812	-3.0042	-3.2708	-3.3563	-2.9979	-3.1937	-2.9792	123.448	8.500	263.409	-19.603	174.702	73.393	161.876	330.162	-5.753	239.441	40.051	315.884	21.785	6.537	205.439	124.518	0.00027232	0.00018982	0.00019091	517.55	8.5287e-06	4.7574e-06	591.79	159.15	4.3264e-06	2.1324e-06	198.35	57.505	43.266	19.708	6.8806e-06	27.435	0.0038428	0.0071771	0.0020416	497.1	6.697e-05	8.1123e-05	566.05	153.55	6.4912e-05	8.0993e-05	194.66	56.444	43.254	19.561	7.1744e-05	27.139	19.983	5.953	86.705	-14.270	32.480	157.340	-15.441	-8.795	211.266	140.882	-11.642	-7.226	-5.177	-1.272	95.915	-4.997	-8191	255	
5484.235	1	1	0	0	0.07258	0.11303	0.0064626	0.11221	0.091871	0.24705	0.21576	0.16542	0.21113	0.13259	0.14187	0.13219	0.19221	0.24451	0.23521	0.21664	-2.6542	-3.3625	-2.8479	-3.4958	-3.0792	-2.9833	-3.3875	-3.0146	-3.1021	-3.1562	-2.9042	-3.3	-2.975	-2.8042	-3.2125	-3.1063	294.597	27.311	136.057	2.826	215.843	280.849	250.385	236.080	331.815	43.242	223.126	318.183	17.016	302.498	268.289	255.645	0.00055427	0.00050178	0.0001881	518.08	2.0967e-06	2.6766e-06	595.97	159.33	1.1085e-05	3.4552e-06	199.52	57.361	43.846	19.824	5.6183e-06	27.44	0.0039203	0.0071971	0.0020207	498.79	6.7959e-05	8.0682e-05	569.55	154.34	6.695e-05	8.3097e-05	195.93	56.636	43.607	19.666	7.3121e-05	27.174	15.596	327.504	82.234	-14.346	-4.124	116.087	-15.489	-9.429	24.673	294.084	-11.322	-7.518	-5.067	-1.480	108.278	-4.168	-8191	255	
5484.331	1	1	0	0	0.15759	0.20498	0.089278	0.066944	0.0030303	0.1462	0.11703	0.26742	0.13282	0.071395	0.28353	0.051805	0.15234	0.18552	0.087476	0.17997	-2.6292	-3.2	-2.8292	-3.1208	-3.2229	-2.9604	-3.3125	-2.9917	-3.0208	-3.1604	-2.825	-3.1167	-3.0479	-2.8438	-3.1312	-3.1458	-11.244	232.366	10.375	171.279	9.695	160.027	136.900	219.991	94.197	153.504	327.206	256.402	199.988	252.613	331.651	266.841	0.00021849	0.00063534	7.6223e-05	517.43	9.864e-06	6.3993e-06	594.48	158.23	3.4403e-06	4.8999e-06	199.89	57.37	43.723	19.676	4.6198e-06	27.321	0.0039859	0.0072687	0.0020374	499.66	6.8316e-05	8.1716e-05	567.69	153.71	6.7987e-05	8.2077e-05	195.16	56.252	43.419	19.588	7.1649e-05	27.019	325.098	117.538	67.510	-13.862	184.414	104.323	-15.333	-9.211	103.604	129.707	-11.251	-7.428	-5.628	-1.751	183.405	-4.101	-8191	255	
5484.427	1	1	0	0	0.20115	0.032038	0.17208	0.10962	0.09518	0.26997	0.060189	0.089472	0.076283	0.14435	0.15651	0.15188	0.18934	0.22234	0.2734	0.31346	-2.4	-3.1562	-2.9875	-3.0542	-3.2896	-2.8729	-3.4688	-3.2771	-3.0646	-3.4646	-2.9021	-3.0312	-3.2583	-2.9313	-3.3229	-3.3792	101.516	7.627	257.447	26.649	17.125	224.417	51.824	0.602	250.572	250.588	238.732	143.487	329.408	301.262	189.043	199.727	0.00023426	0.00052106	0.00018028	516.99	1.0629e-05	4.4405e-06	586.85	158.65	8.3193e-06	2.8871e-06	199.03	56.743	43.401	19.973	2.7027e-06	27.317	0.004005	0.0073778	0.0020808	498.4	6.896e-05	8.3066e-05	564.97	153.87	6.7986e-05	8.3865e-05	194.94	56.176	43.291	19.648	7.327e-05	27.102	74.434	140.826	86.021	-14.131	132.391	91.337	-15.246	-9.261	108.180	326.867	-11.608	-7.348	-5.465	-1.373	226.058	-4.590	-8191	255	
5484.523	1	1	0	0	0.11498	0.033617	0.15953	0.05879	0.18313	0.12137	0.17627	0.037468	0.10908	0.16931	0.078075	0.18266	0.2698	0.18613	0.12549	0.13399	-2.5521	-3.2854	-3.0833	-3.2438	-3.3042	-2.7292	-3.275	-3.3042	-2.8667	-3.4208	-3.1937	-2.9104	-3.4229	-3.0167	-3.1917	-3.4188	169.684	162.669	276.769	310.086	41.185	236.995	270.374	-14.735	115.897	80.074	216.472	69.400	324.306	321.479	114.331	247.271	0.00030053	0.00026778	5.7349e-05	513.99	3.9133e-06	1.9178e-06	594.02	157.92	6.8272e-06	5.0918e-06	198.83	57.076	43.747	19.808	6.5372e-06	27.573	0.0040611	0.007363	0.0021088	498.43	6.9921e-05	8.3285e-05	568.14	154.09	6.9836e-05	8.5363e-05	195.48	56.51	43.634	19.669	7.4672e-05	27.245	3.258	7.097	56.644	-13.939	122.865	129.623	-15.179	-9.182	234.318	155.018	-11.335	-7.758	-4.929	-1.488	118.375	-4.727	-8191	255	
5484.644	1	1	0	0	0.1999	0.13183	0.30333	0.096375	0.22707	0.082222	0.13988	0.064404	0.33497	0.30889	0.16477	0.11922	0.13492	0.26563	0.17249	0.15176	-2.5229	-3.0542	-2.9104	-2.9146	-3.1604	-3.1354	-3.1875	-3.2292	-2.9479	-3.1583	-3.075	-2.875	-3.3875	-3.0062	-3.3187	-3.0896	42.454	61.729	44.975	47.405	12.502	186.107	266.375	217.762	43.826	329.207	107.043	-14.335	222.028	79.259	322.015	321.807	0.00025041	0.0011775	7.1295e-05	519.65	7.489e-06	3.7674e-06	591.98	159.27	1.1355e-05	1.654e-06	200.6	57.161	43.255	19.771	3.4332e-06	27.5	0.0041462	0.0075873	0.002128	502.27	7.2358e-05	8.5697e-05	570.59	154.86	7.2008e-05	8.723e-05	196.48	56.779	43.604	19.728	7.7859e-05	27.27	57.007	14.395	129.416	-13.791	108.737	14.102	-15.408	-9.134	120.151	151.777	-11.535	-7.228	-5.388	-1.328	132.804	-4.650	-8191	255	
5484.740	1	1	0	0	0.12486	0.11943	0.10002	0.07706	0.14877	0.22853	0.25929	0.23644	0.18858	0.29817	0.11999	0.029353	0.10949	0.041425	0.14629	0.2179	-2.4229	-3.1042	-3.1437	-2.9833	-3.3854	-3.2313	-2.9708	-3.4	-2.7687	-3.2771	-3.3333	-3.0458	-3.1021	-3.1271	-2.9	-3.2667	192.263	30.665	61.984	121.474	262.748	-22.746	215.097	259.655	54.626	81.682	129.451	-14.835	124.434	72.081	6.790	284.842	0.00013975	0.00016544	0.00016755	515.16	2.2272e-06	5.2826e-06	589.42	157.44	6.8663e-06	9.8524e-06	199.02	56.771	43.23	19.628	5.6762e-06	27.073	0.0042582	0.0077976	0.0021972	499.69	7.239e-05	8.6821e-05	567.94	153.31	7.1257e-05	8.6274e-05	194.42	56.216	43.26	19.52	7.7475e-05	26.856	27.543	26.149	33.046	-13.870	233.594	167.863	-15.326	-9.426	131.448	128.268	-11.526	-7.438	-5.535	-1.395	187.205	-5.187	-8191	255	
5484.836	1	1	0	0	0.36364	0.23707	0.06165	0.21649	0.21555	0.087456	0.19853	0.075211	0.28457	0.29508	0.17991	0.13102	0.14601	0.064809	0.081585	0.21722	-2.3083	-3.0625	-3.1979	-2.7812	-3.2208	-3.0771	-3.0167	-3.2771	-2.8417	-3.1979	-3.2896	-2.8958	-3.2313	-3.1021	-2.9125	-3.3854	224.123	146.724	143.917	-21.149	-17.733	-6.042	287.365	215.359	100.034	218.297	259.131	58.861	140.178	10.470	-17.106	237.473	0.00028812	0.00031917	2.629e-05	513.67	4.4682e-06	9.8206e-06	590.87	157.88	1.1911e-05	2.96e-06	196.36	56.064	42.718	19.537	6.8955e-06	27.247	0.0041973	0.0076133	0.0022008	495.85	7.2036e-05	8.8548e-05	565.4	153.44	7.2882e-05	8.8647e-05	193.17	55.9	43.071	19.466	7.6629e-05	26.936	38.407	292.685	52.845	-14.161	234.761	245.104	-15.096	-9.278	105.349	95.579	-11.577	-7.345	-5.806	-1.379	213.455	-4.882	-8191	255	
5484.932	1	1	0	0	0.047913	0.027428	0.16387	0.093947	0.085866	0.080939	0.1948	0.22281	0.22068	0.20536	0.18053	0.079022	0.029598	0.084275	0.16972	0.12103	-2.4708	-3	-3.1375	-2.8583	-3.3187	-3.1896	-2.775	-3.0938	-2.9229	-3.0625	-3.2271	-2.8563	-3.1625	-3.1104	-2.775	-3.3646	188.580	256.547	195.336	-4.073	266.191	302.594	256.547	222.179	244.699	285.239	1.569	184.874	269.204	281.109	260.682	249.815	0.00029047	0.00079179	2.8339e-05	508.6	3.884e-06	4.0608e-06	587.55	157.1	1.0492e-05	7.0547e-06	197.62	56.97	43.293	19.438	3.8179e-06	27.339	0.0042211	0.0076533	0.0021674	495.58	7.2616e-05	8.7097e-05	564.01	153.29	7.1302e-05	8.5768e-05	194.05	56.235	43.257	19.42	7.4909e-05	27.055	51.996	43.021	227.413	-14.230	135.134	140.930	-15.503	-8.648	122.218	185.677	-11.519	-7.545	-4.933	-1.350	122.898	-4.317	-8191	255	
5485.004	1	1	0	0	0.23687	0.24927	0.16912	0.18127	0.089902	0.10575	0.17645	0.051429	0.23206	0.15112	0.11687	0.16959	0.10609	0.064743	0.14074	0.090252	-2.5021	-2.8792	-3.2313	-3.0125	-3.1896	-3.2812	-2.9542	-3.2271	-3.1792	-2.9229	-3.2875	-3.1	-3.0729	-3.1771	-2.8875	-3.2562	175.383	282.181	92.477	-24.674	150.201	26.023	240.260	-24.767	213.888	-24.719	101.840	84.786	190.717	-10.431	253.882	49.149	0.00022577	0.00071374	8.4957e-05	511.45	3.9666e-06	9.1524e-06	587.55	157.11	1.2992e-05	3.3562e-06	199.23	57.265	42.93	19.644	1.1688e-05	27.347	0.0040824	0.0074769	0.0021057	495.69	6.9715e-05	8.4311e-05	565.27	153.17	7.0193e-05	8.4665e-05	194.87	56.47	43.08	19.518	7.4276e-05	27.137	26.433	318.375	36.608	-13.813	44.402	158.999	-15.566	-9.249	203.216	145.782	-11.342	-7.745	-4.662	-1.231	159.481	-4.530	-8191	255	
5485.123	1	1	0	0	0.27961	0.11053	0.066297	0.166	0.037425	0.24167	0.28227	0.14249	0.15194	0.17376	0.17528	0.41021	0.092151	0.11182	0.080404	0.20187	-2.6125	-2.8937	-3.3521	-2.9917	-3.1458	-3.375	-2.8229	-3.2375	-3.2896	-3.0167	-3.4104	-2.9896	-3.1833	-3.2104	-2.8417	-3.3417	32.728	280.119	103.765	40.931	206.177	232.895	305.345	283.306	199.103	231.969	52.402	235.385	277.995	294.555	251.936	299.683	0.00021077	0.00046877	5.1188e-05	515.12	4.9345e-06	3.3278e-06	589.95	158.12	5.1071e-06	2.5159e-06	198.61	56.578	43.231	19.673	1.1544e-05	27.577	0.0040709	0.0074755	0.002101	497.33	6.9048e-05	8.327e-05	565.49	153.23	6.7846e-05	8.2736e-05	193.51	56.069	42.972	19.465	7.2092e-05	27.036	74.320	16.283	278.494	-14.101	118.008	60.715	-15.305	-9.172	182.440	129.541	-11.350	-7.929	-5.386	-1.135	122.485	-4.434	-8191	255	
5485.219	1	1	0	0	0.17876	0.18859	0.035283	0.17723	0.25248	0.27691	0.14125	0.10544	0.098582	0.16977	0.25085	0.095026	0.39117	0.14878	0.082265	0.17325	-2.7667	-2.9583	-3.3833	-3.0187	-2.9437	-3.3542	-3.0333	-3.2375	-3.2792	-3.1396	-3.2687	-2.9896	-3.1604	-3.3646	-2.7875	-3.1146	260.163	257.104	251.557	50.565	204.228	247.876	30.246	244.141	315.786	184.355	111.509	319.562	261.778	236.916	47.326	271.232	8.7018e-05	0.00073299	0.00019126	513.65	6.6022e-06	4.1465e-06	589.47	157.95	9.0292e-06	5.6248e-06	198.03	56.799	43.469	19.623	7.101e-06	27.547	0.0039295	0.0071822	0.0020173	496.44	6.6038e-05	8.064e-05	564.64	152.92	6.6284e-05	8.3217e-05	194.3	56.173	43.222	19.545	7.3487e-05	27.138	34.659	64.589	19.099	-14.125	168.858	35.509	-15.325	-9.026	-6.995	91.719	-11.413	-7.605	-5.357	-1.585	14.607	-4.462	-8191	255	
5485.315	1	1	0	0	0.1069	0.17592	0.015533	0.090671	0.0093575	0.070054	0.12812	0.08011	0.1558	0.022739	0.085044	0.069436	0.25772	0.327	0.12567	0.18526	-2.7896	-2.775	-3.3333	-3.1417	-3.1229	-3.3375	-2.9271	-3.0792	-3.3771	-2.9437	-3.3271	-3.1021	-2.8604	-3.2104	-2.8229	-3.1604	60.593	181.860	161.115	53.268	38.307	128.379	215.621	304.905	104.846	206.342	133.258	-3.484	22.256	330.071	201.908	156.839	8.743e-05	7.8851e-05	0.00012539	513.38	3.8782e-06	3.9329e-06	589.82	158.27	9.2313e-06	7.3493e-06	198.74	57.408	43.188	19.709	4.3363e-06	27.336	0.0040084	0.0073449	0.0020361	496.48	6.8121e-05	8.2742e-05	566.72	153.55	6.7827e-05	8.4454e-05	195.02	56.448	43.405	19.596	7.3597e-05	27.181	27.562	288.489	135.605	-13.910	-19.853	319.493	-15.314	-9.196	162.814	97.756	-11.347	-7.294	-5.411	-1.363	93.068	-4.502	-8191	255	
5485.436	1	1	0	0	0.12053	0.18413	0.14723	0.07047	0.03494	0.039239	0.2274	0.10448	0.32011	0.010475	0.18635	0.073221	0.2266	0.21237	0.16496	0.036909	-2.8312	-2.7625	-3.2271	-3.2354	-2.8354	-3.3229	-2.9437	-3.1	-3.2875	-2.9146	-3.2938	-3.0208	-2.9396	-3.3646	-3.0458	-2.9062	104.054	62.872	305.790	-1.101	278.015	167.142	160.140	-17.357	304.158	143.956	-15.982	290.264	-19.934	-15.943	235.193	142.980	0.00021244	0.00047753	6.5852e-05	513.58	7.1809e-07	5.7381e-06	594	159.24	1.1615e-05	8.6417e-06	199.94	57.171	43.611	19.651	9.3175e-06	27.354	0.0039493	0.0074119	0.0020624	498.74	6.9666e-05	8.2455e-05	570.13	154.33	6.876e-05	8.4067e-05	195.75	56.505	43.388	19.599	7.4028e-05	27.088	52.218	56.331	330.079	-14.055	216.939	138.565	-15.385	-9.498	87.857	65.483	-10.976	-7.383	-5.433	-0.897	102.177	-4.934	-8191	255	
5485.532	1	1	0	0	0.17337	0.23887	0.10995	0.030035	0.13556	0.090921	0.098187	0.25467	0.13302	0.15056	0.11153	0.092425	0.077417	0.1974	0.082268	0.26085	-2.8333	-2.7833	-3.0542	-3.2521	-2.9688	-3.3104	-3.2083	-2.9604	-3.3708	-2.9313	-3.1979	-3.0896	-2.7938	-3.3042	-3.05	-3.1646	330.091	240.065	265.438	275.270	332.737	5.319	11.404	251.431	97.906	232.532	217.468	322.872	97.537	251.788	267.607	257.347	0.00028805	0.00037729	8.2923e-05	517.6	7.7196e-06	6.9517e-06	591.4	157.98	5.266e-06	4.1945e-06	198.28	56.846	43.204	19.429	4.5152e-06	27.018	0.0040501	0.0073723	0.0020324	499.16	6.976e-05	8.1747e-05	566.2	153.72	6.9539e-05	8.2429e-05	194.17	56.04	43.079	19.421	7.2748e-05	26.749	62.749	306.283	32.228	-14.298	175.952	68.668	-15.574	-9.211	184.067	133.045	-11.272	-7.813	-5.023	-1.208	229.245	-4.681	-8191	255	
5485.603	1	1	0	0	0.19124	0.14639	0.16185	0.19744	0.16542	0.29483	0.21117	0.10241	0.18124	0.23031	0.097053	0.17882	0.10737	0.10166	0.10126	0.23887	-3.0438	-3.1167	-3.1854	-3.2104	-2.8812	-3.4667	-3.2979	-3.0979	-3.3812	-3.1063	-3.3333	-3.2188	-2.9208	-3.3333	-3.2333	-3.0104	160.345	188.242	316.650	270.696	273.334	130.915	29.185	40.802	82.471	290.371	221.702	68.464	277.124	233.660	265.540	-3.898	0.00026369	0.0001901	0.00030574	515.24	9.7854e-06	6.0287e-06	590.5	157.64	1.2064e-05	3.4335e-06	197.48	56.443	43.088	19.734	1.1748e-06	27.208	0.0039473	0.0073699	0.0020417	497.52	6.9137e-05	8.2761e-05	566.36	153.21	6.7863e-05	8.3401e-05	193.45	55.909	43.083	19.487	7.332e-05	26.897	41.327	83.452	105.539	-14.471	14.170	68.219	-15.517	-9.597	117.288	77.855	-11.307	-7.604	-5.448	-1.252	94.339	-4.303	-8191	255	
5485.724	1	1	0	0	0.19794	0.066817	0.32904	0.34491	0.15655	0.13323	0.15638	0.11671	0.22303	0.14479	0.082126	0.28784	0.14697	0.19487	0.044383	0.23222	-2.8604	-3.0333	-3.0667	-3.2604	-2.8187	-3.2562	-3.3708	-2.9167	-3.2188	-3.1292	-3.1729	-3.2604	-2.8708	-3.1167	-3.1833	-2.8958	249.302	213.513	97.165	-1.567	69.427	-0.596	297.064	266.138	-25.283	297.146	324.047	307.905	170.837	56.163	132.841	250.101	0.00040742	0.00020449	0.00015447	516.93	4.436e-06	7.8267e-06	589.13	158.24	7.4435e-06	2.4652e-06	199.71	56.77	43.324	19.804	5.8941e-06	27.467	0.004038	0.0072587	0.0020106	497.9	6.8488e-05	8.2428e-05	566.94	153.47	6.7287e-05	8.2729e-05	194.77	56.221	43.237	19.572	7.3085e-05	27.137	76.061	51.175	-5.647	-14.256	91.112	8.322	-15.726	-8.895	83.912	81.594	-10.643	-7.185	-5.558	-1.225	215.864	-4.496	-8191	255	
5485.820	1	1	0	0	0.21088	0.38488	0.19261	0.19207	0.037078	0.047723	0.14736	0.1766	0.14503	0.014309	0.06739	0.1208	0.12346	0.020397	0.24716	0.16133	-3.0458	-3.1042	-3.0062	-3.5125	-2.8625	-3.1146	-3.2208	-2.9354	-3.275	-3.2042	-2.8812	-3.3	-2.9542	-3.0687	-3.3792	-2.8604	311.589	36.207	35.320	309.751	151.151	11.105	281.686	271.464	265.732	99.329	93.832	269.255	320.399	150.201	198.885	35.313	0.00020008	0.00034398	0.000153	513.53	1.1875e-05	8.6469e-06	589.44	158.23	8.5173e-06	5.3359e-06	199.03	57.194	43.147	19.722	5.5994e-06	27.212	0.0040498	0.0073511	0.0020812	498.08	6.8601e-05	8.0699e-05	568.28	154.18	6.8287e-05	8.3577e-05	195.28	56.39	43.319	19.576	7.349e-05	27.064	45.270	-17.715	-2.721	-14.058	187.204	126.963	-15.203	-9.223	162.788	161.349	-11.175	-7.745	-5.675	-1.253	61.632	-4.244	-8191	255	
5485.916	1	1	0	0	0.13956	0.13269	0.10422	0.28312	0.21425	0.22643	0.086535	0.095265	0.10055	0.087225	0.18464	0.23036	0.22501	0.063674	0.1958	0.068017	-2.7896	-3.0938	-2.9979	-3.3438	-3.0417	-3.1479	-3.2833	-2.8958	-3.1729	-2.9604	-3.0979	-3.2292	-2.9146	-3.0229	-3.1562	-2.7708	124.333	48.730	173.972	322.326	43.460	59.753	240.718	287.529	226.595	151.020	51.167	161.233	37.894	109.027	157.002	4.125	0.00020786	0.00047201	5.5145e-05	517.45	5.0935e-06	1.3558e-06	592.87	158.55	1.0459e-05	3.7692e-07	196.28	56.645	42.637	19.663	5.4756e-06	27.101	0.0039849	0.0071982	0.0020624	500.44	6.8934e-05	8.1544e-05	568.32	153.77	6.629e-05	8.1378e-05	193.8	56.045	43.035	19.526	7.3283e-05	26.904	20.464	52.337	-9.597	-13.950	20.422	63.446	-15.631	-9.262	94.004	331.902	-11.567	-7.755	-5.362	-1.194	168.274	-4.807	-8191	255	
5486.037	1	1	0	0	0.11677	0.058485	0.20368	0.18737	0.099131	0.15844	0.16033	0.17766	0.11428	0.32137	0.15367	0.072333	0.046317	0.23319	0.19854	0.031864	-2.7854	-3.1833	-2.8917	-3.3438	-2.9479	-3.1562	-3.3187	-3.0708	-3.1854	-3.1854	-2.85	-3.2104	-3.0292	-2.7583	-3.4229	-2.9708	230.785	77.148	326.028	291.846	28.912	205.021	332.257	228.330	21.532	229.582	194.942	195.488	133.194	275.793	122.325	210.346	0.00017912	0.0006348	0.00013774	514.51	3.7519e-06	1.1065e-05	589.8	157.78	3.845e-06	3.6128e-06	198.65	57.004	42.824	19.691	3.7183e-06	27.351	0.0038771	0.0071493	0.0020773	498.33	6.7877e-05	8.2769e-05	566.11	153.07	6.6262e-05	8.2181e-05	194.08	56.128	43.259	19.541	7.2668e-05	27.027	36.641	28.024	75.314	-13.930	94.840	130.138	-15.027	-9.113	123.164	297.753	-11.781	-7.807	-4.908	-1.237	180.657	-3.932	-8191	255	
5486.131	1	1	0	0	0.096494	0.1219	0.15367	0.096171	0.20369	0.17673	0.16569	0.18191	0.039052	0.13524	0.16021	0.14683	0.20313	0.17125	0.20133	0.14865	-2.8729	-3.2833	-2.9708	-3.3458	-2.9479	-3.0146	-3.3875	-3.1312	-3.3125	-3.4854	-2.8875	-3.2625	-3.1021	-2.8854	-3.4542	-3.0792	36.836	219.073	332.106	124.141	316.289	-0.550	306.046	115.161	218.340	327.559	320.848	149.409	1.053	165.878	320.722	249.796	0.00036768	0.00036253	6.0642e-05	516.35	2.0913e-06	4.5296e-06	590.34	158.07	5.534e-06	2.2295e-06	198.61	57.53	43.592	20.004	7.6878e-06	27.619	0.0039217	0.0071322	0.0020169	498.99	6.7505e-05	8.1326e-05	567.3	153.53	6.6243e-05	8.2261e-05	194.88	56.554	43.467	19.771	7.0814e-05	27.304	50.896	257.163	21.810	-14.338	182.416	131.389	-15.432	-9.280	250.068	88.320	-11.772	-7.420	-5.555	-1.419	19.913	-4.431	-8191	255	
5486.228	1	1	0	0	0.21201	0.14399	0.16468	0.10444	0.16141	0.26536	0.046112	0.057844	0.27567	0.28567	0.13142	0.156	0.08632	0.041312	0.13651	0.24704	-2.775	-3.1	-2.8625	-3.1479	-3.1854	-2.9979	-3.3271	-2.9917	-2.8896	-3.3271	-2.9146	-3.1833	-3.1125	-2.9208	-3.2479	-3.0563	177.665	85.771	291.147	271.076	31.587	243.615	159.974	88.680	322.746	201.093	275.973	21.563	64.160	-19.881	167.266	-2.288	0.00033209	0.00037476	0.00020021	517.17	5.1636e-06	2.9921e-06	595.89	159.29	5.0665e-06	3.7914e-06	201.57	57.763	43.882	20.025	9.0794e-06	27.826	0.0038686	0.0072037	0.0020315	499.32	6.7293e-05	8.0001e-05	572.1	154.82	6.52e-05	8.1496e-05	196.61	57.037	43.787	19.923	7.1564e-05	27.525	37.309	86.899	168.474	-14.052	125.212	114.631	-15.188	-8.704	98.169	23.449	-11.401	-7.535	-4.678	-1.308	161.552	-4.774	-8191	255	
5486.299	1	1	0	0	0.18811	0.25076	0.10107	0.19176	0.29973	0.20654	0.069821	0.13279	0.10014	0.44139	0.11587	0.19761	0.045081	0.30649	0.035011	0.15833	-2.7313	-3.2646	-2.7938	-3.2083	-3.0542	-2.7979	-3.4729	-3.1458	-2.9979	-3.3625	-2.925	-3.2687	-3.2667	-3.0708	-3.1833	-3.0854	5.387	50.271	-1.777	-21.167	304.372	221.405	13.379	233.766	73.902	42.082	218.947	201.132	139.074	285.946	330.472	206.081	0.0003494	0.00022586	6.7637e-05	515.63	3.6537e-06	1.168e-06	595.66	160.36	7.9155e-06	1.0408e-06	199.29	57.773	44.103	20.129	3.08e-06	27.728	0.0038647	0.0071401	0.0020076	499.69	6.6972e-05	7.9799e-05	569.91	154.82	6.5422e-05	8.0012e-05	195.58	56.752	43.772	19.852	6.8823e-05	27.37	61.276	30.993	112.450	-13.975	52.569	-5.823	-15.685	-9.383	66.224	130.613	-11.514	-7.276	-5.080	-1.230	24.291	-4.387	-8191	255	
5486.420	1	1	0	0	0.28643	0.084204	0.35118	0.017911	0.26527	0.1751	0.15049	0.17417	0.1199	0.082525	0.16866	0.34633	0.20091	0.080735	0.27856	0.12382	-2.5187	-3.2729	-2.9667	-3.0229	-3.2146	-3.1292	-3.2458	-3.2354	-2.9396	-3.3146	-3.1083	-3.0708	-3.2875	-2.9646	-3.1354	-3.3688	262.610	97.560	188.142	204.378	44.602	-4.206	264.181	-4.819	156.815	241.646	159.470	280.110	307.218	57.749	183.719	322.809	0.00018772	0.00031123	0.00014671	521.45	1.8175e-06	2.8252e-06	593.17	159.91	5.9237e-06	5.9527e-06	201.91	57.613	44.049	20.052	6.5866e-06	27.884	0.0038478	0.0069712	0.0019955	500.71	6.5737e-05	7.666e-05	567.97	154.54	6.4167e-05	7.8467e-05	196.38	56.785	43.798	19.917	6.8771e-05	27.512	61.609	41.402	25.493	-13.957	276.536	144.581	-15.404	-9.053	326.063	191.613	-11.283	-7.277	-5.082	-1.101	101.276	-4.259	-8191	255	
5486.516	1	1	0	0	0.11902	0.1511	0.092213	0.17186	0.21375	0.20874	0.16746	0.17879	0.089765	0.33318	0.085984	0.035548	0.14786	0.15193	0.12156	0.047218	-2.4833	-3.3771	-2.9688	-3.0604	-3.3792	-2.9583	-3.2562	-3.0854	-2.9	-3.3729	-2.8833	-2.9583	-3.2521	-2.8167	-3.0729	-3.275	5.261	274.532	316.369	298.341	328.283	192.186	305.431	148.643	164.139	108.174	89.681	59.293	-4.893	-14.924	27.468	292.425	0.00041285	0.00056207	0.00012248	518.48	5.462e-06	4.2826e-06	597.66	160.91	7.8839e-06	6.3039e-06	201.43	57.942	43.915	20.173	6.5916e-06	28.057	0.0037852	0.0069291	0.0019326	501.15	6.5697e-05	7.8058e-05	571.81	155.43	6.487e-05	7.7706e-05	196.77	57.14	43.887	19.977	6.7851e-05	27.75	30.782	121.858	34.649	-13.879	70.374	63.704	-15.463	-8.986	24.495	112.119	-11.291	-7.668	-5.638	-1.167	72.827	-4.716	-8191	255	
5486.612	1	1	0	0	0.043617	0.19526	0.12284	0.20019	0.18794	0.21459	0.066377	0.039012	0.1779	0.20469	0.21941	0.088621	0.25468	0.23457	0.345	0.21817	-2.3229	-3.2583	-3.0104	-2.8458	-3.3646	-3.0292	-3.3104	-3.1958	-2.7792	-3.3187	-3.1042	-3.0146	-3.3708	-2.8604	-3.2396	-3.4271	68.630	168.416	191.377	18.390	-18.021	284.599	47.390	228.483	108.431	214.868	-13.072	236.925	164.743	18.855	-5.933	-12.940	0.00036162	0.0001526	4.0952e-05	522.5	6.86e-07	7.1704e-06	599.83	160.23	6.9196e-06	2.3229e-06	202.47	58.643	44.434	20.372	3.5445e-06	28.142	0.0037865	0.0067764	0.0019241	503.39	6.5147e-05	7.7456e-05	573.31	155.96	6.4264e-05	7.724e-05	197.95	57.547	44.09	20.061	6.9711e-05	27.78	48.086	71.479	117.729	-13.801	181.270	118.998	-15.607	-9.447	113.795	34.368	-11.075	-7.718	-5.463	-1.509	114.961	-4.606	-8191	255	
5486.708	1	1	0	0	0.272	0.088732	0.19768	0.33371	0.137	0.34625	0.10665	0.26704	0.082909	0.16745	0.2318	0.28392	0.09817	0.14175	0.20663	0.10817	-2.4813	-3.1813	-2.9542	-2.8812	-3.3354	-3.1146	-3.1063	-3.2833	-2.6667	-3.3063	-3.1292	-2.9708	-3.4562	-3.0667	-2.9604	-3.3917	190.792	-9.715	-4.652	301.230	73.591	186.866	288.319	325.820	9.303	247.708	10.132	258.189	-18.968	11.628	229.802	209.749	0.00011652	0.00087067	0.00015431	525.13	9.2659e-06	4.8356e-06	599.24	161.19	8.2741e-06	2.9861e-06	202.26	58.292	44.082	20.152	6.2309e-06	27.693	0.0038783	0.0069123	0.0019882	506.11	6.6007e-05	7.8171e-05	573.87	156.14	6.5281e-05	7.6754e-05	197.79	57.308	43.962	19.97	6.8732e-05	27.456	70.504	15.040	59.899	-14.110	104.385	226.346	-15.443	-8.963	95.956	47.560	-11.734	-7.391	-5.201	-1.306	-22.958	-4.691	-8191	255	
5486.829	1	1	0	0	0.090001	0.13228	0.16663	0.087371	0.41417	0.048198	0.16794	0.12192	0.1643	0.077666	0.12181	0.096087	0.14216	0.14621	0.11013	0.1741	-2.2604	-3.0979	-3.1979	-2.7542	-3.3688	-3.1958	-2.9167	-3.5083	-3.0042	-3.0563	-3.2313	-3.0167	-3.375	-3.2292	-3.0812	-3.3583	-23.041	0.436	82.880	44.327	145.630	325.858	258.502	249.269	80.659	259.357	16.655	185.729	320.649	275.925	257.417	284.521	0.00026052	0.00088933	0.00010912	521.23	2.1997e-06	3.4695e-06	598.83	161.12	2.3772e-06	2.9452e-06	201.7	58.243	44.134	20.159	6.7721e-06	27.801	0.0038458	0.0068603	0.0019621	503.81	6.5775e-05	7.8679e-05	573.71	156.26	6.4429e-05	7.7925e-05	197.25	57.348	43.856	19.941	7.0267e-05	27.478	38.160	117.160	47.327	-14.119	41.071	147.034	-15.632	-9.493	74.556	22.104	-11.469	-7.373	-5.109	-1.153	-5.956	-4.715	-8191	255	
5486.901	1	1	0	0	0.1868	0.11052	0.213	0.29604	0.047354	0.084235	0.12576	0.32773	0.082363	0.21283	0.12759	0.10317	0.33676	0.16168	0.25673	0.065824	-2.4125	-3.1125	-3.2375	-2.8271	-3.2354	-3.2333	-3.0854	-3.2583	-2.9188	-3.2521	-3.2208	-2.7	-3.2292	-3.0563	-2.8625	-3.3063	145.749	283.200	43.355	267.673	197.675	19.845	234.183	236.515	167.355	311.827	309.382	114.983	52.981	80.897	306.464	308.583	0.00030727	8.5147e-05	0.00019863	524.41	1.1917e-05	4.7739e-06	601.79	162.82	8.1326e-06	5.3578e-06	203.21	58.189	44.315	20.153	6.2262e-06	28.116	0.0037837	0.0068445	0.0019718	505.02	6.645e-05	7.8231e-05	576.01	156.75	6.4651e-05	7.7322e-05	198.17	57.645	44.068	20.087	6.8801e-05	27.781	21.634	56.129	77.751	-14.247	128.337	125.395	-15.173	-9.267	86.252	194.446	-11.814	-7.896	-5.372	-1.512	135.217	-4.543	-8191	255	
5486.997	1	1	0	0	0.28665	0.10276	0.23705	0.076034	0.13118	0.16763	0.16951	0.13454	0.038002	0.36518	0.13804	0.042851	0.19493	0.20276	0.066032	0.18027	-2.6437	-2.8812	-3.2917	-2.8729	-3.2604	-3.3229	-3.0146	-3.2417	-3.0208	-2.975	-3.3458	-2.9313	-3.0396	-3.3104	-2.9604	-3.3396	180.129	225.533	14.863	164.842	185.710	129.470	307.826	130.157	61.464	11.352	231.304	100.715	72.403	173.491	244.374	-7.430	0.00046305	0.00073101	2.4165e-05	524.87	4.8733e-06	3.9901e-07	605.29	161.76	4.4663e-06	4.5945e-06	205.19	59.439	44.856	20.51	1.5158e-06	28.273	0.0037831	0.006924	0.0019661	506	6.4404e-05	7.8048e-05	578.39	157.19	6.4266e-05	7.7343e-05	199.99	57.987	44.54	20.219	6.8819e-05	27.819	30.458	8.978	200.392	-14.184	160.556	241.863	-15.558	-8.896	171.969	111.764	-11.450	-7.252	-5.331	-1.342	234.386	-4.830	-8191	255	
5487.117	1	1	0	0	0.2335	0.22337	0.056999	0.1588	0.12434	0.12519	0.26647	0.10982	0.077756	0.26392	0.16302	0.2267	0.22119	0.14501	0.19776	0.23629	-2.6125	-2.9333	-3.4146	-2.9167	-3.1396	-3.3042	-2.9938	-3.225	-3.25	-2.8917	-3.2646	-2.8688	-3.1458	-3.2354	-2.8958	-3.2208	251.903	258.967	14.386	147.380	23.998	76.137	309.503	88.184	-2.328	188.201	184.308	234.631	24.649	145.981	224.244	26.320	0.00036812	0.00029739	0.00013696	525.41	5.9983e-06	5.2275e-06	604.46	161.6	2.2168e-06	2.6635e-06	203.5	58.454	44.647	20.115	5.7785e-06	28.05	0.0037418	0.0067938	0.0019372	506.92	6.3427e-05	7.6586e-05	579.04	156.69	6.2347e-05	7.7642e-05	198.82	57.458	44.246	20.038	6.8617e-05	27.551	39.240	48.172	106.801	-14.095	63.374	188.907	-15.525	-9.197	166.072	102.077	-11.817	-7.753	-5.256	-1.337	87.262	-4.442	-8191	255	
5487.212	1	1	0	0	0.12897	0.19704	0.075105	0.29626	0.20689	0.069506	0.088001	0.1246	0.33957	0.2767	0.11582	0.1264	0.17813	0.032115	0.14718	0.21069	-2.5792	-2.7917	-3.2896	-2.9771	-3.1167	-3.2083	-2.9333	-3.3271	-3.1875	-2.9083	-3.2833	-3.1021	-3.1042	-3.4333	-2.8729	-3.2313	8.361	2.634	8.277	210.945	144.325	97.326	-12.227	-13.581	154.361	48.034	108.008	298.989	314.219	266.065	116.659	197.149	0.00032221	0.00030686	4.8547e-05	520.09	8.3654e-07	3.7137e-06	598.35	160.81	5.9528e-06	3.2078e-06	203.28	58.004	44.475	20.29	7.3968e-06	27.858	0.0037962	0.0068324	0.0018972	504.02	6.3247e-05	7.8202e-05	574.34	156.71	6.2717e-05	7.5619e-05	198.01	57.284	44.127	20.064	6.7638e-05	27.498	36.451	159.287	317.700	-14.442	6.983	101.311	-15.573	-9.310	126.753	124.723	-11.447	-7.425	-5.545	-1.822	87.710	-4.332	-8191	255	
5487.308	1	1	0	0	0.029193	0.13793	0.21609	0.38735	0.1644	0.088041	0.12518	0.089655	0.24278	0.1075	0.079138	0.15421	0.23139	0.034854	0.15959	0.049693	-2.5896	-2.9313	-3.3063	-3.0333	-3.0896	-3.3542	-3.0792	-3.2625	-3.2021	-2.7875	-3.325	-3.0521	-2.925	-3.2708	-2.9667	-2.9167	118.415	104.654	255.352	257.226	7.995	192.720	230.867	238.138	288.542	117.608	266.207	-27.254	44.709	208.844	276.727	225.611	0.00025032	0.00017961	0.00016624	526.62	7.1454e-06	3.6954e-06	604.4	161.49	7.2225e-07	1.4459e-06	203.3	58.704	44.953	20.3	4.061e-06	28.293	0.0037686	0.0067687	0.0019018	506.85	6.3784e-05	7.7339e-05	575.95	156.79	6.4424e-05	7.8555e-05	198.24	57.922	44.455	20.119	6.7394e-05	27.783	35.144	273.104	78.988	-13.918	108.329	123.048	-15.492	-9.491	-8.363	113.372	-11.597	-7.576	-4.795	-1.521	150.981	-4.400	-8191	255	
5487.404	1	1	0	0	0.2072	0.036069	0.041498	0.087041	0.29127	0.14853	0.15228	0.2721	0.21864	0.071263	0.26209	0.15701	0.077375	0.28995	0.14472	0.18111	-2.9083	-2.6146	-3.3438	-2.9688	-2.9083	-3.3312	-2.9396	-3.0979	-3.2896	-2.8979	-3.2521	-2.9813	-2.8104	-3.4104	-3.0583	-3.1375	200.488	192.007	226.645	74.710	275.863	73.856	281.006	326.898	154.374	117.768	235.077	329.890	191.794	24.072	269.479	206.843	0.00031428	0.00046918	0.00013887	527.91	8.9908e-07	4.9375e-06	605.86	163.95	1.1434e-05	7.0029e-06	205.1	59.31	44.901	20.429	4.0776e-06	28.536	0.0037393	0.0067827	0.001909	507.54	6.4106e-05	7.6905e-05	579.57	158	6.4399e-05	7.7348e-05	200.26	58.215	44.62	20.242	6.789e-05	27.893	46.941	308.381	92.790	-14.191	11.197	82.025	-15.758	-9.568	128.853	87.360	-11.380	-7.629	-5.452	-1.333	176.213	-4.364	-8191	255	
5487.500	1	1	0	0	0.12248	0.13228	0.21654	0.11316	0.1665	0.17666	0.11635	0.2381	0.3465	0.23775	0.095346	0.16875	0.09933	0.30945	0.09952	0.10906	-2.9521	-2.6562	-2.9458	-3.1771	-2.9833	-3.3063	-3.1	-3.0812	-3.325	-2.8896	-3.1667	-3.3292	-2.7646	-3.2396	-2.9354	-3.0083	82.432	326.436	156.072	307.389	304.168	-24.887	92.658	317.764	5.749	176.559	-19.544	306.048	153.224	308.997	132.763	9.646	0.00031124	0.0003597	0.0001586	529.38	2.6329e-06	4.9504e-06	608.17	162.77	4.8173e-06	7.8006e-06	204.98	58.734	44.652	20.264	3.6159e-06	27.841	0.0037163	0.0067067	0.0018714	508.92	6.3564e-05	7.5385e-05	579.05	157.59	6.1374e-05	7.5602e-05	199.44	57.795	44.395	20.051	6.4934e-05	27.594	68.090	61.950	79.325	-14.146	88.115	308.962	-15.422	-9.471	150.808	156.973	-11.192	-7.791	-5.008	-1.206	120.588	-4.486	-8191	255	
5487.596	1	1	0	0	0.064928	0.24309	0.22666	0.046133	0.10429	0.27881	0.16471	0.017212	0.030777	0.19189	0.094193	0.082	0.10377	0.1261	0.22169	0.21617	-2.7271	-2.7604	-3.1625	-3.2896	-2.8292	-3.2771	-3.0375	-2.9813	-3.4854	-3.0125	-3.1604	-3.1333	-2.8646	-3.4	-2.9896	-2.9813	35.064	18.158	126.187	54.973	275.831	-12.891	201.775	152.381	195.144	308.883	266.116	27.250	36.400	113.192	129.720	246.530	0.00021373	0.00031735	0.00011092	520.57	3.475e-06	7.8149e-06	599.51	161.87	1.0965e-05	5.581e-06	203.34	58.317	44.835	20.355	6.8342e-06	28.052	0.0036395	0.0065094	0.0018161	504.08	6.2454e-05	7.2617e-05	574.85	156.76	6.1407e-05	7.4183e-05	198.57	57.599	44.348	20.073	6.664e-05	27.673	80.539	2.110	73.407	-14.199	10.480	120.739	-15.467	-9.651	186.229	146.165	-11.586	-7.791	-5.090	-1.076	73.915	-4.557	-8191	255	
5487.717	1	1	0	0	0.22396	0.12604	0.13945	0.20668	0.11921	0.15563	0.17758	0.22126	0.1537	0.090644	0.32513	0.11181	0.11121	0.1474	0.22212	0.044182	-2.7396	-3.0479	-3.1896	-3.3833	-2.9479	-3.2292	-3.2396	-2.8563	-3.3583	-2.8542	-3.1146	-3.2562	-2.9354	-3.1312	-2.9688	-2.9188	277.311	265.866	188.552	8.610	217.121	301.558	248.086	-10.653	224.473	268.062	224.528	-12.835	64.412	254.732	106.826	191.718	0.00019671	0.00032663	9.9811e-05	521.52	6.2761e-06	2.3738e-06	600.08	162.24	5.5876e-06	9.06e-06	205.05	59.087	44.689	20.284	2.3654e-06	28.473	0.0036426	0.0064799	0.0018349	503.54	6.3061e-05	7.3327e-05	575.04	156.58	6.0853e-05	7.3115e-05	198.93	57.912	44.417	20.083	6.6677e-05	27.849	45.561	88.700	63.838	-14.013	-0.296	247.445	-15.458	-9.029	118.680	83.336	-11.857	-7.111	-4.791	-1.062	288.529	-4.601	-8191	255	
5487.813	1	1	0	0	0.073534	0.34547	0.045515	0.099441	0.19625	0.090327	0.29863	0.20824	0.22323	0.20412	0.51141	0.099739	0.21401	0.20833	0.23511	0.12241	-2.8187	-3.0792	-3.0125	-3.175	-2.7667	-3.1146	-3.0083	-2.7938	-3.2479	-2.9667	-2.8792	-3.3104	-2.7479	-3.0646	-3.0583	-2.7083	313.330	196.256	-20.645	71.902	3.169	20.359	311.713	274.740	193.603	298.463	314.573	171.973	263.541	245.115	249.004	72.546	0.00038584	0.00051895	0.00012497	520.38	9.3478e-06	6.7694e-06	604.82	162.04	3.9376e-06	7.7662e-07	204.71	59.214	44.837	20.661	5.8897e-06	28.517	0.0036167	0.0065044	0.0018331	502.71	6.2923e-05	7.221e-05	576.59	156.63	6.0724e-05	7.2643e-05	199.6	58.213	44.472	20.275	6.5842e-05	28.151	14.575	117.633	23.373	-14.349	165.938	132.056	-15.161	-9.373	93.815	101.552	-11.550	-7.417	-5.039	-1.486	57.451	-4.492	-8191	255	
5487.909	1	1	0	0	0.076274	0.087402	0.12801	0.18286	0.047675	0.10497	0.14302	0.025488	0.11748	0.16185	0.3764	0.12259	0.17615	0.26516	0.30005	0.16969	-2.9292	-3.0146	-2.9417	-3.3167	-2.7917	-3.2583	-3.3479	-2.6188	-3.0312	-3.0583	-2.9875	-3.2042	-3.0021	-2.9396	-3.1542	-2.7875	327.484	300.237	50.254	-23.422	281.520	218.843	53.431	261.120	-2.128	149.245	250.882	270.785	95.052	219.005	228.145	190.768	0.00033304	6.2568e-05	7.7054e-05	525.66	3.2848e-06	2.6344e-06	605.58	162.94	5.5116e-06	8.1268e-06	204.12	59.304	44.573	20.458	8.8062e-06	28.715	0.0035184	0.0064435	0.0018344	504.45	6.0937e-05	7.205e-05	577.78	157.25	6.0128e-05	7.3886e-05	199.59	58.166	44.243	20.199	6.5527e-05	28.055	36.599	203.431	57.021	-14.124	98.626	23.165	-15.413	-9.316	270.224	127.574	-11.781	-7.758	-4.790	-1.218	141.651	-4.893	-8191	255	
5488.005	1	1	0	0	0.033	0.15036	0.27611	0.18325	0.053524	0.22805	0.25245	0.21478	0.15737	0.04913	0.062073	0.31806	0.16984	0.09805	0.14804	0.10516	-2.7208	-3.1437	-2.7396	-3.3312	-3.1396	-2.9125	-3.4292	-2.825	-3.1021	-3.2583	-2.775	-3.2396	-2.9229	-2.8917	-3.2771	-2.7938	211.188	234.135	170.003	331.116	-16.981	93.929	227.512	181.383	161.781	307.683	155.185	91.010	299.815	239.891	209.506	93.518	0.00035967	0.00042887	7.9604e-05	519.83	8.3177e-06	2.5034e-06	603.67	161.81	5.4527e-06	1.701e-06	204.41	59.115	44.425	20.36	7.3708e-06	28.289	0.0035273	0.0065587	0.0018433	501.87	6.0459e-05	7.3046e-05	576.42	157.07	5.9516e-05	7.2846e-05	199.52	58.07	44.394	20.154	6.4859e-05	27.95	51.727	42.451	89.586	-13.562	95.046	36.051	-15.686	-9.594	148.690	216.617	-11.383	-7.829	-5.357	-1.896	135.537	-4.912	-8191	255	
5488.124	1	1	0	0	0.15189	0.14473	0.27266	0.18239	0.22515	0.17203	0.079581	0.14523	0.16654	0.29958	0.14887	0.089485	0.18423	0.18849	0.05962	0.19374	-2.5292	-3.1542	-2.8	-3.35	-2.9354	-2.9313	-3.2313	-2.8792	-3.0292	-3.3229	-2.8396	-3.3292	-3.0292	-2.975	-3.2438	-2.9958	60.571	173.219	220.018	257.796	157.665	84.849	-4.194	24.702	-11.429	76.562	309.067	315.545	301.675	30.383	270.546	260.166	0.00032515	0.00074241	5.6706e-05	523.29	3.1409e-07	3.0453e-06	603.42	162.89	7.3173e-06	2.2134e-06	205.65	59.43	45.151	20.51	2.2455e-06	28.7	0.0034832	0.0065089	0.0017932	503.6	6.1541e-05	7.3384e-05	577.55	157.83	6.0128e-05	7.3861e-05	199.94	58.282	44.8	20.272	6.4478e-05	28.186	31.813	72.212	43.388	-14.444	321.119	128.229	-15.302	-9.619	136.780	189.056	-11.536	-7.555	-5.694	-1.488	61.817	-4.675	-8191	255	
5488.196	1	1	0	0	0.33964	0.06675	0.14849	0.27182	0.080979	0.2143	0.1048	0.036334	0.19163	0.064809	0.13921	0.072323	0.066741	0.21898	0.27034	0.21991	-2.4771	-3.2208	-2.7979	-3.1917	-3.0042	-3.0312	-3.1833	-2.9813	-3.0542	-3.4229	-2.8958	-3.2521	-3.1979	-2.8646	-3.3146	-3.0792	244.882	50.387	276.239	277.556	91.798	149.855	26.553	-23.800	195.753	264.322	122.900	235.925	105.298	83.785	271.182	211.717	0.00027223	0.00041666	0.00015625	525.94	2.7342e-06	4.5695e-06	606.94	163.67	5.7139e-06	4.7652e-06	206.72	59.946	45.224	20.732	4.2533e-06	28.944	0.0036238	0.0064139	0.0018315	505.29	6.1173e-05	7.4245e-05	580.87	157.92	5.9959e-05	7.4701e-05	201.8	58.672	44.943	20.464	6.4914e-05	28.318	25.280	25.581	19.225	-14.123	31.708	78.973	-15.526	-9.354	146.190	116.358	-11.330	-7.752	-5.277	-1.395	-10.163	-4.346	-8191	255	
5488.292	1	1	0	0	0.2038	0.12674	0.099841	0.13376	0.28225	0.12286	0.30883	0.25155	0.15834	0.27778	0.27506	0.29774	0.17088	0.071278	0.070038	0.15532	-2.3333	-3.3167	-2.8271	-3.0771	-3.0542	-2.9313	-3.2458	-2.9667	-2.9	-3.2333	-2.7917	-3.15	-3.2396	-2.7229	-3.1854	-2.9917	110.032	92.142	120.623	240.988	197.005	-2.360	259.534	203.925	23.542	174.443	-11.084	224.424	93.560	138.133	315.633	301.280	0.00050393	0.00029189	0.00023814	526.64	4.7482e-06	1.0951e-05	605.5	163.56	4.8184e-06	4.6822e-06	206.85	59.73	44.999	20.648	4.4903e-06	28.585	0.0035507	0.0065332	0.0018176	508.68	6.2024e-05	7.5154e-05	579.34	158.5	6.093e-05	7.4558e-05	200.94	58.382	44.821	20.355	6.5018e-05	28.092	11.152	122.596	36.031	-13.976	152.733	81.728	-15.784	-9.528	101.849	134.566	-11.721	-7.613	-5.611	-1.483	117.072	-4.248	-8191	255	
5488.388	1	1	0	0	0.11361	0.25784	0.09608	0.31823	0.14107	0.12094	0.22113	0.16555	0.30359	0.22483	0.14033	0.18777	0.24375	0.045901	0.10619	0.10541	-2.3354	-3.1375	-2.7729	-3.2729	-3.1458	-2.7875	-3.1979	-3.0687	-2.8625	-3.2438	-3.0062	-3.05	-3.1979	-2.9	-3.1146	-3.2458	256.838	331.126	158.596	-24.677	232.370	-11.178	293.179	-21.886	263.860	323.383	123.196	177.986	305.114	125.873	260.696	152.428	0.00031231	0.00046471	7.3535e-05	523.07	7.5117e-06	1.1347e-06	605.56	164.04	2.5429e-06	3.7319e-06	205.52	59.11	45.262	20.705	8.3693e-07	28.559	0.0036079	0.0066415	0.0018432	506.94	6.2156e-05	7.4275e-05	580.3	158.33	6.2035e-05	7.4883e-05	200.24	58.256	44.771	20.31	6.5469e-05	28.14	-1.607	82.556	238.846	-14.257	133.837	282.674	-15.251	-9.412	306.414	125.061	-11.133	-7.848	-5.192	-1.454	122.165	-4.567	-8191	255	
5488.484	1	1	0	0	0.12644	0.13906	0.08094	0.31928	0.21149	0.10885	0.093328	0.064629	0.065778	0.17548	0.22623	0.20266	0.026935	0.3382	0.092316	0.31318	-2.5542	-3.2458	-2.9708	-2.975	-3.2542	-3.0187	-3.0812	-3.1229	-2.8792	-3.2792	-3.0542	-3.0646	-3.3896	-2.85	-3.0917	-3.0438	313.328	115.279	156.158	217.410	201.314	266.122	276.300	325.440	214.321	29.923	308.916	251.050	-21.459	298.473	307.149	226.420	0.00039008	0.0003352	0.0002736	523.12	1.0147e-05	5.2389e-06	603.74	164.11	9.7136e-06	1.9467e-06	204.69	59.338	45.308	20.556	7.4615e-06	28.475	0.0037247	0.0065996	0.0018675	507.27	6.4194e-05	7.5123e-05	580.45	158.5	6.1049e-05	7.5167e-05	200.68	58.344	44.913	20.252	6.579e-05	28.088	51.318	317.329	88.687	-14.063	132.924	76.573	-15.233	-9.417	52.146	178.107	-11.546	-7.599	-5.123	-1.400	166.524	-4.540	-8191	255	
5488.605	1	1	0	0	0.13866	0.16927	0.16825	0.064834	0.090561	0.14058	0.092736	0.012292	0.19716	0.023317	0.15278	0.19598	0.12325	0.13585	0.13612	0.12479	-2.2938	-3.3646	-3.0062	-2.8875	-3.3125	-2.9646	-3.1521	-3.0687	-2.7729	-3.1583	-3.0875	-2.8875	-3.4792	-2.8917	-3.1958	-3.3042	-25.387	247.942	76.284	-0.708	165.987	41.461	75.332	223.960	56.189	52.980	-15.776	260.858	80.374	201.696	118.108	244.111	0.00037925	0.00036529	3.4426e-05	522.67	1.0609e-06	5.879e-06	609.25	162.73	8.5537e-06	3.299e-06	207.32	59.843	45.065	20.661	1.9022e-06	28.828	0.0036353	0.0065404	0.0018747	507.74	6.3193e-05	7.3244e-05	581.48	158.49	6.2191e-05	7.2769e-05	202.32	58.85	44.925	20.465	6.5887e-05	28.372	66.729	176.170	20.142	-14.019	272.705	114.099	-15.423	-9.265	20.825	266.709	-11.587	-7.694	-5.142	-1.509	197.853	-4.593	-8191	255	
5488.701	1	1	0	0	0.16222	0.080911	0.07898	0.21645	0.23954	0.18351	0.17517	0.17487	0.058469	0.19899	0.08159	0.016453	0.087188	0.32555	0.12115	0.12176	-2.2313	-3.1917	-3.1854	-2.7833	-3.3083	-2.9833	-3.1771	-3.4083	-2.8792	-3.3521	-3.1042	-2.8729	-3.5604	-3.0438	-3.0292	-3.25	120.701	213.721	168.456	175.984	316.349	301.856	182.890	264.931	11.448	87.903	233.009	27.543	223.173	-23.265	159.680	-27.424	0.00032677	0.00013911	6.2741e-05	530.15	5.3659e-06	4.9902e-06	606.96	164.06	4.4947e-06	7.5257e-06	206.55	59.925	45.115	20.655	8.6828e-06	28.688	0.0036649	0.0064894	0.0018914	509.77	6.2175e-05	7.4519e-05	581.57	159	6.2073e-05	7.3967e-05	201.8	58.654	44.816	20.393	6.5621e-05	28.121	58.044	105.082	254.247	-13.891	77.441	143.847	-15.348	-9.493	274.620	183.156	-11.877	-7.359	-5.220	-1.280	130.753	-4.152	-8191	255	
5488.797	1	1	0	0	0.1376	0.081889	0.14127	0.18365	0.26838	0.131	0.27903	0.16215	0.13115	0.1659	0.051278	0.16974	0.24912	0.19089	0.20367	0.1136	-2.5438	-3.0604	-3.1437	-2.8208	-3.0938	-2.8958	-2.9333	-3.2896	-3.0104	-3.2417	-3.2375	-2.8042	-3.3688	-3.0042	-3.0792	-3.3396	25.418	278.817	87.420	267.376	243.426	245.596	236.732	290.668	259.416	261.165	120.112	253.831	314.069	273.500	84.279	203.496	0.00033543	0.00068331	7.2052e-05	526.88	3.679e-06	1.8073e-06	609.19	163.06	8.1062e-06	3.9393e-06	207.47	60.087	45.023	20.704	6.1476e-06	28.839	0.0035427	0.0065017	0.0018513	507.68	6.1447e-05	7.4584e-05	580.68	157.96	6.0953e-05	7.3818e-05	200.73	58.491	44.659	20.327	6.6189e-05	28.148	9.490	118.341	73.533	-14.278	210.994	236.493	-15.333	-8.930	133.032	76.789	-11.205	-7.550	-5.077	-1.383	154.884	-4.606	-8191	255	
5488.893	1	1	0	0	0.16918	0.14336	0.17512	0.060153	0.12321	0.089015	0.17626	0.24286	0.15288	0.13403	0.054962	0.086202	0.06994	0.1853	0.25402	0.34862	-2.3917	-3.1125	-3.0062	-2.8229	-3.1917	-3.2479	-3.0708	-3.3333	-2.8292	-3.1896	-3.1521	-2.8646	-3.1417	-3.2146	-2.9833	-3.3542	296.712	112.978	166.577	327.979	184.970	172.557	314.086	-26.921	11.502	62.184	298.936	55.052	4.625	313.726	64.463	287.342	0.0004195	0.00051972	0.00021154	523.18	1.6618e-06	1.9704e-06	609.17	164	8.4467e-06	4.2649e-06	208.4	59.885	45.026	20.724	5.8628e-06	28.946	0.0035927	0.0065902	0.0018847	505.13	6.0674e-05	7.4172e-05	579.6	157.92	5.9944e-05	7.4715e-05	201.57	58.728	44.783	20.477	6.5925e-05	28.413	61.065	118.060	24.719	-14.321	128.006	-19.341	-15.283	-9.177	152.654	246.454	-11.792	-7.712	-5.107	-1.679	63.532	-4.735	-8191	255	
5488.990	1	1	0	0	0.042152	0.16655	0.1609	0.18746	0.21007	0.18235	0.11199	0.33198	0.17901	0.02548	0.20979	0.11584	0.24384	0.28873	0.012509	0.28926	-2.525	-2.9729	-3.2167	-2.8146	-3.2625	-3.1479	-3	-3.3479	-2.9333	-3.0187	-3.2979	-2.7375	-3.1562	-3.1542	-2.7417	-3.2625	144.349	-10.842	196.970	23.673	123.116	159.627	193.452	-14.237	38.675	76.787	-10.909	236.163	263.415	273.431	12.623	109.772	0.00026881	0.00030037	6.2432e-05	526.86	1.0673e-05	6.2847e-06	610.63	164.09	1.2367e-06	4.3688e-06	208.15	60.557	45.633	21.059	2.9774e-06	29.128	0.0035817	0.0064829	0.0018596	506.26	6.0816e-05	7.5102e-05	583.94	158.74	6.0611e-05	7.4782e-05	202.28	59.194	45.159	20.676	6.621e-05	28.64	68.223	120.775	18.477	-13.869	138.619	142.474	-15.269	-9.048	63.904	91.141	-11.363	-8.049	-5.021	-1.522	58.014	-4.211	-8191	255	
5489.086	1	1	0	0	0.085427	0.30336	0.087378	0.2011	0.18747	0.21709	0.091648	0.13926	0.16283	0.17717	0.23825	0.13044	0.1801	0.21583	0.29201	0.18976	-2.5438	-2.9	-3.3042	-2.85	-3.1396	-3.1875	-2.825	-3.0917	-3.0146	-2.7583	-3.3792	-2.8083	-3.1729	-3.0187	-2.8125	-3.2812	182.412	96.298	303.641	68.209	165.172	145.458	221.059	177.679	-13.257	232.001	285.253	43.492	318.823	269.785	146.617	-21.055	0.00050313	0.00038419	4.5049e-05	529.1	2.701e-06	2.4829e-06	609.13	163.63	8.2538e-06	5.3e-06	207.7	60.453	45.48	20.775	8.1698e-06	28.776	0.0035805	0.0065174	0.0018299	507.8	6.1159e-05	7.3852e-05	583.26	158.42	5.9679e-05	7.3068e-05	201.48	59.109	45.018	20.525	6.346e-05	28.361	39.359	141.763	37.377	-14.168	179.782	51.941	-15.486	-9.376	93.600	97.741	-11.729	-7.261	-5.683	-1.394	126.928	-4.515	-8191	255	
5489.205	1	1	0	0	0.34774	0.11393	0.13251	0.20876	0.32913	0.18205	0.049402	0.16953	0.1975	0.19373	0.11579	0.12325	0.035647	0.076385	0.20732	0.18509	-2.6333	-2.7833	-3.2979	-2.9479	-2.9979	-3.2521	-2.7896	-3.2979	-3.0687	-2.8125	-3.3479	-3.0333	-3.0417	-3.0438	-2.9604	-3.1875	113.201	31.423	65.499	204.122	301.777	-26.906	305.429	264.434	55.934	328.097	142.949	257.127	-15.685	52.649	28.732	156.717	0.00034108	0.00019126	0.0001634	520.76	9.9944e-06	2.3174e-06	606.29	163.2	6.9957e-06	2.3727e-06	205.68	60.463	45.479	20.899	1.7051e-06	29.011	0.0034976	0.0062643	0.0017549	504.09	5.8978e-05	7.1866e-05	578.87	157.78	5.8204e-05	7.0708e-05	200.38	59.035	44.998	20.536	6.2526e-05	28.492	48.383	6.721	104.645	-14.026	180.162	161.564	-15.280	-8.940	-20.291	91.420	-11.213	-7.610	-5.303	-1.696	66.082	-4.359	-8191	255	
5489.301	1	1	0	0	0.19411	0.12954	0.097088	0.26314	0.071847	0.24168	0.12249	0.16179	0.098975	0.099197	0.29417	0.058238	0.077342	0.068417	0.050322	0.20653	-2.6792	-2.7958	-3.125	-2.9396	-3.0271	-3.1917	-2.9313	-3.2854	-3.1625	-2.925	-3.2417	-3.1188	-2.8396	-3.1458	-2.8229	-3.2125	100.888	186.842	40.553	286.594	33.627	53.420	235.930	160.472	245.660	264.870	11.442	-12.828	119.487	174.325	291.362	99.879	0.00040629	0.00042644	8.4152e-05	521.37	4.1513e-06	3.4568e-06	608.72	163.39	6.1573e-06	3.1628e-06	208.33	60.607	45.478	20.882	6.7912e-06	29.266	0.0034899	0.0062949	0.0017831	505.56	6.0086e-05	7.0793e-05	582.53	158.47	6.0649e-05	7.2549e-05	202.23	59.147	45.038	20.603	6.4237e-05	28.665	45.034	18.759	296.102	-14.205	91.746	79.838	-15.477	-9.035	43.370	66.205	-11.306	-7.237	-5.425	-1.330	149.354	-4.545	-8191	255	
5489.397	1	1	0	0	0.27718	0.14644	0.28299	0.23889	0.20126	0.2664	0.27926	0.14208	0.14138	0.31255	0.1485	0.066997	0.20578	0.16449	0.16035	0.091412	-2.5187	-2.775	-3.0875	-2.8125	-2.9979	-3.2646	-3.0771	-3.1479	-3.15	-2.6479	-3.1854	-3.125	-2.7646	-3.2438	-2.8167	-3.0375	-26.577	-11.322	107.157	267.357	290.999	149.731	222.087	193.622	193.565	132.561	147.826	-18.783	320.955	-14.404	143.427	262.870	0.00041287	0.00027776	6.8769e-05	525.93	1.035e-05	3.9619e-06	613.15	163.8	3.8052e-06	2.4973e-06	209.21	60.921	45.774	21.067	1.0657e-05	29.421	0.0035477	0.0064059	0.0017943	507.87	6.0765e-05	7.2404e-05	583.67	158.99	5.9961e-05	7.2557e-05	203.26	59.6	45.286	20.746	6.5101e-05	28.93	56.742	223.051	211.925	-14.169	61.399	163.135	-15.610	-9.220	279.205	204.522	-11.407	-7.604	-5.501	-1.381	54.575	-4.778	-8191	255	
5489.493	1	1	0	0	0.28025	0.16359	0.062588	0.11318	0.15385	0.25062	0.12421	0.066514	0.24606	0.12167	0.29947	0.10513	0.12668	0.17104	0.1116	0.18828	-2.8146	-2.7458	-3.2083	-3.1854	-2.7396	-3.3229	-2.9771	-2.9479	-3.2438	-2.9208	-3.075	-2.9938	-2.9042	-3.4229	-2.9958	-2.9896	164.588	54.791	14.239	47.359	221.439	305.445	143.160	145.562	190.234	135.567	-5.820	173.184	211.553	168.347	-17.861	220.396	0.00028915	0.00025202	0.0001216	527.92	5.2292e-06	1.4237e-06	614.82	164.99	1.519e-05	2.4133e-06	209.35	60.752	45.805	21.02	9.4576e-06	29.145	0.0035172	0.0064161	0.0017945	509.04	6.1543e-05	7.1528e-05	586.44	159.53	6.0074e-05	7.1383e-05	202.93	59.484	45.243	20.699	6.3295e-05	28.615	38.705	263.914	86.917	-14.121	207.567	37.604	-15.463	-9.376	80.158	136.897	-11.303	-7.399	-4.927	-1.598	234.701	-4.703	-8191	255	
5489.589	1	1	0	0	0.093899	0.24546	0.0426	0.07015	0.36825	0.097329	0.19449	0.15648	0.1117	0.10435	0.20492	0.051659	0.046082	0.14547	0.16287	0.067239	-2.8438	-2.7792	-3.0521	-3.3021	-2.6937	-3.2792	-3.1542	-2.8354	-3.1083	-2.9813	-2.9583	-3.1021	-2.6813	-3.1813	-3.1104	-3.0542	172.759	138.442	318.900	257.833	230.702	286.493	247.679	65.672	186.168	265.287	7.976	290.594	177.182	324.012	-17.742	294.874	0.00042936	0.00048889	0.00017563	528.48	3.9183e-06	2.6764e-06	610.21	164.34	8.5716e-06	3.3358e-06	206.7	59.964	45.512	20.995	1.355e-05	29.246	0.0034999	0.0063819	0.0017936	508.62	6.1002e-05	7.1081e-05	583.14	158.91	5.9825e-05	7.2709e-05	201.86	59.071	45.17	20.617	6.506e-05	28.584	53.507	85.768	129.843	-14.567	132.765	241.929	-15.661	-9.173	196.976	73.316	-11.453	-7.793	-5.427	-1.614	185.428	-4.683	-8191	255	
5489.685	1	1	0	0	0.10413	0.11595	0.044895	0.27853	0.28613	0.076519	0.12729	0.076444	0.036082	0.11876	0.2518	0.046638	0.076111	0.057604	0.086815	0.16152	-2.8438	-2.8771	-2.9813	-3.2125	-2.6958	-3.2729	-3.0958	-2.8292	-3.325	-2.9833	-2.9271	-3.1521	-2.7083	-3.0292	-2.9896	-2.8229	-11.321	198.634	113.823	279.503	185.615	321.865	-23.766	163.388	171.262	319.731	246.062	116.534	33.774	29.379	68.761	285.842	0.00043585	0.00036044	5.8953e-05	528.99	5.0841e-06	2.5379e-06	611.42	164.69	5.8146e-06	4.4742e-06	208.1	60.714	45.607	20.958	8.9916e-06	29.041	0.0035915	0.0063371	0.0018528	509.07	6.105e-05	7.2903e-05	584.2	159.71	5.9989e-05	7.3672e-05	202.69	59.595	45.35	20.679	6.5915e-05	28.698	54.599	91.872	59.084	-14.012	65.293	173.927	-15.344	-9.151	97.184	-12.608	-11.447	-7.922	-5.238	-1.743	125.801	-4.787	-8191	255	
5489.806	1	1	0	0	0.20314	0.18037	0.10654	0.13634	0.11914	0.075081	0.14458	0.12436	0.28192	0.14504	0.14092	0.22881	0.016784	0.056627	0.20685	0.21389	-2.825	-2.7625	-2.9708	-3.3792	-3.0125	-3.2979	-3.1979	-2.8708	-3.4042	-3.0792	-2.9813	-3.2771	-2.8896	-2.9562	-3.3583	-2.7375	5.721	34.709	16.908	326.590	113.568	-15.379	321.181	84.091	277.713	247.943	234.509	211.217	286.626	261.773	16.346	66.326	0.00027206	0.00086323	3.6892e-05	530.71	4.054e-06	5.2302e-06	616.82	164.48	4.1243e-06	1.3066e-06	209.71	61.254	45.634	21.248	1.0612e-05	29.555	0.0035659	0.0064676	0.0018376	510.55	6.1498e-05	7.4402e-05	587.19	159.57	6.1056e-05	7.4071e-05	204.73	60.094	45.534	20.869	6.6517e-05	29.07	63.655	110.706	210.322	-14.099	103.951	85.463	-15.468	-9.051	92.143	7.324	-11.574	-7.586	-5.518	-1.015	106.995	-4.351	-8191	255	
5489.902	1	1	0	0	0.13675	0.077515	0.19272	0.28401	0.18255	0.11243	0.058564	0.1847	0.10392	0.26719	0.29528	0.37189	0.080081	0.12207	0.13253	0.14363	-2.95	-3.0438	-2.6479	-3.325	-2.8583	-2.9875	-3.25	-2.9479	-3.25	-3.1354	-2.9729	-3.2729	-2.8458	-3.0187	-3.1562	-2.9875	294.168	300.297	34.491	5.786	266.262	250.192	205.833	284.728	50.097	12.497	6.096	304.282	265.028	225.346	41.813	27.350	0.00033052	0.00031599	0.00010169	536.02	2.6676e-06	3.2274e-06	618.83	165.85	9.8821e-06	2.2471e-06	209.8	61.519	45.661	20.956	3.4251e-06	29.213	0.0036407	0.0065679	0.0018843	512.99	6.2558e-05	7.3658e-05	589.86	160.52	6.1376e-05	7.6367e-05	203.5	59.956	45.311	20.73	6.6441e-05	28.635	27.008	63.572	74.992	-13.923	95.457	103.880	-15.426	-9.035	137.651	213.715	-11.450	-7.485	-5.610	-1.133	198.342	-4.429	-8191	255	
5489.997	1	1	0	0	0.15165	0.14729	0.090797	0.23082	0.13792	0.097378	0.051762	0.063001	0.061035	0.31988	0.073228	0.12842	0.060111	0.13912	0.22874	0.077258	-2.775	-2.9583	-2.7375	-3.3312	-3.0333	-2.9458	-3.3438	-2.8354	-3.2854	-3.2396	-3.0167	-3.2917	-3.0146	-3.0458	-3.3333	-2.9292	55.762	18.001	-19.556	297.032	90.292	32.290	289.911	206.138	112.540	189.334	314.661	113.381	310.292	111.050	169.673	246.327	0.00028291	0.00034923	0.0001355	530.53	1.8162e-06	5.4724e-06	609.78	164.54	7.3427e-06	4.6888e-06	209.02	60.753	45.502	20.851	5.9405e-06	29.193	0.0035663	0.0065725	0.0018506	510.13	6.1712e-05	7.4413e-05	584.59	159.19	6.0137e-05	7.479e-05	203.09	59.349	45.2	20.619	6.5413e-05	28.65	40.866	7.475	65.769	-14.162	242.410	168.113	-15.381	-9.149	107.982	52.292	-11.689	-7.193	-5.851	-1.344	219.830	-4.630	-8191	255	
5490.070	1	1	0	0	0.29395	0.088463	0.14124	0.22169	0.16121	0.22284	0.1495	0.19253	0.19951	0.103	0.35324	0.16873	0.15984	0.26269	0.15553	0.12166	-2.775	-3.2542	-2.7438	-3.2521	-3.0187	-2.8771	-3.4188	-2.8729	-3.0125	-3.1729	-2.7167	-3.2625	-3.0354	-2.9729	-3.3042	-2.9167	169.130	114.890	218.018	190.543	204.189	184.554	251.275	187.274	-26.789	87.656	282.104	309.181	314.416	331.028	179.010	327.743	0.0002334	0.00020017	1.4386e-05	525.8	1.7946e-06	5.0616e-06	608.71	163.59	6.8444e-06	3.7937e-06	208.87	60.76	45.562	21.03	6.3275e-06	29.536	0.0035787	0.0065488	0.0018779	507.1	6.1228e-05	7.3494e-05	582.84	158.94	6.029e-05	7.3134e-05	203.08	59.53	45.31	20.788	6.3553e-05	28.843	40.514	114.458	17.867	-14.076	36.044	17.918	-15.381	-9.011	36.787	104.888	-11.366	-7.744	-5.209	-1.324	149.661	-4.875	-8191	255	
5490.191	1	1	0	0	0.20871	0.10429	0.11268	0.087377	0.051236	0.19017	0.30605	0.22525	0.26135	0.18534	0.20085	0.14637	0.055119	0.051159	0.14244	0.20117	-2.5792	-3.1583	-2.8063	-3.1604	-3.1292	-2.9583	-3.3063	-2.9708	-3.1958	-3.2458	-2.8833	-3.2458	-3.05	-2.8958	-3.3542	-2.9	293.390	158.758	171.745	16.430	149.079	46.792	-11.432	291.404	320.582	261.928	157.763	303.909	264.651	256.829	271.831	42.400	0.0004298	0.00061855	1.5079e-05	529.64	4.921e-06	4.8643e-06	613.1	163.13	9.3822e-06	6.3281e-06	208.54	61.687	45.858	21.146	6.1629e-06	29.636	0.0035307	0.0065502	0.0017557	506.95	6.1406e-05	7.354e-05	585.7	158.95	5.9142e-05	7.35e-05	203.77	60.067	45.448	20.907	6.2868e-05	29.116	58.831	213.703	89.539	-14.424	243.965	156.260	-15.461	-9.062	197.811	77.489	-11.535	-7.857	-4.849	-0.867	151.547	-4.534	-8191	255	
5490.285	1	1	0	0	0.1097	0.14251	0.086052	0.10013	0.075135	0.18451	0.040912	0.17337	0.16771	0.12191	0.40177	0.25843	0.17418	0.07197	0.17193	0.24771	-2.7667	-3.1688	-2.8354	-3.0083	-3.1688	-2.8646	-3.3271	-3.1	-2.9313	-3.2667	-2.9021	-3.0062	-3.2104	-2.7271	-3.2521	-3.1146	32.374	67.530	319.866	256.888	34.621	103.244	262.385	298.834	285.503	70.530	227.056	291.167	27.785	244.182	180.170	171.877	0.00036788	0.00025476	0.00015745	530.06	1.0282e-05	3.2273e-06	613.55	164.59	4.8715e-06	3.052e-06	209.9	60.805	46.233	21.171	8.869e-06	29.554	0.0035678	0.0064167	0.001791	508.4	6.0143e-05	7.1382e-05	584.84	159.01	5.918e-05	7.1246e-05	204.18	59.772	45.521	20.882	6.2484e-05	29.027	57.021	254.854	34.900	-14.035	141.287	56.478	-15.555	-9.175	58.069	204.559	-11.357	-7.548	-5.376	-1.282	178.557	-4.582	-8191	255	
5490.381	1	1	0	0	0.20618	0.051799	0.21587	0.15199	0.22763	0.20427	0.10445	0.22836	0.21826	0.088941	0.18178	0.26201	0.1876	0.2306	0.15477	0.2482	-2.5042	-3.1958	-2.9333	-2.9917	-3.1583	-2.7333	-3.3146	-2.8521	-3.0542	-3.4521	-3.1208	-3.1771	-3.1854	-2.7875	-3.3104	-3.0792	304.404	194.096	284.206	141.543	44.718	295.276	300.675	40.560	-25.497	289.708	4.445	290.270	210.248	5.676	53.988	241.095	0.00034648	0.00025891	8.8239e-05	521.37	1.2471e-06	8.7725e-06	608.3	163.84	1.259e-05	4.486e-06	209.32	61.049	45.861	21.177	6.9181e-07	29.458	0.0034585	0.0062818	0.0017591	504.1	5.8607e-05	6.9415e-05	580.76	158.58	5.7946e-05	6.9809e-05	203.41	59.693	45.483	20.861	6.1911e-05	28.963	45.062	262.895	283.273	-14.161	80.030	-10.244	-15.199	-9.276	92.140	145.411	-11.415	-7.450	-5.009	-1.660	219.991	-4.836	-8191	255	
5490.477	1	1	0	0	0.074756	0.13257	0.19614	0.069834	0.16428	0.11181	0.070615	0.078112	0.15464	0.093919	0.20267	0.24691	0.20608	0.19772	0.10169	0.13133	-2.5812	-3.2875	-2.9396	-3.1833	-3.3542	-3.1333	-3.2687	-3.3063	-2.7396	-3.3229	-2.9604	-2.9375	-3.2146	-2.8771	-3.0792	-3.0896	170.159	15.221	242.056	61.573	57.851	264.683	297.972	172.884	214.248	192.846	109.084	266.832	57.302	-10.730	209.158	242.722	0.00049061	0.00021293	9.3463e-05	523.87	9.4994e-06	6.4977e-06	608	164.24	5.2672e-06	6.0518e-06	210.08	61.709	46.013	21.372	4.177e-06	29.714	0.0034775	0.0062923	0.0017637	505.59	5.934e-05	7.0921e-05	584.3	158.79	5.8196e-05	6.9828e-05	203.8	60.308	45.497	20.911	6.2404e-05	29.207	48.719	103.831	323.215	-14.234	178.273	246.870	-15.280	-9.047	162.353	146.961	-12.068	-7.864	-5.226	-1.225	162.167	-4.635	-8191	255	
5490.598	1	1	0	0	0.1881	0.1491	0.17551	0.33742	0.19462	0.21265	0.21434	0.068574	0.15	0.19788	0.12129	0.022575	0.10661	0.17295	0.063751	0.21696	-2.4458	-3.2375	-3.0271	-3.1833	-3.1583	-2.7896	-3.2917	-2.8792	-2.7896	-3.3438	-2.9875	-3.0083	-3.3875	-3.0458	-3.0917	-3.3729	-20.638	14.141	219.767	5.998	329.136	251.776	250.859	279.821	60.830	27.615	32.372	-3.541	217.513	315.680	284.354	262.353	0.00016747	0.00034194	0.00014727	525.53	7.2836e-06	8.1462e-06	612.4	163.68	7.5366e-06	2.4031e-06	209.83	61.518	46.476	21.5	7.3861e-06	30.064	0.0035059	0.0062496	0.0017926	506.9	6.0997e-05	7.1387e-05	586.45	159.27	5.8868e-05	7.0871e-05	204.94	60.35	45.627	21.008	6.3562e-05	29.384	26.705	15.626	10.608	-14.287	107.294	102.545	-15.507	-9.018	117.899	195.704	-11.589	-7.615	-5.300	-1.240	71.702	-4.480	-8191	255	
5490.670	1	1	0	0	0.088381	0.25882	0.040647	0.14865	0.20724	0.23424	0.16656	0.11783	0.19247	0.29317	0.27581	0.10777	0.1967	0.17306	0.24599	0.31919	-2.3958	-3.1937	-3.0917	-2.8375	-3.2062	-2.8688	-3.2188	-3.2625	-2.8937	-3.2542	-3.0979	-3.025	-3.2938	-2.9083	-2.875	-3.2146	106.753	37.960	142.545	314.336	128.235	246.958	233.512	272.090	320.309	241.417	29.559	287.658	215.773	15.909	277.754	198.191	0.00040329	0.00030175	0.00023487	529.01	6.8103e-06	6.2911e-06	617.24	165.65	2.0562e-06	1.4999e-06	211.94	61.493	46.164	21.26	5.6504e-06	29.684	0.0034803	0.0062436	0.0017943	507.13	5.981e-05	7.1939e-05	587.74	159.91	5.8782e-05	7.1566e-05	204.57	60.285	45.48	20.866	6.3538e-05	29.006	49.490	50.820	68.200	-13.741	156.468	136.027	-15.452	-9.293	31.747	149.956	-11.356	-7.787	-5.439	-1.236	163.844	-4.532	-8191	255	
5490.766	1	1	0	0	0.18077	0.16225	0.053614	0.22575	0.047164	0.17732	0.32736	0.050965	0.16653	0.051267	0.064666	0.13479	0.11206	0.0709	0.13096	0.20289	-2.4	-3.1271	-3.1271	-2.8646	-3.2729	-2.9021	-2.9479	-3.1354	-2.8833	-3.1562	-3.3021	-2.7625	-3.3229	-3.0417	-2.9917	-3.3667	151.046	59.422	101.758	157.977	148.264	40.220	270.893	78.115	172.089	194.305	17.089	241.446	278.746	280.197	180.835	278.191	0.00016228	0.00038782	0.00028942	527.79	5.25e-06	4.7632e-06	612.32	165.22	1.1648e-06	5.7995e-06	208.93	61.224	45.547	21.149	2.7996e-06	29.44	0.0034553	0.0063127	0.0018301	506.36	5.9689e-05	7.1621e-05	583.65	159.03	5.9703e-05	7.2937e-05	202.97	59.942	45.25	20.809	6.2999e-05	28.944	72.618	34.559	40.113	-13.872	118.119	104.806	-15.257	-9.266	127.993	309.283	-11.749	-7.223	-5.045	-1.111	217.156	-4.519	-8191	255	
5490.886	1	1	0	0	0.072981	0.2721	0.15225	0.10363	0.21053	0.21934	0.12122	0.20882	0.21888	0.24656	0.20918	0.11984	0.2057	0.24372	0.124	0.2813	-2.5187	-3.0583	-3.0771	-2.8833	-3.2833	-3.1312	-3.025	-3.2333	-3.0208	-3.0479	-3.2313	-2.9062	-3.2479	-3.0708	-2.9562	-3.3542	294.199	175.850	195.409	255.208	232.864	214.359	31.798	297.447	74.713	319.312	-11.143	193.411	323.529	251.006	2.655	328.450	0.00043261	0.00032299	0.00010646	526.04	8.6764e-06	9.9498e-06	614.64	164.62	6.2066e-06	6.3699e-06	212.16	61.67	46.171	21.127	7.6392e-06	29.615	0.0035286	0.0063014	0.0018225	507.15	6.0499e-05	7.2228e-05	584.78	159.58	5.9873e-05	7.2249e-05	204.55	60.367	45.53	20.851	6.3709e-05	29.049	29.194	48.192	224.348	-14.088	97.314	84.765	-15.316	-9.095	119.756	5.674	-11.498	-7.225	-5.051	-1.311	117.939	-4.464	-8191	255	
5490.983	1	1	0	0	0.18257	0.1875	0.28231	0.30879	0.19981	0.18468	0.11516	0.17262	0.024633	0.18692	0.24719	0.21072	0.24627	0.11986	0.085319	0.098376	-2.3563	-3.0521	-3.0833	-2.9333	-3.1125	-3.1604	-2.7125	-3.1625	-2.9625	-2.9833	-3.1771	-2.9521	-3.1437	-3.1479	-2.8125	-3.4979	185.323	110.430	72.770	57.318	-21.159	215.617	294.124	221.978	66.308	320.941	255.828	305.149	28.971	-5.971	149.775	182.097	0.00028087	0.00040178	0.00010535	529.63	1.3076e-05	5.172e-06	615.04	164.74	1.2822e-06	5.7692e-06	210.23	61.866	46.312	21.233	5.6827e-06	29.944	0.0034909	0.0064578	0.0018357	508.37	6.0815e-05	7.3113e-05	587.49	159.31	5.9278e-05	7.2217e-05	204.93	60.44	45.645	20.988	6.3139e-05	29.289	28.357	155.298	253.042	-13.606	108.315	131.716	-15.092	-9.117	218.550	148.921	-11.625	-7.366	-5.244	-1.326	217.881	-4.581	-8191	255	
5491.077	1	1	0	0	0.078513	0.19733	0.14423	0.29135	0.1997	0.027843	0.064485	0.15701	0.16389	0.063143	0.22357	0.069303	0.043279	0.024868	0.14889	0.10256	-2.4062	-2.8542	-3.1771	-2.7167	-3.0625	-3.3083	-2.8042	-3.2896	-2.8583	-2.9083	-3.4604	-2.7562	-3.1083	-3.2333	-2.6854	-3.1188	33.370	255.520	181.735	299.675	77.019	250.177	115.207	218.480	281.103	264.361	222.223	6.873	305.947	80.344	199.696	283.481	0.00025757	0.00039524	0.00022467	526.43	9.8946e-06	1.0749e-06	615.45	166.67	4.6987e-06	4.437e-06	209.92	61.412	46.368	21.431	3.1357e-06	30.062	0.0035548	0.0064013	0.0017967	508.21	6.0515e-05	7.2986e-05	588.13	159.91	5.9723e-05	7.3767e-05	204.58	60.389	45.479	20.934	6.4427e-05	29.216	43.949	31.333	62.886	-13.824	116.911	176.557	-15.263	-9.259	19.117	182.267	-11.422	-7.260	-5.001	-1.530	79.524	-4.678	-8191	255	
5491.198	1	1	0	0	0.21517	0.0049242	0.074052	0.22708	0.26535	0.22952	0.13508	0.21159	0.17425	0.072601	0.11701	0.24176	0.13986	0.03446	0.25411	0.12041	-2.5042	-2.8688	-3.1229	-2.8187	-3.0938	-3.2083	-2.8542	-3.0958	-3.1958	-2.9625	-3.275	-2.9333	-3.0104	-3.25	-2.9375	-3.1417	71.592	290.497	26.445	210.742	-22.878	168.771	191.944	62.529	320.459	147.251	232.292	212.320	56.962	89.071	276.522	87.305	0.00031737	0.00015433	0.00022387	524.75	5.8942e-06	5.0434e-06	614.29	164.14	1.7098e-06	3.6257e-06	209.69	60.937	45.979	20.921	8.4342e-06	29.525	0.0035453	0.0064535	0.0018243	507.07	5.9815e-05	7.2804e-05	585.77	159.03	5.9534e-05	7.203e-05	203.88	59.835	45.306	20.653	6.4541e-05	28.893	59.564	24.281	54.083	-14.019	188.089	59.548	-15.713	-8.883	54.748	330.248	-11.614	-7.258	-4.791	-0.912	149.370	-4.147	-8191	255	
5491.294	1	1	0	0	0.3295	0.12912	0.58997	0.25617	0.25693	0.15385	0.19088	0.15773	0.29901	0.22573	0.39205	0.25651	0.24047	0.081836	0.092563	0.1836	-2.7104	-2.8146	-3.1542	-2.8667	-2.9938	-3.2604	-2.9271	-3.1896	-3.1167	-2.9021	-3.1208	-3.0583	-2.9083	-3.2812	-2.7458	-3.0292	256.208	179.688	221.441	271.318	252.452	200.011	119.326	302.489	139.551	0.461	298.040	293.392	322.932	190.132	127.030	180.313	0.0001335	0.00031832	0.00010106	524.84	6.3511e-06	2.8552e-06	612.58	165.83	5.644e-06	4.8552e-06	210.28	61.356	45.784	20.975	6.7235e-06	29.675	0.00356	0.0064281	0.0017851	505.37	5.9864e-05	7.2356e-05	584.99	159.37	5.9753e-05	7.1595e-05	204.06	60.059	45.369	20.759	6.3708e-05	29.022	98.675	179.213	182.597	-14.076	75.196	195.637	-15.163	-9.359	142.249	265.717	-11.408	-7.315	-5.483	-1.287	111.191	-4.666	-8191	255	
5491.365	1	1	0	0	0.13472	0.21958	0.15302	0.08574	0.13516	0.075068	0.2001	0.13422	0.29378	0.24453	0.12427	0.37909	0.13322	0.25994	0.11369	0.035035	-2.4979	-2.725	-3.2313	-2.9021	-2.9292	-3.2229	-2.7396	-3.2333	-3.1729	-2.7729	-3.2125	-3.1271	-2.8	-3.3542	-2.8708	-3.1271	81.958	141.467	75.600	248.047	171.762	308.942	316.110	194.451	122.695	149.451	37.800	245.489	245.435	254.899	98.877	62.296	0.00030209	0.00033776	0.00015528	522.21	3.6518e-06	2.6608e-06	615.68	164.88	6.0848e-06	2.738e-06	210.67	61.695	46.189	21.271	1.4659e-06	29.791	0.0035444	0.0064275	0.0017778	505.16	6.0258e-05	7.1277e-05	586.63	159.12	5.9928e-05	7.3083e-05	204.99	60.498	45.607	20.901	6.3189e-05	29.304	39.351	100.103	126.397	-14.101	92.249	215.789	-14.954	-9.449	64.912	-21.829	-11.517	-7.405	-5.217	-1.255	110.269	-4.692	-8191	255	
5491.486	1	1	0	0	0.040244	0.27789	0.20178	0.16543	0.16929	0.11061	0.12176	0.1589	0.10976	0.13461	0.28353	0.14317	0.27109	0.26983	0.086166	0.09731	-2.7771	-2.7208	-3.2583	-2.9542	-2.9833	-3.4354	-3.1562	-3.0417	-3.3625	-2.925	-3.1208	-3.0583	-2.7687	-3.1833	-2.95	-2.975	34.664	228.762	146.684	263.531	306.554	15.687	67.596	320.542	48.705	49.690	243.640	159.629	289.559	186.595	180.873	83.407	0.00033201	0.00049554	8.3603e-05	525.45	2.2021e-06	1.1979e-06	618.38	165.5	1.0749e-05	3.5517e-06	211.54	61.794	46.139	21.13	3.2581e-06	29.989	0.0034941	0.0063081	0.0017854	505.75	5.9812e-05	7.23e-05	587.63	159.13	5.929e-05	7.148e-05	204.82	60.329	45.524	20.851	6.2776e-05	29.278	45.411	112.360	128.050	-14.154	93.451	191.965	-15.461	-9.573	137.687	330.965	-11.261	-7.747	-5.264	-1.111	141.997	-4.235	-8191	255	
5491.582	1	1	0	0	0.11173	0.11157	0.21476	0.066638	0.18211	0.1907	0.1422	0.13296	0.080373	0.16294	0.14426	0.17491	0.12384	0.20253	0.1046	0.048774	-2.7188	-2.6625	-3.1396	-3.2062	-2.7687	-3.1792	-3.0896	-3.0042	-3.3125	-2.9646	-3.0938	-3.0958	-2.8792	-3.0187	-2.9479	-2.7917	-9.814	29.369	121.332	248.759	89.779	155.233	236.991	210.830	230.834	232.389	185.611	266.767	329.130	294.709	20.115	5.933	0.00028145	0.00037767	0.00024048	518.72	6.1374e-06	6.0386e-07	612.41	163.64	4.1314e-06	5.2237e-06	208.79	61.498	46.078	21.087	7.116e-06	29.662	0.0034249	0.0062928	0.0017614	502.82	5.9085e-05	7.1981e-05	584.35	158.27	5.8492e-05	7.202e-05	203.66	60.057	45.307	20.771	6.2354e-05	29.066	51.337	87.248	49.845	-13.775	155.097	99.451	-15.504	-9.447	38.856	130.787	-10.997	-7.718	-5.310	-1.355	75.449	-4.129	-8191	255	
5491.678	1	1	0	0	0.019625	0.18716	0.094656	0.10541	0.11353	0.13931	0.24158	0.27037	0.40107	0.10861	0.040622	0.2505	0.090798	0.12509	0.022464	0.24716	-2.9688	-2.7438	-3.0208	-3.2083	-2.8021	-3.1688	-3.15	-2.6708	-3.2833	-2.8375	-3.1208	-3.2458	-2.8896	-3.1729	-3.1292	-2.7354	260.468	234.014	166.363	108.679	159.080	-21.325	278.436	246.917	252.508	132.715	99.489	-14.477	198.227	247.320	111.349	198.887	0.00035098	0.00021305	0.00011458	521.99	7.6126e-07	1.9166e-06	608.95	163.4	6.5434e-06	2.4676e-06	210.59	61.302	45.971	20.973	4.8354e-06	29.704	0.0034113	0.0060784	0.0017105	501.96	5.8278e-05	6.9508e-05	582.49	157.95	5.6983e-05	7.0354e-05	203.52	60.146	45.296	20.749	6.1848e-05	29.157	39.039	101.283	76.843	-14.095	-26.146	112.555	-15.450	-9.093	190.708	180.535	-11.206	-7.467	-5.341	-1.121	166.245	-4.562	-8191	255	
5491.774	1	1	0	0	0.21223	0.38775	0.15925	0.15864	0.19123	0.14878	0.19974	0.30678	0.14352	0.22213	0.18978	0.05988	0.20488	0.059452	0.068545	0.070517	-2.8187	-2.8354	-2.975	-3.325	-2.7042	-3.175	-3.1875	-2.8167	-3.2667	-2.9562	-3.0604	-3.2229	-2.7229	-3.0958	-3.1104	-2.7792	-8.989	80.099	176.820	290.799	125.088	172.353	139.577	319.998	168.788	-13.495	332.146	235.051	39.588	256.020	316.726	274.567	0.00021575	0.00016866	0.00012385	519.02	6.5256e-06	3.1841e-06	611.84	164.19	3.5977e-06	4.3673e-06	210.77	62.602	45.721	21.257	1.8688e-06	30.266	0.0034253	0.0061561	0.0017491	501.25	5.8789e-05	6.9482e-05	583.28	158.42	5.6723e-05	7.0082e-05	204.59	60.694	45.421	20.933	6.2616e-05	29.426	46.996	78.935	53.920	-13.979	125.842	176.593	-15.326	-8.890	233.522	91.891	-11.343	-7.794	-5.462	-1.569	146.283	-4.476	-8191	255	
5491.871	1	1	0	0	0.18807	0.14589	0.11892	0.12088	0.0495	0.087989	0.14418	0.31651	0.11109	0.33582	0.287	0.093772	0.23767	0.064061	0.094376	0.20283	-2.7792	-2.9688	-2.7146	-3.2604	-2.9917	-3.1021	-3.1958	-2.8833	-3.0667	-3.1312	-2.9354	-3.3042	-2.7375	-2.9854	-3.2521	-2.9375	269.509	259.403	29.001	79.165	312.468	165.834	249.049	286.894	174.214	216.827	245.703	291.280	311.787	218.163	-2.861	62.133	0.00012526	0.00041018	9.1195e-05	525.68	1.2546e-06	5.6404e-06	612.1	163.87	9.3213e-06	2.1805e-06	210.37	61.808	46.039	21.219	3.0092e-06	29.896	0.0033248	0.0062324	0.0017288	502.84	5.8937e-05	6.9414e-05	585.41	158.82	5.798e-05	7.0871e-05	204.37	60.486	45.579	20.823	6.1905e-05	29.207	41.337	135.785	43.582	-14.143	178.443	186.683	-15.346	-9.172	43.401	128.834	-11.676	-7.359	-5.248	-1.272	57.082	-4.449	-8191	255	
5491.967	1	1	0	0	0.072472	0.26773	0.031676	0.15259	0.21128	0.074928	0.35093	0.21211	0.031869	0.087294	0.11823	0.25893	0.18428	0.18219	0.17618	0.021239	-2.7021	-3.1583	-2.7583	-3.1146	-2.9917	-2.9625	-3.4062	-2.8979	-3.2271	-2.9375	-2.8625	-3.3917	-2.9437	-3.0146	-3.1833	-2.7729	137.826	264.792	3.192	217.879	258.075	253.477	207.701	102.385	115.567	158.795	-8.076	81.823	3.311	286.981	-4.593	15.891	0.00059876	7.4173e-05	6.4202e-05	523.1	2.156e-06	2.7249e-06	615.07	164.31	1.0765e-05	4.0604e-06	210.51	61.801	45.604	21.191	2.5743e-06	29.684	0.0033831	0.0061636	0.0017187	503.33	5.8592e-05	6.9365e-05	583.75	158.21	5.7746e-05	6.9982e-05	203.24	60.27	45.245	20.745	6.1714e-05	29.019	37.780	118.501	22.888	-14.072	46.799	190.285	-15.382	-9.190	125.541	150.754	-11.561	-7.550	-5.609	-1.269	119.461	-4.416	-8191	255	
5492.063	1	1	0	0	0.15293	0.16075	0.098724	0.15891	0.12971	0.095448	0.21983	0.12644	0.10785	0.099989	0.079572	0.19808	0.10914	0.14538	0.27336	0.11341	-2.6937	-3.1188	-2.8667	-3.3833	-3.0687	-2.9	-3.1604	-2.7896	-3.0042	-3.1625	-2.7729	-3.1937	-3.0062	-2.8479	-3.2125	-2.9583	324.482	56.457	36.097	120.205	269.174	326.679	280.185	273.583	83.211	129.298	272.589	292.173	-19.026	203.039	129.391	313.050	0.00027505	7.6691e-05	0.00016948	526.16	9.3039e-06	3.3487e-06	611.9	164.63	9.7526e-06	6.604e-06	209.7	61.785	46.157	21.156	5.3145e-06	29.748	0.0033765	0.0062291	0.0017643	503.56	5.8626e-05	7.0823e-05	584.04	158.34	5.8067e-05	7.1146e-05	204.58	60.397	45.458	20.834	6.2007e-05	29.227	34.054	11.636	151.607	-14.223	34.546	11.382	-15.418	-9.418	172.870	177.901	-11.458	-7.771	-5.178	-1.252	102.300	-4.391	-8191	255	
5492.159	1	1	0	0	0.10796	0.059359	0.12573	0.17099	0.23127	0.12131	0.27242	0.27275	0.090251	0.024009	0.24307	0.091652	0.088613	0.20664	0.055125	0.085335	-2.6188	-3.2292	-2.7604	-3.2875	-3.0687	-2.9625	-3.2646	-2.8646	-3.0521	-3.2313	-2.8812	-3.1167	-3.2167	-2.8937	-3.2479	-2.9896	156.083	227.027	64.469	254.888	169.288	214.994	166.896	-17.408	127.717	109.939	207.409	141.675	164.905	221.998	-6.043	193.726	0.00028917	0.00070464	0.00013309	526.78	5.9733e-06	4.2108e-06	612.7	165.66	1.1241e-05	5.8764e-06	212.15	62.016	46.113	21.343	5.5109e-06	30.171	0.0034293	0.0062237	0.0017338	503.93	5.9689e-05	6.9981e-05	585.02	158.72	5.7681e-05	7.1895e-05	205.41	60.609	45.467	20.908	6.2698e-05	29.383	14.338	84.293	196.739	-14.248	36.685	110.180	-15.452	-9.041	99.962	128.183	-11.451	-7.517	-5.362	-1.311	162.695	-4.554	-8191	255	
5492.278	1	1	0	0	0.02782	0.018388	0.053241	0.12066	0.13926	0.082269	0.15743	0.25171	0.25457	0.29483	0.11102	0.071596	0.17014	0.26333	0.33527	0.070106	-2.7062	-3.2458	-2.8333	-3.3083	-3.075	-2.8396	-3.2583	-2.9542	-2.9354	-3.2875	-2.8396	-3.2125	-3.0708	-2.8229	-3.375	-3.0958	260.023	22.694	62.632	267.782	-23.708	296.631	303.265	277.692	304.152	93.257	278.736	41.307	216.513	305.117	189.113	211.167	0.00026128	0.00045899	0.00016361	528.92	5.5419e-06	2.0802e-06	616.73	164.91	5.551e-06	2.3796e-06	212.66	61.828	46.103	21.101	1.0375e-05	29.871	0.0034387	0.006248	0.0017338	506.23	5.9397e-05	7.0855e-05	588.32	159.35	5.8495e-05	7.0739e-05	205.83	60.638	45.616	20.813	6.2526e-05	29.259	51.326	52.037	-9.325	-13.947	253.950	126.749	-15.384	-9.260	42.051	244.669	-11.117	-7.450	-5.002	-1.056	52.658	-4.983	-8191	255	
5492.374	1	1	0	0	0.16429	0.089058	0.10994	0.11978	0.12658	0.24802	0.05927	0.12873	0.19876	0.094225	0.047934	0.2065	0.3945	0.18277	0.072541	0.24146	-2.4896	-3.4	-2.725	-3.0771	-3.1437	-2.7646	-3.4437	-3.1312	-2.9042	-3.3417	-2.9688	-3.2	-3.1875	-2.6792	-3.1979	-2.9729	45.363	57.079	330.955	280.100	48.587	134.521	49.534	296.172	274.397	36.115	63.715	285.839	-11.212	253.468	247.850	83.872	0.00050648	0.00057138	0.00016925	526.15	8.5667e-06	5.5513e-06	611.32	163.86	9.0091e-07	1.4333e-06	209.02	62.164	46.016	21.036	2.5631e-06	29.61	0.0034801	0.0063359	0.0017931	504.35	5.9638e-05	7.1873e-05	584.4	158.59	6.0087e-05	7.2342e-05	203.47	60.31	45.326	20.695	6.3953e-05	29.084	53.009	123.175	85.619	-13.975	86.890	-12.884	-15.408	-8.906	80.891	60.098	-11.501	-7.409	-4.806	-1.329	78.667	-4.708	-8191	255	
5492.470	1	1	0	0	0.23158	0.13357	0.22378	0.092903	0.38403	0.075378	0.078021	0.044491	0.40005	0.13971	0.2981	0.27343	0.12218	0.051798	0.16141	0.051729	-2.375	-3.2313	-2.7979	-2.9062	-3.2354	-2.8812	-3.1375	-2.9958	-2.6458	-3.4896	-3	-3.0229	-3.1437	-2.8375	-3.0833	-3.0667	-2.902	195.990	156.018	197.187	97.575	286.054	298.410	26.460	294.098	177.041	137.059	32.285	269.089	221.051	188.106	253.198	0.00041293	0.00045267	0.00016224	524.27	9.3576e-06	1.1341e-06	609.42	164.25	1.0226e-05	3.4359e-06	210.74	61.306	45.883	21.056	8.1708e-06	29.787	0.0034737	0.0064016	0.0018119	503.47	5.9742e-05	7.307e-05	584.79	158.63	6.0011e-05	7.2944e-05	204.52	60.119	45.406	20.715	6.3855e-05	29.167	15.838	9.208	178.940	-13.807	110.756	310.362	-15.237	-9.456	270.852	133.376	-10.960	-7.165	-5.089	-1.358	148.350	-4.782	-8191	255	
5492.566	1	1	0	0	0.24471	0.18034	0.24569	0.095856	0.082337	0.14517	0.2717	0.028202	0.17822	0.33776	0.12166	0.16091	0.15307	0.10132	0.11092	0.062839	-2.4208	-3.1833	-2.6562	-2.8958	-3.3438	-2.7771	-3.1583	-3.0896	-2.8708	-3.4292	-3.0896	-2.9083	-3.2625	-2.7417	-3.0625	-3.1333	0.690	-5.800	119.985	172.559	240.008	64.413	248.662	331.675	3.104	273.089	-6.907	235.489	68.861	240.951	119.271	227.138	0.00025164	0.00060655	0.00012557	524.02	3.7753e-06	6.5293e-06	616.02	165.36	8.9534e-06	3.8953e-06	211.12	61.376	45.94	21.089	4.5193e-06	29.836	0.0035019	0.006351	0.0018099	504.84	6.1117e-05	7.1775e-05	586.13	159.06	6.0442e-05	7.3459e-05	205.63	60.368	45.561	20.825	6.4417e-05	29.341	84.338	92.172	117.075	-13.844	184.353	67.823	-15.115	-8.961	207.077	243.140	-11.580	-7.518	-4.972	-1.138	76.101	-4.188	-8191	255	
5492.663	1	1	0	0	0.38254	0.065315	0.08756	0.39968	0.17068	0.15885	0.20966	0.13655	0.22003	0.13279	0.098439	0.13326	0.046073	0.10037	0.089119	0.079609	-2.4229	-2.9771	-3.0187	-3.0458	-3.2771	-2.8167	-3.0042	-3.2396	-2.9646	-3.1688	-2.8958	-2.8771	-3.1604	-2.8958	-3.0833	-3.1437	21.477	98.596	278.162	224.624	31.404	85.315	31.156	-5.132	68.356	197.264	57.077	222.694	325.094	220.260	17.154	61.242	0.0003588	0.00073523	5.791e-05	526.97	2.5661e-06	4.6985e-06	618.63	164.37	5.5678e-06	2.9129e-06	210.44	61.889	45.928	21.155	2.7376e-06	29.662	0.0035814	0.0065833	0.0018309	506.2	6.1602e-05	7.3119e-05	588.16	159.11	6.0258e-05	7.2069e-05	205.02	60.471	45.404	20.721	6.4217e-05	29.068	34.998	37.615	140.305	-13.768	245.380	95.872	-15.290	-9.257	82.581	132.184	-11.647	-6.902	-5.200	-1.304	269.592	-4.416	-8191	255	
5492.759	1	1	0	0	0.36681	0.19275	0.038971	0.3902	0.28044	0.29464	0.16795	0.30219	0.11088	0.081122	0.20108	0.13698	0.11929	0.19158	0.293	0.11382	-2.2708	-3.125	-3.0083	-2.8125	-3.4188	-3.0125	-2.9333	-3.3208	-2.8646	-3.2479	-3.0979	-2.8271	-3.1229	-3.0979	-2.8354	-3.2625	94.344	145.086	234.783	316.019	263.426	243.782	170.195	266.280	169.487	-14.179	245.797	280.752	313.204	230.971	320.366	87.099	0.00030971	0.00049147	4.7333e-05	522.19	7.3177e-06	3.4076e-06	612.67	163.75	3.1672e-06	4.4011e-06	208.18	60.92	45.426	20.869	4.868e-06	29.464	0.0034997	0.0065055	0.0018427	502.27	6.0733e-05	7.3533e-05	583.42	157.98	6.0445e-05	7.2509e-05	203.15	59.765	44.904	20.529	6.3105e-05	28.876	45.824	108.553	148.479	-13.535	161.820	82.505	-15.404	-9.369	173.359	109.337	-11.427	-7.557	-5.016	-1.389	56.765	-4.439	-8191	255	
5492.879	1	1	0	0	0.1479	0.27672	0.1969	0.289	0.12612	0.18724	0.04767	0.23303	0.10205	0.23615	0.24907	0.29237	0.22392	0.1347	0.057557	0.04533	-2.3521	-3.0125	-3.0417	-2.7833	-3.1646	-3.0458	-2.8875	-3.2354	-2.8771	-3.1104	-3.2458	-2.6292	-3.0646	-3.0271	-2.8812	-3.3	43.899	131.828	242.147	271.120	-17.518	193.454	65.643	170.541	200.965	247.259	291.619	222.674	27.333	-16.316	170.430	46.880	0.00038928	0.00028438	0.00013152	521.07	5.9089e-06	7.4698e-06	609.47	162.82	7.3733e-06	5.2591e-06	209.2	61.342	45.332	20.775	2.8274e-06	29.493	0.0034993	0.0063028	0.0018132	500.26	5.9067e-05	7.096e-05	581.18	157.46	5.8743e-05	7.0994e-05	203.25	59.901	44.932	20.529	6.3117e-05	29.023	41.622	29.983	49.011	-14.129	-15.272	77.095	-15.228	-8.899	170.957	111.834	-11.258	-7.472	-5.456	-1.372	128.182	-4.551	-8191	255	
5492.976	1	1	0	0	0.1597	0.11931	0.16685	0.26974	0.12358	0.015623	0.038269	0.094414	0.15961	0.10103	0.14928	0.14031	0.19882	0.28958	0.43411	0.27502	-2.5396	-2.9083	-3.2104	-2.8229	-3.125	-3.0625	-2.7333	-3.2375	-3	-3.1167	-2.9833	-2.8312	-3.075	-3.0333	-2.8292	-3.3146	291.507	168.363	318.580	106.236	81.682	244.725	218.309	126.962	45.695	142.332	-21.801	58.141	276.926	-12.540	181.163	204.638	0.000296	0.00040324	4.8281e-05	517.66	4.7906e-06	8.1252e-07	607.32	162.63	5.5416e-06	6.8019e-06	210.17	61.406	45.722	20.956	4.257e-06	29.638	0.0035381	0.0062994	0.0018002	499.86	6.0178e-05	7.1053e-05	581.89	157.15	5.7975e-05	7.0123e-05	203.44	60.302	45.095	20.708	6.3345e-05	29.272	34.067	316.345	144.329	-14.277	142.353	167.139	-15.437	-9.412	98.445	121.299	-11.048	-7.390	-5.362	-1.350	227.215	-4.350	-8191	255	
5493.070	1	1	0	0	0.20041	0.21032	0.15447	0.052799	0.32579	0.029859	0.05432	0.4336	0.12094	0.089863	0.1192	0.15567	0.11392	0.24792	0.16611	0.17099	-2.5208	-2.7958	-3.2313	-2.8917	-3.1708	-3.1104	-2.9062	-3.0958	-3.0479	-2.7917	-3.3042	-2.9708	-2.9646	-3.05	-2.8271	-3.425	282.880	71.449	224.689	198.941	23.303	59.180	255.955	310.206	50.228	270.765	168.163	268.814	201.877	128.601	204.290	192.527	0.00028301	0.00052762	2.9504e-05	519.39	3.2979e-06	3.9456e-06	611.72	162.33	2.5718e-06	1.5901e-06	209.58	61.151	45.757	20.971	4.3231e-06	29.65	0.0034211	0.0062282	0.0017643	500.99	5.8817e-05	6.9654e-05	584.54	157.5	5.8151e-05	7.0518e-05	203.85	60.286	45.204	20.712	6.2201e-05	29.225	52.831	63.187	135.353	-14.136	57.929	46.308	-15.526	-9.491	65.791	180.700	-11.593	-7.319	-5.397	-1.747	94.267	-4.036	-8191	255	
5493.166	1	1	0	0	0.13666	0.099275	0.20671	0.068382	0.21093	0.14548	0.13585	0.032216	0.25664	0.12179	0.1234	0.053206	0.24722	0.126	0.26542	0.079049	-2.5333	-2.8604	-3.0667	-2.9771	-2.9896	-3.2354	-2.9375	-3.2833	-3.0417	-2.9688	-3.1771	-2.975	-3.0187	-3.1917	-2.8354	-3.3021	8.285	231.042	33.072	304.898	152.589	54.805	258.507	245.548	149.598	193.118	298.260	1.493	221.512	149.358	177.089	323.663	0.00037646	0.00073133	8.593e-05	519.81	2.897e-06	8.1247e-06	611.38	163.03	7.7773e-06	3.9386e-06	209.82	61.778	45.585	20.883	2.9336e-06	29.915	0.0034521	0.0061743	0.0017356	499.87	5.825e-05	7.1308e-05	582.62	157.54	5.8141e-05	7.1169e-05	203.76	60.194	45.018	20.682	6.2439e-05	29.222	34.755	318.727	-7.133	-14.382	31.272	134.562	-14.991	-9.427	91.084	305.472	-11.429	-7.692	-5.148	-1.302	177.897	-4.923	-8191	255	
5493.262	1	1	0	0	0.086482	0.1606	0.27292	0.27259	0.30645	0.14458	0.099312	0.12861	0.19324	0.11233	0.26657	0.34257	0.18529	0.2308	0.11554	0.059444	-2.6021	-2.9083	-3.2375	-2.9042	-3.0312	-3.3104	-2.8833	-3.15	-2.9104	-2.8979	-3.1604	-2.9854	-2.7667	-3.3729	-2.8688	-3.1521	267.181	29.946	52.134	331.757	188.303	118.131	-1.601	327.793	91.678	98.191	283.104	322.882	256.258	305.107	260.739	288.302	0.00028875	0.0002985	0.0002074	517.16	2.9936e-06	6.3486e-06	607.31	163.11	9.275e-06	5.2745e-06	208.78	61.447	45.801	21.089	4.2564e-06	29.686	0.0034369	0.0061432	0.0017731	498.7	5.8189e-05	7.0654e-05	581.51	157.46	5.7393e-05	7.0551e-05	203.29	60.043	45.036	20.68	6.2153e-05	29.2	39.225	84.931	44.784	-14.299	244.833	105.689	-15.729	-9.275	165.971	150.087	-11.966	-7.459	-5.395	-1.268	136.212	-4.339	-8191	255	
#DATA ENDS
