BOXY.EXE: ISS Imagent and Oximeter Data Acquisition Program Version 0.80
Ascii Record File

#ACQ INFORMATION
2  Detector Channels 
16  External MUX Channels 
1  Auxiliary Channels 
5000  Waveform (CCF) Frequency (Hz)
1  Waveforms Skipped 
30  Waveforms Averaged 
1  Cycles Averaged 
16  Acquisitions per Waveform 
10.0806  Updata Rate (Hz) 

#FILE INFORMATION
TRUE -- External MUX Channel results are PARSED.
FALSE -- AC DC and Phase are NOT grouped.
TRUE -- Companion Program Settings File CREATED.
FALSE -- AC data not excluded
FALSE -- DC data not excluded
FALSE -- Phase data not excluded
FALSE -- Auxillary Chn. data not excluded
Tab delimiters

#CALIBRATION STATE
TRUE -- Waveform Calibration Values APPLIED.


#AUX CALIBRATION VALUES
Val Type	aux-1	

Term	1.0000e+00	
Factor	0.0000e+00	


#WF CALIBRATION VALUES
A = Detector Channel
Val Type	A-AC1	A-AC2	A-AC3	A-AC4	A-AC5	A-AC6	A-AC7	A-AC8	A-AC9	A-AC10	A-AC11	A-AC12	A-AC13	A-AC14	A-AC15	A-AC16	A-DC1	A-DC2	A-DC3	A-DC4	A-DC5	A-DC6	A-DC7	A-DC8	A-DC9	A-DC10	A-DC11	A-DC12	A-DC13	A-DC14	A-DC15	A-DC16	A-Ph1	A-Ph2	A-Ph3	A-Ph4	A-Ph5	A-Ph6	A-Ph7	A-Ph8	A-Ph9	A-Ph10	A-Ph11	A-Ph12	A-Ph13	A-Ph14	A-Ph15	A-Ph16	

Term	0.00000e+00	0.00000e+00	0.00000e+00	0.00000e+00	0.00000e+00	0.00000e+00	0.00000e+00	0.00000e+00	0.00000e+00	0.00000e+00	0.00000e+00	0.00000e+00	0.00000e+00	0.00000e+00	0.00000e+00	0.00000e+00	0.00000e+00	0.00000e+00	0.00000e+00	0.00000e+00	0.00000e+00	0.00000e+00	0.00000e+00	0.00000e+00	0.00000e+00	0.00000e+00	0.00000e+00	0.00000e+00	0.00000e+00	0.00000e+00	0.00000e+00	0.00000e+00	0.00000e+00	0.00000e+00	0.00000e+00	0.00000e+00	0.00000e+00	0.00000e+00	0.00000e+00	0.00000e+00	0.00000e+00	0.00000e+00	0.00000e+00	0.00000e+00	0.00000e+00	0.00000e+00	0.00000e+00	0.00000e+00	
Factor	1.00000e+00	1.00000e+00	1.00000e+00	1.00000e+00	1.00000e+00	1.00000e+00	1.00000e+00	1.00000e+00	1.00000e+00	1.00000e+00	1.00000e+00	1.00000e+00	1.00000e+00	1.00000e+00	1.00000e+00	1.00000e+00	1.00000e+00	1.00000e+00	1.00000e+00	1.00000e+00	1.00000e+00	1.00000e+00	1.00000e+00	1.00000e+00	1.00000e+00	1.00000e+00	1.00000e+00	1.00000e+00	1.00000e+00	1.00000e+00	1.00000e+00	1.00000e+00	X	X	X	X	X	X	X	X	X	X	X	X	X	X	X	X	

B = Detector Channel
Val Type	B-AC1	B-AC2	B-AC3	B-AC4	B-AC5	B-AC6	B-AC7	B-AC8	B-AC9	B-AC10	B-AC11	B-AC12	B-AC13	B-AC14	B-AC15	B-AC16	B-DC1	B-DC2	B-DC3	B-DC4	B-DC5	B-DC6	B-DC7	B-DC8	B-DC9	B-DC10	B-DC11	B-DC12	B-DC13	B-DC14	B-DC15	B-DC16	B-Ph1	B-Ph2	B-Ph3	B-Ph4	B-Ph5	B-Ph6	B-Ph7	B-Ph8	B-Ph9	B-Ph10	B-Ph11	B-Ph12	B-Ph13	B-Ph14	B-Ph15	B-Ph16	

Term	0.00000e+00	0.00000e+00	0.00000e+00	0.00000e+00	0.00000e+00	0.00000e+00	0.00000e+00	0.00000e+00	0.00000e+00	0.00000e+00	0.00000e+00	0.00000e+00	0.00000e+00	0.00000e+00	0.00000e+00	0.00000e+00	0.00000e+00	0.00000e+00	0.00000e+00	0.00000e+00	0.00000e+00	0.00000e+00	0.00000e+00	0.00000e+00	0.00000e+00	0.00000e+00	0.00000e+00	0.00000e+00	0.00000e+00	0.00000e+00	0.00000e+00	0.00000e+00	-2.26776e+02	-1.29708e+02	-1.25081e+02	-1.81324e+02	-8.13396e+01	-6.84428e+01	-1.55273e+02	-1.62015e+02	-8.44135e+01	-6.57107e+01	-1.73287e+02	-1.69603e+02	-1.82427e+02	-1.77112e+02	-7.61088e+01	-1.49999e+02	
Factor	5.15204e-05	1.63359e-04	4.63749e-05	1.65014e-01	2.13459e-06	1.73112e-06	1.63714e-01	5.20409e-02	2.66509e-06	1.65289e-06	8.93901e-02	2.90941e-02	2.44411e-02	9.00888e-03	1.89399e-06	1.31364e-02	1.97274e-05	3.71382e-05	1.04766e-05	8.31389e-02	3.49691e-07	4.20036e-07	7.75769e-02	2.62501e-02	3.44574e-07	4.22086e-07	4.38463e-02	1.42514e-02	1.24700e-02	4.59518e-03	3.71019e-07	6.48508e-03	X	X	X	X	X	X	X	X	X	X	X	X	X	X	X	X	



#DISTANCE SETTINGS
A = Detector Channel
A-1	A-2	A-3	A-4	A-5	A-6	A-7	A-8	A-9	A-10	A-11	A-12	A-13	A-14	A-15	A-16	

2.5000e+00	3.0000e+00	2.5000e+00	3.0000e+00	2.0000e+00	3.0000e+00	1.5000e+00	3.0000e+00	3.0000e+00	3.0000e+00	3.0000e+00	3.0000e+00	3.0000e+00	3.0000e+00	1.5000e+00	3.0000e+00	

B = Detector Channel
B-1	B-2	B-3	B-4	B-5	B-6	B-7	B-8	B-9	B-10	B-11	B-12	B-13	B-14	B-15	B-16	

1.0000e+01	1.0000e+01	1.0000e+01	1.4400e+00	1.0000e+01	1.0000e+01	1.5100e+00	1.9400e+00	1.0000e+01	1.0000e+01	1.9900e+00	2.4900e+00	2.4100e+00	2.9000e+00	1.0000e+01	2.9800e+00	




#DATA BEGINS
time	group	step	mark	flag	A-AC1	A-AC2	A-AC3	A-AC4	A-AC5	A-AC6	A-AC7	A-AC8	A-AC9	A-AC10	A-AC11	A-AC12	A-AC13	A-AC14	A-AC15	A-AC16	A-DC1	A-DC2	A-DC3	A-DC4	A-DC5	A-DC6	A-DC7	A-DC8	A-DC9	A-DC10	A-DC11	A-DC12	A-DC13	A-DC14	A-DC15	A-DC16	A-Ph1	A-Ph2	A-Ph3	A-Ph4	A-Ph5	A-Ph6	A-Ph7	A-Ph8	A-Ph9	A-Ph10	A-Ph11	A-Ph12	A-Ph13	A-Ph14	A-Ph15	A-Ph16	B-AC1	B-AC2	B-AC3	B-AC4	B-AC5	B-AC6	B-AC7	B-AC8	B-AC9	B-AC10	B-AC11	B-AC12	B-AC13	B-AC14	B-AC15	B-AC16	B-DC1	B-DC2	B-DC3	B-DC4	B-DC5	B-DC6	B-DC7	B-DC8	B-DC9	B-DC10	B-DC11	B-DC12	B-DC13	B-DC14	B-DC15	B-DC16	B-Ph1	B-Ph2	B-Ph3	B-Ph4	B-Ph5	B-Ph6	B-Ph7	B-Ph8	B-Ph9	B-Ph10	B-Ph11	B-Ph12	B-Ph13	B-Ph14	B-Ph15	B-Ph16	aux-1	digaux	

5563.585	1	1	0	768	0.11468	0.18561	0.16234	0.17939	0.13106	0.12501	0.22756	0.28694	0.050759	0.15439	0.13384	0.18206	0.041039	0.018577	0.14809	0.35149	-2.3625	-3.1604	-3.1021	-2.9	-3.3937	-3.0792	-3.1312	-3.3229	-2.8187	-3.2062	-3.0771	-2.8187	-3.325	-3.1312	-2.8917	-3.2208	175.780	29.395	-122.653	109.188	91.315	49.376	203.415	150.070	151.330	-138.494	87.546	-119.401	-81.947	185.232	131.771	181.824	0.00043284	0.00027822	0.00010816	413.45	4.4395e-06	6.3012e-06	512.4	139.91	8.8483e-06	2.5816e-06	189.94	60.308	41.587	15.436	5.544e-06	24.046	0.0034984	0.0062419	0.0017772	401.93	5.9376e-05	7.0228e-05	496.03	135.56	5.7267e-05	6.9719e-05	185.07	58.732	40.97	15.301	6.1493e-05	23.829	99.603	127.636	-128.278	-141.047	-28.673	-31.184	-142.681	-137.151	200.635	-3.241	-138.964	-135.500	-133.349	-128.889	-152.658	-131.517	-8191	255	
5563.681	1	1	0	0	0.033003	0.11375	0.16297	0.12522	0.17302	0.099337	0.3343	0.10003	0.1005	0.1732	0.070623	0.11482	0.05545	0.093461	0.36042	0.22237	-2.3208	-3.2271	-3.1583	-2.8354	-3.2167	-3.1688	-2.95	-3.3479	-2.8521	-3.2021	-3.3583	-2.8688	-3.1813	-3.1667	-2.8271	-3.2188	82.417	43.487	136.674	107.899	-109.380	185.796	-106.701	89.763	-115.779	-22.555	119.342	-33.886	-146.824	-70.402	132.959	135.351	0.00050464	0.00046237	0.00020037	414.03	5.7801e-06	2.3253e-06	517.55	140.71	3.9241e-06	5.4029e-06	191.05	60.729	41.438	15.378	2.655e-06	24.26	0.0034863	0.0062282	0.0018059	402.37	5.9345e-05	7.1575e-05	497.45	135.9	5.7864e-05	6.9272e-05	185.55	58.989	41.044	15.338	6.3721e-05	23.924	108.558	-25.494	-138.242	-141.173	77.824	132.560	-142.592	-136.768	14.401	155.038	-138.859	-135.757	-134.095	-129.193	-69.060	-132.011	-8191	255	
5563.777	1	1	0	0	0.099441	0.18215	0.27813	0.1673	0.13365	0.20829	0.15425	0.056637	0.12232	0.012092	0.054795	0.39695	0.15842	0.22431	0.12743	0.18168	-2.3729	-3.2188	-3.1833	-2.775	-3.3083	-3.1917	-2.8688	-3.1896	-2.9188	-2.9375	-3.1646	-2.7458	-3.1021	-3.0292	-3.025	-3.2042	-85.444	-70.270	-120.682	189.614	83.472	201.259	144.026	-62.048	-104.366	-63.078	126.028	148.171	158.009	-138.687	-137.887	20.878	0.00058521	0.000545	0.00024202	416.7	6.7431e-06	2.8682e-06	524.92	142.16	1.4728e-05	5.4539e-06	195.11	61.255	41.848	15.668	7.2696e-06	24.581	0.0034951	0.0063476	0.0018077	405.52	5.9477e-05	7.1877e-05	502.58	137.51	5.9583e-05	7.1618e-05	189.23	59.624	41.414	15.587	6.4896e-05	24.319	100.687	-60.339	-106.296	-141.108	16.919	83.857	-142.255	-136.746	-39.557	-27.945	-138.642	-135.813	-133.656	-128.987	-102.218	-131.537	-8191	255	
5563.873	1	1	0	0	0.14201	0.17717	0.1907	0.2466	0.14032	0.1611	0.11627	0.060961	0.093177	0.1734	0.25921	0.20967	0.19362	0.27317	0.14602	0.1188	-2.6021	-2.8979	-3.3187	-2.8896	-3.3438	-3.2417	-2.9292	-3.2938	-2.9729	-2.9083	-3.3417	-2.8354	-2.9833	-3.4104	-2.8542	-3.475	58.085	63.480	183.177	188.604	5.384	-67.333	135.453	49.385	30.837	107.259	107.618	204.826	165.839	87.336	30.373	-69.590	0.00061013	7.8512e-05	7.4703e-05	422.38	3.0527e-06	2.1338e-06	526.07	143.04	8.2128e-06	4.3868e-06	194.23	61.542	41.918	15.79	6.3693e-06	24.757	0.003499	0.006441	0.0018385	407.51	6.0118e-05	7.2368e-05	505.76	138.29	5.8707e-05	7.2118e-05	188.73	59.762	41.495	15.749	6.437e-05	24.546	105.588	-84.657	-100.711	-141.271	-57.572	90.848	-142.126	-136.841	-60.772	-112.366	-138.496	-135.763	-133.618	-128.946	-38.935	-131.649	-8191	255	
5563.969	1	1	0	0	0.17579	0.231	0.19596	0.17062	0.15987	0.32711	0.19858	0.31577	0.039278	0.2207	0.23082	0.20597	0.1753	0.10841	0.17499	0.067325	-2.6188	-2.8646	-3.2479	-2.8563	-3.1417	-3.2438	-2.9167	-3.3271	-3.1437	-3.0667	-3.2479	-2.7708	-3.0438	-3.2917	-2.9042	-3.1729	-38.357	-90.245	-83.927	-47.634	90.086	-132.806	103.025	197.696	196.036	11.965	163.556	130.999	111.002	122.533	120.872	56.045	0.00053224	0.00067169	0.00013346	423.14	8.3118e-06	2.1746e-06	526.78	142.48	2.1532e-06	3.908e-06	193.77	61.388	41.895	15.675	1.5566e-06	24.619	0.003509	0.0064078	0.0017911	408.78	5.9238e-05	7.1873e-05	505.72	138.11	5.9924e-05	7.1599e-05	189.02	59.803	41.525	15.663	6.3721e-05	24.438	122.331	-54.232	-150.559	-140.918	-85.202	35.250	-142.242	-137.229	66.426	-36.234	-139.057	-135.312	-133.405	-128.956	54.195	-132.168	-8191	255	
5564.065	1	1	0	0	0.23909	0.34307	0.19771	0.27384	0.14855	0.10506	0.093019	0.11156	0.19113	0.11224	0.32236	0.12109	0.085228	0.070092	0.1622	0.36623	-2.7104	-2.9188	-3.1417	-2.7729	-3.0917	-3.2083	-2.825	-3.0771	-3.1354	-2.7896	-3.3312	-2.9875	-3.1604	-3.3729	-2.8667	-3.1646	-58.347	-56.154	205.080	-142.341	-8.114	-59.838	-67.093	-54.254	143.034	-10.045	30.281	125.551	46.790	-63.753	41.191	180.683	0.0005666	0.00042127	0.00018105	425.31	1.9282e-06	6.5437e-06	529.15	142.62	1.2047e-05	6.2607e-06	194.85	61.802	42.143	15.762	5.6108e-06	24.437	0.0035423	0.0064709	0.0017738	410.74	6.0503e-05	7.2413e-05	507.37	138.55	5.9667e-05	7.2288e-05	189.76	60.009	41.753	15.655	6.4337e-05	24.297	89.707	-126.287	-19.798	-140.740	-6.974	45.094	-141.926	-136.678	-89.682	-61.586	-138.850	-135.902	-133.925	-128.748	-40.019	-131.590	-8191	255	
5564.186	1	1	0	0	0.23468	0.042532	0.1463	0.045454	0.18069	0.17738	0.12949	0.25673	0.052939	0.096947	0.14549	0.15887	0.17609	0.2059	0.28912	0.19657	-2.6354	-2.8812	-3.2375	-2.9792	-3.1937	-3.3458	-2.9688	-3.1667	-3.2104	-2.8979	-3.3563	-3.0687	-2.9896	-3.4375	-2.9917	-3.2687	-50.600	97.918	188.204	-9.615	-105.841	-38.699	-153.047	192.989	-54.047	62.282	-37.219	25.464	63.114	140.645	-12.293	166.817	0.00054474	0.00035835	7.3055e-05	424.22	1.1156e-05	7.9695e-06	529.83	143.21	4.5143e-06	5.0859e-06	194.57	61.796	42.074	15.785	2.0088e-06	24.591	0.0036214	0.0064961	0.001817	411.34	6.0404e-05	7.3338e-05	510.37	138.88	6.0276e-05	7.3345e-05	189.99	60.161	41.752	15.694	6.4881e-05	24.382	95.915	-88.052	179.826	-140.861	-29.636	73.887	-142.450	-136.722	92.905	144.930	-138.820	-135.639	-133.769	-129.078	-130.979	-131.343	-8191	255	
5564.281	1	1	0	0	0.24031	0.33271	0.21697	0.20847	0.023044	0.14082	0.15088	0.21064	0.19863	0.16214	0.18719	0.16412	0.041175	0.2403	0.13489	0.19967	-2.9062	-2.8417	-3.1396	-3.2229	-2.9583	-3.4229	-3.0021	-3.3271	-3.4375	-2.8833	-3.3292	-3.1521	-2.7792	-3.4896	-3.1021	-3.1104	157.859	188.624	-70.934	175.834	174.529	128.563	190.736	128.997	-87.995	57.459	128.687	138.690	131.867	156.726	80.201	68.260	0.00065371	0.00059304	0.00014225	428.62	2.9003e-06	8.1167e-06	538.42	143.61	3.3527e-06	9.604e-06	196.43	62.635	42.018	15.621	5.4331e-06	24.759	0.0036485	0.0065168	0.0018193	415.12	6.2618e-05	7.4955e-05	515.28	140.16	6.1361e-05	7.5137e-05	191.37	60.735	41.917	15.655	6.4202e-05	24.409	112.897	-48.543	204.616	-141.007	47.081	-5.943	-141.982	-136.719	146.347	-7.458	-138.643	-135.843	-133.798	-128.817	-93.396	-131.032	-8191	255	
5564.377	1	1	0	0	0.052554	0.0627	0.088695	0.32499	0.068962	0.057233	0.33685	0.20541	0.10859	0.12767	0.33454	0.29981	0.14414	0.16042	0.067776	0.25619	-2.8125	-2.95	-3.0917	-3.1708	-2.9604	-3.25	-2.9625	-2.9875	-3.3417	-2.9667	-3.2542	-3.1125	-2.8063	-3.4583	-3.1458	-3.0479	125.761	63.981	55.183	113.924	195.651	-115.932	152.454	-150.541	-130.763	-113.142	147.275	83.277	171.249	12.047	112.807	158.244	0.00064709	0.00041452	7.3655e-05	426.34	1.3457e-06	1.4443e-06	535.52	144.04	8.4537e-06	3.2381e-06	196.35	61.848	42.064	15.853	8.1924e-06	24.536	0.003635	0.0064607	0.0018217	413.55	6.2938e-05	7.2734e-05	511.46	139.59	6.1684e-05	7.3417e-05	191.3	60.153	41.842	15.696	6.5697e-05	24.418	94.073	25.953	-141.587	-141.235	-70.789	-40.848	-142.113	-136.724	-10.867	59.492	-139.060	-135.594	-133.778	-128.878	16.504	-131.600	-8191	255	
5564.473	1	1	0	0	0.22745	0.13923	0.066052	0.18613	0.186	0.24619	0.16201	0.32867	0.13537	0.21332	0.12581	0.19542	0.20528	0.21778	0.033099	0.13213	-2.8854	-3.0604	-3.2208	-3.1604	-2.9042	-3.2208	-3.1333	-2.9333	-3.325	-2.9	-3.225	-3.1542	-2.8042	-3.3104	-3.1854	-2.9458	86.829	120.192	-105.640	-84.264	101.506	11.215	111.629	127.282	-62.489	178.692	41.360	202.972	73.071	-69.796	87.964	133.711	0.00043755	0.0011799	0.00012001	427.35	9.4684e-06	3.8966e-06	536.07	144.64	5.3291e-06	3.059e-06	198.3	61.876	42.747	15.969	2.1331e-06	24.909	0.0036506	0.0065681	0.0018852	414.99	6.3393e-05	7.4595e-05	515.51	140.42	6.167e-05	7.4112e-05	192.54	60.636	42.223	15.866	6.5378e-05	24.851	106.810	-44.330	-64.905	-140.678	-55.988	-126.406	-142.539	-136.861	-47.682	-144.790	-138.553	-135.438	-133.621	-128.667	-51.366	-132.129	-8191	255	
5564.569	1	1	0	0	0.12633	0.24012	0.19418	0.11265	0.22277	0.20726	0.15971	0.12396	0.20572	0.17236	0.20902	0.11148	0.21499	0.076383	0.050965	0.22029	-2.9625	-3.1146	-3.0583	-3.0417	-2.8375	-3.45	-3.3271	-2.8438	-3.4062	-3.0083	-2.9688	-3.2021	-2.9458	-3.4354	-3.1292	-2.825	183.637	-133.550	-127.370	77.110	176.950	203.878	136.932	61.427	123.183	45.354	92.249	201.140	-99.434	152.273	-34.916	-146.616	0.0005355	0.00088607	0.00015257	431.19	4.5324e-06	8.371e-06	540.77	145.18	6.4531e-06	1.0526e-05	199.82	62.705	42.908	16.305	4.8045e-07	25.472	0.0036889	0.0065901	0.0018556	417.45	6.3104e-05	7.4543e-05	518.3	141.09	6.1633e-05	7.6165e-05	195.27	61.252	42.471	16.152	6.7449e-05	25.219	114.370	-60.310	-105.836	-141.105	-7.161	-38.432	-142.702	-136.809	37.801	16.730	-138.511	-134.863	-133.778	-128.937	-18.330	-131.860	-8191	255	
5564.665	1	1	0	0	0.13035	0.072693	0.28444	0.12952	0.10159	0.19095	0.10124	0.18133	0.20385	0.30582	0.062194	0.19293	0.20086	0.26968	0.24644	0.24712	-2.9396	-2.9313	-3.0042	-3.2188	-2.9167	-3.2792	-3.225	-2.8937	-3.3708	-3.0354	-3.0312	-3.2313	-2.8771	-3.1417	-3.2521	-2.9688	160.535	61.477	135.902	202.015	175.091	77.179	90.819	193.324	99.411	109.800	124.863	131.521	168.750	-146.039	146.245	149.757	0.0005074	0.0006388	9.2198e-05	432.55	5.4531e-06	6.6181e-07	546.14	146.73	4.6314e-06	1.3024e-06	201.66	62.937	42.9	16.251	1.1483e-05	25.429	0.0037185	0.0066932	0.0018854	420.57	6.3353e-05	7.5176e-05	522.79	142.26	6.2385e-05	7.4824e-05	195.74	61.509	42.432	16.145	6.6947e-05	25.177	103.320	-62.054	-43.915	-141.081	-53.037	-47.012	-142.818	-136.674	-55.965	-119.009	-138.774	-135.413	-133.705	-129.388	-87.246	-131.372	-8191	255	
5564.786	1	1	0	0	0.14488	0.2847	0.16378	0.16462	0.23368	0.061248	0.23339	0.14179	0.057853	0.31412	0.18429	0.24785	0.14891	0.15064	0.077119	0.11966	-2.875	-3.1125	-3.0458	-3.2667	-3.0938	-3.1104	-3.3812	-2.8187	-3.2938	-3.0938	-3.1	-3.3833	-3.0875	-3.1667	-3.3563	-2.9375	64.369	175.623	-4.316	178.748	201.908	-100.900	134.572	175.656	143.657	74.299	18.752	84.047	27.978	182.937	190.418	48.457	0.00042064	0.00059414	4.678e-05	432.92	8.8046e-06	5.7794e-06	543.92	146.06	9.7646e-06	3.8389e-06	199.55	62.363	42.937	16.132	5.6132e-06	25.55	0.003641	0.0066644	0.0018791	421.42	6.2767e-05	7.5813e-05	521.85	142.23	6.0906e-05	7.5711e-05	195.16	61.101	42.455	16.08	6.7573e-05	25.15	108.871	-68.187	93.790	-141.092	-101.416	150.315	-142.530	-136.840	32.200	112.415	-138.814	-136.044	-133.885	-129.050	82.181	-131.866	-8191	255	
5564.882	1	1	0	0	0.12956	0.37379	0.13321	0.22822	0.1551	0.13718	0.1351	0.17426	0.25995	0.1518	0.23141	0.046818	0.18367	0.040359	0.32141	0.099816	-2.7292	-3.1646	-3.0687	-3.4375	-3.0354	-3.1771	-3.3896	-3.0833	-3.3438	-3.1979	-2.8937	-3.2958	-3.0479	-2.7917	-3.3917	-3.0792	-37.280	67.437	50.230	147.761	-115.132	-45.243	118.893	-99.925	124.158	192.263	-88.446	-132.692	-147.244	112.154	76.641	201.238	0.00074698	0.00034498	9.0745e-05	435.44	8.4039e-06	9.0786e-06	544.38	146.98	1.2455e-05	2.5267e-06	201.86	63.088	43.21	16.454	1.8737e-06	25.857	0.0036961	0.0066563	0.0018808	420.91	6.3702e-05	7.485e-05	523.05	142.69	6.255e-05	7.6962e-05	196.74	61.6	42.739	16.364	6.7947e-05	25.617	111.260	1.439	-8.201	-140.694	-36.032	-26.358	-142.038	-136.603	35.746	86.701	-138.887	-135.314	-133.757	-128.620	4.970	-131.714	-8191	255	
5564.978	1	1	0	0	0.042218	0.12933	0.034458	0.23455	0.051716	0.08937	0.10591	0.052238	0.04407	0.12666	0.22285	0.077456	0.0468	0.11157	0.067022	0.058622	-2.8063	-3.1896	-2.8479	-3.2271	-3.0833	-3.0458	-3.3854	-2.975	-3.1542	-3.3812	-2.7583	-3.3333	-3.1188	-2.9333	-3.3063	-3.0208	-82.569	102.340	125.635	106.608	64.644	-3.088	-121.859	-37.536	196.794	-83.250	-49.617	-24.737	200.897	-50.195	-148.467	80.164	0.00052104	0.00045612	2.033e-05	441.89	7.719e-06	4.6064e-06	555.3	147.95	6.6961e-06	5.1384e-06	206.57	63.907	43.545	16.938	7.2819e-06	26.699	0.0037418	0.0067516	0.0018909	425.1	6.4311e-05	7.6622e-05	530.12	144.02	6.2623e-05	7.8324e-05	200.5	62.623	43.138	16.851	6.7808e-05	26.453	121.217	-66.924	-67.874	-141.297	-100.383	-19.092	-142.590	-136.796	-82.788	-35.405	-138.672	-135.374	-133.354	-128.620	173.376	-131.973	-8191	255	
5565.074	1	1	0	0	0.19871	0.096191	0.26477	0.13222	0.22378	0.094512	0.22111	0.043609	0.048513	0.11569	0.14618	0.12686	0.026976	0.18008	0.198	0.34805	-2.6375	-3.1458	-2.8729	-3.3333	-3.2604	-2.8625	-3.4604	-3.1479	-2.95	-3.3792	-3.0229	-3.3604	-3.1937	-2.7583	-3.3875	-3.0646	-42.243	-107.005	43.969	60.308	77.921	59.317	159.114	121.539	-12.693	83.245	-25.916	141.109	125.594	151.936	22.805	116.906	0.00051045	0.00021382	9.8577e-05	444.42	5.8657e-06	4.2335e-06	556.49	150.79	1.1688e-05	3.1453e-06	208.27	65.281	44.092	17.386	3.8216e-06	27.463	0.0037542	0.0067684	0.0018768	429.87	6.4504e-05	7.7229e-05	537.23	146.35	6.4051e-05	7.7873e-05	203.24	63.821	43.656	17.306	6.7595e-05	27.121	115.557	-25.400	-45.164	-141.036	-117.600	8.386	-142.469	-136.544	-93.997	102.611	-138.631	-135.817	-133.700	-128.586	-11.772	-131.747	-8191	255	
5565.146	1	1	0	0	0.091565	0.16692	0.23031	0.19602	0.056551	0.084091	0.19811	0.13763	0.20727	0.061452	0.070369	0.044288	0.31939	0.2236	0.07452	0.25395	-2.5875	-3.4167	-2.8521	-3.1479	-3.1896	-2.9208	-3.4229	-3.1292	-2.9708	-3.325	-2.9833	-3.2625	-3.2833	-2.6	-3.2042	-2.8875	82.207	-57.196	162.978	35.196	-147.668	10.097	177.689	181.172	-73.847	109.710	183.184	-63.490	171.353	166.375	178.201	172.469	0.00086248	0.00091717	8.3825e-05	446.96	4.3365e-06	1.0494e-06	565.33	151.07	1.9283e-06	7.8389e-06	210.57	65.107	44.203	17.485	8.6342e-06	27.649	0.003822	0.0067618	0.0019301	432.61	6.6253e-05	7.8399e-05	539.96	147.25	6.3053e-05	7.7864e-05	203.88	63.76	43.781	17.388	6.74e-05	27.247	104.877	-102.431	-126.878	-140.663	-72.416	26.737	-142.430	-136.559	182.082	8.131	-138.473	-135.532	-133.525	-129.065	-15.829	-131.919	-8191	255	
5565.265	1	1	0	0	0.23891	0.26214	0.20611	0.17578	0.30592	0.13658	0.12058	0.20518	0.37765	0.094759	0.23947	0.25946	0.26984	0.10558	0.098395	0.29759	-2.6042	-3.3042	-2.8438	-3.0917	-3.3	-2.75	-3.2083	-3.0312	-2.9167	-3.3917	-3.0292	-3.1021	-3.2771	-2.8292	-3.2917	-3.1771	78.960	-135.506	107.267	147.919	91.156	103.058	119.428	181.863	-112.025	-34.149	200.900	-96.841	187.181	158.522	21.883	204.205	0.0006609	0.00039499	6.0167e-05	443.97	6.8543e-06	7.6647e-06	563.14	152.56	6.6649e-06	6.4802e-06	211.03	65.799	44.266	17.711	2.7768e-06	27.899	0.0038558	0.0068647	0.0019143	432.55	6.5236e-05	7.7644e-05	541.67	148.06	6.4893e-05	7.7967e-05	205.31	64.414	44.099	17.556	6.7388e-05	27.559	108.475	-2.868	-16.465	-141.012	-88.075	182.942	-142.573	-136.504	-9.034	2.587	-138.413	-135.292	-133.407	-129.118	-25.400	-132.356	-8191	255	
5565.361	1	1	0	0	0.10661	0.18348	0.075237	0.19767	0.24852	0.17573	0.16906	0.18345	0.0945	0.035001	0.14758	0.15744	0.28762	0.29668	0.13834	0.10106	-2.3854	-3.3	-2.9792	-3.0938	-3.5396	-2.9354	-3.1896	-3.0354	-2.9104	-3.3708	-2.9792	-3.1396	-3.3042	-2.7687	-3.0583	-3.2479	-118.495	-113.110	200.832	-135.846	137.105	80.649	125.861	131.268	-66.715	42.619	-122.379	-113.321	-44.557	190.273	77.002	182.183	0.00034979	0.00024559	0.00023483	449.62	7.2577e-06	7.0093e-06	570.62	154.67	1.1112e-05	4.8222e-06	211.76	66.52	45.005	17.818	1.0957e-05	28.282	0.003904	0.0069512	0.0019528	437.59	6.6166e-05	7.8812e-05	547.06	149.38	6.5913e-05	7.9625e-05	207.46	65.055	44.491	17.701	7.0042e-05	27.955	106.116	-100.984	-101.090	-140.820	-18.379	31.496	-142.166	-136.456	-16.183	43.790	-138.943	-135.325	-133.691	-128.683	-41.369	-132.019	-8191	255	
5565.457	1	1	0	0	0.098151	0.25701	0.1504	0.12314	0.15209	0.17088	0.18979	0.24463	0.19197	0.049102	0.34488	0.27213	0.13715	0.12592	0.22577	0.087033	-2.4583	-3.3563	-3.0771	-3.0958	-3.3063	-2.8896	-3.2875	-3.3979	-2.8187	-3.2188	-3.1417	-3.0438	-3.2646	-2.9792	-3.1354	-3.4	73.610	28.314	11.756	-117.870	80.159	-94.283	59.983	-9.919	101.225	164.352	90.197	-132.984	35.829	-149.367	-7.403	-116.978	0.00060434	0.0011194	0.00024459	453.04	6.2258e-06	7.1904e-06	574.2	156.02	1.45e-05	4.0635e-06	215.57	67.234	45.011	18.028	5.4589e-06	28.196	0.0040096	0.0070147	0.0019835	440.1	6.7753e-05	7.9979e-05	551.89	150.56	6.7665e-05	7.9722e-05	209.47	65.744	44.834	17.851	7.0539e-05	27.97	112.201	-109.844	-50.223	-140.470	88.783	56.307	-142.196	-136.998	-11.348	-144.342	-138.925	-135.264	-133.825	-128.868	-61.249	-131.933	-8191	255	
5565.553	1	1	0	0	0.18943	0.11565	0.12218	0.12366	0.18931	0.26096	0.040321	0.10383	0.21902	0.17668	0.061248	0.078233	0.38602	0.1646	0.30578	0.08191	-2.5354	-3.1167	-3.1333	-3.0187	-3.3979	-3.0687	-3.2042	-3.1813	-2.7729	-3.1937	-3.2104	-2.7771	-3.5708	-2.9646	-2.9708	-3.4292	96.195	-24.087	159.052	-90.458	-4.814	-96.768	-88.547	97.265	-11.981	110.647	-144.144	4.855	-143.012	-109.828	102.070	-145.499	0.00065894	0.00051975	0.00022996	453.92	8.644e-06	6.1946e-06	574.56	155.19	5.0594e-06	3.4262e-06	213.63	66.991	44.96	17.794	3.0666e-06	27.943	0.0038775	0.0070068	0.0020124	441.46	6.6422e-05	7.9263e-05	552.12	150.24	6.5585e-05	7.9863e-05	208.26	65.192	44.675	17.73	7.1472e-05	27.68	116.714	-8.788	-132.794	-140.904	-26.213	1.451	-142.261	-136.614	-91.012	-5.312	-138.805	-135.563	-133.625	-128.898	-71.014	-131.890	-8191	255	
5565.674	1	1	0	0	0.12518	0.067226	0.19251	0.18942	0.25622	0.24347	0.10733	0.21879	0.097582	0.21736	0.19058	0.17677	0.19527	0.14966	0.029923	0.17652	-2.4604	-3.0875	-3.0458	-2.9708	-3.3917	-3.1875	-3.0312	-3.3146	-2.9104	-3.1021	-3.2229	-2.8708	-3.2542	-3.1333	-3.0938	-3.3937	-100.509	-131.289	115.402	96.108	190.201	145.298	119.211	35.782	190.192	115.186	165.899	192.113	121.506	165.733	-149.771	105.749	0.00084243	0.00042043	0.00013366	456.91	6.2359e-06	3.4877e-06	576.16	154.55	9.6112e-06	5.7559e-06	213.17	66.907	45.237	17.86	3.6346e-06	28.019	0.0040203	0.0071432	0.0020114	443.17	6.7015e-05	8.1088e-05	551.49	150.47	6.6311e-05	8.2022e-05	208.04	65.09	44.763	17.754	7.3439e-05	27.659	101.307	-115.570	-38.117	-140.808	-60.156	-68.890	-142.396	-137.255	191.612	110.624	-138.677	-135.886	-133.355	-128.650	-136.673	-132.158	-8191	255	
5565.745	1	1	0	0	0.15397	0.056733	0.24775	0.24985	0.52063	0.22021	0.091276	0.10878	0.27359	0.13963	0.16078	0.014825	0.20805	0.1476	0.15722	0.20049	-2.5917	-3.2271	-3.2562	-3.0521	-3.2479	-3.1312	-3.0875	-3.3792	-3.2083	-3.1417	-3.4583	-3.0354	-3.1292	-3.1167	-2.9417	-3.4396	88.543	-39.936	204.411	187.390	-76.965	73.273	93.127	123.606	126.850	176.154	-149.415	-45.040	125.561	68.105	81.496	49.470	0.00066342	0.0007592	8.1331e-05	454.76	7.5508e-06	3.2813e-06	578.92	153.88	7.84e-06	3.6995e-06	215.49	67.053	45.187	17.789	4.6873e-06	28.228	0.0040217	0.0072929	0.0020625	443.12	6.7581e-05	8.3196e-05	555.45	150.62	6.7736e-05	8.2683e-05	209.6	65.607	44.903	17.823	7.3871e-05	27.97	108.025	-74.204	-107.662	-140.990	9.500	5.449	-142.196	-136.656	27.268	0.762	-138.864	-135.694	-133.353	-128.573	-49.792	-131.755	-8191	255	
5565.866	1	1	0	0	0.087643	0.20934	0.23641	0.21201	0.037533	0.090784	0.33142	0.098278	0.32654	0.14489	0.13089	0.289	0.18118	0.25857	0.15766	0.2389	-2.6063	-3.1437	-3.4292	-3.1333	-3.4146	-3.3083	-3.1104	-3.2875	-2.8729	-3.2375	-3.3833	-2.9354	-3.2083	-3.3438	-2.7875	-3.5125	27.558	-6.697	-14.394	147.451	-72.958	80.379	113.414	179.889	-108.987	-38.986	25.394	146.507	107.228	171.316	-86.701	16.967	0.00054182	0.00088934	0.00011637	460.08	6.5869e-06	2.226e-06	579.65	157.06	3.6462e-06	3.8562e-06	216.02	67.506	45.654	18.048	4.9355e-06	28.214	0.0041032	0.0074155	0.0020608	446.66	6.8679e-05	8.3874e-05	558.36	152.15	6.832e-05	8.4197e-05	210.87	65.948	45.213	17.912	7.3633e-05	27.912	88.088	-98.881	-39.109	-140.929	74.522	-128.744	-142.588	-136.604	-32.930	7.989	-138.370	-135.460	-133.295	-128.699	-23.731	-131.964	-8191	255	
5565.962	1	1	0	0	0.073488	0.12123	0.16414	0.32529	0.16798	0.25338	0.30126	0.070286	0.034039	0.42727	0.23339	0.14367	0.12475	0.048097	0.20585	0.077942	-2.6146	-3.0146	-3.1375	-2.8563	-3.175	-3.3125	-2.8646	-3.3021	-3.0375	-3.0417	-3.2854	-3.0771	-3.1958	-3.2521	-2.7583	-3.3667	115.842	-17.021	-11.435	133.441	117.150	112.542	-111.904	-53.507	-26.619	-116.471	-141.818	191.319	121.561	13.561	130.320	70.046	0.0007927	0.00061114	0.00012308	461.59	1.3405e-06	6.3079e-07	577.39	156.04	1.0255e-05	6.8147e-06	215.42	67.042	45.25	17.82	2.7371e-06	27.901	0.0040984	0.007563	0.0020761	446.45	6.9485e-05	8.3122e-05	556.34	151.45	6.9569e-05	8.4076e-05	209.54	65.449	45.012	17.755	7.2177e-05	27.594	115.089	-67.199	-130.886	-141.126	48.448	73.916	-142.233	-137.026	-39.811	-24.093	-139.002	-135.632	-133.557	-128.800	81.409	-131.586	-8191	255	
5566.058	1	1	0	0	0.20451	0.096097	0.048089	0.03861	0.136	0.19817	0.24012	0.27221	0.17493	0.1812	0.11423	0.2317	0.23173	0.049208	0.082613	0.17209	-2.9	-3.1042	-3.4458	-3.0229	-3.2167	-3.4271	-2.8917	-3.2938	-3.1792	-3.0083	-3.2438	-3.0542	-3.175	-3.4646	-2.9896	-3.1688	58.248	51.628	123.235	86.346	42.174	-114.120	45.162	203.615	-56.134	-121.248	-11.053	144.013	16.787	-76.364	149.048	-33.762	0.00066495	0.00039808	0.00018372	459.43	1.0091e-05	4.6857e-06	574.67	156.21	8.5e-06	5.0702e-06	213.99	66.587	45.378	17.735	4.0686e-06	27.93	0.0040426	0.0073323	0.0020366	445.54	7.0426e-05	8.2e-05	553.19	151.6	6.8486e-05	8.3723e-05	209.05	65.346	45.264	17.681	7.3214e-05	27.602	102.474	35.990	-121.826	-140.903	-36.220	-16.334	-142.203	-136.686	-6.861	43.591	-138.787	-135.297	-133.524	-128.815	184.704	-131.652	-8191	255	
5566.155	1	1	0	0	0.060415	0.24094	0.20213	0.2034	0.17172	0.021155	0.05764	0.11524	0.36381	0.14024	0.13173	0.18109	0.084709	0.15401	0.13249	0.11233	-2.7479	-3.15	-3.2938	-3.2208	-3.0187	-3.3104	-2.9437	-3.0708	-3.2104	-3.0208	-3.3792	-3.0833	-2.9625	-3.45	-2.8167	-3.2083	146.355	51.939	-109.042	173.598	-59.426	127.159	138.307	-140.466	10.851	75.554	64.106	88.955	-42.400	166.685	24.074	-148.344	0.0005415	0.00039934	9.594e-05	460.59	7.5195e-06	3.0621e-06	580.89	157.34	2.086e-06	4.0529e-06	216.91	67.429	45.394	17.924	7.987e-06	28.424	0.0040768	0.0073261	0.0020441	446.74	7.0214e-05	8.4551e-05	557.57	152.43	6.9928e-05	8.5025e-05	210.91	66.065	45.293	17.854	7.4869e-05	27.998	85.799	-38.563	127.977	-141.107	67.876	-74.281	-142.205	-136.743	-6.156	10.566	-138.854	-135.269	-133.651	-129.153	-1.224	-131.417	-8191	255	
5566.273	1	1	0	0	0.36779	0.16097	0.17266	0.11942	0.2253	0.11379	0.15039	0.2564	0.098188	0.31087	0.055064	0.12881	0.25167	0.26963	0.14579	0.15034	-2.8583	-2.7896	-3.2271	-3.0792	-3.1354	-3.4583	-2.8375	-3.2708	-3.5333	-2.9125	-3.3458	-3.225	-2.9771	-3.3458	-3.0292	-3.1063	-87.996	-43.239	50.892	149.667	160.518	1.018	-31.345	-135.456	65.162	174.818	86.620	188.343	175.506	-8.822	203.326	131.528	0.00059418	0.0010047	4.5813e-05	461.31	8.4612e-06	9.7146e-06	580.55	157.82	1.5192e-05	5.2506e-06	216.79	67.548	45.891	17.813	6.3293e-06	28.174	0.0042414	0.0074777	0.0020746	447.72	7.0471e-05	8.5466e-05	559.31	152.94	7.0875e-05	8.5489e-05	211.55	66.291	45.441	17.773	7.3658e-05	27.769	114.471	-32.391	-26.263	-141.381	198.039	31.021	-142.267	-136.834	-88.796	52.515	-138.781	-135.740	-133.794	-128.679	-64.388	-132.066	-8191	255	
5566.370	1	1	0	0	0.10261	0.10932	0.059134	0.11527	0.016419	0.094969	0.083767	0.28376	0.2115	0.25741	0.18911	0.13311	0.13291	0.10975	0.19749	0.19484	-2.7562	-2.9667	-3.1521	-3.1292	-2.9188	-3.4021	-3.0104	-3.1354	-3.4583	-2.7979	-3.1813	-3.2687	-2.7333	-3.2188	-3.0042	-3.1271	71.533	90.582	-41.198	-50.862	35.429	160.484	172.661	103.854	55.437	-14.715	-149.132	139.669	163.055	-80.807	10.415	-43.266	0.00032387	0.00033974	3.9835e-05	458.1	6.8917e-06	4.6783e-06	575.03	156.55	5.3059e-06	3.8787e-06	213	66.957	45.446	17.634	1.0792e-05	27.688	0.0041347	0.0074109	0.0020376	444.79	6.9486e-05	8.1381e-05	553.5	152.07	6.7083e-05	8.1098e-05	208.52	65.53	45.037	17.511	7.0711e-05	27.281	95.775	-118.362	152.155	-141.143	5.698	0.400	-142.449	-136.825	-56.270	107.696	-138.728	-135.262	-133.665	-128.894	-88.231	-131.979	-8191	255	
5566.441	1	1	0	0	0.21299	0.10381	0.056922	0.003579	0.12658	0.2056	0.11245	0.14198	0.18552	0.14748	0.070433	0.13813	0.1667	0.15889	0.055477	0.31485	-3.0208	-3.075	-3.1875	-3.3667	-2.8563	-3.5354	-3.1792	-3.0208	-3.3604	-2.9833	-3.1458	-3.3	-2.8667	-3.4021	-3.0563	-3.0208	22.466	123.773	-105.865	18.744	148.326	184.911	131.621	-128.844	85.201	74.619	-72.266	115.501	180.258	-41.544	-103.823	-49.083	0.00067709	0.0002571	0.0001157	456.52	7.0203e-06	1.8963e-06	573.18	155.5	2.2113e-06	4.1656e-06	214.62	67.336	45.312	17.648	3.9265e-06	27.977	0.0039798	0.0070789	0.0019773	442.06	6.6607e-05	7.9984e-05	550.13	151.24	6.5635e-05	7.9477e-05	208.54	65.385	44.984	17.578	6.9934e-05	27.524	106.284	117.764	-57.758	-141.252	147.568	-37.432	-142.030	-136.478	-126.320	8.648	-138.387	-135.873	-133.052	-129.126	-11.204	-131.970	-8191	255	
5566.562	1	1	0	0	0.10319	0.037928	0.16073	0.08464	0.19035	0.028533	0.28666	0.23668	0.13839	0.2002	0.25584	0.146	0.17207	0.26821	0.10819	0.27487	-2.9583	-2.9813	-3.1521	-3.3083	-2.875	-3.1875	-3.0292	-2.8604	-3.3896	-3.0438	-3.1	-3.3396	-2.8354	-3.35	-3.2292	-2.8292	98.720	-87.291	-112.651	-78.100	60.290	-49.630	167.919	-147.471	101.982	-7.238	-135.418	193.115	-101.880	53.761	97.668	147.033	0.00053638	0.00055986	0.00012685	456.98	4.874e-06	6.1348e-06	573.04	156.06	4.5566e-06	8.2205e-06	214.23	67.072	45.976	17.831	1.1306e-06	28.116	0.0038348	0.0068144	0.0019436	442.11	6.5265e-05	7.5994e-05	550.19	151.42	6.4174e-05	7.8868e-05	209.24	65.688	45.234	17.731	6.8786e-05	27.81	110.378	-143.755	-6.609	-140.753	-10.194	12.461	-142.137	-136.969	-52.716	-5.748	-139.034	-135.353	-133.525	-128.979	19.681	-132.111	-8191	255	
5566.658	1	1	0	0	0.15914	0.15581	0.034162	0.18036	0.050735	0.12792	0.31703	0.16119	0.065188	0.18409	0.042413	0.22376	0.33262	0.1157	0.26388	0.057468	-2.9167	-3.0479	-3.1521	-3.4396	-3.0604	-3.1979	-3.1667	-2.9542	-3.3479	-3.0854	-3.1271	-3.2917	-3.0729	-3.2208	-3.3167	-2.85	-15.135	141.207	-45.702	139.242	-143.340	-115.899	169.374	105.408	75.629	172.606	151.828	144.103	-136.393	-48.763	-149.677	199.445	0.00047665	0.0003618	0.00013331	457.07	4.2632e-06	1.8659e-06	573.94	157.95	1.4017e-05	3.8885e-06	217.15	67.935	46.359	17.876	1.2845e-06	28.096	0.0038262	0.0070238	0.0019285	443.97	6.4535e-05	7.7682e-05	553.57	153	6.4641e-05	7.9086e-05	211.26	66.175	45.675	17.818	7.1685e-05	27.769	96.731	-29.858	-92.666	-141.182	-24.861	-4.207	-142.246	-136.657	7.450	0.821	-139.144	-135.908	-133.847	-128.397	202.029	-131.871	-8191	255	
5566.754	1	1	0	0	0.1638	0.12803	0.39019	0.07462	0.097558	0.31169	0.16282	0.019741	0.11928	0.07598	0.28383	0.19916	0.16391	0.080195	0.025204	0.2525	-2.7562	-3.0583	-2.975	-3.3979	-3.0917	-3.0917	-3.3896	-3.0896	-3.4062	-3.2313	-2.8292	-3.4875	-3.1354	-3.1875	-3.3979	-2.9667	-58.014	135.525	-109.073	197.170	-134.984	18.229	-100.728	-79.671	184.118	69.144	110.496	103.094	-148.885	17.234	-65.989	185.001	0.00062505	0.00037264	6.7306e-05	462.92	8.649e-06	5.5442e-06	577.77	158.56	4.2971e-06	3.5815e-06	214.86	66.947	46.146	17.657	5.9017e-06	27.941	0.0039094	0.0072337	0.001977	447.35	6.6735e-05	7.9541e-05	552.86	152.97	6.5501e-05	8.0334e-05	209.78	65.726	45.536	17.61	7.2438e-05	27.436	96.830	-67.934	148.454	-140.993	98.028	-5.260	-142.409	-136.777	20.450	52.302	-138.664	-135.387	-133.407	-129.153	32.732	-131.535	-8191	255	
5566.850	1	1	0	0	0.12043	0.27378	0.064967	0.10585	0.19634	0.14468	0.36419	0.27575	0.25359	0.23312	0.15651	0.21025	0.22247	0.1358	0.11349	0.20898	-2.7396	-3.0104	-2.8229	-3.4646	-2.9417	-3.0729	-3.4958	-2.8396	-3.1292	-3.2854	-2.8604	-3.4083	-3.0979	-2.9771	-3.5021	-3.0292	23.891	122.018	5.766	56.468	40.063	-77.180	185.718	-146.971	-108.394	61.569	186.536	158.985	135.880	73.055	130.128	34.593	0.0005188	0.00064065	0.00027157	459.1	1.2871e-05	5.3721e-06	572.4	156.95	5.3672e-06	2.1056e-06	214.34	67.112	45.912	17.616	9.6768e-06	27.429	0.0039383	0.0071491	0.0020058	446.2	6.8459e-05	8.0538e-05	550.89	152.6	6.6417e-05	8.1681e-05	209.46	65.548	45.618	17.556	7.1462e-05	27.189	109.022	20.555	-81.302	-140.820	19.914	4.629	-142.599	-136.944	-36.516	58.631	-138.633	-135.694	-134.168	-129.070	-74.505	-132.072	-8191	255	
5566.971	1	1	0	0	0.095834	0.15846	0.1848	0.14998	0.13693	0.21016	0.1665	0.064247	0.28604	0.062609	0.24381	0.20263	0.16039	0.19005	0.13358	0.20419	-2.7687	-3.0833	-2.85	-3.3167	-3.1354	-3.1708	-3.3354	-2.9938	-3.2604	-3.2062	-2.7542	-3.4917	-3.2354	-3.1312	-3.3042	-2.9896	-62.077	99.637	-53.991	-134.172	-32.366	-23.584	-124.672	-129.842	-84.262	106.802	202.253	112.017	23.319	127.451	-154.973	187.484	0.00057978	0.00058085	0.00019582	460.77	1.6517e-06	4.147e-06	578.06	157.22	5.4564e-06	2.1781e-06	213.57	67.215	46.408	17.42	7.6211e-06	27.236	0.003977	0.0071783	0.0020194	446.34	6.8702e-05	8.1929e-05	553.61	152.83	6.6032e-05	8.1234e-05	209.48	65.68	45.972	17.47	7.2406e-05	27.035	117.916	-38.734	-79.606	-140.794	93.832	63.330	-142.477	-137.126	-89.617	193.959	-138.966	-135.795	-133.779	-128.014	32.059	-131.849	-8191	255	
5567.043	1	1	0	0	0.16435	0.065853	0.12642	0.36706	0.10613	0.037299	0.12031	0.16967	0.14248	0.12623	0.194	0.11317	0.10063	0.21073	0.10614	0.35392	-2.5417	-3.2292	-2.8021	-3.3333	-3.1521	-2.7792	-3.475	-3.0667	-3.0792	-3.3167	-2.8896	-3.2292	-3.0771	-2.9104	-3.1312	-2.975	-98.745	17.491	-68.218	101.102	34.322	-112.873	87.418	-77.661	185.217	71.760	-89.376	-87.595	157.854	60.643	-44.424	-112.361	0.00049298	0.00024205	0.00024823	463.44	1.2388e-05	4.2975e-06	575.42	158.62	4.2984e-06	6.4098e-06	214.73	67.24	46.508	17.582	3.7939e-06	27.376	0.0040921	0.0073295	0.0020494	448.09	6.8623e-05	8.1399e-05	553.37	153.12	6.6587e-05	8.226e-05	210.23	65.796	46.074	17.515	7.1974e-05	27.109	110.934	-43.682	-143.274	-141.072	22.749	-28.519	-142.128	-136.899	128.205	15.476	-138.575	-136.086	-134.109	-128.832	72.320	-132.077	-8191	255	
5567.139	1	1	0	0	0.18909	0.18924	0.15433	0.14735	0.24456	0.43019	0.044395	0.078626	0.15823	0.11007	0.34192	0.18326	0.19075	0.26397	0.073773	0.17026	-2.725	-3.3187	-3.0062	-3.3271	-3.2229	-2.7417	-3.4104	-2.9625	-3.0979	-3.4562	-3.05	-3.2396	-3.1813	-2.9625	-3.5271	-3.3187	-59.867	-41.427	148.146	87.937	101.477	66.676	159.092	103.498	169.841	-22.345	167.656	38.678	-76.425	-125.366	-78.205	60.075	0.00052289	0.00087702	0.00014924	461.66	4.9626e-06	6.6251e-06	571.22	156.12	1.6407e-06	2.4352e-06	213.9	66.427	46.246	17.382	3.806e-06	26.797	0.0040246	0.0072121	0.0020411	448	6.8324e-05	8.2728e-05	549.4	152.45	6.6461e-05	8.0963e-05	207.66	64.971	45.63	17.356	7.0708e-05	26.726	113.045	96.377	-52.516	-141.264	-38.393	50.105	-142.468	-136.663	-10.647	30.999	-139.166	-135.282	-134.190	-128.915	106.789	-132.156	-8191	255	
5567.235	1	1	0	0	0.13234	0.21434	0.1232	0.14096	0.25411	0.083231	0.13823	0.18714	0.20873	0.25065	0.27866	0.2647	0.042249	0.068121	0.2416	0.08298	-2.6562	-3.3229	-2.9167	-3.1833	-3.3458	-2.95	-3.5396	-3.2125	-3.1937	-3.45	-3.0563	-3.1729	-3.2375	-2.8812	-3.1937	-3.1458	18.352	-24.965	-149.228	161.555	16.052	6.727	23.755	156.078	-138.924	184.653	-144.054	-112.872	7.382	141.114	-51.408	21.751	0.000616	0.00016646	0.00024077	456.82	2.9723e-06	4.8796e-06	568.14	157.16	1.057e-05	5.8131e-06	213.92	66.611	45.965	17.468	8.4834e-06	27.036	0.0039561	0.0072871	0.002022	444	6.8802e-05	8.1485e-05	546.88	152	6.7797e-05	8.2455e-05	207.75	65.078	45.559	17.361	7.2325e-05	26.802	112.428	-31.564	-35.165	-141.395	22.457	107.449	-142.332	-136.817	-65.946	-26.727	-138.863	-135.795	-133.878	-128.789	-3.363	-132.019	-8191	255	
5567.354	1	1	0	0	0.088193	0.096319	0.35023	0.087097	0.17416	0.17545	0.35506	0.1722	0.13384	0.18985	0.36192	0.069353	0.25617	0.048454	0.23812	0.20024	-2.7083	-3.4104	-3.0062	-3.2313	-3.4708	-2.9729	-3.4792	-3.1729	-3.0021	-3.3667	-3.1167	-3.25	-3.3458	-3.1312	-3.2542	-3.0687	47.861	-47.188	-137.024	171.506	-9.217	152.160	0.083	-123.889	48.229	-30.744	111.014	98.827	181.272	75.038	-69.827	61.971	0.00067424	0.0003421	6.5064e-05	457.87	4.9026e-06	8.1218e-06	571.91	157.19	7.6396e-06	5.2473e-06	214	66.831	46.062	17.452	4.7021e-06	27.118	0.0039974	0.0072635	0.0020335	445.24	6.8323e-05	8.2577e-05	549.23	152.62	6.7434e-05	8.178e-05	207.83	65.26	45.7	17.384	7.2182e-05	26.862	98.851	-14.255	42.137	-140.881	-76.816	-74.387	-142.335	-137.181	-74.214	68.070	-139.323	-135.963	-134.090	-128.926	60.340	-132.289	-8191	255	
5567.450	1	1	0	0	0.2708	0.19496	0.19058	0.069033	0.23087	0.038517	0.32336	0.1954	0.12337	0.14102	0.14574	0.16166	0.067415	0.17337	0.12175	0.12326	-2.4104	-3.3708	-2.9333	-2.8667	-3.4625	-2.9667	-3.275	-3.3625	-2.95	-3.35	-3.2792	-3.0021	-3.3208	-2.9979	-3.1188	-3.2479	158.907	-20.662	7.034	170.859	38.122	-104.905	54.251	148.640	-1.329	156.187	-150.332	106.174	187.458	198.969	-150.523	-73.685	0.00042743	0.00054219	0.00014739	461.67	3.062e-06	7.364e-06	571.51	156.02	2.4247e-06	2.7091e-06	213.53	66.872	46.212	17.396	4.2348e-06	26.735	0.0040806	0.0072519	0.0020902	448.38	6.8685e-05	8.1774e-05	552.25	152.92	6.8291e-05	8.1143e-05	208.92	65.427	45.883	17.427	7.4286e-05	26.772	79.195	-46.934	175.886	-140.790	-121.774	-19.616	-142.592	-137.328	47.748	-9.172	-138.818	-135.593	-133.469	-128.469	-26.884	-132.068	-8191	255	
5567.546	1	1	0	0	0.14519	0.19758	0.070801	0.11336	0.15187	0.15423	0.18718	0.011455	0.083862	0.048443	0.18055	0.12955	0.13368	0.16559	0.083523	0.20016	-2.5146	-3.2458	-3.125	-2.9604	-3.4688	-2.9313	-3.35	-3.2812	-2.95	-3.3896	-3.1833	-2.9979	-3.5229	-2.9854	-3.0146	-3.2354	-91.382	-27.677	106.968	77.198	-151.383	9.184	128.754	-14.661	-46.421	-114.283	78.622	182.966	90.517	141.343	-38.914	168.705	0.00054299	0.00026052	0.00012243	464.54	7.5619e-06	8.8857e-06	567.3	157.61	7.1238e-06	4.6701e-06	214.21	66.465	46.161	17.313	4.6731e-06	26.506	0.0040735	0.0074335	0.0020955	449.53	6.9736e-05	8.3936e-05	550.24	152.86	6.9187e-05	8.2918e-05	208.06	65.079	45.766	17.305	7.2305e-05	26.507	97.388	78.590	-25.065	-141.019	2.737	-9.767	-142.254	-136.985	-66.841	-11.862	-139.027	-135.532	-133.705	-128.618	-50.949	-131.530	-8191	255	
5567.642	1	1	0	0	0.14135	0.090886	0.21155	0.21669	0.26821	0.13405	0.27745	0.30631	0.070298	0.12902	0.1417	0.039924	0.19438	0.23164	0.13016	0.15834	-2.5896	-3.0708	-3.2729	-2.8396	-3.2646	-3.05	-2.9896	-3.45	-3.1208	-3.2333	-3.3917	-2.9083	-3.3021	-3.2	-2.9792	-3.4458	-60.412	7.110	132.674	-146.352	188.739	143.369	-139.129	-138.894	142.784	99.074	-152.807	-74.092	111.240	172.678	188.800	-57.281	0.0006094	0.0003524	0.0001689	459.69	9.8121e-06	6.4233e-06	565.78	156.78	5.6436e-06	3.8099e-06	211.38	65.927	45.524	17.409	3.8562e-06	26.792	0.0040305	0.0073179	0.0020462	445.56	6.7566e-05	8.1844e-05	547.8	152.2	6.9192e-05	8.2621e-05	206.92	64.679	45.528	17.345	7.3857e-05	26.679	109.436	-99.933	-58.217	-140.846	-104.979	-63.194	-142.724	-136.975	84.903	-131.341	-138.415	-135.776	-133.880	-128.993	-0.119	-131.872	-8191	255	
5567.738	1	1	0	0	0.38279	0.11724	0.18357	0.01201	0.14599	0.20304	0.20039	0.052408	0.13781	0.066002	0.13028	0.12435	0.13194	0.28402	0.14864	0.079669	-2.2458	-3.1125	-3.2604	-2.8896	-3.3771	-3.4521	-3.0333	-3.4542	-3.0854	-3.2896	-3.4938	-2.8937	-3.3917	-3.175	-3.0604	-3.4625	140.222	-32.786	-25.124	-47.739	192.979	185.793	88.830	123.163	-62.665	-129.778	178.008	184.535	-42.398	-81.486	23.049	-54.241	0.00058925	0.00064612	3.4886e-05	459.92	4.857e-06	3.764e-06	570.02	156.01	5.2666e-06	4.6702e-06	212.35	66.871	46.12	17.422	3.4085e-06	26.83	0.0040704	0.0073534	0.002081	447.2	6.9217e-05	8.3265e-05	549.65	152.63	6.9857e-05	8.3827e-05	208.09	65.45	45.941	17.454	7.5434e-05	26.735	110.949	-70.308	90.137	-140.861	28.100	-151.939	-142.035	-136.724	140.638	0.767	-139.115	-135.692	-134.124	-128.987	-105.777	-132.031	-8191	255	
5567.835	1	1	0	0	0.18444	0.26115	0.095783	0.24934	0.34145	0.22847	0.078494	0.18512	0.027808	0.10274	0.11125	0.18301	0.050361	0.19798	0.0551	0.10357	-2.5292	-3.1083	-3.2292	-2.9813	-3.3458	-3.3333	-2.9875	-3.2521	-2.9375	-2.9979	-3.4083	-2.8667	-3.1646	-3.1312	-2.9188	-3.3063	2.708	187.732	65.818	165.755	73.999	-69.751	10.005	157.671	-106.655	121.289	15.038	19.452	77.011	-15.750	139.251	196.325	0.00063952	0.00048919	4.3776e-05	461.89	3.6342e-06	6.9119e-06	574.93	158.03	3.4254e-06	4.7936e-06	212.47	66.407	46.054	17.61	5.9957e-06	27.091	0.0041153	0.0073654	0.0021074	448.42	6.9152e-05	8.3382e-05	553.26	153.59	6.9218e-05	8.435e-05	208.82	65.451	46.033	17.587	7.3818e-05	26.96	112.965	-132.775	-141.168	-141.133	-97.705	-31.950	-142.526	-136.586	179.674	-52.155	-139.141	-135.590	-133.956	-128.802	-30.977	-131.720	-8191	255	
5567.955	1	1	0	0	0.10528	0.21808	0.35939	0.20568	0.021566	0.17543	0.22434	0.17532	0.22128	0.093194	0.32086	0.062772	0.1064	0.015102	0.11334	0.15701	-2.6896	-2.9167	-3.35	-2.8583	-3.125	-3.2979	-2.9292	-3.2854	-2.9729	-3.025	-3.4229	-2.8688	-3.1063	-3.2979	-2.8833	-3.3563	-78.215	173.589	71.375	-88.598	-46.420	92.408	-136.919	119.809	3.101	22.954	104.685	148.462	63.211	134.197	140.021	167.518	0.0006367	0.00047521	0.00010903	462.29	5.4198e-06	7.5926e-06	572.24	157.63	1.928e-06	3.378e-06	213.12	66.255	46.264	17.362	1.6642e-06	26.971	0.0041248	0.007329	0.002095	449.98	6.9249e-05	8.3171e-05	549.92	153.23	6.7568e-05	8.314e-05	207.93	65.144	45.823	17.407	7.2699e-05	26.763	99.666	-15.259	-86.300	-140.980	-46.135	-77.219	-142.642	-136.737	-80.086	201.953	-139.154	-135.840	-133.723	-128.751	21.986	-132.128	-8191	255	
5568.051	1	1	0	0	0.21196	0.04561	0.11063	0.14962	0.14171	0.34971	0.18355	0.073978	0.39035	0.19524	0.27296	0.3248	0.088754	0.08754	0.024926	0.11707	-2.6937	-2.9062	-3.1875	-2.8438	-3.225	-3.4083	-2.7604	-3.1771	-3.1688	-2.8167	-3.4875	-2.9333	-3.1229	-3.3083	-2.8021	-3.2042	-126.228	185.545	-13.376	154.186	109.573	-78.490	197.039	186.841	-132.106	-53.969	187.862	-126.576	6.310	168.528	-118.377	180.337	0.00062111	0.00052753	0.00013211	461.68	8.3038e-06	3.808e-06	569.05	155.84	9.8269e-06	2.6783e-06	211.84	66.348	46.314	17.396	7.482e-06	26.813	0.0040861	0.0071883	0.0020285	447.4	6.7751e-05	8.1087e-05	547.81	152.17	6.7707e-05	8.2489e-05	207.56	64.878	45.876	17.432	7.3652e-05	26.721	115.233	-81.909	-21.131	-140.886	-17.281	33.641	-142.192	-136.961	-8.798	2.979	-138.958	-135.732	-133.690	-128.681	-29.325	-131.839	-8191	255	
5568.146	1	1	0	0	0.11596	0.15808	0.31845	0.12471	0.1305	0.021635	0.13606	0.3202	0.067747	0.012642	0.12027	0.10509	0.33591	0.058823	0.088297	0.082272	-2.5979	-2.7812	-3.3208	-3.2	-3.1188	-3.3875	-2.8417	-3.1729	-3.2	-2.9646	-3.4083	-3.1646	-2.9958	-3.4167	-2.9604	-3.1667	-111.258	129.340	-8.463	-105.686	-42.043	144.253	-14.110	143.062	-41.634	119.536	-113.260	-44.851	-2.992	-57.703	-130.189	161.277	0.0003719	0.00036544	0.0001592	459.41	1.2775e-05	5.1786e-06	569.12	157.03	1.0988e-05	7.5525e-06	212.23	66.318	46.132	17.473	2.3285e-06	27.047	0.0040574	0.0073177	0.002002	447.07	6.8387e-05	8.254e-05	549.3	153.19	6.8002e-05	8.2407e-05	208.12	65.24	46.024	17.492	7.3198e-05	26.862	106.627	-60.831	-86.461	-141.029	-9.812	-130.740	-142.280	-137.137	-105.215	-40.576	-139.300	-135.708	-133.776	-128.843	-123.993	-132.059	-8191	255	
5568.266	1	1	0	0	0.083002	0.18123	0.020727	0.12432	0.13956	0.10392	0.14597	0.25111	0.27589	0.22279	0.16742	0.30244	0.032615	0.29376	0.21144	0.17795	-2.8667	-2.7458	-3.3729	-2.9333	-3.0167	-3.5083	-2.9604	-3.3063	-3.2333	-2.8563	-3.4437	-3.225	-2.9354	-3.3792	-2.9229	-3.1021	152.744	-9.389	66.120	137.254	158.139	82.404	49.620	86.791	70.313	196.693	172.025	-127.148	37.396	54.965	-117.887	103.747	0.0006574	0.00045351	0.00026729	462.68	5.7072e-06	8.8795e-06	572.93	158.64	1.4156e-05	3.2611e-06	214.35	67.105	46.536	17.465	3.5558e-06	27.219	0.004052	0.0072909	0.0020709	450.44	6.9874e-05	8.2684e-05	551.5	154.11	6.8653e-05	8.4214e-05	209.52	65.808	46.341	17.559	7.368e-05	26.986	104.637	-46.343	-45.737	-141.111	-29.709	38.608	-142.289	-136.663	18.398	131.147	-138.967	-135.676	-134.082	-128.879	27.499	-132.130	-8191	255	
5568.338	1	1	0	0	0.11977	0.17679	0.146	0.1976	0.15284	0.062964	0.030858	0.10301	0.1454	0.41272	0.1793	0.081122	0.23098	0.10532	0.13828	0.058763	-2.8896	-2.7812	-3.2417	-3.1458	-2.9979	-3.3854	-3.0438	-3.1792	-3.3646	-3.0146	-3.3083	-3.2042	-2.975	-3.2375	-3.1854	-3.0771	127.955	166.475	-50.667	126.528	110.231	124.115	-142.089	30.633	11.509	158.110	134.839	-6.347	124.326	104.666	-154.522	37.833	0.0006186	0.0011606	0.00016943	464.07	8.7374e-06	4.8723e-06	568.57	158.3	2.942e-06	4.8925e-06	212.04	66.877	46.386	17.479	9.4521e-06	26.855	0.0041173	0.0074939	0.0020808	451.16	7.0243e-05	8.284e-05	550.03	154.43	6.8519e-05	8.3866e-05	207.73	65.421	46.207	17.494	7.4433e-05	26.647	106.474	-19.444	-59.507	-141.060	-26.719	13.081	-142.517	-136.678	-105.092	35.174	-138.473	-136.112	-133.490	-128.531	-145.685	-131.953	-8191	255	
5568.434	1	1	0	0	0.1803	0.1422	0.18539	0.20603	0.12122	0.10196	0.14859	0.16199	0.21058	0.11742	0.21572	0.1792	0.1095	0.086272	0.14586	0.17887	-2.975	-2.925	-3.1833	-3.2521	-2.9125	-3.3167	-3.1542	-3.0896	-3.5042	-2.9375	-3.2271	-3.3438	-2.9604	-3.3521	-3.3417	-3.0604	-122.890	-92.695	152.495	-54.939	115.379	158.729	178.520	147.333	46.667	66.575	-138.709	50.529	194.654	76.716	100.203	190.289	0.00045304	0.00050804	0.00012607	463.89	3.4802e-06	3.8521e-06	569	157.95	9.4946e-07	8.1869e-06	212.63	66.526	46.28	17.566	2.3101e-06	26.567	0.0040731	0.0072002	0.0020305	449.15	6.9261e-05	8.3494e-05	546.97	153.27	6.8737e-05	8.4088e-05	207.55	65.131	46.093	17.516	7.3364e-05	26.594	114.080	-47.029	-85.808	-140.777	102.898	-53.459	-142.398	-136.833	90.898	2.647	-139.035	-136.209	-133.735	-128.612	9.372	-131.755	-8191	255	
5568.530	1	1	0	0	0.12265	0.1839	0.26683	0.33256	0.2529	0.22107	0.19183	0.024393	0.12972	0.11733	0.11787	0.18968	0.23135	0.19583	0.19276	0.14365	-2.9833	-3.0333	-3.1542	-3.0146	-2.85	-3.3875	-3.1562	-2.8792	-3.3833	-2.875	-3.3458	-3.1833	-2.8625	-3.0271	-3.3042	-2.8521	-9.509	131.864	-2.601	160.962	72.552	29.144	148.475	-40.963	-19.187	124.586	-144.296	-24.344	199.370	45.808	-21.857	78.275	0.00053693	0.00032825	0.00038569	464.29	1.2254e-05	3.5998e-06	569.9	158.79	1.773e-06	4.0366e-06	212.52	66.732	46.835	17.743	6.4364e-06	26.945	0.0040867	0.0075486	0.0021098	451.15	6.9993e-05	8.4018e-05	549.48	154.06	7.0317e-05	8.625e-05	208.02	65.263	46.364	17.579	7.5105e-05	26.802	109.097	-99.519	-53.383	-141.074	-79.453	31.871	-143.050	-136.730	95.911	109.078	-139.126	-135.659	-133.545	-128.701	-31.702	-131.708	-8191	255	
5568.651	1	1	0	0	0.13642	0.20979	0.33294	0.35049	0.027117	0.2762	0.27368	0.18316	0.12256	0.055922	0.15908	0.058291	0.10274	0.077973	0.17399	0.1151	-2.9062	-3.1	-3.1146	-3.2313	-2.8688	-3.0979	-3.1479	-2.9396	-3.3104	-2.9708	-3.0583	-3.4521	-2.875	-3.1562	-3.1729	-3.0312	-8.262	132.479	85.229	-133.999	-136.303	-149.168	166.994	151.136	86.498	-100.667	169.005	122.701	-141.547	-65.369	-16.299	159.729	0.00056782	0.00070918	9.7051e-05	464.34	1.0906e-05	1.2181e-06	573.15	158.37	1.0884e-05	8.0863e-06	213.85	66.496	46.737	17.565	9.2268e-06	27.022	0.004137	0.0074314	0.0021172	453.04	7.0485e-05	8.3863e-05	552.58	154.39	6.9943e-05	8.6093e-05	209.9	65.742	46.535	17.595	7.5886e-05	26.966	93.196	-77.985	-109.514	-141.025	144.108	191.789	-142.409	-136.806	-100.652	-68.880	-139.101	-135.811	-134.392	-129.049	20.130	-131.851	-8191	255	
5568.747	1	1	0	0	0.13146	0.25916	0.1132	0.20919	0.020917	0.11896	0.23739	0.36981	0.35177	0.01873	0.13939	0.089125	0.12772	0.20306	0.16512	0.23512	-2.8812	-3.0917	-2.9917	-3.3208	-3.0021	-3.1854	-3.275	-2.7896	-3.3167	-3.2188	-3.0563	-3.4146	-2.9979	-3.0812	-3.4896	-2.8333	-58.763	123.087	-73.622	146.684	40.934	-56.930	95.563	125.826	-33.146	81.614	129.634	7.781	85.345	182.341	-38.876	149.875	0.0005512	0.0011146	0.00013876	465.43	6.9878e-06	8.4399e-06	576.09	159.14	3.2167e-06	2.609e-06	212.32	66.502	46.571	17.501	2.0965e-06	26.654	0.00413	0.0074891	0.0021133	452.7	7.0361e-05	8.3822e-05	552.69	154.2	6.9841e-05	8.4756e-05	208.57	65.197	46.226	17.486	7.4408e-05	26.608	89.901	-39.106	-5.608	-141.084	36.150	158.842	-142.489	-136.918	174.339	-42.717	-138.845	-135.572	-133.651	-128.979	-16.192	-131.846	-8191	255	
5568.843	1	1	0	0	0.085944	0.04941	0.10275	0.26186	0.27375	0.10543	0.17596	0.066363	0.22285	0.13656	0.35064	0.13793	0.11704	0.20951	0.0085749	0.11111	-2.7271	-3.1063	-2.7917	-3.35	-3.0604	-3.1437	-3.4083	-2.925	-3.2687	-3.1604	-2.9271	-3.1854	-3.1292	-3.0729	-3.4437	-2.9125	44.320	-154.585	117.389	176.991	75.547	86.491	111.509	144.428	-84.983	-1.620	150.259	-105.404	183.128	-59.006	-102.081	48.500	0.00046709	0.00038005	0.00021864	463.65	2.1533e-06	3.9974e-06	569.69	158.19	2.4552e-06	7.3025e-06	211.88	66.145	46.047	17.519	4.1411e-06	26.546	0.0040796	0.007503	0.0020647	450.66	7.0029e-05	8.2687e-05	547.94	153.29	6.8391e-05	8.5021e-05	206.9	64.84	46.179	17.466	7.3648e-05	26.575	117.262	-109.098	-48.878	-140.772	56.287	30.995	-142.462	-136.922	67.918	83.390	-138.856	-135.569	-133.712	-128.700	-83.413	-131.967	-8191	255	
5568.915	1	1	0	0	0.068198	0.19926	0.12363	0.16756	0.20586	0.043507	0.083493	0.2192	0.054887	0.18831	0.17029	0.20258	0.22347	0.18608	0.20569	0.21932	-2.7	-3.1354	-2.7833	-3.4833	-3.1937	-2.9354	-3.3646	-2.8563	-3.1083	-3.3563	-2.9375	-3.3333	-3.1375	-2.7396	-3.4958	-2.8146	41.154	71.642	-149.616	58.975	168.908	122.001	29.264	148.264	-98.791	106.246	193.769	-141.084	89.376	149.988	-123.472	-140.697	0.00062445	0.00074154	0.00010863	462.7	6.7628e-06	2.2799e-06	567.12	158.43	5.0516e-06	3.9114e-06	212.88	66.426	46.322	17.442	1.9056e-06	26.776	0.0040868	0.0075247	0.0020936	450.35	6.9368e-05	8.3991e-05	548.88	154.14	6.7269e-05	8.292e-05	208.26	65.236	46.257	17.458	7.4174e-05	26.688	113.982	-108.839	-67.700	-140.935	197.283	56.118	-142.433	-136.967	57.575	6.261	-138.942	-135.692	-133.859	-128.831	-61.831	-132.084	-8191	255	
5569.036	1	1	0	0	0.099411	0.18766	0.074513	0.072801	0.41342	0.068138	0.026312	0.1589	0.093903	0.14364	0.25064	0.18301	0.24022	0.14007	0.12753	0.20669	-2.5521	-3.1833	-2.8521	-3.3729	-3.1229	-3.0312	-3.3021	-2.975	-3.025	-3.2146	-2.7562	-3.2708	-3.0896	-2.6937	-3.2958	-3.0583	168.117	155.031	183.683	139.587	181.729	129.297	-22.247	-111.002	12.499	203.450	202.855	125.192	140.585	92.641	7.571	57.367	0.00052408	0.00054636	2.7855e-05	464.98	2.5554e-06	7.9925e-06	569.94	158.11	1.3732e-05	6.6646e-06	212.43	66.473	46.947	17.645	1.8492e-06	27.163	0.0040373	0.0074871	0.0020981	451.56	7.0109e-05	8.4314e-05	551.03	154.41	6.8686e-05	8.5162e-05	208.71	65.473	46.675	17.668	7.2891e-05	26.971	100.239	-35.172	158.766	-141.181	136.911	180.854	-142.246	-137.299	-3.426	3.156	-138.792	-135.790	-133.949	-128.701	-60.420	-131.210	-8191	255	
5569.132	1	1	0	0	0.15716	0.2115	0.045615	0.13292	0.13189	0.21783	0.11305	0.21891	0.25972	0.19584	0.21126	0.19122	0.03854	0.11491	0.17485	0.08101	-2.6396	-3.2646	-2.6521	-3.0979	-3.0625	-2.9771	-3.3146	-3.1271	-3.0583	-3.4938	-2.9667	-3.2625	-3.2833	-2.95	-3.2229	-3.1333	-7.477	57.278	55.839	-148.250	56.831	-88.312	138.890	42.267	-89.631	153.635	154.735	166.812	139.275	13.543	83.290	4.482	0.0006049	0.00054815	0.00011892	461.22	2.3691e-06	5.925e-06	569.87	158.97	5.9778e-06	2.3368e-06	212.16	66.353	46.269	17.576	9.9297e-06	26.997	0.0040777	0.0074031	0.0020778	451.77	7.0188e-05	8.2452e-05	549.42	153.92	6.8509e-05	8.312e-05	208.16	65.339	46.374	17.591	7.2982e-05	26.766	107.729	-17.574	-121.473	-141.146	-35.452	-81.135	-142.524	-136.663	71.091	-77.062	-138.900	-135.405	-133.768	-128.866	20.682	-132.011	-8191	255	
5569.228	1	1	0	0	0.14795	0.10082	0.20411	0.25621	0.13644	0.15748	0.41618	0.11163	0.077333	0.17617	0.15894	0.2573	0.082154	0.046714	0.23755	0.28028	-2.5854	-3.5187	-2.8375	-3.2521	-3.3625	-2.8875	-3.4021	-3.0583	-3.0563	-3.4	-2.9833	-3.1417	-3.2979	-2.8896	-3.1937	-3.1875	164.288	-54.398	66.385	120.304	33.967	-46.301	106.935	173.473	153.524	-128.947	86.134	203.895	99.258	-11.512	71.516	118.746	0.00073751	0.00060166	0.00020586	464.08	1.5522e-06	8.4344e-06	568.38	159.17	7.2121e-06	5.9753e-06	212.54	66.51	46.607	17.646	2.6112e-06	26.93	0.0040726	0.0073475	0.0020704	450.18	6.9881e-05	8.4084e-05	547.64	153.88	6.8312e-05	8.3789e-05	207.25	65.223	46.287	17.629	7.2564e-05	26.76	109.290	-47.140	-94.284	-140.721	42.682	-77.864	-142.736	-136.777	-80.875	-63.476	-139.081	-135.794	-133.832	-129.298	149.539	-131.906	-8191	255	
5569.347	1	1	0	0	0.34075	0.33395	0.22798	0.23912	0.28881	0.17478	0.09902	0.12862	0.22348	0.059603	0.2469	0.081389	0.024183	0.089084	0.070436	0.17166	-2.6667	-3.3708	-2.9729	-3.1792	-3.1354	-2.6667	-3.1813	-3.125	-2.7729	-3.4562	-3	-3.1021	-3.3271	-2.8208	-3.1917	-3.1854	169.328	40.514	102.664	-150.672	66.368	-102.962	-151.757	186.508	12.932	-40.362	-141.573	16.504	147.289	68.824	-36.059	-57.757	0.00058968	0.00071889	0.0001628	464.55	4.9217e-06	3.3328e-06	569.51	158.89	7.5461e-06	4.283e-06	213.56	67.226	46.563	17.696	8.0597e-06	26.801	0.0040374	0.007255	0.0020515	451.13	6.9092e-05	8.2751e-05	548.46	154.31	6.7716e-05	8.2921e-05	208.76	65.664	46.356	17.718	7.217e-05	26.864	115.053	-92.509	-119.585	-141.203	-53.491	161.178	-142.403	-136.923	-23.734	-47.320	-139.069	-135.973	-134.195	-129.166	-21.908	-131.848	-8191	255	
5569.443	1	1	0	0	0.079627	0.067585	0.37764	0.052606	0.086527	0.075411	0.094747	0.064947	0.095256	0.058724	0.098874	0.18943	0.16485	0.1971	0.070996	0.17559	-2.5125	-3.4188	-2.9604	-3.0354	-3.2104	-2.8979	-3.25	-3.3875	-3.0292	-3.4583	-3.2083	-3.0687	-3.3521	-2.9792	-3.1937	-3.1833	46.228	-82.959	202.661	-52.096	-53.023	-123.222	-31.408	-71.208	139.520	-147.387	-85.575	-105.082	95.731	181.195	185.173	126.752	0.00029512	0.00061662	0.00013824	464.14	1.0482e-05	2.5722e-06	572.26	159.6	1.3151e-05	5.8477e-06	213.87	67.346	46.689	17.713	6.6515e-06	27.353	0.0040503	0.0071599	0.0020706	452.61	6.9122e-05	8.3708e-05	551.72	155.02	6.8447e-05	8.1796e-05	209.35	65.921	46.701	17.821	7.3291e-05	27.203	122.902	-101.162	-41.028	-141.114	-56.406	47.809	-142.413	-136.875	-77.524	1.979	-138.987	-135.832	-133.606	-129.081	76.048	-132.526	-8191	255	
5569.539	1	1	0	0	0.29127	0.13935	0.040482	0.036342	0.12272	0.11915	0.071424	0.3135	0.15116	0.022276	0.12904	0.14132	0.38904	0.24041	0.13807	0.11723	-2.5354	-3.1708	-3.1125	-3	-3.5083	-3.0083	-3.0812	-3.1979	-2.9437	-3.3187	-3.2583	-2.9917	-3.3646	-3.0396	-3.1083	-3.3875	200.670	126.590	-117.318	-75.636	73.816	-53.208	-43.418	93.741	-113.529	5.074	-109.127	80.912	-146.707	200.496	18.352	112.967	0.00056663	0.00059072	0.00025095	465.92	2.4316e-06	3.7754e-06	569.12	159.16	2.2548e-06	3.8259e-06	212.77	66.94	46.973	17.62	4.0901e-06	26.992	0.0040399	0.0072632	0.00208	452.77	7.0785e-05	8.2612e-05	550.66	155.14	6.9269e-05	8.2966e-05	208.58	65.592	46.535	17.727	7.4038e-05	26.99	113.634	-52.189	-64.492	-141.026	81.279	86.995	-142.582	-136.763	79.955	-4.720	-138.827	-135.312	-133.877	-128.668	102.090	-131.765	-8191	255	
5569.635	1	1	0	0	0.11054	0.11134	0.087033	0.25081	0.048635	0.10425	0.19279	0.12146	0.018958	0.22874	0.25121	0.045636	0.031303	0.20287	0.022309	0.13241	-2.4792	-3.2458	-3.2188	-2.9917	-3.3708	-3.1458	-3.0479	-3.5375	-2.8542	-3.2458	-3.2375	-3.1521	-3.3354	-3.1417	-3.0354	-3.4042	67.089	78.338	203.720	10.495	191.364	31.319	169.569	-67.479	45.660	95.788	109.339	178.648	157.321	-146.453	100.307	-89.034	0.00075375	0.00040137	0.00021322	464.38	4.8417e-06	6.506e-06	568.82	157.7	2.9811e-06	2.4304e-06	210.55	66.494	46.637	17.824	2.9582e-06	27.076	0.0040828	0.007274	0.0020959	451.15	7.0421e-05	8.2921e-05	548.68	154.05	6.9551e-05	8.3271e-05	207.57	65.48	46.54	17.781	7.5175e-05	26.927	103.422	19.985	-96.065	-140.834	-53.566	-52.815	-142.442	-137.044	141.989	-71.339	-138.839	-135.653	-133.947	-128.726	-51.172	-132.085	-8191	255	
5569.731	1	1	0	0	0.089554	0.13973	0.3651	0.2165	0.13574	0.04479	0.11615	0.25755	0.13675	0.13869	0.037289	0.0038004	0.23511	0.17347	0.19162	0.13816	-2.525	-3.2646	-3.2521	-2.775	-3.45	-3.1625	-2.9813	-3.5333	-2.9437	-3.1104	-3.3708	-3.0229	-3.3021	-3.1229	-3.0083	-3.5312	67.939	-110.350	-74.428	191.022	-141.008	182.975	-91.354	113.729	161.245	-154.620	108.863	146.336	-135.785	171.616	168.874	11.564	0.00055204	0.00030832	0.00013102	463.17	1.1898e-06	2.1496e-06	566	159.9	1.6153e-05	3.1245e-06	212.52	67.554	47.064	17.634	8.9617e-06	27.098	0.0041668	0.0074294	0.0021442	452.24	7.0898e-05	8.4969e-05	549.05	155.5	6.9363e-05	8.4994e-05	209.12	66.143	47.028	17.743	7.6043e-05	26.949	112.780	-146.347	-70.238	-141.033	142.552	19.158	-142.494	-137.018	-72.527	24.485	-138.615	-135.820	-133.866	-128.897	-55.938	-132.152	-8191	255	
5569.828	1	1	0	0	0.14086	0.22713	0.23733	0.19374	0.11663	0.25046	0.25294	0.078588	0.18055	0.19439	0.13993	0.16346	0.050343	0.32168	0.19012	0.067976	-2.4542	-3.2333	-3.3292	-2.9146	-3.2875	-3.1104	-3.0354	-3.3646	-2.9125	-2.95	-3.5438	-2.8563	-3.2	-3.25	-2.9771	-3.5187	171.906	-71.338	40.832	-139.544	-114.769	124.426	80.439	32.934	19.930	92.378	175.616	61.829	-30.415	-72.186	111.077	-23.386	0.0005911	0.00052845	7.1899e-05	467.77	1.0948e-05	3.4186e-06	573.52	159.38	1.0604e-05	4.0356e-06	213.47	68.032	47.348	17.771	4.1154e-06	27.401	0.0041964	0.0075151	0.0021459	454.26	7.2009e-05	8.5951e-05	553.89	155.52	7.1246e-05	8.7169e-05	209.9	66.596	47.109	17.837	7.719e-05	27.177	100.964	171.858	-11.207	-140.907	0.976	105.209	-142.599	-136.770	-36.291	8.056	-139.142	-135.892	-133.654	-128.943	-138.611	-131.752	-8191	255	
5569.948	1	1	0	0	0.17235	0.15876	0.41004	0.10191	0.067024	0.12389	0.06457	0.27283	0.1564	0.27893	0.15308	0.15458	0.2796	0.13209	0.17577	0.20016	-2.6708	-3.1312	-3.4125	-3.0833	-3.0979	-3.1979	-2.8458	-3.2208	-3.0312	-2.9125	-3.4979	-3.1083	-3.0938	-3.3604	-2.9854	-3.3167	62.553	11.324	-42.231	-130.662	198.790	43.227	-98.822	188.899	-75.858	-84.665	-46.044	-78.625	84.355	-107.606	-60.322	158.287	0.0005375	0.00011514	0.00012097	468.54	8.3304e-06	2.4534e-06	570.8	159.76	1.1832e-05	7.23e-06	212.34	67.355	46.698	17.616	5.7267e-06	26.889	0.0042686	0.0077218	0.0021351	456.88	7.2458e-05	8.6544e-05	552.02	155.82	7.2859e-05	8.7625e-05	209.85	66.124	46.971	17.793	7.7756e-05	26.825	124.493	99.239	-25.373	-141.107	-17.227	-47.686	-142.679	-137.117	-57.819	26.202	-138.974	-135.628	-133.868	-128.878	75.920	-131.803	-8191	255	
5570.043	1	1	0	0	0.25986	0.21248	0.12963	0.153	0.1235	0.13697	0.24016	0.21881	0.24214	0.14663	0.2713	0.058308	0.36474	0.034589	0.082472	0.30774	-2.7854	-2.9208	-3.3583	-3.1021	-3.2938	-3.3688	-3.0687	-3.2333	-3.3021	-3.1104	-3.5292	-3.2271	-3.0979	-3.3312	-3.0458	-3.4271	103.278	94.274	-152.366	-122.944	-28.769	-47.551	152.106	170.322	-4.867	-128.761	-118.750	-22.728	-144.588	-84.474	-3.715	149.899	0.0005999	0.00011437	0.00012322	463.41	1.3791e-06	5.7959e-06	568.35	158.37	6.5837e-06	4.384e-06	211.85	66.143	46.478	17.61	1.9136e-06	26.593	0.004235	0.0076563	0.0021542	452.66	7.1062e-05	8.756e-05	550.34	154.65	7.0023e-05	8.6166e-05	208.01	65.332	46.541	17.686	7.7451e-05	26.661	109.175	27.633	-29.610	-140.914	-134.136	-15.034	-142.624	-137.151	-23.989	-4.899	-139.060	-135.716	-134.065	-128.850	-63.877	-132.114	-8191	255	
5570.139	1	1	0	0	0.12545	0.32388	0.054839	0.089856	0.094753	0.23247	0.27841	0.15194	0.037993	0.06763	0.068567	0.14419	0.16364	0.15568	0.08788	0.12307	-2.8854	-3.0542	-3.4854	-3.1667	-3.1625	-3.5	-2.9646	-3.3271	-3.2938	-3.0958	-3.3583	-3.3333	-3.1542	-3.5271	-3.0625	-3.3417	-1.702	-15.084	-71.348	90.478	-72.792	113.442	88.535	-94.393	194.187	-20.313	67.574	180.185	128.640	-84.300	135.465	-119.647	0.00041917	0.00069144	0.00018549	462.06	5.1312e-06	2.758e-06	567.29	158.16	6.5657e-06	5.2132e-06	213.26	66.75	46.974	17.478	5.1213e-06	26.743	0.0042734	0.0078781	0.0021935	453.23	7.2095e-05	8.7441e-05	550.48	154.88	7.1877e-05	8.7389e-05	208.96	65.714	46.916	17.623	7.6632e-05	26.734	74.414	-89.534	-51.584	-140.901	-113.189	-23.163	-142.876	-136.894	201.933	-9.316	-138.750	-135.594	-133.641	-129.217	-55.531	-131.905	-8191	255	
5570.212	1	1	0	0	0.071936	0.19749	0.16332	0.14111	0.067733	0.17405	0.2723	0.051826	0.16162	0.039723	0.16134	0.069296	0.20862	0.22514	0.15482	0.10656	-2.9625	-2.9938	-3.3625	-3.2062	-3.1104	-3.4875	-3.0958	-3.2271	-3.2042	-3.0042	-3.3833	-3.2458	-2.9688	-3.4771	-2.9729	-3.2708	-50.943	-84.801	148.572	181.548	-2.066	68.063	122.391	-72.965	-114.788	22.739	118.861	-97.686	172.683	150.538	140.336	131.670	0.00066658	0.00033921	0.00011541	461.85	5.8267e-06	3.0413e-06	569.16	159.7	1.1875e-05	3.4699e-06	213.89	67.022	46.927	17.556	5.9431e-06	26.876	0.0042482	0.0076758	0.0021509	453.51	7.2701e-05	8.8079e-05	552.38	155.45	7.3287e-05	8.8861e-05	209.68	66.263	47.304	17.726	8.0086e-05	27.048	104.705	-146.651	199.357	-141.059	104.810	-84.876	-142.650	-136.941	0.475	66.810	-138.564	-135.550	-134.080	-129.099	-41.277	-131.892	-8191	255	
5570.308	1	1	0	0	0.13354	0.15599	0.22094	0.12413	0.20467	0.080052	0.12257	0.039563	0.057642	0.014245	0.2507	0.12047	0.083062	0.088749	0.12962	0.17052	-2.8896	-2.7062	-3.1542	-3.1667	-3.0604	-3.4521	-3.1458	-3.1604	-3.4021	-3.0208	-3.2021	-3.3646	-2.9083	-3.4	-3.1854	-3.2729	156.686	-72.326	6.188	-21.799	88.465	-22.571	-138.412	-108.584	-40.713	195.637	150.715	109.023	28.480	-70.137	-109.507	48.938	0.00072308	0.00057049	9.8301e-05	465.22	1.349e-05	5.8515e-06	572.7	158.17	1.1844e-05	5.8596e-06	213.57	67.346	47.206	17.768	9.5162e-06	26.925	0.0043426	0.0078864	0.00221	456.23	7.4838e-05	8.8411e-05	554.47	155.61	7.3225e-05	8.9178e-05	210.1	66.073	47.12	17.773	7.7619e-05	26.976	102.716	-57.405	-21.486	-141.144	-64.643	-72.062	-142.640	-137.057	-25.136	78.811	-138.368	-135.405	-133.901	-128.800	-46.255	-131.915	-8191	255	
5570.427	1	1	0	0	0.10516	0.17849	0.095524	0.045006	0.11587	0.13516	0.31449	0.046806	0.06054	0.2283	0.17569	0.043029	0.17222	0.18948	0.11957	0.13895	-2.9854	-2.9188	-3.3187	-3.3417	-3.1729	-3.3708	-3.1562	-3.0083	-3.35	-3.0187	-3.3104	-3.3417	-3.0062	-3.4396	-3.3396	-3.1646	183.259	-89.286	4.869	-47.779	61.662	-10.676	75.423	164.875	134.392	-7.939	-99.737	132.287	-25.266	82.743	-139.620	95.863	0.0004821	0.00072404	0.00019008	466.65	8.7944e-06	1.658e-06	573.15	160.36	1.5109e-05	6.2502e-06	212.76	66.765	46.853	17.834	8.8129e-06	27.076	0.0043096	0.0077752	0.0022047	455.39	7.3786e-05	8.855e-05	550.54	155.43	7.2937e-05	8.9225e-05	209.13	65.785	46.748	17.864	7.7852e-05	27.106	101.339	-40.280	-137.642	-141.280	-59.871	169.393	-142.133	-136.533	-23.893	105.115	-138.938	-135.594	-134.045	-129.108	-51.915	-131.890	-8191	255	
5570.523	1	1	0	0	0.19545	0.032767	0.14485	0.086289	0.054196	0.057748	0.11304	0.21244	0.33731	0.041037	0.10228	0.19909	0.19523	0.21432	0.14553	0.32647	-3.1167	-2.9938	-3.2458	-3.325	-2.9271	-3.4917	-3.2417	-2.9667	-3.2812	-3.0938	-3.1792	-3.1875	-2.8354	-3.2521	-3.2604	-2.9771	-98.369	78.792	9.537	-24.674	127.166	-9.441	101.830	-146.290	91.417	-150.282	190.932	-132.262	139.086	-155.063	30.965	57.328	0.00070701	0.0001528	0.0001034	469.86	3.8577e-06	1.1546e-05	571.7	159.78	1.3083e-05	9.1219e-07	214.58	66.343	46.907	18.028	3.8422e-06	27.573	0.0042924	0.0078657	0.0021689	454.63	7.3546e-05	8.5756e-05	552.41	155.93	7.246e-05	8.7749e-05	210.35	65.741	46.867	18.042	7.7354e-05	27.507	101.328	116.115	-96.182	-140.972	43.311	-39.053	-142.549	-137.248	-34.532	37.335	-138.691	-135.464	-133.802	-128.967	-78.730	-132.352	-8191	255	
5570.619	1	1	0	0	0.30188	0.19721	0.02966	0.21344	0.094841	0.13182	0.123	0.078492	0.23976	0.14992	0.27887	0.23908	0.044502	0.24442	0.26323	0.14731	-3.1021	-2.9917	-3.0938	-3.3917	-3.0042	-3.2438	-3.1271	-2.9167	-3.375	-2.9104	-3.1125	-3.2896	-3.0542	-3.25	-3.2125	-2.9208	108.062	53.814	-113.865	125.390	113.341	-148.633	174.817	165.452	153.583	-38.236	150.631	-25.847	-141.905	19.076	19.892	43.024	0.00064779	0.00033648	0.00019785	469.69	9.8903e-06	2.2802e-06	575.9	160.87	5.6718e-06	3.4001e-06	217.26	67.732	47.267	18.349	9.4113e-06	27.855	0.0042587	0.0076589	0.0021483	456.81	7.2642e-05	8.5635e-05	554.31	156.31	7.2876e-05	8.6917e-05	211.86	66.504	47.182	18.224	7.8668e-05	27.798	107.069	140.913	-97.672	-140.824	41.693	29.398	-142.475	-136.974	-29.527	-89.451	-138.972	-135.781	-133.916	-129.106	32.783	-131.736	-8191	255	
5570.716	1	1	0	0	0.15602	0.0126	0.15144	0.13534	0.060091	0.18666	0.17922	0.11642	0.11669	0.19427	0.41163	0.056326	0.20485	0.2618	0.050292	0.12299	-2.8417	-3.1354	-2.9333	-3.4229	-2.9417	-3.175	-3.2042	-2.8542	-3.3396	-3.0896	-3.0958	-3.3438	-3.15	-3.2083	-3.4396	-2.9083	124.294	-99.928	32.305	-86.517	40.505	78.137	99.611	55.800	-24.334	-57.127	155.063	-120.383	148.426	145.097	193.973	137.014	0.00064287	0.00059564	4.6218e-05	469.95	1.2159e-05	6.8715e-06	578.82	161.63	1.8639e-06	6.0414e-06	216.36	67.283	47.526	18.114	3.9647e-06	27.734	0.0043296	0.0077266	0.0022231	457.95	7.3587e-05	8.8902e-05	558.41	157.01	7.3224e-05	9.0262e-05	211.37	66.224	47.143	18.133	7.8626e-05	27.521	99.365	-20.974	-97.794	-140.879	-53.773	-39.557	-142.595	-137.116	-22.733	10.537	-138.728	-135.473	-133.206	-129.042	35.666	-131.461	-8191	255	
5570.812	1	1	0	0	0.21011	0.029334	0.19455	0.13998	0.21006	0.073528	0.29985	0.22877	0.22976	0.050186	0.14132	0.056054	0.10236	0.095234	0.039153	0.2404	-2.8063	-3.275	-3.0104	-3.1562	-2.9542	-3.1083	-3.4396	-2.9437	-3.3667	-3.0979	-2.9958	-3.3667	-3.0687	-3.0292	-3.2917	-2.9458	162.848	152.955	89.011	200.402	53.509	84.050	112.912	98.600	171.886	-108.227	204.859	91.738	-73.876	-139.163	-138.778	127.237	0.00065808	0.00026698	0.00016987	468.43	9.1559e-06	5.1783e-06	572.45	159.67	1.6138e-06	3.3601e-06	212.15	66.522	47.193	18.018	3.9891e-06	27.566	0.0043046	0.0077889	0.002203	457.79	7.4387e-05	8.7631e-05	554.02	155.83	7.2735e-05	8.959e-05	209.26	65.786	46.966	18.001	7.909e-05	27.364	97.363	155.548	66.886	-140.948	100.503	-4.446	-142.717	-136.800	124.252	162.647	-138.972	-135.459	-133.612	-128.679	-13.173	-131.941	-8191	255	
5570.908	1	1	0	0	0.3073	0.17692	0.13381	0.14872	0.063066	0.13044	0.22129	0.29608	0.26164	0.15181	0.30834	0.13491	0.20604	0.14758	0.020076	0.27279	-2.7896	-3.1896	-2.9229	-3.5167	-3.1167	-3.0167	-3.4104	-3.0854	-3.2104	-3.3688	-3.0687	-3.3354	-3.0625	-2.8958	-3.3125	-2.925	58.560	51.570	180.635	192.771	50.308	114.120	47.908	81.601	126.037	-115.797	190.867	-95.114	60.546	156.379	-41.480	162.169	0.000423	0.0011116	0.00018989	471.15	8.5546e-06	4.0035e-06	573.73	161.15	2.0388e-06	2.8059e-06	214.74	67.213	46.949	18.117	6.3571e-06	27.824	0.004364	0.0079397	0.0022617	457.57	7.4464e-05	8.9857e-05	554.03	156.39	7.3111e-05	8.9308e-05	210.96	66.188	46.983	18.211	7.8246e-05	27.597	124.602	-100.204	-56.712	-140.756	17.585	6.391	-142.286	-136.822	47.106	52.624	-138.968	-135.718	-133.482	-128.954	29.940	-131.826	-8191	255	
5571.029	1	1	0	0	0.30457	0.072659	0.18273	0.33024	0.16091	0.15482	0.10046	0.33826	0.20139	0.1348	0.044846	0.040326	0.052126	0.069595	0.20174	0.16245	-2.7021	-3.2896	-2.8854	-3.225	-3.0479	-3.1229	-3.3792	-3.0917	-3.0396	-3.3292	-2.7875	-3.425	-3.1333	-2.9083	-3.4813	-3.0042	131.612	-62.434	-3.840	118.877	92.710	154.734	-128.997	130.345	197.101	-29.158	5.954	-21.039	-73.626	198.196	-114.133	149.010	0.00050703	0.00029264	0.00011822	471.41	1.1324e-05	5.1386e-06	577.31	161.77	1.6182e-06	3.1164e-06	215.66	67.362	47.418	18.284	2.9239e-06	27.781	0.0043072	0.0079138	0.002247	459.96	7.4814e-05	8.9499e-05	557.61	157.35	7.3444e-05	9.119e-05	211.86	66.533	47.363	18.302	8.0462e-05	27.78	109.885	-102.180	-36.062	-140.712	16.283	13.430	-142.576	-136.716	-97.109	49.980	-138.821	-135.483	-133.581	-128.672	33.582	-132.249	-8191	255	
5571.125	1	1	0	0	0.1429	0.30646	0.040884	0.29132	0.082585	0.20935	0.15431	0.077583	0.031505	0.092044	0.21839	0.058722	0.14026	0.22336	0.053948	0.050138	-2.6188	-3.3521	-2.9188	-3.1625	-3.1354	-2.9146	-3.3208	-3.1625	-3.125	-3.3312	-2.9146	-3.3229	-3.1667	-2.975	-3.3125	-3.2812	59.569	39.025	-54.256	183.491	137.388	62.820	136.572	105.379	181.327	-39.090	189.345	-50.387	127.927	129.218	129.298	-76.154	0.00059163	0.00042088	0.00023948	469.84	7.1356e-06	7.1533e-06	580.86	162.5	1.5744e-05	5.7003e-06	216.11	67.744	47.406	18.261	5.1074e-06	27.841	0.0043577	0.0079275	0.0022864	459.79	7.4693e-05	8.9668e-05	558.11	157.5	7.3273e-05	8.925e-05	211.87	66.43	47.157	18.294	7.7551e-05	27.633	103.108	-31.342	-47.899	-140.903	-36.286	26.562	-142.472	-136.587	-72.477	40.439	-138.687	-135.523	-133.582	-128.696	6.476	-131.076	-8191	255	
5571.219	1	1	0	0	0.18911	0.19505	0.24722	0.13121	0.16961	0.19933	0.1365	0.028349	0.1978	0.17044	0.1595	0.14112	0.1956	0.064394	0.16122	0.035221	-2.6437	-3.2375	-2.8333	-3.1375	-3.1729	-3.0042	-3.2208	-3.2104	-2.9521	-3.3104	-3.125	-3.0667	-3.1167	-2.8521	-3.2479	-3.0062	111.667	-151.290	30.266	-108.286	-121.448	192.061	80.172	-85.911	-14.286	-119.640	152.546	127.185	107.425	-124.863	-115.175	-51.147	0.00077179	0.00046252	0.00021624	473.72	8.9526e-06	8.0912e-07	576.06	160.86	2.6605e-06	4.1532e-06	214.57	67.215	47.125	18.36	6.8382e-06	27.651	0.0043032	0.007961	0.0022165	459.91	7.5566e-05	8.9966e-05	554.59	156.34	7.3998e-05	9.1318e-05	211.05	66.249	47.079	18.254	7.9397e-05	27.583	105.165	139.644	-71.575	-140.694	16.502	79.330	-142.434	-136.500	175.255	-93.091	-138.797	-135.661	-133.791	-128.970	-54.109	-131.876	-8191	255	
5571.317	1	1	0	0	0.1488	0.1547	0.078873	0.035871	0.12277	0.12348	0.070568	0.10524	0.13566	0.2602	0.21853	0.18639	0.0399	0.19137	0.098068	0.22377	-2.5125	-3.3125	-2.9917	-3.1562	-3.3146	-2.9938	-3.3604	-3.0833	-2.8792	-3.3771	-2.9313	-3.0646	-3.3354	-2.7917	-3.1729	-3.2917	176.917	25.668	51.212	-37.849	140.343	-114.762	-64.477	167.612	129.358	67.258	102.478	-149.398	98.958	169.426	89.593	161.166	0.00065493	0.00022989	0.0001052	472.82	4.1138e-06	7.5907e-06	579.5	160.75	1.0566e-05	2.7205e-06	215.32	67.439	47.339	18.309	4.1693e-06	27.912	0.0043495	0.0079583	0.0022198	460.02	7.5694e-05	8.8572e-05	556.29	156.55	7.3755e-05	9.0092e-05	210.81	66.256	47.204	18.273	7.8446e-05	27.769	109.036	-121.264	-13.092	-140.685	-124.874	-1.195	-142.503	-137.022	-87.213	125.833	-138.786	-135.607	-134.162	-128.859	-29.608	-131.969	-8191	255	
5571.436	1	1	0	0	0.21595	0.10354	0.10777	0.16653	0.091394	0.11025	0.19957	0.08015	0.10922	0.21035	0.22646	0.12055	0.028779	0.23064	0.22559	0.059918	-2.3833	-3.2292	-3.2208	-3.2229	-3.2854	-2.7667	-3.1708	-3.2417	-2.9604	-3.3958	-2.9313	-3.2	-3.4104	-2.9583	-3.175	-3.1833	-60.477	84.924	0.477	40.861	156.042	77.188	176.060	8.438	40.361	34.107	68.014	96.285	-21.394	122.359	-79.673	-145.667	0.00058942	0.00046545	0.00016882	471.34	9e-06	6.4353e-06	577.87	161.77	8.9936e-06	3.0189e-06	216.53	68.291	47.487	18.439	4.3914e-06	27.87	0.0043278	0.0078588	0.002204	459.87	7.5962e-05	8.9048e-05	557.65	157.3	7.415e-05	8.7791e-05	211.71	66.639	47.394	18.389	7.7165e-05	27.861	101.732	11.089	-65.956	-140.590	-68.640	-37.374	-142.304	-136.774	-122.716	-93.764	-138.784	-136.035	-133.544	-128.791	32.668	-131.363	-8191	255	
5571.508	1	1	0	0	0.16593	0.12327	0.12196	0.070474	0.21443	0.10905	0.22715	0.21493	0.34791	0.11173	0.079508	0.17213	0.25413	0.12896	0.062345	0.013922	-2.4	-3.1292	-3.0896	-2.9688	-3.3042	-2.9583	-3.0646	-3.0771	-2.9021	-3.3792	-3.1042	-2.8646	-3.3396	-3.0958	-3.0396	-3.2625	183.375	15.952	-139.555	110.091	163.481	194.660	-112.892	126.279	127.191	33.504	-88.127	-131.853	-117.829	-82.360	-81.977	-104.426	0.00061025	0.00046805	9.121e-05	477.17	5.3188e-06	5.6134e-06	584.05	161.94	1.2328e-05	5.7109e-06	216.29	67.684	47.214	18.506	3.9945e-06	28	0.0043737	0.0077979	0.0021893	462.6	7.5018e-05	8.7162e-05	559.63	157.55	7.3048e-05	8.729e-05	212.11	66.63	47.168	18.455	7.8055e-05	27.795	103.687	-85.778	-108.412	-141.179	4.238	88.679	-142.549	-136.529	-59.843	67.231	-138.797	-135.614	-133.467	-128.903	-45.101	-131.832	-8191	255	
5571.604	1	1	0	0	0.16442	0.10774	0.18516	0.20437	0.15968	0.057207	0.34099	0.13127	0.033327	0.13848	0.34429	0.22945	0.14262	0.13805	0.1579	0.07922	-2.4229	-3.3125	-3.175	-2.8563	-3.6437	-2.8667	-3.0667	-3.3312	-2.7083	-3.1396	-3.3125	-2.9333	-3.2542	-3.1688	-3.2083	-3.2333	163.733	-32.128	80.014	-102.487	192.204	196.825	191.288	149.102	-103.037	105.702	-111.365	166.450	201.322	-150.047	127.724	41.321	0.00047784	0.00087541	1.5427e-05	474.75	3.4934e-06	2.736e-06	578.88	160.93	1.4388e-05	5.0003e-06	212.73	67.745	46.976	18.07	3.036e-06	27.699	0.0044398	0.0077894	0.0022326	460.18	7.2758e-05	8.7089e-05	555.41	156.56	7.2368e-05	8.6528e-05	209.5	66.048	46.956	18.115	7.7833e-05	27.508	100.838	-85.260	-71.981	-140.708	-102.738	135.615	-142.258	-136.795	-42.315	-21.494	-138.814	-135.476	-133.430	-128.990	149.721	-132.111	-8191	255	
5571.724	1	1	0	0	0.2053	0.050856	0.25978	0.063001	0.10497	0.16334	0.20571	0.14173	0.1325	0.058083	0.2359	0.24548	0.21933	0.11616	0.16179	0.27567	-2.4375	-3.3896	-3.2292	-3.0187	-3.3479	-3.2104	-2.9875	-3.3917	-3.0375	-3.1542	-3.35	-2.8229	-3.3667	-3.1604	-2.9583	-3.3521	-142.039	-107.799	35.210	31.547	77.545	104.732	22.404	-40.949	-15.612	124.283	139.933	69.063	5.211	-36.056	25.963	195.165	0.00060758	0.00011205	2.1971e-05	471.97	2.0328e-06	2.8718e-06	575.37	160.73	3.5792e-06	5.8527e-06	216.44	67.948	47.159	18.551	5.4304e-06	27.988	0.0043082	0.0076905	0.0021918	459.54	7.3306e-05	8.8354e-05	554.94	156.78	7.1633e-05	8.6977e-05	210.97	66.353	47.059	18.278	7.8786e-05	27.694	105.699	-79.270	99.144	-140.884	-41.151	-32.155	-142.286	-136.524	67.619	-25.008	-138.887	-135.447	-133.701	-128.820	-43.269	-131.589	-8191	255	
5571.820	1	1	0	0	0.23001	0.32295	0.367	0.20264	0.25447	0.11029	0.05117	0.32108	0.12163	0.082977	0.097608	0.2521	0.086249	0.17808	0.24432	0.078155	-2.6958	-2.9958	-3.2708	-2.8875	-3.5167	-3.2	-2.8667	-3.2292	-3.0104	-3.1271	-3.3375	-2.7708	-3.1396	-3.2562	-3.0021	-3.2833	-73.396	23.777	132.148	0.358	37.750	-54.461	-38.507	123.195	87.238	-16.418	198.080	95.363	-65.750	69.088	190.851	116.164	0.00060855	0.00027176	0.00018995	470.74	1.042e-05	3.2746e-06	580.32	161.77	5.1693e-06	6.0725e-06	216.69	67.712	47.158	18.338	2.2399e-06	27.865	0.0042432	0.0077696	0.0022135	458.88	7.272e-05	8.9041e-05	558.37	157.24	7.2714e-05	8.8278e-05	211.77	66.341	47.242	18.32	7.8709e-05	27.831	95.152	-146.714	-17.967	-140.991	-76.686	39.846	-142.314	-136.499	-84.790	83.126	-138.703	-135.386	-133.944	-129.414	25.662	-132.095	-8191	255	
5571.917	1	1	0	0	0.058989	0.052861	0.077903	0.17622	0.1284	0.11069	0.077015	0.2099	0.058752	0.043128	0.16207	0.056586	0.13587	0.097721	0.161	0.27449	-2.5479	-2.9562	-3.3958	-2.9479	-3.3521	-3.1583	-3	-3.4813	-3.0438	-3.0708	-3.4583	-2.8563	-3.1958	-3.3625	-3.0042	-3.1583	71.997	59.301	197.401	135.924	53.604	62.917	146.169	179.530	-4.971	103.567	195.722	191.518	181.412	67.772	-30.889	-111.104	0.0004532	0.00049721	0.00013917	470.58	8.393e-06	4.3171e-06	578.06	161.19	9.6861e-06	2.3629e-06	216.35	68.083	47.462	18.381	2.8914e-06	27.818	0.0043234	0.0077954	0.0022172	460.22	7.2254e-05	8.8683e-05	558.32	157.42	7.092e-05	8.782e-05	211.24	66.555	47.109	18.325	7.8052e-05	27.692	117.214	-45.875	-62.798	-141.081	-21.752	80.032	-142.633	-136.807	-36.018	7.661	-138.333	-135.337	-133.246	-128.882	-25.534	-131.853	-8191	255	
5572.037	1	1	0	0	0.15435	0.11501	0.26925	0.18159	0.16721	0.17275	0.093233	0.047772	0.074829	0.26131	0.17404	0.37581	0.18042	0.041991	0.19253	0.20408	-2.6792	-2.9708	-3.3771	-3.1042	-3.2375	-3.3146	-2.6875	-3.675	-3.1771	-2.8229	-3.4313	-3.0667	-3.2167	-3.3854	-3.0438	-3.2604	187.244	-76.217	113.955	48.325	120.950	-136.272	54.046	151.393	57.583	180.206	119.772	-152.860	5.803	-70.658	83.408	83.761	0.000616	0.0004085	8.8754e-05	475.52	5.9684e-06	8.4237e-06	572.52	160.99	5.8821e-06	7.7929e-06	216.05	67.305	47.367	18.174	3.3741e-06	27.724	0.0042428	0.0076777	0.0021856	459.52	7.1296e-05	8.729e-05	554.36	156.42	7.2339e-05	8.7098e-05	210.84	65.967	47.074	18.179	7.7154e-05	27.558	121.199	-74.830	-63.992	-141.252	-124.368	-51.264	-142.190	-137.080	-90.217	-14.001	-138.334	-135.907	-133.622	-129.526	-39.716	-132.221	-8191	255	
5572.109	1	1	0	0	0.21917	0.24746	0.23758	0.17651	0.088715	0.050491	0.40997	0.1495	0.2427	0.11332	0.17419	0.16548	0.17522	0.13249	0.19953	0.22229	-2.6979	-2.7792	-3.4167	-2.8833	-3.1833	-3.2417	-2.7771	-3.3333	-3.1333	-2.8292	-3.3187	-3.0917	-3.0021	-3.3208	-2.8854	-3.2667	30.976	129.163	97.649	83.329	106.926	-30.492	172.204	-52.538	107.444	123.840	15.996	67.234	101.393	87.746	11.275	54.271	0.00051758	0.00024829	0.00019333	473.35	5.5225e-06	8.4371e-06	578.12	161.91	2.9841e-06	2.3697e-06	216.41	66.96	47.591	18.387	1.5157e-06	27.865	0.0041818	0.0077519	0.0021691	459.01	7.0967e-05	8.7044e-05	553.95	156.8	7.116e-05	8.6713e-05	210.75	66.073	47.108	18.34	7.5354e-05	27.757	96.832	-69.324	-89.474	-141.289	-35.912	71.467	-142.491	-136.649	-8.038	34.173	-138.659	-135.193	-133.528	-128.567	48.747	-131.964	-8191	255	
5572.205	1	1	0	0	0.061477	0.11678	0.179	0.095614	0.22287	0.25951	0.086588	0.11472	0.043294	0.19122	0.13997	0.18301	0.033684	0.022125	0.21632	0.10112	-2.6833	-2.7792	-3.2812	-3.025	-3.0958	-3.4062	-3.0563	-3.1479	-3.2417	-2.8604	-3.4854	-3.2396	-2.8646	-3.2417	-3.1063	-3.1875	175.200	62.087	140.382	98.799	-106.406	132.603	73.332	172.116	31.198	-83.366	-0.589	193.901	175.472	172.556	91.699	-151.001	0.00056183	0.00078542	6.8308e-05	475.37	4.5495e-06	8.4126e-06	577.27	160.94	1.6817e-05	3.0433e-06	217.2	68.306	47.429	18.708	5.8446e-06	28.267	0.0041963	0.0076663	0.0021052	459.33	7.1144e-05	8.5517e-05	555.59	157.09	7.0612e-05	8.5477e-05	211.8	66.422	47.33	18.549	7.4251e-05	28.155	109.543	-2.604	-2.931	-141.151	63.602	-129.575	-141.912	-136.902	-17.399	-51.425	-138.610	-135.146	-133.438	-129.079	36.640	-131.484	-8191	255	
5572.301	1	1	0	0	0.094912	0.2276	0.11274	0.032816	0.18501	0.25137	0.1945	0.15722	0.14984	0.13161	0.12189	0.14675	0.19307	0.17428	0.054887	0.12139	-2.7417	-2.8354	-3.2771	-3.2667	-3.0417	-3.4458	-3.0667	-3.2896	-3.2812	-2.7979	-3.3	-3.3354	-2.9	-3.3167	-2.9542	-3.0458	38.653	175.189	182.861	-56.644	170.613	-118.653	187.794	138.834	43.078	192.560	106.153	132.831	-78.705	145.914	92.511	43.010	0.00065897	0.00050767	8.2252e-05	474.43	1.3123e-05	4.1659e-06	578.75	162.67	1.0498e-05	5.3384e-06	218.65	68.461	47.824	18.828	6.4242e-06	28.396	0.0042269	0.0075538	0.0020875	460.01	7.1543e-05	8.4144e-05	557.61	157.74	6.9468e-05	8.4131e-05	212.51	66.658	47.312	18.659	7.323e-05	28.247	101.078	-34.394	161.343	-141.076	-18.328	-12.085	-141.948	-136.704	199.128	-13.016	-138.212	-135.703	-133.034	-129.205	-48.242	-131.776	-8191	255	
5572.397	1	1	0	0	0.16415	0.17496	0.16097	0.21275	0.06756	0.15416	0.3601	0.15181	0.054095	0.22269	0.12724	0.032502	0.21948	0.11871	0.22053	0.04504	-2.9875	-2.8646	-3.1771	-3.3	-2.7875	-3.2042	-3.0438	-3.1188	-3.4229	-2.95	-3.475	-3.2188	-2.9604	-3.3563	-3.0687	-3.1667	-19.854	157.380	-154.565	130.411	20.771	105.110	-129.859	146.046	120.903	167.011	114.314	105.418	-107.387	121.203	175.370	1.487	0.00068722	0.00043419	0.00019804	474.6	2.1349e-06	1.5936e-06	575.88	163.12	8.0252e-06	6.5499e-06	216.48	68.413	47.447	18.724	6.75e-06	28.365	0.004096	0.007446	0.0020521	459.51	7.0479e-05	8.3384e-05	554.98	157.94	6.9757e-05	8.3211e-05	211.48	66.719	47.284	18.6	7.4458e-05	28.169	93.893	-20.262	-75.402	-141.063	155.744	-102.733	-142.483	-136.802	178.736	-14.981	-138.917	-135.596	-133.460	-128.631	-83.811	-131.930	-8191	255	
5572.516	1	1	0	0	0.084223	0.028349	0.20254	0.34554	0.076695	0.32115	0.10773	0.17182	0.20586	0.14459	0.19201	0.21042	0.099632	0.32044	0.25082	0.21228	-3.0687	-3.0729	-3.125	-3.3208	-2.8812	-3.3208	-3.1854	-3.0333	-3.4375	-2.975	-3.1792	-3.2896	-2.9646	-3.3417	-3.2333	-2.8458	0.281	-5.113	122.787	116.605	154.537	145.052	-7.532	119.664	-23.709	144.589	88.755	-152.846	-30.061	-60.151	129.092	53.827	0.00056565	0.00081327	4.3468e-05	472.66	2.7076e-06	5.8663e-06	575.43	162.43	3.8743e-06	2.7863e-06	216.9	68.44	47.704	18.568	2.2237e-06	28.443	0.004148	0.0073226	0.0020546	459.64	7.1531e-05	8.4626e-05	555.2	157.78	6.9852e-05	8.3546e-05	211.86	66.725	47.447	18.592	7.5073e-05	28.261	101.369	178.951	152.569	-140.881	53.393	38.185	-142.218	-137.062	-103.383	193.414	-138.754	-135.367	-133.026	-129.073	110.491	-131.733	-8191	255	
5572.612	1	1	0	0	0.15436	0.19265	0.1411	0.1835	0.13269	0.29271	0.25434	0.35037	0.28648	0.19676	0.29198	0.12352	0.047478	0.054091	0.1541	0.081801	-3.2125	-3.0438	-3.2333	-3.5104	-2.8833	-3.1375	-3.2375	-3.0917	-3.6083	-3.0438	-3.0708	-3.3396	-3.0458	-3.2896	-3.325	-2.9083	182.863	193.173	192.156	-89.245	7.332	37.504	88.005	133.293	-148.423	177.494	-87.765	58.867	-36.910	46.919	55.272	115.392	0.00064958	0.0004755	0.00010833	476.13	4.4639e-06	1.088e-05	580.95	163.28	3.9929e-06	3.6012e-06	219.38	68.694	48.188	18.866	3.2992e-06	28.585	0.0041758	0.0075944	0.0021213	462.01	7.115e-05	8.4875e-05	557.98	158.54	7.052e-05	8.6648e-05	213.55	67.208	47.724	18.78	7.6687e-05	28.419	109.058	-88.827	110.571	-141.155	41.115	-1.249	-142.510	-136.648	-51.816	-153.432	-138.767	-136.058	-133.384	-128.979	76.109	-131.676	-8191	255	
5572.709	1	1	0	0	0.12344	0.14763	0.059686	0.11449	0.23508	0.18401	0.18015	0.12906	0.22652	0.15464	0.13103	0.046774	0.22614	0.18489	0.15198	0.05863	-2.9708	-3.1937	-2.9667	-3.5375	-2.8458	-3.2208	-3.3792	-2.9229	-3.3375	-3.2438	-3.0229	-3.3479	-2.9229	-3.2104	-3.1854	-2.9938	156.976	82.894	-39.849	5.077	119.701	109.417	151.807	-128.080	-32.435	157.211	8.135	-68.078	-39.977	-18.755	139.433	123.985	0.00056969	0.00046436	0.00013902	478.8	2.6229e-06	3.4152e-06	581.42	163.77	1.0256e-05	3.5668e-06	220.38	69.104	48.286	18.663	2.8987e-06	28.651	0.0042391	0.0076714	0.0021813	463.65	7.2408e-05	8.6774e-05	560.53	159.03	7.0224e-05	8.698e-05	214.87	67.569	47.954	18.701	7.737e-05	28.379	114.531	61.585	-102.591	-140.989	-102.362	-50.368	-142.510	-136.372	-49.946	51.289	-138.656	-135.382	-133.654	-128.543	157.390	-131.622	-8191	255	
5572.805	1	1	0	0	0.16651	0.27089	0.21073	0.20448	0.034421	0.18188	0.092084	0.1535	0.16371	0.075339	0.091955	0.15475	0.19848	0.029128	0.18151	0.19067	-2.9833	-3.2479	-2.8937	-3.4208	-3.0229	-3.2479	-3.4125	-3.0229	-3.3354	-3.2625	-3.1125	-3.35	-3.15	-3.0542	-3.4792	-2.8958	-124.799	-61.319	51.530	129.702	135.870	129.264	156.936	-152.722	-149.115	180.491	182.320	36.232	103.404	202.980	-153.562	145.036	0.00062269	8.4288e-05	0.00030006	474.73	6.1867e-06	3.442e-06	578.7	162.62	5.9395e-06	6.3519e-06	216.86	68.027	47.75	18.651	3.2243e-06	28.139	0.004223	0.0077118	0.0021996	461.34	7.2029e-05	8.5657e-05	556.83	157.84	7.0734e-05	8.7173e-05	211.81	66.778	47.345	18.605	7.6908e-05	28.075	116.899	137.240	-51.018	-141.191	-76.396	94.551	-142.481	-136.778	-124.023	-1.206	-138.780	-135.488	-133.526	-129.027	23.679	-132.124	-8191	255	
5572.901	1	1	0	0	0.15591	0.24214	0.097857	0.17564	0.18654	0.10397	0.19718	0.30802	0.096935	0.21683	0.15751	0.14361	0.17557	0.15375	0.13865	0.0544	-2.7521	-3.1958	-2.9833	-3.3646	-3.0583	-3.1479	-3.3979	-2.8875	-3.3208	-3.5187	-2.9729	-3.2042	-3.1375	-2.9208	-3.3396	-2.9	-49.879	173.617	21.771	-143.843	9.201	4.499	112.874	190.752	119.317	49.809	82.682	30.042	158.221	165.359	87.988	-25.991	0.00071939	0.00032647	5.7125e-05	471.86	2.0971e-06	1.9448e-06	578.24	162.01	5.5526e-06	6.321e-06	214.58	68.275	47.522	18.708	1.4887e-06	28.376	0.0041698	0.0075986	0.0021546	459.6	7.0079e-05	8.5864e-05	556.32	157.66	6.9693e-05	8.7804e-05	212.33	66.89	47.446	18.586	7.8258e-05	28.162	104.629	-19.870	-153.358	-141.080	-50.849	127.660	-142.044	-136.677	179.263	43.432	-138.845	-135.401	-133.815	-128.816	-114.151	-131.654	-8191	255	
5572.997	1	1	0	0	0.221	0.21979	0.18126	0.17566	0.15312	0.2758	0.064788	0.14977	0.098301	0.10256	0.25259	0.061733	0.083845	0.28997	0.19905	0.089468	-2.6833	-3.1021	-2.8604	-3.4792	-3.3042	-3.2229	-3.3563	-3.0021	-3.2521	-3.2042	-2.9229	-3.2313	-3.1354	-3.0875	-3.3771	-3.0896	94.019	68.528	40.082	-32.277	75.480	56.683	53.404	76.535	-127.687	-57.171	172.131	199.290	155.874	120.432	-102.611	165.146	0.0005706	0.00015132	0.00011191	476.18	8.9273e-06	4.3198e-06	580.48	162.87	8.0494e-06	1.7236e-06	217.69	68.784	48.094	18.621	7.4497e-06	28.624	0.0042712	0.0078713	0.0021671	461.91	7.2528e-05	8.7196e-05	557.11	158.08	7.1686e-05	8.8889e-05	212.86	67.142	47.686	18.684	7.7779e-05	28.371	111.210	-76.223	-31.320	-140.651	-49.445	-37.740	-142.406	-136.839	53.688	-47.161	-138.805	-135.271	-133.470	-129.198	-15.187	-131.972	-8191	255	
5573.118	1	1	0	0	0.18522	0.099421	0.16416	0.12438	0.058651	0.11417	0.16648	0.19903	0.14577	0.11231	0.25574	0.30829	0.20633	0.19325	0.33894	0.12574	-2.7792	-3.3854	-2.9375	-3.2	-3.2	-3.0958	-3.4146	-3.0083	-2.8833	-3.3312	-2.7792	-3.1021	-3.1708	-2.9042	-3.4958	-3.2333	-60.296	106.952	181.410	-37.574	-141.042	-113.832	-109.690	93.880	-56.211	188.570	187.818	184.976	108.968	-89.820	178.210	25.375	0.00063748	0.00045567	0.00012783	474.52	7.5171e-06	5.4532e-06	580.19	162.82	6.8624e-06	6.3287e-06	219.45	69.2	48.242	18.738	6.778e-06	28.386	0.0042685	0.0078041	0.002183	461.93	7.4422e-05	8.8874e-05	560.45	158.17	7.2195e-05	8.9095e-05	214.11	67.514	47.848	18.687	7.7539e-05	28.199	128.928	-94.124	-30.155	-140.918	24.049	34.656	-142.389	-136.762	67.748	-124.029	-138.632	-135.297	-133.136	-128.975	16.180	-131.601	-8191	255	
5573.212	1	1	0	0	0.20452	0.092353	0.16292	0.26162	0.34261	0.1648	0.082412	0.09095	0.064973	0.21291	0.16078	0.10076	0.075792	0.14916	0.082668	0.21151	-2.5812	-3.2729	-2.925	-3.1667	-3.2646	-3.1292	-3.4188	-3.125	-3.0354	-3.3833	-3.1708	-3.2167	-3.3438	-2.8333	-3.3063	-3.1271	188.029	177.013	116.170	112.259	-145.725	4.319	192.462	-114.773	143.612	-4.734	137.552	203.641	160.903	180.135	-76.228	122.126	0.00083032	0.00016114	0.00011468	476.22	6.9088e-06	7.0506e-06	574.47	162.12	8.8237e-06	8.8687e-06	218.02	68.389	47.886	18.479	5.557e-06	28.311	0.0042928	0.0078079	0.0021994	461.47	7.4647e-05	8.9322e-05	556.38	157.92	7.2925e-05	8.8606e-05	212.15	66.991	47.552	18.498	7.6404e-05	27.991	108.454	91.227	-98.791	-140.937	48.929	-8.400	-142.162	-136.874	-53.137	35.786	-138.714	-135.479	-133.958	-129.132	-88.025	-131.796	-8191	255	
5573.308	1	1	0	0	0.12472	0.084364	0.26198	0.084277	0.098288	0.13995	0.38328	0.23579	0.17336	0.14896	0.17465	0.050657	0.22069	0.23009	0.053864	0.062341	-2.5292	-3.1792	-3.0104	-3.0708	-3.3854	-2.8312	-3.4313	-3.2583	-2.9375	-3.45	-3.0354	-3.0938	-3.4417	-2.9292	-3.2625	-3.225	-47.364	57.749	-87.036	10.122	153.803	15.614	154.888	63.366	14.255	40.545	-98.729	132.897	117.296	-13.468	-102.889	-33.970	0.00069222	0.00064204	3.6551e-05	472.87	8.1644e-06	7.7992e-06	578.34	162.72	1.1815e-05	7.0962e-06	216.42	67.636	47.776	18.52	1.9938e-06	28.245	0.0043488	0.0077632	0.0022005	459.81	7.4153e-05	8.763e-05	554.92	158.07	7.2891e-05	8.8844e-05	211.89	66.725	47.607	18.493	7.6989e-05	27.988	114.937	-87.599	77.738	-140.891	-7.434	8.268	-142.538	-137.369	-95.484	-19.059	-138.715	-135.346	-133.443	-129.286	-5.893	-131.914	-8191	255	
5573.404	1	1	0	0	0.2484	0.26536	0.38027	0.23418	0.04983	0.035391	0.16299	0.16782	0.20176	0.11808	0.19669	0.1233	0.11535	0.13763	0.21647	0.1878	-2.4396	-3.4833	-3.0875	-2.8625	-3.275	-3.0146	-3.3896	-3.1333	-2.8646	-3.2938	-2.9562	-2.9042	-3.2646	-3.0354	-3.1083	-3.225	134.363	176.716	165.499	204.661	-136.639	-21.432	75.261	141.428	110.860	-0.535	-17.923	114.828	-110.591	72.432	-49.280	32.244	0.00066941	0.00044588	5.6569e-05	471.56	7.4357e-06	3.1938e-06	576.36	161.99	1.288e-05	7.1222e-06	218.3	68.401	47.681	18.597	6.1885e-06	28.152	0.0044312	0.0078376	0.002209	459.16	7.5221e-05	8.8334e-05	556.71	157.6	7.4439e-05	8.9892e-05	212.61	66.966	47.555	18.528	7.7241e-05	28.109	97.722	-86.246	-0.673	-140.720	128.712	-110.698	-142.181	-137.265	-80.322	21.524	-139.344	-135.560	-133.819	-129.350	25.400	-131.963	-8191	255	
#DATA ENDS
