BOXY.EXE: ISS Imagent and Oximeter Data Acquisition Program Version 0.80
Ascii Record File

#ACQ INFORMATION
2  Detector Channels 
16  External MUX Channels 
1  Auxiliary Channels 
5000  Waveform (CCF) Frequency (Hz)
1  Waveforms Skipped 
30  Waveforms Averaged 
1  Cycles Averaged 
16  Acquisitions per Waveform 
10.0806  Updata Rate (Hz) 

#FILE INFORMATION
TRUE -- External MUX Channel results are PARSED.
FALSE -- AC DC and Phase are NOT grouped.
TRUE -- Companion Program Settings File CREATED.
FALSE -- AC data not excluded
FALSE -- DC data not excluded
FALSE -- Phase data not excluded
FALSE -- Auxillary Chn. data not excluded
Tab delimiters

#CALIBRATION STATE
TRUE -- Waveform Calibration Values APPLIED.


#AUX CALIBRATION VALUES
Val Type	aux-1	

Term	1.0000e+00	
Factor	0.0000e+00	


#WF CALIBRATION VALUES
A = Detector Channel
Val Type	A-AC1	A-AC2	A-AC3	A-AC4	A-AC5	A-AC6	A-AC7	A-AC8	A-AC9	A-AC10	A-AC11	A-AC12	A-AC13	A-AC14	A-AC15	A-AC16	A-DC1	A-DC2	A-DC3	A-DC4	A-DC5	A-DC6	A-DC7	A-DC8	A-DC9	A-DC10	A-DC11	A-DC12	A-DC13	A-DC14	A-DC15	A-DC16	A-Ph1	A-Ph2	A-Ph3	A-Ph4	A-Ph5	A-Ph6	A-Ph7	A-Ph8	A-Ph9	A-Ph10	A-Ph11	A-Ph12	A-Ph13	A-Ph14	A-Ph15	A-Ph16	

Term	0.00000e+00	0.00000e+00	0.00000e+00	0.00000e+00	0.00000e+00	0.00000e+00	0.00000e+00	0.00000e+00	0.00000e+00	0.00000e+00	0.00000e+00	0.00000e+00	0.00000e+00	0.00000e+00	0.00000e+00	0.00000e+00	0.00000e+00	0.00000e+00	0.00000e+00	0.00000e+00	0.00000e+00	0.00000e+00	0.00000e+00	0.00000e+00	0.00000e+00	0.00000e+00	0.00000e+00	0.00000e+00	0.00000e+00	0.00000e+00	0.00000e+00	0.00000e+00	0.00000e+00	0.00000e+00	0.00000e+00	0.00000e+00	0.00000e+00	0.00000e+00	0.00000e+00	0.00000e+00	0.00000e+00	0.00000e+00	0.00000e+00	0.00000e+00	0.00000e+00	0.00000e+00	0.00000e+00	0.00000e+00	
Factor	1.00000e+00	1.00000e+00	1.00000e+00	1.00000e+00	1.00000e+00	1.00000e+00	1.00000e+00	1.00000e+00	1.00000e+00	1.00000e+00	1.00000e+00	1.00000e+00	1.00000e+00	1.00000e+00	1.00000e+00	1.00000e+00	1.00000e+00	1.00000e+00	1.00000e+00	1.00000e+00	1.00000e+00	1.00000e+00	1.00000e+00	1.00000e+00	1.00000e+00	1.00000e+00	1.00000e+00	1.00000e+00	1.00000e+00	1.00000e+00	1.00000e+00	1.00000e+00	X	X	X	X	X	X	X	X	X	X	X	X	X	X	X	X	

B = Detector Channel
Val Type	B-AC1	B-AC2	B-AC3	B-AC4	B-AC5	B-AC6	B-AC7	B-AC8	B-AC9	B-AC10	B-AC11	B-AC12	B-AC13	B-AC14	B-AC15	B-AC16	B-DC1	B-DC2	B-DC3	B-DC4	B-DC5	B-DC6	B-DC7	B-DC8	B-DC9	B-DC10	B-DC11	B-DC12	B-DC13	B-DC14	B-DC15	B-DC16	B-Ph1	B-Ph2	B-Ph3	B-Ph4	B-Ph5	B-Ph6	B-Ph7	B-Ph8	B-Ph9	B-Ph10	B-Ph11	B-Ph12	B-Ph13	B-Ph14	B-Ph15	B-Ph16	

Term	0.00000e+00	0.00000e+00	0.00000e+00	0.00000e+00	0.00000e+00	0.00000e+00	0.00000e+00	0.00000e+00	0.00000e+00	0.00000e+00	0.00000e+00	0.00000e+00	0.00000e+00	0.00000e+00	0.00000e+00	0.00000e+00	0.00000e+00	0.00000e+00	0.00000e+00	0.00000e+00	0.00000e+00	0.00000e+00	0.00000e+00	0.00000e+00	0.00000e+00	0.00000e+00	0.00000e+00	0.00000e+00	0.00000e+00	0.00000e+00	0.00000e+00	0.00000e+00	-2.26776e+02	-1.29708e+02	-1.25081e+02	-1.81324e+02	-8.13396e+01	-6.84428e+01	-1.55273e+02	-1.62015e+02	-8.44135e+01	-6.57107e+01	-1.73287e+02	-1.69603e+02	-1.82427e+02	-1.77112e+02	-7.61088e+01	-1.49999e+02	
Factor	5.15204e-05	1.63359e-04	4.63749e-05	1.65014e-01	2.13459e-06	1.73112e-06	1.63714e-01	5.20409e-02	2.66509e-06	1.65289e-06	8.93901e-02	2.90941e-02	2.44411e-02	9.00888e-03	1.89399e-06	1.31364e-02	1.97274e-05	3.71382e-05	1.04766e-05	8.31389e-02	3.49691e-07	4.20036e-07	7.75769e-02	2.62501e-02	3.44574e-07	4.22086e-07	4.38463e-02	1.42514e-02	1.24700e-02	4.59518e-03	3.71019e-07	6.48508e-03	X	X	X	X	X	X	X	X	X	X	X	X	X	X	X	X	



#DISTANCE SETTINGS
A = Detector Channel
A-1	A-2	A-3	A-4	A-5	A-6	A-7	A-8	A-9	A-10	A-11	A-12	A-13	A-14	A-15	A-16	

2.5000e+00	3.0000e+00	2.5000e+00	3.0000e+00	2.0000e+00	3.0000e+00	1.5000e+00	3.0000e+00	3.0000e+00	3.0000e+00	3.0000e+00	3.0000e+00	3.0000e+00	3.0000e+00	1.5000e+00	3.0000e+00	

B = Detector Channel
B-1	B-2	B-3	B-4	B-5	B-6	B-7	B-8	B-9	B-10	B-11	B-12	B-13	B-14	B-15	B-16	

1.0000e+01	1.0000e+01	1.0000e+01	1.4400e+00	1.0000e+01	1.0000e+01	1.5100e+00	1.9400e+00	1.0000e+01	1.0000e+01	1.9900e+00	2.4900e+00	2.4100e+00	2.9000e+00	1.0000e+01	2.9800e+00	




#DATA BEGINS
time	group	step	mark	flag	A-AC1	A-AC2	A-AC3	A-AC4	A-AC5	A-AC6	A-AC7	A-AC8	A-AC9	A-AC10	A-AC11	A-AC12	A-AC13	A-AC14	A-AC15	A-AC16	A-DC1	A-DC2	A-DC3	A-DC4	A-DC5	A-DC6	A-DC7	A-DC8	A-DC9	A-DC10	A-DC11	A-DC12	A-DC13	A-DC14	A-DC15	A-DC16	A-Ph1	A-Ph2	A-Ph3	A-Ph4	A-Ph5	A-Ph6	A-Ph7	A-Ph8	A-Ph9	A-Ph10	A-Ph11	A-Ph12	A-Ph13	A-Ph14	A-Ph15	A-Ph16	B-AC1	B-AC2	B-AC3	B-AC4	B-AC5	B-AC6	B-AC7	B-AC8	B-AC9	B-AC10	B-AC11	B-AC12	B-AC13	B-AC14	B-AC15	B-AC16	B-DC1	B-DC2	B-DC3	B-DC4	B-DC5	B-DC6	B-DC7	B-DC8	B-DC9	B-DC10	B-DC11	B-DC12	B-DC13	B-DC14	B-DC15	B-DC16	B-Ph1	B-Ph2	B-Ph3	B-Ph4	B-Ph5	B-Ph6	B-Ph7	B-Ph8	B-Ph9	B-Ph10	B-Ph11	B-Ph12	B-Ph13	B-Ph14	B-Ph15	B-Ph16	aux-1	digaux	

5999.665	1	1	0	768	0.47349	0.18096	0.13826	0.13033	0.29947	0.17936	0.13265	0.086933	0.18323	0.23046	0.11614	0.17476	0.15843	0.074102	0.15801	0.16404	-2.5292	-2.8063	-2.5646	-3.1437	-2.9104	-2.6979	-3.0521	-2.7104	-2.9833	-2.9292	-2.6167	-3.0083	-2.8917	-2.9354	-3.2062	-2.7604	204.811	261.865	235.447	222.389	207.362	38.641	212.468	370.861	296.439	119.388	303.868	293.619	67.015	143.653	178.462	330.114	0.00048412	0.00034958	0.00024817	250.61	2.1969e-06	2.1827e-06	349.14	81.555	1.1009e-05	5.0228e-06	136.72	59.074	29.706	11.757	5.6097e-06	26.01	0.014954	0.028632	0.0080078	308.36	0.00026742	0.00031919	401.23	99.81	0.00025763	0.00032244	166.64	68.521	39.005	15.192	0.00027907	30.62	41.402	105.642	120.799	35.635	82.034	157.094	33.379	38.969	281.289	243.606	36.969	40.397	42.060	46.079	256.459	43.083	-8191	255	
5999.761	1	1	0	0	0.3705	0.2459	0.12226	0.15258	0.10817	0.11795	0.16904	0.17133	0.16873	0.044343	0.20813	0.31567	0.13031	0.25721	0.28905	0.14859	-2.5021	-3.1083	-2.6375	-2.9938	-2.8354	-2.5792	-3.1	-2.8167	-2.7062	-3.0146	-2.5438	-2.9688	-2.9625	-2.6667	-2.9688	-2.7375	216.359	96.823	306.155	199.365	174.710	241.437	87.986	281.098	300.228	137.987	85.964	270.393	93.792	28.811	227.967	333.381	0.00042576	0.00031177	0.000299	252.25	1.655e-05	6.2437e-06	349.96	81.554	6.8632e-06	5.2807e-06	136.1	58.886	30.061	11.759	7.0252e-06	25.885	0.014925	0.028324	0.0079425	308.66	0.00026588	0.0003216	401.04	99.922	0.00026215	0.00032588	167.09	68.607	39.15	15.242	0.00028203	30.651	22.066	38.078	96.307	34.637	264.108	71.764	33.725	38.728	255.612	159.999	36.860	40.757	42.534	46.224	154.536	42.765	-8191	255	
5999.857	1	1	0	0	0.097095	0.25532	0.041253	0.13437	0.10488	0.17963	0.17738	0.10094	0.11515	0.21047	0.31207	0.043251	0.19021	0.077493	0.27406	0.1382	-2.3708	-2.9083	-2.4354	-2.8167	-2.925	-2.6562	-2.9813	-2.6854	-2.7062	-3.1354	-2.5396	-3	-2.9562	-2.3646	-2.9896	-2.6917	203.107	48.337	318.539	58.903	87.372	219.854	239.198	224.733	361.452	318.171	94.597	93.200	334.881	293.035	222.629	157.973	0.0007688	0.0010685	0.00021741	250.76	1.532e-05	6.8648e-06	345.15	79.749	1.6934e-05	4.3322e-06	133.75	57.917	29.574	11.57	7.5426e-06	25.313	0.015224	0.028927	0.0079194	308.2	0.00027039	0.00032036	397.47	98.943	0.00026277	0.00032551	165.2	68.012	38.775	15.006	0.00028095	30.305	54.610	171.310	94.861	34.602	352.318	287.663	33.961	38.641	81.083	95.014	37.109	40.646	42.442	46.005	49.693	42.635	-8191	255	
5999.953	1	1	0	0	0.30409	0.15977	0.29513	0.051972	0.10521	0.15784	0.29468	0.26701	0.22151	0.098585	0.15236	0.23445	0.041188	0.09767	0.15179	0.16506	-2.2583	-2.9042	-2.7	-2.9292	-2.9708	-2.5062	-3.1813	-2.8229	-2.5958	-3.2	-2.6583	-2.8979	-2.8937	-2.5312	-3.0104	-2.9688	198.477	295.647	304.514	174.563	333.148	339.480	305.167	197.820	45.249	196.190	46.803	302.312	201.449	240.795	133.390	350.458	0.00047623	0.00033755	6.008e-05	247.29	7.2931e-06	1.4266e-05	345.17	80.243	8.5188e-06	5.0809e-06	134.37	58.097	29.373	11.499	7.4041e-06	25.708	0.015209	0.028399	0.0080062	306.99	0.00027027	0.00032292	397.67	99.094	0.0002659	0.00032406	165.51	68.02	38.715	15.052	0.00028097	30.42	42.849	129.535	251.761	34.639	133.379	202.220	33.731	39.300	153.045	179.668	36.654	39.991	42.145	46.193	155.368	42.936	-8191	255	
6000.049	1	1	0	0	0.25182	0.022169	0.19898	0.071786	0.27649	0.24705	0.23319	0.072366	0.14089	0.17593	0.11453	0.11825	0.14987	0.25793	0.20798	0.22353	-2.0229	-2.9958	-2.6833	-2.6208	-3.0896	-2.6854	-2.8396	-2.7167	-2.6646	-2.9958	-2.6271	-2.7583	-2.9354	-2.5479	-2.9354	-2.8146	35.169	354.698	200.678	48.475	264.477	234.582	258.889	145.711	370.286	130.066	119.082	77.367	375.116	380.448	267.298	362.784	0.0003337	0.0012828	6.4298e-05	246.48	1.1513e-05	2.0562e-05	344.89	80.054	1.614e-05	1.0304e-05	134.71	58.518	29.248	11.65	6.5502e-06	25.857	0.015391	0.028378	0.0080831	305.63	0.00027303	0.00032449	398.09	99.08	0.00026911	0.00032285	166.17	68.18	38.786	15.15	0.00028409	30.702	41.894	88.578	124.298	35.001	259.111	177.537	33.544	38.911	118.166	178.051	37.020	40.170	42.870	46.101	319.675	43.240	-8191	255	
6000.145	1	1	0	0	0.25186	0.08625	0.19381	0.1561	0.096326	0.12764	0.1202	0.17288	0.023259	0.082315	0.16696	0.055723	0.097006	0.2976	0.31205	0.15492	-2.1104	-3.1604	-2.5812	-2.6771	-2.9896	-2.6604	-2.8625	-3.0396	-2.4062	-3.1375	-2.6646	-2.8438	-3.1271	-2.5604	-2.8771	-2.9104	289.013	376.587	362.095	285.773	257.314	172.569	275.978	323.365	365.219	44.073	110.307	111.938	48.975	360.069	61.648	329.659	0.00026062	0.001145	0.00035002	248.44	1.482e-05	1.1289e-05	346.46	79.601	8.4165e-06	2.028e-05	133.81	58.2	29.649	11.651	9.4693e-06	26.225	0.015393	0.028551	0.008128	307.56	0.00027317	0.00032228	398.69	99.378	0.00026716	0.00032251	166.23	68.566	38.864	15.16	0.00028563	30.988	41.153	92.332	114.988	34.683	159.490	222.623	33.324	39.136	366.479	113.483	37.241	40.503	42.996	46.102	193.739	42.929	-8191	255	
6000.266	1	1	0	0	0.23151	0.31891	0.23322	0.26338	0.15826	0.13534	0.1292	0.083925	0.15181	0.14761	0.12057	0.15831	0.25616	0.18773	0.030214	0.12873	-2.05	-2.9771	-2.8063	-2.5375	-2.8729	-2.7333	-2.7375	-2.9479	-2.5083	-3.1208	-2.925	-2.7521	-2.9979	-2.6042	-2.8458	-2.9375	373.235	36.037	133.368	113.059	63.451	285.723	316.927	47.313	44.788	244.599	44.971	371.780	76.054	226.423	64.813	370.799	0.0004585	0.00030455	0.00042877	247.03	8.1894e-06	5.6985e-06	346.68	80.117	7.2259e-06	8.4435e-06	133.54	58.148	29.221	11.653	5.4269e-06	25.701	0.015479	0.028666	0.0082183	307.65	0.0002746	0.00032743	400.1	99.614	0.00027049	0.00032867	166.39	68.434	38.64	15.199	0.00029311	30.788	33.340	272.023	116.202	34.749	103.345	139.372	33.625	39.024	47.937	198.507	36.714	40.401	42.462	46.143	230.934	42.990	-8191	255	
6000.360	1	1	0	0	0.056032	0.16814	0.080911	0.33819	0.18421	0.25888	0.15361	0.18189	0.075668	0.0054822	0.039301	0.028352	0.23918	0.08116	0.16782	0.22497	-2.1604	-2.9292	-2.6896	-2.6083	-2.9562	-2.7542	-2.9208	-2.95	-2.6542	-2.9208	-2.925	-2.6042	-2.9292	-2.6833	-2.5625	-3.0271	259.917	356.421	260.100	282.306	25.581	99.644	327.178	84.959	46.583	21.309	105.366	338.701	170.758	71.507	257.899	313.203	0.00026447	0.00071194	0.00034422	245.91	4.7615e-06	2.5097e-06	346.62	79.433	9.1866e-06	3.497e-06	132.72	57.747	29.205	11.503	1.1934e-05	25.602	0.015662	0.029183	0.0083907	308.34	0.00027669	0.00033427	400.84	99.467	0.00027404	0.00033287	166.86	68.269	38.63	15.178	0.00029671	30.734	106.484	251.255	381.014	34.709	134.456	352.408	33.633	39.205	259.173	156.538	36.443	40.452	42.863	45.913	181.503	42.577	-8191	255	
6000.458	1	1	0	0	0.12458	0.12554	0.21225	0.045028	0.12362	0.066202	0.32922	0.25288	0.14	0.076187	0.029355	0.35149	0.19909	0.12574	0.063	0.25287	-2.2375	-2.7042	-3.0208	-2.4458	-2.9917	-2.8937	-2.475	-2.9854	-2.6188	-2.8146	-3.0458	-2.525	-3.1521	-2.8542	-2.6583	-2.9813	328.785	201.608	202.770	94.632	128.036	49.504	251.305	31.497	297.642	279.241	218.759	264.307	135.084	154.819	299.516	236.954	0.00051297	0.00087907	0.00015121	246.17	3.5341e-06	1.5457e-05	343.74	79.165	6.7237e-06	6.4319e-06	134.17	57.686	29.176	11.477	1.5267e-05	25.563	0.015862	0.029392	0.0084977	308.86	0.00027786	0.00033744	401.13	99.325	0.00027289	0.0003362	167.02	68.242	38.552	15.207	0.00029857	30.701	41.168	148.367	244.694	34.355	64.371	107.566	33.625	38.764	346.597	320.764	36.744	40.438	42.649	45.947	236.066	42.971	-8191	255	
6000.553	1	1	0	0	0.0072257	0.14787	0.34837	0.17796	0.22514	0.39392	0.27414	0.14928	0.10152	0.20433	0.029474	0.11267	0.21454	0.21366	0.1161	0.071321	-2.3375	-2.7125	-3.0083	-2.4042	-3.0792	-2.7646	-2.625	-3.0458	-2.7229	-2.7625	-3.0479	-2.6333	-2.7708	-2.7542	-2.5	-3.0396	134.995	251.083	234.305	136.848	110.916	141.696	244.635	282.904	65.747	34.401	49.744	101.965	267.977	144.513	162.555	86.247	0.00039315	0.00051207	0.00030876	246.93	8.0068e-06	1.0709e-05	345.45	79.57	1.6873e-05	8.4931e-06	132.19	57.695	28.955	11.532	9.8475e-06	25.951	0.01587	0.029701	0.0084557	310.29	0.00027561	0.00034368	402.13	99.05	0.00027555	0.00033872	166.44	68.28	38.498	15.257	0.00029954	30.839	44.742	365.961	170.269	35.018	315.655	162.398	33.534	39.381	229.588	222.244	36.817	40.677	42.082	45.566	363.760	43.216	-8191	255	
6000.649	1	1	0	0	0.1553	0.26971	0.19276	0.014608	0.32036	0.039131	0.2461	0.40665	0.021887	0.066691	0.22553	0.19809	0.19216	0.26272	0.23396	0.15204	-2.1937	-2.5312	-3.025	-2.5708	-2.9333	-3.1667	-2.625	-3.0396	-2.8896	-2.9083	-3.1458	-2.8042	-3.025	-3.0938	-2.5625	-3.0938	67.586	256.826	176.361	234.009	160.706	146.081	311.964	351.284	77.984	354.344	265.059	21.332	303.193	289.100	192.282	50.467	0.0008715	0.00061188	0.00020044	248.37	9.11e-06	5.035e-06	347.99	79.59	5.877e-06	8.1969e-06	132.4	57.768	28.934	11.493	5.6917e-06	25.765	0.015966	0.029757	0.0084375	310.21	0.00027634	0.00033859	401.71	98.993	0.00027564	0.00033876	166.12	67.877	38.446	15.111	0.00029693	30.523	57.329	126.822	119.923	34.876	199.737	379.343	33.671	38.972	372.095	157.951	37.098	40.608	42.905	46.284	192.672	43.187	-8191	255	
6000.745	1	1	0	0	0.071883	0.23744	0.14383	0.05726	0.046593	0.12041	0.12617	0.15446	0.1166	0.086295	0.19421	0.06447	0.22777	0.27116	0.11203	0.30389	-2.4229	-2.45	-3.0417	-2.6437	-2.8771	-2.9188	-2.6208	-3.0771	-2.8542	-2.8	-3.2	-2.6104	-2.8833	-3.1333	-2.675	-2.9688	204.602	250.222	49.623	48.318	266.851	258.253	71.408	34.194	150.543	345.589	64.590	262.327	39.128	180.200	275.435	315.078	0.00058624	0.00043909	0.00027436	248.92	8.7732e-06	9.1249e-06	346.2	79.058	9.7373e-06	5.5432e-06	133.91	57.045	29.257	11.494	6.7501e-06	25.433	0.015934	0.029855	0.0083391	307.84	0.00027674	0.00033794	400.76	98.142	0.00027535	0.00033782	165.17	67.356	38.272	15.051	0.00029305	30.183	26.432	287.912	100.944	34.605	124.234	282.742	33.684	38.862	168.566	307.495	37.015	40.652	42.661	45.870	281.461	43.085	-8191	255	
6000.866	1	1	0	0	0.11285	0.26466	0.13632	0.23806	0.10801	0.17664	0.086585	0.18033	0.40662	0.19307	0.11632	0.027966	0.14992	0.14892	0.050338	0.26227	-2.3521	-2.4854	-3.0083	-2.6333	-2.6875	-3.1	-2.425	-2.8292	-2.8958	-2.5646	-3.1562	-2.7771	-2.9625	-3.1292	-2.6042	-2.9813	377.837	66.199	143.667	251.182	286.225	345.061	327.133	267.378	43.993	46.426	287.482	87.407	262.907	370.584	187.620	347.340	0.00052033	0.00023084	0.00017751	247.57	3.5176e-06	4.8228e-06	345.42	79.521	1.9393e-05	4.4501e-06	133.55	57.59	28.816	11.406	1.1764e-05	25.515	0.015913	0.029622	0.0082992	308.52	0.00027481	0.00033655	399.38	98.358	0.00027566	0.00033434	164.27	67.402	38.221	14.993	0.0002887	30.286	35.737	127.987	41.269	35.143	302.710	144.247	33.617	38.723	295.617	149.123	37.129	40.619	42.540	46.094	196.439	43.082	-8191	255	
6000.962	1	1	0	0	0.22366	0.25971	0.18396	0.17453	0.18716	0.057753	0.1937	0.1536	0.18562	0.32658	0.21908	0.3361	0.10832	0.30169	0.1593	0.18768	-2.4854	-2.5729	-2.8229	-2.8125	-2.7938	-3.1021	-2.6021	-2.7979	-3.075	-2.5708	-3.0771	-2.7083	-2.5458	-3.1417	-2.7	-2.8688	121.344	272.511	34.054	34.454	30.334	50.041	271.449	104.808	360.644	149.610	293.099	306.515	329.928	267.091	362.158	58.062	0.00045561	0.00025669	0.00015797	248.6	6.6386e-06	9.585e-06	345.11	79.315	1.3271e-05	5.4254e-06	133.68	57.498	29.133	11.443	9.3867e-06	25.594	0.015843	0.02926	0.0081452	308.03	0.00027749	0.00033227	399.29	98.422	0.00027541	0.00033314	164.77	67.508	38.585	15.007	0.00029048	30.454	65.801	190.928	120.758	35.037	324.012	192.407	33.713	38.804	117.081	193.999	36.896	40.395	42.438	45.931	174.987	42.854	-8191	255	
6001.058	1	1	0	0	0.13782	0.18681	0.22876	0.36593	0.046838	0.21618	0.22842	0.18909	0.061385	0.15323	0.1275	0.16432	0.014089	0.11375	0.23748	0.059819	-2.6083	-2.4167	-2.8958	-2.8438	-2.5854	-3.0312	-2.8542	-2.7313	-2.9167	-2.5958	-2.9229	-2.7313	-2.6458	-2.8937	-2.6625	-2.7917	166.732	291.475	151.119	204.640	275.390	21.336	88.474	354.510	220.312	75.622	70.482	66.501	116.590	206.483	251.954	184.454	0.00071043	0.00062215	0.00020212	245.26	4.5085e-06	6.2926e-06	345.59	79.309	2.1251e-05	4.7418e-06	132.4	57.238	28.869	11.308	1.1123e-05	25.646	0.015808	0.029196	0.008165	308.24	0.00027417	0.00032866	400.43	98.518	0.00027421	0.00033109	164.27	67.692	38.339	14.905	0.00028762	30.294	366.697	45.302	165.260	35.218	254.130	177.209	34.056	38.767	185.172	216.100	36.983	40.285	42.629	45.847	359.931	42.822	-8191	255	
6001.154	1	1	0	0	0.24764	0.069931	0.12424	0.046312	0.23271	0.22143	0.22323	0.096765	0.21939	0.1285	0.34852	0.28749	0.26155	0.33888	0.051819	0.14112	-2.4625	-2.5104	-2.9354	-2.6917	-2.6667	-3.1063	-2.7958	-2.8187	-3.0563	-2.6146	-2.9042	-2.9583	-2.5083	-2.9583	-2.5875	-2.7188	287.496	86.408	89.525	256.902	362.139	145.977	361.628	223.646	90.375	70.824	272.701	364.032	252.196	134.403	105.344	188.429	0.00048567	0.0004025	8.03e-05	244.75	8.6057e-06	4.9696e-06	342.35	78.039	1.2419e-05	3.4296e-06	131.44	57.16	28.813	11.266	1.466e-05	25.421	0.015673	0.028972	0.0080187	306.22	0.00027357	0.00032157	396.88	97.761	0.00026736	0.00032365	163.34	67.328	38.066	14.776	0.00028833	30.163	69.478	98.999	138.376	34.437	162.214	133.203	33.849	39.045	109.063	193.937	36.760	40.289	41.988	46.031	187.467	42.774	-8191	255	
6001.226	1	1	0	0	0.19465	0.07873	0.088897	0.19671	0.26017	0.20668	0.050706	0.31219	0.13257	0.26857	0.15298	0.099505	0.24973	0.24479	0.24899	0.094837	-2.6271	-2.6958	-2.7667	-2.9896	-2.4229	-3.0687	-2.7854	-2.6333	-2.8792	-2.5854	-2.8187	-2.7875	-2.6667	-2.9188	-2.7687	-2.7729	184.657	24.810	361.349	300.079	276.123	73.283	36.603	324.102	150.324	42.656	108.660	169.763	323.945	85.788	201.294	234.617	0.0004328	0.00068261	0.00012573	245.77	9.958e-06	9.4461e-06	346.32	79.371	6.4545e-06	6.5894e-06	133.81	57.163	28.819	11.425	4.7149e-06	25.629	0.015482	0.028537	0.0080009	305.86	0.00027105	0.00032127	397.39	98.238	0.00026776	0.00032552	163.79	67.512	38.116	14.832	0.00028652	30.359	60.020	180.544	182.870	34.951	121.164	93.918	33.654	39.341	275.567	53.791	36.811	40.582	42.465	46.107	118.159	42.906	-8191	255	
6001.345	1	1	0	0	0.10474	0.12383	0.098542	0.13289	0.10478	0.17986	0.067464	0.066066	0.16476	0.027035	0.20865	0.09931	0.23131	0.024403	0.14582	0.15692	-2.6396	-2.6708	-2.7687	-2.9833	-2.5333	-2.9938	-2.8646	-2.6208	-2.8979	-2.7396	-2.8208	-3.0208	-2.4396	-2.9458	-2.8604	-2.5	372.765	357.018	369.479	191.656	346.813	279.983	224.185	56.414	260.655	237.826	293.484	131.847	339.162	334.616	317.351	117.896	0.00063383	0.0012062	0.00012422	249.26	2.8688e-06	7.536e-06	348.71	80.083	4.1481e-06	6.7999e-06	133.42	57.972	29.404	11.547	6.5193e-06	25.622	0.015282	0.028501	0.0080537	305.89	0.0002689	0.00031758	398.86	98.651	0.00026244	0.00032008	164.44	67.781	38.155	14.94	0.00028715	30.439	41.265	194.333	93.343	34.384	360.805	66.355	33.773	39.402	213.142	185.292	37.049	40.629	42.772	46.625	253.304	43.332	-8191	255	
6001.441	1	1	0	0	0.024795	0.091643	0.11433	0.15598	0.12488	0.12478	0.13328	0.1087	0.2963	0.13904	0.15991	0.21763	0.072712	0.046283	0.080366	0.11959	-2.4688	-2.8125	-2.5417	-3.0271	-2.6896	-2.9354	-2.9729	-2.5979	-3.1396	-2.8	-2.5979	-2.8708	-2.575	-2.8146	-2.9271	-2.5563	162.696	99.700	360.680	377.985	158.990	319.366	56.459	136.491	233.236	204.322	75.678	329.935	121.434	278.549	267.654	252.343	0.00066629	0.00040294	0.00032419	251.92	6.7661e-06	9.4751e-06	350.03	80.622	9.0807e-06	3.355e-06	134.78	57.937	29.332	11.467	9.3897e-06	25.451	0.01511	0.028404	0.0079743	309.54	0.00026476	0.0003157	400.43	98.776	0.00026034	0.00032026	164.83	67.43	38.296	14.805	0.00028471	30.154	36.139	30.934	88.161	34.337	191.771	99.719	33.422	39.629	205.820	279.225	37.053	40.472	42.507	46.207	213.050	43.452	-8191	255	
6001.539	1	1	0	0	0.11621	0.065211	0.25953	0.085898	0.16116	0.067974	0.2438	0.29946	0.16837	0.20559	0.13322	0.22066	0.24766	0.0040142	0.1448	0.22871	-2.7021	-2.8646	-2.5938	-3.0938	-2.5938	-2.7729	-2.9896	-2.3333	-2.8479	-2.7938	-2.7438	-3.1833	-2.6396	-2.6583	-2.8333	-2.5896	262.420	98.976	349.575	85.489	257.789	315.420	72.195	264.493	365.941	373.892	52.045	46.478	204.825	300.305	368.004	309.701	0.00052828	0.00036394	0.00015315	249.53	9.2694e-06	3.6562e-06	350.78	80.365	6.818e-06	4.5752e-06	133.35	57.167	29.008	11.373	4.0547e-06	25.279	0.014822	0.028255	0.0079072	307.76	0.00026151	0.00031118	399.88	98.284	0.00025364	0.00031666	162.95	66.683	37.794	14.708	0.00027922	29.845	47.274	24.327	215.621	34.892	132.132	376.318	33.633	39.003	84.327	110.003	37.102	40.515	42.497	46.369	330.311	42.706	-8191	255	
6001.657	1	1	0	0	0.081693	0.19123	0.16289	0.36287	0.23819	0.14919	0.10646	0.25946	0.26027	0.1923	0.086716	0.37913	0.14904	0.1327	0.17695	0.23535	-2.4708	-2.8667	-2.5	-3.0812	-2.6292	-2.7604	-3.0333	-2.6458	-2.8875	-2.9792	-2.5958	-3.2229	-2.6146	-2.6104	-3.0417	-2.6417	260.545	189.168	56.698	142.059	216.217	167.937	349.089	357.246	199.715	192.582	342.179	375.420	323.700	156.318	146.754	56.818	0.0003022	0.00071661	0.00040121	250.15	6.3469e-06	5.1139e-06	348.6	79.907	1.9514e-05	2.9315e-06	133.71	57.169	28.975	11.371	3.8133e-06	25.4	0.014683	0.028022	0.0078061	306.18	0.00025766	0.00031124	397.52	97.787	0.00025134	0.00031807	162.65	66.594	37.741	14.724	0.0002773	29.844	41.575	84.977	363.432	34.841	182.834	80.205	34.198	39.119	353.045	185.925	37.057	40.460	42.707	45.898	250.814	42.801	-8191	255	
6001.754	1	1	0	0	0.16489	0.14863	0.35362	0.22002	0.24121	0.18211	0.12503	0.17819	0.035971	0.23792	0.094425	0.42023	0.12577	0.12884	0.39486	0.15445	-2.6021	-2.8771	-2.3667	-3.0979	-2.8708	-2.7313	-3.1146	-2.65	-2.9771	-3.05	-2.5667	-2.8812	-2.8812	-2.7479	-3.0792	-2.6458	302.545	78.619	313.052	61.520	304.082	175.859	22.694	64.710	139.792	342.555	36.522	311.577	275.854	40.592	218.016	190.020	0.00033483	0.00044184	0.00018855	249.24	5.446e-06	4.2056e-06	347.29	79.279	4.0772e-06	1.4347e-05	131.84	56.878	29.133	11.398	9.1828e-06	25.58	0.014656	0.02791	0.0078215	306.08	0.00026195	0.00031366	396.27	97.446	0.00025539	0.00031723	163.03	66.802	37.965	14.791	0.00027544	30.178	32.941	339.428	213.469	34.815	179.239	57.683	33.615	38.674	228.588	263.483	36.781	40.743	42.532	46.193	231.075	42.620	-8191	255	
6001.825	1	1	0	0	0.047834	0.052555	0.12798	0.11302	0.13746	0.12461	0.091359	0.10811	0.10181	0.082361	0.042665	0.080162	0.18426	0.11618	0.072397	0.16816	-2.375	-2.95	-2.6583	-2.8104	-2.8271	-2.6729	-3.1188	-2.6792	-2.8979	-3.0396	-2.4542	-2.9479	-2.7583	-2.6771	-2.8958	-2.775	218.632	162.787	193.680	326.906	127.661	267.328	301.098	236.969	147.299	242.938	319.051	251.206	328.841	79.618	251.318	364.537	0.00055311	0.00071837	0.00019604	248.41	8.6226e-06	1.3101e-05	346.64	79.157	5.8571e-06	7.9305e-06	133.13	57.179	28.754	11.434	4.8309e-06	25.455	0.014863	0.028135	0.0078596	304.72	0.0002637	0.0003163	396.48	97.608	0.00025495	0.00031751	162.81	66.823	37.949	14.797	0.00027617	30.089	42.577	290.300	289.466	35.220	169.132	336.295	33.846	39.174	225.600	123.538	37.062	40.764	42.465	45.877	169.148	42.918	-8191	255	
6001.946	1	1	0	0	0.13048	0.092732	0.15043	0.20797	0.087873	0.31842	0.23375	0.044018	0.23413	0.13202	0.12678	0.12503	0.2117	0.085373	0.25918	0.29048	-2.2604	-2.8438	-2.7292	-2.8521	-2.9354	-2.6104	-3.125	-2.9375	-2.7479	-3.1542	-2.4708	-2.9917	-2.9188	-2.5083	-2.8979	-2.6437	78.949	209.177	40.767	313.861	105.247	68.849	351.970	98.538	127.888	289.373	62.330	174.388	207.921	299.133	129.221	365.496	0.00069987	0.00046748	0.00012985	247.1	6.382e-06	1.4864e-05	342.12	78.978	1.685e-05	3.8972e-06	132	56.786	28.821	11.29	8.594e-06	25.054	0.014778	0.028143	0.0077754	303.92	0.00026357	0.00031376	393.95	97.267	0.00025627	0.00031683	161.31	66.424	37.677	14.648	0.00027278	29.78	43.081	236.644	44.836	34.825	176.423	191.953	33.783	39.307	215.137	314.531	36.687	40.052	42.056	46.507	61.840	42.452	-8191	255	
6002.042	1	1	0	0	0.17598	0.12641	0.037201	0.22108	0.080957	0.0057071	0.22032	0.069666	0.076391	0.13813	0.15708	0.16189	0.12755	0.19371	0.22413	0.18364	-2.1917	-2.9208	-2.7146	-3.0042	-2.8396	-2.4729	-2.9625	-2.7625	-2.825	-3.0208	-2.6188	-2.6396	-2.8979	-2.6375	-3.0229	-2.6646	231.004	346.643	226.552	311.697	162.107	60.410	109.684	36.193	52.620	174.330	322.841	233.222	184.089	369.697	155.460	223.661	0.00028325	0.00073301	0.00014042	243.71	8.6241e-06	1.0345e-06	341.31	77.859	8.3006e-07	1.1358e-05	130.47	56.669	28.19	11.194	7.4865e-06	25.241	0.014864	0.027679	0.0076812	301.78	0.00026428	0.00031236	391.3	96.825	0.00025601	0.00031333	160.69	66.188	37.657	14.654	0.00027257	29.933	57.712	26.777	223.412	34.733	206.596	114.550	33.581	38.916	283.301	87.926	36.561	39.805	43.111	45.519	67.234	43.162	-8191	255	
6002.138	1	1	0	0	0.066066	0.22251	0.11914	0.08906	0.21555	0.052885	0.063428	0.21899	0.24482	0.11409	0.077778	0.076963	0.35079	0.20033	0.22479	0.15735	-2.2062	-3.1208	-2.7375	-2.7708	-3.1167	-2.5458	-3.1396	-2.9146	-2.5021	-3.1	-2.6667	-2.7583	-2.9333	-2.7687	-3.025	-3.0042	296.728	110.377	157.703	162.304	56.312	359.743	205.778	34.874	166.550	251.917	31.845	255.488	267.354	242.394	255.877	97.908	0.00060167	0.00063341	0.00034313	244.09	1.3081e-05	8.9091e-06	341.77	78.712	1.2649e-05	1.0889e-05	132.44	57.494	28.794	11.481	9.8478e-06	25.81	0.014941	0.02749	0.0077279	301.53	0.00026638	0.00030975	392.13	97.052	0.00025758	0.00031143	161.42	66.883	37.818	14.736	0.00027291	30.111	33.133	179.081	118.269	34.860	39.345	123.028	33.869	38.925	151.695	190.513	36.602	40.382	42.023	46.464	135.382	43.026	-8191	255	
6002.259	1	1	0	0	0.014812	0.016426	0.20118	0.20215	0.084267	0.035944	0.016312	0.16779	0.064748	0.048376	0.061275	0.18769	0.24564	0.19704	0.24549	0.27814	-2.1937	-3.0854	-2.7104	-2.6688	-2.9479	-2.6229	-2.7583	-2.75	-2.6208	-3.0604	-2.6562	-2.6708	-3.05	-2.5021	-2.8125	-2.8333	376.233	377.821	249.254	319.354	321.661	84.576	230.145	290.845	44.718	23.518	293.089	91.308	347.791	26.567	336.437	302.423	0.00076558	0.00061846	0.00023779	246.8	1.5366e-05	1.0662e-05	344.21	79.186	2.1798e-05	4.4522e-06	131.9	57.353	28.802	11.422	2.422e-06	25.571	0.014807	0.027296	0.0077654	302.78	0.00026039	0.00031031	392.93	97.538	0.00025561	0.00030879	161.74	66.925	37.684	14.687	0.00027535	30.128	60.506	193.571	147.002	34.560	83.086	128.686	34.149	38.872	208.922	235.536	37.477	40.636	42.456	45.971	136.596	43.225	-8191	255	
6002.355	1	1	0	0	0.11933	0.23618	0.11085	0.21949	0.27454	0.10743	0.25532	0.1083	0.14104	0.16686	0.10268	0.19236	0.12203	0.27346	0.078669	0.18183	-2.0854	-2.8104	-2.6458	-2.6354	-2.9792	-2.6937	-2.725	-2.9042	-2.3854	-2.9813	-2.6875	-2.675	-2.9021	-2.7792	-2.7292	-2.8083	87.227	274.275	254.827	355.666	116.890	106.828	128.738	96.138	300.272	212.540	76.382	288.794	154.122	89.919	107.079	262.782	0.00042969	0.0010015	7.9615e-05	246.32	1.7234e-05	3.9324e-06	343.37	78.33	2.7253e-06	3.6511e-06	133.78	56.848	28.867	11.302	6.5257e-06	25.479	0.014858	0.027224	0.0078454	302.96	0.00026306	0.00031301	391.63	96.991	0.00025748	0.0003106	162.07	66.505	37.588	14.655	0.00027548	30.002	81.117	96.445	151.518	34.624	241.250	361.168	33.748	39.051	286.555	79.777	36.859	40.980	42.566	45.863	246.357	42.718	-8191	255	
6002.449	1	1	0	0	0.19528	0.31758	0.17542	0.15954	0.10615	0.23181	0.058423	0.10436	0.15807	0.07208	0.19807	0.21992	0.16565	0.13761	0.16354	0.18529	-2.0896	-2.9042	-2.7479	-2.7125	-3.2354	-2.7479	-2.7458	-3.0083	-2.6854	-3.0083	-2.9458	-2.3979	-2.8417	-2.6562	-2.7125	-3.2	100.579	29.990	253.135	377.566	161.553	194.231	294.597	310.857	63.991	133.194	292.892	250.509	165.921	206.289	231.003	318.533	0.00044242	0.00067983	0.00016452	245.63	8.025e-06	5.379e-07	342.81	78.398	1.2076e-05	5.2536e-06	130.2	57.282	28.296	11.376	5.3403e-06	25.386	0.014722	0.027207	0.0078884	301.06	0.00025815	0.00031006	390.88	96.743	0.00025491	0.00030967	161.33	66.569	37.259	14.718	0.00027688	29.987	103.198	161.811	371.091	34.881	270.435	96.909	33.850	38.861	133.559	154.199	36.876	40.523	42.982	46.186	117.558	42.937	-8191	255	
6002.521	1	1	0	0	0.24589	0.20008	0.09151	0.24327	0.15296	0.21842	0.16953	0.058702	0.1469	0.37279	0.028666	0.22773	0.21018	0.11871	0.19411	0.17822	-2.2	-2.7833	-2.8458	-2.4333	-2.8312	-2.8146	-2.7	-2.95	-2.6458	-2.7917	-2.9417	-2.575	-3.0646	-2.8354	-2.6729	-3.1292	267.100	353.255	340.247	286.014	304.790	297.670	308.848	169.098	360.460	147.706	330.211	55.025	129.823	212.303	101.007	204.194	0.00069945	0.0010381	0.00011816	244.62	6.7922e-06	1.2252e-05	341.55	78.282	1.0376e-05	5.4547e-06	129.51	56.392	28.668	11.445	6.0274e-06	25.173	0.014735	0.027503	0.007852	301.76	0.00025855	0.00031546	391.6	96.619	0.00025568	0.00031493	161.14	66.686	37.46	14.754	0.00027897	30.053	49.680	127.623	319.864	34.663	242.996	224.473	33.847	39.012	263.156	82.726	37.198	39.919	42.644	45.701	138.821	42.677	-8191	255	
6002.642	1	1	0	0	0.13142	0.1973	0.25499	0.1714	0.076578	0.15622	0.20127	0.18485	0.11813	0.1667	0.18966	0.1967	0.16114	0.063165	0.088751	0.2037	-2.275	-2.9813	-2.9146	-2.5521	-3.0167	-2.8937	-2.9292	-3.1542	-2.8208	-2.8042	-3.0271	-2.5292	-2.7875	-2.8979	-2.5729	-3.0125	95.942	348.628	354.388	62.188	253.263	47.087	104.709	48.097	227.110	201.487	265.846	37.690	374.555	336.842	86.916	358.689	0.00021892	0.0005936	0.00024252	241.87	1.0279e-05	6.3792e-06	342.27	78.735	6.7835e-06	1.7189e-05	132.12	57.058	28.864	11.369	5.2981e-06	25.397	0.01486	0.02767	0.0079042	301.1	0.00025814	0.00031516	393.25	97.268	0.00025543	0.0003166	162.16	66.953	37.755	14.842	0.00027852	30.096	81.056	80.624	49.201	34.881	71.581	198.446	33.782	38.731	363.337	121.155	36.955	40.776	42.723	46.052	34.037	42.978	-8191	255	
6002.738	1	1	0	0	0.21832	0.10393	0.26812	0.17154	0.14254	0.10391	0.1343	0.20963	0.10661	0.076901	0.18064	0.24041	0.13191	0.088732	0.20904	0.11064	-2.1854	-2.6562	-3.0083	-2.5354	-3.0125	-2.9417	-2.4917	-3.2625	-2.7396	-2.6833	-2.9521	-2.6458	-2.775	-3.0104	-2.6708	-3.1375	223.620	145.971	81.111	329.376	200.630	231.705	376.363	328.845	334.838	229.371	306.201	316.852	302.324	194.045	325.824	64.013	0.0004929	0.0013148	0.00017032	245.48	1.6392e-05	4.8192e-06	341.92	77.365	6.1197e-06	1.2425e-05	129.87	57.006	28.728	11.193	5.7401e-06	25.132	0.014926	0.027963	0.0079632	302.95	0.00026124	0.00032021	394.19	96.666	0.00026125	0.00031728	161.9	66.558	37.54	14.742	0.00027948	29.855	61.548	72.500	50.216	34.872	229.476	209.323	33.771	38.627	339.822	157.449	36.915	40.087	42.479	45.924	202.659	42.712	-8191	255	
6002.834	1	1	0	0	0.052989	0.30935	0.30979	0.081053	0.32501	0.040392	0.2063	0.03673	0.16078	0.14987	0.13443	0.19238	0.1074	0.25173	0.23989	0.23179	-2.4604	-2.6063	-2.9104	-2.6042	-2.8583	-3.0292	-2.5708	-3.0417	-2.8333	-2.7104	-3.1979	-2.6604	-2.8875	-3.0646	-2.6417	-3.0479	133.431	287.958	130.479	240.768	349.890	349.715	222.603	133.444	333.219	339.569	21.356	377.012	81.584	299.593	171.717	276.400	0.00040025	0.0005339	0.0002568	242.42	5.2526e-06	1.2737e-05	339.06	78.202	1.3736e-05	5.5952e-06	129.09	56.88	28.628	11.318	2.7264e-06	25.299	0.015136	0.028198	0.0079673	302.02	0.00026222	0.00032161	391.46	96.881	0.00026146	0.00031926	161.42	66.871	37.658	14.843	0.00027858	29.962	370.473	58.108	311.087	34.883	193.035	150.423	33.317	38.730	115.531	136.186	36.471	40.267	43.052	46.519	374.079	42.858	-8191	255	
6002.930	1	1	0	0	0.079759	0.19418	0.10829	0.1364	0.10482	0.088754	0.18155	0.10522	0.10731	0.17441	0.079336	0.058755	0.1014	0.17614	0.1343	0.16485	-2.4792	-2.3271	-3.0187	-2.7146	-2.7271	-2.9333	-2.4979	-2.9167	-2.8354	-2.5667	-3.2917	-2.7667	-2.7875	-2.875	-2.5875	-2.8042	67.972	196.598	346.467	72.316	26.771	317.714	359.825	230.832	109.685	230.695	246.893	350.495	188.079	60.457	113.634	78.801	0.00051746	0.00069725	0.00015514	243.21	7.8963e-06	1.878e-06	338.08	78.222	4.6967e-06	3.1957e-06	132.11	57.126	28.667	11.394	1.2233e-05	25.559	0.01514	0.028066	0.0079148	300.67	0.00026427	0.0003214	391.22	96.894	0.00026262	0.00032212	161.89	67.212	37.909	14.904	0.00028007	30.258	47.514	211.449	47.879	34.694	131.583	66.824	33.748	39.076	100.978	214.012	36.609	40.346	42.565	45.730	200.652	42.798	-8191	255	
6003.051	1	1	0	0	0.12988	0.16103	0.20098	0.10892	0.11124	0.011287	0.23703	0.20397	0.15971	0.033465	0.090902	0.16968	0.33609	0.137	0.17037	0.10283	-2.4583	-2.4917	-2.7625	-2.6833	-2.8354	-2.9375	-2.5646	-2.7479	-3.0354	-2.5167	-2.8292	-2.8875	-2.7542	-2.9583	-2.5563	-2.9375	27.197	272.876	243.025	51.203	91.020	116.570	306.753	188.090	281.329	57.636	233.559	362.248	361.659	199.171	260.284	174.842	0.00050626	0.00014625	0.00010699	243.49	1.9618e-05	7.9929e-06	340.92	79.492	1.281e-05	4.1275e-06	132.54	57.642	29.162	11.499	6.6506e-06	25.774	0.015235	0.028127	0.0078757	301.27	0.00026579	0.00031894	394.88	97.547	0.00026412	0.00032068	162.89	67.563	38.241	14.964	0.00028029	30.449	64.947	354.890	378.232	35.054	153.806	168.940	33.693	39.041	346.556	143.469	37.218	40.577	41.969	45.747	356.163	43.072	-8191	255	
6003.122	1	1	0	0	0.1717	0.14857	0.11149	0.13243	0.092116	0.17642	0.069379	0.28155	0.18223	0.25035	0.11243	0.03461	0.063801	0.10492	0.15631	0.17563	-2.5271	-2.4521	-3.0312	-2.8688	-2.6312	-3.2062	-2.6146	-2.8375	-3.0771	-2.5187	-2.9458	-2.825	-2.6375	-3.0417	-2.7729	-3.0083	291.856	155.409	174.260	297.516	202.884	273.984	365.841	363.486	322.253	21.564	224.421	175.888	218.651	78.767	123.771	83.472	0.00036225	0.00072351	0.00018587	244.48	1.1628e-05	7.0743e-06	340.64	78.701	1.1036e-05	9.6904e-06	130.37	56.887	28.709	11.366	1.2047e-05	25.356	0.01535	0.028099	0.0078702	302.85	0.00026708	0.00032033	392.9	97.57	0.00026609	0.00032047	161.8	67.265	38.019	14.867	0.00028338	30.258	25.992	296.655	184.470	34.794	371.629	298.367	33.893	38.643	247.373	176.635	37.116	40.658	42.062	46.277	268.775	42.268	-8191	255	
6003.219	1	1	0	0	0.38654	0.26424	0.27667	0.23352	0.18219	0.32248	0.10366	0.07555	0.097692	0.15827	0.067017	0.17529	0.040404	0.26184	0.17246	0.32841	-2.35	-2.5708	-3.0042	-2.6958	-2.5833	-3.2083	-2.7542	-2.7313	-3.0625	-2.6542	-2.8438	-2.8771	-2.6167	-3.0312	-2.7125	-2.7833	247.504	225.696	162.173	152.605	241.079	103.926	51.774	20.747	352.220	346.969	125.185	131.476	58.676	72.363	78.175	351.206	0.00053717	0.0012938	0.00039165	240.53	1.2986e-05	7.6627e-06	338.75	77.971	1.8836e-05	8.6142e-06	131.44	57.004	28.805	11.341	1.0326e-05	25.553	0.015313	0.02804	0.0078965	302.29	0.00026729	0.00031511	390.09	97.178	0.00026445	0.00031733	161.64	67.197	38.049	14.819	0.00028173	30.335	54.531	60.322	161.940	34.109	222.762	224.464	33.441	38.524	324.190	327.645	36.940	39.961	42.863	45.368	228.545	42.523	-8191	255	
6003.339	1	1	0	0	0.26013	0.3556	0.21038	0.16724	0.26427	0.14063	0.20034	0.17716	0.23047	0.16556	0.19353	0.047763	0.16281	0.10243	0.2049	0.29777	-2.5125	-2.6771	-2.8604	-2.875	-2.5708	-2.9813	-2.8396	-2.6063	-3.1521	-2.675	-2.7125	-2.9667	-2.5542	-3	-2.8708	-2.5771	127.874	268.521	291.613	378.301	154.517	238.894	212.402	232.212	252.973	31.141	28.169	62.274	125.089	89.907	104.580	29.730	0.0003738	0.00036397	0.00020652	240.65	7.1669e-06	6.5729e-06	336.82	78.477	1.2695e-05	1.451e-06	131.99	57.21	28.951	11.435	4.7976e-06	25.652	0.015225	0.027804	0.0078297	300.35	0.00026458	0.00031171	391.1	97.39	0.0002588	0.0003181	162.44	67.408	38.083	14.866	0.00028309	30.414	59.241	294.250	61.998	34.451	34.729	272.883	33.345	39.309	53.475	65.359	36.625	40.340	43.091	45.180	325.498	43.185	-8191	255	
6003.434	1	1	0	0	0.24926	0.11221	0.22032	0.12914	0.075499	0.24636	0.17831	0.14524	0.19219	0.13979	0.12398	0.12865	0.027504	0.1644	0.13358	0.19832	-2.5208	-2.4813	-2.6562	-2.8417	-2.6	-2.9917	-2.9208	-2.5458	-2.9938	-2.7396	-2.9167	-2.9938	-2.4271	-2.8396	-3.0208	-2.6646	332.831	154.337	325.578	323.749	77.745	52.950	74.396	97.320	143.976	366.491	188.485	290.329	275.508	307.401	52.609	166.121	0.00073609	0.0006482	0.00019706	238.68	1.1636e-05	1.5071e-05	339.54	78.516	1.406e-05	5.1526e-06	132.66	57.982	29.125	11.459	1.2239e-05	25.841	0.01509	0.02795	0.0079065	300.91	0.00026442	0.00031203	392.67	97.849	0.00026102	0.00032118	163.25	67.93	38.259	14.998	0.00028503	30.73	25.858	218.707	114.700	34.663	227.893	220.558	33.572	38.853	354.733	306.632	37.179	40.433	42.737	46.272	262.169	42.832	-8191	255	
6003.530	1	1	0	0	0.15414	0.13119	0.21293	0.15725	0.1266	0.056044	0.014002	0.16821	0.20382	0.046363	0.1939	0.19784	0.090557	0.11866	0.32512	0.18502	-2.5917	-2.7917	-2.5104	-3.1708	-2.6312	-2.9417	-2.8	-2.6021	-3.0521	-2.7458	-2.6854	-3.0042	-2.5771	-2.8	-3.0187	-2.6833	348.458	179.659	260.079	69.368	380.489	341.257	317.701	203.583	172.728	109.574	247.592	310.600	174.770	316.577	167.197	169.941	0.00043926	0.0014393	3.3685e-05	242.18	1.4944e-05	1.0712e-05	342.11	79.029	1.6707e-05	8.1244e-06	131.07	57.139	29.034	11.601	7.0823e-06	25.788	0.015092	0.028344	0.0080226	301.78	0.00026534	0.00031668	394.47	98.238	0.00025993	0.00032306	163.33	67.982	38.25	15.004	0.00028694	30.573	57.951	100.918	43.761	34.819	273.445	206.777	33.674	39.130	118.627	309.539	37.286	40.423	42.045	46.124	266.679	43.280	-8191	255	
6003.626	1	1	0	0	0.38699	0.19148	0.13495	0.20275	0.28261	0.23884	0.21262	0.32644	0.047348	0.041352	0.21336	0.069884	0.044983	0.031186	0.23639	0.18428	-2.4729	-2.8583	-2.5833	-3.0375	-2.5708	-2.7708	-2.75	-2.4562	-2.8729	-2.8792	-2.7375	-2.8646	-2.8458	-2.8021	-2.9896	-2.4583	55.637	99.467	326.192	334.440	241.242	42.530	93.624	209.170	350.265	367.202	216.975	101.005	368.552	261.360	289.871	346.051	0.00056372	0.0013766	0.00021607	240.09	4.0952e-06	7.1164e-06	336.41	78.489	1.9623e-05	5.3015e-06	131.79	57.69	28.753	11.597	7.7863e-06	25.728	0.015053	0.028467	0.0080446	300.06	0.00026407	0.00031835	391.83	97.946	0.00026026	0.00032265	163.1	67.685	38.118	15.043	0.00028644	30.539	56.651	354.080	238.283	34.612	24.610	212.628	32.914	38.998	105.171	331.107	36.543	40.047	42.222	45.573	149.500	42.716	-8191	255	
6003.722	1	1	0	0	0.18857	0.052814	0.35376	0.19961	0.11528	0.17362	0.23907	0.19931	0.29564	0.042346	0.2581	0.22167	0.22202	0.27874	0.093086	0.10785	-2.3917	-2.7583	-2.5708	-2.9708	-2.5187	-2.6813	-3.0146	-2.4688	-2.9062	-2.9917	-2.5146	-2.925	-2.5833	-2.6458	-2.8958	-2.5312	186.742	308.331	276.760	369.397	239.430	200.730	80.869	370.658	286.715	329.456	285.590	370.940	72.815	322.600	371.555	337.388	0.00050564	0.00093615	4.2688e-05	239.21	1.3691e-05	7.219e-06	338.85	78.775	1.1538e-05	6.2254e-06	130.3	57.603	29.085	11.52	6.3974e-06	25.785	0.015001	0.028592	0.0080207	299.31	0.00026623	0.00032168	393.04	97.891	0.00026125	0.0003271	163.51	67.823	38.356	15.098	0.00028752	30.723	38.765	145.441	147.250	34.763	213.696	221.697	33.539	38.727	222.053	295.482	36.806	40.465	42.750	45.636	376.861	42.697	-8191	255	
6003.818	1	1	0	0	0.15584	0.25852	0.23506	0.042581	0.034952	0.23501	0.14411	0.22879	0.17692	0.28451	0.14202	0.23456	0.33576	0.1682	0.040899	0.24597	-2.4083	-2.8083	-2.5458	-2.8667	-2.7958	-2.6917	-3.0542	-2.6562	-2.9437	-2.9958	-2.6604	-3.0563	-2.5854	-2.6937	-2.9854	-2.6521	270.776	294.464	282.426	271.567	191.299	279.928	177.912	172.360	341.109	59.087	65.389	82.391	358.369	288.164	115.915	131.710	0.00031891	0.00010438	0.00028822	239.27	1.1588e-05	3.8661e-06	335.72	78.155	7.7852e-06	9.3527e-06	131.95	57.667	29.13	11.67	1.2479e-06	25.854	0.015105	0.029009	0.0081275	299.28	0.0002701	0.00032405	391.76	97.963	0.00026265	0.0003291	164.54	68.127	38.621	15.206	0.00028458	30.852	50.066	258.714	145.469	34.362	26.812	200.646	33.434	38.853	21.083	351.976	36.069	40.524	42.352	46.411	88.607	42.578	-8191	255	
6003.939	1	1	0	0	0.1034	0.14977	0.11241	0.21607	0.14639	0.058472	0.15719	0.11775	0.30812	0.12368	0.078908	0.11958	0.023908	0.14917	0.15325	0.18383	-2.2646	-2.925	-2.5083	-3.0542	-2.8729	-2.6896	-2.9938	-2.6354	-2.7167	-3.1021	-2.5146	-2.9896	-2.7562	-2.575	-2.9208	-2.7229	361.195	342.801	376.111	28.016	184.263	309.365	329.473	56.563	33.081	376.318	269.211	342.083	299.449	70.576	27.227	130.621	0.00064407	0.00098122	0.00022069	238.69	1.2841e-05	1.336e-06	337.26	78.274	5.1634e-06	1.6463e-06	131.87	57.822	28.966	11.445	7.8774e-06	25.771	0.015212	0.028897	0.0080227	299.29	0.00026971	0.00032307	393.4	98.443	0.00026244	0.0003283	165.06	68.191	38.621	15.154	0.00028346	30.896	47.432	184.489	71.601	34.303	248.466	370.928	33.265	38.967	209.565	67.925	36.447	39.990	42.571	45.969	147.180	43.014	-8191	255	
6004.035	1	1	0	0	0.17034	0.13106	0.16972	0.21114	0.037471	0.15851	0.19514	0.13807	0.32938	0.15856	0.13095	0.10195	0.0464	0.13753	0.022997	0.15943	-2.0667	-2.8604	-2.6521	-2.8125	-2.9042	-2.4375	-3.0708	-2.6417	-2.8083	-2.7771	-2.6042	-2.8438	-2.8771	-2.5729	-3.0104	-2.6792	193.399	361.903	278.893	337.149	379.193	211.262	274.738	160.563	250.788	223.444	184.579	257.211	58.658	132.097	330.774	347.429	0.00029345	0.00075688	0.00011437	239.04	9.7481e-06	4.8286e-06	337.79	78.854	7.5618e-06	8.1254e-06	130.7	57.463	29.004	11.527	2.0484e-06	25.668	0.015158	0.028808	0.0079968	299.67	0.00027015	0.00032226	392.78	98.248	0.00026328	0.00032779	163.71	67.843	38.517	15.107	0.00028034	30.647	52.175	365.289	310.255	34.599	183.040	375.789	32.888	38.972	137.327	178.343	36.773	40.120	42.169	46.041	370.467	42.824	-8191	255	
6004.131	1	1	0	0	0.19264	0.07617	0.16319	0.11979	0.36534	0.12979	0.31807	0.14054	0.12014	0.16364	0.063524	0.057903	0.076029	0.12669	0.31299	0.25624	-2.3042	-2.9958	-2.5667	-2.7875	-2.8958	-2.475	-2.9479	-2.6875	-2.5938	-2.9208	-2.6042	-2.7479	-2.925	-2.4688	-2.8729	-2.7396	362.557	94.282	351.736	222.200	141.410	223.985	307.111	65.914	105.658	208.360	138.379	73.080	301.285	310.300	76.697	336.712	0.00036323	0.0011153	0.00038069	239.03	4.7559e-06	1.2276e-06	339.72	78.59	1.1068e-05	1.2917e-05	131.75	57.847	29.031	11.564	4.532e-06	25.921	0.015228	0.028506	0.0079615	300.88	0.00027172	0.00032177	393.37	98.311	0.000264	0.00032329	163.82	67.915	38.477	15.092	0.00027923	30.739	82.500	360.895	366.925	34.063	221.190	23.705	33.914	38.836	148.272	338.229	36.833	40.280	42.643	46.245	198.059	42.612	-8191	255	
6004.227	1	1	0	0	0.12263	0.075526	0.12758	0.26942	0.1325	0.2209	0.3487	0.098672	0.085755	0.076467	0.17703	0.27272	0.18324	0.16678	0.064901	0.087716	-2.1917	-2.9625	-2.4833	-2.5646	-2.8458	-2.4354	-2.8854	-2.7667	-2.4667	-2.9188	-2.7604	-2.7104	-2.9375	-2.5979	-2.6937	-2.7292	275.379	137.173	67.120	329.214	149.504	314.301	340.362	119.943	236.925	218.238	41.458	379.142	259.798	357.822	275.737	212.871	0.00065808	0.00067501	0.0004013	240.39	1.5197e-05	1.0521e-05	339.61	79.686	1.6518e-05	3.1251e-06	133.62	58.148	29.438	11.759	1.1789e-05	25.924	0.015313	0.028255	0.0079593	301	0.0002707	0.00031936	393.63	98.856	0.00026563	0.00032094	164.45	68.252	38.911	15.215	0.00028006	30.88	62.370	375.142	63.441	34.650	194.357	338.274	33.474	38.752	250.703	217.867	36.480	40.470	42.459	46.143	131.641	43.005	-8191	255	
6004.346	1	1	0	0	0.18295	0.22025	0.14677	0.20049	0.19692	0.14433	0.19597	0.20321	0.092661	0.15882	0.1505	0.32872	0.12245	0.20792	0.23543	0.16816	-2.2021	-3.0438	-2.7917	-2.6625	-3.2	-2.6	-2.8375	-2.7396	-2.4208	-2.9583	-2.6104	-2.5042	-2.8563	-2.5708	-2.7062	-2.8708	159.359	331.871	251.720	304.270	313.407	245.449	165.438	277.982	182.369	139.130	162.410	343.653	335.446	61.886	215.076	358.532	0.00058446	0.00065752	0.00014616	242.46	3.9748e-06	6.2593e-06	341.31	79.67	1.417e-05	7.096e-06	134.26	58.509	29.941	11.714	4.1281e-06	26.134	0.015311	0.028306	0.0080146	303.6	0.00027171	0.00032076	395.47	99.667	0.00026523	0.00032147	166.03	68.775	39.087	15.257	0.00028183	31.009	70.498	72.643	113.304	34.320	180.066	281.725	33.548	38.749	160.555	342.486	36.789	40.662	42.122	46.213	72.402	43.185	-8191	255	
6004.418	1	1	0	0	0.098208	0.24576	0.18859	0.21004	0.27123	0.15666	0.12819	0.10129	0.11498	0.27766	0.14345	0.25258	0.43839	0.030606	0.28517	0.14018	-1.8417	-2.5792	-2.6896	-2.5812	-2.95	-2.5604	-2.7604	-2.7042	-2.4625	-3.0729	-2.6583	-2.5417	-2.8729	-2.5396	-2.7125	-3.0021	351.592	334.116	124.684	296.732	161.408	263.923	167.330	276.272	168.025	219.434	351.955	277.135	238.714	321.314	216.115	326.506	0.0006917	0.00053834	0.00012506	243.08	5.0638e-06	7.2996e-06	341	80.403	1.5666e-05	4.9903e-06	133.27	57.843	29.706	11.73	8.6697e-06	25.933	0.015346	0.028106	0.0080263	304.51	0.00026843	0.00031794	396.09	99.689	0.0002628	0.00031636	164.88	68.253	38.764	15.183	0.00028329	30.784	46.253	220.420	187.383	35.185	59.066	25.503	33.157	39.056	89.691	155.675	37.156	40.524	42.092	46.166	69.950	42.586	-8191	255	
6004.514	1	1	0	0	0.08347	0.27505	0.097329	0.25863	0.059753	0.14018	0.21423	0.076882	0.11782	0.068639	0.28236	0.069306	0.075314	0.20668	0.11688	0.13343	-2	-2.6604	-2.6063	-2.5917	-3.0396	-2.6771	-2.6896	-2.8646	-2.4958	-2.8458	-2.7708	-2.4271	-3.0208	-2.6937	-2.7104	-2.875	226.048	49.657	101.430	337.699	85.429	347.973	35.511	174.595	362.286	91.370	301.934	369.794	43.332	307.114	141.217	30.865	0.00054559	0.0010584	0.00023637	242.31	5.1378e-06	1.2152e-05	339.32	79.972	7.9081e-06	6.3273e-06	133.3	57.887	29.195	11.703	7.5344e-06	25.801	0.015192	0.027873	0.0080307	302.86	0.0002658	0.00031844	393.96	99.314	0.00026344	0.00031705	164.4	68.233	38.584	15.181	0.00028566	30.74	45.441	237.516	192.033	35.279	119.772	109.376	33.577	39.029	208.081	282.993	37.223	40.247	42.067	45.896	174.537	42.607	-8191	255	
6004.610	1	1	0	0	0.13322	0.023193	0.24191	0.36248	0.098904	0.32261	0.048788	0.12741	0.28672	0.087824	0.36657	0.21769	0.2021	0.24181	0.035588	0.24375	-2.0625	-2.8979	-2.8396	-2.4021	-2.9729	-2.8438	-2.6625	-2.9604	-2.5979	-2.7479	-2.8208	-2.4229	-2.8854	-2.6458	-2.6167	-2.9521	165.952	234.371	90.391	281.862	206.091	267.634	181.231	123.339	349.553	356.861	352.270	23.982	380.813	346.779	344.369	273.771	0.00087615	0.00038365	0.00024722	241.51	8.6898e-06	4.1011e-06	339.78	78.422	1.2753e-05	9.2231e-06	131.14	57.827	29.406	11.834	8.7634e-06	25.731	0.015166	0.028278	0.0081682	302.23	0.00026557	0.00032258	393.43	98.62	0.00026382	0.00032148	163.67	68.234	38.587	15.291	0.00028909	30.771	43.445	151.728	65.345	34.894	266.036	140.144	33.427	38.922	208.925	178.167	36.641	40.312	42.823	45.842	179.690	42.305	-8191	255	
6004.731	1	1	0	0	0.12747	0.093897	0.17352	0.088359	0.29396	0.067731	0.053724	0.17119	0.17684	0.1811	0.072945	0.17464	0.043793	0.05959	0.19407	0.13167	-2.0646	-2.7396	-2.8438	-2.525	-2.9146	-2.8771	-2.6083	-2.9917	-2.6229	-2.5812	-3.1167	-2.5458	-3.0938	-2.8896	-2.7438	-2.8729	119.914	199.717	272.303	351.698	178.819	173.690	31.503	345.420	314.034	137.609	204.884	286.420	311.436	277.375	358.511	65.460	0.00043057	0.00024559	0.00014975	241.16	1.1876e-05	1.5277e-05	339.75	79.224	5.8887e-06	1.8373e-06	133.01	58.505	29.624	11.743	3.5289e-06	26.077	0.015277	0.028839	0.0082057	302.21	0.00026746	0.00032464	393.79	98.65	0.0002638	0.00032242	164.71	68.517	38.74	15.301	0.00028546	30.906	68.082	159.981	106.967	34.813	60.628	184.599	33.342	39.469	318.984	183.000	36.669	40.758	42.705	45.819	294.062	42.731	-8191	255	
6004.827	1	1	0	0	0.13595	0.036927	0.050258	0.16556	0.19513	0.18383	0.37451	0.082946	0.34779	0.33388	0.16531	0.11392	0.26108	0.24433	0.018402	0.069799	-2.1979	-2.6312	-2.7021	-2.5292	-2.8521	-2.95	-2.6375	-2.9313	-2.5729	-2.6479	-2.9729	-2.7	-2.8438	-2.8812	-2.6792	-2.725	85.312	377.898	263.864	42.069	101.698	346.364	214.527	276.541	131.462	83.122	273.387	191.090	280.819	302.400	356.424	296.902	0.00074598	0.00047572	0.00016422	242.99	2.1531e-05	1.0706e-05	338.07	79.348	1.7608e-05	9.1332e-06	131.3	57.897	29.587	11.616	3.1261e-06	25.535	0.015189	0.028326	0.0081006	301.6	0.00026406	0.00032378	391.7	98.218	0.00026186	0.00032156	163.16	67.92	38.502	15.144	0.00028198	30.381	41.446	22.375	283.253	34.890	140.092	103.089	33.474	38.746	74.660	304.216	36.408	40.269	42.656	45.676	60.851	42.865	-8191	255	
6004.923	1	1	0	0	0.17711	0.080213	0.031729	0.089398	0.218	0.13152	0.045255	0.10102	0.1422	0.084499	0.022043	0.08436	0.19911	0.23421	0.20946	0.20773	-2.2687	-2.4792	-3.2167	-2.4604	-2.8771	-3.0083	-2.4292	-2.9062	-2.6917	-2.4708	-2.8917	-2.6229	-2.6833	-2.9229	-2.4	-2.9208	139.060	364.998	46.325	250.559	227.108	60.440	307.015	373.111	194.145	82.576	322.117	103.526	291.633	306.864	330.786	298.521	0.00046059	0.00078361	0.00033797	244.09	1.288e-05	4.025e-06	337.34	78.976	1.549e-05	5.6924e-06	130.67	57.207	29.35	11.487	3.2479e-06	25.493	0.014963	0.028209	0.0079294	301.29	0.00025842	0.0003184	389.62	97.746	0.00026047	0.00031667	161.61	67.103	38.171	15.034	0.00027699	30.214	62.875	117.175	281.912	34.346	257.441	322.168	33.465	38.368	105.019	75.813	36.637	40.403	42.165	45.589	334.369	42.092	-8191	255	
6005.019	1	1	0	0	0.33991	0.13503	0.11352	0.21154	0.094371	0.10418	0.080946	0.13708	0.13052	0.11258	0.28503	0.20248	0.10611	0.19474	0.10794	0.1772	-2.4313	-2.5521	-3.0917	-2.725	-2.7375	-3.1104	-2.4896	-2.9333	-2.8229	-2.7313	-2.95	-2.7396	-2.6896	-3.1083	-2.5854	-2.8688	44.270	54.786	95.392	275.022	188.559	302.123	333.398	134.489	98.174	289.739	250.658	48.547	285.186	367.002	75.715	256.865	0.00033149	0.00061783	0.00012241	240.55	7.614e-06	1.0834e-05	331.86	77.988	4.4899e-06	7.3425e-06	131.4	57.759	29.023	11.571	6.416e-06	25.677	0.014882	0.027608	0.0077463	300.47	0.00025966	0.00031541	387.91	97.354	0.00025848	0.00031545	161.63	67.65	38.302	15.079	0.00027677	30.283	54.991	209.362	160.479	34.095	202.939	378.897	33.542	38.922	116.462	244.225	36.857	39.984	42.207	45.688	161.202	42.567	-8191	255	
6005.115	1	1	0	0	0.22238	0.15073	0.057911	0.16363	0.12353	0.074613	0.089392	0.19774	0.39172	0.19247	0.3096	0.2309	0.11714	0.21325	0.26643	0.18446	-2.4896	-2.6167	-2.925	-2.6146	-2.4958	-2.9208	-2.6833	-2.7771	-2.775	-2.625	-2.9021	-2.6021	-2.5458	-2.9042	-2.3958	-2.7938	142.304	240.045	99.922	349.054	21.307	378.509	323.735	53.554	257.130	21.720	364.493	340.521	276.267	209.367	257.091	269.403	0.00026878	0.0008728	0.00022243	239.73	2.4559e-05	1.4049e-05	339.55	79.291	8.919e-06	3.7548e-06	131.16	57.818	29.551	11.631	5.8588e-06	25.604	0.015038	0.027966	0.0077543	299.48	0.00026208	0.00031456	389.23	97.807	0.0002612	0.00031659	162.35	67.836	38.484	15.054	0.00027568	30.433	121.445	367.199	330.946	35.053	221.938	236.519	33.487	38.881	113.523	164.337	36.863	40.268	42.387	45.807	255.612	42.677	-8191	255	
6005.212	1	1	0	0	0.19874	0.18955	0.20577	0.26024	0.085162	0.22928	0.14056	0.11061	0.038583	0.06211	0.24112	0.25147	0.21734	0.23187	0.29101	0.092659	-2.4271	-2.4042	-2.7271	-2.7229	-2.5125	-3.0042	-2.4479	-2.8271	-2.9917	-2.6562	-2.9042	-2.8333	-2.4875	-3.0542	-2.6937	-2.8229	82.296	146.975	328.674	87.971	102.307	340.468	229.130	154.538	280.564	348.338	300.590	267.741	340.495	282.878	205.162	309.821	0.00072137	0.00032434	5.3578e-05	241.42	1.5193e-05	1.0324e-05	335.27	79.168	2.1725e-05	5.3538e-06	130.87	57.568	29.192	11.476	7.0803e-07	25.731	0.015138	0.027944	0.0078152	300.98	0.00026367	0.00031742	388.77	97.716	0.00026213	0.00031678	161.39	67.5	38.421	14.968	0.00027616	30.26	33.666	165.962	32.666	34.397	187.474	338.804	33.325	39.004	31.699	131.469	36.739	40.424	42.694	45.780	154.874	42.751	-8191	255	
6005.308	1	1	0	0	0.14487	0.12653	0.15591	0.29875	0.3422	0.17346	0.14181	0.16075	0.12998	0.12655	0.20921	0.082823	0.31836	0.21713	0.20765	0.32533	-2.5687	-2.4771	-2.8375	-2.8521	-2.6937	-2.9979	-2.5917	-2.5583	-2.9792	-2.5271	-2.8583	-2.7417	-2.2208	-3.0563	-2.6521	-2.6604	105.907	287.850	206.981	83.984	262.921	244.246	240.156	327.245	311.710	191.667	355.115	47.975	324.573	158.813	229.932	290.007	0.00032007	0.00076332	0.0005192	239.85	5.365e-06	4.9059e-06	338.8	78.923	1.0776e-05	9.3783e-06	129.8	57.259	29.362	11.674	9.9944e-06	25.63	0.01516	0.027872	0.0077968	299.59	0.00026513	0.0003137	387.48	97.537	0.00025982	0.00031512	160.39	67.254	38.386	14.971	0.00028088	30.277	376.703	202.812	193.933	34.794	355.146	135.079	33.723	38.697	308.288	61.444	36.855	40.555	42.741	46.323	202.023	42.901	-8191	255	
6005.428	1	1	0	0	0.070903	0.14268	0.14816	0.12308	0.31011	0.075012	0.16539	0.21609	0.050327	0.22138	0.20331	0.1958	0.33821	0.1793	0.14946	0.3978	-2.3604	-2.5125	-2.7042	-2.8354	-2.5167	-2.9417	-2.7083	-2.5875	-2.9854	-2.4604	-2.8021	-2.9167	-2.4771	-3.0938	-2.7146	-2.6437	266.601	67.734	355.633	349.652	380.705	148.640	347.113	301.328	101.328	310.459	23.171	52.169	45.200	294.341	103.767	332.337	0.00025176	0.00059313	0.00017927	239.12	1.2972e-05	6.1115e-06	335.45	77.969	1.6345e-05	9.0734e-06	130.01	57.827	29.228	11.568	7.7827e-06	25.694	0.015058	0.02782	0.0077837	299.61	0.00026622	0.00031353	387.25	97.365	0.00026062	0.00031565	160.99	67.502	38.336	14.98	0.00028136	30.368	66.661	97.616	141.844	34.611	84.390	373.092	33.696	39.165	238.585	83.577	36.858	40.462	42.843	46.045	105.774	42.904	-8191	255	
6005.523	1	1	0	0	0.090176	0.22878	0.11121	0.066599	0.07127	0.17009	0.14687	0.097525	0.13113	0.15902	0.2427	0.11631	0.051018	0.34067	0.25425	0.054196	-2.6333	-2.375	-2.7417	-2.9562	-2.6188	-3.0021	-2.6979	-2.6833	-3.0896	-2.6208	-2.5979	-2.9646	-2.4833	-2.9479	-2.7333	-2.6521	209.946	293.235	291.822	29.815	177.002	268.419	317.598	230.255	97.269	307.518	51.290	302.849	358.661	101.656	44.457	305.859	0.00034153	0.00076584	0.00032566	239.43	1.0494e-05	6.6702e-06	335.97	78.684	1.1102e-05	1.3495e-05	130.83	57.488	29.447	11.624	1.2716e-05	25.764	0.015051	0.027841	0.0078221	298.8	0.00026414	0.0003116	387.89	97.559	0.00025961	0.0003166	161.55	67.691	38.44	15.01	0.00028469	30.528	31.031	121.415	132.941	34.774	132.335	67.494	33.430	38.855	162.226	210.799	37.130	40.850	42.175	46.360	256.154	42.915	-8191	255	
6005.619	1	1	0	0	0.25031	0.18736	0.065743	0.12535	0.10041	0.20723	0.09885	0.3062	0.16151	0.1611	0.18796	0.13485	0.15466	0.11864	0.043006	0.18595	-2.4583	-2.6229	-2.6729	-3.05	-2.6125	-2.7896	-2.6208	-2.6708	-2.9917	-2.6625	-2.6854	-2.9375	-2.5667	-2.9271	-2.9146	-2.5646	49.041	281.463	73.609	76.086	97.455	79.240	145.850	61.491	341.762	79.954	317.995	281.605	99.233	281.442	374.244	115.521	0.00037422	5.7855e-05	0.00014242	237.22	6.6603e-06	3.2724e-06	334.48	77.321	7.0544e-06	7.2444e-06	129.51	57.306	29.135	11.489	3.4637e-06	25.622	0.014991	0.02807	0.0079222	300.02	0.00026453	0.00031351	389.06	97.578	0.0002592	0.00031951	161.35	67.485	38.212	14.93	0.00028135	30.301	65.946	264.847	342.211	35.008	167.539	241.021	33.589	38.716	66.049	317.620	36.787	40.137	42.549	46.224	151.540	42.698	-8191	255	
6005.715	1	1	0	0	0.15733	0.106	0.19482	0.11425	0.066408	0.19605	0.15752	0.1128	0.13296	0.12222	0.092595	0.30358	0.28566	0.058241	0.1434	0.091344	-2.4229	-2.6437	-2.5625	-3.0083	-2.6042	-2.6312	-2.7958	-2.4583	-2.8646	-2.8333	-2.6729	-2.8792	-2.5042	-2.7938	-2.8771	-2.6042	144.669	248.095	254.220	212.082	282.389	285.555	324.646	228.277	290.102	26.158	183.853	371.109	320.292	88.997	84.663	46.026	0.00037738	0.00038045	0.0002397	240	1.1872e-05	4.4331e-06	336.35	79.138	8.075e-06	1.4206e-05	130.89	57.108	29.261	11.585	1.2373e-05	25.564	0.014786	0.028063	0.0079086	299.26	0.00026296	0.00031286	388.24	97.679	0.00025721	0.00032009	162.1	67.102	38.346	14.985	0.00028584	30.202	54.596	87.444	84.637	34.692	115.350	214.092	33.592	39.108	203.116	210.651	36.686	40.567	42.719	45.866	212.900	42.404	-8191	255	
6005.811	1	1	0	0	0.19905	0.16013	0.20417	0.17046	0.26318	0.18167	0.04292	0.10751	0.13242	0.21189	0.13216	0.22667	0.097273	0.31984	0.13522	0.22099	-2.5083	-2.5938	-2.4604	-2.9625	-2.625	-2.8187	-3.0021	-2.6479	-2.9646	-2.8167	-2.4979	-3.0125	-2.6813	-2.7104	-3.0479	-2.5875	315.577	213.412	56.402	236.763	250.270	220.447	177.129	324.295	93.818	171.458	36.596	33.002	243.209	233.023	111.883	375.661	0.00040408	0.00087867	0.00016139	241.65	1.2627e-05	2.2759e-06	335.3	78.463	2.4361e-05	1.4864e-05	130.7	56.899	29.027	11.466	1.0649e-05	25.76	0.014923	0.02844	0.008004	299.89	0.00026613	0.00032029	387.5	97.311	0.00025826	0.00032512	161.21	67.05	38.128	14.947	0.00028587	30.289	56.540	125.825	293.941	35.193	246.731	378.891	33.581	39.319	191.097	154.625	37.232	40.494	42.455	46.435	136.122	42.766	-8191	255	
6005.907	1	1	0	0	0.20701	0.22581	0.21451	0.19995	0.12617	0.24877	0.26989	0.24219	0.11271	0.11376	0.21829	0.058585	0.11174	0.060366	0.22526	0.09578	-2.2458	-2.8083	-2.3688	-2.7938	-2.7833	-2.7667	-3.1083	-2.5583	-2.8229	-3.0167	-2.5521	-3.0312	-2.8208	-2.6646	-3.05	-2.4958	175.326	271.860	313.412	174.114	357.452	47.046	41.622	307.740	305.184	112.580	36.129	276.143	104.521	149.715	336.120	344.030	0.00033538	0.00081484	0.00027856	240.17	1.1997e-06	2.7899e-06	335.76	79.325	1.8714e-05	4.3121e-06	130.74	57.563	29.289	11.564	5.5797e-06	25.842	0.015056	0.028746	0.0080631	298.83	0.00026728	0.00032147	388.38	97.537	0.00026056	0.00032877	162.05	67.409	38.403	15.091	0.00028496	30.529	45.041	147.473	313.239	34.845	237.646	292.728	33.929	39.523	58.142	32.512	36.772	40.249	42.639	46.541	279.917	42.454	-8191	255	
6006.028	1	1	0	0	0.020673	0.14791	0.14882	0.13217	0.36168	0.23374	0.167	0.19404	0.2125	0.26558	0.26614	0.13148	0.020109	0.11467	0.09394	0.26738	-2.3708	-2.8187	-2.5792	-2.8042	-2.6354	-2.5021	-2.925	-2.5271	-2.85	-2.85	-2.5042	-3.0521	-2.8729	-2.5938	-3.0938	-2.7208	37.463	344.877	32.774	249.180	283.290	118.562	227.505	244.172	371.316	332.347	133.308	185.554	309.659	201.238	310.335	242.688	0.00024624	0.00053669	0.00020162	242.71	1.2744e-05	1.9157e-06	338.29	79.278	5.8964e-06	8.3453e-06	131.52	57.704	29.328	11.61	7.0764e-06	25.755	0.015113	0.028694	0.0080659	300.66	0.00026935	0.00032486	389.16	97.714	0.00026233	0.00032616	162.13	67.56	38.488	15.058	0.00028101	30.4	377.987	95.267	176.264	34.619	366.899	26.180	33.728	38.754	262.592	52.032	37.061	40.428	42.601	46.228	165.101	42.947	-8191	255	
6006.124	1	1	0	0	0.18473	0.084515	0.27604	0.12686	0.10838	0.10998	0.15786	0.030131	0.19428	0.039221	0.19643	0.2624	0.23107	0.124	0.28218	0.048332	-2.2375	-2.9583	-2.5354	-2.8646	-2.9667	-2.7	-3.0625	-2.6979	-2.7792	-2.9208	-2.5417	-2.7562	-2.8458	-2.3333	-2.9083	-2.5771	171.281	43.616	354.720	95.472	190.842	140.415	52.049	24.518	257.670	179.512	101.694	378.314	381.181	291.772	290.602	159.359	0.0003369	0.00028282	6.2496e-05	242.23	7.4529e-06	4.3421e-06	335.25	78.682	7.0083e-06	5.481e-06	130.97	57.351	29.274	11.448	8.0878e-06	25.379	0.015202	0.028794	0.0079733	299.47	0.00027025	0.00032336	387.55	97.428	0.00026207	0.00032582	161.2	67.136	38.425	14.937	0.00028137	30.167	31.002	352.104	62.984	35.040	191.669	301.732	33.168	39.386	252.545	35.967	37.227	40.852	42.400	46.343	204.607	42.981	-8191	255	
6006.220	1	1	0	0	0.10078	0.19585	0.071695	0.28224	0.23862	0.12622	0.21877	0.066026	0.14795	0.11123	0.10392	0.10416	0.049784	0.10993	0.1365	0.18173	-2.125	-2.7896	-2.6521	-2.7896	-2.9542	-2.5687	-2.9042	-2.5542	-2.6667	-2.9583	-2.5521	-2.6813	-2.9458	-2.6396	-2.8875	-2.8167	134.901	173.528	76.009	256.409	142.192	160.188	330.655	345.217	170.517	168.676	152.562	377.035	160.036	368.756	372.403	47.963	0.00074907	0.00058268	0.00012968	240.27	1.182e-05	6.0994e-06	335.86	78.028	9.3047e-06	1.2864e-05	130.28	57.237	29.015	11.476	1.0845e-05	25.478	0.015197	0.028375	0.0079457	299.36	0.00027015	0.00032244	386.38	97.289	0.00026438	0.00032258	160.53	67.07	38.278	14.997	0.0002803	30.298	42.352	309.140	364.797	34.768	371.194	175.535	33.873	39.078	257.945	169.790	36.353	40.644	42.522	46.048	320.810	42.855	-8191	255	
6006.292	1	1	0	0	0.21481	0.19319	0.35109	0.015497	0.21242	0.093049	0.32652	0.31644	0.077547	0.18308	0.21394	0.10605	0.11788	0.21462	0.15414	0.13049	-2.3312	-2.9188	-2.5938	-2.5979	-2.8396	-2.6042	-2.9188	-2.7146	-2.5187	-3.1312	-2.6125	-2.775	-2.9396	-2.5833	-3.0187	-2.7667	360.097	160.016	226.095	51.529	124.758	52.189	377.496	286.427	193.044	281.924	24.201	327.387	216.991	290.070	299.562	218.677	0.00047808	0.00038719	0.00013775	240.73	1.1578e-05	5.2143e-06	333.8	78.341	1.08e-05	3.2601e-06	128.73	57.35	29.318	11.508	9.5769e-06	25.725	0.015355	0.028404	0.0079407	299.32	0.00027306	0.00032542	385.57	97.59	0.00026721	0.00032488	160.93	67.176	38.426	15.01	0.00028457	30.531	57.981	146.321	94.751	34.970	54.761	234.830	33.706	39.319	174.081	278.288	36.794	40.671	42.356	45.681	275.482	41.908	-8191	255	
6006.388	1	1	0	0	0.16672	0.12272	0.11701	0.22266	0.049399	0.076857	0.26561	0.24932	0.023084	0.078522	0.040933	0.20458	0.081941	0.21798	0.15547	0.042469	-2.2146	-2.9562	-2.7146	-2.6021	-3.0708	-2.7	-3.0583	-2.8375	-2.5104	-2.9292	-2.8438	-2.6375	-3.2938	-2.4	-2.8208	-3.1042	113.496	247.189	255.058	352.451	44.258	228.847	224.808	130.222	225.687	159.847	63.029	160.934	222.242	150.949	223.491	256.269	0.00060716	0.00059911	0.00036377	241.61	6.2241e-06	1.1992e-05	335.87	78.936	7.5155e-06	1.0482e-05	130.14	57.385	29.219	11.457	9.1056e-06	25.545	0.015504	0.028505	0.0080515	301.07	0.00027187	0.00032139	387.35	98.089	0.0002671	0.00032471	161.7	67.395	38.467	14.977	0.00028466	30.321	46.412	45.993	139.953	35.031	296.834	113.481	33.476	38.763	49.319	120.104	35.743	40.371	42.318	46.147	243.776	42.495	-8191	255	
6006.507	1	1	0	0	0.34147	0.1325	0.23865	0.13476	0.21477	0.3304	0.21782	0.21446	0.091339	0.15312	0.043739	0.18782	0.13316	0.19359	0.094357	0.13564	-1.9562	-2.9083	-2.6854	-2.6646	-2.9583	-2.6917	-2.7854	-2.9167	-2.7042	-3.0646	-2.7687	-2.5792	-2.8563	-2.7146	-2.8063	-3.0104	215.913	334.949	249.792	234.080	335.931	105.197	333.221	337.969	368.093	87.011	218.117	39.350	136.733	378.604	163.277	61.374	0.00039276	0.00032139	0.00015678	241.98	1.4115e-05	8.0211e-06	333.2	77.977	2.4864e-06	2.7826e-06	130.66	56.883	29.274	11.511	1.0364e-05	25.207	0.015426	0.028207	0.0080905	300.32	0.00027071	0.00031857	385.69	97.523	0.00026522	0.00032088	161.04	66.94	38.262	14.991	0.00028264	30.148	68.390	363.680	284.708	34.705	79.767	243.823	33.712	39.604	214.971	104.355	36.394	40.323	41.796	45.946	204.849	42.809	-8191	255	
6006.603	1	1	0	0	0.1565	0.19992	0.10218	0.068757	0.36204	0.16346	0.24107	0.30693	0.14287	0.081117	0.22229	0.08894	0.17917	0.2406	0.18206	0.20899	-2.1312	-2.8333	-2.9062	-2.5917	-3.0979	-2.6646	-2.675	-2.9042	-2.6458	-2.8792	-2.7854	-2.4667	-2.9125	-2.7104	-2.3896	-3.1833	72.393	76.125	288.684	375.329	303.296	297.585	342.981	286.059	221.807	197.914	286.956	314.078	78.004	114.711	157.719	270.875	0.00026976	0.00098361	0.00039921	236.39	8.6887e-06	4.0963e-06	333.33	79.103	1.9704e-05	8.3155e-06	130.46	57.489	29.224	11.394	4.6994e-06	25.215	0.015252	0.028118	0.008072	298.04	0.00026503	0.00031967	385.06	97.612	0.00026276	0.00031918	161.54	67.254	38.203	14.97	0.00028503	30.223	370.875	254.596	210.204	34.922	74.642	323.489	33.677	39.241	100.849	244.472	36.578	40.502	42.052	46.317	56.541	42.905	-8191	255	
6006.699	1	1	0	0	0.14275	0.18898	0.18789	0.29213	0.25889	0.11674	0.11013	0.24374	0.17191	0.18716	0.049764	0.078556	0.20376	0.21804	0.36315	0.16715	-2.1021	-2.7896	-2.75	-2.4167	-2.8083	-2.7354	-2.625	-2.9208	-2.6167	-2.7854	-2.8104	-2.525	-2.9583	-2.7604	-2.5812	-3.1625	152.742	101.260	309.054	239.408	80.853	68.285	313.414	69.526	215.480	240.262	108.595	90.076	46.537	124.875	270.925	54.839	0.00067957	0.00044466	8.4979e-05	238.98	1.4037e-05	1.5813e-05	333.03	78.491	5.6464e-06	8.8817e-07	130.31	57.176	29.171	11.603	1.5223e-05	25.469	0.015147	0.028294	0.0080814	298.26	0.00026412	0.00032235	385.89	97.271	0.00026251	0.00032078	161.57	67.318	38.258	15.062	0.0002855	30.324	49.973	52.934	166.990	34.455	370.692	165.198	33.863	38.961	31.876	237.863	37.105	40.665	42.228	46.188	221.095	42.979	-8191	255	
6006.820	1	1	0	0	0.32813	0.25155	0.077257	0.14522	0.2049	0.10074	0.16013	0.23078	0.17449	0.053169	0.12399	0.013372	0.10573	0.1002	0.36127	0.22151	-2.2208	-2.7438	-2.8479	-2.5083	-2.7708	-2.7708	-2.4417	-2.9292	-2.7708	-2.7562	-2.975	-2.5167	-2.9667	-2.6813	-2.5792	-2.9	351.948	305.207	131.395	177.273	171.792	158.916	54.301	163.803	156.306	334.876	250.551	230.940	353.965	246.743	284.679	346.193	0.0004061	0.0016063	0.00020478	237.91	9.3354e-06	8.1364e-06	334.77	78.669	8.6346e-06	7.2421e-06	130.26	58.004	29.208	11.664	5.8714e-06	25.714	0.01509	0.02819	0.0080915	297.04	0.00026538	0.00032185	385.69	97.389	0.00026177	0.00032038	161.95	67.761	38.318	15.103	0.000283	30.36	81.110	26.298	136.841	34.697	202.005	199.697	33.779	39.285	246.670	242.630	36.608	40.381	42.471	46.324	102.589	42.692	-8191	255	
6006.892	1	1	0	0	0.091411	0.097591	0.15674	0.15863	0.034942	0.090002	0.093952	0.080697	0.24531	0.12314	0.22791	0.19161	0.14058	0.1382	0.13121	0.1833	-2.0875	-2.6792	-2.9437	-2.4875	-2.9021	-2.9625	-2.4938	-2.8625	-2.6083	-2.7375	-2.9917	-2.5354	-2.7708	-2.8021	-2.4625	-2.9083	246.254	157.729	206.463	335.845	205.798	181.907	233.975	299.778	59.509	203.997	291.820	363.348	208.018	45.018	106.809	31.908	0.00071972	0.00080756	0.00031201	236.61	8.2155e-06	7.4933e-06	330.43	78.836	5.1404e-06	1.1795e-05	130.49	57.013	28.984	11.402	8.6532e-06	25.149	0.014943	0.027942	0.0080075	297.49	0.0002617	0.00032282	384.15	97.003	0.00026	0.00031927	161.24	66.914	38.159	15.003	0.00028418	29.952	76.553	136.176	69.564	34.784	376.427	204.205	33.828	39.287	289.219	294.302	37.033	40.373	42.436	45.820	117.926	42.509	-8191	255	
6006.988	1	1	0	0	0.11978	0.1946	0.030052	0.16067	0.25052	0.11707	0.084562	0.23843	0.074316	0.19449	0.10909	0.067279	0.15578	0.12728	0.054549	0.20374	-2.1875	-2.4458	-2.9688	-2.4042	-2.7479	-2.8	-2.5187	-2.9854	-2.9833	-2.6917	-3.2417	-2.7229	-2.8063	-2.9333	-2.5042	-2.9917	271.739	131.772	356.027	47.621	76.663	321.278	106.890	359.751	26.548	206.806	149.342	220.950	81.686	324.711	281.972	92.836	0.00033128	0.0010223	0.00014155	237.31	2.0942e-05	9.3099e-06	327.3	77.511	4.5868e-06	7.4397e-06	127.92	56.841	29.061	11.429	4.7084e-06	25.338	0.015138	0.028312	0.0079984	295.65	0.00026336	0.00032322	382.53	96.453	0.00026069	0.00032007	160.27	66.808	38.169	15.006	0.00027717	29.997	75.943	215.553	56.856	34.442	200.931	21.355	33.024	39.222	310.851	248.629	36.604	39.917	42.214	46.113	293.941	42.534	-8191	255	
6007.108	1	1	0	0	0.031344	0.20313	0.1035	0.16795	0.16803	0.17691	0.19787	0.16472	0.1728	0.10774	0.14268	0.28107	0.21582	0.2399	0.2345	0.27439	-2.2917	-2.6146	-2.8896	-2.5125	-2.8792	-2.9333	-2.3583	-2.9542	-2.9896	-2.6646	-2.95	-2.6146	-2.8563	-3.1	-2.4562	-2.9437	93.710	358.270	282.933	240.430	55.949	243.060	72.387	272.579	162.796	106.466	124.778	162.222	295.650	350.054	56.299	86.844	0.00057767	0.00049968	0.00013074	235.73	5.4224e-06	9.2421e-06	327.5	77.874	1.4655e-05	2.9513e-06	130.25	57.362	28.973	11.602	7.4452e-06	25.641	0.014968	0.027965	0.0078456	294.87	0.00026096	0.00032018	381.4	96.319	0.00026188	0.00032038	160.46	67.239	38.253	15.019	0.00028065	30.122	71.353	22.972	162.629	34.371	304.722	231.038	33.222	39.024	225.285	358.283	36.812	40.250	42.429	45.647	156.052	42.710	-8191	255	
6007.204	1	1	0	0	0.38663	0.083867	0.44839	0.25206	0.15858	0.029323	0.38407	0.22971	0.16063	0.16971	0.11154	0.2212	0.055577	0.17868	0.37697	0.092284	-2.4354	-2.5771	-2.9938	-2.5458	-2.5521	-3.0771	-2.6063	-2.8021	-2.7708	-2.5187	-3.0854	-2.6708	-2.6625	-3.0208	-2.5812	-2.8187	298.730	311.225	28.057	372.768	213.374	97.653	375.528	106.579	85.009	50.266	148.060	234.276	244.018	227.370	85.371	94.063	0.00066422	0.00073933	0.00020148	237.55	1.7667e-05	6.7109e-06	332.72	77.903	2.0307e-05	3.0988e-06	128.59	57.007	29.182	11.624	2.102e-05	25.486	0.015252	0.028228	0.0078984	296.68	0.0002669	0.00032105	382.97	96.375	0.00026546	0.0003214	160.21	67.21	38.252	15.045	0.00028016	30.252	71.858	125.994	200.712	35.039	203.626	194.189	33.745	39.039	106.199	148.926	36.428	40.198	42.236	46.286	95.925	42.749	-8191	255	
6007.301	1	1	0	0	0.27313	0.17074	0.33413	0.12801	0.19458	0.23382	0.087843	0.16451	0.22976	0.088733	0.196	0.23472	0.022121	0.13168	0.16096	0.13072	-2.5354	-2.5458	-3.0604	-2.7417	-2.5	-3.0354	-2.6583	-2.7583	-2.8937	-2.525	-3.0375	-2.7062	-2.5646	-2.9271	-2.6625	-2.7417	80.585	306.367	284.178	349.104	313.446	210.453	334.810	142.246	348.447	48.210	214.583	278.455	34.080	237.567	203.393	117.915	0.00046908	0.00058604	0.00020251	237.48	9.289e-06	5.3046e-06	329.78	78.704	2.1871e-05	8.4577e-06	129.49	57.182	29.047	11.541	9.4423e-06	25.257	0.015298	0.02837	0.0078572	296.64	0.00026515	0.00031802	382.71	96.773	0.00026427	0.00032001	160.01	67.22	38.209	14.954	0.00027983	30.049	24.347	130.865	103.213	34.498	150.789	67.571	33.565	39.306	254.644	113.957	36.903	40.074	42.928	45.436	381.311	42.898	-8191	255	
6007.419	1	1	0	0	0.070268	0.14441	0.068829	0.12252	0.15054	0.14252	0.2577	0.1545	0.21132	0.18726	0.12074	0.01369	0.21503	0.11235	0.24367	0.26816	-2.5396	-2.5354	-2.8063	-2.6312	-2.4417	-3.0271	-2.5	-2.6271	-2.9375	-2.4708	-2.8021	-2.8771	-2.45	-2.8333	-2.7188	-2.725	378.210	349.326	41.072	52.969	158.120	334.245	50.505	93.864	277.376	145.117	328.516	133.394	89.547	137.707	340.304	291.392	0.00050518	0.00064244	0.00014215	234.52	1.159e-05	1.0135e-05	328.31	77.937	4.6169e-06	1.0361e-05	127.42	56.813	28.979	11.478	8.7455e-06	25.292	0.015247	0.028094	0.00784	295.61	0.00026625	0.00031893	380.84	96.637	0.00026676	0.00032108	158.95	67.203	38.221	14.914	0.00028177	30.063	78.834	235.061	112.717	34.541	60.683	213.800	33.463	39.019	85.420	97.624	37.033	40.570	42.969	46.248	149.044	42.800	-8191	255	
6007.516	1	1	0	0	0.11846	0.21564	0.11861	0.33349	0.17335	0.22735	0.069678	0.16804	0.36392	0.29938	0.2833	0.056219	0.23737	0.07795	0.2104	0.2456	-2.5125	-2.4229	-2.8896	-2.95	-2.5125	-2.9479	-2.6333	-2.5958	-3.1333	-2.6229	-2.8146	-2.9938	-2.4479	-2.9188	-2.6896	-2.6896	145.992	332.608	294.663	330.645	162.416	21.939	198.088	372.610	123.235	304.704	292.362	91.263	342.599	362.732	142.484	175.038	0.00055885	0.0004236	6.8179e-05	237.36	6.4651e-06	4.4806e-06	326.74	77.186	8.1562e-06	4.1478e-06	128.66	57.183	28.875	11.423	9.7938e-06	25.413	0.015324	0.028229	0.0079396	296.46	0.00026878	0.0003169	381.58	96.678	0.00026446	0.00031918	160.03	67.348	38.237	14.98	0.00028184	30.283	59.261	71.892	205.170	34.410	378.717	312.317	33.681	38.637	185.082	188.418	36.374	40.376	42.219	45.695	246.233	42.989	-8191	255	
6007.587	1	1	0	0	0.30821	0.23016	0.12449	0.13832	0.26046	0.10489	0.065656	0.093068	0.15832	0.10431	0.04211	0.084072	0.18324	0.079047	0.095181	0.016567	-2.4292	-2.4313	-2.6167	-2.7479	-2.4021	-2.8396	-2.5979	-2.6625	-2.9458	-2.6479	-2.8667	-2.8937	-2.4854	-2.8625	-2.9083	-2.5062	134.566	73.296	79.041	94.218	251.036	249.394	299.060	358.127	231.174	153.357	237.840	243.989	287.714	274.163	99.227	374.962	0.0003937	0.00070573	0.00020707	235.99	1.5188e-05	6.9548e-06	331.05	78.507	1.171e-05	3.3604e-06	129.56	57.628	29.362	11.544	1.4621e-05	25.558	0.015171	0.028141	0.0079516	295.76	0.00026656	0.00031413	382.84	97.214	0.00026106	0.00032309	160.95	67.826	38.527	15.061	0.00028701	30.451	369.944	95.852	37.701	34.772	199.552	223.706	33.859	39.465	221.799	89.031	37.038	40.233	42.476	45.536	156.234	42.616	-8191	255	
6007.683	1	1	0	0	0.23848	0.23474	0.14371	0.12766	0.47464	0.27145	0.23323	0.035478	0.06393	0.15605	0.18617	0.1515	0.30431	0.16426	0.038548	0.25688	-2.6	-2.4188	-2.6375	-2.9625	-2.3646	-2.8271	-2.8312	-2.3375	-2.9562	-2.6208	-2.7583	-2.8083	-2.5167	-2.85	-2.8729	-2.4854	307.229	57.696	319.933	267.991	294.150	227.399	83.070	348.382	135.320	91.567	146.181	320.371	223.022	365.177	24.627	354.779	0.00015721	0.00060525	0.00024841	236.51	1.7963e-05	1.2068e-05	329.06	78.397	1.0131e-05	6.1754e-06	127.87	57.277	29.328	11.67	9.2831e-06	25.497	0.015206	0.028415	0.0080547	298.11	0.00026697	0.00032093	383.95	97.438	0.00026312	0.00032296	160.73	67.406	38.41	15.032	0.00028721	30.198	55.514	177.492	86.431	34.582	129.079	199.626	33.390	39.192	35.772	213.608	37.122	40.035	41.858	45.604	145.623	43.108	-8191	255	
6007.804	1	1	0	0	0.11536	0.078593	0.10098	0.2533	0.1732	0.28748	0.21487	0.25821	0.17005	0.029797	0.14059	0.094851	0.16861	0.14176	0.14479	0.019978	-2.4854	-2.6271	-2.6167	-2.9458	-2.6188	-2.9062	-2.975	-2.4813	-2.9896	-2.8104	-2.6896	-3.1583	-2.6021	-2.8458	-2.9792	-2.625	294.446	153.895	248.614	56.734	166.933	48.079	178.304	377.489	279.200	36.669	270.661	373.117	67.144	360.591	210.714	147.480	0.00057541	0.00041877	5.8561e-05	236.75	1.4923e-05	7.0358e-06	331.51	78.471	3.543e-06	7.3041e-06	130.21	57.6	29.158	11.637	9.6413e-06	25.512	0.015079	0.028615	0.0079992	296.73	0.00026718	0.00031957	383.86	97.249	0.00025913	0.00032398	161.22	67.431	38.391	15.034	0.00028694	30.247	47.911	65.386	349.807	35.099	168.345	42.512	33.883	38.503	226.231	353.964	37.118	40.143	43.304	46.362	175.152	42.801	-8191	255	
6007.900	1	1	0	0	0.13238	0.056494	0.40009	0.07551	0.28968	0.13421	0.079464	0.25547	0.15607	0.1967	0.19116	0.14278	0.13287	0.049436	0.11046	0.075308	-2.4604	-2.5833	-2.4792	-2.9979	-2.5438	-2.7271	-3.0458	-2.4021	-2.9313	-2.8708	-2.4875	-2.9646	-2.5271	-2.8187	-3.0958	-2.7229	112.599	208.766	177.139	332.935	200.547	332.549	192.965	276.028	189.509	87.989	65.538	37.943	125.159	83.008	51.661	287.954	0.00061498	0.00083051	5.124e-05	235.7	9.5837e-06	3.5433e-06	329.98	78.156	1.1864e-05	9.6619e-06	128.8	57.545	29.259	11.616	1.6503e-05	25.368	0.014907	0.028439	0.0079926	295.16	0.00026633	0.00031812	382.25	96.972	0.00025907	0.00032564	160.71	67.49	38.423	15.06	0.00028407	30.157	48.398	99.534	61.907	34.738	265.020	218.357	33.501	38.468	259.008	299.346	36.855	40.208	42.212	45.553	129.819	42.624	-8191	255	
6007.996	1	1	0	0	0.1315	0.32173	0.28794	0.050755	0.36113	0.12926	0.12237	0.40842	0.15954	0.14306	0.12582	0.039922	0.22953	0.21837	0.25592	0.10475	-2.5062	-2.9167	-2.6813	-2.8333	-2.7042	-2.6479	-3	-2.6792	-2.8833	-2.8312	-2.4813	-2.9458	-2.7313	-2.4917	-3.0271	-2.6396	348.527	110.573	42.607	247.199	307.870	269.121	282.546	335.849	346.604	210.623	165.786	30.368	177.001	132.786	212.849	22.556	0.00063198	0.0011545	0.00023135	237.23	6.9243e-06	1.0603e-05	333.53	79.799	1.1236e-05	1.0845e-05	131.72	58.791	29.722	11.864	8.4868e-06	25.878	0.014836	0.028388	0.0079555	295.09	0.00026251	0.00031394	384.76	97.928	0.0002557	0.00031894	162.26	68.079	38.874	15.161	0.00027762	30.389	70.056	333.259	92.709	34.866	34.921	170.529	34.089	38.935	202.892	257.540	36.968	40.425	42.611	46.217	130.287	42.839	-8191	255	
6008.117	1	1	0	0	0.16631	0.043071	0.21996	0.1414	0.088487	0.19538	0.18795	0.14288	0.14443	0.17396	0.061693	0.11273	0.073488	0.12036	0.018164	0.18148	-2.3396	-2.6708	-2.4104	-3.0854	-2.7938	-2.6229	-2.8833	-2.6271	-2.7542	-2.7896	-2.6188	-3.0167	-2.7521	-2.5	-2.8479	-2.5917	38.077	193.505	154.184	210.946	38.454	350.803	352.245	307.419	164.443	339.330	307.842	60.616	353.848	369.248	252.484	68.859	0.00062312	0.00068098	0.00014058	241.67	3.9623e-06	1.0102e-05	333.08	80.247	1.4688e-05	6.5559e-06	131.48	58.003	29.649	11.717	1.0078e-05	25.803	0.014743	0.027978	0.0077691	296.1	0.00026224	0.00031321	383.81	98.101	0.00025635	0.00032101	161.87	67.585	38.781	15.089	0.00027969	30.258	21.437	157.487	70.704	35.050	136.639	143.674	33.685	39.298	164.524	269.719	36.641	40.486	42.554	46.592	193.734	42.865	-8191	255	
6008.189	1	1	0	0	0.05836	0.053794	0.039055	0.1003	0.207	0.32635	0.28674	0.11567	0.13156	0.16248	0.13592	0.19749	0.070017	0.12032	0.21724	0.26847	-2.2896	-2.9542	-2.4333	-2.8771	-2.7354	-2.6729	-3.15	-2.6417	-2.7625	-3.0563	-2.3604	-2.9958	-2.7896	-2.3604	-2.7562	-2.625	298.919	171.526	282.616	193.302	365.022	261.469	349.394	147.863	334.474	319.339	306.238	56.069	62.827	333.983	270.006	186.457	0.00047916	0.00044195	0.00025443	238.96	1.7526e-05	1.4519e-05	334.57	79.381	9.679e-06	4.6717e-06	130.7	58.044	29.541	11.647	8.3751e-06	25.644	0.014989	0.028417	0.0079737	295.38	0.00026784	0.00031945	383.13	97.702	0.00025922	0.00032615	160.96	67.652	38.798	15.092	0.00028093	30.183	51.056	295.295	224.234	35.021	178.842	126.534	34.047	39.802	232.277	344.459	36.699	40.245	42.740	45.964	142.752	42.751	-8191	255	
6008.285	1	1	0	0	0.28609	0.18242	0.29286	0.2677	0.18344	0.19474	0.097176	0.27027	0.23356	0.12619	0.27251	0.20844	0.15922	0.18293	0.11137	0.12721	-2.0438	-2.8521	-2.5083	-2.7583	-2.8875	-2.375	-3	-2.6396	-2.575	-2.8854	-2.5125	-2.8063	-2.7438	-2.3542	-2.8438	-2.6604	286.960	188.484	150.441	30.319	123.128	209.105	328.665	367.263	314.401	329.659	257.106	328.783	46.350	86.092	261.644	265.923	0.00037084	0.0016195	0.00014617	237.86	2.1033e-05	1.0638e-05	333.26	78.889	2.7481e-05	1.2069e-05	132.18	58.599	30.028	11.768	6.314e-06	25.748	0.01521	0.028814	0.0079609	294.66	0.00026839	0.0003206	381.68	97.595	0.00026235	0.00032074	162.15	68.019	38.984	15.132	0.00027956	30.416	42.240	138.670	34.481	34.872	128.169	148.044	33.914	39.016	373.325	198.743	36.516	40.772	42.057	45.644	254.297	42.939	-8191	255	
6008.381	1	1	0	0	0.14418	0.25729	0.19711	0.12734	0.0047401	0.13841	0.26815	0.26768	0.028004	0.22856	0.28697	0.29236	0.11678	0.14651	0.24176	0.11825	-2.1083	-2.8521	-2.4625	-2.7146	-2.9417	-2.4938	-2.9229	-2.6417	-2.6063	-3.0417	-2.5729	-2.8	-3.225	-2.6021	-2.8458	-2.9625	331.552	274.237	365.822	78.170	144.383	29.442	367.740	291.615	355.528	54.963	30.144	198.491	352.292	291.553	227.698	250.188	0.00068694	0.00090458	0.00020842	236.65	1.1168e-05	7.3541e-06	333.15	78.479	1.4914e-05	1.0951e-05	130.37	57.952	29.619	11.741	1.5767e-05	25.787	0.015271	0.028536	0.008032	295.64	0.00027285	0.00032127	383.67	97.817	0.00026692	0.00032475	161.96	67.972	38.908	15.215	0.0002838	30.656	52.093	37.829	117.834	34.850	162.921	353.887	33.606	38.836	173.895	216.055	37.051	40.413	42.335	45.689	89.828	42.755	-8191	255	
6008.500	1	1	0	0	0.1621	0.28977	0.2413	0.10058	0.080551	0.015625	0.1017	0.16952	0.11052	0.25798	0.1066	0.063825	0.0095834	0.1085	0.14947	0.074038	-2.0563	-2.7458	-2.5271	-2.6688	-3.0208	-2.7062	-2.8875	-2.7333	-2.4667	-3.0042	-2.7271	-2.6604	-2.9167	-2.5083	-2.7583	-2.9771	264.438	249.586	89.486	120.455	365.276	89.174	367.378	342.586	174.201	180.223	36.586	94.629	297.461	240.838	299.166	285.830	0.00020383	0.00088288	0.00017872	239.07	6.268e-06	9.2762e-06	335.76	79.398	2.1107e-05	2.4452e-06	130.95	58.496	29.783	11.655	1.2064e-05	25.802	0.015486	0.028625	0.0080894	297.48	0.00027351	0.00032314	386.17	98.273	0.00026786	0.00032344	162.5	68.28	39.167	15.142	0.00028132	30.455	52.029	28.183	220.808	34.964	370.879	188.540	33.870	39.242	158.645	301.002	36.914	40.758	42.084	46.076	208.214	42.992	-8191	255	
6008.596	1	1	0	0	0.18396	0.22643	0.27311	0.14231	0.1104	0.09505	0.16421	0.077958	0.15131	0.1401	0.11504	0.24969	0.26578	0.012521	0.068756	0.11218	-1.9979	-2.9333	-2.6604	-2.7354	-3.0667	-2.5563	-2.7458	-2.7938	-2.4979	-2.9083	-2.7833	-2.5396	-3.1312	-2.5333	-2.7188	-3.0146	184.251	358.792	123.670	338.050	255.238	90.700	360.526	190.293	133.985	358.824	266.085	101.301	286.096	53.501	105.826	36.056	0.00056658	0.0005715	0.00013244	239.36	1.3671e-05	4.1556e-06	332.32	78.765	6.1269e-06	1.0887e-05	130.42	57.809	29.807	11.574	8.3743e-06	25.7	0.015262	0.028295	0.0080483	297.15	0.00026791	0.00031965	384.2	98.016	0.00026205	0.00031646	162.28	68.05	38.819	15.064	0.00028149	30.306	61.179	283.418	165.089	35.078	220.002	32.215	34.132	39.228	224.794	111.499	37.056	40.196	42.078	46.692	160.107	42.625	-8191	255	
6008.692	1	1	0	0	0.1942	0.3108	0.16157	0.13579	0.12271	0.055898	0.25276	0.14405	0.35472	0.09875	0.10017	0.13988	0.1595	0.12986	0.15964	0.1782	-2.1854	-2.8271	-2.7729	-2.4854	-2.9938	-2.5542	-2.6417	-2.8958	-2.6437	-2.725	-2.8063	-2.45	-2.7917	-2.5625	-2.6792	-2.8646	221.884	193.404	331.852	92.501	54.539	307.700	154.322	276.094	309.432	277.706	283.529	274.719	363.329	337.028	223.490	318.942	0.00015945	0.00055171	6.7251e-05	237.76	7.6652e-06	6.2124e-06	333.82	80.055	4.7646e-06	1.2527e-05	132.61	58.771	30.013	11.802	1.4451e-05	25.796	0.015106	0.027945	0.008009	297.31	0.00026387	0.00031638	383.87	98.13	0.00026011	0.00031516	162.31	68.181	38.904	15.113	0.00027956	30.403	122.433	129.451	56.955	34.890	154.294	70.500	33.969	38.865	40.775	180.827	36.688	40.684	42.468	46.066	165.463	42.781	-8191	255	
6008.788	1	1	0	0	0.36002	0.24797	0.34406	0.015288	0.3285	0.082995	0.1222	0.08965	0.070413	0.03762	0.030105	0.13912	0.37404	0.10349	0.092923	0.27912	-2.0854	-2.6063	-2.6396	-2.3396	-2.8479	-2.6271	-2.7646	-3.0125	-2.65	-2.85	-2.9396	-2.5396	-2.8	-2.8479	-2.6917	-3.0438	27.887	250.819	380.248	69.838	108.532	242.273	373.507	333.142	357.607	149.130	214.507	290.572	350.165	236.270	74.889	296.512	0.00047288	0.0011958	0.00021817	240.68	1.3544e-05	3.6661e-06	332.77	79.385	2.2657e-05	6.0977e-06	131.46	58.847	29.962	11.718	1.3587e-06	25.73	0.014899	0.027469	0.007977	297.52	0.00026142	0.00031802	383.64	97.997	0.00025785	0.00031375	162.6	68.363	38.77	15.208	0.00028138	30.508	82.888	120.204	278.111	34.427	88.489	61.036	33.817	39.296	66.210	241.129	36.921	39.942	42.261	46.009	275.889	42.700	-8191	255	
6008.884	1	1	0	0	0.092164	0.15929	0.16086	0.17105	0.21869	0.15299	0.10183	0.15858	0.12864	0.20429	0.112	0.1952	0.057265	0.17236	0.30813	0.1698	-2.0542	-2.6208	-2.9271	-2.4125	-2.9167	-2.5938	-2.5917	-2.8771	-2.3354	-2.8438	-2.9146	-2.5792	-2.8833	-2.7417	-2.6521	-2.9042	332.991	135.291	85.596	86.350	319.924	256.384	127.180	27.071	165.620	143.938	379.631	331.309	43.536	334.431	139.810	331.238	0.00042102	0.00035574	0.000569	240.41	1.2041e-05	5.5761e-06	335.08	79.625	1.1522e-05	4.7425e-06	131.6	59.073	29.897	11.756	5.1549e-06	25.75	0.015005	0.027901	0.0080732	297.33	0.00026186	0.00032037	384.8	97.716	0.0002618	0.00031842	162.69	68.263	38.794	15.185	0.00027926	30.355	50.591	140.731	100.514	34.950	124.116	190.123	33.404	39.566	39.638	194.320	37.296	40.059	42.383	46.271	266.492	42.716	-8191	255	
6008.981	1	1	0	0	0.40336	0.08077	0.33991	0.11776	0.22607	0.063156	0.22707	0.15239	0.12272	0.14926	0.27681	0.10916	0.27074	0.17798	0.16705	0.022833	-2.1583	-2.8458	-2.7854	-2.4771	-2.7854	-2.7854	-2.4792	-2.9938	-2.5208	-2.7396	-2.95	-2.5146	-2.8563	-2.7479	-2.45	-2.8375	378.097	98.003	118.967	99.888	348.028	210.656	339.452	226.315	109.598	278.789	40.545	22.187	358.713	335.067	320.840	121.203	0.00032496	0.0003793	0.00013393	235.71	4.3224e-06	2.1348e-06	330.58	78.403	7.9188e-06	5.3581e-06	131.59	57.989	29.669	11.684	8.2388e-06	25.559	0.014906	0.027803	0.0079136	295.7	0.00026016	0.00031992	382	96.854	0.00026207	0.00031788	161.49	67.839	38.623	15.143	0.0002829	30.192	45.744	123.825	269.070	34.417	216.653	177.000	33.831	38.952	241.415	227.169	36.878	40.671	42.304	45.899	300.306	42.730	-8191	255	
6009.101	1	1	0	0	0.23323	0.16827	0.15389	0.21195	0.081357	0.35483	0.063674	0.073229	0.28338	0.383	0.17917	0.048612	0.22719	0.10758	0.25266	0.37878	-2.2833	-2.5229	-2.8854	-2.6271	-2.7646	-2.9625	-2.5292	-2.9021	-2.6458	-2.5729	-3.2021	-2.5104	-2.7604	-3.0375	-2.6437	-2.9521	353.222	351.306	168.330	349.670	195.163	249.279	164.082	212.423	114.468	158.969	340.827	170.157	181.537	340.714	99.299	284.027	0.00055117	0.0010219	0.00035987	236.05	3.1698e-06	1.1189e-05	330.73	78.726	7.0132e-06	7.6397e-06	130.23	58.576	29.859	11.845	8.2804e-06	25.991	0.014987	0.02805	0.0079957	293.85	0.00026297	0.00032048	381.74	97.07	0.00026187	0.0003243	162.04	68.253	38.851	15.29	0.00028189	30.459	41.477	139.803	94.734	35.042	63.838	228.736	33.656	39.066	111.699	148.498	37.366	40.825	42.026	45.879	109.297	42.696	-8191	255	
6009.197	1	1	0	0	0.093974	0.29452	0.33684	0.17203	0.23596	0.4068	0.048144	0.15321	0.10792	0.13583	0.071946	0.014208	0.099377	0.20521	0.11856	0.05331	-2.4083	-2.5083	-2.7229	-2.6521	-2.7396	-2.9917	-2.5312	-2.9	-2.6688	-2.5167	-2.9958	-2.7708	-2.7062	-3.0687	-2.5292	-2.9062	66.882	280.686	88.705	130.969	204.360	157.829	61.932	325.011	30.806	240.164	250.796	140.710	299.570	324.535	321.178	147.133	0.00051839	0.0011105	0.00023518	231.65	1.1538e-05	1.3259e-05	330.28	79.019	3.1515e-06	5.3477e-06	132.16	58.787	30.041	11.813	7.1293e-06	25.78	0.015322	0.028349	0.0079692	291.66	0.00026466	0.00032629	381.63	97.337	0.00026563	0.00032287	162.24	68.583	39.031	15.338	0.00028342	30.554	379.724	87.197	95.433	35.163	271.661	119.135	34.046	39.093	232.946	116.711	37.086	40.796	42.245	45.992	168.389	42.635	-8191	255	
6009.294	1	1	0	0	0.087888	0.23608	0.10155	0.052591	0.22254	0.22698	0.18184	0.1406	0.092858	0.096258	0.208	0.1459	0.10033	0.28867	0.21895	0.093228	-2.1167	-2.5479	-2.9479	-2.7333	-2.4938	-2.8979	-2.3396	-2.7687	-2.6729	-2.6396	-3.0271	-2.6625	-2.5979	-2.9062	-2.5021	-2.8604	124.028	266.249	221.055	70.017	164.703	272.502	248.501	318.846	211.131	140.029	343.231	304.137	305.107	356.319	332.886	156.903	0.00074623	0.00062498	0.00022992	236.94	1.3814e-05	1.2232e-05	334.57	78.242	3.7646e-06	7.156e-06	131.51	58.764	30.259	11.884	8.5146e-06	25.934	0.015369	0.028406	0.0079328	293.98	0.00026648	0.00032416	383.34	97.375	0.00026588	0.00032473	162.39	68.573	39.096	15.314	0.00028362	30.626	49.151	111.121	113.370	34.639	148.600	44.230	33.634	38.626	172.073	151.363	36.789	40.244	42.142	46.278	334.594	43.211	-8191	255	
6009.388	1	1	0	0	0.11399	0.12651	0.10932	0.14803	0.061829	0.32572	0.11138	0.20527	0.17141	0.050799	0.097509	0.14251	0.21336	0.17145	0.16969	0.47403	-2.2604	-2.4188	-2.9896	-2.7562	-2.5979	-2.9875	-2.4917	-2.5833	-2.8604	-2.4479	-2.9771	-2.8104	-2.6188	-2.95	-2.675	-2.5458	40.613	329.635	343.084	252.575	216.487	244.176	358.002	77.071	234.661	325.753	23.373	255.826	54.866	52.501	49.356	154.710	0.00072071	0.0010876	0.00040142	236.11	1.2958e-05	6.452e-07	327.95	78.64	2.9476e-06	2.3784e-06	129.32	58.276	29.534	11.618	8.2145e-07	25.594	0.015352	0.028441	0.0079285	295.29	0.00026913	0.00032336	380.64	97.231	0.00026677	0.00032139	160.86	68.181	38.912	15.168	0.00027959	30.397	46.460	150.901	303.099	34.251	267.874	305.774	33.434	38.902	111.882	111.466	36.841	40.051	42.356	46.261	286.216	42.469	-8191	255	
6009.484	1	1	0	0	0.045587	0.14271	0.11578	0.38584	0.34198	0.15381	0.073896	0.15883	0.1639	0.090967	0.19083	0.20191	0.19259	0.18064	0.085082	0.10487	-2.5229	-2.3229	-2.75	-2.6937	-2.4771	-2.8729	-2.5229	-2.6	-2.9146	-2.5062	-2.9229	-2.8229	-2.2042	-2.7896	-2.7208	-2.6521	61.775	288.331	76.005	213.723	263.073	176.734	354.749	195.588	86.140	374.645	295.374	332.742	330.903	64.449	321.696	347.822	0.0004031	0.0012366	9.4793e-05	235.07	1.6403e-05	1.3072e-06	327.85	78.494	2.5688e-06	1.306e-05	130.33	58.394	29.529	11.572	7.9985e-06	25.604	0.015314	0.027982	0.0078417	294.5	0.00026516	0.00031749	380.46	97.157	0.00026468	0.00031937	160.93	68.176	38.832	15.148	0.00028105	30.497	53.810	201.454	303.653	34.760	260.261	194.246	33.548	38.987	233.015	185.110	36.237	40.736	41.945	46.148	136.245	42.586	-8191	255	
#DATA ENDS
