BOXY.EXE: ISS Imagent and Oximeter Data Acquisition Program Version 0.80
Ascii Record File

#ACQ INFORMATION
2  Detector Channels 
16  External MUX Channels 
1  Auxiliary Channels 
5000  Waveform (CCF) Frequency (Hz)
1  Waveforms Skipped 
30  Waveforms Averaged 
1  Cycles Averaged 
16  Acquisitions per Waveform 
10.0806  Updata Rate (Hz) 

#FILE INFORMATION
TRUE -- External MUX Channel results are PARSED.
FALSE -- AC DC and Phase are NOT grouped.
TRUE -- Companion Program Settings File CREATED.
FALSE -- AC data not excluded
FALSE -- DC data not excluded
FALSE -- Phase data not excluded
FALSE -- Auxillary Chn. data not excluded
Tab delimiters

#CALIBRATION STATE
TRUE -- Waveform Calibration Values APPLIED.


#AUX CALIBRATION VALUES
Val Type	aux-1	

Term	1.0000e+00	
Factor	0.0000e+00	


#WF CALIBRATION VALUES
A = Detector Channel
Val Type	A-AC1	A-AC2	A-AC3	A-AC4	A-AC5	A-AC6	A-AC7	A-AC8	A-AC9	A-AC10	A-AC11	A-AC12	A-AC13	A-AC14	A-AC15	A-AC16	A-DC1	A-DC2	A-DC3	A-DC4	A-DC5	A-DC6	A-DC7	A-DC8	A-DC9	A-DC10	A-DC11	A-DC12	A-DC13	A-DC14	A-DC15	A-DC16	A-Ph1	A-Ph2	A-Ph3	A-Ph4	A-Ph5	A-Ph6	A-Ph7	A-Ph8	A-Ph9	A-Ph10	A-Ph11	A-Ph12	A-Ph13	A-Ph14	A-Ph15	A-Ph16	

Term	0.00000e+00	0.00000e+00	0.00000e+00	0.00000e+00	0.00000e+00	0.00000e+00	0.00000e+00	0.00000e+00	0.00000e+00	0.00000e+00	0.00000e+00	0.00000e+00	0.00000e+00	0.00000e+00	0.00000e+00	0.00000e+00	0.00000e+00	0.00000e+00	0.00000e+00	0.00000e+00	0.00000e+00	0.00000e+00	0.00000e+00	0.00000e+00	0.00000e+00	0.00000e+00	0.00000e+00	0.00000e+00	0.00000e+00	0.00000e+00	0.00000e+00	0.00000e+00	0.00000e+00	0.00000e+00	0.00000e+00	0.00000e+00	0.00000e+00	0.00000e+00	0.00000e+00	0.00000e+00	0.00000e+00	0.00000e+00	0.00000e+00	0.00000e+00	0.00000e+00	0.00000e+00	0.00000e+00	0.00000e+00	
Factor	1.00000e+00	1.00000e+00	1.00000e+00	1.00000e+00	1.00000e+00	1.00000e+00	1.00000e+00	1.00000e+00	1.00000e+00	1.00000e+00	1.00000e+00	1.00000e+00	1.00000e+00	1.00000e+00	1.00000e+00	1.00000e+00	1.00000e+00	1.00000e+00	1.00000e+00	1.00000e+00	1.00000e+00	1.00000e+00	1.00000e+00	1.00000e+00	1.00000e+00	1.00000e+00	1.00000e+00	1.00000e+00	1.00000e+00	1.00000e+00	1.00000e+00	1.00000e+00	X	X	X	X	X	X	X	X	X	X	X	X	X	X	X	X	

B = Detector Channel
Val Type	B-AC1	B-AC2	B-AC3	B-AC4	B-AC5	B-AC6	B-AC7	B-AC8	B-AC9	B-AC10	B-AC11	B-AC12	B-AC13	B-AC14	B-AC15	B-AC16	B-DC1	B-DC2	B-DC3	B-DC4	B-DC5	B-DC6	B-DC7	B-DC8	B-DC9	B-DC10	B-DC11	B-DC12	B-DC13	B-DC14	B-DC15	B-DC16	B-Ph1	B-Ph2	B-Ph3	B-Ph4	B-Ph5	B-Ph6	B-Ph7	B-Ph8	B-Ph9	B-Ph10	B-Ph11	B-Ph12	B-Ph13	B-Ph14	B-Ph15	B-Ph16	

Term	0.00000e+00	0.00000e+00	0.00000e+00	0.00000e+00	0.00000e+00	0.00000e+00	0.00000e+00	0.00000e+00	0.00000e+00	0.00000e+00	0.00000e+00	0.00000e+00	0.00000e+00	0.00000e+00	0.00000e+00	0.00000e+00	0.00000e+00	0.00000e+00	0.00000e+00	0.00000e+00	0.00000e+00	0.00000e+00	0.00000e+00	0.00000e+00	0.00000e+00	0.00000e+00	0.00000e+00	0.00000e+00	0.00000e+00	0.00000e+00	0.00000e+00	0.00000e+00	-2.26776e+02	-1.29708e+02	-1.25081e+02	-1.81324e+02	-8.13396e+01	-6.84428e+01	-1.55273e+02	-1.62015e+02	-8.44135e+01	-6.57107e+01	-1.73287e+02	-1.69603e+02	-1.82427e+02	-1.77112e+02	-7.61088e+01	-1.49999e+02	
Factor	5.15204e-05	1.63359e-04	4.63749e-05	1.65014e-01	2.13459e-06	1.73112e-06	1.63714e-01	5.20409e-02	2.66509e-06	1.65289e-06	8.93901e-02	2.90941e-02	2.44411e-02	9.00888e-03	1.89399e-06	1.31364e-02	1.97274e-05	3.71382e-05	1.04766e-05	8.31389e-02	3.49691e-07	4.20036e-07	7.75769e-02	2.62501e-02	3.44574e-07	4.22086e-07	4.38463e-02	1.42514e-02	1.24700e-02	4.59518e-03	3.71019e-07	6.48508e-03	X	X	X	X	X	X	X	X	X	X	X	X	X	X	X	X	



#DISTANCE SETTINGS
A = Detector Channel
A-1	A-2	A-3	A-4	A-5	A-6	A-7	A-8	A-9	A-10	A-11	A-12	A-13	A-14	A-15	A-16	

2.5000e+00	3.0000e+00	2.5000e+00	3.0000e+00	2.0000e+00	3.0000e+00	1.5000e+00	3.0000e+00	3.0000e+00	3.0000e+00	3.0000e+00	3.0000e+00	3.0000e+00	3.0000e+00	1.5000e+00	3.0000e+00	

B = Detector Channel
B-1	B-2	B-3	B-4	B-5	B-6	B-7	B-8	B-9	B-10	B-11	B-12	B-13	B-14	B-15	B-16	

1.0000e+01	1.0000e+01	1.0000e+01	1.4400e+00	1.0000e+01	1.0000e+01	1.5100e+00	1.9400e+00	1.0000e+01	1.0000e+01	1.9900e+00	2.4900e+00	2.4100e+00	2.9000e+00	1.0000e+01	2.9800e+00	




#DATA BEGINS
time	group	step	mark	flag	A-AC1	A-AC2	A-AC3	A-AC4	A-AC5	A-AC6	A-AC7	A-AC8	A-AC9	A-AC10	A-AC11	A-AC12	A-AC13	A-AC14	A-AC15	A-AC16	A-DC1	A-DC2	A-DC3	A-DC4	A-DC5	A-DC6	A-DC7	A-DC8	A-DC9	A-DC10	A-DC11	A-DC12	A-DC13	A-DC14	A-DC15	A-DC16	A-Ph1	A-Ph2	A-Ph3	A-Ph4	A-Ph5	A-Ph6	A-Ph7	A-Ph8	A-Ph9	A-Ph10	A-Ph11	A-Ph12	A-Ph13	A-Ph14	A-Ph15	A-Ph16	B-AC1	B-AC2	B-AC3	B-AC4	B-AC5	B-AC6	B-AC7	B-AC8	B-AC9	B-AC10	B-AC11	B-AC12	B-AC13	B-AC14	B-AC15	B-AC16	B-DC1	B-DC2	B-DC3	B-DC4	B-DC5	B-DC6	B-DC7	B-DC8	B-DC9	B-DC10	B-DC11	B-DC12	B-DC13	B-DC14	B-DC15	B-DC16	B-Ph1	B-Ph2	B-Ph3	B-Ph4	B-Ph5	B-Ph6	B-Ph7	B-Ph8	B-Ph9	B-Ph10	B-Ph11	B-Ph12	B-Ph13	B-Ph14	B-Ph15	B-Ph16	aux-1	digaux	

5507.452	1	1	0	256	0.20431	0.24258	0.038133	0.13893	0.16786	0.039998	0.24269	0.15639	0.1043	0.28349	0.19137	0.052783	0.17009	0.20186	0.18063	0.34939	-2.6875	-2.7729	-3.0271	-3.2333	-2.7854	-3.2167	-2.875	-3.0917	-3.0708	-2.6958	-3.2625	-3.0875	-2.8208	-3.3583	-2.9625	-3.1458	304.704	291.662	25.743	189.194	297.695	301.873	149.236	43.123	296.912	158.651	295.855	136.652	211.641	27.163	233.788	253.988	0.00020109	0.00016418	0.00017048	502.88	7.8277e-06	4.9476e-06	615.51	168.42	2.7645e-06	8.8035e-06	224.37	66.225	46.119	18.312	3.0168e-06	28.27	0.0033155	0.0059265	0.0016422	481.97	5.7045e-05	6.7445e-05	588.47	162.28	5.5922e-05	6.7778e-05	217.49	64.692	45.535	18.053	5.9661e-05	27.656	24.116	125.753	-21.704	-14.026	143.913	72.283	-15.291	-9.978	67.295	116.815	-11.813	-7.870	-5.823	-2.112	259.271	-4.812	-8191	255	
5507.548	1	1	0	0	0.039598	0.12341	0.14428	0.15675	0.24285	0.11212	0.092455	0.097058	0.080452	0.23462	0.19051	0.030592	0.15542	0.18488	0.051634	0.25699	-2.8208	-2.6271	-3.0271	-2.9688	-2.9125	-3.1667	-3.0667	-2.875	-3.4104	-3.0083	-3.2708	-3.1604	-2.8771	-3.3333	-3.0729	-2.9771	231.120	179.384	123.265	158.433	242.088	68.807	253.676	32.345	106.551	-5.723	217.263	248.285	5.178	56.198	321.188	258.863	0.00040053	0.00054355	0.00019093	501.96	8.2108e-06	1.1852e-06	612.37	167.3	5.671e-06	4.5192e-06	222.87	65.526	45.891	18.204	1.3829e-06	27.948	0.0032606	0.0059017	0.0016453	482.38	5.6035e-05	6.5941e-05	585.3	161.74	5.6143e-05	6.7e-05	215.46	64.002	45.114	17.951	5.9433e-05	27.454	55.013	14.362	113.188	-14.351	115.217	123.643	-15.514	-9.685	169.779	151.980	-11.743	-8.197	-5.914	-1.832	100.928	-4.544	-8191	255	
5507.645	1	1	0	0	0.2108	0.030391	0.22256	0.22887	0.20152	0.18166	0.19369	0.24186	0.03739	0.22189	0.052498	0.18587	0.086459	0.11191	0.23033	0.049568	-2.9313	-2.8792	-3.0396	-3.2479	-2.9813	-3.1167	-3.0958	-2.9188	-3.2271	-3.0646	-3.025	-3.2562	-2.8063	-3.1958	-3.1833	-2.9354	86.500	92.605	168.368	205.389	270.896	25.685	310.827	-10.382	277.699	-16.390	250.305	-17.718	256.188	189.378	34.203	135.546	0.00023234	0.0002962	0.00011053	500.05	4.8491e-06	1.6416e-06	611.88	167.6	8.0696e-06	2.6828e-06	221.84	65.282	46.045	18.138	2.2584e-06	27.942	0.003269	0.0058432	0.0016635	480.01	5.5835e-05	6.6003e-05	585.1	161.53	5.5598e-05	6.7248e-05	214.57	63.809	45.112	17.944	6.1449e-05	27.462	55.920	64.202	62.727	-14.621	82.301	84.580	-15.740	-9.979	70.498	150.061	-11.660	-8.744	-6.013	-1.710	164.599	-4.687	-8191	255	
5507.763	1	1	0	0	0.23215	0.1575	0.12479	0.088407	0.19361	0.17916	0.27536	0.13673	0.11778	0.23665	0.13018	0.21345	0.074793	0.25189	0.15854	0.17998	-2.825	-3.0708	-3.0083	-3.2458	-2.8354	-3.3479	-3.325	-2.9437	-3.4188	-2.9125	-3.0583	-3.3521	-2.75	-3.2146	-3.2479	-2.9104	55.632	-21.921	238.358	315.456	205.749	269.428	231.488	72.716	127.862	124.080	269.449	212.527	220.652	114.342	23.020	78.964	0.00023236	0.00014895	0.00016801	503.08	7.1803e-06	2.6949e-06	613.99	166.72	3.4971e-06	3.7064e-06	224.06	65.818	45.672	18.33	5.7158e-06	28.195	0.0032978	0.0060659	0.0016774	481.95	5.7161e-05	6.7718e-05	587.34	161.43	5.4659e-05	6.7829e-05	215.82	64.018	45.128	18.015	5.9871e-05	27.576	22.239	89.292	79.408	-14.399	109.945	70.865	-15.664	-10.187	160.158	100.572	-12.072	-8.403	-6.032	-2.406	193.360	-4.771	-8191	255	
5507.835	1	1	0	0	0.068854	0.13947	0.12879	0.19272	0.24192	0.20088	0.24896	0.24508	0.23334	0.19429	0.024699	0.10338	0.19654	0.092513	0.079028	0.098655	-2.8979	-3.0375	-2.8167	-3.3125	-2.9896	-3.1188	-3.275	-3.1	-3.3312	-3.1688	-2.9875	-3.3292	-2.9	-3.0354	-3.2292	-2.925	65.948	258.436	-2.268	252.080	324.509	261.306	197.441	222.026	157.138	61.675	42.262	118.299	29.616	6.138	296.455	306.556	0.00021493	0.00025226	6.2086e-05	501.39	9.3791e-06	6.4897e-06	618.96	168.48	3.358e-06	6.4648e-06	224.61	66.234	45.592	18.304	8.5914e-06	28.524	0.003245	0.0058832	0.0016709	481.82	5.6046e-05	6.6922e-05	588.67	162.11	5.5216e-05	6.8387e-05	216.76	64.352	45.196	18.074	5.9384e-05	27.819	90.244	42.408	-20.157	-14.173	46.110	114.369	-15.751	-9.461	112.428	214.337	-11.854	-8.477	-5.515	-1.461	222.780	-4.625	-8191	255	
5507.933	1	1	0	0	0.088167	0.052836	0.17775	0.28506	0.068168	0.16544	0.20695	0.24435	0.10728	0.13029	0.21293	0.025462	0.11952	0.10691	0.21105	0.24541	-2.9042	-3.0917	-2.8625	-3.3292	-2.8917	-3.0542	-3.275	-2.7604	-3.2313	-3.1208	-2.9375	-3.2354	-3.0875	-3.0062	-3.1688	-2.9271	2.619	-2.836	82.609	282.166	108.809	306.019	305.131	262.136	220.038	108.163	296.321	129.936	218.614	216.400	74.736	120.705	0.00030503	0.00052363	0.00020083	503.33	9.312e-06	6.4967e-06	619.6	167.04	5.9683e-06	5.7147e-06	222.83	66.109	45.863	18.302	3.9285e-06	28.05	0.0031515	0.0058992	0.0016621	483.1	5.4193e-05	6.5042e-05	588.63	161.04	5.3015e-05	6.5454e-05	215.28	63.936	44.957	17.98	5.7538e-05	27.543	61.504	15.035	105.445	-14.728	90.300	103.114	-15.493	-9.901	89.002	162.898	-12.158	-8.224	-5.890	-1.811	31.482	-4.469	-8191	255	
5508.052	1	1	0	0	0.10554	0.14944	0.091654	0.13738	0.14647	0.19362	0.18674	0.11524	0.1772	0.13563	0.20798	0.15819	0.23016	0.048707	0.18708	0.27319	-2.8083	-3.1771	-2.8729	-3.1354	-3.1375	-3.175	-3.3771	-2.825	-3.2417	-3.1833	-2.8292	-3.3563	-3.0667	-3.0125	-3.3104	-2.8229	228.807	311.774	191.463	124.039	205.977	80.050	272.297	-2.076	256.397	89.124	-7.245	213.943	61.597	131.883	123.880	222.414	0.00027834	0.00070446	0.00015223	499.7	1.5291e-06	7.183e-06	617.15	167.44	1.8716e-06	6.3482e-07	222.01	65.751	46.016	18.207	6.6689e-06	27.965	0.0031161	0.0058276	0.001659	479.52	5.4787e-05	6.5344e-05	586.71	161.13	5.3798e-05	6.6275e-05	215.19	63.75	45.07	17.93	5.8078e-05	27.576	40.544	58.241	319.759	-14.532	97.320	77.871	-15.778	-9.510	177.896	156.571	-12.056	-8.032	-6.354	-1.980	116.478	-4.600	-8191	255	
5508.148	1	1	0	0	0.059597	0.082844	0.28673	0.2222	0.17261	0.15279	0.06603	0.10981	0.037802	0.1266	0.080071	0.16841	0.13505	0.17461	0.060133	0.13464	-2.6333	-3.1646	-2.825	-3.0896	-3.1583	-2.8021	-3.3937	-2.9042	-3.175	-3.3208	-2.8604	-3.225	-3.1937	-2.8521	-3.3063	-2.9479	60.135	294.836	259.025	-9.666	298.228	321.946	174.372	248.797	-18.405	239.286	102.750	216.491	324.445	331.391	6.184	135.330	0.00023511	0.00031066	8.7353e-05	500.45	6.9722e-06	6.2434e-06	618.24	167.6	4.2821e-06	6.5709e-06	223.06	65.714	45.805	18.236	3.7976e-06	28.385	0.0032294	0.0059532	0.0016816	481.67	5.5721e-05	6.7202e-05	589.5	161.16	5.3697e-05	6.6131e-05	216.03	64.011	45.167	18.007	5.7597e-05	27.695	66.344	72.935	27.652	-14.510	118.639	130.897	-15.716	-10.015	118.287	214.683	-11.690	-8.366	-6.089	-1.479	181.741	-5.172	-8191	255	
5508.244	1	1	0	0	0.17427	0.12756	0.09987	0.17572	0.14436	0.16079	0.22963	0.15706	0.042426	0.10896	0.17972	0.12538	0.28258	0.067443	0.091254	0.20666	-2.4396	-3.1583	-2.8438	-3.0812	-3.1167	-2.9562	-3.2188	-2.9771	-2.9938	-3.35	-2.8708	-3.0729	-3.225	-2.7917	-3.2708	-3.0021	-22.027	171.357	42.440	309.000	3.103	110.032	-3.492	307.901	21.843	70.596	246.239	235.526	-15.434	203.149	-9.010	331.119	0.00019043	0.00069153	0.00012023	502.63	5.0129e-06	6.8715e-06	615.44	167.71	4.0265e-06	1.9544e-06	225.7	66.597	46.496	18.241	5.5395e-06	28.334	0.0032394	0.0059006	0.0016327	482.5	5.5877e-05	6.6773e-05	589.14	161.83	5.5418e-05	6.7952e-05	217.95	64.832	45.567	18.007	5.8432e-05	27.797	47.802	43.511	69.304	-14.671	123.438	134.494	-15.624	-10.143	23.496	323.556	-12.104	-8.238	-6.207	-1.817	240.067	-4.609	-8191	255	
5508.365	1	1	0	0	0.12593	0.16606	0.082534	0.17416	0.16421	0.37675	0.24249	0.080041	0.078477	0.22002	0.10911	0.11823	0.19942	0.26629	0.16679	0.12168	-2.6167	-3.3125	-2.7479	-3.1542	-3.2271	-2.8167	-3.1229	-3.1792	-2.9021	-3.4083	-2.9854	-3.0333	-3.3875	-2.7875	-3.2938	-3.1604	67.351	262.337	78.969	268.073	143.201	-13.919	221.643	10.806	256.939	325.682	290.511	181.498	206.883	47.547	323.178	248.204	0.00025818	0.00011261	9.1293e-05	502.98	2.209e-06	4.4626e-06	615.36	168.41	3.7638e-06	2.1278e-06	224.76	65.712	45.618	18.148	5.2714e-06	28.13	0.0032939	0.0058086	0.0016442	483.28	5.6042e-05	6.636e-05	588.21	161.89	5.5155e-05	6.7591e-05	216.81	64.288	45.153	17.887	5.8202e-05	27.591	41.392	28.882	126.818	-14.439	97.215	60.228	-15.461	-9.716	48.203	70.179	-12.322	-7.946	-5.988	-1.512	-26.804	-4.423	-8191	255	
5508.459	1	1	0	0	0.24995	0.10136	0.23528	0.093385	0.12359	0.16632	0.25927	0.1845	0.26883	0.1562	0.12258	0.07409	0.33424	0.21132	0.17603	0.36132	-2.4958	-3.225	-2.9521	-3.0687	-3.3792	-2.9792	-3.2687	-3.2021	-2.8417	-3.4146	-3.1562	-2.9396	-3.4021	-2.9813	-3.1104	-3.2396	63.043	97.991	274.526	129.683	201.319	327.216	322.250	310.803	308.172	63.973	203.286	122.028	-27.115	252.199	93.522	316.490	0.00032713	0.00085294	0.00014926	497.99	5.0608e-06	5.0516e-06	615.99	167.08	1.1716e-05	3.6457e-06	225.6	65.485	45.78	18.151	5.3227e-06	28.128	0.0033103	0.005942	0.0016635	479.76	5.6622e-05	6.6439e-05	588.34	161.56	5.482e-05	6.6387e-05	217.23	64.028	45.349	17.912	5.8903e-05	27.576	54.370	93.119	95.645	-14.505	20.072	184.312	-15.853	-10.268	97.916	91.392	-11.737	-8.272	-5.957	-1.970	176.675	-4.379	-8191	255	
5508.533	1	1	0	0	0.27763	0.096865	0.24221	0.18427	0.094101	0.19024	0.047178	0.22097	0.12479	0.16325	0.20628	0.060778	0.14555	0.11243	0.095496	0.20282	-2.4167	-3.35	-3.0208	-2.9188	-3.375	-2.8625	-3.1354	-3.275	-2.9979	-3.3917	-3.0542	-2.9104	-3.2708	-2.8542	-3.2104	-3.3625	-5.490	227.321	37.993	-4.581	169.478	-26.922	281.900	268.710	312.341	142.940	40.701	215.335	73.474	19.565	253.390	247.944	0.00024719	0.00046316	7.6906e-05	499.65	4.6792e-06	3.9683e-07	614.65	168.01	8.4149e-06	3.1226e-06	222.85	66.112	46.159	18.321	4.2129e-06	28.439	0.003266	0.005821	0.0016755	480.01	5.6034e-05	6.726e-05	587.92	162.21	5.6232e-05	6.674e-05	217.66	64.767	45.429	17.949	5.8766e-05	27.789	30.068	95.470	115.630	-14.697	191.178	267.483	-16.029	-9.964	39.001	305.025	-12.160	-8.152	-5.717	-1.636	128.199	-4.690	-8191	255	
5508.653	1	1	0	0	0.10344	0.14584	0.092892	0.19168	0.24233	0.19405	0.16651	0.31114	0.18407	0.21246	0.16986	0.28697	0.020497	0.20669	0.032258	0.25777	-2.3917	-3.2396	-3.0708	-2.9604	-3.2125	-2.9167	-3.2146	-3.3208	-2.7729	-3.2542	-3.1854	-2.9	-3.2938	-2.9188	-3.1813	-3.3458	210.153	247.327	225.173	319.551	89.104	26.134	267.844	229.516	199.539	175.285	175.685	236.863	36.605	307.655	230.599	-19.115	0.00023677	0.00077018	0.0001706	504.84	9.0098e-06	7.3875e-06	618.75	167.98	4.2765e-06	6.427e-06	226.3	66.327	46.162	18.237	5.2197e-06	28.47	0.0032356	0.0058352	0.0016657	481.47	5.4913e-05	6.5121e-05	591.4	162.12	5.3821e-05	6.5638e-05	218.91	64.776	45.522	17.974	5.8826e-05	27.857	84.158	165.540	149.746	-14.309	96.148	57.161	-15.532	-10.215	175.340	120.198	-11.988	-8.329	-6.120	-1.913	64.825	-4.733	-8191	255	
5508.748	1	1	0	0	0.24658	0.13425	0.1428	0.057866	0.12432	0.074323	0.13365	0.32276	0.37525	0.13521	0.10933	0.10898	0.32887	0.13526	0.14854	0.10382	-2.2417	-3.0792	-3.0708	-2.8563	-3.2146	-2.9771	-3.1104	-3.3042	-2.8542	-3.1	-3.25	-2.7083	-3.4021	-3.0062	-2.8667	-3.3104	169.550	90.398	238.240	329.224	-27.017	9.025	269.883	-19.313	183.603	57.564	216.308	223.669	-6.883	226.143	254.630	290.234	0.0001098	0.00028503	0.00018997	498.67	5.0662e-06	7.4642e-06	617.06	167.26	1.377e-05	1.1851e-06	225.4	65.677	45.602	18.091	5.9664e-06	28.275	0.0031933	0.0058557	0.0016683	480.74	5.4698e-05	6.6323e-05	590.78	161.97	5.4869e-05	6.5175e-05	217.68	64.428	44.992	17.883	5.8434e-05	27.789	57.072	83.936	35.973	-14.327	164.901	67.902	-15.755	-9.968	112.713	202.091	-12.159	-8.359	-5.660	-2.332	83.227	-5.119	-8191	255	
5508.844	1	1	0	0	0.14668	0.19	0.19609	0.096769	0.28891	0.21786	0.24653	0.41014	0.088766	0.15235	0.16129	0.14573	0.21027	0.11833	0.037909	0.027772	-2.2875	-3.0292	-3.2167	-2.8688	-3.2771	-3.2417	-2.9479	-3.3854	-2.8854	-3.2375	-3.2687	-2.9125	-3.1104	-3.0938	-2.7771	-3.3708	311.987	261.395	99.847	273.295	102.818	296.477	263.074	240.360	209.606	291.895	306.682	297.458	247.836	316.651	290.263	162.255	0.00042687	0.00047567	7.1543e-05	494.86	1.6697e-06	5.1316e-06	613.03	166.86	7.9911e-06	1.7876e-06	223.5	66.192	45.344	18.094	1.8266e-06	28.316	0.0031847	0.0058128	0.0016555	478.47	5.4077e-05	6.5316e-05	587.57	161.32	5.4804e-05	6.5745e-05	217.31	64.406	45.019	17.955	5.9116e-05	27.773	21.534	250.783	38.940	-14.487	331.148	119.031	-15.734	-9.765	155.256	75.907	-12.042	-8.133	-5.580	-1.914	144.545	-4.996	-8191	255	
5508.940	1	1	0	0	0.18711	0.096545	0.041259	0.22914	0.13698	0.25385	0.33463	0.20853	0.064093	0.16176	0.10294	0.070349	0.18465	0.084467	0.24656	0.19433	-2.5458	-2.9104	-3.1667	-2.6771	-3.2833	-2.8542	-2.7562	-3.4062	-2.9583	-3.0812	-3.3417	-2.8979	-3.2479	-2.9646	-2.9333	-3.15	104.077	0.975	99.360	155.240	287.023	-5.317	142.410	296.966	200.382	49.920	-21.915	71.986	312.699	226.261	80.918	17.684	0.00029397	0.00037155	0.00010583	499.19	2.9567e-06	2.4442e-06	617.52	168.66	1.0477e-05	5.6362e-06	226.83	66.933	45.821	18.34	6.3781e-06	28.504	0.0032285	0.0057825	0.0016348	479.6	5.4126e-05	6.468e-05	589.65	162.09	5.4285e-05	6.6201e-05	218.91	64.767	45.145	18.083	5.9327e-05	28.006	18.893	37.979	322.895	-14.506	63.816	131.630	-15.558	-9.973	93.589	83.205	-11.980	-8.123	-6.409	-2.148	51.991	-5.071	-8191	255	
5509.061	1	1	0	0	0.076421	0.22822	0.21528	0.30706	0.21669	0.19301	0.11366	0.18584	0.1139	0.24695	0.067864	0.22788	0.14946	0.18722	0.14916	0.27566	-2.6146	-2.8458	-3.1208	-2.7938	-3.125	-3.4083	-2.8229	-3.3187	-2.9229	-2.9562	-3.0292	-2.8729	-3.0604	-3.2333	-2.9083	-3.35	130.840	103.767	311.566	-4.283	-14.775	74.335	233.236	85.169	-24.158	70.118	38.422	-8.516	26.618	250.841	91.201	280.897	0.0002282	0.00036885	0.00019718	498	3.7334e-06	2.608e-06	619.89	168.51	9.4468e-07	3.6013e-06	225.72	67.284	46.342	18.391	4.8866e-06	29.036	0.0032271	0.0058441	0.0016347	481.02	5.4625e-05	6.6363e-05	593.09	162.22	5.4824e-05	6.7144e-05	220.08	65.319	45.484	18.153	5.9551e-05	28.341	59.053	25.409	84.171	-14.412	128.921	139.412	-15.486	-10.004	203.215	183.147	-12.049	-8.424	-5.645	-2.482	188.983	-4.913	-8191	255	
5509.132	1	1	0	0	0.078213	0.23989	0.08285	0.19194	0.069509	0.2375	0.1101	0.20528	0.052898	0.15712	0.074431	0.074986	0.11147	0.2465	0.40119	0.33233	-2.6792	-2.7104	-3.1354	-2.8563	-3.0333	-3.2375	-2.9437	-3.2104	-3.1646	-2.8167	-3.425	-2.9583	-2.8917	-3.2042	-2.8771	-3.0854	89.174	271.951	273.210	250.018	236.979	322.648	288.011	243.687	206.698	31.960	195.744	325.647	152.349	29.935	124.547	271.528	0.00038716	0.00057547	0.00028574	502.28	4.5216e-06	3.7736e-06	622.07	168.37	1.2427e-05	3.6608e-06	227.61	66.411	45.467	18.091	5.7395e-06	28.485	0.0032607	0.0059254	0.0016311	482.67	5.5034e-05	6.6211e-05	592.33	162	5.4375e-05	6.6537e-05	219.83	64.717	45.004	17.945	5.7217e-05	27.965	25.276	57.058	55.220	-14.610	147.109	112.396	-15.578	-9.595	127.115	52.717	-11.972	-8.227	-5.994	-2.035	115.587	-4.510	-8191	255	
5509.228	1	1	0	0	0.26263	0.05328	0.19651	0.17732	0.26373	0.17384	0.19798	0.032	0.097892	0.14493	0.099189	0.168	0.14593	0.19194	0.19313	0.14766	-2.5896	-2.6417	-3.2604	-3.025	-3.1417	-3.35	-2.8146	-3.2812	-3.0646	-2.7604	-3.3937	-3.0563	-3	-3.3458	-3.0104	-3.1667	280.482	231.088	70.803	2.333	45.189	133.103	287.456	164.829	12.438	141.729	-18.803	115.043	331.043	269.938	207.300	254.419	0.00029753	0.00093156	7.4943e-05	499.77	7.8893e-06	1.4031e-06	621.95	167.34	8.0324e-06	4.3954e-06	225.81	66.183	45.293	18.267	3.7871e-06	28.476	0.0032128	0.0057856	0.0016088	479.66	5.4319e-05	6.4966e-05	591.16	161.82	5.4014e-05	6.4151e-05	218.1	64.629	44.817	17.958	5.563e-05	27.965	14.821	153.211	65.796	-13.918	56.334	178.247	-15.674	-9.916	69.976	52.533	-11.990	-8.362	-5.887	-2.092	162.044	-4.928	-8191	255	
5509.325	1	1	0	0	0.13992	0.14377	0.38131	0.030756	0.083964	0.22838	0.15396	0.18881	0.10331	0.23484	0.11838	0.19953	0.065334	0.044023	0.15788	0.070104	-2.9646	-2.7083	-3.0833	-3.0854	-2.9062	-3.3354	-3.0542	-3.0833	-3.3417	-2.975	-3.3125	-3.1917	-2.8875	-3.2521	-2.8583	-3.2646	183.825	200.497	171.492	91.750	-1.867	320.276	16.266	49.476	-14.958	323.540	21.982	261.339	317.366	18.500	-15.272	176.200	0.00037815	0.00052216	1.2849e-05	494.18	6.4989e-06	5.5705e-06	618.37	166.37	1.3103e-05	4.6006e-06	228.03	66.511	45.442	18.129	4.9225e-06	28.654	0.0031301	0.0056431	0.0015852	477.31	5.3715e-05	6.3917e-05	591.2	161.52	5.4378e-05	6.5486e-05	219.91	65.146	45.212	18.011	5.7413e-05	28.203	61.569	73.322	73.288	-14.570	217.828	28.859	-15.912	-9.969	145.060	174.169	-12.093	-8.500	-6.065	-1.962	-23.244	-4.583	-8191	255	
5509.445	1	1	0	0	0.2456	0.144	0.12847	0.13062	0.061142	0.23828	0.03963	0.17213	0.03926	0.090253	0.22106	0.087003	0.18237	0.064784	0.032323	0.079129	-2.7292	-2.7292	-3.1146	-3.0292	-3.0479	-3.4417	-3.0083	-3.0708	-3.3146	-2.775	-3.2354	-3.1833	-2.7188	-3.2458	-3.0083	-2.9396	143.569	312.313	196.926	178.514	-20.146	193.978	260.242	296.572	40.290	322.850	244.007	-16.121	96.142	-5.549	265.273	277.992	0.00027078	0.00037975	0.00013306	495.8	6.061e-06	1.9953e-06	625.99	167.68	6.2381e-06	6.6098e-06	227.99	67.405	45.721	18.302	7.6843e-06	29.189	0.0031882	0.0056957	0.0015974	479.61	5.44e-05	6.3526e-05	596.3	162.72	5.3333e-05	6.4545e-05	220.21	65.494	45.287	18.169	5.6999e-05	28.472	36.206	44.162	192.272	-14.690	140.677	167.425	-15.616	-9.960	123.346	84.912	-12.112	-7.917	-6.604	-2.126	80.173	-4.661	-8191	255	
5509.540	1	1	0	0	0.14158	0.07408	0.25828	0.059295	0.036052	0.31327	0.22576	0.14132	0.12623	0.045448	0.25018	0.13908	0.17804	0.21024	0.22701	0.16708	-2.7833	-2.7938	-3.1188	-3.1188	-2.7562	-3.3833	-3.0354	-2.9729	-3.3083	-2.9729	-3.1188	-3.2438	-2.8063	-3.1521	-3.05	-3.0979	127.119	207.558	298.513	155.925	179.322	1.571	304.866	275.841	147.014	284.488	41.737	4.584	256.105	225.199	14.613	180.553	0.00027205	0.00044693	0.00025173	499.26	2.9734e-06	6.418e-06	623.19	168.72	5.8221e-06	6.5222e-06	227.48	66.695	45.831	18.332	6.0764e-06	28.83	0.0031574	0.0057013	0.0016174	481.96	5.4382e-05	6.4343e-05	595.91	162.88	5.2245e-05	6.449e-05	220.5	65.025	45.115	18.091	5.6974e-05	28.212	68.701	-4.389	67.917	-14.419	230.229	113.199	-15.696	-10.188	98.035	97.101	-12.146	-8.349	-6.183	-2.330	150.501	-4.466	-8191	255	
5509.636	1	1	0	0	0.23028	0.10555	0.27526	0.13976	0.18375	0.093734	0.058528	0.2425	0.059829	0.25119	0.08158	0.13595	0.08531	0.006284	0.15978	0.21102	-3.0438	-2.8375	-2.9167	-3.1792	-2.8271	-3.2729	-3.1042	-2.9146	-3.3479	-2.9958	-3.0354	-3.4354	-2.6542	-3.1646	-3.0667	-2.9208	304.861	126.970	82.450	-11.657	186.347	260.386	46.314	-6.407	63.426	66.079	61.522	75.236	-25.468	31.717	7.476	295.603	0.00026103	0.00066658	0.00020563	499.64	8.8362e-06	3.8111e-06	625.64	168.05	1.3037e-05	7.9375e-06	228.9	66.952	45.619	18.279	1.9865e-06	28.886	0.0030936	0.0056281	0.001591	478.89	5.3509e-05	6.2942e-05	593.62	162.15	5.253e-05	6.4076e-05	220.6	64.955	44.976	18.071	5.785e-05	28.255	49.676	45.802	55.190	-14.395	175.013	183.924	-15.510	-9.033	328.382	162.137	-11.867	-7.962	-5.965	-2.256	165.699	-4.585	-8191	255	
5509.734	1	1	0	0	0.02363	0.072944	0.21974	0.42173	0.2553	0.18362	0.21181	0.30254	0.062027	0.2427	0.055146	0.061633	0.20088	0.16074	0.049753	0.14425	-2.9479	-3.0458	-2.7375	-3.3208	-2.7812	-3.0292	-3.3083	-2.8729	-3.0417	-2.9313	-3.05	-3.2708	-2.65	-3.2146	-3.1583	-2.8812	77.621	312.191	200.906	8.452	302.300	30.681	178.612	290.993	21.536	242.562	-20.602	55.742	13.204	62.972	38.986	209.521	0.00037541	0.00080474	0.00015435	496.83	8.1606e-06	1.6794e-06	618.17	167.86	9.3646e-06	8.2336e-06	229.15	66.859	45.296	18.396	2.9986e-06	29.257	0.0031548	0.005827	0.0016293	478.89	5.4448e-05	6.5709e-05	594.57	162.57	5.4099e-05	6.7704e-05	221.81	65.146	45.11	18.198	6.044e-05	28.745	34.127	331.340	95.588	-14.539	127.454	174.781	-15.494	-9.958	41.948	111.807	-11.946	-8.659	-5.832	-2.078	178.700	-4.750	-8191	255	
5509.828	1	1	0	0	0.30914	0.053325	0.28159	0.023264	0.2068	0.13731	0.1647	0.080547	0.088252	0.041922	0.12805	0.15895	0.078915	0.24134	0.11494	0.098166	-2.8958	-3.025	-2.8958	-3.0521	-2.7812	-3.1604	-3.2667	-2.6417	-3.1583	-3.0854	-2.9354	-3.1792	-2.9917	-2.9688	-3.1917	-2.8521	-4.846	-25.999	-1.218	61.322	168.191	6.673	-15.317	223.407	99.833	247.155	144.153	-17.393	328.385	60.085	-18.337	226.399	0.00034972	0.00032479	0.00013921	495.23	4.0926e-06	3.8143e-06	622	168.14	4.7434e-06	4.5022e-06	229.95	67.194	45.829	18.545	1.7811e-06	29.55	0.0032658	0.0059786	0.0016699	478.08	5.5819e-05	6.7129e-05	596.73	162.68	5.4672e-05	6.7951e-05	223.19	65.663	45.261	18.314	6.0989e-05	28.929	56.531	314.252	156.135	-14.711	150.309	149.900	-15.733	-10.301	173.160	125.494	-11.984	-8.109	-5.808	-2.396	218.468	-4.845	-8191	255	
5509.924	1	1	0	0	0.37009	0.063089	0.16484	0.14809	0.1786	0.16016	0.12269	0.25958	0.05905	0.214	0.26936	0.13775	0.15994	0.26421	0.16546	0.10767	-2.7792	-2.9292	-2.9958	-3.4208	-2.9708	-3.0104	-3.3021	-2.8958	-3.0062	-3.1312	-3.0375	-3.3438	-2.9479	-2.8104	-3.3563	-2.6354	118.926	194.006	177.424	267.107	115.178	63.148	218.526	147.801	270.626	94.099	305.568	192.696	242.931	107.224	305.608	205.601	0.00027996	0.00012614	0.00021957	495.08	4.6826e-06	8.7054e-06	623.54	167.78	1.3636e-06	1.2334e-06	229.54	66.785	45.75	18.182	1.8225e-06	28.708	0.00327	0.0061581	0.0016853	478.47	5.6355e-05	6.7142e-05	596.77	162.72	5.4631e-05	6.8173e-05	222.42	65.502	45.224	18.023	5.991e-05	28.336	34.522	59.577	68.567	-14.519	78.531	171.160	-15.658	-10.044	134.066	52.088	-12.112	-8.017	-6.343	-2.022	38.426	-5.388	-8191	255	
5510.045	1	1	0	0	0.22962	0.19223	0.082216	0.26514	0.20361	0.21098	0.054346	0.090194	0.12541	0.15404	0.26892	0.17465	0.090831	0.1647	0.2279	0.15013	-2.7938	-3.2604	-2.7167	-3.3521	-3.0833	-3.1646	-3.3042	-2.9104	-3.2646	-3.0854	-2.9313	-3.2625	-3.1312	-2.8479	-3.4188	-2.9375	281.623	223.783	-15.513	-0.307	270.901	239.761	196.788	223.943	200.680	95.257	142.804	36.655	154.684	136.329	253.763	86.476	0.00025333	0.00062924	0.00012508	492.5	9.3542e-06	3.1601e-06	618.17	167.94	1.0118e-05	8.6189e-06	231.03	67.553	45.845	18.172	2.3363e-06	29.084	0.0032278	0.0059694	0.001668	475.09	5.5255e-05	6.5897e-05	594.16	161.68	5.4057e-05	6.7283e-05	221.7	65.323	44.951	17.924	5.8237e-05	28.289	42.854	9.307	93.961	-14.669	191.166	326.321	-15.660	-9.868	153.728	130.731	-11.788	-8.534	-5.724	-1.842	206.177	-4.996	-8191	255	
5510.141	1	1	0	0	0.1197	0.19809	0.095756	0.054339	0.092839	0.10481	0.24427	0.054406	0.18245	0.17475	0.058273	0.24542	0.14697	0.076805	0.053378	0.38855	-2.6437	-3.2062	-2.7208	-3.3	-2.9854	-2.9062	-3.3167	-3.1667	-3.0896	-3.1542	-2.7021	-3.2021	-3.0875	-2.9125	-3.3521	-3.1417	59.938	258.616	135.647	-15.853	135.293	64.106	142.387	98.416	84.578	15.231	194.243	243.540	9.390	11.493	279.834	271.221	0.00025839	0.00040593	0.00010955	494.05	2.0432e-06	8.927e-06	626.42	168.96	5.0271e-06	1.6543e-06	230.93	67.355	45.662	18.048	4.6223e-06	29.076	0.0032224	0.0059401	0.0016675	475.23	5.6093e-05	6.8184e-05	595.91	162.38	5.4834e-05	6.7242e-05	222.23	65.327	45.059	17.84	5.7797e-05	28.324	60.418	84.843	85.196	-14.027	329.577	141.139	-15.545	-9.847	204.714	206.497	-11.825	-7.934	-6.045	-1.856	63.458	-4.850	-8191	255	
5510.237	1	1	0	0	0.22409	0.33129	0.33575	0.20713	0.063859	0.083034	0.073312	0.34538	0.24057	0.047702	0.17111	0.1778	0.11051	0.22095	0.048345	0.16471	-2.6667	-3.1813	-2.7125	-3.0542	-3.2604	-2.8354	-3.3917	-3.0104	-3.0625	-3.2167	-3.0646	-3.1229	-3.2146	-2.8646	-3.0875	-2.9125	139.053	208.384	74.735	198.845	230.735	272.372	197.654	302.559	225.179	238.996	322.017	173.380	271.008	319.146	148.662	306.705	0.00045488	0.0005501	0.00020939	496.84	2.9343e-06	5.1231e-06	631.58	168.68	1.1762e-05	1.6649e-06	230.45	67.558	45.276	18.042	5.0869e-06	28.918	0.0032172	0.0059163	0.0016495	476.8	5.4835e-05	6.6278e-05	597.77	162.38	5.3947e-05	6.5309e-05	222.24	65.308	44.899	17.798	5.7115e-05	28.256	57.464	38.687	105.163	-14.204	52.355	200.456	-15.837	-9.748	116.103	152.036	-12.228	-7.975	-6.069	-1.830	246.483	-4.411	-8191	255	
5510.333	1	1	0	0	0.20133	0.26262	0.10539	0.11428	0.16445	0.062343	0.23341	0.21381	0.099832	0.22801	0.26459	0.04409	0.32872	0.19174	0.12465	0.26487	-2.4542	-3.2354	-3.0854	-3.2	-3.2417	-3.0667	-3.3167	-3.1375	-2.8833	-3.2333	-2.9125	-3.2521	-3.1813	-3.0042	-3.325	-3.0833	102.823	312.818	46.373	311.644	149.628	-15.297	314.870	144.354	45.696	0.706	289.410	88.644	319.603	280.413	10.816	226.569	0.00031739	0.00069695	9.3117e-05	497.57	4.7459e-06	6.8404e-06	626.32	168.64	8.2241e-06	7.6625e-06	228.87	66.558	45.594	17.768	1.8431e-06	28.655	0.0031583	0.0056281	0.0015776	476.84	5.3254e-05	6.3194e-05	595.29	161.74	5.1601e-05	6.2929e-05	220.97	64.689	44.686	17.534	5.4074e-05	27.867	55.944	7.590	304.714	-13.954	208.742	145.098	-15.350	-9.941	30.612	182.431	-11.613	-8.173	-5.729	-1.784	47.798	-4.629	-8191	255	
5510.429	1	1	0	0	0.22391	0.17784	0.044001	0.2924	0.078019	0.22577	0.2747	0.17794	0.15301	0.10936	0.042398	0.20374	0.21146	0.17277	0.097197	0.19681	-2.4479	-3.1188	-2.9813	-2.9625	-3.1521	-2.85	-3.2771	-3.2104	-2.8688	-3.3479	-3.1167	-2.9417	-3.2604	-2.9854	-3.2292	-3.2896	163.981	188.515	45.530	236.342	207.571	239.426	316.686	318.926	86.002	16.133	182.682	193.953	326.157	83.907	304.147	323.402	0.0003095	0.00086976	0.00012396	492.47	6.1689e-06	4.0835e-06	625.82	167.25	3.5125e-06	5.3967e-06	230.06	66.546	45.546	17.619	9.1265e-06	28.101	0.00306	0.0054746	0.0015032	473.9	5.1361e-05	6.2378e-05	593.85	160.54	5.1916e-05	6.1386e-05	220.27	64.33	44.32	17.348	5.5282e-05	27.458	69.308	56.578	107.708	-14.233	94.426	52.807	-15.390	-9.626	56.617	153.903	-11.624	-7.771	-5.978	-1.490	105.550	-4.412	-8191	255	
5510.526	1	1	0	0	0.037944	0.16663	0.30458	0.02357	0.18997	0.17444	0.21841	0.1731	0.09057	0.34762	0.048584	0.13426	0.17199	0.080558	0.11305	0.10125	-2.2438	-3.15	-2.9708	-2.9604	-3.2958	-3.0146	-3.0229	-3.1021	-2.7625	-3.3458	-3.0708	-2.9125	-3.5375	-2.9708	-3.1354	-3.2229	223.970	130.571	79.608	14.226	83.627	37.367	231.441	280.719	54.215	327.526	240.848	258.064	2.106	229.515	164.587	148.440	0.00026304	0.00047627	0.0001314	494.31	5.4998e-06	2.82e-06	621.99	168	7.0113e-06	2.4255e-06	228.33	67.293	45.325	17.548	1.9507e-06	28.047	0.0029935	0.0054784	0.0015349	473	5.1335e-05	6.0441e-05	594.15	160.77	4.8793e-05	6.0445e-05	220.27	64.739	44.276	17.237	5.3948e-05	27.413	68.625	51.825	88.242	-14.265	102.957	248.180	-15.462	-9.966	73.234	116.701	-11.930	-8.347	-5.951	-1.995	-3.264	-4.577	-8191	255	
5510.622	1	1	0	0	0.020799	0.20596	0.15258	0.24369	0.18339	0.13897	0.17017	0.081795	0.25673	0.24894	0.1363	0.26002	0.14997	0.08445	0.16524	0.039528	-2.4583	-3.2812	-3.2375	-2.7042	-3.4229	-3.025	-3.1	-3.2917	-2.8583	-3.1792	-3.1125	-2.9021	-3.4167	-3.0729	-3.1021	-3.0938	157.719	17.850	226.870	-0.345	46.313	20.353	326.349	188.350	206.433	272.421	258.110	300.967	133.129	253.270	142.683	114.870	0.00034213	0.0002946	0.00028995	490.77	5.7627e-06	3.8265e-06	624.2	166.79	6.8354e-06	4.8608e-06	229.75	67.706	45.705	17.298	2.8654e-06	27.734	0.0030148	0.0053433	0.0014872	472.22	5.0105e-05	6.0059e-05	593.32	160.3	5.04e-05	6.0401e-05	220.87	65.119	44.525	16.995	5.304e-05	27.102	20.220	-3.108	130.377	-14.487	77.027	156.516	-15.842	-9.518	25.154	196.170	-11.973	-7.630	-6.048	-1.837	308.309	-4.577	-8191	255	
5510.741	1	1	0	0	0.1687	0.17579	0.20976	0.21054	0.24563	0.18886	0.1767	0.13452	0.05632	0.18586	0.12246	0.097254	0.2842	0.09713	0.11653	0.059004	-2.4021	-3.0604	-2.9375	-2.9917	-3.3021	-3.1542	-3.0854	-3.4229	-2.9896	-3.2188	-3.1979	-2.8792	-3.1542	-3.1417	-2.9646	-3.3146	189.648	6.527	276.678	254.062	238.823	-3.826	168.704	240.358	276.283	253.573	247.825	-25.080	112.546	4.771	183.004	142.777	0.00027183	0.00024631	0.0001292	491.31	3.7209e-06	3.0486e-06	623.1	166.74	7.1665e-06	1.8461e-06	228.93	67.011	45.652	16.977	1.9312e-06	27.108	0.0029249	0.005267	0.0014872	470.06	4.9165e-05	5.964e-05	590.19	159.48	4.8886e-05	5.9023e-05	220.13	64.748	44.563	16.603	5.093e-05	26.376	35.163	63.644	43.430	-14.641	28.201	118.113	-15.960	-10.094	313.415	53.337	-11.811	-8.166	-5.715	-1.809	147.033	-4.462	-8191	255	
5510.837	1	1	0	0	0.18889	0.09759	0.11616	0.017793	0.1375	0.25962	0.17091	0.20733	0.10624	0.1627	0.16149	0.22423	0.33252	0.15341	0.055868	0.14426	-2.4604	-2.9333	-3.1271	-2.9021	-3.3104	-2.975	-3.0333	-3.4583	-3.0521	-3.0458	-3.1625	-2.75	-3.1229	-3.0708	-3.0875	-3.3187	241.178	288.180	231.991	219.424	309.390	326.539	235.947	287.842	165.054	124.944	-19.469	215.691	138.213	106.517	283.729	280.347	0.00033775	0.00054328	0.00011937	483.91	1.3529e-06	3.4126e-06	619.31	166.03	5.5522e-06	4.6833e-06	228.25	67.625	45.563	16.606	9.6513e-06	26.421	0.0028502	0.005175	0.0014506	463.95	4.8385e-05	5.8081e-05	586.61	158.34	4.7702e-05	5.7588e-05	219.47	64.754	44.471	16.283	5.0504e-05	25.929	62.099	115.575	153.025	-14.125	154.749	182.176	-15.460	-10.153	151.168	135.394	-11.918	-8.362	-6.275	-1.640	125.800	-5.081	-8191	255	
5510.933	1	1	0	0	0.17629	0.083467	0.10136	0.1129	0.25431	0.024923	0.15554	0.08827	0.030391	0.027787	0.091209	0.1882	0.10165	0.28263	0.17895	0.060746	-2.7375	-2.9083	-3.4479	-2.9229	-3.1021	-3.1479	-2.825	-3.2313	-2.8375	-3.175	-3.2521	-2.9229	-3.2062	-3.1688	-2.8271	-3.3563	149.163	329.862	60.537	292.584	320.411	170.963	160.005	326.139	46.944	31.491	93.321	273.386	128.292	158.805	220.294	285.325	0.00022183	0.0008651	0.00014702	489.52	5.334e-06	5.6544e-06	620.66	164.71	2.5323e-06	4.0672e-06	226.79	67.406	46.202	16.608	6.8002e-06	26.537	0.0028054	0.0050556	0.0014074	464.49	4.6738e-05	5.6177e-05	587.03	157.96	4.7421e-05	5.7685e-05	219.46	64.999	44.947	16.275	5.1146e-05	25.987	46.190	31.825	115.791	-14.376	145.434	112.201	-15.532	-10.138	187.578	13.462	-11.842	-8.417	-6.343	-1.255	111.915	-4.407	-8191	255	
5511.005	1	1	0	0	0.097029	0.33718	0.29181	0.16448	0.066086	0.17999	0.17862	0.24713	0.11118	0.090243	0.05136	0.1665	0.039041	0.085688	0.1704	0.14776	-2.7583	-2.9479	-3.2354	-2.7104	-3.1771	-3.2458	-2.9521	-3.1688	-3.0583	-2.9333	-3.4229	-2.9854	-3.3312	-3.2146	-2.7542	-3.2125	140.634	189.031	331.184	230.776	173.203	-20.119	269.107	25.736	31.124	136.126	248.708	-24.387	-22.449	310.564	174.831	62.340	0.00016125	0.00026474	0.00013126	488.29	2.9984e-06	4.7238e-06	624.01	166.75	4.6149e-06	7.0702e-06	231.47	68.324	46.486	16.606	1.2145e-06	26.907	0.0028362	0.0050468	0.0014153	467.12	4.8299e-05	5.7636e-05	591.57	159.32	4.8135e-05	5.6295e-05	221.39	65.787	45.202	16.255	5.1388e-05	26.22	23.848	88.515	36.399	-14.534	145.689	98.079	-15.691	-9.924	324.856	122.666	-11.771	-8.078	-6.041	-2.014	244.454	-4.801	-8191	255	
5511.125	1	1	0	0	0.091208	0.05648	0.20253	0.20259	0.11751	0.093489	0.26153	0.10499	0.095536	0.16366	0.28347	0.096354	0.099443	0.066391	0.11963	0.11591	-2.625	-2.9313	-3.2833	-2.9979	-2.9958	-3.2479	-2.9979	-3.3271	-2.9875	-2.8229	-3.3	-2.75	-2.7792	-3.3396	-3.0042	-3.1146	262.943	14.094	149.715	22.786	113.686	118.704	255.781	253.928	136.234	283.159	-4.098	252.837	225.460	236.039	293.835	294.027	0.00023961	0.00064957	0.0001202	491.74	2.2948e-06	5.677e-06	628.16	167.11	7.1886e-06	4.1571e-06	230.84	67.892	45.957	16.416	4.5991e-06	26.745	0.0028654	0.0050387	0.0014359	470.2	4.692e-05	5.7722e-05	592.57	159.5	4.6461e-05	5.6011e-05	221.08	65.687	45.064	16.127	5.0799e-05	25.975	29.624	21.575	31.147	-14.466	124.934	170.566	-15.467	-9.490	30.712	222.042	-11.912	-8.329	-6.225	-1.663	122.966	-4.694	-8191	255	
5511.221	1	1	0	0	0.12305	0.2978	0.23976	0.077264	0.075035	0.27732	0.29215	0.14936	0.16643	0.15322	0.22118	0.1916	0.2571	0.34962	0.11705	0.07378	-2.6583	-2.675	-3.1771	-2.9979	-2.9021	-3.1875	-3.0292	-3.3333	-3.1354	-2.8708	-3.1917	-2.9313	-2.8104	-3.1771	-2.7812	-3.0417	63.345	246.033	55.867	325.394	20.138	-13.814	244.997	311.406	236.996	325.913	305.540	241.524	29.540	325.948	-2.555	88.989	0.00032646	0.00032479	0.0001114	488.36	6.6067e-06	3.2431e-06	619.68	165.82	2.3905e-06	3.2458e-06	229.73	67.811	45.946	16.352	9.2541e-06	26.574	0.0028486	0.0049923	0.0014144	465.96	4.7445e-05	5.6833e-05	587.84	158.75	4.8109e-05	5.7539e-05	220.87	65.72	45.046	16.103	5.1241e-05	25.952	7.168	17.573	73.455	-13.846	88.018	224.175	-15.849	-9.697	42.632	104.042	-12.176	-7.902	-6.193	-1.214	101.020	-4.636	-8191	255	
5511.317	1	1	0	0	0.029871	0.13364	0.065163	0.30452	0.19565	0.2588	0.24989	0.12186	0.17269	0.064777	0.1568	0.20642	0.24249	0.11682	0.19196	0.10785	-2.6688	-2.6208	-3.2	-3.1229	-2.9208	-3.35	-2.95	-3.0958	-3.3479	-2.9417	-3.3292	-3.175	-2.9625	-3.3125	-3.0083	-3.1312	329.151	98.818	258.014	219.400	165.860	234.661	310.604	2.904	251.054	318.848	145.452	171.962	139.268	252.173	212.472	216.142	0.00019973	0.00041307	5.952e-05	483.84	2.7379e-06	1.516e-06	621.79	164.92	8.8948e-06	3.0398e-06	230.04	67.693	45.809	16.582	4.8273e-06	26.983	0.002826	0.0051463	0.0014138	464.12	4.7877e-05	5.6889e-05	589.35	158.19	4.6586e-05	5.5937e-05	220.66	65.385	44.644	16.228	5.0561e-05	26.341	71.791	326.757	250.300	-14.234	124.506	265.130	-15.397	-9.610	203.187	289.069	-11.438	-8.284	-6.136	-1.502	102.510	-4.315	-8191	255	
5511.414	1	1	0	0	0.1162	0.235	0.0275	0.1437	0.21521	0.11461	0.11813	0.13513	0.14552	0.13413	0.089963	0.11641	0.11398	0.094418	0.33512	0.13974	-2.7896	-2.9521	-3.075	-3.1104	-2.7854	-3.2875	-3.0979	-2.9729	-3.2313	-2.8208	-3.2229	-3.1708	-2.775	-3.3083	-2.8646	-2.9437	194.856	-3.149	75.317	284.908	89.833	96.922	299.183	45.154	143.129	287.457	319.496	-6.526	78.497	59.688	146.557	182.195	0.00027543	0.00040725	0.00010839	487.88	1.9434e-06	7.6094e-06	623.93	165.57	1.1331e-06	4.3196e-06	232.97	68.663	45.772	16.805	2.6265e-06	27.592	0.0028119	0.0051239	0.0014338	464.63	4.893e-05	5.7358e-05	590.79	158.65	4.746e-05	5.7486e-05	222.45	65.818	44.65	16.456	5.1552e-05	26.859	30.678	144.422	73.485	-14.461	43.561	135.840	-15.750	-9.516	219.823	157.543	-11.701	-8.181	-6.036	-1.672	24.787	-4.343	-8191	255	
5511.534	1	1	0	0	0.12601	0.16367	0.093457	0.21748	0.093289	0.25722	0.10134	0.090643	0.1606	0.20474	0.18991	0.27666	0.21195	0.33386	0.17892	0.05814	-2.8187	-2.7042	-3.0167	-3.2021	-2.875	-3.3396	-3.0687	-2.8896	-3.2708	-2.8417	-3.1729	-3.1437	-2.8729	-3.1708	-3.0396	-2.75	120.196	133.029	100.969	259.043	295.317	63.038	121.902	177.984	138.059	141.963	100.207	281.552	322.491	292.358	248.445	193.695	0.00043667	0.0005949	0.00018616	494.97	3.2241e-06	9.0132e-06	628.9	166.84	6.5468e-06	2.3485e-06	232.82	67.492	45.759	16.903	3.9489e-06	27.57	0.0028354	0.0052106	0.001459	470.32	4.841e-05	5.7714e-05	596.37	159.74	4.7782e-05	5.8624e-05	222.25	65.236	44.399	16.543	5.1489e-05	26.901	35.061	4.395	68.421	-14.309	242.051	89.325	-15.766	-9.933	7.205	45.195	-11.727	-8.086	-6.018	-1.802	200.743	-4.208	-8191	255	
5511.629	1	1	0	0	0.36826	0.080835	0.08186	0.10707	0.051455	0.18491	0.22731	0.12697	0.071616	0.15048	0.093264	0.14964	0.10988	0.19039	0.060671	0.10755	-2.8646	-2.8583	-2.9437	-3.2333	-2.7854	-3.0687	-3.2062	-2.7979	-3.2833	-2.8583	-3.0208	-3.2458	-2.9521	-3.0833	-3.0417	-2.925	131.545	-12.158	328.357	10.547	-7.297	168.613	255.185	-15.467	166.203	122.787	275.651	326.093	32.237	56.378	207.991	-9.572	8.3611e-05	0.00019492	0.000182	490.22	3.0854e-06	1.4564e-06	627.26	166.05	2.0766e-06	2.165e-06	231.95	67.3	44.946	16.994	2.5141e-06	27.647	0.0028564	0.0051582	0.001453	467.67	4.8953e-05	5.7441e-05	593.22	158.62	4.7705e-05	5.7663e-05	221.35	64.896	44.072	16.597	5.2467e-05	26.991	289.372	64.952	277.263	-14.385	98.947	25.756	-15.242	-9.680	122.026	99.965	-11.934	-7.995	-5.852	-1.791	171.932	-4.670	-8191	255	
5511.725	1	1	0	0	0.064632	0.17608	0.05801	0.11883	0.13716	0.25882	0.28346	0.30146	0.12752	0.15723	0.070679	0.14962	0.1218	0.15804	0.048763	0.36879	-2.7604	-3.0646	-2.9	-3.2188	-2.9479	-3.2333	-3.15	-2.7917	-3.2729	-2.9396	-2.9896	-3.0875	-3.0167	-2.8458	-3.0896	-2.6458	65.510	107.834	11.447	175.631	173.823	118.849	255.326	291.587	103.325	74.107	273.002	-15.506	38.187	141.408	-23.458	295.090	0.00025735	0.0002234	7.0802e-05	488.59	4.0317e-06	5.8286e-06	628.92	165.53	7.5684e-06	2.4593e-06	231.27	67.291	44.92	17.109	2.976e-06	27.99	0.0029206	0.005385	0.0015031	468.06	5.0913e-05	5.9552e-05	596.57	158.99	4.9316e-05	6.0508e-05	221.66	64.96	43.881	16.766	5.4179e-05	27.414	29.805	138.225	89.636	-14.144	115.052	137.285	-15.451	-10.053	33.236	74.364	-11.608	-8.120	-5.991	-2.044	122.273	-4.547	-8191	255	
5511.821	1	1	0	0	0.12446	0.26379	0.15836	0.21045	0.13559	0.077009	0.25715	0.21677	0.13203	0.28607	0.19811	0.16085	0.025035	0.32666	0.022615	0.19607	-2.7646	-2.9625	-2.8229	-3.4604	-2.6958	-2.9688	-3.2896	-2.6792	-3.1479	-3.0646	-2.9625	-3.3812	-2.8958	-3.0646	-3.275	-2.6771	309.214	291.576	45.502	19.979	28.376	211.848	284.091	-6.622	321.602	87.721	65.901	254.301	118.923	291.581	44.512	271.555	0.00045501	0.00010857	6.2445e-05	492.52	4.8227e-06	9.1979e-06	633.37	165.18	2.6968e-06	2.1107e-06	233.03	67.85	45.353	17.162	5.4569e-06	28.193	0.0029748	0.0054558	0.0015383	469.79	5.152e-05	6.1467e-05	600.29	159.32	5.159e-05	6.3808e-05	223.84	65.47	44.366	16.882	5.5634e-05	27.578	42.069	305.677	173.476	-14.315	79.095	110.757	-15.405	-9.825	50.445	100.506	-11.548	-8.376	-6.001	-1.480	104.517	-4.523	-8191	255	
5511.917	1	1	0	0	0.24142	0.051027	0.063165	0.28499	0.10776	0.20246	0.276	0.21266	0.18541	0.2323	0.25811	0.16953	0.10108	0.12448	0.078619	0.067599	-2.7479	-3.0979	-2.7	-3.1771	-2.9562	-2.8396	-3.2208	-2.9396	-3.0396	-3.1229	-2.8083	-3.1958	-2.9375	-2.9417	-3.1208	-2.7917	239.541	-27.116	196.133	229.578	88.069	243.697	285.678	275.187	300.262	76.731	238.575	293.548	64.638	219.250	50.533	-7.965	0.00023618	0.00077946	5.4938e-05	488.09	5.0561e-06	5.1826e-06	633.78	166.22	6.3103e-06	1.1718e-06	230.56	67.066	44.867	16.991	3.5734e-06	27.838	0.0029883	0.0054962	0.0015526	469.6	5.1229e-05	6.24e-05	601.81	159.08	5.0269e-05	6.1763e-05	222.12	65.053	43.837	16.741	5.4224e-05	27.242	33.811	94.987	-15.972	-14.453	183.125	125.494	-15.600	-9.605	136.256	146.915	-11.400	-8.180	-6.123	-2.233	121.303	-4.892	-8191	255	
5512.013	1	1	0	0	0.19549	0.079584	0.32006	0.15698	0.13575	0.13682	0.3966	0.099424	0.14465	0.17742	0.18327	0.12813	0.22044	0.29799	0.15844	0.32585	-2.5354	-3.0646	-2.725	-3.3875	-2.8833	-2.9729	-3.2042	-2.8833	-3.1396	-3.2	-2.9375	-3.1354	-3.0125	-2.9208	-3.275	-2.9771	127.835	-18.487	273.554	305.967	165.829	75.004	250.635	238.323	75.194	51.648	15.159	134.864	185.806	250.728	64.561	284.261	0.00036639	0.00040544	9.4072e-05	485.29	5.5684e-06	4.174e-06	631.34	163.13	8.2288e-06	3.3233e-06	230.86	66.528	44.428	16.923	4.7009e-06	27.835	0.0029928	0.005446	0.001559	464.85	5.1695e-05	6.1052e-05	595.27	157.59	5.1053e-05	6.18e-05	221.45	64.728	43.633	16.632	5.4804e-05	27.269	28.513	116.730	319.916	-14.098	122.199	53.279	-15.490	-9.964	204.844	217.665	-11.873	-8.336	-5.972	-1.613	235.821	-4.437	-8191	255	
5512.134	1	1	0	0	0.077945	0.166	0.093228	0.37728	0.17811	0.15575	0.39656	0.19835	0.17491	0.1334	0.11692	0.10234	0.16282	0.18284	0.16028	0.050056	-2.5792	-3.1437	-2.6542	-3.0375	-2.9792	-2.9542	-3.4271	-3.0375	-3.0521	-3.1292	-2.8646	-3.125	-3.0354	-2.8667	-3.2708	-2.9688	294.968	204.844	122.669	317.086	288.982	3.438	238.847	260.978	61.536	22.703	300.515	290.010	270.231	-17.896	116.405	294.251	0.00026037	0.00049099	0.00016749	483.28	2.5928e-06	3.7286e-06	625.48	164.27	2.6585e-06	4.5688e-06	229.54	67.19	44.179	16.829	3.107e-06	27.966	0.0030167	0.0054962	0.0015443	463.58	5.2787e-05	6.1473e-05	595.32	157.02	5.0621e-05	6.2614e-05	220.77	64.829	43.292	16.611	5.4759e-05	27.414	27.304	14.203	39.995	-14.473	147.512	119.023	-15.377	-10.148	128.605	154.797	-11.501	-7.890	-6.361	-1.914	44.833	-4.859	-8191	255	
5512.230	1	1	0	0	0.24818	0.039385	0.3057	0.17891	0.11773	0.045768	0.17941	0.15205	0.083078	0.17901	0.068547	0.29898	0.14122	0.22068	0.07878	0.090862	-2.5375	-3.2271	-2.7896	-3.1542	-3.0958	-2.7583	-3.3146	-3.075	-2.8875	-3.3375	-2.9	-3.1375	-3.1479	-2.6917	-3.1479	-2.9354	198.326	314.645	8.290	-3.857	210.680	253.624	29.530	319.795	134.403	50.814	226.403	-22.103	175.888	-0.703	181.285	181.117	0.00018506	0.00022091	8.5364e-05	484.48	1.3023e-06	4.6046e-06	626.86	164.32	8.3473e-07	6.8524e-06	228.98	67.118	44.623	17.012	8.0831e-06	28.388	0.0030488	0.0055119	0.0015369	462.85	5.1695e-05	6.2038e-05	595.04	157.11	5.1309e-05	6.3542e-05	221.11	64.941	43.561	16.737	5.5108e-05	27.623	33.186	-10.407	-3.059	-14.025	138.749	62.464	-15.650	-10.038	247.738	-22.206	-11.579	-8.257	-6.134	-2.068	187.491	-4.602	-8191	255	
5512.302	1	1	0	0	0.1738	0.090797	0.11231	0.29445	0.032859	0.087464	0.33752	0.065727	0.054372	0.05963	0.4492	0.079966	0.023135	0.2131	0.10337	0.057895	-2.4896	-3.3063	-2.7792	-3.0208	-3.1625	-2.8625	-3.0458	-2.8833	-2.8667	-3.3771	-2.9104	-2.8521	-3.2333	-2.8646	-3.0604	-3.0396	237.860	110.606	267.345	276.478	178.736	290.564	261.298	164.106	232.769	70.307	245.587	107.668	-20.966	26.268	247.825	200.271	0.0002493	0.00057468	0.00016347	486.54	1.5869e-06	6.2548e-06	633.08	164.12	4.1199e-06	1.6487e-06	229.65	66.765	43.776	16.964	3.273e-06	28.321	0.0030529	0.0055874	0.0015484	463.81	5.1573e-05	6.2898e-05	597.8	157.14	5.1428e-05	6.1988e-05	220.61	64.803	43.104	16.602	5.366e-05	27.448	39.534	72.764	108.924	-14.281	38.935	132.177	-15.711	-10.110	112.705	128.439	-11.814	-8.035	-6.192	-2.213	303.680	-4.683	-8191	255	
5512.398	1	1	0	0	0.30866	0.1515	0.2034	0.16133	0.084275	0.24844	0.050912	0.16266	0.16668	0.095952	0.25621	0.2449	0.10971	0.14614	0.16457	0.35293	-2.475	-3.2062	-2.8167	-2.9854	-3.2083	-2.8271	-3.0312	-3.1917	-2.9354	-3.2583	-3.0062	-2.9167	-3.125	-2.7875	-3.1312	-3.2667	34.722	200.322	33.595	14.386	239.299	36.800	126.501	-7.233	-17.349	-13.182	3.958	1.564	300.124	155.182	226.034	245.150	0.00024446	0.00070864	0.00010216	482.47	9.6591e-06	2.7531e-06	627.09	160.22	1.5611e-05	1.9831e-06	226.9	66.265	43.176	16.826	4.1139e-06	28.025	0.0030068	0.0054538	0.0015438	460.15	5.1168e-05	6.029e-05	592.13	154.47	5.0296e-05	6.0836e-05	218.2	63.92	42.361	16.496	5.4237e-05	27.279	42.422	4.962	123.223	-14.160	160.420	277.867	-15.405	-9.834	124.016	10.664	-11.710	-8.219	-6.032	-2.270	10.639	-4.717	-8191	255	
5512.518	1	1	0	0	0.11768	0.20828	0.019449	0.13522	0.14699	0.10609	0.11042	0.1612	0.18315	0.12296	0.040221	0.20655	0.068675	0.1177	0.11894	0.22432	-2.2646	-3.2583	-2.7479	-2.825	-3.0896	-2.6229	-3.0458	-3.0583	-2.8812	-3.2146	-3.0167	-3.0396	-3.2083	-3.0687	-3.0354	-3.3083	44.586	308.339	290.504	-3.420	56.893	200.699	81.307	191.595	221.065	13.484	104.921	1.356	60.427	95.303	327.798	181.532	0.00027579	0.00041681	0.00012393	476.1	3.6939e-06	3.0644e-06	622.08	161.5	2.8677e-06	1.4112e-06	226.35	66.199	43.336	16.823	2.3451e-06	28.327	0.0030218	0.0054073	0.0015288	457.9	5.1823e-05	6.166e-05	591.53	154.78	4.9906e-05	6.2175e-05	218.58	64.023	42.635	16.59	5.3438e-05	27.624	70.714	91.030	132.465	-14.160	117.823	40.221	-15.295	-9.805	69.323	45.322	-11.763	-8.073	-6.361	-2.056	125.360	-4.712	-8191	255	
5512.613	1	1	0	0	0.064059	0.19556	0.13119	0.27095	0.12768	0.13143	0.11148	0.18363	0.18088	0.21233	0.2102	0.13106	0.086238	0.14846	0.1553	0.24141	-2.4854	-3.1833	-2.9708	-2.9833	-3.1625	-2.9042	-3.1021	-3.2083	-2.7667	-2.9521	-2.9604	-2.7167	-3.2792	-3.0542	-2.8812	-3.1167	-24.346	7.685	70.654	8.074	153.875	248.729	237.633	36.944	318.866	156.464	271.181	214.760	124.513	137.682	231.296	-1.410	0.00029462	0.00087809	0.00011846	478.55	6.5568e-06	4.3965e-06	627.03	161.37	3.5357e-06	3.2883e-06	229.11	67.203	43.723	17.126	4.4977e-06	28.608	0.0030228	0.0054464	0.0015327	457.36	5.172e-05	6.1075e-05	593.74	154.75	5.1128e-05	6.1141e-05	220.18	64.784	42.844	16.76	5.3542e-05	27.836	11.658	52.108	4.523	-14.295	138.449	226.544	-15.605	-10.015	29.933	93.749	-11.815	-7.713	-6.258	-1.769	165.266	-5.103	-8191	255	
5512.709	1	1	0	0	0.12603	0.17687	0.19774	0.20935	0.10262	0.19135	0.24273	0.19591	0.26605	0.16738	0.16042	0.080211	0.21452	0.12697	0.17493	0.25568	-2.2375	-3.0667	-3.1	-2.8937	-3.0938	-2.9062	-2.9979	-3.2146	-2.7542	-3.1063	-3.1083	-2.7604	-3.0875	-2.8417	-2.7938	-3.1896	222.978	298.168	14.358	58.088	271.317	219.760	285.020	283.249	4.914	30.269	307.516	169.007	-15.348	173.816	285.019	8.726	0.00026828	9.5904e-05	8.1151e-05	480.93	4.0074e-06	6.0133e-06	631.26	162.06	5.7861e-06	3.2281e-06	228.79	67.004	43.722	16.998	2.5085e-06	28.892	0.0030071	0.0053767	0.0015228	460.7	5.1249e-05	6.1173e-05	597.44	155.53	5.1142e-05	6.1687e-05	220.66	64.799	42.747	16.732	5.3768e-05	27.969	44.452	19.758	175.035	-14.166	54.826	78.126	-15.656	-9.907	74.913	288.939	-11.950	-8.464	-5.876	-1.914	101.556	-5.009	-8191	255	
5512.807	1	1	0	0	0.11067	0.16296	0.24035	0.2561	0.11108	0.14464	0.29518	0.1398	0.29895	0.12758	0.080453	0.26614	0.2444	0.21004	0.15952	0.033489	-2.3333	-3.1354	-3.1688	-2.7542	-3.3771	-3.0646	-2.9646	-3.325	-2.8125	-3.0563	-3.0812	-2.7146	-3.0938	-2.9479	-2.7625	-3.2438	101.792	176.053	253.272	238.365	72.521	135.056	318.159	262.542	-24.860	79.941	323.640	252.541	253.779	80.749	67.724	112.329	0.00034504	0.0002489	6.4161e-05	473.56	2.1042e-06	1.1633e-05	629.81	160.47	1.1514e-05	8.904e-06	229.38	67.51	43.884	17.041	1.9773e-06	28.592	0.0030217	0.005392	0.0015534	457.06	5.2077e-05	6.1909e-05	595.9	154.51	5.1507e-05	6.2486e-05	220.77	65.113	42.665	16.672	5.3888e-05	27.893	35.483	289.031	19.922	-14.445	181.044	109.782	-15.423	-9.791	124.584	92.180	-12.052	-8.198	-5.944	-1.887	221.928	-4.457	-8191	255	
5512.901	1	1	0	0	0.14487	0.042912	0.072791	0.23151	0.22974	0.11232	0.1691	0.14573	0.13939	0.25716	0.16564	0.17112	0.18324	0.1499	0.12606	0.1112	-2.3646	-2.9396	-3.1479	-2.8396	-3.1042	-3.1312	-2.9313	-3.2542	-2.8417	-2.875	-3.2938	-2.9208	-3.1833	-3.1542	-2.7188	-3.1292	18.427	239.022	175.448	-13.522	-0.828	299.610	-19.621	228.622	225.819	105.200	-19.425	84.060	-20.254	322.014	247.924	127.885	0.00038137	0.00032411	7.3616e-05	480.5	6.764e-06	3.4532e-06	631.38	161.83	4.1445e-06	5.9138e-06	229.5	67.166	43.762	16.851	4.6052e-06	28.809	0.0029578	0.0053837	0.0015424	458.95	5.0587e-05	6.0969e-05	597.42	154.92	5.0633e-05	6.1709e-05	221.32	65.029	42.857	16.609	5.4175e-05	27.903	51.709	95.670	153.025	-14.377	93.506	146.155	-15.415	-9.681	109.838	106.655	-12.148	-7.843	-6.104	-1.640	162.750	-4.818	-8191	255	
5512.997	1	1	0	0	0.095164	0.16749	0.088218	0.21455	0.059195	0.055315	0.082903	0.057207	0.063539	0.15132	0.15535	0.24485	0.21499	0.21118	0.30036	0.14061	-2.4875	-2.825	-3.2083	-2.8375	-2.9875	-3.1083	-2.9521	-3.4375	-3.0729	-3.0229	-3.3333	-2.9771	-3.0729	-3.2771	-2.8208	-3.1708	186.311	277.909	150.781	305.791	-25.964	47.581	10.486	173.286	150.391	175.194	210.192	229.293	-2.410	42.481	259.231	37.858	0.00028321	0.00059587	0.0001211	478.82	3.9464e-06	4.4344e-06	633.1	161.26	4.8426e-06	2.3289e-06	231.49	67.691	43.79	16.835	1.3143e-06	28.533	0.0029373	0.0052763	0.0015327	458.52	5.1104e-05	6.2124e-05	599.72	154.86	5.1209e-05	6.1261e-05	222.14	65.274	42.857	16.61	5.6017e-05	27.948	18.998	82.458	145.602	-14.452	109.737	106.283	-15.271	-9.717	107.059	66.977	-11.652	-8.652	-6.173	-1.957	119.619	-4.545	-8191	255	
5513.094	1	1	0	0	0.14537	0.12299	0.37626	0.1348	0.14672	0.027006	0.21621	0.31651	0.15652	0.091931	0.14673	0.093807	0.12786	0.090624	0.050345	0.14498	-2.6208	-2.8458	-3.2313	-3	-3.1813	-3.1396	-2.8063	-3.3708	-3.1833	-2.8333	-3.3917	-3	-2.8646	-3.0771	-2.8083	-3.0792	327.155	115.128	56.253	-1.723	152.706	189.486	185.668	248.376	268.888	28.402	-8.093	306.807	243.431	308.116	316.346	34.402	0.00030792	0.00049909	8.5222e-05	484.07	6.6194e-06	6.1663e-06	635.48	162.59	7.1248e-06	8.6818e-06	231.91	67.599	43.759	16.653	6.7336e-06	28.054	0.0030068	0.0054764	0.0015481	462.05	5.2204e-05	6.3086e-05	603.04	155.46	5.2334e-05	6.2564e-05	222.72	65.557	42.897	16.408	5.5208e-05	27.561	22.442	88.601	76.359	-14.448	98.876	117.533	-15.643	-10.095	61.379	139.848	-11.759	-8.208	-5.917	-1.573	105.888	-4.956	-8191	255	
5513.214	1	1	0	0	0.51287	0.056351	0.12202	0.15916	0.14786	0.22241	0.16663	0.054891	0.088542	0.13291	0.26852	0.18292	0.10622	0.070404	0.042863	0.1913	-2.6104	-2.7396	-3.3521	-2.8104	-2.9813	-3.0667	-2.7646	-3.1229	-2.9292	-2.9021	-3.4354	-2.8979	-2.8458	-3.2729	-2.8417	-3.1604	314.300	2.041	206.843	4.507	200.831	139.515	93.733	54.007	93.574	204.217	266.796	88.692	329.638	162.141	-21.579	-21.398	0.00024905	0.00037291	0.00017274	478.98	6.5919e-06	4.4975e-06	631.79	160.35	4.5912e-06	4.812e-06	230.09	67.113	43.555	16.297	4.2896e-06	28.077	0.0030899	0.0055607	0.0015635	458.89	5.1669e-05	6.3814e-05	598.55	153.98	5.1527e-05	6.2904e-05	221.13	64.737	42.562	16.211	5.5562e-05	27.273	52.456	15.821	66.620	-14.323	163.614	-22.634	-15.822	-9.921	65.880	32.202	-11.861	-8.143	-6.220	-1.486	115.465	-4.615	-8191	255	
5513.310	1	1	0	0	0.16013	0.23608	0.18428	0.18393	0.12879	0.15466	0.31742	0.19998	0.1975	0.07358	0.070043	0.34761	0.19841	0.30837	0.1673	0.036273	-2.7917	-2.7958	-3.1979	-3.0062	-2.7479	-3.2562	-2.8438	-3.0021	-3.1104	-2.7188	-3.1208	-3.0917	-2.7021	-3.1125	-2.6333	-2.8833	312.626	298.604	215.465	42.929	179.741	184.211	270.674	254.711	173.379	190.618	318.593	231.376	238.514	241.789	-7.276	17.988	0.00031769	0.00016901	0.00014495	475.97	6.9177e-06	8.0813e-06	632.44	161.02	3.8449e-06	3.9932e-06	231.74	67.183	43.616	16.388	5.2457e-06	27.911	0.0031083	0.0056799	0.0015623	456.57	5.2864e-05	6.3294e-05	599.48	153.94	5.2418e-05	6.2582e-05	221.1	64.959	42.614	16.147	5.5658e-05	27.154	58.850	57.842	77.442	-14.336	112.319	128.550	-15.578	-9.645	35.558	63.149	-12.143	-8.293	-5.985	-1.782	173.943	-4.733	-8191	255	
5513.407	1	1	0	0	0.21053	0.024044	0.31832	0.070257	0.12246	0.24395	0.20111	0.10301	0.051794	0.08538	0.052992	0.17436	0.14582	0.090371	0.079944	0.14395	-2.7708	-2.8521	-2.9979	-2.9938	-2.7104	-3.2313	-3.1021	-2.8438	-3.175	-2.7562	-3.2333	-3.0083	-2.6771	-3.2417	-2.9688	-2.9396	49.054	262.686	73.359	16.935	131.365	253.676	329.510	257.862	328.146	327.085	-21.609	167.990	300.533	248.179	249.684	313.974	0.00025464	0.00052657	0.00015204	477.69	5.3565e-06	2.2935e-06	631.13	159.23	3.4793e-06	4.3935e-06	229.25	67.026	42.797	16.286	2.9228e-06	28.217	0.0031262	0.0055756	0.001568	456.46	5.353e-05	6.3442e-05	598.61	153.07	5.2016e-05	6.4035e-05	221.13	64.889	42.227	16.121	5.7304e-05	27.346	23.136	107.032	133.007	-14.364	115.148	103.147	-15.892	-9.922	53.674	122.400	-11.742	-7.640	-5.976	-1.635	169.469	-4.620	-8191	255	
5513.527	1	1	0	0	0.058118	0.20927	0.28196	0.080237	0.093192	0.050613	0.2139	0.040785	0.071231	0.046969	0.16345	0.17691	0.40369	0.07917	0.21277	0.34214	-2.8979	-2.8354	-2.9625	-3.1708	-2.6083	-3.3042	-2.9188	-2.8063	-3.2979	-2.8521	-2.9938	-3.2792	-2.7542	-2.9917	-2.9417	-2.7958	272.913	57.691	252.804	97.585	228.834	239.188	277.153	32.380	233.017	101.562	258.449	248.823	-17.762	306.278	283.389	242.560	0.00029921	0.00033539	8.4409e-05	475.25	2.8641e-06	3.5509e-06	635.71	160.57	8.9337e-06	4.0714e-06	229.02	67.315	43.417	16.322	1.6185e-06	27.844	0.0031215	0.0056883	0.0015753	456.61	5.3578e-05	6.5112e-05	602.71	154	5.2544e-05	6.4972e-05	221.38	65.11	42.557	16.075	5.6161e-05	27.168	55.035	35.985	299.799	-14.569	101.561	166.971	-15.439	-9.987	188.306	221.497	-11.997	-8.130	-6.197	-2.214	260.719	-4.814	-8191	255	
5513.599	1	1	0	0	0.24389	0.12459	0.1816	0.087684	0.033088	0.29695	0.12222	0.25866	0.19945	0.12722	0.25859	0.23339	0.034168	0.02021	0.10857	0.20972	-2.9021	-2.8958	-2.7667	-3.1375	-2.7375	-3.0812	-3.1521	-2.8563	-3.2292	-2.9062	-3.0438	-3.2146	-2.7292	-3.1708	-3.2458	-2.8646	272.813	277.037	151.718	8.075	267.753	332.350	27.818	238.151	244.177	166.381	228.447	121.677	291.751	8.937	61.551	179.174	0.00024773	0.00051796	6.1534e-05	471.89	1.4409e-05	6.4067e-06	627.59	159.2	2.6968e-06	5.6017e-06	227.8	66.656	42.705	15.943	2.2109e-06	27.467	0.0030907	0.0057214	0.0015771	452.21	5.4275e-05	6.2979e-05	595.26	152.06	5.2557e-05	6.2653e-05	218.88	64.386	42.091	15.726	5.5556e-05	26.845	51.109	264.110	15.342	-14.537	120.665	179.063	-15.474	-9.662	207.041	11.586	-12.084	-7.921	-6.488	-2.117	187.422	-4.610	-8191	255	
5513.695	1	1	0	0	0.051042	0.23819	0.19242	0.10965	0.14519	0.35375	0.2911	0.26358	0.056106	0.1313	0.19074	0.23549	0.31626	0.103	0.13755	0.15126	-2.8104	-2.6937	-2.9333	-3.1479	-2.8333	-3.1813	-3.1896	-2.7625	-3.0896	-3.0271	-2.9917	-3.2708	-2.7854	-3.1354	-3.0042	-2.8146	79.855	53.545	27.113	259.646	-15.094	243.656	7.130	-22.098	22.239	75.198	219.638	37.356	158.247	264.157	52.166	286.284	0.00035144	0.00016742	6.7986e-05	467.09	1.643e-06	5.7544e-06	623.43	156.81	1.1176e-06	6.0734e-06	226.52	65.971	41.943	15.965	3.9512e-06	27.591	0.0030942	0.0056298	0.0015698	448.46	5.3648e-05	6.2836e-05	592.39	151.01	5.2164e-05	6.4079e-05	218.41	63.999	41.515	15.732	5.6011e-05	26.96	50.551	139.704	63.553	-14.237	229.216	81.857	-15.838	-10.064	59.956	140.647	-11.828	-7.998	-6.332	-1.541	170.943	-4.240	-8191	255	
5513.814	1	1	0	0	0.2396	0.13188	0.27713	0.029269	0.01947	0.17959	0.035007	0.26408	0.13969	0.19304	0.037821	0.19059	0.16223	0.098295	0.073574	0.024034	-2.7229	-2.8771	-2.7083	-3.0958	-2.7708	-3.0187	-3.1562	-2.8875	-3.1792	-2.925	-3.0604	-3.2042	-3.0333	-3.0833	-3.3187	-3	-15.578	-21.282	-15.297	150.238	26.888	29.463	80.853	273.215	140.580	182.172	19.400	292.833	142.226	323.384	130.522	157.766	0.00043572	0.00036746	0.00019126	469.38	9.2326e-06	3.3325e-06	620.49	155.86	1.136e-05	5.0319e-06	224.08	65.903	41.91	16.243	3.5451e-06	27.864	0.0030416	0.0055057	0.0015399	448	5.1091e-05	6.0887e-05	590.81	149.86	5.0923e-05	6.1333e-05	216.9	63.805	41.322	15.906	5.4435e-05	27.184	36.803	24.474	91.294	-14.270	89.558	77.033	-15.619	-9.788	120.129	103.553	-11.902	-8.070	-5.648	-1.899	128.646	-4.537	-8191	255	
5513.910	1	1	0	0	0.28623	0.2965	0.15932	0.17796	0.1866	0.16025	0.21927	0.18298	0.24529	0.081849	0.038736	0.23137	0.12982	0.23293	0.22546	0.27143	-2.6937	-3.1063	-2.7646	-3.2167	-2.825	-2.9771	-3.35	-2.6813	-3.1167	-3.0958	-2.7917	-3.225	-2.9958	-2.9458	-3.0938	-2.6896	126.998	215.415	67.260	6.497	165.797	295.203	308.556	-12.891	273.352	238.152	178.902	315.836	18.541	198.140	46.227	182.331	0.00027637	0.00017986	1.4894e-05	468.1	3.6769e-06	3.7624e-06	623.82	156.66	5.5091e-06	6.9058e-06	227.08	66.232	41.681	16.128	2.1534e-06	28.133	0.00302	0.0055425	0.0015265	446.34	5.2202e-05	6.1152e-05	592.65	150.07	5.0382e-05	6.0758e-05	218.63	64.103	41.123	15.887	5.4292e-05	27.348	42.570	14.472	-1.921	-13.988	154.980	212.939	-15.501	-10.096	136.372	47.834	-11.998	-8.061	-5.790	-1.572	89.299	-4.432	-8191	255	
5514.006	1	1	0	0	0.18319	0.13831	0.25023	0.28339	0.059094	0.27533	0.17053	0.21583	0.20171	0.14062	0.28337	0.11858	0.20209	0.084993	0.2584	0.17217	-2.5958	-3.0729	-2.7271	-3.2042	-3.0604	-3.0375	-3.3354	-2.9437	-3.1625	-3.2229	-2.8187	-3.0583	-3.0417	-2.6813	-3.2562	-2.9125	322.492	8.332	288.237	321.351	16.690	298.027	259.344	152.303	258.741	110.149	283.130	301.357	5.769	-9.826	-13.090	90.354	0.00038894	0.00048635	0.00012571	463.22	7.146e-06	3.164e-06	621.43	155.53	3.7576e-06	3.4372e-06	226.58	65.352	41.761	16.079	3.2514e-06	28.009	0.0029559	0.0054166	0.0015195	443.61	5.067e-05	6.0868e-05	587.63	148.65	4.8669e-05	6.0719e-05	216.78	63.509	40.924	15.78	5.4011e-05	27.14	35.822	96.393	121.544	-14.402	109.790	157.940	-15.592	-9.484	213.620	153.328	-12.186	-7.795	-6.282	-2.201	82.285	-4.666	-8191	255	
5514.102	1	1	0	0	0.39449	0.14096	0.12052	0.19611	0.13779	0.11546	0.070682	0.24508	0.39325	0.18644	0.20012	0.14425	0.11994	0.16506	0.1059	0.091035	-2.5146	-3.05	-2.8854	-3.05	-3.0396	-2.7687	-3.225	-3.05	-2.8958	-3.2458	-2.8	-2.9542	-3.0271	-2.5792	-3.075	-3.0062	99.599	311.626	192.980	-13.420	17.872	8.601	257.940	319.117	267.836	247.991	239.050	319.706	309.455	305.821	320.259	141.927	0.00015628	0.00046167	0.00018446	462.12	1.1367e-05	5.1801e-06	623.22	155.3	8.5677e-06	4.1759e-06	226.41	65.906	41.606	16.121	5.125e-06	27.906	0.0029424	0.0053905	0.0014692	442.31	5.0074e-05	5.8979e-05	589.96	148.02	4.9221e-05	6.0696e-05	216.62	63.718	40.915	15.753	5.3151e-05	27.202	12.232	26.717	44.540	-14.409	196.037	73.212	-15.372	-10.111	122.364	142.391	-12.085	-7.986	-6.037	-1.737	92.762	-4.874	-8191	255	
5514.198	1	1	0	0	0.10618	0.037016	0.030258	0.19522	0.2806	0.0068154	0.21621	0.14252	0.05855	0.121	0.0077918	0.14211	0.22467	0.26704	0.21468	0.22263	-2.4271	-3.1833	-2.6854	-3.0604	-3.1333	-2.725	-3.2188	-2.8708	-2.8979	-3.2229	-2.8396	-3.0167	-3.1958	-2.675	-3.2625	-3.0875	261.055	113.300	283.151	11.350	9.278	28.134	261.510	206.667	310.347	132.724	38.355	161.806	302.284	59.258	267.556	227.468	0.00017122	0.00054484	0.00015009	458.84	4.1107e-06	4.9951e-07	622.39	153.99	6.1087e-06	6.6818e-06	226.45	65.791	41.486	16.061	5.8475e-06	28.427	0.0029178	0.0053823	0.0014613	441.88	4.9788e-05	5.9668e-05	589.74	147.85	4.8549e-05	5.9411e-05	217.36	63.719	40.663	15.834	5.1981e-05	27.521	57.041	44.058	17.355	-14.254	174.255	98.338	-15.512	-9.623	162.769	89.416	-12.057	-7.679	-5.715	-1.822	108.786	-4.273	-8191	255	
5514.295	1	1	0	0	0.30268	0.20342	0.24394	0.20154	0.064073	0.084103	0.1525	0.34463	0.026367	0.1147	0.15913	0.019546	0.25316	0.14027	0.12428	0.23231	-2.4104	-3.0708	-2.6771	-3.0104	-3.0708	-2.5438	-3.4479	-3.0146	-2.8458	-3.0875	-2.9	-3.0563	-3.1979	-2.8104	-3.1063	-3.0604	204.003	323.321	-16.752	23.449	69.986	19.138	-17.610	6.053	230.471	245.880	261.220	204.462	242.993	196.181	167.642	306.468	0.00024549	0.00039425	0.00012653	468.87	1.5377e-06	2.0181e-06	624.48	154.91	9.4183e-06	1.9707e-06	226.74	66.119	41.589	15.931	8.2737e-06	28.26	0.0028195	0.0050928	0.0014604	445.46	4.9833e-05	5.9314e-05	594.41	148.58	4.893e-05	5.9782e-05	218.76	64.306	40.995	15.837	5.2115e-05	27.42	52.326	92.779	108.597	-14.508	1.730	-7.330	-15.304	-9.803	138.686	180.149	-11.889	-7.942	-6.042	-1.704	143.197	-4.981	-8191	255	
5514.391	1	1	0	0	0.057697	0.2826	0.24001	0.13594	0.18142	0.18504	0.2022	0.057997	0.3222	0.046094	0.17457	0.20048	0.40248	0.13805	0.1269	0.21825	-2.5104	-3.1354	-2.7292	-2.8667	-3.1021	-2.7979	-3.125	-3.2646	-2.7833	-3.2417	-2.8896	-3.0729	-3.0771	-2.9667	-2.9646	-3.2083	57.760	212.867	281.566	90.581	57.733	45.000	267.300	291.971	296.234	265.448	42.069	-14.612	300.766	231.553	117.700	35.589	0.00032468	0.00072324	4.948e-05	464.67	2.4655e-06	4.4272e-06	626.13	153.96	7.5612e-06	1.1558e-06	225.5	65.775	41.437	16.014	5.1735e-06	27.916	0.0029467	0.0051977	0.0014619	445	4.9907e-05	5.9748e-05	592.04	147.89	5.0006e-05	6.0408e-05	217.51	63.746	40.779	15.638	5.2441e-05	27.113	43.622	94.258	47.170	-14.372	151.568	199.752	-15.896	-10.070	54.431	138.907	-11.593	-7.798	-6.117	-2.117	194.146	-5.072	-8191	255	
5514.487	1	1	0	0	0.23525	0.087438	0.090874	0.066424	0.19932	0.28406	0.19239	0.31639	0.17825	0.073842	0.12061	0.066211	0.13316	0.21918	0.22708	0.40388	-2.4271	-3.0208	-2.8375	-2.8333	-3.1625	-2.7729	-3.0875	-3.0354	-2.7396	-3.1667	-3.0458	-2.6958	-3.2396	-2.7396	-3.0167	-3.0708	12.008	312.055	277.096	88.458	92.064	190.757	268.739	309.337	318.686	90.537	71.257	252.224	-2.401	193.897	231.416	237.511	0.00034952	0.00075201	7.0635e-05	466.16	7.3623e-06	4.7218e-06	624.3	154.53	6.6831e-06	4.6662e-06	227.25	66.029	41.672	15.834	1.8644e-06	27.851	0.0029982	0.0052421	0.0015279	445.36	5.0873e-05	5.9613e-05	593.05	148.31	4.9696e-05	6.0377e-05	217.97	63.745	40.787	15.555	5.358e-05	27.078	43.466	58.578	27.751	-13.836	190.615	199.946	-15.433	-10.101	7.041	112.489	-11.936	-7.918	-6.009	-2.070	102.733	-4.616	-8191	255	
5514.606	1	1	0	0	0.30895	0.2011	0.32643	0.35877	0.23821	0.13051	0.2093	0.066495	0.075803	0.2457	0.36432	0.18301	0.30398	0.1301	0.10415	0.15119	-2.2188	-3.0896	-2.8854	-2.6021	-3.2188	-2.8333	-3.0312	-3.0938	-2.825	-3.1521	-2.9958	-2.6979	-3.0396	-2.7958	-2.8563	-3.0458	246.289	282.504	60.332	323.159	-7.362	58.179	85.904	189.337	173.871	151.527	105.062	67.400	-9.780	197.534	170.840	197.252	0.00025005	0.00053347	0.00010116	464.44	6.1445e-06	3.5764e-06	627.33	156.74	4.9772e-07	3.8696e-06	226.79	65.705	41.658	15.925	6.6641e-06	28.211	0.0029784	0.0052807	0.0015067	447.17	5.0355e-05	6.0881e-05	595.4	148.83	5.0098e-05	6.0086e-05	218.34	64.004	40.914	15.621	5.2835e-05	27.222	38.509	292.019	78.999	-14.296	157.601	54.003	-15.732	-10.171	137.065	61.456	-11.461	-7.854	-5.799	-1.958	144.310	-4.421	-8191	255	
5514.702	1	1	0	0	0.088007	0.18993	0.17329	0.1084	0.22587	0.064243	0.13691	0.13015	0.082459	0.22147	0.18251	0.048362	0.14265	0.21442	0.1912	0.12978	-2.3292	-2.9688	-3.0104	-2.7438	-3.1271	-3.0062	-2.8521	-3.2021	-2.8	-3.0458	-3.175	-2.8563	-3.2188	-2.8812	-2.8812	-3.0646	30.597	264.446	287.138	266.235	95.482	235.238	293.941	265.850	113.089	198.340	320.789	277.644	72.321	158.373	299.863	184.673	0.00027007	0.00025547	0.00011512	466.92	7.8995e-06	4.5853e-06	631.97	155.49	7.7276e-06	6.0274e-06	229	66.553	41.755	15.794	5.3553e-06	27.734	0.0029134	0.0053286	0.0015223	448.59	5.0676e-05	5.988e-05	598.81	149.5	4.9214e-05	5.9975e-05	219.57	64.225	40.84	15.559	5.2622e-05	26.968	24.747	297.551	15.617	-14.510	200.573	61.407	-15.408	-9.887	197.282	122.216	-11.574	-8.000	-5.688	-2.042	193.120	-4.755	-8191	255	
5514.798	1	1	0	0	0.17918	0.1892	0.020095	0.3798	0.2784	0.17152	0.29016	0.10023	0.086103	0.097109	0.15476	0.27212	0.28262	0.19559	0.091787	0.22516	-2.2917	-3.0938	-3.1229	-2.6562	-3.1729	-2.9917	-2.8521	-3.0854	-2.7667	-2.8604	-3.2208	-2.6917	-3.2083	-3.0771	-2.8896	-3.1	128.507	53.304	172.246	292.703	279.202	327.688	194.267	231.178	281.493	265.195	37.940	278.953	322.595	-18.243	138.389	294.560	0.00027299	0.00034523	8.2957e-05	469.27	4.2354e-06	1.2252e-06	625.6	154.29	4.6491e-06	3.6927e-06	226.16	66.16	41.645	15.604	4.4201e-06	27.408	0.0029388	0.0051734	0.0015225	448.23	4.8922e-05	5.9749e-05	593.77	148.16	4.8728e-05	6.0008e-05	216.77	63.581	40.745	15.368	5.4345e-05	26.649	42.495	9.754	20.615	-14.073	25.728	319.755	-15.495	-9.805	-10.855	76.708	-12.264	-8.039	-5.886	-1.966	237.692	-4.346	-8191	255	
5514.894	1	1	0	0	0.12943	0.15319	0.13437	0.19664	0.096407	0.29165	0.30822	0.25654	0.13192	0.10131	0.16085	0.34514	0.038742	0.047964	0.13903	0.070305	-2.3688	-2.8125	-3.0021	-2.8708	-2.9271	-3.1771	-2.7771	-3.3042	-2.9604	-2.8563	-3.2229	-2.7792	-2.9083	-3.0208	-2.7313	-3.2125	245.520	128.519	100.241	302.346	7.283	121.918	-15.863	308.979	295.239	180.757	238.685	236.446	321.477	237.635	280.405	-5.436	0.00033635	0.00032806	0.00010605	467.52	2.5417e-06	5.6719e-06	625.36	154.18	9.5509e-06	4.7969e-06	224.83	65.257	40.831	15.507	5.9255e-06	27.441	0.0029499	0.0053602	0.0015374	447.14	5.0495e-05	6.0415e-05	593.02	148.01	4.9767e-05	6.1171e-05	216.86	63.136	40.21	15.274	5.1971e-05	26.658	35.101	13.600	156.168	-14.414	221.924	140.325	-15.652	-9.776	112.329	159.087	-11.748	-8.068	-5.890	-1.851	26.841	-4.709	-8191	255	
5514.990	1	1	0	0	0.18156	0.26237	0.083441	0.19613	0.071763	0.26997	0.15114	0.096064	0.12909	0.1778	0.058491	0.056461	0.35296	0.13737	0.27426	0.037445	-2.4688	-2.7896	-3.1708	-2.9479	-2.9729	-3.1083	-2.6875	-3.0812	-2.875	-2.8958	-3.4396	-2.8333	-2.8521	-3.0708	-2.8417	-3.2354	321.564	-1.310	117.385	255.030	312.587	292.126	-0.747	305.272	258.526	27.257	3.547	300.255	5.000	1.184	178.952	217.978	0.00035241	0.00065572	0.00015208	472.04	3.7525e-06	2.6058e-06	623.22	152.88	4.3312e-06	3.4819e-06	223.72	65.573	40.665	15.491	4.076e-06	27.503	0.0028428	0.0051204	0.0014267	447.34	4.6456e-05	5.6147e-05	592.47	146.33	4.6246e-05	5.6963e-05	215.61	63.111	40.251	15.299	5.243e-05	26.827	44.201	37.532	297.603	-14.460	99.071	37.847	-15.506	-10.045	150.108	99.603	-11.951	-8.063	-6.270	-1.904	234.384	-4.436	-8191	255	
5515.087	1	1	0	0	0.33421	0.15925	0.24873	0.17918	0.067958	0.19396	0.11849	0.21612	0.074576	0.034145	0.32333	0.13747	0.17095	0.046704	0.27679	0.19813	-2.5104	-2.7938	-3.2208	-2.9271	-2.8896	-3.1542	-2.8271	-3.1354	-2.8854	-2.8958	-3.3333	-2.8583	-2.8063	-3.1083	-2.8688	-3.0187	245.862	225.718	277.887	16.749	320.724	146.777	-8.803	297.880	292.414	179.090	252.016	-25.285	312.432	146.747	264.525	120.447	0.00031536	0.0005332	0.0001827	469.4	1.522e-06	4.0251e-06	630.75	154.69	2.3151e-06	6.352e-06	226.32	66.021	41.218	15.528	6.8648e-06	27.431	0.0028925	0.0052757	0.0014825	449.16	4.9002e-05	5.9726e-05	597.07	147.77	4.9352e-05	6.1257e-05	216.73	63.779	40.475	15.32	5.3149e-05	26.818	48.661	67.355	57.071	-14.329	161.361	114.676	-15.645	-10.019	234.711	289.631	-11.615	-8.078	-5.757	-1.859	158.264	-4.219	-8191	255	
5515.207	1	1	0	0	0.038897	0.15808	0.22607	0.13946	0.26892	0.089179	0.29962	0.15293	0.29491	0.15602	0.13414	0.14447	0.099597	0.26757	0.3365	0.15333	-2.5062	-2.8438	-3.1813	-2.9771	-2.6979	-3.2625	-2.8771	-3.1521	-3.1271	-2.6188	-3.1875	-2.9104	-2.7917	-3.225	-2.8021	-2.9229	260.384	236.770	17.663	252.382	76.420	313.713	271.930	-5.398	178.325	111.622	235.078	249.173	288.846	105.246	327.695	298.960	0.0003472	0.00011476	0.00011285	467.03	3.054e-06	5.91e-07	625.26	153.09	4.8368e-06	4.6262e-06	223.37	64.572	40.677	15.448	2.4445e-06	27.468	0.0029042	0.0052602	0.0014471	446.82	4.8419e-05	5.694e-05	594.31	146.68	4.7459e-05	5.8034e-05	214.15	62.59	39.953	15.231	5.1042e-05	26.611	38.047	30.887	73.517	-14.520	125.652	150.573	-15.521	-9.756	188.308	91.737	-12.290	-7.408	-5.727	-1.810	117.537	-4.957	-8191	255	
5515.303	1	1	0	0	0.07424	0.065248	0.024102	0.065148	0.065303	0.18165	0.34985	0.31712	0.095775	0.10708	0.11141	0.094693	0.2223	0.055324	0.12091	0.089796	-2.6063	-2.6625	-3.1417	-3.0438	-2.775	-3.2604	-2.7792	-3.0208	-3.2292	-2.6063	-3.1188	-3.0979	-2.8833	-3.2396	-2.9417	-3.0438	243.399	173.678	42.617	216.339	210.781	176.445	315.719	141.434	-17.880	75.559	298.935	282.421	287.564	303.692	232.065	268.754	0.00028808	0.0002396	8.1937e-05	466.55	4.575e-06	2.7614e-07	627.59	153.36	4.9115e-06	5.9518e-06	223.28	64.708	40.539	15.505	2.3384e-06	27.595	0.0028807	0.0052241	0.0014548	447.73	4.9172e-05	5.7919e-05	593.21	146.38	4.8867e-05	5.8907e-05	214.49	62.792	39.949	15.276	5.1815e-05	26.863	32.708	118.609	27.767	-14.495	-12.927	133.722	-15.469	-10.023	-18.215	132.838	-11.976	-7.974	-5.679	-2.001	178.911	-4.517	-8191	255	
5515.399	1	1	0	0	0.18092	0.12558	0.22754	0.12021	0.10435	0.066459	0.23793	0.34507	0.068821	0.15501	0.042288	0.36102	0.066344	0.20795	0.055568	0.24702	-2.6312	-2.7479	-3.0875	-2.9917	-2.7333	-3.2271	-2.9708	-2.8125	-3.0917	-2.8729	-3.1521	-3.0833	-2.7167	-3.1646	-2.8708	-2.9104	252.777	112.314	306.246	323.807	44.148	145.608	0.718	-14.193	196.629	195.683	78.639	259.585	241.321	19.284	197.891	30.167	0.00027729	0.0006397	0.00016839	468.27	9.4276e-06	1.7711e-06	631.2	153.44	6.1408e-06	6.4424e-06	223.24	65.779	40.587	15.62	3.3695e-06	27.779	0.0028988	0.0051348	0.0014286	448.19	4.864e-05	5.7756e-05	597.9	146.73	4.8118e-05	5.8779e-05	215.02	63.192	40.016	15.348	5.0132e-05	27.017	-6.130	90.187	3.401	-14.763	77.429	77.040	-15.842	-9.621	206.334	136.519	-11.976	-8.096	-5.998	-2.075	215.053	-4.246	-8191	255	
5515.496	1	1	0	0	0.12603	0.080573	0.17134	0.13116	0.14364	0.29523	0.36204	0.088564	0.12873	0.15527	0.31824	0.07587	0.17896	0.27565	0.20847	0.22854	-2.8354	-2.7729	-2.8	-3.0833	-2.8396	-3.1937	-2.8708	-2.8854	-3.1979	-2.9833	-3.0354	-3.1042	-2.7833	-3.0229	-3.0333	-2.9188	239.790	286.890	196.105	21.264	117.686	93.558	242.175	105.581	85.191	306.035	262.497	310.792	303.831	292.443	155.020	251.747	0.00020992	0.00026075	0.00011485	474.98	3.0278e-06	4.5316e-06	630.71	153.36	3.5911e-06	6.8768e-07	224.09	65.989	40.815	15.716	5.2077e-07	27.94	0.0028819	0.0050694	0.0014375	452.01	4.8176e-05	5.7638e-05	598.83	147	4.7423e-05	5.777e-05	215.9	63.701	40.142	15.45	5.0966e-05	27.139	82.553	56.132	46.188	-14.337	116.362	153.646	-15.687	-10.064	5.316	163.612	-12.012	-7.964	-5.948	-1.904	202.548	-4.792	-8191	255	
5515.592	1	1	0	0	0.16057	0.087309	0.16603	0.10796	0.039911	0.2481	0.16355	0.20613	0.12217	0.20088	0.17128	0.20373	0.13232	0.11324	0.30776	0.15538	-2.6562	-2.7	-2.7771	-3.2354	-2.8479	-3.1104	-3.0792	-2.6396	-3.3625	-2.8375	-2.9688	-3.2125	-2.9104	-3.2104	-2.9896	-2.5979	286.552	88.792	206.694	298.537	226.166	309.808	2.757	112.939	280.262	203.989	89.895	-17.163	224.990	303.053	132.750	308.520	0.00010646	0.00045971	0.00017451	471.82	4.0044e-06	2.9198e-06	632.66	152.68	7.3269e-06	3.1893e-06	222.74	65.243	40.574	15.662	1.0285e-06	27.781	0.0027807	0.0051372	0.0014277	452.94	4.8424e-05	5.621e-05	599.6	146.71	4.7487e-05	5.7364e-05	213.89	63.229	39.885	15.368	5.1246e-05	26.897	39.723	60.451	331.743	-14.385	152.068	81.645	-15.452	-10.250	196.900	217.855	-11.478	-7.674	-6.119	-2.536	133.863	-4.515	-8191	255	
5515.686	1	1	0	0	0.18809	0.25446	0.2754	0.23397	0.097238	0.12935	0.11106	0.14136	0.23876	0.21085	0.15667	0.34168	0.1593	0.11391	0.15332	0.093327	-2.7625	-2.6208	-2.7542	-3.0875	-2.6979	-2.8896	-3.1229	-2.675	-3.0271	-2.8271	-2.7021	-3.2833	-2.6896	-3.0812	-3.1604	-2.8583	274.728	278.483	184.538	45.648	323.214	86.484	28.886	118.404	261.855	201.342	314.908	305.663	80.885	126.935	290.267	112.405	0.00024134	7.4075e-05	7.6673e-05	474.75	9.3179e-06	2.3427e-06	632.38	153.24	8.5017e-06	2.7123e-06	223.34	64.955	40.516	15.756	3.6143e-06	27.79	0.0027844	0.0049816	0.0014104	455.2	4.8572e-05	5.7352e-05	599.63	147.14	4.7074e-05	5.804e-05	214.62	62.985	39.981	15.358	5.2372e-05	27.011	75.420	-9.068	250.636	-14.560	124.991	116.575	-15.455	-9.978	66.089	69.490	-11.841	-7.638	-6.013	-1.939	52.010	-4.483	-8191	255	
5515.782	1	1	0	0	0.17758	0.085717	0.10592	0.18817	0.24452	0.045277	0.18975	0.092555	0.1892	0.17598	0.12684	0.1991	0.03607	0.034317	0.14357	0.20253	-2.6667	-2.8812	-2.6875	-3.1437	-2.8042	-2.9542	-3.0896	-2.6688	-2.9646	-2.9458	-2.8917	-3.3333	-2.7896	-2.7771	-3.3604	-2.5438	24.407	24.314	122.548	21.244	22.927	287.431	26.921	255.869	0.314	-2.083	188.536	178.212	47.882	-25.690	-26.216	33.885	0.00019713	0.00065046	0.00012988	477.66	7.2159e-06	4.0514e-06	635.32	153.1	9.7634e-06	2.2543e-06	224.29	65.619	40.619	15.836	8.5969e-06	28.234	0.0028944	0.005275	0.0015134	458.08	5.0097e-05	5.9608e-05	604.58	147.06	4.9987e-05	6.1811e-05	215.9	63.433	40.137	15.652	5.4361e-05	27.611	15.962	75.945	88.690	-14.274	116.489	130.684	-15.664	-9.604	222.950	82.470	-12.058	-7.981	-6.173	-1.967	68.284	-4.840	-8191	255	
5515.903	1	1	0	0	0.067896	0.19812	0.19128	0.25358	0.10313	0.23029	0.21802	0.16392	0.082999	0.090829	0.17339	0.13231	0.042426	0.20606	0.072269	0.099721	-2.4792	-2.9958	-2.7458	-3.3937	-2.7792	-2.9854	-3.2375	-2.6562	-3.0812	-3.2021	-2.9979	-3.2938	-2.8229	-2.7646	-3.2375	-2.7396	69.375	195.174	98.888	304.971	105.266	160.650	243.994	17.830	247.257	223.945	71.005	142.206	243.778	235.834	270.478	166.994	0.00024708	0.00057656	0.00022818	483.35	7.6417e-06	4.9423e-06	642.79	153.76	1.1219e-05	4.4605e-06	225.12	66.586	40.916	16.262	6.7406e-06	29.212	0.0029938	0.0053846	0.0015509	461.02	5.2321e-05	6.1519e-05	607.95	147.63	5.1746e-05	6.5153e-05	216.57	64.258	40.275	16.037	5.8881e-05	28.43	22.155	69.883	96.190	-14.502	145.707	187.693	-15.294	-9.749	100.192	120.355	-11.886	-7.824	-6.067	-1.843	100.944	-4.661	-8191	255	
5515.999	1	1	0	0	0.19102	0.1834	0.20961	0.26273	0.14113	0.041338	0.19881	0.10795	0.042807	0.2301	0.39352	0.22765	0.2463	0.27782	0.082192	0.20802	-2.5292	-3.0854	-2.7042	-3.0563	-2.925	-2.9021	-3.1271	-2.8667	-2.9813	-3.2208	-2.7708	-3.1813	-2.9813	-2.7292	-3.3438	-2.9104	248.108	125.373	319.394	225.579	187.005	66.553	257.859	284.904	72.721	294.552	302.741	-18.311	36.625	265.686	138.833	279.230	0.00028948	0.00036386	8.061e-05	482.81	2.8113e-06	5.0244e-06	644.13	151.83	2.784e-06	3.1785e-06	222.54	65.815	40.409	16.304	7.0922e-06	29.196	0.003204	0.0058302	0.001668	461.51	5.4908e-05	6.5822e-05	608.94	146.32	5.3343e-05	6.6672e-05	215.21	63.726	39.824	16.112	5.8997e-05	28.585	38.358	300.923	82.355	-14.575	102.475	57.106	-15.665	-9.612	77.776	184.460	-11.599	-7.668	-6.215	-2.580	99.186	-4.613	-8191	255	
5516.071	1	1	0	0	0.11966	0.12532	0.17878	0.14498	0.1473	0.18143	0.18277	0.083511	0.099817	0.30277	0.11017	0.26605	0.14202	0.1279	0.16831	0.25675	-2.4896	-3.2396	-2.7667	-2.9958	-3.0563	-2.6562	-3.1604	-2.8896	-2.7854	-3.3125	-2.7271	-3.1229	-3.0938	-2.85	-3.1771	-2.8833	-6.808	2.438	314.041	187.249	38.966	207.704	267.167	248.061	206.906	215.898	279.946	44.368	314.644	-22.942	158.947	11.686	0.00037613	0.0003876	5.4715e-05	481.39	5.6392e-06	7.2271e-06	637.01	152.07	5.5608e-06	3.5788e-06	225.57	66.468	40.483	16.844	1.3584e-05	30.298	0.0032865	0.0060687	0.0017109	460.59	5.7135e-05	6.9723e-05	610.28	146.58	5.9018e-05	7.261e-05	217.41	64.736	40.148	16.648	6.4732e-05	29.599	36.436	108.047	79.468	-14.678	104.962	208.539	-15.458	-10.357	203.992	168.374	-11.363	-7.887	-5.865	-2.590	130.863	-4.729	-8191	255	
5516.167	1	1	0	0	0.24902	0.19875	0.25264	0.16299	0.155	0.085085	0.15223	0.1572	0.37205	0.15064	0.25839	0.17002	0.13349	0.14235	0.14088	0.10534	-2.2917	-3.125	-2.7396	-3.0187	-3.0729	-2.7375	-3.1708	-2.9688	-2.8271	-3.1917	-2.9125	-3.0938	-2.9104	-2.6125	-3.1521	-2.8979	252.001	303.102	85.169	121.339	302.595	174.194	243.143	183.564	265.733	80.524	323.228	322.983	97.828	300.892	201.035	44.053	0.00025588	0.00059665	0.00012307	480.54	6.1671e-06	1.1266e-05	643.15	151.1	4.357e-06	2.2295e-06	224.24	67.027	40.48	17.069	4.9879e-06	31.03	0.0035641	0.0065247	0.0018489	461.18	6.1422e-05	7.3547e-05	613.65	146.04	6.1397e-05	7.5528e-05	217.7	65.519	40.258	16.912	6.7396e-05	30.439	88.799	95.427	143.096	-14.728	12.810	92.209	-15.334	-9.570	69.739	213.700	-11.892	-7.638	-5.542	-2.409	111.479	-5.029	-8191	255	
5516.288	1	1	0	0	0.075038	0.1747	0.029866	0.01851	0.10566	0.185	0.22826	0.24193	0.19611	0.12125	0.03151	0.10756	0.054491	0.2443	0.008885	0.1711	-2.4604	-3.2854	-2.6271	-3.1042	-3.0375	-2.8021	-3.0917	-2.9708	-2.85	-3.2313	-2.7438	-2.8937	-3.2	-2.7646	-3.2083	-3.15	4.013	187.994	38.947	191.991	45.704	290.160	298.191	298.596	303.473	202.007	220.801	194.676	321.212	210.984	274.089	93.678	0.00031077	0.00056598	0.00013718	477.17	5.0099e-06	5.4805e-06	648.68	151.63	9.1778e-06	2.9872e-06	226.49	68.99	40.738	17.305	7.0788e-06	31.572	0.0037872	0.007188	0.0019629	462.5	6.821e-05	8.0895e-05	617.42	146.58	6.8751e-05	8.3193e-05	219.39	67.134	40.728	17.375	7.2819e-05	31.134	50.246	-26.243	306.838	-14.678	17.540	67.722	-15.558	-10.096	85.869	48.255	-11.819	-7.233	-6.138	-2.239	58.162	-5.064	-8191	255	
5516.384	1	1	0	0	0.2668	0.15633	0.1741	0.12871	0.20351	0.24988	0.29884	0.16041	0.092228	0.34863	0.36727	0.45097	0.32397	0.13311	0.20012	0.07222	-2.4458	-3.175	-2.9271	-2.8563	-3.1312	-2.7375	-3.1771	-3.0187	-2.6625	-3.1937	-2.9917	-2.8833	-3.2896	-2.8688	-3.0479	-3.1562	279.140	56.682	225.789	282.767	308.930	301.598	266.592	190.577	87.987	141.428	287.212	315.699	167.656	181.249	-6.430	320.545	0.00024182	0.00058103	0.00012012	481.01	1.199e-05	8.5202e-06	647.21	151.25	4.8337e-06	4.4069e-06	224.66	69.002	40.651	17.467	6.439e-06	31.749	0.0041294	0.0073953	0.0020609	464.22	6.8094e-05	8.2557e-05	617.34	146.26	6.6998e-05	8.0278e-05	218.09	66.966	40.67	17.46	7.0841e-05	31.186	-1.990	-2.420	96.976	-14.079	88.390	131.935	-15.696	-10.180	73.458	196.355	-11.979	-7.798	-5.552	-2.387	114.582	-4.726	-8191	255	
5516.480	1	1	0	0	0.11805	0.11935	0.16027	0.23651	0.28776	0.31416	0.20785	0.26482	0.14884	0.046597	0.042946	0.2443	0.27867	0.31412	0.10634	0.13675	-2.3354	-2.9854	-2.95	-2.8292	-3.1917	-2.7042	-3.1604	-3.1083	-2.9062	-3.0417	-3.0875	-2.8083	-3.1083	-2.65	-2.9583	-3.1104	139.098	61.066	59.936	247.989	133.818	12.646	262.864	242.280	24.218	32.630	127.424	1.929	47.711	-0.267	309.385	96.305	0.00032359	0.00015792	9.2639e-05	477.99	1.2722e-05	3.1712e-06	644.29	149.34	5.2525e-06	1.1535e-05	224.34	68.394	40.887	17.652	4.4389e-06	32.151	0.003987	0.0071416	0.0019938	462.25	6.6564e-05	7.9935e-05	616	145.69	6.5228e-05	7.6996e-05	216.9	66.639	40.604	17.506	6.831e-05	31.357	29.508	314.540	230.258	-13.959	102.108	32.432	-15.546	-9.889	131.195	165.258	-11.764	-7.929	-6.202	-2.536	77.339	-5.054	-8191	255	
5516.576	1	1	0	0	0.11731	0.078657	0.19627	0.32585	0.18603	0.057859	0.10618	0.18479	0.30994	0.084831	0.030589	0.25052	0.15396	0.061946	0.1732	0.17914	-2.3187	-2.9792	-2.8917	-2.75	-3.2021	-2.8479	-2.9792	-3.1521	-2.7292	-3.0146	-3.05	-2.7854	-3.1437	-2.7896	-3.0875	-3.2604	-20.519	151.378	295.253	271.878	122.503	98.143	64.620	-27.261	145.503	24.022	54.643	30.931	224.898	314.075	149.020	245.802	0.00027928	0.00041616	0.00025695	477.25	3.0547e-06	1.0095e-05	644.88	150.73	8.0186e-06	2.3402e-06	225.95	69.201	40.74	17.965	9.308e-06	32.632	0.003781	0.0068549	0.0019781	460.81	6.5161e-05	7.7768e-05	614.89	145.69	6.3931e-05	7.6865e-05	217.86	67.243	40.666	17.719	6.7953e-05	31.695	37.973	-14.809	136.913	-14.438	105.561	157.154	-15.564	-9.787	140.454	205.273	-11.659	-8.030	-5.735	-2.111	176.538	-4.370	-8191	255	
5516.695	1	1	0	0	0.29364	0.076292	0.054974	0.11774	0.31442	0.25453	0.30908	0.18546	0.24297	0.092182	0.14993	0.18092	0.33016	0.16975	0.10224	0.13033	-2.3604	-2.8812	-3.2	-2.7208	-3.2479	-2.9083	-2.9188	-3.2167	-2.7313	-2.9583	-3.0187	-2.8625	-3.0667	-2.925	-2.8458	-3.3271	313.081	81.702	80.844	297.400	272.635	157.664	42.069	153.056	26.720	239.074	254.012	288.024	314.011	13.517	150.846	-18.385	0.00021318	0.00040785	0.00013637	480.08	5.2072e-06	4.4685e-06	649.59	150.69	9.6289e-06	3.7211e-06	225.01	69.316	41.443	17.919	3.4535e-06	32.457	0.0037351	0.0067858	0.0019245	462.16	6.2542e-05	7.5814e-05	617.44	145.94	6.3072e-05	7.4739e-05	218.48	67.547	41.018	17.742	6.7857e-05	31.635	49.346	186.006	145.390	-14.479	124.186	56.345	-15.362	-9.725	190.280	156.031	-11.714	-7.481	-5.959	-1.978	144.348	-4.687	-8191	255	
5516.768	1	1	0	0	0.13957	0.23223	0.16309	0.07705	0.033324	0.043058	0.11678	0.16688	0.027609	0.13362	0.16464	0.083302	0.21608	0.067382	0.12915	0.14369	-2.475	-3.0208	-3.0958	-2.8625	-3.1	-3.0563	-2.8604	-3.2167	-2.9479	-2.975	-3.2396	-2.8229	-3.2021	-3.0187	-2.975	-3.2521	208.291	3.890	-4.364	41.546	-8.349	-20.956	327.891	243.281	59.756	177.869	238.257	70.019	317.668	-6.767	241.998	90.165	0.00026696	0.0007847	0.00011227	486.07	3.6238e-06	3.397e-06	642.24	151.01	2.45e-06	5.6809e-06	225.11	68.394	41.12	17.799	7.369e-06	32.246	0.0036491	0.0065504	0.0018823	465.59	6.1553e-05	7.4876e-05	614.53	146.04	6.1296e-05	7.4806e-05	218.26	66.886	40.818	17.556	6.5528e-05	31.336	71.484	88.394	19.978	-14.576	5.673	141.116	-15.448	-10.209	303.126	186.729	-11.708	-7.769	-6.083	-2.557	290.198	-4.744	-8191	255	
5516.887	1	1	0	0	0.041011	0.17039	0.040418	0.13645	0.10651	0.24355	0.17833	0.082921	0.16263	0.049535	0.23682	0.085488	0.071392	0.16287	0.056477	0.36703	-2.2812	-2.8583	-2.9896	-2.8208	-3.0583	-2.975	-2.6854	-3.1813	-3.025	-2.95	-3.3083	-2.7021	-2.925	-3.0354	-2.5958	-3.1979	210.364	-4.743	163.237	-17.110	266.800	280.183	9.626	181.368	277.274	100.133	106.900	230.157	29.120	7.094	290.674	239.802	0.00055996	0.00033224	3.4792e-05	480.01	1.6473e-06	2.0851e-06	641.79	151.37	3.4469e-06	3.0873e-06	224.7	67.905	41.125	17.808	1.0838e-05	32.069	0.0035492	0.0064718	0.0018502	462.89	6.065e-05	7.3518e-05	612.41	145.81	6.0343e-05	7.3396e-05	217.01	66.453	40.723	17.587	6.5109e-05	31.323	51.381	78.055	95.135	-14.431	259.380	114.197	-15.430	-9.747	137.109	-27.387	-11.432	-7.919	-6.184	-2.607	110.788	-4.777	-8191	255	
5516.983	1	1	0	0	0.062627	0.10966	0.062337	0.21796	0.24841	0.10163	0.068019	0.044609	0.057838	0.148	0.017405	0.17801	0.23453	0.032675	0.084101	0.21998	-2.3688	-2.6958	-3.1479	-2.7687	-2.8312	-2.975	-2.5521	-3.0125	-3.0833	-2.7229	-3.1042	-2.6104	-3.1146	-3.0417	-2.7208	-3.1813	306.546	295.015	-6.923	21.288	175.323	16.143	256.288	18.240	301.682	86.196	104.831	304.239	29.983	155.541	-13.468	209.304	0.00041753	0.00060923	0.00013055	479.07	9.784e-07	5.5724e-06	644.56	153.66	5.6052e-06	1.0929e-06	224.67	69.062	40.973	17.891	4.143e-06	31.933	0.0035671	0.0065458	0.0018206	461.18	5.9755e-05	7.3073e-05	611.9	146.98	5.904e-05	7.3265e-05	217.96	66.971	40.823	17.651	6.3632e-05	31.316	19.891	89.398	12.327	-14.914	91.032	176.676	-15.866	-9.837	50.478	-20.864	-11.633	-7.691	-5.543	-2.181	139.756	-4.696	-8191	255	
5517.079	1	1	0	0	0.23309	0.052591	0.14548	0.24265	0.3424	0.10053	0.041723	0.073956	0.033795	0.14612	0.19828	0.11192	0.17228	0.10966	0.03292	0.06647	-2.5896	-2.8458	-3.1813	-2.8167	-3	-3.1083	-2.8583	-3.0125	-3	-2.8875	-3.3646	-2.9625	-2.7313	-3.2292	-2.8063	-3.2208	181.696	242.128	201.708	173.680	162.281	256.035	328.833	36.874	326.356	204.329	329.422	155.745	144.692	284.798	222.200	119.148	0.00042084	0.00037396	0.00012396	481.62	4.324e-06	1.0238e-05	646.24	153.87	9.883e-06	5.7546e-06	228.97	69.01	41.675	17.862	6.8851e-06	31.794	0.0035756	0.0064443	0.001814	462.05	6.0708e-05	7.2934e-05	613.85	148.13	5.9254e-05	7.1137e-05	220.41	66.965	41.186	17.537	6.0635e-05	31.001	38.063	84.062	-15.904	-14.455	63.332	110.651	-15.208	-9.510	92.299	300.474	-11.875	-7.700	-6.143	-2.485	116.715	-4.754	-8191	255	
5517.176	1	1	0	0	0.089027	0.12794	0.069831	0.074759	0.19973	0.035804	0.20181	0.034204	0.078245	0.23329	0.10761	0.16947	0.23008	0.15541	0.18774	0.2753	-2.55	-2.7396	-3.1688	-2.8542	-3.0062	-3.2417	-2.875	-2.9979	-3.2167	-2.7958	-3.1688	-3.175	-2.6562	-3.1583	-2.7208	-2.9333	290.995	-23.633	197.574	199.419	164.206	119.534	21.180	239.917	87.599	155.247	292.971	124.937	193.673	294.099	66.423	193.189	0.00041235	0.00064414	7.5853e-05	476.79	4.2324e-06	9.2825e-06	636.88	153.49	1.4735e-06	3.4174e-06	226.27	67.222	41.17	17.14	1.0893e-05	30.965	0.0033796	0.0060339	0.0016959	458.45	5.6336e-05	6.8027e-05	604.96	147.79	5.5695e-05	6.8269e-05	217.27	65.315	40.584	16.996	5.7624e-05	30.144	32.840	89.884	23.075	-14.385	106.335	100.250	-15.265	-9.395	161.817	130.402	-11.625	-7.914	-5.667	-2.610	157.168	-5.023	-8191	255	
5517.296	1	1	0	0	0.19524	0.12949	0.20729	0.11052	0.15211	0.33837	0.063603	0.13715	0.18239	0.1905	0.22055	0.049194	0.31984	0.090147	0.14781	0.046275	-2.6833	-2.6292	-3.0271	-2.9562	-2.8812	-3.3688	-2.9813	-2.9104	-3.3812	-2.7479	-3.1854	-3.1562	-2.6854	-3.2812	-2.9354	-3.0542	174.177	222.025	46.276	-10.214	141.349	-18.485	198.032	39.810	56.878	17.841	228.501	314.159	-27.004	99.617	54.084	262.792	0.00022839	0.00079381	0.00011225	476.56	4.41e-06	7.762e-07	632.1	152.88	6.7954e-06	3.2432e-06	224.48	66.923	40.952	17.077	3.2184e-06	30.649	0.0032274	0.0057921	0.001593	454.13	5.4732e-05	6.4207e-05	597.92	146.98	5.3904e-05	6.5394e-05	215.46	64.772	40.398	16.848	5.7859e-05	29.885	23.305	72.608	188.527	-14.376	148.476	158.244	-15.388	-9.918	315.380	88.007	-11.733	-7.852	-6.197	-1.823	111.707	-4.834	-8191	255	
#DATA ENDS
