BOXY.EXE: ISS Imagent and Oximeter Data Acquisition Program Version 0.80
Ascii Record File

#ACQ INFORMATION
2  Detector Channels 
16  External MUX Channels 
1  Auxiliary Channels 
5000  Waveform (CCF) Frequency (Hz)
1  Waveforms Skipped 
30  Waveforms Averaged 
1  Cycles Averaged 
16  Acquisitions per Waveform 
10.0806  Updata Rate (Hz) 

#FILE INFORMATION
TRUE -- External MUX Channel results are PARSED.
FALSE -- AC DC and Phase are NOT grouped.
TRUE -- Companion Program Settings File CREATED.
FALSE -- AC data not excluded
FALSE -- DC data not excluded
FALSE -- Phase data not excluded
FALSE -- Auxillary Chn. data not excluded
Tab delimiters

#CALIBRATION STATE
TRUE -- Waveform Calibration Values APPLIED.


#AUX CALIBRATION VALUES
Val Type	aux-1	

Term	1.0000e+00	
Factor	0.0000e+00	


#WF CALIBRATION VALUES
A = Detector Channel
Val Type	A-AC1	A-AC2	A-AC3	A-AC4	A-AC5	A-AC6	A-AC7	A-AC8	A-AC9	A-AC10	A-AC11	A-AC12	A-AC13	A-AC14	A-AC15	A-AC16	A-DC1	A-DC2	A-DC3	A-DC4	A-DC5	A-DC6	A-DC7	A-DC8	A-DC9	A-DC10	A-DC11	A-DC12	A-DC13	A-DC14	A-DC15	A-DC16	A-Ph1	A-Ph2	A-Ph3	A-Ph4	A-Ph5	A-Ph6	A-Ph7	A-Ph8	A-Ph9	A-Ph10	A-Ph11	A-Ph12	A-Ph13	A-Ph14	A-Ph15	A-Ph16	

Term	0.00000e+00	0.00000e+00	0.00000e+00	0.00000e+00	0.00000e+00	0.00000e+00	0.00000e+00	0.00000e+00	0.00000e+00	0.00000e+00	0.00000e+00	0.00000e+00	0.00000e+00	0.00000e+00	0.00000e+00	0.00000e+00	0.00000e+00	0.00000e+00	0.00000e+00	0.00000e+00	0.00000e+00	0.00000e+00	0.00000e+00	0.00000e+00	0.00000e+00	0.00000e+00	0.00000e+00	0.00000e+00	0.00000e+00	0.00000e+00	0.00000e+00	0.00000e+00	0.00000e+00	0.00000e+00	0.00000e+00	0.00000e+00	0.00000e+00	0.00000e+00	0.00000e+00	0.00000e+00	0.00000e+00	0.00000e+00	0.00000e+00	0.00000e+00	0.00000e+00	0.00000e+00	0.00000e+00	0.00000e+00	
Factor	1.00000e+00	1.00000e+00	1.00000e+00	1.00000e+00	1.00000e+00	1.00000e+00	1.00000e+00	1.00000e+00	1.00000e+00	1.00000e+00	1.00000e+00	1.00000e+00	1.00000e+00	1.00000e+00	1.00000e+00	1.00000e+00	1.00000e+00	1.00000e+00	1.00000e+00	1.00000e+00	1.00000e+00	1.00000e+00	1.00000e+00	1.00000e+00	1.00000e+00	1.00000e+00	1.00000e+00	1.00000e+00	1.00000e+00	1.00000e+00	1.00000e+00	1.00000e+00	X	X	X	X	X	X	X	X	X	X	X	X	X	X	X	X	

B = Detector Channel
Val Type	B-AC1	B-AC2	B-AC3	B-AC4	B-AC5	B-AC6	B-AC7	B-AC8	B-AC9	B-AC10	B-AC11	B-AC12	B-AC13	B-AC14	B-AC15	B-AC16	B-DC1	B-DC2	B-DC3	B-DC4	B-DC5	B-DC6	B-DC7	B-DC8	B-DC9	B-DC10	B-DC11	B-DC12	B-DC13	B-DC14	B-DC15	B-DC16	B-Ph1	B-Ph2	B-Ph3	B-Ph4	B-Ph5	B-Ph6	B-Ph7	B-Ph8	B-Ph9	B-Ph10	B-Ph11	B-Ph12	B-Ph13	B-Ph14	B-Ph15	B-Ph16	

Term	0.00000e+00	0.00000e+00	0.00000e+00	0.00000e+00	0.00000e+00	0.00000e+00	0.00000e+00	0.00000e+00	0.00000e+00	0.00000e+00	0.00000e+00	0.00000e+00	0.00000e+00	0.00000e+00	0.00000e+00	0.00000e+00	0.00000e+00	0.00000e+00	0.00000e+00	0.00000e+00	0.00000e+00	0.00000e+00	0.00000e+00	0.00000e+00	0.00000e+00	0.00000e+00	0.00000e+00	0.00000e+00	0.00000e+00	0.00000e+00	0.00000e+00	0.00000e+00	-2.26776e+02	-1.29708e+02	-1.25081e+02	-1.81324e+02	-8.13396e+01	-6.84428e+01	-1.55273e+02	-1.62015e+02	-8.44135e+01	-6.57107e+01	-1.73287e+02	-1.69603e+02	-1.82427e+02	-1.77112e+02	-7.61088e+01	-1.49999e+02	
Factor	5.15204e-05	1.63359e-04	4.63749e-05	1.65014e-01	2.13459e-06	1.73112e-06	1.63714e-01	5.20409e-02	2.66509e-06	1.65289e-06	8.93901e-02	2.90941e-02	2.44411e-02	9.00888e-03	1.89399e-06	1.31364e-02	1.97274e-05	3.71382e-05	1.04766e-05	8.31389e-02	3.49691e-07	4.20036e-07	7.75769e-02	2.62501e-02	3.44574e-07	4.22086e-07	4.38463e-02	1.42514e-02	1.24700e-02	4.59518e-03	3.71019e-07	6.48508e-03	X	X	X	X	X	X	X	X	X	X	X	X	X	X	X	X	



#DISTANCE SETTINGS
A = Detector Channel
A-1	A-2	A-3	A-4	A-5	A-6	A-7	A-8	A-9	A-10	A-11	A-12	A-13	A-14	A-15	A-16	

2.5000e+00	3.0000e+00	2.5000e+00	3.0000e+00	2.0000e+00	3.0000e+00	1.5000e+00	3.0000e+00	3.0000e+00	3.0000e+00	3.0000e+00	3.0000e+00	3.0000e+00	3.0000e+00	1.5000e+00	3.0000e+00	

B = Detector Channel
B-1	B-2	B-3	B-4	B-5	B-6	B-7	B-8	B-9	B-10	B-11	B-12	B-13	B-14	B-15	B-16	

1.0000e+01	1.0000e+01	1.0000e+01	1.4400e+00	1.0000e+01	1.0000e+01	1.5100e+00	1.9400e+00	1.0000e+01	1.0000e+01	1.9900e+00	2.4900e+00	2.4100e+00	2.9000e+00	1.0000e+01	2.9800e+00	




#DATA BEGINS
time	group	step	mark	flag	A-AC1	A-AC2	A-AC3	A-AC4	A-AC5	A-AC6	A-AC7	A-AC8	A-AC9	A-AC10	A-AC11	A-AC12	A-AC13	A-AC14	A-AC15	A-AC16	A-DC1	A-DC2	A-DC3	A-DC4	A-DC5	A-DC6	A-DC7	A-DC8	A-DC9	A-DC10	A-DC11	A-DC12	A-DC13	A-DC14	A-DC15	A-DC16	A-Ph1	A-Ph2	A-Ph3	A-Ph4	A-Ph5	A-Ph6	A-Ph7	A-Ph8	A-Ph9	A-Ph10	A-Ph11	A-Ph12	A-Ph13	A-Ph14	A-Ph15	A-Ph16	B-AC1	B-AC2	B-AC3	B-AC4	B-AC5	B-AC6	B-AC7	B-AC8	B-AC9	B-AC10	B-AC11	B-AC12	B-AC13	B-AC14	B-AC15	B-AC16	B-DC1	B-DC2	B-DC3	B-DC4	B-DC5	B-DC6	B-DC7	B-DC8	B-DC9	B-DC10	B-DC11	B-DC12	B-DC13	B-DC14	B-DC15	B-DC16	B-Ph1	B-Ph2	B-Ph3	B-Ph4	B-Ph5	B-Ph6	B-Ph7	B-Ph8	B-Ph9	B-Ph10	B-Ph11	B-Ph12	B-Ph13	B-Ph14	B-Ph15	B-Ph16	aux-1	digaux	

5526.011	1	1	0	256	0.14018	0.04919	0.11318	0.16586	0.1455	0.26797	0.13295	0.15079	0.13158	0.20117	0.070387	0.057498	0.21439	0.1927	0.036827	0.18878	-2.5229	-3.1854	-2.6646	-3.0229	-2.8271	-2.9896	-3.2604	-2.9167	-3.0438	-3.3854	-2.8625	-3.1937	-2.9458	-2.7417	-3.0792	-2.7792	297.563	38.890	72.716	326.942	240.062	314.904	320.280	208.010	78.948	122.302	274.485	88.291	310.439	322.834	133.399	299.035	0.00053595	0.00083908	3.3977e-05	481.62	2.7681e-06	4.2888e-06	612.87	156.68	1.0134e-05	4.6123e-06	233.75	73.29	45.151	17.811	5.8782e-06	31.979	0.0044283	0.0083878	0.0023502	466.36	7.701e-05	9.2607e-05	590.35	152.73	7.5218e-05	9.4277e-05	228.6	72.009	45.082	17.85	8.2193e-05	31.671	68.874	19.482	87.741	-14.698	246.176	123.260	-15.855	-10.332	89.852	78.794	-11.777	-7.990	-5.812	-1.734	88.471	-4.771	-8191	255	
5526.107	1	1	0	0	0.0998	0.038146	0.071661	0.20942	0.011927	0.061657	0.11039	0.21779	0.1355	0.1517	0.061461	0.135	0.11532	0.20869	0.10638	0.21193	-2.4833	-3.2375	-2.6188	-2.9146	-3.2083	-2.8021	-3.2333	-2.9562	-2.8375	-3.2313	-2.7604	-3.1833	-2.9313	-2.6958	-3.1604	-2.8646	218.487	267.422	169.748	209.236	25.328	215.663	328.224	276.265	33.813	250.651	-14.940	272.430	331.018	280.185	51.017	81.471	0.00037061	0.00063029	0.00021872	473.24	2.9304e-06	9.5426e-07	613.4	155.45	5.6996e-06	5.0423e-06	231.58	73.518	44.77	17.761	4.2905e-06	32.352	0.0045451	0.0084203	0.0023169	461.28	7.9443e-05	9.3561e-05	587.65	151.68	7.8179e-05	9.5878e-05	226.72	71.846	45.017	17.808	8.1957e-05	31.871	32.366	64.135	72.573	-14.392	179.995	290.092	-15.703	-10.091	118.756	104.279	-12.021	-8.391	-6.136	-1.827	121.907	-4.763	-8191	255	
5526.226	1	1	0	0	0.22174	0.18636	0.10178	0.1125	0.086117	0.097603	0.11957	0.13092	0.079521	0.13673	0.12419	0.236	0.14715	0.23261	0.23906	0.35234	-2.4542	-3.0667	-2.9125	-2.9479	-3.175	-2.8521	-3.1917	-3.0062	-2.6896	-3.2042	-2.7854	-3.0125	-3.0604	-2.4604	-3.2021	-2.9417	243.902	295.874	318.077	17.232	169.281	247.721	33.900	255.635	6.670	305.459	260.726	-9.215	173.481	54.787	137.706	224.657	0.00020577	0.00059092	7.9789e-05	475.05	3.0008e-06	8.7205e-06	613.56	155.26	1.2945e-05	3.5715e-06	234.05	73.424	44.656	18.003	3.6929e-06	32.802	0.0046378	0.0084043	0.002333	459.88	8.0672e-05	9.6117e-05	589.81	151.51	7.8253e-05	9.4999e-05	227.29	72.093	44.885	18.045	8.3168e-05	32.329	-13.706	68.206	-9.168	-14.242	154.409	112.612	-15.784	-10.039	170.329	40.400	-12.227	-7.932	-6.267	-2.630	37.876	-4.795	-8191	255	
5526.298	1	1	0	0	0.19934	0.23393	0.082249	0.22375	0.20351	0.16342	0.038325	0.15499	0.045906	0.062303	0.20133	0.15888	0.090888	0.10489	0.22256	0.16677	-2.3917	-3.2625	-2.8625	-2.7833	-3.0229	-2.75	-3.0271	-3.0792	-2.7687	-3.1667	-2.7854	-3.0854	-3.1292	-2.6792	-3.0771	-3.1125	102.174	214.881	332.009	240.755	50.090	52.064	1.487	-0.542	26.815	45.502	-25.141	-10.180	249.727	31.186	25.084	280.378	0.00037002	0.00012767	0.00022881	474.23	8.3671e-06	1.9599e-06	618.14	156.18	1.0842e-05	1.4372e-05	234.89	74.747	45.181	18.204	1.0136e-05	33.186	0.0046458	0.0082874	0.002321	461.71	7.9547e-05	9.3052e-05	592.73	152.55	7.7301e-05	9.2376e-05	229.45	73.148	45.103	18.266	8.3964e-05	32.833	79.868	17.082	71.365	-14.543	106.089	134.040	-15.229	-9.863	156.864	96.904	-12.118	-7.899	-6.120	-1.765	142.391	-4.698	-8191	255	
5526.394	1	1	0	0	0.28266	0.10801	0.028836	0.43573	0.17463	0.11412	0.1054	0.14774	0.11833	0.095199	0.14637	0.22802	0.39531	0.082254	0.20336	0.14356	-2.1188	-3.1	-2.8042	-2.7583	-3.1146	-2.8333	-3.1688	-3.1146	-2.7438	-3.175	-3.0458	-2.7333	-3.2417	-2.7729	-3.1771	-3.3229	-16.655	54.526	76.544	16.415	56.399	129.864	258.407	72.854	306.448	59.370	211.417	7.594	-19.948	46.725	230.148	191.200	0.00045822	0.00047147	0.00011764	477.24	8.9387e-06	1.0845e-05	614.29	154.82	1.0516e-05	4.6788e-06	232.97	74.481	44.653	17.917	7.9061e-06	33.148	0.0046214	0.0082663	0.0023075	462.48	7.9535e-05	9.3973e-05	591.14	151.56	7.7331e-05	9.394e-05	228.01	72.885	44.803	18.111	8.092e-05	32.696	62.685	331.292	110.412	-14.477	162.776	123.353	-15.349	-9.845	29.970	83.877	-11.836	-7.927	-5.587	-2.359	102.616	-5.101	-8191	255	
5526.490	1	1	0	0	0.26269	0.12321	0.022045	0.20588	0.3027	0.067977	0.026771	0.096037	0.2094	0.19537	0.27871	0.20047	0.15907	0.11462	0.22956	0.070488	-2.2208	-3.0771	-3.0604	-2.7958	-3.1312	-2.7458	-3.0792	-3.0938	-2.5833	-3.0646	-3.1583	-2.8542	-3.1167	-2.8396	-2.9979	-3.1	270.980	13.272	12.731	296.125	-8.533	6.701	-17.107	306.052	300.498	314.708	239.769	214.930	-19.708	149.418	201.504	329.623	0.00024003	0.00036881	0.00014858	468.81	4.7157e-06	4.7146e-06	610.63	154.29	5.5065e-06	6.9196e-06	232.51	74.26	44.553	18.15	6.7156e-06	33.321	0.0045177	0.0080729	0.0023443	457.73	7.7404e-05	9.2485e-05	589.64	150.94	7.7156e-05	9.4135e-05	227.91	72.874	44.811	18.178	8.3281e-05	32.759	52.572	129.732	136.901	-14.527	113.628	165.692	-15.684	-9.948	77.122	179.367	-11.994	-7.963	-5.844	-2.071	152.473	-4.580	-8191	255	
5526.611	1	1	0	0	0.079078	0.033935	0.26363	0.09002	0.16152	0.20762	0.26208	0.21687	0.24241	0.07082	0.18697	0.011608	0.37218	0.18947	0.018765	0.26956	-2.2604	-3.0604	-2.9333	-2.8042	-3.0854	-2.7958	-2.7917	-3.1875	-2.925	-3.1	-3.0292	-2.8125	-3.1479	-3.0104	-2.8271	-3.2104	326.231	137.359	96.918	218.053	28.237	214.940	264.268	264.530	-5.909	66.622	40.107	13.134	289.625	268.449	43.795	331.131	0.00029943	0.00065021	0.00020953	469.39	6.1279e-06	5.8079e-06	613.06	153.95	9.5194e-06	5.6659e-06	235.72	74.928	44.567	18.16	6.5482e-06	33.192	0.0045545	0.0082257	0.0023353	458.67	7.7704e-05	9.3088e-05	592.07	150.98	7.5775e-05	9.2691e-05	229.47	73.035	44.881	18.225	8.241e-05	32.877	38.435	65.843	96.552	-14.353	125.332	161.892	-15.726	-9.918	187.721	59.018	-11.847	-8.070	-5.901	-2.162	159.391	-4.894	-8191	255	
5526.707	1	1	0	0	0.063581	0.17667	0.091125	0.12128	0.076596	0.10385	0.14279	0.37162	0.24068	0.086578	0.1531	0.19468	0.051714	0.11127	0.064746	0.25679	-2.5083	-2.9729	-2.9229	-2.7729	-3.1562	-3.0375	-2.9083	-3.4396	-2.9604	-3.0271	-3.1729	-2.7875	-3.275	-3.1708	-2.7812	-3.2292	-10.208	295.837	-3.080	270.825	217.613	63.277	105.288	-15.725	38.090	272.317	62.555	6.398	263.671	154.770	284.686	307.399	0.00049974	0.00017695	0.00016008	476.97	7.8433e-06	4.4278e-06	620.15	155.95	5.4237e-06	2.887e-06	235.92	74.714	44.711	18.22	4.2333e-06	33.548	0.0044677	0.0080401	0.0023159	460.91	7.4926e-05	9.1894e-05	595.48	152.23	7.3243e-05	9.0441e-05	230.23	73.277	45.05	18.256	8.1118e-05	32.918	31.134	316.868	71.386	-14.278	49.292	62.639	-15.715	-9.994	296.545	147.765	-12.528	-7.950	-5.576	-1.787	99.919	-4.699	-8191	255	
5526.803	1	1	0	0	0.29615	0.17715	0.16224	0.27307	0.16642	0.10609	0.19285	0.19584	0.2264	0.048642	0.27872	0.19989	0.17986	0.14232	0.12087	0.23102	-2.3229	-2.8521	-3.225	-2.6729	-3	-3.1146	-2.8083	-3.3458	-2.9229	-2.9938	-3.1729	-2.9375	-3.1042	-3.0208	-2.7208	-3.1521	47.499	160.455	-6.022	9.495	127.950	127.680	297.918	263.291	187.356	298.961	198.358	266.607	34.510	197.567	225.969	217.102	0.00039331	0.00031855	3.6402e-05	478.11	2.437e-06	2.938e-06	622.45	155.83	2.9803e-06	4.1051e-06	234.53	74.296	45.235	18.013	1.1967e-05	32.668	0.0043293	0.0079271	0.0023024	463.84	7.5097e-05	8.9702e-05	597.1	152.55	7.343e-05	9.1004e-05	229.47	72.739	45.057	17.971	8.0577e-05	32.154	30.802	85.298	159.846	-14.664	-14.831	131.328	-15.344	-9.787	159.736	95.932	-11.731	-8.007	-5.703	-2.077	92.803	-5.078	-8191	255	
5526.899	1	1	0	0	0.22066	0.2129	0.30514	0.29372	0.092186	0.098167	0.44451	0.029446	0.37746	0.31946	0.12507	0.20416	0.33748	0.29656	0.38258	0.080856	-2.4771	-2.8083	-3.0167	-2.7792	-3.0646	-3.1771	-2.7042	-3.2354	-2.875	-2.7667	-3.325	-2.9042	-2.9104	-3.0271	-2.7	-3.1667	59.610	275.756	224.742	-15.738	181.611	233.982	26.543	14.886	235.003	-15.962	-27.610	263.118	299.690	284.959	249.353	31.607	0.00025337	0.00020706	7.8429e-05	477.28	7.0953e-06	6.5613e-06	618.37	157.04	1.1052e-05	4.3064e-06	234.72	74.364	45.01	17.762	7.8684e-06	32.513	0.0043586	0.007986	0.0022711	462.14	7.5733e-05	9.1652e-05	593.7	151.94	7.4935e-05	9.1239e-05	228.53	72.659	45.02	17.813	8.0464e-05	31.914	67.295	233.738	139.765	-14.785	126.645	62.231	-15.685	-9.973	161.571	165.129	-11.782	-7.860	-6.360	-2.021	79.758	-4.841	-8191	255	
5526.995	1	1	0	0	0.19901	0.095084	0.12044	0.051807	0.17854	0.27793	0.20466	0.055986	0.083021	0.16816	0.24597	0.16495	0.16494	0.17903	0.35173	0.3169	-2.5062	-2.8396	-3.0646	-2.7833	-3.025	-3.1	-2.8521	-2.9021	-2.9125	-2.8292	-3.1813	-2.7917	-2.7812	-3.0521	-2.6542	-3.1042	23.705	290.536	-24.644	100.716	147.170	313.290	277.008	296.175	33.252	70.120	22.312	269.864	13.283	282.151	111.617	302.590	0.00035344	0.00019951	0.00012898	476.72	9.1184e-06	2.287e-06	617.86	156.47	1.3561e-05	5.1571e-06	235.21	74.096	45.257	17.822	2.6757e-06	32.509	0.0043861	0.0080747	0.0022607	461.96	7.5825e-05	9.0209e-05	593.36	152.18	7.5034e-05	9.0786e-05	228.89	72.626	45.129	17.725	8.0214e-05	31.863	61.159	71.464	63.221	-14.659	-2.309	191.706	-15.560	-10.390	98.579	112.524	-12.080	-7.773	-6.172	-2.213	322.922	-4.403	-8191	255	
5527.091	1	1	0	0	0.23241	0.006622	0.084398	0.045806	0.27097	0.21869	0.12036	0.30997	0.022932	0.10746	0.060921	0.13644	0.060549	0.23861	0.1476	0.1971	-2.5896	-2.6104	-3.1583	-3.0479	-3.0229	-3.0354	-2.7875	-3.1917	-3.0625	-2.7667	-3.1208	-2.9083	-2.8104	-3.275	-2.7479	-2.9229	274.854	217.470	79.065	-16.215	98.040	8.525	167.547	329.579	2.368	87.994	220.511	151.508	-22.120	208.473	110.357	308.716	0.00035716	0.00037802	9.6414e-05	475.26	5.485e-06	7.0305e-06	620.83	156.85	1.1825e-05	7.751e-07	235.59	74.489	45.166	17.665	6.0491e-06	32.053	0.0044011	0.0079675	0.0022121	462.04	7.465e-05	9.0825e-05	595.07	152.6	7.3989e-05	9.082e-05	229.54	72.769	45.273	17.626	7.8066e-05	31.585	36.025	130.015	27.362	-14.351	222.195	186.568	-15.524	-9.842	191.449	90.005	-12.118	-7.598	-5.995	-1.573	219.169	-4.564	-8191	255	
5527.210	1	1	0	0	0.21922	0.0086511	0.15154	0.19865	0.1187	0.06541	0.075322	0.16616	0.079808	0.1386	0.36528	0.16318	0.23033	0.36275	0.1844	0.24424	-2.4958	-2.7333	-3.1417	-2.9979	-2.7917	-3.2042	-2.9104	-3.0458	-3.0875	-2.6625	-3.0333	-2.8083	-2.675	-3.1396	-2.8063	-3.025	320.853	186.512	220.622	54.867	305.876	286.463	116.326	73.245	242.267	113.534	314.577	-2.257	255.040	-8.353	162.320	249.670	0.0004574	0.00047217	0.00014194	478.41	9.7601e-06	7.0835e-07	623.1	156.42	8.7837e-06	4.0182e-06	234.21	73.58	44.435	17.371	3.2708e-06	31.581	0.0043546	0.0078512	0.0021873	464	7.445e-05	8.8591e-05	594.73	152.28	7.3689e-05	8.8574e-05	228.01	72.187	44.857	17.403	7.6851e-05	31.082	25.809	62.979	317.391	-14.317	182.866	52.077	-15.815	-10.035	102.405	164.926	-11.780	-7.935	-6.647	-1.911	169.834	-4.616	-8191	255	
5527.306	1	1	0	0	0.12846	0.31	0.18286	0.068407	0.11799	0.054342	0.23305	0.2303	0.069668	0.053864	0.068031	0.056288	0.067861	0.21659	0.26474	0.31636	-2.7333	-2.4354	-3.0458	-2.9688	-2.6896	-3.1063	-2.8688	-2.9708	-3.2	-2.5812	-3.0979	-3.0625	-2.7667	-3.1542	-2.9188	-2.8229	215.919	275.059	237.786	205.573	106.578	223.536	181.034	198.312	145.115	-2.015	-13.606	6.102	29.547	-24.077	187.011	-5.369	0.00036234	0.00061754	8.672e-05	474	6.2301e-06	1.7073e-06	615.36	155.21	8.0591e-06	7.15e-06	232.3	73.808	44.428	17.325	2.0051e-06	31.695	0.0042936	0.0077822	0.0021541	460.41	7.3649e-05	8.6365e-05	588.27	151.02	7.1273e-05	8.7888e-05	226.5	71.73	44.415	17.348	7.6864e-05	31.235	55.771	65.831	34.106	-14.813	179.345	186.678	-15.409	-9.754	181.574	144.487	-12.312	-8.088	-6.396	-2.029	230.693	-4.835	-8191	255	
5527.403	1	1	0	0	0.11686	0.08763	0.12212	0.11953	0.034524	0.21561	0.11653	0.10432	0.097938	0.29085	0.17059	0.12434	0.18266	0.19102	0.12182	0.20348	-2.8563	-2.6396	-2.9354	-3.1708	-2.6625	-3.0854	-3.0229	-2.8146	-3.1729	-2.6729	-3.2062	-3.2021	-2.5708	-3.0812	-2.8896	-2.6479	31.530	280.066	224.166	247.311	97.924	250.062	95.430	286.197	80.328	160.114	240.751	39.453	198.803	225.972	34.933	185.669	0.00024681	0.00081113	0.00028407	473.48	7.692e-06	6.3769e-06	612.94	156.41	4.3047e-06	1.5433e-06	231.76	73.194	44.613	17.285	3.061e-06	31.431	0.0042402	0.0074641	0.002096	458.91	7.181e-05	8.4166e-05	588.97	151.61	6.9551e-05	8.2258e-05	226.61	71.533	44.595	17.296	7.2389e-05	30.912	5.545	-7.137	19.781	-14.487	89.334	108.594	-16.099	-9.829	44.144	62.866	-11.934	-8.234	-6.034	-2.400	143.667	-4.719	-8191	255	
5527.523	1	1	0	0	0.22172	0.055516	0.10061	0.19887	0.11171	0.10524	0.082589	0.047331	0.184	0.10463	0.16822	0.19019	0.011243	0.22078	0.17284	0.24477	-2.6146	-2.9604	-2.8208	-3.0146	-2.6833	-3.0687	-2.9667	-2.8563	-3.1104	-2.9354	-2.9062	-3.1312	-2.5979	-3.0812	-3.0542	-2.6437	241.819	308.643	322.557	239.523	176.495	58.493	312.839	82.204	159.551	105.490	260.084	254.166	241.422	279.078	-19.352	224.246	0.0003085	0.0008354	0.00024534	479.51	8.1687e-06	5.5828e-06	623.93	158	4.9454e-06	6.2786e-06	233.98	73.694	45.171	17.44	7.4269e-06	31.638	0.0039033	0.0071696	0.0020206	464.19	6.7316e-05	8.0747e-05	594.26	152.96	6.5828e-05	8.0637e-05	227.87	71.725	44.916	17.363	7.1903e-05	30.978	52.540	152.007	84.236	-14.460	72.188	148.208	-15.846	-9.858	205.776	92.519	-11.915	-7.891	-5.931	-1.744	143.027	-4.644	-8191	255	
5527.595	1	1	0	0	0.08104	0.083142	0.071847	0.14448	0.12342	0.13086	0.22466	0.20592	0.27445	0.21029	0.33294	0.13786	0.18769	0.065338	0.11153	0.18967	-2.7354	-2.9208	-2.7521	-3.1917	-2.9292	-2.8792	-3.0062	-2.9146	-3.15	-2.9479	-2.8167	-3.2208	-2.7979	-2.8625	-2.8708	-2.5854	201.029	170.092	318.002	-14.014	162.436	132.033	22.459	306.971	280.801	62.005	13.735	222.526	56.321	-7.144	63.833	314.466	0.00033055	0.00054247	9.5073e-05	485.24	1.0439e-05	3.708e-06	622.41	158.96	6.8423e-06	7.1723e-06	233.92	72.899	44.873	17.269	2.8882e-06	31.223	0.0038888	0.0069984	0.0019785	467.44	6.4847e-05	7.8662e-05	596.38	153.79	6.4447e-05	7.884e-05	227.54	71.081	44.72	17.138	7.1361e-05	30.591	56.508	46.696	68.223	-14.552	102.677	249.225	-16.058	-10.186	18.746	102.373	-12.099	-8.149	-6.485	-1.901	151.116	-4.825	-8191	255	
5527.691	1	1	0	0	0.043806	0.1182	0.059892	0.1114	0.094588	0.13135	0.25344	0.11776	0.21871	0.041912	0.21707	0.24968	0.23168	0.2069	0.11133	0.089252	-2.6479	-2.7458	-2.6771	-3.1625	-2.7208	-3.0687	-3.0563	-2.5167	-3.1792	-3.0812	-2.8521	-3.0771	-2.6896	-2.8688	-3.1479	-2.7	313.531	103.075	161.925	-21.215	3.120	76.060	107.587	-15.718	-12.430	250.577	144.681	22.920	216.223	14.878	143.561	240.625	9.9164e-05	0.00062841	0.00012066	478.91	8.1879e-06	3.472e-06	623.17	157.15	4.4541e-06	5.807e-06	232.84	72.849	44.856	17.236	7.7298e-06	31.09	0.0037966	0.0070635	0.0019943	463.63	6.5214e-05	7.8698e-05	594.09	152.27	6.3722e-05	8.0876e-05	226.62	70.935	44.599	17.114	7.1256e-05	30.477	24.510	128.206	58.489	-14.413	50.221	-1.294	-15.679	-9.927	187.316	44.366	-12.084	-8.360	-6.165	-2.089	69.170	-4.789	-8191	255	
5527.787	1	1	0	0	0.18044	0.21637	0.25508	0.12643	0.055086	0.11893	0.36272	0.24015	0.13497	0.1082	0.049964	0.23861	0.26445	0.10346	0.21259	0.16994	-2.6813	-2.8646	-2.7417	-3.3312	-2.8354	-2.775	-3.2521	-2.6333	-3.1625	-3.0708	-2.6333	-3.1896	-2.8979	-2.8625	-3.1354	-2.6458	18.594	230.614	204.730	309.976	208.873	325.833	313.695	317.882	-2.776	199.610	115.147	276.033	307.314	-11.349	329.477	86.390	0.00029316	0.00038941	0.00025543	481.33	5.2666e-06	3.4242e-06	623.23	158.44	1.0759e-05	2.6193e-06	234.5	73.28	45.235	17.168	2.1737e-06	31.157	0.0037921	0.007015	0.0019863	464.93	6.6269e-05	7.9797e-05	595.78	153.01	6.5831e-05	8.0591e-05	227.3	71.38	44.638	17.131	7.1418e-05	30.643	47.150	5.307	58.390	-14.796	31.579	67.583	-15.848	-10.172	98.227	59.673	-11.984	-8.329	-6.789	-2.039	276.064	-5.048	-8191	255	
5527.908	1	1	0	0	0.10204	0.027042	0.1938	0.18846	0.088784	0.0044297	0.21894	0.043599	0.43964	0.17736	0.20318	0.11185	0.081037	0.10116	0.096366	0.25972	-2.4	-3.1042	-2.5875	-3.075	-2.9083	-2.8167	-3.2062	-2.5833	-2.9167	-3.2833	-2.5875	-3.0708	-3.0292	-2.95	-3.0542	-2.8792	-25.314	17.873	183.782	120.604	243.033	124.493	263.251	229.570	176.346	177.395	57.566	256.895	13.317	277.441	298.278	-11.534	0.00032088	0.00042143	0.00021532	479.36	1.9152e-06	8.2013e-06	620.74	157.79	5.217e-07	5.2764e-06	233.7	73.056	44.835	17.287	5.7263e-06	31.577	0.0038662	0.0071887	0.0019898	464.03	6.7e-05	7.9582e-05	595.68	152.83	6.5521e-05	8.1098e-05	227.56	71.639	44.688	17.241	7.0369e-05	30.955	65.892	48.893	106.321	-14.586	-3.251	199.946	-15.432	-9.697	297.591	70.082	-11.871	-7.838	-6.395	-2.138	114.265	-4.295	-8191	255	
5528.004	1	1	0	0	0.24523	0.11105	0.32319	0.13436	0.28286	0.13876	0.048583	0.1447	0.077771	0.11644	0.089898	0.10808	0.031793	0.13472	0.10098	0.15142	-2.5833	-3.1375	-2.6583	-3.1125	-3.0667	-2.8458	-3.2479	-2.8729	-3.0083	-3.2167	-2.7521	-2.9437	-2.8125	-2.7667	-3.0312	-2.9	6.830	267.702	8.035	69.117	251.025	248.718	254.980	-17.883	-26.752	195.963	-21.045	80.420	176.789	127.201	321.145	297.836	0.00033472	0.00019549	0.0001063	480.33	5.8748e-06	1.9959e-06	619.85	158.17	3.3619e-06	2.018e-06	234.02	72.888	44.777	17.054	5.479e-06	31.168	0.0038947	0.0071428	0.0019897	464.18	6.7767e-05	8.0435e-05	593.85	152.93	6.5361e-05	8.115e-05	226.77	71.216	44.469	17.102	7.1382e-05	30.558	26.023	3.963	52.367	-14.502	91.539	169.365	-15.893	-9.980	181.483	79.011	-11.765	-8.302	-6.043	-2.160	88.120	-4.707	-8191	255	
5528.098	1	1	0	0	0.23326	0.072443	0.066297	0.16488	0.084815	0.17133	0.22686	0.17343	0.12989	0.13471	0.088972	0.043448	0.045323	0.1869	0.15933	0.16763	-2.325	-3.1688	-2.7625	-3.1708	-3.0083	-2.6146	-3.2417	-2.7729	-2.7958	-3.1562	-2.7104	-2.9979	-3.0146	-2.6333	-3.1604	-2.6896	123.460	24.687	-15.919	18.259	-3.944	80.765	213.882	34.731	293.634	4.609	101.977	312.004	15.871	280.897	167.922	-11.310	0.00028283	0.000537	0.000126	474.21	3.7157e-06	6.9654e-06	617.15	156.2	3.4735e-06	4.5684e-06	232.25	72.052	44.413	16.914	2.3492e-06	30.891	0.0038887	0.0070246	0.0019923	459.91	6.7024e-05	8.0705e-05	590.91	151.26	6.6216e-05	8.0555e-05	224.61	70.669	44.19	16.943	7.0783e-05	30.44	9.859	-27.173	84.420	-14.603	100.995	144.179	-15.804	-10.286	200.941	27.890	-11.804	-8.153	-6.164	-2.180	25.053	-4.820	-8191	255	
5528.172	1	1	0	0	0.066712	0.12864	0.31142	0.21961	0.24614	0.16547	0.070958	0.082257	0.15989	0.1811	0.13659	0.14362	0.089719	0.20365	0.31993	0.25742	-2.375	-2.8812	-2.6437	-2.9146	-3.0167	-2.7021	-3.0646	-2.8604	-2.7542	-3.2479	-2.7583	-2.9042	-3.0292	-2.5292	-3.0062	-2.9417	-23.524	112.532	258.306	313.871	292.111	131.669	315.029	265.821	-20.243	301.444	-0.778	242.113	209.237	18.535	244.831	299.939	0.00031781	0.00044644	0.00014313	475.65	2.7751e-06	2.7543e-06	613.3	155.86	6.6035e-06	1.8407e-06	230.7	71.946	44.219	17.126	4.8636e-06	31.423	0.0039446	0.0070627	0.0019736	459.77	6.811e-05	8.0515e-05	589.62	151.09	6.6343e-05	7.8503e-05	225.06	70.604	43.984	17.042	6.9922e-05	30.765	27.813	56.530	102.313	-14.287	246.831	79.314	-15.502	-10.091	161.959	62.679	-12.265	-8.073	-6.548	-1.965	45.960	-4.804	-8191	255	
5528.291	1	1	0	0	0.042625	0.30532	0.29854	0.34365	0.06718	0.34979	0.086467	0.068502	0.077288	0.065859	0.11022	0.1134	0.18887	0.041765	0.16157	0.04274	-2.2854	-2.8375	-2.7708	-2.8812	-3.1354	-2.7875	-3.2875	-3.0187	-2.6833	-3.1188	-2.8854	-2.925	-3.1458	-2.8104	-3.0417	-2.9646	3.411	34.908	67.497	38.054	261.613	45.137	318.547	203.424	244.129	234.978	150.062	89.089	287.582	40.720	264.927	243.393	0.00040683	0.00035211	0.00012834	472.82	4.3851e-06	5.4823e-06	619.44	155.43	2.3138e-06	6.9649e-06	232.75	73.118	44.385	17.217	3.2523e-06	31.59	0.0038957	0.0069702	0.0019768	455.43	6.7471e-05	7.989e-05	590.26	150.8	6.7524e-05	8.0677e-05	225.91	71.295	44.081	17.202	7.1154e-05	31.101	44.252	144.618	96.519	-14.524	50.544	127.097	-15.655	-9.954	251.464	125.543	-11.870	-8.310	-5.913	-1.765	139.066	-5.052	-8191	255	
5528.387	1	1	0	0	0.22941	0.10514	0.097349	0.22854	0.12329	0.16468	0.28383	0.17563	0.21052	0.15555	0.28401	0.31709	0.073077	0.13332	0.146	0.26361	-2.2208	-3.0833	-2.9333	-2.8625	-3.3	-2.5771	-3.0271	-3.1583	-2.5833	-3.1729	-2.9396	-2.7	-3.0208	-2.6771	-3.0312	-3.1271	55.220	180.825	277.300	-4.333	184.444	16.384	247.893	208.542	90.492	123.499	292.352	277.000	162.831	228.844	242.643	278.241	0.00031594	0.00062607	0.0002355	472.81	5.6546e-06	3.0703e-06	619.62	155.97	3.903e-06	5.0749e-06	232.75	72.747	43.88	17.167	4.6865e-06	31.401	0.0038942	0.0070656	0.0020129	457.63	6.7297e-05	7.9352e-05	590.67	151.02	6.5246e-05	7.7526e-05	225.78	70.995	43.778	17.101	6.9322e-05	30.863	59.313	-2.036	20.684	-14.552	69.220	136.715	-15.743	-10.345	122.745	54.039	-12.107	-8.029	-6.616	-2.494	100.240	-5.110	-8191	255	
5528.483	1	1	0	0	0.18101	0.13111	0.098266	0.26084	0.19338	0.2154	0.10036	0.11048	0.36715	0.020191	0.061557	0.14557	0.056162	0.060045	0.059787	0.17019	-2.1604	-2.9458	-2.6708	-2.7271	-3.2375	-2.7375	-2.9688	-3.0896	-2.7	-3.2083	-3.0479	-2.5938	-2.9396	-2.6792	-2.8563	-3.0917	36.982	38.343	221.463	152.114	212.592	43.989	242.539	329.261	13.991	39.956	52.695	19.310	-18.707	21.994	293.868	265.568	0.00045893	0.00010041	0.0001595	472.89	7.8191e-06	1.2093e-05	616.7	155.67	7.5774e-06	4.4447e-06	232.43	72.14	44.26	17.235	6.6913e-06	31.513	0.0037561	0.0067649	0.0019422	456.76	6.4219e-05	7.616e-05	588.32	150.2	6.2054e-05	7.7164e-05	224.96	70.498	43.989	17.115	6.8864e-05	30.806	64.729	59.638	-11.455	-15.004	-15.504	85.929	-15.784	-10.182	-20.154	128.306	-12.229	-7.735	-5.910	-2.016	181.521	-4.508	-8191	255	
5528.604	1	1	0	0	0.21567	0.091005	0.2297	0.21044	0.21766	0.14404	0.21996	0.17267	0.27158	0.066336	0.091204	0.020622	0.1639	0.15646	0.04144	0.29228	-2.1021	-2.9292	-3.0896	-2.6312	-3.2583	-2.7271	-2.8063	-3.025	-2.7062	-2.9854	-2.7729	-2.7583	-3.2208	-2.8396	-2.7583	-3.0979	188.472	225.850	79.926	292.504	-18.253	20.550	262.408	9.002	53.459	312.022	263.607	71.644	66.963	266.550	73.461	50.564	0.00033162	0.00047253	0.00012692	474.2	6.8835e-06	6.9855e-06	620.1	156.5	4.8874e-06	2.8685e-06	233.62	72.848	44.623	17.229	6.9776e-06	31.266	0.0037496	0.0067429	0.0019367	457.75	6.3523e-05	7.6896e-05	592.16	151.23	6.2466e-05	7.5537e-05	226.04	70.685	44.083	17.075	6.7981e-05	30.617	55.465	80.864	82.402	-14.423	95.468	148.216	-15.458	-10.203	218.184	163.225	-11.862	-7.815	-5.896	-2.020	79.769	-4.721	-8191	255	
5528.700	1	1	0	0	0.085619	0.12257	0.097137	0.13457	0.046423	0.21771	0.083075	0.245	0.066764	0.12403	0.035373	0.064368	0.19387	0.20782	0.30731	0.060285	-2.35	-3.0833	-3.0917	-2.7042	-3.1188	-2.8542	-2.8167	-3.1583	-2.9354	-3.0708	-3.2292	-2.9417	-3.0542	-2.9542	-2.7667	-3.1625	116.190	5.949	236.587	-27.697	-24.420	214.986	31.662	218.409	119.994	-20.336	27.713	284.777	62.550	133.659	108.026	297.275	0.00043967	0.00083439	8.9902e-05	471.84	7.3004e-06	4.8671e-06	624.58	157.77	1.2116e-05	1.068e-05	235.6	72.796	44.791	17.226	6.217e-06	31.302	0.0037124	0.0067414	0.0019169	460.22	6.4329e-05	7.6768e-05	595.66	152.02	6.2993e-05	7.8021e-05	227.14	71.18	44.276	17.136	6.8093e-05	30.661	58.412	76.813	-20.412	-14.513	152.435	91.137	-15.509	-10.162	99.511	87.353	-12.295	-8.132	-6.336	-2.041	159.805	-5.104	-8191	255	
5528.771	1	1	0	0	0.12627	0.044113	0.3306	0.1615	0.2425	0.22058	0.12983	0.13819	0.059223	0.21457	0.087937	0.25819	0.11555	0.16846	0.19464	0.16659	-2.3563	-2.9083	-3.0042	-2.8417	-3.0583	-3.1604	-2.8146	-3.2313	-2.6479	-2.8583	-3.1562	-2.5792	-3.0479	-2.9542	-2.7458	-3.1063	78.058	103.447	309.903	23.658	236.595	131.153	129.796	149.074	87.458	84.729	329.908	239.500	265.909	23.573	313.002	116.360	0.00028125	0.00055606	0.00021033	483.19	6.8033e-06	3.5519e-06	622.71	157.22	5.4503e-06	3.8131e-06	233.99	72.457	44.158	16.896	3.4989e-06	30.762	0.003778	0.0068254	0.0019255	465.94	6.3093e-05	7.653e-05	597.45	152.75	6.375e-05	7.7737e-05	226.48	70.665	43.992	16.899	6.7611e-05	30.261	97.118	91.198	68.898	-14.488	124.659	23.473	-15.776	-10.014	157.350	129.375	-11.873	-8.228	-6.651	-1.886	33.463	-4.660	-8191	255	
5528.892	1	1	0	0	0.1583	0.14041	0.087956	0.15575	0.26159	0.11705	0.14134	0.13663	0.083476	0.22398	0.21051	0.077792	0.11776	0.089057	0.16334	0.30817	-2.2646	-2.7917	-3.0583	-2.8	-3.0667	-2.9	-2.6042	-2.9771	-2.9646	-2.6896	-3.2646	-2.8104	-2.9562	-3.0417	-2.6771	-3.1542	306.406	278.591	36.163	323.020	59.566	16.266	121.421	93.751	258.495	313.540	229.484	2.114	229.521	245.437	169.346	191.077	0.00035016	0.00027121	0.00011212	479.41	9.7478e-06	6.977e-06	623.26	157.01	1.0064e-05	1.8442e-06	232.2	71.446	44.415	17.066	6.7207e-06	30.466	0.0037141	0.0068576	0.0019327	462.47	6.2812e-05	7.6665e-05	594.78	151.94	6.2588e-05	7.6423e-05	225.13	69.915	43.92	16.871	6.675e-05	30.001	71.815	180.228	317.561	-14.536	133.238	113.245	-16.010	-10.328	195.090	223.698	-11.825	-8.249	-6.178	-2.423	166.074	-4.799	-8191	255	
5528.988	1	1	0	0	0.10309	0.11299	0.15628	0.040899	0.19567	0.19802	0.30953	0.248	0.16649	0.14334	0.066269	0.13888	0.12112	0.04782	0.084385	0.15316	-2.6583	-2.6104	-3.1479	-2.6688	-3.0333	-3.1583	-2.7208	-3.0187	-2.9938	-2.8187	-3.1833	-2.7979	-2.8417	-3.0167	-2.5958	-2.9813	203.636	207.593	-12.637	130.358	208.926	164.410	197.147	215.835	83.762	261.261	240.604	148.008	320.681	126.124	84.484	329.490	0.00032977	0.00071218	0.0001722	482.39	5.8519e-06	3.5919e-06	623.52	158.05	3.0769e-06	4.5095e-06	231.72	71.904	44.311	16.961	6.7924e-06	30.798	0.0037076	0.0067332	0.0018875	465.36	6.3606e-05	7.6552e-05	597.48	152.71	6.3728e-05	7.678e-05	225.44	70.05	44.131	16.816	6.6973e-05	30.057	19.814	96.887	66.239	-14.507	171.694	274.223	-15.326	-10.183	92.076	176.358	-12.087	-8.418	-6.661	-2.364	167.909	-5.251	-8191	255	
5529.084	1	1	0	0	0.10605	0.17652	0.034083	0.097604	0.035261	0.11945	0.11904	0.070003	0.23623	0.15	0.097397	0.14005	0.21082	0.13161	0.094748	0.14342	-2.5312	-2.6604	-3.0208	-2.95	-2.7167	-3.1104	-2.7292	-3.0625	-3.1458	-2.7792	-3.2542	-2.9562	-2.8396	-3.1729	-2.7354	-3.1229	-5.569	140.334	234.719	149.973	93.674	129.076	330.788	-0.849	310.061	261.154	303.428	158.187	280.704	36.078	34.862	-9.484	0.00022646	0.00048704	0.00016761	480.33	3.9988e-06	4.3489e-06	625.88	157.96	2.4032e-06	2.4338e-06	233.54	72.515	44.281	16.946	1.0573e-06	31.028	0.0037098	0.0067538	0.0019047	464.84	6.3066e-05	7.658e-05	598.34	152.82	6.292e-05	7.6032e-05	226.01	70.603	44.156	16.853	6.6512e-05	30.33	35.975	48.776	87.583	-14.405	133.861	98.004	-15.628	-10.353	319.668	148.876	-12.156	-8.316	-6.303	-2.713	132.355	-4.998	-8191	255	
5529.203	1	1	0	0	0.16705	0.078833	0.227	0.20445	0.16028	0.28585	0.21892	0.063362	0.075858	0.026049	0.065772	0.21989	0.25353	0.052892	0.10611	0.13256	-2.5625	-2.6458	-3.1521	-3.0563	-2.8083	-3.0771	-2.7333	-3.0042	-3.0312	-2.7062	-3.1167	-2.8875	-2.3917	-2.9542	-2.7292	-2.9813	323.518	225.867	119.849	185.076	151.798	69.155	247.251	95.640	285.483	9.278	-11.018	287.664	98.392	61.195	60.284	276.035	0.00031475	0.0001022	0.00015336	481.85	1.1258e-05	7.2412e-06	629.09	157.74	1.2289e-05	2.2984e-06	231.92	72.36	44.368	16.88	1.1602e-05	30.496	0.0036913	0.0066209	0.0018476	465.82	6.3145e-05	7.4885e-05	600.37	152.75	6.0734e-05	7.4208e-05	225.36	70.279	44.025	16.787	6.6637e-05	29.883	40.377	270.871	94.232	-14.440	109.739	181.763	-15.991	-10.144	121.582	319.636	-12.311	-8.183	-6.544	-2.238	72.152	-5.124	-8191	255	
5529.299	1	1	0	0	0.15165	0.20597	0.10269	0.060367	0.28227	0.067917	0.11048	0.20005	0.053119	0.05645	0.17221	0.12251	0.13	0.11432	0.061276	0.29073	-2.5917	-2.6688	-3.0771	-2.9292	-2.8167	-2.95	-2.9125	-2.7229	-3.1333	-2.9021	-3.1917	-2.8667	-2.6958	-3.1521	-2.7687	-2.9104	58.230	22.881	155.213	139.246	52.001	246.323	211.592	184.515	233.527	222.540	316.963	306.548	308.646	40.557	88.170	271.649	0.00022418	0.00029105	8.0253e-05	485.29	3.627e-06	8.7822e-06	630.15	158.4	5.0086e-07	2.1396e-06	233.12	72.289	44.182	16.824	4.1857e-06	30.35	0.0036481	0.0066423	0.0018658	468.03	6.2273e-05	7.3821e-05	598.84	153.44	6.0597e-05	7.3278e-05	225.27	70.086	43.982	16.715	6.5357e-05	29.661	33.134	54.413	44.425	-14.786	63.564	83.903	-15.729	-9.871	-27.181	121.882	-11.899	-7.837	-6.203	-2.099	163.684	-4.895	-8191	255	
5529.395	1	1	0	0	0.24975	0.28336	0.13143	0.23935	0.080039	0.076772	0.050643	0.10209	0.13093	0.12193	0.2433	0.23309	0.33267	0.25087	0.23909	0.056913	-2.6542	-2.6813	-2.9667	-3.0271	-2.6312	-3.0875	-2.9375	-2.7667	-3.1708	-2.9354	-3.0729	-2.9375	-2.7062	-3.0375	-2.9229	-2.7229	150.187	36.724	163.381	219.165	-8.303	326.535	250.889	-27.715	320.448	309.160	238.287	247.685	288.585	227.674	92.609	-6.488	0.00051151	0.00056801	9.3738e-05	489.1	1.2935e-05	3.501e-07	632.52	159.94	1.3394e-05	3.524e-06	234.82	72.204	44.795	16.711	1.5386e-06	29.971	0.0035817	0.0063923	0.00178	471.52	6.0513e-05	7.2355e-05	603.93	154.65	5.9997e-05	7.2734e-05	226.59	70.139	44.433	16.63	6.5204e-05	29.442	26.000	73.552	80.662	-14.220	137.664	48.083	-15.707	-10.226	172.240	52.437	-12.020	-8.448	-6.607	-2.179	160.875	-5.081	-8191	255	
5529.467	1	1	0	0	0.16537	0.19427	0.14188	0.44719	0.21612	0.21418	0.081193	0.075551	0.16241	0.075167	0.18141	0.15523	0.1445	0.06936	0.083703	0.16488	-2.6458	-2.6063	-3	-2.9021	-2.3187	-3.1979	-2.9354	-2.6688	-3.2083	-2.9125	-2.8021	-3.1188	-2.675	-2.9333	-3.0042	-2.7812	40.451	269.100	170.768	278.230	65.014	154.938	16.806	299.767	319.082	115.452	291.175	320.756	247.126	-27.508	73.631	-25.579	0.00023495	0.00061259	4.3597e-05	497.62	8.9465e-06	5.6588e-06	640.39	162.8	3.2277e-06	2.5801e-06	237.26	72.626	46.051	16.636	3.6187e-06	29.726	0.0036137	0.0065216	0.0018322	478.34	6.2236e-05	7.2927e-05	613.38	157.41	6.0659e-05	7.5262e-05	229.33	71.006	45.423	16.556	6.7354e-05	29.24	49.452	64.088	184.059	-14.659	83.045	186.853	-15.640	-10.234	105.870	179.603	-12.452	-8.422	-6.686	-2.649	222.845	-4.454	-8191	255	
5529.563	1	1	0	0	0.096513	0.062558	0.16474	0.13571	0.13045	0.13656	0.32712	0.24009	0.017679	0.30292	0.3006	0.20838	0.12426	0.20125	0.31855	0.2782	-2.7833	-2.7167	-2.9	-3.0729	-2.5812	-3.1792	-3.0083	-2.5354	-3.1021	-2.8625	-2.8563	-3.2833	-2.8104	-2.9437	-3.0646	-2.8542	224.297	316.911	323.778	64.961	102.418	227.769	-25.518	240.247	327.191	119.743	225.168	325.168	315.869	97.405	216.163	192.521	0.0003158	0.00041483	0.0002768	505.81	3.1139e-06	2.3491e-06	655.34	165.96	7.3589e-06	6.1214e-06	238.21	73.993	47.053	16.622	5.7181e-06	29.301	0.0035779	0.0067028	0.0018593	490.04	6.2165e-05	7.4081e-05	625.52	161.09	6.1687e-05	7.5949e-05	232.59	72.009	46.537	16.498	6.6606e-05	28.645	13.702	53.727	27.203	-14.830	186.494	146.274	-15.879	-10.501	246.409	63.775	-12.523	-8.836	-7.114	-2.368	70.810	-5.447	-8191	255	
5529.684	1	1	0	0	0.10949	0.062553	0.17732	0.10938	0.10671	0.18343	0.043351	0.19472	0.16642	0.11323	0.045035	0.13582	0.20365	0.12189	0.20867	0.016659	-2.7604	-2.7979	-2.7687	-3.2271	-2.7667	-3.0521	-3.1104	-2.6896	-3.0375	-2.9708	-2.8646	-3.2167	-2.875	-2.9938	-3.0604	-2.625	314.666	86.066	255.638	12.204	13.398	180.394	-2.944	272.201	119.205	308.964	278.494	46.748	95.333	55.751	214.847	-10.432	0.00053164	0.00018533	0.00015608	516.64	5.1108e-06	8.5466e-06	659.89	168.66	3.9565e-06	1.3193e-06	241.4	73.908	48.154	16.375	9.0262e-06	28.542	0.0035992	0.0065441	0.0018855	496.95	6.1983e-05	7.3408e-05	631.16	163.03	6.0982e-05	7.5597e-05	233.73	71.927	47.387	16.239	6.6334e-05	28.144	34.754	328.970	34.941	-14.767	108.816	123.079	-16.055	-10.590	311.523	83.772	-12.403	-8.969	-7.280	-2.393	57.890	-4.808	-8191	255	
5529.780	1	1	0	0	0.19886	0.21929	0.026564	0.24531	0.10002	0.045186	0.12043	0.21654	0.038172	0.087432	0.066427	0.14463	0.35872	0.12544	0.16265	0.29984	-2.5229	-2.8708	-2.6208	-3.1188	-2.7667	-2.8812	-3.2229	-2.7812	-3.0125	-2.8917	-2.8042	-3.1312	-2.8917	-3.0333	-3.1896	-2.7625	-16.987	173.111	154.914	5.025	330.996	124.203	82.750	-24.565	-28.565	267.176	63.258	238.700	294.403	66.399	39.191	190.755	0.00041717	0.00048421	0.00012356	527.77	7.2844e-06	6.725e-06	671.34	171.03	1.3698e-05	5.5924e-06	244.24	74.753	47.678	16.39	4.7353e-06	28.529	0.0035872	0.0065564	0.0018432	507.47	6.2282e-05	7.4162e-05	642.55	165.41	6.0768e-05	7.5064e-05	235.68	72.487	47.324	16.27	6.504e-05	28.017	52.605	31.800	57.801	-14.722	163.940	56.390	-16.045	-10.595	228.053	129.085	-12.387	-8.891	-6.902	-2.834	112.447	-4.989	-8191	255	
5529.876	1	1	0	0	0.13154	0.09599	0.19734	0.23601	0.012022	0.14397	0.09886	0.19773	0.064821	0.2099	0.059211	0.038733	0.15494	0.21134	0.15345	0.21487	-2.6854	-2.825	-2.475	-3.0708	-2.8021	-2.7708	-3.1646	-2.7896	-3.0104	-3.2104	-2.8542	-2.9854	-2.7833	-2.9083	-3.175	-2.7604	203.619	108.967	327.483	-12.176	191.516	3.773	316.353	317.742	5.660	245.003	112.844	158.287	230.991	242.084	37.621	295.386	0.00036566	0.00035342	7.8765e-05	524.84	4.2485e-06	1.6339e-06	673.47	171.25	3.2452e-06	1.4313e-06	242.31	74.326	48.483	16.282	2.5356e-06	28.772	0.003642	0.0065968	0.0018669	506.38	6.3667e-05	7.5065e-05	640.45	165.14	6.2089e-05	7.479e-05	235.37	72.325	47.754	16.289	6.4216e-05	28.149	68.217	110.174	149.603	-14.815	-13.017	92.682	-15.933	-10.829	80.071	47.318	-12.299	-8.913	-7.502	-3.088	175.549	-5.291	-8191	255	
5529.972	1	1	0	0	0.077797	0.1564	0.052783	0.10697	0.33098	0.11223	0.34141	0.2176	0.13969	0.15367	0.098561	0.089765	0.10266	0.33867	0.14025	0.29605	-2.5375	-3.0917	-2.7021	-3.175	-2.9125	-2.7438	-3.1917	-2.825	-2.8563	-3.1312	-2.7396	-3.1104	-3.0312	-2.7458	-3.2521	-2.8875	-0.148	132.921	129.997	274.508	79.740	232.121	256.617	279.878	40.664	189.493	-25.891	192.516	-1.219	-9.429	1.150	295.194	0.00029206	0.00041943	0.00019579	526.85	7.4578e-06	6.9137e-06	670.66	170.6	5.4347e-06	2.9844e-06	242.49	74.231	47.855	16.269	8.1445e-06	28.316	0.0035696	0.0065801	0.0018271	507.83	6.1201e-05	7.2301e-05	640.11	165	5.9496e-05	7.3937e-05	233.61	71.907	47.213	16.15	6.5004e-05	27.732	53.642	98.256	69.618	-14.925	82.752	190.016	-16.098	-10.875	172.637	143.669	-12.852	-9.332	-7.283	-2.720	66.978	-5.180	-8191	255	
5530.069	1	1	0	0	0.19007	0.13175	0.087122	0.15793	0.19318	0.28557	0.043166	0.15221	0.063545	0.060649	0.044192	0.28182	0.13694	0.19283	0.18573	0.29739	-2.4958	-3.1333	-2.5625	-2.9146	-2.8187	-2.8937	-3.2625	-2.9583	-2.8417	-3.2271	-2.7542	-2.8333	-2.8833	-2.7542	-3.1167	-2.8438	172.027	171.430	221.845	265.232	224.776	181.987	300.628	52.097	266.734	278.500	294.073	309.449	31.991	50.417	139.032	311.629	0.00028208	0.00041049	0.00013115	532.97	5.5889e-06	4.5243e-06	675.46	172.07	9.7e-06	2.0753e-06	241.27	74.503	48.539	16.082	4.5944e-06	27.662	0.0035525	0.0065437	0.0018118	511.88	6.1278e-05	7.2979e-05	643.42	166	6.0399e-05	7.3034e-05	234.03	72.277	47.983	15.993	6.3694e-05	27.423	56.674	59.156	74.692	-15.016	80.994	115.451	-15.911	-10.743	126.414	1.994	-12.822	-9.166	-7.441	-2.421	62.109	-5.008	-8191	255	
5530.165	1	1	0	0	0.11192	0.15253	0.077395	0.30312	0.12507	0.2679	0.2256	0.18789	0.08894	0.13593	0.082868	0.098929	0.32497	0.19405	0.17703	0.14854	-2.2875	-3.0563	-2.7333	-2.9542	-3.0271	-2.6083	-3.3937	-3.0667	-2.7333	-3.2104	-2.7812	-3.0812	-3.0938	-2.7229	-3.3083	-2.8854	47.659	59.167	76.555	226.015	73.916	-5.169	258.818	311.338	220.702	-16.227	204.958	290.777	-24.542	272.041	320.033	271.926	0.00027436	0.00032848	4.6887e-05	531.84	5.6466e-06	6.815e-06	671.46	171.13	1.6742e-06	5.1894e-06	239.89	73.694	47.474	16.118	5.0508e-06	27.96	0.0035051	0.006375	0.0018076	511	6.0472e-05	7.276e-05	639.62	165.02	5.901e-05	7.1255e-05	232.51	71.585	47.058	15.993	6.3236e-05	27.487	60.335	250.230	54.085	-14.963	190.513	48.539	-16.226	-10.711	315.117	85.367	-12.507	-9.174	-7.363	-2.138	127.622	-4.736	-8191	255	
5530.284	1	1	0	0	0.22897	0.21109	0.15741	0.2337	0.072177	0.13921	0.042662	0.32342	0.18221	0.12522	0.17354	0.15138	0.072102	0.054283	0.098561	0.13842	-2.5021	-3.1542	-2.8042	-2.925	-3.0542	-2.8271	-3.0958	-3.0938	-2.7521	-3.2854	-2.7708	-2.975	-3.0687	-2.8937	-2.875	-2.8896	-3.694	93.908	-9.066	200.994	86.413	295.236	155.463	261.881	24.461	308.282	272.711	252.088	321.230	247.773	63.981	130.267	0.000366	0.0007965	0.00020779	524.43	4.0417e-06	2.5821e-06	666.55	168.59	7.6322e-06	1.1521e-06	238.82	72.785	47.525	16.055	4.5257e-06	27.868	0.003413	0.0062136	0.0017694	504.59	5.7979e-05	7.0731e-05	633.71	163.24	5.7664e-05	6.9384e-05	231.05	70.801	46.775	15.915	6.011e-05	27.331	46.545	17.690	172.188	-14.478	75.479	313.058	-15.873	-10.775	124.848	249.400	-12.523	-9.167	-7.467	-2.665	128.950	-5.152	-8191	255	
5530.380	1	1	0	0	0.12736	0.25753	0.18563	0.22621	0.21611	0.055014	0.24791	0.23371	0.053032	0.22034	0.19378	0.21495	0.38373	0.24785	0.19756	0.045022	-2.3187	-3.1937	-2.8042	-2.9604	-3.1708	-2.9208	-2.9813	-2.925	-2.7812	-3.1458	-2.9938	-2.9021	-3.2833	-2.6	-2.9792	-2.9646	227.738	180.557	274.937	85.782	255.524	72.974	294.394	14.841	218.862	170.084	51.668	314.622	-3.120	264.417	279.057	78.256	0.00017175	0.00026611	0.00013622	526.98	9.642e-06	3.5042e-06	661.22	167.79	3.2277e-06	3.2377e-06	236.29	71.741	47.362	15.885	6.7423e-06	27.501	0.003362	0.0059987	0.0017149	504.96	5.696e-05	6.8202e-05	630.09	162.62	5.5353e-05	6.7021e-05	228.27	69.965	46.414	15.759	5.9437e-05	26.904	21.310	13.718	120.796	-14.413	122.896	179.107	-16.134	-10.667	180.971	174.986	-13.001	-8.897	-7.014	-3.030	172.546	-4.926	-8191	255	
5530.476	1	1	0	0	0.079875	0.095122	0.10854	0.12496	0.14223	0.075555	0.25417	0.22166	0.24384	0.36328	0.047032	0.015177	0.089865	0.17049	0.18745	0.33404	-2.1125	-3.0583	-2.8021	-2.9125	-3.0396	-2.7396	-2.9083	-3.1604	-2.7646	-3.1792	-2.9958	-2.7917	-3.175	-2.9188	-2.9083	-3.3458	174.301	1.350	152.698	299.538	29.917	308.713	178.233	206.060	41.034	314.931	241.624	213.970	29.679	198.079	172.487	293.419	0.00026253	0.00068154	0.00021765	522.61	4.3352e-06	2.1773e-06	657.4	167.67	1.6718e-05	7.2089e-06	234.72	71.651	47.107	15.781	1.0253e-05	27.379	0.0032303	0.0058466	0.0016964	500.83	5.5701e-05	6.6701e-05	624.62	161.64	5.6023e-05	6.6834e-05	227	69.484	46.028	15.649	5.9487e-05	26.698	64.934	275.431	22.596	-14.907	126.792	152.141	-16.093	-10.919	102.650	154.256	-12.362	-9.192	-7.366	-2.413	124.587	-5.048	-8191	255	
5530.572	1	1	0	0	0.22149	0.16219	0.0039892	0.14966	0.17731	0.11803	0.31369	0.13987	0.0081566	0.11981	0.23065	0.13154	0.043224	0.096424	0.34175	0.0843	-2.1896	-3.0625	-2.8875	-2.8417	-3.1354	-2.9792	-2.8333	-3.1312	-2.8917	-3.0042	-3.2354	-2.6417	-3.0896	-2.9	-2.7125	-3.0792	237.079	306.400	-10.547	305.786	292.574	151.053	0.942	174.584	101.136	284.360	153.070	139.677	208.883	177.133	196.525	215.030	0.00035405	0.00050801	9.7616e-05	526.9	1.0462e-05	2.5465e-06	661.63	169.01	9.1752e-06	2.5433e-06	236.68	72.011	47.289	15.762	2.265e-06	27.684	0.0033035	0.0059099	0.0016979	503.07	5.7154e-05	6.8395e-05	627.73	162.19	5.6051e-05	6.8802e-05	228.33	69.975	46.439	15.729	6.0804e-05	26.95	10.211	63.217	34.301	-14.772	70.252	99.886	-15.827	-10.409	256.566	105.636	-12.725	-8.858	-7.110	-2.586	72.764	-4.879	-8191	255	
5530.693	1	1	0	0	0.064548	0.048086	0.32424	0.18374	0.21998	0.25948	0.20631	0.2871	0.16906	0.10412	0.33484	0.31074	0.14415	0.11602	0.075752	0.13525	-2.3146	-2.7188	-2.8979	-2.4958	-2.9917	-2.8063	-2.6583	-3.0104	-2.8812	-3.1917	-3.1167	-2.6708	-3.1188	-2.9417	-2.6708	-3.2417	312.548	88.099	248.621	180.873	237.498	48.492	313.314	217.039	274.911	7.907	229.293	329.869	314.878	214.043	12.674	198.816	0.00029646	0.00085228	0.00018479	522.1	4.9479e-06	1.1028e-06	656.79	168.41	6.7311e-06	3.7397e-06	236.15	71.879	47.161	15.978	5.6456e-06	27.72	0.0032914	0.0059552	0.0017185	501.91	5.5881e-05	6.8966e-05	625.77	161.95	5.5343e-05	7.0108e-05	227.93	69.945	46.205	15.815	6.0364e-05	27.2	44.709	65.869	74.298	-14.749	79.923	17.361	-15.887	-10.314	145.978	82.153	-12.267	-8.879	-7.130	-2.158	102.993	-5.085	-8191	255	
5530.764	1	1	0	0	0.23122	0.10712	0.31503	0.52179	0.08228	0.3092	0.083563	0.15731	0.078598	0.17581	0.13857	0.26425	0.13184	0.14862	0.19387	0.17532	-2.1479	-2.7604	-3.1188	-2.7521	-2.9562	-2.9688	-2.7021	-2.8854	-2.6688	-2.7771	-3.2083	-2.6854	-2.9583	-2.9958	-2.7458	-3.0687	241.469	277.470	135.265	300.782	280.263	203.281	165.475	305.215	206.055	201.382	298.677	-0.675	230.225	298.077	301.085	274.756	0.00018979	0.00038952	0.00014112	521.56	1.0151e-06	1.6237e-06	654.98	166.9	1.1489e-05	3.6261e-06	233.56	71.453	46.531	15.909	8.7716e-06	27.336	0.0033221	0.0060285	0.001738	498.82	5.6769e-05	6.7668e-05	623.95	161.03	5.6667e-05	6.8789e-05	226.88	69.591	45.917	15.799	6.0624e-05	26.949	22.244	52.864	47.951	-14.963	199.600	28.212	-15.593	-10.954	84.984	326.221	-12.612	-8.850	-7.178	-1.972	185.141	-4.857	-8191	255	
5530.885	1	1	0	0	0.18251	0.12136	0.1629	0.209	0.067644	0.32535	0.12084	0.29041	0.027654	0.093488	0.095288	0.2094	0.11044	0.19496	0.034799	0.1079	-2.2708	-2.5833	-3.0146	-2.6896	-2.8833	-2.975	-2.6979	-2.8958	-2.7771	-2.5896	-3.1021	-2.5479	-2.9792	-2.9188	-2.5979	-3.0021	38.587	326.068	267.870	124.915	90.686	230.413	276.441	267.497	329.134	253.348	230.980	6.424	202.593	315.391	182.966	62.143	0.00017918	0.00050651	0.00010408	517.18	6.6921e-06	4.3945e-06	652.1	165.83	1.0886e-05	5.1895e-06	230.86	71.298	46.358	15.786	3.855e-06	27.413	0.0033513	0.0060642	0.0016748	495.68	5.5849e-05	6.7522e-05	618.54	159.77	5.6406e-05	6.8868e-05	224.63	69.002	45.478	15.66	6.0424e-05	26.877	14.443	139.197	-0.947	-14.670	158.612	157.696	-15.713	-10.750	178.881	166.891	-12.464	-9.049	-6.805	-1.986	123.482	-5.457	-8191	255	
5530.981	1	1	0	0	0.09599	0.28282	0.32264	0.08701	0.25627	0.098229	0.07119	0.14132	0.07264	0.1672	0.21591	0.28288	0.098188	0.30486	0.15359	0.18195	-2.3312	-2.75	-3.1083	-2.7812	-2.8354	-3.0542	-2.7146	-3.0833	-2.95	-2.7479	-3.1333	-2.8646	-2.7562	-3.0417	-2.7146	-3.2208	312.494	305.672	315.800	7.580	151.768	10.715	-18.545	185.537	214.130	-24.536	-4.258	-6.389	151.782	206.169	153.066	-27.354	0.0002576	0.00021946	7.7136e-05	517.51	7.4408e-06	1.3402e-06	651.88	166.34	3.282e-06	2.4914e-06	234.51	71.125	46.322	15.757	6.7652e-06	27.356	0.0033072	0.0059573	0.0017008	495.9	5.6758e-05	6.8352e-05	619.82	160.39	5.6242e-05	6.8631e-05	226.54	69.329	45.765	15.736	6.0117e-05	26.929	47.308	29.287	30.264	-14.943	100.187	175.655	-15.924	-10.762	135.475	177.508	-12.527	-9.205	-7.219	-2.235	86.723	-4.870	-8191	255	
5531.075	1	1	0	0	0.12628	0.10605	0.056961	0.18209	0.29801	0.0099426	0.17504	0.12321	0.099096	0.14463	0.22773	0.10457	0.10253	0.20159	0.20351	0.21566	-2.4479	-2.625	-3.0812	-2.9083	-2.7667	-3.0187	-2.8063	-2.8417	-2.9625	-2.7167	-3.2479	-2.8917	-2.8229	-3.0083	-2.5479	-2.9833	136.500	286.811	91.540	9.013	259.874	94.684	229.750	199.892	101.343	88.249	270.992	-2.600	165.145	144.888	18.086	299.699	0.00021783	0.00022768	0.00012926	516.62	9.9016e-06	3.8237e-06	651.85	164.99	1.2144e-05	3.2683e-06	232.98	71.177	46.269	16.012	9.1554e-06	27.701	0.0033132	0.0061165	0.0017138	494.64	5.6834e-05	6.9341e-05	618.44	159.28	5.5837e-05	6.7299e-05	225.36	69.163	45.441	15.805	6e-05	27.223	46.999	178.828	132.153	-15.001	76.072	104.072	-16.257	-10.605	132.617	147.272	-12.557	-8.697	-6.883	-2.556	90.952	-5.056	-8191	255	
5531.172	1	1	0	0	0.015471	0.15762	0.24875	0.27326	0.02422	0.018737	0.20222	0.29941	0.045772	0.13679	0.10693	0.063708	0.39412	0.27407	0.15985	0.10107	-2.5146	-2.4167	-3.1354	-2.7583	-2.7583	-3.2062	-2.9896	-2.9646	-2.9708	-2.8312	-3.2479	-2.9417	-2.6979	-3.1958	-2.6354	-2.9583	134.262	168.347	-10.031	318.492	291.659	318.034	-1.527	224.154	183.655	27.241	266.348	186.098	296.489	5.916	195.267	81.182	0.00016782	0.00039974	0.00010883	506.91	5.6382e-06	4.8019e-06	642.1	165.03	1.0728e-05	4.8422e-06	233.17	70.263	45.698	15.871	4.6631e-06	27.537	0.0032975	0.0059166	0.001676	489.34	5.5824e-05	6.7083e-05	611.65	158.34	5.521e-05	6.6503e-05	224.16	68.461	45.032	15.733	5.8936e-05	27.017	-0.394	47.426	125.637	-14.604	328.597	66.779	-15.885	-10.540	93.822	214.919	-12.219	-8.439	-7.003	-2.422	116.183	-4.669	-8191	255	
5531.268	1	1	0	0	0.023966	0.058331	0.20673	0.16145	0.20655	0.072507	0.13866	0.14463	0.11996	0.3253	0.073129	0.075975	0.10931	0.10951	0.16717	0.19602	-2.6208	-2.7	-2.8646	-3.0687	-2.6958	-3.0625	-2.9062	-2.8521	-3.1417	-2.6437	-3.1875	-2.9292	-2.7313	-3.1521	-2.6354	-2.825	139.872	20.979	126.058	274.706	207.568	46.012	236.424	266.871	50.129	234.621	48.044	289.428	303.189	194.311	198.053	193.708	0.00026651	0.00067499	0.0002175	512.28	3.1707e-06	6.6798e-06	641.25	164.03	4.7714e-06	7.0201e-06	230.7	70.142	45.341	15.816	5.9386e-06	27.424	0.003275	0.0058475	0.0016344	488.51	5.5092e-05	6.5949e-05	607.83	157.88	5.4866e-05	6.7235e-05	222.31	68.033	44.757	15.688	5.8953e-05	26.881	58.648	76.728	68.997	-14.519	200.078	160.489	-16.091	-10.755	242.485	137.933	-12.626	-8.786	-7.146	-3.055	135.084	-5.093	-8191	255	
5531.364	1	1	0	0	0.078721	0.010984	0.10632	0.051296	0.11386	0.25449	0.2209	0.0761	0.13839	0.091002	0.17897	0.11602	0.069206	0.043181	0.096736	0.23415	-2.7375	-2.5812	-3.1042	-3.0167	-2.6604	-3.1083	-3.0229	-2.7104	-3.1083	-2.8771	-3.1021	-2.9646	-2.6146	-3.0708	-2.7125	-2.8521	66.190	294.489	298.369	269.168	290.863	13.381	190.856	139.008	112.505	211.744	255.676	11.432	147.869	165.877	45.623	175.686	0.0003538	0.00049695	3.9114e-05	504.7	1.4603e-06	5.4696e-06	635.74	163.95	9.6e-06	4.2352e-06	232.36	70.682	45.41	15.79	5.3972e-06	27.447	0.003235	0.0058094	0.001651	487.22	5.4437e-05	6.535e-05	608.67	157.75	5.5178e-05	6.6735e-05	223.3	68.507	45.044	15.704	5.8987e-05	26.939	33.965	166.808	47.275	-14.926	330.914	120.094	-16.215	-10.370	131.853	110.926	-12.096	-8.769	-6.676	-2.332	115.353	-4.724	-8191	255	
5531.460	1	1	0	0	0.19038	0.18162	0.31495	0.21216	0.25957	0.12174	0.19949	0.1139	0.12631	0.082678	0.34232	0.051556	0.037575	0.16643	0.17479	0.30814	-2.8812	-2.7646	-2.85	-3.0396	-2.6312	-3.0375	-3.0104	-2.7646	-3.1667	-2.9458	-3.1688	-3.1417	-2.7604	-3.0812	-3.0229	-2.8229	151.298	166.996	53.866	75.107	54.186	318.217	222.328	324.806	313.558	32.533	289.189	240.351	203.845	307.405	90.046	216.610	0.0003313	0.00017128	0.00014667	508.61	9.1433e-06	3.8653e-06	643.26	165.92	1.6846e-06	5.9941e-06	233.83	71.797	46.506	15.963	8.3576e-06	27.702	0.0032724	0.0058809	0.0016657	491.16	5.6495e-05	6.6468e-05	615.92	159.59	5.5838e-05	6.8429e-05	226.16	69.62	45.806	15.806	6.0689e-05	27.092	-5.654	94.180	95.341	-14.476	103.277	133.781	-15.667	-10.792	-21.481	84.773	-12.735	-9.299	-6.861	-2.547	97.556	-5.257	-8191	255	
5531.556	1	1	0	0	0.077128	0.19823	0.22532	0.15899	0.14301	0.079618	0.10441	0.2001	0.051168	0.11759	0.095488	0.1361	0.045923	0.38719	0.05339	0.12493	-2.6833	-2.7896	-2.8063	-3.1958	-2.8438	-3.2396	-3.1312	-2.7375	-3.1458	-2.7521	-2.8375	-3.2604	-2.6229	-3.025	-2.7896	-2.6	266.117	92.026	288.661	190.333	41.525	-20.691	260.428	4.086	252.274	227.281	201.609	6.111	224.174	300.200	208.572	239.495	0.00034463	0.00047893	0.00010978	515.77	2.8822e-06	4.5632e-06	647.74	166.45	1.5416e-05	3.1156e-06	233.55	71.034	46.048	15.772	4.6118e-06	27.075	0.0033371	0.0061295	0.0017161	497.22	5.86e-05	6.8648e-05	620.43	160.45	5.5541e-05	6.7939e-05	225.37	69.041	45.576	15.679	5.9629e-05	26.705	65.176	-0.820	147.453	-14.674	114.025	135.771	-16.538	-10.748	110.029	151.078	-12.319	-9.030	-7.282	-2.695	-25.402	-5.057	-8191	255	
5531.652	1	1	0	0	0.11381	0.23961	0.16069	0.085626	0.21534	0.11998	0.24741	0.12298	0.085198	0.096611	0.3212	0.26582	0.28631	0.20171	0.049118	0.22161	-2.675	-2.825	-2.8521	-3.2062	-2.7708	-2.9771	-2.9979	-2.8146	-3.0604	-2.9521	-2.7708	-3.1271	-2.9125	-3	-3.1396	-2.6854	-19.549	211.413	239.374	253.572	239.382	273.056	279.171	309.896	202.215	110.492	208.281	289.497	13.493	294.112	80.202	229.403	0.00035732	0.00094691	3.7628e-05	513.82	6.1472e-06	5.2065e-06	648.01	164.74	4.3891e-06	4.2609e-06	233.05	70.623	46.259	15.755	4.7731e-06	27.07	0.0032789	0.0060278	0.0017163	495.61	5.7457e-05	6.8699e-05	616.93	159.75	5.6262e-05	6.8886e-05	224.94	68.85	45.663	15.706	6.114e-05	26.632	60.116	111.071	102.732	-14.762	199.015	137.900	-16.007	-10.498	162.414	114.399	-12.371	-8.578	-7.476	-2.771	169.600	-4.923	-8191	255	
5531.773	1	1	0	0	0.1579	0.31264	0.20057	0.22187	0.19744	0.08855	0.33445	0.12543	0.33384	0.058707	0.14603	0.12205	0.18061	0.16252	0.23252	0.09968	-2.7875	-2.9708	-2.6042	-3.1312	-2.8271	-3.1479	-3.2125	-2.6167	-3.0583	-2.9021	-2.8292	-3.2542	-2.8292	-2.9479	-3.0604	-2.7021	272.747	5.960	-5.983	286.124	115.044	184.322	267.692	317.053	267.827	153.870	262.841	328.033	270.316	316.315	266.119	-13.600	0.00032451	0.00056976	0.00011488	520.93	6.2446e-06	4.5449e-06	650.58	165.32	3.105e-06	3.2316e-06	233.28	71.544	46.376	15.914	1.9582e-06	27.267	0.0033564	0.0061257	0.001737	499.32	5.872e-05	6.9551e-05	622.27	160.99	5.6439e-05	7.0565e-05	227.13	69.671	46.004	15.767	6.1687e-05	26.836	69.123	320.378	80.615	-14.875	121.107	123.208	-16.151	-10.582	115.774	67.045	-12.290	-9.148	-7.155	-2.695	164.956	-5.018	-8191	255	
5531.869	1	1	0	0	0.31349	0.13773	0.12789	0.37686	0.2014	0.15467	0.11992	0.19175	0.27777	0.054948	0.12809	0.22879	0.1376	0.30316	0.14259	0.10886	-2.5354	-2.9833	-2.7479	-3.3125	-2.8438	-2.9271	-3.1604	-2.6667	-3.1646	-3.0229	-2.7458	-3.3521	-2.8292	-2.8375	-3.1042	-2.8521	87.157	209.363	76.314	300.944	208.253	195.320	-17.411	252.355	-22.684	198.922	222.701	20.673	299.228	290.427	190.160	294.027	0.00019912	0.00013516	0.00023182	517	7.7162e-06	1.0673e-05	649.09	167.12	1.129e-05	1.3839e-06	233.54	71.854	46.644	16.062	9.1059e-07	27.455	0.0033715	0.0061576	0.0017386	497.53	5.9166e-05	7.078e-05	621.86	161.82	5.8612e-05	7.1222e-05	227.95	70.201	46.325	15.862	6.3972e-05	27.164	43.214	86.219	77.392	-14.479	110.298	116.826	-16.030	-10.587	193.237	-0.473	-12.628	-8.932	-7.805	-2.552	93.309	-5.055	-8191	255	
5531.965	1	1	0	0	0.07834	0.17077	0.088234	0.21999	0.092121	0.060185	0.20759	0.17961	0.079438	0.24947	0.29697	0.081674	0.15287	0.25125	0.053684	0.19194	-2.5333	-2.9625	-2.6625	-3.1604	-2.8833	-2.7583	-3.2625	-2.725	-2.8354	-3.1375	-2.6833	-3.0375	-3.1	-2.8063	-3.0938	-2.9062	283.956	291.855	204.655	20.765	249.892	269.352	239.535	-7.710	226.160	45.481	225.810	69.005	142.794	138.967	243.700	191.255	0.00029918	0.00024481	0.0001126	521.09	2.6261e-06	5.2865e-06	653.08	168.96	8.3239e-06	8.3521e-06	237.07	71.837	47.104	15.949	4.5141e-06	27.539	0.0034973	0.0063838	0.0017655	501.22	6.0583e-05	7.1663e-05	625.58	162.53	5.9093e-05	7.1625e-05	229.33	70.323	46.551	15.884	6.3457e-05	27.041	71.447	146.817	27.435	-15.031	50.731	31.596	-15.992	-10.576	86.160	180.103	-12.283	-9.073	-7.643	-2.591	96.966	-4.839	-8191	255	
5532.061	1	1	0	0	0.053759	0.15755	0.07895	0.27413	0.20711	0.33505	0.10081	0.15939	0.11066	0.20018	0.19969	0.22345	0.10941	0.23506	0.12199	0.12806	-2.5	-3.0812	-2.6917	-3.1146	-2.9729	-2.8375	-3.3167	-3.0521	-3.0208	-3.2604	-2.7479	-3.0146	-3.0438	-2.7938	-3.1437	-2.9604	112.736	-26.037	-2.952	164.758	14.284	-23.428	257.641	262.022	60.961	221.308	3.639	320.145	144.732	111.235	179.411	80.743	0.00032823	0.0003483	0.00021057	510.06	8.268e-07	1.9724e-06	650.43	166.82	2.87e-06	3.1665e-06	233.92	71.226	46.675	15.933	6.9361e-06	27.264	0.0035167	0.0064378	0.0017738	494.75	6.0666e-05	7.1593e-05	619.91	160.95	5.9489e-05	7.231e-05	227.26	69.396	46.122	15.827	6.336e-05	26.888	53.708	135.800	165.667	-15.087	-5.565	231.889	-16.046	-10.646	156.294	135.008	-12.613	-8.802	-7.046	-2.796	101.623	-5.152	-8191	255	
5532.158	1	1	0	0	0.14856	0.053746	0.064877	0.031258	0.098408	0.06951	0.16883	0.28587	0.2628	0.075294	0.14103	0.10053	0.2848	0.078933	0.085141	0.28439	-2.2979	-3.0875	-2.6979	-2.9771	-2.9854	-2.7208	-3.2292	-2.8146	-2.7542	-3.1479	-2.7708	-3.0312	-3.0771	-2.6146	-3.0187	-2.9854	32.042	249.324	91.147	246.280	115.687	237.617	329.211	279.422	224.530	248.577	83.583	278.738	329.424	63.840	124.649	221.997	0.00025741	0.00046881	0.00015811	509.18	1.1063e-05	2.6678e-06	648.71	165.54	2.9043e-06	3.2136e-06	234.25	70.835	46.134	15.839	3.0345e-06	27.189	0.0034898	0.0063414	0.0018151	494	6.1095e-05	7.2586e-05	618.03	160.36	6.0277e-05	7.3408e-05	227	69.432	45.886	15.83	6.438e-05	27.025	77.828	48.443	75.652	-14.836	112.825	40.676	-16.110	-10.394	-2.269	183.009	-12.713	-9.032	-7.322	-2.328	14.349	-5.272	-8191	255	
5532.254	1	1	0	0	0.26063	0.15384	0.06904	0.18357	0.074373	0.024456	0.26165	0.23799	0.20606	0.063778	0.30553	0.2049	0.093615	0.14156	0.19182	0.10769	-2.3208	-3.1562	-2.8479	-2.9375	-3.0542	-2.5875	-3.2667	-3.0625	-2.8146	-3.1771	-2.9271	-2.8333	-3.1417	-2.825	-3.0312	-3.1792	104.028	74.830	191.341	253.558	93.726	179.779	272.114	296.948	196.478	235.840	304.741	313.427	-28.492	182.198	178.073	127.429	0.00028103	7.6753e-05	2.3684e-05	513.22	1.0827e-05	7.8565e-07	644.08	164.75	1.1194e-06	2.5343e-06	234.67	71.33	46.2	15.816	7.4603e-07	27.496	0.0035817	0.0064955	0.0018264	494.3	6.1934e-05	7.2486e-05	615.65	159.81	6.0372e-05	7.2418e-05	226.95	69.782	45.951	15.922	6.4734e-05	27.311	14.918	307.975	77.282	-14.845	138.732	39.405	-16.172	-10.783	49.218	151.817	-12.528	-8.876	-7.048	-2.566	103.445	-4.660	-8191	255	
5532.373	1	1	0	0	0.098463	0.24861	0.24176	0.24636	0.25588	0.22632	0.23468	0.1314	0.15604	0.19427	0.28052	0.25267	0.31766	0.15193	0.059411	0.038036	-2.225	-3.0375	-2.975	-2.7042	-3.1667	-2.7687	-3.1104	-3.1604	-2.7875	-3.1063	-2.9125	-2.7583	-3.3646	-2.7229	-3.0833	-3.1958	78.323	119.807	21.697	239.472	27.274	239.988	251.917	260.506	189.388	181.818	248.998	274.161	224.346	289.161	130.142	247.853	0.00013358	0.00083176	0.00010579	508.42	4.6274e-06	8.4648e-06	640.57	164.19	4.6834e-06	2.6723e-06	231.9	70.873	45.637	15.969	2.4191e-06	28.002	0.0035065	0.0062923	0.0018207	488.33	5.9831e-05	7.2734e-05	610.63	158.01	5.9972e-05	7.1931e-05	224.17	69.046	45.017	15.949	6.359e-05	27.444	66.914	32.539	68.844	-14.790	62.732	132.965	-15.946	-10.482	141.176	2.467	-12.287	-8.843	-6.724	-2.530	13.575	-5.297	-8191	255	
5532.469	1	1	0	0	0.13342	0.17993	0.10497	0.19967	0.049346	0.22357	0.29462	0.15111	0.070505	0.12659	0.17905	0.21346	0.15409	0.057684	0.030948	0.068529	-2.2562	-3.1542	-2.9313	-2.9104	-3.3438	-2.8271	-3.0604	-3.5229	-2.7667	-3.2833	-2.9521	-2.7521	-3.2646	-2.9917	-2.9625	-3.0375	144.416	264.657	190.196	216.091	16.047	23.924	260.929	251.423	273.941	275.121	77.314	279.874	322.041	309.591	310.983	97.132	0.00031501	0.0004993	5.0045e-05	499.74	1.1487e-06	3.6318e-06	628.58	161.33	7.9163e-06	2.4616e-06	229.2	69.79	45.18	16.058	3.5553e-06	27.897	0.0035103	0.0062674	0.0017477	480.8	5.9297e-05	7.0559e-05	600.13	156	5.9169e-05	6.9842e-05	221.55	68.055	44.361	15.921	6.2099e-05	27.426	20.346	43.903	192.995	-14.636	20.363	145.143	-16.307	-10.250	177.455	227.844	-12.531	-8.937	-6.636	-2.277	126.579	-4.683	-8191	255	
5532.565	1	1	0	0	0.11953	0.22953	0.35917	0.23811	0.12415	0.28768	0.30187	0.15268	0.088494	0.033324	0.1612	0.26797	0.066127	0.081544	0.1208	0.070035	-2.2729	-3.0375	-2.975	-2.8729	-3.2333	-2.9167	-3.0104	-3.1688	-2.7896	-3.0917	-3.0812	-2.8208	-3.1188	-2.9708	-2.95	-3.1896	116.535	267.249	261.049	245.493	89.690	173.654	73.083	247.553	192.027	73.898	312.390	21.123	285.112	83.424	188.211	127.953	0.00035587	0.00015315	0.00010573	495.86	3.5846e-06	4.8252e-07	626.54	161.97	1.2864e-05	6.272e-06	229.88	70.078	44.607	16.207	1.5243e-06	28.389	0.0035088	0.0062453	0.0017826	478.49	5.9344e-05	7.1273e-05	599.46	156	6.026e-05	7.2003e-05	222.21	68.32	44.293	16.12	6.3094e-05	27.909	18.023	193.889	98.819	-14.855	167.720	300.776	-16.074	-10.531	111.522	156.707	-12.123	-8.674	-6.535	-2.522	114.786	-5.507	-8191	255	
5532.661	1	1	0	0	0.2071	0.15124	0.098816	0.20287	0.23786	0.17398	0.091356	0.2843	0.1433	0.071715	0.1061	0.23888	0.15518	0.032708	0.12468	0.20535	-2.275	-2.9396	-3.1312	-2.7521	-3.2	-2.7854	-2.7542	-3.3292	-2.95	-3.0771	-3.2646	-2.8708	-3.1896	-3.0833	-2.8396	-3.2896	103.167	15.230	91.930	323.952	239.781	102.437	212.948	276.529	90.720	126.663	296.916	310.386	36.945	331.362	161.368	265.761	0.00042621	0.00036091	0.0001777	496.64	4.6393e-06	4.227e-06	629.03	161.51	1.2378e-05	3.6636e-06	232.41	70.8	45.371	16.269	3.4569e-06	28.598	0.0035008	0.0063027	0.0017936	478.62	6.0029e-05	7.0539e-05	601.14	156.16	5.9307e-05	7.1639e-05	224.61	69.081	44.827	16.224	6.3096e-05	28.134	26.114	188.723	34.287	-14.669	45.152	85.148	-15.486	-10.608	89.196	111.521	-12.276	-8.763	-6.851	-2.120	76.706	-5.414	-8191	255	
5532.757	1	1	0	0	0.20471	0.08924	0.27074	0.11962	0.13778	0.071144	0.12882	0.092584	0.18464	0.12524	0.090012	0.25336	0.2701	0.10257	0.16269	0.19137	-2.4833	-2.7854	-3.2042	-2.8104	-3.2333	-2.9875	-2.9208	-3.2188	-2.8833	-2.975	-3.2417	-2.7438	-3.1396	-3.0083	-2.7188	-3.2521	294.194	43.399	52.501	55.240	263.528	50.363	199.129	146.593	240.533	74.460	284.542	-9.979	204.223	283.159	188.493	294.457	0.0002335	0.00057503	0.00019452	502.32	3.855e-06	2.3785e-06	638.86	164.11	1.0721e-05	8.002e-06	231.81	71.937	45.405	16.425	5.7569e-06	28.386	0.0034167	0.006221	0.0017959	482.95	5.9122e-05	7.046e-05	607.16	157.86	5.7816e-05	7.0584e-05	224.8	69.462	44.965	16.253	6.1819e-05	27.966	46.204	1.483	55.799	-14.279	162.429	137.349	-15.557	-9.886	114.466	167.562	-12.008	-8.417	-6.848	-2.252	159.831	-5.040	-8191	255	
5532.853	1	1	0	0	0.068221	0.14093	0.076522	0.24368	0.10231	0.08592	0.07729	0.25655	0.31021	0.094852	0.13846	0.37898	0.1655	0.1888	0.068388	0.14627	-2.5146	-2.6479	-3.3187	-2.7	-3.1	-3.1188	-2.8792	-3.2229	-2.9354	-2.95	-3.125	-2.9396	-3.2083	-3.2687	-2.6625	-3.4083	211.572	138.307	165.074	255.410	64.939	285.446	-25.474	283.112	121.843	133.948	281.465	231.573	277.683	28.539	139.457	42.379	0.0002361	0.00076982	0.00023001	505.89	1.9135e-06	7.3624e-06	634.24	165.12	7.4572e-06	7.0093e-06	232.53	71.213	45.874	16.408	3.3751e-06	28.446	0.0033544	0.0060788	0.0017226	484.65	5.7222e-05	6.9061e-05	604.04	158.44	5.729e-05	6.8175e-05	224.56	69.329	45.121	16.215	6.3248e-05	27.876	61.724	-11.291	88.541	-14.233	262.488	109.741	-15.842	-10.341	123.476	78.835	-11.969	-8.510	-6.557	-2.327	93.473	-5.096	-8191	255	
5532.950	1	1	0	0	0.077955	0.15203	0.28704	0.13324	0.10584	0.067434	0.19234	0.29202	0.18901	0.029193	0.18321	0.23988	0.21716	0.31274	0.16056	0.24724	-2.6104	-2.7521	-3.0875	-2.8375	-3.0771	-3.2729	-2.7333	-3.1792	-2.9271	-2.8625	-3.2875	-2.8625	-2.9313	-3.1854	-2.7771	-3.2042	221.872	107.297	259.896	51.151	66.000	302.447	225.651	199.535	18.007	304.644	259.705	240.569	320.162	293.569	104.966	307.257	4.2086e-05	0.00036443	2.1985e-05	508.04	4.4934e-07	4.2395e-06	639.39	163.95	1.1487e-05	5.1476e-06	235.32	72.233	46.066	16.483	3.2094e-06	28.541	0.0034349	0.006272	0.0017477	486.39	5.8504e-05	7.0048e-05	609.08	158.96	5.8382e-05	7.0507e-05	226.92	69.996	45.615	16.31	6.2466e-05	28.029	324.879	50.931	111.893	-14.799	36.053	82.641	-15.769	-10.382	239.345	82.763	-12.450	-8.857	-6.293	-2.505	219.259	-4.998	-8191	255	
5533.068	1	1	0	0	0.16285	0.17202	0.11826	0.17862	0.17829	0.38815	0.29206	0.12932	0.31243	0.15996	0.22157	0.059513	0.056964	0.096237	0.13167	0.2973	-2.6292	-2.7438	-3.1958	-3.0375	-3.0104	-3.1208	-2.8979	-3.0229	-3.2854	-2.8104	-3.4375	-2.9125	-2.9125	-3.3208	-2.7875	-3.2104	-6.014	144.439	-3.997	262.487	35.648	14.569	186.604	23.525	131.959	98.656	307.923	288.369	246.052	-7.434	199.707	-10.197	0.00019756	0.00027908	0.00011209	508.21	1.0223e-05	9.8015e-06	643.27	165.71	5.4027e-06	6.1209e-06	236.12	72.954	46.671	16.527	5.2162e-06	28.775	0.0034374	0.006372	0.0017791	487.66	5.9339e-05	7.2006e-05	611.97	159.66	5.9043e-05	7.1673e-05	228.37	70.669	46.059	16.431	6.366e-05	28.241	60.965	-13.269	-1.325	-14.539	89.844	141.611	-15.616	-10.108	13.646	211.817	-12.107	-8.416	-6.913	-2.506	173.147	-4.909	-8191	255	
5533.165	1	1	0	0	0.099119	0.10209	0.027191	0.31853	0.25	0.1004	0.127	0.091636	0.07296	0.13588	0.13189	0.16745	0.17287	0.17821	0.072955	0.16064	-2.6708	-2.725	-3.1896	-3.0646	-3.025	-3.2729	-2.9104	-3.1208	-3.1813	-2.7188	-3.1125	-3.1125	-2.7938	-3.3458	-2.9021	-3.0854	315.835	215.766	10.512	300.603	135.167	292.397	261.795	196.290	3.479	160.398	269.083	291.034	-7.987	148.084	188.664	67.486	0.00030616	0.0004455	6.7025e-05	509.06	4.1648e-06	2.7938e-06	645.26	166.45	6.0124e-06	3.6061e-06	238.58	72.729	46.799	16.329	6.683e-06	28.774	0.0034895	0.0063279	0.001793	490	5.971e-05	7.2923e-05	614.65	160.48	5.9786e-05	7.266e-05	229.4	70.719	46.173	16.309	6.4411e-05	28.065	39.156	31.022	-7.293	-14.819	128.128	19.639	-15.525	-10.129	188.391	58.899	-12.340	-8.760	-6.787	-2.521	152.253	-5.031	-8191	255	
5533.238	1	1	0	0	0.09429	0.35804	0.23384	0.17972	0.050176	0.26278	0.12606	0.21898	0.20895	0.17626	0.17837	0.043721	0.1074	0.14507	0.32867	0.29885	-2.8292	-2.675	-3.1021	-3.0479	-2.9437	-3.3333	-3.0146	-3.0229	-3.3438	-2.9188	-3.2146	-3.1063	-3.0354	-3.2708	-2.9813	-3.1688	312.242	-8.722	322.924	286.831	329.223	69.978	330.204	165.181	262.899	266.148	55.136	40.054	8.807	9.115	326.180	250.499	0.00028304	0.00057905	0.00030164	507.76	9.4548e-06	3.224e-06	638.86	165.84	7.1993e-06	1.604e-06	237.32	72.552	46.764	16.292	3.2352e-06	28.398	0.003495	0.0063718	0.0017921	487.04	6.0205e-05	7.296e-05	610.68	159.26	6.0623e-05	7.3112e-05	228.22	70.39	46.031	16.13	6.3393e-05	27.73	33.030	322.327	-9.141	-14.493	107.848	39.285	-15.981	-10.102	66.506	143.962	-12.420	-8.924	-7.029	-2.451	123.937	-4.681	-8191	255	
5533.334	1	1	0	0	0.055416	0.18855	0.21408	0.15854	0.23122	0.15166	0.28927	0.20805	0.1283	0.23556	0.040402	0.14266	0.023237	0.057466	0.16788	0.205	-2.8042	-2.7833	-3.1146	-3.1937	-2.8271	-3.2854	-3.1479	-3.0312	-3.1229	-2.8312	-3.0875	-3.0958	-2.7438	-3.3292	-3.0312	-3.1188	18.818	235.862	-4.007	272.063	235.960	103.983	325.906	186.198	-14.809	307.743	259.537	-4.630	299.333	73.062	202.613	313.863	0.00037676	0.00090661	0.00013265	501.05	4.3698e-06	6.0729e-06	640.9	164.88	4.9354e-07	2.1659e-06	236.47	73.51	47.592	16.069	6.1689e-06	28.332	0.00358	0.0065534	0.0018017	484.19	6.2708e-05	7.2837e-05	608.5	159.04	6.151e-05	7.2769e-05	228.48	71.446	46.569	16.012	6.5277e-05	27.707	5.820	28.466	51.526	-14.389	44.151	79.685	-15.895	-10.644	121.420	89.566	-12.284	-8.780	-7.310	-2.085	93.026	-5.349	-8191	255	
5533.453	1	1	0	0	0.27405	0.19194	0.089558	0.14511	0.15865	0.051494	0.1948	0.25623	0.082577	0.089271	0.21039	0.071613	0.13361	0.2287	0.10381	0.043263	-2.7333	-2.8458	-3.0771	-3.3042	-2.7917	-3.1542	-3.1521	-2.9062	-3.4125	-2.9521	-3.0896	-3.0812	-2.7854	-3.1979	-3.0396	-3.0938	225.074	65.033	289.532	282.090	223.150	249.220	275.824	298.018	110.901	249.087	203.938	7.985	189.622	199.424	274.364	-7.582	0.0003583	0.00030367	0.00030098	503.75	4.8928e-06	5.6809e-06	639.53	165.42	5.3948e-06	3.3903e-06	237.28	74.41	47.715	15.983	4.8602e-07	27.988	0.0036724	0.0066917	0.0018774	482.66	6.4442e-05	7.6846e-05	609.57	159.15	6.23e-05	7.6381e-05	229.38	72.188	47.143	15.931	6.7971e-05	27.466	47.415	126.856	-0.725	-14.465	87.544	160.133	-15.767	-10.516	32.653	157.564	-11.662	-8.869	-7.280	-2.377	114.277	-5.404	-8191	255	
5533.549	1	1	0	0	0.12969	0.14826	0.043277	0.11038	0.12454	0.19815	0.088397	0.24081	0.13355	0.4154	0.075652	0.12989	0.17278	0.15467	0.23089	0.16232	-2.7729	-2.8688	-3.0021	-3.1354	-2.9354	-3.075	-3.1	-3.0479	-3.2458	-2.9708	-3.0833	-3.4875	-2.9646	-3.0812	-3.25	-2.7958	-23.832	-21.813	63.701	216.638	144.368	246.568	316.342	249.172	11.985	146.770	22.511	252.976	177.979	327.085	71.068	136.104	0.00025699	0.00039347	0.00018421	503.29	5.0265e-06	6.9503e-07	638.85	163.78	6.6396e-06	6.2151e-06	233.86	74.218	47.865	15.831	6.5459e-06	27.173	0.003753	0.0067171	0.0018803	484.07	6.3668e-05	7.4729e-05	608.47	158.35	6.1512e-05	7.3605e-05	227.51	72.047	47.06	15.664	6.5181e-05	26.817	25.354	64.038	85.689	-14.787	188.648	196.113	-15.749	-10.311	130.331	101.930	-12.245	-8.846	-6.729	-2.173	312.951	-4.482	-8191	255	
5533.645	1	1	0	0	0.21644	0.17517	0.069963	0.056704	0.15255	0.10623	0.1457	0.1161	0.11199	0.12929	0.048196	0.063452	0.22435	0.042133	0.038195	0.22813	-2.8937	-3.1333	-2.9292	-3.2729	-2.8896	-3.2125	-3.3479	-2.7708	-3.4021	-3.1625	-2.8812	-3.1104	-2.8063	-3.0687	-3.1583	-2.8875	276.822	293.298	297.888	195.345	220.916	123.030	75.429	263.435	262.516	316.215	251.916	227.872	258.524	156.219	197.149	329.347	0.00029405	0.00032802	9.8304e-05	496.04	7.1065e-06	7.4785e-06	633.6	161.17	5.7625e-06	1.1184e-05	232.67	73.026	46.874	15.417	6.2492e-06	27.013	0.0035782	0.0066271	0.0018518	477.67	6.1718e-05	7.4057e-05	600.48	156.22	6.0866e-05	7.386e-05	225.44	70.974	46.264	15.348	6.4894e-05	26.55	52.194	-12.626	47.787	-14.809	29.477	122.584	-15.731	-10.370	94.243	124.996	-12.324	-8.797	-6.833	-2.166	127.768	-4.649	-8191	255	
5533.766	1	1	0	0	0.26771	0.21407	0.33875	0.17938	0.20782	0.14174	0.1919	0.3292	0.18495	0.11788	0.16481	0.076612	0.29909	0.084463	0.11593	0.093497	-2.7208	-3.0417	-2.7958	-3.4708	-3.0667	-3.0292	-3.3187	-2.9188	-3.0833	-3.1604	-2.9979	-3.3563	-3.0062	-3.0917	-3.3333	-2.9917	196.227	-7.850	231.863	12.655	115.966	240.006	299.179	37.628	273.634	109.075	2.240	212.999	-21.690	36.734	41.900	169.025	0.00027953	0.0003631	0.00020033	493.6	2.539e-06	8.9985e-06	629.7	161.14	7.6146e-06	2.6392e-06	229.98	73.758	46.753	15.505	3.7231e-06	27.096	0.0035375	0.0065446	0.0018373	474.26	6.0322e-05	7.2639e-05	597.86	155.58	5.9467e-05	7.2255e-05	224.44	71.107	46.236	15.435	6.4892e-05	26.583	3.495	204.861	135.858	-15.055	114.460	137.453	-15.806	-10.206	158.983	139.125	-12.022	-8.942	-6.801	-1.998	144.454	-5.031	-8191	255	
5533.862	1	1	0	0	0.09637	0.079608	0.053209	0.19106	0.12941	0.18545	0.20017	0.48244	0.069916	0.13493	0.39704	0.23728	0.26242	0.15939	0.17504	0.19794	-2.7083	-3.1625	-2.8312	-3.175	-2.8396	-3.0979	-3.3271	-2.7875	-3.0021	-3.1854	-2.9271	-3.3021	-3.2229	-2.9	-3.2583	-2.9437	97.909	-21.280	150.591	236.490	242.356	203.033	266.618	274.798	192.419	104.824	51.303	212.712	-12.462	21.778	105.544	94.369	0.00030386	0.00030928	0.00021495	489.85	7.1306e-06	4.3099e-06	627.99	161	1.1121e-05	5.013e-06	233.12	73.32	46.699	15.625	5.2862e-06	27.433	0.0034266	0.0062992	0.0017759	473.13	5.9477e-05	7.0289e-05	597.01	155.41	5.7797e-05	7.0759e-05	224.8	70.811	45.906	15.49	6.1886e-05	26.967	33.197	60.805	79.211	-14.905	132.382	66.718	-15.385	-10.081	83.286	161.031	-12.368	-8.738	-7.002	-2.087	129.726	-5.008	-8191	255	
5533.934	1	1	0	0	0.044082	0.18743	0.15895	0.062152	0.19839	0.11191	0.11723	0.2725	0.078219	0.23386	0.10313	0.070529	0.19957	0.14393	0.050585	0.13859	-2.6583	-3.15	-2.7833	-3.2812	-3.1188	-2.8646	-3.4938	-3.0792	-3.1312	-3.2167	-2.8167	-3.2521	-3.0229	-2.9813	-3.3979	-2.9	19.441	261.472	245.058	-21.680	80.533	4.991	288.691	292.768	115.756	247.562	31.716	239.940	184.294	323.439	45.636	117.134	0.00032129	0.00018155	1.4685e-05	494.84	6.1325e-06	8.9196e-07	631.08	161.24	6.5391e-06	4.3228e-06	234.43	73.221	46.936	15.704	9.4896e-06	27.488	0.0033363	0.0062558	0.001756	476.21	5.86e-05	7.172e-05	600.95	156.07	5.712e-05	7.2329e-05	225.73	71.041	46.076	15.61	6.2352e-05	26.979	23.345	325.408	149.298	-14.813	78.197	-20.224	-15.925	-10.067	162.664	192.714	-12.217	-8.875	-6.593	-2.057	96.138	-4.476	-8191	255	
5534.054	1	1	0	0	0.057879	0.17283	0.27183	0.12881	0.15772	0.19904	0.30398	0.15964	0.3516	0.076702	0.11682	0.13441	0.14299	0.1594	0.11128	0.055882	-2.7208	-3.2417	-2.8167	-3.2	-2.9979	-2.7042	-3.3688	-3.0125	-2.7229	-3.2875	-2.8771	-3.0333	-3.1854	-2.7583	-3.125	-3.1271	281.082	192.614	279.919	213.428	51.113	139.853	228.665	216.517	156.657	181.674	189.557	296.236	269.569	181.667	139.906	52.564	0.00028725	0.00046034	8.2265e-05	497.5	1.0839e-05	4.9922e-06	633.65	162.42	7.8281e-06	6.8077e-06	232.43	72.802	46.47	15.785	4.0851e-06	27.231	0.0033447	0.0063	0.0017706	478.31	5.8586e-05	7.0598e-05	600.7	156.31	5.7147e-05	7.1709e-05	224.88	70.473	45.877	15.647	6.2386e-05	26.921	41.244	12.755	293.163	-14.890	133.257	183.648	-15.800	-10.242	51.394	113.005	-11.992	-8.415	-6.622	-1.605	15.602	-4.771	-8191	255	
5534.149	1	1	0	0	0.17439	0.16325	0.047139	0.056212	0.14116	0.21964	0.068738	0.27505	0.17496	0.066697	0.29267	0.064968	0.32746	0.20786	0.041171	0.091497	-2.3646	-3.1167	-2.7896	-3.1688	-3.125	-2.7333	-3.2896	-3.0104	-2.9229	-3.3479	-3.0104	-3.0417	-3.2042	-2.7917	-3.2604	-3.2708	319.624	223.610	37.522	315.043	31.707	73.561	291.285	9.678	126.134	268.351	-11.411	253.780	244.930	-24.049	232.740	230.121	0.00032331	0.00019959	0.00013829	499.53	6.9386e-06	9.1681e-06	633.08	163.72	4.246e-06	1.953e-06	234.01	72.635	46.451	16.083	3.6227e-06	28.165	0.0033591	0.0062539	0.0017603	479.03	5.9228e-05	7.1632e-05	602.19	157.32	5.8929e-05	7.1067e-05	225.91	70.516	45.932	15.951	6.2943e-05	27.592	26.285	244.372	286.473	-14.648	82.020	107.735	-15.652	-10.045	13.396	73.418	-12.024	-8.377	-6.819	-2.186	203.366	-4.951	-8191	255	
5534.245	1	1	0	0	0.22703	0.25128	0.22585	0.21137	0.048668	0.11771	0.2688	0.07926	0.16749	0.17753	0.14711	0.15645	0.19048	0.23292	0.15963	0.30878	-2.4083	-3.2521	-2.9542	-3.0729	-3.4479	-2.9083	-3.2562	-3.0208	-2.8125	-3.2438	-2.9271	-2.9479	-3.2375	-2.8937	-3.1333	-3.0187	318.081	103.572	-23.245	160.774	323.243	271.998	203.612	119.569	113.052	260.609	-6.512	287.317	222.027	326.441	117.818	266.894	0.00037587	4.2843e-05	0.00016603	503.93	9.3332e-06	1.1133e-06	634.08	164.86	1.4455e-05	5.9598e-06	234.19	73.309	46.749	16.292	7.0967e-06	28.604	0.0034815	0.0063861	0.0017776	482.25	6.13e-05	7.32e-05	604.41	158.3	6.0025e-05	7.2474e-05	227.13	70.935	46.056	16.19	6.3704e-05	28.091	37.355	158.846	96.919	-14.777	134.676	178.290	-15.856	-10.356	92.746	104.694	-12.258	-8.117	-6.324	-2.265	167.120	-4.956	-8191	255	
5534.366	1	1	0	0	0.37208	0.072597	0.1522	0.24663	0.24953	0.014535	0.2188	0.16909	0.21257	0.10473	0.2096	0.12532	0.089364	0.11118	0.16857	0.065465	-2.325	-3.3792	-3.025	-3.025	-3.2188	-2.8646	-3.0083	-3.1937	-2.8958	-3.3271	-3	-2.9667	-3.2292	-2.8375	-3.225	-3.2375	160.660	89.077	57.546	301.087	119.310	41.616	262.149	287.293	244.887	16.352	248.321	196.680	289.494	96.344	223.828	307.782	0.00027041	0.0004029	2.2108e-05	502.72	7.4875e-06	3.8623e-06	637.32	164.4	5.2808e-06	3.5745e-06	237.69	73.442	46.793	16.46	4.511e-06	28.835	0.0035884	0.0063073	0.001787	484.37	6.0839e-05	7.223e-05	608.18	158.72	5.9857e-05	7.1753e-05	229.04	71.104	46.161	16.389	6.3935e-05	28.213	34.823	58.702	300.092	-14.717	154.780	28.769	-15.786	-10.258	135.573	127.986	-12.162	-8.217	-6.399	-2.435	292.363	-4.856	-8191	255	
5534.462	1	1	0	0	0.22169	0.16658	0.11423	0.21756	0.18525	0.11363	0.10581	0.21067	0.14369	0.18257	0.094413	0.11051	0.1856	0.12462	0.10881	0.23668	-2.4604	-3.2083	-3.0167	-2.9375	-3.2562	-2.8896	-3.175	-3.3042	-2.8146	-3.2542	-3.1188	-2.85	-3.3708	-3.1292	-2.8688	-3.2667	193.263	84.746	121.911	301.512	72.648	47.888	237.147	283.129	-13.426	12.959	219.404	26.397	105.652	90.984	226.118	242.064	0.00033379	0.00046797	0.00014447	505.23	2.0899e-06	5.9328e-06	636.41	164.38	4.9619e-06	6.2269e-06	235.5	72.291	46.58	16.543	7.6487e-06	28.797	0.0035468	0.0062857	0.0018457	484.28	6.083e-05	7.1375e-05	605.4	158.33	5.9606e-05	7.0235e-05	227.69	70.534	45.875	16.363	6.5026e-05	28.213	69.009	65.943	106.140	-14.480	141.210	159.368	-16.100	-10.429	187.718	116.027	-12.008	-8.423	-6.504	-2.398	81.548	-4.841	-8191	255	
5534.533	1	1	0	0	0.14545	0.27214	0.045486	0.14627	0.12372	0.1853	0.42424	0.12583	0.094779	0.16967	0.13912	0.051089	0.058995	0.060309	0.11605	0.1191	-2.4917	-3.1542	-3.0646	-3.0062	-3.3146	-3.0021	-3.0938	-3.3458	-2.9188	-3.175	-3.2958	-2.8937	-3.3521	-2.975	-3.1375	-3.2292	292.728	313.174	-17.012	280.403	72.837	178.753	237.174	308.143	252.834	161.497	149.757	290.822	287.347	-10.131	132.930	147.548	0.00038234	0.00055553	0.00014973	505.04	2.8417e-06	4.2886e-06	639.04	164.27	2.9542e-06	4.3487e-06	235.31	73.216	46.595	16.688	2.8759e-06	29.042	0.0035811	0.0063898	0.0018175	483.97	6.139e-05	7.2475e-05	607.22	158.35	6.0435e-05	7.3463e-05	227.96	71.122	45.991	16.525	6.5486e-05	28.462	16.507	38.504	79.934	-14.598	68.022	-11.153	-15.720	-10.458	315.142	3.644	-12.117	-8.204	-6.688	-2.119	184.965	-4.930	-8191	255	
5534.630	1	1	0	0	0.1295	0.11137	0.16425	0.2056	0.35197	0.11115	0.19732	0.059801	0.23541	0.10168	0.27189	0.10516	0.26256	0.066687	0.093243	0.21006	-2.5458	-2.9708	-3.0625	-2.9437	-3.3021	-2.9104	-2.8771	-3.3604	-2.7729	-3.0833	-3.1917	-2.9604	-3.35	-3.1854	-3.0062	-3.3104	273.280	45.341	318.077	2.490	127.852	269.383	223.934	55.971	285.467	157.139	-1.112	103.160	219.939	6.557	173.568	33.611	0.00039956	0.00042276	0.00013742	503.79	6.98e-06	5.8587e-06	641.05	165.88	9.0439e-06	4.9955e-06	237.07	74.331	46.681	16.86	1.4382e-06	29.374	0.0035951	0.0065635	0.0018493	485.27	6.2248e-05	7.41e-05	609.87	159.24	6.1687e-05	7.4543e-05	229.58	71.653	46.077	16.689	6.7059e-05	28.88	22.757	331.142	66.788	-14.577	63.911	147.875	-15.715	-9.899	132.687	121.196	-12.265	-8.419	-6.549	-2.417	300.843	-5.027	-8191	255	
5534.750	1	1	0	0	0.23592	0.26526	0.19059	0.14691	0.2449	0.27136	0.3536	0.23754	0.24746	0.040151	0.10608	0.12339	0.25708	0.19547	0.11316	0.17322	-2.4333	-3.1562	-3.0833	-2.9167	-3.2438	-3.0854	-2.8333	-3.2854	-3.0375	-3.1437	-3.3417	-2.8583	-3.0771	-3.2708	-2.8625	-3.3937	125.119	249.650	51.556	290.622	294.732	234.192	211.845	300.404	81.538	7.711	144.298	173.870	237.860	212.239	312.959	321.582	0.00028533	0.00038883	0.00010147	504.82	7.2746e-06	9.4076e-06	646.36	165.73	8.6799e-06	5.1788e-06	238.79	73.394	46.947	16.875	4.4885e-06	29.421	0.0036422	0.0065607	0.0018997	486.91	6.2047e-05	7.5245e-05	614.38	159.87	6.2513e-05	7.4001e-05	231.13	71.419	46.225	16.774	6.6719e-05	28.828	39.685	220.364	249.386	-14.686	118.015	127.743	-15.913	-10.111	209.533	227.633	-12.060	-8.139	-7.034	-1.896	179.024	-5.254	-8191	255	
5534.846	1	1	0	0	0.17591	0.050167	0.087165	0.25528	0.090905	0.12957	0.053662	0.19668	0.22561	0.19177	0.20343	0.26548	0.19058	0.20682	0.034911	0.051851	-2.4437	-2.9854	-3.2292	-2.8	-3.0333	-3.0542	-2.7917	-3.2188	-3.0104	-3.0667	-3.2333	-3.0583	-3.1437	-3.2708	-2.8646	-3.2104	181.816	304.088	186.667	24.078	202.061	6.160	236.289	40.239	207.541	226.969	236.193	-22.918	114.984	233.711	280.068	255.969	0.00034088	0.0006757	0.00032173	506.47	6.6443e-06	2.4009e-06	640.94	165.4	8.7745e-06	1.3773e-06	237.96	73.298	46.324	16.76	3.7252e-06	29.194	0.0035798	0.0066125	0.0018497	485.84	6.0719e-05	7.515e-05	610.94	159.11	6.2023e-05	7.6399e-05	229.09	70.989	45.962	16.691	6.702e-05	28.705	35.264	28.799	84.495	-14.776	178.521	77.886	-15.639	-10.196	143.882	312.538	-12.182	-8.508	-6.867	-2.134	36.974	-5.093	-8191	255	
5534.942	1	1	0	0	0.27682	0.16355	0.29192	0.10626	0.059757	0.14356	0.30958	0.11658	0.23029	0.11325	0.19459	0.074684	0.1869	0.12287	0.1332	0.019439	-2.6708	-3.0563	-3.1354	-2.9146	-3.1021	-3.2208	-2.9083	-3.1479	-3.025	-2.8354	-3.2917	-3.0312	-2.8542	-3.2542	-2.9854	-3.1271	210.125	133.307	56.403	-26.979	72.761	88.919	312.757	142.655	159.887	275.389	291.118	12.521	216.556	226.099	59.797	293.540	0.00027758	0.00031371	0.00012035	505.72	3.4556e-06	2.6055e-06	637.9	164.7	8.4337e-06	7.9865e-07	236.48	73.516	46.861	16.961	1.7694e-06	29.544	0.0036312	0.0067164	0.0018735	486.15	6.223e-05	7.5858e-05	608	158.63	6.1566e-05	7.5668e-05	228.44	71.228	46.026	16.804	6.6116e-05	29.096	53.797	81.644	59.568	-14.695	66.611	230.125	-15.777	-10.235	22.090	-24.131	-12.107	-8.287	-6.547	-1.692	209.607	-5.044	-8191	255	
5535.039	1	1	0	0	0.083526	0.08087	0.30354	0.15169	0.15007	0.082064	0.15682	0.14086	0.15642	0.2025	0.15891	0.15689	0.20637	0.078672	0.02166	0.35057	-2.6729	-2.8208	-3.1104	-2.9938	-2.9313	-3.2625	-2.8187	-3.3583	-3.1479	-3.0187	-3.2646	-2.9104	-2.875	-3.4042	-2.975	-3.1771	211.460	-16.896	60.066	-5.797	-24.876	166.139	-18.064	321.780	254.136	319.335	233.312	240.029	74.485	250.591	97.737	262.469	0.0003913	0.0005585	0.00010204	502.14	2.2089e-06	3.8946e-06	639.9	165	6.0279e-06	1.2568e-06	237.8	74.127	46.701	17.089	4.9232e-06	30.17	0.0036731	0.0067424	0.0018835	483.65	6.3107e-05	7.618e-05	608.59	158.84	6.1691e-05	7.5234e-05	230.55	71.793	46.133	17.047	6.4869e-05	29.647	28.120	39.855	261.064	-14.607	134.660	58.381	-15.677	-10.083	75.305	141.881	-12.394	-8.037	-6.185	-1.989	181.758	-5.061	-8191	255	
5535.135	1	1	0	0	0.1497	0.089129	0.19254	0.20835	0.077954	0.11805	0.39327	0.21447	0.34103	0.18704	0.15709	0.25393	0.23253	0.066266	0.25296	0.045323	-2.7771	-2.7271	-3.2	-3.0333	-2.8083	-3.3375	-2.9	-3.1146	-3.2875	-2.7271	-3.2313	-3.0042	-2.8542	-3.3917	-2.9333	-3.2021	94.428	111.991	187.433	257.912	107.182	-13.154	259.617	-22.073	248.353	296.162	274.411	293.507	320.532	244.489	284.478	287.608	0.00037011	0.00036189	0.00011902	502.96	1.3815e-06	8.4492e-06	641.13	165.91	8.7768e-06	1.0251e-05	238.44	74.751	46.683	17.365	2.1797e-06	30.389	0.0036363	0.0065725	0.0018189	484.88	6.1849e-05	7.4147e-05	612.91	159.78	6.2047e-05	7.5291e-05	231.25	72.262	46.238	17.145	6.4619e-05	29.805	46.264	-13.054	-1.125	-14.663	221.668	146.429	-15.908	-10.193	83.698	141.579	-12.191	-8.290	-6.404	-1.957	67.650	-4.799	-8191	255	
5535.231	1	1	0	0	0.19684	0.093541	0.11359	0.12632	0.082766	0.3153	0.091978	0.1668	0.22148	0.097119	0.018651	0.29899	0.19812	0.14639	0.12794	0.26961	-2.675	-2.7667	-3.0563	-3.0833	-2.8042	-3.3688	-3.0687	-3.0229	-3.2979	-2.75	-3.1792	-3.3729	-2.7438	-3.1417	-2.8479	-3.1729	125.390	55.378	29.222	150.432	166.946	206.659	163.528	205.301	3.279	194.724	321.752	264.085	275.686	313.160	95.529	282.933	0.00027051	0.00035528	0.00012232	501.56	1.0565e-05	4.5599e-06	646.37	165.94	8.1679e-06	4.2914e-06	238.7	74.487	46.649	17.243	2.9449e-06	30.054	0.0036264	0.0064956	0.0018021	484.33	6.0317e-05	7.2193e-05	611.77	159.31	6.0725e-05	7.2856e-05	229.94	72.018	46.137	17.111	6.487e-05	29.538	51.135	25.292	114.788	-14.650	164.059	148.006	-15.466	-10.105	115.021	170.011	-12.051	-8.140	-5.978	-2.035	154.022	-5.553	-8191	255	
5535.327	1	1	0	0	0.26589	0.036287	0.18927	0.038266	0.16963	0.068414	0.19321	0.088691	0.18008	0.10638	0.022331	0.17511	0.075179	0.071934	0.31015	0.10011	-2.8	-2.8792	-3.0708	-3.2042	-2.8292	-3.2479	-3.1437	-3.0167	-3.2396	-2.8125	-3.0854	-3.1646	-2.9104	-3.1479	-3.0583	-3.0083	140.162	26.630	221.621	265.101	122.970	182.973	190.227	60.138	141.476	170.327	254.584	83.792	194.417	68.532	234.763	312.729	0.00019649	0.00043464	0.00018599	506.21	3.2548e-06	9.6605e-06	640.78	165.1	7.0212e-06	2.3026e-06	239.46	73.462	46.996	17.327	1.3769e-05	30.178	0.0036069	0.0066043	0.0017976	484.22	6.2444e-05	7.3026e-05	610.81	159.21	6.1257e-05	7.3484e-05	231.19	71.982	46.247	17.153	6.5127e-05	29.689	66.220	124.013	32.542	-14.468	127.839	102.242	-15.468	-10.013	271.122	74.218	-12.204	-8.312	-6.357	-2.130	162.788	-5.070	-8191	255	
5535.446	1	1	0	0	0.25034	0.16403	0.36688	0.11763	0.18868	0.23635	0.25731	0.11932	0.14356	0.11783	0.21873	0.15614	0.14675	0.16656	0.045058	0.048523	-2.9688	-2.875	-3.1188	-3.2646	-2.9313	-3.1896	-3.1562	-2.9271	-3.3229	-3.1042	-3.1521	-3.1833	-2.7833	-3.1458	-3.1312	-2.9146	59.652	-26.407	305.492	83.250	246.720	-0.621	295.392	160.047	242.856	105.526	153.059	195.994	129.256	15.031	202.175	53.333	0.00027739	0.00028862	0.00021643	506.14	3.5158e-07	2.2561e-06	645.14	166.32	1.2025e-05	3.2909e-06	241.15	74.419	47.06	17.224	2.3268e-06	30.624	0.0036453	0.0066545	0.0018464	486.95	6.2976e-05	7.3549e-05	613.91	160.11	6.2155e-05	7.5491e-05	231.98	72.632	46.534	17.173	6.8407e-05	29.897	29.985	124.189	35.681	-14.450	188.013	132.315	-15.688	-10.556	130.234	126.015	-12.063	-8.278	-6.086	-2.430	68.306	-5.007	-8191	255	
5535.540	1	1	0	0	0.084622	0.1582	0.045375	0.23057	0.10982	0.25184	0.21324	0.25264	0.23521	0.20679	0.28605	0.087714	0.21554	0.17271	0.090447	0.1572	-2.8271	-3.0208	-3.0312	-3.4083	-2.9396	-3.2812	-3.0729	-2.9417	-3.2646	-3.0083	-2.9604	-3.2229	-2.8438	-3.1896	-3.1667	-2.9875	0.309	-20.609	121.123	296.886	293.282	77.416	285.922	292.269	29.528	39.856	282.227	42.550	330.110	294.559	213.293	270.043	0.00023451	0.00064458	0.00010899	509.41	1.0791e-05	3.9561e-06	646.91	167.6	3.9854e-06	3.2268e-06	240.15	74.379	47.196	17.165	3.7969e-06	29.882	0.0037074	0.0066767	0.0018949	489.38	6.4337e-05	7.4359e-05	616.03	160.97	6.1485e-05	7.5196e-05	232.17	72.464	46.704	17.082	6.7103e-05	29.44	44.609	51.802	204.032	-14.494	101.078	147.069	-15.999	-10.090	197.618	297.110	-12.491	-8.215	-6.244	-2.093	142.575	-4.907	-8191	255	
5535.636	1	1	0	0	0.15458	0.16848	0.13298	0.4093	0.25209	0.099951	0.1474	0.11987	0.059397	0.15815	0.10905	0.10472	0.15081	0.23004	0.2357	0.20215	-2.8604	-3.1583	-3.0396	-3.2646	-2.7021	-3.1146	-3.3354	-2.7375	-3.2833	-3.0667	-2.9437	-3.2354	-2.9146	-3.1063	-3.2646	-2.9583	-21.082	179.523	230.717	278.177	239.232	184.504	114.025	98.390	308.229	110.931	40.715	306.062	49.015	176.330	149.591	16.142	0.00033278	0.00032114	7.5089e-05	504.83	8.5696e-06	4.972e-06	646.03	165.76	1.2163e-05	2.7453e-06	238.42	73.997	46.963	17.226	5.634e-06	29.878	0.0036852	0.0067014	0.0019101	487.84	6.3169e-05	7.5792e-05	614.12	160.22	6.1774e-05	7.5986e-05	230.7	72.096	46.506	17.077	6.9469e-05	29.32	55.857	286.242	24.462	-14.797	75.037	216.669	-15.810	-10.118	95.239	314.561	-12.171	-8.392	-6.189	-2.178	124.290	-4.986	-8191	255	
5535.734	1	1	0	0	0.095085	0.10941	0.30934	0.083559	0.13769	0.089637	0.084303	0.010895	0.1259	0.10909	0.18501	0.12605	0.24934	0.23536	0.35393	0.070996	-2.9125	-2.9375	-2.7896	-3.3479	-2.925	-2.9083	-3.3438	-2.8854	-3.1833	-3.0333	-3.0146	-3.375	-2.6833	-2.9646	-3.2458	-2.7396	-6.268	114.934	282.941	128.841	214.187	27.076	86.361	193.202	104.124	158.722	234.828	-0.548	-16.540	237.070	13.986	291.302	0.00034612	0.00070569	0.00013084	504.74	7.0675e-06	7.4276e-07	644.93	164.15	9.2003e-06	5.6892e-06	238.1	74.578	46.763	17.096	4.4086e-06	29.866	0.0037564	0.0067846	0.0019664	486.01	6.39e-05	7.7705e-05	613.35	159.91	6.1984e-05	7.8445e-05	231.06	72.196	46.414	17.044	7.0189e-05	29.419	11.513	-12.686	60.526	-14.492	82.917	52.739	-15.772	-10.115	100.842	90.517	-12.016	-8.227	-6.827	-2.073	51.694	-5.046	-8191	255	
5535.829	1	1	0	0	0.090759	0.029156	0.14499	0.18893	0.29575	0.32329	0.1595	0.12535	0.080379	0.18612	0.25652	0.17705	0.13251	0.12457	0.26716	0.15602	-2.8083	-3.1188	-2.9104	-3.3271	-2.8875	-2.9917	-3.2167	-2.9271	-3.0646	-3.3625	-2.8625	-3.0854	-3.0187	-2.9875	-3.3229	-2.8771	-16.934	197.897	24.782	281.100	218.826	311.212	234.598	83.252	292.713	317.806	305.964	328.589	83.811	15.480	254.225	318.440	0.00040183	0.00050594	9.6436e-05	506.42	2.6298e-06	2.3053e-06	644.94	167.39	1.3653e-05	3.0392e-06	239.53	74.916	47.138	17.152	6.6137e-06	30.018	0.0037256	0.0069732	0.0019855	487.38	6.5104e-05	7.9047e-05	615.42	160.72	6.3147e-05	7.9143e-05	232.19	72.562	46.672	17.093	6.8671e-05	29.573	38.221	-0.888	46.300	-14.842	32.689	191.551	-15.967	-10.321	126.990	96.232	-12.407	-8.194	-6.565	-2.011	148.711	-4.972	-8191	255	
#DATA ENDS
