BOXY.EXE: ISS Imagent and Oximeter Data Acquisition Program Version 0.80
Ascii Record File

#ACQ INFORMATION
2  Detector Channels 
16  External MUX Channels 
1  Auxiliary Channels 
5000  Waveform (CCF) Frequency (Hz)
1  Waveforms Skipped 
30  Waveforms Averaged 
1  Cycles Averaged 
16  Acquisitions per Waveform 
10.0806  Updata Rate (Hz) 

#FILE INFORMATION
TRUE -- External MUX Channel results are PARSED.
FALSE -- AC DC and Phase are NOT grouped.
TRUE -- Companion Program Settings File CREATED.
FALSE -- AC data not excluded
FALSE -- DC data not excluded
FALSE -- Phase data not excluded
FALSE -- Auxillary Chn. data not excluded
Tab delimiters

#CALIBRATION STATE
TRUE -- Waveform Calibration Values APPLIED.


#AUX CALIBRATION VALUES
Val Type	aux-1	

Term	1.0000e+00	
Factor	0.0000e+00	


#WF CALIBRATION VALUES
A = Detector Channel
Val Type	A-AC1	A-AC2	A-AC3	A-AC4	A-AC5	A-AC6	A-AC7	A-AC8	A-AC9	A-AC10	A-AC11	A-AC12	A-AC13	A-AC14	A-AC15	A-AC16	A-DC1	A-DC2	A-DC3	A-DC4	A-DC5	A-DC6	A-DC7	A-DC8	A-DC9	A-DC10	A-DC11	A-DC12	A-DC13	A-DC14	A-DC15	A-DC16	A-Ph1	A-Ph2	A-Ph3	A-Ph4	A-Ph5	A-Ph6	A-Ph7	A-Ph8	A-Ph9	A-Ph10	A-Ph11	A-Ph12	A-Ph13	A-Ph14	A-Ph15	A-Ph16	

Term	0.00000e+00	0.00000e+00	0.00000e+00	0.00000e+00	0.00000e+00	0.00000e+00	0.00000e+00	0.00000e+00	0.00000e+00	0.00000e+00	0.00000e+00	0.00000e+00	0.00000e+00	0.00000e+00	0.00000e+00	0.00000e+00	0.00000e+00	0.00000e+00	0.00000e+00	0.00000e+00	0.00000e+00	0.00000e+00	0.00000e+00	0.00000e+00	0.00000e+00	0.00000e+00	0.00000e+00	0.00000e+00	0.00000e+00	0.00000e+00	0.00000e+00	0.00000e+00	0.00000e+00	0.00000e+00	0.00000e+00	0.00000e+00	0.00000e+00	0.00000e+00	0.00000e+00	0.00000e+00	0.00000e+00	0.00000e+00	0.00000e+00	0.00000e+00	0.00000e+00	0.00000e+00	0.00000e+00	0.00000e+00	
Factor	1.00000e+00	1.00000e+00	1.00000e+00	1.00000e+00	1.00000e+00	1.00000e+00	1.00000e+00	1.00000e+00	1.00000e+00	1.00000e+00	1.00000e+00	1.00000e+00	1.00000e+00	1.00000e+00	1.00000e+00	1.00000e+00	1.00000e+00	1.00000e+00	1.00000e+00	1.00000e+00	1.00000e+00	1.00000e+00	1.00000e+00	1.00000e+00	1.00000e+00	1.00000e+00	1.00000e+00	1.00000e+00	1.00000e+00	1.00000e+00	1.00000e+00	1.00000e+00	X	X	X	X	X	X	X	X	X	X	X	X	X	X	X	X	

B = Detector Channel
Val Type	B-AC1	B-AC2	B-AC3	B-AC4	B-AC5	B-AC6	B-AC7	B-AC8	B-AC9	B-AC10	B-AC11	B-AC12	B-AC13	B-AC14	B-AC15	B-AC16	B-DC1	B-DC2	B-DC3	B-DC4	B-DC5	B-DC6	B-DC7	B-DC8	B-DC9	B-DC10	B-DC11	B-DC12	B-DC13	B-DC14	B-DC15	B-DC16	B-Ph1	B-Ph2	B-Ph3	B-Ph4	B-Ph5	B-Ph6	B-Ph7	B-Ph8	B-Ph9	B-Ph10	B-Ph11	B-Ph12	B-Ph13	B-Ph14	B-Ph15	B-Ph16	

Term	0.00000e+00	0.00000e+00	0.00000e+00	0.00000e+00	0.00000e+00	0.00000e+00	0.00000e+00	0.00000e+00	0.00000e+00	0.00000e+00	0.00000e+00	0.00000e+00	0.00000e+00	0.00000e+00	0.00000e+00	0.00000e+00	0.00000e+00	0.00000e+00	0.00000e+00	0.00000e+00	0.00000e+00	0.00000e+00	0.00000e+00	0.00000e+00	0.00000e+00	0.00000e+00	0.00000e+00	0.00000e+00	0.00000e+00	0.00000e+00	0.00000e+00	0.00000e+00	-2.26776e+02	-1.29708e+02	-1.25081e+02	-1.81324e+02	-8.13396e+01	-6.84428e+01	-1.55273e+02	-1.62015e+02	-8.44135e+01	-6.57107e+01	-1.73287e+02	-1.69603e+02	-1.82427e+02	-1.77112e+02	-7.61088e+01	-1.49999e+02	
Factor	5.15204e-05	1.63359e-04	4.63749e-05	1.65014e-01	2.13459e-06	1.73112e-06	1.63714e-01	5.20409e-02	2.66509e-06	1.65289e-06	8.93901e-02	2.90941e-02	2.44411e-02	9.00888e-03	1.89399e-06	1.31364e-02	1.97274e-05	3.71382e-05	1.04766e-05	8.31389e-02	3.49691e-07	4.20036e-07	7.75769e-02	2.62501e-02	3.44574e-07	4.22086e-07	4.38463e-02	1.42514e-02	1.24700e-02	4.59518e-03	3.71019e-07	6.48508e-03	X	X	X	X	X	X	X	X	X	X	X	X	X	X	X	X	



#DISTANCE SETTINGS
A = Detector Channel
A-1	A-2	A-3	A-4	A-5	A-6	A-7	A-8	A-9	A-10	A-11	A-12	A-13	A-14	A-15	A-16	

2.5000e+00	3.0000e+00	2.5000e+00	3.0000e+00	2.0000e+00	3.0000e+00	1.5000e+00	3.0000e+00	3.0000e+00	3.0000e+00	3.0000e+00	3.0000e+00	3.0000e+00	3.0000e+00	1.5000e+00	3.0000e+00	

B = Detector Channel
B-1	B-2	B-3	B-4	B-5	B-6	B-7	B-8	B-9	B-10	B-11	B-12	B-13	B-14	B-15	B-16	

1.0000e+01	1.0000e+01	1.0000e+01	1.4400e+00	1.0000e+01	1.0000e+01	1.5100e+00	1.9400e+00	1.0000e+01	1.0000e+01	1.9900e+00	2.4900e+00	2.4100e+00	2.9000e+00	1.0000e+01	2.9800e+00	




#DATA BEGINS
time	group	step	mark	flag	A-AC1	A-AC2	A-AC3	A-AC4	A-AC5	A-AC6	A-AC7	A-AC8	A-AC9	A-AC10	A-AC11	A-AC12	A-AC13	A-AC14	A-AC15	A-AC16	A-DC1	A-DC2	A-DC3	A-DC4	A-DC5	A-DC6	A-DC7	A-DC8	A-DC9	A-DC10	A-DC11	A-DC12	A-DC13	A-DC14	A-DC15	A-DC16	A-Ph1	A-Ph2	A-Ph3	A-Ph4	A-Ph5	A-Ph6	A-Ph7	A-Ph8	A-Ph9	A-Ph10	A-Ph11	A-Ph12	A-Ph13	A-Ph14	A-Ph15	A-Ph16	B-AC1	B-AC2	B-AC3	B-AC4	B-AC5	B-AC6	B-AC7	B-AC8	B-AC9	B-AC10	B-AC11	B-AC12	B-AC13	B-AC14	B-AC15	B-AC16	B-DC1	B-DC2	B-DC3	B-DC4	B-DC5	B-DC6	B-DC7	B-DC8	B-DC9	B-DC10	B-DC11	B-DC12	B-DC13	B-DC14	B-DC15	B-DC16	B-Ph1	B-Ph2	B-Ph3	B-Ph4	B-Ph5	B-Ph6	B-Ph7	B-Ph8	B-Ph9	B-Ph10	B-Ph11	B-Ph12	B-Ph13	B-Ph14	B-Ph15	B-Ph16	aux-1	digaux	

1006.340	1	1	0	256	0.060771	0.04301	0.1157	0.35874	0.23096	0.078856	0.25168	0.16299	0.074239	0.059542	0.39128	0.17631	0.18738	0.22894	0.24039	0.17208	-3.6542	-3.6021	-3.5875	-4.1562	-3.5979	-3.8042	-4.0583	-3.7625	-3.9896	-3.5938	-3.8521	-4.2208	-3.6646	-3.8708	-3.9875	-3.6375	82.692	64.484	130.013	277.131	236.537	117.118	-46.051	256.834	-65.152	153.688	282.404	246.118	235.911	239.719	96.254	-11.725	0.00023943	0.00038196	9.1621e-05	1117.6	4.3729e-06	2.6374e-06	1176.3	233.7	9.9788e-07	2.2497e-06	298.6	84.085	65.005	19.153	2.5363e-06	26.919	0.00026809	0.00025486	6.5937e-05	1105.6	3.3337e-06	2.543e-06	1176	234.45	2.865e-06	2.726e-06	297.05	84.649	65.161	19.531	2.5067e-06	27.435	63.139	18.253	17.009	-59.129	84.670	64.722	-59.096	-52.005	101.082	68.313	-52.197	-45.794	-45.192	-38.675	69.282	-38.552	-8191	255	
1006.436	1	1	0	0	0.04983	0.19899	0.15842	0.18295	0.12891	0.17049	0.14461	0.19683	0.05633	0.12068	0.19244	0.1654	0.23457	0.18871	0.10994	0.14807	-3.7542	-3.7021	-3.6417	-4.1062	-3.6667	-3.6688	-4.0813	-3.6167	-4.1188	-3.8521	-3.6688	-4.0188	-3.7125	-3.7562	-4.0062	-3.6021	-19.955	-29.151	39.199	206.947	-42.422	-41.253	-34.350	95.814	43.188	76.546	160.383	33.148	-33.488	144.659	1.382	177.813	0.00018309	0.00033029	8.0193e-05	1115.4	3.5441e-06	3.6644e-06	1183.5	234.37	3.7889e-06	2.4172e-06	297.82	83.488	64.915	19.203	1.786e-06	26.93	0.00025387	0.0002479	7.314e-05	1104.9	3.3009e-06	2.8772e-06	1178.5	234.45	2.8104e-06	2.5246e-06	296.75	84.523	65.338	19.455	2.6025e-06	27.428	55.616	25.028	49.093	-59.213	97.047	76.235	-59.094	-52.041	48.683	81.040	-52.188	-45.882	-45.506	-38.285	66.476	-38.876	-8191	255	
1006.557	1	1	0	0	0.12729	0.051647	0.18135	0.27445	0.011048	0.2651	0.22057	0.081296	0.091459	0.21482	0.18782	0.17786	0.12405	0.10606	0.23966	0.078805	-3.6688	-3.8521	-3.4958	-4.0563	-3.6562	-3.5375	-4.1354	-3.6979	-3.8646	-3.9708	-3.6604	-4.0417	-3.7771	-3.6688	-4.0521	-3.5771	40.634	-44.925	172.334	245.093	48.947	-49.393	179.389	176.542	191.865	-29.360	199.320	238.063	268.714	12.410	169.719	253.444	0.00023686	0.00031906	3.966e-05	1110.8	2.8128e-06	2.7586e-06	1186.1	234.25	3.1306e-06	2.2342e-06	295.63	83.228	65.05	19.088	3.1485e-06	27.038	0.00026032	0.00025447	6.9953e-05	1104.1	2.9804e-06	2.6777e-06	1176.9	234.23	2.8399e-06	2.0981e-06	295.58	84.292	65.168	19.385	2.3915e-06	27.436	63.336	10.226	14.624	-59.364	92.896	84.033	-58.978	-51.963	47.595	103.079	-52.269	-45.609	-45.626	-38.736	79.133	-38.986	-8191	255	
1006.651	1	1	0	0	0.23734	0.42974	0.035432	0.1601	0.070029	0.17451	0.067726	0.14736	0.17829	0.029026	0.036485	0.19157	0.086457	0.26108	0.066006	0.15689	-3.4896	-4.0146	-3.5167	-4.2458	-3.8125	-3.6896	-4.2542	-3.6667	-3.7875	-3.9813	-3.5896	-4.0583	-3.8375	-3.6208	-4.1521	-3.7292	232.247	70.977	55.746	128.029	-31.901	245.733	185.001	288.724	-9.754	70.403	113.077	206.820	-53.661	274.687	204.466	138.704	0.0002487	0.00029068	6.7954e-05	1115.3	3.5381e-06	1.916e-06	1192.3	235.9	2.8184e-06	4.0377e-06	296.98	83.635	64.574	19.123	2.4065e-06	26.935	0.00026065	0.00021277	6.5785e-05	1101.9	3.0358e-06	2.6191e-06	1176.7	234.17	2.8822e-06	2.4182e-06	296.28	84.416	64.96	19.403	2.4642e-06	27.389	60.277	5.715	46.744	-58.968	103.535	79.746	-58.918	-51.812	77.864	84.191	-51.849	-46.011	-45.430	-38.142	72.642	-38.701	-8191	255	
1006.723	1	1	0	0	0.023895	0.12333	0.05318	0.21994	0.28476	0.20514	0.34028	0.21758	0.18111	0.016828	0.27378	0.11109	0.098994	0.14341	0.23069	0.098862	-3.3542	-4.0542	-3.4042	-4.0979	-3.9021	-3.7146	-4.2083	-3.7854	-3.975	-4.1333	-3.6063	-4.0417	-4.0042	-3.5708	-4.0417	-3.6437	233.629	64.953	-26.235	230.860	12.415	63.443	212.217	229.680	8.606	208.009	194.311	243.449	46.230	111.908	57.514	82.012	0.00024421	0.00025833	8.0333e-05	1106.4	4.1848e-06	3.1716e-06	1186.3	233.54	1.4475e-06	1.867e-06	295.59	83.461	64.505	19.127	3.0179e-06	26.998	0.00026566	0.00020883	7.0586e-05	1102.8	2.944e-06	2.3303e-06	1176.6	233.86	2.5484e-06	2.3224e-06	295.63	84.28	65.129	19.441	2.3413e-06	27.37	55.081	36.831	28.927	-59.120	71.406	73.935	-58.906	-52.187	139.494	100.113	-52.150	-45.665	-45.279	-38.712	61.597	-38.974	-8191	255	
1006.843	1	1	0	0	0.34445	0.22538	0.1164	0.44892	0.13504	0.061788	0.065327	0.11056	0.26913	0.19835	0.17141	0.19003	0.079168	0.1466	0.2111	0.15591	-3.3583	-4.2	-3.6083	-3.9771	-3.9688	-3.4896	-4.3438	-3.9271	-3.8812	-4.1583	-3.6229	-3.8396	-4.0479	-3.7729	-3.9375	-3.9667	-41.193	261.997	25.178	230.492	-2.524	216.692	-55.084	260.515	208.841	142.469	193.503	115.444	251.695	222.930	237.902	214.846	0.00019776	0.0003219	7.9232e-05	1111.2	2.4302e-06	3.3933e-06	1183.9	234.14	1.1941e-06	3.2998e-06	295.25	84.187	65.056	19.274	2.6247e-06	26.805	0.00027109	0.00020975	6.6396e-05	1103.2	2.6227e-06	2.5045e-06	1175.7	234.14	2.763e-06	2.3778e-06	295.61	84.651	65.225	19.489	2.5399e-06	27.419	63.418	27.286	39.365	-59.067	99.323	84.583	-58.830	-52.121	14.234	90.386	-52.273	-45.785	-45.338	-38.568	77.109	-39.356	-8191	255	
1006.939	1	1	0	0	0.12366	0.14538	0.10917	0.17546	0.36299	0.35244	0.21464	0.023159	0.041993	0.043911	0.15334	0.05263	0.26967	0.16015	0.13635	0.088513	-3.1667	-4.0875	-3.7	-3.925	-3.8833	-3.7083	-4.1208	-4	-3.7729	-4.1333	-3.9583	-3.8104	-3.9	-3.4938	-4.0979	-4.0167	204.096	227.750	-65.689	251.635	128.691	115.395	243.371	193.245	-30.380	92.333	288.464	287.668	212.142	257.316	279.600	7.016	0.00022065	0.00028268	0.00011585	1118.1	2.3463e-06	2.0343e-06	1184	233.27	1.5841e-06	3.3955e-06	295.69	83.256	64.715	19.012	2.2742e-06	26.525	0.0002664	0.00023505	7.3795e-05	1106.4	2.7924e-06	2.5088e-06	1177.9	234.36	3.0014e-06	2.3989e-06	295.31	84.2	65.053	19.358	2.5739e-06	27.327	52.162	33.993	8.142	-58.902	49.991	62.989	-58.832	-52.278	123.480	86.627	-52.155	-45.611	-45.495	-38.346	85.917	-39.526	-8191	255	
1007.036	1	1	0	0	0.21496	0.019454	0.062729	0.13992	0.080537	0.18958	0.1132	0.15387	0.133	0.12049	0.22123	0.12279	0.054197	0.044989	0.32517	0.15261	-3.1875	-4.0771	-3.6813	-3.8917	-4.0708	-3.5667	-4.0792	-4.0792	-3.7313	-4.2708	-3.8271	-3.7104	-4.2167	-3.6771	-3.8917	-4.0083	125.978	280.838	202.255	-59.976	106.314	-69.790	222.629	236.352	10.926	49.320	231.341	236.253	249.701	-10.636	-41.433	282.131	0.0002111	0.00034604	0.000107	1117.6	4.2346e-06	3.8986e-06	1186.4	233.55	3.3893e-06	2.6104e-06	295	83.592	64.514	19.084	2.4212e-06	27.029	0.00027088	0.00023652	6.4279e-05	1105.2	2.7946e-06	2.6007e-06	1177	234.19	2.888e-06	2.4191e-06	295.98	84.413	65.135	19.43	2.5152e-06	27.425	69.984	11.404	28.725	-58.987	84.962	81.374	-58.952	-51.862	128.559	90.544	-52.336	-45.339	-45.712	-38.295	77.059	-39.121	-8191	255	
1007.132	1	1	0	0	0.025113	0.11163	0.24094	0.098601	0.05912	0.16921	0.10801	0.12219	0.23411	0.20996	0.17528	0.30394	0.26822	0.19636	0.032767	0.10285	-3.1708	-4.0854	-3.675	-3.7292	-3.8854	-3.6583	-3.9	-3.9062	-3.6375	-4.0125	-3.8396	-3.525	-4.1646	-3.7188	-3.5375	-4.1896	83.369	193.332	230.429	155.114	5.585	78.846	275.580	186.716	167.174	130.787	251.091	110.187	14.600	-46.193	-37.322	165.850	0.00022288	0.00026947	9.9424e-05	1114.7	2.9136e-06	3.2076e-06	1181.3	232.81	3.79e-06	2.9093e-06	296.13	83.482	64.83	19.065	2.7539e-06	26.943	0.00025481	0.00024511	6.6287e-05	1105.2	3.0846e-06	2.7731e-06	1178	234.04	3.0251e-06	2.5123e-06	296.09	84.384	65.244	19.438	2.6203e-06	27.415	63.707	20.264	8.098	-59.051	68.918	99.805	-58.774	-52.221	47.816	88.257	-52.272	-45.316	-45.594	-38.473	132.672	-39.083	-8191	255	
1007.252	1	1	0	0	0.12018	0.16269	0.30917	0.14659	0.11708	0.30779	0.094759	0.17548	0.10615	0.2528	0.19521	0.068178	0.12906	0.13957	0.10601	0.2502	-3.0833	-3.9625	-3.9062	-3.6562	-3.9542	-3.6271	-3.8417	-3.9729	-3.5979	-4.0271	-3.9167	-3.7	-4.0792	-3.7708	-3.6458	-4.1188	12.000	214.501	66.667	214.504	72.772	155.261	191.082	-63.534	203.778	94.313	-12.131	96.708	200.844	-2.432	22.188	213.570	0.00025847	0.0002483	0.00010746	1111.7	4.3348e-06	2.6514e-06	1186.4	233.66	2.4833e-06	2.8292e-06	294.56	83.125	64.592	19.181	2.9491e-06	26.917	0.00026566	0.00022794	6.4759e-05	1105	2.8136e-06	2.5027e-06	1178.6	234.34	2.9002e-06	2.6248e-06	295.64	84.207	65.053	19.453	2.4881e-06	27.445	60.711	7.081	24.075	-59.137	92.325	106.041	-58.894	-52.137	30.314	81.063	-52.201	-45.595	-45.313	-38.282	79.117	-38.989	-8191	255	
1007.349	1	1	0	0	0.20656	0.035534	0.11738	0.12615	0.30895	0.14859	0.079028	0.14606	0.14284	0.28841	0.30144	0.091299	0.20752	0.1766	0.076743	0.026051	-3.2313	-3.7646	-3.9958	-3.6521	-4	-3.6625	-3.7188	-4.0708	-3.6292	-3.7521	-3.9229	-3.5604	-4.0292	-3.8625	-3.6312	-3.9667	187.230	-60.568	-12.921	243.230	264.388	169.849	-44.671	154.818	-26.301	77.643	214.499	130.088	14.830	-62.230	110.203	209.917	0.00020731	0.0003473	0.00011133	1107.7	1.6933e-06	3.2591e-06	1185.4	234.16	1.9952e-06	3.7891e-06	299.15	83.787	64.559	19.167	3.0439e-06	26.993	0.00026398	0.00022159	5.9411e-05	1103.9	2.6577e-06	2.6191e-06	1178.1	234.48	2.8377e-06	2.4446e-06	296.85	84.306	65.104	19.419	2.4789e-06	27.422	54.898	26.103	6.603	-59.177	82.881	88.876	-58.963	-52.057	78.212	87.123	-52.230	-45.936	-45.311	-38.419	72.367	-38.768	-8191	255	
1007.420	1	1	0	0	0.13751	0.077044	0.18414	0.22224	0.073404	0.35821	0.36845	0.14076	0.24088	0.30428	0.17814	0.094817	0.18433	0.19597	0.33823	0.31667	-3.0979	-3.7708	-3.9062	-3.6479	-3.9417	-3.8896	-3.7271	-4.2562	-3.4813	-3.925	-4.1458	-3.6375	-3.9167	-3.9333	-3.6833	-4.1167	111.924	-67.252	32.357	153.185	6.625	278.843	245.890	233.659	64.946	229.759	241.474	47.521	-39.421	1.275	260.960	-64.658	0.0002133	0.00035906	9.3379e-05	1115.3	3.664e-06	3.4289e-06	1179.3	233.1	2.1015e-06	3.0425e-06	296.81	83.465	64.953	19.206	3.8655e-06	26.975	0.00027059	0.00024248	6.9735e-05	1105.5	3.0358e-06	2.5543e-06	1176	234.05	2.921e-06	2.4208e-06	296.6	84.268	65.025	19.394	2.7455e-06	27.4	71.709	23.552	29.309	-59.136	93.645	77.981	-58.934	-52.105	50.135	90.363	-52.270	-45.559	-45.351	-38.754	70.590	-38.850	-8191	255	
1007.516	1	1	0	0	0.14423	0.16886	0.06307	0.21717	0.15928	0.16934	0.26835	0.049718	0.067616	0.022776	0.12487	0.078807	0.20944	0.14809	0.21886	0.062327	-3.3125	-3.8792	-3.9562	-3.5812	-4.1062	-3.8646	-3.85	-4.1167	-3.7208	-3.7542	-4.2604	-3.7604	-3.9479	-3.9729	-3.4562	-4.1125	70.520	93.528	51.503	-14.848	256.732	179.587	271.141	214.319	79.935	237.463	12.344	56.022	255.004	232.467	288.033	98.984	0.00024486	0.00033089	0.00010504	1122.7	2.6474e-06	2.1083e-06	1183.4	234.18	2.9288e-06	2.4797e-06	295.79	83.236	64.299	19.035	2.3713e-06	26.836	0.00025391	0.0002455	5.9499e-05	1105.5	2.9046e-06	2.4108e-06	1176.3	234.08	2.8478e-06	2.638e-06	295.54	84.077	64.984	19.353	2.6435e-06	27.363	60.451	6.860	28.337	-58.786	57.405	73.830	-58.988	-51.865	32.315	107.332	-51.898	-45.664	-45.553	-38.890	102.082	-39.545	-8191	255	
1007.637	1	1	0	0	0.22562	0.083453	0.063997	0.28288	0.37464	0.2522	0.27337	0.10886	0.036463	0.12841	0.34046	0.18228	0.16035	0.20011	0.11265	0.22463	-3.3312	-3.7208	-4.1396	-3.7021	-3.8896	-4.0646	-3.7396	-4.2396	-3.8167	-3.5854	-4.125	-3.6208	-3.825	-4.1646	-3.5146	-4.0813	223.120	53.203	106.685	271.100	-23.553	240.129	241.392	-34.911	35.446	-27.660	198.792	279.910	61.850	278.956	-66.475	236.880	0.00022247	0.00043991	5.4492e-05	1112.6	2.9929e-06	2.7545e-06	1179.8	233.67	2.2445e-06	2.1129e-06	296.35	83.119	64.222	18.886	3.878e-06	26.955	0.00027281	0.00025324	6.0022e-05	1103	2.8325e-06	2.697e-06	1174.4	233.99	2.753e-06	2.5483e-06	295.33	84.12	64.806	19.335	2.7424e-06	27.432	64.447	44.227	58.430	-59.040	101.361	77.818	-58.943	-52.125	59.426	38.212	-51.912	-45.870	-45.625	-39.212	64.214	-38.561	-8191	255	
1007.731	1	1	0	0	0.17627	0.29493	0.0587	0.35591	0.031901	0.10832	0.41456	0.11768	0.1058	0.1899	0.18642	0.27815	0.23792	0.12482	0.25788	0.12512	-3.5833	-3.4479	-4.1583	-3.8083	-3.9354	-4.1583	-3.7104	-4.1583	-3.8458	-3.6042	-4.1	-3.6771	-3.6333	-4.0146	-3.7979	-3.9625	106.673	60.951	281.973	262.232	-23.246	199.978	235.401	101.319	148.312	272.085	232.479	277.395	252.708	103.219	92.410	-32.104	0.00022121	0.00034674	0.00011535	1114.6	2.5923e-06	3.5467e-06	1175.7	233	3.9371e-06	3.6729e-06	294.77	83.396	64.498	19.195	4.9475e-06	26.693	0.00025173	0.00025092	6.3405e-05	1102.3	3.0707e-06	2.5386e-06	1173.1	233.67	2.8908e-06	2.5422e-06	295.34	84.097	64.905	19.38	2.6652e-06	27.34	60.849	31.832	21.929	-59.168	92.227	84.656	-59.244	-52.131	20.155	71.637	-51.579	-45.720	-45.227	-38.421	71.094	-38.991	-8191	255	
1007.828	1	1	0	0	0.12497	0.051159	0.13264	0.23241	0.070459	0.25621	0.14833	0.12432	0.17134	0.24059	0.10125	0.084653	0.19412	0.081285	0.057575	0.12545	-3.5417	-3.6771	-3.9167	-3.9458	-3.5417	-4.1312	-3.7333	-3.9146	-3.9792	-3.4104	-4.0583	-3.7875	-3.7604	-4.1	-3.8771	-3.95	140.822	263.322	41.622	-63.905	206.483	30.123	200.100	237.894	-50.689	189.170	199.990	196.162	71.025	222.651	35.199	284.428	0.00021028	0.00024098	7.4728e-05	1107.6	3.8828e-06	3.8504e-06	1184.6	233.26	3.0909e-06	3.2811e-06	297.2	83.512	64.274	19.132	2.6001e-06	26.804	0.00024499	0.00023436	6.3187e-05	1099.8	3.0511e-06	2.3058e-06	1175.9	234.04	2.748e-06	2.6363e-06	296.15	84.19	64.955	19.376	2.5322e-06	27.299	61.719	22.773	21.441	-58.995	90.762	66.244	-58.800	-51.833	30.673	68.156	-52.150	-45.912	-45.232	-38.537	65.429	-38.930	-8191	255	
1007.924	1	1	0	0	0.18162	0.18735	0.20033	0.22595	0.24468	0.16762	0.11669	0.27292	0.11366	0.12236	0.14166	0.071786	0.1665	0.10602	0.032016	0.099869	-3.5729	-3.4938	-3.9896	-3.7375	-3.5667	-4.0563	-3.9271	-4.0312	-3.9583	-3.5167	-4.1229	-3.9313	-3.4833	-4.0667	-3.8021	-3.6708	-39.200	124.035	-34.064	-58.138	243.044	100.509	162.606	-38.352	257.122	15.909	155.599	179.652	18.180	258.794	170.304	208.909	0.00021827	0.00036634	8.1221e-05	1110	3.737e-06	2.0937e-06	1186.2	233.21	1.548e-06	1.9514e-06	293	82.786	64.2	19.172	1.7646e-06	26.764	0.00025111	0.000253	6.4497e-05	1101.8	3.2638e-06	2.6725e-06	1175.9	233.66	2.5549e-06	2.6794e-06	294.88	83.966	64.86	19.392	2.5299e-06	27.368	55.149	15.886	28.729	-58.988	81.239	54.722	-58.903	-52.084	49.342	71.319	-52.315	-45.863	-45.430	-38.484	80.737	-38.870	-8191	255	
1008.020	1	1	0	0	0.12633	0.051651	0.32165	0.28623	0.19021	0.041333	0.16496	0.078581	0.17921	0.11634	0.13791	0.096504	0.10288	0.093088	0.3098	0.18103	-3.7583	-3.5583	-3.8854	-4.1167	-3.7208	-4.1625	-3.7729	-3.7479	-4.0625	-3.6646	-3.9562	-3.9667	-3.5438	-4.1188	-3.7979	-3.6458	-20.674	-8.541	210.804	242.019	208.865	123.319	162.900	266.970	274.479	159.906	270.402	221.401	191.571	160.725	267.910	234.769	0.00021045	0.00037205	7.214e-05	1109.9	3.6117e-06	3.215e-06	1181.5	232	2.3216e-06	2.3681e-06	294.17	83.3	64.254	19.05	3.4623e-06	26.878	0.0002521	0.00026167	6.1048e-05	1100.9	3.2397e-06	2.4248e-06	1175.1	233.61	2.6654e-06	2.7462e-06	295.53	84.061	64.865	19.391	2.5461e-06	27.356	61.657	14.336	21.780	-58.996	84.931	73.785	-59.004	-51.895	76.197	94.621	-51.957	-45.947	-45.330	-38.361	95.089	-39.033	-8191	255	
1008.116	1	1	0	0	0.16004	0.025426	0.20055	0.14828	0.23803	0.12246	0.34689	0.25698	0.043436	0.1527	0.15697	0.099499	0.14549	0.13955	0.1912	0.045431	-3.7458	-3.6188	-3.8333	-4.0437	-3.55	-4.0646	-3.8167	-3.7562	-3.9208	-3.5417	-3.8667	-3.9667	-3.4875	-3.9479	-3.8771	-3.7083	-52.042	232.504	33.645	283.120	275.617	218.126	262.437	271.065	158.430	75.497	219.095	165.725	7.763	262.264	28.069	175.264	0.00024466	0.00021543	5.5455e-05	1115.5	4.034e-06	2.0645e-06	1179.9	233.58	1.5797e-06	3.1959e-06	292.35	83.159	64.616	18.852	3.8192e-06	27.077	0.0002604	0.00023807	6.5566e-05	1103.1	3.2893e-06	2.4773e-06	1175.4	233.52	2.7243e-06	2.6248e-06	294.26	83.793	64.972	19.28	2.5021e-06	27.408	55.196	35.108	26.338	-59.158	130.502	81.495	-58.887	-51.923	64.101	75.972	-52.229	-45.700	-45.710	-38.828	94.064	-38.762	-8191	255	
1008.237	1	1	0	0	0.14171	0.061517	0.036836	0.22421	0.10631	0.05215	0.23145	0.17898	0.13482	0.26587	0.020406	0.29872	0.19985	0.053907	0.33506	0.16651	-3.5375	-3.5875	-3.5854	-4.0604	-3.5854	-3.9771	-3.8958	-3.6167	-4.0917	-3.4771	-3.7292	-4.075	-3.4021	-3.9437	-3.8208	-3.4562	39.104	277.260	106.071	191.121	-32.939	-59.238	-6.312	20.266	275.688	138.873	-12.236	251.971	-65.071	270.989	269.124	254.843	0.00021731	0.00029225	8.1311e-05	1111.7	3.3087e-06	2.2314e-06	1178.9	232.34	2.9495e-06	3.3206e-06	296.44	83.017	64.397	19.129	2.1821e-06	26.713	0.00025284	0.00024952	6.4781e-05	1102.2	3.1414e-06	2.5561e-06	1174.5	233.97	2.982e-06	2.8719e-06	296.14	84.04	64.867	19.385	2.3923e-06	27.278	61.440	13.579	15.547	-58.977	72.654	80.788	-59.073	-52.253	77.437	87.752	-52.174	-45.559	-45.451	-38.447	72.980	-39.161	-8191	255	
1008.333	1	1	0	0	0.10038	0.070087	0.1109	0.084479	0.13996	0.29824	0.11981	0.083932	0.087978	0.039601	0.12618	0.19028	0.08013	0.16173	0.26354	0.071188	-3.5729	-3.5729	-3.4271	-4.1312	-3.5208	-3.8104	-4.1312	-3.65	-4.0646	-3.7458	-3.7562	-4.1083	-3.7229	-3.8917	-3.9521	-3.6083	-62.375	-34.535	274.999	153.199	97.046	257.967	211.308	264.890	62.047	216.587	258.136	-31.388	119.819	-68.030	218.658	-5.230	0.0002217	0.00033352	9.0804e-05	1112.7	9.5507e-07	2.6904e-06	1182.2	232.86	2.7175e-06	2.7958e-06	294.94	83.101	64.656	19.129	3.2836e-06	26.716	0.0002657	0.00024186	6.3449e-05	1103.6	3.0948e-06	2.5937e-06	1174.6	233.72	2.5972e-06	2.6196e-06	295.16	84.027	64.83	19.374	2.5492e-06	27.334	64.079	13.248	31.319	-59.012	16.037	89.940	-58.913	-51.985	84.222	80.497	-52.121	-45.770	-45.248	-38.345	112.114	-38.853	-8191	255	
1008.429	1	1	0	0	0.098554	0.24303	0.11102	0.17901	0.37624	0.10647	0.15234	0.14712	0.052283	0.1339	0.11256	0.12675	0.12436	0.079601	0.098589	0.050676	-3.5917	-3.5896	-3.6063	-4.25	-3.6312	-3.8792	-4.0333	-3.6375	-4.0667	-3.8917	-3.6229	-4.0687	-3.6875	-3.6688	-4.0667	-3.6813	252.406	-27.066	273.957	250.466	10.455	20.822	271.542	137.753	51.783	-53.153	273.671	230.651	165.243	160.704	146.780	-0.183	0.00021971	0.00030289	8.7225e-05	1115.8	3.0044e-06	2.88e-06	1180.8	234.34	8.3474e-07	3.1403e-06	294.86	83.543	64.692	19.079	2.3897e-06	27.091	0.00025806	0.00025192	7.3075e-05	1103.7	3.0613e-06	2.4852e-06	1175.2	233.77	2.8083e-06	2.4085e-06	295.52	84.437	65.044	19.349	2.3513e-06	27.412	56.069	13.477	27.225	-58.970	81.209	100.550	-58.953	-52.026	70.785	68.082	-52.274	-45.681	-45.354	-38.639	110.765	-38.954	-8191	255	
1008.525	1	1	0	0	0.021824	0.19804	0.26678	0.20733	0.1146	0.089954	0.28476	0.30732	0.10925	0.041141	0.2526	0.08833	0.10871	0.21038	0.14655	0.11649	-3.4813	-4.0062	-3.5646	-4.1937	-3.5687	-3.6646	-3.9771	-3.5458	-3.7958	-3.8708	-3.5125	-4.0792	-3.7375	-3.6646	-4.0062	-3.4938	271.974	43.482	47.192	226.579	200.854	156.523	248.691	240.523	205.173	86.447	256.234	8.374	278.857	-49.663	-20.908	219.442	0.00022229	0.00033547	8.2802e-05	1115.1	2.0048e-06	3.7833e-06	1180.1	233.44	3.1487e-06	2.7064e-06	293.94	83.305	64.16	19.068	2.0885e-06	26.896	0.00025905	0.00021471	6.884e-05	1105	2.9476e-06	2.7381e-06	1176.5	234.15	2.8607e-06	2.7207e-06	295.16	84.242	64.898	19.343	2.5995e-06	27.36	55.671	31.691	32.214	-59.285	108.526	98.462	-58.868	-52.003	78.053	74.791	-52.113	-45.785	-45.312	-38.740	49.690	-38.849	-8191	255	
1008.644	1	1	0	0	0.065613	0.20431	0.28958	0.18488	0.17069	0.0376	0.34076	0.12281	0.18641	0.1083	0.12896	0.16066	0.10346	0.18899	0.15531	0.077475	-3.4542	-3.8229	-3.5792	-3.9875	-3.9042	-3.6021	-4.1813	-3.7917	-3.8667	-4.0104	-3.5125	-3.9437	-3.8771	-3.6458	-4.075	-3.725	84.436	225.756	150.694	192.944	284.769	221.007	254.128	-52.552	20.715	-56.943	-49.535	264.394	176.624	250.668	169.302	0.271	0.00017099	0.00028661	0.00010838	1110.9	2.4033e-06	2.6704e-06	1182.8	232.69	3.5988e-06	2.9548e-06	298.42	83.586	65.035	19.267	2.451e-06	26.866	0.00026155	0.00021563	7.0106e-05	1102.3	2.9512e-06	2.4913e-06	1175.5	233.75	3.0021e-06	2.5281e-06	296.3	84.344	65.054	19.443	2.4302e-06	27.412	55.698	2.067	22.428	-59.234	79.071	95.339	-58.912	-52.211	60.763	95.520	-52.239	-45.414	-45.518	-38.212	53.864	-38.815	-8191	255	
1008.716	1	1	0	0	0.085751	0.17941	0.12107	0.2362	0.050962	0.14556	0.32193	0.1841	0.14014	0.081533	0.30036	0.17598	0.21083	0.26292	0.090224	0.08112	-3.2333	-3.7667	-3.525	-4.075	-3.7938	-3.4437	-4.1417	-3.775	-3.7583	-4.0458	-3.7104	-4.0333	-3.9792	-3.4667	-4.0312	-3.6458	33.860	83.993	-0.635	-18.384	181.471	268.916	160.620	197.307	174.865	174.893	98.673	-10.466	107.712	254.797	99.957	256.996	0.00023255	0.00031342	9.0904e-05	1115.2	2.7017e-06	2.8128e-06	1185.7	233.29	3.2905e-06	2.3553e-06	294.76	82.992	64.701	19.211	1.4082e-06	26.966	0.00026566	0.00023134	7.9361e-05	1107	2.8442e-06	2.83e-06	1178.1	233.73	2.8391e-06	2.3716e-06	295.81	84.148	65.115	19.419	2.4309e-06	27.37	78.534	27.613	29.815	-58.910	81.722	87.669	-59.006	-51.993	98.635	83.728	-52.181	-46.225	-45.558	-38.381	93.487	-38.861	-8191	255	
1008.812	1	1	0	0	0.1169	0.053726	0.11107	0.14845	0.033842	0.1296	0.35747	0.17508	0.21473	0.067705	0.10739	0.093152	0.098727	0.091581	0.0093633	0.13007	-3.2396	-3.9292	-3.4333	-4.0271	-3.9542	-3.4604	-4.0833	-3.8396	-3.6708	-4.2646	-3.7146	-4.0521	-3.8125	-3.4771	-4.0854	-3.9	271.921	246.964	215.512	-2.665	214.935	69.590	218.546	223.729	20.335	214.574	274.986	37.454	119.438	230.603	-46.154	81.876	0.00020351	0.00029	6.6395e-05	1122.7	2.1576e-06	3.3919e-06	1183.7	232.41	1.7642e-06	2.3331e-06	297.35	83.593	64.513	19.138	2.9082e-06	26.806	0.00025744	0.00025014	7.0936e-05	1106.3	2.8398e-06	2.8449e-06	1176.2	233.93	2.7824e-06	2.8394e-06	296.07	84.147	65.052	19.438	2.4657e-06	27.328	59.074	14.419	31.870	-59.060	82.369	77.661	-59.117	-51.933	119.110	94.753	-52.045	-45.508	-45.190	-38.743	65.227	-39.215	-8191	255	
1008.908	1	1	0	0	0.1	0.11815	0.25238	0.21779	0.18191	0.11637	0.22543	0.25288	0.13259	0.10087	0.18038	0.18865	0.10964	0.10058	0.12783	0.16908	-3.2083	-4.2104	-3.5646	-3.9458	-3.9562	-3.5812	-3.9958	-3.975	-3.6979	-4.1229	-3.8187	-3.7583	-4.1229	-3.5604	-4.05	-3.8958	283.271	284.021	208.670	35.335	241.839	123.143	188.217	198.380	183.995	16.876	76.993	208.865	12.205	199.581	90.478	276.294	0.00023487	0.00020322	8.0481e-05	1114.7	2.5784e-06	3.6026e-06	1176.8	233.11	1.4866e-06	2.3804e-06	295.79	83.499	64.968	19.172	2.859e-06	26.948	0.00026135	0.00023892	6.585e-05	1105	2.9374e-06	2.6987e-06	1176.7	233.85	2.9978e-06	2.6099e-06	295.64	84.234	65.148	19.407	2.5523e-06	27.373	63.305	40.285	26.321	-58.953	76.612	81.264	-59.170	-52.122	26.212	99.661	-52.127	-45.677	-45.091	-38.865	112.260	-38.784	-8191	255	
1009.029	1	1	0	0	0.10821	0.14718	0.12569	0.038761	0.11539	0.10517	0.18478	0.11683	0.15344	0.15117	0.24278	0.080719	0.24916	0.103	0.14699	0.24948	-3.1437	-4.1771	-3.6875	-3.8354	-3.9188	-3.5229	-4.1604	-4.0646	-3.5042	-4.1979	-3.8083	-3.8521	-4.0583	-3.6188	-3.8521	-3.7479	172.961	237.442	8.225	-20.184	204.984	-0.303	281.399	-65.524	258.231	201.215	243.110	225.933	244.838	-22.069	165.871	-34.743	0.00020592	0.00031714	9.1364e-05	1113.7	3.2555e-06	3.0524e-06	1190.6	236.47	4.6912e-06	2.6593e-06	295.15	83.701	63.942	19.192	2.2847e-06	27.07	0.0002842	0.00022059	6.4759e-05	1106.5	2.9316e-06	2.7259e-06	1180	234.92	3.0861e-06	2.4402e-06	295.8	84.275	64.801	19.406	2.4433e-06	27.452	56.495	7.257	32.920	-59.324	81.579	84.669	-59.060	-52.081	43.604	80.658	-51.970	-45.751	-45.457	-38.506	68.506	-38.906	-8191	255	
1009.125	1	1	0	0	0.24316	0.19081	0.023618	0.15749	0.14284	0.070683	0.32775	0.10976	0.13029	0.23913	0.2049	0.18236	0.083792	0.13054	0.20305	0.077481	-3.0542	-4.0188	-3.8	-3.75	-4.1625	-3.6292	-3.975	-4.2125	-3.4604	-4.025	-3.9125	-3.7896	-4.0417	-3.6271	-3.7646	-4.075	95.841	19.707	220.065	-54.060	206.030	-21.170	208.773	223.610	214.013	1.411	230.368	221.896	153.234	99.382	87.266	211.799	0.00023671	0.0003254	9.1597e-05	1110.8	3.0804e-06	3.4409e-06	1185.7	234.35	3.791e-06	2.9166e-06	293	82.713	64.174	19.086	2.6936e-06	26.916	0.0002729	0.0002291	6.9015e-05	1105.3	3.0212e-06	2.6016e-06	1179	234.49	3.01e-06	2.4551e-06	295.18	84.036	64.909	19.411	2.7602e-06	27.433	49.662	33.615	9.147	-59.150	73.862	68.899	-59.046	-51.941	41.452	119.819	-52.374	-45.865	-45.674	-38.390	85.781	-39.125	-8191	255	
1009.221	1	1	0	0	0.30132	0.16569	0.094957	0.12804	0.038509	0.036165	0.17965	0.036702	0.27569	0.13949	0.17632	0.13775	0.19034	0.1763	0.15109	0.15886	-3.1229	-4.0875	-3.8604	-3.7625	-4.0646	-3.9083	-4.0062	-4.0979	-3.5438	-3.8646	-3.9854	-3.4604	-4.0229	-3.8563	-3.7646	-4.0354	142.743	189.103	23.165	-49.316	212.076	-39.066	-53.396	68.543	248.563	0.551	185.530	-47.768	162.677	-18.103	186.917	-17.181	0.00021401	0.00031198	9.5737e-05	1120.5	3.5263e-06	2.9589e-06	1186.2	232.65	4.4982e-06	2.2768e-06	295.11	83.292	65.278	19.152	3.7105e-06	26.851	0.0002747	0.00022941	6.0328e-05	1107.5	2.7465e-06	2.6524e-06	1178.6	233.79	3.076e-06	2.4921e-06	295.52	84.238	65.161	19.43	2.5353e-06	27.375	51.955	9.387	13.407	-59.041	81.933	85.685	-59.023	-52.094	51.452	92.881	-52.153	-45.514	-45.343	-38.720	76.111	-38.986	-8191	255	
1009.317	1	1	0	0	0.067362	0.072285	0.34672	0.29864	0.098598	0.11636	0.11544	0.079849	0.15432	0.18963	0.24135	0.053071	0.12049	0.18436	0.17	0.10684	-3.0792	-3.9313	-3.7896	-3.8625	-3.8667	-3.7188	-3.7729	-4.0917	-3.6937	-3.9958	-4.1167	-3.8396	-4.1438	-3.7667	-3.6604	-4.2667	14.098	245.931	149.162	236.720	-33.645	63.967	221.510	157.852	-24.251	-0.475	71.305	228.918	195.425	169.559	-68.628	200.558	0.00015981	0.00028655	6.532e-05	1118.3	2.1948e-06	3.2058e-06	1189.3	234.81	3.1508e-06	2.4245e-06	296.16	83.367	64.711	19.174	3.0899e-06	26.952	0.00025974	0.00021331	6.513e-05	1104.3	2.9236e-06	2.4056e-06	1179.8	234.48	2.8485e-06	2.4973e-06	295.65	84.159	65.14	19.435	2.7973e-06	27.393	55.319	35.880	38.412	-59.060	73.576	82.410	-58.939	-52.070	57.316	92.494	-52.359	-45.785	-45.637	-38.449	55.243	-38.756	-8191	255	
1009.413	1	1	0	0	0.14877	0.25078	0.11896	0.099711	0.11961	0.1218	0.10874	0.19683	0.14443	0.11888	0.16265	0.17764	0.26366	0.20828	0.12854	0.067454	-3.3104	-3.7521	-4.1146	-3.6792	-3.8312	-3.8229	-3.8396	-4.1646	-3.7292	-3.7521	-4.0813	-3.7271	-4.1375	-3.7875	-3.5687	-3.9583	215.834	169.698	115.413	-11.240	171.072	-14.783	-25.378	-36.560	197.084	156.562	229.027	253.495	-56.671	274.780	137.739	152.796	0.00021484	0.00028936	9.8821e-05	1107.5	1.9052e-06	2.7527e-06	1186.7	234.82	2.3028e-06	4.0006e-06	294.08	82.504	63.938	19.052	2.8062e-06	26.775	0.00025962	0.00023854	6.2642e-05	1102.9	2.9126e-06	2.1938e-06	1178.6	234.32	2.9346e-06	2.3672e-06	295.24	84.014	64.966	19.443	2.7378e-06	27.402	66.495	16.892	21.733	-59.239	45.762	96.871	-59.036	-51.959	110.909	99.239	-52.333	-45.831	-45.658	-39.151	89.028	-39.014	-8191	255	
1009.509	1	1	0	0	0.101	0.3178	0.092813	0.23657	0.1276	0.10366	0.062835	0.13846	0.11181	0.06981	0.14845	0.058438	0.059333	0.15634	0.21629	0.15123	-3.175	-3.6042	-4.0458	-3.6396	-3.8812	-3.85	-3.6396	-4.2229	-3.725	-3.6729	-4.1625	-3.6	-3.7562	-3.8167	-3.5146	-3.8396	160.639	212.013	24.815	235.913	163.669	249.080	238.515	284.843	189.055	131.548	25.989	17.160	236.894	41.550	32.829	247.239	0.00020541	0.0002925	9.0888e-05	1121.3	2.8435e-06	2.7122e-06	1185.8	233.85	2.718e-06	3.9922e-06	294.18	83.163	64.518	19.153	2.9939e-06	26.885	0.00025107	0.00023683	6.4126e-05	1105.9	3.0634e-06	2.3417e-06	1178.1	234.09	2.9102e-06	2.777e-06	295.61	84.1	65.042	19.372	2.7571e-06	27.339	53.896	3.618	34.848	-59.088	49.451	92.785	-58.828	-52.098	59.373	80.331	-52.241	-45.414	-45.198	-38.281	63.350	-38.779	-8191	255	
1009.605	1	1	0	0	0.063006	0.10283	0.20927	0.055002	0.098424	0.25834	0.24227	0.13882	0.23896	0.32733	0.081405	0.11449	0.19347	0.097019	0.21474	0.34128	-3.2792	-3.7	-3.9542	-3.6958	-3.9042	-3.8958	-3.4771	-4.25	-3.7521	-3.7271	-4.1583	-3.5792	-3.7667	-3.9167	-3.5563	-4.025	11.372	-3.411	108.004	123.451	198.335	-67.538	273.714	239.403	53.232	-30.822	172.023	211.624	207.888	-39.308	70.065	263.019	0.00023651	0.00031105	0.00010653	1117.1	1.3019e-06	3.2372e-06	1179.4	234.21	3.2755e-06	2.8242e-06	295.66	82.936	64.414	19.091	2.5395e-06	26.877	0.0002588	0.00025641	6.8491e-05	1105.8	2.8398e-06	2.6121e-06	1176.7	234.45	2.6855e-06	2.6618e-06	295.71	83.931	64.99	19.435	2.737e-06	27.385	59.903	20.911	20.594	-59.126	48.119	75.753	-59.029	-51.834	65.471	77.603	-52.181	-45.621	-45.517	-38.404	84.390	-39.095	-8191	255	
1009.724	1	1	0	0	0.11006	0.17367	0.074825	0.11014	0.15	0.27874	0.34855	0.19711	0.023333	0.17607	0.24993	0.080733	0.11899	0.22727	0.18835	0.13132	-3.2917	-3.5875	-3.9271	-3.7792	-3.7646	-4.0229	-3.8167	-4.1021	-3.8521	-3.5896	-4.1792	-3.5958	-3.7083	-3.9938	-3.6833	-4.0146	-23.335	205.873	5.731	202.842	-53.465	75.733	184.114	233.574	-42.126	126.636	265.163	237.749	226.145	-27.023	277.997	259.022	0.00021065	0.00024005	9.3652e-05	1115.2	3.3999e-06	2.6454e-06	1184.5	231.99	2.2223e-06	2.2901e-06	295.47	83.281	64.7	19.215	3.5023e-06	26.831	0.00025272	0.00026066	6.3973e-05	1104.6	3.1479e-06	2.2621e-06	1178.2	233.4	2.8901e-06	2.5299e-06	295.9	84.082	65.058	19.464	2.5948e-06	27.424	61.723	40.841	30.966	-59.010	61.280	105.772	-58.952	-51.969	22.846	92.414	-52.125	-45.692	-45.598	-38.197	78.830	-39.348	-8191	255	
1009.820	1	1	0	0	0.18244	0.10486	0.10273	0.16987	0.18588	0.089225	0.05925	0.11439	0.066539	0.070494	0.26005	0.11568	0.15926	0.11513	0.063869	0.15052	-3.4021	-3.4271	-3.9375	-3.8187	-3.7812	-4.1062	-3.5917	-3.8917	-3.8542	-3.5146	-4.1271	-3.7417	-3.5771	-4	-3.4896	-3.7542	84.686	257.020	105.570	279.476	207.578	107.006	170.198	223.660	-38.647	162.510	209.914	35.675	278.645	223.511	266.037	270.134	0.00021264	0.00034541	0.00011328	1116	2.1464e-06	2.7643e-06	1178.6	233.85	5.957e-07	3.4164e-06	294.18	83.603	64.099	19.082	3.1486e-06	26.879	0.00024815	0.00024627	6.3056e-05	1106.1	2.995e-06	2.2927e-06	1174.8	233.73	2.5685e-06	2.748e-06	295.31	84.308	64.777	19.384	2.5871e-06	27.379	56.762	10.053	13.160	-58.973	70.979	70.470	-58.916	-51.939	70.196	92.547	-52.067	-45.887	-45.516	-38.436	98.442	-38.966	-8191	255	
1009.917	1	1	0	0	0.10224	0.27581	0.15103	0.35757	0.24497	0.12853	0.35157	0.31496	0.083079	0.16085	0.18302	0.20478	0.1081	0.21333	0.2443	0.22463	-3.4979	-3.5458	-3.8063	-3.9688	-3.5583	-4.0188	-3.7396	-3.6958	-3.9917	-3.5875	-3.9875	-3.9708	-3.5583	-3.9625	-3.7208	-3.8771	7.475	-50.307	238.859	245.664	30.314	219.450	211.789	266.781	-62.203	214.959	245.854	230.041	140.946	20.129	289.963	249.776	0.00023935	0.00022191	8.0201e-05	1113.6	2.7924e-06	3.0741e-06	1193.3	234.95	9.1913e-07	2.949e-06	296.81	83.706	64.605	19.136	3.9716e-06	26.894	0.00024926	0.00024078	6.8207e-05	1104	3.1326e-06	2.543e-06	1178.7	234.74	2.8018e-06	2.6882e-06	295.99	84.171	64.982	19.39	2.6165e-06	27.354	67.723	22.863	28.892	-59.204	103.620	74.292	-58.967	-51.736	-12.862	87.249	-51.838	-45.857	-45.373	-38.559	74.678	-39.095	-8191	255	
1010.013	1	1	0	0	0.11208	0.10174	0.19157	0.17544	0.10127	0.23221	0.41638	0.21622	0.13429	0.15581	0.11558	0.22333	0.087843	0.12983	0.2193	0.22285	-3.4333	-3.4771	-4.0083	-3.9083	-3.5021	-4.1333	-3.8937	-3.8771	-4.2438	-3.5792	-3.9562	-3.9833	-3.4292	-4.0333	-3.7292	-3.5667	165.837	33.353	32.820	254.399	15.990	24.755	284.564	-67.892	208.621	288.578	210.634	261.575	66.493	33.595	219.329	226.950	0.00017368	0.00032775	8.52e-05	1110.9	2.4418e-06	3.3363e-06	1182.4	233.64	3.1855e-06	3.0019e-06	294.78	83.19	64.542	19.068	3.3159e-06	26.713	0.00025395	0.00025099	6.2838e-05	1102.7	3.2397e-06	2.3863e-06	1176.6	234.01	2.847e-06	2.6662e-06	295.16	83.98	64.982	19.383	2.5206e-06	27.383	66.462	38.811	27.482	-59.143	72.003	90.383	-58.969	-51.826	100.155	93.610	-52.287	-45.430	-45.516	-38.524	78.457	-39.011	-8191	255	
1010.109	1	1	0	0	0.15918	0.084255	0.15652	0.072486	0.080452	0.10526	0.27016	0.17607	0.29459	0.24464	0.19328	0.18586	0.15849	0.099809	0.18919	0.13039	-3.6854	-3.5187	-3.9167	-4.2083	-3.5146	-3.9167	-3.7875	-3.6063	-4.1208	-3.6063	-3.9708	-4.1104	-3.4354	-3.9062	-3.9979	-3.6583	112.798	180.270	24.631	-62.380	-52.153	271.481	239.255	65.732	135.770	-36.010	210.772	244.901	253.902	1.206	110.621	156.616	0.00020019	0.0001921	0.00010173	1115.8	3.0623e-06	2.9276e-06	1186.7	234.25	3.6988e-06	2.4861e-06	292.68	84.053	65.169	19.17	3.1049e-06	26.934	0.00024881	0.00024016	6.3842e-05	1105.4	3.1815e-06	2.4765e-06	1179.9	234.38	2.926e-06	2.4551e-06	295.05	84.27	65.035	19.441	2.4309e-06	27.405	71.883	19.340	11.673	-59.093	111.418	69.037	-59.172	-52.010	78.199	102.502	-52.384	-45.690	-45.458	-38.349	80.488	-38.567	-8191	255	
1010.205	1	1	0	0	0.15329	0.12987	0.082234	0.16416	0.10185	0.22793	0.32839	0.087081	0.1153	0.24005	0.058685	0.042525	0.1991	0.052063	0.066146	0.11455	-3.8167	-3.6437	-3.7458	-4.1188	-3.5375	-3.8667	-4.2354	-3.5333	-4.0396	-3.7604	-3.8333	-4.0021	-3.5354	-3.8854	-3.9146	-3.5229	-60.569	270.976	272.470	-63.712	70.803	241.280	-57.588	199.501	159.775	94.980	239.152	269.496	50.746	268.601	80.096	226.610	0.00018839	0.00029902	9.2207e-05	1119.3	3.6627e-06	1.2972e-06	1185.3	233.71	2.6985e-06	2.8864e-06	295.17	83.098	64.902	19.109	2.8489e-06	26.937	0.00024704	0.00024186	6.011e-05	1106.9	3.0212e-06	2.3732e-06	1178	234.07	2.6812e-06	2.5703e-06	295.64	84.206	65.062	19.413	2.7278e-06	27.477	62.672	19.236	18.126	-59.188	48.358	90.125	-58.937	-51.874	90.731	71.622	-52.414	-45.559	-45.638	-38.441	96.875	-38.823	-8191	255	
1010.326	1	1	0	0	0.097344	0.15451	0.099561	0.096799	0.056845	0.2537	0.22383	0.26373	0.070235	0.17769	0.065635	0.273	0.20406	0.14303	0.03867	0.089207	-3.6813	-3.5667	-3.6271	-4.2542	-3.6063	-4.0625	-4.0875	-3.5375	-4.1021	-3.8729	-3.7021	-4.3417	-3.7125	-3.8375	-3.9292	-3.4188	280.462	14.316	84.836	268.365	8.430	-10.612	-63.514	250.663	21.147	81.096	82.802	237.885	236.272	-38.510	131.798	107.037	0.00017941	0.00030172	7.6578e-05	1119.9	1.8912e-06	3.8938e-06	1191.9	234.84	2.7623e-06	2.3564e-06	296.69	83.046	64.169	19.147	1.7953e-06	26.715	0.00024626	0.00023652	7.015e-05	1106.9	3.1771e-06	2.3627e-06	1179.5	234.54	2.9447e-06	2.5061e-06	295.36	84.226	64.986	19.457	2.4619e-06	27.421	62.099	16.062	32.007	-59.028	93.999	74.661	-58.975	-51.927	76.551	71.229	-52.403	-45.912	-45.507	-38.675	82.774	-38.863	-8191	255	
1010.422	1	1	0	0	0.034437	0.040426	0.20746	0.27007	0.098423	0.17164	0.17439	0.19703	0.15516	0.16561	0.19534	0.068516	0.29832	0.21319	0.1416	0.14297	-3.5521	-3.8042	-3.5812	-4.1833	-3.5062	-3.6396	-4.0583	-3.6	-3.9167	-3.75	-3.5687	-3.8917	-3.4875	-3.9083	-3.9896	-3.8187	-25.998	-22.117	18.949	266.924	154.081	285.140	166.450	232.374	191.879	263.715	190.556	211.382	-20.416	233.923	169.184	206.416	0.00019772	0.00027232	0.00010524	1112.7	2.8978e-06	1.3078e-06	1179.1	233.85	1.3298e-06	3.0863e-06	296.69	82.678	64.927	19.087	3.5792e-06	26.93	0.000244	0.00022832	7.4755e-05	1104.9	3.0008e-06	2.6629e-06	1175.4	234.26	2.6575e-06	2.5818e-06	296.41	84.15	65.223	19.446	2.5995e-06	27.44	60.067	22.724	34.586	-59.189	40.306	65.720	-59.020	-51.973	39.196	87.259	-52.293	-45.998	-45.687	-38.341	77.176	-39.308	-8191	255	
1010.516	1	1	0	0	0.097211	0.12672	0.2606	0.16813	0.29083	0.26306	0.2202	0.16187	0.1323	0.11139	0.19968	0.18266	0.21619	0.17223	0.24789	0.14443	-3.4604	-3.8792	-3.5104	-4.2604	-3.7979	-3.6771	-4.1813	-3.5167	-3.9729	-3.7146	-3.7354	-3.9375	-4.05	-3.6167	-4.1833	-3.6312	-5.673	30.539	134.164	225.375	161.686	201.314	215.688	161.918	68.890	214.736	255.179	75.899	138.431	267.266	272.340	110.759	0.00019374	0.0002309	0.000108	1110.2	2.1165e-06	2.5834e-06	1191.4	233.77	5.4275e-06	4.0993e-06	295.39	83.478	64.778	19.102	2.4497e-06	26.937	0.00025637	0.00022886	7.3467e-05	1105.2	2.8165e-06	2.459e-06	1180.6	234.26	2.809e-06	2.5782e-06	296.14	84.384	65.005	19.388	2.4309e-06	27.396	62.496	23.726	28.073	-59.144	90.342	82.004	-59.115	-51.458	77.029	93.478	-52.144	-45.671	-45.197	-38.429	64.379	-39.029	-8191	255	
1010.590	1	1	0	0	0.026208	0.037193	0.17294	0.054577	0.13228	0.38086	0.10022	0.094494	0.15941	0.27287	0.13152	0.23709	0.19327	0.18191	0.098276	0.083861	-3.7479	-3.8312	-3.5667	-4.2021	-4.0375	-3.8083	-4.2604	-3.6958	-3.8646	-4.0042	-3.5125	-4.2083	-3.7396	-3.8312	-3.9854	-3.7708	269.439	-64.430	4.446	267.103	-21.551	-7.989	166.100	145.214	201.556	1.897	216.417	252.608	3.576	222.924	218.985	159.377	0.00018213	0.00027012	7.5315e-05	1114	2.7778e-06	3.5004e-06	1180.9	232.37	2.7127e-06	2.4845e-06	296.08	83.03	64.186	19.207	3.0791e-06	26.708	0.00023529	0.00025324	6.9037e-05	1104.7	2.9323e-06	2.6086e-06	1177.8	233.73	2.5886e-06	2.3628e-06	296.14	84.092	64.995	19.427	2.676e-06	27.366	69.329	13.825	45.221	-58.916	78.544	68.420	-58.864	-52.105	54.393	73.866	-52.032	-45.770	-45.085	-38.277	62.445	-38.844	-8191	255	
1010.709	1	1	0	0	0.24173	0.11288	0.1817	0.36107	0.19377	0.13079	0.30816	0.1654	0.15244	0.23823	0.26715	0.1231	0.27191	0.061109	0.12855	0.11904	-3.5479	-3.8688	-3.5646	-3.9958	-3.8688	-3.6958	-4.1875	-3.6646	-3.6021	-4.0729	-3.5792	-3.9292	-3.9396	-3.5375	-3.7979	-3.8479	245.032	-16.604	269.939	-59.438	-27.051	261.861	282.840	158.009	163.373	40.920	184.238	-56.457	212.361	-7.554	-42.431	121.047	0.00023988	0.00020117	5.3808e-05	1115.5	2.7582e-06	3.0541e-06	1188.4	233.74	1.8529e-06	2.216e-06	293.87	83.437	65.039	19.263	2.8035e-06	26.855	0.00025547	0.00024086	7.0412e-05	1104.3	3.0248e-06	2.7854e-06	1177.6	234.1	2.7178e-06	2.3901e-06	294.59	84.212	65.088	19.465	2.516e-06	27.417	63.861	12.016	32.449	-59.110	80.757	79.758	-58.706	-51.822	73.353	118.596	-52.117	-45.690	-44.908	-38.721	47.092	-38.932	-8191	255	
1010.805	1	1	0	0	0.089597	0.16957	0.1952	0.33558	0.30355	0.16291	0.086962	0.11999	0.14351	0.24095	0.19733	0.25583	0.10902	0.14936	0.092605	0.13555	-3.2562	-3.9479	-3.5771	-3.9542	-4.0833	-3.4979	-4.1729	-3.9	-3.4729	-3.975	-3.7479	-3.8667	-3.6896	-3.6312	-3.875	-3.6667	273.243	263.651	79.330	256.625	79.964	14.376	247.311	33.680	137.437	261.276	84.585	-48.690	128.088	29.199	265.497	234.309	0.00018637	0.00044344	5.7808e-05	1115.1	2.9704e-06	3.0878e-06	1190.6	235.23	3.2528e-06	1.9993e-06	295.6	83.756	64.585	19.209	1.9558e-06	26.748	0.0002632	0.00023567	7.183e-05	1105.3	2.9483e-06	2.711e-06	1179.2	234.59	3.0631e-06	2.7198e-06	295.87	84.367	64.996	19.485	2.5685e-06	27.312	68.698	19.647	66.651	-58.796	81.758	76.072	-58.832	-52.032	51.961	82.952	-51.884	-45.725	-45.357	-38.370	92.790	-39.222	-8191	255	
1010.901	1	1	0	0	0.036502	0.19286	0.0858	0.32286	0.18969	0.062579	0.35453	0.25483	0.15181	0.24448	0.19571	0.18467	0.33209	0.23725	0.12809	0.14812	-3.2958	-4.0687	-3.6813	-3.8479	-3.9396	-3.4625	-4.1021	-3.8937	-3.6063	-4.0312	-3.6562	-3.8667	-4.0375	-3.4021	-3.9104	-3.8063	-28.386	243.367	32.081	195.525	188.693	173.842	217.429	237.825	277.895	78.190	234.305	-45.126	259.973	151.379	61.672	30.264	0.00017554	0.00033722	9.3322e-05	1116.5	7.3053e-07	3.3364e-06	1191	233.58	2.3161e-06	2.4979e-06	295.24	83.278	64.975	19.222	4.0255e-06	26.862	0.00025329	0.00022631	6.6832e-05	1106.3	3.0496e-06	2.7425e-06	1180.1	233.97	3.0244e-06	2.4595e-06	295.75	84.163	65.071	19.446	2.6814e-06	27.356	65.633	18.015	16.796	-59.068	67.622	69.992	-58.944	-51.954	82.653	72.280	-52.008	-45.691	-45.580	-38.410	81.676	-38.756	-8191	255	
1010.997	1	1	0	0	0.10469	0.12355	0.089912	0.27298	0.15565	0.31238	0.2684	0.26079	0.040099	0.19959	0.28548	0.11881	0.097282	0.075802	0.12075	0.09632	-3.1958	-3.9708	-3.5917	-3.7729	-4.0167	-3.5375	-3.9792	-4.0229	-3.4271	-4.1083	-3.7042	-3.5812	-4.0938	-3.5333	-3.6646	-3.7854	238.399	86.129	268.018	265.795	264.355	151.991	248.850	-53.094	7.324	-32.861	124.839	-60.865	227.078	261.438	-38.703	-12.309	0.00018778	0.0002623	3.9611e-05	1121.2	3.5224e-06	2.2661e-06	1191.5	235.72	2.7628e-06	2.8519e-06	295.56	83.145	65.089	19.187	1.1956e-06	26.669	0.00027146	0.00022538	5.963e-05	1105.3	2.8201e-06	2.3636e-06	1178.1	234.5	3.0459e-06	2.2986e-06	295.54	84.111	65.047	19.399	2.4263e-06	27.328	57.421	-2.339	14.200	-59.084	61.055	70.696	-58.844	-51.904	59.771	79.983	-52.044	-45.416	-45.460	-38.446	67.039	-39.014	-8191	255	
1011.118	1	1	0	0	0.1226	0.1473	0.094145	0.23045	0.062915	0.053006	0.24625	0.10214	0.018872	0.076495	0.16025	0.15425	0.14142	0.094614	0.17035	0.043763	-3.1417	-3.9479	-3.5208	-3.6208	-3.9521	-3.5604	-3.7687	-4.025	-3.5792	-3.9479	-3.725	-3.6271	-4.1	-3.575	-3.7458	-4.0104	135.626	133.575	122.779	244.820	166.011	227.077	207.132	96.688	212.292	104.485	246.083	8.539	254.553	222.526	-33.960	78.565	0.00024081	0.00028158	0.00010073	1113.5	3.0081e-06	3.4475e-06	1185	233.5	2.7382e-07	3.7792e-06	296.45	83.367	64.551	19.178	2.1668e-06	27.014	0.00026061	0.0002185	7.1001e-05	1103.6	2.7706e-06	2.8002e-06	1175.8	233.89	2.9167e-06	2.5906e-06	295.52	84.026	64.896	19.384	2.4194e-06	27.402	58.198	23.940	28.519	-58.987	79.304	80.305	-58.713	-51.984	263.035	72.969	-52.340	-45.830	-45.285	-38.544	110.775	-39.218	-8191	255	
1011.189	1	1	0	0	0.09489	0.096656	0.29827	0.21098	0.16561	0.12557	0.082674	0.21775	0.091958	0.084014	0.14718	0.088326	0.036775	0.097588	0.21762	0.2567	-3.1708	-3.8688	-3.6042	-3.6458	-4.1	-3.5229	-3.8042	-4.0333	-3.5167	-3.9188	-3.9833	-3.7479	-4.0667	-3.6813	-3.8563	-4.1625	158.325	160.617	65.037	-54.239	39.230	282.137	212.356	268.561	-6.599	120.750	220.346	253.923	116.637	213.123	156.885	-49.871	0.00020664	0.00036546	6.3763e-05	1116	3.6382e-06	3.0438e-06	1183.7	233.5	3.2227e-06	3.404e-06	293.35	82.986	64.129	19.162	2.571e-06	26.874	0.00027413	0.00022028	6.5173e-05	1103.7	3.1079e-06	2.8221e-06	1177.1	233.82	2.9052e-06	2.5114e-06	295.41	83.953	64.741	19.402	2.5028e-06	27.349	57.751	47.963	16.516	-59.110	119.614	87.416	-58.998	-52.169	41.983	78.032	-52.554	-45.630	-45.058	-38.490	69.662	-39.098	-8191	255	
1011.285	1	1	0	0	0.048037	0.097335	0.31417	0.19157	0.078316	0.25786	0.066408	0.088181	0.10089	0.20901	0.21533	0.15772	0.056357	0.14825	0.17692	0.14248	-3.1396	-3.8438	-3.7958	-3.6188	-4.1312	-3.6813	-3.9875	-4.0104	-3.6667	-3.7792	-3.9958	-3.5062	-4.0021	-3.8563	-3.5979	-4.0708	-66.908	141.143	2.109	-56.109	69.368	172.670	176.580	-31.364	19.783	211.431	261.534	169.750	40.035	6.521	236.819	258.911	0.0001881	0.00029531	8.4177e-05	1113.6	1.7997e-06	3.203e-06	1178.2	234.08	2.0603e-06	2.4701e-06	294.85	82.867	64.033	19.203	3.7637e-06	26.839	0.00026579	0.00025153	6.6789e-05	1103.6	2.8959e-06	2.5508e-06	1175.3	234.14	2.8786e-06	2.5017e-06	295.39	84.084	64.73	19.43	2.6149e-06	27.389	64.234	34.374	54.443	-58.949	108.259	77.902	-58.851	-52.105	57.205	73.839	-52.184	-45.362	-45.464	-38.481	77.839	-38.857	-8191	255	
1011.406	1	1	0	0	0.17462	0.13319	0.055281	0.20028	0.070091	0.043169	0.30226	0.10896	0.05006	0.35723	0.12199	0.1002	0.20826	0.11454	0.10979	0.16824	-3.175	-4.0479	-3.9646	-3.5917	-4.0396	-3.7396	-3.8083	-4.1417	-3.4604	-3.875	-3.9125	-3.4375	-3.8646	-3.6958	-3.6125	-4.0792	188.150	177.518	136.018	205.158	128.180	101.537	261.684	196.841	46.857	127.323	187.136	254.363	153.480	159.671	233.508	149.597	0.00019889	0.00033216	6.3067e-05	1115.2	2.6843e-06	2.1877e-06	1181.6	232.21	2.728e-06	3.1661e-06	296.45	83.579	64.885	19.207	2.6554e-06	26.794	0.00027162	0.00022113	6.3449e-05	1103.9	2.9279e-06	2.5045e-06	1176.1	233.33	2.9181e-06	2.4815e-06	295.46	84.134	65.025	19.37	2.8576e-06	27.323	58.624	7.637	35.941	-59.085	84.977	48.458	-58.865	-52.137	31.243	85.243	-52.179	-45.760	-45.293	-38.503	52.638	-38.715	-8191	255	
1011.502	1	1	0	0	0.22266	0.18235	0.13004	0.35038	0.07626	0.25212	0.14141	0.33854	0.20783	0.19921	0.091501	0.25469	0.17221	0.073889	0.16045	0.086647	-3.2521	-3.7979	-3.8396	-3.6875	-3.8854	-3.8396	-3.5833	-4.1854	-3.6979	-3.8417	-4.0813	-3.5354	-4.0792	-3.9458	-3.4188	-4.0583	109.381	252.730	19.451	194.498	203.597	33.239	25.668	-4.656	86.251	-45.943	116.860	234.363	214.530	280.013	274.147	192.153	0.00026184	0.00037689	8.7176e-05	1116.5	2.4944e-06	2.1485e-06	1170.2	234.71	8.4908e-07	3.4316e-06	293.84	82.743	64.418	19.019	3.2071e-06	26.964	0.00026513	0.00023444	7.2529e-05	1103.5	2.7902e-06	2.4108e-06	1173.9	234.05	2.8557e-06	2.7471e-06	295.26	83.766	64.823	19.342	2.7486e-06	27.341	52.727	25.935	34.498	-58.909	98.277	115.725	-58.945	-51.831	33.116	84.704	-52.225	-45.786	-45.508	-38.795	77.449	-39.040	-8191	255	
1011.598	1	1	0	0	0.058926	0.32731	0.15542	0.25962	0.12919	0.22905	0.32275	0.07998	0.27914	0.07736	0.12951	0.070134	0.29458	0.092871	0.098774	0.27437	-3.4729	-3.7479	-4.1146	-3.6333	-3.8271	-3.8271	-3.6063	-4.0083	-3.7229	-3.7042	-4.1583	-3.4479	-3.9375	-3.8958	-3.3771	-3.9813	31.810	-1.943	287.674	265.852	14.695	126.692	262.094	183.178	119.728	189.670	37.921	133.458	239.720	136.465	-52.673	188.556	0.00020042	0.00028656	8.2682e-05	1115.4	2.3047e-06	3.5812e-06	1188.2	234.46	1.3939e-06	2.7167e-06	293.19	83.211	63.898	19.008	1.8731e-06	26.855	0.00026702	0.00024209	6.5217e-05	1105.4	2.8041e-06	2.5211e-06	1176.6	234.15	2.847e-06	2.7849e-06	294.5	84.101	64.814	19.331	2.6891e-06	27.303	58.274	41.315	34.594	-59.163	66.345	79.201	-59.110	-51.783	4.031	79.096	-52.266	-45.622	-45.165	-38.829	78.726	-39.149	-8191	255	
1011.717	1	1	0	0	0.22342	0.19537	0.036003	0.37701	0.14921	0.29399	0.12249	0.15029	0.21327	0.069063	0.15559	0.13218	0.18142	0.16881	0.047805	0.078998	-3.4	-3.6188	-3.9333	-3.6937	-3.8021	-3.9833	-3.6792	-3.8375	-3.7188	-3.7771	-4.0583	-3.8292	-3.8417	-3.9542	-3.7188	-3.9313	-34.190	134.967	111.095	-54.581	185.778	-4.102	217.850	250.892	81.719	21.299	67.927	-56.318	0.450	256.884	133.969	63.352	0.00021876	0.00029137	5.6471e-05	1112.3	3.1796e-06	2.914e-06	1182.4	233.75	2.9287e-06	3.0805e-06	295.94	83.172	64.549	19.218	2.2954e-06	26.953	0.00026377	0.00026306	6.2161e-05	1103.8	3.0365e-06	2.5596e-06	1176.5	234.09	2.9511e-06	2.6257e-06	295.45	83.996	64.954	19.409	2.6852e-06	27.339	58.579	20.456	31.443	-59.128	95.714	55.957	-58.940	-52.021	93.494	88.900	-52.051	-45.785	-45.488	-38.448	98.455	-38.917	-8191	255	
1011.813	1	1	0	0	0.044645	0.17132	0.29994	0.21091	0.11925	0.11285	0.21844	0.26587	0.063572	0.062774	0.11587	0.23541	0.044698	0.21195	0.13673	0.14468	-3.5062	-3.5958	-3.8438	-3.9083	-3.5708	-4.0292	-3.8708	-4.1625	-3.8563	-3.8063	-4.0458	-3.7438	-3.7833	-4.0813	-3.6188	-3.8917	90.190	-33.148	-41.210	195.872	246.959	113.596	220.830	223.981	-15.898	191.017	-44.591	275.117	277.715	263.488	85.142	100.383	0.00018577	0.0003488	9.5736e-05	1119.2	2.6793e-06	3.5573e-06	1184.9	234.46	2.4507e-06	3.6622e-06	293.71	82.566	64.515	18.955	2.5051e-06	26.899	0.00026821	0.0002636	6.1703e-05	1104.8	3.2762e-06	2.4861e-06	1177.2	234.46	2.8305e-06	2.8702e-06	295.51	83.965	64.904	19.308	2.7595e-06	27.385	53.434	31.538	30.725	-59.045	86.423	62.752	-59.181	-51.974	37.565	72.167	-52.112	-45.584	-45.367	-38.880	102.440	-38.974	-8191	255	
1011.885	1	1	0	0	0.025101	0.080244	0.20654	0.097097	0.21508	0.283	0.14666	0.20041	0.25563	0.22895	0.11965	0.12327	0.080292	0.11741	0.229	0.21515	-3.6042	-3.5875	-4.0958	-3.9396	-3.5125	-4.125	-3.8333	-3.9167	-4.0062	-3.4417	-4.0667	-3.8354	-3.6229	-4.3042	-3.6021	-3.7292	5.085	170.284	109.948	138.895	41.421	186.601	266.519	258.400	-30.029	77.883	255.051	-64.794	200.991	-4.999	174.355	44.605	0.00019914	0.00034	4.8472e-05	1117.6	2.2249e-06	4.2299e-06	1186.9	233.74	1.9671e-06	2.5214e-06	295.86	82.741	63.973	19.097	2.7322e-06	26.872	0.00025613	0.00025068	5.8233e-05	1104.1	3.0802e-06	2.5806e-06	1178.9	233.98	2.8119e-06	2.4156e-06	295.34	83.926	64.751	19.352	2.7981e-06	27.324	70.790	16.523	51.558	-59.109	89.699	105.549	-58.987	-51.778	75.432	59.194	-52.180	-45.896	-45.585	-38.383	32.206	-38.691	-8191	255	
1012.006	1	1	0	0	0.012758	0.14183	0.19629	0.18027	0.23404	0.2028	0.22207	0.022779	0.15183	0.12833	0.14225	0.018257	0.032116	0.2287	0.17617	0.1066	-3.7958	-3.3187	-3.8292	-4.0417	-3.6021	-4.0458	-4.0125	-3.8688	-3.975	-3.6625	-3.8646	-4.0146	-3.5146	-3.9979	-3.8563	-3.7104	9.768	131.426	-57.218	265.712	120.471	128.443	219.633	108.192	104.010	134.162	-26.605	-16.142	205.116	-69.345	88.308	215.044	0.00020721	0.00024896	0.00010187	1110.1	2.4444e-06	1.7391e-06	1191.3	235.65	3.2321e-06	3.4978e-06	297.59	83.233	64.754	19.243	1.6523e-06	27.066	0.00026028	0.00024225	7.0193e-05	1102.4	3.0729e-06	2.5167e-06	1177.9	234.46	2.7767e-06	2.6073e-06	296.02	83.977	65.084	19.426	2.5252e-06	27.412	66.566	30.892	21.649	-59.112	96.584	61.839	-58.751	-51.926	65.938	66.189	-52.144	-45.384	-45.447	-38.458	56.352	-38.579	-8191	255	
1012.102	1	1	0	0	0.081272	0.28055	0.094983	0.2493	0.2404	0.22888	0.46212	0.23908	0.096298	0.099615	0.33158	0.14623	0.27704	0.065154	0.11997	0.032055	-3.6437	-3.5896	-3.8979	-4.0229	-3.525	-3.9562	-4.0396	-3.6979	-4.0396	-3.6854	-3.7896	-3.9604	-3.6479	-4.1583	-3.7604	-3.5708	10.201	233.327	252.074	157.641	193.911	136.039	231.931	255.081	107.139	132.892	-44.185	223.576	240.300	201.234	8.744	62.753	0.00021827	0.00027662	8.7016e-05	1116.5	2.2939e-06	2.6159e-06	1183	234.1	3.5598e-06	2.3594e-06	294.31	83.685	64.921	18.989	2.2715e-06	26.886	0.000247	0.00024991	6.406e-05	1103.3	3.0234e-06	2.4021e-06	1175.8	233.52	2.758e-06	2.6794e-06	295.21	84.082	64.964	19.375	2.5569e-06	27.382	56.604	11.696	17.705	-58.630	130.813	86.736	-58.939	-51.922	98.820	64.248	-52.038	-45.655	-45.255	-38.243	86.470	-38.965	-8191	255	
1012.198	1	1	0	0	0.18662	0.17073	0.14969	0.19423	0.22671	0.11028	0.22516	0.015748	0.12427	0.13208	0.22665	0.11842	0.2125	0.10678	0.066766	0.087327	-3.5396	-3.6771	-3.8375	-4.2854	-3.5042	-4.0042	-3.9396	-3.6188	-4.0167	-3.6542	-3.9354	-4.0479	-3.6042	-3.8396	-3.925	-3.5896	283.680	84.878	177.735	223.137	25.487	-42.709	231.375	88.089	252.227	8.976	228.632	7.629	280.965	197.246	75.496	59.110	0.0002195	0.00029635	6.2161e-05	1110.7	3.1593e-06	2.4162e-06	1186	235.44	1.9693e-06	2.5771e-06	296.08	83.044	64.058	19.183	2.9235e-06	26.889	0.00024647	0.00025246	6.4431e-05	1102.4	3.0678e-06	2.6436e-06	1177.2	234.21	2.7351e-06	2.5791e-06	295.25	83.929	64.752	19.382	2.6342e-06	27.349	63.717	17.110	1.190	-59.103	82.123	76.189	-58.797	-52.019	56.003	92.109	-52.117	-45.707	-45.590	-38.765	71.092	-38.988	-8191	255	
1012.294	1	1	0	0	0.044045	0.052624	0.19246	0.19142	0.22569	0.043252	0.23768	0.097726	0.029401	0.071504	0.19574	0.13871	0.1059	0.085185	0.15806	0.084381	-3.8063	-3.6375	-3.8125	-4.025	-3.5042	-3.8271	-4.2167	-3.5354	-3.8896	-3.8271	-3.7104	-4.1	-3.6604	-3.8937	-3.9479	-3.5125	53.029	249.803	3.916	281.516	240.673	223.998	-41.422	219.127	272.010	47.861	24.491	288.914	274.703	219.601	262.748	-60.849	0.00020339	0.00020295	7.1475e-05	1111.9	2.9048e-06	3.2592e-06	1188.9	233.41	1.4299e-06	2.0431e-06	295.13	82.783	64.178	19.088	3.1024e-06	27.013	0.00023763	0.00023869	6.4344e-05	1102.6	3.0095e-06	2.4695e-06	1177.7	233.87	2.6963e-06	2.4806e-06	295.64	83.739	64.849	19.37	2.5206e-06	27.338	52.968	17.365	33.895	-58.919	66.372	73.483	-58.755	-51.868	80.299	73.008	-52.052	-45.760	-45.547	-38.515	89.064	-38.607	-8191	255	
1012.413	1	1	0	0	0.096307	0.075498	0.11424	0.18125	0.12343	0.074944	0.094904	0.20191	0.16622	0.18555	0.16094	0.19987	0.14882	0.29813	0.10967	0.11303	-3.5792	-3.5312	-3.6688	-4.2667	-3.6167	-3.8792	-4.0875	-3.6042	-4.0729	-4.0625	-3.6042	-4.1667	-3.8167	-3.6437	-4.1896	-3.45	151.100	183.207	152.625	150.396	210.029	149.097	171.217	200.695	61.131	97.156	186.748	278.270	51.843	-60.521	58.946	84.754	0.00020131	0.00032524	9.0966e-05	1117.8	2.9022e-06	2.9012e-06	1184.3	234.69	2.8087e-06	3.56e-06	296.5	83.117	63.159	19.089	3.1249e-06	26.855	0.00025966	0.00027212	7.1219e-05	1103.5	2.9505e-06	2.7162e-06	1176	234.37	2.7336e-06	2.7673e-06	295.14	84.027	64.567	19.354	2.5237e-06	27.305	66.266	51.673	19.809	-58.970	78.861	96.506	-58.792	-51.410	90.489	70.526	-52.032	-45.886	-45.525	-38.433	79.358	-38.947	-8191	255	
1012.486	1	1	0	0	0.21406	0.069598	0.069446	0.30697	0.15877	0.15935	0.19993	0.15557	0.24675	0.18716	0.09919	0.28067	0.088504	0.24165	0.34644	0.081843	-3.7229	-3.8146	-3.6208	-4.2625	-3.7438	-3.9	-4.1813	-3.5583	-3.9062	-3.8042	-3.8708	-4.025	-3.7479	-3.5271	-4.0521	-3.5479	217.077	44.413	65.399	246.108	271.820	211.947	228.953	-9.163	-31.051	-37.958	209.389	179.494	204.024	17.581	232.380	131.356	0.00019735	0.00036447	7.2834e-05	1112.6	2.5284e-06	3.6751e-06	1173.4	234.95	3.0693e-06	3.1575e-06	295.68	83.373	64.793	19.009	2.9496e-06	26.71	0.00024421	0.00023583	7.1394e-05	1103	2.9738e-06	2.6751e-06	1170.7	233.91	2.6403e-06	2.631e-06	295.77	83.893	64.866	19.329	2.4325e-06	27.3	60.115	14.273	39.705	-59.059	99.723	79.038	-58.973	-51.612	23.680	93.252	-52.047	-45.628	-45.511	-38.471	90.890	-38.761	-8191	255	
1012.583	1	1	0	0	0.13525	0.18713	0.33538	0.2078	0.1132	0.18445	0.13033	0.44129	0.21628	0.16248	0.028788	0.075536	0.25679	0.012599	0.043254	0.18053	-3.5792	-3.8854	-3.4521	-4.1	-3.8104	-3.8729	-4.2083	-3.6229	-3.9479	-3.8104	-3.7021	-4.2271	-3.8167	-3.6312	-4.1354	-3.7917	249.318	9.251	138.852	281.568	241.434	160.304	137.862	239.917	172.092	-53.573	77.543	16.370	60.029	-7.029	221.887	-23.188	0.00021612	0.00028413	6.5082e-05	1117.2	2.0374e-06	2.7197e-06	1189.6	234.07	2.654e-06	2.7851e-06	291.4	82.542	64.346	19.145	2.478e-06	26.824	0.00025568	0.00025525	7.0957e-05	1101.9	2.9257e-06	2.6033e-06	1176.1	234.02	2.7307e-06	2.8025e-06	294.61	83.937	64.719	19.383	2.5701e-06	27.308	56.073	23.267	49.522	-58.793	89.269	70.813	-58.796	-51.879	38.584	70.280	-52.443	-45.682	-45.141	-38.588	37.840	-38.745	-8191	255	
1012.679	1	1	0	0	0.21734	0.10324	0.14503	0.17379	0.076878	0.067912	0.14038	0.14175	0.27584	0.22256	0.10183	0.14619	0.17148	0.050022	0.10009	0.20828	-3.5042	-3.8104	-3.5563	-4.0708	-3.7979	-3.5187	-4.2	-3.6708	-3.6854	-4.0479	-3.8854	-3.9208	-4.0333	-3.4771	-4.0896	-3.7229	27.765	182.473	286.179	285.190	115.026	251.444	21.057	-60.286	280.458	16.243	220.615	209.004	169.479	-19.369	203.283	251.212	0.00018509	0.00025973	0.00012929	1107.7	2.9779e-06	3.88e-06	1182.1	233.62	3.5259e-06	2.2019e-06	297.88	83.232	64.191	19.029	2.6657e-06	26.603	0.00025917	0.00023343	7.3358e-05	1101	3.1334e-06	2.7976e-06	1176	233.63	2.9274e-06	2.4833e-06	295.89	83.908	64.847	19.37	2.3189e-06	27.268	62.463	8.764	21.178	-59.029	56.658	103.752	-58.966	-51.936	74.538	95.983	-52.317	-45.646	-45.180	-38.715	77.232	-39.141	-8191	255	
1012.798	1	1	0	0	0.082064	0.079829	0.15227	0.078047	0.14908	0.13599	0.024516	0.12746	0.1869	0.13654	0.19493	0.30831	0.11751	0.20809	0.09042	0.092177	-3.4417	-3.8292	-3.5104	-4.1479	-3.9479	-3.55	-4.1292	-3.7792	-3.7792	-4.0312	-3.6458	-3.8104	-3.8396	-3.4896	-3.9208	-3.8104	-55.345	-47.502	157.875	216.318	57.642	214.184	49.473	16.063	42.349	39.744	-28.762	229.794	126.442	-23.405	-47.023	93.634	0.00023489	0.00026423	7.3092e-05	1114.3	3.4449e-06	4.0715e-06	1178.7	232.59	2.8752e-06	2.1454e-06	294.95	83.046	63.923	19.001	1.6295e-06	26.614	0.00025954	0.00022855	7.0455e-05	1104.4	3.113e-06	2.8597e-06	1176	233.5	2.8793e-06	2.3707e-06	295.2	83.879	64.656	19.362	2.5222e-06	27.321	58.673	27.559	24.173	-59.112	103.894	74.071	-59.003	-52.091	125.978	88.198	-51.821	-45.793	-45.114	-38.582	53.985	-39.152	-8191	255	
1012.894	1	1	0	0	0.10563	0.13105	0.26227	0.20477	0.23032	0.12591	0.2804	0.1615	0.091018	0.13657	0.050141	0.081992	0.053078	0.17906	0.15676	0.07899	-3.2896	-4.0729	-3.5479	-4.1083	-4.0188	-3.5062	-4.1896	-3.7583	-3.8083	-3.9708	-3.7229	-3.925	-3.9792	-3.6813	-3.9938	-4.0042	191.745	-2.873	248.963	238.059	140.866	146.107	200.248	249.679	189.993	243.396	-4.760	137.928	41.381	28.639	265.360	234.463	0.00021111	0.00034199	8.5441e-05	1106.8	3.0667e-06	3.6601e-06	1178.9	233.97	1.2057e-06	3.0747e-06	292.33	82.691	63.982	19.103	2.7291e-06	26.753	0.00026011	0.00023714	6.7116e-05	1102.1	2.9767e-06	2.7784e-06	1176.3	233.9	2.9088e-06	2.4182e-06	294.75	84.053	64.808	19.342	2.4688e-06	27.33	61.824	26.439	19.538	-59.177	87.373	73.795	-58.915	-52.047	45.616	93.505	-52.538	-45.764	-45.554	-38.553	79.622	-39.215	-8191	255	
1012.990	1	1	0	0	0.13816	0.11926	0.22666	0.047912	0.2744	0.058411	0.11146	0.36756	0.21199	0.10642	0.19351	0.25116	0.14475	0.25349	0.15312	0.092686	-3.1375	-4.0708	-3.7604	-3.9417	-3.9625	-3.5187	-4.1292	-3.9688	-3.4667	-4.0354	-3.7062	-3.8563	-4.0563	-3.6292	-3.7021	-4.0167	-65.232	-40.033	194.513	-28.398	206.142	126.957	134.936	205.599	236.189	-46.040	90.111	248.169	-68.286	239.606	133.790	58.793	0.00020868	0.00027645	8.2724e-05	1110.3	2.3789e-06	4.2582e-06	1176.8	234.07	9.0162e-07	2.9429e-06	296.42	83.437	64.178	19.076	3.8282e-06	26.76	0.00026077	0.0002342	6.5719e-05	1103.2	2.9323e-06	2.5228e-06	1174.6	234.26	3.117e-06	2.5448e-06	295.7	84.153	64.826	19.416	2.7262e-06	27.307	62.150	3.662	34.889	-59.268	87.541	93.257	-59.148	-51.959	50.559	81.673	-51.706	-45.571	-45.472	-38.668	63.252	-38.834	-8191	255	
1013.086	1	1	0	0	0.025809	0.086055	0.099587	0.15706	0.067763	0.13273	0.23296	0.1058	0.24334	0.12748	0.26649	0.19706	0.070982	0.010333	0.2812	0.077268	-3.1083	-4.0687	-3.8208	-3.8417	-4.0917	-3.5667	-4.0521	-4.0437	-3.4667	-4.0813	-3.8792	-3.7604	-4.1813	-3.6292	-3.8792	-4.1458	132.133	-51.078	183.977	221.442	87.237	260.085	259.513	167.523	263.517	79.541	-53.481	246.259	262.203	28.415	143.046	98.715	0.00023197	0.00034817	8.086e-05	1118	2.346e-06	2.4406e-06	1174.5	234.07	2.6397e-06	3.3051e-06	292.41	82.828	63.831	19.077	3.3511e-06	26.74	0.00025835	0.00024264	6.0263e-05	1104.7	2.7647e-06	2.7014e-06	1174.3	233.95	2.9016e-06	2.4006e-06	294.53	83.879	64.573	19.331	2.6829e-06	27.327	73.891	4.236	25.176	-58.830	70.682	93.625	-59.046	-51.959	43.792	92.096	-52.227	-45.680	-45.216	-38.647	63.772	-39.314	-8191	255	
1013.182	1	1	0	0	0.21318	0.19602	0.15928	0.29799	0.11285	0.11959	0.27075	0.10819	0.10055	0.027397	0.084348	0.21401	0.10282	0.09554	0.063868	0.091018	-3.2208	-3.9938	-3.6625	-3.6937	-4.0542	-3.6646	-3.8458	-4.1146	-3.6083	-3.8896	-3.8729	-3.6104	-4.0125	-3.7771	-3.8542	-4.1771	110.702	236.948	139.622	245.324	217.172	247.396	184.373	243.553	191.436	68.671	251.134	261.561	-43.617	234.116	210.779	137.250	0.00024701	0.00023273	0.00010546	1107.4	2.2289e-06	3.0713e-06	1188.4	234.2	6.0554e-07	1.98e-06	294.48	82.829	64.311	18.969	3.4523e-06	26.652	0.00026903	0.00022376	7.1001e-05	1101.6	2.9345e-06	2.6909e-06	1177.8	233.63	2.692e-06	2.2485e-06	295.43	83.945	64.952	19.372	2.6118e-06	27.259	54.060	39.065	31.783	-59.108	55.570	90.440	-58.667	-52.008	32.319	88.878	-52.288	-46.103	-45.681	-38.220	77.523	-39.344	-8191	255	
1013.278	1	1	0	0	0.18186	0.074339	0.11013	0.31414	0.2677	0.053557	0.29458	0.24671	0.15062	0.13217	0.084941	0.052205	0.16937	0.066715	0.16814	0.30292	-3.1646	-3.9042	-3.5875	-3.6937	-4.0604	-3.7229	-3.9813	-4.1271	-3.4458	-4.0208	-4.0208	-3.7521	-4.1813	-3.7208	-3.8292	-4.2021	12.900	249.877	65.041	-55.414	109.284	40.768	202.610	180.152	-5.441	164.220	233.932	60.295	243.531	57.582	205.742	246.002	0.00020496	0.00024396	9.0871e-05	1113.2	2.343e-06	3.0683e-06	1183.9	235.21	3.0582e-06	1.6534e-06	292.47	83.151	64.478	19.102	4.2328e-06	26.936	0.0002671	0.00022708	7.1787e-05	1103.4	2.9549e-06	2.6795e-06	1176.9	234.35	2.9892e-06	2.5765e-06	294.85	84.097	64.914	19.383	2.7525e-06	27.322	50.815	47.029	20.737	-58.822	105.348	89.361	-58.912	-51.734	94.029	95.301	-52.027	-45.562	-45.415	-38.577	93.606	-38.933	-8191	255	
1013.399	1	1	0	0	0.12189	0.16704	0.12462	0.10387	0.198	0.19999	0.13339	0.10887	0.11329	0.26925	0.17903	0.05751	0.16481	0.2316	0.12511	0.13311	-3.325	-3.8625	-3.7833	-3.6688	-3.9771	-3.8833	-3.8688	-4.0854	-3.6042	-4.0563	-3.9479	-3.5625	-4.0188	-3.7938	-3.5771	-4	114.789	124.248	282.587	225.809	167.402	135.254	265.723	278.355	31.503	-66.621	195.208	286.744	-65.564	261.023	82.925	142.813	0.0001741	0.00023094	7.5583e-05	1105.8	2.153e-06	3.1409e-06	1183.7	234.62	1.7018e-06	2.3236e-06	295.81	83.522	64.648	19.059	2.9968e-06	26.777	0.0002724	0.00023583	7.0303e-05	1102.3	3.2011e-06	2.4861e-06	1175.9	234.02	3.0078e-06	2.3716e-06	295.65	84.133	64.924	19.4	2.7517e-06	27.318	63.521	42.451	11.148	-59.117	115.063	80.341	-58.846	-51.725	77.954	106.070	-52.014	-45.227	-45.334	-38.402	93.441	-39.202	-8191	255	
1013.495	1	1	0	0	0.22512	0.098213	0.11112	0.095806	0.078171	0.22867	0.14127	0.36332	0.25265	0.046964	0.1343	0.25557	0.088963	0.20011	0.23841	0.045231	-3.1562	-3.7917	-3.9083	-3.7313	-4.0437	-3.7917	-3.9354	-4.0312	-3.7542	-3.7208	-4.1521	-3.6125	-3.8333	-3.9667	-3.6063	-4.1521	227.713	52.696	121.235	187.237	-67.576	-29.471	181.621	273.365	90.788	37.941	16.400	280.769	-64.614	101.373	-1.094	185.603	0.00023711	0.00026113	7.1398e-05	1116.3	3.2633e-06	2.9428e-06	1186.2	232.44	1.8355e-06	1.8891e-06	297.3	83.267	64.943	19.169	4.8472e-06	26.8	0.0002708	0.00022136	6.0743e-05	1103.5	3.0481e-06	2.4493e-06	1175.8	233.08	3.0969e-06	2.653e-06	295.6	83.946	65.008	19.389	2.9419e-06	27.289	58.057	-5.265	18.655	-58.785	81.669	96.912	-58.799	-52.182	88.082	57.502	-52.329	-45.430	-45.336	-38.675	75.010	-38.979	-8191	255	
1013.590	1	1	0	0	0.20774	0.1891	0.16191	0.35194	0.13163	0.18591	0.035477	0.020517	0.31657	0.091661	0.3029	0.049672	0.24791	0.27921	0.13815	0.081962	-3.3187	-3.8396	-3.9479	-3.6021	-3.9792	-3.975	-3.8104	-4.1708	-3.6521	-3.9083	-3.9813	-3.7646	-3.9125	-3.95	-3.5542	-4.075	256.825	-59.634	28.742	279.136	148.807	149.937	-61.306	0.305	30.386	-56.946	230.425	108.373	-45.294	178.700	-3.100	203.928	0.00021516	0.00037537	7.817e-05	1114.2	2.7952e-06	4.4006e-06	1180.4	234.16	3.4836e-06	3.115e-06	293.74	83.815	64.466	18.992	1.7758e-06	26.594	0.00026513	0.00025981	6.8316e-05	1101	2.9913e-06	2.6182e-06	1175.6	233.68	2.8679e-06	2.5668e-06	294.65	83.847	64.764	19.321	2.6319e-06	27.197	62.086	31.734	2.820	-58.787	106.846	74.414	-58.803	-51.850	50.656	50.038	-51.995	-45.917	-45.001	-38.669	81.426	-38.802	-8191	255	
1013.687	1	1	0	0	0.13851	0.20966	0.22444	0.16754	0.05706	0.12757	0.094742	0.055957	0.097775	0.053335	0.20292	0.016164	0.21764	0.24854	0.10396	0.077061	-3.3271	-3.5687	-4.125	-3.7542	-3.8688	-4.0875	-3.6375	-4.1604	-3.7667	-3.6521	-4.0167	-3.6083	-3.8438	-4.1604	-3.5812	-4.0021	-61.565	-39.206	58.588	-53.747	234.180	-20.345	69.659	152.559	255.343	218.350	228.276	207.651	286.902	268.705	108.192	228.465	0.00024793	0.00042842	0.00010049	1115.5	3.3734e-06	2.5035e-06	1181.5	234.48	3.3113e-06	3.3653e-06	295.2	82.857	63.832	18.918	2.3498e-06	26.884	0.00025185	0.00023923	5.8626e-05	1101.1	3.1188e-06	2.0748e-06	1174.4	233.51	2.9719e-06	2.6275e-06	294.79	83.641	64.563	19.308	2.5252e-06	27.338	67.719	36.504	14.813	-58.887	75.504	75.204	-58.886	-51.678	49.576	77.037	-52.361	-45.809	-45.358	-38.689	68.265	-38.921	-8191	255	
1013.782	1	1	0	0	0.10326	0.072968	0.22301	0.15246	0.16902	0.16442	0.18972	0.17997	0.16882	0.15338	0.12981	0.23681	0.37146	0.23722	0.17666	0.12719	-3.4708	-3.6646	-4.125	-3.7271	-3.8604	-3.9417	-3.7083	-3.9271	-3.8667	-3.7417	-3.9708	-3.7521	-3.5875	-4.0271	-3.5687	-3.9667	248.034	272.253	49.958	190.960	173.405	212.248	224.563	254.458	267.618	146.640	161.485	264.231	273.607	280.198	165.734	267.581	0.00019622	0.00027866	4.9392e-05	1106	2.3615e-06	2.0866e-06	1172.8	232.24	1.2842e-06	3.267e-06	294.38	82.795	63.505	18.956	1.0792e-06	26.893	0.000256	0.0002356	6.3798e-05	1097.9	2.9673e-06	2.3338e-06	1169.5	232.6	2.7501e-06	2.7603e-06	293.85	83.558	64.445	19.284	2.659e-06	27.248	58.995	2.846	6.932	-58.780	55.915	52.032	-58.949	-51.805	52.374	64.933	-51.999	-45.865	-45.597	-38.486	115.790	-38.531	-8191	255	
1013.878	1	1	0	0	0.11183	0.10958	0.082897	0.070574	0.25828	0.1242	0.22528	0.034562	0.23876	0.097809	0.040102	0.088498	0.1207	0.3587	0.10992	0.11859	-3.5604	-3.6146	-3.9646	-3.8708	-3.5542	-4.1396	-3.825	-3.9042	-4.0458	-3.8271	-4.1813	-3.8146	-3.7458	-4.0854	-3.6167	-3.8438	81.713	261.527	71.798	236.577	-7.845	114.688	161.486	239.727	147.897	-67.954	186.120	251.316	-57.774	-55.214	101.725	2.880	0.00021612	0.00042862	0.00010598	1100	1.2035e-06	3.288e-06	1173.9	233.16	2.0313e-06	3.2088e-06	292.09	82.396	64.177	18.939	2.1371e-06	26.595	0.00025744	0.00024101	6.8971e-05	1095.6	3.1509e-06	2.4292e-06	1169.3	232.66	2.6805e-06	2.6591e-06	293.24	83.421	64.54	19.297	2.7185e-06	27.158	57.472	11.110	46.198	-59.073	87.158	83.363	-58.826	-52.086	83.160	97.416	-52.172	-46.094	-45.255	-38.653	83.995	-39.094	-8191	255	
1013.974	1	1	0	0	0.077567	0.2401	0.015398	0.23304	0.079244	0.222	0.22554	0.10985	0.16481	0.040144	0.077009	0.095439	0.080846	0.21146	0.27273	0.251	-3.7042	-3.2667	-3.9437	-3.9917	-3.5333	-4.1062	-3.7125	-3.975	-4.0271	-3.5021	-4.0417	-4.0729	-3.6396	-4.2271	-3.7104	-3.6042	-30.935	-52.055	180.295	212.866	63.266	192.718	243.101	142.345	231.854	80.814	-60.759	269.506	190.679	160.663	125.638	237.350	0.00020422	0.00017092	5.8893e-05	1105.3	3.3398e-06	3.5254e-06	1177.7	232.79	4.0018e-06	3.3704e-06	291.72	81.869	63.384	18.862	2.9714e-06	26.576	0.00024861	0.00024016	6.5042e-05	1095.1	2.8099e-06	2.3277e-06	1169.5	232.5	2.6202e-06	2.6275e-06	293.45	83.366	64.298	19.205	2.567e-06	27.192	50.670	31.494	24.531	-58.877	102.567	94.140	-59.149	-51.697	88.613	87.056	-51.629	-45.766	-45.343	-38.666	75.996	-39.143	-8191	255	
1014.095	1	1	0	0	0.15222	0.21283	0.30004	0.38913	0.039108	0.1376	0.26855	0.25935	0.2471	0.12958	0.16933	0.23883	0.15624	0.042076	0.39986	0.012508	-3.6813	-3.5708	-3.9583	-4.1562	-3.3896	-4.0458	-3.8812	-3.7687	-4.0646	-3.6229	-4.0333	-3.7938	-3.4938	-3.8646	-3.7854	-3.6312	27.171	50.517	279.544	188.070	86.790	66.432	184.683	280.298	28.607	-8.510	193.691	-13.635	-68.087	204.021	171.807	-0.798	0.00019719	0.00021311	5.2202e-05	1105.2	1.7602e-06	3.0971e-06	1171.7	231.66	2.5701e-06	1.6909e-06	293.24	83.119	64.634	19.132	2.946e-06	26.86	0.00024429	0.00024666	6.358e-05	1096.1	3.207e-06	2.4231e-06	1167.1	232.27	2.6252e-06	2.463e-06	293.54	83.556	64.623	19.27	2.6628e-06	27.196	58.290	14.651	25.114	-59.002	86.563	73.443	-59.073	-51.831	37.467	98.973	-52.238	-45.359	-45.154	-38.326	103.183	-38.778	-8191	255	
1014.191	1	1	0	0	0.19443	0.11144	0.1367	0.22523	0.25967	0.062649	0.18943	0.2097	0.15247	0.13521	0.090304	0.18838	0.1844	0.051611	0.20153	0.21847	-3.7146	-3.7521	-3.8375	-4.0042	-3.4875	-4.1125	-4.0188	-3.7646	-4.2438	-3.675	-3.8208	-3.8167	-3.6354	-3.8354	-3.9646	-3.4729	44.268	203.858	115.529	277.535	255.903	11.276	-55.297	-38.401	-19.486	132.270	140.355	195.399	264.766	106.897	99.703	203.194	0.00021843	0.00032208	0.00012407	1113.8	2.8628e-06	3.4081e-06	1178.7	233.52	2.1819e-06	2.8965e-06	294.93	83.562	64.193	19.067	2.1936e-06	26.86	0.00026122	0.00022608	6.6396e-05	1097.3	2.976e-06	2.1054e-06	1167.5	232.53	2.6941e-06	2.3232e-06	293.79	83.56	64.479	19.312	2.3707e-06	27.247	48.552	28.452	32.179	-58.913	82.901	67.580	-59.085	-51.820	63.125	92.104	-51.880	-45.517	-45.442	-38.711	88.153	-38.982	-8191	255	
1014.287	1	1	0	0	0.21622	0.2036	0.22463	0.052351	0.073735	0.28854	0.17579	0.33999	0.013892	0.21621	0.14919	0.037048	0.28374	0.14481	0.12318	0.037891	-3.6292	-3.7833	-3.8	-4.2125	-3.7938	-3.9083	-3.8521	-3.6729	-3.9708	-3.6375	-3.9375	-4.1333	-3.6208	-3.7729	-4.0729	-3.5375	213.184	55.991	47.533	266.059	88.926	178.248	236.084	204.410	186.511	13.960	52.979	284.902	288.812	189.649	38.583	-26.310	0.0002155	0.00034176	9.6235e-05	1106.3	2.9298e-06	2.5727e-06	1173.6	232.69	1.2951e-06	2.4578e-06	292.1	82.601	63.894	18.964	2.3271e-06	26.634	0.00024166	0.00021981	6.5239e-05	1094.7	3.0627e-06	2.3224e-06	1165.9	231.72	2.514e-06	2.5888e-06	292.76	83.358	64.278	19.217	2.3683e-06	27.169	58.254	13.548	19.797	-58.973	67.559	66.899	-58.703	-51.768	101.451	76.435	-52.034	-45.776	-45.497	-38.559	131.508	-38.591	-8191	255	
1014.359	1	1	0	0	0.11501	0.17766	0.15284	0.23475	0.089652	0.07439	0.30041	0.10843	0.087598	0.069521	0.42242	0.1396	0.09536	0.11278	0.17038	0.24693	-3.7375	-3.5812	-3.6146	-4.2708	-3.75	-3.8833	-4.1312	-3.5625	-3.8667	-3.75	-3.7438	-4.1604	-3.8271	-3.9354	-3.8958	-3.5854	171.407	82.700	-60.714	229.134	255.164	184.965	202.047	243.040	281.704	55.774	281.732	168.083	195.187	146.211	50.046	-65.859	0.00019593	0.00026001	0.00011346	1108.9	2.4307e-06	2.6401e-06	1170.2	232.62	2.5098e-06	3.1937e-06	292.11	83.04	64.088	18.815	2.5757e-06	26.631	0.00024511	0.00023227	6.7858e-05	1095	3.0948e-06	2.6366e-06	1164.1	232.12	2.6676e-06	2.5844e-06	292.23	83.503	64.36	19.195	2.4263e-06	27.116	57.290	32.259	34.660	-58.667	74.781	72.623	-58.853	-51.718	72.210	79.006	-51.761	-45.438	-45.336	-38.047	66.195	-39.212	-8191	255	
1014.479	1	1	0	0	0.060039	0.039069	0.2565	0.17701	0.17447	0.091783	0.16942	0.023821	0.29357	0.19016	0.10737	0.344	0.21283	0.19383	0.11581	0.18656	-3.4479	-3.6875	-3.725	-4.0875	-3.6604	-3.8563	-4.3167	-3.5521	-3.9542	-3.7021	-3.6354	-3.9729	-3.6937	-3.8896	-4.0437	-3.4542	213.015	-14.981	249.989	234.544	170.948	111.484	110.998	92.198	-45.803	143.224	184.729	254.659	283.748	205.587	1.754	40.705	0.00019485	0.0002531	7.1709e-05	1092.4	3.2278e-06	2.6132e-06	1161	232.37	2.2585e-06	3.3434e-06	293.04	82.692	63.495	18.912	2.1292e-06	26.471	0.00024606	0.00022987	6.1899e-05	1088.1	2.992e-06	2.6235e-06	1161	231.56	2.6704e-06	2.2757e-06	292.12	83.242	64.058	19.214	2.3575e-06	27.019	56.770	30.094	45.445	-59.060	36.822	63.245	-59.035	-51.913	84.935	74.200	-52.017	-45.401	-45.474	-38.438	83.295	-39.011	-8191	255	
1014.576	1	1	0	0	0.11733	0.14155	0.060375	0.15004	0.073218	0.18862	0.060737	0.17215	0.13632	0.049178	0.11336	0.1272	0.13919	0.093719	0.14437	0.090888	-3.5917	-3.7833	-3.4437	-4.1583	-3.6229	-3.8187	-4.2792	-3.6771	-4.0125	-3.9104	-3.4938	-4.1479	-3.95	-3.6458	-3.9292	-3.7125	47.685	-64.421	125.414	248.492	278.064	252.800	-28.293	174.759	139.793	14.840	279.470	-51.330	257.344	226.106	115.816	-29.052	0.00019813	0.00036411	7.8206e-05	1095.8	3.1531e-06	2.427e-06	1167.3	229.61	1.0439e-06	3.1754e-06	290.57	82.124	63.691	18.699	3.1969e-06	26.301	0.00023965	0.0002332	6.5544e-05	1088.4	2.96e-06	2.6357e-06	1159.2	230.3	2.7099e-06	2.383e-06	290.99	82.846	63.94	19.059	2.2083e-06	26.908	58.482	12.339	35.588	-58.888	67.580	72.585	-59.241	-51.792	66.413	74.407	-52.201	-45.755	-45.392	-38.251	66.714	-38.830	-8191	255	
1014.670	1	1	0	0	0.18389	0.14063	0.070124	0.072704	0.1471	0.12313	0.21852	0.30518	0.096529	0.21782	0.13229	0.15082	0.16848	0.18888	0.14473	0.18311	-3.5958	-3.9146	-3.3875	-4.2021	-3.7521	-3.5917	-4.2396	-3.7812	-3.7083	-4.1625	-3.7313	-4.0542	-3.7771	-3.5104	-4.2104	-3.6521	14.373	-15.534	61.767	-0.301	34.678	-1.407	175.432	253.112	242.971	42.682	23.835	67.895	-55.818	-65.078	106.067	57.236	0.00021101	0.00036505	5.3151e-05	1089.3	2.4346e-06	2.9421e-06	1154.1	229.55	3.513e-06	2.2263e-06	290.32	81.671	63.494	18.758	3.1798e-06	26.406	0.0002445	0.00021153	6.3253e-05	1084.3	3.0583e-06	2.4896e-06	1154.3	229.83	2.7932e-06	2.1412e-06	289.89	82.718	63.927	19.044	2.652e-06	26.838	67.748	31.343	10.777	-59.070	61.478	90.339	-59.042	-51.776	98.437	94.051	-52.210	-45.668	-45.229	-38.185	82.019	-38.922	-8191	255	
1014.768	1	1	0	0	0.14736	0.14415	0.10973	0.32745	0.23343	0.055525	0.12271	0.027554	0.066265	0.28502	0.23238	0.10352	0.26846	0.034959	0.052903	0.18875	-3.2417	-4.0563	-3.6792	-3.9437	-3.9271	-3.6896	-4.2312	-3.7271	-3.8125	-4.1521	-3.6646	-3.9417	-3.975	-3.4792	-4.0271	-3.8854	-46.461	128.809	145.763	218.290	-21.828	-57.753	203.197	206.392	98.331	69.092	231.908	230.751	-61.462	-26.561	260.463	90.162	0.00018189	0.00030544	8.3348e-05	1092	1.8831e-06	2.5513e-06	1158.4	227.54	2.6783e-06	2.2502e-06	288.86	81.055	63.028	18.709	2.9332e-06	26.436	0.00025987	0.00020844	7.1481e-05	1083.8	2.9097e-06	2.368e-06	1154.2	228.16	2.8463e-06	2.3716e-06	288.24	82.139	63.428	18.874	2.5948e-06	26.732	65.695	22.367	28.023	-59.124	111.837	75.022	-58.808	-51.976	67.366	93.797	-52.058	-45.400	-45.076	-38.486	89.860	-38.484	-8191	255	
1014.887	1	1	0	0	0.12227	0.092746	0.041804	0.16366	0.25774	0.12315	0.11866	0.20407	0.14806	0.18701	0.21287	0.089173	0.12782	0.16613	0.040903	0.13821	-3.3833	-4.1146	-3.5354	-4.0854	-4.1562	-3.7146	-4.2146	-3.8042	-3.8187	-4.0979	-3.8021	-3.8979	-4.1	-3.8	-4.1375	-3.8563	110.960	-30.840	228.727	144.894	145.121	19.788	276.252	59.974	174.182	281.077	203.741	19.165	-65.116	128.086	-59.585	121.731	0.00018481	0.00027607	0.00010795	1094.4	2.3214e-06	2.2947e-06	1162.7	229.11	2.9122e-06	2.7799e-06	288.9	81.375	62.84	18.548	3.6549e-06	26.183	0.00023866	0.00022484	7.0848e-05	1081.8	3.1909e-06	2.5421e-06	1151.7	227.83	2.9648e-06	2.6099e-06	287.67	81.787	63.189	18.81	2.451e-06	26.574	61.276	48.174	35.253	-58.824	71.629	87.502	-58.731	-51.715	39.641	84.217	-52.184	-45.754	-45.181	-38.246	61.816	-38.561	-8191	255	
1014.983	1	1	0	0	0.092354	0.18414	0.14591	0.27414	0.16923	0.077224	0.22949	0.17501	0.2879	0.24512	0.050264	0.07948	0.063165	0.18114	0.10127	0.13638	-3.2646	-4.1188	-3.7104	-3.7333	-3.9854	-3.775	-4.0958	-3.825	-3.5125	-4.0979	-3.8646	-3.7729	-4.0521	-3.6604	-3.8875	-4.0146	183.968	78.411	-19.230	275.911	157.663	43.433	194.847	268.398	91.991	250.533	234.513	-0.405	18.610	179.623	74.293	204.200	0.00021177	0.0003261	8.7909e-05	1092.8	2.5806e-06	2.5784e-06	1157.9	226.85	2.7205e-06	4.6301e-06	286.9	80.973	62.602	18.448	1.7545e-06	26.109	0.00025773	0.00023939	7.5257e-05	1081.1	2.9906e-06	2.7171e-06	1151	227.08	2.8549e-06	2.6829e-06	287.06	81.66	62.998	18.8	2.8058e-06	26.604	46.952	10.084	18.007	-58.845	75.032	84.024	-58.936	-51.790	83.187	100.476	-51.821	-45.360	-45.544	-38.530	71.469	-38.742	-8191	255	
1015.079	1	1	0	0	0.31656	0.1375	0.22237	0.12749	0.11983	0.23718	0.38472	0.12178	0.31724	0.065806	0.068288	0.21181	0.13082	0.22355	0.083044	0.12221	-3.2354	-3.8771	-3.6479	-3.9083	-4.0833	-3.6583	-3.9938	-3.8854	-3.6708	-3.9458	-3.8417	-3.7292	-4.0208	-3.5271	-3.9979	-3.8708	79.712	237.463	94.592	173.033	67.115	208.200	198.659	187.416	31.684	-19.400	272.982	217.385	219.546	28.620	-11.196	-34.197	0.00019025	0.00028463	7.014e-05	1089.3	2.1972e-06	3.274e-06	1155.8	227.75	2.5062e-06	2.7909e-06	287.05	80.868	62.464	18.503	2.8906e-06	26.169	0.00025761	0.00023304	7.0368e-05	1079.4	2.9491e-06	2.5911e-06	1151.7	227.4	2.8521e-06	2.6345e-06	287.58	81.878	63.045	18.826	2.6049e-06	26.588	66.090	20.194	3.294	-58.812	54.989	95.820	-58.966	-51.771	82.065	93.318	-52.186	-45.898	-45.382	-38.690	87.885	-38.995	-8191	255	
1015.175	1	1	0	0	0.1459	0.23585	0.19456	0.098388	0.014847	0.1099	0.12066	0.14738	0.041034	0.1441	0.19737	0.07149	0.28738	0.15083	0.20477	0.23126	-3.1667	-3.9604	-3.5042	-3.85	-4.0312	-3.7458	-4.0792	-3.9792	-3.4208	-3.8229	-4.0646	-3.6396	-4.175	-3.6562	-3.6083	-4.1312	46.554	21.289	161.840	-46.509	-28.392	148.862	-14.633	197.765	15.751	-52.959	237.125	5.233	44.520	247.125	258.372	189.402	0.00018102	0.00019632	7.329e-05	1097.7	3.7284e-06	3.5252e-06	1165.2	228.44	3.0935e-06	2.4365e-06	287.48	81.146	62.732	18.647	2.7449e-06	26.336	0.00026953	0.00024287	7.6305e-05	1084.2	3.0219e-06	3.0006e-06	1155.5	228.07	2.8305e-06	2.5923e-06	287.26	81.707	63.04	18.851	2.4835e-06	26.665	49.871	24.096	19.573	-58.890	76.411	85.030	-58.868	-51.701	50.492	85.222	-51.573	-45.461	-45.344	-38.275	77.192	-38.767	-8191	255	
1015.271	1	1	0	0	0.11845	0.11323	0.095734	0.10168	0.24442	0.10621	0.035642	0.25113	0.30372	0.38267	0.19797	0.079125	0.078524	0.079191	0.25962	0.10166	-3.2042	-3.8792	-3.8729	-3.6292	-4.0458	-3.6333	-3.8312	-4.1188	-3.7938	-3.8563	-3.9771	-3.6542	-3.9646	-3.7854	-3.8875	-4.0604	60.028	38.584	63.712	261.047	263.256	109.953	258.260	211.777	163.169	105.824	208.269	211.361	192.474	97.397	68.828	136.261	0.00021638	0.00033346	0.0001185	1095.7	2.064e-06	3.5445e-06	1158.5	228.36	1.9891e-06	2.9441e-06	285.49	80.478	62.581	18.377	3.2429e-06	25.856	0.00025806	0.00028063	7.3533e-05	1082.9	3.156e-06	2.7276e-06	1152	227.83	3.1493e-06	2.5941e-06	287.36	81.65	63.183	18.762	2.7185e-06	26.513	53.773	26.531	16.297	-58.836	90.015	68.643	-58.754	-51.783	47.232	81.553	-52.073	-45.630	-45.302	-38.363	71.600	-39.398	-8191	255	
1015.367	1	1	0	0	0.17972	0.20062	0.14138	0.24303	0.18478	0.15452	0.099631	0.22621	0.07846	0.059765	0.22387	0.11379	0.13534	0.11536	0.15392	0.13806	-3.1917	-3.9271	-3.9771	-3.725	-4.0521	-3.8208	-3.825	-4.2333	-3.5333	-3.7896	-4.0646	-3.6479	-4.0625	-3.825	-3.6	-4.0375	8.611	165.104	191.159	265.736	188.298	246.355	184.116	226.420	60.619	190.536	206.110	63.654	211.079	274.049	245.157	-37.053	0.0002117	0.00028451	5.1626e-05	1090.1	2.4437e-06	3.3578e-06	1156	226.51	1.3417e-06	3.1815e-06	285.5	80.784	62.245	18.497	2.3246e-06	26.296	0.00027914	0.00024813	6.3471e-05	1081.8	2.8675e-06	2.8527e-06	1151.8	227.4	3.0208e-06	2.5932e-06	286.6	81.724	63.011	18.794	2.6845e-06	26.608	53.551	23.112	42.897	-58.980	57.045	93.286	-58.843	-51.646	154.183	91.348	-51.863	-45.636	-45.247	-38.569	62.971	-38.650	-8191	255	
1015.488	1	1	0	0	0.1389	0.11153	0.053697	0.28629	0.11002	0.12646	0.067181	0.068514	0.10464	0.1388	0.28019	0.078668	0.075929	0.03797	0.204	0.031379	-3.3208	-3.5771	-3.8625	-3.5729	-3.875	-3.975	-3.7167	-4.0312	-3.7917	-3.7542	-3.9437	-3.6896	-3.7917	-3.8812	-3.5521	-4.0917	106.920	92.129	11.819	-63.180	-44.624	134.328	-68.534	226.117	152.632	222.669	179.947	201.369	138.019	42.351	66.694	76.416	0.00020696	0.00025907	8.2496e-05	1088.8	3.101e-06	1.9504e-06	1162.7	227.92	3.596e-06	2.7712e-06	286.94	81.073	62.721	18.621	3.7049e-06	26.036	0.00027199	0.00027281	6.8731e-05	1080.7	3.1239e-06	2.6996e-06	1153.1	227.72	3.0064e-06	2.7524e-06	287.71	81.816	63.119	18.859	2.6443e-06	26.598	63.213	8.552	17.510	-58.946	75.186	94.467	-58.862	-51.887	77.666	71.596	-51.644	-45.512	-45.261	-38.136	91.658	-38.644	-8191	255	
1015.582	1	1	0	0	0.48187	0.19294	0.10454	0.3106	0.079093	0.22504	0.089179	0.20687	0.10754	0.053103	0.24874	0.08921	0.088922	0.20469	0.13761	0.095153	-3.3604	-3.6292	-3.9854	-3.7646	-3.9375	-3.8521	-3.6562	-4.1042	-3.8771	-3.7188	-4.1354	-3.8063	-3.9042	-3.8917	-3.5354	-4.0042	91.977	131.517	209.404	243.362	281.984	167.211	259.936	183.107	103.292	-50.204	50.152	197.959	105.757	-41.714	-69.280	233.579	0.0002089	0.00031131	9.3795e-05	1094.1	1.6843e-06	4.1065e-06	1160.3	227.09	2.6238e-06	3.3471e-06	286.69	80.507	62.261	18.348	2.3531e-06	26.047	0.00027199	0.00024767	6.2903e-05	1083.5	3.1246e-06	2.4528e-06	1153.2	227.73	3.076e-06	2.7374e-06	287.46	81.466	63.01	18.766	2.8004e-06	26.585	58.219	19.962	1.983	-58.752	54.985	82.324	-58.715	-51.730	46.598	91.356	-51.998	-46.048	-45.468	-38.353	81.175	-39.179	-8191	255	
1015.656	1	1	0	0	0.12548	0.034663	0.11945	0.17839	0.15047	0.13772	0.09646	0.24254	0.099105	0.15458	0.074892	0.27405	0.14235	0.27194	0.19824	0.10334	-3.3417	-3.6958	-4.0625	-3.7771	-3.6292	-3.9208	-3.7542	-4.1188	-3.8625	-3.7125	-4.05	-3.7104	-3.8	-4.1	-3.4604	-3.9229	77.778	-48.746	267.435	-31.989	230.222	-0.084	264.479	285.375	283.046	187.528	35.781	228.274	17.421	-68.906	274.286	-0.283	0.00020011	0.00026925	7.8982e-05	1092.7	2.7669e-06	3.2706e-06	1164.3	227.82	2.912e-06	3.699e-06	288.92	80.822	62.984	18.588	1.2849e-06	26.156	0.00025773	0.00024055	5.952e-05	1082.6	3.2223e-06	2.4817e-06	1153.4	227.64	2.9088e-06	2.755e-06	287.93	81.562	63.167	18.829	2.7842e-06	26.6	62.229	12.494	51.138	-58.819	107.984	59.084	-58.684	-51.897	24.680	81.292	-51.985	-45.832	-45.409	-38.106	80.313	-38.455	-8191	255	
1015.752	1	1	0	0	0.13952	0.1971	0.24584	0.16404	0.20805	0.071217	0.29363	0.10763	0.16886	0.15613	0.042214	0.12894	0.14361	0.32005	0.25062	0.28337	-3.4979	-3.6458	-3.9667	-3.8583	-3.7062	-4.0229	-3.6896	-4.1833	-3.8625	-3.5187	-4.0667	-3.8375	-3.8625	-4.2188	-3.6375	-3.7938	-32.140	94.863	44.025	279.096	288.112	269.631	246.248	67.919	155.707	275.862	222.340	-53.079	273.425	126.717	49.839	199.690	0.00018916	0.00020176	8.1704e-05	1098.9	2.3211e-06	3.3417e-06	1166.3	230.11	3.7302e-06	3.001e-06	288.84	81.155	62.949	18.522	3.204e-06	26.194	0.00025642	0.00024627	6.3253e-05	1083.8	3.1159e-06	2.8895e-06	1153.4	228.25	2.8499e-06	2.9326e-06	287.23	81.798	63.164	18.804	2.7471e-06	26.603	56.016	16.426	22.845	-58.943	124.009	80.034	-58.815	-51.656	76.979	90.552	-51.712	-45.338	-45.430	-37.774	80.076	-38.732	-8191	255	
1015.871	1	1	0	0	0.078711	0.049641	0.13144	0.12842	0.04967	0.19869	0.0325	0.17344	0.23746	0.10162	0.27487	0.062395	0.099663	0.095661	0.090768	0.13658	-3.4	-3.6083	-4.1167	-3.9792	-3.6646	-4.1813	-3.8	-4.0938	-4.0854	-3.5708	-4.0625	-3.9104	-3.7125	-4.075	-3.6208	-3.7396	101.249	-23.844	48.153	251.688	56.862	289.562	47.346	230.564	75.111	179.107	280.414	87.669	-16.407	237.135	-42.869	75.860	0.00019977	0.00019925	7.6429e-05	1090.1	1.7256e-06	2.5469e-06	1155.7	228.22	3.5649e-06	2.168e-06	286.27	80.565	62.347	18.448	2.3936e-06	26.267	0.00025785	0.0002414	6.4693e-05	1081	2.78e-06	2.3697e-06	1150.4	227.98	2.6604e-06	2.7849e-06	287.44	81.682	63.047	18.787	2.7293e-06	26.664	57.270	13.107	44.118	-58.841	66.554	66.599	-58.841	-51.807	74.958	74.795	-51.836	-45.377	-45.116	-38.516	70.841	-39.150	-8191	255	
1015.967	1	1	0	0	0.15392	0.075671	0.22605	0.11921	0.062723	0.25362	0.35512	0.22658	0.23567	0.2242	0.18737	0.15459	0.067206	0.224	0.05225	0.17522	-3.5187	-3.6271	-3.9708	-3.9562	-3.6708	-3.9771	-3.9167	-3.7667	-4.0021	-3.6167	-3.8896	-3.8167	-3.5812	-4.1354	-3.9292	-3.7375	7.009	270.498	90.094	227.096	-11.400	287.793	249.913	152.643	-37.974	1.590	230.729	263.042	159.605	12.364	238.532	152.830	0.00016281	0.00038541	8.669e-05	1084.7	1.8399e-06	2.4403e-06	1158.3	227.15	2.1223e-06	4.0494e-06	287.45	80.61	62.561	18.563	2.0865e-06	26.089	0.00025555	0.00026492	6.3973e-05	1080.4	2.9673e-06	2.3977e-06	1151	227.48	2.7781e-06	2.8711e-06	287.58	81.533	63.08	18.81	2.8105e-06	26.614	55.494	23.524	21.271	-59.050	89.822	82.203	-58.768	-51.874	63.607	90.514	-51.738	-45.648	-45.417	-38.266	58.941	-38.724	-8191	255	
1016.063	1	1	0	0	0.15822	0.076833	0.22141	0.18787	0.21463	0.094325	0.24332	0.16058	0.13024	0.20006	0.025748	0.17885	0.067663	0.10834	0.20569	0.10561	-3.6312	-3.6063	-3.8854	-3.9896	-3.5625	-4.2562	-3.9708	-3.775	-4.1354	-3.8417	-3.9938	-3.9854	-3.7458	-4.1333	-3.775	-3.7729	99.282	-12.521	275.410	160.899	15.511	208.021	220.816	218.384	237.934	140.296	124.629	199.578	-56.539	233.158	199.321	271.664	0.00017517	0.00040339	8.8403e-05	1090.3	3.6431e-06	3.3547e-06	1154.1	225.52	3.4924e-06	3.0519e-06	287.32	80.564	62.809	18.603	2.9567e-06	26.154	0.00025613	0.00026035	6.3449e-05	1081	3.2113e-06	2.5753e-06	1149.4	227.09	2.8133e-06	2.7225e-06	287.51	81.652	63.125	18.832	2.7556e-06	26.649	63.413	30.172	28.719	-58.850	55.103	95.672	-58.992	-51.962	39.198	81.144	-52.243	-45.727	-45.070	-37.875	68.197	-39.017	-8191	255	
1016.159	1	1	0	0	0.21597	0.074048	0.097471	0.14955	0.025595	0.082099	0.48513	0.02596	0.021767	0.11393	0.1756	0.18053	0.11677	0.072354	0.24147	0.069629	-3.8063	-3.5583	-3.825	-4.1146	-3.5083	-4.1375	-4.0729	-3.6708	-4.1833	-3.7458	-3.9333	-4.0896	-3.5187	-4	-4.0146	-3.7313	25.067	45.019	7.464	280.096	129.279	224.007	219.208	24.529	187.807	-31.807	264.136	99.324	139.748	-68.352	40.841	-30.633	0.00017899	0.00039616	0.00012427	1091.7	3.7624e-06	2.3846e-06	1164	227.05	1.8169e-06	2.8711e-06	288.82	80.448	62.526	18.672	3.5324e-06	26.342	0.00024158	0.00024225	6.4235e-05	1081.5	2.9797e-06	2.3758e-06	1153.3	227.87	2.5563e-06	2.9229e-06	287.8	81.807	63.076	18.843	2.5407e-06	26.714	57.633	3.824	1.565	-58.870	85.232	98.213	-58.854	-51.739	72.336	82.092	-51.946	-45.098	-45.212	-37.947	72.333	-39.150	-8191	255	
#DATA ENDS
