BOXY.EXE: ISS Imagent and Oximeter Data Acquisition Program Version 0.80
Ascii Record File

#ACQ INFORMATION
2  Detector Channels 
16  External MUX Channels 
1  Auxiliary Channels 
5000  Waveform (CCF) Frequency (Hz)
1  Waveforms Skipped 
30  Waveforms Averaged 
1  Cycles Averaged 
16  Acquisitions per Waveform 
10.0806  Updata Rate (Hz) 

#FILE INFORMATION
TRUE -- External MUX Channel results are PARSED.
FALSE -- AC DC and Phase are NOT grouped.
TRUE -- Companion Program Settings File CREATED.
FALSE -- AC data not excluded
FALSE -- DC data not excluded
FALSE -- Phase data not excluded
FALSE -- Auxillary Chn. data not excluded
Tab delimiters

#CALIBRATION STATE
TRUE -- Waveform Calibration Values APPLIED.


#AUX CALIBRATION VALUES
Val Type	aux-1	

Term	1.0000e+00	
Factor	0.0000e+00	


#WF CALIBRATION VALUES
A = Detector Channel
Val Type	A-AC1	A-AC2	A-AC3	A-AC4	A-AC5	A-AC6	A-AC7	A-AC8	A-AC9	A-AC10	A-AC11	A-AC12	A-AC13	A-AC14	A-AC15	A-AC16	A-DC1	A-DC2	A-DC3	A-DC4	A-DC5	A-DC6	A-DC7	A-DC8	A-DC9	A-DC10	A-DC11	A-DC12	A-DC13	A-DC14	A-DC15	A-DC16	A-Ph1	A-Ph2	A-Ph3	A-Ph4	A-Ph5	A-Ph6	A-Ph7	A-Ph8	A-Ph9	A-Ph10	A-Ph11	A-Ph12	A-Ph13	A-Ph14	A-Ph15	A-Ph16	

Term	0.00000e+00	0.00000e+00	0.00000e+00	0.00000e+00	0.00000e+00	0.00000e+00	0.00000e+00	0.00000e+00	0.00000e+00	0.00000e+00	0.00000e+00	0.00000e+00	0.00000e+00	0.00000e+00	0.00000e+00	0.00000e+00	0.00000e+00	0.00000e+00	0.00000e+00	0.00000e+00	0.00000e+00	0.00000e+00	0.00000e+00	0.00000e+00	0.00000e+00	0.00000e+00	0.00000e+00	0.00000e+00	0.00000e+00	0.00000e+00	0.00000e+00	0.00000e+00	0.00000e+00	0.00000e+00	0.00000e+00	0.00000e+00	0.00000e+00	0.00000e+00	0.00000e+00	0.00000e+00	0.00000e+00	0.00000e+00	0.00000e+00	0.00000e+00	0.00000e+00	0.00000e+00	0.00000e+00	0.00000e+00	
Factor	1.00000e+00	1.00000e+00	1.00000e+00	1.00000e+00	1.00000e+00	1.00000e+00	1.00000e+00	1.00000e+00	1.00000e+00	1.00000e+00	1.00000e+00	1.00000e+00	1.00000e+00	1.00000e+00	1.00000e+00	1.00000e+00	1.00000e+00	1.00000e+00	1.00000e+00	1.00000e+00	1.00000e+00	1.00000e+00	1.00000e+00	1.00000e+00	1.00000e+00	1.00000e+00	1.00000e+00	1.00000e+00	1.00000e+00	1.00000e+00	1.00000e+00	1.00000e+00	X	X	X	X	X	X	X	X	X	X	X	X	X	X	X	X	

B = Detector Channel
Val Type	B-AC1	B-AC2	B-AC3	B-AC4	B-AC5	B-AC6	B-AC7	B-AC8	B-AC9	B-AC10	B-AC11	B-AC12	B-AC13	B-AC14	B-AC15	B-AC16	B-DC1	B-DC2	B-DC3	B-DC4	B-DC5	B-DC6	B-DC7	B-DC8	B-DC9	B-DC10	B-DC11	B-DC12	B-DC13	B-DC14	B-DC15	B-DC16	B-Ph1	B-Ph2	B-Ph3	B-Ph4	B-Ph5	B-Ph6	B-Ph7	B-Ph8	B-Ph9	B-Ph10	B-Ph11	B-Ph12	B-Ph13	B-Ph14	B-Ph15	B-Ph16	

Term	0.00000e+00	0.00000e+00	0.00000e+00	0.00000e+00	0.00000e+00	0.00000e+00	0.00000e+00	0.00000e+00	0.00000e+00	0.00000e+00	0.00000e+00	0.00000e+00	0.00000e+00	0.00000e+00	0.00000e+00	0.00000e+00	0.00000e+00	0.00000e+00	0.00000e+00	0.00000e+00	0.00000e+00	0.00000e+00	0.00000e+00	0.00000e+00	0.00000e+00	0.00000e+00	0.00000e+00	0.00000e+00	0.00000e+00	0.00000e+00	0.00000e+00	0.00000e+00	-2.26776e+02	-1.29708e+02	-1.25081e+02	-1.81324e+02	-8.13396e+01	-6.84428e+01	-1.55273e+02	-1.62015e+02	-8.44135e+01	-6.57107e+01	-1.73287e+02	-1.69603e+02	-1.82427e+02	-1.77112e+02	-7.61088e+01	-1.49999e+02	
Factor	5.15204e-05	1.63359e-04	4.63749e-05	1.65014e-01	2.13459e-06	1.73112e-06	1.63714e-01	5.20409e-02	2.66509e-06	1.65289e-06	8.93901e-02	2.90941e-02	2.44411e-02	9.00888e-03	1.89399e-06	1.31364e-02	1.97274e-05	3.71382e-05	1.04766e-05	8.31389e-02	3.49691e-07	4.20036e-07	7.75769e-02	2.62501e-02	3.44574e-07	4.22086e-07	4.38463e-02	1.42514e-02	1.24700e-02	4.59518e-03	3.71019e-07	6.48508e-03	X	X	X	X	X	X	X	X	X	X	X	X	X	X	X	X	



#DISTANCE SETTINGS
A = Detector Channel
A-1	A-2	A-3	A-4	A-5	A-6	A-7	A-8	A-9	A-10	A-11	A-12	A-13	A-14	A-15	A-16	

2.5000e+00	3.0000e+00	2.5000e+00	3.0000e+00	2.0000e+00	3.0000e+00	1.5000e+00	3.0000e+00	3.0000e+00	3.0000e+00	3.0000e+00	3.0000e+00	3.0000e+00	3.0000e+00	1.5000e+00	3.0000e+00	

B = Detector Channel
B-1	B-2	B-3	B-4	B-5	B-6	B-7	B-8	B-9	B-10	B-11	B-12	B-13	B-14	B-15	B-16	

1.0000e+01	1.0000e+01	1.0000e+01	1.4400e+00	1.0000e+01	1.0000e+01	1.5100e+00	1.9400e+00	1.0000e+01	1.0000e+01	1.9900e+00	2.4900e+00	2.4100e+00	2.9000e+00	1.0000e+01	2.9800e+00	




#DATA BEGINS
time	group	step	mark	flag	A-AC1	A-AC2	A-AC3	A-AC4	A-AC5	A-AC6	A-AC7	A-AC8	A-AC9	A-AC10	A-AC11	A-AC12	A-AC13	A-AC14	A-AC15	A-AC16	A-DC1	A-DC2	A-DC3	A-DC4	A-DC5	A-DC6	A-DC7	A-DC8	A-DC9	A-DC10	A-DC11	A-DC12	A-DC13	A-DC14	A-DC15	A-DC16	A-Ph1	A-Ph2	A-Ph3	A-Ph4	A-Ph5	A-Ph6	A-Ph7	A-Ph8	A-Ph9	A-Ph10	A-Ph11	A-Ph12	A-Ph13	A-Ph14	A-Ph15	A-Ph16	B-AC1	B-AC2	B-AC3	B-AC4	B-AC5	B-AC6	B-AC7	B-AC8	B-AC9	B-AC10	B-AC11	B-AC12	B-AC13	B-AC14	B-AC15	B-AC16	B-DC1	B-DC2	B-DC3	B-DC4	B-DC5	B-DC6	B-DC7	B-DC8	B-DC9	B-DC10	B-DC11	B-DC12	B-DC13	B-DC14	B-DC15	B-DC16	B-Ph1	B-Ph2	B-Ph3	B-Ph4	B-Ph5	B-Ph6	B-Ph7	B-Ph8	B-Ph9	B-Ph10	B-Ph11	B-Ph12	B-Ph13	B-Ph14	B-Ph15	B-Ph16	aux-1	digaux	

6224.794	1	1	0	256	0.18942	0.21751	0.036319	0.21578	0.17678	0.25817	0.077735	0.10749	0.088032	0.12957	0.18868	0.19702	0.13009	0.30827	0.12936	0.24779	-2.7396	-2.7271	-2.9771	-3.1604	-2.8521	-3.1667	-3.0125	-2.8292	-3.4604	-3.0146	-3.1146	-3.0021	-2.7042	-3.2833	-3.0104	-2.825	-79.447	78.870	92.874	139.791	35.224	-60.137	145.088	159.641	-108.700	150.092	-143.519	-2.685	190.143	152.598	-80.286	102.095	0.00032748	0.00081397	5.1823e-05	222.46	4.6671e-06	1.6273e-06	247.09	61.109	8.9958e-06	6.2589e-06	84.283	29.268	17.901	7.9042	7.5379e-06	14.095	0.01202	0.022508	0.0062884	269.06	0.00021136	0.00024978	286.37	75.329	0.00020834	0.00025153	107.96	37.096	25.176	10.518	0.00022468	17.868	133.171	118.648	-78.489	-142.045	117.248	91.363	-142.964	-137.406	23.748	-153.537	-139.849	-135.884	-133.351	-129.464	46.382	-133.071	-8191	255	
6224.890	1	1	0	0	0.10548	0.072165	0.073714	0.0927	0.10718	0.25339	0.032169	0.14008	0.16078	0.23135	0.18886	0.10767	0.27633	0.15646	0.021851	0.06333	-2.9458	-2.7917	-2.9042	-3.2167	-2.7208	-3.2375	-3.0687	-2.8917	-3.3438	-2.9583	-2.9542	-3.3354	-2.8979	-3.1542	-3.1125	-2.8354	113.633	44.370	-37.504	-86.655	168.029	-88.581	-15.104	91.520	-33.684	7.460	-122.061	54.138	195.105	118.607	-100.853	-145.491	0.00048174	0.00040107	3.3274e-05	224.79	1.5082e-05	5.6447e-06	244.16	61.014	4.9583e-06	1.3124e-06	83.303	29.496	17.953	7.8985	4.5889e-06	14.185	0.011986	0.022665	0.0063503	270.24	0.00021363	0.0002521	285.6	75.588	0.00020738	0.00025508	108.06	37.216	25.233	10.582	0.00022541	17.934	114.255	-77.825	196.991	-141.955	-77.695	17.924	-142.574	-137.050	-100.165	46.273	-139.295	-136.352	-134.189	-129.937	48.632	-132.861	-8191	255	
6224.986	1	1	0	0	0.12343	0.15605	0.059256	0.12855	0.11199	0.077543	0.15476	0.080799	0.089616	0.22145	0.23511	0.083252	0.12655	0.087848	0.1364	0.070542	-2.9729	-2.9396	-2.9104	-3.2812	-2.9208	-3.1562	-3.2	-2.8771	-3.1146	-3.1937	-2.9271	-3.4	-2.9604	-3.1188	-3.1521	-2.8812	-83.179	150.916	24.543	-120.353	-98.083	-125.984	89.016	64.382	27.745	166.555	48.104	152.059	-143.942	-82.472	71.495	69.064	0.00026182	0.00045506	4.164e-05	224.89	8.0342e-06	1.0465e-05	244.88	61.715	1.1219e-05	6.3192e-06	84.635	29.063	18.334	8.0238	7.2797e-06	14.375	0.012011	0.022475	0.0063793	268.84	0.00021167	0.00025185	285.6	75.79	0.00020717	0.00025539	108.76	37.274	25.356	10.675	0.0002278	18.118	125.459	-135.444	178.622	-141.423	153.242	35.890	-143.171	-137.605	7.124	-141.224	-139.847	-135.886	-133.995	-129.723	166.444	-132.926	-8191	255	
6225.081	1	1	0	0	0.056752	0.14933	0.078586	0.19498	0.19814	0.31963	0.10197	0.25226	0.15188	0.15108	0.27668	0.20459	0.19607	0.27189	0.11521	0.10502	-2.7896	-2.9646	-2.8271	-3.2375	-2.8729	-3.0292	-3.2625	-2.8167	-3.1604	-3.0896	-2.7896	-3.1667	-2.8438	-2.9417	-3.2771	-3.0938	191.660	-11.127	-2.692	-125.016	101.208	18.646	-93.920	-34.810	155.659	-113.439	178.202	89.431	-133.817	188.801	19.648	-154.382	3.3776e-05	0.00081867	0.00016825	224.11	1.29e-05	4.81e-06	244.59	61.616	1.1903e-05	5.7633e-06	85.51	29.523	18.575	8.1612	7.0024e-06	14.476	0.012011	0.022926	0.0064888	270.43	0.00021685	0.00025742	288.29	76.299	0.00021294	0.00026622	110.71	37.923	25.884	10.854	0.00023839	18.447	-150.199	-25.888	-62.242	-142.015	-78.691	-131.512	-142.532	-136.948	-127.735	150.510	-139.920	-135.900	-133.985	-130.323	-43.194	-133.242	-8191	255	
6225.201	1	1	0	0	0.19714	0.14758	0.23123	0.13201	0.12188	0.091051	0.23531	0.15889	0.16742	0.10322	0.38919	0.13544	0.053026	0.13007	0.13544	0.079597	-2.5	-2.95	-2.8438	-3.2875	-2.9146	-2.9917	-3.2062	-2.6688	-3.0604	-3.0979	-2.7938	-3.3083	-2.8417	-2.9583	-3.325	-2.8688	10.578	-26.703	128.655	110.867	-98.170	-18.183	72.211	154.561	61.963	62.822	-134.265	-68.965	145.079	47.409	147.921	158.728	0.00041223	0.0010142	0.00016614	226.03	9.1812e-06	5.7015e-06	246.66	61.457	3.895e-06	6.7534e-06	85.561	29.953	18.34	8.0948	4.2205e-06	14.519	0.01254	0.023905	0.0067457	273.29	0.00022365	0.00026975	291.48	77.019	0.00022187	0.00027521	111.24	38.147	26.048	10.906	0.00024102	18.477	112.295	121.880	-103.507	-142.090	203.793	196.174	-143.041	-137.692	-77.785	28.420	-139.552	-136.420	-134.216	-130.206	-85.781	-133.430	-8191	255	
6225.273	1	1	0	0	0.12816	0.1749	0.20216	0.2121	0.12426	0.21069	0.040443	0.078913	0.18803	0.17679	0.13945	0.095345	0.27352	0.12778	0.15719	0.3337	-2.6479	-3.0396	-2.5979	-3.1896	-2.9042	-3.0417	-3.2562	-2.9083	-3.0333	-3.0563	-2.7938	-3.0833	-2.8708	-2.7812	-3.2375	-2.8146	13.344	-21.442	114.445	144.747	88.443	35.979	123.021	-49.838	102.708	31.749	92.423	169.241	121.558	-108.579	170.382	44.847	0.00038373	0.00014878	0.00025676	225.53	1.708e-05	4.5075e-06	246.99	61.298	1.5815e-05	5.6607e-06	84.518	29.83	18.246	8.0297	5.6813e-06	14.431	0.012679	0.024219	0.0067213	272.88	0.00022535	0.00027065	290.02	76.794	0.00021999	0.00027727	110.57	38.022	26.09	10.952	0.00023954	18.4	77.186	177.572	-87.273	-141.564	-56.934	194.382	-142.879	-137.822	-18.347	175.987	-139.280	-136.765	-134.215	-129.771	204.132	-133.657	-8191	255	
6225.369	1	1	0	0	0.1897	0.25916	0.24537	0.09139	0.11412	0.06492	0.11287	0.22126	0.055219	0.09474	0.19231	0.1338	0.1792	0.13366	0.1335	0.025775	-2.5708	-3.1167	-2.8271	-3.0396	-3.0875	-2.8708	-3.325	-2.9604	-2.9833	-3.2333	-2.7417	-3.1208	-3.1333	-2.8167	-3.4917	-2.8104	-74.397	-121.624	-125.647	-126.030	1.209	48.795	134.042	-113.797	105.127	139.016	136.454	-152.017	105.992	40.872	52.664	-151.271	0.00055673	0.00029704	0.000161	224.16	2.0787e-06	6.2046e-06	244.48	61.734	1.4885e-05	5.9025e-06	84.185	29.578	18.164	8.1168	1.4734e-05	14.519	0.012774	0.02417	0.006725	273.44	0.00022763	0.00027264	290.24	76.94	0.00022429	0.00027982	111.25	38.008	26.214	10.999	0.00024257	18.508	89.982	-17.754	-142.657	-141.872	197.284	114.558	-143.130	-137.252	-33.365	-73.485	-139.063	-136.508	-134.003	-129.891	8.792	-133.210	-8191	255	
6225.465	1	1	0	0	0.081675	0.17197	0.077803	0.15793	0.11316	0.25267	0.12539	0.16393	0.048804	0.056742	0.16745	0.10819	0.029639	0.066609	0.25535	0.24991	-2.5187	-3.3563	-2.6521	-3.0771	-3.1208	-2.7833	-3.2208	-2.975	-2.9792	-3.3771	-3.0729	-3.1708	-3.2083	-2.7333	-3.3542	-2.9792	111.820	-114.655	-108.301	-148.448	48.961	76.912	-72.419	73.940	139.741	-20.591	-18.769	6.729	-90.893	54.833	139.520	97.017	0.00054145	0.00050386	0.00019162	224.95	9.8361e-06	5.8134e-06	245.01	61.664	5.4191e-06	6.5003e-06	85.559	30.262	18.862	8.1874	1.2116e-05	14.699	0.012958	0.024389	0.0067351	272.38	0.00022599	0.00026751	289.57	76.741	0.00021648	0.00026438	110.84	38.15	26.139	10.93	0.00022928	18.538	107.261	109.168	134.132	-141.549	180.055	-99.475	-143.238	-137.520	-85.953	108.616	-139.718	-135.817	-134.106	-129.775	-63.574	-133.620	-8191	255	
6225.584	1	1	0	0	0.21576	0.099232	0.20911	0.07265	0.13515	0.13402	0.097434	0.34	0.18685	0.074358	0.081472	0.25354	0.25592	0.16574	0.25634	0.043086	-2.6188	-3.2625	-2.9208	-3.1521	-3.2188	-2.6875	-3.2625	-2.9938	-2.9042	-3.375	-2.825	-2.9458	-3.0604	-2.8354	-3.1063	-3.0938	98.918	162.064	-146.643	117.522	141.688	100.744	90.909	-94.857	82.496	17.356	155.971	-14.379	98.681	50.371	-37.769	-69.818	0.00023172	0.00021322	0.00022668	228.81	8.6198e-06	8.6392e-06	249.6	62.698	8.617e-06	1.1924e-05	84.773	30.077	18.441	8.1496	5.7637e-06	14.507	0.012439	0.023297	0.0065947	274.51	0.00022387	0.0002629	290.82	77.564	0.00021879	0.00026565	110.72	38.066	25.931	10.887	0.00023091	18.429	99.143	121.861	-71.144	-141.603	19.643	25.215	-143.256	-137.582	-77.796	21.340	-139.758	-137.082	-134.381	-129.915	-6.452	-133.473	-8191	255	
6225.680	1	1	0	0	0.12951	0.133	0.055099	0.15291	0.23791	0.13567	0.17275	0.024309	0.32479	0.13275	0.28428	0.34364	0.017097	0.1087	0.032472	0.092038	-2.3958	-3.2042	-2.9021	-2.8875	-3.2417	-3.0146	-3.1688	-3.1875	-2.7625	-3.4854	-2.9833	-3.0458	-2.9646	-2.9729	-3.1375	-3.0896	131.662	-89.818	158.999	-43.161	151.920	89.638	-51.543	-28.548	58.122	182.924	39.198	-78.836	-118.411	88.882	-34.437	15.823	0.00038317	0.00021047	0.00033353	229.71	9.451e-06	1.0653e-05	248.8	62.125	5.7675e-06	6.2929e-06	85.415	29.84	18.426	8.1488	3.3207e-06	14.57	0.012531	0.023193	0.0065053	273.83	0.00022324	0.00026364	289.11	77.077	0.0002182	0.00026096	110.11	37.754	25.828	10.853	0.00022783	18.285	66.615	4.363	-104.084	-141.463	33.578	48.604	-143.352	-137.472	16.189	16.314	-139.354	-136.407	-134.725	-129.748	111.951	-133.088	-8191	255	
6225.777	1	1	0	0	0.021954	0.10311	0.21372	0.26374	0.04386	0.2314	0.11613	0.12968	0.013102	0.081746	0.13727	0.10018	0.099129	0.083884	0.10248	0.16759	-2.4167	-3.1729	-2.9271	-2.9562	-3.3229	-3.0479	-3.175	-3.1417	-2.9188	-3.1917	-3.0771	-2.8542	-3.225	-2.8042	-3.1312	-3.1604	87.052	44.904	170.345	-88.501	-149.543	-145.662	-44.328	23.465	-28.979	68.535	166.050	130.270	35.448	144.571	-149.096	61.390	0.00025529	0.0013212	0.00015158	225.48	1.5185e-05	8.9717e-06	248.43	62.142	1.7145e-05	1.0894e-05	85.005	29.417	18.297	8.07	1.3893e-05	14.617	0.012177	0.022642	0.0064262	271.27	0.00021441	0.00025475	288.43	76.673	0.0002119	0.00025762	109.73	37.528	25.65	10.806	0.0002282	18.304	75.006	-99.269	-57.176	-141.969	-77.008	66.137	-143.162	-137.292	-97.910	4.476	-139.375	-136.740	-135.182	-129.431	50.048	-133.472	-8191	255	
6225.873	1	1	0	0	0.035027	0.038221	0.35822	0.03714	0.1833	0.29139	0.035266	0.12756	0.088028	0.17548	0.21597	0.13115	0.32283	0.16299	0.056437	0.11161	-2.5708	-3.2729	-3.0583	-2.8333	-3.25	-2.9708	-3.2083	-3.3542	-2.7938	-3.1854	-3.1667	-2.8812	-3.2812	-2.9583	-2.9479	-3.2687	106.386	-27.832	146.390	18.244	68.237	-21.673	-9.845	155.697	59.840	-19.527	3.159	-21.971	-122.402	-136.103	83.694	-30.517	0.00044013	0.00072904	9.8586e-05	225.95	8.8825e-06	9.3693e-06	246.94	61.59	1.2016e-05	3.5924e-06	85.454	30.155	18.372	8.2337	8.0319e-06	14.64	0.012213	0.022705	0.0065142	272.23	0.00021653	0.00025803	288.26	76.541	0.0002113	0.0002553	110.17	37.859	25.713	10.89	0.00022773	18.34	99.899	111.060	-6.307	-141.799	49.757	72.698	-143.393	-137.334	-123.496	152.221	-139.512	-136.355	-134.144	-130.532	-6.632	-133.495	-8191	255	
6225.969	1	1	0	0	0.16945	0.267	0.073411	0.15805	0.14869	0.04266	0.35598	0.21556	0.19361	0.11792	0.18197	0.26567	0.086813	0.032978	0.062833	0.15345	-2.4896	-3.225	-2.9604	-2.7833	-3.3812	-3.1479	-3.0479	-3.2667	-3.0604	-3.0771	-3.1813	-2.8312	-3.1583	-3.0563	-2.9521	-3.3479	184.332	98.496	-133.258	17.241	-106.915	188.656	123.905	150.928	163.823	-123.906	-104.153	-34.006	-43.644	48.332	174.933	-103.420	0.00010736	0.00053888	0.00017068	227	1.1362e-05	5.9349e-06	246.82	62.193	2.1955e-05	5.9426e-06	85.54	29.418	18.487	8.115	4.2219e-06	14.541	0.01225	0.022599	0.0064838	271.77	0.00021408	0.00025872	288.58	76.604	0.00021118	0.00025778	110.31	37.8	25.65	10.854	0.00022915	18.335	96.427	-118.419	-40.655	-141.902	166.009	-45.436	-142.965	-137.452	63.887	131.946	-139.343	-136.984	-134.328	-129.432	58.811	-133.078	-8191	255	
6226.065	1	1	0	0	0.23154	0.10957	0.081338	0.22812	0.048762	0.15817	0.13728	0.16358	0.033185	0.21519	0.11935	0.030782	0.20617	0.14985	0.19422	0.19516	-2.3271	-3.0354	-3.0646	-2.7583	-3.2583	-3.0917	-2.775	-3.0375	-2.9771	-2.9104	-3.0917	-2.7479	-3.1271	-3.1646	-2.9729	-3.1437	2.783	-92.164	-133.959	178.015	-20.954	-128.911	-33.135	-99.656	-74.649	-102.597	44.602	98.550	147.569	139.402	-126.915	102.579	0.0004146	0.00086123	4.548e-05	228.14	6.013e-06	4.9877e-06	246.68	61.72	4.0053e-06	7.6126e-06	84.083	28.991	18.318	8.1055	1.0119e-05	14.324	0.01218	0.022669	0.0065485	271.74	0.00021097	0.00025516	286.67	76.198	0.00020801	0.00025519	109.19	37.301	25.362	10.796	0.00022817	18.094	20.422	-78.688	-104.924	-141.781	132.150	119.793	-143.402	-137.861	5.503	-58.415	-139.824	-136.721	-135.306	-130.644	-32.583	-133.240	-8191	255	
6226.161	1	1	0	0	0.12971	0.31834	0.42339	0.064332	0.20256	0.080759	0.10585	0.23397	0.16256	0.22307	0.086108	0.19868	0.21406	0.081909	0.019203	0.19969	-2.4604	-2.9521	-3.0771	-2.7792	-3.1708	-3.2313	-2.9083	-3.275	-2.7583	-2.9521	-3.2938	-2.8375	-3.0646	-3.0979	-3.05	-3.3104	-30.160	73.790	-26.449	-76.266	-141.657	5.301	16.136	198.339	107.160	-7.335	119.323	148.606	124.200	81.846	85.863	164.267	0.0002727	0.00069003	0.00024446	226.8	1.3146e-05	7.6173e-06	242.36	61.633	1.1435e-05	6.5285e-06	83.799	29.351	18.038	8.0829	8.7326e-06	14.271	0.012036	0.022318	0.006376	270.17	0.00020881	0.00025743	284.73	75.613	0.00020803	0.00025545	108.54	37.236	25.281	10.752	0.00022353	17.951	97.172	175.294	-69.305	-142.026	81.237	-30.904	-142.917	-137.400	-112.728	122.657	-139.751	-136.666	-134.685	-130.084	36.530	-133.191	-8191	255	
6226.282	1	1	0	0	0.087345	0.19045	0.10982	0.17595	0.22524	0.072461	0.16706	0.13646	0.089119	0.20509	0.16889	0.11927	0.1717	0.20069	0.053712	0.19435	-2.5646	-2.8312	-3.2458	-2.9833	-3.1458	-3.0875	-2.7583	-3.2833	-3.0583	-2.925	-3.1708	-2.8812	-2.9729	-3.2229	-2.9458	-3.4813	48.154	-35.869	97.385	-101.334	71.849	-41.078	114.084	-53.362	176.865	-34.072	-144.651	82.150	131.180	116.730	-41.298	-135.313	0.00025493	0.00086629	0.00023387	227.12	5.4385e-06	1.0717e-05	244.56	62.291	1.4998e-05	4.7383e-06	85.349	29.768	18.247	8.1016	4.4775e-06	14.433	0.012015	0.022508	0.0063767	270.76	0.00021048	0.00025668	286.46	76.128	0.00020855	0.00025497	109.12	37.475	25.366	10.808	0.00022477	18.142	117.566	124.364	-0.894	-142.034	-17.832	-48.321	-143.333	-137.504	-20.351	-69.066	-139.393	-136.966	-133.921	-130.153	-110.376	-133.144	-8191	255	
6226.378	1	1	0	0	0.019685	0.14484	0.14184	0.22076	0.15938	0.066685	0.10923	0.23366	0.084768	0.084432	0.16525	0.16034	0.10184	0.14334	0.12535	0.14785	-2.6646	-2.7854	-3.2188	-2.9167	-3.1396	-3.1875	-2.8063	-3.1979	-3.0604	-2.7833	-3.3854	-2.9875	-2.9667	-3.1917	-2.9771	-3.1083	36.032	115.853	27.840	84.544	160.320	-15.464	-42.331	27.813	109.211	-23.001	73.880	-84.323	174.109	-130.493	130.481	130.757	0.00037014	0.00058837	6.2489e-05	225.42	1.1002e-06	8.3864e-06	247.49	61.777	7.468e-06	1.2457e-05	84.978	29.285	18.19	8.0829	5.0849e-06	14.342	0.012119	0.022389	0.0063493	270.57	0.00021034	0.00025756	287.32	76.122	0.0002125	0.00025792	109.42	37.296	25.36	10.716	0.00022188	17.989	97.593	-116.998	96.472	-141.764	163.285	69.840	-143.027	-137.270	36.203	-12.933	-139.546	-136.426	-134.194	-129.577	-51.743	-133.782	-8191	255	
6226.474	1	1	0	0	0.081364	0.083904	0.06997	0.20509	0.027432	0.26744	0.25028	0.17497	0.29607	0.07847	0.04521	0.23084	0.21001	0.15997	0.082894	0.034816	-2.6937	-2.7646	-3.2167	-2.8063	-3.1625	-3.1458	-2.9771	-3.2792	-3.2083	-2.8812	-3.2188	-3.0146	-2.9833	-3.3646	-2.825	-3.0958	-101.710	5.530	-4.436	118.925	74.063	189.205	177.661	113.114	156.646	-148.728	172.391	172.864	167.539	-89.937	97.015	162.458	0.00040576	0.00016942	0.00024086	225.84	1.1768e-05	2.5312e-06	242.8	60.732	1.2403e-05	6.7497e-06	82.189	28.772	17.721	7.8509	7.0963e-06	14.05	0.011988	0.022317	0.0062032	268.89	0.00020904	0.00025399	283.7	75.065	0.00021076	0.00025802	107.15	36.804	25.1	10.585	0.00022559	17.8	71.971	-128.240	46.078	-141.906	30.826	173.389	-143.299	-137.589	-57.751	69.560	-139.691	-137.288	-134.078	-130.205	47.368	-133.727	-8191	255	
6226.569	1	1	0	0	0.10072	0.20361	0.15584	0.23827	0.26785	0.099656	0.22398	0.1493	0.282	0.14517	0.2135	0.41077	0.28826	0.09032	0.092754	0.20486	-2.8167	-2.6	-3.2458	-2.9917	-2.8625	-3.2938	-2.7396	-2.9625	-3.2313	-2.8396	-3.0729	-2.8833	-2.7979	-3.2375	-2.7125	-2.8833	87.991	-54.572	66.055	157.659	153.583	-107.908	191.916	129.060	-59.746	102.650	127.323	-117.215	-148.655	-77.070	194.360	147.056	0.00048243	0.0006327	0.00032715	221.93	9.0908e-06	1.2987e-05	240.55	60.047	2.5082e-06	5.1585e-06	83.089	28.727	17.525	7.7526	9.1871e-06	13.839	0.012272	0.022831	0.0063139	268.15	0.00021402	0.00025673	281.06	74.532	0.00021271	0.00025648	106.91	36.557	25.007	10.491	0.00022506	17.657	81.831	-93.074	-127.405	-141.881	-95.468	51.083	-142.975	-137.764	27.856	152.563	-139.104	-135.878	-133.955	-130.086	-64.303	-133.510	-8191	255	
6226.665	1	1	0	0	0.10155	0.11587	0.22539	0.12243	0.14093	0.090491	0.026416	0.14431	0.094193	0.10017	0.12028	0.078966	0.26674	0.16491	0.074616	0.19228	-2.8187	-2.8375	-3.0896	-3.1229	-2.875	-3.2875	-2.8979	-2.8958	-3.1646	-2.6458	-3.1833	-3.2521	-2.8646	-3.2875	-3.0312	-2.9521	104.800	-13.288	177.284	81.981	-45.838	-52.932	-106.108	-107.064	200.227	177.013	-61.027	52.701	75.826	-105.354	184.830	-105.279	0.00042731	0.00039331	9.7247e-05	222.68	3.7662e-07	8.0025e-06	243.32	60.239	4.771e-06	5.2668e-06	81.984	28.532	17.648	7.8544	2.3679e-06	13.826	0.012296	0.022606	0.0062959	267.99	0.00021434	0.00025428	282.59	74.782	0.00021253	0.000257	106.61	36.759	25.057	10.532	0.00022912	17.787	162.375	-80.948	-40.285	-141.721	113.103	69.266	-143.144	-137.855	2.021	66.569	-138.938	-136.736	-134.459	-129.952	-2.825	-133.225	-8191	255	
6226.761	1	1	0	0	0.17926	0.14274	0.11335	0.036575	0.23372	0.11947	0.21904	0.19632	0.23958	0.29857	0.19535	0.16475	0.28315	0.041832	0.17322	0.11535	-2.9271	-2.7583	-3.0104	-3.2896	-2.8375	-3.2146	-3.15	-2.8229	-3.3	-2.9333	-3.0062	-3.1604	-2.9	-3.3125	-2.9167	-2.9396	68.097	177.302	74.220	126.620	-91.164	34.616	69.958	116.274	-106.048	39.449	149.615	-129.462	-149.389	118.777	74.745	87.929	0.00042834	0.00039365	0.00012237	222.69	4.4753e-06	7.7802e-06	241.31	59.87	6.158e-06	3.2256e-06	82.79	28.468	17.808	7.7231	5.8896e-06	13.779	0.012363	0.022915	0.0064449	270.32	0.00021875	0.00025699	283.3	74.984	0.000216	0.00026409	107.48	37.001	25.196	10.525	0.00023495	17.801	115.413	3.810	-74.249	-142.023	-50.494	-115.921	-142.846	-137.057	-109.468	126.859	-139.984	-136.922	-134.425	-130.500	58.779	-133.151	-8191	255	
6226.882	1	1	0	0	0.20612	0.18701	0.034263	0.19096	0.14023	0.18921	0.22448	0.11962	0.28842	0.081531	0.096023	0.11654	0.17962	0.074754	0.10167	0.07578	-2.8396	-2.8479	-3.0479	-3.175	-2.8417	-3.3521	-3.0083	-2.9188	-3.4229	-2.9917	-2.975	-3.3354	-2.6958	-3.2104	-3.1021	-2.9062	123.953	157.205	-14.403	156.322	-7.805	-79.214	100.144	201.699	-123.549	192.628	-79.567	26.971	163.777	130.724	115.351	-111.801	0.0001834	0.00027854	0.00013272	222.28	3.6307e-06	5.5766e-06	240.3	59.808	1.0616e-05	9.3404e-06	81.106	27.943	17.437	7.7074	5.1408e-06	13.613	0.012471	0.023342	0.0065592	270.07	0.00021921	0.00025946	282.82	74.51	0.00021303	0.00026076	106.51	36.231	24.712	10.359	0.0002346	17.59	72.303	-145.632	188.006	-141.858	-115.741	52.082	-143.395	-137.192	167.426	30.642	-139.296	-135.984	-133.665	-129.854	25.006	-133.610	-8191	255	
6226.978	1	1	0	0	0.049245	0.22089	0.26812	0.16588	0.13809	0.30257	0.098049	0.086894	0.10898	0.21368	0.16843	0.032051	0.12194	0.085791	0.10531	0.18054	-2.8396	-2.9771	-3.0271	-2.9833	-2.7854	-3.2521	-2.9062	-2.9208	-3.1375	-2.9667	-2.8063	-3.1958	-2.8208	-3.1437	-3.0646	-2.825	-152.613	60.371	128.887	-109.285	-117.495	130.307	86.017	-142.760	165.385	-55.626	-19.456	200.494	-104.486	-137.938	-133.598	83.698	0.00032679	0.0010798	9.7634e-05	220.56	2.6706e-06	4.8632e-06	236.44	59.066	9.5203e-06	8.1848e-06	80.267	28.083	17.121	7.5767	7.1982e-06	13.476	0.0124	0.023184	0.0065488	268.01	0.00021807	0.00026098	281.87	74.398	0.00021639	0.00026575	106.06	36.168	24.64	10.322	0.00023559	17.478	169.795	-50.618	-89.623	-142.320	58.995	163.088	-143.084	-137.767	-93.546	46.780	-140.302	-136.201	-134.782	-130.144	-74.310	-133.424	-8191	255	
6227.074	1	1	0	0	0.11706	0.13192	0.073317	0.060289	0.26223	0.095887	0.050522	0.22022	0.11	0.037539	0.05134	0.016577	0.055681	0.12536	0.031643	0.078378	-2.7521	-2.8937	-2.9604	-3.2292	-2.9104	-3.0542	-3.1521	-2.8208	-3.1813	-2.9792	-2.8	-3.3771	-2.7479	-3.0458	-3.2708	-2.7729	149.716	192.108	-124.874	70.819	-91.349	-48.972	-106.696	-109.620	142.946	-132.363	-59.518	-56.566	154.557	89.588	-1.105	5.094	0.00026337	0.00065206	0.00019771	219.45	7.388e-06	1.0404e-05	238.26	59.644	7.7923e-06	3.4752e-06	82.586	28.239	17.449	7.7365	4.4329e-06	13.803	0.012318	0.023212	0.0066354	267.72	0.00021852	0.00026259	281.94	74.342	0.00021084	0.0002637	106.98	36.491	24.808	10.399	0.00023219	17.661	99.256	151.985	-40.021	-141.434	93.067	-87.123	-143.233	-137.657	-18.535	-32.293	-139.886	-136.095	-134.496	-129.838	-43.396	-133.362	-8191	255	
6227.170	1	1	0	0	0.12019	0.054453	0.11945	0.10423	0.11708	0.14147	0.2356	0.024807	0.15807	0.11382	0.1631	0.14387	0.22098	0.24423	0.12237	0.21155	-2.8438	-3.0812	-2.8812	-3.1458	-3	-3.1708	-3.2229	-2.775	-3.2375	-3.0271	-2.4896	-3.2354	-3.0667	-2.9979	-3.3833	-2.875	85.497	-74.946	-40.691	-40.039	6.993	-25.019	113.267	-14.998	113.406	19.365	110.433	-122.168	-150.329	-100.557	6.151	-91.203	0.00027796	0.00068029	6.8768e-05	223.77	9.078e-06	5.547e-06	240.82	59.613	1.3766e-05	4.2491e-06	82.167	28.256	17.577	7.7673	8.6101e-06	14.027	0.012184	0.023312	0.0065576	269.12	0.00021871	0.00026344	283.83	74.888	0.00021689	0.00027028	107.74	36.74	25.085	10.522	0.00023516	17.808	79.358	62.009	124.829	-141.757	-106.267	-1.038	-143.189	-137.159	199.688	-103.943	-139.883	-136.253	-133.942	-129.879	-90.590	-132.710	-8191	255	
6227.266	1	1	0	0	0.073958	0.10503	0.13651	0.34083	0.10872	0.044715	0.19042	0.13267	0.09218	0.056775	0.16118	0.15542	0.19058	0.31882	0.054632	0.090435	-2.6312	-3.1562	-2.7979	-3.2562	-3.1125	-2.8479	-3.1583	-2.75	-3.2438	-3.2687	-2.7042	-3.1792	-2.9875	-2.8583	-3.3167	-2.9375	148.914	23.285	1.825	186.321	88.082	-98.381	85.571	153.202	165.791	102.820	-101.047	2.687	59.810	85.542	82.235	59.105	0.00045085	0.00080697	2.4807e-05	223.15	1.2546e-05	6.5583e-06	238.76	60.598	9.4002e-06	1.0196e-05	82.842	28.297	17.872	7.815	8.5872e-06	13.857	0.012189	0.023507	0.0065782	269.05	0.00021703	0.0002622	284.07	75.083	0.00021318	0.00026432	107.67	36.563	25.126	10.564	0.00023239	17.758	116.380	-99.549	-98.821	-141.934	-41.515	-36.221	-143.510	-136.887	-115.418	25.468	-139.553	-136.790	-134.646	-130.125	-41.263	-132.939	-8191	255	
6227.362	1	1	0	0	0.11246	0.2012	0.13694	0.023463	0.07609	0.47679	0.094203	0.11069	0.11969	0.27149	0.16612	0.18328	0.076377	0.14007	0.080738	0.29445	-2.4396	-3.1354	-2.7708	-3.175	-2.9604	-2.8417	-3.2458	-2.8708	-2.8771	-3.3021	-2.9208	-3.1229	-3.0062	-2.75	-3.1896	-2.8667	73.970	20.250	-28.543	84.251	170.387	132.253	203.867	-47.642	-0.349	-107.816	-142.006	2.347	71.461	126.263	176.173	-98.787	0.0004374	0.00062563	0.0001909	223.82	8.8811e-06	1.0599e-05	239.9	59.849	7.957e-06	1.2899e-05	80.821	27.691	17.36	7.5232	9.3839e-06	13.723	0.012365	0.023646	0.0066139	269.08	0.00022192	0.0002655	283.37	74.889	0.00021793	0.00027534	106.86	36.399	25.126	10.46	0.00023822	17.683	104.180	31.689	39.096	-141.423	0.389	15.155	-142.727	-137.632	65.283	-75.198	-139.444	-136.740	-134.433	-130.130	71.824	-133.364	-8191	255	
6227.458	1	1	0	0	0.25961	0.1757	0.15877	0.053054	0.21164	0.052087	0.054478	0.28077	0.2112	0.37139	0.17217	0.14876	0.11077	0.17422	0.069598	0.39969	-2.625	-3.2896	-2.9417	-3.2646	-3.2479	-2.9938	-3.3812	-2.9354	-2.875	-3.3542	-2.9896	-3.2917	-3.2438	-2.7438	-3.4188	-3.0917	131.881	-113.096	161.893	177.542	-109.593	-53.326	110.032	189.983	59.861	-128.951	-91.302	155.550	18.071	-56.162	-106.547	78.501	0.00017322	0.00066822	0.0001734	221.89	6.621e-06	5.9773e-06	241.06	59.578	7.9466e-06	1.037e-05	82.593	28.592	17.339	7.83	7.0426e-06	13.992	0.012692	0.024101	0.0067046	269.05	0.00022281	0.000271	283.23	74.894	0.00021947	0.0002729	107.69	36.653	25.173	10.593	0.00023587	17.966	46.239	179.929	96.534	-142.089	-21.098	-79.502	-142.924	-137.268	-103.446	-130.336	-140.341	-135.904	-134.027	-130.238	181.198	-132.939	-8191	255	
6227.555	1	1	0	0	0.30376	0.29189	0.21585	0.24832	0.19306	0.35306	0.15689	0.23092	0.22793	0.20856	0.13769	0.10369	0.046148	0.16847	0.10865	0.15387	-2.5833	-3.1396	-2.7208	-3.0396	-3.2083	-2.9062	-3.3042	-3	-2.8937	-3.2042	-2.9	-3.0021	-3.2812	-2.7958	-3.2208	-3.1917	-106.694	139.058	117.696	142.198	15.118	-131.265	147.821	-120.250	-60.913	-28.552	-51.429	191.785	-115.123	82.208	-153.636	-138.739	0.00061397	0.0013237	0.00019643	221.45	1.2579e-05	8.0508e-06	242.66	59.975	1.6817e-05	5.9389e-06	82.203	28.412	17.644	7.7217	1.2247e-05	14.171	0.012885	0.024134	0.0067502	270.03	0.000229	0.00027429	284.61	75.693	0.00022441	0.000276	108.74	37.317	25.55	10.696	0.00023823	18.276	91.353	-129.686	-40.717	-141.551	-126.642	-42.407	-143.151	-137.314	-68.603	-14.666	-139.346	-136.063	-134.020	-130.175	-72.116	-133.467	-8191	255	
6227.673	1	1	0	0	0.08687	0.18886	0.187	0.21562	0.14195	0.09306	0.094484	0.28549	0.13171	0.20721	0.082859	0.32078	0.29197	0.1498	0.13601	0.23207	-2.3729	-2.9729	-2.7375	-2.9604	-3.3187	-2.8896	-3.2854	-3.1167	-2.8771	-3.3354	-2.9562	-2.9479	-3.2562	-2.7438	-3.2458	-3.0438	147.274	178.088	-51.347	160.210	45.453	-132.141	-105.252	-129.963	12.688	-122.858	-153.484	129.959	152.854	-114.311	197.123	141.794	0.00041675	0.00068485	0.00013346	224.02	3.8733e-06	4.174e-06	241.51	59.781	5.8063e-06	1.2446e-05	83.495	28.954	17.808	7.9148	8.2318e-06	14.136	0.01317	0.024429	0.0068503	272.95	0.00023224	0.00027591	286.08	76.291	0.00022515	0.00027241	109.63	37.437	25.681	10.763	0.00023908	18.22	114.039	37.207	-134.626	-142.242	182.868	167.029	-143.027	-137.122	-93.830	35.461	-139.146	-136.372	-134.131	-130.149	-137.068	-133.358	-8191	255	
6227.770	1	1	0	0	0.21832	0.15336	0.23438	0.14991	0.15493	0.072211	0.14182	0.032365	0.2439	0.056249	0.097016	0.1755	0.14137	0.30319	0.16229	0.070106	-2.3083	-3.2062	-2.975	-2.7167	-3.2083	-2.9625	-3.2	-3.0687	-2.7375	-3.1083	-3.1729	-2.8583	-3.3937	-2.825	-3.0979	-3.1417	-112.791	-22.468	52.017	81.104	139.913	189.128	130.334	58.832	-122.934	-124.907	-29.659	97.257	-90.886	40.303	76.904	164.545	0.00046458	0.00050079	0.00016767	224.32	5.4731e-06	5.6935e-06	240.31	60.474	1.0959e-05	7.3172e-06	82.918	29.053	17.962	7.857	3.2807e-06	14.187	0.012934	0.023745	0.0067037	273.35	0.00022858	0.00027086	286.66	76.533	0.00022583	0.00027178	109.64	37.582	25.637	10.705	0.00023881	18.213	83.435	-108.543	51.427	-142.141	-119.475	71.535	-143.409	-137.218	-31.312	-144.145	-139.955	-135.540	-133.699	-129.682	-140.883	-133.401	-8191	255	
6227.843	1	1	0	0	0.26054	0.098666	0.095976	0.15295	0.10932	0.28422	0.18932	0.14006	0.13818	0.21053	0.077165	0.16735	0.093552	0.19062	0.057976	0.13349	-2.2771	-3.1854	-2.9646	-2.8125	-3.3854	-2.9417	-3.175	-3.1417	-2.8167	-3.1437	-2.9938	-2.9042	-3.2292	-2.9292	-2.8229	-3.2646	112.685	-60.025	173.537	-104.822	6.764	79.855	172.482	188.900	106.077	156.815	201.892	176.561	-65.762	-108.952	-0.003	107.654	0.00023966	0.00011305	0.00011187	224.16	8.9228e-06	8.8857e-06	240.61	59.919	3.5747e-06	8.1869e-06	82.884	28.878	17.682	7.8855	3.1406e-06	14.03	0.012875	0.023749	0.0068561	272.18	0.00022667	0.00027062	285.91	76.13	0.00022212	0.00027009	109.61	37.451	25.529	10.735	0.00023855	18.229	120.086	167.325	126.233	-142.096	199.665	151.797	-143.055	-138.154	-128.554	-112.656	-139.882	-136.727	-134.480	-130.244	105.439	-132.547	-8191	255	
6227.962	1	1	0	0	0.1448	0.043213	0.12297	0.15847	0.17183	0.061076	0.16182	0.26537	0.18819	0.02478	0.21265	0.069767	0.20393	0.095449	0.29098	0.22119	-2.2792	-3.0521	-3.1167	-2.7667	-3.2458	-2.9417	-2.8937	-3.2208	-2.7458	-3.175	-3.2708	-2.5854	-3.175	-3.0812	-3.1229	-3.3021	-53.820	133.501	-111.001	-43.041	188.519	74.938	135.168	179.483	193.737	135.674	3.055	86.165	99.205	-97.485	-143.926	120.475	0.00039703	0.00017324	7.6714e-05	224.33	6.2131e-06	4.02e-06	241.38	60.656	1.2125e-05	3.4867e-06	83.413	28.939	18.071	7.874	1.0979e-05	14.163	0.012962	0.024067	0.0069062	273.02	0.0002281	0.00027488	287.26	76.49	0.00022313	0.00027237	110.28	37.633	25.717	10.804	0.00024152	18.284	132.203	-153.484	59.537	-142.334	81.963	175.196	-143.156	-137.279	58.750	-16.427	-140.128	-136.991	-134.735	-130.317	-90.141	-132.673	-8191	255	
6228.058	1	1	0	0	0.10523	0.31256	0.086589	0.11349	0.13988	0.20255	0.29207	0.25568	0.092693	0.14263	0.046275	0.34555	0.23001	0.1195	0.20212	0.24137	-2.4708	-3.1542	-3.0604	-2.8083	-3.2021	-3.0812	-2.9437	-3.35	-2.9667	-3.2083	-3.1896	-2.8604	-3.3896	-3.0771	-2.8604	-3.4083	-34.256	-155.433	-89.273	157.727	112.751	59.436	145.452	22.952	86.182	-109.852	-99.642	56.118	130.760	12.345	-89.421	160.511	0.00032101	0.00055841	0.00014328	226.45	4.3828e-06	1.1116e-05	244.23	60.821	1.9297e-06	8.554e-06	82.768	28.951	17.618	7.8376	1.1785e-05	14.176	0.012832	0.023866	0.0068525	274.54	0.00022321	0.00027144	288.14	76.502	0.00022175	0.00027047	110.26	37.371	25.523	10.71	0.00023981	18.143	114.743	119.035	153.078	-142.223	-75.221	-125.219	-143.585	-138.042	-115.432	111.853	-140.024	-136.268	-135.078	-130.082	25.204	-133.468	-8191	255	
6228.154	1	1	0	0	0.13629	0.059582	0.068649	0.12246	0.043874	0.22681	0.082022	0.079464	0.14094	0.2794	0.11952	0.24778	0.096561	0.19256	0.060669	0.24194	-2.3896	-3.1312	-3.3292	-2.9271	-3.2917	-3.1813	-2.95	-3.3312	-2.7854	-3.0187	-3.2833	-2.8917	-3.225	-3.1896	-2.8833	-3.2812	-105.801	-56.656	-50.553	134.273	-20.657	90.118	161.173	-154.614	68.102	-12.154	14.388	122.309	187.874	-11.718	-107.597	-148.879	0.00048483	0.00026629	0.00013029	223.44	2.2684e-06	3.4469e-06	242.51	60.123	1.7362e-05	1.2789e-05	82.284	28.578	17.935	7.8463	7.7472e-06	14.023	0.012713	0.023608	0.0067651	271.99	0.00021952	0.00026882	286.66	75.754	0.00021816	0.00026522	108.78	36.977	25.169	10.62	0.00023526	17.958	100.730	-31.830	-68.029	-142.177	-136.926	48.576	-142.668	-137.596	-132.850	100.653	-140.133	-136.853	-134.019	-130.324	86.989	-133.920	-8191	255	
6228.275	1	1	0	0	0.27614	0.23594	0.014727	0.036612	0.031149	0.28446	0.23822	0.13167	0.16017	0.12133	0.13306	0.069407	0.24771	0.12521	0.062517	0.03274	-2.575	-2.9688	-3.2562	-2.7792	-3.3979	-3.1813	-2.9	-3.3187	-3.1521	-2.9688	-3.1729	-2.8354	-3.1958	-3.1937	-2.9688	-3.1292	33.918	33.006	-56.146	148.020	-112.817	124.853	-116.868	118.194	110.242	60.105	152.041	-4.658	201.898	168.182	185.836	38.320	0.00024946	0.00032238	6.5968e-05	224.87	3.4398e-06	7.2766e-06	243.09	61.046	1.4249e-05	4.1019e-06	82.85	28.924	17.84	7.8613	4.6944e-06	14.099	0.012542	0.023652	0.0067061	272.51	0.00021942	0.00027056	285.95	75.862	0.00021952	0.00026943	109.05	37.186	25.354	10.74	0.0002355	18.075	123.175	-64.886	190.685	-141.634	167.479	-112.264	-143.022	-137.855	-30.371	-18.849	-139.789	-137.008	-134.762	-129.882	-64.914	-133.445	-8191	255	
6228.369	1	1	0	0	0.060466	0.073353	0.18392	0.18218	0.15784	0.05092	0.12324	0.21787	0.15304	0.27056	0.23045	0.14387	0.1232	0.089041	0.11422	0.097548	-2.5542	-2.8583	-3.05	-2.9167	-3.2521	-3.3958	-2.8375	-3.3625	-3.0125	-3.0125	-3.2521	-2.8042	-3.1479	-3.2438	-3.0042	-3.2021	-53.743	183.322	-15.923	108.276	-114.075	-121.364	171.975	152.277	99.811	-9.045	-53.416	149.127	-71.745	114.385	143.146	64.052	0.00043373	0.00035565	0.00028931	225.81	6.5238e-06	7.0245e-06	241.71	60.823	8.5746e-06	6.9472e-06	84.236	29.155	17.895	7.981	9.5077e-06	14.226	0.012828	0.023736	0.0067226	271.28	0.00022018	0.00027076	286.2	75.869	0.00022101	0.00027046	109.63	37.446	25.53	10.803	0.00023859	18.227	77.653	-94.287	98.422	-142.152	-143.298	-128.157	-143.275	-137.780	-74.136	171.236	-140.041	-136.232	-134.678	-130.528	54.976	-133.145	-8191	255	
6228.443	1	1	0	0	0.086424	0.20882	0.068351	0.2407	0.012949	0.1116	0.28171	0.10114	0.21181	0.22846	0.31305	0.17792	0.14442	0.094463	0.18842	0.15003	-2.6646	-3.0062	-3.2313	-3.0458	-3.1688	-3.1875	-2.6958	-3.0146	-3.1708	-2.9562	-3.2125	-2.9938	-3.0333	-3.2229	-2.9083	-3.1937	90.027	127.449	10.440	89.041	-155.149	-113.865	-116.028	196.965	42.480	6.303	-135.095	188.185	163.740	5.355	181.522	98.536	0.0001066	0.00059086	0.00028065	224.55	3.1607e-06	5.8178e-06	242.73	60.951	1.465e-05	5.0767e-06	83.693	29.197	18.031	7.8183	6.3462e-06	14.153	0.012862	0.024017	0.0067301	273.49	0.00022713	0.0002768	288.16	76.43	0.00022607	0.00027498	109.77	37.697	25.732	10.81	0.00023915	18.246	-90.924	105.471	-27.271	-141.971	27.315	-14.832	-143.279	-137.569	-84.764	128.262	-139.413	-136.520	-134.116	-130.264	109.714	-133.887	-8191	255	
6228.563	1	1	0	0	0.12422	0.14529	0.11206	0.29922	0.15822	0.10521	0.24229	0.21731	0.15284	0.071281	0.12801	0.12652	0.14773	0.15424	0.20853	0.21349	-2.9479	-2.8042	-3.2562	-3.1208	-3.0833	-3.2875	-2.9167	-3.2521	-3.1917	-2.9396	-3.275	-2.9167	-2.9813	-3.2729	-2.8812	-3.0104	127.291	-110.813	-30.518	-58.392	-124.871	-118.596	181.258	83.532	-131.986	187.264	81.290	-87.766	-61.272	27.449	-28.130	86.044	0.00032325	0.00031257	0.0003194	225.68	9.966e-07	7.4368e-06	242	59.686	1.1867e-05	4.6203e-06	83.215	28.798	18.07	7.851	1.4733e-05	14.172	0.013003	0.023992	0.0066703	273.45	0.00022526	0.00027141	287.13	76.064	0.00022423	0.00027225	109.3	37.554	25.725	10.758	0.00024025	18.203	131.375	7.320	-93.502	-142.359	-143.168	-36.604	-143.159	-137.833	193.354	88.864	-139.615	-136.827	-134.572	-129.924	36.425	-133.465	-8191	255	
6228.658	1	1	0	0	0.089581	0.20855	0.27874	0.1597	0.15103	0.24065	0.083897	0.16511	0.20765	0.17698	0.32188	0.041199	0.21622	0.10139	0.022932	0.28462	-2.8375	-2.9417	-3.0875	-3.0896	-3.1604	-3.4458	-3.0396	-3.0979	-3.2896	-3.1021	-3.3458	-3.0771	-2.7438	-3.2229	-3.0687	-3.0271	79.521	109.828	167.504	-52.540	175.261	149.844	137.998	-142.771	15.996	63.087	180.154	181.887	-141.595	163.113	-123.772	186.726	0.00045186	0.0002694	0.00043229	224.61	9.1573e-06	4.2035e-06	242.21	60.737	1.1149e-05	9.7888e-06	83.491	28.998	17.807	7.9411	1.1319e-06	14.264	0.012987	0.023951	0.0066076	273.83	0.00022441	0.000268	285.79	76.222	0.00022192	0.00026971	109.12	37.678	25.664	10.759	0.00023736	18.295	78.211	42.351	-6.600	-142.004	-65.307	-73.740	-142.744	-137.248	6.107	147.601	-139.610	-136.261	-134.854	-130.602	-153.524	-133.215	-8191	255	
6228.754	1	1	0	0	0.10938	0.18638	0.10693	0.11292	0.11178	0.20372	0.11057	0.20087	0.27219	0.24699	0.062061	0.11962	0.31734	0.15687	0.21118	0.17384	-2.8	-2.7313	-3.15	-3.2646	-2.8583	-3.2917	-2.9792	-2.8458	-3.175	-2.9542	-3.2021	-3.0729	-2.7562	-3.1729	-2.7396	-3.0396	-60.408	5.024	87.387	57.260	40.295	-69.282	-70.239	52.113	197.537	-2.669	194.060	136.037	156.425	46.313	-100.322	-66.419	0.0003233	0.0010893	9.5731e-05	222.95	1.8007e-05	2.874e-07	242.25	61.227	7.105e-06	7.3475e-06	84.088	29.232	18.001	7.879	1.0111e-05	14.505	0.012869	0.02366	0.0066435	273.5	0.0002246	0.00026769	287.78	76.806	0.00022264	0.00027143	109.81	37.848	25.871	10.841	0.00024199	18.508	101.148	163.124	43.573	-142.391	46.657	-89.529	-143.525	-136.915	63.712	0.707	-140.386	-135.975	-134.809	-130.225	-21.616	-133.373	-8191	255	
6228.850	1	1	0	0	0.091035	0.14157	0.26476	0.098217	0.18301	0.15466	0.3255	0.16818	0.16798	0.22606	0.20173	0.33133	0.27241	0.13251	0.07518	0.075507	-2.8771	-2.9458	-2.9646	-3.1667	-2.7604	-3.2917	-3.1479	-2.8708	-3.1833	-3.1979	-3.1792	-3.3812	-2.8021	-3.1583	-3.0125	-2.9375	-118.435	-21.046	-58.842	-87.880	104.037	43.228	126.982	-1.394	128.595	39.252	-21.442	-143.738	-123.512	80.019	-134.119	195.800	0.00021797	0.00050994	0.00027224	223.79	1.7898e-05	6.6467e-06	243.49	61.223	1.188e-05	1.414e-05	82.846	29.16	17.979	7.8571	2.6172e-06	14.267	0.01308	0.024296	0.006773	275.28	0.00023097	0.00027225	290.14	77.286	0.00022809	0.00027947	111.05	38.241	26.155	10.845	0.00024954	18.524	82.951	112.628	6.393	-141.670	24.370	-5.376	-143.295	-137.255	118.624	-122.105	-139.418	-136.305	-134.361	-130.373	-128.378	-133.394	-8191	255	
6228.971	1	1	0	0	0.27525	0.16098	0.1123	0.018989	0.052799	0.10259	0.29138	0.23691	0.098094	0.17198	0.045541	0.10444	0.20177	0.17368	0.1048	0.10601	-2.9708	-2.8937	-3.0646	-3.3479	-2.8854	-3.2271	-3.3	-2.8604	-3.2833	-3.0167	-3.1083	-3.3521	-2.6458	-3.1063	-3.1333	-2.925	-4.290	126.709	140.771	-116.657	-93.138	80.196	141.839	-80.680	202.958	49.117	149.265	39.509	111.942	-51.611	-11.101	16.128	0.00048645	0.0001092	8.7249e-05	225.3	5.0334e-06	3.6644e-06	243.66	61.58	1.2113e-05	2.2462e-06	83.722	28.67	18.012	7.862	4.1346e-06	14.292	0.013255	0.024628	0.0069355	276.39	0.00023257	0.00027653	290.36	77.467	0.00022859	0.00028072	110.7	37.8	25.846	10.843	0.00024828	18.447	114.851	72.229	97.046	-141.981	-85.066	109.464	-143.372	-137.337	-37.893	-97.495	-140.147	-136.633	-134.539	-130.846	38.647	-133.734	-8191	255	
6229.067	1	1	0	0	0.14399	0.093922	0.29715	0.2415	0.038084	0.2123	0.012021	0.17659	0.11552	0.242	0.17718	0.14747	0.25795	0.13418	0.12021	0.18091	-2.9396	-2.9458	-2.9646	-3.4083	-2.9271	-3.2021	-2.9417	-2.8458	-3.1292	-3.1229	-2.9333	-3.3812	-2.9604	-3.0479	-3.2583	-2.8167	140.410	-24.329	65.262	125.854	194.848	51.125	113.497	-154.062	-119.831	-70.751	78.240	190.408	-85.495	-124.207	181.399	62.271	0.0004208	0.0011396	0.00013228	225.73	5.0551e-06	5.9652e-06	242.35	61.238	1.2673e-05	6.9631e-06	83.178	29.081	17.708	7.8757	1.4565e-05	14.261	0.012881	0.024429	0.0068912	274.98	0.00023155	0.00027545	289.63	77.001	0.00022716	0.00027877	110.98	37.746	25.717	10.827	0.00024692	18.404	126.362	106.119	-125.673	-141.977	163.688	-102.129	-143.179	-137.784	-33.576	33.461	-138.923	-136.442	-134.215	-130.042	-43.043	-133.025	-8191	255	
6229.138	1	1	0	0	0.14667	0.093305	0.25841	0.14071	0.29152	0.16692	0.023111	0.085687	0.27113	0.28406	0.10198	0.0177	0.15836	0.17543	0.26976	0.14058	-2.9562	-3.0333	-2.7708	-3.4354	-2.9	-3.2792	-3.0292	-2.9896	-3.2521	-3.2146	-2.9562	-3.2875	-2.9437	-2.9188	-3.2646	-2.8	79.587	32.351	131.571	125.790	21.056	-15.090	94.466	50.442	-46.229	-111.603	123.494	-126.257	117.675	-97.123	-78.013	98.432	0.00053115	0.0008143	0.00028442	224.96	1.0207e-06	5.121e-06	244.17	60.236	1.1374e-05	3.6952e-06	83.741	29.135	17.682	7.9176	8.7461e-06	14.335	0.013061	0.024538	0.0069726	275.26	0.00023044	0.00027775	289.51	76.799	0.00022577	0.00028483	111.06	37.929	25.822	10.857	0.00024699	18.435	73.448	112.781	93.503	-141.911	16.001	-13.804	-143.428	-137.574	46.263	-27.972	-139.617	-136.426	-134.526	-130.497	-144.273	-133.707	-8191	255	
6229.235	1	1	0	0	0.24568	0.18258	0.070852	0.18409	0.09462	0.40871	0.17255	0.10036	0.11082	0.12964	0.30153	0.13618	0.22563	0.25263	0.17418	0.36981	-2.7917	-2.9583	-2.6417	-3.3458	-2.8854	-2.8937	-3.2917	-2.8937	-3.0833	-3.1708	-2.8146	-3.1458	-3.0104	-3.1833	-3.3917	-3.0146	-117.613	58.116	159.255	201.347	112.190	-128.534	81.737	6.644	67.847	156.488	78.583	99.717	1.948	-79.735	-151.430	120.206	0.00020034	0.0010804	0.00023944	227.8	2.8837e-06	1.2455e-05	242.75	60.544	9.1131e-06	1.1877e-05	82.943	29.671	17.936	7.9695	3.4767e-06	14.413	0.013105	0.024974	0.0070055	275.6	0.00023503	0.00028138	290.62	76.997	0.00022852	0.0002856	111.34	38.148	25.989	10.896	0.00024844	18.493	75.992	141.209	195.122	-142.115	24.678	99.591	-143.037	-137.888	-34.083	-54.475	-139.755	-136.656	-134.634	-129.630	14.965	-133.531	-8191	255	
6229.355	1	1	0	0	0.19747	0.19265	0.20016	0.25443	0.14312	0.21001	0.080364	0.10539	0.030231	0.14163	0.21974	0.1771	0.24044	0.082188	0.10281	0.20524	-2.6958	-3.2042	-2.8521	-3.1562	-3.1771	-2.8646	-3.1271	-2.925	-2.9542	-3.2313	-2.8167	-3.2125	-3.1125	-2.95	-3.3771	-2.9479	9.586	3.243	51.135	188.326	-141.279	-105.319	-7.119	58.181	38.077	24.454	-150.700	-16.529	-56.714	174.097	69.840	-88.296	0.0004602	0.00020829	0.00012791	224.32	2.3388e-06	6.9119e-06	244.38	60.277	5.3088e-06	7.9088e-06	83.389	28.814	17.819	7.914	7.295e-06	14.194	0.013006	0.024935	0.0069422	275.25	0.00023412	0.00028075	289.52	76.529	0.00022699	0.00028132	110.04	37.529	25.693	10.819	0.0002427	18.291	131.777	97.133	128.546	-141.772	192.569	-142.794	-143.218	-137.540	25.978	151.097	-139.717	-135.813	-134.285	-129.450	-63.866	-133.710	-8191	255	
6229.451	1	1	0	0	0.14121	0.16967	0.074745	0.07273	0.085468	0.33399	0.16247	0.091463	0.19214	0.273	0.20099	0.092839	0.15582	0.13779	0.14565	0.29351	-2.6167	-3.1167	-2.8167	-2.9792	-3.1063	-2.9417	-3.3937	-2.9771	-3.0417	-3.2208	-2.7833	-3.3375	-3.0812	-2.7042	-3.2938	-2.8375	162.713	-21.108	-145.942	6.345	20.580	144.283	31.123	-103.967	-105.399	117.807	76.129	-17.398	169.113	-1.528	96.689	50.775	0.00047078	0.00049776	0.00026612	224.35	4.8597e-06	6.2984e-06	242.5	60.542	9.0354e-06	5.8861e-06	83.377	29.092	17.974	7.8338	8.314e-06	14.258	0.012976	0.024735	0.006864	273.64	0.00023223	0.00027618	287.81	76.557	0.00022585	0.00027992	110.14	37.627	25.839	10.81	0.00023876	18.386	97.630	-91.565	201.343	-142.614	64.359	-112.618	-143.155	-137.806	163.606	-75.813	-139.833	-136.669	-135.089	-129.815	-99.461	-133.681	-8191	255	
6229.546	1	1	0	0	0.4385	0.17548	0.068307	0.08033	0.17784	0.16805	0.13692	0.14106	0.036955	0.095858	0.33487	0.07507	0.35672	0.054039	0.10198	0.096005	-2.4792	-3.1729	-2.7542	-3.1312	-3.1688	-2.7917	-3.3021	-3.1521	-2.9146	-3.2687	-3.0375	-3.1833	-3.0958	-2.9417	-3.35	-2.9854	-113.069	151.682	36.046	18.808	154.874	172.084	58.845	-34.571	-142.965	18.541	14.068	-125.417	122.668	45.328	106.250	19.922	0.00054567	0.00058813	0.00038224	224.05	1.4357e-05	9.6128e-06	241.98	61.028	1.319e-05	7.8079e-06	83.172	29.368	18.06	8.0238	9.7671e-06	14.503	0.012871	0.024347	0.006811	273.11	0.00023071	0.00027291	287.2	76.958	0.00022483	0.00027454	110.17	37.876	25.914	10.872	0.00023877	18.599	98.919	-60.948	-47.584	-141.850	-54.060	-11.317	-143.454	-137.384	-137.714	-9.087	-139.709	-136.651	-134.990	-129.864	9.839	-133.083	-8191	255	
6229.644	1	1	0	0	0.15189	0.12929	0.16037	0.13772	0.20066	0.25555	0.047183	0.2101	0.15997	0.14235	0.18074	0.092565	0.11688	0.22589	0.043625	0.14025	-2.4021	-3.1667	-2.9437	-3.1146	-3.2667	-2.8563	-3.2021	-3.1188	-2.7604	-3.3312	-2.8917	-2.9083	-3.2292	-2.9208	-3.1625	-3.1625	21.757	-84.828	36.114	128.968	-137.588	-147.900	-154.897	201.444	145.171	187.584	151.619	147.784	122.198	100.960	-30.209	-132.080	0.00038389	0.00079199	7.8626e-05	227.3	6.1139e-06	9.0708e-06	244.65	61.917	1.3516e-05	8.1769e-06	84.801	29.729	18.054	8.079	5.9216e-06	14.596	0.01299	0.024332	0.0068189	275.67	0.0002313	0.0002764	290.3	77.773	0.00022958	0.00027655	111.74	38.412	26.28	11.028	0.00024083	18.816	86.186	-52.970	-126.135	-141.576	-13.608	67.060	-142.990	-137.460	164.463	-24.306	-140.238	-136.513	-134.014	-129.852	165.804	-133.472	-8191	255	
6229.738	1	1	0	0	0.22484	0.19581	0.11098	0.31082	0.092217	0.31233	0.19662	0.048375	0.054952	0.20947	0.10399	0.1249	0.31762	0.030389	0.29871	0.17397	-2.4896	-3.1875	-2.8833	-3.0146	-3.3917	-2.8688	-3.0187	-3.2646	-2.9229	-3.225	-3.0812	-2.9333	-3.3146	-2.8125	-2.9354	-3.0771	44.421	-5.172	108.122	198.449	44.081	148.776	33.430	189.533	108.148	199.535	23.493	109.461	54.023	73.093	-125.229	8.900	0.00052392	0.00079961	0.00011822	229.85	6.6755e-06	8.3478e-06	245.55	61.417	3.5314e-06	5.8848e-06	84.081	29.774	18.203	8.0075	8.4416e-06	14.728	0.013107	0.024376	0.0068676	277.08	0.00023152	0.00027295	290.91	77.9	0.00022765	0.00027421	111.51	38.531	26.202	11.009	0.0002416	18.791	123.603	-10.318	-68.510	-142.159	-69.994	98.244	-142.792	-137.896	-94.694	102.705	-139.151	-136.366	-134.365	-130.090	13.251	-133.212	-8191	255	
6229.834	1	1	0	0	0.23661	0.097703	0.22567	0.2258	0.13888	0.077751	0.33098	0.034913	0.30778	0.073599	0.089474	0.070477	0.06369	0.09005	0.046583	0.20292	-2.4917	-3.2396	-2.9979	-3.0042	-3.3333	-3.0521	-3.0896	-3.1813	-2.9188	-3.3854	-3.1979	-2.7708	-3.4583	-2.9646	-3.0354	-3.3396	115.512	203.496	116.421	-97.816	121.625	80.540	153.032	157.190	116.835	-8.266	-23.400	164.138	63.088	149.458	-94.528	19.972	0.0006222	0.00051881	0.00021794	226.29	9.3089e-06	8.2188e-06	247.39	61.349	1.8941e-05	1.1424e-05	85.434	29.379	17.962	8.033	2.0928e-06	14.861	0.013045	0.024143	0.00687	275.87	0.00023136	0.00027457	291.1	77.599	0.00022653	0.0002741	111.93	38.408	26.099	10.962	0.00024321	18.824	105.309	131.741	-92.968	-141.818	-37.801	87.278	-143.185	-137.225	6.091	32.581	-139.831	-136.320	-133.928	-130.636	151.529	-133.270	-8191	255	
6229.955	1	1	0	0	0.080099	0.24017	0.22856	0.03974	0.19946	0.10796	0.11347	0.10966	0.30871	0.22713	0.12011	0.29027	0.32431	0.25964	0.080425	0.043805	-2.2521	-3.1375	-3.0979	-3.0583	-3.2583	-2.7583	-3.3146	-3.0958	-2.775	-3.2604	-3.2188	-2.9313	-3.1854	-3.2042	-3.1792	-3.1917	104.805	67.639	152.327	-28.262	134.046	-52.798	177.010	-107.596	153.061	-125.842	136.073	-92.750	137.161	-104.657	-100.248	53.492	0.00039449	0.0002235	7.4206e-05	228.86	1.2949e-05	7.5663e-06	246.93	61.858	5.4979e-06	2.5082e-06	84.956	29.817	18.21	7.9438	1.1979e-05	14.561	0.013058	0.024076	0.0069464	277.18	0.00022807	0.00027343	291.57	77.679	0.00022362	0.00027313	111.6	38.435	25.921	10.895	0.00024441	18.663	134.863	-130.259	128.259	-142.146	-73.869	141.887	-143.376	-137.620	34.428	-20.253	-139.927	-136.813	-134.925	-129.763	-114.603	-133.651	-8191	255	
6230.051	1	1	0	0	0.30265	0.22712	0.086033	0.19344	0.16572	0.28151	0.17198	0.21385	0.23966	0.1692	0.17857	0.12347	0.1932	0.11342	0.044268	0.13427	-2.5042	-3.1458	-3.1729	-2.9188	-3.5042	-2.9313	-3.1479	-3.4188	-3.0187	-3.0417	-3.2854	-2.7729	-3.2625	-3.0583	-2.8312	-3.4188	85.824	-120.072	6.641	-31.562	-10.738	-81.358	151.201	26.558	-15.344	4.526	68.109	183.804	169.450	-109.449	-92.837	-145.986	0.00049661	0.00084946	0.00017693	226.45	1.993e-06	8.1133e-06	248.43	61.643	8.9444e-06	1.5071e-05	84.644	29.437	18.023	7.8829	7.8471e-06	14.389	0.013037	0.024078	0.0069341	277.51	0.00022809	0.00027617	291.81	77.963	0.0002261	0.00027502	112.11	38.14	25.818	10.849	0.00024352	18.472	134.509	112.305	182.464	-141.885	-91.614	14.252	-143.344	-137.526	-7.286	67.078	-139.668	-136.359	-133.642	-129.856	-113.719	-133.033	-8191	255	
6230.147	1	1	0	0	0.20528	0.067526	0.23274	0.22451	0.17546	0.071417	0.12333	0.20884	0.15951	0.10418	0.12176	0.154	0.1373	0.22841	0.17872	0.089537	-2.4542	-3.0521	-3.0792	-2.9062	-3.3396	-3.0896	-2.8063	-3.3479	-2.975	-3.3583	-3.3521	-2.7833	-3.2646	-3.0583	-2.8729	-3.4167	159.908	-55.897	96.337	24.320	-46.406	165.983	-0.176	-119.970	-101.828	-84.045	198.296	-131.628	-30.688	-114.162	-148.207	-21.789	0.00053322	0.0002642	0.00020674	229.22	1.8247e-05	5.5392e-06	244.11	61.708	1.701e-05	2.407e-06	84.065	28.776	17.759	7.7098	5.6803e-06	14.017	0.012806	0.023772	0.0068001	277.61	0.00022059	0.00026922	290.04	76.908	0.00021886	0.00026979	110.1	37.495	25.362	10.571	0.00023585	17.995	106.709	176.212	70.519	-141.779	-41.344	81.532	-143.233	-137.855	-127.945	162.829	-139.860	-135.896	-134.888	-130.505	126.241	-132.845	-8191	255	
6230.243	1	1	0	0	0.25524	0.12707	0.26292	0.17186	0.16116	0.058775	0.24447	0.11229	0.12569	0.048365	0.12349	0.29935	0.16506	0.20703	0.23302	0.32865	-2.4062	-2.95	-3.2729	-2.7958	-3.1708	-3.0979	-2.7417	-3.3125	-2.9271	-2.975	-3.2562	-2.8396	-3.1188	-3.2917	-2.95	-3.1667	-150.414	98.224	157.211	15.065	-17.413	82.582	7.075	-116.175	-23.110	33.739	-26.472	165.467	-140.822	177.868	-49.571	-0.039	0.00028397	0.0005478	0.00030722	225.15	7.0067e-06	4.5259e-06	243.07	60.752	1.4779e-05	2.1089e-07	81.912	28.626	17.502	7.6228	2.6257e-06	14.048	0.012582	0.023652	0.0067131	274.66	0.00021786	0.00026754	287.34	75.99	0.00021689	0.00026871	108.67	37.003	25.173	10.452	0.00023584	17.84	107.193	44.468	-115.601	-141.832	-87.313	176.629	-143.067	-137.920	170.875	168.375	-139.365	-136.181	-134.528	-130.652	-102.213	-133.364	-8191	255	
6230.364	1	1	0	0	0.07614	0.10682	0.060907	0.15209	0.16942	0.20335	0.36798	0.21385	0.21941	0.15714	0.16485	0.20939	0.12036	0.03647	0.27788	0.21786	-2.6917	-3.0208	-3.2354	-2.9604	-3.1208	-3.1583	-2.9667	-3.1437	-3.1271	-2.8646	-3.4	-2.8917	-3.0042	-3.2812	-2.6875	-3.1521	80.378	-103.874	-147.008	-85.782	100.385	-34.203	146.972	-150.931	154.498	173.967	-127.269	-104.076	-48.827	131.470	191.544	100.294	0.00027061	0.00037547	0.00014827	227.68	8.5745e-06	7.0306e-06	241.19	61.226	1.4012e-05	4.1705e-06	82.103	28.692	17.716	7.7236	5.1143e-06	13.944	0.01253	0.023295	0.0065645	273.41	0.00021678	0.00026255	286.13	75.734	0.000215	0.00026187	108.17	37.067	25.082	10.51	0.00023063	17.851	71.653	-61.000	-128.588	-142.096	202.220	186.191	-142.742	-137.958	94.756	171.787	-139.340	-136.112	-134.392	-130.261	95.438	-133.827	-8191	255	
6230.436	1	1	0	0	0.16341	0.083797	0.24722	0.082806	0.22832	0.078418	0.19761	0.12136	0.25212	0.068544	0.033329	0.093162	0.077998	0.1706	0.068883	0.2809	-2.6375	-2.8812	-3.2062	-2.9354	-3.0563	-3.2042	-2.7667	-3.2313	-3.0812	-3.0812	-3.3771	-2.9	-3.1458	-3.1	-2.8521	-3.2646	20.741	-15.958	-56.524	-13.840	-29.485	170.354	157.086	116.859	201.548	115.569	-136.547	99.538	114.122	201.401	-22.246	139.494	0.00049258	0.00012254	0.00023471	226.86	1.5716e-05	4.5511e-06	242	61.159	1.1118e-05	1.1833e-05	82.952	29.004	17.708	7.6537	8.5743e-06	14.056	0.012429	0.023227	0.0065035	273.39	0.00021546	0.00026466	285.75	75.713	0.000218	0.00026485	108.58	37.122	25.239	10.508	0.00023126	17.938	106.939	140.857	-115.456	-141.562	122.354	-24.340	-142.894	-137.624	155.803	44.259	-139.672	-136.509	-133.851	-131.320	81.724	-133.901	-8191	255	
6230.532	1	1	0	0	0.16838	0.15818	0.13499	0.082982	0.16295	0.13349	0.13593	0.21266	0.1466	0.14188	0.11485	0.18596	0.11666	0.17319	0.19077	0.11206	-2.7646	-3.0062	-3.1667	-3.0583	-2.9625	-3.3917	-2.9021	-3.1	-3.2625	-2.8583	-3.325	-3.0604	-2.8146	-3.3146	-2.9604	-3.2625	-93.761	151.357	192.474	120.986	-6.695	-5.284	191.916	-137.239	-78.581	169.798	165.340	-115.395	-71.493	148.851	-84.410	138.689	0.00051396	0.00040189	0.00033981	224.78	1.2429e-05	1.5012e-06	239.86	60.675	1.5323e-05	8.9569e-06	83.572	28.817	17.596	7.6332	8.8845e-06	13.951	0.012692	0.02351	0.0065592	274.15	0.00022095	0.00026709	285.64	75.748	0.00021992	0.00026602	108.55	37.097	25.249	10.444	0.00023211	17.822	134.383	125.634	61.249	-141.956	-123.260	97.621	-143.196	-137.260	-75.817	-11.448	-139.889	-136.381	-134.180	-130.498	201.395	-133.396	-8191	255	
6230.626	1	1	0	0	0.17002	0.29908	0.1514	0.25824	0.22405	0.13911	0.20354	0.096776	0.12619	0.18578	0.093153	0.094741	0.21886	0.16049	0.21529	0.046193	-2.8937	-2.7229	-3.3063	-3.1021	-2.8646	-3.4042	-2.8292	-2.9146	-3.1583	-2.925	-3.0896	-2.9375	-2.7583	-3.2313	-3.0417	-2.8729	-67.913	112.380	-9.070	182.829	122.334	50.761	-93.507	157.250	-146.855	151.309	-139.141	127.546	-33.551	110.874	-57.675	99.195	0.0003541	0.00079239	9.574e-05	226.57	1.7431e-05	4.6648e-06	242.77	60.123	3.1097e-06	9.3787e-06	82.622	28.408	17.564	7.6135	3.6226e-06	13.982	0.012534	0.023321	0.0064375	273.91	0.00021744	0.00026032	285.21	75.517	0.00021665	0.0002645	107.85	36.913	25.028	10.428	0.00023343	17.86	58.061	-101.096	171.361	-141.663	101.520	71.822	-143.420	-138.124	32.121	169.275	-139.499	-136.281	-133.934	-130.454	73.578	-133.512	-8191	255	
6230.747	1	1	0	0	0.18084	0.15529	0.31154	0.10034	0.074649	0.14564	0.16921	0.2878	0.13009	0.10792	0.092476	0.078685	0.15689	0.17539	0.17475	0.24635	-2.5708	-2.8292	-3.1521	-3.0958	-2.7438	-3.2292	-3.0958	-3.0271	-3.3479	-2.9562	-3.2542	-2.9667	-2.8396	-3.3979	-3.0229	-3.0792	-147.427	112.960	-144.077	179.511	194.585	27.702	75.110	66.394	-1.469	-145.570	-107.592	124.570	-87.157	-110.461	166.935	158.243	0.00012334	0.00042669	0.00012222	222.29	6.4264e-06	6.9009e-06	240.22	59.712	1.0371e-05	7.613e-06	82.521	28.619	17.494	7.6708	8.5727e-06	14.038	0.012637	0.023202	0.0065148	272.43	0.00022094	0.00026338	284.41	75.607	0.00021868	0.00026548	107.95	37.068	25.108	10.495	0.00023376	18.047	-154.836	-39.663	-117.322	-141.811	-100.303	42.386	-143.395	-137.602	-30.045	28.678	-139.765	-136.903	-134.368	-129.956	70.404	-133.059	-8191	255	
6230.843	1	1	0	0	0.074643	0.10477	0.018316	0.38255	0.22827	0.079426	0.059402	0.091387	0.17771	0.1615	0.21409	0.28864	0.1101	0.13003	0.23281	0.25586	-2.8792	-2.8396	-3.0938	-3.0917	-3.0729	-3.1479	-3.0312	-2.7	-3.3729	-2.8312	-3.0479	-3.0938	-2.7958	-3.1937	-3.3688	-2.9875	153.008	-106.387	100.251	154.033	130.991	84.055	85.504	70.052	-72.995	174.311	188.009	103.431	152.420	41.507	-148.407	88.681	0.00037992	0.00052373	9.0759e-05	224.4	8.3919e-06	1.0601e-05	240.09	60.108	5.47e-06	7.0174e-06	83.873	28.817	17.732	7.7684	7.5735e-06	14.305	0.012657	0.023212	0.0065601	273.29	0.00021948	0.00026177	285.79	75.749	0.00021886	0.00026613	108.89	37.558	25.373	10.594	0.00023617	18.324	133.808	174.492	52.799	-141.865	28.729	-49.169	-143.578	-136.803	80.331	12.916	-139.909	-136.447	-133.715	-130.133	157.556	-133.305	-8191	255	
6230.939	1	1	0	0	0.11296	0.28692	0.26169	0.28195	0.25535	0.12177	0.25245	0.094197	0.072283	0.21877	0.059354	0.082623	0.097612	0.084789	0.20081	0.23118	-2.9958	-3.0146	-3.0875	-3.3396	-2.9083	-3.2438	-3.0187	-2.6937	-3.4875	-2.9875	-2.8583	-3.2938	-2.8542	-3.2042	-3.1833	-2.8458	166.217	-101.214	91.628	57.728	108.816	117.532	37.972	199.482	165.039	66.313	-105.632	115.756	19.418	-37.613	39.677	55.653	0.00053937	0.00062413	0.0001181	224.51	5.3075e-06	9.7751e-06	242.53	60.85	5.0937e-06	3.548e-06	84.051	29.314	17.865	7.7482	8.0313e-06	14.27	0.01262	0.023499	0.0066451	274.58	0.00022414	0.00026467	288.03	76.507	0.00021846	0.00026668	109.9	37.905	25.459	10.618	0.00023933	18.4	125.409	139.997	103.174	-141.850	-36.396	-118.151	-142.834	-137.614	-133.590	-91.530	-139.825	-136.832	-134.654	-129.782	-109.620	-132.951	-8191	255	
6231.035	1	1	0	0	0.16297	0.010223	0.10923	0.11017	0.17062	0.22287	0.19923	0.16562	0.2221	0.1148	0.26313	0.1513	0.32669	0.2164	0.074273	0.28848	-2.8292	-2.8312	-2.7438	-3.2854	-2.7479	-3.1479	-3.2792	-2.8937	-3.1875	-2.9688	-2.9104	-3.1875	-2.875	-3.0021	-3.0958	-2.8063	-66.439	53.857	46.367	-63.393	134.303	157.262	136.477	83.721	182.832	180.673	196.286	171.888	92.368	105.301	-67.753	106.118	0.00051586	0.00081274	9.2242e-05	227.69	3.4837e-06	6.1915e-06	240.3	60.781	1.2563e-05	1.2904e-06	83.203	29.177	17.583	7.7068	1.7013e-05	14.37	0.012713	0.023813	0.0067367	275.43	0.00022133	0.00026271	287.6	76.333	0.0002163	0.00026875	109.53	38.002	25.491	10.599	0.00024334	18.322	66.375	-43.208	-17.247	-141.530	-153.721	-46.849	-143.100	-137.515	-22.984	-39.993	-139.917	-136.656	-134.720	-129.746	-5.813	-133.409	-8191	255	
6231.131	1	1	0	0	0.06704	0.12546	0.076715	0.016879	0.036298	0.13304	0.096071	0.30257	0.083534	0.29348	0.16206	0.11819	0.18222	0.28523	0.1468	0.20551	-2.8688	-3.1167	-2.8667	-3.3708	-2.8563	-3.2708	-3.2188	-2.9125	-3.1729	-3.1396	-3.0146	-3.4896	-2.9167	-3.0396	-3.0771	-2.7708	-78.902	69.162	13.235	-122.158	-81.479	-98.214	104.437	100.906	-131.124	181.429	68.013	-105.410	-150.271	-90.972	-125.234	144.964	0.00031525	0.00038528	0.00023469	226.46	2.406e-06	6.1561e-06	242.84	60.416	1.4963e-05	5.0307e-06	83.534	28.983	17.81	7.783	7.2088e-06	14.352	0.01277	0.024159	0.006839	275.46	0.00023072	0.00027676	289.52	76.732	0.00022606	0.00027992	110.06	37.676	25.499	10.572	0.00024384	18.306	101.703	-59.650	184.813	-141.983	-59.091	-60.447	-143.637	-137.233	105.497	183.230	-138.978	-136.237	-133.961	-129.898	-70.167	-133.613	-8191	255	
6231.227	1	1	0	0	0.27231	0.13333	0.37227	0.11167	0.091795	0.17945	0.21219	0.22664	0.15046	0.12375	0.046071	0.14014	0.21553	0.16445	0.20544	0.18698	-2.7167	-3.0875	-2.9188	-3.3438	-3.0146	-2.9917	-3.225	-2.8729	-3.1583	-3.1437	-2.95	-3.1792	-2.8979	-2.9583	-3.2583	-2.9333	-52.247	-82.470	147.558	49.195	-16.056	-144.434	145.808	118.268	166.000	-124.504	41.648	152.356	-108.440	187.200	-89.014	-66.768	0.00038988	0.00053426	0.00021902	225.57	1.5892e-05	3.2309e-06	242.19	60.808	1.8343e-05	8.0202e-06	83.854	29.446	17.792	7.7651	2.5471e-06	14.469	0.01277	0.024372	0.0068436	274.52	0.00022714	0.00027454	288.22	76.371	0.00022284	0.00027714	110.33	38.016	25.637	10.745	0.00024611	18.524	110.230	52.198	51.617	-141.822	-130.581	-90.504	-143.401	-138.059	-62.578	-133.457	-139.563	-137.141	-134.417	-130.480	108.520	-133.240	-8191	255	
6231.324	1	1	0	0	0.19269	0.099481	0.047823	0.30535	0.039838	0.09549	0.090521	0.24942	0.10452	0.24536	0.2224	0.015767	0.056606	0.11102	0.15706	0.1387	-2.7292	-3.15	-2.8479	-3.2875	-2.8563	-3.0083	-3.2708	-2.7167	-3.2458	-3.2208	-2.7458	-3.3042	-3.1375	-3.1333	-3.275	-2.9479	148.372	140.722	26.311	-21.668	116.385	109.414	147.800	-103.696	19.417	-152.664	83.045	-33.887	-65.016	-78.578	9.500	-109.057	0.00044868	0.0010193	0.00021636	224.43	4.4663e-06	7.016e-07	243.32	60.719	3.1288e-06	6.6563e-06	83.759	29.382	18.127	7.6921	9.5948e-06	14.438	0.013072	0.024848	0.0069564	274.52	0.00023455	0.00028048	290.09	76.933	0.00022711	0.00028083	111.28	38.119	25.813	10.714	0.00024405	18.536	100.668	199.158	-108.004	-142.257	145.670	201.624	-143.223	-137.531	-32.059	-1.750	-139.602	-136.759	-134.922	-129.758	-32.780	-133.496	-8191	255	
6231.444	1	1	0	0	0.075365	0.35065	0.08454	0.15799	0.11513	0.082285	0.27296	0.19066	0.17164	0.073081	0.054616	0.24309	0.077573	0.10967	0.18461	0.06581	-2.6958	-3.1063	-2.8937	-3.1937	-3.2042	-2.8771	-3.2958	-2.9333	-2.9958	-3.3542	-2.875	-3.1583	-3.1792	-2.8375	-3.3146	-3.0563	41.213	93.050	-148.439	115.945	-99.711	-139.345	172.794	125.295	66.773	166.915	-86.770	-17.794	191.867	-77.795	-146.382	142.071	0.00015632	0.0009154	0.00015826	227.65	4.9624e-06	2.2153e-06	241.59	60.665	1.3284e-05	1.182e-05	84.395	29.224	17.783	7.7036	6.2985e-06	14.337	0.012997	0.024773	0.0069198	275.15	0.00023265	0.00027892	288.73	76.78	0.00022805	0.00028436	110.87	38.091	25.831	10.765	0.00024659	18.525	156.236	-93.909	-117.141	-141.569	111.385	-36.860	-143.175	-137.576	-149.427	169.973	-139.585	-136.775	-134.965	-130.626	-63.146	-133.028	-8191	255	
6231.539	1	1	0	0	0.11194	0.05247	0.13025	0.088809	0.17761	0.063844	0.095915	0.21368	0.2405	0.16389	0.11676	0.27289	0.16192	0.12712	0.25174	0.0030962	-2.5021	-3.3083	-2.7958	-3.0833	-3.1771	-2.7854	-3.1292	-2.9896	-2.8354	-3.275	-2.8958	-3.1729	-3.125	-2.6729	-3.15	-3.1458	118.560	-129.930	-74.692	-79.745	-14.339	114.786	139.459	136.029	9.677	145.589	-17.745	27.954	132.440	-66.314	114.874	54.768	0.00019299	0.00089253	0.00010889	225.61	5.68e-06	5.3451e-06	242.37	59.692	2.0194e-05	1.3918e-05	83.644	28.932	17.613	7.6363	2.2582e-06	14.258	0.013226	0.025048	0.0069841	274.29	0.00023409	0.00028158	288.24	76.265	0.00022935	0.00028246	110.7	37.925	25.803	10.689	0.00024818	18.398	129.309	-113.010	-90.063	-141.655	-2.816	204.613	-142.854	-137.170	52.505	23.927	-139.711	-135.726	-134.436	-129.103	186.514	-133.649	-8191	255	
6231.637	1	1	0	0	0.10732	0.11223	0.12171	0.1671	0.13661	0.070077	0.14057	0.2014	0.16213	0.23482	0.21203	0.16023	0.22494	0.080157	0.27481	0.18817	-2.4417	-3.2208	-2.7979	-3.0042	-3.1271	-2.8729	-3.175	-3.0625	-2.8563	-3.2313	-2.8667	-3.0479	-3.2396	-2.7854	-3.2083	-2.9958	73.809	130.264	64.661	72.475	112.181	-143.274	37.923	66.282	1.127	20.824	193.576	-2.674	2.521	-149.512	169.296	95.387	0.00047209	0.00032689	0.00015932	223.76	1.0541e-05	4.6679e-06	242.69	60.273	1.987e-05	6.7628e-06	82.64	29.096	17.516	7.4303	5.5727e-06	14.194	0.013337	0.025032	0.0069478	274.52	0.00023733	0.00027952	287.16	76.729	0.00023035	0.00028177	110.42	37.954	25.798	10.559	0.00024897	18.509	130.154	-132.332	109.879	-142.201	-41.674	-57.442	-143.360	-137.920	176.339	96.215	-139.351	-136.417	-135.168	-129.662	-76.081	-133.935	-8191	255	
6231.731	1	1	0	0	0.1026	0.22729	0.088771	0.25351	0.23732	0.19239	0.1943	0.27775	0.11869	0.3137	0.15226	0.20098	0.15991	0.12577	0.21927	0.086174	-2.4083	-3.4083	-2.9646	-2.9688	-3.2167	-2.7042	-3.1042	-3.1021	-2.9458	-3.3083	-3.0542	-2.9062	-3.1896	-2.8396	-3.2188	-3.1042	112.043	-95.721	78.868	-36.115	-125.441	120.539	-100.546	185.250	108.404	176.340	-65.335	197.962	-153.310	123.212	-119.800	-48.202	0.000317	0.00094538	0.00021171	224.05	6.1474e-06	1.0197e-05	240.34	59.903	1.8751e-05	4.155e-06	83.071	29.068	17.515	7.6361	1.3804e-05	14.159	0.013597	0.025117	0.007117	275.62	0.00024144	0.00028487	288.3	76.858	0.00023467	0.00028476	110.73	37.966	25.776	10.599	0.00024648	18.443	91.618	-38.306	44.823	-141.724	-45.593	-148.996	-142.667	-136.782	-60.665	-114.643	-139.729	-136.686	-134.542	-130.343	66.010	-133.804	-8191	255	
6231.827	1	1	0	0	0.2084	0.099446	0.11669	0.060061	0.13059	0.23829	0.10634	0.13487	0.066705	0.1903	0.12491	0.2326	0.051519	0.099185	0.15592	0.18306	-2.3542	-3.2896	-2.9208	-2.8667	-3.2375	-2.9354	-3.0479	-3.0729	-2.925	-3.4521	-2.8729	-2.8083	-3.4083	-2.8312	-2.9917	-3.2542	67.523	-125.419	26.764	112.447	166.063	-137.157	76.798	203.526	69.010	100.041	-91.430	64.156	-123.181	180.808	-7.276	164.955	0.000283	0.00097403	0.00024667	224.22	1.2384e-05	1.7593e-06	240.43	60.112	4.6118e-06	9.3963e-06	82.491	28.811	17.482	7.5606	1.0605e-05	14.325	0.013359	0.024495	0.0070245	274.59	0.00023427	0.00028132	286.74	76.126	0.00023036	0.00027953	109.58	37.654	25.435	10.547	0.0002478	18.354	84.483	44.259	54.187	-141.617	32.356	121.177	-143.305	-137.048	-14.513	-34.648	-139.306	-136.504	-134.423	-130.281	166.773	-133.684	-8191	255	
6231.923	1	1	0	0	0.36305	0.12389	0.19175	0.2385	0.13558	0.087164	0.10631	0.00972	0.18251	0.13087	0.17423	0.090308	0.32071	0.12258	0.26267	0.071777	-2.4813	-3.2604	-3.2167	-2.8979	-3.3521	-2.9062	-2.9708	-3.3271	-2.9021	-3.2792	-3.0979	-2.8104	-3.0792	-3.1	-3.1417	-3.4479	186.803	64.107	164.628	135.478	125.472	44.245	102.409	40.155	60.359	-144.333	73.757	27.001	-39.071	-117.078	-75.883	19.666	0.00046716	0.00063923	8.0398e-05	223.43	9.5799e-06	9.3714e-06	241.89	59.259	7.701e-06	8.0399e-06	82.834	28.874	17.328	7.6485	1.1159e-05	14.321	0.013338	0.024757	0.0070965	274.08	0.00023615	0.00028233	286.45	76.218	0.00023051	0.00028032	109.92	37.847	25.353	10.553	0.00024668	18.495	104.613	78.076	-152.646	-141.730	108.345	127.022	-143.242	-137.494	106.389	37.838	-139.718	-135.986	-133.938	-130.481	-12.074	-133.455	-8191	255	
6232.044	1	1	0	0	0.22288	0.12047	0.20397	0.15514	0.093304	0.26587	0.1344	0.16058	0.0071172	0.21286	0.17892	0.15971	0.1564	0.064215	0.17789	0.040906	-2.3479	-3.0938	-3.1146	-2.9771	-3.3833	-2.8854	-2.8479	-3.15	-2.8375	-3.0438	-3.2854	-2.775	-3.0729	-3.1688	-2.975	-3.3771	88.738	20.277	22.772	6.368	-119.768	-153.215	-152.179	153.432	-145.464	173.279	170.880	138.441	38.153	102.094	-3.155	87.961	0.00053987	0.00058982	0.00023557	222.48	1.2789e-05	2.2166e-06	242.86	60.109	5.9857e-06	1.218e-05	84.004	29.733	17.721	7.6886	5.6111e-06	14.457	0.013258	0.024636	0.0071182	272.87	0.00023059	0.00027864	287.16	76.415	0.00023018	0.00028011	111.14	38.364	25.684	10.718	0.00025373	18.712	126.402	57.285	-139.419	-141.763	67.929	26.395	-143.203	-137.088	2.853	-81.121	-139.558	-136.114	-134.317	-130.881	-37.973	-133.510	-8191	255	
6232.140	1	1	0	0	0.2148	0.078268	0.34202	0.12756	0.22176	0.27214	0.089174	0.24433	0.10351	0.059368	0.31092	0.093249	0.17019	0.17814	0.14499	0.10961	-2.3792	-2.9062	-3.1854	-2.7917	-3.1958	-3.0854	-2.9292	-3.0083	-2.8292	-3.0854	-3.2667	-2.6771	-3.05	-3.1333	-2.8146	-3.4104	38.222	38.134	40.059	133.771	-102.830	111.673	67.122	-77.919	185.188	129.859	97.502	25.896	32.977	1.459	198.698	172.840	0.0003023	0.00039084	7.6214e-05	225.33	2.8375e-06	8.1844e-06	243.15	60.447	4.6974e-06	1.4156e-05	83.848	29.346	17.722	7.6078	7.9344e-06	14.53	0.01338	0.025009	0.0072201	275.57	0.00023432	0.00028488	289.9	77.058	0.00023297	0.00028606	112.3	38.406	25.812	10.782	0.00025496	18.843	134.474	165.390	-121.022	-141.756	75.638	119.627	-143.559	-137.281	33.182	63.949	-139.851	-136.090	-134.485	-129.705	11.389	-133.478	-8191	255	
6232.236	1	1	0	0	0.24919	0.16606	0.085155	0.26961	0.1908	0.13094	0.188	0.15388	0.085248	0.028897	0.15991	0.26907	0.11964	0.21859	0.17335	0.19498	-2.475	-2.9646	-3.1083	-2.9146	-3.2208	-3.1562	-2.9813	-3.2	-2.9437	-2.9646	-3.1979	-2.9271	-3.1937	-3.1354	-2.9417	-3.35	-117.901	-107.328	-133.738	160.529	-22.858	-142.551	0.608	-135.016	-102.745	-16.151	-109.999	38.148	-120.020	198.485	71.269	116.887	0.00036339	0.00024661	0.00024554	226.31	9.85e-06	8.2026e-07	243.91	60.026	6.2779e-06	9.2382e-06	83.144	29.633	17.499	7.6777	3.5452e-06	14.36	0.013558	0.025513	0.0072692	276.73	0.0002366	0.00028594	290.46	77.139	0.00023275	0.00028536	111.59	38.437	25.601	10.727	0.00025363	18.524	123.947	152.133	-84.730	-142.079	-110.308	24.418	-143.314	-137.414	-75.966	-58.748	-138.823	-136.559	-134.583	-130.010	-56.920	-133.219	-8191	255	
6232.308	1	1	0	0	0.1488	0.24112	0.25197	0.014924	0.044192	0.13444	0.16467	0.25722	0.21335	0.13762	0.19207	0.12371	0.14158	0.20613	0.083268	0.041032	-2.3937	-2.7938	-3.2104	-3.0062	-2.9583	-3.1083	-2.9271	-3.1646	-3.1021	-2.9521	-3.4083	-2.8896	-3.2417	-3.1	-2.7542	-3.2146	28.129	80.984	-66.998	40.790	23.791	34.902	-113.831	-60.616	92.817	74.890	-35.383	132.243	-137.951	98.374	38.587	153.149	0.00028061	0.00070758	0.00021383	224.94	1.4192e-05	3.0164e-06	244.3	60.525	5.9209e-06	2.7076e-06	82.676	28.522	17.49	7.4836	7.043e-06	14.164	0.013569	0.025273	0.0071782	275.55	0.00023523	0.00028911	290.04	76.298	0.00023423	0.00028768	111.04	37.87	25.547	10.625	0.00025514	18.363	123.588	-45.659	-54.775	-141.985	-34.670	91.765	-143.284	-137.363	-13.570	174.282	-139.823	-136.700	-134.541	-130.116	3.438	-133.509	-8191	255	
6232.428	1	1	0	0	0.18074	0.17238	0.1759	0.1159	0.15929	0.18841	0.29253	0.29227	0.16735	0.119	0.079893	0.25384	0.23951	0.13149	0.081671	0.12215	-2.6542	-2.6292	-3.2542	-2.7333	-3.05	-3.1896	-2.8812	-3.1292	-3.0542	-3.0375	-3.2208	-2.7313	-2.9646	-3.375	-2.9437	-3.0979	98.373	32.798	95.210	162.834	96.634	186.239	76.496	-127.993	129.199	85.272	90.183	-124.389	141.931	140.993	-96.456	187.443	0.0002466	0.00037424	0.00015934	224.25	9.1554e-06	6.7734e-06	240.98	59.484	1.2342e-05	6.3447e-06	82.706	29.417	17.506	7.5187	1.0524e-05	14.267	0.013712	0.025719	0.007262	275.83	0.00024152	0.00029403	289.07	76.422	0.00023924	0.00029306	110.87	38.112	25.674	10.66	0.00025724	18.477	132.075	-81.591	68.025	-142.388	179.738	53.548	-143.106	-137.095	-79.782	17.528	-140.206	-136.089	-135.377	-129.623	-70.045	-133.383	-8191	255	
6232.525	1	1	0	0	0.065631	0.21892	0.42809	0.25914	0.095329	0.10749	0.3211	0.11287	0.17793	0.041661	0.13433	0.089149	0.034598	0.22746	0.17182	0.051276	-2.9271	-2.85	-3.2375	-3.1292	-3.0333	-3.3771	-2.9604	-3.1708	-3.2562	-2.9542	-3.4938	-3.0854	-3.0542	-3.3312	-2.8	-3.0604	140.017	-96.701	160.689	-59.200	-40.664	-10.995	128.644	-60.133	46.964	0.256	106.520	-113.889	167.415	-39.336	-139.459	-100.959	0.00048462	0.0012766	0.00019928	223.08	6.6286e-06	8.3389e-06	241.76	59.373	7.6123e-06	5.0015e-06	83.08	28.817	17.155	7.506	1.1501e-05	14.064	0.013852	0.0259	0.0072554	276.76	0.00024466	0.00029529	290.26	76.639	0.00024325	0.00029889	111.74	38.343	25.896	10.708	0.00026308	18.549	123.670	110.722	98.752	-142.097	148.171	68.832	-143.395	-137.200	145.866	13.179	-139.992	-136.886	-134.571	-130.428	-77.098	-133.399	-8191	255	
6232.619	1	1	0	0	0.16164	0.15226	0.16269	0.10514	0.095772	0.2017	0.22583	0.20553	0.04728	0.23247	0.27552	0.11637	0.2034	0.24936	0.053921	0.072544	-2.8375	-2.7729	-3.3771	-3.0187	-2.9188	-3.1833	-2.8354	-3.1562	-3.2042	-2.9729	-3.2042	-3.0208	-2.8812	-3.3646	-3.0687	-3.2042	77.993	-139.819	53.444	129.166	-114.917	101.538	74.355	151.868	-7.214	76.079	6.081	189.939	17.353	-106.978	76.348	56.870	0.00035218	0.00048286	0.00027213	223.12	3.8135e-06	2.0952e-06	239.42	59.598	4.7e-06	3.607e-06	83.061	28.334	17.147	7.4244	1.1462e-05	14.161	0.014208	0.026134	0.0073063	277.54	0.00024629	0.00029614	288.9	76.224	0.00024524	0.0002946	110.91	37.892	25.563	10.562	0.00025293	18.403	116.937	-59.683	68.124	-142.011	-102.067	15.872	-143.079	-138.347	36.889	-35.142	-139.972	-137.058	-134.853	-130.239	-68.035	-133.594	-8191	255	
6232.717	1	1	0	0	0.33361	0.14603	0.15299	0.17468	0.21003	0.14362	0.20325	0.21118	0.043417	0.11546	0.12912	0.19729	0.12191	0.055419	0.0375	0.12704	-2.7687	-2.8292	-3.2438	-3.1396	-2.7625	-3.3438	-3.0333	-3.0021	-3.3021	-2.8292	-3.3083	-3.1271	-2.925	-3.2354	-2.7958	-2.9917	105.768	193.022	114.306	161.757	122.330	-85.374	37.298	159.264	-8.860	-8.343	181.898	-113.761	178.791	-151.252	-64.994	194.892	0.00039492	0.00045389	0.00036934	222.71	1.2701e-05	7.6962e-06	238.88	59.052	6.1405e-06	5.2097e-06	81.273	28.245	17.099	7.4719	8.6233e-06	14.098	0.013851	0.025656	0.0071044	275.23	0.00024378	0.00029178	287	75.922	0.00024385	0.00029165	110.19	37.824	25.532	10.546	0.00025572	18.473	93.909	-139.285	70.396	-141.995	-64.025	77.826	-143.158	-137.047	-85.507	-59.893	-139.925	-136.337	-133.780	-130.453	38.179	-134.207	-8191	255	
6232.836	1	1	0	0	0.14413	0.20344	0.042582	0.085833	0.051821	0.18534	0.17598	0.21899	0.074574	0.22715	0.14632	0.22131	0.35153	0.13678	0.42032	0.25264	-2.8229	-2.6729	-3.2271	-3.1292	-2.7979	-3.2729	-3.0896	-3.0354	-3.3438	-2.9396	-3.0604	-3.1417	-2.7313	-3.2583	-3.2313	-2.9521	-68.909	-81.310	76.167	41.775	5.544	133.754	191.378	-141.287	-61.971	147.024	107.148	188.534	-2.479	70.542	1.063	137.475	0.00021056	0.0017757	0.00013087	221.4	2.2991e-05	9.0475e-06	237.73	59.377	3.9031e-06	2.4869e-06	82.343	28.851	17.333	7.5414	3.8792e-06	14.147	0.013787	0.025502	0.00712	274.12	0.00023997	0.0002834	286.68	76.21	0.00023667	0.00028681	110.8	38.324	25.675	10.63	0.00025976	18.638	62.422	24.198	-86.812	-141.986	-19.043	37.940	-144.013	-137.638	-127.806	-55.788	-139.687	-136.238	-134.697	-130.294	-114.805	-133.160	-8191	255	
6232.907	1	1	0	0	0.31579	0.30384	0.13518	0.078101	0.055398	0.24374	0.23609	0.049235	0.19677	0.056405	0.22406	0.17322	0.12561	0.22581	0.15745	0.25206	-2.9271	-2.9833	-3.075	-3.1625	-3.0333	-3.2458	-3.15	-2.7604	-3.5396	-2.9958	-3.125	-3.1396	-2.6625	-3.1896	-3.0771	-2.7687	-4.095	-82.394	24.691	40.989	-96.390	-77.784	-97.606	-142.605	22.053	-50.000	103.863	199.872	118.778	6.383	196.489	52.713	0.00024643	0.00083847	0.00033914	222.71	3.3582e-06	2.4435e-06	240.63	59.583	4.1805e-06	7.2875e-06	82.765	29.349	17.509	7.5534	6.4023e-06	14.323	0.014001	0.026081	0.007366	277.02	0.0002459	0.00029138	290.51	77.161	0.00024269	0.00030003	112.35	38.802	25.946	10.752	0.00026973	18.878	86.434	-1.800	110.666	-142.090	-111.670	137.488	-143.753	-137.122	163.102	-56.928	-139.827	-136.574	-134.590	-130.686	60.822	-133.076	-8191	255	
6233.004	1	1	0	0	0.12009	0.25885	0.23961	0.32696	0.39793	0.10332	0.20637	0.15182	0.098029	0.1803	0.089839	0.24826	0.14441	0.083912	0.14756	0.084519	-2.9542	-2.8167	-3.0729	-3.1896	-2.9708	-3.3021	-3.1229	-2.8	-3.2938	-3.1375	-2.9854	-3.3729	-2.7271	-3.1521	-3.175	-2.8458	96.001	-154.742	94.156	197.667	-134.863	-129.359	4.385	161.711	-131.520	129.976	-43.875	202.370	-80.046	172.939	62.907	184.520	0.00043783	0.00064041	0.00011287	222.27	3.2589e-06	6.6571e-06	242.45	60.88	1.6855e-05	4.795e-06	82.316	28.99	17.643	7.5675	1.8721e-05	14.311	0.014175	0.026609	0.0074766	278.68	0.00024734	0.00029535	292.41	77.858	0.00024481	0.00030101	112.62	38.751	25.888	10.708	0.00026803	18.761	83.050	57.125	-128.198	-142.091	27.338	134.220	-143.776	-137.074	-18.915	-70.172	-139.610	-136.795	-134.200	-130.703	35.280	-133.200	-8191	255	
6233.124	1	1	0	0	0.221	0.12761	0.058372	0.057528	0.26683	0.17049	0.12734	0.067181	0.033914	0.081499	0.166	0.10803	0.022048	0.049225	0.13457	0.14168	-2.8792	-3.0938	-2.9417	-3.3625	-2.9146	-3.1333	-3.2958	-2.9208	-3.3896	-3.1854	-2.9354	-3.3958	-3.1125	-3.1354	-3.2396	-2.6771	44.260	68.645	-90.925	-151.862	8.995	40.675	-105.304	65.875	-30.115	-65.203	-122.177	-140.908	106.123	27.227	-110.088	-152.605	0.0002821	0.00058538	0.00023166	221.84	1.493e-05	3.2471e-06	239.98	59.127	4.0785e-06	4.9333e-06	82.691	28.64	17.052	7.4221	4.6683e-06	14.028	0.014022	0.026239	0.0074753	278	0.00024762	0.00029505	291.21	76.919	0.00024268	0.00030211	112.39	38.317	25.64	10.568	0.00026646	18.521	127.194	-40.341	-128.058	-142.167	-68.022	-36.205	-143.296	-136.966	119.609	-44.992	-139.804	-136.702	-134.433	-129.869	56.387	-133.427	-8191	255	
6233.220	1	1	0	0	0.10428	0.17706	0.26653	0.030708	0.037943	0.078001	0.15215	0.22027	0.15877	0.21933	0.051552	0.096127	0.23622	0.1532	0.065875	0.132	-2.7521	-3.0979	-2.9667	-3.4292	-3.0979	-2.9813	-3.2354	-2.8542	-3.2521	-3.2833	-2.9188	-3.3917	-2.8812	-3.0167	-3.3875	-2.9062	94.080	160.156	79.667	176.666	148.340	-5.109	7.336	-26.071	204.164	-89.306	-93.281	198.156	24.717	181.471	87.959	2.382	0.00067581	0.00062379	0.00020187	222.84	1.025e-05	1.1166e-05	241.96	59.192	1.6433e-05	2.0044e-06	82.18	28.938	17.16	7.3463	9.3153e-06	14.194	0.013967	0.026527	0.0074612	277.05	0.00024766	0.0002986	290.16	76.71	0.00024088	0.0003022	111.37	38.118	25.596	10.558	0.00026324	18.511	116.200	127.167	40.904	-141.882	-107.673	-85.208	-143.085	-137.295	-111.435	51.426	-139.524	-136.350	-134.571	-130.052	21.155	-133.166	-8191	255	
6233.317	1	1	0	0	0.22188	0.025985	0.099812	0.026501	0.17037	0.24087	0.12643	0.15686	0.036445	0.11441	0.15838	0.12945	0.12133	0.22715	0.061326	0.19714	-2.5979	-3.1354	-2.9917	-3.2854	-2.9562	-3.15	-3.3792	-2.8292	-3.2062	-3.2646	-2.8292	-3.2792	-2.9667	-3.0542	-3.2396	-3.0125	-128.075	142.561	179.091	102.670	-6.142	-28.737	115.010	-68.374	37.062	52.758	-117.655	109.301	-41.208	12.258	-75.705	151.824	0.00037622	0.00073598	3.4895e-05	224.67	4.2756e-06	4.7949e-06	239.32	59.428	6.6025e-06	3.615e-06	82.877	28.914	17.151	7.5066	4.226e-06	14.317	0.013801	0.026487	0.0074036	276.15	0.00024806	0.00029911	290.2	76.791	0.00024262	0.0003037	112.07	38.276	25.74	10.629	0.00026413	18.605	90.533	163.143	-28.699	-141.953	179.066	11.125	-143.777	-137.319	-26.973	86.646	-139.197	-136.568	-134.037	-130.266	142.342	-133.399	-8191	255	
6233.437	1	1	0	0	0.16987	0.39593	0.34697	0.11734	0.12708	0.17115	0.148	0.15875	0.28257	0.15464	0.22619	0.23614	0.1676	0.12509	0.23873	0.079017	-2.8438	-3.375	-2.9167	-3.225	-3.1521	-2.9125	-3.2958	-2.9562	-3.0917	-3.4188	-2.8125	-3.2229	-3.1125	-2.9854	-3.1437	-2.9771	-149.464	160.297	61.044	96.663	158.173	-140.932	51.811	63.668	-68.456	-75.429	126.059	52.736	-152.826	50.596	106.366	187.739	0.00018398	0.00064876	8.2635e-05	223.02	7.288e-06	3.5745e-06	240.96	59.629	7.8858e-06	1.1675e-05	82.493	28.941	17.14	7.3945	8.8317e-06	14.195	0.013956	0.026589	0.0073975	276.2	0.0002484	0.00030015	289.78	76.766	0.00024356	0.00030184	111.75	38.11	25.691	10.569	0.00026045	18.571	142.283	-72.691	-49.356	-142.405	-153.194	-30.100	-143.694	-137.657	106.724	-74.713	-139.643	-136.947	-134.491	-130.367	-18.920	-133.262	-8191	255	
6233.532	1	1	0	0	0.11462	0.15341	0.21048	0.14978	0.11905	0.043611	0.14541	0.28904	0.12168	0.30843	0.22646	0.31147	0.15886	0.11311	0.18279	0.11442	-2.5729	-3.2625	-2.8375	-3.0812	-3.3104	-2.9417	-3.2604	-3.0042	-3.0583	-3.3979	-2.9188	-3.0771	-3.2208	-2.8792	-3.2792	-3.0667	199.127	-35.385	48.204	134.975	99.036	-72.331	140.116	172.839	-69.307	-33.538	122.575	-119.649	-121.893	150.171	58.156	135.821	0.00013707	0.0012534	0.00027699	224.13	1.2302e-05	4.706e-06	241.3	58.518	1.6733e-05	4.8958e-06	82.146	28.554	17.155	7.4651	4.969e-06	14.111	0.013798	0.026156	0.0072905	274.11	0.00024782	0.00029624	288.01	76.304	0.0002425	0.0002983	111.03	37.963	25.604	10.589	0.00025867	18.496	47.220	127.033	200.764	-141.685	-30.427	-76.042	-143.527	-137.645	74.839	131.802	-139.119	-136.658	-134.544	-130.064	61.340	-133.678	-8191	255	
6233.605	1	1	0	0	0.13463	0.30265	0.1952	0.21736	0.40196	0.19147	0.20695	0.09612	0.07582	0.091453	0.12993	0.073161	0.24476	0.24446	0.090141	0.1833	-2.6771	-3.2104	-2.8854	-3.1896	-3.1083	-2.8729	-3.1583	-3.075	-2.9896	-3.3854	-2.8417	-3.0938	-3.1875	-2.8125	-3.2021	-3.0521	-75.570	157.196	-84.745	19.164	190.060	168.749	-86.892	34.133	-6.395	-88.756	143.307	157.168	-141.701	-116.921	46.279	-135.808	0.00043619	0.00058364	0.00015228	220.58	9.3346e-06	5.2491e-06	239.37	59.328	3.2278e-06	8.7212e-06	83.094	28.966	17.103	7.4136	6.763e-06	14.252	0.013991	0.02632	0.0072804	273.86	0.00024419	0.00029249	287.46	76.196	0.00023912	0.00029398	111.05	38.178	25.654	10.596	0.000259	18.667	146.471	-124.475	138.475	-141.977	81.197	-105.471	-143.126	-137.285	189.266	29.357	-139.712	-136.459	-134.449	-130.231	85.375	-132.968	-8191	255	
6233.724	1	1	0	0	0.22096	0.031873	0.20925	0.037751	0.092714	0.089052	0.020086	0.23821	0.1235	0.16898	0.32181	0.40664	0.20389	0.038992	0.062581	0.12514	-2.5521	-3.2833	-2.7938	-3.1292	-3.3104	-2.8167	-3.0854	-3.1229	-2.8167	-3.1771	-2.8458	-2.9292	-3.0583	-2.8396	-3.0396	-3.0333	-98.582	175.115	-90.237	178.114	117.094	-4.241	9.105	132.048	-88.700	-112.645	-78.395	123.861	83.322	150.339	-66.680	108.589	0.00038511	0.00081207	0.00026967	221.6	9.1303e-06	4.073e-06	241.35	59.891	1.3091e-05	5.8924e-06	83.681	29.331	17.262	7.507	8.3659e-06	14.57	0.014228	0.026263	0.007407	275.75	0.000251	0.00029651	289.46	76.875	0.00024399	0.0002965	112.38	38.645	25.878	10.655	0.00025954	18.855	110.601	151.158	-36.374	-142.343	122.443	-89.445	-143.112	-137.380	129.036	41.105	-140.000	-136.738	-134.841	-129.905	-151.770	-133.769	-8191	255	
6233.820	1	1	0	0	0.077502	0.074501	0.078924	0.22937	0.13218	0.11953	0.040133	0.14349	0.11684	0.060327	0.061585	0.31104	0.1784	0.10295	0.061363	0.16248	-2.4062	-3.3104	-3.0687	-3.025	-3.3917	-2.9479	-3.1604	-3.2146	-2.75	-3.3229	-2.9396	-2.9104	-3.4521	-2.8958	-3.1521	-3.0938	-55.048	-34.031	104.591	97.524	144.600	5.385	127.389	-5.235	60.465	-42.028	-40.026	-111.492	116.514	180.282	-97.768	-46.641	0.00020215	0.00040097	0.00024258	221.25	5.8131e-06	1.0198e-05	240.24	59.365	1.6173e-05	1.378e-05	83.863	29.435	17.386	7.5805	1.7148e-05	14.492	0.014098	0.026074	0.0074294	277.07	0.00025153	0.00029953	291.28	77.475	0.00024846	0.00030188	113.4	38.939	26.048	10.741	0.00026401	18.95	3.758	46.868	-86.127	-141.920	-41.253	8.790	-143.027	-137.190	100.451	-119.664	-139.649	-136.535	-134.064	-130.859	-39.669	-132.951	-8191	255	
6233.916	1	1	0	0	0.085731	0.2124	0.15864	0.06498	0.12068	0.16503	0.075451	0.14894	0.24301	0.14857	0.070842	0.23432	0.035008	0.16792	0.14213	0.10075	-2.4667	-3.2167	-3.0333	-2.725	-3.3104	-2.9854	-3.1417	-3.0667	-2.875	-3.2229	-3.1396	-2.8271	-3.2583	-3.1021	-2.875	-3.2208	-86.301	21.024	-39.267	149.654	-78.749	80.530	100.789	-118.180	26.603	-86.864	63.963	-155.085	66.869	72.049	31.050	-63.783	0.00028312	0.00022293	0.00013638	226.78	1.2588e-05	1.0541e-05	245.97	59.657	1.77e-06	9.7764e-06	84.063	29.683	17.707	7.5645	2.002e-05	14.459	0.014393	0.026498	0.0075713	279.52	0.00025241	0.00029943	293.14	77.57	0.00024552	0.00030157	113.67	38.958	26.052	10.74	0.00026593	18.892	94.653	-115.024	-83.026	-141.703	-83.678	156.212	-143.362	-137.764	-104.582	-50.208	-139.610	-136.783	-134.602	-130.683	-8.695	-132.767	-8191	255	
6234.012	1	1	0	0	0.045972	0.13142	0.12505	0.16955	0.25368	0.013797	0.092466	0.24275	0.10816	0.097554	0.13615	0.11855	0.013121	0.084487	0.16232	0.10361	-2.2542	-3.1937	-3.0708	-2.8146	-3.3688	-3.0333	-2.9854	-3.3417	-2.9021	-3.2542	-3.1937	-2.9729	-3.3375	-2.8542	-3.1583	-3.4625	-88.769	128.962	131.953	-72.254	-84.679	-25.429	145.357	166.401	24.084	-49.130	96.874	-65.270	128.390	-96.375	-148.214	72.677	0.00070163	0.00044439	0.00010348	226.55	9.3137e-06	8.8567e-06	242.99	59.919	1.2369e-05	1.059e-05	83.497	29.043	17.34	7.5662	2.1764e-06	14.177	0.014312	0.026409	0.0076435	279.1	0.00025184	0.00030476	292.72	77.648	0.00024855	0.00030117	113.61	38.7	25.916	10.717	0.00026643	18.755	102.681	158.673	-55.755	-141.982	26.855	-153.897	-143.024	-137.099	-115.661	-71.794	-139.629	-136.156	-134.566	-129.962	-82.461	-133.129	-8191	255	
6234.133	1	1	0	0	0.22824	0.15486	0.1485	0.066943	0.23227	0.079043	0.28603	0.21133	0.13053	0.047799	0.11364	0.14472	0.099437	0.065584	0.11045	0.21622	-2.4667	-3.075	-3.1104	-2.7896	-3.1833	-3.1792	-3.0687	-3.1771	-2.9104	-3.3104	-3.25	-2.8792	-3.1479	-2.9688	-2.9417	-3.3937	112.850	79.687	189.798	12.366	-69.098	-118.089	-7.639	103.782	175.891	146.503	12.957	67.229	127.128	-26.886	-53.286	103.157	0.00018211	0.00018807	0.00030027	224.19	4.4148e-06	6.5136e-06	241.36	59.082	4.0764e-06	9.5312e-06	82.321	28.789	17.051	7.2734	8.0468e-06	14.165	0.014232	0.026086	0.0075692	278.04	0.00024838	0.00029791	291.54	77.168	0.00024679	0.00030103	113.15	38.63	25.723	10.629	0.00026816	18.814	93.734	87.411	-5.242	-141.899	88.220	-149.056	-143.443	-137.303	-137.581	84.851	-140.296	-136.297	-134.583	-131.025	-103.062	-133.398	-8191	255	
6234.205	1	1	0	0	0.050397	0.16007	0.25246	0.14297	0.18313	0.18015	0.19859	0.11203	0.26763	0.041755	0.21851	0.23476	0.063446	0.10323	0.15413	0.24573	-2.575	-3.2188	-3.1417	-2.8521	-3.2604	-3.0354	-2.875	-3.4146	-2.9396	-3.0396	-3.2646	-2.7146	-3.2271	-3.1208	-3.0292	-3.1208	-125.474	80.149	118.432	201.693	-153.684	-22.198	54.324	99.535	34.926	119.982	84.041	83.592	139.691	40.686	-93.368	57.217	0.00033498	0.00048725	0.00014317	227.24	2.6809e-05	7.4293e-06	242.78	59.327	2.1322e-05	1.0896e-05	82.441	28.426	17.282	7.397	5.8813e-06	14.239	0.014315	0.026875	0.0076686	279.08	0.00025172	0.00030425	293.41	77.172	0.00024977	0.0003021	112.85	38.565	25.763	10.622	0.00027072	18.657	93.339	17.679	110.178	-141.667	-33.221	78.860	-143.374	-137.628	188.236	4.842	-140.062	-136.700	-134.618	-130.469	25.260	-133.018	-8191	255	
6234.301	1	1	0	0	0.087595	0.27236	0.40887	0.090884	0.091626	0.18016	0.36979	0.1038	0.19064	0.17657	0.12277	0.11499	0.21461	0.10557	0.24403	0.15397	-2.4583	-2.7896	-3.1437	-2.7313	-3.2062	-3.0854	-2.8333	-3.1771	-2.9437	-3.0604	-3.2167	-2.8021	-3.1708	-3.1667	-2.7521	-3.1188	149.949	-38.937	187.496	182.185	-124.546	-139.016	14.601	63.903	111.428	-10.582	156.372	74.370	69.676	48.032	-151.802	90.179	0.00075416	0.00038134	0.00012274	225.5	1.1088e-05	6.6511e-06	241.45	59.291	9.1348e-06	9.4163e-06	82.212	29.226	17.093	7.4143	5.3931e-06	14.177	0.014345	0.026814	0.0076694	277.64	0.00024999	0.00030785	290.52	76.638	0.00025099	0.00030592	112.07	38.238	25.617	10.54	0.00026878	18.435	73.215	-88.963	-78.610	-141.504	-133.058	76.576	-143.024	-136.854	-103.969	43.167	-139.439	-136.255	-134.785	-130.005	-16.254	-133.563	-8191	255	
6234.397	1	1	0	0	0.037766	0.16607	0.08475	0.10528	0.1339	0.10769	0.26752	0.16753	0.18826	0.091905	0.043808	0.088378	0.17908	0.24194	0.19785	0.27344	-2.6063	-2.8875	-3.0812	-2.8688	-3.0062	-3.1688	-2.7625	-3.2271	-3.0271	-2.8917	-3.3646	-2.7771	-2.9792	-3.1667	-2.8979	-3.2396	31.891	131.014	8.812	-75.842	183.182	-121.339	-130.147	164.785	41.379	119.799	160.854	99.678	25.097	191.483	-119.009	155.992	0.00076004	0.00051916	0.00014532	222.31	7.1481e-06	5.5127e-06	239.79	58.887	8.7093e-06	2.7042e-06	83.087	28.455	17.144	7.3078	1.0778e-06	14.075	0.014358	0.027044	0.0075377	275.2	0.0002503	0.000307	288.4	76.274	0.00024925	0.0003056	111.31	37.868	25.579	10.534	0.00026658	18.382	95.327	-95.479	-37.985	-141.365	50.385	15.758	-143.112	-137.430	86.400	93.858	-138.788	-136.277	-134.142	-130.529	128.721	-133.248	-8191	255	
6234.516	1	1	0	0	0.17387	0.2439	0.13154	0.11399	0.087458	0.41669	0.09892	0.061353	0.1744	0.033126	0.16836	0.17498	0.29899	0.094792	0.11243	0.19261	-2.5208	-2.8021	-3.3458	-2.9979	-2.8979	-3.0896	-2.7167	-3.025	-3.1542	-2.8187	-3.0146	-2.9646	-3.0125	-3.15	-2.9479	-3.1396	83.565	-84.317	45.367	122.178	-59.159	93.121	72.071	136.026	16.950	47.501	92.575	170.506	-120.109	-146.846	-25.786	18.735	0.00035122	0.0010535	6.2488e-05	221.78	5.1447e-06	6.9304e-06	237.3	58.969	9.6525e-06	4.0467e-06	81.588	28.606	16.964	7.3187	1.4669e-06	14.185	0.014277	0.026594	0.0074046	274.46	0.00024964	0.0003042	286.98	75.951	0.00024846	0.00030157	111.1	37.938	25.439	10.489	0.00026136	18.461	91.877	26.341	-136.183	-141.495	13.872	-57.988	-143.015	-136.760	135.211	32.644	-139.607	-136.360	-135.075	-130.085	-38.899	-133.379	-8191	255	
6234.612	1	1	0	0	0.15699	0.1965	0.045617	0.093752	0.23487	0.23311	0.091328	0.081096	0.093991	0.14084	0.22713	0.19035	0.12818	0.20413	0.26239	0.070464	-2.6979	-2.7896	-3.0563	-2.875	-2.9167	-3.2875	-2.8	-2.8333	-3.2188	-2.7625	-3.3708	-2.8854	-2.9896	-3.4208	-3.0958	-3.0583	-25.501	191.537	-26.664	-137.996	-29.217	-54.586	34.963	91.914	38.542	36.757	120.837	100.719	-102.031	-17.090	162.180	76.355	0.0003539	0.00067844	2.9057e-05	222.18	3.7071e-06	9.3876e-06	241.3	58.716	1.0839e-05	3.0784e-06	82.161	28.761	17.035	7.4329	7.1525e-06	14.165	0.014208	0.02646	0.0073369	274.79	0.00024885	0.00029987	288.21	75.701	0.00024683	0.0003005	111	38.18	25.564	10.47	0.00026142	18.434	148.507	-103.573	-115.945	-141.612	-86.693	-4.605	-142.949	-137.542	-7.831	23.495	-139.715	-136.075	-133.409	-130.296	123.696	-132.959	-8191	255	
#DATA ENDS
