BOXY.EXE: ISS Imagent and Oximeter Data Acquisition Program Version 0.80
Ascii Record File

#ACQ INFORMATION
2  Detector Channels 
16  External MUX Channels 
1  Auxiliary Channels 
5000  Waveform (CCF) Frequency (Hz)
1  Waveforms Skipped 
30  Waveforms Averaged 
1  Cycles Averaged 
16  Acquisitions per Waveform 
10.0806  Updata Rate (Hz) 

#FILE INFORMATION
TRUE -- External MUX Channel results are PARSED.
FALSE -- AC DC and Phase are NOT grouped.
TRUE -- Companion Program Settings File CREATED.
FALSE -- AC data not excluded
FALSE -- DC data not excluded
FALSE -- Phase data not excluded
FALSE -- Auxillary Chn. data not excluded
Tab delimiters

#CALIBRATION STATE
TRUE -- Waveform Calibration Values APPLIED.


#AUX CALIBRATION VALUES
Val Type	aux-1	

Term	1.0000e+00	
Factor	0.0000e+00	


#WF CALIBRATION VALUES
A = Detector Channel
Val Type	A-AC1	A-AC2	A-AC3	A-AC4	A-AC5	A-AC6	A-AC7	A-AC8	A-AC9	A-AC10	A-AC11	A-AC12	A-AC13	A-AC14	A-AC15	A-AC16	A-DC1	A-DC2	A-DC3	A-DC4	A-DC5	A-DC6	A-DC7	A-DC8	A-DC9	A-DC10	A-DC11	A-DC12	A-DC13	A-DC14	A-DC15	A-DC16	A-Ph1	A-Ph2	A-Ph3	A-Ph4	A-Ph5	A-Ph6	A-Ph7	A-Ph8	A-Ph9	A-Ph10	A-Ph11	A-Ph12	A-Ph13	A-Ph14	A-Ph15	A-Ph16	

Term	0.00000e+00	0.00000e+00	0.00000e+00	0.00000e+00	0.00000e+00	0.00000e+00	0.00000e+00	0.00000e+00	0.00000e+00	0.00000e+00	0.00000e+00	0.00000e+00	0.00000e+00	0.00000e+00	0.00000e+00	0.00000e+00	0.00000e+00	0.00000e+00	0.00000e+00	0.00000e+00	0.00000e+00	0.00000e+00	0.00000e+00	0.00000e+00	0.00000e+00	0.00000e+00	0.00000e+00	0.00000e+00	0.00000e+00	0.00000e+00	0.00000e+00	0.00000e+00	0.00000e+00	0.00000e+00	0.00000e+00	0.00000e+00	0.00000e+00	0.00000e+00	0.00000e+00	0.00000e+00	0.00000e+00	0.00000e+00	0.00000e+00	0.00000e+00	0.00000e+00	0.00000e+00	0.00000e+00	0.00000e+00	
Factor	1.00000e+00	1.00000e+00	1.00000e+00	1.00000e+00	1.00000e+00	1.00000e+00	1.00000e+00	1.00000e+00	1.00000e+00	1.00000e+00	1.00000e+00	1.00000e+00	1.00000e+00	1.00000e+00	1.00000e+00	1.00000e+00	1.00000e+00	1.00000e+00	1.00000e+00	1.00000e+00	1.00000e+00	1.00000e+00	1.00000e+00	1.00000e+00	1.00000e+00	1.00000e+00	1.00000e+00	1.00000e+00	1.00000e+00	1.00000e+00	1.00000e+00	1.00000e+00	X	X	X	X	X	X	X	X	X	X	X	X	X	X	X	X	

B = Detector Channel
Val Type	B-AC1	B-AC2	B-AC3	B-AC4	B-AC5	B-AC6	B-AC7	B-AC8	B-AC9	B-AC10	B-AC11	B-AC12	B-AC13	B-AC14	B-AC15	B-AC16	B-DC1	B-DC2	B-DC3	B-DC4	B-DC5	B-DC6	B-DC7	B-DC8	B-DC9	B-DC10	B-DC11	B-DC12	B-DC13	B-DC14	B-DC15	B-DC16	B-Ph1	B-Ph2	B-Ph3	B-Ph4	B-Ph5	B-Ph6	B-Ph7	B-Ph8	B-Ph9	B-Ph10	B-Ph11	B-Ph12	B-Ph13	B-Ph14	B-Ph15	B-Ph16	

Term	0.00000e+00	0.00000e+00	0.00000e+00	0.00000e+00	0.00000e+00	0.00000e+00	0.00000e+00	0.00000e+00	0.00000e+00	0.00000e+00	0.00000e+00	0.00000e+00	0.00000e+00	0.00000e+00	0.00000e+00	0.00000e+00	0.00000e+00	0.00000e+00	0.00000e+00	0.00000e+00	0.00000e+00	0.00000e+00	0.00000e+00	0.00000e+00	0.00000e+00	0.00000e+00	0.00000e+00	0.00000e+00	0.00000e+00	0.00000e+00	0.00000e+00	0.00000e+00	-2.26776e+02	-1.29708e+02	-1.25081e+02	-1.81324e+02	-8.13396e+01	-6.84428e+01	-1.55273e+02	-1.62015e+02	-8.44135e+01	-6.57107e+01	-1.73287e+02	-1.69603e+02	-1.82427e+02	-1.77112e+02	-7.61088e+01	-1.49999e+02	
Factor	5.15204e-05	1.63359e-04	4.63749e-05	1.65014e-01	2.13459e-06	1.73112e-06	1.63714e-01	5.20409e-02	2.66509e-06	1.65289e-06	8.93901e-02	2.90941e-02	2.44411e-02	9.00888e-03	1.89399e-06	1.31364e-02	1.97274e-05	3.71382e-05	1.04766e-05	8.31389e-02	3.49691e-07	4.20036e-07	7.75769e-02	2.62501e-02	3.44574e-07	4.22086e-07	4.38463e-02	1.42514e-02	1.24700e-02	4.59518e-03	3.71019e-07	6.48508e-03	X	X	X	X	X	X	X	X	X	X	X	X	X	X	X	X	



#DISTANCE SETTINGS
A = Detector Channel
A-1	A-2	A-3	A-4	A-5	A-6	A-7	A-8	A-9	A-10	A-11	A-12	A-13	A-14	A-15	A-16	

2.5000e+00	3.0000e+00	2.5000e+00	3.0000e+00	2.0000e+00	3.0000e+00	1.5000e+00	3.0000e+00	3.0000e+00	3.0000e+00	3.0000e+00	3.0000e+00	3.0000e+00	3.0000e+00	1.5000e+00	3.0000e+00	

B = Detector Channel
B-1	B-2	B-3	B-4	B-5	B-6	B-7	B-8	B-9	B-10	B-11	B-12	B-13	B-14	B-15	B-16	

1.0000e+01	1.0000e+01	1.0000e+01	1.4400e+00	1.0000e+01	1.0000e+01	1.5100e+00	1.9400e+00	1.0000e+01	1.0000e+01	1.9900e+00	2.4900e+00	2.4100e+00	2.9000e+00	1.0000e+01	2.9800e+00	




#DATA BEGINS
time	group	step	mark	flag	A-AC1	A-AC2	A-AC3	A-AC4	A-AC5	A-AC6	A-AC7	A-AC8	A-AC9	A-AC10	A-AC11	A-AC12	A-AC13	A-AC14	A-AC15	A-AC16	A-DC1	A-DC2	A-DC3	A-DC4	A-DC5	A-DC6	A-DC7	A-DC8	A-DC9	A-DC10	A-DC11	A-DC12	A-DC13	A-DC14	A-DC15	A-DC16	A-Ph1	A-Ph2	A-Ph3	A-Ph4	A-Ph5	A-Ph6	A-Ph7	A-Ph8	A-Ph9	A-Ph10	A-Ph11	A-Ph12	A-Ph13	A-Ph14	A-Ph15	A-Ph16	B-AC1	B-AC2	B-AC3	B-AC4	B-AC5	B-AC6	B-AC7	B-AC8	B-AC9	B-AC10	B-AC11	B-AC12	B-AC13	B-AC14	B-AC15	B-AC16	B-DC1	B-DC2	B-DC3	B-DC4	B-DC5	B-DC6	B-DC7	B-DC8	B-DC9	B-DC10	B-DC11	B-DC12	B-DC13	B-DC14	B-DC15	B-DC16	B-Ph1	B-Ph2	B-Ph3	B-Ph4	B-Ph5	B-Ph6	B-Ph7	B-Ph8	B-Ph9	B-Ph10	B-Ph11	B-Ph12	B-Ph13	B-Ph14	B-Ph15	B-Ph16	aux-1	digaux	

6075.588	1	1	0	768	0.05335	0.17635	0.33296	0.074158	0.25053	0.19747	0.42032	0.15558	0.064176	0.20973	0.096112	0.14328	0.054768	0.20337	0.21707	0.075851	-2.4417	-2.3042	-2.7229	-2.8688	-2.55	-3.1083	-2.6292	-2.725	-3.0208	-2.6167	-3.0312	-2.8063	-2.5958	-3.0375	-2.6688	-2.7062	-58.237	13.700	245.546	179.939	-5.040	65.233	214.771	265.234	102.024	199.921	172.121	-60.404	-50.183	210.736	4.004	195.951	0.00017945	0.00016166	6.7643e-05	297.81	4.1205e-06	1.9387e-06	478.7	94.704	4.1181e-06	2.5444e-06	173	54.753	27.239	8.2231	1.4719e-06	20.462	0.0027479	0.0049195	0.001369	296.88	4.6373e-05	5.5127e-05	469.41	94.837	4.653e-05	5.6786e-05	171.73	54.994	28.134	8.618	4.9484e-05	20.774	41.265	188.349	14.601	-50.101	73.453	42.109	-50.694	-45.240	12.021	43.333	-47.043	-43.324	-41.095	-35.837	166.842	-39.114	-8191	255	
6075.684	1	1	0	0	0.035223	0.19549	0.10333	0.22632	0.27491	0.059404	0.2773	0.13887	0.11274	0.02793	0.18006	0.067029	0.22565	0.039472	0.11914	0.14132	-2.4667	-2.5812	-2.825	-2.8812	-2.5125	-3.025	-2.7313	-2.5375	-2.9562	-2.3479	-2.7125	-2.8063	-2.3979	-2.8771	-2.6958	-2.6479	166.720	146.844	204.495	168.526	274.139	8.836	137.655	224.148	119.691	-42.471	10.016	127.854	112.685	144.940	193.210	-33.759	0.0001477	0.00010758	0.00011598	297.42	4.2032e-06	3.7974e-06	482.21	94.026	6.7197e-06	1.1911e-06	171.78	55.124	27.54	8.1838	1.4972e-06	20.341	0.0027546	0.0049253	0.0013733	297.57	4.6892e-05	5.5173e-05	472.47	94.682	4.6319e-05	5.6931e-05	171.56	55.11	28.392	8.6221	5.0142e-05	20.563	91.046	114.629	80.452	-49.512	156.683	74.380	-50.635	-45.037	156.749	-41.389	-47.365	-43.215	-40.808	-36.864	94.122	-39.351	-8191	255	
6075.782	1	1	0	0	0.082124	0.19984	0.088953	0.20611	0.25694	0.097736	0.16231	0.2393	0.20436	0.28866	0.27229	0.064178	0.13103	0.099457	0.18996	0.10068	-2.3937	-2.55	-2.6583	-3.0354	-2.4729	-2.9375	-2.8396	-2.6042	-3.0458	-2.6479	-2.9479	-2.875	-2.5146	-2.8729	-2.6646	-2.5083	-1.174	160.650	63.726	-31.221	49.413	261.794	57.068	52.344	214.380	190.874	-10.889	266.741	38.023	109.521	190.762	-59.354	7.4935e-05	0.00051416	5.487e-05	295.93	2.5322e-06	2.4358e-06	477.23	92.824	2.1589e-06	7.5124e-07	169.86	53.495	26.874	8.1129	3.744e-06	20.026	0.0027269	0.0049751	0.0013845	296.33	4.7718e-05	5.602e-05	467.5	93.098	4.5654e-05	5.6604e-05	169.87	54.101	27.836	8.5643	5.076e-05	20.392	241.475	95.729	99.766	-50.026	108.663	-22.054	-50.825	-45.704	215.021	132.423	-47.241	-43.262	-41.110	-36.945	143.522	-39.060	-8191	255	
6075.877	1	1	0	0	0.16949	0.061276	0.09132	0.24151	0.23679	0.20499	0.14514	0.057384	0.12243	0.051562	0.25916	0.21902	0.014689	0.19315	0.17337	0.22638	-2.5438	-2.6958	-2.6042	-2.9188	-2.4583	-2.8604	-2.8042	-2.6833	-2.9417	-2.7146	-2.7354	-2.9958	-2.6104	-2.8146	-2.9229	-2.7188	247.323	148.508	28.482	233.262	183.427	272.621	229.863	1.479	278.855	234.780	95.378	197.132	119.669	-32.724	294.972	241.202	0.00012429	0.00070819	9.9317e-05	294.34	3.4096e-06	3.2174e-06	475.28	90.07	8.124e-06	2.7563e-06	168.44	53.017	26.34	8.2811	4.8243e-06	20.187	0.0027237	0.005058	0.0013881	295.49	4.7509e-05	5.5839e-05	467.45	90.806	4.6394e-05	5.7278e-05	168.34	53.025	27.33	8.6427	5.1547e-05	20.536	1.929	85.939	-13.490	-49.752	36.990	23.371	-50.809	-45.152	110.230	25.953	-47.312	-43.553	-40.496	-36.310	168.805	-39.153	-8191	255	
6075.973	1	1	0	0	0.20152	0.1416	0.18291	0.28337	0.15612	0.25237	0.087018	0.29965	0.22083	0.082456	0.15251	0.18553	0.10948	0.22534	0.24049	0.086335	-2.7292	-2.7042	-2.7604	-3.0187	-2.3833	-2.9021	-3.0062	-2.5896	-2.9125	-2.7354	-2.6542	-2.9875	-2.5646	-2.7896	-2.875	-2.5125	212.076	40.218	163.745	227.279	-20.260	183.856	257.750	138.168	268.052	131.596	150.830	82.569	-58.675	95.873	35.504	-39.546	0.00021296	0.00013236	9.8504e-05	297.27	5.1708e-06	1.5592e-06	473.83	88.252	3.5726e-06	2.9415e-06	168.02	53.032	26.256	8.284	7.1091e-06	20.54	0.0027597	0.005133	0.0014672	297.47	4.8757e-05	5.8066e-05	467.05	88.889	4.7902e-05	5.9009e-05	168.43	53.148	27.257	8.7059	5.277e-05	20.789	114.280	160.215	119.912	-49.547	146.890	213.444	-50.777	-44.647	-3.858	81.727	-46.769	-43.106	-40.417	-36.441	70.241	-39.630	-8191	255	
6076.069	1	1	0	0	0.2437	0.061607	0.24666	0.18509	0.10743	0.066499	0.063642	0.086908	0.17088	0.1448	0.0731	0.12322	0.10324	0.13774	0.07489	0.31585	-2.4896	-2.7375	-2.5542	-2.95	-2.7667	-2.7896	-3.075	-2.4562	-2.8812	-2.7646	-2.6042	-3.05	-2.4688	-2.7125	-2.9562	-2.4708	-29.918	43.220	97.142	-22.844	127.614	194.637	107.840	230.248	215.342	161.215	235.877	40.415	-31.348	35.336	106.538	177.557	0.00010052	0.00064701	6.0988e-05	296.83	3.4992e-06	1.7364e-06	473.15	88.675	4.0057e-06	8.3235e-07	170.24	53.217	26.21	8.2479	2.7246e-06	20.523	0.0028274	0.0052739	0.0014807	297.27	4.974e-05	5.9121e-05	469.12	89.635	4.783e-05	5.9622e-05	169.55	53.632	27.479	8.758	5.2924e-05	20.777	118.388	180.261	51.794	-49.187	72.757	216.436	-51.060	-45.079	171.852	108.182	-47.245	-42.882	-40.606	-36.723	55.611	-39.653	-8191	255	
6076.190	1	1	0	0	0.14959	0.25451	0.12145	0.16156	0.038168	0.11693	0.06891	0.10744	0.11978	0.3227	0.22988	0.20092	0.23466	0.086385	0.14526	0.084324	-2.25	-2.8271	-2.4667	-3.0271	-2.6604	-2.8438	-3.15	-2.5125	-2.9313	-2.9437	-2.4938	-2.875	-2.625	-2.6208	-3.0104	-2.7188	272.976	205.954	-60.538	108.809	-46.523	226.615	210.932	93.813	-36.474	-46.495	190.542	123.499	-5.157	223.667	187.970	288.944	0.00026661	0.00069097	9.1525e-05	297.11	2.3002e-07	2.1622e-06	473.61	89.856	6.1763e-06	6.365e-06	168.14	52.893	26.481	8.1385	5.5861e-06	20.188	0.0028407	0.0052446	0.0014821	297.74	4.8775e-05	5.7796e-05	467.34	90.669	4.7748e-05	5.9559e-05	168.89	53.424	27.496	8.6326	5.1371e-05	20.526	58.001	-53.088	60.878	-49.530	96.302	135.107	-50.811	-45.137	88.263	55.970	-47.080	-42.644	-40.725	-36.207	-0.145	-39.006	-8191	255	
6076.286	1	1	0	0	0.2369	0.19715	0.11041	0.34499	0.24355	0.14578	0.1697	0.3264	0.087666	0.19721	0.15787	0.13546	0.19607	0.2095	0.1081	0.12918	-2.4771	-2.8312	-2.6813	-3.1729	-2.8479	-2.6917	-3.0438	-2.475	-2.7542	-2.975	-2.5292	-2.8229	-2.6979	-2.5042	-2.9646	-2.6958	77.207	285.987	172.694	242.764	-56.339	-57.265	251.569	109.606	173.451	78.239	166.893	-21.120	-60.356	293.428	-3.177	154.672	0.00017688	0.00034898	5.2534e-05	295.03	1.4721e-06	2.3167e-06	473.5	89.721	8.3375e-06	5.6536e-06	168.34	53.863	26.435	8.2422	2.5074e-06	20.198	0.0027844	0.0051769	0.0014467	296.33	4.8665e-05	5.8036e-05	466.78	90.713	4.7013e-05	5.9588e-05	168.42	53.684	27.655	8.6344	5.1187e-05	20.547	59.643	16.972	202.313	-50.057	264.424	57.797	-51.023	-44.881	107.839	-14.685	-46.838	-43.680	-40.566	-36.680	166.754	-39.332	-8191	255	
6076.382	1	1	0	0	0.18986	0.060342	0.088905	0.18462	0.17501	0.14067	0.18002	0.25499	0.057641	0.13271	0.064077	0.45765	0.097054	0.3368	0.17535	0.17593	-2.3937	-3.1354	-2.5521	-2.8312	-2.7708	-2.9021	-2.9354	-2.65	-2.7667	-3.0208	-2.6083	-3.0312	-2.7604	-2.4542	-2.925	-2.6771	173.025	63.748	110.863	52.223	65.563	60.215	-9.486	-52.147	18.856	56.868	107.153	282.018	-54.387	98.458	-37.383	4.635	0.0001256	6.0251e-05	0.0001089	294.82	3.7377e-06	4.8568e-06	474.92	90.316	2.4102e-06	4.1343e-06	169.63	53.491	26.618	8.2196	6.0857e-06	20.341	0.0028077	0.0051313	0.0014509	297.2	4.8447e-05	5.7449e-05	468.19	91.099	4.7172e-05	5.8999e-05	169.41	53.668	27.813	8.6738	5.1e-05	20.754	18.394	270.194	34.317	-49.864	29.091	54.510	-50.512	-44.972	-40.020	66.176	-47.357	-43.066	-41.024	-35.790	119.697	-39.423	-8191	255	
6076.478	1	1	0	0	0.20511	0.23844	0.2215	0.19653	0.072551	0.18055	0.077274	0.054327	0.12732	0.1809	0.059	0.035856	0.12521	0.10043	0.062758	0.08443	-2.0958	-2.9479	-2.5083	-2.8396	-2.7792	-2.6521	-3.0417	-2.6708	-2.7542	-3.0167	-2.6292	-2.7167	-3.0021	-2.2708	-2.7125	-2.7687	268.717	49.432	230.242	5.924	65.513	282.295	134.668	144.934	146.518	19.353	197.140	92.791	190.465	53.282	273.179	296.761	0.00015407	0.00037214	8.9e-05	297.17	2.8461e-06	2.599e-06	476.16	91.586	2.2015e-06	1.8949e-06	170.8	53.983	26.702	8.2605	1.35e-06	20.377	0.0027874	0.0052233	0.0014714	297.52	5.0078e-05	5.903e-05	469.7	92.176	4.8502e-05	6.0064e-05	170.8	54.282	27.97	8.7293	5.1105e-05	20.788	37.085	-27.527	119.968	-49.793	4.548	67.787	-50.807	-44.855	21.088	18.181	-47.198	-42.715	-40.824	-36.339	280.746	-39.076	-8191	255	
6076.574	1	1	0	0	0.17098	0.17679	0.16562	0.22691	0.10774	0.28424	0.29586	0.29411	0.063272	0.32193	0.20971	0.15255	0.17604	0.11225	0.19551	0.13917	-2.2229	-2.9833	-2.6125	-2.8604	-2.7708	-2.4292	-2.9354	-2.7646	-2.8146	-3.1229	-2.5208	-2.825	-2.9833	-2.5792	-2.9146	-3.0917	12.371	190.439	98.869	-3.125	243.857	46.767	282.377	-48.908	135.298	280.967	-59.032	282.775	218.495	64.578	60.690	242.011	0.00021347	0.00043345	9.8705e-05	296.66	8.4653e-06	2.7153e-06	475.53	90.395	3.5056e-06	2.7956e-06	167.92	53.591	26.688	8.1552	3.7389e-07	20.004	0.0028667	0.0053025	0.0014696	297.3	5.0227e-05	5.8676e-05	467.17	91.673	4.9976e-05	5.9614e-05	168.84	53.602	27.745	8.6408	5.1335e-05	20.455	44.852	2.643	40.075	-49.789	28.614	74.604	-50.578	-44.923	-40.551	104.695	-46.745	-43.225	-40.827	-36.380	225.259	-39.745	-8191	255	
6076.669	1	1	0	0	0.06752	0.19004	0.037202	0.12687	0.11905	0.028456	0.26703	0.25692	0.17621	0.089405	0.055729	0.16404	0.18017	0.37451	0.10914	0.038591	-2.15	-2.9042	-2.6604	-2.7042	-2.9729	-2.6333	-2.9625	-2.8646	-2.4583	-3.1042	-2.775	-2.5625	-2.9833	-2.5083	-2.8208	-2.8458	279.245	106.368	242.250	218.032	151.898	-48.196	215.322	148.797	-28.000	193.952	101.651	184.883	-24.077	-54.937	65.347	99.075	0.0001335	0.00024535	0.00011409	294.73	1.6014e-06	3.5749e-06	469.91	89.93	8.1196e-06	7.5089e-06	167.78	53.223	26.613	8.1262	2.217e-06	20.048	0.0028738	0.0051571	0.0014491	295.37	4.9935e-05	5.8092e-05	464.6	91.111	4.9191e-05	5.927e-05	167.85	53.418	27.638	8.6066	5.178e-05	20.528	3.516	62.313	61.526	-49.498	39.125	65.114	-50.595	-45.351	39.348	95.158	-46.874	-43.526	-41.042	-36.245	177.306	-39.214	-8191	255	
6076.765	1	1	0	0	0.14114	0.19591	0.086312	0.24719	0.062138	0.12968	0.14804	0.092008	0.16073	0.26315	0.22246	0.3364	0.14128	0.033989	0.17931	0.33138	-1.8813	-2.7604	-2.7208	-2.5271	-2.8917	-2.5729	-2.8458	-2.9313	-2.5729	-2.9042	-2.8312	-2.5646	-2.95	-2.625	-2.8771	-3.0792	-31.931	94.769	291.375	150.642	-51.695	197.972	215.340	27.492	2.892	222.742	185.268	276.919	200.546	-47.461	273.173	242.269	0.00026009	0.00027058	5.4623e-05	295.9	7.863e-06	2.8886e-07	475.64	89.854	5.1828e-06	4.4401e-07	168.95	53.227	26.503	8.1401	3.5341e-06	20.325	0.0029382	0.0051907	0.0014857	296.61	5.0736e-05	5.9455e-05	467.47	91.126	4.9647e-05	5.9754e-05	168.51	53.344	27.69	8.6818	5.237e-05	20.664	66.733	-44.542	195.181	-49.508	37.327	155.870	-50.871	-45.345	53.822	50.668	-47.027	-43.060	-41.113	-36.077	-54.003	-39.238	-8191	255	
6076.885	1	1	0	0	0.038574	0.22904	0.21418	0.2839	0.018625	0.059937	0.44605	0.21988	0.27397	0.085039	0.19032	0.24413	0.026861	0.2735	0.073126	0.24221	-2.0542	-3.0062	-2.7125	-2.4917	-2.9604	-2.5833	-2.8917	-2.9396	-2.55	-2.8896	-2.7125	-2.5875	-2.9542	-2.4813	-2.6083	-3.1125	288.600	167.776	251.469	-61.000	-1.367	214.997	257.106	252.169	221.444	232.541	29.616	188.127	88.813	-55.567	30.041	109.168	0.0001823	0.00020649	0.00010727	295.59	3.3491e-06	1.3372e-06	476.71	89.955	3.7225e-06	4.1712e-06	168.23	53.89	26.849	8.3147	2.8797e-06	20.427	0.002912	0.0052394	0.0015136	297.47	5.1181e-05	6.0803e-05	469.31	91.044	4.9699e-05	6.001e-05	169.81	53.852	27.868	8.7659	5.3836e-05	20.854	64.984	-43.928	-55.791	-49.508	84.032	2.421	-50.682	-45.003	36.188	73.257	-47.366	-42.900	-41.259	-36.144	43.993	-39.036	-8191	255	
6076.982	1	1	0	0	0.04784	0.096733	0.087675	0.21232	0.14589	0.18217	0.26071	0.16851	0.256	0.068876	0.19911	0.080582	0.075716	0.22433	0.025363	0.15889	-2.05	-2.7375	-2.8625	-2.6	-2.9396	-2.6958	-2.5854	-2.8396	-2.4313	-2.85	-2.8292	-2.3812	-2.9021	-2.7354	-2.6396	-3.0521	86.442	-17.017	57.323	168.078	234.223	284.318	259.563	-6.009	139.914	110.431	194.166	226.535	201.793	288.328	145.365	225.943	4.7915e-05	0.00061364	0.0001138	297.09	3.8089e-06	3.3821e-06	477	90.911	2.3076e-06	4.6314e-06	169.62	53.446	26.492	8.2059	7.0747e-06	20.104	0.0029428	0.0052158	0.0015056	298.93	4.9322e-05	5.9875e-05	469.92	91.551	4.9502e-05	5.8645e-05	169.93	53.64	27.752	8.6698	5.2282e-05	20.519	3.722	25.968	-30.545	-49.233	41.988	124.308	-50.667	-44.861	252.958	85.239	-47.323	-43.015	-41.077	-36.687	113.862	-39.200	-8191	255	
6077.078	1	1	0	0	0.057038	0.10452	0.16532	0.13187	0.35076	0.18482	0.078381	0.23976	0.074007	0.15073	0.1316	0.28948	0.068619	0.10476	0.23415	0.018735	-2.1292	-2.7271	-2.8042	-2.5146	-2.9208	-2.7687	-2.7042	-3.0521	-2.7438	-2.7583	-2.8417	-2.7375	-2.7333	-2.7729	-2.4396	-2.8875	9.887	141.884	182.628	244.479	187.058	296.069	-31.692	119.647	39.192	99.575	-5.934	243.653	259.268	172.495	254.022	22.127	0.00012675	0.00021913	0.00012958	295.03	6.0357e-06	1.304e-06	474.43	91.539	5.8986e-06	3.7032e-06	170.04	53.343	26.883	8.18	5.3183e-06	20.274	0.0028463	0.0052778	0.0014867	297.11	4.9029e-05	6.0599e-05	467.64	92.017	4.8252e-05	5.8625e-05	169.73	53.621	27.888	8.6195	5.2113e-05	20.586	103.858	189.355	-52.671	-49.886	66.871	-6.066	-50.781	-44.977	5.509	86.661	-46.713	-43.180	-40.734	-36.377	297.015	-38.751	-8191	255	
6077.149	1	1	0	0	0.19273	0.11902	0.17085	0.16619	0.23894	0.26555	0.21065	0.20506	0.11955	0.24	0.1832	0.24457	0.14831	0.17602	0.11634	0.11438	-2.2208	-2.5146	-2.8958	-2.4021	-2.7833	-2.7521	-2.4125	-2.8896	-2.5271	-2.7104	-2.9104	-2.4396	-2.6354	-2.7646	-2.4854	-2.8854	264.454	83.849	126.762	132.275	5.219	113.189	265.930	290.337	125.311	267.368	25.014	245.250	46.228	-27.493	43.864	295.474	0.00015506	0.0003317	0.00013894	295.37	9.0813e-07	1.1058e-06	478.88	91.809	5.6894e-06	6.828e-06	170.89	53.393	26.924	8.1098	7.3127e-06	20.313	0.0028762	0.0051886	0.0014795	297.85	4.9322e-05	5.8593e-05	470.26	92.982	4.8694e-05	5.9961e-05	170.48	53.896	27.974	8.6287	5.2001e-05	20.677	30.185	118.836	63.891	-50.008	107.539	123.317	-50.486	-45.028	78.198	62.978	-47.298	-43.082	-40.983	-35.991	124.680	-39.180	-8191	255	
6077.270	1	1	0	0	0.13847	0.10063	0.10176	0.25551	0.10891	0.16558	0.33837	0.33364	0.026549	0.28415	0.23325	0.12626	0.21999	0.21874	0.1948	0.32034	-2.3958	-2.6813	-2.9208	-2.2229	-2.8021	-2.8417	-2.3563	-2.8167	-2.6208	-2.6667	-3.1562	-2.3771	-2.6271	-2.9917	-2.6542	-2.9188	266.775	245.279	127.542	164.031	-17.129	135.011	274.737	222.581	153.214	253.299	7.490	187.631	-34.187	119.425	115.549	120.465	0.00014608	0.00018558	6.9433e-05	298.2	4.2588e-06	3.5501e-06	475.61	92.508	4.3609e-06	1.5604e-06	171.51	53.944	27.021	8.1832	2.3948e-06	20.485	0.0029112	0.0052556	0.0014907	299	4.9398e-05	6.0314e-05	470.14	93.482	4.9507e-05	5.997e-05	171.14	54.287	28.205	8.7048	5.3056e-05	20.752	68.270	159.331	-8.885	-49.721	90.389	67.122	-50.261	-44.938	179.205	227.862	-46.581	-43.035	-40.360	-36.192	70.342	-39.072	-8191	255	
6077.366	1	1	0	0	0.25359	0.20547	0.21433	0.042566	0.16736	0.1193	0.17652	0.27606	0.16492	0.089373	0.16352	0.207	0.35979	0.15396	0.0891	0.18977	-2.1583	-2.325	-2.9292	-2.575	-2.6813	-2.9958	-2.475	-2.7417	-2.6958	-2.4854	-3	-2.5687	-2.5938	-3.1063	-2.6771	-2.9062	237.696	90.593	122.931	279.698	221.643	81.785	-29.336	185.993	253.584	-11.600	249.428	282.699	43.395	208.948	-45.021	162.701	0.00023178	0.00023702	6.9265e-05	298.28	5.0318e-06	4.8059e-06	477.05	92.321	1.9782e-06	3.4099e-06	169.31	53.33	26.927	8.1599	3.5812e-06	19.796	0.0029133	0.0053146	0.001478	298.73	4.9918e-05	6.0367e-05	468.89	93.021	4.9446e-05	6.0115e-05	169.63	53.856	27.942	8.59	5.321e-05	20.337	79.696	102.571	248.495	-50.268	64.996	0.998	-50.969	-45.029	6.295	19.086	-47.149	-43.368	-41.117	-35.882	41.091	-39.109	-8191	255	
6077.462	1	1	0	0	0.064779	0.10274	0.050046	0.34841	0.26982	0.26072	0.14497	0.088137	0.10949	0.08385	0.25647	0.080051	0.25806	0.059957	0.092718	0.15601	-2.4208	-2.4917	-2.8708	-2.7667	-2.7021	-3.0125	-2.6063	-2.8458	-2.8792	-2.4958	-3.0125	-2.7417	-2.575	-3.0271	-2.4292	-2.8583	284.578	33.694	85.888	228.880	257.968	62.749	278.972	-16.621	-19.722	212.633	-40.098	253.901	-9.344	172.542	-45.266	113.057	0.00015293	0.00028246	4.2166e-05	297.65	4.6652e-06	4.7615e-06	474.68	91.614	3.3514e-06	1.1569e-06	168.05	52.676	26.875	8.0204	3.9434e-06	19.937	0.0028959	0.0053811	0.0014892	297.24	5.0139e-05	6.0331e-05	467.56	92.164	4.9796e-05	6.0003e-05	168.74	53.11	27.743	8.5791	5.2791e-05	20.306	77.654	90.036	149.132	-49.935	39.936	163.217	-50.487	-44.720	0.248	138.321	-46.972	-43.413	-40.938	-36.106	215.531	-39.115	-8191	255	
6077.583	1	1	0	0	0.069302	0.16713	0.094006	0.28707	0.058274	0.10679	0.046946	0.049755	0.10905	0.15667	0.14213	0.20838	0.20006	0.094577	0.22324	0.13782	-2.3667	-2.45	-2.675	-2.6063	-2.6083	-3.1604	-2.5771	-2.7396	-2.8688	-2.425	-2.8375	-2.5687	-2.6042	-2.8083	-2.5646	-2.6208	-60.457	203.257	224.620	284.620	-55.112	6.977	41.585	203.409	59.766	13.825	271.731	279.590	226.820	57.690	36.742	217.859	0.00018066	0.00052914	3.5515e-05	296.01	3.1877e-06	4.3942e-06	475.24	91.993	7.9558e-06	3.5815e-06	169.65	53.68	26.779	8.0845	1.1852e-06	19.995	0.0029744	0.0053406	0.0014714	298.09	5.0094e-05	5.9768e-05	467.7	92.555	5.0241e-05	5.9988e-05	169.45	53.635	27.817	8.6206	5.3531e-05	20.495	31.046	-13.320	42.003	-49.683	261.913	89.305	-50.762	-44.858	-38.437	36.192	-47.339	-42.963	-40.626	-35.474	70.501	-39.074	-8191	255	
6077.677	1	1	0	0	0.13611	0.14928	0.39949	0.096209	0.15394	0.21486	0.23416	0.072091	0.10767	0.31096	0.20106	0.21385	0.18582	0.14236	0.15363	0.33156	-2.5479	-2.6333	-2.6854	-2.7646	-2.5396	-2.9646	-2.625	-2.5312	-3.1437	-2.6229	-2.7375	-2.7958	-2.4021	-2.9271	-2.7687	-2.6833	259.745	-8.741	210.362	6.095	146.704	246.808	32.805	-40.596	287.844	220.841	136.939	240.146	272.455	26.354	-46.608	75.816	9.4391e-05	0.00050256	4.0153e-05	299.61	6.6737e-06	4.8729e-06	477.28	92.624	8.4279e-06	3.1757e-06	170.03	52.923	26.843	8.2448	1.9698e-06	20.185	0.0029498	0.005332	0.0014877	299.3	5.115e-05	6.0405e-05	470.05	92.84	5.0077e-05	6.069e-05	169.85	53.655	27.922	8.7002	5.4027e-05	20.663	50.040	17.728	100.533	-49.283	129.431	66.413	-50.639	-44.835	-1.166	71.698	-47.271	-43.114	-40.687	-35.734	-12.886	-39.346	-8191	255	
6077.751	1	1	0	0	0.12466	0.21553	0.12166	0.12918	0.21567	0.060063	0.24968	0.14328	0.074031	0.27402	0.2146	0.061252	0.17459	0.25871	0.20346	0.16239	-2.4333	-2.5542	-2.8917	-3.0208	-2.5812	-2.975	-2.7271	-2.6854	-2.9833	-2.5312	-2.7896	-2.7917	-2.5083	-2.8333	-2.8292	-2.6083	152.602	47.635	191.098	274.407	109.379	106.910	280.585	163.263	213.545	167.969	229.874	106.731	221.926	12.821	-25.322	224.230	0.00019263	0.00015051	9.6981e-05	298.91	1.9159e-06	4.4894e-06	477.46	91.758	6.6746e-06	3.9389e-06	168.08	52.544	26.511	8.1291	1.738e-06	19.828	0.0029728	0.0053636	0.0015322	300.49	5.1818e-05	6.076e-05	471.08	92.499	5.1428e-05	6.1753e-05	168.95	53.142	27.699	8.6453	5.5184e-05	20.273	47.729	55.649	24.136	-49.980	166.028	239.589	-50.895	-45.063	92.076	-3.633	-46.917	-43.077	-40.324	-36.233	-47.164	-39.278	-8191	255	
6077.870	1	1	0	0	0.046877	0.19951	0.016498	0.14122	0.12864	0.31295	0.27033	0.2377	0.23483	0.33426	0.11463	0.15272	0.13291	0.19167	0.098216	0.19968	-2.45	-2.5083	-2.6729	-2.7979	-2.3396	-2.8292	-2.8146	-2.5	-3.0146	-2.6646	-2.7333	-2.9896	-2.5062	-2.95	-3.0354	-2.6167	222.064	48.403	246.473	121.061	81.518	150.919	296.682	209.018	8.046	257.882	56.997	176.366	170.784	85.129	253.573	7.776	0.00014758	0.00049915	6.1514e-05	296.74	5.8179e-06	6.1091e-06	476.77	90.583	6.4984e-06	9.7453e-07	166.72	52.263	26.511	7.9811	5.5132e-06	19.521	0.0030149	0.005423	0.0015131	298.51	5.132e-05	6.1201e-05	467.73	91.711	5.1294e-05	6.355e-05	167.17	52.749	27.533	8.5374	5.6622e-05	20.023	114.757	-8.901	31.411	-49.756	253.635	53.818	-51.016	-45.193	181.754	217.539	-47.105	-42.768	-40.574	-36.128	119.315	-38.797	-8191	255	
6077.966	1	1	0	0	0.034322	0.022531	0.27495	0.16507	0.15408	0.020415	0.061108	0.1038	0.06737	0.16838	0.32002	0.20155	0.19212	0.23788	0.043129	0.092274	-2.3604	-2.7021	-2.6521	-2.8688	-2.4938	-2.8479	-2.7562	-2.4292	-2.9021	-2.8229	-2.7646	-3.0333	-2.6229	-2.7229	-2.8187	-2.6917	56.561	277.830	190.070	48.994	200.334	273.578	-42.511	170.505	293.395	197.159	227.452	296.532	25.040	91.738	122.552	38.802	0.00019545	0.00038618	6.0532e-05	298.13	3.4356e-06	2.0294e-06	475.47	90.159	1.9201e-06	3.5058e-07	166.51	52.461	26.414	8.0519	4.2569e-06	19.605	0.0030123	0.005557	0.0015498	299.34	5.2718e-05	6.165e-05	468.47	91.557	5.2244e-05	6.2645e-05	166.8	52.883	27.6	8.5792	5.5746e-05	20.065	27.811	65.168	288.950	-49.609	99.835	36.500	-50.465	-44.941	113.398	-23.145	-46.760	-42.635	-40.807	-35.822	38.334	-39.408	-8191	255	
6078.062	1	1	0	0	0.18315	0.10659	0.028536	0.11897	0.22901	0.098445	0.32991	0.14983	0.085807	0.10724	0.068653	0.058573	0.061956	0.20056	0.050575	0.16464	-2.5542	-2.775	-2.5833	-3.1333	-2.5792	-2.8042	-3.0104	-2.5146	-2.8021	-2.7083	-2.6417	-3.075	-2.4896	-2.7979	-2.8792	-2.5812	30.100	253.818	-15.609	17.954	-44.299	-1.086	226.605	122.255	250.650	-53.893	260.959	222.468	213.584	-57.898	287.903	257.046	0.00013103	7.658e-05	3.8657e-05	300.66	1.0293e-06	2.7456e-06	477.72	90.871	5.5914e-06	3.7288e-06	167.32	52.758	26.815	8.0538	4.1572e-06	19.637	0.0030025	0.0055938	0.0015728	301.89	5.2152e-05	6.2591e-05	471.1	91.849	5.1237e-05	6.46e-05	167.81	53.124	27.837	8.5933	5.6937e-05	20.17	99.634	-28.932	-11.893	-50.059	240.999	88.832	-50.726	-45.273	235.050	169.472	-46.771	-43.000	-40.720	-36.268	148.919	-38.987	-8191	255	
6078.183	1	1	0	0	0.023073	0.13495	0.1568	0.20624	0.30659	0.15982	0.066867	0.15673	0.14197	0.31666	0.12201	0.09679	0.21848	0.34348	0.0887	0.20926	-2.3979	-2.6813	-2.5938	-2.8937	-2.6375	-2.7583	-3.0625	-2.6042	-2.8667	-2.7042	-2.6583	-2.725	-2.5812	-2.5729	-3.0229	-2.5771	122.599	176.731	165.423	-17.137	98.738	173.860	229.167	271.481	107.351	-17.877	196.010	-52.355	39.338	287.678	201.684	122.991	0.00018695	0.00034967	0.00011147	303.42	1.5646e-06	4.456e-06	478.76	91.694	4.6363e-06	6.8027e-06	167.12	52.379	26.266	8.1138	7.0375e-07	19.397	0.0029862	0.0057079	0.0016126	303.41	5.3291e-05	6.3393e-05	472.64	92.789	5.2539e-05	6.5973e-05	168.57	53.049	27.778	8.5316	5.6876e-05	19.851	71.381	204.635	-2.052	-49.353	59.057	53.087	-50.840	-44.997	0.179	108.116	-46.799	-42.721	-40.608	-35.873	160.107	-38.891	-8191	255	
6078.279	1	1	0	0	0.17096	0.18035	0.17053	0.27903	0.22674	0.054848	0.12166	0.1122	0.24336	0.10236	0.22953	0.22455	0.23665	0.09371	0.029456	0.11501	-2.4	-2.9521	-2.4938	-3.0229	-2.6271	-2.6667	-3.0146	-2.5021	-2.9083	-2.9125	-2.6146	-3.0167	-2.7458	-2.4917	-3.1667	-2.6375	296.892	17.453	40.178	-33.022	117.363	52.181	-41.075	168.219	287.678	58.636	203.485	-17.721	217.092	232.445	4.325	0.174	0.00014616	0.00047398	8.0288e-05	300.19	1.7168e-06	7.4665e-06	479.88	91.775	3.1071e-06	5.1706e-06	165.85	52.122	26.777	7.9617	2.4744e-06	19.417	0.0030453	0.0057649	0.0015931	302.45	5.2704e-05	6.339e-05	471.32	92.735	5.0819e-05	6.3944e-05	167.09	52.811	27.851	8.5336	5.4257e-05	19.851	82.304	99.623	-60.752	-49.666	20.746	87.359	-50.686	-45.034	226.486	38.189	-46.452	-43.340	-40.863	-36.160	109.169	-38.555	-8191	255	
6078.375	1	1	0	0	0.19074	0.22244	0.043441	0.28066	0.17566	0.17676	0.11429	0.032358	0.027741	0.049006	0.10218	0.13045	0.13079	0.24415	0.085044	0.21796	-2.3875	-3	-2.6396	-2.8333	-2.8083	-2.6771	-3.0583	-2.5229	-2.6542	-2.8125	-2.5729	-2.825	-2.8625	-2.4833	-3.1063	-2.7604	87.204	197.657	174.700	262.377	70.334	265.235	280.428	-13.447	189.584	130.230	206.976	277.511	279.207	-32.088	8.392	231.369	5.624e-05	0.00034188	8.2942e-05	302.37	3.7938e-06	3.0897e-07	475.86	92.782	8.2542e-06	3.6766e-06	168.26	52.583	26.786	8.034	1.3051e-06	19.758	0.0029816	0.0055113	0.0015692	301.42	5.2259e-05	6.2501e-05	471.08	93.064	5.0847e-05	6.2754e-05	167.85	53.256	27.964	8.5877	5.3621e-05	20.071	59.453	17.919	43.104	-49.880	74.020	224.610	-50.894	-45.070	86.487	87.777	-47.033	-42.937	-40.680	-36.698	81.395	-39.356	-8191	255	
6078.447	1	1	0	0	0.17566	0.21886	0.073157	0.13801	0.091791	0.10119	0.26732	0.20384	0.10151	0.12105	0.17168	0.069276	0.17798	0.17577	0.035094	0.21846	-2.1646	-2.9958	-2.6042	-2.9229	-2.8812	-2.4708	-3.0042	-2.5958	-2.6208	-3.0125	-2.7375	-2.8479	-2.9708	-2.5812	-3.0875	-2.8021	-29.803	232.893	21.925	124.311	53.813	168.653	-52.398	132.203	120.885	68.000	267.387	288.636	264.006	250.450	-49.859	-47.469	0.00013714	0.00031465	0.00013189	299.28	9.2225e-06	4.3741e-08	476.05	93.076	4.221e-06	5.635e-06	168.66	53.008	27.014	8.0939	5.0207e-06	20.029	0.0029554	0.005422	0.0015166	300.97	5.205e-05	6.1986e-05	470.49	93.809	5.0942e-05	6.1958e-05	169.35	53.848	28.267	8.6586	5.3737e-05	20.369	79.767	117.158	54.936	-49.746	62.770	18.465	-50.729	-45.331	-2.920	112.999	-47.274	-42.984	-41.149	-36.561	47.872	-38.911	-8191	255	
6078.565	1	1	0	0	0.22942	0.081988	0.20339	0.084906	0.2398	0.17359	0.076255	0.13437	0.050031	0.12757	0.11862	0.062375	0.20986	0.10236	0.09254	0.043461	-2.2167	-3.0062	-2.4833	-2.8688	-2.8333	-2.5563	-2.9313	-2.8896	-2.4979	-3.0208	-2.6792	-2.8458	-2.7562	-2.3625	-2.8438	-2.9146	184.787	32.600	-54.092	235.294	246.877	-61.535	214.625	78.539	79.403	171.794	135.694	124.360	-52.373	103.033	192.712	7.156	0.00021196	0.00048294	2.9303e-05	297.99	5.5647e-06	8.3706e-07	482.49	93.178	4.7871e-06	4.2764e-06	169.6	53.925	27.04	8.1297	8.0336e-07	19.825	0.0029606	0.0054883	0.0015491	300.38	5.1964e-05	6.1361e-05	473.21	94.334	5.044e-05	6.0903e-05	169.49	54.215	28.31	8.6513	5.387e-05	20.34	53.449	77.208	79.695	-49.375	91.496	-15.315	-51.128	-45.400	-51.098	204.669	-47.252	-43.100	-41.378	-36.811	262.836	-38.675	-8191	255	
6078.662	1	1	0	0	0.3454	0.01438	0.14957	0.049284	0.18843	0.28654	0.12539	0.13305	0.13605	0.1571	0.16513	0.085345	0.0506	0.23415	0.19033	0.24247	-2.1292	-3.0292	-2.5167	-2.7583	-3.0854	-2.6354	-2.975	-2.8979	-2.4833	-3.0146	-2.675	-2.7104	-2.9083	-2.4375	-3.0521	-2.7458	221.833	109.421	288.732	209.425	121.897	45.384	138.770	-40.603	284.084	-4.934	113.277	173.829	-21.665	68.361	31.515	69.634	8.6764e-05	0.00022955	0.00021144	297.82	6.0398e-06	2.0383e-06	475.89	92.906	5.6583e-06	6.8907e-06	168.11	53.344	27.246	8.1852	5.987e-06	19.811	0.0029539	0.0053238	0.0015091	299.28	5.1968e-05	6.0538e-05	469.39	93.852	5.0547e-05	6.0354e-05	168.41	53.694	28.267	8.646	5.2347e-05	20.18	48.700	71.338	-22.544	-50.020	114.001	226.118	-50.694	-44.693	23.488	100.850	-46.904	-42.964	-41.426	-35.758	78.264	-38.867	-8191	255	
6078.758	1	1	0	0	0.1037	0.024246	0.14711	0.063719	0.16833	0.076106	0.063989	0.34224	0.11309	0.12928	0.23409	0.089243	0.18815	0.31572	0.086308	0.14932	-2.1542	-2.7521	-2.7146	-2.6271	-2.9771	-2.6208	-2.7438	-2.6792	-2.4875	-2.9333	-2.6354	-2.75	-2.8979	-2.4625	-2.8792	-3.0271	-3.668	120.819	238.993	266.042	282.534	23.844	289.776	77.077	99.531	65.277	21.691	123.869	263.089	2.056	-37.468	162.535	0.00024753	0.0006381	0.00011679	297.63	3.3685e-06	5.5666e-06	475.88	92.746	5.3215e-06	5.9085e-06	169.03	53.334	27.301	8.1939	2.0216e-06	19.84	0.0029297	0.0053002	0.0014763	299.35	5.0076e-05	5.9357e-05	469.33	93.785	5.0151e-05	6.0109e-05	169.09	53.803	28.33	8.6383	5.2499e-05	20.194	59.351	125.061	147.497	-49.704	104.775	61.118	-50.931	-45.182	30.090	106.864	-46.563	-43.018	-41.128	-35.770	106.894	-38.972	-8191	255	
6078.854	1	1	0	0	0.10018	0.17114	0.15774	0.13777	0.11012	0.16529	0.14352	0.18935	0.15156	0.050045	0.075477	0.18046	0.1146	0.036401	0.23314	0.20391	-2.2125	-2.7229	-2.8187	-2.4458	-2.9417	-2.6583	-2.825	-2.925	-2.5083	-2.9729	-2.8896	-2.6542	-3.0583	-2.6708	-2.6729	-2.9333	197.938	-52.928	195.810	259.874	-17.815	207.698	163.600	-59.186	-54.269	113.888	228.716	223.084	193.201	40.490	-38.235	271.787	0.00016457	0.00020962	6.5717e-05	298.17	4.4333e-07	3.1659e-06	477.48	93.3	5.1453e-06	5.1083e-06	171.17	53.611	27.605	8.2525	3.264e-06	20.18	0.002898	0.0052619	0.0015301	299.95	5.0447e-05	6.0655e-05	471.11	94.635	5.0104e-05	6.0816e-05	170.86	54.103	28.487	8.7177	5.3842e-05	20.448	60.013	-16.693	49.780	-49.906	36.670	60.786	-50.539	-45.236	103.046	54.329	-47.021	-42.845	-41.094	-35.676	125.803	-39.143	-8191	255	
6078.974	1	1	0	0	0.080701	0.13832	0.25159	0.25819	0.2366	0.034331	0.080058	0.12849	0.10945	0.096131	0.31063	0.38063	0.046101	0.29327	0.13009	0.31433	-1.9042	-2.8792	-2.6625	-2.5542	-2.8604	-2.75	-2.8583	-3.15	-2.6479	-3.0812	-2.7958	-2.5938	-2.8229	-2.7146	-2.6271	-3.1833	295.839	-31.840	-30.748	199.220	278.070	230.619	20.697	104.128	-1.127	230.396	7.895	6.726	266.386	70.900	69.977	248.545	8.8462e-05	0.00045601	5.5549e-05	302.23	6.8178e-06	5.8321e-06	481.65	94.515	6.2122e-06	7.7947e-06	171.19	53.5	27.087	8.2545	2.9112e-06	20.126	0.0029095	0.005254	0.0015443	302.98	5.0679e-05	6.1048e-05	474.38	94.84	5.029e-05	6.1411e-05	171.22	54.239	28.281	8.7631	5.387e-05	20.559	3.348	95.315	270.722	-50.099	55.142	99.302	-50.313	-45.083	20.740	32.046	-47.034	-43.260	-40.837	-35.786	277.308	-39.146	-8191	255	
6079.046	1	1	0	0	0.12997	0.10201	0.14374	0.06662	0.048879	0.084382	0.37076	0.24546	0.030602	0.28106	0.04604	0.08217	0.10432	0.095097	0.073604	0.19776	-2.1792	-2.9271	-3.0875	-2.4646	-2.8646	-2.8438	-2.6958	-2.9125	-2.8	-2.8917	-2.95	-2.4458	-2.9771	-2.7417	-2.7167	-3.025	30.428	-59.774	117.628	227.009	18.864	81.944	215.863	-42.149	159.082	83.611	276.092	-16.080	-37.828	-41.164	117.739	211.208	0.0002515	1.4064e-05	0.00015239	300.47	5.8449e-06	1.0243e-06	482.23	93.4	6.7291e-06	1.4891e-06	170.75	52.86	26.907	8.0757	4.1561e-06	20.045	0.0029576	0.0053464	0.001561	301.37	5.0173e-05	6.0863e-05	472.38	93.865	4.9796e-05	6.0236e-05	170.61	53.493	28.016	8.6543	5.3097e-05	20.264	36.168	23.258	28.999	-49.601	102.792	127.324	-50.894	-44.889	-31.744	225.058	-47.296	-42.906	-41.093	-36.455	41.166	-39.357	-8191	255	
6079.142	1	1	0	0	0.15447	0.085526	0.19851	0.15732	0.031644	0.22935	0.15124	0.16957	0.22218	0.19365	0.16288	0.064718	0.093655	0.16577	0.16677	0.24589	-2.25	-2.7062	-2.7521	-2.5729	-2.9042	-2.8563	-2.5875	-2.9	-2.7	-2.7687	-2.975	-2.6917	-2.9667	-2.8688	-2.5417	-2.7875	225.724	233.642	85.164	17.115	99.436	41.957	264.782	149.411	177.991	214.549	161.158	131.947	188.153	55.035	51.676	39.803	0.00015687	0.00050064	2.8629e-05	299.14	5.0206e-06	1.1076e-06	481.77	92.173	3.4736e-06	5.2057e-07	172.39	52.529	26.942	8.2543	4.8384e-06	20.078	0.0028412	0.0052542	0.001506	300.27	4.9663e-05	5.9841e-05	472.06	93.523	4.995e-05	6.0684e-05	170.95	53.341	28.015	8.7258	5.2926e-05	20.393	92.142	65.308	222.782	-49.650	30.255	168.100	-50.704	-45.350	283.449	37.561	-47.337	-43.206	-40.538	-36.361	94.955	-38.678	-8191	255	
6079.263	1	1	0	0	0.10561	0.19194	0.12476	0.18675	0.10659	0.15761	0.31197	0.05937	0.18086	0.11773	0.12057	0.30892	0.1221	0.15053	0.23495	0.20601	-2.3604	-2.55	-2.9813	-2.6792	-2.9875	-3.0687	-2.4875	-3.0396	-2.925	-2.7896	-3.1729	-2.8792	-2.7896	-3.0458	-2.6146	-2.9854	58.535	-27.875	13.854	219.225	293.715	98.195	223.843	158.885	102.626	283.011	174.510	234.254	85.433	-36.129	-19.770	246.938	0.00021202	0.00062437	2.653e-05	299.77	4.1106e-06	4.2753e-06	481.37	92.995	3.1694e-06	4.3062e-06	171.18	53.654	26.991	8.3858	5.3581e-06	20.092	0.002897	0.0052715	0.0014845	300.12	4.8826e-05	6.0932e-05	473.19	93.868	4.8125e-05	5.9877e-05	171	53.809	28.148	8.8169	5.2194e-05	20.604	63.530	39.044	185.691	-49.427	126.232	217.401	-50.651	-45.300	82.971	22.755	-47.233	-43.380	-40.825	-36.166	57.226	-39.403	-8191	255	
6079.359	1	1	0	0	0.14747	0.28563	0.14122	0.079618	0.13036	0.18315	0.19887	0.19004	0.19807	0.012889	0.44032	0.24527	0.065539	0.075581	0.029963	0.099254	-2.3458	-2.6229	-2.9188	-2.5042	-2.7729	-3.1271	-2.7188	-2.9208	-2.7896	-2.5542	-3.0917	-2.5771	-2.5625	-3.0042	-2.5896	-2.9208	67.419	241.016	20.208	295.409	234.900	95.832	189.125	-30.454	26.625	81.139	173.513	57.395	48.232	167.874	0.694	271.883	0.00020685	0.00058643	4.8173e-05	298.92	5.8692e-06	3.8891e-06	480.45	92.831	3.0927e-06	1.9751e-06	172.37	53.928	27.259	8.4215	2.1378e-06	20.168	0.002847	0.005263	0.0014478	301	4.8604e-05	5.9347e-05	474.38	94.206	4.8873e-05	5.8902e-05	172.41	54.241	28.332	8.8468	5.0994e-05	20.572	49.958	-2.819	68.210	-49.593	120.347	133.120	-50.796	-45.104	149.999	98.522	-47.060	-42.895	-40.648	-36.079	56.546	-39.042	-8191	255	
6079.455	1	1	0	0	0.15691	0.060002	0.37104	0.18562	0.096438	0.22934	0.22227	0.081238	0.10129	0.1847	0.32378	0.12314	0.038286	0.10925	0.17432	0.29794	-2.4771	-2.5458	-2.9125	-2.6688	-2.7521	-3.1292	-2.4896	-2.8375	-2.9917	-2.5854	-3.0917	-2.775	-2.6271	-2.9437	-2.8042	-3	85.994	74.282	259.270	103.727	186.738	271.943	177.972	143.368	-3.641	49.674	247.950	215.265	-1.897	123.186	39.560	-29.442	0.0001836	0.00017442	6.0552e-05	300.77	6.5446e-06	4.3019e-06	480.23	93.646	3.3724e-06	4.3179e-06	170.81	53.134	27.241	8.2129	3.7895e-06	19.989	0.0028694	0.0051131	0.0014297	300.74	4.7958e-05	5.7813e-05	473.98	94.545	4.8474e-05	5.7536e-05	170.35	53.664	28.194	8.719	5.059e-05	20.304	93.187	269.592	12.897	-49.999	146.273	131.982	-50.810	-45.378	64.516	89.834	-47.261	-42.845	-41.153	-35.993	-11.255	-39.156	-8191	255	
6079.551	1	1	0	0	0.23234	0.33477	0.066663	0.11387	0.16752	0.11196	0.26527	0.25639	0.19377	0.056921	0.26515	0.13285	0.21634	0.12746	0.088766	0.21196	-2.3854	-2.4562	-2.8979	-2.9208	-2.9208	-3.1208	-2.6458	-2.7771	-2.9875	-2.6479	-3.1229	-2.7667	-2.6104	-3.0667	-2.7354	-2.8104	31.373	-51.595	236.383	-44.281	-0.789	199.056	272.532	-57.219	-48.084	-46.314	213.801	205.894	147.622	197.116	281.069	173.810	0.00017062	0.00038887	8.196e-05	299.85	3.6801e-06	5.5008e-06	479.97	93.542	6.9117e-06	2.3548e-06	170.65	52.973	26.916	8.2624	3.0176e-06	20.186	0.0028246	0.0050949	0.0014033	300.83	4.7404e-05	5.7511e-05	472.03	94.31	4.7382e-05	5.7021e-05	170.52	53.561	28.109	8.751	5.0088e-05	20.469	61.380	30.050	-7.228	-49.835	-24.964	67.013	-51.249	-45.029	4.573	124.131	-46.563	-43.429	-40.566	-36.528	105.724	-39.159	-8191	255	
6079.648	1	1	0	0	0.1587	0.18594	0.18001	0.28328	0.056201	0.038288	0.23809	0.16927	0.081601	0.12798	0.10014	0.31216	0.17915	0.085088	0.15333	0.28373	-2.6063	-2.35	-2.9646	-2.8958	-2.7771	-3.1125	-2.6729	-2.8812	-3.0917	-2.5563	-3.1042	-2.85	-2.675	-3.2646	-2.9437	-2.9458	250.242	23.996	295.879	274.537	173.367	-37.074	15.434	283.476	132.574	257.375	-24.052	159.615	213.675	-41.510	268.498	219.109	0.00016011	0.00044419	0.00012577	301.3	1.5475e-06	5.8926e-06	480.28	93.85	9.1071e-06	2.3647e-06	171.46	53.273	27.394	8.3738	3.0081e-06	20.354	0.0027922	0.0050311	0.0013875	301.26	4.7689e-05	5.6349e-05	473.54	94.346	4.7118e-05	5.7034e-05	171.82	53.744	28.26	8.8241	5.0986e-05	20.623	76.230	8.382	89.818	-49.566	184.519	126.840	-50.938	-45.145	64.567	99.327	-47.298	-43.045	-40.630	-35.266	84.018	-38.430	-8191	255	
6079.742	1	1	0	0	0.25983	0.026123	0.17672	0.13787	0.097319	0.090716	0.20201	0.17337	0.092587	0.32602	0.21598	0.11728	0.10963	0.091424	0.078577	0.094726	-2.6583	-2.6333	-2.8438	-2.9875	-2.5687	-3.2	-2.6042	-2.7604	-2.9813	-2.6021	-2.75	-3.0396	-2.6604	-2.9104	-2.7896	-2.6979	-48.552	115.155	240.004	278.761	99.782	-33.847	254.440	62.948	239.004	-0.910	167.073	221.432	115.902	189.781	223.896	266.932	0.00014484	0.00017541	0.00011427	300.86	2.1961e-06	1.5817e-06	481.81	93.123	1.4097e-06	7.2066e-06	171.99	54.245	27.175	8.4762	4.448e-06	20.33	0.0028513	0.0050705	0.0013917	301.67	4.7675e-05	5.657e-05	474.64	94.623	4.7541e-05	5.8329e-05	172.89	54.365	28.438	8.8962	5.1427e-05	20.72	48.110	-27.488	129.247	-49.903	138.681	56.537	-50.605	-45.075	-15.348	117.729	-47.128	-43.437	-41.116	-35.658	37.334	-38.729	-8191	255	
6079.863	1	1	0	0	0.1254	0.031441	0.27971	0.20704	0.27699	0.0092991	0.39307	0.1015	0.21259	0.10597	0.057078	0.13229	0.072327	0.030108	0.22924	0.092215	-2.5104	-2.4333	-2.5917	-2.8708	-2.4688	-2.9	-2.7042	-2.6229	-3.0438	-2.5646	-2.7125	-3.1729	-2.3229	-2.9313	-2.7812	-2.7771	138.041	286.326	31.616	263.523	49.686	-26.031	16.003	-50.302	250.776	-57.360	-34.355	272.055	136.832	295.781	227.744	87.009	0.00024692	0.00051688	7.2467e-05	302.99	9.5873e-07	3.6432e-06	480.87	93.432	2.4406e-06	4.1089e-06	171.05	53.413	27.216	8.2827	2.3183e-06	20.186	0.0028021	0.0051019	0.0014266	301.94	4.8672e-05	5.6235e-05	474.38	94.443	4.6893e-05	5.8237e-05	171.57	53.818	28.217	8.8318	5.0817e-05	20.465	49.547	1.796	78.643	-49.917	10.525	-10.198	-51.005	-44.830	264.195	151.940	-47.181	-42.824	-40.732	-36.580	183.025	-39.203	-8191	255	
6079.959	1	1	0	0	0.095179	0.2078	0.2236	0.19812	0.16792	0.31554	0.19693	0.26775	0.030725	0.097986	0.27641	0.066264	0.18204	0.14637	0.13352	0.14217	-2.4479	-2.4938	-2.5896	-3.0417	-2.5625	-3.0104	-2.7708	-2.5125	-2.8771	-2.7729	-2.8187	-3.0354	-2.4813	-2.9	-3.0229	-2.325	220.913	261.871	30.162	246.991	294.219	-7.938	-56.414	-22.864	198.412	144.387	214.744	149.753	69.184	111.623	256.428	284.391	0.00018605	0.00013945	0.00016377	301.34	2.9238e-06	5.2881e-06	478.99	93.016	4.6723e-06	3.1646e-06	171.91	53.343	26.823	8.518	1.0026e-05	20.192	0.0027613	0.0050526	0.0014049	300.88	4.7316e-05	5.6561e-05	471.94	93.687	4.7573e-05	5.7663e-05	170.83	53.648	27.962	8.9004	5.1194e-05	20.509	49.909	293.979	58.244	-49.724	116.054	97.512	-50.968	-45.160	61.779	25.619	-47.352	-43.077	-40.977	-35.816	125.690	-38.923	-8191	255	
6080.055	1	1	0	0	0.04286	0.044878	0.1781	0.1803	0.37879	0.17451	0.099581	0.12638	0.081184	0.28243	0.13108	0.18938	0.13001	0.1406	0.26674	0.3105	-2.425	-2.6125	-2.7687	-2.9396	-2.5187	-2.9	-3.0021	-2.5938	-3.1083	-2.8646	-2.6729	-2.8937	-2.7062	-2.6542	-3.0854	-2.6146	-6.696	135.162	245.831	-47.958	101.252	112.646	134.464	256.899	192.271	272.094	241.534	259.857	-15.698	111.637	217.977	279.265	0.0002183	0.00018185	0.00010665	300.4	7.3577e-06	5.586e-06	478.94	91.763	2.1375e-06	9.552e-07	171.4	53.327	27.435	8.5076	2.1488e-06	20.32	0.0027933	0.0051922	0.0014284	300.67	4.8211e-05	5.7693e-05	471.33	93.302	4.6713e-05	5.8053e-05	170.62	53.551	28.249	8.9516	5.0949e-05	20.755	63.689	97.502	63.665	-49.976	103.355	83.868	-50.491	-44.307	125.091	240.602	-47.096	-43.146	-41.195	-35.745	38.113	-38.960	-8191	255	
6080.151	1	1	0	0	0.237	0.079277	0.18705	0.19317	0.17875	0.048996	0.25856	0.1171	0.25231	0.1746	0.2442	0.2567	0.088505	0.13097	0.10976	0.025677	-2.4188	-2.7333	-2.5146	-3.2021	-2.8104	-2.9	-3.0438	-2.475	-2.9354	-2.8563	-2.6354	-3.1542	-2.6937	-2.8667	-3.0104	-2.4917	242.463	-30.296	226.440	-52.634	261.736	73.020	-52.537	192.156	234.301	44.533	39.976	201.106	177.129	127.092	19.011	196.096	7.92e-05	0.00062353	0.00013999	299.47	7.2732e-06	3.8918e-06	479.11	92.541	6.8048e-06	2.5043e-06	171.76	53.432	27.347	8.6242	5.9433e-06	20.518	0.0027508	0.0050954	0.0014593	300.85	4.8137e-05	5.8013e-05	473.47	93.177	4.6955e-05	5.8433e-05	172.37	53.887	28.36	9.0581	5.1328e-05	20.905	56.812	7.509	78.002	-49.378	72.610	130.386	-50.530	-45.490	169.649	-19.400	-47.059	-43.191	-40.689	-35.547	16.539	-38.768	-8191	255	
6080.272	1	1	0	0	0.25547	0.14642	0.29909	0.036651	0.27462	0.14542	0.11483	0.17795	0.23424	0.029693	0.20717	0.089761	0.41301	0.21013	0.11614	0.11342	-2.4667	-2.7958	-2.5208	-2.9271	-2.8125	-2.8563	-3.1458	-2.6292	-2.7458	-3.0146	-2.525	-2.7687	-2.8542	-2.6729	-3.225	-2.7042	261.759	277.409	116.786	219.039	197.953	229.683	-5.970	208.632	288.534	116.904	24.986	-8.688	-56.502	36.578	-10.308	237.386	0.0001996	0.00019878	0.00014248	303.26	6.3044e-06	6.3518e-06	477.48	93.057	2.6973e-06	3.8471e-06	171.47	53.201	27.166	8.4241	2.0695e-06	20.329	0.0027792	0.0051954	0.0014418	301.87	4.7793e-05	5.6904e-05	473.15	93.657	4.6228e-05	5.8017e-05	171.37	53.559	28.281	8.8923	5.0549e-05	20.588	51.565	30.634	63.993	-49.779	163.018	68.484	-50.941	-45.281	108.327	-53.474	-47.299	-42.453	-40.313	-36.072	72.357	-39.273	-8191	255	
6080.343	1	1	0	0	0.083681	0.10107	0.12115	0.17851	0.24199	0.16737	0.26706	0.17694	0.19226	0.28001	0.051393	0.24203	0.13574	0.1019	0.23717	0.14414	-2.2979	-2.9146	-2.4917	-3.0812	-2.6833	-2.55	-3.0938	-2.5917	-2.7125	-2.9208	-2.55	-2.9083	-2.8812	-2.4146	-3.1917	-2.8667	107.429	133.448	276.756	261.740	134.285	148.442	243.026	292.572	46.934	-60.538	-8.374	239.261	174.671	203.429	-15.956	179.366	5.842e-05	0.00049507	0.00010362	302.36	1.2939e-06	2.0675e-06	478.87	92.066	3.6719e-06	2.8721e-06	171.58	53.087	27.163	8.4188	5.4803e-06	20.237	0.0027271	0.0050662	0.0014212	301.08	4.7736e-05	5.6935e-05	471	92.961	4.58e-05	5.7675e-05	171.66	53.428	28.14	8.9231	4.9066e-05	20.529	104.668	33.830	35.637	-49.758	39.151	66.701	-50.753	-45.212	40.069	134.809	-46.746	-42.916	-40.809	-36.102	126.332	-39.352	-8191	255	
6080.439	1	1	0	0	0.16321	0.089678	0.087992	0.34856	0.15268	0.1437	0.15109	0.21784	0.053225	0.042087	0.15201	0.058998	0.22919	0.22778	0.12553	0.15976	-2.3563	-2.9271	-2.5083	-2.875	-3.0229	-2.725	-3	-2.5979	-2.8083	-3.0708	-2.6354	-3.0354	-3.0396	-2.5542	-2.9583	-2.85	17.932	53.631	-22.532	187.446	192.929	49.290	264.678	159.584	174.061	268.032	283.444	155.977	199.987	50.303	238.351	4.285	0.00014375	0.00023613	8.7522e-05	301	5.0086e-06	4.51e-06	479.98	91.786	3.1286e-06	6.2111e-07	170.96	52.845	27.252	8.4059	1.5685e-06	20.149	0.002708	0.0050001	0.0013949	300.74	4.7928e-05	5.5229e-05	470.79	92.996	4.6734e-05	5.7019e-05	171.57	53.25	28.28	8.9037	4.8921e-05	20.605	96.438	85.510	38.948	-50.000	164.199	141.627	-50.625	-45.343	4.919	195.306	-47.352	-42.946	-40.571	-35.960	-37.117	-38.906	-8191	255	
6080.536	1	1	0	0	0.13471	0.16314	0.1186	0.078301	0.20633	0.16089	0.10366	0.19652	0.21058	0.046163	0.36925	0.19273	0.098966	0.10278	0.052487	0.044268	-2.1271	-3.0542	-2.5854	-2.9167	-2.9083	-2.6396	-2.9271	-2.6875	-2.5729	-3.1437	-2.5896	-2.8146	-2.9875	-2.4146	-3.0438	-2.7313	11.106	-38.364	74.048	71.377	246.888	74.017	-33.473	256.126	4.162	176.444	273.005	159.926	89.209	74.577	159.876	-57.612	0.00020176	0.00015057	6.7538e-05	301.23	3.3716e-06	2.3329e-06	481.32	92.646	4.4364e-06	9.6712e-07	171.98	53.05	27.298	8.5634	2.2376e-06	20.73	0.0027387	0.0050657	0.0014029	300.83	4.7869e-05	5.6566e-05	472.15	93.424	4.7172e-05	5.7504e-05	171.95	53.403	28.371	9.0166	4.9383e-05	20.883	72.287	286.369	-60.974	-49.971	68.023	142.475	-50.879	-45.142	105.642	-23.418	-46.632	-42.853	-40.835	-36.159	128.646	-39.421	-8191	255	
6080.654	1	1	0	0	0.089593	0.10864	0.31485	0.18439	0.14396	0.13472	0.091288	0.0951	0.058666	0.30062	0.052177	0.14662	0.0847	0.042109	0.072833	0.23398	-2.1146	-2.7625	-2.5708	-2.8958	-2.9958	-2.65	-2.9583	-3.0375	-2.7104	-3.0354	-2.6458	-2.6437	-2.8812	-2.3854	-2.9146	-3.0062	37.725	3.520	72.896	199.900	47.084	226.552	93.738	263.986	223.193	135.191	264.034	243.132	4.898	-4.397	144.747	247.404	0.00020114	0.0001599	0.00013437	302.5	3.1257e-06	6.3754e-06	480.97	93.095	5.4237e-06	2.5001e-06	173.8	53.939	27.352	8.3887	6.5963e-06	19.935	0.0027254	0.0049709	0.0013878	302	4.7576e-05	5.6473e-05	472.37	93.724	4.6003e-05	5.6239e-05	173.5	53.979	28.569	8.8993	4.9572e-05	20.365	87.372	23.719	14.339	-49.586	242.948	103.189	-50.647	-44.981	40.414	35.940	-47.559	-42.960	-40.878	-35.625	158.385	-39.264	-8191	255	
6080.751	1	1	0	0	0.07615	0.15318	0.070326	0.1072	0.09583	0.12582	0.025104	0.22144	0.099488	0.0028105	0.19819	0.20511	0.04253	0.10737	0.29821	0.17739	-2.1125	-2.9667	-2.6792	-2.7625	-3.1146	-2.5896	-2.8104	-2.8333	-2.6104	-3.0292	-2.8625	-2.5417	-3.075	-2.5083	-2.9125	-2.9333	-15.135	4.003	253.855	179.259	79.974	176.208	-48.999	184.208	207.642	231.873	51.905	122.086	-11.690	188.476	236.912	188.825	0.00026227	0.00059037	5.9674e-05	301.56	1.0186e-06	3.344e-06	479.85	92.461	5.0155e-06	1.5163e-06	173.02	53.196	27.487	8.4003	1.7622e-06	19.854	0.002738	0.0049203	0.0014082	301.7	4.7154e-05	5.4482e-05	471.25	93.88	4.6362e-05	5.5613e-05	172.3	53.441	28.257	8.8018	4.8889e-05	20.218	63.258	286.394	9.779	-49.963	40.903	173.127	-51.099	-45.262	90.949	169.793	-47.538	-42.713	-41.041	-36.516	285.604	-39.458	-8191	255	
6080.847	1	1	0	0	0.1612	0.15557	0.12156	0.12188	0.1735	0.06667	0.13867	0.059341	0.19675	0.23353	0.27878	0.080247	0.19715	0.15514	0.080641	0.042256	-2.1271	-2.8958	-2.7	-2.5854	-3.0021	-2.6917	-2.6875	-2.8917	-2.6542	-2.8625	-2.6688	-2.6437	-3.0146	-2.65	-2.6063	-2.9062	161.464	138.055	117.969	247.944	-8.822	0.786	245.439	212.509	71.996	91.045	235.660	265.796	281.705	182.936	145.490	120.305	0.00017102	0.00037288	0.00012194	300.51	5.6792e-06	3.1805e-06	480.44	94.579	3.4879e-06	4.1173e-06	172.9	53.565	27.843	8.3186	6.9556e-06	20.034	0.0027299	0.0048623	0.001412	301.32	4.6729e-05	5.4627e-05	472.36	94.892	4.6212e-05	5.5678e-05	172.73	53.725	28.63	8.806	5.0023e-05	20.277	64.046	22.885	41.822	-49.915	135.961	36.109	-50.781	-45.593	113.511	28.508	-47.289	-43.225	-41.206	-36.032	22.292	-39.044	-8191	255	
6080.943	1	1	0	0	0.19823	0.128	0.14971	0.3051	0.0070339	0.22781	0.14537	0.11147	0.21614	0.21039	0.041321	0.035046	0.12967	0.1758	0.088306	0.080899	-1.975	-2.7979	-2.875	-2.6542	-2.7667	-2.6979	-2.8271	-2.9792	-2.6646	-2.8125	-2.7854	-2.7146	-2.9229	-2.5625	-2.6958	-3.0875	214.710	147.960	264.948	255.046	124.035	74.953	224.353	-53.371	139.941	-2.915	101.906	263.708	164.237	33.472	249.009	218.215	0.00010335	0.00020745	0.00015216	301.43	5.2984e-06	1.9005e-06	480.2	93.633	8.7582e-07	5.1451e-06	173.2	53.549	27.271	8.4112	1.7859e-06	20.191	0.0026812	0.004858	0.0014005	300.98	4.6459e-05	5.5396e-05	473.04	94.943	4.5235e-05	5.4053e-05	173.73	53.863	28.57	8.8936	4.972e-05	20.525	105.119	43.007	16.312	-50.074	-6.358	191.319	-50.475	-45.206	1.106	247.528	-47.460	-42.430	-40.766	-36.118	96.179	-39.181	-8191	255	
6081.039	1	1	0	0	0.12799	0.077821	0.17078	0.11753	0.14109	0.11948	0.19764	0.179	0.21677	0.12343	0.18236	0.24188	0.22797	0.28937	0.062118	0.13609	-2.0563	-2.7229	-2.8146	-2.4437	-2.8792	-2.6979	-2.5229	-2.9646	-2.6417	-2.9708	-2.925	-2.375	-3.0042	-2.8333	-2.6354	-3.1583	38.332	220.570	246.039	-12.891	74.713	12.957	144.047	247.114	-10.832	-58.875	271.031	70.919	190.185	225.347	102.675	221.068	8.9224e-05	0.00016632	9.9621e-05	304.32	4.8472e-06	4.8271e-06	480.3	94.732	5.9327e-06	3.0035e-06	173.26	53.234	27.418	8.2942	4.0282e-06	19.95	0.0026042	0.0048499	0.0013978	303.02	4.5624e-05	5.5008e-05	473.63	95.206	4.5248e-05	5.5041e-05	173.1	53.839	28.464	8.7957	4.9053e-05	20.167	41.548	-5.593	87.217	-49.834	69.036	77.657	-50.413	-45.130	30.783	16.993	-46.841	-42.982	-41.176	-36.118	75.194	-39.178	-8191	255	
6081.135	1	1	0	0	0.2679	0.11519	0.14076	0.29741	0.26766	0.14923	0.070171	0.023564	0.14411	0.078784	0.13047	0.13401	0.13121	0.13277	0.10436	0.16333	-2.0917	-2.6271	-2.8958	-2.4979	-2.8354	-2.975	-2.5771	-2.9854	-2.7771	-2.6542	-2.9042	-2.525	-2.9146	-2.7583	-2.6667	-3.0938	246.896	296.785	59.357	260.266	123.888	116.200	216.411	8.239	256.173	69.005	-10.515	-9.632	39.933	166.675	254.363	74.599	0.00014677	0.0003302	2.1659e-05	301.59	6.5793e-06	9.2085e-07	477.37	94.459	3.018e-06	2.0812e-06	171.59	53.231	27.607	8.2548	5.3279e-06	19.617	0.0026489	0.004849	0.0013888	301.99	4.5229e-05	5.541e-05	469.93	94.539	4.5416e-05	5.5319e-05	171.73	53.247	28.39	8.6983	4.8499e-05	19.9	73.764	18.315	-27.160	-49.671	17.148	120.955	-50.593	-45.211	140.586	143.356	-47.333	-42.921	-40.480	-35.324	28.865	-39.483	-8191	255	
6081.231	1	1	0	0	0.23244	0.23414	0.11357	0.19704	0.10319	0.14534	0.15241	0.22379	0.15068	0.15226	0.1472	0.26191	0.055299	0.10931	0.1507	0.1667	-2.4229	-2.6979	-2.9542	-2.3583	-2.7708	-2.9479	-2.6896	-2.9333	-2.8792	-2.5646	-2.9542	-2.6208	-2.9646	-3.0062	-2.5563	-3.0208	-56.215	73.804	26.671	-42.436	41.304	92.717	-50.714	266.784	166.199	207.880	244.805	216.329	149.851	280.349	167.768	216.326	0.0002316	0.0004034	7.4871e-05	300.67	6.1874e-06	3.9152e-06	477.72	94.678	7.265e-06	4.9144e-06	170.85	53.168	27.507	8.3285	4.4042e-06	19.932	0.0026368	0.0048153	0.0013616	300.71	4.4703e-05	5.488e-05	470.06	94.668	4.4735e-05	5.4784e-05	171.1	53.326	28.445	8.7665	4.8437e-05	20.066	61.409	67.570	32.521	-49.949	132.523	81.064	-50.766	-44.697	4.627	114.444	-47.299	-43.409	-40.317	-35.851	40.535	-39.115	-8191	255	
6081.352	1	1	0	0	0.085502	0.0099047	0.165	0.4116	0.2247	0.08215	0.3915	0.10072	0.24083	0.056318	0.12248	0.27228	0.19439	0.11931	0.34684	0.33691	-2.4021	-2.6813	-3.0062	-2.5729	-2.8167	-2.8896	-2.5375	-2.8458	-2.8312	-2.5271	-2.8875	-2.5917	-2.6333	-2.7604	-2.6417	-2.8708	283.765	292.916	220.141	177.688	-0.221	291.266	212.727	60.663	246.672	219.153	118.826	145.267	210.970	161.962	224.749	259.529	0.00020209	0.00059436	6.7087e-05	301.82	2.1981e-06	2.8684e-06	482.01	94.118	3.2437e-06	5.2801e-06	172.57	53.195	27.666	8.5254	7.2408e-06	20.135	0.0026499	0.0048433	0.0013663	301.56	4.4916e-05	5.5058e-05	471.86	94.837	4.6046e-05	5.5496e-05	172.87	53.639	28.536	8.9067	4.8246e-05	20.381	35.246	86.905	41.055	-50.042	-59.996	186.638	-51.028	-45.064	101.294	-16.523	-47.595	-43.137	-40.828	-35.465	8.294	-38.902	-8191	255	
6081.448	1	1	0	0	0.27209	0.23078	0.20123	0.10995	0.11542	0.057753	0.16876	0.076192	0.22334	0.053013	0.061751	0.36475	0.11529	0.22009	0.37239	0.036906	-2.2771	-2.5708	-2.9271	-2.6146	-2.7479	-3.0917	-2.5583	-2.9771	-3.05	-2.6937	-3.0563	-2.7062	-2.7333	-2.9208	-2.7833	-3.0229	125.260	23.631	44.143	54.964	141.201	72.895	98.706	170.406	289.340	244.415	96.425	118.100	293.747	221.731	137.309	-22.175	0.00027543	0.00026282	4.2179e-05	303.2	3.3694e-06	6.3062e-06	479.89	95.961	6.8203e-06	6.0002e-06	173.57	53.535	27.722	8.3751	4.9104e-06	19.765	0.0026465	0.0048827	0.0013505	302.21	4.5023e-05	5.4444e-05	473.29	95.602	4.5209e-05	5.6035e-05	172.98	53.891	28.576	8.843	4.8057e-05	20.147	50.205	-4.921	77.007	-49.870	94.507	110.100	-50.698	-45.495	-20.770	32.382	-47.168	-43.573	-41.220	-36.212	54.627	-39.081	-8191	255	
6081.544	1	1	0	0	0.1307	0.21712	0.25391	0.073849	0.22156	0.11829	0.20069	0.10145	0.074938	0.32901	0.27639	0.21417	0.041236	0.15308	0.058642	0.18464	-2.45	-2.4771	-2.8708	-2.8604	-2.8688	-2.8417	-2.5167	-2.7604	-2.9021	-2.4979	-2.9188	-2.8979	-2.6604	-2.9875	-2.525	-2.7917	215.941	-58.021	62.334	70.842	44.409	262.786	138.176	241.886	218.600	128.123	287.535	128.820	-51.391	200.719	164.449	73.432	0.0001762	0.00054702	4.3327e-05	302.57	3.8074e-06	3.9451e-06	479.01	95.018	8.5614e-06	4.1446e-07	171.28	53.701	27.608	8.3378	3.5815e-06	19.501	0.0026541	0.0048702	0.0013413	302	4.5335e-05	5.3818e-05	470.59	95.574	4.4634e-05	5.3338e-05	171.08	53.543	28.543	8.7454	4.7253e-05	19.907	79.761	21.004	36.465	-49.539	99.136	265.454	-50.709	-44.904	195.642	112.977	-46.903	-43.419	-41.002	-35.569	137.860	-39.049	-8191	255	
6081.640	1	1	0	0	0.19319	0.22584	0.20986	0.32632	0.042308	0.20086	0.20782	0.093053	0.10973	0.33616	0.42407	0.12855	0.18954	0.18705	0.063929	0.1188	-2.6063	-2.4375	-2.9458	-2.7917	-2.575	-2.9813	-2.6125	-2.7479	-3.0271	-2.5792	-2.9146	-2.6896	-2.6312	-2.9313	-2.7958	-2.7917	45.854	228.071	33.863	26.839	-6.239	47.931	189.850	270.396	90.038	279.120	241.120	219.873	210.764	155.225	243.404	203.369	0.00015091	0.00013588	3.6974e-05	301.58	7.858e-07	1.3296e-06	479.76	94.648	3.302e-06	2.1529e-06	171.43	53.043	27.562	8.3987	3.9944e-06	19.769	0.0026277	0.0048232	0.0013261	301.23	4.5256e-05	5.4223e-05	470.57	95.26	4.4774e-05	5.4182e-05	170.98	53.442	28.488	8.78	4.7991e-05	20.083	106.052	201.779	218.169	-49.702	163.345	11.870	-50.625	-45.084	-24.797	155.039	-47.020	-43.209	-40.869	-35.950	50.874	-39.129	-8191	255	
6081.735	1	1	0	0	0.10699	0.11068	0.25768	0.19326	0.053261	0.14182	0.092347	0.25339	0.1225	0.031044	0.06301	0.28939	0.13598	0.10629	0.15558	0.27582	-2.675	-2.5271	-2.925	-2.7667	-2.6479	-3.0521	-2.7958	-2.7792	-3.0812	-2.7208	-2.8125	-2.925	-2.5812	-3.0854	-2.6437	-2.6792	194.278	2.860	150.772	252.496	22.201	244.803	27.864	123.525	139.507	137.593	-41.654	71.376	120.053	276.841	179.071	152.007	0.00011465	0.00035189	4.3554e-05	300.16	1.3697e-06	3.3996e-06	475.67	95.889	5.9472e-06	2.4543e-06	173.17	53.256	27.69	8.4956	2.3061e-06	19.964	0.0026324	0.0048345	0.0013443	300.47	4.5804e-05	5.3786e-05	469.13	96.127	4.5395e-05	5.4879e-05	172.57	53.73	28.622	8.8949	4.9265e-05	20.318	69.893	36.358	79.558	-49.844	55.260	106.613	-50.904	-45.167	35.050	146.858	-47.264	-43.280	-40.918	-36.119	31.423	-38.799	-8191	255	
6081.831	1	1	0	0	0.18192	0.022871	0.16799	0.1143	0.14123	0.10522	0.24664	0.13169	0.19066	0.11218	0.084937	0.12604	0.12651	0.060781	0.17543	0.10224	-2.6562	-2.85	-2.7854	-3.0292	-2.575	-2.9021	-2.9458	-2.6479	-2.9396	-2.5646	-2.7896	-2.7938	-2.3438	-2.9	-2.8458	-2.6458	32.615	265.159	213.648	274.953	100.687	-45.045	59.436	183.471	146.019	4.022	1.708	-1.487	243.714	182.439	59.858	201.215	0.00019847	4.5335e-05	0.00010353	300.59	7.5984e-06	1.4987e-06	477.36	95.555	6.2958e-06	2.0922e-06	172.88	53.749	27.834	8.3966	2.8114e-06	20.042	0.0026866	0.0049056	0.0013634	301.39	4.6921e-05	5.4598e-05	472.23	96.545	4.5393e-05	5.4717e-05	172.34	54.042	28.83	8.8622	5.0148e-05	20.278	70.452	216.484	68.387	-49.505	76.687	97.167	-50.870	-45.360	-33.038	165.676	-47.398	-43.225	-40.379	-35.907	-36.199	-39.317	-8191	255	
6081.927	1	1	0	0	0.36254	0.30503	0.19642	0.091432	0.10239	0.23074	0.15951	0.21751	0.049102	0.21646	0.049761	0.30358	0.16851	0.10242	0.21209	0.18384	-2.5729	-2.5438	-2.6625	-2.9458	-2.6396	-2.925	-2.8563	-2.6875	-3.0646	-2.8479	-2.8896	-3.1688	-2.5229	-2.8667	-2.9479	-2.7708	39.815	13.188	38.659	28.724	-60.016	51.930	164.437	201.593	243.889	126.647	-38.782	233.612	255.897	253.148	144.228	96.017	0.00014895	0.00045126	0.00012064	300.74	7.2133e-06	3.2761e-06	476.42	95.587	8.5311e-06	2.9354e-06	170.13	53.082	27.619	8.4366	1.7975e-06	19.802	0.0026747	0.004914	0.0013867	301.89	4.6068e-05	5.4293e-05	470.36	95.857	4.4768e-05	5.4175e-05	171.35	53.482	28.566	8.8127	4.901e-05	20.017	94.508	-1.263	110.417	-49.941	69.536	50.382	-50.904	-44.756	129.069	30.876	-47.544	-42.810	-41.464	-36.338	65.257	-39.220	-8191	255	
6082.048	1	1	0	0	0.26451	0.031076	0.082663	0.15921	0.049433	0.19199	0.0034656	0.36453	0.057936	0.089403	0.020372	0.059539	0.15514	0.23665	0.26646	0.12899	-2.3854	-2.4396	-2.5812	-2.825	-2.6292	-2.7625	-2.9917	-2.6854	-2.9833	-2.7771	-2.7938	-2.9688	-2.5646	-2.8708	-2.9021	-2.3229	102.289	148.335	205.244	-14.754	-63.372	31.788	295.529	180.286	189.944	19.156	37.466	235.671	126.398	285.645	113.297	-8.443	0.00015173	0.00023122	3.6973e-05	301.5	1.6324e-06	1.4952e-06	474.57	94.959	6.7557e-06	3.658e-07	169.71	53.564	27.782	8.2081	3.9902e-06	19.768	0.0026684	0.0048921	0.0013967	299.82	4.5392e-05	5.493e-05	468.09	95.583	4.453e-05	5.586e-05	170.97	53.635	28.574	8.7697	4.9299e-05	20.141	152.686	155.507	-13.525	-49.817	176.102	118.997	-50.694	-45.470	54.609	89.283	-47.312	-42.927	-41.538	-36.355	48.103	-38.955	-8191	255	
6082.144	1	1	0	0	0.066884	0.068702	0.12607	0.12512	0.17779	0.25452	0.26697	0.049624	0.16893	0.20102	0.057847	0.29008	0.084167	0.32395	0.21567	0.075528	-2.3604	-2.7625	-2.4042	-2.9083	-2.7958	-2.4542	-2.8396	-2.6125	-2.9917	-2.9062	-2.4729	-3.1	-2.6771	-2.7208	-3.1354	-2.6063	14.167	164.998	166.623	108.666	151.093	81.126	175.372	192.859	43.733	195.055	45.855	46.766	131.563	241.332	114.371	-52.097	0.00014961	0.00039757	7.0896e-05	302.27	7.7314e-06	2.3535e-06	475.74	94.922	8.338e-06	4.6445e-06	171.34	53.908	27.874	8.5258	4.8437e-06	20.116	0.0026389	0.0049115	0.0013858	301.12	4.6754e-05	5.4725e-05	471.35	95.814	4.5342e-05	5.6159e-05	172.09	54	28.82	8.9457	4.9802e-05	20.468	68.470	72.950	58.919	-49.585	70.908	131.515	-50.875	-45.008	105.233	89.970	-47.270	-43.356	-41.039	-36.123	112.382	-39.300	-8191	255	
6082.216	1	1	0	0	0.35013	0.22903	0.27602	0.14829	0.11712	0.16906	0.11952	0.22838	0.11264	0.18706	0.10185	0.21538	0.13119	0.053801	0.21589	0.19392	-2.5042	-2.8083	-2.5479	-2.8583	-2.8063	-2.6417	-3.0979	-2.525	-2.7708	-2.9604	-2.65	-3.025	-2.5646	-2.6063	-2.8937	-2.5854	288.206	269.252	241.198	266.171	264.474	-34.758	-12.465	260.759	-38.355	184.887	164.247	208.310	212.348	180.356	94.083	-10.487	0.00022626	0.00010354	0.00012196	303.46	1.5862e-06	1.4714e-06	480.24	96.511	6.0839e-06	6.1932e-06	173.43	54.009	27.941	8.5991	1.8333e-06	20.18	0.0026773	0.0049929	0.0013801	302.63	4.6611e-05	5.6065e-05	472.48	96.774	4.4779e-05	5.6425e-05	173.33	54.438	29.066	9.0568	4.8405e-05	20.486	54.094	290.277	-30.416	-49.999	267.089	231.341	-50.556	-45.644	252.982	91.459	-47.172	-43.265	-40.742	-35.975	27.908	-39.191	-8191	255	
6082.312	1	1	0	0	0.067481	0.32918	0.20816	0.17535	0.096738	0.32822	0.17503	0.11805	0.20891	0.22147	0.18123	0.14192	0.10677	0.21981	0.21596	0.028134	-2.3271	-2.9813	-2.4792	-2.9396	-2.7083	-2.5771	-3.0542	-2.5167	-2.6208	-2.8854	-2.325	-2.9604	-2.7313	-2.5563	-2.9437	-2.6437	226.780	254.288	99.740	236.547	164.917	251.107	177.054	202.570	77.398	71.565	128.262	-12.360	-16.996	-38.220	44.778	-35.805	0.00021035	0.00041113	7.2886e-05	300.94	4.0784e-06	4.6926e-06	479.38	95.637	8.3929e-06	3.4976e-06	172.15	53.832	27.925	8.5115	4.0681e-06	19.896	0.002661	0.0048745	0.0013855	302.03	4.5492e-05	5.4831e-05	472.77	96.464	4.4716e-05	5.5685e-05	172.46	54.288	28.854	8.9361	4.8333e-05	20.296	48.236	-21.693	-53.464	-49.657	200.563	80.787	-51.025	-44.922	51.703	99.095	-47.280	-43.055	-40.707	-36.253	153.671	-39.210	-8191	255	
6082.432	1	1	0	0	0.24155	0.022267	0.18419	0.071432	0.13391	0.21151	0.12106	0.026711	0.13608	0.14724	0.16661	0.20183	0.13197	0.081495	0.10128	0.17689	-2.3	-2.9792	-2.6458	-2.7917	-2.975	-2.4979	-2.9958	-2.7292	-2.8292	-2.8854	-2.6042	-2.8979	-2.7979	-2.6104	-3.175	-2.9375	5.480	-24.597	252.857	285.272	-44.118	270.031	-23.651	222.520	267.790	296.202	257.523	129.174	165.947	146.780	269.628	-36.707	0.0001962	0.00055148	9.7118e-05	299.66	3.4694e-06	5.5313e-07	477.39	95.934	4.1078e-06	5.4555e-06	172.88	53.671	27.779	8.5052	3.8791e-06	20.065	0.0026471	0.0047961	0.0013823	301.4	4.6075e-05	5.5766e-05	470.62	96.152	4.4944e-05	5.5686e-05	172.48	54.186	28.816	8.9761	4.8617e-05	20.366	63.788	42.215	-21.198	-49.796	-49.068	28.947	-50.787	-45.121	-24.144	19.753	-47.150	-43.129	-40.424	-36.796	217.262	-38.939	-8191	255	
6082.529	1	1	0	0	0.24902	0.20101	0.18399	0.20916	0.025945	0.10762	0.14101	0.42407	0.12771	0.16704	0.071566	0.33388	0.068214	0.040568	0.21533	0.23556	-2.0896	-2.9708	-2.5917	-2.7583	-2.9875	-2.5646	-2.9917	-2.6562	-2.5687	-2.9917	-2.5083	-2.8521	-2.8958	-2.5708	-2.8708	-2.6542	237.452	-26.298	219.003	227.993	173.463	199.568	198.968	257.167	148.444	122.756	179.882	285.713	177.279	109.484	269.444	214.231	0.00014096	0.00026706	0.00012112	299.29	3.3569e-06	4.9795e-07	478.95	95.901	2.1883e-06	7.05e-06	173.62	53.909	27.828	8.5422	7.2841e-06	20.201	0.002732	0.0049628	0.0013768	301.28	4.7562e-05	5.6048e-05	471.79	96.588	4.5695e-05	5.5697e-05	172.88	54.389	28.939	9.0208	4.8459e-05	20.587	45.211	11.674	19.434	-49.969	22.967	259.754	-50.914	-45.073	114.823	39.238	-47.367	-43.109	-41.021	-35.592	57.794	-39.142	-8191	255	
6082.625	1	1	0	0	0.2767	0.18537	0.1816	0.1195	0.171	0.23609	0.20945	0.095594	0.069648	0.24888	0.16409	0.085352	0.070885	0.035894	0.13648	0.054136	-2.2979	-3.0563	-2.5229	-2.7271	-3.1458	-2.6104	-2.8875	-2.6833	-2.6708	-2.8792	-2.6646	-2.9083	-2.9313	-2.4396	-2.9333	-2.7646	251.390	261.709	-62.402	167.520	262.480	68.284	265.519	134.486	265.551	-31.621	230.943	281.771	296.114	206.917	142.721	77.845	0.00011973	0.00018379	3.5959e-05	302.28	1.4024e-06	2.6643e-06	478.98	96.355	5.2421e-06	4.2395e-06	174.72	54.295	28.165	8.7188	4.6546e-06	20.303	0.0026792	0.0049519	0.0013873	302.3	4.7207e-05	5.5159e-05	472.96	96.462	4.569e-05	5.5867e-05	173.69	54.699	28.954	9.1506	4.9083e-05	20.732	67.397	30.591	216.525	-50.236	36.591	201.989	-50.783	-45.211	-34.321	20.117	-46.957	-43.316	-40.903	-36.106	94.192	-39.295	-8191	255	
6082.744	1	1	0	0	0.32892	0.4076	0.29062	0.19036	0.13409	0.068145	0.13856	0.04597	0.092331	0.13672	0.15629	0.18411	0.11243	0.13403	0.14244	0.34311	-2.1708	-2.8604	-2.675	-2.6396	-2.9313	-2.6646	-2.9146	-2.9875	-2.625	-2.9604	-2.5479	-2.5625	-3.0958	-2.5854	-2.8729	-2.8875	-46.330	231.161	35.613	28.637	193.129	202.088	-14.669	29.615	72.323	26.623	24.712	222.225	165.769	199.775	-45.551	167.551	0.00019541	0.00011299	8.6986e-05	300.91	6.7812e-06	3.9594e-06	474.49	95.818	5.3859e-06	1.0869e-06	172.71	54.153	28.009	8.5409	6.1129e-06	19.938	0.0026875	0.0049349	0.0013865	301.76	4.6729e-05	5.5104e-05	470.69	96.587	4.5553e-05	5.4246e-05	172.86	54.316	28.891	8.9871	4.8663e-05	20.35	62.559	30.164	12.352	-49.767	115.494	-48.736	-50.492	-45.110	106.031	101.143	-47.523	-43.567	-40.844	-36.519	120.056	-38.940	-8191	255	
6082.815	1	1	0	0	0.15905	0.19438	0.16467	0.11796	0.19137	0.13988	0.12204	0.063934	0.19914	0.27379	0.21501	0.1329	0.20584	0.15613	0.24342	0.14693	-2.1667	-2.8083	-2.7042	-2.7604	-3.0583	-2.5771	-2.6646	-2.9708	-2.4125	-2.8854	-2.7896	-2.625	-2.9437	-2.5667	-2.7812	-2.8354	266.460	184.028	291.571	291.158	21.197	73.341	224.427	139.012	43.718	236.212	-32.662	-14.047	287.283	191.899	-39.641	282.355	0.00022279	0.00042742	0.00011074	300.14	3.3374e-06	1.6815e-06	479.43	95.482	2.8623e-06	4.2724e-06	172.56	53.631	27.824	8.5767	5.558e-06	20.268	0.0026974	0.0048322	0.0013841	301.29	4.6374e-05	5.5571e-05	470.23	96.083	4.5982e-05	5.4605e-05	172.55	54.275	28.823	9.0112	4.9301e-05	20.553	95.549	-35.022	48.895	-49.625	104.192	249.300	-50.714	-45.196	171.693	59.818	-47.033	-43.295	-40.520	-36.669	37.773	-39.133	-8191	255	
6082.913	1	1	0	0	0.16346	0.10886	0.028169	0.15082	0.18365	0.11211	0.28762	0.16904	0.11126	0.30937	0.16469	0.08332	0.022093	0.44577	0.28665	0.11452	-2.1562	-2.8896	-2.6896	-2.4708	-3.0771	-2.7396	-2.7729	-2.7938	-2.4146	-3	-2.9313	-2.6708	-3.3875	-2.7125	-2.7042	-3.0229	28.159	-17.560	227.659	267.451	-42.277	74.104	233.697	12.838	244.118	77.637	14.899	222.078	90.158	206.642	-59.356	106.075	0.00014941	0.00034776	0.00011407	302.66	2.4548e-06	2.708e-06	475.58	95.873	7.8625e-06	1.3093e-06	171.74	54.141	27.869	8.687	1.2794e-06	20.371	0.0026722	0.0048037	0.0013708	302.6	4.6075e-05	5.5106e-05	470.13	96.269	4.601e-05	5.3949e-05	172.47	54.509	29	9.0952	4.8449e-05	20.739	78.589	87.329	38.628	-49.596	179.516	-2.398	-50.862	-45.711	16.759	197.493	-47.289	-42.790	-41.549	-36.612	79.821	-39.318	-8191	255	
6083.032	1	1	0	0	0.069592	0.12345	0.23605	0.1045	0.013344	0.096466	0.061226	0.13566	0.38666	0.15065	0.084141	0.16665	0.088028	0.16379	0.064915	0.21049	-2.2583	-2.7354	-2.8167	-2.4354	-2.9813	-2.7812	-2.6854	-2.9854	-2.7229	-2.5958	-2.9292	-2.5083	-3.0292	-2.6104	-2.8229	-3.1792	41.768	235.341	218.155	258.733	264.138	149.365	-47.919	128.771	219.497	51.662	-18.222	145.674	109.744	225.170	210.233	148.376	0.00024951	0.00015989	8.567e-05	301.79	3.6873e-06	2.4547e-06	475.68	96.345	5.7212e-06	4.6599e-06	173.41	54.093	27.89	8.6379	2.5822e-06	20.572	0.0026922	0.0049013	0.0013912	302.62	4.5981e-05	5.5467e-05	471.42	96.756	4.6072e-05	5.5117e-05	173.9	54.834	29.041	9.0893	4.9514e-05	20.892	34.066	-4.864	86.717	-49.761	146.805	283.687	-50.350	-45.593	81.490	36.153	-47.732	-42.851	-40.771	-35.583	8.668	-39.201	-8191	255	
6083.128	1	1	0	0	0.25941	0.2155	0.18876	0.38598	0.14261	0.14159	0.099432	0.031262	0.049246	0.068852	0.22717	0.13247	0.088782	0.0083007	0.19582	0.17042	-2.1646	-2.8083	-2.7854	-2.5292	-2.95	-3.0917	-2.7417	-3.0854	-2.7812	-2.7979	-2.9896	-2.6792	-2.9437	-2.7146	-2.5521	-3.0875	14.487	92.560	190.743	217.803	208.975	184.032	-8.695	-42.323	170.872	189.480	-19.982	184.888	191.877	199.413	151.968	212.163	0.00019101	0.0005612	5.3552e-05	301.71	7.6666e-06	7.2962e-06	476.93	96.481	5.866e-07	3.3697e-06	173.49	54.439	27.784	8.5392	2.8393e-06	20.043	0.002687	0.0049016	0.0013982	302.71	4.5148e-05	5.5551e-05	472.05	97.085	4.5306e-05	5.516e-05	173.78	54.681	28.959	9.0073	4.9102e-05	20.498	90.283	45.814	6.808	-49.783	30.076	66.938	-50.811	-45.324	107.576	186.310	-47.527	-43.117	-41.602	-35.819	93.790	-39.369	-8191	255	
6083.224	1	1	0	0	0.034997	0.19223	0.104	0.141	0.10457	0.28927	0.20599	0.17147	0.091503	0.092428	0.22735	0.36176	0.12507	0.23715	0.29165	0.10173	-2.3917	-2.7229	-2.9062	-2.5646	-2.8667	-2.8958	-2.4646	-2.9354	-2.7562	-2.6667	-2.8937	-2.5729	-2.8396	-2.8375	-2.5021	-2.9271	5.436	-3.847	94.746	166.281	-11.755	43.377	199.269	222.789	44.633	167.059	265.816	278.152	134.176	163.067	33.716	111.318	0.00014283	0.0004588	0.00016668	302.99	3.6556e-06	4.5546e-06	476.74	96.21	4.1877e-06	1.0461e-06	172.11	53.812	27.844	8.6054	3.6996e-06	20.047	0.0026968	0.0048664	0.00138	302.22	4.4163e-05	5.5618e-05	470.68	96.734	4.4828e-05	5.4891e-05	172.58	54.442	28.991	9.0524	4.9292e-05	20.529	121.852	73.694	19.122	-49.869	31.310	140.227	-51.060	-45.622	113.857	101.162	-47.349	-43.094	-41.195	-36.315	102.264	-39.172	-8191	255	
6083.345	1	1	0	0	0.12972	0.35958	0.18594	0.15737	0.18285	0.15825	0.21029	0.095735	0.22701	0.24068	0.17607	0.14923	0.1353	0.012085	0.25679	0.24779	-2.2333	-2.5542	-3.0771	-2.4083	-2.9437	-2.9208	-2.4854	-2.8396	-2.6771	-2.6521	-2.9	-2.5104	-2.7562	-2.9958	-2.5833	-2.975	232.827	284.930	164.989	255.410	290.904	91.476	248.324	153.922	183.246	215.572	74.110	124.805	-6.859	197.525	217.136	199.553	0.0001612	0.00038082	9.8604e-05	300.71	3.738e-06	3.5449e-06	478.13	96.531	4.3027e-06	4.0103e-06	172.51	54.42	28.205	8.6068	3.3348e-06	20.273	0.0026968	0.0048817	0.0013667	301.88	4.5077e-05	5.5399e-05	471.6	97.037	4.5429e-05	5.5185e-05	173.24	54.738	29.113	9.0818	4.8413e-05	20.725	80.114	44.373	-62.043	-49.723	95.959	100.856	-50.617	-45.240	72.176	116.917	-47.134	-42.985	-41.385	-36.481	174.680	-39.261	-8191	255	
6083.441	1	1	0	0	0.1743	0.046125	0.17254	0.036761	0.10016	0.15406	0.074275	0.37545	0.096034	0.28649	0.064947	0.17735	0.12498	0.22568	0.14929	0.27555	-2.4479	-2.4708	-3.1208	-2.6813	-2.7208	-2.8333	-2.6271	-2.9729	-2.7958	-2.65	-2.9521	-2.7062	-2.6292	-3.0812	-2.7354	-2.7771	39.746	-57.888	248.079	237.883	120.476	15.754	282.650	197.608	276.678	67.725	273.847	243.591	-41.978	-21.086	-35.083	235.148	0.00025308	0.00051026	0.00013224	301.19	1.0216e-05	4.6761e-06	477.55	97.11	3.9804e-06	4.2763e-06	173.75	54.618	28.265	8.6024	3.5127e-06	20.592	0.0026541	0.0048872	0.0013723	302.57	4.5596e-05	5.4718e-05	471.97	97.258	4.5276e-05	5.4857e-05	173.67	54.943	29.275	9.1464	4.8586e-05	20.968	54.013	42.855	123.350	-49.827	86.583	43.627	-50.709	-45.648	-18.381	173.991	-47.261	-43.100	-41.044	-35.981	74.638	-39.182	-8191	255	
6083.513	1	1	0	0	0.09021	0.13203	0.14833	0.08455	0.1377	0.27656	0.4318	0.25369	0.19238	0.25535	0.039385	0.097229	0.11311	0.26131	0.20087	0.029391	-2.425	-2.5667	-3.1354	-2.6688	-2.6479	-3.0917	-2.5542	-2.7646	-2.7354	-2.4646	-3.0292	-2.8063	-2.775	-2.9375	-2.7708	-2.8208	232.635	261.801	33.850	253.011	46.634	231.934	293.191	103.886	276.041	-54.802	76.852	70.282	188.261	82.043	276.103	187.417	0.00016052	0.00031028	7.4557e-05	302.09	4.0656e-06	2.84e-06	478.5	97.242	4.2669e-06	3.0336e-06	172.24	54.611	28.179	8.6285	1.9406e-06	20.336	0.0026602	0.004841	0.0013466	303.37	4.5976e-05	5.522e-05	472.75	97.769	4.5456e-05	5.5239e-05	173.6	54.933	29.174	9.0392	4.894e-05	20.593	71.742	10.474	38.241	-49.601	174.367	94.327	-50.798	-44.850	-2.537	86.001	-47.218	-43.465	-40.860	-36.497	206.107	-39.506	-8191	255	
6083.609	1	1	0	0	0.13351	0.033182	0.078007	0.21277	0.35371	0.12098	0.15677	0.20036	0.24253	0.17311	0.36168	0.11354	0.040622	0.29006	0.10298	0.14776	-2.4875	-2.4792	-2.9417	-2.8958	-2.6604	-3.0958	-2.7458	-2.6813	-2.9313	-2.3187	-2.9208	-2.7146	-2.6125	-2.8187	-2.8667	-2.8292	-50.108	113.975	33.896	220.039	210.607	130.319	181.276	291.267	223.789	67.066	194.284	-38.052	98.360	121.870	45.080	71.065	0.00024093	0.00028409	9.2568e-05	303.66	5.4066e-06	6.6083e-06	474.79	96.75	7.3407e-06	1.0443e-06	172.46	54.13	28.012	8.6046	8.4874e-06	20.257	0.002692	0.0047986	0.0013371	301.99	4.5692e-05	5.4925e-05	469.81	97.223	4.5511e-05	5.5531e-05	172.74	54.674	29.103	9.0585	4.9288e-05	20.591	27.610	67.231	50.633	-50.146	29.983	72.455	-50.603	-44.944	106.937	227.878	-47.212	-43.744	-41.212	-36.070	117.812	-39.510	-8191	255	
6083.728	1	1	0	0	0.23388	0.2512	0.24543	0.10799	0.074962	0.20926	0.073872	0.23589	0.18707	0.23872	0.22794	0.090089	0.22396	0.19043	0.10278	0.088921	-2.4083	-2.5333	-2.8396	-2.8563	-2.5229	-3.1542	-2.8979	-2.7313	-2.9979	-2.5938	-3.0917	-2.9292	-2.625	-3.1	-2.8208	-2.6021	150.234	-37.757	269.029	263.055	156.841	-12.449	181.315	289.516	-54.180	170.312	239.252	59.279	213.125	-52.072	107.594	10.207	0.00016786	0.00016768	7.5845e-05	297.36	4.4438e-06	3.1108e-06	473.98	96.638	3.7951e-06	3.9512e-06	172.31	54.209	28.136	8.698	3.3254e-06	20.375	0.0027212	0.0048777	0.0013612	300.79	4.5751e-05	5.4943e-05	469.35	97.821	4.6011e-05	5.5258e-05	172.86	54.74	29.211	9.1493	4.9611e-05	20.8	75.757	8.631	85.311	-50.073	-15.369	-37.072	-50.776	-45.294	190.737	14.461	-47.704	-43.566	-41.013	-36.024	196.898	-39.664	-8191	255	
6083.824	1	1	0	0	0.23707	0.093197	0.2572	0.10528	0.19859	0.12524	0.4084	0.25076	0.079883	0.19708	0.25312	0.29713	0.09389	0.039081	0.19983	0.037526	-2.65	-2.5375	-2.7375	-2.9271	-2.7438	-2.9583	-2.8375	-2.5438	-2.9896	-2.6562	-2.8896	-3.1375	-2.7292	-3.0479	-2.675	-2.7062	248.241	256.058	249.184	47.829	-39.551	218.802	286.290	201.458	184.052	20.606	218.053	239.926	149.529	273.673	120.535	103.027	0.0001517	0.00040132	0.00010636	300.45	5.0101e-06	2.863e-06	472.77	96.695	5.8942e-06	1.9772e-06	173.02	54.394	28.052	8.5935	7.953e-07	20.353	0.0027191	0.0049063	0.0013702	301.41	4.7159e-05	5.472e-05	470.1	97.812	4.6335e-05	5.632e-05	173.87	55.046	29.25	9.13	5.0343e-05	20.881	76.235	0.401	133.591	-49.778	78.123	161.577	-50.805	-45.292	28.785	16.601	-47.122	-43.413	-41.292	-35.660	-32.199	-39.225	-8191	255	
6083.920	1	1	0	0	0.10596	0.172	0.17144	0.058005	0.20241	0.10164	0.15666	0.076074	0.15788	0.14825	0.084574	0.06729	0.25141	0.2442	0.16078	0.092422	-2.7104	-2.7438	-2.8292	-3.1437	-2.6479	-3.0479	-2.9542	-2.6625	-3.0771	-2.7146	-2.8333	-2.8	-2.4917	-2.8937	-2.7917	-2.6667	90.086	77.559	63.986	13.309	-8.090	170.927	252.797	54.279	-31.442	160.035	-16.868	171.979	40.019	181.143	214.830	92.458	0.00015846	0.00024199	0.00014548	299.72	3.049e-06	2.5154e-06	478.04	97.155	4.8326e-06	1.6215e-06	174.93	54.208	28.146	8.5831	6.7644e-06	20.065	0.0026843	0.0049168	0.001393	302.14	4.7439e-05	5.5933e-05	472.97	98.407	4.6462e-05	5.6466e-05	174.34	55.044	29.278	9.0827	5.0479e-05	20.627	68.136	-52.410	-6.277	-50.335	20.196	126.700	-51.104	-45.467	52.147	52.466	-47.380	-43.539	-40.632	-36.066	-2.812	-39.259	-8191	255	
6084.016	1	1	0	0	0.15029	0.097801	0.13881	0.083779	0.048348	0.045165	0.10747	0.11171	0.23916	0.20673	0.1307	0.19115	0.29321	0.067296	0.10983	0.10851	-2.4979	-2.6833	-2.675	-3.0167	-2.6437	-2.9021	-2.7958	-2.4854	-2.9313	-2.875	-2.6979	-2.8979	-2.5646	-2.8042	-3.0771	-2.6771	205.161	85.259	165.748	137.608	285.241	-39.911	293.657	66.616	218.853	137.517	-35.490	272.613	280.269	85.864	-61.302	-21.520	0.00021059	0.0007195	1.6216e-05	300.51	5.3375e-06	2.5925e-06	475.22	97.002	6.0482e-06	4.4443e-06	171.81	54.01	28.108	8.5604	4.4429e-07	20.146	0.0027559	0.004984	0.0014077	301.11	4.6966e-05	5.541e-05	469.84	97.919	4.6138e-05	5.6979e-05	173.18	54.733	29.327	9.076	5.1048e-05	20.665	42.733	201.280	208.852	-49.757	67.718	48.983	-50.648	-45.155	90.292	126.198	-47.337	-43.525	-40.936	-36.461	272.423	-39.354	-8191	255	
6084.112	1	1	0	0	0.3177	0.18481	0.26389	0.22907	0.047141	0.086894	0.086993	0.16176	0.2946	0.1281	0.18403	0.1057	0.14435	0.13272	0.19691	0.066285	-2.5167	-2.6396	-2.6604	-2.9437	-2.5271	-2.8292	-3.0771	-2.7375	-3.0938	-3.0187	-2.6958	-3.0917	-2.9	-2.8063	-2.975	-2.5062	28.285	180.611	90.447	39.982	243.659	122.564	118.213	248.118	161.763	168.273	154.818	208.707	-51.428	128.762	50.522	162.780	0.00026921	0.00029885	0.00013445	296.27	3.1059e-06	3.5821e-06	474.7	95.685	4.4159e-06	2.497e-06	174.2	54.716	28.366	8.7855	5.237e-06	20.544	0.0027505	0.0050368	0.0014333	300.63	4.7409e-05	5.6688e-05	470.07	97.568	4.624e-05	5.7878e-05	174.31	54.884	29.412	9.1673	5.0562e-05	20.85	50.849	214.275	1.953	-49.743	7.857	2.268	-50.660	-45.316	63.448	90.205	-47.378	-43.071	-41.151	-35.843	84.676	-38.945	-8191	255	
6084.209	1	1	0	0	0.083361	0.076625	0.24518	0.25829	0.084639	0.25832	0.052689	0.09929	0.26601	0.18723	0.12524	0.086354	0.052524	0.22399	0.074481	0.020485	-2.4458	-2.825	-2.55	-3.0167	-2.6833	-2.8542	-2.9229	-2.6333	-2.8792	-3.0021	-2.4104	-3.1604	-2.7896	-2.7229	-3.1458	-2.7375	25.412	232.603	200.117	-41.003	48.053	77.291	18.619	277.654	-9.407	191.102	73.906	167.797	-0.758	165.394	19.312	111.576	0.00013858	0.00052718	8.7856e-05	301.78	4.149e-06	5.2067e-06	479.05	97.708	7.0501e-06	1.9445e-06	175.21	54.837	28.459	8.7748	1.0396e-06	20.824	0.0027419	0.0051341	0.0014351	303.38	4.7641e-05	5.7177e-05	471.76	98.232	4.6903e-05	5.8535e-05	174.5	55.124	29.514	9.2006	5.0592e-05	21.045	60.913	30.808	193.858	-49.838	-0.354	129.406	-50.801	-45.345	102.610	6.192	-47.387	-42.709	-41.219	-35.863	275.910	-39.196	-8191	255	
6084.305	1	1	0	0	0.18702	0.2141	0.2777	0.082984	0.18215	0.21471	0.22331	0.19246	0.1613	0.22776	0.15386	0.1163	0.11881	0.20572	0.19752	0.34337	-2.4	-2.9354	-2.3875	-3.2812	-2.7833	-2.5542	-2.9208	-2.5521	-2.8896	-2.9604	-2.5271	-2.9604	-2.7271	-2.5917	-2.9771	-2.7208	288.268	114.726	173.015	55.179	-14.437	142.015	125.733	-16.128	293.379	31.013	-4.144	200.444	127.907	103.254	143.801	276.543	4.0621e-05	0.00017894	0.00010893	304.79	4.6626e-06	1.3749e-06	479.82	97.819	2.8255e-06	8.3365e-06	175.8	54.748	28.479	8.6747	3.2946e-06	20.497	0.002742	0.00511	0.0014566	303.75	4.8204e-05	5.7807e-05	473.4	98.632	4.7474e-05	5.8789e-05	175.29	55.256	29.608	9.1591	5.0789e-05	20.774	-3.226	-28.624	62.425	-49.921	145.792	289.813	-50.507	-45.715	-8.154	111.305	-47.116	-42.699	-40.641	-36.548	34.419	-39.101	-8191	255	
6084.425	1	1	0	0	0.23118	0.02113	0.11879	0.26276	0.16734	0.15816	0.18377	0.2519	0.20091	0.10851	0.29392	0.047202	0.13023	0.18412	0.14577	0.2221	-2.2208	-2.9688	-2.4833	-2.8833	-2.9562	-2.5375	-3.2396	-2.7604	-2.9167	-3.1667	-2.6604	-2.9813	-2.9354	-2.5833	-2.9271	-2.8104	-37.447	177.508	149.094	293.031	193.449	58.563	257.290	-30.053	240.472	57.725	-58.494	145.687	284.114	-20.647	49.365	126.413	0.0001906	0.00039696	4.9155e-05	303.53	3.0617e-06	3.7163e-06	476.46	98.168	1.9501e-06	3.0698e-06	173.61	54.704	28.161	8.7658	6.5329e-06	20.39	0.002783	0.0051518	0.0014328	302.79	4.8575e-05	5.8645e-05	470.52	98.336	4.7372e-05	5.8693e-05	173.67	54.961	29.382	9.1358	5.0715e-05	20.717	28.586	13.144	51.210	-49.872	244.667	136.308	-50.751	-44.982	28.979	85.572	-47.161	-42.843	-41.240	-35.760	92.554	-39.072	-8191	255	
6084.521	1	1	0	0	0.17229	0.15859	0.16304	0.26009	0.22047	0.11764	0.071236	0.029484	0.11713	0.16512	0.054184	0.14488	0.23835	0.23759	0.11355	0.0138	-2.2562	-3.0333	-2.6021	-2.8708	-3.0854	-2.6708	-3.0479	-2.7042	-2.7167	-3.2	-2.6604	-3.0062	-2.9333	-2.6063	-2.9917	-2.8812	98.571	98.052	79.141	253.293	112.244	143.475	182.238	89.309	254.133	154.358	199.407	273.217	-18.504	27.821	104.251	168.593	0.00020891	0.00020233	0.00018063	303.14	9.2731e-07	4.0045e-06	480.18	97.485	7.4977e-06	2.3195e-06	173.81	54.641	28.816	8.7201	3.6413e-07	20.586	0.0027692	0.0052093	0.0014558	302.92	4.8562e-05	5.7954e-05	472.25	98.431	4.8185e-05	5.8108e-05	173.68	55.04	29.582	9.1854	5.0444e-05	20.875	92.917	-40.479	113.689	-49.852	75.177	35.495	-50.793	-45.463	29.150	119.877	-46.994	-43.256	-41.154	-35.629	77.902	-39.112	-8191	255	
6084.616	1	1	0	0	0.25224	0.077365	0.13366	0.14742	0.14118	0.22363	0.08577	0.33395	0.19397	0.17541	0.097597	0.26469	0.074398	0.10937	0.2555	0.049715	-2.2979	-3.0042	-2.6521	-2.7938	-2.9396	-2.4833	-2.9333	-2.8375	-2.4708	-3.2562	-2.7125	-2.6729	-2.9021	-2.5333	-2.9979	-2.9458	77.484	144.667	126.640	30.940	-31.777	36.075	-23.901	-27.905	248.029	280.397	59.008	26.259	-21.635	-37.358	55.388	262.007	0.00029212	0.00071844	3.9331e-05	300.92	4.8252e-06	7.8971e-06	480.82	97.936	3.0776e-06	7.7153e-06	175.13	55.036	28.443	8.727	3.2884e-06	20.742	0.002807	0.0050954	0.0014334	302.31	4.9118e-05	5.8196e-05	471.77	98.704	4.8335e-05	5.8625e-05	174.72	55.325	29.481	9.2132	5.1015e-05	21.012	69.111	36.962	-58.932	-49.825	112.435	50.813	-50.995	-45.357	35.562	106.529	-47.345	-43.373	-41.461	-35.992	83.965	-39.087	-8191	255	
6084.714	1	1	0	0	0.10976	0.18725	0.15482	0.13728	0.14522	0.18802	0.18237	0.163	0.20122	0.10063	0.16028	0.097315	0.29268	0.29847	0.22712	0.10393	-2.0833	-3.0062	-2.6562	-2.7375	-2.8458	-2.6	-2.9125	-2.9604	-2.5646	-2.8312	-2.8083	-2.7562	-3.1875	-2.5396	-2.8125	-2.9646	196.397	189.518	270.168	53.272	21.431	280.882	109.680	-48.446	-40.060	74.140	211.550	-13.976	59.194	31.965	281.291	133.276	0.00024962	0.00060429	0.00011233	304.57	6.8096e-06	6.0427e-06	482.08	98.281	3.0447e-06	1.1761e-06	175.18	55.553	28.498	8.742	5.0728e-06	20.65	0.0028252	0.0050563	0.0014609	304.27	4.9359e-05	5.8099e-05	473.68	98.838	4.864e-05	5.8457e-05	175.05	55.67	29.617	9.2233	5.0577e-05	20.965	56.268	19.936	-3.647	-49.885	102.619	87.014	-50.954	-45.061	100.941	159.307	-46.820	-42.431	-40.347	-35.639	78.993	-38.821	-8191	255	
6084.808	1	1	0	0	0.12055	0.016521	0.23462	0.10102	0.24764	0.061077	0.030473	0.32262	0.084614	0.093398	0.22109	0.24013	0.20266	0.022315	0.15473	0.21298	-2.1333	-3.0563	-2.8438	-2.575	-3.0396	-2.7646	-2.9979	-2.8812	-2.6146	-3.1	-2.8896	-2.7438	-3.0396	-2.7208	-2.8646	-2.9292	219.912	293.403	-55.557	80.405	22.897	45.171	272.114	7.628	41.950	175.802	169.756	206.632	265.706	-2.622	5.437	89.723	7.3565e-05	0.00032835	0.0001191	303.36	6.1497e-06	5.7591e-07	480.9	98.357	7.1049e-06	4.4957e-06	174.78	54.779	28.416	8.6341	5.8782e-06	20.401	0.0028438	0.0051159	0.001458	303.7	4.9056e-05	5.822e-05	471.76	98.756	4.7309e-05	5.6967e-05	174.7	55.159	29.465	9.1132	5.0729e-05	20.729	89.188	67.647	10.451	-49.499	3.786	286.638	-50.644	-45.274	76.262	60.103	-46.930	-43.230	-41.384	-36.081	74.031	-39.409	-8191	255	
6084.904	1	1	0	0	0.26725	0.15017	0.080776	0.10877	0.079105	0.12486	0.24498	0.23432	0.22667	0.1721	0.136	0.31319	0.1384	0.16842	0.10111	0.089366	-2.1333	-2.9417	-2.5854	-2.5146	-2.9271	-2.7062	-2.7646	-3	-2.7021	-3.0104	-2.9458	-2.6354	-3.0312	-2.5792	-2.7812	-3.1063	220.289	263.565	294.206	60.259	245.169	183.496	234.064	179.734	294.293	149.012	286.291	216.224	8.714	83.638	-58.453	177.786	0.00018485	0.00016762	0.00012485	301.87	6.9608e-06	7.5237e-06	480.51	98.75	1.7924e-06	3.5095e-06	175.86	55.235	28.661	8.776	3.1155e-06	20.635	0.0028612	0.0051402	0.001459	303.72	4.8735e-05	5.7948e-05	473.01	98.878	4.7988e-05	5.8278e-05	174.57	55.31	29.556	9.2018	5.1429e-05	20.864	73.051	56.670	-27.002	-49.743	142.573	148.139	-50.717	-45.316	25.653	126.372	-47.303	-42.853	-40.705	-35.601	291.663	-39.414	-8191	255	
6085.025	1	1	0	0	0.10947	0.1273	0.11219	0.24222	0.20121	0.20403	0.1691	0.23275	0.13963	0.14395	0.33054	0.15518	0.12565	0.063587	0.12802	0.071608	-2.2167	-2.9167	-2.8312	-2.575	-3.0062	-2.7229	-2.5854	-2.8896	-2.5958	-2.7854	-2.8708	-2.6229	-2.9354	-2.8167	-2.6833	-3.0896	82.802	-60.452	15.829	121.028	8.577	151.639	229.507	6.341	258.585	288.785	-35.368	-35.420	203.119	183.689	14.164	241.240	0.00022987	0.00053194	7.8576e-05	304.02	1.5446e-06	1.737e-06	478.3	98.746	2.0627e-06	2.0873e-06	174.44	55.245	28.664	8.7416	5.3089e-06	20.528	0.0027857	0.0051256	0.0014486	303.86	4.777e-05	5.8178e-05	472.37	99.147	4.8131e-05	5.7997e-05	174.54	55.432	29.6	9.2529	5.1024e-05	20.972	67.953	-29.654	74.480	-49.582	104.686	195.755	-50.829	-45.460	204.567	57.972	-47.384	-43.009	-40.639	-35.827	94.229	-38.897	-8191	255	
6085.121	1	1	0	0	0.10836	0.11071	0.14862	0.25258	0.26302	0.28747	0.05133	0.084894	0.086519	0.14844	0.2403	0.19286	0.080943	0.10296	0.23676	0.16972	-2.0479	-2.9104	-2.9542	-2.4583	-3.0021	-2.8542	-2.625	-2.9833	-2.7083	-2.8083	-2.9188	-2.5625	-2.7896	-2.8771	-2.5354	-3.1125	71.389	235.968	219.920	253.992	-44.957	168.381	153.289	115.156	48.915	254.572	-60.938	292.895	253.150	219.232	268.863	233.050	0.00011371	0.00041255	5.8105e-05	303.45	6.961e-06	3.7999e-06	483.36	99.03	2.5292e-06	4.3942e-06	176.49	55.308	28.795	8.7212	4.7668e-06	20.508	0.0028588	0.0051582	0.0014706	303.55	4.8068e-05	5.8822e-05	475.02	98.949	4.8685e-05	5.8843e-05	175.91	55.522	29.659	9.2319	5.2828e-05	20.924	53.666	18.935	122.790	-49.595	59.105	289.300	-50.398	-45.289	163.326	124.771	-47.351	-43.100	-40.685	-36.487	60.649	-39.064	-8191	255	
6085.217	1	1	0	0	0.1627	0.11516	0.26469	0.41757	0.32531	0.28629	0.20067	0.068112	0.14495	0.15674	0.1948	0.050333	0.10515	0.30705	0.13808	0.17922	-2.0729	-2.5583	-2.7708	-2.4083	-2.8771	-3.0687	-2.4521	-2.9958	-2.6792	-2.5896	-3.0125	-2.6667	-2.95	-2.8042	-2.6167	-3.0438	-5.405	83.800	239.166	-14.556	185.030	15.083	240.806	235.670	290.815	262.497	-46.039	176.390	35.838	202.706	-39.126	287.169	0.00010959	0.0002804	0.00013537	305.77	3.5254e-07	5.3222e-06	479.15	98.181	4.3266e-06	3.3658e-06	174.26	55.068	28.393	8.6664	6.1751e-06	20.43	0.002838	0.0051297	0.0014821	304.53	4.8201e-05	5.9579e-05	471.06	98.606	4.8136e-05	5.9336e-05	174.56	55.181	29.508	9.136	5.3132e-05	20.721	22.553	18.196	25.355	-49.248	161.861	36.602	-50.864	-45.305	139.823	194.335	-46.903	-43.108	-40.661	-36.158	120.494	-39.263	-8191	255	
6085.313	1	1	0	0	0.22287	0.1388	0.11731	0.16198	0.15796	0.070363	0.10943	0.10992	0.092174	0.071141	0.057135	0.30279	0.18653	0.31814	0.15714	0.18109	-2.3208	-2.5167	-2.9062	-2.5187	-2.9562	-2.9646	-2.8396	-3.0208	-2.775	-2.7229	-3.0521	-2.7375	-2.9021	-2.8271	-2.4771	-3.0167	204.828	248.164	-29.370	160.420	128.858	157.605	162.783	95.471	-15.077	-4.922	233.060	275.379	220.117	249.535	214.906	38.829	0.00011647	0.00034689	7.4133e-05	305.21	5.0198e-06	2.1312e-06	479.36	98.264	2.963e-06	4.0626e-06	174.65	55.381	28.447	8.7316	2.6623e-06	20.489	0.0028426	0.0051335	0.0014695	303.01	4.8811e-05	6.0669e-05	472.38	98.732	4.9204e-05	5.9616e-05	174.21	55.372	29.455	9.1829	5.2172e-05	20.789	86.162	18.234	165.591	-49.645	115.023	24.160	-50.712	-45.354	96.894	116.394	-47.513	-43.250	-40.843	-36.182	37.897	-39.559	-8191	255	
6085.410	1	1	0	0	0.09304	0.29589	0.055141	0.14074	0.21414	0.14783	0.0020594	0.20231	0.054619	0.27655	0.15727	0.1565	0.29655	0.14028	0.24203	0.212	-2.175	-2.6417	-3	-2.5979	-2.9229	-2.9958	-2.5042	-2.8271	-2.9	-2.8458	-2.9417	-2.7896	-2.7771	-2.9417	-2.5521	-3.05	159.561	296.489	229.770	291.656	-22.562	68.322	180.000	251.820	265.330	-27.506	296.689	44.485	253.447	216.571	101.750	-7.266	0.00025042	0.0003966	0.00010562	302.74	7.4109e-06	2.4929e-06	481.94	98.538	6.293e-06	3.2527e-06	174.43	55.188	28.518	8.7833	3.7205e-06	20.624	0.0028711	0.0051989	0.0014698	303.51	4.9175e-05	5.9166e-05	472.98	98.919	4.8909e-05	6.0032e-05	174.96	55.62	29.557	9.2636	5.2532e-05	20.989	32.256	145.925	0.444	-49.671	109.422	110.489	-50.724	-45.291	65.487	24.074	-47.138	-42.936	-40.437	-36.466	58.121	-38.882	-8191	255	
#DATA ENDS
