BOXY.EXE: ISS Imagent and Oximeter Data Acquisition Program Version 0.80
Ascii Record File

#ACQ INFORMATION
2  Detector Channels 
16  External MUX Channels 
1  Auxiliary Channels 
5000  Waveform (CCF) Frequency (Hz)
1  Waveforms Skipped 
30  Waveforms Averaged 
1  Cycles Averaged 
16  Acquisitions per Waveform 
10.0806  Updata Rate (Hz) 

#FILE INFORMATION
TRUE -- External MUX Channel results are PARSED.
FALSE -- AC DC and Phase are NOT grouped.
TRUE -- Companion Program Settings File CREATED.
FALSE -- AC data not excluded
FALSE -- DC data not excluded
FALSE -- Phase data not excluded
FALSE -- Auxillary Chn. data not excluded
Tab delimiters

#CALIBRATION STATE
TRUE -- Waveform Calibration Values APPLIED.


#AUX CALIBRATION VALUES
Val Type	aux-1	

Term	1.0000e+00	
Factor	0.0000e+00	


#WF CALIBRATION VALUES
A = Detector Channel
Val Type	A-AC1	A-AC2	A-AC3	A-AC4	A-AC5	A-AC6	A-AC7	A-AC8	A-AC9	A-AC10	A-AC11	A-AC12	A-AC13	A-AC14	A-AC15	A-AC16	A-DC1	A-DC2	A-DC3	A-DC4	A-DC5	A-DC6	A-DC7	A-DC8	A-DC9	A-DC10	A-DC11	A-DC12	A-DC13	A-DC14	A-DC15	A-DC16	A-Ph1	A-Ph2	A-Ph3	A-Ph4	A-Ph5	A-Ph6	A-Ph7	A-Ph8	A-Ph9	A-Ph10	A-Ph11	A-Ph12	A-Ph13	A-Ph14	A-Ph15	A-Ph16	

Term	0.00000e+00	0.00000e+00	0.00000e+00	0.00000e+00	0.00000e+00	0.00000e+00	0.00000e+00	0.00000e+00	0.00000e+00	0.00000e+00	0.00000e+00	0.00000e+00	0.00000e+00	0.00000e+00	0.00000e+00	0.00000e+00	0.00000e+00	0.00000e+00	0.00000e+00	0.00000e+00	0.00000e+00	0.00000e+00	0.00000e+00	0.00000e+00	0.00000e+00	0.00000e+00	0.00000e+00	0.00000e+00	0.00000e+00	0.00000e+00	0.00000e+00	0.00000e+00	0.00000e+00	0.00000e+00	0.00000e+00	0.00000e+00	0.00000e+00	0.00000e+00	0.00000e+00	0.00000e+00	0.00000e+00	0.00000e+00	0.00000e+00	0.00000e+00	0.00000e+00	0.00000e+00	0.00000e+00	0.00000e+00	
Factor	1.00000e+00	1.00000e+00	1.00000e+00	1.00000e+00	1.00000e+00	1.00000e+00	1.00000e+00	1.00000e+00	1.00000e+00	1.00000e+00	1.00000e+00	1.00000e+00	1.00000e+00	1.00000e+00	1.00000e+00	1.00000e+00	1.00000e+00	1.00000e+00	1.00000e+00	1.00000e+00	1.00000e+00	1.00000e+00	1.00000e+00	1.00000e+00	1.00000e+00	1.00000e+00	1.00000e+00	1.00000e+00	1.00000e+00	1.00000e+00	1.00000e+00	1.00000e+00	X	X	X	X	X	X	X	X	X	X	X	X	X	X	X	X	

B = Detector Channel
Val Type	B-AC1	B-AC2	B-AC3	B-AC4	B-AC5	B-AC6	B-AC7	B-AC8	B-AC9	B-AC10	B-AC11	B-AC12	B-AC13	B-AC14	B-AC15	B-AC16	B-DC1	B-DC2	B-DC3	B-DC4	B-DC5	B-DC6	B-DC7	B-DC8	B-DC9	B-DC10	B-DC11	B-DC12	B-DC13	B-DC14	B-DC15	B-DC16	B-Ph1	B-Ph2	B-Ph3	B-Ph4	B-Ph5	B-Ph6	B-Ph7	B-Ph8	B-Ph9	B-Ph10	B-Ph11	B-Ph12	B-Ph13	B-Ph14	B-Ph15	B-Ph16	

Term	0.00000e+00	0.00000e+00	0.00000e+00	0.00000e+00	0.00000e+00	0.00000e+00	0.00000e+00	0.00000e+00	0.00000e+00	0.00000e+00	0.00000e+00	0.00000e+00	0.00000e+00	0.00000e+00	0.00000e+00	0.00000e+00	0.00000e+00	0.00000e+00	0.00000e+00	0.00000e+00	0.00000e+00	0.00000e+00	0.00000e+00	0.00000e+00	0.00000e+00	0.00000e+00	0.00000e+00	0.00000e+00	0.00000e+00	0.00000e+00	0.00000e+00	0.00000e+00	-2.26776e+02	-1.29708e+02	-1.25081e+02	-1.81324e+02	-8.13396e+01	-6.84428e+01	-1.55273e+02	-1.62015e+02	-8.44135e+01	-6.57107e+01	-1.73287e+02	-1.69603e+02	-1.82427e+02	-1.77112e+02	-7.61088e+01	-1.49999e+02	
Factor	5.15204e-05	1.63359e-04	4.63749e-05	1.65014e-01	2.13459e-06	1.73112e-06	1.63714e-01	5.20409e-02	2.66509e-06	1.65289e-06	8.93901e-02	2.90941e-02	2.44411e-02	9.00888e-03	1.89399e-06	1.31364e-02	1.97274e-05	3.71382e-05	1.04766e-05	8.31389e-02	3.49691e-07	4.20036e-07	7.75769e-02	2.62501e-02	3.44574e-07	4.22086e-07	4.38463e-02	1.42514e-02	1.24700e-02	4.59518e-03	3.71019e-07	6.48508e-03	X	X	X	X	X	X	X	X	X	X	X	X	X	X	X	X	



#DISTANCE SETTINGS
A = Detector Channel
A-1	A-2	A-3	A-4	A-5	A-6	A-7	A-8	A-9	A-10	A-11	A-12	A-13	A-14	A-15	A-16	

2.5000e+00	3.0000e+00	2.5000e+00	3.0000e+00	2.0000e+00	3.0000e+00	1.5000e+00	3.0000e+00	3.0000e+00	3.0000e+00	3.0000e+00	3.0000e+00	3.0000e+00	3.0000e+00	1.5000e+00	3.0000e+00	

B = Detector Channel
B-1	B-2	B-3	B-4	B-5	B-6	B-7	B-8	B-9	B-10	B-11	B-12	B-13	B-14	B-15	B-16	

1.0000e+01	1.0000e+01	1.0000e+01	1.4400e+00	1.0000e+01	1.0000e+01	1.5100e+00	1.9400e+00	1.0000e+01	1.0000e+01	1.9900e+00	2.4900e+00	2.4100e+00	2.9000e+00	1.0000e+01	2.9800e+00	




#DATA BEGINS
time	group	step	mark	flag	A-AC1	A-AC2	A-AC3	A-AC4	A-AC5	A-AC6	A-AC7	A-AC8	A-AC9	A-AC10	A-AC11	A-AC12	A-AC13	A-AC14	A-AC15	A-AC16	A-DC1	A-DC2	A-DC3	A-DC4	A-DC5	A-DC6	A-DC7	A-DC8	A-DC9	A-DC10	A-DC11	A-DC12	A-DC13	A-DC14	A-DC15	A-DC16	A-Ph1	A-Ph2	A-Ph3	A-Ph4	A-Ph5	A-Ph6	A-Ph7	A-Ph8	A-Ph9	A-Ph10	A-Ph11	A-Ph12	A-Ph13	A-Ph14	A-Ph15	A-Ph16	B-AC1	B-AC2	B-AC3	B-AC4	B-AC5	B-AC6	B-AC7	B-AC8	B-AC9	B-AC10	B-AC11	B-AC12	B-AC13	B-AC14	B-AC15	B-AC16	B-DC1	B-DC2	B-DC3	B-DC4	B-DC5	B-DC6	B-DC7	B-DC8	B-DC9	B-DC10	B-DC11	B-DC12	B-DC13	B-DC14	B-DC15	B-DC16	B-Ph1	B-Ph2	B-Ph3	B-Ph4	B-Ph5	B-Ph6	B-Ph7	B-Ph8	B-Ph9	B-Ph10	B-Ph11	B-Ph12	B-Ph13	B-Ph14	B-Ph15	B-Ph16	aux-1	digaux	

1046.913	1	1	0	256	0.066087	0.067371	0.20394	0.036075	0.16149	0.3529	0.12051	0.13524	0.26956	0.15489	0.13493	0.085413	0.16188	0.31961	0.10969	0.10004	-3.375	-4.0146	-3.4896	-4.0625	-3.8792	-3.7646	-4.2875	-3.9542	-3.7292	-4.1937	-3.8708	-3.975	-3.975	-3.5062	-4.1708	-3.8167	281.611	-68.202	50.839	228.429	237.160	204.297	152.793	285.412	113.481	31.220	112.119	-13.905	83.336	256.713	58.810	3.273	0.00018025	0.0003538	6.4762e-05	1067.5	2.7131e-06	2.0432e-06	1141.5	221.5	2.2043e-06	2.6482e-06	280.06	78.869	60.258	17.65	3.0482e-06	25.212	0.00028206	0.00028124	8.0648e-05	1058.3	3.502e-06	3.1074e-06	1134.4	221.09	3.3941e-06	2.9414e-06	281.87	79.667	60.747	17.899	2.8808e-06	25.517	54.777	13.534	32.381	-58.749	80.555	42.150	-58.501	-51.509	62.445	89.098	-51.379	-45.517	-44.967	-38.148	83.856	-38.214	-8191	255	
1047.010	1	1	0	0	0.20549	0.20418	0.20895	0.22097	0.18963	0.18382	0.31981	0.054555	0.25369	0.19422	0.20037	0.13247	0.3553	0.14247	0.043431	0.13519	-3.4188	-4.2875	-3.5292	-4.0062	-4.0396	-3.8396	-4.1875	-3.7625	-3.8729	-4.1104	-3.8646	-4	-4.1438	-3.7979	-3.9354	-3.8667	176.435	134.809	179.340	242.532	274.659	228.480	164.174	254.292	8.328	255.715	152.215	114.752	5.596	143.356	177.855	269.899	0.00014669	0.00033763	9.3725e-05	1064	2.0558e-06	3.2314e-06	1142.3	221.5	2.5483e-06	3.3411e-06	281.31	79.089	60.654	17.665	2.2909e-06	24.927	0.00027906	0.00027583	8.2918e-05	1054.5	3.3731e-06	3.2422e-06	1134.4	221.49	3.407e-06	3.1032e-06	281.67	79.703	60.831	17.962	3.0431e-06	25.54	70.843	20.160	44.382	-58.536	79.780	84.000	-58.653	-51.457	48.964	81.346	-51.848	-45.448	-45.120	-37.872	84.287	-38.171	-8191	255	
1047.130	1	1	0	0	0.11166	0.18548	0.16022	0.16238	0.073856	0.088418	0.3153	0.1196	0.16196	0.28678	0.1828	0.0427	0.065084	0.14089	0.16627	0.062402	-3.1042	-4.1417	-3.7625	-3.9833	-4.3771	-3.6604	-4.2354	-4.0729	-3.5729	-4.2083	-3.9062	-3.7292	-4.1021	-3.5563	-4.1312	-4.0875	256.937	-34.944	281.105	287.991	199.746	-44.153	271.321	241.553	26.279	11.182	261.165	38.147	-31.021	246.940	78.924	277.533	0.00021258	0.0002571	7.2281e-05	1066	3.4988e-06	1.5213e-06	1142.6	220.22	2.5996e-06	2.5673e-06	282.34	78.86	60.131	17.703	2.5077e-06	25.144	0.0002946	0.00025919	8.1521e-05	1057.6	3.3658e-06	3.18e-06	1133.1	221.03	3.3704e-06	2.8799e-06	282.04	79.716	60.701	17.938	2.8367e-06	25.527	46.934	3.462	4.096	-58.707	64.510	95.826	-58.602	-51.518	83.435	83.424	-51.790	-45.187	-45.204	-38.540	53.350	-38.598	-8191	255	
1047.226	1	1	0	0	0.23795	0.19817	0.09546	0.14149	0.21026	0.049941	0.17053	0.21124	0.10987	0.12312	0.18733	0.06037	0.058249	0.037203	0.15648	0.029166	-3.2271	-4.0375	-3.6729	-3.8771	-4.0896	-3.6813	-3.9896	-4.1354	-3.7021	-4.0458	-3.9688	-3.8229	-4.2083	-3.6917	-3.8083	-4.1937	-40.134	46.552	120.263	240.073	245.370	196.454	153.913	215.937	0.203	212.406	151.048	110.835	191.748	-50.905	-32.050	2.974	0.00018033	0.00028331	6.9367e-05	1070.1	3.0089e-06	2.9086e-06	1135.8	220.76	2.7017e-06	2.6176e-06	281.68	78.506	60.075	17.665	4.0146e-06	25.049	0.00026681	0.0002503	8.2853e-05	1059.6	3.3111e-06	3.1634e-06	1133.3	221.03	3.3316e-06	2.7638e-06	282.02	79.689	60.832	17.927	3.0107e-06	25.63	57.616	24.529	8.025	-58.567	84.411	67.233	-58.573	-51.520	-6.935	69.120	-51.658	-45.347	-45.135	-38.122	80.972	-38.362	-8191	255	
1047.323	1	1	0	0	0.11428	0.16257	0.15159	0.11124	0.098871	0.024274	0.19138	0.17947	0.03786	0.081544	0.060289	0.24897	0.1036	0.3375	0.17754	0.060791	-3.1396	-3.9938	-3.8271	-3.8583	-3.9479	-3.6917	-3.9021	-4.2146	-3.6104	-3.9229	-3.9229	-3.5542	-4.0687	-3.8875	-3.9896	-4.2792	104.295	-26.883	62.069	-63.055	-56.359	21.075	-9.000	251.045	53.513	40.411	65.561	209.590	220.781	221.121	290.403	-15.892	0.00022929	0.00031436	9.4344e-05	1064.1	8.6944e-07	3.537e-06	1140.2	220.35	1.2207e-06	2.8156e-06	279.58	79.103	60.605	17.654	1.3332e-06	25.075	0.0002777	0.00025827	7.8946e-05	1055	2.9206e-06	3.2395e-06	1133.6	221.27	3.0803e-06	2.7954e-06	281.08	79.688	60.934	18.006	2.8507e-06	25.698	54.896	18.654	18.564	-58.691	94.632	67.987	-58.763	-51.539	33.480	87.601	-51.657	-45.302	-45.126	-37.930	105.813	-38.452	-8191	255	
1047.419	1	1	0	0	0.089118	0.048456	0.18677	0.20187	0.090557	0.13062	0.1785	0.14801	0.042171	0.15985	0.060224	0.29354	0.17692	0.14314	0.1089	0.16503	-3.3625	-3.8396	-4.075	-3.6375	-4.1521	-3.5812	-4.0354	-4.1937	-3.5396	-4.0375	-4.1271	-3.7021	-4.1833	-3.7667	-3.7271	-4.0354	241.721	144.490	-2.721	-40.841	92.972	125.866	241.074	228.115	64.054	-51.228	-8.547	225.308	155.778	248.991	4.692	-32.551	0.00017353	0.00025191	9.8316e-05	1060.5	3.0882e-06	2.0992e-06	1136.7	221.36	2.747e-06	2.6466e-06	281.01	78.796	59.952	17.696	2.8859e-06	25.301	0.00026016	0.00024813	7.7855e-05	1053.4	3.0066e-06	2.8746e-06	1132	221.47	3.0366e-06	2.9863e-06	281.42	79.707	60.67	17.99	3.0841e-06	25.656	70.001	18.967	52.928	-58.801	95.032	112.078	-58.758	-51.713	88.029	79.866	-52.043	-45.398	-45.018	-37.756	69.301	-38.508	-8191	255	
1047.515	1	1	0	0	0.12456	0.26452	0.14761	0.1528	0.19565	0.23967	0.14452	0.054065	0.13976	0.21271	0.22287	0.24379	0.09318	0.1238	0.40781	0.21292	-3.2833	-3.8875	-3.9104	-3.675	-4.1458	-3.9	-3.8729	-4.2167	-3.5563	-3.9271	-4.0375	-3.4771	-3.9708	-3.9083	-3.6458	-4.1062	59.085	-30.897	30.153	207.348	96.774	11.307	191.650	-57.430	239.911	65.626	-35.234	221.579	250.719	208.636	46.998	270.903	0.00018339	0.0002704	7.1521e-05	1066.4	2.258e-06	2.734e-06	1136.1	221.49	3.0526e-06	1.9239e-06	281.5	79.107	60.043	17.562	3.4314e-06	25.251	0.00027281	0.0002937	7.8444e-05	1054.9	3.3643e-06	3.0969e-06	1129	221.38	3.0516e-06	2.7682e-06	281.8	79.908	60.788	17.982	3.1544e-06	25.697	57.637	24.885	41.819	-58.634	67.553	77.006	-58.842	-51.532	44.887	112.752	-51.770	-45.460	-44.979	-38.115	102.895	-38.839	-8191	255	
1047.611	1	1	0	0	0.17585	0.11112	0.21085	0.23297	0.20358	0.14309	0.3411	0.12105	0.081996	0.12337	0.17966	0.15772	0.29406	0.21583	0.090867	0.18588	-3.2083	-3.7292	-4.0021	-3.6896	-4.0333	-3.8792	-3.8187	-4.2083	-3.7208	-3.9042	-3.9813	-3.6167	-4.1354	-3.9333	-3.6104	-4.25	235.550	43.042	159.666	271.798	45.351	-36.448	-49.398	39.825	-14.261	248.903	174.772	-33.299	237.437	248.342	-35.716	270.256	0.00018062	0.00023727	8.5984e-05	1062.2	2.4337e-06	3.1543e-06	1133.2	221.04	1.7609e-06	2.59e-06	280.88	79.048	60.338	17.839	3.4787e-06	25.101	0.00026102	0.00028952	7.7549e-05	1052.2	3.0773e-06	2.6287e-06	1127.9	221.37	3.1765e-06	3.3547e-06	281.15	79.942	60.734	18.014	3.0941e-06	25.676	58.054	43.158	24.565	-58.502	105.240	95.503	-58.381	-51.187	44.796	83.049	-52.173	-45.201	-45.121	-37.816	94.882	-38.598	-8191	255	
1047.732	1	1	0	0	0.17231	0.33987	0.24448	0.17265	0.12181	0.17617	0.16144	0.078021	0.16198	0.344	0.13155	0.18599	0.1772	0.051487	0.12739	0.36868	-3.4375	-3.5271	-4.1687	-3.9042	-3.9958	-4.0417	-3.8312	-4.0646	-3.8333	-3.8312	-4.1188	-3.6833	-3.7729	-4.1604	-3.4875	-3.9875	108.603	278.188	221.436	211.778	209.004	176.725	227.421	180.505	176.656	66.870	263.808	9.944	-58.798	-12.424	63.537	215.416	0.00016425	0.00028386	7.955e-05	1056.8	2.7406e-06	2.1735e-06	1135.9	220.59	4.0394e-06	2.0591e-06	281.62	79.058	60.375	17.683	1.9333e-06	25.113	0.00026365	0.00027219	7.2223e-05	1049.5	3.3344e-06	2.8851e-06	1126.9	221.29	2.9669e-06	2.9273e-06	280.81	79.702	60.668	17.968	3.1738e-06	25.625	49.364	26.169	45.786	-58.612	89.391	126.454	-58.570	-51.357	57.440	100.455	-51.545	-45.450	-44.905	-38.084	88.918	-38.187	-8191	255	
1047.826	1	1	0	0	0.087559	0.18402	0.098568	0.2008	0.13687	0.17233	0.42876	0.25349	0.12013	0.17568	0.18653	0.11106	0.203	0.091444	0.21646	0.093129	-3.5104	-3.7708	-3.9792	-3.9104	-3.9292	-3.9375	-3.6583	-4.1312	-3.8688	-3.7271	-4.1604	-3.5896	-3.7938	-3.9688	-3.7729	-4.1604	145.691	243.079	152.713	243.374	173.815	288.066	270.252	-48.383	-10.191	209.286	112.148	90.316	62.884	-5.620	4.519	212.957	0.0001865	0.00029865	7.3571e-05	1058.7	2.808e-06	2.9034e-06	1136.4	221.25	3.7532e-06	2.8936e-06	281.82	79.147	60.471	17.71	3.3661e-06	25.119	0.00028021	0.00027413	6.8666e-05	1049.8	3.2674e-06	2.6865e-06	1127.9	220.99	3.1981e-06	3.1533e-06	281.03	79.8	60.829	17.985	3.1104e-06	25.651	56.312	7.350	46.707	-58.553	99.923	76.928	-58.491	-51.340	94.097	93.959	-51.870	-45.069	-45.061	-37.610	65.928	-38.399	-8191	255	
1047.922	1	1	0	0	0.19981	0.13042	0.18051	0.31843	0.21359	0.18891	0.089601	0.035499	0.1486	0.074197	0.022794	0.1172	0.36759	0.21331	0.037216	0.096595	-3.6458	-3.5542	-4.2021	-3.7229	-3.6896	-4.0604	-3.9583	-4.0479	-3.8521	-3.6937	-4.125	-3.9208	-3.7875	-4.2083	-3.7917	-3.8708	255.336	165.797	236.110	239.713	189.261	29.411	196.234	132.328	188.669	158.112	-60.981	281.912	8.095	30.571	20.506	-5.875	0.00019831	0.00033357	5.914e-05	1067.8	2.3087e-06	3.621e-06	1139.9	221.91	3.9047e-06	3.3758e-06	281.57	79.712	60.225	17.755	2.8664e-06	25.476	0.00027586	0.00028674	7.1765e-05	1051.7	3.3221e-06	2.8641e-06	1127.4	220.91	3.0588e-06	2.9423e-06	281.04	79.95	60.745	17.981	3.0431e-06	25.732	65.864	25.970	36.604	-58.498	39.919	89.822	-58.595	-51.425	51.665	85.291	-51.741	-45.390	-44.603	-37.799	73.662	-38.082	-8191	255	
1048.018	1	1	0	0	0.081422	0.13831	0.093664	0.32664	0.11862	0.17056	0.095642	0.021984	0.074344	0.045438	0.24064	0.20854	0.054564	0.10945	0.2954	0.20829	-3.8521	-3.5042	-4.1917	-3.9292	-3.8063	-4.1708	-3.7812	-3.975	-4.1958	-3.4771	-4.025	-3.9292	-3.5625	-3.9771	-3.7687	-3.9104	-47.301	1.756	247.373	234.892	85.276	-54.035	226.876	188.174	-51.261	207.226	-64.479	193.066	-57.674	-48.204	-45.205	189.597	0.00021491	0.00033078	9.5524e-05	1064.8	3.6417e-06	2.7411e-06	1138.7	221.56	4.239e-06	2.7506e-06	282.28	78.984	60.596	17.816	3.8652e-06	25.307	0.00026805	0.00029192	7.5737e-05	1050.4	3.5341e-06	2.7696e-06	1127.1	221.12	2.9518e-06	3.1762e-06	281.35	79.754	60.899	17.992	2.8298e-06	25.671	59.272	36.755	55.421	-58.583	99.273	83.093	-58.636	-51.638	56.043	57.918	-51.971	-45.171	-44.860	-38.393	111.289	-38.306	-8191	255	
1048.114	1	1	0	0	0.050888	0.009968	0.22221	0.25943	0.15909	0.22542	0.14593	0.19114	0.10526	0.21772	0.13062	0.15218	0.1946	0.31621	0.36133	0.087925	-3.6417	-3.5938	-4.0437	-4.2625	-3.6729	-4.0854	-3.8708	-3.8396	-4.2854	-3.6562	-3.9833	-4.0604	-3.75	-4.05	-3.6312	-3.8479	215.025	33.640	103.483	207.405	263.569	28.200	283.366	247.559	236.890	285.012	211.473	207.770	235.186	51.589	166.899	171.732	0.0002077	0.00023046	8.5423e-05	1061.2	3.9002e-06	2.4107e-06	1137.5	222.6	2.214e-06	3.0024e-06	279.7	78.516	60.577	17.561	2.1629e-06	25.241	0.00026443	0.00026237	6.9757e-05	1049.8	3.4226e-06	2.5753e-06	1126.1	221.49	2.954e-06	3.0144e-06	281.15	79.64	60.835	17.911	2.8893e-06	25.651	62.113	6.052	31.654	-58.544	84.528	81.973	-58.697	-51.479	63.751	83.007	-51.538	-45.355	-44.857	-38.097	76.644	-38.678	-8191	255	
1048.211	1	1	0	0	0.073938	0.22325	0.19685	0.15222	0.20951	0.26108	0.13977	0.18245	0.10624	0.29532	0.24686	0.072359	0.13242	0.033196	0.069479	0.15902	-3.7208	-3.4958	-3.9708	-4.1125	-3.6167	-4.1583	-4.075	-3.8146	-4.1875	-3.7354	-3.9021	-4.1104	-3.7479	-4.05	-3.7396	-3.825	17.331	-2.099	-5.457	249.980	87.631	42.138	262.890	160.942	244.868	92.778	254.465	58.341	233.356	85.669	99.708	264.199	0.00018502	0.0003811	9.7366e-05	1059	1.6675e-06	2.8191e-06	1130.1	220.26	1.3709e-06	3.017e-06	280.24	79.193	60.212	17.669	2.4227e-06	25.157	0.00026833	0.00027382	7.4471e-05	1049.4	3.3388e-06	2.8982e-06	1125.4	220.91	2.9447e-06	3.0821e-06	280.77	79.758	60.83	17.942	3.0485e-06	25.652	67.677	21.955	10.376	-58.635	61.991	75.489	-58.615	-51.352	80.653	71.311	-51.472	-45.281	-45.192	-38.228	38.099	-38.543	-8191	255	
1048.331	1	1	0	0	0.19339	0.13022	0.24392	0.2659	0.13239	0.069563	0.15195	0.05825	0.13174	0.074094	0.12592	0.08774	0.21683	0.22914	0.039852	0.15525	-3.6521	-3.6813	-3.7458	-3.9104	-3.6667	-4.0625	-4.0062	-3.9771	-4.1188	-3.5312	-4.0583	-4.1375	-3.725	-4	-4.0188	-3.7167	128.646	262.109	-2.230	228.601	253.479	121.432	-27.066	118.506	138.308	-39.385	264.932	-29.964	105.651	204.567	6.748	21.106	0.00021345	0.00026614	9.4532e-05	1063.2	1.4534e-06	1.8801e-06	1129.9	221.67	1.8856e-06	2.6083e-06	281.61	79.263	60.384	17.602	2.6134e-06	25.162	0.00025379	0.00027289	7.9644e-05	1049.2	3.1479e-06	2.5482e-06	1124.3	221.44	2.6058e-06	3.0636e-06	281.78	79.802	60.834	17.966	2.8267e-06	25.636	59.782	4.143	15.523	-58.695	48.588	87.687	-58.660	-51.433	105.355	109.363	-51.955	-44.942	-44.925	-37.983	64.288	-38.563	-8191	255	
1048.427	1	1	0	0	0.21129	0.16308	0.29923	0.2523	0.046804	0.098109	0.13118	0.14967	0.1994	0.10508	0.057804	0.1252	0.15876	0.10683	0.11326	0.10894	-3.7646	-3.6854	-3.7771	-4.3583	-3.7333	-3.8771	-4.1188	-3.7479	-4.2312	-3.7292	-4.0292	-4.1729	-3.7667	-3.9833	-3.7667	-3.4688	192.427	25.501	89.236	279.453	139.996	264.554	253.720	173.139	209.727	85.899	192.208	269.094	-9.923	46.789	218.858	239.431	0.000211	0.00028705	7.0439e-05	1061.4	2.5578e-06	2.986e-06	1139.3	221.17	3.5817e-06	2.9522e-06	279.84	78.667	60.246	17.671	3.2553e-06	25.179	0.00024643	0.00027366	7.6872e-05	1050.7	3.3942e-06	2.9009e-06	1126.1	221.21	2.9425e-06	3.0645e-06	281.07	79.783	60.698	18.001	2.9349e-06	25.676	62.923	17.543	6.849	-58.791	120.125	81.159	-58.580	-51.374	47.842	73.119	-51.597	-45.293	-45.224	-37.839	86.577	-38.751	-8191	255	
1048.524	1	1	0	0	0.12851	0.10373	0.14302	0.32099	0.14308	0.11699	0.12845	0.12005	0.2173	0.10033	0.1969	0.27419	0.18091	0.31623	0.090874	0.16445	-3.8042	-3.8354	-3.6021	-4.3896	-3.6271	-3.9271	-3.9917	-3.5708	-4.0333	-3.9417	-3.525	-4.2063	-3.7146	-3.9938	-4.0646	-3.6771	178.126	97.544	-67.378	258.275	-32.800	268.062	186.361	257.555	-66.444	97.194	119.268	182.916	27.965	-59.604	150.739	248.007	0.00019428	0.00032808	6.5418e-05	1059.1	1.7373e-06	3.9224e-06	1129.1	222.49	3.6374e-06	2.8305e-06	280.27	79.164	60.01	17.708	2.7741e-06	25.228	0.00025621	0.00027753	7.4952e-05	1048	3.1509e-06	3.0479e-06	1124.6	221.65	2.8492e-06	2.8333e-06	280.79	79.868	60.754	18.024	2.5693e-06	25.754	66.399	49.146	26.621	-58.601	95.730	80.306	-58.582	-51.362	105.980	103.320	-52.189	-45.232	-45.067	-38.007	78.257	-38.596	-8191	255	
1048.618	1	1	0	0	0.11506	0.12343	0.057764	0.28287	0.096149	0.24717	0.23141	0.19023	0.082477	0.18631	0.044402	0.19185	0.16784	0.24611	0.15227	0.059017	-3.5417	-3.6042	-3.7646	-4.2458	-3.8521	-3.9917	-4.2146	-3.5354	-4.0479	-4	-3.7292	-3.8167	-3.7792	-3.7542	-4.0521	-3.6813	247.652	58.676	-17.192	274.178	141.263	223.942	113.736	3.796	37.708	-1.395	229.198	-37.882	267.051	-48.900	154.715	2.844	0.00016263	0.00032582	5.1618e-05	1054.4	3.4236e-06	2.4931e-06	1132.3	222.17	2.9651e-06	2.1179e-06	281.02	79.998	60.483	17.876	3.4995e-06	25.111	0.00025415	0.00027513	7.111e-05	1046.6	3.1319e-06	3.0234e-06	1125.3	221.8	2.8808e-06	3.0012e-06	281.54	80.151	60.804	18.017	2.771e-06	25.673	49.580	20.275	30.270	-58.698	88.806	88.479	-58.591	-51.498	87.494	62.260	-51.797	-44.990	-44.849	-37.836	80.174	-38.620	-8191	255	
1048.691	1	1	0	0	0.096523	0.099147	0.15148	0.21592	0.19293	0.22673	0.13753	0.16792	0.24977	0.2697	0.036036	0.089141	0.072818	0.2358	0.23719	0.061116	-3.4021	-3.7833	-3.4417	-4.1438	-3.7042	-3.8292	-4.2312	-3.6042	-3.8458	-3.8667	-3.7417	-4.1521	-3.7354	-3.8104	-4.0208	-3.7396	267.990	53.702	102.921	281.376	11.297	239.251	189.841	224.459	237.887	-47.262	37.867	225.509	56.303	97.974	-40.841	157.513	0.00022793	0.00030561	8.0769e-05	1060.4	2.7621e-06	2.2707e-06	1134	221.97	2.2611e-06	3.0645e-06	280.04	79.019	59.961	17.733	2.6835e-06	25.176	0.00025642	0.00027993	7.3467e-05	1048.9	3.1297e-06	2.7591e-06	1124.3	221.46	3.0545e-06	2.8113e-06	280.98	79.665	60.666	18.028	2.7765e-06	25.713	61.026	11.722	20.323	-58.626	72.234	75.294	-58.433	-51.693	48.081	88.881	-51.922	-45.322	-44.509	-37.957	75.401	-38.352	-8191	255	
1048.810	1	1	0	0	0.10207	0.26331	0.024072	0.073144	0.031579	0.17557	0.31103	0.16676	0.1082	0.27619	0.17987	0.14123	0.070384	0.19115	0.041896	0.24638	-3.4229	-4.0229	-3.4833	-4.1417	-4.0146	-3.5938	-4.1896	-3.7271	-3.9042	-4.0167	-3.6542	-4.1771	-4.0104	-3.6771	-4.2125	-3.6458	127.706	-58.423	0.448	149.252	244.801	-43.178	259.679	190.120	191.092	30.728	34.583	239.144	252.456	171.886	24.119	280.544	0.0001945	0.0004008	9.2355e-05	1061.9	3.3417e-06	2.5438e-06	1132.8	221.83	3.4857e-06	1.8328e-06	280.44	79.018	60.142	17.645	3.2295e-06	25.359	0.00027684	0.00026484	7.3577e-05	1049.9	3.2696e-06	2.8685e-06	1125.7	221.38	2.9023e-06	2.5176e-06	281.1	79.771	60.757	17.988	2.7038e-06	25.731	59.974	20.388	11.213	-58.547	71.397	93.695	-58.447	-51.379	65.637	86.708	-51.630	-45.403	-45.086	-37.739	109.501	-38.679	-8191	255	
1048.906	1	1	0	0	0.27602	0.11127	0.28785	0.19451	0.25587	0.23599	0.2429	0.084861	0.2515	0.084874	0.10099	0.14871	0.24211	0.14996	0.21138	0.27048	-3.3479	-4.1333	-3.5417	-4.1062	-3.7646	-3.5771	-4.1583	-3.7583	-3.8583	-4.1083	-3.6958	-4.1	-3.8063	-3.7354	-4.0021	-3.9021	88.060	67.478	205.502	247.312	171.119	223.760	-23.951	205.368	208.925	1.358	285.562	286.776	255.243	144.223	197.993	-56.165	0.00020058	0.00035218	8.1057e-05	1055.7	1.2433e-06	3.6456e-06	1128.4	222.3	2.2908e-06	3.1846e-06	280.55	78.767	59.984	17.604	3.067e-06	25.182	0.00026098	0.00024867	6.9866e-05	1047.3	2.9622e-06	2.8755e-06	1124.2	221.73	3.0301e-06	2.5985e-06	280.72	79.782	60.767	17.977	2.5415e-06	25.694	68.570	14.653	20.264	-58.589	31.936	87.852	-58.438	-51.826	78.196	83.364	-51.772	-45.200	-45.334	-38.353	63.620	-38.610	-8191	255	
1049.003	1	1	0	0	0.10215	0.13286	0.19044	0.19976	0.12713	0.19083	0.27541	0.3355	0.22244	0.21657	0.1734	0.10288	0.2955	0.085595	0.1818	0.12434	-3.3125	-4.05	-3.6625	-4.075	-4.0437	-3.5104	-4.2229	-3.8042	-3.3521	-4.1583	-3.6833	-3.9771	-3.9083	-3.55	-4.0833	-3.9625	179.097	143.018	210.703	221.595	83.648	-40.933	213.192	60.219	191.444	214.840	237.386	220.760	254.480	82.551	-13.425	151.602	0.00019492	0.00026514	8.7133e-05	1061.5	2.946e-06	2.3228e-06	1137.1	221.89	2.3067e-06	3.0253e-06	282.13	78.603	60.534	17.694	2.8769e-06	25.327	0.00025748	0.00024078	7.4122e-05	1048.8	3.1057e-06	2.858e-06	1127.1	221.57	2.9705e-06	2.5176e-06	281.82	79.824	60.938	17.967	2.7486e-06	25.682	55.840	-11.602	26.899	-58.664	73.325	74.361	-58.509	-51.695	113.871	75.964	-51.560	-45.120	-45.110	-38.017	81.211	-38.345	-8191	255	
1049.123	1	1	0	0	0.21866	0.18187	0.18558	0.16174	0.17405	0.13845	0.24401	0.29674	0.12971	0.32853	0.087257	0.32537	0.1237	0.15081	0.095027	0.10388	-3.1229	-4.1396	-3.6146	-4.0333	-3.9958	-3.7479	-4.125	-3.9479	-3.4875	-4.0875	-3.8812	-3.85	-4.0646	-3.6458	-4.175	-3.9542	249.322	241.409	153.245	209.263	160.090	164.634	258.260	-40.851	-61.377	-5.369	199.523	268.334	242.509	139.815	96.053	284.772	0.0002169	0.00021383	7.573e-05	1057.6	2.0537e-06	3.8731e-06	1135	221.73	2.6916e-06	2.7999e-06	282.33	78.906	60.406	17.783	2.6366e-06	25.13	0.00028609	0.00023204	7.3293e-05	1048.7	2.9614e-06	2.7994e-06	1125.7	221.5	3.0976e-06	2.6574e-06	281.58	79.786	60.765	17.996	2.7053e-06	25.679	41.656	19.174	24.720	-58.653	80.894	82.765	-58.520	-51.604	85.244	79.105	-51.644	-45.015	-44.581	-37.831	96.578	-38.739	-8191	255	
1049.219	1	1	0	0	0.090651	0.25032	0.11761	0.29827	0.13848	0.096488	0.03157	0.20266	0.060303	0.1419	0.10185	0.19636	0.20997	0.1557	0.008949	0.066529	-3.1792	-4.0979	-3.7146	-3.7792	-4.1917	-3.7167	-4.1542	-4.1208	-3.6604	-4.0312	-3.8271	-3.9333	-4.0625	-3.7229	-3.925	-4.0021	181.004	160.142	80.216	227.429	86.749	-0.585	94.351	278.248	60.922	46.610	221.366	274.382	227.340	194.809	80.001	135.110	0.00023273	0.0003386	9.2704e-05	1061.5	2.4496e-06	2.2762e-06	1129.7	222.84	2.0528e-06	3.0049e-06	281.22	79.111	60.403	17.737	2.1601e-06	25.31	0.00027865	0.00024867	6.9604e-05	1048.4	2.8223e-06	2.9744e-06	1123.1	221.82	3.0717e-06	3.0065e-06	281.27	79.826	60.803	17.941	2.8252e-06	25.742	49.282	14.988	13.984	-58.705	88.872	99.820	-58.430	-51.434	75.566	86.094	-51.600	-45.100	-44.662	-37.604	112.219	-38.341	-8191	255	
1049.291	1	1	0	0	0.15706	0.0071972	0.084696	0.097917	0.055547	0.1259	0.28326	0.086494	0.15637	0.21485	0.20454	0.17965	0.25235	0.067453	0.17348	0.01623	-3.0792	-4.2271	-3.7542	-3.9333	-4.125	-3.8042	-3.9771	-4.1021	-3.5167	-4.1708	-4.1042	-3.8042	-4.0146	-3.9437	-3.7188	-4.2167	-25.059	178.458	-20.467	254.653	110.847	184.906	217.423	248.759	49.624	88.284	-5.043	-30.659	88.075	282.784	166.151	-69.406	0.00023613	0.0002913	8.5332e-05	1058.9	3.1469e-06	4.0439e-06	1139.1	222.48	4.9985e-07	3.4149e-06	280.9	79.232	60.627	17.737	3.1479e-06	25.23	0.00026279	0.00024798	7.7985e-05	1047.4	2.9971e-06	2.9044e-06	1124.9	221.42	3.1234e-06	2.6952e-06	281.2	79.856	60.796	17.959	2.8978e-06	25.7	70.047	21.632	-3.964	-58.418	57.513	93.723	-58.618	-51.468	71.466	104.989	-52.194	-45.252	-44.507	-37.689	59.154	-39.004	-8191	255	
1049.412	1	1	0	0	0.061301	0.068113	0.16933	0.23477	0.1349	0.20834	0.12325	0.087512	0.14996	0.19159	0.4569	0.061129	0.17879	0.087682	0.14304	0.13893	-3.1896	-3.9833	-3.7354	-3.8917	-4.2812	-3.7708	-3.9625	-4.15	-3.5812	-4.1813	-3.9688	-3.7208	-4	-3.8563	-3.7667	-4.0938	-48.513	83.299	245.388	264.434	154.833	101.707	281.713	228.734	257.924	110.666	267.988	96.872	227.259	2.950	246.908	189.352	0.00024118	0.00024134	4.8756e-05	1059.1	3.6689e-06	2.7138e-06	1133.8	222.61	3.3992e-06	2.7563e-06	281.97	79.726	60.677	17.946	3.3448e-06	25.587	0.0002595	0.0002544	7.4973e-05	1046.6	2.9396e-06	2.7232e-06	1124.5	221.6	3.043e-06	2.93e-06	281.28	79.787	60.867	18.062	3.0215e-06	25.745	63.705	4.696	29.626	-58.582	59.109	64.472	-58.676	-51.557	78.919	84.748	-51.785	-45.196	-45.251	-38.075	74.853	-37.964	-8191	255	
1049.508	1	1	0	0	0.13733	0.22534	0.28177	0.2474	0.20729	0.15175	0.075246	0.058955	0.19636	0.060281	0.20399	0.059491	0.10721	0.07547	0.15863	0.27777	-3.2188	-3.8854	-3.9437	-3.6083	-4.2146	-3.9938	-3.7646	-4.1312	-3.6708	-3.8021	-3.975	-3.5896	-4.1021	-3.9562	-3.675	-4.1833	-61.634	103.633	-18.046	246.746	93.556	248.749	258.055	153.551	238.470	128.225	253.773	143.820	75.139	-17.110	26.672	8.053	0.00018186	0.00028765	9.6338e-05	1067.3	2.7567e-06	3.0947e-06	1146.5	224.2	3.0534e-06	2.7608e-06	283.18	80.137	60.584	17.929	2.3426e-06	25.528	0.00027088	0.00026144	7.2027e-05	1049.5	3.2368e-06	2.7714e-06	1127.6	222.45	3.3302e-06	3.0531e-06	281.61	80.125	60.9	18.072	2.7231e-06	25.776	63.451	11.785	42.663	-58.487	53.144	54.812	-58.142	-51.466	57.592	87.423	-51.428	-44.917	-44.908	-37.516	84.556	-38.663	-8191	255	
1049.604	1	1	0	0	0.09401	0.25196	0.2334	0.37162	0.17083	0.12935	0.17718	0.2598	0.20639	0.10529	0.22919	0.255	0.15825	0.19355	0.17626	0.27443	-3.4167	-3.775	-4.0646	-3.9271	-3.8625	-3.8208	-3.6146	-4.1104	-3.5875	-3.9125	-4.0479	-3.6167	-3.9646	-3.9042	-3.5812	-4.1687	28.347	25.416	2.943	249.898	-2.825	71.428	275.478	285.843	-47.755	-28.408	-32.261	160.467	-54.799	261.090	-51.793	215.688	0.00015601	0.00023157	6.4189e-05	1068.2	3.2907e-06	2.9165e-06	1141.7	223.87	3.7383e-06	2.5538e-06	282.21	79.944	60.901	17.853	2.8088e-06	25.553	0.00025987	0.00025548	6.7422e-05	1049	3.1006e-06	2.5482e-06	1126	221.97	3.1335e-06	3.0214e-06	280.89	80.167	60.964	18.036	2.8646e-06	25.794	60.395	8.106	19.191	-58.347	99.830	86.737	-58.296	-50.973	74.839	74.325	-51.459	-45.252	-44.522	-37.885	80.998	-38.502	-8191	255	
1049.723	1	1	0	0	0.1012	0.15502	0.11211	0.133	0.025405	0.14012	0.37904	0.26646	0.2257	0.15361	0.29044	0.15266	0.26607	0.14056	0.059882	0.13252	-3.3667	-3.7583	-4.0083	-3.9938	-3.8063	-3.9083	-3.8396	-4.0896	-3.8	-3.85	-4.3688	-3.5521	-4.0458	-3.9333	-3.8042	-4.2063	277.223	93.973	198.365	-30.988	-28.352	15.458	278.631	275.970	234.112	98.104	180.605	-34.037	264.901	126.812	24.425	198.827	0.0001801	0.00021519	9.7732e-05	1068.1	1.7521e-06	3.4006e-06	1142.9	223.07	2.002e-06	2.4315e-06	283.07	79.72	60.894	17.804	2.8398e-06	25.409	0.00027388	0.00024411	6.5785e-05	1048.6	3.0882e-06	2.7101e-06	1125.5	221.74	2.9691e-06	2.9766e-06	281.43	80.068	60.839	18.018	2.5631e-06	25.746	46.239	17.567	40.729	-58.457	86.496	87.355	-58.288	-51.274	53.961	80.694	-51.853	-45.182	-44.893	-38.184	68.850	-38.085	-8191	255	
1049.819	1	1	0	0	0.020854	0.17305	0.30851	0.095243	0.17423	0.20018	0.13845	0.24159	0.1134	0.11325	0.12821	0.020813	0.18151	0.21336	0.16669	0.099582	-3.55	-3.7375	-4.2458	-3.8521	-3.8937	-4.1625	-3.6292	-4.1167	-3.6979	-3.6562	-4.3604	-3.6208	-3.9562	-4.0521	-3.6292	-3.9958	-21.086	23.479	286.128	11.823	195.917	3.090	205.389	229.686	-8.553	231.188	121.425	-54.450	-9.272	59.362	224.904	213.691	0.0001826	0.00027453	7.3582e-05	1063.2	2.1569e-06	3.7837e-06	1142.3	222.82	3.3252e-06	2.4078e-06	283.46	79.298	61.018	17.833	3.2819e-06	25.505	0.0002655	0.00025053	6.4606e-05	1046.7	2.9862e-06	2.8597e-06	1124.8	221.4	3.0179e-06	2.8887e-06	281.36	79.974	60.917	18.014	2.7718e-06	25.721	61.960	12.190	18.302	-58.315	107.798	80.097	-58.483	-51.351	89.196	92.419	-51.767	-44.855	-44.477	-37.862	93.170	-38.351	-8191	255	
1049.915	1	1	0	0	0.046468	0.26275	0.15683	0.21335	0.098529	0.086633	0.31553	0.10328	0.091691	0.17628	0.12821	0.060921	0.30322	0.097044	0.16697	0.21321	-3.5333	-3.7479	-4.0813	-3.7646	-3.8	-4.1104	-3.7292	-3.8208	-3.9833	-3.625	-4.1229	-3.9917	-3.7104	-4.1458	-3.5229	-3.9271	-67.730	224.507	181.936	278.628	86.855	170.080	180.639	248.450	31.711	168.594	7.066	201.699	283.746	-14.015	67.624	216.563	0.00019771	0.00033591	8.5849e-05	1060.9	3.9091e-06	3.3923e-06	1140.7	223.57	3.2807e-06	2.515e-06	282.87	79.943	60.585	17.778	2.4007e-06	25.553	0.00025699	0.00027266	7.1678e-05	1046.5	3.1385e-06	2.5185e-06	1124.4	221.66	2.9942e-06	2.8931e-06	281.79	80.051	60.899	18.01	2.8081e-06	25.76	45.770	29.306	29.662	-58.264	69.950	83.216	-58.337	-51.214	45.111	76.694	-51.538	-45.057	-44.555	-37.907	53.842	-38.433	-8191	255	
1049.987	1	1	0	0	0.2109	0.089299	0.185	0.23281	0.30145	0.33919	0.18233	0.30131	0.18932	0.22259	0.21728	0.08114	0.057254	0.14268	0.18365	0.074168	-3.5521	-3.5708	-4.0708	-3.8854	-3.6083	-4.075	-3.8083	-3.9854	-4.1188	-3.7479	-4.1479	-3.9	-3.6729	-4.1875	-3.7458	-3.9375	281.521	-48.848	-56.301	243.590	147.380	163.543	134.027	233.688	-66.920	161.942	281.115	-68.812	172.725	236.573	233.965	34.892	0.00019819	0.00023372	9.012e-05	1065.6	2.6384e-06	2.6104e-06	1135.3	224.3	4.2573e-06	3.1201e-06	284.26	79.246	60.662	17.94	3.1475e-06	25.552	0.00025461	0.00026105	6.7378e-05	1048.7	3.1334e-06	2.3933e-06	1122.3	222.47	2.8456e-06	2.9441e-06	281.89	79.934	60.923	18.076	2.7138e-06	25.776	56.747	22.979	30.039	-58.360	75.484	101.207	-58.436	-51.465	33.663	91.088	-51.585	-45.074	-44.621	-37.859	88.229	-38.457	-8191	255	
1050.107	1	1	0	0	0.18664	0.16935	0.30405	0.14254	0.19083	0.1423	0.16682	0.18089	0.2463	0.1365	0.23595	0.077117	0.25523	0.19694	0.19856	0.13363	-3.7354	-3.6167	-4.15	-4.0104	-3.5854	-4.1521	-3.6896	-4.0625	-4.0708	-3.8333	-4.1167	-4.1417	-3.65	-4.1833	-3.6854	-4.0542	5.096	-19.000	-44.205	-34.677	43.026	142.802	218.651	271.551	201.636	34.236	252.861	268.372	261.140	212.918	136.456	146.417	0.00021758	0.00028488	7.6438e-05	1064.5	2.3779e-06	1.5215e-06	1142.5	223.41	2.8776e-06	2.5797e-06	283.91	80.086	61.11	18.001	1.8363e-06	25.497	0.00025687	0.00024612	7.135e-05	1046.2	3.1144e-06	2.452e-06	1124.6	222	2.6748e-06	2.7963e-06	281.71	80.254	60.979	18.082	2.7007e-06	25.783	59.217	32.616	32.262	-58.214	83.329	92.887	-58.281	-51.316	14.764	78.413	-51.345	-44.821	-44.641	-37.873	65.243	-38.648	-8191	255	
1050.204	1	1	0	0	0.24423	0.32065	0.19337	0.16042	0.10112	0.085168	0.21729	0.10968	0.11551	0.13236	0.37055	0.25432	0.056654	0.13168	0.18485	0.2716	-3.7062	-3.6875	-3.9792	-4.0458	-3.6521	-4.0979	-4.0771	-3.9083	-3.9625	-3.7854	-4.0729	-4.0917	-3.6667	-3.9979	-3.95	-3.7854	-65.396	235.496	276.811	-38.086	-44.188	220.207	233.551	278.988	232.946	-42.183	278.579	-7.021	-29.804	-30.618	163.389	185.926	0.00016343	0.00033131	8.5744e-05	1061.5	2.7497e-06	2.1092e-06	1140.4	223.36	2.1134e-06	2.276e-06	284.96	79.932	61.026	17.9	1.358e-06	25.531	0.00024704	0.00027266	7.2813e-05	1046.4	3.1632e-06	2.4896e-06	1122.8	221.99	2.6755e-06	2.828e-06	282.03	80.315	61.111	18.078	2.5515e-06	25.771	56.661	23.954	42.599	-58.418	119.952	72.820	-58.518	-51.358	40.074	74.966	-51.582	-44.789	-44.751	-37.733	36.660	-37.763	-8191	255	
1050.300	1	1	0	0	0.088838	0.12558	0.097127	0.10275	0.19471	0.043297	0.19133	0.18284	0.18219	0.16642	0.090022	0.24338	0.16486	0.14606	0.15118	0.10948	-3.8312	-3.55	-3.9437	-4.2438	-3.6271	-4.0979	-4.0604	-3.7854	-4.2292	-3.6896	-3.85	-4.1333	-3.4188	-4.1896	-3.8875	-3.6792	179.364	230.420	159.463	-63.976	268.038	-8.744	-13.354	137.796	0.197	96.478	-6.634	254.880	233.147	272.083	65.995	-20.852	0.00019917	0.00029543	8.5906e-05	1063.5	1.4112e-06	2.0909e-06	1143.1	223.36	3.0548e-06	3.2144e-06	284.38	79.882	61	17.871	1.9311e-06	25.391	0.00024996	0.00025842	7.17e-05	1044.4	2.9403e-06	2.5141e-06	1124.5	221.81	2.6403e-06	2.8025e-06	281.99	79.951	61.048	18.025	2.4789e-06	25.819	55.236	28.466	25.481	-58.493	73.558	70.435	-58.227	-51.251	60.094	73.098	-51.571	-45.145	-44.606	-37.752	106.556	-38.377	-8191	255	
1050.396	1	1	0	0	0.083413	0.067485	0.11565	0.17839	0.17884	0.18208	0.34214	0.044374	0.10246	0.046149	0.05538	0.16094	0.193	0.10158	0.041352	0.17486	-3.5438	-3.725	-3.9979	-4.1396	-3.7021	-3.9458	-4.15	-3.7062	-4.1125	-3.9354	-3.9062	-4.1312	-3.8917	-4.1438	-4.0604	-3.7125	153.148	-44.828	64.992	171.063	-11.680	95.780	228.785	177.914	9.614	218.990	-43.975	9.409	255.862	-45.323	48.862	268.412	0.00018026	0.00035243	0.0001193	1061.6	3.0823e-06	2.6218e-06	1136.4	223.38	2.3361e-06	2.6122e-06	283.03	79.787	61.08	17.865	3.526e-06	25.441	0.00023878	0.00027722	6.9168e-05	1045	3.0401e-06	2.676e-06	1120.9	221.67	2.8959e-06	2.7057e-06	281.34	80.072	60.967	18.054	2.5871e-06	25.742	53.231	18.702	18.114	-58.439	61.937	104.052	-58.410	-51.151	81.465	83.909	-51.660	-45.114	-44.661	-37.801	84.090	-38.347	-8191	255	
1050.515	1	1	0	0	0.24654	0.26147	0.14215	0.18271	0.075335	0.068913	0.23204	0.068231	0.1242	0.27634	0.14746	0.14375	0.30867	0.10065	0.059892	0.18902	-3.9125	-3.8271	-3.7292	-4.3104	-3.8333	-4.0062	-4.2625	-3.6833	-4.075	-3.8958	-3.8979	-4.2292	-3.8563	-3.8646	-3.9813	-3.5833	65.660	197.066	17.115	-52.563	36.465	-5.003	122.809	259.002	125.974	66.799	197.764	198.179	279.242	217.521	-43.458	203.106	0.00021052	0.00022884	8.9481e-05	1062.5	2.2141e-06	2.7506e-06	1136.1	223.2	5.3639e-07	4.444e-06	283	79.851	61.108	17.88	2.1151e-06	25.688	0.0002558	0.00024828	7.0739e-05	1044.5	2.9899e-06	2.6173e-06	1120.6	221.63	2.7839e-06	2.6442e-06	281.52	80.235	61.034	18.043	2.5701e-06	25.847	49.880	-2.440	34.789	-58.550	80.603	70.126	-58.285	-51.192	15.240	81.463	-51.438	-44.565	-44.715	-37.553	88.187	-38.392	-8191	255	
1050.588	1	1	0	0	0.1121	0.13728	0.056023	0.095535	0.15305	0.20382	0.20489	0.24025	0.24543	0.20603	0.084076	0.17525	0.077062	0.32867	0.13824	0.053146	-3.6896	-3.8542	-3.8375	-4.3292	-3.6813	-3.9938	-4.3562	-3.7646	-4.0104	-4.0917	-3.9437	-4.2896	-3.8312	-3.7687	-4.1125	-3.5979	51.549	285.156	184.625	233.705	188.064	203.667	185.326	54.393	-58.755	69.823	161.101	237.518	185.372	279.550	290.021	219.912	0.0002126	0.00031262	7.8582e-05	1059.3	1.7207e-06	2.2189e-06	1138.1	223.24	2.9354e-06	2.579e-06	282.58	79.846	60.575	17.778	3.6198e-06	25.413	0.00025358	0.00024225	6.8753e-05	1043.2	3.0919e-06	2.5736e-06	1120.5	222.12	2.944e-06	2.376e-06	281.3	80.008	60.921	17.987	2.5639e-06	25.767	53.528	20.430	19.753	-58.429	96.614	79.206	-58.215	-51.094	66.727	110.217	-51.226	-45.354	-44.830	-37.847	81.471	-38.474	-8191	255	
1050.684	1	1	0	0	0.2884	0.28401	0.11019	0.23639	0.10289	0.12273	0.23108	0.073162	0.12568	0.30264	0.29459	0.13024	0.11404	0.064742	0.16597	0.076165	-3.5958	-3.9688	-3.5542	-4.2604	-4.0292	-3.9667	-4.4792	-3.7604	-4.0354	-3.8771	-3.8271	-4.2625	-3.9292	-3.7562	-4.1354	-3.7104	39.080	221.351	-27.248	254.489	134.332	282.324	279.380	273.555	175.067	138.545	34.653	182.022	-23.186	176.990	54.307	172.976	0.00021263	0.00027793	0.00011485	1061.9	2.2325e-06	3.1656e-06	1139.4	223.39	3.0722e-06	2.2343e-06	283.76	80.042	60.475	18.04	3.4754e-06	25.604	0.00025563	0.00025594	7.0586e-05	1043.5	2.976e-06	2.6208e-06	1120.5	222.2	2.6762e-06	2.4912e-06	281.22	80.148	60.782	18.063	2.4866e-06	25.792	54.220	2.019	17.585	-58.430	93.483	98.242	-58.104	-51.407	54.714	45.246	-51.487	-45.101	-45.086	-37.986	76.549	-37.885	-8191	255	
1050.803	1	1	0	0	0.1925	0.27483	0.22813	0.26954	0.0070608	0.22285	0.1389	0.25905	0.19614	0.20018	0.26817	0.11402	0.21806	0.23327	0.19831	0.1965	-3.7417	-3.9917	-3.6208	-4.1354	-3.8396	-3.8688	-4.3292	-3.9375	-3.8542	-4.1625	-3.6708	-4.0771	-3.9688	-3.6521	-4.2562	-3.7667	33.462	22.272	218.629	-44.082	118.234	-24.422	-69.193	276.274	224.570	-7.289	-7.974	22.717	249.515	286.983	210.254	270.716	0.00019633	0.00032183	8.6246e-05	1062.1	1.846e-06	3.5971e-06	1138.4	223.3	1.0144e-06	2.7816e-06	283.3	79.713	60.946	18.006	3.1822e-06	25.519	0.00026422	0.00023923	6.9015e-05	1043.8	3.1989e-06	2.8195e-06	1121.4	221.81	2.6188e-06	2.3329e-06	281.63	80.216	61.115	18.103	2.6172e-06	25.816	62.682	28.705	16.174	-58.501	98.383	63.052	-58.333	-51.257	94.172	71.165	-51.593	-44.754	-44.728	-38.144	55.530	-38.353	-8191	255	
1050.899	1	1	0	0	0.26907	0.27037	0.11199	0.11353	0.05267	0.12898	0.066478	0.032287	0.16232	0.28774	0.091325	0.20281	0.30204	0.21702	0.028926	0.10167	-3.4667	-4.0938	-3.525	-4.1583	-3.8646	-3.5792	-4.3875	-3.7771	-3.6833	-4.2042	-3.6458	-4.2583	-3.8521	-3.7479	-4.0375	-4.0375	55.116	18.808	90.979	-19.758	274.575	-61.219	-59.207	152.969	273.841	-2.293	-66.028	49.665	244.792	274.564	105.265	212.226	0.00016925	0.00033168	9.9898e-05	1061.6	9.9585e-07	3.4787e-06	1134.8	224.21	1.828e-06	2.3525e-06	285.37	80.227	60.832	17.909	3.3339e-06	25.421	0.00025387	0.00021486	7.1372e-05	1044	2.9556e-06	2.767e-06	1120.5	222.19	2.7013e-06	2.4595e-06	282.42	80.333	61.001	18.065	2.4959e-06	25.788	55.991	19.635	22.105	-58.337	145.571	71.881	-58.345	-51.214	42.982	58.647	-51.560	-45.037	-44.772	-38.020	101.037	-38.284	-8191	255	
1050.995	1	1	0	0	0.13775	0.086406	0.32188	0.10622	0.08653	0.13602	0.3381	0.23345	0.11495	0.26219	0.31416	0.1092	0.23656	0.11947	0.1018	0.16386	-3.4333	-4.0521	-3.5854	-4.0896	-4.0917	-3.575	-4.3229	-3.9792	-3.7229	-4.1833	-3.5625	-4.0375	-4.0271	-3.7979	-3.9167	-3.9667	59.031	104.239	96.731	-69.343	3.328	-15.959	225.037	-67.485	163.844	177.610	251.429	-59.300	77.500	181.240	64.421	282.334	0.0001937	0.00036695	9.6997e-05	1062.8	2.1775e-06	3.0249e-06	1135.2	223.6	2.2755e-06	2.4748e-06	284.65	79.953	61.042	17.756	1.2016e-06	25.532	0.00024684	0.00021865	7.1525e-05	1043.3	2.893e-06	2.655e-06	1120.4	222.53	2.7573e-06	2.4472e-06	281.5	80.202	61.006	18.051	2.5113e-06	25.835	57.217	32.866	18.441	-58.531	77.010	70.842	-58.284	-51.506	77.766	56.693	-51.564	-45.165	-44.731	-37.841	83.816	-37.981	-8191	255	
1051.092	1	1	0	0	0.0047282	0.092895	0.19903	0.19877	0.044011	0.25587	0.12132	0.23984	0.19553	0.14087	0.010686	0.094731	0.07153	0.23719	0.062226	0.069241	-3.3771	-4.1854	-3.6771	-4.0667	-4.1583	-3.6	-4.3729	-3.8083	-3.7208	-4.0979	-3.7646	-3.9021	-4.1125	-3.5917	-3.9917	-4.15	190.799	6.340	280.128	286.024	197.291	90.465	-65.969	227.838	46.688	-29.638	-1.483	226.818	152.571	-61.330	80.784	186.313	0.00016666	0.00021006	6.9102e-05	1060	4.1961e-06	2.6197e-06	1137.8	224.59	3.1788e-06	2.9387e-06	284.11	80.574	60.485	17.968	3.2485e-06	25.745	0.00024569	0.0002301	7.063e-05	1043	2.9024e-06	2.739e-06	1121.7	222.73	3.1277e-06	2.4657e-06	281.51	80.302	60.918	18.1	2.6304e-06	25.934	49.432	1.213	45.333	-58.512	98.577	79.314	-58.143	-51.131	122.279	106.127	-51.557	-44.726	-44.725	-37.759	96.311	-38.100	-8191	255	
1051.188	1	1	0	0	0.11408	0.055651	0.13753	0.17664	0.32078	0.12518	0.23937	0.050715	0.30302	0.1003	0.19212	0.12098	0.13613	0.24307	0.13595	0.042571	-3.0396	-4.1479	-3.8625	-3.875	-4.2063	-3.6437	-4.1312	-4.0896	-3.7417	-4.1562	-3.9167	-3.7646	-4.1667	-3.6521	-4.1	-4.0938	88.546	217.104	273.354	-6.260	59.466	126.417	172.915	203.955	65.220	26.566	181.149	228.037	269.488	-56.660	285.910	186.149	0.00021685	0.00025963	6.9573e-05	1059.8	2.6988e-06	2.2062e-06	1138.6	223.78	2.8562e-06	1.3303e-06	283.06	80.237	61.123	17.881	1.9395e-06	25.516	0.0002505	0.00024581	7.2398e-05	1042.6	2.8208e-06	2.4756e-06	1121.6	222.07	2.8872e-06	2.5809e-06	280.86	80.309	61.033	18.096	2.6999e-06	25.777	65.856	16.323	4.659	-58.310	111.295	54.615	-58.326	-51.115	80.469	111.811	-51.677	-45.198	-45.097	-37.695	60.493	-38.359	-8191	255	
1051.284	1	1	0	0	0.15757	0.16014	0.094376	0.17491	0.15332	0.24792	0.24434	0.24881	0.19289	0.20488	0.045893	0.3364	0.1801	0.13706	0.049949	0.095055	-3.2083	-3.8812	-3.9542	-3.7604	-4.3396	-3.8167	-4.0646	-4.025	-3.6375	-4.0854	-4.0292	-3.7833	-4.2292	-3.7562	-3.7958	-4.1813	170.077	-32.262	50.026	183.151	261.986	194.842	-50.647	189.124	178.706	216.965	208.085	258.989	-53.146	180.382	235.018	121.483	0.00023626	0.00026424	7.3065e-05	1059.4	3.1136e-06	2.3014e-06	1130.1	223.78	1.2043e-06	3.6727e-06	283.95	79.914	61.118	18.023	3.2893e-06	25.466	0.00024499	0.00024643	6.7924e-05	1042.5	2.9804e-06	2.7486e-06	1116.8	222.37	2.9648e-06	2.8139e-06	281.66	80.172	61.136	18.126	2.4394e-06	25.851	74.630	38.824	32.206	-58.308	75.447	78.227	-58.404	-51.274	41.502	93.166	-51.523	-44.854	-44.590	-37.722	50.382	-38.435	-8191	255	
1051.405	1	1	0	0	0.16011	0.20737	0.060897	0.055822	0.21213	0.14375	0.13206	0.13315	0.1496	0.22032	0.047789	0.1054	0.12579	0.12701	0.19984	0.15967	-3.2083	-4.0896	-3.9104	-3.7854	-4.1771	-3.7313	-4.0104	-4.0375	-3.6292	-4.2063	-3.9333	-3.6146	-4.3104	-3.775	-3.8292	-4.3063	209.884	55.398	54.032	195.887	21.550	272.270	288.046	192.096	153.771	73.229	43.727	261.330	264.943	61.622	27.428	110.142	0.00020048	0.00039888	8.8539e-05	1056	3.2659e-06	3.5808e-06	1131.3	222.94	2.4206e-06	2.7921e-06	283.69	79.577	61.162	17.925	3.0967e-06	25.547	0.00026772	0.00022175	6.4235e-05	1040	2.8048e-06	2.4555e-06	1118.6	221.8	2.9239e-06	2.558e-06	281.62	80.216	61.128	18.095	2.5879e-06	25.93	58.976	25.093	13.062	-58.422	125.084	73.797	-58.471	-51.355	53.121	89.481	-51.465	-44.544	-45.095	-37.975	59.000	-38.067	-8191	255	
1051.501	1	1	0	0	0.26413	0.18968	0.12657	0.16927	0.044168	0.0067435	0.10061	0.29118	0.14129	0.20126	0.14195	0.025644	0.10325	0.23116	0.18867	0.15253	-3.3229	-3.8688	-3.9479	-3.6937	-4.0979	-3.9646	-3.7417	-4.1875	-3.55	-3.8292	-4.0167	-3.7896	-4.2167	-3.7562	-3.7396	-4.0771	116.446	196.471	112.274	263.392	-38.232	193.665	87.806	267.042	-57.645	212.645	-1.089	223.062	13.944	216.634	-12.109	-17.270	0.00021444	0.000349	6.1838e-05	1053.7	3.2024e-06	2.7641e-06	1132.7	223.94	2.019e-06	2.8442e-06	283.73	79.693	60.718	18.044	3.7113e-06	25.518	0.00025095	0.00025548	6.1267e-05	1040.4	2.9476e-06	2.5596e-06	1117.7	222.48	3.0222e-06	2.5897e-06	281.15	80.181	60.961	18.108	2.7262e-06	25.882	59.532	13.719	53.677	-58.599	83.457	99.764	-58.256	-51.083	74.728	72.241	-51.563	-45.353	-44.958	-37.756	79.007	-38.548	-8191	255	
1051.595	1	1	0	0	0.27004	0.17939	0.034332	0.2615	0.0028352	0.13462	0.094882	0.16542	0.12029	0.083635	0.040375	0.33278	0.25258	0.072957	0.11731	0.17808	-3.3438	-3.8563	-3.9313	-3.6562	-3.9813	-4.0021	-3.7083	-4.0479	-3.9	-3.8167	-4.1667	-3.7	-4.2188	-4.0583	-3.5542	-4.25	77.360	264.719	90.477	266.302	142.489	92.302	289.437	266.009	-65.483	258.659	134.074	220.454	-44.885	289.998	61.840	-31.188	0.00022777	0.00031882	0.00010783	1058.2	1.4935e-06	2.5049e-06	1133.7	222.89	2.829e-06	3.3192e-06	283.75	79.796	60.914	17.961	3.1844e-06	25.585	0.00024651	0.00024658	6.6418e-05	1041.7	2.9644e-06	2.5473e-06	1120.3	221.97	2.8528e-06	2.6407e-06	282.11	80.314	61.015	18.121	2.6134e-06	25.845	68.758	19.320	37.358	-58.566	81.068	79.724	-58.386	-51.447	67.977	109.223	-51.473	-44.999	-44.716	-37.807	81.102	-38.468	-8191	255	
1051.691	1	1	0	0	0.16957	0.11325	0.068348	0.095629	0.20661	0.21331	0.17133	0.094101	0.068529	0.18778	0.17656	0.064034	0.23451	0.22655	0.30876	0.1191	-3.4125	-3.6708	-4.1167	-3.7042	-3.9521	-3.9062	-3.8271	-4.0521	-3.8021	-3.8271	-4.1833	-3.6854	-3.9146	-4.0771	-3.5292	-4.2042	240.878	163.216	4.118	262.789	-32.346	86.071	86.325	182.601	223.016	165.090	-33.495	217.475	195.876	224.562	-42.545	-64.816	0.00020182	0.00034372	7.9187e-05	1055.2	2.7242e-06	2.7559e-06	1129.3	222.96	1.6634e-06	3.0527e-06	282.15	79.868	60.827	17.816	2.0871e-06	25.552	0.0002664	0.0002407	6.489e-05	1041.9	2.96e-06	2.6051e-06	1119.1	221.68	2.5613e-06	2.4701e-06	281.41	80.272	61.138	18.09	2.8105e-06	25.884	57.567	21.927	26.310	-58.442	92.333	108.677	-58.417	-51.312	63.295	83.272	-51.645	-45.072	-44.749	-37.569	67.198	-38.168	-8191	255	
1051.812	1	1	0	0	0.095958	0.23969	0.21823	0.15196	0.058974	0.13028	0.21843	0.058292	0.34814	0.19275	0.054082	0.072766	0.078474	0.12428	0.23515	0.090923	-3.4208	-3.7833	-4.0312	-3.65	-4.0729	-4.0229	-3.7458	-4.1188	-3.8479	-3.8187	-4.2812	-3.7146	-3.8458	-4.0771	-3.5125	-4.1104	166.832	-13.201	1.898	215.864	42.966	275.941	145.764	242.503	63.255	184.786	-46.967	140.438	-5.028	281.629	245.899	76.141	0.00022188	0.00040378	8.7135e-05	1058.9	2.1236e-06	3.2115e-06	1126.6	222.65	2.2667e-06	2.6546e-06	281.83	79.711	60.684	17.93	3.2658e-06	25.478	0.00024478	0.0002602	6.5414e-05	1043.3	2.8529e-06	2.3881e-06	1118.4	222.15	2.7336e-06	2.5668e-06	280.53	80.288	60.999	18.12	2.6489e-06	25.839	69.649	11.972	56.881	-58.393	62.863	77.264	-58.300	-51.431	22.542	71.778	-51.812	-45.126	-44.743	-37.900	81.030	-38.254	-8191	255	
1051.884	1	1	0	0	0.4417	0.052544	0.1877	0.23356	0.06373	0.065522	0.19891	0.22357	0.15348	0.1885	0.086963	0.20121	0.19527	0.063618	0.049228	0.071314	-3.5917	-3.5042	-4.0458	-3.9854	-3.7	-4.1667	-3.8021	-4.1292	-3.8854	-3.7854	-4.2208	-3.8583	-3.8812	-4.2729	-3.5396	-4.0333	239.616	265.174	72.831	220.514	-7.125	3.881	219.571	-59.080	84.173	193.633	-6.498	151.699	-30.420	102.812	-59.044	32.981	0.00020805	0.00026462	8.5761e-05	1054.4	2.4274e-06	4.1678e-06	1125.5	222.07	3.0726e-06	3.6623e-06	281.41	79.603	60.631	17.776	2.9059e-06	25.317	0.00025716	0.00024449	6.5021e-05	1041.5	2.8077e-06	2.5806e-06	1118	221.9	2.9906e-06	2.8957e-06	280.89	80.21	61.024	18.077	2.7633e-06	25.797	53.667	8.239	25.144	-58.116	71.900	75.838	-58.358	-51.394	45.284	89.658	-51.599	-44.884	-44.905	-37.802	62.874	-38.409	-8191	255	
1051.980	1	1	0	0	0.21351	0.17918	0.1344	0.24595	0.14732	0.047931	0.14938	0.20175	0.078061	0.20287	0.12488	0.23413	0.096011	0.1497	0.21064	0.10428	-3.6521	-3.6729	-4.0229	-4.0292	-3.7562	-4.0833	-3.6813	-4.0813	-3.9458	-3.6063	-3.9583	-3.725	-3.65	-4.1312	-3.5083	-4.0437	-31.851	240.979	186.805	238.924	282.918	271.454	215.888	215.992	9.265	240.481	-57.687	25.710	151.009	32.806	-51.263	222.822	0.00017472	0.00030628	7.8864e-05	1050.8	2.4468e-06	2.7556e-06	1124.2	222.34	1.2911e-06	2.7362e-06	280.44	79.659	60.966	17.956	3.9569e-06	25.229	0.00023377	0.0002496	6.5435e-05	1041	3.0452e-06	2.4703e-06	1117.6	222.11	2.8865e-06	2.5316e-06	280.76	80.256	61.074	18.067	2.754e-06	25.839	60.512	38.381	36.925	-58.522	77.376	77.920	-58.540	-51.411	-16.392	85.930	-51.639	-45.516	-44.946	-37.970	90.916	-38.446	-8191	255	
1052.076	1	1	0	0	0.088097	0.18496	0.17276	0.23415	0.15481	0.1042	0.13962	0.10479	0.25249	0.084015	0.25912	0.13966	0.15755	0.20557	0.19223	0.086679	-3.525	-3.6854	-3.9375	-4.1333	-3.7625	-4.1896	-4.0875	-3.8979	-4.1521	-3.7104	-4.3333	-4.0917	-3.4875	-4.3812	-3.6646	-3.9938	122.260	120.294	-68.696	246.697	93.002	263.862	223.114	74.300	113.520	258.388	-56.606	129.365	239.410	93.761	109.154	-51.043	0.00020857	0.00029133	9.5115e-05	1053.9	3.5163e-06	3.5473e-06	1125.7	222.54	1.2893e-06	3.721e-06	282.43	79.556	60.513	17.943	1.8886e-06	25.27	0.00025531	0.00025169	6.6287e-05	1041.3	2.984e-06	2.5001e-06	1117.2	222.38	2.5513e-06	2.7568e-06	281.33	80.253	61.122	18.111	2.618e-06	25.881	55.362	23.005	18.794	-58.520	74.156	93.669	-58.569	-51.391	59.350	74.799	-51.670	-45.255	-44.852	-37.559	102.030	-38.531	-8191	255	
1052.196	1	1	0	0	0.049857	0.064766	0.10241	0.084542	0.26457	0.26539	0.040557	0.22631	0.14275	0.15156	0.13564	0.17989	0.23033	0.22467	0.1285	0.1211	-3.6167	-3.7542	-3.8937	-4.3	-3.6792	-4.15	-3.9396	-3.9042	-4.15	-3.4313	-4.025	-4	-3.7417	-3.9604	-3.8458	-3.7208	247.803	173.216	166.988	-54.150	-28.715	83.428	-23.049	208.179	75.557	-29.899	145.414	235.454	229.780	-0.466	159.304	-1.987	0.00015652	0.00034308	7.4772e-05	1050.7	2.3017e-06	3.2729e-06	1128.9	222.75	2.5072e-06	4.2932e-06	282.42	79.407	60.661	17.886	4.6883e-06	25.452	0.00024618	0.00027173	6.0699e-05	1039.6	2.9665e-06	2.7329e-06	1118.8	221.99	2.6317e-06	2.9106e-06	281.38	80.04	61.048	18.104	2.5198e-06	25.811	50.382	35.589	19.247	-58.596	86.921	77.258	-58.481	-51.454	41.518	79.224	-51.749	-45.289	-44.678	-38.189	62.634	-38.206	-8191	255	
1052.293	1	1	0	0	0.19261	0.20873	0.066125	0.17301	0.082592	0.22463	0.26181	0.19983	0.058579	0.27266	0.25904	0.21756	0.08763	0.037079	0.15622	0.12525	-3.7896	-3.6354	-3.8563	-4.1188	-3.725	-4.0396	-3.975	-3.8812	-4.1896	-3.7271	-4.0208	-4.075	-3.5854	-4.2188	-3.8917	-3.7958	-51.131	-66.984	-39.346	216.047	218.069	227.319	234.398	287.237	110.793	27.774	274.026	15.384	59.615	56.527	77.201	232.924	0.00016438	0.00025109	9.7016e-05	1052.1	2.6114e-06	1.2055e-06	1124.5	223.24	8.9975e-07	1.7984e-06	280.59	79.833	60.816	17.807	2.3586e-06	25.437	0.0002408	0.00024148	6.7094e-05	1039.3	3.145e-06	2.3478e-06	1116.6	222.45	2.5829e-06	2.5396e-06	280.99	80.288	61.044	18.069	2.5484e-06	25.817	65.957	16.337	21.352	-58.363	88.090	113.926	-58.396	-51.381	25.804	83.718	-51.339	-44.803	-44.612	-38.062	76.972	-38.666	-8191	255	
1052.389	1	1	0	0	0.092138	0.11635	0.12239	0.17287	0.12705	0.043085	0.2766	0.03942	0.22329	0.052926	0.12844	0.12654	0.23273	0.099398	0.26962	0.20237	-3.7313	-3.7104	-3.8688	-4.1333	-3.5583	-4.2354	-3.9896	-3.7167	-4.0729	-3.8208	-3.8417	-4.0583	-3.5771	-3.8146	-3.975	-3.7292	19.172	94.882	27.909	166.274	277.473	-46.438	241.880	92.939	-63.469	108.109	16.810	251.041	147.705	265.431	156.977	213.748	0.000228	0.0002875	6.1158e-05	1053.1	3.102e-06	2.5765e-06	1126.6	223.26	2.4722e-06	4.2253e-06	281.95	79.958	60.719	17.941	3.0663e-06	25.302	0.00024326	0.00024782	6.3296e-05	1041.2	3.2164e-06	2.4458e-06	1115.6	222.1	2.5929e-06	2.5967e-06	280.98	80.29	61.05	18.068	2.509e-06	25.8	58.165	31.209	38.516	-58.682	50.624	80.466	-58.462	-51.423	98.579	77.061	-51.940	-44.925	-44.864	-37.991	66.019	-38.490	-8191	255	
1052.485	1	1	0	0	0.16501	0.067898	0.11592	0.19521	0.168	0.17295	0.18723	0.23069	0.30227	0.039994	0.11664	0.21543	0.14061	0.2531	0.18836	0.16816	-3.7292	-3.75	-3.8667	-4.3521	-3.6167	-3.9062	-4.0917	-3.7146	-4.125	-3.9396	-3.7146	-4.2021	-3.8146	-3.8333	-4.1417	-3.6458	221.345	-49.930	-65.739	276.266	172.502	271.581	154.799	60.959	88.482	73.405	-26.324	255.268	20.991	284.691	52.261	247.916	0.0001787	0.00022854	6.8277e-05	1051.6	3.3311e-06	3.6506e-06	1131.3	222.05	4.26e-06	2.3975e-06	281.72	79.473	60.45	17.806	3.4613e-06	25.434	0.00024339	0.00024705	6.3908e-05	1039.1	3.1013e-06	2.8589e-06	1119.3	221.31	2.7918e-06	2.7471e-06	281.11	79.976	60.976	18.062	2.4178e-06	25.776	64.124	55.476	36.934	-58.605	93.912	61.191	-58.347	-51.103	45.213	69.933	-51.466	-44.900	-45.061	-37.795	93.617	-38.085	-8191	255	
1052.581	1	1	0	0	0.18864	0.23752	0.18231	0.16942	0.15668	0.20654	0.10357	0.090986	0.14768	0.30769	0.092998	0.085456	0.22064	0.13545	0.05782	0.097393	-3.8104	-3.825	-3.7854	-4.1167	-3.6417	-3.8812	-4.15	-3.7396	-3.9729	-3.8479	-3.7438	-4.1562	-3.7438	-3.725	-4.0542	-3.6271	274.485	-47.161	269.093	247.261	-27.890	-36.773	168.512	86.633	-15.207	187.300	274.825	-18.140	-60.082	29.611	197.755	113.691	0.00018768	0.00035097	9.1192e-05	1052.3	3.769e-06	2.8628e-06	1127.9	223.81	1.9106e-06	1.676e-06	282.71	79.727	60.592	17.829	2.5384e-06	25.396	0.00024762	0.00023637	7.2376e-05	1040.2	3.1975e-06	2.5832e-06	1117.3	222.42	2.6058e-06	2.6715e-06	281.2	80.202	60.907	18.05	2.6033e-06	25.798	56.849	7.469	45.141	-58.156	99.520	101.907	-58.490	-51.178	143.945	71.533	-51.418	-44.985	-44.825	-38.044	69.352	-38.366	-8191	255	
1052.677	1	1	0	0	0.12989	0.21874	0.044137	0.17567	0.034033	0.080039	0.096658	0.30371	0.080945	0.094612	0.14235	0.19499	0.29631	0.12285	0.049475	0.11405	-3.4792	-3.9042	-3.4854	-4.1521	-3.8667	-3.6521	-4.3417	-3.8521	-3.825	-3.9479	-3.5646	-4.1854	-3.875	-3.6479	-4.0375	-3.8167	0.037	216.884	141.045	271.633	126.038	252.044	262.942	237.105	225.586	23.301	155.998	43.327	275.845	275.262	150.668	248.512	0.00020094	0.00017579	7.8348e-05	1047.7	3.23e-06	1.633e-06	1129.1	222.32	2.4059e-06	2.2212e-06	282.27	79.325	60.863	17.854	1.5249e-06	25.407	0.00024018	0.00022608	6.716e-05	1038.4	3.0183e-06	2.4397e-06	1117.1	221.6	2.7221e-06	2.3065e-06	281.14	80.01	60.979	18.062	2.6203e-06	25.78	58.213	33.793	29.097	-58.366	86.887	89.482	-58.379	-51.229	59.487	90.808	-51.524	-45.074	-44.752	-37.894	87.449	-38.215	-8191	255	
1052.773	1	1	0	0	0.067121	0.16856	0.07939	0.20242	0.088034	0.18439	0.2149	0.25441	0.081538	0.049143	0.18173	0.10993	0.09092	0.11794	0.16728	0.20071	-3.7104	-3.8854	-3.5146	-4.1229	-3.8271	-3.7812	-4.2896	-3.7146	-3.9437	-4.1813	-3.6667	-4.2125	-3.8771	-3.7479	-4.1333	-3.8292	76.786	13.709	109.383	259.050	-55.825	59.205	251.277	271.541	178.657	-55.241	257.185	127.086	278.389	-42.035	281.717	-55.998	0.00024206	0.00030843	8.7893e-05	1052.7	2.3563e-06	4.3546e-06	1128.6	222.36	2.9445e-06	3.4028e-06	280.82	79.966	60.677	17.769	3.2768e-06	25.358	0.00025099	0.00023482	6.5304e-05	1038.5	2.7429e-06	2.5132e-06	1115.1	221.43	2.7035e-06	2.7154e-06	280.35	80.151	60.842	18.017	2.4201e-06	25.773	51.616	25.674	14.901	-58.480	117.768	70.277	-58.290	-51.407	90.778	88.214	-51.768	-45.184	-44.810	-37.715	62.594	-38.291	-8191	255	
1052.892	1	1	0	0	0.04732	0.16701	0.10059	0.24527	0.43729	0.19898	0.30103	0.050688	0.077923	0.30503	0.04109	0.26105	0.18551	0.15284	0.20625	0.129	-3.4562	-4.1104	-3.4792	-4.1208	-4.0729	-3.6063	-4.2979	-3.9479	-3.8271	-4.1021	-3.8854	-3.9833	-3.9813	-3.5958	-4.1	-3.8521	187.912	-45.946	213.862	279.989	-42.434	182.503	243.046	-48.432	-60.012	122.120	15.965	287.215	169.531	176.167	272.103	91.888	0.00020049	0.00029876	8.6289e-05	1052.7	2.1876e-06	2.5334e-06	1126	222.46	2.1305e-06	2.9223e-06	282.31	79.987	60.802	17.845	2.7412e-06	25.399	0.00025194	0.0002318	6.8164e-05	1039.3	2.8165e-06	2.543e-06	1114	221.35	2.7394e-06	2.6002e-06	280.74	80.083	61.057	18.069	2.4619e-06	25.805	68.189	13.509	30.675	-58.287	110.960	96.262	-58.505	-51.402	63.895	72.399	-51.428	-45.060	-45.015	-37.811	84.169	-38.470	-8191	255	
1052.988	1	1	0	0	0.092676	0.1207	0.29045	0.23099	0.17304	0.21519	0.070226	0.21017	0.061317	0.25442	0.16546	0.11998	0.088891	0.15744	0.067651	0.1475	-3.4083	-4.2854	-3.4875	-4.0917	-3.8875	-3.6333	-4.0542	-3.7938	-3.6042	-4.2354	-3.6083	-3.8896	-3.9313	-3.5729	-4.0625	-3.9021	65.773	149.815	69.953	238.470	277.604	203.813	-5.744	-58.360	71.556	287.817	52.762	250.574	274.072	221.215	259.653	249.653	0.00017733	0.00026128	0.00012042	1050.1	3.8689e-06	2.1822e-06	1127.2	221.34	2.1251e-06	2.2337e-06	281.67	79.478	60.628	17.755	1.6664e-06	25.388	0.00025333	0.00022523	6.9124e-05	1038.7	2.8522e-06	2.6217e-06	1116.3	221.48	2.8097e-06	2.3734e-06	281.45	80.136	60.975	18.029	2.4889e-06	25.796	62.635	30.233	21.464	-58.624	55.776	86.204	-58.534	-51.403	74.453	67.155	-51.804	-45.314	-45.074	-37.991	98.702	-38.814	-8191	255	
1053.085	1	1	0	0	0.12069	0.2752	0.085538	0.18945	0.11902	0.16601	0.24629	0.061966	0.1147	0.060457	0.20363	0.18522	0.093749	0.1662	0.13718	0.19205	-3.3646	-3.9188	-3.7812	-3.9562	-4.0646	-3.6562	-4.0792	-3.9208	-3.5729	-4.1333	-3.85	-3.7812	-3.9667	-3.6083	-3.95	-3.9396	218.018	-51.419	92.291	268.836	100.804	46.783	175.930	-16.591	-12.203	-7.621	264.528	206.454	151.883	-43.851	64.986	-16.815	0.00020898	0.00034047	5.7547e-05	1055.2	1.5648e-06	2.8665e-06	1126.5	221.66	2.1064e-06	3.8857e-06	281.61	80.042	60.677	17.831	2.9938e-06	25.097	0.00026016	0.00021656	6.9342e-05	1039	2.925e-06	2.865e-06	1115.4	220.88	2.9174e-06	2.6583e-06	280.98	80.202	60.895	18.033	2.4186e-06	25.708	57.885	7.403	3.495	-58.420	95.637	84.197	-58.508	-51.496	66.163	88.627	-51.295	-45.194	-44.817	-37.758	47.002	-38.517	-8191	255	
1053.181	1	1	0	0	0.28322	0.080343	0.14097	0.074364	0.16865	0.15441	0.057408	0.050838	0.14248	0.091867	0.03147	0.11895	0.13136	0.2044	0.14378	0.077119	-3.1875	-3.9917	-3.6479	-3.7646	-4.2312	-3.6083	-3.9771	-4	-3.6021	-4.2792	-3.85	-3.7833	-4.125	-3.8625	-3.8917	-4.1104	-68.835	141.153	-67.991	178.409	212.088	15.159	236.081	207.906	176.149	240.290	112.673	50.876	-46.990	41.654	235.102	264.049	0.00015782	0.00032497	8.5636e-05	1049.5	3.7884e-06	2.6962e-06	1136	223.42	1.5167e-06	2.5132e-06	284.05	79.455	60.842	17.898	3.5106e-06	25.46	0.00024655	0.00023374	6.6221e-05	1038.6	2.9738e-06	2.7565e-06	1118.1	221.64	2.992e-06	2.4085e-06	281.49	80.046	60.911	18.096	2.4943e-06	25.841	56.577	18.953	16.862	-58.448	72.238	85.395	-58.358	-51.261	23.031	81.242	-51.313	-45.381	-44.518	-37.882	88.181	-37.953	-8191	255	
1053.277	1	1	0	0	0.27576	0.09792	0.056902	0.019434	0.12605	0.24298	0.082522	0.27115	0.19502	0.20846	0.16344	0.25531	0.13573	0.21482	0.07906	0.15374	-3.1125	-3.9354	-3.9396	-3.7271	-4.125	-3.8083	-4.0167	-4.2625	-3.5208	-4.2792	-3.8292	-3.6021	-4.1625	-3.6729	-3.8625	-4.0396	129.465	65.157	210.717	244.905	228.608	76.038	147.878	196.483	20.583	238.256	246.065	260.765	264.021	35.728	-61.244	67.184	0.00020117	0.00029168	9.3768e-05	1054.1	2.4033e-06	3.9113e-06	1131.3	222.65	1.8314e-06	2.5602e-06	280.86	79.051	60.794	17.813	2.8375e-06	25.373	0.00026517	0.0002284	6.3864e-05	1039	2.9141e-06	2.6427e-06	1116.7	221.79	2.9038e-06	2.4393e-06	280.7	80.056	60.873	18.064	2.6466e-06	25.815	53.731	18.888	28.557	-58.490	86.466	73.317	-58.269	-51.310	58.669	86.018	-51.519	-45.055	-44.819	-37.771	77.690	-38.313	-8191	255	
1053.373	1	1	0	0	0.14451	0.044457	0.1536	0.15106	0.050733	0.048224	0.21092	0.24435	0.099654	0.16625	0.23589	0.32578	0.24511	0.14873	0.21385	0.10673	-3.1875	-3.8875	-3.8167	-3.7083	-4.1479	-3.75	-3.95	-4.3396	-3.5396	-4.1458	-4.0083	-3.8771	-4.0875	-3.7438	-3.7833	-4.0938	226.304	285.910	120.166	188.122	56.672	131.399	140.347	189.301	93.301	284.356	31.190	260.470	222.823	195.182	158.136	-25.612	0.0002164	0.00028533	7.2992e-05	1050.4	2.6452e-06	3.2917e-06	1128.6	221.22	1.7744e-06	3.1957e-06	281	79.269	60.422	17.672	2.1846e-06	25.201	0.00025107	0.00020836	5.7272e-05	1038.2	2.8034e-06	2.6637e-06	1116.4	221.12	2.8492e-06	2.4789e-06	280.59	80.05	60.93	18.018	2.594e-06	25.741	59.769	20.588	18.168	-58.595	45.385	93.771	-58.582	-51.549	140.608	94.545	-51.428	-44.986	-44.667	-37.913	72.578	-38.570	-8191	255	
1053.494	1	1	0	0	0.093715	0.11953	0.040047	0.27688	0.1169	0.112	0.13158	0.070741	0.32745	0.085996	0.36731	0.12879	0.15494	0.19988	0.098118	0.048304	-3.2458	-3.9229	-3.9271	-3.8458	-4.0542	-3.9	-4	-4.1667	-3.8312	-3.8438	-4.1438	-3.6396	-3.9208	-3.9521	-3.8063	-4.2708	192.344	8.749	89.576	-47.456	97.628	179.783	186.487	35.447	-43.463	220.407	4.931	243.938	164.384	82.560	111.490	26.327	0.00015867	0.00034445	8.824e-05	1050.9	3.0583e-06	3.386e-06	1125.8	222.24	2.9583e-06	3.1977e-06	281.38	79.708	60.696	17.821	2.8649e-06	25.304	0.00025346	0.0002291	6.6287e-05	1037.3	2.8361e-06	2.8099e-06	1116.8	221.43	3.038e-06	2.5615e-06	280.87	80.261	61.034	18.055	2.465e-06	25.734	45.943	15.225	16.995	-58.473	91.782	79.527	-58.213	-51.294	62.884	93.477	-51.423	-45.009	-45.052	-37.770	75.954	-38.357	-8191	255	
1053.588	1	1	0	0	0.19046	0.14342	0.23259	0.2299	0.10601	0.25503	0.0086908	0.21516	0.077155	0.33799	0.20027	0.073433	0.14453	0.15474	0.16827	0.16175	-3.5854	-3.6917	-3.7646	-3.7833	-4.0083	-3.9396	-3.875	-4.0833	-3.8146	-3.6104	-4.1188	-3.7188	-4.0583	-3.9333	-3.5792	-4.1271	-15.814	39.532	169.129	-66.017	65.782	-29.413	223.737	217.684	68.491	37.365	227.962	250.583	-42.715	34.527	106.635	69.621	0.00021486	0.00027797	8.6047e-05	1052.1	3.3819e-06	3.5899e-06	1125.8	222.27	1.3454e-06	2.7289e-06	282.59	79.72	60.662	17.779	2.7265e-06	25.472	0.00025683	0.00023405	6.1179e-05	1038.7	2.7662e-06	2.6191e-06	1117.3	221.73	2.9217e-06	2.3681e-06	281.32	80.103	61	18.037	2.7911e-06	25.793	59.784	11.896	38.280	-58.335	57.042	74.732	-58.373	-51.207	69.501	82.446	-51.702	-45.192	-44.826	-37.924	102.605	-38.583	-8191	255	
1053.684	1	1	0	0	0.13734	0.13118	0.08624	0.13057	0.046779	0.10988	0.27376	0.24517	0.062485	0.26175	0.24303	0.20342	0.15866	0.14389	0.18024	0.24464	-3.3937	-3.7708	-4.25	-3.7542	-3.9375	-4.0938	-3.8292	-4.0312	-3.9729	-3.6583	-4.0667	-3.6146	-3.9354	-4.0104	-3.4417	-4.2312	282.025	75.527	148.237	4.317	-63.674	-6.576	230.523	221.799	65.659	206.752	-47.349	5.830	-50.269	-26.767	139.448	-64.100	0.0002164	0.00031915	8.1782e-05	1052.6	3.0749e-06	2.3951e-06	1124.3	223.1	3.0051e-06	2.9532e-06	280.38	79.259	60.47	17.788	2.042e-06	25.165	0.00025395	0.00023513	6.0328e-05	1038.2	3.0146e-06	2.5123e-06	1114.7	221.77	2.7214e-06	2.5703e-06	280.66	80.051	60.839	18.061	2.4766e-06	25.736	54.910	34.098	22.141	-58.597	100.517	57.341	-58.247	-51.649	63.396	86.071	-51.820	-45.707	-45.123	-38.115	80.740	-38.576	-8191	255	
1053.758	1	1	0	0	0.17503	0.1762	0.21821	0.3511	0.22648	0.20865	0.24978	0.143	0.092272	0.096906	0.14069	0.11337	0.21913	0.17166	0.066499	0.11743	-3.3667	-3.5875	-4.1229	-3.5396	-4.0333	-4.0062	-3.5938	-4.075	-3.8479	-3.85	-4.0729	-3.7313	-3.8521	-4.225	-3.6458	-4.0104	234.166	16.186	-62.759	225.991	177.827	25.825	243.884	258.390	210.784	58.650	-62.129	64.581	216.775	162.502	285.681	171.457	0.00020911	0.00024877	0.00011602	1045.2	1.7165e-06	2.7469e-06	1128.9	221.57	1.9522e-06	1.6926e-06	282.33	79.763	61.035	17.889	2.7151e-06	25.392	0.00025276	0.00024457	6.3013e-05	1037.5	2.8755e-06	2.5928e-06	1116.8	221.32	2.9045e-06	2.6292e-06	280.85	80.111	60.995	18.012	2.8453e-06	25.797	60.206	6.286	29.805	-58.605	131.468	85.142	-58.317	-51.415	24.652	78.918	-51.566	-45.012	-44.631	-38.104	59.067	-38.482	-8191	255	
1053.854	1	1	0	0	0.1429	0.21691	0.16979	0.18487	0.051125	0.0821	0.30223	0.12729	0.29618	0.13806	0.095151	0.12504	0.13623	0.22281	0.071685	0.068726	-3.3812	-3.6437	-4.1125	-3.7812	-3.8	-4.0875	-3.7271	-4.0479	-4.0667	-3.6437	-4.0167	-3.8271	-3.8187	-3.925	-3.5125	-3.7271	28.826	-61.492	-3.121	224.958	245.168	102.150	252.546	247.318	168.540	-2.537	31.334	105.341	155.981	248.103	-18.515	201.083	0.00019647	0.0003196	8.0927e-05	1052.4	4.3276e-06	2.3287e-06	1130.1	221.58	8.6194e-07	2.8065e-06	282.41	79.404	60.871	17.774	1.8575e-06	25.45	0.00025148	0.00025749	6.2903e-05	1039.2	2.6977e-06	2.3627e-06	1116.6	221.45	2.6188e-06	2.4929e-06	280.75	80.015	60.966	18.003	2.611e-06	25.811	49.403	32.530	32.779	-58.465	95.524	70.576	-58.267	-51.377	123.353	90.660	-51.563	-45.053	-44.750	-37.934	77.767	-38.262	-8191	255	
1053.973	1	1	0	0	0.14917	0.0053618	0.025914	0.13416	0.16416	0.0099042	0.13739	0.17612	0.32446	0.2216	0.063955	0.20341	0.10108	0.20015	0.13343	0.17017	-3.5146	-3.4521	-4.0542	-3.9521	-3.5563	-4.0583	-3.9479	-4.1083	-3.8729	-3.6104	-4.1417	-3.9104	-3.7271	-4.275	-3.3896	-3.9167	-3.087	104.658	38.665	274.232	108.801	7.145	269.363	14.861	-68.298	257.328	245.141	239.400	46.039	115.582	89.086	166.982	0.00023338	0.00033139	6.2158e-05	1052.9	2.2776e-06	2.7568e-06	1126.5	222.42	1.7e-06	1.5588e-06	282.87	80.106	60.57	17.862	2.3647e-06	25.317	0.00024339	0.00026554	6.406e-05	1037.7	3.0343e-06	2.3391e-06	1115.7	221.42	2.7767e-06	2.7796e-06	281.52	80.162	60.804	18.027	2.6451e-06	25.776	45.945	28.057	12.755	-58.655	104.868	87.903	-58.268	-51.564	42.035	77.958	-51.759	-45.149	-44.816	-38.031	79.655	-38.060	-8191	255	
1054.069	1	1	0	0	0.30143	0.27242	0.10311	0.066774	0.1269	0.06338	0.29273	0.11183	0.08963	0.22517	0.18647	0.21864	0.048816	0.04398	0.052134	0.11752	-3.4229	-3.5187	-3.9875	-3.975	-3.7854	-4.0646	-3.8396	-3.9	-4.1188	-3.6208	-4.1646	-4.0687	-3.6188	-4.2167	-3.7354	-3.7313	172.317	-58.193	-54.016	112.649	80.139	-25.285	232.779	253.135	111.676	-50.620	227.453	102.630	79.590	154.370	88.758	68.737	0.00020247	0.00021188	5.9369e-05	1048.9	2.0075e-06	3.4641e-06	1127.5	223.47	8.2081e-07	2.3858e-06	282.79	79.987	60.828	17.897	1.4357e-06	25.459	0.00024787	0.00024209	6.2794e-05	1037.5	3.1261e-06	2.4572e-06	1117.9	222.1	2.6446e-06	2.8201e-06	281.3	80.278	61.141	18.073	2.6574e-06	25.793	55.603	30.919	11.794	-58.332	76.347	79.570	-58.483	-51.355	131.854	75.796	-51.446	-45.146	-44.516	-37.760	99.592	-38.280	-8191	255	
1054.165	1	1	0	0	0.26639	0.28148	0.14442	0.38447	0.023729	0.29374	0.069243	0.14416	0.090497	0.073773	0.12063	0.18155	0.19226	0.068159	0.061977	0.054637	-3.7667	-3.4188	-4.0604	-3.9708	-3.6771	-4.0729	-3.7562	-3.9417	-4.0521	-3.8083	-3.9958	-3.9354	-3.7271	-4.0208	-3.9458	-3.9146	138.151	-18.705	-62.668	286.028	104.492	279.189	161.507	200.804	64.828	83.056	-47.659	-67.421	116.739	26.404	123.530	36.062	0.00021574	0.00030375	8.6284e-05	1057.8	1.7378e-06	3.674e-06	1133.4	224.01	2.1318e-06	2.6544e-06	283.04	79.889	61.007	17.939	2.528e-06	25.426	0.00025506	0.00027374	6.4126e-05	1039.5	3.1887e-06	2.4905e-06	1118.3	221.66	2.725e-06	2.5651e-06	281.33	80.292	60.956	18.062	2.5569e-06	25.794	56.366	11.039	37.845	-58.120	117.896	84.844	-58.235	-51.100	69.964	86.223	-51.551	-45.004	-44.811	-37.629	90.457	-38.228	-8191	255	
1054.286	1	1	0	0	0.27979	0.18798	0.054604	0.23479	0.23059	0.13243	0.1693	0.12372	0.11203	0.21747	0.25433	0.38431	0.13651	0.20405	0.16995	0.18539	-3.6333	-3.6542	-3.7667	-4.1729	-3.6292	-4.1188	-4.0938	-3.7854	-4.0083	-3.7458	-4.0062	-4.0104	-3.6583	-4.1521	-3.875	-3.7333	208.309	116.377	284.400	-25.369	25.719	288.758	16.988	286.545	-36.890	112.343	253.355	194.121	132.558	219.341	126.519	218.035	0.00020714	0.00027179	8.6017e-05	1054	3.2286e-06	2.3914e-06	1136.4	223.9	2.5152e-06	2.4998e-06	283.44	80.134	60.587	18.015	2.8634e-06	25.613	0.00025243	0.00025153	6.2358e-05	1038.8	3.1363e-06	2.4248e-06	1119.6	221.81	2.8987e-06	2.6583e-06	281.68	80.274	60.96	18.087	2.5987e-06	25.858	56.683	31.433	26.454	-58.377	102.607	111.647	-58.318	-51.007	46.714	95.526	-51.456	-44.780	-45.037	-38.036	73.999	-38.236	-8191	255	
1054.357	1	1	0	0	0.078746	0.10905	0.16569	0.11433	0.18239	0.088551	0.27896	0.24607	0.10139	0.19269	0.18921	0.38507	0.09518	0.093176	0.069756	0.16737	-3.8208	-3.8125	-3.8583	-4.1396	-3.7104	-4.0312	-4.0604	-3.7958	-4.1958	-3.7167	-3.8479	-4.0396	-3.7083	-4.025	-3.7229	-3.6229	158.149	34.252	43.969	289.919	-14.918	113.974	-23.023	288.079	151.313	4.748	5.551	36.480	59.110	222.955	2.041	220.047	0.00022378	0.0002132	7.8771e-05	1058.4	2.8345e-06	4.1206e-06	1136.2	223.56	1.447e-06	3.1378e-06	282.51	80.215	61.539	17.968	2.3826e-06	25.455	0.0002431	0.00022151	6.5152e-05	1039.7	3.2478e-06	2.6874e-06	1118.8	221.97	2.6676e-06	2.6248e-06	280.84	80.351	61.287	18.074	2.4696e-06	25.801	57.560	23.527	32.518	-58.274	71.605	67.746	-58.166	-51.226	6.002	60.182	-51.366	-45.232	-44.801	-37.453	55.299	-38.438	-8191	255	
1054.453	1	1	0	0	0.17344	0.22215	0.16372	0.24117	0.16629	0.1561	0.11516	0.097437	0.12505	0.045103	0.2297	0.083254	0.24211	0.11649	0.13552	0.040473	-3.7083	-3.7667	-3.6562	-4.3479	-3.7125	-3.8875	-4.0708	-3.5396	-4.0333	-3.9521	-3.8521	-4.2146	-3.7125	-3.9854	-3.9479	-3.6188	239.622	155.661	-29.657	142.822	114.985	15.250	93.597	14.939	21.982	122.610	239.885	287.832	215.243	277.638	100.227	206.863	0.00020425	0.00024248	6.4791e-05	1052.6	1.6208e-06	3.1749e-06	1133.2	224.34	2.8043e-06	3.0026e-06	283.35	80.159	60.85	17.835	2.0099e-06	25.522	0.00024778	0.00022979	7.0717e-05	1038.6	2.9993e-06	2.3294e-06	1117.5	222.18	2.6712e-06	2.4991e-06	281.95	80.302	60.949	18.047	2.4194e-06	25.844	52.651	20.201	6.191	-58.328	117.478	90.355	-58.464	-51.315	160.665	105.231	-51.420	-44.978	-44.596	-37.919	85.043	-38.199	-8191	255	
1054.574	1	1	0	0	0.070404	0.11527	0.30589	0.20732	0.25614	0.11742	0.23333	0.39969	0.15505	0.075493	0.03611	0.077792	0.06082	0.036377	0.21913	0.17947	-3.9021	-3.7875	-3.5312	-4.1479	-3.5208	-3.7854	-4.1917	-3.7438	-3.9979	-3.9833	-3.8063	-4.1896	-3.75	-3.7167	-3.9583	-3.5479	26.156	89.016	133.499	-29.894	252.600	229.341	236.945	190.855	-29.272	-25.656	219.676	158.735	279.387	264.184	46.468	106.256	0.0002024	0.00025906	8.0266e-05	1055.6	3.6564e-06	3.3266e-06	1135.7	224.24	3.0482e-06	2.7535e-06	284.02	80.129	60.822	18.056	3.9789e-06	25.564	0.00024803	0.00023033	6.8447e-05	1038.7	2.9265e-06	2.3916e-06	1118.4	222.11	2.7264e-06	2.478e-06	281.77	80.466	61.109	18.099	2.6172e-06	25.833	52.591	10.861	24.550	-58.360	78.301	84.342	-58.108	-51.406	106.259	87.387	-51.433	-45.451	-44.735	-37.925	83.547	-38.329	-8191	255	
1054.668	1	1	0	0	0.083963	0.028106	0.22577	0.055286	0.056193	0.075883	0.23613	0.1741	0.27824	0.071581	0.16618	0.046897	0.15346	0.020738	0.13825	0.29878	-3.4354	-3.8583	-3.6	-4.2625	-3.7417	-3.6875	-4.125	-3.6229	-3.9375	-4.0958	-3.7375	-4.0854	-3.8292	-3.8771	-4.1021	-3.7771	29.561	200.728	-63.204	-65.995	-42.992	90.030	169.107	188.208	1.257	-39.048	257.199	190.908	10.078	278.909	-8.812	24.917	0.00019608	0.00034024	0.00010672	1055.9	1.9769e-06	3.745e-06	1128.2	223.49	2.1592e-06	2.9009e-06	283.23	80.182	61.067	17.883	3.1104e-06	25.618	0.00024791	0.00023003	6.8578e-05	1040.9	2.9789e-06	2.6777e-06	1116.7	221.54	2.6575e-06	2.6943e-06	281.47	80.271	61.055	18.046	2.5337e-06	25.904	66.730	38.758	42.007	-58.568	90.956	96.755	-58.241	-51.229	5.976	67.868	-51.562	-45.255	-44.650	-37.647	83.361	-38.016	-8191	255	
1054.766	1	1	0	0	0.089421	0.059669	0.13632	0.23315	0.18772	0.35998	0.24991	0.11186	0.14635	0.095456	0.1152	0.1111	0.088067	0.13981	0.14453	0.026104	-3.5375	-4.0875	-3.5938	-4.3583	-3.8292	-3.9292	-4.4375	-3.6646	-3.8187	-4.0563	-3.4062	-4.0604	-3.8667	-3.5458	-4.2312	-3.7208	148.427	-25.957	-7.960	-6.931	183.059	79.987	175.812	14.652	249.208	63.334	-29.308	208.464	230.273	269.712	114.908	43.442	0.00021944	0.00026788	6.0517e-05	1053.6	1.7312e-06	2.8373e-06	1134.3	223.41	1.9064e-06	3.2329e-06	282.18	80.165	61.335	18.022	2.442e-06	25.63	0.00023254	0.00023823	6.7225e-05	1039.5	2.7647e-06	2.599e-06	1117.5	221.79	3.0803e-06	2.4771e-06	280.9	80.317	61.122	18.107	2.3289e-06	25.883	60.619	1.873	44.109	-58.255	85.744	92.660	-58.252	-51.129	55.478	78.324	-51.721	-44.648	-44.441	-37.673	85.806	-38.103	-8191	255	
1054.885	1	1	0	0	0.27417	0.19225	0.27564	0.1543	0.25221	0.13004	0.32764	0.10561	0.12084	0.21751	0.23189	0.17107	0.10826	0.14358	0.11266	0.21867	-3.3083	-4.2896	-3.6813	-3.9688	-4.0333	-3.6729	-4.1854	-3.7896	-3.9	-4.0792	-3.5271	-4.0188	-4.0625	-3.5896	-4.0813	-3.7	154.467	-22.934	256.802	208.745	95.509	189.472	282.947	178.183	173.315	289.985	-51.738	193.093	45.083	-66.489	31.310	139.661	0.00016579	0.00037578	6.993e-05	1058.4	2.1482e-06	3.332e-06	1134.5	224.34	3.7665e-06	3.5263e-06	284.51	80.407	61.259	17.996	3.3759e-06	25.421	0.00024474	0.00021447	7.0368e-05	1039.3	2.9855e-06	2.5333e-06	1117.9	222.04	2.842e-06	2.5387e-06	281.3	80.131	61.132	18.129	2.5044e-06	25.862	55.668	24.791	54.748	-58.087	34.465	96.370	-58.222	-51.497	60.603	90.023	-51.144	-45.017	-44.858	-37.609	83.852	-37.887	-8191	255	
1054.981	1	1	0	0	0.079656	0.10493	0.07965	0.21238	0.046628	0.16546	0.086583	0.10666	0.076282	0.051742	0.081077	0.29687	0.10601	0.032472	0.15696	0.0090161	-3.5875	-3.9625	-3.4708	-3.9083	-4.0104	-3.6208	-4.2562	-3.8521	-3.8187	-4.1271	-3.675	-4.0542	-4.0062	-3.7229	-4.0437	-3.7729	290.374	59.926	256.438	258.583	25.280	172.087	-14.101	256.417	-11.756	156.562	189.035	-16.221	53.553	46.909	255.181	0.687	0.00019474	0.00023512	7.3104e-05	1054.4	2.889e-06	2.949e-06	1134.7	222.82	1.9676e-06	2.4426e-06	282.75	80.127	61.226	18.018	2.8376e-06	25.581	0.00024166	0.00022809	6.4671e-05	1038.9	2.7516e-06	2.6392e-06	1117.6	221.34	2.804e-06	2.4446e-06	281.17	80.354	61.126	18.104	2.3312e-06	25.832	54.641	37.199	24.274	-58.294	73.095	106.348	-58.242	-51.224	89.713	71.790	-51.798	-44.902	-44.652	-38.140	86.124	-38.426	-8191	255	
1055.053	1	1	0	0	0.13264	0.27281	0.12463	0.14082	0.1969	0.25893	0.084992	0.1344	0.036826	0.091446	0.10231	0.19374	0.14086	0.10617	0.072926	0.1067	-3.3417	-4.2667	-3.7687	-4.1583	-3.9896	-3.6021	-4.1792	-3.9062	-3.7354	-4.1583	-3.6813	-3.8396	-4	-3.5875	-3.8646	-4.075	-2.923	175.789	48.198	222.080	107.489	-63.574	190.150	196.183	190.682	154.194	-52.915	281.928	284.626	245.604	-68.794	271.785	0.00021568	0.00032211	5.7582e-05	1058.5	2.3393e-06	1.716e-06	1129.9	223.18	2.9343e-06	2.1237e-06	283.54	80.309	61.175	17.901	3.1921e-06	25.723	0.00026521	0.00022384	6.2183e-05	1039.5	2.9476e-06	2.5911e-06	1116.8	221.5	2.9339e-06	2.4411e-06	281.34	80.298	61.108	18.075	2.5608e-06	25.861	49.533	44.341	32.374	-58.273	92.229	77.426	-58.334	-51.066	36.872	74.180	-51.538	-44.972	-44.923	-37.911	66.009	-38.281	-8191	255	
1055.149	1	1	0	0	0.20514	0.18463	0.1128	0.041	0.11078	0.073959	0.068237	0.080047	0.088544	0.088301	0.20507	0.13976	0.088157	0.074608	0.28324	0.32511	-3.3417	-4.2542	-3.6271	-3.9562	-4.075	-3.4542	-4.0979	-4.0292	-3.5438	-4.0354	-3.8375	-3.7062	-4.0396	-3.5687	-3.9562	-3.9	200.556	280.235	-43.640	215.744	240.668	250.442	42.399	180.887	-58.310	204.541	201.053	277.558	22.895	78.688	220.429	190.436	0.00020252	0.00018701	6.0777e-05	1058.9	3.1479e-06	3.0635e-06	1132.7	223.3	1.8865e-06	2.593e-06	284.33	79.899	60.9	17.839	2.278e-06	25.393	0.00025937	0.0002243	6.6199e-05	1038.5	2.9126e-06	2.6716e-06	1116.7	221.75	2.9181e-06	2.5141e-06	281.95	80.373	61.058	18.048	2.4804e-06	25.749	53.928	36.102	13.965	-58.260	97.420	81.483	-58.247	-50.960	77.837	112.505	-51.482	-44.746	-44.468	-37.749	75.659	-38.308	-8191	255	
1055.270	1	1	0	0	0.072607	0.20466	0.11139	0.30266	0.11465	0.1473	0.36033	0.097083	0.21729	0.11115	0.079072	0.16627	0.09868	0.20826	0.22432	0.053042	-3.4083	-4.1354	-3.7208	-3.8104	-4.0271	-3.7042	-3.9875	-4.0625	-3.4813	-4.0104	-3.9375	-3.6458	-4.1979	-3.65	-3.8833	-4.1458	278.911	86.953	42.646	243.341	15.036	105.741	247.428	-61.530	-57.515	157.780	198.269	62.191	155.164	236.704	41.908	277.488	0.00017191	0.00035417	8.0666e-05	1052	1.5675e-06	3.371e-06	1134.9	223.65	3.0632e-06	4.5946e-06	282.12	80.792	61.032	17.889	1.9657e-06	25.478	0.0002738	0.00021254	6.4191e-05	1037.2	2.8063e-06	2.494e-06	1116.2	221.9	2.9468e-06	2.4824e-06	280.96	80.459	61.096	18.093	2.3977e-06	25.83	47.387	7.266	23.507	-58.308	71.050	106.888	-58.061	-51.304	42.021	87.956	-51.657	-45.115	-44.963	-37.656	98.121	-38.453	-8191	255	
1055.366	1	1	0	0	0.15701	0.13574	0.085797	0.19039	0.1613	0.038402	0.086074	0.22214	0.08601	0.15718	0.30484	0.067244	0.096573	0.075714	0.11051	0.15597	-3.1333	-3.9458	-3.9208	-3.8563	-4.05	-3.7562	-3.9896	-3.9792	-3.4771	-4.0521	-3.9208	-3.7604	-4.0271	-3.6979	-3.6875	-4.125	32.563	143.785	226.684	-54.154	15.590	-10.345	109.674	-54.216	194.437	232.353	253.671	99.480	262.961	-62.108	59.872	173.292	0.00023566	0.00022851	8.9559e-05	1054.5	2.9652e-06	2.4712e-06	1134	222.89	4.0738e-06	2.7329e-06	281.45	80.146	61.123	17.898	1.5835e-06	25.549	0.00025362	0.00024542	6.6243e-05	1039.2	3.0656e-06	2.452e-06	1118.4	221.56	2.86e-06	2.5325e-06	280.61	80.341	61.061	18.062	2.4619e-06	25.769	67.734	30.359	15.120	-58.517	66.982	77.909	-58.326	-51.315	66.597	78.844	-51.217	-44.923	-44.803	-37.675	60.710	-38.295	-8191	255	
1055.462	1	1	0	0	0.036964	0.040905	0.096125	0.18359	0.050264	0.06134	0.13363	0.06045	0.11962	0.34461	0.30526	0.19885	0.067725	0.10394	0.066207	0.13248	-3.1771	-3.8208	-3.9458	-3.7333	-3.9146	-3.925	-3.8104	-4.2021	-3.6542	-3.9479	-4.075	-3.6875	-4.1396	-3.85	-3.6063	-4.1042	242.400	-7.765	176.402	268.901	15.817	147.382	255.528	262.096	148.239	-31.664	227.649	68.349	84.769	15.558	85.530	258.884	0.00018581	0.00022881	7.3167e-05	1053	2.4356e-06	3.5388e-06	1131.6	223.13	9.6748e-07	1.5411e-06	283.22	80.208	60.607	17.944	2.6002e-06	25.606	0.00024996	0.00023358	6.5392e-05	1038.7	2.7035e-06	2.5867e-06	1116.9	221.65	2.9231e-06	2.5132e-06	281.14	80.471	60.963	18.051	2.6984e-06	25.832	65.534	25.781	37.398	-58.272	98.209	84.468	-58.382	-51.247	69.296	101.764	-51.209	-44.660	-44.935	-38.034	84.848	-38.092	-8191	255	
1055.558	1	1	0	0	0.060288	0.16404	0.066278	0.20204	0.28574	0.17821	0.18696	0.09229	0.12783	0.13684	0.1963	0.032994	0.11204	0.057154	0.18955	0.22929	-3.2667	-3.7417	-4.1438	-3.5708	-3.9792	-3.6708	-3.8438	-4.0208	-3.6375	-3.9896	-4.0813	-3.5646	-3.875	-3.9083	-3.5375	-4.0062	164.892	44.945	250.134	253.819	254.490	170.467	-66.337	131.798	289.519	223.326	180.885	116.458	-18.126	280.545	-56.503	229.548	0.00017676	0.00026912	9.23e-05	1055.4	3.1544e-06	2.9271e-06	1139	223.93	2.7491e-06	2.3907e-06	282.5	80.268	60.927	17.92	4.1459e-06	25.474	0.00025876	0.00024457	6.8404e-05	1040.3	2.8485e-06	2.9263e-06	1118.1	222.07	3.0279e-06	2.9616e-06	281.51	80.483	61.035	18.102	3.0068e-06	25.795	62.122	43.915	11.569	-58.324	92.165	63.170	-58.478	-50.970	61.234	87.967	-51.348	-44.811	-44.684	-37.801	48.072	-38.270	-8191	255	
1055.654	1	1	0	0	0.25965	0.11003	0.13953	0.071801	0.059325	0.15545	0.29087	0.13695	0.053355	0.06155	0.12441	0.16134	0.09434	0.095148	0.14843	0.1458	-3.2354	-3.6771	-4.0896	-3.7313	-3.8896	-3.9271	-3.7188	-3.9896	-3.725	-3.7646	-4.1083	-3.7229	-3.875	-3.9771	-3.6854	-3.9708	203.224	-19.502	23.600	104.109	178.246	-28.942	177.412	106.576	34.151	-12.693	222.894	56.672	-53.998	94.609	121.329	99.337	0.00018061	0.0003076	8.652e-05	1057.3	2.2512e-06	3.3624e-06	1129.1	225.12	3.3655e-06	1.6966e-06	283.87	80.533	60.719	18.064	2.5614e-06	25.502	0.00025181	0.00024132	6.9517e-05	1039.4	2.8238e-06	2.7644e-06	1116.2	222.5	2.8018e-06	2.7374e-06	281.83	80.551	61.043	18.134	2.8406e-06	25.801	48.141	26.358	28.709	-58.333	91.770	73.405	-58.148	-51.098	59.351	84.473	-51.653	-45.196	-44.723	-37.951	51.591	-38.318	-8191	255	
1055.751	1	1	0	0	0.063178	0.15951	0.11041	0.42737	0.29068	0.27191	0.12787	0.10811	0.099112	0.26194	0.19409	0.23749	0.075675	0.098727	0.065651	0.077691	-3.3458	-3.5917	-4.2208	-3.6562	-3.85	-4.0188	-3.6854	-4.1333	-3.7958	-3.5104	-4.3479	-3.6458	-3.8292	-3.9708	-3.4896	-4.0625	48.716	33.278	71.982	223.065	217.699	112.671	221.755	255.378	71.425	94.639	158.694	80.079	49.293	-60.559	158.387	284.366	0.0002215	0.00027809	9.7608e-05	1059.5	2.7985e-06	3.6628e-06	1134.8	222.93	2.0368e-06	3.2128e-06	283.06	79.725	61.091	17.939	3.4584e-06	25.493	0.00024355	0.0002503	6.035e-05	1039.6	2.9316e-06	2.5745e-06	1117.3	221.73	2.7997e-06	2.6917e-06	281.67	80.244	61.02	18.099	2.8174e-06	25.825	58.899	6.558	21.626	-58.514	50.957	77.966	-58.021	-51.491	58.687	72.735	-51.551	-45.026	-44.893	-38.023	93.261	-38.628	-8191	255	
1055.847	1	1	0	0	0.11192	0.15449	0.28601	0.097445	0.1384	0.083229	0.21247	0.2481	0.1836	0.042089	0.30356	0.13516	0.010481	0.10017	0.16605	0.10859	-3.7021	-3.6854	-4.0667	-3.7729	-3.9979	-4.1646	-3.6937	-4.0938	-3.7792	-3.6229	-4.325	-3.7438	-3.7021	-4.1687	-3.65	-4.0146	223.723	9.695	0.234	242.081	107.180	142.377	-49.138	6.504	190.852	-29.261	233.189	-39.521	-36.303	60.587	183.099	260.518	0.00019603	0.00036151	0.00011228	1057.3	2.4918e-06	3.8076e-06	1134.6	223.09	4.6704e-06	2.4152e-06	283.55	80.571	60.811	17.996	1.7218e-06	25.676	0.00025231	0.00026252	6.4213e-05	1039.1	2.9097e-06	2.5622e-06	1118	221.71	2.9002e-06	2.8719e-06	281.31	80.524	61.095	18.113	2.5484e-06	25.884	56.527	24.864	47.792	-58.409	100.534	84.228	-58.373	-51.195	49.916	75.576	-51.534	-45.006	-44.397	-37.668	76.919	-38.500	-8191	255	
1055.966	1	1	0	0	0.10621	0.066647	0.1879	0.047989	0.24332	0.13429	0.17981	0.075702	0.15029	0.14268	0.12181	0.29653	0.19242	0.20897	0.06333	0.030828	-3.4479	-3.825	-4.0646	-3.8542	-3.7708	-4.1312	-3.8	-4.1333	-3.9417	-3.6437	-3.9958	-3.9167	-3.8125	-4.0833	-3.6188	-3.8812	179.979	-1.530	-56.480	28.712	212.250	280.602	175.161	249.270	159.534	109.728	209.666	-52.854	252.611	271.312	24.212	284.385	0.00019544	0.00042283	7.7167e-05	1059	1.8432e-06	2.8399e-06	1134	222.98	3.2478e-06	3.074e-06	282.99	79.903	61.456	17.905	2.5326e-06	25.504	0.00025189	0.0002602	6.083e-05	1040.4	2.8187e-06	2.5596e-06	1118.1	221.81	2.9605e-06	2.6917e-06	281.15	80.32	61.221	18.085	2.6574e-06	25.754	59.620	23.046	40.966	-58.480	55.254	76.893	-58.207	-51.165	89.467	99.223	-51.222	-45.245	-44.532	-37.994	94.939	-38.298	-8191	255	
1056.062	1	1	0	0	0.13037	0.014668	0.28837	0.019975	0.11549	0.072736	0.19238	0.21975	0.06727	0.15161	0.064293	0.041162	0.077408	0.096752	0.29388	0.16427	-3.6979	-3.4125	-4.0667	-3.8708	-3.6396	-4.1083	-3.9646	-3.9188	-3.9729	-3.8417	-4.0771	-4.0813	-3.6792	-4.2	-3.8896	-3.8542	97.795	70.946	23.692	-67.505	108.528	215.664	206.838	251.607	226.952	188.304	37.621	33.522	-28.468	-24.713	63.595	50.369	0.00024109	0.00029988	6.3871e-05	1060.4	2.7087e-06	2.9914e-06	1135.3	223.97	2.9639e-06	2.6094e-06	284.26	80.062	60.999	17.854	2.9391e-06	25.723	0.0002505	0.00024457	6.3253e-05	1040.2	3.1538e-06	2.2201e-06	1119.8	221.93	2.8657e-06	2.6662e-06	281.78	80.39	61.116	18.064	2.6621e-06	25.919	56.069	22.158	34.609	-58.304	107.654	79.893	-58.583	-51.397	85.231	91.227	-51.497	-45.024	-44.940	-37.664	68.566	-38.244	-8191	255	
1056.158	1	1	0	0	0.098054	0.06064	0.033634	0.23066	0.17234	0.24226	0.22036	0.36303	0.1227	0.21842	0.25371	0.22731	0.079844	0.060432	0.024101	0.14209	-3.6854	-3.6104	-4.0042	-4.1417	-3.7583	-3.9146	-3.95	-3.7875	-4.2958	-3.7458	-4.0708	-3.9604	-3.625	-4.2271	-3.7208	-3.9375	247.686	220.247	19.557	-25.265	-36.619	243.749	233.135	227.172	207.424	45.288	285.816	214.929	226.230	75.421	-62.804	3.586	0.00018401	0.00025386	6.5307e-05	1057.8	1.4245e-06	3.7216e-06	1135.9	223.3	3.581e-06	2.6206e-06	283.76	79.798	60.986	17.968	1.1837e-06	25.461	0.0002512	0.00024217	6.4999e-05	1039.6	3.0707e-06	2.4371e-06	1118.9	221.94	2.87e-06	2.4806e-06	281.74	80.224	60.99	18.093	2.6126e-06	25.848	56.874	40.515	1.115	-58.471	90.464	95.815	-58.366	-51.403	89.396	100.991	-51.086	-45.067	-44.801	-37.492	78.882	-38.242	-8191	255	
1056.254	1	1	0	0	0.14561	0.17763	0.22455	0.14828	0.15416	0.21628	0.14335	0.176	0.13029	0.12657	0.17239	0.20934	0.11893	0.24626	0.12033	0.12736	-3.7104	-3.5521	-3.8604	-4.0958	-3.5062	-4.2583	-3.7083	-3.8937	-4.1771	-3.8625	-4.025	-3.9542	-3.5604	-4.1583	-3.6833	-3.7771	255.520	-45.132	227.891	235.088	-52.869	242.458	123.012	245.810	-64.670	26.767	234.277	258.025	258.453	71.941	98.810	-66.050	0.00024552	0.00035875	7.9084e-05	1051.8	3.2808e-06	3.4671e-06	1136.4	223.26	4.4339e-06	2.4502e-06	281.46	80.74	60.812	17.957	2.0423e-06	25.598	0.00023788	0.00024798	6.8535e-05	1038.5	3.137e-06	2.5692e-06	1118.7	221.95	2.6597e-06	2.682e-06	281.54	80.509	61.022	18.065	2.6543e-06	25.875	67.906	5.262	7.607	-58.066	78.424	88.396	-58.362	-51.189	81.611	85.175	-51.576	-45.091	-44.766	-37.635	91.784	-38.117	-8191	255	
1056.348	1	1	0	0	0.17476	0.14993	0.048142	0.045978	0.12393	0.13003	0.14831	0.32129	0.097439	0.2323	0.13231	0.10542	0.10221	0.18351	0.11073	0.16562	-3.4917	-3.7021	-3.9417	-4.2792	-3.475	-3.9833	-3.85	-3.6417	-3.9958	-3.7125	-3.8271	-4.0563	-3.6688	-4.0042	-3.8417	-3.6688	14.135	252.624	207.399	-63.345	219.068	239.576	-63.132	-56.172	-45.758	99.497	-61.280	30.202	271.359	242.835	46.398	198.593	0.00021662	0.00021247	8.751e-05	1054.6	2.472e-06	3.7156e-06	1138.5	223.91	1.5497e-06	2.3192e-06	282	80.184	61.233	17.871	2.1836e-06	25.516	0.00024972	0.00022461	6.9124e-05	1039.8	3.0081e-06	2.3478e-06	1120.1	222.07	2.7695e-06	2.6495e-06	281.31	80.424	61.116	18.071	2.4742e-06	25.845	76.750	-12.737	43.766	-58.422	85.322	64.807	-58.371	-51.064	70.312	89.361	-51.347	-44.909	-44.784	-37.347	63.020	-38.281	-8191	255	
1056.445	1	1	0	0	0.15256	0.13314	0.22174	0.068059	0.080638	0.047759	0.22752	0.21925	0.14548	0.14501	0.084309	0.21447	0.11125	0.029621	0.093748	0.35375	-3.7104	-3.5812	-3.7021	-4.0146	-3.7271	-4.0021	-4.2667	-3.7938	-4.1167	-3.7583	-3.6896	-4.2271	-3.6208	-3.9062	-3.9354	-3.6146	-5.016	-68.962	-28.424	206.136	7.308	249.527	205.863	188.885	164.543	116.424	104.968	214.498	-43.011	-2.142	-20.348	274.755	0.00022294	0.00033035	0.00010067	1050.2	2.3092e-06	2.9441e-06	1123.4	222.21	1.9077e-06	3.3978e-06	281.75	79.919	60.514	17.751	2.8481e-06	25.383	0.00022526	0.00026128	6.8797e-05	1038.4	3.1938e-06	2.6401e-06	1115.4	221.9	2.5204e-06	2.8218e-06	280.8	80.179	60.931	18.072	2.4394e-06	25.809	66.353	21.855	22.586	-58.335	86.504	93.937	-58.414	-51.252	105.351	91.969	-51.390	-45.041	-44.916	-38.005	63.543	-38.196	-8191	255	
1056.565	1	1	0	0	0.28227	0.067567	0.17833	0.1902	0.13589	0.14273	0.15848	0.33272	0.21823	0.15434	0.34818	0.2492	0.23073	0.22265	0.18208	0.053516	-3.7979	-3.6937	-3.625	-4.0667	-3.6333	-3.9708	-4.1583	-3.5771	-4.1417	-3.8042	-3.8125	-4.1271	-3.8042	-3.8042	-3.9833	-3.5812	-11.659	15.990	262.031	261.463	141.242	65.675	177.308	260.893	-48.435	271.807	-53.742	216.015	153.848	196.045	6.861	-34.027	0.00019324	0.00025389	8.2123e-05	1051	1.7061e-06	2.921e-06	1124.8	222.3	1.8971e-06	3.4513e-06	280.94	79.413	60.661	17.699	3.0034e-06	25.397	0.00024298	0.0002356	6.8971e-05	1039	3.0015e-06	2.5823e-06	1117.1	221.88	2.6647e-06	2.4622e-06	280.65	80.098	60.912	18.066	2.6296e-06	25.842	48.675	8.087	21.227	-58.306	68.230	72.238	-58.342	-51.429	20.265	79.152	-51.821	-45.110	-44.582	-37.699	67.033	-38.463	-8191	255	
1056.661	1	1	0	0	0.075408	0.22658	0.021735	0.19012	0.24708	0.10751	0.1622	0.43269	0.072327	0.13674	0.30334	0.16567	0.13899	0.10371	0.1251	0.04593	-3.5271	-3.9479	-3.7375	-4.2229	-3.6229	-3.9521	-4.1625	-3.6854	-3.8937	-3.7792	-3.65	-4.0062	-3.8021	-3.55	-4.1792	-3.7708	-54.809	269.439	138.133	254.111	116.163	156.836	191.134	177.436	274.586	198.697	254.087	284.708	236.003	205.078	258.608	2.336	0.00021794	0.00029528	0.00010892	1050.7	2.3517e-06	3.0404e-06	1124.2	221.84	3.187e-06	2.0226e-06	280.03	79.909	60.432	17.916	2.9862e-06	25.427	0.00023809	0.00024519	7.5716e-05	1039.1	2.9534e-06	2.76e-06	1117.4	221.56	2.8269e-06	2.624e-06	280.83	80.357	60.908	18.086	2.5902e-06	25.883	72.146	33.725	23.667	-58.607	61.392	65.691	-58.376	-51.329	61.628	74.906	-51.436	-45.209	-44.803	-37.747	71.962	-38.417	-8191	255	
1056.758	1	1	0	0	0.1544	0.2467	0.12946	0.25165	0.091928	0.10565	0.028523	0.16267	0.21813	0.20662	0.037194	0.17452	0.22087	0.20533	0.23727	0.18213	-3.6583	-3.8979	-3.3812	-4.1708	-3.7604	-3.6771	-4.2771	-3.5958	-3.9479	-3.9625	-3.5854	-3.9188	-3.7583	-3.7854	-4.1646	-3.7062	219.399	237.066	236.029	218.791	119.818	91.044	132.620	106.235	9.224	197.109	-36.385	162.218	189.167	-69.252	39.265	27.643	0.00015766	0.00027406	0.00010303	1057.9	1.1037e-06	2.5653e-06	1137	224.01	1.9224e-06	3.8755e-06	284.3	80.376	61.229	17.902	2.523e-06	25.432	0.00024491	0.00024612	7.2594e-05	1040.2	2.8769e-06	2.648e-06	1117.9	222.01	2.7544e-06	2.5712e-06	282.14	80.222	61.104	18.067	2.4364e-06	25.782	57.901	23.288	55.748	-58.147	133.571	70.883	-58.267	-51.268	49.029	86.708	-51.309	-45.234	-44.587	-37.585	68.600	-38.631	-8191	255	
#DATA ENDS
