BOXY.EXE: ISS Imagent and Oximeter Data Acquisition Program Version 0.80
Ascii Record File

#ACQ INFORMATION
2  Detector Channels 
16  External MUX Channels 
1  Auxiliary Channels 
5000  Waveform (CCF) Frequency (Hz)
1  Waveforms Skipped 
30  Waveforms Averaged 
1  Cycles Averaged 
16  Acquisitions per Waveform 
10.0806  Updata Rate (Hz) 

#FILE INFORMATION
TRUE -- External MUX Channel results are PARSED.
FALSE -- AC DC and Phase are NOT grouped.
TRUE -- Companion Program Settings File CREATED.
FALSE -- AC data not excluded
FALSE -- DC data not excluded
FALSE -- Phase data not excluded
FALSE -- Auxillary Chn. data not excluded
Tab delimiters

#CALIBRATION STATE
TRUE -- Waveform Calibration Values APPLIED.


#AUX CALIBRATION VALUES
Val Type	aux-1	

Term	1.0000e+00	
Factor	0.0000e+00	


#WF CALIBRATION VALUES
A = Detector Channel
Val Type	A-AC1	A-AC2	A-AC3	A-AC4	A-AC5	A-AC6	A-AC7	A-AC8	A-AC9	A-AC10	A-AC11	A-AC12	A-AC13	A-AC14	A-AC15	A-AC16	A-DC1	A-DC2	A-DC3	A-DC4	A-DC5	A-DC6	A-DC7	A-DC8	A-DC9	A-DC10	A-DC11	A-DC12	A-DC13	A-DC14	A-DC15	A-DC16	A-Ph1	A-Ph2	A-Ph3	A-Ph4	A-Ph5	A-Ph6	A-Ph7	A-Ph8	A-Ph9	A-Ph10	A-Ph11	A-Ph12	A-Ph13	A-Ph14	A-Ph15	A-Ph16	

Term	0.00000e+00	0.00000e+00	0.00000e+00	0.00000e+00	0.00000e+00	0.00000e+00	0.00000e+00	0.00000e+00	0.00000e+00	0.00000e+00	0.00000e+00	0.00000e+00	0.00000e+00	0.00000e+00	0.00000e+00	0.00000e+00	0.00000e+00	0.00000e+00	0.00000e+00	0.00000e+00	0.00000e+00	0.00000e+00	0.00000e+00	0.00000e+00	0.00000e+00	0.00000e+00	0.00000e+00	0.00000e+00	0.00000e+00	0.00000e+00	0.00000e+00	0.00000e+00	0.00000e+00	0.00000e+00	0.00000e+00	0.00000e+00	0.00000e+00	0.00000e+00	0.00000e+00	0.00000e+00	0.00000e+00	0.00000e+00	0.00000e+00	0.00000e+00	0.00000e+00	0.00000e+00	0.00000e+00	0.00000e+00	
Factor	1.00000e+00	1.00000e+00	1.00000e+00	1.00000e+00	1.00000e+00	1.00000e+00	1.00000e+00	1.00000e+00	1.00000e+00	1.00000e+00	1.00000e+00	1.00000e+00	1.00000e+00	1.00000e+00	1.00000e+00	1.00000e+00	1.00000e+00	1.00000e+00	1.00000e+00	1.00000e+00	1.00000e+00	1.00000e+00	1.00000e+00	1.00000e+00	1.00000e+00	1.00000e+00	1.00000e+00	1.00000e+00	1.00000e+00	1.00000e+00	1.00000e+00	1.00000e+00	X	X	X	X	X	X	X	X	X	X	X	X	X	X	X	X	

B = Detector Channel
Val Type	B-AC1	B-AC2	B-AC3	B-AC4	B-AC5	B-AC6	B-AC7	B-AC8	B-AC9	B-AC10	B-AC11	B-AC12	B-AC13	B-AC14	B-AC15	B-AC16	B-DC1	B-DC2	B-DC3	B-DC4	B-DC5	B-DC6	B-DC7	B-DC8	B-DC9	B-DC10	B-DC11	B-DC12	B-DC13	B-DC14	B-DC15	B-DC16	B-Ph1	B-Ph2	B-Ph3	B-Ph4	B-Ph5	B-Ph6	B-Ph7	B-Ph8	B-Ph9	B-Ph10	B-Ph11	B-Ph12	B-Ph13	B-Ph14	B-Ph15	B-Ph16	

Term	0.00000e+00	0.00000e+00	0.00000e+00	0.00000e+00	0.00000e+00	0.00000e+00	0.00000e+00	0.00000e+00	0.00000e+00	0.00000e+00	0.00000e+00	0.00000e+00	0.00000e+00	0.00000e+00	0.00000e+00	0.00000e+00	0.00000e+00	0.00000e+00	0.00000e+00	0.00000e+00	0.00000e+00	0.00000e+00	0.00000e+00	0.00000e+00	0.00000e+00	0.00000e+00	0.00000e+00	0.00000e+00	0.00000e+00	0.00000e+00	0.00000e+00	0.00000e+00	-8.95078e+00	-1.28313e+02	-1.59213e+02	-1.83430e+02	-6.27312e+01	-7.13637e+01	-1.58223e+02	-1.62015e+02	-5.99673e+01	-9.13236e+01	-1.73512e+02	-1.71486e+02	-1.82993e+02	-1.77391e+02	-9.45175e+01	-1.50029e+02	
Factor	3.31521e-05	1.02412e-04	2.51838e-05	1.74125e-01	9.41655e-07	7.87002e-07	1.67823e-01	5.34825e-02	9.62964e-07	9.16794e-07	9.32518e-02	3.26786e-02	3.77044e-02	9.61610e-03	1.01061e-06	1.39087e-02	4.73983e-07	4.79203e-07	1.33295e-07	8.43310e-02	5.25646e-09	5.25144e-09	7.68524e-02	2.57750e-02	5.24916e-09	5.24987e-09	4.19250e-02	1.46082e-02	1.67917e-02	4.47682e-03	5.26103e-09	6.16901e-03	X	X	X	X	X	X	X	X	X	X	X	X	X	X	X	X	



#DISTANCE SETTINGS
A = Detector Channel
A-1	A-2	A-3	A-4	A-5	A-6	A-7	A-8	A-9	A-10	A-11	A-12	A-13	A-14	A-15	A-16	

2.5000e+00	3.0000e+00	2.5000e+00	3.0000e+00	2.0000e+00	3.0000e+00	1.5000e+00	3.0000e+00	3.0000e+00	3.0000e+00	3.0000e+00	3.0000e+00	3.0000e+00	3.0000e+00	1.5000e+00	3.0000e+00	

B = Detector Channel
B-1	B-2	B-3	B-4	B-5	B-6	B-7	B-8	B-9	B-10	B-11	B-12	B-13	B-14	B-15	B-16	

1.0000e+01	1.0000e+01	1.0000e+01	1.4400e+00	1.0000e+01	1.0000e+01	1.5100e+00	1.9400e+00	1.0000e+01	1.0000e+01	1.9900e+00	2.4900e+00	2.4100e+00	2.9000e+00	1.0000e+01	2.9800e+00	




#DATA BEGINS
time	group	step	mark	flag	A-AC1	A-AC2	A-AC3	A-AC4	A-AC5	A-AC6	A-AC7	A-AC8	A-AC9	A-AC10	A-AC11	A-AC12	A-AC13	A-AC14	A-AC15	A-AC16	A-DC1	A-DC2	A-DC3	A-DC4	A-DC5	A-DC6	A-DC7	A-DC8	A-DC9	A-DC10	A-DC11	A-DC12	A-DC13	A-DC14	A-DC15	A-DC16	A-Ph1	A-Ph2	A-Ph3	A-Ph4	A-Ph5	A-Ph6	A-Ph7	A-Ph8	A-Ph9	A-Ph10	A-Ph11	A-Ph12	A-Ph13	A-Ph14	A-Ph15	A-Ph16	B-AC1	B-AC2	B-AC3	B-AC4	B-AC5	B-AC6	B-AC7	B-AC8	B-AC9	B-AC10	B-AC11	B-AC12	B-AC13	B-AC14	B-AC15	B-AC16	B-DC1	B-DC2	B-DC3	B-DC4	B-DC5	B-DC6	B-DC7	B-DC8	B-DC9	B-DC10	B-DC11	B-DC12	B-DC13	B-DC14	B-DC15	B-DC16	B-Ph1	B-Ph2	B-Ph3	B-Ph4	B-Ph5	B-Ph6	B-Ph7	B-Ph8	B-Ph9	B-Ph10	B-Ph11	B-Ph12	B-Ph13	B-Ph14	B-Ph15	B-Ph16	aux-1	digaux	

694.035	1	1	0	256	0.38513	0.082731	0.25612	0.13622	0.10346	0.16097	0.13929	0.14573	0.12267	0.19384	0.10171	0.17155	0.10816	0.10302	0.27031	0.17111	-0.089583	-0.60417	-0.98125	-0.525	-1.3312	-0.67917	-0.75625	-1.5229	-0.58542	-0.90625	-1.1917	-0.26667	-1.1479	-0.71458	-0.31042	-1.3042	21.194	112.309	-59.528	-56.508	-22.933	80.871	-14.585	-17.661	-35.797	261.877	229.435	188.127	52.944	124.748	103.824	101.683	0.00031149	0.0006469	0.00010438	1080.4	5.1761e-06	2.3533e-06	1176.7	221.87	4.4588e-06	3.0822e-06	287.24	81.495	63.444	18.606	6.7058e-06	26.391	0.00033887	0.00033947	9.3806e-05	1046	3.6852e-06	3.6296e-06	1138.3	220.18	3.4709e-06	3.421e-06	279.81	81.733	64.854	19.548	3.3671e-06	27.151	284.088	253.075	-6.402	-51.069	268.911	104.058	-50.883	-43.379	100.406	-14.532	-43.667	-36.473	-36.233	-29.530	-1.935	-30.273	-8191	255	
694.131	1	1	0	0	0.1734	0.080675	0.079456	0.032182	0.19929	0.13075	0.27967	0.10024	0.11826	0.19411	0.073185	0.1102	0.053352	0.10205	0.14198	0.21311	-0.25208	-0.86458	-1.1083	-0.29792	-1.1562	-1.0875	-0.74375	-1.4521	-0.425	-0.52708	-1.1292	-0.47917	-1.2563	-0.97917	-0.4125	-1.0771	22.179	34.092	126.529	236.461	297.657	281.715	225.757	63.387	59.712	55.225	-37.534	285.388	96.556	-7.274	174.748	-47.867	0.00020631	0.00058097	0.00022008	1079.9	4.206e-06	2.4698e-06	1176.5	222.18	2.4555e-06	5.0584e-06	285.97	80.851	63.643	18.691	4.9357e-06	26.47	0.00030556	0.00030808	8.5221e-05	1041.4	3.3651e-06	3.3946e-06	1133.7	219.86	3.3624e-06	3.3803e-06	279.28	81.564	64.886	19.539	3.4042e-06	27.197	230.529	-47.663	113.284	-50.941	199.392	115.275	-50.753	-43.484	119.167	23.513	-43.675	-36.562	-36.803	-29.432	46.638	-30.410	-8191	255	
694.227	1	1	0	0	0.1566	0.02938	0.10698	0.12998	0.17875	0.23617	0.28725	0.48846	0.091663	0.073026	0.18777	0.26708	0.020597	0.13757	0.1497	0.15537	-0.21667	-0.64167	-1.1729	-0.45833	-1.0875	-1.0396	-0.3375	-1.2979	-0.63958	-0.68542	-1.1771	-0.71458	-1.1417	-1.0667	-0.125	-1.1333	259.289	91.514	236.818	286.931	-11.216	105.582	290.398	286.323	294.218	124.928	269.475	264.463	209.255	244.180	53.361	221.887	0.0001528	0.00063612	0.00011192	1073.8	1.4985e-06	3.7915e-06	1178.3	222.11	4.7543e-06	3.9534e-06	284.98	81.577	63.793	18.743	1.8015e-06	26.295	0.00030914	0.00031073	8.6447e-05	1038.6	3.3826e-06	3.4015e-06	1131.4	219.56	3.39e-06	3.4014e-06	278.89	81.548	64.718	19.58	3.3186e-06	27.034	120.825	153.610	14.572	-50.950	191.518	140.581	-50.827	-43.176	38.861	54.522	-43.328	-36.581	-35.864	-29.392	163.432	-30.305	-8191	255	
694.348	1	1	0	0	0.14173	0.26118	0.17964	0.13805	0.040679	0.13569	0.22771	0.14005	0.14816	0.18927	0.25498	0.076111	0.15943	0.034927	0.21643	0.092361	-0.66458	-0.66667	-1.2958	-0.51458	-0.7	-1.0708	-0.68333	-1.4146	-0.70625	-0.68333	-1.475	-0.6625	-0.93958	-1.2938	-0.39792	-1.0812	46.536	213.908	107.575	277.921	199.296	-26.515	238.861	224.212	208.480	30.296	205.651	189.759	248.072	182.954	93.095	126.340	0.00013603	0.00072071	0.0001022	1071	4.2347e-06	5.865e-06	1173	220.79	1.4216e-06	4.1205e-06	285.17	81.405	63.918	18.73	4.9216e-06	26.329	0.00029908	0.00030029	8.2821e-05	1035.2	3.2505e-06	3.2189e-06	1128	218.21	3.1925e-06	3.1883e-06	277.43	80.828	63.984	19.32	3.1763e-06	26.84	217.523	94.650	175.663	-50.913	173.275	-25.378	-50.668	-43.206	61.499	21.573	-44.089	-36.824	-35.954	-29.077	162.744	-29.981	-8191	255	
694.444	1	1	0	0	0.15806	0.2189	0.19992	0.094624	0.21623	0.31947	0.049823	0.19396	0.15156	0.070776	0.12221	0.040228	0.23375	0.08993	0.35866	0.0063264	-0.38958	-0.4375	-1.2521	-0.81458	-0.58958	-1.125	-0.50625	-1.0417	-0.85208	-0.53333	-1.2896	-0.67083	-0.67292	-1.1792	-0.36042	-0.975	53.310	217.103	94.954	179.862	274.093	146.246	-34.472	257.438	-8.175	14.555	67.658	197.366	6.269	280.147	119.084	202.826	0.00022394	0.00019954	5.7856e-05	1070.8	1.9547e-06	6.8202e-06	1171	222.44	5.2515e-06	3.2549e-06	285.45	80.893	63.52	18.708	1.7824e-06	26.475	0.00028675	0.00028708	7.9134e-05	1031.2	3.1027e-06	3.0711e-06	1123.5	217.59	3.0506e-06	3.0085e-06	275.55	80.104	63.372	19.219	3.0176e-06	26.746	-49.474	212.516	-29.589	-50.789	-8.518	52.349	-50.572	-43.279	182.041	28.975	-43.586	-36.701	-36.130	-29.289	94.081	-29.561	-8191	255	
694.539	1	1	0	0	0.098956	0.099805	0.27647	0.33947	0.19029	0.17358	0.20474	0.29188	0.19506	0.20785	0.045235	0.17334	0.14402	0.076657	0.11913	0.17008	-0.42083	-0.27083	-1.3125	-0.89792	-0.59375	-1.1083	-0.69375	-1.15	-1.1042	-0.22917	-1.1958	-0.8875	-0.64583	-1.0875	-0.49583	-0.92292	101.855	128.537	44.457	263.489	203.974	-17.136	215.215	248.125	47.208	93.914	200.498	271.110	87.776	253.387	235.986	-53.604	0.00014398	0.00033293	9.9236e-05	1067	5.2458e-06	7.7601e-07	1165.8	220.65	1.8573e-06	3.3164e-06	285.43	80.587	63.683	18.748	1.8992e-06	26.401	0.00028012	0.00028411	7.9286e-05	1028.8	3.2045e-06	3.2103e-06	1123.1	217.83	3.2481e-06	3.2424e-06	277.25	80.657	64.005	19.381	3.1899e-06	26.837	292.182	261.459	291.225	-51.108	1.019	292.443	-50.832	-43.363	186.637	47.099	-43.563	-36.466	-35.706	-29.622	-21.415	-29.664	-8191	255	
694.612	1	1	0	0	0.26786	0.16692	0.14552	0.16402	0.16519	0.25751	0.062853	0.2527	0.083723	0.095611	0.15891	0.18352	0.17158	0.093299	0.13481	0.11066	-0.93958	-0.23542	-0.96458	-0.91875	-0.3	-1.5375	-0.65625	-0.67917	-1.0875	-0.15417	-1.1396	-0.95625	-0.35	-1.0833	-0.53958	-0.85417	-19.338	-46.427	167.497	-41.342	209.672	77.204	184.280	266.111	267.452	163.767	294.148	281.160	218.273	147.350	257.398	-19.200	0.00021646	7.6381e-05	0.0001669	1074.1	5.7117e-06	2.1828e-06	1166.3	220.87	5.3441e-06	2.0103e-06	283.74	80.81	63.179	18.562	4.938e-06	26.421	0.00029006	0.00029068	8.0286e-05	1031	3.1512e-06	3.1404e-06	1122.7	217.43	3.172e-06	3.1657e-06	276.2	80.566	63.626	19.294	3.1635e-06	26.842	294.556	174.176	57.038	-50.886	64.750	4.032	-50.684	-42.948	201.555	111.620	-43.655	-36.762	-35.789	-29.077	237.585	-29.926	-8191	255	
694.733	1	1	0	0	0.12689	0.11676	0.20095	0.30312	0.1942	0.26003	0.2089	0.30163	0.23791	0.13712	0.18975	0.23149	0.49899	0.20156	0.13912	0.17753	-0.99167	-0.21875	-0.82917	-0.725	-0.275	-1.1646	-0.80417	-0.49375	-1.1646	-0.34792	-1.0521	-1.1104	-0.4375	-1.2938	-0.69375	-0.54583	21.255	78.302	92.632	182.174	-59.005	216.630	229.278	284.780	161.843	172.098	38.058	16.819	-14.031	24.277	297.607	-57.117	3.9411e-05	0.00020452	0.00016157	1071.4	4.7874e-06	8.2623e-06	1164	220.78	2.2755e-06	1.5323e-06	283.42	81.164	62.816	18.715	6.1566e-06	26.375	0.00028718	0.0002883	7.9565e-05	1028.6	3.0864e-06	3.0871e-06	1121.1	217.2	3.0655e-06	3.0284e-06	275.01	80.302	63.23	19.205	3.065e-06	26.733	21.846	197.610	67.310	-50.951	172.485	10.167	-50.516	-43.182	69.373	204.374	-43.698	-36.517	-35.714	-29.578	76.838	-29.737	-8191	255	
694.827	1	1	0	0	0.31258	0.22845	0.1923	0.10516	0.061373	0.15097	0.17999	0.25936	0.054392	0.13973	0.097001	0.18061	0.24944	0.24628	0.048681	0.16435	-0.70208	-0.61667	-1.0229	-1.2	-0.30208	-1.2396	-0.94583	-0.70417	-1.4646	-0.60208	-0.97292	-0.96458	-0.34167	-1.1646	-0.84167	-0.5	177.843	224.185	-16.162	76.665	50.363	107.730	297.218	283.378	-56.514	-9.224	177.981	-25.792	111.767	-42.725	48.489	64.511	7.2693e-05	0.00036462	0.00010794	1070.4	2.8028e-06	1.3734e-06	1162.4	219.94	2.7355e-06	8.1309e-06	284.96	81.313	63.256	18.681	3.8826e-06	26.289	0.00027818	0.00027835	7.7611e-05	1028	3.0619e-06	3.0462e-06	1118.3	216.76	3.0498e-06	3.0769e-06	274.77	80.332	63.493	19.172	3.0663e-06	26.627	283.764	70.306	-30.452	-50.680	167.892	128.368	-50.593	-43.005	44.572	42.588	-43.199	-36.415	-36.357	-28.991	115.814	-30.294	-8191	255	
694.923	1	1	0	0	0.068898	0.047397	0.086151	0.047904	0.080753	0.091276	0.17696	0.11736	0.082352	0.010648	0.23247	0.047783	0.17451	0.19735	0.12539	0.18962	-0.82708	-0.48333	-0.81667	-1.6104	-0.375	-1.1958	-1.275	-0.44375	-1.0542	-0.56458	-0.87292	-1.3271	-0.49792	-1.1146	-0.73542	-0.35833	156.106	85.657	51.497	-58.493	280.569	-19.029	228.219	-28.283	160.787	56.842	40.269	101.573	-8.927	41.461	22.734	231.407	0.00010487	0.00040888	5.7516e-05	1068.6	2.5438e-06	1.3162e-06	1163	220.04	1.8989e-06	3.0189e-06	282.86	79.883	63.524	18.707	2.6866e-06	26.206	0.00027799	0.00027513	7.6135e-05	1026.7	2.9908e-06	2.9491e-06	1116.3	216.02	2.9003e-06	2.9178e-06	273.14	79.444	62.765	19.042	2.8785e-06	26.431	276.961	43.150	-40.541	-51.252	38.590	126.258	-50.595	-43.081	24.879	-20.218	-43.529	-36.375	-35.971	-29.179	176.449	-29.798	-8191	255	
695.019	1	1	0	0	0.23684	0.26483	0.09107	0.061782	0.16073	0.1956	0.26581	0.20766	0.24071	0.070639	0.10537	0.10046	0.24961	0.13383	0.21077	0.25616	-0.98958	-0.8	-0.49792	-1.0812	-0.43125	-1.1229	-1.4354	-0.3875	-1.2146	-0.93333	-0.63958	-1.2729	-0.62083	-0.86667	-1.0438	-0.66042	285.479	-59.644	132.078	293.924	290.440	73.295	-47.654	172.230	266.117	101.170	275.443	22.096	290.876	10.599	177.866	5.300	0.0001531	0.00028529	0.0001282	1065.7	2.9102e-06	4.0577e-06	1161.6	219.75	6.1418e-06	4.5149e-06	283.48	80.828	63.252	18.734	4.9011e-06	26.128	0.00026235	0.00026033	7.3039e-05	1022.3	2.8887e-06	2.8631e-06	1113.4	215.39	2.8697e-06	2.863e-06	272.59	79.842	62.665	19.08	2.9146e-06	26.403	273.408	223.316	25.179	-50.711	92.680	30.914	-50.548	-43.030	204.210	98.124	-43.454	-36.512	-35.889	-29.124	-54.944	-29.737	-8191	255	
695.140	1	1	0	0	0.17096	0.1462	0.080326	0.25132	0.12608	0.19264	0.14376	0.16584	0.20832	0.21712	0.085227	0.24864	0.24453	0.035233	0.13115	0.31785	-0.91458	-0.68542	-0.51458	-1.3583	-0.20417	-0.55417	-1.3333	-0.67292	-1.1604	-0.69375	-0.48125	-1.2625	-0.66042	-0.99167	-1.25	-0.32708	183.699	95.310	213.878	259.344	238.888	26.837	42.762	281.089	-27.240	17.461	52.038	258.546	249.887	207.781	285.938	12.320	0.0001424	0.00036906	8.6976e-05	1069	2.1248e-06	2.1567e-06	1162.9	219.36	1.8228e-06	5.1457e-06	281.35	81.102	63.202	18.586	8.7049e-06	25.891	0.0002641	0.00026047	7.2799e-05	1021.7	2.8672e-06	2.8498e-06	1112.7	215.19	2.8502e-06	2.8516e-06	271.92	79.593	62.576	19.027	2.9093e-06	26.275	275.162	-50.623	18.569	-50.715	175.674	56.621	-50.604	-43.263	-27.741	40.129	-43.699	-36.113	-36.162	-29.360	24.347	-29.607	-8191	255	
695.236	1	1	0	0	0.087416	0.11888	0.4204	0.51972	0.074319	0.31776	0.46731	0.088353	0.24271	0.14005	0.079614	0.031935	0.26429	0.088056	0.17934	0.066217	-0.76458	-0.95625	-0.36875	-1.5104	-0.50625	-0.51875	-1.3208	-0.5125	-1.0583	-1.0875	-0.31667	-1.1104	-0.65833	-0.71875	-1.1771	-0.28333	176.405	239.670	46.705	260.732	-45.924	287.443	-53.358	143.040	106.122	277.382	242.761	297.710	120.553	260.391	154.172	160.376	0.00024305	0.0010291	0.00010362	1066	3.4608e-06	3.4327e-06	1159.9	219.84	1.1002e-05	1.475e-06	282.3	80.069	62.922	18.523	5.7735e-06	26.064	0.00026266	0.00026268	7.3011e-05	1022.1	2.8925e-06	2.8922e-06	1113	215.05	2.9172e-06	2.9595e-06	272.74	79.692	62.783	19.066	2.9511e-06	26.465	276.090	40.897	245.621	-50.723	219.500	76.229	-50.485	-43.102	134.699	144.880	-43.347	-36.334	-35.841	-29.382	279.250	-30.154	-8191	255	
695.332	1	1	0	0	0.31251	0.16996	0.12476	0.045666	0.13641	0.22987	0.081349	0.18766	0.23581	0.27053	0.19418	0.24102	0.11738	0.31041	0.25917	0.067463	-0.57083	-1.0979	-0.30208	-1.1688	-0.78125	-0.63542	-1.3062	-0.31875	-0.64583	-0.82708	-0.6125	-1.2125	-0.93542	-0.41042	-1.2062	-0.65	241.197	225.434	-28.379	83.291	226.410	154.045	192.198	269.849	218.847	269.552	137.704	4.851	297.839	94.489	-37.331	-57.275	0.0001164	0.00066821	5.2761e-05	1058.3	3.1405e-06	5.8086e-06	1160.9	219.61	1.2213e-06	4.5439e-06	282.23	80.5	62.699	18.695	3.0896e-06	26.224	0.00027024	0.00026932	7.5115e-05	1019.8	2.9775e-06	3.0056e-06	1113.2	215.91	3.0438e-06	3.0596e-06	273.94	80.15	63.11	19.203	3.1318e-06	26.628	-39.826	84.430	68.643	-50.569	162.360	106.872	-50.612	-43.113	-59.281	47.585	-43.244	-36.405	-36.310	-29.196	93.376	-29.958	-8191	255	
695.428	1	1	0	0	0.07038	0.28399	0.19263	0.3188	0.21593	0.37184	0.41569	0.37328	0.27853	0.077938	0.20715	0.14946	0.25165	0.15773	0.15236	0.24468	-0.49792	-1.0646	-0.33125	-1.2313	-0.975	-0.48542	-1.1271	-0.46042	-0.74792	-1.3104	-0.44375	-1.0958	-0.9125	-0.59375	-1.3729	-0.42083	159.103	245.093	222.131	248.356	85.290	27.963	184.587	220.800	221.753	195.505	9.530	279.927	-49.068	156.303	166.733	-8.051	0.00018406	0.00023825	0.00010655	1064.7	5.5981e-06	2.9841e-06	1158.1	219.15	5.4457e-06	4.56e-06	284.11	80.715	62.779	18.647	1.0921e-06	26.316	0.00028753	0.00028935	8.0513e-05	1025.6	3.1805e-06	3.2134e-06	1117.5	216.6	3.191e-06	3.1454e-06	274.74	80.248	63.223	19.193	3.0612e-06	26.515	278.408	279.775	95.120	-50.924	57.584	148.406	-50.444	-43.061	120.621	61.367	-43.351	-36.388	-36.088	-28.969	52.833	-30.167	-8191	255	
695.525	1	1	0	0	0.1134	0.19628	0.23414	0.17855	0.19098	0.37712	0.27582	0.21102	0.19917	0.1557	0.34479	0.014083	0.47024	0.049949	0.17184	0.53131	-0.22292	-1.25	-0.44583	-0.95	-1.1771	-0.33125	-1.6146	-0.66875	-0.54375	-1.2417	-0.65417	-0.98125	-1.0521	-0.33958	-1.3667	-0.73542	147.462	122.501	-49.989	190.673	211.403	109.445	295.612	21.891	32.071	20.375	-57.458	157.461	132.171	245.004	-13.407	248.852	0.00026096	0.00050205	0.00012204	1062.5	1.5949e-06	6.5716e-06	1156.4	220.6	5.8997e-07	4.6063e-06	281.82	79.867	63.08	18.648	2.4233e-06	26.16	0.00027838	0.00027756	7.6771e-05	1023.7	3.0402e-06	3.0411e-06	1113.7	215.62	3.0253e-06	3.033e-06	273.58	79.689	63.171	19.157	3.0616e-06	26.526	239.694	106.675	-31.031	-50.678	95.003	83.293	-50.429	-43.072	176.810	35.884	-43.190	-36.042	-36.142	-28.905	-55.922	-29.814	-8191	255	
695.621	1	1	0	0	0.25502	0.18218	0.22341	0.055771	0.12368	0.092064	0.11389	0.095731	0.23617	0.27763	0.04012	0.28051	0.16676	0.12552	0.11154	0.10724	-0.033333	-1.2229	-0.25	-0.925	-1.0938	-0.39792	-1.4792	-0.87708	-0.46875	-1.3917	-0.66042	-0.95417	-1.3667	-0.18125	-1.0583	-1.0792	39.776	133.524	55.597	268.018	245.374	54.856	69.508	211.177	279.172	168.092	30.625	-31.199	254.963	-31.469	2.026	132.324	0.00028422	0.000622	0.00015605	1064.9	4.2122e-06	3.445e-06	1160.9	220.13	7.7139e-07	1.0612e-06	280.16	80.42	62.892	18.643	5.436e-06	26.177	0.00027657	0.00027721	7.6758e-05	1022.7	3.0252e-06	3.0139e-06	1113.9	215.61	2.9737e-06	2.9921e-06	271.81	79.513	62.752	19.024	2.9061e-06	26.272	-50.608	55.013	-16.694	-50.547	55.953	94.215	-50.356	-42.868	249.340	188.488	-43.408	-36.306	-36.321	-28.893	135.316	-29.825	-8191	255	
695.740	1	1	0	0	0.26588	0.050419	0.082589	0.26121	0.038536	0.16494	0.066271	0.058638	0.36643	0.16465	0.18614	0.156	0.19188	0.024839	0.071659	0.091764	-0.05	-1.1792	-0.51875	-0.83125	-1.1979	-0.38125	-1.325	-1.0625	-0.42083	-1.0688	-0.70625	-0.73125	-1.2771	-0.68333	-1.0833	-0.825	125.399	176.107	233.918	183.412	3.775	257.939	292.401	97.180	217.517	267.143	274.303	186.568	204.811	279.456	-20.229	160.437	7.4907e-05	0.00042833	0.00018093	1060.9	6.8091e-06	6.2286e-07	1161.6	219.32	2.9287e-06	5.1704e-06	282.31	80.221	62.756	18.537	3.7514e-06	26.252	0.0002617	0.00026016	7.2341e-05	1018.1	2.8307e-06	2.8147e-06	1110.8	213.99	2.7767e-06	2.74e-06	270.73	79.016	61.951	18.811	2.7087e-06	26.157	215.054	148.321	13.966	-50.548	131.877	269.601	-50.429	-43.028	232.684	124.497	-43.678	-36.276	-35.735	-28.710	121.340	-30.219	-8191	255	
695.836	1	1	0	0	0.084079	0.069411	0.16542	0.2729	0.057396	0.10111	0.52475	0.15805	0.23352	0.052732	0.11931	0.076273	0.030085	0.12598	0.12664	0.12552	0.11042	-0.96042	-0.73333	-0.66875	-1.4729	-0.5875	-1.1625	-1.0396	-0.41875	-1.2062	-0.79375	-0.61042	-1.1667	-0.64167	-1.0063	-1.325	276.618	138.127	-43.868	249.775	148.287	-14.391	271.272	286.254	124.658	90.472	33.136	213.616	83.600	-32.913	110.766	0.053	0.00012405	0.00010701	0.00015331	1063.9	2.6273e-06	4.1779e-06	1159.5	220	3.1702e-06	3.058e-06	282.34	80.2	62.946	18.536	2.7134e-06	26.358	0.00024645	0.00024546	6.8703e-05	1016.3	2.7193e-06	2.763e-06	1109.4	214.36	2.7938e-06	2.8164e-06	271.56	79.116	62.316	18.885	2.8547e-06	26.282	4.728	252.400	297.031	-50.444	151.887	87.847	-50.240	-42.919	-8.054	83.588	-43.124	-36.439	-36.117	-29.205	235.815	-29.935	-8191	255	
695.907	1	1	0	0	0.20576	0.26891	0.10448	0.28239	0.079494	0.24416	0.084741	0.15877	0.14352	0.16464	0.091323	0.13268	0.12118	0.35156	0.3715	0.41526	-0.19375	-0.99583	-0.65625	-0.25625	-1.1313	-0.48542	-0.96042	-1.0708	-0.53542	-1.1729	-0.94583	-0.48958	-1.4792	-0.77292	-0.69167	-1.1354	191.051	182.828	170.119	-56.607	122.707	-1.266	260.095	289.708	218.018	198.310	79.777	36.988	75.177	267.297	-10.150	295.368	0.00041676	0.00030467	0.00015012	1058.3	5.9927e-06	2.4122e-06	1158.5	218.74	1.662e-06	2.5428e-06	280.48	79.989	62.438	18.466	4.4853e-06	25.951	0.00025714	0.00025881	7.2499e-05	1014.8	2.8791e-06	2.9026e-06	1111.2	214.87	2.9746e-06	3.0052e-06	271.86	79.475	62.663	19.056	3.0935e-06	26.487	271.508	54.758	80.780	-50.617	214.230	256.272	-50.303	-43.009	127.400	92.102	-43.616	-35.869	-35.499	-29.056	61.637	-30.070	-8191	255	
696.004	1	1	0	0	0.17601	0.15254	0.10791	0.10701	0.1556	0.13814	0.25631	0.19405	0.16161	0.46692	0.46803	0.1435	0.14842	0.090197	0.14038	0.050283	0.13333	-0.99583	-0.97708	-0.66042	-1.3958	-0.55625	-0.68958	-1.1604	-0.73125	-1.0063	-0.91042	-0.38958	-1.3312	-0.83958	-0.66042	-1.1875	53.399	133.868	197.874	19.823	2.608	169.131	244.954	240.688	84.613	50.062	179.434	258.162	-43.273	174.287	135.627	-2.157	0.00026939	0.00027251	0.00011246	1059.6	4.2298e-06	3.2431e-06	1159.6	219.56	3.1057e-06	3.7975e-06	282.44	80.727	63.36	18.297	8.3344e-06	26.173	0.00027866	0.00028216	7.9463e-05	1024	3.1726e-06	3.208e-06	1113.9	216.04	3.2683e-06	3.289e-06	275.38	80.812	64.333	19.412	3.4478e-06	26.901	270.953	-2.115	188.085	-50.801	41.494	188.117	-50.363	-43.083	19.214	101.755	-43.797	-36.092	-35.876	-29.243	244.012	-29.243	-8191	255	
696.124	1	1	0	0	0.21758	0.13645	0.17573	0.3699	0.19388	0.1629	0.28093	0.17842	0.19165	0.21898	0.24182	0.12946	0.26923	0.21657	0.2047	0.091285	0.12917	-0.88542	-1.3458	-0.51667	-0.93542	-0.68333	-0.80833	-1.3125	-0.50417	-0.77917	-1.1187	-0.42708	-0.98542	-0.60208	-0.46875	-1.4208	4.992	272.317	10.897	287.869	31.166	89.988	218.255	293.084	73.839	21.800	212.296	238.946	14.676	229.905	225.638	118.912	0.00017012	0.00048236	0.00011235	1065	7.9047e-06	2.3806e-06	1162.5	218.88	1.3853e-06	6.4724e-06	281.12	80.407	63.19	18.543	6.5373e-06	26.039	0.00031645	0.00031945	8.8673e-05	1029.1	3.5062e-06	3.4579e-06	1121	217.89	3.4429e-06	3.4084e-06	275.54	80.91	64.185	19.35	3.3768e-06	26.847	-53.742	-26.451	2.819	-50.804	18.287	168.053	-50.541	-43.271	228.513	152.170	-43.314	-36.347	-35.722	-29.602	92.864	-29.858	-8191	255	
696.220	1	1	0	0	0.19187	0.134	0.14994	0.054044	0.075022	0.18468	0.20128	0.21468	0.14013	0.11727	0.10033	0.24011	0.55298	0.11022	0.24039	0.10143	-0.32708	-0.78542	-1.2938	-0.52708	-0.97083	-0.83125	-0.52917	-1.2708	-0.55208	-0.82292	-1.175	-0.275	-1.0042	-1.1271	-0.45625	-1.4062	111.952	241.151	187.439	283.739	69.058	161.430	272.380	220.592	100.513	260.299	174.239	-10.523	-41.495	64.094	231.099	17.346	4.3574e-05	8.1769e-05	6.8564e-05	1061.2	3.1831e-06	2.6231e-06	1157.5	219.35	8.4512e-06	2.1185e-06	281.88	80.528	62.613	18.687	6.3344e-06	25.993	0.00030258	0.00030022	8.3201e-05	1025.2	3.2651e-06	3.236e-06	1114.9	216.25	3.1881e-06	3.1946e-06	273.68	80.071	63.223	19.227	3.1171e-06	26.559	-16.124	-58.102	19.466	-50.804	105.018	151.969	-50.165	-42.910	127.980	276.480	-43.292	-36.630	-35.699	-28.889	34.405	-30.159	-8191	255	
696.317	1	1	0	0	0.11307	0.15379	0.062259	0.23587	0.12172	0.12983	0.20366	0.059778	0.2342	0.16168	0.21959	0.19909	0.23051	0.20714	0.23436	0.25803	-0.11042	-0.5	-1.3021	-0.53958	-0.87292	-1.0312	-0.52083	-1.1938	-0.74375	-0.57292	-1.3917	-0.42292	-0.9	-1.0458	-0.34583	-1.1271	101.039	26.101	-58.691	258.958	241.837	102.883	272.265	92.989	268.396	-24.895	178.433	116.114	-32.038	52.027	56.024	87.747	6.55e-05	0.00044477	6.3813e-05	1059	3.5714e-06	5.4408e-06	1157	219.58	7.2631e-07	3.4618e-07	282.57	79.801	62.477	18.514	7.6362e-06	25.952	0.00028045	0.00027801	7.7331e-05	1019.5	3.0065e-06	2.9774e-06	1110.7	215.36	2.9708e-06	2.9557e-06	272.12	79.254	62.311	18.913	2.8966e-06	26.287	208.128	259.308	196.617	-50.439	131.943	91.439	-50.212	-42.858	266.021	36.966	-43.452	-36.102	-35.491	-29.121	126.121	-29.624	-8191	255	
696.413	1	1	0	0	0.35932	0.11959	0.18358	0.062994	0.13944	0.165	0.2542	0.072273	0.24392	0.44586	0.097458	0.097668	0.17082	0.082106	0.060202	0.13866	-0.525	-0.50208	-1.2333	-0.45208	-0.77292	-1.0438	-0.5625	-1.1063	-0.7875	-0.4625	-1.2875	-0.43958	-0.47083	-1.1646	-0.21875	-1.0333	74.376	38.876	5.464	-17.515	136.062	270.597	250.383	289.835	-41.775	281.476	287.185	281.334	-32.759	115.104	-51.462	160.297	0.00016655	9.0305e-05	5.7122e-05	1053.6	2.1273e-06	3.0396e-06	1149.7	219.57	1.8917e-06	6.7207e-06	282.56	80.195	62.792	18.484	6.0819e-06	25.907	0.00026088	0.00026021	7.1995e-05	1011.1	2.7804e-06	2.7373e-06	1100.9	213.49	2.7008e-06	2.7185e-06	269.31	78.524	61.782	18.76	2.7348e-06	25.983	195.256	173.604	258.716	-50.650	240.879	12.238	-50.710	-43.062	190.216	13.995	-43.128	-36.500	-36.195	-29.159	107.204	-29.787	-8191	255	
696.509	1	1	0	0	0.13971	0.077566	0.20207	0.060677	0.27899	0.21783	0.31542	0.2726	0.060166	0.070187	0.29087	0.20969	0.16869	0.31159	0.076902	0.072993	-0.59375	-0.4125	-1.4021	-0.97708	-0.51458	-1.1313	-0.475	-1.1042	-0.90208	-0.16667	-1.1187	-0.66875	-0.50417	-1.1479	-0.50625	-1.0917	195.303	237.246	97.897	57.489	-46.636	17.656	256.231	283.779	175.494	58.978	186.799	151.222	257.642	-51.499	-32.779	279.675	0.00014073	0.00036316	3.685e-05	1049.8	4.6245e-06	5.2495e-06	1145.7	218.46	3.5248e-06	5.0439e-06	277.72	79.693	62.937	18.459	2.7521e-06	25.836	0.00024949	0.00024944	6.9266e-05	1005.9	2.7544e-06	2.7328e-06	1097.3	212.75	2.7314e-06	2.7264e-06	267.95	78.299	61.692	18.698	2.6856e-06	25.898	182.300	-9.675	11.598	-50.624	206.105	166.371	-50.347	-42.895	149.243	121.924	-43.249	-36.085	-36.061	-29.406	285.206	-29.916	-8191	255	
696.605	1	1	0	0	0.28928	0.043613	0.063974	0.063561	0.15294	0.092856	0.4001	0.27282	0.13333	0.18245	0.14271	0.11131	0.16447	0.07922	0.20056	0.14219	-0.63333	-0.095833	-1.2771	-0.83333	-0.49167	-1.1896	-0.72708	-1.075	-1.0688	-0.34167	-1.0312	-0.77083	-0.59583	-1.2396	-0.5125	-0.72292	173.957	280.099	-18.363	-50.963	-36.945	212.204	267.422	222.064	190.353	37.593	151.722	90.692	36.963	-18.238	127.127	110.893	3.8475e-05	0.00043889	0.0001424	1046.1	3.3049e-06	5.4433e-06	1138.3	216.94	3.6735e-06	2.3052e-06	279.49	79.8	62.22	18.554	1.0445e-06	25.883	0.00024524	0.00024512	6.796e-05	1002	2.6955e-06	2.6922e-06	1091.8	212	2.7163e-06	2.7216e-06	267.39	78.294	61.517	18.71	2.7133e-06	25.893	228.506	27.982	77.220	-50.763	73.169	91.353	-50.500	-42.871	268.721	199.374	-43.465	-36.863	-35.960	-28.927	65.323	-29.789	-8191	255	
696.701	1	1	0	0	0.17667	0.30935	0.34779	0.12126	0.27223	0.11198	0.1945	0.19944	0.049147	0.13326	0.090497	0.044923	0.014042	0.17671	0.18284	0.041831	-0.80833	-0.4625	-1.1896	-1.0521	-0.55	-1.2833	-0.60208	-0.725	-1.2062	-0.26042	-1.2188	-1.0438	-0.53542	-1.2896	-0.74583	-0.62292	135.622	223.523	30.184	238.632	-51.382	-8.808	226.386	291.431	72.255	-41.035	193.165	288.152	210.128	-58.287	220.664	258.443	7.8363e-05	0.00029084	8.6141e-05	1043.3	7.0398e-06	3.6611e-06	1136.9	217.94	4.5472e-06	7.9011e-07	277.43	79.177	62.117	18.29	3.944e-06	25.962	0.0002446	0.00024357	6.7596e-05	999.58	2.6489e-06	2.6349e-06	1090.3	211.81	2.6208e-06	2.6141e-06	266.07	77.618	61.144	18.536	2.6376e-06	25.862	42.621	-37.010	218.963	-50.718	146.660	56.883	-50.570	-42.864	58.266	57.188	-43.390	-35.938	-36.004	-28.941	64.647	-29.474	-8191	255	
696.820	1	1	0	0	0.16839	0.103	0.10822	0.21742	0.27688	0.080605	0.13897	0.079931	0.078929	0.14196	0.20968	0.17118	0.093942	0.22519	0.26564	0.062834	-0.76042	-0.26875	-0.87292	-1.0458	-0.3125	-1.0521	-0.80417	-0.57292	-1.0187	-0.46042	-1.1437	-1.3083	-0.2875	-1.0042	-0.61875	-0.34583	132.461	296.317	163.749	-9.320	88.015	114.810	279.724	46.064	229.636	269.411	246.295	-10.746	290.627	145.127	-37.975	92.660	0.00016726	0.00033272	0.00011014	1047.2	6.2227e-07	1.3467e-06	1138.2	216.52	4.7639e-06	3.6912e-06	279.11	79.596	61.918	18.477	9.5978e-06	25.699	0.00023821	0.00023955	6.6823e-05	999.97	2.64e-06	2.6552e-06	1089.3	211.56	2.6268e-06	2.6379e-06	266.13	77.893	60.946	18.539	2.6329e-06	25.735	217.656	219.960	293.735	-50.697	209.985	95.960	-50.565	-42.929	99.278	67.438	-43.214	-36.726	-35.487	-28.771	6.105	-29.440	-8191	255	
696.916	1	1	0	0	0.15784	0.1187	0.17758	0.19919	0.11762	0.16294	0.3032	0.28962	0.18384	0.11072	0.16787	0.18642	0.15113	0.038988	0.11237	0.25188	-0.60417	-0.43958	-0.80833	-1.3083	-0.42708	-1.275	-1.1583	-0.37292	-0.97917	-0.61667	-0.85417	-1.35	-0.59167	-1.25	-1.05	-0.47292	7.927	227.986	93.317	182.318	49.296	97.287	280.327	212.867	227.099	23.128	232.699	284.623	191.482	117.089	290.238	-46.182	0.00010215	0.0001999	0.00011708	1044.3	4.4932e-06	4.975e-06	1137	216.66	7.3193e-07	8.6405e-06	278.35	79.606	62.306	18.383	3.4565e-06	25.922	0.00024083	0.00024199	6.7199e-05	997.53	2.6929e-06	2.6913e-06	1088.1	211.6	2.6748e-06	2.6877e-06	266.63	77.858	61.248	18.586	2.6737e-06	25.784	185.209	54.017	160.686	-50.493	181.948	81.472	-50.576	-42.672	111.265	18.651	-43.270	-36.283	-35.484	-28.895	-42.723	-29.701	-8191	255	
697.012	1	1	0	0	0.10113	0.094189	0.095012	0.2548	0.16388	0.17628	0.15934	0.32119	0.07553	0.22511	0.33095	0.19027	0.16881	0.078096	0.11099	0.10773	-0.8375	-0.62083	-0.4875	-1.2771	-0.40833	-1.15	-1.1042	-0.29375	-1.1125	-0.56042	-0.79583	-1.2542	-0.46042	-0.98958	-0.99792	-0.36458	107.328	-26.624	-17.366	214.450	181.561	-30.175	249.416	-54.088	293.089	54.231	249.510	221.044	223.791	-57.636	296.043	203.425	0.00027503	5.5722e-05	0.00013728	1044.8	5.1703e-06	3.0301e-06	1139.2	217.42	7.0268e-06	6.3588e-06	277.55	79.362	62.146	18.304	4.7745e-06	25.959	0.00024274	0.00024174	6.7164e-05	997.85	2.6582e-06	2.6633e-06	1088.4	211.82	2.6971e-06	2.693e-06	266.75	78.152	61.26	18.61	2.6843e-06	25.814	259.508	100.724	294.531	-50.481	125.685	-46.018	-50.321	-42.981	87.269	80.779	-43.415	-35.949	-35.528	-29.049	-59.025	-29.311	-8191	255	
697.133	1	1	0	0	0.17978	0.12939	0.13606	0.32688	0.21789	0.19233	0.26164	0.051869	0.13364	0.17059	0.12307	0.26704	0.28167	0.051115	0.14404	0.31612	-0.76042	-0.78542	-0.62083	-1.35	-0.52083	-0.80208	-0.92292	-0.26875	-1.1	-0.53125	-0.62917	-1.3292	-0.54375	-0.89583	-1.3687	-0.48542	264.438	253.854	193.695	262.254	-60.319	284.936	257.049	282.184	259.219	179.784	-56.143	221.385	0.278	143.414	110.878	220.010	0.00035831	0.00025973	5.3407e-05	1042.7	3.7668e-06	2.6159e-06	1138.1	216.36	1.8467e-06	3.4518e-06	277.23	79.641	62.348	18.422	2.4743e-06	25.769	0.00024849	0.00024703	6.9376e-05	998.47	2.6896e-06	2.7123e-06	1088.6	211.48	2.691e-06	2.6903e-06	266.12	78.142	61.199	18.634	2.7182e-06	25.817	211.503	72.208	182.171	-50.650	86.292	284.591	-50.588	-42.648	218.755	-46.561	-43.408	-36.264	-35.637	-28.944	-37.114	-29.759	-8191	255	
697.205	1	1	0	0	0.20155	0.19139	0.19129	0.18696	0.23427	0.099141	0.20775	0.02775	0.12646	0.19036	0.27774	0.21821	0.0542	0.10484	0.20309	0.28366	-0.98542	-0.87292	-0.58125	-1.25	-0.5875	-0.90417	-1.2917	-0.50417	-1.1833	-0.83333	-0.5625	-1.4042	-0.64583	-0.73958	-1.2854	-0.575	165.545	98.650	112.708	-45.720	5.844	175.411	-53.846	230.848	243.615	178.627	-15.203	237.924	253.620	197.763	-56.544	280.562	0.00022155	0.00041071	0.00017146	1043.2	3.0117e-06	5.1515e-06	1138.9	217.11	5.7149e-07	2.0648e-06	278.02	79.65	62.44	18.248	1.1898e-06	25.785	0.00024795	0.00024622	6.8595e-05	998.75	2.7164e-06	2.7145e-06	1089.3	211.5	2.6929e-06	2.686e-06	266.16	77.851	61.25	18.535	2.6439e-06	25.73	-42.311	22.136	93.495	-50.679	85.610	49.646	-50.750	-43.074	94.626	80.473	-43.088	-36.270	-35.934	-28.991	235.221	-29.444	-8191	255	
697.301	1	1	0	0	0.11152	0.13101	0.14823	0.11115	0.21292	0.036591	0.072886	0.24612	0.2272	0.10602	0.037499	0.15768	0.061709	0.33561	0.1248	0.12416	-0.71042	-1.1667	-0.42292	-1.3146	-0.60417	-0.47917	-1.3896	-0.36667	-0.88125	-1.0667	-0.45208	-1.4896	-0.79792	-0.36458	-0.86042	-0.32917	44.397	258.993	249.776	273.112	225.016	272.448	-53.435	282.137	177.207	209.799	224.906	-39.870	106.836	234.278	119.750	192.102	6.9547e-05	0.00032096	7.7185e-05	1044.5	5.0411e-06	5.9223e-06	1140.2	216.26	2.6417e-06	2.5279e-06	277.62	79.698	61.665	18.228	4.6901e-06	25.711	0.00023989	0.00023979	6.5866e-05	997.72	2.6152e-06	2.5819e-06	1087.9	210.48	2.5644e-06	2.54e-06	265.2	77.515	60.599	18.444	2.5394e-06	25.563	290.605	6.507	288.889	-50.404	184.130	38.078	-50.427	-42.852	232.900	281.647	-43.060	-35.959	-35.952	-29.176	110.438	-29.620	-8191	255	
697.421	1	1	0	0	0.18144	0.023964	0.042001	0.22131	0.16496	0.10519	0.18621	0.10419	0.19091	0.058615	0.087763	0.064713	0.22501	0.16063	0.11743	0.28701	-0.48958	-1.0312	-0.22917	-1.1979	-0.71042	-0.52917	-1.4646	-0.56875	-0.81875	-1.1313	-0.58542	-1.2083	-0.9125	-0.525	-1.4396	-0.75417	55.849	-0.730	62.186	-54.041	215.803	-60.111	286.913	198.529	47.021	80.473	236.326	-57.885	252.936	-8.014	-25.954	-16.597	0.00017448	0.0001649	1.8937e-05	1039.3	4.4808e-06	6.1798e-07	1137	218.64	2.9657e-06	2.9504e-06	276.41	79.556	61.667	18.205	3.8123e-06	25.778	0.00023315	0.00023282	6.5059e-05	993.73	2.5351e-06	2.5274e-06	1084.9	210.86	2.4859e-06	2.4696e-06	263.99	77.332	60.45	18.378	2.5403e-06	25.566	230.944	-3.543	255.039	-50.327	254.531	218.666	-50.562	-42.818	-15.934	-30.518	-43.778	-36.331	-35.858	-28.603	12.946	-30.205	-8191	255	
697.518	1	1	0	0	0.22067	0.20135	0.17537	0.23089	0.47706	0.13153	0.37905	0.21948	0.16165	0.031816	0.13109	0.29899	0.26356	0.34946	0.053172	0.20849	-0.67083	-1.2417	-0.30208	-1.2687	-1.1229	-0.37292	-1.4396	-0.73542	-0.56875	-1.1667	-0.50417	-0.87292	-1.1542	-0.54167	-1.1667	-0.63542	205.682	-41.310	265.597	163.850	91.988	20.188	263.850	287.172	19.510	139.230	236.555	175.301	266.142	231.755	256.074	273.618	0.00012003	0.00046746	0.00012503	1040	2.1721e-06	1.4406e-06	1135	216.22	4.8764e-06	4.0022e-06	276.25	79.419	61.614	18.282	2.5093e-06	25.653	0.00022862	0.00022789	6.3689e-05	992.9	2.4743e-06	2.4658e-06	1084	209.97	2.4199e-06	2.4041e-06	263.23	76.964	60.069	18.278	2.3884e-06	25.344	-35.823	246.208	18.853	-50.661	204.623	-39.744	-50.301	-42.761	119.347	76.726	-43.380	-35.922	-35.451	-28.689	81.817	-29.740	-8191	255	
697.612	1	1	0	0	0.086569	0.31744	0.16494	0.23105	0.27361	0.37681	0.37455	0.10969	0.12464	0.33618	0.10432	0.21334	0.21709	0.18488	0.20441	0.10947	-0.18333	-1.3146	-0.51458	-1.1688	-1.1271	-0.6	-1.475	-0.92292	-0.47083	-1.5125	-0.69375	-1.1021	-1.4083	-0.56042	-1.1667	-0.82708	270.274	66.286	138.599	242.806	-25.167	161.876	297.245	60.668	-2.331	48.937	-6.042	10.482	63.468	68.667	75.515	68.853	1.1169e-05	0.00061756	0.00012078	1040.5	2.7547e-06	1.489e-06	1137.8	216.27	2.3917e-06	4.772e-06	274.54	78.723	61.445	18.193	1.3488e-06	25.746	0.00021827	0.00021541	5.9187e-05	988.55	2.3079e-06	2.28e-06	1080.1	209.07	2.2733e-06	2.251e-06	261.16	76.431	59.58	18.149	2.2764e-06	25.21	176.227	24.192	19.762	-50.405	156.420	176.416	-50.241	-42.942	251.247	32.033	-43.205	-36.053	-35.221	-28.865	82.159	-29.273	-8191	255	
697.708	1	1	0	0	0.1794	0.22968	0.22808	0.16601	0.20309	0.12215	0.58309	0.12584	0.28776	0.26985	0.25437	0.13028	0.16576	0.26842	0.14165	0.2085	-0.3125	-1.1958	-0.52708	-0.91667	-1.0312	-0.19583	-1.1646	-1.1042	-0.40625	-1.4396	-0.85	-0.79167	-1.4458	-0.41458	-1.0458	-1.1292	128.115	169.680	104.574	266.570	35.904	172.706	175.854	141.251	83.594	190.670	68.768	219.862	-21.497	248.436	283.553	129.009	0.00010093	0.00028897	0.00010675	1039	2.5034e-06	5.4919e-06	1134.4	216.29	6.5884e-06	3.4829e-07	277.57	79.011	61.597	18.246	2.153e-06	25.715	0.00020899	0.00020818	5.803e-05	985.93	2.302e-06	2.2882e-06	1076.9	208.59	2.2843e-06	2.272e-06	261.59	76.361	59.422	18.053	2.2502e-06	25.114	228.503	43.515	10.859	-50.472	123.814	158.283	-50.385	-42.781	185.335	230.680	-43.436	-36.006	-35.731	-28.638	160.617	-30.264	-8191	255	
697.804	1	1	0	0	0.10546	0.34528	0.10272	0.18957	0.26023	0.094975	0.29849	0.15997	0.054811	0.14822	0.17374	0.34349	0.21799	0.19606	0.031401	0.093138	-0.13542	-1.3937	-0.79792	-0.73958	-1.3208	-0.31458	-1.1042	-1.0979	-0.3875	-1.5854	-0.76042	-0.7	-1.0667	-0.50833	-1.0812	-1.2333	30.215	77.742	73.809	-43.959	85.111	239.416	209.918	169.904	-60.963	81.909	294.804	288.137	121.535	0.783	53.710	77.040	0.00032129	0.00062496	0.00010261	1034.6	7.1486e-06	4.2674e-06	1133.2	215.68	1.4888e-06	1.5022e-06	275.11	78.808	61.933	18.199	5.2582e-06	25.679	0.00020507	0.00020181	5.5858e-05	983.61	2.237e-06	2.1935e-06	1074.1	207.88	2.2195e-06	2.2369e-06	260.23	76.326	59.657	18.119	2.2869e-06	25.181	222.175	-16.941	10.459	-50.468	-38.178	8.948	-50.373	-43.127	47.289	36.664	-43.571	-36.063	-35.744	-29.076	154.366	-29.827	-8191	255	
697.900	1	1	0	0	0.27626	0.1736	0.084964	0.34938	0.18529	0.21468	0.24197	0.17074	0.11806	0.04981	0.16245	0.27795	0.2163	0.17994	0.2992	0.3656	-0.10208	-1.2417	-0.68542	-0.45208	-1.0812	-0.425	-0.97708	-1.2417	-0.26667	-1.1375	-0.78333	-0.50417	-1.2062	-0.56667	-0.69583	-1.1667	203.863	-15.050	273.932	283.977	-48.421	-0.219	201.226	150.471	118.708	249.606	150.063	203.010	276.648	-30.866	224.553	208.518	0.00012369	5.7345e-05	0.00012824	1038.3	7.5938e-06	3.815e-06	1126.1	215.52	3.3627e-06	1.7977e-06	273.67	79.031	61.419	18.188	5.73e-06	25.589	0.00020815	0.00020782	5.7179e-05	983.49	2.2661e-06	2.2299e-06	1073.4	207.67	2.2461e-06	2.2288e-06	260.49	76.118	59.219	18.079	2.2771e-06	25.163	236.190	260.540	-28.580	-50.665	37.377	253.280	-50.142	-43.071	67.435	40.180	-43.329	-36.564	-36.172	-28.868	126.696	-30.160	-8191	255	
697.997	1	1	0	0	0.16485	0.35369	0.11972	0.16248	0.43231	0.14954	0.28624	0.25334	0.38007	0.10267	0.048555	0.086824	0.19036	0.23944	0.12418	0.1694	0.00625	-0.84375	-0.87708	-0.17917	-1.2333	-0.60833	-0.87083	-1.4771	-0.35417	-1.0604	-0.97917	-0.36875	-1.2042	-0.65417	-0.62917	-1.3312	128.793	39.915	284.822	-52.081	288.058	162.854	270.181	102.100	-20.120	25.736	48.207	-33.610	16.526	247.089	265.585	-59.087	0.00014981	0.00027188	0.00010533	1032.5	3.9511e-06	2.5661e-06	1125.7	215.31	9.5792e-07	1.0309e-06	275.18	78.833	61.339	18.122	2.705e-06	25.683	0.00020903	0.0002078	5.8134e-05	982.23	2.3094e-06	2.2737e-06	1073.3	208.06	2.2761e-06	2.2616e-06	260.84	76.169	59.436	18.082	2.2891e-06	25.166	270.895	287.974	27.315	-50.368	209.887	121.344	-50.489	-43.185	170.092	132.099	-43.217	-36.439	-35.728	-29.155	100.508	-29.837	-8191	255	
698.093	1	1	0	0	0.1395	0.2042	0.097191	0.12388	0.069605	0.23769	0.23591	0.20485	0.094923	0.33001	0.16329	0.21616	0.10362	0.11439	0.048462	0.199	0.033333	-0.91667	-0.93333	-0.30625	-0.97292	-0.75833	-0.94375	-1.3563	-0.16042	-0.9125	-1.1542	-0.46667	-0.92292	-0.77708	-0.40208	-1.2292	45.255	79.592	178.998	184.362	73.684	234.164	231.802	267.038	259.978	267.917	242.189	-50.773	11.909	-24.207	28.163	297.312	0.00023125	0.00024392	7.4974e-05	1037.1	4.5673e-06	4.2812e-06	1127	216.25	1.5038e-06	2.209e-06	274.12	78.799	61.595	18.143	4.9321e-06	25.531	0.00020885	0.0002099	5.7999e-05	984.62	2.2655e-06	2.2431e-06	1074	208.11	2.2863e-06	2.2704e-06	261.09	76.095	59.422	18.073	2.3038e-06	25.08	230.067	275.057	269.496	-50.500	38.871	64.781	-50.548	-43.171	289.222	154.186	-43.617	-35.937	-35.731	-29.070	132.948	-29.763	-8191	255	
698.213	1	1	0	0	0.21967	0.38836	0.20511	0.092562	0.048823	0.29306	0.23774	0.12702	0.040467	0.063365	0.1857	0.29431	0.083506	0.045063	0.24014	0.13733	-0.05	-0.55417	-1.1167	-0.49167	-1.0271	-0.77708	-0.59583	-1.5187	-0.575	-0.78542	-1.1354	-0.31458	-0.96458	-0.96458	-0.38125	-1.4771	184.573	-14.308	-3.281	205.343	-13.908	147.497	204.270	287.838	223.356	289.075	253.075	-3.638	269.869	241.093	247.702	-18.275	7.1581e-05	0.00047017	2.2438e-05	1031.9	5.8683e-06	2.2837e-06	1126.9	214.72	3.3843e-06	5.861e-06	276.86	78.526	61.575	18.188	3.6929e-06	25.627	0.00020972	0.00020765	5.7946e-05	981.71	2.2825e-06	2.2594e-06	1071.3	207.47	2.2427e-06	2.2477e-06	260	75.975	59.338	18.076	2.2285e-06	25.067	271.424	58.800	247.144	-50.342	230.673	209.686	-50.337	-42.887	85.506	145.646	-43.612	-36.486	-35.429	-28.743	58.809	-29.453	-8191	255	
698.309	1	1	0	0	0.12008	0.26712	0.14011	0.10992	0.1881	0.20142	0.13547	0.12856	0.11274	0.16983	0.06397	0.14709	0.097811	0.12147	0.0086855	0.25776	-0.46667	-0.64375	-1.4354	-0.55625	-1.0187	-0.90833	-0.57083	-1.4	-0.54583	-0.62292	-1.1562	-0.28542	-0.7875	-0.88958	-0.51667	-1.2271	270.722	-29.493	-56.314	-58.892	29.211	285.819	219.114	262.728	200.490	101.295	140.324	28.149	165.310	116.449	183.538	166.379	0.00015971	0.00051272	0.00011416	1030.9	7.9594e-07	2.0164e-06	1125.8	215.74	4.6038e-06	1.501e-06	275.5	78.515	61.735	18.145	3.3785e-06	25.326	0.00020334	0.0002005	5.5457e-05	979.03	2.1887e-06	2.1433e-06	1069.3	207.13	2.1508e-06	2.1462e-06	259.27	75.579	58.941	17.961	2.123e-06	24.827	213.840	27.393	266.707	-50.703	-36.166	126.760	-50.462	-43.244	-12.012	157.852	-43.598	-36.373	-35.974	-29.464	104.824	-29.826	-8191	255	
698.406	1	1	0	0	0.38161	0.074612	0.34003	0.12458	0.33425	0.21403	0.2278	0.019247	0.14715	0.20259	0.083589	0.081835	0.045038	0.074288	0.2374	0.23439	-0.36458	-0.62708	-1.1542	-0.42708	-0.92708	-1.2125	-0.62708	-1.2854	-0.66667	-0.41875	-1.1896	-0.33333	-0.78333	-1.2979	-0.35625	-1.2208	229.390	138.325	206.005	-60.540	143.018	34.983	200.055	250.471	217.987	-50.486	148.332	186.178	130.040	-28.883	289.866	215.471	4.793e-05	0.00062213	0.00013826	1031.9	4.0003e-06	5.2574e-06	1120	215.49	2.4899e-06	3.0078e-06	274.72	79.007	62.125	18.039	3.2129e-06	25.478	0.00019299	0.00019133	5.3141e-05	974.82	2.105e-06	2.0928e-06	1066.6	206.66	2.0823e-06	2.0924e-06	258.2	75.516	58.87	17.898	2.1054e-06	24.864	60.916	28.488	119.009	-50.673	228.466	142.210	-50.786	-43.066	52.890	16.620	-43.257	-36.397	-36.016	-28.797	81.731	-29.767	-8191	255	
698.502	1	1	0	0	0.16637	0.17863	0.075707	0.21007	0.25679	0.33321	0.25085	0.067415	0.025109	0.21048	0.36769	0.15631	0.14847	0.23502	0.02601	0.076243	-0.6125	-0.36042	-1.2062	-0.63542	-0.54167	-0.96458	-0.425	-1.2	-0.75417	-0.36458	-1.2729	-0.6875	-0.67292	-1.3729	-0.52917	-1.05	155.283	87.411	78.765	290.741	0.914	112.421	264.700	274.883	134.457	254.663	266.282	-10.185	-56.891	66.051	71.201	266.221	0.00015234	0.0003485	4.797e-05	1031.8	3.0555e-06	3.1604e-06	1124.6	214.46	4.8109e-06	3.6501e-06	275.41	78.785	61.436	18.139	4.7467e-06	25.455	0.00019319	0.00019162	5.338e-05	976.57	2.099e-06	2.069e-06	1066.4	206.48	2.0468e-06	2.0367e-06	258.06	75.251	58.464	17.82	1.9135e-06	24.598	271.764	-31.750	-58.277	-50.857	107.771	85.913	-50.490	-43.072	44.302	161.132	-43.323	-36.594	-35.552	-29.670	15.023	-29.048	-8191	255	
698.598	1	1	0	0	0.34642	0.2397	0.074538	0.25751	0.054399	0.32863	0.16897	0.089811	0.19403	0.10065	0.15417	0.043514	0.076572	0.38045	0.23358	0.095473	-0.53125	-0.41458	-1.1771	-0.69583	-0.70417	-0.97292	-0.31458	-0.8625	-0.93125	-0.27917	-0.94167	-0.57083	-0.53958	-1.1688	-0.45	-0.6375	64.892	99.751	211.642	-58.074	151.708	199.891	258.438	271.856	190.009	220.283	280.176	-52.539	235.012	-21.381	137.755	195.818	6.5588e-05	0.00061968	2.6227e-05	1028.6	6.2484e-07	3.4235e-06	1116	213.62	1.7695e-06	3.0232e-06	273.37	77.915	60.877	18.168	4.4525e-06	25.415	0.00016845	0.00016602	4.5918e-05	969.27	1.7606e-06	1.7157e-06	1055.7	203.9	1.6674e-06	1.645e-06	253.79	73.737	56.837	17.437	1.546e-06	24.155	265.504	-11.671	-24.858	-50.751	203.027	-8.477	-50.557	-42.819	222.258	-31.138	-43.510	-36.025	-35.835	-29.263	-10.178	-29.869	-8191	255	
698.694	1	1	0	0	0.14139	0.072507	0.1764	0.21917	0.29769	0.35088	0.5546	0.077248	0.025088	0.171	0.16382	0.061675	0.19394	0.11615	0.16241	0.10659	-0.53958	-0.40625	-1.1042	-0.88958	-0.43958	-1.325	-0.73125	-0.69792	-1.0229	-0.25625	-1.1167	-0.64375	-0.41458	-1.1729	-0.45208	-0.575	177.251	287.996	262.526	288.859	-54.762	5.494	280.338	-48.835	19.132	160.226	-17.084	220.232	22.356	255.835	203.165	253.997	6.3532e-05	0.00019582	9.6134e-05	1023.4	5.2048e-06	4.2596e-06	1113.4	213.81	1.6108e-06	4.3095e-06	271.73	77.917	60.643	17.911	2.4908e-06	25.56	0.00013953	0.00013757	3.7985e-05	957.83	1.5081e-06	1.4841e-06	1047.5	201.94	1.5127e-06	1.5054e-06	251.65	73.373	56.432	17.324	1.5343e-06	24.061	37.837	120.603	266.628	-50.574	-26.683	47.429	-50.442	-42.712	245.876	88.344	-43.266	-36.383	-36.259	-28.896	175.650	-29.878	-8191	255	
698.813	1	1	0	0	0.092281	0.028314	0.16616	0.30974	0.17788	0.09134	0.27105	0.32904	0.097485	0.077598	0.22105	0.23872	0.26109	0.10317	0.19171	0.27811	-0.86458	-0.091667	-0.925	-0.91042	-0.35625	-1.2479	-0.71458	-0.65	-1.2042	-0.44167	-1.0083	-0.75833	-0.077083	-1.1167	-0.61458	-0.59167	67.590	244.065	243.712	219.899	41.283	97.962	258.139	182.389	119.043	247.808	-35.607	-21.343	-57.838	212.113	200.477	239.338	0.00027266	0.0002825	0.00012497	1016.8	1.1239e-06	1.8098e-06	1108.2	213.27	3.8736e-06	2.3549e-06	273.22	78.056	60.382	18.013	3.6804e-06	25.477	0.00014195	0.00014137	3.9511e-05	955.12	1.5762e-06	1.5891e-06	1045.9	202.17	1.61e-06	1.6138e-06	252.28	73.465	56.652	17.368	1.6421e-06	24.17	261.616	180.515	50.864	-50.591	74.569	-59.388	-50.328	-42.509	132.262	-1.273	-43.242	-36.417	-35.700	-29.220	-26.592	-29.865	-8191	255	
698.909	1	1	0	0	0.30219	0.098691	0.17423	0.22915	0.058461	0.043503	0.23506	0.17979	0.20338	0.13661	0.32985	0.22039	0.14097	0.18233	0.18572	0.30708	-0.95208	-0.29792	-0.85	-1.1042	-0.36667	-1.3417	-0.89375	-0.63125	-1.1125	-0.35	-0.84167	-0.92917	-0.45	-1.0312	-0.51667	-0.39792	11.225	143.136	248.955	-22.212	212.605	74.361	-27.224	230.328	187.421	175.047	-1.125	187.816	240.783	234.964	169.659	68.147	0.00015954	0.00023146	0.0001076	1014.5	1.3086e-06	2.5898e-06	1109.9	211.8	1.5597e-06	2.8171e-06	272.44	78.045	61.013	17.902	4.3011e-06	25.168	0.00015013	0.00014841	4.1712e-05	954.84	1.6364e-06	1.6034e-06	1047	201.98	1.6195e-06	1.6256e-06	252.92	73.501	56.771	17.335	1.6391e-06	24.105	244.774	11.518	33.552	-50.582	127.899	67.796	-50.506	-42.683	67.886	69.440	-43.444	-36.879	-35.910	-28.917	29.352	-29.464	-8191	255	
699.005	1	1	0	0	0.29593	0.2305	0.22847	0.090967	0.048393	0.0466	0.025832	0.11506	0.22155	0.088203	0.20463	0.13494	0.21803	0.087964	0.24364	0.17983	-0.69167	-0.63125	-0.775	-1.4396	-0.40208	-1.2479	-1.1125	-0.47917	-1.1333	-0.50625	-0.74167	-1.0729	-0.35417	-0.98333	-0.74167	-0.12708	278.080	268.564	225.951	237.677	232.666	10.622	170.451	175.918	219.509	261.439	273.396	256.652	89.158	252.050	203.858	214.410	0.00020644	0.00013165	0.00014421	1014.2	1.4264e-06	2.1796e-06	1109.7	211.94	2.5122e-06	2.3215e-06	271.07	77.186	60.646	17.839	3.3967e-06	25.263	0.00014925	0.00014986	4.1381e-05	955.46	1.6628e-06	1.6489e-06	1047	202.12	1.674e-06	1.6716e-06	252.44	73.576	56.885	17.344	1.6874e-06	24.188	-40.975	89.079	-35.677	-50.661	237.631	181.168	-50.565	-42.820	198.179	32.073	-43.188	-36.578	-36.159	-28.519	195.360	-29.568	-8191	255	
699.101	1	1	0	0	0.20583	0.16647	0.087052	0.095822	0.20557	0.15188	0.072228	0.27239	0.19285	0.078738	0.18474	0.34192	0.16424	0.13509	0.031055	0.18333	-0.76667	-0.45833	-0.71458	-1.3604	-0.31458	-0.97083	-1.1479	-0.425	-1.2271	-0.82708	-0.47917	-1.2729	-0.375	-0.97708	-1.2	-0.23333	261.735	291.943	54.114	-5.133	201.353	289.152	226.924	275.991	247.126	247.565	-36.106	265.099	239.444	-49.066	196.851	110.229	6.8912e-05	0.00025454	7.8283e-05	1015.6	1.5184e-06	1.4831e-06	1107.4	212.25	2.6019e-06	2.5152e-06	271.29	77.455	60.825	17.94	3.3116e-06	25.381	0.00015756	0.00015684	4.3749e-05	956.89	1.7431e-06	1.7304e-06	1048	202.8	1.7589e-06	1.7609e-06	253.12	73.767	57.031	17.468	1.7933e-06	24.35	91.049	135.344	218.693	-50.589	228.172	236.418	-50.374	-42.795	-54.707	85.479	-43.158	-36.163	-36.015	-28.794	50.825	-29.547	-8191	255	
699.198	1	1	0	0	0.082218	0.10383	0.023642	0.064454	0.10541	0.21991	0.222	0.11342	0.31824	0.25949	0.21339	0.19319	0.2761	0.19177	0.17977	0.061607	-0.78125	-0.74583	-0.3375	-1.4562	-0.40208	-0.87292	-1.4604	-0.57917	-1.3417	-0.9625	-0.64583	-1.2812	-0.6375	-0.97083	-1.2042	-0.45625	266.746	285.288	-57.796	221.739	175.810	62.857	230.655	246.473	288.096	-42.387	220.483	229.291	-26.751	35.860	68.141	-12.554	9.0637e-06	0.00089109	4.9152e-05	1013.5	5.0724e-06	2.7141e-06	1105.3	212.47	2.5902e-06	3.0555e-06	271.07	76.921	60.996	17.983	8.7262e-07	25.438	0.0001645	0.00016525	4.5683e-05	958.51	1.7898e-06	1.7821e-06	1046.9	202.87	1.7829e-06	1.7886e-06	253.36	73.783	57.243	17.526	1.8311e-06	24.297	236.271	-37.486	244.188	-50.577	133.960	288.202	-50.299	-42.798	111.083	128.487	-43.230	-36.356	-35.947	-29.205	34.795	-29.439	-8191	255	
699.294	1	1	0	0	0.14342	0.12669	0.2678	0.10384	0.17044	0.3309	0.5734	0.16087	0.082243	0.21345	0.060707	0.22119	0.15702	0.36996	0.098129	0.12798	-0.88333	-0.85833	-0.37083	-1.4292	-0.8125	-0.9625	-1.5021	-0.53333	-1.0333	-1.0146	-0.4125	-1.3333	-0.625	-0.64167	-1.4375	-0.59375	50.347	175.091	52.382	228.240	72.403	83.292	253.327	186.119	188.814	234.960	-54.008	0.421	163.345	297.558	222.003	129.159	0.00020484	0.00032634	4.2433e-05	1015.8	3.5913e-06	4.8161e-07	1114	212.45	2.6644e-06	1.4217e-06	271.18	77.625	60.973	17.96	3.7499e-06	25.221	0.00016583	0.00016563	4.6534e-05	958.84	1.855e-06	1.8401e-06	1051	202.85	1.8262e-06	1.8214e-06	253.32	74.167	57.449	17.532	1.8639e-06	24.316	250.578	253.564	87.672	-50.534	99.112	202.945	-50.396	-43.018	18.064	-17.640	-43.384	-36.283	-35.870	-28.635	-44.666	-29.287	-8191	255	
699.390	1	1	0	0	0.29388	0.043657	0.23251	0.20031	0.11792	0.083122	0.14149	0.28995	0.097329	0.17822	0.081366	0.015149	0.33437	0.4033	0.058371	0.21217	-0.79167	-0.97917	-0.40625	-1.4062	-0.70625	-0.61875	-1.5667	-0.79375	-0.75625	-1.1313	-0.24167	-1.0688	-0.5125	-0.25833	-1.1375	-0.42083	269.555	63.023	252.764	-54.842	67.528	-41.819	245.876	249.884	91.560	271.354	245.627	38.253	239.202	-0.739	-56.306	241.670	0.0002546	0.00010196	2.9851e-05	1014.4	4.4006e-06	3.8011e-06	1109	212.02	4.3576e-06	2.8215e-06	271.58	77.454	60.328	17.873	1.6479e-06	25.235	0.0001742	0.00017303	4.8945e-05	958.63	1.9751e-06	1.9681e-06	1049.6	203.48	2.0025e-06	2.0386e-06	255.32	74.651	57.895	17.703	2.1261e-06	24.597	272.228	11.905	170.100	-50.268	159.715	109.644	-50.480	-42.663	196.570	39.887	-43.699	-36.299	-35.860	-28.987	-28.183	-29.905	-8191	255	
699.486	1	1	0	0	0.17726	0.16116	0.18729	0.12581	0.2232	0.073363	0.17378	0.26407	0.073331	0.19268	0.12915	0.13426	0.098156	0.18025	0.13382	0.20336	-0.22917	-1.0812	-0.25208	-1.475	-0.83958	-0.57292	-1.5104	-0.55417	-0.625	-1.1292	-0.59792	-0.87292	-0.92708	-0.4875	-1.1417	-0.59167	137.000	-47.992	294.529	25.407	269.276	31.416	287.852	189.687	232.558	289.563	-22.107	170.695	87.928	184.733	-31.697	-23.235	6.9226e-05	0.00028363	4.5939e-05	1018.3	4.8717e-06	9.2857e-06	1116.1	211.37	1.234e-06	1.0487e-06	270.62	78.244	60.714	17.94	1.5941e-06	25.406	0.00019742	0.00019648	5.6156e-05	966.46	2.2289e-06	2.2541e-06	1057.3	205.18	2.3069e-06	2.3346e-06	257.19	75.626	58.845	17.889	2.3426e-06	24.889	276.103	37.864	-20.306	-50.393	50.417	90.732	-50.186	-42.668	227.570	0.865	-43.078	-36.343	-35.496	-28.607	11.624	-29.475	-8191	255	
699.605	1	1	0	0	0.10737	0.31188	0.20476	0.0095834	0.090792	0.19877	0.10619	0.16443	0.25839	0.13011	0.077138	0.072598	0.13202	0.21087	0.042495	0.19031	-0.17708	-1.1479	-0.21875	-1.1042	-0.71875	-0.13542	-1.3896	-0.50625	-0.50625	-1.0938	-0.27708	-1.1042	-1.0875	-0.57917	-1.1208	-0.9875	18.033	66.531	266.755	206.816	55.012	284.984	131.170	221.418	121.972	144.510	48.983	107.647	-24.240	202.819	182.063	117.220	4.6198e-05	0.00013713	0.00013129	1011.1	2.9102e-06	1.7429e-06	1109.2	212.1	5.4728e-06	4.2165e-06	270.44	78.037	60.857	17.896	3.3375e-06	25.409	0.00021286	0.00021277	5.9036e-05	966.13	2.3011e-06	2.3064e-06	1055.3	205.07	2.2663e-06	2.2261e-06	255.98	74.944	58.335	17.714	2.1314e-06	24.696	-52.377	230.663	243.954	-50.618	184.704	157.729	-50.355	-42.779	100.649	82.001	-43.308	-36.466	-35.493	-28.988	111.455	-29.356	-8191	255	
699.678	1	1	0	0	0.045434	0.12743	0.24734	0.26127	0.10008	0.18474	0.060659	0.05777	0.26968	0.21535	0.11541	0.089352	0.087196	0.30651	0.18204	0.092496	-0.28333	-1.275	-0.42708	-0.95833	-0.85208	-0.2875	-1.1938	-0.75208	-0.49167	-1.275	-0.62292	-0.65	-1.2646	-0.44375	-1.1812	-0.84792	281.014	137.028	201.384	-46.546	175.145	-18.044	237.518	-46.844	194.227	150.575	226.216	111.315	253.345	242.768	71.880	-45.764	0.00011027	0.00028161	0.00013701	1010.6	2.0439e-06	3.7101e-06	1109.9	212.72	4.0608e-06	1.2139e-06	271.51	78.114	60.471	18.13	2.3423e-06	25.437	0.00019018	0.00018495	5.0798e-05	959.99	1.9675e-06	1.9535e-06	1050.1	203.43	1.8897e-06	1.866e-06	253.73	74.161	57.374	17.562	1.8372e-06	24.331	-54.322	-32.240	4.814	-50.454	251.467	10.566	-50.122	-42.675	60.691	28.135	-43.141	-36.065	-35.654	-29.262	121.140	-29.845	-8191	255	
699.774	1	1	0	0	0.095939	0.028409	0.3807	0.20518	0.34085	0.21039	0.11809	0.41898	0.05676	0.17051	0.05732	0.26725	0.35419	0.2955	0.062153	0.17717	-0.14583	-1.1688	-0.45625	-0.49792	-1.0771	-0.175	-1.0583	-0.97708	-0.33958	-1.2667	-0.57083	-0.71667	-1.1375	-0.56458	-1.1729	-1.1208	163.623	191.130	245.505	188.911	172.804	-8.200	4.830	-36.626	108.975	94.993	-27.660	5.207	44.097	285.834	248.729	13.093	0.00020114	0.00016944	6.533e-05	1012.4	2.4027e-06	1.3185e-06	1102.7	212.31	3.8146e-06	1.8169e-06	269.89	77.484	60.535	17.974	1.5784e-06	25.35	0.00016725	0.00016545	4.6088e-05	957.46	1.8199e-06	1.8315e-06	1047.5	203.53	1.908e-06	1.9146e-06	254.15	74.334	57.563	17.663	2.0457e-06	24.615	254.015	-7.602	260.678	-50.302	77.098	23.349	-50.253	-42.848	-35.885	195.699	-43.498	-35.902	-35.511	-29.092	66.754	-29.624	-8191	255	
699.893	1	1	0	0	0.17835	0.29395	0.13142	0.094717	0.17349	0.10382	0.054348	0.16911	0.13683	0.24069	0.12908	0.13357	0.12648	0.20097	0.1862	0.2436	-0.20208	-1.3854	-0.6875	-0.51458	-1.1708	-0.53958	-1.3167	-1.1958	-0.23958	-1.2083	-0.67708	-0.46042	-1.1437	-0.37917	-0.725	-1.1271	94.502	267.438	90.498	-59.122	41.015	169.728	37.544	263.286	-59.450	115.367	45.812	8.179	138.048	167.329	282.603	267.156	8.2953e-05	0.00040857	0.00013839	1018.3	1.1456e-06	2.9586e-06	1111.3	212.02	4.3285e-06	4.6919e-06	270.43	77.172	60.764	18.151	2.716e-06	25.395	0.00018946	0.0001901	5.2979e-05	962.3	2.1067e-06	2.1409e-06	1052.9	204.66	2.1418e-06	2.1383e-06	255.5	75.009	58.207	17.768	2.1169e-06	24.629	-45.438	25.799	23.127	-50.563	100.833	141.128	-50.181	-42.872	111.938	132.343	-43.276	-36.420	-35.659	-29.325	228.677	-29.545	-8191	255	
699.989	1	1	0	0	0.15145	0.057447	0.23458	0.31307	0.22516	0.20772	0.11215	0.18308	0.22904	0.16597	0.18062	0.12336	0.17411	0.069619	0.025699	0.049354	-0.00625	-1.0667	-0.75625	-0.7375	-1.6167	-0.57292	-1.0104	-1.2292	-0.36667	-1.3438	-0.9625	-0.49792	-1.2833	-0.5375	-0.80208	-1.1542	51.300	-58.083	15.174	275.382	189.993	130.055	232.522	184.110	265.039	193.931	17.982	196.281	261.405	-44.841	189.395	-2.493	0.00010873	0.00029278	0.00011862	1012.8	9.4483e-07	1.5441e-06	1113.9	213.3	2.6982e-06	1.4347e-06	272.16	77.793	60.222	17.927	5.4006e-06	25.162	0.00019401	0.00019393	5.3707e-05	963.06	2.1613e-06	2.1577e-06	1054.6	204.82	2.2004e-06	2.2055e-06	256.56	75.079	58.506	17.869	2.291e-06	24.785	-31.644	-50.346	-26.282	-50.295	20.673	84.104	-50.419	-42.937	132.009	140.873	-43.556	-36.002	-35.603	-28.996	26.844	-29.460	-8191	255	
700.086	1	1	0	0	0.19115	0.089434	0.37275	0.24906	0.057688	0.056779	0.12349	0.06074	0.21655	0.10411	0.21056	0.15451	0.23498	0.077849	0.10492	0.085922	-0.0875	-1.0187	-0.79583	-0.54375	-1	-0.55417	-0.6625	-1.3667	-0.51875	-1.0083	-1.1437	-0.56458	-1.55	-0.75	-0.63542	-1.3563	-43.099	-19.094	5.990	290.918	-34.199	-14.970	274.993	146.960	193.620	235.702	146.683	137.433	215.450	6.297	263.190	252.235	0.00019127	0.0005959	9.9176e-05	1013.7	3.9885e-06	5.4747e-06	1114.9	212.4	1.3804e-06	8.171e-07	271.35	77.618	60.79	17.786	1.9531e-06	25.379	0.0002097	0.00021003	5.8464e-05	966.62	2.3233e-06	2.2976e-06	1056.8	205.44	2.274e-06	2.2479e-06	256.78	75.252	58.596	17.86	2.2488e-06	24.785	247.779	-20.510	76.920	-50.294	91.389	134.124	-50.138	-42.794	-33.245	53.453	-43.301	-36.297	-35.964	-29.415	298.915	-29.829	-8191	255	
700.182	1	1	0	0	0.15632	0.22783	0.17724	0.55215	0.044213	0.17617	0.35595	0.17113	0.15235	0.17515	0.19227	0.14041	0.036947	0.060684	0.20353	0.1052	-0.15417	-0.79792	-1.1208	-0.44792	-1.0896	-0.81667	-0.65625	-1.2292	-0.19792	-0.61667	-1.2083	-0.52917	-1.0625	-0.91667	-0.67708	-1.3062	279.333	129.044	245.350	266.677	186.705	67.905	244.666	200.359	156.463	198.117	52.990	192.796	158.391	21.879	7.169	-47.657	0.00028036	0.00040269	9.5068e-05	1017.9	4.8156e-06	1.3688e-06	1116.6	212.91	1.9203e-06	3.4759e-06	270.88	77.606	60.554	17.749	2.3881e-06	25.428	0.00020507	0.00020703	5.747e-05	966.8	2.289e-06	2.2823e-06	1058	205.39	2.3031e-06	2.2732e-06	256.78	75.174	58.596	17.845	2.253e-06	24.841	267.935	268.084	-54.990	-50.589	19.118	122.657	-50.178	-42.739	216.759	154.337	-43.495	-36.094	-36.017	-28.841	-45.050	-29.921	-8191	255	
700.302	1	1	0	0	0.25524	0.16947	0.09316	0.13409	0.15701	0.076535	0.47437	0.16723	0.21343	0.26147	0.18103	0.06666	0.22032	0.25385	0.1775	0.048083	-0.30417	-0.59167	-0.97708	-0.40417	-0.90208	-0.95	-0.74792	-1.3208	-0.67708	-0.67708	-1.375	-0.43958	-1.0312	-0.98125	-0.61875	-1.3667	-43.650	0.810	175.952	-29.870	8.860	191.144	234.202	34.062	129.595	51.666	64.364	94.645	298.524	144.446	50.958	216.284	0.00018366	0.00030119	7.9669e-05	1018.5	3.9625e-06	1.5483e-06	1109.8	211.57	3.0817e-06	7.1783e-07	269.99	78.031	60.424	17.888	5.6696e-06	25.222	0.00020697	0.00020499	5.712e-05	968.02	2.2638e-06	2.2582e-06	1056.2	205.27	2.1908e-06	2.1872e-06	255.98	74.924	58.232	17.765	2.1351e-06	24.597	261.108	217.855	237.944	-50.327	120.157	260.544	-50.191	-42.452	58.934	207.082	-43.336	-36.144	-35.951	-29.102	55.529	-29.677	-8191	255	
700.374	1	1	0	0	0.016527	0.19529	0.081643	0.066807	0.33579	0.33628	0.25875	0.15058	0.23177	0.31847	0.092003	0.16748	0.086419	0.12103	0.27592	0.060087	-0.29167	-0.5875	-1.2354	-0.35208	-0.96667	-1	-0.5	-1.0417	-0.67083	-0.42708	-1.1313	-0.3125	-0.77708	-0.9625	-0.40208	-1.0958	290.428	251.396	-2.185	221.826	48.101	149.937	-57.483	206.259	298.475	283.561	259.294	280.032	-21.670	190.847	-38.987	293.612	0.00024412	0.00027223	8.3482e-05	1014.3	6.0326e-06	5.1358e-06	1107.5	212.17	1.7064e-06	4.9737e-06	269.63	77.773	60.659	17.944	2.0367e-06	25.212	0.00019476	0.00019555	5.5328e-05	963.95	2.2678e-06	2.2972e-06	1055.8	206.14	2.4249e-06	2.4911e-06	258.55	76.216	59.66	18.11	2.593e-06	25.182	262.793	42.554	-45.064	-50.367	107.886	70.353	-50.192	-42.565	110.461	145.374	-43.438	-36.365	-35.482	-29.085	16.556	-29.124	-8191	255	
700.495	1	1	0	0	0.18584	0.052902	0.17363	0.23141	0.012595	0.23058	0.060383	0.15675	0.30384	0.086145	0.23666	0.12159	0.27174	0.2127	0.081117	0.23566	-0.16042	-0.25	-1.1667	-0.56875	-0.66458	-1.0833	-0.6625	-1.2896	-0.88542	-0.63542	-1.3563	-0.56042	-0.54375	-1.1396	-0.54167	-1.3042	49.562	19.115	154.859	212.294	-22.303	234.133	-27.727	299.192	141.183	47.908	206.305	-51.825	298.417	243.402	189.810	188.012	0.0002389	0.00058351	3.8456e-05	1016.6	1.6298e-06	2.7149e-06	1110.6	212.09	3.4727e-06	4.0164e-06	271.73	77.502	61.129	18.084	6.411e-06	25.332	0.00023613	0.00023779	6.5947e-05	972.41	2.5838e-06	2.5608e-06	1061.2	206.76	2.5589e-06	2.5433e-06	259.12	75.729	59.592	18.131	2.4914e-06	25.14	275.538	91.890	-27.952	-50.509	107.972	228.803	-50.342	-42.700	255.543	86.623	-43.208	-36.488	-35.134	-28.868	107.863	-29.298	-8191	255	
700.589	1	1	0	0	0.25028	0.13969	0.17691	0.16408	0.24729	0.23332	0.15984	0.032065	0.059126	0.22577	0.12178	0.2178	0.14031	0.15908	0.15037	0.18019	-0.625	-0.36042	-1.2687	-0.92917	-0.58958	-1.3375	-0.56042	-1.05	-1.075	-0.50208	-1.4167	-0.69792	-0.58125	-1.3042	-0.43125	-1.1396	66.613	3.262	40.630	177.178	247.622	100.513	237.906	-15.813	265.096	170.205	225.785	238.008	46.553	157.427	0.208	270.804	7.2193e-05	0.00029267	3.7007e-05	1014.2	4.2583e-06	2.0607e-06	1104.5	212.7	3.5504e-06	3.6746e-06	270.63	77.486	60.669	17.817	5.325e-06	25.087	0.00022512	0.00022445	6.2393e-05	968.9	2.4467e-06	2.4425e-06	1057.1	206.14	2.4492e-06	2.4412e-06	258.22	75.612	59.381	18.016	2.5188e-06	25.083	-5.663	123.436	73.618	-50.431	55.888	-15.161	-50.412	-42.609	159.217	253.359	-43.289	-36.348	-35.467	-28.916	-22.483	-29.655	-8191	255	
700.685	1	1	0	0	0.1553	0.11555	0.16228	0.068452	0.23482	0.10224	0.24626	0.097287	0.34409	0.16382	0.10651	0.058116	0.29458	0.050584	0.11273	0.030355	-0.56458	-0.47292	-1.1833	-0.83333	-0.64583	-1.2292	-0.67708	-0.77083	-1.2375	-0.42708	-1.2542	-1.0125	-0.5375	-1.3188	-0.6	-0.9625	188.901	79.655	282.578	-43.461	239.801	-10.308	288.998	234.591	51.168	35.924	291.732	30.045	136.512	204.951	43.891	177.468	0.0001787	0.00082763	8.8828e-05	1015	4.2658e-06	5.3205e-06	1106.9	212.9	3.5356e-06	2.4081e-06	270.18	77.761	60.905	17.851	6.1615e-06	25.065	0.00023604	0.0002396	6.6611e-05	972.07	2.6633e-06	2.6643e-06	1059.9	207.47	2.6304e-06	2.6241e-06	259.68	76.058	59.632	18.028	2.5199e-06	25.047	287.130	44.840	184.599	-50.333	156.401	155.274	-50.456	-42.753	126.829	60.007	-43.526	-36.143	-35.345	-29.147	182.171	-29.813	-8191	255	
700.783	1	1	0	0	0.22332	0.080794	0.1943	0.10047	0.13655	0.32299	0.35677	0.21767	0.16552	0.18701	0.14247	0.42823	0.12643	0.18982	0.077167	0.091244	-0.725	-0.30833	-1.0875	-0.96042	-0.425	-1.3021	-0.8625	-0.78542	-1.1	-0.11042	-0.9625	-0.8125	-0.3875	-1.1875	-0.33333	-0.48125	93.339	141.319	58.778	-52.922	10.889	126.576	270.769	-56.023	84.635	171.972	193.891	79.634	144.698	-25.062	137.196	89.629	0.00035387	0.00036808	0.00013261	1015.2	2.2307e-06	2.0182e-06	1109.5	213.29	2.4838e-06	6.99e-06	271.73	78.198	60.412	17.811	3.5146e-06	25.126	0.00022481	0.00022389	6.2171e-05	968.08	2.4319e-06	2.3958e-06	1057.1	206.54	2.3716e-06	2.3626e-06	257.43	75.491	58.753	17.84	2.2694e-06	24.823	-57.948	82.515	-10.761	-50.423	168.472	96.353	-50.335	-42.618	190.590	64.300	-43.590	-36.341	-35.850	-28.742	216.823	-29.877	-8191	255	
700.902	1	1	0	0	0.033249	0.22246	0.072283	0.068079	0.026628	0.045963	0.12764	0.19852	0.072188	0.16209	0.22104	0.097216	0.19013	0.12021	0.12422	0.075303	-0.80417	-0.37917	-1.05	-1.0812	-0.31042	-1.3854	-0.78125	-0.82708	-1.3521	-0.51042	-1.1125	-1.1396	-0.51042	-1.3271	-0.68542	-0.57292	50.179	-11.797	-0.492	61.622	17.091	189.177	-54.840	181.772	134.155	204.402	219.236	195.500	47.696	235.838	19.717	226.201	0.00017029	0.00054685	0.00016262	1013.2	4.0828e-06	3.8494e-06	1106.6	211.46	3.7373e-06	5.5517e-06	270.18	77.877	60.133	17.994	2.5406e-06	25.333	0.0002038	0.00020501	5.6831e-05	963.29	2.2395e-06	2.1943e-06	1052	204.59	2.1928e-06	2.1812e-06	255.58	74.789	58.093	17.707	2.1133e-06	24.584	235.996	55.421	261.209	-50.321	-5.336	44.876	-50.338	-42.714	238.174	37.846	-43.325	-36.253	-35.311	-28.771	-3.046	-29.465	-8191	255	
700.974	1	1	0	0	0.18731	0.13752	0.20266	0.13593	0.27329	0.019103	0.1255	0.21483	0.093495	0.29479	0.26651	0.15435	0.072999	0.10522	0.17924	0.093118	-0.62917	-0.35417	-0.975	-1.3021	-0.47083	-1.3521	-0.81875	-0.29792	-1.2	-0.4	-0.65625	-0.91667	-0.425	-1.2896	-0.58333	-0.46042	213.926	47.659	266.786	242.039	225.452	20.008	250.506	259.395	141.675	54.870	277.610	-49.138	170.620	238.322	160.254	171.078	0.00012426	0.00048696	0.0001048	1017.1	1.5734e-06	1.0531e-06	1101.6	212.52	3.715e-06	4.593e-06	270.34	77.68	61.282	17.827	2.5954e-06	25.254	0.00018795	0.00018817	5.2273e-05	961.86	2.0727e-06	2.0356e-06	1048.2	204.14	2.0604e-06	2.0668e-06	254.25	74.634	58.198	17.669	2.1083e-06	24.592	196.923	94.772	-53.662	-50.738	238.177	-49.838	-50.112	-42.887	157.752	52.446	-42.841	-36.214	-35.810	-28.770	115.015	-29.632	-8191	255	
701.070	1	1	0	0	0.11393	0.054454	0.16184	0.38368	0.054322	0.20883	0.51994	0.12209	0.11701	0.13799	0.31071	0.23655	0.28224	0.27004	0.11804	0.23128	-0.55417	-0.33125	-0.44583	-1.3333	-0.44375	-1.0812	-1.3167	-0.5375	-1.25	-0.57708	-0.66458	-1.2292	-0.18542	-0.83958	-0.78958	-0.47917	52.226	42.732	72.005	-4.510	57.288	5.969	276.872	220.024	171.597	83.329	0.840	251.838	132.465	252.844	118.901	225.722	0.00011118	0.00024599	4.5501e-05	1012.4	3.8531e-06	6.8606e-06	1108.1	212.73	3.014e-06	7.2803e-06	269.65	77.669	60.735	17.846	2.9284e-06	25.304	0.00019038	0.0001915	5.3298e-05	960.46	2.1002e-06	2.0981e-06	1049.8	204.57	2.124e-06	2.095e-06	254.87	74.699	58.13	17.673	2.1078e-06	24.629	245.962	179.038	250.525	-50.320	260.427	99.191	-50.045	-42.579	175.766	148.775	-43.081	-36.412	-36.024	-28.910	154.962	-29.723	-8191	255	
701.166	1	1	0	0	0.050909	0.15355	0.10066	0.30149	0.12924	0.18231	0.21733	0.031299	0.13115	0.15271	0.19871	0.12186	0.11012	0.31499	0.061392	0.060913	-0.72917	-0.54375	-0.68958	-1.2958	-0.375	-0.79583	-1.1271	-0.45	-1.125	-0.56875	-0.37708	-1.3729	-0.50833	-0.8375	-0.99375	-0.50208	195.440	17.660	-47.811	-33.427	184.715	209.166	164.888	176.933	199.184	178.345	262.300	220.128	220.136	-29.950	221.666	64.571	0.00012352	0.00031094	3.8879e-05	1011	3.0404e-06	2.5085e-06	1108.5	211.19	2.2757e-06	5.8665e-06	270.14	77.564	60.604	17.841	4.0421e-06	25.36	0.00019391	0.00019317	5.4396e-05	960.9	2.1301e-06	2.1075e-06	1047.9	204.06	2.0984e-06	2.1136e-06	254.24	74.65	58.065	17.718	2.1176e-06	24.597	214.181	115.540	33.899	-50.190	206.498	162.536	-50.098	-42.691	120.513	111.557	-43.456	-36.162	-35.496	-28.746	294.282	-29.486	-8191	255	
701.287	1	1	0	0	0.060111	0.12031	0.11034	0.19408	0.069489	0.10634	0.11615	0.094172	0.37565	0.35509	0.18707	0.058821	0.36859	0.098892	0.22416	0.031867	-0.53958	-0.74583	-0.31042	-1.0875	-0.45	-0.66875	-1.4104	-0.40833	-1.1667	-0.91458	-0.5	-1.2396	-0.7375	-0.6375	-1.2167	-0.44167	200.042	153.953	183.256	283.913	2.041	37.397	217.543	73.018	194.733	135.209	-34.741	227.240	270.361	168.214	1.269	47.995	0.00018471	0.00024327	0.00014547	1013.4	3.7025e-06	2.2447e-06	1104.9	211.82	1.7667e-06	4.3481e-06	269.65	78.01	60.65	17.93	1.4995e-06	25.086	0.00019385	0.00019534	5.448e-05	961.19	2.1493e-06	2.1233e-06	1050.9	204.2	2.1425e-06	2.1345e-06	255.11	74.672	58.298	17.749	2.1309e-06	24.644	291.345	185.415	86.051	-50.349	269.365	42.913	-50.353	-42.893	158.677	88.066	-42.936	-36.167	-35.637	-28.512	-15.440	-29.706	-8191	255	
701.383	1	1	0	0	0.22607	0.25386	0.15171	0.22597	0.1145	0.15722	0.24228	0.18304	0.091113	0.15823	0.089371	0.18049	0.30069	0.36445	0.068362	0.07058	-0.76667	-1.0396	-0.48958	-1.2771	-0.675	-0.75833	-1.4438	-0.18958	-0.8	-0.81875	-0.37292	-1.0958	-0.81667	-0.57708	-1.2729	-0.55208	-32.397	89.236	-18.583	281.571	65.135	230.801	279.333	249.008	2.367	184.104	-20.440	260.598	248.187	15.322	177.496	38.520	0.0002637	0.00032909	7.9845e-05	1007.8	1.7165e-06	1.4956e-06	1108.3	211.46	4.9325e-06	1.5714e-06	269.03	77.977	60.684	17.843	1.7629e-06	25.017	0.00019353	0.00019308	5.3896e-05	959.31	2.1157e-06	2.1028e-06	1050.2	204.29	2.0477e-06	2.0606e-06	253.76	74.552	57.649	17.642	2.0147e-06	24.46	-49.899	-31.946	-32.596	-50.151	-5.206	297.118	-50.138	-42.493	127.225	157.850	-43.165	-35.712	-35.662	-29.115	4.839	-29.266	-8191	255	
701.479	1	1	0	0	0.25655	0.089932	0.31072	0.14108	0.23146	0.2541	0.066346	0.11699	0.11681	0.18601	0.35931	0.29102	0.12872	0.12785	0.17464	0.25604	-0.4125	-0.975	-0.33125	-1.1979	-0.61875	-0.19375	-1.1708	-0.67708	-0.88542	-1.1083	-0.175	-1.0875	-0.86458	-0.34167	-1.2125	-0.51458	-9.626	-45.612	282.911	283.704	53.491	190.856	214.569	277.399	-38.796	237.811	293.677	167.869	39.285	0.957	-38.094	265.903	5.0154e-05	0.0004273	9.436e-05	1009.5	2.0812e-06	1.3554e-06	1106.3	212.3	2.4258e-06	3.2387e-06	268.33	77.299	61.072	17.712	1.8894e-06	25.17	0.0001831	0.00018226	5.0001e-05	956.58	1.9474e-06	1.9271e-06	1047.9	203.32	1.9302e-06	1.8975e-06	252.74	74.044	57.49	17.492	1.8963e-06	24.321	228.597	-22.718	26.058	-50.485	285.715	-29.274	-50.111	-42.751	66.363	87.784	-43.256	-36.396	-35.409	-28.675	52.737	-29.521	-8191	255	
701.575	1	1	0	0	0.16263	0.055454	0.14453	0.32084	0.072247	0.09575	0.079532	0.45161	0.18728	0.22493	0.018458	0.098449	0.34611	0.18375	0.043323	0.24433	-0.54583	-1.0958	-0.525	-1.2292	-1.0458	-0.38958	-1.4688	-0.53958	-0.63125	-1.1167	-0.4375	-1.1104	-1.1875	-0.57083	-1.1896	-0.67292	74.170	256.321	246.457	275.176	-47.850	-26.144	219.426	-51.304	186.290	204.293	84.913	217.541	47.983	240.483	-58.931	236.168	0.00016887	0.00047508	0.00014283	1012.5	2.2283e-06	1.9019e-06	1101.1	209.98	6.9443e-06	4.2841e-06	268.2	77.818	60.288	17.852	6.1701e-06	25.065	0.00017372	0.00017201	4.77e-05	956.83	1.8857e-06	1.884e-06	1044.1	202.6	1.8968e-06	1.8493e-06	252.04	74.007	57.25	17.456	1.8481e-06	24.238	278.472	-14.886	-5.333	-50.210	80.717	27.609	-50.185	-42.820	-23.321	-17.992	-42.926	-35.763	-35.719	-29.156	78.534	-29.403	-8191	255	
701.669	1	1	0	0	0.13352	0.032585	0.14357	0.21917	0.18074	0.1715	0.079411	0.25063	0.26831	0.20379	0.23895	0.33347	0.12577	0.14289	0.16514	0.076584	-0.4875	-1.2604	-0.67083	-0.99375	-1.0417	-0.52708	-1.5104	-0.78333	-0.55625	-1.2792	-0.45833	-1.0104	-1.2333	-0.32917	-1.0875	-0.38958	294.124	81.384	138.880	245.326	130.054	136.444	96.651	-11.382	18.430	81.991	284.117	289.369	64.702	295.940	15.306	127.856	1.8439e-05	0.00011895	2.7716e-05	1012.1	9.8967e-07	3.2149e-06	1103.4	211.56	2.6216e-06	3.5643e-06	267.63	77.833	60.954	17.782	8.9072e-07	25.252	0.00016782	0.00016658	4.6641e-05	954.2	1.8224e-06	1.8207e-06	1042.5	202.7	1.8393e-06	1.8059e-06	252.15	73.827	57.207	17.413	1.8277e-06	24.247	31.380	60.168	187.277	-50.235	39.527	-0.827	-50.167	-42.395	284.703	205.965	-43.061	-35.672	-35.854	-28.616	-22.410	-29.631	-8191	255	
701.766	1	1	0	0	0.30121	0.1855	0.08427	0.387	0.30453	0.14838	0.2337	0.25994	0.15863	0.32656	0.18909	0.20497	0.1558	0.12425	0.1725	0.15953	-0.175	-1.0771	-0.45	-0.92292	-1.1479	-0.425	-1.2083	-1.025	-0.38125	-1.2104	-0.49583	-0.83125	-1.3	-0.47083	-1.0708	-1.0396	150.843	202.801	186.918	217.977	42.500	207.904	272.999	248.095	275.682	-31.732	224.547	190.674	99.338	156.360	-19.485	47.834	5.6069e-05	0.00053011	6.1082e-05	1009.6	1.9783e-06	5.1288e-07	1102	211.86	4.7946e-06	2.089e-06	270.64	77.58	60.499	17.846	3.5035e-06	25.204	0.00016879	0.00016547	4.6695e-05	952.46	1.8416e-06	1.8242e-06	1044	202.27	1.838e-06	1.8353e-06	252.78	73.995	57.219	17.518	1.8795e-06	24.34	-10.286	274.374	-49.553	-50.125	209.047	-32.569	-49.957	-42.870	161.120	276.230	-42.885	-36.592	-35.758	-28.458	52.997	-29.346	-8191	255	
701.886	1	1	0	0	0.092662	0.15429	0.18561	0.22259	0.12013	0.12995	0.19937	0.10568	0.24892	0.235	0.35393	0.19799	0.24538	0.12561	0.24544	0.14861	0.047917	-1.2021	-0.47292	-0.72083	-1.4062	-0.41458	-1.2313	-1.3083	-0.275	-1.2375	-0.87708	-0.51875	-1.1812	-0.63958	-1.1542	-1.1792	91.675	167.282	202.037	110.203	70.049	199.363	41.911	216.153	93.592	114.658	187.967	271.720	151.802	136.519	263.551	188.673	0.00027884	0.00050323	7.0953e-05	1013.7	3.3008e-06	2.8564e-06	1099.8	211.8	6.4927e-06	3.5052e-06	270.82	77.5	60.412	17.92	3.7623e-06	25.234	0.00017306	0.00017199	4.788e-05	955.78	1.9003e-06	1.8862e-06	1043.7	202.74	1.8883e-06	1.8602e-06	252.91	73.935	57.311	17.5	1.8772e-06	24.223	282.255	71.094	101.345	-50.748	102.898	258.626	-50.311	-42.576	177.267	86.119	-43.327	-36.029	-35.761	-29.134	35.484	-29.914	-8191	255	
701.982	1	1	0	0	0.12887	0.23396	0.29825	0.071674	0.36823	0.17985	0.27787	0.19591	0.12199	0.16332	0.28236	0.21451	0.059881	0.20589	0.2677	0.15016	0.014583	-1.15	-0.47292	-0.65208	-0.93333	-0.30208	-0.99792	-1.1562	-0.44167	-1.1833	-0.7625	-0.5375	-1.1	-0.40417	-0.46875	-1.0812	270.752	284.348	-46.327	172.594	228.481	264.181	297.328	-6.520	177.591	118.405	8.027	42.488	87.444	30.785	244.865	-37.780	0.00015073	0.00018369	8.0804e-05	1007.1	3.2072e-06	2.6716e-06	1106.4	211.56	1.2843e-06	2.4511e-06	270.6	77.895	60.803	17.872	3.3315e-06	25.315	0.00017043	0.00016932	4.6759e-05	953.2	1.8693e-06	1.8512e-06	1045.2	202.77	1.8282e-06	1.8444e-06	252.27	73.848	57.223	17.501	1.8606e-06	24.26	201.863	83.233	68.733	-50.472	278.896	99.340	-50.377	-43.069	269.683	82.563	-42.989	-36.376	-35.605	-28.791	146.683	-29.891	-8191	255	
702.077	1	1	0	0	0.058248	0.22327	0.22943	0.081847	0.13012	0.010622	0.56118	0.14772	0.4131	0.17283	0.21318	0.024661	0.32819	0.10391	0.40255	0.17736	-0.13333	-0.96667	-0.64792	-0.2	-0.98333	-0.30208	-0.72708	-1.1938	-0.39167	-1.0604	-1.1313	-0.5	-1.0479	-0.44583	-0.54792	-1.1521	142.686	289.116	251.404	7.355	181.333	50.585	246.739	277.921	-35.571	212.212	113.635	219.129	215.471	50.493	274.738	-13.078	0.00017169	0.00048422	6.7817e-05	1011.9	6.0056e-07	1.7798e-06	1102.1	211.67	1.0785e-06	1.7433e-06	270.14	77.054	60.716	17.948	5.8146e-07	25.455	0.00016899	0.00016639	4.6098e-05	952.73	1.8338e-06	1.8111e-06	1041.3	202.25	1.7957e-06	1.8063e-06	252.24	73.638	57.031	17.406	1.7833e-06	24.265	278.499	30.559	260.147	-50.566	93.536	258.555	-50.154	-42.931	132.772	133.179	-43.351	-36.315	-35.264	-28.690	28.041	-29.849	-8191	255	
702.175	1	1	0	0	0.066839	0.19973	0.17842	0.14427	0.12488	0.040379	0.22288	0.22154	0.30689	0.16114	0.11858	0.1703	0.13212	0.31566	0.18089	0.17242	0.27917	-0.76458	-0.84167	-0.70208	-1.0979	-0.54167	-0.67292	-1.2625	-0.40208	-0.82708	-1.2875	-0.60208	-1.2708	-0.76667	-0.525	-1.3188	299.165	-40.218	220.941	245.652	37.570	17.601	245.700	217.695	196.169	70.184	32.747	197.166	42.638	-31.555	7.535	74.296	0.00012369	0.00027339	6.6681e-05	1009.5	6.2733e-06	2.6729e-06	1102.2	212	3.4831e-06	1.1602e-06	269.11	77.283	60.82	17.752	2.0053e-06	25.084	0.000164	0.00016377	4.5434e-05	951.42	1.7993e-06	1.793e-06	1042.4	203	1.7962e-06	1.8167e-06	251.58	73.7	57.006	17.386	1.8176e-06	24.257	273.216	143.944	90.520	-50.342	95.642	51.778	-50.253	-42.723	191.567	-25.348	-43.324	-35.716	-36.051	-28.999	-1.151	-29.533	-8191	255	
702.269	1	1	0	0	0.25159	0.096151	0.13795	0.32355	0.11655	0.16635	0.33858	0.25912	0.21793	0.10245	0.097963	0.38622	0.27139	0.22505	0.18262	0.1684	-0.15833	-0.85833	-1.2167	-0.38958	-1.3354	-0.95	-0.71875	-1.2938	-0.6125	-0.825	-1.3292	-0.32292	-1.0438	-0.77083	-0.47917	-1.1396	193.335	178.049	235.569	264.590	116.387	151.297	290.249	-48.712	264.918	168.916	0.804	248.959	80.405	297.423	100.619	145.323	0.00022972	0.0001662	4.9161e-05	1007.8	9.1443e-07	2.7177e-06	1100.9	212.31	3.0117e-06	1.3229e-06	270.12	77.762	60.312	17.866	3.3668e-06	25.216	0.00016603	0.00016461	4.5765e-05	952.48	1.8079e-06	1.8145e-06	1043.5	202.98	1.8209e-06	1.8317e-06	252.2	73.863	57.139	17.476	1.8487e-06	24.343	232.173	146.662	27.952	-50.500	106.801	227.840	-50.042	-42.691	89.121	210.396	-43.162	-36.055	-35.947	-28.728	200.599	-29.375	-8191	255	
702.365	1	1	0	0	0.18817	0.17444	0.1279	0.040004	0.16617	0.20732	0.24518	0.23741	0.15584	0.063536	0.13252	0.14359	0.1547	0.068792	0.1839	0.22375	-0.14792	-0.48958	-1.0521	-0.67083	-1.0438	-1.0833	-0.54583	-1.4896	-0.57083	-0.82917	-1.325	-0.46042	-0.94792	-1.1187	-0.44375	-1.2188	201.296	18.527	-34.184	253.320	181.845	231.060	241.792	254.204	16.823	117.063	280.447	299.122	21.399	26.574	159.001	279.376	0.00017854	0.00019021	0.00013413	1010.5	2.0341e-06	4.8873e-06	1104.6	212.22	1.5668e-06	2.933e-06	270.03	77.216	60.441	17.847	4.8576e-06	25.086	0.00017083	0.00017037	4.7645e-05	953.03	1.8676e-06	1.8332e-06	1043.6	202.82	1.8579e-06	1.8578e-06	252.5	73.887	57.155	17.475	1.8875e-06	24.33	223.049	21.668	12.136	-50.329	199.678	163.732	-50.258	-42.735	-16.645	292.580	-43.222	-36.209	-35.555	-29.048	193.263	-29.802	-8191	255	
702.461	1	1	0	0	0.28725	0.16569	0.16973	0.28707	0.38757	0.12348	0.15592	0.26175	0.15601	0.10251	0.21705	0.092938	0.029247	0.21051	0.21033	0.086196	-0.13958	-0.37917	-1.1396	-0.60208	-0.82708	-1.075	-0.44583	-1.1208	-0.68125	-0.62708	-1.5729	-0.725	-0.73333	-1.1979	-0.53542	-1.1667	184.287	65.358	163.652	32.747	73.322	202.382	198.618	241.348	72.654	170.411	39.105	233.055	275.966	-10.665	213.705	215.884	8.965e-05	0.000371	7.3763e-05	1006.5	3.1909e-06	1.8326e-06	1107.5	212.04	3.9127e-06	2.9262e-06	269.55	77.099	60.414	17.867	5.817e-06	25.328	0.00017191	0.00017351	4.8363e-05	951.72	1.9179e-06	1.9034e-06	1044.6	203.07	1.8974e-06	1.9086e-06	252.89	73.984	57.282	17.515	1.8973e-06	24.374	-51.562	42.488	2.031	-50.469	37.650	285.645	-50.319	-43.044	115.001	-54.750	-42.951	-36.208	-35.859	-29.286	204.264	-29.676	-8191	255	
702.582	1	1	0	0	0.063963	0.28304	0.38424	0.2808	0.21559	0.2522	0.36421	0.28821	0.20864	0.056097	0.16213	0.088852	0.23935	0.25505	0.10027	0.15304	-0.27292	-0.26875	-0.91667	-0.59375	-0.58542	-1.1917	-0.5375	-1.0458	-0.925	-0.54375	-1.1625	-0.88125	-0.75625	-1.1792	-0.38958	-0.85625	-40.672	295.178	8.426	277.011	39.642	291.307	269.532	286.721	-40.465	88.837	-41.320	-44.289	192.263	285.800	-47.260	129.623	0.0001019	0.00027482	8.4081e-05	1005.3	5.3018e-06	2.8289e-06	1101.8	211.69	1.4435e-06	1.1035e-06	267.28	77.35	60.469	17.746	9.1023e-07	25.255	0.00017354	0.00017197	4.7996e-05	952.99	1.8686e-06	1.8662e-06	1042.3	202.87	1.8736e-06	1.8824e-06	251.62	73.776	57.15	17.457	1.8737e-06	24.324	-43.306	-33.525	79.261	-50.616	119.628	60.184	-50.115	-42.659	251.217	55.274	-43.030	-36.342	-36.085	-29.056	106.278	-29.126	-8191	255	
702.678	1	1	0	0	0.058194	0.18404	0.096443	0.23562	0.41623	0.29306	0.28905	0.19937	0.14909	0.1663	0.26252	0.10467	0.22292	0.19258	0.082778	0.092344	-0.38333	-0.375	-1.1917	-0.80417	-0.71875	-1.1	-0.8625	-1.2458	-1.0604	-0.45417	-1.5333	-0.81875	-0.76042	-1.475	-0.69167	-1.0479	100.166	165.888	122.855	152.985	228.133	21.476	283.282	133.568	70.318	91.873	258.095	288.055	257.170	263.848	130.770	236.205	5.9625e-05	0.0003653	0.00013249	1009.6	1.7124e-06	6.8533e-06	1102.2	212.11	3.2668e-06	2.7373e-06	269.91	77.173	60.134	17.706	3.9323e-06	25.318	0.00017269	0.00016985	4.744e-05	953.31	1.859e-06	1.844e-06	1040.7	202.44	1.8296e-06	1.8292e-06	252.32	73.555	57.009	17.402	1.8279e-06	24.301	164.787	-54.501	25.801	-50.532	108.868	116.351	-50.070	-42.559	-5.427	182.841	-43.320	-36.469	-35.284	-28.908	31.488	-29.393	-8191	255	
702.774	1	1	0	0	0.2992	0.1394	0.085787	0.16017	0.17825	0.10146	0.35327	0.29295	0.25922	0.1798	0.11722	0.041684	0.1366	0.23683	0.049369	0.095843	-0.84792	-0.56667	-1.3729	-0.93333	-0.51042	-1.4646	-0.82708	-0.94792	-1.3917	-0.65417	-1.2979	-1.2271	-0.59375	-1.5875	-0.70625	-0.78958	-15.130	162.236	190.585	265.312	-28.113	286.748	218.277	253.088	-49.916	-3.426	50.036	-24.183	253.965	5.690	64.607	186.845	0.00017267	0.00022518	5.6198e-05	1005.1	6.4195e-06	3.764e-06	1097.6	211.91	1.6274e-06	4.6153e-06	269.66	77.715	60.516	17.851	5.054e-06	25.08	0.0001644	0.00016459	4.526e-05	950.28	1.7805e-06	1.7539e-06	1039.5	202.42	1.7994e-06	1.7696e-06	251.45	73.695	56.967	17.42	1.7714e-06	24.128	271.393	57.358	-26.077	-50.292	83.655	44.283	-50.251	-42.542	275.865	77.416	-43.136	-36.476	-35.568	-29.005	39.324	-29.647	-8191	255	
702.846	1	1	0	0	0.25925	0.25518	0.2208	0.14061	0.20361	0.02548	0.10102	0.22504	0.14514	0.12408	0.090766	0.13815	0.27265	0.10023	0.1365	0.32397	-0.84792	-0.3	-0.97708	-0.96667	-0.47917	-1.0333	-0.66458	-0.8125	-1.3937	-0.52708	-1.1208	-1.2479	-0.32708	-1.3958	-0.72083	-0.73333	76.985	251.985	229.741	268.593	34.975	29.109	67.202	259.239	234.053	284.893	142.522	197.965	199.199	207.825	51.541	4.701	0.00013198	0.00043089	6.7439e-05	1004.1	4.0002e-06	2.3578e-06	1097.7	211.14	1.1834e-06	2.7269e-06	268.41	77.278	60.649	17.818	2.9674e-06	25.226	0.00016169	0.00015965	4.458e-05	949.12	1.7479e-06	1.7326e-06	1038.8	201.28	1.7358e-06	1.7229e-06	251.22	73.34	56.745	17.366	1.7423e-06	24.113	-41.780	34.741	8.922	-50.352	12.803	35.286	-50.320	-42.469	152.950	37.462	-43.150	-36.165	-35.525	-28.804	183.713	-29.195	-8191	255	
702.967	1	1	0	0	0.087669	0.13489	0.14051	0.23862	0.11787	0.026362	0.29119	0.27643	0.16731	0.31805	0.11274	0.15837	0.088758	0.24163	0.29561	0.17038	-0.77917	-0.5	-0.98333	-1.1854	-0.47292	-1.2188	-0.78542	-0.70833	-1.2062	-0.59375	-1.1229	-1.1896	-0.59583	-1.3312	-0.98125	-0.49167	57.474	43.889	132.277	265.958	178.160	235.516	254.816	177.546	-55.672	-38.558	144.439	204.229	198.789	-15.391	261.638	234.057	0.00011935	2.3266e-05	4.906e-05	1003.9	6.4208e-07	5.0831e-06	1097	211.78	2.9613e-06	3.5274e-06	269.36	77.483	60.298	17.77	6.0044e-07	25.228	0.00015869	0.00015847	4.4406e-05	947.95	1.7353e-06	1.7425e-06	1037.4	202.03	1.7302e-06	1.7581e-06	251.45	73.486	56.782	17.376	1.7678e-06	24.153	286.647	248.685	61.793	-50.587	59.502	64.203	-50.320	-42.666	47.520	31.857	-43.258	-36.157	-35.886	-29.028	24.549	-29.488	-8191	255	
703.063	1	1	0	0	0.19958	0.07538	0.16616	0.16993	0.12585	0.22149	0.19193	0.16371	0.095965	0.35333	0.022841	0.22062	0.11763	0.13779	0.12358	0.42369	-0.74167	-0.32917	-0.82917	-1.3333	-0.56042	-1.0958	-1.1333	-0.4625	-1.2333	-0.34375	-0.50625	-0.93333	-0.44375	-0.92083	-0.88958	-0.40417	108.401	269.603	-7.153	244.140	135.318	-32.318	88.287	97.838	148.116	141.027	174.674	268.096	-48.933	146.067	-52.061	262.224	7.9829e-05	0.00020587	0.00015568	1005.9	1.9856e-06	1.4397e-06	1098.8	211.13	1.9125e-06	2.9419e-06	269.05	76.841	60.106	17.836	4.3262e-06	25.176	0.00016135	0.00015986	4.4275e-05	948.98	1.7686e-06	1.7412e-06	1038.1	201.75	1.7326e-06	1.735e-06	251.75	73.506	56.655	17.319	1.703e-06	24.107	252.902	22.861	10.509	-50.617	59.439	36.823	-50.659	-42.761	29.685	235.010	-43.375	-36.333	-36.040	-28.810	52.251	-29.259	-8191	255	
703.157	1	1	0	0	0.21307	0.046601	0.38312	0.3261	0.12349	0.046791	0.26435	0.20693	0.14548	0.097625	0.1337	0.1993	0.1057	0.11225	0.25334	0.025125	-0.71667	-0.59375	-0.40417	-1.3292	-0.4125	-1.1625	-1.3687	-0.75	-1.2417	-0.93958	-0.66875	-1.4167	-0.57292	-1.0896	-1.3	-0.50833	240.841	27.718	110.439	258.795	194.281	261.022	220.600	250.620	148.377	227.749	206.324	-28.695	199.161	205.603	-22.274	229.124	5.9697e-05	0.00019263	4.5101e-05	1003.9	1.2819e-06	1.8279e-06	1097.3	210.59	1.4533e-06	2.1414e-06	269.84	77.04	60.541	17.842	2.2948e-06	25.343	0.00015612	0.00015633	4.2814e-05	947.55	1.7054e-06	1.7022e-06	1036.7	201.38	1.6976e-06	1.6955e-06	250.92	73.218	56.597	17.293	1.6885e-06	24.054	196.399	-33.430	25.395	-50.542	274.459	-19.999	-50.474	-43.002	227.442	50.875	-42.914	-36.591	-35.734	-29.155	145.824	-29.175	-8191	255	
703.255	1	1	0	0	0.20533	0.16676	0.21954	0.30839	0.098125	0.319	0.20547	0.41785	0.083194	0.35206	0.24343	0.15596	0.29048	0.26211	0.090223	0.23262	-0.99792	-0.84583	-0.5625	-1.5083	-0.4	-0.79583	-1.3813	-0.41042	-1.1187	-0.50208	-0.43958	-1.2208	-0.41667	-0.67917	-0.79167	-0.275	216.117	294.731	99.486	265.181	-52.963	148.047	182.540	-52.948	277.698	205.477	245.389	282.908	254.724	282.881	118.906	-42.205	0.00018309	0.00024915	2.9221e-05	1003.4	1.8492e-06	1.5671e-06	1093.1	211.33	2.4897e-06	2.656e-06	268.88	77.509	60.607	17.827	1.9272e-07	25.199	0.00015471	0.00015146	4.2122e-05	945.04	1.6742e-06	1.6543e-06	1033.6	201.21	1.6716e-06	1.6608e-06	250.76	73.426	56.448	17.291	1.6629e-06	24.047	243.546	231.356	44.293	-50.682	93.306	173.870	-50.413	-42.575	160.103	48.658	-43.627	-36.324	-36.012	-28.872	102.917	-29.310	-8191	255	
703.374	1	1	0	0	0.063794	0.35114	0.077641	0.15439	0.33757	0.14624	0.37954	0.34225	0.15813	0.29974	0.065721	0.26146	0.17296	0.10162	0.10556	0.25951	-0.51875	-0.82708	-0.49583	-1.4458	-0.61875	-0.87708	-1.4708	-0.53542	-0.98125	-0.9375	-0.43958	-1.2146	-0.575	-0.38542	-1.3375	-0.35417	244.413	45.612	153.593	247.906	286.613	68.998	229.462	-0.843	95.540	129.525	-20.465	267.318	19.401	246.392	13.070	207.866	0.00012363	0.00017752	6.4312e-05	1007.4	4.4477e-06	4.7528e-06	1096.7	210.49	4.3811e-06	3.5888e-06	269.38	77.211	60.276	17.806	2.5126e-06	25.22	0.00015361	0.00015135	4.2499e-05	945.78	1.684e-06	1.6423e-06	1035.3	200.84	1.6478e-06	1.6651e-06	250.08	73.166	56.449	17.254	1.656e-06	24.072	96.762	192.846	18.950	-50.537	191.362	-33.309	-50.438	-42.985	107.742	40.658	-43.161	-36.495	-35.787	-28.728	76.845	-29.204	-8191	255	
703.470	1	1	0	0	0.32793	0.04595	0.22808	0.26966	0.1051	0.062182	0.12473	0.12656	0.13687	0.26995	0.23436	0.12979	0.12353	0.097322	0.19182	0.095949	-0.51458	-0.86458	-0.33125	-1.1771	-0.51458	-0.48958	-1.4188	-0.59167	-0.775	-1.225	-0.39792	-1.1333	-0.78542	-0.65208	-1.0646	-0.33958	17.397	73.451	-38.805	19.959	244.797	139.868	172.184	177.936	183.475	13.050	55.784	145.246	6.036	128.075	115.110	192.588	0.00014119	0.0006866	6.2353e-05	1006.8	1.98e-06	1.3332e-06	1095.2	210.41	1.9015e-06	1.6885e-06	268.55	77.316	60.369	17.936	6.503e-06	24.921	0.00015247	0.00015169	4.2564e-05	947.01	1.6813e-06	1.6711e-06	1035.8	200.98	1.6805e-06	1.6936e-06	249.86	73.323	56.483	17.307	1.6699e-06	23.986	243.277	245.958	52.568	-50.238	35.698	171.148	-50.089	-43.051	50.352	-8.128	-43.133	-36.102	-35.708	-28.637	-5.710	-29.617	-8191	255	
703.566	1	1	0	0	0.21935	0.040905	0.17838	0.3709	0.31994	0.18144	0.21764	0.27182	0.17819	0.067847	0.11203	0.071994	0.09917	0.24611	0.088296	0.083165	-0.38542	-0.92917	-0.34167	-1.2521	-0.63958	-0.47083	-1.4229	-0.8	-0.89167	-1.1167	-0.24792	-0.93125	-0.87917	-0.32917	-1.2854	-0.47917	256.509	76.573	87.517	211.043	258.193	-16.592	255.748	-1.503	-49.957	108.936	201.873	-19.818	253.719	56.144	16.929	56.589	5.485e-05	0.00029827	7.7863e-05	1002.3	3.2498e-06	2.4606e-06	1095.1	211.02	1.9662e-06	4.3638e-06	268.54	76.904	60.052	17.715	1.3142e-06	25.131	0.00015314	0.00015247	4.283e-05	945.65	1.689e-06	1.7038e-06	1036.1	201.03	1.6984e-06	1.6898e-06	250.33	73.136	56.41	17.315	1.6864e-06	24.05	-28.081	30.522	80.177	-50.592	57.916	138.622	-50.454	-42.907	31.269	66.968	-43.245	-36.226	-35.960	-28.557	35.409	-29.397	-8191	255	
703.662	1	1	0	0	0.11932	0.1237	0.12135	0.1481	0.17313	0.20264	0.10668	0.36566	0.08346	0.19298	0.30983	0.27738	0.086246	0.069808	0.14464	0.12136	-0.09375	-1.2167	0.05	-0.88958	-0.8125	-0.42083	-1.2229	-0.68125	-0.6625	-1.3396	-0.46458	-0.92083	-1.1354	-0.14167	-1.2125	-0.75208	189.708	30.506	250.137	250.412	226.837	261.900	182.669	213.851	207.374	-23.867	184.809	256.653	149.604	105.146	167.084	95.173	0.00024872	6.8765e-05	0.00010716	1002.4	5.5102e-07	5.3735e-06	1099.9	210.34	4.791e-06	6.392e-07	267.54	76.963	60.519	17.84	3.1522e-06	25.182	0.00015561	0.00015346	4.2562e-05	946.6	1.7018e-06	1.674e-06	1037.6	200.87	1.6979e-06	1.688e-06	250.47	73.319	56.576	17.31	1.7086e-06	24.049	273.297	115.235	240.372	-50.555	47.055	43.928	-50.496	-42.676	25.186	4.198	-43.136	-35.811	-35.444	-28.978	117.494	-29.649	-8191	255	
703.759	1	1	0	0	0.067492	0.074445	0.10908	0.063631	0.16353	0.25391	0.20189	0.43763	0.03985	0.17704	0.18346	0.04753	0.23365	0.16946	0.19222	0.24885	-0.1375	-1.4521	-0.62708	-1.0063	-0.92917	-0.22917	-1.2313	-0.82708	-0.52917	-1.2354	-0.69792	-1.0375	-1.3667	-0.36667	-1.1771	-0.77292	135.686	-24.736	295.399	137.461	274.224	50.976	-49.493	175.372	-12.709	7.483	-60.600	278.553	216.816	205.940	203.897	-59.255	0.00019909	0.00035306	0.00015686	1003.4	2.2476e-06	3.1713e-06	1094.3	210.28	1.9777e-06	2.9225e-06	268	77.41	60.077	17.928	3.9901e-06	25.152	0.00015658	0.0001562	4.3571e-05	947.41	1.7225e-06	1.7125e-06	1036.1	201.2	1.7246e-06	1.7019e-06	250.24	73.441	56.573	17.338	1.7144e-06	24.115	258.226	-42.375	-43.863	-50.259	46.180	174.756	-50.099	-42.755	154.966	96.563	-43.696	-35.977	-35.851	-28.776	83.076	-29.681	-8191	255	
703.855	1	1	0	0	0.24277	0.23119	0.21501	0.21057	0.13288	0.090896	0.20246	0.32908	0.058864	0.17135	0.14831	0.35752	0.16426	0.27052	0.15249	0.29825	0.016667	-1.1229	-0.46875	-0.93333	-1.5042	-0.36458	-1.5146	-0.97708	-0.44375	-1.0917	-0.45	-0.4875	-1.0312	-0.13333	-0.76042	-0.92083	166.772	216.589	35.453	267.012	159.741	174.385	26.684	290.090	253.234	271.876	69.319	-51.299	146.135	157.332	108.573	242.591	0.00017852	6.3494e-05	8.3774e-05	1007.2	2.8039e-06	1.4769e-06	1096.5	211.8	2.1788e-06	2.8268e-06	269.03	77.345	60.559	17.896	3.2421e-06	25.069	0.00015729	0.00015673	4.3651e-05	947.08	1.7179e-06	1.7138e-06	1036.4	201.22	1.7017e-06	1.7102e-06	249.94	73.274	56.49	17.305	1.714e-06	24.011	206.715	-48.550	21.049	-50.397	214.449	76.924	-50.207	-42.729	120.872	27.705	-43.739	-35.881	-35.467	-28.616	152.380	-29.368	-8191	255	
#DATA ENDS
