BOXY.EXE: ISS Imagent and Oximeter Data Acquisition Program Version 0.80
Ascii Record File

#ACQ INFORMATION
2  Detector Channels 
16  External MUX Channels 
1  Auxiliary Channels 
5000  Waveform (CCF) Frequency (Hz)
1  Waveforms Skipped 
30  Waveforms Averaged 
1  Cycles Averaged 
16  Acquisitions per Waveform 
10.0806  Updata Rate (Hz) 

#FILE INFORMATION
TRUE -- External MUX Channel results are PARSED.
FALSE -- AC DC and Phase are NOT grouped.
TRUE -- Companion Program Settings File CREATED.
FALSE -- AC data not excluded
FALSE -- DC data not excluded
FALSE -- Phase data not excluded
FALSE -- Auxillary Chn. data not excluded
Tab delimiters

#CALIBRATION STATE
TRUE -- Waveform Calibration Values APPLIED.


#AUX CALIBRATION VALUES
Val Type	aux-1	

Term	1.0000e+00	
Factor	0.0000e+00	


#WF CALIBRATION VALUES
A = Detector Channel
Val Type	A-AC1	A-AC2	A-AC3	A-AC4	A-AC5	A-AC6	A-AC7	A-AC8	A-AC9	A-AC10	A-AC11	A-AC12	A-AC13	A-AC14	A-AC15	A-AC16	A-DC1	A-DC2	A-DC3	A-DC4	A-DC5	A-DC6	A-DC7	A-DC8	A-DC9	A-DC10	A-DC11	A-DC12	A-DC13	A-DC14	A-DC15	A-DC16	A-Ph1	A-Ph2	A-Ph3	A-Ph4	A-Ph5	A-Ph6	A-Ph7	A-Ph8	A-Ph9	A-Ph10	A-Ph11	A-Ph12	A-Ph13	A-Ph14	A-Ph15	A-Ph16	

Term	0.00000e+00	0.00000e+00	0.00000e+00	0.00000e+00	0.00000e+00	0.00000e+00	0.00000e+00	0.00000e+00	0.00000e+00	0.00000e+00	0.00000e+00	0.00000e+00	0.00000e+00	0.00000e+00	0.00000e+00	0.00000e+00	0.00000e+00	0.00000e+00	0.00000e+00	0.00000e+00	0.00000e+00	0.00000e+00	0.00000e+00	0.00000e+00	0.00000e+00	0.00000e+00	0.00000e+00	0.00000e+00	0.00000e+00	0.00000e+00	0.00000e+00	0.00000e+00	0.00000e+00	0.00000e+00	0.00000e+00	0.00000e+00	0.00000e+00	0.00000e+00	0.00000e+00	0.00000e+00	0.00000e+00	0.00000e+00	0.00000e+00	0.00000e+00	0.00000e+00	0.00000e+00	0.00000e+00	0.00000e+00	
Factor	1.00000e+00	1.00000e+00	1.00000e+00	1.00000e+00	1.00000e+00	1.00000e+00	1.00000e+00	1.00000e+00	1.00000e+00	1.00000e+00	1.00000e+00	1.00000e+00	1.00000e+00	1.00000e+00	1.00000e+00	1.00000e+00	1.00000e+00	1.00000e+00	1.00000e+00	1.00000e+00	1.00000e+00	1.00000e+00	1.00000e+00	1.00000e+00	1.00000e+00	1.00000e+00	1.00000e+00	1.00000e+00	1.00000e+00	1.00000e+00	1.00000e+00	1.00000e+00	X	X	X	X	X	X	X	X	X	X	X	X	X	X	X	X	

B = Detector Channel
Val Type	B-AC1	B-AC2	B-AC3	B-AC4	B-AC5	B-AC6	B-AC7	B-AC8	B-AC9	B-AC10	B-AC11	B-AC12	B-AC13	B-AC14	B-AC15	B-AC16	B-DC1	B-DC2	B-DC3	B-DC4	B-DC5	B-DC6	B-DC7	B-DC8	B-DC9	B-DC10	B-DC11	B-DC12	B-DC13	B-DC14	B-DC15	B-DC16	B-Ph1	B-Ph2	B-Ph3	B-Ph4	B-Ph5	B-Ph6	B-Ph7	B-Ph8	B-Ph9	B-Ph10	B-Ph11	B-Ph12	B-Ph13	B-Ph14	B-Ph15	B-Ph16	

Term	0.00000e+00	0.00000e+00	0.00000e+00	0.00000e+00	0.00000e+00	0.00000e+00	0.00000e+00	0.00000e+00	0.00000e+00	0.00000e+00	0.00000e+00	0.00000e+00	0.00000e+00	0.00000e+00	0.00000e+00	0.00000e+00	0.00000e+00	0.00000e+00	0.00000e+00	0.00000e+00	0.00000e+00	0.00000e+00	0.00000e+00	0.00000e+00	0.00000e+00	0.00000e+00	0.00000e+00	0.00000e+00	0.00000e+00	0.00000e+00	0.00000e+00	0.00000e+00	-8.95078e+00	-1.28313e+02	-1.59213e+02	-1.83430e+02	-6.27312e+01	-7.13637e+01	-1.58223e+02	-1.62015e+02	-5.99673e+01	-9.13236e+01	-1.73512e+02	-1.71486e+02	-1.82993e+02	-1.77391e+02	-9.45175e+01	-1.50029e+02	
Factor	3.31521e-05	1.02412e-04	2.51838e-05	1.74125e-01	9.41655e-07	7.87002e-07	1.67823e-01	5.34825e-02	9.62964e-07	9.16794e-07	9.32518e-02	3.26786e-02	3.77044e-02	9.61610e-03	1.01061e-06	1.39087e-02	4.73983e-07	4.79203e-07	1.33295e-07	8.43310e-02	5.25646e-09	5.25144e-09	7.68524e-02	2.57750e-02	5.24916e-09	5.24987e-09	4.19250e-02	1.46082e-02	1.67917e-02	4.47682e-03	5.26103e-09	6.16901e-03	X	X	X	X	X	X	X	X	X	X	X	X	X	X	X	X	



#DISTANCE SETTINGS
A = Detector Channel
A-1	A-2	A-3	A-4	A-5	A-6	A-7	A-8	A-9	A-10	A-11	A-12	A-13	A-14	A-15	A-16	

2.5000e+00	3.0000e+00	2.5000e+00	3.0000e+00	2.0000e+00	3.0000e+00	1.5000e+00	3.0000e+00	3.0000e+00	3.0000e+00	3.0000e+00	3.0000e+00	3.0000e+00	3.0000e+00	1.5000e+00	3.0000e+00	

B = Detector Channel
B-1	B-2	B-3	B-4	B-5	B-6	B-7	B-8	B-9	B-10	B-11	B-12	B-13	B-14	B-15	B-16	

1.0000e+01	1.0000e+01	1.0000e+01	1.4400e+00	1.0000e+01	1.0000e+01	1.5100e+00	1.9400e+00	1.0000e+01	1.0000e+01	1.9900e+00	2.4900e+00	2.4100e+00	2.9000e+00	1.0000e+01	2.9800e+00	




#DATA BEGINS
time	group	step	mark	flag	A-AC1	A-AC2	A-AC3	A-AC4	A-AC5	A-AC6	A-AC7	A-AC8	A-AC9	A-AC10	A-AC11	A-AC12	A-AC13	A-AC14	A-AC15	A-AC16	A-DC1	A-DC2	A-DC3	A-DC4	A-DC5	A-DC6	A-DC7	A-DC8	A-DC9	A-DC10	A-DC11	A-DC12	A-DC13	A-DC14	A-DC15	A-DC16	A-Ph1	A-Ph2	A-Ph3	A-Ph4	A-Ph5	A-Ph6	A-Ph7	A-Ph8	A-Ph9	A-Ph10	A-Ph11	A-Ph12	A-Ph13	A-Ph14	A-Ph15	A-Ph16	B-AC1	B-AC2	B-AC3	B-AC4	B-AC5	B-AC6	B-AC7	B-AC8	B-AC9	B-AC10	B-AC11	B-AC12	B-AC13	B-AC14	B-AC15	B-AC16	B-DC1	B-DC2	B-DC3	B-DC4	B-DC5	B-DC6	B-DC7	B-DC8	B-DC9	B-DC10	B-DC11	B-DC12	B-DC13	B-DC14	B-DC15	B-DC16	B-Ph1	B-Ph2	B-Ph3	B-Ph4	B-Ph5	B-Ph6	B-Ph7	B-Ph8	B-Ph9	B-Ph10	B-Ph11	B-Ph12	B-Ph13	B-Ph14	B-Ph15	B-Ph16	aux-1	digaux	

1809.395	1	1	0	256	0.04602	0.26968	0.35246	0.35168	0.21346	0.15134	0.2446	0.2538	0.20222	0.15819	0.25071	0.46307	0.24184	0.2575	0.14943	0.28028	-0.19792	-0.98542	-0.98333	-0.68333	-1.2583	-0.94583	-0.73958	-1.5125	-0.52292	-0.94167	-1.1958	-0.62292	-1.275	-1.1625	-0.62917	-1.475	-22.398	154.629	44.213	121.620	-90.932	-23.767	129.580	105.094	147.550	96.715	-130.974	184.023	183.562	178.980	145.522	149.494	0.0012627	0.00081451	0.00010651	1060.9	2.5578e-06	2.897e-06	842.74	423.23	8.4988e-06	4.1329e-06	356.3	156.1	186.77	101.47	4.5237e-06	86.336	0.00024214	0.00023487	6.4377e-05	955.67	2.5271e-06	2.5745e-06	770.86	376.47	2.5383e-06	2.5849e-06	314.84	135.97	155.77	87.066	2.5363e-06	73.531	-29.300	54.807	-105.667	-149.221	8.842	-37.243	-150.900	-144.235	-40.926	-48.990	-147.804	-142.925	-140.017	-136.100	-83.902	-140.488	-8191	255	
1809.469	1	1	0	0	0.21348	0.040178	0.14254	0.23823	0.2335	0.22726	0.098571	0.15397	0.10145	0.17643	0.12752	0.2184	0.3759	0.38892	0.066868	0.21218	-0.14583	-0.73542	-1.2812	-0.56458	-1.2833	-1.0333	-0.7375	-1.5125	-0.56042	-0.8125	-1.2437	-0.57083	-1.3375	-1.2083	-0.63542	-1.4354	114.231	-158.268	162.935	-125.933	187.248	-66.511	117.892	123.126	186.924	-34.623	104.354	-152.871	189.453	-158.645	182.630	-46.895	0.001125	0.00055784	0.00017067	1057.1	7.4619e-06	3.3147e-06	845.97	425.07	3.1824e-06	6.5266e-06	356.03	156.54	186.88	102.19	1.2894e-06	86.712	0.00024131	0.00023219	6.3492e-05	955.35	2.5667e-06	2.5455e-06	771.94	377.59	2.5349e-06	2.5382e-06	315.21	136.77	156.07	87.492	2.5681e-06	74.041	-34.790	-34.880	-80.371	-149.250	-4.923	43.501	-150.896	-144.469	4.068	-34.626	-147.537	-143.352	-139.951	-135.878	24.384	-140.359	-8191	255	
1809.588	1	1	0	0	0.1782	0.17574	0.13939	0.24586	0.14745	0.28063	0.27189	0.17644	0.073262	0.030708	0.23806	0.21688	0.25621	0.26154	0.20406	0.23682	-0.29375	-0.63958	-1.2313	-0.625	-1.0396	-0.9375	-0.39167	-1.3229	-0.63125	-0.65833	-1.3	-0.73125	-1.1104	-1.4042	-0.53542	-1.2458	43.860	146.368	-56.124	-155.716	149.618	28.028	160.751	185.734	-62.867	-144.990	66.851	23.445	-131.205	156.979	90.429	88.824	0.0012603	0.00082783	0.00018028	1057.8	4.2582e-06	5.0527e-06	846.39	422.55	4.3421e-06	6.0893e-06	356.53	158.95	185.95	102.6	3.0368e-06	87.186	0.0002449	0.00023336	6.4626e-05	955.12	2.5639e-06	2.5501e-06	771.84	376.7	2.568e-06	2.5741e-06	316.17	137.69	156.36	87.699	2.5582e-06	74.301	-38.568	-93.684	-124.535	-149.418	-30.829	58.642	-151.271	-144.627	-19.580	-45.901	-147.508	-143.465	-139.926	-136.306	-92.530	-140.354	-8191	255	
1809.684	1	1	0	0	0.18754	0.20542	0.28497	0.41352	0.11516	0.20753	0.13292	0.1627	0.281	0.25101	0.053147	0.30642	0.071668	0.10715	0.1271	0.26534	-0.44583	-0.63333	-1.2021	-0.52292	-0.87708	-1.2938	-0.45417	-1.3583	-0.94583	-0.57292	-1.1896	-0.525	-0.90208	-1.3	-0.64583	-1.3229	130.386	-97.847	183.974	-160.412	-150.417	11.297	-114.131	-107.714	98.210	-98.605	-9.123	124.340	-39.884	90.942	112.061	66.323	0.0011303	0.00062825	0.0001748	1049.5	3.582e-06	3.6535e-06	839.75	424.13	7.4164e-06	5.2996e-06	353.25	157.46	186.57	102.53	3.7774e-06	87.268	0.00024386	0.00023664	6.4189e-05	950.91	2.5867e-06	2.5511e-06	767.63	376.93	2.5797e-06	2.5702e-06	313.64	136.67	156.17	87.677	2.5505e-06	74.002	-34.146	-45.670	-84.023	-149.481	52.180	-131.069	-150.825	-144.243	-48.613	-28.161	-147.164	-143.373	-140.158	-136.102	-104.042	-140.254	-8191	255	
1809.780	1	1	0	0	0.14092	0.090806	0.20673	0.26643	0.14775	0.090818	0.12282	0.37593	0.092279	0.062551	0.1927	0.28269	0.089336	0.16678	0.20473	0.37807	-0.63125	-0.40417	-1.5417	-0.75	-0.65417	-1.4854	-0.6	-1.3229	-1.0792	-0.60208	-1.4479	-0.81458	-0.96875	-1.625	-0.30625	-1.1521	132.041	-126.994	-153.298	165.151	11.844	19.986	15.529	74.370	-95.031	-15.877	54.464	165.138	121.168	172.031	-101.790	172.028	0.0013577	0.00039839	0.00014738	1055.4	1.3441e-06	5.9107e-06	840.24	422.58	8.3491e-06	3.9745e-06	353.96	157.55	187.27	102.83	5.6543e-06	87.071	0.0002436	0.00023408	6.5274e-05	950.25	2.5738e-06	2.5461e-06	765.86	376.57	2.5188e-06	2.5601e-06	313.34	136.35	156.38	87.888	2.5638e-06	73.991	-38.345	-39.013	-1.512	-149.450	-56.958	-1.769	-150.997	-144.459	-50.601	-16.715	-147.413	-143.333	-140.261	-136.079	-81.957	-140.311	-8191	255	
1809.901	1	1	0	0	0.22601	0.32079	0.18349	0.33996	0.12704	0.13727	0.19562	0.24234	0.26637	0.25101	0.06828	0.24964	0.21562	0.11142	0.14383	0.11663	-0.79167	-0.40208	-1.15	-0.8875	-0.87083	-1.3042	-0.40208	-1.2042	-1.1187	-0.46875	-1.4021	-0.79375	-0.87708	-1.6396	-0.61042	-1.1792	142.881	139.338	116.187	143.431	31.929	-88.300	1.957	159.709	185.999	39.152	-62.919	150.460	-119.479	-151.210	-44.469	101.674	0.0013163	0.00043442	9.659e-05	1047.8	4.3788e-06	7.7934e-06	834.56	421.96	5.5132e-06	6.5345e-06	355.48	156.94	185.97	102.66	4.4464e-06	87.266	0.00023997	0.00023093	6.4765e-05	948.46	2.5594e-06	2.5312e-06	764.63	375.93	2.5667e-06	2.5558e-06	313.68	136.54	156.13	87.858	2.5733e-06	74.312	-42.319	-72.334	-159.847	-149.467	-0.990	46.295	-151.274	-144.536	-68.152	-19.439	-147.482	-143.102	-139.970	-136.116	194.286	-140.176	-8191	255	
1809.997	1	1	0	0	0.33089	0.18361	0.29178	0.023476	0.23351	0.10452	0.14246	0.20172	0.093767	0.1631	0.16163	0.17869	0.30919	0.31551	0.10734	0.26219	-0.8375	-0.5375	-1.1667	-1.2	-0.53333	-1.3729	-0.81667	-1.0458	-1.4312	-0.50833	-1.3104	-1.2167	-0.74792	-1.5583	-0.62292	-1.2583	-134.406	68.977	19.178	99.322	-92.045	-115.961	164.294	129.408	37.901	40.104	86.856	-144.377	59.088	197.246	109.544	127.671	0.001193	0.00060845	0.00016577	1049.6	3.2634e-06	6.3371e-06	840.29	420.78	7.7887e-06	6.0147e-06	355.82	157.7	187.04	102.76	3.888e-06	87.813	0.00024256	0.00023235	6.5456e-05	948.28	2.5583e-06	2.5504e-06	766.47	375.69	2.5183e-06	2.5425e-06	314.76	137.07	156.38	88.024	2.5823e-06	74.712	-30.008	-32.150	-61.771	-149.487	21.963	7.489	-151.206	-144.209	-10.208	-24.922	-147.356	-143.030	-139.860	-135.965	-4.350	-140.498	-8191	255	
1810.068	1	1	0	0	0.18401	0.11902	0.056223	0.16069	0.25572	0.090265	0.19965	0.15663	0.26085	0.22712	0.29894	0.15152	0.34356	0.27636	0.22697	0.20739	-0.925	-0.37917	-1.1562	-1.3479	-0.55833	-1.3354	-0.89583	-0.9875	-1.3771	-0.47292	-1.1458	-1.2708	-0.7125	-1.6208	-0.55417	-0.83542	92.083	73.738	-9.191	153.972	-160.174	119.239	99.179	64.358	4.462	-9.968	120.072	-114.681	123.511	-154.392	186.642	-147.815	0.0012165	0.0004727	0.00013746	1055.6	2.1538e-06	6.5889e-07	840.07	422.86	7.6874e-06	8.9012e-06	359.59	158.84	187.55	103.02	6.7747e-06	88.117	0.00024348	0.00023439	6.4366e-05	952.25	2.5614e-06	2.5419e-06	768.24	376.94	2.5482e-06	2.5405e-06	316.39	137.44	156.63	88.287	2.5428e-06	74.748	-34.210	-103.582	-62.493	-149.488	0.842	142.557	-151.398	-144.392	-98.024	-40.195	-147.539	-143.253	-140.243	-136.228	-100.179	-140.194	-8191	255	
1810.165	1	1	0	0	0.15225	0.13322	0.046522	0.067373	0.088494	0.16457	0.25618	0.16451	0.26969	0.1553	0.36699	0.25254	0.40662	0.3095	0.069546	0.13358	-0.85208	-0.50833	-0.77292	-1.1938	-0.53333	-1.2625	-0.84583	-0.89375	-1.3375	-0.68958	-1.0604	-1.4104	-0.525	-1.4146	-0.91042	-0.41042	-130.401	160.556	110.705	156.002	-86.140	96.159	168.145	121.603	-105.212	184.126	-92.950	147.553	192.682	-148.346	120.575	-155.336	0.0012641	0.00014775	0.00019127	1053.3	5.7032e-06	1.2192e-06	837.89	420.84	2.8433e-06	3.5873e-06	355.27	157.7	187.7	103.34	9.0156e-06	87.244	0.0002427	0.00023326	6.4174e-05	950.41	2.5234e-06	2.5055e-06	765.28	375.67	2.512e-06	2.5322e-06	313.84	136.76	156.39	88.281	2.506e-06	74.228	-43.440	91.281	-122.169	-149.371	-54.133	-62.459	-150.951	-144.153	-93.242	-153.239	-147.736	-143.208	-139.969	-136.125	-99.832	-140.460	-8191	255	
1810.283	1	1	0	0	0.18764	0.13019	0.36252	0.14964	0.060179	0.18603	0.10563	0.12322	0.1203	0.13147	0.17594	0.24917	0.34984	0.15326	0.37349	0.15239	-0.87083	-0.62292	-0.8125	-1.3937	-0.47917	-1.0792	-0.8875	-0.625	-1.2896	-0.43125	-0.79375	-1.3583	-0.69583	-1.3125	-1.0938	-0.60625	37.509	79.795	20.151	106.925	122.679	-70.933	167.418	-138.169	31.214	-104.922	-39.926	-25.202	147.515	94.935	82.015	127.228	0.00128	0.0010095	5.3475e-05	1051.3	4.4679e-06	7.169e-06	838.7	422.62	1.0962e-05	4.1027e-06	355.07	156.81	185.58	103	5.239e-06	87.305	0.00024161	0.00023	6.3796e-05	948.63	2.5232e-06	2.499e-06	763.97	375.92	2.5356e-06	2.5063e-06	313.23	136.38	155.76	87.873	2.4875e-06	74.104	-34.996	-40.640	-77.173	-149.452	-47.805	-55.496	-151.005	-144.399	-23.545	-27.998	-147.578	-143.058	-140.110	-135.948	-21.122	-140.508	-8191	255	
1810.380	1	1	0	0	0.090461	0.14898	0.14167	0.11381	0.16355	0.1388	0.54476	0.19821	0.24329	0.062364	0.34123	0.29166	0.11093	0.20938	0.15951	0.19466	-1.0083	-0.66875	-0.74375	-1.2333	-0.68333	-0.99583	-1.0938	-0.60417	-1.25	-0.76667	-0.66875	-1.3771	-0.72083	-1.1917	-0.92292	-0.72083	84.033	-160.340	-24.516	-57.746	-98.836	194.414	142.355	148.848	-13.841	47.910	144.195	103.574	177.338	197.004	70.654	83.647	0.0012982	0.00025097	7.223e-05	1048.3	7.1859e-06	4.5867e-06	838.63	421.98	2.825e-06	1.0626e-05	353.66	157.85	186.25	102.63	5.101e-06	87.487	0.00024149	0.00022987	6.333e-05	947.71	2.5327e-06	2.5441e-06	764.62	375.95	2.5128e-06	2.5415e-06	314.24	136.66	155.79	87.785	2.524e-06	74.445	-29.841	-47.299	-76.586	-149.060	-7.948	-20.273	-151.486	-144.434	-35.064	11.643	-147.871	-143.195	-140.231	-136.182	-96.434	-140.849	-8191	255	
1810.476	1	1	0	0	0.020578	0.094831	0.37734	0.041133	0.14859	0.10813	0.038431	0.20756	0.051532	0.26128	0.1597	0.2675	0.27513	0.49779	0.19932	0.10597	-0.99583	-0.71875	-0.43958	-1.4542	-0.64375	-0.94167	-1.3396	-0.72292	-1.3479	-0.83542	-0.81875	-1.4229	-0.81458	-1.2646	-1.3625	-0.45	50.097	83.749	197.148	181.899	155.481	-54.068	46.155	160.436	-33.802	-116.273	-51.491	106.724	54.542	-139.293	-151.814	156.319	0.0013121	0.00056454	5.7093e-05	1050.2	6.5533e-06	7.2896e-06	840.66	422.53	5.7722e-06	7.5069e-06	356.65	158.21	187.21	103.26	5.543e-06	87.93	0.00024214	0.0002321	6.4652e-05	948.4	2.5556e-06	2.5483e-06	765.01	375.76	2.5617e-06	2.5486e-06	315.3	137.44	156.61	88.246	2.5473e-06	74.829	-41.638	-48.754	33.318	-149.328	35.678	-9.688	-150.988	-144.591	-21.434	-49.162	-147.365	-143.395	-139.970	-136.056	-114.562	-140.606	-8191	255	
1810.572	1	1	0	0	0.28344	0.28197	0.027598	0.33053	0.27645	0.070456	0.42756	0.34085	0.28105	0.12453	0.17458	0.34029	0.31822	0.27522	0.213	0.080498	-0.725	-1	-0.4625	-1.3354	-0.73958	-0.78125	-1.3458	-0.70417	-1.1583	-1.2563	-0.59167	-1.4854	-0.87292	-1.1792	-1.3292	-0.42292	62.502	-33.449	-8.383	141.715	-85.603	-40.509	147.699	72.979	-154.035	-125.817	183.140	-123.877	168.100	-153.791	-104.520	140.420	0.0011263	0.00052512	0.00014	1050	3.1345e-06	7.0057e-06	842.92	422.41	2.8605e-06	4.9528e-06	356.64	158.63	186.41	102.64	6.1459e-06	87.688	0.00024208	0.00023059	6.5149e-05	949.51	2.5658e-06	2.5436e-06	767.87	375.99	2.5672e-06	2.5621e-06	314.53	137.56	156.43	87.915	2.5241e-06	74.271	-45.221	-25.636	94.773	-149.535	-19.201	22.916	-151.227	-144.416	-30.126	-104.190	-147.333	-143.542	-140.321	-136.090	-20.584	-140.952	-8191	255	
1810.668	1	1	0	0	0.034708	0.24891	0.18669	0.10171	0.12864	0.11116	0.070829	0.1192	0.10912	0.30388	0.39455	0.36947	0.28055	0.54597	0.18164	0.19667	-0.59792	-1.0292	-0.36458	-1.325	-0.6875	-0.6125	-1.3125	-0.575	-1.0292	-1.0229	-0.48333	-1.1354	-0.96458	-0.84375	-1.4667	-0.57917	-96.058	91.347	-60.501	156.477	93.384	-55.467	158.590	105.979	64.185	131.002	49.777	181.893	-60.033	184.856	174.139	-149.656	0.0011107	0.00063403	0.00016458	1047.9	6.1284e-06	2.0915e-06	831.46	420.17	1.4391e-06	5.74e-06	353.59	156.81	184.27	101.93	7.189e-06	85.988	0.00024329	0.00023374	6.5468e-05	947.69	2.5483e-06	2.5532e-06	763.7	374.76	2.5605e-06	2.5668e-06	312.52	136.03	154.98	87.108	2.5882e-06	73.206	-33.988	-39.606	-107.060	-149.555	9.750	-70.677	-151.016	-144.775	-76.700	-48.523	-147.616	-143.695	-140.661	-136.308	-42.533	-140.803	-8191	255	
1810.764	1	1	0	0	0.13828	0.28261	0.070694	0.31977	0.17714	0.18671	0.11885	0.2398	0.19512	0.18712	0.19255	0.14413	0.38467	0.15293	0.25674	0.12003	-0.53958	-0.95208	-0.38125	-1.2563	-0.97292	-0.49375	-1.45	-0.61458	-0.83542	-1.2667	-0.30833	-1.075	-1.15	-0.69167	-1.1063	-0.89792	46.876	149.542	-93.531	124.408	-56.904	125.281	127.891	138.942	125.134	-131.947	137.262	169.509	144.052	175.315	193.683	-114.328	0.0012975	0.0011116	0.00021133	1048.2	5.0547e-06	2.1778e-06	837.69	420.93	3.3449e-06	6.9969e-06	350.25	154.46	183.23	100.85	5.2272e-06	85.015	0.0002458	0.00023431	6.5833e-05	950.45	2.6121e-06	2.5876e-06	763.83	374.71	2.6099e-06	2.598e-06	311.64	134.72	153.98	86.341	2.6074e-06	72.379	-38.874	-43.070	-79.254	-149.657	-39.030	-12.368	-150.747	-144.536	51.796	-81.606	-147.243	-143.272	-140.341	-136.098	-86.751	-140.422	-8191	255	
1810.860	1	1	0	0	0.098053	0.048457	0.076939	0.44662	0.22785	0.054782	0.18811	0.14174	0.30192	0.18204	0.14056	0.13966	0.19463	0.32108	0.10038	0.39071	-0.42292	-1.0208	-0.53125	-1.1229	-1.2125	-0.55625	-1.4396	-0.72083	-0.73333	-1.2125	-0.70417	-1.3292	-1.1437	-0.84167	-1.3792	-1.0812	13.651	29.039	155.996	165.034	101.536	187.568	146.462	141.377	89.128	120.609	109.258	112.503	1.030	175.525	20.396	147.458	0.0011709	0.00063752	6.9996e-05	1055.9	5.1223e-06	4.3533e-06	834.14	420.73	2.6403e-06	8.1841e-06	350.16	152.99	182.63	100.07	2.213e-06	84.739	0.00024732	0.00023596	6.7125e-05	952.29	2.6176e-06	2.6385e-06	768.41	374.63	2.6347e-06	2.6161e-06	311.63	134.07	153.27	85.805	2.642e-06	72.228	-33.978	-84.830	-91.774	-149.301	-19.461	66.341	-151.145	-144.482	-36.094	11.467	-147.600	-143.352	-140.164	-136.104	-160.715	-140.582	-8191	255	
1810.981	1	1	0	0	0.21404	0.17468	0.10172	0.24266	0.21563	0.22506	0.35159	0.098008	0.17012	0.28402	0.09775	0.16554	0.27896	0.16836	0.16783	0.20899	-0.18333	-1.0521	-0.47292	-0.9875	-1.2313	-0.40208	-1.1417	-0.85208	-0.48958	-1.1292	-0.69792	-0.9	-1.1729	-0.73958	-1.1396	-0.93542	4.785	86.731	25.332	195.636	163.111	104.983	-153.211	-61.743	-95.820	98.663	159.542	32.693	162.084	-161.074	-1.366	184.947	0.0012903	4.0399e-05	0.00010803	1055.2	1.27e-06	8.8546e-07	849.31	422.82	2.9095e-06	3.6048e-06	356.4	154.31	183.23	100.48	5.8662e-06	84.801	0.00024718	0.00024021	6.7312e-05	956.4	2.6044e-06	2.6146e-06	774.93	376.63	2.6156e-06	2.6103e-06	314.93	135.12	153.8	86.343	2.629e-06	72.664	-36.368	65.890	-61.758	-149.427	-117.525	182.892	-150.940	-144.811	6.286	-136.100	-147.727	-143.577	-140.188	-136.191	-80.283	-140.658	-8191	255	
1811.075	1	1	0	0	0.18603	0.30301	0.12078	0.20167	0.13407	0.13797	0.33756	0.3526	0.39176	0.1578	0.1197	0.13901	0.093452	0.41303	0.22904	0.065639	-0.10417	-1.2875	-0.56667	-0.87917	-1.0938	-0.45625	-1.3354	-1.2042	-0.39583	-1.4438	-0.78333	-0.78333	-1.4562	-0.79375	-1.0979	-1.2	-159.377	70.163	56.451	169.414	-146.446	-110.066	157.185	-155.921	144.803	32.516	137.813	62.942	-28.698	172.621	68.902	-159.492	0.0011085	0.00049648	2.9636e-05	1063	5.4721e-06	3.0276e-07	851.36	425.04	7.0559e-06	5.3161e-06	356.05	153.39	183.35	100.72	8.5562e-06	84.633	0.00024768	0.00023697	6.6606e-05	959.69	2.5992e-06	2.6125e-06	777.54	377.84	2.6162e-06	2.6072e-06	315.64	134.51	153.91	86.232	2.6412e-06	72.18	-44.623	-36.223	-95.507	-149.518	3.432	85.324	-151.226	-144.590	-58.090	-47.354	-148.013	-143.152	-140.128	-136.260	-89.902	-140.493	-8191	255	
1811.171	1	1	0	0	0.096453	0.12268	0.022077	0.053242	0.20049	0.074837	0.16411	0.094574	0.23367	0.17614	0.12979	0.11506	0.09166	0.41949	0.1813	0.29676	-0.12083	-1.1667	-0.40417	-0.7875	-1.1771	-0.55417	-1.2021	-1.2563	-0.46667	-1.2021	-0.90625	-0.65625	-1.2188	-0.73542	-1.2208	-1.4021	85.199	-159.538	-26.252	196.347	-145.977	-102.161	160.907	130.324	76.094	115.612	184.216	-129.680	67.111	157.306	173.654	165.381	0.0011159	0.00024862	8.2536e-05	1052.7	4.4332e-06	5.2286e-07	844.94	421.57	8.0003e-06	6.5445e-06	353.97	153.33	181.92	99.902	6.6965e-06	84.318	0.00024925	0.00023586	6.58e-05	956.25	2.6114e-06	2.5971e-06	773.66	376.98	2.6053e-06	2.593e-06	313.17	133.63	152.72	85.648	2.5961e-06	71.711	-37.754	104.368	-81.804	-149.527	-7.575	-31.044	-151.230	-144.663	5.151	46.392	-147.664	-143.359	-140.232	-136.154	32.079	-140.514	-8191	255	
1811.268	1	1	0	0	0.19527	0.30701	0.016551	0.20746	0.22144	0.1416	0.18177	0.25607	0.081501	0.090726	0.27322	0.12253	0.19758	0.24817	0.094086	0.036951	0.0625	-1.2729	-0.84167	-0.66042	-1.4271	-0.47708	-1.1458	-1.2938	-0.33958	-1.2458	-0.81042	-0.61667	-1.3854	-0.81875	-0.84583	-1.2417	69.177	-89.990	-130.568	167.658	86.331	93.227	-142.454	141.359	59.694	35.521	-133.120	139.747	-129.007	-137.224	-94.634	195.746	0.0013034	0.00083025	0.00015405	1059.7	2.7753e-06	4.5091e-06	839.29	421.56	3.5894e-06	1.1334e-05	353.87	153.69	182.24	100.23	1.8866e-06	84.18	0.00025054	0.00023459	6.5328e-05	957.42	2.5927e-06	2.5986e-06	771.43	375.91	2.604e-06	2.5881e-06	312.89	133.92	152.78	85.651	2.5897e-06	71.689	-32.531	-47.602	-72.954	-149.397	-72.984	94.665	-151.322	-144.596	-81.536	-28.917	-147.890	-143.476	-140.258	-136.128	-16.357	-140.396	-8191	255	
1811.364	1	1	0	0	0.088458	0.27543	0.034906	0.23452	0.077846	0.22473	0.14856	0.35397	0.090516	0.18972	0.097388	0.21712	0.19699	0.5107	0.29673	0.235	-0.23333	-0.95	-0.92708	-0.63958	-1.2854	-0.68542	-0.8875	-1.2271	-0.675	-1.0271	-1.2292	-0.5125	-1.4083	-0.85	-0.58958	-1.4479	171.014	50.520	192.803	123.133	174.776	105.510	156.741	125.666	-41.645	103.170	-152.751	67.168	134.441	185.907	-118.090	149.006	0.001015	0.00058854	6.3237e-05	1055.9	7.039e-06	2.3069e-06	847.02	422.49	8.7087e-06	1.1294e-05	355.26	153.62	182.74	99.765	5.2573e-06	84.622	0.00024771	0.00023676	6.6148e-05	955.1	2.6131e-06	2.6074e-06	772.1	376.44	2.6211e-06	2.618e-06	313.54	134.03	153.09	85.436	2.611e-06	72.136	-33.407	-23.074	-143.390	-149.230	-119.903	-17.904	-150.916	-144.653	-26.720	-61.763	-147.604	-143.161	-140.031	-136.031	-96.057	-140.455	-8191	255	
1811.460	1	1	0	0	0.11921	0.21081	0.034214	0.12287	0.14269	0.1744	0.29162	0.13114	0.2407	0.11809	0.18272	0.11889	0.23587	0.3322	0.071153	0.20122	-0.010417	-1.0562	-1.0417	-0.45625	-1.2271	-0.74792	-0.81458	-1.5708	-0.37708	-1.0312	-1.2812	-0.59375	-1.5771	-1.1313	-0.59375	-1.3833	27.028	-59.361	-43.329	166.825	-114.466	-139.014	-97.735	117.145	22.394	129.349	120.285	69.396	147.339	184.790	-126.741	126.174	0.00099692	0.0016579	0.00014931	1053	3.0829e-06	3.7434e-06	844	421.83	7.1732e-06	2.692e-06	358.48	154.55	183.11	100.13	1.1867e-05	84.817	0.00024687	0.00023639	6.5906e-05	954.74	2.6393e-06	2.5702e-06	774.19	376.75	2.6097e-06	2.6373e-06	315.23	134.69	153.48	85.789	2.6063e-06	72.262	-39.313	-57.947	-104.677	-149.075	35.844	18.708	-151.043	-144.352	-81.391	-134.685	-147.681	-143.254	-140.091	-136.162	-56.796	-140.100	-8191	255	
1811.581	1	1	0	0	0.18812	0.22918	0.10271	0.18393	0.07068	0.40918	0.24769	0.16262	0.13787	0.19109	0.12272	0.20908	0.32284	0.27852	0.2659	0.04275	-0.20208	-0.89167	-1.2333	-0.4875	-1.1063	-0.98958	-0.73125	-1.6729	-0.69583	-0.90208	-1.3458	-0.78542	-1.2229	-1.1333	-0.2625	-1.5417	92.337	-150.565	168.818	154.456	72.803	185.319	169.100	118.043	63.476	132.046	-159.417	90.645	192.799	144.454	70.253	50.237	0.0014637	0.00077677	1.8482e-05	1050.5	6.6318e-06	4.9148e-06	844.47	420.92	7.5504e-06	8.8514e-06	352.72	153.29	182.59	99.874	6.4294e-06	84.138	0.0002487	0.00023801	6.5991e-05	953.91	2.6135e-06	2.5987e-06	772.9	375.94	2.6181e-06	2.6029e-06	312.6	133.72	152.87	85.633	2.6356e-06	71.77	-37.854	-60.134	-20.970	-148.920	59.957	-91.494	-151.251	-144.536	6.917	-65.577	-148.004	-143.067	-140.454	-136.058	-54.649	-140.363	-8191	255	
1811.675	1	1	0	0	0.23894	0.23962	0.18582	0.20077	0.027727	0.24248	0.082822	0.40134	0.22442	0.39499	0.064939	0.3598	0.11047	0.14412	0.13371	0.18449	-0.31042	-0.56667	-1.3958	-0.4625	-0.91875	-0.91875	-0.49792	-1.4708	-0.77708	-0.72292	-1.6417	-0.6125	-1.0812	-1.3312	-0.53333	-1.4062	82.397	169.612	-77.158	153.956	-29.063	131.603	-43.830	119.799	120.525	2.054	-86.403	116.898	156.289	-111.669	66.069	142.841	0.0013261	0.00094024	0.00020019	1054.8	2.4382e-06	3.8778e-06	841.11	420.91	1.1212e-05	4.2307e-06	353.85	152.58	183.18	100.29	6.1083e-06	85.381	0.0002469	0.00023549	6.7127e-05	953.69	2.6181e-06	2.5627e-06	768.99	375.79	2.6034e-06	2.6032e-06	312.25	133.63	153.56	85.823	2.6366e-06	72.387	-44.510	-75.562	-106.270	-149.322	-2.307	-53.349	-150.925	-144.457	-25.906	-71.219	-147.569	-142.986	-139.981	-136.087	2.325	-140.376	-8191	255	
1811.771	1	1	0	0	0.12754	0.12629	0.14618	0.36334	0.12027	0.10154	0.31767	0.2314	0.084632	0.10454	0.22164	0.34609	0.18427	0.21539	0.14114	0.062803	-0.40833	-0.5375	-1.2125	-0.7	-0.8375	-1.1437	-0.68125	-1.5458	-0.82708	-0.65	-1.4354	-0.75208	-1.1938	-1.4167	-0.67917	-1.4271	-8.857	113.369	-18.551	184.085	-115.328	-131.683	119.790	138.955	109.428	127.712	149.998	-117.360	89.305	130.695	-76.010	-116.778	0.0011286	0.00048055	0.00029508	1052.1	2.404e-06	4.3189e-06	838.36	423.13	7.8179e-06	4.1391e-06	353.65	154.37	183.93	100.48	5.2575e-06	85.576	0.00024575	0.00023834	6.5994e-05	950.8	2.6304e-06	2.6002e-06	765.7	376.05	2.6015e-06	2.6392e-06	312.64	134.19	153.83	86.239	2.6156e-06	72.681	-31.916	12.024	-90.106	-149.178	-149.160	-94.537	-151.052	-144.435	-23.016	0.119	-147.420	-143.212	-139.985	-136.191	-33.184	-140.543	-8191	255	
1811.867	1	1	0	0	0.13796	0.084109	0.2282	0.24642	0.23971	0.24063	0.15548	0.31909	0.26834	0.35207	0.13236	0.17292	0.52958	0.4839	0.20127	0.44374	-0.4625	-0.46667	-1.2167	-0.79792	-0.93333	-1.325	-0.69792	-1.2958	-1.075	-0.65208	-1.5583	-0.84583	-0.94792	-1.5667	-0.52917	-1.4438	161.968	-34.221	51.226	56.451	-55.676	180.854	138.153	125.851	135.876	70.478	90.466	24.690	174.794	-147.771	169.663	154.531	0.0011954	0.00073263	0.00010946	1048.7	1.9658e-06	5.9951e-06	841.42	421.54	4.3111e-06	5.7707e-06	352.23	154.94	185.06	101.29	5.4682e-06	85.995	0.00024656	0.00024062	6.6592e-05	950.62	2.6147e-06	2.6022e-06	768.15	375.89	2.6062e-06	2.6257e-06	314.29	135.32	154.72	86.777	2.6333e-06	73.426	-34.698	-29.213	-114.652	-149.401	40.891	-16.861	-151.038	-144.668	-51.128	11.898	-147.642	-143.110	-139.824	-136.050	-79.626	-140.458	-8191	255	
1811.941	1	1	0	0	0.084973	0.19838	0.23619	0.1947	0.076308	0.19353	0.27158	0.26645	0.38974	0.21744	0.14622	0.070197	0.1228	0.35937	0.25862	0.10642	-0.61042	-0.49167	-1.2771	-1.0167	-0.58125	-1.3188	-0.37083	-1.2833	-1.0438	-0.51458	-1.3125	-0.92292	-0.81042	-1.5521	-0.63958	-1.1229	39.970	47.127	59.392	-120.373	50.646	153.708	26.821	-156.649	-12.919	-119.872	136.123	165.222	105.215	142.433	95.283	-120.523	0.0010348	0.0005304	7.1382e-05	1055.5	7.3543e-06	2.0547e-06	843.67	422.46	6.547e-06	5.2983e-06	356.83	156.68	184.58	102.36	6.9907e-06	86.853	0.00024614	0.0002412	6.6436e-05	953.47	2.6146e-06	2.5922e-06	770.75	377.36	2.594e-06	2.6156e-06	316.06	136.42	155.03	87.559	2.599e-06	73.951	-36.176	-31.271	186.663	-149.630	-20.370	-162.144	-150.939	-144.333	-91.332	48.044	-147.801	-143.229	-140.188	-136.179	-91.545	-140.296	-8191	255	
1812.060	1	1	0	0	0.09554	0.36917	0.17909	0.30092	0.20196	0.34762	0.098626	0.14366	0.22018	0.30155	0.10824	0.20894	0.070518	0.33151	0.10397	0.12454	-0.78125	-0.19375	-0.97708	-0.93542	-0.56667	-1.3521	-0.68125	-1.1271	-1.15	-0.5125	-1.2771	-0.98542	-0.73333	-1.35	-0.65417	-1.0438	-96.634	-122.266	-84.159	147.395	115.780	165.350	-153.153	179.965	71.786	-74.017	132.928	-157.842	192.068	148.219	183.186	98.408	0.001495	0.00045189	0.00014858	1048.2	4.5526e-06	1.7862e-06	837.12	423.06	2.3373e-06	2.8167e-06	356.45	156.67	185.8	102.43	8.118e-06	86.884	0.00024524	0.00023906	6.5269e-05	950.77	2.5998e-06	2.5544e-06	765.39	376.97	2.5735e-06	2.579e-06	314.67	135.95	155.74	87.696	2.5681e-06	73.887	-43.126	146.467	-68.680	-149.459	-86.754	128.745	-151.073	-144.441	143.479	-101.053	-147.526	-143.336	-140.293	-136.317	-126.004	-140.593	-8191	255	
1812.156	1	1	0	0	0.22852	0.33123	0.0094551	0.30012	0.29322	0.1999	0.056524	0.33829	0.17043	0.14195	0.39204	0.19217	0.34738	0.10703	0.2302	0.28461	-0.88125	-0.28125	-0.98958	-0.9875	-0.50833	-1.3417	-0.81042	-0.79583	-1.25	-0.35	-1.1437	-1.2625	-0.53958	-1.575	-0.7	-0.81667	-35.757	154.114	-132.232	195.230	6.700	-97.228	-96.220	106.265	68.702	50.411	-134.729	142.556	170.959	-43.084	-2.123	191.168	0.0013682	0.0005585	9.7013e-05	1052.2	1.9003e-06	7.2072e-06	837.05	424.04	3.0281e-06	4.6869e-06	354.33	156.46	185.42	102.8	7.818e-06	86.782	0.00024574	0.0002332	6.5202e-05	948.59	2.5616e-06	2.5438e-06	763.79	377.22	2.5336e-06	2.5802e-06	314.58	136.4	155.64	87.851	2.5473e-06	74.118	-44.125	-57.664	176.984	-149.615	-73.407	-3.845	-151.154	-144.504	-141.090	19.973	-147.597	-143.364	-140.409	-136.238	-55.008	-140.419	-8191	255	
1812.252	1	1	0	0	0.055938	0.14249	0.17249	0.26341	0.29873	0.27782	0.33906	0.077641	0.10021	0.20643	0.11419	0.1334	0.15188	0.30038	0.11154	0.21581	-0.86667	-0.34167	-1.0729	-1.1688	-0.40417	-1.1667	-0.82292	-0.68958	-1.2833	-0.45	-1.0479	-1.2667	-0.45208	-1.575	-0.85417	-0.7375	126.465	-40.921	85.008	187.516	65.016	-94.931	149.902	106.196	149.979	161.720	125.655	122.069	173.642	164.727	49.202	-95.512	0.001327	0.0009753	7.5225e-05	1047.9	6.5279e-06	9.8773e-07	832.75	423.56	4.964e-06	3.2015e-06	355.04	155.97	185.52	102.86	3.0233e-06	87.675	0.00024326	0.00023346	6.5375e-05	947.2	2.5523e-06	2.553e-06	763.05	376.61	2.5438e-06	2.5387e-06	314.31	136.34	155.43	87.894	2.5383e-06	74.352	-43.864	-35.894	87.677	-149.475	-4.328	-132.219	-151.006	-144.574	-15.967	-114.354	-147.653	-143.412	-140.332	-136.165	-43.514	-140.446	-8191	255	
1812.348	1	1	0	0	0.057707	0.085379	0.11878	0.22205	0.21101	0.094748	0.17262	0.40113	0.091291	0.175	0.047687	0.29381	0.090174	0.14256	0.1583	0.19268	-0.86458	-0.42292	-0.98542	-1.2917	-0.4375	-1.0583	-0.95833	-0.75208	-1.375	-0.67708	-0.87917	-1.2687	-0.41875	-1.2437	-0.92083	-0.79792	122.245	-130.776	-130.665	193.823	182.061	-13.611	168.597	171.325	166.639	-40.056	93.122	184.255	120.942	-7.573	-75.153	137.890	0.00092038	0.000607	0.00021724	1046.1	9.3579e-06	4.2537e-06	842.81	423.97	4.0228e-06	3.9577e-06	358.41	158.56	187.28	102.88	7.3699e-06	88.09	0.00024168	0.00023134	6.4545e-05	945.27	2.5921e-06	2.5632e-06	766.53	377.3	2.5699e-06	2.5297e-06	315.93	137.37	155.81	88.091	2.5568e-06	74.749	-39.291	-77.819	-121.251	-149.398	-44.075	0.361	-151.217	-144.498	-42.711	-92.292	-147.510	-143.480	-140.164	-136.060	-110.763	-140.320	-8191	255	
1812.467	1	1	0	0	0.044144	0.32945	0.1406	0.25005	0.10121	0.031482	0.25685	0.28245	0.30127	0.22037	0.18664	0.11032	0.12981	0.23876	0.1549	0.16417	-1.0833	-0.62917	-0.51458	-1.2437	-0.51667	-1.025	-1.2396	-0.52917	-1.1625	-0.775	-0.62708	-1.3375	-0.52083	-1.2396	-1.2396	-0.70417	-90.091	-58.021	-97.247	87.209	32.107	-94.770	160.601	128.751	-154.665	-116.448	161.439	-91.416	-56.799	151.215	8.122	178.512	0.0012127	0.00032786	0.00011901	1049.4	1.0773e-05	5.8538e-06	840.23	422.08	8.1462e-06	3.6872e-06	357.09	157.76	186.21	102.59	1.4402e-05	87.229	0.00024365	0.00023405	6.5107e-05	947.3	2.5427e-06	2.5781e-06	766.55	376.07	2.5613e-06	2.5176e-06	314.87	137.23	155.89	87.942	2.5502e-06	74.28	-39.291	-53.406	-78.257	-149.504	16.454	-58.496	-151.025	-144.316	-27.903	-5.477	-147.458	-143.163	-140.119	-136.329	-81.161	-140.389	-8191	255	
1812.563	1	1	0	0	0.17361	0.20904	0.072543	0.17034	0.060534	0.10102	0.21917	0.13983	0.16548	0.094978	0.15014	0.067517	0.22038	0.37157	0.31668	0.24898	-0.72708	-0.81458	-0.6	-1.4937	-0.475	-0.92917	-1.4062	-0.60625	-1.15	-1.1271	-0.67083	-1.425	-0.75625	-1.0479	-1.1688	-0.62292	4.031	192.555	150.825	169.287	-13.322	101.554	107.877	182.591	95.759	-48.959	11.189	142.037	73.387	-154.439	123.258	66.957	0.0014353	0.00069481	0.00015823	1054.1	5.269e-06	2.6222e-06	833.99	420.28	2.2218e-06	4.3604e-06	354.59	157.46	186.02	102.52	1.135e-05	86.955	0.00024218	0.00023545	6.5164e-05	948.08	2.5628e-06	2.5449e-06	760.49	374.71	2.5597e-06	2.5487e-06	313.9	136.44	155.39	87.633	2.5654e-06	73.886	-36.413	-84.700	-134.551	-149.144	-54.488	-45.485	-151.273	-144.472	165.332	8.170	-147.446	-143.423	-140.147	-135.966	-55.919	-140.513	-8191	255	
1812.661	1	1	0	0	0.28804	0.12858	0.10857	0.41847	0.25521	0.10314	0.35619	0.24321	0.079237	0.20751	0.19753	0.13235	0.02891	0.48111	0.24405	0.35418	-0.91667	-0.88125	-0.55833	-1.2958	-0.63542	-0.78542	-1.3708	-0.37292	-1.0271	-1.175	-0.26042	-1.4333	-0.79167	-0.87917	-1.2083	-0.53125	153.315	-90.963	-156.834	154.863	-103.279	73.915	129.695	180.234	61.331	-42.195	82.572	-70.091	68.228	191.468	164.972	157.491	0.0013349	0.00050539	0.00017324	1047.6	8.1073e-06	9.5471e-06	834.48	419.88	5.1806e-06	7.2755e-06	353.16	156.68	186.1	102.71	7.8542e-06	87.539	0.00024334	0.0002316	6.5906e-05	945.57	2.5663e-06	2.5412e-06	761.32	374.72	2.5599e-06	2.5711e-06	313.82	136.27	155.77	87.878	2.5714e-06	74.21	-32.581	-147.666	-52.720	-149.288	-39.553	-5.041	-151.032	-144.526	37.672	-53.636	-147.657	-143.072	-140.230	-136.020	-71.251	-140.445	-8191	255	
1812.755	1	1	0	0	0.10425	0.15414	0.19087	0.17741	0.17138	0.13985	0.096262	0.35689	0.56433	0.026655	0.15815	0.33975	0.38831	0.39344	0.28913	0.22806	-0.69792	-0.98333	-0.40833	-1.3271	-0.9	-0.58958	-1.4042	-0.85208	-0.9375	-1.2958	-0.60625	-1.5208	-0.90417	-0.74792	-1.3708	-0.71042	69.151	148.847	-5.648	138.085	-105.865	-62.170	-128.421	151.146	-109.110	166.922	126.434	87.208	149.598	-120.026	60.774	180.911	0.0011607	0.00094519	0.00010804	1042	3.769e-06	4.5678e-06	833.02	419.96	9.5677e-06	8.1466e-06	357.52	157.52	185.54	103.35	4.735e-06	87.535	0.00024599	0.00023373	6.5476e-05	943.56	2.5606e-06	2.5816e-06	763.24	374.95	2.5627e-06	2.5353e-06	314.5	136.91	155.65	88.216	2.5877e-06	74.801	-32.957	-10.721	-99.618	-149.292	-42.295	-49.639	-150.969	-144.649	15.186	-10.947	-147.712	-143.056	-140.153	-135.944	-70.117	-140.484	-8191	255	
1812.851	1	1	0	0	0.12379	0.15975	0.13309	0.20069	0.25209	0.16566	0.1288	0.41739	0.15868	0.1294	0.30701	0.067922	0.090337	0.23421	0.22333	0.19731	-0.56667	-1.1146	-0.54375	-1.2771	-0.71458	-0.6	-1.4438	-1.0146	-0.87708	-1.0833	-0.55208	-1.4125	-1.1083	-0.69167	-1.2479	-0.59167	141.525	-147.682	-59.818	85.898	80.645	134.468	37.164	188.275	-12.419	-7.836	-157.624	2.056	-106.865	131.176	-146.901	166.972	0.001539	0.00045983	0.00013302	1048.5	7.5861e-06	1.4128e-06	838.42	424.04	6.3205e-06	2.4099e-06	358.04	158.5	186.35	103.04	1.4857e-05	88.812	0.00024453	0.00023375	6.5299e-05	945.92	2.5662e-06	2.569e-06	766.64	376.45	2.5652e-06	2.5454e-06	316.65	137.77	156.15	88.481	2.5701e-06	75.524	-41.279	-90.408	169.669	-148.893	-30.134	-86.037	-150.974	-144.687	-50.260	-70.276	-147.256	-143.153	-140.073	-135.796	-52.632	-140.585	-8191	255	
1812.948	1	1	0	0	0.15264	0.082921	0.20608	0.16726	0.24818	0.17331	0.071335	0.16392	0.14191	0.16617	0.25981	0.01491	0.1566	0.37792	0.29488	0.2388	-0.24167	-1.2875	-0.55208	-1.2021	-0.98958	-0.61042	-1.2667	-0.93542	-0.70417	-1.4542	-0.75833	-1.1417	-1.1458	-0.58333	-1.3438	-0.95417	-52.733	-148.912	45.932	140.261	104.927	-54.377	-107.292	47.066	-103.588	114.929	-108.836	-20.987	138.375	147.142	34.006	149.049	0.0013923	0.00059634	0.00018129	1050.8	1.0189e-05	3.5238e-06	841.76	423.32	9.3749e-07	4.7481e-06	357.5	159.66	186.44	103.69	6.4769e-06	88.462	0.0002463	0.00023349	6.4789e-05	948.21	2.5558e-06	2.5507e-06	768.21	377.36	2.5696e-06	2.5435e-06	316.45	138.34	156.36	88.702	2.523e-06	75.093	-38.198	-60.764	-68.121	-149.317	-18.701	-48.527	-150.853	-144.754	25.525	-5.718	-147.528	-143.168	-140.445	-136.356	-29.490	-140.789	-8191	255	
1813.068	1	1	0	0	0.11066	0.30403	0.16865	0.2757	0.20131	0.19634	0.41104	0.18597	0.10878	0.06137	0.33441	0.089825	0.18834	0.245	0.15368	0.24352	-0.19583	-1.325	-0.475	-1.1167	-0.91042	-0.44792	-1.4104	-1.075	-0.5	-1.2812	-0.60833	-1.0625	-1.3021	-0.62292	-1.0646	-1.0396	-10.616	94.461	-60.323	130.412	62.139	-53.752	175.831	128.586	165.639	139.849	132.414	175.648	81.078	-146.568	-55.425	161.593	0.0012919	0.00068579	0.00011833	1049.8	5.6401e-06	2.2376e-06	840.72	423.22	8.9406e-06	4.3536e-06	358.09	158.17	186.02	103.23	6.5589e-06	87.45	0.00024313	0.00023068	6.3879e-05	946.22	2.5294e-06	2.5374e-06	764.5	376.92	2.5584e-06	2.5173e-06	315.14	137.14	155.77	88.381	2.5163e-06	74.421	-37.121	-64.421	-155.398	-149.539	-24.729	50.858	-150.588	-144.546	-5.642	-97.840	-147.758	-143.064	-140.095	-136.056	-65.271	-140.425	-8191	255	
1813.164	1	1	0	0	0.31657	0.17329	0.17187	0.23131	0.085269	0.26501	0.35093	0.09703	0.23329	0.32571	0.22452	0.24535	0.20502	0.41991	0.21557	0.12064	-0.20208	-1.3125	-0.43333	-0.8875	-1.3271	-0.37917	-1.2292	-1.1604	-0.36875	-1.2458	-0.82917	-0.67917	-1.5042	-0.60833	-1.1604	-1.3167	141.858	128.089	81.892	180.183	186.848	0.017	194.486	107.124	-11.079	-84.575	-143.783	155.272	-33.028	151.709	-6.884	142.573	0.001216	0.00048264	5.5386e-05	1045.2	1.3012e-06	4.9958e-07	844.28	421.96	9.5217e-06	6.6755e-06	357.84	157.88	186.2	103.34	7.1028e-06	88.095	0.000243	0.00023195	6.4371e-05	945.74	2.5289e-06	2.5204e-06	765.87	376.2	2.5398e-06	2.5014e-06	314.82	137.08	155.81	88.362	2.5522e-06	74.66	-30.502	-40.686	24.449	-149.309	-128.471	-87.639	-150.964	-144.198	8.218	-18.755	-147.748	-143.428	-140.260	-136.069	-51.892	-140.799	-8191	255	
1813.261	1	1	0	0	0.20927	0.1086	0.22323	0.3141	0.14063	0.15071	0.18999	0.13264	0.078501	0.099854	0.24351	0.32228	0.13799	0.29649	0.086373	0.17562	-0.13542	-1.4292	-0.57292	-0.68958	-1.4208	-0.4	-1.2104	-1.1979	-0.44167	-1.1833	-0.81667	-0.71458	-1.3833	-0.81875	-0.89583	-1.0938	122.662	-58.771	61.276	140.330	28.360	-102.706	-115.568	171.550	-106.335	-10.618	-156.045	194.022	-158.333	-149.621	167.164	-160.512	0.0012329	0.00086105	0.00021427	1050.8	8.8503e-06	4.2414e-06	841.74	421.98	6.0474e-06	4.2022e-06	358.25	158.23	186.45	103.38	2.8353e-06	88.234	0.00024062	0.00023066	6.3779e-05	944.71	2.5551e-06	2.5374e-06	766.64	376.38	2.5505e-06	2.5456e-06	316.32	137.59	156.02	88.365	2.5615e-06	74.979	-26.693	-91.972	-132.110	-149.282	12.113	11.601	-150.955	-144.462	-63.578	39.249	-147.573	-143.369	-140.124	-136.064	-46.069	-140.692	-8191	255	
1813.357	1	1	0	0	0.22322	0.063536	0.23442	0.19517	0.058659	0.036215	0.2525	0.18866	0.088367	0.087787	0.30082	0.38103	0.15855	0.35589	0.075144	0.22399	-0.089583	-1.2042	-1.0063	-0.575	-1.2042	-0.58958	-0.94792	-1.4583	-0.525	-1.0771	-0.91042	-0.66458	-1.2292	-0.75417	-0.7625	-1.4083	-18.485	33.077	145.956	196.979	127.030	-160.806	76.095	34.403	-34.456	-115.354	190.446	-125.215	-126.438	132.757	-22.686	196.444	0.0013875	0.00024918	0.0002067	1048.8	2.1934e-06	4.2056e-06	842.56	422.02	2.3849e-06	2.868e-06	355.39	158.33	187.25	103.01	6.2672e-06	88.766	0.00024608	0.0002343	6.4469e-05	945.53	2.5652e-06	2.568e-06	767.75	376.37	2.5904e-06	2.5406e-06	316.3	138.13	156.3	88.367	2.5902e-06	75.316	-24.934	157.002	-89.290	-148.985	-36.780	65.342	-150.729	-144.549	44.381	-34.955	-147.505	-143.168	-140.099	-135.907	-74.313	-140.281	-8191	255	
1813.453	1	1	0	0	0.25913	0.20764	0.19218	0.42222	0.32306	0.20558	0.13652	0.21014	0.4012	0.36591	0.17256	0.32137	0.085993	0.1832	0.22135	0.24513	-0.0041667	-1.1812	-1.1021	-0.55417	-1.3646	-0.61458	-0.9125	-1.4854	-0.60417	-1.1063	-1.0167	-0.58333	-1.1833	-0.825	-0.56042	-1.4396	160.639	69.287	173.268	152.079	-5.967	-91.207	117.722	171.186	10.940	-122.391	-118.989	140.378	-52.466	-133.431	81.086	95.572	0.0012888	0.00057864	7.6295e-05	1046.8	2.424e-06	5.5391e-06	842.07	422.24	1.0364e-05	4.8021e-06	355.68	158.69	186.89	103.52	2.9913e-06	88.142	0.00024456	0.00023295	6.4951e-05	945.98	2.5913e-06	2.5778e-06	767.7	376.13	2.5843e-06	2.5647e-06	315.56	137.75	156.12	88.467	2.574e-06	74.974	-39.420	-69.089	-127.440	-149.286	56.337	-20.810	-150.701	-144.159	-49.160	-13.258	-147.411	-143.185	-139.863	-136.238	-155.066	-140.198	-8191	255	
1813.547	1	1	0	0	0.26513	0.17509	0.22153	0.24589	0.1565	0.11994	0.070597	0.21271	0.079455	0.093557	0.31238	0.20925	0.19957	0.28483	0.34624	0.28199	0.0125	-1.0229	-0.95833	-0.5	-1.2375	-0.74583	-0.825	-1.6063	-0.4875	-1.0646	-1.2729	-0.62292	-1.3583	-1.075	-0.6875	-1.4292	104.163	-4.091	77.909	-152.423	-114.039	32.237	-96.657	185.933	21.817	-38.248	186.482	127.164	-126.422	131.424	-134.486	114.675	0.0012511	0.00063001	0.00023214	1043.9	9.4032e-06	1.7613e-06	833.12	422.79	2.2811e-06	3.7917e-06	356.14	157.8	186.53	103.26	8.2211e-06	88.001	0.00024598	0.00023191	6.5149e-05	942.8	2.5594e-06	2.5544e-06	762.47	376.76	2.5444e-06	2.5525e-06	313.94	136.92	156.01	88.374	2.5676e-06	74.896	-34.616	-22.248	-88.287	-149.181	3.381	-55.221	-150.776	-144.692	-3.233	19.659	-147.665	-143.421	-139.850	-136.213	-71.078	-140.354	-8191	255	
1813.643	1	1	0	0	0.10421	0.24755	0.024357	0.1595	0.25026	0.10449	0.29329	0.18312	0.17882	0.13718	0.17469	0.087868	0.11853	0.183	0.30893	0.10873	-0.20417	-0.95417	-1.2188	-0.69167	-1.1688	-0.76667	-0.5375	-1.5604	-0.49375	-0.70625	-1.3625	-0.60208	-1.0021	-1.3	-0.6	-1.4375	-55.000	-112.042	161.884	-59.875	159.211	79.773	64.837	-147.939	-120.022	74.024	107.648	69.777	-106.253	144.049	-60.848	45.848	0.0011893	0.00056883	8.8089e-05	1043.8	1.5646e-06	2.9256e-06	830.26	420.85	3.58e-06	1.9157e-06	356.58	157.46	187.41	103.61	1.2016e-06	88.396	0.00024297	0.00023365	6.4879e-05	943.1	2.5363e-06	2.5361e-06	761.99	376.32	2.5514e-06	2.5397e-06	315.71	137.13	156.5	88.56	2.5665e-06	75.289	-40.455	-78.967	12.719	-149.388	-59.551	21.268	-151.193	-144.431	9.922	-58.418	-147.767	-143.331	-140.177	-136.345	91.790	-140.542	-8191	255	
1813.764	1	1	0	0	0.20059	0.23073	0.24563	0.10082	0.10983	0.13941	0.11789	0.12103	0.2111	0.24373	0.086758	0.11152	0.22471	0.21698	0.17852	0.21598	-0.20833	-0.55625	-1.2812	-0.44375	-0.86042	-0.97083	-0.58125	-1.3417	-0.62917	-0.62292	-1.325	-0.76875	-1.0792	-1.1417	-0.50208	-1.5854	-101.999	19.573	-132.426	-34.029	-68.078	120.364	-122.435	116.194	25.714	-119.210	-154.958	130.717	-88.701	188.401	5.657	61.845	0.0012838	0.00069207	1.5541e-05	1043.1	8.7223e-06	5.3778e-06	839.32	423.81	3.3453e-06	4.9627e-06	358.6	159	187.47	103.89	3.4148e-06	88.908	0.00024065	0.00023429	6.4381e-05	943.17	2.5188e-06	2.5314e-06	766	377.5	2.5154e-06	2.5292e-06	316.47	137.99	156.49	88.835	2.5666e-06	75.535	-35.340	-97.569	179.192	-149.250	-14.304	32.318	-150.786	-144.447	-98.353	-111.268	-147.678	-143.342	-140.260	-136.355	-130.651	-140.236	-8191	255	
1813.836	1	1	0	0	0.096295	0.20084	0.16764	0.10956	0.1216	0.31595	0.18391	0.084297	0.15275	0.32859	0.15031	0.51238	0.33418	0.28601	0.20748	0.10017	-0.28125	-0.56042	-1.2062	-0.62708	-1.0354	-0.98958	-0.50417	-1.4042	-0.87292	-0.68333	-1.4729	-0.8375	-0.85208	-1.3208	-0.45417	-1.1479	184.087	2.398	95.518	179.500	-70.356	188.112	129.271	164.384	69.883	146.491	-160.117	122.762	170.889	-155.436	120.197	72.488	0.0013839	0.00022319	9.2427e-05	1048.5	8.3599e-06	4.2632e-06	837.66	425.3	3.8957e-06	2.3127e-06	361.65	158.59	186.9	103.74	6.9923e-06	89.273	0.00024193	0.00023241	6.4254e-05	945.22	2.524e-06	2.552e-06	765	377.84	2.5155e-06	2.5518e-06	317.64	137.65	156.55	88.76	2.5818e-06	75.632	-32.880	69.230	-143.066	-149.596	-11.817	-30.739	-150.991	-144.495	43.386	34.737	-147.679	-142.878	-140.308	-136.207	6.820	-140.559	-8191	255	
1813.932	1	1	0	0	0.16102	0.022183	0.089475	0.047449	0.10008	0.18984	0.16116	0.20614	0.17247	0.19109	0.14283	0.11514	0.30681	0.75648	0.30906	0.15357	-0.36667	-0.42917	-1.4021	-0.6625	-0.84167	-1.2333	-0.84167	-1.25	-0.98125	-0.58958	-1.2188	-0.69583	-0.86458	-1.5063	-0.44583	-1.0688	177.793	123.236	25.201	-110.959	80.024	-40.878	-0.675	99.025	-43.531	167.049	114.846	56.776	103.869	161.259	-136.835	148.282	0.0011757	0.00063059	0.00019052	1042.1	7.0993e-06	9.1929e-06	833.55	421.78	4.4492e-06	4.6097e-06	356.31	157.18	185.63	103.07	6.5011e-06	87.559	0.00024156	0.00023553	6.4617e-05	942.28	2.5698e-06	2.5423e-06	763.84	376.14	2.5449e-06	2.576e-06	315.08	136.92	156.36	88.293	2.5752e-06	74.835	-31.403	-65.973	-76.350	-149.502	-11.662	-19.188	-150.959	-144.453	-37.964	-38.327	-147.512	-143.111	-140.136	-135.957	19.351	-140.535	-8191	255	
1814.028	1	1	0	0	0.2333	0.12135	0.16554	0.34896	0.12158	0.15861	0.020442	0.25075	0.32301	0.16262	0.23665	0.20842	0.36693	0.50509	0.21746	0.16241	-0.62083	-0.34792	-1.4312	-0.94583	-0.62708	-1.3375	-0.64167	-1.1521	-0.89167	-0.55208	-1.3479	-1.0271	-1.0542	-1.3896	-0.49583	-1.1208	142.064	49.143	-105.476	-143.767	-67.048	1.121	147.112	163.659	153.780	148.136	68.116	168.954	167.715	-160.344	-5.054	101.585	0.0011267	1.7551e-05	0.00023322	1038.3	8.7251e-06	3.7217e-06	835.16	422.58	4.061e-06	8.868e-06	353.93	157.41	186.41	103.59	3.7067e-06	88.272	0.00024264	0.00023622	6.448e-05	940.29	2.5734e-06	2.5586e-06	761.73	375.79	2.5806e-06	2.5804e-06	314.52	136.71	156.3	88.462	2.5775e-06	74.93	-46.448	-81.552	-148.356	-149.056	-16.178	16.499	-150.868	-144.288	39.555	8.215	-147.581	-142.951	-140.242	-136.185	-85.282	-140.513	-8191	255	
1814.149	1	1	0	0	0.080736	0.15053	0.27735	0.21839	0.27439	0.13601	0.027439	0.12839	0.091137	0.080254	0.071029	0.25677	0.18164	0.081367	0.14974	0.29199	-0.60833	-0.37292	-1.0167	-0.85	-0.32083	-1.2271	-0.525	-0.84167	-1.0063	-0.36458	-1.2771	-1.0812	-0.75208	-1.5812	-0.65208	-0.95	-121.509	-136.415	106.253	-146.900	-37.913	-129.721	165.382	137.934	100.161	34.679	152.545	118.659	-143.129	163.497	-83.047	157.184	0.0012063	0.0007739	5.4071e-05	1041.2	2.465e-06	6.8482e-06	836.37	422.16	4.6782e-06	4.3395e-06	356.49	158.11	187.04	103.96	5.2453e-06	88.784	0.00024329	0.00023553	6.5452e-05	942.46	2.5807e-06	2.5536e-06	763.66	376.28	2.557e-06	2.5616e-06	315.69	137.45	156.5	88.792	2.5793e-06	75.443	-37.567	-9.374	-128.505	-149.490	-45.728	-81.093	-150.766	-144.242	22.650	-127.819	-147.787	-143.245	-140.011	-136.340	-105.707	-140.272	-8191	255	
1814.245	1	1	0	0	0.15033	0.30308	0.16502	0.037669	0.14082	0.085806	0.15884	0.27551	0.13682	0.025366	0.26847	0.12919	0.32975	0.30707	0.28206	0.12517	-0.91042	-0.44792	-1.1792	-1.1313	-0.58333	-1.3896	-0.93958	-0.80417	-1.2458	-0.57917	-1.2792	-1.0708	-0.46458	-1.4458	-0.64375	-0.89583	-28.856	-119.404	125.685	185.402	-8.048	143.209	126.401	-131.121	81.509	75.375	181.921	140.102	-96.735	-137.762	-71.490	144.343	0.0014824	0.0008351	0.00013545	1046.6	5.1698e-06	6.127e-06	837.7	423.31	8.2102e-06	9.4817e-06	357.63	159.05	186.84	103.82	6.6736e-06	89.783	0.00024659	0.00023629	6.5008e-05	944.49	2.558e-06	2.5347e-06	765.22	377.31	2.5395e-06	2.5657e-06	316.57	138.31	156.56	89.26	2.5585e-06	76.181	-34.800	-130.958	-90.877	-149.313	22.858	-0.230	-150.909	-144.089	9.042	-69.767	-147.299	-143.096	-139.912	-136.155	-68.184	-140.473	-8191	255	
1814.341	1	1	0	0	0.17273	0.087235	0.1481	0.19619	0.11614	0.2245	0.13036	0.066232	0.16961	0.058843	0.094093	0.23349	0.28727	0.27731	0.074739	0.17696	-0.93333	-0.48542	-0.91042	-1.2042	-0.55625	-1.2062	-0.9875	-0.80208	-1.275	-0.42083	-1.1354	-1.3229	-0.22708	-1.4521	-0.90625	-0.63542	104.965	-150.475	176.588	163.666	72.026	186.624	124.800	50.680	73.866	-25.539	112.861	75.917	-158.827	158.413	142.517	124.813	0.0014055	0.00075593	0.00023776	1044.8	4.1756e-06	8.4173e-06	840.97	427.02	1.0759e-05	1.9066e-06	360.19	159.57	189.37	104.94	6.7291e-06	89.176	0.00024088	0.00023541	6.4714e-05	943.88	2.5631e-06	2.5523e-06	767.96	378.87	2.5465e-06	2.5759e-06	319.1	138.6	157.31	89.509	2.5457e-06	75.942	-48.525	-79.108	-129.383	-149.440	-9.889	-138.887	-150.968	-144.545	-27.886	133.918	-147.490	-143.291	-140.203	-136.042	-48.335	-140.359	-8191	255	
1814.462	1	1	0	0	0.41983	0.080005	0.18279	0.14488	0.24589	0.043475	0.17963	0.14592	0.12344	0.40672	0.24711	0.21588	0.091981	0.24731	0.16687	0.15177	-0.75833	-0.51875	-0.76458	-1.1562	-0.16875	-1.1125	-0.82083	-0.68542	-1.1063	-0.59167	-0.83333	-1.3188	-0.39375	-1.5396	-0.9	-0.55625	-157.226	133.645	-44.440	-127.549	75.118	-99.189	53.420	-110.454	-55.540	130.660	178.793	153.895	-37.711	-129.861	103.929	161.140	0.0011455	0.0004615	0.00011014	1045.6	3.7478e-06	3.6873e-06	837.73	425.23	1.1507e-06	7.4266e-06	359.21	159.57	187.09	103.92	1.0003e-05	88.795	0.00024179	0.00023014	6.467e-05	943.76	2.5618e-06	2.5558e-06	765.4	377.64	2.5504e-06	2.5206e-06	316.35	137.6	156.65	88.951	2.5637e-06	75.285	-42.621	-61.930	-74.568	-149.067	-34.136	-20.805	-151.364	-144.574	-132.591	-40.193	-147.511	-143.284	-140.311	-135.870	-138.513	-140.630	-8191	255	
1814.533	1	1	0	0	0.10958	0.11938	0.13571	0.067464	0.10162	0.090063	0.24078	0.33068	0.15971	0.26177	0.24542	0.18594	0.17684	0.13173	0.15226	0.11817	-0.93333	-0.39375	-0.61458	-1.2229	-0.50833	-0.98333	-1.1729	-0.56042	-1.1833	-0.58958	-0.70833	-1.2333	-0.49583	-1.25	-0.97708	-0.67083	11.133	175.697	29.499	-145.576	-46.155	162.438	-132.252	84.984	-102.094	18.986	90.616	169.763	-154.783	188.689	182.976	169.777	0.0013932	0.00077832	0.00014755	1035.9	5.3861e-06	3.1314e-06	835.78	421.13	8.0315e-06	4.422e-06	354.8	158.37	186.57	103.48	6.4291e-06	88.382	0.00024208	0.00023145	6.551e-05	940.02	2.5527e-06	2.5301e-06	763.38	375.76	2.5461e-06	2.5473e-06	315.38	137.56	156.37	88.698	2.555e-06	75.137	-45.445	-56.848	-122.650	-149.309	10.065	-19.089	-150.973	-144.284	-52.677	-108.080	-147.587	-143.220	-140.104	-136.233	4.728	-140.417	-8191	255	
1814.629	1	1	0	0	0.17421	0.24084	0.2476	0.30815	0.27989	0.1511	0.22062	0.26782	0.14929	0.086996	0.082318	0.11903	0.085144	0.22518	0.14116	0.2175	-0.81458	-0.70208	-0.38125	-1.3583	-0.46667	-0.825	-1.1625	-0.65208	-1.2583	-0.69167	-0.5125	-1.3375	-0.6875	-1.0729	-1.0812	-0.3625	28.336	-113.663	72.401	189.239	-122.549	139.203	127.039	-140.847	87.092	20.451	-141.352	170.701	79.319	163.816	86.352	154.854	0.0014186	0.00024459	0.00019006	1038.4	8.5241e-06	7.5938e-06	837.49	421.92	4.5849e-06	8.5457e-06	357.26	158.42	186.5	103.86	2.5518e-06	88.226	0.00024195	0.00023387	6.5084e-05	940.56	2.5851e-06	2.5838e-06	763.83	376.2	2.5607e-06	2.5554e-06	316.14	137.59	156.25	88.771	2.5538e-06	75.378	-36.745	-85.283	-80.709	-149.307	-76.042	-21.073	-150.779	-144.296	-127.030	-64.747	-147.510	-143.204	-139.933	-136.273	-71.406	-140.451	-8191	255	
1814.748	1	1	0	0	0.21258	0.21861	0.086402	0.14313	0.098228	0.053043	0.14643	0.39387	0.23913	0.058453	0.2481	0.18224	0.21983	0.36029	0.21685	0.090991	-0.89167	-0.87083	-0.17917	-1.2479	-0.40833	-0.75833	-1.2042	-0.57083	-1.0375	-1.0042	-0.58333	-1.3542	-0.74167	-1.0792	-1.2229	-0.55833	12.104	-151.947	57.018	191.025	33.590	19.866	147.415	168.642	-18.321	-43.802	171.352	147.746	169.139	-154.820	122.390	152.649	0.0013568	0.00070626	5.8321e-05	1040.5	7.0513e-06	5.3244e-06	836.72	421.59	5.5707e-06	1.0495e-05	357.85	158.99	186.65	103.77	2.0829e-06	88.891	0.00024216	0.00023398	6.5409e-05	940.39	2.5577e-06	2.5879e-06	766.36	375.82	2.5676e-06	2.5686e-06	317.32	138.4	156.16	88.957	2.5766e-06	75.616	-32.939	-78.544	175.535	-149.222	-54.728	13.659	-151.037	-144.478	28.846	-75.101	-147.705	-143.390	-140.323	-136.116	-43.254	-140.564	-8191	255	
1814.844	1	1	0	0	0.093464	0.15869	0.23551	0.3146	0.1104	0.043381	0.12605	0.35141	0.14673	0.090771	0.3703	0.25853	0.13578	0.35318	0.02209	0.13049	-0.825	-1.0479	-0.45833	-1.4083	-0.51458	-0.54375	-1.2437	-0.65833	-1.0708	-0.98542	-0.65833	-1.1938	-0.89583	-0.86042	-1.2854	-0.7125	147.842	-158.132	154.424	77.900	-140.821	-6.539	-152.489	158.161	50.453	-62.259	110.719	121.453	168.193	140.525	3.584	-133.957	0.0011682	0.00039648	9.3779e-05	1039.3	3.3389e-06	2.937e-06	838.7	423.02	8.2572e-06	1.7199e-06	356.97	157.86	187.32	103.42	4.7661e-06	88.492	0.00024572	0.00023423	6.5706e-05	941.71	2.5702e-06	2.5718e-06	766.76	376.56	2.5856e-06	2.5371e-06	316.73	137.57	156.33	88.632	2.5723e-06	75.27	-36.775	-70.648	-48.457	-149.299	-1.257	-7.698	-150.773	-144.428	-64.585	94.270	-147.579	-143.072	-140.422	-136.135	-61.278	-140.490	-8191	255	
1814.941	1	1	0	0	0.12848	0.29316	0.13061	0.2265	0.046682	0.11941	0.087373	0.15196	0.07086	0.20219	0.23059	0.21454	0.58392	0.13553	0.33577	0.24313	-0.58542	-1.1396	-0.49792	-1.2583	-0.75208	-0.52708	-1.325	-0.68125	-0.97917	-1.2313	-0.725	-1.4062	-0.98333	-0.75208	-1.2042	-0.8125	83.515	-82.658	-61.523	64.430	-126.033	-66.454	-133.564	-159.071	-117.200	-138.058	56.427	183.315	152.032	171.053	-131.507	136.467	0.0011625	0.0005137	0.00026054	1036.1	5.1285e-06	6.5017e-06	834.79	421.76	3.9956e-06	5.0274e-06	353.62	157.21	186.49	103.4	1.9066e-06	87.352	0.00024459	0.00023232	6.5365e-05	939.62	2.5445e-06	2.5964e-06	762.87	375.7	2.5987e-06	2.5358e-06	314.13	136.98	156.14	88.298	2.5627e-06	74.691	-37.398	-154.706	-78.406	-149.334	-6.583	-20.765	-150.809	-144.598	-41.981	-58.931	-147.301	-143.112	-139.955	-135.747	-137.046	-140.388	-8191	255	
1815.061	1	1	0	0	0.039513	0.072683	0.18818	0.12767	0.16822	0.094296	0.22569	0.033014	0.099122	0.34505	0.14434	0.28291	0.14215	0.224	0.092343	0.21847	-0.35417	-1.0542	-0.28542	-1.1917	-0.85208	-0.38958	-1.1437	-0.77917	-0.4875	-1.2042	-0.67083	-1.1271	-1.1896	-0.51875	-1.1625	-0.87083	165.749	11.511	-135.820	-79.203	179.399	178.291	182.056	169.065	-131.369	71.105	188.231	-137.785	103.740	191.790	93.793	-158.158	0.0013192	0.00043505	0.00017478	1040.4	5.7153e-06	2.0183e-06	834.43	420.4	5.6324e-06	8.0373e-07	354.72	157.23	185.78	102.91	6.203e-06	87.855	0.00024233	0.00023224	6.4866e-05	941.98	2.5821e-06	2.574e-06	762.12	374.95	2.592e-06	2.5383e-06	313.25	136.98	155.89	88.313	2.5499e-06	74.711	-36.057	-61.284	-90.297	-149.249	-46.194	8.527	-150.813	-144.302	-30.828	79.391	-147.072	-143.280	-140.208	-136.383	-46.055	-140.317	-8191	255	
1815.133	1	1	0	0	0.10617	0.13205	0.11129	0.32361	0.25281	0.25131	0.075918	0.52125	0.073054	0.25624	0.13836	0.165	0.040134	0.24513	0.23434	0.072078	-0.13333	-1.1625	-0.58542	-1.0625	-0.925	-0.26458	-1.2667	-0.91458	-0.60833	-1.2437	-0.53542	-1.0104	-1.0146	-0.7	-1.075	-0.98958	-66.516	-68.572	-45.756	167.952	34.918	-143.265	29.105	132.739	129.968	155.992	8.998	-158.564	-85.535	190.493	-77.963	-91.810	0.0012468	0.0002717	0.00023262	1039.4	5.3105e-06	7.1654e-06	831.63	421.96	1.0487e-05	7.6517e-06	354.96	158.11	186.95	103.54	8.5609e-06	88.324	0.00024348	0.00023272	6.4792e-05	938.77	2.5565e-06	2.5463e-06	760.66	374.87	2.5774e-06	2.5381e-06	314.03	137.42	156.03	88.469	2.5617e-06	75.232	-52.042	-146.463	-95.969	-149.266	-38.615	-15.192	-151.071	-144.431	-20.463	13.000	-148.032	-143.267	-140.150	-136.024	-83.696	-140.562	-8191	255	
1815.229	1	1	0	0	0.031203	0.15656	0.19468	0.093627	0.06959	0.40684	0.14331	0.074564	0.26022	0.16936	0.12979	0.2393	0.19394	0.18789	0.39087	0.18538	0.016667	-1.1521	-0.5625	-1.0562	-1.2542	-0.42917	-1.2417	-1.0646	-0.45625	-1.2292	-0.60833	-0.65833	-1.0104	-0.75	-0.98333	-1.1854	24.969	-57.126	85.771	-128.401	159.395	-26.293	-126.785	-37.337	-40.535	-62.530	-98.652	-140.316	19.248	140.906	135.676	-148.859	0.0012717	0.0005592	0.00010614	1037.7	8.7205e-06	3.5452e-06	835.87	421.35	4.5356e-06	9.6017e-06	357.34	158.54	187.06	103.62	3.0427e-06	88.401	0.00024235	0.00023056	6.4966e-05	940.87	2.5467e-06	2.5594e-06	763.28	375.18	2.5987e-06	2.5664e-06	315.79	138.08	156.66	88.587	2.5859e-06	75.283	-37.880	-65.575	177.710	-149.330	-6.095	-115.627	-150.531	-144.682	44.954	-101.744	-147.557	-142.933	-139.805	-136.014	36.027	-140.237	-8191	255	
1815.325	1	1	0	0	0.13022	0.14874	0.34199	0.0663	0.29648	0.1178	0.40013	0.20752	0.18942	0.28757	0.12147	0.065487	0.25663	0.29809	0.2393	0.23413	-0.12708	-1.2625	-0.75417	-0.97708	-1.1917	-0.42083	-1.2333	-1.175	-0.38958	-1.3604	-0.85833	-0.65417	-1.3396	-0.8375	-0.78125	-1.2771	-27.516	-33.625	112.816	-66.454	-150.648	-89.645	197.128	145.477	85.165	-76.646	-45.227	148.667	159.826	112.351	185.349	-154.840	0.0011602	0.00022878	0.00026237	1042.1	7.651e-06	5.0051e-06	835.56	421.53	7.8246e-06	5.8984e-06	355.27	157.19	185.44	102.75	1.8062e-06	86.923	0.00024644	0.00023748	6.5061e-05	943.8	2.562e-06	2.5584e-06	763.24	375.66	2.584e-06	2.5671e-06	314.5	136.98	155.65	87.922	2.6101e-06	74.377	-40.333	-135.025	-92.308	-148.974	-111.393	-35.135	-150.648	-144.541	-107.510	-17.201	-147.567	-143.237	-140.197	-136.032	-119.914	-140.373	-8191	255	
1815.446	1	1	0	0	0.13374	0.13293	0.11088	0.25116	0.21706	0.1537	0.096624	0.14071	0.091439	0.21225	0.079567	0.19243	0.065628	0.30259	0.19398	0.19048	-0.24167	-1.2792	-0.55208	-0.6875	-1.2542	-0.49167	-0.88542	-1.2938	-0.54583	-1.2188	-0.88125	-0.75417	-1.4896	-1.0792	-0.90625	-1.4104	15.734	-9.962	-144.472	-158.893	-128.018	11.592	158.371	-143.147	71.936	11.416	115.944	-53.088	-5.462	193.390	-104.649	11.664	0.0012317	6.763e-05	0.00017179	1036.5	5.1298e-06	4.8615e-06	835.3	419.78	8.5134e-06	8.6686e-07	352	155.11	183.98	101.39	7.2382e-06	85.91	0.00024646	0.00023409	6.5269e-05	939.23	2.5664e-06	2.6101e-06	763.35	374.29	2.6273e-06	2.5829e-06	311.91	134.78	154.15	86.613	2.6059e-06	72.936	-33.550	-31.984	-63.023	-149.317	-7.011	11.671	-151.007	-144.161	6.031	0.814	-147.919	-143.303	-139.926	-135.955	-72.051	-140.498	-8191	255	
1815.540	1	1	0	0	0.24614	0.20711	0.11214	0.15867	0.096489	0.1625	0.32177	0.039855	0.22949	0.11982	0.38588	0.040448	0.21068	0.42493	0.19533	0.15283	-0.0375	-1.1437	-0.89583	-0.48125	-1.25	-0.68125	-0.82917	-1.4104	-0.46875	-1.1979	-1.2062	-0.67083	-1.3458	-1.1146	-0.71458	-1.4062	90.040	142.990	183.602	-153.913	-69.296	140.841	-101.634	-159.949	49.424	-30.491	-158.647	110.566	133.219	143.868	85.056	38.275	0.0013595	0.00033721	0.00010154	1045.6	4.791e-06	6.3575e-06	845.56	416.61	9.8945e-06	5.2309e-06	353.14	152.68	180.19	98.741	1.6728e-06	83.879	0.00024683	0.00023763	6.5902e-05	944.88	2.6311e-06	2.6123e-06	769.33	372.71	2.6456e-06	2.6392e-06	311.74	132.92	151.53	84.855	2.6686e-06	71.458	-44.753	77.910	-141.679	-148.934	-7.282	7.619	-150.245	-144.168	-46.084	18.439	-147.648	-142.461	-139.711	-135.717	-53.702	-140.054	-8191	255	
1815.636	1	1	0	0	0.32966	0.20989	0.0678	0.30317	0.2268	0.17189	0.023647	0.16011	0.31428	0.28258	0.2129	0.25037	0.10186	0.33566	0.21924	0.13949	-0.25417	-0.75625	-1.0271	-0.57917	-1.2208	-0.78333	-0.69583	-1.4688	-0.58958	-0.975	-1.2	-0.50417	-1.2687	-1.0292	-0.59375	-1.4125	98.007	118.304	-17.565	145.537	67.530	-80.703	71.346	100.881	-133.675	-118.749	176.244	197.463	131.280	164.449	-46.542	-90.340	0.0011532	0.0010959	1.8598e-05	1046.7	5.1402e-06	6.3591e-06	844.19	417.02	1.9317e-06	1.9771e-06	350.42	153.06	181.12	99.059	6.5429e-06	84.019	0.00024824	0.00024185	6.6531e-05	948.23	2.6434e-06	2.6454e-06	774.06	373.73	2.6167e-06	2.636e-06	312.04	133.2	152.01	84.915	2.6392e-06	71.664	-37.486	-159.059	125.806	-149.094	40.198	-85.383	-150.756	-144.188	-7.334	32.685	-147.709	-143.027	-140.148	-135.963	-10.780	-140.376	-8191	255	
1815.732	1	1	0	0	0.083018	0.235	0.21133	0.24448	0.16836	0.22785	0.13193	0.16028	0.17065	0.084778	0.22485	0.11206	0.045649	0.30981	0.12307	0.090358	-0.11875	-0.9	-1.0333	-0.42708	-1.1354	-0.93125	-0.52917	-1.4396	-0.48125	-0.75417	-1.2313	-0.52708	-1.4062	-1.0479	-0.42292	-1.4208	-4.389	-101.638	-116.207	108.885	-98.093	-0.379	124.771	176.994	38.826	-47.328	156.363	-55.666	-35.318	193.405	104.041	63.553	0.001276	0.0004145	0.00011855	1053.9	4.556e-06	4.3367e-06	846.05	421.4	6.8652e-06	5.9023e-06	353.79	151.41	179.4	97.71	5.97e-06	82.507	0.00024969	0.0002435	6.6717e-05	953.93	2.6385e-06	2.66e-06	776.85	375.11	2.625e-06	2.6435e-06	313.15	132.5	150.75	83.843	2.6761e-06	70.815	-46.379	-107.823	-131.405	-149.290	28.501	-4.665	-150.386	-144.177	-65.224	21.974	-147.615	-142.952	-139.858	-136.023	-15.810	-140.370	-8191	255	
1815.829	1	1	0	0	0.31169	0.24333	0.09532	0.24778	0.14251	0.012344	0.16961	0.25224	0.062585	0.17881	0.26448	0.24567	0.083264	0.21753	0.090712	0.094037	-0.091667	-0.73125	-1.3458	-0.65	-1.0354	-1.0458	-0.65	-1.4042	-0.61667	-0.55	-1.2792	-0.72708	-1.0917	-1.3667	-0.52708	-1.3687	66.775	41.857	-35.683	-157.561	-123.800	29.050	-107.187	138.940	-4.646	-97.205	-78.397	158.753	6.695	-127.547	29.133	170.520	0.0012942	0.00075768	0.00014948	1057.5	3.7179e-06	3.0338e-06	848.09	420.77	6.7042e-06	9.0325e-06	353.3	149.87	177.43	97.248	5.723e-06	81.622	0.00025003	0.0002417	6.6416e-05	955.1	2.6341e-06	2.6488e-06	776.8	374.9	2.6474e-06	2.671e-06	312.5	130.91	149.43	83.182	2.6593e-06	69.824	-37.581	-117.195	-81.584	-149.083	-28.879	4.344	-150.678	-144.359	-33.927	25.430	-147.669	-142.928	-140.033	-135.744	-61.750	-140.056	-8191	255	
1815.925	1	1	0	0	0.062393	0.052203	0.068532	0.098001	0.25336	0.091342	0.13399	0.33248	0.19127	0.13116	0.25972	0.23516	0.15389	0.186	0.16931	0.14375	-0.5125	-0.66667	-1.3667	-0.68125	-0.91875	-1.3292	-0.4625	-1.4167	-0.86458	-0.65	-1.4417	-0.42083	-0.83333	-1.3375	-0.4125	-1.4021	-29.023	167.651	-109.756	-159.075	-137.215	-160.149	83.924	118.434	-14.543	-156.775	121.004	-143.526	78.317	196.046	-13.076	-118.597	0.0012891	0.00071516	0.00018175	1053.4	1.2356e-05	5.0025e-06	848.22	420.46	5.7967e-06	4.1749e-07	349.85	149.85	178.51	96.48	1.0925e-05	81.449	0.00025274	0.00024034	6.6634e-05	954.13	2.685e-06	2.6314e-06	775.27	375.37	2.6653e-06	2.65e-06	311.39	130.83	149.49	83.017	2.6446e-06	69.75	-35.573	-82.233	196.699	-149.235	-17.405	-102.420	-150.881	-144.196	19.193	42.786	-147.501	-142.898	-139.686	-135.703	-2.676	-139.981	-8191	255	
1816.021	1	1	0	0	0.19207	0.22954	0.14846	0.16456	0.18305	0.091909	0.21235	0.10832	0.093673	0.17483	0.18298	0.37337	0.082827	0.050154	0.10241	0.17515	-0.51667	-0.45833	-1.3167	-0.53125	-0.85833	-1.2833	-0.35417	-1.4021	-0.78125	-0.475	-1.3	-0.84375	-0.88542	-1.3792	-0.51667	-1.3312	-103.232	37.184	168.799	111.196	50.973	160.155	136.880	147.077	-0.945	75.180	-138.330	189.854	-96.403	79.568	126.577	-87.531	0.0011774	0.00083506	0.0001563	1054	7.6849e-06	7.9221e-06	845.52	423.33	7.4434e-06	5.2869e-06	350.71	149.3	177.66	96.586	8.1378e-06	82.238	0.00025056	0.00024087	6.6558e-05	956.54	2.66e-06	2.6461e-06	774.89	376.46	2.6414e-06	2.6399e-06	311.87	130.33	149.53	83.048	2.664e-06	70.079	-31.320	-75.971	-94.554	-148.947	-11.295	-35.054	-150.697	-144.148	-110.519	-4.904	-147.315	-143.118	-139.754	-135.699	-78.380	-140.056	-8191	255	
1816.142	1	1	0	0	0.2222	0.21237	0.078044	0.32619	0.18153	0.16019	0.28165	0.21628	0.22584	0.11617	0.16197	0.079557	0.25094	0.066947	0.33116	0.34929	-0.65417	-0.5875	-1.3438	-0.94375	-0.82292	-1.1729	-0.6625	-1.25	-1.1917	-0.39792	-1.4167	-0.94583	-0.6125	-1.4833	-0.42708	-1.125	139.058	111.698	-50.790	153.283	149.355	166.050	-56.814	133.620	152.938	-52.564	152.555	29.171	-145.388	161.997	-102.779	166.769	0.0012537	0.0014021	0.00012856	1058.7	7.4458e-07	5.1466e-06	853.19	422.62	2.787e-06	7.7929e-06	353.6	149.71	178.56	96.921	1.0174e-05	82.38	0.00025091	0.00024228	6.6503e-05	956.45	2.6462e-06	2.6549e-06	778.59	376.66	2.6474e-06	2.6595e-06	314.39	131.07	149.69	83.129	2.6598e-06	70.43	-35.300	-75.837	-113.442	-149.312	139.218	3.311	-150.992	-144.221	29.244	-126.724	-147.212	-142.776	-139.829	-135.918	-60.237	-140.071	-8191	255	
1816.238	1	1	0	0	0.11046	0.22127	0.25234	0.54624	0.036594	0.20021	0.062226	0.16853	0.22592	0.20406	0.096011	0.13817	0.044537	0.17939	0.1868	0.1135	-0.65625	-0.46458	-1.0854	-0.80417	-0.53333	-1.45	-0.63958	-1.0708	-1.0333	-0.28542	-1.2708	-0.93125	-0.45	-1.65	-0.63958	-1.0063	15.209	120.556	157.393	149.118	184.206	120.372	141.863	196.983	-21.908	-112.772	108.391	-162.208	-93.804	168.834	103.709	91.431	0.0011632	0.0011536	7.5098e-05	1061.7	2.882e-06	5.903e-07	857.22	424.36	4.2305e-06	3.481e-06	353.71	150.91	179.12	97.733	4.2442e-06	83.069	0.00025157	0.00024275	6.7917e-05	957.97	2.6704e-06	2.6579e-06	781.96	378.28	2.6508e-06	2.6209e-06	314.08	131.82	150.17	83.589	2.6684e-06	70.761	-49.813	-55.070	-5.803	-149.242	196.785	-42.236	-150.649	-144.357	32.252	-76.021	-147.389	-142.708	-140.046	-135.929	-43.471	-140.172	-8191	255	
1816.334	1	1	0	0	0.031984	0.15977	0.039617	0.15928	0.19179	0.096428	0.20421	0.32287	0.16432	0.20832	0.3026	0.24779	0.18249	0.42789	0.034658	0.16826	-1.0042	-0.42917	-1.1417	-0.99167	-0.36667	-1.3021	-0.78125	-1.0292	-1.3125	-0.6125	-1.125	-1.1562	-0.56667	-1.4521	-0.68542	-0.86458	-15.157	-45.680	-81.658	167.089	-146.430	136.057	196.240	-118.436	-96.919	-10.568	141.353	179.246	-51.791	-133.907	-106.266	-143.676	0.0011122	0.00044043	9.3331e-05	1056.7	4.4368e-06	6.4859e-06	854.84	422.92	5.7663e-06	5.5841e-06	353.58	150.93	179.82	97.858	9.7839e-06	83.125	0.00024932	0.00024198	6.7007e-05	957.37	2.6568e-06	2.661e-06	780.3	376.87	2.6237e-06	2.6541e-06	313.97	131.73	151.08	84.176	2.6608e-06	70.83	-37.571	-55.039	-78.479	-148.909	14.696	-13.900	-150.562	-144.146	-80.500	-73.787	-147.502	-143.028	-139.879	-135.734	-56.855	-139.966	-8191	255	
1816.430	1	1	0	0	0.35106	0.21803	0.21008	0.42605	0.33888	0.25121	0.25484	0.18119	0.055328	0.23177	0.099113	0.27121	0.1077	0.61342	0.12139	0.068784	-0.73333	-0.49167	-1.0333	-1.3188	-0.58333	-1.3438	-0.97083	-0.79167	-1.1875	-0.4125	-1.0187	-1.1271	-0.56875	-1.5604	-0.81875	-0.83958	2.897	-110.314	29.731	142.885	43.135	19.063	71.326	155.259	172.222	173.120	91.892	118.618	144.817	-142.037	42.772	32.909	0.0011158	0.00089628	9.722e-05	1055.7	2.3058e-06	1.7516e-06	839.89	420.86	1.0775e-05	3.9327e-06	354.16	151.07	180.23	99.545	5.3868e-06	83.844	0.0002469	0.00024225	6.7139e-05	953.35	2.6297e-06	2.626e-06	771.84	376.04	2.6276e-06	2.6444e-06	313.19	132.19	151.79	85.245	2.6176e-06	71.614	-37.629	-1.339	183.797	-149.329	43.136	44.706	-151.077	-144.357	-90.862	-11.336	-147.278	-142.740	-139.914	-136.026	-45.748	-140.217	-8191	255	
1816.526	1	1	0	0	0.1905	0.305	0.14334	0.43609	0.1466	0.081892	0.19022	0.31777	0.12814	0.21658	0.10568	0.22273	0.28209	0.12398	0.1551	0.11118	-1.05	-0.45417	-0.95	-1.3708	-0.39792	-1.3292	-1.0583	-0.8875	-1.3271	-0.63542	-0.975	-1.1854	-0.50208	-1.2917	-1.0312	-0.71042	57.230	-125.941	44.052	162.597	169.724	-4.301	162.906	197.354	17.915	154.284	80.068	-141.847	78.775	-108.881	-103.382	-106.385	0.0013437	0.00034748	0.00018833	1050.1	5.2697e-06	2.3829e-06	844.11	422.75	9.98e-06	6.6112e-06	352.55	153.2	181.93	99.84	4.2875e-06	84.675	0.00024799	0.00023906	6.7531e-05	952.37	2.6287e-06	2.6231e-06	770.48	376.77	2.624e-06	2.5981e-06	313.42	133.82	152.55	85.537	2.6345e-06	72.312	-38.553	59.602	-88.801	-149.393	-19.428	-71.247	-150.897	-144.402	-94.709	-17.146	-147.107	-143.199	-139.781	-135.807	-2.520	-140.237	-8191	255	
1816.621	1	1	0	0	0.21925	0.1883	0.1814	0.39454	0.092788	0.16599	0.13141	0.34511	0.3257	0.14951	0.040256	0.15461	0.16928	0.31362	0.21951	0.013273	-0.775	-0.62292	-0.72083	-1.4333	-0.41458	-0.96042	-1.1667	-0.76667	-1.2646	-0.77917	-0.80625	-1.3792	-0.575	-1.1187	-0.99167	-0.57917	47.219	-50.587	181.963	187.073	-10.832	-112.471	99.008	141.123	5.004	129.345	-132.381	-156.910	176.951	135.477	149.197	176.396	0.0013308	0.0002301	4.825e-05	1051.3	3.1265e-06	4.0546e-06	842.58	422.11	6.4701e-06	2.338e-06	353.27	153.59	181.79	100.54	4.8292e-06	85.253	0.00024879	0.00024167	6.6734e-05	951.55	2.6481e-06	2.6594e-06	770.64	375.73	2.6251e-06	2.6246e-06	314.05	134.17	152.89	86.062	2.6197e-06	72.899	-34.787	-21.148	173.054	-149.316	-93.010	-26.468	-151.028	-144.155	-20.469	-76.974	-147.776	-143.105	-139.999	-136.035	-9.285	-140.242	-8191	255	
1816.741	1	1	0	0	0.086056	0.16925	0.068809	0.15251	0.24548	0.33443	0.15747	0.35805	0.12235	0.18664	0.21593	0.13708	0.14682	0.21574	0.19243	0.19866	-0.825	-0.95	-0.6125	-1.4833	-0.3375	-0.95	-1.2417	-0.57708	-1.3104	-0.925	-0.7375	-1.4771	-0.55833	-1.1896	-1.1333	-0.60417	112.762	-4.756	17.523	150.462	-39.922	-48.654	45.001	139.289	190.840	130.941	-112.693	190.634	-2.031	132.992	179.541	47.654	0.001341	0.00048632	1.2629e-05	1044.7	6.4491e-06	5.6758e-06	846.79	421.45	6.6047e-06	7.2999e-06	353.42	153.98	182.15	100.49	5.9112e-06	85.163	0.00025059	0.00023832	6.6783e-05	946.56	2.6533e-06	2.6215e-06	772.04	376.14	2.6439e-06	2.6184e-06	313.78	134.56	153.11	86.19	2.6412e-06	72.858	-39.390	-52.007	-107.411	-149.141	-3.095	12.988	-150.737	-144.046	22.849	-40.253	-147.337	-142.797	-139.993	-135.768	-57.997	-140.110	-8191	255	
1816.837	1	1	0	0	0.21502	0.23717	0.29509	0.25887	0.43652	0.24936	0.10668	0.33097	0.090239	0.1278	0.20987	0.30998	0.34616	0.36288	0.16332	0.29996	-0.89583	-0.94375	-0.35208	-1.4937	-0.475	-0.92708	-1.3271	-0.77083	-1.1042	-1.0438	-0.575	-1.3208	-0.62083	-0.93958	-1.25	-0.54583	188.968	35.970	102.307	164.822	-157.866	29.505	-77.620	164.099	-117.854	60.300	-93.672	128.173	-157.331	161.315	13.863	-148.015	0.0010953	0.0008213	0.00022777	1052.2	6.545e-06	2.7829e-06	840.65	420	6.0565e-06	2.8067e-06	350.53	153.5	182.62	100.53	6.8616e-06	85.066	0.00024919	0.00023855	6.6498e-05	949.12	2.649e-06	2.607e-06	767.84	375.14	2.6317e-06	2.5965e-06	311.84	133.9	153.17	86.124	2.5993e-06	72.623	-39.902	-46.546	-97.510	-149.041	-38.275	-23.116	-150.894	-144.410	-42.445	40.944	-147.369	-143.013	-139.975	-135.698	-99.004	-140.255	-8191	255	
1816.934	1	1	0	0	0.15623	0.19614	0.12925	0.10254	0.043967	0.1896	0.1784	0.147	0.17067	0.073657	0.28431	0.037856	0.059583	0.27201	0.069028	0.20931	-0.80208	-1.0375	-0.43333	-1.1958	-0.5875	-0.66458	-1.45	-0.79167	-1.1208	-1.2625	-0.35417	-1.3458	-0.98333	-0.99792	-1.2938	-0.675	-93.653	-145.474	46.411	181.368	-103.235	-127.447	-159.209	189.253	20.518	-156.088	-117.330	122.139	103.413	170.245	183.148	112.113	0.0011487	0.00034706	7.2117e-05	1042.7	5.7503e-06	5.7735e-06	835.07	421.89	6.3285e-06	2.4553e-06	352.3	154.76	182.8	101.02	5.4145e-06	85.606	0.00024784	0.00023483	6.5993e-05	945.34	2.6029e-06	2.6059e-06	763.62	375.14	2.5814e-06	2.5812e-06	312	134.41	153.29	86.618	2.5745e-06	73.121	-37.754	-79.546	-79.770	-149.239	-91.721	-47.974	-150.789	-144.578	-41.395	-97.654	-147.538	-143.252	-140.021	-136.233	-80.873	-140.304	-8191	255	
1817.005	1	1	0	0	0.20998	0.23313	0.20577	0.20713	0.056333	0.05276	0.13711	0.24933	0.12369	0.22865	0.32195	0.092796	0.025967	0.14458	0.17485	0.24547	-0.79792	-1.1812	-0.42708	-1.2229	-0.8625	-0.62292	-1.4604	-0.7375	-0.98125	-1.2083	-0.42917	-1.1354	-1.1125	-0.71875	-1.1979	-0.7375	-93.141	108.767	-130.619	175.549	113.200	116.282	76.711	172.287	82.486	-130.437	54.356	-161.209	143.440	166.703	131.824	131.656	0.0010397	0.00025872	6.4245e-05	1042.5	4.2966e-06	6.8254e-06	840.87	422.67	5.7227e-06	3.0804e-06	353.49	154.76	184.7	101.8	5.306e-06	87.035	0.00024725	0.00023521	6.6022e-05	944.75	2.5792e-06	2.5758e-06	765.24	376.63	2.5791e-06	2.5491e-06	314	135.13	154.34	87.255	2.6094e-06	74.092	-37.052	36.002	-77.329	-149.255	-43.901	19.367	-150.823	-144.410	-48.815	-3.894	-147.532	-143.364	-140.128	-135.887	-53.867	-140.332	-8191	255	
1817.126	1	1	0	0	0.18761	0.24907	0.091024	0.10437	0.32692	0.082512	0.032613	0.33923	0.098778	0.25072	0.28854	0.14009	0.19274	0.24088	0.097349	0.2548	-0.56458	-1.3167	-0.51875	-1.1792	-1.15	-0.58125	-1.4479	-0.83542	-0.6	-1.3312	-0.575	-1.1333	-1.1396	-0.68542	-1.2313	-0.89375	120.941	-152.443	115.660	-158.309	39.420	-123.417	11.207	156.068	147.516	-154.166	106.323	-102.893	168.823	-148.083	5.104	144.289	0.0012619	0.00028073	0.00018475	1045.2	2.9116e-06	5.8115e-06	835.78	423.75	3.1052e-06	6.7441e-06	358.54	157.53	184.72	103.36	4.1196e-06	87.959	0.00024351	0.00023134	6.5494e-05	944.99	2.5553e-06	2.5494e-06	767.69	377.8	2.5613e-06	2.5353e-06	317.01	136.67	154.81	88.315	2.558e-06	74.789	-49.497	-76.870	-74.108	-149.022	-41.644	-69.705	-150.812	-144.290	-108.423	-107.106	-147.196	-142.998	-140.284	-135.998	-36.970	-140.440	-8191	255	
1817.222	1	1	0	0	0.19963	0.08467	0.07548	0.11561	0.15833	0.23022	0.30451	0.3053	0.11542	0.24456	0.15902	0.19913	0.13209	0.22969	0.081018	0.16681	-0.40417	-1.1083	-0.34792	-1.0604	-0.9875	-0.53958	-1.4104	-0.97292	-0.63542	-1.2583	-0.5625	-1.0417	-1.2708	-0.70417	-1.1292	-0.99167	88.151	-98.392	145.467	149.474	-41.382	114.442	117.969	-159.988	167.938	156.418	54.491	91.543	148.689	134.692	160.270	172.369	0.0011896	0.0010406	8.3758e-05	1044.9	6.9693e-06	4.529e-06	838.63	425.45	5.7879e-06	1.2058e-06	356.47	157	184.93	102.76	5.4813e-06	87.757	0.00024338	0.00023405	6.5301e-05	945.33	2.5658e-06	2.5501e-06	767.99	377.35	2.5555e-06	2.5268e-06	315.74	136.51	154.91	87.914	2.5744e-06	74.487	-36.878	-54.358	32.519	-149.308	144.384	8.655	-150.955	-144.510	-84.159	101.107	-147.242	-142.879	-140.081	-135.944	-61.616	-140.602	-8191	255	
1817.318	1	1	0	0	0.19913	0.13712	0.14871	0.35962	0.23293	0.23435	0.38939	0.17294	0.26306	0.073265	0.24208	0.19682	0.13756	0.52104	0.04269	0.11512	-0.039583	-1.1917	-0.31875	-0.93333	-1.1812	-0.62708	-1.2729	-1.0875	-0.5875	-1.3667	-0.69167	-0.82083	-1.2521	-0.76458	-1.1063	-1.2313	17.073	-79.353	0.872	187.506	186.280	-31.910	151.832	109.889	-6.663	-109.531	179.408	195.732	-160.515	157.711	71.727	107.979	0.0011466	0.00064997	0.00024062	1041.4	2.5975e-06	4.9621e-06	836.5	422.39	5.4561e-06	4.5472e-06	352.96	156.25	183.91	102.83	5.3554e-06	87.824	0.00024402	0.00023098	6.5239e-05	941.58	2.5169e-06	2.5532e-06	763.05	375.68	2.5486e-06	2.5321e-06	313.37	136.15	154.52	87.848	2.5516e-06	74.474	-32.685	-43.090	-101.284	-149.219	55.485	-44.544	-150.968	-144.423	-60.540	-80.956	-147.777	-142.888	-140.162	-136.065	-38.107	-140.296	-8191	255	
1817.414	1	1	0	0	0.19296	0.071062	0.17611	0.085689	0.059274	0.11923	0.1556	0.45478	0.21831	0.22735	0.12227	0.22518	0.072584	0.33711	0.30493	0.28024	-0.047917	-1.1417	-0.65625	-1.0625	-1.0833	-0.49583	-1.3417	-1.3188	-0.46667	-1.3875	-0.86875	-0.57083	-1.4875	-0.7375	-0.91042	-1.3229	162.943	-32.370	-63.901	-99.068	-17.277	106.536	63.406	128.333	-60.616	-0.245	160.010	128.894	-22.313	-124.624	129.479	97.999	0.0011087	0.0011785	4.3968e-05	1035.5	8.2375e-06	3.3922e-06	836.77	423.48	4.2878e-06	2.9434e-06	352.53	156.43	185.89	102.74	9.4747e-06	87.859	0.00024239	0.00023136	6.44e-05	937.75	2.5517e-06	2.557e-06	763.38	375.95	2.5518e-06	2.5548e-06	313.1	136.13	155.29	88.019	2.5647e-06	74.526	-40.812	-22.481	142.359	-149.220	-19.458	52.164	-150.899	-144.325	-117.451	-31.664	-147.594	-143.215	-140.211	-136.104	-26.040	-140.227	-8191	255	
1817.533	1	1	0	0	0.17177	0.30056	0.025979	0.14712	0.1248	0.12986	0.3029	0.34352	0.052367	0.13592	0.25915	0.21871	0.23102	0.39276	0.1351	0.080448	-0.05625	-1.2938	-0.72708	-0.59792	-1.2167	-0.50625	-1.1333	-1.2	-0.63542	-1.2875	-0.94792	-0.76875	-1.3083	-0.775	-0.79375	-1.425	-77.687	-90.217	-146.547	-5.988	68.679	60.217	-149.570	177.966	-137.849	39.441	69.137	-126.515	-160.144	168.783	116.952	-102.871	0.0014542	0.00063949	0.00014018	1045.6	6.2024e-06	7.416e-07	833.89	421.79	9.5683e-06	1.6081e-06	356.2	156.11	185.81	103.1	5.6461e-06	88	0.00024209	0.00023389	6.4184e-05	942.46	2.5493e-06	2.5525e-06	761.49	375.12	2.5897e-06	2.566e-06	315.21	136.5	155.15	88.051	2.5849e-06	74.774	-36.113	-26.417	-129.180	-149.000	25.598	-95.016	-150.546	-144.340	-43.173	-31.427	-147.510	-142.749	-140.129	-135.882	-113.715	-140.318	-8191	255	
1817.629	1	1	0	0	0.09064	0.089412	0.039598	0.29249	0.14899	0.12507	0.26659	0.30352	0.31075	0.14585	0.054426	0.40754	0.49212	0.092706	0.16981	0.13687	-0.058333	-1.0542	-0.7625	-0.48542	-1.1771	-0.76875	-0.8	-1.2646	-0.32917	-1.1917	-1.0354	-0.6875	-1.3396	-0.95	-0.71458	-1.5312	163.341	-139.948	-58.353	-143.028	140.905	-57.152	189.064	119.388	22.143	-5.024	62.859	133.657	186.705	-81.908	-91.826	103.922	0.001003	0.00055507	3.4705e-05	1043.3	7.1201e-06	3.5457e-06	837.1	422.38	4.1017e-06	3.1654e-06	356.74	157.89	185.89	102.57	4.0545e-06	88.055	0.00024334	0.00023174	6.4953e-05	941.05	2.5373e-06	2.5372e-06	764.63	375.67	2.5573e-06	2.5626e-06	315.23	137.09	155.12	88.028	2.5711e-06	75.213	-33.977	-65.085	195.257	-149.119	40.370	-63.306	-150.829	-144.391	-103.715	7.075	-147.210	-143.011	-140.184	-135.828	-50.573	-140.255	-8191	255	
1817.703	1	1	0	0	0.2039	0.13554	0.41631	0.17099	0.10371	0.31494	0.14908	0.20415	0.10329	0.28475	0.18057	0.13909	0.10008	0.16898	0.16922	0.36179	-0.36667	-0.89583	-0.94583	-0.64167	-1.2292	-0.67917	-0.64583	-1.3	-0.64375	-1.1187	-0.975	-0.57917	-1.4542	-1.0333	-0.72292	-1.5167	-93.122	-142.696	-104.708	167.274	-142.528	-66.098	108.817	176.054	90.308	60.492	88.544	166.460	148.449	-146.442	50.828	173.676	0.0015147	0.00028823	0.00024289	1041.2	6.0417e-06	3.7451e-06	834.34	420.1	7.3575e-06	3.7422e-06	355.71	157.07	185.11	102.81	3.4221e-06	87.792	0.00024692	0.00023304	6.435e-05	938.31	2.5675e-06	2.5609e-06	762.65	374.69	2.5624e-06	2.5295e-06	314.06	136.37	154.9	87.759	2.564e-06	74.662	-39.082	-25.729	-90.873	-149.057	61.233	-30.194	-150.602	-144.087	-10.684	-3.554	-147.552	-143.001	-139.694	-135.952	-65.012	-140.158	-8191	255	
1817.822	1	1	0	0	0.20816	0.19046	0.095416	0.016133	0.22168	0.20103	0.24614	0.24484	0.20755	0.26154	0.30574	0.17879	0.17078	0.24781	0.30611	0.065453	-0.30208	-0.59583	-1.1875	-0.56042	-1.1083	-0.82708	-0.55208	-1.5187	-0.67083	-0.88333	-1.1417	-0.67083	-1.3167	-1.2896	-0.38125	-1.4708	193.680	136.245	-125.825	105.854	142.639	12.347	139.642	184.064	-6.975	-39.555	172.471	185.745	39.619	-147.870	-44.762	179.367	0.0011681	0.00057965	0.00020504	1028.9	1.0427e-06	2.4809e-06	824.34	420.52	5.8305e-06	3.8064e-06	349.86	156.59	184.17	102.51	6.2184e-06	87.57	0.0002434	0.00022993	6.3749e-05	933.92	2.5311e-06	2.4975e-06	755.17	373.28	2.5241e-06	2.529e-06	309.81	135.73	154.59	87.579	2.5522e-06	74.589	-32.097	-31.129	-73.859	-148.965	-93.614	35.887	-150.673	-144.210	-5.446	-29.926	-147.388	-143.151	-139.660	-135.914	-76.481	-140.574	-8191	255	
1817.918	1	1	0	0	0.33919	0.07831	0.11264	0.19368	0.010036	0.028163	0.14336	0.26833	0.1731	0.10259	0.25349	0.23402	0.13202	0.2857	0.44878	0.013677	-0.32917	-0.67083	-1.225	-0.55208	-1.1792	-0.84375	-0.70833	-1.3646	-0.39792	-0.71667	-1.2938	-0.5125	-1.3167	-1.4875	-0.49792	-1.4396	106.947	-1.034	180.975	197.432	-89.557	104.525	4.401	161.163	-20.467	15.192	-3.845	108.080	-110.586	146.887	161.812	0.750	0.0013258	0.00060507	0.0001227	1029.3	4.4655e-06	2.8668e-06	830.6	417.55	2.0858e-06	4.9224e-06	350.57	155.85	184.25	102.59	9.0287e-06	88.053	0.0002395	0.00023041	6.3286e-05	934.17	2.5145e-06	2.5073e-06	756.35	372.19	2.5086e-06	2.5391e-06	311.06	135.87	154.68	87.683	2.5333e-06	74.73	-37.120	-84.110	-55.883	-149.372	-50.560	0.992	-151.179	-144.427	-34.246	-23.790	-147.784	-143.403	-140.106	-136.023	-57.825	-140.485	-8191	255	
1818.014	1	1	0	0	0.16296	0.17508	0.10495	0.11433	0.28475	0.16631	0.24328	0.30285	0.1112	0.11525	0.20381	0.33452	0.077904	0.24864	0.16057	0.13178	-0.3625	-0.68958	-1.3333	-0.58542	-0.94167	-1.2042	-0.66458	-1.45	-0.8625	-0.5375	-1.3312	-0.58125	-1.1896	-1.4542	-0.34583	-1.2521	-142.788	-124.411	-95.758	191.097	7.767	31.166	82.690	84.249	29.299	39.319	107.775	188.521	-140.890	149.766	32.227	156.877	0.0011609	0.00049547	0.00012005	1032.7	2.2894e-06	6.0945e-06	831.25	420.21	9.9903e-06	2.0035e-06	355.81	156.52	184.8	102.33	5.2842e-06	87.697	0.00023948	0.00023015	6.3901e-05	935.17	2.5491e-06	2.4899e-06	758	373.59	2.5485e-06	2.5299e-06	312.36	136.29	154.85	87.775	2.5415e-06	74.911	-42.169	-127.166	-20.131	-149.172	20.642	-74.122	-151.157	-144.217	-101.425	9.286	-147.615	-143.156	-139.699	-136.061	-67.402	-140.264	-8191	255	
1818.110	1	1	0	0	0.15255	0.144	0.16678	0.29559	0.12905	0.1593	0.54923	0.33694	0.18928	0.20682	0.26112	0.056194	0.14819	0.17578	0.31299	0.27063	-0.3625	-0.56875	-1.2125	-0.55208	-0.82708	-1.075	-0.55417	-1.1896	-0.90208	-0.55	-1.1271	-0.51875	-0.74167	-1.5646	-0.48958	-1.0833	-57.121	-4.106	127.748	-124.710	51.265	96.313	184.936	184.277	-80.782	179.930	-155.371	-98.411	174.884	-156.646	-142.001	130.306	0.0012523	0.00052725	0.00025126	1035.8	9.0195e-06	4.6984e-06	833.37	420.32	8.3896e-06	3.228e-06	355.29	157.26	186.17	102.53	3.2782e-06	88.562	0.00023932	0.00023233	6.4263e-05	935.07	2.5402e-06	2.5033e-06	760.87	373.99	2.5582e-06	2.5363e-06	313.45	136.6	155.16	87.975	2.557e-06	75.268	-35.163	-88.997	-114.727	-149.255	-54.157	-111.795	-151.078	-144.152	-25.289	29.107	-147.251	-143.401	-139.860	-136.138	-44.618	-140.202	-8191	255	
1818.231	1	1	0	0	0.09335	0.098064	0.19081	0.21376	0.12734	0.061737	0.18487	0.11629	0.18399	0.2362	0.047567	0.24246	0.31386	0.34838	0.0949	0.077051	-0.55833	-0.41458	-1.3188	-0.85625	-0.6625	-1.375	-0.65833	-1.2917	-1.1146	-0.57708	-1.4438	-0.91875	-0.74375	-1.6292	-0.49792	-1.1354	-65.386	36.906	19.513	108.446	84.871	-77.228	119.174	46.261	87.908	130.107	-20.887	-159.264	189.999	188.087	50.270	-161.583	0.0012749	0.00090734	0.00024256	1036.8	4.2789e-06	7.0369e-06	829.36	419.32	1.0003e-05	9.0074e-06	352.8	155.64	185.24	102.55	7.3742e-06	87.616	0.00024091	0.00023225	6.4642e-05	935.18	2.554e-06	2.5208e-06	757.39	373.44	2.5214e-06	2.5206e-06	312.01	135.87	154.88	87.918	2.5577e-06	74.573	-39.302	-78.990	-124.109	-149.466	-6.594	25.487	-151.016	-144.336	-18.615	-23.811	-147.426	-143.219	-139.930	-136.049	-58.280	-140.295	-8191	255	
1818.302	1	1	0	0	0.10074	0.18536	0.051529	0.2344	0.1753	0.058349	0.44723	0.11351	0.21875	0.16122	0.23441	0.074196	0.24371	0.18756	0.27413	0.13555	-0.65208	-0.39167	-1.0938	-0.98542	-0.61667	-1.1833	-0.59375	-1.0833	-1.1896	-0.55417	-1.4438	-1.0333	-0.6125	-1.3563	-0.60417	-1.2021	-144.497	100.994	84.998	-133.694	122.499	-139.390	107.441	159.361	188.340	195.989	-4.179	168.335	117.808	178.754	111.247	-154.727	0.0013417	0.00043673	6.8957e-05	1036.5	5.4519e-06	7.8669e-06	825.53	418.62	3.9658e-06	3.7582e-06	352.24	156.69	184.56	102.45	6.8225e-06	87.708	0.00024188	0.000234	6.423e-05	933.13	2.5438e-06	2.5251e-06	755.56	373.12	2.5082e-06	2.5417e-06	311.14	135.67	154.72	87.815	2.5343e-06	74.607	-37.082	-81.360	-45.191	-149.405	101.899	8.607	-150.950	-144.152	-60.904	-29.916	-147.627	-143.396	-140.176	-136.051	-84.879	-139.953	-8191	255	
1818.423	1	1	0	0	0.073325	0.39274	0.24684	0.21656	0.27403	0.35568	0.26153	0.226	0.083718	0.17711	0.10196	0.16593	0.47299	0.26603	0.049523	0.051419	-0.71875	-0.39375	-1.0417	-0.96042	-0.36458	-1.1354	-0.61458	-1.1	-1.1375	-0.43958	-1.0438	-1.1437	-0.5	-1.6063	-0.66042	-0.6625	-111.701	174.327	8.837	196.189	15.139	-4.268	102.530	138.348	-57.274	-82.554	72.351	-125.179	183.300	125.881	-55.444	-10.104	0.001405	0.0010956	8.0835e-05	1031.8	6.1482e-06	3.8629e-06	827.54	418.36	5.9453e-06	3.2319e-06	354.74	156.79	185.56	103.14	4.9095e-06	87.875	0.00023923	0.00022999	6.3858e-05	931.97	2.5284e-06	2.5293e-06	755.15	373.05	2.5191e-06	2.4962e-06	311.8	136.02	154.89	88.232	2.5225e-06	74.899	-40.988	-28.170	-129.220	-149.308	-0.324	-36.439	-151.021	-144.423	-36.614	-34.313	-147.313	-142.961	-140.448	-135.948	189.726	-140.319	-8191	255	
1818.517	1	1	0	0	0.24175	0.20777	0.24099	0.098186	0.21444	0.069534	0.19679	0.3078	0.061397	0.18436	0.18168	0.15912	0.58911	0.29487	0.064741	0.4381	-0.88125	-0.62292	-1.0354	-1.2625	-0.36875	-1.45	-0.63333	-0.78958	-1.2333	-0.48333	-1.075	-1.1979	-0.54792	-1.4271	-0.87917	-0.775	37.787	92.837	137.989	152.747	29.859	57.881	56.996	166.647	-19.000	-114.374	75.850	113.925	-147.311	194.214	56.961	160.794	0.0013841	0.00056232	9.1351e-05	1033.8	6.5917e-06	3.9576e-06	836.71	420.05	4.6054e-06	5.939e-06	356.7	157.19	185.49	103.31	4.776e-06	89.081	0.00024039	0.00022937	6.3335e-05	934.62	2.5354e-06	2.506e-06	761.54	375	2.5189e-06	2.5138e-06	314.86	136.45	155.12	88.49	2.5305e-06	75.698	-39.159	31.772	-7.905	-149.597	-73.210	7.693	-150.724	-144.196	-86.259	-35.143	-147.616	-143.053	-139.902	-135.983	-103.833	-139.845	-8191	255	
1818.614	1	1	0	0	0.25282	0.27538	0.1003	0.18768	0.21591	0.12238	0.18417	0.48058	0.26836	0.17594	0.28382	0.10729	0.36104	0.45796	0.13183	0.30652	-1.0125	-0.40833	-0.85833	-1.4604	-0.37708	-1.225	-0.875	-0.63542	-1.3417	-0.68125	-1.0063	-1.1646	-0.65625	-1.2875	-0.82917	-0.86042	173.650	-23.265	-127.461	-159.008	104.162	-77.907	185.491	191.284	165.453	161.539	-147.485	-132.674	167.250	165.835	12.400	179.622	0.0010572	0.00013399	0.00011012	1035.3	3.044e-06	2.9016e-06	837.25	421.02	4.8026e-06	4.4959e-07	357.1	159.3	186.05	104.01	6.8752e-06	89.267	0.00023975	0.00022868	6.3436e-05	935.66	2.5228e-06	2.4767e-06	762.62	375.53	2.5156e-06	2.511e-06	316.18	137.99	155.64	88.881	2.4941e-06	75.841	-33.392	116.795	-75.916	-149.247	24.410	5.019	-151.173	-144.403	-1.852	142.403	-147.264	-143.297	-140.076	-135.851	7.106	-140.169	-8191	255	
1818.710	1	1	0	0	0.21489	0.30931	0.13111	0.037807	0.092627	0.080867	0.069061	0.12864	0.1024	0.093854	0.14389	0.15472	0.23719	0.27201	0.20616	0.30871	-0.84167	-0.66875	-0.64583	-1.4771	-0.47708	-1.2375	-1.0312	-0.60417	-1.1896	-0.53958	-0.74167	-1.3687	-0.56875	-1.1521	-0.90833	-0.57083	158.007	193.132	102.374	0.247	0.333	33.729	7.796	31.653	184.541	-65.902	-95.018	102.821	-157.590	171.562	135.411	191.521	0.0013019	0.00066692	9.0222e-05	1034.9	4.2036e-06	4.6489e-06	835.46	423.53	6.1385e-06	1.6271e-06	357.59	156.87	185.78	103.43	4.2699e-06	88.357	0.00023924	0.00022747	6.3733e-05	934.56	2.4808e-06	2.4905e-06	760.51	375.8	2.5151e-06	2.4849e-06	315.03	136.42	155.22	88.398	2.5048e-06	75.118	-42.744	-99.900	-92.084	-149.094	-9.874	170.109	-150.889	-144.234	-12.354	-132.569	-147.312	-143.089	-140.351	-135.944	-54.036	-140.205	-8191	255	
1818.830	1	1	0	0	0.21633	0.34884	0.1363	0.087338	0.1986	0.10415	0.11482	0.17212	0.25909	0.036287	0.28541	0.1454	0.019747	0.40794	0.071954	0.37117	-1.1167	-0.80417	-0.83333	-1.3667	-0.46042	-0.87917	-1.2167	-0.39583	-1.1417	-0.8375	-0.62292	-1.3604	-0.65208	-1.2083	-1.2292	-0.55	165.816	-147.539	86.904	-90.333	-19.194	0.382	172.879	151.144	65.660	-34.180	160.460	154.725	176.999	150.046	70.607	191.472	0.0010309	0.00094733	0.00023326	1031.5	1.277e-06	5.5201e-06	831.45	419.19	3.4905e-06	3.4381e-06	355.46	156.29	185.61	102.9	4.949e-06	88.144	0.00024028	0.00022829	6.3038e-05	933.35	2.5223e-06	2.5058e-06	757.52	374.6	2.5118e-06	2.4917e-06	314.08	136.09	155	88.134	2.5213e-06	74.857	-31.425	-84.976	-115.182	-149.093	80.965	-10.596	-150.814	-143.831	-71.921	80.853	-147.556	-142.898	-139.863	-135.928	-132.531	-139.939	-8191	255	
1818.926	1	1	0	0	0.079749	0.040881	0.1538	0.1064	0.35342	0.21393	0.18149	0.32207	0.20052	0.29559	0.070283	0.30644	0.13796	0.23631	0.14148	0.25259	-0.95208	-0.62292	-0.38542	-1.4042	-0.59375	-0.84375	-1.3208	-0.67083	-1.1313	-1.0667	-0.66458	-1.4146	-0.75833	-1.1042	-1.1833	-0.41875	116.883	-91.269	-1.121	180.509	5.436	110.702	108.978	190.969	195.152	-45.891	81.759	149.655	12.909	-157.867	70.376	109.147	0.0011707	0.00063918	9.842e-05	1030.1	6.0619e-06	6.3023e-06	833.91	419.53	5.6402e-07	3.3534e-06	355.54	157.1	186.31	102.76	5.0531e-06	88.311	0.0002376	0.00022747	6.3738e-05	934.51	2.5213e-06	2.4928e-06	757.5	374	2.5268e-06	2.5155e-06	314.58	136.71	155.07	88.14	2.5433e-06	75.01	-26.299	-125.404	-132.246	-148.849	-34.438	13.439	-150.856	-144.305	-142.490	-23.213	-147.328	-143.237	-139.769	-135.853	-88.165	-140.046	-8191	255	
1818.998	1	1	0	0	0.070841	0.34357	0.016623	0.091118	0.13118	0.21411	0.093666	0.062194	0.14164	0.17334	0.084722	0.39895	0.048781	0.18836	0.060442	0.3127	-0.83542	-0.9625	-0.45	-1.3396	-0.54375	-0.77917	-1.3229	-0.7125	-1.0646	-1.25	-0.52708	-1.2833	-0.87917	-1.0312	-1.4542	-0.49792	-106.955	105.560	-46.535	-55.514	-141.247	123.668	87.365	195.025	178.242	9.134	59.766	127.782	-76.006	-148.137	169.154	173.699	0.0011831	0.00061997	9.906e-05	1041.8	2.6516e-06	4.9005e-06	836.3	422.26	1.6512e-06	2.6726e-06	355.87	158.55	186.02	103.36	7.2751e-06	88.796	0.00023926	0.00022901	6.4424e-05	936.82	2.5402e-06	2.5151e-06	760.86	375.09	2.5411e-06	2.5141e-06	314.59	137.46	154.94	88.402	2.5315e-06	75.588	-37.517	-156.525	15.077	-149.107	117.443	-63.750	-150.609	-144.246	-32.016	-80.429	-147.261	-142.810	-139.846	-135.847	-98.271	-140.389	-8191	255	
1819.094	1	1	0	0	0.24228	0.14988	0.17067	0.10635	0.081306	0.13804	0.5219	0.38049	0.089671	0.12746	0.082187	0.14423	0.23493	0.29316	0.11336	0.083064	-0.6375	-1.0125	-0.25833	-1.3	-0.7375	-0.61667	-1.4104	-0.40208	-1.0312	-1.3062	-0.29375	-1.1479	-0.96667	-0.69583	-1.3167	-0.86458	167.002	160.753	76.648	189.023	-68.431	-113.214	81.993	141.007	156.278	-69.887	82.540	-125.574	157.298	197.571	113.309	190.784	0.0013053	0.00047426	0.00028024	1044.8	7.4628e-06	5.3963e-06	837.47	419.52	1.8328e-06	1.3359e-06	356.49	157.57	185.41	103.13	6.5593e-06	88.546	0.00024192	0.00023016	6.4631e-05	938.92	2.5365e-06	2.5526e-06	764	374.72	2.5369e-06	2.5189e-06	315.24	137.31	155.17	88.273	2.5581e-06	75.259	-37.731	-51.396	-146.225	-148.729	26.080	0.135	-150.545	-144.264	-113.177	-142.621	-147.189	-142.416	-140.197	-135.928	-31.693	-139.935	-8191	255	
1819.190	1	1	0	0	0.19763	0.14445	0.017738	0.30019	0.16366	0.1319	0.13564	0.26208	0.12413	0.045517	0.20459	0.18438	0.076853	0.30962	0.10726	0.18034	-0.24583	-1.1437	-0.30833	-1.1854	-1.0042	-0.55208	-1.3625	-0.73333	-0.69375	-1.2333	-0.50417	-1.1479	-0.93333	-0.88958	-1.2458	-0.74375	176.915	6.451	-115.683	-110.365	-3.131	-32.079	-143.755	-100.414	58.732	-44.589	73.697	-142.055	181.474	-159.880	-148.830	-153.688	0.0011221	0.0005127	2.9399e-05	1038.1	4.9084e-06	3.3833e-06	832.68	419.77	4.2672e-06	4.1837e-06	354.58	157.22	184.89	102.77	1.1469e-06	87.798	0.00024219	0.00022979	6.4877e-05	936.52	2.5292e-06	2.5453e-06	760.27	374.05	2.5125e-06	2.5137e-06	313.11	136.51	154.92	88.072	2.5441e-06	74.729	-34.727	-102.967	-83.928	-148.994	-90.794	63.997	-150.788	-144.320	-2.246	50.026	-147.716	-143.022	-139.779	-135.799	-52.315	-140.182	-8191	255	
#DATA ENDS
