BOXY.EXE: ISS Imagent and Oximeter Data Acquisition Program Version 0.80
Ascii Record File

#ACQ INFORMATION
2  Detector Channels 
16  External MUX Channels 
1  Auxiliary Channels 
5000  Waveform (CCF) Frequency (Hz)
1  Waveforms Skipped 
30  Waveforms Averaged 
1  Cycles Averaged 
16  Acquisitions per Waveform 
10.0806  Updata Rate (Hz) 

#FILE INFORMATION
TRUE -- External MUX Channel results are PARSED.
FALSE -- AC DC and Phase are NOT grouped.
TRUE -- Companion Program Settings File CREATED.
FALSE -- AC data not excluded
FALSE -- DC data not excluded
FALSE -- Phase data not excluded
FALSE -- Auxillary Chn. data not excluded
Tab delimiters

#CALIBRATION STATE
TRUE -- Waveform Calibration Values APPLIED.


#AUX CALIBRATION VALUES
Val Type	aux-1	

Term	1.0000e+00	
Factor	0.0000e+00	


#WF CALIBRATION VALUES
A = Detector Channel
Val Type	A-AC1	A-AC2	A-AC3	A-AC4	A-AC5	A-AC6	A-AC7	A-AC8	A-AC9	A-AC10	A-AC11	A-AC12	A-AC13	A-AC14	A-AC15	A-AC16	A-DC1	A-DC2	A-DC3	A-DC4	A-DC5	A-DC6	A-DC7	A-DC8	A-DC9	A-DC10	A-DC11	A-DC12	A-DC13	A-DC14	A-DC15	A-DC16	A-Ph1	A-Ph2	A-Ph3	A-Ph4	A-Ph5	A-Ph6	A-Ph7	A-Ph8	A-Ph9	A-Ph10	A-Ph11	A-Ph12	A-Ph13	A-Ph14	A-Ph15	A-Ph16	

Term	0.00000e+00	0.00000e+00	0.00000e+00	0.00000e+00	0.00000e+00	0.00000e+00	0.00000e+00	0.00000e+00	0.00000e+00	0.00000e+00	0.00000e+00	0.00000e+00	0.00000e+00	0.00000e+00	0.00000e+00	0.00000e+00	0.00000e+00	0.00000e+00	0.00000e+00	0.00000e+00	0.00000e+00	0.00000e+00	0.00000e+00	0.00000e+00	0.00000e+00	0.00000e+00	0.00000e+00	0.00000e+00	0.00000e+00	0.00000e+00	0.00000e+00	0.00000e+00	0.00000e+00	0.00000e+00	0.00000e+00	0.00000e+00	0.00000e+00	0.00000e+00	0.00000e+00	0.00000e+00	0.00000e+00	0.00000e+00	0.00000e+00	0.00000e+00	0.00000e+00	0.00000e+00	0.00000e+00	0.00000e+00	
Factor	1.00000e+00	1.00000e+00	1.00000e+00	1.00000e+00	1.00000e+00	1.00000e+00	1.00000e+00	1.00000e+00	1.00000e+00	1.00000e+00	1.00000e+00	1.00000e+00	1.00000e+00	1.00000e+00	1.00000e+00	1.00000e+00	1.00000e+00	1.00000e+00	1.00000e+00	1.00000e+00	1.00000e+00	1.00000e+00	1.00000e+00	1.00000e+00	1.00000e+00	1.00000e+00	1.00000e+00	1.00000e+00	1.00000e+00	1.00000e+00	1.00000e+00	1.00000e+00	X	X	X	X	X	X	X	X	X	X	X	X	X	X	X	X	

B = Detector Channel
Val Type	B-AC1	B-AC2	B-AC3	B-AC4	B-AC5	B-AC6	B-AC7	B-AC8	B-AC9	B-AC10	B-AC11	B-AC12	B-AC13	B-AC14	B-AC15	B-AC16	B-DC1	B-DC2	B-DC3	B-DC4	B-DC5	B-DC6	B-DC7	B-DC8	B-DC9	B-DC10	B-DC11	B-DC12	B-DC13	B-DC14	B-DC15	B-DC16	B-Ph1	B-Ph2	B-Ph3	B-Ph4	B-Ph5	B-Ph6	B-Ph7	B-Ph8	B-Ph9	B-Ph10	B-Ph11	B-Ph12	B-Ph13	B-Ph14	B-Ph15	B-Ph16	

Term	0.00000e+00	0.00000e+00	0.00000e+00	0.00000e+00	0.00000e+00	0.00000e+00	0.00000e+00	0.00000e+00	0.00000e+00	0.00000e+00	0.00000e+00	0.00000e+00	0.00000e+00	0.00000e+00	0.00000e+00	0.00000e+00	0.00000e+00	0.00000e+00	0.00000e+00	0.00000e+00	0.00000e+00	0.00000e+00	0.00000e+00	0.00000e+00	0.00000e+00	0.00000e+00	0.00000e+00	0.00000e+00	0.00000e+00	0.00000e+00	0.00000e+00	0.00000e+00	-8.95078e+00	-1.28313e+02	-1.59213e+02	-1.83430e+02	-6.27312e+01	-7.13637e+01	-1.58223e+02	-1.62015e+02	-5.99673e+01	-9.13236e+01	-1.73512e+02	-1.71486e+02	-1.82993e+02	-1.77391e+02	-9.45175e+01	-1.50029e+02	
Factor	3.31521e-05	1.02412e-04	2.51838e-05	1.74125e-01	9.41655e-07	7.87002e-07	1.67823e-01	5.34825e-02	9.62964e-07	9.16794e-07	9.32518e-02	3.26786e-02	3.77044e-02	9.61610e-03	1.01061e-06	1.39087e-02	4.73983e-07	4.79203e-07	1.33295e-07	8.43310e-02	5.25646e-09	5.25144e-09	7.68524e-02	2.57750e-02	5.24916e-09	5.24987e-09	4.19250e-02	1.46082e-02	1.67917e-02	4.47682e-03	5.26103e-09	6.16901e-03	X	X	X	X	X	X	X	X	X	X	X	X	X	X	X	X	



#DISTANCE SETTINGS
A = Detector Channel
A-1	A-2	A-3	A-4	A-5	A-6	A-7	A-8	A-9	A-10	A-11	A-12	A-13	A-14	A-15	A-16	

2.5000e+00	3.0000e+00	2.5000e+00	3.0000e+00	2.0000e+00	3.0000e+00	1.5000e+00	3.0000e+00	3.0000e+00	3.0000e+00	3.0000e+00	3.0000e+00	3.0000e+00	3.0000e+00	1.5000e+00	3.0000e+00	

B = Detector Channel
B-1	B-2	B-3	B-4	B-5	B-6	B-7	B-8	B-9	B-10	B-11	B-12	B-13	B-14	B-15	B-16	

1.0000e+01	1.0000e+01	1.0000e+01	1.4400e+00	1.0000e+01	1.0000e+01	1.5100e+00	1.9400e+00	1.0000e+01	1.0000e+01	1.9900e+00	2.4900e+00	2.4100e+00	2.9000e+00	1.0000e+01	2.9800e+00	




#DATA BEGINS
time	group	step	mark	flag	A-AC1	A-AC2	A-AC3	A-AC4	A-AC5	A-AC6	A-AC7	A-AC8	A-AC9	A-AC10	A-AC11	A-AC12	A-AC13	A-AC14	A-AC15	A-AC16	A-DC1	A-DC2	A-DC3	A-DC4	A-DC5	A-DC6	A-DC7	A-DC8	A-DC9	A-DC10	A-DC11	A-DC12	A-DC13	A-DC14	A-DC15	A-DC16	A-Ph1	A-Ph2	A-Ph3	A-Ph4	A-Ph5	A-Ph6	A-Ph7	A-Ph8	A-Ph9	A-Ph10	A-Ph11	A-Ph12	A-Ph13	A-Ph14	A-Ph15	A-Ph16	B-AC1	B-AC2	B-AC3	B-AC4	B-AC5	B-AC6	B-AC7	B-AC8	B-AC9	B-AC10	B-AC11	B-AC12	B-AC13	B-AC14	B-AC15	B-AC16	B-DC1	B-DC2	B-DC3	B-DC4	B-DC5	B-DC6	B-DC7	B-DC8	B-DC9	B-DC10	B-DC11	B-DC12	B-DC13	B-DC14	B-DC15	B-DC16	B-Ph1	B-Ph2	B-Ph3	B-Ph4	B-Ph5	B-Ph6	B-Ph7	B-Ph8	B-Ph9	B-Ph10	B-Ph11	B-Ph12	B-Ph13	B-Ph14	B-Ph15	B-Ph16	aux-1	digaux	

667.048	1	1	0	768	0.034617	0.29022	0.11334	0.13055	0.22064	0.23624	0.31891	0.09944	0.065241	0.22373	0.25059	0.15686	0.12274	0.14826	0.072162	0.21586	0.25	-0.75208	-0.34792	-0.40833	-1.0375	-0.079167	-0.66458	-1.0729	-0.27083	-0.86667	-0.6375	-0.18333	-1.2792	-0.36042	-0.4	-1.1229	101.318	226.802	152.162	-55.178	-10.143	234.273	247.224	-51.778	88.838	157.957	255.368	-32.191	185.095	255.658	112.929	282.176	0.00033866	0.00014931	7.4949e-05	1355.2	9.1434e-06	5.7717e-06	1356.6	367.42	4.8127e-06	1.9543e-06	421.07	139.81	121.89	41.796	2.3633e-06	51.848	0.00052792	0.00052848	0.00014708	1367.9	5.7678e-06	5.745e-06	1369.3	371.79	5.7313e-06	5.7196e-06	424.33	142.18	123.38	42.655	5.7128e-06	52.756	269.337	19.938	264.599	-53.313	119.759	72.060	-53.304	-48.633	-47.075	80.311	-49.221	-44.503	-43.645	-39.762	78.786	-40.487	-8191	255	
667.145	1	1	0	0	0.1159	0.045418	0.222	0.42271	0.23644	0.26033	0.158	0.1284	0.019139	0.33631	0.045687	0.11162	0.4941	0.19808	0.13331	0.19065	0.12083	-0.95	-0.59583	-0.31458	-1.2687	-0.38958	-0.57917	-0.98958	0.0125	-0.68125	-0.80417	-0.35208	-1.2313	-0.42917	-0.30417	-1.2417	287.444	175.871	20.001	280.876	72.562	212.603	189.993	161.834	33.661	16.620	64.012	12.335	225.248	211.857	153.162	168.969	0.00026152	0.00024747	6.1988e-05	1358.2	1.3496e-06	2.8705e-06	1355.2	366.46	7.3969e-06	1.9499e-06	420.15	139.72	121.68	41.971	7.2254e-06	52.107	0.00052083	0.00052038	0.00014504	1369.1	5.7437e-06	5.7191e-06	1367.1	371.48	5.7048e-06	5.7287e-06	423.97	142.02	123.19	42.686	5.7159e-06	52.805	254.924	94.317	70.101	-52.995	61.489	47.239	-53.286	-48.645	127.385	63.920	-49.296	-44.545	-43.591	-39.530	8.810	-40.612	-8191	255	
667.241	1	1	0	0	0.22097	0.27476	0.086783	0.23361	0.21555	0.26254	0.30186	0.14189	0.35252	0.14123	0.078116	0.4051	0.28396	0.20346	0.12078	0.12686	0.1125	-0.68542	-0.75833	-0.24167	-0.96667	-0.52708	-0.62917	-1.1313	-0.23542	-0.51875	-1.3312	-0.29167	-0.95208	-0.60208	-0.22708	-1.0667	121.220	88.795	32.362	-6.865	-9.644	-17.647	240.368	243.325	13.329	111.322	276.405	238.322	182.447	-34.159	123.905	248.011	0.00010231	0.00065456	0.00022818	1360.6	3.8726e-06	1.8068e-06	1360.2	367.15	1.1107e-05	2.8037e-06	420.22	140.5	121.73	41.666	8.9013e-06	51.608	0.00051886	0.00052014	0.00014471	1370	5.7172e-06	5.7278e-06	1370.4	371.6	5.7822e-06	5.7589e-06	423.96	142.31	123.66	42.722	5.7945e-06	52.888	-7.973	0.917	274.498	-53.349	82.559	60.044	-53.024	-48.461	89.831	65.528	-49.262	-44.323	-43.796	-39.863	-63.186	-40.340	-8191	255	
667.337	1	1	0	0	0.08508	0.25022	0.26122	0.15989	0.10786	0.088345	0.081531	0.27514	0.23032	0.30973	0.24316	0.33418	0.023528	0.16136	0.14284	0.11467	-0.08125	-0.27708	-0.99583	-0.34167	-0.77917	-0.69167	-0.45625	-1.0708	-0.30417	-0.28333	-1.2125	-0.18958	-0.97292	-0.89375	-0.21042	-1.0979	247.074	-55.327	35.701	262.172	278.937	226.679	192.005	28.142	232.725	250.523	22.607	254.748	213.764	35.856	66.714	191.589	0.00022992	0.00090009	0.00015003	1356.5	2.5673e-06	5.9188e-06	1354.3	367.3	3.2018e-06	4.6912e-06	420.42	139.26	121.06	41.863	4.0845e-06	52.279	0.00052791	0.00053386	0.00014816	1369.5	5.8429e-06	5.8329e-06	1368.5	372.19	5.8205e-06	5.8316e-06	424.36	142.22	123.24	42.732	5.8213e-06	52.915	270.851	-65.480	45.119	-53.181	46.793	119.005	-53.306	-48.547	73.918	53.698	-49.280	-44.452	-43.791	-39.837	38.690	-40.351	-8191	255	
667.433	1	1	0	0	0.14786	0.17757	0.15267	0.25052	0.074445	0.1903	0.31802	0.22306	0.21516	0.28674	0.23852	0.10497	0.34425	0.11097	0.079024	0.20987	0.05	-0.30417	-0.99792	-0.44792	-0.78125	-0.68125	-0.50625	-1.1313	-0.70208	-0.50208	-0.86875	-0.38125	-0.83542	-0.925	0.064583	-0.85833	160.597	78.165	120.504	274.689	102.634	-64.168	-66.044	194.335	284.784	238.471	242.095	190.023	283.077	3.949	236.989	-19.035	0.00040909	0.00037323	8.4099e-05	1353.2	4.3292e-06	8.43e-06	1354.2	366.63	3.9207e-06	3.422e-06	420.47	140.26	120.88	41.912	7.2144e-06	52.364	0.00052842	0.00053031	0.00014698	1367.6	5.7737e-06	5.8041e-06	1367.4	371.64	5.7846e-06	5.7758e-06	424.7	142.24	123.29	42.708	5.7816e-06	52.948	264.250	-22.613	-50.233	-53.117	94.490	73.704	-53.106	-48.365	278.993	27.280	-49.116	-44.472	-43.637	-39.680	105.748	-40.283	-8191	255	
667.529	1	1	0	0	0.26325	0.075531	0.18221	0.19773	0.18086	0.17401	0.12298	0.25431	0.13075	0.093559	0.24788	0.20126	0.25606	0.12867	0.21232	0.29525	-0.19375	-0.27292	-0.9875	-0.60417	-0.50625	-0.9125	-0.20208	-0.77083	-0.40417	-0.38958	-1.0917	-0.55417	-0.41458	-1.2188	-0.39792	-0.86042	-7.508	180.330	68.327	272.977	281.660	9.946	217.253	222.856	288.504	13.888	5.110	173.150	272.297	-10.843	251.551	-64.571	0.00018631	9.1996e-05	8.9719e-05	1356.1	4.9862e-06	1.5902e-06	1351.9	366.92	4.2892e-06	5.3288e-06	419.13	139.55	121.04	41.801	3.5753e-06	51.91	0.00052437	0.00052503	0.00014641	1367.7	5.7827e-06	5.7611e-06	1367	371.59	5.7722e-06	5.7838e-06	424.55	141.93	123.31	42.643	5.7788e-06	52.761	-47.613	55.690	88.771	-53.279	103.319	94.955	-53.178	-48.414	60.418	-10.127	-49.315	-44.382	-43.730	-39.882	22.121	-40.497	-8191	255	
667.650	1	1	0	0	0.13616	0.27699	0.2581	0.52028	0.14622	0.11896	0.16985	0.26072	0.083463	0.14358	0.24263	0.20067	0.27472	0.18081	0.063571	0.10793	-0.18125	-0.125	-1.2167	-0.33542	-0.47083	-0.98542	-0.30208	-0.85208	-0.65833	-0.32917	-1.3396	-0.30417	-0.4375	-0.92083	-0.083333	-0.78958	14.251	168.361	-40.209	-52.450	221.397	289.272	166.558	162.758	103.935	-49.131	263.039	-16.366	251.258	198.743	86.889	149.407	0.00032431	0.00063427	4.7218e-05	1352.9	2.3456e-06	4.5459e-06	1358.4	368.07	6.8084e-06	8.5953e-06	419.25	139.8	120.75	41.8	1.3996e-06	51.786	0.00052255	0.00052506	0.00014601	1367	5.7628e-06	5.7549e-06	1367.5	371.69	5.7367e-06	5.782e-06	424.5	142.04	123.16	42.656	5.7927e-06	52.802	245.787	61.055	282.050	-53.384	159.553	3.168	-53.341	-48.583	57.872	-0.967	-49.465	-44.497	-43.744	-39.457	83.157	-40.479	-8191	255	
667.746	1	1	0	0	0.13793	0.13048	0.19264	0.10799	0.25904	0.22287	0.18048	0.14551	0.12137	0.04952	0.021585	0.26546	0.17227	0.1446	0.26567	0.093369	-0.32292	0.079167	-0.93958	-0.60833	-0.21458	-0.89583	-0.54375	-0.77083	-0.77292	0.014583	-1.0167	-0.60833	-0.30625	-0.94792	-0.35833	-0.54583	228.454	290.293	107.218	243.177	286.776	175.648	-49.168	-0.166	250.650	-13.393	-27.511	198.517	-63.095	233.003	137.204	145.635	0.00010044	0.0010311	0.00013263	1358.4	4.3626e-06	4.5596e-06	1353.7	367.09	2.99e-06	1.6645e-06	418.51	139.45	120.97	41.848	2.4097e-06	51.973	0.00052991	0.0005285	0.00014661	1369.5	5.8058e-06	5.7824e-06	1367.2	371.78	5.8113e-06	5.8265e-06	424.79	141.95	123.46	42.72	5.8303e-06	52.883	229.934	43.406	-13.556	-53.475	82.135	103.786	-53.447	-48.439	204.775	-44.040	-48.786	-44.336	-43.706	-39.736	27.181	-40.441	-8191	255	
667.842	1	1	0	0	0.1536	0.22046	0.15439	0.12479	0.083077	0.30151	0.11287	0.16268	0.14545	0.27687	0.23237	0.34814	0.14249	0.27424	0.28139	0.12348	-0.45417	-0.22292	-1.0312	-0.7625	-0.17292	-0.95833	-0.775	-0.65625	-0.97292	-0.0083333	-1.0271	-0.85	-0.25	-0.92917	-0.47292	-0.64792	-50.136	117.822	187.731	283.634	22.016	266.160	219.104	245.905	167.040	-28.351	271.078	260.161	-20.388	-7.219	-5.141	41.270	0.0003466	0.00055749	5.7927e-05	1353.7	3.0995e-06	6.5347e-06	1352.7	365.61	5.8821e-06	1.9612e-06	418.34	140.16	121.17	41.836	3.6871e-06	51.928	0.00053026	0.00053293	0.00014831	1366.9	5.84e-06	5.8051e-06	1366.8	371.29	5.7949e-06	5.7979e-06	423.54	142.06	123.29	42.684	5.7587e-06	52.779	-35.413	22.274	118.035	-53.221	138.550	-14.616	-53.214	-48.347	157.234	285.985	-49.112	-44.375	-43.829	-39.592	171.451	-40.228	-8191	255	
667.938	1	1	0	0	0.24075	0.26741	0.1816	0.16365	0.024581	0.22532	0.21091	0.020995	0.34268	0.071172	0.12265	0.19167	0.13754	0.28731	0.090072	0.33755	-0.53333	-0.17292	-0.7875	-0.77708	-0.16042	-1.0625	-0.56667	-0.375	-0.86667	-0.19167	-0.91875	-0.76667	-0.37083	-0.93333	-0.41875	-0.52083	50.795	8.071	216.671	277.302	209.264	170.052	216.747	42.612	18.898	128.023	196.674	274.438	161.597	185.597	-47.867	204.078	0.00025348	0.00076492	0.00010541	1350.5	7.0994e-06	2.1673e-06	1350.6	367.43	2.9782e-06	4.5506e-06	419.49	139.61	122.06	41.75	5.8961e-06	51.886	0.0005262	0.00052856	0.0001466	1367.4	5.8006e-06	5.817e-06	1365.9	372.09	5.815e-06	5.8184e-06	424.91	141.98	123.39	42.666	5.8268e-06	52.807	278.562	71.174	76.724	-53.309	33.630	55.967	-53.341	-48.452	-25.894	15.996	-49.094	-44.488	-43.646	-39.726	97.184	-40.314	-8191	255	
668.033	1	1	0	0	0.10849	0.14005	0.28134	0.18877	0.14141	0.066467	0.10212	0.42541	0.28575	0.059628	0.14396	0.21965	0.08532	0.13114	0.21396	0.34094	-0.7	-0.13958	-0.5625	-1.1104	-0.089583	-0.78542	-0.95417	-0.53542	-0.89583	-0.30833	-0.8375	-1.0938	-0.13125	-1.0688	-0.51458	-0.14167	13.018	224.427	110.558	243.728	154.027	36.418	-57.457	213.724	32.635	184.547	-51.292	-57.063	221.037	222.976	8.673	122.596	0.00010433	0.00064972	7.6719e-05	1350.1	7.756e-06	3.5225e-06	1351.9	366.56	3.5982e-06	4.9141e-06	418.7	139.37	121.55	41.738	4.6719e-06	51.605	0.000529	0.00052982	0.00014814	1368.5	5.8413e-06	5.8459e-06	1367	371.69	5.8392e-06	5.8548e-06	424.6	142.13	123.57	42.687	5.8596e-06	52.852	50.008	29.213	24.594	-53.352	169.554	161.181	-53.452	-48.528	53.843	108.839	-49.347	-44.566	-43.508	-39.708	149.484	-40.327	-8191	255	
668.129	1	1	0	0	0.29603	0.019009	0.26649	0.19937	0.10459	0.29015	0.40643	0.14844	0.48497	0.037868	0.33973	0.080186	0.15923	0.14953	0.1036	0.053247	-0.60833	-0.19583	-0.59375	-1.1792	-0.125	-0.6625	-0.98958	-0.375	-0.90208	-0.36875	-0.62292	-1.0604	-0.12083	-1.0312	-0.67917	-0.20208	87.059	113.707	271.955	254.424	230.073	217.156	205.387	176.289	150.850	41.315	-28.463	214.629	-66.030	213.680	-40.256	208.623	0.00020436	0.00029218	0.00020548	1358	6.4424e-06	7.2376e-06	1351.9	366.19	3.6985e-06	5.5039e-06	420.05	140.53	121.06	41.766	1.0117e-05	51.837	0.00053193	0.00053373	0.00014838	1370.3	5.8211e-06	5.8129e-06	1366.1	371.33	5.8126e-06	5.7947e-06	424.85	142.39	123.37	42.648	5.8168e-06	52.848	-56.668	122.165	68.021	-53.390	115.797	100.831	-53.257	-48.567	-33.933	-57.147	-49.121	-44.426	-43.892	-39.620	-36.809	-40.461	-8191	255	
668.225	1	1	0	0	0.18161	0.12728	0.075859	0.29367	0.16358	0.1237	0.4276	0.29139	0.096499	0.17384	0.10958	0.028988	0.067817	0.081234	0.21158	0.33168	-0.52292	-0.33958	-0.47917	-1.2229	-0.16458	-0.59375	-1.0438	-0.45208	-0.74583	-0.53958	-0.50833	-1.2437	-0.054167	-0.70417	-0.90208	-0.25625	132.456	125.294	48.763	-58.442	177.579	22.855	183.762	252.396	162.057	276.587	-38.600	281.448	-43.957	78.798	-20.877	244.228	0.00019098	0.00050023	0.0001964	1351	4.3231e-06	3.8806e-06	1359.1	364.69	4.5555e-06	2.6305e-06	419.85	140.01	121.44	41.859	4.5068e-06	51.914	0.00053108	0.00053389	0.00014893	1368.3	5.8517e-06	5.8553e-06	1370.3	371.64	5.9019e-06	5.9247e-06	424.94	142.77	123.81	42.825	5.9725e-06	53.011	-63.159	2.314	284.344	-53.208	284.328	186.602	-53.487	-48.565	-31.457	96.143	-49.116	-44.483	-44.129	-39.851	-4.660	-40.468	-8191	255	
668.346	1	1	0	0	0.15607	0.11769	0.085461	0.12631	0.1554	0.21238	0.27733	0.37923	0.16828	0.11614	0.05636	0.06812	0.22851	0.32779	0.20373	0.15348	-0.38333	-0.30625	-0.085417	-1.3188	-0.083333	-0.66875	-1.1875	-0.17917	-0.97292	-0.64375	-0.20833	-1.15	-0.71042	-0.41458	-0.85417	-0.21667	5.669	132.714	148.895	146.805	252.417	170.879	-65.580	258.914	118.377	229.031	-33.654	-16.510	214.447	254.071	283.280	272.723	0.00033419	0.00054841	5.1934e-05	1353.9	2.2003e-06	5.4376e-06	1354.3	365.5	6.4692e-06	1.3078e-06	417.97	138.9	120.64	41.701	2.642e-06	51.859	0.00054319	0.00054626	0.00015269	1371.5	6.0088e-06	5.967e-06	1371	372.3	6.0292e-06	6.0222e-06	424.77	142.34	123.98	42.847	6.045e-06	53.021	274.854	-26.133	256.146	-53.433	120.869	168.394	-53.349	-48.518	132.200	201.566	-49.213	-44.271	-43.878	-39.666	1.809	-40.725	-8191	255	
668.442	1	1	0	0	0.099308	0.018715	0.23711	0.20806	0.29962	0.067309	0.36175	0.10344	0.28808	0.080819	0.29489	0.046686	0.1386	0.30906	0.12535	0.29067	-0.4375	-0.38125	-0.23542	-1.2313	-0.4	-0.38542	-1.1729	-0.325	-0.78958	-0.93125	-0.40208	-1.1896	-0.44583	-0.45208	-1.2021	-0.22292	0.131	95.865	-34.863	289.092	13.245	87.158	221.911	9.500	38.743	193.092	193.466	87.584	287.052	-42.976	266.227	286.514	0.00040671	0.00048298	5.5553e-05	1351.7	5.4629e-06	4.3997e-06	1354	365.21	4.6033e-06	4.5794e-06	419.45	139.84	121.1	41.684	4.372e-06	51.786	0.00054945	0.00054729	0.00015361	1371.2	6.0264e-06	6.0337e-06	1371	372.4	6.0496e-06	6.0174e-06	425.67	142.67	124	42.822	6.0193e-06	53.088	279.991	91.329	-47.923	-53.168	-25.107	76.908	-53.332	-48.662	227.285	87.586	-48.931	-44.229	-43.960	-39.599	3.310	-40.403	-8191	255	
668.538	1	1	0	0	0.20483	0.12418	0.17817	0.22928	0.10433	0.15885	0.17333	0.10833	0.28671	0.075084	0.24581	0.10803	0.28848	0.083738	0.24342	0.18647	-0.15208	-0.72708	-0.27083	-1.0229	-0.49792	-0.18333	-1.0229	-0.4	-0.49375	-0.86875	-0.29792	-1.1063	-0.67917	-0.2125	-0.9875	-0.475	220.944	6.048	183.395	262.786	101.987	-23.801	247.234	248.756	180.642	33.106	251.588	-6.836	-21.717	-14.443	215.647	155.505	0.00023432	0.00039233	0.00019777	1351	3.1205e-06	5.4311e-06	1351.8	367.46	3.9756e-06	4.6111e-06	419.64	139.54	121.32	41.89	7.4827e-06	51.603	0.0005491	0.00055165	0.00015495	1370.3	6.0584e-06	6.08e-06	1370.8	372.71	6.0919e-06	6.0763e-06	426.56	142.83	124.28	42.945	6.1361e-06	53.1	255.001	-20.119	-44.187	-53.407	-20.865	167.585	-53.340	-48.602	35.530	131.339	-49.223	-44.335	-44.194	-39.729	100.990	-40.294	-8191	255	
668.610	1	1	0	0	0.076836	0.16204	0.13954	0.16496	0.12766	0.1523	0.24899	0.2085	0.029509	0.25317	0.24438	0.12014	0.41723	0.35509	0.38706	0.023968	-0.33333	-0.9625	-0.029167	-1.1	-0.67292	-0.17083	-1.2167	-0.48958	-0.26042	-0.91458	-0.26042	-0.91458	-0.87708	-0.10208	-1.3146	-0.50208	-55.620	127.490	13.964	213.419	144.977	228.179	235.580	268.372	-49.311	176.267	-54.853	-0.591	-48.548	258.013	273.050	111.174	0.00049373	0.00090768	5.5916e-05	1353.8	8.5735e-06	4.3817e-07	1356.8	365.23	1.0335e-05	5.7683e-06	418.74	139.83	120.5	41.618	1.9937e-06	51.729	0.000559	0.00055987	0.00015673	1375.6	6.2006e-06	6.1994e-06	1374.3	372.84	6.1937e-06	6.213e-06	427.03	143.09	124.58	42.936	6.1953e-06	53.113	240.440	70.442	237.295	-53.087	153.007	61.688	-53.141	-48.530	155.226	99.373	-49.395	-44.140	-43.893	-39.756	90.890	-40.657	-8191	255	
668.730	1	1	0	0	0.2287	0.085024	0.12011	0.15623	0.13487	0.1014	0.11028	0.12054	0.1923	0.18687	0.32198	0.090232	0.16522	0.26671	0.36069	0.19415	-0.11667	-0.8625	-0.1625	-1.2521	-0.89583	-0.033333	-1.1021	-0.6625	-0.4	-0.98542	-0.44792	-0.84792	-0.79375	-0.40833	-0.84167	-0.63958	187.291	100.346	275.628	202.986	291.389	65.139	-16.510	199.882	206.332	-33.726	252.949	-65.673	-9.342	254.727	283.525	-15.792	0.0003764	0.00054952	7.7858e-05	1353.7	7.0956e-06	6.4292e-06	1359.1	365.91	6.6308e-07	6.1431e-06	418.22	139.3	120.74	41.79	3.2178e-06	51.604	0.00056611	0.00056585	0.00015719	1374.7	6.2269e-06	6.1837e-06	1374.5	373.09	6.1968e-06	6.2233e-06	426.56	143	124.16	42.881	6.1705e-06	53.165	-65.107	7.744	193.893	-53.278	-5.069	144.980	-53.167	-48.672	-61.398	102.567	-49.122	-44.291	-43.915	-39.731	178.381	-40.552	-8191	255	
668.826	1	1	0	0	0.16932	0.28234	0.28324	0.16636	0.13161	0.08184	0.27815	0.28419	0.34195	0.18263	0.16967	0.35008	0.21041	0.16898	0.25795	0.23105	0.058333	-0.91458	-0.23333	-0.58333	-0.85208	-0.40208	-1.2375	-0.525	-0.2125	-0.80833	-0.56042	-0.41042	-0.92083	-0.26875	-1.1437	-0.84583	263.806	37.269	257.434	-40.618	-41.856	-46.538	181.611	244.297	-16.409	38.670	11.130	259.711	11.063	-39.357	54.811	274.745	0.00027041	0.00038002	9.5751e-05	1356.5	2.9858e-06	2.2776e-06	1348.8	366.14	5.3678e-06	2.9695e-06	418.28	139.51	120.76	41.644	4.3054e-06	51.726	0.00056382	0.00056143	0.00015606	1373.3	6.1438e-06	6.1401e-06	1370.2	372.37	6.1255e-06	6.1473e-06	425.97	142.84	124.18	42.901	6.1548e-06	53.139	268.796	260.482	207.733	-53.196	134.383	197.042	-53.088	-48.415	216.503	93.760	-49.380	-44.419	-43.951	-39.400	8.402	-40.650	-8191	255	
668.922	1	1	0	0	0.12078	0.22569	0.17238	0.070596	0.30021	0.15913	0.24703	0.17188	0.24565	0.16168	0.15649	0.25028	0.23893	0.20004	0.07112	0.23798	0.37917	-0.89375	-0.15208	-0.6625	-1.0125	-0.045833	-0.79375	-0.95625	0	-0.94375	-0.50208	-0.34792	-1.0354	-0.10625	-0.57917	-0.49583	113.714	-57.934	241.854	-59.521	-60.772	274.505	217.115	-52.761	219.252	91.671	203.973	-21.684	241.078	280.279	254.737	197.216	0.00041614	0.00077197	5.7345e-05	1359.4	5.5243e-06	6.3654e-06	1360.2	365.91	5.4013e-06	1.4082e-06	417.17	139.81	121.48	41.651	4.1725e-06	51.701	0.00056106	0.00055996	0.00015535	1375.6	6.1361e-06	6.1324e-06	1374.4	372.36	6.0944e-06	6.0888e-06	425.66	142.76	124.43	42.892	6.138e-06	53.106	272.638	26.478	20.037	-53.681	41.478	22.226	-53.762	-48.979	156.931	134.674	-49.444	-44.940	-44.387	-39.804	89.246	-40.615	-8191	255	
669.043	1	1	0	0	0.16082	0.16908	0.2016	0.26974	0.11731	0.068906	0.31826	0.11771	0.066733	0.18103	0.13582	0.30225	0.15512	0.076736	0.14952	0.17735	0.12708	-0.8625	-0.30625	-0.47917	-0.97917	-0.21667	-0.69583	-0.9875	-0.039583	-0.7125	-0.60417	-0.10625	-1.2604	-0.13542	-0.65833	-1.0542	-60.806	218.297	-48.366	-48.761	73.451	84.862	237.848	184.665	-28.535	277.598	207.213	244.140	220.351	157.530	202.214	260.936	0.00024841	0.00047757	6.7139e-05	1351.5	2.6473e-06	4.596e-06	1356.2	366.53	6.0192e-06	3.3527e-06	416.99	139.34	121.07	41.71	3.7933e-06	51.484	0.00055629	0.0005578	0.00015523	1373.9	6.1307e-06	6.0908e-06	1373.2	372.9	6.0791e-06	6.0603e-06	425.51	142.68	124.03	42.779	6.0703e-06	53.044	292.854	35.407	251.979	-53.394	132.538	27.138	-53.515	-48.958	74.588	101.242	-49.349	-44.798	-44.089	-40.095	90.637	-40.699	-8191	255	
669.137	1	1	0	0	0.19	0.068095	0.11099	0.16349	0.061907	0.27281	0.17129	0.093748	0.10473	0.16807	0.31916	0.038278	0.081038	0.17077	0.21699	0.1702	0.17708	-0.79167	-0.55208	-0.16458	-0.9375	-0.30417	-0.83333	-1.1417	0.10833	-0.65208	-0.76042	-0.31667	-1.1708	-0.43125	-0.37708	-0.96667	152.268	27.419	75.252	0.185	-55.164	235.456	221.605	211.881	-14.709	5.521	290.695	-12.546	-32.503	276.691	-16.326	176.132	0.00032078	0.00038221	0.00026822	1355.6	7.3233e-06	2.1501e-06	1355.3	364.86	5.0787e-06	6.2896e-06	418.49	139	120.75	41.505	2.6587e-06	52.016	0.00055371	0.00055787	0.00015458	1372.8	6.1216e-06	6.1002e-06	1373.1	372.56	6.0976e-06	6.0912e-06	425.75	142.65	123.92	42.79	6.1099e-06	53.116	-66.781	43.591	-15.046	-53.401	246.530	-16.266	-53.372	-48.867	183.234	95.748	-49.576	-44.619	-44.344	-39.829	-13.385	-40.669	-8191	255	
669.211	1	1	0	0	0.11143	0.2954	0.26032	0.12379	0.10262	0.26543	0.20023	0.056913	0.21372	0.23724	0.45637	0.23089	0.28456	0.25571	0.22956	0.27612	0.28333	-0.78125	-0.78958	-0.083333	-0.9375	-0.28958	-0.76667	-1.3271	-0.10208	-0.625	-0.90833	-0.38542	-0.99583	-0.43333	-0.3125	-1.3646	-39.369	39.445	123.621	201.819	-3.321	287.023	250.441	28.339	76.746	119.821	245.497	-64.411	283.213	-20.153	278.694	141.834	0.00037288	0.00060933	0.00011158	1357.1	7.9999e-06	6.5195e-06	1353.8	367.04	6.4836e-06	2.7099e-06	418.55	139.03	120.39	41.477	2.5085e-06	51.946	0.00055672	0.00055713	0.00015476	1373.7	6.0681e-06	6.0759e-06	1371.7	372.96	6.0435e-06	6.0543e-06	425.43	142.68	123.95	42.773	6.1393e-06	53.209	264.084	94.731	-8.781	-53.377	100.389	127.129	-53.459	-48.881	165.248	157.937	-49.489	-44.525	-43.977	-40.123	-22.371	-40.669	-8191	255	
669.330	1	1	0	0	0.09863	0.18676	0.097763	0.15215	0.12799	0.21675	0.35901	0.24024	0.02909	0.25887	0.05672	0.10754	0.34214	0.20003	0.11366	0.1264	0.089583	-0.59583	-0.59375	-0.16667	-1.025	-0.54167	-0.21667	-1.1125	-0.11458	-0.63125	-0.88542	-0.15208	-0.91667	-0.54583	-0.18958	-1.0187	-20.968	53.243	125.118	-62.720	-54.916	-64.417	-11.407	179.776	23.442	17.132	28.274	-52.145	-19.206	-20.383	281.883	154.115	0.00024877	0.0003025	0.00020798	1356.4	3.6099e-06	3.7582e-06	1355.4	365.75	8.4489e-06	3.1174e-06	416.39	139.41	121.21	41.613	7.0227e-06	51.567	0.00055268	0.00055747	0.00015547	1373	6.1069e-06	6.1058e-06	1371.8	372.43	6.0921e-06	6.1001e-06	425.47	142.75	124.15	42.83	6.1361e-06	53.106	280.869	178.160	-2.733	-53.525	-47.243	-58.555	-53.456	-48.760	105.836	215.471	-49.328	-44.840	-43.897	-39.929	124.404	-40.756	-8191	255	
669.426	1	1	0	0	0.31164	0.17723	0.28433	0.10036	0.27364	0.14016	0.26865	0.027148	0.14794	0.18188	0.17843	0.18272	0.20104	0.14996	0.034051	0.20148	0.3	-0.46667	-0.85	-0.32708	-0.73333	-0.55208	-0.40625	-1.2354	-0.29792	-0.37917	-1.1021	-0.21667	-0.98125	-0.91042	-0.066667	-0.9	50.793	-43.338	162.850	249.962	67.148	97.027	261.704	62.803	133.663	74.533	195.322	210.196	276.257	-37.374	279.818	126.329	0.00036104	0.00052232	0.00021043	1355	6.144e-06	2.0599e-06	1353.9	365.5	2.1348e-06	4.8971e-06	418.12	139.63	120.81	41.53	6.6126e-06	51.617	0.00055997	0.00056326	0.0001562	1374.6	6.1383e-06	6.1482e-06	1372	372.43	6.15e-06	6.167e-06	427.19	142.74	124.39	42.814	6.1733e-06	53.052	275.282	166.279	249.529	-53.542	51.687	73.317	-53.293	-48.759	192.095	-27.369	-49.325	-44.569	-44.078	-39.985	47.009	-40.632	-8191	255	
669.522	1	1	0	0	0.20126	0.079161	0.064732	0.19429	0.17176	0.053831	0.040877	0.32744	0.051143	0.28202	0.3605	0.35244	0.23678	0.31217	0.069778	0.12276	0	-0.51458	-1.0604	-0.52083	-0.73542	-0.87917	-0.175	-1.3708	-0.70417	-0.45208	-0.93958	-0.21042	-0.89792	-0.97083	0.085417	-0.73542	213.109	262.313	-20.216	-50.659	87.842	36.518	229.722	246.322	57.350	12.196	278.835	258.112	265.934	-62.753	13.664	183.329	0.00029928	0.00048363	0.00013852	1354.1	1.9688e-06	7.3271e-06	1361.7	366.75	1.8999e-06	7.8771e-06	419.58	138.87	121.1	41.516	8.8609e-06	51.66	0.00055778	0.00055936	0.00015473	1373.9	6.087e-06	6.0883e-06	1374.9	372.51	6.0456e-06	6.0524e-06	425.8	142.37	124.16	42.687	6.0958e-06	53.057	-44.182	121.713	230.622	-53.527	104.277	143.881	-53.499	-48.646	54.280	-7.807	-49.231	-44.667	-44.026	-39.904	40.195	-40.620	-8191	255	
669.643	1	1	0	0	0.29217	0.31852	0.13098	0.030292	0.12968	0.092213	0.26891	0.3589	0.037995	0.046867	0.25501	0.31338	0.096024	0.30859	0.29182	0.069005	-0.19375	-0.17292	-0.78333	-0.46875	-0.675	-0.82917	-0.36875	-1.1167	-0.75625	-0.2	-1.2146	-0.4	-0.4875	-1.0438	-0.16042	-0.98542	287.330	48.699	14.867	196.589	-31.454	68.178	279.779	261.517	165.786	-5.747	0.736	248.217	72.805	225.347	245.443	269.647	0.00054284	0.00049402	0.00022364	1354.9	1.0382e-06	1.1093e-06	1355.2	365.35	1.375e-05	1.0076e-05	417.33	139.67	121.28	41.612	3.9648e-06	51.597	0.00055133	0.00055531	0.0001553	1372.8	6.1501e-06	6.14e-06	1372.8	372.51	6.1807e-06	6.1975e-06	427.1	142.92	124.48	42.958	6.2267e-06	53.221	-57.345	-48.408	27.567	-53.387	-11.458	4.555	-53.538	-48.573	116.197	28.206	-49.240	-44.537	-43.948	-39.950	57.370	-40.203	-8191	255	
669.739	1	1	0	0	0.288	0.14653	0.15946	0.22481	0.16825	0.24571	0.19438	0.27233	0.3713	0.25065	0.10742	0.23003	0.21379	0.055671	0.36565	0.099914	-0.10833	0.10208	-0.91667	-0.70833	-0.29375	-0.93542	-0.31667	-1.0417	-0.81458	-0.32083	-1.3229	-0.37292	-0.22292	-1.1042	-0.275	-0.97708	148.362	4.066	246.977	-35.977	-23.940	189.566	221.459	260.065	292.179	47.948	-17.804	136.933	225.303	29.803	233.385	63.176	0.00031097	0.00019825	0.00019876	1353.7	4.954e-06	3.8904e-06	1353.7	365.76	1.0456e-05	6.3082e-06	418.34	139.06	120.7	41.658	1.9599e-06	51.594	0.00056841	0.00056665	0.00015647	1374.5	6.1472e-06	6.1338e-06	1373	372.33	6.0512e-06	6.0606e-06	425.04	142.22	123.44	42.606	5.8523e-06	52.753	-63.222	30.721	7.084	-53.297	36.188	207.350	-53.277	-48.730	-21.871	52.596	-49.358	-44.730	-43.658	-39.466	262.715	-40.544	-8191	255	
669.835	1	1	0	0	0.20553	0.12588	0.072944	0.23343	0.22236	0.18439	0.065928	0.13691	0.22365	0.25077	0.29362	0.010529	0.1637	0.21271	0.051097	0.025803	-0.23542	0.14583	-0.86667	-0.78125	-0.34583	-1.1042	-0.3875	-0.88542	-0.88333	-0.097917	-0.96667	-0.49375	-0.2125	-1.175	0.025	-0.71458	286.795	56.586	144.764	-31.316	-55.260	102.818	62.500	-51.734	91.814	22.872	261.916	219.513	260.159	241.939	106.373	263.048	0.00027774	0.00015119	0.00012771	1354.8	4.5873e-06	1.2545e-06	1348.9	367.46	3.3603e-06	7.6415e-06	418.64	139.03	121.79	41.82	2.5641e-06	51.79	0.00052583	0.00052284	0.00014467	1363.9	5.6339e-06	5.55e-06	1361.3	370.08	5.459e-06	5.4494e-06	421.52	140.82	122.09	42.338	5.4196e-06	52.404	270.292	10.941	74.443	-53.336	216.572	132.508	-53.334	-48.593	160.972	57.247	-49.003	-44.654	-43.923	-39.706	108.359	-40.628	-8191	255	
669.907	1	1	0	0	0.21662	0.28157	0.12028	0.37833	0.096066	0.20022	0.24018	0.1697	0.22238	0.20139	0.18972	0.30106	0.11479	0.24534	0.044432	0.25094	-0.45208	-0.18125	-0.99375	-0.83958	-0.36875	-0.93542	-0.51667	-0.78542	-1.0958	-0.029167	-0.81667	-0.8625	-0.33958	-1.0125	-0.10417	-0.55833	262.781	-42.615	283.145	267.187	-31.095	211.237	231.960	-21.130	3.395	167.237	-44.398	215.717	-6.512	217.242	27.141	-49.172	0.0003732	0.0006191	0.00016202	1343	2.6407e-06	3.2991e-06	1353.4	365.59	5.8071e-06	5.343e-06	419.1	139.54	121.07	41.685	3.1755e-06	51.785	0.00049375	0.00049743	0.0001381	1356.7	5.5189e-06	5.5149e-06	1359.9	369.6	5.5691e-06	5.5897e-06	422.29	141.62	123	42.578	5.7256e-06	52.832	252.018	254.576	-8.989	-53.334	135.512	45.868	-53.412	-48.491	-58.558	218.983	-49.323	-44.674	-43.891	-39.659	268.317	-40.451	-8191	255	
670.026	1	1	0	0	0.22996	0.12335	0.21244	0.28179	0.1173	0.21816	0.07686	0.38181	0.34719	0.21114	0.23434	0.12344	0.04546	0.212	0.12774	0.15672	-0.7	-0.1	-0.82292	-0.88125	-0.18958	-0.99167	-0.29792	-0.41667	-1.0292	-0.17292	-0.7875	-0.87292	-0.066667	-0.87083	-0.57292	-0.46667	207.413	278.215	39.622	-36.112	11.589	142.707	79.162	292.256	-0.158	-14.020	237.325	-66.216	250.747	-41.605	-15.954	293.186	0.00013575	0.00041225	7.5511e-05	1355.4	2.2217e-06	2.6231e-06	1351.5	365.6	5.1591e-06	8.6864e-06	417.82	139.7	121.33	41.819	3.7342e-06	51.849	0.00053004	0.00053504	0.00014901	1369.2	5.9155e-06	5.9585e-06	1370.1	372.12	5.962e-06	5.9891e-06	425.65	142.56	124.19	42.89	6.0265e-06	53.079	260.894	39.563	64.323	-53.540	106.246	41.225	-53.413	-48.704	171.154	68.591	-49.243	-44.838	-43.663	-39.612	155.710	-40.626	-8191	255	
670.122	1	1	0	0	0.075935	0.12374	0.16629	0.21651	0.064298	0.14955	0.23	0.24198	0.21337	0.20868	0.051993	0.17387	0.27122	0.25629	0.15215	0.5258	-0.53958	-0.052083	-0.74375	-0.9375	0.054167	-0.75833	-0.76667	-0.14583	-0.90417	-0.23333	-0.875	-0.80833	0	-0.90833	-0.61458	-0.052083	-22.687	-4.720	77.992	232.758	207.729	169.590	254.427	223.938	35.594	148.519	219.584	79.089	54.365	241.357	-33.717	284.446	0.00018863	0.00094242	0.00017111	1357.3	6.2438e-07	3.5028e-06	1355.3	366.28	4.053e-06	4.6762e-06	419.79	139.74	121.6	41.681	6.3558e-06	51.861	0.00054897	0.00054992	0.0001534	1373.3	6.0378e-06	6.035e-06	1372.6	372.59	6.0597e-06	6.0273e-06	426.16	142.86	124.26	42.895	6.0617e-06	53.099	1.970	13.799	26.874	-53.307	-29.292	131.366	-53.413	-48.595	37.716	70.206	-48.787	-44.478	-43.871	-39.642	94.120	-40.553	-8191	255	
670.218	1	1	0	0	0.20266	0.13786	0.14871	0.2012	0.37368	0.27456	0.070818	0.19277	0.069333	0.29616	0.28202	0.10918	0.12073	0.13775	0.18035	0.22794	-0.60625	-0.3125	-0.35833	-1.0417	-0.05	-0.57708	-0.96458	-0.31875	-0.99375	-0.095833	-0.51458	-1.0625	-0.18125	-0.98125	-0.71667	-0.125	167.128	254.568	-52.703	252.722	72.268	62.736	253.266	237.409	248.531	238.959	239.940	29.831	191.241	179.257	263.401	246.859	0.00021357	0.00033195	0.0002071	1354.5	2.7563e-06	3.1636e-06	1359.6	365.75	6.7814e-06	1.3737e-06	417.51	139.05	121.37	41.869	1.0213e-06	52.079	0.00054936	0.00055033	0.00015308	1374	6.0432e-06	6.012e-06	1374.7	372.44	5.9987e-06	5.9876e-06	425.46	142.53	123.99	42.858	5.9387e-06	53.103	-20.309	117.589	-21.636	-53.464	47.476	147.289	-53.314	-48.507	156.112	163.248	-49.189	-44.508	-43.764	-39.553	89.768	-40.390	-8191	255	
670.314	1	1	0	0	0.18837	0.15128	0.15255	0.36394	0.20459	0.3936	0.24215	0.24262	0.026137	0.23703	0.25854	0.10191	0.13211	0.24029	0.15515	0.21289	-0.40833	-0.35833	-0.35417	-1.2167	-0.26458	-0.7875	-1.0292	-0.18958	-0.89375	-0.61667	-0.3625	-0.97917	-0.1125	-0.72708	-0.8875	-0.26458	-45.267	-45.191	153.911	239.139	69.375	213.033	183.397	164.947	-45.599	83.252	247.557	32.545	242.191	268.954	6.593	268.501	0.00025398	0.0004152	0.00013171	1359.4	9.3699e-06	4.7383e-06	1358.8	366.14	6.7544e-06	4.657e-06	419.8	139.73	121.15	41.923	3.8613e-06	51.879	0.00054322	0.00054442	0.00015116	1374.2	5.9315e-06	5.9528e-06	1371.7	372.26	5.8909e-06	5.8976e-06	424.83	142.5	123.7	42.81	5.8677e-06	52.868	256.980	-23.833	-26.629	-53.261	166.150	144.444	-53.266	-48.649	166.416	30.363	-49.095	-44.618	-43.847	-39.434	-54.705	-40.316	-8191	255	
670.435	1	1	0	0	0.32962	0.16055	0.21843	0.45128	0.12741	0.1599	0.18612	0.30689	0.22014	0.13023	0.20736	0.19364	0.14707	0.14202	0.19991	0.24891	-0.61042	-0.57708	0.0041667	-1.0312	-0.20833	-0.70208	-1.0167	-0.14375	-1.0438	-0.63125	-0.35	-0.95	-0.22083	-0.625	-0.96042	-0.13958	58.911	63.625	-27.068	272.107	-56.525	0.464	219.793	229.883	102.628	57.501	260.829	-60.559	286.383	-57.301	116.463	291.458	0.00012286	0.0011828	5.7152e-05	1356.1	4.1012e-06	6.5607e-06	1356.9	365.72	9.0251e-06	6.0155e-06	418.75	139.55	121.44	41.835	3.5525e-06	51.703	0.00052972	0.00053154	0.00014893	1370.7	5.8867e-06	5.9032e-06	1371.9	371.99	5.9487e-06	5.9217e-06	425.32	142.49	123.85	42.82	5.9243e-06	52.859	260.898	0.588	243.219	-53.387	-40.499	83.140	-53.353	-48.641	10.216	64.824	-49.153	-44.585	-43.828	-39.761	254.640	-40.430	-8191	255	
670.506	1	1	0	0	0.09303	0.34449	0.027621	0.28022	0.064722	0.15622	0.28732	0.23545	0.039502	0.11321	0.22801	0.40651	0.08666	0.21945	0.19583	0.052767	-0.34375	-0.675	-0.20208	-0.93542	-0.4125	-0.40208	-1.2687	-0.0041667	-0.64792	-0.9375	-0.44375	-0.93333	-0.4375	-0.44375	-0.9875	-0.0375	-50.425	143.336	166.959	-6.203	250.866	140.590	205.681	149.745	187.679	124.500	286.017	201.616	-35.421	237.133	245.085	242.422	0.00026694	0.00038604	2.1058e-05	1359.3	2.4681e-06	5.2956e-06	1357.9	366.39	4.662e-06	2.2344e-06	420.17	139.83	121.01	41.731	5.4335e-06	51.753	0.00053662	0.00053652	0.0001506	1372.2	5.9112e-06	5.9034e-06	1373.5	371.83	5.9184e-06	5.9351e-06	425.71	142.79	123.87	42.789	6.0176e-06	52.986	-48.572	118.850	-11.996	-53.335	-21.210	137.009	-53.312	-48.746	123.152	86.847	-49.153	-44.195	-44.073	-39.617	31.735	-40.601	-8191	255	
670.602	1	1	0	0	0.10604	0.26108	0.162	0.20247	0.17381	0.18822	0.10436	0.25801	0.046826	0.15844	0.21475	0.11392	0.3033	0.35274	0.18867	0.16375	-0.28542	-0.675	-0.1625	-1.1646	-0.49167	-0.13958	-1.2958	-0.33333	-0.39792	-1.0312	-0.27917	-0.98333	-0.56875	-0.29792	-0.87917	-0.4	-54.346	277.048	-7.869	281.113	106.314	217.013	-28.526	185.444	161.177	103.976	39.213	246.305	266.771	-11.696	239.261	293.099	0.00022378	0.00050568	0.00025592	1359.3	3.0673e-06	2.3682e-06	1356.3	367.26	3.5269e-06	6.2236e-06	417.98	139.65	121.4	41.534	6.8577e-06	51.967	0.00054796	0.00055064	0.00015377	1373.4	6.1068e-06	6.1173e-06	1373.2	372.89	6.1914e-06	6.1869e-06	426.99	143.2	124.75	42.945	6.2697e-06	53.302	279.267	63.638	-45.948	-53.192	168.391	32.047	-53.289	-48.491	251.771	3.356	-49.020	-44.460	-43.727	-39.473	291.661	-40.375	-8191	255	
670.723	1	1	0	0	0.092497	0.21086	0.2003	0.1476	0.052348	0.24616	0.17286	0.18028	0.10142	0.07696	0.33942	0.081764	0.082842	0.1318	0.20687	0.16231	-0.05625	-1.0562	-0.1875	-1.1625	-0.78125	-0.24792	-1.1833	-0.1875	-0.37917	-1.1146	-0.2375	-0.96042	-0.98333	-0.325	-1.0375	-0.29375	50.561	30.743	2.974	234.138	135.783	164.252	198.584	273.916	-61.267	229.110	-10.937	154.807	-8.077	-44.558	168.387	249.992	0.0002369	0.00024399	0.00020865	1358.2	9.0562e-06	1.9573e-06	1357.2	366	2.2623e-06	4.3112e-06	417.55	139.3	121.71	41.543	1.8812e-06	51.785	0.00057099	0.00057083	0.00016024	1377.7	6.3206e-06	6.3341e-06	1379.2	373.96	6.3199e-06	6.298e-06	427.25	143.25	124.84	42.94	6.2241e-06	53.257	-22.932	289.967	-52.532	-53.176	-26.452	161.618	-53.197	-48.467	102.777	108.223	-49.125	-44.291	-44.202	-39.684	109.217	-40.642	-8191	255	
670.819	1	1	0	0	0.1203	0.39489	0.19691	0.38003	0.064897	0.058966	0.2297	0.062911	0.28613	0.20818	0.18699	0.16694	0.090931	0.24354	0.12388	0.18954	0.035417	-0.95208	-0.035417	-0.94375	-0.525	-0.047917	-0.97083	-0.39375	-0.21042	-0.96667	-0.16667	-0.58333	-0.875	-0.11458	-0.96458	-0.48333	265.599	120.919	150.256	253.918	19.392	154.389	287.798	182.074	277.663	255.031	131.293	18.442	56.911	-16.284	131.910	215.019	0.00019296	0.00093569	6.4006e-05	1356.8	5.285e-06	9.89e-07	1354.6	365.47	2.8264e-06	3.1269e-06	417.26	139.79	120.56	41.596	5.0164e-06	51.855	0.00056596	0.00056443	0.00015834	1378.9	6.2761e-06	6.3173e-06	1377.3	373.79	6.4009e-06	6.4609e-06	429.72	144.19	125.85	43.321	6.6772e-06	53.808	282.000	9.265	-62.714	-53.212	2.968	287.330	-53.337	-48.711	81.725	47.325	-49.301	-44.677	-43.722	-39.507	-26.049	-40.661	-8191	255	
670.915	1	1	0	0	0.25849	0.34489	0.33048	0.24388	0.26334	0.14231	0.081288	0.06564	0.025865	0.29059	0.40456	0.18677	0.18755	0.18806	0.047708	0.12198	0.075	-1.05	-0.33958	-0.68333	-0.71667	-0.10625	-1.2354	-0.96875	-0.20417	-0.9125	-0.14375	-0.61667	-0.93125	-0.31042	-0.925	-0.63125	167.705	-54.640	-50.792	241.635	-5.143	55.053	159.456	233.464	245.795	-23.569	286.279	269.419	167.512	285.391	180.349	43.264	0.00016904	0.0004764	0.00019803	1357.3	6.0675e-06	8.3184e-06	1361.4	365.48	6.0081e-06	2.9094e-06	418.41	140.07	121.41	41.638	2.3908e-06	51.693	0.0006042	0.00059951	0.00016732	1383.3	6.567e-06	6.5457e-06	1382.6	374.76	6.5184e-06	6.4998e-06	429.59	144.22	125.64	43.23	6.5206e-06	53.645	-48.415	-39.631	1.131	-53.236	60.674	80.197	-53.048	-48.435	177.552	90.941	-49.315	-44.463	-43.885	-39.669	210.349	-40.528	-8191	255	
671.012	1	1	0	0	0.24313	0.21193	0.33653	0.33628	0.1495	0.20174	0.15678	0.11218	0.067929	0.26582	0.32586	0.34895	0.2442	0.020297	0.17153	0.25423	0.30417	-0.81458	-0.060417	-0.70417	-0.95625	-0.30833	-0.90625	-0.95625	-0.016667	-0.80417	-0.43125	-0.46042	-1.0229	-0.054167	-0.5875	-0.7125	165.840	-0.164	171.725	243.970	41.438	-60.818	239.695	195.620	259.981	-50.116	240.597	230.524	286.552	286.214	-29.362	290.216	0.00026049	0.00093063	9.1581e-05	1364	9.3995e-06	2.2179e-06	1360.8	365.75	8.152e-07	3.6357e-06	417.53	139.37	121.58	41.573	2.6113e-06	51.741	0.00059361	0.00059358	0.0001638	1385.3	6.4265e-06	6.3858e-06	1381.5	374.14	6.2712e-06	6.2879e-06	427.55	143.33	124.9	42.977	6.2206e-06	53.395	-52.617	2.793	-43.625	-53.359	121.831	188.335	-53.358	-48.563	86.095	264.277	-48.945	-44.406	-44.139	-39.574	87.201	-40.389	-8191	255	
671.106	1	1	0	0	0.13277	0.14148	0.12165	0.21915	0.34108	0.19376	0.11788	0.40178	0.11524	0.13632	0.31286	0.23259	0.15601	0.37692	0.15147	0.016407	0.3625	-0.89167	-0.20417	-0.56042	-1.2417	-0.28333	-0.85208	-0.85833	-0.022917	-0.94583	-0.56458	-0.27917	-1.1125	-0.3125	-0.62917	-0.81667	104.678	177.130	-64.503	287.539	239.902	-33.970	48.597	241.846	209.316	288.168	272.790	222.363	229.997	265.815	237.716	227.891	0.00029237	0.00032158	0.000186	1360.8	2.5668e-06	6.8816e-06	1355.6	365.56	5.1275e-06	4.1562e-06	418.48	139.58	121.64	41.737	7.6916e-06	51.847	0.00056259	0.00056596	0.00015729	1377.9	6.144e-06	6.1724e-06	1376.3	373.24	6.1222e-06	6.1697e-06	427.49	143.38	124.8	42.973	6.238e-06	53.316	273.833	268.100	-10.103	-53.179	42.626	-26.610	-53.214	-48.659	205.012	13.063	-49.140	-44.419	-44.120	-39.741	-37.059	-40.191	-8191	255	
671.202	1	1	0	0	0.067976	0.050839	0.44306	0.16748	0.30916	0.23056	0.13677	0.27448	0.14418	0.064543	0.26097	0.32346	0.20611	0.41617	0.28485	0.042418	0.31458	-0.90833	-0.64583	-0.45208	-0.96458	-0.31875	-0.76458	-1.1708	-0.0875	-1.025	-0.70833	-0.18958	-0.94375	-0.33333	-0.2125	-1.2146	193.723	42.253	64.913	230.122	-52.109	40.999	184.815	217.804	24.742	179.655	225.610	-37.494	5.023	275.761	173.313	206.657	0.00045854	0.00021363	0.00012349	1354.6	2.01e-06	2.68e-06	1362.2	365.63	7.3665e-06	4.7907e-06	418.33	139.51	121.47	41.7	8.4935e-06	51.57	0.0005708	0.00057391	0.0001596	1380.7	6.2803e-06	6.3411e-06	1380.4	373.86	6.3245e-06	6.395e-06	428.69	143.89	125.3	43.122	6.4395e-06	53.468	-32.523	85.572	137.468	-53.136	62.062	115.786	-52.913	-48.522	154.046	58.066	-49.192	-44.420	-43.813	-39.609	-65.913	-40.412	-8191	255	
671.323	1	1	0	0	0.099569	0.066915	0.19424	0.34885	0.19425	0.15326	0.060459	0.20538	0.053548	0.21666	0.17184	0.14441	0.34992	0.13849	0.37374	0.19443	0.058333	-0.68958	-0.56042	-0.28542	-0.82292	-0.34375	-0.57917	-1.1646	-0.10417	-0.60208	-0.95	-0.40417	-0.95417	-0.69583	-0.16458	-1.125	52.267	226.252	-14.957	250.838	-53.186	8.364	-4.050	284.052	207.369	66.343	284.672	80.637	245.187	274.290	195.377	241.024	0.00026902	0.00042129	0.00014064	1356.4	1.2916e-05	5.687e-06	1359.7	366.29	2.4154e-06	4.2959e-06	419.85	139.95	121.63	41.753	9.7513e-06	51.694	0.00058969	0.00059102	0.00016438	1381.7	6.4738e-06	6.5114e-06	1381.3	374.93	6.4521e-06	6.4928e-06	429.83	144.26	125.72	43.207	6.5556e-06	53.587	281.247	4.421	66.921	-53.070	114.790	71.874	-53.243	-48.601	37.908	-46.151	-49.166	-44.369	-43.705	-39.555	50.373	-40.255	-8191	255	
671.419	1	1	0	0	0.086583	0.23491	0.15828	0.087497	0.34798	0.14248	0.376	0.1416	0.18733	0.14963	0.2514	0.23459	0.18672	0.11013	0.35394	0.1197	0.2875	-0.61042	-0.89792	-0.18958	-0.98542	-0.49792	-0.57917	-1.3438	-0.19167	-0.68125	-1.1083	-0.1875	-0.8	-0.38958	-0.15625	-1.1958	48.862	272.801	185.584	258.900	181.260	285.049	258.453	251.487	63.820	123.744	172.175	92.573	20.180	-26.338	188.773	-38.080	0.00014543	0.00037163	2.6312e-05	1356.2	1.1451e-06	6.1423e-06	1354.2	365.3	5.7005e-06	6.7775e-06	418.77	138.81	120.62	41.75	7.0091e-06	51.902	0.00059955	0.00060163	0.00016835	1384.8	6.6468e-06	6.6436e-06	1383.2	375.24	6.6308e-06	6.6957e-06	431.63	144.22	126.12	43.37	6.7586e-06	53.837	20.619	-18.636	105.604	-53.106	255.619	171.331	-53.126	-48.524	175.338	70.569	-49.100	-44.571	-43.432	-39.825	71.107	-40.128	-8191	255	
671.515	1	1	0	0	0.091956	0.097314	0.25688	0.49832	0.1185	0.076188	0.11612	0.19848	0.40044	0.06634	0.26999	0.13699	0.29784	0.35929	0.097776	0.1064	-0.12292	-0.61667	-0.82917	-0.27708	-1.0375	-0.80208	-0.26875	-1.0917	-0.26667	-0.58542	-1.0521	-0.27708	-0.85833	-0.96458	-0.14375	-1.0583	72.225	30.455	217.521	279.022	150.008	115.048	194.452	282.271	105.478	67.295	234.586	174.308	266.341	205.579	264.647	205.621	0.00014545	0.00050709	0.00016066	1360.1	1.2023e-06	6.1771e-06	1357	366.58	3.1813e-06	7.2725e-06	419.66	139	121.49	41.439	2.5061e-06	51.435	0.00061239	0.00061621	0.00017187	1388.7	6.7597e-06	6.7411e-06	1385.9	375.97	6.768e-06	6.7826e-06	431.68	144.52	126.53	43.319	6.8037e-06	53.702	280.366	42.223	22.389	-53.253	172.771	-20.807	-53.096	-48.452	129.770	88.187	-49.063	-44.506	-43.819	-39.534	198.127	-40.488	-8191	255	
671.611	1	1	0	0	0.22662	0.13909	0.27795	0.085253	0.18426	0.1374	0.15653	0.10474	0.08495	0.21904	0.14746	0.10484	0.048244	0.18137	0.15045	0.19842	0.12292	-0.28958	-1	-0.66667	-0.86042	-0.81458	-0.16875	-1.2771	-0.47708	-0.23958	-1.0167	-0.28958	-0.82083	-1.0708	-0.027083	-0.80833	-43.139	105.823	214.490	216.315	59.461	-52.079	240.791	180.650	-33.027	-37.979	229.642	278.467	255.747	126.216	112.060	245.085	0.00024374	0.00054683	0.00015835	1361	7.3416e-06	4.2085e-06	1361.1	367.34	1.5553e-06	2.8951e-06	419.45	139.17	120.8	41.723	1.7241e-06	51.476	0.00061664	0.0006141	0.00017101	1387.6	6.7357e-06	6.7529e-06	1385.3	376.15	6.7077e-06	6.6849e-06	431.58	144.35	126.09	43.351	6.6843e-06	53.801	254.962	92.219	-18.051	-53.226	50.671	141.736	-53.105	-48.526	40.004	233.162	-49.088	-44.463	-43.704	-39.741	104.957	-40.529	-8191	255	
671.732	1	1	0	0	0.18971	0.033919	0.18718	0.12467	0.1288	0.30583	0.16792	0.23552	0.34638	0.092391	0.29247	0.17176	0.096743	0.17118	0.027718	0.41234	-0.22292	-0.20833	-1.1646	-0.325	-0.40833	-1.0688	-0.34167	-0.85417	-0.56042	-0.26458	-1.0896	-0.38333	-0.47917	-1.05	-0.047917	-0.825	151.716	65.401	180.810	-2.118	-52.215	21.769	254.827	259.730	176.510	127.014	234.878	-25.891	26.006	218.840	-58.372	231.742	0.0002586	0.00045815	0.00020649	1359.1	4.4324e-06	4.3616e-06	1362.3	365.8	3.6402e-06	7.5979e-06	418.8	138.89	121.2	41.529	7.8237e-06	51.43	0.00060705	0.00061206	0.00017009	1388	6.7353e-06	6.7108e-06	1386.6	375.75	6.7163e-06	6.7222e-06	432.01	144.43	126.16	43.343	6.7221e-06	53.709	278.801	-31.646	25.941	-53.154	-57.579	45.737	-53.180	-48.062	195.063	99.166	-49.060	-44.335	-43.719	-39.924	60.677	-40.317	-8191	255	
671.803	1	1	0	0	0.24186	0.18159	0.046917	0.31654	0.15026	0.17493	0.096874	0.08121	0.16145	0.16078	0.17024	0.1088	0.1906	0.21415	0.10769	0.12495	-0.35833	-0.30833	-0.88333	-0.45417	-0.27083	-0.99792	-0.46875	-0.975	-0.50833	0.20208	-1.0792	-0.52292	-0.53125	-0.9875	-0.11667	-0.54167	196.069	270.913	158.894	282.687	145.339	250.483	212.631	258.927	226.436	130.676	182.783	230.692	270.348	279.519	87.928	-44.840	0.00040366	0.00033724	0.00014362	1356.8	4.3518e-06	4.8703e-06	1357	366.45	7.4496e-06	1.8582e-07	416.84	139.32	121	41.726	3.778e-06	51.801	0.00061168	0.00061391	0.00017107	1385.9	6.7251e-06	6.7018e-06	1382.8	375.92	6.6981e-06	6.7076e-06	431.11	144.48	126.01	43.309	6.6999e-06	53.812	288.136	31.338	-17.303	-53.336	43.954	-22.744	-53.005	-48.425	225.172	214.180	-49.199	-44.243	-44.035	-39.899	81.675	-40.350	-8191	255	
671.900	1	1	0	0	0.11912	0.21382	0.036579	0.36082	0.326	0.058405	0.27566	0.19738	0.1708	0.15719	0.077202	0.24464	0.18723	0.41527	0.044937	0.20402	-0.29375	-0.20833	-0.68542	-0.47917	-0.2	-1.1896	-0.28125	-0.65417	-0.65417	-0.10417	-1.0625	-0.66042	-0.19167	-0.83333	-0.14583	-0.44583	241.284	118.664	-1.428	264.080	-5.857	269.021	206.751	-19.318	134.118	104.219	16.766	289.659	243.300	-9.770	193.226	269.709	0.00028061	0.00051239	5.7683e-05	1360.1	6.2449e-06	4.0813e-06	1355.8	366.95	3.5882e-06	2.7837e-06	419.6	139.3	120.72	41.626	5.7083e-06	51.707	0.00060813	0.00061286	0.00017012	1385	6.6754e-06	6.6522e-06	1383.3	375.33	6.5744e-06	6.5871e-06	430.23	143.91	125.45	43.181	6.5394e-06	53.512	274.519	57.403	81.137	-53.085	59.348	83.464	-53.182	-48.390	25.946	112.091	-48.913	-44.265	-43.628	-39.562	-11.386	-40.370	-8191	255	
671.996	1	1	0	0	0.33979	0.023639	0.25562	0.4662	0.21929	0.091099	0.23087	0.3159	0.15507	0.14182	0.16385	0.028586	0.11672	0.30313	0.082568	0.17663	-0.6875	0.14792	-0.54792	-0.69583	-0.16875	-1.3	-0.59375	-0.64167	-0.98542	0.089583	-0.8125	-0.89792	-0.4625	-1.075	-0.2375	-0.42708	12.835	148.748	53.349	225.242	269.509	81.492	271.913	231.423	191.202	104.030	217.939	178.167	183.121	-34.148	48.165	-38.546	0.00031377	0.00020076	0.00010492	1355.1	3.5775e-06	4.8667e-06	1350.9	366.91	1.8243e-06	3.2206e-06	418.34	138.71	120.64	41.707	4.4393e-06	51.602	0.00059037	0.00059113	0.00016472	1381.6	6.4339e-06	6.4464e-06	1379.4	374.64	6.4215e-06	6.4065e-06	428.94	143.22	125.12	43.078	6.4034e-06	53.4	230.176	209.386	64.868	-53.315	32.660	75.097	-53.378	-48.432	197.133	9.740	-48.785	-44.369	-43.522	-39.464	-17.297	-40.123	-8191	255	
672.115	1	1	0	0	0.26799	0.11442	0.18566	0.13985	0.075078	0.22504	0.14943	0.23534	0.19931	0.090533	0.14633	0.10481	0.18554	0.16042	0.19104	0.14052	-0.71667	-0.2125	-0.60625	-0.87708	-0.039583	-0.98958	-0.65	-0.68542	-1.3021	-0.34583	-0.79792	-1.0562	-0.035417	-0.8875	-0.28542	-0.42292	108.312	263.016	163.765	251.802	226.660	-40.157	282.198	193.532	-40.974	173.164	270.010	112.414	-6.695	249.283	87.631	215.739	0.00039258	0.00034239	0.00013106	1354.4	2.6677e-06	2.9755e-06	1354.3	368.03	2.1396e-06	4.0222e-06	418.84	138.72	120.87	41.639	6.5617e-06	51.575	0.00057957	0.00057811	0.00016211	1378.4	6.3807e-06	6.3727e-06	1377.4	374.21	6.3432e-06	6.3568e-06	428.14	143.14	125	43.052	6.4208e-06	53.399	-51.401	54.806	10.472	-53.176	175.016	28.250	-53.093	-48.179	76.357	202.708	-48.964	-44.484	-43.682	-39.470	146.478	-39.788	-8191	255	
672.211	1	1	0	0	0.27802	0.29827	0.18894	0.21785	0.1371	0.18266	0.21874	0.13768	0.26441	0.20955	0.060682	0.28546	0.10572	0.11362	0.13963	0.11135	-0.75417	-0.21667	-0.76458	-1.3771	-0.022917	-0.73333	-0.72083	-0.52708	-1.0042	-0.41875	-0.56042	-0.98958	-0.20417	-1.1125	-0.65208	-0.12292	-33.029	132.662	232.103	257.683	260.429	27.317	245.676	22.568	-24.999	198.032	218.510	198.215	-40.489	12.085	261.195	271.426	0.00019336	0.00017996	0.00025323	1358.7	6.3492e-06	4.7124e-06	1353.6	366.04	9.7125e-06	4.8906e-06	420.14	138.96	121.19	41.662	3.4688e-06	51.6	0.00058064	0.00058317	0.00016267	1380.7	6.4063e-06	6.3889e-06	1377.3	373.95	6.3434e-06	6.3544e-06	429.08	143.31	124.73	43.033	6.3523e-06	53.315	-9.051	19.828	6.371	-53.230	50.105	112.381	-52.956	-48.536	105.226	87.853	-48.821	-44.399	-43.504	-39.512	184.114	-40.081	-8191	255	
672.307	1	1	0	0	0.10987	0.21254	0.23127	0.21768	0.061812	0.084385	0.6017	0.3803	0.12563	0.12508	0.079343	0.2268	0.11395	0.13341	0.13959	0.20791	-0.79375	-0.29167	-0.44583	-1.0104	-0.16458	-0.89792	-0.80208	-0.25625	-1.0896	-0.47917	-0.62083	-0.82917	0.01875	-0.87708	-0.79792	-0.11667	146.654	8.161	238.237	221.947	175.604	225.800	208.476	251.093	270.488	177.494	261.927	-36.109	191.711	-44.988	180.785	287.061	4.9872e-05	0.00022965	7.9822e-05	1353.7	1.0502e-05	2.5056e-06	1356.6	366.8	2.3107e-06	4.1051e-06	418.99	138.61	121.26	41.529	3.581e-06	51.948	0.00057352	0.00057594	0.00016056	1377.5	6.3279e-06	6.3045e-06	1377.4	373.76	6.3185e-06	6.3481e-06	428.52	143.1	125.02	43.106	6.3893e-06	53.431	235.877	21.152	81.508	-53.133	140.489	229.217	-53.214	-48.405	-3.009	138.144	-48.983	-44.191	-43.725	-39.685	161.215	-40.302	-8191	255	
672.403	1	1	0	0	0.25516	0.21463	0.072937	0.17224	0.12081	0.30023	0.17283	0.2617	0.088317	0.18255	0.14851	0.23596	0.12969	0.048799	0.13017	0.18724	-0.49167	-0.33125	-0.1875	-1.1688	-0.15	-0.71875	-0.90833	-0.17917	-1.0354	-0.5	-0.52292	-0.81042	-0.0041667	-0.6625	-0.89792	-0.33125	6.236	258.608	5.164	219.721	259.505	124.480	275.026	265.328	9.942	66.534	138.566	13.826	37.451	13.853	34.044	-45.390	0.00032354	0.00016588	0.00023805	1359.1	9.6786e-06	1.4645e-06	1355.7	366.07	7.2939e-07	2.1695e-07	417.21	139.43	121.41	41.634	4.9048e-06	51.883	0.00058105	0.00058525	0.00016259	1379.2	6.3944e-06	6.4139e-06	1378.4	374.21	6.4178e-06	6.4079e-06	428.8	143.53	124.86	43.143	6.3752e-06	53.324	269.316	51.487	26.390	-53.216	87.802	165.164	-53.471	-48.358	-34.566	70.557	-48.866	-44.295	-43.587	-39.339	-58.783	-40.431	-8191	255	
672.499	1	1	0	0	0.24913	0.16884	0.18449	0.45668	0.17301	0.10326	0.15788	0.13544	0.12626	0.23295	0.17763	0.036688	0.22239	0.24641	0.2091	0.1241	-0.63125	-0.50208	0.029167	-1.1313	-0.2625	-0.44583	-1.2687	-0.39167	-0.77292	-0.69167	-0.19167	-1.0979	-0.55417	-0.63958	-0.99583	-0.058333	223.065	11.746	57.137	277.890	124.932	100.170	158.183	249.052	283.847	-34.842	278.929	16.054	5.455	-58.355	153.359	246.400	0.00011171	0.00017511	0.00014014	1360.1	7.9401e-06	6.3858e-06	1360.3	366.77	3.4819e-06	1.8113e-06	417.44	139.67	121.07	41.578	6.1138e-06	51.79	0.00058121	0.00057867	0.00016212	1379.1	6.3814e-06	6.3249e-06	1378.1	373.87	6.342e-06	6.3127e-06	427.65	143.2	124.78	42.903	6.2887e-06	53.283	-66.299	244.580	-0.087	-53.017	159.649	149.862	-53.069	-48.315	100.713	72.926	-48.971	-43.934	-43.647	-39.262	262.349	-40.159	-8191	255	
672.595	1	1	0	0	0.19445	0.17611	0.11114	0.18396	0.087821	0.40355	0.21528	0.23424	0.09445	0.20809	0.11391	0.27418	0.10129	0.18845	0.16201	0.15652	-0.29583	-0.48958	-0.16042	-1.1333	-0.45	-0.19792	-1.1812	-0.33542	-1.0521	-0.67708	-0.10833	-1.0896	-0.36875	-0.31458	-0.87708	-0.48958	203.025	90.628	-45.607	263.630	-33.084	56.269	203.969	290.416	32.047	-20.129	125.065	103.444	223.358	186.003	169.360	188.086	0.00019819	0.00028431	5.8289e-05	1361.6	1.3134e-06	4.1022e-06	1358	365.68	7.1596e-06	7.8468e-06	418.19	139.93	121.04	41.762	5.0846e-06	51.679	0.00057137	0.00057081	0.00015914	1379.5	6.2517e-06	6.24e-06	1375.1	373.22	6.2185e-06	6.228e-06	426.8	143.2	124.56	42.968	6.215e-06	53.156	266.086	58.393	229.924	-53.097	44.267	31.585	-53.020	-48.493	105.021	141.891	-48.918	-44.285	-43.590	-39.424	80.937	-40.150	-8191	255	
672.692	1	1	0	0	0.15067	0.10061	0.10362	0.10439	0.17256	0.31775	0.33633	0.14651	0.14897	0.024036	0.099719	0.079403	0.086949	0.15124	0.13636	0.12884	-0.52708	-1.0917	-0.25208	-1.0917	-0.4375	-0.3125	-1.3208	-0.66458	-0.46875	-0.89167	-0.079167	-1.0333	-0.77708	-0.375	-0.97708	-0.0625	281.296	148.817	-55.897	-17.988	250.910	24.298	225.960	-47.352	-2.283	238.842	270.919	148.804	248.477	11.119	-64.401	-29.355	0.00020315	0.00039472	0.00013902	1358.4	3.8414e-06	1.3074e-06	1355.5	365.12	2.7263e-06	2.5454e-06	418.09	138.43	121.19	41.782	6.3456e-06	51.72	0.00056894	0.00056761	0.00015828	1377.6	6.2308e-06	6.2155e-06	1374.9	372.85	6.2376e-06	6.2219e-06	427.13	142.82	124.58	43	6.2056e-06	53.194	263.887	101.775	-30.621	-53.072	-27.974	-41.943	-53.204	-48.306	275.455	189.454	-48.732	-44.170	-43.619	-39.605	46.425	-40.409	-8191	255	
672.812	1	1	0	0	0.43118	0.25935	0.18144	0.32997	0.23695	0.012477	0.24463	0.15047	0.050708	0.13356	0.15012	0.04018	0.1584	0.35581	0.30392	0.28922	-0.0375	-1.0375	-0.15625	-1.0271	-0.51042	-0.0875	-1.3667	-0.61667	-0.41042	-0.98333	-0.22292	-1.0312	-0.78958	-0.010417	-0.85833	-0.40625	129.102	124.233	-7.712	289.269	-56.146	267.254	194.032	222.166	53.905	68.341	169.729	-5.796	274.638	259.351	124.871	196.077	0.00032184	0.00048916	0.00013552	1354.1	4.1507e-06	1.6305e-06	1358.3	366.75	3.4509e-06	8.598e-06	417.03	138.88	121.16	41.618	1.1361e-05	51.74	0.0005638	0.00056683	0.00015736	1375.5	6.1965e-06	6.2149e-06	1375.4	373.4	6.2117e-06	6.183e-06	426.76	142.83	124.56	42.916	6.2467e-06	53.251	265.856	-37.113	168.668	-53.215	92.347	273.244	-53.013	-48.353	-42.504	181.617	-48.952	-44.137	-43.634	-39.770	121.064	-40.273	-8191	255	
672.908	1	1	0	0	0.078012	0.034716	0.054092	0.11104	0.43216	0.21709	0.16845	0.27196	0.2338	0.10446	0.14045	0.17831	0.3133	0.18544	0.11381	0.13838	-0.045833	-1.0521	-0.11667	-0.82083	-0.83333	-0.39375	-1.3188	-0.56458	-0.27083	-0.97292	-0.079167	-0.79792	-1.0333	-0.39375	-1.0104	-0.5625	187.534	40.003	-20.065	240.657	150.349	68.748	180.897	189.154	141.268	204.994	213.125	10.173	232.134	18.608	212.992	43.971	0.00026858	0.00075136	0.00014931	1356.2	3.4765e-06	2.8798e-06	1353.2	367.29	5.1563e-06	1.7455e-06	415.76	138.65	120.69	41.573	5.991e-06	51.721	0.00056853	0.00056886	0.00015807	1377.5	6.2056e-06	6.2125e-06	1374.1	373.19	6.204e-06	6.2047e-06	426.01	142.93	124.42	42.782	6.1135e-06	53.074	289.261	93.420	158.981	-52.861	233.187	123.052	-53.109	-48.431	284.584	-6.299	-49.025	-44.033	-43.589	-39.491	27.007	-40.528	-8191	255	
673.004	1	1	0	0	0.18505	0.19975	0.17086	0.23557	0.16564	0.07969	0.2657	0.078633	0.20662	0.071911	0.29712	0.24087	0.37795	0.076035	0.12852	0.0061359	0.23125	-0.93333	-0.13125	-0.5125	-0.96875	-0.25	-1.2417	-0.59167	-0.13958	-0.81458	-0.59375	-0.8875	-1.0063	-0.31042	-0.6625	-0.7875	153.832	-45.952	-35.312	251.067	53.433	167.365	110.373	162.466	-15.302	130.486	183.148	270.065	245.289	-62.967	64.940	271.284	0.00034321	0.00026521	0.00017838	1358.8	3.153e-06	8.7852e-06	1352.4	366.26	4.9828e-06	4.6723e-06	418.02	139.21	120.73	41.697	4.6493e-06	51.602	0.00055775	0.00055934	0.00015495	1372.6	6.1123e-06	6.1406e-06	1370.7	372.62	6.1108e-06	6.1153e-06	425.45	142.77	124.14	42.844	6.1892e-06	53.096	261.948	10.425	54.209	-53.040	-5.785	66.086	-53.093	-48.567	59.327	45.661	-49.322	-44.270	-43.832	-39.940	38.583	-40.842	-8191	255	
673.101	1	1	0	0	0.17082	0.10997	0.091356	0.21229	0.35567	0.29393	0.15558	0.17001	0.11614	0.24769	0.1728	0.20077	0.35169	0.15701	0.051033	0.19939	0.31875	-0.81667	-0.44167	-0.49375	-1.1167	-0.010417	-1.1792	-0.79792	-0.36875	-1.0896	-0.33125	-0.31667	-0.92083	-0.10625	-0.6375	-0.94167	231.758	185.677	208.459	-21.740	74.146	-48.718	28.354	275.678	-45.625	13.077	291.615	283.075	258.565	229.187	7.354	244.280	0.00035381	0.00098849	0.00018233	1356.5	5.0868e-06	5.0379e-06	1354.1	366.28	8.2716e-06	2.138e-06	416.78	139.48	121.07	41.673	7.1171e-06	51.494	0.00056475	0.00056683	0.00015768	1375.9	6.2367e-06	6.2549e-06	1374.1	373.28	6.2428e-06	6.2224e-06	427.13	142.97	124.53	42.929	6.2692e-06	53.164	267.662	-25.391	112.120	-53.311	46.995	75.016	-53.084	-48.474	180.761	271.073	-49.082	-44.457	-43.652	-39.517	20.504	-40.234	-8191	255	
673.195	1	1	0	0	0.16321	0.18453	0.18113	0.57104	0.26808	0.30492	0.2403	0.24141	0.28794	0.19186	0.37018	0.29345	0.21564	0.28821	0.025361	0.10916	0.15833	-0.90625	-0.54375	-0.48333	-0.87083	-0.17083	-0.78958	-0.83542	-0.020833	-1.0792	-0.50625	-0.21042	-1.0833	0.041667	-0.43333	-0.83542	194.311	95.580	184.640	246.500	61.312	30.530	-65.022	226.024	121.792	286.916	270.850	282.423	279.290	280.638	265.136	200.380	0.00029494	0.0004696	0.00014064	1353.8	4.0973e-06	6.3759e-06	1353.7	366.48	6.2464e-06	5.6957e-06	417.76	139.74	120.84	41.641	2.2508e-06	51.613	0.00056874	0.00057063	0.00015917	1375.6	6.2826e-06	6.2561e-06	1373.9	373.03	6.2421e-06	6.1894e-06	426.76	143.08	124.41	42.968	6.198e-06	53.124	260.426	115.082	13.895	-53.168	136.383	200.699	-53.196	-48.490	184.850	0.216	-49.196	-44.322	-43.637	-39.267	12.488	-40.231	-8191	255	
673.291	1	1	0	0	0.077532	0.047611	0.21516	0.26711	0.13056	0.21168	0.17498	0.24929	0.13765	0.38403	0.1511	0.22579	0.1509	0.17368	0.14103	0.2928	0.42708	-0.78125	-0.60625	-0.63958	-1.1667	-0.44167	-0.57083	-0.87292	-0.17917	-0.65625	-0.71458	-0.22708	-1.0354	-0.45208	-0.42708	-0.9	-21.184	230.868	29.106	260.276	-1.311	-31.574	10.030	252.504	65.716	245.292	66.455	238.144	-29.506	283.714	80.720	191.643	0.00021628	0.0007228	1.8048e-05	1358.1	6.688e-06	5.6621e-06	1351.9	365.99	2.2807e-06	1.9925e-06	417.42	139.44	121.54	41.632	3.5145e-07	51.495	0.00056588	0.0005669	0.00015741	1376.1	6.2654e-06	6.2646e-06	1374.1	373.6	6.2999e-06	6.3e-06	428.17	143.19	125.04	42.979	6.3575e-06	53.3	246.056	-26.519	-28.662	-53.263	31.187	115.061	-52.900	-48.308	144.859	110.723	-48.924	-44.164	-43.705	-39.478	166.595	-40.383	-8191	255	
673.412	1	1	0	0	0.18997	0.1482	0.37888	0.17621	0.040219	0.22325	0.26192	0.075271	0.18275	0.22702	0.24791	0.1036	0.19871	0.27362	0.064455	0.17707	0.53333	-0.62708	-0.47292	-0.34167	-0.97708	-0.225	-0.4625	-1.2229	-0.11667	-0.73333	-0.85417	-0.11458	-0.78542	-0.71458	-0.31458	-1.0708	199.572	224.341	228.917	274.714	38.517	184.177	225.622	239.883	-35.694	234.972	273.433	178.861	-18.361	85.448	182.198	155.854	0.00028309	0.00027106	0.00015078	1355.5	1.9479e-06	7.3299e-06	1359.4	366.92	4.9382e-06	3.5143e-06	418.3	139.38	121.31	41.527	4.7225e-06	51.85	0.00058086	0.00057749	0.00016168	1377.1	6.4008e-06	6.3723e-06	1377.6	374.24	6.4049e-06	6.4054e-06	428.3	143.77	125.36	43.069	6.5104e-06	53.569	267.536	32.980	-27.246	-53.024	26.284	22.685	-53.175	-48.240	32.750	92.842	-49.152	-44.204	-43.515	-39.463	44.583	-40.258	-8191	255	
673.508	1	1	0	0	0.10714	0.12206	0.073983	0.20132	0.2505	0.32967	0.045023	0.23467	0.045576	0.14531	0.11362	0.31694	0.55899	0.13658	0.16182	0.14104	0.05	-0.44583	-0.82708	-0.31458	-1.0771	-0.45	-0.55	-1.2771	-0.18542	-0.33958	-1.0833	-0.25208	-1.0521	-0.78958	-0.225	-1.0333	276.602	200.045	160.304	279.126	32.605	-21.636	242.424	245.988	85.744	268.648	168.384	208.320	257.027	-33.457	75.422	118.549	0.00042799	0.00047192	0.00021465	1356	3.0254e-06	3.0035e-06	1355.8	367.08	4.3566e-06	8.4505e-07	417.02	139.22	120.79	41.716	3.6292e-06	51.721	0.00059593	0.00059884	0.00016642	1380.9	6.5577e-06	6.5885e-06	1380.7	374.78	6.5546e-06	6.5437e-06	429.24	143.85	125.5	43.222	6.5777e-06	53.674	-39.003	30.965	10.597	-52.854	113.946	23.266	-53.047	-48.317	280.707	193.971	-49.014	-44.296	-43.440	-39.449	87.647	-39.808	-8191	255	
673.604	1	1	0	0	0.29913	0.17376	0.29263	0.24698	0.20169	0.12946	0.1051	0.30661	0.10668	0.28924	0.14847	0.29031	0.058577	0.15397	0.22105	0.15286	0.1125	-0.41667	-1.0458	-0.3125	-0.69375	-0.55	-0.17083	-1.0729	-0.1125	-0.57917	-1.1063	-0.125	-0.77083	-0.79792	-0.23125	-1.0854	25.099	-23.643	80.459	253.033	101.112	252.029	196.571	-61.467	172.518	176.443	253.934	19.256	128.649	264.323	-22.177	263.694	0.00033387	0.0014094	0.00012446	1358.1	4.0853e-06	5.8555e-06	1359.2	365.94	5.1825e-06	6.1026e-06	420.45	139.73	121.46	41.587	4.2881e-06	51.461	0.00060159	0.00060282	0.00016798	1383.1	6.5906e-06	6.5823e-06	1381.6	375.19	6.5848e-06	6.5912e-06	429.79	143.91	125.82	43.155	6.5424e-06	53.492	274.039	13.123	30.852	-53.326	217.896	149.772	-53.281	-48.622	-47.177	6.167	-49.285	-44.408	-43.872	-39.838	15.146	-40.356	-8191	255	
673.676	1	1	0	0	0.17024	0.28096	0.16394	0.10449	0.12948	0.1061	0.13053	0.031524	0.26047	0.30417	0.23973	0.04128	0.13021	0.29368	0.053599	0.20094	0.083333	-0.20625	-0.8375	-0.48542	-0.89167	-0.87917	-0.175	-0.99167	-0.34583	-0.29583	-1.2313	-0.54375	-0.76667	-0.69375	0.0020833	-0.94375	2.626	205.462	-28.439	202.924	16.392	265.039	176.379	259.815	-39.908	44.964	267.965	107.968	34.859	284.089	217.133	34.735	0.00028894	0.00066393	8.3472e-05	1360.8	3.8838e-06	3.4042e-06	1359.6	366.64	2.2065e-06	1.3542e-06	419.01	139.27	121.07	41.605	8.2282e-06	51.787	0.00059592	0.00059663	0.0001669	1382.7	6.5602e-06	6.5709e-06	1380.6	374.94	6.5268e-06	6.5575e-06	429.19	143.69	125.48	43.138	6.5337e-06	53.559	269.563	1.970	34.518	-53.215	8.143	70.648	-53.156	-48.618	265.399	37.541	-49.325	-44.716	-43.986	-39.803	63.928	-40.307	-8191	255	
673.772	1	1	0	0	0.24697	0.24746	0.12964	0.36797	0.091312	0.11493	0.23161	0.062135	0.15185	0.041342	0.25489	0.15755	0.32488	0.31153	0.044263	0.28729	-0.13333	-0.0083333	-1.0083	-0.34375	-0.59583	-1.0521	-0.3	-1.0187	-0.6875	-0.083333	-0.94792	-0.30208	-0.475	-1.0875	-0.2	-1.0292	89.593	207.854	264.695	253.468	45.209	-8.098	218.892	244.906	287.036	4.964	236.446	-60.852	268.791	-44.971	119.860	257.655	0.00030182	0.00037369	0.00013238	1353.2	5.7502e-06	6.1141e-06	1352	366.29	3.2153e-06	8.3623e-06	418.23	139.35	121.23	41.492	2.9884e-06	51.656	0.00058929	0.00058898	0.00016407	1379.5	6.4244e-06	6.4001e-06	1374.2	373.57	6.3928e-06	6.3869e-06	428.68	143.45	125.09	43.001	6.3808e-06	53.406	250.894	-18.056	61.638	-53.270	10.272	4.380	-53.194	-48.652	-35.459	47.381	-48.948	-44.454	-43.598	-39.619	92.385	-40.391	-8191	255	
673.893	1	1	0	0	0.024472	0.15574	0.13267	0.067277	0.11806	0.135	0.27003	0.027935	0.15514	0.035394	0.20608	0.041986	0.11381	0.066626	0.1664	0.15643	-0.33125	-0.10625	-1.0146	-0.86042	-0.41458	-0.94167	-0.31667	-0.8625	-0.78958	-0.23333	-1.0604	-0.61875	-0.62917	-1.1562	-0.11875	-0.725	260.514	289.115	170.412	241.013	96.071	214.844	252.481	63.614	228.584	-7.996	170.962	70.121	239.203	-49.369	43.352	215.193	0.00011371	0.00086227	0.00012989	1356.4	1.2481e-06	4.8188e-06	1352.2	365.47	3.7035e-06	4.6929e-06	416.12	138.83	120.75	41.679	3.9835e-07	51.847	0.00057655	0.0005803	0.00016133	1378.3	6.3219e-06	6.2999e-06	1374.8	373.81	6.268e-06	6.2637e-06	426.87	142.95	124.73	42.925	6.2421e-06	53.235	-27.097	18.146	100.780	-53.111	-24.662	75.569	-53.168	-48.343	178.343	139.274	-49.073	-44.566	-43.665	-39.411	-4.787	-40.257	-8191	255	
673.989	1	1	0	0	0.099687	0.3274	0.072994	0.17234	0.18923	0.20071	0.18948	0.21503	0.21424	0.12135	0.18436	0.088701	0.24364	0.14102	0.10393	0.25778	-0.46875	-0.15833	-0.70625	-0.675	-0.10833	-1.1896	-0.55	-0.75417	-0.54792	-0.05	-1.125	-0.76667	-0.4375	-1.3708	-0.26458	-0.44375	91.222	-28.466	-5.574	-57.219	-5.084	20.288	214.341	166.701	0.363	1.699	28.196	292.797	257.616	162.543	-34.649	284.676	0.00025891	0.00012058	3.6919e-05	1357.8	5.3503e-06	5.2356e-06	1355	366.28	2.4028e-06	3.7822e-06	418.52	139.5	121.62	41.629	5.199e-06	51.647	0.00056839	0.00056897	0.00015929	1377.2	6.243e-06	6.2107e-06	1373.9	373.01	6.1888e-06	6.2349e-06	427.1	143	124.53	42.871	6.2392e-06	53.267	-54.707	84.877	292.944	-53.302	99.804	177.580	-53.400	-48.371	176.473	40.513	-49.074	-44.561	-44.087	-39.716	47.459	-40.471	-8191	255	
674.085	1	1	0	0	0.16716	0.076672	0.10396	0.3067	0.29019	0.21396	0.29191	0.37742	0.070914	0.16253	0.067672	0.10183	0.22927	0.049554	0.094095	0.13272	-0.2875	0.05	-0.76667	-0.50625	-0.10833	-1.0208	-0.68958	-0.79167	-0.95208	-0.04375	-0.89792	-0.90833	-0.19167	-0.93333	-0.28958	-0.36875	-25.233	232.694	137.398	278.058	58.571	115.518	224.249	215.655	182.274	168.624	67.632	-3.583	84.365	62.402	205.990	114.999	0.00033303	0.00069823	1.8784e-05	1350.7	2.4588e-06	5.4819e-06	1351.8	364.61	4.127e-06	3.4496e-06	419.15	138.64	120.97	41.727	4.1795e-06	51.56	0.00056762	0.0005684	0.00015847	1373.4	6.2036e-06	6.2276e-06	1373.9	372.73	6.206e-06	6.2456e-06	426.91	142.96	124.26	42.919	6.2048e-06	53.132	283.363	213.280	15.517	-53.280	-26.598	69.207	-53.434	-48.312	128.982	116.263	-48.919	-44.452	-43.655	-39.352	26.528	-40.790	-8191	255	
674.204	1	1	0	0	0.18337	0.08646	0.30534	0.2254	0.096953	0.25153	0.19589	0.318	0.19295	0.16411	0.31478	0.26588	0.38783	0.067192	0.1334	0.067434	-0.67708	-0.070833	-0.55208	-0.72708	-0.19792	-1.2625	-0.71458	-0.50625	-0.94167	-0.05	-0.81667	-0.8625	-0.44583	-1.2208	-0.60833	-0.23542	192.743	118.410	279.247	249.289	69.984	43.635	286.312	241.086	34.667	8.298	252.519	210.745	-30.086	74.694	-31.840	217.225	0.00028144	0.00059342	7.8691e-05	1352.7	5.4078e-06	6.8548e-06	1350.5	367.04	4.9238e-06	6.363e-06	418.96	139.34	120.67	41.658	9.772e-06	51.544	0.00056584	0.00056676	0.00015778	1373.8	6.2124e-06	6.1763e-06	1372.2	372.94	6.1395e-06	6.1599e-06	426.69	142.78	124.25	42.786	6.1351e-06	53.047	262.966	172.309	35.939	-53.240	145.897	-16.850	-53.250	-48.371	-26.288	31.653	-49.303	-44.454	-43.992	-39.687	28.146	-40.477	-8191	255	
674.275	1	1	0	0	0.10519	0.25087	0.09813	0.20609	0.12813	0.039135	0.18933	0.33191	0.15863	0.237	0.18138	0.21442	0.27145	0.20018	0.2024	0.13362	-0.8	-0.21042	-0.60208	-1.0208	-0.19792	-0.96042	-0.86458	-0.21042	-0.77917	-0.26667	-0.81042	-0.9375	-0.054167	-1.0583	-0.58333	-0.29792	217.622	151.765	278.974	230.446	113.104	214.603	170.172	257.241	46.651	48.728	276.240	127.156	-8.100	-20.164	-57.816	223.275	0.00019061	0.00049433	0.00018535	1351.7	4.0223e-06	1.2166e-06	1355.8	365.49	6.8533e-06	5.2777e-06	418.09	138.45	120.76	41.603	4.6012e-06	51.499	0.00056108	0.00055965	0.00015582	1372.9	6.1555e-06	6.1394e-06	1371.7	372.41	6.1452e-06	6.1783e-06	426.79	142.84	124.4	42.895	6.2594e-06	53.156	273.740	53.695	-48.469	-53.333	291.193	190.113	-53.296	-48.351	23.878	83.328	-48.987	-44.624	-43.738	-39.534	27.015	-40.234	-8191	255	
674.373	1	1	0	0	0.069099	0.09094	0.083619	0.3415	0.1625	0.12756	0.23407	0.22699	0.070892	0.040831	0.063651	0.22042	0.26325	0.13995	0.26145	0.33355	-0.58333	-0.095833	-0.49375	-1.2208	-0.30417	-0.95625	-0.91042	-0.15208	-1.0771	-0.40208	-0.56042	-1.2271	-0.17292	-0.77917	-0.59375	-0.25208	-64.884	149.594	-14.850	274.077	225.037	-46.407	230.182	230.917	62.573	178.288	171.408	283.579	32.414	13.833	76.474	264.809	0.00020416	0.00032506	7.7922e-05	1354.1	8.8229e-06	5.1356e-06	1352	365.21	4.7553e-06	9.8561e-06	419.49	139.81	120.98	41.648	1.3235e-06	51.658	0.00057159	0.00057492	0.00015856	1376.9	6.2797e-06	6.2719e-06	1373.9	373.33	6.2976e-06	6.2827e-06	428.32	143.15	124.79	43.012	6.3953e-06	53.336	209.762	113.742	-24.452	-53.336	131.116	161.306	-53.364	-48.198	16.429	8.803	-49.015	-44.381	-43.594	-39.575	145.954	-40.319	-8191	255	
674.492	1	1	0	0	0.25662	0.12459	0.17331	0.3508	0.039774	0.081954	0.32737	0.17082	0.15332	0.17745	0.24059	0.10848	0.090754	0.33583	0.15663	0.06316	-0.52708	-0.35417	-0.18958	-1.1667	-0.19583	-0.65	-0.77083	-0.35833	-1.2333	-0.56458	-0.33125	-1.0896	-0.32292	-0.60625	-0.79167	-0.20417	-53.287	-4.911	75.646	237.531	36.736	227.296	243.287	-43.250	-54.828	262.686	205.445	289.145	87.135	-48.569	271.408	148.296	0.00040163	0.0010229	6.3777e-05	1357.8	3.1279e-06	3.1787e-06	1352	365.07	7.7783e-06	4.5508e-06	418.89	139.32	121.23	41.594	7.5243e-06	51.762	0.00058152	0.0005828	0.00016239	1377.9	6.3748e-06	6.375e-06	1376.1	373.13	6.3452e-06	6.3763e-06	427.96	143.34	124.81	43.032	6.4147e-06	53.37	-62.945	-49.302	33.309	-53.365	161.147	113.463	-53.047	-48.314	69.871	169.637	-49.269	-44.424	-44.004	-39.347	109.925	-40.433	-8191	255	
674.588	1	1	0	0	0.06347	0.17091	0.13531	0.14631	0.17498	0.35524	0.35843	0.18102	0.2126	0.19387	0.27254	0.21173	0.22809	0.21292	0.27185	0.20965	-0.44792	-0.54167	0.041667	-1.2021	-0.40417	-0.44792	-1.0729	-0.083333	-0.91042	-0.91458	-0.22708	-1.1063	-0.26667	-0.47083	-1.0938	-0.41875	154.257	221.524	16.301	225.838	108.282	275.300	270.616	-26.374	88.631	31.992	180.911	272.552	290.140	224.185	251.250	208.738	0.00016638	0.0002631	0.0001349	1352.3	3.3502e-06	4.9275e-06	1354.4	364.51	8.4126e-06	1.5171e-06	417.82	138.67	121.97	41.748	6.8177e-06	51.655	0.00058287	0.00058639	0.00016324	1379	6.4169e-06	6.4279e-06	1378.1	373.7	6.4474e-06	6.437e-06	429.13	143.49	125.35	43.131	6.4922e-06	53.471	176.645	5.957	259.538	-53.216	66.299	82.331	-53.106	-48.535	259.772	63.209	-49.226	-44.124	-43.982	-39.741	122.997	-40.534	-8191	255	
674.684	1	1	0	0	0.15424	0.13403	0.17166	0.32218	0.35515	0.30418	0.13503	0.31531	0.066035	0.23084	0.054048	0.17844	0.43392	0.030601	0.13724	0.20944	-0.34792	-0.42917	-0.24375	-1.2771	-0.42708	-0.21875	-1.0396	-0.39167	-0.92708	-0.67292	-0.091667	-1	-0.54792	-0.425	-0.85	-0.13958	-62.022	71.898	277.542	289.796	99.148	-15.903	234.892	197.582	220.148	129.279	168.429	262.452	261.638	252.314	50.352	234.557	0.00041516	0.0004657	9.2318e-05	1353.3	2.7921e-06	7.3514e-06	1359.3	365.44	1.1818e-06	1.0936e-05	416.98	138.72	120.8	41.705	3.404e-06	51.334	0.00058924	0.00059437	0.0001646	1381.5	6.5016e-06	6.4716e-06	1379.1	374.21	6.496e-06	6.4697e-06	429.18	143.83	125.44	43.176	6.5493e-06	53.424	-54.329	73.445	243.412	-53.158	29.962	81.739	-53.255	-48.249	127.710	92.590	-48.983	-44.377	-43.883	-39.601	118.893	-40.307	-8191	255	
674.805	1	1	0	0	0.21127	0.11651	0.2545	0.26519	0.26548	0.16067	0.14345	0.08599	0.13229	0.24615	0.19804	0.048239	0.12118	0.35455	0.14235	0.29781	-0.22708	-0.71667	-0.0041667	-1.0708	-0.35208	-0.41875	-1.0292	-0.32083	-0.56458	-0.97292	-0.125	-0.825	-0.68958	-0.36667	-0.87917	-0.34375	-22.275	219.746	19.157	273.787	145.727	1.213	271.803	220.302	-11.241	38.365	205.779	272.896	-42.266	-33.308	289.361	58.902	0.00038782	0.00045353	0.00018735	1354.3	5.4629e-06	2.2788e-06	1362.1	365.77	5.7628e-06	7.4106e-06	419.52	138.72	120.79	41.381	1.9671e-06	51.708	0.00059618	0.00059444	0.00016563	1380	6.4979e-06	6.5186e-06	1379.1	374.2	6.5302e-06	6.5267e-06	429.92	143.64	125.23	43.109	6.5448e-06	53.477	235.097	256.497	-55.263	-53.012	64.656	239.866	-53.298	-48.607	76.326	93.408	-48.918	-44.023	-43.606	-39.419	57.772	-40.305	-8191	255	
674.901	1	1	0	0	0.082562	0.18687	0.082288	0.13226	0.3621	0.22157	0.38507	0.16607	0.12652	0.19571	0.35073	0.13217	0.31077	0.26486	0.10323	0.19497	-0.375	-1.0312	-0.022917	-0.9	-0.61875	-0.35625	-1.2687	-0.55625	-0.225	-0.99583	-0.34375	-1.1187	-0.66875	-0.37083	-0.93542	-0.35833	159.055	96.332	251.737	290.971	142.428	-39.929	-63.272	286.779	165.024	251.565	244.174	244.967	215.039	281.586	114.496	136.720	0.00026031	0.00095812	0.00015536	1354.5	9.4515e-06	6.9211e-06	1354.9	364.8	6.5313e-06	4.4843e-06	417.91	139.05	121.31	41.548	5.2554e-06	51.277	0.00059177	0.00059275	0.00016543	1377.2	6.4428e-06	6.4766e-06	1375.9	373.22	6.4676e-06	6.4265e-06	428.5	143.42	124.96	42.987	6.3895e-06	53.394	246.981	48.236	24.387	-53.190	148.417	32.396	-53.136	-48.487	44.785	-38.511	-49.120	-44.456	-43.858	-39.601	40.316	-40.489	-8191	255	
674.973	1	1	0	0	0.10762	0.15861	0.043718	0.34134	0.23794	0.20092	0.29317	0.31099	0.16499	0.1268	0.20113	0.2812	0.24893	0.15124	0.10062	0.14542	-0.21875	-1.0417	-0.11042	-0.94583	-0.95417	-0.27083	-1.0979	-0.61458	-0.0875	-1.0729	-0.44583	-0.74583	-0.92708	-0.035417	-0.9125	-0.56458	164.558	217.424	112.526	267.359	209.393	134.491	213.331	227.072	227.686	250.143	239.340	260.006	162.268	292.792	136.366	216.227	0.00025434	0.00015554	5.3564e-05	1351	6.6283e-06	3.1078e-06	1355	365.48	6.4466e-07	2.5372e-06	419.13	139.46	120	41.614	4.3707e-06	51.621	0.00058323	0.00058683	0.00016341	1377.5	6.4345e-06	6.4155e-06	1378.8	373.89	6.4268e-06	6.4433e-06	428.53	143.66	124.94	43.114	6.4776e-06	53.33	-56.657	97.237	95.753	-53.103	48.880	78.094	-53.042	-48.739	-28.354	106.646	-48.889	-44.329	-43.887	-39.571	125.096	-40.332	-8191	255	
675.069	1	1	0	0	0.17537	0.16506	0.087129	0.34631	0.051768	0.24007	0.25487	0.12685	0.026896	0.13305	0.20735	0.073116	0.078489	0.15272	0.076771	0.13811	-0.11458	-1.0479	-0.22708	-0.66667	-1.0542	-0.10417	-1.0458	-0.78958	-0.070833	-1.1979	-0.5375	-0.6875	-0.86875	-0.0375	-0.91042	-0.62708	213.882	-53.336	-57.905	242.336	217.787	-17.056	258.452	260.973	233.639	-49.249	236.622	81.870	189.376	263.374	185.285	71.808	5.2861e-05	0.0007213	0.00020939	1357	9.2816e-06	8.6157e-06	1357.5	365.77	3.1729e-06	5.5764e-06	417.55	138.89	121.02	41.382	1.2192e-05	51.746	0.00058695	0.00058866	0.00016359	1379.7	6.4134e-06	6.4094e-06	1379.1	373.02	6.3802e-06	6.3403e-06	427.51	143.15	125.05	42.931	6.3764e-06	53.28	250.518	35.339	2.673	-53.189	92.262	162.593	-53.120	-48.279	237.384	80.856	-49.043	-44.118	-43.652	-39.611	116.626	-40.215	-8191	255	
675.188	1	1	0	0	0.26784	0.18602	0.20549	0.19777	0.14813	0.17963	0.058838	0.094074	0.20869	0.16643	0.179	0.25746	0.092806	0.28839	0.12651	0.095855	0.3125	-0.98958	-0.22708	-0.45833	-0.71042	-0.022917	-0.76667	-0.87708	-0.083333	-0.95	-0.55	-0.35	-0.82292	-0.34583	-0.68958	-0.92083	188.265	0.146	106.485	289.287	20.459	116.304	17.910	198.999	100.977	-52.462	227.214	261.503	175.307	275.461	262.788	205.400	0.00020431	0.00037527	0.00032024	1351.9	5.4449e-06	3.0614e-06	1355	365.57	6.621e-06	6.5969e-06	417.95	138.88	121.32	41.567	1.2096e-05	51.528	0.00057921	0.00057698	0.00016095	1376.6	6.3223e-06	6.3296e-06	1376.4	372.81	6.2632e-06	6.2805e-06	427.22	143.12	124.62	42.907	6.2858e-06	53.159	-60.609	130.741	-18.743	-53.068	155.304	214.221	-53.134	-48.348	125.592	51.604	-49.071	-44.222	-43.734	-39.511	40.201	-40.544	-8191	255	
675.284	1	1	0	0	0.046837	0.27999	0.21258	0.26942	0.19161	0.13564	0.21606	0.19224	0.024133	0.076882	0.10151	0.30507	0.16247	0.21845	0.011081	0.26612	0.3375	-0.66042	-0.48958	-0.6125	-0.94167	-0.36042	-0.98542	-1.0771	-0.17083	-0.89167	-0.34583	-0.26458	-1.0729	-0.34167	-0.33333	-0.84375	1.817	111.941	-29.590	-64.317	287.661	161.973	266.033	268.949	273.160	25.035	215.960	9.388	21.762	90.315	121.622	292.178	0.00036151	0.00038671	0.00019391	1356.6	6.8352e-06	4.0759e-06	1352.8	365.3	3.9147e-06	6.4973e-06	417.9	139.11	121.59	41.607	4.2328e-06	51.823	0.00056946	0.00057126	0.0001587	1375.3	6.2616e-06	6.2661e-06	1374.1	372.9	6.2301e-06	6.2282e-06	427.02	142.76	124.67	42.852	6.2607e-06	53.153	-33.119	-13.134	-16.419	-53.177	89.532	64.362	-53.213	-48.438	169.528	220.439	-48.888	-44.158	-43.950	-39.717	196.872	-40.303	-8191	255	
675.380	1	1	0	0	0.2273	0.19737	0.10709	0.34536	0.076212	0.13366	0.079249	0.27793	0.094664	0.27343	0.33544	0.13204	0.2995	0.10097	0.14405	0.24924	0.10625	-0.94792	-0.675	-0.38542	-1.0625	-0.2625	-0.71458	-1.1167	-0.20417	-0.85625	-0.87083	-0.21667	-1.1021	-0.51042	-0.54375	-0.95208	43.430	40.190	277.086	202.479	233.576	199.273	289.517	237.503	112.524	69.698	255.081	289.189	240.908	86.155	52.284	245.889	0.00033136	0.00021481	0.00016675	1354.4	3.3311e-06	4.9568e-06	1357.9	365.38	2.067e-06	3.1707e-06	417.93	138.72	121.08	41.59	6.5392e-06	51.804	0.00057163	0.00056913	0.00015817	1374.1	6.2328e-06	6.2135e-06	1374.4	372.66	6.1639e-06	6.1576e-06	426.33	142.74	124.33	42.841	6.1477e-06	53.087	-64.385	17.592	10.048	-53.089	144.037	158.187	-53.100	-48.346	12.083	3.523	-49.231	-44.543	-44.064	-39.465	68.380	-40.140	-8191	255	
675.476	1	1	0	0	0.20258	0.21003	0.14741	0.34627	0.31074	0.14463	0.35211	0.14477	0.16242	0.13421	0.19984	0.26828	0.10457	0.018195	0.16323	0.21132	0.525	-0.6125	-0.68958	-0.21042	-1.0688	-0.49167	-0.36875	-1.1542	-0.19375	-0.375	-0.90208	-0.33958	-1.1021	-0.38958	-0.3375	-1.2542	75.522	-11.603	155.812	263.095	78.428	161.874	246.610	180.976	-53.488	-55.361	214.607	239.161	289.850	78.238	237.661	60.817	0.00029229	0.0014381	5.8552e-05	1357.1	6.4723e-06	4.8321e-06	1355.8	365	6.8e-07	2.3688e-06	417.73	138.74	121.15	41.598	6.1976e-06	51.618	0.00055779	0.0005603	0.00015597	1373.8	6.1333e-06	6.1389e-06	1373.1	372.32	6.0991e-06	6.1141e-06	426.02	142.48	124.07	42.788	6.0748e-06	53.008	289.791	5.027	-7.570	-53.222	79.987	-18.465	-53.040	-48.466	205.517	86.595	-49.063	-44.305	-43.572	-39.627	140.102	-40.182	-8191	255	
675.573	1	1	0	0	0.13175	0.12403	0.074446	0.12234	0.16396	0.14529	0.38226	0.3861	0.162	0.12188	0.25315	0.28639	0.34903	0.074246	0.084784	0.17325	0.091667	-0.42917	-0.71042	-0.29375	-0.80208	-0.51042	-0.61875	-1.3188	-0.11667	-0.58542	-0.6875	-0.16042	-1.0083	-0.92292	-0.23333	-0.91667	18.694	142.619	167.556	251.446	183.898	-27.690	213.481	259.616	47.001	191.208	-54.734	276.110	-53.918	-32.857	-1.572	-9.970	0.00026596	0.00099066	7.5607e-05	1353.9	4.5249e-06	2.0331e-06	1354.9	364.84	3.5358e-06	5.9425e-06	416.59	139.17	121.62	41.473	2.4286e-06	51.764	0.00055453	0.00055345	0.00015459	1372.2	6.0922e-06	6.0727e-06	1371.6	371.98	6.0669e-06	6.0646e-06	425.41	142.45	124.1	42.746	6.0781e-06	53.029	284.765	114.185	42.790	-53.353	76.902	22.435	-53.270	-48.601	291.439	52.427	-49.165	-44.162	-43.316	-39.623	74.534	-39.950	-8191	255	
675.669	1	1	0	0	0.19555	0.2923	0.19846	0.039439	0.091219	0.081078	0.24875	0.204	0.15464	0.19937	0.14858	0.15158	0.14835	0.073602	0.13963	0.19045	0.15208	-0.42917	-1.025	-0.3625	-0.84792	-0.51667	-0.45417	-1.3625	-0.31042	-0.325	-1.2208	-0.56458	-0.98125	-0.72708	0.06875	-1.2188	99.633	230.574	268.115	78.665	-58.302	246.295	226.399	-28.937	22.993	-54.711	232.763	263.135	266.178	-2.930	165.338	236.896	0.0001622	0.00045558	0.00012585	1356.1	3.83e-06	3.0682e-06	1350.5	366.2	3.3734e-06	6.6834e-06	417.21	139.07	121.3	41.563	3.8654e-06	51.638	0.00055144	0.00055296	0.00015266	1371	6.0378e-06	6.0335e-06	1367.4	371.93	6.0331e-06	6.0313e-06	424.96	142.32	123.77	42.696	6.016e-06	52.937	263.245	281.393	271.062	-53.125	75.937	78.108	-53.111	-48.376	33.142	216.224	-49.381	-44.314	-43.622	-39.585	145.168	-40.118	-8191	255	
675.765	1	1	0	0	0.30279	0.050397	0.17103	0.063632	0.37707	0.10337	0.17234	0.093613	0.039911	0.20633	0.29255	0.053154	0.21815	0.10999	0.13322	0.059622	-0.19167	-0.32708	-0.85833	-0.225	-0.63125	-1.0271	-0.33125	-0.97917	-0.59375	-0.44375	-1.2521	-0.20417	-0.6	-0.85833	-0.19792	-1.1917	181.227	-31.497	59.599	218.026	18.502	226.145	-22.604	-11.765	-54.599	197.684	178.502	186.719	192.239	154.851	261.408	187.783	0.00028002	0.00059352	0.00026721	1352.6	1.7703e-06	5.0644e-06	1350	364.81	4.6289e-06	3.1376e-06	417.62	139.52	121.39	41.583	4.7007e-06	51.874	0.00054741	0.00054549	0.00015264	1368.9	6.0127e-06	5.9589e-06	1368.4	371.83	6.0016e-06	6.0187e-06	424.83	142.24	124.01	42.676	6.013e-06	53.036	231.949	-46.176	4.681	-53.168	149.351	101.593	-52.965	-48.418	-3.225	218.338	-49.029	-43.994	-43.055	-39.761	89.958	-40.069	-8191	255	
675.885	1	1	0	0	0.13712	0.040729	0.061929	0.13804	0.21701	0.13161	0.39304	0.089117	0.08054	0.068955	0.25216	0.26427	0.32119	0.056214	0.25904	0.17781	-0.00625	-0.05625	-0.92708	-0.57917	-0.45	-0.78542	-0.31042	-0.92292	-0.59583	-0.12708	-1.2021	-0.47292	-0.50833	-0.81875	-0.23542	-0.92292	226.415	-66.077	251.562	-36.573	12.647	-51.809	217.738	135.255	109.157	220.915	186.781	-30.317	3.159	85.791	211.475	270.183	0.00027298	0.00032827	0.0002134	1350.3	1.0521e-06	5.5475e-06	1349.4	366.77	6.7499e-06	1.5534e-06	418.27	140.17	121.54	41.549	2.5245e-06	51.825	0.00054662	0.00054851	0.00015229	1369.7	6.0082e-06	6.0383e-06	1367.4	371.91	6.0369e-06	6.055e-06	425.21	142.43	123.96	42.714	6.0172e-06	52.958	291.045	277.760	-18.247	-52.897	94.666	197.568	-52.939	-48.144	24.819	136.465	-48.866	-44.471	-43.441	-39.398	70.316	-40.121	-8191	255	
675.982	1	1	0	0	0.1271	0.13407	0.089208	0.19137	0.25702	0.11605	0.33099	0.10138	0.41509	0.13247	0.20975	0.076115	0.396	0.35449	0.3039	0.32179	-0.22917	-0.39792	-0.91042	-0.325	-0.44792	-1.2313	-0.42917	-0.78958	-0.94792	-0.072917	-1.1458	-0.57292	-0.11875	-1.1187	-0.20208	-0.86458	-45.056	183.447	156.449	230.139	-19.396	-38.528	254.295	209.812	104.578	189.864	242.253	108.389	246.584	240.962	-41.583	254.861	0.00015407	0.00091145	0.00014538	1355.1	4.4272e-06	3.2503e-06	1352.3	365.41	6.0035e-06	2.9788e-06	416.83	139.07	120.43	41.691	3.8988e-06	51.37	0.00054721	0.00054536	0.00015196	1370.8	5.9705e-06	5.96e-06	1367	371.54	6.0106e-06	5.9989e-06	424.36	142.16	123.71	42.686	6.0258e-06	52.839	174.988	60.395	12.021	-53.099	78.936	56.373	-53.247	-48.226	75.045	73.074	-48.734	-44.023	-43.526	-39.368	51.961	-39.853	-8191	255	
676.076	1	1	0	0	0.19267	0.2096	0.24891	0.16157	0.10948	0.23358	0.24379	0.21478	0.20276	0.1335	0.050485	0.35531	0.10186	0.25821	0.1194	0.22154	-0.35625	0.13125	-0.88333	-0.92083	-0.4125	-0.90833	-0.53958	-0.86042	-0.80625	-0.26875	-0.9625	-0.65417	-0.225	-1.0042	-0.18125	-0.43333	226.028	253.222	0.416	51.384	195.183	245.996	277.882	241.237	35.634	13.006	37.197	-64.168	18.275	252.168	1.580	286.716	0.00014434	0.0002613	0.00031906	1351	6.3574e-06	3.7112e-06	1351.9	365.15	4.8554e-06	6.2629e-06	418.21	139.36	120.73	41.311	5.8174e-06	51.429	0.00054701	0.00054742	0.00015207	1368.1	6.0023e-06	6.0049e-06	1368.2	371.31	5.9976e-06	6.0022e-06	424.71	142.26	123.81	42.592	5.9982e-06	52.844	-24.766	-47.101	36.809	-52.878	128.519	1.361	-53.011	-48.083	241.860	51.182	-48.853	-44.333	-43.530	-39.287	39.255	-40.117	-8191	255	
676.174	1	1	0	0	0.22422	0.1501	0.10009	0.20301	0.37464	0.010164	0.15224	0.32496	0.086455	0.037421	0.43573	0.2773	0.16161	0.29999	0.070127	0.16454	-0.575	-0.0625	-0.79167	-0.85417	-0.16875	-1.1229	-0.37708	-0.5625	-0.97708	0.033333	-1.0583	-0.87292	-0.06875	-1.2646	-0.30417	-0.62083	49.736	92.429	276.791	195.446	93.332	-40.422	213.721	182.800	214.830	12.332	264.524	269.905	234.686	-54.079	94.756	-53.432	0.00033413	0.00045593	0.00025731	1350.7	7.8952e-06	6.1078e-06	1354.1	366.73	1.618e-06	5.4359e-06	417.07	139.16	121.2	41.541	4.3272e-06	51.774	0.00054451	0.00054688	0.00015182	1368	5.9958e-06	5.9591e-06	1366.6	371.98	5.9595e-06	6.0065e-06	424.59	141.94	123.49	42.58	5.9368e-06	52.836	233.033	74.437	79.769	-52.855	82.364	81.796	-53.006	-47.975	30.990	52.729	-48.699	-44.234	-43.593	-39.400	37.895	-40.133	-8191	255	
676.268	1	1	0	0	0.23594	0.20355	0.28129	0.12768	0.13384	0.16819	0.33348	0.17535	0.21795	0.30136	0.14658	0.038258	0.042207	0.15991	0.1736	0.31453	-0.61667	-0.052083	-0.60833	-0.92708	0.020833	-1.0083	-0.7	-0.36667	-0.88333	-0.32917	-0.86875	-0.94583	-0.1375	-0.81458	-0.325	-0.43333	104.890	-49.399	81.254	33.871	173.480	241.853	234.865	-6.533	-30.023	120.035	33.051	18.073	82.345	19.259	-34.904	203.315	0.00026733	0.00058899	5.3905e-05	1353.7	5.7692e-06	3.3759e-06	1350.6	365.21	2.6503e-06	6.1686e-06	417	138.88	120.26	41.524	1.8713e-06	51.588	0.00053924	0.00054289	0.00015021	1367.3	5.8998e-06	5.8908e-06	1364.7	370.44	5.843e-06	5.8284e-06	423.24	141.62	122.97	42.578	5.7659e-06	52.573	278.476	121.201	122.809	-52.981	30.288	38.206	-53.005	-47.962	191.870	264.992	-48.883	-44.139	-43.340	-39.363	59.047	-40.210	-8191	255	
676.364	1	1	0	0	0.25326	0.15007	0.017161	0.43208	0.24702	0.23257	0.074132	0.18726	0.051207	0.10765	0.17304	0.19771	0.071566	0.1344	0.1982	0.054213	-0.73333	-0.064583	-0.67292	-0.88542	-0.10625	-0.90833	-0.90625	-0.34583	-0.83958	-0.03125	-0.59583	-0.91042	-0.2125	-0.9125	-0.7125	-0.4375	108.026	191.875	268.208	285.913	47.556	30.090	-22.184	248.022	78.336	-0.233	-30.255	170.432	21.301	122.307	277.923	25.120	0.00027073	0.00094225	0.00010017	1352.9	4.1901e-06	3.4576e-06	1349.1	364.7	2.3098e-06	1.4631e-06	416.13	139.22	120.59	41.562	3.9653e-06	51.753	0.00051839	0.0005218	0.00014561	1362.7	5.6924e-06	5.7372e-06	1360.7	369.57	5.7048e-06	5.6695e-06	421.75	141.26	122.62	42.41	5.6746e-06	52.524	267.495	283.985	18.667	-53.040	235.292	186.835	-52.998	-47.992	166.726	197.547	-48.701	-44.131	-43.428	-39.441	65.047	-40.136	-8191	255	
676.485	1	1	0	0	0.16425	0.36352	0.066256	0.16367	0.10435	0.38754	0.047685	0.31814	0.24976	0.050914	0.078992	0.27627	0.16384	0.10422	0.013426	0.034058	-0.675	-0.23958	-0.30833	-1.0708	-0.09375	-0.84167	-1.0333	-0.13333	-0.97708	-0.16042	-0.43958	-1.1417	-0.125	-0.83125	-0.87083	-0.36875	181.061	141.968	35.716	256.827	-38.350	13.400	175.384	255.800	-50.520	246.321	286.820	-7.469	23.404	-10.266	178.556	-50.656	0.00032295	0.00062131	9.2517e-05	1350.2	4.8586e-06	8.6149e-06	1352.1	364.79	5.0082e-06	1.8673e-06	416.71	139.16	121.05	41.691	4.9257e-06	51.695	0.00051521	0.00051925	0.00014411	1361.3	5.6768e-06	5.6714e-06	1360.6	369.71	5.6718e-06	5.7158e-06	422	141.43	122.97	42.497	5.7309e-06	52.573	-32.221	55.024	168.916	-53.419	76.621	31.850	-53.429	-48.540	127.034	12.208	-49.161	-44.267	-43.659	-39.528	187.502	-40.307	-8191	255	
676.581	1	1	0	0	0.18998	0.1776	0.11287	0.31075	0.334	0.23105	0.12199	0.14078	0.18108	0.21383	0.11024	0.30837	0.14104	0.071079	0.11301	0.13901	-0.55208	-0.56667	-0.32083	-1.3062	-0.35833	-0.5375	-1.0917	-0.23125	-1.0021	-0.63958	-0.24375	-1.0708	-0.225	-0.67292	-0.80625	-0.17083	11.903	173.322	216.945	240.319	86.313	18.405	221.206	6.151	253.780	89.450	15.590	236.504	-19.992	252.694	202.977	236.372	0.00048273	0.0006267	3.0669e-05	1345	4.6553e-06	2.5758e-06	1346.8	364.83	3.7632e-06	2.8345e-06	416.48	138.71	120.47	41.581	3.339e-06	51.539	0.00052432	0.00052557	0.0001472	1360.9	5.7593e-06	5.7942e-06	1361.4	369.89	5.7841e-06	5.7992e-06	423.05	141.54	122.99	42.519	5.8215e-06	52.569	273.496	30.813	91.270	-53.186	53.257	-61.501	-53.014	-48.120	121.699	123.390	-48.905	-43.935	-43.441	-39.605	-40.045	-40.121	-8191	255	
676.677	1	1	0	0	0.096401	0.13959	0.32789	0.10399	0.068625	0.022372	0.2209	0.24809	0.19797	0.17278	0.36676	0.15655	0.11771	0.35006	0.107	0.16503	-0.6875	-0.54583	-0.077083	-0.94167	-0.29375	-0.69792	-1.1479	-0.083333	-0.85	-0.91458	-0.5375	-0.92292	-0.34792	-0.45833	-0.93333	-0.30833	222.544	194.581	37.012	-25.714	-21.886	19.246	-53.602	184.364	263.158	169.480	255.932	-40.734	256.431	256.490	-24.683	269.433	0.00022385	0.00025028	0.00014943	1350	3.4462e-06	1.1818e-06	1345.6	364.34	1.196e-06	1.7573e-06	417.5	138.9	121	41.451	4.5862e-06	51.723	0.0005324	0.00053061	0.00014736	1362.7	5.8031e-06	5.7666e-06	1361.4	369.65	5.7664e-06	5.7669e-06	422.68	141.81	123.05	42.468	5.8593e-06	52.707	267.654	-60.938	131.597	-53.239	88.547	-60.206	-53.416	-48.372	235.516	36.050	-48.881	-44.598	-43.819	-39.382	152.585	-40.261	-8191	255	
676.774	1	1	0	0	0.26853	0.41116	0.073778	0.21376	0.20312	0.20134	0.25781	0.27874	0.19849	0.3501	0.13267	0.12607	0.12769	0.17672	0.14383	0.17002	-0.4625	-0.59583	-0.24167	-1.025	-0.42292	-0.57083	-1.2563	-0.31667	-0.67292	-0.74792	-0.0083333	-1.0187	-0.45	-0.47708	-0.93542	-0.35833	-5.885	161.840	35.062	263.832	156.441	80.018	222.672	252.419	263.881	266.769	-37.885	-22.481	-41.001	288.274	63.978	176.204	0.00029556	0.00064402	0.00020686	1352.5	8.1367e-06	3.3687e-06	1352.5	366	5.3716e-06	7.1936e-06	417.38	138.81	120.68	41.759	5.5481e-06	51.701	0.00053421	0.00053606	0.00014967	1368.1	5.912e-06	5.882e-06	1364.9	370.97	5.8965e-06	5.8769e-06	423.74	141.77	123.26	42.727	5.9186e-06	52.848	-56.811	18.644	-56.560	-53.064	12.723	142.479	-53.152	-48.296	234.970	38.237	-49.037	-44.255	-43.847	-39.225	225.267	-40.220	-8191	255	
676.870	1	1	0	0	0.34437	0.22724	0.24623	0.21492	0.047863	0.10873	0.11186	0.089978	0.080591	0.14516	0.32114	0.075769	0.096406	0.090403	0.17593	0.14416	-0.21042	-0.78958	-0.014583	-1.0646	-0.55208	-0.25625	-1.2812	-0.13542	-0.53333	-0.81875	-0.20625	-1.1562	-0.56875	-0.175	-0.78542	-0.50833	225.428	113.681	239.567	280.066	113.466	-56.775	158.966	124.324	152.203	137.571	262.036	224.428	260.477	219.646	213.714	-23.143	0.0001508	0.00045138	8.6513e-05	1355.7	5.4434e-06	4.5923e-06	1350.7	364.76	2.3131e-06	7.8213e-06	417.1	138.54	121.03	41.837	7.1032e-06	51.435	0.00053888	0.00053846	0.00015012	1368.9	5.9481e-06	5.9375e-06	1362.6	370.68	5.9113e-06	5.9073e-06	423.81	141.79	123.08	42.597	5.869e-06	52.682	-60.042	-40.106	-63.648	-53.019	172.116	38.503	-52.889	-48.160	210.502	37.783	-48.642	-44.151	-43.339	-39.105	-21.301	-39.887	-8191	255	
#DATA ENDS
