BOXY.EXE: ISS Imagent and Oximeter Data Acquisition Program Version 0.80
Ascii Record File

#ACQ INFORMATION
2  Detector Channels 
16  External MUX Channels 
1  Auxiliary Channels 
5000  Waveform (CCF) Frequency (Hz)
1  Waveforms Skipped 
30  Waveforms Averaged 
1  Cycles Averaged 
16  Acquisitions per Waveform 
10.0806  Updata Rate (Hz) 

#FILE INFORMATION
TRUE -- External MUX Channel results are PARSED.
FALSE -- AC DC and Phase are NOT grouped.
TRUE -- Companion Program Settings File CREATED.
FALSE -- AC data not excluded
FALSE -- DC data not excluded
FALSE -- Phase data not excluded
FALSE -- Auxillary Chn. data not excluded
Tab delimiters

#CALIBRATION STATE
TRUE -- Waveform Calibration Values APPLIED.


#AUX CALIBRATION VALUES
Val Type	aux-1	

Term	1.0000e+00	
Factor	0.0000e+00	


#WF CALIBRATION VALUES
A = Detector Channel
Val Type	A-AC1	A-AC2	A-AC3	A-AC4	A-AC5	A-AC6	A-AC7	A-AC8	A-AC9	A-AC10	A-AC11	A-AC12	A-AC13	A-AC14	A-AC15	A-AC16	A-DC1	A-DC2	A-DC3	A-DC4	A-DC5	A-DC6	A-DC7	A-DC8	A-DC9	A-DC10	A-DC11	A-DC12	A-DC13	A-DC14	A-DC15	A-DC16	A-Ph1	A-Ph2	A-Ph3	A-Ph4	A-Ph5	A-Ph6	A-Ph7	A-Ph8	A-Ph9	A-Ph10	A-Ph11	A-Ph12	A-Ph13	A-Ph14	A-Ph15	A-Ph16	

Term	0.00000e+00	0.00000e+00	0.00000e+00	0.00000e+00	0.00000e+00	0.00000e+00	0.00000e+00	0.00000e+00	0.00000e+00	0.00000e+00	0.00000e+00	0.00000e+00	0.00000e+00	0.00000e+00	0.00000e+00	0.00000e+00	0.00000e+00	0.00000e+00	0.00000e+00	0.00000e+00	0.00000e+00	0.00000e+00	0.00000e+00	0.00000e+00	0.00000e+00	0.00000e+00	0.00000e+00	0.00000e+00	0.00000e+00	0.00000e+00	0.00000e+00	0.00000e+00	0.00000e+00	0.00000e+00	0.00000e+00	0.00000e+00	0.00000e+00	0.00000e+00	0.00000e+00	0.00000e+00	0.00000e+00	0.00000e+00	0.00000e+00	0.00000e+00	0.00000e+00	0.00000e+00	0.00000e+00	0.00000e+00	
Factor	1.00000e+00	1.00000e+00	1.00000e+00	1.00000e+00	1.00000e+00	1.00000e+00	1.00000e+00	1.00000e+00	1.00000e+00	1.00000e+00	1.00000e+00	1.00000e+00	1.00000e+00	1.00000e+00	1.00000e+00	1.00000e+00	1.00000e+00	1.00000e+00	1.00000e+00	1.00000e+00	1.00000e+00	1.00000e+00	1.00000e+00	1.00000e+00	1.00000e+00	1.00000e+00	1.00000e+00	1.00000e+00	1.00000e+00	1.00000e+00	1.00000e+00	1.00000e+00	X	X	X	X	X	X	X	X	X	X	X	X	X	X	X	X	

B = Detector Channel
Val Type	B-AC1	B-AC2	B-AC3	B-AC4	B-AC5	B-AC6	B-AC7	B-AC8	B-AC9	B-AC10	B-AC11	B-AC12	B-AC13	B-AC14	B-AC15	B-AC16	B-DC1	B-DC2	B-DC3	B-DC4	B-DC5	B-DC6	B-DC7	B-DC8	B-DC9	B-DC10	B-DC11	B-DC12	B-DC13	B-DC14	B-DC15	B-DC16	B-Ph1	B-Ph2	B-Ph3	B-Ph4	B-Ph5	B-Ph6	B-Ph7	B-Ph8	B-Ph9	B-Ph10	B-Ph11	B-Ph12	B-Ph13	B-Ph14	B-Ph15	B-Ph16	

Term	0.00000e+00	0.00000e+00	0.00000e+00	0.00000e+00	0.00000e+00	0.00000e+00	0.00000e+00	0.00000e+00	0.00000e+00	0.00000e+00	0.00000e+00	0.00000e+00	0.00000e+00	0.00000e+00	0.00000e+00	0.00000e+00	0.00000e+00	0.00000e+00	0.00000e+00	0.00000e+00	0.00000e+00	0.00000e+00	0.00000e+00	0.00000e+00	0.00000e+00	0.00000e+00	0.00000e+00	0.00000e+00	0.00000e+00	0.00000e+00	0.00000e+00	0.00000e+00	-8.95078e+00	-1.28313e+02	-1.59213e+02	-1.83430e+02	-6.27312e+01	-7.13637e+01	-1.58223e+02	-1.62015e+02	-5.99673e+01	-9.13236e+01	-1.73512e+02	-1.71486e+02	-1.82993e+02	-1.77391e+02	-9.45175e+01	-1.50029e+02	
Factor	3.31521e-05	1.02412e-04	2.51838e-05	1.74125e-01	9.41655e-07	7.87002e-07	1.67823e-01	5.34825e-02	9.62964e-07	9.16794e-07	9.32518e-02	3.26786e-02	3.77044e-02	9.61610e-03	1.01061e-06	1.39087e-02	4.73983e-07	4.79203e-07	1.33295e-07	8.43310e-02	5.25646e-09	5.25144e-09	7.68524e-02	2.57750e-02	5.24916e-09	5.24987e-09	4.19250e-02	1.46082e-02	1.67917e-02	4.47682e-03	5.26103e-09	6.16901e-03	X	X	X	X	X	X	X	X	X	X	X	X	X	X	X	X	



#DISTANCE SETTINGS
A = Detector Channel
A-1	A-2	A-3	A-4	A-5	A-6	A-7	A-8	A-9	A-10	A-11	A-12	A-13	A-14	A-15	A-16	

2.5000e+00	3.0000e+00	2.5000e+00	3.0000e+00	2.0000e+00	3.0000e+00	1.5000e+00	3.0000e+00	3.0000e+00	3.0000e+00	3.0000e+00	3.0000e+00	3.0000e+00	3.0000e+00	1.5000e+00	3.0000e+00	

B = Detector Channel
B-1	B-2	B-3	B-4	B-5	B-6	B-7	B-8	B-9	B-10	B-11	B-12	B-13	B-14	B-15	B-16	

1.0000e+01	1.0000e+01	1.0000e+01	1.4400e+00	1.0000e+01	1.0000e+01	1.5100e+00	1.9400e+00	1.0000e+01	1.0000e+01	1.9900e+00	2.4900e+00	2.4100e+00	2.9000e+00	1.0000e+01	2.9800e+00	




#DATA BEGINS
time	group	step	mark	flag	A-AC1	A-AC2	A-AC3	A-AC4	A-AC5	A-AC6	A-AC7	A-AC8	A-AC9	A-AC10	A-AC11	A-AC12	A-AC13	A-AC14	A-AC15	A-AC16	A-DC1	A-DC2	A-DC3	A-DC4	A-DC5	A-DC6	A-DC7	A-DC8	A-DC9	A-DC10	A-DC11	A-DC12	A-DC13	A-DC14	A-DC15	A-DC16	A-Ph1	A-Ph2	A-Ph3	A-Ph4	A-Ph5	A-Ph6	A-Ph7	A-Ph8	A-Ph9	A-Ph10	A-Ph11	A-Ph12	A-Ph13	A-Ph14	A-Ph15	A-Ph16	B-AC1	B-AC2	B-AC3	B-AC4	B-AC5	B-AC6	B-AC7	B-AC8	B-AC9	B-AC10	B-AC11	B-AC12	B-AC13	B-AC14	B-AC15	B-AC16	B-DC1	B-DC2	B-DC3	B-DC4	B-DC5	B-DC6	B-DC7	B-DC8	B-DC9	B-DC10	B-DC11	B-DC12	B-DC13	B-DC14	B-DC15	B-DC16	B-Ph1	B-Ph2	B-Ph3	B-Ph4	B-Ph5	B-Ph6	B-Ph7	B-Ph8	B-Ph9	B-Ph10	B-Ph11	B-Ph12	B-Ph13	B-Ph14	B-Ph15	B-Ph16	aux-1	digaux	

718.933	1	1	0	256	0.26228	0.11826	0.29124	0.30687	0.34012	0.13976	0.44107	0.17634	0.058328	0.20987	0.31954	0.17156	0.031191	0.32057	0.15222	0.19922	-0.74583	-0.32083	-0.77292	-1.1396	-0.39167	-1.2604	-0.92917	-0.69167	-1.0375	-0.38333	-0.71875	-0.89583	-0.26042	-1.0271	-0.57083	-0.68125	39.298	91.315	291.941	249.467	145.484	152.086	182.773	200.303	-16.919	77.942	257.661	228.270	39.927	-47.939	281.199	267.468	0.00021893	0.00065777	1.2383e-05	1277.9	6.6411e-06	2.0896e-06	1289.8	351.91	2.9206e-06	3.1221e-06	406.68	137.41	118.36	41.434	4.6864e-06	51.597	0.00061441	0.00062088	0.00017265	1319.2	6.7727e-06	6.8106e-06	1326.9	364.16	6.851e-06	6.844e-06	423.39	144.06	125.64	43.549	7.0541e-06	54.361	-41.724	-6.906	112.473	-52.761	70.469	243.282	-52.546	-47.924	217.686	152.608	-48.416	-43.881	-43.305	-39.119	34.539	-39.970	-8191	255	
719.053	1	1	0	0	0.015967	0.010659	0.17571	0.39081	0.12112	0.2671	0.23706	0.33187	0.10248	0.18724	0.14851	0.11235	0.088959	0.35361	0.19004	0.23503	-0.75208	-0.23958	-0.85417	-1.3458	-0.25625	-1.0146	-1.1	-0.62708	-1.3062	-0.47292	-1.0146	-1.0438	-0.41667	-1.0646	-0.8125	-0.47292	153.606	-61.550	264.145	237.408	73.685	2.865	201.253	274.361	270.836	-21.337	-14.950	260.383	143.310	185.151	220.179	-19.768	0.00035557	0.0010614	0.00014022	1276.5	3.7204e-06	7.04e-06	1289.4	349.77	2e-06	7.2105e-06	405.63	137.4	118.47	41.284	8.3158e-06	51.672	0.00064573	0.00065241	0.00018225	1322.8	7.1986e-06	7.2627e-06	1332.1	366.14	7.3674e-06	7.3895e-06	427.55	145.22	127.11	43.829	7.4371e-06	54.835	-65.322	60.492	265.703	-52.855	176.140	63.902	-52.786	-47.641	43.308	67.873	-48.546	-43.958	-43.317	-39.017	129.093	-39.848	-8191	255	
719.148	1	1	0	0	0.047204	0.017885	0.15613	0.25881	0.24378	0.30136	0.19007	0.17602	0.078133	0.17091	0.21407	0.10546	0.2911	0.17097	0.052204	0.022444	-0.9125	-0.63125	-0.61667	-1.2604	-0.24583	-0.90417	-1.1354	-0.48958	-1.1187	-0.72292	-0.56667	-1.2062	-0.25833	-0.84583	-0.91042	-0.44375	101.568	266.436	133.255	278.411	73.213	118.514	-34.554	242.041	287.198	184.297	257.995	-60.375	291.684	255.872	57.762	-27.597	0.00033595	0.00070646	0.00015472	1276.8	3.7743e-06	6.95e-06	1285	348.99	8.3978e-06	5.6627e-06	403.82	136.87	119.23	41.199	3.6387e-06	51.637	0.00067685	0.00067166	0.00018614	1326.1	7.3394e-06	7.3345e-06	1331.6	365.26	7.2837e-06	7.296e-06	425.15	144.82	126.84	43.798	7.3668e-06	54.764	270.341	40.951	91.023	-52.802	93.997	86.516	-52.753	-47.777	48.759	-28.633	-48.591	-43.876	-43.292	-39.148	-36.289	-39.941	-8191	255	
719.244	1	1	0	0	0.12249	0.082153	0.24303	0.20698	0.1395	0.16153	0.24004	0.31345	0.26321	0.24548	0.12106	0.077263	0.061311	0.22448	0.29977	0.10473	-0.95833	-0.77917	-0.70833	-1.4646	-0.58333	-0.99375	-1.3271	-0.3125	-1.2208	-0.74167	-0.63125	-1.4604	-0.775	-0.975	-1.2729	-0.44375	200.857	-19.543	167.774	226.699	175.342	5.150	243.056	185.002	-43.699	178.720	69.934	73.315	243.725	-38.876	-10.898	189.843	0.00037095	0.00053028	0.00013388	1283.8	3.0027e-06	4.565e-06	1289.9	350.42	7.8649e-06	5.3026e-06	406.26	137.73	118.75	41.283	6.3872e-06	51.494	0.00067018	0.00067724	0.00018748	1329.9	7.4399e-06	7.4435e-06	1335.2	366.13	7.4509e-06	7.4959e-06	427.45	145.5	127.43	43.972	7.6001e-06	54.937	-59.933	45.670	-15.373	-52.631	175.396	91.735	-52.540	-47.832	112.848	83.604	-48.394	-43.808	-43.073	-39.111	108.628	-39.655	-8191	255	
719.340	1	1	0	0	0.058065	0.26225	0.074575	0.13619	0.13591	0.082	0.21226	0.19443	0.091487	0.14863	0.50913	0.22969	0.15454	0.15643	0.27816	0.17055	-0.84167	-0.75208	-0.225	-1.3438	-0.44792	-0.76875	-1.3542	-0.43958	-1.1354	-0.86667	-0.69375	-1.4062	-0.45625	-0.63125	-1.1625	-0.39792	53.285	-46.125	-65.281	216.692	226.730	69.886	190.957	236.637	263.743	283.604	275.420	241.489	-51.322	41.303	130.749	288.226	0.00030254	0.00049728	0.00012899	1281	8.7018e-06	3.8132e-06	1291	350.23	6.8072e-06	4.5781e-06	406.08	137.36	118.98	41.231	3.5311e-06	51.202	0.00069697	0.00070072	0.00019595	1336.3	7.7623e-06	7.7828e-06	1342.4	368.44	7.8027e-06	7.7816e-06	429.79	146.32	128.14	44.091	7.7759e-06	55.016	283.993	117.472	82.482	-52.609	160.486	-14.725	-52.571	-47.873	64.433	-43.361	-48.569	-44.056	-43.300	-39.026	-59.569	-39.818	-8191	255	
719.436	1	1	0	0	0.12015	0.34473	0.099117	0.21644	0.086502	0.24449	0.16907	0.26056	0.18614	0.21502	0.16772	0.14094	0.097141	0.12344	0.16976	0.17457	-0.72292	-0.94792	-0.18125	-1.4896	-0.48542	-0.64583	-1.4104	-0.47917	-0.76875	-0.93542	-0.59167	-1.1979	-0.89583	-0.73125	-1.3458	-0.46667	118.207	197.513	51.047	228.939	153.422	-51.428	260.559	222.574	-29.984	97.750	-23.295	165.375	166.995	199.270	276.230	-36.208	0.00040078	0.00048121	0.00025655	1283.5	5.6365e-06	2.6619e-06	1293.1	352.07	9.7275e-06	5.3583e-06	406.84	137.44	118.88	41.52	2.8097e-06	51.724	0.00070556	0.00070893	0.00019802	1336	7.7749e-06	7.8052e-06	1342.9	368.23	7.7527e-06	7.7944e-06	430.12	146	127.95	44.016	7.6818e-06	54.919	227.659	-44.921	52.560	-52.739	196.540	85.246	-52.599	-47.726	101.545	103.750	-48.731	-43.706	-43.014	-39.055	26.130	-39.796	-8191	255	
719.532	1	1	0	0	0.12597	0.25551	0.047823	0.083085	0.061873	0.073277	0.25704	0.052217	0.18039	0.17395	0.22412	0.17397	0.11924	0.20775	0.029965	0.41535	-0.29583	-0.98542	-0.32917	-1.0938	-0.74583	-0.60625	-1.5208	-0.69167	-0.73333	-1.0042	-0.25417	-1.2708	-0.90208	-0.73125	-1.475	-0.65417	240.250	-30.341	288.510	282.951	85.471	268.863	292.907	279.924	128.401	103.926	-7.385	195.768	116.293	-50.633	279.078	233.117	0.00054895	0.0009904	0.00017207	1278.5	5.3683e-06	6.1261e-06	1289.3	352.99	9.7643e-06	4.0597e-06	406.53	138.28	119.3	41.425	5.9055e-06	51.531	0.00069471	0.0006978	0.00019479	1333.6	7.6551e-06	7.6297e-06	1339.3	368.02	7.5863e-06	7.5888e-06	428.03	145.53	127.1	43.814	7.4148e-06	54.575	-63.472	8.223	-3.413	-52.663	100.856	182.330	-52.663	-47.914	133.089	259.931	-48.490	-44.102	-43.116	-38.983	69.271	-39.813	-8191	255	
719.651	1	1	0	0	0.066983	0.21594	0.16364	0.14204	0.15367	0.31708	0.19718	0.17466	0.29274	0.1365	0.22909	0.11872	0.25228	0.094917	0.10475	0.076898	-0.43958	-1.0896	-0.21458	-1.1729	-0.82917	-0.475	-1.3333	-0.58125	-0.675	-1.3583	-0.525	-1.025	-1.1354	-0.575	-1.0875	-0.65625	53.571	191.312	109.550	287.790	124.295	-58.754	-37.833	230.572	107.231	179.773	159.127	250.729	273.925	281.197	206.229	-24.445	0.00056444	0.0006503	5.8347e-05	1282.3	6.9463e-06	6.8484e-06	1291.3	352.02	3.5562e-06	6.8292e-06	406.27	138.15	118.46	41.492	4.0248e-06	51.782	0.00067458	0.00067583	0.00018921	1330.2	7.4506e-06	7.4437e-06	1336.8	366.59	7.4736e-06	7.4378e-06	427.29	145.38	126.98	43.817	7.4495e-06	54.761	232.248	9.301	6.400	-52.562	193.166	159.251	-52.438	-47.859	-58.104	47.486	-48.518	-43.802	-43.165	-38.982	284.473	-39.739	-8191	255	
719.747	1	1	0	0	0.24263	0.043667	0.14373	0.33392	0.15728	0.19786	0.11624	0.1291	0.17797	0.14874	0.01916	0.20419	0.14487	0.076396	0.34256	0.13527	-0.24583	-1.1479	-0.2625	-0.94792	-0.78125	-0.10208	-1.3896	-0.8625	-0.5875	-1.2729	-0.53125	-0.92917	-1.275	-0.5	-1.1375	-0.93542	-54.673	116.138	209.817	271.089	227.390	19.473	233.274	248.227	160.341	0.681	-33.717	225.109	253.440	101.827	163.483	182.027	0.00047336	0.00032997	0.00016045	1285.9	1.2278e-06	6.2821e-06	1294.7	351.11	3.9643e-06	7.0257e-06	408.06	137.65	119	41.414	1.205e-05	51.219	0.00067985	0.00068547	0.00019335	1335.4	7.7477e-06	7.8219e-06	1343.8	368.81	8.0388e-06	8.1065e-06	433.07	147.71	129.71	44.558	8.5682e-06	55.983	291.496	76.939	94.670	-52.431	46.675	59.317	-52.704	-47.791	118.094	95.630	-48.395	-44.129	-42.890	-38.923	70.206	-39.898	-8191	255	
719.844	1	1	0	0	0.099062	0.17989	0.24641	0.30284	0.23927	0.09779	0.32067	0.40354	0.31578	0.25985	0.13719	0.16994	0.20086	0.29863	0.091394	0.2183	-0.37708	-1.2854	-0.43125	-0.74375	-1.0354	-0.26042	-1.1125	-1.1979	-0.46667	-1.2917	-0.7125	-0.95	-1.3042	-0.45833	-0.98333	-1.3271	13.895	243.172	50.441	293.172	86.605	96.061	218.118	293.470	120.858	173.545	232.320	212.587	10.634	-24.036	69.157	238.183	0.00013736	0.00040395	0.00026128	1285	2.4654e-06	1.5504e-06	1295.1	351.07	2.3429e-06	7.9126e-06	405.06	137.03	118.6	41.031	7.4654e-06	51.227	0.00079586	0.0008126	0.00022854	1361	9.1833e-06	9.292e-06	1368	375.61	9.3812e-06	9.4375e-06	442.48	150.46	133.4	45.315	9.5774e-06	56.883	-59.907	-17.032	-43.861	-52.465	137.737	-45.472	-52.526	-47.786	5.925	86.957	-48.249	-43.540	-43.195	-38.983	259.979	-40.022	-8191	255	
719.940	1	1	0	0	0.26101	0.10198	0.15721	0.29464	0.095563	0.15039	0.27885	0.089011	0.048629	0.11938	0.13734	0.093396	0.09727	0.17494	0.063812	0.28543	-0.2	-1.0438	-0.69167	-0.84167	-1.1354	-0.41458	-0.97917	-1.1542	-0.1625	-1.1625	-0.97083	-0.5875	-1.3312	-0.35	-0.94583	-1.0792	185.046	24.193	201.302	292.511	-37.956	184.943	180.952	15.030	205.150	270.250	287.278	209.265	36.882	-50.955	221.729	265.278	4.9092e-05	0.00065957	0.00017327	1280.8	3.5531e-06	8.5672e-06	1292.2	349.87	4.4976e-06	4.2213e-06	403.08	136.54	118.18	40.828	6.7082e-06	51.163	0.00086169	0.00086229	0.0002398	1361.2	9.3498e-06	9.3234e-06	1364.3	374.32	9.2819e-06	9.358e-06	440.7	150.2	133.07	45.264	9.5851e-06	56.943	269.445	292.776	-4.825	-52.405	140.258	115.394	-52.581	-47.680	145.875	7.884	-48.660	-43.895	-43.303	-39.071	6.111	-40.098	-8191	255	
720.013	1	1	0	0	0.16177	0.013737	0.033485	0.32686	0.11778	0.20272	0.29369	0.39008	0.16444	0.084544	0.090449	0.40509	0.27722	0.18346	0.20796	0.056324	0.23333	-1.0292	-0.59167	-0.625	-1.0104	-0.39167	-1.0854	-1.3813	-0.30625	-0.97083	-0.87708	-0.20625	-1.1042	-0.66875	-0.74583	-1.2854	210.768	61.468	252.644	244.136	253.076	144.263	258.659	261.194	263.186	206.921	196.709	259.843	233.183	198.095	265.342	143.330	0.00030555	0.00072796	0.00026511	1283.9	6.6092e-06	8.6745e-06	1285.8	348.78	8.2123e-06	1.2638e-05	404.72	135.89	118.57	40.792	1.0444e-05	50.873	0.00088107	0.0008926	0.00025038	1370	9.9002e-06	9.9636e-06	1371	377.66	1.0081e-05	1.0146e-05	447.13	151.8	135.43	45.937	1.0387e-05	57.755	-54.038	122.794	261.661	-52.575	228.978	11.477	-52.393	-47.463	194.976	1.422	-48.321	-43.411	-42.819	-39.008	-2.852	-39.778	-8191	255	
720.132	1	1	0	0	0.26439	0.083187	0.13717	0.16007	0.18307	0.11947	0.18077	0.28971	0.14148	0.2227	0.21792	0.20041	0.19216	0.13811	0.20388	0.32656	0.095833	-1.025	-0.86667	-0.69583	-1.2292	-0.92917	-0.73333	-1.4771	-0.3625	-0.69583	-0.75	-0.45	-1.1938	-0.77083	-0.61042	-1.2812	-55.621	247.141	181.556	245.512	55.908	185.526	255.735	251.142	111.129	106.248	153.807	-45.353	290.002	123.765	23.488	293.566	0.00018632	0.00050434	0.00017132	1283.2	6.4646e-06	1.5607e-06	1288.6	348.59	4.1904e-06	1.0039e-05	403.66	136.82	117.96	40.893	7.2706e-06	50.938	0.00094689	0.00095816	0.00026756	1383.5	1.0604e-05	1.0617e-05	1383.2	380.91	1.067e-05	1.0694e-05	451.17	153.73	137.06	46.377	1.0986e-05	58.337	283.623	92.826	292.316	-52.647	156.277	273.595	-52.535	-47.685	133.782	44.437	-48.500	-43.721	-43.181	-39.061	131.218	-39.693	-8191	255	
720.228	1	1	0	0	0.0085719	0.35823	0.10974	0.32633	0.29542	0.035843	0.1003	0.22129	0.10856	0.18234	0.13676	0.31436	0.26083	0.14883	0.10821	0.054406	-0.10625	-1.1187	-0.97708	-0.3125	-1.1271	-0.68125	-0.99375	-1.4521	-0.52917	-0.88333	-1.3	-0.55417	-1.0312	-0.92708	-0.44583	-1.3062	177.532	146.131	178.060	284.438	278.419	110.776	241.002	240.672	193.196	231.794	207.567	-59.131	-63.708	72.784	261.531	138.592	0.00038579	0.0004589	0.00012478	1282.9	4.6911e-06	4.4063e-06	1288.4	351.02	8.4682e-06	2.0824e-06	405.63	135.85	117.92	40.827	8.3914e-06	50.987	0.0010009	0.0010141	0.00028127	1391.5	1.1132e-05	1.114e-05	1391	383.9	1.1174e-05	1.1204e-05	456.12	154.96	138.58	46.582	1.1258e-05	58.55	274.762	-43.560	7.500	-52.694	109.701	70.145	-52.526	-47.713	30.969	152.855	-48.540	-43.665	-42.884	-39.395	-46.008	-39.921	-8191	255	
720.324	1	1	0	0	0.40875	0.223	0.10741	0.30977	0.15853	0.22826	0.31577	0.16866	0.1765	0.094295	0.097383	0.16749	0.10441	0.12918	0.26703	0.47025	-0.060417	-0.47292	-1.15	-0.525	-1.075	-0.74792	-0.66458	-1.4042	-0.74792	-0.90833	-1.3958	-0.5875	-1.2521	-0.94167	-0.43333	-1.3479	30.606	-55.174	163.788	263.952	197.446	-43.236	197.583	188.826	-36.261	58.447	235.365	203.419	117.080	29.394	197.127	281.409	0.00053163	0.00090659	0.00012971	1283.1	4.2405e-06	6.9007e-06	1289.4	347.78	1.1597e-05	4.0793e-06	405	135.78	117.7	40.772	5.7151e-06	50.947	0.0010176	0.0010219	0.00028343	1391.4	1.1103e-05	1.1155e-05	1390.1	382.95	1.1148e-05	1.1186e-05	455.49	154.48	138.54	46.565	1.1278e-05	58.576	240.986	24.478	28.547	-52.626	172.737	-43.693	-52.721	-47.691	74.652	36.585	-48.823	-43.609	-43.344	-38.927	201.774	-39.600	-8191	255	
720.420	1	1	0	0	0.18727	0.26308	0.23033	0.11918	0.18205	0.023721	0.06828	0.036183	0.33992	0.16711	0.16575	0.096935	0.21725	0.29186	0.1478	0.058218	-0.25417	-0.66042	-0.97292	-0.37292	-0.85208	-0.77708	-0.48542	-1.2125	-0.57292	-0.40625	-1.2229	-0.80208	-1.0896	-1.2458	-0.34583	-1.3146	251.544	272.306	-40.183	-8.543	74.225	208.212	100.711	228.347	-7.269	-7.154	-43.920	-0.580	247.506	225.897	21.835	61.819	0.00025474	0.000641	0.00014744	1277.2	1.2803e-05	6.2227e-06	1284.5	348.54	4.1769e-06	4.1198e-06	401.23	135.84	117.37	40.452	2.8893e-06	50.798	0.0010125	0.0010199	0.00028215	1387.5	1.0977e-05	1.0957e-05	1384.7	381.28	1.077e-05	1.08e-05	450.83	153.07	136.38	45.928	1.0666e-05	57.723	245.303	235.674	25.518	-52.534	96.244	16.432	-52.480	-47.822	115.672	48.333	-48.537	-44.092	-42.956	-39.142	220.817	-39.914	-8191	255	
720.539	1	1	0	0	0.19489	0.23869	0.27576	0.31956	0.23368	0.20927	0.18854	0.36173	0.38324	0.082259	0.0040902	0.35143	0.061313	0.084737	0.30247	0.26692	-0.50208	-0.68125	-1.1313	-0.81875	-0.96042	-1.3375	-0.71458	-1.3458	-0.95208	-0.61458	-1.4667	-0.56667	-1.0771	-1.3042	-0.42917	-1.2583	273.798	11.203	26.530	203.090	173.660	268.513	222.811	248.503	-61.714	166.555	202.780	160.330	250.003	195.797	210.171	36.760	0.00026174	0.00089715	0.00017826	1272.6	1.172e-05	5.3834e-06	1282.7	348.95	4.6591e-06	6.0279e-06	401.15	134.92	116.99	40.792	7.0337e-06	50.538	0.00095602	0.00095555	0.00026586	1374.3	1.0348e-05	1.0291e-05	1372.2	377.96	1.0136e-05	1.0115e-05	444.69	150.55	134	45.337	9.8938e-06	56.772	157.831	169.161	5.312	-52.371	107.533	26.266	-52.648	-47.906	-37.607	249.993	-48.546	-43.517	-43.411	-39.224	88.276	-39.655	-8191	255	
720.636	1	1	0	0	0.21195	0.29003	0.11984	0.27552	0.18028	0.40724	0.43281	0.096363	0.13063	0.14459	0.053459	0.10842	0.31494	0.10801	0.20891	0.078854	-0.4375	-0.48125	-1.2417	-0.66458	-0.64375	-0.92292	-0.46667	-1.1708	-1.0583	-0.375	-1.3229	-0.75208	-0.68542	-1.2583	-0.44375	-1.1604	239.615	139.809	39.166	280.936	88.383	153.448	181.893	-58.471	199.503	-23.541	246.321	204.999	250.183	-3.341	-2.951	81.269	0.00028694	0.0014443	0.00016381	1272.3	8.6884e-06	3.9258e-06	1283.2	347.98	6.0055e-06	3.0768e-06	401.22	135.49	117.71	40.696	8.8054e-06	50.745	0.0008867	0.00088747	0.00024646	1358.8	9.6432e-06	9.5877e-06	1360	373.35	9.4347e-06	9.428e-06	439.04	148.63	131.46	44.736	9.1251e-06	55.898	278.829	42.091	15.419	-52.648	74.648	64.257	-52.458	-47.836	187.029	147.545	-48.513	-43.501	-42.925	-38.659	-16.905	-39.706	-8191	255	
720.733	1	1	0	0	0.20637	0.19306	0.12662	0.32769	0.23197	0.064505	0.2644	0.21417	0.096639	0.12886	0.25132	0.16604	0.19978	0.14363	0.069734	0.080617	-0.94375	-0.19583	-1.1833	-0.8875	-0.52083	-1.1729	-0.56042	-1.0292	-1.2896	-0.48125	-1.2333	-0.78958	-0.63125	-1.3708	-0.60417	-1.0104	101.787	282.949	-21.384	260.171	248.667	173.697	241.111	190.498	290.430	-30.124	139.803	213.493	269.960	221.940	35.866	89.972	0.00029699	0.00085399	0.00010014	1275.3	5.3687e-06	2.1827e-06	1279.1	346.73	2.9586e-06	7.8709e-06	400.96	134.93	117.66	40.494	5.1657e-06	50.916	0.00082116	0.00081969	0.00022687	1345.8	8.8264e-06	8.8422e-06	1346.1	369.29	8.764e-06	8.7843e-06	433.31	147.08	129.75	44.296	8.776e-06	55.607	292.262	73.691	205.244	-52.670	236.567	-4.244	-52.589	-47.764	154.560	105.046	-48.576	-43.639	-43.319	-38.978	131.738	-39.945	-8191	255	
720.828	1	1	0	0	0.078985	0.29221	0.25337	0.077389	0.15748	0.057007	0.17625	0.22567	0.14986	0.12419	0.095896	0.27606	0.060808	0.12059	0.14843	0.22584	-0.6	-0.18125	-0.90833	-0.81667	-0.58333	-1.3979	-0.60208	-0.825	-1.0542	-0.04375	-1.1292	-1.2042	-0.44583	-1.4875	-0.60417	-0.83542	-32.546	67.786	25.059	13.499	250.747	158.131	-61.768	259.441	233.982	83.502	249.631	39.608	114.730	116.715	262.558	192.759	0.00019194	0.0012178	0.00013007	1272.1	7.004e-06	2.8024e-06	1276.5	347.79	2.5516e-06	3.8303e-06	400.12	135.69	117.28	40.569	6.1734e-06	50.839	0.00079445	0.00079836	0.00022164	1342.6	8.7594e-06	8.7592e-06	1342.4	369.54	8.7734e-06	8.7776e-06	433.3	147.17	130.02	44.399	8.8566e-06	55.685	201.743	40.809	274.970	-52.679	96.517	-26.164	-52.507	-47.776	260.701	112.173	-48.466	-44.062	-43.030	-39.000	127.670	-39.741	-8191	255	
720.924	1	1	0	0	0.21211	0.23374	0.36898	0.16267	0.078622	0.15605	0.16616	0.41881	0.20686	0.17348	0.22752	0.072993	0.3674	0.32361	0.13307	0.34261	-0.8375	-0.18333	-1.0083	-1.2042	-0.4625	-1.425	-0.94375	-0.72083	-0.99583	-0.25833	-1.2042	-1.0875	-0.34375	-1.175	-0.63125	-0.44792	95.431	-41.202	252.373	256.817	-22.615	215.650	195.541	270.824	207.980	45.148	285.749	107.749	-17.019	-52.053	100.888	219.878	0.0003244	0.00039576	0.00023207	1263.9	9.173e-06	8.2453e-06	1274.8	347.22	7.0129e-07	2.1553e-06	400.44	134.49	116.74	40.621	7.3922e-06	50.632	0.00080549	0.00081107	0.00022491	1342.3	8.848e-06	8.8717e-06	1345.2	369.87	8.9317e-06	8.9361e-06	434.8	147.46	130.26	44.537	8.9722e-06	55.743	225.655	29.125	68.484	-52.800	-35.497	77.933	-52.691	-47.719	-37.151	46.649	-48.482	-43.728	-43.210	-39.298	81.123	-39.842	-8191	255	
721.020	1	1	0	0	0.21606	0.10599	0.18688	0.16099	0.14032	0.34059	0.18708	0.25779	0.14894	0.28273	0.19448	0.26201	0.13456	0.45391	0.2464	0.13711	-0.74583	-0.55	-0.79583	-1.4208	-0.2125	-1.1458	-0.975	-0.43333	-1.3937	-0.50417	-0.96875	-1.2812	-0.28333	-0.92917	-0.91875	-0.77292	29.688	105.032	288.116	237.495	192.099	284.022	92.912	231.982	183.046	100.963	279.813	-61.958	285.431	214.476	185.245	205.578	0.00011086	0.00056462	8.8974e-05	1269.1	5.035e-06	2.1252e-06	1278.6	346.58	2.4702e-06	7.7107e-06	401.17	135.31	116.9	40.677	1.141e-05	50.442	0.00081277	0.0008182	0.00022877	1345.6	9.0552e-06	9.0475e-06	1350.2	370.94	9.1237e-06	9.1979e-06	436.3	148	131.17	44.712	9.2632e-06	56.034	49.629	78.680	32.786	-52.482	135.144	-11.705	-52.777	-47.845	31.380	81.010	-48.327	-43.875	-43.303	-39.127	60.451	-39.796	-8191	255	
721.141	1	1	0	0	0.065176	0.048408	0.093457	0.15998	0.14249	0.056659	0.13355	0.12985	0.12282	0.33985	0.1853	0.10372	0.14418	0.21168	0.092023	0.45943	-0.98542	-0.53125	-0.5	-1.0729	-0.42292	-0.95417	-1.175	-0.64167	-1.2563	-0.83958	-0.81875	-1.4167	-0.43958	-1.0208	-0.97708	-0.31667	187.744	66.304	129.787	-50.885	252.669	146.243	120.279	188.298	211.483	105.754	-53.777	20.447	258.508	166.105	128.345	248.646	0.00027442	0.00031745	0.0001618	1272.1	2.9378e-06	2.898e-06	1273.7	346.21	9.0341e-06	9.8452e-06	400.63	134.47	116.71	40.633	4.2447e-06	50.7	0.00083903	0.00084715	0.00023549	1352.1	9.2763e-06	9.2895e-06	1350.5	371.71	9.2886e-06	9.3153e-06	438.19	148.42	131.41	44.84	9.4031e-06	56.243	-62.875	95.718	32.566	-52.730	41.193	246.488	-52.848	-47.705	143.519	45.633	-48.438	-43.793	-43.309	-38.971	26.323	-39.985	-8191	255	
721.237	1	1	0	0	0.21846	0.11493	0.054997	0.36088	0.11498	0.035359	0.037359	0.30409	0.28734	0.077525	0.37976	0.14923	0.21793	0.21665	0.25094	0.22657	-0.7625	-0.71875	-0.51667	-1.2271	-0.58125	-0.89583	-1.3729	-0.56667	-1.2583	-0.87708	-0.74583	-1.4312	-0.55208	-0.93333	-1.2	-0.65833	197.929	66.329	235.081	260.380	197.030	242.933	158.029	255.271	199.113	-61.561	290.345	209.541	83.503	234.333	212.904	120.629	0.00028717	0.00042634	7.1646e-05	1270.4	4.0538e-06	4.6625e-06	1274.6	345.67	1.5102e-06	1.3897e-06	401.2	134.42	117.26	40.663	3.8631e-06	50.412	0.00085119	0.00084896	0.00023675	1350.8	9.3057e-06	9.2779e-06	1351.7	371.12	9.2382e-06	9.2505e-06	436.05	148.03	130.92	44.62	9.0534e-06	55.644	264.191	278.612	150.929	-52.738	49.246	182.835	-52.764	-47.594	49.738	74.506	-48.545	-43.913	-43.123	-38.983	142.787	-39.693	-8191	255	
721.333	1	1	0	0	0.33228	0.46435	0.11924	0.37813	0.11458	0.23484	0.28318	0.15579	0.23773	0.28881	0.26812	0.20897	0.072214	0.37337	0.1739	0.19562	-0.75208	-1.0354	-0.39167	-1.3563	-0.40417	-0.69167	-1.2667	-0.36458	-1.0688	-1.1562	-0.51042	-1.4292	-0.85625	-0.91667	-1.35	-0.60417	168.228	49.213	180.156	243.203	240.199	21.865	211.245	27.766	228.851	172.009	264.467	-36.364	217.042	265.894	155.934	-56.409	0.00022644	0.0005201	0.00017113	1270.8	4.7971e-06	1.0801e-05	1272.8	344.91	1.8835e-06	1.8671e-06	399.32	135.07	116.91	40.338	1.3848e-05	50.474	0.00081759	0.00081446	0.00022598	1342.1	8.805e-06	8.8609e-06	1342.1	368.21	8.7718e-06	8.7711e-06	432.19	146.94	129.27	44.157	8.6344e-06	55.198	247.016	10.745	13.511	-52.768	7.270	104.501	-52.740	-47.817	180.463	230.961	-48.666	-43.820	-43.018	-39.158	60.180	-39.534	-8191	255	
721.429	1	1	0	0	0.24732	0.16346	0.24553	0.45923	0.29021	0.31611	0.21475	0.20548	0.24457	0.17419	0.29837	0.13776	0.053762	0.35782	0.066249	0.13561	-0.43333	-0.8	-0.27708	-1.3979	-0.55208	-0.57292	-1.65	-0.48125	-0.9125	-1.0292	-0.63958	-1.1167	-0.70625	-0.54792	-1.1625	-0.42083	6.373	168.507	-30.667	244.406	77.791	269.130	244.144	220.627	69.670	97.776	276.801	257.885	-29.377	-63.178	-53.383	258.578	0.00021577	0.00090717	0.00012296	1269.4	9.3977e-06	6.6378e-06	1275.6	344.65	1.1524e-06	2.9726e-06	400.73	134.65	117.55	40.638	7.9444e-06	50.04	0.00077908	0.00078146	0.0002177	1336	8.5454e-06	8.5326e-06	1335.9	366.77	8.5194e-06	8.4622e-06	429.98	145.75	128.51	43.973	8.3711e-06	54.851	-45.077	51.467	264.503	-52.660	145.664	76.452	-52.690	-47.803	96.153	119.513	-48.492	-43.843	-43.210	-38.823	-6.126	-40.127	-8191	255	
721.524	1	1	0	0	0.2664	0.16722	0.12797	0.11286	0.033352	0.092456	0.30714	0.21991	0.11745	0.11268	0.13326	0.23475	0.23185	0.24515	0.079523	0.05879	-0.3875	-0.96875	-0.33542	-1.2208	-0.66875	-0.5625	-1.4562	-0.65417	-0.46875	-1.0771	-0.38333	-1.1688	-0.86667	-0.55625	-1.1896	-0.55	222.775	84.395	120.469	136.561	266.913	214.317	236.306	270.262	139.869	74.322	30.894	-7.844	62.618	-33.248	37.843	-58.767	0.0003819	0.0011007	0.00024054	1265.2	7.401e-06	6.2768e-07	1269.3	344.99	5.6517e-06	3.9226e-06	398.92	134.02	117.16	40.485	4.8283e-06	50.659	0.00075727	0.00075816	0.0002109	1330.5	8.2368e-06	8.2271e-06	1331.6	365.35	8.2022e-06	8.1754e-06	427.05	144.96	127.53	43.742	8.1752e-06	54.644	281.846	43.822	30.693	-52.664	207.514	123.676	-52.714	-47.816	95.729	260.840	-48.436	-43.637	-43.245	-38.939	-17.784	-39.579	-8191	255	
721.621	1	1	0	0	0.26633	0.1303	0.41843	0.16702	0.18842	0.3773	0.1108	0.21521	0.3255	0.071378	0.28291	0.11015	0.079281	0.14199	0.14125	0.18217	-0.39375	-1.1896	-0.47708	-1.3479	-0.86042	-0.41458	-1.6313	-0.71875	-0.6125	-1.0063	-0.6625	-1.1167	-1.1688	-0.58542	-1.3521	-0.81667	244.938	128.043	75.371	-60.727	63.874	78.082	231.836	209.693	263.912	11.904	-42.245	89.174	-51.012	206.763	256.634	244.822	0.00038602	0.00060041	0.00015159	1258.2	2.9954e-06	3.8256e-06	1271.1	343.94	2.9664e-06	7.6146e-06	398.53	134.85	115.93	40.447	5.4926e-06	50.375	0.00074144	0.00074175	0.00020546	1323.8	8.0909e-06	8.0746e-06	1327.3	364.11	8.0534e-06	8.0442e-06	425.69	144.61	127.06	43.697	8.0722e-06	54.475	263.296	62.752	-48.547	-52.757	126.455	79.760	-52.598	-47.921	-57.044	189.530	-48.364	-43.836	-43.140	-39.105	-19.595	-39.595	-8191	255	
721.716	1	1	0	0	0.18601	0.092308	0.31163	0.035818	0.10824	0.18794	0.19549	0.13463	0.15116	0.018251	0.18214	0.25305	0.16122	0.35124	0.19988	0.19126	-0.21458	-1.0771	-0.29375	-1.0354	-0.78958	-0.23542	-1.3687	-0.71667	-0.41458	-1.1646	-0.60208	-0.8375	-0.92708	-0.3625	-1.0417	-0.73333	112.354	32.139	246.608	-26.906	44.701	251.545	196.349	-1.611	-5.683	167.829	-28.354	-23.078	12.828	208.952	215.155	212.992	0.00055453	4.9572e-05	0.00021041	1262.3	4.2658e-06	1.0523e-05	1267.4	344.47	4.9906e-06	9.6248e-07	399.67	134.43	116.53	40.365	5.0691e-06	50.404	0.00073501	0.00073431	0.00020469	1323.2	8.0506e-06	8.0166e-06	1326.3	363.52	8.0017e-06	7.9845e-06	424.87	144.3	126.87	43.447	7.9926e-06	54.38	270.132	38.264	286.195	-52.791	57.700	94.925	-52.561	-48.041	135.078	86.733	-48.509	-43.796	-43.425	-39.077	209.769	-39.956	-8191	255	
721.837	1	1	0	0	0.12914	0.056935	0.28042	0.26019	0.19293	0.039255	0.34762	0.025969	0.16301	0.083125	0.20763	0.09174	0.11614	0.26111	0.33365	0.11493	-0.15833	-1.2167	-0.5125	-0.85417	-1.1167	-0.37708	-0.99583	-1.0625	-0.36458	-1.3521	-0.45417	-0.70625	-1.2437	-0.60417	-1.1146	-0.85625	232.148	158.276	220.820	197.663	170.455	-50.547	216.493	248.125	136.882	196.170	-42.508	282.717	62.512	-30.792	200.817	91.526	0.00013715	0.00091169	0.00031643	1261.2	5.4136e-06	7.3799e-06	1272.7	344.33	4.3255e-06	8.0213e-06	396.89	133.66	116.32	40.694	5.158e-06	50.334	0.00072501	0.00072488	0.00020178	1319.4	7.914e-06	7.9064e-06	1324	363.09	7.9089e-06	7.8571e-06	423.78	143.78	126.29	43.427	7.8474e-06	54.222	230.498	-43.304	47.678	-52.790	96.163	133.616	-52.822	-48.135	90.940	74.405	-48.538	-44.154	-43.491	-39.198	176.542	-40.169	-8191	255	
721.908	1	1	0	0	0.094989	0.36263	0.1598	0.24928	0.23959	0.22124	0.11663	0.20645	0.16718	0.13	0.31866	0.15659	0.42087	0.37074	0.14636	0.3049	0.083333	-1.3542	-0.36875	-0.53542	-1.2375	-0.38958	-1.2958	-1.0333	-0.46042	-1.15	-0.65208	-0.49167	-1.2146	-0.35833	-0.52292	-0.97708	38.570	12.642	165.463	272.147	108.195	196.949	292.161	234.350	38.164	20.830	209.848	261.193	241.672	54.406	286.847	220.136	0.00051578	0.00046681	8.638e-05	1259.8	8.3187e-06	1.266e-06	1271.2	344.21	9.2187e-06	4.3449e-06	397.35	134.51	116.89	40.275	2.8722e-06	50.505	0.00071128	0.00071272	0.00019802	1318.7	7.8076e-06	7.859e-06	1322.3	362.93	7.8519e-06	7.8198e-06	423.29	143.91	126.26	43.34	7.7955e-06	54.146	257.931	271.417	129.850	-52.975	194.279	235.631	-52.821	-47.916	213.317	63.947	-48.839	-44.068	-43.605	-39.466	-28.381	-40.034	-8191	255	
722.004	1	1	0	0	0.054724	0.22163	0.19052	0.20349	0.28839	0.064605	0.34137	0.10074	0.16425	0.26549	0.063854	0.046402	0.36236	0.073719	0.066302	0.17831	0.15417	-1.1187	-0.81667	-0.82083	-1.1854	-0.63333	-1.1292	-1.3458	-0.30625	-1.0354	-0.94167	-0.46667	-1.1562	-0.51875	-0.58333	-1.2021	199.164	217.489	103.734	228.907	21.141	54.421	200.822	260.308	49.942	-6.357	-23.430	137.588	254.712	228.700	-44.647	-23.694	0.00050876	0.00085436	7.8874e-05	1257.5	3.8596e-06	2.8708e-06	1268.1	343.64	7.7182e-06	5.6879e-06	396.76	134.18	116.77	40.447	7.2225e-06	50.212	0.00069976	0.00070196	0.00019583	1312.8	7.637e-06	7.6338e-06	1318.9	361.72	7.607e-06	7.6277e-06	421.31	143.41	126.02	43.194	7.6872e-06	54.072	286.864	48.457	182.877	-52.621	122.081	174.218	-52.617	-47.949	157.659	175.871	-48.712	-43.765	-43.434	-39.196	67.421	-39.930	-8191	255	
722.100	1	1	0	0	0.094609	0.26622	0.050963	0.22906	0.16098	0.070546	0.083358	0.26131	0.12381	0.23382	0.24736	0.32076	0.34966	0.085432	0.19018	0.13437	0.047917	-1.1562	-0.98333	-0.62083	-1.2479	-0.58333	-0.70417	-1.1021	-0.35625	-0.76458	-0.9375	-0.36458	-1.2333	-0.54792	-0.54792	-1.2917	288.557	261.633	174.658	279.582	156.020	-64.266	251.245	233.267	59.394	9.210	283.796	254.413	-46.951	206.366	220.828	212.824	0.00033769	0.00018074	0.00019452	1258	3.0144e-06	3.5044e-06	1263.9	344.2	4.7439e-06	9.8199e-06	397.5	134.67	115.87	40.509	1.0799e-05	50.583	0.00070382	0.00070523	0.0001964	1316.4	7.7889e-06	7.7731e-06	1321.5	362.18	7.7824e-06	7.7597e-06	422.86	143.72	125.94	43.277	7.6996e-06	54.205	281.821	-14.130	73.301	-52.880	84.466	-5.522	-52.664	-48.084	80.395	60.328	-48.458	-43.814	-42.987	-39.181	46.989	-39.965	-8191	255	
722.221	1	1	0	0	0.23562	0.27453	0.085621	0.070211	0.21042	0.18803	0.33013	0.27364	0.24469	0.24398	0.18296	0.082014	0.10965	0.094269	0.23415	0.12418	0.20833	-0.8125	-0.85417	-0.32917	-1.1812	-0.65417	-0.78542	-1.3	-0.3	-0.76042	-1.0583	-0.075	-1.3	-0.65833	-0.88958	-1.2812	-17.852	7.581	35.078	265.259	-20.413	172.115	242.413	221.758	97.163	-11.679	201.154	128.629	286.058	253.734	170.835	195.639	0.0002711	7.2554e-05	6.1268e-05	1258	3.8569e-06	2.4439e-06	1268.4	342.74	3.5915e-06	3.3825e-06	397.83	134	116.81	40.306	9.0829e-06	50.573	0.00070179	0.00070707	0.00019716	1315.3	7.8074e-06	7.8288e-06	1321.6	362.03	7.8703e-06	7.8834e-06	423.96	143.79	126.47	43.294	7.8287e-06	54.243	258.331	-38.406	-18.665	-52.760	171.602	150.456	-52.805	-47.865	132.681	139.815	-48.265	-43.786	-43.077	-38.974	32.557	-39.951	-8191	255	
722.317	1	1	0	0	0.18309	0.39685	0.20326	0.10072	0.13045	0.135	0.30851	0.13377	0.16708	0.21947	0.11004	0.2843	0.16065	0.21264	0.23783	0.14574	0.05	-0.7125	-1.0083	-0.58125	-0.94167	-0.79167	-0.69583	-1.4396	-0.60625	-0.5375	-0.90417	-0.32708	-0.85208	-0.91667	-0.38542	-1.3687	158.539	288.161	-0.602	-42.871	196.630	192.544	288.880	284.945	278.137	-63.006	133.747	262.822	210.033	258.722	179.443	253.127	0.00024399	0.00038891	0.0001872	1257.5	4.7019e-06	4.3332e-06	1266.8	344.23	9.5636e-06	6.7897e-06	396.85	134.59	116.11	40.324	1.7751e-06	50.536	0.00071046	0.00070748	0.00019739	1314.1	7.7404e-06	7.6966e-06	1318.5	361.93	7.7003e-06	7.7474e-06	423.23	143.7	126.19	43.353	7.9089e-06	54.361	279.126	64.043	-41.389	-52.556	43.718	6.868	-52.574	-47.891	78.746	286.317	-48.539	-43.973	-43.543	-39.205	235.902	-39.992	-8191	255	
722.413	1	1	0	0	0.092973	0.098985	0.36981	0.19104	0.087785	0.20271	0.064995	0.16779	0.056756	0.17567	0.13558	0.22516	0.26263	0.10944	0.19954	0.10946	-0.36875	-0.59167	-1.3083	-0.67708	-1.0187	-0.95833	-0.43333	-1.2729	-0.44375	-0.44792	-1.2771	-0.51875	-1.0979	-1.2	-0.31875	-1.1146	259.253	34.184	69.189	245.979	37.186	50.674	135.337	-33.430	247.707	199.149	255.627	235.273	263.265	278.908	-48.816	-57.428	0.00017989	0.00047341	3.2698e-05	1257.1	4.8621e-06	8.2858e-06	1262.4	344.4	4.8977e-06	2.2676e-06	397.86	133.94	116.41	40.362	3.878e-06	49.975	0.00072483	0.00072743	0.00020277	1317.7	8.0051e-06	8.0459e-06	1321.6	363.2	8.0343e-06	8.02e-06	424.87	144.3	126.98	43.47	8.0405e-06	54.441	292.381	-44.959	210.771	-52.920	58.022	40.716	-52.718	-47.985	240.897	202.630	-48.747	-43.833	-42.953	-39.275	-57.479	-39.980	-8191	255	
722.534	1	1	0	0	0.076289	0.2283	0.18247	0.12424	0.37963	0.11927	0.23051	0.21942	0.26761	0.19164	0.14334	0.38647	0.085907	0.10926	0.060814	0.11196	-0.275	-0.54583	-1.2583	-0.47917	-0.74167	-1.0938	-0.575	-1.4188	-0.95208	-0.43333	-1.4958	-0.59375	-0.84583	-1.2521	-0.37917	-1.2271	0.277	38.178	249.100	-8.303	127.971	-45.200	224.436	215.379	52.435	188.316	121.894	205.534	280.379	220.718	210.269	-12.837	0.00021068	0.00066963	0.00010223	1255.9	3.8258e-06	6.7299e-06	1264.7	343.62	5.6185e-06	3.5353e-06	398.93	133.99	115.61	40.196	6.8748e-06	50.428	0.00072837	0.00073106	0.00020418	1319.4	8.047e-06	8.0939e-06	1324.9	364.01	8.1353e-06	8.1723e-06	426.78	144.55	127.16	43.605	8.2213e-06	54.541	220.885	21.544	252.735	-52.786	107.005	-11.846	-52.779	-47.975	140.141	235.570	-48.639	-44.026	-43.076	-39.101	94.208	-40.013	-8191	255	
722.606	1	1	0	0	0.082512	0.23163	0.10888	0.15909	0.2624	0.16658	0.23337	0.29514	0.3894	0.15329	0.15849	0.31249	0.19992	0.2514	0.058598	0.17051	-0.45417	-0.53542	-1.2167	-0.6125	-0.59375	-1.1583	-0.72083	-1.1479	-0.79167	-0.425	-1.3813	-0.81458	-0.79792	-1.2583	-0.27917	-0.8375	123.594	166.796	13.417	281.020	223.608	138.209	205.022	272.589	264.205	245.104	94.966	286.749	-50.843	162.269	198.373	266.992	0.00026562	0.00063005	4.5898e-05	1256.9	7.7269e-06	5.1149e-06	1262.8	344.66	3.2255e-06	2.7781e-06	399.48	135.22	116.61	40.345	7.2542e-06	50.457	0.0007378	0.00074105	0.00020586	1320.9	8.0959e-06	8.0784e-06	1323.9	364.33	8.0666e-06	8.0511e-06	425.54	144.47	127.03	43.528	8.0242e-06	54.447	-62.358	12.877	-35.944	-52.756	177.548	121.961	-52.695	-47.859	214.012	55.461	-48.482	-43.658	-43.404	-38.830	151.154	-39.529	-8191	255	
722.702	1	1	0	0	0.16333	0.1323	0.2146	0.35073	0.19611	0.10122	0.019682	0.13307	0.080988	0.14694	0.075751	0.20663	0.046768	0.3322	0.040296	0.39897	-0.70208	-0.42917	-1.1	-0.81875	-0.44792	-1.2917	-0.79583	-1.0333	-0.98958	-0.27292	-1.1583	-1	-0.72708	-1.2604	-0.37917	-0.85	-1.990	212.500	199.526	243.179	234.363	24.369	175.212	278.551	116.565	142.430	165.572	-38.651	129.961	70.970	258.780	239.300	0.0003627	0.0010619	0.00033343	1257.5	1.2819e-06	1.6604e-06	1269.7	345.24	3.7933e-06	4.745e-06	397.36	134.51	117.49	40.415	5.1334e-06	50.58	0.0007274	0.00072712	0.00020313	1319.8	7.9841e-06	7.9884e-06	1324.3	363.78	8.0141e-06	8.0248e-06	425.63	144.53	127.29	43.602	8.0355e-06	54.442	242.621	-18.454	16.174	-52.736	-31.618	128.214	-52.537	-47.956	157.718	7.691	-48.608	-43.657	-43.185	-39.103	186.581	-39.762	-8191	255	
722.821	1	1	0	0	0.17992	0.13759	0.076513	0.26926	0.04367	0.17097	0.22033	0.13723	0.12744	0.10338	0.047636	0.1436	0.1172	0.15197	0.13918	0.14281	-0.8	-0.2875	-1.1417	-0.84375	-0.46458	-1.3188	-0.78125	-0.86458	-1.2292	-0.29167	-1.1271	-0.89583	-0.46042	-1.0875	-0.41042	-0.74167	157.860	128.432	43.255	-39.942	272.993	-57.021	222.187	254.608	198.533	264.957	106.269	115.449	219.220	223.917	46.165	147.820	0.00048255	0.00039544	0.00015535	1260.1	5.3431e-06	5.498e-06	1268.6	344.46	7.2805e-06	3.766e-06	399.35	134.32	116.64	40.425	8.3805e-06	50.702	0.00072575	0.00072725	0.00020208	1318.6	7.9496e-06	7.9201e-06	1322.8	363.64	7.9187e-06	7.9179e-06	425.38	144.03	126.58	43.49	7.884e-06	54.417	252.607	84.773	21.687	-52.778	218.150	16.765	-52.646	-47.685	54.444	-39.211	-48.436	-43.856	-43.136	-38.922	55.305	-39.668	-8191	255	
722.917	1	1	0	0	0.18408	0.19781	0.14049	0.24807	0.064176	0.17283	0.52338	0.078366	0.13429	0.21848	0.29459	0.10771	0.10285	0.20005	0.13886	0.098036	-0.60833	-0.21667	-0.58542	-0.92292	-0.32708	-1.275	-0.81875	-0.74583	-1.3417	-0.46458	-0.94583	-1.1229	-0.57708	-1.2833	-0.81458	-0.61667	292.434	179.849	149.356	254.707	30.354	134.328	208.291	79.072	42.012	2.037	279.410	127.063	252.931	224.927	222.024	205.221	0.00031818	0.0002274	0.00017842	1258	3.3846e-06	4.5641e-06	1271	344.24	4.087e-06	6.7311e-06	397.47	134.62	116.29	40.596	5.7971e-06	50.348	0.00071684	0.00071576	0.00020022	1316.3	7.8509e-06	7.8735e-06	1322	362.92	7.8318e-06	7.8551e-06	423.95	143.92	126.25	43.368	7.832e-06	54.08	286.063	126.762	286.666	-52.927	98.471	75.923	-52.748	-47.900	22.469	-35.996	-48.774	-44.095	-43.154	-39.048	163.307	-39.914	-8191	255	
723.013	1	1	0	0	0.11107	0.076007	0.18667	0.40375	0.22953	0.1866	0.19742	0.14789	0.1213	0.19155	0.18113	0.27138	0.24579	0.29897	0.30335	0.19551	-0.96042	-0.65833	-0.7625	-1.2521	-0.59583	-1.2083	-0.78125	-0.59375	-1.075	-0.67708	-0.62083	-0.98542	-0.33333	-1.05	-0.57083	-0.22292	-65.056	134.253	141.564	283.043	66.073	-30.767	183.510	282.753	52.236	194.282	85.562	288.588	172.261	-65.627	-30.310	219.622	0.00021908	0.00098353	0.00016634	1260.8	6.1016e-06	3.7478e-06	1264.7	342.93	3.4833e-06	5.7547e-06	396.87	134.52	116.1	40.315	6.1211e-06	50.487	0.00070902	0.00070836	0.000197	1315.8	7.7026e-06	7.6875e-06	1317.3	361.56	7.603e-06	7.5661e-06	421.33	143.38	125.18	43.102	7.5647e-06	53.905	282.902	13.687	211.772	-53.004	74.333	194.584	-53.050	-48.175	203.849	63.091	-48.441	-43.923	-43.305	-39.198	11.777	-40.065	-8191	255	
723.134	1	1	0	0	0.32589	0.13231	0.040954	0.40217	0.016482	0.15166	0.2615	0.091491	0.15996	0.32124	0.40494	0.33836	0.14166	0.21718	0.019164	0.24502	-0.75208	-0.28542	-0.5875	-1.3375	-0.45625	-0.98542	-1.0333	-0.4375	-1.3583	-0.53958	-0.73542	-1.4375	-0.50833	-1.2437	-1.0229	-0.41458	118.500	-24.637	-20.408	-49.299	-47.200	218.863	214.264	184.751	156.507	-36.700	219.642	-27.245	289.122	182.666	-46.126	-50.566	0.00033836	0.00027382	8.4072e-05	1256.7	4.4607e-06	5.1156e-06	1259.1	344.87	1.1105e-05	5.209e-06	395.72	134.1	116.47	40.253	3.5859e-06	50.385	0.00068803	0.00068768	0.00019085	1308.5	7.479e-06	7.4576e-06	1312	360.95	7.3708e-06	7.4161e-06	420.32	142.3	124.78	42.95	7.3734e-06	53.599	-50.891	114.710	282.955	-52.967	-46.817	135.972	-53.030	-48.066	-12.093	117.067	-48.769	-44.050	-43.487	-39.376	199.508	-40.303	-8191	255	
723.205	1	1	0	0	0.11872	0.28024	0.27112	0.088633	0.1078	0.21386	0.078194	0.098604	0.040711	0.23351	0.13523	0.053105	0.11957	0.13604	0.17036	0.1014	-0.74792	-0.57292	-0.5375	-1.1917	-0.33958	-0.91667	-1.1521	-0.525	-1.3958	-0.7375	-0.7625	-1.4083	-0.38333	-0.89167	-1.125	-0.48333	69.925	38.566	199.867	-2.477	210.115	148.417	290.887	284.119	171.275	98.218	149.613	153.693	10.470	261.682	199.706	260.270	0.00031145	0.00031517	0.00012937	1253.1	3.5138e-06	3.2138e-06	1263.7	343.56	6.9947e-06	9.1075e-06	400.15	134.65	116.91	40.398	1.6828e-06	50.174	0.00067016	0.00067174	0.00018771	1304.9	7.3465e-06	7.2991e-06	1310.5	359.87	7.3045e-06	7.294e-06	419.5	142.32	124.45	42.916	7.2767e-06	53.517	232.136	-33.424	38.716	-52.932	23.857	193.471	-52.869	-48.034	91.783	-10.919	-48.673	-44.358	-43.059	-39.206	229.882	-39.904	-8191	255	
723.302	1	1	0	0	0.1676	0.2707	0.19448	0.1804	0.086322	0.11007	0.033968	0.2375	0.13796	0.095994	0.14807	0.1449	0.12213	0.20344	0.10903	0.25183	-0.59583	-0.67292	-0.2625	-1.2833	-0.33125	-0.58542	-1.1521	-0.42083	-1.0729	-0.73125	-0.46458	-1.2271	-0.6625	-0.71875	-1.3854	-0.57292	288.578	61.166	52.093	-45.544	0.756	-20.778	187.332	247.596	276.074	-32.809	-8.649	-58.123	271.402	-63.452	111.687	265.576	0.00040374	0.00029402	0.00019793	1256.6	2.6293e-06	4.6786e-07	1262	343.12	6.3716e-06	1.6615e-06	398.03	134.58	116.29	40.238	1.3024e-06	50.274	0.00066172	0.00066467	0.00018411	1307.8	7.3077e-06	7.305e-06	1311.1	359.87	7.334e-06	7.3537e-06	419.47	142.51	124.76	42.998	7.4419e-06	53.651	279.066	144.556	36.456	-52.883	93.509	28.225	-52.679	-47.878	163.649	264.253	-48.556	-44.059	-43.319	-39.296	274.918	-40.062	-8191	255	
723.398	1	1	0	0	0.35222	0.18427	0.080825	0.54139	0.13281	0.27368	0.25049	0.44466	0.216	0.11125	0.042623	0.17225	0.42145	0.21196	0.19043	0.2219	-0.62917	-0.975	-0.30833	-1.2479	-0.23125	-0.50208	-1.3646	-0.3875	-1.1688	-1.0125	-0.53542	-1.3917	-0.93333	-0.52292	-1.1958	-0.60625	-52.904	99.901	123.004	253.769	42.583	99.235	249.671	218.576	290.687	-64.684	61.642	249.226	214.406	243.296	287.353	125.501	0.00011924	0.00058187	0.00011126	1253.4	9.4629e-06	2.5371e-06	1260.9	342.8	5.2681e-06	2.2901e-06	397.92	134.6	115.93	40.251	1.5351e-06	50.203	0.00067712	0.00067761	0.00018911	1309.1	7.5041e-06	7.4948e-06	1312.8	360.18	7.441e-06	7.4892e-06	420.09	142.81	124.97	42.98	7.4559e-06	53.687	265.260	82.898	23.312	-52.745	168.548	62.299	-52.889	-48.053	266.357	195.727	-48.798	-43.801	-43.532	-38.947	245.070	-40.279	-8191	255	
723.517	1	1	0	0	0.18716	0.21439	0.073812	0.41079	0.12741	0.1847	0.28387	0.35063	0.083625	0.094569	0.23549	0.22132	0.053445	0.21617	0.28585	0.37356	-0.56667	-1.0312	-0.36042	-1.3833	-0.8125	-0.60625	-1.225	-0.55833	-0.54375	-1.125	-0.46875	-1.2292	-0.91458	-0.69167	-1.1833	-0.63125	218.185	270.136	-52.908	216.269	31.729	-41.678	196.808	264.172	184.101	287.282	134.672	31.045	-55.859	223.761	207.743	198.271	0.00023943	0.0006591	0.00023592	1252.5	1.106e-05	4.7566e-06	1259.7	342.96	7.9508e-06	1.3927e-06	397.13	133.74	115.5	40.645	1.9015e-06	50.377	0.00067958	0.00068376	0.00019026	1308	7.4916e-06	7.4783e-06	1312.3	360.5	7.5274e-06	7.5169e-06	420.47	142.88	124.99	43.103	7.5656e-06	53.864	-46.621	88.713	-13.641	-52.799	139.346	109.936	-53.026	-48.165	-64.010	-32.318	-48.605	-44.066	-43.491	-39.520	110.530	-40.086	-8191	255	
723.613	1	1	0	0	0.23337	0.15352	0.15934	0.31352	0.1399	0.16822	0.11164	0.31312	0.2445	0.26496	0.19363	0.23774	0.19127	0.1471	0.25801	0.17639	-0.22292	-1.1521	-0.27083	-1.1125	-1.0292	-0.32708	-1.2667	-0.6375	-0.68125	-1.1625	-0.45417	-1.2521	-1.2313	-0.37292	-1.1646	-0.62917	-22.128	11.447	287.171	237.916	86.514	116.573	246.357	4.878	106.667	-18.094	23.699	196.946	-33.293	190.734	153.526	218.596	0.00010926	0.0010368	0.00019526	1255.4	6.0386e-06	4.7477e-06	1264.5	343.25	5.0238e-06	1.1074e-05	397.44	134.53	116.86	40.334	8.4052e-06	50.38	0.0006857	0.00068881	0.00019229	1310.4	7.5401e-06	7.5125e-06	1313.1	360.91	7.5386e-06	7.5527e-06	420.4	142.9	125.25	43.062	7.559e-06	53.866	241.299	20.653	271.422	-53.055	58.577	184.643	-52.886	-48.103	83.087	-4.718	-48.677	-44.105	-43.423	-39.289	43.892	-40.133	-8191	255	
723.709	1	1	0	0	0.19375	0.22908	0.14177	0.11029	0.12515	0.30403	0.47676	0.34477	0.15652	0.045614	0.073657	0.072873	0.019935	0.16537	0.20157	0.20396	-0.30625	-1.1896	-0.38125	-1.0833	-0.87292	-0.2	-1.2292	-0.83542	-0.60208	-1.3062	-0.35208	-0.82292	-1.0083	-0.44792	-1.1063	-0.97708	55.272	33.169	197.171	15.974	37.412	-39.670	240.472	235.778	143.187	150.002	258.772	269.898	16.766	-41.480	213.133	247.005	9.2189e-05	0.00073982	1.7459e-05	1259	3.693e-06	1.2089e-06	1266.1	342.73	6.9216e-06	1.9708e-06	397.41	134.63	116.29	40.148	2.8707e-06	50.182	0.00068996	0.00069714	0.00019413	1310.8	7.6325e-06	7.5943e-06	1314	360.06	7.5295e-06	7.5325e-06	420.65	142.93	125.03	42.991	7.5674e-06	53.872	123.810	63.936	-33.553	-52.685	68.317	293.894	-52.928	-47.970	102.471	140.658	-48.780	-43.886	-43.432	-39.341	-27.767	-40.115	-8191	255	
723.805	1	1	0	0	0.25018	0.151	0.084984	0.21398	0.28719	0.18154	0.33324	0.13434	0.2582	0.12621	0.18291	0.0055748	0.14779	0.2454	0.30149	0.15347	-0.1	-1.0562	-0.37708	-0.98125	-1.1208	-0.55208	-1.3896	-1.1125	-0.51042	-1.2042	-0.69792	-0.87708	-1.1667	-0.5625	-1.0854	-0.89792	131.420	217.924	147.399	280.414	117.776	260.326	264.633	-56.035	64.926	192.478	247.046	71.625	282.490	-65.912	-34.746	173.835	0.00030037	0.00049782	0.00019701	1250.5	8.8234e-06	5.4674e-06	1257.4	342.84	3.2889e-06	9.8911e-06	397.74	134.02	115.53	40.134	4.9355e-06	50.178	0.00068891	0.00068781	0.00019134	1306.2	7.5114e-06	7.4859e-06	1310.1	359.83	7.4324e-06	7.4451e-06	419.38	142.5	124.53	42.907	7.4536e-06	53.567	276.884	52.630	55.200	-52.934	230.197	-1.485	-52.826	-48.025	216.569	62.167	-48.996	-43.799	-43.568	-39.359	18.656	-40.052	-8191	255	
723.901	1	1	0	0	0.18598	0.11307	0.061173	0.28344	0.12191	0.17204	0.098673	0.2071	0.13636	0.33961	0.089791	0.10234	0.1604	0.40585	0.12768	0.36218	0.0020833	-1.2062	-0.3375	-0.67083	-1.3167	-0.47292	-1.1729	-1.175	-0.60417	-1.2208	-1.0521	-0.69583	-1.4542	-0.64167	-0.97292	-1.2729	19.860	117.374	95.660	283.451	116.727	7.022	169.769	215.449	175.221	152.446	88.870	286.664	216.734	-30.333	137.605	215.583	0.00021586	0.00084949	5.4878e-05	1254.1	4.0514e-06	3.3976e-06	1262.9	343.24	4.2845e-06	4.4702e-06	394.77	133.8	115.83	40.083	2.3771e-06	50.051	0.00067176	0.00067252	0.00018669	1304.6	7.2887e-06	7.2643e-06	1308.6	358.83	7.2157e-06	7.1957e-06	416.93	141.59	123.8	42.598	7.12e-06	53.125	-53.503	23.912	115.899	-52.996	-19.193	64.017	-52.520	-47.954	-40.370	-16.271	-48.544	-44.026	-43.270	-39.163	88.388	-39.969	-8191	255	
723.997	1	1	0	0	0.25294	0.25659	0.15591	0.28648	0.014898	0.074738	0.19944	0.23339	0.26382	0.15108	0.089731	0.05098	0.10755	0.20039	0.18088	0.12072	-0.025	-1.1958	-0.65625	-0.48125	-1.1458	-0.51458	-0.9875	-1.1354	-0.16458	-1.1437	-1.0312	-0.64167	-1.3	-0.64583	-0.80208	-1.1542	97.127	188.816	259.850	257.968	85.425	-13.902	250.084	216.642	-31.406	170.941	229.692	234.629	-42.743	38.885	-57.514	208.233	7.4075e-05	0.0001822	0.00016153	1240.2	5.7315e-06	3.9091e-06	1249.4	341.27	3.3976e-06	2.9719e-06	393.16	133.87	115.35	39.873	3.8953e-06	50.064	0.00064663	0.00064434	0.00017931	1295.5	7.0163e-06	7.0074e-06	1299.5	356.95	6.971e-06	6.9399e-06	414.79	140.81	122.76	42.342	6.8708e-06	52.919	17.250	40.939	26.528	-52.788	75.656	-17.981	-52.784	-48.079	179.037	55.733	-48.606	-43.999	-43.525	-39.252	17.677	-40.136	-8191	255	
724.093	1	1	0	0	0.35373	0.10543	0.09113	0.11879	0.11409	0.25828	0.48815	0.21317	0.11339	0.15072	0.16522	0.40264	0.19062	0.21991	0.13571	0.10659	-0.00625	-1.025	-0.72917	-0.68958	-1.1938	-0.59583	-0.72917	-1.1354	-0.27292	-0.93542	-1.1313	-0.50417	-1.3312	-0.75208	-0.75833	-1.4479	-42.263	-7.491	246.518	266.496	-34.190	100.089	218.463	160.515	19.659	11.096	-61.929	288.833	200.154	-3.622	53.186	168.360	0.0001857	0.00050449	0.00020512	1242	2.64e-06	5.3246e-06	1247.7	339.59	1.0557e-05	6.1473e-06	396.32	134.6	115.36	39.966	7.6155e-06	49.821	0.00062521	0.00062704	0.00017362	1290.6	6.8494e-06	6.8289e-06	1295.9	356.04	6.8155e-06	6.8482e-06	414.77	140.58	122.56	42.283	6.821e-06	52.825	237.439	60.420	-4.707	-52.996	96.747	80.594	-52.655	-47.995	109.916	53.235	-48.639	-43.864	-43.178	-39.127	50.414	-40.359	-8191	255	
724.214	1	1	0	0	0.1249	0.12507	0.077358	0.33637	0.13819	0.12484	0.22372	0.27187	0.14518	0.19855	0.19784	0.062743	0.15246	0.1097	0.16144	0.12453	-0.15417	-1.0187	-0.88542	-0.51042	-1.2229	-0.66875	-0.7	-1.55	-0.52708	-0.94792	-1.2042	-0.52708	-1.2375	-0.875	-0.38125	-1.2917	62.968	64.519	69.653	292.799	-47.263	-23.545	219.087	276.833	-29.739	91.361	-47.213	182.078	-46.829	275.272	70.569	-56.963	0.0002569	0.00036944	0.0001668	1245.5	7.2618e-06	4.6558e-06	1240.1	338.55	1.756e-06	8.0398e-06	398.11	134.41	115.66	40.253	4.1418e-06	50.099	0.00061966	0.0006256	0.00017279	1292.3	6.8643e-06	6.8963e-06	1296.5	356.05	6.904e-06	6.9977e-06	416.12	141.17	123.49	42.546	7.1129e-06	53.212	-59.652	33.032	-0.404	-52.634	145.216	101.055	-52.709	-47.927	99.415	140.683	-48.275	-43.518	-43.059	-39.326	-21.595	-39.949	-8191	255	
724.310	1	1	0	0	0.10516	0.17106	0.21586	0.17518	0.23279	0.22165	0.19501	0.08064	0.10198	0.12515	0.14689	0.24764	0.13802	0.15353	0.13735	0.15938	0.075	-0.6	-1.2812	-0.50417	-1.2479	-0.91458	-0.52083	-1.2271	-0.71042	-0.76875	-1.4646	-0.775	-1.2875	-1.0375	-0.27292	-1.2417	34.293	5.496	131.650	239.579	206.211	258.382	271.737	36.928	204.612	37.901	289.217	256.310	253.721	268.276	154.997	-55.979	0.0002097	0.00061223	0.00019874	1248.7	2.3163e-06	8.8863e-07	1258.2	341.79	9.6844e-06	1.152e-06	392.75	132.16	115.06	40.053	7.9879e-06	50	0.00064949	0.00065115	0.0001808	1297.9	7.1218e-06	7.1211e-06	1302.9	357.99	7.1329e-06	7.123e-06	417.01	141.27	123.69	42.59	7.3136e-06	53.411	-51.144	-9.855	111.745	-52.747	249.886	107.559	-52.616	-47.924	105.157	-19.937	-48.625	-43.895	-43.157	-39.110	87.129	-39.979	-8191	255	
724.406	1	1	0	0	0.073348	0.19573	0.15299	0.20868	0.16759	0.17827	0.22128	0.072578	0.16743	0.12463	0.12715	0.36222	0.24827	0.27661	0.087272	0.21707	-0.10417	-0.55	-1.3042	-0.71667	-1.1604	-1.0146	-0.66458	-1.225	-0.39167	-0.42292	-1.2042	-0.425	-0.96875	-1.1792	-0.43125	-1.2021	-53.387	87.339	202.091	231.465	191.959	223.483	-8.548	256.824	115.551	42.543	259.129	261.138	263.570	273.652	242.471	291.976	0.00011614	0.00026644	0.00028533	1246.9	4.6254e-06	2.4517e-06	1240.3	341.09	2.0165e-06	6.3339e-06	395.65	133.65	115.3	40.14	7.0636e-06	50.103	0.00066186	0.00066593	0.000186	1301.8	7.2975e-06	7.2703e-06	1301.2	358.24	7.2302e-06	7.2231e-06	417.23	141.69	123.98	42.668	7.2475e-06	53.409	244.496	116.699	-21.982	-52.903	32.317	94.156	-53.038	-47.968	164.747	204.124	-48.677	-43.948	-43.438	-39.400	10.047	-40.016	-8191	255	
724.503	1	1	0	0	0.07714	0.1246	0.18252	0.10785	0.15493	0.12154	0.054581	0.18542	0.16327	0.098422	0.33464	0.03695	0.2202	0.22842	0.3003	0.031696	-0.40417	-0.37292	-1.2167	-0.61875	-0.91875	-1.0729	-0.58542	-1.3312	-0.93125	-0.63333	-1.4375	-0.58542	-0.86042	-1.3417	-0.45208	-1.3229	12.712	20.672	103.915	249.485	83.418	-24.828	-59.288	202.647	37.142	198.873	268.436	259.186	271.548	222.904	203.221	222.049	0.00029633	0.00053086	4.4513e-05	1240.9	4.4929e-06	7.2594e-07	1251.4	342.3	4.446e-06	1.7571e-06	394.12	133.17	115.71	40.007	2.8272e-06	49.88	0.00065908	0.00066293	0.00018415	1297.8	7.2455e-06	7.2334e-06	1303.2	358.65	7.2935e-06	7.2754e-06	417.98	141.69	124.25	42.721	7.3334e-06	53.401	255.663	-56.478	35.711	-52.868	189.276	161.877	-52.735	-48.024	75.112	-30.401	-48.584	-44.087	-43.029	-39.232	276.234	-39.929	-8191	255	
724.599	1	1	0	0	0.13327	0.29464	0.0041897	0.16297	0.11188	0.19356	0.11411	0.32131	0.039418	0.21813	0.048061	0.27351	0.30265	0.25456	0.056446	0.15578	-0.5375	-0.4	-1.2021	-0.87708	-0.76042	-1.2167	-0.57917	-1.0083	-0.78333	-0.26042	-1.3729	-0.8625	-0.80833	-1.3813	-0.43542	-1.0042	41.483	204.392	-43.210	275.181	-34.646	-59.774	285.758	272.060	61.080	-31.673	263.119	233.294	-31.201	251.657	241.805	166.948	0.00019836	0.00047376	4.0848e-05	1244.4	1.3044e-06	5.8806e-06	1253.4	341.28	4.3224e-06	7.2143e-06	394.6	133.93	116.11	40.232	2.4853e-06	50.257	0.00066545	0.00066931	0.00018649	1299.1	7.3563e-06	7.3324e-06	1305.4	358.81	7.311e-06	7.3337e-06	417.98	141.75	124.38	42.821	7.3824e-06	53.587	-56.365	285.783	42.439	-52.940	257.746	62.388	-52.737	-48.007	-54.640	14.353	-48.704	-43.764	-43.027	-39.127	164.572	-39.782	-8191	255	
724.693	1	1	0	0	0.1784	0.18895	0.046475	0.5274	0.19389	0.11344	0.20935	0.089845	0.18673	0.079453	0.19328	0.094722	0.085889	0.11202	0.10777	0.049719	-0.5875	-0.2125	-1.1604	-1.0333	-0.65833	-1.2563	-0.6875	-1.1437	-1.0479	-0.38125	-1.4083	-0.94167	-0.76667	-1.3396	-0.41042	-0.75625	255.882	41.863	25.597	251.572	-62.153	261.734	216.751	-60.881	87.357	119.592	2.146	0.467	9.414	-64.279	-5.041	201.778	0.00024428	0.00042689	0.00027219	1252.1	6.572e-06	5.6637e-06	1258.1	343.84	4.5892e-06	6.2516e-06	394.77	133.82	116.18	40.143	6.3379e-06	50.428	0.00067146	0.00067203	0.00018735	1302.2	7.3248e-06	7.3312e-06	1304	359.29	7.3269e-06	7.3312e-06	418.02	141.77	124.45	42.822	7.3745e-06	53.608	275.030	144.911	34.854	-52.795	117.882	47.290	-52.728	-47.874	255.130	37.464	-48.580	-43.936	-43.199	-39.107	123.095	-39.908	-8191	255	
724.814	1	1	0	0	0.247	0.10202	0.082964	0.22077	0.12579	0.081947	0.19191	0.27394	0.131	0.28979	0.26056	0.10065	0.18681	0.14244	0.078233	0.22489	-0.87292	-0.125	-1.0562	-0.95625	-0.39167	-1.3	-0.68333	-0.99792	-1.1063	-0.32917	-1.0521	-0.925	-0.34375	-1.325	-0.55833	-0.85417	248.515	-61.413	155.613	-61.455	163.442	-31.498	202.350	279.108	117.299	138.877	221.718	184.790	234.389	47.626	275.546	221.420	0.00031145	0.00048286	0.00014613	1242.6	2.0601e-06	5.2406e-06	1248.7	340.96	2.3683e-06	2.6517e-06	396.04	133.69	115.26	39.947	3.9857e-06	49.513	0.00066774	0.00067427	0.0001862	1298.8	7.3637e-06	7.3603e-06	1303.7	359.04	7.3551e-06	7.4017e-06	419.21	142.22	124.46	42.826	7.4457e-06	53.492	-43.229	93.316	61.950	-52.787	219.313	95.428	-52.836	-48.072	28.247	157.582	-48.543	-44.140	-43.498	-39.289	78.903	-40.203	-8191	255	
724.910	1	1	0	0	0.36443	0.20849	0.23601	0.27605	0.40564	0.13871	0.13879	0.20218	0.11532	0.074726	0.10867	0.36568	0.22952	0.21545	0.088172	0.25512	-0.88333	-0.34583	-1.0063	-0.86667	-0.20833	-1.0958	-0.80833	-0.57292	-1.2563	-0.27708	-0.8375	-1.0125	-0.53333	-1.3917	-0.66042	-0.225	245.062	-24.751	46.962	200.528	248.973	59.703	269.631	197.774	230.188	-41.077	274.300	251.642	-50.241	248.223	166.080	224.361	0.00037011	0.00082118	4.631e-05	1245.7	6.3763e-06	1.9764e-06	1252.6	341.35	3.8848e-06	5.4864e-06	394.98	133.62	115.53	40.183	7.5388e-06	50.25	0.0006782	0.00068252	0.00019005	1302.6	7.4563e-06	7.473e-06	1306.1	359.47	7.4689e-06	7.4993e-06	419.59	142.39	124.65	42.995	7.5748e-06	53.756	272.924	-40.240	239.975	-52.970	164.950	130.388	-53.029	-48.233	86.349	148.638	-48.507	-44.258	-43.503	-39.385	-57.353	-40.233	-8191	255	
725.006	1	1	0	0	0.21699	0.21009	0.45409	0.37364	0.2047	0.2601	0.19783	0.14263	0.22337	0.20055	0.26555	0.056537	0.1477	0.22639	0.14046	0.071093	-1.025	-0.54583	-0.83542	-1.0583	-0.25625	-1.2229	-0.99792	-0.62917	-1.3937	-0.39583	-0.67708	-0.83542	-0.51042	-1.3271	-0.93542	-0.36875	284.741	234.922	-10.012	268.072	268.551	16.250	212.797	-66.066	-54.556	193.429	230.717	198.028	251.210	52.492	249.040	151.091	0.00018151	0.0001558	7.9874e-05	1240.1	3.5649e-06	4.6221e-06	1237.9	341.45	2.4203e-06	2.5859e-06	393.95	133.01	115.33	39.948	6.2792e-06	49.832	0.00068546	0.00068801	0.00019214	1302.7	7.5223e-06	7.5461e-06	1305.4	359.86	7.5065e-06	7.5593e-06	419.54	142.5	125.23	42.93	7.6567e-06	53.778	232.220	31.304	135.970	-53.013	103.281	86.265	-53.108	-48.161	244.128	86.325	-48.665	-44.338	-43.311	-39.540	267.060	-39.980	-8191	255	
725.078	1	1	0	0	0.18598	0.30821	0.31469	0.22438	0.094189	0.13224	0.16852	0.30356	0.12731	0.50407	0.082099	0.044687	0.21399	0.097941	0.45722	0.22214	-0.77917	-0.475	-0.68958	-1.1458	-0.1625	-1.2271	-1.2042	-0.65625	-1.1979	-0.425	-0.75	-1.4625	-0.4375	-1.0896	-1.1187	-0.38125	57.519	13.433	-38.284	250.248	213.906	58.038	253.603	255.555	115.433	62.261	264.512	-39.813	232.741	-10.879	263.625	109.978	0.00014684	0.00095466	5.6896e-05	1242.9	2.0643e-06	4.4462e-06	1247	342.13	1.8585e-06	1.6023e-06	394.38	133.6	115.46	40.204	1.2587e-05	50.196	0.00069639	0.00069877	0.00019489	1306.5	7.6439e-06	7.6452e-06	1308.4	360.23	7.5942e-06	7.5722e-06	419.71	142.61	124.88	42.974	7.5076e-06	53.66	255.959	-20.055	-0.390	-53.078	4.354	67.476	-53.124	-48.097	-53.462	17.224	-48.482	-43.819	-43.568	-39.241	250.322	-40.249	-8191	255	
725.198	1	1	0	0	0.20233	0.18135	0.12929	0.18629	0.078333	0.092397	0.11317	0.18306	0.11314	0.26028	0.12962	0.25868	0.17462	0.13999	0.061277	0.033659	-0.55208	-0.76875	-0.50833	-1.6083	-0.66667	-1.1542	-1.2333	-0.675	-1.1979	-0.64375	-0.39375	-1.5125	-0.30625	-1.1542	-0.95417	-0.55625	-40.511	-40.779	-64.870	247.811	53.765	204.175	239.005	-31.998	154.987	193.061	-54.188	222.817	271.845	234.246	45.615	206.667	0.00017335	0.0002489	0.00021158	1249.5	6.179e-06	4.1517e-06	1258.6	342.13	2.517e-06	2.6392e-06	399.01	133.65	116.36	40.166	9.7114e-06	50.007	0.00067837	0.00068086	0.00018914	1302.9	7.4219e-06	7.407e-06	1307.1	359	7.3499e-06	7.4031e-06	419.37	141.82	124.36	42.786	7.305e-06	53.371	265.409	71.173	-5.771	-52.875	79.930	110.214	-52.970	-47.961	157.826	-14.202	-48.729	-44.124	-43.616	-39.116	186.109	-40.520	-8191	255	
725.294	1	1	0	0	0.31338	0.29387	0.45578	0.043712	0.295	0.35281	0.12087	0.19043	0.21049	0.11642	0.2688	0.3523	0.033999	0.16298	0.30417	0.3985	-0.8625	-0.76042	-0.27083	-1.1667	-0.53125	-0.8625	-1.2771	-0.19583	-0.7125	-0.86458	-0.52708	-1.2333	-0.40625	-0.66458	-1.2938	-0.64167	285.255	166.657	226.758	-33.992	83.412	276.306	280.725	28.521	219.130	11.040	237.875	252.467	37.306	91.648	278.760	248.717	0.00028916	0.00050986	0.00010168	1241.2	1.1107e-05	2.1067e-06	1253.6	339.2	5.0242e-06	7.3345e-06	392.78	132.15	115.28	40.265	2.0995e-06	49.853	0.00066327	0.00066133	0.00018432	1298.3	7.212e-06	7.1498e-06	1302.8	356.67	7.0889e-06	7.0715e-06	415.41	140.93	123.13	42.504	6.9898e-06	53.001	262.785	282.812	221.817	-53.038	110.627	101.177	-53.278	-48.212	34.379	80.801	-49.076	-44.377	-43.792	-39.725	124.870	-40.609	-8191	255	
725.391	1	1	0	0	0.14394	0.079204	0.070374	0.15372	0.10915	0.11825	0.18416	0.14525	0.14584	0.14929	0.31389	0.19902	0.19924	0.44226	0.099987	0.068636	-0.63333	-0.77708	-0.53125	-1.4021	-0.375	-0.57292	-1.4062	-0.6	-1.0271	-0.71458	-0.37917	-1.2208	-0.89583	-0.55208	-1.3667	-0.59792	-49.429	82.351	16.714	276.984	142.710	58.563	234.856	19.685	149.141	220.859	-62.277	280.962	260.687	-18.521	214.911	-5.629	0.0004191	0.00032521	0.00011106	1243.6	5.8111e-06	4.4016e-06	1248.7	339.02	7.9183e-07	5.8658e-06	390.9	132.49	114.65	40.187	7.5365e-06	49.442	0.00063701	0.00063471	0.00017701	1293.6	6.8773e-06	6.8631e-06	1296	355.39	6.8208e-06	6.8056e-06	413.1	140.36	122.37	42.324	6.8032e-06	52.64	280.372	36.755	244.553	-52.981	64.441	66.172	-53.081	-48.258	207.118	-42.080	-49.163	-44.333	-43.838	-39.322	154.477	-40.420	-8191	255	
725.487	1	1	0	0	0.10924	0.078463	0.16263	0.36668	0.15837	0.095458	0.31037	0.23816	0.36959	0.22736	0.19843	0.26876	0.087189	0.2153	0.0062661	0.089614	-0.67292	-0.91458	-0.38333	-1.375	-0.81042	-0.50833	-1.55	-0.4625	-0.71875	-0.94792	-0.20833	-0.87708	-0.8625	-0.57708	-1.3417	-0.47292	82.432	266.463	-19.037	-58.009	-19.410	97.733	248.415	-63.505	271.031	87.464	264.317	-50.206	212.546	-15.514	225.904	156.549	0.00033422	0.00010137	0.00020257	1245.4	5.6919e-06	6.1053e-06	1255.4	341.75	2.109e-06	8.3603e-06	395.44	133.74	115.68	40.371	5.8664e-06	50.145	0.00061883	0.00061708	0.00017259	1292.7	6.7533e-06	6.7845e-06	1295.4	355.64	6.7085e-06	6.7408e-06	413.1	140.12	122.17	42.323	6.729e-06	52.727	267.295	6.780	-22.220	-53.124	33.901	166.729	-52.838	-48.406	222.126	92.801	-48.767	-44.255	-43.558	-38.855	92.518	-40.041	-8191	255	
725.606	1	1	0	0	0.27956	0.069551	0.17848	0.040402	0.22196	0.16386	0.28986	0.24693	0.076292	0.21028	0.07976	0.028568	0.20539	0.1487	0.21092	0.11768	-0.13125	-0.91458	-0.38333	-1.3146	-0.75417	-0.18333	-1.4396	-0.70625	-0.65	-1.0646	-0.36042	-1.0896	-0.81875	-0.34792	-1.0812	-0.71875	163.444	246.908	57.605	-52.690	-1.569	166.708	201.510	-37.522	99.126	253.127	73.794	-35.778	216.750	58.971	-56.482	183.171	0.00030862	0.00054959	5.3685e-05	1248.5	4.8338e-06	5.955e-06	1254.7	342.36	4.4252e-06	4.2218e-06	397.11	133.52	115.79	40.316	2.8934e-06	50.009	0.0006113	0.00061605	0.00017086	1290.5	6.6989e-06	6.7105e-06	1295.7	356.08	6.7373e-06	6.7348e-06	413.23	140.55	122.64	42.336	6.8398e-06	52.81	278.603	292.588	250.548	-53.020	89.024	133.824	-52.923	-48.236	51.854	184.899	-48.670	-44.192	-43.677	-39.171	105.939	-40.208	-8191	255	
725.702	1	1	0	0	0.28883	0.20377	0.19723	0.22031	0.13916	0.217	0.069421	0.21641	0.3848	0.13808	0.40326	0.18174	0.31988	0.030594	0.059908	0.26187	-0.09375	-1.0542	-0.33958	-1.1646	-1.5083	-0.38542	-1.3542	-0.99792	-0.43542	-1.2521	-0.575	-0.8	-1.1063	-0.30625	-1.1833	-0.80625	-34.302	77.145	101.591	35.214	47.735	244.477	122.115	232.312	154.725	147.745	78.458	7.421	253.400	135.282	201.067	18.178	0.00048459	0.00029129	0.00030329	1247.7	4.3406e-06	3.7417e-06	1249.3	340.87	5.9446e-06	1.7762e-06	397.28	133.18	116.17	40.033	4.3284e-06	50.066	0.00062172	0.00062314	0.00017293	1292.5	6.7635e-06	6.8173e-06	1295.1	355.78	6.7871e-06	6.8085e-06	414.6	140.48	122.97	42.354	6.884e-06	52.93	259.832	103.001	-33.356	-53.018	245.853	269.884	-52.837	-48.257	32.669	-13.434	-48.618	-44.116	-43.568	-39.392	53.565	-40.114	-8191	255	
725.775	1	1	0	0	0.1742	0.29185	0.070224	0.54117	0.16321	0.15992	0.11173	0.072934	0.077684	0.24083	0.047401	0.093466	0.19556	0.2202	0.10052	0.20032	-0.01875	-1.2583	-0.54583	-1.0625	-1.0625	-0.45	-1.0542	-0.7875	-0.083333	-1.1771	-0.67083	-0.58542	-1.0604	-0.25	-0.66667	-0.88542	-36.194	22.877	130.283	267.792	157.247	107.134	-61.706	71.637	71.484	122.129	-49.214	12.245	270.492	264.370	88.023	28.705	0.00057557	0.00054577	0.00015701	1245.8	2.5698e-06	3.2952e-06	1254.1	340.61	4.649e-06	7.8497e-06	394.04	133.65	116.32	40.097	8.7654e-06	50.177	0.00062742	0.00063	0.00017572	1294.4	6.9082e-06	6.9075e-06	1299.6	355.99	6.9063e-06	6.9091e-06	414.44	140.77	123.11	42.465	6.8914e-06	52.872	246.862	99.061	116.362	-52.931	99.226	41.650	-52.890	-48.195	-53.584	53.690	-48.938	-44.181	-43.490	-39.326	17.883	-40.029	-8191	255	
725.894	1	1	0	0	0.073187	0.18176	0.11955	0.34326	0.066713	0.11374	0.26114	0.065388	0.098205	0.047112	0.12894	0.22997	0.14663	0.062512	0.13463	0.31679	0.17917	-1.2458	-0.53333	-0.65	-1.1458	-0.45417	-1.1271	-1.1729	-0.31667	-0.9875	-0.77917	-0.48958	-1.1375	-0.39167	-0.83958	-0.88125	-18.472	214.569	68.461	278.638	95.126	-57.640	270.613	281.184	143.374	96.558	72.278	125.420	266.550	6.216	189.779	277.659	0.00023035	0.0010135	0.00038543	1249.4	4.9619e-06	5.0881e-06	1255.4	341.04	4.2164e-06	8.4295e-06	396.77	134	116.37	40.082	3.6444e-06	50.177	0.0006273	0.00062859	0.0001759	1294.5	6.9297e-06	6.8925e-06	1297.9	355.85	6.8708e-06	6.8966e-06	414.34	140.71	122.8	42.304	6.8595e-06	52.888	267.130	-5.023	285.870	-52.868	-42.814	103.970	-52.704	-48.214	76.461	79.411	-48.737	-43.889	-43.576	-39.294	65.161	-40.229	-8191	255	
725.990	1	1	0	0	0.058394	0.16865	0.059874	0.13137	0.095243	0.1946	0.27574	0.32428	0.2771	0.23593	0.34559	0.10613	0.29498	0.16943	0.33687	0.2949	0.2375	-1.3375	-0.74167	-0.50417	-1.2437	-0.45625	-0.95417	-1.1104	-0.41875	-1.2229	-1.1417	-0.625	-1.2625	-0.26458	-0.8	-1.4917	89.524	217.151	281.521	-1.875	223.045	251.436	243.221	-60.382	26.548	179.212	229.838	158.095	128.877	227.069	239.316	279.734	0.00020133	0.0003499	0.00014581	1249.6	3.9865e-06	3.3484e-06	1254.7	343.18	4.2994e-06	5.9207e-06	392.93	134.63	116.86	40.341	2.9534e-06	50.272	0.00061921	0.00062297	0.00017345	1293.9	6.79e-06	6.8384e-06	1298.1	355.94	6.7313e-06	6.7527e-06	412.27	140.49	122.78	42.308	6.7224e-06	52.729	273.900	126.548	59.191	-52.820	232.840	22.384	-52.802	-48.063	57.111	90.275	-48.518	-44.074	-43.177	-39.300	34.699	-39.883	-8191	255	
726.086	1	1	0	0	0.27063	0.17122	0.22809	0.40709	0.049344	0.16781	0.42162	0.033185	0.10089	0.20528	0.054928	0.06117	0.19214	0.21219	0.097778	0.13742	0.2625	-0.95417	-0.83333	-0.52292	-1.2125	-0.60208	-1.0271	-1.4125	-0.42083	-0.85208	-1.0958	-0.70208	-1.2292	-0.775	-0.34792	-1.5583	143.207	-3.720	215.991	255.827	-3.550	213.985	235.545	290.012	179.866	134.393	193.426	-46.543	221.660	264.509	258.090	228.672	0.00019595	0.00074149	0.00012521	1257.9	3.6244e-06	7.4246e-06	1256.7	343.48	4.7461e-06	2.911e-06	398.02	133.63	115.91	40.266	2.9007e-06	50.107	0.00061231	0.00061299	0.00016943	1292.3	6.7165e-06	6.6791e-06	1295.7	355.41	6.7008e-06	6.7007e-06	413.36	140.02	122.3	42.192	6.6781e-06	52.657	38.548	39.394	76.146	-52.860	286.718	71.768	-52.656	-47.891	284.778	35.782	-48.815	-43.968	-43.258	-39.168	123.884	-39.966	-8191	255	
726.183	1	1	0	0	0.13721	0.064692	0.12609	0.26518	0.28031	0.17342	0.14662	0.074575	0.27583	0.19338	0.17016	0.1128	0.10726	0.077326	0.10855	0.2309	-0.31042	-0.88958	-0.72083	-0.60625	-1.2729	-0.71458	-0.88333	-1.1708	-0.36458	-1.1104	-1.3208	-0.21458	-1.0271	-0.80417	-0.58125	-1.3917	-3.543	75.716	166.722	287.811	219.565	-60.507	223.709	224.911	75.580	140.099	265.720	267.056	193.769	261.329	216.157	244.821	0.000268	0.00057508	0.00027434	1245.6	6.8184e-06	7.7194e-06	1254.9	342.71	6.4155e-06	2.3772e-06	395.66	134.4	115.37	40.289	4.9393e-06	49.977	0.00060215	0.00060304	0.00016755	1287.7	6.6095e-06	6.5712e-06	1294.6	354.66	6.5967e-06	6.5924e-06	412.13	139.83	121.68	42.113	6.5649e-06	52.506	269.440	71.547	-11.394	-52.783	43.169	115.478	-52.602	-48.080	102.686	177.036	-48.511	-43.904	-43.397	-39.181	52.956	-39.818	-8191	255	
726.303	1	1	0	0	0.049943	0.19026	0.16023	0.15662	0.25348	0.32896	0.19429	0.14456	0.039136	0.058648	0.29748	0.16176	0.27229	0.22113	0.3387	0.13991	0.085417	-0.63125	-1.2271	-0.58542	-1.1354	-0.72083	-0.53958	-1.3042	-0.57708	-0.68333	-1.2708	-0.36667	-1.0208	-0.9875	-0.44375	-1.3042	33.087	209.772	177.813	254.115	9.558	270.508	245.441	259.411	182.461	130.579	254.707	239.896	-43.230	272.631	138.499	18.127	0.00014977	0.00048762	0.0002429	1249.4	4.1593e-06	2.7964e-06	1259.9	343.06	6.8107e-06	4.8724e-06	395.61	134.01	115.76	40.07	1.0376e-05	50.276	0.0005937	0.00059711	0.00016545	1287	6.5321e-06	6.5524e-06	1291.8	354.5	6.5057e-06	6.5437e-06	411.23	139.55	121.54	41.996	6.5045e-06	52.525	287.999	-0.043	-42.657	-52.514	202.580	79.161	-52.756	-47.819	96.717	199.140	-48.434	-44.073	-43.184	-39.245	212.308	-40.077	-8191	255	
726.375	1	1	0	0	0.50657	0.10604	0.19114	0.15843	0.22084	0.36517	0.049359	0.18679	0.18838	0.11825	0.13884	0.34265	0.098485	0.26504	0.29336	0.22553	-0.14583	-0.62292	-1.3083	-0.46875	-0.9	-0.88333	-0.25417	-1.3833	-0.75	-0.65833	-1.3937	-0.49583	-1.0271	-0.9375	-0.51875	-1.4646	181.592	249.397	167.042	220.980	156.601	267.133	291.261	269.776	-4.271	170.105	-16.060	171.830	6.181	261.391	-43.571	275.323	0.00033768	0.00043923	0.00017149	1244.6	1.9838e-06	6.4516e-07	1259.4	342.59	7.5282e-06	6.3929e-06	395.69	133.38	116.16	40.075	1.3421e-06	49.949	0.00059158	0.00059326	0.00016535	1284.3	6.5237e-06	6.505e-06	1292.1	354.22	6.5298e-06	6.5543e-06	411.64	139.62	121.91	42.15	6.5456e-06	52.405	275.837	-51.386	-5.109	-52.587	115.324	131.521	-52.788	-47.929	120.889	159.859	-48.458	-43.902	-43.063	-39.127	80.242	-39.847	-8191	255	
726.495	1	1	0	0	0.2177	0.091425	0.14991	0.21407	0.12689	0.46102	0.23793	0.4614	0.097688	0.10604	0.087012	0.32319	0.30098	0.39863	0.26206	0.18187	-0.35417	-0.68333	-1.1458	-0.61458	-0.61667	-1.0083	-0.45417	-1.4021	-0.75	-0.38333	-1.2458	-0.6125	-0.92292	-1.4188	-0.60417	-1.3146	-38.244	242.216	132.750	239.264	243.965	289.505	268.857	293.224	-15.345	109.007	198.825	229.909	-40.244	-41.077	210.584	258.071	0.0001812	0.00014643	0.00012983	1240.9	3.974e-06	3.3232e-06	1257.6	341.93	4.5655e-06	4.9981e-06	395.73	134.15	115.85	39.944	4.3912e-06	50.219	0.00059263	0.00059684	0.00016504	1283.5	6.4848e-06	6.4562e-06	1292.4	354.29	6.487e-06	6.4911e-06	411.17	139.42	121.76	42.005	6.4882e-06	52.514	255.418	283.535	17.438	-52.694	49.579	129.427	-52.771	-47.526	79.097	272.138	-48.478	-44.066	-42.906	-38.937	228.703	-39.629	-8191	255	
726.590	1	1	0	0	0.058847	0.01187	0.18276	0.15559	0.11179	0.26133	0.21852	0.15972	0.13725	0.2565	0.23469	0.13802	0.085501	0.18287	0.26275	0.19559	-0.54375	-0.16875	-1.2646	-0.86667	-0.84375	-1.2792	-0.50625	-1.125	-0.94583	-0.66042	-1.4854	-0.57917	-0.63333	-1.3708	-0.17917	-1.1708	90.063	-8.116	-16.642	273.268	142.975	215.892	202.863	290.690	285.677	-11.611	204.273	-43.853	96.348	271.602	94.854	272.486	0.00039339	0.00051263	0.00014621	1245.4	1.0803e-06	2.5459e-06	1257.2	342.43	5.4925e-06	5.3972e-06	397.17	133.57	116.5	40.172	6.5674e-06	50.442	0.00059142	0.00059049	0.00016459	1283.3	6.4498e-06	6.4648e-06	1290.4	354.17	6.4273e-06	6.4181e-06	410.61	139.32	121.45	41.98	6.4083e-06	52.413	266.997	55.209	-46.825	-52.562	130.432	16.477	-52.483	-47.816	167.258	173.632	-48.395	-43.738	-42.728	-38.723	19.894	-39.504	-8191	255	
726.686	1	1	0	0	0.045119	0.1916	0.087182	0.36522	0.20201	0.16422	0.084486	0.15991	0.23244	0.18455	0.19134	0.24817	0.2821	0.15806	0.13952	0.34856	-0.78125	-0.56042	-1.2583	-0.87917	-0.56667	-1.2292	-0.46667	-0.92292	-1.0979	-0.26667	-1.4688	-0.75208	-0.74792	-1.4667	-0.59375	-1	50.115	268.892	56.967	271.036	194.166	-5.348	271.202	231.044	11.235	282.312	228.796	180.906	281.177	-49.848	106.039	174.061	0.00041351	0.00020274	9.1665e-05	1248.1	5.0547e-06	4.2679e-06	1257.4	343.89	4.4834e-06	6.6643e-06	397.76	133.69	116.27	40.268	7.753e-06	50.48	0.00058337	0.000588	0.00016348	1284.3	6.4698e-06	6.439e-06	1291.9	355.07	6.4742e-06	6.5035e-06	412.1	139.27	121.54	42.05	6.4591e-06	52.53	246.570	189.759	120.606	-52.295	195.850	62.877	-52.177	-47.320	247.967	57.584	-48.154	-43.591	-42.879	-38.681	61.411	-39.276	-8191	255	
726.782	1	1	0	0	0.1915	0.16871	0.075427	0.088801	0.21552	0.1432	0.14197	0.13963	0.16025	0.12065	0.33058	0.14428	0.51447	0.080161	0.17105	0.19746	-0.74167	-0.34167	-0.94375	-0.89167	-0.51875	-1.1542	-0.69167	-0.84375	-1.2125	-0.27292	-1.0854	-0.88958	-0.62917	-1.4583	-0.55625	-0.94167	-46.443	211.575	178.333	223.791	36.231	-36.796	217.987	251.665	175.673	189.230	-58.696	221.914	259.952	241.073	155.585	-63.080	0.0001408	0.00074584	0.00014787	1251.6	4.0375e-06	4.1966e-06	1253.6	343.41	6.2978e-06	3.3516e-06	397.5	133.81	116.47	40.471	9.7007e-06	50.394	0.00058329	0.00058303	0.00016274	1284.2	6.3926e-06	6.4257e-06	1289.2	354.49	6.4041e-06	6.4545e-06	411.76	139.28	121.58	42.129	6.466e-06	52.48	230.535	-12.052	-14.924	-52.076	171.852	285.740	-52.267	-46.917	68.257	61.669	-47.439	-42.441	-41.776	-37.875	86.492	-38.418	-8191	255	
726.878	1	1	0	0	0.21453	0.20437	0.115	0.38528	0.47043	0.18992	0.40241	0.31933	0.016093	0.048298	0.19771	0.20894	0.20841	0.083758	0.10195	0.037629	-1.0521	-0.65625	-0.90417	-1.1375	-0.40208	-1.2708	-0.99583	-0.93958	-1.1792	-0.23125	-0.96667	-1.0854	-0.61667	-1.325	-0.58958	-0.63542	183.444	86.198	205.077	237.056	220.099	-60.209	273.177	289.168	-30.305	291.136	-42.840	109.554	202.313	109.148	-26.778	241.523	0.00041213	0.00047509	0.00025203	1246.2	6.4767e-06	1.3224e-06	1258.5	343.05	4.7838e-06	4.3488e-06	395.69	134.38	115.7	40.243	4.1702e-06	50.333	0.00058724	0.00058721	0.00016435	1284	6.4844e-06	6.4658e-06	1290.3	354.48	6.4478e-06	6.4316e-06	411.42	139.5	121.65	42.113	6.4985e-06	52.511	245.375	59.208	67.157	-52.303	13.668	74.816	-51.893	-47.284	197.023	58.302	-47.659	-43.115	-42.255	-38.285	66.855	-39.363	-8191	255	
726.999	1	1	0	0	0.28577	0.09946	0.33959	0.12188	0.079815	0.29796	0.4082	0.35164	0.03378	0.14437	0.2177	0.16933	0.009035	0.23085	0.29785	0.089991	-1.0458	-0.36875	-0.93333	-1.4479	-0.325	-1.0604	-1.0104	-0.54375	-1.2	-0.67708	-0.97083	-1.1958	-0.35208	-1.2625	-0.9875	-0.53125	-61.254	-40.391	216.981	226.253	-17.032	287.706	284.910	-45.183	21.344	39.930	151.770	-13.750	256.797	216.806	98.258	-2.432	0.00012997	0.00025407	4.2838e-05	1249.1	2.4367e-06	7.3266e-06	1257.9	342.07	1.0623e-05	4.6635e-06	397.15	133.74	116.27	40.505	3.0469e-06	50.527	0.00059112	0.00059006	0.0001635	1285.2	6.4728e-06	6.4685e-06	1292.7	354.14	6.4882e-06	6.5127e-06	411.58	139.27	121.68	42.147	6.5188e-06	52.586	216.138	137.607	153.013	-52.322	127.867	156.883	-52.340	-47.654	74.992	38.368	-48.447	-44.065	-43.109	-38.921	-11.032	-39.891	-8191	255	
727.071	1	1	0	0	0.13283	0.046326	0.086973	0.2533	0.11057	0.10617	0.18979	0.07735	0.19549	0.26887	0.18618	0.18457	0.10188	0.2272	0.082047	0.27484	-1.0458	-0.4375	-0.66667	-1.3708	-0.42083	-1.0958	-0.94167	-0.64583	-1.4083	-0.67708	-0.87083	-1.3292	-0.34792	-0.98542	-1.0271	-0.36042	196.442	-2.942	-10.329	232.928	164.338	211.077	186.417	122.841	70.699	28.953	189.875	222.141	-18.304	-52.270	120.528	234.397	0.0004747	0.00060733	0.00014044	1254.8	2.2941e-06	2.7228e-06	1263.4	344.11	5.0524e-06	1.241e-05	398.62	134.61	116.04	40.35	6.8464e-06	50.614	0.00059225	0.00059349	0.00016535	1287.8	6.5402e-06	6.4901e-06	1291.6	354.68	6.4879e-06	6.4648e-06	412.36	139.5	121.41	42.089	6.4656e-06	52.616	267.783	257.527	144.959	-52.544	200.909	81.387	-52.697	-47.615	46.339	49.738	-48.296	-43.969	-43.375	-38.805	36.823	-39.512	-8191	255	
727.167	1	1	0	0	0.3675	0.22169	0.11742	0.15277	0.19491	0.19464	0.334	0.11418	0.15841	0.24954	0.25282	0.17519	0.34509	0.27412	0.12635	0.31647	-0.94583	-0.69583	-0.625	-1.475	-0.42292	-0.78958	-1.175	-0.30833	-1.1625	-0.86875	-0.43125	-1.4083	-0.60208	-0.72917	-0.78958	-0.3375	100.316	108.673	-18.829	288.253	41.568	-41.351	-41.019	273.103	-7.965	80.261	249.179	290.295	221.099	-14.625	109.939	-43.747	0.0005006	0.0012129	0.00014988	1255.1	2.9881e-06	3.276e-06	1257.9	344.32	6.2009e-06	2.7744e-06	396.55	134.3	116.66	40.559	4.4447e-06	50.613	0.00058902	0.00059118	0.00016515	1287.4	6.4436e-06	6.4314e-06	1289.7	354.43	6.4057e-06	6.4137e-06	411.44	139.39	121.27	42.047	6.3994e-06	52.34	-42.030	54.800	-55.605	-52.217	-14.879	104.487	-52.579	-47.618	67.925	144.215	-48.356	-43.442	-42.874	-38.799	25.518	-39.560	-8191	255	
727.263	1	1	0	0	0.3889	0.063566	0.25579	0.30366	0.11175	0.10453	0.37564	0.088158	0.26689	0.16314	0.13569	0.2332	0.090523	0.37048	0.15132	0.050114	-0.81875	-0.60417	-0.3875	-1.5083	-0.74167	-0.9875	-1.5479	-0.46458	-0.69583	-0.75208	-0.525	-1.3104	-0.68958	-0.89583	-1.2458	-0.50625	166.894	21.754	186.625	-40.917	-39.222	0.091	-37.587	149.917	128.942	115.644	192.378	191.556	113.062	248.258	277.851	114.766	0.00020347	0.00083168	3.8971e-05	1259	8.3133e-06	6.0605e-06	1259.1	344.19	1.56e-06	9.7724e-06	399.26	134.74	117.12	40.49	1.0884e-06	50.537	0.00057932	0.00058215	0.00016152	1285.6	6.3574e-06	6.4065e-06	1288.6	354.01	6.3305e-06	6.3266e-06	410.59	139.19	121.13	41.964	6.2821e-06	52.184	282.071	-10.064	8.609	-52.826	17.489	23.636	-52.440	-47.589	202.274	5.779	-48.627	-43.622	-43.382	-38.967	-13.915	-39.372	-8191	255	
727.384	1	1	0	0	0.16359	0.088505	0.35573	0.36049	0.18563	0.20962	0.1857	0.091794	0.036533	0.15536	0.39452	0.057886	0.13447	0.07148	0.17346	0.22932	-0.47083	-0.87083	-0.45208	-1.4062	-0.8	-0.69167	-1.5021	-0.48333	-0.97083	-0.925	-0.6	-1.2708	-0.59583	-0.7625	-1.3604	-0.6	122.768	172.750	230.649	248.783	148.093	182.275	184.326	-27.290	208.180	56.821	208.689	76.255	137.874	38.895	82.400	225.890	0.00038305	0.00041319	1.9704e-05	1256.1	7.8008e-06	2.937e-06	1262.8	345.22	4.0162e-06	2.5468e-06	399.45	135.4	116.7	40.601	1.0142e-05	50.527	0.00056969	0.00057026	0.00015931	1283.6	6.2619e-06	6.2722e-06	1288.4	353.47	6.1868e-06	6.2071e-06	409.6	139.28	120.66	41.883	6.168e-06	52.173	-56.251	-0.413	293.300	-52.013	135.061	57.721	-52.434	-47.795	198.339	129.527	-48.586	-43.713	-43.380	-39.262	60.474	-39.995	-8191	255	
727.480	1	1	0	0	0.31382	0.08361	0.14438	0.15222	0.3187	0.1416	0.21125	0.26727	0.32345	0.11509	0.18505	0.11308	0.030861	0.17813	0.165	0.11822	-0.15208	-1.0292	-0.12083	-1.0208	-0.70833	-0.525	-1.3708	-0.60417	-0.94583	-1.1333	-0.48125	-1.2125	-0.75208	-0.52917	-1.1042	-0.4375	15.420	224.664	218.917	40.248	201.215	232.866	244.271	235.452	256.353	87.145	-60.342	52.301	128.132	279.360	-22.055	-30.075	0.00039452	0.00032089	0.00011452	1254.4	4.7154e-06	3.8719e-06	1262.3	344.96	7.5008e-06	4.6198e-06	399.53	134.28	116.77	40.61	1.9707e-06	50.672	0.00055955	0.00056132	0.0001567	1280.8	6.1597e-06	6.1861e-06	1287.5	353.39	6.1332e-06	6.1486e-06	409.11	138.89	120.6	41.923	6.1571e-06	52.261	253.451	61.696	86.463	-52.857	-9.942	1.112	-52.922	-48.212	37.899	75.831	-48.713	-44.300	-43.654	-39.633	18.747	-40.420	-8191	255	
727.576	1	1	0	0	0.28028	0.031814	0.10798	0.38416	0.14165	0.058436	0.41654	0.15936	0.090144	0.21988	0.071986	0.34454	0.1083	0.14098	0.2608	0.15016	-0.27083	-1.1083	-0.59583	-1.1875	-0.975	-0.46042	-1.0833	-0.49375	-0.41042	-1.0625	-0.5875	-1.0146	-1.0812	-0.41875	-1.0333	-0.82917	204.939	27.053	112.520	261.052	-55.168	-38.378	267.787	222.308	122.735	206.898	198.942	257.996	232.972	227.434	145.141	134.141	0.0001536	0.00042295	4.5601e-05	1251.1	6.502e-06	2.6772e-06	1260.8	344.1	2.3279e-06	8.209e-06	398.54	134.88	116.65	40.424	5.7463e-06	50.428	0.00056184	0.00056184	0.00015674	1280.9	6.2045e-06	6.1829e-06	1286.8	353.14	6.2434e-06	6.2112e-06	409.26	139.3	120.63	41.888	6.2652e-06	52.232	-21.773	91.756	263.439	-53.052	23.206	63.105	-53.075	-48.391	140.098	98.035	-49.053	-44.233	-43.462	-39.607	96.314	-40.342	-8191	255	
727.672	1	1	0	0	0.10714	0.13143	0.14125	0.36928	0.12111	0.33163	0.37581	0.24449	0.021024	0.34795	0.13676	0.1416	0.25815	0.19847	0.13345	0.18727	-0.025	-1.0771	-0.225	-0.89792	-1.0354	-0.45208	-1.3062	-0.59583	-0.47708	-1.0833	-0.53958	-0.94792	-1.0083	-0.41458	-1.1375	-1.0104	-6.646	124.253	216.272	264.047	39.841	89.721	228.794	-65.094	112.270	79.093	201.686	-5.517	195.493	285.023	250.139	2.107	0.00031852	0.00028749	0.00017646	1251.7	3.6974e-06	7.9992e-07	1267.9	343.37	8.7636e-06	9.4436e-06	398.08	134.86	116.66	40.498	5.684e-06	50.637	0.00056631	0.00056643	0.00015721	1281.8	6.2137e-06	6.2069e-06	1289.4	353.24	6.2139e-06	6.2006e-06	409.19	139.13	120.89	41.928	6.3466e-06	52.285	-64.619	13.073	293.504	-52.903	44.907	119.781	-53.006	-48.423	280.344	34.343	-48.923	-44.074	-43.335	-39.307	87.044	-40.407	-8191	255	
727.766	1	1	0	0	0.050872	0.18505	0.21637	0.11304	0.14306	0.18365	0.24071	0.027661	0.32764	0.12724	0.21966	0.18604	0.098585	0.20684	0.17563	0.35267	-0.19583	-1.1604	-0.46458	-0.9625	-1.1854	-0.3625	-1.3667	-0.8375	-0.36667	-1.1083	-0.45833	-0.65	-1.1271	-0.31042	-0.97708	-1.2271	206.518	-0.083	289.376	284.604	226.949	90.789	205.674	221.951	263.050	139.656	235.213	133.152	8.258	273.973	157.502	266.699	0.00037715	0.00039464	0.00023526	1255.3	4.8245e-06	3.6717e-06	1261.4	344.82	8.216e-07	1.0379e-05	398.01	134.73	117.02	40.497	9.3462e-06	50.376	0.00057518	0.00057737	0.00016011	1282.7	6.3122e-06	6.319e-06	1288.2	354.09	6.3065e-06	6.322e-06	409.84	139.44	121.52	42.007	6.4064e-06	52.479	241.337	-7.873	-56.867	-52.963	82.148	83.966	-52.971	-48.405	78.215	64.422	-48.924	-44.302	-43.769	-39.476	4.335	-40.410	-8191	255	
727.864	1	1	0	0	0.16811	0.16663	0.091927	0.31585	0.031248	0.025809	0.17457	0.14431	0.39211	0.19459	0.2481	0.17709	0.2725	0.2043	0.082879	0.14625	-0.15625	-1.2771	-0.50208	-0.72292	-1.1604	-0.41875	-1.1375	-1.0833	-0.42292	-1.25	-0.46667	-0.60833	-1.2563	-0.60625	-0.78333	-1.0458	278.017	-65.385	-13.589	51.025	-39.102	225.719	-19.480	-34.814	176.226	3.453	176.782	-33.009	268.501	285.975	-30.111	-33.531	0.00032662	0.00083608	0.00021679	1249.2	1.8963e-06	7.9119e-06	1259.2	344.26	5.504e-06	8.0183e-06	397.06	134.31	116.97	40.437	4.8258e-06	50.548	0.0005871	0.00058692	0.00016342	1283.1	6.4488e-06	6.4515e-06	1288.7	354.44	6.4662e-06	6.4529e-06	410.82	139.32	121.5	42.037	6.4417e-06	52.399	275.765	-13.845	222.374	-53.001	10.241	87.438	-53.193	-48.440	82.342	-37.784	-49.213	-44.342	-43.709	-39.368	-46.577	-39.903	-8191	255	
727.983	1	1	0	0	0.15892	0.3708	0.28119	0.34027	0.16027	0.057327	0.23896	0.070169	0.14849	0.053382	0.036284	0.1423	0.22356	0.085384	0.31271	0.25079	-0.070833	-1.0562	-0.5375	-0.53125	-1.5146	-0.68125	-0.94167	-1.0896	-0.15208	-0.96458	-1.0271	-0.48125	-1.3625	-0.55833	-0.85208	-1.2812	252.688	-30.044	18.941	277.817	-28.041	144.372	159.675	206.454	87.840	178.117	39.380	-37.829	293.439	-59.836	169.848	244.203	9.7385e-05	0.0012084	7.5486e-05	1257.7	4.8213e-06	1.0923e-06	1259	344.68	6.128e-06	9.1106e-06	398.88	134.48	116.66	40.419	5.5341e-06	50.124	0.00058362	0.00058509	0.0001619	1284.5	6.3946e-06	6.3809e-06	1289.4	353.97	6.4015e-06	6.4379e-06	411	139.52	121.51	42.037	6.4013e-06	52.263	289.409	12.404	142.293	-52.940	67.214	233.416	-53.045	-48.198	49.192	43.354	-49.148	-44.332	-43.757	-39.708	76.752	-40.390	-8191	255	
728.079	1	1	0	0	0.15116	0.15373	0.11245	0.34025	0.27588	0.090949	0.37757	0.43282	0.12758	0.17506	0.22666	0.072522	0.17795	0.17353	0.16105	0.096332	0.11458	-0.73958	-0.53125	-0.69583	-1.1271	-0.49792	-0.96042	-1.4188	-0.37292	-1.0958	-0.95417	-0.3375	-1.3604	-0.7125	-0.32708	-1.3104	191.119	221.127	131.616	-50.573	263.574	134.682	-52.665	252.186	96.581	97.369	164.796	-25.990	283.964	-62.212	80.402	-20.743	0.00019712	0.00054789	9.6379e-05	1258.7	3.9691e-06	4.1515e-06	1260.6	343.75	4.1828e-06	3.0273e-06	395.76	134.34	116.79	40.557	9.6877e-06	50.414	0.00058083	0.00057767	0.00016097	1282.8	6.3446e-06	6.2953e-06	1287	353.58	6.3182e-06	6.3203e-06	409.22	139.12	121.11	41.939	6.3688e-06	52.302	-41.704	-28.385	20.723	-53.159	120.457	92.793	-53.017	-48.473	12.960	60.179	-48.839	-44.345	-43.500	-39.688	57.280	-40.323	-8191	255	
728.175	1	1	0	0	0.078105	0.16306	0.13107	0.22488	0.12367	0.14627	0.15335	0.093568	0.18043	0.15235	0.17973	0.31766	0.20687	0.24727	0.21619	0.46479	-0.10833	-0.85833	-0.9625	-0.48542	-1.1458	-0.76875	-0.72083	-1.4813	-0.43125	-0.91042	-1.1271	-0.64375	-1.1708	-0.79792	-0.57708	-1.4688	99.441	124.593	180.749	217.323	174.494	-60.319	254.162	246.677	278.161	42.703	105.093	220.923	230.176	275.664	-3.879	268.457	0.00033758	0.00035291	0.00013072	1251.3	2.0041e-06	2.2769e-06	1260.4	346.27	3.0122e-06	2.7514e-06	398.51	134.52	117.32	40.567	4.006e-06	50.303	0.00057686	0.00057969	0.00016107	1281.5	6.3424e-06	6.3441e-06	1288.5	354.11	6.348e-06	6.3361e-06	409.98	139.02	121.28	41.893	6.3185e-06	52.137	257.962	9.084	-43.871	-53.057	-65.020	137.978	-52.907	-48.452	36.486	74.366	-49.096	-44.367	-43.393	-39.502	44.240	-40.261	-8191	255	
728.272	1	1	0	0	0.13093	0.16341	0.18968	0.049834	0.1831	0.12195	0.089043	0.15726	0.26916	0.44011	0.098704	0.10329	0.23802	0.089279	0.24539	0.037883	-0.17917	-0.63542	-0.89792	-0.58333	-1.0604	-0.89583	-0.53958	-1.2125	-0.66667	-0.53333	-1.15	-0.25417	-1.0396	-1.2792	-0.48333	-1.4667	214.612	-54.682	-36.609	240.754	185.341	270.005	244.692	184.921	96.657	78.941	14.870	266.091	256.107	14.102	171.573	240.773	0.00025498	7.7333e-05	0.00014428	1249.5	9.7752e-06	2.5424e-06	1258	344.14	8.9487e-06	6.4229e-06	398.18	133.71	116.75	40.467	4.7567e-06	50.248	0.0005736	0.0005719	0.00015971	1277.7	6.25e-06	6.256e-06	1285.2	353.55	6.2534e-06	6.2419e-06	408.86	138.68	120.64	41.792	6.2164e-06	52.032	251.025	188.415	7.593	-53.063	138.887	91.069	-53.063	-48.378	247.482	96.015	-48.985	-44.145	-43.630	-39.436	72.526	-40.278	-8191	255	
728.368	1	1	0	0	0.097359	0.29245	0.41163	0.066236	0.37941	0.16945	0.14097	0.19615	0.20839	0.01899	0.17829	0.15313	0.063855	0.36135	0.1218	0.07499	-0.10625	-0.56667	-1.0917	-0.60625	-0.98333	-0.75833	-0.51458	-1.2	-0.52292	-0.7625	-1.3333	-0.32708	-0.7875	-1.15	-0.2	-1.0417	285.218	110.478	192.102	169.094	170.013	49.422	-6.392	276.216	-21.549	76.613	111.549	247.515	209.570	242.995	-31.041	-59.590	0.00028947	9.8871e-05	6.1994e-05	1250.2	2.2519e-06	3.3947e-06	1257.1	344.09	4.9669e-06	7.2283e-06	398.92	134.21	116.59	40.449	5.039e-06	50.444	0.00056115	0.00056557	0.00015676	1274.5	6.1578e-06	6.1415e-06	1284.1	352.7	6.1357e-06	6.1621e-06	408.13	138.45	120.63	41.822	6.1646e-06	52.005	257.691	276.613	0.439	-53.173	101.392	134.278	-53.049	-48.310	79.071	160.267	-48.966	-44.493	-43.709	-39.580	126.253	-40.107	-8191	255	
728.464	1	1	0	0	0.13996	0.11529	0.20715	0.24643	0.22641	0.12144	0.16766	0.14408	0.18129	0.24638	0.19037	0.27623	0.073495	0.11546	0.051431	0.2277	-0.26042	-0.36458	-1.0708	-0.53542	-0.9375	-1.0708	-0.47708	-1.0542	-0.63958	-0.45417	-1.3521	-0.64375	-0.96042	-1.1063	-0.11042	-1.1646	-8.720	259.184	22.091	253.769	207.080	143.598	164.415	255.956	222.252	-6.743	-24.462	217.834	-61.963	88.243	59.167	176.538	0.00028748	0.00079333	0.00015429	1247.3	6.7424e-06	5.9633e-06	1257.1	346.11	3.5274e-06	4.1699e-06	398.19	134.77	116.33	40.196	2.6091e-06	50.444	0.0005579	0.00056221	0.00015662	1275.4	6.1141e-06	6.128e-06	1281.2	353.03	6.1036e-06	6.1325e-06	408.44	138.41	120.31	41.708	6.1406e-06	51.992	249.895	213.313	-62.100	-52.911	139.517	87.699	-53.059	-48.287	-2.087	178.347	-49.137	-44.372	-43.815	-39.542	21.822	-40.671	-8191	255	
728.560	1	1	0	0	0.20306	0.11636	0.20988	0.062136	0.088163	0.17562	0.10922	0.30039	0.1482	0.011705	0.13674	0.1003	0.53882	0.17475	0.18671	0.21175	-0.59375	-0.28542	-0.99375	-0.67708	-0.62083	-1.0896	-0.29167	-1.1125	-0.89375	-0.62917	-1.0208	-0.52708	-0.73542	-1.5292	-0.35	-0.99583	37.652	216.589	18.287	157.070	-42.582	28.442	-51.135	248.302	23.149	198.837	274.671	198.722	246.544	163.901	2.154	-54.001	0.00027765	0.0003742	0.00021603	1248.1	7.643e-06	2.8325e-06	1253	345.74	2.8325e-06	3.276e-06	399.32	134.18	116.74	40.565	3.5884e-06	50.307	0.00055733	0.00055779	0.00015412	1275.4	6.074e-06	6.0542e-06	1279.5	352.32	6.0227e-06	6.0214e-06	407.37	138.02	120.19	41.742	6.0316e-06	51.972	275.826	45.363	-54.666	-53.210	59.664	178.328	-53.125	-48.278	147.419	126.578	-49.025	-44.158	-43.726	-39.551	139.168	-40.481	-8191	255	
728.679	1	1	0	0	0.25581	0.091552	0.11507	0.078325	0.091225	0.14696	0.20736	0.30881	0.15367	0.25024	0.21411	0.27742	0.21507	0.13807	0.18561	0.17536	-0.45	-0.24583	-1.1854	-0.79583	-0.6375	-1.0187	-0.33958	-0.96042	-1.0021	-0.16875	-1.0812	-0.65208	-0.46458	-1.2188	-0.61875	-0.77292	-6.657	227.901	97.447	164.177	15.860	138.195	-49.631	222.137	139.917	112.901	100.912	250.509	82.275	-10.198	232.074	236.330	0.00026006	0.00090104	0.0002818	1248.3	2.4746e-06	4.6855e-06	1252.4	342.1	5.3294e-06	1.1328e-05	398.84	134.45	117.38	40.467	3.7751e-06	50.491	0.00055094	0.0005531	0.00015408	1274.5	6.0426e-06	6.0813e-06	1280.1	351.71	6.0298e-06	6.026e-06	407.44	138.07	120.14	41.685	6.0366e-06	51.915	284.312	112.393	2.208	-52.999	138.732	128.435	-52.984	-48.402	95.450	119.880	-49.032	-44.435	-43.695	-39.310	98.682	-40.086	-8191	255	
728.775	1	1	0	0	0.34528	0.32448	0.33591	0.17087	0.076612	0.15831	0.32123	0.27967	0.1795	0.10588	0.2318	0.04509	0.21905	0.099994	0.13889	0.030516	-0.5125	-0.26667	-1.0583	-0.84167	-0.38333	-1.0667	-0.64167	-0.7875	-1.0167	-0.18542	-1.2375	-1.0208	-0.61458	-1.4125	-0.49167	-0.73958	49.577	18.563	205.974	163.327	268.887	-2.893	254.549	262.675	99.480	62.512	263.490	165.645	-24.716	286.358	245.587	175.067	0.00020586	0.00080418	0.00015659	1251.2	2.0189e-06	5.0472e-06	1258	343.87	3.3299e-06	7.8284e-06	397.04	134.8	116.37	40.484	8.3307e-06	50.448	0.00054747	0.00054789	0.00015242	1273.3	5.9969e-06	6.0261e-06	1280	351.5	6.034e-06	6.0204e-06	407.25	138.27	120.26	41.694	6.0611e-06	51.838	-61.683	2.177	-40.084	-53.287	19.751	145.855	-53.015	-48.321	-9.229	90.760	-48.933	-44.453	-43.754	-39.288	89.891	-40.265	-8191	255	
#DATA ENDS
