BOXY.EXE: ISS Imagent and Oximeter Data Acquisition Program Version 0.80
Ascii Record File

#ACQ INFORMATION
2  Detector Channels 
16  External MUX Channels 
1  Auxiliary Channels 
5000  Waveform (CCF) Frequency (Hz)
1  Waveforms Skipped 
30  Waveforms Averaged 
1  Cycles Averaged 
16  Acquisitions per Waveform 
10.0806  Updata Rate (Hz) 

#FILE INFORMATION
TRUE -- External MUX Channel results are PARSED.
FALSE -- AC DC and Phase are NOT grouped.
TRUE -- Companion Program Settings File CREATED.
FALSE -- AC data not excluded
FALSE -- DC data not excluded
FALSE -- Phase data not excluded
FALSE -- Auxillary Chn. data not excluded
Tab delimiters

#CALIBRATION STATE
TRUE -- Waveform Calibration Values APPLIED.


#AUX CALIBRATION VALUES
Val Type	aux-1	

Term	1.0000e+00	
Factor	0.0000e+00	


#WF CALIBRATION VALUES
A = Detector Channel
Val Type	A-AC1	A-AC2	A-AC3	A-AC4	A-AC5	A-AC6	A-AC7	A-AC8	A-AC9	A-AC10	A-AC11	A-AC12	A-AC13	A-AC14	A-AC15	A-AC16	A-DC1	A-DC2	A-DC3	A-DC4	A-DC5	A-DC6	A-DC7	A-DC8	A-DC9	A-DC10	A-DC11	A-DC12	A-DC13	A-DC14	A-DC15	A-DC16	A-Ph1	A-Ph2	A-Ph3	A-Ph4	A-Ph5	A-Ph6	A-Ph7	A-Ph8	A-Ph9	A-Ph10	A-Ph11	A-Ph12	A-Ph13	A-Ph14	A-Ph15	A-Ph16	

Term	0.00000e+00	0.00000e+00	0.00000e+00	0.00000e+00	0.00000e+00	0.00000e+00	0.00000e+00	0.00000e+00	0.00000e+00	0.00000e+00	0.00000e+00	0.00000e+00	0.00000e+00	0.00000e+00	0.00000e+00	0.00000e+00	0.00000e+00	0.00000e+00	0.00000e+00	0.00000e+00	0.00000e+00	0.00000e+00	0.00000e+00	0.00000e+00	0.00000e+00	0.00000e+00	0.00000e+00	0.00000e+00	0.00000e+00	0.00000e+00	0.00000e+00	0.00000e+00	0.00000e+00	0.00000e+00	0.00000e+00	0.00000e+00	0.00000e+00	0.00000e+00	0.00000e+00	0.00000e+00	0.00000e+00	0.00000e+00	0.00000e+00	0.00000e+00	0.00000e+00	0.00000e+00	0.00000e+00	0.00000e+00	
Factor	1.00000e+00	1.00000e+00	1.00000e+00	1.00000e+00	1.00000e+00	1.00000e+00	1.00000e+00	1.00000e+00	1.00000e+00	1.00000e+00	1.00000e+00	1.00000e+00	1.00000e+00	1.00000e+00	1.00000e+00	1.00000e+00	1.00000e+00	1.00000e+00	1.00000e+00	1.00000e+00	1.00000e+00	1.00000e+00	1.00000e+00	1.00000e+00	1.00000e+00	1.00000e+00	1.00000e+00	1.00000e+00	1.00000e+00	1.00000e+00	1.00000e+00	1.00000e+00	X	X	X	X	X	X	X	X	X	X	X	X	X	X	X	X	

B = Detector Channel
Val Type	B-AC1	B-AC2	B-AC3	B-AC4	B-AC5	B-AC6	B-AC7	B-AC8	B-AC9	B-AC10	B-AC11	B-AC12	B-AC13	B-AC14	B-AC15	B-AC16	B-DC1	B-DC2	B-DC3	B-DC4	B-DC5	B-DC6	B-DC7	B-DC8	B-DC9	B-DC10	B-DC11	B-DC12	B-DC13	B-DC14	B-DC15	B-DC16	B-Ph1	B-Ph2	B-Ph3	B-Ph4	B-Ph5	B-Ph6	B-Ph7	B-Ph8	B-Ph9	B-Ph10	B-Ph11	B-Ph12	B-Ph13	B-Ph14	B-Ph15	B-Ph16	

Term	0.00000e+00	0.00000e+00	0.00000e+00	0.00000e+00	0.00000e+00	0.00000e+00	0.00000e+00	0.00000e+00	0.00000e+00	0.00000e+00	0.00000e+00	0.00000e+00	0.00000e+00	0.00000e+00	0.00000e+00	0.00000e+00	0.00000e+00	0.00000e+00	0.00000e+00	0.00000e+00	0.00000e+00	0.00000e+00	0.00000e+00	0.00000e+00	0.00000e+00	0.00000e+00	0.00000e+00	0.00000e+00	0.00000e+00	0.00000e+00	0.00000e+00	0.00000e+00	-8.95078e+00	-1.28313e+02	-1.59213e+02	-1.83430e+02	-6.27312e+01	-7.13637e+01	-1.58223e+02	-1.62015e+02	-5.99673e+01	-9.13236e+01	-1.73512e+02	-1.71486e+02	-1.82993e+02	-1.77391e+02	-9.45175e+01	-1.50029e+02	
Factor	3.31521e-05	1.02412e-04	2.51838e-05	1.74125e-01	9.41655e-07	7.87002e-07	1.67823e-01	5.34825e-02	9.62964e-07	9.16794e-07	9.32518e-02	3.26786e-02	3.77044e-02	9.61610e-03	1.01061e-06	1.39087e-02	4.73983e-07	4.79203e-07	1.33295e-07	8.43310e-02	5.25646e-09	5.25144e-09	7.68524e-02	2.57750e-02	5.24916e-09	5.24987e-09	4.19250e-02	1.46082e-02	1.67917e-02	4.47682e-03	5.26103e-09	6.16901e-03	X	X	X	X	X	X	X	X	X	X	X	X	X	X	X	X	



#DISTANCE SETTINGS
A = Detector Channel
A-1	A-2	A-3	A-4	A-5	A-6	A-7	A-8	A-9	A-10	A-11	A-12	A-13	A-14	A-15	A-16	

2.5000e+00	3.0000e+00	2.5000e+00	3.0000e+00	2.0000e+00	3.0000e+00	1.5000e+00	3.0000e+00	3.0000e+00	3.0000e+00	3.0000e+00	3.0000e+00	3.0000e+00	3.0000e+00	1.5000e+00	3.0000e+00	

B = Detector Channel
B-1	B-2	B-3	B-4	B-5	B-6	B-7	B-8	B-9	B-10	B-11	B-12	B-13	B-14	B-15	B-16	

1.0000e+01	1.0000e+01	1.0000e+01	1.4400e+00	1.0000e+01	1.0000e+01	1.5100e+00	1.9400e+00	1.0000e+01	1.0000e+01	1.9900e+00	2.4900e+00	2.4100e+00	2.9000e+00	1.0000e+01	2.9800e+00	




#DATA BEGINS
time	group	step	mark	flag	A-AC1	A-AC2	A-AC3	A-AC4	A-AC5	A-AC6	A-AC7	A-AC8	A-AC9	A-AC10	A-AC11	A-AC12	A-AC13	A-AC14	A-AC15	A-AC16	A-DC1	A-DC2	A-DC3	A-DC4	A-DC5	A-DC6	A-DC7	A-DC8	A-DC9	A-DC10	A-DC11	A-DC12	A-DC13	A-DC14	A-DC15	A-DC16	A-Ph1	A-Ph2	A-Ph3	A-Ph4	A-Ph5	A-Ph6	A-Ph7	A-Ph8	A-Ph9	A-Ph10	A-Ph11	A-Ph12	A-Ph13	A-Ph14	A-Ph15	A-Ph16	B-AC1	B-AC2	B-AC3	B-AC4	B-AC5	B-AC6	B-AC7	B-AC8	B-AC9	B-AC10	B-AC11	B-AC12	B-AC13	B-AC14	B-AC15	B-AC16	B-DC1	B-DC2	B-DC3	B-DC4	B-DC5	B-DC6	B-DC7	B-DC8	B-DC9	B-DC10	B-DC11	B-DC12	B-DC13	B-DC14	B-DC15	B-DC16	B-Ph1	B-Ph2	B-Ph3	B-Ph4	B-Ph5	B-Ph6	B-Ph7	B-Ph8	B-Ph9	B-Ph10	B-Ph11	B-Ph12	B-Ph13	B-Ph14	B-Ph15	B-Ph16	aux-1	digaux	

1844.457	1	1	0	512	0.17412	0.07608	0.23483	0.24533	0.307	0.27599	0.16393	0.17153	0.22724	0.030087	0.15957	0.24699	0.29795	0.036633	0.30134	0.29087	-0.23125	-0.58125	-1.2	-0.475	-1.0167	-1.0187	-0.47083	-1.4813	-0.77917	-0.4	-1.3104	-0.58333	-1.1458	-1.2396	-0.3125	-1.2229	65.381	31.160	-75.291	165.443	8.645	-77.391	105.297	176.732	122.446	-63.332	103.151	-18.220	175.993	-151.009	59.861	-127.968	0.001065	0.0001547	0.0001856	849.14	4.9485e-06	8.9021e-07	662.7	342.35	5.0549e-06	4.4618e-06	290.07	132.65	156.51	85.085	1.3616e-06	72.57	0.00021077	0.00020387	5.6008e-05	793.7	2.2244e-06	2.2049e-06	624.63	315.16	2.222e-06	2.2277e-06	265.71	118.76	135.31	75.218	2.2008e-06	63.66	-40.227	83.940	-130.349	-149.233	-23.501	-158.352	-150.694	-143.923	-7.529	-109.232	-147.080	-143.085	-139.984	-135.827	-85.952	-140.074	-8191	255	
1844.553	1	1	0	0	0.017722	0.076643	0.26995	0.25578	0.36624	0.23141	0.1801	0.33663	0.22928	0.14032	0.010711	0.12395	0.25922	0.37164	0.19899	0.50764	-0.58958	-0.47083	-1.3333	-0.80833	-0.81458	-1.3167	-0.26875	-1.4438	-1.0833	-0.71042	-1.4312	-0.60625	-0.9875	-1.425	-0.73958	-1.2687	83.283	81.204	92.721	-154.530	-90.570	72.140	-129.732	126.824	-128.879	-159.712	94.476	-45.809	151.184	154.309	54.267	76.551	0.0010129	0.00035575	0.00013964	851.18	1.2992e-06	5.2539e-06	659.65	340.87	6.8425e-06	7.0872e-06	290.47	132.73	156.44	85.521	6.1566e-06	72.701	0.00021134	0.00020281	5.5457e-05	794.52	2.2365e-06	2.1998e-06	624.13	314.98	2.1869e-06	2.2132e-06	266.27	118.88	135.2	75.603	2.2315e-06	64.007	-31.788	-72.651	-137.694	-149.073	36.155	-15.086	-150.794	-143.859	17.277	-75.670	-147.327	-142.831	-139.516	-135.754	-116.661	-140.197	-8191	255	
1844.649	1	1	0	0	0.039791	0.27138	0.090419	0.10424	0.21595	0.24222	0.21099	0.083849	0.3683	0.18387	0.16781	0.17627	0.075883	0.16358	0.23409	0.27805	-0.73958	-0.71458	-1.1521	-0.75417	-0.7875	-1.1938	-0.5375	-1.1354	-1.0979	-0.54583	-1.4562	-0.92083	-0.69792	-1.5167	-0.50208	-1.0187	-140.610	16.429	-10.421	31.966	-1.831	-87.385	136.459	-117.285	16.321	-59.639	179.738	120.768	-149.659	102.916	148.563	128.007	0.00088948	0.00055514	2.3647e-05	846.88	6.7128e-07	5.0292e-06	661.99	343.54	3.9343e-06	1.9386e-06	292.45	133.14	156.74	85.383	3.2036e-06	73.019	0.00020965	0.00020178	5.6468e-05	794.16	2.2253e-06	2.1936e-06	626.16	316.19	2.2134e-06	2.2089e-06	267.22	119.52	135.31	75.431	2.2381e-06	64.273	-37.958	-79.690	-147.971	-149.143	118.115	33.134	-150.907	-144.099	-73.624	-65.458	-147.279	-143.099	-139.752	-135.957	-80.617	-140.532	-8191	255	
1844.770	1	1	0	0	0.18406	0.18096	0.10543	0.18035	0.15534	0.31948	0.28107	0.20894	0.21793	0.043466	0.06306	0.011622	0.34661	0.33323	0.3522	0.19952	-0.67083	-0.34375	-1.0792	-0.80208	-0.60625	-1.2542	-0.57292	-1.05	-1.0521	-0.45417	-1.3042	-0.69167	-0.6875	-1.3542	-0.78542	-1.1479	14.424	-28.227	-48.613	-69.244	98.843	56.467	129.329	152.670	-29.373	-66.312	36.391	-61.218	-154.912	134.484	119.508	-60.158	0.00098222	0.00089446	8.5852e-05	853.81	2.4783e-06	4.5618e-06	662.74	343.82	5.5959e-06	7.4625e-06	292.5	133.12	156.51	85.143	9.791e-06	72.795	0.00021004	0.00020341	5.6613e-05	797.01	2.2445e-06	2.2147e-06	627.63	315.99	2.2287e-06	2.2251e-06	266.85	119.41	135.34	75.475	2.2238e-06	64.013	-38.708	-94.472	-88.898	-149.521	-79.852	8.613	-151.236	-144.321	34.383	32.778	-147.936	-143.407	-140.001	-135.982	-43.362	-139.743	-8191	255	
1844.864	1	1	0	0	0.12116	0.072812	0.39202	0.097648	0.27169	0.20487	0.17471	0.16495	0.10871	0.13785	0.051892	0.19487	0.25426	0.40239	0.19813	0.29801	-0.775	-0.27292	-0.98333	-0.97292	-0.36667	-1.3542	-0.95417	-0.9	-1.3521	-0.59167	-1.1625	-1.0083	-0.65625	-1.5	-0.80208	-0.99167	-73.030	-121.022	164.961	1.289	21.124	49.092	133.833	144.825	-61.532	-51.134	-86.542	186.629	159.322	98.656	40.581	121.251	0.0010764	0.0007201	9.0453e-05	849.82	4.5347e-06	2.3537e-06	660.29	341.82	5.2454e-06	3.0302e-06	288.99	132.57	156.3	85.282	3.4221e-06	72.285	0.00021041	0.00020262	5.6882e-05	794.49	2.2314e-06	2.2244e-06	624.14	315.62	2.1986e-06	2.2308e-06	264.9	118.83	134.99	75.24	2.2318e-06	63.637	-37.421	11.098	130.334	-148.555	-8.131	-1.887	-150.538	-143.578	-14.030	-99.331	-146.784	-142.579	-139.383	-135.348	-4.881	-139.794	-8191	255	
1844.938	1	1	0	0	0.23033	0.22427	0.18034	0.14406	0.14203	0.18621	0.25893	0.40297	0.2575	0.20913	0.25518	0.3749	0.15255	0.37672	0.075816	0.18237	-0.64583	-0.39375	-1.0583	-1.1125	-0.36667	-1.275	-0.9	-0.92292	-1.1417	-0.46875	-1.1708	-1.1812	-0.39792	-1.2729	-0.78333	-0.80625	-97.354	102.008	45.952	-20.134	-85.743	41.950	144.676	195.335	-149.196	168.397	-101.444	147.928	175.478	136.674	-1.381	185.631	0.00099624	0.00087694	0.00012928	851.51	2.8218e-06	2.596e-06	657.73	343.05	6.099e-06	4.3217e-06	288.49	132.45	156.32	85.385	3.0359e-06	72.566	0.00021082	0.0002026	5.6069e-05	793.81	2.223e-06	2.2259e-06	622.37	315.37	2.2218e-06	2.2185e-06	264.9	118.66	135.09	75.456	2.2121e-06	63.85	-39.255	-94.590	-89.859	-148.646	64.300	-51.772	-150.243	-143.687	-109.245	-60.443	-146.662	-142.633	-139.504	-135.627	-95.898	-139.651	-8191	255	
1845.034	1	1	0	0	0.11992	0.25621	0.2191	0.037844	0.19053	0.12815	0.3447	0.13236	0.070151	0.16898	0.29294	0.12547	0.36736	0.016102	0.32641	0.43236	-0.8875	-0.33542	-1.0688	-1.225	-0.45417	-1.2667	-0.87708	-0.69583	-1.4042	-0.52708	-1.1375	-1.2854	-0.39167	-1.4729	-1.0479	-0.49583	118.950	-34.877	-146.186	117.969	9.382	-91.942	145.090	-101.236	59.584	-105.425	-2.822	162.221	-136.693	197.269	-4.441	132.825	0.0011377	0.00020775	5.5919e-05	850.44	4.7977e-06	3.7211e-06	661.14	340.65	4.921e-06	1.7127e-06	292.12	132.68	157.43	85.328	5.5489e-06	73.096	0.0002112	0.00020374	5.6115e-05	794.84	2.222e-06	2.2544e-06	622.8	314.41	2.2327e-06	2.232e-06	265.83	118.91	135.3	75.519	2.2469e-06	64.132	-29.708	-35.301	-81.093	-148.623	4.310	-13.417	-150.301	-143.603	-34.341	9.043	-146.939	-142.297	-138.929	-135.120	-28.803	-139.678	-8191	255	
1845.130	1	1	0	0	0.34649	0.14347	0.058666	0.20443	0.29214	0.14956	0.37335	0.10383	0.069274	0.28598	0.24403	0.31501	0.23393	0.47066	0.29113	0.1111	-0.82708	-0.48958	-0.725	-1.2292	-0.45417	-1.2833	-0.975	-0.60625	-1.1771	-0.76875	-0.77292	-1.4104	-0.48125	-1.2479	-0.84792	-0.62917	-71.562	21.581	-3.198	115.980	-43.872	43.034	114.443	78.681	29.297	-36.018	112.899	192.012	-85.745	195.215	187.270	116.601	0.00096783	0.00068177	0.00011049	846.34	3.8037e-06	4.7272e-06	660.28	342.08	7.9226e-06	3.8904e-06	291.11	133.73	156.59	85.468	9.5136e-06	73.357	0.0002105	0.0002007	5.7053e-05	792.86	2.2485e-06	2.2203e-06	623.88	315.02	2.2458e-06	2.2226e-06	266.35	119.88	135.45	75.768	2.2494e-06	64.358	-42.353	-41.412	184.810	-148.771	37.668	36.270	-150.095	-143.318	-85.993	-98.121	-146.735	-142.614	-139.438	-135.440	-76.778	-139.651	-8191	255	
1845.249	1	1	0	0	0.20744	0.21387	0.11736	0.13528	0.061747	0.19675	0.14204	0.36239	0.2895	0.033118	0.08988	0.084793	0.13412	0.018222	0.011011	0.18002	-0.81667	-0.75208	-0.49167	-1.2333	-0.76875	-0.98542	-1.3583	-0.40208	-1.2854	-0.84792	-0.74583	-1.2646	-0.64583	-1.0083	-1.0396	-0.55417	-134.254	101.898	-121.746	168.878	-26.227	137.438	-126.401	107.967	84.092	-71.494	76.303	148.327	85.282	-17.293	-90.162	157.253	0.00099042	0.00057556	8.3291e-05	851.89	8.6905e-06	5.0025e-06	658.19	342.16	4.751e-06	4.0189e-06	289.31	132.78	156.78	85.343	5.1178e-06	72.339	0.00021362	0.00020313	5.6702e-05	794.92	2.2348e-06	2.2266e-06	624.67	315.13	2.2358e-06	2.2056e-06	265.01	119.39	135.57	75.505	2.2419e-06	63.866	-45.938	-74.543	19.465	-148.493	27.210	-116.540	-150.383	-143.692	-82.005	-52.147	-146.833	-142.335	-139.647	-135.234	-109.764	-139.616	-8191	255	
1845.345	1	1	0	0	0.19492	0.24626	0.14102	0.22159	0.03207	0.21482	0.18311	0.23965	0.22695	0.40212	0.24651	0.33364	0.12252	0.22435	0.12496	0.32143	-0.73958	-0.78542	-0.46875	-1.4458	-0.60625	-0.75625	-1.3312	-0.40833	-1.2167	-0.95833	-0.525	-1.3375	-0.60208	-1.0688	-1.1354	-0.48125	-46.741	-29.901	-31.405	123.821	-133.528	6.267	121.706	195.697	139.197	193.609	168.500	-107.111	70.422	174.594	-154.913	39.058	0.00090945	0.00023103	0.00030671	849.46	4.1352e-06	4.1071e-06	654.55	341.95	3.0012e-06	1.663e-06	291.43	132.89	156.15	85.701	3.4951e-06	72.839	0.00021306	0.00020383	5.7536e-05	793.64	2.224e-06	2.2303e-06	621.7	313.81	2.2235e-06	2.2261e-06	265.67	119.28	135.14	75.532	2.2258e-06	63.835	-31.932	20.322	-63.394	-148.774	-60.085	-96.723	-150.048	-143.586	53.730	-53.111	-147.000	-142.562	-139.219	-135.243	-32.207	-139.456	-8191	255	
1845.441	1	1	0	0	0.084196	0.20336	0.048865	0.050263	0.2764	0.25902	0.20709	0.14003	0.1135	0.10295	0.25418	0.14304	0.30424	0.1957	0.18266	0.087709	-0.76042	-0.91458	-0.34583	-1.4521	-0.55208	-0.67292	-1.5187	-0.58125	-1.2042	-1.1063	-0.52083	-1.2979	-0.84167	-0.85625	-1.3	-0.60625	103.265	-161.645	-91.763	76.518	118.307	-129.918	157.550	1.738	131.291	-88.390	153.158	167.212	-110.388	129.368	118.653	143.430	0.0010625	0.00068111	0.00015371	849.47	3.6624e-06	6.4167e-07	659.22	341.5	1.6071e-06	5.9505e-06	288.88	133.03	157.56	85.485	4.9075e-06	72.885	0.00021156	0.00020318	5.6758e-05	793.17	2.2437e-06	2.2515e-06	621.68	314.16	2.2337e-06	2.2191e-06	264.88	119.4	135.8	75.595	2.2469e-06	64.073	-45.561	-46.170	-123.009	-148.392	23.271	192.214	-150.185	-143.954	-78.416	-71.476	-147.322	-142.939	-139.933	-135.779	-157.693	-140.362	-8191	255	
1845.562	1	1	0	0	0.31217	0.1139	0.21201	0.17009	0.098291	0.18972	0.04341	0.45076	0.16036	0.22956	0.13803	0.20165	0.31094	0.11478	0.17198	0.22258	-0.61875	-1.0917	-0.45833	-1.3167	-0.67292	-0.52708	-1.1688	-0.78542	-0.91875	-1.2292	-0.65417	-1.1979	-1.0104	-0.90833	-1.3271	-0.6	-146.385	41.352	-94.472	173.702	-13.417	133.232	-133.940	164.926	-86.405	-71.072	-106.574	151.295	167.942	-57.158	132.566	25.708	0.0011045	0.00057628	0.00022451	849.87	5.4322e-06	6.3367e-06	662.7	343	2.4532e-06	2.7858e-06	290.38	134.16	156.97	85.848	2.1612e-06	73.462	0.00021256	0.00020233	5.6994e-05	793.44	2.2475e-06	2.228e-06	626.65	315.12	2.2669e-06	2.222e-06	265.76	119.85	135.74	75.791	2.2219e-06	64.38	-40.753	131.426	-66.055	-149.066	-54.759	-13.609	-150.236	-144.178	-11.549	-35.760	-147.055	-142.567	-139.669	-135.353	-53.140	-139.832	-8191	255	
1845.633	1	1	0	0	0.28687	0.11719	0.15499	0.18775	0.2866	0.064769	0.0816	0.20664	0.029421	0.13946	0.063132	0.18098	0.20335	0.52911	0.068575	0.099625	-0.35	-1.2083	-0.29583	-1.3104	-0.9375	-0.35833	-1.3958	-0.76667	-0.72917	-1.1979	-0.75833	-1.1604	-0.91667	-0.46458	-1.3583	-0.74375	166.010	-33.980	35.526	166.160	190.801	-158.376	194.967	167.304	111.936	-142.043	-156.654	-53.901	193.548	-161.894	36.056	127.725	0.0010779	0.00052189	4.7998e-05	850.27	4.5405e-07	4.7935e-06	665.49	341.57	3.3853e-06	2.7235e-06	293.95	133.5	157.12	85.918	4.4894e-06	73.488	0.00021187	0.00020261	5.6824e-05	794.93	2.2221e-06	2.24e-06	629.26	315.27	2.2191e-06	2.2001e-06	268.26	119.86	135.55	75.933	2.2221e-06	64.466	-47.480	-142.620	-109.824	-148.786	124.594	-8.826	-150.558	-144.108	2.498	15.128	-147.516	-143.108	-139.962	-135.731	19.977	-140.035	-8191	255	
1845.730	1	1	0	0	0.18325	0.19422	0.27836	0.15894	0.25861	0.14673	0.24483	0.31511	0.24865	0.17062	0.24464	0.28156	0.099229	0.21645	0.17504	0.27071	-0.33542	-1.3458	-0.33542	-1.2229	-1.0875	-0.40625	-1.0896	-0.78542	-0.53125	-1.3875	-0.55	-0.93542	-1.1167	-0.68125	-0.95	-0.98542	155.023	-36.574	85.320	119.168	12.480	-149.019	162.513	91.864	-20.690	-141.858	-75.713	121.120	-121.621	175.297	89.291	65.730	0.0010425	0.0002472	0.00014598	852.49	6.3595e-07	3.754e-06	664.87	342.96	5.3388e-06	2.1099e-06	290.43	133.54	156.84	85.656	5.4719e-06	73.098	0.0002115	0.0002015	5.6423e-05	796.63	2.2297e-06	2.2217e-06	628.58	315.54	2.2082e-06	2.2091e-06	266.86	119.62	135.39	75.633	2.2184e-06	64.014	-37.716	-93.000	-151.944	-149.153	31.871	-31.964	-150.674	-144.139	-5.339	-9.645	-147.186	-143.117	-140.021	-136.024	-118.754	-140.104	-8191	255	
1845.850	1	1	0	0	0.21302	0.061647	0.075998	0.072698	0.068064	0.081024	0.047215	0.27639	0.29743	0.11875	0.078115	0.142	0.11523	0.13323	0.30032	0.2344	-0.21667	-1.3042	-0.67083	-1.1125	-1.2125	-0.41875	-1.3813	-1	-0.38125	-1.2854	-0.76875	-0.88125	-1.4333	-0.69375	-1.0896	-0.99792	133.884	73.612	134.307	147.014	162.157	-47.818	173.863	174.683	-59.040	-161.842	-125.127	156.597	-34.182	52.877	35.723	94.304	0.0010806	0.0004071	0.00019774	852.75	9.6921e-06	2.5549e-06	664.91	342.61	1.7698e-06	4.0778e-06	293.12	133.49	155.87	85.69	6.8937e-06	72.864	0.00021186	0.00020309	5.5929e-05	796.76	2.2039e-06	2.2134e-06	628.15	315.46	2.2276e-06	2.1988e-06	267.36	119.52	135.24	75.601	2.2191e-06	64.052	-43.154	189.130	-112.856	-149.216	-57.231	0.825	-150.654	-144.093	80.748	-36.297	-147.431	-143.119	-139.974	-135.951	-48.908	-140.196	-8191	255	
1845.946	1	1	0	0	0.2812	0.17835	0.18925	0.23022	0.073683	0.081924	0.21036	0.039241	0.17544	0.36672	0.29332	0.25359	0.15121	0.18294	0.29602	0.24029	-0.06875	-1.2812	-0.5375	-0.93542	-1.0938	-0.37708	-1.2146	-1	-0.30625	-1.1479	-0.60208	-0.82917	-1.3792	-0.675	-0.90417	-0.95417	84.082	2.700	-28.689	158.972	-107.993	162.430	150.787	194.880	-33.796	-38.282	193.056	176.876	45.251	57.934	174.162	-3.496	0.0010132	0.00054012	7.4877e-05	853.06	4.0989e-06	8.6543e-06	666.93	342.39	2.6676e-06	5.5536e-06	293.4	133.62	156.14	85.29	5.0802e-06	73.214	0.00021096	0.00020188	5.6182e-05	797.25	2.2161e-06	2.1981e-06	628.99	315.38	2.2345e-06	2.2015e-06	267.61	119.74	135.15	75.497	2.2449e-06	64.279	-41.257	-65.838	-158.115	-148.973	52.243	21.715	-150.439	-144.249	-38.403	-26.781	-147.487	-143.122	-139.732	-135.755	-9.686	-140.225	-8191	255	
1846.043	1	1	0	0	0.23089	0.11723	0.066912	0.10014	0.17199	0.33923	0.38377	0.347	0.15358	0.059155	0.17918	0.14799	0.18155	0.28536	0.17197	0.14982	-0.12917	-1.2125	-0.65208	-0.89167	-1.3708	-0.41458	-1.3167	-1.1604	-0.425	-1.2292	-0.90417	-0.75417	-1.2896	-0.725	-1.0271	-1.1646	-122.012	194.991	187.208	158.518	155.153	41.063	-65.388	98.701	-61.062	-93.142	81.953	86.228	-144.344	149.632	148.772	-132.972	0.0012026	0.00052275	0.00011089	852.79	1.141e-06	3.635e-06	664.19	342.31	7.0507e-06	2.6783e-06	292.83	134.44	157.09	85.859	6.7487e-06	73.223	0.00021045	0.00020064	5.5479e-05	796.17	2.2065e-06	2.2353e-06	629.91	315.82	2.2445e-06	2.218e-06	267.98	120.32	135.6	75.967	2.2423e-06	64.714	-41.211	-140.708	-158.620	-148.926	108.304	28.017	-150.566	-144.265	-8.247	-36.278	-147.468	-142.713	-139.850	-135.788	-25.546	-140.237	-8191	255	
1846.161	1	1	0	0	0.26455	0.062561	0.17742	0.13294	0.14277	0.21076	0.048574	0.21573	0.18056	0.23217	0.25649	0.12331	0.21402	0.43937	0.095924	0.11658	-0.19167	-1.0458	-0.925	-0.55625	-1.3813	-0.37083	-1.0938	-1.5271	-0.3875	-1.1021	-0.92292	-0.59792	-1.5187	-0.83333	-0.79792	-1.4521	-9.846	-69.606	16.122	-140.051	-136.253	104.037	11.274	143.599	-91.262	-20.641	119.166	-32.438	177.348	132.339	11.961	57.777	0.0011857	0.00037193	0.00020269	855.82	3.2774e-06	3.1586e-06	668.91	343.86	7.5223e-06	3.3575e-06	294.77	134.16	157.82	85.958	8.8406e-06	73.428	0.00021241	0.00020255	5.6038e-05	799.4	2.2065e-06	2.228e-06	631.95	316.83	2.2338e-06	2.1979e-06	268.95	120.57	136.08	75.989	2.2429e-06	64.534	-37.903	-15.576	-44.730	-149.058	41.397	14.217	-150.296	-144.125	-58.711	-57.953	-147.243	-142.898	-139.519	-135.984	-87.985	-140.269	-8191	255	
1846.233	1	1	0	0	0.11352	0.22755	0.080934	0.20001	0.089984	0.21025	0.1615	0.10149	0.26438	0.13705	0.22164	0.17196	0.23191	0.065134	0.29631	0.19604	-0.125	-1.1292	-0.9	-0.52083	-1.2771	-0.74792	-0.92917	-1.5688	-0.56667	-1.1562	-0.9375	-0.46667	-1.3833	-0.79167	-0.72917	-1.3396	-46.049	-47.335	73.889	-132.452	-22.482	127.073	168.261	191.725	-23.592	135.217	-44.291	135.046	183.037	40.421	-37.605	146.163	0.0010386	0.00010385	7.514e-05	851.44	5.0652e-06	5.2258e-06	668.96	343.35	5.2039e-06	2.7446e-06	292.42	134.88	157.38	85.872	5.4361e-06	73.287	0.00021303	0.00020189	5.6507e-05	797.04	2.2259e-06	2.2038e-06	631.57	315.99	2.2245e-06	2.2012e-06	268	120.27	135.62	75.829	2.2394e-06	64.394	-39.913	116.117	198.028	-149.153	62.080	-48.860	-150.311	-143.967	-34.171	-36.845	-147.533	-143.067	-139.922	-135.960	-91.293	-140.168	-8191	255	
1846.329	1	1	0	0	0.032776	0.18725	0.06521	0.11696	0.27331	0.074407	0.045615	0.14526	0.1113	0.41079	0.12764	0.41381	0.31344	0.17154	0.039933	0.34481	-0.17917	-0.825	-1.2437	-0.36042	-1.2354	-0.79792	-0.75208	-1.3833	-0.75833	-1.2896	-1.2958	-0.50625	-1.0146	-1.2458	-0.54167	-1.3917	58.220	-89.293	62.996	127.984	72.760	-72.323	-138.471	-106.826	-135.008	-8.129	-151.137	-122.575	126.941	-119.927	78.107	169.431	0.0010151	8.5525e-05	0.00013706	850.99	2.5517e-06	3.4315e-06	668.45	343.7	5.4393e-06	5.052e-06	295.2	133.66	156.89	85.832	4.0696e-06	73.625	0.00021169	0.00020288	5.6258e-05	796.74	2.222e-06	2.2189e-06	631.12	316.22	2.2314e-06	2.2081e-06	268.34	120.11	135.65	75.778	2.238e-06	64.607	-39.011	10.948	-102.527	-149.480	53.094	19.526	-150.761	-144.094	-1.013	-46.965	-146.959	-142.655	-139.754	-135.934	-104.854	-140.091	-8191	255	
1846.450	1	1	0	0	0.31432	0.096061	0.055735	0.20585	0.53523	0.17692	0.22887	0.1702	0.15273	0.20891	0.15919	0.092171	0.2297	0.47322	0.050568	0.19643	-0.32083	-0.78333	-1.0938	-0.4625	-1.0646	-1.0625	-0.64792	-1.2667	-0.59583	-0.65	-1.2042	-0.43542	-1.1479	-1.2708	-0.575	-1.4104	-12.965	-55.413	-151.456	67.658	-72.566	137.062	146.279	-111.908	-62.870	-12.042	97.638	147.509	-5.477	175.752	86.565	173.078	0.0012006	0.00043853	0.00012047	852.69	3.2998e-06	2.1775e-06	668.08	342.85	5.5685e-06	8.12e-06	293.56	134.12	157.52	85.988	5.0163e-06	73.878	0.00021247	0.00020479	5.6703e-05	797.27	2.226e-06	2.2323e-06	631.82	316.09	2.2375e-06	2.2363e-06	268.37	120.69	135.81	75.993	2.2533e-06	64.887	-42.683	-146.428	168.665	-148.660	174.009	85.827	-150.357	-143.833	-38.707	-76.461	-147.255	-142.925	-139.731	-135.845	-33.153	-140.136	-8191	255	
1846.546	1	1	0	0	0.15342	0.24011	0.067052	0.18349	0.30768	0.27359	0.37321	0.31945	0.40105	0.17203	0.056319	0.12759	0.19234	0.19011	0.11267	0.075687	-0.27708	-0.75	-1.1604	-0.67083	-0.93333	-0.99583	-0.575	-1.3083	-0.61042	-0.675	-1.4688	-0.45417	-0.92292	-1.4521	-0.66458	-1.4312	129.824	-77.609	139.428	69.583	145.867	-151.144	144.020	-63.558	137.139	50.327	15.635	-103.946	-125.081	99.124	135.008	182.489	0.0010205	0.00051057	0.00014015	851.11	3.9983e-06	4.036e-06	671.15	344.2	4.1375e-06	3.5718e-06	293.05	133.67	157.67	86.122	4.2962e-06	74.019	0.00021222	0.00020353	5.7056e-05	797.62	2.2559e-06	2.2131e-06	633.35	316.81	2.2412e-06	2.2348e-06	268.56	120.8	136.14	76.165	2.2584e-06	65.068	-46.972	-16.937	-73.034	-149.086	0.490	-5.601	-150.437	-143.756	-63.335	-45.320	-146.746	-142.594	-139.504	-135.669	-104.635	-139.863	-8191	255	
1846.642	1	1	0	0	0.19505	0.046264	0.15413	0.21116	0.094501	0.035475	0.16233	0.30533	0.084788	0.18693	0.2009	0.25852	0.15175	0.5491	0.15527	0.19716	-0.44375	-0.68542	-1.2396	-0.575	-0.975	-1.2292	-0.61875	-1.2875	-0.77917	-0.52083	-1.4604	-0.57292	-0.94792	-1.5104	-0.525	-1.1125	-154.310	131.335	-17.250	128.249	-42.212	106.119	-42.550	89.087	-114.411	-79.510	138.900	-119.701	-39.737	198.053	134.712	184.365	0.0012251	0.00011873	2.1089e-05	852.15	1.6244e-06	3.3831e-06	665.27	344.63	4.1944e-06	3.749e-06	294.68	134.51	157.85	86.065	6.95e-06	73.993	0.00021184	0.00020446	5.6119e-05	797.22	2.2315e-06	2.2267e-06	631.06	316.35	2.2477e-06	2.2573e-06	269.44	120.7	136.39	75.947	2.2509e-06	64.927	-43.774	-25.299	-98.710	-148.646	-86.910	-23.787	-150.697	-143.699	-35.147	-48.335	-146.929	-142.436	-139.495	-135.655	-97.912	-139.774	-8191	255	
1846.738	1	1	0	0	0.067989	0.21556	0.27988	0.075651	0.23768	0.1907	0.20835	0.16016	0.18151	0.036889	0.25912	0.086405	0.29546	0.15392	0.08285	0.1169	-0.56458	-0.48125	-1.3167	-0.71667	-0.79583	-1.3167	-0.68542	-1.1792	-0.88333	-0.51667	-1.2146	-0.71042	-0.76875	-1.5146	-0.69375	-1.0583	-97.730	-48.479	-31.861	110.744	153.926	27.079	98.457	168.997	184.036	-145.638	-129.245	-60.329	79.044	129.952	17.582	85.748	0.0012364	0.00010099	0.00020677	852.78	6.2099e-06	4.4979e-06	669.51	342.49	3.254e-06	2.4736e-06	294.36	134.22	157.24	85.799	7.4464e-06	74.01	0.00021127	0.00020577	5.6873e-05	795.76	2.2541e-06	2.2198e-06	630.95	316.03	2.2295e-06	2.2493e-06	268.06	120.2	135.83	75.826	2.278e-06	64.652	-38.514	24.689	-51.359	-148.906	-14.097	-12.737	-150.499	-143.569	-92.041	96.736	-147.012	-142.368	-139.232	-135.620	-31.916	-139.764	-8191	255	
1846.810	1	1	0	0	0.21376	0.17717	0.15764	0.32631	0.066835	0.11058	0.10741	0.27802	0.14166	0.035979	0.15046	0.46667	0.32763	0.24136	0.096082	0.079934	-0.59792	-0.51458	-1.1021	-0.61667	-0.5375	-1.1979	-0.61042	-1.1437	-0.98333	-0.57083	-1.1417	-0.78333	-0.89167	-1.5354	-0.675	-1.1437	28.887	-62.048	-84.724	96.303	-85.839	-82.011	-17.901	172.770	124.118	175.848	169.250	167.918	148.979	175.799	43.256	163.667	0.00084985	0.00068485	0.00028952	848.57	4.8121e-06	1.6662e-06	664.31	342.93	1.1063e-05	2.1991e-06	294	133.79	158.05	86.208	4.8048e-06	73.698	0.00021057	0.00020463	5.6341e-05	795.02	2.2596e-06	2.224e-06	629.72	315.65	2.2199e-06	2.2402e-06	268.45	120.01	136.26	76.033	2.2336e-06	64.79	-33.893	-123.614	-131.696	-148.680	61.464	36.597	-150.452	-144.346	-46.350	-57.548	-146.716	-142.402	-139.320	-135.196	-55.447	-139.840	-8191	255	
1846.931	1	1	0	0	0.31186	0.25591	0.21331	0.24707	0.084104	0.043572	0.11218	0.21961	0.12431	0.054886	0.2664	0.34074	0.015276	0.55444	0.14044	0.17277	-0.65	-0.30417	-1.1542	-1.0063	-0.48542	-1.3604	-0.72917	-0.96042	-1.1104	-0.50833	-1.2604	-1.2146	-0.67708	-1.4792	-0.45208	-0.87708	89.620	126.785	-56.079	-122.661	-135.605	118.591	49.640	56.003	-13.031	44.936	101.612	155.633	9.243	189.232	184.234	80.880	0.00095563	0.00085708	2.5823e-05	850.63	2.6522e-06	2.6267e-06	663.95	343.52	3.9503e-06	3.4224e-06	291.82	133.88	156.54	86.26	8.8161e-07	74.3	0.00021335	0.00020541	5.707e-05	795.42	2.2542e-06	2.2241e-06	630.47	316.04	2.2378e-06	2.237e-06	268.3	120.51	135.88	76.201	2.2284e-06	65.083	-45.485	-36.185	46.324	-148.507	-100.002	42.995	-150.586	-143.469	-1.249	-4.261	-146.566	-142.608	-139.095	-135.463	27.934	-139.608	-8191	255	
1847.027	1	1	0	0	0.12958	0.29925	0.16767	0.32234	0.17632	0.27486	0.23989	0.12063	0.20624	0.21183	0.046962	0.17083	0.30956	0.27155	0.21132	0.24052	-1.0312	-0.53542	-0.96458	-1.2021	-0.4375	-1.275	-0.75833	-0.80208	-1.2521	-0.49583	-1.0604	-1.0292	-0.58125	-1.3792	-0.70417	-0.80833	-130.701	-105.419	72.822	175.897	25.042	123.393	110.138	62.405	175.991	-61.851	33.755	62.510	152.484	-136.346	-64.000	116.236	0.0010447	0.00030926	0.00016162	853.51	7.931e-06	1.6923e-06	668.77	343.81	6.2115e-06	2.386e-06	294	134.86	156.97	86.298	2.5411e-06	74.414	0.00021213	0.00020483	5.6343e-05	796.79	2.27e-06	2.2388e-06	632.18	316.83	2.2365e-06	2.2523e-06	269.71	120.84	135.93	76.311	2.2352e-06	65.278	-36.046	119.987	-119.080	-148.454	-19.660	-77.326	-150.461	-143.562	-75.099	-49.414	-146.777	-142.411	-139.235	-135.304	-67.659	-139.316	-8191	255	
1847.123	1	1	0	0	0.13401	0.15831	0.15783	0.24785	0.16178	0.19017	0.40717	0.21002	0.28845	0.068943	0.19605	0.11476	0.19558	0.31112	0.19985	0.39023	-0.7625	-0.48542	-0.975	-1.0979	-0.33542	-1.2229	-0.88542	-0.92708	-1.4083	-0.36042	-0.875	-1.2458	-0.35833	-1.3438	-0.72292	-0.625	192.456	194.641	101.819	100.891	-51.677	-49.117	124.569	163.469	35.216	-35.749	69.366	85.843	162.555	180.941	-62.355	87.667	0.00095709	0.00061066	0.00010395	852.01	5.1461e-06	1.3209e-06	667.86	344.14	5.3267e-06	7.0813e-06	295.12	134.28	157.03	85.844	1.0004e-05	73.72	0.0002113	0.00020337	5.68e-05	796.44	2.2497e-06	2.2203e-06	631.83	316.79	2.2352e-06	2.2192e-06	269.31	120.29	135.85	75.997	2.2124e-06	64.843	-39.112	25.129	-45.626	-148.636	-95.091	-156.024	-149.973	-143.336	7.720	-56.397	-146.726	-142.618	-139.329	-135.331	-25.105	-139.563	-8191	255	
1847.242	1	1	0	0	0.17655	0.1585	0.19312	0.29545	0.26911	0.20795	0.36113	0.10529	0.1275	0.22199	0.13127	0.12407	0.018121	0.56839	0.22656	0.45878	-0.75417	-0.48542	-0.83958	-1.2042	-0.39583	-1.2563	-0.99167	-0.5875	-1.3125	-0.55208	-0.71042	-1.3062	-0.66875	-1.4146	-1.1667	-0.76042	-147.222	-36.794	56.440	140.289	-78.809	143.090	145.900	44.355	-134.153	-96.528	-157.824	83.248	131.618	191.424	-9.710	122.590	0.0010343	0.00022465	0.00022905	849.88	5.2377e-06	1.3492e-06	668.35	342.35	1.7567e-06	8.8822e-06	295.05	133.56	156.17	85.844	5.1539e-06	73.904	0.00021107	0.00020335	5.6399e-05	796.2	2.2447e-06	2.2065e-06	630.65	315.68	2.1905e-06	2.2232e-06	268.52	120.15	135.24	75.927	2.2011e-06	64.776	-37.473	-13.040	-103.239	-148.395	-18.527	-121.844	-150.454	-143.384	17.572	-62.708	-146.721	-142.716	-139.024	-135.381	-36.812	-139.280	-8191	255	
1847.338	1	1	0	0	0.21294	0.27235	0.32474	0.22102	0.17152	0.0633	0.11771	0.32759	0.18588	0.066055	0.14993	0.030162	0.35528	0.36123	0.094068	0.33125	-0.79792	-0.76458	-0.65	-1.4271	-0.4	-1.1042	-1.1875	-0.76667	-1.2854	-0.96667	-0.68958	-1.4229	-0.77708	-1.0479	-1.2687	-0.71458	-13.203	77.834	-85.596	86.476	-28.369	76.545	-80.092	171.999	-129.558	-122.242	31.204	165.445	106.398	169.338	-151.348	90.786	0.0011065	0.00035817	0.00012352	851.42	1.2093e-05	1.5404e-06	663.85	342.99	6.4605e-06	7.6826e-06	292.53	134.32	156.59	86.102	5.3821e-06	74.031	0.00021114	0.00019954	5.5915e-05	794.06	2.22e-06	2.2133e-06	629.44	315.51	2.215e-06	2.1926e-06	268.63	120.19	135.06	75.998	2.2291e-06	64.832	-39.880	-51.887	-90.150	-148.461	-39.957	-137.576	-150.140	-143.103	-24.138	-43.165	-146.712	-142.329	-139.479	-135.621	-12.125	-139.933	-8191	255	
1847.434	1	1	0	0	0.1146	0.20889	0.058349	0.21542	0.19862	0.16873	0.1429	0.30797	0.25444	0.20998	0.21374	0.29492	0.17862	0.27322	0.16808	0.39208	-1.0333	-0.70208	-0.4375	-1.4146	-0.69375	-0.78542	-1.3354	-0.41042	-1.1833	-0.85417	-0.62292	-1.6229	-0.65833	-1.225	-1.4354	-0.52708	-113.722	-143.839	163.998	150.941	-78.273	140.638	48.931	140.250	163.116	27.755	44.770	188.505	107.392	99.986	-108.860	150.830	0.0011177	0.00071339	7.528e-05	854.55	4.5097e-06	3.0365e-06	669.76	342.3	2.8107e-06	5.6682e-06	295.54	133.96	156.2	86.297	8.128e-06	74.321	0.00020832	0.00020084	5.6163e-05	795.1	2.2132e-06	2.1811e-06	632.32	315.63	2.1989e-06	2.1898e-06	269.44	120.45	135.15	76.203	2.2095e-06	65.211	-42.664	-86.334	-129.346	-149.024	-35.049	-12.623	-150.652	-144.101	-81.125	12.422	-147.240	-142.764	-139.451	-135.638	-17.552	-140.042	-8191	255	
1847.530	1	1	0	0	0.26188	0.063011	0.15717	0.25982	0.04456	0.19501	0.19664	0.24232	0.11588	0.16892	0.21459	0.086112	0.32318	0.31439	0.22861	0.18615	-0.7125	-0.95417	-0.60208	-1.45	-0.48958	-0.54792	-1.5646	-0.44167	-0.95625	-1.0125	-0.625	-1.3729	-0.87292	-0.81875	-1.2979	-0.66875	173.171	-91.905	-84.163	108.054	-25.425	178.401	-76.742	154.829	172.229	-105.998	160.441	185.734	-78.906	160.739	-87.472	78.004	0.0011625	0.00062785	0.00019773	850.59	9.5118e-06	6.4847e-06	669.12	341.82	2.4632e-06	7.9843e-06	295.95	135.48	156.55	85.9	6.7787e-06	74.54	0.00021183	0.00020182	5.6395e-05	796.3	2.2337e-06	2.2359e-06	631.81	315.96	2.2319e-06	2.1737e-06	270.29	121.3	135.48	76.21	2.2141e-06	65.364	-34.660	-100.489	-135.605	-149.160	-13.711	12.023	-150.704	-143.917	-144.389	-44.745	-147.130	-142.937	-139.984	-135.984	-157.929	-140.451	-8191	255	
1847.626	1	1	0	0	0.13119	0.12158	0.35399	0.30117	0.16518	0.21992	0.11503	0.11565	0.08066	0.3195	0.12667	0.10309	0.23568	0.36841	0.15688	0.28872	-0.61875	-0.99167	-0.28958	-1.2	-0.75	-0.53125	-1.45	-0.675	-1.0604	-1.1833	-0.51875	-1.2812	-1.1104	-0.75208	-1.3333	-0.64375	116.709	-71.860	95.338	165.876	-82.702	-53.120	-73.868	-134.874	-44.487	-24.472	123.291	125.544	117.616	159.441	32.662	75.604	0.0010306	0.00049909	0.00012633	851.04	1.8027e-06	2.0307e-06	667.24	343.41	7.1258e-06	3.0896e-06	294.54	134.75	156.65	86.068	9.2176e-06	74.019	0.00020923	0.00020195	5.6864e-05	795.63	2.2323e-06	2.2343e-06	632.56	316.1	2.2346e-06	2.2148e-06	269.34	120.81	135.65	76.094	2.2093e-06	64.965	-40.269	-80.114	-34.260	-149.122	99.055	-34.522	-150.783	-143.949	-45.269	7.321	-146.700	-142.963	-139.675	-135.748	-79.324	-139.750	-8191	255	
1847.723	1	1	0	0	0.1853	0.23263	0.048948	0.51054	0.26181	0.068287	0.11909	0.28636	0.13797	0.18754	0.23312	0.24165	0.13286	0.32365	0.061751	0.36939	-0.38542	-1.1104	-0.32292	-1.2354	-0.91042	-0.54167	-1.4562	-0.61875	-0.85417	-1.0667	-0.55417	-1.1896	-1.0458	-0.78333	-1.4458	-0.89583	-129.034	14.314	-25.706	158.074	-71.393	52.658	-147.331	181.114	-81.056	64.565	74.867	114.635	135.091	146.177	93.819	127.258	0.0011703	0.00019411	0.00012091	849.18	3.5129e-06	1.7317e-06	667.7	342.18	3.9919e-06	5.2209e-06	293.84	134.32	158.36	86.247	6.5521e-06	74.269	0.00021026	0.00020215	5.6572e-05	793.52	2.2402e-06	2.2428e-06	630.66	315.21	2.236e-06	2.2219e-06	268.83	120.7	136.18	76.245	2.2525e-06	65.174	-37.773	-115.206	-152.455	-148.569	-71.980	-42.236	-150.284	-143.596	-40.655	-83.317	-146.929	-142.507	-139.215	-135.394	-121.869	-139.660	-8191	255	
1847.843	1	1	0	0	0.28613	0.10852	0.37928	0.20136	0.11226	0.082861	0.28753	0.3716	0.21373	0.18616	0.072399	0.17464	0.20034	0.17747	0.03568	0.036852	-0.30833	-1.3021	-0.52917	-1.2167	-1.0812	-0.59375	-1.4396	-1.0125	-0.72292	-1.3271	-0.36042	-1.1521	-1.2292	-0.52708	-1.3354	-0.99375	78.151	119.308	92.517	55.949	-87.857	83.473	-142.980	90.794	-20.214	54.415	-64.114	147.688	-104.644	-108.117	100.606	49.592	0.0010649	0.00042341	7.2411e-05	847.83	2.2479e-06	4.9573e-06	670.3	343.38	8.5813e-06	7.8221e-06	292.51	134.69	156.55	86.448	6.3989e-06	74.429	0.00021281	0.00020218	5.6542e-05	794.25	2.2231e-06	2.2103e-06	630.42	315.75	2.2338e-06	2.2072e-06	268.46	121	135.7	76.421	2.2222e-06	65.394	-32.097	-144.749	-128.703	-148.495	64.128	-22.502	-150.145	-143.699	-11.170	-14.293	-147.376	-143.035	-139.621	-135.758	-37.899	-139.992	-8191	255	
1847.939	1	1	0	0	0.1069	0.062704	0.19466	0.19356	0.24746	0.039754	0.091655	0.087587	0.21464	0.13657	0.19671	0.16828	0.053061	0.25347	0.1694	0.15685	-0.26667	-1.2188	-0.43542	-0.89792	-1.3604	-0.38125	-1.4188	-0.85417	-0.42292	-1.3833	-0.57708	-0.94583	-1.1562	-0.8375	-1.2104	-0.93958	88.749	-30.622	-48.707	149.380	-121.109	46.872	82.604	165.138	-125.450	-145.141	-63.197	104.219	-8.409	190.429	77.446	128.142	0.00084599	0.0010951	0.00012864	851.64	3.2178e-06	8.134e-06	665.13	342.28	2.1656e-06	1.212e-06	295.28	135.52	156.86	86.277	5.3587e-06	74.862	0.00021143	0.00020223	5.661e-05	794.23	2.2314e-06	2.2285e-06	631.18	315.18	2.2526e-06	2.1948e-06	269.57	121.37	135.66	76.435	2.2343e-06	65.641	-40.477	-67.308	-119.576	-148.843	-141.357	4.278	-150.565	-143.955	-2.315	-157.297	-146.973	-142.660	-139.898	-135.755	-98.862	-140.087	-8191	255	
1848.034	1	1	0	0	0.21625	0.1086	0.28033	0.2279	0.13033	0.18205	0.038473	0.20413	0.30995	0.27107	0.14724	0.14749	0.11087	0.14643	0.10217	0.28271	-0.058333	-1.075	-0.49375	-0.8125	-1.2563	-0.40417	-1.1396	-1.1417	-0.45833	-1.1604	-0.74792	-0.6625	-1.4208	-0.62292	-1.1375	-0.87083	-10.096	120.472	191.219	149.763	137.620	22.498	35.031	151.375	-59.682	-161.239	55.233	122.090	159.510	172.389	115.339	43.870	0.0010096	0.00072547	0.00010924	853.21	5.4333e-06	2.2604e-06	669.76	342.63	6.0646e-06	4.3568e-06	294.76	135.27	157.84	86.622	4.8275e-06	74.462	0.00021163	0.00020069	5.6497e-05	795.12	2.219e-06	2.2096e-06	632.89	315.53	2.2412e-06	2.1985e-06	269.85	121.27	136.23	76.495	2.2032e-06	65.467	-38.437	-98.731	-107.749	-148.676	4.669	-17.969	-149.850	-143.675	-69.162	-14.332	-146.809	-142.649	-139.292	-135.535	-47.328	-139.739	-8191	255	
1848.107	1	1	0	0	0.069247	0.28042	0.1701	0.22692	0.091999	0.065676	0.16206	0.28154	0.018101	0.2229	0.2208	0.041843	0.21898	0.31658	0.22558	0.26174	0.054167	-1.325	-0.6125	-0.70833	-1.1854	-0.51458	-1.075	-1.1875	-0.51667	-1.2771	-0.75417	-0.6	-1.2917	-0.90208	-0.92292	-1.2042	124.359	-76.275	78.996	165.262	-26.458	143.424	159.178	177.435	186.970	-146.132	140.093	59.032	-111.489	-156.714	132.144	135.161	0.001023	0.0007283	0.00016775	848.86	7.6178e-06	5.2518e-06	671.35	342.9	7.8079e-06	5.794e-06	295.4	134.14	157.42	85.998	2.4756e-06	73.942	0.00021003	0.00020039	5.5978e-05	793.27	2.1783e-06	2.2056e-06	630.63	315.09	2.1974e-06	2.172e-06	268.32	120.52	135.37	76.043	2.2032e-06	65.042	-25.908	-86.514	-103.424	-148.383	-28.131	-58.086	-150.380	-143.840	-28.560	-110.851	-146.852	-142.636	-139.556	-135.576	-38.017	-140.046	-8191	255	
1848.226	1	1	0	0	0.13986	0.18212	0.28436	0.26067	0.16238	0.16763	0.24331	0.32118	0.31254	0.17089	0.46063	0.11069	0.37021	0.30531	0.19128	0.17906	0.016667	-1.2687	-0.76875	-0.53125	-1.2917	-0.54375	-0.91667	-1.2604	-0.33125	-1.1833	-0.92292	-0.47083	-1.3083	-0.74167	-0.88125	-1.2083	159.606	63.935	-111.118	197.420	-86.431	-146.521	108.811	-138.985	2.160	63.523	116.097	-121.922	-138.192	-134.796	-12.986	102.775	0.0010568	0.00045831	0.00015251	847.78	3.9279e-06	3.6174e-06	665.42	341.29	5.756e-06	2.7503e-06	293.52	134.91	157.38	86.107	1.634e-06	74.162	0.0002089	0.00020179	5.5509e-05	792.41	2.1804e-06	2.1958e-06	628.18	314.44	2.2022e-06	2.1701e-06	267.8	120.51	135.4	76.011	2.2083e-06	64.977	-34.526	-63.224	-76.628	-148.921	-109.740	78.308	-150.214	-143.487	-68.864	0.209	-146.521	-142.336	-139.022	-135.403	-112.432	-139.511	-8191	255	
1848.322	1	1	0	0	0.10364	0.088016	0.038055	0.11764	0.063741	0.10613	0.072959	0.58775	0.2178	0.12634	0.20499	0.25819	0.25667	0.29408	0.13035	0.28152	0.020833	-0.97917	-0.74375	-0.67917	-1.3542	-0.52917	-0.88125	-1.1979	-0.45	-1.0854	-1.1042	-0.66667	-1.3292	-1.0146	-0.575	-1.3917	-74.507	185.438	-16.024	-60.463	187.784	86.508	148.447	122.350	88.550	-33.305	169.253	176.135	96.867	-155.115	-6.026	88.072	0.0011792	0.00061264	0.0001612	850.1	5.9448e-06	4.2906e-06	665.66	341.07	1.0811e-06	5.5896e-06	294.25	135.14	157.43	86.078	7.106e-06	74.251	0.00020829	0.00019842	5.5687e-05	791.98	2.1926e-06	2.1734e-06	629.45	314.29	2.2035e-06	2.1946e-06	268.48	120.77	135.88	76.112	2.1984e-06	65.235	-45.944	-72.533	28.095	-148.113	-9.869	-19.091	-149.886	-143.356	-12.560	-107.895	-146.473	-142.310	-139.158	-135.132	-84.347	-139.566	-8191	255	
1848.418	1	1	0	0	0.1188	0.06663	0.14406	0.29016	0.24021	0.15184	0.056184	0.19139	0.17297	0.11074	0.15335	0.15344	0.19807	0.14464	0.44224	0.064752	-0.27917	-1.0812	-1.0729	-0.51042	-1.2188	-0.775	-0.94583	-1.4146	-0.54792	-1.0125	-1.2354	-0.57917	-1.1333	-0.98542	-0.42083	-1.3687	-3.249	-53.806	-7.769	-62.436	-55.415	161.618	92.667	101.807	-83.935	25.142	-80.729	-137.503	165.264	124.404	25.680	-65.295	0.00096357	0.00028049	2.757e-05	852.5	1.9943e-06	3.2418e-06	663.06	341.78	1.2209e-06	4.9307e-06	292.76	135.67	158.06	86.522	1.8146e-06	74.682	0.00020901	0.00020155	5.5591e-05	793.54	2.1861e-06	2.2009e-06	628.62	314.64	2.1893e-06	2.1914e-06	268.24	121.15	136.07	76.333	2.2061e-06	65.803	-44.201	-78.235	10.609	-148.354	-59.356	-90.750	-150.130	-143.148	151.588	-94.009	-146.600	-142.009	-139.089	-135.274	104.649	-139.485	-8191	255	
1848.514	1	1	0	0	0.047284	0.20711	0.13627	0.028313	0.0908	0.25352	0.17648	0.34197	0.10963	0.29386	0.11547	0.041485	0.32446	0.33042	0.069726	0.10799	-0.058333	-0.72917	-1.0667	-0.43333	-1.1854	-0.73125	-0.49583	-1.5063	-0.75417	-0.71667	-1.4521	-0.71458	-1.2917	-1.1042	-0.37083	-1.3708	-120.536	-120.417	123.867	80.106	87.113	66.380	80.327	148.303	-158.004	-107.442	155.648	-75.430	-150.416	194.894	-18.844	110.029	0.00089354	0.00052206	0.00011847	849.52	5.3033e-06	2.063e-06	669	341.69	7.1262e-06	2.7808e-06	295.2	135.27	157.54	86.465	4.6154e-06	75.017	0.00020847	0.00020166	5.516e-05	792.67	2.2067e-06	2.197e-06	631.81	315.03	2.2078e-06	2.2328e-06	269.38	121.18	136.12	76.284	2.2216e-06	65.564	-36.751	-61.015	-48.651	-148.550	78.153	-147.417	-149.761	-143.299	-16.483	-91.674	-146.451	-142.306	-139.321	-135.320	-6.434	-139.603	-8191	255	
1848.635	1	1	0	0	0.2042	0.16591	0.063789	0.25289	0.25416	0.073191	0.31301	0.22438	0.061096	0.24249	0.2441	0.29823	0.20445	0.30768	0.33044	0.28376	-0.25417	-0.75	-1.25	-0.42292	-1.2167	-0.83125	-0.64583	-1.4188	-0.55208	-0.60625	-1.3937	-0.58125	-1.2396	-1.2833	-0.51458	-1.3792	-82.590	-62.445	75.817	136.033	85.933	186.666	111.688	137.746	60.005	37.382	155.082	153.927	-114.774	141.109	-47.682	-70.498	0.0010398	0.00021245	9.6402e-05	849.64	4.9903e-06	3.3802e-06	666.52	340.99	3.0213e-06	4.7349e-06	292.14	134.32	157.79	86.123	6.4217e-06	74.262	0.00020974	0.0002011	5.5422e-05	791.97	2.2135e-06	2.1964e-06	629.16	314.2	2.1926e-06	2.203e-06	267.06	120.36	136.19	76.091	2.2323e-06	65.142	-34.167	28.167	-52.231	-148.504	-77.981	-74.234	-149.891	-143.308	-104.321	46.119	-146.582	-142.363	-139.209	-135.284	-97.597	-139.359	-8191	255	
1848.731	1	1	0	0	0.12252	0.31363	0.12295	0.33227	0.12868	0.082355	0.1848	0.3054	0.20851	0.46715	0.2237	0.14241	0.16047	0.16723	0.38927	0.18855	-0.37083	-0.81042	-1.1417	-0.4875	-0.825	-1.1979	-0.37708	-1.4708	-0.79167	-0.70208	-1.5792	-0.7	-1.0187	-1.4271	-0.4375	-1.2979	-23.182	26.493	-69.082	158.410	97.828	135.504	-132.339	190.681	-155.540	128.322	169.125	133.027	175.524	177.367	59.171	-121.586	0.0010511	0.00036606	0.00012634	846.57	3.9221e-06	2.2825e-06	664.84	340.12	1.1526e-05	6.7537e-06	293.98	135.03	158.26	86.544	5.4898e-06	74.644	0.00021107	0.00020236	5.602e-05	791.22	2.2124e-06	2.1795e-06	626.81	313.95	2.2152e-06	2.2162e-06	267.97	120.73	136.25	76.234	2.2159e-06	65.372	-46.729	-117.021	-124.873	-148.367	29.111	-36.215	-149.826	-143.361	-20.304	-11.287	-146.494	-142.518	-138.886	-135.485	-68.454	-139.767	-8191	255	
1848.803	1	1	0	0	0.2185	0.13912	0.06977	0.036269	0.28243	0.29893	0.11923	0.13135	0.2667	0.25099	0.037848	0.32944	0.26073	0.43134	0.14777	0.05536	-0.70625	-0.44583	-1.2917	-0.63333	-0.75208	-1.0688	-0.63958	-1.1583	-0.98333	-0.53958	-1.2333	-0.775	-0.80208	-1.6063	-0.6	-1.2521	-53.600	-130.364	-102.708	3.421	5.458	-53.429	171.840	189.733	163.020	98.290	114.853	-83.736	106.249	189.437	66.454	-137.398	0.0010121	0.00056299	0.0001599	850.75	2.8223e-06	3.8307e-06	664.49	341.14	8.2208e-06	3.1273e-06	291.96	134.53	158.43	86.352	9.954e-06	74.785	0.00021221	0.00020006	5.6038e-05	791.52	2.2149e-06	2.1845e-06	628.74	314.52	2.1848e-06	2.2021e-06	267.66	120.92	136.59	76.236	2.2091e-06	65.644	-37.993	-115.564	-58.891	-149.018	54.269	-18.503	-150.217	-143.850	-19.523	-82.476	-146.847	-143.048	-139.863	-135.675	-93.811	-139.851	-8191	255	
1848.924	1	1	0	0	0.17059	0.19136	0.2132	0.067388	0.15177	0.21052	0.18992	0.11498	0.32466	0.077848	0.20752	0.22469	0.30778	0.088215	0.36197	0.36973	-0.75208	-0.4	-1.3167	-0.825	-0.88125	-1.5125	-0.55	-1.2313	-1.25	-0.54792	-1.5354	-0.775	-0.80833	-1.4417	-0.69792	-1.0625	-21.286	119.090	-76.809	155.180	-47.346	-78.461	45.557	132.301	-107.895	117.591	112.671	189.314	-128.918	-14.300	188.505	166.571	0.0010008	0.00047659	0.00016732	844.55	6.6394e-06	6.0687e-06	662.43	339.57	1.9537e-06	3.7711e-06	294.31	135.42	158.34	86.755	2.6827e-06	75.17	0.0002098	0.00020151	5.5745e-05	791.44	2.2225e-06	2.2021e-06	629.93	314.18	2.1971e-06	2.2119e-06	269.49	121.35	136.33	76.58	2.2057e-06	66.016	-45.515	-25.008	-82.250	-149.237	-25.604	-90.619	-150.911	-143.915	-61.643	-40.732	-146.906	-143.060	-139.567	-135.996	-90.434	-139.995	-8191	255	
1849.018	1	1	0	0	0.19339	0.20814	0.12434	0.26002	0.094986	0.17582	0.15219	0.26475	0.28434	0.12684	0.20839	0.044655	0.32876	0.19119	0.17301	0.26719	-0.71458	-0.39583	-1.2812	-1.025	-0.775	-1.325	-0.675	-0.99167	-1.2021	-0.53125	-1.1542	-1.0292	-0.46042	-1.4958	-0.59375	-0.91458	129.494	47.626	-74.857	182.194	-127.451	-117.577	87.363	139.383	27.491	-32.951	-147.271	192.902	-149.024	-102.328	-112.517	126.557	0.0011351	0.00034737	7.5083e-05	845.61	8.8513e-06	2.6997e-06	666.04	340.69	4.3592e-06	5.5008e-06	293.14	134.89	157.71	86.601	7.0719e-06	74.352	0.0002096	0.00020122	5.5655e-05	789.75	2.2106e-06	2.1585e-06	629.94	314.15	2.2077e-06	2.1918e-06	268.54	121.01	136.06	76.348	2.2015e-06	65.31	-42.011	-23.681	-131.974	-148.613	3.839	-52.467	-150.526	-143.854	18.310	-102.998	-147.222	-142.821	-139.424	-135.486	-110.651	-139.856	-8191	255	
1849.114	1	1	0	0	0.12452	0.44179	0.20321	0.089761	0.18897	0.13989	0.16791	0.12607	0.17531	0.28446	0.16905	0.15824	0.42714	0.2264	0.064995	0.27041	-1.0208	-0.26042	-1.2208	-1.1917	-0.44583	-1.3208	-0.63333	-0.92708	-1.3438	-0.53333	-1.15	-1.3583	-0.48333	-1.5083	-0.69375	-0.56042	-107.432	172.161	-127.404	97.774	124.604	73.300	197.077	129.444	-112.814	11.278	-160.368	-93.471	-148.286	168.018	41.871	4.569	0.00098435	0.00025583	0.00014862	846.14	6.5759e-06	3.4962e-06	666.49	342.01	5.5099e-06	2.2027e-06	294.07	134.4	158.08	86.065	6.2677e-06	74.509	0.00021112	0.00020041	5.6156e-05	790.42	2.1876e-06	2.1782e-06	627.92	314.27	2.1881e-06	2.2e-06	267.69	120.61	136.12	76.092	2.2187e-06	65.35	-36.338	-34.001	-121.293	-148.776	-26.505	15.207	-150.913	-143.908	-128.436	-95.090	-147.337	-142.490	-139.539	-135.557	-107.872	-139.878	-8191	255	
1849.212	1	1	0	0	0.085317	0.07894	0.26023	0.21622	0.19739	0.082362	0.1872	0.40197	0.10903	0.15176	0.23451	0.098808	0.056189	0.26199	0.16992	0.31904	-1.0021	-0.39583	-0.99167	-1	-0.37292	-1.1979	-0.89375	-0.69375	-1.3104	-0.62917	-1.0792	-1.1896	-0.36667	-1.2958	-0.83958	-0.69792	-90.857	114.824	73.141	184.447	-3.251	-51.227	71.640	110.957	-133.021	-147.208	-63.811	64.100	-25.505	165.156	27.528	129.695	0.0012088	0.00053171	0.00013675	847.77	6.601e-06	3.5367e-06	668.16	341.46	3.7378e-06	3.3028e-06	293.2	135.58	157.81	86.048	5.9166e-06	74.542	0.00020836	0.00020125	5.5683e-05	791.09	2.2193e-06	2.1691e-06	628.79	314.09	2.1878e-06	2.1792e-06	267.99	121.01	135.91	76.122	2.2106e-06	65.453	-37.810	-90.312	-160.743	-148.899	14.784	-10.760	-150.465	-143.532	65.515	-70.352	-147.034	-142.456	-139.616	-135.430	-93.436	-139.500	-8191	255	
1849.331	1	1	0	0	0.21583	0.08093	0.11425	0.057661	0.15798	0.32462	0.17609	0.22595	0.14005	0.072277	0.38048	0.26291	0.20551	0.29458	0.15417	0.1108	-0.92708	-0.38958	-0.8125	-1.3396	-0.33542	-1.0312	-0.98542	-0.60833	-1.2917	-0.69375	-0.94583	-1.2792	-0.46458	-1.3417	-1.1104	-0.68125	-22.972	-58.178	45.701	86.296	132.086	-23.322	-119.273	87.421	-41.037	170.364	-121.640	138.382	110.613	120.812	63.185	-130.466	0.0010706	0.00049404	9.2751e-05	849.1	7.6909e-06	4.5636e-06	664.11	342.13	4.2821e-07	3.9394e-06	294.28	135.34	157.69	86.312	3.4644e-06	74.706	0.00020703	0.00020144	5.5873e-05	791.13	2.2197e-06	2.2132e-06	628.36	314.11	2.1714e-06	2.1938e-06	268.69	121.17	136.02	76.351	2.205e-06	65.793	-38.299	-97.651	-77.671	-148.874	-54.843	-9.049	-150.535	-144.111	178.404	-0.157	-147.012	-142.538	-139.560	-135.580	-45.652	-139.725	-8191	255	
1849.403	1	1	0	0	0.12274	0.15463	0.020038	0.41397	0.079741	0.46425	0.23564	0.49472	0.22519	0.13469	0.022885	0.093429	0.12451	0.24153	0.026612	0.21849	-0.77708	-0.56667	-0.59583	-1.3604	-0.41042	-1.2042	-1.0625	-0.52083	-1.3333	-0.61042	-0.72292	-1.2729	-0.57292	-1.2917	-1.05	-0.58333	164.139	167.985	160.982	-127.867	-47.280	-63.343	88.328	171.192	-106.722	18.844	64.090	156.229	140.661	190.710	-134.334	56.684	0.0010171	0.00013102	3.7038e-05	851.17	3.8358e-06	3.3637e-06	667.13	341.92	7.5198e-06	7.032e-06	294.32	136.07	156.88	86.724	9.7061e-07	75.573	0.00020894	0.0002003	5.5954e-05	792.16	2.2072e-06	2.213e-06	630.45	314.22	2.1982e-06	2.1825e-06	269.24	121.71	135.86	76.442	2.2102e-06	66.048	-45.484	-144.513	164.583	-148.827	-93.321	-77.220	-150.793	-143.843	-27.987	10.852	-146.975	-142.620	-139.484	-135.502	102.896	-139.696	-8191	255	
1849.523	1	1	0	0	0.11716	0.14547	0.20952	0.28005	0.14831	0.20843	0.24653	0.006456	0.18338	0.12075	0.25129	0.076551	0.064024	0.21993	0.2077	0.25901	-0.89167	-0.80208	-0.53125	-1.2125	-0.7125	-1.025	-1.4	-0.84375	-1.2479	-1.0229	-0.74167	-1.4146	-0.69167	-0.95	-1.0396	-0.77083	75.814	-29.695	193.975	190.682	-4.767	139.416	107.622	-32.252	-109.116	-25.365	150.507	-154.271	-129.854	168.921	14.406	-111.617	0.0012484	0.00086516	0.00013253	848.89	4.7677e-06	3.1174e-06	670.6	341.62	7.3364e-06	5.1373e-06	293.85	135.27	157.38	86.064	2.6772e-06	74.67	0.00020932	0.00019971	5.62e-05	792.12	2.2063e-06	2.1774e-06	629.72	314.76	2.2061e-06	2.1951e-06	268.37	121.01	135.93	76.204	2.2013e-06	65.479	-41.247	-42.628	108.113	-148.765	33.167	10.082	-150.510	-143.836	-34.379	-71.289	-147.169	-142.414	-139.509	-135.675	192.888	-139.551	-8191	255	
1849.619	1	1	0	0	0.044736	0.3334	0.19739	0.33032	0.20884	0.0063014	0.070046	0.09837	0.12592	0.18268	0.37163	0.1257	0.076783	0.50979	0.070235	0.31674	-0.67292	-1.0604	-0.31042	-1.4729	-0.58333	-0.76667	-1.3563	-0.66667	-1.2062	-0.8625	-0.62708	-1.2104	-0.76875	-0.83542	-1.2125	-0.69792	178.210	-37.323	68.010	-94.603	79.017	70.841	60.472	-150.611	17.205	162.619	123.664	81.827	187.256	-149.348	5.348	152.324	0.0010409	0.00065041	0.00015617	851.79	2.4169e-06	4.0454e-06	665	341.51	4.0565e-06	3.5524e-06	294.48	135.25	157.34	86.209	7.2784e-06	74.83	0.00020873	0.00019951	5.6066e-05	790.58	2.2017e-06	2.1826e-06	628.24	314.12	2.2048e-06	2.186e-06	268.35	121.17	135.91	76.144	2.1905e-06	65.62	-42.497	3.266	-111.628	-148.623	8.897	-64.018	-150.460	-143.377	-52.245	-52.805	-146.652	-142.678	-139.544	-135.510	-22.677	-140.023	-8191	255	
1849.715	1	1	0	0	0.28429	0.072964	0.12481	0.21924	0.13308	0.034958	0.33166	0.078329	0.18064	0.12265	0.16483	0.29314	0.10021	0.15314	0.26072	0.090947	-0.78125	-0.99375	-0.45833	-1.5021	-0.64583	-0.56042	-1.3708	-0.44375	-0.98125	-1.1354	-0.62292	-1.3792	-0.97708	-0.76458	-1.5042	-0.92917	8.295	-104.026	63.465	197.531	-152.336	178.491	160.535	138.399	110.356	-150.445	129.390	-157.261	176.882	140.391	-37.563	125.461	0.0012102	0.0004524	0.00020376	848.47	7.5171e-08	5.8751e-07	667.16	340.61	6.2907e-06	3.9276e-06	294.66	135.1	157.23	86.389	1.0145e-05	74.864	0.00021077	0.00019824	5.5506e-05	792.24	2.1827e-06	2.1867e-06	631.31	314.15	2.179e-06	2.1626e-06	269.02	121.27	135.74	76.338	2.164e-06	65.897	-23.687	-99.319	-130.837	-148.740	130.262	-32.144	-150.462	-143.759	-63.140	-30.441	-146.909	-142.706	-139.841	-135.722	-80.009	-139.993	-8191	255	
1849.812	1	1	0	0	0.23556	0.22254	0.21805	0.34366	0.097659	0.17138	0.27165	0.35686	0.11656	0.109	0.068477	0.14461	0.15501	0.33981	0.15806	0.25436	-0.6875	-1.0417	-0.49792	-1.3146	-1.0333	-0.54375	-1.4146	-0.775	-0.8125	-1.2167	-0.52083	-1.4208	-0.91875	-0.67083	-1.4583	-0.81458	173.308	29.969	155.757	154.059	168.947	48.945	151.506	178.496	186.942	146.623	-135.373	142.767	-127.209	177.163	27.029	162.275	0.001157	0.00027759	0.00010351	850.14	1.1097e-05	2.0816e-06	669.14	342.13	4.5328e-06	7.2522e-07	295.9	135.72	156.77	86.799	6.6204e-06	75.313	0.00020942	0.00019904	5.5297e-05	792.47	2.1697e-06	2.1761e-06	631.79	314.93	2.178e-06	2.1688e-06	269.91	121.57	135.56	76.487	2.182e-06	66.241	-31.290	-92.978	-0.834	-149.158	18.593	-83.552	-150.623	-143.846	23.978	38.673	-147.014	-142.535	-139.306	-135.631	-47.952	-139.716	-8191	255	
1849.932	1	1	0	0	0.10756	0.25476	0.24301	0.22626	0.43203	0.097779	0.27088	0.23559	0.06807	0.22716	0.19003	0.16029	0.29121	0.1029	0.20625	0.084133	-0.20208	-0.96458	-0.36042	-1.3146	-0.97708	-0.58333	-1.2646	-0.90208	-0.50208	-1.3646	-0.59583	-1.0833	-1.1125	-0.50417	-1.3062	-0.70833	90.730	-140.174	152.556	-124.614	167.360	-13.217	-140.956	136.260	34.412	192.111	125.147	184.536	-161.078	120.351	66.119	69.765	0.0010518	0.00058892	7.5621e-05	850.85	3.018e-06	2.4252e-06	670.89	343.67	6.8297e-06	7.0123e-06	296.66	136.84	157.16	86.556	5.3005e-06	75.594	0.00020672	0.00019555	5.5195e-05	794.57	2.1611e-06	2.1878e-06	633.33	315.74	2.1922e-06	2.1609e-06	270.73	121.96	135.71	76.548	2.1857e-06	66.194	-42.670	-85.243	-136.377	-148.549	-63.937	-16.740	-150.034	-143.564	-18.994	-60.194	-146.647	-142.531	-139.491	-135.492	1.837	-139.829	-8191	255	
1850.004	1	1	0	0	0.25986	0.16024	0.24818	0.228	0.019614	0.027773	0.17284	0.25717	0.13063	0.18164	0.18135	0.1596	0.096946	0.14659	0.20956	0.0908	-0.16458	-1.2062	-0.71667	-1.1208	-0.94792	-0.51042	-1.5187	-0.96042	-0.58333	-1.4542	-0.46458	-1.0833	-1.1542	-0.73542	-1.4146	-1.1688	-117.913	193.700	145.824	135.957	133.984	-126.026	192.181	130.822	197.670	-64.916	182.668	22.548	187.661	-85.646	47.734	166.312	0.00096522	0.00040685	0.00015346	851.75	3.9515e-06	3.9139e-06	672.49	343.37	3.3106e-06	9.6406e-06	294.08	135.66	157.29	86.561	6.7726e-06	75.641	0.00020704	0.00019695	5.4919e-05	793.55	2.1472e-06	2.1717e-06	633.28	315.72	2.1851e-06	2.1375e-06	270.09	121.47	135.47	76.369	2.1685e-06	66.046	-31.678	-159.500	-99.698	-148.784	-14.163	-11.290	-150.213	-143.741	-37.843	-24.664	-146.558	-142.729	-139.525	-135.738	-78.933	-139.515	-8191	255	
1850.100	1	1	0	0	0.14431	0.080015	0.18793	0.069509	0.27168	0.13873	0.34791	0.11017	0.24116	0.35125	0.18771	0.09553	0.3448	0.42301	0.18331	0.28705	-0.11042	-1.3083	-0.59583	-1.1042	-1.3792	-0.51875	-1.45	-1.2104	-0.44375	-1.4125	-0.69375	-0.80833	-1.3333	-0.73542	-1.1667	-1.1396	-22.478	78.005	83.145	118.293	-72.593	147.482	142.215	-29.880	-160.618	117.902	151.006	168.932	145.316	168.849	-41.716	150.250	0.0011222	0.00054369	0.00013554	849.36	5.369e-06	5.4686e-06	666.64	341.98	9.3477e-06	4.8088e-06	295.9	135.88	156.49	86.506	4.3547e-06	75.23	0.00020834	0.00019855	5.4933e-05	792.18	2.1587e-06	2.1675e-06	631.11	314.96	2.1825e-06	2.1744e-06	270.66	121.71	135.48	76.289	2.1947e-06	65.98	-40.412	197.194	-132.043	-148.850	-65.149	-18.896	-150.569	-143.990	-10.488	-48.004	-147.032	-142.846	-139.727	-135.826	-48.762	-139.954	-8191	255	
1850.194	1	1	0	0	0.19813	0.12308	0.24416	0.25495	0.10624	0.16704	0.13735	0.31515	0.16404	0.099251	0.33577	0.10951	0.2104	0.33952	0.047738	0.27031	-0.085417	-1.2542	-0.66042	-0.71458	-1.0667	-0.53125	-1.0938	-1.2687	-0.41042	-1.2812	-0.74792	-0.66042	-1.2313	-0.66875	-1.0125	-1.2687	88.973	99.331	-128.757	181.330	157.927	-8.362	159.123	180.136	153.150	-135.029	172.584	61.734	155.814	157.388	76.340	112.963	0.0011007	0.00031057	0.00019824	846.29	2.0189e-06	3.0969e-06	673.1	343.48	4.7093e-06	5.8271e-06	297.44	137.22	157.28	86.59	4.1801e-06	75.807	0.00020933	0.00019867	5.511e-05	791.59	2.197e-06	2.1842e-06	632.62	315.36	2.1835e-06	2.1784e-06	270.73	122.32	135.85	76.449	2.1901e-06	66.366	-39.630	-65.826	-109.627	-148.986	-19.770	-38.885	-150.215	-144.005	-76.009	11.272	-147.255	-142.932	-139.742	-135.819	-81.748	-139.851	-8191	255	
1850.315	1	1	0	0	0.33152	0.14757	0.19096	0.30196	0.0099698	0.24091	0.11317	0.0825	0.22943	0.31319	0.2353	0.4629	0.17156	0.24393	0.20858	0.22468	-0.15833	-1.2896	-0.85417	-0.58542	-1.3542	-0.53333	-1.0417	-1.3062	-0.5875	-1.1562	-0.99375	-0.60208	-1.4458	-0.89792	-0.83958	-1.3875	63.499	2.875	163.607	123.631	-29.519	187.037	129.642	115.831	90.915	186.106	-77.928	162.574	104.064	188.933	51.366	157.680	0.0012651	0.00053239	0.00016839	850.66	3.0186e-06	3.0636e-06	672.7	343.23	3.0833e-06	5.3868e-06	297.48	137.54	158.49	86.403	4.5611e-06	76.247	0.00020679	0.00019831	5.5464e-05	793.54	2.197e-06	2.1847e-06	633.94	315.26	2.1959e-06	2.1922e-06	271.1	122.88	136.3	76.559	2.1897e-06	66.728	-35.462	-20.022	-116.340	-148.893	-48.719	-10.505	-150.263	-143.803	-155.036	-52.670	-146.774	-142.844	-139.541	-135.892	-92.884	-140.000	-8191	255	
1850.410	1	1	0	0	0.22657	0.18427	0.29329	0.28522	0.15435	0.20805	0.056169	0.14989	0.13644	0.15308	0.10242	0.27325	0.18043	0.44143	0.15459	0.16153	-0.075	-1.2812	-0.70625	-0.48958	-1.2229	-0.68958	-0.71875	-1.6167	-0.39167	-1.3125	-1.0333	-0.57083	-1.225	-0.99375	-0.50417	-1.6021	-12.289	77.998	55.108	85.402	157.652	24.597	-13.937	-87.791	91.583	-33.092	69.972	150.087	-19.255	151.707	96.494	68.589	0.00093768	0.00020229	0.00010603	844.7	3.4301e-06	3.6516e-06	672.26	341.7	3.0922e-06	1.9575e-06	295.95	136.89	158.47	86.924	4.1319e-06	76.295	0.0002093	0.00020227	5.5276e-05	791.45	2.2015e-06	2.1997e-06	634.35	315.23	2.2117e-06	2.1958e-06	270.95	122.78	136.51	76.624	2.2063e-06	66.776	-40.712	96.528	-54.131	-148.871	-36.746	0.744	-150.404	-143.915	-60.462	-55.936	-147.002	-142.777	-139.671	-135.952	-85.235	-139.934	-8191	255	
1850.506	1	1	0	0	0.16962	0.12061	0.095779	0.20641	0.24057	0.093136	0.11708	0.11368	0.24039	0.20977	0.053985	0.074783	0.32687	0.47212	0.033445	0.3868	-0.11042	-0.87917	-0.93542	-0.65	-1.2396	-0.97917	-0.64375	-1.4688	-0.5375	-0.87917	-1.0979	-0.44792	-1.2563	-1.0729	-0.51458	-1.3896	25.572	-29.092	185.114	73.404	-14.791	179.981	-27.597	173.696	187.782	8.096	143.371	-20.352	167.868	176.508	103.572	131.724	0.0011203	0.00030823	0.00013488	849.16	1.8106e-06	3.7646e-06	668.96	341.09	4.0346e-06	5.2778e-06	296.98	136.71	157.72	86.276	7.1776e-06	75.389	0.00021008	0.00020191	5.5557e-05	792.21	2.2081e-06	2.1985e-06	630.19	314.6	2.1964e-06	2.1864e-06	270.72	122.28	136.25	76.328	2.2027e-06	66.244	-43.546	-66.787	-58.763	-149.169	137.366	-9.932	-150.584	-144.129	23.260	-30.990	-147.375	-142.972	-139.800	-136.234	-123.216	-140.589	-8191	255	
1850.604	1	1	0	0	0.32334	0.039783	0.12187	0.24624	0.11927	0.24478	0.082364	0.12657	0.2062	0.052879	0.095799	0.25608	0.095178	0.41732	0.23077	0.21755	-0.0125	-0.94792	-1.1292	-0.41458	-1.1333	-0.95	-0.6	-1.3479	-0.63542	-0.81042	-1.2854	-0.50625	-1.2979	-0.97708	-0.57083	-1.4021	134.011	-44.082	53.523	19.533	-49.553	107.445	194.785	158.173	-131.840	-148.924	-161.738	-105.690	84.987	-156.525	-134.224	-100.058	0.0010925	0.00093361	0.00017733	847.67	1.5648e-06	1.1125e-06	670.34	342.17	1.0155e-05	9.5198e-06	296.31	136.85	157.78	86.735	2.2513e-06	76.065	0.00021017	0.0002007	5.5614e-05	791.73	2.1924e-06	2.1961e-06	632.05	314.59	2.2075e-06	2.1919e-06	270.37	122.39	136.41	76.562	2.1969e-06	66.462	-47.223	-61.496	-79.251	-149.165	-31.752	-7.074	-150.385	-144.167	-46.520	-67.583	-147.535	-142.917	-140.027	-136.151	-71.614	-140.048	-8191	255	
1850.698	1	1	0	0	0.12865	0.28069	0.10305	0.17282	0.29099	0.090355	0.15375	0.26008	0.26712	0.21514	0.1658	0.14807	0.3168	0.14878	0.1382	0.17058	-0.12083	-0.81667	-1.2188	-0.58542	-1.2333	-0.85833	-0.4375	-1.4208	-0.88125	-0.75833	-1.4042	-0.47708	-1.1083	-1.1875	-0.55417	-1.3708	22.884	-87.473	115.497	-160.600	100.677	93.482	175.966	111.649	162.435	151.321	155.909	84.169	160.590	165.948	96.871	-140.935	0.0011207	0.00046738	5.9915e-05	848.4	5.9545e-06	4.597e-06	671.02	342.26	4.2793e-06	3.393e-06	295.27	136.17	158.99	86.72	1.8634e-06	75.981	0.00021085	0.00020074	5.5337e-05	793.18	2.2179e-06	2.1876e-06	633.27	315.32	2.2001e-06	2.1784e-06	270.08	122.46	136.86	76.69	2.2282e-06	66.743	-35.512	-73.944	-154.035	-149.085	-45.605	61.316	-150.829	-144.444	-7.571	-58.388	-147.521	-142.993	-139.815	-136.144	-12.398	-140.061	-8191	255	
1850.794	1	1	0	0	0.321	0.099143	0.17241	0.18091	0.076918	0.11931	0.33937	0.11483	0.29541	0.21916	0.24723	0.2102	0.06071	0.37641	0.13783	0.10537	-0.50833	-0.62708	-1.1938	-0.42083	-0.92292	-0.99167	-0.59167	-1.3729	-0.78958	-0.55208	-1.3396	-0.64583	-0.77708	-1.3625	-0.56875	-1.3042	43.788	-48.551	68.689	-132.335	-141.286	-125.297	140.255	-117.112	189.256	-55.605	181.098	109.123	-68.759	162.648	27.025	123.060	0.0011086	0.00030749	3.3846e-05	848.1	3.5711e-06	5.1025e-06	672.23	345.19	6.4677e-06	3.5703e-06	296.63	137.23	158.38	87.074	4.9202e-06	76.226	0.00021058	0.00020098	5.5912e-05	793.63	2.2195e-06	2.1869e-06	633.28	315.81	2.2109e-06	2.2011e-06	271.68	122.96	136.71	76.885	2.2108e-06	66.925	-40.700	-80.977	53.062	-149.098	-46.561	0.313	-150.710	-144.050	-27.889	6.490	-147.532	-142.944	-139.720	-136.116	-54.711	-140.127	-8191	255	
1850.890	1	1	0	0	0.14481	0.11792	0.14468	0.16408	0.10078	0.30853	0.089356	0.31705	0.28633	0.18633	0.087639	0.11603	0.12927	0.26112	0.42352	0.24694	-0.64167	-0.45417	-1.2375	-0.65833	-0.67292	-1.2375	-0.61875	-1.3083	-0.96458	-0.45833	-1.5271	-0.79167	-0.78333	-1.4813	-0.57708	-1.3167	-139.958	-136.813	47.537	97.909	118.399	107.585	124.049	139.962	-69.404	-154.078	90.677	-157.364	-123.217	176.062	-52.549	179.442	0.001168	0.00086597	5.9936e-05	853.44	1.8537e-06	3.8665e-06	671.74	342.5	8.0756e-06	5.2301e-06	298.18	136.48	157.97	86.875	8.0682e-06	75.897	0.00020982	0.00019994	5.5166e-05	794.17	2.2107e-06	2.1974e-06	633.34	315.59	2.1867e-06	2.1981e-06	272.37	123.15	136.49	76.799	2.2046e-06	66.857	-41.207	-95.774	-69.378	-149.303	191.722	-53.192	-150.730	-144.098	-85.955	-2.529	-147.278	-143.126	-139.778	-136.034	-63.588	-139.981	-8191	255	
1851.011	1	1	0	0	0.086902	0.085655	0.05934	0.27777	0.035362	0.23496	0.089277	0.091484	0.2455	0.13022	0.13209	0.16415	0.16052	0.19006	0.2463	0.057416	-0.60417	-0.49375	-1.2146	-0.55833	-0.67917	-1.3438	-0.4625	-0.94792	-0.97708	-0.35208	-1.1812	-0.89792	-0.53958	-1.4062	-0.46042	-1.0479	92.872	80.477	-53.939	141.531	-19.533	-117.850	134.124	122.851	37.523	-138.188	87.157	-144.498	165.912	-121.393	-64.541	187.726	0.0010232	0.00023822	4.7071e-05	849.35	3.8835e-06	4.7205e-07	669.11	342.03	5.4954e-06	5.3971e-06	296.59	136.02	156.87	86.837	9.3519e-06	75.454	0.0002075	0.00019703	5.5184e-05	791.87	2.1918e-06	2.1658e-06	630.53	315.09	2.1802e-06	2.1633e-06	270.48	122.19	135.97	76.55	2.1996e-06	66.548	-37.916	78.425	-46.246	-149.154	-68.029	192.056	-150.846	-143.912	-96.708	-40.160	-147.423	-142.607	-139.857	-136.228	-98.766	-139.772	-8191	255	
1851.107	1	1	0	0	0.13025	0.074751	0.27238	0.04895	0.27645	0.087877	0.18377	0.076385	0.11638	0.20683	0.21274	0.3863	0.29618	0.30719	0.15168	0.37742	-0.72917	-0.50833	-1.0625	-1.0021	-0.66667	-1.2938	-0.625	-1.1771	-0.95625	-0.325	-1.3458	-0.90625	-0.36875	-1.6354	-0.53333	-0.95625	180.585	185.573	-119.755	-47.708	140.378	170.371	71.598	161.538	-28.106	78.374	161.803	126.994	-78.828	173.542	-44.680	-88.456	0.0011018	0.00034575	8.0068e-05	847.76	8.9203e-06	4.5661e-06	665.3	339.69	7.7758e-06	5.984e-06	297.74	136.96	156.6	86.544	5.8928e-06	75.447	0.00020678	0.00020007	5.5632e-05	792.18	2.1985e-06	2.1647e-06	628.93	314.09	2.1938e-06	2.2078e-06	270.36	122.33	135.64	76.416	2.1826e-06	66.487	-42.480	-154.372	-144.809	-148.974	22.765	-26.897	-150.302	-143.614	-26.996	-5.820	-146.736	-142.619	-139.482	-135.689	-51.505	-139.637	-8191	255	
1851.203	1	1	0	0	0.076336	0.23992	0.026605	0.25916	0.10648	0.054553	0.09346	0.21658	0.021867	0.030311	0.20694	0.16571	0.12401	0.30613	0.10192	0.14478	-0.82292	-0.57292	-1.175	-0.84583	-0.38542	-1.275	-0.69167	-0.95833	-1.3542	-0.54167	-1.0229	-1.0187	-0.48542	-1.4854	-0.67292	-0.83333	120.584	186.625	-156.783	155.432	49.961	177.853	-136.311	119.767	127.463	82.763	-148.636	-7.506	74.847	-140.693	-149.896	11.761	0.0011983	0.00023675	5.6285e-05	838.52	1.6177e-06	4.1278e-06	664.68	341.12	5.8645e-06	2.8444e-06	298.09	137.58	157.32	86.466	4.8908e-06	76.147	0.00020572	0.00019951	5.5111e-05	788.89	2.1897e-06	2.1915e-06	628.99	314.14	2.158e-06	2.1727e-06	270.83	122.88	135.94	76.51	2.1836e-06	66.769	-44.799	-89.064	-62.657	-149.581	-88.217	-86.142	-151.354	-144.229	-43.876	-52.915	-147.548	-143.483	-140.243	-136.560	-84.007	-140.442	-8191	255	
1851.299	1	1	0	0	0.23948	0.23404	0.29438	0.31503	0.20553	0.19499	0.14283	0.21866	0.24701	0.16924	0.15532	0.18659	0.10801	0.23188	0.13605	0.21262	-0.84167	-0.6125	-0.95417	-1.2104	-0.30833	-1.1437	-0.77083	-0.73333	-1.2792	-0.36875	-1.175	-1.2604	-0.47083	-1.4479	-0.72708	-0.68542	-14.884	-90.469	-153.438	-104.547	193.569	-96.008	124.333	139.033	-75.019	77.220	105.884	83.188	69.393	-118.200	-25.662	-161.998	0.00098555	0.00029847	4.7436e-05	847.79	6.2151e-06	2.5288e-06	666.85	342.29	6.9311e-06	1.0041e-05	297.49	137.19	157.23	86.69	6.1498e-06	76.345	0.00020574	0.00020069	5.5627e-05	789.59	2.2269e-06	2.1802e-06	631.72	314.53	2.201e-06	2.2017e-06	271.28	122.76	136.19	76.462	2.2022e-06	66.971	-34.238	-84.456	-135.235	-149.802	29.360	8.733	-151.110	-144.748	-107.927	-31.127	-147.316	-143.532	-140.311	-136.182	-48.138	-140.324	-8191	255	
1851.395	1	1	0	0	0.15731	0.14234	0.11029	0.32948	0.30742	0.035658	0.24641	0.2812	0.2552	0.30769	0.11213	0.21096	0.38729	0.31412	0.059059	0.037961	-0.86875	-0.3875	-0.7625	-1.1854	-0.43542	-1.1646	-0.91458	-0.6625	-1.4854	-0.54583	-0.83333	-1.2417	-0.525	-1.4104	-0.97917	-0.48542	-51.249	-81.654	-58.961	-132.331	-103.126	104.247	82.233	159.492	33.397	177.137	191.673	-73.310	-149.875	178.296	122.561	-139.739	0.0011399	0.00037231	7.7988e-05	844.41	4.1906e-06	5.8604e-06	669.27	342.29	1.0893e-06	4.6943e-06	296.27	135.87	157.27	86.295	4.8964e-06	75.749	0.00021057	0.0001998	5.5816e-05	789.54	2.2005e-06	2.1766e-06	632.9	314.95	2.1965e-06	2.1965e-06	270.98	122.26	135.8	76.19	2.1812e-06	66.42	-34.507	-107.188	158.982	-149.193	-61.935	-15.271	-151.014	-144.799	25.087	-106.955	-147.856	-143.467	-140.064	-136.210	-146.112	-140.264	-8191	255	
1851.492	1	1	0	0	0.10787	0.10816	0.071865	0.12353	0.1439	0.075362	0.08303	0.24785	0.14424	0.14115	0.12763	0.3098	0.24042	0.35302	0.19277	0.19013	-0.9375	-0.72083	-0.61458	-1.3813	-0.4625	-1.15	-1.0354	-0.78542	-1.1979	-0.69792	-0.72083	-1.2167	-0.58333	-1.3625	-0.88542	-0.64167	-115.397	155.204	58.990	81.042	-109.941	137.724	-111.440	195.760	-44.477	-161.859	-109.511	-110.540	133.510	-147.923	152.668	108.732	0.00096254	0.00046035	0.00012082	844.92	4.5139e-06	2.1858e-07	665.57	342.21	2.2167e-06	5.3329e-06	295.3	136.45	156.78	86.032	5.5395e-06	75.581	0.00020908	0.00020137	5.532e-05	788.04	2.2027e-06	2.1882e-06	627.74	314.29	2.1986e-06	2.1705e-06	269.27	122.06	135.6	76.098	2.1946e-06	66.263	-42.151	-124.566	-133.553	-149.357	-56.653	-59.744	-150.708	-144.190	-56.429	-39.100	-147.507	-143.059	-139.842	-135.942	-48.638	-139.765	-8191	255	
1851.611	1	1	0	0	0.1788	0.1571	0.054269	0.10704	0.18311	0.23875	0.22359	0.16703	0.24311	0.31902	0.069785	0.36615	0.166	0.2358	0.2925	0.37024	-1.0521	-0.56458	-0.69792	-1.3312	-0.47083	-0.93958	-1.0979	-0.47292	-1.2354	-0.70208	-0.65833	-1.3521	-0.61042	-1.0625	-1.1562	-0.67917	-4.510	158.791	-111.757	151.240	143.846	-125.277	124.929	30.988	131.112	13.802	50.277	-17.174	-72.793	146.431	147.928	143.907	0.0011035	0.0004848	6.6327e-05	842.15	1.8256e-06	4.7986e-06	664.73	340.9	3.0323e-06	9.0258e-06	293.62	137.18	158.31	86.544	2.0185e-06	75.922	0.00020823	0.00019856	5.6036e-05	788.71	2.1987e-06	2.1853e-06	628.03	313.49	2.201e-06	2.1837e-06	269.43	122.66	136.02	76.312	2.1715e-06	66.57	-40.961	-125.321	-44.223	-148.827	29.019	-5.280	-150.675	-144.126	-20.392	-4.449	-147.412	-143.033	-140.054	-136.054	-113.544	-140.014	-8191	255	
1851.707	1	1	0	0	0.1923	0.29364	0.15659	0.28502	0.23973	0.1366	0.29027	0.053458	0.18129	0.15461	0.1645	0.16134	0.16459	0.27221	0.13679	0.41992	-0.85208	-0.96458	-0.40833	-1.3312	-0.96875	-0.87917	-1.3292	-0.64792	-1.1667	-1.1125	-0.59375	-1.2812	-0.7375	-0.81875	-1.1167	-0.58125	198.104	-25.411	-82.185	138.049	49.298	-87.970	111.022	164.357	85.183	-120.715	-76.589	197.023	-52.851	176.319	6.254	144.998	0.0011219	0.00096038	0.00012145	847.64	1.5249e-06	2.2796e-06	668.96	341.08	5.1425e-06	1.8162e-06	294.03	137.62	156.62	86.63	5.8307e-06	76.405	0.00021054	0.00019927	5.594e-05	790.17	2.1906e-06	2.1885e-06	630.92	314.05	2.1813e-06	2.179e-06	270.32	122.8	135.66	76.439	2.2124e-06	66.989	-41.646	-139.690	-72.462	-148.960	148.788	113.191	-150.594	-143.681	11.744	-90.918	-147.118	-142.711	-139.580	-135.574	-57.599	-139.852	-8191	255	
1851.803	1	1	0	0	0.068369	0.24553	0.12869	0.10189	0.029029	0.17279	0.19595	0.048264	0.29642	0.062372	0.21549	0.14919	0.082694	0.16541	0.046891	0.26031	-0.68542	-1.0562	-0.48125	-1.4771	-0.78333	-0.7625	-1.3438	-0.49167	-0.88333	-1.0208	-0.6375	-1.3208	-0.73125	-0.93542	-1.375	-0.67708	-146.059	79.729	-128.342	-150.522	17.933	138.104	135.287	197.837	-7.581	-14.216	-19.870	186.985	-130.757	177.846	16.855	49.761	0.001108	0.00017524	0.00011247	845.22	1.9975e-06	4.8755e-06	671.72	342.45	4.6061e-06	4.6739e-06	297.45	137.52	158.27	86.657	4.413e-06	76.692	0.00020889	0.00019939	5.5749e-05	790.45	2.1871e-06	2.1962e-06	633.08	314.4	2.1834e-06	2.1588e-06	271.07	123.14	136.31	76.445	2.1918e-06	67.025	-45.950	133.925	-114.871	-148.607	-68.435	-58.205	-150.444	-143.886	-38.837	-15.741	-146.862	-143.005	-139.408	-135.787	-27.462	-139.909	-8191	255	
1851.899	1	1	0	0	0.20444	0.36694	0.07894	0.2523	0.085383	0.12546	0.091264	0.10713	0.12477	0.1904	0.054143	0.15415	0.16332	0.25098	0.19914	0.14898	-0.5375	-1.1271	-0.44167	-1.375	-0.83542	-0.56667	-1.5271	-0.72917	-0.91667	-1.0979	-0.6375	-1.2604	-0.78958	-0.61875	-1.1562	-0.64375	7.437	-62.492	119.825	143.246	-31.276	-109.774	152.664	99.961	-41.237	127.190	-106.241	-90.900	138.377	139.479	-126.269	-111.172	0.0011402	0.00074647	8.023e-05	848.67	5.7393e-07	7.156e-06	668.28	341.8	1.0847e-05	2.0568e-06	298.05	136.93	156.49	86.298	2.4095e-06	76.07	0.00020826	0.00019768	5.5707e-05	790.98	2.171e-06	2.1851e-06	631.9	314.25	2.196e-06	2.1782e-06	270.91	122.72	135.39	76.225	2.1875e-06	66.555	-45.455	-95.688	-60.890	-148.884	193.657	-41.524	-150.757	-144.303	-15.784	-106.043	-147.071	-142.868	-139.847	-135.778	-42.308	-139.925	-8191	255	
1851.971	1	1	0	0	0.11636	0.06281	0.05506	0.1909	0.1197	0.1049	0.18673	0.31726	0.042555	0.11337	0.33478	0.090816	0.2296	0.22337	0.080852	0.34817	-0.35417	-1.1604	-0.35208	-1.0708	-0.78958	-0.46667	-1.3062	-0.74167	-0.66458	-1.35	-0.52917	-1.1104	-1.1979	-0.62708	-1.5688	-0.84792	32.888	-6.320	176.034	-29.488	-36.040	30.726	126.327	177.993	-108.152	94.646	142.327	122.735	22.440	157.984	-70.108	124.270	0.0011798	0.00045444	0.0001409	847.85	1.048e-06	4.9673e-06	670.39	341.77	5.6559e-06	4.355e-06	293.62	136.47	156.45	85.919	4.7201e-07	75.712	0.00020827	0.00019799	5.5608e-05	790.1	2.1723e-06	2.1782e-06	630.82	314.08	2.1832e-06	2.1558e-06	270	122.28	135.04	75.986	2.176e-06	66.348	-32.637	-133.439	143.150	-148.497	-138.034	42.192	-150.452	-143.764	-62.996	-153.148	-147.123	-142.694	-140.098	-135.846	-16.038	-139.753	-8191	255	
1852.091	1	1	0	0	0.21013	0.29597	0.10451	0.32656	0.23541	0.26722	0.32511	0.26008	0.035409	0.14471	0.17614	0.14163	0.3782	0.20943	0.15548	0.20157	-0.47917	-1.4396	-0.3375	-1.1417	-1.0271	-0.42708	-1.1688	-1.1	-0.73333	-1.3958	-0.81875	-0.93958	-1.2521	-0.66458	-1.1646	-1.0167	165.581	-143.614	52.921	154.682	34.027	-128.159	118.746	175.034	122.505	112.639	25.482	140.538	183.988	171.340	-147.421	86.928	0.0010359	0.00028127	0.00019691	839.91	8.5545e-06	3.5545e-06	670.47	339.36	1.4061e-06	6.3989e-06	295.14	136.2	156.48	85.749	4.3168e-06	75.964	0.00020692	0.00019743	5.5703e-05	788.2	2.1535e-06	2.1917e-06	631.87	313.22	2.1749e-06	2.1845e-06	269.54	122.19	134.87	75.842	2.1702e-06	66.44	-39.714	-32.916	-84.974	-148.730	2.305	-73.884	-150.229	-144.160	-40.039	-109.304	-146.987	-142.528	-139.343	-135.731	-77.695	-139.446	-8191	255	
1852.187	1	1	0	0	0.17309	0.35699	0.069196	0.10777	0.11537	0.17087	0.31784	0.34313	0.32878	0.16542	0.25606	0.16718	0.36968	0.37846	0.014642	0.14827	-0.18542	-1.2271	-0.53125	-1.125	-1.1729	-0.35208	-1.3167	-0.8625	-0.41667	-1.4417	-0.74583	-0.96042	-1.35	-0.6625	-1.0333	-1.1	-58.040	-80.810	153.124	24.451	-117.865	1.175	190.513	-122.684	-24.185	-39.639	-28.794	-54.576	184.720	186.126	159.281	-127.616	0.0010847	0.00058435	0.00011732	845.46	5.6811e-06	3.3957e-06	668.07	341.14	4.2979e-06	3.6107e-06	295.12	137.15	157.34	86.155	1.5326e-06	76.013	0.00020827	0.00019756	5.5055e-05	789.41	2.1825e-06	2.1627e-06	631.34	314.1	2.196e-06	2.1728e-06	270.16	122.61	135.8	76.007	2.1806e-06	66.66	-35.676	-7.453	188.421	-148.770	-36.697	39.392	-150.197	-144.096	17.507	21.119	-146.928	-142.499	-139.726	-135.778	31.638	-139.937	-8191	255	
1852.284	1	1	0	0	0.25292	0.40916	0.23394	0.22627	0.15367	0.034399	0.072331	0.24294	0.2485	0.034059	0.21297	0.12251	0.1593	0.44452	0.11805	0.16139	-0.16667	-1.2979	-0.59583	-0.7375	-1.3208	-0.43958	-1.1104	-1.1979	-0.54167	-1.4167	-0.72917	-0.84583	-1.5854	-0.66458	-1.0375	-1.3542	110.879	-20.838	99.708	-103.315	161.775	-30.398	-70.244	178.740	80.310	192.123	162.964	-105.092	-144.755	136.666	52.627	59.868	0.0010325	0.00034927	0.00022076	847.94	4.5908e-06	3.9906e-06	670.09	339.72	4.8466e-06	5.2076e-06	296.67	137.18	156.98	86.136	7.8149e-06	75.713	0.00020718	0.00019809	5.5095e-05	791.31	2.1798e-06	2.188e-06	632.3	313.46	2.1933e-06	2.1849e-06	270.9	123.11	135.54	76.07	2.1958e-06	66.523	-46.178	-94.966	-93.795	-148.694	-84.448	56.458	-150.436	-143.962	-34.199	42.094	-146.799	-142.289	-139.632	-135.719	-66.102	-140.234	-8191	255	
1852.404	1	1	0	0	0.19801	0.28112	0.041024	0.28316	0.22117	0.13557	0.3215	0.34354	0.26384	0.17087	0.25809	0.32356	0.31282	0.15577	0.26786	0.1648	-0.0625	-1.1833	-0.81875	-0.63125	-1.1437	-0.65833	-1.1187	-1.2812	-0.36667	-1.3125	-0.81875	-0.64583	-1.375	-0.70833	-0.95417	-1.2854	186.336	57.670	-99.033	-156.177	185.364	43.736	73.067	181.981	89.553	186.339	114.133	30.307	-144.403	104.925	126.144	-99.066	0.00085214	0.00056407	4.0301e-05	846.06	5.365e-06	2.0684e-06	669.48	339.81	6.4392e-06	3.3274e-06	293.48	136.39	156.52	85.657	2.8322e-06	75.687	0.00020933	0.00019801	5.5021e-05	790.6	2.1758e-06	2.1667e-06	630.31	313.03	2.1971e-06	2.181e-06	269.02	122.44	135.2	75.761	2.1948e-06	66.148	-36.505	15.377	-37.115	-148.943	-11.213	20.021	-150.409	-144.019	-87.673	-18.959	-146.869	-142.899	-139.245	-135.844	-24.231	-139.980	-8191	255	
1852.499	1	1	0	0	0.17397	0.1358	0.077743	0.21291	0.22919	0.080346	0.11701	0.27625	0.084604	0.16958	0.21422	0.18379	0.12638	0.085886	0.21194	0.092409	-0.19375	-1.1229	-0.85208	-0.50625	-1.0812	-0.66458	-0.95833	-1.3896	-0.36875	-1.2812	-1.1583	-0.45833	-1.4	-0.85208	-0.79792	-1.4375	-130.578	50.767	-109.102	178.366	49.733	11.580	127.999	109.198	15.559	-127.396	-130.972	137.175	-2.287	-138.318	-20.386	30.000	0.0011229	0.00098164	5.2791e-05	845.86	5.8103e-06	2.4307e-06	662.8	340.34	6.9954e-06	5.1184e-06	294.91	136.91	156.87	85.838	3.7117e-06	75.936	0.00020764	0.00019709	5.5557e-05	788.85	2.1855e-06	2.1756e-06	628.65	312.83	2.1956e-06	2.1639e-06	269.66	122.37	135.21	75.688	2.1756e-06	66.318	-45.418	-112.216	143.313	-148.811	-9.997	-131.372	-150.056	-144.023	-35.499	-55.592	-147.055	-142.484	-139.813	-135.767	-63.343	-139.906	-8191	255	
1852.572	1	1	0	0	0.23763	0.18506	0.090245	0.22318	0.16922	0.098391	0.039199	0.029158	0.054523	0.24919	0.031834	0.2381	0.0445	0.33543	0.08387	0.14342	-0.12292	-1.1	-1.0021	-0.50417	-1.1437	-0.80833	-0.88125	-1.4896	-0.55417	-1.0083	-1.2083	-0.55625	-1.3667	-0.86667	-0.65625	-1.4417	-124.909	-112.507	118.510	-105.383	129.657	185.586	116.929	-35.525	145.680	38.313	15.560	195.283	58.770	-134.369	160.184	-120.281	0.0011977	0.00019181	0.00013838	846.92	2.5242e-06	1.5823e-06	670.86	340.98	6.5478e-06	3.5497e-06	295.95	136.59	157.29	85.925	4.8382e-06	76.052	0.00020912	0.00019932	5.4979e-05	788.58	2.183e-06	2.185e-06	631.37	313.18	2.1625e-06	2.1641e-06	270.27	122.4	135.66	75.83	2.2124e-06	66.673	-40.614	-17.439	-1.723	-148.992	80.514	-5.848	-150.448	-144.080	-44.750	24.345	-147.141	-142.672	-139.557	-135.646	-38.963	-139.942	-8191	255	
1852.691	1	1	0	0	0.13342	0.11713	0.26265	0.23337	0.049546	0.1776	0.25322	0.06816	0.091731	0.33276	0.024781	0.2867	0.14306	0.38203	0.13662	0.10382	-0.17083	-0.89583	-0.82917	-0.725	-1.4708	-0.80625	-0.55625	-1.4771	-0.575	-0.82708	-1.2271	-0.56667	-1.3854	-0.91042	-0.48958	-1.3	-154.643	-10.678	104.606	-151.356	168.114	-36.683	35.695	188.133	69.033	96.515	-146.036	99.663	-137.182	124.300	-42.798	55.665	0.0010919	0.00053284	0.00012675	848.41	7.5077e-06	4.9415e-06	669.64	341.27	5.684e-06	3.4977e-06	297.01	136.86	156.99	85.98	4.0361e-06	76.217	0.00020676	0.00019685	5.5042e-05	790.44	2.1829e-06	2.1585e-06	632.06	314.14	2.1602e-06	2.1647e-06	270.71	122.89	135.45	75.957	2.1935e-06	66.819	-44.372	-88.905	-96.321	-148.945	-9.594	54.099	-150.159	-144.032	-59.724	-28.413	-146.777	-142.717	-139.621	-135.962	-42.358	-139.527	-8191	255	
1852.787	1	1	0	0	0.17172	0.028727	0.18189	0.11208	0.10112	0.37739	0.04563	0.1238	0.11909	0.0551	0.28738	0.24497	0.15142	0.089182	0.36063	0.2672	-0.12292	-0.87292	-1.1146	-0.56875	-1.1833	-0.78125	-0.49583	-1.4104	-0.6125	-0.57292	-1.2938	-0.48333	-1.0146	-1.2938	-0.39375	-1.2583	125.002	113.901	197.209	150.354	-38.885	168.237	160.959	132.995	128.526	143.235	114.042	142.189	118.700	51.476	-96.106	138.806	0.0010757	0.00059739	5.3248e-05	842.1	6.2092e-06	1.1173e-06	674.51	341.53	2.9507e-06	2.432e-06	297.78	137.13	157.35	86.034	9.1553e-06	76.077	0.00020763	0.00019839	5.4761e-05	789.28	2.1911e-06	2.1408e-06	634.56	314.09	2.1752e-06	2.179e-06	271.74	122.79	135.21	75.799	2.1879e-06	66.623	-36.447	-64.104	-138.989	-148.811	24.128	27.901	-150.250	-143.595	-91.754	-5.241	-146.832	-142.554	-139.611	-135.611	-89.326	-139.599	-8191	255	
1852.883	1	1	0	0	0.27177	0.12786	0.1014	0.17935	0.23547	0.32345	0.14122	0.23517	0.17477	0.17583	0.15605	0.15971	0.070918	0.057336	0.30644	0.10248	-0.27083	-0.53333	-1.2104	-0.52292	-1.075	-0.99375	-0.6625	-1.2812	-0.7375	-0.68958	-1.2812	-0.66667	-1.0438	-1.2521	-0.46667	-1.4979	121.356	44.010	67.524	-158.097	-23.501	158.573	-126.828	156.720	65.591	-36.688	-94.577	-18.485	3.636	130.149	-48.101	84.282	0.0011777	0.00041423	2.4076e-05	842.93	2.4564e-06	7.3859e-07	667.78	340.18	9.8048e-06	4.7372e-06	297.1	135.77	156.53	85.642	4.578e-06	75.414	0.00020579	0.00019728	5.4836e-05	787.88	2.1719e-06	2.1337e-06	632.39	313.61	2.1576e-06	2.1582e-06	270.47	121.77	134.45	75.567	2.1776e-06	66.247	-39.784	-78.808	194.951	-149.110	31.537	-95.669	-150.403	-143.841	-20.594	-51.366	-146.791	-142.710	-139.599	-135.597	-82.506	-139.421	-8191	255	
1853.004	1	1	0	0	0.12166	0.14339	0.19035	0.445	0.23787	0.14705	0.23132	0.21557	0.15406	0.11042	0.13215	0.013927	0.31965	0.31373	0.15727	0.2742	-0.50208	-0.4625	-1.4542	-0.45417	-0.8375	-1.2563	-0.58125	-1.2854	-0.90208	-0.69583	-1.1625	-0.75625	-0.8875	-1.2896	-0.51875	-1.3479	36.832	-139.994	167.753	-152.347	-145.637	70.622	68.382	168.441	197.119	-27.359	-101.421	32.046	-147.633	187.413	53.241	148.032	0.0012697	0.00021175	0.00013033	844.75	5.4522e-07	2.7754e-06	670.93	340.95	6.0056e-06	1.9712e-06	296.12	136.15	155.24	85.131	8.7025e-07	75.477	0.00020606	0.00019683	5.4926e-05	788.44	2.148e-06	2.1376e-06	631.2	313.61	2.1415e-06	2.1333e-06	270.81	121.83	134.24	75.306	2.1564e-06	66.256	-36.994	152.550	-43.167	-148.948	142.560	-46.135	-150.202	-143.940	-65.309	-41.541	-147.096	-143.034	-139.145	-135.659	-58.029	-139.556	-8191	255	
1853.100	1	1	0	0	0.21245	0.093979	0.1162	0.21101	0.14384	0.12436	0.29781	0.21831	0.31969	0.30184	0.042871	0.039309	0.11302	0.45268	0.095517	0.30277	-0.46042	-0.4375	-1.2604	-0.80417	-0.6875	-1.4229	-0.62708	-1.3104	-1.0354	-0.46667	-1.375	-0.69375	-0.70208	-1.6271	-0.4875	-1.3208	43.615	110.194	-26.652	183.571	-146.332	-79.951	111.615	160.690	69.375	6.090	-84.723	119.754	174.532	155.299	121.274	124.281	0.0011112	0.00043574	9.6965e-05	843.56	3.5052e-06	1.7521e-07	667.92	341.19	7.605e-06	2.6978e-06	297.51	136.49	155.86	85.222	2.3118e-06	75.932	0.00020512	0.00019686	5.4843e-05	788.18	2.1558e-06	2.1471e-06	631.87	313.53	2.1384e-06	2.1651e-06	270.73	122.14	134.47	75.415	2.1735e-06	66.529	-35.486	-31.715	-120.761	-148.406	-20.027	72.015	-150.490	-143.657	-29.207	-54.807	-146.878	-142.681	-139.745	-135.781	88.502	-139.536	-8191	255	
1853.172	1	1	0	0	0.16886	0.18378	0.20596	0.15672	0.25194	0.10014	0.2438	0.21951	0.050708	0.064007	0.16958	0.32162	0.046955	0.29288	0.050923	0.071303	-0.42292	-0.49583	-1.2458	-0.95417	-0.51667	-1.3479	-0.42292	-1.1875	-1.1458	-0.55625	-1.35	-0.9375	-0.52292	-1.4875	-0.60833	-1.0333	103.653	157.819	-121.535	-34.145	-130.271	-133.495	137.803	89.419	91.783	150.284	105.051	140.193	-136.769	170.844	76.499	-93.400	0.0010643	0.00058696	7.4744e-05	845.93	9.4345e-06	7.2442e-06	675.72	340.74	2.3544e-06	4.7908e-06	297.06	137.11	156.77	85.416	4.1484e-06	76.29	0.00020561	0.00019765	5.4774e-05	788.31	2.1705e-06	2.1788e-06	633.1	314.06	2.1722e-06	2.1559e-06	272.14	123.1	135.01	75.664	2.1705e-06	66.926	-40.822	-65.176	-26.462	-148.921	-41.797	17.616	-150.278	-143.881	-83.633	-30.616	-146.667	-142.772	-139.472	-135.673	-62.242	-139.804	-8191	255	
1853.292	1	1	0	0	0.023663	0.27471	0.16065	0.09421	0.12675	0.078101	0.19899	0.058283	0.17267	0.08571	0.14475	0.20467	0.18393	0.39546	0.37754	0.03432	-0.81667	-0.47917	-1.2479	-1.05	-0.4625	-1.2396	-0.73958	-1.2021	-1.3479	-0.61667	-1.3021	-1.1437	-0.67083	-1.4375	-0.53542	-0.86667	75.735	131.643	124.817	142.227	124.563	-55.505	88.607	80.559	92.468	-10.349	173.278	133.218	-134.205	170.317	24.372	72.695	0.0012686	0.00014814	8.4734e-05	846.28	8.6283e-06	4.2672e-06	672.12	341.14	3.5705e-06	3.1892e-06	295.49	137.39	155.91	85.851	2.8077e-07	75.392	0.00020796	0.00019724	5.5201e-05	789.74	2.1982e-06	2.1662e-06	633.05	313.82	2.1666e-06	2.1809e-06	270.98	122.83	134.68	75.588	2.1655e-06	66.33	-43.873	14.627	-66.144	-148.640	-29.064	43.943	-150.477	-143.854	-42.785	-136.247	-146.896	-142.791	-139.587	-135.664	-144.416	-139.895	-8191	255	
1853.388	1	1	0	0	0.056025	0.069955	0.35218	0.1415	0.26006	0.18701	0.11633	0.26351	0.16288	0.074665	0.17207	0.2699	0.10048	0.24942	0.22097	0.27092	-1.0187	-0.51458	-1.1562	-1.1521	-0.5	-1.4792	-0.72292	-0.86042	-1.3146	-0.57917	-1.175	-1.175	-0.47083	-1.4813	-0.58125	-0.58542	172.408	-59.032	20.710	174.089	-104.583	55.808	-114.608	149.987	107.553	97.962	-161.092	167.653	-26.042	121.553	-136.533	98.636	0.0013214	0.00010452	0.00011648	842.17	2.0936e-06	2.1872e-06	671.12	339.83	7.4195e-06	3.034e-06	296.92	136.25	155.82	85.582	5.8897e-06	75.176	0.00020557	0.00019931	5.463e-05	787.38	2.1927e-06	2.1558e-06	631.91	313.11	2.1647e-06	2.1699e-06	270.32	121.95	134.84	75.371	2.1647e-06	66.132	-40.208	-28.788	-109.189	-148.997	24.620	40.546	-150.515	-144.155	-45.897	168.731	-147.241	-143.013	-140.067	-136.072	-118.890	-140.102	-8191	255	
1853.483	1	1	0	0	0.061133	0.11183	0.13239	0.20156	0.21018	0.12189	0.080967	0.050848	0.12481	0.027893	0.10905	0.063727	0.23679	0.21435	0.11185	0.13334	-0.9625	-0.425	-0.825	-1.2687	-0.60417	-1.1875	-0.76042	-0.675	-1.2646	-0.57292	-1.0229	-1.3646	-0.51667	-1.4604	-1.0354	-0.75833	185.920	186.458	174.414	53.669	180.392	-118.081	33.162	-47.216	-0.743	-23.539	163.854	-139.878	-110.102	182.631	-155.424	162.362	0.0010217	0.00069217	3.4071e-05	845.97	3.2969e-06	3.7762e-06	668.07	339.1	3.437e-06	7.3971e-06	295.87	137.1	155.7	85.534	4.4636e-06	75.857	0.00020544	0.00019874	5.5092e-05	789.47	2.1967e-06	2.1605e-06	630.42	312.97	2.1994e-06	2.1719e-06	270.6	122.51	134.52	75.418	2.1658e-06	66.421	-31.935	-68.414	-77.396	-148.928	-10.665	165.477	-150.599	-143.893	22.293	14.969	-147.120	-143.155	-139.774	-135.969	-99.945	-139.971	-8191	255	
1853.579	1	1	0	0	0.37628	0.31867	0.13717	0.37469	0.071912	0.21702	0.23697	0.447	0.27043	0.34148	0.17228	0.29688	0.13715	0.26517	0.2851	0.22855	-0.94167	-0.52083	-0.73542	-1.3312	-0.36875	-1.2354	-1.0938	-0.58958	-1.2313	-0.56458	-0.64792	-1.3729	-0.7	-1.1625	-0.91875	-0.51875	65.971	126.040	-123.712	169.519	125.833	55.985	194.475	146.143	146.287	168.635	-128.742	115.760	193.925	158.439	135.855	-131.590	0.00096467	0.00035659	0.00013662	842.85	3.7578e-06	2.9327e-06	669.46	338.92	3.5546e-06	1.4485e-06	298.03	137.24	156.5	85.333	1.0298e-06	75.682	0.00020673	0.00019807	5.55e-05	788.37	2.209e-06	2.1677e-06	631.42	312.64	2.1429e-06	2.1523e-06	271.05	122.51	134.89	75.445	2.1759e-06	66.61	-44.734	-4.232	-139.764	-149.553	15.359	-39.621	-151.300	-144.463	54.496	-160.241	-147.567	-143.698	-140.290	-136.332	190.186	-140.260	-8191	255	
1853.675	1	1	0	0	0.15726	0.15387	0.20413	0.19673	0.24699	0.24747	0.26231	0.44594	0.078219	0.16817	0.0291	0.37515	0.057689	0.13232	0.19835	0.18276	-0.94792	-0.63542	-0.55417	-1.2	-0.33333	-0.91667	-1.125	-0.72083	-1.0167	-0.92083	-0.87083	-1.5583	-0.39792	-1.0854	-1.1833	-0.48125	-94.234	39.368	60.073	-127.050	192.139	-121.156	171.545	164.680	144.388	-148.749	161.316	119.237	100.202	110.451	-7.080	82.760	0.0012849	7.8337e-05	0.00023448	846.76	1.0001e-06	4.7198e-06	671.42	341.86	8.7688e-06	2.5874e-06	298.29	137.9	155.71	85.547	8.1127e-06	75.889	0.00020848	0.00019817	5.5025e-05	790.7	2.166e-06	2.1704e-06	633.74	313.84	2.1672e-06	2.1431e-06	271.83	123.2	134.92	75.611	2.1778e-06	66.777	-33.832	-25.428	-119.837	-149.508	-67.062	-46.826	-150.884	-144.035	-36.463	38.221	-147.459	-142.584	-139.836	-135.865	-15.441	-140.242	-8191	255	
1853.796	1	1	0	0	0.06971	0.17496	0.24669	0.094718	0.17122	0.25837	0.10664	0.22794	0.064125	0.1169	0.05742	0.066749	0.23379	0.13472	0.14195	0.37984	-0.80833	-0.94583	-0.63333	-1.3937	-0.60208	-0.8125	-1.2021	-0.52917	-1.0771	-0.93958	-0.7375	-1.1688	-0.66667	-0.99167	-1.0938	-0.67083	99.089	149.012	-29.498	6.446	162.150	-8.179	74.402	149.431	-56.441	197.898	92.751	102.939	177.207	126.081	-87.229	157.837	0.0011292	0.00096227	0.00013316	846.58	4.2781e-06	3.9252e-06	669.43	340.34	2.3776e-06	6.3728e-06	296.65	136.73	156.02	85.556	2.2015e-06	75.694	0.00020652	0.00019822	5.5619e-05	790	2.1766e-06	2.1546e-06	633.26	313.23	2.1461e-06	2.1677e-06	270.99	122.34	134.48	75.31	2.1378e-06	66.422	-39.530	-98.911	-103.630	-148.990	-49.579	-66.656	-150.288	-143.810	-4.347	-29.757	-146.925	-142.356	-139.602	-135.489	-54.191	-139.693	-8191	255	
1853.867	1	1	0	0	0.11705	0.16354	0.25142	0.060965	0.079899	0.073424	0.26259	0.19436	0.26907	0.014455	0.11466	0.17254	0.22528	0.13866	0.22743	0.41726	-0.80417	-1.0479	-0.36458	-1.3771	-0.58542	-0.84792	-1.4312	-0.47292	-1.0958	-1.2354	-0.41875	-1.2563	-0.70417	-1.0083	-1.1354	-0.48125	107.239	0.213	191.579	175.490	177.126	24.716	18.073	120.957	-104.400	51.560	-9.726	-158.481	117.939	152.429	-155.835	139.790	0.00096258	0.0010643	0.00015668	845.68	5.8841e-06	3.4373e-06	668.52	339.07	3.2148e-06	2.8537e-06	296.72	136.79	155.41	85.153	3.0281e-06	75.922	0.00020601	0.00019622	5.5171e-05	789.18	2.152e-06	2.1652e-06	630.94	312.24	2.1676e-06	2.1459e-06	270.26	121.76	133.99	75.139	2.1599e-06	66.201	-51.397	-58.273	-60.782	-148.326	-15.618	18.944	-150.122	-143.653	-21.661	-39.847	-147.076	-142.384	-139.387	-135.378	-87.451	-139.535	-8191	255	
1853.964	1	1	0	0	0.27208	0.076114	0.22883	0.1795	0.165	0.096832	0.12241	0.12257	0.1159	0.15955	0.25703	0.22143	0.21344	0.327	0.30426	0.10424	-0.64792	-1.1083	-0.3625	-1.1896	-0.73333	-0.74167	-1.2208	-0.53125	-0.76458	-1.3479	-0.45417	-1.3229	-0.8125	-0.74792	-1.4708	-0.75833	31.270	-14.266	-114.553	138.487	21.167	166.347	152.866	161.666	105.132	131.192	125.172	168.231	-158.317	-133.201	130.773	184.189	0.0011456	0.00080008	0.00015529	844.12	2e-06	4.3753e-06	667.68	340.74	1.0391e-06	5.347e-06	298.78	135.88	154.74	85.131	7.6995e-06	75.525	0.00020681	0.00019552	5.4489e-05	786.49	2.1283e-06	2.1511e-06	630.98	312.77	2.135e-06	2.1292e-06	271.32	121.85	133.68	75.018	2.1452e-06	66.193	-35.621	-26.560	-46.706	-148.334	-114.029	44.939	-149.824	-143.503	-81.463	-32.175	-146.785	-142.032	-139.588	-135.571	-41.050	-139.690	-8191	255	
1854.084	1	1	0	0	0.32894	0.23571	0.17334	0.23018	0.091241	0.075609	0.25716	0.32491	0.041151	0.023312	0.16465	0.18654	0.22359	0.3225	0.088953	0.057546	-0.47917	-1.1396	-0.5	-1.3104	-0.90417	-0.52292	-1.5312	-0.81667	-0.95625	-1.1646	-0.54375	-1.2125	-1.0542	-0.64375	-1.4188	-0.75208	-44.246	1.500	66.791	-135.721	-17.761	51.364	-4.975	146.015	193.863	25.651	-80.168	163.525	188.423	-160.854	135.393	138.677	0.0012448	0.00034706	0.00011324	845.33	3.1468e-06	3.7229e-06	671.93	339.95	4.4368e-06	4.786e-06	297.08	137.42	156.16	85.018	3.7316e-06	75.444	0.00020387	0.00019629	5.4652e-05	786.3	2.1546e-06	2.1464e-06	632.25	312.62	2.1525e-06	2.132e-06	271.35	122.44	134.12	75.073	2.1485e-06	66.338	-41.960	-11.300	-105.528	-148.423	75.661	-15.908	-149.924	-143.630	30.320	-25.321	-146.104	-142.254	-139.095	-135.154	-28.261	-139.016	-8191	255	
1854.180	1	1	0	0	0.11631	0.035777	0.11687	0.26198	0.22284	0.10111	0.16738	0.13788	0.093168	0.29034	0.32398	0.16577	0.26049	0.23651	0.22882	0.19964	-0.3625	-1.3833	-0.43542	-1.2042	-0.775	-0.50208	-1.3354	-0.71667	-0.6375	-1.2792	-0.625	-1.0104	-1.1208	-0.68542	-1.1042	-0.69583	80.649	-41.600	-122.292	147.876	-97.279	119.822	-38.012	52.332	130.042	-32.894	169.935	118.492	-116.237	-152.423	-63.970	83.094	0.0010276	0.00036907	0.00018421	847.44	5.2691e-06	5.3326e-06	670.71	339.05	4.528e-06	6.5587e-07	298.13	136.66	156.36	85.05	5.5894e-06	76.184	0.00020588	0.00019619	5.4871e-05	787.92	2.1669e-06	2.1633e-06	632.68	312.7	2.1733e-06	2.1696e-06	271.62	122.75	134.58	75.186	2.1773e-06	66.797	-33.294	-51.561	-156.440	-148.473	13.522	-43.537	-150.044	-143.820	-52.332	-70.054	-146.414	-142.331	-139.272	-135.454	-116.166	-139.581	-8191	255	
1854.277	1	1	0	0	0.15699	0.097073	0.071156	0.059943	0.30126	0.13756	0.18738	0.21977	0.23863	0.143	0.0089797	0.2311	0.23496	0.25505	0.033121	0.18786	-0.31875	-1.325	-0.38333	-0.89583	-1.05	-0.54583	-1.3125	-1.0187	-0.51458	-1.3708	-0.76875	-0.86667	-1.3208	-0.43333	-1.325	-1.1271	-32.595	-153.394	127.811	-90.936	-2.533	41.549	80.772	-142.017	-118.610	97.828	-112.080	89.610	135.404	116.459	101.010	158.709	0.0010188	0.00076641	0.00012946	845.75	5.2298e-06	8.728e-07	669.19	340.01	3.7039e-06	3.6473e-06	293.61	137.13	155.7	84.918	3.4892e-06	75.526	0.00020955	0.00019916	5.5542e-05	789.65	2.1595e-06	2.1828e-06	632.68	312.25	2.1789e-06	2.1285e-06	270.59	122.55	134.37	75.191	2.1696e-06	66.229	-41.182	-79.692	-79.397	-148.528	-14.885	-89.462	-149.747	-143.655	-52.831	-13.827	-146.142	-142.198	-139.208	-135.320	-118.964	-139.107	-8191	255	
#DATA ENDS
