BOXY.EXE: ISS Imagent and Oximeter Data Acquisition Program Version 0.80
Ascii Record File

#ACQ INFORMATION
2  Detector Channels 
16  External MUX Channels 
1  Auxiliary Channels 
5000  Waveform (CCF) Frequency (Hz)
1  Waveforms Skipped 
30  Waveforms Averaged 
1  Cycles Averaged 
16  Acquisitions per Waveform 
10.0806  Updata Rate (Hz) 

#FILE INFORMATION
TRUE -- External MUX Channel results are PARSED.
FALSE -- AC DC and Phase are NOT grouped.
TRUE -- Companion Program Settings File CREATED.
FALSE -- AC data not excluded
FALSE -- DC data not excluded
FALSE -- Phase data not excluded
FALSE -- Auxillary Chn. data not excluded
Tab delimiters

#CALIBRATION STATE
TRUE -- Waveform Calibration Values APPLIED.


#AUX CALIBRATION VALUES
Val Type	aux-1	

Term	1.0000e+00	
Factor	0.0000e+00	


#WF CALIBRATION VALUES
A = Detector Channel
Val Type	A-AC1	A-AC2	A-AC3	A-AC4	A-AC5	A-AC6	A-AC7	A-AC8	A-AC9	A-AC10	A-AC11	A-AC12	A-AC13	A-AC14	A-AC15	A-AC16	A-DC1	A-DC2	A-DC3	A-DC4	A-DC5	A-DC6	A-DC7	A-DC8	A-DC9	A-DC10	A-DC11	A-DC12	A-DC13	A-DC14	A-DC15	A-DC16	A-Ph1	A-Ph2	A-Ph3	A-Ph4	A-Ph5	A-Ph6	A-Ph7	A-Ph8	A-Ph9	A-Ph10	A-Ph11	A-Ph12	A-Ph13	A-Ph14	A-Ph15	A-Ph16	

Term	0.00000e+00	0.00000e+00	0.00000e+00	0.00000e+00	0.00000e+00	0.00000e+00	0.00000e+00	0.00000e+00	0.00000e+00	0.00000e+00	0.00000e+00	0.00000e+00	0.00000e+00	0.00000e+00	0.00000e+00	0.00000e+00	0.00000e+00	0.00000e+00	0.00000e+00	0.00000e+00	0.00000e+00	0.00000e+00	0.00000e+00	0.00000e+00	0.00000e+00	0.00000e+00	0.00000e+00	0.00000e+00	0.00000e+00	0.00000e+00	0.00000e+00	0.00000e+00	0.00000e+00	0.00000e+00	0.00000e+00	0.00000e+00	0.00000e+00	0.00000e+00	0.00000e+00	0.00000e+00	0.00000e+00	0.00000e+00	0.00000e+00	0.00000e+00	0.00000e+00	0.00000e+00	0.00000e+00	0.00000e+00	
Factor	1.00000e+00	1.00000e+00	1.00000e+00	1.00000e+00	1.00000e+00	1.00000e+00	1.00000e+00	1.00000e+00	1.00000e+00	1.00000e+00	1.00000e+00	1.00000e+00	1.00000e+00	1.00000e+00	1.00000e+00	1.00000e+00	1.00000e+00	1.00000e+00	1.00000e+00	1.00000e+00	1.00000e+00	1.00000e+00	1.00000e+00	1.00000e+00	1.00000e+00	1.00000e+00	1.00000e+00	1.00000e+00	1.00000e+00	1.00000e+00	1.00000e+00	1.00000e+00	X	X	X	X	X	X	X	X	X	X	X	X	X	X	X	X	

B = Detector Channel
Val Type	B-AC1	B-AC2	B-AC3	B-AC4	B-AC5	B-AC6	B-AC7	B-AC8	B-AC9	B-AC10	B-AC11	B-AC12	B-AC13	B-AC14	B-AC15	B-AC16	B-DC1	B-DC2	B-DC3	B-DC4	B-DC5	B-DC6	B-DC7	B-DC8	B-DC9	B-DC10	B-DC11	B-DC12	B-DC13	B-DC14	B-DC15	B-DC16	B-Ph1	B-Ph2	B-Ph3	B-Ph4	B-Ph5	B-Ph6	B-Ph7	B-Ph8	B-Ph9	B-Ph10	B-Ph11	B-Ph12	B-Ph13	B-Ph14	B-Ph15	B-Ph16	

Term	0.00000e+00	0.00000e+00	0.00000e+00	0.00000e+00	0.00000e+00	0.00000e+00	0.00000e+00	0.00000e+00	0.00000e+00	0.00000e+00	0.00000e+00	0.00000e+00	0.00000e+00	0.00000e+00	0.00000e+00	0.00000e+00	0.00000e+00	0.00000e+00	0.00000e+00	0.00000e+00	0.00000e+00	0.00000e+00	0.00000e+00	0.00000e+00	0.00000e+00	0.00000e+00	0.00000e+00	0.00000e+00	0.00000e+00	0.00000e+00	0.00000e+00	0.00000e+00	-8.95078e+00	-1.28313e+02	-1.59213e+02	-1.83430e+02	-6.27312e+01	-7.13637e+01	-1.58223e+02	-1.62015e+02	-5.99673e+01	-9.13236e+01	-1.73512e+02	-1.71486e+02	-1.82993e+02	-1.77391e+02	-9.45175e+01	-1.50029e+02	
Factor	3.31521e-05	1.02412e-04	2.51838e-05	1.74125e-01	9.41655e-07	7.87002e-07	1.67823e-01	5.34825e-02	9.62964e-07	9.16794e-07	9.32518e-02	3.26786e-02	3.77044e-02	9.61610e-03	1.01061e-06	1.39087e-02	4.73983e-07	4.79203e-07	1.33295e-07	8.43310e-02	5.25646e-09	5.25144e-09	7.68524e-02	2.57750e-02	5.24916e-09	5.24987e-09	4.19250e-02	1.46082e-02	1.67917e-02	4.47682e-03	5.26103e-09	6.16901e-03	X	X	X	X	X	X	X	X	X	X	X	X	X	X	X	X	



#DISTANCE SETTINGS
A = Detector Channel
A-1	A-2	A-3	A-4	A-5	A-6	A-7	A-8	A-9	A-10	A-11	A-12	A-13	A-14	A-15	A-16	

2.5000e+00	3.0000e+00	2.5000e+00	3.0000e+00	2.0000e+00	3.0000e+00	1.5000e+00	3.0000e+00	3.0000e+00	3.0000e+00	3.0000e+00	3.0000e+00	3.0000e+00	3.0000e+00	1.5000e+00	3.0000e+00	

B = Detector Channel
B-1	B-2	B-3	B-4	B-5	B-6	B-7	B-8	B-9	B-10	B-11	B-12	B-13	B-14	B-15	B-16	

1.0000e+01	1.0000e+01	1.0000e+01	1.4400e+00	1.0000e+01	1.0000e+01	1.5100e+00	1.9400e+00	1.0000e+01	1.0000e+01	1.9900e+00	2.4900e+00	2.4100e+00	2.9000e+00	1.0000e+01	2.9800e+00	




#DATA BEGINS
time	group	step	mark	flag	A-AC1	A-AC2	A-AC3	A-AC4	A-AC5	A-AC6	A-AC7	A-AC8	A-AC9	A-AC10	A-AC11	A-AC12	A-AC13	A-AC14	A-AC15	A-AC16	A-DC1	A-DC2	A-DC3	A-DC4	A-DC5	A-DC6	A-DC7	A-DC8	A-DC9	A-DC10	A-DC11	A-DC12	A-DC13	A-DC14	A-DC15	A-DC16	A-Ph1	A-Ph2	A-Ph3	A-Ph4	A-Ph5	A-Ph6	A-Ph7	A-Ph8	A-Ph9	A-Ph10	A-Ph11	A-Ph12	A-Ph13	A-Ph14	A-Ph15	A-Ph16	B-AC1	B-AC2	B-AC3	B-AC4	B-AC5	B-AC6	B-AC7	B-AC8	B-AC9	B-AC10	B-AC11	B-AC12	B-AC13	B-AC14	B-AC15	B-AC16	B-DC1	B-DC2	B-DC3	B-DC4	B-DC5	B-DC6	B-DC7	B-DC8	B-DC9	B-DC10	B-DC11	B-DC12	B-DC13	B-DC14	B-DC15	B-DC16	B-Ph1	B-Ph2	B-Ph3	B-Ph4	B-Ph5	B-Ph6	B-Ph7	B-Ph8	B-Ph9	B-Ph10	B-Ph11	B-Ph12	B-Ph13	B-Ph14	B-Ph15	B-Ph16	aux-1	digaux	

1790.740	1	1	0	256	0.20824	0.24152	0.24153	0.15276	0.27377	0.19484	0.2187	0.17912	0.22415	0.12256	0.040931	0.16006	0.33849	0.2426	0.2126	0.075214	-0.36667	-0.45625	-1.3583	-0.66042	-0.67083	-1.2042	-0.75625	-1.5167	-0.9625	-0.6125	-1.2646	-0.82083	-0.8875	-1.3979	-0.52917	-1.3167	-47.136	52.253	176.751	150.101	182.432	-137.853	142.398	193.593	47.463	29.041	-120.404	147.508	43.141	-106.888	98.577	89.687	0.0013065	0.00059987	0.00010471	1070.2	7.6413e-06	8.0775e-06	880.07	419.42	9.2281e-06	9.9913e-07	365.99	158.29	187.38	99.803	5.2562e-06	84.557	0.00037776	0.00036874	0.00010133	995.41	4.0421e-06	4.0057e-06	823.25	381.36	4.0428e-06	4.0076e-06	335.17	141.8	160.97	86.759	4.0495e-06	73.483	-34.674	-37.007	119.736	-149.518	-27.541	-35.454	-150.856	-144.399	-12.249	116.580	-147.323	-142.973	-140.002	-135.696	-44.105	-139.962	-8191	255	
1790.837	1	1	0	0	0.33953	0.25296	0.060257	0.10063	0.32478	0.26857	0.13742	0.33198	0.31625	0.23588	0.20743	0.2293	0.27143	0.15526	0.18264	0.21343	-0.67083	-0.53125	-1.3813	-0.925	-0.70625	-1.475	-0.55833	-1.175	-1.1729	-0.56042	-1.4354	-1.0521	-0.73958	-1.6375	-0.71667	-0.97708	-20.354	-106.744	-66.856	158.412	-110.262	-119.563	-80.061	168.678	-98.264	181.730	157.465	58.089	-128.275	136.083	10.802	-155.657	0.0011419	0.0006079	0.00022483	1068.9	1.5204e-06	4.5444e-06	870.47	419.09	9.4469e-06	4.0344e-06	364.7	159.08	186.35	100.07	2.2935e-06	83.983	0.00037316	0.00036429	0.00010142	989.42	4.0356e-06	3.988e-06	816.86	380.74	3.9984e-06	3.9887e-06	334.25	141.49	160.8	86.835	4.0393e-06	73.544	-43.897	13.433	-118.399	-149.377	-123.110	-7.742	-151.030	-144.199	-65.460	-77.152	-147.412	-142.957	-139.742	-135.806	-78.198	-139.918	-8191	255	
1790.933	1	1	0	0	0.16412	0.037705	0.15523	0.34823	0.18963	0.27147	0.19024	0.35812	0.22926	0.27031	0.35915	0.52165	0.11193	0.17852	0.16188	0.20532	-0.95208	-0.30208	-1.0208	-1.0438	-0.46875	-1.4104	-0.79375	-1.0479	-1.1938	-0.3875	-1.1208	-1.0583	-0.68333	-1.4688	-0.48542	-0.7125	19.947	33.070	-156.257	177.585	20.223	-119.470	94.350	149.752	-106.741	-93.791	159.721	173.494	42.394	117.424	65.484	99.297	0.0012613	0.0013855	0.00019685	1073.4	5.2321e-06	7.5663e-06	875.39	419.2	5.7917e-06	4.5262e-06	366.16	157.88	185.74	100.26	7.8711e-06	84.431	0.00037188	0.00036517	0.00010212	992.02	4.0196e-06	3.9714e-06	817.18	380.32	3.984e-06	3.9974e-06	334.36	141.44	160.29	86.959	3.9901e-06	73.681	-34.015	-78.381	-15.695	-149.359	-6.532	59.976	-150.975	-144.140	-37.182	-26.215	-147.357	-143.414	-139.889	-135.609	-91.467	-139.710	-8191	255	
1791.029	1	1	0	0	0.25347	0.11185	0.039596	0.12127	0.35399	0.14783	0.54962	0.25013	0.10051	0.15978	0.14618	0.072756	0.22326	0.10446	0.55427	0.13879	-0.89792	-0.42917	-1.0708	-1.0479	-0.53542	-1.2354	-0.60833	-0.80833	-1.4208	-0.7	-1.2375	-1.1646	-0.46875	-1.5625	-0.85208	-0.85625	197.711	80.718	-22.107	70.154	76.063	-78.948	140.243	174.896	169.891	3.611	4.643	126.514	180.458	168.334	-9.108	-152.394	0.0010605	0.00091155	7.3019e-05	1065.5	7.5353e-06	5.1607e-06	874.18	418.66	6.4667e-06	5.325e-06	367.72	158.61	186.23	100.54	1.77e-05	84.96	0.00036657	0.00036221	0.00010067	987.89	3.9991e-06	3.9733e-06	817.19	380.87	3.9483e-06	3.972e-06	336.12	142.38	160.52	87.36	3.9582e-06	74.277	-42.580	-142.775	0.712	-149.234	-0.260	-58.851	-151.182	-143.966	-37.958	7.028	-147.171	-143.129	-140.031	-135.866	0.261	-139.683	-8191	255	
1791.125	1	1	0	0	0.36474	0.17227	0.090501	0.23161	0.17436	0.15554	0.20541	0.093338	0.16654	0.13258	0.062581	0.2812	0.14206	0.2844	0.080081	0.20748	-0.96042	-0.66458	-0.975	-1.2396	-0.60208	-1.4062	-1.1667	-0.79375	-1.425	-0.61042	-0.99792	-1.2667	-0.49375	-1.4	-0.8625	-0.90625	-0.850	-33.029	-137.212	-140.706	-0.873	-28.098	-128.603	171.322	66.976	-45.512	-141.322	-143.027	169.154	147.646	-25.865	47.096	0.0012172	0.00065085	0.00013835	1070.6	4.7335e-06	4.4088e-06	872.53	421.96	4.3884e-06	5.8096e-06	371.19	160.58	186.66	101.49	4.349e-07	85.922	0.0003676	0.00036002	0.00010094	989.05	3.9519e-06	3.9428e-06	817.4	382.02	3.924e-06	3.9377e-06	337.79	143.58	160.83	87.741	3.9083e-06	74.7	-33.009	-28.732	41.067	-149.185	41.908	-15.921	-150.868	-144.007	-27.119	54.472	-147.146	-142.807	-140.132	-135.686	-10.187	-139.970	-8191	255	
1791.221	1	1	0	0	0.076345	0.35035	0.066212	0.16225	0.085988	0.3126	0.263	0.092262	0.19426	0.048408	0.14145	0.22146	0.14176	0.32112	0.018262	0.26446	-0.97083	-0.51042	-0.88333	-1.4	-0.39583	-1.1333	-1.2479	-0.57083	-1.4021	-0.65	-0.93125	-1.3792	-0.6625	-1.5104	-1.0646	-0.62917	177.319	36.790	147.933	173.411	196.080	-3.180	123.346	103.671	88.095	43.296	-157.405	165.249	-113.648	160.902	75.481	120.635	0.0010748	0.00096074	5.9006e-05	1063	1.3564e-05	6.6012e-06	863.4	419.29	6.1606e-06	1.0429e-05	367.07	160.44	187.92	101.27	5.592e-06	85.916	0.00036477	0.00035727	9.9627e-05	985.28	3.9027e-06	3.9135e-06	811.12	380.13	3.8727e-06	3.8785e-06	334.57	142.33	160.79	87.784	3.8552e-06	74.421	-41.744	-72.855	5.636	-149.179	-55.676	-64.103	-150.626	-144.386	19.313	-33.963	-147.154	-143.140	-140.250	-135.634	-96.897	-140.103	-8191	255	
1791.317	1	1	0	0	0.26377	0.15108	0.30198	0.14395	0.27007	0.15634	0.18801	0.44681	0.21791	0.099377	0.23716	0.072769	0.18911	0.113	0.17978	0.59894	-1	-0.76458	-0.79375	-1.3875	-0.42292	-1.0625	-1.1167	-0.51875	-1.2687	-0.82292	-0.74375	-1.4396	-0.58542	-1.425	-1.1854	-0.86042	71.392	84.139	-111.774	182.278	191.034	140.008	81.844	178.322	-7.563	-38.516	-140.511	-155.650	34.709	-35.161	182.676	136.562	0.0011691	0.0005231	0.00011773	1059.5	1.0673e-05	7.5208e-06	868.79	419.57	8.9552e-06	6.0957e-06	366.95	160.9	187.69	101.41	7.814e-06	86.004	0.00035836	0.00034706	9.7002e-05	981.11	3.8387e-06	3.8145e-06	807.4	379.66	3.8287e-06	3.7865e-06	333.73	142.46	160.73	87.949	3.7644e-06	74.752	-32.487	-87.608	197.922	-149.252	28.049	56.003	-150.924	-144.083	20.461	1.489	-147.324	-143.231	-140.316	-135.862	-70.349	-140.214	-8191	255	
1791.436	1	1	0	0	0.15657	0.1031	0.13465	0.080968	0.091534	0.14763	0.21077	0.18414	0.060735	0.055793	0.34725	0.28556	0.20779	0.28279	0.16024	0.049932	-0.83542	-0.89167	-0.675	-1.6021	-0.6	-0.7625	-1.0063	-0.70833	-1.25	-0.87708	-0.55625	-1.5729	-0.73958	-1.1396	-1.0625	-0.64375	-92.887	-41.538	-14.281	148.997	173.058	-82.028	118.110	92.392	3.833	29.945	126.970	193.729	176.056	172.952	46.956	-127.050	0.001285	0.00085195	8.8197e-05	1059.6	2.4548e-06	3.5855e-06	860.95	418.11	2.8993e-06	1.1367e-05	368.03	161.57	188.46	102.13	4.2009e-06	86.363	0.0003525	0.0003478	9.5903e-05	979.29	3.7989e-06	3.7739e-06	806.48	379.3	3.7842e-06	3.7466e-06	333.97	143.77	161.26	88.309	3.7744e-06	75.212	-34.876	-123.802	196.028	-149.101	44.271	0.523	-150.696	-144.425	86.093	-54.096	-147.537	-143.267	-140.122	-135.841	185.196	-140.020	-8191	255	
1791.532	1	1	0	0	0.15273	0.11498	0.10035	0.056895	0.21526	0.2439	0.21468	0.10588	0.37574	0.19154	0.19348	0.31367	0.052579	0.29863	0.31296	0.19002	-0.98958	-0.81667	-0.51458	-1.4771	-0.70833	-0.8875	-1.3188	-0.61458	-1.0083	-0.88542	-0.45417	-1.3563	-0.87292	-0.93333	-1.2708	-0.53958	42.307	-95.546	-10.042	48.012	166.139	-56.713	154.749	-49.458	-6.464	21.940	159.253	-156.389	-96.419	158.221	7.323	121.779	0.000984	0.00045999	0.00022733	1064	8.1132e-06	2.5767e-06	868.43	420.58	8.7456e-06	6.3663e-06	368.07	162.66	187.57	102.44	4.6305e-06	86.856	0.00035664	0.00034548	9.6686e-05	979.39	3.8137e-06	3.8165e-06	810.1	380.24	3.8582e-06	3.7606e-06	336.41	144.55	161.49	88.545	3.8291e-06	75.437	-38.747	4.915	-135.494	-149.201	-98.183	-43.255	-150.900	-144.082	-39.532	108.408	-147.578	-143.348	-140.045	-135.838	-26.830	-140.335	-8191	255	
1791.606	1	1	0	0	0.21317	0.14539	0.20016	0.40549	0.18089	0.10874	0.27132	0.28205	0.14926	0.066757	0.36914	0.19405	0.34027	0.56833	0.049582	0.10035	-0.75625	-1.0208	-0.40417	-1.4375	-0.59583	-0.58958	-1.4521	-0.77917	-0.94167	-0.86875	-0.59167	-1.3729	-0.81042	-0.85833	-1.4521	-0.66875	81.271	180.986	139.661	135.602	-120.498	59.266	133.890	149.654	166.902	-39.891	117.274	184.973	134.826	-141.313	-125.260	63.550	0.0014807	0.00077198	0.00016533	1064.5	1.2552e-05	4.7458e-06	868.16	418.2	8.5851e-06	7.7798e-06	369.53	162.63	188.1	101.61	1.2603e-05	86.346	0.00035894	0.00034856	9.7914e-05	984.6	3.8604e-06	3.9179e-06	812.26	380.72	3.8547e-06	3.8824e-06	336.8	144.23	161.64	88.17	3.8853e-06	75.12	-36.033	9.286	-69.703	-149.260	-22.590	-24.985	-151.243	-144.240	-84.243	4.063	-147.236	-142.881	-139.629	-135.493	-48.698	-139.938	-8191	255	
1791.702	1	1	0	0	0.36475	0.21786	0.38853	0.18022	0.051211	0.21284	0.11585	0.088716	0.15705	0.19049	0.15791	0.14782	0.2416	0.062456	0.27579	0.14526	-0.54583	-1.1104	-0.42708	-1.2	-0.89167	-0.48958	-1.3583	-0.72083	-0.68958	-1.1938	-0.46667	-1.3	-0.92292	-0.79375	-1.1729	-0.68958	136.773	2.818	-30.810	51.397	-22.045	-35.808	-102.022	95.407	99.380	24.789	-137.114	115.872	154.337	163.247	159.877	-17.551	0.0009392	0.00067553	0.00019297	1067.8	2.672e-06	6.3091e-06	863.25	419.37	6.9742e-07	6.197e-06	368.09	160.15	188.73	101.22	7.6337e-06	85.664	0.00036659	0.00035727	9.9731e-05	985.09	3.8994e-06	3.9119e-06	807.78	380.29	3.927e-06	3.9115e-06	334.37	143	161.39	87.847	3.9115e-06	74.542	-49.035	-50.508	-47.442	-148.846	-4.918	-76.245	-150.955	-144.292	90.265	-20.970	-147.400	-142.541	-139.857	-135.802	-89.369	-139.858	-8191	255	
1791.821	1	1	0	0	0.21745	0.042235	0.21395	0.056375	0.23714	0.15939	0.2524	0.17356	0.05083	0.26193	0.10036	0.22626	0.087986	0.49082	0.27113	0.24555	-0.27292	-1.2125	-0.55833	-1.0938	-1.0167	-0.61042	-1.5521	-0.77917	-0.63333	-1.1896	-0.50417	-1.2167	-1.3208	-0.62083	-1.3625	-1	108.794	184.957	41.181	163.180	-61.819	-21.051	130.087	187.792	57.153	12.854	144.497	113.356	-156.418	134.522	-15.235	131.035	0.0016006	0.00098023	9.4021e-05	1058.2	8.991e-06	4.1754e-06	863.23	418.33	3.1078e-06	9.2501e-06	365.29	159.6	187.48	101.53	5.2497e-06	85.29	0.00036555	0.00035748	0.0001004	981.16	3.8918e-06	3.9192e-06	806.3	378.85	3.9423e-06	3.9272e-06	334.23	142.71	160.69	87.838	3.9426e-06	74.341	-44.453	-100.446	-86.265	-149.138	-63.616	-161.343	-150.919	-144.322	22.671	13.159	-147.375	-142.746	-139.560	-135.572	-31.401	-139.837	-8191	255	
1791.917	1	1	0	0	0.19752	0.071241	0.23353	0.30136	0.23126	0.082411	0.13798	0.45754	0.093927	0.11875	0.17171	0.174	0.11961	0.25401	0.086479	0.0075747	-0.15625	-1.2021	-0.50625	-1.0917	-1.0271	-0.37917	-1.4271	-0.90208	-0.57917	-1.2833	-0.35625	-0.9625	-1.225	-0.71042	-1.125	-0.84167	-14.799	52.342	122.638	-143.311	190.996	18.103	72.082	172.060	-68.074	-104.873	166.233	135.072	166.986	-152.317	-22.621	83.630	0.0012425	0.00098893	6.6954e-05	1062.6	5.0084e-06	5.5407e-06	863.51	417.91	9.0988e-06	6.4598e-06	366.97	159.77	186.28	100.6	9.0317e-06	86.075	0.00036842	0.00035857	9.9976e-05	981.22	3.8953e-06	3.9669e-06	806.28	379.16	3.9355e-06	3.9471e-06	334.77	142.94	160.46	87.597	3.9194e-06	74.813	-36.517	-7.652	-40.937	-148.960	-56.686	-132.971	-150.580	-144.037	-15.922	62.505	-147.121	-142.686	-139.841	-135.496	-22.798	-139.789	-8191	255	
1792.013	1	1	0	0	0.11589	0.048935	0.1744	0.14788	0.04638	0.2844	0.13325	0.19596	0.16222	0.085208	0.080426	0.23709	0.35451	0.28384	0.039868	0.27507	-0.21458	-1.3375	-0.48333	-1.0146	-1.0604	-0.51042	-1.2792	-1.1208	-0.50417	-1.3125	-0.69792	-0.80833	-1.4646	-0.75208	-1.0438	-0.925	-77.128	-38.777	33.972	154.391	-54.799	-149.236	-1.496	40.710	-89.955	149.291	99.977	137.223	184.275	-128.397	22.899	123.050	0.00093316	0.00021796	0.0001969	1067.4	5.9327e-06	3.3588e-06	868.87	414.82	8.2831e-06	5.885e-06	368.78	160.46	186.62	101.36	8.4254e-06	85.984	0.00036743	0.00036038	9.958e-05	983.6	3.9033e-06	3.9611e-06	809.62	378.25	3.9479e-06	3.8791e-06	334.85	143.33	160.64	87.803	3.9247e-06	74.842	-31.955	-118.915	-91.295	-149.274	16.622	-80.168	-150.815	-144.330	2.151	-67.101	-147.556	-143.019	-140.046	-135.739	-82.778	-139.915	-8191	255	
1792.109	1	1	0	0	0.16904	0.22763	0.21617	0.27966	0.082271	0.256	0.17256	0.09735	0.29308	0.22697	0.20976	0.27288	0.085852	0.081464	0.16173	0.26972	0.039583	-1.1083	-0.55	-0.80208	-1.1854	-0.37708	-1.0312	-1.1708	-0.37708	-1.2021	-0.6	-0.725	-1.4	-0.85	-1.05	-1.2958	30.364	107.286	-104.580	172.291	-99.267	-63.162	103.547	165.443	32.292	-119.575	-162.030	-94.932	-132.255	176.058	-160.059	82.435	0.001281	0.0013797	0.00010908	1070.9	8.4926e-06	6.7517e-06	866.45	419.2	1.051e-05	8.0526e-06	365.69	160.63	187.04	100.84	8.9938e-06	85.021	0.00036722	0.0003605	0.00010021	983.49	3.9232e-06	3.9514e-06	808.99	379.39	3.9513e-06	3.9652e-06	333.83	143.18	160.59	87.41	3.9147e-06	74.216	-48.083	-80.750	-47.964	-149.015	-33.430	-15.036	-150.751	-144.149	-97.607	1.312	-147.680	-142.731	-140.358	-135.716	-27.229	-140.317	-8191	255	
1792.230	1	1	0	0	0.055306	0.13314	0.44345	0.073135	0.23718	0.073993	0.047724	0.18594	0.16527	0.097542	0.319	0.11391	0.35678	0.49542	0.27225	0.18492	-0.25625	-1.4104	-0.60208	-0.60208	-1.1625	-0.45625	-0.96458	-1.4813	-0.45	-1.0146	-0.74167	-0.775	-1.1708	-0.82083	-0.70417	-1.425	16.511	-151.267	81.093	77.428	-115.563	-29.902	-157.706	144.520	-73.561	119.687	-146.114	101.172	134.798	162.632	123.882	-63.719	0.00095157	0.0013626	8.6763e-05	1061.8	8.5513e-06	7.9034e-06	855.94	413.91	3.0758e-06	3.7268e-06	360.55	158.54	186.06	100.54	7.9367e-06	84.838	0.0003662	0.00036001	9.9664e-05	978.8	3.9243e-06	3.9774e-06	801.62	376.13	3.9377e-06	3.9154e-06	331.15	141.53	159.97	87.136	3.9235e-06	73.573	-42.341	-98.306	-92.276	-149.328	-53.495	-21.810	-150.897	-144.598	28.029	0.264	-147.612	-143.224	-140.113	-135.795	-33.939	-139.918	-8191	255	
1792.302	1	1	0	0	0.0051087	0.27498	0.16056	0.14546	0.16764	0.077587	0.12088	0.38815	0.38573	0.11426	0.33889	0.1675	0.23772	0.63645	0.12422	0.19775	-0.17083	-0.9875	-0.69792	-0.58958	-1.4312	-0.59583	-0.8375	-1.4	-0.52708	-0.74583	-0.99583	-0.60625	-1.3958	-0.8125	-0.66667	-1.2521	-108.196	75.795	-1.060	-56.199	-143.533	77.199	94.803	170.292	27.102	13.483	183.000	-161.458	-152.820	-143.989	-8.994	115.603	0.00139	0.00034926	6.9604e-05	1061.4	3.7203e-06	7.8022e-06	851.55	414.3	8.9456e-06	2.9398e-06	360.99	157.62	185.86	100.25	8.361e-06	84.401	0.00036755	0.00035872	9.9042e-05	975.76	3.95e-06	3.9421e-06	796.75	376.37	3.941e-06	3.9084e-06	330.07	141.44	160.32	86.929	3.9413e-06	73.549	-33.898	-161.858	138.908	-149.322	116.834	29.199	-150.975	-144.545	-57.436	-46.980	-147.571	-143.229	-139.791	-135.926	-49.916	-140.031	-8191	255	
1792.422	1	1	0	0	0.11044	0.31231	0.1144	0.17758	0.22004	0.22754	0.40743	0.49503	0.021415	0.18682	0.33894	0.054126	0.19959	0.10425	0.12411	0.15657	0.05	-1.1083	-1.0625	-0.675	-1.2437	-0.67917	-0.85833	-1.4417	-0.475	-1.1208	-1.0375	-0.64375	-1.1396	-1.1	-0.72708	-1.4604	158.579	-162.566	-43.947	-154.917	140.425	0.506	104.776	107.011	172.487	130.776	140.618	29.405	139.743	98.288	-86.479	106.025	0.0011712	0.00062008	0.00022388	1054.3	1.3616e-06	5.5492e-06	855.45	413.79	1.6655e-05	6.8581e-06	361.86	158.13	185.72	100.16	1.0316e-05	85.003	0.00037075	0.0003592	9.9844e-05	976.58	3.9719e-06	3.9213e-06	800.42	376.26	3.9453e-06	3.91e-06	330.86	141.77	159.75	86.885	3.9453e-06	73.985	-26.065	176.037	-122.390	-149.397	32.394	-18.900	-150.900	-144.736	-59.776	-9.814	-147.726	-143.038	-139.842	-135.876	-37.674	-140.179	-8191	255	
1792.517	1	1	0	0	0.32544	0.32887	0.15568	0.17414	0.21938	0.22907	0.30354	0.38797	0.13159	0.23362	0.17665	0.30074	0.070579	0.17051	0.067012	0.38266	-0.21875	-0.86667	-1.2271	-0.50208	-1.2292	-0.91042	-0.64792	-1.5938	-0.51458	-0.8625	-1.2563	-0.575	-1.4562	-1.0958	-0.62292	-1.4417	100.484	-124.656	-67.771	101.478	-143.735	100.059	103.566	171.239	-35.486	184.390	-159.872	101.163	54.785	157.210	-60.937	124.776	0.001062	0.0016312	0.00027385	1055.1	2.1048e-06	5.2307e-06	856.98	414.09	9.0743e-06	4.0443e-06	363.35	159.33	185.65	100.49	3.527e-06	85.245	0.00036797	0.000361	9.9081e-05	978.78	3.9726e-06	3.9355e-06	801.6	376.72	3.9524e-06	3.9487e-06	332.44	142.14	160.25	87.213	3.9447e-06	74.302	-30.053	-77.490	-62.015	-149.208	-69.581	91.895	-150.991	-144.063	-32.034	-16.384	-147.765	-143.121	-139.636	-135.927	-140.230	-139.871	-8191	255	
1792.613	1	1	0	0	0.13279	0.053744	0.067665	0.04003	0.31511	0.25274	0.16073	0.25586	0.11141	0.1206	0.058495	0.3463	0.17118	0.19908	0.18925	0.13185	-0.28125	-0.53958	-1.1625	-0.60208	-1.0792	-0.94583	-0.54792	-1.4646	-0.72083	-0.70833	-1.4188	-0.73333	-1.0958	-1.25	-0.29792	-1.4312	-41.610	-142.906	121.187	-129.043	-67.763	31.272	60.460	76.027	-42.160	160.805	75.437	163.619	118.313	177.424	2.105	-160.318	0.0011906	0.00038157	0.00020555	1059.9	9.9386e-06	2.6697e-06	857.35	413.65	5.3711e-06	2.0005e-06	361.09	158.82	185.13	100.2	3.4627e-06	84.24	0.00036927	0.00036333	0.00010035	977.76	3.9407e-06	3.9385e-06	801.35	376.07	3.9524e-06	3.9447e-06	330	141.43	159.91	86.903	3.9527e-06	73.474	-54.346	86.042	161.522	-149.121	-77.331	-144.495	-150.977	-144.379	-1.250	-51.601	-147.292	-143.163	-139.586	-135.574	164.630	-139.692	-8191	255	
1792.709	1	1	0	0	0.17514	0.055849	0.37218	0.032781	0.059884	0.079737	0.12796	0.11534	0.2244	0.12926	0.032526	0.22351	0.16782	0.36902	0.13192	0.039771	-0.33333	-0.60833	-1.4208	-0.59167	-1.0521	-0.97292	-0.6625	-1.3042	-0.84583	-0.73125	-1.4188	-0.56875	-1.1625	-1.5208	-0.4	-1.3458	-128.123	122.341	-2.875	57.043	-9.815	18.689	167.103	101.112	-73.491	-64.882	164.238	123.379	124.256	179.564	186.155	112.918	0.001274	0.00025359	9.9281e-06	1048.7	1.1506e-05	1.924e-06	849.52	413.3	6.6705e-06	7.6828e-06	360.51	156.67	186.5	99.762	1.0887e-05	83.374	0.00037001	0.00035693	9.992e-05	972.52	3.932e-06	3.9436e-06	795.16	375.1	3.9552e-06	3.9203e-06	328.94	140.56	159.71	86.657	3.9667e-06	73.091	-31.757	81.144	-3.069	-149.402	-98.693	-142.310	-150.955	-144.259	-139.575	-29.182	-147.432	-142.783	-140.117	-135.657	-74.552	-139.733	-8191	255	
1792.830	1	1	0	0	0.11026	0.12315	0.18485	0.37688	0.05841	0.03	0.067279	0.29161	0.069471	0.24076	0.1096	0.25725	0.33383	0.22122	0.1192	0.19521	-0.41042	-0.57083	-1.2604	-0.60833	-0.75833	-1.2854	-0.58333	-1.3854	-0.88125	-0.40625	-1.3104	-0.66042	-0.67708	-1.4896	-0.59375	-1.3021	2.118	-154.107	-149.352	131.344	-138.998	183.167	75.632	134.406	-93.213	-44.674	-19.367	138.524	132.945	133.323	-127.606	79.858	0.0011602	0.00071535	9.9326e-05	1048.6	6.3604e-06	2.7092e-06	846.51	413.56	5.3933e-06	2.1202e-06	356.38	157.03	186.02	99.509	2.0852e-06	83.738	0.00036524	0.00036209	0.00010049	970.49	3.9143e-06	3.9057e-06	794.61	374.63	3.9082e-06	3.9682e-06	328.86	140.62	159.7	86.59	3.9706e-06	73.267	-46.297	-67.948	182.863	-149.302	-27.362	151.829	-150.562	-144.158	-45.251	-74.874	-147.566	-143.250	-139.747	-135.625	-43.982	-139.755	-8191	255	
1792.901	1	1	0	0	0.10573	0.39661	0.10971	0.07839	0.16107	0.13806	0.13216	0.39322	0.15714	0.1856	0.36385	0.22377	0.10256	0.32131	0.4842	0.14898	-0.68125	-0.60417	-1.0125	-0.80833	-0.68125	-1.2563	-0.50417	-1.1958	-1.0938	-0.525	-1.3896	-0.925	-0.74167	-1.5083	-0.55208	-1.0583	17.618	-152.320	25.377	-63.962	-34.762	47.155	180.407	140.832	-96.757	28.554	107.269	80.886	-52.849	168.301	-130.268	-106.935	0.0012242	2.1175e-05	0.00013437	1047	4.0956e-06	3.2191e-06	847.86	413.75	7.338e-06	4.1534e-06	361.52	157.12	186.08	99.826	1.0714e-05	84.55	0.00036637	0.00036019	9.9575e-05	972.35	3.9436e-06	3.8956e-06	797	375.35	3.9118e-06	3.9394e-06	330.02	140.97	159.71	86.739	3.96e-06	73.556	-41.197	62.216	-101.973	-149.235	109.574	-0.449	-150.584	-144.112	-76.057	18.132	-147.570	-142.954	-139.341	-135.518	-79.134	-139.594	-8191	255	
1792.997	1	1	0	0	0.26322	0.13404	0.14916	0.24297	0.25685	0.29867	0.4235	0.31665	0.072168	0.19002	0.11698	0.32499	0.21619	0.30438	0.099481	0.20464	-0.73333	-0.4625	-1.1667	-0.9875	-0.575	-1.45	-0.65417	-0.96875	-1.1479	-0.59583	-0.92708	-0.91042	-0.55625	-1.3813	-0.725	-0.96042	181.345	100.191	-122.336	185.293	-104.390	39.030	23.235	-138.648	164.412	17.110	-127.475	127.403	159.417	168.274	83.658	-54.333	0.0010864	0.00022397	0.00019326	1052.3	1.1337e-05	8.3225e-06	851.63	414.52	6.4955e-06	4.5762e-06	362.34	158.65	186.21	100.12	7.26e-06	84.609	0.0003624	0.00036338	9.9835e-05	973.77	3.9534e-06	3.9533e-06	798.45	376	3.9065e-06	3.9612e-06	331.11	141.5	159.9	86.743	3.9515e-06	73.566	-35.229	158.197	161.955	-149.086	28.383	-15.811	-150.608	-143.952	-48.457	-99.830	-147.036	-142.994	-139.803	-135.772	-43.402	-139.994	-8191	255	
1793.118	1	1	0	0	0.13494	0.16526	0.22579	0.22591	0.18132	0.25369	0.25785	0.42852	0.34118	0.079284	0.28314	0.21238	0.17701	0.28252	0.26579	0.032532	-0.9	-0.35208	-1.0729	-0.94583	-0.50625	-1.2646	-0.7375	-0.7625	-1.4458	-0.8	-0.93958	-1.0688	-0.65	-1.5583	-0.64583	-0.87917	-36.252	193.971	-36.782	-57.674	-65.852	28.014	135.917	160.555	-149.478	-135.407	102.188	168.471	-135.169	-161.700	7.403	16.541	0.0014946	0.0011753	0.00016168	1053.8	5.6861e-06	4.0563e-06	848.33	413.72	8.6461e-06	5.2249e-06	363.1	157	185.22	99.583	1.1169e-05	83.702	0.00036575	0.00036437	0.00010018	972.14	3.9606e-06	3.9433e-06	795.92	374.62	3.9337e-06	3.943e-06	329.86	140.02	159.58	86.386	3.9339e-06	72.931	-37.983	-29.898	-23.014	-148.978	85.732	-86.265	-150.383	-143.848	-77.459	-17.538	-147.378	-142.740	-139.435	-135.412	-79.450	-139.363	-8191	255	
1793.214	1	1	0	0	0.21563	0.13022	0.1719	0.1849	0.10774	0.11426	0.16945	0.15459	0.20481	0.29694	0.21593	0.21435	0.18946	0.35274	0.19321	0.096968	-0.90625	-0.45833	-0.89167	-1.2146	-0.42917	-1.2875	-0.81042	-0.77917	-1.4813	-0.35417	-1.0604	-1.2208	-0.49583	-1.5625	-0.76042	-0.73958	-73.524	5.447	14.774	-148.262	151.383	-25.871	139.105	-107.481	177.590	57.833	-23.226	121.079	129.340	196.405	140.185	194.177	0.001247	0.00047819	0.00030911	1045.7	6.6994e-06	2.2158e-06	843.45	411.81	7.4612e-06	8.491e-06	358.42	157.58	183.52	99.654	1.376e-05	83.512	0.00036477	0.0003609	9.9995e-05	969.13	3.9879e-06	3.9276e-06	788.82	373.38	3.9491e-06	3.9511e-06	327.33	140.13	158.58	86.266	3.9298e-06	72.741	-39.611	33.404	-61.640	-148.779	18.810	54.505	-150.459	-143.728	3.087	-18.130	-146.695	-142.588	-139.536	-135.398	-72.089	-139.681	-8191	255	
1793.310	1	1	0	0	0.053577	0.10649	0.18688	0.37773	0.17861	0.20234	0.34936	0.30209	0.18434	0.12401	0.17684	0.22545	0.1242	0.1787	0.10052	0.15566	-0.73542	-0.42083	-0.69583	-1.2917	-0.4375	-1.1042	-0.98958	-0.63958	-1.3042	-0.51875	-0.81875	-1.1187	-0.525	-1.4583	-0.70208	-0.5125	0.620	-131.000	-132.472	159.508	-152.786	60.135	188.762	108.568	120.557	174.134	-157.302	48.948	-50.985	159.269	162.089	8.635	0.0012724	0.00038755	0.00018952	1047.7	7.3896e-06	4.4985e-06	848.64	411.09	6.4188e-06	5.9383e-06	357.82	156.9	184.06	99.56	3.5757e-06	83.663	0.00036601	0.00035923	9.918e-05	969.17	3.9183e-06	3.9541e-06	791.81	373.33	3.894e-06	3.9191e-06	327.86	140.37	159.04	86.409	3.9143e-06	73.009	-37.656	173.099	4.608	-148.916	-65.209	49.881	-150.319	-143.945	-110.113	13.973	-146.889	-142.352	-139.780	-135.308	76.222	-139.619	-8191	255	
1793.406	1	1	0	0	0.14692	0.244	0.081685	0.24597	0.098321	0.039629	0.26643	0.17398	0.1726	0.17649	0.49297	0.042884	0.24812	0.049937	0.13245	0.33618	-0.8	-0.6875	-0.61042	-1.3604	-0.3625	-1.3146	-1.1396	-0.63333	-1.3271	-0.5625	-0.7875	-1.2896	-0.5375	-1.2812	-0.93958	-0.6625	40.513	-132.642	-157.214	137.214	-124.635	27.909	-161.133	13.469	-19.130	176.132	64.552	55.017	136.126	151.343	79.010	18.504	0.0011418	0.00084416	0.0001241	1043	4.4427e-06	6.0512e-06	850.35	413.4	1.185e-05	6.0175e-06	359.21	158.19	184.25	99.692	4.1161e-06	84.063	0.00036862	0.00035798	0.00010019	969.19	3.9448e-06	3.9595e-06	796.04	374.21	3.953e-06	3.9356e-06	329.25	141.16	159.07	86.513	3.8811e-06	73.296	-48.123	-145.118	-116.480	-149.183	44.710	-63.869	-151.017	-144.419	11.823	-67.784	-147.216	-143.053	-139.897	-135.284	-129.323	-140.119	-8191	255	
1793.503	1	1	0	0	0.22946	0.20476	0.078235	0.45589	0.36249	0.1168	0.069812	0.32456	0.021466	0.058993	0.092548	0.12522	0.333	0.28167	0.089208	0.048199	-0.87083	-0.80208	-0.55208	-1.4438	-0.66875	-0.84167	-1.1104	-0.83333	-1.1729	-0.77708	-0.5625	-1.4646	-0.65	-1.1708	-1.0542	-0.61667	-91.597	127.761	9.311	141.575	194.061	-7.443	20.671	141.401	165.390	-133.875	-148.755	118.221	55.870	181.325	-101.754	80.463	0.0010933	5.3898e-05	5.1773e-05	1054.3	2.9064e-06	8.2147e-06	854.01	413.3	5.6945e-06	3.131e-06	362.46	158.86	185.39	99.89	7.7238e-06	84.243	0.0003649	0.00035807	9.9547e-05	973.2	3.9653e-06	3.9318e-06	798.31	375.22	3.9217e-06	3.9248e-06	331.02	141.68	159.36	86.749	3.915e-06	73.646	-34.415	184.841	-44.297	-148.895	119.078	-25.646	-150.630	-143.749	-2.714	21.091	-147.489	-142.953	-139.439	-135.563	-46.810	-139.796	-8191	255	
1793.597	1	1	0	0	0.13339	0.13903	0.1373	0.29581	0.21346	0.1388	0.068592	0.19232	0.11067	0.26348	0.042337	0.40516	0.16397	0.21958	0.25769	0.11567	-0.8	-0.76667	-0.51042	-1.4833	-0.58333	-0.9875	-1.2896	-0.68542	-1.1688	-0.98333	-0.5375	-1.4146	-0.88542	-0.98958	-1.2771	-0.76458	7.969	0.367	154.664	196.756	107.625	37.435	-53.686	86.283	91.109	197.763	-157.685	137.907	99.410	141.116	-86.192	117.082	0.0012725	0.0014524	0.00022681	1053.7	7.5214e-06	6.4469e-06	851	412.65	4.8718e-06	9.1075e-06	358.03	157.71	185.12	100.04	4.9646e-06	84.007	0.00036471	0.00035604	0.0001008	975.14	3.897e-06	3.9235e-06	794.38	374.16	3.8766e-06	3.8698e-06	327.99	140.77	159.16	86.718	3.9098e-06	73.121	-38.208	-54.439	-105.616	-148.803	-158.116	-107.034	-150.758	-144.218	-60.648	-36.707	-147.779	-142.739	-139.660	-135.563	178.040	-139.964	-8191	255	
1793.693	1	1	0	0	0.14147	0.11642	0.16857	0.21553	0.28212	0.19144	0.16758	0.23064	0.098354	0.19128	0.053922	0.16917	0.080183	0.32278	0.049475	0.23075	-0.6375	-0.87083	-0.425	-1.4104	-0.71458	-0.70417	-1.2188	-0.65625	-1.1187	-0.95833	-0.3625	-1.2	-0.69167	-0.875	-1.3271	-0.64167	-146.825	12.924	182.251	-152.434	193.879	-143.679	-121.929	122.052	-23.133	15.626	166.508	-151.484	144.716	-157.433	116.102	166.291	0.0011897	0.00092133	0.00023087	1051.6	1.2393e-06	3.0532e-06	844.42	412.98	4.9692e-06	3.6925e-06	359.75	156.93	184.74	99.967	3.3231e-06	84.182	0.00036138	0.00035379	9.8648e-05	970.54	3.8819e-06	3.8919e-06	789.56	373.57	3.8354e-06	3.8294e-06	328.59	140.26	158.87	86.668	3.8642e-06	73.343	-23.059	-110.908	148.056	-149.056	-16.217	171.382	-150.425	-144.012	-41.925	16.461	-147.245	-142.812	-139.875	-135.428	-140.990	-140.079	-8191	255	
1793.814	1	1	0	0	0.11355	0.21994	0.19568	0.10659	0.2446	0.16153	0.10528	0.040269	0.4561	0.2485	0.29243	0.058504	0.069446	0.30105	0.2658	0.20103	-0.44583	-0.92083	-0.23125	-1.2687	-0.90417	-0.55833	-1.3521	-0.77083	-0.73542	-1.3229	-0.475	-1.2542	-0.95833	-0.96875	-1.2938	-0.775	38.938	-27.061	194.948	-104.017	128.923	-25.705	91.314	-108.456	-115.889	-140.376	-133.340	168.550	94.315	176.862	150.500	146.410	0.00093989	0.00020689	0.00019495	1054.3	3.4404e-06	1.1843e-06	850.42	411.41	3.377e-07	2.9728e-06	361.53	157.34	185.67	99.95	9.2135e-06	84.533	0.00036068	0.0003487	9.7841e-05	970.18	3.7895e-06	3.8434e-06	794.54	374.06	3.811e-06	3.7912e-06	329.81	140.93	159.01	86.732	3.8632e-06	73.521	-40.448	-82.077	-35.258	-149.050	-88.695	112.737	-150.891	-144.257	13.203	12.883	-146.786	-142.904	-139.399	-135.470	-34.054	-139.576	-8191	255	
1793.910	1	1	0	0	0.24987	0.15745	0.17881	0.040026	0.25082	0.12622	0.13222	0.39235	0.17976	0.12133	0.10711	0.096249	0.35044	0.13233	0.15338	0.15631	-0.31458	-1.2229	-0.38125	-1.3979	-0.96875	-0.51458	-1.325	-0.78125	-0.78542	-1.2083	-0.375	-1.1812	-1.2625	-0.76458	-1.2854	-0.53125	138.284	79.025	197.238	73.743	89.980	-25.552	-143.646	108.901	-34.427	-149.308	11.261	-110.945	139.238	146.790	-16.607	166.030	0.0014284	0.00057498	0.00016841	1049.6	5.2555e-06	7.2732e-06	853.67	412.45	4.2637e-06	5.0919e-06	361.78	158.17	185.88	100.25	1.1407e-05	85.052	0.00035884	0.00035002	9.734e-05	969.84	3.8448e-06	3.8485e-06	795.44	374.78	3.8383e-06	3.837e-06	329.74	141.54	159.41	86.866	3.8427e-06	73.943	-43.287	-26.296	-18.947	-148.935	-42.672	-8.429	-150.588	-143.984	161.367	67.576	-146.755	-142.446	-139.444	-135.296	-10.219	-139.794	-8191	255	
1794.004	1	1	0	0	0.044057	0.12589	0.10415	0.2865	0.31294	0.21103	0.36483	0.091652	0.23216	0.22129	0.1694	0.24224	0.30183	0.22963	0.18673	0.10178	-0.24375	-1.2625	-0.54792	-0.93542	-0.93542	-0.46458	-1.4417	-0.78333	-0.59792	-1.1854	-0.55	-1.1208	-1.1354	-0.52917	-1.2125	-1.0896	50.431	-140.402	25.685	50.667	-89.596	-52.633	170.834	110.112	-22.931	-140.244	138.137	115.167	-140.050	178.901	142.015	-121.677	0.001488	0.00057945	7.3517e-05	1047.7	6.7993e-06	4.1488e-06	852.72	413.97	5.4188e-06	8.7871e-06	362.87	159.29	185.34	100.21	8.0665e-06	84.599	0.00036144	0.00035306	9.8324e-05	970.86	3.8695e-06	3.8972e-06	796.61	374.35	3.8772e-06	3.829e-06	330.57	141.57	159.52	86.83	3.8817e-06	73.687	-38.135	167.043	-138.354	-148.920	-56.566	76.437	-150.583	-144.108	-66.792	-43.828	-147.303	-142.535	-139.823	-135.280	9.989	-139.658	-8191	255	
1794.102	1	1	0	0	0.36711	0.13946	0.22482	0.25942	0.19393	0.21918	0.2572	0.49363	0.12227	0.24322	0.096161	0.069622	0.06815	0.40372	0.23136	0.26614	-0.10625	-1.3354	-0.58125	-0.95417	-1.3104	-0.45208	-1.2979	-0.95833	-0.6375	-1.1479	-0.60625	-0.72083	-1.3792	-0.80208	-1.2792	-1	-50.494	11.438	32.465	-144.974	180.896	194.960	69.662	189.692	-16.767	192.842	-112.695	139.417	171.494	-157.403	54.448	-144.785	0.0010338	0.00044607	0.00011267	1053.2	6.1266e-06	5.5895e-06	844.91	412.52	8.7614e-06	6.7979e-06	358.76	158.16	184.61	99.362	4.6996e-06	83.756	0.00036429	0.00035409	9.8375e-05	969.45	3.894e-06	3.895e-06	790.09	373.14	3.9156e-06	3.8988e-06	328.37	140.85	158.61	86.453	3.908e-06	73.252	-33.179	-105.534	-38.620	-148.984	44.687	33.440	-150.892	-143.960	-1.549	19.159	-147.151	-142.652	-139.455	-135.398	-31.735	-139.651	-8191	255	
1794.197	1	1	0	0	0.080875	0.12804	0.15902	0.14857	0.14885	0.33055	0.26972	0.020185	0.087972	0.01489	0.18592	0.16029	0.048679	0.4528	0.16887	0.16758	-0.13333	-1.1417	-0.57917	-0.69375	-1.2396	-0.65417	-1.2521	-1.3146	-0.45417	-1.2458	-0.62917	-0.69583	-1.3292	-0.55	-1.0833	-0.99792	96.127	51.616	72.784	195.371	-106.321	22.142	164.405	-94.638	-84.458	28.404	73.656	183.069	7.152	-151.934	136.091	27.102	0.00091539	0.00030759	0.00017745	1049	4.3296e-06	5.5323e-06	845.98	410.57	6.7693e-06	4.3762e-06	359.9	157.66	184.78	99.554	3.7722e-06	84.358	0.00036715	0.00035525	9.8493e-05	967.97	3.9082e-06	3.9135e-06	791.59	372.96	3.9431e-06	3.9029e-06	328.9	140.84	159.18	86.576	3.9327e-06	73.442	-31.404	-31.029	-71.756	-148.651	-65.854	-100.653	-150.339	-143.797	-50.006	-126.278	-146.880	-142.536	-139.508	-135.358	-134.484	-139.477	-8191	255	
1794.293	1	1	0	0	0.18857	0.14787	0.060316	0.29646	0.23082	0.11408	0.1115	0.16917	0.24217	0.12375	0.16795	0.092984	0.18641	0.11506	0.088205	0.41564	-0.070833	-1.1625	-0.74583	-0.775	-1.3042	-0.54375	-1.1417	-1.3563	-0.34583	-1.25	-0.99375	-0.43542	-1.2354	-0.69583	-0.925	-1.1667	30.230	96.621	-93.190	-107.202	-89.481	-95.237	-126.962	152.897	-94.789	-149.355	8.187	143.985	-159.791	88.840	-89.180	162.202	0.0013381	0.00071244	8.4082e-05	1046.8	1.0701e-05	3.5506e-06	852.15	412.97	7.8829e-06	2.4201e-06	360.24	158.45	185.21	100.09	1.3999e-05	84.24	0.00036606	0.00035491	9.9543e-05	968.74	3.958e-06	3.931e-06	792.59	374.1	3.9495e-06	3.9189e-06	328.73	141.35	159.01	86.768	3.965e-06	73.694	-32.531	-5.891	-141.071	-148.830	-2.399	-108.031	-150.709	-143.864	3.783	25.135	-147.487	-142.873	-139.996	-135.865	-57.351	-140.062	-8191	255	
1794.389	1	1	0	0	0.063801	0.14095	0.25489	0.0057617	0.34598	0.1376	0.21901	0.26947	0.038573	0.17855	0.20481	0.18399	0.11177	0.35085	0.36	0.16348	-0.0020833	-1.0646	-0.76667	-0.56667	-1.1042	-0.4875	-0.85625	-1.3292	-0.41458	-1.1917	-0.95833	-0.50833	-1.5063	-0.94583	-0.82083	-1.2938	-74.727	107.866	-131.456	192.679	85.728	183.681	135.623	-158.222	-160.263	63.255	-99.684	70.169	142.900	127.451	14.570	139.010	0.0012807	0.00026038	0.00010992	1044.4	1.0002e-05	4.9255e-06	850.21	411.59	7.1152e-06	1.2575e-05	361.93	158.92	186.18	99.824	1.066e-05	85.843	0.0003676	0.00035949	0.00010029	968.76	3.9572e-06	3.9333e-06	796.1	374.64	3.973e-06	3.9061e-06	330.36	142.31	159.71	86.759	3.9929e-06	74.356	-38.349	-4.185	-99.696	-149.139	67.499	-24.684	-150.540	-144.168	-9.467	-2.994	-146.910	-143.185	-139.386	-135.663	-32.140	-139.869	-8191	255	
1794.510	1	1	0	0	0.12175	0.20735	0.18157	0.21201	0.37662	0.27827	0.029273	0.2986	0.19436	0.084017	0.10775	0.41712	0.32816	0.27874	0.20538	0.25383	-0.18125	-0.91458	-0.98333	-0.61458	-1.2833	-0.87708	-0.84375	-1.4188	-0.63958	-0.925	-1.3563	-0.4375	-1.3062	-0.74375	-0.69167	-1.4083	-151.033	50.538	-69.405	-89.798	58.261	-87.272	140.310	183.926	35.186	77.869	-155.601	110.767	-130.296	166.243	-8.376	-155.429	0.0013818	0.0004087	2.8258e-05	1052.4	3.1455e-06	6.6303e-06	850.21	411.02	2.4192e-06	3.6538e-06	361.65	158.73	184.93	100	2.7648e-06	84.465	0.00037043	0.00036052	0.00010042	972.83	3.9649e-06	3.9584e-06	798.19	374.18	3.9611e-06	3.9353e-06	330.23	141.72	159.67	86.693	3.9844e-06	73.688	-56.689	65.258	-41.598	-148.781	-64.891	-5.256	-150.549	-144.242	82.396	-161.938	-147.550	-142.612	-139.456	-135.581	-117.618	-139.797	-8191	255	
1794.606	1	1	0	0	0.11702	0.13932	0.4041	0.25419	0.055625	0.38403	0.23313	0.17587	0.10728	0.06092	0.24165	0.098194	0.21264	0.56141	0.29043	0.33629	-0.0625	-1.0812	-0.95417	-0.56042	-1.2917	-0.70625	-0.67292	-1.6521	-0.57917	-1.1396	-1.3875	-0.38333	-1.3625	-1.1646	-0.50208	-1.4667	44.932	-76.424	55.042	-102.259	122.323	193.981	96.381	157.051	-84.835	-91.199	-80.275	152.076	164.646	-159.168	-93.345	183.709	0.0010502	0.00090071	6.7917e-05	1045.1	1.1204e-05	2.1069e-06	850.19	414.38	9.3354e-06	1.1896e-06	361.03	158.48	186.23	100.32	1.12e-05	84.551	0.00036844	0.00035942	0.0001005	969.03	3.9232e-06	3.9453e-06	795.12	375.12	3.9154e-06	3.9392e-06	328.95	141.83	159.82	86.915	3.9291e-06	73.634	-43.588	-104.609	67.062	-148.860	-3.743	160.374	-150.691	-143.935	4.834	112.292	-147.333	-142.739	-139.806	-135.388	-122.120	-139.579	-8191	255	
1794.702	1	1	0	0	0.07724	0.099339	0.032535	0.07373	0.53492	0.10796	0.028392	0.14243	0.12558	0.26393	0.10492	0.37222	0.10168	0.33847	0.33398	0.091179	-0.24167	-0.83958	-1.2167	-0.51875	-1.1458	-1.2104	-0.63542	-1.5396	-0.62083	-0.78542	-1.4208	-0.63958	-1.2687	-1.2292	-0.45625	-1.4396	-82.693	-111.665	36.873	80.097	174.604	140.375	-37.970	187.144	81.682	-15.116	-77.120	196.121	172.439	161.255	-45.112	150.310	0.0011695	0.00050777	8.5141e-05	1048.9	7.3594e-06	8.5104e-06	845.94	414.46	8.3321e-06	3.6453e-06	361.96	158.48	186.6	100.03	4.1862e-06	84.933	0.0003641	0.00035946	0.00010039	971.64	3.902e-06	3.8812e-06	793.48	375.57	3.9195e-06	3.9161e-06	330.31	141.61	159.96	87.004	3.9203e-06	74.012	-29.667	-105.624	80.890	-148.879	11.831	-49.832	-150.431	-144.214	11.240	-38.442	-146.919	-142.979	-139.341	-135.593	-120.135	-139.752	-8191	255	
1794.773	1	1	0	0	0.042366	0.21526	0.16691	0.17472	0.19087	0.29144	0.27376	0.33579	0.09819	0.089826	0.11686	0.049895	0.39526	0.33495	0.20379	0.29472	-0.20625	-0.72917	-1.3333	-0.7625	-0.94583	-1.0479	-0.48333	-1.4813	-0.875	-0.83542	-1.3667	-0.70833	-1.0021	-1.4792	-0.28958	-1.3813	-67.655	35.385	118.312	153.777	67.711	112.942	44.148	161.322	-18.533	-96.124	193.046	187.286	196.082	-112.989	52.884	116.584	0.0012078	0.00068658	6.9421e-05	1053.9	5.1539e-06	5.6661e-06	848.3	415.31	1.5268e-05	6.7115e-06	363.49	159.15	187.07	100.06	8.945e-06	85.044	0.00036187	0.00035648	9.8907e-05	974.41	3.8855e-06	3.9144e-06	796.34	377.16	3.8463e-06	3.9307e-06	331.64	141.92	160.18	87.084	3.907e-06	74.191	-22.424	-110.890	-84.625	-149.053	-79.501	-90.302	-150.581	-144.311	-21.475	121.546	-147.514	-143.233	-139.835	-135.508	-47.533	-139.610	-8191	255	
1794.894	1	1	0	0	0.11486	0.18823	0.43798	0.12367	0.32747	0.20318	0.22306	0.05776	0.14364	0.33371	0.28639	0.23983	0.12995	0.27751	0.28695	0.26209	-0.41042	-0.65833	-1.0854	-0.59583	-0.72292	-1.0542	-0.62917	-1.3167	-0.70625	-0.65	-1.5604	-0.81875	-1.1479	-1.2062	-0.42917	-1.475	43.373	-84.490	165.780	181.078	117.662	-135.117	135.742	-65.852	-91.679	155.537	183.794	166.210	154.302	167.946	-80.159	-150.918	0.0011201	0.00048362	0.0001798	1059.9	7.8587e-06	1.4521e-05	858.53	414.52	4.6993e-06	1.0214e-05	365.22	159.74	185.28	99.628	5.2511e-06	85.128	0.00036173	0.00035988	9.8771e-05	974.02	3.9023e-06	3.8643e-06	801.56	376.64	3.8682e-06	3.9136e-06	333.04	142.42	159.39	86.692	3.894e-06	73.97	-40.039	-89.959	-66.934	-149.124	76.470	-1.301	-150.715	-143.865	-94.244	-74.013	-146.868	-142.759	-139.568	-135.462	-44.060	-139.615	-8191	255	
1794.990	1	1	0	0	0.22154	0.21353	0.11506	0.11163	0.159	0.14684	0.039578	0.047126	0.23359	0.24639	0.1828	0.28767	0.22509	0.36466	0.13665	0.1487	-0.57917	-0.61875	-1.1521	-0.72917	-0.75833	-1.2042	-0.74167	-1.3125	-0.97708	-0.64167	-1.2646	-0.9375	-0.63542	-1.6375	-0.38958	-1.2854	34.436	-46.063	26.713	148.283	-24.466	46.440	-158.199	-9.907	116.195	181.736	-99.002	154.660	160.917	-155.286	14.643	-119.619	0.0012555	0.00021566	7.6451e-05	1050.7	2.0634e-06	4.284e-06	856.73	414.04	3.9288e-06	2.4439e-06	363.78	156.82	183.01	98.982	5.199e-06	84.039	0.00036076	0.0003554	9.8385e-05	970.99	3.907e-06	3.8834e-06	798.16	375.21	3.9139e-06	3.9144e-06	331.35	140.44	158.06	85.822	3.8961e-06	73.092	-47.401	-30.688	42.103	-148.916	-47.444	-3.741	-150.227	-143.898	35.693	185.234	-147.091	-142.887	-139.620	-135.774	-25.656	-139.922	-8191	255	
1795.085	1	1	0	0	0.26264	0.14319	0.095947	0.10431	0.16787	0.053599	0.16853	0.32456	0.19888	0.17582	0.20098	0.26427	0.040754	0.23704	0.050523	0.2016	-0.70417	-0.56875	-1.2021	-0.87708	-0.43125	-1.3542	-0.58542	-1.1333	-1.0938	-0.40833	-1.5312	-0.89792	-0.54167	-1.4979	-0.7375	-0.92708	178.410	-136.764	-111.151	-132.800	-39.836	162.397	118.871	144.391	142.409	-62.219	180.443	74.653	-91.783	144.154	158.830	145.031	0.0015178	0.00060896	0.00018707	1049.9	4.0156e-06	7.1672e-06	853.43	411.72	8.3161e-06	5.6735e-07	362.71	156.99	182.77	98.983	3.4647e-06	83.858	0.00036205	0.00035504	9.9094e-05	967.8	3.9094e-06	3.872e-06	796.2	373.55	3.8975e-06	3.8697e-06	329.78	140.31	157.75	85.853	3.9055e-06	73.068	-37.303	-38.017	-60.894	-148.935	10.430	-8.849	-150.878	-143.956	-38.644	65.292	-146.930	-143.207	-139.270	-135.295	72.649	-139.362	-8191	255	
1795.183	1	1	0	0	0.05352	0.16324	0.15662	0.19412	0.06112	0.31886	0.11497	0.27242	0.10338	0.22399	0.13151	0.43264	0.19546	0.081636	0.13366	0.24213	-0.84167	-0.38125	-1.2375	-1.1375	-0.58333	-1.225	-0.68958	-1.0604	-1.3208	-0.48333	-1.1604	-1.025	-0.66667	-1.5583	-0.81667	-0.925	-59.880	197.494	53.619	-144.229	24.119	52.529	126.198	149.488	29.039	152.685	-156.937	159.054	-30.140	51.045	45.444	125.517	0.0012176	0.0007849	0.00028065	1050	6.3758e-06	8.9503e-06	851.36	413.83	4.6121e-06	5.0471e-06	361.47	157.88	184.35	99.92	1.1393e-05	85.031	0.00035832	0.00035526	9.8574e-05	967.47	3.914e-06	3.8348e-06	795.6	374.9	3.8571e-06	3.8731e-06	330.99	141.19	158.59	86.379	3.904e-06	73.734	-34.373	-31.277	189.373	-148.862	51.773	-79.823	-150.077	-143.754	-92.653	-0.108	-146.832	-142.217	-139.207	-134.857	-54.958	-139.261	-8191	255	
1795.301	1	1	0	0	0.29121	0.15511	0.15341	0.2395	0.044046	0.10578	0.18072	0.22844	0.33377	0.17566	0.25691	0.3719	0.28269	0.34422	0.097142	0.20982	-1.0063	-0.525	-1.075	-1.1646	-0.525	-1.2313	-0.78333	-0.74792	-1.25	-0.46667	-1.3771	-1.2146	-0.6625	-1.3958	-0.75625	-0.69792	-40.383	69.997	81.242	-155.276	-2.204	65.777	107.212	-86.016	42.515	-104.434	110.244	138.528	133.556	164.540	49.300	146.323	0.0012279	0.0005818	4.2116e-05	1049.1	1.2577e-05	1.6564e-06	854.02	411.23	8.7132e-06	4.0814e-06	363.36	159.7	184.86	100.76	7.3018e-06	85.284	0.0003591	0.00035273	9.7944e-05	967.94	3.9097e-06	3.8652e-06	800.59	375.17	3.8805e-06	3.8958e-06	332.97	142.19	159.01	87.138	3.8769e-06	74.329	-51.121	-18.640	90.932	-148.424	14.063	63.980	-150.338	-143.280	-22.319	-125.333	-146.719	-142.471	-138.894	-134.820	-76.613	-139.055	-8191	255	
1795.398	1	1	0	0	0.32011	0.33424	0.061676	0.25679	0.12943	0.11507	0.1902	0.35799	0.39609	0.050606	0.20441	0.27134	0.03912	0.14406	0.17352	0.2195	-0.83542	-0.63125	-1.05	-1.4083	-0.64583	-1.4083	-0.9875	-0.71875	-1.3417	-0.65208	-1.0396	-1.3563	-0.58333	-1.4646	-1.0187	-0.68958	14.476	179.658	-122.964	69.675	-14.200	66.023	77.961	157.172	-66.766	-121.253	-82.520	128.224	-80.185	148.616	-76.348	95.838	0.001121	0.00049369	0.00012489	1058.1	2.1511e-06	6.9894e-06	859.36	415.26	8.4373e-06	4.0129e-06	367.81	160.26	184.89	101.03	1.2615e-06	86.582	0.00035926	0.00035385	9.8438e-05	974.04	3.8769e-06	3.8491e-06	804.35	377.24	3.8446e-06	3.8466e-06	336.06	143.4	159.63	87.576	3.8498e-06	75.028	-34.462	-42.705	-109.273	-148.706	-74.106	9.885	-150.284	-143.555	-0.973	-150.992	-146.532	-142.136	-139.062	-134.798	30.431	-139.326	-8191	255	
1795.494	1	1	0	0	0.25036	0.25432	0.33261	0.15668	0.30185	0.26311	0.49876	0.30054	0.23261	0.23719	0.094359	0.11287	0.21272	0.32131	0.12137	0.14528	-0.88542	-0.77083	-0.78333	-1.5146	-0.5625	-1.0625	-1.1542	-0.71458	-1.1688	-0.47292	-0.9875	-1.3771	-0.46458	-1.3979	-1.1313	-0.525	45.060	9.599	183.075	-124.261	-44.070	126.595	150.754	153.207	-108.162	-8.413	153.196	111.606	141.910	-137.384	-26.102	-48.538	0.0013245	0.00084948	0.00010656	1048.1	9.3431e-06	4.5755e-06	863.92	415.96	9.7892e-06	4.2287e-06	368.67	161.21	185.46	101.51	3.1188e-06	85.95	0.00035772	0.00034791	9.776e-05	970.91	3.8271e-06	3.8254e-06	803.28	377.14	3.8302e-06	3.8355e-06	334.34	143.1	160.06	87.942	3.8387e-06	74.668	-34.418	-8.981	-99.505	-148.437	-16.664	-82.389	-150.322	-143.644	-12.460	-70.445	-146.837	-142.486	-139.295	-135.160	-123.737	-139.259	-8191	255	
1795.590	1	1	0	0	0.10264	0.13042	0.15104	0.10225	0.22934	0.15827	0.23668	0.1271	0.20104	0.30435	0.27582	0.22857	0.12412	0.16831	0.027492	0.18665	-0.86458	-0.75417	-0.67708	-1.4646	-0.55208	-1.125	-1.3312	-0.71042	-1.175	-0.82292	-0.84375	-1.4396	-0.60833	-1.2604	-1.3979	-0.68542	119.148	118.428	19.520	77.534	-50.616	79.034	163.316	183.330	103.247	-4.897	35.630	145.754	-159.775	157.474	-35.031	171.636	0.0013718	0.00032706	0.00016163	1051.5	1.0638e-05	4.7042e-06	858.09	416.49	8.2156e-06	1.4995e-06	367.6	160.22	186.24	101.45	1.5085e-06	85.798	0.000354	0.00034605	9.7595e-05	969.34	3.841e-06	3.7941e-06	800.36	376.54	3.7794e-06	3.8063e-06	334.34	142.72	159.61	87.876	3.8044e-06	74.532	-36.436	-101.399	-32.343	-148.719	-59.687	17.978	-150.423	-143.704	-154.667	-139.606	-147.100	-142.595	-139.491	-135.261	-57.621	-139.415	-8191	255	
1795.686	1	1	0	0	0.162	0.22139	0.192	0.17808	0.23166	0.05723	0.36059	0.1005	0.09971	0.10024	0.040149	0.32394	0.16169	0.46332	0.20349	0.27435	-0.91667	-0.97083	-0.63958	-1.4625	-0.47083	-0.99792	-1.2687	-0.60208	-1.2479	-0.84583	-0.54375	-1.3958	-0.51875	-1.2604	-1.3229	-0.57917	44.275	-86.456	-113.905	-51.116	-100.586	189.425	142.418	123.664	40.821	-101.198	138.742	146.334	128.314	176.720	-159.467	-160.425	0.0010268	0.0009071	0.00012939	1049.8	7.9883e-06	4.0545e-06	853.71	414.81	6.072e-06	4.2188e-06	367.11	161.23	186.04	100.91	9.7652e-06	86.004	0.00035429	0.00034672	9.5928e-05	966.78	3.7997e-06	3.7849e-06	798.74	376.49	3.7839e-06	3.7663e-06	334.05	143.23	159.75	87.503	3.7813e-06	74.666	-46.310	-69.351	-103.429	-148.796	-1.291	-62.795	-150.445	-143.943	-96.831	-99.856	-147.283	-142.801	-139.469	-135.403	-75.958	-139.550	-8191	255	
1795.782	1	1	0	0	0.15732	0.3001	0.14394	0.14427	0.083986	0.28865	0.24261	0.37779	0.13705	0.16316	0.44752	0.12409	0.12902	0.24874	0.1214	0.39138	-0.73333	-0.93958	-0.21667	-1.4813	-0.62083	-0.7875	-1.3917	-0.55625	-0.98542	-0.8375	-0.70208	-1.3687	-0.85625	-0.70417	-1.2104	-0.77083	75.352	-110.687	48.872	61.918	-105.648	-152.424	98.251	153.329	-106.101	-29.826	140.850	-137.079	-111.170	154.437	-7.090	142.201	0.00099174	0.00064307	0.00017811	1048.8	3.4507e-06	8.1641e-06	859.47	416	8.0429e-06	1.3022e-06	368.91	160.46	186.63	101.4	1.4656e-06	86.38	0.00035441	0.00034427	9.6974e-05	970.73	3.7971e-06	3.793e-06	803.66	376.72	3.8178e-06	3.7637e-06	334.6	143.3	160.17	87.747	3.775e-06	75.055	-47.222	2.302	-93.312	-148.426	195.109	-33.741	-150.631	-143.664	2.375	-137.271	-146.876	-142.920	-139.806	-135.992	26.207	-140.268	-8191	255	
1795.903	1	1	0	0	0.078924	0.18316	0.069219	0.064442	0.043246	0.19103	0.16599	0.26784	0.27189	0.14487	0.10605	0.16503	0.24766	0.40806	0.098402	0.28625	-0.625	-0.89375	-0.30208	-1.4396	-0.71042	-0.62708	-1.5104	-0.61875	-0.93125	-1.1292	-0.64375	-1.2667	-0.75833	-0.83542	-1.2146	-0.80833	-99.832	132.517	9.395	-123.266	-49.005	-127.899	184.473	134.743	-2.332	169.165	-109.079	176.502	-103.154	186.603	114.581	185.168	0.00094185	0.0001619	0.00019135	1050.8	1.8379e-06	2.4268e-06	861.81	416.04	8.491e-06	7.219e-06	368.9	161.55	185.55	100.61	1.0897e-05	86.102	0.00035732	0.00034645	9.6165e-05	972.73	3.7736e-06	3.8075e-06	805.18	376.76	3.8021e-06	3.7709e-06	334.49	144.04	159.77	87.565	3.7976e-06	74.819	-37.450	-32.873	-152.025	-149.046	-110.400	-142.610	-150.817	-144.169	-134.594	125.351	-147.529	-142.583	-139.752	-135.583	-25.964	-139.919	-8191	255	
1795.997	1	1	0	0	0.096666	0.24621	0.37899	0.031872	0.23418	0.23149	0.11086	0.078336	0.090325	0.26536	0.14674	0.22425	0.066327	0.073842	0.05811	0.28075	-0.5125	-1.0458	-0.2875	-1.2021	-0.95	-0.49167	-1.1042	-0.77292	-0.72083	-1.1542	-0.51667	-1.2375	-0.9875	-0.65208	-1.2958	-0.89167	-37.856	163.501	-41.867	151.303	181.698	65.251	49.115	98.201	-128.082	-125.267	-1.045	132.156	25.165	183.372	-100.799	121.755	0.0012202	0.0013145	0.00017483	1045.1	4.2039e-06	4.4136e-06	855.12	414.35	8.6697e-06	8.8029e-06	366.73	159.98	186.61	100.49	1.0253e-05	85.582	0.00035515	0.00034474	9.68e-05	969.09	3.7978e-06	3.8042e-06	798.51	375.47	3.8275e-06	3.7767e-06	332.74	142.74	159.62	87.274	3.8186e-06	74.277	-35.550	-15.702	-118.491	-149.148	25.038	52.773	-150.684	-144.204	-95.226	-42.152	-147.484	-142.860	-139.739	-135.409	-17.587	-139.675	-8191	255	
1796.071	1	1	0	0	0.18235	0.13497	0.10751	0.28258	0.047078	0.32242	0.35896	0.31503	0.10645	0.18356	0.21369	0.092714	0.11091	0.3139	0.17084	0.22206	-0.33958	-1.1063	-0.5	-1.0604	-1.0312	-0.38958	-1.3188	-0.77083	-0.48542	-1.1521	-0.61875	-1.0792	-1.2333	-0.64583	-0.98125	-0.95625	-112.166	139.030	-53.901	-152.319	-83.215	-30.020	150.883	123.891	188.039	-103.946	175.330	-42.601	21.289	189.109	-126.488	-157.184	0.0012927	0.00126	0.000274	1048.5	1.2474e-05	3.8277e-06	852.97	415.03	5.3723e-06	5.6718e-06	364.17	159.89	186.01	100.69	9.5546e-06	85.358	0.00035582	0.00034577	9.6581e-05	968.15	3.834e-06	3.8281e-06	797.49	374.99	3.8276e-06	3.7795e-06	331.39	142.48	159.28	87.162	3.8067e-06	74.247	-36.091	-125.064	-80.012	-148.777	-45.820	-23.218	-150.643	-144.321	-15.793	-6.569	-147.161	-142.533	-139.800	-135.434	-61.930	-139.630	-8191	255	
1796.190	1	1	0	0	0.149	0.10296	0.13357	0.17199	0.10367	0.33658	0.099987	0.37865	0.20824	0.17899	0.074112	0.11182	0.12552	0.26048	0.073875	0.31719	-0.097917	-1.4229	-0.43333	-1.0271	-1.125	-0.35417	-1.2604	-0.99167	-0.45208	-1.3958	-0.57917	-1.0646	-1.3021	-0.77708	-1.225	-1.2479	-101.305	2.152	-135.842	114.973	95.053	180.885	141.376	107.458	-4.983	39.382	48.623	153.086	180.100	-148.471	-80.406	141.707	0.001082	0.0012366	0.00015361	1048.1	3.7452e-06	9.1243e-06	856.98	413.75	6.1079e-06	2.9404e-06	365.3	160.09	185.96	100.39	1.4275e-05	85.616	0.00035575	0.00034607	9.6678e-05	967.33	3.8209e-06	3.8536e-06	799.67	375.26	3.854e-06	3.8173e-06	331.79	142.82	159.83	87.172	3.8386e-06	74.377	-39.507	-131.619	190.807	-149.196	-4.958	41.580	-150.565	-144.102	-62.115	12.684	-146.970	-142.629	-139.871	-135.524	-95.190	-139.749	-8191	255	
1796.286	1	1	0	0	0.13834	0.27175	0.095681	0.32465	0.12414	0.2901	0.4009	0.34866	0.10327	0.22049	0.15888	0.12045	0.19693	0.30427	0.18739	0.012628	-0.072917	-1.1375	-0.40208	-0.97083	-1.075	-0.57917	-1.1958	-1.075	-0.39792	-1.1729	-0.85833	-0.9125	-1.3937	-0.63542	-1.2146	-1.1646	-156.946	106.564	88.866	99.747	-157.474	10.286	-152.865	186.923	119.637	-45.992	185.521	60.142	20.699	167.235	-54.806	172.237	0.0011852	0.00049272	3.5088e-05	1051.3	5.9612e-06	5.6378e-06	856.98	414.44	1.5377e-06	4.4271e-06	366.67	161.94	186.44	100.9	5.3046e-06	86.03	0.00036355	0.00034961	9.7423e-05	972	3.8595e-06	3.8739e-06	803.07	375.58	3.8768e-06	3.8171e-06	333.87	143.8	160.02	87.46	3.8593e-06	75.063	-38.383	63.307	151.472	-149.187	38.435	-30.636	-150.434	-143.906	-101.559	26.057	-147.873	-142.613	-139.698	-135.599	-134.497	-140.063	-8191	255	
1796.382	1	1	0	0	0.19609	0.20402	0.22894	0.14871	0.093442	0.22076	0.068484	0.13896	0.23061	0.062982	0.14637	0.31273	0.25138	0.2726	0.10936	0.23399	-0.12292	-1.0896	-0.57083	-0.93333	-1.2938	-0.47708	-1.1583	-1.275	-0.39583	-1.2125	-0.88333	-0.71875	-1.3229	-0.67083	-1.0042	-1.3708	-10.974	104.882	-118.577	-56.186	-39.335	-79.915	153.719	130.156	-124.046	-123.394	107.769	-159.847	152.760	145.111	156.464	97.971	0.001208	0.00037614	0.0002253	1052.6	4.6239e-06	1.1207e-05	865.93	415.43	1.1418e-05	7.7306e-06	364.95	160.96	186.77	100.98	9.6039e-06	85.436	0.00036253	0.00035086	9.8173e-05	974.32	3.8328e-06	3.8276e-06	807.16	376.84	3.8814e-06	3.8118e-06	334.43	143.74	160.46	87.628	3.8359e-06	74.863	-28.815	-2.778	-66.274	-148.708	-126.019	10.656	-150.727	-144.128	-26.818	-50.190	-147.137	-142.847	-139.640	-135.777	-151.022	-140.063	-8191	255	
1796.478	1	1	0	0	0.14027	0.29214	0.15336	0.064121	0.258	0.21245	0.30745	0.17049	0.20816	0.26501	0.086051	0.13312	0.32339	0.3941	0.12566	0.25995	-0.0375	-1.2792	-0.80208	-0.78542	-1.1979	-0.75417	-1.0646	-1.3167	-0.46458	-1.2667	-0.93125	-0.45	-1.3438	-0.77917	-0.94167	-1.625	42.170	-33.748	98.217	-104.829	56.976	-132.673	187.894	151.592	-109.361	-90.642	197.235	141.030	193.020	178.215	-101.038	126.002	0.0013323	0.00097168	0.0003377	1052.1	1.6451e-05	5.5845e-06	856.13	413.89	7.2036e-06	3.9891e-06	363.46	160.31	185.5	101.22	7.0171e-06	86.314	0.00036201	0.00035037	9.7315e-05	971.04	3.8226e-06	3.8445e-06	801.68	375.95	3.8542e-06	3.8334e-06	331.82	143.16	159.82	87.529	3.8823e-06	74.834	-43.451	-80.957	-93.384	-149.225	-37.328	-1.593	-150.885	-144.082	-54.978	-132.409	-147.447	-142.740	-139.654	-135.720	-5.913	-139.602	-8191	255	
1796.599	1	1	0	0	0.1435	0.28598	0.16168	0.31408	0.041079	0.20004	0.11307	0.24548	0.18498	0.065057	0.28397	0.29768	0.14737	0.35084	0.3255	0.20741	0.020833	-0.95833	-0.83125	-0.65208	-1.2021	-0.84375	-0.825	-1.4667	-0.53125	-1.0354	-1.2083	-0.60208	-1.3	-1.0646	-0.66042	-1.4833	-42.019	-14.704	-115.225	182.537	-154.457	-42.757	154.707	98.169	151.041	114.564	196.457	157.379	-139.225	184.344	-89.872	119.247	0.0012251	0.0014958	0.00016353	1051	1.183e-05	1.0883e-06	860.26	413.79	3.5706e-08	1.37e-06	368.38	160.07	187	100.46	5.9644e-06	85.783	0.0003557	0.00034774	9.7235e-05	968.89	3.7777e-06	3.8354e-06	800.17	375.07	3.8335e-06	3.8266e-06	333.08	142.85	159.75	87.403	3.8376e-06	74.58	-34.567	-28.353	-128.075	-148.673	-59.938	-120.419	-150.406	-144.154	48.083	-0.046	-147.228	-142.776	-139.674	-135.535	-15.419	-139.944	-8191	255	
1796.695	1	1	0	0	0.39622	0.19676	0.047023	0.27428	0.16741	0.20821	0.027292	0.16125	0.17482	0.24997	0.06002	0.33725	0.19938	0.20442	0.10072	0.10626	-0.13542	-0.82083	-0.9875	-0.53125	-1.3104	-0.68958	-0.675	-1.35	-0.45208	-0.9875	-1.0562	-0.59583	-1.2875	-0.95625	-0.475	-1.4958	117.371	-69.960	18.496	143.735	38.109	149.692	-40.822	122.288	-79.179	108.722	-140.977	155.740	-155.420	112.893	28.312	-106.360	0.0012543	0.00087387	0.00013358	1045.5	5.4196e-06	1.7948e-06	859.71	414.85	9.8568e-06	9.5007e-06	367.14	161.92	186.96	100.77	7.2416e-06	86.379	0.00035721	0.0003501	9.71e-05	967.94	3.8247e-06	3.8323e-06	801.78	375.8	3.8105e-06	3.8491e-06	333.43	143.72	160.25	87.459	3.845e-06	75.035	-34.662	-75.705	-159.868	-148.851	-37.349	-157.375	-150.561	-144.021	-4.676	26.884	-147.493	-142.722	-139.881	-135.577	-129.119	-139.982	-8191	255	
1796.766	1	1	0	0	0.12014	0.091651	0.15721	0.36657	0.35163	0.039456	0.055807	0.24125	0.19543	0.4126	0.18434	0.03338	0.21444	0.1765	0.11647	0.15652	-0.035417	-0.86042	-1.0438	-0.4625	-1.0063	-0.86042	-0.6	-1.5438	-0.725	-0.42083	-1.2667	-0.51667	-1.0938	-1.3062	-0.42708	-1.3687	-120.534	-123.013	-12.681	-160.367	-67.749	34.535	-49.854	179.802	-161.228	80.385	-132.241	92.374	152.407	128.556	110.110	38.658	0.0011052	4.8544e-05	0.00032219	1048.8	7.1823e-06	2.9385e-06	866.51	414.58	3.4095e-06	6.0558e-06	368.33	161.74	186.21	101.39	1.0734e-05	86.731	0.00035846	0.00034988	9.6211e-05	970.52	3.823e-06	3.8207e-06	805.21	376.09	3.81e-06	3.856e-06	334.83	143.84	160.21	87.811	3.8207e-06	75.365	-32.575	-30.063	-116.644	-149.327	36.107	5.849	-150.690	-144.183	-72.681	-85.326	-146.949	-142.920	-139.655	-135.799	-69.903	-139.899	-8191	255	
1796.863	1	1	0	0	0.16324	0.098596	0.088713	0.15078	0.16326	0.36679	0.080235	0.43551	0.31136	0.1547	0.19682	0.4583	0.072903	0.19353	0.10274	0.17082	-0.3	-0.725	-1.1979	-0.69792	-1.2021	-1.0479	-0.73958	-1.4438	-0.6	-0.70417	-1.3813	-0.64792	-0.98542	-1.1854	-0.61667	-1.2979	158.581	125.041	-73.628	-154.243	-60.860	27.961	-154.373	120.679	-139.896	-142.534	-51.693	60.373	179.163	129.693	-150.520	169.508	0.0010007	0.00084487	0.00020504	1048.8	6.9329e-06	5.5321e-06	861.9	415.57	5.4914e-06	6.3206e-06	367.62	160.56	185.98	100.65	5.9152e-06	85.761	0.00035729	0.00034956	9.6215e-05	970.25	3.8346e-06	3.8427e-06	805.34	376.55	3.8402e-06	3.825e-06	333.95	143.31	159.62	87.383	3.855e-06	74.718	-33.023	-75.188	-107.863	-149.266	-17.865	-6.116	-151.001	-144.320	-84.809	-37.649	-147.803	-143.051	-139.865	-135.924	174.010	-140.372	-8191	255	
1796.981	1	1	0	0	0.32478	0.20734	0.23875	0.22544	0.15831	0.11216	0.31708	0.19816	0.30275	0.15492	0.17001	0.19695	0.033149	0.13146	0.27293	0.28981	-0.56875	-0.59583	-1.2229	-0.61458	-0.98542	-1.2396	-0.65	-1.3271	-0.83958	-0.69583	-1.1792	-0.65208	-0.73333	-1.3167	-0.42917	-1.0938	65.399	-17.598	2.900	182.621	-48.062	-44.634	95.913	168.531	30.201	-19.171	-103.786	124.767	4.068	170.213	40.246	120.661	0.0012979	0.00026129	0.00011169	1051.5	8.7696e-06	1.8823e-06	850	415.83	8.6837e-06	2.568e-06	362.21	159.94	185.78	100.7	5.175e-06	85.842	0.00035767	0.00035068	9.76e-05	968.66	3.8529e-06	3.8315e-06	797.43	375.63	3.8351e-06	3.8497e-06	331.51	142.42	159.38	87.286	3.823e-06	74.545	-39.699	-52.599	34.053	-149.483	4.743	-134.809	-151.236	-144.496	-49.505	-38.693	-147.486	-143.644	-139.895	-136.169	-98.002	-140.376	-8191	255	
1797.078	1	1	0	0	0.15079	0.23362	0.10537	0.14907	0.17838	0.14024	0.21651	0.33975	0.067246	0.25404	0.074496	0.23155	0.17982	0.36951	0.063445	0.28825	-0.3625	-0.2125	-1.0042	-0.68542	-0.66875	-1.1667	-0.56667	-1.3583	-0.94375	-0.67917	-1.3083	-0.82917	-0.8625	-1.4771	-0.45	-1.3062	-128.875	111.912	99.800	-156.527	82.191	197.271	61.097	187.451	152.542	-71.378	-79.277	162.455	179.513	184.792	113.965	82.451	0.0013646	0.0005547	0.00010526	1046.1	1.8097e-06	2.0021e-06	855.67	413.59	3.6082e-06	2.4675e-06	362.84	161.08	185.94	100.77	8.2294e-06	85.74	0.00035389	0.00035217	9.6844e-05	966.82	3.8472e-06	3.816e-06	799.82	375.3	3.8378e-06	3.8178e-06	331.74	142.95	160.03	87.32	3.8448e-06	74.641	-25.615	65.317	12.038	-149.405	28.386	-156.017	-150.977	-144.451	174.000	-123.113	-147.447	-143.278	-140.301	-135.908	-23.692	-139.980	-8191	255	
1797.176	1	1	0	0	0.27469	0.13238	0.22415	0.34155	0.42046	0.25133	0.33022	0.20255	0.27031	0.21141	0.17439	0.18482	0.045605	0.23112	0.2835	0.19562	-0.83542	-0.43333	-0.95417	-1.0083	-0.62292	-1.1688	-0.58333	-1.1479	-1.0167	-0.31042	-1.4083	-0.625	-0.56875	-1.2625	-0.55	-1.0479	-76.650	-65.004	-102.316	129.380	-30.458	137.106	195.570	143.230	123.410	39.139	123.118	-45.806	147.938	114.845	67.000	190.205	0.0013806	0.00070749	6.4863e-05	1053.3	6.8373e-06	1.0006e-06	854.37	415.39	3.3065e-06	3.4861e-06	369.5	160.74	185.83	100.44	8.8962e-06	86.494	0.00035776	0.00035006	9.7024e-05	968.93	3.8508e-06	3.8031e-06	800.74	376.62	3.8538e-06	3.8559e-06	334.5	143.13	159.42	87.369	3.9032e-06	74.897	-35.743	-89.263	88.858	-149.495	-9.716	33.941	-151.296	-144.234	-31.441	-25.784	-148.079	-143.630	-140.474	-136.419	-52.009	-140.278	-8191	255	
1797.294	1	1	0	0	0.29803	0.030676	0.03985	0.15807	0.11781	0.32427	0.29466	0.33569	0.26807	0.24204	0.080165	0.20879	0.023597	0.50089	0.16398	0.11243	-0.6875	-0.41458	-1.1187	-0.925	-0.57708	-1.2042	-0.88542	-1.0729	-1.1625	-0.29792	-1.1396	-0.97708	-0.52292	-1.4979	-0.64375	-0.87708	115.297	-120.939	62.207	158.097	-22.431	-36.679	115.209	146.149	2.023	166.828	-108.726	-44.945	91.351	164.627	-55.293	15.589	0.001283	0.00048377	3.8567e-05	1048.5	7.3096e-06	3.3401e-06	863.94	414.32	7.8286e-06	2.8292e-06	368.26	160.71	186.41	100.57	1.0228e-05	86.205	0.00035881	0.00034934	9.8238e-05	969.15	3.8628e-06	3.8356e-06	804.88	376.64	3.8227e-06	3.857e-06	334.42	143.83	159.92	87.531	3.8576e-06	74.986	-36.628	19.269	-12.559	-149.557	-29.950	49.453	-151.137	-144.636	-71.733	-99.101	-147.631	-143.168	-140.308	-135.993	-91.147	-140.046	-8191	255	
1797.366	1	1	0	0	0.26116	0.033081	0.21295	0.31352	0.10671	0.069008	0.37059	0.13151	0.25102	0.16362	0.077912	0.15795	0.096643	0.37472	0.14958	0.14911	-0.79792	-0.25625	-1.0938	-1.1167	-0.60208	-1.3417	-0.5125	-0.825	-1.2125	-0.54792	-1.2146	-0.99167	-0.42083	-1.3625	-0.72917	-0.72708	0.121	37.156	103.659	158.795	174.547	158.874	133.813	-117.952	163.907	80.186	188.832	93.429	176.766	-124.967	71.740	-105.501	0.0011393	0.00038814	0.00017677	1047.7	8.5868e-06	2.5926e-06	857.48	414.65	2.1718e-06	2.3184e-06	363.28	160.55	185.38	100.38	1.4449e-06	85.486	0.00035787	0.00035474	9.7997e-05	966.86	3.8243e-06	3.8592e-06	802.17	375.95	3.8455e-06	3.8354e-06	333.15	142.81	159.34	87.082	3.8815e-06	74.324	-26.185	-2.476	24.681	-149.621	-19.822	-42.535	-151.149	-144.612	65.578	-47.755	-147.527	-143.552	-140.286	-136.117	-11.516	-140.333	-8191	255	
1797.462	1	1	0	0	0.29927	0.11805	0.29555	0.041937	0.22777	0.14221	0.18164	0.13492	0.2253	0.17562	0.15192	0.11647	0.091797	0.29075	0.019075	0.089821	-1.0708	-0.31667	-0.72708	-1	-0.47708	-1.3104	-0.8375	-0.8125	-1.1333	-0.31667	-0.8875	-0.92292	-0.47083	-1.4896	-0.71875	-0.46458	189.095	-14.302	-22.111	-146.513	-151.980	77.655	117.384	78.911	12.276	-12.903	175.943	101.870	-105.742	181.092	87.844	140.717	0.0010929	0.0010814	0.00021727	1042.2	1.029e-05	5.1552e-06	852.14	413.8	2.085e-06	6.2958e-06	365.17	159.57	185.38	100.43	8.9101e-06	85.367	0.000358	0.00035434	9.8845e-05	965.53	3.8831e-06	3.867e-06	797.97	375.38	3.8574e-06	3.8554e-06	332.23	142.29	158.87	87.145	3.8338e-06	74.336	-38.656	-6.429	-147.866	-149.523	0.076	12.766	-151.062	-144.098	147.992	-78.123	-147.830	-143.605	-140.288	-135.997	-74.778	-140.130	-8191	255	
1797.583	1	1	0	0	0.13083	0.13796	0.22929	0.22719	0.052818	0.031749	0.21358	0.16408	0.035822	0.04485	0.18821	0.22141	0.30998	0.027053	0.2177	0.18887	-0.9125	-0.5	-0.79375	-1.1063	-0.32708	-1.0438	-0.97292	-0.63333	-1.3021	-0.6875	-0.79792	-1.35	-0.64167	-1.2625	-1.1521	-0.48542	-74.619	132.964	-103.579	72.464	98.104	-66.540	109.861	-138.567	-160.645	-83.951	106.342	170.982	-149.263	39.753	-131.133	176.513	0.0013414	0.00085723	0.0001328	1045.5	2.2578e-06	3.0322e-06	855.17	412.9	6.4179e-06	6.3333e-06	363.53	159.79	185.12	100.52	1.264e-06	85.697	0.00035704	0.00035177	9.8252e-05	964.47	3.8624e-06	3.8826e-06	798.25	374.42	3.8716e-06	3.8554e-06	332.42	142.76	158.67	87.118	3.8574e-06	74.533	-38.173	-63.233	-153.397	-149.394	81.079	10.971	-151.033	-144.458	-117.885	-77.708	-147.294	-143.435	-140.356	-135.843	71.255	-140.184	-8191	255	
1797.679	1	1	0	0	0.32852	0.084014	0.12127	0.26198	0.1605	0.13558	0.33195	0.21781	0.047045	0.27334	0.11784	0.18002	0.26799	0.25218	0.32534	0.36203	-0.97292	-0.61042	-0.51042	-1.3646	-0.4875	-1.0312	-1.0812	-0.3875	-1.2604	-0.49583	-0.775	-1.4833	-0.48333	-1.0875	-0.97083	-0.60208	41.857	196.612	-151.911	166.660	-6.496	-103.083	123.468	196.204	141.851	1.739	152.604	159.003	-101.463	-149.225	57.914	74.578	0.0011511	0.00049403	2.5434e-05	1048.2	2.4615e-06	1.0872e-05	855.96	413.17	1.2325e-05	6.6855e-06	368.05	159.78	185.13	100.78	3.8786e-06	86.425	0.00036126	0.00035368	9.8824e-05	969.49	3.9176e-06	3.8877e-06	800.57	374.68	3.8571e-06	3.8558e-06	334.53	143.07	159.35	87.305	3.8712e-06	74.979	-36.420	-63.510	189.890	-149.402	105.290	-29.060	-151.094	-144.599	-39.448	1.386	-147.938	-143.229	-140.050	-136.115	65.261	-140.382	-8191	255	
1797.775	1	1	0	0	0.10301	0.26783	0.10739	0.15212	0.34647	0.030937	0.30438	0.39284	0.25424	0.30538	0.18272	0.33186	0.29782	0.3343	0.32988	0.2096	-0.83542	-0.61875	-0.6375	-1.2479	-0.43125	-0.93542	-1.1771	-0.44375	-0.96667	-0.74792	-0.64375	-1.5	-0.47708	-1.0812	-1.1104	-0.66458	123.558	145.073	6.532	160.602	-9.467	20.741	-149.326	174.668	154.892	91.717	179.233	139.489	171.908	191.876	-17.213	119.492	0.0012716	0.0003041	4.437e-05	1052.5	1.1318e-06	4.1471e-06	860.35	415.48	8.2133e-06	3.6197e-06	367.94	161.86	185.43	100.75	9.1206e-06	86.45	0.00036114	0.00035317	9.8388e-05	971.91	3.8775e-06	3.8782e-06	804.83	376.91	3.8799e-06	3.8587e-06	335.06	144.11	159.62	87.451	3.8757e-06	75.024	-40.093	-50.742	185.640	-149.565	-140.398	-2.731	-151.193	-144.426	-50.290	35.468	-147.933	-143.283	-140.264	-135.801	-57.124	-140.129	-8191	255	
1797.896	1	1	0	0	0.09765	0.090285	0.18709	0.18502	0.034815	0.14422	0.27003	0.084021	0.060291	0.099981	0.23043	0.035985	0.18915	0.017946	0.16039	0.26063	-0.86042	-0.92917	-0.47708	-1.2396	-0.46667	-0.8875	-1.4042	-0.33333	-0.84167	-0.93333	-0.61667	-1.2229	-0.7	-0.96458	-1.2062	-0.7875	162.602	-63.490	-98.595	120.684	-116.873	-27.009	93.378	108.736	102.993	38.787	148.774	157.922	-77.330	68.256	152.939	-148.666	0.0015027	0.00057612	7.1606e-05	1048.2	5.8613e-06	2.9823e-06	855.7	413.22	8.0502e-06	7.3388e-06	366.58	160.73	186.17	100.68	1.3647e-05	86.011	0.00036289	0.00035516	9.8605e-05	968.16	3.8888e-06	3.8719e-06	802.53	375.4	3.869e-06	3.8454e-06	333.15	143.34	159.46	87.29	3.8339e-06	74.765	-35.034	69.281	88.109	-149.046	-38.323	-73.408	-150.976	-144.612	-33.679	23.168	-147.417	-143.132	-140.190	-135.889	-88.799	-140.247	-8191	255	
1797.967	1	1	0	0	0.29094	0.13082	0.2063	0.1498	0.10522	0.19153	0.26773	0.11558	0.094658	0.14913	0.29779	0.22937	0.24238	0.45666	0.045806	0.3282	-0.70417	-0.89792	-0.525	-1.3625	-0.90833	-0.72708	-1.3937	-0.84792	-1.0646	-1.1104	-0.40833	-1.475	-1.0771	-0.75625	-1.4625	-0.64375	113.387	150.790	195.488	150.725	-149.075	-15.851	-48.160	180.052	-45.582	72.556	123.441	157.040	149.678	-147.531	135.838	-102.547	0.0015552	0.0005381	2.1801e-05	1039.3	5.09e-06	7.4834e-06	860.98	416.56	7.4117e-06	2.6879e-06	364.76	160.75	185.54	100.8	7.0943e-06	86.351	0.00036073	0.00034947	9.7263e-05	966.39	3.823e-06	3.8372e-06	800.99	376.45	3.8308e-06	3.8009e-06	333.23	142.9	159.12	87.313	3.8549e-06	74.771	-34.963	-61.178	183.347	-149.577	-64.990	153.236	-150.825	-144.542	-65.876	-63.368	-147.717	-143.248	-140.152	-136.028	67.045	-140.326	-8191	255	
1798.064	1	1	0	0	0.22371	0.044562	0.26538	0.21642	0.32832	0.071523	0.18336	0.04694	0.20391	0.13989	0.35783	0.3524	0.29271	0.44383	0.16698	0.2112	-0.59792	-1.05	-0.2125	-1.3667	-0.68958	-0.49167	-1.5063	-0.70833	-0.82292	-1.1042	-0.34167	-1.275	-0.94792	-0.7875	-1.2333	-0.91042	-86.108	75.610	-98.923	137.605	66.175	-29.528	94.790	-57.439	65.435	96.917	161.305	174.684	182.576	-155.179	40.314	-157.881	0.0013763	0.0012399	0.00026867	1052.8	1.0121e-05	2.95e-06	850.33	414.63	8.2197e-06	2.3014e-06	364.43	160.7	185.73	100.39	2.0989e-06	85.615	0.00035562	0.00034726	9.7912e-05	968.49	3.7956e-06	3.8042e-06	799.13	374.73	3.8379e-06	3.7953e-06	332.25	143.24	158.76	86.98	3.8145e-06	74.648	-45.361	-47.723	-63.942	-149.293	-16.293	-119.729	-150.978	-144.468	-49.740	-3.443	-147.582	-143.323	-140.320	-135.853	-110.655	-139.796	-8191	255	
1798.158	1	1	0	0	0.2364	0.30108	0.075804	0.22788	0.13402	0.16268	0.41158	0.080895	0.28362	0.13608	0.32927	0.19669	0.27031	0.057604	0.22554	0.042116	-0.44375	-1.0146	-0.45625	-1.1063	-0.84167	-0.40625	-1.3646	-0.8	-0.73125	-1.3042	-0.50625	-1.0104	-0.9875	-0.59792	-1.25	-0.85417	-16.504	41.652	-28.956	183.502	197.023	95.509	110.764	165.301	-113.001	122.127	179.809	76.939	-159.284	115.733	-38.696	152.658	0.0013241	0.0010634	8.6681e-05	1049.8	6.3894e-06	5.5694e-06	861.71	413.2	7.0256e-06	4.3575e-06	366.22	160.86	184.65	100.21	3.2986e-06	86.165	0.00035675	0.00034776	9.8379e-05	968.68	3.8031e-06	3.8401e-06	802.49	374.75	3.8224e-06	3.7989e-06	334.18	143.9	158.59	87.043	3.86e-06	74.839	-50.386	-58.209	57.300	-149.159	-19.141	-37.215	-150.843	-144.354	2.365	-58.741	-147.343	-143.011	-140.125	-136.012	71.605	-140.045	-8191	255	
1798.279	1	1	0	0	0.19212	0.28828	0.21422	0.10975	0.15829	0.2122	0.12248	0.078153	0.038022	0.11173	0.07147	0.15699	0.2036	0.39497	0.21803	0.30687	-0.19792	-1.1167	-0.45833	-1.1771	-1.1271	-0.475	-1.2771	-0.97292	-0.73958	-1.1187	-0.64375	-1.0479	-1.1729	-0.57083	-1.2417	-0.9625	3.701	53.101	126.702	168.204	99.693	2.660	94.220	98.655	129.959	-119.741	-110.472	-94.339	-136.821	-152.308	152.955	148.939	0.0010424	0.00073491	0.00012284	1049.3	7.811e-06	1.375e-06	861.52	413.55	7.0306e-06	8.9343e-07	365.9	160.08	183.87	100.18	4.3468e-06	85.956	0.00036069	0.00034853	9.8127e-05	969.61	3.8429e-06	3.8539e-06	805.36	374.92	3.8442e-06	3.8194e-06	333.23	143.09	158.82	86.746	3.8465e-06	74.627	-41.371	-37.732	-149.112	-149.240	-79.406	113.539	-150.836	-144.670	-124.373	78.147	-147.472	-143.208	-140.266	-135.768	-36.245	-140.056	-8191	255	
1798.375	1	1	0	0	0.22026	0.28976	0.096538	0.066718	0.064461	0.26329	0.33188	0.37661	0.25404	0.10536	0.18778	0.11972	0.29943	0.18387	0.16304	0.24922	0.047917	-1.1667	-0.50833	-0.93542	-1.0542	-0.41042	-1.1604	-1.1833	-0.35	-1.2833	-0.65417	-0.82917	-1.2729	-0.7375	-0.925	-1.2	155.224	-51.966	95.799	-95.059	165.112	140.723	95.629	116.988	110.414	-76.227	89.232	-122.427	182.773	-103.115	-108.665	-149.503	0.0011145	0.00059622	0.00014017	1045.6	8.3973e-06	1.1267e-05	852.83	412.09	5.0493e-06	1.0514e-05	361.57	160.78	183.67	99.785	8.7431e-06	85.358	0.00036116	0.00035129	9.8144e-05	965.09	3.8225e-06	3.8705e-06	799.19	373.84	3.8556e-06	3.836e-06	330.89	142.46	157.9	86.583	3.8407e-06	74.084	-36.406	-28.482	-77.015	-149.205	-25.405	-47.070	-151.008	-144.477	-55.443	47.139	-147.626	-142.730	-140.191	-135.732	-67.047	-140.151	-8191	255	
1798.471	1	1	0	0	0.078777	0.10589	0.04408	0.20453	0.36202	0.14349	0.29427	0.16357	0.19609	0.27107	0.26471	0.29899	0.36653	0.41209	0.2751	0.26301	-0.083333	-1.0729	-0.47917	-0.72708	-1.3083	-0.56042	-1.0187	-1.1208	-0.46875	-1.3646	-0.82708	-0.775	-1.1938	-0.66458	-0.96458	-1.2	25.409	131.789	-105.764	29.029	79.517	95.921	197.420	140.485	-58.514	-75.902	146.231	144.178	94.914	190.244	75.092	-109.475	0.0010352	0.00070628	3.0218e-05	1050.5	8.8408e-06	1.0621e-06	851.97	413.03	7.2447e-06	7.244e-06	363.52	159.88	183.9	100.04	2.2915e-06	85.086	0.00035931	0.00035023	9.8438e-05	965.66	3.839e-06	3.857e-06	797.79	373.53	3.8485e-06	3.8501e-06	331.66	142.34	158.01	86.682	3.8606e-06	73.955	-35.957	100.440	111.167	-148.784	-27.079	176.748	-150.878	-144.259	-28.419	-48.690	-147.334	-142.809	-139.769	-135.953	-83.004	-140.273	-8191	255	
1798.567	1	1	0	0	0.091058	0.26255	0.2493	0.12691	0.1771	0.13212	0.37745	0.32284	0.17451	0.21214	0.22324	0.21139	0.1255	0.064053	0.13362	0.12918	0.15208	-1.1458	-0.58125	-0.75	-1.125	-0.44792	-0.88125	-1.3083	-0.23958	-1.0312	-0.99375	-0.55208	-1.1437	-0.71042	-0.81667	-1.3062	132.048	133.375	30.503	-2.799	-76.443	-32.145	185.247	90.472	-43.162	-108.960	99.961	-102.209	-139.634	90.202	-27.092	90.749	0.0014755	0.0010853	0.00027142	1045.1	7.5963e-06	1.2392e-05	857.76	413.23	2.7729e-06	7.6103e-06	363.69	159.88	184.12	99.408	7.0158e-06	85.541	0.00036374	0.00035136	9.7892e-05	965.16	3.8596e-06	3.8946e-06	800.36	373.88	3.8624e-06	3.8759e-06	331.97	142.6	158.27	86.475	3.8751e-06	74.451	-23.899	-61.347	-67.319	-149.208	0.407	82.929	-151.047	-144.501	-93.665	-79.318	-147.298	-143.087	-139.943	-135.733	-87.323	-140.329	-8191	255	
1798.663	1	1	0	0	0.26304	0.13627	0.22966	0.34539	0.2014	0.11797	0.3803	0.1946	0.094396	0.061304	0.1519	0.098778	0.27961	0.26386	0.16338	0.16639	0.041667	-1.2979	-0.63333	-0.64792	-1.2271	-0.46042	-0.86875	-1.3958	-0.49375	-1.0333	-1.0479	-0.6	-1.225	-0.82083	-0.56667	-1.3646	71.297	12.081	-98.455	-62.899	-110.498	79.240	163.436	132.419	97.743	97.008	-13.585	103.812	-127.692	155.985	-30.600	178.434	0.0011571	0.00077788	0.00019216	1048.5	1.1945e-05	6.488e-06	858.14	413.21	1.1122e-05	6.2733e-06	364.31	159.7	184.45	99.969	3.4404e-06	85.822	0.00036209	0.00035308	9.779e-05	966.78	3.887e-06	3.8779e-06	802.95	374.34	3.8951e-06	3.8967e-06	332.7	142.87	158.6	86.631	3.8569e-06	74.63	-45.522	-66.958	-87.510	-149.364	20.042	-72.742	-150.871	-144.432	-16.159	63.223	-147.482	-143.113	-139.955	-136.055	-121.507	-139.786	-8191	255	
1798.759	1	1	0	0	0.19727	0.15332	0.18586	0.30697	0.090553	0.28633	0.11678	0.32208	0.27544	0.21713	0.17864	0.17426	0.16181	0.17848	0.10596	0.20373	-0.083333	-0.8375	-0.92292	-0.48125	-1.2729	-0.70833	-0.90625	-1.5229	-0.48958	-1.0625	-1.0438	-0.55417	-1.2792	-0.92083	-0.5625	-1.4479	183.885	30.376	-68.061	155.891	12.137	166.043	182.338	170.743	-109.358	55.355	195.415	0.506	176.705	196.511	-118.916	168.678	0.001332	0.00051321	0.00040397	1045.9	1.9791e-06	4.6971e-06	856.87	410.92	5.8642e-06	7.6317e-06	363.86	159.24	183.03	99.342	8.4968e-06	85.255	0.00036557	0.00035124	9.7187e-05	968.08	3.8785e-06	3.8659e-06	801.83	373.71	3.8909e-06	3.8575e-06	331.95	142.25	158.04	86.199	3.8842e-06	74.203	-40.258	-121.308	-39.285	-149.223	62.040	-8.677	-150.800	-144.097	18.274	-96.704	-147.177	-142.759	-139.703	-136.193	-71.753	-140.242	-8191	255	
1798.856	1	1	0	0	0.28811	0.25501	0.21543	0.38359	0.098191	0.24935	0.080705	0.19278	0.11029	0.24899	0.25438	0.28608	0.26993	0.43742	0.096119	0.18261	0.022917	-0.95833	-1.1021	-0.48333	-1.1917	-0.82708	-0.73542	-1.3771	-0.75	-0.76667	-1.2083	-0.62083	-1.1562	-1.2604	-0.46042	-1.3375	157.041	-53.927	35.747	141.923	160.958	72.586	93.421	-132.029	-58.120	-9.622	23.998	143.882	-160.927	146.138	13.887	138.648	0.001148	0.00016334	0.0001846	1046.9	7.1562e-06	6.4611e-06	854.24	411.38	4.7706e-06	1.7945e-06	360.56	158.72	183.29	99.405	9.4807e-06	84.872	0.00036288	0.00035231	9.8262e-05	965.45	3.9054e-06	3.8775e-06	798.62	373.73	3.9007e-06	3.8763e-06	330.77	141.88	157.83	86.184	3.9108e-06	73.856	-47.079	-59.955	-95.579	-148.852	-28.914	13.781	-150.830	-144.275	65.019	-1.877	-147.549	-143.113	-140.044	-136.113	-38.063	-139.780	-8191	255	
1798.976	1	1	0	0	0.18931	0.17107	0.17408	0.12817	0.17161	0.092995	0.22118	0.24633	0.11758	0.067013	0.32258	0.20137	0.10138	0.24941	0.16956	0.050435	-0.10833	-0.59167	-1.0021	-0.57083	-1.0104	-0.82083	-0.61667	-1.2208	-0.57917	-0.70417	-1.2083	-0.61667	-1.1542	-1.1917	-0.33125	-1.3208	132.632	4.071	-155.108	92.806	147.797	-2.108	138.575	193.117	-65.703	86.375	148.625	85.209	80.477	172.659	53.829	164.193	0.0010836	0.00046876	8.2387e-05	1046.1	6.3227e-06	3.5528e-06	855.59	409.89	2.3093e-06	7.4134e-06	362.63	158.52	182.46	99.688	7.0989e-06	85.054	0.00036123	0.00035265	9.7799e-05	964.51	3.8504e-06	3.8325e-06	798.4	372.89	3.8509e-06	3.8647e-06	331.33	141.84	157.59	86.112	3.8384e-06	73.991	-31.340	-126.587	121.349	-149.087	7.547	7.094	-150.779	-144.147	-2.755	-22.211	-147.728	-143.188	-139.872	-135.923	-149.901	-139.851	-8191	255	
1799.072	1	1	0	0	0.16673	0.15394	0.3152	0.060484	0.086597	0.24381	0.26628	0.06001	0.2186	0.041414	0.3285	0.24882	0.43705	0.053989	0.13771	0.18213	-0.27083	-0.48958	-1.1917	-0.44792	-1.0708	-0.94375	-0.54375	-1.3354	-0.74167	-0.36042	-1.2979	-0.525	-0.91458	-1.3833	-0.35208	-1.2104	167.549	-22.319	-45.423	-135.956	-145.877	34.072	147.015	120.814	-51.307	-110.415	172.362	-124.186	148.147	150.557	39.745	85.787	0.0014464	0.00091558	0.00024047	1045.4	7.6938e-06	4.9546e-06	859.05	410.74	5.7986e-06	6.9513e-06	363.68	160.37	184.21	99.573	7.2839e-06	85.611	0.00035665	0.00035081	9.7433e-05	965.58	3.8607e-06	3.7942e-06	799.52	373.36	3.8143e-06	3.8366e-06	331.45	142.39	158.04	86.297	3.8445e-06	74.469	-50.807	-64.966	185.823	-149.367	21.870	-51.581	-151.038	-144.556	-41.011	31.191	-147.694	-142.659	-140.000	-136.047	80.216	-139.902	-8191	255	
1799.167	1	1	0	0	0.13974	0.048235	0.21759	0.12528	0.33418	0.28323	0.19764	0.046655	0.059769	0.051848	0.18295	0.2117	0.26075	0.40446	0.16807	0.20823	-0.38958	-0.325	-1.1437	-0.67292	-0.70208	-1.1042	-0.37917	-1.2375	-1.0812	-0.36875	-1.2771	-0.62708	-0.81458	-1.45	-0.60417	-1.3813	-162.215	103.092	-126.126	95.006	-123.773	78.518	99.208	151.363	61.305	-5.596	-144.411	164.878	158.522	131.344	-8.769	111.248	0.0010698	0.00020688	7.2712e-05	1050.8	7.1955e-06	9.068e-06	855.39	413.19	6.1071e-06	7.2998e-06	368.89	161.63	183.51	100	2.1605e-06	85.821	0.00035713	0.00034875	9.7442e-05	967.51	3.8183e-06	3.7922e-06	802.18	375.55	3.8178e-06	3.8393e-06	335.24	143.15	157.9	86.617	3.8222e-06	74.886	-35.556	-24.759	-123.854	-149.095	-84.742	-21.306	-151.059	-144.352	25.496	-50.464	-147.496	-143.132	-139.882	-136.044	11.732	-139.937	-8191	255	
1799.263	1	1	0	0	0.023433	0.13077	0.15172	0.2018	0.086571	0.012791	0.091523	0.24226	0.13745	0.13984	0.096776	0.15079	0.052311	0.070277	0.18547	0.32281	-0.64167	-0.29375	-1.2979	-0.85833	-0.75208	-1.2958	-0.5125	-1.3188	-1.0833	-0.50208	-1.2792	-0.66458	-0.54583	-1.3896	-0.42917	-1.1104	163.528	-137.473	59.749	174.206	-105.028	-14.318	168.490	-150.396	-66.226	-0.632	-124.156	144.771	166.384	196.077	-138.064	146.695	0.0013909	0.00054062	0.00011449	1043	4.597e-06	4.7278e-06	853.29	413.07	4.9358e-06	9.9053e-06	365.66	159.72	182.77	99.411	4.942e-06	85.249	0.00035512	0.00035004	9.6994e-05	964.11	3.8505e-06	3.8005e-06	800.38	374.2	3.7627e-06	3.8209e-06	332.68	142.32	157.66	86.235	3.8072e-06	74.081	-37.542	-140.562	-10.083	-149.517	1.905	-133.131	-151.203	-144.360	-28.034	63.370	-147.579	-143.111	-139.684	-135.976	2.313	-140.059	-8191	255	
1799.359	1	1	0	0	0.50703	0.11642	0.1812	0.16795	0.34677	0.36754	0.24235	0.074344	0.036512	0.10908	0.11668	0.22023	0.21888	0.15944	0.20284	0.32787	-0.68958	-0.29167	-1.1	-0.84583	-0.60833	-1.4125	-0.52083	-1.1	-1.1104	-0.50833	-1.2604	-1.0229	-0.44167	-1.5708	-0.675	-0.68958	158.635	-25.799	161.235	192.187	108.429	-97.780	183.184	-140.390	29.172	-114.965	-155.897	119.816	-81.797	-149.906	111.301	-141.602	0.0013192	0.00072135	0.00027025	1045.3	1.2652e-05	6.9402e-06	853.01	410.43	6.5944e-06	3.1065e-06	363.98	158.02	183.7	99.376	5.5859e-06	85.132	0.00035009	0.0003491	9.6364e-05	964.45	3.8256e-06	3.768e-06	797.38	372.28	3.782e-06	3.8158e-06	331.08	140.91	157.4	86.074	3.789e-06	73.94	-44.432	-4.614	-97.786	-149.547	-54.530	-1.787	-151.386	-144.348	-52.238	9.540	-147.442	-143.230	-139.883	-135.934	-37.588	-139.979	-8191	255	
1799.455	1	1	0	0	0.11211	0.12744	0.20401	0.039716	0.29853	0.10679	0.38635	0.27388	0.13791	0.11792	0.073884	0.13707	0.18488	0.29399	0.20784	0.20853	-0.65	-0.33125	-1.1958	-0.87708	-0.49375	-1.4688	-0.8125	-0.8875	-1.1354	-0.39583	-1.1833	-1.0167	-0.70417	-1.4646	-0.69375	-0.86667	122.670	-97.829	163.357	183.449	140.541	-108.552	188.968	132.914	-98.383	-158.178	-42.462	44.180	-124.657	177.291	165.965	73.164	0.0010209	0.00082808	0.00022571	1043.2	5.3028e-06	2.2951e-06	851.65	411.7	4.9064e-06	1.3588e-05	364.73	159.87	182.17	99.259	6.0085e-06	85.258	0.00035547	0.00034811	9.6631e-05	961.49	3.8077e-06	3.8132e-06	795.81	373.08	3.8006e-06	3.8495e-06	331.28	141.86	157.24	86.101	3.8047e-06	74.09	-33.414	-109.077	-32.335	-149.287	57.963	-3.317	-150.841	-144.387	11.426	-13.236	-147.780	-143.261	-140.245	-136.020	-67.318	-139.997	-8191	255	
1799.576	1	1	0	0	0.14854	0.26039	0.11783	0.14365	0.28033	0.39795	0.30546	0.33555	0.18499	0.15779	0.18816	0.3107	0.081467	0.27817	0.21827	0.21415	-0.88958	-0.48542	-1.0771	-0.97083	-0.29167	-1.2104	-0.70417	-0.5125	-1.2062	-0.41667	-0.95208	-1.0458	-0.425	-1.4104	-0.77083	-0.69583	-154.088	98.659	-66.690	139.119	-95.490	147.219	92.808	150.025	34.258	62.957	-135.268	166.023	121.010	169.175	-62.050	-160.656	0.001337	0.00064134	0.00016395	1047.6	8.0638e-06	8.3415e-06	854.53	412.57	1.008e-05	3.7689e-06	363.59	160.17	184.08	99.395	4.2958e-06	85.589	0.00035704	0.00035118	9.6846e-05	964.65	3.8667e-06	3.821e-06	798.42	373.59	3.8242e-06	3.8321e-06	331.66	142.25	157.9	86.158	3.8384e-06	74.409	-41.955	-55.451	-66.422	-149.178	-15.223	-37.910	-150.826	-144.500	-44.027	-14.542	-147.716	-143.402	-139.703	-135.769	-108.728	-140.064	-8191	255	
1799.672	1	1	0	0	0.26092	0.30306	0.22008	0.1434	0.20585	0.049048	0.33778	0.082145	0.17437	0.075429	0.3236	0.14688	0.31386	0.26527	0.032841	0.19739	-1.0125	-0.26875	-0.89167	-1.1271	-0.60417	-1.1375	-0.85208	-0.43125	-1.4667	-0.6875	-0.81042	-1.1146	-0.6125	-1.2833	-0.75417	-0.61458	-101.506	-101.362	54.069	170.735	-137.623	119.523	125.454	-116.305	-41.389	16.314	149.061	-51.975	166.415	192.434	54.208	165.848	0.0014086	0.00041244	0.00012412	1044.9	8.9419e-06	9.1528e-06	860.03	412.01	1.0615e-05	5.8826e-06	365.22	160.45	183.49	99.034	2.9977e-06	85.687	0.00035924	0.00034855	9.7605e-05	964.91	3.8898e-06	3.8402e-06	802.11	374.28	3.8879e-06	3.8307e-06	333.6	143	157.7	86.128	3.8262e-06	74.414	-46.179	-91.026	-140.786	-149.492	-34.484	-2.749	-151.134	-144.247	8.284	170.855	-147.159	-142.959	-140.054	-135.692	-39.848	-140.015	-8191	255	
1799.768	1	1	0	0	0.16542	0.14747	0.1368	0.19064	0.058842	0.11635	0.021633	0.15991	0.25515	0.30158	0.53409	0.10175	0.1992	0.30627	0.077501	0.31123	-0.87292	-0.52083	-0.65625	-1.3583	-0.5125	-0.96667	-0.9375	-0.5875	-1.3937	-0.58333	-0.58958	-1.2479	-0.63125	-1.1271	-0.97083	-0.7	-47.273	-23.140	-64.065	193.820	89.281	-79.676	80.751	-29.353	-147.475	-115.274	164.446	157.068	-87.529	-106.000	113.254	146.171	0.0013664	0.0015901	7.11e-05	1041.2	5.6581e-06	8.3863e-06	854.09	410.77	7.2612e-06	9.1729e-06	362.39	158.49	182.14	99.229	3.4068e-06	84.65	0.00035962	0.00035147	9.7033e-05	961.46	3.8585e-06	3.8612e-06	796.85	372.64	3.8576e-06	3.7988e-06	331.07	141.52	157.08	85.819	3.8348e-06	73.601	-54.313	-40.882	-126.653	-149.359	4.932	-84.730	-151.017	-144.366	-47.848	-12.288	-147.555	-143.644	-140.232	-135.849	188.120	-140.087	-8191	255	
1799.864	1	1	0	0	0.025513	0.13853	0.048196	0.23748	0.090214	0.21196	0.25514	0.20425	0.22642	0.16327	0.39776	0.33627	0.28632	0.25324	0.21408	0.301	-0.86458	-0.67917	-0.52708	-1.2833	-0.40417	-1.0438	-1.2292	-0.59375	-1.2604	-0.68333	-0.62708	-1.2167	-0.675	-1.0208	-1.1562	-0.62083	89.964	22.462	-87.242	132.529	125.534	-15.626	171.192	173.928	93.014	2.128	128.622	172.023	191.695	-145.374	-13.674	182.281	0.001367	0.00049581	7.6482e-05	1043.8	8.3576e-06	2.5216e-06	847.85	409.1	8.0397e-06	1.9114e-06	360.89	158.57	182.24	98.779	2.4226e-06	84.425	0.000362	0.00035093	9.7994e-05	962.3	3.8749e-06	3.84e-06	792.65	371.26	3.8347e-06	3.8112e-06	328.83	141.35	156.91	85.714	3.8357e-06	73.512	-43.622	4.435	-2.551	-149.274	-95.739	-53.596	-150.714	-144.342	-54.298	186.951	-147.324	-143.040	-140.061	-135.815	-91.215	-140.079	-8191	255	
1799.936	1	1	0	0	0.13094	0.01454	0.30191	0.33629	0.09332	0.22588	0.32242	0.2386	0.04965	0.17921	0.046085	0.25477	0.1054	0.20252	0.21649	0.20626	-0.81667	-0.95625	-0.3375	-1.3521	-0.45833	-0.89583	-1.3771	-0.63958	-0.95417	-0.81458	-0.57292	-1.2021	-0.81875	-0.95417	-1.2583	-0.52292	83.118	179.611	61.114	190.884	-126.312	-133.822	193.887	-126.509	87.806	-108.164	192.811	53.804	21.974	-155.078	125.064	46.251	0.00093625	0.00059985	6.1992e-05	1039	3.4807e-06	3.7975e-06	847.33	408.52	1.6793e-06	1.3616e-05	363.59	157.44	182.61	98.316	3.2181e-06	84.415	0.00035785	0.00035086	9.8674e-05	962.94	3.8512e-06	3.8835e-06	794.64	371.75	3.8604e-06	3.8362e-06	330.82	140.71	156.89	85.454	3.8429e-06	73.655	-42.556	-123.257	-122.279	-148.885	-19.037	100.250	-151.161	-144.525	-49.352	4.535	-147.662	-142.958	-139.964	-135.770	58.689	-140.177	-8191	255	
1800.055	1	1	0	0	0.10733	0.042541	0.10298	0.21141	0.093504	0.20122	0.20719	0.40114	0.12107	0.20033	0.42768	0.32492	0.21506	0.25495	0.012397	0.1475	-0.72917	-0.7625	-0.50417	-1.2771	-0.82917	-0.62292	-1.3583	-0.60625	-1.0438	-0.8625	-0.45625	-1.3813	-0.91458	-0.82917	-1.1063	-0.5625	-131.694	51.670	38.787	164.020	34.919	108.645	124.650	143.410	-9.764	35.190	143.510	-136.007	-125.975	168.792	104.594	-29.354	0.0014258	0.00047958	7.878e-05	1037.7	3.3841e-06	6.4685e-07	854.87	408.48	3.7455e-06	9.6043e-06	361.74	159.44	181.98	98.657	2.9102e-06	85.005	0.00035742	0.00035276	9.8838e-05	961.97	3.8307e-06	3.838e-06	798.71	372.19	3.8555e-06	3.8581e-06	330.49	141.92	156.87	85.786	3.8697e-06	74.051	-29.400	-72.572	194.143	-149.345	20.732	58.262	-150.909	-144.363	-27.578	-82.720	-147.496	-143.395	-140.251	-135.564	166.631	-139.997	-8191	255	
1800.151	1	1	0	0	0.095068	0.15602	0.1135	0.11012	0.32022	0.2255	0.13324	0.34173	0.074004	0.10767	0.10061	0.069223	0.38475	0.039084	0.13947	0.30224	-0.59375	-0.9375	-0.49375	-1.0667	-0.8375	-0.625	-1.4958	-0.6625	-0.93125	-1.0729	-0.50833	-1.1875	-0.92708	-0.60625	-1.475	-0.6125	118.764	96.212	-25.476	-134.411	-67.639	-84.385	141.045	141.932	116.341	-26.607	98.190	176.627	86.317	-130.529	184.903	80.953	0.0012694	0.00016125	5.9265e-05	1041.5	6.5781e-06	2.9011e-06	859.18	411.4	1.2924e-05	1.2645e-05	363.53	159.17	183.58	99.208	2.9174e-06	85.317	0.00035994	0.00035011	9.802e-05	963.4	3.8507e-06	3.8895e-06	800.9	373.32	3.8586e-06	3.8496e-06	331.53	142.24	157.23	85.943	3.8497e-06	74.057	-41.663	-23.616	-109.986	-148.975	124.193	-77.410	-150.845	-144.204	-57.122	-0.912	-147.789	-143.166	-140.014	-135.817	-61.245	-140.037	-8191	255	
1800.247	1	1	0	0	0.18398	0.15045	0.097439	0.085539	0.24523	0.2245	0.33108	0.21538	0.3984	0.096105	0.22062	0.168	0.29942	0.39013	0.098354	0.10381	-0.39375	-1.1104	-0.39583	-1.2458	-0.95	-0.44375	-1.2833	-0.83958	-0.81875	-1.4312	-0.67708	-1.1688	-1.0271	-0.70625	-1.4146	-0.975	-54.400	156.041	-140.808	115.958	-50.846	-93.009	129.936	137.424	-121.337	117.012	131.647	135.605	161.554	171.709	-141.303	136.590	0.0012398	0.00074283	0.00017871	1041.8	2.5435e-06	7.1363e-06	850.66	410.09	9.7012e-06	6.6221e-06	362.14	158.15	181.37	98.539	1.369e-05	84.399	0.00035835	0.00034782	9.6915e-05	959.92	3.8136e-06	3.8554e-06	795.63	371.67	3.8338e-06	3.8111e-06	330.18	141.27	156.43	85.584	3.7883e-06	73.568	-44.926	-107.555	-141.535	-149.457	-110.577	-54.200	-151.139	-144.582	54.920	-15.371	-147.735	-142.999	-139.900	-135.998	-35.374	-140.178	-8191	255	
1800.343	1	1	0	0	0.099171	0.11558	0.20107	0.19166	0.10485	0.19588	0.098275	0.11565	0.17946	0.10598	0.1647	0.14519	0.20011	0.2142	0.10676	0.057633	-0.26667	-1.2146	-0.47917	-1.0583	-0.99167	-0.375	-1.3937	-0.88333	-0.63333	-1.225	-0.72083	-1.0812	-1.0521	-0.67292	-1.0958	-0.93125	68.025	-66.040	148.029	183.081	76.411	-117.931	63.326	182.992	-90.811	188.307	126.713	128.415	75.115	-136.223	-113.150	194.819	0.0010588	0.00099158	0.00020099	1043.3	5.6165e-06	4.6696e-06	854.39	410.43	1.1615e-05	6.5787e-06	362.17	158.53	181.9	99.204	3.9245e-06	84.836	0.00035433	0.00034453	9.6933e-05	961.8	3.7829e-06	3.7947e-06	795.36	371.34	3.7725e-06	3.7866e-06	329.65	141.13	156.44	85.818	3.7824e-06	73.592	-41.325	-40.861	-73.509	-149.164	39.849	-51.963	-150.776	-144.411	-47.623	-22.515	-147.623	-143.106	-139.852	-135.728	-117.015	-139.880	-8191	255	
1800.464	1	1	0	0	0.22764	0.1357	0.14049	0.35648	0.30924	0.29533	0.1328	0.16025	0.051784	0.24643	0.18896	0.068969	0.35246	0.16299	0.20678	0.19478	-0.14167	-1.2938	-0.37292	-1.0583	-1.2062	-0.34792	-1.2583	-0.93542	-0.66667	-1.1271	-0.625	-0.9125	-1.4146	-0.77083	-1.0521	-1.1333	-12.568	-141.172	121.804	136.968	129.066	102.050	28.144	88.027	-152.788	-159.331	179.030	114.191	141.770	143.615	29.986	165.383	0.0012329	0.00083525	0.00015114	1039.1	3.2447e-06	1.6739e-06	855.99	410.95	5.3967e-06	2.9241e-06	365.62	159.16	181.41	98.667	7.356e-06	84.956	0.00035416	0.00034423	9.5782e-05	959.19	3.7804e-06	3.8221e-06	797.07	372.36	3.7862e-06	3.7629e-06	331.02	141.03	156.16	85.653	3.7869e-06	73.857	-36.641	-28.585	-152.056	-149.420	41.751	50.244	-150.698	-144.550	-63.544	-14.582	-147.419	-142.925	-139.780	-135.824	13.159	-140.022	-8191	255	
1800.536	1	1	0	0	0.046169	0.10806	0.17661	0.15858	0.14573	0.094421	0.015613	0.27513	0.38524	0.11508	0.38338	0.15203	0.12131	0.095656	0.12201	0.19244	0.085417	-1.3583	-0.65625	-0.7	-1.1875	-0.4375	-1.1938	-1.1083	-0.29375	-1.4021	-0.58542	-0.96875	-1.3583	-0.7	-1.0625	-1.1896	79.495	-5.394	-69.512	-147.610	84.065	133.742	34.588	139.916	148.281	-105.030	132.101	159.330	-96.138	147.244	111.777	144.180	0.0012358	0.00017967	0.0001741	1037.5	6.6057e-06	1.8433e-06	859.14	410.57	1.0289e-05	5.7639e-06	363.46	158.48	181.64	98.715	1.3833e-06	85.36	0.00035411	0.00034664	9.6e-05	961.68	3.8141e-06	3.8314e-06	799.52	372.21	3.8364e-06	3.8247e-06	330.61	141.83	156.69	85.707	3.8284e-06	74.168	-35.473	104.686	-127.886	-148.679	-29.703	-93.661	-150.809	-144.485	-36.507	-58.160	-147.784	-143.181	-139.957	-135.889	28.391	-139.897	-8191	255	
#DATA ENDS
