BOXY.EXE: ISS Imagent and Oximeter Data Acquisition Program Version 0.80
Ascii Record File

#ACQ INFORMATION
2  Detector Channels 
16  External MUX Channels 
1  Auxiliary Channels 
5000  Waveform (CCF) Frequency (Hz)
1  Waveforms Skipped 
30  Waveforms Averaged 
1  Cycles Averaged 
16  Acquisitions per Waveform 
10.0806  Updata Rate (Hz) 

#FILE INFORMATION
TRUE -- External MUX Channel results are PARSED.
FALSE -- AC DC and Phase are NOT grouped.
TRUE -- Companion Program Settings File CREATED.
FALSE -- AC data not excluded
FALSE -- DC data not excluded
FALSE -- Phase data not excluded
FALSE -- Auxillary Chn. data not excluded
Tab delimiters

#CALIBRATION STATE
TRUE -- Waveform Calibration Values APPLIED.


#AUX CALIBRATION VALUES
Val Type	aux-1	

Term	1.0000e+00	
Factor	0.0000e+00	


#WF CALIBRATION VALUES
A = Detector Channel
Val Type	A-AC1	A-AC2	A-AC3	A-AC4	A-AC5	A-AC6	A-AC7	A-AC8	A-AC9	A-AC10	A-AC11	A-AC12	A-AC13	A-AC14	A-AC15	A-AC16	A-DC1	A-DC2	A-DC3	A-DC4	A-DC5	A-DC6	A-DC7	A-DC8	A-DC9	A-DC10	A-DC11	A-DC12	A-DC13	A-DC14	A-DC15	A-DC16	A-Ph1	A-Ph2	A-Ph3	A-Ph4	A-Ph5	A-Ph6	A-Ph7	A-Ph8	A-Ph9	A-Ph10	A-Ph11	A-Ph12	A-Ph13	A-Ph14	A-Ph15	A-Ph16	

Term	0.00000e+00	0.00000e+00	0.00000e+00	0.00000e+00	0.00000e+00	0.00000e+00	0.00000e+00	0.00000e+00	0.00000e+00	0.00000e+00	0.00000e+00	0.00000e+00	0.00000e+00	0.00000e+00	0.00000e+00	0.00000e+00	0.00000e+00	0.00000e+00	0.00000e+00	0.00000e+00	0.00000e+00	0.00000e+00	0.00000e+00	0.00000e+00	0.00000e+00	0.00000e+00	0.00000e+00	0.00000e+00	0.00000e+00	0.00000e+00	0.00000e+00	0.00000e+00	0.00000e+00	0.00000e+00	0.00000e+00	0.00000e+00	0.00000e+00	0.00000e+00	0.00000e+00	0.00000e+00	0.00000e+00	0.00000e+00	0.00000e+00	0.00000e+00	0.00000e+00	0.00000e+00	0.00000e+00	0.00000e+00	
Factor	1.00000e+00	1.00000e+00	1.00000e+00	1.00000e+00	1.00000e+00	1.00000e+00	1.00000e+00	1.00000e+00	1.00000e+00	1.00000e+00	1.00000e+00	1.00000e+00	1.00000e+00	1.00000e+00	1.00000e+00	1.00000e+00	1.00000e+00	1.00000e+00	1.00000e+00	1.00000e+00	1.00000e+00	1.00000e+00	1.00000e+00	1.00000e+00	1.00000e+00	1.00000e+00	1.00000e+00	1.00000e+00	1.00000e+00	1.00000e+00	1.00000e+00	1.00000e+00	X	X	X	X	X	X	X	X	X	X	X	X	X	X	X	X	

B = Detector Channel
Val Type	B-AC1	B-AC2	B-AC3	B-AC4	B-AC5	B-AC6	B-AC7	B-AC8	B-AC9	B-AC10	B-AC11	B-AC12	B-AC13	B-AC14	B-AC15	B-AC16	B-DC1	B-DC2	B-DC3	B-DC4	B-DC5	B-DC6	B-DC7	B-DC8	B-DC9	B-DC10	B-DC11	B-DC12	B-DC13	B-DC14	B-DC15	B-DC16	B-Ph1	B-Ph2	B-Ph3	B-Ph4	B-Ph5	B-Ph6	B-Ph7	B-Ph8	B-Ph9	B-Ph10	B-Ph11	B-Ph12	B-Ph13	B-Ph14	B-Ph15	B-Ph16	

Term	0.00000e+00	0.00000e+00	0.00000e+00	0.00000e+00	0.00000e+00	0.00000e+00	0.00000e+00	0.00000e+00	0.00000e+00	0.00000e+00	0.00000e+00	0.00000e+00	0.00000e+00	0.00000e+00	0.00000e+00	0.00000e+00	0.00000e+00	0.00000e+00	0.00000e+00	0.00000e+00	0.00000e+00	0.00000e+00	0.00000e+00	0.00000e+00	0.00000e+00	0.00000e+00	0.00000e+00	0.00000e+00	0.00000e+00	0.00000e+00	0.00000e+00	0.00000e+00	-1.89397e+02	-1.65226e+02	-1.57126e+02	-1.83573e+02	-7.86518e+01	-6.98634e+01	-1.59024e+02	-1.62015e+02	-7.23741e+01	-8.28070e+01	-1.70632e+02	-1.70941e+02	-1.78840e+02	-1.76518e+02	-1.05877e+02	-1.49938e+02	
Factor	3.42563e-05	9.17672e-05	3.45975e-05	1.69658e-01	8.77912e-07	9.10906e-07	1.63438e-01	4.72968e-02	9.51688e-07	1.02407e-06	8.13686e-02	2.67452e-02	2.20867e-02	8.52368e-03	9.30633e-07	1.22118e-02	6.57652e-07	6.67795e-07	1.85925e-07	8.48753e-02	7.31233e-09	7.30656e-09	7.73714e-02	2.37719e-02	7.30843e-09	7.30628e-09	3.87263e-02	1.27484e-02	1.10087e-02	4.19686e-03	7.29356e-09	5.76721e-03	X	X	X	X	X	X	X	X	X	X	X	X	X	X	X	X	



#DISTANCE SETTINGS
A = Detector Channel
A-1	A-2	A-3	A-4	A-5	A-6	A-7	A-8	A-9	A-10	A-11	A-12	A-13	A-14	A-15	A-16	

2.5000e+00	3.0000e+00	2.5000e+00	3.0000e+00	2.0000e+00	3.0000e+00	1.5000e+00	3.0000e+00	3.0000e+00	3.0000e+00	3.0000e+00	3.0000e+00	3.0000e+00	3.0000e+00	1.5000e+00	3.0000e+00	

B = Detector Channel
B-1	B-2	B-3	B-4	B-5	B-6	B-7	B-8	B-9	B-10	B-11	B-12	B-13	B-14	B-15	B-16	

1.0000e+01	1.0000e+01	1.0000e+01	1.4400e+00	1.0000e+01	1.0000e+01	1.5100e+00	1.9400e+00	1.0000e+01	1.0000e+01	1.9900e+00	2.4900e+00	2.4100e+00	2.9000e+00	1.0000e+01	2.9800e+00	




#DATA BEGINS
time	group	step	mark	flag	A-AC1	A-AC2	A-AC3	A-AC4	A-AC5	A-AC6	A-AC7	A-AC8	A-AC9	A-AC10	A-AC11	A-AC12	A-AC13	A-AC14	A-AC15	A-AC16	A-DC1	A-DC2	A-DC3	A-DC4	A-DC5	A-DC6	A-DC7	A-DC8	A-DC9	A-DC10	A-DC11	A-DC12	A-DC13	A-DC14	A-DC15	A-DC16	A-Ph1	A-Ph2	A-Ph3	A-Ph4	A-Ph5	A-Ph6	A-Ph7	A-Ph8	A-Ph9	A-Ph10	A-Ph11	A-Ph12	A-Ph13	A-Ph14	A-Ph15	A-Ph16	B-AC1	B-AC2	B-AC3	B-AC4	B-AC5	B-AC6	B-AC7	B-AC8	B-AC9	B-AC10	B-AC11	B-AC12	B-AC13	B-AC14	B-AC15	B-AC16	B-DC1	B-DC2	B-DC3	B-DC4	B-DC5	B-DC6	B-DC7	B-DC8	B-DC9	B-DC10	B-DC11	B-DC12	B-DC13	B-DC14	B-DC15	B-DC16	B-Ph1	B-Ph2	B-Ph3	B-Ph4	B-Ph5	B-Ph6	B-Ph7	B-Ph8	B-Ph9	B-Ph10	B-Ph11	B-Ph12	B-Ph13	B-Ph14	B-Ph15	B-Ph16	aux-1	digaux	

3474.434	1	1	0	256	0.030563	0.090764	0.21561	0.14029	0.22388	0.25773	0.22609	0.41221	0.17179	0.057503	0.28655	0.3302	0.13724	0.33169	0.28453	0.12951	-0.13125	-0.90417	-1.4667	-0.24583	-1.2542	-1.0854	-0.59792	-1.3625	-0.57083	-0.91667	-1.6104	-0.36042	-1.1875	-1.2333	-0.36875	-1.3979	26.987	-79.280	-43.721	257.379	-16.980	114.089	168.517	198.243	22.387	-16.013	202.613	272.658	153.106	268.496	-18.781	-70.040	0.00034424	0.00058804	0.00019022	801.48	5.108e-06	6.0641e-06	1020.3	259.44	1.9655e-06	6.1105e-06	400.71	147.06	89.203	33.016	8.7469e-06	63.434	0.00017358	0.00016987	4.7103e-05	721.2	1.8735e-06	1.8772e-06	902.99	230	1.8851e-06	1.8965e-06	349.24	128.73	78.549	28.982	1.8761e-06	54.583	123.170	7.792	47.110	-69.445	48.076	45.605	-70.218	-64.596	160.267	59.802	-65.807	-61.335	-60.290	-55.123	3.086	-57.099	-8191	255	
3474.555	1	1	0	0	0.079462	0.20833	0.13947	0.084752	0.38028	0.082758	0.2207	0.059022	0.20092	0.1339	0.15876	0.1903	0.23468	0.40604	0.36723	0.27124	-0.38958	-0.77083	-1.4667	-0.375	-1.2396	-1.2208	-0.52083	-1.6667	-0.57708	-0.68542	-1.55	-0.475	-1.1917	-1.3208	-0.37708	-1.6833	132.503	88.259	223.918	215.592	271.011	205.873	165.782	-66.138	109.671	97.508	208.700	-75.078	144.139	251.032	261.160	193.660	0.00014921	0.00031566	2.3079e-05	824.47	4.6729e-06	5.3419e-06	1021.2	260.36	5.4685e-06	4.3838e-06	409.05	149.24	89.505	33.157	5.6806e-06	63.412	0.00018163	0.00017881	4.793e-05	730.52	1.9389e-06	1.9169e-06	906.96	230.78	1.9416e-06	1.9351e-06	352.32	129.38	78.519	28.883	1.904e-06	54.574	108.157	36.677	-63.669	-69.594	72.002	-10.581	-69.886	-64.558	-19.337	55.431	-65.850	-62.014	-60.310	-55.712	63.315	-57.339	-8191	255	
3474.626	1	1	0	0	0.063885	0.23944	0.10685	0.45118	0.10027	0.034867	0.28229	0.055822	0.12104	0.062577	0.19046	0.21604	0.17609	0.12028	0.32941	0.28287	-0.38958	-0.66667	-1.3917	-0.67083	-0.90417	-0.96042	-0.4375	-1.4438	-0.77708	-0.53958	-1.5604	-0.5625	-1.0021	-1.2521	-0.36875	-1.475	154.118	35.921	45.830	-59.732	-80.035	208.177	110.756	47.919	11.481	-17.755	146.878	213.832	-54.568	184.089	-5.365	239.287	0.00022793	0.00055654	9.433e-05	819.98	2.7008e-06	4.475e-06	1026.2	260.58	2.6806e-06	9.5403e-06	404.64	148.98	88.897	33.032	6.4911e-06	63.271	0.00017537	0.00017329	4.716e-05	726.79	1.868e-06	1.8823e-06	902.84	230.28	1.9507e-06	1.9046e-06	350.5	129.37	78.036	28.762	1.8845e-06	54.054	155.616	-17.338	-28.373	-69.988	117.779	168.127	-70.233	-64.942	72.864	47.735	-65.680	-61.794	-60.214	-55.413	31.556	-57.305	-8191	255	
3474.723	1	1	0	0	0.28243	0.18583	0.24788	0.2686	0.18878	0.061073	0.20424	0.32636	0.018312	0.052892	0.30873	0.24851	0.095605	0.10555	0.28055	0.22354	-0.45	-0.50208	-1.4625	-0.64167	-0.86667	-1.4458	-0.46042	-1.3875	-0.89167	-0.43958	-1.7208	-0.36667	-1.0583	-1.3042	-0.070833	-1.4792	203.611	71.119	246.955	-29.748	111.457	-17.720	251.889	235.049	208.789	78.642	205.604	88.467	95.631	270.894	126.260	264.651	0.00046045	0.0004025	0.0002853	825.95	5.1857e-06	8.5251e-06	1027.7	261.16	5.762e-06	5.1907e-06	401.31	146.57	88.436	32.282	3.173e-06	61.669	0.00018206	0.00017236	4.8147e-05	726.69	1.9571e-06	1.9437e-06	900.53	229.38	1.9524e-06	1.941e-06	347.26	127.28	77.796	28.398	1.9665e-06	53.466	113.872	16.958	-27.825	-70.347	127.634	12.576	-70.112	-64.847	-35.300	36.268	-65.885	-61.713	-60.362	-55.524	60.473	-56.685	-8191	255	
3474.819	1	1	0	0	0.14124	0.11682	0.021576	0.15548	0.14026	0.19971	0.47678	0.22161	0.2802	0.10263	0.18191	0.012483	0.11928	0.32141	0.15243	0.3622	-0.6875	-0.36042	-1.6271	-0.70208	-0.975	-1.2521	-0.42708	-1.4292	-0.91875	-0.35833	-1.5875	-0.85	-0.81458	-1.5917	-0.46042	-1.4208	268.306	-18.091	115.376	239.568	44.772	22.438	223.243	216.633	-37.032	170.873	-39.980	248.622	150.586	237.513	145.950	227.091	0.0002929	0.00032665	0.00025446	821.71	5.4694e-06	3.6859e-06	1020	261.06	1.041e-06	4.8719e-06	402.87	147.37	88.102	32.868	2.7342e-06	63.736	0.00018711	0.000181	4.975e-05	727.51	1.982e-06	1.9445e-06	898.64	229.95	1.9465e-06	1.9247e-06	348.64	128.06	77.697	28.662	1.9665e-06	54.239	105.101	-5.762	-43.660	-70.055	25.162	65.885	-70.327	-64.585	64.605	139.402	-66.261	-61.770	-60.366	-55.178	237.758	-57.200	-8191	255	
3474.939	1	1	0	0	0.14306	0.080417	0.20515	0.27376	0.14836	0.19285	0.097028	0.19998	0.17431	0.13016	0.18493	0.33919	0.079262	0.3153	0.25775	0.14068	-0.74583	-0.34792	-1.5667	-0.5625	-0.80625	-1.3625	-0.55	-1.3208	-1.1792	-0.475	-1.6625	-0.67292	-0.74167	-1.625	-0.18333	-1.2958	22.339	148.409	20.326	-74.084	-69.385	-18.588	-43.339	-81.763	160.779	121.008	239.260	216.947	48.001	266.737	263.662	236.953	0.00036601	0.00041355	0.00024592	825.96	3.0803e-06	5.894e-06	1030	262.86	3.6748e-06	3.9816e-06	402.66	148.69	88.99	32.843	5.1127e-06	63.427	0.00018708	0.00018091	5.0916e-05	730.5	1.9964e-06	1.9501e-06	904.81	231.48	1.9947e-06	2.0005e-06	350.09	129.11	78.386	28.891	2.0306e-06	54.484	119.157	-34.195	-54.316	-70.125	100.912	117.735	-70.656	-64.358	218.077	52.490	-65.880	-61.984	-60.574	-55.445	77.522	-57.514	-8191	255	
3475.036	1	1	0	0	0.20138	0.043784	0.2581	0.090096	0.19289	0.35672	0.21935	0.44724	0.10683	0.13064	0.29759	0.40089	0.050804	0.36535	0.11114	0.15266	-0.90625	-0.11042	-1.4438	-0.70833	-0.64583	-1.3979	-0.40208	-1.3375	-1.125	-0.26042	-1.5312	-0.97083	-0.57083	-1.5729	-0.43333	-1.1917	191.626	265.018	47.390	224.033	71.898	-77.704	231.347	-73.029	181.576	6.178	219.342	-81.661	-26.478	-67.571	10.013	186.581	0.00036307	0.00032766	9.6676e-05	844.42	2.8581e-06	6.9e-06	1038.4	263.82	1.6772e-06	6.6977e-06	406.27	150.75	89.697	33.362	5.4923e-06	63.571	0.00019218	0.00018723	5.1505e-05	738.35	2.0259e-06	2.0148e-06	907.78	231.72	1.9959e-06	2.0284e-06	350.86	129.56	78.759	28.99	2.0717e-06	54.349	110.273	-31.214	-62.640	-70.048	88.224	39.451	-70.658	-64.719	16.044	41.229	-66.066	-62.070	-60.678	-55.629	47.519	-57.615	-8191	255	
3475.132	1	1	0	0	0.16936	0.1468	0.088385	0.17472	0.13322	0.11281	0.23321	0.49321	0.16231	0.16193	0.27898	0.11493	0.28489	0.20932	0.20352	0.30893	-0.74167	-0.46042	-1.1917	-0.9875	-0.67708	-1.4771	-0.47917	-1.1021	-1.2479	-0.47292	-1.5333	-1.0042	-0.56458	-1.35	-0.46875	-1.0271	52.563	-68.129	117.645	58.344	237.093	236.123	223.089	259.256	206.455	261.466	260.389	-9.454	272.393	-77.122	97.170	199.422	0.00031908	0.00043812	0.00010152	837.56	4.2795e-06	7.3698e-06	1009.7	258.83	3.6939e-06	4.2628e-06	405.49	147.58	89.649	33.042	4.1002e-06	63.148	0.00019548	0.00019044	5.2817e-05	734.8	2.1399e-06	2.1011e-06	898.51	230.41	2.1362e-06	2.1431e-06	350.04	128.28	78.482	28.925	2.1879e-06	54.164	89.730	-74.735	92.583	-70.418	127.562	97.185	-70.535	-63.962	169.739	252.082	-66.159	-61.997	-60.095	-55.449	43.239	-58.103	-8191	255	
3475.228	1	1	0	0	0.27032	0.22962	0.19973	0.080993	0.13512	0.15838	0.23058	0.02512	0.32797	0.21084	0.063225	0.2259	0.25008	0.10395	0.05953	0.23366	-0.82708	-0.15208	-1.3292	-0.91458	-0.52708	-1.4875	-0.86458	-0.9125	-1.1688	-0.50833	-1.2604	-0.91458	-0.63333	-1.4146	-0.46667	-0.96667	130.016	-2.325	-71.231	274.443	241.927	113.657	131.012	-12.531	-28.192	230.020	223.241	222.616	239.798	-37.881	-28.645	230.700	0.00035554	0.00067104	0.00017998	831.26	8.5039e-06	3.3198e-06	1023.3	262.8	1.8905e-06	3.9245e-06	406.04	148.69	90.431	33.09	7.9523e-06	63.158	0.00020135	0.0002027	5.6361e-05	735.39	2.2025e-06	2.201e-06	903.03	231.53	2.201e-06	2.2409e-06	350.97	128.99	79.284	29.077	2.1916e-06	54.33	156.286	33.937	21.530	-71.255	75.619	4.719	-71.257	-65.611	82.265	77.794	-66.783	-62.478	-60.427	-56.008	7.309	-57.822	-8191	255	
3475.322	1	1	0	0	0.25064	0.092773	0.24926	0.051886	0.38582	0.22725	0.17787	0.26436	0.14931	0.083395	0.11586	0.042853	0.17223	0.27701	0.084568	0.22803	-0.95625	-0.31875	-1.2125	-0.86458	-0.5	-1.3188	-0.66667	-0.87292	-1.2437	-0.47917	-1.3396	-1.1979	-0.31875	-1.6521	-0.38958	-1.1396	199.440	131.841	57.094	214.357	209.101	181.660	220.840	246.478	236.302	229.671	199.335	-8.075	-45.989	233.779	228.735	172.700	0.00015324	0.00052764	0.00016137	836.5	4.9477e-06	4.898e-06	1025.8	261.66	2.9839e-06	5.8082e-06	406.2	149.32	90.736	33.43	5.1459e-06	64.237	0.00020642	0.00020715	5.6664e-05	736.41	2.2024e-06	2.206e-06	902.13	231.82	2.1832e-06	2.2231e-06	351.57	129.3	79.28	29.149	2.2434e-06	54.738	158.570	-68.470	26.152	-71.145	59.262	29.113	-71.083	-65.040	173.989	-1.109	-66.549	-62.854	-61.123	-56.241	-77.240	-57.548	-8191	255	
3475.418	1	1	0	0	0.13431	0.1961	0.061376	0.19319	0.090151	0.17862	0.22899	0.16633	0.22877	0.11941	0.026848	0.04729	0.44743	0.15167	0.26673	0.22751	-1.2875	-0.20625	-1.1583	-1.2229	-0.14792	-1.5063	-0.73542	-0.83958	-1.4062	-0.45417	-1.1396	-1.2812	-0.42083	-1.1688	-0.70833	-0.79792	46.173	143.593	190.641	-81.910	61.570	-9.896	178.084	181.928	88.334	137.902	167.296	125.462	-60.181	-78.000	-51.437	-74.009	0.00032085	0.00022499	0.00029326	835.16	1.31e-06	3.5325e-06	1031.2	262.82	4.8413e-06	2.1547e-06	404.25	148.54	89.718	32.91	2.5097e-06	63.092	0.00021209	0.00021064	5.9046e-05	739.41	2.3058e-06	2.3106e-06	910.08	232.74	2.2724e-06	2.3201e-06	351.27	129	78.978	28.923	2.3258e-06	54.398	106.520	-34.319	-16.248	-70.631	-66.976	34.201	-70.642	-65.318	49.291	-1.420	-66.572	-62.610	-61.197	-55.910	-37.947	-58.234	-8191	255	
3475.515	1	1	0	0	0.08571	0.13701	0.26316	0.24286	0.21736	0.094061	0.25004	0.14113	0.10926	0.2894	0.14219	0.19217	0.23193	0.16644	0.052037	0.17633	-1.1	-0.50417	-1.1146	-1.325	-0.30208	-1.45	-0.88333	-0.67917	-1.6313	-0.27292	-1.3208	-1.4771	-0.18125	-1.5125	-0.69167	-0.80833	238.961	145.106	266.889	208.705	99.908	-58.225	205.365	96.100	96.709	-54.833	141.401	224.790	250.261	262.918	140.958	-80.300	0.00021954	0.00025124	0.0001361	832.73	5.028e-06	2.9953e-06	1022.6	261.99	1.9966e-06	1.0584e-05	404.07	148.1	89.266	33.164	7.7503e-06	62.672	0.00021755	0.00021909	5.8967e-05	736.74	2.3877e-06	2.3842e-06	903.24	232.04	2.3773e-06	2.3733e-06	349.67	128.35	78.462	28.908	2.3004e-06	53.956	93.619	-33.366	41.604	-71.064	93.883	10.141	-71.240	-65.352	3.738	138.510	-67.157	-62.958	-61.265	-56.573	108.291	-58.342	-8191	255	
3475.635	1	1	0	0	0.23745	0.28874	0.17083	0.13485	0.38562	0.17715	0.31454	0.084634	0.18747	0.11245	0.28222	0.35311	0.1942	0.18533	0.14249	0.078269	-1.1688	-0.32917	-1.0396	-1.3188	-0.27917	-1.5271	-1.15	-0.42292	-1.5063	-0.40833	-1.1646	-1.4979	-0.52083	-1.3458	-0.87917	-0.475	64.776	155.263	202.993	194.543	7.046	129.642	190.357	24.122	234.936	220.243	-63.543	224.103	213.763	-76.054	152.283	70.854	0.00045184	0.00063417	0.00022797	827.49	5.7781e-06	1.0306e-05	1018.7	260.86	6.2382e-06	6.3913e-07	401.36	147.28	89.261	32.752	5.0411e-06	62.7	0.0002176	0.00020951	5.6811e-05	731.75	2.3089e-06	2.304e-06	900.34	230.77	2.3444e-06	2.3385e-06	349.08	128.42	78.605	28.807	2.2964e-06	54.01	114.329	-42.723	-20.006	-71.295	112.877	36.042	-71.598	-65.715	100.330	-82.374	-66.296	-62.764	-60.969	-56.037	20.743	-57.831	-8191	255	
3475.731	1	1	0	0	0.099926	0.22759	0.13967	0.15129	0.085451	0.11662	0.28966	0.23705	0.33789	0.17094	0.2176	0.31456	0.15385	0.28661	0.18883	0.16301	-1.0833	-0.46875	-0.7125	-1.5271	-0.43542	-1.2687	-1.0979	-0.4875	-1.6042	-0.42292	-1.1146	-1.6521	-0.39167	-1.1396	-1.0375	-0.53333	251.561	13.180	74.849	-58.533	128.502	-24.136	-3.897	163.873	164.563	72.715	-25.545	270.385	254.305	95.569	128.732	128.382	0.00033948	0.00047992	0.00019084	832.32	5.2484e-06	1.4647e-06	1022.4	261.71	2.7062e-06	6.1478e-06	405.77	148.42	89.731	33.18	3.9277e-06	64.017	0.0002204	0.00021516	5.8709e-05	737.56	2.3978e-06	2.375e-06	904.94	231.81	2.4226e-06	2.3874e-06	351.7	129.31	79.169	29.098	2.3717e-06	54.859	126.672	22.102	3.809	-70.758	-21.123	224.192	-70.383	-64.604	-6.977	120.771	-66.097	-62.294	-60.450	-55.646	47.345	-57.382	-8191	255	
3475.827	1	1	0	0	0.17433	0.25067	0.23342	0.16795	0.17045	0.21137	0.082334	0.095338	0.25557	0.14687	0.44073	0.18708	0.092713	0.26834	0.51	0.1464	-1.1125	-0.5625	-0.65	-1.3583	-0.42083	-1.1396	-1.2313	-0.55625	-1.1875	-0.76667	-0.82917	-1.6104	-0.55208	-1.2333	-1.0083	-0.29167	199.646	168.157	272.893	248.096	16.626	11.791	226.148	156.051	235.595	152.861	225.219	65.415	116.731	254.577	23.332	-45.547	0.00033288	0.00050327	0.00018039	839.37	2.8862e-06	8.5585e-06	1029.9	264.03	3.4836e-06	7.7644e-06	405.87	149.66	90.089	33.609	5.0068e-06	64.496	0.00022494	0.00021589	5.9917e-05	738.74	2.3941e-06	2.3366e-06	906.35	232.83	2.3235e-06	2.2716e-06	352.69	130.48	79.74	29.44	2.3091e-06	55.303	118.677	-24.049	-35.861	-70.506	10.374	83.485	-70.559	-64.670	61.332	38.465	-65.925	-61.616	-59.997	-55.151	109.107	-57.413	-8191	255	
3475.924	1	1	0	0	0.20799	0.025011	0.20002	0.36548	0.22107	0.016372	0.067919	0.049041	0.11253	0.086337	0.22782	0.44696	0.098562	0.17607	0.11668	0.21284	-1.1167	-0.64167	-0.60417	-1.7292	-0.49583	-1.1625	-1.2229	-0.53333	-1.4688	-0.73958	-0.77292	-1.6042	-0.71875	-1.2375	-1.1792	-0.50208	30.696	271.551	198.202	230.659	-36.423	101.837	243.150	161.788	5.398	198.321	-79.146	245.591	234.657	216.844	-27.245	253.478	0.00046529	0.00097873	8.3508e-05	833	3.2544e-06	5.622e-06	1026.3	263.23	4.2231e-06	7.3166e-06	402.39	148.73	90.058	33.375	9.4485e-06	63.772	0.00022642	0.00022007	5.9682e-05	736.35	2.4346e-06	2.4103e-06	905.04	232.93	2.449e-06	2.3834e-06	350.65	129.39	79.442	29.278	2.4598e-06	54.752	109.957	-67.513	-4.949	-70.354	94.580	65.105	-70.632	-64.321	-10.158	49.821	-66.349	-61.676	-60.669	-55.223	64.713	-57.467	-8191	255	
3476.020	1	1	0	0	0.48281	0.19314	0.14855	0.33012	0.15012	0.027508	0.057538	0.20181	0.02848	0.1164	0.15454	0.10107	0.29071	0.12541	0.11901	0.22218	-0.87083	-0.94167	-0.57292	-1.5396	-0.48125	-0.97083	-1.4312	-0.63125	-1.425	-0.85417	-0.78125	-1.6083	-0.76667	-1.175	-1.1104	-0.33958	179.765	124.229	-78.919	-66.099	193.876	-45.305	-78.695	8.537	43.861	135.932	255.858	98.759	221.784	-38.202	229.178	161.752	0.00010939	0.00032039	0.00027965	829.45	5.4097e-06	8.6418e-06	1023.6	261.59	8.1871e-06	5.6718e-06	403.38	147.97	90.115	32.712	5.2259e-06	63.324	0.00023336	0.00022856	6.3968e-05	738.74	2.5363e-06	2.5187e-06	909.48	232.89	2.5305e-06	2.5385e-06	351.75	129.32	79.751	29.083	2.4859e-06	54.595	141.127	88.507	-28.241	-70.108	76.105	-43.485	-70.068	-64.615	46.517	10.570	-65.994	-61.963	-60.535	-55.284	105.072	-57.421	-8191	255	
3476.116	1	1	0	0	0.23467	0.1985	0.14834	0.038444	0.042944	0.17291	0.11727	0.24184	0.39681	0.10047	0.01291	0.056066	0.067442	0.25744	0.28165	0.0627	-1.15	-0.94375	-0.30833	-1.625	-0.34792	-0.925	-1.55	-0.33542	-1.2313	-0.95625	-0.47708	-1.5875	-0.9125	-0.70208	-1.2583	-0.31875	-68.111	12.917	117.719	-7.842	268.508	-58.479	140.179	138.780	-47.364	-54.480	75.792	202.112	-6.890	38.091	192.777	71.905	0.00045021	0.00036542	0.00022681	845.37	4.6434e-06	6.6565e-06	1031.6	263.93	1.4809e-06	5.231e-06	408.23	148.97	90.347	33.219	4.894e-06	63.521	0.0002354	0.00023278	6.3641e-05	747.97	2.5164e-06	2.5812e-06	914.5	234.29	2.5418e-06	2.5723e-06	354.66	129.9	80.006	29.162	2.6894e-06	54.685	111.000	-73.912	-30.814	-70.354	-11.093	134.815	-71.116	-65.529	9.476	124.678	-66.435	-62.540	-60.909	-56.158	49.106	-57.563	-8191	255	
3476.235	1	1	0	0	0.15361	0.071974	0.14745	0.27797	0.17146	0.22428	0.1161	0.10778	0.20286	0.13631	0.33254	0.16895	0.1453	0.25339	0.22938	0.10776	-0.99375	-0.86458	-0.35625	-1.5021	-0.37292	-0.73542	-1.5333	-0.26875	-1.2125	-1.3062	-0.4625	-1.5958	-0.7125	-0.85417	-1.4292	-0.63958	261.773	28.959	-47.537	217.986	33.555	145.708	248.329	46.505	84.534	-49.586	247.226	243.514	261.727	-59.185	172.073	171.337	0.00038757	0.00033018	0.0002907	855.87	6.26e-06	4.6952e-06	1047.4	266.78	4.4781e-06	1.0264e-05	408.73	151.17	90.366	33.247	3.4434e-06	63.02	0.00024238	0.00024114	6.7979e-05	755.36	2.638e-06	2.6522e-06	925.22	235.72	2.6173e-06	2.6524e-06	356.9	131.34	80.515	29.279	2.558e-06	54.601	118.913	22.921	9.382	-70.420	27.180	110.065	-71.161	-65.744	185.864	55.614	-66.724	-62.198	-61.192	-55.956	38.835	-58.144	-8191	255	
3476.331	1	1	0	0	0.19578	0.26762	0.1042	0.24192	0.15206	0.10174	0.20289	0.35475	0.099129	0.035699	0.2746	0.097036	0.11533	0.29251	0.10981	0.16279	-0.775	-0.92083	-0.2125	-1.6021	-0.60417	-0.7375	-1.5458	-0.48958	-1.0917	-1.0125	-0.50208	-1.2729	-0.71875	-0.5375	-1.5771	-0.60625	273.197	59.100	46.568	245.907	-11.898	199.952	231.078	-19.971	-39.580	138.742	216.771	247.047	122.542	-13.837	-11.227	-52.007	0.00054821	0.00013952	9.0403e-05	848.03	1.7406e-06	5.4668e-06	1032	261.89	2.9125e-06	5.2207e-06	409.65	149.02	90.818	33.011	7.1848e-07	62.338	0.00023493	0.00023326	6.3806e-05	748.1	2.4862e-06	2.49e-06	912.86	232.56	2.481e-06	2.4971e-06	354.21	129.39	80.059	28.863	2.5434e-06	53.538	140.561	160.001	228.137	-71.056	108.961	91.492	-70.837	-65.027	50.792	57.309	-66.478	-62.477	-61.572	-56.141	137.894	-58.221	-8191	255	
3476.427	1	1	0	0	0.13265	0.19012	0.26297	0.019957	0.15809	0.26673	0.20112	0.068939	0.20719	0.070313	0.55191	0.33882	0.22618	0.24049	0.040406	0.026631	-0.55833	-0.93542	-0.36458	-1.5021	-0.69375	-0.6	-1.4896	-0.66042	-1.0042	-1.0104	-0.48333	-1.3583	-0.6875	-0.675	-1.3542	-0.55	-44.199	253.264	172.401	98.311	148.129	133.375	254.888	18.248	202.048	263.017	-57.402	192.293	125.102	-51.897	184.074	230.502	0.00033587	0.00058404	0.00014091	856.04	2.2378e-06	3.2452e-06	1043.6	264.03	5.1733e-06	3.9845e-06	408.69	149.24	91.862	32.7	7.1728e-06	61.634	0.00024009	0.00024101	6.6935e-05	760.35	2.6382e-06	2.6434e-06	926.44	234.22	2.7001e-06	2.7003e-06	355.34	129.96	81.081	28.848	2.7055e-06	53.377	131.979	-71.116	33.999	-70.645	25.408	-39.394	-71.071	-65.049	85.158	215.996	-66.830	-62.443	-61.342	-56.061	-5.564	-58.039	-8191	255	
3476.499	1	1	0	0	0.040564	0.1003	0.27481	0.17881	0.08061	0.08144	0.38591	0.12359	0.22715	0.059305	0.3018	0.12762	0.28079	0.10142	0.27176	0.30994	-0.51667	-1.4521	-0.40208	-1.3125	-0.74167	-0.54792	-1.6229	-0.5375	-0.925	-1.2021	-0.40417	-1.4729	-0.87292	-0.68125	-1.5125	-0.38125	80.290	268.668	241.192	264.635	256.903	-65.793	245.335	66.529	-62.134	76.286	220.511	253.337	7.724	199.750	-57.798	194.620	0.0004682	0.0011108	0.0002554	861.73	2.8694e-06	4.4983e-06	1044	264.68	4.0122e-06	4.0152e-06	411.1	147.86	90.58	31.281	9.4983e-06	59.928	0.00025463	0.00024983	6.8814e-05	763.32	2.7865e-06	2.7569e-06	924.74	235.54	2.7334e-06	2.7074e-06	356.99	129.87	80.919	28.365	2.604e-06	52.98	136.863	-30.104	269.085	-70.511	53.485	38.787	-70.370	-64.848	-22.756	51.791	-66.005	-62.094	-60.775	-54.541	47.264	-56.425	-8191	255	
3476.619	1	1	0	0	0.19829	0.10158	0.036562	0.23928	0.22062	0.073048	0.37554	0.14942	0.21331	0.26897	0.28595	0.18095	0.11495	0.31318	0.23878	0.04516	-0.63125	-1.4688	-0.51667	-1.45	-0.92708	-0.28125	-1.6063	-0.49583	-0.91458	-1.4396	-0.3875	-1.35	-1.125	-0.37708	-1.4188	-0.71875	69.526	76.308	-67.849	-79.036	66.045	53.546	180.590	267.292	153.760	221.180	212.489	207.712	-10.360	251.962	56.588	164.061	0.00039251	0.0011612	0.00016197	862.64	5.7178e-06	2.9348e-06	1047.7	268.01	4.1859e-06	1.9109e-06	411.57	150.4	91.514	32.237	3.5938e-06	61.537	0.00024419	0.00024215	6.6477e-05	761.84	2.5726e-06	2.601e-06	926.47	236.11	2.6405e-06	2.6179e-06	357.91	130.79	81.188	28.522	2.651e-06	53.667	81.510	-64.374	-37.888	-69.973	56.088	225.792	-70.304	-65.194	45.377	246.716	-66.574	-61.722	-60.665	-55.377	8.332	-57.372	-8191	255	
3476.716	1	1	0	0	0.13399	0.11144	0.30391	0.12268	0.4546	0.099268	0.23865	0.4107	0.13649	0.13139	0.18816	0.15201	0.22986	0.42224	0.18341	0.082268	-0.66458	-1.2417	-0.097917	-1.4208	-1.2062	-0.1875	-1.8771	-0.64375	-0.99375	-1.3188	-0.6	-1.3458	-1.0542	-0.48542	-1.4312	-0.61875	252.455	43.287	-60.804	177.073	72.400	105.984	227.445	202.061	260.380	-16.820	109.823	227.889	176.582	-8.740	139.188	257.736	0.00031314	0.00049206	0.0002399	857.67	4.3984e-06	2.1007e-06	1036.9	261.66	1.9153e-06	9.245e-06	414.31	148.49	91.532	32.16	4.4212e-06	61.648	0.00025267	0.00024566	6.7223e-05	762.29	2.7764e-06	2.7165e-06	925.87	235.11	2.6799e-06	2.6654e-06	358.46	130.43	81.39	28.563	2.6586e-06	53.516	129.999	47.996	263.853	-70.174	-17.400	-27.585	-70.025	-64.919	-21.185	8.525	-66.224	-61.766	-60.652	-55.510	165.922	-57.457	-8191	255	
3476.812	1	1	0	0	0.19202	0.38276	0.3105	0.40978	0.046744	0.1502	0.17355	0.06565	0.2359	0.39228	0.35537	0.34306	0.3051	0.20914	0.15769	0.55497	-0.29792	-1.7062	-0.27083	-1.325	-1.2	-0.19792	-1.5583	-0.825	-0.63542	-1.4271	-0.6	-1.2458	-1.1	-0.53333	-1.3396	-0.95625	25.258	-24.275	51.740	-67.133	263.762	31.104	255.811	162.023	99.949	46.275	194.631	268.674	-74.198	49.666	87.438	198.275	0.0003234	0.00064879	0.00016329	851.49	1.9789e-06	7.0747e-06	1034.8	264.65	1.0787e-06	2.7595e-06	407.46	149.13	91.337	32.277	3.7976e-06	62.338	0.0002537	0.00024561	6.7857e-05	756.98	2.7386e-06	2.686e-06	918.68	235.67	2.6862e-06	2.6525e-06	356.45	130.86	81.05	28.736	2.5869e-06	53.928	132.929	202.798	-25.997	-69.661	99.733	117.448	-69.883	-64.892	-28.716	116.932	-66.037	-61.836	-60.350	-55.198	230.093	-57.330	-8191	255	
3476.908	1	1	0	0	0.072222	0.21546	0.095791	0.24224	0.18583	0.15983	0.2957	0.21538	0.14535	0.13393	0.14274	0.16119	0.058618	0.17962	0.18002	0.097393	-0.21042	-1.4521	-0.725	-1.0938	-1.0208	-0.37917	-1.6958	-0.86042	-0.49375	-1.4208	-0.58542	-1.1187	-1.2583	-0.24375	-1.0812	-0.87292	197.735	267.710	100.158	212.640	-65.860	83.000	206.851	194.348	124.794	216.989	-54.502	8.466	159.809	248.886	-36.354	135.752	0.00040163	0.00037534	0.0001017	830.22	3.3523e-06	2.7675e-06	1030.5	267.52	6.5529e-06	1.1632e-05	410.97	149.93	91.265	32.735	4.3546e-06	63.087	0.00024516	0.00023565	6.4428e-05	744.77	2.6019e-06	2.5647e-06	912.45	236.05	2.6361e-06	2.5061e-06	357.99	131.78	81.26	29.013	2.508e-06	54.56	95.143	-42.819	-7.932	-69.641	28.000	5.894	-70.432	-64.560	87.923	50.347	-66.253	-61.555	-60.501	-54.908	209.203	-57.486	-8191	255	
3477.028	1	1	0	0	0.012666	0.16074	0.23922	0.17445	0.086134	0.31118	0.089354	0.34307	0.14804	0.31503	0.028777	0.19529	0.30764	0.18912	0.12818	0.3976	-0.19583	-1.3813	-0.39792	-1.0812	-1.0396	-0.375	-1.3729	-0.98542	-0.53333	-1.4333	-0.42083	-0.99375	-1.3354	-0.3875	-1.2896	-0.975	148.434	99.672	129.846	260.924	125.901	127.985	231.362	194.802	116.103	116.981	231.851	261.510	-69.644	260.127	250.557	161.609	0.00039082	0.00044045	6.4117e-05	840.36	8.3816e-06	4.3826e-06	1038	267.27	4.0964e-06	9.8073e-06	414.29	151.96	92.876	33.149	9.6852e-06	64.153	0.00023686	0.000233	6.448e-05	745.91	2.5637e-06	2.539e-06	915.98	236.22	2.5274e-06	2.5561e-06	360.86	132.9	81.776	29.187	2.579e-06	55.299	138.052	111.818	-43.933	-70.075	24.951	128.678	-70.611	-65.083	-78.301	37.740	-66.862	-62.291	-61.288	-56.428	106.466	-58.123	-8191	255	
3477.100	1	1	0	0	0.090111	0.11877	0.056195	0.32692	0.1163	0.24755	0.34807	0.053391	0.17889	0.1034	0.31877	0.18258	0.079637	0.2104	0.34005	0.21764	0.0041667	-1.55	-0.49583	-1.0125	-1.3771	-0.28542	-1.5021	-1.0146	-0.40833	-1.3188	-0.48542	-0.88958	-1.4771	-0.16458	-1.2583	-1.2146	-14.675	-3.952	143.011	243.508	152.433	241.970	209.543	150.099	139.568	-44.900	221.496	202.335	139.443	191.181	82.607	238.329	0.00016774	0.00013605	0.00012637	848.95	3.5392e-06	4.6744e-06	1038.9	267.05	7.4062e-06	2.2867e-06	413.62	152.07	92.507	33.03	4.0147e-06	63.443	0.00024184	0.000239	6.6191e-05	752.51	2.5786e-06	2.5657e-06	921.75	237.28	2.5895e-06	2.5058e-06	359.83	132.6	81.456	29.056	2.5647e-06	54.625	110.422	81.574	101.078	-69.897	118.641	151.949	-70.298	-65.118	-6.598	-65.141	-66.479	-62.217	-60.979	-55.891	162.313	-58.315	-8191	255	
3477.196	1	1	0	0	0.26571	0.067584	0.15215	0.13174	0.29825	0.15571	0.33817	0.066232	0.28816	0.086932	0.49775	0.08383	0.09854	0.18529	0.077149	0.17143	-0.00625	-1.4042	-0.49375	-0.625	-1.4104	-0.31875	-1.3771	-1.2208	-0.11875	-1.4104	-0.68958	-0.575	-1.5729	-0.50208	-1.0333	-1.0542	77.534	43.838	-73.197	-13.077	113.068	38.447	217.108	131.422	250.025	272.672	191.524	-79.300	158.839	258.552	193.553	215.464	0.00025588	0.0009743	0.00032697	840.33	8.1726e-06	6.106e-06	1027.5	266.59	2.0398e-06	2.1899e-06	411.36	151.68	91.148	32.532	2.4068e-06	63.189	0.00023449	0.00022823	6.5379e-05	742.02	2.4441e-06	2.4452e-06	908.45	235.02	2.4408e-06	2.441e-06	356.57	131.68	80.649	28.74	2.4794e-06	54.269	142.082	-68.531	-19.689	-70.148	53.534	110.188	-70.376	-65.440	106.941	189.144	-66.702	-62.211	-60.667	-55.660	133.959	-57.938	-8191	255	
3477.317	1	1	0	0	0.35273	0.24319	0.051203	0.26363	0.14565	0.20425	0.33223	0.16855	0.18837	0.16503	0.063456	0.21373	0.065417	0.24013	0.25122	0.35434	-0.0375	-1.3042	-0.55625	-0.63125	-1.2771	-0.26667	-1.3167	-1.2083	-0.18125	-1.5104	-0.87083	-0.69375	-1.4708	-0.375	-0.96667	-1.1792	188.424	-70.863	227.088	263.424	-68.483	113.171	177.035	237.511	-79.604	125.688	199.130	233.691	208.972	100.696	-21.421	-10.788	0.00036143	0.00021795	0.00018506	839.34	1.5136e-06	9.4166e-07	1033.3	266.12	7.4493e-06	6.3281e-06	414.79	152.6	91.748	32.529	4.5105e-06	62.967	0.00022913	0.00022169	6.1934e-05	743.07	2.4144e-06	2.4371e-06	912.46	235.09	2.4882e-06	2.4659e-06	358.57	132.27	80.628	28.721	2.4289e-06	54.286	115.574	35.399	-26.846	-70.151	-54.989	-5.229	-71.066	-65.143	46.276	72.086	-66.498	-62.167	-60.887	-55.938	138.343	-57.770	-8191	255	
3477.411	1	1	0	0	0.29314	0.12231	0.066794	0.070718	0.12224	0.15088	0.088136	0.14698	0.1192	0.16569	0.16541	0.23853	0.17026	0.075309	0.28256	0.22481	0.05625	-1.4438	-0.86042	-0.64792	-1.2292	-0.57917	-1.1688	-1.2146	-0.37292	-1.3	-0.99375	-0.67083	-1.5271	-0.31875	-0.96458	-1.4083	-9.392	255.023	-38.113	135.851	140.046	205.616	16.857	210.279	-12.934	146.944	84.366	19.172	171.799	227.752	39.183	153.234	0.00051287	0.00020262	0.00021839	838.43	5.8132e-06	4.0243e-06	1027.5	263.94	3.1623e-06	4.7068e-06	410.22	152.77	91.487	32.454	1.9893e-06	63.248	0.00023063	0.00022458	6.2817e-05	745.12	2.4166e-06	2.4645e-06	909.98	234.13	2.4172e-06	2.3998e-06	357.71	132.64	80.911	28.697	2.4392e-06	54.198	101.788	219.043	16.408	-70.271	18.811	50.100	-70.799	-65.377	99.451	50.239	-66.852	-62.616	-61.064	-55.814	52.328	-57.980	-8191	255	
3477.507	1	1	0	0	0.18855	0.086054	0.36988	0.033741	0.10271	0.16154	0.033706	0.22766	0.14585	0.21179	0.24782	0.57319	0.20179	0.094394	0.30227	0.12954	0.09375	-1.2542	-0.63958	-0.44375	-1.4979	-0.74792	-1.0083	-1.2208	-0.22292	-1.375	-1.1625	-0.71667	-1.5312	-0.4	-0.8125	-1.4271	186.712	-23.122	6.658	23.401	4.154	135.990	269.393	267.761	-16.304	-63.858	259.436	274.021	203.662	25.443	229.650	214.218	0.0002742	0.00011814	0.00014692	848.77	4.6743e-06	8.7329e-06	1037.4	267.05	3.2358e-06	4.9341e-06	412.1	151.65	91.515	32.411	6.8119e-06	62.276	0.00022814	0.0002276	6.2167e-05	751.16	2.4772e-06	2.486e-06	917.94	235.97	2.4613e-06	2.4883e-06	358.22	131.86	80.618	28.465	2.4624e-06	53.619	115.882	-17.438	-30.442	-69.747	64.027	68.320	-70.544	-65.268	2.742	206.591	-66.808	-62.478	-61.388	-55.770	36.364	-57.948	-8191	255	
3477.628	1	1	0	0	0.19647	0.029697	0.10238	0.10845	0.24814	0.17986	0.28063	0.12057	0.30367	0.28212	0.18875	0.27887	0.28377	0.27635	0.25095	0.39031	0.18958	-1.4604	-0.93125	-0.73333	-1.4292	-0.525	-0.92708	-1.6208	-0.32083	-1.1854	-1.15	-0.50625	-1.5104	-0.45833	-0.8375	-1.6562	54.338	-44.710	84.763	227.198	102.653	128.966	219.164	246.831	-23.852	185.983	264.895	242.685	-56.014	229.845	232.569	-27.552	0.00026873	0.00034114	0.00023827	846.64	2.5612e-06	3.9306e-06	1031.5	265.83	7.1134e-06	4.1273e-06	407.94	150.57	91.667	32.388	4.1209e-06	61.569	0.00023224	0.00022753	6.2228e-05	747.76	2.4507e-06	2.502e-06	910.91	234.41	2.5042e-06	2.4808e-06	355.26	130.86	80.502	28.297	2.4186e-06	53.091	102.992	58.544	39.783	-70.607	15.251	237.871	-70.503	-65.193	63.161	1.857	-66.729	-62.305	-60.838	-55.715	122.872	-57.863	-8191	255	
3477.724	1	1	0	0	0.11563	0.12428	0.32298	0.176	0.096381	0.10725	0.14333	0.31472	0.34429	0.13848	0.15198	0.33188	0.31817	0.1644	0.22216	0.25439	0.28958	-1.2812	-1.0438	-0.30833	-1.4813	-0.55833	-0.94167	-1.8333	-0.022917	-1.2854	-1.4375	-0.23125	-1.6187	-0.55208	-0.57917	-1.7146	176.703	41.436	49.816	200.302	-36.867	210.890	253.379	225.313	120.496	-14.639	151.871	192.293	130.647	123.789	173.446	268.622	0.00046845	0.00013618	0.00019734	838.73	6.074e-06	1.0476e-05	1028.4	263.83	6.7683e-06	8.3333e-06	408.74	150.22	90.113	32.114	7.4765e-06	61.146	0.00023396	0.00022345	6.2042e-05	747.41	2.4751e-06	2.4075e-06	911.04	233.41	2.4776e-06	2.4395e-06	354.35	130.19	80.026	28.221	2.5038e-06	52.75	125.927	-70.942	-52.754	-70.226	74.004	43.639	-70.302	-65.442	98.954	32.086	-66.705	-62.328	-60.726	-55.945	46.323	-57.285	-8191	255	
3477.796	1	1	0	0	0.25824	0.11417	0.12636	0.22004	0.043726	0.21406	0.29134	0.28634	0.22964	0.32126	0.21314	0.068607	0.2079	0.33418	0.35677	0.27645	0.075	-1.0833	-1.3083	-0.38125	-1.4	-0.67292	-0.625	-1.7687	-0.525	-1.1688	-1.1771	-0.44167	-1.3188	-0.90833	-0.60625	-1.5979	90.344	224.851	215.499	-80.851	192.318	6.390	239.352	215.280	129.642	64.821	187.130	13.063	-73.951	230.781	189.061	208.514	0.00048409	0.0005439	3.3081e-05	847.18	3.8442e-06	1.0037e-05	1042.1	265.44	6.0907e-06	3.9849e-06	407.71	149.84	91.798	32.004	8.0186e-07	61.56	0.00023995	0.00023004	6.3549e-05	750.28	2.5883e-06	2.5447e-06	919.68	235.34	2.5769e-06	2.5971e-06	355.66	130.71	81.012	28.238	2.5875e-06	53.153	124.111	-30.334	2.108	-70.379	51.136	67.850	-70.373	-65.243	108.065	95.617	-66.474	-62.203	-61.128	-55.333	-26.301	-57.504	-8191	255	
3477.917	1	1	0	0	0.41296	0.15563	0.2095	0.11729	0.068468	0.2381	0.29294	0.19147	0.10873	0.26189	0.10689	0.070059	0.12581	0.17756	0.19577	0.22691	-0.089583	-1.0146	-1.1521	-0.54583	-1.3625	-0.91875	-0.69167	-1.6562	-0.50417	-1.0812	-1.4229	-0.58333	-1.4354	-0.98125	-0.52292	-1.4917	46.555	255.548	-33.233	17.833	120.284	-80.541	192.273	214.206	24.204	272.720	212.889	256.539	261.275	217.713	114.423	193.444	0.00013219	0.00051584	0.00011144	852.25	3.189e-06	1.3482e-05	1041.2	266.62	3.977e-06	7.0014e-06	412.25	151.5	92.248	32.113	8.1601e-06	62.617	0.00024503	0.00024207	6.6494e-05	756.8	2.7278e-06	2.635e-06	923.15	236.57	2.7621e-06	2.6744e-06	358.81	131.92	81.809	28.49	2.6654e-06	53.906	93.322	-39.841	-29.796	-70.025	92.206	115.318	-70.145	-65.148	58.953	27.070	-66.610	-62.012	-60.408	-56.101	83.266	-57.310	-8191	255	
3478.013	1	1	0	0	0.097617	0.20927	0.20858	0.16559	0.14086	0.30502	0.23776	0.52256	0.20769	0.14336	0.2268	0.16049	0.18099	0.20501	0.17175	0.10891	-0.05	-0.68958	-1.1646	-0.57708	-1.0938	-1.0729	-0.45	-1.4521	-0.44167	-0.72292	-1.2917	-0.5875	-1.1354	-1.175	-0.42292	-1.6146	74.380	220.170	85.236	-74.025	220.541	187.339	155.208	221.368	5.010	264.514	-80.378	233.027	-16.904	211.051	128.222	50.381	0.00021025	0.00033482	0.00012665	852.11	3.5406e-06	4.5557e-06	1024.1	265.93	7.2813e-06	2.3845e-06	411.55	151.35	91.428	32.808	8.0622e-06	62.544	0.00025045	0.00024798	6.6578e-05	751.36	2.6128e-06	2.6065e-06	909.11	236.07	2.6077e-06	2.5666e-06	356.85	131.84	81.221	28.719	2.5722e-06	53.713	106.667	31.658	244.427	-70.306	242.141	121.075	-70.056	-65.138	13.486	81.414	-67.001	-62.031	-60.582	-55.643	63.750	-57.649	-8191	255	
3478.109	1	1	0	0	0.17767	0.17289	0.19902	0.087121	0.11247	0.21696	0.24767	0.17003	0.078277	0.12416	0.29559	0.30095	0.048517	0.2534	0.30342	0.22208	-0.24583	-0.78333	-1.3167	-0.49167	-1.2083	-1.0938	-0.36458	-1.7167	-0.5	-0.53542	-1.8271	-0.28542	-1.5063	-1.1521	-0.25833	-1.8083	95.004	6.105	150.458	1.756	273.927	-38.678	162.252	67.687	-74.341	-23.576	231.496	236.295	216.624	154.127	218.973	275.010	0.00042112	0.00049294	0.00012022	840.96	2.1707e-06	1.2708e-06	1023.2	265.76	5.1242e-06	2.8609e-06	408.42	150.47	91.297	32.526	3.2421e-06	62.968	0.0002362	0.00023167	6.3823e-05	744.12	2.4922e-06	2.4603e-06	903.06	235.47	2.4782e-06	2.4691e-06	355.78	131.63	81.005	28.652	2.4426e-06	53.984	130.068	-2.011	-45.918	-69.621	112.183	104.418	-69.957	-64.598	19.027	226.533	-65.959	-61.871	-60.789	-55.035	53.046	-57.111	-8191	255	
3478.205	1	1	0	0	0.14788	0.2247	0.12239	0.2511	0.15586	0.043897	0.39341	0.11154	0.068196	0.1915	0.2707	0.21664	0.43114	0.22828	0.24828	0.035744	-0.095833	-0.47917	-1.5771	-0.48125	-1.1729	-1.1979	-0.52917	-1.5896	-0.49375	-0.63542	-1.6021	-0.4	-1.2104	-1.3687	-0.35417	-1.8083	80.445	-43.260	-75.601	209.200	-28.109	75.877	221.219	-48.379	210.866	269.091	217.456	265.422	245.656	207.864	193.166	54.509	0.00021183	0.00032847	0.000228	831.49	3.1757e-06	1.341e-06	1023.6	265.93	7.1976e-06	1.2248e-05	410.59	153.08	92.187	32.409	4.2229e-06	62.913	0.00022855	0.00022567	6.2092e-05	738.66	2.4273e-06	2.4695e-06	902.45	235.36	2.4366e-06	2.4319e-06	357.41	132.59	81.233	28.708	2.4816e-06	54.163	95.717	193.780	-26.208	-70.103	118.570	-17.459	-70.135	-64.687	18.779	64.979	-66.487	-61.956	-60.465	-55.201	105.221	-57.451	-8191	255	
3478.324	1	1	0	0	0.1937	0.07126	0.14046	0.13135	0.21613	0.21909	0.14529	0.29689	0.044539	0.050762	0.14269	0.27856	0.29291	0.22462	0.23911	0.40368	-0.49583	-0.49583	-1.5688	-0.34375	-0.86667	-1.2583	-0.46042	-1.4729	-0.80625	-0.52083	-1.6229	-0.54167	-0.90417	-1.2604	-0.37292	-1.4688	214.019	156.023	-23.380	-15.226	144.704	18.253	8.108	-72.732	50.284	220.482	271.571	227.316	-50.981	259.091	147.798	205.961	5.8357e-05	0.0002561	0.00025188	837.52	2.6271e-06	7.1018e-06	1028.7	265.67	1.8847e-06	6.4401e-06	416.43	153.19	91.748	32.903	1.5677e-06	62.469	0.00022497	0.00022493	6.2894e-05	742.7	2.3797e-06	2.4369e-06	908.84	235.38	2.3992e-06	2.4478e-06	358.65	132.8	80.986	28.648	2.3915e-06	53.991	101.946	205.730	244.151	-69.996	20.716	97.092	-70.137	-64.908	182.762	66.039	-66.290	-61.743	-60.783	-55.410	180.397	-57.578	-8191	255	
3478.396	1	1	0	0	0.11321	0.26659	0.17809	0.061488	0.11235	0.18894	0.21593	0.24486	0.18469	0.12069	0.117	0.080937	0.24215	0.29252	0.27122	0.15614	-0.36667	-0.6875	-1.4604	-0.62917	-0.86875	-1.3354	-0.25417	-1.4562	-0.84375	-0.2625	-1.5438	-0.69583	-0.91458	-1.4688	-0.21667	-1.6875	72.347	44.024	43.792	253.631	113.865	80.244	243.281	-71.479	232.194	244.106	261.153	-54.846	242.095	239.736	-54.077	129.677	0.00019941	0.00043253	6.7385e-05	837.36	1.2469e-06	8.3405e-06	1006.2	265.52	5.6017e-06	5.482e-06	410.22	151.4	91.646	32.756	5.7523e-06	62.226	0.00022154	0.00022099	6.1791e-05	739.79	2.389e-06	2.3898e-06	897.34	234.85	2.3668e-06	2.4008e-06	355.96	131.47	80.621	28.596	2.3576e-06	53.767	109.327	1.575	113.355	-69.850	261.370	-34.555	-69.792	-64.717	32.690	17.766	-66.048	-61.785	-60.154	-55.648	120.569	-56.573	-8191	255	
3478.492	1	1	0	0	0.12119	0.21706	0.11282	0.16285	0.1851	0.15722	0.23454	0.15571	0.15469	0.24441	0.099827	0.19497	0.20108	0.082871	0.059175	0.11536	-0.77917	-0.53125	-1.5958	-0.46875	-0.7	-1.5021	-0.48125	-1.3417	-1.0542	-0.25417	-1.4146	-0.52708	-0.83542	-1.7271	-0.30417	-1.3625	213.574	-22.865	219.183	226.529	185.310	-57.645	270.822	275.979	144.914	-17.049	261.563	-77.296	268.382	-15.956	139.721	-55.160	0.00032347	0.00082654	0.0001747	826.02	3.2757e-06	8.0925e-06	1015.9	264.39	5.028e-06	2.0629e-06	413.31	151.44	91.247	32.529	6.1161e-06	62.841	0.00021817	0.00021446	5.8804e-05	731.56	2.3018e-06	2.2961e-06	897.33	233.3	2.2815e-06	2.2989e-06	355.62	131.34	80.338	28.395	2.2299e-06	53.752	107.456	15.010	253.831	-69.882	-9.079	105.636	-70.323	-65.100	-7.048	-0.728	-66.287	-62.216	-60.480	-55.164	34.333	-57.413	-8191	255	
3478.588	1	1	0	0	0.085898	0.36407	0.25066	0.20831	0.24025	0.20163	0.11674	0.09093	0.19909	0.20895	0.081147	0.041877	0.14669	0.24124	0.19162	0.1261	-0.75208	-0.35	-1.7625	-0.8375	-0.65833	-1.5562	-0.30417	-1.2792	-0.97292	-0.25208	-1.625	-0.83333	-0.62292	-1.5771	-0.3375	-1.2833	272.523	-40.065	263.703	119.415	98.729	58.467	188.604	40.341	88.400	105.120	15.024	203.237	186.911	270.234	-49.636	133.755	0.00048114	0.00063235	5.2964e-05	830.54	8.4715e-06	2.737e-06	1022.6	265.51	1.6715e-06	8.3025e-06	412.47	152.6	91.635	32.935	3.1124e-06	63.546	0.0002108	0.00020585	5.6835e-05	729.79	2.2697e-06	2.2378e-06	898.95	233.98	2.2795e-06	2.2883e-06	357.8	132.69	80.796	28.728	2.207e-06	54.565	145.691	39.453	48.022	-69.554	126.128	237.963	-70.244	-64.415	97.891	76.769	-66.132	-62.151	-60.255	-55.599	-53.561	-57.619	-8191	255	
3478.708	1	1	0	0	0.20454	0.065504	0.21272	0.22873	0.21481	0.26143	0.36439	0.24253	0.10441	0.2202	0.12334	0.12486	0.17818	0.067503	0.19466	0.093226	-0.85208	-0.48958	-1.3646	-0.81875	-0.68542	-1.7104	-0.52917	-1.3604	-1.2708	-0.27708	-1.6146	-0.89167	-0.72917	-1.4438	-0.4375	-1.1583	-48.356	-22.222	105.559	-57.178	37.026	125.800	163.227	221.540	66.617	3.783	234.544	210.790	215.076	0.221	48.281	-42.155	0.00024112	0.00032667	0.00026057	829.71	8.7159e-06	3.8238e-06	1022.1	267.6	4.2051e-06	4.212e-06	419.28	153.93	92.723	32.85	5.7006e-06	63.852	0.00021328	0.00020451	5.6008e-05	731.69	2.2878e-06	2.2803e-06	898.21	235.63	2.2972e-06	2.2568e-06	360.32	133.53	81.071	28.758	2.2319e-06	54.818	133.812	185.396	-61.677	-70.246	22.717	157.100	-70.514	-65.163	75.702	22.255	-66.082	-62.278	-60.258	-55.396	26.172	-57.190	-8191	255	
3478.805	1	1	0	0	0.24308	0.036109	0.32008	0.34879	0.063604	0.087941	0.22975	0.30989	0.096409	0.14155	0.24827	0.27719	0.057609	0.062546	0.20396	0.26651	-1.1583	-0.35833	-1.2812	-0.92917	-0.49583	-1.5458	-0.64375	-1.0021	-1.2604	-0.46042	-1.4042	-0.92917	-0.69583	-1.5729	-0.44792	-0.82292	18.078	48.738	152.489	-60.582	206.341	269.229	203.603	205.833	10.835	222.449	226.444	234.918	98.057	84.496	172.599	181.606	0.00036114	0.00027352	5.5982e-05	822.04	3.7065e-06	2.9555e-06	1017.2	264.97	1.0769e-06	5.4963e-06	413.78	152.02	91.753	32.516	4.0202e-06	62.765	0.00020892	0.00020501	5.5506e-05	726.83	2.2401e-06	2.2597e-06	894.66	233.89	2.292e-06	2.2363e-06	357.65	132.74	80.59	28.583	2.2733e-06	54.289	104.759	-59.689	21.076	-69.560	137.379	79.483	-70.232	-64.950	232.134	42.446	-65.964	-62.121	-59.826	-55.070	69.976	-56.758	-8191	255	
3478.901	1	1	0	0	0.24548	0.082996	0.15723	0.14035	0.032492	0.21372	0.13163	0.48719	0.037555	0.096675	0.053004	0.12764	0.038675	0.13677	0.20804	0.24818	-1.0729	0.052083	-1.125	-1.2896	-0.49583	-1.4813	-0.78958	-0.83958	-1.4792	-0.52292	-1.4146	-1.1812	-0.71667	-1.4417	-0.38125	-0.88125	259.231	255.785	49.266	-81.469	135.450	71.586	237.094	252.406	155.626	232.443	213.151	167.559	236.395	264.020	-69.165	226.014	0.00032636	0.00058418	0.00017377	818.56	6.2634e-06	2.8129e-06	1008.1	263.19	6.6401e-06	3.6018e-06	408.2	150.43	90.957	32.183	4.6808e-06	62.844	0.00021231	0.00020453	5.6968e-05	725.43	2.2678e-06	2.248e-06	892.31	233.22	2.2829e-06	2.2594e-06	356.57	132.13	80.486	28.509	2.28e-06	54.485	102.462	246.537	15.153	-69.921	132.037	264.278	-69.974	-64.763	19.752	-32.759	-65.642	-61.832	-60.439	-55.428	11.625	-57.251	-8191	255	
3478.997	1	1	0	0	0.16929	0.045567	0.1907	0.24498	0.17898	0.15036	0.11392	0.3803	0.18225	0.19287	0.12824	0.22303	0.020836	0.062083	0.073971	0.43842	-0.9375	-0.33958	-1.1604	-1.1604	-0.39583	-1.4188	-0.82292	-0.74167	-1.6625	-0.38958	-1.2437	-1.3312	-0.30625	-1.4521	-0.76458	-0.81667	89.799	77.707	211.291	272.643	145.810	110.000	225.717	271.973	155.378	104.268	-34.991	100.753	10.369	-65.344	-22.217	249.788	0.00026319	0.00058252	0.00035806	826.17	5.4005e-06	6.5507e-06	1017.2	265.15	1.2045e-06	6.7531e-06	415.77	153.8	92.006	32.365	2.8945e-06	63.67	0.00021634	0.00020705	5.7595e-05	729.1	2.3261e-06	2.3002e-06	899.67	234.81	2.3849e-06	2.3176e-06	359.06	133.29	80.907	28.649	2.3237e-06	54.665	113.290	-65.492	-49.736	-69.691	69.365	84.712	-70.442	-64.801	37.075	80.077	-66.438	-62.255	-61.173	-55.812	110.622	-57.703	-8191	255	
3479.093	1	1	0	0	0.13276	0.22776	0.12405	0.19383	0.30384	0.22742	0.11772	0.28817	0.16015	0.21017	0.16254	0.1186	0.35229	0.22216	0.17879	0.13407	-1.3563	-0.3875	-0.96458	-1.2917	-0.1875	-1.3792	-0.82083	-0.73333	-1.5854	-0.40625	-1.1271	-1.3417	-0.59792	-1.5604	-0.8625	-0.67083	144.149	-82.303	-6.508	-56.798	132.079	39.237	178.862	247.971	130.401	-49.122	275.890	263.813	258.111	192.587	241.765	187.566	0.00026386	0.00033139	0.00021641	834.56	3.2034e-06	1.9639e-06	1028.7	267.07	5.6099e-06	6.0144e-06	418.83	153.97	92.818	32.832	7.5456e-06	63.854	0.00021575	0.00021121	5.9709e-05	736.79	2.3806e-06	2.299e-06	906.51	235.94	2.3964e-06	2.3716e-06	362.6	133.91	81.44	28.75	2.4018e-06	54.838	139.098	-6.366	32.393	-70.449	120.722	-55.493	-70.595	-65.072	40.267	184.171	-66.036	-62.456	-60.731	-55.648	129.055	-57.467	-8191	255	
3479.189	1	1	0	0	0.25201	0.28685	0.13538	0.28744	0.14876	0.11309	0.42809	0.10711	0.15441	0.20551	0.13623	0.41734	0.18806	0.11744	0.12385	0.1292	-1.1042	-0.34167	-1.1375	-1.4667	-0.35833	-1.4271	-1.1812	-0.81458	-1.6187	-0.65417	-0.97917	-1.3563	-0.36458	-1.3708	-0.95208	-0.575	144.627	154.357	211.855	223.462	150.233	75.665	228.098	123.527	6.056	259.587	189.179	211.344	-52.450	-35.332	127.059	-37.103	0.0004924	0.00083282	0.00010227	841.55	2.6241e-06	3.6752e-06	1028.1	267.37	4.484e-06	6.5096e-06	414.8	154.17	92.04	32.746	2.3255e-06	62.693	0.00022069	0.00022111	6.2932e-05	744.19	2.4469e-06	2.4636e-06	910.42	236.96	2.4852e-06	2.4454e-06	360.59	133.55	81.133	28.687	2.5276e-06	54.1	124.726	-19.443	-38.247	-70.074	39.569	41.723	-70.663	-64.873	125.299	4.763	-66.182	-62.195	-60.795	-55.559	26.441	-57.698	-8191	255	
3479.308	1	1	0	0	0.15034	0.42651	0.10874	0.056584	0.48255	0.045839	0.20639	0.30686	0.19214	0.11416	0.2622	0.3981	0.17173	0.21013	0.1404	0.054281	-1.0792	-0.51667	-0.87083	-1.1458	-0.31667	-1.1562	-1.0438	-0.61875	-1.6063	-0.50417	-0.95208	-1.4104	-0.48125	-1.3521	-0.925	-0.90833	275.167	227.229	21.574	227.826	0.625	-76.019	235.928	226.511	181.519	74.479	160.635	243.836	171.671	276.909	72.357	167.831	0.00040678	0.00061941	0.00011815	835.78	5.0029e-06	9.0878e-06	1033.8	266.1	8.6123e-06	1.265e-05	413.88	152.35	91.693	32.446	5.1021e-06	62.351	0.0002366	0.00023213	6.6143e-05	744.2	2.567e-06	2.5941e-06	912.56	235.44	2.5608e-06	2.5894e-06	359.41	132.4	80.85	28.545	2.5799e-06	53.87	99.591	-64.773	-65.632	-70.063	-18.193	100.049	-70.596	-64.956	98.965	31.164	-66.166	-62.700	-60.462	-55.678	55.599	-57.540	-8191	255	
3479.404	1	1	0	0	0.14625	0.065856	0.088514	0.26362	0.11944	0.21234	0.13067	0.25965	0.34062	0.16824	0.41464	0.2779	0.092585	0.16125	0.071177	0.10986	-1.1646	-0.60417	-0.82083	-1.4396	-0.52292	-1.1896	-1.1771	-0.42292	-1.6375	-0.55625	-0.81667	-1.5292	-0.24792	-1.425	-1.3292	-0.40208	-9.403	102.795	81.333	-77.969	155.148	69.197	201.453	242.458	13.993	133.100	266.058	273.927	258.720	151.107	-33.118	119.487	0.00046279	0.0003235	0.00014318	844.03	2.635e-06	5.1251e-06	1032.9	264.39	6.7656e-06	6.7463e-06	416.49	151.67	91.145	32.267	2.7329e-06	62.721	0.00023786	0.00023715	6.667e-05	746.77	2.5838e-06	2.6217e-06	913.75	235.06	2.5726e-06	2.5796e-06	361.4	132.41	80.799	28.518	2.6311e-06	54.041	115.380	-15.309	252.309	-70.104	103.001	93.471	-70.261	-65.028	-74.720	272.626	-66.185	-62.315	-60.671	-55.174	137.391	-57.271	-8191	255	
3479.500	1	1	0	0	0.24402	0.26852	0.094438	0.24017	0.032019	0.17503	0.19522	0.40555	0.3086	0.28984	0.34725	0.15791	0.010128	0.38766	0.089513	0.12267	-1.3	-0.86458	-0.84583	-1.5833	-0.37292	-1.1271	-1.3813	-0.6875	-1.4958	-0.83958	-0.83542	-1.6354	-0.53542	-1.3208	-1.2896	-0.3625	117.420	182.931	16.566	-67.327	194.600	-54.055	182.975	275.683	28.575	92.470	218.575	-51.550	141.848	-72.024	195.107	-81.456	0.00012802	0.00042663	5.7306e-05	847.39	6.2988e-06	7.0608e-06	1042	266.21	4.0414e-06	4.831e-06	418.11	153.71	92.745	32.759	1.2289e-06	63.281	0.0002433	0.00023862	6.7232e-05	747.38	2.6404e-06	2.6496e-06	920.76	236.02	2.668e-06	2.7052e-06	362.12	133.88	81.725	28.864	2.6805e-06	54.757	89.004	4.221	247.226	-70.639	-11.295	68.300	-70.414	-64.981	84.076	40.763	-66.143	-61.884	-60.287	-55.560	221.367	-57.374	-8191	255	
3479.597	1	1	0	0	0.29204	0.034082	0.21822	0.23777	0.24398	0.016632	0.17114	0.19009	0.020312	0.020753	0.13838	0.14094	0.157	0.039192	0.25176	0.11212	-1.1229	-0.80417	-0.52083	-1.7208	-0.56458	-1.1562	-1.4417	-0.47708	-1.1458	-0.70417	-0.5625	-1.6229	-0.38333	-0.85625	-1.6187	-0.43542	90.246	70.451	51.135	184.082	31.464	-28.595	274.506	-81.016	48.410	26.371	-81.919	48.078	191.974	47.144	-5.274	183.896	0.00046977	0.00062336	0.00031008	847.13	5.9178e-06	2.7159e-06	1030.9	264.45	4.8978e-06	9.0377e-06	413.86	152.18	91.439	32.677	4.5768e-06	62.691	0.00025031	0.00024946	6.9085e-05	754.85	2.7907e-06	2.7981e-06	920.81	236.05	2.8484e-06	2.8355e-06	362.91	133.74	81.565	28.904	2.8053e-06	54.698	115.996	-18.468	-25.656	-70.153	77.682	-47.219	-69.878	-64.699	89.144	75.201	-65.669	-61.992	-60.475	-55.533	-56.081	-57.362	-8191	255	
3479.693	1	1	0	0	0.024698	0.073096	0.13559	0.17779	0.17306	0.30182	0.31403	0.15868	0.10773	0.05974	0.0092899	0.12104	0.030024	0.12205	0.072039	0.15772	-1.0521	-0.71042	-0.39375	-1.7062	-0.55	-1.1333	-1.525	-0.34583	-1.5187	-1.0771	-0.69167	-1.7958	-0.55	-0.87083	-1.4729	-0.44375	171.292	110.670	15.664	197.545	69.089	189.776	145.979	269.133	194.862	235.039	67.962	-73.344	243.225	-5.057	101.052	216.219	0.00024625	0.00028681	6.053e-05	836.03	7.2945e-06	6.4319e-06	1018.8	259.6	3.7442e-06	5.8407e-06	406.63	151.91	91.434	32.17	2.7884e-06	63.446	0.00026371	0.00026101	7.2414e-05	748.83	2.8631e-06	2.881e-06	912.46	233.92	2.8595e-06	2.8471e-06	359.52	133.05	81.636	28.87	2.8414e-06	54.845	99.258	-45.447	12.239	-69.634	70.113	-10.179	-69.874	-64.502	-44.112	6.697	-65.777	-61.751	-60.699	-55.332	-4.221	-57.738	-8191	255	
3479.789	1	1	0	0	0.13193	0.23789	0.33205	0.28335	0.15921	0.16119	0.36788	0.4098	0.15324	0.17529	0.18457	0.030997	0.17324	0.17371	0.043462	0.13583	-1.0646	-0.96875	-0.50208	-1.5917	-0.45	-0.74583	-1.6313	-0.52708	-1.1792	-1.1042	-0.73333	-1.5875	-0.70208	-0.95417	-1.35	-0.73958	114.790	229.245	-68.759	176.417	152.211	189.949	148.874	206.112	190.117	107.844	184.390	200.882	260.975	178.382	92.355	260.380	0.00041534	0.00081132	0.00025836	839.65	6.2734e-06	6.7537e-06	1036.4	266.07	1.8319e-06	1.6334e-06	418.89	153.16	92.299	32.839	6.5297e-06	63.802	0.00027055	0.00026564	7.3465e-05	750.43	2.9227e-06	2.9112e-06	918.19	236.74	2.9795e-06	2.9684e-06	363.22	134.27	82.022	29.196	2.9751e-06	55.421	142.048	22.340	13.659	-70.027	41.910	58.155	-70.462	-65.006	76.693	10.454	-65.777	-62.300	-60.676	-55.247	59.999	-57.308	-8191	255	
3479.885	1	1	0	0	0.28017	0.089086	0.13431	0.34012	0.24544	0.10623	0.20814	0.12455	0.2529	0.11665	0.31664	0.3155	0.11453	0.35833	0.20405	0.40681	-0.63542	-0.8625	-0.60208	-1.3604	-0.71458	-0.70833	-1.6042	-0.65625	-1.05	-1.0917	-0.53542	-1.5104	-0.79167	-0.91458	-1.3625	-0.50208	47.511	50.324	64.878	226.671	257.937	173.921	247.796	166.429	56.993	71.918	270.732	262.129	215.659	-17.162	37.340	125.676	0.00031974	0.00031549	0.00014221	842.17	5.3287e-06	3.7921e-06	1037.5	266.04	1.6425e-06	5.0791e-06	417.21	154.05	92.463	33.045	5.3985e-06	64.626	0.00028053	0.00027478	7.6808e-05	751.35	3.0543e-06	2.9931e-06	922.17	236.69	3.0175e-06	3.0273e-06	365.54	135.02	82.465	29.39	2.9968e-06	56.105	110.808	7.045	-8.943	-69.947	114.471	65.058	-70.123	-64.678	3.849	-7.320	-66.348	-61.889	-60.504	-55.597	50.285	-57.686	-8191	255	
3479.981	1	1	0	0	0.24273	0.15253	0.066977	0.08875	0.089044	0.093865	0.35058	0.17051	0.18889	0.3336	0.40596	0.21719	0.20785	0.30668	0.36814	0.2225	-0.625	-1.1979	-0.20833	-1.4521	-0.72708	-0.54375	-1.6229	-0.70625	-1.0208	-1.0542	-0.49375	-1.3792	-0.89167	-0.65	-1.425	-0.59792	-14.406	129.884	112.519	-64.019	-13.203	116.369	196.042	202.595	183.256	167.019	244.696	206.225	55.570	264.210	191.249	270.126	0.00049656	0.00072017	0.00033144	843.09	5.7435e-06	7.0855e-06	1041	266.4	2.5703e-06	5.3101e-06	420.39	155.59	92.302	33.031	2.3102e-06	64.437	0.00028275	0.00027765	7.6196e-05	753.02	3.0913e-06	2.9746e-06	926.87	237.6	3.0531e-06	2.9517e-06	365.97	135.57	82.385	29.334	2.945e-06	55.89	128.274	-5.512	-60.053	-69.874	30.757	-30.312	-70.305	-64.683	-44.429	6.940	-65.951	-61.593	-60.523	-55.075	56.782	-57.570	-8191	255	
3480.102	1	1	0	0	0.0074222	0.13569	0.288	0.23603	0.38713	0.19599	0.19932	0.21858	0.05001	0.11106	0.26549	0.16128	0.35657	0.103	0.14815	0.21863	-0.71875	-1.1875	-0.25	-1.4042	-0.65417	-0.74167	-1.6187	-0.75625	-0.9375	-1.3208	-0.57917	-1.2667	-0.8875	-0.64792	-1.3042	-0.70833	193.434	109.727	-64.443	177.731	18.889	-58.769	215.740	-66.714	217.660	38.292	185.072	174.204	-50.438	28.502	138.571	171.879	0.00025952	0.00041551	7.8868e-05	838.7	1.0489e-05	4.6127e-06	1031.9	263.86	5.9318e-06	2.37e-06	412.58	154.01	90.929	32.603	1.4171e-06	63.897	0.00027377	0.00026904	7.4924e-05	746.11	2.8943e-06	2.8786e-06	916.62	234.99	2.9665e-06	2.8925e-06	361.89	134.31	81.337	28.987	2.9165e-06	55.211	117.908	-40.026	29.310	-70.268	105.796	34.222	-70.059	-64.850	53.991	111.400	-65.971	-61.857	-60.619	-55.413	25.827	-57.422	-8191	255	
3480.196	1	1	0	0	0.19815	0.32593	0.054207	0.22251	0.22361	0.1417	0.20618	0.10462	0.056133	0.060931	0.12031	0.086686	0.20342	0.17402	0.10974	0.25735	-0.75	-1.3729	-0.29583	-1.4688	-0.88333	-0.52083	-1.6875	-0.57083	-0.76458	-1.4729	-0.375	-1.3771	-1.1333	-0.70208	-1.7292	-0.6125	169.499	28.195	64.650	252.186	219.603	-31.583	135.271	182.674	104.424	3.016	-4.356	80.785	157.523	237.135	-52.168	152.597	0.00023454	0.00078866	0.00015488	836.24	1.4979e-06	3.9748e-06	1032.2	263.68	3.0736e-06	1.9974e-06	416.19	152.28	91.958	32.521	1.1212e-06	64.21	0.00027407	0.0002627	7.498e-05	743.8	2.8573e-06	2.8915e-06	916.19	234.51	2.8347e-06	2.8225e-06	361.37	133.8	81.28	28.87	2.7969e-06	55.206	132.679	-82.106	19.612	-69.779	55.682	-8.970	-70.098	-64.673	-25.727	274.673	-66.094	-61.839	-61.018	-55.302	156.175	-57.746	-8191	255	
3480.270	1	1	0	0	0.058915	0.1665	0.32637	0.30155	0.22048	0.088028	0.22274	0.1059	0.19147	0.1522	0.455	0.11433	0.2851	0.26277	0.24594	0.1262	-0.26875	-1.4188	-0.375	-1.15	-1.1604	-0.49583	-1.4021	-0.8	-0.69792	-1.3813	-0.4	-1.2625	-1.0208	-0.6875	-1.325	-0.86667	27.691	271.553	73.079	70.526	160.942	-21.577	248.158	-9.434	234.117	258.912	176.990	234.359	261.148	-21.135	121.501	140.031	0.0002597	0.00068696	5.3276e-05	834.8	9.0675e-06	4.8232e-06	1036.3	265.02	5.2141e-06	6.3971e-06	415.32	153.88	91.717	32.764	8.3332e-06	64.349	0.00025911	0.0002541	7.0449e-05	743.27	2.77e-06	2.7746e-06	918.9	234.73	2.7222e-06	2.72e-06	362.86	134.18	81.274	28.962	2.7573e-06	55.43	158.012	-31.952	11.313	-69.887	113.384	154.112	-70.365	-64.720	-40.592	172.423	-66.008	-62.025	-60.607	-55.984	91.915	-57.696	-8191	255	
3480.390	1	1	0	0	0.039076	0.15538	0.052314	0.30885	0.3003	0.021169	0.38446	0.36899	0.13181	0.26496	0.30664	0.38845	0.13146	0.23542	0.26988	0.19046	-0.34792	-1.4208	-0.54583	-1.175	-1.2	-0.2875	-1.5	-0.88125	-0.56667	-1.5708	-0.65208	-1.1896	-1.3333	-0.4875	-1.5312	-1.1521	-33.866	108.676	243.573	-65.855	54.447	99.032	268.753	212.370	74.926	-12.373	225.533	255.016	33.858	26.734	201.599	187.062	0.00023796	0.0004549	0.000183	834.98	1.9873e-06	1.4374e-06	1042.5	265.59	7.2172e-06	6.954e-06	418.01	155.54	91.61	32.792	3.3247e-06	64.602	0.00025134	0.00025295	7.0227e-05	745.16	2.7446e-06	2.7879e-06	925.12	235.61	2.7884e-06	2.8152e-06	365.63	135.53	81.741	29.068	2.8249e-06	55.546	82.772	-13.407	110.868	-69.730	232.228	141.886	-69.947	-65.079	-43.504	-11.991	-65.987	-61.784	-60.928	-55.537	22.878	-57.211	-8191	255	
3480.485	1	1	0	0	0.29918	0.10054	0.15049	0.46922	0.18321	0.12752	0.31697	0.028571	0.070104	0.024044	0.089936	0.28661	0.26715	0.3266	0.10296	0.27927	-0.53542	-1.4333	-0.28125	-1.0229	-1.0354	-0.34375	-1.5333	-0.77917	-0.60417	-1.4542	-0.67083	-1.1292	-1.4833	-0.4	-1.1729	-1.0104	84.274	115.976	-31.587	275.116	175.849	47.286	243.549	-48.434	230.935	-6.673	-29.943	270.787	85.424	258.403	256.983	269.947	0.0002222	0.00066011	0.00019349	826.74	4.3696e-06	4.4475e-06	1031.3	263.05	4.7843e-06	5.2458e-06	414.24	153.96	90.733	32.365	3.6589e-06	63.724	0.00026045	0.00026023	7.1222e-05	741	2.8097e-06	2.8383e-06	918.13	234.15	2.7909e-06	2.7958e-06	360.27	133.65	80.728	28.603	2.7392e-06	54.807	104.109	-40.937	113.161	-69.793	-63.994	-63.013	-69.770	-64.879	57.946	66.956	-66.374	-61.912	-60.550	-55.441	7.972	-57.401	-8191	255	
3480.581	1	1	0	0	0.16275	0.1444	0.013507	0.34005	0.15796	0.24768	0.20667	0.19362	0.16681	0.1152	0.39415	0.068863	0.29666	0.19308	0.15755	0.21365	-0.21667	-1.4396	-0.29792	-1.0104	-1.2896	-0.33958	-1.5979	-1.1604	-0.475	-1.4937	-0.57292	-0.87083	-1.3146	-0.3125	-1.3583	-1.225	-3.121	141.227	98.907	-81.091	222.395	-32.976	147.191	229.539	45.252	243.481	268.074	222.409	-76.412	158.067	191.194	215.191	0.0002875	0.00055015	0.00035538	831.77	6.3466e-06	3.4742e-06	1033.8	261.82	1.9663e-06	2.4514e-06	413.09	152.63	90.946	32.184	1.4535e-06	63.066	0.00025964	0.00025229	7.0644e-05	739.55	2.7456e-06	2.7959e-06	915.76	232.19	2.7703e-06	2.798e-06	359.41	133.47	80.474	28.497	2.7597e-06	54.586	92.880	14.738	-80.545	-69.610	49.128	64.738	-70.317	-65.123	-80.372	-32.606	-66.557	-62.299	-61.155	-56.137	12.156	-57.855	-8191	255	
3480.677	1	1	0	0	0.18256	0.16215	0.16556	0.16761	0.28904	0.15327	0.16253	0.143	0.1733	0.15877	0.084804	0.1965	0.052155	0.11041	0.30326	0.25415	-0.095833	-1.4083	-0.72292	-0.90417	-1.4083	-0.21667	-1.4625	-1.0667	-0.18958	-1.5208	-0.60417	-0.81875	-1.7146	-0.22917	-1.2563	-1.3563	173.004	201.116	90.827	258.529	139.794	87.695	248.254	180.490	192.139	-37.622	-30.539	205.778	-62.839	169.221	58.563	162.137	0.00057163	0.00020834	0.00013248	832.98	2.5353e-06	3.793e-06	1036.7	261.66	3.6702e-06	1.0474e-05	415.47	153.9	91.436	32.36	2.924e-06	63.477	0.00026462	0.00026213	7.1966e-05	743.71	2.8858e-06	2.8918e-06	920.34	232.81	2.9193e-06	2.9239e-06	361.28	134.02	81.173	28.78	2.8609e-06	55.164	132.141	-78.293	17.716	-69.866	3.448	83.102	-70.307	-65.314	108.512	36.717	-66.528	-62.316	-61.031	-55.811	225.276	-57.720	-8191	255	
3480.798	1	1	0	0	0.26765	0.14364	0.36106	0.12316	0.11707	0.20054	0.11167	0.18945	0.17395	0.10048	0.40959	0.31307	0.035802	0.096611	0.3088	0.28745	-0.029167	-1.5	-0.45208	-0.7125	-1.6562	-0.31042	-1.5396	-1.2188	-0.2125	-1.3813	-0.55417	-0.7125	-1.5729	-0.13333	-1.1063	-1.2333	50.319	20.153	255.879	6.894	-30.527	234.300	209.218	38.696	25.388	157.193	-22.464	221.163	-20.882	54.872	206.663	238.648	0.00037436	0.00052491	0.00023399	833.6	2.7286e-06	2.7596e-06	1045.8	260.62	7.7719e-06	7.6062e-06	415.29	153.56	91.032	32.406	8.2547e-06	63.716	0.00027357	0.0002676	7.3098e-05	745.7	2.9883e-06	2.9781e-06	926.95	233.07	2.9951e-06	2.9684e-06	362.03	134.18	81.208	28.8	2.9415e-06	55.071	125.431	-16.964	-33.699	-69.990	70.343	7.829	-70.092	-65.362	42.345	4.471	-67.221	-62.903	-62.021	-56.884	-20.116	-58.399	-8191	255	
3480.894	1	1	0	0	0.23233	0.23483	0.041451	0.1358	0.10086	0.14498	0.2732	0.3173	0.18881	0.010069	0.22174	0.24119	0.23636	0.25421	0.12676	0.32932	0.12083	-1.4188	-0.70208	-0.56667	-1.3979	-0.37292	-1.3646	-1.2479	-0.15208	-1.5208	-0.92708	-0.66875	-1.5583	-0.53958	-0.84583	-1.3542	109.639	0.404	72.063	245.948	161.689	263.035	227.669	251.930	151.401	234.731	251.158	136.576	-4.557	245.926	198.015	-72.415	0.00049005	0.00083222	0.00013709	838.52	6.3708e-06	4.9557e-06	1038.7	259.24	2.9195e-06	5.3796e-06	414.8	152.96	91.011	31.975	5.0371e-06	63.277	0.00028265	0.00027725	7.7659e-05	747.9	3.0982e-06	3.0665e-06	922.29	232.58	3.1281e-06	3.0555e-06	361.74	134.19	81.233	28.739	3.141e-06	55.052	142.707	-1.866	42.215	-70.923	-33.525	13.840	-71.466	-66.075	156.148	28.151	-67.501	-63.102	-61.841	-56.944	60.821	-58.660	-8191	255	
3480.990	1	1	0	0	0.12498	0.011232	0.13848	0.21527	0.084726	0.071242	0.11361	0.11513	0.26496	0.22362	0.30018	0.28295	0.20366	0.24721	0.30058	0.24373	0.029167	-1.2771	-0.61458	-0.66667	-1.2896	-0.38125	-1.0479	-1.2375	-0.17083	-1.1646	-0.85208	-0.82083	-1.6	-0.33125	-0.95	-1.5146	126.703	235.322	7.516	-83.619	262.105	267.139	124.312	185.714	183.528	35.908	214.790	231.108	242.334	189.616	-14.404	249.927	0.00034847	0.00025812	0.00041586	833.16	4.8176e-06	8.7366e-06	1039.2	259.89	3.0505e-06	6.8052e-06	411.2	153.06	90.652	32.29	4.6245e-06	63.507	0.00029463	0.00028959	8.0739e-05	745.97	3.2412e-06	3.1668e-06	923.84	232.64	3.1951e-06	3.1171e-06	360.91	133.86	81.052	28.845	3.1144e-06	55.13	119.654	192.244	235.662	-71.129	89.547	79.243	-71.218	-65.881	145.875	48.333	-67.753	-62.791	-61.630	-56.566	106.504	-58.707	-8191	255	
3481.086	1	1	0	0	0.29344	0.073221	0.30061	0.17273	0.24289	0.31438	0.17815	0.46648	0.05262	0.07067	0.10194	0.20847	0.24506	0.18227	0.16832	0.074977	0.34792	-1.4104	-0.89792	-0.63333	-1.7042	-0.53542	-0.91042	-1.4667	-0.23125	-1.1271	-1.1	-0.575	-1.4354	-0.37083	-0.8	-1.6583	109.240	106.748	141.041	58.559	60.825	144.977	153.822	-27.169	220.081	164.132	212.602	254.445	260.950	256.094	137.996	80.329	0.00060327	0.00053311	8.5925e-05	830.65	6.7041e-06	3.43e-06	1034.4	260.94	2.4909e-06	8.4845e-06	412.5	152.06	90.95	32.102	1.3975e-06	63.331	0.00029419	0.00028241	7.9642e-05	745.26	3.1352e-06	3.1285e-06	921.44	232.23	3.0989e-06	3.0446e-06	361.24	133.74	80.823	28.663	3.1094e-06	55.037	126.154	-20.540	71.837	-70.572	91.671	122.821	-71.488	-66.153	119.716	46.954	-67.587	-62.788	-61.774	-56.773	-44.011	-58.557	-8191	255	
3481.182	1	1	0	0	0.23518	0.079777	0.14354	0.33637	0.25285	0.30638	0.069868	0.40912	0.012598	0.21939	0.13835	0.244	0.1016	0.12765	0.019099	0.088634	0.14375	-1.1771	-0.97083	-0.35625	-1.575	-0.44375	-0.79375	-1.5708	-0.35	-1.2313	-1.15	-0.55	-1.8062	-0.59792	-0.68958	-1.7313	153.794	-15.627	16.071	256.286	29.866	-80.161	190.454	178.701	17.220	4.666	212.466	253.049	-17.819	270.775	25.278	22.056	0.00028934	0.00035247	0.00010966	836.99	3.8762e-06	6.3278e-06	1041.5	260.96	5.9089e-06	2.411e-06	413.48	153.77	91.589	32.594	6.7809e-06	63.787	0.00028842	0.00028643	8.071e-05	747.92	3.2236e-06	3.1514e-06	931.04	232.94	3.2412e-06	3.2348e-06	363.33	135.09	81.705	28.976	3.2837e-06	55.681	112.173	43.100	67.631	-70.906	-2.435	27.589	-70.881	-66.138	-2.847	162.906	-67.319	-63.048	-61.969	-56.972	36.774	-58.613	-8191	255	
3481.277	1	1	0	0	0.13247	0.14907	0.22896	0.38846	0.040289	0.19681	0.062852	0.15324	0.20467	0.38963	0.27218	0.26475	0.14397	0.13659	0.3515	0.049151	-0.029167	-1.2313	-0.975	-0.47083	-1.5354	-0.60417	-0.78333	-1.575	-0.29375	-1.1688	-1.3312	-0.42708	-1.4146	-0.74375	-0.61042	-1.5708	60.433	-18.363	246.613	-75.349	-27.464	127.225	193.583	-74.966	-42.783	264.241	235.518	272.573	269.448	54.074	214.712	109.626	0.0002087	0.00053459	4.6496e-05	835.02	6.7591e-06	2.2666e-06	1039.9	258.72	5.8593e-06	7.5008e-06	410.77	152.28	90.956	32.148	6.6811e-06	63.329	0.00030328	0.00029486	8.3717e-05	745.64	3.2606e-06	3.2303e-06	926.68	232.75	3.2341e-06	3.2424e-06	361.08	134.12	81.019	28.898	3.1947e-06	55.166	107.344	64.277	254.065	-71.182	-33.609	154.453	-71.206	-65.788	108.819	-17.261	-66.977	-62.614	-61.621	-56.745	-3.457	-58.861	-8191	255	
3481.397	1	1	0	0	0.18763	0.19926	0.047695	0.11937	0.29492	0.17541	0.30181	0.10224	0.0015276	0.070983	0.24078	0.25377	0.26456	0.2674	0.15281	0.17323	0.039583	-1.0375	-1.4542	-0.32083	-1.6812	-0.71875	-0.69375	-1.7625	-0.17917	-1.1583	-1.3312	-0.375	-1.5979	-0.89167	-0.60208	-1.5792	73.573	93.214	-6.781	-82.107	-65.099	-34.304	191.338	50.157	180.000	12.748	237.602	253.333	-65.114	-69.880	181.655	117.504	0.00026478	0.00037536	0.00024459	820.96	2.8837e-06	6.688e-06	1021.5	258.62	4.4464e-06	1.0527e-05	406.79	152.24	90.024	31.949	1.9162e-06	63.289	0.00029256	0.00028478	7.9455e-05	738.58	3.0599e-06	3.0606e-06	911.23	230.46	2.9882e-06	3.0056e-06	357.72	133.08	80.161	28.458	3.0306e-06	54.8	118.904	275.025	225.645	-70.864	63.811	53.159	-71.010	-66.477	-68.587	69.408	-67.557	-62.871	-61.722	-57.200	69.988	-58.838	-8191	255	
3481.493	1	1	0	0	0.26809	0.086911	0.12233	0.32179	0.14772	0.33698	0.19016	0.15078	0.11522	0.23353	0.17915	0.14278	0.29414	0.1835	0.1227	0.38865	-0.19792	-1.1125	-1.2521	-0.35833	-1.3687	-0.8125	-0.7	-1.4062	-0.34375	-0.93542	-1.3604	-0.35625	-1.375	-0.92083	-0.51667	-1.5312	186.498	91.515	129.044	23.147	86.266	128.858	187.144	206.587	183.351	159.698	204.066	103.655	235.805	-74.505	203.561	186.085	0.00031139	0.00035358	0.00018029	818.88	2.0192e-06	3.7913e-06	1033	258.54	4.1781e-06	9.1716e-06	410.2	151.93	90.419	32.189	5.2661e-06	63.922	0.00027533	0.00027933	7.628e-05	733.53	3.0043e-06	3.0245e-06	915.96	230.25	3.0703e-06	3.0642e-06	359.27	133.29	80.719	28.789	3.019e-06	55.377	131.265	263.247	-52.138	-71.473	-29.801	4.359	-71.303	-65.949	-6.685	53.469	-67.504	-63.436	-61.683	-57.062	53.456	-58.515	-8191	255	
3481.565	1	1	0	0	0.11493	0.15279	0.12532	0.13869	0.019858	0.067143	0.48775	0.24903	0.20892	0.19391	0.27803	0.50199	0.040305	0.20202	0.23563	0.15041	-0.1875	-0.85625	-1.3958	-0.59375	-1.1604	-0.87917	-0.6125	-1.5125	-0.65625	-0.76875	-1.4646	-0.42083	-1.4958	-1.0312	-0.45	-1.6292	-22.871	227.973	-65.943	215.499	196.632	237.786	238.180	242.328	235.454	-75.600	220.837	-76.845	206.080	257.301	-75.029	142.972	0.00023435	0.00042395	0.00017518	826.37	5.0256e-06	2.7833e-06	1034.8	258.3	4.4543e-06	9.2453e-06	413.36	153.43	90.361	32.421	4.2078e-06	64.506	0.00028395	0.00028202	7.8893e-05	737.52	3.1129e-06	3.1598e-06	921.15	231.04	3.1511e-06	3.1387e-06	362.79	134.76	81.262	28.974	3.0707e-06	55.871	103.226	56.770	79.038	-70.924	42.116	206.184	-70.931	-65.812	114.193	247.286	-66.896	-62.801	-62.051	-57.145	33.845	-58.830	-8191	255	
3481.661	1	1	0	0	0.13175	0.23819	0.23896	0.35762	0.11693	0.14641	0.072382	0.2225	0.11784	0.1647	0.088404	0.26267	0.23525	0.035582	0.086874	0.26371	-0.27917	-0.70208	-1.375	-0.69792	-1.1417	-1.2375	-0.39583	-1.6708	-0.48333	-0.59792	-1.7146	-0.40208	-1.3708	-1.35	-0.25625	-1.6125	115.353	-79.930	-22.097	184.199	192.054	109.346	229.293	225.766	74.995	211.425	274.481	256.489	214.739	-5.452	233.728	247.184	0.00023832	0.00070155	0.00021655	824.88	7.1199e-06	2.5775e-06	1031.9	258.8	3.056e-06	9.5087e-06	414.02	153.81	90.421	32.302	5.6122e-06	63.778	0.00028813	0.00028439	7.7468e-05	739.05	3.103e-06	3.0363e-06	916.74	231.21	3.0813e-06	3.0596e-06	360.8	134.21	80.73	28.839	3.031e-06	55.477	101.694	75.585	276.010	-71.044	45.228	223.906	-71.070	-65.869	99.010	56.605	-67.241	-63.167	-61.588	-56.841	19.403	-58.485	-8191	255	
3481.782	1	1	0	0	0.15927	0.16789	0.42229	0.16432	0.064559	0.051586	0.12511	0.1782	0.2385	0.21703	0.13199	0.029843	0.14923	0.15983	0.13783	0.032805	-0.00625	-0.66667	-1.4958	-0.64167	-0.96458	-1.1938	-0.63333	-1.4542	-0.85625	-0.52917	-1.5708	-0.43542	-1.1604	-1.1917	-0.29167	-1.65	99.729	2.147	94.671	-66.862	-70.411	251.091	120.384	75.705	-75.702	42.956	-75.051	42.472	173.997	-42.910	273.070	260.454	0.00048615	0.00066726	0.00024548	817.31	4.8028e-06	4.8181e-06	1020.7	260.74	1.0222e-05	6.3962e-06	409.95	152.02	90.766	32.569	6.2743e-06	64.079	0.00028839	0.00028009	7.709e-05	731.31	3.0596e-06	3.054e-06	907.06	230.83	3.0411e-06	3.0514e-06	359.07	133.67	80.852	28.979	3.0848e-06	55.675	101.053	271.401	-31.593	-71.040	181.360	242.566	-71.073	-65.846	50.375	8.529	-67.271	-62.988	-61.484	-57.033	30.817	-58.345	-8191	255	
3481.878	1	1	0	0	0.083497	0.23007	0.17981	0.10609	0.15538	0.052289	0.18208	0.28447	0.11491	0.31868	0.15277	0.33719	0.38868	0.33155	0.060763	0.42593	-0.36042	-0.45625	-1.6833	-0.36458	-1.0479	-1.3521	-0.69167	-1.3396	-0.82292	-0.62083	-1.7125	-0.53333	-1.1063	-1.3375	-0.14583	-1.5729	11.352	269.511	-58.231	273.806	-30.420	-15.174	242.971	147.847	66.614	-24.086	107.665	170.133	201.378	175.507	181.543	210.152	0.00045538	0.00066805	0.00022002	816.25	6.4825e-06	7.3848e-06	1022.5	258.81	5.3024e-06	6.5243e-06	414.19	153.45	90.137	32.367	8.0576e-07	64.513	0.00029252	0.00028866	7.9213e-05	732.27	3.2163e-06	3.1202e-06	911.7	231.44	3.2088e-06	3.1123e-06	362.25	134.58	81.026	29.052	3.0651e-06	56.059	81.112	46.487	52.387	-71.067	33.112	25.905	-71.557	-65.753	76.257	-8.075	-67.288	-63.142	-61.387	-56.681	127.984	-58.074	-8191	255	
3481.974	1	1	0	0	0.12419	0.21878	0.21502	0.19153	0.19213	0.14065	0.29518	0.20863	0.076239	0.075849	0.041814	0.10894	0.32626	0.16272	0.11686	0.2853	-0.44167	-0.42083	-1.4646	-0.53958	-0.91667	-1.2833	-0.63333	-1.3208	-0.85833	-0.66042	-1.4542	-0.55208	-0.98125	-1.4396	-0.3125	-1.3292	195.823	230.541	114.076	-2.022	26.579	9.488	212.403	242.373	158.760	-31.717	245.097	145.392	-28.835	101.778	17.038	225.327	0.00032189	0.00018612	0.00016934	815.34	3.591e-06	3.5463e-06	1027.1	258.82	2.6438e-06	8.3224e-06	413.82	153.8	91.182	32.626	6.4379e-06	64.625	0.0002893	0.00028005	7.8586e-05	734.06	3.1459e-06	3.0997e-06	916.4	231.44	3.1313e-06	3.1097e-06	362.38	134.7	81.321	28.974	3.163e-06	56.111	125.239	-16.282	20.513	-70.575	150.710	47.900	-70.900	-65.603	169.031	125.014	-67.194	-62.658	-61.487	-56.574	62.436	-58.311	-8191	255	
3482.070	1	1	0	0	0.076724	0.20536	0.19204	0.15128	0.10439	0.35214	0.25845	0.29755	0.056514	0.27621	0.27906	0.36822	0.063509	0.17021	0.078945	0.14966	-0.66458	-0.53125	-1.4667	-0.59375	-0.88542	-1.5729	-0.49792	-1.5021	-1.1833	-0.375	-1.4271	-0.57083	-0.88125	-1.6042	-0.21042	-1.5583	-55.831	67.027	132.006	207.827	268.453	51.066	232.975	225.201	-36.324	-34.846	-78.315	125.999	103.297	218.131	177.006	179.081	0.00037173	0.00084982	0.00029761	826.8	4.1659e-06	1.1401e-05	1031.9	259.98	8.3532e-06	5.8563e-06	412.14	154.4	90.806	32.487	5.5667e-06	64.827	0.00029503	0.00028837	8.048e-05	739.68	3.1493e-06	3.1127e-06	917.67	232.09	3.1486e-06	3.0887e-06	362.67	135.28	81.109	28.996	3.1392e-06	56.208	138.973	7.033	32.948	-71.058	71.644	51.139	-71.334	-65.434	15.059	-12.095	-66.879	-62.624	-61.626	-56.062	14.976	-58.112	-8191	255	
3482.166	1	1	0	0	0.12615	0.31287	0.21164	0.28693	0.26569	0.29229	0.21734	0.32396	0.2962	0.19249	0.16961	0.21141	0.24034	0.29973	0.18335	0.23098	-0.83958	-0.2125	-1.5625	-0.79583	-0.66875	-1.5104	-0.49583	-1.2667	-1.3188	-0.19375	-1.5667	-0.96458	-0.84792	-1.575	-0.31042	-1.1812	-30.057	1.502	203.813	-47.669	164.578	-54.323	211.754	-74.607	51.629	138.468	128.854	-68.995	240.833	18.711	53.974	90.591	0.00025409	0.00043909	6.0078e-05	817.93	1.009e-05	1.3413e-05	1025.4	257.88	1.1049e-06	4.2203e-06	410.03	153.3	90.688	32.164	4.0574e-06	63.399	0.0002905	0.00028841	8.0406e-05	733.59	3.1702e-06	3.193e-06	911.35	230.67	3.1607e-06	3.1439e-06	360.27	134.18	80.745	28.768	3.1814e-06	55.266	109.285	106.683	56.275	-70.731	85.764	23.898	-71.216	-65.665	75.873	89.512	-66.942	-63.114	-61.598	-56.544	-43.061	-58.241	-8191	255	
3482.263	1	1	0	0	0.32149	0.12514	0.34944	0.048694	0.092438	0.24676	0.25896	0.17202	0.24076	0.29515	0.27364	0.20027	0.11277	0.25841	0.22259	0.17654	-0.95833	-0.46667	-1.1896	-0.83125	-0.80625	-1.4792	-0.6625	-1.075	-1.1479	-0.575	-1.3354	-0.8	-0.62917	-1.5458	-0.62083	-1.0812	70.172	208.643	-81.813	151.910	149.689	241.097	-83.241	-32.476	166.856	-12.884	166.721	269.382	273.947	-48.671	49.036	114.539	0.00033386	0.00073682	0.00013551	813.82	1.5168e-06	9.0357e-06	1022.4	258.63	5.264e-06	2.3868e-06	413.59	153.19	89.78	32.036	1.0451e-05	64.396	0.00028755	0.0002835	7.9875e-05	731.81	3.137e-06	3.1528e-06	913.61	230.98	3.114e-06	3.1992e-06	362.51	134.29	80.608	28.793	3.2111e-06	55.709	180.989	15.206	246.249	-70.919	189.011	42.339	-71.090	-65.699	122.914	85.807	-67.225	-63.022	-61.427	-56.502	-53.664	-58.259	-8191	255	
3482.359	1	1	0	0	0.15759	0.26136	0.20882	0.2814	0.076147	0.33965	0.2669	0.068457	0.24204	0.43061	0.13371	0.22412	0.11692	0.13644	0.27008	0.27556	-0.93333	-0.0625	-1.3312	-1.0333	-0.65208	-1.4562	-0.66042	-1.0583	-1.375	-0.4125	-1.4813	-1.1	-0.57292	-1.5667	-0.42917	-1.1354	252.491	138.301	84.126	242.606	65.284	40.804	228.708	183.199	226.677	-12.386	-74.222	-33.099	-72.801	-44.622	149.842	145.290	0.000362	0.00047777	0.00016898	819.55	3.2006e-06	9.825e-06	1033.3	258.11	3.301e-06	7.9196e-06	411.77	153.68	90.481	32.194	8.9976e-06	63.9	0.00029292	0.00029242	8.2105e-05	737.77	3.1473e-06	3.1762e-06	918.07	231.1	3.1597e-06	3.1802e-06	363	134.79	80.901	28.81	3.2292e-06	55.687	116.476	227.496	140.696	-70.755	-0.831	58.560	-71.192	-66.097	232.204	112.402	-66.785	-63.091	-61.261	-56.479	23.174	-58.140	-8191	255	
3482.478	1	1	0	0	0.28644	0.072306	0.076329	0.25992	0.096693	0.21707	0.30379	0.17608	0.097405	0.39484	0.21986	0.15815	0.22812	0.16784	0.36969	0.22446	-1.1521	-0.11667	-1.3771	-0.96875	-0.34792	-1.6021	-0.78125	-1.0271	-1.4125	-0.27708	-1.425	-1.0812	-0.51667	-1.7646	-0.52708	-0.8375	274.313	158.392	-54.719	60.049	5.321	255.162	182.200	238.782	8.216	-65.124	247.157	111.048	242.958	71.928	36.723	209.440	0.00045496	0.00028297	0.00018205	828.44	2.7459e-06	6.9546e-06	1038.8	259.95	7.8849e-06	4.5119e-06	414.16	152.15	90.609	32.043	7.2147e-06	63.996	0.00029398	0.00029812	8.167e-05	741.18	3.1982e-06	3.2318e-06	924.22	231.68	3.1534e-06	3.2563e-06	363.31	134.03	80.757	28.683	3.2989e-06	55.484	75.844	-30.056	94.446	-70.612	58.587	135.316	-71.128	-65.621	29.502	78.025	-67.005	-63.081	-61.342	-56.574	90.850	-58.023	-8191	255	
3482.574	1	1	0	0	0.27534	0.18054	0.078383	0.34407	0.20372	0.14693	0.11959	0.2467	0.075249	0.074232	0.23216	0.10054	0.25975	0.24238	0.081917	0.10573	-1.15	-0.21458	-1.2354	-1.3854	-0.22917	-1.5708	-0.725	-0.67917	-1.5229	-0.5375	-1.2917	-1.1083	-0.54792	-1.4771	-0.65208	-0.77083	78.833	1.322	-80.775	149.635	184.744	166.523	200.260	-82.252	259.740	238.818	-41.778	-44.791	161.062	-81.278	-8.451	133.576	0.00050626	0.00054653	0.00018979	827.82	4.5839e-06	3.7418e-06	1031	257.57	2.0897e-06	3.785e-06	408.61	151.65	90.036	31.901	2.8703e-06	63.231	0.00030265	0.00030559	8.4885e-05	742.31	3.3045e-06	3.3691e-06	923.14	230.91	3.3489e-06	3.3427e-06	360.87	133.38	80.47	28.577	3.2566e-06	55.074	118.951	-27.618	273.945	-71.212	129.237	196.439	-70.993	-65.204	166.987	33.276	-67.195	-63.133	-61.277	-56.729	-4.851	-58.472	-8191	255	
3482.670	1	1	0	0	0.099169	0.21833	0.02565	0.068139	0.28187	0.10645	0.29768	0.12513	0.2037	0.14316	0.20682	0.15401	0.32413	0.23026	0.077478	0.3074	-1.1958	-0.45208	-1.0917	-1.0479	-0.27083	-1.375	-0.78125	-0.66458	-1.5083	-0.70833	-1.3042	-1.4146	-0.42708	-1.3833	-0.82708	-0.83958	134.600	127.153	-42.931	182.482	14.303	121.032	240.242	185.517	25.981	213.407	226.963	238.086	-78.252	-54.806	42.430	49.728	0.00024471	0.00021694	0.0002141	827.32	3.9586e-06	4.5413e-06	1032	257.23	4.1338e-06	5.8392e-06	411.01	151.23	89.834	31.978	2.1049e-07	63.206	0.0003067	0.00030639	8.4204e-05	741.96	3.3471e-06	3.3426e-06	921.05	231.3	3.3696e-06	3.3567e-06	361.39	133.02	80.668	28.612	3.2525e-06	55.191	144.186	99.983	207.146	-70.391	-41.842	114.558	-70.723	-64.977	92.229	37.960	-66.582	-62.696	-60.957	-56.156	212.294	-57.741	-8191	255	
3482.791	1	1	0	0	0.095411	0.3181	0.14734	0.3307	0.13655	0.17911	0.042172	0.19103	0.12343	0.076338	0.27264	0.15559	0.34315	0.39109	0.043864	0.42907	-1.2583	-0.46458	-1.0521	-1.2313	-0.24792	-1.5083	-0.7625	-0.51458	-1.4562	-0.43958	-0.97292	-1.1521	-0.30208	-1.4188	-0.75625	-0.62917	211.879	-77.365	1.424	209.769	99.516	-71.204	203.076	114.875	48.667	14.124	256.275	209.178	202.567	194.667	276.202	200.222	0.00034797	0.00036621	0.00017223	829.17	9.0036e-06	7.4667e-06	1038.3	258.23	2.113e-06	4.5099e-06	412.91	153.28	90.236	32.337	2.5655e-06	64.532	0.00031142	0.00030599	8.3058e-05	744.8	3.3556e-06	3.3837e-06	923.02	232.19	3.4449e-06	3.3694e-06	362.98	134.61	81.306	28.923	3.2654e-06	55.87	136.980	-1.568	-48.222	-70.142	-9.305	25.782	-70.207	-64.855	109.888	41.908	-66.209	-62.620	-60.962	-56.083	114.499	-57.942	-8191	255	
3482.862	1	1	0	0	0.078554	0.15843	0.079854	0.1167	0.090438	0.18743	0.12586	0.076548	0.10099	0.27509	0.033328	0.030175	0.28409	0.23606	0.11521	0.17937	-1.3	-0.51875	-1.0229	-1.5479	-0.23333	-1.3083	-1.0479	-0.48125	-1.4583	-0.61042	-0.82917	-1.5125	-0.375	-1.5896	-0.80417	-0.43958	220.793	-50.224	176.376	-11.933	-57.979	247.542	182.928	-65.667	-15.217	86.492	152.180	15.698	226.805	93.820	42.926	118.752	5.221e-05	0.00050677	0.00024348	827.38	1.322e-05	3.352e-06	1040.5	261.26	5.744e-06	1.079e-05	413.07	153.19	89.894	32.153	7.6439e-06	63.631	0.0003089	0.00030401	8.2948e-05	741.24	3.35e-06	3.312e-06	926.47	233.28	3.335e-06	3.2939e-06	363.86	134.52	80.882	28.694	3.2658e-06	55.541	228.120	-37.442	-60.506	-70.183	65.908	79.592	-70.784	-65.305	83.395	-3.697	-66.902	-62.917	-61.051	-56.303	5.099	-57.770	-8191	255	
3482.958	1	1	0	0	0.19426	0.14993	0.044361	0.34274	0.062203	0.29932	0.09632	0.083761	0.27179	0.092729	0.10702	0.40099	0.2571	0.12934	0.10755	0.15546	-1.225	-0.33333	-0.65208	-1.5021	-0.29583	-1.4396	-1.3188	-0.41667	-1.5979	-0.67292	-0.86458	-1.6812	-0.37708	-1.2396	-1.0979	-0.51667	186.935	266.427	83.165	254.730	-70.042	-30.685	-9.384	223.986	205.910	-34.059	212.191	228.653	60.564	258.882	128.939	147.175	0.00040876	0.00010907	5.7259e-05	825.62	7.9528e-07	4.0096e-06	1029.8	256.99	3.1063e-06	1.4089e-05	408.63	152.07	88.563	31.691	3.2314e-06	63.414	0.000307	0.00029713	8.3322e-05	741.81	3.2986e-06	3.3017e-06	917.66	230.87	3.3143e-06	3.2529e-06	359.69	133.26	79.853	28.401	3.3171e-06	55.102	91.066	-78.906	-43.598	-70.630	-36.442	125.150	-70.812	-65.723	27.650	95.925	-66.522	-63.001	-61.105	-55.957	25.495	-57.986	-8191	255	
3483.079	1	1	0	0	0.25568	0.11972	0.18151	0.27294	0.2446	0.28536	0.16345	0.16872	0.2495	0.24019	0.098393	0.38281	0.037045	0.10354	0.31872	0.06939	-1.1417	-0.68333	-0.59375	-1.4458	-0.14583	-1.3229	-1.3042	-0.56458	-1.4604	-0.70208	-0.6375	-1.4813	-0.41458	-1.3312	-1.2521	-0.37292	79.577	77.489	-82.121	240.786	239.590	246.780	164.968	237.183	232.931	150.259	-9.873	230.083	239.231	-75.697	185.758	57.888	0.00043544	0.0005185	0.00011318	824.94	1.236e-05	4.6211e-06	1027.4	258.62	7.1969e-06	9.5064e-06	412.44	152.1	89.985	32.416	2.7723e-06	64.153	0.00031287	0.00030209	8.6022e-05	740.98	3.3743e-06	3.3179e-06	917.35	231.75	3.3299e-06	3.2597e-06	360.81	134.03	80.681	28.838	3.2587e-06	55.749	105.344	10.081	17.195	-70.266	11.544	42.932	-70.553	-65.504	27.068	70.470	-66.240	-62.605	-61.112	-55.873	-23.204	-57.912	-8191	255	
3483.173	1	1	0	0	0.13462	0.1178	0.20797	0.065041	0.051546	0.2364	0.29011	0.12186	0.18213	0.13995	0.14134	0.29671	0.17027	0.15729	0.19305	0.055656	-1.1063	-0.67917	-0.56042	-1.5812	-0.31042	-0.97292	-1.4979	-0.48125	-1.4667	-0.74167	-0.64375	-1.4833	-0.52708	-1.0458	-1.2687	-0.5375	131.662	135.506	-43.033	194.807	89.468	54.304	176.697	98.775	45.795	209.422	188.954	214.786	-22.805	37.923	-35.226	20.409	0.00027419	0.00051363	0.00040036	827.51	1.1802e-06	6.8988e-06	1027.8	259.57	5.9934e-06	8.4929e-06	414.54	153.01	89.349	32.281	3.6803e-06	64.001	0.00030948	0.00030297	8.4912e-05	739.72	3.3167e-06	3.3132e-06	919.1	232.2	3.3238e-06	3.2735e-06	363.3	134.49	80.538	28.877	3.3213e-06	55.698	93.961	-32.441	8.266	-70.225	91.594	74.188	-71.139	-65.684	63.772	121.582	-67.101	-63.369	-61.483	-56.565	26.468	-58.493	-8191	255	
3483.270	1	1	0	0	0.22731	0.10868	0.14284	0.14996	0.1546	0.14876	0.20774	0.42296	0.19867	0.15646	0.2501	0.22241	0.16449	0.026809	0.024298	0.20688	-0.84167	-0.8125	-0.70417	-1.4062	-0.50625	-0.89375	-1.2313	-0.45833	-1.4438	-1.0917	-0.59583	-1.5312	-0.58958	-0.94167	-1.1979	-0.28958	237.908	234.741	62.897	-55.769	204.919	249.344	101.087	254.514	177.290	121.535	238.860	154.820	223.045	-33.978	25.553	-4.686	0.00034207	0.00053354	0.00011491	825.6	8.0307e-06	7.2141e-06	1041.1	259.69	1.5301e-06	2.1306e-06	416.09	153.12	90.591	32.302	6.8054e-06	64.042	0.00030337	0.00030422	8.5567e-05	743.2	3.3157e-06	3.3897e-06	927.56	232.53	3.3755e-06	3.4338e-06	365.23	134.93	81.34	28.885	3.4497e-06	55.936	92.936	13.021	157.054	-70.493	71.826	-62.069	-70.909	-65.197	129.308	41.019	-66.871	-62.446	-61.340	-56.215	2.080	-58.026	-8191	255	
3483.366	1	1	0	0	0.3204	0.22816	0.18726	0.14538	0.1616	0.19588	0.43813	0.24473	0.084523	0.14376	0.13837	0.20244	0.16608	0.39253	0.11944	0.067318	-1.0562	-0.88333	-0.42917	-1.575	-0.43958	-0.77917	-1.5208	-0.35208	-1.1521	-1.0521	-0.41458	-1.4708	-0.53542	-0.91667	-1.2563	-0.3625	28.937	41.723	190.000	253.147	257.407	-4.177	160.049	245.785	170.707	-1.526	-25.910	-81.911	206.867	240.702	209.548	185.206	0.00036324	0.00034823	0.00028157	829.46	3.8785e-06	4.7639e-06	1030.5	257.39	3.4095e-06	4.5892e-06	409.98	152.44	89.395	31.912	5.2198e-06	63.187	0.00031382	0.0003149	8.8279e-05	747.13	3.4703e-06	3.4766e-06	923.76	231.89	3.4303e-06	3.4671e-06	361.72	134.27	80.533	28.736	3.485e-06	55.133	129.396	-81.000	-21.138	-70.744	-17.514	61.536	-71.465	-65.942	159.704	69.747	-67.472	-63.484	-62.020	-56.422	50.961	-58.849	-8191	255	
3483.462	1	1	0	0	0.21349	0.1158	0.21173	0.14825	0.09759	0.16645	0.25633	0.27756	0.20429	0.17098	0.17817	0.093628	0.11883	0.095721	0.029132	0.10686	-0.8125	-1.0521	-0.35833	-1.5438	-0.6125	-0.67083	-1.5604	-0.34792	-1.2917	-1.2375	-0.47708	-1.4708	-0.84375	-0.77083	-1.2792	-0.38542	192.236	48.553	207.646	214.472	169.495	0.340	194.922	218.633	-42.083	6.446	199.701	12.597	222.035	55.330	131.799	-18.267	0.00037417	0.00028909	0.00022244	827.22	3.4432e-06	6.2911e-06	1026.6	257.86	2.4638e-06	5.1222e-06	412.97	151.95	89.87	32.004	4.9203e-06	63.224	0.00031914	0.00031513	8.7904e-05	744.06	3.4658e-06	3.4423e-06	921.13	230.97	3.4218e-06	3.4671e-06	362	133.33	80.514	28.744	3.4335e-06	55.134	132.948	-40.574	-44.236	-70.815	220.651	163.932	-71.267	-66.132	111.254	47.612	-67.212	-63.301	-61.968	-56.663	40.537	-58.627	-8191	255	
3483.558	1	1	0	0	0.067862	0.054529	0.12565	0.21096	0.22696	0.26292	0.1451	0.2302	0.18234	0.20359	0.28448	0.17384	0.16912	0.095432	0.099405	0.20355	-0.68125	-1.0979	-0.22917	-1.3813	-0.68125	-0.875	-1.5729	-0.52708	-0.97083	-0.92292	-0.29375	-1.3917	-0.72708	-0.48542	-1.4854	-0.46458	223.740	-38.368	64.680	246.794	180.567	204.828	-10.384	240.287	-42.984	55.569	268.113	267.464	-20.746	259.905	254.892	232.587	0.00033085	0.0010197	0.00017067	825.35	3.7556e-06	7.4835e-06	1030.9	258	2.582e-06	2.9891e-06	410.62	151.46	89.474	31.705	7.4232e-06	62.804	0.00031309	0.00031896	8.8759e-05	744.06	3.4973e-06	3.549e-06	924.73	232.11	3.5525e-06	3.5289e-06	361.94	133.22	80.417	28.616	3.4593e-06	54.895	97.282	-58.093	199.218	-70.983	140.512	52.106	-71.282	-65.885	-72.198	17.415	-67.108	-62.938	-61.718	-57.003	62.144	-58.854	-8191	255	
3483.654	1	1	0	0	0.092806	0.25768	0.14398	0.21331	0.070349	0.13723	0.39487	0.22056	0.34145	0.083638	0.26574	0.18368	0.095282	0.030831	0.01068	0.16991	-0.60625	-1.1938	-0.3	-1.4688	-0.66667	-0.7375	-1.7958	-0.62292	-0.84375	-1.3292	-0.31667	-1.4042	-0.89792	-0.3875	-1.4896	-0.68542	13.575	53.756	173.277	205.822	100.400	210.260	163.427	238.193	215.541	38.740	250.672	-77.863	246.903	83.883	238.293	210.574	0.00027659	0.00027371	0.00028204	824.55	7.1062e-06	5.5953e-06	1034.3	258.47	5.0651e-06	3.587e-06	412.12	152.98	89.378	32.175	9.5637e-06	63.494	0.00031858	0.00031881	8.6965e-05	744.71	3.4496e-06	3.458e-06	926.33	232.03	3.4305e-06	3.4692e-06	362.74	134.17	80.613	28.799	3.3669e-06	55.435	80.359	-81.259	24.705	-70.689	14.230	147.830	-71.272	-65.999	39.794	52.392	-67.536	-63.306	-61.849	-57.061	-72.146	-58.973	-8191	255	
3483.750	1	1	0	0	0.28012	0.1192	0.17019	0.24078	0.31801	0.21477	0.29178	0.4121	0.15904	0.3987	0.10348	0.24283	0.16103	0.23984	0.16837	0.2689	-0.61458	-1.0292	-0.29375	-1.2979	-1.0208	-0.5625	-1.4479	-0.49792	-0.8125	-1.2167	-0.42917	-1.3042	-1.0229	-0.39583	-1.4542	-0.775	191.811	-28.978	-81.075	155.020	67.993	116.654	256.651	201.600	-83.888	212.475	-84.327	206.753	153.400	273.951	68.800	269.965	0.00016098	0.00039651	9.4192e-05	827.37	3.7588e-06	6.95e-06	1032	260.34	1.7422e-06	6.3618e-06	409.43	151.52	90.479	32.29	9.6127e-06	63.481	0.00031843	0.00031393	8.7055e-05	745.98	3.4327e-06	3.4505e-06	923.24	233.38	3.417e-06	3.3824e-06	360.97	133.69	81.11	28.876	3.3141e-06	55.305	145.040	-47.808	224.992	-70.966	33.544	86.117	-71.525	-66.354	133.336	195.702	-67.449	-63.112	-61.659	-56.727	198.212	-58.789	-8191	255	
3483.871	1	1	0	0	0.12222	0.11927	0.23213	0.26039	0.075055	0.21198	0.022245	0.12407	0.05326	0.057313	0.31733	0.32095	0.25765	0.20498	0.0091873	0.072643	-0.43958	-1.5104	-0.24583	-1.4354	-0.98125	-0.36875	-1.5896	-0.75625	-0.7625	-1.4625	-0.3125	-1.3333	-1.0979	-0.54167	-1.3083	-0.56458	109.745	-76.402	71.271	237.561	215.412	216.109	168.839	-50.139	91.010	-43.697	254.130	-80.161	226.833	7.500	158.442	-46.275	0.00032068	0.00030156	9.4061e-05	826.33	4.0673e-06	4.0264e-06	1023.8	260.54	7.0366e-06	6.7884e-06	412.21	151.82	90.49	32.596	2.3831e-06	63.942	0.00031483	0.00031039	8.5904e-05	741.61	3.4462e-06	3.4158e-06	916.35	233.04	3.389e-06	3.399e-06	361.54	134.12	81.16	29.043	3.2874e-06	55.556	139.854	274.980	-2.015	-71.231	107.666	47.656	-71.422	-66.171	47.737	-67.872	-67.274	-63.301	-62.271	-56.944	-41.445	-58.912	-8191	255	
3483.967	1	1	0	0	0.19839	0.32719	0.19508	0.32021	0.4676	0.25259	0.103	0.13049	0.18964	0.22654	0.070597	0.10181	0.14952	0.23485	0.35783	0.24817	-0.34792	-1.4458	-0.11667	-1.1833	-1.0583	-0.09375	-1.5979	-0.5125	-0.53125	-1.6	-0.35	-1.4604	-1.3021	-0.23958	-1.375	-0.5875	149.747	53.565	35.424	218.673	2.324	68.899	221.294	33.886	-24.651	88.069	72.556	-35.057	-23.755	192.333	17.342	200.294	0.00038994	0.00051897	0.00014772	823.75	4.7941e-06	3.839e-06	1027.3	258.32	3.6891e-06	1.2421e-05	413.45	153.18	90.806	32.298	9.6796e-06	64.353	0.00031575	0.00030368	8.412e-05	739.54	3.3799e-06	3.3094e-06	918.58	232.69	3.3527e-06	3.3054e-06	362.81	134.8	81.151	28.935	3.2962e-06	56.015	127.010	50.484	74.985	-71.171	36.294	273.630	-71.646	-66.184	-54.829	42.219	-67.455	-63.126	-62.248	-56.710	40.514	-59.043	-8191	255	
3484.063	1	1	0	0	0.1374	0.062132	0.2453	0.49554	0.17688	0.31068	0.16973	0.43346	0.087372	0.072236	0.12235	0.31284	0.054465	0.20667	0.32503	0.30625	-0.22292	-1.5688	-0.51667	-1.2313	-1.1458	-0.32917	-1.4417	-0.85417	-0.65417	-1.4438	-0.70417	-1.0292	-1.3125	-0.1875	-1.1917	-1.1958	-52.895	274.231	-41.137	-72.558	-5.853	14.579	256.525	272.720	56.653	155.494	10.855	267.345	57.928	-29.888	-69.892	273.512	0.00045956	0.00088144	0.00015064	828.64	3.1954e-06	6.7028e-06	1030.8	259.78	3.6794e-06	6.5519e-06	414.98	154.49	90.868	32.468	8.7616e-06	64.853	0.00031307	0.00030111	8.4345e-05	742.16	3.3344e-06	3.2896e-06	919.68	233.38	3.3108e-06	3.2335e-06	365.12	135.79	81.484	29.086	3.2948e-06	56.303	107.751	273.748	-45.844	-70.950	-20.627	69.442	-71.119	-66.074	135.257	73.244	-67.411	-63.287	-61.797	-56.823	23.785	-58.856	-8191	255	
3484.159	1	1	0	0	0.22192	0.1668	0.17816	0.28911	0.23625	0.08146	0.18576	0.2384	0.013235	0.032763	0.13313	0.10926	0.18424	0.21047	0.3794	0.37759	-0.18958	-1.4396	-0.60208	-0.88958	-1.3813	-0.25208	-1.3854	-0.94792	-0.50208	-1.4958	-0.6375	-1.0083	-1.2875	-0.27083	-1.1938	-1.1167	263.051	-51.622	230.794	252.897	-40.591	39.596	134.493	246.069	-71.218	6.228	151.182	17.231	204.791	-69.726	-2.600	199.998	0.00029026	0.00032526	0.00065172	827.95	6.73e-06	4.8183e-06	1033	261.31	7.4405e-06	1.0208e-05	410.67	153.73	90.448	32.641	1.0228e-08	64.475	0.00030692	0.00029705	8.3542e-05	742.76	3.2624e-06	3.2564e-06	921.14	233.96	3.2711e-06	3.2523e-06	363.8	135.36	81.156	29.02	3.3178e-06	55.976	72.993	-67.281	14.998	-70.895	12.149	55.229	-70.976	-66.192	46.180	30.363	-67.181	-62.889	-62.212	-56.880	-8.812	-58.873	-8191	255	
3484.255	1	1	0	0	0.30355	0.11073	0.021235	0.31387	0.16495	0.3383	0.057733	0.11858	0.2666	0.13291	0.38118	0.2513	0.045829	0.13594	0.41811	0.15664	-0.175	-1.3438	-0.28333	-0.83125	-1.2125	-0.31667	-1.5312	-1.0625	-0.08125	-1.4667	-0.50208	-0.92083	-1.5771	-0.22708	-1.3167	-1.2583	-55.527	60.515	195.235	138.853	134.574	155.175	243.316	253.896	-74.082	203.779	274.247	-72.983	202.734	269.211	-77.176	211.296	0.00030188	0.00054831	0.00016141	823.56	7.7435e-06	6.4586e-06	1023	260.28	3.4482e-06	3.7505e-06	414.53	154.77	90.89	32.543	2.7782e-06	64.206	0.00031081	0.00030218	8.5213e-05	741.12	3.3221e-06	3.2854e-06	914.5	233.54	3.2545e-06	3.252e-06	363.02	135.61	81.429	29.033	3.2569e-06	55.867	114.270	-9.953	45.641	-70.632	43.233	28.029	-71.051	-66.237	128.334	-45.384	-67.386	-63.227	-62.014	-56.672	232.594	-58.613	-8191	255	
#DATA ENDS
