BOXY.EXE: ISS Imagent and Oximeter Data Acquisition Program Version 0.80
Ascii Record File

#ACQ INFORMATION
2  Detector Channels 
16  External MUX Channels 
1  Auxiliary Channels 
5000  Waveform (CCF) Frequency (Hz)
1  Waveforms Skipped 
30  Waveforms Averaged 
1  Cycles Averaged 
16  Acquisitions per Waveform 
10.0806  Updata Rate (Hz) 

#FILE INFORMATION
TRUE -- External MUX Channel results are PARSED.
FALSE -- AC DC and Phase are NOT grouped.
TRUE -- Companion Program Settings File CREATED.
FALSE -- AC data not excluded
FALSE -- DC data not excluded
FALSE -- Phase data not excluded
FALSE -- Auxillary Chn. data not excluded
Tab delimiters

#CALIBRATION STATE
TRUE -- Waveform Calibration Values APPLIED.


#AUX CALIBRATION VALUES
Val Type	aux-1	

Term	1.0000e+00	
Factor	0.0000e+00	


#WF CALIBRATION VALUES
A = Detector Channel
Val Type	A-AC1	A-AC2	A-AC3	A-AC4	A-AC5	A-AC6	A-AC7	A-AC8	A-AC9	A-AC10	A-AC11	A-AC12	A-AC13	A-AC14	A-AC15	A-AC16	A-DC1	A-DC2	A-DC3	A-DC4	A-DC5	A-DC6	A-DC7	A-DC8	A-DC9	A-DC10	A-DC11	A-DC12	A-DC13	A-DC14	A-DC15	A-DC16	A-Ph1	A-Ph2	A-Ph3	A-Ph4	A-Ph5	A-Ph6	A-Ph7	A-Ph8	A-Ph9	A-Ph10	A-Ph11	A-Ph12	A-Ph13	A-Ph14	A-Ph15	A-Ph16	

Term	0.00000e+00	0.00000e+00	0.00000e+00	0.00000e+00	0.00000e+00	0.00000e+00	0.00000e+00	0.00000e+00	0.00000e+00	0.00000e+00	0.00000e+00	0.00000e+00	0.00000e+00	0.00000e+00	0.00000e+00	0.00000e+00	0.00000e+00	0.00000e+00	0.00000e+00	0.00000e+00	0.00000e+00	0.00000e+00	0.00000e+00	0.00000e+00	0.00000e+00	0.00000e+00	0.00000e+00	0.00000e+00	0.00000e+00	0.00000e+00	0.00000e+00	0.00000e+00	0.00000e+00	0.00000e+00	0.00000e+00	0.00000e+00	0.00000e+00	0.00000e+00	0.00000e+00	0.00000e+00	0.00000e+00	0.00000e+00	0.00000e+00	0.00000e+00	0.00000e+00	0.00000e+00	0.00000e+00	0.00000e+00	
Factor	1.00000e+00	1.00000e+00	1.00000e+00	1.00000e+00	1.00000e+00	1.00000e+00	1.00000e+00	1.00000e+00	1.00000e+00	1.00000e+00	1.00000e+00	1.00000e+00	1.00000e+00	1.00000e+00	1.00000e+00	1.00000e+00	1.00000e+00	1.00000e+00	1.00000e+00	1.00000e+00	1.00000e+00	1.00000e+00	1.00000e+00	1.00000e+00	1.00000e+00	1.00000e+00	1.00000e+00	1.00000e+00	1.00000e+00	1.00000e+00	1.00000e+00	1.00000e+00	X	X	X	X	X	X	X	X	X	X	X	X	X	X	X	X	

B = Detector Channel
Val Type	B-AC1	B-AC2	B-AC3	B-AC4	B-AC5	B-AC6	B-AC7	B-AC8	B-AC9	B-AC10	B-AC11	B-AC12	B-AC13	B-AC14	B-AC15	B-AC16	B-DC1	B-DC2	B-DC3	B-DC4	B-DC5	B-DC6	B-DC7	B-DC8	B-DC9	B-DC10	B-DC11	B-DC12	B-DC13	B-DC14	B-DC15	B-DC16	B-Ph1	B-Ph2	B-Ph3	B-Ph4	B-Ph5	B-Ph6	B-Ph7	B-Ph8	B-Ph9	B-Ph10	B-Ph11	B-Ph12	B-Ph13	B-Ph14	B-Ph15	B-Ph16	

Term	0.00000e+00	0.00000e+00	0.00000e+00	0.00000e+00	0.00000e+00	0.00000e+00	0.00000e+00	0.00000e+00	0.00000e+00	0.00000e+00	0.00000e+00	0.00000e+00	0.00000e+00	0.00000e+00	0.00000e+00	0.00000e+00	0.00000e+00	0.00000e+00	0.00000e+00	0.00000e+00	0.00000e+00	0.00000e+00	0.00000e+00	0.00000e+00	0.00000e+00	0.00000e+00	0.00000e+00	0.00000e+00	0.00000e+00	0.00000e+00	0.00000e+00	0.00000e+00	-1.89397e+02	-1.65226e+02	-1.57126e+02	-1.83573e+02	-7.86518e+01	-6.98634e+01	-1.59024e+02	-1.62015e+02	-7.23741e+01	-8.28070e+01	-1.70632e+02	-1.70941e+02	-1.78840e+02	-1.76518e+02	-1.05877e+02	-1.49938e+02	
Factor	3.42563e-05	9.17672e-05	3.45975e-05	1.69658e-01	8.77912e-07	9.10906e-07	1.63438e-01	4.72968e-02	9.51688e-07	1.02407e-06	8.13686e-02	2.67452e-02	2.20867e-02	8.52368e-03	9.30633e-07	1.22118e-02	6.57652e-07	6.67795e-07	1.85925e-07	8.48753e-02	7.31233e-09	7.30656e-09	7.73714e-02	2.37719e-02	7.30843e-09	7.30628e-09	3.87263e-02	1.27484e-02	1.10087e-02	4.19686e-03	7.29356e-09	5.76721e-03	X	X	X	X	X	X	X	X	X	X	X	X	X	X	X	X	



#DISTANCE SETTINGS
A = Detector Channel
A-1	A-2	A-3	A-4	A-5	A-6	A-7	A-8	A-9	A-10	A-11	A-12	A-13	A-14	A-15	A-16	

2.5000e+00	3.0000e+00	2.5000e+00	3.0000e+00	2.0000e+00	3.0000e+00	1.5000e+00	3.0000e+00	3.0000e+00	3.0000e+00	3.0000e+00	3.0000e+00	3.0000e+00	3.0000e+00	1.5000e+00	3.0000e+00	

B = Detector Channel
B-1	B-2	B-3	B-4	B-5	B-6	B-7	B-8	B-9	B-10	B-11	B-12	B-13	B-14	B-15	B-16	

1.0000e+01	1.0000e+01	1.0000e+01	1.4400e+00	1.0000e+01	1.0000e+01	1.5100e+00	1.9400e+00	1.0000e+01	1.0000e+01	1.9900e+00	2.4900e+00	2.4100e+00	2.9000e+00	1.0000e+01	2.9800e+00	




#DATA BEGINS
time	group	step	mark	flag	A-AC1	A-AC2	A-AC3	A-AC4	A-AC5	A-AC6	A-AC7	A-AC8	A-AC9	A-AC10	A-AC11	A-AC12	A-AC13	A-AC14	A-AC15	A-AC16	A-DC1	A-DC2	A-DC3	A-DC4	A-DC5	A-DC6	A-DC7	A-DC8	A-DC9	A-DC10	A-DC11	A-DC12	A-DC13	A-DC14	A-DC15	A-DC16	A-Ph1	A-Ph2	A-Ph3	A-Ph4	A-Ph5	A-Ph6	A-Ph7	A-Ph8	A-Ph9	A-Ph10	A-Ph11	A-Ph12	A-Ph13	A-Ph14	A-Ph15	A-Ph16	B-AC1	B-AC2	B-AC3	B-AC4	B-AC5	B-AC6	B-AC7	B-AC8	B-AC9	B-AC10	B-AC11	B-AC12	B-AC13	B-AC14	B-AC15	B-AC16	B-DC1	B-DC2	B-DC3	B-DC4	B-DC5	B-DC6	B-DC7	B-DC8	B-DC9	B-DC10	B-DC11	B-DC12	B-DC13	B-DC14	B-DC15	B-DC16	B-Ph1	B-Ph2	B-Ph3	B-Ph4	B-Ph5	B-Ph6	B-Ph7	B-Ph8	B-Ph9	B-Ph10	B-Ph11	B-Ph12	B-Ph13	B-Ph14	B-Ph15	B-Ph16	aux-1	digaux	

3855.860	1	1	0	512	0.12146	0.14171	0.3096	0.20897	0.084094	0.033503	0.2034	0.18084	0.36238	0.25293	0.4562	0.278	0.11788	0.094035	0.20381	0.19197	0.075	-1.2208	-0.89792	-0.21458	-1.2646	-0.44583	-0.75417	-1.35	-0.26875	-1.1812	-0.80417	-0.25833	-1.2333	-0.51042	-0.68542	-1.1313	372.683	288.894	255.777	306.915	273.504	41.850	321.481	247.352	339.132	96.489	355.965	266.651	361.067	178.411	316.078	200.170	0.00012747	0.00012788	2.3913e-05	186.12	1.1474e-06	1.3288e-06	387.67	52.824	5.6419e-07	8.3654e-07	140.39	42.64	15.75	8.4105	5.8447e-07	12.539	4.6721e-06	1.5165e-06	5.0548e-07	157.77	1.8723e-08	2.1204e-08	334.37	45.397	2.5808e-08	1.4963e-08	117.9	35.766	13.248	7.0153	2.5831e-08	10.383	78.091	86.117	99.729	38.614	180.716	170.870	36.858	44.507	132.902	184.826	40.784	47.167	49.403	53.025	217.822	50.153	-8191	255	
3855.932	1	1	0	0	0.084288	0.071913	0.11648	0.23275	0.22836	0.14463	0.060781	0.19113	0.14297	0.24762	0.20679	0.26336	0.2996	0.1688	0.098827	0.21601	0.20208	-0.98125	-0.96042	-0.05625	-1.425	-0.54167	-0.69375	-1.3813	-0.38958	-1.1979	-1.1021	-0.42292	-1.3833	-0.16667	-0.625	-1.4958	231.403	248.693	91.439	296.010	204.879	233.128	370.973	146.620	98.045	86.816	258.344	32.929	27.290	281.340	384.734	233.145	0.00016045	0.00014287	3.1781e-05	179.89	1.1366e-06	6.8365e-07	385.3	53.08	1.0483e-06	9.2879e-07	139.23	42.487	15.813	8.3492	6.9956e-07	12.409	4.8187e-06	2.0451e-06	3.9509e-07	154.83	2.0216e-08	1.851e-08	333.32	45.526	2.6128e-08	1.4887e-08	116.73	35.446	13.195	6.9953	2.2595e-08	10.297	78.735	99.049	117.861	37.703	158.933	183.734	36.110	44.079	170.578	158.644	39.873	45.913	50.058	52.480	142.963	50.851	-8191	255	
3856.053	1	1	0	0	0.084038	0.15901	0.24958	0.1892	0.062691	0.26583	0.12699	0.26568	0.20746	0.1488	0.45139	0.1077	0.24893	0.142	0.091937	0.2821	0.18958	-1.2646	-1.1396	-0.13125	-1.3146	-0.53542	-0.75833	-1.4104	-0.16667	-0.91667	-0.99792	-0.26875	-1.1729	-0.76875	-0.5	-1.4146	212.167	262.515	166.307	123.190	265.728	99.520	273.387	295.698	340.810	202.622	80.182	166.471	44.325	336.577	155.898	81.884	0.00015307	0.00011977	2.6036e-05	180.61	8.6274e-07	7.174e-07	388.74	52.524	9.9437e-07	4.863e-07	139.52	42.001	15.431	8.2827	1.0555e-06	12.313	4.9351e-06	1.618e-06	4.009e-07	155.32	1.7595e-08	2.1752e-08	333.41	45.506	2.7361e-08	1.6378e-08	116.77	35.39	12.956	6.9524	2.4509e-08	10.258	78.714	95.985	92.286	38.463	155.548	154.380	36.454	42.962	161.222	155.203	40.265	46.206	50.215	52.143	124.120	50.798	-8191	255	
3856.149	1	1	0	0	0.11756	0.1542	0.13582	0.1965	0.14322	0.2629	0.20209	0.1881	0.13555	0.2902	0.28094	0.05761	0.24842	0.17611	0.1886	0.24521	-0.00625	-0.94792	-1.1458	-0.25	-1.0375	-0.43333	-0.35833	-1.2687	-0.29792	-0.7375	-1.1875	-0.28125	-1.1542	-0.67083	-0.43958	-1.4458	186.011	327.072	380.310	102.985	304.435	69.898	288.172	122.356	145.424	216.722	365.800	142.358	210.662	176.785	147.410	115.665	0.00014574	0.00015408	3.1785e-05	180.54	9.6556e-07	2.8459e-07	393.85	52.404	1.1292e-06	5.2199e-07	139.22	41.902	15.473	8.3024	7.6248e-07	12.3	4.7748e-06	2.0326e-06	4.4467e-07	155.42	1.6377e-08	1.9682e-08	335.51	45.247	2.5458e-08	2.0671e-08	116.85	35.202	13.069	6.9816	2.4525e-08	10.293	94.665	78.431	91.278	38.639	174.807	205.363	36.261	42.885	184.205	159.781	40.086	45.136	48.625	52.036	135.365	49.738	-8191	255	
3856.245	1	1	0	0	0.045558	0.1553	0.33658	0.039977	0.07915	0.39105	0.20377	0.19554	0.032434	0.041756	0.14442	0.21742	0.1386	0.17882	0.25662	0.16946	0.14375	-0.80208	-1.3312	-0.16667	-1.2167	-0.79792	-0.33125	-1.4542	-0.33542	-0.83333	-1.3354	-0.24167	-1.2188	-0.88958	-0.41667	-1.4083	331.046	275.831	125.313	228.769	257.616	116.338	267.063	217.730	253.288	105.010	150.907	183.316	201.889	170.498	356.088	382.193	0.00015712	0.00012882	3.4429e-05	181.05	7.6481e-07	5.2899e-07	390.19	53.264	7.2014e-07	9.9296e-07	141.51	41.923	15.563	8.3879	7.9241e-07	12.492	4.9214e-06	2.1411e-06	4.7914e-07	156.05	1.8753e-08	1.5724e-08	335.54	45.866	2.829e-08	2.0777e-08	117.66	35.341	13.195	7.0694	2.4889e-08	10.389	91.399	49.549	125.687	38.890	168.193	153.716	35.949	43.345	189.053	144.542	39.283	45.225	48.679	51.762	149.805	49.585	-8191	255	
3856.339	1	1	0	0	0.31865	0.17216	0.24075	0.20813	0.18681	0.16582	0.23387	0.1076	0.09107	0.19831	0.14591	0.21168	0.24681	0.1764	0.098437	0.40774	0	-0.38542	-1.2563	-0.23958	-1.0854	-0.76042	-0.44375	-1.2521	-0.65417	-0.475	-1.3667	-0.18125	-0.86667	-1.0187	-0.04375	-1.3167	140.088	27.221	196.331	315.803	49.668	161.249	214.086	53.318	173.323	29.327	133.431	153.046	362.232	361.168	133.795	378.012	0.00015456	7.7897e-05	4.1648e-05	182.86	6.6e-07	3.7192e-07	389.16	54.194	1.0393e-06	8.5522e-07	141.3	41.96	15.56	8.3855	4.4239e-07	12.387	4.5323e-06	2.2051e-06	3.7185e-07	156.39	2.2318e-08	1.7444e-08	335.54	46.46	2.8061e-08	2.0153e-08	118.01	35.189	13.114	7.0143	2.6044e-08	10.296	80.826	85.139	58.543	38.246	162.724	180.040	35.621	43.000	169.798	119.249	39.554	44.834	48.618	51.511	141.629	49.976	-8191	255	
3856.436	1	1	0	0	0.21581	0.32297	0.11106	0.17748	0.13818	0.13829	0.25258	0.12902	0.03178	0.13237	0.21598	0.28461	0.10571	0.28112	0.16766	0.090353	0.047917	-0.67292	-1.2792	-0.30417	-0.90833	-1.0417	-0.23125	-1.3604	-0.44583	-0.52083	-1.3292	-0.33958	-0.93125	-1.0833	-0.22292	-1.2646	277.057	358.404	322.024	51.533	364.261	380.262	348.383	37.632	110.959	192.297	76.370	38.934	157.226	325.514	66.815	179.680	0.0001648	1.5273e-05	3.1106e-05	183.66	6.1672e-07	7.3889e-07	391	53.819	1.348e-06	8.8789e-07	139.5	41.643	15.658	8.3946	1.0956e-06	12.501	4.7392e-06	1.9505e-06	4.8495e-07	157.19	1.9088e-08	1.8343e-08	336.36	46.245	2.6082e-08	2.1751e-08	117.21	35.249	13.213	7.021	2.7305e-08	10.358	77.632	73.463	110.507	38.046	162.842	148.495	35.916	42.880	163.224	168.128	39.518	44.561	48.844	51.712	134.129	49.840	-8191	255	
3856.532	1	1	0	0	0.13871	0.098967	0.22365	0.16547	0.16697	0.097747	0.018655	0.13166	0.067441	0.17209	0.20815	0.13972	0.19567	0.035018	0.11229	0.070584	-0.33125	-0.5	-1.2479	-0.39167	-0.87292	-0.96875	-0.27708	-1.2229	-0.54375	-0.41458	-1.6396	-0.25625	-1.0979	-1.2146	-0.10833	-1.5271	163.569	51.800	115.217	352.019	116.016	83.199	312.731	147.367	381.655	216.912	241.345	145.810	273.671	34.402	74.166	27.075	0.00016109	9.2703e-05	3.192e-05	183.71	1.1581e-06	9.1472e-07	393.07	54.409	3.6271e-07	1.0467e-06	142.95	42.28	15.734	8.4655	2.1257e-07	12.657	4.5611e-06	2.0785e-06	4.0013e-07	157.22	2.244e-08	1.3593e-08	336.57	46.825	2.6843e-08	1.9636e-08	119.24	35.438	13.179	7.0965	2.5254e-08	10.446	81.255	89.599	116.076	37.721	184.623	190.073	35.680	43.433	217.113	137.994	39.212	45.182	48.940	51.413	95.511	49.542	-8191	255	
3856.628	1	1	0	0	0.17989	0.15476	0.12997	0.15685	0.15874	0.19306	0.30905	0.38257	0.36915	0.091201	0.13815	0.045202	0.26605	0.1744	0.20489	0.31437	-0.32917	-0.17917	-1.3896	-0.26042	-0.75417	-1.1667	-0.275	-1.3021	-0.70417	-0.43333	-1.3438	-0.46875	-0.65208	-1.2021	-0.29167	-1.2021	317.464	166.020	193.748	203.084	30.511	117.882	355.381	91.227	130.809	217.802	38.438	255.878	311.987	177.633	166.413	248.394	0.00017133	8.3312e-05	3.7032e-05	187.75	1.1895e-06	8.9142e-07	393.05	55.169	9.9501e-07	9.4895e-07	142.96	42.347	15.454	8.4315	1.3996e-07	12.691	4.6967e-06	2.4152e-06	3.6178e-07	158.69	2.4344e-08	1.7003e-08	338.46	47.202	2.4331e-08	2.2132e-08	119.21	35.777	13.207	7.067	2.5619e-08	10.51	77.825	67.918	70.849	38.275	195.409	150.072	35.679	42.787	215.521	182.103	39.478	45.035	48.979	50.919	136.334	49.221	-8191	255	
3856.724	1	1	0	0	0.086155	0.095573	0.18087	0.09416	0.064623	0.19302	0.034445	0.11925	0.28963	0.1376	0.32005	0.1927	0.12279	0.38641	0.094632	0.11331	-0.50417	-0.41667	-1.5208	-0.37708	-0.71875	-1.1729	-0.21458	-1.2083	-0.98958	-0.35833	-1.4417	-0.42917	-0.68333	-1.2313	-0.16875	-1.2417	247.196	272.098	317.204	249.892	231.607	129.795	200.555	86.929	278.104	155.728	362.330	78.884	304.573	66.693	137.897	339.456	0.00014026	7.7689e-05	3.3961e-05	184.53	3.9523e-07	8.8428e-07	398.21	54.541	8.7559e-07	5.9661e-07	141.32	41.457	15.491	8.3335	7.2335e-07	12.516	4.5309e-06	2.1676e-06	3.7495e-07	157.25	2.113e-08	1.5283e-08	338.66	46.832	2.4544e-08	2.5237e-08	118.42	35.222	13.201	7.01	2.6029e-08	10.356	90.779	116.589	93.652	38.214	113.785	169.764	35.789	43.402	133.994	215.390	39.673	45.336	48.586	50.767	141.317	49.161	-8191	255	
3856.820	1	1	0	0	0.24034	0.24971	0.22383	0.30897	0.14712	0.097843	0.04872	0.034855	0.25824	0.2981	0.25336	0.14362	0.36778	0.26151	0.22881	0.21623	-0.51667	-0.060417	-1.4792	-0.53958	-0.5375	-1.2708	-0.022917	-1.2062	-1.1896	-0.079167	-1.4875	-0.38542	-0.43333	-1.4562	-0.089583	-0.99375	332.414	260.813	356.393	138.430	110.632	34.986	63.894	118.267	213.409	198.370	357.809	285.437	33.877	369.665	367.320	347.878	0.0001635	8.9774e-05	1.5119e-05	181.07	4.5756e-07	2.9478e-07	388.76	54.51	2.5398e-07	8.8595e-07	141.42	41.995	15.791	8.2169	1.2409e-06	12.326	4.6406e-06	2.731e-06	3.4319e-07	155.77	2.148e-08	1.0458e-08	335	46.932	1.8256e-08	2.4765e-08	117.95	35.248	13.219	6.953	2.8946e-08	10.296	82.612	84.727	60.956	36.914	196.288	148.873	35.826	43.247	123.826	170.423	39.500	44.703	48.445	51.446	128.601	49.309	-8191	255	
3856.941	1	1	0	0	0.12439	0.23709	0.24514	0.13717	0.10372	0.12257	0.36294	0.091408	0.18923	0.172	0.18846	0.18597	0.1021	0.057043	0.26697	0.28896	-0.5125	-0.24583	-1.2604	-0.30833	-0.51458	-1.4646	-0.26042	-0.87708	-1.1958	-0.30208	-1.3042	-0.55	-0.55625	-1.2271	-0.43125	-0.95	47.731	90.069	339.512	200.433	194.910	47.154	339.727	189.561	68.282	294.799	140.717	119.135	73.290	232.153	226.009	165.078	0.00015994	4.0112e-05	2.8135e-05	182.59	8.5821e-07	6.4238e-07	391.77	53.944	9.592e-07	7.806e-07	138.74	41.615	15.63	8.391	1.049e-06	12.349	4.1487e-06	2.0437e-06	4.0206e-07	155.73	2.4374e-08	1.2528e-08	335.45	46.271	2.2078e-08	2.3639e-08	116.74	35.243	13.165	7.0048	2.5619e-08	10.369	85.891	125.084	101.178	38.191	155.751	179.708	35.375	42.366	132.908	163.608	39.568	44.457	48.945	51.032	137.120	49.404	-8191	255	
3857.037	1	1	0	0	0.25955	0.36349	0.1337	0.25138	0.11876	0.28243	0.17507	0.18903	0.081291	0.15827	0.19479	0.32511	0.25672	0.12335	0.16425	0.25274	-0.66042	-0.14375	-1.3125	-0.59167	-0.52708	-1.4417	-0.53542	-1.0521	-0.98542	-0.125	-1.2938	-0.71042	-0.45	-1.3208	-0.30417	-0.77083	240.900	380.666	154.250	341.120	365.117	245.846	218.689	291.739	41.170	27.894	110.064	303.385	180.237	315.107	265.301	290.431	0.00017023	4.5859e-05	5.9475e-05	180.4	1.1818e-06	4.9221e-07	388.42	53.99	8.2222e-07	3.1282e-07	139.61	41.368	15.811	8.3366	8.7526e-07	12.396	4.2008e-06	2.1829e-06	4.9115e-07	155.04	2.5791e-08	1.1188e-08	334.76	46.174	2.325e-08	2.1356e-08	116.93	35.054	13.203	6.9976	2.4054e-08	10.318	81.503	162.123	110.896	37.968	159.502	156.956	35.363	42.244	172.221	148.303	39.626	45.009	48.956	51.142	148.429	49.483	-8191	255	
3857.133	1	1	0	0	0.1001	0.13557	0.044498	0.31231	0.076976	0.038921	0.15354	0.25255	0.1975	0.23078	0.19847	0.1403	0.12636	0.051853	0.21122	0.1687	-0.92292	-0.12708	-1.2292	-0.94375	-0.40833	-1.3042	-0.60208	-0.65625	-1.3354	-0.24167	-1.2083	-1.0063	-0.44375	-1.1125	-0.4625	-0.64375	345.021	313.885	144.860	40.028	296.813	111.305	169.693	206.873	376.287	248.506	319.316	123.845	318.793	95.535	300.994	260.291	0.00018107	8.7079e-05	4.2142e-05	181.94	9.6812e-07	9.976e-07	390.47	53.482	1.0957e-06	1.3042e-06	138.46	41.146	15.754	8.2052	1.0442e-06	12.097	4.4035e-06	2.3776e-06	4.9541e-07	154.93	2.5593e-08	1.8282e-08	334.21	45.946	2.1758e-08	2.4963e-08	116.27	34.891	13.147	6.9186	2.6181e-08	10.135	76.384	64.884	94.383	36.936	208.993	190.681	35.847	42.935	160.541	155.319	40.887	46.477	48.898	52.069	110.636	50.921	-8191	255	
3857.229	1	1	0	0	0.17264	0.12176	0.17834	0.14695	0.22248	0.056661	0.13177	0.21664	0.25044	0.19822	0.085829	0.025112	0.11087	0.21567	0.11574	0.22366	-0.87083	-0.4	-1.1396	-1.1125	-0.30833	-1.4854	-0.35833	-0.875	-1.3792	-0.32083	-1.3813	-1.1021	-0.30208	-1.2938	-0.51458	-0.81875	241.378	368.016	99.011	249.918	175.222	32.084	272.597	200.042	308.194	240.355	360.877	85.748	82.493	142.853	256.691	31.786	0.00015871	0.00011086	2.6215e-05	184.1	9.0876e-07	8.622e-07	384.68	53.124	9.2187e-07	7.0678e-07	136.9	40.729	15.239	7.9694	6.5451e-07	12.165	4.1213e-06	2.2093e-06	4.4273e-07	157.27	2.8046e-08	1.373e-08	332	46.17	1.8439e-08	2.2482e-08	116.2	34.777	13.056	6.902	2.5254e-08	10.156	87.093	60.598	102.214	38.655	179.187	180.430	37.313	44.385	195.736	188.910	41.345	46.292	50.652	52.282	177.048	50.499	-8191	255	
3857.325	1	1	0	0	0.17312	0.29048	0.2294	0.025366	0.29133	0.23808	0.14452	0.40371	0.16459	0.32919	0.076055	0.15427	0.077105	0.38472	0.1657	0.10166	-1.0542	-0.15625	-1.0812	-1.0688	-0.24583	-1.1396	-0.79583	-0.52917	-1.3146	-0.26458	-1.0958	-1.0083	-0.04375	-1.4771	-0.52083	-0.61875	220.071	74.745	27.668	88.824	82.782	230.760	128.554	126.899	286.679	380.490	61.191	357.160	113.172	148.177	366.504	275.489	0.00018806	2.352e-05	1.0362e-05	179.9	3.9807e-07	1.043e-06	384.83	52.99	8.9624e-07	6.9823e-07	138.46	41.08	15.629	8.2699	9.7571e-07	12.122	4.3885e-06	2.0549e-06	4.7411e-07	155.03	2.6142e-08	1.1706e-08	333.02	46.134	1.8241e-08	2.0229e-08	116.92	35.089	13.246	6.9465	2.5087e-08	10.21	84.104	37.870	50.907	38.788	171.021	159.195	37.575	44.417	151.012	157.113	41.263	46.670	50.072	53.059	149.441	51.143	-8191	255	
3857.422	1	1	0	0	0.23002	0.15111	0.19421	0.10744	0.35683	0.19434	0.14333	0.18245	0.20735	0.33285	0.18956	0.19212	0.1354	0.089699	0.058062	0.2315	-1.1375	-0.064583	-1.0521	-1.2208	0.0875	-1.4604	-0.54167	-0.48333	-1.6688	-0.27292	-1.0396	-1.2479	-0.16458	-1.2687	-0.69375	-0.56875	41.262	370.617	230.575	248.641	184.885	191.241	99.015	320.446	380.794	202.222	364.766	183.790	302.240	266.665	50.952	125.179	0.00016451	0.0001059	2.8146e-05	180.65	7.1834e-07	7.9922e-07	384.63	53.226	9.7345e-07	1.3701e-06	139.01	41.089	15.507	8.2139	9.2928e-07	12.219	4.0953e-06	2.4402e-06	5.4344e-07	155.71	3.155e-08	1.3548e-08	333.31	46.372	1.6688e-08	2.4126e-08	117.21	35.137	13.182	6.9915	2.4616e-08	10.287	92.373	66.798	90.276	39.243	217.047	176.136	37.236	44.198	169.457	168.765	41.504	46.434	50.412	52.903	146.391	50.966	-8191	255	
3857.540	1	1	0	0	0.24497	0.22581	0.28407	0.1447	0.1888	0.18191	0.2012	0.24843	0.23034	0.12208	0.062366	0.38897	0.10249	0.035165	0.2296	0.11792	-1.175	-0.55	-0.63542	-1.1979	-0.26458	-1.275	-0.76667	-0.525	-1.3083	-0.46667	-0.92917	-1.2437	-0.22083	-1.1792	-0.75208	-0.51458	219.131	306.701	76.755	45.041	316.184	181.594	360.057	109.085	192.196	150.156	358.369	236.936	148.918	349.800	157.888	318.334	0.00014274	0.00012568	5.7147e-05	181.83	1.3002e-06	4.9043e-07	384.83	54.045	7.8134e-07	4.6776e-07	139.8	41.47	15.345	8.2886	9.0036e-07	12.076	3.813e-06	1.9477e-06	5.4151e-07	156.4	2.6538e-08	1.682e-08	333.12	46.632	1.6764e-08	2.1675e-08	117.96	35.206	13.146	6.9708	2.2868e-08	10.18	80.847	89.040	98.225	39.585	172.496	153.383	37.127	44.494	178.688	165.499	40.733	46.780	49.880	52.712	150.338	50.963	-8191	255	
3857.637	1	1	0	0	0.16563	0.20847	0.29513	0.15955	0.14363	0.058878	0.26136	0.092649	0.30319	0.29112	0.18678	0.29382	0.098764	0.24772	0.22631	0.091949	-1.0333	-0.44375	-0.96667	-1.4958	-0.49583	-1.2625	-1.2521	-0.51667	-1.4458	-0.57292	-0.84167	-1.3438	-0.24583	-1.2687	-0.85208	-0.37917	35.790	250.356	30.756	194.956	271.575	249.727	140.191	100.704	351.153	360.306	290.284	62.768	48.355	374.344	182.121	117.196	0.00013985	9.0455e-05	2.2066e-05	180.98	9.5299e-07	1.0165e-06	383.55	53.632	1.3401e-06	7.0349e-07	137.41	41.586	15.373	8.2489	1.0629e-06	11.86	4.0007e-06	2.1356e-06	5.1555e-07	156.1	2.5304e-08	2.1296e-08	332.02	46.451	2.4727e-08	1.854e-08	116.95	34.905	13.202	6.9414	2.1729e-08	10.133	78.774	107.673	81.792	38.959	180.299	153.624	36.995	43.883	160.229	187.567	41.038	46.165	49.318	52.172	100.775	51.307	-8191	255	
3857.733	1	1	0	0	0.17706	0.26216	0.11458	0.24626	0.18588	0.14692	0.1283	0.224	0.19427	0.23399	0.12872	0.15242	0.24404	0.18235	0.2457	0.45418	-1.1708	-0.52292	-0.77708	-1.4479	-0.35417	-1.2729	-1.1396	-0.47917	-1.5104	-0.43333	-0.58542	-1.3521	-0.18542	-1.1292	-1.1063	0.0020833	235.709	145.521	168.549	179.137	120.861	206.937	244.778	319.921	208.258	277.802	87.147	61.908	49.526	54.241	288.595	36.544	0.00016553	0.00015362	2.4951e-05	177.7	1.0781e-06	5.6267e-07	379.85	53.929	9.7674e-07	9.1924e-07	140.47	41.787	15.702	8.2901	1.1278e-06	12.271	4.2967e-06	2.3039e-06	5.5313e-07	153.12	2.9965e-08	1.7003e-08	330.43	46.2	2.2215e-08	2.2284e-08	117.2	34.961	13.24	6.9314	1.869e-08	10.187	78.716	76.148	96.617	39.361	188.515	208.194	36.898	44.294	186.271	156.338	40.123	45.353	49.248	52.160	146.767	51.020	-8191	255	
3857.829	1	1	0	0	0.30086	0.12975	0.18363	0.21848	0.05856	0.076337	0.29738	0.17573	0.26778	0.24288	0.23595	0.095701	0.10124	0.14976	0.28713	0.18311	-1.0625	-0.4125	-0.6875	-1.4146	-0.24583	-1.0063	-1.0125	-0.29167	-1.4312	-0.93333	-0.63542	-1.4125	-0.24583	-0.84583	-1.0063	-0.45208	85.129	121.005	340.680	313.362	241.503	333.580	47.792	330.767	259.637	216.425	356.013	332.398	72.992	121.746	368.884	133.955	0.00018701	8.3402e-05	2.6423e-05	177.08	6.2758e-07	9.2578e-07	384.89	53.249	9.1208e-07	1.26e-06	139.65	41.585	15.703	8.3455	3.2856e-07	12.292	4.272e-06	2.3456e-06	5.969e-07	152.52	2.314e-08	1.7216e-08	331.08	46.009	2.2641e-08	1.9103e-08	116.33	35.109	13.173	6.9808	1.9054e-08	10.232	88.417	132.920	116.591	39.009	163.725	124.254	36.426	43.842	211.694	159.793	40.773	46.027	49.079	52.633	120.423	50.417	-8191	255	
3857.925	1	1	0	0	0.19348	0.12054	0.36403	0.16674	0.13782	0.1565	0.2068	0.11579	0.21534	0.14661	0.088383	0.158	0.26776	0.031628	0.19859	0.14046	-0.86875	-0.73958	-0.43958	-1.3354	-0.52917	-0.9625	-1.2229	-0.43542	-1.2271	-0.89792	-0.68333	-1.3771	-0.34375	-0.97917	-1.0792	-0.3375	356.561	357.552	236.526	118.293	314.722	226.289	302.025	231.468	286.005	385.937	65.751	384.745	32.861	347.828	165.706	84.678	0.00015702	0.00013844	2.8845e-05	175.87	8.4337e-07	1.1047e-06	381.37	52.813	7.3686e-07	8.198e-07	137.2	41.176	15.46	8.1865	8.0813e-07	11.991	4.3062e-06	2.2844e-06	5.4693e-07	151.58	2.6218e-08	2.093e-08	328.55	45.436	2.0129e-08	2.0853e-08	115.43	34.669	13.067	6.9064	1.8675e-08	10.077	80.359	72.989	120.710	39.558	188.882	182.973	37.349	44.067	169.450	176.641	40.094	46.061	49.595	52.566	175.140	51.085	-8191	255	
3858.021	1	1	0	0	0.14068	0.16936	0.19062	0.15594	0.12898	0.13028	0.15853	0.15305	0.1061	0.16655	0.13419	0.0996	0.16857	0.24575	0.28816	0.1882	-0.95	-0.84375	-0.47292	-1.2938	-0.55417	-1.0458	-1.2354	-0.3125	-1.1938	-0.96875	-0.7875	-1.2542	-0.60625	-0.71458	-1.2104	-0.42917	43.510	375.729	54.303	297.432	315.381	285.698	354.376	282.108	189.661	284.454	376.591	371.463	376.931	180.243	167.766	244.165	0.00018483	4.7881e-05	2.2317e-05	175.11	1.5853e-06	1.2162e-06	380.4	52.203	1.3216e-06	1.2358e-06	136.54	40.508	15.583	8.2111	9.9847e-07	12.049	4.3802e-06	1.9547e-06	4.8457e-07	151.5	2.4755e-08	1.6973e-08	326.88	44.905	2.255e-08	1.6546e-08	114.61	34.356	13.072	6.9016	1.6289e-08	9.9815	73.681	48.230	72.550	39.698	173.646	166.575	37.151	43.643	167.505	142.658	41.066	46.214	49.430	52.732	146.960	51.047	-8191	255	
3858.117	1	1	0	0	0.15834	0.10677	0.21515	0.19469	0.078723	0.25193	0.25707	0.19244	0.014139	0.098497	0.044946	0.36334	0.077471	0.31467	0.17508	0.086425	-0.73333	-0.8625	-0.2875	-1.3542	-0.71458	-0.94375	-1.275	-0.375	-1.1313	-0.94375	-0.61667	-1.3667	-0.60625	-0.67083	-1.4333	-0.28542	364.005	128.318	183.837	150.001	296.160	159.458	38.716	38.838	151.079	194.180	167.409	272.726	42.032	156.081	125.171	81.304	0.00013845	0.00013314	3.7544e-05	178.16	7.3694e-07	4.8528e-07	384.11	52.453	1.1774e-06	2.0665e-07	135.92	40.744	15.409	8.0697	5.6999e-07	11.914	3.9514e-06	2.0243e-06	5.3453e-07	152.81	2.1724e-08	1.9469e-08	329.01	45.428	2.2428e-08	1.0716e-08	114.85	34.485	13.103	6.871	1.6942e-08	10.039	88.015	76.662	100.436	38.749	176.096	168.859	36.719	43.928	186.750	181.247	41.046	46.821	50.793	53.697	146.799	50.817	-8191	255	
3858.236	1	1	0	0	0.28466	0.085338	0.1531	0.13057	0.36749	0.17585	0.14903	0.11148	0.054097	0.10464	0.4028	0.037367	0.14152	0.27303	0.02773	0.45093	-0.77083	-0.91458	-0.10208	-1.4	-0.58542	-0.70208	-1.6833	-0.32292	-1.0854	-1.1083	-0.35417	-1.5812	-0.4875	-0.54583	-1.3937	-0.46667	158.323	135.060	218.193	330.631	212.063	277.070	335.375	333.973	338.731	360.530	331.347	69.331	140.043	240.743	82.827	336.688	0.00015253	7.1242e-05	2.6882e-05	176.25	7.0706e-07	6.1839e-07	383.75	52.736	1.3015e-06	9.6352e-07	135.86	41.379	15.565	8.1997	4.8534e-07	12.006	4.1953e-06	1.7029e-06	5.4228e-07	152.43	2.1571e-08	2.1981e-08	330.22	45.843	2.022e-08	1.7763e-08	114.99	34.712	13.163	6.9667	1.4952e-08	10.075	77.996	109.592	55.101	39.004	203.932	184.346	37.600	43.660	153.328	172.192	41.278	46.240	50.476	52.727	142.598	51.340	-8191	255	
3858.332	1	1	0	0	0.25595	0.07404	0.093221	0.24278	0.22723	0.11912	0.23621	0.1494	0.39154	0.14535	0.21552	0.086698	0.14111	0.17578	0.18536	0.041661	-0.87917	-1.2958	-0.052083	-1.3042	-0.7375	-0.24792	-1.3917	-0.42292	-0.95208	-1.1021	-0.25417	-1.3396	-0.68333	-0.54375	-1.5771	-0.14792	313.931	154.907	371.801	202.662	297.718	65.278	103.748	94.812	225.191	293.361	314.716	30.759	327.566	320.770	357.674	299.335	0.00014043	6.9603e-05	3.7113e-05	178.68	1.1237e-06	9.0239e-07	384.89	53.731	1.048e-06	9.2225e-07	140.72	41.387	15.83	8.3702	6.3387e-07	12.149	4.0569e-06	1.7001e-06	6.5577e-07	153.81	2.0353e-08	1.9682e-08	332.02	45.969	2.596e-08	1.5587e-08	116.55	34.758	13.284	7.0117	1.6684e-08	10.114	81.596	43.324	80.710	38.914	181.577	179.484	37.161	43.745	166.224	152.623	40.250	46.445	49.857	52.238	132.191	50.334	-8191	255	
3858.406	1	1	0	0	0.30368	0.067871	0.21519	0.22418	0.098789	0.20537	0.26389	0.13041	0.05366	0.14008	0.10844	0.22028	0.11914	0.24984	0.11624	0.09959	-0.52708	-1.0771	-0.24375	-1.5	-0.66667	-0.43125	-1.4604	-0.40833	-0.84375	-1.1833	-0.30417	-1.2792	-0.7125	-0.44167	-1.2313	-0.55417	280.165	167.762	356.521	37.251	96.540	256.273	362.577	95.885	50.262	321.021	246.129	368.753	136.758	352.948	182.701	303.765	0.00014819	8.2762e-05	1.1967e-05	182.05	9.1004e-07	1.332e-06	386.07	54.495	6.52e-07	6.9355e-07	138.59	41.018	15.704	8.2271	1.2907e-06	12.244	4.1583e-06	1.7321e-06	6.4067e-07	154	2.1206e-08	2.3274e-08	331.44	46.235	2.4894e-08	1.4582e-08	116.18	34.584	13.225	6.9625	2.0072e-08	10.093	83.203	59.886	48.568	38.439	149.673	149.754	36.958	43.732	140.740	136.801	40.555	45.550	49.438	51.999	146.612	50.068	-8191	255	
3858.502	1	1	0	0	0.31695	0.15111	0.11623	0.083806	0.2143	0.13196	0.097235	0.1118	0.2891	0.31429	0.1027	0.23361	0.30121	0.15754	0.0059753	0.064516	-0.475	-0.97083	-0.26458	-1.2583	-1.0229	-0.5375	-1.1812	-0.56042	-0.88333	-1.2708	-0.44792	-1.2021	-0.75208	-0.37917	-1.2396	-0.60625	375.461	279.001	302.006	94.870	148.609	348.639	189.946	305.820	286.314	242.303	212.606	273.032	178.303	188.905	235.758	193.939	0.00015561	0.0001414	3.3097e-05	179.13	8.3074e-07	3.9085e-07	386.68	54.268	1.2693e-06	8.2376e-07	137.54	41.48	15.693	8.2804	8.8294e-07	12.125	4.3967e-06	1.8267e-06	6.12e-07	154.18	2.3872e-08	2.4842e-08	331.18	46.328	2.4179e-08	1.3943e-08	116.05	34.904	13.152	6.9656	1.8173e-08	10.058	99.318	72.133	80.016	38.548	165.504	151.136	36.476	43.858	174.972	123.889	40.004	45.745	48.975	52.127	147.237	51.115	-8191	255	
3858.621	1	1	0	0	0.079218	0.1133	0.14061	0.16428	0.20208	0.17844	0.14089	0.26393	0.12808	0.17027	0.32978	0.11085	0.31019	0.17002	0.15932	0.21207	-0.41875	-1.2333	-0.31458	-1.1292	-1.0479	-0.22708	-1.475	-0.4625	-0.55625	-1.4792	-0.20208	-1.1292	-0.99375	-0.33333	-1.2896	-0.39375	61.621	129.826	364.330	349.115	60.703	241.846	249.613	328.266	383.407	219.660	91.399	302.698	248.059	259.855	131.349	301.996	0.00014797	0.00015554	3.8768e-05	178.3	1.2712e-06	7.3153e-07	383.23	53.362	6.2434e-07	1.2075e-06	139.17	41.237	15.747	8.2066	9.2991e-07	12.262	4.4885e-06	1.5443e-06	5.4654e-07	153.51	2.1769e-08	2.2559e-08	329.75	45.748	2.3372e-08	1.9651e-08	116.43	34.865	13.311	6.9763	1.951e-08	10.122	77.132	49.606	55.650	38.314	172.647	137.052	36.357	42.993	204.714	133.786	40.213	46.282	49.677	52.097	125.079	49.897	-8191	255	
3858.717	1	1	0	0	0.17844	0.14794	0.034061	0.042058	0.18074	0.16667	0.31406	0.03528	0.3296	0.14517	0.050923	0.12505	0.32759	0.275	0.060855	0.37176	-0.275	-1.4896	-0.18125	-1.0958	-1.0854	-0.35833	-1.2479	-0.83542	-0.54583	-1.3917	-0.3875	-1.1187	-1.1229	-0.20625	-1.2583	-0.63542	327.362	260.581	178.475	121.116	312.071	141.640	366.283	243.250	44.867	194.422	319.431	198.751	33.650	345.514	117.706	218.388	0.00014994	0.00013515	4.0991e-05	180.08	7.6377e-07	6.716e-07	382.21	53.272	7.6579e-07	4.8366e-07	138.39	41.183	15.688	8.3035	3.7615e-07	12.081	4.6584e-06	1.4956e-06	6.732e-07	153.52	1.9652e-08	2.1707e-08	330.22	45.705	2.5549e-08	1.6409e-08	116.16	34.936	13.236	6.9713	1.8629e-08	10.037	82.297	101.698	109.479	38.162	161.204	198.293	35.865	43.115	178.276	149.248	39.532	45.116	48.560	52.326	89.208	49.991	-8191	255	
3858.813	1	1	0	0	0.15901	0.2877	0.088067	0.2961	0.42678	0.22348	0.11397	0.13152	0.1833	0.13703	0.12027	0.13984	0.077523	0.0338	0.34655	0.17021	-0.18958	-1.3083	-0.30833	-0.99375	-0.95417	-0.24583	-1.25	-0.83958	-0.52292	-1.3958	-0.58542	-0.94792	-0.93333	0.014583	-1.1833	-0.76458	243.682	99.978	168.636	273.318	30.805	117.327	298.703	375.442	196.369	57.513	348.903	185.454	164.791	268.058	60.820	229.219	0.00016585	9.4318e-05	3.2306e-05	178.04	5.3888e-07	3.0422e-07	382.98	52.985	1.4079e-06	1.0076e-06	137.53	41.457	15.797	8.2322	1.0085e-06	12.148	4.8885e-06	1.7196e-06	5.8334e-07	153.23	1.6392e-08	2.2818e-08	329.15	45.283	2.6463e-08	1.4902e-08	114.88	34.654	13.172	6.9411	1.6775e-08	10.005	80.254	81.439	73.901	38.419	110.693	165.533	36.182	43.136	163.066	163.461	39.823	45.877	49.286	52.115	148.290	50.278	-8191	255	
3858.934	1	1	0	0	0.084704	0.14879	0.18274	0.067393	0.15807	0.17118	0.32644	0.15949	0.045807	0.069068	0.30483	0.1313	0.20113	0.2872	0.028516	0.12535	-0.09375	-1.3167	-0.35625	-0.95625	-1.2	-0.06875	-1.4458	-0.75833	-0.37292	-1.4771	-0.46875	-0.7125	-1.2146	-0.225	-1.2479	-0.74792	289.257	252.551	117.402	221.594	191.053	345.151	277.206	326.231	301.091	280.727	33.329	359.740	314.382	384.096	196.284	74.043	0.00018292	8.1784e-05	2.8136e-05	176.05	8.8261e-07	9.7323e-07	384.66	52.746	6.5499e-07	8.7452e-07	135.81	40.857	15.896	8.3501	1.1513e-06	12.062	4.8899e-06	1.6013e-06	5.4538e-07	151.85	1.8372e-08	2.3518e-08	329.2	45.126	2.6737e-08	1.4445e-08	114.49	34.4	13.17	6.9763	1.9708e-08	9.9746	71.518	93.630	109.683	38.204	161.497	118.028	36.294	42.242	176.842	163.696	39.608	45.282	49.147	50.908	126.147	49.608	-8191	255	
3859.030	1	1	0	0	0.15979	0.053837	0.14776	0.1716	0.13337	0.21922	0.16045	0.018252	0.28847	0.22264	0.094592	0.054673	0.20297	0.3507	0.062574	0.134	0.10833	-1.4042	-0.4375	-0.55833	-1.1667	-0.10625	-1.175	-0.63542	-0.37083	-1.0312	-0.48125	-0.72708	-1.2	-0.11458	-1.3854	-0.95417	325.671	339.413	214.877	186.215	119.137	318.836	131.181	282.666	260.034	242.938	92.050	67.441	122.697	297.348	220.136	97.515	0.00017084	7.803e-05	2.4747e-05	179.16	8.1169e-07	5.3189e-07	383.59	52.304	1.1343e-06	6.0568e-07	136.62	41.012	15.515	8.3839	6.4995e-07	12.031	4.8365e-06	1.7613e-06	5.6591e-07	152.99	2.1495e-08	2.2239e-08	329.03	45.287	2.7254e-08	1.51e-08	114.41	34.42	13.074	6.978	1.9677e-08	9.9488	81.859	57.172	104.299	37.697	151.624	211.379	35.546	42.296	146.735	181.311	39.173	45.932	48.884	51.072	181.221	49.651	-8191	255	
3859.102	1	1	0	0	0.31417	0.056607	0.10842	0.041954	0.17662	0.23032	0.39334	0.16961	0.26024	0.45772	0.20617	0.24305	0.088858	0.20423	0.33355	0.30393	0.083333	-1.3771	-0.67292	-0.46875	-1.1667	-0.14792	-1.0979	-0.95208	-0.16667	-1.4042	-0.39792	-0.51042	-1.4771	-0.37083	-1.0729	-0.98125	47.899	223.079	164.944	364.019	107.828	43.847	332.669	70.762	264.449	85.793	69.013	321.150	66.197	186.889	104.111	154.818	0.00015709	6.4304e-05	2.9957e-05	179.06	7.4491e-07	6.6616e-07	383.34	53.118	5.9023e-07	5.2069e-07	136.58	40.748	15.72	8.2236	8.0372e-07	11.865	5.1831e-06	1.3926e-06	4.9193e-07	153.1	1.7687e-08	2.1676e-08	327.98	45.6	2.8168e-08	1.2375e-08	114.02	34.23	13.202	6.9645	1.8553e-08	9.8766	97.737	78.128	61.293	37.954	203.492	143.962	35.607	42.625	164.253	176.605	39.651	45.357	49.591	50.954	154.585	49.144	-8191	255	
3859.222	1	1	0	0	0.064402	0.32488	0.065359	0.26815	0.3146	0.26794	0.3186	0.086576	0.10638	0.13138	0.077935	0.15906	0.14537	0.1162	0.27906	0.036679	0.10625	-1.2812	-0.5375	-0.51667	-1.3188	-0.4125	-1.0396	-1.2271	-0.19167	-1.3354	-0.76875	-0.57292	-1.4125	-0.24167	-0.87917	-1.0146	99.360	231.658	257.911	309.123	135.425	219.017	213.011	207.992	285.756	173.481	317.005	125.239	382.821	281.021	275.167	235.063	0.00015536	9.3445e-05	3.6061e-05	180.99	7.4818e-07	6.1724e-07	379.59	53.661	9.8141e-07	1.2747e-06	135.02	40.921	15.491	8.3371	6.7421e-07	11.662	4.6981e-06	1.7307e-06	4.7527e-07	153.55	1.7108e-08	2.2392e-08	327.14	45.767	2.7544e-08	1.7413e-08	113.58	34.127	13.214	6.9521	2.4737e-08	9.8401	85.808	89.256	129.104	38.721	153.735	180.329	35.836	42.813	180.760	147.479	39.128	45.505	48.480	51.273	101.717	49.317	-8191	255	
3859.317	1	1	0	0	0.1535	0.36056	0.25822	0.08679	0.18239	0.23857	0.081396	0.069151	0.075592	0.37352	0.12277	0.062585	0.34839	0.17202	0.3104	0.16499	0.22917	-1.3813	-0.83542	-0.30208	-1.5667	-0.18958	-0.78542	-1.3188	-0.11042	-1.3917	-0.89792	-0.31875	-1.5708	-0.38333	-0.67292	-1.0979	199.006	219.868	368.958	227.660	356.812	56.094	74.181	171.116	171.955	91.661	316.051	47.009	340.688	377.668	264.414	372.890	0.00013578	9.2188e-05	5.4128e-05	177.92	6.8519e-07	1.9857e-07	382.08	53.858	8.8344e-07	1.5025e-06	135.87	40.849	15.684	8.3292	7.4789e-07	11.817	4.5816e-06	1.4608e-06	5.4073e-07	153.19	1.7946e-08	2.2635e-08	327.05	45.93	2.7544e-08	1.4552e-08	114.03	34.278	13.162	6.9739	2.2488e-08	9.8737	85.547	84.303	94.507	37.853	114.389	151.676	35.577	42.044	211.209	149.233	39.292	44.902	48.537	51.625	124.131	49.524	-8191	255	
3859.413	1	1	0	0	0.2538	0.18141	0.45085	0.19854	0.32796	0.071362	0.24799	0.14352	0.044453	0.12774	0.14126	0.21169	0.35299	0.1423	0.21385	0.20966	0.21042	-1.4458	-0.79375	-0.41042	-1.4937	-0.3625	-0.81458	-1.1833	-0.17083	-1.3042	-0.97708	-0.375	-1.1146	-0.54167	-0.60833	-1.275	356.733	41.222	381.596	172.086	244.412	241.960	38.996	142.235	372.517	316.537	144.811	93.293	32.502	237.465	233.920	164.868	0.00014486	0.00011161	2.8141e-05	178.3	7.1344e-07	9.6675e-07	381.01	53.306	1.0463e-06	8.3628e-07	137.81	41.085	15.77	8.4585	6.522e-07	12.133	4.6762e-06	1.9269e-06	4.1601e-07	153.11	1.8784e-08	2.3548e-08	327.64	46.043	2.7528e-08	1.6059e-08	114.99	34.428	13.317	7.0691	2.5558e-08	10.014	86.917	119.830	84.819	37.365	181.231	167.872	35.517	43.032	157.143	148.629	38.987	45.678	49.984	51.224	127.895	49.630	-8191	255	
3859.533	1	1	0	0	0.1154	0.23262	0.22116	0.18863	0.040573	0.23744	0.13027	0.027056	0.033928	0.31861	0.02924	0.1317	0.40751	0.18564	0.1756	0.076385	-0.04375	-0.97708	-0.875	-0.17083	-1.3667	-0.29583	-0.71042	-1.2667	-0.175	-0.92917	-1.0125	-0.24167	-1.1125	-0.47708	-0.50625	-1.3208	69.105	357.709	120.922	147.460	128.288	240.968	323.510	372.437	355.625	173.272	108.071	145.235	330.102	40.888	241.513	163.911	0.00012878	6.9983e-05	6.1413e-05	180.33	6.9689e-07	4.7389e-07	384.9	53.692	1.9223e-07	4.3874e-07	136.15	40.975	15.904	8.4468	1.2393e-06	11.987	4.6899e-06	1.7251e-06	4.7411e-07	154.63	1.5737e-08	2.0337e-08	330.23	46.16	2.6584e-08	1.6561e-08	115.12	34.502	13.35	7.0704	2.4616e-08	9.9059	70.690	53.951	80.144	38.014	167.479	113.155	36.350	42.927	220.028	192.696	39.448	45.261	48.421	51.388	149.649	48.563	-8191	255	
3859.630	1	1	0	0	0.025042	0.11597	0.34494	0.11205	0.209	0.19556	0.12865	0.29038	0.24486	0.28484	0.1434	0.17879	0.28061	0.24142	0.20609	0.15802	0.05625	-0.85833	-1.1021	-0.42083	-1.3375	-0.42708	-0.44375	-1.5938	-0.28542	-0.96667	-0.99792	-0.2125	-1.2104	-0.48125	-0.39792	-1.3604	268.305	31.700	31.826	265.957	70.057	85.319	196.731	315.931	295.354	64.772	373.421	38.735	73.370	285.621	104.678	87.467	0.00013447	7.1512e-05	3.6946e-05	179.49	7.3669e-07	8.2114e-07	382.46	54.7	1.1241e-06	1.1008e-06	138.13	41.236	15.886	8.3005	2.9828e-07	11.876	4.3939e-06	1.8267e-06	4.5745e-07	154	1.7321e-08	1.8495e-08	328.39	46.481	2.8153e-08	1.7474e-08	115.79	34.321	13.303	7.0369	2.261e-08	9.8719	75.496	80.354	56.950	37.646	166.627	194.231	35.890	42.661	154.109	196.392	39.224	45.422	48.176	50.910	85.361	49.121	-8191	255	
3859.701	1	1	0	0	0.31003	0.1779	0.30638	0.10785	0.14257	0.18676	0.27412	0.077932	0.1719	0.14654	0.041118	0.071354	0.28341	0.022232	0.2274	0.18014	-0.060417	-0.91042	-0.95208	-0.11875	-1.2146	-0.75208	-0.6	-1.4417	-0.275	-0.95625	-1.0146	-0.23333	-1.3354	-0.74583	-0.5375	-1.4729	173.632	225.244	131.556	96.768	160.449	123.156	27.215	226.625	46.624	31.237	150.900	187.469	143.343	174.858	50.764	99.034	0.00015987	6.8741e-05	3.5752e-05	180.94	4.0323e-07	7.3133e-07	379.96	53.703	7.948e-07	7.7459e-07	137.17	41.052	15.739	8.3257	9.0473e-07	11.884	4.9653e-06	1.7933e-06	4.3073e-07	153.86	1.4914e-08	1.9012e-08	326.33	46.082	2.8274e-08	1.6774e-08	114.26	34.234	13.244	7.0138	2.3309e-08	9.888	85.292	38.180	41.374	38.065	179.991	187.323	35.456	42.569	179.289	195.009	39.440	45.421	49.150	50.589	148.889	49.355	-8191	255	
3859.797	1	1	0	0	0.048275	0.11378	0.13296	0.06231	0.13547	0.09361	0.16639	0.085343	0.22292	0.12152	0.095769	0.085137	0.44448	0.03685	0.10354	0.22128	-0.00625	-0.76875	-1.1625	-0.2	-1.2563	-0.93958	-0.46875	-1.2375	-0.35833	-0.7875	-1.1854	-0.045833	-1.1354	-0.98333	-0.46667	-1.3271	300.284	33.054	107.966	295.622	212.196	129.008	309.450	243.121	172.813	237.222	189.489	318.777	329.941	50.629	96.015	103.231	0.00014811	0.00014394	5.6771e-05	178.78	6.0541e-07	1.0088e-06	378.2	52.866	1.096e-06	3.9662e-07	135.65	40.62	15.904	8.5267	6.772e-07	12.034	4.4022e-06	2.0256e-06	4.8263e-07	151.76	1.6803e-08	1.854e-08	324.7	45.643	2.8214e-08	1.8448e-08	114.2	34.404	13.259	7.1037	2.808e-08	9.9688	81.155	96.130	102.984	37.904	140.249	154.955	36.354	42.977	172.609	151.767	39.814	44.712	48.677	51.127	108.917	50.217	-8191	255	
3859.918	1	1	0	0	0.099232	0.23307	0.24797	0.14825	0.23213	0.2522	0.11653	0.21668	0.21523	0.21709	0.36377	0.1589	0.17998	0.065515	0.1496	0.15023	-0.1	-0.85417	-0.95833	-0.29583	-1.3188	-0.97917	-0.475	-1.4021	-0.49792	-0.68125	-1.3896	-0.29792	-1.1083	-0.91875	-0.32917	-1.4521	289.826	187.665	371.507	120.343	39.208	364.851	329.097	293.019	176.537	40.693	57.600	198.657	301.159	233.378	347.321	324.109	0.00016323	7.4598e-05	2.8504e-06	174.43	1.0954e-06	2.7089e-07	375.85	53.518	6.982e-07	1.5331e-06	135.89	40.739	15.647	8.408	7.7803e-07	11.863	4.3953e-06	2.1328e-06	3.5558e-07	151.22	1.7976e-08	1.8175e-08	323.78	45.549	2.5747e-08	2.2223e-08	113.82	34.152	13.267	7.0664	2.5467e-08	9.921	89.537	65.306	131.918	38.437	153.763	40.510	35.747	42.438	187.289	139.699	39.933	45.795	49.254	51.746	148.493	49.528	-8191	255	
3860.014	1	1	0	0	0.052284	0.20817	0.13395	0.13404	0.20908	0.20052	0.20899	0.14654	0.12751	0.19943	0.19665	0.3225	0.28538	0.18916	0.22133	0.091437	-0.12917	-0.62917	-1.4937	-0.35	-0.91875	-0.93125	-0.29792	-1.3333	-0.3	-0.53125	-1.1313	-0.23958	-0.96875	-1.0917	-0.21458	-1.1771	55.539	188.538	349.333	315.172	378.974	38.168	31.105	182.104	314.840	59.465	292.689	210.292	262.936	351.469	57.401	352.642	0.00014094	7.7061e-05	4.882e-05	174.85	1.2113e-06	4.8222e-07	375.46	53.403	1.01e-06	5.3252e-07	134.45	40.362	15.816	8.3474	9.3653e-07	11.809	4.398e-06	1.7418e-06	4.9503e-07	150.23	1.8586e-08	1.6196e-08	319.54	45.564	2.5336e-08	2.1127e-08	112.11	33.87	13.195	7.0078	2.6211e-08	9.84	76.665	90.864	55.361	38.248	184.848	141.246	36.214	42.647	188.080	142.473	40.447	46.033	49.410	52.337	154.069	50.245	-8191	255	
3860.110	1	1	0	0	0.1245	0.36327	0.19392	0.16994	0.022764	0.28819	0.072876	0.30987	0.25257	0.11297	0.14222	0.11421	0.084055	0.24246	0.35611	0.2651	-0.3	-0.5625	-1.375	-0.19583	-0.94167	-0.96042	-0.18125	-1.0917	-0.76042	-0.42917	-1.4417	-0.51458	-1.0208	-1.0854	-0.072917	-1.1729	334.149	152.573	223.716	384.447	79.082	119.396	376.270	34.971	68.499	204.801	265.036	337.211	222.573	367.223	30.644	233.424	0.00014111	7.1484e-05	3.0035e-05	172.68	9.3262e-07	3.907e-07	371.82	51.974	5.35e-07	8.255e-07	134.19	39.627	15.637	8.2818	8.571e-07	11.923	4.6488e-06	2.1773e-06	4.2724e-07	148.83	2.0063e-08	1.9241e-08	317.08	44.651	2.1545e-08	2.2908e-08	111.51	33.629	13.048	7.0038	2.7852e-08	9.8367	77.941	39.309	85.718	38.457	202.043	165.512	36.294	42.864	202.158	140.076	39.621	44.777	49.824	51.232	138.535	49.808	-8191	255	
3860.206	1	1	0	0	0.29757	0.39163	0.14622	0.069979	0.025206	0.12341	0.22552	0.29704	0.087432	0.10532	0.19531	0.06997	0.062478	0.28906	0.18927	0.15784	-0.41042	-0.32292	-1.3542	-0.32292	-0.88333	-1.1208	-0.18542	-1.2979	-0.74167	-0.49167	-1.4354	-0.28542	-0.80625	-1.2792	-0.3	-1.25	336.612	105.936	194.701	371.819	68.170	311.252	228.263	334.193	123.150	57.988	326.356	179.364	141.145	91.120	98.087	242.782	0.00017824	8.8947e-05	3.375e-05	173.59	9.3982e-07	1.1623e-06	366.57	52.633	1.1407e-06	6.9084e-07	134.13	40.622	15.351	8.3165	9.4829e-07	12.064	4.5953e-06	2.4889e-06	3.7689e-07	148.31	2.0673e-08	1.8343e-08	316.53	45.224	2.5412e-08	2.1188e-08	112.4	34.036	13.122	7.0471	2.6682e-08	9.9766	81.436	71.128	64.294	37.858	181.925	149.877	35.684	42.843	135.940	148.580	40.042	44.986	48.010	50.671	115.600	49.392	-8191	255	
3860.325	1	1	0	0	0.054319	0.13524	0.17851	0.18383	0.21106	0.33188	0.16344	0.31282	0.30151	0.23786	0.24755	0.10302	0.13842	0.12332	0.091397	0.032225	-0.45417	-0.4875	-1.4562	-0.44375	-0.66458	-1.4583	-0.24375	-1.1521	-0.8375	-0.44583	-1.4062	-0.525	-0.925	-1.2708	-0.14792	-1.3542	177.904	67.845	124.560	137.727	40.285	87.131	301.594	258.520	296.501	328.797	295.912	103.360	285.131	333.363	239.673	118.450	0.00014005	7.4545e-05	3.8011e-05	178.53	7.1161e-07	9.6646e-07	377.09	53.159	4.7186e-07	3.525e-07	135.02	40.687	15.547	8.555	1.2169e-07	12.064	4.1857e-06	2.5418e-06	3.5636e-07	151.18	2.3872e-08	1.7079e-08	323.57	45.702	2.261e-08	2.2238e-08	113.89	34.347	13.233	7.1328	2.6287e-08	9.9686	87.220	65.168	75.976	38.006	159.057	153.183	35.742	42.291	157.045	209.324	39.331	44.656	49.141	50.824	181.932	49.267	-8191	255	
3860.397	1	1	0	0	0.083303	0.36109	0.055202	0.11994	0.049535	0.022069	0.063122	0.33508	0.24988	0.04966	0.30227	0.22125	0.11621	0.052866	0.1563	0.15402	-0.65417	-0.12917	-1.4833	-0.49167	-0.74167	-1.2396	-0.39375	-1.0438	-1.0979	-0.064583	-1.5125	-0.3875	-0.64375	-1.3958	-0.1125	-1.0083	334.442	293.879	172.777	270.954	266.814	160.786	64.691	284.809	176.242	155.868	355.157	343.726	93.443	373.693	286.114	199.255	0.00014481	0.00010373	1.9855e-05	179.54	1.358e-06	5.4708e-07	380.1	53.843	1.0265e-06	9.1127e-07	135.67	40.091	15.823	8.3867	6.9726e-07	12.01	3.9541e-06	2.251e-06	3.8192e-07	152.26	2.346e-08	1.2832e-08	326.08	46.246	2.2199e-08	2.0945e-08	113.85	34.05	13.403	7.0694	2.8035e-08	9.8744	80.622	84.724	125.013	37.014	175.496	203.530	35.350	42.875	187.065	159.874	39.741	45.133	49.686	51.248	156.130	49.219	-8191	255	
3860.495	1	1	0	0	0.135	0.21092	0.11575	0.30903	0.11377	0.21416	0.22798	0.23096	0.06446	0.10907	0.13832	0.09609	0.25052	0.2058	0.16514	0.35401	-0.7	0.022917	-1.4771	-0.6	-0.59167	-1.3854	-0.27083	-0.98542	-0.89792	-0.091667	-1.4646	-0.69583	-0.4625	-1.3979	-0.3	-0.93333	380.925	371.569	363.618	37.214	120.804	199.911	381.554	88.695	156.334	107.500	317.689	292.474	368.775	381.006	92.866	327.256	0.00015334	0.00010889	2.0263e-05	178.87	9.8177e-07	7.178e-07	380.41	53.421	6.372e-07	1.0716e-06	136.96	41.327	15.731	8.4269	1.0592e-06	12.082	3.8664e-06	2.5947e-06	3.1452e-07	153.18	2.4877e-08	1.3471e-08	325.24	45.984	1.99e-08	2.1934e-08	114.22	34.396	13.342	7.0865	2.6773e-08	9.9465	89.555	104.474	48.506	37.822	158.857	178.215	35.926	43.144	179.860	121.912	39.686	44.923	49.895	50.867	166.097	49.658	-8191	255	
3860.614	1	1	0	0	0.15512	0.086275	0.066265	0.10004	0.38311	0.25968	0.10964	0.052752	0.045847	0.092578	0.081793	0.14126	0.12944	0.056418	0.18418	0.30649	-0.85833	-0.058333	-1.1792	-0.76042	-0.40417	-1.1917	-0.42917	-1.0187	-1.1875	-0.10833	-1.5771	-1.0063	-0.56042	-1.5708	-0.35417	-1.1708	94.520	276.219	199.393	311.372	52.967	381.137	137.930	103.042	50.568	65.817	338.762	31.468	70.256	35.374	208.317	324.053	0.00013789	4.8913e-05	1.8718e-05	179.02	8.4536e-07	6.0577e-07	377.7	53.285	3.4766e-07	1.0675e-06	138.23	40.947	15.794	8.4133	7.0407e-07	11.934	3.7514e-06	2.0117e-06	3.6139e-07	153.12	2.634e-08	1.542e-08	325.62	45.995	1.8073e-08	2.2954e-08	114.74	34.259	13.462	7.1459	2.5923e-08	9.9652	99.054	132.983	88.553	37.794	154.904	141.323	35.483	42.943	110.844	124.889	40.143	44.757	48.639	51.665	151.600	50.299	-8191	255	
3860.710	1	1	0	0	0.064588	0.29694	0.084022	0.23074	0.093542	0.20751	0.46036	0.011779	0.31823	0.16401	0.19144	0.10973	0.11468	0.24157	0.17738	0.29522	-1.0604	-0.17708	-1.35	-0.76875	-0.31667	-1.8417	-0.42917	-0.74792	-1.3708	-0.37292	-1.5979	-0.80625	-0.33542	-1.4521	-0.39583	-0.92292	374.847	111.017	281.599	322.220	256.331	349.495	263.014	346.237	225.873	40.065	59.298	163.599	227.841	76.178	194.822	256.713	0.00014622	8.1434e-05	2.2982e-05	177.55	1.0667e-06	6.6449e-07	378.83	53.79	9.2804e-07	9.5107e-07	137.86	40.182	15.717	8.2745	8.4767e-07	11.57	3.9665e-06	2.4889e-06	4.408e-07	152.26	2.6477e-08	1.1919e-08	326.53	46.107	1.7464e-08	2.4689e-08	114.47	34.28	13.387	7.1391	2.6105e-08	9.8818	81.749	136.140	93.540	37.893	161.687	165.798	36.691	44.836	192.220	167.936	40.556	47.297	50.634	53.986	133.798	52.589	-8191	255	
3860.806	1	1	0	0	0.27571	0.17172	0.044894	0.10549	0.29739	0.23642	0.31688	0.37971	0.16983	0.030198	0.30085	0.23002	0.10663	0.18482	0.16195	0.16414	-1.2583	-0.14583	-1.5042	-0.97083	-0.09375	-1.6708	-0.5625	-0.58333	-1.5312	-0.21875	-1.2042	-1.1437	-0.41458	-1.5125	-0.6875	-0.56042	351.557	299.341	51.886	206.193	86.838	135.439	66.990	34.375	56.709	335.142	313.895	296.602	153.063	217.831	89.749	173.134	0.00015092	6.8128e-05	2.1636e-05	172.29	9.4268e-07	8.1863e-07	368.48	51.363	2.8707e-07	7.0064e-07	130.33	38.836	15.121	8.2163	2.0698e-07	11.826	3.9665e-06	2.0312e-06	3.3312e-07	150.72	2.6858e-08	1.1675e-08	322.4	45.067	1.6809e-08	2.026e-08	112.52	33.579	13.209	7.1065	2.0392e-08	9.9179	85.622	53.185	122.402	39.589	172.711	199.547	37.585	45.342	133.669	163.254	42.666	47.465	50.751	53.520	89.749	51.137	-8191	255	
3860.902	1	1	0	0	0.17125	0.18931	0.15215	0.10824	0.048831	0.051171	0.18149	0.1391	0.11575	0.10651	0.25117	0.091749	0.12516	0.11486	0.11945	0.16668	-1.0042	-0.29375	-1.0521	-1.0896	-0.31042	-1.5708	-0.55625	-0.63125	-1.5562	-0.4625	-1.1625	-0.99583	-0.37292	-1.3937	-0.63125	-0.65417	153.067	159.849	345.136	306.930	192.578	51.777	91.671	60.910	169.806	69.609	48.258	124.753	106.733	122.980	273.321	313.132	0.0001613	0.00010788	5.1199e-05	167.34	8.3297e-07	7.4885e-07	364.14	50.12	1.2376e-06	6.6251e-07	130.56	38.734	15.607	8.2374	8.9486e-07	11.625	3.8144e-06	2.1356e-06	4.3576e-07	147.77	2.4466e-08	1.6288e-08	319.57	44.485	1.9246e-08	2.1721e-08	111.84	33.56	13.284	7.0942	1.8872e-08	9.8417	85.571	70.475	83.998	39.439	157.810	153.274	37.459	45.840	157.126	116.041	41.390	46.628	50.433	52.804	145.061	51.457	-8191	255	
3860.998	1	1	0	0	0.21809	0.10111	0.15171	0.21809	0.20188	0.18009	0.16804	0.22499	0.091993	0.20068	0.18035	0.13424	0.12284	0.17524	0.23019	0.079633	-1.0063	-0.34375	-1.2687	-1.125	-0.20417	-1.3208	-0.77292	-0.41042	-1.4979	-0.2625	-1.2333	-1.1521	-0.13542	-1.4396	-0.7625	-0.4	79.106	82.090	172.374	51.430	222.450	274.750	345.010	181.521	345.332	65.167	121.792	338.546	78.339	238.469	107.254	237.946	0.00012311	0.00011017	3.9183e-05	171.75	8.0219e-07	1.0654e-06	363.01	51.375	7.6672e-07	1.2753e-06	131.97	39.303	15.527	8.3022	1.0644e-06	11.72	3.6828e-06	2.1592e-06	4.3615e-07	148.73	2.538e-08	1.4233e-08	317.5	44.562	1.9139e-08	2.4369e-08	111.69	33.64	13.263	7.0709	2.068e-08	9.8663	81.070	77.533	73.716	39.183	159.891	173.421	37.260	45.192	200.070	165.954	41.377	46.530	51.195	52.451	163.475	50.901	-8191	255	
3861.094	1	1	0	0	0.20413	0.32385	0.34949	0.18625	0.4708	0.12907	0.1521	0.17013	0.17371	0.1227	0.15226	0.11647	0.029921	0.15041	0.2583	0.1153	-1.3542	-0.25	-0.93542	-1.0938	-0.14167	-1.5854	-0.89583	-0.39792	-1.7146	-0.19167	-0.7625	-1.3312	-0.13125	-1.5729	-0.95625	-0.35833	247.661	125.063	75.043	382.884	308.048	236.509	277.611	92.727	283.761	172.500	167.395	93.856	210.713	27.647	347.337	124.632	0.00018464	0.00012351	4.6689e-05	172.63	3.2515e-07	1.1721e-06	367.02	51.01	5.0434e-07	1.037e-06	131.82	39.891	15.61	8.4452	6.1087e-07	11.732	4.1706e-06	2.2705e-06	5.1323e-07	147.26	2.605e-08	1.2178e-08	316.37	44.226	1.2714e-08	2.4506e-08	111.45	33.547	13.283	7.117	2.4297e-08	9.814	78.100	67.369	74.226	38.667	145.546	175.269	36.619	43.658	182.500	142.470	40.965	46.122	50.944	52.918	138.463	50.763	-8191	255	
3861.215	1	1	0	0	0.18742	0.16962	0.044523	0.2113	0.21924	0.22756	0.43343	0.24717	0.13167	0.20707	0.28674	0.098818	0.12787	0.070111	0.10061	0.16848	-1.2479	-0.3375	-0.70208	-1.1479	-0.1	-1.3583	-0.89792	-0.46667	-1.3625	-0.68125	-0.74375	-1.4229	-0.23333	-1.0667	-1.0625	-0.39167	32.536	347.243	136.927	29.919	53.384	52.554	278.754	212.181	238.147	265.358	234.145	231.473	92.966	63.811	207.635	334.066	0.00013578	0.00011858	3.0835e-05	169.46	8.6969e-07	1.0219e-06	362.51	51.016	9.3e-07	1.4302e-06	131.2	40.002	15.823	8.1979	5.3712e-07	11.562	3.8747e-06	2.3401e-06	5.1362e-07	145.6	2.5959e-08	1.6836e-08	314.22	43.958	1.8119e-08	2.0305e-08	110.12	33.308	13.277	6.982	2.1744e-08	9.6688	86.287	83.415	80.229	38.741	180.489	187.083	37.215	44.073	195.303	149.915	41.205	45.929	50.631	52.792	125.606	51.206	-8191	255	
3861.310	1	1	0	0	0.2326	0.14207	0.15449	0.19873	0.13754	0.24721	0.13349	0.11006	0.28037	0.093758	0.24507	0.16951	0.090131	0.075064	0.3532	0.20306	-1.1292	-0.45417	-0.51875	-1.7313	-0.20625	-1.0625	-1.1208	-0.16458	-1.4271	-0.50208	-0.5	-1.4813	-0.30833	-1.2625	-1.1021	-0.37083	86.533	216.980	178.506	380.539	361.307	218.993	314.725	257.498	254.255	42.414	67.559	252.437	58.065	381.807	308.061	267.982	0.00014079	0.00013507	1.4797e-05	170.43	1.2899e-06	7.8386e-07	360.61	51.309	5.8881e-07	3.868e-07	131.19	39.242	15.396	8.2938	9.6915e-07	11.706	3.7514e-06	2.1995e-06	3.6991e-07	146.41	2.5989e-08	1.4583e-08	312.78	44.179	1.9885e-08	1.8494e-08	109.71	33.127	13.158	7.055	2.0665e-08	9.7362	89.955	103.263	377.071	38.702	141.388	206.462	37.222	44.903	194.013	102.648	41.024	46.705	49.705	53.621	160.947	51.096	-8191	255	
3861.406	1	1	0	0	0.17747	0.17038	0.077491	0.3012	0.17766	0.092966	0.34245	0.33409	0.091825	0.2608	0.49927	0.1419	0.2451	0.14343	0.01178	0.22527	-1.0396	-0.59792	-0.69167	-1.3979	-0.31667	-1.1458	-1.2458	-0.37083	-1.2604	-0.68958	-0.77292	-1.5688	-0.37708	-0.94792	-1.2167	-0.24375	139.454	51.206	293.257	330.459	174.167	328.177	353.019	324.508	78.192	298.180	358.258	248.876	238.932	156.591	340.000	335.979	0.00015525	6.8058e-05	2.8482e-05	170.75	1.1626e-06	1.3181e-06	361.5	50.477	1.3122e-06	1.0634e-06	131.38	39.086	15.817	8.389	4.2748e-07	11.804	3.7842e-06	1.625e-06	6.2633e-07	146.56	2.4847e-08	1.4491e-08	312.69	43.883	2.0205e-08	2.201e-08	110.16	33.283	13.342	7.0657	1.8918e-08	9.8166	79.523	102.204	68.819	39.212	190.095	174.099	37.026	44.158	167.200	143.344	40.994	46.751	50.056	54.014	140.185	50.591	-8191	255	
3861.502	1	1	0	0	0.027758	0.13683	0.12222	0.12047	0.16902	0.13648	0.11028	0.1381	0.15592	0.14571	0.17481	0.24612	0.15491	0.10015	0.11412	0.063007	-1.0833	-0.55208	-0.40625	-1.7542	-0.28333	-1.2604	-1.275	-0.10833	-1.4354	-0.75417	-0.69583	-1.6229	-0.40833	-0.9	-1.4354	-0.21042	238.308	288.207	108.509	254.070	362.014	226.444	112.779	183.113	291.398	191.949	310.780	59.314	123.281	215.907	296.046	325.502	0.00014082	0.00010348	3.0809e-05	173.79	7.2427e-07	8.9874e-07	369.87	51.31	1.0249e-06	8.4739e-07	131.69	40.357	15.933	8.6177	7.6096e-07	11.937	3.5294e-06	2.4221e-06	5.7947e-07	147.88	2.5761e-08	1.6425e-08	316.67	44.27	1.9611e-08	2.0686e-08	110.93	33.851	13.411	7.2532	1.679e-08	9.9505	85.333	78.646	89.973	39.098	177.230	118.140	37.168	44.594	176.209	128.133	40.798	46.307	49.606	52.949	125.047	50.913	-8191	255	
3861.575	1	1	0	0	0.15629	0.12791	0.19008	0.1008	0.18442	0.045017	0.063924	0.22195	0.056501	0.11099	0.23111	0.097174	0.2348	0.32992	0.20578	0.23387	-1.0312	-0.83958	-0.51042	-1.5792	-0.44792	-0.84375	-1.3646	-0.29792	-1.2167	-0.92917	-0.57292	-1.2062	-0.41458	-0.77917	-1.0979	-0.21042	340.433	160.460	50.924	198.959	136.144	311.507	259.741	56.670	371.617	146.744	318.907	63.814	288.668	276.536	204.796	208.479	0.00018096	0.00010318	2.487e-05	172.68	1.4312e-06	8.9257e-07	373.43	51.966	6.57e-07	1.2648e-06	133.28	39.625	15.995	8.6012	1.0054e-06	11.943	3.9624e-06	1.9714e-06	5.7792e-07	147.44	2.5365e-08	1.886e-08	319.12	44.99	2.1545e-08	1.6987e-08	111.44	33.795	13.55	7.2469	1.9419e-08	9.8796	73.793	85.964	65.445	38.494	175.581	191.285	36.796	44.088	170.336	164.245	40.802	45.524	48.490	52.638	129.732	50.484	-8191	255	
3861.694	1	1	0	0	0.11701	0.15698	0.2026	0.23598	0.071707	0.049121	0.29772	0.038858	0.15792	0.18173	0.05114	0.10469	0.22004	0.043548	0.095593	0.34499	-0.89375	-0.69583	-0.36667	-1.5979	-0.47708	-0.49792	-1.3354	-0.075	-1.1104	-1.0417	-0.21042	-1.3333	-0.48958	-0.62917	-1.3583	-0.2375	317.754	65.398	297.934	81.874	171.635	263.276	349.411	162.999	304.609	291.864	312.063	273.666	383.777	102.117	43.894	299.729	0.00015339	0.00011747	2.2953e-05	172.8	7.8975e-07	1.0537e-06	375.52	52.183	7.0517e-07	1.0384e-06	133.32	40.422	16.127	8.7549	1.0911e-06	11.943	3.9911e-06	2.0702e-06	5.4344e-07	148.56	2.6218e-08	1.9332e-08	319.96	44.681	2.2671e-08	1.3578e-08	111.19	33.62	13.452	7.2863	1.793e-08	9.9036	88.375	92.532	101.924	38.345	162.151	187.633	36.290	43.556	136.658	167.742	40.251	45.272	49.009	52.251	167.095	50.042	-8191	255	
3861.790	1	1	0	0	0.10902	0.17975	0.22137	0.090185	0.36155	0.20192	0.049	0.156	0.21891	0.21916	0.14101	0.094678	0.11134	0.36218	0.065467	0.26541	-0.68542	-0.9875	-0.175	-1.2354	-0.44375	-0.66875	-1.3937	-0.51042	-0.92083	-1.1333	-0.40625	-1.2729	-0.55208	-0.6875	-1.3417	-0.46042	162.046	64.090	311.057	237.959	375.842	298.076	351.735	124.777	121.469	38.775	125.236	215.281	262.653	287.838	286.265	128.411	0.00016581	0.00016204	3.2655e-05	173.88	8.7146e-07	1.121e-06	374.41	51.511	8.6325e-07	8.8095e-07	132.69	39.854	16.112	8.6571	5.9088e-07	12.064	4.1268e-06	2.0131e-06	5.3376e-07	148.48	2.2744e-08	1.6973e-08	318.37	44.526	2.2565e-08	1.4506e-08	111.1	33.733	13.497	7.2984	1.5484e-08	9.941	80.943	90.651	86.508	38.248	170.109	134.126	35.955	43.114	170.844	149.504	39.781	45.149	48.967	52.552	139.589	50.764	-8191	255	
3861.886	1	1	0	0	0.16472	0.26538	0.13271	0.23046	0.18115	0.06716	0.066085	0.24982	0.041761	0.32397	0.12252	0.086035	0.12875	0.065445	0.11294	0.07785	-0.69583	-1.1896	-0.25	-1.2396	-0.59792	-0.40625	-1.3813	-0.31458	-1.0854	-1.1792	-0.48958	-1.2604	-0.42083	-0.33958	-1.0979	-0.425	251.000	194.330	110.942	190.952	287.662	61.037	36.162	316.971	73.470	268.490	137.262	39.029	79.187	29.422	368.015	300.354	0.00013865	0.00010124	4.1966e-05	172.52	1.002e-06	5.335e-07	374.6	51.541	7.1484e-07	6.8593e-07	132.13	40.151	16.172	8.6832	9.0219e-07	12.114	4.2008e-06	1.81e-06	5.8644e-07	148.47	2.0749e-08	2.0808e-08	319.34	44.537	2.2154e-08	1.5282e-08	111.18	33.86	13.545	7.3284	1.714e-08	10.09	83.381	101.426	61.269	38.052	175.766	144.740	35.830	43.207	197.897	156.679	40.060	45.438	48.649	51.900	163.347	48.833	-8191	255	
3862.007	1	1	0	0	0.089042	0.0984	0.079721	0.038826	0.19202	0.16099	0.12852	0.18941	0.19217	0.20659	0.15484	0.075276	0.26748	0.20723	0.098495	0.048191	-0.48333	-0.97292	-0.19792	-1.2604	-0.93333	-0.62708	-1.3146	-0.39375	-0.71458	-1.0958	-0.29792	-1.1667	-0.83125	-0.58958	-1.3	-0.46458	310.029	316.954	83.193	154.277	83.051	310.013	61.887	88.216	309.221	326.551	323.425	45.879	180.579	75.011	30.090	59.716	0.00017648	9.5739e-05	9.2125e-06	173.52	1.2901e-06	9.2857e-07	369.11	51.074	1.1943e-06	1.1083e-06	133	39.806	15.947	8.7723	9.6586e-07	12.094	4.5995e-06	1.7168e-06	4.7333e-07	148.76	2.3735e-08	2.0626e-08	318.19	44.217	2.5838e-08	1.4186e-08	111.07	33.681	13.497	7.3701	1.869e-08	9.9994	77.460	88.914	124.094	38.149	143.288	219.630	35.731	43.043	180.607	187.708	40.247	44.813	49.209	52.035	139.050	49.929	-8191	255	
3862.103	1	1	0	0	0.14755	0.18065	0.16565	0.082147	0.22153	0.18242	0.25254	0.33226	0.16058	0.0968	0.30434	0.12941	0.054185	0.084172	0.13978	0.041221	-0.47292	-1.1542	-0.17292	-1.2146	-0.99792	-0.325	-1.6542	-0.42292	-0.55	-1.2687	-0.18542	-1.3292	-1.0729	-0.32292	-1.15	-0.37083	296.908	77.773	361.770	355.121	334.096	25.063	281.276	303.242	265.170	376.127	279.329	227.412	136.756	48.654	39.005	340.263	0.00015572	0.00012101	3.1864e-05	172.18	6.2715e-07	7.6555e-07	372.26	51.141	1.0866e-06	9.2668e-07	131.64	39.825	15.849	8.6892	1.1393e-06	12.038	4.4241e-06	1.7293e-06	6.3331e-07	147.79	1.9119e-08	2.2315e-08	318.64	44.162	2.4498e-08	1.2268e-08	110.73	33.536	13.437	7.3294	1.717e-08	10.007	79.341	96.965	99.292	38.771	159.127	156.039	35.771	42.712	138.512	173.489	39.449	45.700	48.410	50.942	156.085	49.563	-8191	255	
3862.199	1	1	0	0	0.05251	0.22632	0.061421	0.46498	0.14057	0.27533	0.25408	0.094263	0.1413	0.29149	0.067464	0.10333	0.22454	0.088686	0.20195	0.03811	-0.25417	-1.1083	-0.27917	-0.93333	-1.0271	-0.36667	-1.5646	-0.52917	-0.52083	-1.5021	-0.36458	-0.98333	-0.99792	-0.027083	-1.5771	-0.525	134.330	262.436	145.030	29.268	363.481	344.069	335.519	380.653	256.874	110.064	199.372	248.077	244.633	376.309	305.389	152.979	0.00017305	0.00015327	1.1556e-05	173.02	9.6358e-07	3.3806e-07	368.22	51.098	9.8758e-07	4.4908e-07	132.2	39.866	16.112	8.6847	1.2034e-06	12.109	4.3638e-06	1.618e-06	5.4383e-07	147.8	1.95e-08	1.988e-08	316.18	44.173	2.5168e-08	1.1797e-08	110.73	33.726	13.457	7.3305	1.8477e-08	10.015	84.360	62.599	77.290	38.269	181.244	112.344	35.905	43.324	180.691	146.669	39.497	45.205	48.780	51.626	144.228	49.521	-8191	255	
3862.295	1	1	0	0	0.18305	0.054552	0.19226	0.16578	0.22787	0.31283	0.10695	0.087509	0.21641	0.116	0.23515	0.17094	0.38583	0.11649	0.42181	0.14884	-0.2125	-1.3333	-0.035417	-1.1979	-1.1604	-0.175	-1.7083	-0.425	-0.57917	-1.4125	-0.35208	-1.1167	-1.1833	-0.19792	-1.2687	-0.51042	324.039	151.756	52.299	205.636	212.803	314.211	259.028	179.497	261.882	354.071	67.639	270.189	315.189	270.903	255.920	170.773	0.00016351	5.4269e-05	3.4363e-05	171.53	1.1188e-06	3.8652e-07	369.85	51.349	1.0294e-06	1.2365e-06	132.31	40.384	15.82	9.0011	5.3761e-07	12.133	4.42e-06	1.209e-06	6.1007e-07	147.29	2.0094e-08	2.4036e-08	317.79	44.191	2.5808e-08	1.5739e-08	111.19	33.917	13.485	7.4343	1.9951e-08	10.089	91.874	62.309	91.005	37.767	172.711	187.056	35.787	43.204	157.303	147.301	39.009	45.609	48.346	51.924	137.509	49.274	-8191	255	
3862.390	1	1	0	0	0.17598	0.059928	0.19122	0.20217	0.17872	0.2667	0.18686	0.1419	0.27793	0.080671	0.26165	0.066674	0.17124	0.088363	0.19639	0.18564	-0.047917	-1.4562	-0.14375	-0.86875	-1.0229	-0.27708	-1.2062	-0.68542	-0.37708	-1.3104	-0.49167	-0.71458	-1.0271	-0.41875	-1.1437	-0.75833	346.578	252.590	192.536	70.546	366.708	153.757	295.061	323.026	275.377	123.156	359.572	371.263	354.322	49.054	32.666	331.271	0.00017661	0.0001192	2.2411e-05	171.99	1.0589e-06	3.6607e-07	374.44	52.274	1.1993e-06	1.0686e-06	134.65	40.288	16.304	8.8286	1.3452e-06	12.092	4.8611e-06	1.4594e-06	5.1672e-07	147.96	2.0734e-08	2.1935e-08	320.88	44.815	2.9751e-08	1.2877e-08	112.38	33.907	13.668	7.4445	2.3658e-08	10.078	73.971	94.052	101.229	37.272	181.436	152.105	35.630	42.980	163.128	143.190	39.858	45.019	48.364	51.929	134.744	49.571	-8191	255	
3862.486	1	1	0	0	0.15559	0.17191	0.18965	0.12627	0.074533	0.22755	0.026524	0.097206	0.37126	0.22087	0.19271	0.098368	0.27119	0.1129	0.11375	0.10115	-0.19375	-1.1437	-0.40208	-0.83333	-1.1958	-0.04375	-1.1208	-0.84583	-0.27708	-1.4875	-0.39583	-0.85833	-1.3146	-0.014583	-1.1958	-0.92917	46.963	311.818	56.361	294.128	365.516	137.451	314.748	283.360	28.001	69.714	65.005	84.874	36.488	221.586	339.197	254.037	0.00016585	0.00010354	2.749e-05	171.86	1.3402e-06	3.8739e-07	374.83	53.334	1.2016e-06	1.0522e-06	133.6	40.141	16.297	8.9031	9.6365e-07	12.224	4.7556e-06	1.7516e-06	5.4034e-07	147.66	1.9682e-08	1.8723e-08	321.94	45.541	2.9523e-08	1.5739e-08	112.41	33.823	13.799	7.483	1.7641e-08	10.093	78.675	86.355	74.654	37.876	157.394	127.714	36.368	43.150	179.875	161.360	39.996	45.343	48.398	51.735	120.694	49.665	-8191	255	
3862.584	1	1	0	0	0.25477	0.3115	0.11279	0.28459	0.14942	0.34892	0.12862	0.175	0.24834	0.17409	0.17317	0.30063	0.094142	0.11686	0.20181	0.27434	0.2	-1.3979	-0.37708	-0.65833	-1.2396	-0.095833	-1.1583	-0.85833	-0.28333	-1.2354	-0.56042	-0.48542	-1.4271	-0.064583	-0.74792	-0.9875	64.968	172.234	70.256	356.160	201.475	27.606	299.399	139.572	251.417	282.260	91.544	342.845	146.321	211.249	338.137	261.062	0.0001664	9.5935e-05	2.9778e-05	171.42	3.6829e-07	1.0433e-06	375.97	53.196	1.1002e-06	9.7282e-07	132.83	39.944	16.522	9.0307	7.133e-07	12.415	4.8063e-06	1.5165e-06	5.1129e-07	146.93	1.8083e-08	2.5101e-08	322.78	46.077	2.695e-08	1.2588e-08	111.93	34.027	13.858	7.5723	2.4175e-08	10.3	83.374	87.482	66.658	38.515	140.169	181.091	35.828	42.046	193.877	170.466	39.966	45.632	48.161	52.227	124.730	50.859	-8191	255	
3862.703	1	1	0	0	0.28897	0.15657	0.19435	0.071184	0.17283	0.25021	0.13692	0.10144	0.2109	0.14409	0.1144	0.22571	0.10948	0.10233	0.1654	0.15422	0.08125	-1.4292	-0.66042	-0.65417	-1.4167	-0.13125	-1.1854	-1.1854	-0.14583	-1.3708	-0.52292	-0.46042	-1.6521	-0.19583	-0.95208	-1.2854	136.800	212.230	381.578	290.400	334.297	219.091	118.415	191.100	134.273	318.348	336.932	141.605	131.964	58.957	280.697	280.753	0.00017847	0.00011915	2.2224e-05	173	1.0143e-06	1.0929e-06	376.47	53.411	4.5727e-07	8.873e-07	134.34	40.746	16.64	9.0616	7.9512e-07	12.362	5.0461e-06	1.7864e-06	5.9302e-07	147.33	1.6118e-08	2.2331e-08	322.46	46.302	3.0482e-08	1.5176e-08	112.41	34.362	13.909	7.5909	1.9571e-08	10.251	84.143	65.638	43.054	37.948	159.015	162.819	36.145	42.845	197.433	177.724	39.685	45.762	49.131	51.943	125.373	49.536	-8191	255	
3862.799	1	1	0	0	0.044827	0.24109	0.042656	0.08457	0.18088	0.10621	0.098445	0.052667	0.099854	0.39977	0.24014	0.213	0.20185	0.11251	0.25955	0.11956	0.016667	-1.4917	-0.47708	-0.63125	-1.5271	-0.24167	-1.1021	-1.1854	-0.30417	-1.2771	-0.55833	-0.5625	-1.3896	-0.25625	-0.95208	-1.1354	229.445	64.944	106.600	264.402	264.595	139.998	38.294	341.292	33.533	211.814	383.904	112.427	119.576	161.698	232.499	97.796	0.00013044	8.5432e-05	2.4591e-05	171.17	7.4023e-07	5.4156e-07	373.05	53.109	1.3532e-06	7.276e-07	133.79	40.73	16.574	9.0916	5.9297e-07	12.163	4.8968e-06	1.177e-06	4.5668e-07	146.33	1.6696e-08	2.2894e-08	321.16	45.963	2.9386e-08	1.5267e-08	112.02	34.317	13.805	7.5991	2.065e-08	10.268	84.405	48.783	50.711	38.331	143.642	115.483	36.036	43.444	165.366	180.103	40.587	45.233	48.930	51.892	176.706	49.433	-8191	255	
3862.871	1	1	0	0	0.22728	0.25364	0.10044	0.065743	0.090871	0.08698	0.19975	0.35737	0.16382	0.14762	0.18777	0.19532	0.2132	0.06864	0.08301	0.022943	0.18542	-1.275	-0.71875	-0.42083	-1.2917	-0.31667	-0.90417	-1.2271	-0.26875	-1.3813	-0.77917	-0.38125	-1.3604	-0.41458	-0.625	-1.3229	86.726	134.159	64.078	97.019	366.640	36.519	208.779	350.612	41.075	203.500	166.867	354.902	335.121	260.423	125.262	292.092	0.00014756	3.7629e-05	4.4295e-05	172.1	6.5456e-07	3.6809e-07	373.27	53.783	3.1661e-07	1.7355e-06	133.76	39.61	16.657	8.9556	8.0985e-07	12.23	4.8666e-06	1.4719e-06	5.0471e-07	146.71	1.7275e-08	1.9225e-08	321.92	46.033	2.6082e-08	1.79e-08	111.54	33.704	13.884	7.5526	2.299e-08	10.203	82.310	46.127	99.665	38.654	202.368	137.630	37.051	44.097	185.257	167.186	40.658	46.314	48.338	51.988	140.618	49.456	-8191	255	
3862.991	1	1	0	0	0.16572	0.14674	0.3207	0.19803	0.24777	0.059861	0.037005	0.28617	0.18084	0.24284	0.41574	0.19439	0.085427	0.1406	0.29612	0.17148	0.0625	-1.0146	-0.80208	-0.39792	-1.3062	-0.31458	-0.84167	-1.2479	-0.097917	-1.2354	-0.83958	-0.28958	-1.225	-0.36667	-0.48958	-1.3083	290.699	131.840	31.323	165.701	143.036	280.079	119.218	227.680	377.547	255.500	220.578	328.994	287.615	336.527	233.186	371.952	0.00016427	0.00012366	2.6816e-05	171.01	1.0956e-06	7.9177e-07	371.13	53.271	8.406e-07	1.0412e-06	132.55	39.715	16.484	9.0075	9.0368e-07	12.406	4.8447e-06	1.7293e-06	3.4164e-07	146.28	1.5371e-08	1.883e-08	319.1	45.643	2.9295e-08	1.4993e-08	110.97	33.7	13.869	7.5502	3.0314e-08	10.189	83.944	86.278	73.343	38.676	154.149	174.472	35.996	43.409	173.865	152.183	39.892	45.237	49.051	51.982	125.485	49.327	-8191	255	
3863.087	1	1	0	0	0.37027	0.051402	0.28943	0.39385	0.073955	0.2184	0.11855	0.057865	0.10518	0.4379	0.17788	0.26485	0.22254	0.1489	0.14226	0.06421	0.22917	-1.3104	-0.95208	-0.39167	-1.4021	-0.60417	-0.68542	-1.2771	-0.1375	-1.075	-1.1958	-0.025	-1.4937	-0.61042	-0.61667	-1.5063	158.119	371.938	85.503	318.878	129.959	51.704	52.072	115.165	375.508	143.217	206.142	218.165	360.561	47.102	282.931	280.639	0.00015778	0.00011868	3.582e-05	171.08	1.3865e-06	8.4652e-07	374.39	53.487	1.0431e-06	8.6993e-07	129.12	40.354	16.621	8.9906	8.2843e-07	12.386	4.6077e-06	1.7683e-06	3.8657e-07	146.37	1.755e-08	2.0352e-08	320.63	45.853	2.9797e-08	1.5282e-08	109.67	33.899	13.792	7.5764	2.1896e-08	10.233	87.695	86.213	78.668	38.690	185.417	183.529	36.912	43.760	137.289	185.569	41.906	46.241	50.802	52.450	124.514	50.267	-8191	255	
3863.184	1	1	0	0	0.16778	0.13416	0.1202	0.23807	0.17687	0.13946	0.21526	0.1874	0.18221	0.21156	0.14702	0.14724	0.21814	0.37701	0.059953	0.31978	0.0083333	-1.1708	-1	-0.24167	-1.4688	-0.63958	-0.75417	-1.3458	-0.45	-1.0625	-1.1021	-0.41667	-1.1458	-0.77917	-0.69583	-1.4333	229.357	108.084	156.515	200.786	232.152	337.325	34.954	85.946	269.167	53.224	55.723	243.770	179.007	248.160	355.592	364.989	0.00015581	0.00011541	3.2403e-05	170.6	6.9833e-07	8.7633e-07	369.18	53.046	6.7206e-07	7.4033e-07	131.96	40.014	16.139	8.8035	7.3648e-07	12.446	4.6145e-06	1.6542e-06	3.5984e-07	146.04	1.9012e-08	1.7079e-08	319.55	45.578	2.6143e-08	1.752e-08	110.45	33.791	13.733	7.5476	2.5269e-08	10.264	78.406	91.388	107.717	39.365	170.543	153.060	36.924	44.605	153.068	194.334	40.470	46.225	49.983	53.075	162.884	51.173	-8191	255	
3863.304	1	1	0	0	0.060057	0.17622	0.1635	0.052789	0.35946	0.081681	0.21429	0.1578	0.27337	0.092946	0.12899	0.19888	0.26728	0.28561	0.085306	0.12083	0.070833	-0.86667	-1.2229	-0.14792	-1.3271	-0.82083	-0.54583	-1.575	-0.42917	-0.96042	-1.2771	-0.4125	-1.3375	-0.78125	-0.49792	-1.4188	118.015	211.973	318.611	285.896	369.308	274.760	259.194	50.109	213.717	229.053	273.808	288.109	350.515	338.613	174.474	205.721	0.00014731	0.00014573	3.8276e-05	170.2	8.2263e-07	1.1483e-06	367.24	52.564	9.5371e-07	1.2222e-06	131.41	39.372	16.272	8.7416	5.7367e-07	12.015	4.4748e-06	1.8503e-06	4.3421e-07	145.68	1.8525e-08	1.8358e-08	319.98	45.826	2.5914e-08	1.7185e-08	110.9	33.785	13.779	7.4673	2.5163e-08	10.072	85.813	95.732	87.963	40.091	139.696	191.410	37.903	45.059	173.412	157.899	40.674	47.304	49.935	53.406	174.006	50.686	-8191	255	
3863.399	1	1	0	0	0.22792	0.16969	0.3105	0.18036	0.16585	0.085673	0.19219	0.13244	0.1135	0.38437	0.13519	0.14914	0.1889	0.06888	0.28633	0.24251	0.03125	-0.88333	-1.2646	-0.25417	-1.3979	-1.1187	-0.62917	-1.3667	-0.51875	-0.83542	-1.2604	-0.37292	-1.1167	-0.72708	-0.4125	-1.3062	165.409	277.001	254.930	70.806	106.213	112.700	379.375	327.226	211.724	124.706	338.452	264.040	265.974	70.841	167.632	55.821	0.00015324	9.7934e-05	3.6928e-05	167.44	8.5185e-07	9.7427e-07	367.11	53.258	1.0976e-06	4.7927e-07	131.71	39.493	16.173	8.9424	1.042e-06	12.323	4.5652e-06	1.8782e-06	3.7146e-07	144.95	2.0825e-08	1.4704e-08	317.69	46.137	2.5549e-08	1.7505e-08	111.15	33.826	13.731	7.5776	2.4114e-08	10.233	89.474	102.921	76.505	38.298	135.125	174.672	37.437	44.118	208.763	167.430	40.979	45.775	49.968	53.558	111.854	50.232	-8191	255	
3863.495	1	1	0	0	0.084102	0.14867	0.20746	0.23007	0.35335	0.15842	0.087622	0.24573	0.11383	0.003857	0.13665	0.14715	0.0099496	0.17358	0.16509	0.22118	-0.22917	-0.73958	-1.1854	-0.39375	-1.1458	-0.9	-0.49792	-1.4104	-0.31458	-0.85	-1.4021	-0.31458	-1.0812	-0.9875	-0.36458	-1.4771	119.717	285.676	98.050	103.269	186.402	366.445	129.329	321.370	50.911	251.793	124.115	248.531	48.591	290.545	293.374	264.110	0.00015125	0.00010455	2.702e-05	170.09	1.1566e-06	8.0874e-07	369.54	53.055	5.0285e-07	9.5599e-07	131.38	39.982	16.246	8.8361	6.5472e-07	12.258	4.2939e-06	1.9547e-06	3.9625e-07	145.48	1.822e-08	1.6074e-08	319.42	46.18	2.3676e-08	1.7779e-08	111.09	33.996	13.833	7.5291	2.375e-08	10.246	91.122	105.361	92.384	39.851	176.979	172.363	37.412	43.769	219.625	143.816	40.944	46.052	50.785	52.953	121.391	50.969	-8191	255	
3863.566	1	1	0	0	0.16363	0.16492	0.026342	0.24277	0.18587	0.13128	0.21868	0.16786	0.33071	0.1101	0.1682	0.10829	0.090033	0.20299	0.18638	0.091396	-0.275	-0.54792	-1.4375	-0.24792	-0.97292	-1.0021	-0.1	-1.4271	-0.75208	-0.72708	-1.3521	-0.1875	-1.1271	-1.2833	-0.26042	-1.45	89.280	259.363	92.884	295.102	219.504	377.348	298.186	243.082	285.120	96.395	353.896	205.234	40.315	96.715	55.006	247.661	0.00016763	0.00011382	1.9211e-05	167.91	1.2824e-06	9.4037e-07	369.02	54.271	1.2972e-06	1.6464e-06	131.73	40.317	16.308	8.8267	5.6672e-07	12.308	4.5323e-06	2.0201e-06	3.6914e-07	144.64	1.8768e-08	1.7018e-08	320.39	46.558	2.7665e-08	2.3502e-08	111.54	34.32	13.916	7.4995	2.381e-08	10.268	77.757	79.744	78.548	38.716	138.611	160.748	38.453	44.327	167.406	144.945	40.993	46.496	50.122	52.954	119.761	51.314	-8191	255	
3863.664	1	1	0	0	0.27908	0.18584	0.40275	0.090699	0.20414	0.13996	0.10445	0.13362	0.019621	0.06845	0.32553	0.21052	0.049718	0.20852	0.15354	0.20713	-0.2875	-0.525	-1.5354	-0.31042	-1.0083	-1.2833	-0.3875	-1.6021	-0.56875	-0.56458	-1.5646	-0.36667	-0.92292	-1.1771	-0.21667	-1.3229	124.454	95.695	325.089	191.817	298.107	334.984	233.669	284.557	180.810	335.549	369.172	268.952	355.513	383.272	234.676	284.857	0.00016141	8.7651e-05	4.1516e-05	169.32	1.1665e-06	1.2973e-06	366.25	52.682	2.0117e-07	8.1092e-07	130.76	40.547	16.199	8.8022	1.1847e-06	12.16	4.4803e-06	2.2315e-06	3.7185e-07	144.08	1.5859e-08	1.2315e-08	317.6	45.884	1.9855e-08	1.9697e-08	110.77	34.06	13.756	7.4468	2.5087e-08	10.172	80.259	78.003	62.978	39.733	153.989	155.230	37.831	43.849	178.495	201.292	41.950	46.851	50.834	52.095	180.051	50.802	-8191	255	
3863.783	1	1	0	0	0.11491	0.0642	0.095771	0.14386	0.18048	0.16897	0.21637	0.11741	0.18862	0.084478	0.08775	0.15833	0.24512	0.06041	0.20532	0.056745	-0.39792	-0.52292	-1.3104	-0.36042	-0.86042	-1.1562	-0.25833	-1.3354	-0.825	-0.30833	-1.5438	-0.29167	-0.88125	-1.3438	-0.15833	-1.3833	151.662	188.836	218.828	333.131	342.104	378.866	246.178	338.391	365.616	41.624	240.720	235.693	120.256	179.180	239.623	344.955	0.00015568	0.00011574	2.0485e-05	163.98	1.1759e-06	1.1497e-06	369.4	52.343	1.4124e-07	4.0684e-07	131.34	40.542	16.618	8.8623	5.7896e-07	12.142	4.5145e-06	2.4597e-06	2.6029e-07	142.54	2.1206e-08	1.6805e-08	316.41	45.444	2.5184e-08	1.9773e-08	110.17	33.944	13.881	7.4703	2.7169e-08	10.219	83.133	59.470	105.149	38.145	171.720	154.076	36.544	44.458	128.283	159.777	41.234	46.523	51.008	52.981	152.751	50.943	-8191	255	
3863.879	1	1	0	0	0.06894	0.20748	0.078807	0.044396	0.038914	0.28035	0.22015	0.12364	0.055221	0.07256	0.15117	0.066801	0.12096	0.24039	0.11411	0.032209	-0.39167	-0.41875	-1.4333	-0.375	-0.66042	-1.2125	-0.26667	-1.225	-0.92708	-0.59375	-1.1375	-0.56875	-0.8125	-1.4042	-0.4	-1.2542	207.518	235.351	219.464	273.197	231.520	174.655	43.045	167.254	100.247	152.674	315.569	136.628	116.426	42.530	202.081	284.501	0.00016353	0.00010152	2.602e-05	164.16	1.1602e-06	1.2884e-06	364.03	53.099	1.0288e-06	1.2086e-06	130.95	39.626	16.254	8.8819	7.8015e-07	12.29	4.4707e-06	1.8531e-06	3.2963e-07	141.63	2.3658e-08	1.5359e-08	314.42	45.455	2.121e-08	2.0838e-08	109.44	33.865	13.717	7.4726	2.5695e-08	10.2	80.516	67.838	76.226	38.806	188.259	151.526	37.182	43.330	178.487	171.984	40.574	46.053	50.211	53.230	86.514	50.871	-8191	255	
3863.975	1	1	0	0	0.095205	0.18989	0.11198	0.088074	0.025991	0.191	0.036934	0.22139	0.28343	0.28006	0.16442	0.10536	0.22405	0.22746	0.065259	0.16277	-0.56667	-0.525	-1.2812	-0.53542	-0.82708	-1.2146	-0.61667	-0.93333	-1.1583	-0.50833	-1.3104	-0.54375	-0.68333	-1.2125	-0.34583	-1.1375	182.736	327.325	315.806	229.625	67.576	108.848	48.575	251.192	69.180	144.090	303.819	167.624	84.661	274.075	310.057	139.561	0.00016741	0.00016565	3.1045e-05	166.91	8.4383e-07	8.5198e-07	366.12	52.522	6.5549e-07	6.7602e-07	131.03	40.796	16.282	9.0981	6.1354e-07	12.249	4.2542e-06	2.1912e-06	3.6255e-07	142.15	2.0276e-08	1.5481e-08	316.36	45.237	2.0875e-08	2.128e-08	109.72	34.09	13.828	7.5427	2.6941e-08	10.207	81.961	73.758	69.933	39.339	153.496	171.264	37.116	44.079	142.434	168.423	40.919	46.678	50.315	52.897	148.546	50.561	-8191	255	
3864.096	1	1	0	0	0.19475	0.53318	0.036663	0.12379	0.058676	0.037998	0.31907	0.25392	0.21154	0.30914	0.31834	0.12572	0.080599	0.31219	0.31548	0.13409	-0.72083	-0.44583	-1.0958	-0.6625	-0.56458	-1.0729	-0.30833	-0.92292	-1.0542	-0.05625	-1.4229	-0.66875	-0.56667	-1.3917	-0.34167	-1.2104	76.916	261.398	155.299	110.215	120.420	73.076	353.077	380.845	105.133	151.567	62.945	245.195	163.568	276.852	157.904	224.580	0.00014213	0.00012351	3.4897e-05	162.97	1.5885e-06	4.6544e-07	367.39	52.415	8.8116e-07	1.1136e-06	131.3	40.031	16.096	8.7924	5.4776e-07	12.194	4.3583e-06	2.2357e-06	4.0826e-07	140.76	2.3719e-08	1.6409e-08	314.55	44.991	1.7951e-08	2.3426e-08	109.32	33.599	13.633	7.4428	2.2078e-08	10.173	83.426	103.188	89.877	38.192	182.509	115.672	36.086	42.998	137.149	162.508	39.967	44.935	49.244	52.049	157.375	49.593	-8191	255	
3864.168	1	1	0	0	0.092305	0.24714	0.10844	0.020904	0.028172	0.22244	0.31562	0.13775	0.027522	0.20827	0.30079	0.03253	0.29117	0.085102	0.078213	0.050305	-0.55625	-0.20625	-1.1104	-0.77083	-0.49167	-1.3896	-0.28333	-1.1187	-1.2771	-0.23542	-1.2104	-0.83958	-0.39167	-1.25	-0.36042	-0.77083	37.552	261.289	105.601	198.904	352.544	107.476	148.149	317.531	210.056	228.120	64.729	285.448	261.654	259.987	347.734	333.420	0.00013516	0.00012542	3.4877e-05	163.79	8.87e-07	2.6456e-07	365.33	52.94	7.7627e-07	5.7015e-07	131.24	39.763	16.046	8.9469	5.0626e-07	12.269	3.8363e-06	2.1787e-06	3.4474e-07	141.38	2.0109e-08	1.2375e-08	314.6	45.416	1.9246e-08	2.3228e-08	109.13	33.692	13.659	7.4868	2.2625e-08	10.175	81.581	104.523	128.507	37.978	179.362	190.308	36.387	43.463	174.679	177.501	39.942	45.293	49.069	52.007	83.627	49.942	-8191	255	
3864.264	1	1	0	0	0.14768	0.27163	0.10112	0.28366	0.27135	0.1257	0.2149	0.16687	0.19114	0.4229	0.40144	0.26421	0.1917	0.17724	0.22561	0.27363	-0.70833	-0.066667	-1.2563	-0.59583	-0.4	-1.7062	-0.38333	-0.82292	-1.2417	-0.19792	-1.3958	-0.71667	-0.32917	-1.5042	-0.44792	-0.74792	73.097	304.279	61.327	333.645	259.604	225.795	268.781	112.604	88.792	166.733	297.805	305.467	299.174	327.769	204.608	192.778	0.0001687	0.00012563	4.3327e-05	165.77	6.4264e-07	9.8405e-07	363.9	52.602	1.1564e-06	5.5275e-07	130.06	39.792	16.455	8.8895	6.7291e-07	12.322	4.3021e-06	2.3442e-06	4.1058e-07	141.19	2.5654e-08	1.0777e-08	313.54	45.22	1.9931e-08	2.1356e-08	109.37	33.724	13.786	7.4615	2.1151e-08	10.189	86.558	77.287	115.223	37.330	133.252	158.922	35.982	43.522	171.393	108.870	40.368	45.516	48.768	51.622	129.179	49.721	-8191	255	
3864.385	1	1	0	0	0.19153	0.11698	0.077025	0.31242	0.21892	0.37812	0.12441	0.34634	0.18259	0.061308	0.20102	0.20927	0.20136	0.25965	0.092432	0.097897	-1.0104	-0.32708	-1.1667	-0.79375	-0.39792	-1.4208	-0.29375	-0.78542	-1.1792	-0.2125	-1.3208	-0.99792	-0.32917	-1.5167	-0.37292	-0.54167	113.875	334.913	283.502	302.553	108.884	149.146	252.301	316.831	247.086	330.773	301.021	63.375	253.086	89.862	215.827	380.839	0.00017106	5.4693e-05	2.2844e-05	163.26	6.8811e-07	1.1925e-06	366.67	53.396	9.4642e-07	1.2058e-06	131.45	40.667	16.237	8.9261	1.0258e-06	12.389	4.2103e-06	1.9185e-06	3.916e-07	140.65	2.5715e-08	1.4857e-08	316.59	45.79	1.923e-08	2.268e-08	110.22	34.178	13.864	7.5538	2.4904e-08	10.336	74.322	100.672	75.134	37.380	154.262	176.021	36.019	43.427	165.157	143.796	41.100	44.770	49.227	52.385	149.800	49.822	-8191	255	
3864.479	1	1	0	0	0.19267	0.23628	0.30962	0.023792	0.19952	0.21573	0.10027	0.15707	0.26571	0.23198	0.2276	0.13051	0.27512	0.085003	0.50905	0.038165	-1.1104	-0.28125	-0.97917	-1.025	-0.24583	-1.325	-0.525	-0.61458	-1.5146	-0.2875	-1.2938	-0.87083	-0.34375	-1.5688	-0.46875	-0.59375	319.462	52.775	206.504	314.691	235.220	182.246	227.974	238.073	76.638	173.375	116.838	184.301	355.210	195.010	208.032	38.517	0.00017942	0.00011881	2.7305e-05	165.9	1.5193e-06	6.3548e-07	367.04	53.257	8.8686e-07	1.066e-06	132.5	40.74	16.34	8.8875	8.5992e-07	12.405	4.2158e-06	2.2246e-06	3.4706e-07	141.84	2.8808e-08	1.3152e-08	316.16	46.407	1.8499e-08	2.44e-08	110.97	34.304	13.889	7.499	2.3218e-08	10.251	75.768	68.416	122.484	37.660	170.918	155.949	36.356	43.548	136.887	165.232	40.560	45.627	49.834	52.498	133.113	50.257	-8191	255	
3864.575	1	1	0	0	0.26852	0.30471	0.28463	0.20285	0.20867	0.25672	0.24557	0.10989	0.014306	0.033461	0.080494	0.31157	0.17299	0.057445	0.24089	0.0054356	-1.1458	-0.18333	-1.0146	-1.0625	-0.089583	-1.5729	-0.64583	-0.45625	-1.55	-0.25	-1.1021	-1.1562	-0.041667	-1.4167	-0.6375	-0.5625	204.815	146.880	222.693	342.355	101.438	121.355	116.465	194.743	195.606	160.407	149.821	341.230	117.269	45.476	129.379	135.458	0.0001554	0.00010374	2.535e-05	166.45	1.228e-06	9.8599e-07	367.12	54.397	6.8872e-07	9.0739e-07	130.63	40.82	16.818	9.0299	9.4373e-07	12.393	3.839e-06	2.4263e-06	4.7992e-07	141.81	2.9082e-08	1.4293e-08	316.43	46.607	2.0387e-08	1.9834e-08	110.61	34.257	14	7.5209	2.5284e-08	10.266	72.492	100.406	104.539	37.919	153.630	192.425	36.142	43.420	174.678	142.302	40.548	45.559	49.080	52.900	139.391	50.946	-8191	255	
3864.696	1	1	0	0	0.096664	0.28513	0.11055	0.1789	0.23659	0.11023	0.060358	0.088593	0.051477	0.21803	0.13603	0.28124	0.35961	0.50635	0.23548	0.088706	-1.1938	-0.25625	-0.97292	-1.2542	-0.1125	-1.2938	-0.92083	-0.52708	-1.5896	-0.51875	-0.7875	-1.2	-0.38125	-1.2979	-0.75833	-0.49167	175.274	350.888	339.215	336.532	30.515	91.254	292.227	95.141	197.632	107.681	103.362	88.710	233.627	29.840	134.173	198.368	0.00014642	0.00012411	1.0686e-05	167.02	6.1093e-07	9.3032e-07	368.56	54.458	1.1361e-06	7.1248e-07	130.4	40.64	16.805	8.9619	8.9935e-07	12.482	3.6308e-06	2.3095e-06	3.1607e-07	142.67	2.3156e-08	1.5298e-08	316.38	46.614	1.7144e-08	2.0397e-08	109.84	34.054	13.955	7.5021	2.571e-08	10.292	84.388	105.704	131.501	38.264	129.225	181.945	36.453	43.257	185.096	137.187	40.568	45.152	49.673	52.276	155.457	50.813	-8191	255	
3864.767	1	1	0	0	0.10888	0.11088	0.17976	0.2768	0.15731	0.14465	0.21462	0.15761	0.081013	0.1472	0.10336	0.24079	0.15397	0.096416	0.11941	0.080379	-0.92917	-0.31042	-0.7875	-1.1583	-0.25208	-1.1833	-0.95208	-0.52292	-1.3354	-0.31458	-0.775	-1.3042	-0.29167	-1.3417	-0.89375	-0.24375	81.908	253.126	134.533	255.593	90.283	177.003	142.497	70.486	296.267	79.891	332.234	156.737	316.002	121.002	63.229	113.033	0.00015641	7.2565e-05	3.4202e-05	164.35	5.7772e-07	8.7675e-07	368.74	53.144	1.0461e-06	6.3397e-07	132.94	40.954	16.663	8.972	7.6727e-07	12.542	3.8034e-06	1.7613e-06	4.5203e-07	141.27	2.2683e-08	1.3882e-08	316.53	46.119	1.7936e-08	1.755e-08	110.69	34.389	13.988	7.553	1.8021e-08	10.389	85.024	107.854	126.888	38.229	204.767	167.391	36.408	43.189	162.324	172.659	40.701	45.509	48.788	52.965	113.099	50.193	-8191	255	
3864.864	1	1	0	0	0.27609	0.11508	0.1271	0.36294	0.18597	0.26381	0.1718	0.1893	0.058148	0.045665	0.11098	0.18689	0.15508	0.090852	0.17474	0.034343	-1.2479	-0.55625	-0.62708	-1.3604	-0.22292	-1.0375	-1.1187	-0.47708	-1.4375	-0.50833	-0.55	-1.4083	-0.29375	-1.0333	-1.0104	-0.066667	217.225	336.482	345.685	120.487	360.525	235.740	376.387	304.971	35.810	327.724	137.224	263.734	359.321	70.885	135.137	259.980	0.00017464	0.00013355	4.5525e-05	164.76	6.0772e-07	8.302e-07	368.6	53.66	1.8526e-06	1.0979e-06	130.95	40.727	16.453	8.9928	5.9624e-07	12.254	4.3761e-06	2.219e-06	4.9154e-07	140.78	2.1967e-08	1.5496e-08	315.34	46.172	2.2443e-08	1.959e-08	109.75	34.169	13.848	7.4933	1.9282e-08	10.286	80.975	74.901	77.328	38.887	168.188	158.889	36.061	43.674	153.336	152.701	40.687	45.969	49.799	53.583	135.251	49.888	-8191	255	
3864.960	1	1	0	0	0.059515	0.2064	0.14982	0.15792	0.057122	0.098803	0.13051	0.29708	0.24859	0.12058	0.28218	0.19648	0.17705	0.14048	0.13935	0.16301	-1.0792	-0.5375	-0.53125	-1.2875	-0.27083	-0.97083	-1.0458	-0.2625	-1.425	-0.56458	-0.5625	-1.4688	-0.45417	-1.0979	-1.1542	-0.37292	371.021	140.428	201.509	358.351	266.694	44.246	194.243	310.065	89.983	91.484	41.064	95.679	331.260	237.916	161.890	106.681	0.00016358	0.00010594	3.0255e-05	163.58	8.0581e-07	8.866e-07	364.82	53.057	6.8683e-07	1.1562e-06	128.62	40.45	16.242	8.9791	7.21e-07	12.211	4.1076e-06	2.0883e-06	5.6978e-07	140.19	2.4862e-08	1.5755e-08	313.44	45.704	1.7464e-08	1.959e-08	108.3	34.15	13.692	7.4915	1.9282e-08	10.183	77.555	97.495	131.837	38.618	178.810	167.513	35.690	42.564	200.761	188.904	39.852	45.096	48.827	51.643	220.131	49.340	-8191	255	
3865.079	1	1	0	0	0.070592	0.24566	0.19172	0.49155	0.24755	0.19762	0.27064	0.39712	0.3074	0.37418	0.04587	0.21464	0.17056	0.31666	0.14311	0.14426	-0.93542	-0.64375	-0.67917	-1.3	-0.44375	-1.1812	-1.0417	-0.29167	-1.2396	-0.74375	-0.33958	-1.6729	-0.22292	-1.0042	-1.2938	-0.36042	179.111	363.266	194.559	41.073	301.820	88.256	152.306	352.795	221.841	67.463	38.242	243.448	247.820	70.111	373.711	179.268	0.00014292	6.6478e-05	3.5526e-05	162.57	8.3325e-07	5.3294e-07	363.42	52.259	8.6179e-07	5.869e-07	130.42	40.648	16.297	8.95	1.1833e-06	12.286	3.7185e-06	1.8211e-06	5.264e-07	139.33	2.3186e-08	1.6927e-08	312.11	45.509	2.0387e-08	1.7246e-08	109.31	34.177	13.733	7.499	2.0331e-08	10.257	88.221	373.471	92.775	38.527	138.573	135.530	36.296	43.151	197.304	217.332	41.509	45.768	49.298	51.270	138.494	50.702	-8191	255	
3865.175	1	1	0	0	0.14227	0.24576	0.070225	0.21732	0.0812	0.28912	0.39228	0.15628	0.12967	0.34776	0.067763	0.11736	0.3581	0.30398	0.22675	0.059147	-1.1458	-0.85208	-0.41042	-1.4146	-0.40833	-0.71667	-1.5187	-0.22708	-1.2354	-0.82083	-0.64792	-1.4	-0.28958	-0.81875	-1.4979	-0.27917	197.186	341.043	139.400	66.265	27.865	113.468	334.250	380.000	226.539	167.115	294.297	362.704	82.701	298.119	374.368	90.525	0.00016968	2.8214e-05	3.7612e-05	163.47	9.958e-07	1.1399e-06	370.03	54.041	8.4138e-07	8.3417e-07	131	40.789	16.334	8.8091	8.6712e-07	12.362	4.3323e-06	1.8378e-06	5.5235e-07	139.74	2.6324e-08	1.9104e-08	315.93	46.31	2.1134e-08	1.7839e-08	110.05	34.312	13.886	7.5052	1.9769e-08	10.383	77.730	59.523	68.820	38.768	162.310	182.796	36.467	44.127	157.942	155.756	40.866	46.124	47.971	51.965	143.478	50.761	-8191	255	
3865.271	1	1	0	0	0.071708	0.24765	0.23239	0.071041	0.1383	0.068975	0.10931	0.11111	0.01013	0.39943	0.060938	0.020197	0.23085	0.20966	0.086603	0.26543	-1.175	-0.81875	-0.37083	-1.4167	-0.37708	-0.84792	-1.4229	-0.27708	-0.98125	-1.0438	-0.25833	-1.45	-0.41042	-0.72917	-1.5438	-0.26042	254.274	337.422	123.273	224.776	356.089	230.098	373.272	254.772	64.610	118.837	311.241	343.694	282.403	308.572	209.680	99.787	0.00017612	0.00013052	3.1867e-05	164.53	8.5242e-07	7.6308e-07	373.24	53.552	5.635e-07	6.0436e-07	132.67	40.562	16.4	8.9967	9.3189e-07	12.417	4.509e-06	1.8517e-06	5.1982e-07	140.65	2.4268e-08	1.6851e-08	317.46	46.396	1.7769e-08	1.8403e-08	111.71	34.264	13.844	7.5377	1.7337e-08	10.317	85.731	90.529	116.451	38.620	164.211	155.962	35.662	43.625	166.206	175.071	39.765	45.012	49.418	51.193	136.835	49.516	-8191	255	
3865.367	1	1	0	0	0.17187	0.2096	0.1322	0.16198	0.097445	0.15063	0.10598	0.063895	0.19781	0.16636	0.17436	0.20501	0.069027	0.16597	0.18948	0.17067	-0.75625	-0.79583	-0.2375	-1.3458	-0.43542	-0.37917	-1.3062	-0.3625	-1.1146	-1.1708	0.0020833	-1.5083	-0.29583	-0.52292	-1.4646	-0.29375	289.747	248.099	239.194	377.158	193.882	94.657	52.631	48.258	382.594	326.652	217.832	292.121	233.966	161.635	48.226	320.247	0.00016	0.00010757	3.3195e-05	166.74	6.543e-07	9.1542e-07	374.85	55.903	9.4241e-07	9.4343e-07	131.39	40.743	16.6	8.979	8.0512e-07	12.35	4.3816e-06	1.6013e-06	6.8134e-07	142.39	2.343e-08	2.0169e-08	320.33	47.217	2.4118e-08	1.6637e-08	111	34.211	13.929	7.5635	1.6912e-08	10.251	80.841	96.562	108.590	37.569	214.978	154.025	35.576	42.674	168.720	175.500	40.204	45.458	47.940	52.558	133.412	50.790	-8191	255	
3865.463	1	1	0	0	0.15013	0.21744	0.20238	0.17042	0.2106	0.33787	0.33455	0.10243	0.22913	0.34391	0.05282	0.22652	0.19122	0.049706	0.3294	0.16997	-0.70833	-0.92292	-0.15	-1.3958	-0.58333	-0.54375	-1.4458	-0.3875	-0.9125	-1.2542	-0.26042	-1.2792	-0.74583	-0.48958	-1.3917	-0.46042	227.985	341.815	133.326	380.297	135.154	241.123	349.094	352.778	219.008	232.213	175.508	196.957	326.854	82.099	49.106	331.339	0.00016338	0.00010162	2.5245e-05	166.96	6.6048e-07	7.2298e-07	369.04	54.655	8.9619e-07	8.1572e-07	133.15	41.191	16.665	8.887	7.4738e-07	12.585	4.3131e-06	1.7071e-06	6.1433e-07	142.18	2.3826e-08	1.5466e-08	318.58	46.901	2.2123e-08	1.4004e-08	111.5	34.605	13.981	7.5292	1.6699e-08	10.406	78.901	90.528	76.927	38.429	130.853	187.097	36.449	43.159	194.384	163.128	41.190	45.992	49.893	52.559	171.625	50.883	-8191	255	
3865.559	1	1	0	0	0.015071	0.20466	0.17802	0.047379	0.25015	0.095796	0.33717	0.24109	0.039004	0.21645	0.13742	0.37706	0.25601	0.49512	0.058596	0.15539	-0.54375	-1.2583	-0.2	-1.2625	-0.78125	-0.42917	-1.3292	-0.2375	-0.92083	-1.1958	-0.12917	-1.2208	-0.91042	-0.34167	-1.5063	-0.25417	110.359	214.793	385.596	271.128	111.401	295.984	97.741	292.607	77.797	301.159	292.522	127.759	277.760	271.322	384.472	30.492	0.00014643	0.00011699	3.9769e-05	167.62	9.7115e-07	9.2178e-07	371.07	55.288	6.0515e-07	6.1961e-07	133.11	41.117	16.668	8.91	1.0382e-06	12.396	4.2925e-06	1.7307e-06	6.2246e-07	141.93	2.4024e-08	2.2985e-08	318.3	47.14	2.4483e-08	1.5693e-08	111.21	34.575	14.039	7.5486	1.5408e-08	10.432	80.249	84.765	91.364	38.898	168.095	180.527	37.095	43.694	175.042	151.394	41.220	46.488	48.639	53.595	170.681	51.242	-8191	255	
3865.656	1	1	0	0	0.089621	0.19233	0.20997	0.036414	0.10632	0.27246	0.16428	0.19241	0.25738	0.028989	0.040498	0.12124	0.17689	0.17797	0.10947	0.33014	-0.32083	-1.4083	-0.125	-1.3542	-1.0104	-0.24167	-1.7458	-0.22083	-0.67083	-1.7396	-0.079167	-1.1833	-0.8125	-0.18125	-1.6042	-0.60208	78.472	311.228	30.608	338.850	117.127	98.382	321.928	322.398	303.040	62.415	231.141	274.243	270.874	182.089	74.533	55.945	0.00016635	0.00013144	3.1634e-05	164.22	6.4373e-07	7.4557e-07	370.13	54.456	5.9029e-07	9.0419e-07	130.52	40.253	16.421	8.7174	1.139e-06	12.261	4.1775e-06	1.1756e-06	6.151e-07	140.89	1.563e-08	2.2118e-08	318.58	46.792	2.6843e-08	1.5785e-08	110.45	34.299	13.894	7.5315	1.755e-08	10.3	79.675	95.431	112.676	39.763	135.264	175.282	36.891	43.908	217.919	155.326	41.206	46.555	49.991	53.206	148.535	51.534	-8191	255	
#DATA ENDS
