BOXY.EXE: ISS Imagent and Oximeter Data Acquisition Program Version 0.80
Ascii Record File

#ACQ INFORMATION
2  Detector Channels 
16  External MUX Channels 
1  Auxiliary Channels 
5000  Waveform (CCF) Frequency (Hz)
1  Waveforms Skipped 
30  Waveforms Averaged 
1  Cycles Averaged 
16  Acquisitions per Waveform 
10.0806  Updata Rate (Hz) 

#FILE INFORMATION
TRUE -- External MUX Channel results are PARSED.
FALSE -- AC DC and Phase are NOT grouped.
TRUE -- Companion Program Settings File CREATED.
FALSE -- AC data not excluded
FALSE -- DC data not excluded
FALSE -- Phase data not excluded
FALSE -- Auxillary Chn. data not excluded
Tab delimiters

#CALIBRATION STATE
TRUE -- Waveform Calibration Values APPLIED.


#AUX CALIBRATION VALUES
Val Type	aux-1	

Term	1.0000e+00	
Factor	0.0000e+00	


#WF CALIBRATION VALUES
A = Detector Channel
Val Type	A-AC1	A-AC2	A-AC3	A-AC4	A-AC5	A-AC6	A-AC7	A-AC8	A-AC9	A-AC10	A-AC11	A-AC12	A-AC13	A-AC14	A-AC15	A-AC16	A-DC1	A-DC2	A-DC3	A-DC4	A-DC5	A-DC6	A-DC7	A-DC8	A-DC9	A-DC10	A-DC11	A-DC12	A-DC13	A-DC14	A-DC15	A-DC16	A-Ph1	A-Ph2	A-Ph3	A-Ph4	A-Ph5	A-Ph6	A-Ph7	A-Ph8	A-Ph9	A-Ph10	A-Ph11	A-Ph12	A-Ph13	A-Ph14	A-Ph15	A-Ph16	

Term	0.00000e+00	0.00000e+00	0.00000e+00	0.00000e+00	0.00000e+00	0.00000e+00	0.00000e+00	0.00000e+00	0.00000e+00	0.00000e+00	0.00000e+00	0.00000e+00	0.00000e+00	0.00000e+00	0.00000e+00	0.00000e+00	0.00000e+00	0.00000e+00	0.00000e+00	0.00000e+00	0.00000e+00	0.00000e+00	0.00000e+00	0.00000e+00	0.00000e+00	0.00000e+00	0.00000e+00	0.00000e+00	0.00000e+00	0.00000e+00	0.00000e+00	0.00000e+00	0.00000e+00	0.00000e+00	0.00000e+00	0.00000e+00	0.00000e+00	0.00000e+00	0.00000e+00	0.00000e+00	0.00000e+00	0.00000e+00	0.00000e+00	0.00000e+00	0.00000e+00	0.00000e+00	0.00000e+00	0.00000e+00	
Factor	1.00000e+00	1.00000e+00	1.00000e+00	1.00000e+00	1.00000e+00	1.00000e+00	1.00000e+00	1.00000e+00	1.00000e+00	1.00000e+00	1.00000e+00	1.00000e+00	1.00000e+00	1.00000e+00	1.00000e+00	1.00000e+00	1.00000e+00	1.00000e+00	1.00000e+00	1.00000e+00	1.00000e+00	1.00000e+00	1.00000e+00	1.00000e+00	1.00000e+00	1.00000e+00	1.00000e+00	1.00000e+00	1.00000e+00	1.00000e+00	1.00000e+00	1.00000e+00	X	X	X	X	X	X	X	X	X	X	X	X	X	X	X	X	

B = Detector Channel
Val Type	B-AC1	B-AC2	B-AC3	B-AC4	B-AC5	B-AC6	B-AC7	B-AC8	B-AC9	B-AC10	B-AC11	B-AC12	B-AC13	B-AC14	B-AC15	B-AC16	B-DC1	B-DC2	B-DC3	B-DC4	B-DC5	B-DC6	B-DC7	B-DC8	B-DC9	B-DC10	B-DC11	B-DC12	B-DC13	B-DC14	B-DC15	B-DC16	B-Ph1	B-Ph2	B-Ph3	B-Ph4	B-Ph5	B-Ph6	B-Ph7	B-Ph8	B-Ph9	B-Ph10	B-Ph11	B-Ph12	B-Ph13	B-Ph14	B-Ph15	B-Ph16	

Term	0.00000e+00	0.00000e+00	0.00000e+00	0.00000e+00	0.00000e+00	0.00000e+00	0.00000e+00	0.00000e+00	0.00000e+00	0.00000e+00	0.00000e+00	0.00000e+00	0.00000e+00	0.00000e+00	0.00000e+00	0.00000e+00	0.00000e+00	0.00000e+00	0.00000e+00	0.00000e+00	0.00000e+00	0.00000e+00	0.00000e+00	0.00000e+00	0.00000e+00	0.00000e+00	0.00000e+00	0.00000e+00	0.00000e+00	0.00000e+00	0.00000e+00	0.00000e+00	-1.89397e+02	-1.65226e+02	-1.57126e+02	-1.83573e+02	-7.86518e+01	-6.98634e+01	-1.59024e+02	-1.62015e+02	-7.23741e+01	-8.28070e+01	-1.70632e+02	-1.70941e+02	-1.78840e+02	-1.76518e+02	-1.05877e+02	-1.49938e+02	
Factor	3.42563e-05	9.17672e-05	3.45975e-05	1.69658e-01	8.77912e-07	9.10906e-07	1.63438e-01	4.72968e-02	9.51688e-07	1.02407e-06	8.13686e-02	2.67452e-02	2.20867e-02	8.52368e-03	9.30633e-07	1.22118e-02	6.57652e-07	6.67795e-07	1.85925e-07	8.48753e-02	7.31233e-09	7.30656e-09	7.73714e-02	2.37719e-02	7.30843e-09	7.30628e-09	3.87263e-02	1.27484e-02	1.10087e-02	4.19686e-03	7.29356e-09	5.76721e-03	X	X	X	X	X	X	X	X	X	X	X	X	X	X	X	X	



#DISTANCE SETTINGS
A = Detector Channel
A-1	A-2	A-3	A-4	A-5	A-6	A-7	A-8	A-9	A-10	A-11	A-12	A-13	A-14	A-15	A-16	

2.5000e+00	3.0000e+00	2.5000e+00	3.0000e+00	2.0000e+00	3.0000e+00	1.5000e+00	3.0000e+00	3.0000e+00	3.0000e+00	3.0000e+00	3.0000e+00	3.0000e+00	3.0000e+00	1.5000e+00	3.0000e+00	

B = Detector Channel
B-1	B-2	B-3	B-4	B-5	B-6	B-7	B-8	B-9	B-10	B-11	B-12	B-13	B-14	B-15	B-16	

1.0000e+01	1.0000e+01	1.0000e+01	1.4400e+00	1.0000e+01	1.0000e+01	1.5100e+00	1.9400e+00	1.0000e+01	1.0000e+01	1.9900e+00	2.4900e+00	2.4100e+00	2.9000e+00	1.0000e+01	2.9800e+00	




#DATA BEGINS
time	group	step	mark	flag	A-AC1	A-AC2	A-AC3	A-AC4	A-AC5	A-AC6	A-AC7	A-AC8	A-AC9	A-AC10	A-AC11	A-AC12	A-AC13	A-AC14	A-AC15	A-AC16	A-DC1	A-DC2	A-DC3	A-DC4	A-DC5	A-DC6	A-DC7	A-DC8	A-DC9	A-DC10	A-DC11	A-DC12	A-DC13	A-DC14	A-DC15	A-DC16	A-Ph1	A-Ph2	A-Ph3	A-Ph4	A-Ph5	A-Ph6	A-Ph7	A-Ph8	A-Ph9	A-Ph10	A-Ph11	A-Ph12	A-Ph13	A-Ph14	A-Ph15	A-Ph16	B-AC1	B-AC2	B-AC3	B-AC4	B-AC5	B-AC6	B-AC7	B-AC8	B-AC9	B-AC10	B-AC11	B-AC12	B-AC13	B-AC14	B-AC15	B-AC16	B-DC1	B-DC2	B-DC3	B-DC4	B-DC5	B-DC6	B-DC7	B-DC8	B-DC9	B-DC10	B-DC11	B-DC12	B-DC13	B-DC14	B-DC15	B-DC16	B-Ph1	B-Ph2	B-Ph3	B-Ph4	B-Ph5	B-Ph6	B-Ph7	B-Ph8	B-Ph9	B-Ph10	B-Ph11	B-Ph12	B-Ph13	B-Ph14	B-Ph15	B-Ph16	aux-1	digaux	

3788.926	1	1	0	256	0.07525	0.10421	0.08084	0.17493	0.088644	0.40122	0.10994	0.23989	0.098264	0.20294	0.12936	0.1899	0.057629	0.25702	0.22258	0.091515	-0.6375	-1.2938	-0.50208	-1.5083	-0.91667	-0.5375	-1.4958	-0.52083	-0.7	-1.2563	-0.34583	-1.1896	-1.0521	-0.81667	-1.3792	-0.63542	338.437	409.875	190.014	397.123	229.700	327.962	255.852	409.084	273.113	243.859	233.515	181.453	234.014	184.497	243.455	453.035	0.00014511	6.4174e-05	4.3883e-06	126.65	5.0743e-07	1.3969e-07	250.61	31.005	5.2096e-07	6.8162e-07	75.026	28.522	10.443	4.1705	6.9012e-07	7.8346	3.9487e-06	1.6653e-06	6.0503e-07	108.01	2.0901e-08	2.1326e-08	216.54	26.361	2.4346e-08	1.1827e-08	63.502	23.781	8.8244	3.5017	1.8781e-08	6.5995	499.632	202.228	524.267	186.753	339.896	417.659	185.223	193.170	344.345	324.453	190.858	195.336	196.916	202.245	289.797	199.237	-8191	255	
3789.022	1	1	0	0	0.20862	0.046593	0.29067	0.10941	0.14838	0.11288	0.13958	0.16065	0.1251	0.12293	0.096227	0.2471	0.062204	0.28453	0.15119	0.033244	-0.5125	-1.3583	-0.55833	-1.2292	-0.87708	-0.41875	-1.3271	-0.64375	-0.67708	-1.5312	-0.26458	-1.0646	-1.1542	-0.48125	-1.4792	-0.78333	503.594	313.987	260.334	385.956	410.090	262.345	363.710	387.354	232.071	218.402	331.055	359.601	516.199	321.119	297.059	446.282	0.0001479	6.8123e-05	1.0149e-05	123.52	3.9285e-07	7.4278e-07	251.22	30.547	4.8077e-07	7.3212e-07	80.722	28.137	10.164	4.5799	5.2514e-07	7.6237	3.8349e-06	1.7377e-06	5.477e-07	106.29	1.9515e-08	2.1844e-08	218.15	26.323	2.0875e-08	1.4491e-08	67.83	24.183	8.686	3.8962	1.524e-08	6.4355	509.859	218.543	188.699	186.606	363.374	354.478	185.344	193.479	287.025	300.105	190.209	195.576	197.068	202.158	255.196	199.812	-8191	255	
3789.094	1	1	0	0	0.10102	0.030458	0.082735	0.16485	0.36112	0.020403	0.054098	0.13607	0.18937	0.15621	0.06966	0.31605	0.20541	0.2927	0.20719	0.11912	-0.21667	-1.2729	-0.39792	-1.125	-1.0667	-0.30625	-1.45	-0.73542	-0.56458	-1.3125	-0.57917	-1.0208	-1.1833	-0.25833	-1.3062	-0.72083	473.831	339.932	290.821	213.243	474.704	294.300	206.554	445.161	514.642	307.347	484.030	290.981	485.155	473.273	527.636	435.206	0.00016431	7.4884e-05	3.0355e-05	122.9	6.9412e-07	5.5006e-07	256.26	29.358	5.4798e-07	6.5037e-07	86.612	28.682	10.281	5.0216	8.2058e-07	7.8159	4.3939e-06	1.5596e-06	5.4073e-07	105.47	2.1008e-08	2.1448e-08	222.17	25.359	2.2854e-08	1.5632e-08	73.962	24.578	8.8424	4.2633	1.7489e-08	6.554	503.535	225.661	193.830	187.710	260.298	298.810	185.602	193.942	298.768	313.802	190.194	195.769	198.977	202.666	290.108	201.448	-8191	255	
3789.214	1	1	0	0	0.47826	0.072689	0.11255	0.11355	0.15373	0.19558	0.08333	0.23229	0.14012	0.36497	0.17826	0.25919	0.15703	0.10586	0.32566	0.17752	-0.31667	-1.4813	-0.37292	-1.1375	-1.2604	-0.28125	-1.3854	-0.9625	-0.58542	-1.5292	-0.47292	-1.1917	-1.2708	0.097917	-1.3917	-0.90208	285.630	282.318	487.516	199.668	509.148	295.486	358.932	440.577	227.207	304.901	527.551	319.392	207.005	421.716	398.224	473.856	0.000154	9.3185e-05	2.2739e-05	123.47	3.708e-07	1.7886e-07	262.5	29.35	2.6886e-07	7.7442e-07	90.534	30.121	10.782	5.4498	2.7532e-07	7.9483	4.2994e-06	1.8267e-06	5.4073e-07	106.73	1.6453e-08	2.7217e-08	228.61	25.445	2.5184e-08	1.3867e-08	76.583	25.421	9.1974	4.669	2.1972e-08	6.6871	503.491	271.070	279.938	186.986	352.203	373.957	185.752	194.618	283.477	329.824	190.089	195.221	199.144	202.459	184.313	200.003	-8191	255	
3789.309	1	1	0	0	0.20099	0.2704	0.12048	0.12362	0.099883	0.3276	0.14449	0.25721	0.17732	0.21501	0.07531	0.32642	0.1587	0.084085	0.064991	0.31488	0.064583	-1.7542	-0.40625	-0.90833	-1.4104	-0.19792	-1.4646	-0.92292	-0.59583	-1.6021	-0.26458	-0.89167	-1.4583	-0.18958	-1.2708	-1.0979	238.032	445.726	467.941	369.705	318.490	354.476	185.334	470.480	465.045	383.102	438.892	283.320	517.339	325.851	181.454	390.693	0.00012964	0.00013738	2.1208e-05	121.42	3.1451e-07	3.5948e-07	260.68	29.089	5.0395e-07	2.6826e-07	89.046	29.91	10.987	5.5953	3.6345e-07	7.9452	4.4008e-06	1.9825e-06	5.9302e-07	105.57	2.0155e-08	2.5177e-08	227.48	25.456	2.6858e-08	1.6302e-08	75.79	25.431	9.4216	4.7801	2.3704e-08	6.7275	511.768	231.479	240.916	187.167	314.640	329.931	185.130	194.906	295.310	310.285	189.918	195.505	198.668	202.040	223.124	199.660	-8191	255	
3789.407	1	1	0	0	0.15432	0.20157	0.24308	0.24028	0.26073	0.2095	0.18563	0.17259	0.072342	0.1737	0.1378	0.24347	0.14815	0.14675	0.092033	0.059247	0.16667	-1.5688	-0.42083	-0.91667	-1.4979	-0.066667	-1.4979	-1.1167	-0.51042	-1.7792	-0.55417	-0.8125	-1.4125	-0.32708	-1.6521	-1.1354	345.029	255.209	282.416	227.255	367.326	408.491	405.974	376.310	273.140	316.340	401.894	523.250	380.659	513.684	405.334	497.220	0.00016677	3.7191e-05	3.2724e-05	122.79	2.4166e-07	1.4221e-07	263.08	28.809	6.017e-07	1.0365e-06	90.062	29.993	11.075	5.6262	8.0386e-07	7.8319	4.9351e-06	1.938e-06	6.275e-07	106.45	1.6788e-08	2.7734e-08	228.91	25.061	2.8351e-08	1.819e-08	76.124	25.43	9.2904	4.8067	2.1987e-08	6.612	505.426	203.096	261.242	187.722	299.452	364.964	185.667	194.647	324.668	303.466	190.439	195.293	197.695	202.365	283.725	199.984	-8191	255	
3789.525	1	1	0	0	0.17307	0.13238	0.26912	0.18005	0.33262	0.094751	0.10584	0.35758	0.18641	0.11456	0.18596	0.028556	0.32087	0.17018	0.25191	0.14216	0.34583	-1.8	-0.49167	-0.77917	-1.5812	-0.28125	-1.3687	-1.2583	-0.17292	-1.4667	-0.49167	-0.66875	-1.6167	-0.3875	-1.1104	-1.0979	416.236	275.078	387.130	267.692	389.592	488.862	339.537	313.064	246.056	415.660	227.142	189.736	233.499	288.103	242.510	232.825	0.00015566	5.2637e-05	5.0555e-05	129.44	6.4107e-07	5.1005e-07	262.93	29.36	1.0435e-06	3.4458e-07	88.141	30.603	10.694	5.4811	7.1404e-07	7.9382	4.7447e-06	1.8893e-06	7.0961e-07	111.1	2.1952e-08	3.0292e-08	228.67	25.15	3.6329e-08	1.6728e-08	75.053	25.719	9.043	4.6498	2.1805e-08	6.6718	500.067	240.513	260.189	188.041	275.189	299.854	185.599	195.032	304.368	293.061	189.757	195.022	198.030	202.546	272.131	200.049	-8191	255	
3789.622	1	1	0	0	0.16459	0.35286	0.18002	0.09435	0.21743	0.24731	0.19948	0.23067	0.17615	0.17864	0.38779	0.14165	0.049425	0.16268	0.31038	0.32753	0.19583	-1.5167	-0.65208	-0.74375	-1.5875	-0.42708	-1.1667	-1.2354	-0.49375	-1.4229	-0.67083	-0.47292	-1.6458	-0.32917	-1.075	-1.2604	396.823	356.878	422.287	419.147	425.978	407.930	453.965	222.185	502.123	195.311	505.215	349.168	329.715	433.974	212.942	349.869	0.00013707	2.8476e-05	1.5035e-05	128.92	1.0512e-06	4.6326e-07	264.79	29.237	6.9232e-07	1.0076e-06	89.07	30.602	10.968	5.4805	7.3373e-07	8.279	4.6885e-06	2.315e-06	6.306e-07	110.88	1.822e-08	2.4523e-08	230.31	25.137	2.7361e-08	1.8844e-08	75.714	25.89	9.243	4.7327	2.3947e-08	6.8476	503.408	246.634	185.798	186.688	320.977	337.694	185.464	194.960	235.744	334.482	189.752	195.706	199.016	201.753	281.364	199.381	-8191	255	
3789.693	1	1	0	0	0.18179	0.12283	0.1052	0.093841	0.27854	0.24548	0.13168	0.10678	0.088381	0.2233	0.19239	0.25913	0.17351	0.1624	0.15685	0.066472	0.21667	-1.4792	-0.86875	-0.5125	-1.6479	-0.49375	-1.0083	-1.1875	-0.45208	-1.3375	-1.0562	-0.53958	-1.3062	-0.29167	-0.83333	-1.4375	536.335	230.338	340.501	317.823	380.605	266.634	527.297	332.777	231.479	447.438	442.982	492.906	320.286	294.194	250.701	438.252	0.00014988	0.00011537	6.0497e-06	131.59	8.1627e-07	3.8776e-07	270.55	30.485	5.7188e-07	2.5605e-07	90.844	31.316	11.046	5.7454	7.0457e-07	8.2742	4.8337e-06	2.0396e-06	5.694e-07	112.34	1.9058e-08	2.4599e-08	232.78	25.761	2.9584e-08	2.0549e-08	76.189	26.372	9.3658	4.8343	2.5573e-08	6.9091	500.846	242.460	266.800	187.683	322.139	260.920	185.014	195.487	285.940	347.108	189.386	195.045	198.186	203.142	275.162	201.076	-8191	255	
3789.814	1	1	0	0	0.041968	0.30585	0.33312	0.21606	0.18819	0.17525	0.20364	0.32857	0.08763	0.043791	0.079518	0.17824	0.15618	0.20002	0.30253	0.31126	0.15208	-1.3771	-0.80833	-0.38125	-1.3958	-0.38333	-0.92083	-1.5042	-0.18125	-1.5167	-0.96042	-0.30208	-1.5396	-0.22708	-0.81458	-1.7979	396.696	221.255	325.773	299.148	328.662	525.408	534.610	396.657	254.205	284.430	215.322	421.196	235.297	447.907	347.385	481.895	0.0001538	5.7937e-05	3.3736e-05	134.48	1.0235e-06	3.5868e-07	272.57	31.212	4.8812e-07	1.0813e-06	90.664	31.991	11.055	5.3894	9.9159e-07	8.3161	5.0557e-06	2.1036e-06	5.4344e-07	115.57	2.0505e-08	2.5482e-08	234.95	26.545	3.3725e-08	1.6378e-08	76.769	26.925	9.5531	4.5875	2.6318e-08	7.031	499.004	294.646	237.566	187.209	295.461	312.155	185.793	194.246	313.990	328.962	189.976	194.936	197.999	202.180	310.079	200.061	-8191	255	
3789.910	1	1	0	0	0.31071	0.35222	0.12494	0.26111	0.2538	0.17426	0.20373	0.16064	0.141	0.21606	0.2802	0.14922	0.18507	0.10004	0.14921	0.43827	0.36458	-1.6229	-1.0625	-0.066667	-1.7146	-0.45833	-0.66667	-1.8417	-0.34792	-1.2042	-1.0479	-0.27917	-1.45	-0.66458	-0.66458	-1.5375	429.659	188.237	272.317	217.579	535.564	527.249	403.755	265.268	411.815	206.311	524.059	390.386	523.534	428.814	376.919	445.697	0.00017666	6.3021e-05	1.4142e-05	132.73	7.8984e-08	4.7158e-07	264.72	32.453	4.2706e-07	1.398e-06	88.361	32.796	11.458	5.0901	3.2172e-07	8.2321	5.4448e-06	1.7724e-06	4.7682e-07	116.39	1.8372e-08	2.7674e-08	230.98	28.145	3.2446e-08	2.201e-08	74.36	27.696	9.8464	4.3193	2.3978e-08	6.9667	498.910	200.988	237.701	188.411	367.631	346.676	186.164	194.502	263.446	305.594	190.093	194.698	197.861	201.192	269.485	199.206	-8191	255	
3790.006	1	1	0	0	0.20112	0.34495	0.09784	0.20083	0.11324	0.16935	0.15374	0.098563	0.14174	0.16716	0.20174	0.13139	0.16819	0.1312	0.12325	0.16215	0.11875	-1.0271	-1.0104	-0.49167	-1.65	-0.51458	-0.59167	-1.425	-0.50833	-0.93958	-1.1604	-0.21875	-1.4458	-0.86042	-0.6125	-1.5479	361.778	483.537	365.868	466.475	235.831	397.448	351.134	254.623	236.942	193.734	222.966	273.014	186.666	280.991	218.598	358.440	0.00013761	2.2396e-05	1.9629e-05	133.15	8.0364e-07	2.8269e-07	267.4	33.416	2.7656e-07	7.0202e-07	87.125	32.327	11.589	4.9359	9.7199e-07	8.1393	4.9584e-06	1.9742e-06	4.9193e-07	115.27	1.9408e-08	2.3198e-08	231.2	28.881	2.9203e-08	1.9362e-08	74.15	27.308	9.8305	4.1602	2.887e-08	6.8238	507.476	491.319	212.957	187.553	284.497	302.537	186.211	194.430	259.556	294.475	190.243	195.186	198.903	201.280	282.660	200.043	-8191	255	
3790.127	1	1	0	0	0.30986	0.28116	0.15399	0.22246	0.29983	0.24941	0.044816	0.14728	0.034738	0.226	0.12688	0.091604	0.16537	0.32121	0.16025	0.14627	0.13125	-1.0812	-1.2625	-0.27708	-1.4833	-0.82708	-0.62917	-1.4167	-0.55417	-0.93333	-1.4354	-0.16875	-1.1812	-0.91667	-0.53125	-1.6063	259.206	217.581	472.147	438.489	209.375	362.073	192.181	507.822	186.781	417.542	402.375	373.227	199.908	390.512	296.576	477.342	0.0001579	3.5847e-05	2.0771e-05	129.92	4.5336e-07	1.251e-06	259.77	31.602	7.1156e-07	1.1218e-06	86.069	30.517	10.744	4.6987	4.3629e-07	7.7957	4.6693e-06	2.2761e-06	5.2911e-07	112.49	2.0475e-08	2.265e-08	227.52	27.519	2.8503e-08	1.9818e-08	73.637	25.883	9.1642	4.0046	2.8126e-08	6.5337	498.523	225.167	307.195	186.892	355.903	297.203	185.554	193.507	295.408	344.715	190.561	194.468	198.430	201.358	352.562	200.267	-8191	255	
3790.223	1	1	0	0	0.077063	0.062184	0.084056	0.33761	0.047909	0.29026	0.33966	0.15347	0.16199	0.2059	0.1977	0.12828	0.20926	0.13857	0.37097	0.17974	-0.17917	-0.83333	-1.1646	-0.28542	-1.2042	-0.65625	-0.47708	-1.3729	-0.49375	-0.72292	-1.3646	-0.36458	-1.4	-0.94375	-0.50417	-1.2375	424.660	300.671	238.791	229.138	285.400	384.452	432.330	529.551	231.610	414.805	363.363	439.780	525.542	229.283	274.257	182.893	0.00016246	2.8912e-05	1.9457e-05	124.15	1.2524e-06	2.8882e-07	256.49	31.553	4.4386e-07	4.0726e-07	86.762	29.968	10.494	4.4642	7.4779e-07	7.5608	4.5309e-06	2.3804e-06	4.865e-07	107.38	2.244e-08	1.9971e-08	222.3	27.008	2.9386e-08	2.3913e-08	72.981	25.336	8.9499	3.8184	2.9174e-08	6.3557	499.810	321.798	247.352	187.622	321.235	280.599	186.061	193.616	354.002	369.328	189.580	195.237	198.524	201.113	297.477	199.690	-8191	255	
3790.317	1	1	0	0	0.060915	0.2019	0.023442	0.4559	0.036949	0.091841	0.078371	0.13254	0.076645	0.19913	0.14775	0.22168	0.13986	0.052437	0.033349	0.20516	0.00625	-0.59792	-1.3188	-0.25417	-1.1083	-0.99792	-0.44792	-1.6646	-0.41042	-0.80833	-1.5063	-0.14583	-1.2479	-0.99167	-0.15208	-1.6187	286.103	305.344	471.068	225.629	396.687	216.403	178.621	444.266	276.791	227.223	203.674	328.291	375.109	190.596	243.079	339.570	0.00014068	8.6735e-05	1.0518e-05	121.95	3.7893e-07	3.866e-07	255.47	30.58	8.9605e-07	6.5852e-07	85.596	29.713	10.358	4.4917	2.5172e-07	7.6603	4.1596e-06	2.2343e-06	4.2995e-07	105.19	2.2257e-08	1.9545e-08	221.89	26.84	2.5488e-08	2.0792e-08	72.61	25.397	8.8173	3.8082	2.7791e-08	6.4322	497.040	227.232	281.541	187.401	311.605	311.889	186.137	194.187	340.124	328.877	190.367	194.779	198.822	202.054	256.588	200.102	-8191	255	
3790.391	1	1	0	0	0.1316	0.26091	0.36896	0.06095	0.36801	0.11113	0.23838	0.10506	0.027011	0.19333	0.22202	0.30835	0.081431	0.31468	0.30212	0.11203	-0.10417	-0.74375	-1.6958	-0.10625	-1.4104	-1.3438	-0.19583	-1.7021	-0.58542	-0.67083	-1.6271	-0.38125	-1.2188	-1.1292	-0.34792	-1.3875	346.124	421.339	455.117	395.010	501.704	272.001	354.087	180.850	423.903	321.154	497.693	404.520	466.857	513.661	505.074	535.437	0.00016485	9.9779e-05	2.6429e-05	121.88	8.9222e-07	5.644e-07	257.86	31.888	1.4566e-07	6.1477e-07	86.357	29.964	10.62	4.6044	9.8361e-07	8.0035	4.3323e-06	2.2413e-06	3.5984e-07	105.73	2.2881e-08	1.6683e-08	225.57	27.365	2.5808e-08	2.5816e-08	73.359	25.631	8.9499	3.8968	2.6758e-08	6.6699	499.328	243.053	279.603	187.640	286.094	275.097	185.813	194.452	294.354	322.756	190.496	195.622	198.392	201.557	229.081	199.626	-8191	255	
3790.510	1	1	0	0	0.097801	0.16128	0.22625	0.1534	0.081901	0.28617	0.19543	0.11753	0.32702	0.11093	0.18053	0.32749	0.034103	0.39885	0.177	0.2226	-0.4375	-0.62917	-1.5375	-0.51875	-1.1021	-1.3625	-0.28958	-1.4125	-0.74792	-0.44792	-1.4104	-0.49167	-1.075	-1.1771	-0.24167	-1.3312	289.435	202.483	403.155	246.190	248.371	424.322	353.867	190.056	183.782	430.844	455.029	483.767	531.023	453.634	490.733	465.192	0.00017337	4.1723e-05	2.3784e-05	128.17	1.009e-06	2.453e-07	266.75	32.402	5.6285e-07	6.8626e-07	87.955	31.081	10.382	4.713	7.5817e-07	7.8933	3.9802e-06	1.9352e-06	4.377e-07	109.21	2.1221e-08	1.7658e-08	232.03	28.119	2.424e-08	2.4628e-08	75.437	26.3	9.0528	4.0012	2.6394e-08	6.7322	501.965	238.603	222.528	187.326	308.491	342.569	186.035	194.867	271.926	322.313	190.595	195.005	199.609	200.482	248.630	199.887	-8191	255	
3790.606	1	1	0	0	0.18021	0.17777	0.10933	0.15586	0.14757	0.23103	0.14463	0.22557	0.026272	0.17872	0.36376	0.1156	0.11529	0.28889	0.20889	0.37032	-0.60417	-0.41042	-1.4167	-0.29167	-1.0167	-1.2958	-0.33958	-1.3208	-0.875	-0.40833	-1.4438	-0.49167	-0.85833	-1.3104	-0.37083	-1.325	429.684	231.049	479.909	343.047	213.556	184.518	484.453	267.531	191.282	382.123	424.790	449.666	478.088	446.300	432.018	339.793	0.00014725	6.0941e-05	3.9945e-05	128.35	7.1691e-07	7.6546e-08	275.54	33.159	6.7779e-07	7.4394e-07	91.034	31.312	10.884	4.8149	1.1996e-06	8.2902	4.3556e-06	2.0841e-06	3.9935e-07	111.41	2.2592e-08	1.4978e-08	240.45	28.742	2.3098e-08	2.3745e-08	77.168	26.832	9.2505	4.0412	2.9524e-08	6.9098	502.352	266.012	234.367	187.909	299.275	301.326	186.450	195.156	316.460	233.926	189.448	194.866	198.090	201.636	324.567	200.959	-8191	255	
3790.702	1	1	0	0	0.050588	0.17306	0.0040412	0.13144	0.15148	0.22112	0.26533	0.28543	0.18684	0.051471	0.10768	0.23417	0.074228	0.15706	0.2446	0.090087	-0.63958	-0.39167	-1.4396	-0.42292	-0.8625	-1.2771	-0.46042	-1.2729	-0.93958	-0.58542	-1.4958	-0.59792	-0.60625	-1.4146	-0.17708	-1.3396	211.032	531.891	241.739	507.460	372.087	248.056	498.422	513.171	297.175	365.427	222.322	327.534	349.526	220.884	251.959	235.855	0.0001566	5.0149e-05	1.4236e-05	129.2	8.6049e-07	6.5851e-07	277.79	33.333	7.1265e-07	3.1427e-07	91.084	31.857	11.107	4.9439	1.5439e-07	8.4979	4.0281e-06	2.2816e-06	3.5713e-07	112.94	2.634e-08	1.7521e-08	243.55	29.252	2.1347e-08	2.1858e-08	77.983	27.19	9.4567	4.1221	2.7396e-08	7.0801	503.773	300.775	292.698	186.899	301.650	302.247	186.354	195.269	315.772	355.659	189.920	195.014	197.501	201.738	191.586	199.832	-8191	255	
3790.798	1	1	0	0	0.15321	0.10478	0.10146	0.18535	0.090235	0.4219	0.20937	0.2891	0.074533	0.3401	0.12517	0.081032	0.076365	0.24951	0.12393	0.14575	-0.72917	-0.46458	-1.5688	-0.62917	-0.84583	-1.4021	-0.65	-1.1313	-1.1938	-0.23333	-1.5104	-0.57292	-0.67292	-1.45	-0.35417	-1.1646	474.544	218.502	296.600	325.653	251.363	487.980	453.364	352.452	318.733	288.073	329.485	355.569	341.238	341.749	393.346	511.071	0.00016554	8.6982e-05	2.3443e-05	134.95	4.5191e-07	9.2598e-07	288.26	34.807	7.7783e-07	6.0137e-07	95.604	32.35	11.341	4.9662	9.6801e-07	8.4958	4.2514e-06	2.194e-06	4.6675e-07	116.8	2.3689e-08	1.8586e-08	250.16	29.852	2.1743e-08	2.6196e-08	79.545	27.4	9.486	4.2123	2.8263e-08	7.0692	502.972	213.509	255.302	186.878	289.582	301.401	185.182	194.533	266.794	311.009	189.728	194.177	198.568	200.364	283.231	199.424	-8191	255	
3790.919	1	1	0	0	0.14812	0.12896	0.14053	0.34332	0.29176	0.13845	0.111	0.027016	0.28288	0.16775	0.26492	0.22409	0.17043	0.14488	0.07547	0.30487	-0.72083	-0.085417	-1.2958	-0.66042	-0.59375	-1.3646	-0.29792	-1.0938	-1.25	-0.3125	-1.4729	-0.61875	-0.37292	-1.4562	-0.12708	-0.95417	427.933	193.045	394.906	462.345	422.660	385.180	319.758	252.139	479.781	404.348	261.116	486.543	469.845	239.916	294.476	433.324	0.00013246	9.8051e-05	3.468e-05	135.94	9.9211e-07	3.7827e-07	289.28	34.532	7.9649e-07	1.1691e-07	94.581	32.105	11.292	4.9415	6.2803e-07	8.6058	3.8158e-06	2.5849e-06	3.5984e-07	117.19	2.5852e-08	1.679e-08	249.47	29.883	2.2138e-08	2.4004e-08	79.874	27.143	9.4401	4.1687	2.8126e-08	7.062	499.699	253.814	211.885	187.069	300.719	359.997	185.072	194.160	309.211	487.610	189.949	194.741	197.935	201.291	253.479	199.821	-8191	255	
3790.990	1	1	0	0	0.17088	0.028499	0.23804	0.11081	0.12762	0.16749	0.13769	0.20513	0.075174	0.12067	0.21427	0.12427	0.073703	0.13235	0.054908	0.36239	-0.86458	-0.095833	-1.4937	-0.76042	-0.3	-1.4854	-0.26458	-1.0187	-1.3125	0.041667	-1.7333	-0.89167	-0.30417	-1.5479	-0.42708	-1.0104	484.021	314.418	244.954	450.857	458.643	394.538	395.432	317.543	229.384	286.985	484.202	196.390	272.102	456.599	411.590	188.032	0.00012452	4.261e-05	3.6865e-05	138.43	5.7528e-07	5.4492e-07	285.5	34.424	7.1194e-07	3.4911e-07	94.247	32.295	11.013	5.1542	1.0522e-06	8.3634	3.3266e-06	2.3943e-06	4.5242e-07	117.2	2.5121e-08	1.5511e-08	247.35	29.644	1.8256e-08	2.6774e-08	79.283	27.238	9.3752	4.2421	2.3658e-08	7.0431	509.248	227.844	234.273	187.353	301.318	298.503	184.921	195.317	279.294	301.546	190.222	194.573	198.350	202.296	262.086	200.050	-8191	255	
3791.087	1	1	0	0	0.12891	0.040562	0.26302	0.32541	0.073602	0.10016	0.22736	0.074805	0.041448	0.06715	0.061308	0.16642	0.14516	0.094419	0.16306	0.249	-0.86875	-0.18958	-1.1688	-0.70833	-0.47292	-1.55	-0.38958	-0.99375	-1.3396	-0.35625	-1.2625	-0.80625	-0.37292	-1.4562	-0.5	-0.76458	283.313	198.380	230.673	370.108	481.627	258.127	512.149	527.702	185.091	360.333	433.127	178.416	201.233	199.518	362.166	243.926	0.00014574	3.7074e-05	2.9721e-05	136.09	5.1092e-07	5.7799e-07	291.49	34.971	8.6599e-07	5.785e-07	96.13	32.757	11.101	5.056	4.8839e-07	8.5294	4.198e-06	2.2608e-06	4.3073e-07	116.37	2.2851e-08	1.6181e-08	251.04	29.965	2.0936e-08	2.5953e-08	80.076	27.466	9.4421	4.2531	2.2321e-08	7.1192	499.396	298.312	245.714	187.287	323.630	358.972	185.401	194.772	306.909	326.177	190.608	194.842	196.759	202.570	276.729	199.929	-8191	255	
3791.207	1	1	0	0	0.219	0.18109	0.1073	0.039496	0.41941	0.22876	0.30459	0.28584	0.027342	0.31719	0.14167	0.092747	0.076883	0.15321	0.32666	0.24457	-0.97083	-0.24583	-1.3021	-0.91667	-0.23125	-1.4042	-0.69167	-0.69375	-1.3292	-0.63125	-1.2812	-1.1333	-0.45208	-1.3729	-0.50625	-0.84375	484.980	470.086	197.719	409.978	455.983	480.383	294.004	218.047	468.798	196.092	318.966	214.691	530.941	438.036	362.958	502.456	0.00014631	5.6567e-05	1.7624e-05	134.65	5.9702e-07	4.5856e-07	293.26	34.868	4.2615e-07	8.9359e-07	94.603	32.532	11.27	5.1581	6.7517e-07	8.6533	3.7637e-06	2.2496e-06	4.7488e-07	116.59	2.3537e-08	1.3791e-08	250.13	29.951	2.1377e-08	2.2512e-08	79.934	27.543	9.5648	4.3165	2.4342e-08	7.1916	498.434	269.719	204.557	187.760	261.441	276.211	185.329	194.534	241.018	285.668	189.521	194.498	197.629	201.306	273.575	200.460	-8191	255	
3791.302	1	1	0	0	0.21898	0.20316	0.04351	0.14413	0.37366	0.33254	0.15444	0.21683	0.2644	0.26454	0.20054	0.033126	0.26275	0.28259	0.18881	0.20415	-1.1208	-0.31875	-1.2729	-1.0208	-0.28125	-1.4583	-0.625	-0.60208	-1.2875	-0.50833	-1.0083	-0.88958	-0.33542	-1.4146	-0.61667	-0.67917	352.589	225.049	293.938	471.202	529.607	512.133	332.449	389.555	463.548	502.909	372.722	392.602	264.387	187.255	221.776	223.246	0.00017107	5.1308e-05	9.7077e-06	136.66	7.4417e-07	3.531e-07	291.28	35.183	1.0441e-06	5.4993e-07	95.968	33.102	11.622	5.2156	4.2246e-07	8.6311	3.8623e-06	2.1884e-06	4.8302e-07	115.97	2.7193e-08	1.7307e-08	248.56	30.107	2.2306e-08	2.0397e-08	79.829	27.738	9.6914	4.3484	2.4509e-08	7.2251	501.458	188.911	242.353	187.460	296.411	382.164	185.029	194.737	318.429	325.430	189.670	194.536	197.709	202.456	230.613	200.087	-8191	255	
3791.398	1	1	0	0	0.19068	0.067097	0.081346	0.081541	0.089241	0.24908	0.25535	0.15162	0.35401	0.17536	0.15726	0.28637	0.22151	0.055539	0.18199	0.11936	-1.0354	-0.29583	-0.96667	-1.3146	-0.32083	-1.4708	-0.7	-0.58125	-1.425	-0.35833	-1.0063	-1.1	-0.38333	-1.3833	-0.84583	-0.59583	502.651	181.501	434.853	328.900	291.684	358.673	184.745	290.312	353.730	347.131	463.116	263.594	290.796	320.860	312.312	292.419	0.00013137	5.1452e-05	2.3831e-05	135.73	4.2847e-07	7.5392e-07	292.91	35.625	9.1345e-07	8.0453e-07	98.399	33.608	11.709	5.2214	9.1348e-07	8.8708	3.6075e-06	2.61e-06	4.2375e-07	116.82	2.41e-08	1.8967e-08	249.5	30.318	2.057e-08	2.2619e-08	81.156	28.22	9.7616	4.4032	2.2473e-08	7.3272	507.596	236.220	236.540	186.519	293.506	323.610	185.284	194.622	290.327	309.509	189.015	194.402	197.904	201.375	281.961	200.000	-8191	255	
3791.494	1	1	0	0	0.10908	0.22795	0.26823	0.12512	0.089092	0.32984	0.29242	0.20868	0.13602	0.154	0.13076	0.20969	0.28512	0.16957	0.2162	0.18442	-1.1208	-0.59792	-0.95208	-1.4292	-0.33333	-1.4312	-0.925	-0.6875	-1.3625	-0.56667	-1.1271	-1.1104	-0.27292	-1.1792	-0.95208	-0.39583	452.203	507.987	322.419	267.590	371.056	208.052	360.089	482.639	382.038	465.833	316.053	490.659	411.206	299.165	340.434	181.398	0.0001427	5.1957e-05	2.084e-05	136.15	3.8902e-07	5.7735e-07	289.66	35.246	1.2339e-06	2.5614e-07	98.471	33.938	11.901	5.2924	9.5507e-07	8.9213	3.5061e-06	2.2427e-06	5.2059e-07	116.16	2.4283e-08	1.6729e-08	249.12	30.359	1.8134e-08	2.2847e-08	82.265	28.4	9.8525	4.488	1.7748e-08	7.4378	501.161	210.830	252.730	186.844	297.371	339.017	185.013	194.844	280.347	336.826	189.874	194.568	198.799	202.939	299.226	199.730	-8191	255	
3791.590	1	1	0	0	0.18697	0.13412	0.086785	0.31926	0.19606	0.09569	0.36013	0.13678	0.23111	0.16922	0.10657	0.07312	0.39904	0.21092	0.20074	0.067673	-1.075	-0.45625	-0.7125	-1.2625	-0.41458	-1.3375	-1.1208	-0.42292	-1.5104	-0.41875	-0.85208	-1.3042	-0.41042	-1.4417	-1.0708	-0.44375	394.666	505.782	240.696	389.059	267.490	205.991	476.321	467.871	510.849	354.996	219.002	423.592	268.849	244.155	432.043	238.291	0.00016086	0.00010524	5.5503e-05	135.42	5.9281e-07	3.8641e-07	291.71	35.614	3.8419e-07	8.5493e-07	99.39	34.016	11.685	5.362	5.3982e-07	8.9119	3.5445e-06	2.3303e-06	5.0974e-07	116.73	2.5334e-08	1.6927e-08	250.81	30.437	1.9474e-08	2.2147e-08	83.224	28.461	9.8186	4.5301	2.2139e-08	7.3972	503.286	246.233	229.454	187.579	282.277	384.521	185.560	194.268	270.935	279.530	190.594	194.595	198.149	202.351	268.214	199.672	-8191	255	
3791.686	1	1	0	0	0.21878	0.2229	0.22658	0.01565	0.10165	0.22836	0.15894	0.080422	0.09264	0.29392	0.22873	0.096671	0.17025	0.057254	0.18035	0.069873	-1.2292	-0.675	-0.80208	-1.2917	-0.43542	-1.3188	-1.0542	-0.15208	-1.45	-0.67292	-0.92083	-1.4021	-0.19167	-1.0333	-0.91875	-0.29583	335.823	207.030	240.592	445.989	204.419	385.104	180.354	470.701	209.832	436.244	393.615	423.280	446.536	337.271	409.168	396.866	0.00016004	0.00010322	3.0144e-05	135.51	3.6718e-07	7.6841e-07	291.53	35.143	1.2094e-06	5.2931e-07	97.835	33.752	11.689	5.3898	7.8237e-07	8.8772	3.5362e-06	2.4291e-06	5.9031e-07	116.49	2.2409e-08	1.4111e-08	252.02	30.335	2.0951e-08	2.0168e-08	82.267	28.159	9.8088	4.5857	2.1562e-08	7.3152	503.286	266.828	230.389	187.484	432.457	300.807	185.106	194.453	283.462	274.878	189.990	194.650	198.274	202.132	277.488	199.268	-8191	255	
3791.807	1	1	0	0	0.27326	0.10308	0.12496	0.23638	0.15928	0.014967	0.11143	0.074491	0.072895	0.21197	0.18051	0.28284	0.24264	0.05391	0.2384	0.19534	-0.94792	-0.44375	-0.64792	-1.3917	-0.1875	-1.0854	-1.1063	-0.1125	-1.3875	-0.55625	-0.45208	-1.4042	-0.56042	-0.8875	-1.15	-0.25	374.326	186.982	522.594	423.128	402.338	415.690	359.925	296.536	430.592	497.829	307.961	414.630	229.198	506.504	400.115	225.677	0.00014637	0.00013912	2.6583e-05	139.19	4.7017e-07	2.7647e-07	294.41	35.783	3.3339e-07	6.6372e-07	99.072	34.121	11.567	5.4703	8.3807e-07	8.7645	4.3405e-06	2.0938e-06	5.4693e-07	117.49	2.6827e-08	2.0687e-08	253.51	30.62	2.2306e-08	2.099e-08	82.915	28.441	9.8263	4.6333	2.3704e-08	7.3855	500.719	218.745	256.915	186.526	309.391	358.526	184.846	194.600	295.077	331.801	189.862	194.514	197.835	201.350	258.310	198.387	-8191	255	
3791.903	1	1	0	0	0.30167	0.037755	0.30205	0.33209	0.36548	0.22985	0.059337	0.21513	0.10155	0.38609	0.17431	0.21621	0.046657	0.081302	0.13381	0.10462	-0.88542	-0.75625	-0.51667	-1.4792	-0.35625	-0.91042	-1.4229	-0.3625	-1.2313	-0.69375	-0.45833	-1.5688	-0.55	-0.78125	-1.2188	-0.525	279.970	295.578	431.133	349.047	186.204	429.444	287.941	535.073	278.438	435.972	365.453	424.471	424.524	313.168	435.030	361.075	0.00016836	8.8238e-05	4.4522e-05	137.43	6.2821e-07	3.7546e-07	295.76	35.713	6.5622e-07	6.4814e-07	98.389	34.149	11.787	5.643	3.4883e-07	8.9753	4.0569e-06	2.059e-06	5.814e-07	117.21	2.7406e-08	1.7368e-08	253.48	30.665	2.1134e-08	2.2939e-08	82.477	28.59	9.9028	4.6728	1.8796e-08	7.4578	501.616	223.982	251.912	187.349	323.153	298.330	185.648	194.113	302.970	312.745	189.224	194.536	196.952	202.702	303.110	199.207	-8191	255	
3791.999	1	1	0	0	0.099039	0.21206	0.0587	0.056875	0.23638	0.22934	0.05738	0.071638	0.095358	0.13154	0.27881	0.13554	0.29227	0.20801	0.20801	0.28157	-1.0208	-1	-0.60208	-1.3917	-0.55417	-0.79792	-1.1729	-0.275	-1.1104	-0.9125	-0.62708	-1.3542	-0.44167	-0.8125	-1.2313	-0.35208	482.911	357.232	399.797	474.883	277.387	395.277	387.886	393.315	515.385	481.833	382.053	309.074	364.715	223.600	408.798	363.620	0.00016791	3.7118e-05	3.0673e-05	136.27	5.0046e-07	5.1452e-07	292.84	35.362	9.4232e-07	4.2629e-07	99.69	33.72	11.662	5.5576	7.7295e-07	8.6416	3.7952e-06	1.899e-06	6.151e-07	117.17	2.4298e-08	1.8495e-08	252	30.461	2.5914e-08	1.6957e-08	83.023	28.417	9.845	4.6683	1.9525e-08	7.3582	506.094	216.198	261.739	187.123	330.596	330.540	184.912	193.978	321.273	350.299	189.995	194.242	197.984	201.836	272.355	200.595	-8191	255	
3792.095	1	1	0	0	0.14363	0.31006	0.13589	0.08388	0.0081218	0.22797	0.23678	0.35509	0.16294	0.17599	0.25955	0.070149	0.096679	0.14084	0.17351	0.20215	-0.80417	-0.94167	-0.17708	-1.6542	-0.32917	-0.65208	-1.5104	-0.17083	-1.1021	-0.95833	-0.20625	-1.4104	-0.47083	-0.72917	-1.45	-0.32292	491.803	423.710	399.825	327.648	191.280	304.416	450.495	439.264	224.671	356.357	416.524	400.380	410.148	477.234	361.968	504.970	0.00019745	9.5218e-05	2.9369e-05	137.59	4.9479e-07	5.7241e-07	289.72	35.206	1.182e-06	5.6066e-07	97.572	33.084	11.653	5.5192	5.0103e-07	8.7895	4.1405e-06	2.0576e-06	6.3718e-07	118.1	2.5121e-08	1.9926e-08	249.76	30.085	2.2732e-08	1.4658e-08	81.902	27.939	9.6941	4.6525	1.6137e-08	7.3097	500.092	246.314	265.963	187.062	298.347	318.205	184.611	194.741	325.731	239.436	189.887	194.753	197.911	202.019	253.999	200.964	-8191	255	
3792.216	1	1	0	0	0.17347	0.1056	0.12817	0.12559	0.11556	0.15186	0.30081	0.17433	0.16084	0.19632	0.14654	0.10223	0.30952	0.22957	0.2057	0.018259	-0.89375	-1.1542	-0.1125	-1.3625	-0.49583	-0.68958	-1.5417	-0.05	-1.3125	-1.2292	-0.13125	-1.6375	-0.6	-0.59167	-1.6313	-0.48958	435.149	447.133	297.964	442.316	497.177	378.186	533.208	267.614	263.515	507.330	434.713	418.826	466.832	422.208	183.428	226.972	0.00013726	4.9611e-05	1.4662e-05	136.05	8.7899e-07	2.5586e-07	290.47	34.667	2.8814e-07	6.8153e-07	99.083	32.995	11.451	5.429	8.6921e-07	8.7985	3.9377e-06	1.7877e-06	5.694e-07	116.04	2.7513e-08	2.1448e-08	248.18	29.588	2.2717e-08	2.099e-08	81.622	27.58	9.6145	4.6144	2.1227e-08	7.3077	496.853	240.932	209.889	187.249	286.772	362.135	185.591	194.710	364.961	286.294	189.593	194.546	197.741	201.720	276.779	199.007	-8191	255	
3792.286	1	1	0	0	0.095588	0.21043	0.19298	0.13659	0.097939	0.12176	0.10353	0.12059	0.36023	0.28945	0.09524	0.23067	0.37246	0.16738	0.1846	0.22944	-0.67292	-1.0208	-0.2375	-1.4729	-0.73333	-0.45417	-1.525	-0.70833	-0.94583	-1.1938	-0.36042	-1.3312	-0.86458	-0.41458	-1.4583	-0.54583	506.561	298.314	401.429	428.716	524.364	515.097	391.778	405.032	230.333	363.760	318.493	395.181	253.539	193.668	212.856	200.320	0.00015503	8.7708e-05	3.6265e-05	135.84	5.8987e-07	9.0979e-07	285.44	34.717	7.7524e-07	1.0516e-06	97.387	33.388	11.512	5.5454	7.002e-07	8.6137	3.7719e-06	1.8337e-06	6.9025e-07	115.31	2.4725e-08	2.4081e-08	246.05	29.433	2.6935e-08	1.7155e-08	81.567	27.844	9.625	4.7079	2.1045e-08	7.3417	507.914	270.747	215.889	188.307	292.659	312.552	184.430	194.957	292.835	311.299	190.262	194.509	198.293	202.285	293.381	199.189	-8191	255	
3792.382	1	1	0	0	0.092391	0.11853	0.1714	0.22002	0.14777	0.15002	0.16008	0.3478	0.071881	0.27834	0.26681	0.17977	0.28203	0.12216	0.41407	0.14413	-0.61667	-1.2146	-0.31667	-1.2687	-0.93333	-0.63542	-1.4562	-0.52083	-0.90208	-1.4021	-0.35625	-1.2271	-0.73958	-0.57917	-1.5146	-0.53542	379.210	459.036	483.422	261.195	454.547	320.093	480.943	420.773	420.784	534.784	450.816	262.427	465.187	442.241	518.023	450.768	0.00018048	9.9137e-05	1.8995e-05	132.99	3.0598e-07	3.0559e-07	288.7	34.566	3.6016e-07	3.9321e-07	98.363	33.137	11.539	5.6254	5.4219e-07	8.8758	4.2747e-06	2.0048e-06	6.4028e-07	114.83	2.148e-08	2.2711e-08	246.87	29.494	2.4133e-08	1.685e-08	82.477	27.837	9.6957	4.7161	1.9875e-08	7.3756	502.514	239.201	208.766	186.846	339.421	325.506	185.251	194.445	308.953	326.409	189.837	194.894	197.702	202.185	258.358	198.094	-8191	255	
3792.478	1	1	0	0	0.073902	0.14696	0.053348	0.2503	0.089574	0.32816	0.22949	0.25715	0.15234	0.15418	0.33957	0.22507	0.0082221	0.11309	0.28206	0.077742	-0.48542	-1.175	-0.50625	-0.95208	-0.75833	-0.44167	-1.4396	-0.5875	-0.82292	-1.2708	-0.2875	-0.95417	-1.0042	-0.32917	-1.3188	-0.59792	396.305	396.359	187.263	396.751	289.472	296.207	456.270	450.205	359.889	217.438	512.071	203.402	457.619	211.238	486.796	183.690	0.00018698	2.7076e-05	2.3986e-05	134.99	4.4694e-07	1.05e-06	292.06	34.899	7.8708e-07	4.0702e-07	98.78	32.483	11.399	5.5099	7.2062e-07	8.833	4.161e-06	1.7237e-06	6.4493e-07	114.49	2.0977e-08	2.2894e-08	246.81	29.851	2.5549e-08	1.4871e-08	82.256	27.505	9.5562	4.6467	2.1182e-08	7.334	493.627	270.363	201.670	187.113	284.024	291.419	185.221	193.856	340.109	288.512	189.807	194.965	198.397	201.545	282.425	199.165	-8191	255	
3792.599	1	1	0	0	0.097176	0.17506	0.26255	0.079632	0.095926	0.11809	0.23704	0.23431	0.12281	0.50926	0.074502	0.11256	0.027387	0.23948	0.069366	0.15913	-0.38333	-1.3229	-0.31667	-1.25	-0.95	-0.33333	-1.3771	-0.66458	-0.66875	-1.3875	-0.42917	-1.1104	-1.0958	-0.48333	-1.2938	-0.45833	259.619	496.016	303.595	332.081	396.604	309.052	236.168	495.945	482.076	322.993	329.736	340.645	291.164	394.967	401.944	409.026	0.00015609	7.6358e-05	1.5573e-05	133.6	1.1765e-07	7.7692e-07	286.55	34.147	6.5514e-07	6.9948e-07	96.942	32.498	11.36	5.5315	6.5449e-07	8.877	4.0281e-06	1.586e-06	6.4841e-07	114.26	1.9515e-08	2.2498e-08	246.25	29.359	2.5366e-08	1.9849e-08	81.897	27.456	9.5492	4.673	1.7839e-08	7.3643	496.648	227.326	265.954	186.637	253.078	291.503	184.737	194.159	236.442	321.664	189.519	193.964	197.277	201.501	314.477	198.956	-8191	255	
3792.695	1	1	0	0	0.22673	0.18923	0.34836	0.12449	0.16732	0.030121	0.12735	0.10884	0.31748	0.022173	0.032811	0.23087	0.063963	0.064065	0.23026	0.23729	-0.29583	-1.6271	-0.029167	-1.2646	-1.2375	-0.34167	-1.6167	-0.66875	-0.72292	-1.6958	-0.43125	-0.8375	-1.1458	-0.39167	-1.5583	-0.80417	195.471	496.758	534.420	226.953	229.654	367.250	346.301	184.366	403.121	341.702	338.573	407.251	506.161	269.238	200.646	222.988	0.00014626	7.6964e-05	2.0964e-05	134.29	7.5657e-07	3.476e-07	288.47	34.465	7.5361e-07	6.7894e-07	97.072	32.832	11.357	5.6991	8.848e-07	8.8033	4.557e-06	1.2925e-06	6.4648e-07	115.11	2.2592e-08	2.3168e-08	248.05	29.734	2.5884e-08	1.4399e-08	81.801	27.727	9.621	4.7174	2.2048e-08	7.3901	502.064	236.730	258.570	186.301	328.065	334.839	184.979	193.883	318.084	339.100	189.316	194.718	198.556	202.274	270.298	198.706	-8191	255	
3792.791	1	1	0	0	0.10378	0.1276	0.17177	0.29414	0.11346	0.083593	0.35409	0.32516	0.22371	0.3549	0.15401	0.10453	0.16044	0.34976	0.24848	0.025179	-0.16042	-1.4937	-0.41458	-0.99792	-1.1583	-0.24792	-1.4937	-0.86458	-0.41458	-1.5896	-0.42917	-0.85625	-1.3042	-0.30625	-1.2292	-0.73333	230.883	252.085	431.214	465.687	209.492	414.087	464.712	219.804	280.463	383.684	448.085	234.352	270.613	274.019	228.941	383.079	0.00014906	3.5719e-05	1.8311e-05	135.6	4.0943e-07	4.6498e-07	291.96	34.59	8.5817e-07	7.6562e-07	96.769	33.696	11.573	5.5379	9.9088e-07	8.7889	4.4898e-06	1.8615e-06	5.1827e-07	116.34	2.0718e-08	2.5466e-08	249.99	29.664	2.6706e-08	1.3973e-08	82.167	28.045	9.7146	4.7161	2.0969e-08	7.3925	503.353	270.674	252.381	186.855	307.389	351.613	184.936	194.415	298.697	301.987	189.220	194.982	197.690	202.023	301.472	199.243	-8191	255	
3792.887	1	1	0	0	0.080339	0.36705	0.14127	0.24673	0.2627	0.12785	0.22559	0.038671	0.16315	0.12885	0.10905	0.20917	0.064381	0.17442	0.25774	0.17527	0.014583	-1.3937	-0.39792	-0.90833	-1.3292	-0.49375	-1.3188	-0.78542	-0.32083	-1.2458	-0.40833	-0.71667	-1.175	-0.55	-1.2083	-1.1583	312.181	316.583	403.326	263.338	267.248	263.275	359.670	309.747	200.774	338.751	513.348	366.462	487.810	322.630	385.798	199.790	0.00018974	4.6687e-05	2.7247e-05	136.11	8.6976e-07	5.1242e-07	290.07	34.261	1.1349e-06	6.3087e-07	97.433	32.539	11.204	5.6718	7.8454e-07	8.7795	4.7899e-06	1.4956e-06	6.244e-07	116.56	1.985e-08	2.4918e-08	249.17	29.636	3.0543e-08	1.7961e-08	81.668	27.438	9.4925	4.6876	2.3339e-08	7.3446	497.315	212.864	219.292	187.229	368.068	359.483	185.172	195.128	310.192	277.651	189.572	194.767	197.797	201.552	235.150	199.019	-8191	255	
3792.983	1	1	0	0	0.22749	0.31511	0.07625	0.23997	0.28232	0.27172	0.052391	0.17847	0.1325	0.087412	0.24289	0.19832	0.066772	0.17582	0.15417	0.12391	0.039583	-1.4521	-0.61875	-0.72292	-1.4813	-0.16667	-1.1854	-0.99792	-0.44167	-1.3813	-0.7625	-0.64167	-1.3542	-0.39375	-1.2271	-1.0375	325.135	254.561	226.963	491.762	512.161	180.658	366.474	185.593	449.746	228.025	516.623	321.329	430.239	219.927	197.790	242.972	0.00018558	0.0001227	3.7587e-05	134.45	9.4803e-07	7.4555e-07	288.9	34.413	5.0413e-07	1.1573e-06	98.2	32.56	11.432	5.6727	7.2835e-07	8.7921	4.7666e-06	2.1091e-06	5.4151e-07	114.81	2.1861e-08	2.641e-08	246.11	29.414	3.17e-08	1.892e-08	81.675	27.528	9.64	4.7317	2.1364e-08	7.331	502.137	210.814	236.226	186.914	297.490	357.542	185.106	194.178	295.104	329.811	189.263	195.141	197.863	201.755	312.095	199.507	-8191	255	
3793.080	1	1	0	0	0.16791	0.18057	0.11036	0.070901	0.16718	0.22847	0.20053	0.151	0.21105	0.26545	0.40402	0.2479	0.2014	0.24379	0.17623	0.16422	0.32917	-1.5812	-0.47292	-0.49583	-1.7042	0.0020833	-1.325	-1.1292	0.0375	-1.5667	-0.55417	-0.44375	-1.3542	-0.30417	-1.1542	-1.1938	292.025	278.515	520.814	382.324	211.975	534.945	367.492	256.017	231.207	414.086	457.550	534.321	250.184	457.137	526.196	502.094	0.00014139	9.0858e-05	1.0331e-05	133.36	4.5223e-07	7.1142e-07	286.81	34.734	2.9646e-07	1.0476e-06	98.58	33.259	11.802	5.6266	3.9907e-07	9.0989	4.6323e-06	1.6904e-06	5.3996e-07	114.14	2.0018e-08	3.0977e-08	246.91	29.885	2.9797e-08	1.5084e-08	82.477	27.815	9.7526	4.7659	2.1318e-08	7.5055	496.789	246.351	397.547	188.249	253.918	301.932	184.877	194.077	320.836	303.451	189.069	194.364	197.328	202.196	307.560	199.072	-8191	255	
3793.176	1	1	0	0	0.16051	0.13624	0.097012	0.29337	0.087305	0.17272	0.11991	0.34097	0.18951	0.071606	0.18101	0.071931	0.15062	0.22698	0.16916	0.13903	0.40625	-1.5354	-0.56458	-0.4	-1.5396	-0.33125	-0.89792	-1.3396	-0.3125	-1.3667	-0.77917	-0.3625	-1.3937	-0.40833	-0.85	-1.2458	438.664	427.787	276.137	205.571	340.395	494.933	279.506	456.273	511.918	453.916	198.909	374.997	468.816	186.851	433.009	259.080	0.00014486	6.5892e-05	4.9296e-05	134.43	3.2978e-07	1.0389e-06	287.97	34.681	1.5022e-06	4.8374e-07	98.532	33.372	11.594	5.7117	8.3922e-07	9.0964	4.7748e-06	1.5373e-06	5.3105e-07	115.26	1.6864e-08	2.4051e-08	247.7	29.759	3.1624e-08	1.8083e-08	82.921	27.811	9.7217	4.7733	2.4661e-08	7.4882	506.940	275.493	236.223	188.055	299.142	318.190	184.920	194.260	300.358	283.821	189.173	194.270	198.364	202.246	284.954	199.865	-8191	255	
3793.296	1	1	0	0	0.026602	0.25062	0.26268	0.17847	0.13116	0.23328	0.15567	0.26304	0.030887	0.098936	0.31913	0.18641	0.2059	0.17932	0.20982	0.074626	0.13958	-1.2979	-0.71042	-0.44375	-1.5125	-0.31667	-0.70833	-1.1979	-0.30625	-1.1875	-0.82083	-0.28958	-1.2979	-0.35	-0.81042	-1.2313	238.361	268.257	352.201	486.456	273.423	228.660	208.640	383.045	535.563	436.451	382.330	253.569	237.043	518.124	334.586	337.131	0.00016197	0.00013837	4.0429e-05	134.66	1.0168e-06	4.1663e-07	289.62	34.87	4.5449e-07	8.0089e-07	99.473	32.544	11.447	5.6709	4.8583e-07	8.7667	4.7598e-06	1.9352e-06	6.1588e-07	114.44	1.9606e-08	2.2924e-08	248.1	29.592	3.0315e-08	1.4491e-08	82.604	27.482	9.6149	4.7321	2.3628e-08	7.3094	498.392	250.287	253.354	187.293	283.329	287.290	184.867	194.886	300.175	328.267	189.613	194.052	197.822	201.799	293.292	198.902	-8191	255	
3793.391	1	1	0	0	0.15276	0.20287	0.11642	0.1718	0.075276	0.19853	0.13521	0.14966	0.15286	0.11333	0.3334	0.22399	0.13382	0.15903	0.17729	0.26993	-0.2	-1.125	-1.0292	-0.18333	-1.7146	-0.40625	-0.68958	-1.4417	-0.2125	-1.2125	-1.1792	-0.34375	-1.4771	-0.53333	-0.71875	-1.3458	408.492	342.270	445.926	373.119	455.704	516.162	495.341	242.792	227.811	318.439	503.360	387.141	411.956	471.141	451.351	214.651	0.00016348	5.6843e-05	1.9613e-05	132.09	6.8315e-07	4.6398e-07	289.64	34.67	5.3681e-07	6.7154e-07	99.18	32.991	11.467	5.587	8.1814e-07	8.7908	4.5488e-06	2.0145e-06	5.4228e-07	113.98	1.7245e-08	1.8236e-08	247.34	29.615	3.2462e-08	1.8798e-08	82.171	27.571	9.6256	4.7257	2.2868e-08	7.4257	503.949	277.810	199.703	187.011	288.343	301.760	185.642	194.244	338.914	259.860	189.454	194.432	198.642	201.618	255.818	199.722	-8191	255	
3793.487	1	1	0	0	0.20409	0.038015	0.14677	0.31289	0.15649	0.26837	0.17424	0.13238	0.058939	0.18355	0.2494	0.34764	0.47382	0.22618	0.308	0.29736	-0.089583	-1.2646	-1.0896	-0.26667	-1.4042	-0.58333	-0.71875	-1.4542	-0.54167	-1.2646	-1.0167	-0.37083	-1.2229	-0.57917	-0.57917	-1.2188	270.008	181.784	353.864	381.580	397.109	427.028	338.080	322.646	528.189	420.859	435.811	419.301	308.386	242.710	209.163	332.093	0.00016437	8.0513e-05	3.9963e-05	134.03	6.6203e-07	8.263e-07	289.37	34.162	7.6697e-07	1.7891e-07	98.829	32.56	11.425	5.6644	6.3008e-07	8.9183	4.7241e-06	1.6862e-06	5.7637e-07	115.1	1.662e-08	2.1387e-08	248.57	29.493	2.9828e-08	1.9894e-08	82.667	27.548	9.6515	4.7404	2.299e-08	7.4673	496.185	232.012	257.770	187.413	307.654	309.379	185.166	194.885	311.219	327.343	189.266	194.354	197.879	201.542	319.986	199.982	-8191	255	
3793.583	1	1	0	0	0.49128	0.19023	0.12325	0.17062	0.11054	0.2083	0.20243	0.21421	0.092809	0.066571	0.31854	0.1881	0.061214	0.10265	0.30042	0.16327	-0.10208	-0.89792	-0.91458	-0.0625	-1.4542	-0.68333	-0.7375	-1.225	-0.55625	-0.9625	-1.3146	-0.34583	-1.2542	-0.69792	-0.69167	-1.4667	326.648	527.128	325.744	387.966	412.080	358.224	490.042	281.315	312.116	179.938	411.970	183.830	506.605	332.794	278.289	288.544	0.00016657	0.00012345	3.7462e-05	135.58	3.5577e-07	1.0439e-06	289.21	35.188	1.298e-06	7.8352e-07	100.39	33.716	11.554	5.7355	8.8991e-07	9.1658	4.6543e-06	2.3317e-06	5.3957e-07	115.99	2.1145e-08	1.9195e-08	249.9	29.963	3.1076e-08	2.0823e-08	83.394	28.144	9.7782	4.8284	2.8323e-08	7.5724	495.150	244.193	243.102	187.318	297.917	287.096	185.037	194.427	298.111	309.497	189.397	194.363	198.387	201.625	267.780	198.351	-8191	255	
3793.679	1	1	0	0	0.17395	0.084289	0.12397	0.087763	0.37143	0.3599	0.25738	0.10706	0.1312	0.26782	0.082619	0.022334	0.21416	0.22605	0.1137	0.079495	0.13333	-1.1604	-1.1875	-0.014583	-1.3333	-0.90417	-0.37292	-1.3312	-0.15625	-0.975	-1.3375	-0.12917	-1.2938	-0.83542	-0.50625	-1.55	451.355	493.100	372.868	497.668	362.496	426.921	444.250	344.833	277.675	228.382	333.650	365.439	513.924	450.938	310.697	235.052	0.00020942	2.9857e-05	1.153e-05	133.72	8.8549e-07	6.1499e-07	290.88	35.088	8.8987e-07	6.7655e-07	99.491	33.581	11.73	5.6996	6.1517e-07	9.0022	4.8557e-06	2.059e-06	3.7843e-07	115.22	1.9012e-08	2.2666e-08	251.16	29.982	3.2188e-08	2.2315e-08	83.311	28.044	9.8234	4.7881	2.7989e-08	7.474	494.003	301.666	533.983	187.410	309.037	301.224	184.607	194.019	318.803	280.888	189.191	194.224	198.495	202.425	245.925	199.262	-8191	255	
3793.775	1	1	0	0	0.18304	0.0023747	0.3071	0.038298	0.2452	0.063275	0.02076	0.16513	0.16984	0.053629	0.11695	0.16511	0.24832	0.28066	0.12654	0.18625	-0.13125	-0.82917	-1.3375	-0.08125	-1.1833	-0.96875	-0.52917	-1.3062	-0.40625	-0.83125	-1.2708	-0.33125	-1.2729	-0.91458	-0.62083	-1.3625	479.297	460.502	368.738	458.635	276.992	505.672	204.860	214.181	422.249	477.903	531.285	368.518	460.775	187.098	283.018	356.491	0.00019063	7.637e-05	1.0204e-05	132.95	6.4491e-07	6.3621e-07	289.17	35.392	6.8743e-07	4.4529e-07	99.683	32.796	11.708	5.7459	9.8938e-07	9.0116	5.0858e-06	2.0827e-06	4.1252e-07	115.19	1.9637e-08	1.921e-08	250.05	30.189	2.5777e-08	2.0595e-08	83.489	27.895	9.768	4.8294	2.4357e-08	7.5423	506.124	251.145	195.621	186.889	298.086	334.008	184.993	194.641	326.541	301.484	188.796	193.914	199.392	201.448	290.805	199.681	-8191	255	
3793.896	1	1	0	0	0.39627	0.19638	0.19342	0.06674	0.13256	0.1893	0.069059	0.14853	0.1967	0.24666	0.039215	0.047805	0.098178	0.058401	0.12691	0.17601	-0.31458	-0.72083	-1.1479	-0.43125	-0.93333	-0.74583	-0.40208	-1.4646	-0.52708	-0.51667	-1.3896	-0.45417	-1.1521	-1.0542	-0.24375	-1.2146	519.255	524.649	461.484	399.656	517.518	252.983	303.636	271.974	461.114	496.759	499.939	361.273	510.766	221.215	338.594	196.655	0.00015148	9.8864e-05	4.8648e-05	136.78	5.2845e-07	7.2641e-07	289.51	35.389	8.5705e-07	5.9063e-07	102.1	33.476	11.679	5.8904	4.7833e-07	9.1569	4.3213e-06	2.0855e-06	4.3809e-07	116.99	2.2196e-08	1.9362e-08	251.51	30.274	2.7346e-08	2.335e-08	84.66	28.242	9.9347	4.9095	2.7503e-08	7.6763	514.613	228.262	229.667	187.320	323.837	354.234	184.410	193.819	293.787	444.289	188.472	194.248	197.421	201.381	214.374	199.308	-8191	255	
3793.992	1	1	0	0	0.22375	0.077238	0.085598	0.26989	0.093269	0.12504	0.24715	0.15563	0.32136	0.28413	0.13278	0.24637	0.22896	0.21957	0.27785	0.21072	-0.29167	-0.61667	-1.3583	-0.34375	-1.1042	-1.3062	-0.18958	-1.3417	-0.6375	-0.55	-1.3146	-0.50208	-1.0104	-1.0104	-0.27708	-1.2521	452.564	237.511	389.748	452.926	371.145	392.543	301.027	453.296	436.596	242.393	427.650	248.610	278.731	426.459	388.619	493.206	0.0001898	8.476e-05	2.5085e-05	136.59	1.0025e-06	9.4e-07	299.76	36.029	7.7984e-07	6.4014e-07	102.99	34.105	12.112	5.8564	4.2002e-07	9.418	4.5638e-06	2.1077e-06	4.2569e-07	117.55	2.1556e-08	1.6881e-08	256.24	30.843	3.0848e-08	2.0655e-08	85.748	28.673	10.108	4.9296	2.77e-08	7.8064	500.957	305.400	253.479	187.081	303.190	353.121	184.800	194.592	283.442	310.896	189.311	194.520	198.835	201.714	274.973	198.831	-8191	255	
3794.088	1	1	0	0	0.26328	0.21614	0.27094	0.39592	0.065033	0.11036	0.15564	0.12167	0.32375	0.091791	0.035881	0.14376	0.047204	0.10933	0.25315	0.14317	-0.37708	-0.475	-1.4979	-0.43542	-0.87917	-1.0417	-0.52708	-1.3375	-0.83542	-0.34792	-1.6396	-0.16042	-1	-1.1604	-0.18542	-1.3312	204.503	520.094	506.594	490.288	507.180	520.327	188.508	197.878	494.366	278.319	224.683	460.248	494.477	309.759	447.379	323.367	0.0001517	9.3829e-05	2.6383e-05	139.39	7.8581e-07	5.1334e-07	301.27	36.178	1.0004e-06	2.7012e-07	102.17	33.717	12.042	5.8778	1.2976e-06	9.259	4.3953e-06	2.3665e-06	3.9006e-07	119.09	2.3933e-08	1.5937e-08	258.7	30.912	2.8396e-08	2.3411e-08	85.574	28.479	10.103	4.9035	2.9448e-08	7.6818	501.933	222.890	254.079	186.528	288.668	285.480	184.403	193.386	333.256	429.101	189.784	195.174	198.248	201.605	308.157	198.860	-8191	255	
3794.160	1	1	0	0	0.17585	0.34557	0.13906	0.1771	0.16277	0.44232	0.11229	0.13837	0.17512	0.20499	0.18495	0.12807	0.19707	0.20822	0.065242	0.31115	-0.60833	-0.45833	-1.5396	-0.50833	-0.86667	-1.2604	-0.44167	-1.3146	-0.98333	-0.39583	-1.3	-0.41667	-0.83958	-1.3729	-0.34583	-1.375	359.087	378.953	382.785	187.490	510.154	479.297	372.553	399.588	454.154	481.856	486.095	340.842	459.971	379.233	438.899	464.912	0.0001707	8.2905e-05	1.4783e-05	139.38	6.658e-07	3.106e-07	303.49	36.103	4.0136e-07	3.484e-07	102.17	34.301	11.861	5.8189	6.2831e-07	9.1852	4.4748e-06	2.6754e-06	4.408e-07	119.57	2.5806e-08	1.6425e-08	259.29	30.87	2.628e-08	2.4156e-08	85.113	28.405	9.964	4.876	2.5315e-08	7.6471	499.265	246.700	213.283	186.727	294.312	368.573	184.706	194.610	281.036	253.657	188.758	194.149	198.066	202.586	281.499	198.685	-8191	255	
3794.256	1	1	0	0	0.026369	0.15981	0.35087	0.18066	0.065243	0.27809	0.15813	0.2175	0.088729	0.19058	0.14918	0.070828	0.25332	0.16762	0.063438	0.25454	-0.54167	-0.46042	-1.3687	-0.5625	-0.77708	-1.45	-0.3125	-1.1396	-0.91875	-0.24792	-1.5542	-0.52292	-0.53958	-1.55	-0.2875	-1.1333	209.619	265.504	497.859	345.172	385.384	474.656	417.462	274.929	377.762	178.289	218.684	179.060	207.515	339.812	529.116	243.685	0.00015173	7.5232e-05	1.9746e-05	139.6	3.5678e-07	1.0953e-06	304.54	36.152	9.5129e-07	4.0182e-07	101.57	34.149	11.834	5.7647	7.988e-07	9.1754	4.2062e-06	2.2204e-06	3.641e-07	119.01	2.1053e-08	1.609e-08	259.41	30.736	2.3813e-08	2.5313e-08	84.633	28.452	9.9701	4.86	3.1666e-08	7.6341	499.562	196.803	245.440	186.975	282.806	320.785	185.413	194.111	258.035	347.712	189.058	194.344	197.644	201.987	290.737	199.240	-8191	255	
3794.375	1	1	0	0	0.14794	0.34916	0.15437	0.047423	0.15544	0.22006	0.13657	0.20145	0.26351	0.10233	0.048943	0.28074	0.16966	0.20422	0.11329	0.14014	-0.55	-0.075	-1.4708	-0.74375	-0.66042	-1.5208	-0.33958	-1.0479	-0.99583	-0.28125	-1.2667	-0.63333	-0.74375	-1.2313	-0.43125	-1.0625	355.572	523.438	407.777	430.738	283.266	378.312	227.206	283.190	397.494	200.295	452.572	456.386	210.229	229.445	463.455	518.951	0.00018587	3.7213e-05	7.2165e-06	137.68	1.0958e-06	8.0247e-07	299.73	35.82	9.2054e-07	7.8642e-07	101.05	33.89	11.864	5.6658	5.3994e-07	9.2125	4.3131e-06	2.5362e-06	3.9625e-07	118.27	2.5243e-08	1.3776e-08	257.43	30.697	2.3296e-08	2.3837e-08	84.64	28.424	9.9888	4.8271	2.7093e-08	7.7057	502.337	226.344	269.813	186.574	280.095	272.993	184.608	192.590	325.350	299.596	188.532	193.868	198.022	201.624	336.200	200.162	-8191	255	
3794.471	1	1	0	0	0.11141	0.22192	0.098872	0.075904	0.25953	0.19132	0.27755	0.12117	0.16086	0.20649	0.33235	0.30666	0.15256	0.092774	0.1892	0.08492	-0.59375	-0.22083	-1.425	-0.74167	-0.74167	-1.4562	-0.26458	-0.86042	-1.1833	0.1125	-1.4854	-0.62917	-0.32292	-1.6938	-0.05	-1.0875	399.943	531.701	352.391	329.144	507.519	396.134	449.324	498.024	198.230	263.937	306.372	206.967	444.090	347.147	275.593	492.465	0.00017536	6.9834e-05	1.8816e-05	140.48	9.5919e-07	6.5993e-07	301.16	36.287	9.3583e-07	1.729e-07	101.85	34.234	11.948	5.7733	8.4625e-07	9.2584	4.4227e-06	2.347e-06	4.7837e-07	119.18	2.4009e-08	1.5192e-08	259.32	30.776	2.0646e-08	2.3319e-08	85.166	28.607	9.9499	4.8598	3.2365e-08	7.6874	498.816	218.889	220.950	187.747	307.805	331.318	184.659	194.338	270.736	409.220	189.145	194.598	197.588	201.057	257.388	199.027	-8191	255	
3794.567	1	1	0	0	0.16993	0.088945	0.26254	0.30368	0.18101	0.27912	0.27188	0.14472	0.19546	0.36835	0.17863	0.13741	0.23721	0.13509	0.09264	0.23392	-0.92083	-0.075	-1.5542	-0.71875	-0.25833	-1.5938	-0.45	-0.82917	-1.1458	-0.20833	-1.2938	-0.64167	-0.36458	-1.3438	-0.47083	-0.89375	488.405	478.057	357.554	345.896	330.262	335.297	457.807	338.149	287.021	395.884	512.684	524.496	216.368	185.723	313.952	467.618	0.00018954	9.4365e-05	3.7351e-05	139.55	6.1697e-07	8.399e-07	299.88	35.342	6.217e-07	1.4617e-06	100.33	33.368	11.675	5.751	6.9393e-07	9.1748	3.6486e-06	2.4708e-06	3.5829e-07	118.52	2.6446e-08	1.8647e-08	257.64	30.688	1.8027e-08	2.3365e-08	83.863	28.182	9.8371	4.8588	2.7503e-08	7.6698	497.093	260.105	253.692	187.695	294.180	325.641	184.262	194.489	283.287	324.519	189.400	194.367	197.006	200.992	265.420	198.886	-8191	255	
3794.688	1	1	0	0	0.12495	0.096908	0.094429	0.28774	0.095969	0.11213	0.18772	0.32051	0.076951	0.031381	0.20844	0.27108	0.059506	0.15486	0.26166	0.17052	-0.94167	-0.31458	-1.1688	-0.89375	-0.36458	-1.5229	-0.43542	-0.71875	-1.4021	-0.18542	-1.2854	-0.96458	-0.25625	-1.5896	-0.36458	-0.66875	316.471	205.314	356.229	298.151	420.713	212.373	516.670	394.681	455.342	412.506	419.683	447.351	281.265	435.377	338.846	225.429	0.00017616	7.7401e-05	2.8724e-05	135.56	3.9988e-07	5.2265e-07	299.07	35.645	7.1204e-07	4.4086e-07	101.53	33.615	11.658	5.7815	9.0236e-07	9.2308	4.1857e-06	2.1982e-06	4.4273e-07	117.41	2.7833e-08	1.4872e-08	256.67	30.49	1.8469e-08	2.0655e-08	84.721	28.342	9.873	4.8457	2.4433e-08	7.743	501.570	240.294	215.430	187.024	302.682	316.467	184.729	194.635	325.300	322.589	189.242	193.992	197.920	201.145	302.339	199.533	-8191	255	
3794.760	1	1	0	0	0.087369	0.21069	0.14921	0.09725	0.10751	0.13248	0.043523	0.087065	0.16983	0.23547	0.097011	0.42534	0.24194	0.14864	0.037734	0.18216	-1.0875	0.10625	-1.2646	-1.1521	-0.091667	-1.5833	-0.47708	-0.73542	-1.5729	-0.26667	-1.1833	-0.93333	-0.0625	-1.6104	-0.55208	-0.49583	364.666	447.469	483.055	432.586	178.859	525.221	257.230	532.771	193.660	406.123	347.960	437.839	340.799	264.208	402.345	238.180	0.00015987	0.00013969	2.1628e-05	138.35	2.4564e-07	4.7335e-07	299.08	35.476	5.3271e-07	3.5416e-07	101.27	33.637	11.745	5.7672	9.3776e-07	9.2555	3.7459e-06	2.9508e-06	5.1827e-07	117.14	2.6797e-08	1.2786e-08	256.77	30.581	2.0159e-08	2.475e-08	84.368	28.393	9.9175	4.871	2.495e-08	7.7169	508.499	242.957	242.631	187.501	295.913	267.864	185.037	194.148	335.525	314.205	188.545	194.059	197.826	201.320	254.700	200.016	-8191	255	
3794.856	1	1	0	0	0.37352	0.067377	0.27056	0.12889	0.089585	0.058364	0.27025	0.16367	0.22861	0.097711	0.072239	0.16064	0.10515	0.20568	0.14003	0.095763	-0.95417	-0.325	-1.0271	-1.1417	-0.35833	-1.2521	-0.75833	-0.55833	-1.4458	-0.50208	-1.1313	-1.2271	-0.3875	-1.3062	-0.71667	-0.66458	313.358	263.666	528.214	445.039	386.445	453.696	368.864	347.910	400.179	239.731	195.297	479.263	359.614	514.049	467.975	214.937	0.00018559	7.3779e-05	1.9272e-05	136.97	3.0116e-07	7.1906e-07	301.01	35.771	6.4802e-07	4.3276e-07	100.04	33.965	11.819	5.7813	7.8951e-07	9.1597	3.8706e-06	2.3762e-06	5.0548e-07	117.54	2.2958e-08	1.5024e-08	258.83	30.585	1.9504e-08	2.4826e-08	84.195	28.37	9.9716	4.8539	2.3385e-08	7.6649	497.997	220.492	228.915	187.393	289.294	329.253	184.509	194.726	302.161	306.620	188.825	194.311	198.214	202.689	246.393	199.925	-8191	255	
3794.976	1	1	0	0	0.069018	0.3144	0.22048	0.18324	0.11994	0.034087	0.21817	0.32612	0.29739	0.26465	0.11111	0.1415	0.089158	0.25236	0.051461	0.16924	-0.94583	-0.54167	-0.88958	-1.0812	-0.40833	-1.2812	-0.65	-0.57083	-1.4583	-0.39792	-1.1292	-1.3021	-0.33542	-1.2812	-0.8125	-0.55208	231.187	448.304	470.063	427.872	358.857	233.433	255.754	281.269	231.318	467.764	288.226	435.135	260.491	285.084	379.316	245.433	0.00017533	0.00010104	2.8777e-05	138.08	5.4791e-07	4.8065e-07	301.34	35.448	1.4412e-07	9.0612e-07	97.898	33.989	11.744	5.7747	4.3901e-07	9.0605	4.2665e-06	2.4541e-06	5.632e-07	118.28	2.6248e-08	1.3258e-08	257.64	30.522	1.952e-08	2.3685e-08	83.343	28.232	9.9258	4.8336	2.2838e-08	7.6704	497.855	236.385	255.180	187.127	266.129	277.496	184.586	193.817	261.065	276.502	189.698	193.465	197.250	201.805	284.873	199.585	-8191	255	
3795.072	1	1	0	0	0.11344	0.14898	0.29547	0.26013	0.23812	0.13437	0.22069	0.096753	0.080896	0.28421	0.42553	0.084068	0.3305	0.019787	0.13906	0.20462	-1.1729	-0.3125	-0.80625	-1.2625	-0.14375	-1.3438	-0.85625	-0.30417	-1.7771	-0.13333	-0.93125	-1.7563	-0.23958	-1.4375	-0.78125	-0.28333	450.602	239.426	341.949	440.245	350.516	405.366	422.484	266.638	403.926	469.861	349.400	194.810	252.581	486.194	275.307	430.808	0.00017523	0.00013932	2.5465e-05	139.66	7.5001e-07	7.2466e-07	300.72	36.147	5.2392e-07	8.9441e-07	100.94	33.89	11.987	5.7905	4.2949e-07	9.4602	3.6459e-06	2.4416e-06	4.9657e-07	119.29	2.9265e-08	1.507e-08	258.94	30.773	1.754e-08	2.6318e-08	84.831	28.554	9.9852	4.8627	2.1182e-08	7.7367	500.195	237.448	261.710	187.590	316.122	318.872	185.028	194.983	300.871	274.508	189.715	194.413	198.288	202.230	249.707	199.070	-8191	255	
3795.169	1	1	0	0	0.17749	0.40843	0.22332	0.38048	0.18314	0.24057	0.17831	0.14726	0.3655	0.12486	0.13004	0.04257	0.2286	0.050179	0.20073	0.16622	-1.3917	-0.47292	-0.63125	-1.2021	-0.28333	-1.2271	-1.0417	-0.36667	-1.3917	-0.70208	-0.61042	-1.325	-0.23125	-1.0333	-1.0292	-0.53542	330.667	374.829	250.619	320.235	529.009	417.292	522.990	383.470	255.423	218.035	431.723	493.538	450.735	419.883	375.706	383.073	0.00019192	4.9356e-05	4.4892e-05	140.12	8.3425e-07	7.3984e-07	302.75	36.306	4.4966e-07	9.0552e-07	102.58	34.465	11.828	5.8547	4.0919e-07	9.5318	4.5488e-06	2.1634e-06	5.2911e-07	120.13	2.5791e-08	2.0869e-08	260.58	31.072	1.8241e-08	2.1203e-08	85.299	28.77	10.063	4.8892	1.8902e-08	7.8708	503.757	255.971	224.432	187.518	324.410	333.416	184.515	194.289	267.713	322.973	189.842	194.262	197.941	201.061	244.606	199.480	-8191	255	
3795.288	1	1	0	0	0.20455	0.3563	0.13762	0.20776	0.038343	0.12832	0.18488	0.22252	0.065933	0.14297	0.29598	0.16934	0.07023	0.12687	0.10597	0.30736	-0.975	-0.59583	-0.63542	-1.2229	-0.25833	-1.0167	-1.1583	-0.27917	-1.5583	-0.62917	-0.68333	-1.3917	-0.37917	-0.9625	-1.1896	-0.39167	389.994	501.740	203.234	301.120	528.833	386.342	527.531	306.213	400.458	267.553	207.151	470.911	430.264	398.025	229.266	232.363	0.00019391	6.998e-05	3.6308e-06	143.08	5.333e-07	8.6121e-07	310.51	37.325	5.5479e-07	5.4515e-07	104.13	35.131	12.35	6.0677	8.4513e-07	9.3655	4.1966e-06	2.002e-06	5.2485e-07	121.67	2.602e-08	1.7414e-08	267.48	31.868	2.2565e-08	2.4156e-08	87.583	29.555	10.263	4.9816	2.3658e-08	7.9162	496.535	228.291	290.662	187.118	302.634	345.901	184.635	194.491	270.889	318.148	188.878	194.523	198.177	202.095	256.763	199.349	-8191	255	
3795.384	1	1	0	0	0.027029	0.11236	0.19029	0.096033	0.092643	0.064507	0.32811	0.099191	0.12383	0.090016	0.20393	0.21198	0.14091	0.17022	0.15357	0.14612	-1.175	-0.49167	-0.55	-1.2646	-0.39167	-1.1042	-1.2854	-0.24583	-1.3438	-0.86042	-0.65417	-1.3125	-0.33958	-1.0854	-1.2292	-0.42917	177.203	423.009	534.084	428.441	403.696	463.650	486.236	248.270	205.639	495.019	393.338	307.259	491.154	363.313	402.407	521.419	0.0001733	1.231e-05	2.1679e-05	143.24	4.678e-07	7.6989e-07	316.48	37.201	7.6832e-07	4.8195e-07	106.34	35.143	12.464	5.8803	1.1307e-06	9.6361	4.731e-06	2.0549e-06	5.7017e-07	124.09	2.375e-08	1.8343e-08	271.45	32.104	1.9885e-08	2.0275e-08	87.905	29.459	10.362	4.977	2.0878e-08	8.0213	508.888	268.091	231.465	187.408	332.213	309.645	185.028	193.970	285.792	395.107	189.685	194.858	198.251	202.599	264.362	199.143	-8191	255	
3795.455	1	1	0	0	0.24399	0.36853	0.046808	0.37752	0.22506	0.17833	0.089915	0.11554	0.061363	0.13718	0.076075	0.17143	0.27542	0.42202	0.063853	0.25015	-1.1354	-0.78125	-0.51875	-1.6083	-0.44167	-0.85833	-1.0187	0.041667	-1.5604	-0.96042	-0.4	-1.6375	-0.23542	-0.925	-1.5417	-0.16042	206.708	416.423	356.328	293.832	497.634	230.559	522.010	233.176	414.453	322.581	425.332	443.569	401.324	238.474	262.680	451.709	0.00017835	9.3813e-05	1.6862e-05	144.55	1.0222e-06	4.3889e-07	315.44	37.54	8.4922e-07	9.1144e-07	105.4	34.97	12.418	5.9943	8.9147e-07	9.6044	4.1021e-06	2.2705e-06	6.732e-07	125.27	2.4115e-08	2.1326e-08	273.31	32.413	2.3509e-08	1.8722e-08	88.37	29.626	10.444	5.0477	1.9328e-08	8.0618	504.432	224.617	244.250	187.824	328.739	317.252	184.873	194.129	294.762	297.009	189.584	194.250	197.573	202.082	291.595	199.829	-8191	255	
3795.576	1	1	0	0	0.17873	0.047818	0.28504	0.18199	0.14731	0.26457	0.2514	0.12424	0.13625	0.035891	0.22355	0.12033	0.115	0.11347	0.30119	0.3878	-1.0021	-0.9625	-0.17292	-1.5146	-0.41042	-0.92083	-1.4208	0.054167	-1.5354	-1.1104	-0.41875	-1.8417	-0.40208	-0.79583	-1.4104	-0.3375	520.541	236.731	180.596	356.943	357.064	474.453	374.249	285.646	471.950	468.465	277.269	474.908	353.462	269.374	446.086	300.689	0.0001961	0.00014913	2.0785e-05	146.22	6.3006e-07	6.7617e-07	326.51	38.308	1.0529e-06	9.7529e-07	107.91	36.474	12.515	6.0725	7.6041e-07	9.8577	4.3474e-06	2.3303e-06	6.8947e-07	126.41	2.7939e-08	2.2422e-08	278.42	32.847	2.3448e-08	1.7763e-08	90.502	30.441	10.507	5.1341	1.9541e-08	8.1966	506.371	238.982	231.869	187.396	291.707	315.428	184.350	194.092	323.538	311.138	189.423	194.431	198.382	201.759	285.752	199.999	-8191	255	
3795.672	1	1	0	0	0.2463	0.083134	0.081981	0.27142	0.067385	0.043482	0.25805	0.11135	0.13673	0.12387	0.22871	0.23175	0.11786	0.10655	0.020335	0.059302	-0.88333	-0.89583	-0.32708	-1.3583	-0.4875	-0.6875	-1.2583	-0.29375	-1.0167	-1.1833	-0.32917	-1.225	-0.62083	-0.74167	-1.4813	-0.24375	384.870	441.280	425.916	260.275	446.014	190.501	447.924	433.510	482.454	533.922	339.924	241.923	301.683	488.261	519.581	302.076	0.00017182	8.4371e-05	2.8551e-06	150.4	5.5961e-07	5.3158e-07	323.42	38.65	1.1715e-06	9.321e-07	109.21	36.795	12.725	6.1038	1.0239e-06	9.9152	4.4035e-06	1.9909e-06	6.4377e-07	127.61	2.634e-08	2.0763e-08	279.57	33.177	2.2717e-08	2.198e-08	91.223	30.707	10.677	5.1481	1.7808e-08	8.2763	503.890	217.645	341.613	187.754	324.362	296.250	184.617	193.688	283.341	310.309	189.315	193.918	197.649	202.136	280.996	198.757	-8191	255	
3795.768	1	1	0	0	0.14023	0.1964	0.23232	0.049491	0.26863	0.27955	0.066468	0.38662	0.25786	0.026842	0.28326	0.10733	0.31822	0.19252	0.065389	0.16705	-0.8125	-0.95833	-0.39792	-1.4146	-0.50208	-0.62292	-1.6021	-0.3375	-1.2188	-1.1562	-0.2125	-1.4688	-0.6375	-0.5625	-1.4646	-0.62917	224.689	264.895	453.347	457.132	222.330	417.442	175.948	493.083	466.728	197.620	258.378	324.964	479.231	491.144	258.001	523.614	0.00015261	0.00011082	2.6089e-05	151.02	5.8408e-07	9.3188e-07	323.42	38.952	7.1002e-07	1.5134e-06	108.81	36.174	12.793	6.1039	2.1996e-07	9.7666	4.0309e-06	2.2538e-06	6.4841e-07	128.74	2.4237e-08	2.2711e-08	280.77	33.22	2.6798e-08	1.9103e-08	90.848	30.384	10.758	5.1222	1.9343e-08	8.1442	494.642	238.842	249.909	186.212	332.364	319.448	184.056	193.520	318.393	328.635	189.347	193.894	197.796	201.198	297.345	199.268	-8191	255	
3795.864	1	1	0	0	0.14514	0.12886	0.3387	0.15259	0.23166	0.044076	0.099116	0.22455	0.15089	0.06081	0.083357	0.16529	0.19424	0.19893	0.24431	0.031494	-0.775	-1.1896	-0.19792	-1.5063	-0.8	-0.58542	-1.6313	-0.022917	-0.98958	-1.3333	-0.4125	-1.4562	-0.51458	-0.3875	-1.2875	-0.55417	196.569	206.890	222.295	490.998	263.097	447.236	426.079	506.439	264.260	325.941	467.943	270.458	367.536	308.272	186.574	389.996	0.00019636	7.2925e-05	2.814e-05	150.15	4.1283e-07	3.2308e-07	327.39	38.829	1.4802e-06	2.7773e-07	109.15	36.651	12.648	6.1498	1.3868e-07	9.8985	4.4378e-06	1.8698e-06	6.9141e-07	128.42	2.3933e-08	2.1326e-08	280.83	33.276	2.561e-08	1.7215e-08	91.311	30.663	10.696	5.1947	1.793e-08	8.2716	506.796	294.940	243.128	186.839	297.901	323.297	184.472	193.483	288.978	280.004	188.921	194.042	198.545	201.848	244.632	198.458	-8191	255	
3795.961	1	1	0	0	0.12386	0.088672	0.18605	0.10016	0.34213	0.19137	0.16173	0.29765	0.26262	0.094768	0.14414	0.15533	0.14277	0.20581	0.018361	0.17003	-0.59792	-1	-0.21042	-1.4125	-0.70417	-0.4625	-1.4667	-0.34167	-0.8	-1.1417	-0.45417	-1.2771	-0.77292	-0.52708	-1.3813	-0.4375	402.426	231.814	384.494	342.674	442.458	192.764	452.711	399.493	308.705	513.054	228.574	414.774	341.083	392.251	253.666	428.240	0.000195	4.1951e-05	1.4081e-05	149.89	6.9611e-07	4.8494e-07	328.53	38.919	8.9688e-07	1.5079e-07	109.29	36.795	12.837	6.202	7.0409e-07	10.113	4.8269e-06	1.6236e-06	5.1904e-07	129.38	2.3354e-08	2.4447e-08	282.98	33.534	2.9234e-08	1.854e-08	91.817	31.112	10.909	5.2078	1.7565e-08	8.406	501.189	193.173	209.494	186.243	346.023	336.862	184.181	193.351	351.976	346.078	187.807	193.763	198.172	201.971	297.861	198.547	-8191	255	
3796.057	1	1	0	0	0.12914	0.33836	0.088246	0.28886	0.14799	0.17192	0.13433	0.22839	0.34708	0.15161	0.15817	0.24334	0.1517	0.12208	0.28128	0.02936	-0.56875	-1.2333	-0.49167	-1.3333	-0.84375	-0.51667	-1.3979	-0.4875	-0.79583	-1.3667	-0.41875	-1.0104	-1.0417	-0.2875	-1.3396	-0.72917	513.110	405.967	345.124	521.952	521.604	523.776	405.397	240.140	531.498	414.855	190.829	511.414	345.026	269.548	473.949	202.182	0.00015466	0.000113	4.0788e-05	151.32	4.3963e-07	4.8454e-07	329.26	38.497	5.7297e-07	5.5724e-07	110.05	37.4	13.259	6.1544	8.3215e-07	10.264	4.4446e-06	1.8156e-06	6.9838e-07	128.95	2.3796e-08	2.539e-08	283.74	33.295	2.5914e-08	1.5998e-08	92.008	31.367	10.955	5.2185	2.1349e-08	8.4512	505.094	254.941	248.159	186.996	324.855	331.328	184.639	193.175	306.218	300.620	188.859	194.010	197.489	201.049	324.063	198.506	-8191	255	
3796.153	1	1	0	0	0.11147	0.18656	0.30879	0.26311	0.062911	0.20217	0.1371	0.37271	0.40233	0.13935	0.18564	0.26574	0.16086	0.15185	0.2107	0.19876	-0.35833	-1.0521	-0.25208	-1	-0.87083	-0.50208	-1.2875	-0.5	-0.57917	-1.4833	-0.3125	-1.1125	-0.99583	-0.2375	-1.3188	-0.4875	502.723	253.703	416.750	330.278	190.706	251.585	205.328	514.355	283.118	472.957	471.848	369.838	454.221	221.673	302.055	204.454	0.00018913	0.0001051	1.963e-05	154.71	1.2005e-06	5.4637e-07	330.86	39.167	8.3065e-07	9.0129e-07	109.31	36.72	12.73	6.1592	8.782e-07	10.077	4.5159e-06	1.7613e-06	5.6978e-07	130.95	2.3704e-08	2.157e-08	285.33	33.737	2.8107e-08	1.8585e-08	92.582	31.033	10.792	5.2006	2.0148e-08	8.3793	494.253	292.608	260.996	187.018	304.261	313.673	184.564	193.660	292.266	294.905	188.957	194.658	197.230	200.818	272.706	198.872	-8191	255	
3796.249	1	1	0	0	0.12918	0.086797	0.41112	0.024873	0.21761	0.10247	0.14313	0.0992	0.11837	0.048795	0.20305	0.18897	0.11414	0.081126	0.27541	0.08325	-0.32292	-1.4146	-0.16042	-1.1354	-1.0646	-0.22708	-1.2812	-0.78333	-0.46458	-1.5562	-0.4	-1.2083	-1.0417	-0.32083	-1.2125	-0.59583	418.696	523.992	357.335	368.805	387.046	520.998	477.825	272.575	511.781	394.561	183.209	335.290	180.366	329.961	485.659	195.294	0.00021868	6.181e-05	2.7136e-05	153.49	4.5072e-07	1.0136e-07	331.26	39.275	1.3435e-06	1.3705e-06	111.09	37.123	12.861	6.2761	3.9232e-07	10.174	4.8639e-06	2.0048e-06	5.5777e-07	130.96	1.8936e-08	2.4675e-08	286.19	33.755	2.8655e-08	1.6941e-08	93.174	31.058	10.771	5.258	2.22e-08	8.3903	502.310	269.121	226.266	186.539	303.311	182.430	184.492	193.864	341.266	312.583	189.169	194.699	197.692	202.374	273.601	197.710	-8191	255	
3796.370	1	1	0	0	0.24009	0.14661	0.15524	0.11657	0.24979	0.29559	0.39241	0.19271	0.21695	0.40351	0.25667	0.10552	0.12363	0.16201	0.19914	0.10095	-0.25833	-1.275	-0.41042	-1.0729	-1.05	-0.33542	-1.4958	-0.50417	-0.47292	-1.4729	-0.31458	-0.86458	-1.3104	-0.35625	-1.2792	-0.63125	299.884	195.843	429.538	343.518	525.245	225.345	453.378	188.879	392.434	456.680	181.373	217.961	267.706	303.698	445.446	322.859	0.00019027	7.7878e-05	3.8658e-05	154.27	6.1739e-07	3.3695e-07	332.7	39.086	1.0602e-06	7.3176e-07	109.99	36.624	12.941	6.2349	5.332e-07	10.088	4.8104e-06	2.0437e-06	6.9916e-07	131.74	2.148e-08	2.5314e-08	285.64	33.602	3.001e-08	1.6119e-08	92.539	30.826	10.968	5.2054	1.9465e-08	8.4596	499.262	205.391	209.952	187.326	274.369	256.382	184.777	193.325	300.299	338.034	189.491	194.427	198.359	201.749	302.717	198.375	-8191	255	
3796.464	1	1	0	0	0.027431	0.099916	0.53037	0.16659	0.22831	0.2134	0.03687	0.19752	0.32907	0.056443	0.01979	0.1215	0.16293	0.099661	0.072599	0.11525	0.047917	-1.4167	-0.32083	-0.84792	-1.2604	-0.054167	-1.3396	-0.81667	-0.55625	-1.5167	-0.46875	-0.84583	-1.3896	-0.52917	-1.4625	-1.1396	245.978	260.795	304.606	506.948	477.555	383.422	333.170	475.197	345.633	390.532	290.240	344.291	195.407	266.660	202.410	357.427	0.00019275	0.00011786	3.1605e-05	153.2	8.9181e-07	4.0037e-07	336.82	39.029	6.2161e-07	8.2209e-07	112.14	36.979	13.028	6.2883	8.8037e-07	10.107	4.8529e-06	1.7752e-06	6.4183e-07	132.02	2.1328e-08	2.711e-08	288.03	33.625	2.8868e-08	1.4597e-08	93.844	31.11	10.959	5.2886	1.7231e-08	8.487	499.311	229.599	293.379	186.853	319.210	292.017	184.926	193.201	297.391	322.404	189.726	195.003	198.685	202.027	298.525	198.694	-8191	255	
3796.560	1	1	0	0	0.12064	0.11815	0.31818	0.21304	0.15435	0.20823	0.15315	0.09303	0.13905	0.16461	0.21068	0.086448	0.19293	0.18198	0.25148	0.23845	-0.025	-1.3833	-0.58542	-0.775	-1.3333	-0.34583	-1.2792	-1.0708	-0.63958	-1.4375	-0.59375	-0.84375	-1.2229	-0.39583	-0.94583	-1.0562	516.805	351.296	282.842	307.898	417.611	309.993	363.310	521.979	191.375	272.091	263.413	396.825	186.980	333.825	181.936	193.088	0.00018093	5.3825e-05	3.9012e-05	151.82	5.1644e-07	4.5446e-07	332.3	39.508	4.2868e-07	6.6621e-07	111.41	37.134	13.104	6.2243	7.3953e-07	10.181	4.8488e-06	1.8378e-06	6.3253e-07	130.89	2.0535e-08	2.1737e-08	285.38	33.919	2.6173e-08	1.822e-08	93.134	31.217	10.893	5.2157	1.7717e-08	8.4306	491.126	264.723	256.403	186.894	341.492	314.922	184.334	193.599	215.077	326.401	188.979	194.069	198.140	201.256	262.396	199.084	-8191	255	
3796.656	1	1	0	0	0.085932	0.085733	0.15853	0.073771	0.23016	0.17287	0.26348	0.27304	0.15878	0.059336	0.24398	0.25683	0.24996	0.1928	0.089003	0.20589	-0.064583	-1.4688	-0.70417	-0.84583	-1.375	-0.30417	-1.0583	-1.0438	-0.33958	-1.1458	-0.71875	-0.67292	-1.0896	-0.40833	-1.0708	-1.0958	438.527	220.439	316.605	427.534	368.609	222.867	360.586	513.541	280.962	403.264	535.008	475.699	385.649	224.296	437.127	245.918	0.00021256	0.00010352	9.4602e-06	152.83	6.2227e-07	4.0808e-07	328.79	39.237	9.0297e-07	8.6323e-07	109.91	36.522	12.89	6.164	6.8686e-07	10.028	4.9543e-06	1.6611e-06	4.8379e-07	129.69	1.9469e-08	2.0854e-08	282.31	33.474	2.8579e-08	1.994e-08	92.393	30.782	10.835	5.1785	2.0635e-08	8.3938	505.090	232.617	271.939	186.902	340.039	347.202	184.451	193.444	308.129	276.332	189.164	194.413	198.683	200.894	253.741	199.734	-8191	255	
3796.751	1	1	0	0	0.1365	0.26213	0.27315	0.23868	0.16355	0.072117	0.31001	0.097359	0.072201	0.006424	0.11921	0.066401	0.15511	0.2814	0.097953	0.154	0.06875	-1.3188	-0.53333	-0.54792	-1.3438	-0.42083	-0.97292	-1.0708	-0.34583	-1.3833	-0.76042	-0.5125	-1.4146	-0.39792	-0.94375	-1.3	337.163	196.525	518.772	522.987	370.834	360.229	249.772	533.254	417.821	338.148	513.617	425.716	484.713	494.071	467.509	379.540	0.00021032	0.00010719	1.6239e-05	151.91	8.3669e-07	3.6072e-07	328.57	39.314	4.3245e-07	5.8104e-07	110.65	36.815	12.826	6.2804	1.7484e-07	10.303	5.2886e-06	1.7655e-06	5.0897e-07	129.83	2.0383e-08	2.2194e-08	283.91	33.558	3.0756e-08	1.4217e-08	92.611	31.096	10.779	5.2513	2.1622e-08	8.502	495.575	248.079	513.637	187.876	336.522	347.625	184.594	193.650	330.546	282.395	189.066	194.670	197.639	201.461	360.596	199.260	-8191	255	
3796.847	1	1	0	0	0.25111	0.11909	0.25937	0.20107	0.14381	0.18414	0.12264	0.29925	0.047524	0.1312	0.14223	0.19332	0.21582	0.18473	0.12708	0.30465	0.05625	-1.2771	-0.67917	-0.26458	-1.4583	-0.11667	-0.79792	-1.2146	-0.14167	-1.4854	-1.0167	-0.55833	-1.5417	-0.18125	-0.70208	-1.5187	380.868	309.716	309.574	437.294	443.388	393.732	293.458	354.085	290.609	342.978	395.831	208.957	273.361	409.723	252.192	517.357	0.00020282	0.00011581	2.5865e-05	150.86	2.4264e-07	3.1405e-07	330.67	39.41	1.2363e-06	4.4784e-07	111.75	37.392	12.859	6.1855	6.4908e-07	10.228	5.0804e-06	1.7864e-06	5.5584e-07	129.36	1.4823e-08	2.4705e-08	285.38	33.718	3.266e-08	1.9712e-08	93.569	31.22	10.815	5.2584	2.2139e-08	8.5386	495.379	251.321	205.538	187.362	262.800	339.712	184.989	193.476	326.283	263.646	189.153	194.652	198.811	201.394	312.893	199.139	-8191	255	
3796.968	1	1	0	0	0.093939	0.28527	0.081318	0.12108	0.22514	0.16238	0.051699	0.13365	0.13038	0.064907	0.147	0.1743	0.097675	0.16718	0.15811	0.043685	0.23125	-1.3167	-0.95208	-0.28333	-1.5125	-0.40417	-0.62083	-1.4062	-0.24583	-1.2479	-0.92917	-0.27708	-1.4125	-0.44792	-0.69792	-1.3396	481.328	231.048	447.440	190.338	226.215	299.865	188.944	225.960	232.995	242.996	444.652	480.129	212.499	430.366	226.202	364.661	0.00016613	8.9388e-05	2.0305e-05	151.31	1.3043e-06	1.1683e-06	331.94	38.99	7.6794e-07	3.6899e-07	112.56	37.223	12.909	6.2507	7.3094e-07	10.229	5.1626e-06	1.7557e-06	5.5468e-07	131.02	1.9804e-08	2.329e-08	286.89	33.579	3.4091e-08	1.8342e-08	93.899	31.099	10.848	5.2512	2.4312e-08	8.4976	501.640	218.485	226.405	186.450	307.872	296.544	184.738	193.949	313.807	365.315	188.761	194.810	198.763	201.386	267.947	199.866	-8191	255	
3797.064	1	1	0	0	0.15356	0.16395	0.28688	0.23759	0.14537	0.3552	0.13964	0.03548	0.12285	0.12173	0.1071	0.17006	0.48097	0.12737	0.0071446	0.2721	0.01875	-1.2146	-0.66042	-0.1375	-1.4896	-0.41458	-0.73125	-1.3646	-0.2875	-1.1021	-0.95417	-0.3875	-1.625	-0.53333	-0.77292	-1.4208	335.799	263.285	437.143	443.133	533.812	463.344	502.318	254.479	422.918	298.636	237.008	385.347	199.272	192.128	511.137	449.118	0.00021775	4.9008e-05	3.8887e-05	155.48	6.4152e-07	1.083e-06	336.17	39.391	2.2062e-07	3.7963e-07	111.54	36.999	12.815	6.189	1.1376e-06	10.087	5.0625e-06	1.9338e-06	4.8418e-07	132.28	1.5204e-08	2.3868e-08	289.82	33.882	2.6615e-08	1.6302e-08	93.493	31.091	10.859	5.2269	2.7366e-08	8.4763	502.794	204.887	239.802	186.582	355.139	343.582	184.518	193.883	313.771	320.895	188.366	194.726	199.073	200.697	290.014	199.384	-8191	255	
3797.160	1	1	0	0	0.021401	0.18977	0.14588	0.1894	0.46645	0.038434	0.28513	0.16228	0.2005	0.17488	0.20449	0.13797	0.26228	0.086726	0.141	0.32059	-0.03125	-0.97917	-0.77708	-0.325	-1.4188	-0.64167	-0.67917	-1.3625	-0.3	-0.98958	-0.87708	-0.30833	-1.3667	-0.68958	-0.5125	-1.4813	533.717	497.232	222.489	296.241	467.274	394.972	356.169	316.750	362.098	477.347	316.288	188.869	490.954	382.135	245.137	470.953	0.00017213	8.0874e-05	2.294e-05	151.93	6.5341e-07	9.6596e-07	336.38	39.681	1.3046e-06	1.6448e-06	112.88	37.356	12.844	6.3922	1.306e-06	10.212	4.8474e-06	1.9436e-06	4.7992e-07	131.23	1.9225e-08	2.3183e-08	289.07	34.035	3.0071e-08	2.0168e-08	94.206	31.336	10.848	5.3215	2.6211e-08	8.5254	504.693	527.318	235.474	187.862	338.429	319.326	185.009	193.510	307.727	301.590	187.998	194.501	197.555	201.123	262.027	199.602	-8191	255	
3797.256	1	1	0	0	0.12449	0.21157	0.35845	0.16024	0.19506	0.1999	0.25577	0.023581	0.17744	0.33996	0.24434	0.24958	0.14396	0.17209	0.12441	0.19703	-0.05625	-1.0771	-1.075	-0.30833	-1.3917	-0.52917	-0.58542	-1.5625	-0.31667	-1.1646	-1.1229	-0.29375	-1.2958	-0.95417	-0.50208	-1.4708	342.858	471.676	233.421	191.312	463.202	198.969	466.053	194.959	180.125	199.343	423.775	463.359	373.086	400.397	392.445	412.476	0.00017775	1.7339e-05	1.2229e-05	152.9	8.2477e-07	6.5016e-07	338.01	39.577	9.1151e-07	8.4481e-07	112.78	37.226	12.965	6.4246	4.3767e-07	10.347	5.0283e-06	1.9199e-06	4.5087e-07	131.05	1.9774e-08	2.1448e-08	288.11	33.891	3.0604e-08	1.9286e-08	94.117	31.116	10.809	5.3588	2.4844e-08	8.5866	499.239	289.703	533.970	186.386	325.634	315.989	184.768	193.702	306.976	325.871	189.081	194.229	198.037	201.544	255.754	198.567	-8191	255	
3797.352	1	1	0	0	0.18718	0.14043	0.044751	0.088039	0.13703	0.20209	0.20173	0.29788	0.15996	0.066049	0.2347	0.015059	0.19546	0.031843	0.11478	0.042946	0.13125	-0.82917	-1.2708	-0.4375	-1.5646	-0.92292	-0.43125	-1.3375	-0.31667	-0.74167	-1.3979	-0.23958	-1.275	-0.72708	-0.28958	-1.3333	368.009	332.599	437.691	404.828	269.702	333.864	330.639	483.364	338.325	481.594	450.522	534.815	453.858	382.640	269.588	411.101	0.00017988	5.3225e-05	3.8736e-05	151.25	6.4424e-07	2.4204e-07	334.14	39.462	8.4905e-07	1.1718e-06	111.51	37.031	12.629	6.4206	1.0487e-06	10.341	5.0639e-06	2.1272e-06	5.0006e-07	130.44	2.1069e-08	2.2102e-08	288.44	33.881	2.9158e-08	2.3334e-08	94.015	31.107	10.771	5.3856	2.6348e-08	8.5654	502.477	231.492	220.539	186.045	322.630	332.389	185.186	193.510	337.205	290.178	188.464	193.771	197.162	201.273	277.295	199.164	-8191	255	
3797.448	1	1	0	0	0.074855	0.12653	0.12384	0.13031	0.044988	0.22854	0.29283	0.040574	0.17081	0.076401	0.13757	0.2536	0.12521	0.15743	0.073829	0.1984	-0.20208	-0.70625	-1.2958	-0.31667	-1.1354	-1.0646	-0.48958	-1.225	-0.72292	-0.83542	-1.4542	-0.47708	-1.1271	-0.9	-0.12917	-1.275	471.663	495.260	176.530	420.978	480.801	362.890	259.509	529.527	233.347	260.536	353.636	383.737	269.417	381.204	396.645	362.947	0.00018908	5.3353e-05	2.2084e-05	151.93	7.7837e-07	6.0701e-07	331.36	39.764	3.8855e-07	5.8962e-07	110.1	36.677	12.921	6.3478	4.1253e-07	10.154	4.794e-06	2.6211e-06	4.4622e-07	130.84	2.0155e-08	1.8799e-08	285.39	33.74	2.631e-08	2.2512e-08	92.949	30.755	10.724	5.3079	2.5056e-08	8.4644	498.873	276.705	231.868	186.673	298.205	270.006	184.513	193.728	332.053	314.465	189.858	193.461	199.438	201.653	321.081	199.492	-8191	255	
3797.544	1	1	0	0	0.11007	0.028804	0.12994	0.19426	0.066556	0.17024	0.41751	0.4086	0.12288	0.36453	0.11065	0.065681	0.08868	0.16642	0.17977	0.37795	-0.03125	-0.57708	-1.6083	-0.175	-1.1479	-1.2521	-0.28958	-1.2896	-0.4875	-0.72292	-1.4958	-0.37083	-1.1	-0.98333	-0.49167	-1.2792	524.190	214.987	401.383	486.266	442.681	333.300	418.361	505.357	264.907	437.945	361.284	317.333	315.166	313.891	186.336	219.411	0.00020481	9.5584e-05	3.442e-05	154.48	7.8679e-07	4.3557e-07	328.46	38.92	5.9542e-07	9.102e-07	111.46	36.907	12.728	6.3381	9.2507e-07	10.233	4.5679e-06	2.2719e-06	4.1562e-07	130.5	2.4969e-08	1.6683e-08	282.92	33.24	2.6052e-08	2.1203e-08	93.078	30.827	10.727	5.3495	2.8414e-08	8.532	500.215	253.671	244.960	187.220	334.601	357.641	184.811	194.355	265.595	304.342	189.976	194.447	198.113	200.795	272.009	199.065	-8191	255	
3797.641	1	1	0	0	0.15103	0.029663	0.18721	0.18235	0.040407	0.25802	0.20157	0.1683	0.09927	0.11166	0.23917	0.12283	0.187	0.089519	0.16204	0.12071	-0.25	-0.58333	-1.4188	-0.35208	-0.96667	-1.1708	-0.28958	-1.3417	-0.59583	-0.66875	-1.6271	-0.35417	-1.1354	-1.2667	-0.22917	-1.6146	509.087	527.029	186.801	421.483	388.854	214.172	451.415	437.388	177.833	209.519	496.558	238.934	513.077	507.199	254.668	526.554	0.00020148	3.6893e-05	3.0712e-05	149.21	9.9045e-07	1.079e-06	327.31	38.351	7.4291e-07	7.1304e-07	112.21	36.585	12.942	6.3627	3.96e-07	10.305	4.657e-06	2.1662e-06	3.5636e-07	128.28	2.4344e-08	1.9621e-08	282.94	33.279	2.6858e-08	2.1934e-08	93.911	31.129	10.866	5.3459	2.8095e-08	8.582	497.572	202.589	239.416	187.459	276.414	308.817	185.164	193.947	315.746	350.597	188.743	195.268	198.811	201.607	291.100	199.018	-8191	255	
3797.759	1	1	0	0	0.36113	0.1027	0.24904	0.11249	0.11339	0.083772	0.063729	0.34282	0.28543	0.087094	0.062869	0.0815	0.25567	0.28866	0.075837	0.15249	-0.38125	-0.31667	-1.7833	-0.39375	-0.85	-1.3958	-0.18125	-1.4646	-0.79167	-0.54375	-1.525	-0.46458	-0.975	-1.25	-0.33125	-1.3188	328.512	466.384	241.983	325.651	215.796	514.010	503.871	429.381	468.018	225.098	427.333	181.555	266.546	477.777	508.151	473.479	0.00022938	4.9517e-05	3.37e-05	152.28	6.8947e-07	9.1009e-07	334.65	38.781	5.5922e-07	5.6644e-07	112.43	36.685	12.662	6.3248	7.7234e-07	10.226	5.3544e-06	2.2524e-06	3.6333e-07	130.11	2.2881e-08	2.0093e-08	286.07	33.623	2.3981e-08	2.5542e-08	94.379	31.119	10.77	5.3618	2.6713e-08	8.6231	501.958	185.493	260.959	187.183	312.949	319.147	184.702	193.560	340.066	345.781	188.549	193.804	197.894	202.119	292.240	199.277	-8191	255	
3797.856	1	1	0	0	0.23416	0.22784	0.034734	0.108	0.30502	0.13017	0.23042	0.15866	0.23448	0.16742	0.026144	0.33094	0.18842	0.097269	0.27596	0.34009	-0.47917	-0.095833	-1.5292	-0.55625	-0.85417	-1.4979	-0.24167	-1.3375	-1.0229	-0.31875	-1.4292	-0.70625	-0.60833	-1.2583	-0.24583	-1.0708	211.605	291.679	320.196	253.905	420.813	483.221	393.314	509.979	193.318	267.699	257.541	459.167	281.753	496.594	523.823	286.326	0.00022191	0.00010746	2.6525e-05	153.42	2.1047e-07	6.3302e-07	331.42	39.398	6.9029e-07	6.7259e-07	112.42	36.678	12.911	6.3596	9.0457e-07	10.429	5.0379e-06	2.2469e-06	4.8108e-07	130.17	1.9759e-08	1.4781e-08	284.94	33.588	2.0829e-08	2.5344e-08	94.083	30.908	10.901	5.3575	3.0405e-08	8.6551	497.526	209.468	243.949	187.270	523.954	338.680	184.592	194.426	308.893	290.908	189.332	194.333	197.828	201.106	265.024	199.362	-8191	255	
3797.929	1	1	0	0	0.12941	0.13531	0.27047	0.26134	0.034024	0.095476	0.16192	0.21338	0.15081	0.12061	0.06847	0.27788	0.12747	0.36033	0.069013	0.038039	-0.5625	-0.33958	-1.3479	-0.37292	-0.78958	-1.3167	-0.37708	-1.2792	-1.1437	-0.43542	-1.3125	-0.37292	-0.63958	-1.2729	-0.50833	-1.0229	337.035	489.357	346.416	521.660	511.382	298.809	361.039	479.714	311.995	339.076	477.969	226.887	211.449	434.786	303.522	253.791	0.0002068	0.00011906	1.7326e-05	151.82	5.4114e-07	7.9273e-07	331.28	39.159	9.0296e-07	5.1926e-07	113.02	37.495	13.08	6.3449	7.1367e-07	10.341	4.8159e-06	2.4987e-06	4.0826e-07	129.83	2.6827e-08	1.6912e-08	285.4	33.668	2.3981e-08	2.6607e-08	94.407	31.257	10.935	5.3451	2.6895e-08	8.6429	496.092	216.802	217.661	186.565	321.965	302.400	184.617	193.219	274.660	339.813	188.642	194.047	198.257	200.233	284.861	198.985	-8191	255	
3798.048	1	1	0	0	0.31202	0.19738	0.14028	0.18518	0.067254	0.35187	0.21269	0.036779	0.34846	0.33818	0.15516	0.079719	0.089126	0.17638	0.055686	0.24829	-0.74167	-0.31042	-1.225	-0.68958	-0.54167	-1.5	-0.4625	-1.1479	-0.94583	-0.34167	-1.2979	-0.65417	-0.65417	-1.4167	-0.39792	-1.0312	182.080	466.456	199.024	287.722	450.055	382.841	427.802	512.264	292.795	176.862	318.997	195.856	360.037	218.921	263.974	228.532	0.0002001	7.6366e-05	1.8818e-05	151.49	6.61e-07	5.268e-07	326.75	39.265	1.0971e-06	1.3771e-06	111.21	37.574	13.071	6.4743	1.1376e-06	10.65	4.9653e-06	2.6545e-06	3.3854e-07	129.62	2.6477e-08	1.3685e-08	282.82	33.586	2.1514e-08	2.7003e-08	93.634	31.424	10.955	5.4174	3.1362e-08	8.8363	505.353	230.659	535.703	186.989	272.036	320.658	185.120	194.692	277.047	334.729	189.191	193.074	198.588	201.201	304.819	199.457	-8191	255	
3798.144	1	1	0	0	0.019312	0.17968	0.15375	0.162	0.20336	0.21364	0.32802	0.082759	0.20978	0.25551	0.30584	0.048281	0.19438	0.25015	0.094783	0.32155	-0.74167	-0.11042	-1.275	-0.72708	-0.36667	-1.3146	-0.58125	-0.83125	-1.1437	-0.27292	-1.3375	-0.83542	-0.33542	-1.5271	-0.55417	-0.92292	197.787	426.474	387.052	296.290	226.035	188.184	385.575	501.926	482.811	286.419	210.843	280.037	535.487	373.066	344.983	530.247	0.00017442	7.6438e-05	3.832e-05	152.67	5.9889e-07	7.2382e-07	329.41	38.97	1.4672e-06	5.0725e-07	111.51	36.642	12.478	6.3865	8.9271e-07	10.387	4.3939e-06	2.5474e-06	5.0277e-07	130.05	2.5304e-08	1.6851e-08	282.86	33.304	2.258e-08	2.2162e-08	93.38	30.827	10.734	5.3427	2.7032e-08	8.6161	501.149	223.997	215.136	187.338	282.588	298.990	184.664	194.871	312.693	285.927	189.155	193.835	197.293	200.798	280.400	199.757	-8191	255	
3798.240	1	1	0	0	0.21372	0.082772	0.2224	0.015542	0.095891	0.24031	0.16461	0.1583	0.15764	0.020789	0.069534	0.20258	0.23637	0.09739	0.02256	0.18811	-0.93125	-0.17708	-1.3792	-0.81875	-0.36458	-1.6	-0.46667	-0.69583	-1.3479	-0.32292	-1.3687	-1.0021	-0.34167	-1.5021	-0.30417	-0.73125	453.903	278.551	332.037	395.437	413.056	503.707	469.764	483.658	507.187	185.117	475.379	479.838	275.468	373.219	377.568	225.229	0.0001515	7.0664e-05	1.6514e-05	147.91	7.7422e-07	3.6915e-07	325.21	37.915	1.0814e-06	6.3221e-07	108.5	36.307	12.463	6.2469	8.715e-07	10.219	3.9075e-06	2.2385e-06	4.315e-07	127.08	2.602e-08	1.4978e-08	279.74	32.737	2.223e-08	2.1386e-08	91.151	30.357	10.537	5.2483	2.4236e-08	8.4761	499.179	228.729	209.190	187.268	255.121	283.940	184.650	194.184	324.960	345.025	188.949	194.213	199.558	201.237	296.356	199.180	-8191	255	
3798.336	1	1	0	0	0.072885	0.22291	0.17005	0.22103	0.13758	0.22843	0.19029	0.21775	0.013125	0.092744	0.11283	0.15875	0.24664	0.10783	0.15571	0.24515	-0.9375	-0.125	-1.1063	-0.79792	-0.43125	-1.5187	-0.47083	-0.72708	-1.475	-0.2875	-1.375	-0.90208	-0.36875	-1.4396	-0.46042	-0.64792	362.923	489.523	443.026	334.563	223.551	211.424	491.319	350.576	389.632	349.258	219.313	442.419	471.173	380.353	338.120	340.958	0.0001903	6.5291e-05	1.882e-05	148.49	1.189e-06	4.589e-07	321.06	38.256	6.8862e-07	7.8176e-07	106.37	36.195	12.794	6.1519	8.6467e-07	10.103	3.802e-06	2.29e-06	3.7456e-07	126.09	2.5852e-08	1.472e-08	277.2	32.631	1.818e-08	2.2315e-08	90.382	30.356	10.617	5.2398	2.4449e-08	8.4147	498.464	247.170	211.362	186.902	287.271	294.795	184.850	194.338	302.190	290.114	188.979	194.002	197.345	202.183	297.624	199.642	-8191	255	
3798.457	1	1	0	0	0.37137	0.1426	0.33807	0.19068	0.038746	0.086647	0.21558	0.10286	0.113	0.028726	0.17391	0.0033984	0.27834	0.10418	0.044195	0.14173	-1.1437	-0.2375	-1.2646	-0.86458	-0.22292	-1.5021	-0.52292	-0.68958	-1.5646	-0.30833	-1.2875	-1.2062	-0.14792	-1.3271	-0.65417	-0.59792	493.054	458.332	262.981	238.054	473.000	532.269	447.215	213.686	362.038	513.255	488.681	262.967	183.085	430.975	355.766	240.944	0.00018268	0.00010985	2.6751e-05	146.77	4.4954e-07	6.8874e-07	317.55	37.523	8.5574e-07	5.1677e-07	108.3	36.101	12.362	6.1228	1.9444e-07	10.118	4.0404e-06	2.7254e-06	4.6869e-07	125.56	2.41e-08	1.1021e-08	273.96	32.139	1.9154e-08	2.4948e-08	90.024	30.247	10.461	5.1821	2.0331e-08	8.3625	500.587	208.854	225.256	186.962	256.972	335.796	184.432	194.088	321.839	288.804	189.218	193.960	197.954	201.373	276.833	199.649	-8191	255	
3798.553	1	1	0	0	0.1185	0.13496	0.20753	0.23652	0.062281	0.14645	0.14476	0.20643	0.097634	0.28398	0.12841	0.27295	0.16677	0.14655	0.12934	0.038997	-1.1875	-0.2125	-1.0729	-1.0479	-0.3625	-1.2917	-0.71875	-0.52917	-1.3458	-0.45417	-0.86875	-1.1417	-0.36458	-1.3646	-0.675	-0.56042	501.438	484.083	226.997	325.821	414.915	331.112	393.122	189.100	276.461	243.391	302.856	227.600	337.364	209.572	368.284	318.159	0.00016809	0.00010279	1.8675e-05	145.6	8.3309e-07	5.8206e-07	317.46	37.396	6.1768e-07	3.7657e-07	106.54	35.382	12.53	6.1506	9.2943e-07	9.8277	3.8747e-06	2.546e-06	4.9619e-07	124.6	2.7817e-08	1.4233e-08	271.69	31.961	1.8697e-08	2.4278e-08	88.646	29.708	10.407	5.1403	2.0878e-08	8.2721	498.454	237.340	253.230	186.985	321.270	324.838	184.447	193.723	286.007	299.503	189.076	194.039	197.816	201.694	303.241	198.924	-8191	255	
3798.649	1	1	0	0	0.19341	0.080904	0.11046	0.14314	0.19152	0.080015	0.21704	0.1241	0.08309	0.11465	0.0185	0.30058	0.074106	0.35041	0.24771	0.094438	-0.9	-0.35417	-0.82708	-1.1625	-0.31458	-0.93542	-0.75417	-0.55625	-1.1104	-0.57292	-0.80625	-1.3042	-0.1125	-1.4062	-1.0438	-0.65	403.318	510.256	445.407	218.678	217.836	237.632	533.774	362.711	445.573	363.711	324.212	405.187	439.343	233.175	338.455	484.316	0.00015403	6.6581e-05	6.9979e-06	143.95	8.8889e-07	1.1754e-06	316.06	37.067	9.9238e-07	8.0716e-07	104.82	35.089	12.231	6.1055	1.0851e-06	9.7174	3.8582e-06	2.2135e-06	4.528e-07	122.59	2.5426e-08	1.7901e-08	270.92	31.912	2.1727e-08	2.2421e-08	88.215	29.574	10.329	5.1022	2.0878e-08	8.1366	501.199	219.205	247.720	186.397	287.494	331.597	184.000	193.046	317.022	272.343	189.944	193.634	197.501	201.557	278.913	198.524	-8191	255	
3798.744	1	1	0	0	0.05045	0.2548	0.14249	0.24242	0.12187	0.18637	0.15374	0.304	0.10426	0.091243	0.14066	0.15343	0.19039	0.053568	0.12493	0.1183	-1.0833	-0.46667	-0.71667	-1.2938	-0.275	-1.1833	-1.0229	-0.32083	-1.0583	-0.47083	-0.73958	-1.4271	-0.16667	-1.1396	-1.0521	-0.16875	176.808	228.914	410.406	460.516	436.364	466.045	534.427	229.271	378.890	288.325	466.034	205.058	192.616	237.919	178.673	508.047	0.00020788	6.4898e-05	2.4363e-05	143.44	5.8935e-07	7.9068e-07	315.06	37.215	8.8091e-07	8.0512e-07	106.18	34.962	12.412	6.1305	8.4219e-07	9.9871	4.2035e-06	2.1564e-06	4.7333e-07	123.14	2.0855e-08	1.9347e-08	271.34	31.709	2.1773e-08	2.0595e-08	88.771	29.593	10.432	5.1253	2.2245e-08	8.2916	500.768	193.244	251.265	186.593	314.229	339.392	184.543	193.520	272.430	293.418	189.108	193.968	197.466	201.393	264.829	199.704	-8191	255	
#DATA ENDS
