BOXY.EXE: ISS Imagent and Oximeter Data Acquisition Program Version 0.80
Ascii Record File

#ACQ INFORMATION
2  Detector Channels 
16  External MUX Channels 
1  Auxiliary Channels 
5000  Waveform (CCF) Frequency (Hz)
1  Waveforms Skipped 
30  Waveforms Averaged 
1  Cycles Averaged 
16  Acquisitions per Waveform 
10.0806  Updata Rate (Hz) 

#FILE INFORMATION
TRUE -- External MUX Channel results are PARSED.
FALSE -- AC DC and Phase are NOT grouped.
TRUE -- Companion Program Settings File CREATED.
FALSE -- AC data not excluded
FALSE -- DC data not excluded
FALSE -- Phase data not excluded
FALSE -- Auxillary Chn. data not excluded
Tab delimiters

#CALIBRATION STATE
TRUE -- Waveform Calibration Values APPLIED.


#AUX CALIBRATION VALUES
Val Type	aux-1	

Term	1.0000e+00	
Factor	0.0000e+00	


#WF CALIBRATION VALUES
A = Detector Channel
Val Type	A-AC1	A-AC2	A-AC3	A-AC4	A-AC5	A-AC6	A-AC7	A-AC8	A-AC9	A-AC10	A-AC11	A-AC12	A-AC13	A-AC14	A-AC15	A-AC16	A-DC1	A-DC2	A-DC3	A-DC4	A-DC5	A-DC6	A-DC7	A-DC8	A-DC9	A-DC10	A-DC11	A-DC12	A-DC13	A-DC14	A-DC15	A-DC16	A-Ph1	A-Ph2	A-Ph3	A-Ph4	A-Ph5	A-Ph6	A-Ph7	A-Ph8	A-Ph9	A-Ph10	A-Ph11	A-Ph12	A-Ph13	A-Ph14	A-Ph15	A-Ph16	

Term	0.00000e+00	0.00000e+00	0.00000e+00	0.00000e+00	0.00000e+00	0.00000e+00	0.00000e+00	0.00000e+00	0.00000e+00	0.00000e+00	0.00000e+00	0.00000e+00	0.00000e+00	0.00000e+00	0.00000e+00	0.00000e+00	0.00000e+00	0.00000e+00	0.00000e+00	0.00000e+00	0.00000e+00	0.00000e+00	0.00000e+00	0.00000e+00	0.00000e+00	0.00000e+00	0.00000e+00	0.00000e+00	0.00000e+00	0.00000e+00	0.00000e+00	0.00000e+00	0.00000e+00	0.00000e+00	0.00000e+00	0.00000e+00	0.00000e+00	0.00000e+00	0.00000e+00	0.00000e+00	0.00000e+00	0.00000e+00	0.00000e+00	0.00000e+00	0.00000e+00	0.00000e+00	0.00000e+00	0.00000e+00	
Factor	1.00000e+00	1.00000e+00	1.00000e+00	1.00000e+00	1.00000e+00	1.00000e+00	1.00000e+00	1.00000e+00	1.00000e+00	1.00000e+00	1.00000e+00	1.00000e+00	1.00000e+00	1.00000e+00	1.00000e+00	1.00000e+00	1.00000e+00	1.00000e+00	1.00000e+00	1.00000e+00	1.00000e+00	1.00000e+00	1.00000e+00	1.00000e+00	1.00000e+00	1.00000e+00	1.00000e+00	1.00000e+00	1.00000e+00	1.00000e+00	1.00000e+00	1.00000e+00	X	X	X	X	X	X	X	X	X	X	X	X	X	X	X	X	

B = Detector Channel
Val Type	B-AC1	B-AC2	B-AC3	B-AC4	B-AC5	B-AC6	B-AC7	B-AC8	B-AC9	B-AC10	B-AC11	B-AC12	B-AC13	B-AC14	B-AC15	B-AC16	B-DC1	B-DC2	B-DC3	B-DC4	B-DC5	B-DC6	B-DC7	B-DC8	B-DC9	B-DC10	B-DC11	B-DC12	B-DC13	B-DC14	B-DC15	B-DC16	B-Ph1	B-Ph2	B-Ph3	B-Ph4	B-Ph5	B-Ph6	B-Ph7	B-Ph8	B-Ph9	B-Ph10	B-Ph11	B-Ph12	B-Ph13	B-Ph14	B-Ph15	B-Ph16	

Term	0.00000e+00	0.00000e+00	0.00000e+00	0.00000e+00	0.00000e+00	0.00000e+00	0.00000e+00	0.00000e+00	0.00000e+00	0.00000e+00	0.00000e+00	0.00000e+00	0.00000e+00	0.00000e+00	0.00000e+00	0.00000e+00	0.00000e+00	0.00000e+00	0.00000e+00	0.00000e+00	0.00000e+00	0.00000e+00	0.00000e+00	0.00000e+00	0.00000e+00	0.00000e+00	0.00000e+00	0.00000e+00	0.00000e+00	0.00000e+00	0.00000e+00	0.00000e+00	-1.89397e+02	-1.65226e+02	-1.57126e+02	-1.83573e+02	-7.86518e+01	-6.98634e+01	-1.59024e+02	-1.62015e+02	-7.23741e+01	-8.28070e+01	-1.70632e+02	-1.70941e+02	-1.78840e+02	-1.76518e+02	-1.05877e+02	-1.49938e+02	
Factor	3.42563e-05	9.17672e-05	3.45975e-05	1.69658e-01	8.77912e-07	9.10906e-07	1.63438e-01	4.72968e-02	9.51688e-07	1.02407e-06	8.13686e-02	2.67452e-02	2.20867e-02	8.52368e-03	9.30633e-07	1.22118e-02	6.57652e-07	6.67795e-07	1.85925e-07	8.48753e-02	7.31233e-09	7.30656e-09	7.73714e-02	2.37719e-02	7.30843e-09	7.30628e-09	3.87263e-02	1.27484e-02	1.10087e-02	4.19686e-03	7.29356e-09	5.76721e-03	X	X	X	X	X	X	X	X	X	X	X	X	X	X	X	X	



#DISTANCE SETTINGS
A = Detector Channel
A-1	A-2	A-3	A-4	A-5	A-6	A-7	A-8	A-9	A-10	A-11	A-12	A-13	A-14	A-15	A-16	

2.5000e+00	3.0000e+00	2.5000e+00	3.0000e+00	2.0000e+00	3.0000e+00	1.5000e+00	3.0000e+00	3.0000e+00	3.0000e+00	3.0000e+00	3.0000e+00	3.0000e+00	3.0000e+00	1.5000e+00	3.0000e+00	

B = Detector Channel
B-1	B-2	B-3	B-4	B-5	B-6	B-7	B-8	B-9	B-10	B-11	B-12	B-13	B-14	B-15	B-16	

1.0000e+01	1.0000e+01	1.0000e+01	1.4400e+00	1.0000e+01	1.0000e+01	1.5100e+00	1.9400e+00	1.0000e+01	1.0000e+01	1.9900e+00	2.4900e+00	2.4100e+00	2.9000e+00	1.0000e+01	2.9800e+00	




#DATA BEGINS
time	group	step	mark	flag	A-AC1	A-AC2	A-AC3	A-AC4	A-AC5	A-AC6	A-AC7	A-AC8	A-AC9	A-AC10	A-AC11	A-AC12	A-AC13	A-AC14	A-AC15	A-AC16	A-DC1	A-DC2	A-DC3	A-DC4	A-DC5	A-DC6	A-DC7	A-DC8	A-DC9	A-DC10	A-DC11	A-DC12	A-DC13	A-DC14	A-DC15	A-DC16	A-Ph1	A-Ph2	A-Ph3	A-Ph4	A-Ph5	A-Ph6	A-Ph7	A-Ph8	A-Ph9	A-Ph10	A-Ph11	A-Ph12	A-Ph13	A-Ph14	A-Ph15	A-Ph16	B-AC1	B-AC2	B-AC3	B-AC4	B-AC5	B-AC6	B-AC7	B-AC8	B-AC9	B-AC10	B-AC11	B-AC12	B-AC13	B-AC14	B-AC15	B-AC16	B-DC1	B-DC2	B-DC3	B-DC4	B-DC5	B-DC6	B-DC7	B-DC8	B-DC9	B-DC10	B-DC11	B-DC12	B-DC13	B-DC14	B-DC15	B-DC16	B-Ph1	B-Ph2	B-Ph3	B-Ph4	B-Ph5	B-Ph6	B-Ph7	B-Ph8	B-Ph9	B-Ph10	B-Ph11	B-Ph12	B-Ph13	B-Ph14	B-Ph15	B-Ph16	aux-1	digaux	

3528.214	1	1	0	256	0.22148	0.071367	0.19242	0.12556	0.23483	0.1567	0.07397	0.20972	0.1175	0.17591	0.23911	0.25923	0.13529	0.24981	0.092542	0.40845	-0.41875	-0.76667	-1.5104	-0.49375	-1.0333	-1.225	-0.54792	-1.5854	-0.79167	-0.48125	-1.5812	-0.66875	-1.0292	-1.1854	-0.32708	-1.5771	126.732	-59.468	198.308	-67.981	78.052	113.562	137.374	83.304	-73.450	160.090	241.763	227.251	241.197	-83.278	50.251	145.335	0.00029255	0.00025465	0.00026511	957.6	4.8163e-06	4.0686e-07	1152.4	265.26	2.6512e-06	3.0922e-06	433.34	153.44	90.327	33.328	3.9032e-06	63.181	0.00018717	0.00018537	5.057e-05	838.17	2.0448e-06	2.0256e-06	1009.6	233.01	2.0255e-06	2.002e-06	373.1	132.24	78.875	28.993	1.9634e-06	53.956	127.682	-43.279	-19.528	-70.854	84.038	197.781	-71.072	-66.067	93.139	27.515	-67.274	-62.955	-61.750	-56.677	64.704	-58.507	-8191	255	
3528.310	1	1	0	0	0.18098	0.06155	0.15268	0.24249	0.44982	0.1603	0.21023	0.09522	0.14433	0.12186	0.29911	0.18331	0.25525	0.18265	0.11153	0.064037	-0.4625	-0.62708	-1.4625	-0.46458	-0.89792	-1.3229	-0.55625	-1.5292	-0.80833	-0.54167	-1.5854	-0.62292	-1.15	-1.3479	-0.19792	-1.3354	58.496	37.453	2.235	234.802	259.167	28.746	180.006	174.150	240.169	-64.960	197.155	268.538	264.474	-10.880	19.886	120.738	0.00033	0.00033069	0.00011344	953.4	2.2655e-06	2.327e-06	1139.4	264.03	5.0123e-06	1.2108e-06	431.09	153.06	90.297	33.149	5.0487e-06	62.869	0.00018701	0.00018246	4.9842e-05	834.47	1.9645e-06	1.9728e-06	995.17	232.47	1.9793e-06	1.9807e-06	370.71	131.71	78.674	28.938	1.9616e-06	53.591	163.177	199.463	274.522	-70.742	59.158	-23.229	-70.702	-66.333	-0.591	-20.563	-67.165	-62.955	-61.911	-56.915	25.984	-58.206	-8191	255	
3528.430	1	1	0	0	0.0071826	0.19848	0.30088	0.096131	0.30634	0.26145	0.32412	0.3368	0.15259	0.36834	0.15382	0.34952	0.20944	0.23821	0.39038	0.20196	-0.49583	-0.5875	-1.6042	-0.65208	-0.84167	-1.125	-0.57292	-1.35	-0.99167	-0.56667	-1.475	-0.3625	-0.775	-1.575	-0.37292	-1.1271	236.871	141.553	-80.285	76.603	271.614	195.198	-64.091	242.749	22.088	215.488	239.685	249.629	243.304	235.911	137.024	192.880	0.00039658	0.00023588	7.1526e-05	953.31	3.9186e-06	4.9271e-06	1134.5	262.83	3.8305e-06	4.7022e-07	430.56	151.07	90.12	33.072	1.4443e-06	61.879	0.00018744	0.00018068	4.9224e-05	832.84	1.9639e-06	1.9161e-06	993.2	230.98	1.9667e-06	1.987e-06	369.67	131.04	78.443	28.703	2.0594e-06	53.136	107.710	20.202	267.068	-70.801	18.289	131.024	-70.977	-65.919	92.499	-83.038	-67.607	-63.377	-62.208	-56.488	39.300	-58.198	-8191	255	
3528.527	1	1	0	0	0.25019	0.10937	0.306	0.16831	0.28745	0.093089	0.10347	0.29142	0.14407	0.21661	0.28038	0.28055	0.22337	0.26521	0.18605	0.079698	-0.50417	-0.55833	-1.4792	-0.6125	-0.6375	-1.375	-0.4125	-1.3292	-0.9875	-0.39167	-1.575	-0.67708	-0.88542	-1.4479	-0.44792	-1.3354	-16.552	134.835	275.454	210.554	-29.270	128.854	171.381	180.867	-6.379	273.650	253.165	227.837	-4.398	-84.003	265.667	228.488	0.00043874	0.00062141	6.0252e-05	941.77	3.8664e-06	5.9087e-06	1116.4	260.67	5.8996e-07	2.0102e-06	430.03	150.74	88.249	32.617	3.2453e-06	62.304	0.00020346	0.000193	5.3999e-05	828.88	2.1794e-06	2.2002e-06	986.14	230.77	2.2018e-06	2.1763e-06	368.92	130.55	77.974	28.609	2.1815e-06	53.463	122.416	23.887	217.233	-71.062	-60.886	106.695	-71.240	-66.226	69.462	70.372	-67.267	-62.800	-61.556	-56.466	7.664	-58.384	-8191	255	
3528.598	1	1	0	0	0.24599	0.056996	0.2948	0.27188	0.21227	0.27238	0.30595	0.11559	0.05866	0.2223	0.34264	0.18582	0.1327	0.03845	0.2204	0.18262	-0.59583	-0.41458	-1.2479	-0.92917	-0.81042	-1.5688	-0.60417	-0.97292	-1.35	-0.20417	-1.3667	-0.85417	-0.83542	-1.5479	-0.23958	-1.1896	220.670	161.640	-32.264	231.517	113.432	270.842	231.257	-76.628	116.719	213.311	253.154	244.278	185.638	237.087	29.269	236.353	0.00040735	0.00031852	0.00016122	950.36	8.1107e-07	6.827e-06	1127.9	260.37	7.7268e-06	6.9837e-06	427.13	150.71	89.143	32.662	6.1234e-06	61.827	0.00020986	0.00020293	5.7115e-05	834.56	2.3174e-06	2.2201e-06	990.35	229.82	2.2659e-06	2.2498e-06	368.6	130.82	78.208	28.503	2.2314e-06	53.001	101.413	-72.410	-26.321	-70.973	-1.096	76.830	-70.851	-65.497	67.355	76.693	-67.010	-62.650	-61.317	-56.567	114.673	-57.783	-8191	255	
3528.719	1	1	0	0	0.14677	0.21906	0.11848	0.14862	0.19075	0.23146	0.25361	0.069459	0.15566	0.087248	0.17104	0.21221	0.09339	0.01477	0.26064	0.38495	-0.68958	-0.46458	-1.1271	-1.1292	-0.77917	-1.3438	-0.61042	-1.3104	-1.1562	-0.45417	-1.4167	-0.8625	-0.54792	-1.4438	-0.51042	-1.1313	172.246	126.666	269.686	-68.505	259.217	265.443	236.939	24.804	209.465	164.620	221.862	147.691	-30.128	225.995	143.790	-82.072	0.00015039	0.00039903	0.00036872	945.95	1.2127e-06	8.3444e-07	1119.7	259.11	2.7973e-06	8.1874e-06	423.58	149.53	89.053	32.53	5.778e-06	61.283	0.00020945	0.00019849	5.57e-05	832.69	2.2245e-06	2.2139e-06	985.75	229.18	2.2374e-06	2.1952e-06	365.95	129.57	77.709	28.392	2.2523e-06	52.492	104.144	-49.640	12.625	-70.411	51.051	104.375	-70.917	-65.613	99.303	43.660	-66.580	-62.019	-61.037	-56.435	99.939	-58.214	-8191	255	
3528.813	1	1	0	0	0.2779	0.23605	0.42145	0.34974	0.096305	0.16421	0.26783	0.32729	0.23145	0.15488	0.23059	0.17399	0.13474	0.12514	0.23876	0.41012	-0.6875	-0.39583	-1.225	-1.1938	-0.41667	-1.4896	-0.8625	-0.83542	-1.2396	-0.425	-1.4646	-1.1125	-0.6375	-1.5917	-0.51667	-1.0688	86.950	175.880	202.926	222.257	126.841	238.385	239.715	197.519	-3.755	14.341	198.448	220.208	259.703	-28.532	79.582	-49.907	0.00043019	0.00081882	5.2461e-05	945.78	3.4777e-06	8.4227e-07	1121.4	259.58	8.3436e-07	4.7608e-06	420.4	150.76	88.293	32.693	4.555e-06	61.78	0.0002053	0.0002024	5.6761e-05	827.74	2.2418e-06	2.244e-06	982.82	229.36	2.2728e-06	2.2582e-06	366.12	130.41	77.796	28.591	2.2612e-06	52.889	138.116	1.442	44.499	-71.045	113.730	61.351	-70.445	-65.322	253.854	32.241	-67.452	-63.092	-61.978	-56.906	33.071	-58.036	-8191	255	
3528.911	1	1	0	0	0.14587	0.24355	0.21862	0.16145	0.13693	0.24727	0.23421	0.14307	0.2367	0.080099	0.20094	0.10599	0.21841	0.14236	0.039842	0.36917	-0.9375	-0.25	-1.4708	-1.1063	-0.59375	-1.3375	-0.79375	-0.97708	-1.4937	-0.26458	-1.4604	-1.0646	-0.44167	-1.6646	-0.67708	-0.76458	249.249	-23.292	-37.820	21.538	1.405	205.317	195.227	228.857	151.512	-9.449	187.232	-81.864	248.608	52.036	196.071	168.502	0.0003709	0.0003551	7.3006e-05	942.21	5.5568e-06	3.2216e-06	1123.5	261	9.9354e-06	3.4449e-06	426.87	151.54	89.79	33.415	1.9169e-06	63.069	0.00020417	0.00020208	5.6442e-05	827.99	2.2277e-06	2.2085e-06	981.02	229.5	2.1865e-06	2.2023e-06	367.81	130.87	78.464	29.001	2.1483e-06	53.711	133.359	214.562	-51.935	-70.976	-29.901	59.436	-71.036	-65.774	49.303	44.917	-67.670	-63.079	-61.452	-56.302	18.532	-57.938	-8191	255	
3529.030	1	1	0	0	0.14952	0.18907	0.12156	0.044881	0.22515	0.1084	0.37009	0.02601	0.22698	0.11231	0.1679	0.28353	0.14268	0.10571	0.11524	0.16359	-1.1562	-0.4625	-1.1396	-1.0417	-0.39792	-1.3042	-0.87708	-0.7875	-1.4583	-0.35833	-1.0729	-1.1542	-0.38958	-1.4688	-0.71875	-0.78958	112.905	131.643	135.989	-13.567	146.836	188.320	-70.123	144.011	-48.912	-15.764	230.915	267.481	265.213	68.826	4.880	13.063	0.00036174	0.00065967	0.00017356	947.68	6.4902e-06	2.7388e-06	1123.2	259.96	5.4232e-07	4.7227e-06	431.86	152.3	90.105	33.145	8.5548e-06	63.046	0.00019868	0.00019522	5.5066e-05	828.13	2.1449e-06	2.1549e-06	986.07	230.38	2.1012e-06	2.1182e-06	370.44	131.73	78.815	29.014	2.126e-06	53.86	117.626	17.354	59.796	-71.190	107.213	75.176	-71.016	-65.613	93.779	50.710	-67.266	-62.538	-61.272	-56.052	94.130	-58.170	-8191	255	
3529.126	1	1	0	0	0.27815	0.15962	0.24998	0.050879	0.070007	0.093034	0.49383	0.19035	0.1228	0.22295	0.22991	0.35557	0.11929	0.086337	0.26923	0.19349	-1.1021	-0.30208	-1.1854	-1.1875	-0.027083	-1.4896	-0.9375	-0.725	-1.5063	-0.43542	-1.2125	-1.3417	-0.61875	-1.4521	-0.60833	-0.82708	222.211	-73.727	56.764	36.698	274.265	165.306	209.912	187.390	180.688	270.203	249.819	214.680	131.896	197.443	-64.225	251.939	0.00042068	0.00076894	0.00034105	944	3.671e-06	5.3764e-06	1116.4	261.53	9.6346e-06	6.3593e-06	423.85	151.51	90.197	33.32	7.8156e-06	63.057	0.00019774	0.00020117	5.5674e-05	828.56	2.1842e-06	2.1734e-06	981.09	230.16	2.1548e-06	2.169e-06	368.39	131.09	78.962	29.21	2.1093e-06	53.89	118.898	-62.549	1.589	-70.750	26.361	30.099	-70.440	-65.051	96.269	115.017	-66.477	-62.321	-61.629	-55.930	64.798	-57.772	-8191	255	
3529.198	1	1	0	0	0.059	0.096256	0.3375	0.19492	0.11509	0.090216	0.31423	0.19528	0.25823	0.13138	0.099494	0.16786	0.11876	0.21017	0.23218	0.088592	-1.0667	-0.4	-0.95	-1.2583	-0.25208	-1.4229	-0.83958	-0.73333	-1.3625	-0.47292	-1.1063	-1.4375	-0.425	-1.5646	-0.78125	-0.63542	52.571	-71.907	242.776	228.016	145.649	97.010	153.058	-48.228	40.576	150.436	-58.857	260.387	130.761	229.284	6.787	185.348	0.00021439	0.00071733	0.00027123	941.47	3.2623e-06	6.329e-06	1115.3	264.33	3.0993e-06	7.4451e-06	431.53	153.93	91.347	33.914	2.7662e-06	63.969	0.0001999	0.00019627	5.3537e-05	828.51	2.1289e-06	2.1224e-06	979.3	232.07	2.0577e-06	2.1097e-06	370.77	132.96	79.873	29.554	2.0495e-06	54.385	153.899	-36.379	-33.194	-70.906	81.541	40.225	-71.872	-65.738	25.899	42.710	-67.488	-63.245	-62.468	-56.712	40.554	-58.353	-8191	255	
3529.318	1	1	0	0	0.26091	0.1782	0.13641	0.17722	0.15921	0.021219	0.31534	0.37988	0.14972	0.23846	0.065742	0.19494	0.25311	0.20963	0.23594	0.26985	-1.0562	-0.50625	-1.0458	-1.4188	-0.33958	-1.3021	-1.1667	-0.54792	-1.5875	-0.5125	-1.0063	-1.5583	-0.36042	-1.4146	-0.92917	-0.40833	252.116	70.060	251.255	-82.023	115.308	-42.231	164.814	228.478	227.306	-59.349	-63.381	208.191	259.213	39.038	107.967	-57.672	0.00044677	0.00039976	8.3376e-05	941.72	1.8365e-06	8.4419e-06	1116.9	265.88	2.0909e-06	2.077e-06	436.2	154.1	91.632	34.725	6.2728e-06	64.594	0.0001928	0.00018542	5.1619e-05	826.36	2.0538e-06	2.0391e-06	978.52	233.15	1.9866e-06	1.967e-06	372.02	133.48	80.267	30.069	1.9618e-06	55.278	126.609	-54.419	188.661	-71.213	236.651	44.791	-71.235	-65.820	87.344	-17.751	-67.099	-63.448	-61.583	-56.039	-59.152	-58.312	-8191	255	
3529.415	1	1	0	0	0.2721	0.052334	0.1369	0.2061	0.075845	0.14966	0.46849	0.18381	0.17087	0.15264	0.22889	0.11875	0.21396	0.31169	0.14474	0.21164	-1.2104	-0.5	-0.81042	-1.4479	-0.51875	-1.3896	-1.3229	-0.45833	-1.4521	-0.53958	-1.0583	-1.5708	-0.51458	-1.4417	-0.98958	-0.50417	27.430	61.197	257.133	174.562	42.404	75.491	210.953	245.704	-49.475	64.744	184.626	197.335	243.224	272.485	41.594	237.819	0.00034653	0.00087601	0.0002243	948.6	3.9961e-06	8.0545e-06	1121.9	266.98	2.2522e-06	2.6837e-06	435.19	155.17	92.387	34.67	2.2945e-06	64.729	0.00019178	0.00018846	5.217e-05	828.15	2.0767e-06	2.0713e-06	983.33	235.31	2.04e-06	2.0138e-06	374.77	134.28	80.753	30.136	1.9172e-06	55.075	137.874	-23.928	-75.856	-71.404	67.018	68.724	-70.782	-65.940	78.615	152.532	-66.901	-63.024	-61.934	-56.404	215.902	-58.245	-8191	255	
3529.511	1	1	0	0	0.40826	0.12579	0.075671	0.3224	0.14454	0.1939	0.2746	0.20774	0.27637	0.21915	0.28216	0.30246	0.19448	0.19034	0.038991	0.12615	-1.2146	-0.55208	-0.65417	-1.5812	-0.46458	-1.1979	-1.2021	-0.49583	-1.1958	-0.75833	-0.75833	-1.5542	-0.51458	-1.1521	-1.3813	-0.75	76.644	98.811	208.242	218.943	225.141	-75.283	165.692	202.214	45.554	78.429	226.235	185.497	-41.899	-38.975	12.438	162.468	0.00027161	0.00042047	0.0003688	945.03	2.2711e-06	2.0192e-06	1121.3	267.55	6.6319e-06	6.6362e-06	436.57	154.99	92.168	34.274	1.9614e-06	63.361	0.00018638	0.00017358	4.8789e-05	828.58	1.9029e-06	1.8887e-06	980.9	234.28	1.9047e-06	1.8799e-06	372.74	133.74	80.209	29.826	1.8331e-06	54.19	142.408	-71.730	-51.960	-71.057	-8.972	-3.814	-71.260	-66.121	102.876	-14.889	-67.237	-63.218	-61.246	-56.476	41.018	-58.467	-8191	255	
3529.607	1	1	0	0	0.18509	0.1033	0.080662	0.22565	0.11808	0.44995	0.33362	0.2607	0.39765	0.18747	0.39255	0.13694	0.22601	0.20073	0.067002	0.43081	-1.2875	-0.67083	-0.67083	-1.6521	-0.17083	-1.2021	-1.4417	-0.33333	-1.275	-0.77708	-0.55417	-1.7479	-0.61667	-1.0208	-1.3729	-0.38333	-35.230	169.212	173.541	-77.589	213.064	144.584	175.789	258.234	-40.863	179.615	265.907	237.621	202.323	245.024	-77.470	192.060	0.00037665	0.00017503	9.9482e-05	942.43	6.0483e-06	1.6302e-06	1117.1	264.18	8.3575e-07	4.3833e-06	432.55	153.38	92.014	34.012	5.0214e-06	63.084	0.00017623	0.00017019	4.6629e-05	825.41	1.8601e-06	1.8317e-06	977.37	232.24	1.9033e-06	1.8161e-06	371.03	132.36	79.95	29.722	1.8976e-06	53.961	156.715	257.909	7.024	-71.022	15.972	77.425	-71.406	-65.603	213.158	-36.269	-66.991	-63.018	-62.290	-56.592	62.378	-58.300	-8191	255	
3529.728	1	1	0	0	0.13504	0.049607	0.15065	0.29941	0.15207	0.074202	0.33616	0.19952	0.29682	0.47822	0.057748	0.2383	0.11754	0.26619	0.22448	0.10301	-1.0542	-0.975	-0.59583	-1.675	-0.28542	-0.89583	-1.6479	-0.475	-1.3646	-0.75208	-0.575	-1.5417	-0.54792	-0.9625	-1.5979	-0.35833	217.062	44.356	159.219	213.090	85.493	255.923	129.779	161.070	19.348	2.852	-21.515	146.914	168.016	188.263	-16.214	210.105	0.00026001	0.0004472	7.8254e-05	938.82	3.9304e-06	4.1692e-06	1111.6	267.36	4.9925e-06	2.7558e-06	433.26	154.01	91.519	34.605	5.6649e-06	63.876	0.00017835	0.00016872	4.7851e-05	822.19	1.9183e-06	1.8794e-06	974.53	233.62	1.8804e-06	1.8372e-06	372.3	132.99	79.984	29.925	1.8125e-06	54.464	109.823	20.251	153.452	-70.941	61.958	107.292	-70.740	-65.751	49.255	23.278	-66.567	-62.803	-61.509	-55.985	36.847	-58.154	-8191	255	
3529.799	1	1	0	0	0.37137	0.26576	0.095446	0.095484	0.04215	0.25699	0.35019	0.17967	0.35739	0.17141	0.22646	0.18183	0.27484	0.075811	0.25477	0.20992	-1.0625	-0.94167	-0.28125	-1.8333	-0.42917	-0.80625	-1.5458	-0.53542	-1.4125	-1.0292	-0.54792	-1.7104	-0.62917	-0.87292	-1.5063	-0.45625	51.225	202.858	-2.695	-13.647	60.921	26.833	241.589	132.942	162.557	-30.836	223.125	109.927	269.352	-71.346	-28.160	222.601	0.00033345	0.00041491	0.00027324	940.45	1.5459e-06	3.5357e-06	1114.3	264.96	6.5959e-06	6.788e-06	436.59	154.27	91.594	34.597	6.0171e-06	64.246	0.00017137	0.00016187	4.6493e-05	822.24	1.79e-06	1.7649e-06	976.64	232.75	1.7771e-06	1.7714e-06	372.71	133.25	79.943	29.995	1.7801e-06	54.774	148.490	-4.323	-56.827	-70.840	151.085	28.656	-70.972	-65.894	106.584	8.415	-67.391	-62.715	-61.517	-56.204	-44.023	-58.023	-8191	255	
3529.894	1	1	0	0	0.20332	0.27305	0.075221	0.11029	0.092665	0.16944	0.34564	0.13335	0.19235	0.30517	0.24184	0.25579	0.19889	0.20221	0.090292	0.051379	-0.96875	-1.1562	-0.65	-1.7	-0.65208	-0.6875	-1.6979	-0.73958	-1.1396	-1.1	-0.68542	-1.625	-0.65625	-0.72292	-1.225	-0.84792	51.207	16.339	-22.962	184.355	111.009	177.413	197.682	263.784	-41.407	221.646	205.957	229.194	274.545	-75.236	113.607	230.295	0.0003462	0.00029917	0.00010608	939.19	6.1747e-06	7.8492e-06	1116	266.82	6.9839e-06	3.9641e-06	434.19	154.6	91.397	34.705	2.8193e-06	63.91	0.00016896	0.00016217	4.5473e-05	822.86	1.7772e-06	1.7886e-06	975.35	233.11	1.7657e-06	1.7911e-06	371.27	133.2	79.953	30.08	1.7992e-06	54.585	113.391	-54.067	12.308	-70.678	68.447	104.887	-70.496	-65.180	52.524	-10.811	-66.753	-62.282	-60.985	-55.922	72.127	-58.045	-8191	255	
3529.992	1	1	0	0	0.28692	0.31883	0.33334	0.10811	0.30073	0.19058	0.30118	0.20981	0.097393	0.26783	0.15214	0.12698	0.12738	0.40232	0.097669	0.22864	-0.86667	-1.1167	-0.375	-1.5438	-0.80833	-0.80417	-1.7146	-0.52083	-1.0979	-1.1083	-0.31458	-1.6646	-0.79375	-0.81667	-1.4917	-0.53125	-69.886	61.177	271.371	219.806	-70.295	172.100	265.325	275.411	61.072	214.135	204.977	177.814	178.353	258.016	186.884	254.003	0.00046274	0.00062545	0.0001609	942.69	5.6429e-06	7.4717e-07	1118.4	264.86	4.1891e-06	5.5387e-06	430.55	153.86	91.429	34.431	3.6143e-06	63.285	0.00017227	0.00016811	4.5259e-05	821.58	1.7971e-06	1.7754e-06	976.22	232.2	1.7529e-06	1.7581e-06	370.39	132.18	79.317	29.729	1.715e-06	53.886	142.077	-36.141	266.768	-70.764	59.151	46.197	-71.028	-66.103	20.280	69.666	-66.766	-62.695	-61.144	-55.848	28.578	-58.279	-8191	255	
3530.110	1	1	0	0	0.1705	0.047169	0.1767	0.27683	0.067226	0.15835	0.12956	0.16162	0.1878	0.028053	0.31737	0.19385	0.25575	0.27834	0.37139	0.34133	-0.90833	-1.3438	-0.44375	-1.6604	-0.90208	-0.7875	-1.6979	-0.54583	-0.8125	-1.3438	-0.64375	-1.4542	-0.97708	-0.625	-1.4937	-0.85	202.795	43.108	178.323	212.194	52.762	187.076	206.743	145.332	184.400	162.693	208.431	165.004	205.136	241.798	-11.589	275.025	0.00033968	0.00083064	0.00032739	944.34	3.5306e-06	5.4281e-06	1118.7	265.94	3.0755e-06	6.1799e-06	432.45	153.42	90.962	34.423	8.0649e-06	63.845	0.00016179	0.00015743	4.4184e-05	823.41	1.7308e-06	1.7773e-06	978.16	232.12	1.724e-06	1.7329e-06	371.18	132.32	79.188	29.718	1.7086e-06	54.172	87.028	-14.326	-26.739	-70.515	3.943	109.413	-70.300	-65.561	261.697	10.855	-67.248	-62.870	-61.522	-56.302	88.533	-58.258	-8191	255	
3530.207	1	1	0	0	0.21131	0.23564	0.25943	0.18744	0.24136	0.0079319	0.15261	0.28495	0.096984	0.21697	0.33132	0.37463	0.074144	0.12874	0.14415	0.013457	-0.6625	-1.1667	-0.48333	-1.3521	-0.97292	-0.70208	-1.5917	-0.75625	-0.97292	-1.2146	-0.53333	-1.3292	-0.97917	-0.61875	-1.4146	-0.80625	128.422	-70.809	33.419	224.717	271.761	206.211	202.652	268.027	139.268	138.964	-54.197	211.804	254.715	258.435	257.284	146.155	0.00023289	0.00052329	8.9165e-05	942.1	3.7213e-06	3.861e-06	1120.4	265.78	4.3142e-06	6.0602e-06	433.86	153.28	90.752	34.528	4.5019e-06	63.48	0.00016452	0.00015723	4.3239e-05	824.28	1.7043e-06	1.7064e-06	980.43	233.12	1.6843e-06	1.6725e-06	372.01	132.52	79.21	29.684	1.6598e-06	53.995	87.183	-59.227	-16.197	-70.943	70.232	82.672	-70.744	-65.531	36.342	46.889	-66.740	-62.554	-61.581	-56.061	12.955	-57.541	-8191	255	
3530.303	1	1	0	0	0.046479	0.11757	0.017813	0.12404	0.057776	0.14437	0.26418	0.06349	0.16076	0.12332	0.1104	0.33508	0.32414	0.253	0.19941	0.079265	-0.90208	-1.3042	-0.45417	-1.2042	-1.0708	-0.625	-1.3167	-0.79792	-0.99375	-1.3312	-0.49167	-1.3646	-1.15	-0.46458	-1.2125	-0.63542	-15.597	-56.970	36.537	240.767	7.737	267.745	181.932	178.858	-17.264	11.250	-81.913	253.399	-81.003	193.599	182.877	222.619	0.00037546	0.00036288	0.00026638	947.14	1.5662e-06	4.1456e-06	1126.7	266.97	2.8715e-06	2.8149e-06	434.04	153.42	91.159	34.103	3.6244e-06	62.48	0.00016032	0.00015325	4.2023e-05	827.35	1.6612e-06	1.6832e-06	986.81	232.46	1.6935e-06	1.7221e-06	372.13	131.62	79.146	29.408	1.7291e-06	53.305	117.656	-36.248	51.902	-70.588	8.227	40.978	-71.148	-66.412	100.335	74.880	-67.493	-63.165	-62.161	-56.183	261.734	-58.493	-8191	255	
3530.399	1	1	0	0	0.15975	0.22622	0.24507	0.08938	0.083951	0.48765	0.1989	0.30036	0.12381	0.12807	0.36827	0.0483	0.23164	0.15637	0.15193	0.31077	-0.35417	-1.4188	-0.25208	-1.2729	-1.3229	-0.3625	-1.6292	-0.96042	-0.62083	-1.4292	-0.50208	-1.2938	-1.3062	-0.50833	-1.4875	-0.81042	267.773	18.418	148.126	181.924	56.267	-52.638	251.315	112.825	229.437	127.340	-52.866	6.354	177.376	-28.750	71.225	12.830	0.00040224	0.00028556	0.00016715	946.27	2.1701e-06	1.5009e-06	1124.9	264.73	3.1165e-06	7.6269e-06	432.17	151.28	90.303	33.673	1.1785e-06	62.338	0.00016619	0.00015692	4.2743e-05	827.67	1.7236e-06	1.711e-06	985.7	231.59	1.7358e-06	1.7231e-06	369.48	130.43	78.634	29.196	1.7041e-06	52.992	136.369	179.117	43.602	-70.899	106.347	224.654	-71.306	-65.997	83.806	51.642	-67.444	-62.888	-61.945	-56.372	127.484	-58.664	-8191	255	
3530.495	1	1	0	0	0.12372	0.094911	0.16884	0.25234	0.46677	0.18879	0.17195	0.29616	0.058816	0.18034	0.044114	0.19318	0.33841	0.22106	0.24552	0.15544	-0.49792	-1.4167	-0.36042	-1.2771	-1.025	-0.60208	-1.5396	-0.71875	-0.47708	-1.7208	-0.46042	-1.2333	-1.2542	-0.325	-1.3354	-1.075	31.523	-13.383	-18.417	-38.588	105.943	72.769	227.952	185.438	182.763	189.020	135.220	-69.092	264.480	138.716	95.869	231.730	0.00049514	0.00053295	3.0365e-05	953.73	5.1806e-06	2.5253e-06	1127.3	265.2	2.3319e-06	5.756e-06	432.71	151.56	89.572	33.625	1.6414e-06	62.051	0.00016679	0.0001592	4.3765e-05	829.86	1.7507e-06	1.7377e-06	989.81	232.33	1.7549e-06	1.7142e-06	369.61	130.28	78.149	28.998	1.7003e-06	52.764	103.978	117.739	270.973	-70.996	196.831	58.771	-71.280	-66.196	-7.247	64.014	-67.675	-62.944	-62.160	-56.165	55.966	-58.620	-8191	255	
3530.591	1	1	0	0	0.11062	0.11513	0.14808	0.037052	0.20651	0.095219	0.30566	0.068107	0.16701	0.27467	0.23573	0.1012	0.18216	0.2845	0.22903	0.1657	-0.3375	-1.3021	-0.42292	-1.1583	-1.2625	-0.30833	-1.4167	-0.98542	-0.5	-1.5562	-0.43333	-1.1979	-1.1729	-0.44375	-1.4271	-0.79583	-73.037	-43.147	-5.874	228.623	14.311	79.803	192.959	263.509	68.999	-29.786	271.679	142.313	68.591	237.209	-54.845	232.908	0.0001501	0.00047047	8.0774e-05	956.71	4.2364e-06	1.0492e-05	1139.9	266.28	1.6374e-06	4.5228e-06	434.73	151.66	90.116	33.704	3.5668e-06	63.073	0.0001634	0.00015628	4.3667e-05	833.73	1.7304e-06	1.6809e-06	995.48	233.31	1.7678e-06	1.696e-06	371.66	130.89	78.509	29.247	1.6782e-06	53.374	135.958	-48.206	55.932	-70.842	91.991	79.415	-70.739	-65.895	154.346	38.710	-67.288	-62.756	-61.737	-56.473	26.972	-58.453	-8191	255	
3530.712	1	1	0	0	0.19432	0.17764	0.18146	0.34068	0.16777	0.089393	0.07795	0.3952	0.1945	0.26164	0.12231	0.3786	0.13895	0.18589	0.14659	0.18141	-0.23333	-1.5	-0.48542	-1.1729	-1.5146	-0.27917	-1.6271	-1.2021	-0.31667	-1.6917	-0.5875	-0.86875	-1.3896	-0.64583	-1.375	-1.1562	48.153	220.676	-6.035	233.873	-54.661	-72.965	134.299	237.669	-75.678	220.309	119.717	212.780	102.053	231.266	254.503	117.740	0.00020859	0.0003331	0.00010047	957.09	3.0124e-06	3.9712e-06	1142.7	264.95	6.0504e-06	4.8944e-06	434.55	152.2	90.211	33.822	3.8831e-06	63.286	0.00016288	0.000154	4.2652e-05	835.9	1.6742e-06	1.6759e-06	998.46	232.84	1.6774e-06	1.6459e-06	372.23	131.44	78.784	29.335	1.6538e-06	53.692	100.294	270.342	-39.152	-70.852	118.468	-0.696	-70.802	-65.674	15.012	107.815	-66.713	-62.615	-61.432	-55.767	-1.790	-58.098	-8191	255	
3530.808	1	1	0	0	0.24256	0.18162	0.075837	0.29758	0.22567	0.30162	0.28571	0.19388	0.34282	0.025715	0.31419	0.29417	0.19198	0.2407	0.16096	0.14592	-0.21042	-1.525	-0.73125	-0.8875	-1.3312	-0.475	-1.5417	-1.1208	-0.55417	-1.4813	-0.87083	-0.9875	-1.3687	-0.55833	-1.2062	-1.475	246.321	156.069	53.389	200.043	194.322	97.621	215.767	40.766	273.195	-1.700	160.951	235.182	-77.555	226.776	70.871	79.486	0.00037682	0.00063943	6.8164e-05	954.55	7.4604e-06	2.3133e-06	1129.9	266.26	5.0926e-06	3.4561e-06	433.57	152.76	90.932	34.212	7.6477e-06	63.553	0.00016193	0.0001533	4.2796e-05	832.38	1.6387e-06	1.6461e-06	988.64	232.68	1.6306e-06	1.6206e-06	370.74	131.27	78.803	29.461	1.6743e-06	53.899	107.114	-73.525	266.316	-70.383	63.334	66.280	-70.792	-65.654	46.444	6.458	-67.311	-62.785	-61.791	-56.044	37.933	-58.469	-8191	255	
3530.902	1	1	0	0	0.2288	0.29152	0.044987	0.22288	0.084532	0.081435	0.26652	0.15336	0.21754	0.26005	0.21969	0.18445	0.20066	0.028119	0.092186	0.31674	-0.15833	-1.3083	-0.7	-0.88542	-1.4125	-0.63333	-1.2333	-1.1688	-0.4625	-1.4917	-0.62917	-0.83542	-1.3646	-0.35417	-1.2354	-1.2146	7.761	56.271	196.706	257.540	32.514	240.372	-76.691	168.642	112.015	-50.501	-75.883	136.211	157.590	195.323	-7.861	70.780	0.00029162	0.00044637	0.00012599	947.54	9.3194e-06	1.4407e-06	1130.2	266.69	2.051e-06	4.215e-06	434.44	153	90.79	34.407	2.4347e-06	63.85	0.00015663	0.00014955	4.2166e-05	827.76	1.6343e-06	1.6075e-06	986.14	232.74	1.6568e-06	1.6291e-06	371.62	132.13	79.142	29.725	1.6794e-06	54.256	106.711	-2.987	-4.597	-70.701	34.086	-14.755	-70.805	-65.748	9.682	-23.545	-66.959	-62.638	-61.416	-56.028	123.417	-58.642	-8191	255	
3530.998	1	1	0	0	0.080623	0.12165	0.15403	0.087453	0.074215	0.16613	0.11485	0.2029	0.25174	0.21787	0.054785	0.4362	0.29534	0.17466	0.17696	0.24049	0.0625	-1.4354	-0.55833	-0.74375	-1.5604	-0.38125	-1.1604	-1.3687	-0.26458	-1.3458	-0.91042	-0.81458	-1.7437	-0.525	-1.0833	-1.4333	249.453	105.065	251.151	265.413	10.330	77.427	206.404	-47.900	0.980	148.579	159.096	218.174	272.647	62.392	53.757	229.752	0.00023768	0.00038935	0.00030875	960.5	1.5424e-06	1.6973e-06	1138.5	268.57	4.7809e-06	8.3765e-06	437.47	154.69	91.369	34.592	1.8338e-06	64.221	0.00015718	0.00015432	4.2586e-05	835.33	1.6853e-06	1.6531e-06	997.84	234.47	1.6826e-06	1.6822e-06	374.07	133.06	79.789	29.828	1.7196e-06	54.54	130.493	-34.140	-42.053	-70.337	-54.672	105.617	-70.498	-65.542	66.092	44.091	-67.124	-62.835	-61.324	-56.282	81.859	-58.208	-8191	255	
3531.095	1	1	0	0	0.2174	0.15324	0.20633	0.28014	0.13251	0.05699	0.23488	0.1558	0.078481	0.21434	0.2017	0.26525	0.13814	0.5487	0.018737	0.45044	-0.12708	-1.3521	-0.77917	-0.5125	-1.3708	-0.24583	-1.1146	-1.5438	-0.34167	-1.2313	-1.0229	-0.61667	-1.7563	-0.53333	-0.92708	-1.3667	8.991	270.274	195.164	-77.517	39.543	227.444	233.941	120.773	263.273	17.837	251.158	45.331	85.292	230.848	230.799	199.459	0.00028255	0.00059733	5.0322e-05	968.51	4.3692e-06	4.3311e-06	1153.6	269.7	9.0056e-06	2.8896e-06	442.43	154.33	91.434	34.572	6.4799e-06	64.097	0.00016494	0.00015693	4.4441e-05	841.21	1.7251e-06	1.7477e-06	1008.4	235.52	1.7531e-06	1.7867e-06	376.66	133.09	79.821	29.86	1.7617e-06	54.49	99.854	-44.120	-67.495	-70.767	62.923	76.433	-70.872	-66.056	167.590	118.240	-67.534	-62.940	-61.702	-56.533	29.807	-57.965	-8191	255	
3531.191	1	1	0	0	0.23912	0.35054	0.2029	0.22879	0.042226	0.037591	0.44792	0.42562	0.29112	0.11007	0.35298	0.20635	0.087467	0.15941	0.12117	0.068317	-0.25	-1.2625	-0.96667	-0.53958	-1.4688	-0.63125	-0.94375	-1.6583	-0.26042	-1.2292	-1.1938	-0.65208	-1.6375	-0.62917	-0.92083	-1.3854	228.150	163.862	-27.374	270.053	123.472	175.287	233.818	247.138	254.434	269.955	224.164	267.623	147.229	225.102	-73.881	-68.148	0.00023955	0.00046156	0.00023139	968.32	2.817e-06	6.0731e-06	1150.2	267.89	4.8433e-06	4.2723e-06	438.05	155.08	92.877	34.663	4.2983e-06	63.949	0.00016978	0.00016497	4.4458e-05	842.38	1.7418e-06	1.7657e-06	1003.3	234.65	1.7628e-06	1.7826e-06	375.16	133.38	80.367	29.948	1.8229e-06	54.405	84.888	-49.600	-26.161	-71.086	119.224	63.806	-70.723	-65.607	44.967	70.514	-67.272	-62.917	-61.199	-56.429	-64.097	-58.348	-8191	255	
3531.287	1	1	0	0	0.33079	0.14542	0.18021	0.1391	0.25673	0.32136	0.13159	0.14679	0.38707	0.16239	0.075931	0.32943	0.17838	0.28924	0.095343	0.043685	-0.09375	-1.175	-1.0938	-0.425	-1.1792	-0.54375	-0.87083	-1.5458	-0.3625	-1.1958	-1.1396	-0.29167	-1.4458	-0.59583	-0.76458	-1.6833	119.373	-41.226	-69.982	-26.093	76.639	115.670	179.620	238.075	32.291	-53.975	-62.336	238.376	230.126	243.082	131.107	118.110	0.00033579	0.00015831	0.0001814	970.88	4.9738e-06	2.41e-06	1152.7	270.04	4.7561e-06	4.6255e-06	437.44	155.16	92.647	34.42	2.3764e-06	64.369	0.00017552	0.00017214	4.7334e-05	847.87	1.8624e-06	1.8713e-06	1007.6	236.6	1.8191e-06	1.835e-06	375.68	133.49	80.565	29.945	1.7902e-06	54.741	120.412	221.651	-45.522	-70.770	40.726	117.166	-70.437	-65.977	43.352	115.567	-67.131	-62.733	-61.425	-56.541	34.682	-58.140	-8191	255	
3531.408	1	1	0	0	0.041981	0.077306	0.27726	0.088376	0.12791	0.12515	0.08569	0.14979	0.052904	0.16562	0.15042	0.18694	0.20721	0.11056	0.30091	0.32963	-0.0041667	-0.91042	-1.0312	-0.56042	-1.3958	-0.71042	-0.74167	-1.5208	-0.53125	-1.225	-1.2667	-0.5125	-1.55	-0.69792	-0.65417	-1.7229	-30.636	137.086	35.913	-81.571	134.843	136.915	249.103	-56.711	22.171	53.041	253.680	93.486	151.744	163.258	185.018	165.331	0.00028166	0.00042963	0.00020688	976.71	3.3804e-06	5.0939e-06	1161.2	269.61	6.9086e-06	2.7335e-06	439.89	154.94	92.443	34.374	3.6243e-06	64.471	0.00017057	0.00016696	4.4974e-05	846.74	1.7818e-06	1.7946e-06	1012.9	236.35	1.8036e-06	1.8035e-06	376.57	133.17	80.284	29.743	1.7797e-06	54.687	110.815	-37.952	-59.440	-70.523	76.447	46.777	-70.782	-65.848	139.621	-79.211	-67.317	-62.534	-61.692	-56.345	52.634	-58.161	-8191	255	
3531.504	1	1	0	0	0.1349	0.091088	0.11938	0.21065	0.19512	0.25871	0.15603	0.23258	0.096243	0.077596	0.12878	0.20422	0.11626	0.26234	0.14013	0.31986	0.0875	-1.2271	-1.2229	-0.36875	-1.2542	-0.72708	-0.72292	-1.6792	-0.36875	-0.85625	-1.5292	-0.52292	-1.4271	-0.82708	-0.51042	-1.7417	119.371	1.062	217.262	122.616	252.828	-7.659	251.817	245.771	-63.252	243.556	171.570	209.693	237.916	263.024	150.101	233.231	0.00028984	0.00065521	0.00013012	970.32	4.117e-06	1.7917e-06	1176	271.96	9.2239e-06	6.9965e-06	443.7	156.04	92.414	34.025	4.0559e-06	63.603	0.00016961	0.00016333	4.5445e-05	849.92	1.8522e-06	1.7833e-06	1024.3	237.77	1.8967e-06	1.821e-06	378.91	133.92	80.716	29.619	1.8714e-06	54.231	126.948	-3.472	-70.619	-70.198	245.114	80.619	-70.224	-65.449	19.776	-70.854	-66.832	-62.734	-61.367	-56.300	88.823	-58.213	-8191	255	
3531.600	1	1	0	0	0.15595	0.1218	0.18191	0.15746	0.23589	0.095164	0.32322	0.061076	0.19746	0.11268	0.085677	0.3759	0.22911	0.027437	0.3444	0.16061	0.022917	-0.975	-1.3354	-0.575	-1.2646	-1.0063	-0.63958	-1.5896	-0.475	-0.73333	-1.4417	-0.25208	-1.5292	-1	-0.29375	-1.7646	-62.703	-8.671	161.982	-67.095	10.958	26.515	194.574	154.726	120.639	-56.361	-12.981	242.277	-16.511	106.254	221.721	276.263	0.00045445	0.0005185	0.00021492	987.41	1.0319e-06	8.0655e-06	1170.9	271.04	3.6201e-06	1.0591e-05	438.32	153.64	92.011	34.324	7.0623e-06	63.203	0.00018095	0.00017314	4.7349e-05	859.87	1.9481e-06	1.8813e-06	1022.5	237.62	1.9085e-06	1.8315e-06	376.01	132.82	80.386	29.631	1.8675e-06	53.928	98.781	0.631	-41.604	-70.968	51.435	53.245	-70.864	-65.709	93.210	55.569	-67.326	-62.546	-61.441	-56.279	55.866	-58.481	-8191	255	
3531.696	1	1	0	0	0.234	0.23422	0.04098	0.41121	0.25231	0.063496	0.21332	0.28379	0.22659	0.18989	0.16442	0.25061	0.25562	0.10702	0.31245	0.19013	-0.033333	-0.86875	-1.5021	-0.40208	-1.2021	-1.1104	-0.68333	-1.4062	-0.58542	-0.61042	-1.7229	-0.22917	-1.3958	-1.2521	-0.0083333	-1.6333	173.525	84.150	1.391	212.600	64.385	253.177	183.416	185.840	-73.599	95.515	219.729	275.348	192.133	247.590	202.880	263.597	0.00032544	0.00040929	0.00011105	975.55	7.3672e-06	3.9901e-06	1165.1	272.94	4.5601e-06	8.0248e-07	441.09	154.08	91.641	34.201	3.3703e-06	63.695	0.00018096	0.00017315	4.7332e-05	853.85	1.9172e-06	1.8931e-06	1018.6	238.27	1.9373e-06	1.8994e-06	377.31	132.72	80.533	29.674	1.935e-06	54.42	129.156	41.727	-49.533	-70.701	85.211	18.613	-70.318	-65.605	12.406	-13.825	-66.850	-62.185	-61.334	-56.304	128.397	-58.575	-8191	255	
3531.790	1	1	0	0	0.25181	0.043718	0.13882	0.48429	0.032245	0.064524	0.23597	0.097588	0.27796	0.28843	0.13114	0.13892	0.25971	0.32559	0.12559	0.25355	-0.17292	-0.59792	-1.5417	-0.35833	-1.1583	-1.1292	-0.32292	-1.6437	-0.53333	-0.53333	-1.7125	-0.4625	-1.3604	-1.3021	-0.25	-1.5792	256.575	98.940	164.501	210.068	116.866	130.896	133.448	209.361	176.611	157.557	261.266	228.894	197.059	272.140	33.112	10.830	0.00049812	0.00038383	5.4017e-05	993.59	5.3988e-06	4.0109e-06	1171.4	273.99	4.1223e-06	8.3423e-06	441.67	155.98	93.892	34.59	4.1396e-06	64.194	0.00018708	0.00018285	4.988e-05	869.37	2.0552e-06	2.0465e-06	1031.5	240.28	2.0719e-06	2.0322e-06	380.17	134.54	81.738	30.066	2.0567e-06	54.805	131.933	1.151	76.385	-70.997	118.929	10.539	-70.798	-66.048	72.364	43.960	-67.385	-63.073	-61.614	-56.859	-3.620	-58.208	-8191	255	
3531.887	1	1	0	0	0.32026	0.13477	0.28154	0.20355	0.25047	0.10569	0.047743	0.15511	0.068659	0.2534	0.1444	0.037798	0.093289	0.18594	0.13375	0.15245	-0.33542	-0.58333	-1.4562	-0.35208	-1.0333	-1.2375	-0.25208	-1.4062	-0.7375	-0.53125	-1.8375	-0.24583	-1.3042	-1.4146	-0.20208	-1.5729	219.347	217.276	207.376	272.406	34.111	-13.709	13.175	225.222	58.866	-58.766	5.399	163.537	217.139	134.653	155.510	267.923	0.00027665	0.00015424	0.00011245	990.62	4.179e-06	3.397e-06	1182.2	273.1	1.8438e-06	5.9904e-06	441.45	155.48	93.602	34.43	2.1735e-06	64.235	0.00019369	0.00018756	5.2054e-05	869.35	2.0338e-06	2.0044e-06	1034.9	239.96	2.0101e-06	2.0519e-06	379.37	134.41	81.568	29.957	2.0516e-06	54.669	138.945	230.455	-23.396	-70.867	3.631	92.221	-70.727	-65.777	168.984	22.820	-67.227	-62.800	-61.404	-56.905	-20.103	-58.093	-8191	255	
3531.983	1	1	0	0	0.019524	0.050715	0.2868	0.33555	0.17417	0.3123	0.22151	0.22345	0.13452	0.21115	0.4694	0.14049	0.16422	0.20338	0.19956	0.12159	-0.44375	-0.62083	-1.5896	-0.69167	-0.77917	-1.3188	-0.73333	-1.575	-0.65208	-0.32708	-1.6187	-0.49167	-0.94583	-1.6167	-0.18958	-1.6562	-75.850	4.197	217.848	231.249	184.108	41.268	219.355	-55.223	100.785	206.956	216.425	225.304	34.101	263.804	122.634	157.701	0.00039257	0.00042805	0.00010643	995.07	5.5253e-06	5.1016e-06	1173.5	271.89	4.9533e-06	1.5015e-06	436.7	152.82	93.062	34.348	4.5744e-06	63.189	0.00018929	0.00018704	5.252e-05	870.48	2.1097e-06	2.0321e-06	1030.3	238.89	2.0611e-06	2.078e-06	376.75	132.73	81.178	29.853	2.1433e-06	53.911	132.365	-1.252	-20.114	-70.756	8.339	113.400	-70.598	-65.713	14.401	44.978	-67.089	-62.873	-61.652	-56.420	74.430	-58.050	-8191	255	
3532.079	1	1	0	0	0.24891	0.17035	0.086411	0.028927	0.23358	0.088317	0.35063	0.11977	0.17568	0.096328	0.1174	0.39815	0.045098	0.21041	0.29449	0.3133	-0.88958	-0.27917	-1.6167	-0.45208	-0.74167	-1.5375	-0.51875	-1.3708	-0.73542	-0.25208	-1.5271	-0.57083	-0.8125	-1.4813	-0.39375	-1.1917	-79.571	33.779	231.406	-10.050	-38.169	137.737	209.045	209.594	213.530	208.566	166.027	-68.588	195.312	229.638	139.879	-60.869	0.00021731	0.00063078	0.00012858	986.68	3.7752e-06	2.2919e-06	1164.4	271.17	3.9541e-06	3.7868e-06	434.03	151.93	92.602	34.109	3.0541e-06	62.464	0.00019338	0.00019255	5.2846e-05	865.47	2.0891e-06	2.0785e-06	1022.2	237.05	2.0667e-06	2.1242e-06	374.18	131.82	80.756	29.576	2.1838e-06	53.611	127.204	258.110	99.551	-70.488	123.213	53.263	-71.009	-66.090	270.017	58.012	-67.512	-62.827	-61.847	-56.692	82.732	-58.529	-8191	255	
3532.199	1	1	0	0	0.092283	0.12322	0.24197	0.11151	0.24994	0.049688	0.13763	0.20583	0.11615	0.22665	0.26084	0.13661	0.46292	0.20985	0.033905	0.24214	-0.70625	-0.30417	-1.4813	-0.69167	-0.48958	-1.4312	-0.5375	-1.1542	-1.0688	-0.44583	-1.3312	-0.56458	-0.76875	-1.4292	-0.4625	-1.3646	234.631	95.316	143.645	252.819	34.197	45.470	244.170	244.860	25.769	15.710	-77.910	265.639	265.844	-14.376	139.826	-59.062	0.00017665	0.00027445	0.00014986	992.82	2.3205e-06	5.8014e-07	1165	267.12	3.9421e-06	8.9216e-06	432.33	152.33	93.004	33.759	4.3864e-06	63.186	0.00020066	0.00020048	5.5184e-05	868.16	2.166e-06	2.178e-06	1024.9	236.23	2.1914e-06	2.1665e-06	374.05	132.03	80.986	29.49	2.2201e-06	53.913	136.174	-10.773	-67.089	-70.954	81.432	194.975	-70.759	-65.721	113.843	22.522	-67.328	-63.180	-61.837	-56.855	108.565	-58.266	-8191	255	
3532.296	1	1	0	0	0.15664	0.16065	0.03029	0.33979	0.12438	0.15609	0.099516	0.17879	0.19934	0.13738	0.09312	0.2598	0.2528	0.14432	0.21106	0.18992	-0.625	-0.20833	-1.3979	-0.83125	-0.50417	-1.1812	-0.77917	-1.2792	-0.92708	-0.21042	-1.6979	-0.93542	-0.69375	-1.5625	-0.35833	-1.1021	212.044	146.948	222.138	274.934	128.313	-62.560	249.489	216.397	236.090	157.382	225.043	247.657	-23.073	-66.712	44.557	230.412	0.0002407	0.00057519	0.00017898	993.59	1.5308e-06	5.7991e-06	1168.3	267.27	1.0533e-06	1.0431e-06	433.93	151.89	91.503	33.503	5.7877e-06	62.583	0.00020775	0.00020307	5.5733e-05	866.68	2.1759e-06	2.184e-06	1024.5	236.29	2.1577e-06	2.1591e-06	374.42	131.85	80.447	29.403	2.1216e-06	53.645	136.122	-21.711	-36.574	-70.791	99.128	41.790	-70.779	-65.508	121.010	165.538	-66.752	-62.888	-62.120	-56.374	20.791	-58.606	-8191	255	
3532.392	1	1	0	0	0.044148	0.16377	0.14721	0.28062	0.084987	0.16887	0.07605	0.38815	0.12088	0.29184	0.15318	0.18177	0.24758	0.1845	0.15477	0.33828	-0.90833	-0.26667	-1.3708	-0.82292	-0.39792	-1.2833	-0.53333	-0.94375	-1.0208	-0.27708	-1.2896	-0.95833	-0.55833	-1.2833	-0.64792	-0.98542	86.716	23.054	191.926	202.484	41.545	232.466	238.363	244.932	103.332	183.958	235.406	167.887	-23.582	273.859	106.885	187.644	0.00031192	0.00059345	0.0002761	988.05	4.9301e-06	5.1224e-06	1162.6	268.4	1.5646e-06	9.3655e-06	428.2	152.51	90.579	33.594	8.0311e-06	61.311	0.00020352	0.00020176	5.4426e-05	862.83	2.198e-06	2.1678e-06	1019.7	235.53	2.1889e-06	2.178e-06	370.99	131.05	79.83	29.236	2.1004e-06	52.697	123.276	-75.847	-19.890	-70.799	134.095	25.966	-70.648	-65.310	45.438	-10.263	-66.779	-62.991	-61.231	-56.363	43.454	-57.474	-8191	255	
3532.488	1	1	0	0	0.33113	0.25433	0.19225	0.1571	0.38712	0.20538	0.34955	0.077692	0.1759	0.20035	0.10096	0.065616	0.099448	0.32721	0.14519	0.21328	-0.78333	-0.48333	-1.3104	-1.0438	-0.46667	-1.6542	-0.7375	-0.775	-1.5083	-0.30625	-1.625	-1.1875	-0.45	-1.5708	-0.57708	-1.0688	62.820	-0.311	117.364	201.811	72.359	269.652	212.365	176.989	33.194	193.061	9.322	179.624	253.109	229.970	97.851	258.891	0.00019599	0.00036081	7.3896e-05	955.12	3.5132e-06	6.0375e-06	1129.3	261.3	2.4211e-06	5.8232e-06	420.36	147.17	88.847	32.559	5.5764e-06	60.116	0.00020003	0.00019729	5.3796e-05	852.98	2.1574e-06	2.1657e-06	1006.9	232.6	2.213e-06	2.1515e-06	367.55	129.16	78.918	28.929	2.1538e-06	52.31	126.681	70.891	152.095	-69.390	33.069	14.283	-69.948	-65.204	45.625	-25.442	-66.083	-61.913	-61.079	-55.469	25.498	-57.129	-8191	255	
3532.584	1	1	0	0	0.25248	0.14655	0.20669	0.049907	0.13863	0.097249	0.40696	0.04801	0.0718	0.036205	0.1892	0.1543	0.086848	0.16077	0.14371	0.18902	-1.0229	-0.35625	-1.3479	-1.1833	-0.27708	-1.6458	-0.85417	-0.87083	-1.4604	-0.47708	-1.3188	-1.2479	-0.43542	-1.5292	-0.69583	-1.0042	12.165	70.746	-29.957	250.823	-82.389	-73.379	156.775	-43.668	211.601	80.113	256.622	208.519	83.804	-70.747	-1.342	26.459	0.00042428	0.0007701	0.00016034	956.77	5.0546e-06	2.2478e-06	1123.7	259.41	3.0486e-06	2.562e-06	419.71	146.46	88.898	32.598	4.5216e-06	60.848	0.0002058	0.00019616	5.4213e-05	850.15	2.1895e-06	2.129e-06	1002.2	231.11	2.159e-06	2.1572e-06	366.96	128.75	78.732	28.808	2.1554e-06	52.376	122.658	-22.796	-11.221	-69.893	-47.929	117.184	-69.897	-64.949	74.808	4.013	-65.932	-61.943	-60.641	-55.827	108.876	-57.801	-8191	255	
3532.680	1	1	0	0	0.063867	0.078872	0.2577	0.17188	0.12404	0.25511	0.23009	0.084265	0.073715	0.047482	0.2087	0.17608	0.13741	0.34765	0.26261	0.34701	-1.1688	-0.25208	-1.1833	-1.1812	-0.1375	-1.5375	-0.86458	-0.70833	-1.4458	-0.27708	-1.5417	-1.3729	-0.23958	-1.5104	-0.73333	-0.88125	210.404	-17.571	109.002	-26.878	144.172	7.483	240.764	52.136	17.310	-61.772	136.595	234.856	66.314	200.535	41.361	219.969	0.00029033	0.00086177	0.00028349	970.17	1.2539e-06	4.1816e-06	1151.8	261.14	2.4267e-06	3.472e-06	426.26	150.64	90.048	33.53	5.9698e-06	62.471	0.00020628	0.00019433	5.4406e-05	854.22	2.1874e-06	2.1349e-06	1011	232.12	2.2024e-06	2.208e-06	369.27	130.37	79.518	29.3	2.378e-06	53.612	114.262	-16.687	10.204	-69.854	188.783	110.680	-70.278	-65.203	264.433	58.879	-66.455	-62.369	-61.186	-56.202	16.959	-58.006	-8191	255	
3532.801	1	1	0	0	0.098558	0.22587	0.31448	0.20196	0.18681	0.047263	0.1571	0.085317	0.088314	0.13323	0.044852	0.19364	0.33547	0.13651	0.2558	0.38421	-1.0708	-0.28542	-1.1083	-1.3229	-0.47708	-1.5167	-1.1625	-0.63333	-1.4833	-0.65417	-1.0646	-1.1354	-0.55833	-1.425	-0.625	-0.73333	26.874	-43.915	197.573	263.215	10.287	87.486	220.454	135.607	143.220	-35.484	207.780	264.629	-78.795	11.319	180.818	227.732	0.00018343	0.00042369	0.00012808	976.51	4.4557e-06	4.285e-06	1158.9	264.52	5.3093e-06	6.2971e-06	425.08	150.75	90.643	33.602	2.4431e-06	62.104	0.00022276	0.00021606	6.0012e-05	862.2	2.4478e-06	2.3882e-06	1019.3	234.04	2.4612e-06	2.395e-06	368.24	130.87	80.178	29.362	2.4206e-06	53.291	176.889	-83.086	-55.979	-70.791	3.368	134.471	-70.344	-65.545	-31.918	106.216	-66.761	-62.943	-61.500	-56.678	3.374	-58.596	-8191	255	
3532.895	1	1	0	0	0.28368	0.37994	0.13348	0.37982	0.17625	0.19777	0.18817	0.19939	0.11772	0.21884	0.12696	0.11581	0.12491	0.24751	0.02675	0.078526	-1.0792	-0.52083	-0.93958	-1.1771	-0.33542	-1.0063	-1.2	-0.55833	-1.4521	-0.56458	-1.0396	-1.3438	-0.43333	-1.2854	-1.075	-0.53958	71.729	144.076	87.761	175.854	190.093	243.358	189.401	209.883	184.844	7.771	-34.728	-43.546	-70.058	2.783	14.828	189.370	0.00032103	0.00063468	0.00033264	974.9	3.7777e-06	3.2519e-06	1150.1	263.07	5.874e-06	2.164e-06	423.43	149.9	89.705	33.165	6.0392e-06	61.244	0.00021939	0.00021357	5.8466e-05	856.8	2.3126e-06	2.2503e-06	1008.9	232.08	2.2767e-06	2.2785e-06	365.71	129.31	78.938	29.037	2.3129e-06	52.666	112.126	-6.124	-36.749	-70.734	71.415	97.990	-70.898	-65.980	163.926	-6.405	-67.131	-63.109	-61.516	-57.029	-8.707	-58.466	-8191	255	
3532.967	1	1	0	0	0.097556	0.098949	0.16541	0.17767	0.1814	0.22649	0.21039	0.35657	0.18553	0.064472	0.23789	0.52254	0.18183	0.10027	0.12635	0.10514	-1.0333	-0.57917	-0.66667	-1.5125	-0.47292	-1.1146	-1.1208	-0.60625	-1.5229	-0.65208	-0.86875	-1.675	-0.42292	-1.3396	-1.0438	-0.41042	-81.405	169.512	107.390	190.789	-12.188	-26.354	-47.955	-83.029	-34.989	11.455	53.955	217.912	8.975	-68.799	159.700	30.471	0.00030498	0.00048507	0.00028694	976.01	1.6589e-06	5.4709e-06	1150.5	261.2	5.0716e-06	7.4568e-06	422.4	148.71	90.844	33.285	6.1025e-06	61.288	0.00021562	0.00021217	5.9041e-05	860.11	2.3263e-06	2.3135e-06	1013.7	231.73	2.349e-06	2.36e-06	365.91	129.78	79.743	29.146	2.3754e-06	52.617	108.825	67.007	-20.650	-71.168	250.807	72.982	-71.264	-65.937	65.917	-20.124	-67.199	-63.243	-61.717	-56.538	-37.138	-58.300	-8191	255	
3533.088	1	1	0	0	0.25717	0.077188	0.28691	0.092475	0.072393	0.2718	0.17365	0.077605	0.11677	0.14997	0.28241	0.026061	0.015582	0.19397	0.050964	0.30068	-1.0625	-0.51667	-0.61667	-1.4937	-0.3125	-1.1875	-1.2479	-0.25417	-1.4896	-0.72917	-0.73542	-1.6021	-0.62292	-1.1021	-0.8875	-0.31667	273.145	-82.371	104.236	184.015	142.679	37.144	-78.873	260.106	21.486	188.383	-47.734	199.876	185.637	-17.865	7.856	121.674	0.0004131	0.0010599	0.00026296	987.75	1.5812e-06	4.3632e-06	1154.8	262.24	4.0086e-06	3.828e-06	420.95	149.23	90.44	32.534	2.8133e-06	61.115	0.00021591	0.00021561	6.0718e-05	866.6	2.3294e-06	2.3751e-06	1018.6	232.06	2.3489e-06	2.3636e-06	365.87	129.93	79.193	28.637	2.3354e-06	52.368	109.872	-15.461	-58.674	-70.978	151.926	122.304	-71.024	-66.216	104.489	35.784	-67.085	-63.393	-61.942	-56.884	-19.941	-58.687	-8191	255	
3533.184	1	1	0	0	0.14027	0.20988	0.14446	0.15578	0.19131	0.041937	0.16052	0.2701	0.079692	0.029135	0.069699	0.55898	0.16089	0.08996	0.26291	0.23743	-1.225	-0.63125	-0.74375	-1.3854	-0.38958	-1.0396	-1.3458	-0.17083	-1.4125	-0.85833	-0.71458	-1.7062	-0.37292	-1.1896	-1.3042	-0.26875	3.808	239.384	235.280	165.017	240.330	205.167	213.842	125.852	-33.037	64.408	181.304	197.939	191.608	59.813	69.321	211.159	0.00029109	0.00041836	0.00017054	989.7	4.0133e-06	4.9652e-06	1163.6	262.89	4.2382e-06	6.9928e-06	422.89	149.92	90.501	32.683	9.7145e-06	61.474	0.00021801	0.00021627	6.0108e-05	869.61	2.3997e-06	2.4059e-06	1026.4	232.92	2.4133e-06	2.4514e-06	366.69	130.43	79.978	28.945	2.4355e-06	52.617	100.001	-1.327	264.804	-70.891	45.875	116.025	-71.124	-66.140	109.180	67.189	-67.048	-62.824	-61.933	-56.502	-14.746	-58.939	-8191	255	
3533.280	1	1	0	0	0.15267	0.16378	0.076951	0.067101	0.040874	0.2725	0.050275	0.21816	0.17683	0.19675	0.14517	0.2129	0.13567	0.17886	0.2566	0.27012	-1.2625	-0.89375	-0.58958	-1.6625	-0.225	-1.1625	-1.525	-0.44792	-1.4771	-0.79583	-0.5625	-1.7938	-0.35	-1.1875	-1.5104	-0.2	-20.970	175.041	16.244	-75.109	273.961	118.153	-31.125	167.631	209.005	-24.998	228.204	43.271	245.374	69.996	100.963	120.299	0.00017775	0.00059691	0.00028585	989.82	5.7674e-06	7.2276e-06	1156	263.95	2.1992e-06	5.8241e-06	422.03	148.9	90.005	33.14	3.4414e-06	60.96	0.00022478	0.00022909	6.2606e-05	869.54	2.4257e-06	2.4974e-06	1020.9	233.04	2.4656e-06	2.4622e-06	364.79	129.8	79.47	29.002	2.4447e-06	52.51	99.401	205.540	23.549	-71.384	10.002	85.201	-70.945	-65.963	35.453	192.233	-66.955	-62.985	-62.044	-56.445	13.867	-58.792	-8191	255	
3533.376	1	1	0	0	0.17249	0.19645	0.11398	0.14895	0.16073	0.11597	0.18633	0.14862	0.35414	0.22665	0.25734	0.08362	0.23782	0.4125	0.027456	0.31077	-1.3604	-1.0125	-0.35208	-1.7292	-0.31667	-0.87917	-1.7792	-0.16875	-1.6625	-1.0375	-0.56042	-1.8833	-0.53542	-0.8375	-1.6625	-0.04375	228.782	246.451	-2.100	-46.041	141.192	213.747	174.016	242.492	226.696	41.440	245.345	12.741	208.622	26.289	103.739	238.852	0.00016238	0.00062675	0.00021753	987.6	2.3893e-06	6.0664e-06	1153.6	262.68	8.5313e-06	5.0282e-06	420.42	148.8	90.371	33.089	2.7884e-06	61.33	0.0002287	0.00022464	6.148e-05	868.74	2.469e-06	2.4727e-06	1016.6	232.84	2.4248e-06	2.4178e-06	363.89	129.54	79.552	29.052	2.4024e-06	52.855	173.167	272.391	-21.515	-71.191	70.473	89.411	-70.883	-65.878	22.923	115.026	-67.097	-63.093	-61.972	-56.796	2.508	-58.439	-8191	255	
3533.472	1	1	0	0	0.30363	0.083814	0.21632	0.17648	0.29586	0.086472	0.092069	0.16015	0.097668	0.11331	0.50047	0.12041	0.21253	0.26734	0.092368	0.15594	-0.9375	-1.1521	-0.34375	-1.8188	-0.50417	-0.49792	-1.8604	-0.47292	-1.1292	-1.0187	-0.65625	-1.6604	-0.73125	-0.64583	-1.4937	-0.86875	93.635	-37.671	153.524	224.276	150.365	210.460	-68.635	229.401	249.346	-21.207	224.349	209.273	176.862	250.278	99.766	143.237	0.00034525	0.00082572	0.00040519	987.75	9.3025e-06	5.0186e-06	1156.2	263.97	4.0609e-06	6.9178e-06	420.21	148.2	90.251	32.846	6.3815e-06	61.539	0.0002332	0.00022711	6.2686e-05	867.53	2.4682e-06	2.4471e-06	1013.6	232.83	2.3716e-06	2.4117e-06	363.3	128.77	79.07	28.836	2.3493e-06	52.998	107.976	-11.753	2.762	-70.801	36.507	114.354	-71.039	-66.104	71.454	153.337	-67.156	-63.066	-61.550	-56.810	61.605	-58.020	-8191	255	
3533.593	1	1	0	0	0.1108	0.092108	0.17528	0.10988	0.14388	0.23769	0.0088684	0.21308	0.11391	0.1515	0.17165	0.049407	0.15913	0.2038	0.26897	0.15605	-0.85208	-1.1771	-0.2625	-1.5604	-0.64167	-0.66667	-1.5312	-0.26875	-1.1042	-1.0479	-0.43958	-1.5812	-0.84167	-0.59375	-1.4354	-0.65833	264.524	190.462	21.444	216.821	132.847	155.517	88.724	252.354	90.291	-2.354	-67.128	49.209	236.556	-3.234	198.793	40.060	0.00016107	0.00027491	0.00014866	978.26	2.8249e-06	1.3394e-06	1152.9	262.95	6.1397e-06	1.8385e-06	420.91	148.27	89.037	32.922	3.476e-06	60.804	0.00022359	0.00021421	5.9786e-05	861.86	2.4292e-06	2.4116e-06	1013.1	232.51	2.4225e-06	2.3647e-06	363.85	128.75	78.485	28.85	2.3425e-06	52.525	87.520	-25.134	48.045	-70.307	3.862	112.453	-70.819	-65.422	-14.445	98.604	-66.893	-62.865	-61.990	-56.431	-19.684	-57.939	-8191	255	
3533.664	1	1	0	0	0.12434	0.10698	0.33488	0.36249	0.072666	0.26849	0.34015	0.28008	0.15282	0.19737	0.11794	0.25544	0.20427	0.022374	0.036638	0.16399	-0.70833	-1.2729	-0.32917	-1.5146	-0.60208	-0.76042	-1.7792	-0.58333	-1.1229	-1.4104	-0.375	-1.5625	-1.0083	-0.72917	-1.55	-0.49375	-37.297	111.966	133.790	159.199	178.946	-48.160	178.936	253.607	-74.932	101.012	210.818	239.388	237.475	217.497	111.517	-26.371	0.00033859	0.00021209	0.00010679	976.87	2.19e-06	9.4634e-06	1144.3	260.61	1.5861e-06	1.4928e-06	418.51	145.32	87.902	32.215	6.1709e-06	60.249	0.00021993	0.00021007	5.8346e-05	855.39	2.315e-06	2.2829e-06	1004.1	229.9	2.2704e-06	2.2193e-06	360.51	126.39	77.266	28.232	2.2129e-06	51.598	127.977	-43.607	242.900	-70.322	270.013	40.877	-70.203	-65.565	92.451	-14.613	-66.505	-62.401	-61.793	-56.231	3.171	-58.030	-8191	255	
3533.761	1	1	0	0	0.32548	0.12505	0.052764	0.12965	0.022305	0.076155	0.053818	0.15451	0.053533	0.22308	0.34616	0.18561	0.12574	0.23631	0.1337	0.21621	-0.59583	-1.4062	-0.0875	-1.6313	-0.925	-0.25417	-1.6792	-0.74583	-1.0375	-1.5812	-0.57917	-1.4188	-1.0458	-0.58958	-1.625	-0.72083	143.763	-0.758	225.340	231.444	183.970	53.956	265.052	242.264	93.046	88.984	215.035	196.208	264.116	204.955	88.891	255.753	0.00020179	0.00024122	0.00020403	975.82	5.2454e-06	2.6334e-06	1142.7	260.61	1.7399e-06	3.0226e-06	411.95	144.71	87.824	31.939	3.0247e-06	59.4	0.00021308	0.00020424	5.6952e-05	853.38	2.2963e-06	2.2366e-06	1001.6	228.88	2.288e-06	2.2117e-06	357.67	125.87	76.995	27.979	2.3103e-06	51.226	115.329	146.200	-18.229	-70.380	25.339	147.202	-70.379	-65.373	222.590	118.267	-66.718	-62.581	-61.275	-55.815	-62.455	-57.865	-8191	255	
3533.881	1	1	0	0	0.19034	0.18496	0.12848	0.12486	0.13948	0.091564	0.28867	0.30467	0.14063	0.19845	0.16936	0.23693	0.13618	0.25639	0.095767	0.1287	-0.66042	-1.3	-0.27917	-1.3792	-0.93125	-0.5125	-1.5354	-0.68125	-0.79583	-1.5083	-0.5625	-1.4375	-1.0625	-0.48333	-1.425	-0.60833	131.443	-45.418	76.070	124.609	38.692	176.463	225.049	-47.745	157.003	96.748	231.718	234.823	260.034	-26.063	123.275	103.681	0.00019538	0.0002742	0.00026168	962.07	6.3039e-06	4.1822e-06	1131.6	257.12	6.8485e-06	8.3276e-06	413.59	143.77	85.577	31.56	1.8114e-06	58.765	0.00021266	0.00020521	5.7747e-05	848.91	2.2592e-06	2.2181e-06	997.26	227.47	2.1945e-06	2.1645e-06	358.2	124.93	75.895	27.602	2.1546e-06	50.509	108.988	162.155	9.081	-69.978	18.732	136.063	-69.956	-65.482	-15.532	108.400	-66.603	-62.135	-61.179	-55.834	74.003	-57.535	-8191	255	
3533.976	1	1	0	0	0.037815	0.064299	0.31837	0.35161	0.20458	0.16297	0.36798	0.40386	0.10786	0.16613	0.086838	0.55352	0.39313	0.21602	0.12951	0.35193	-0.27917	-1.5333	-0.40208	-1.3396	-0.96458	-0.4125	-1.5	-0.68958	-0.79583	-1.5542	-0.53542	-1.3	-1.3833	-0.50625	-1.5021	-0.79583	-44.596	51.822	21.726	245.082	11.914	217.609	231.049	187.100	116.709	-17.862	231.327	232.954	263.204	260.048	-8.468	273.312	0.00027173	0.00066368	0.00014987	958.11	5.1072e-06	6.0061e-06	1132.8	256.42	2.2654e-06	4.0006e-06	410.01	143.38	85.803	31.028	1.7058e-06	58.154	0.0002027	0.00019668	5.5324e-05	845.75	2.1528e-06	2.1575e-06	997.35	226.1	2.155e-06	2.1729e-06	357.06	124.39	75.754	27.452	2.2116e-06	50.361	100.859	-79.766	48.378	-69.959	-16.515	58.317	-70.009	-65.418	35.487	92.516	-66.414	-62.196	-61.425	-55.866	90.886	-58.001	-8191	255	
3534.072	1	1	0	0	0.14304	0.35933	0.2375	0.41806	0.25585	0.095766	0.11186	0.19654	0.16952	0.1872	0.1083	0.39162	0.13497	0.20375	0.21381	0.41647	-0.50208	-1.7542	-0.20625	-1.1771	-1.3271	-0.31667	-1.6979	-0.99792	-0.74792	-1.425	-0.6125	-1.25	-1.2646	-0.3	-1.2917	-0.9125	266.936	166.560	-16.396	235.700	146.065	72.573	257.296	197.546	4.200	14.417	259.626	-67.472	275.197	164.103	174.102	249.665	0.00042608	0.00026229	0.00024346	955.76	6.4006e-06	1.9975e-06	1120.3	255.05	2.8624e-06	2.8022e-06	408.07	142.12	85.963	30.875	4.3013e-06	58.05	0.00021032	0.00020575	5.7246e-05	845.78	2.2923e-06	2.3485e-06	994.79	226.79	2.3747e-06	2.3687e-06	356.83	124.31	76.289	27.574	2.4035e-06	50.243	167.392	223.252	-26.451	-70.007	51.844	49.357	-70.165	-65.265	-79.034	11.222	-66.162	-61.896	-61.087	-55.712	4.358	-57.881	-8191	255	
3534.192	1	1	0	0	0.17736	0.11069	0.11146	0.34516	0.28857	0.11329	0.15307	0.11997	0.20987	0.15094	0.22073	0.11712	0.20004	0.075151	0.040919	0.020711	-0.31667	-1.6646	-0.35833	-1.0917	-1.1208	-0.22292	-1.4771	-0.82917	-0.60833	-1.6583	-0.78125	-1.1292	-1.3521	-0.47917	-1.4354	-1.2417	212.716	255.637	222.912	-55.681	108.371	249.709	264.545	167.736	144.274	54.580	51.870	222.532	246.868	211.979	208.180	-14.291	0.00038829	0.00010065	9.2234e-05	955.05	7.3722e-06	5.2885e-07	1111.6	252.61	3.8009e-06	3.1798e-06	404.09	141.58	85.118	31.021	6.7791e-06	58.119	0.00022609	0.00022011	6.171e-05	846.82	2.3951e-06	2.4124e-06	993.23	225.74	2.3908e-06	2.433e-06	354.94	124.21	76.333	27.713	2.4691e-06	50.466	130.083	212.168	275.613	-70.122	70.921	27.709	-69.883	-65.397	20.782	34.196	-66.693	-61.737	-61.288	-55.718	11.541	-58.003	-8191	255	
3534.264	1	1	0	0	0.19018	0.21695	0.065567	0.209	0.18216	0.34022	0.16851	0.14036	0.16407	0.20483	0.21916	0.18632	0.12287	0.25697	0.2757	0.059808	-0.4	-1.3854	-0.69375	-1.1437	-1.175	-0.39792	-1.3792	-1.1417	-0.51458	-1.5333	-0.70833	-0.89375	-1.4708	-0.65208	-1.4	-1.2354	269.922	-45.558	172.735	265.088	61.713	36.528	199.417	76.212	97.069	-41.773	228.403	-56.138	256.161	217.301	-15.337	-58.910	0.00034302	0.00042404	0.0001442	952.45	4.3017e-06	5.6602e-06	1119.3	253.66	2.0209e-06	4.8131e-06	406.55	142.33	85.449	31.055	2.1873e-06	58.367	0.00023026	0.0002279	6.2489e-05	848.9	2.4522e-06	2.548e-06	996.93	227.07	2.5044e-06	2.49e-06	356.97	125.24	76.6	27.776	2.5037e-06	50.669	135.721	273.870	147.229	-69.547	26.287	88.761	-69.750	-65.089	-34.516	13.068	-66.145	-62.040	-60.944	-55.719	270.329	-57.650	-8191	255	
3534.360	1	1	0	0	0.25978	0.090745	0.22475	0.3696	0.19619	0.14126	0.36949	0.15151	0.17688	0.13648	0.3466	0.15069	0.18719	0.1984	0.14544	0.27401	-0.025	-1.4292	-0.66667	-0.92292	-1.5021	-0.42292	-1.2812	-1.1208	-0.30625	-1.6063	-0.7625	-0.79375	-1.4438	-0.26042	-1.1437	-1.4062	178.650	-32.689	25.006	-70.086	12.766	249.577	231.460	203.069	274.114	215.040	275.658	226.528	168.931	-11.259	159.661	152.007	0.00026228	0.00062762	0.00027703	957.2	6.5193e-06	5.1118e-06	1117.2	253.93	1.5907e-06	3.3438e-06	407.81	142.6	85.813	31.146	9.933e-06	58.337	0.00023408	0.00022913	6.224e-05	849.16	2.4751e-06	2.481e-06	999.35	227.02	2.491e-06	2.5138e-06	357.95	125	76.658	27.829	2.5493e-06	50.678	86.263	-61.668	9.529	-69.466	9.254	117.093	-69.773	-65.009	83.919	-14.423	-66.386	-61.893	-61.020	-56.101	1.829	-57.698	-8191	255	
3534.481	1	1	0	0	0.1722	0.24118	0.091259	0.34948	0.10074	0.19623	0.10656	0.16019	0.24482	0.13744	0.32536	0.19865	0.20562	0.39337	0.15652	0.17896	-0.014583	-1.2417	-0.71667	-0.95	-1.5625	-0.55417	-1.2563	-1.1437	-0.38542	-1.3146	-1.0208	-0.63542	-1.7208	-0.63958	-1.0979	-1.5458	41.658	194.024	72.476	235.100	139.491	144.957	204.803	-76.086	68.692	81.781	196.275	48.862	225.836	216.839	133.958	104.645	0.00055646	0.00090487	7.7107e-05	949.51	1.11e-05	5.9604e-06	1116.9	253.47	5.3612e-06	6.1838e-06	403.28	141.19	85.818	31.073	4.4667e-06	57.577	0.00023855	0.00023745	6.4284e-05	848.41	2.6114e-06	2.5783e-06	998.96	227.08	2.6255e-06	2.6176e-06	354.11	124.95	77.027	27.848	2.6808e-06	50.711	128.754	49.676	-11.043	-69.638	32.168	70.327	-69.741	-64.995	63.775	25.707	-66.246	-61.738	-61.003	-56.034	114.748	-57.551	-8191	255	
3534.577	1	1	0	0	0.24445	0.10475	0.15202	0.19988	0.13973	0.063211	0.070813	0.12861	0.32664	0.086863	0.10817	0.31584	0.18622	0.22211	0.072321	0.21595	-0.05	-1.4167	-0.8375	-0.7625	-1.5167	-0.38125	-1.1729	-1.2771	-0.16667	-1.3792	-1.025	-0.64792	-1.8542	-0.36042	-0.94167	-1.5042	-1.964	24.003	-39.729	246.561	142.610	30.681	-82.726	221.615	-44.971	148.359	-59.403	175.653	156.309	212.602	137.936	149.162	0.00026304	0.00040977	0.00026647	953.08	4.4299e-06	3.8353e-06	1118.2	250.74	6.8806e-07	6.5162e-06	400.1	142.81	86.857	31.905	1.87e-06	58.797	0.00025763	0.00024794	6.8654e-05	854.9	2.7626e-06	2.7164e-06	1001.4	227.26	2.8127e-06	2.7475e-06	355.17	126.68	77.947	28.56	2.7809e-06	51.793	128.220	-24.617	-45.633	-69.656	130.618	19.395	-69.567	-64.894	258.421	-39.429	-66.341	-62.096	-60.551	-56.035	53.069	-57.822	-8191	255	
3534.673	1	1	0	0	0.16406	0.037603	0.068356	0.35406	0.15357	0.11057	0.16072	0.12863	0.074701	0.32534	0.36654	0.17963	0.15388	0.2387	0.076427	0.12074	-0.11875	-1.3896	-0.86875	-0.61458	-1.6	-0.52083	-0.98125	-1.5063	-0.37292	-1.3542	-1.1313	-0.77917	-1.5979	-0.66667	-0.9625	-1.4167	3.884	143.784	264.484	236.289	91.034	13.730	266.016	239.190	40.558	-4.087	126.082	229.824	-36.685	34.247	30.095	187.225	0.00045704	0.00032465	2.4948e-05	959.96	5.8045e-06	3.4233e-06	1127.3	258.36	4.8882e-06	6.3354e-06	407.34	146.32	88.392	32.413	3.0862e-06	60.02	0.00027364	0.00026581	7.2218e-05	864.1	3.006e-06	2.9363e-06	1012.9	231.71	3.0189e-06	2.9537e-06	359.97	129.77	79.546	29.159	2.9562e-06	52.835	148.681	273.800	98.415	-69.862	132.214	61.115	-69.617	-65.106	-19.896	-13.867	-66.323	-62.198	-60.998	-56.087	136.953	-57.587	-8191	255	
3534.792	1	1	0	0	0.41314	0.16428	0.095918	0.12769	0.17218	0.15714	0.27874	0.063789	0.16985	0.14592	0.27059	0.22112	0.12174	0.20015	0.15998	0.2009	0.022917	-1.1708	-0.94375	-0.3875	-1.4792	-0.54375	-0.81667	-1.7146	-0.38125	-1.2167	-1.2208	-0.43333	-1.5542	-0.57917	-0.55833	-1.4542	-71.494	23.578	191.622	-20.302	-58.603	229.267	199.177	233.257	136.160	70.787	139.732	201.188	238.675	-26.327	244.384	189.208	0.00014343	0.00094166	0.00029816	962.99	9.4546e-06	2.839e-07	1125.2	254.02	3.9481e-06	8.1949e-06	405.09	143.29	87.618	32.083	1.095e-05	59.775	0.00028166	0.00027279	7.6271e-05	865.87	3.0646e-06	2.9588e-06	1013.9	230.91	3.0124e-06	2.9212e-06	359.02	128.19	78.929	29.001	2.9316e-06	52.687	130.936	-24.190	-31.871	-69.671	60.977	215.763	-69.549	-64.774	70.098	-24.468	-66.325	-61.523	-60.761	-56.128	68.331	-57.699	-8191	255	
3534.888	1	1	0	0	0.24245	0.21415	0.052306	0.26256	0.25328	0.20465	0.43613	0.19053	0.19126	0.21033	0.18033	0.1626	0.13798	0.21488	0.11717	0.35123	-0.070833	-1.2583	-1.2417	-0.32083	-1.5479	-0.66875	-0.97708	-1.7021	-0.10625	-1.0938	-1.4458	-0.48542	-1.7375	-0.69375	-0.7125	-1.6104	161.474	152.149	116.938	253.570	105.248	98.947	266.483	245.831	259.577	238.960	204.659	-56.312	173.117	255.966	164.582	266.546	0.00019437	0.00052437	0.00027615	956.68	4.3925e-06	1.653e-06	1112.4	253.22	3.5317e-06	8.6255e-06	401.59	141.86	85.832	31.916	5.3621e-06	59.136	0.00027647	0.00026843	7.5518e-05	862.18	2.9859e-06	2.9491e-06	1003	228.66	2.9282e-06	2.8666e-06	355.06	126.13	77.604	28.567	2.9196e-06	51.545	140.360	81.862	-36.604	-69.540	-28.617	-44.357	-69.526	-64.897	104.674	8.483	-66.088	-61.907	-61.084	-55.909	12.442	-58.037	-8191	255	
3534.960	1	1	0	0	0.24598	0.14933	0.039272	0.10616	0.059654	0.10381	0.32887	0.47355	0.29494	0.15948	0.23756	0.38195	0.32722	0.2549	0.18772	0.32327	-0.091667	-1.0521	-1.1667	-0.27292	-1.5167	-0.6875	-0.80417	-1.6729	-0.085417	-1.1708	-1.5125	-0.51875	-1.3021	-0.78125	-0.46042	-1.675	204.746	-60.763	137.230	227.427	8.143	161.394	247.463	236.979	-68.734	189.993	-60.401	275.378	-33.919	251.288	210.945	275.053	0.00033534	0.00074646	0.00012821	956.59	5.0162e-06	3.4155e-06	1121.2	254.73	7.8147e-06	6.6539e-06	404.97	141.62	85.371	31.267	2.7565e-06	57.854	0.00026896	0.00026153	7.4874e-05	852.42	2.8492e-06	2.8771e-06	996.18	227.41	2.7987e-06	2.7315e-06	352.48	124.36	76.131	27.702	2.7286e-06	50.225	91.006	208.768	54.597	-69.767	203.140	221.647	-69.930	-65.625	53.036	130.266	-66.765	-62.398	-60.719	-56.078	-59.741	-58.046	-8191	255	
3535.056	1	1	0	0	0.14426	0.15046	0.11457	0.16706	0.089454	0.1876	0.30328	0.063084	0.068165	0.1817	0.15633	0.12619	0.25217	0.29088	0.256	0.18587	0.09375	-1.0063	-1.3354	-0.36875	-1.2875	-0.72708	-0.61875	-1.6708	-0.27083	-0.91042	-1.4833	-0.35833	-1.2958	-0.77917	-0.32083	-1.6562	79.783	224.893	167.804	202.997	71.061	132.571	224.177	243.508	-69.262	140.327	195.296	205.399	-5.412	240.284	8.936	233.340	0.00035804	0.00057732	0.00023234	951.84	3.839e-06	5.0636e-06	1117.8	254.63	6.72e-06	5.667e-06	403.58	139.85	84.611	30.731	4.1867e-06	57.007	0.00025153	0.00024737	6.8976e-05	844.07	2.6348e-06	2.6523e-06	989.97	226.17	2.6084e-06	2.5769e-06	351.31	122.33	75.084	27.228	2.6178e-06	49.548	132.363	226.580	273.496	-69.858	68.549	71.058	-69.987	-65.582	119.983	27.425	-66.561	-62.364	-61.024	-56.258	20.318	-57.460	-8191	255	
3535.154	1	1	0	0	0.15005	0.14611	0.089038	0.17415	0.14635	0.14263	0.19326	0.31079	0.066943	0.093386	0.14268	0.218	0.12103	0.25827	0.19344	0.072895	-0.25208	-0.87292	-1.4854	-0.33333	-1.3563	-1.1083	-0.52083	-1.3833	-0.85625	-0.86458	-1.4417	-0.4125	-1.2437	-1.1792	-0.46042	-1.3229	269.778	11.205	33.842	198.809	137.699	51.897	-44.164	251.743	101.605	-1.310	259.486	216.420	-9.483	194.604	9.116	97.781	0.00020532	0.00014279	0.00017896	943.46	1.8042e-06	2.5004e-06	1111.6	253.67	1.7496e-06	5.515e-06	403.98	139.48	83.147	30.404	2.7134e-06	56.364	0.00023843	0.00024158	6.7346e-05	840.05	2.5471e-06	2.5708e-06	985.4	226.42	2.5074e-06	2.5237e-06	352.52	121.92	74.153	26.939	2.4304e-06	48.908	176.572	236.904	-71.927	-70.152	107.321	131.071	-69.994	-65.433	275.359	40.319	-66.544	-62.322	-60.700	-55.717	42.707	-57.229	-8191	255	
3535.273	1	1	0	0	0.29137	0.22011	0.10588	0.37838	0.30996	0.035348	0.17879	0.074651	0.25464	0.43505	0.34243	0.27371	0.27196	0.29275	0.15646	0.13979	-0.11875	-0.90625	-1.2062	-0.65	-1.1417	-1.1646	-0.81875	-1.4146	-0.64792	-0.91042	-1.4042	-0.56458	-1.2104	-1.3104	-0.32292	-1.6375	185.224	88.007	126.413	-45.851	89.261	103.070	216.049	-69.312	-59.818	-27.087	224.276	212.939	181.078	181.889	242.038	182.567	0.00024862	0.00057857	0.00010504	935.33	5.8688e-06	7.9332e-06	1095.1	250.13	3.3661e-06	4.525e-06	400.28	137.52	83.14	30.396	8.4253e-06	56.063	0.00022101	0.00021751	6.0546e-05	826.03	2.3162e-06	2.3408e-06	971.23	223.24	2.2687e-06	2.3319e-06	349.95	120.85	74.138	26.861	2.2582e-06	48.526	126.596	-50.428	45.117	-69.814	-42.735	42.176	-70.234	-65.243	59.711	130.422	-66.405	-61.945	-61.169	-55.690	25.471	-57.288	-8191	255	
3535.369	1	1	0	0	0.34194	0.44375	0.12383	0.20467	0.16925	0.2826	0.27196	0.27834	0.045472	0.18682	0.32739	0.32252	0.31201	0.10702	0.083982	0.21458	-0.28333	-0.6125	-1.5187	-0.53125	-1.1792	-1.2146	-0.35625	-1.6542	-0.72292	-0.61042	-1.4042	-0.63125	-1.1292	-1.2271	-0.16042	-1.5958	20.741	252.294	182.092	-56.179	145.185	112.564	205.853	-80.055	230.569	232.307	12.306	-55.739	234.466	266.593	158.173	217.836	0.00012951	0.00091779	0.00036754	923.79	4.1197e-06	1.4816e-06	1086.7	250.16	2.7017e-06	4.2221e-06	400.77	137.35	83.168	30.084	2.7993e-06	56.644	0.00021005	0.0002033	5.4611e-05	816.3	2.1841e-06	2.1971e-06	959.72	221.56	2.1644e-06	2.206e-06	347.82	120.36	73.622	26.691	2.1164e-06	48.795	147.503	248.746	-27.956	-70.026	80.563	102.135	-70.007	-64.865	-60.686	47.269	-66.891	-61.801	-60.497	-55.799	9.318	-57.505	-8191	255	
3535.465	1	1	0	0	0.39075	0.19409	0.12639	0.25206	0.092746	0.15167	0.14331	0.34099	0.17706	0.13984	0.028151	0.12101	0.10148	0.090066	0.26439	0.1787	-0.57292	-0.55625	-1.4625	-0.48333	-1.0021	-1.4167	-0.57708	-1.5146	-0.79583	-0.46667	-1.7	-0.28958	-0.8125	-1.4896	-0.23542	-1.5688	138.668	167.186	252.636	-82.837	46.322	12.363	214.975	247.291	176.167	15.285	-21.697	111.720	55.489	205.222	-25.597	212.692	0.00026144	0.00069043	0.00013817	932.19	3.1224e-06	1.1098e-06	1091.3	250.64	3.5388e-06	4.1791e-06	407.93	141.71	85.001	31.068	2.9421e-06	57.827	0.00020728	0.00020169	5.5004e-05	819.76	2.2037e-06	2.2293e-06	965.17	222.71	2.1885e-06	2.1593e-06	351.58	122.5	74.908	27.315	2.109e-06	49.504	126.061	2.751	-7.592	-69.863	46.458	19.344	-69.973	-65.128	10.565	158.047	-66.394	-63.108	-61.362	-56.006	-79.787	-57.800	-8191	255	
3535.561	1	1	0	0	0.25739	0.1465	0.17874	0.14462	0.12635	0.25947	0.18921	0.14413	0.41375	0.17393	0.41643	0.19442	0.079901	0.14242	0.18062	0.22888	-0.70417	-0.22083	-1.7208	-0.61875	-0.96875	-1.5896	-0.64792	-1.4417	-0.90417	-0.46458	-1.4917	-0.77708	-0.95208	-1.4771	-0.48125	-1.1292	260.020	179.663	143.289	170.620	186.570	69.578	248.485	185.880	124.210	31.958	182.231	239.899	260.066	76.547	49.202	230.513	0.00027464	0.00092592	0.00018017	938.93	4.5789e-06	5.2415e-06	1100.4	256.38	1.9827e-06	3.4698e-06	414.98	143.44	86.506	31.737	6.9207e-06	58.542	0.00020143	0.00019552	5.3605e-05	822.98	2.2064e-06	2.1739e-06	968.39	225.72	2.177e-06	2.1571e-06	357.5	124.39	75.751	27.741	2.1929e-06	50.461	129.610	-13.684	-17.418	-70.513	68.254	13.527	-70.800	-65.742	63.943	46.601	-67.083	-62.876	-60.715	-56.117	35.471	-57.897	-8191	255	
3535.657	1	1	0	0	0.17234	0.11182	0.13862	0.18963	0.16392	0.10392	0.27207	0.13396	0.25887	0.10623	0.092102	0.13859	0.049127	0.15745	0.15799	0.16767	-0.39792	-0.5125	-1.2646	-0.83542	-0.73125	-1.3354	-0.32708	-1.3854	-1.1313	-0.40625	-1.6479	-0.83333	-0.8875	-1.3917	-0.32083	-1.2812	104.439	275.761	-30.668	59.399	36.888	-78.868	266.755	154.175	93.203	-29.364	229.427	166.108	191.976	241.530	100.986	255.405	0.000468	0.00065133	5.674e-05	944.39	8.1285e-06	5.1022e-06	1113.1	255.75	2.9419e-06	2.3923e-06	416.4	144.48	86.743	31.947	3.6167e-06	58.763	0.00020757	0.0002017	5.483e-05	829.19	2.2462e-06	2.2084e-06	976.31	226.4	2.26e-06	2.2408e-06	357.89	124.77	76.329	27.841	2.2247e-06	50.516	96.454	-15.191	-31.008	-70.397	51.833	55.298	-70.381	-65.216	2.502	238.486	-66.234	-62.226	-60.931	-55.745	-4.130	-57.484	-8191	255	
3535.754	1	1	0	0	0.18636	0.20539	0.21635	0.11427	0.14483	0.25115	0.25538	0.036749	0.18786	0.1882	0.21185	0.13606	0.1523	0.22292	0.15309	0.27675	-0.76042	-0.22292	-1.4542	-0.76667	-0.47708	-1.4833	-0.49375	-1.3021	-0.89167	-0.11042	-1.575	-0.64792	-0.60417	-1.6917	-0.39375	-1.2062	193.614	111.121	-47.444	-22.607	39.597	158.184	-19.655	-72.424	134.141	19.322	-55.164	138.055	-57.298	253.734	146.875	134.231	0.00032353	0.00020954	2.4976e-05	940.86	2.9713e-06	3.5201e-06	1098.2	257.53	3.7181e-06	8.4587e-06	411.61	141.5	84.771	31.467	3.2079e-06	58.343	0.00020927	0.00020236	5.6393e-05	827.53	2.2537e-06	2.1992e-06	968.21	226.38	2.1935e-06	2.1218e-06	355.38	123.99	75.427	27.675	2.0706e-06	50.158	155.993	83.405	267.838	-70.198	48.698	59.220	-70.047	-65.097	17.152	56.007	-66.620	-62.000	-60.590	-55.406	131.786	-57.261	-8191	255	
3535.872	1	1	0	0	0.075295	0.087812	0.099334	0.27712	0.065325	0.23021	0.17931	0.093202	0.10324	0.030332	0.34987	0.13612	0.20738	0.48593	0.15077	0.18389	-0.78333	-0.375	-1.4646	-0.90625	-0.67917	-1.6187	-0.53333	-1.0854	-1.4604	-0.25208	-1.6646	-1.0167	-0.56667	-1.6688	-0.40625	-1.0938	151.828	16.585	14.600	186.034	-17.409	43.362	193.932	-5.654	48.051	-60.987	202.245	-69.252	-65.272	152.502	176.443	234.011	0.00024457	0.00046888	0.00031035	936.48	3.188e-06	6.7407e-06	1099	255.45	2.8119e-06	6.5794e-06	408.23	143.02	86.05	31.584	2.8147e-06	58.255	0.00020084	0.00019238	5.4118e-05	823.53	2.1547e-06	2.0978e-06	969.98	226.45	2.1863e-06	2.1482e-06	356.64	124.75	76.454	27.96	2.1505e-06	50.565	74.342	-83.045	-22.627	-70.278	106.772	51.401	-70.167	-65.087	93.717	28.311	-66.440	-61.936	-60.360	-55.374	147.798	-57.093	-8191	255	
3535.969	1	1	0	0	0.23367	0.19466	0.13228	0.24477	0.26854	0.16466	0.26391	0.22327	0.10714	0.047089	0.21177	0.2316	0.57358	0.24627	0.18058	0.2236	-0.82292	-0.13958	-1.5562	-0.96042	-0.43333	-1.3583	-0.75208	-0.98125	-1.0708	-0.39792	-1.3604	-1.0875	-0.57917	-1.4896	-0.69792	-1.0167	86.122	241.467	263.225	-67.907	-15.044	25.585	244.473	-30.778	211.207	-41.082	194.949	271.205	247.579	225.912	-68.561	107.085	0.00033519	0.00017574	0.00014276	930.88	7.5754e-06	3.3129e-06	1089.3	254.7	3.8096e-06	5.6452e-06	411	143.42	86.112	32.086	8.4035e-06	59.479	0.00020074	0.0001935	5.4443e-05	825.06	2.1496e-06	2.0991e-06	970.19	226.28	2.0916e-06	2.1225e-06	359.11	125.65	76.542	28.141	2.1746e-06	51.341	150.817	-30.323	67.914	-70.013	76.379	133.439	-70.015	-64.611	16.309	-48.360	-66.263	-62.109	-60.708	-55.271	50.035	-57.168	-8191	255	
3536.065	1	1	0	0	0.063761	0.085651	0.012277	0.17507	0.15278	0.033804	0.26269	0.40028	0.1631	0.28468	0.37412	0.27454	0.14288	0.1601	0.053522	0.16998	-1.1854	-0.37292	-1.3729	-1.375	-0.37917	-1.5667	-0.54792	-1.1313	-1.4604	-0.35208	-1.3479	-1.1	-0.33125	-1.2354	-0.25833	-0.79792	-46.779	243.821	246.521	238.719	141.883	-5.598	225.065	262.516	172.636	36.612	173.990	59.750	-43.590	-21.797	186.001	171.167	0.00017229	0.00043313	0.00025514	926.05	5.6093e-06	7.3272e-06	1093.7	252.34	3.4904e-06	7.1862e-06	412.1	144.23	86.965	31.692	4.3686e-06	58.979	0.00019884	0.00019448	5.3934e-05	824.71	2.1076e-06	2.0643e-06	972.42	226	2.0646e-06	2.09e-06	359.3	126.53	76.928	28.164	2.1498e-06	51.29	124.218	-11.201	-59.357	-69.704	112.568	3.327	-70.014	-64.576	23.703	61.452	-65.818	-61.663	-60.400	-55.365	166.331	-56.684	-8191	255	
3536.161	1	1	0	0	0.30128	0.21608	0.16864	0.103	0.10604	0.26517	0.23383	0.21876	0.085694	0.050459	0.031141	0.24143	0.25258	0.025092	0.33497	0.25964	-1.1792	-0.22708	-1.3146	-1.2354	-0.45833	-1.3563	-0.72083	-0.875	-1.2854	-0.32708	-1.3687	-1.2708	-0.3875	-1.6125	-0.65208	-0.79792	125.130	69.917	154.425	174.405	166.062	57.381	115.348	131.503	164.315	129.196	156.283	158.918	236.136	-5.880	54.689	211.886	0.00020158	0.00069738	7.6337e-05	924.48	9.5698e-07	2.9428e-06	1080.7	252.62	1.3699e-06	4.9966e-06	411.78	143.66	86.649	32.13	4.8546e-06	58.845	0.0001984	0.0001924	5.4139e-05	822.18	2.1085e-06	2.0773e-06	965.57	226.25	2.084e-06	2.1087e-06	358.51	125.85	76.842	28.287	2.1189e-06	51.081	118.527	-49.544	243.808	-69.658	100.432	143.653	-70.173	-64.683	29.693	17.427	-65.788	-61.756	-60.685	-55.928	25.615	-57.084	-8191	255	
3536.257	1	1	0	0	0.3019	0.25356	0.15422	0.10341	0.24499	0.057888	0.33454	0.18134	0.071605	0.047124	0.15845	0.35884	0.19875	0.24208	0.11116	0.085564	-1.0833	-0.50625	-0.98542	-1.125	-0.15417	-1.4312	-0.81667	-0.81667	-1.3542	-0.23333	-1.1125	-1.4396	-0.38333	-1.5438	-0.81875	-0.77708	-7.990	20.402	73.749	77.649	-66.638	227.880	206.415	-22.649	-14.640	150.988	221.625	193.111	222.016	257.131	195.871	179.341	0.00028497	0.00046128	0.00017377	930.25	7.9625e-06	9.2232e-06	1085.6	253.81	4.5119e-06	2.7721e-06	410.67	145.57	87.412	32.487	4.4554e-06	60.433	0.00019331	0.00018905	5.2738e-05	821.18	2.0406e-06	2.1114e-06	964.61	225.82	2.0147e-06	2.0443e-06	358.25	127.02	77.217	28.643	2.0528e-06	52.136	107.650	-58.354	-17.092	-69.878	31.439	53.184	-70.008	-64.680	66.146	58.897	-66.022	-61.979	-60.994	-55.391	-36.956	-56.982	-8191	255	
3536.353	1	1	0	0	0.2475	0.18773	0.20165	0.1578	0.14139	0.18478	0.21051	0.12639	0.10794	0.081551	0.10374	0.19492	0.12818	0.22805	0.17677	0.14764	-1.1417	-0.51458	-1.0396	-1.3479	-0.27708	-1.3833	-1.0521	-0.55833	-1.4688	-0.43542	-0.89792	-1.3687	-0.41458	-1.3958	-0.71875	-0.76458	-55.342	9.439	17.567	209.373	75.362	146.694	168.133	54.915	103.033	81.039	-81.080	211.396	221.756	237.871	188.182	188.329	0.00011867	0.00034208	0.00012215	925.54	4.2646e-06	8.3118e-06	1089.4	252.59	1.731e-06	2.4915e-06	413.95	147.55	87.754	33.352	7.8828e-06	61.091	0.0001946	0.00018791	5.2638e-05	817.34	2.0862e-06	2.0574e-06	962.15	225.85	2.0175e-06	2.0136e-06	361.65	129.27	78.333	29.488	1.9668e-06	53.072	144.571	-34.365	-27.632	-69.951	8.746	119.340	-69.849	-64.585	164.282	56.274	-66.032	-61.789	-60.499	-55.026	68.265	-56.807	-8191	255	
3536.449	1	1	0	0	0.19109	0.084287	0.084528	0.1706	0.08058	0.074998	0.11475	0.2345	0.2044	0.22529	0.30015	0.19823	0.28944	0.36884	0.14334	0.26947	-1.0688	-0.59167	-0.89792	-1.4312	-0.275	-1.1917	-1.1417	-0.76458	-1.5521	-0.47083	-0.90208	-1.2521	-0.50208	-1.2437	-0.98542	-0.5125	164.558	218.076	-22.759	238.479	191.985	28.878	217.952	254.182	-57.333	254.567	210.641	259.134	254.524	236.175	30.908	224.442	0.00044386	0.0005843	4.5676e-05	913.36	1.7267e-06	8.0189e-06	1073.5	252.68	4.6084e-06	6.3216e-06	415.2	148.35	88.349	33.906	3.3658e-06	62.086	0.00018709	0.00018265	5.0036e-05	811.94	2.0025e-06	2.0236e-06	960.58	225.3	1.9905e-06	1.9838e-06	361.49	130.52	79.026	29.931	1.9495e-06	53.724	120.655	35.026	-47.399	-69.832	132.899	41.060	-69.643	-64.718	116.681	73.942	-66.017	-61.581	-60.312	-55.113	88.548	-56.932	-8191	255	
3536.570	1	1	0	0	0.31312	0.30379	0.1049	0.28019	0.1515	0.11546	0.15471	0.10073	0.40939	0.068131	0.28511	0.13161	0.04994	0.36702	0.018439	0.26469	-1.1021	-0.575	-0.61458	-1.1958	-0.44792	-1.0917	-1.1667	-0.6375	-1.2854	-0.53333	-0.79792	-1.4	-0.69375	-1.2146	-1.0562	-0.50625	-36.588	-73.844	-76.380	100.153	80.211	-32.271	-24.364	-17.934	96.524	96.746	155.089	212.324	129.123	-68.130	81.302	205.117	0.00025124	0.00047235	0.00025741	911.84	4.039e-06	1.7766e-06	1070	252.68	6.5521e-06	3.0204e-06	414.55	151.73	90.127	34.993	3.7037e-06	63.248	0.00018747	0.00018213	4.9586e-05	806.7	2.0091e-06	1.9911e-06	950.71	224.44	1.9857e-06	1.9674e-06	361.44	132.24	80.013	30.723	1.9878e-06	54.848	105.651	5.323	3.452	-69.974	119.156	4.878	-69.933	-64.523	101.603	-55.251	-65.473	-61.731	-60.169	-55.591	81.344	-56.766	-8191	255	
3536.666	1	1	0	0	0.25787	0.34904	0.19064	0.40725	0.36835	0.27976	0.073689	0.25339	0.10552	0.19006	0.18725	0.2239	0.39904	0.099491	0.24198	0.15119	-0.89375	-0.56875	-0.4	-1.675	-0.34792	-1.1375	-1.0938	-0.26458	-1.2875	-0.51667	-0.68333	-1.5833	-0.51667	-1.0854	-0.9625	-0.36875	140.911	216.784	106.487	228.996	227.006	222.255	108.051	205.550	191.938	148.508	213.068	-64.992	234.638	222.216	174.141	205.193	0.00046557	0.0001408	0.00018125	900.26	5.7605e-06	6.5917e-06	1067.5	250.56	3.0135e-06	5.0807e-06	413.87	153.23	90.026	35.061	7.29e-06	63.212	0.00019333	0.00018389	5.0536e-05	799.63	2.0085e-06	1.9905e-06	946.04	224.51	1.9917e-06	1.973e-06	362.45	133.94	79.948	30.92	1.8825e-06	54.976	93.168	168.610	-24.321	-69.706	-28.298	16.573	-69.648	-64.366	-9.684	71.265	-66.025	-61.753	-60.380	-55.175	60.501	-57.098	-8191	255	
3536.761	1	1	0	0	0.38231	0.25043	0.24232	0.08637	0.04867	0.27795	0.12652	0.19021	0.12655	0.43797	0.48015	0.38577	0.30736	0.24415	0.11665	0.16604	-1.0729	-0.65833	-0.725	-1.7375	-0.34792	-1.15	-1.3521	-0.41667	-1.35	-0.77917	-0.82083	-1.7687	-0.44167	-1.1	-1.3875	-0.47917	216.845	-9.008	252.825	-58.862	21.852	195.311	-81.577	177.383	-66.881	174.341	206.285	191.208	-70.595	29.734	90.294	24.639	0.00042445	0.00031815	9.4158e-05	901.63	3.4882e-06	4.6551e-06	1063.1	251.38	3.3676e-06	2.171e-06	419.55	152.63	91.41	35.376	4.9484e-06	64.294	0.00018063	0.00017365	4.7608e-05	801.85	1.9323e-06	1.8955e-06	946.13	224.53	1.989e-06	1.9374e-06	365.15	134.48	80.884	31.305	1.9659e-06	55.965	107.051	257.969	-20.475	-69.879	62.867	65.827	-69.550	-64.414	2.048	47.744	-65.847	-61.544	-60.620	-55.368	189.200	-56.961	-8191	255	
3536.834	1	1	0	0	0.33739	0.059966	0.23175	0.15863	0.041566	0.17981	0.21357	0.0075838	0.19547	0.25981	0.15248	0.24657	0.34064	0.14069	0.084336	0.17365	-1.2604	-0.78958	-0.5	-1.5438	-0.4375	-1.05	-1.5688	-0.15625	-1.4729	-1.0375	-0.38542	-1.8208	-0.41042	-0.93542	-1.5063	-0.25417	124.579	103.402	146.332	203.268	262.223	7.433	-0.068	193.379	141.246	134.402	251.645	265.561	-61.381	-30.245	103.615	198.511	0.00030096	0.00041641	4.4838e-05	901.46	2.0652e-06	7.2212e-06	1056.7	253.33	6.6642e-06	9.6953e-06	416.3	154.79	90.986	35.463	6.3822e-06	63.604	0.0001898	0.00017824	4.9953e-05	802.42	2.0161e-06	1.9935e-06	948.31	225.53	1.97e-06	1.9836e-06	365.96	135.33	80.553	31.242	1.9458e-06	55.283	130.110	56.826	172.993	-70.085	144.684	79.967	-69.761	-64.474	75.448	75.417	-65.907	-61.444	-60.374	-54.647	38.615	-56.936	-8191	255	
3536.953	1	1	0	0	0.11067	0.14926	0.16199	0.35112	0.17845	0.27988	0.40407	0.27432	0.30429	0.072579	0.24758	0.258	0.089973	0.071091	0.28375	0.2245	-1.0625	-1.125	-0.51875	-1.5542	-0.5375	-0.76667	-1.4271	-0.63125	-1.2646	-1.2333	-0.63542	-1.5458	-0.63333	-0.94792	-1.2646	-0.52292	34.763	4.890	-3.632	236.826	99.249	20.551	190.861	231.939	200.335	-13.825	206.873	243.612	248.867	56.762	134.742	165.576	0.00023071	0.00055697	7.0394e-05	890.88	5.7303e-06	6.1203e-06	1061.1	249.68	4.2435e-06	3.8033e-06	413.78	151.84	89.972	34.84	2.7414e-06	62.41	0.00018137	0.00017272	4.8509e-05	798.54	1.8736e-06	1.8514e-06	947.31	223.67	1.884e-06	1.8265e-06	361.82	132.98	79.387	30.644	1.8956e-06	54.248	141.432	10.173	263.386	-69.772	134.736	84.269	-69.713	-64.280	51.982	65.904	-66.104	-61.926	-60.522	-55.470	-9.005	-57.271	-8191	255	
3537.049	1	1	0	0	0.069301	0.27858	0.29471	0.39355	0.28834	0.36742	0.41625	0.19577	0.11303	0.19764	0.28052	0.16169	0.08181	0.03403	0.18194	0.28395	-0.7875	-1.0688	-0.41042	-1.5688	-0.75417	-0.75833	-1.5792	-0.47292	-1.1437	-1.05	-0.40417	-1.5125	-0.82292	-0.75	-1.2104	-0.5125	203.554	126.662	-60.004	225.795	148.397	42.746	179.764	-40.661	159.509	56.012	224.931	259.970	225.808	-65.751	186.151	268.571	0.00020239	0.00037998	0.00034856	902.76	4.3019e-06	3.177e-06	1065.7	249.09	2.002e-06	9.4106e-06	411.15	151.3	89.587	34.781	7.0889e-06	62.62	0.00017794	0.00017171	4.7757e-05	804.73	1.8831e-06	1.9046e-06	951.33	223.04	1.9125e-06	1.9036e-06	362.03	132.82	79.633	30.818	1.9978e-06	54.754	140.245	6.557	-30.521	-69.610	93.410	39.703	-69.530	-64.396	189.729	15.103	-65.760	-61.395	-60.276	-55.166	-9.293	-56.956	-8191	255	
3537.145	1	1	0	0	0.19563	0.075512	0.17238	0.20646	0.034004	0.25379	0.39666	0.15246	0.088858	0.18765	0.12653	0.13693	0.25656	0.28733	0.11822	0.055121	-0.85417	-1.2062	-0.4	-1.6938	-0.42917	-0.70625	-1.7062	-0.2625	-1.1646	-1.3062	-0.21042	-1.3687	-0.81042	-0.62917	-1.5063	-0.30417	163.766	6.023	99.192	-44.045	266.900	231.764	179.776	-28.981	19.070	-35.482	211.950	115.538	252.174	23.665	-21.565	206.005	0.00027408	0.00032358	0.00018292	901.12	5.8807e-06	7.0771e-06	1064	247.87	2.5467e-06	5.0874e-06	413.96	151.35	89.469	35.364	2.0594e-06	63.205	0.00018493	0.00017836	4.9822e-05	804.83	1.9511e-06	1.9472e-06	951.92	223.11	1.8931e-06	1.8933e-06	363.5	133.65	79.692	31.14	1.8311e-06	55.31	89.987	26.537	-75.614	-69.954	30.163	58.160	-69.473	-64.554	97.822	20.112	-65.648	-61.588	-60.213	-54.671	99.194	-56.897	-8191	255	
3537.241	1	1	0	0	0.22509	0.054001	0.19577	0.084966	0.028872	0.087604	0.16136	0.046923	0.13433	0.14792	0.18536	0.27663	0.18174	0.29899	0.14566	0.2279	-0.69792	-1.1771	-0.26875	-1.6437	-0.84167	-0.56458	-1.7167	-0.74375	-1.1375	-1.3521	-0.4875	-1.425	-1.0167	-0.71875	-1.3646	-0.74583	225.533	65.115	205.018	244.110	22.251	130.568	200.983	-45.226	272.800	208.975	-70.808	-40.280	232.857	247.181	-15.246	-50.923	0.00034952	0.00022077	0.0001628	888.79	4.2681e-06	3.2888e-06	1053.7	247.37	2.4467e-06	7.942e-07	413.88	152.59	89.47	35.012	2.4625e-06	63.277	0.00017117	0.00016602	4.5688e-05	794.26	1.7769e-06	1.7718e-06	946.37	222.31	1.7321e-06	1.7491e-06	364.68	134.33	79.579	31.017	1.7564e-06	55.073	96.903	265.918	-5.612	-69.487	139.427	13.080	-69.171	-64.645	-28.135	66.187	-65.645	-61.228	-60.339	-55.136	186.784	-56.863	-8191	255	
3537.362	1	1	0	0	0.23025	0.2285	0.19075	0.20696	0.093803	0.16689	0.14451	0.13264	0.025276	0.069387	0.31586	0.21301	0.10618	0.29789	0.032872	0.1306	-0.54375	-1.0396	-0.50417	-1.4833	-0.75208	-0.44375	-1.4917	-0.65417	-1.0917	-1.3	-0.5875	-1.3396	-1.0604	-0.49167	-1.6063	-0.70208	63.116	149.737	47.336	-52.704	45.759	43.736	212.395	163.709	50.512	-24.784	225.447	232.337	-76.298	-82.615	81.845	159.217	0.00025313	0.00012834	0.00011975	899.8	6.5089e-06	3.0066e-06	1074.5	252.01	2.387e-06	8.6845e-06	421.33	154.12	90.534	35.265	3.4567e-06	64.548	0.00016657	0.00016162	4.4883e-05	798.6	1.803e-06	1.7945e-06	950.49	223.74	1.8067e-06	1.8451e-06	364.54	133.83	79.619	30.915	1.8462e-06	54.971	111.977	27.329	122.824	-69.690	24.519	71.658	-69.900	-64.700	35.959	32.078	-66.149	-61.860	-60.563	-54.951	-30.282	-57.607	-8191	255	
3537.434	1	1	0	0	0.19346	0.17818	0.31709	0.29435	0.035752	0.36771	0.10775	0.20427	0.22705	0.16765	0.17224	0.058755	0.24178	0.11108	0.12729	0.11525	-0.475	-1.2542	-0.47083	-1.3542	-0.90208	-0.41875	-1.6625	-0.56667	-0.7	-1.4729	-0.53125	-1.3875	-1.2375	-0.28958	-1.4375	-0.5125	-80.774	-51.487	45.695	246.624	257.060	210.432	185.371	138.601	-45.447	30.432	122.196	214.197	-4.874	-76.905	-57.286	258.380	0.00028196	0.00063147	0.00011461	914.98	1.3719e-06	6.9896e-06	1083.9	252.3	2.8041e-06	5.829e-06	423.57	155.62	92.052	35.67	9.2284e-06	64.025	0.00018531	0.00017662	4.8976e-05	804.82	1.9516e-06	1.9688e-06	954.57	224.47	1.9907e-06	1.9911e-06	364.79	134.37	80.188	31.151	1.9689e-06	54.874	96.345	-38.086	-56.748	-69.956	-67.838	6.394	-70.165	-65.136	25.547	81.274	-66.560	-62.105	-61.026	-55.648	23.020	-57.556	-8191	255	
3537.554	1	1	0	0	0.25199	0.32388	0.25477	0.14485	0.047631	0.13526	0.12357	0.090109	0.065262	0.28632	0.10496	0.13712	0.23208	0.46704	0.19141	0.12341	-0.40625	-1.5917	-0.14375	-1.2875	-1.1812	-0.4625	-1.7938	-0.96042	-0.525	-1.6437	-0.47917	-1.3021	-1.0833	-0.41042	-1.2292	-0.675	198.719	-49.928	-0.553	110.987	271.270	175.307	241.763	94.908	-39.236	208.410	227.939	-60.401	-74.390	215.383	246.141	74.347	0.0005371	0.00055659	0.00011681	917.06	1.566e-06	4.8688e-06	1086.5	253.81	6.049e-06	9.0984e-06	423	153.38	90.269	35.117	4.5109e-06	63.319	0.00018624	0.00017916	4.9065e-05	809.86	1.936e-06	1.9764e-06	963.31	224.75	1.9923e-06	2.019e-06	365.91	133.75	79.717	30.817	1.9765e-06	54.568	132.255	-14.064	40.868	-69.524	-80.856	55.028	-69.884	-64.993	65.499	49.524	-66.138	-61.886	-60.676	-55.369	49.437	-57.278	-8191	255	
3537.650	1	1	0	0	0.13214	0.32218	0.054737	0.22724	0.14352	0.29329	0.29311	0.09544	0.11776	0.36347	0.026084	0.24077	0.10385	0.095356	0.13605	0.18513	-0.28542	-1.5021	-0.56458	-1.2333	-1.3354	-0.32083	-1.5167	-1.1187	-0.75417	-1.5667	-0.50625	-1.2583	-1.4542	-0.50208	-1.4146	-0.94167	236.323	108.677	90.589	227.163	-0.921	71.786	216.198	216.864	74.457	40.878	217.452	189.454	183.513	203.074	152.184	207.034	0.00022699	0.00066889	0.00019272	923.76	1.5248e-06	1.1767e-06	1095.6	253.41	5.5651e-06	4.8257e-06	422.76	154.13	90.714	34.717	4.721e-06	63.754	0.00019184	0.00018039	5.021e-05	815.07	2.0034e-06	1.9681e-06	968.49	225.34	1.9875e-06	1.9574e-06	366.86	133.74	79.541	30.534	1.9341e-06	54.452	94.509	-4.186	-46.178	-70.139	220.864	127.231	-69.930	-64.822	108.989	30.477	-65.980	-61.673	-61.398	-55.685	25.142	-57.526	-8191	255	
3537.746	1	1	0	0	0.17905	0.14258	0.18248	0.028591	0.15518	0.11855	0.23801	0.32956	0.12215	0.1268	0.38371	0.1833	0.086757	0.10426	0.066388	0.32004	-0.22292	-1.4562	-0.45417	-1.0521	-1.5229	-0.33333	-1.6708	-1.1167	-0.45208	-1.5583	-0.84583	-1.0396	-1.3667	-0.41042	-1.4458	-1.1938	121.112	30.319	123.022	-2.030	179.020	-82.547	256.625	205.881	160.849	30.902	247.696	73.593	49.604	-33.036	103.841	240.195	0.00031326	0.0005088	0.0001128	923.08	3.2418e-06	6.4579e-06	1086.5	254.19	4.1664e-06	2.9121e-06	418.97	151.93	89.824	35.072	9.5396e-06	63.294	0.00019148	0.00018101	4.9716e-05	813.4	2.0193e-06	1.9862e-06	964.7	225.23	2.0172e-06	1.9882e-06	364.79	133.12	79.455	30.802	1.9938e-06	54.636	144.688	-7.032	30.759	-69.903	28.087	90.565	-69.698	-64.746	-19.985	-3.347	-66.246	-61.981	-60.332	-55.379	-3.080	-57.439	-8191	255	
3537.843	1	1	0	0	0.049052	0.18846	0.10521	0.31366	0.15871	0.20879	0.1184	0.43691	0.15814	0.16611	0.10788	0.39911	0.21325	0.11969	0.16445	0.41882	-0.022917	-1.4708	-0.37292	-0.79375	-1.5458	-0.2375	-1.5688	-1.1375	-0.32917	-1.6521	-0.675	-0.99583	-1.8	-0.45625	-1.3625	-1.2979	-22.497	64.645	272.677	206.768	76.662	115.194	-13.676	178.550	-50.265	-40.926	-59.979	-76.443	122.996	143.352	179.232	264.670	0.00030613	0.00039051	0.00023389	906.72	3.6571e-06	3.0053e-06	1080.4	250.29	2.9694e-06	4.6285e-06	415.78	152.96	89.922	34.655	3.5034e-06	62.989	0.00019131	0.00018581	5.26e-05	806.75	2.0528e-06	2.0411e-06	960.48	224.15	2.0577e-06	2.0203e-06	363.66	133.53	79.42	30.76	2.0637e-06	54.892	94.929	233.336	7.759	-69.782	15.062	170.907	-69.699	-64.736	143.906	62.188	-65.809	-61.593	-60.580	-54.790	-45.420	-57.117	-8191	255	
3537.962	1	1	0	0	0.041475	0.21585	0.29093	0.17179	0.14426	0.13545	0.21937	0.16476	0.27633	0.10695	0.28484	0.26679	0.10954	0.1841	0.11586	0.060807	0.079167	-1.6292	-0.57292	-0.75417	-1.5125	-0.37083	-1.4125	-1.3458	-0.41042	-1.6333	-0.87292	-0.85625	-1.4062	-0.39375	-1.3333	-1.3354	-75.181	22.001	149.018	-18.192	99.186	191.934	-30.351	212.542	63.120	267.518	237.939	-81.313	8.310	234.740	-8.487	-26.363	0.000417	0.0003175	5.343e-05	912.38	2.6223e-06	7.7316e-06	1080.7	250.78	3.4217e-06	9.7298e-06	422.46	153.83	90.523	35.357	3.3733e-06	63.961	0.00019551	0.00018817	5.341e-05	807.84	2.092e-06	2.0476e-06	962.48	224.52	2.1066e-06	2.0655e-06	367.11	134.75	80.061	31.198	2.1347e-06	55.644	105.678	-25.909	-5.908	-69.774	35.992	74.370	-69.787	-64.895	79.058	60.484	-65.826	-61.984	-60.512	-55.397	52.714	-57.315	-8191	255	
3538.058	1	1	0	0	0.1979	0.10099	0.093954	0.25298	0.12405	0.1431	0.37125	0.24625	0.19464	0.12367	0.15603	0.050704	0.10614	0.13431	0.27783	0.22809	0.25	-1.3687	-0.71875	-0.8	-1.4667	-0.61667	-1.3146	-1.2542	-0.45208	-1.3396	-0.81667	-0.79792	-1.6417	-0.28333	-1.3875	-1.4458	173.040	232.008	29.543	96.445	58.991	46.806	238.274	-68.060	165.714	102.095	106.163	77.097	266.932	196.752	199.339	158.185	0.00030613	0.00043162	0.0001866	912.05	4.4174e-06	1.7782e-06	1085.4	254.54	1.7362e-06	5.3059e-06	423.75	155.71	91.107	35.853	5.9545e-06	64.751	0.00019889	0.00019393	5.301e-05	810.18	2.0992e-06	2.0887e-06	968.08	225.87	2.085e-06	2.0492e-06	368.98	135.51	80.236	31.266	1.9654e-06	55.58	136.708	248.586	-5.191	-69.669	31.847	29.816	-69.623	-64.625	170.015	-24.545	-66.258	-62.013	-60.194	-55.534	-27.621	-57.341	-8191	255	
#DATA ENDS
