BOXY.EXE: ISS Imagent and Oximeter Data Acquisition Program Version 0.80
Ascii Record File

#ACQ INFORMATION
2  Detector Channels 
16  External MUX Channels 
1  Auxiliary Channels 
5000  Waveform (CCF) Frequency (Hz)
1  Waveforms Skipped 
30  Waveforms Averaged 
1  Cycles Averaged 
16  Acquisitions per Waveform 
10.0806  Updata Rate (Hz) 

#FILE INFORMATION
TRUE -- External MUX Channel results are PARSED.
FALSE -- AC DC and Phase are NOT grouped.
TRUE -- Companion Program Settings File CREATED.
FALSE -- AC data not excluded
FALSE -- DC data not excluded
FALSE -- Phase data not excluded
FALSE -- Auxillary Chn. data not excluded
Tab delimiters

#CALIBRATION STATE
TRUE -- Waveform Calibration Values APPLIED.


#AUX CALIBRATION VALUES
Val Type	aux-1	

Term	1.0000e+00	
Factor	0.0000e+00	


#WF CALIBRATION VALUES
A = Detector Channel
Val Type	A-AC1	A-AC2	A-AC3	A-AC4	A-AC5	A-AC6	A-AC7	A-AC8	A-AC9	A-AC10	A-AC11	A-AC12	A-AC13	A-AC14	A-AC15	A-AC16	A-DC1	A-DC2	A-DC3	A-DC4	A-DC5	A-DC6	A-DC7	A-DC8	A-DC9	A-DC10	A-DC11	A-DC12	A-DC13	A-DC14	A-DC15	A-DC16	A-Ph1	A-Ph2	A-Ph3	A-Ph4	A-Ph5	A-Ph6	A-Ph7	A-Ph8	A-Ph9	A-Ph10	A-Ph11	A-Ph12	A-Ph13	A-Ph14	A-Ph15	A-Ph16	

Term	0.00000e+00	0.00000e+00	0.00000e+00	0.00000e+00	0.00000e+00	0.00000e+00	0.00000e+00	0.00000e+00	0.00000e+00	0.00000e+00	0.00000e+00	0.00000e+00	0.00000e+00	0.00000e+00	0.00000e+00	0.00000e+00	0.00000e+00	0.00000e+00	0.00000e+00	0.00000e+00	0.00000e+00	0.00000e+00	0.00000e+00	0.00000e+00	0.00000e+00	0.00000e+00	0.00000e+00	0.00000e+00	0.00000e+00	0.00000e+00	0.00000e+00	0.00000e+00	0.00000e+00	0.00000e+00	0.00000e+00	0.00000e+00	0.00000e+00	0.00000e+00	0.00000e+00	0.00000e+00	0.00000e+00	0.00000e+00	0.00000e+00	0.00000e+00	0.00000e+00	0.00000e+00	0.00000e+00	0.00000e+00	
Factor	1.00000e+00	1.00000e+00	1.00000e+00	1.00000e+00	1.00000e+00	1.00000e+00	1.00000e+00	1.00000e+00	1.00000e+00	1.00000e+00	1.00000e+00	1.00000e+00	1.00000e+00	1.00000e+00	1.00000e+00	1.00000e+00	1.00000e+00	1.00000e+00	1.00000e+00	1.00000e+00	1.00000e+00	1.00000e+00	1.00000e+00	1.00000e+00	1.00000e+00	1.00000e+00	1.00000e+00	1.00000e+00	1.00000e+00	1.00000e+00	1.00000e+00	1.00000e+00	X	X	X	X	X	X	X	X	X	X	X	X	X	X	X	X	

B = Detector Channel
Val Type	B-AC1	B-AC2	B-AC3	B-AC4	B-AC5	B-AC6	B-AC7	B-AC8	B-AC9	B-AC10	B-AC11	B-AC12	B-AC13	B-AC14	B-AC15	B-AC16	B-DC1	B-DC2	B-DC3	B-DC4	B-DC5	B-DC6	B-DC7	B-DC8	B-DC9	B-DC10	B-DC11	B-DC12	B-DC13	B-DC14	B-DC15	B-DC16	B-Ph1	B-Ph2	B-Ph3	B-Ph4	B-Ph5	B-Ph6	B-Ph7	B-Ph8	B-Ph9	B-Ph10	B-Ph11	B-Ph12	B-Ph13	B-Ph14	B-Ph15	B-Ph16	

Term	0.00000e+00	0.00000e+00	0.00000e+00	0.00000e+00	0.00000e+00	0.00000e+00	0.00000e+00	0.00000e+00	0.00000e+00	0.00000e+00	0.00000e+00	0.00000e+00	0.00000e+00	0.00000e+00	0.00000e+00	0.00000e+00	0.00000e+00	0.00000e+00	0.00000e+00	0.00000e+00	0.00000e+00	0.00000e+00	0.00000e+00	0.00000e+00	0.00000e+00	0.00000e+00	0.00000e+00	0.00000e+00	0.00000e+00	0.00000e+00	0.00000e+00	0.00000e+00	-1.89397e+02	-1.65226e+02	-1.57126e+02	-1.83573e+02	-7.86518e+01	-6.98634e+01	-1.59024e+02	-1.62015e+02	-7.23741e+01	-8.28070e+01	-1.70632e+02	-1.70941e+02	-1.78840e+02	-1.76518e+02	-1.05877e+02	-1.49938e+02	
Factor	3.42563e-05	9.17672e-05	3.45975e-05	1.69658e-01	8.77912e-07	9.10906e-07	1.63438e-01	4.72968e-02	9.51688e-07	1.02407e-06	8.13686e-02	2.67452e-02	2.20867e-02	8.52368e-03	9.30633e-07	1.22118e-02	6.57652e-07	6.67795e-07	1.85925e-07	8.48753e-02	7.31233e-09	7.30656e-09	7.73714e-02	2.37719e-02	7.30843e-09	7.30628e-09	3.87263e-02	1.27484e-02	1.10087e-02	4.19686e-03	7.29356e-09	5.76721e-03	X	X	X	X	X	X	X	X	X	X	X	X	X	X	X	X	



#DISTANCE SETTINGS
A = Detector Channel
A-1	A-2	A-3	A-4	A-5	A-6	A-7	A-8	A-9	A-10	A-11	A-12	A-13	A-14	A-15	A-16	

2.5000e+00	3.0000e+00	2.5000e+00	3.0000e+00	2.0000e+00	3.0000e+00	1.5000e+00	3.0000e+00	3.0000e+00	3.0000e+00	3.0000e+00	3.0000e+00	3.0000e+00	3.0000e+00	1.5000e+00	3.0000e+00	

B = Detector Channel
B-1	B-2	B-3	B-4	B-5	B-6	B-7	B-8	B-9	B-10	B-11	B-12	B-13	B-14	B-15	B-16	

1.0000e+01	1.0000e+01	1.0000e+01	1.4400e+00	1.0000e+01	1.0000e+01	1.5100e+00	1.9400e+00	1.0000e+01	1.0000e+01	1.9900e+00	2.4900e+00	2.4100e+00	2.9000e+00	1.0000e+01	2.9800e+00	




#DATA BEGINS
time	group	step	mark	flag	A-AC1	A-AC2	A-AC3	A-AC4	A-AC5	A-AC6	A-AC7	A-AC8	A-AC9	A-AC10	A-AC11	A-AC12	A-AC13	A-AC14	A-AC15	A-AC16	A-DC1	A-DC2	A-DC3	A-DC4	A-DC5	A-DC6	A-DC7	A-DC8	A-DC9	A-DC10	A-DC11	A-DC12	A-DC13	A-DC14	A-DC15	A-DC16	A-Ph1	A-Ph2	A-Ph3	A-Ph4	A-Ph5	A-Ph6	A-Ph7	A-Ph8	A-Ph9	A-Ph10	A-Ph11	A-Ph12	A-Ph13	A-Ph14	A-Ph15	A-Ph16	B-AC1	B-AC2	B-AC3	B-AC4	B-AC5	B-AC6	B-AC7	B-AC8	B-AC9	B-AC10	B-AC11	B-AC12	B-AC13	B-AC14	B-AC15	B-AC16	B-DC1	B-DC2	B-DC3	B-DC4	B-DC5	B-DC6	B-DC7	B-DC8	B-DC9	B-DC10	B-DC11	B-DC12	B-DC13	B-DC14	B-DC15	B-DC16	B-Ph1	B-Ph2	B-Ph3	B-Ph4	B-Ph5	B-Ph6	B-Ph7	B-Ph8	B-Ph9	B-Ph10	B-Ph11	B-Ph12	B-Ph13	B-Ph14	B-Ph15	B-Ph16	aux-1	digaux	

3804.892	1	1	0	256	0.20067	0.19379	0.26502	0.26926	0.33714	0.14913	0.20887	0.23758	0.19676	0.25048	0.23668	0.2376	0.11389	0.089265	0.13665	0.10172	-0.40833	-0.39375	-1.5312	-0.39375	-0.96042	-1.2229	-0.22292	-1.3292	-0.86458	-0.40417	-1.4458	-0.43542	-0.86458	-1.125	-0.29792	-1.3958	308.144	459.299	493.549	501.511	407.766	185.061	233.254	416.411	218.955	428.497	389.614	517.274	207.563	507.670	269.219	321.051	0.00018963	8.4907e-05	3.3586e-05	152.43	4.3479e-07	3.7765e-07	338.74	42.11	9.6697e-07	1.3131e-06	114.88	38.28	13.109	6.4984	4.1206e-08	10.694	5.2626e-06	2.7407e-06	4.2453e-07	129.62	2.308e-08	1.7932e-08	289.15	36.293	2.4498e-08	2.3639e-08	96.076	32.263	11.095	5.4727	2.8658e-08	8.8947	501.076	220.695	243.029	188.033	281.160	343.682	185.177	194.021	285.818	291.801	189.913	194.172	199.231	202.407	411.050	199.798	-8191	255	
3804.986	1	1	0	0	0.14178	0.42498	0.14665	0.35265	0.10413	0.22354	0.15783	0.15019	0.14857	0.18263	0.22601	0.11255	0.15578	0.16871	0.22648	0.20898	-0.475	-0.33125	-1.2812	-0.36875	-0.7125	-1.5208	-0.34792	-1.3479	-1.1	-0.34583	-1.5187	-0.64583	-0.7375	-1.3813	-0.19167	-1.1417	305.470	271.177	267.236	500.292	517.259	235.054	182.017	327.330	457.448	377.295	258.920	455.008	177.715	322.754	442.989	375.380	0.00016216	0.00011592	2.7082e-05	149.93	6.2932e-07	8.9528e-07	336.53	41.972	9.7776e-07	1.2148e-06	112.55	38.183	13.094	6.4998	4.3415e-07	10.627	4.4008e-06	2.6781e-06	4.6288e-07	128.46	2.378e-08	1.51e-08	288.58	36.095	2.5975e-08	2.4659e-08	95.219	32.144	11.074	5.4433	2.533e-08	8.9294	491.803	253.997	233.802	187.289	288.139	292.311	184.974	195.010	322.483	299.047	189.001	193.867	198.215	202.201	258.369	199.008	-8191	255	
3805.083	1	1	0	0	0.17611	0.32015	0.21485	0.24599	0.17207	0.17061	0.058493	0.21694	0.073856	0.20791	0.088903	0.30667	0.07324	0.27035	0.24102	0.17938	-0.6875	-0.43125	-1.6542	-0.5875	-0.7875	-1.475	-0.16875	-1.1875	-1.1521	-0.29167	-1.5375	-0.70833	-0.67708	-1.4542	-0.37917	-1.1688	242.349	533.619	312.658	212.780	275.129	481.191	423.248	220.064	395.635	242.165	348.472	484.276	260.950	352.507	380.816	405.312	0.00018275	0.0001199	1.942e-05	148.43	8.9736e-07	6.615e-07	331.34	42.329	9.0197e-07	5.4637e-07	115.6	38.702	13.295	6.5751	8.8658e-07	10.797	4.794e-06	2.4834e-06	3.5558e-07	127.69	2.6385e-08	1.3974e-08	286.39	36.045	2.6112e-08	2.3913e-08	96.053	32.43	11.195	5.4975	2.6074e-08	8.9755	499.384	228.700	214.756	187.095	351.280	335.372	184.949	194.407	265.611	295.437	189.537	194.870	197.084	203.354	299.249	199.711	-8191	255	
3805.179	1	1	0	0	0.18066	0.15793	0.15013	0.050509	0.17689	0.10536	0.329	0.21157	0.11488	0.080505	0.11722	0.094461	0.10448	0.10649	0.21687	0.049962	-0.78125	-0.34375	-1.5375	-0.4375	-0.62917	-1.5958	-0.32917	-1.1125	-1.2833	-0.1	-1.3521	-0.73958	-0.63542	-1.5104	-0.46667	-0.9125	436.993	248.073	533.971	478.300	481.099	460.476	379.814	467.706	319.933	287.521	483.983	236.347	243.052	423.335	278.218	525.033	0.00018439	4.5244e-05	1.9887e-05	147.31	5.5292e-07	8.0322e-07	332.71	42.104	9.4761e-07	9.19e-07	115.23	38.384	13.217	6.6291	1.1118e-06	10.802	4.8324e-06	2.4959e-06	4.2066e-07	128.36	2.3308e-08	1.2436e-08	287.52	35.931	2.3159e-08	2.3745e-08	96.151	32.324	11.16	5.5403	2.4707e-08	9.014	501.819	190.696	277.036	186.414	278.241	267.511	185.686	192.954	324.151	339.256	189.149	194.472	198.205	202.293	266.971	199.651	-8191	255	
3805.299	1	1	0	0	0.052632	0.16796	0.21047	0.043178	0.098962	0.28165	0.17668	0.14204	0.23412	0.1339	0.1935	0.2232	0.24394	0.094909	0.16385	0.04781	-0.94375	-0.44375	-1.1729	-0.79583	-0.64375	-1.45	-0.6125	-1.0021	-1.1417	-0.44583	-1.2062	-0.67917	-0.65833	-1.5	-0.51042	-0.93333	394.611	261.744	433.123	508.191	483.650	359.281	480.934	383.567	362.140	362.638	348.042	185.090	503.669	350.430	379.926	471.517	0.0001964	8.7063e-05	1.1518e-05	152.44	5.6979e-07	1.1325e-06	332.32	41.611	1.2284e-06	6.5076e-07	113.44	38.157	13.028	6.4739	4.4932e-07	10.793	4.5268e-06	2.3303e-06	5.0819e-07	129.28	2.5365e-08	1.7155e-08	287.56	35.899	2.2961e-08	2.6546e-08	95.838	31.982	11.095	5.5028	2.5725e-08	8.9309	502.006	213.337	214.425	187.593	286.319	299.148	185.162	193.945	320.348	275.177	189.476	194.323	198.678	201.750	265.694	199.925	-8191	255	
3805.396	1	1	0	0	0.13154	0.16145	0.34052	0.34387	0.10977	0.31535	0.30578	0.058488	0.17674	0.3246	0.033138	0.10143	0.15039	0.23854	0.15608	0.19763	-0.75	-0.50625	-1.2313	-1.0417	-0.42917	-1.425	-0.72083	-0.84167	-1.2771	-0.25	-1.2479	-1.0333	-0.58958	-1.3729	-0.57708	-0.77917	535.922	364.587	182.559	461.336	207.150	415.402	418.287	375.215	332.462	513.596	499.120	513.280	305.935	269.328	247.929	372.780	0.00020668	5.3342e-05	2.8653e-05	151.15	2.3412e-07	3.824e-07	336.44	42.263	7.8847e-07	6.9291e-07	114.47	38.288	13.332	6.5928	2.1178e-07	10.687	4.4213e-06	2.5195e-06	4.989e-07	129.07	2.5045e-08	1.4141e-08	288.66	36.048	2.0981e-08	2.4948e-08	96.104	32.08	11.14	5.5499	2.4525e-08	8.9901	500.504	236.227	228.842	187.712	382.750	353.503	184.714	195.069	337.438	314.480	189.558	194.201	199.655	201.418	274.306	199.955	-8191	255	
3805.492	1	1	0	0	0.036531	0.088955	0.089006	0.21021	0.08978	0.13974	0.054503	0.014154	0.08508	0.11828	0.080601	0.022236	0.086684	0.10202	0.10243	0.2543	-1.0729	-0.36042	-1.1187	-0.93542	-0.3625	-1.3062	-0.68958	-0.70833	-1.4292	-0.32917	-1.0229	-1.0646	-0.2875	-1.4583	-0.66458	-0.71875	382.916	412.212	426.391	464.719	269.152	343.441	474.651	471.163	407.855	375.834	432.820	371.332	283.383	467.885	287.444	386.149	0.00023565	0.00013455	2.6174e-05	149.89	7.1041e-07	3.2501e-07	336.99	41.493	1.275e-06	9.0537e-07	114.84	38.562	13.155	6.6077	1.2505e-06	10.91	4.9968e-06	2.6851e-06	5.5158e-07	128.42	2.8625e-08	1.7734e-08	288.79	35.769	2.0707e-08	2.2741e-08	96.093	32.084	11.14	5.5614	2.8126e-08	9.0125	500.228	235.008	200.649	188.467	260.867	283.272	184.744	194.643	305.932	298.810	189.181	194.837	199.321	202.392	295.483	200.255	-8191	255	
3805.588	1	1	0	0	0.28201	0.22569	0.097637	0.27735	0.1473	0.053116	0.28837	0.14441	0.10735	0.2146	0.13872	0.19833	0.25674	0.10239	0.041867	0.2196	-1.1292	-0.34583	-1.1333	-1.0604	-0.27083	-1.3729	-0.68333	-0.56875	-1.5854	-0.47917	-1.0229	-0.92917	-0.44583	-1.2479	-0.79375	-0.5	293.553	184.528	343.210	469.560	312.878	300.955	521.713	411.891	325.503	288.227	212.877	423.977	435.083	467.857	264.435	466.588	0.00020253	9.0457e-05	2.2678e-05	150.27	5.0807e-07	6.1861e-07	336.5	41.742	1.02e-06	4.409e-07	115.73	37.982	13.385	6.5982	3.7781e-07	10.838	4.5378e-06	2.4416e-06	4.6171e-07	128.77	2.5228e-08	1.5024e-08	288.18	35.706	1.9611e-08	2.5953e-08	97.117	32.276	11.223	5.5754	2.5436e-08	9.0403	502.974	190.498	211.454	186.938	286.961	329.625	184.894	194.104	278.176	336.072	189.709	194.180	198.295	202.217	262.177	199.523	-8191	255	
3805.684	1	1	0	0	0.34723	0.11696	0.06296	0.15608	0.060011	0.15848	0.37219	0.312	0.19188	0.14622	0.46042	0.29022	0.29827	0.15304	0.1746	0.11966	-0.925	-0.37083	-1.0063	-1.1833	-0.60417	-1.2708	-0.78542	-0.61458	-1.3146	-0.50625	-0.95	-1.1104	-0.4375	-1.2729	-0.71042	-0.25625	497.432	513.715	376.739	209.480	186.595	220.592	408.549	516.050	204.070	429.505	252.310	423.452	292.064	507.798	532.923	244.789	0.00021215	0.0001205	1.6733e-05	150.75	6.2539e-07	9.3189e-07	335.69	41.502	1.268e-06	6.1129e-07	115.25	38.095	13.308	6.6036	5.4551e-07	10.674	4.5474e-06	2.3178e-06	5.1749e-07	129.52	2.4953e-08	1.7795e-08	288.57	35.654	2.2534e-08	2.1477e-08	96.148	32.095	11.154	5.5493	2.2017e-08	8.903	502.723	213.047	245.069	187.241	366.668	308.730	184.604	194.352	297.306	269.145	189.571	194.593	198.431	202.292	335.165	199.145	-8191	255	
3805.780	1	1	0	0	0.084066	0.15392	0.02005	0.15383	0.050657	0.13394	0.05113	0.29629	0.1606	0.09409	0.20958	0.22475	0.16555	0.10386	0.076425	0.086741	-0.875	-0.33542	-0.81875	-1.2646	-0.23125	-1.4562	-1.0583	-0.63542	-1.625	-0.36042	-0.87917	-1.3729	-0.25	-1.4458	-0.98333	-0.39167	390.610	255.307	324.620	385.531	514.751	223.023	507.577	428.656	306.445	341.102	178.484	410.793	315.481	480.568	416.898	449.722	0.00022503	0.0001288	3.3124e-05	151.15	1.1192e-06	4.7673e-07	332.91	41.143	6.8831e-07	2.1432e-07	114.19	38.237	13.257	6.7601	9.8809e-07	10.65	4.4323e-06	2.2093e-06	4.8302e-07	129.08	2.541e-08	1.5618e-08	286.71	35.782	2.019e-08	2.3989e-08	96.208	32.176	11.19	5.6224	2.2762e-08	8.9737	497.655	238.863	209.883	187.047	310.184	356.999	183.920	193.054	290.500	263.041	189.090	194.165	197.745	200.892	262.751	199.348	-8191	255	
3805.899	1	1	0	0	0.19822	0.25828	0.094701	0.38843	0.29695	0.14184	0.16305	0.15995	0.108	0.19596	0.12926	0.18647	0.27022	0.22597	0.18325	0.095476	-1.2021	-0.43958	-0.79167	-1.4979	-0.21667	-1.2646	-0.9625	-0.48958	-1.5125	-0.65417	-0.89167	-1.3479	-0.31667	-1.1271	-1.0625	-0.45208	233.791	458.997	381.619	431.943	377.800	431.443	422.822	188.011	285.738	426.531	342.396	428.150	363.211	447.530	490.196	347.431	0.00018265	0.00010879	2.0491e-05	149.94	1.096e-06	1.2313e-06	333.87	42.145	4.0301e-07	6.994e-07	115.48	38.087	13.483	6.6316	3.2309e-07	10.813	3.8897e-06	2.1411e-06	4.8883e-07	128.65	2.6583e-08	1.6973e-08	287.27	36.045	2.1057e-08	2.1965e-08	96.476	32.153	11.266	5.5841	2.3947e-08	9.0324	500.474	222.441	204.116	186.724	324.456	308.524	185.301	193.433	225.613	311.360	188.767	194.878	198.141	201.659	366.477	199.354	-8191	255	
3805.995	1	1	0	0	0.22092	0.25815	0.33847	0.071884	0.12059	0.09286	0.26532	0.12159	0.20399	0.12545	0.074277	0.2	0.1607	0.27418	0.10247	0.047976	-1.1313	-0.73333	-0.60208	-1.45	-0.41667	-1.0458	-1.2167	-0.525	-1.5042	-0.69583	-0.8125	-1.5583	-0.47708	-1.2208	-1.1417	-0.44375	475.295	416.263	428.349	186.466	406.349	352.531	342.650	248.167	182.506	300.691	299.263	192.276	450.043	226.205	269.033	273.364	0.00024084	6.9126e-05	1.2281e-05	151.96	8.1725e-07	7.4611e-07	336.47	41.726	1.0475e-06	9.905e-07	114.2	38.473	13.423	6.5927	8.7268e-07	10.718	4.5405e-06	1.9589e-06	5.4112e-07	129.61	2.3567e-08	1.6881e-08	287.66	35.86	2.1377e-08	2.1706e-08	96.345	32.374	11.261	5.5878	2.1546e-08	8.9976	501.532	208.576	186.748	187.117	294.636	319.130	185.216	195.330	288.417	308.014	188.677	194.710	197.070	202.330	280.837	198.987	-8191	255	
3806.091	1	1	0	0	0.30695	0.35446	0.16181	0.19844	0.14035	0.1152	0.28824	0.2581	0.26182	0.11923	0.27799	0.21571	0.1877	0.12527	0.099981	0.10104	-1.1604	-0.62083	-0.69375	-1.475	-0.2875	-1.1688	-1.2646	-0.10417	-1.5958	-0.725	-0.44792	-1.5104	-0.46667	-1.0771	-1.1771	-0.35	329.911	333.717	325.357	325.849	288.745	239.866	519.435	312.581	329.373	369.061	259.504	430.039	463.966	499.697	525.119	369.031	0.00019743	5.7878e-05	2.6524e-05	150.56	1.2076e-06	7.5955e-07	333.16	41.8	5.7081e-07	8.1807e-07	115.52	38.346	13.285	6.7079	7.0096e-07	10.576	4.5268e-06	2.0827e-06	5.2136e-07	129.88	2.8838e-08	2.093e-08	286.13	35.791	1.8149e-08	1.9392e-08	96.047	32.175	11.136	5.6207	1.8948e-08	8.8908	499.378	244.059	283.337	187.324	308.579	333.373	184.734	194.818	285.277	259.499	189.458	194.218	198.598	202.433	266.746	199.870	-8191	255	
3806.187	1	1	0	0	0.42785	0.22178	0.16906	0.33577	0.17515	0.12318	0.10403	0.18538	0.1246	0.080928	0.1393	0.21567	0.098922	0.064064	0.20878	0.093442	-1.0979	-0.74583	-0.49167	-1.5938	-0.275	-0.72917	-1.3104	-0.27083	-1.2708	-0.82292	-0.40625	-1.4458	-0.61458	-0.7375	-1.1917	-0.38333	423.710	390.867	323.330	278.794	250.923	294.450	395.688	414.916	492.091	532.294	429.353	434.757	381.984	416.325	452.731	458.557	0.00019058	8.2924e-05	2.7769e-05	151.54	6.94e-07	6.4428e-07	331.43	41.75	7.8457e-07	7.9796e-07	114.19	37.788	13.571	6.5273	1.1017e-06	10.666	4.3021e-06	1.913e-06	5.3066e-07	129.02	2.7086e-08	1.714e-08	285.67	35.617	1.8774e-08	1.9818e-08	95.365	31.893	11.211	5.5587	2.1197e-08	8.8946	495.332	223.861	219.755	187.656	282.926	329.752	184.744	193.604	325.456	252.674	189.155	195.038	198.333	202.976	311.030	198.578	-8191	255	
3806.259	1	1	0	0	0.14078	0.13376	0.12913	0.35997	0.24023	0.097595	0.044118	0.36664	0.13097	0.024522	0.23177	0.25885	0.12758	0.16427	0.10953	0.12606	-0.74375	-0.91875	-0.36458	-1.3792	-0.40417	-0.74375	-1.4104	-0.53958	-1.3687	-0.95	-0.41042	-1.4167	-0.32917	-0.65	-1.3979	-0.1125	307.417	229.409	259.078	216.829	528.480	525.464	488.910	459.499	216.627	301.077	520.386	210.495	408.272	524.600	260.915	502.318	0.0002045	0.00010005	6.5884e-06	150.29	1.0425e-06	4.9058e-07	330.13	41.206	4.9623e-07	6.6429e-07	113.27	38.096	13.091	6.5842	6.8374e-07	10.873	4.2227e-06	1.8657e-06	5.9767e-07	129.4	2.5334e-08	1.9819e-08	285.34	35.427	2.1849e-08	1.6393e-08	95.152	31.9	11.175	5.5687	1.6714e-08	8.9874	505.679	222.986	222.565	186.976	269.339	366.656	184.801	193.770	335.525	309.944	189.064	194.204	198.538	202.169	262.866	199.902	-8191	255	
3806.380	1	1	0	0	0.15066	0.22402	0.32334	0.10948	0.16226	0.16524	0.25563	0.045122	0.15646	0.23517	0.1925	0.029415	0.2945	0.12994	0.13798	0.050558	-1.0417	-1.0729	-0.27708	-1.6979	-0.47708	-0.82292	-1.4521	-0.35417	-1.25	-1.0625	-0.2875	-1.4167	-0.4625	-0.76042	-1.3813	-0.30833	363.180	450.587	418.570	272.013	376.696	508.680	389.343	474.520	354.824	468.668	460.948	196.133	338.295	444.939	392.517	218.040	0.00019794	0.00010905	2.0193e-05	153.04	2.1558e-07	6.8329e-07	332.52	41.327	1.1151e-06	7.865e-07	114.45	38.309	13.415	6.6438	7.0653e-07	10.819	4.2254e-06	1.7418e-06	6.12e-07	129.85	2.439e-08	1.9712e-08	287.79	35.561	2.4651e-08	1.4217e-08	95.905	32.049	11.248	5.6353	1.6821e-08	9.0589	500.895	233.295	224.004	186.987	338.173	292.236	185.098	194.433	302.209	298.844	189.576	194.722	198.378	202.333	311.311	199.162	-8191	255	
3806.476	1	1	0	0	0.10957	0.13288	0.097586	0.30142	0.28275	0.25719	0.065964	0.30126	0.20701	0.19629	0.15495	0.098906	0.031656	0.16573	0.21045	0.28493	-0.83125	-1.1812	-0.40208	-1.4188	-0.48542	-0.77708	-1.6354	-0.43542	-1.0625	-1.2854	-0.48542	-1.1729	-0.65417	-0.65833	-1.3146	-0.45208	468.208	400.036	366.980	384.810	438.842	483.286	371.866	413.453	488.138	419.787	525.935	480.233	335.209	510.993	321.726	531.998	0.00020228	9.7736e-05	3.3269e-05	151.67	5.8296e-07	5.4641e-07	330.95	41.248	6.2871e-07	3.7422e-07	114.32	38.242	13.111	6.6903	8.5515e-07	10.798	4.9064e-06	1.9366e-06	6.4299e-07	130.39	2.2135e-08	2.0687e-08	286.34	35.678	2.3174e-08	1.7748e-08	95.604	31.997	11.12	5.6304	1.3523e-08	8.9745	498.807	263.257	275.704	186.718	292.520	342.515	184.933	193.437	288.470	343.928	189.519	193.755	197.787	202.458	286.554	199.382	-8191	255	
3806.572	1	1	0	0	0.089712	0.15717	0.15791	0.16746	0.23095	0.23224	0.14565	0.21442	0.071336	0.04572	0.15296	0.064813	0.16418	0.5485	0.22224	0.11399	-0.58333	-1.1125	-0.29375	-1.3333	-0.7625	-0.50208	-1.575	-0.6	-0.93125	-1.2042	-0.44792	-1.325	-0.91875	-0.56458	-1.6146	-0.375	511.429	322.042	498.989	497.900	293.983	533.232	230.058	514.711	419.651	497.584	292.430	468.897	485.318	406.454	269.347	394.689	0.0002117	0.00012609	2.284e-05	152.55	6.7372e-07	6.0298e-07	330.8	41.263	4.3005e-07	1.1306e-06	113.39	37.89	13.087	6.7816	1.39e-06	10.521	4.6666e-06	1.8601e-06	6.3834e-07	129.65	2.0855e-08	2.0276e-08	284.92	35.435	2.2839e-08	1.8738e-08	95.147	31.934	11.07	5.6232	2.0361e-08	8.8843	500.469	238.873	240.655	187.142	299.183	304.874	184.616	193.887	345.469	317.219	188.414	194.576	198.908	201.835	277.991	199.009	-8191	255	
3806.693	1	1	0	0	0.048504	0.16597	0.20304	0.13022	0.13724	0.27695	0.037718	0.11223	0.16323	0.29074	0.13031	0.090659	0.17912	0.22102	0.15195	0.22528	-0.68333	-1.3667	-0.50417	-1.2479	-0.76667	-0.68958	-1.4562	-0.30417	-0.78125	-1.3062	-0.00625	-1.2812	-0.85625	-0.25	-1.3917	-0.33125	402.652	287.959	420.982	514.903	355.244	480.444	372.923	400.608	271.652	365.285	432.423	297.782	198.319	276.557	389.993	296.304	0.00018866	9.149e-05	2.7677e-05	151.85	8.8138e-07	1.1265e-06	330.07	41.43	8.8306e-07	4.5445e-07	114.11	37.991	13.466	6.8333	1.1029e-06	10.903	4.3062e-06	1.7126e-06	5.8644e-07	129.93	2.5715e-08	2.4401e-08	285.57	35.666	2.5473e-08	1.4673e-08	95.35	31.956	11.268	5.6732	1.8249e-08	8.9885	498.204	230.105	244.129	187.233	329.135	318.716	184.789	193.578	293.912	269.207	189.241	194.485	197.617	202.369	309.470	199.433	-8191	255	
3806.787	1	1	0	0	0.20457	0.25118	0.27365	0.23828	0.1448	0.091705	0.12891	0.048763	0.28175	0.1807	0.20137	0.16982	0.098439	0.23579	0.3163	0.16933	-0.35417	-1.2396	-0.18958	-1.1583	-0.79792	-0.38125	-1.3937	-0.575	-0.65625	-1.2667	-0.32708	-1.1958	-0.97917	-0.12917	-1.2563	-0.54792	340.209	313.640	226.274	228.014	250.105	386.473	233.543	434.890	192.940	509.830	417.441	193.851	216.649	458.358	448.547	437.819	0.00018183	0.00010423	2.8356e-05	150.8	6.7225e-07	6.7886e-07	331.03	41.592	1.0084e-06	7.1426e-07	113.88	38.135	13.197	6.7783	8.2204e-07	10.807	4.6707e-06	1.6361e-06	6.0426e-07	129.92	1.6879e-08	2.2605e-08	284.87	35.417	2.7011e-08	1.3197e-08	95.229	31.913	11.114	5.6805	1.9085e-08	8.9843	505.887	255.306	207.971	187.151	305.439	274.085	184.069	193.648	318.090	302.527	189.821	194.645	198.309	202.317	262.938	199.110	-8191	255	
3806.861	1	1	0	0	0.0091701	0.11848	0.21357	0.26629	0.15276	0.19105	0.19076	0.036169	0.21278	0.32778	0.13531	0.26703	0.14591	0.20508	0.18043	0.024162	-0.1	-1.5167	-0.41667	-1.0562	-1.2521	-0.28333	-1.3792	-0.43333	-0.65833	-1.3375	-0.15208	-1.225	-0.91667	-0.34375	-1.4688	-0.47917	331.611	462.075	407.061	339.864	341.175	189.461	289.127	375.985	486.557	402.904	353.731	419.682	277.846	253.345	492.665	523.846	0.00021037	8.3625e-05	1.9953e-05	149.62	7.5116e-07	8.069e-07	326.64	41.339	1.281e-06	9.4609e-07	112.35	37.276	13.394	6.6809	8.4586e-07	10.559	4.8844e-06	1.8754e-06	5.8954e-07	129.1	1.9819e-08	2.3868e-08	282	35.465	2.5762e-08	1.6211e-08	94.798	31.637	11.135	5.6227	1.9176e-08	8.8153	498.032	227.960	200.263	187.546	325.585	327.939	184.451	193.516	301.164	317.431	189.682	194.795	197.638	201.938	284.658	199.350	-8191	255	
3806.979	1	1	0	0	0.077698	0.19641	0.06447	0.08497	0.22001	0.081785	0.19756	0.061678	0.23155	0.16146	0.21922	0.22756	0.14622	0.077549	0.065582	0.075071	-0.45625	-1.4958	-0.54375	-0.83542	-1.1396	-0.24375	-1.5	-0.62917	-0.525	-1.3896	-0.54375	-1.0729	-1.1063	-0.33333	-1.35	-0.85625	368.275	505.516	407.720	264.341	486.674	245.474	437.394	462.444	348.275	302.112	525.173	363.482	424.691	400.112	325.415	451.113	0.00017676	9.5347e-05	2.8052e-05	147	1.0038e-06	6.4735e-07	329.3	40.994	5.1403e-07	8.2844e-07	111.26	37.359	13.16	6.8194	1.0819e-07	10.449	4.8337e-06	1.65e-06	5.7521e-07	127.3	1.8113e-08	2.3366e-08	282.02	35.156	2.4833e-08	1.4308e-08	93.803	31.344	11.079	5.6344	1.7869e-08	8.7148	499.065	185.205	197.650	186.529	334.954	307.219	184.998	194.579	300.514	334.500	188.604	193.849	198.886	202.622	266.938	197.533	-8191	255	
3807.076	1	1	0	0	0.090077	0.087026	0.01593	0.11044	0.10166	0.24885	0.075307	0.058076	0.10045	0.18695	0.13249	0.14326	0.19595	0.060315	0.18244	0.40492	-0.10417	-1.4875	-0.68125	-1.0417	-1.3271	-0.40833	-1.3771	-0.81667	-0.53958	-1.4292	-0.65208	-0.81042	-1.25	-0.25417	-1.3083	-0.96667	292.235	299.191	348.365	523.729	238.844	447.138	402.684	213.952	364.338	468.490	381.196	428.800	509.008	387.472	458.929	403.953	0.0001895	8.2333e-05	3.5242e-05	150.31	1.0306e-06	6.39e-07	326.67	40.512	3.9696e-07	6.2149e-07	111.51	37.048	12.894	6.7211	8.3658e-07	10.438	4.5967e-06	1.7516e-06	5.8179e-07	128.66	1.6514e-08	2.1402e-08	281.32	35.006	2.5458e-08	1.6744e-08	93.125	31.07	10.967	5.6195	1.831e-08	8.7704	502.142	214.184	238.824	185.878	291.214	304.067	184.431	193.516	322.274	324.185	188.345	194.722	199.249	201.904	278.446	198.391	-8191	255	
3807.172	1	1	0	0	0.088074	0.0714	0.22087	0.015851	0.026171	0.20255	0.1034	0.17503	0.15439	0.18456	0.048271	0.172	0.24443	0.061263	0.18383	0.28431	-0.16667	-1.5896	-0.30625	-0.99167	-1.4271	-0.27708	-1.5	-0.875	-0.3875	-1.4417	-0.62292	-0.76667	-1.5938	-0.2625	-1.45	-1.0958	191.474	363.114	317.721	451.515	401.616	280.775	378.470	355.826	205.568	361.195	399.640	226.130	457.659	433.703	217.904	490.528	0.0001874	8.8232e-05	1.9874e-05	149.52	5.4708e-07	5.6747e-07	320.75	40.272	6.6598e-07	9.3581e-07	110.16	36.969	13.038	6.6216	8.2911e-07	10.709	4.572e-06	1.5234e-06	5.3066e-07	128.07	1.8875e-08	2.2331e-08	278.47	34.541	2.9416e-08	1.6378e-08	92.608	31.064	10.957	5.5624	1.6806e-08	8.8633	498.058	236.008	237.525	186.897	284.956	328.495	184.442	193.959	288.255	326.741	188.761	193.726	197.973	201.973	256.419	199.583	-8191	255	
3807.292	1	1	0	0	0.1983	0.058738	0.20329	0.24505	0.23174	0.27797	0.3976	0.29788	0.32016	0.1577	0.17044	0.17183	0.20227	0.21765	0.37111	0.12709	0.033333	-1.6417	-0.45208	-0.63958	-1.5104	-0.48542	-1.3979	-1.2542	-0.24792	-1.2667	-0.64167	-0.71875	-1.2146	-0.3875	-1.2083	-1.1187	242.762	288.867	377.964	189.161	349.567	209.493	499.704	457.846	258.235	516.523	512.733	503.813	387.816	336.125	314.333	342.339	0.00020678	4.9881e-05	4.219e-05	148.33	5.78e-07	2.4048e-07	323.74	39.877	2.6676e-07	6.0274e-07	112.13	37.073	13.036	6.5723	2.7918e-07	10.467	5.5133e-06	1.4719e-06	6.1704e-07	126.39	1.4823e-08	2.0611e-08	278.32	34.667	2.7193e-08	1.5115e-08	93.004	30.908	10.947	5.5397	1.6654e-08	8.6888	505.048	286.186	241.441	186.227	301.038	296.770	184.394	194.461	285.393	327.138	188.871	194.642	198.653	203.338	302.038	199.874	-8191	255	
3807.388	1	1	0	0	0.21069	0.15038	0.18665	0.32199	0.22484	0.19184	0.24606	0.11323	0.14698	0.068027	0.1004	0.071355	0.10425	0.2389	0.11014	0.075194	0.047917	-1.1958	-0.81458	-0.60208	-1.4125	-0.31875	-1.1458	-1.0583	-0.31667	-1.3042	-0.725	-0.6125	-1.5562	-0.27292	-0.99583	-1.2104	190.609	260.557	334.369	351.334	365.041	322.592	409.603	352.079	467.645	202.964	225.058	311.688	341.276	527.673	421.971	447.735	0.00020833	0.00010905	3.2365e-05	148.77	4.0491e-07	1.5624e-06	325.19	40.594	4.7552e-07	7.0552e-07	109.88	36.775	12.878	6.5727	6.1168e-07	10.393	5.2489e-06	1.6472e-06	4.8495e-07	126.77	1.6179e-08	2.3975e-08	278.4	34.734	2.6584e-08	1.4369e-08	92.448	30.731	10.885	5.536	2.0194e-08	8.6262	501.893	257.371	235.689	187.777	284.792	351.018	184.196	194.263	282.741	302.425	188.382	194.655	198.536	201.933	234.138	199.436	-8191	255	
3807.460	1	1	0	0	0.10247	0.05669	0.029545	0.073727	0.13195	0.1068	0.27047	0.38982	0.14448	0.048258	0.31289	0.045762	0.46058	0.12573	0.061784	0.023757	0.064583	-1.4208	-0.8	-0.67292	-1.3354	-0.46042	-1.1417	-1.2687	-0.43333	-1.3354	-0.86042	-0.47292	-1.6083	-0.53125	-0.91667	-1.3979	285.294	444.789	520.507	392.313	337.372	243.074	482.965	407.137	226.052	522.954	520.347	292.992	433.533	424.843	533.088	269.257	0.00020328	8.4706e-05	1.1649e-05	148.5	8.8065e-07	1.09e-06	324.45	39.583	4.8638e-07	4.9989e-07	110.65	37.01	12.943	6.5963	1.1042e-06	10.412	5.0817e-06	1.6152e-06	5.1362e-07	126.54	1.4137e-08	2.3274e-08	277.57	34.416	2.5001e-08	1.2025e-08	92.189	31.018	10.9	5.5332	2.3537e-08	8.6655	500.971	222.902	202.677	186.986	283.917	345.530	184.682	194.354	344.436	265.702	189.392	195.831	198.235	202.549	302.351	199.212	-8191	255	
3807.581	1	1	0	0	0.21864	0.1236	0.062433	0.14862	0.10919	0.084331	0.23967	0.1271	0.12233	0.16506	0.17053	0.13341	0.13496	0.11314	0.23025	0.28139	0.24583	-1.0417	-0.79375	-0.67292	-1.5229	-0.56875	-0.97708	-1.2563	-0.47292	-1.2708	-1.0083	-0.48333	-1.5	-0.48125	-0.92917	-1.2563	337.866	507.411	483.502	281.187	276.627	440.994	368.286	380.729	177.178	356.455	313.023	428.675	432.024	247.355	184.809	486.404	0.00016505	6.8503e-05	2.179e-05	148.05	7.354e-07	6.3989e-07	321	40.344	7.3869e-07	9.5192e-07	110.13	37.066	12.985	6.6064	4.5843e-07	10.444	5.0009e-06	2.0284e-06	4.4893e-07	126.24	1.6468e-08	2.0778e-08	276.07	34.685	2.6052e-08	1.9849e-08	92.688	31.028	10.998	5.5675	1.9738e-08	8.7496	506.785	263.153	231.941	188.172	253.150	311.770	184.853	194.775	308.420	314.421	189.128	195.212	198.684	202.460	222.577	198.825	-8191	255	
3807.677	1	1	0	0	0.26945	0.11789	0.1251	0.15831	0.16249	0.21323	0.12026	0.13699	0.11828	0.033781	0.28084	0.11395	0.29721	0.040702	0.37317	0.089171	-0.15625	-1.1021	-1.0875	-0.45833	-1.5229	-0.71667	-0.87917	-1.3271	-0.175	-1.2667	-1.2021	-0.51042	-1.3646	-0.58333	-0.54792	-1.5229	255.812	435.004	226.085	314.500	241.309	479.875	346.888	383.185	392.906	279.075	218.927	410.573	505.029	499.055	509.696	374.815	0.0002099	7.3158e-05	1.874e-05	149.68	3.9046e-07	6.3136e-07	322.31	39.745	8.3347e-07	1.4708e-06	109.86	36.978	13.238	6.5802	7.4788e-07	10.509	5.0995e-06	1.3606e-06	4.1794e-07	127.13	1.5859e-08	1.889e-08	278.24	34.616	2.7894e-08	1.8022e-08	92.409	31.087	11.032	5.5874	2.381e-08	8.7497	501.469	183.997	227.828	186.907	311.581	276.563	184.998	194.297	317.375	336.623	189.244	194.177	199.569	201.880	259.374	197.929	-8191	255	
3807.771	1	1	0	0	0.11145	0.058185	0.15862	0.12103	0.24266	0.11659	0.18883	0.21176	0.32427	0.087513	0.18673	0.23139	0.1787	0.097007	0.050693	0.16954	0.010417	-1.1688	-1.2333	-0.38542	-1.4625	-0.57083	-0.61875	-1.55	-0.37917	-1.1437	-1.2646	-0.45417	-1.5312	-0.71875	-0.53125	-1.5125	466.659	337.812	490.363	527.864	186.513	367.706	488.285	232.985	435.496	306.101	190.809	457.663	342.052	454.789	242.002	212.148	0.00022197	0.00012197	2.5636e-05	148.97	9.614e-07	4.9328e-07	322.74	40.712	5.6509e-07	7.3181e-07	112.28	36.505	12.957	6.6615	1.2132e-07	10.248	4.9365e-06	2.1397e-06	3.4745e-07	127.36	1.6392e-08	1.9423e-08	277.06	34.931	2.4103e-08	1.6378e-08	93.075	30.918	11.022	5.5495	2.0999e-08	8.6136	496.805	234.956	215.499	186.560	307.839	356.227	184.375	193.076	280.528	302.073	188.415	194.146	198.211	201.856	195.802	198.712	-8191	255	
3807.867	1	1	0	0	0.14801	0.14238	0.08372	0.22068	0.27299	0.15585	0.17793	0.17987	0.23389	0.20311	0.30049	0.19524	0.093034	0.17745	0.017567	0.26099	0.17917	-1.425	-1.2021	-0.38125	-1.4458	-0.56042	-0.65	-1.4354	-0.24375	-1.0146	-1.2313	-0.13542	-1.3333	-0.62083	-0.62083	-1.5458	429.039	532.668	271.571	482.045	498.003	478.652	490.312	508.215	248.703	178.450	196.612	485.449	381.296	499.093	356.270	442.711	0.00017812	3.1255e-05	4.8925e-05	149.82	4.7578e-07	6.2217e-07	320.11	40.087	7.6966e-07	9.7397e-07	111.61	36.727	13.372	6.6588	1.3177e-06	10.431	4.794e-06	1.4831e-06	4.652e-07	127.66	1.6666e-08	1.8038e-08	276.72	34.827	2.9447e-08	1.7246e-08	92.936	30.91	11.108	5.6093	2.7032e-08	8.6976	504.786	184.953	225.422	186.591	342.096	351.317	184.495	193.015	311.371	330.406	188.835	195.214	198.025	201.792	283.627	200.164	-8191	255	
3807.964	1	1	0	0	0.082318	0.1804	0.29654	0.16263	0.34159	0.19957	0.16164	0.29675	0.19446	0.11228	0.062607	0.20004	0.20093	0.22507	0.1959	0.16446	-0.11458	-0.69375	-1.225	-0.27083	-1.2042	-0.62708	-0.67083	-1.4604	-0.4375	-1.05	-1.4083	-0.28542	-1.2667	-0.68333	-0.38542	-1.2938	238.792	240.326	226.277	396.650	382.138	305.075	418.803	304.507	205.326	184.709	384.244	437.944	531.600	524.653	488.943	505.970	0.00016663	4.7665e-05	2.135e-05	148.54	2.5841e-07	6.1347e-07	318.46	40.648	6.0185e-07	1.169e-06	109.41	36.666	13.188	6.705	8.2972e-07	10.486	4.4145e-06	1.5137e-06	4.5397e-07	126.53	1.8799e-08	1.8145e-08	275.54	34.63	2.5595e-08	2.2345e-08	92.183	30.832	11.022	5.5887	2.5877e-08	8.7388	494.225	202.167	232.149	187.625	351.927	317.200	185.143	193.885	317.722	301.894	188.689	194.967	199.112	201.561	246.341	198.556	-8191	255	
3808.084	1	1	0	0	0.029593	0.0074571	0.12643	0.25992	0.20818	0.17783	0.12836	0.062933	0.20172	0.23669	0.16974	0.24763	0.13579	0.25488	0.21631	0.23002	-0.17917	-0.8875	-1.3917	-0.27292	-1.1583	-0.83542	-0.66667	-1.375	-0.68125	-1.0917	-1.3896	-0.49792	-1.1375	-0.83958	-0.41667	-1.3729	391.336	399.101	248.964	274.073	431.119	381.156	308.059	390.079	269.497	484.013	451.738	524.992	304.168	200.044	257.023	281.630	0.00018972	8.0556e-05	2.9219e-05	145.66	3.1203e-07	1.3438e-07	325.93	39.928	8.7302e-07	1.5279e-06	109.96	37.276	13.065	6.7095	1.2511e-07	10.375	4.7406e-06	2.2955e-06	4.009e-07	126.04	1.7093e-08	1.3669e-08	276.47	34.538	2.3189e-08	2.2284e-08	92.089	31.104	11.016	5.6347	2.4798e-08	8.7128	501.106	260.221	256.450	187.628	300.018	332.396	184.719	192.951	305.954	307.079	188.628	194.020	197.350	202.000	347.400	199.109	-8191	255	
3808.156	1	1	0	0	0.10843	0.29473	0.18658	0.25115	0.066727	0.070421	0.27274	0.21372	0.17186	0.35625	0.17353	0.10008	0.18644	0.27306	0.061553	0.081569	-0.05	-0.85417	-1.1542	-0.2875	-1.1	-0.72708	-0.33958	-1.2958	-0.56875	-0.575	-1.3771	-0.44792	-1.1812	-0.90417	-0.2875	-1.3438	479.278	441.221	182.503	208.113	375.993	295.979	459.038	309.111	251.798	388.050	442.726	458.552	284.336	438.259	532.984	292.208	0.00023871	0.0001165	1.5669e-05	146.18	5.3961e-07	8.2465e-07	317.79	39.906	8.0359e-07	9.8298e-07	109.25	36.202	13.372	6.6107	6.7145e-07	10.288	5.1667e-06	1.9004e-06	3.7108e-07	126.42	1.7961e-08	1.749e-08	276.04	34.741	2.4864e-08	2.0107e-08	91.619	30.534	11.037	5.5972	2.4889e-08	8.6454	506.270	238.083	258.648	186.678	324.611	342.794	184.395	193.039	270.769	306.196	188.635	193.582	198.320	201.865	271.455	199.308	-8191	255	
3808.252	1	1	0	0	0.2983	0.25585	0.20125	0.047494	0.23996	0.18081	0.097543	0.10048	0.11332	0.1332	0.032349	0.11208	0.29449	0.21307	0.16872	0.19915	-0.28958	-0.58125	-1.4167	-0.26667	-1.2771	-1.0729	-0.58125	-1.5333	-0.38125	-0.70625	-1.3438	-0.23125	-1.2208	-1.225	-0.095833	-1.3917	224.562	521.938	530.604	396.064	320.457	200.342	458.699	244.011	465.116	177.565	416.923	287.604	429.635	208.605	260.160	404.278	0.00018954	0.00010341	2.6597e-05	148.83	7.4864e-07	7.9648e-07	318.69	40.152	6.0084e-07	1.1438e-06	109.91	36.653	12.859	6.5579	8.5851e-07	10.542	4.9379e-06	1.9825e-06	3.703e-07	126.45	1.9743e-08	1.5039e-08	273.37	34.702	2.1895e-08	2.0534e-08	91.562	30.678	10.893	5.5803	2.9949e-08	8.6685	492.419	236.893	241.061	186.945	299.299	344.562	184.731	193.612	236.869	281.315	188.954	193.879	198.207	202.248	248.260	199.256	-8191	255	
3808.373	1	1	0	0	0.21908	0.31338	0.17201	0.14299	0.10174	0.26027	0.18392	0.06166	0.063054	0.12738	0.13839	0.13381	0.23895	0.19096	0.34379	0.15341	-0.2625	-0.66875	-1.4146	-0.30625	-1.0833	-1.2292	-0.30625	-1.2083	-0.6875	-0.68542	-1.4104	-0.30417	-0.83958	-1.1229	-0.41458	-1.2938	501.254	212.926	341.761	492.281	445.588	497.817	434.035	442.873	223.445	496.009	407.546	393.735	437.866	428.073	334.152	376.182	0.00021998	9.4435e-05	3.1907e-05	148.2	7.7068e-07	4.3285e-07	320.07	40.008	8.2391e-07	1.0405e-06	109.45	37.248	13.157	6.676	1.0089e-06	10.433	4.8063e-06	2.251e-06	4.0903e-07	127.1	1.9606e-08	1.8708e-08	273.84	34.83	2.3813e-08	2.1158e-08	92.209	31.012	11.12	5.6243	2.4753e-08	8.7825	500.747	227.081	249.890	186.607	325.381	285.919	183.961	193.641	300.869	273.041	189.074	194.098	198.166	201.921	276.701	197.974	-8191	255	
3808.469	1	1	0	0	0.055059	0.30388	0.17438	0.26353	0.12118	0.050847	0.060937	0.19694	0.42385	0.1797	0.11742	0.22055	0.43973	0.18424	0.1095	0.11319	-0.22917	-0.475	-1.45	-0.52292	-0.80417	-1.1333	-0.38958	-1.0708	-0.97708	-0.52708	-1.5792	-0.43333	-0.975	-1.2104	-0.34792	-1.2917	303.678	479.929	354.462	421.670	209.135	180.883	182.763	222.698	461.574	206.218	261.957	390.029	504.054	366.185	525.765	231.266	0.00018569	6.5941e-05	1.7497e-05	150.44	8.9711e-07	7.3665e-07	318.94	40.536	7.9817e-07	9.0766e-07	110.83	37.151	13.135	6.8126	7.6497e-07	10.834	4.5844e-06	2.0799e-06	3.5558e-07	127.4	1.9652e-08	1.9362e-08	274.91	34.914	2.3357e-08	2.2178e-08	92.765	31.214	11.146	5.7248	2.302e-08	8.9529	499.201	201.381	247.306	186.666	304.075	303.739	184.901	194.174	323.634	336.624	188.568	194.130	197.919	201.245	265.972	199.288	-8191	255	
3808.565	1	1	0	0	0.26002	0.042418	0.32089	0.28664	0.33991	0.11696	0.14926	0.22216	0.22905	0.20887	0.14958	0.089024	0.21698	0.058694	0.21891	0.24459	-0.59792	-0.37292	-1.2833	-0.45417	-0.87917	-1.4062	-0.23542	-1.325	-0.98542	-0.20208	-1.4771	-0.46875	-0.6875	-1.2854	-0.47292	-1.2458	350.889	344.190	478.599	508.202	281.102	436.176	381.793	180.608	310.389	406.858	409.192	209.002	525.958	204.258	414.403	472.933	0.00019673	9.3232e-05	2.8191e-05	147.08	5.4439e-07	1.3673e-06	323.41	41.24	1.0081e-06	8.0643e-07	112.49	37.48	13.472	6.7827	8.0343e-07	10.62	4.509e-06	2.4138e-06	3.3583e-07	127.56	2.212e-08	1.542e-08	278.03	35.581	2.2839e-08	2.1888e-08	94.302	31.628	11.327	5.736	2.492e-08	8.8991	500.647	230.181	255.404	186.799	307.672	341.672	184.271	193.902	315.576	322.882	188.523	193.683	198.771	201.459	257.717	197.657	-8191	255	
3808.661	1	1	0	0	0.19697	0.18836	0.10789	0.37907	0.17824	0.21953	0.23729	0.24777	0.19316	0.30903	0.10178	0.14785	0.18163	0.14265	0.10787	0.21173	-0.53333	-0.31042	-1.325	-0.60208	-0.64583	-1.3417	-0.4625	-1.0167	-0.91667	-0.3875	-1.3813	-0.55208	-0.775	-1.425	-0.55	-1.1708	463.688	306.107	319.443	246.397	398.859	306.035	531.567	409.740	436.751	451.113	349.253	395.361	357.918	418.294	256.473	186.911	0.0001975	4.9069e-05	2.4239e-05	152.07	1.0408e-06	7.8297e-07	322.04	42.324	1.2308e-06	9.6503e-07	112.68	37.346	13.783	6.9744	4.9541e-07	10.826	4.5145e-06	2.0785e-06	3.366e-07	129.94	2.5974e-08	1.6638e-08	279.23	36.088	2.2047e-08	2.2802e-08	94.55	31.674	11.519	5.8261	2.3203e-08	9.0101	496.184	246.624	228.922	186.260	298.742	303.551	183.580	193.080	305.037	263.973	188.478	193.968	197.834	201.956	289.329	199.269	-8191	255	
3808.757	1	1	0	0	0.09617	0.21974	0.30507	0.24116	0.21623	0.098978	0.042354	0.23209	0.15918	0.16019	0.1365	0.024415	0.20796	0.14998	0.10926	0.069516	-0.725	-0.34167	-1.2313	-0.60833	-0.725	-1.2479	-0.42292	-1.0208	-1.2	-0.28125	-1.225	-0.70625	-0.69583	-1.2667	-0.29167	-0.94167	374.521	394.716	384.718	410.646	301.667	497.146	512.329	231.935	503.650	437.757	391.491	291.243	250.853	281.972	298.230	344.214	0.00020977	7.9832e-05	3.016e-05	149.85	5.7611e-08	5.4938e-07	324.76	41.544	3.5973e-07	6.5498e-07	113.29	37.692	13.497	6.7295	6.314e-07	10.639	4.8461e-06	2.3568e-06	3.5791e-07	130.2	2.2333e-08	1.5618e-08	278.34	36.08	2.057e-08	2.1447e-08	94.464	31.74	11.455	5.6867	2.7594e-08	8.8966	501.099	236.540	253.312	186.456	292.286	287.596	184.309	193.602	204.730	279.079	188.558	193.676	198.458	201.652	310.282	199.022	-8191	255	
3808.853	1	1	0	0	0.22017	0.19877	0.1136	0.089949	0.055518	0.11938	0.24188	0.25436	0.19609	0.094069	0.09727	0.11089	0.088051	0.16874	0.12326	0.13796	-0.85625	-0.35208	-1.3729	-0.75	-0.48542	-1.3937	-0.66042	-1.0458	-1.1812	-0.097917	-1.4604	-0.67292	-0.35625	-1.5312	-0.38958	-1.1604	320.011	237.675	494.805	223.320	309.234	473.693	460.434	504.182	513.617	385.349	495.883	209.378	483.198	479.272	255.309	492.330	0.00021964	0.00012729	3.442e-05	148.5	7.2832e-07	6.765e-07	322.91	41.73	8.7346e-07	2.2334e-07	114	37.567	13.65	6.843	9.7812e-07	10.789	4.6638e-06	2.251e-06	3.521e-07	128.5	2.2089e-08	1.8206e-08	277.48	35.835	2.5808e-08	2.3517e-08	94.737	31.664	11.508	5.7292	2.6105e-08	9.0053	501.189	263.351	273.901	186.288	330.614	299.562	184.445	193.367	312.506	282.801	189.308	193.967	198.808	201.919	308.151	200.098	-8191	255	
3808.972	1	1	0	0	0.18067	0.12659	0.12798	0.20361	0.18477	0.16133	0.1487	0.21165	0.17918	0.13756	0.20347	0.18354	0.14096	0.16218	0.24018	0.091174	-0.8125	-0.027083	-1.4125	-0.73333	-0.44583	-1.6958	-0.475	-0.89792	-1.4438	-0.24167	-1.325	-0.99375	-0.16458	-1.5917	-0.46458	-0.77708	436.097	470.009	490.760	479.463	206.686	433.318	533.157	475.903	315.204	393.348	272.087	480.205	455.912	330.766	458.571	406.310	0.00018973	7.741e-05	2.8938e-05	148.97	6.2273e-07	5.3895e-07	321.55	42.058	1.2044e-06	1.307e-06	111.75	36.909	13.522	6.8209	6.4262e-07	10.62	4.4241e-06	2.7574e-06	5.0122e-07	127.72	2.6964e-08	1.3274e-08	275.27	36.019	2.0296e-08	2.3913e-08	93.559	31.337	11.461	5.7286	2.6637e-08	8.8661	501.484	210.981	241.932	187.082	336.168	317.274	183.908	194.017	333.878	351.488	188.754	193.304	197.907	201.701	291.852	200.128	-8191	255	
3809.068	1	1	0	0	0.33255	0.17348	0.023837	0.15665	0.10646	0.23475	0.22344	0.38242	0.20692	0.021404	0.089076	0.23204	0.20571	0.026599	0.17487	0.099459	-1.2854	-0.4875	-1.3771	-1.0854	-0.39167	-1.5812	-0.59167	-0.49375	-1.5688	-0.097917	-1.4188	-1.1458	-0.26042	-1.6292	-0.85833	-0.73958	428.717	186.577	387.005	516.258	181.917	236.881	482.929	489.243	370.506	494.817	188.150	504.361	306.292	302.808	248.779	502.758	0.00019947	0.00012332	2.5796e-05	150.5	4.6481e-07	1.2569e-06	316.57	41.757	4.464e-07	1.2435e-06	110.33	37.294	13.406	6.6802	8.1038e-07	10.56	4.2912e-06	2.4333e-06	4.0322e-07	128.22	2.5014e-08	1.3608e-08	274.35	35.466	1.8393e-08	2.3974e-08	92.447	31.161	11.335	5.693	2.4373e-08	8.8311	504.678	238.810	229.670	186.015	334.896	297.501	184.048	193.810	321.713	316.012	188.761	194.092	198.600	203.082	245.915	198.595	-8191	255	
3809.165	1	1	0	0	0.062071	0.23979	0.17957	0.13564	0.1391	0.13027	0.27796	0.073121	0.23681	0.10206	0.12546	0.0423	0.11535	0.31594	0.1221	0.22518	-1.0458	-0.30208	-1.1708	-0.97917	-0.15	-1.4479	-0.825	-0.34375	-1.4062	-0.37083	-1.0896	-1.2229	-0.20208	-1.2333	-0.61875	-0.63333	373.451	229.537	490.147	398.818	426.822	457.890	460.417	476.692	179.388	232.034	534.861	403.925	177.303	492.510	500.695	503.062	0.00022898	7.5745e-05	3.0993e-05	146.81	5.3924e-07	8.7129e-07	316.32	41.104	6.6453e-07	8.0736e-07	109.81	37.457	13.486	6.8291	8.9241e-07	10.802	4.4008e-06	2.1801e-06	4.4893e-07	126.56	2.6111e-08	1.5557e-08	273.6	35.599	2.156e-08	2.3076e-08	92.725	31.409	11.384	5.7339	2.0893e-08	8.9507	504.110	233.762	252.750	187.677	291.970	319.841	184.839	193.981	279.948	318.712	189.242	194.451	199.059	202.072	259.866	199.865	-8191	255	
3809.261	1	1	0	0	0.021487	0.2586	0.24131	0.1896	0.29212	0.17449	0.29707	0.087634	0.05691	0.26026	0.27088	0.02469	0.14871	0.18261	0.27743	0.14273	-0.81875	-0.43125	-0.95833	-1.0271	-0.33333	-1.1167	-0.9	-0.84375	-1.4375	-0.4375	-1.0312	-1.1958	-0.13333	-1.3937	-0.82292	-0.51667	368.754	406.749	431.389	441.441	387.444	338.537	519.034	520.816	476.621	461.758	195.320	458.405	416.860	431.986	324.656	492.217	0.00022279	0.0001203	2.9778e-05	149.44	3.5173e-07	8.1246e-07	318.48	41.697	3.852e-07	8.6992e-07	110.77	37.65	13.512	6.7611	8.9445e-07	10.807	4.5734e-06	2.4528e-06	4.4157e-07	127.58	2.5212e-08	1.4689e-08	274.16	35.601	2.0433e-08	2.1477e-08	93.539	31.533	11.426	5.738	2.4509e-08	8.9464	500.854	226.040	229.942	188.066	329.772	345.231	185.325	194.844	530.329	312.943	189.567	194.776	198.932	202.418	285.766	199.532	-8191	255	
3809.381	1	1	0	0	0.26005	0.045042	0.015566	0.12546	0.20785	0.25977	0.16865	0.06714	0.43219	0.04201	0.18886	0.16492	0.18213	0.1877	0.10272	0.20821	-0.96458	-0.26667	-0.9	-1.1667	-0.125	-1.4667	-0.775	-0.27708	-1.5854	-0.52083	-0.80417	-1.3479	-0.41042	-1.1708	-1.0688	-0.44375	310.274	387.663	518.629	517.565	332.693	249.417	295.923	394.036	471.300	477.470	528.521	337.675	207.232	459.778	418.016	494.459	0.00016084	3.2564e-05	1.4193e-05	149.4	1.0083e-06	7.4978e-07	321.23	41.376	5.8995e-07	5.7464e-07	111.49	37.408	13.383	6.8462	5.0411e-07	10.823	3.961e-06	2.3081e-06	5.3725e-07	128.11	2.439e-08	1.5861e-08	274.11	35.527	2.0372e-08	2.0686e-08	93.412	31.331	11.301	5.7668	2.1698e-08	8.9217	499.782	233.662	202.975	187.367	317.871	322.926	184.638	194.711	308.549	281.216	189.165	195.142	198.433	202.549	241.582	199.676	-8191	255	
3809.453	1	1	0	0	0.14103	0.19592	0.14593	0.08495	0.1503	0.22719	0.051065	0.075932	0.15977	0.07509	0.25749	0.14184	0.19246	0.26822	0.14472	0.291	-1.1896	-0.59167	-0.92083	-1.2958	-0.5375	-1.1833	-0.89375	-0.84792	-1.4792	-0.55625	-0.82917	-1.2917	-0.53542	-1.0667	-1.0938	-0.50417	501.437	466.516	314.402	497.534	358.165	514.199	513.949	274.341	198.115	445.938	364.034	380.072	201.073	263.008	344.707	313.652	0.00018601	8.2013e-05	4.4818e-05	149.07	7.8995e-07	5.2974e-07	321.9	41.315	1.0289e-06	8.5478e-07	110.74	37.482	13.678	6.817	9.2313e-07	10.679	3.998e-06	2.322e-06	4.1911e-07	127.43	2.3963e-08	1.6135e-08	274.62	35.599	2.1788e-08	2.0138e-08	93.465	31.377	11.484	5.7602	2.0589e-08	8.9368	499.805	249.861	223.751	187.725	312.758	306.844	184.691	194.718	286.008	315.872	189.659	194.507	198.482	203.001	297.138	199.436	-8191	255	
3809.549	1	1	0	0	0.219	0.088455	0.28334	0.18511	0.15123	0.29572	0.18018	0.11595	0.14722	0.29577	0.1457	0.17535	0.18354	0.17873	0.034523	0.21347	-1.0229	-0.61875	-0.83542	-1.3	-0.51667	-1.1063	-1.2146	-0.21875	-1.3646	-0.62292	-0.6375	-1.2854	-0.29375	-1.2854	-0.97708	-0.42083	235.947	390.858	297.513	211.324	429.763	383.268	386.404	220.676	244.892	465.815	240.841	187.879	233.638	371.436	190.087	234.602	0.00021114	8.7839e-05	4.1039e-05	148.55	6.4154e-07	9.8046e-07	316.8	41.863	4.7949e-07	1.0577e-06	111.98	37.708	13.519	6.8227	6.1453e-07	10.705	4.5364e-06	2.1119e-06	6.1123e-07	128.16	2.637e-08	1.7642e-08	273.5	35.757	2.1012e-08	1.9955e-08	94.194	31.508	11.42	5.8057	2.4661e-08	8.93	501.971	235.151	252.469	188.188	289.724	309.462	184.508	193.423	282.973	308.313	189.653	194.231	197.484	202.133	257.230	199.690	-8191	255	
3809.645	1	1	0	0	0.14468	0.22101	0.18004	0.16961	0.28608	0.27121	0.2509	0.28813	0.25494	0.17115	0.20485	0.32158	0.18308	0.26807	0.16793	0.062161	-1.025	-0.78125	-0.62083	-1.3396	-0.25208	-1.1917	-1.2396	-0.1375	-1.4229	-0.57083	-0.69583	-1.4729	-0.34792	-1.0708	-1.1292	-0.33958	281.469	290.873	423.783	260.553	371.271	313.157	480.597	429.589	309.541	513.741	339.711	532.424	180.993	301.984	245.418	416.781	0.00021999	0.00012948	4.3229e-05	149.32	4.6511e-07	1.0386e-06	317.84	41.927	8.0233e-07	5.152e-07	111.07	38.172	13.358	6.9389	6.004e-07	10.751	4.5227e-06	2.0966e-06	5.6668e-07	127.92	2.4862e-08	1.8601e-08	274.75	35.999	1.8286e-08	1.9042e-08	93.983	31.78	11.388	5.7988	1.8918e-08	8.9909	504.030	212.595	244.508	187.228	321.756	340.094	184.546	194.411	311.058	264.015	189.357	193.438	199.228	203.014	305.543	200.237	-8191	255	
3809.764	1	1	0	0	0.30492	0.2239	0.16969	0.11579	0.33464	0.19543	0.12308	0.18219	0.10863	0.10403	0.19263	0.063386	0.11942	0.24877	0.34408	0.15206	-0.92083	-0.75	-0.53542	-1.4104	-0.45833	-1.2542	-1.4396	-0.15417	-1.3958	-0.59792	-0.3875	-1.3167	-0.16042	-0.90833	-1.6104	-0.070833	364.961	465.652	485.192	359.625	500.266	295.240	419.220	204.002	441.755	413.205	200.004	398.302	434.680	509.347	266.693	185.941	0.0002106	6.468e-05	1.7964e-05	149.09	3.732e-07	7.4354e-07	318.21	41.334	3.6932e-07	6.0159e-07	111.24	37.265	13.566	6.9817	9.4671e-07	10.538	4.72e-06	2.2441e-06	5.1323e-07	128.14	2.2592e-08	1.9043e-08	275.97	35.741	1.6581e-08	1.924e-08	94.016	31.624	11.394	5.8219	2.0847e-08	8.9065	498.991	207.200	253.439	186.496	231.955	313.817	183.784	193.074	246.564	279.086	188.343	193.968	197.667	201.926	311.874	198.852	-8191	255	
3809.860	1	1	0	0	0.11771	0.34792	0.10726	0.32043	0.18983	0.14173	0.16164	0.18898	0.20425	0.2198	0.28351	0.39199	0.050215	0.25608	0.32593	0.17014	-0.95625	-0.91667	-0.32708	-1.5646	-0.44167	-0.84792	-1.3729	-0.26458	-1.3333	-1.0646	-0.53958	-1.5521	-0.46458	-0.76458	-1.2271	-0.1875	512.641	465.560	246.905	219.483	456.613	365.576	189.169	180.797	270.129	486.433	487.685	345.285	351.893	513.246	340.543	417.131	0.00021572	7.0799e-05	1.4186e-05	149.73	4.7871e-07	5.8551e-07	323.21	42.355	9.1145e-07	9.3154e-07	111.06	37.658	13.625	6.8716	8.5727e-07	10.673	4.3227e-06	1.8184e-06	5.1594e-07	128.82	2.6081e-08	1.8982e-08	277.27	36.165	2.1103e-08	1.9316e-08	93.459	31.657	11.446	5.8235	1.5924e-08	8.9136	495.062	252.130	288.961	186.250	317.088	331.745	184.289	193.248	277.466	296.979	188.442	194.090	197.533	202.179	281.779	199.599	-8191	255	
3809.957	1	1	0	0	0.17542	0.18879	0.11505	0.081544	0.19091	0.19749	0.19167	0.023325	0.1647	0.030283	0.063654	0.12325	0.12295	0.25661	0.059793	0.26763	-0.85625	-0.90417	-0.43333	-1.425	-0.72292	-0.65208	-1.6333	-0.22917	-1.1375	-0.99167	-0.3625	-1.4604	-0.56042	-0.83958	-1.5208	-0.13542	386.594	197.088	355.834	357.110	462.769	433.173	417.380	202.564	372.183	531.454	301.732	318.059	480.606	289.962	400.962	244.719	0.00024981	7.7585e-05	2.9674e-05	151.99	2.1762e-07	4.5025e-07	324.34	41.248	7.8395e-07	8.8836e-07	113.08	37.504	13.536	6.9384	5.9182e-07	10.759	5.0584e-06	2.059e-06	6.0309e-07	129.52	2.2303e-08	1.9378e-08	277.86	35.781	2.0433e-08	1.7261e-08	93.567	31.499	11.353	5.8212	1.5089e-08	8.9883	499.926	229.518	256.828	187.694	313.203	307.259	184.446	194.004	265.646	288.580	188.331	194.848	197.598	202.503	270.203	198.669	-8191	255	
3810.053	1	1	0	0	0.17052	0.12525	0.084777	0.23269	0.13952	0.065681	0.44148	0.11631	0.09872	0.14557	0.12052	0.19535	0.06408	0.176	0.12159	0.15504	-0.90208	-1.15	0.05	-1.5438	-0.52083	-0.67083	-1.6333	-0.09375	-1.0708	-1.35	0.05	-1.7896	-0.55208	-0.52708	-1.5958	-0.31875	215.330	467.124	199.491	213.868	414.479	285.653	417.457	404.755	246.126	502.810	441.651	349.117	525.589	421.937	506.520	484.574	0.00020003	8.5282e-05	4.9997e-05	150.62	4.9977e-07	2.7535e-07	321.18	41.986	9.6301e-07	1.0082e-06	113.04	37.603	13.588	6.8829	9.781e-07	10.695	4.5474e-06	1.7001e-06	6.6236e-07	130.06	2.5837e-08	1.9347e-08	277.4	36.075	2.3174e-08	1.4171e-08	94.485	31.676	11.466	5.8348	1.9586e-08	9.0131	503.213	203.936	251.403	187.835	308.563	351.193	184.600	194.477	270.603	279.063	188.943	193.414	198.368	201.829	266.088	198.949	-8191	255	
3810.149	1	1	0	0	0.12862	0.18092	0.10813	0.18136	0.27699	0.15987	0.044138	0.15363	0.16009	0.10005	0.2745	0.16824	0.27441	0.053451	0.21022	0.24459	-0.62708	-1.0083	-0.17083	-1.3604	-0.61667	-0.28333	-1.7083	-0.26875	-0.8375	-1.1083	-0.34375	-1.2792	-0.94792	-0.34583	-1.4542	-0.25	469.753	390.951	485.044	366.406	301.777	239.542	260.527	234.096	410.481	182.333	194.922	281.737	181.098	479.809	336.480	417.894	0.00020772	4.9822e-05	2.8531e-05	150.6	3.5545e-07	3.1251e-07	321.05	41.999	1.2135e-06	6.8455e-07	113.34	38.077	13.646	6.9997	8.8625e-07	10.879	4.7502e-06	1.6152e-06	6.3292e-07	129.57	2.0673e-08	1.8799e-08	278.05	36.274	2.3006e-08	1.6744e-08	94.899	31.95	11.521	5.8823	1.7018e-08	9.0304	491.833	236.060	224.617	187.486	274.715	356.078	184.469	193.449	294.597	302.221	188.642	194.143	197.813	202.032	272.290	199.214	-8191	255	
3810.245	1	1	0	0	0.23332	0.16041	0.099671	0.076115	0.2627	0.03926	0.15342	0.12329	0.32915	0.082451	0.041036	0.13382	0.052266	0.10096	0.24217	0.099551	-0.45417	-1.2583	-0.15417	-1.4458	-0.96042	-0.39167	-1.6437	-0.36458	-0.96042	-1.3458	-0.18125	-1.3375	-0.90625	-0.50625	-1.4667	-0.18958	399.383	213.444	406.301	342.293	202.623	512.184	213.305	279.831	359.032	396.293	183.202	332.793	310.730	208.245	334.276	418.985	0.00019986	0.00014007	2.54e-05	151.52	6.4544e-07	1.0988e-06	325	42.409	1.0889e-06	5.5778e-07	112.61	36.942	13.709	6.8847	8.3723e-07	10.75	4.398e-06	1.7822e-06	6.9335e-07	130.01	2.215e-08	2.2757e-08	278.6	36.307	2.462e-08	1.7002e-08	94.369	31.557	11.588	5.842	1.9951e-08	8.9908	500.322	209.583	208.804	186.452	285.371	325.510	184.146	193.454	314.546	277.218	187.892	193.516	196.563	201.742	316.467	198.053	-8191	255	
3810.341	1	1	0	0	0.10771	0.26907	0.17244	0.2652	0.11649	0.11608	0.19217	0.20246	0.16981	0.19331	0.34824	0.29426	0.082313	0.15111	0.22097	0.30211	-0.33333	-1.2792	-0.26458	-1.2917	-1.0458	-0.27083	-1.6292	-0.34583	-0.73958	-1.4292	-0.060417	-1.3813	-1.1917	-0.21875	-1.5438	-0.5375	362.131	505.759	389.146	217.131	298.207	435.792	208.532	388.700	246.295	273.779	437.620	470.954	426.007	483.353	395.313	438.093	0.00021005	0.00011227	3.5885e-05	148.44	5.6344e-07	5.3634e-07	321.55	42.146	9.9778e-08	8.1154e-07	111.93	37.931	13.588	6.9933	5.9018e-07	10.535	4.9338e-06	1.5025e-06	5.7714e-07	128.7	2.1191e-08	2.5086e-08	278.39	36.239	2.8442e-08	1.5495e-08	94.319	31.732	11.472	5.8828	1.9875e-08	8.9488	503.616	242.730	222.127	185.792	276.180	360.330	184.173	192.995	341.602	324.064	188.209	194.073	197.799	201.370	265.489	198.834	-8191	255	
3810.462	1	1	0	0	0.14538	0.28868	0.13199	0.29489	0.051216	0.049543	0.12058	0.039846	0.19788	0.032016	0.22187	0.182	0.17364	0.096861	0.35432	0.20825	-0.38125	-1.4708	-0.25208	-1.2333	-1.0417	-0.2375	-1.4896	-0.71042	-0.53125	-1.2854	-0.34792	-1.0625	-1.0438	-0.44167	-1.2771	-0.66042	369.523	406.353	519.595	369.573	194.817	196.382	269.396	308.478	514.872	226.618	529.406	501.145	368.101	500.012	408.131	509.749	0.00023938	6.9167e-05	3.3144e-05	154.23	5.1404e-07	6.1716e-07	321.42	42.465	8.182e-07	1.2224e-06	113.46	37.8	13.637	7.0119	1.1222e-06	10.581	4.7036e-06	1.8239e-06	5.5894e-07	130.44	2.3064e-08	2.0032e-08	277.08	36.474	2.8335e-08	1.3684e-08	94.533	31.838	11.591	5.8957	1.8994e-08	8.9608	500.467	225.282	247.460	186.864	299.264	323.244	184.511	194.138	302.258	335.394	188.366	194.056	199.003	202.004	275.099	199.047	-8191	255	
3810.558	1	1	0	0	0.14942	0.12786	0.17714	0.37946	0.22452	0.11998	0.091902	0.16797	0.026175	0.20792	0.54541	0.26644	0.039582	0.22195	0.041551	0.16681	-0.20833	-1.3646	-0.33542	-0.88333	-1.1771	-0.4875	-1.3792	-0.97708	-0.66875	-1.4708	-0.57292	-1.1812	-1.1354	-0.43125	-1.3542	-0.475	370.578	234.800	308.701	450.893	306.403	368.669	209.574	270.431	525.487	423.020	490.133	179.764	175.565	433.168	213.660	227.701	0.00020338	0.00010161	1.3559e-05	149.31	9.8134e-07	5.163e-07	322.3	42.156	6.4851e-07	9.1496e-07	114.92	38.058	14.023	6.8887	9.4589e-07	10.932	5.0077e-06	1.7293e-06	5.2834e-07	128.38	1.9698e-08	2.3746e-08	277.83	36.563	2.7163e-08	1.6272e-08	95.995	32.09	11.648	5.8467	2.0088e-08	9.0242	504.780	248.463	218.000	186.285	310.133	357.563	184.496	193.225	345.965	319.028	188.679	193.802	198.032	202.306	285.474	198.236	-8191	255	
3810.654	1	1	0	0	0.10329	0.09722	0.18244	0.11193	0.1748	0.17373	0.13991	0.21589	0.18856	0.12105	0.24116	0.22273	0.16391	0.068696	0.15178	0.18597	-0.16042	-1.2667	-0.48333	-0.80208	-0.93125	-0.35	-1.2021	-0.86667	-0.44792	-1.3458	-0.16667	-1.1167	-1.2396	-0.2625	-1.1042	-0.91667	427.235	236.190	200.827	478.104	396.541	235.213	533.546	501.279	513.613	348.274	407.014	195.945	360.215	443.896	389.806	464.408	0.00022465	9.2139e-05	2.3608e-05	151.77	8.3197e-07	1.2662e-06	323.64	42.211	5.5997e-07	5.2937e-07	114.08	38.003	13.781	6.9168	8.3191e-07	10.759	5.205e-06	1.4803e-06	5.4034e-07	131.07	1.723e-08	2.3716e-08	279.77	36.54	2.2945e-08	1.5769e-08	95.361	31.951	11.624	5.8701	2.2625e-08	8.9693	497.966	231.131	226.993	186.847	295.476	339.607	184.554	193.478	302.987	296.772	187.976	194.151	197.301	202.386	266.213	198.781	-8191	255	
3810.750	1	1	0	0	0.096554	0.18712	0.12588	0.15194	0.017615	0.22099	0.25043	0.24946	0.25425	0.22173	0.42205	0.065768	0.14795	0.16286	0.094882	0.37336	-0.13125	-1.3937	-0.38958	-0.82292	-0.96875	-0.27708	-1.2792	-0.8375	-0.43333	-1.5521	-0.36667	-0.73125	-1.2812	-0.077083	-1.2437	-1.2271	260.316	487.076	369.738	267.036	452.733	326.451	449.303	239.988	396.544	234.718	229.011	363.485	475.792	447.214	309.190	291.474	0.00023394	0.00012305	2.5163e-05	152.26	9.846e-07	2.1357e-07	322.02	41.65	1.106e-06	1.2304e-06	113.78	38.376	13.452	7.0146	2.0766e-07	10.704	5.5777e-06	1.7891e-06	5.5506e-07	131.07	1.8814e-08	2.2544e-08	278.42	36.277	2.7544e-08	1.6865e-08	95.436	32.115	11.548	5.864	1.7322e-08	8.9334	502.007	224.857	242.925	186.772	320.290	437.471	184.346	193.871	292.258	291.324	188.801	193.789	197.842	201.450	261.261	198.895	-8191	255	
3810.845	1	1	0	0	0.17528	0.134	0.059061	0.14227	0.31089	0.051329	0.1755	0.41504	0.20025	0.32342	0.1816	0.12312	0.05443	0.23312	0.080696	0.13775	-0.11875	-1.4958	-0.525	-0.70417	-1.4292	-0.3125	-1.225	-1.0646	-0.46458	-1.4833	-0.725	-0.73958	-1.2646	-0.59167	-1.2729	-1.0312	362.288	452.124	337.548	290.310	532.766	326.499	418.641	472.000	429.679	523.461	522.608	510.392	238.174	190.628	384.588	464.291	0.00022584	6.3896e-05	3.4337e-05	150.83	9.5892e-08	2.7757e-07	326.25	42.94	1.0415e-06	8.1523e-07	114.61	38.52	13.8	6.8494	7.9963e-07	10.834	5.2324e-06	1.1965e-06	5.6707e-07	130.82	1.6651e-08	2.2498e-08	279.56	36.71	2.8472e-08	1.4369e-08	95.841	32.182	11.646	5.8449	1.9799e-08	9.0656	502.982	240.781	249.615	187.415	358.374	324.271	184.113	193.018	303.207	334.066	188.293	194.576	197.889	201.232	273.906	198.110	-8191	255	
3810.941	1	1	0	0	0.16726	0.12807	0.18882	0.1353	0.26319	0.15433	0.25509	0.25132	0.31832	0.16485	0.094571	0.18273	0.11912	0.12781	0.14526	0.12031	-0.21042	-1.1458	-0.525	-0.69167	-1.3958	-0.22708	-1.15	-1.2125	-0.30208	-1.5167	-0.675	-0.79167	-1.2646	-0.45625	-1.0187	-1.2062	513.694	228.749	405.796	392.123	486.759	232.821	281.082	427.235	489.428	401.392	391.301	426.495	336.441	205.409	343.160	247.190	0.00020387	0.00012547	3.9375e-05	150.54	9.5011e-07	8.7938e-07	325.23	42.598	7.711e-07	7.4345e-07	115.47	38.718	14.055	7.0382	4.6191e-07	10.979	5.0173e-06	1.7112e-06	5.1555e-07	131.08	1.8068e-08	2.5543e-08	280.48	36.724	2.5534e-08	1.7946e-08	96.264	32.324	11.738	5.9196	2.1911e-08	9.0832	500.827	241.674	227.409	187.220	285.669	293.036	183.952	192.808	298.832	344.854	188.470	194.596	198.403	202.418	301.616	199.300	-8191	255	
3811.061	1	1	0	0	0.081949	0.16095	0.18066	0.25398	0.19188	0.28841	0.28977	0.2298	0.23891	0.12896	0.13522	0.17297	0.075567	0.26342	0.12595	0.095395	-0.047917	-1.2333	-0.82292	-0.56458	-1.3146	-0.35417	-1.1812	-1.0854	-0.27917	-1.2062	-0.77917	-0.20625	-1.6146	-0.37708	-1.0104	-1.2542	524.341	305.495	306.577	306.439	330.248	314.313	464.560	474.887	403.441	414.398	263.138	451.167	476.006	339.547	480.728	362.042	0.00021285	0.00011829	4.3134e-05	153.66	4.2671e-07	6.272e-07	323.78	43.196	9.0471e-07	2.0103e-07	114.58	37.989	13.945	6.8533	9.7128e-07	10.773	5.1393e-06	1.8517e-06	5.8102e-07	131.05	1.6727e-08	2.3061e-08	280.72	36.888	2.8427e-08	1.2542e-08	96.116	32.064	11.727	5.8295	1.9449e-08	8.8869	494.628	218.584	252.003	186.550	309.458	354.011	184.076	193.338	267.490	325.484	189.285	194.133	197.906	202.070	262.079	198.577	-8191	255	
3811.158	1	1	0	0	0.064978	0.21667	0.051774	0.087298	0.19758	0.22758	0.17478	0.11548	0.17474	0.071335	0.072145	0.26761	0.23755	0.11614	0.21213	0.097705	0.027083	-1.2771	-0.71458	-0.55833	-1.6104	-0.52292	-1.1479	-1.2458	-0.46875	-1.3	-0.875	-0.82708	-1.4979	-0.60625	-1.1042	-1.2896	277.400	222.583	215.216	221.280	351.816	409.207	216.480	254.990	383.375	519.912	505.055	347.038	352.634	461.138	475.244	469.550	0.00021603	0.00014218	3.5917e-05	154.12	9.6951e-07	7.0795e-07	328.11	42.715	8.298e-07	5.155e-07	114.33	38.308	13.844	6.9596	4.2154e-07	10.639	5.4654e-06	1.8114e-06	5.0238e-07	132.21	1.3345e-08	2.3822e-08	281.29	36.652	2.6645e-08	1.2923e-08	95.917	32.063	11.693	5.8331	2.0407e-08	8.8624	491.603	210.323	200.516	187.058	327.549	320.834	184.406	193.852	350.158	321.633	188.441	194.246	197.969	201.985	235.362	199.300	-8191	255	
3811.254	1	1	0	0	0.10884	0.26042	0.12693	0.27865	0.14355	0.082615	0.081544	0.26455	0.070126	0.038025	0.24689	0.21188	0.12711	0.10943	0.096487	0.14887	-0.0875	-1.2729	-0.60833	-0.38958	-1.5521	-0.49792	-0.82917	-1.3854	-0.30208	-1.3042	-0.88958	-0.23958	-1.5	-0.625	-0.77292	-1.4292	441.646	391.282	319.281	393.871	344.849	329.645	181.791	240.752	384.223	202.136	475.697	505.314	297.813	298.743	246.538	268.163	0.0002147	8.2275e-05	3.3634e-05	154.57	1.4011e-06	8.6693e-07	326.54	42.956	5.9233e-07	5.3445e-07	114.63	38.197	13.77	6.8414	5.7311e-07	10.791	5.4311e-06	1.6041e-06	4.896e-07	133.42	1.7656e-08	2.2666e-08	281.89	36.955	2.5473e-08	1.4932e-08	96.376	32.06	11.688	5.8175	2.609e-08	8.9322	498.743	221.859	260.752	188.678	325.192	323.588	185.298	194.220	304.680	254.225	188.818	193.479	197.745	201.405	239.564	198.582	-8191	255	
3811.325	1	1	0	0	0.13706	0.13115	0.093417	0.18243	0.049865	0.2004	0.19058	0.15078	0.1486	0.18565	0.13203	0.089263	0.15181	0.088587	0.2521	0.29496	0.26458	-1.2812	-1.1958	-0.30625	-1.8458	-0.58333	-0.86875	-1.6521	-0.16667	-1.0958	-1.0938	-0.47917	-1.4521	-0.62083	-0.68542	-1.3937	380.823	234.614	459.495	400.946	458.624	495.359	408.913	303.744	467.792	300.375	271.982	386.695	477.701	520.221	507.648	517.644	0.00020999	6.3867e-05	2.6214e-05	153.83	7.9213e-07	4.4577e-07	329.46	43.743	9.2574e-07	6.63e-07	114.53	38.638	14.216	6.9078	4.1582e-07	10.691	5.3955e-06	1.6778e-06	4.59e-07	133.15	1.7976e-08	2.0474e-08	283.52	37.285	2.8549e-08	2.0549e-08	96.643	32.281	11.89	5.8436	2.5482e-08	8.92	499.650	222.393	229.421	186.298	328.677	287.746	184.171	193.525	294.084	312.692	187.824	194.051	197.323	200.942	303.530	198.663	-8191	255	
3811.446	1	1	0	0	0.18724	0.18141	0.093431	0.21276	0.18986	0.058135	0.37261	0.12921	0.058044	0.11409	0.087281	0.22395	0.1128	0.084402	0.12896	0.21474	-0.06875	-0.97083	-1.1562	-0.46458	-1.3708	-0.57083	-0.58542	-1.4188	-0.32708	-1.1208	-1.3188	-0.12708	-1.5208	-0.46667	-0.57292	-1.7667	385.713	344.581	352.694	382.704	204.316	503.608	415.536	275.358	249.595	250.448	291.217	411.820	342.232	395.067	348.247	199.914	0.00020364	9.8947e-05	4.3359e-05	153.82	1.2714e-06	6.817e-07	332.2	43.21	7.9097e-07	1.3869e-06	115.43	38.287	14.059	6.9067	9.8218e-07	10.519	5.2544e-06	1.8211e-06	4.5745e-07	133.28	1.8966e-08	2.5938e-08	287.16	37.2	2.6661e-08	1.7733e-08	96.873	32.16	11.805	5.8236	2.7001e-08	8.8211	495.630	532.401	250.041	186.364	317.422	328.415	184.164	193.061	306.855	325.883	188.054	194.120	197.525	201.647	294.902	198.346	-8191	255	
3811.542	1	1	0	0	0.13397	0.12436	0.10817	0.10987	0.24528	0.21035	0.28906	0.18686	0.084624	0.22145	0.29365	0.27184	0.11755	0.13671	0.13082	0.042037	0.19792	-1.0646	-1.2083	-0.19167	-1.525	-0.68333	-0.59167	-1.5292	-0.30625	-1.0479	-1.2667	-0.22708	-1.3396	-0.68958	-0.38333	-1.4167	385.563	427.646	416.940	360.351	249.818	341.041	405.236	451.848	416.898	289.747	406.549	389.950	202.964	325.424	217.046	386.354	0.00020282	0.00012463	8.5394e-06	156.08	5.9409e-07	1.0885e-06	331.42	43.691	6.7922e-07	9.8774e-07	115.56	37.866	13.846	6.9481	9.3529e-07	10.593	5.4818e-06	1.8684e-06	3.6449e-07	133.64	1.5478e-08	1.9773e-08	284.49	37.44	2.5914e-08	1.8509e-08	96.892	31.927	11.812	5.8561	2.7244e-08	8.836	506.641	227.779	229.797	186.244	290.450	287.459	183.919	193.674	277.596	301.533	188.478	193.893	198.648	201.003	275.993	198.335	-8191	255	
3811.638	1	1	0	0	0.1302	0.21566	0.13068	0.077529	0.21088	0.3259	0.11366	0.2703	0.31507	0.31462	0.14988	0.10811	0.10131	0.16171	0.15004	0.063378	-0.25417	-1.05	-1.2333	-0.36042	-1.4354	-0.89375	-0.59375	-1.3229	-0.73958	-0.93125	-1.3896	-0.45208	-1.3896	-1.0229	-0.51875	-1.4854	314.812	265.583	490.834	294.681	258.413	311.622	519.858	507.394	493.271	377.716	206.084	325.879	484.305	385.637	493.180	282.452	0.00020908	8.5039e-05	3.8694e-05	155.84	6.5035e-07	3.3476e-07	331.39	43.689	5.659e-07	5.9636e-07	115.43	38.645	13.92	6.8732	4.8774e-07	10.505	4.8255e-06	2.0674e-06	4.0477e-07	134.26	1.7291e-08	1.507e-08	285.28	37.489	2.9706e-08	1.6241e-08	97.21	32.323	11.852	5.8294	2.8384e-08	8.8941	499.130	228.040	216.498	186.686	287.551	303.576	184.097	193.552	312.796	335.878	188.807	193.599	197.741	200.994	259.797	198.953	-8191	255	
3811.734	1	1	0	0	0.11055	0.36246	0.38651	0.17167	0.088182	0.096394	0.045183	0.37261	0.099959	0.11948	0.22577	0.12161	0.10933	0.068707	0.16712	0.13561	-0.079167	-0.87708	-1.2563	-0.27083	-1.3354	-0.91667	-0.275	-1.4854	-0.48542	-0.82917	-1.5042	-0.36667	-1.4167	-0.93333	-0.28958	-1.5521	481.809	500.085	320.844	461.923	361.618	221.327	370.449	517.780	312.860	535.215	440.125	399.479	381.252	227.458	253.954	255.625	0.00020406	0.00012388	1.7236e-05	156.43	4.8262e-07	9.9531e-07	330.91	44.166	5.2146e-07	8.2056e-07	116.76	38.679	14.07	7.0359	5.133e-07	10.873	4.8707e-06	2.2496e-06	4.2414e-07	134.72	1.7275e-08	1.5846e-08	286.93	37.863	2.6234e-08	2.2071e-08	98.008	32.521	11.91	5.8963	2.7442e-08	9.0469	502.419	217.456	221.756	186.789	291.687	308.021	184.440	193.715	339.084	303.805	188.592	193.655	198.252	201.094	255.494	199.579	-8191	255	
3811.853	1	1	0	0	0.13866	0.11216	0.1751	0.10478	0.30987	0.19387	0.14663	0.2117	0.10025	0.21649	0.2161	0.3111	0.2313	0.095967	0.22351	0.062964	-0.29167	-0.95208	-1.3375	-0.22083	-1.2375	-1.1313	-0.20208	-1.8521	-0.63125	-0.71042	-1.5917	-0.2125	-1.4438	-1.2604	-0.11875	-1.5938	471.525	212.651	468.385	441.639	429.791	390.434	496.307	377.150	306.306	532.887	226.496	428.724	370.734	511.744	426.562	411.289	0.00022001	8.7919e-05	3.2245e-05	160.36	2.9975e-07	1.1521e-06	339.95	44.218	7.2344e-07	1.0862e-06	117.22	38.794	13.824	6.9267	9.8959e-07	10.66	4.9968e-06	2.0159e-06	3.8967e-07	136.45	1.9515e-08	1.8419e-08	292.45	37.866	2.8198e-08	2.1295e-08	98.544	32.454	11.837	5.8226	2.8886e-08	8.9177	501.981	204.609	229.537	186.738	340.019	316.813	184.362	193.650	275.780	303.144	189.210	194.257	197.988	202.015	255.111	199.249	-8191	255	
3811.927	1	1	0	0	0.15611	0.16716	0.11518	0.25979	0.23739	0.12995	0.24556	0.12635	0.063719	0.087471	0.15418	0.23769	0.3482	0.073624	0.18067	0.11156	-0.20833	-0.38333	-1.5938	-0.34375	-1.2021	-1.2417	-0.1875	-1.3354	-0.87292	-0.74583	-1.6479	-0.42708	-1.1458	-1.2271	-0.4125	-1.2313	329.554	319.480	420.605	322.650	270.531	390.916	290.311	327.794	198.777	529.902	251.433	266.788	433.065	410.039	440.689	483.211	0.00021095	7.1176e-05	3.2189e-05	158.88	5.17e-07	9.345e-07	338.78	44.45	1.1114e-06	6.6992e-07	118.66	38.84	14.107	6.7074	1.0194e-06	10.463	5.0995e-06	2.2538e-06	3.7572e-07	137.21	1.9987e-08	2.093e-08	291.09	37.787	2.631e-08	2.1614e-08	98.755	32.348	11.815	5.7411	2.5786e-08	8.7573	503.318	243.889	240.686	186.917	257.172	308.935	185.264	193.436	317.447	290.358	188.942	194.640	198.018	201.095	282.741	198.952	-8191	255	
3812.023	1	1	0	0	0.14302	0.37611	0.17039	0.21878	0.29978	0.1978	0.32865	0.079011	0.17611	0.24418	0.073988	0.23451	0.21394	0.18115	0.10574	0.16478	-0.43958	-0.74583	-1.4583	-0.36458	-0.96458	-1.1938	-0.44375	-1.2229	-0.78125	-0.72708	-1.4417	-0.49792	-0.72292	-1.3521	-0.225	-1.4021	310.134	280.575	214.910	456.856	306.931	469.326	216.072	366.109	468.461	530.835	385.254	210.702	233.915	434.305	175.605	408.873	0.00022629	6.5557e-05	3.0068e-05	159.67	5.7622e-07	8.6065e-07	341.34	44.379	7.4914e-07	1.3471e-06	117.39	39.271	14.101	6.8325	1.0194e-06	10.611	4.9338e-06	2.3359e-06	4.2143e-07	136.2	1.9484e-08	1.545e-08	294.5	37.92	2.3752e-08	2.3882e-08	98.856	32.537	11.801	5.7194	2.808e-08	8.9166	496.232	234.559	211.243	186.941	292.799	313.066	184.757	193.427	286.459	316.270	188.609	194.310	198.671	201.711	266.944	198.538	-8191	255	
3812.142	1	1	0	0	0.08046	0.17851	0.25652	0.18603	0.23599	0.17278	0.12966	0.11154	0.07802	0.23303	0.23946	0.057387	0.31516	0.31993	0.32372	0.2194	-0.58125	-0.34375	-1.6146	-0.32917	-0.75	-1.3625	-0.41875	-1.4167	-1.025	-0.4125	-1.4979	-0.46458	-0.88125	-1.1625	-0.095833	-1.3854	291.616	401.961	184.889	422.850	401.713	246.840	467.898	509.227	510.329	502.551	398.454	535.029	182.773	177.611	391.329	305.595	0.00020421	7.172e-05	4.8627e-05	162.61	6.0301e-07	9.7846e-07	340.45	44.413	9.999e-07	1.2813e-06	118.19	38.799	13.978	6.8643	1.0794e-06	10.9	4.668e-06	2.3248e-06	4.1175e-07	137.4	2.1449e-08	1.51e-08	295.07	38.029	2.29e-08	2.3608e-08	99.625	32.7	11.839	5.8095	2.7883e-08	9.0214	503.789	209.421	229.001	187.415	291.470	284.348	184.843	193.767	302.446	278.069	189.649	193.883	197.901	201.785	288.781	199.021	-8191	255	
3812.238	1	1	0	0	0.28284	0.1328	0.059284	0.085547	0.15649	0.23849	0.27964	0.20756	0.38939	0.083661	0.16701	0.33931	0.20182	0.19625	0.18863	0.11633	-0.80833	-0.15625	-1.7229	-0.5125	-0.8	-1.4833	-0.25	-1.2188	-1.0896	-0.38542	-1.4667	-0.8125	-0.78125	-1.3104	-0.40625	-1.1021	439.454	295.323	393.378	429.427	256.342	225.858	486.877	306.058	527.253	461.709	480.130	451.058	294.216	211.346	473.811	331.134	0.00020307	6.9081e-05	2.6475e-05	161.5	1.5533e-07	6.7937e-07	345.58	44.893	7.9314e-07	9.8561e-07	120.31	38.931	14.143	6.8166	2.2523e-07	10.726	4.8981e-06	2.3623e-06	3.3893e-07	138.42	2.1373e-08	1.1797e-08	295.8	38.561	2.2017e-08	2.4613e-08	100.12	32.745	11.851	5.7408	2.6697e-08	8.941	502.178	215.480	204.422	187.125	200.065	282.715	184.858	193.665	281.996	310.959	189.067	194.284	198.620	201.749	386.209	199.084	-8191	255	
3812.334	1	1	0	0	0.15804	0.14519	0.20704	0.22534	0.047642	0.20835	0.52613	0.25605	0.15864	0.13785	0.29011	0.2143	0.16932	0.05429	0.10843	0.27566	-0.76042	-0.38125	-1.3396	-0.49375	-0.72917	-1.4896	-0.19167	-1.1917	-1.1	-0.28333	-1.4813	-0.39167	-0.68333	-1.5063	-0.46458	-1.1646	299.421	508.757	210.121	404.601	444.247	354.160	444.124	442.864	237.928	504.062	510.975	511.992	518.750	358.885	340.418	233.455	0.00019962	6.1649e-05	2.6318e-05	162.09	4.8051e-07	5.8432e-07	343.68	44.353	6.8036e-07	7.6116e-07	118.74	38.349	14.148	6.7084	7.7041e-07	10.567	4.0706e-06	2.4347e-06	4.3964e-07	137.91	2.6705e-08	1.4202e-08	295.78	37.869	2.0037e-08	2.4841e-08	99.586	32.435	11.875	5.6645	2.9402e-08	8.8028	497.213	256.126	243.366	187.622	325.126	302.569	185.204	193.181	335.160	305.166	189.067	193.576	197.782	201.861	308.292	200.253	-8191	255	
3812.455	1	1	0	0	0.23532	0.15158	0.099582	0.068215	0.19595	0.078982	0.26701	0.095067	0.21002	0.012112	0.24956	0.26461	0.22145	0.10094	0.10458	0.33988	-0.81042	0.020833	-1.3958	-0.57917	-0.30625	-1.7104	-0.4	-0.95	-1.2083	-0.12917	-1.2188	-0.7125	-0.69792	-1.4958	-0.44583	-0.97917	200.663	404.607	193.876	207.995	197.089	409.230	484.908	247.664	394.720	319.623	181.733	301.064	476.327	450.249	190.697	336.239	0.00018609	0.0001103	4.8229e-05	160.95	7.7703e-07	1.7313e-07	343.48	44.089	4.7573e-07	5.9253e-07	120.16	39.1	14.367	6.8579	1.0026e-06	10.648	4.2227e-06	2.4221e-06	4.3615e-07	137.81	2.5441e-08	1.0153e-08	295.15	37.993	1.9702e-08	2.2878e-08	100.21	32.705	11.942	5.7025	2.7928e-08	8.8716	505.523	228.639	244.226	187.084	317.601	216.768	184.186	194.219	284.942	283.769	189.179	194.241	197.606	202.237	286.085	198.831	-8191	255	
3812.551	1	1	0	0	0.10768	0.21063	0.14167	0.14044	0.10481	0.13504	0.094137	0.10603	0.10211	0.2526	0.19216	0.1112	0.44012	0.1289	0.28877	0.18686	-0.84792	-0.19792	-1.425	-0.74792	-0.32292	-1.3771	-0.52917	-0.76875	-1.3	-0.27292	-1.2563	-0.77917	-0.33125	-1.5333	-0.325	-0.86458	295.266	503.656	270.135	371.332	419.487	328.506	207.354	393.941	528.284	232.120	184.736	433.093	530.334	358.485	278.340	376.157	0.00020426	7.955e-05	3.3591e-05	158.98	4.6003e-07	5.323e-07	341.69	44.292	9.3367e-07	8.0297e-07	119.51	38.759	13.884	6.8259	8.4885e-07	10.765	4.5035e-06	2.0729e-06	4.3034e-07	137.61	2.5136e-08	1.4065e-08	294.29	38.014	2.4651e-08	2.2771e-08	100	32.69	11.721	5.7176	2.5877e-08	8.9245	504.420	215.625	235.121	186.749	310.861	354.847	184.356	193.981	298.379	291.361	189.651	194.385	198.084	202.494	277.793	199.216	-8191	255	
3812.623	1	1	0	0	0.14054	0.2631	0.19819	0.23833	0.20543	0.12853	0.043331	0.29326	0.42971	0.12273	0.16484	0.21819	0.17457	0.10319	0.12728	0.10781	-0.98958	0.0083333	-1.4083	-0.78333	-0.2875	-1.4854	-0.45	-0.6	-1.4562	-0.25417	-1.3292	-1.1021	-0.29375	-1.5354	-0.45	-0.73542	475.738	322.456	298.037	233.742	511.449	351.960	245.317	361.410	486.842	233.582	345.611	325.776	529.919	526.708	289.069	299.260	0.00019327	8.353e-05	3.893e-05	160.01	7.5718e-07	6.4007e-07	340.2	44.217	1.0712e-06	3.657e-07	119.24	38.834	13.832	6.6486	9.9778e-07	10.541	4.2282e-06	2.4861e-06	4.0787e-07	136.3	2.7238e-08	1.3563e-08	293.4	37.739	1.9809e-08	2.3517e-08	99.723	32.435	11.701	5.6342	2.4555e-08	8.7518	503.431	255.224	231.973	187.113	294.405	404.311	184.531	194.534	287.705	330.165	189.031	194.142	198.857	201.687	289.828	198.684	-8191	255	
3812.743	1	1	0	0	0.16648	0.14159	0.33887	0.050401	0.0093572	0.18269	0.1076	0.075783	0.166	0.51568	0.32029	0.12154	0.20173	0.22351	0.14693	0.19507	-0.95417	-0.14167	-1.1375	-1.1083	-0.21042	-1.4312	-0.59167	-0.60833	-1.3104	-0.27292	-1.0438	-1.2229	-0.33333	-1.3792	-0.48125	-0.56458	457.398	190.422	321.512	245.516	264.464	177.375	493.263	268.895	316.341	492.102	252.716	513.232	204.144	307.182	209.690	241.593	0.00017131	0.00012041	5.1088e-06	156.27	1.0592e-06	9.2415e-07	335.5	43.607	1.0697e-06	1.2368e-06	117.71	37.84	13.425	6.5894	6.5093e-07	10.2	3.8706e-06	2.4848e-06	3.4551e-07	135.23	2.6142e-08	1.3228e-08	289.16	37.17	2.1803e-08	2.1569e-08	98.189	31.6	11.365	5.4961	2.6561e-08	8.5542	500.206	208.419	181.599	187.056	287.523	283.975	184.850	193.853	287.710	315.289	188.805	194.453	197.107	201.871	309.396	198.938	-8191	255	
3812.838	1	1	0	0	0.19368	0.17597	0.37748	0.24494	0.095211	0.094753	0.26429	0.357	0.18892	0.15646	0.13173	0.27616	0.031262	0.13397	0.22815	0.17241	-1.025	-0.41875	-0.89792	-1.2646	-0.2875	-1.3875	-0.67083	-0.57292	-1.4562	-0.15833	-1.1604	-1.2625	-0.16042	-1.4562	-0.68125	-0.62708	195.552	485.046	285.756	487.708	178.621	401.644	291.071	326.304	343.544	289.604	245.357	418.754	311.121	413.653	250.391	347.988	0.00019408	4.6064e-05	1.7454e-05	154.91	7.0251e-07	5.5501e-07	328.56	42.98	9.8487e-07	3.9015e-07	114.7	37.404	13.138	6.4165	4.0565e-07	10.171	4.1391e-06	1.913e-06	5.1129e-07	133.79	2.6355e-08	1.2832e-08	284.31	36.814	1.9459e-08	2.3928e-08	95.987	31.025	11.065	5.3915	2.416e-08	8.4694	497.310	226.094	228.278	187.054	287.553	349.837	184.905	193.425	320.255	298.190	189.302	194.620	197.948	202.476	232.445	199.593	-8191	255	
3812.934	1	1	0	0	0.088936	0.36587	0.16893	0.52504	0.12774	0.22419	0.42868	0.065382	0.19122	0.22609	0.27754	0.1256	0.19597	0.017792	0.13073	0.14971	-1.1938	-0.4	-0.99792	-1.325	-0.26875	-1.2167	-0.81875	-0.46667	-1.3104	-0.40625	-0.9	-1.3083	-0.51875	-1.1417	-0.89792	-0.5125	296.598	347.613	239.838	423.183	510.833	380.548	456.796	458.314	433.339	315.669	193.172	205.158	212.403	422.981	180.265	420.117	0.00021179	0.00010682	3.5982e-05	155.69	7.842e-07	6.7728e-07	329.68	42.308	4.8429e-07	2.0271e-07	113.16	36.869	13.126	6.4235	3.5105e-07	10.074	4.0788e-06	2.3498e-06	4.4428e-07	132.38	2.4115e-08	1.2923e-08	282.64	36.228	1.6779e-08	2.0945e-08	94.622	30.808	10.982	5.3818	2.2276e-08	8.4386	502.710	233.535	248.840	186.936	307.457	341.814	185.571	193.897	270.491	309.106	189.192	194.519	198.289	201.947	261.968	200.171	-8191	255	
3813.030	1	1	0	0	0.2598	0.28574	0.14071	0.29116	0.27948	0.16956	0.093886	0.10152	0.070467	0.20663	0.13058	0.21196	0.06406	0.0508	0.24283	0.1778	-1.1437	-0.30417	-0.69583	-1.4708	-0.15833	-1.1313	-0.90417	-0.43125	-1.3354	-0.43542	-0.91667	-1.3417	-0.33125	-1.2979	-0.94792	-0.48542	385.431	424.253	292.225	432.044	181.835	192.829	371.730	387.089	211.661	264.873	442.041	386.033	222.848	513.309	261.907	216.212	0.00024304	9.0509e-05	3.1973e-05	152.09	6.9317e-07	6.6044e-07	324.03	41.816	1.1378e-06	1.0732e-06	112.06	36.55	13.08	6.3622	7.0746e-07	10.01	4.8063e-06	2.0076e-06	4.6016e-07	130.66	2.541e-08	1.3791e-08	280.2	35.909	2.29e-08	2.3106e-08	94.517	30.604	10.908	5.3064	1.7748e-08	8.2981	493.661	230.167	206.681	187.152	295.333	324.574	185.266	193.392	284.116	315.535	189.272	194.144	197.657	202.949	279.751	199.318	-8191	255	
3813.150	1	1	0	0	0.15431	0.19713	0.097552	0.14635	0.10223	0.049671	0.19032	0.22261	0.20331	0.047491	0.078198	0.10728	0.19486	0.14437	0.060509	0.19273	-1.1437	-0.53125	-0.7625	-1.5125	-0.27292	-1.3521	-1.0354	-0.38333	-1.4083	-0.44375	-0.64167	-1.4271	-0.39583	-1.1042	-1.1458	-0.41875	416.199	414.376	428.749	179.612	263.096	472.311	191.619	212.582	534.004	485.706	444.219	269.721	379.601	295.866	353.479	435.520	0.00017463	0.0001175	2.3404e-05	152.52	9.3065e-07	4.1829e-07	325.16	41.277	4.7555e-07	4.7183e-07	112.28	36.488	12.812	6.1469	4.2319e-07	10.096	4.0555e-06	2.2747e-06	5.1284e-07	130.53	2.4176e-08	1.2817e-08	281.43	35.814	1.99e-08	1.927e-08	94.015	30.449	10.837	5.2338	1.8204e-08	8.3239	502.991	227.911	245.079	186.093	276.702	300.069	184.848	194.493	275.381	313.160	189.210	193.786	197.095	201.633	281.925	198.680	-8191	255	
3813.222	1	1	0	0	0.20252	0.23337	0.31055	0.15259	0.31735	0.28258	0.14329	0.080673	0.065495	0.10532	0.10056	0.17105	0.1387	0.21887	0.32948	0.26864	-1.1896	-0.6375	-0.49167	-1.4062	-0.39375	-1.0333	-1.2021	-0.41667	-1.3354	-0.65	-0.60417	-1.4292	-0.42708	-0.98958	-1.1104	-0.47292	227.664	242.261	363.316	270.482	247.102	225.715	348.730	329.474	209.019	235.536	415.480	448.408	521.213	498.522	491.843	514.273	0.00020098	8.1958e-05	2.9137e-05	151.77	7.6174e-07	3.8788e-07	323.12	41.309	1.0128e-06	8.8786e-07	111.55	36.125	12.72	6.1052	4.8531e-07	9.8781	4.0829e-06	1.8949e-06	4.714e-07	130.03	2.4816e-08	1.6896e-08	278.13	35.566	2.2001e-08	1.9636e-08	93.875	30.193	10.757	5.2099	1.7702e-08	8.2092	502.092	225.423	184.188	187.886	300.629	356.986	184.887	193.499	319.510	350.851	188.651	194.247	199.225	201.780	252.271	198.372	-8191	255	
3813.318	1	1	0	0	0.14443	0.081081	0.19365	0.051755	0.12674	0.056291	0.30419	0.087419	0.41869	0.36509	0.2329	0.072293	0.15102	0.21707	0.25842	0.248	-0.87292	-0.625	-0.59167	-1.5	-0.47083	-0.82292	-1.0771	-0.26458	-1.2083	-1.0063	-0.61667	-1.5312	-0.46667	-1.0625	-1.0562	-0.14792	185.322	362.373	435.754	425.136	432.739	305.000	499.868	479.760	516.219	443.680	379.978	430.563	526.891	277.966	248.599	338.418	0.00018688	7.1644e-05	2.7715e-05	151.21	2.8844e-07	7.1446e-07	328.22	41.15	8.533e-07	4.9487e-07	111.97	36.315	13.125	6.2306	8.3305e-07	10.094	4.1624e-06	1.6333e-06	5.5429e-07	129.92	2.3521e-08	1.6988e-08	280.73	35.391	2.0311e-08	1.6576e-08	93.86	30.437	10.957	5.275	1.7611e-08	8.3706	498.624	252.676	177.232	187.145	286.450	351.074	184.469	194.653	309.510	334.653	189.168	193.996	198.201	201.446	297.822	198.815	-8191	255	
3813.414	1	1	0	0	0.18246	0.25067	0.21857	0.2105	0.038905	0.032165	0.21703	0.10157	0.21496	0.12883	0.09074	0.18417	0.27171	0.28665	0.084087	0.077156	-1.1125	-0.85208	-0.55417	-1.6542	-0.55833	-0.82917	-1.175	-0.40417	-1.125	-0.78542	-0.42708	-1.4854	-0.55417	-0.88333	-1.1146	-0.2375	288.306	499.952	248.670	420.894	386.714	453.379	265.234	416.461	404.371	520.427	259.138	176.042	440.419	435.391	489.316	418.761	0.00014688	7.8684e-05	3.0067e-05	153.72	8.4288e-07	7.0867e-07	327.23	41.682	1.4647e-06	4.981e-07	110.69	36.642	12.86	6.3646	3.9156e-07	10.049	3.8295e-06	1.7168e-06	5.2911e-07	131.09	2.2744e-08	1.9134e-08	282.73	35.744	2.2336e-08	1.8601e-08	93.222	30.4	10.859	5.3612	1.5499e-08	8.3317	500.939	258.744	230.500	187.604	334.282	293.407	184.764	193.672	286.521	245.427	189.180	194.102	198.443	201.340	251.128	199.042	-8191	255	
3813.535	1	1	0	0	0.11472	0.11481	0.0721	0.11526	0.047972	0.088134	0.16118	0.051707	0.18852	0.13569	0.12251	0.32789	0.17532	0.33356	0.11781	0.079525	-0.86667	-1.1	-0.38125	-1.3896	-0.41875	-0.6875	-1.2	-0.41875	-1.2771	-1.1292	-0.50417	-1.4771	-0.50625	-0.70833	-1.3375	-0.43958	263.170	323.297	316.567	224.293	332.785	395.819	308.656	278.609	465.642	451.680	372.329	478.417	230.846	285.612	472.615	466.948	0.00018369	0.00010413	1.9504e-05	155.29	3.7608e-07	1.0229e-06	325.55	41.731	4.773e-07	1.1124e-06	108.77	35.786	12.946	6.4386	3.3051e-07	9.8312	3.9802e-06	1.849e-06	5.7366e-07	132.53	2.3049e-08	1.9712e-08	280.41	35.808	2.1621e-08	1.7581e-08	92.139	30.194	10.861	5.387	2.0057e-08	8.2023	499.439	237.751	244.391	187.773	328.810	353.692	185.133	194.378	286.195	277.738	189.256	194.526	198.846	202.166	233.200	200.042	-8191	255	
3813.631	1	1	0	0	0.18216	0.17959	0.13438	0.11024	0.28803	0.25846	0.078697	0.14456	0.32214	0.176	0.1593	0.20032	0.07999	0.28672	0.15433	0.10422	-0.85	-1.0875	-0.36667	-1.7271	-0.55208	-0.57708	-1.5104	-0.60625	-1.0708	-1.2375	-0.35208	-1.475	-0.47708	-0.64167	-1.375	-0.60417	249.606	263.969	400.111	249.080	334.000	287.710	390.044	406.252	523.018	249.771	297.249	278.213	354.439	482.987	458.803	360.531	0.00015151	0.00014857	3.0106e-05	154.34	9.386e-07	3.6217e-07	324.54	41.506	2.0044e-07	8.071e-07	109.26	36.014	12.948	6.3043	1.0914e-06	9.6924	3.7034e-06	1.6723e-06	5.4925e-07	131.56	2.3308e-08	1.8129e-08	279.22	35.765	1.8423e-08	1.2588e-08	91.464	29.984	10.877	5.3479	1.7687e-08	8.213	492.189	250.789	217.738	187.038	279.842	322.317	185.489	194.296	391.750	316.943	189.969	194.818	198.059	202.276	253.996	198.874	-8191	255	
3813.727	1	1	0	0	0.1267	0.12348	0.36328	0.21481	0.17801	0.090131	0.076654	0.16409	0.092431	0.29107	0.25163	0.068424	0.31796	0.071366	0.09053	0.18503	-0.99792	-1.1354	-0.42292	-1.4792	-0.86042	-0.78542	-1.6229	-0.375	-1.0958	-1.4417	-0.40208	-1.5771	-0.53958	-0.64792	-1.5312	-0.39792	223.753	408.652	345.316	398.530	243.343	468.215	527.678	259.168	492.591	303.129	376.428	301.910	187.955	177.369	179.542	416.498	0.00016534	9.6211e-05	3.729e-05	151.12	1.07e-06	9.206e-07	324.19	41.217	4.4647e-07	1.0835e-06	109.88	35.946	12.907	6.4559	6.683e-07	10.077	3.9377e-06	1.7557e-06	4.9735e-07	131.08	1.9865e-08	2.1067e-08	279.52	35.542	2.2047e-08	1.5343e-08	91.486	30.084	10.808	5.3921	1.7732e-08	8.3676	501.757	220.186	277.852	186.302	334.146	337.326	184.874	193.781	318.917	313.850	189.614	194.894	198.874	202.885	287.084	199.651	-8191	255	
3813.824	1	1	0	0	0.18315	0.067849	0.099953	0.23647	0.18028	0.24684	0.18736	0.15601	0.08091	0.11727	0.17747	0.18564	0.13364	0.098483	0.11693	0.20478	-0.86458	-1.3563	-0.31667	-1.3708	-0.58333	-0.45833	-1.8	-0.41458	-0.85625	-1.2437	-0.2	-1.3625	-0.96667	-0.55625	-1.3312	-0.50625	217.803	522.506	400.329	316.015	496.308	505.181	450.554	421.961	321.518	489.100	191.215	235.893	461.187	499.380	189.374	437.232	0.00016593	0.00011458	2.5933e-05	151.35	5.7225e-07	2.9392e-07	321.3	41.454	6.4906e-07	1.2767e-06	108	35.953	12.886	6.4208	8.3496e-07	10.102	4.3391e-06	1.5791e-06	5.6901e-07	130.72	2.0185e-08	2.1524e-08	275.98	35.438	2.1651e-08	1.5937e-08	91.049	30.228	10.83	5.3924	1.8204e-08	8.3675	499.392	204.632	215.336	188.302	314.689	327.935	185.406	193.374	298.292	308.924	189.443	193.742	196.756	201.092	218.459	198.603	-8191	255	
3813.918	1	1	0	0	0.38613	0.073887	0.20147	0.36618	0.099231	0.19971	0.26516	0.12039	0.0089033	0.39429	0.44668	0.19712	0.1922	0.14732	0.16266	0.19023	-0.45417	-1.3021	-0.22917	-1.2771	-0.83542	-0.54583	-1.4354	-0.80625	-0.85	-1.3167	-0.37083	-1.1688	-0.88125	-0.55	-1.2021	-0.66667	307.038	409.142	365.447	359.376	303.420	377.828	439.125	324.038	308.787	259.992	490.443	314.240	460.731	246.209	479.804	498.968	0.00020769	8.5652e-05	3.0225e-05	149.56	1.7933e-07	7.9294e-07	318.07	41.918	5.601e-07	4.3278e-07	107.98	35.604	12.711	6.3998	7.1145e-07	9.9251	4.868e-06	1.3606e-06	5.3918e-07	129	1.6696e-08	1.9865e-08	273.56	35.61	2.4285e-08	1.2116e-08	90.333	29.886	10.822	5.3896	1.4618e-08	8.3239	497.088	213.038	222.478	186.921	289.354	323.978	184.779	193.842	326.863	297.555	189.109	194.630	197.935	202.142	267.548	199.537	-8191	255	
3814.016	1	1	0	0	0.36776	0.26918	0.30982	0.12149	0.13892	0.18148	0.04191	0.11023	0.117	0.17521	0.17677	0.22584	0.17696	0.085425	0.26712	0.20494	-0.30208	-1.1604	-0.44375	-1.2229	-1.0229	-0.51042	-1.5375	-0.72292	-0.70625	-1.4542	-0.47083	-1.3875	-1.1792	-0.3375	-1.3417	-0.59167	299.494	243.181	391.093	244.701	505.358	206.091	444.707	335.793	326.182	266.954	210.199	209.218	191.478	274.765	345.783	426.249	0.00016266	9.2329e-05	3.9183e-06	147.3	1.0316e-06	5.9592e-07	313.96	40.788	3.3967e-07	7.2942e-07	107.08	35.711	12.715	6.4481	7.3346e-07	10.034	3.924e-06	1.4525e-06	4.9231e-07	127.43	2.0033e-08	2.0961e-08	269.31	34.866	2.0859e-08	1.4095e-08	89.387	29.876	10.768	5.4367	1.6335e-08	8.363	496.165	244.951	293.155	186.431	322.290	321.601	185.158	193.204	281.858	316.763	189.421	194.051	198.348	201.371	250.238	198.717	-8191	255	
3814.135	1	1	0	0	0.13437	0.29152	0.27355	0.080116	0.036628	0.22999	0.29773	0.19154	0.24252	0.13034	0.081466	0.17505	0.10136	0.11981	0.089035	0.11316	-0.275	-1.4062	-0.27708	-1.1792	-1.1708	-0.35417	-1.6	-0.69375	-0.63542	-1.55	-0.21458	-1.125	-1.2354	-0.26875	-1.4958	-0.78958	515.876	209.394	232.620	483.575	417.378	251.532	440.799	499.143	184.785	397.255	192.573	178.177	466.889	261.037	274.044	283.916	0.00019423	0.00013773	4.284e-05	145.74	8.4632e-07	4.3954e-07	310.07	40.237	9.6758e-07	8.8905e-07	107.12	35.696	12.646	6.5005	1.3758e-06	10.133	4.4666e-06	1.561e-06	5.8605e-07	126.01	1.9043e-08	2.3183e-08	265.8	34.61	2.6189e-08	1.4095e-08	89.266	30.07	10.756	5.4998	1.7094e-08	8.4386	502.990	220.882	239.868	186.631	281.627	343.456	185.148	193.341	295.470	283.977	190.182	194.204	197.896	201.936	274.363	199.206	-8191	255	
3814.229	1	1	0	0	0.139	0.24587	0.23517	0.38095	0.26445	0.10234	0.20116	0.27465	0.12462	0.078009	0.101	0.13443	0.095987	0.11211	0.18216	0.20458	-0.21875	-1.4417	0.054167	-1.1063	-1.4438	0.0041667	-1.5792	-0.94375	-0.62292	-1.7021	-0.425	-1.1208	-1.2271	-0.27292	-1.6479	-1.0021	406.057	394.923	214.144	205.666	419.817	339.191	493.432	427.137	450.870	225.704	463.230	469.657	241.169	465.223	334.469	408.156	0.00018785	8.1539e-05	8.98e-06	144.86	3.1372e-07	6.1025e-07	302.81	39.671	9.0094e-07	1.3201e-06	106.83	35.935	12.999	6.6179	9.1545e-07	10.127	5.0119e-06	1.4065e-06	5.8334e-07	123.84	1.4107e-08	2.4629e-08	263.1	34.331	2.558e-08	1.166e-08	89.023	30.137	10.891	5.5217	1.6319e-08	8.506	492.414	229.745	233.121	187.836	318.822	396.543	185.787	194.141	314.112	322.623	189.151	194.758	199.082	201.725	309.171	199.445	-8191	255	
3814.325	1	1	0	0	0.44627	0.26197	0.17204	0.28335	0.25322	0.26081	0.25815	0.11681	0.14051	0.25969	0.15493	0.38681	0.16651	0.23638	0.13784	0.15639	-0.0020833	-1.7479	-0.32083	-0.93125	-1.2479	-0.30833	-1.3188	-0.7875	-0.45833	-1.625	-0.35208	-0.875	-1.2896	-0.1625	-1.1521	-1.0333	408.657	260.389	378.485	499.203	486.825	480.866	403.767	480.679	427.353	444.045	448.868	190.340	279.959	177.936	387.392	443.587	0.00018733	7.1405e-05	2.6752e-05	146.57	7.4244e-07	9.3573e-07	302.73	40.348	1.7245e-06	7.6578e-07	105.97	35.762	12.573	6.5799	1.0375e-06	10.177	4.9831e-06	1.5262e-06	5.1788e-07	124.07	1.6834e-08	2.1783e-08	261.67	34.434	2.762e-08	1.3121e-08	88.551	30.045	10.79	5.5032	1.9632e-08	8.4685	500.930	221.992	259.291	188.167	303.727	335.944	185.266	193.465	281.876	299.571	189.509	195.225	199.222	202.542	286.611	199.144	-8191	255	
3814.446	1	1	0	0	0.24333	0.091616	0.06999	0.1111	0.11741	0.263	0.13703	0.21126	0.16221	0.25268	0.04226	0.21867	0.11165	0.44117	0.05681	0.15571	0.020833	-1.5896	-0.3	-0.94375	-1.5333	-0.36458	-1.3937	-0.92708	-0.46458	-1.5562	-0.44792	-0.82292	-1.1625	-0.32292	-1.0729	-1.1146	213.749	259.731	478.126	332.465	282.607	274.762	216.849	329.466	210.699	321.237	299.900	375.750	325.640	194.408	523.273	489.131	0.00018514	0.00011967	2.2853e-05	141.86	6.6019e-07	9.8292e-07	304.96	39.816	9.5803e-07	7.9887e-07	105.94	35.336	12.955	6.5442	9.3424e-07	10.055	4.7502e-06	1.5484e-06	4.3886e-07	122.41	1.4579e-08	1.7307e-08	261.31	34.603	2.7361e-08	1.2771e-08	88.895	29.818	10.82	5.4983	1.7778e-08	8.3925	507.209	237.269	225.931	187.343	266.020	293.203	184.511	192.737	288.501	326.472	188.615	193.922	198.403	201.821	292.990	198.643	-8191	255	
3814.518	1	1	0	0	0.092247	0.17864	0.12602	0.09009	0.33038	0.22952	0.12561	0.20803	0.068543	0.15641	0.15159	0.28301	0.21866	0.082066	0.11611	0.011326	0.25	-1.3208	-0.575	-0.675	-1.3417	-0.64167	-1.325	-1.0458	-0.50417	-1.3979	-0.70417	-0.83333	-1.5	-0.55833	-1.0708	-1.05	264.169	372.034	418.965	415.384	360.739	319.734	227.083	251.420	472.505	434.043	212.670	206.580	445.324	387.338	190.631	237.859	0.00016605	6.7495e-05	2.3595e-05	143.65	1.1266e-06	6.3826e-07	305.31	40.175	6.4036e-07	1.4225e-06	105.02	35.437	12.826	6.5692	5.021e-07	10.114	4.5556e-06	1.2869e-06	4.6714e-07	123.25	1.659e-08	1.8662e-08	262.39	34.45	2.5275e-08	1.5054e-08	88.605	29.893	10.771	5.5377	1.8416e-08	8.4799	503.427	210.403	272.514	188.676	292.874	333.389	184.087	193.453	308.950	275.769	188.964	194.074	198.486	201.319	264.979	199.043	-8191	255	
3814.614	1	1	0	0	0.037	0.16818	0.35957	0.11157	0.30771	0.40545	0.16146	0.19082	0.12879	0.21824	0.084415	0.18081	0.15589	0.14947	0.09437	0.11808	-0.045833	-1.2979	-0.58542	-0.675	-1.4417	-0.425	-1.1729	-1.2521	-0.21667	-1.375	-0.81667	-0.49167	-1.5187	-0.31458	-1.1292	-1.3271	299.642	436.818	190.288	366.018	332.007	436.355	507.219	316.221	306.618	190.592	449.969	302.331	481.726	341.613	423.160	391.404	0.00017285	4.8415e-05	1.3771e-05	143.45	4.1228e-07	5.5902e-07	305.39	39.295	1.1206e-06	7.7805e-07	106.58	36.14	12.79	6.5708	7.2196e-07	10.211	4.5049e-06	1.4205e-06	5.1246e-07	123.02	1.6712e-08	2.1098e-08	261.92	34.058	2.7544e-08	1.3486e-08	88.41	30.128	10.788	5.5176	1.951e-08	8.4647	497.725	244.062	228.630	186.614	304.281	334.201	184.735	193.428	326.974	329.064	188.852	194.221	198.373	200.802	267.496	199.033	-8191	255	
3814.710	1	1	0	0	0.088626	0.053941	0.11902	0.18957	0.51398	0.15337	0.20659	0.11489	0.075201	0.15491	0.20156	0.17845	0.26363	0.11302	0.14595	0.052126	0.16667	-1.4042	-0.8	-0.37083	-1.6125	-0.54375	-1.125	-1.3312	-0.31875	-1.1208	-0.72083	-0.575	-1.4229	-0.45208	-0.80833	-1.4438	220.244	206.409	297.616	414.994	388.891	451.739	446.769	462.038	453.293	426.266	471.001	534.991	368.768	532.998	395.102	190.833	0.00018273	9.1452e-05	3.6458e-05	142.1	6.4749e-07	7.0384e-07	302.95	40.146	8.0651e-07	9.3718e-07	105.68	35.422	12.975	6.4546	8.1134e-07	9.98	4.7817e-06	1.6486e-06	5.02e-07	122.48	1.726e-08	2.2437e-08	261.07	34.248	2.561e-08	1.3532e-08	88.439	29.877	10.868	5.4939	2.0088e-08	8.3601	501.045	227.552	256.189	186.898	339.129	295.077	184.771	193.275	316.915	295.829	189.096	194.813	198.977	202.014	295.239	199.637	-8191	255	
#DATA ENDS
