BOXY.EXE: ISS Imagent and Oximeter Data Acquisition Program Version 0.80
Ascii Record File

#ACQ INFORMATION
2  Detector Channels 
16  External MUX Channels 
1  Auxiliary Channels 
5000  Waveform (CCF) Frequency (Hz)
1  Waveforms Skipped 
30  Waveforms Averaged 
1  Cycles Averaged 
16  Acquisitions per Waveform 
10.0806  Updata Rate (Hz) 

#FILE INFORMATION
TRUE -- External MUX Channel results are PARSED.
FALSE -- AC DC and Phase are NOT grouped.
TRUE -- Companion Program Settings File CREATED.
FALSE -- AC data not excluded
FALSE -- DC data not excluded
FALSE -- Phase data not excluded
FALSE -- Auxillary Chn. data not excluded
Tab delimiters

#CALIBRATION STATE
TRUE -- Waveform Calibration Values APPLIED.


#AUX CALIBRATION VALUES
Val Type	aux-1	

Term	1.0000e+00	
Factor	0.0000e+00	


#WF CALIBRATION VALUES
A = Detector Channel
Val Type	A-AC1	A-AC2	A-AC3	A-AC4	A-AC5	A-AC6	A-AC7	A-AC8	A-AC9	A-AC10	A-AC11	A-AC12	A-AC13	A-AC14	A-AC15	A-AC16	A-DC1	A-DC2	A-DC3	A-DC4	A-DC5	A-DC6	A-DC7	A-DC8	A-DC9	A-DC10	A-DC11	A-DC12	A-DC13	A-DC14	A-DC15	A-DC16	A-Ph1	A-Ph2	A-Ph3	A-Ph4	A-Ph5	A-Ph6	A-Ph7	A-Ph8	A-Ph9	A-Ph10	A-Ph11	A-Ph12	A-Ph13	A-Ph14	A-Ph15	A-Ph16	

Term	0.00000e+00	0.00000e+00	0.00000e+00	0.00000e+00	0.00000e+00	0.00000e+00	0.00000e+00	0.00000e+00	0.00000e+00	0.00000e+00	0.00000e+00	0.00000e+00	0.00000e+00	0.00000e+00	0.00000e+00	0.00000e+00	0.00000e+00	0.00000e+00	0.00000e+00	0.00000e+00	0.00000e+00	0.00000e+00	0.00000e+00	0.00000e+00	0.00000e+00	0.00000e+00	0.00000e+00	0.00000e+00	0.00000e+00	0.00000e+00	0.00000e+00	0.00000e+00	0.00000e+00	0.00000e+00	0.00000e+00	0.00000e+00	0.00000e+00	0.00000e+00	0.00000e+00	0.00000e+00	0.00000e+00	0.00000e+00	0.00000e+00	0.00000e+00	0.00000e+00	0.00000e+00	0.00000e+00	0.00000e+00	
Factor	1.00000e+00	1.00000e+00	1.00000e+00	1.00000e+00	1.00000e+00	1.00000e+00	1.00000e+00	1.00000e+00	1.00000e+00	1.00000e+00	1.00000e+00	1.00000e+00	1.00000e+00	1.00000e+00	1.00000e+00	1.00000e+00	1.00000e+00	1.00000e+00	1.00000e+00	1.00000e+00	1.00000e+00	1.00000e+00	1.00000e+00	1.00000e+00	1.00000e+00	1.00000e+00	1.00000e+00	1.00000e+00	1.00000e+00	1.00000e+00	1.00000e+00	1.00000e+00	X	X	X	X	X	X	X	X	X	X	X	X	X	X	X	X	

B = Detector Channel
Val Type	B-AC1	B-AC2	B-AC3	B-AC4	B-AC5	B-AC6	B-AC7	B-AC8	B-AC9	B-AC10	B-AC11	B-AC12	B-AC13	B-AC14	B-AC15	B-AC16	B-DC1	B-DC2	B-DC3	B-DC4	B-DC5	B-DC6	B-DC7	B-DC8	B-DC9	B-DC10	B-DC11	B-DC12	B-DC13	B-DC14	B-DC15	B-DC16	B-Ph1	B-Ph2	B-Ph3	B-Ph4	B-Ph5	B-Ph6	B-Ph7	B-Ph8	B-Ph9	B-Ph10	B-Ph11	B-Ph12	B-Ph13	B-Ph14	B-Ph15	B-Ph16	

Term	0.00000e+00	0.00000e+00	0.00000e+00	0.00000e+00	0.00000e+00	0.00000e+00	0.00000e+00	0.00000e+00	0.00000e+00	0.00000e+00	0.00000e+00	0.00000e+00	0.00000e+00	0.00000e+00	0.00000e+00	0.00000e+00	0.00000e+00	0.00000e+00	0.00000e+00	0.00000e+00	0.00000e+00	0.00000e+00	0.00000e+00	0.00000e+00	0.00000e+00	0.00000e+00	0.00000e+00	0.00000e+00	0.00000e+00	0.00000e+00	0.00000e+00	0.00000e+00	-1.89397e+02	-1.65226e+02	-1.57126e+02	-1.83573e+02	-7.86518e+01	-6.98634e+01	-1.59024e+02	-1.62015e+02	-7.23741e+01	-8.28070e+01	-1.70632e+02	-1.70941e+02	-1.78840e+02	-1.76518e+02	-1.05877e+02	-1.49938e+02	
Factor	3.42563e-05	9.17672e-05	3.45975e-05	1.69658e-01	8.77912e-07	9.10906e-07	1.63438e-01	4.72968e-02	9.51688e-07	1.02407e-06	8.13686e-02	2.67452e-02	2.20867e-02	8.52368e-03	9.30633e-07	1.22118e-02	6.57652e-07	6.67795e-07	1.85925e-07	8.48753e-02	7.31233e-09	7.30656e-09	7.73714e-02	2.37719e-02	7.30843e-09	7.30628e-09	3.87263e-02	1.27484e-02	1.10087e-02	4.19686e-03	7.29356e-09	5.76721e-03	X	X	X	X	X	X	X	X	X	X	X	X	X	X	X	X	



#DISTANCE SETTINGS
A = Detector Channel
A-1	A-2	A-3	A-4	A-5	A-6	A-7	A-8	A-9	A-10	A-11	A-12	A-13	A-14	A-15	A-16	

2.5000e+00	3.0000e+00	2.5000e+00	3.0000e+00	2.0000e+00	3.0000e+00	1.5000e+00	3.0000e+00	3.0000e+00	3.0000e+00	3.0000e+00	3.0000e+00	3.0000e+00	3.0000e+00	1.5000e+00	3.0000e+00	

B = Detector Channel
B-1	B-2	B-3	B-4	B-5	B-6	B-7	B-8	B-9	B-10	B-11	B-12	B-13	B-14	B-15	B-16	

1.0000e+01	1.0000e+01	1.0000e+01	1.4400e+00	1.0000e+01	1.0000e+01	1.5100e+00	1.9400e+00	1.0000e+01	1.0000e+01	1.9900e+00	2.4900e+00	2.4100e+00	2.9000e+00	1.0000e+01	2.9800e+00	




#DATA BEGINS
time	group	step	mark	flag	A-AC1	A-AC2	A-AC3	A-AC4	A-AC5	A-AC6	A-AC7	A-AC8	A-AC9	A-AC10	A-AC11	A-AC12	A-AC13	A-AC14	A-AC15	A-AC16	A-DC1	A-DC2	A-DC3	A-DC4	A-DC5	A-DC6	A-DC7	A-DC8	A-DC9	A-DC10	A-DC11	A-DC12	A-DC13	A-DC14	A-DC15	A-DC16	A-Ph1	A-Ph2	A-Ph3	A-Ph4	A-Ph5	A-Ph6	A-Ph7	A-Ph8	A-Ph9	A-Ph10	A-Ph11	A-Ph12	A-Ph13	A-Ph14	A-Ph15	A-Ph16	B-AC1	B-AC2	B-AC3	B-AC4	B-AC5	B-AC6	B-AC7	B-AC8	B-AC9	B-AC10	B-AC11	B-AC12	B-AC13	B-AC14	B-AC15	B-AC16	B-DC1	B-DC2	B-DC3	B-DC4	B-DC5	B-DC6	B-DC7	B-DC8	B-DC9	B-DC10	B-DC11	B-DC12	B-DC13	B-DC14	B-DC15	B-DC16	B-Ph1	B-Ph2	B-Ph3	B-Ph4	B-Ph5	B-Ph6	B-Ph7	B-Ph8	B-Ph9	B-Ph10	B-Ph11	B-Ph12	B-Ph13	B-Ph14	B-Ph15	B-Ph16	aux-1	digaux	

3732.145	1	1	0	512	0.15041	0.15067	0.16945	0.18674	0.27545	0.062271	0.28162	0.10125	0.2262	0.12439	0.29273	0.13832	0.2114	0.1102	0.28144	0.1687	-0.14792	-1.3	-0.93125	-0.6	-1.575	-0.52917	-0.95833	-1.3458	-0.41042	-1.3396	-0.8625	-0.75625	-1.4917	-0.7	-1.0646	-1.2896	181.598	388.280	239.526	210.284	441.497	462.693	364.599	486.091	473.671	328.206	459.236	282.827	250.988	409.115	282.612	414.427	0.00030658	8.101e-05	3.0018e-05	134.2	8.4858e-07	7.9123e-07	184.14	46.776	7.456e-07	6.9031e-07	81.536	38.448	18.153	6.2548	5.6892e-07	15.902	6.3367e-06	1.5304e-06	4.1833e-07	119.19	1.5691e-08	1.9225e-08	162.9	41.428	2.4559e-08	1.481e-08	70.785	33.654	15.764	5.4234	2.1151e-08	13.563	496.635	201.693	216.175	189.082	279.575	364.054	188.668	195.260	329.536	272.092	193.062	196.536	199.101	204.456	293.319	200.084	-8191	255	
3732.265	1	1	0	0	0.17289	0.043052	0.20459	0.11896	0.069324	0.16537	0.18173	0.14531	0.41509	0.11339	0.16972	0.20383	0.13343	0.12504	0.078266	0.21936	-0.24792	-1.3771	-0.71667	-0.44583	-1.5438	-0.31667	-0.93125	-1.1521	-0.38333	-1.3125	-1.0417	-0.81875	-1.4542	-0.56042	-0.89583	-1.4438	293.655	289.421	287.418	410.448	496.992	184.172	182.500	467.898	466.541	203.531	459.174	475.359	390.332	281.337	336.499	209.367	0.00029673	8.9963e-05	2.3479e-05	137.58	9.1982e-07	8.0164e-07	187.54	47.614	9.5732e-07	6.1116e-07	82.831	39.393	18.262	6.3013	1.096e-06	16.094	6.7807e-06	1.6597e-06	4.1639e-07	121.07	1.6102e-08	1.956e-08	166.99	41.923	2.5442e-08	1.3197e-08	71.723	33.925	15.814	5.4678	2.3431e-08	13.847	495.677	220.800	228.928	188.059	356.315	302.528	188.629	194.640	324.547	308.762	192.614	196.063	198.830	204.230	275.412	200.426	-8191	255	
3732.362	1	1	0	0	0.030619	0.24085	0.21178	0.18117	0.13136	0.3929	0.12019	0.1773	0.085277	0.076717	0.41217	0.053126	0.14561	0.10962	0.087985	0.28475	-0.064583	-1.1771	-1.1229	-0.29583	-1.6229	-0.60417	-1.1229	-1.5583	-0.4625	-1.4	-1.4208	-0.30833	-1.7917	-0.68125	-0.83125	-1.5729	285.784	315.159	205.066	319.812	237.671	357.866	492.017	480.328	208.920	325.842	183.351	177.097	450.716	229.448	515.592	316.922	0.00032408	8.8902e-05	4.0886e-05	140.42	4.7406e-07	7.4044e-07	194.05	47.48	8.5833e-07	3.7878e-07	81.571	38.791	17.97	6.0068	9.7712e-07	15.509	6.7231e-06	1.9283e-06	4.6559e-07	123.74	1.6118e-08	2.2331e-08	174.14	41.594	2.794e-08	1.8448e-08	70.861	33.274	15.674	5.2501	2.223e-08	13.352	499.412	215.922	229.146	188.425	301.962	303.313	188.252	194.942	326.161	312.277	192.450	196.738	199.783	204.508	286.740	200.993	-8191	255	
3732.458	1	1	0	0	0.11608	0.27782	0.26563	0.28839	0.067352	0.18755	0.35594	0.24943	0.065754	0.12195	0.2706	0.26924	0.25858	0.14611	0.36601	0.044687	0.077083	-1.2542	-1.175	-0.33333	-1.7292	-0.87708	-0.76667	-1.7292	-0.425	-1.3104	-1.4271	-0.53958	-1.4771	-0.73958	-0.61042	-1.55	291.629	244.002	509.265	389.151	326.361	469.483	372.835	475.810	449.173	216.515	210.036	181.460	360.688	264.055	314.460	493.970	0.00028837	0.00012502	4.1005e-05	138.81	8.0829e-07	1.0363e-06	194.03	46.633	5.1423e-07	7.7959e-07	80.12	38.312	17.843	6.0385	2.6674e-07	15.505	6.3861e-06	1.6347e-06	4.3847e-07	123.64	1.5676e-08	2.1981e-08	172.71	41.071	2.7833e-08	1.6119e-08	69.81	33.093	15.505	5.2686	2.2884e-08	13.351	502.466	218.323	212.839	188.562	323.494	355.368	188.863	194.737	343.277	289.308	192.124	196.287	199.243	204.295	285.388	200.595	-8191	255	
3732.529	1	1	0	0	0.13842	0.13413	0.13033	0.24304	0.2755	0.30669	0.11018	0.14177	0.049006	0.10244	0.45559	0.21787	0.064076	0.28065	0.096805	0.10254	-0.27292	-1.2479	-1.2083	-0.69167	-1.2646	-1.0375	-0.84167	-1.4896	-0.43958	-1.1479	-1.3604	-0.48958	-1.3104	-0.98542	-0.70833	-1.6208	217.465	424.030	482.508	491.793	265.764	207.073	491.114	283.085	493.764	338.283	452.039	437.516	370.236	497.747	359.478	303.512	0.00030111	8.2011e-05	4.1527e-05	137.97	3.4565e-07	6.2058e-07	189.1	46.634	9.3653e-07	8.3305e-07	81.911	38.81	17.901	6.1653	7.4866e-07	15.824	6.0723e-06	1.867e-06	4.2647e-07	122.12	1.9088e-08	2.3335e-08	168.34	41.492	2.6478e-08	1.5526e-08	70.964	33.563	15.559	5.3351	2.375e-08	13.72	499.746	238.038	190.743	188.816	308.827	323.440	188.868	195.545	312.512	296.225	192.786	195.958	198.141	204.249	275.269	200.495	-8191	255	
3732.648	1	1	0	0	0.022745	0.079334	0.21298	0.14386	0.11175	0.11493	0.21241	0.22863	0.16982	0.23969	0.13919	0.13717	0.098237	0.21539	0.056855	0.13488	-0.28125	-0.93333	-1.2708	-0.50208	-1.3417	-0.87292	-0.68125	-1.5167	-0.39583	-1.2167	-1.6833	-0.44167	-1.4479	-1	-0.45208	-1.7771	288.896	390.674	266.306	391.091	502.282	430.711	374.988	472.017	493.823	399.527	376.094	515.733	420.336	211.959	189.076	269.093	0.00031498	0.00011006	3.7794e-05	136.4	1.2917e-06	6.4629e-07	184.45	47.005	1.3518e-06	5.3949e-07	82.755	39.219	18.297	6.2387	1.0905e-06	16.49	6.4683e-06	1.9825e-06	4.6171e-07	120.21	2.081e-08	1.7962e-08	165.9	42.182	2.7148e-08	1.6804e-08	71.64	33.868	15.766	5.4409	2.9554e-08	13.914	497.146	213.284	212.567	188.378	271.121	308.455	188.660	195.284	295.147	257.245	192.464	196.399	198.527	203.654	318.411	200.514	-8191	255	
3732.744	1	1	0	0	0.34716	0.23686	0.29679	0.15764	0.12249	0.082835	0.14735	0.14083	0.16363	0.074377	0.15284	0.075752	0.11023	0.29272	0.16572	0.14259	-0.18542	-1.0354	-1.4333	-0.17917	-1.2833	-0.95417	-0.53958	-1.7667	-0.62708	-0.82292	-1.6479	-0.045833	-1.4937	-1.1187	-0.30625	-1.9083	458.588	415.798	470.988	479.117	218.856	469.606	448.420	230.656	432.199	389.165	501.797	316.102	402.438	504.589	311.008	282.771	0.00029415	0.00014034	2.6086e-05	137.26	9.8697e-07	4.3079e-07	185.5	47.452	1.3026e-06	4.5989e-07	81.714	38.422	18.372	6.4704	9.9287e-07	15.946	6.3381e-06	1.8448e-06	3.8502e-07	121.37	1.8159e-08	1.9256e-08	165.37	41.969	2.9416e-08	1.545e-08	70.946	33.66	15.797	5.4781	2.4904e-08	13.795	497.422	213.782	237.713	189.058	301.447	297.893	189.022	195.821	307.242	352.550	192.490	196.524	199.318	204.735	274.936	199.899	-8191	255	
3732.842	1	1	0	0	0.15226	0.29044	0.26222	0.20369	0.3148	0.15653	0.15577	0.20955	0.13648	0.18001	0.097572	0.11992	0.16968	0.20418	0.29196	0.30141	-0.21458	-0.78125	-1.6542	-0.47083	-1.3563	-1.1125	-0.35	-1.475	-0.44583	-0.74375	-1.6229	-0.28542	-1.4438	-1.0208	-0.42083	-1.5958	309.098	401.416	362.196	233.504	270.596	348.712	264.089	496.244	521.170	319.586	435.417	332.112	266.673	305.165	358.671	514.909	0.00030685	0.00012909	2.4905e-05	136.57	1.0949e-06	5.1572e-07	184.12	47.237	1.1441e-06	1.5847e-06	82.363	39.011	18.352	6.318	8.6577e-07	16.225	6.3148e-06	2.0521e-06	3.2498e-07	119.78	1.6666e-08	1.8221e-08	164.17	41.784	2.3737e-08	1.9209e-08	70.973	33.627	15.851	5.4806	2.7564e-08	13.88	495.973	191.189	250.669	188.849	318.531	332.149	189.342	195.283	312.132	290.598	192.381	196.425	199.132	204.484	302.972	199.554	-8191	255	
3732.961	1	1	0	0	0.30854	0.22771	0.15199	0.42452	0.14409	0.022162	0.27242	0.17551	0.29931	0.24154	0.14975	0.1697	0.12111	0.21968	0.23001	0.10578	-0.52917	-0.90417	-1.6583	-0.375	-1.2896	-1.3417	-0.42917	-1.8083	-0.72917	-0.6875	-1.5688	-0.54583	-1.3583	-1.2708	-0.29375	-1.4562	360.163	179.297	456.723	523.647	400.823	321.733	455.886	299.216	381.885	411.948	499.533	529.192	364.892	492.245	486.866	462.117	0.00031364	0.00010896	4.6382e-05	134.65	1.1707e-06	8.6673e-07	183.86	47.877	1.1061e-06	1.3219e-06	81.749	38.752	18.01	6.2612	5.8493e-07	15.924	6.2354e-06	2.0618e-06	3.6565e-07	119.81	1.7336e-08	1.883e-08	164.02	41.828	2.3052e-08	2.0229e-08	70.784	33.746	15.617	5.4334	2.258e-08	13.695	499.427	234.708	233.685	188.371	280.102	338.983	188.312	195.470	303.208	319.967	192.336	196.719	198.613	205.226	248.127	200.551	-8191	255	
3733.057	1	1	0	0	0.16519	0.29907	0.17458	0.11454	0.12513	0.068517	0.15437	0.16122	0.18863	0.1645	0.080138	0.20508	0.18301	0.047119	0.076101	0.12997	-0.51042	-0.52917	-1.3813	-0.43333	-0.95833	-1.3958	-0.44167	-1.2729	-0.9	-0.825	-1.5875	-0.63125	-1.2875	-1.2104	-0.30417	-1.4625	532.225	229.766	494.473	324.923	524.922	438.655	484.305	344.979	327.915	468.597	323.800	252.479	244.135	458.531	438.037	355.721	0.00028532	8.0251e-05	4.3282e-05	135.22	3.9916e-07	2.7062e-07	183.33	47.05	3.6059e-07	8.2673e-07	82.552	39.163	18.083	6.2972	9.0271e-07	16.086	5.9422e-06	2.1995e-06	4.1252e-07	119.75	2.0048e-08	1.472e-08	164.35	41.641	2.2352e-08	2.1569e-08	71.314	33.666	15.729	5.4642	2.3871e-08	13.818	498.938	209.920	241.424	188.578	325.450	219.692	188.979	195.700	301.120	219.608	192.556	196.286	199.379	203.737	296.699	200.475	-8191	255	
3733.153	1	1	0	0	0.1369	0.11485	0.20218	0.088054	0.38672	0.036789	0.28952	0.24704	0.30938	0.18322	0.14065	0.086746	0.11212	0.063392	0.23934	0.102	-0.42917	-0.51667	-1.3896	-0.51875	-0.83333	-1.325	-0.48542	-1.1938	-0.98125	-0.45208	-1.3458	-0.72708	-0.85833	-1.2771	-0.39792	-1.3583	476.179	258.535	491.393	301.156	380.763	462.915	348.148	366.531	412.256	432.400	501.859	349.150	286.951	517.317	514.387	277.368	0.00029102	8.1811e-05	3.8417e-05	134.92	5.1948e-07	6.4157e-07	185.7	46.932	1.1056e-06	7.7981e-07	82.806	38.791	18.187	6.2853	6.8589e-07	16.282	5.7599e-06	2.1119e-06	4.2182e-07	118.95	2.3399e-08	1.7505e-08	163.6	41.553	2.4057e-08	2.2208e-08	71.804	33.81	15.74	5.4592	2.2792e-08	13.996	498.930	246.468	256.745	188.846	259.468	326.856	188.504	195.884	299.004	280.480	193.011	196.204	199.349	204.637	288.830	200.716	-8191	255	
3733.250	1	1	0	0	0.25256	0.11651	0.12691	0.27425	0.095186	0.12287	0.21613	0.11143	0.087181	0.30455	0.048704	0.26826	0.095142	0.069425	0.10033	0.14956	-0.6	-0.55417	-1.2542	-0.74583	-0.91042	-1.2771	-0.54375	-1.1958	-1.1896	-0.44583	-1.4542	-0.56875	-0.86875	-1.6208	-0.52083	-1.1812	210.682	254.552	281.962	216.076	290.151	364.749	231.441	229.881	242.212	435.783	190.518	264.584	371.513	393.245	334.277	502.519	0.00032582	0.00010286	4.3005e-05	134.66	4.9852e-07	6.4616e-07	183.6	46.94	1.141e-06	9.9542e-07	82.36	38.411	17.881	6.2993	5.3577e-07	15.595	6.1696e-06	2.4235e-06	4.1136e-07	119.56	2.3049e-08	1.271e-08	164.21	41.644	2.0525e-08	2.201e-08	71.023	33.222	15.564	5.4262	2.1896e-08	13.625	498.997	228.206	247.552	188.702	338.080	347.245	188.599	196.084	288.411	295.064	191.765	196.653	198.855	204.247	296.136	201.065	-8191	255	
3733.346	1	1	0	0	0.3472	0.12601	0.11433	0.16314	0.12249	0.041593	0.23311	0.27618	0.17608	0.10308	0.32783	0.184	0.13913	0.20941	0.26005	0.25122	-0.74792	-0.51458	-1.3604	-0.77708	-0.8875	-1.4167	-0.60417	-1.1938	-1.2062	-0.39167	-1.3438	-0.75417	-0.54583	-1.5854	-0.37083	-1.0938	237.312	403.536	481.683	227.269	426.932	341.571	475.600	346.355	203.919	436.551	359.985	519.983	474.555	359.267	469.125	463.806	0.00030496	9.2065e-05	1.5078e-06	135.3	2.1106e-07	8.013e-07	182.85	47.875	9.8104e-07	3.562e-07	82.313	38.834	18.264	6.3442	7.5287e-07	16.163	5.9764e-06	2.1634e-06	2.9399e-07	118.32	2.1251e-08	1.4826e-08	161.4	42.011	2.1682e-08	2.2512e-08	71.19	33.758	15.784	5.5024	2.5011e-08	13.95	499.361	211.122	302.986	187.969	263.839	304.173	188.683	195.179	312.218	272.346	193.278	196.472	198.700	204.205	308.791	200.903	-8191	255	
3733.442	1	1	0	0	0.16489	0.051167	0.25723	0.2083	0.18928	0.15537	0.17575	0.25277	0.15843	0.1672	0.08272	0.13417	0.14664	0.15458	0.10222	0.14323	-0.72917	-0.35417	-1.375	-0.64375	-0.71042	-1.5146	-0.75417	-1.0063	-1.3083	-0.37708	-1.2875	-0.775	-0.64583	-1.3375	-0.45	-1.1187	359.409	347.836	221.751	483.624	183.622	409.047	512.528	426.748	209.630	276.232	330.520	393.000	259.729	231.039	350.526	247.266	0.00028023	5.2706e-05	2.4255e-05	133.61	5.822e-07	7.2105e-07	183.31	47.201	8.2423e-07	1.0088e-06	82.424	39.036	17.954	6.3545	9.0826e-07	16.108	5.7723e-06	2.3693e-06	3.8076e-07	118.87	2.2699e-08	1.6485e-08	163.21	41.907	2.2854e-08	2.1447e-08	71.799	33.926	15.8	5.4629	2.5968e-08	13.855	498.080	227.235	251.762	189.046	284.678	296.061	188.353	195.342	274.906	295.130	193.194	196.616	198.659	204.973	273.394	200.214	-8191	255	
3733.563	1	1	0	0	0.14117	0.20641	0.07285	0.17328	0.32682	0.051033	0.22086	0.030596	0.096701	0.15546	0.19669	0.13039	0.066191	0.13155	0.14001	0.023281	-0.9125	-0.48125	-1.425	-0.83125	-0.41875	-1.5375	-0.53958	-1.1542	-1.3375	-0.46875	-1.4208	-0.7625	-0.69167	-1.6125	-0.42708	-0.96667	513.604	270.162	478.305	223.802	364.597	462.637	213.913	301.475	363.893	342.666	201.992	467.383	465.678	441.910	349.763	355.163	0.00029459	0.00010005	1.1336e-05	133.14	1.0968e-06	4.0138e-07	184.4	46.716	1.2094e-06	5.329e-07	81.045	38.918	18.284	6.3681	4.9541e-07	16.154	5.6531e-06	2.3554e-06	2.8121e-07	118.59	2.343e-08	1.0442e-08	164.18	41.686	2.2626e-08	2.2893e-08	71.156	33.826	15.768	5.4658	2.4175e-08	13.885	497.068	257.350	282.340	188.374	290.778	394.408	188.341	195.342	302.481	334.375	192.691	196.095	199.322	204.332	250.753	200.162	-8191	255	
3733.657	1	1	0	0	0.23353	0.14296	0.055252	0.0438	0.22848	0.17776	0.12651	0.081545	0.26803	0.13909	0.21791	0.20629	0.083672	0.30877	0.19018	0.21038	-0.92708	-0.44792	-1.4312	-1.0083	-0.43958	-1.4667	-0.65833	-0.9125	-1.3479	-0.41458	-1.3583	-0.85208	-0.625	-1.4479	-0.87917	-0.87083	430.127	368.274	491.991	407.860	426.642	232.671	416.492	429.641	272.266	419.849	421.601	194.655	425.163	433.561	333.800	338.908	0.00028078	0.00012821	2.2239e-05	132.15	3.7893e-07	6.5931e-07	180.93	47.404	7.7027e-07	1.0732e-06	82.504	39.547	18.476	6.2047	8.0504e-07	16.01	5.3736e-06	2.2524e-06	4.253e-07	117.71	2.4633e-08	1.2863e-08	161.94	42.026	1.7373e-08	2.2771e-08	71.609	33.994	15.868	5.4506	2.2762e-08	13.845	497.866	223.412	239.350	188.019	308.661	332.385	188.724	195.186	290.648	315.097	192.823	196.819	199.091	204.343	291.656	200.863	-8191	255	
3733.753	1	1	0	0	0.16076	0.1716	0.32131	0.20609	0.16786	0.31532	0.3341	0.32614	0.1954	0.202	0.26794	0.033156	0.21131	0.05126	0.18515	0.095453	-1.125	-0.53125	-1.2625	-1.1667	-0.45833	-1.5583	-0.74167	-0.81667	-1.6125	-0.40625	-1.3479	-1.3979	-0.36667	-1.4833	-0.81458	-0.93958	382.989	313.447	229.744	465.741	273.845	279.864	296.940	201.733	308.114	532.570	385.635	452.857	444.674	242.434	469.447	485.804	0.00033928	9.0233e-05	1.9262e-05	136.02	1.9362e-07	8.4487e-07	184.31	46.693	9.0339e-07	1.6327e-07	81.894	39.195	18.231	6.2364	8.4227e-07	16.004	5.986e-06	2.4235e-06	4.2414e-07	119.74	2.3399e-08	1.3304e-08	164.43	41.571	1.617e-08	1.9453e-08	71.07	33.931	15.76	5.4402	2.375e-08	13.738	496.508	242.810	273.311	188.993	291.348	321.796	188.951	195.695	301.087	252.165	192.746	196.150	199.740	203.389	271.001	200.300	-8191	255	
3733.825	1	1	0	0	0.044536	0.087156	0.052102	0.17837	0.20313	0.37065	0.11193	0.08303	0.031194	0.06618	0.08406	0.094994	0.16328	0.16957	0.069683	0.097022	-1.2375	-0.3875	-1.4417	-1.0146	-0.38542	-1.5771	-0.81458	-0.72083	-1.4625	-0.50208	-1.3438	-1.3687	-0.525	-1.4146	-0.81875	-0.75625	521.146	321.694	297.801	520.846	200.020	322.310	500.226	252.741	343.534	182.228	448.055	315.887	368.456	386.555	351.338	359.484	0.000321	8.5537e-05	3.002e-05	135.68	1.0235e-06	9.3332e-07	186.09	46.963	1.2658e-06	1.0759e-07	81.015	39.24	17.928	6.3234	1.1611e-06	15.99	5.5298e-06	2.5974e-06	4.3654e-07	119.65	2.7909e-08	1.3213e-08	164.53	41.996	1.9794e-08	1.8966e-08	71.462	33.988	15.657	5.475	2.1091e-08	13.879	500.540	214.250	272.951	188.204	338.054	334.034	188.723	194.983	305.871	339.170	192.673	196.491	199.689	204.977	279.383	200.728	-8191	255	
3733.945	1	1	0	0	0.19438	0.1788	0.10985	0.155	0.10706	0.17489	0.19633	0.17078	0.24697	0.094997	0.061184	0.071758	0.030471	0.16176	0.20486	0.23595	-1.1667	-0.65625	-1.1562	-1.1792	-0.55625	-1.4958	-0.95	-0.58333	-1.6021	-0.89792	-1.1646	-1.3875	-0.68542	-1.3771	-1.0042	-0.73333	463.713	390.423	349.798	458.129	374.292	297.216	354.603	309.375	333.817	310.633	209.379	353.179	518.209	280.631	306.805	229.678	0.00028709	8.0222e-05	3.3079e-05	133.61	5.8279e-07	8.3417e-07	181.08	47.537	4.3778e-07	5.6673e-07	83.792	38.994	17.942	6.3355	8.5702e-07	16.299	5.7298e-06	1.9742e-06	5.2059e-07	118.31	2.2211e-08	1.5146e-08	162.8	42.317	1.9459e-08	2.3654e-08	72.304	34.263	15.845	5.526	1.6806e-08	14.115	496.847	242.867	219.678	188.754	287.662	296.087	189.212	194.969	269.488	348.696	192.942	196.585	198.933	204.694	258.630	200.949	-8191	255	
3734.042	1	1	0	0	0.35798	0.34366	0.15737	0.18531	0.34934	0.13794	0.058731	0.12421	0.033999	0.18685	0.23549	0.23398	0.18032	0.22012	0.27435	0.2157	-1.2125	-0.72708	-1.1271	-1.3104	-0.51667	-1.2521	-0.90833	-0.67083	-1.5792	-0.68958	-0.94792	-1.5708	-0.45	-1.7208	-1.1313	-0.48542	429.499	465.532	489.878	383.813	516.646	381.455	349.467	366.294	237.249	211.955	391.265	439.990	346.366	231.919	441.928	499.825	0.00029747	0.00011108	5.3163e-05	133.89	7.866e-07	5.3127e-07	186.12	47.619	1.0576e-06	1.2584e-06	82.301	38.982	18.137	6.2743	4.7324e-07	16.413	5.8312e-06	2.1842e-06	5.9031e-07	119.18	2.4161e-08	1.5663e-08	163.78	42.413	2.0662e-08	2.2467e-08	72.096	34.279	15.872	5.5198	1.7611e-08	14.06	495.232	232.146	229.772	188.266	312.031	339.018	188.547	195.554	295.685	309.062	193.024	196.089	199.854	204.182	323.470	200.182	-8191	255	
3734.138	1	1	0	0	0.098395	0.070674	0.046342	0.06605	0.12886	0.13382	0.13447	0.1023	0.069652	0.22742	0.29992	0.23168	0.0050433	0.33906	0.057462	0.20162	-1.0542	-0.6875	-1.0229	-1.3292	-0.45833	-1.2854	-1.0167	-0.49375	-1.4271	-0.69792	-1.0771	-1.2875	-0.49375	-1.4458	-1.3979	-0.69167	455.296	490.798	230.879	313.345	240.623	261.816	466.674	523.998	511.762	290.798	431.112	410.302	348.045	477.097	327.862	456.142	0.00033355	5.318e-05	3.6315e-05	134.53	9.6208e-07	4.8912e-07	180.05	47.095	7.8259e-07	6.5331e-07	80.778	38.827	18.18	6.3602	3.435e-07	16.21	6.1532e-06	1.8782e-06	5.202e-07	118.46	2.4146e-08	1.3593e-08	161.87	41.75	1.9367e-08	1.6515e-08	71.203	33.783	15.798	5.4999	1.7094e-08	13.996	494.764	203.788	253.197	188.937	311.719	356.783	187.992	195.442	285.266	285.541	192.667	196.379	199.002	204.465	304.546	200.417	-8191	255	
3734.234	1	1	0	0	0.05291	0.066774	0.047307	0.10169	0.12578	0.17626	0.096889	0.073689	0.099579	0.32976	0.05764	0.15092	0.17584	0.2498	0.18332	0.21492	-1.3271	-0.91667	-0.67917	-1.4896	-0.475	-1.3417	-1.2812	-0.49792	-1.5021	-0.82708	-1.0229	-1.6063	-0.51667	-1.1354	-1.2604	-0.375	412.787	295.903	450.496	337.277	312.181	512.830	186.271	526.016	367.772	216.641	277.633	221.143	190.682	498.481	308.274	199.698	0.00030174	0.00012224	2.5305e-05	132.52	8.4727e-07	6.7876e-07	178.18	47.44	1.1679e-06	1.0826e-06	84.083	39.132	18.254	6.365	7.5897e-07	16.254	5.4818e-06	2.2093e-06	4.9657e-07	117.99	2.3963e-08	1.7581e-08	159.71	42.088	1.9108e-08	2.0473e-08	72.347	34.149	15.887	5.5488	1.9222e-08	14.084	497.237	228.788	236.583	188.621	332.004	322.007	188.429	194.666	302.416	288.952	193.224	196.911	199.152	204.474	297.491	200.090	-8191	255	
3734.354	1	1	0	0	0.18766	0.43566	0.17558	0.097003	0.12577	0.11259	0.25896	0.13519	0.28578	0.21646	0.15289	0.2348	0.12861	0.30182	0.14702	0.30163	-1.2271	-0.775	-0.73542	-1.5375	-0.24792	-1.1292	-1.1479	-0.34167	-1.6187	-0.94583	-0.79375	-1.4646	-0.65208	-1.0458	-1.2896	-0.58125	318.478	466.028	431.823	343.633	411.913	451.802	403.558	535.557	310.582	294.035	513.092	474.809	505.946	278.138	329.321	217.498	0.00033355	7.2335e-05	2.8732e-05	133.77	6.787e-07	7.8371e-07	178.84	47.592	1.4422e-06	1.3366e-06	83.385	39.756	18.125	6.5329	5.8408e-07	16.436	5.986e-06	1.7112e-06	4.7953e-07	118.07	2.6203e-08	1.5237e-08	160.41	42.285	2.0722e-08	1.8601e-08	72.381	34.496	15.789	5.6035	1.7337e-08	14.267	498.180	230.538	244.354	188.808	339.312	336.746	189.218	195.461	282.579	322.924	193.262	196.366	199.147	204.763	218.520	200.689	-8191	255	
3734.426	1	1	0	0	0.19789	0.2483	0.45698	0.13389	0.093149	0.11849	0.1037	0.1532	0.089256	0.16753	0.16147	0.16024	0.013388	0.079712	0.22597	0.16248	-0.925	-0.94792	-0.62708	-1.6125	-0.41458	-0.9	-1.3854	-0.34583	-1.4375	-1.0021	-0.74583	-1.6812	-0.50833	-1.1333	-1.3375	-0.4875	317.040	457.689	457.903	460.374	373.393	417.687	382.893	466.423	471.343	354.426	425.185	252.403	508.933	253.504	277.318	477.322	0.00030713	8.5459e-05	3.2016e-05	134.11	5.864e-07	7.8825e-07	179.66	47.645	1.0318e-06	9.9148e-07	82.635	39.381	18.184	6.5151	8.6938e-07	16.634	5.7613e-06	1.8782e-06	4.5784e-07	117.85	2.4847e-08	1.6942e-08	159.77	42.362	2.0494e-08	1.6226e-08	72.428	34.502	15.894	5.6729	1.9237e-08	14.432	494.093	211.028	226.583	188.105	328.689	347.180	188.928	195.476	305.633	302.151	193.231	196.820	198.456	204.203	281.309	200.991	-8191	255	
3734.522	1	1	0	0	0.23665	0.23611	0.28482	0.22487	0.1303	0.1498	0.19046	0.18898	0.17165	0.13649	0.05803	0.30047	0.20831	0.018191	0.29427	0.29417	-1.0021	-0.83542	-0.56875	-1.5646	-0.55208	-0.99583	-1.4479	-0.55	-1.3833	-0.95208	-0.66667	-1.6167	-0.77917	-0.75	-1.4688	-0.25625	178.907	266.380	372.914	406.289	340.464	266.059	274.463	352.768	302.861	190.665	386.259	204.750	295.837	320.806	355.800	374.365	0.0003426	9.8012e-05	3.3969e-05	131.93	3.8743e-07	7.8816e-07	174.84	47.563	6.6917e-07	6.0209e-07	82.985	39.51	18.165	6.4023	8.4121e-07	16.491	6.271e-06	1.9463e-06	5.3376e-07	117.3	2.2242e-08	2.1859e-08	156.63	42.246	1.9961e-08	1.65e-08	72.806	34.431	15.841	5.6375	1.5256e-08	14.364	497.365	239.024	213.359	189.064	342.082	306.693	188.464	194.750	310.855	351.293	192.644	196.074	198.744	205.545	318.867	200.246	-8191	255	
3734.643	1	1	0	0	0.15374	0.14509	0.12662	0.063792	0.20083	0.21674	0.16306	0.096727	0.12456	0.21537	0.13728	0.12778	0.15024	0.3418	0.046187	0.16186	-1.0854	-1.0729	-0.42292	-1.6125	-0.57292	-0.81667	-1.5875	-0.28125	-1.2625	-1.1417	-0.53333	-1.4354	-0.68542	-0.82083	-1.7563	-0.36042	340.302	417.334	471.943	328.086	281.954	307.232	448.302	280.504	496.760	313.096	226.351	468.255	502.258	535.133	362.449	380.163	0.00023744	3.1994e-05	2.0028e-05	134.83	6.6754e-07	5.6453e-07	178.21	48.297	9.5854e-07	8.0874e-07	83.844	39.874	18.193	6.584	1.3137e-06	16.809	5.0612e-06	1.3231e-06	5.0626e-07	117.45	2.1419e-08	2.0702e-08	157.47	42.456	2.2945e-08	1.8129e-08	72.467	34.569	15.847	5.7104	1.717e-08	14.562	497.279	231.888	234.234	189.161	318.124	324.473	189.172	195.599	287.488	288.971	193.415	196.813	199.109	204.705	305.005	200.564	-8191	255	
3734.737	1	1	0	0	0.13879	0.18666	0.12734	0.11471	0.20735	0.092426	0.11315	0.29366	0.1292	0.10544	0.18106	0.27093	0.27789	0.14707	0.13297	0.17031	-0.70625	-1.2333	-0.6625	-1.5083	-0.52708	-0.6875	-1.5667	-0.33958	-1.225	-1.3	-0.6	-1.5438	-0.8875	-0.79583	-1.6583	-0.475	254.772	375.138	398.516	276.951	492.867	532.643	208.653	497.979	442.132	405.401	202.965	435.999	493.025	510.383	332.055	443.236	0.00032061	6.6674e-05	4.6204e-05	131.33	9.3479e-07	7.0142e-07	175.15	47.074	1.3991e-06	7.8189e-07	83.951	39.675	18.238	6.4635	1.2236e-06	16.327	6.1299e-06	1.522e-06	5.0819e-07	116.52	2.2942e-08	1.9241e-08	157.36	42.612	2.2961e-08	1.5845e-08	73.205	34.5	15.969	5.6869	1.6426e-08	14.405	498.261	209.207	240.150	189.467	285.831	328.215	188.685	195.306	298.745	335.991	192.922	196.335	198.658	205.174	268.845	200.120	-8191	255	
3734.833	1	1	0	0	0.16684	0.050311	0.13119	0.25974	0.16281	0.23024	0.33839	0.03397	0.26537	0.038552	0.040916	0.27549	0.20227	0.079988	0.10816	0.076752	-0.83542	-1.4146	-0.36667	-1.4771	-0.59792	-0.68958	-1.6333	-0.42083	-1.2208	-1.3	-0.46458	-1.2833	-0.90417	-0.68333	-1.7958	-0.72083	260.721	480.506	204.160	205.237	427.079	233.751	237.920	203.352	283.206	524.172	185.276	218.576	447.832	279.494	410.256	414.490	0.00031227	0.00010695	2.7941e-05	134.24	1.0087e-06	5.3378e-07	178.4	46.068	6.7908e-07	6.3466e-07	82.546	38.492	18.027	6.4516	1.1735e-06	16.999	5.6942e-06	1.6862e-06	5.7017e-07	118.14	2.3095e-08	1.9956e-08	158.68	41.081	1.99e-08	1.4552e-08	72.139	33.908	15.817	5.5843	1.518e-08	14.331	499.385	213.349	258.503	188.541	317.794	300.194	188.761	195.551	337.571	328.902	192.725	196.780	198.621	203.746	280.498	200.308	-8191	255	
3734.930	1	1	0	0	0.062032	0.15555	0.12189	0.41301	0.079382	0.24581	0.17884	0.10667	0.14621	0.053872	0.25366	0.17372	0.10828	0.2009	0.12852	0.15747	-0.77917	-1.3708	-0.25	-1.5562	-0.97083	-0.47917	-1.4792	-0.40833	-1.0792	-1.3021	-0.30417	-1.2208	-0.86875	-0.50208	-1.5229	-0.47708	289.903	423.670	417.231	370.528	399.757	401.885	348.748	421.946	385.757	402.606	396.160	263.932	435.026	244.636	321.130	448.818	0.00029344	9.433e-05	2.3085e-05	135.09	8.9699e-07	6.7031e-07	184	48.455	5.4359e-07	9.7851e-07	86.126	39.943	18.869	6.5985	8.7817e-07	16.853	5.7024e-06	1.3606e-06	5.8992e-07	116.44	1.9728e-08	2.227e-08	159.45	41.772	2.0844e-08	1.3273e-08	72.377	34.234	15.805	5.5861	1.5256e-08	14.185	496.724	223.407	260.689	188.427	356.798	275.943	187.900	193.839	275.094	311.909	191.920	195.852	197.958	203.383	277.280	199.358	-8191	255	
3735.050	1	1	0	0	0.23353	0.066346	0.087306	0.075694	0.19061	0.08662	0.32719	0.27334	0.15632	0.23193	0.15883	0.19634	0.054277	0.10924	0.13921	0.2554	-0.66667	-1.5583	-0.43958	-1.4083	-1.0583	-0.51042	-1.7396	-0.35833	-0.78958	-1.475	-0.49375	-1.1313	-0.96875	-0.52083	-1.5229	-0.56875	478.084	453.312	426.088	471.196	437.140	239.698	230.149	192.439	327.486	458.817	517.647	374.433	449.691	512.980	258.572	195.323	0.00034051	7.3079e-05	3.6778e-05	137.58	3.753e-07	8.0204e-07	183.21	48.59	5.1096e-07	5.4371e-07	85.125	40.558	18.789	6.3733	8.029e-07	16.782	6.3737e-06	1.3634e-06	5.0122e-07	118.03	2.081e-08	2.1417e-08	159.88	41.708	2.2824e-08	1.3517e-08	72.106	34.271	15.801	5.524	1.3144e-08	14.051	501.059	195.198	226.499	188.015	296.810	311.301	187.876	194.301	291.922	282.401	191.411	195.654	198.800	204.219	279.286	199.577	-8191	255	
3735.122	1	1	0	0	0.19339	0.24254	0.15098	0.18927	0.049958	0.12687	0.24116	0.17389	0.11068	0.13942	0.10296	0.32167	0.068167	0.27632	0.18665	0.095639	-0.54167	-1.3979	-0.19583	-1.3146	-1.2146	-0.24792	-1.4375	-0.46667	-0.8375	-1.4521	-0.22708	-1.4312	-1.2792	-0.275	-1.3771	-0.66458	198.867	405.615	398.055	253.736	184.795	339.098	177.966	325.076	501.598	222.260	369.286	253.651	330.634	525.809	349.618	381.761	0.00032425	0.00015435	1.567e-05	136.06	8.6e-07	5.9727e-07	184.38	47.907	7.8875e-07	1.349e-06	84.172	40.072	18.299	6.6786	6.8625e-07	16.872	6.3518e-06	1.6472e-06	6.1162e-07	117.67	1.6788e-08	1.7825e-08	160.07	41.677	2.2138e-08	1.3243e-08	72.261	34.056	15.785	5.6324	1.5985e-08	14.312	496.583	230.129	220.650	187.675	286.162	288.727	188.574	194.864	304.235	306.838	191.880	196.270	198.196	203.257	262.238	199.474	-8191	255	
3735.243	1	1	0	0	0.21714	0.17161	0.15957	0.23475	0.11236	0.24718	0.27071	0.39883	0.14966	0.13808	0.069587	0.26597	0.16951	0.16595	0.30558	0.23889	-0.40417	-1.3292	-0.58333	-1.1792	-0.95833	-0.35208	-1.3833	-0.68125	-0.55	-1.4854	-0.6875	-1.1333	-0.96667	-0.34583	-1.3083	-0.925	416.871	522.789	378.782	471.408	446.375	371.974	269.887	278.742	476.896	362.356	481.558	301.664	294.894	353.836	364.796	339.627	0.00028648	6.2461e-05	5.8932e-05	134.99	2.3233e-07	7.9651e-07	180.85	48.602	6.0201e-07	7.4325e-07	85.147	40.326	18.588	6.6267	4.1236e-07	17.049	6.1066e-06	1.3356e-06	5.4925e-07	117.13	1.7108e-08	1.9606e-08	157.88	41.971	2.1941e-08	1.1157e-08	72.74	34.524	15.898	5.6445	1.6471e-08	14.365	498.298	230.700	215.167	188.703	288.525	351.870	188.659	194.196	272.861	360.100	191.811	195.359	197.977	203.286	299.955	199.965	-8191	255	
3735.339	1	1	0	0	0.094526	0.22923	0.27731	0.10725	0.25813	0.1394	0.07843	0.41442	0.24733	0.078856	0.21247	0.26333	0.19776	0.14108	0.10421	0.27269	-0.32292	-1.4417	-0.44583	-0.81458	-1.1437	-0.475	-1.3937	-0.76667	-0.53958	-1.4542	-0.38958	-1.0979	-1.4188	-0.36458	-1.3125	-1.0042	285.394	271.615	522.832	334.972	200.959	474.780	197.156	369.195	181.833	351.802	374.500	254.894	337.773	311.211	364.491	209.254	0.00031786	8.0498e-05	4.3931e-05	131.5	8.0967e-07	1.0848e-06	183.91	48.684	1.0529e-06	1.2251e-06	86.249	40.774	18.748	6.6561	5.9693e-07	16.778	6.4505e-06	1.4705e-06	5.539e-07	116.29	1.4213e-08	2.0291e-08	158.94	41.81	2.7224e-08	1.0548e-08	73.091	34.362	15.826	5.6061	1.8857e-08	14.205	494.475	273.734	213.874	188.009	270.082	337.243	188.554	195.110	308.662	308.522	191.422	196.017	199.097	203.278	286.177	199.605	-8191	255	
3735.435	1	1	0	0	0.063479	0.16449	0.26813	0.028525	0.056228	0.17037	0.22712	0.081523	0.17217	0.28257	0.063042	0.066567	0.21414	0.15502	0.23922	0.20903	-0.38542	-1.4062	-0.625	-1	-1.2188	-0.3625	-1.3104	-0.86875	-0.28542	-1.5792	-0.55625	-0.9	-1.2833	-0.32917	-1.3271	-0.97083	225.876	322.503	489.677	237.140	464.812	325.165	422.245	515.971	385.728	420.330	206.530	402.168	486.468	338.887	223.194	197.464	0.00031711	4.8325e-05	2.8058e-05	133.92	3.8096e-07	9.8996e-07	182.35	47.849	9.2337e-07	1.4003e-06	84.873	39.828	18.389	6.5253	1.089e-06	16.996	6.5272e-06	1.3453e-06	6.3757e-07	116.65	1.8052e-08	1.9758e-08	158.05	41.459	2.6782e-08	1.6013e-08	72.389	34.134	15.707	5.6198	2.0179e-08	14.231	499.220	196.860	212.699	188.552	279.248	318.570	187.453	194.663	296.175	307.492	191.404	196.002	198.316	203.903	284.354	200.125	-8191	255	
3735.531	1	1	0	0	0.39763	0.05218	0.3018	0.33054	0.35595	0.18006	0.096994	0.15034	0.17846	0.32631	0.11554	0.047726	0.10493	0.11288	0.18375	0.17022	-0.24375	-1.4292	-0.44375	-0.74583	-1.5021	-0.47083	-1.5438	-1.0729	-0.56042	-1.5146	-0.60208	-0.81042	-1.5896	-0.42083	-1.5542	-1.2604	449.620	204.448	275.006	435.076	218.479	282.453	477.097	250.343	214.776	268.775	200.157	342.136	413.332	471.249	360.326	517.252	0.00032635	0.00013332	3.7785e-05	134.48	8.2516e-07	7.6056e-07	180.89	48.101	9.3233e-07	1.3072e-06	84.869	40.069	18.241	6.5523	1.0901e-06	16.92	6.4655e-06	1.4858e-06	5.6668e-07	116.37	1.5782e-08	1.8069e-08	157.97	41.656	2.6219e-08	1.478e-08	72.925	34.264	15.626	5.6297	1.8872e-08	14.367	494.738	213.723	239.105	188.113	300.564	354.837	187.601	194.605	303.920	350.805	191.345	195.566	197.440	203.384	294.515	199.150	-8191	255	
3735.650	1	1	0	0	0.18492	0.053491	0.10861	0.14694	0.26377	0.086232	0.26278	0.14088	0.16778	0.35913	0.13002	0.047846	0.05632	0.10938	0.11535	0.17525	0.022917	-1.6792	-0.64167	-0.8125	-1.6437	-0.22708	-1.2396	-1.0417	-0.15	-1.6292	-0.77292	-0.89583	-1.35	-0.44375	-1.075	-1.3729	373.108	423.060	478.948	325.444	360.531	232.714	489.839	407.480	378.423	227.518	419.926	496.487	459.957	445.568	418.642	205.610	0.00030953	0.00012017	2.9307e-05	133.33	5.0886e-07	9.0836e-07	179.3	47.266	5.4288e-07	5.7947e-07	85.644	40.358	18.533	6.7234	1.1074e-06	17.255	6.471e-06	1.5568e-06	4.8728e-07	115.38	1.4914e-08	2.0595e-08	157.19	41.257	2.4651e-08	1.0564e-08	73.081	34.412	15.759	5.6738	2.0164e-08	14.576	497.848	216.297	234.946	188.222	284.908	329.726	188.668	194.362	338.195	323.141	191.398	196.100	197.704	203.453	283.822	199.547	-8191	255	
3735.722	1	1	0	0	0.12351	0.11344	0.43841	0.26832	0.07121	0.20277	0.18917	0.063817	0.08834	0.099422	0.012338	0.135	0.089211	0.10716	0.016426	0.16397	-0.095833	-1.3854	-0.82917	-0.65417	-1.6667	-0.5625	-1.3021	-1.1	-0.34792	-1.3708	-0.69583	-0.76667	-1.4479	-0.44583	-1.0938	-1.2292	278.365	193.393	495.704	496.612	462.096	433.040	510.252	413.483	487.853	246.693	250.045	296.717	404.161	528.707	417.714	419.321	0.00031213	0.00010936	2.0049e-05	133.27	7.8166e-07	8.7693e-07	177.5	47.288	8.1362e-07	7.1035e-07	86.076	40.172	18.61	6.755	2.1608e-07	16.914	6.8546e-06	1.369e-06	4.6869e-07	114.51	1.6651e-08	2.1235e-08	155.92	41.203	2.6295e-08	1.3791e-08	73.095	34.229	15.73	5.7019	2.068e-08	14.467	496.528	182.473	206.033	188.616	297.271	321.225	188.417	194.602	329.200	309.756	191.663	195.733	198.206	203.794	380.041	200.312	-8191	255	
3735.818	1	1	0	0	0.076811	0.22591	0.11019	0.35566	0.068419	0.1699	0.25894	0.17601	0.27506	0.33459	0.072322	0.038896	0.068904	0.22542	0.23438	0.19053	-0.11042	-1.2437	-0.54167	-0.825	-1.5104	-0.70833	-1.3167	-1.3188	-0.39792	-1.6875	-0.71458	-0.68333	-1.6542	-0.58542	-1.0875	-1.4417	200.712	522.653	484.196	465.179	272.708	523.937	487.247	201.076	446.442	212.586	490.750	534.721	365.758	478.152	364.802	408.303	0.00029311	5.4507e-05	2.8953e-05	130.6	8.6173e-07	4.6405e-07	179.94	47.069	7.3786e-07	6.6684e-07	84.209	39.02	18.071	6.3079	1.0794e-06	16.748	6.5601e-06	1.6514e-06	5.2214e-07	114.43	1.563e-08	1.9636e-08	156.95	40.704	2.7163e-08	1.3897e-08	71.793	33.626	15.529	5.4905	2.1638e-08	14.213	498.856	229.924	216.875	188.095	312.185	318.208	188.218	194.944	282.940	298.930	192.062	195.893	198.703	203.408	286.464	199.877	-8191	255	
3735.914	1	1	0	0	0.25795	0.24319	0.11684	0.12976	0.06262	0.18684	0.12285	0.076559	0.029056	0.08424	0.28824	0.18752	0.34806	0.17791	0.24343	0.094573	-0.21875	-1.3354	-0.825	-0.59583	-1.6	-0.6125	-1.025	-1.3146	-0.5125	-1.4479	-0.9625	-0.62083	-1.4042	-0.60208	-0.91042	-1.5187	238.062	521.810	413.725	282.355	346.593	511.049	217.747	388.033	485.872	185.649	476.205	505.413	349.741	447.379	366.100	457.888	0.00032924	5.7548e-05	3.6585e-05	132.05	5.1409e-07	7.3389e-07	179	45.509	6.5385e-07	7.1522e-07	83.957	39.554	18.017	6.4039	7.0556e-07	16.913	6.3916e-06	1.4483e-06	4.3537e-07	114.33	1.4564e-08	1.7779e-08	158.24	40.306	2.6691e-08	1.3471e-08	71.597	33.89	15.532	5.5162	1.8431e-08	14.384	493.137	262.708	263.508	187.910	291.820	324.629	188.398	194.517	303.021	323.459	192.111	196.048	198.744	202.929	260.618	199.401	-8191	255	
3736.012	1	1	0	0	0.11489	0.28918	0.1398	0.21621	0.10747	0.24522	0.10771	0.14676	0.23497	0.2142	0.36434	0.31957	0.17139	0.11894	0.19527	0.31003	-0.21667	-1.3042	-1.0292	-0.65	-1.4542	-0.75625	-0.99792	-1.5083	-0.59583	-1.2854	-1.1458	-0.26042	-1.3458	-0.62708	-0.975	-1.6667	512.700	510.548	502.153	411.939	370.780	514.394	450.413	371.191	279.488	454.774	498.261	217.328	230.448	480.994	193.180	512.867	0.00030123	5.6823e-05	4.3196e-05	130.44	1.2296e-06	8.2426e-07	179.72	46.148	6.2931e-07	5.4054e-07	84.29	39.886	17.916	6.5085	8.168e-07	17.207	6.3463e-06	1.6124e-06	4.4506e-07	113.88	1.7397e-08	1.8936e-08	158.27	40.317	2.462e-08	1.2558e-08	72.33	34.081	15.49	5.6002	2.2245e-08	14.632	493.387	240.805	240.240	188.412	320.806	325.301	188.146	195.659	320.396	271.612	192.347	196.468	198.458	203.664	261.440	199.565	-8191	255	
3736.131	1	1	0	0	0.29695	0.043697	0.12054	0.24625	0.023139	0.19216	0.18987	0.2441	0.26494	0.30028	0.25989	0.11682	0.2872	0.085294	0.079248	0.23338	0.35417	-1.3625	-1.4062	-0.44167	-1.6854	-0.63125	-0.74583	-1.7437	-0.31667	-1.4792	-1.4062	-0.28542	-2.1333	-0.59583	-0.7375	-1.9396	510.937	520.558	345.791	317.818	507.014	234.796	439.976	355.256	204.952	528.005	256.398	198.056	343.280	532.272	527.706	445.371	0.00028852	6.6286e-05	3.8038e-05	131.61	2.9657e-07	7.7904e-07	178.93	45.481	1.0744e-06	1.0775e-06	84.847	39.697	17.929	6.4713	1.2417e-06	17.25	6.5587e-06	1.2382e-06	3.765e-07	113.33	9.7955e-09	1.9789e-08	158.83	40.11	2.8396e-08	1.4308e-08	72.857	34.021	15.469	5.5875	2.6713e-08	14.71	497.289	254.826	240.686	187.825	258.679	300.431	188.931	194.958	325.359	315.371	193.058	196.125	199.170	204.210	282.266	200.039	-8191	255	
3736.227	1	1	0	0	0.35425	0.07037	0.21655	0.13689	0.12851	0.124	0.19146	0.21442	0.16795	0.38794	0.2599	0.38069	0.20464	0.29651	0.25595	0.10899	0.045833	-1.1792	-1.2625	-0.51667	-1.5312	-0.84583	-0.59792	-1.5083	-0.35	-1.075	-1.5208	-0.2875	-1.4729	-0.82708	-0.51875	-1.4375	500.406	190.032	353.847	367.779	517.450	395.983	392.860	485.062	497.484	367.491	491.832	448.184	391.146	485.775	177.224	429.309	0.00032523	6.0001e-05	3.5327e-05	129.43	4.2017e-07	8.3331e-07	182.58	46.095	1.0301e-06	9.7274e-07	84.302	40.301	18.135	6.4937	8.6938e-07	17.216	6.8245e-06	1.7488e-06	3.765e-07	112.46	1.272e-08	1.8967e-08	158.73	40.241	2.5047e-08	1.4415e-08	71.932	34.229	15.562	5.5677	2.2716e-08	14.595	500.799	231.149	244.929	188.825	244.800	314.422	188.321	193.860	316.032	326.601	192.053	195.615	198.622	203.462	244.413	199.514	-8191	255	
3736.323	1	1	0	0	0.30343	0.2685	0.075634	0.30759	0.076945	0.10439	0.21569	0.1853	0.087243	0.14646	0.25093	0.30174	0.12163	0.13156	0.071635	0.37834	-0.24583	-0.87708	-1.1979	-0.3875	-1.3583	-0.83958	-0.7875	-1.3583	-0.65417	-0.96458	-1.2979	-0.5625	-1.4083	-0.90833	-0.61458	-1.7083	322.248	489.762	464.594	232.928	338.676	225.937	293.483	430.115	536.298	495.592	277.273	297.345	372.630	437.097	188.117	527.602	0.00031609	5.9623e-05	3.3911e-05	131.02	7.5043e-07	7.3491e-07	181.18	47.847	1.3136e-06	8.672e-07	86.766	40.207	18.726	6.7314	6.2102e-07	17.973	6.5135e-06	1.6027e-06	4.1485e-07	112.69	1.7428e-08	1.4948e-08	157.34	41.407	2.3357e-08	1.6211e-08	73.244	34.579	15.992	5.693	2.3309e-08	15.02	500.295	211.534	246.128	188.085	269.340	322.627	187.577	194.686	298.176	330.994	192.500	195.769	198.227	203.189	299.582	199.195	-8191	255	
3736.419	1	1	0	0	0.1483	0.19004	0.2363	0.19854	0.061253	0.26213	0.27413	0.062851	0.31203	0.10909	0.27269	0.10842	0.11392	0.46906	0.13923	0.021994	-0.25833	-0.9	-1.3312	-0.44583	-1.375	-0.94583	-0.42083	-1.4979	-0.54375	-0.97083	-1.3229	-0.42292	-1.3625	-1.1688	-0.39167	-1.4021	534.900	371.555	490.516	441.524	380.661	481.160	499.600	247.947	434.878	389.775	187.381	428.848	204.695	510.535	532.703	307.777	0.00029059	0.00013315	1.7961e-05	131.86	1.0436e-06	8.7706e-07	182.43	47.661	5.9963e-07	4.3162e-07	86.831	41.462	18.865	6.6952	3.6904e-07	18.116	6.6902e-06	2.0869e-06	3.6217e-07	113.43	1.7611e-08	1.9088e-08	158.28	41.449	2.4255e-08	1.8829e-08	73.458	35.023	15.902	5.6957	2.3537e-08	15.142	497.971	226.136	237.181	188.591	288.097	321.878	187.862	194.322	302.125	285.636	192.108	195.799	198.838	203.025	305.759	199.574	-8191	255	
3736.515	1	1	0	0	0.076988	0.23423	0.21383	0.23346	0.1651	0.063836	0.085703	0.37877	0.32127	0.1163	0.16166	0.13667	0.18758	0.20713	0.052936	0.15745	-0.26667	-0.9125	-1.5208	-0.325	-1.1958	-1.0479	-0.3	-1.5271	-0.6625	-0.76458	-1.5479	-0.45417	-1.1646	-1.2521	-0.34375	-1.5417	399.600	417.007	270.959	379.878	281.382	400.687	283.952	483.696	456.213	247.517	252.173	493.744	354.467	239.790	393.794	423.236	0.00034704	0.00011262	5.3631e-05	131.16	5.6921e-07	1.0445e-06	182.87	48.24	8.9315e-07	5.765e-07	87.479	41.774	19.129	6.7655	6.2665e-07	18.396	6.5601e-06	1.7905e-06	4.04e-07	113.38	1.3574e-08	1.6942e-08	159.56	41.497	2.3006e-08	1.9438e-08	73.879	35.281	16.062	5.7631	2.808e-08	15.348	494.166	234.788	220.728	188.089	278.615	336.872	187.727	194.809	310.661	296.943	192.018	195.969	197.708	203.280	289.283	199.082	-8191	255	
3736.611	1	1	0	0	0.13782	0.083966	0.17687	0.13151	0.15653	0.16543	0.24039	0.08864	0.26498	0.11907	0.22514	0.10179	0.06341	0.069466	0.25945	0.45128	-0.41875	-0.73125	-1.2833	-0.33333	-1.0833	-1.2104	-0.20833	-1.6875	-0.80417	-0.8125	-1.8542	-0.45833	-1.1583	-1.1812	-0.40417	-1.3729	419.629	283.193	204.626	186.575	282.284	465.615	210.218	276.554	441.667	421.126	463.047	229.858	381.377	361.941	365.975	296.866	0.00035558	9.7385e-05	4.6071e-05	133.16	1.042e-06	5.3589e-07	181.43	48.79	1.2158e-06	1.5664e-06	87.329	41.627	18.975	6.9698	7.6532e-07	18.195	6.571e-06	2.4221e-06	3.4667e-07	113.29	1.7473e-08	1.2147e-08	157.31	41.702	2.5442e-08	2.3167e-08	74.056	35.141	15.901	5.7884	2.2808e-08	15.201	501.255	252.806	230.284	188.073	326.915	315.078	187.730	194.945	293.062	285.533	191.835	195.530	197.573	203.173	266.335	199.301	-8191	255	
3736.732	1	1	0	0	0.23629	0.12389	0.038347	0.27203	0.010194	0.17787	0.15427	0.076035	0.21756	0.17911	0.17992	0.1893	0.15337	0.10615	0.052282	0.3092	-0.52708	-0.56875	-1.3958	-0.40417	-1.0354	-1.3229	-0.55417	-1.2771	-0.88125	-0.80625	-1.5833	-0.46042	-1.15	-1.3979	-0.46875	-1.2729	479.656	493.812	485.334	253.476	227.900	498.078	405.443	518.587	334.598	395.154	508.590	232.462	236.042	485.564	298.250	374.992	0.0003269	5.9208e-05	1.5235e-05	132.68	8.1585e-07	4.0697e-07	182.12	48.633	1.1215e-06	6.8317e-07	87.673	41.972	18.908	6.8455	6.9407e-07	17.857	6.5464e-06	1.9213e-06	3.0368e-07	113.69	1.5722e-08	1.3182e-08	158.79	41.605	2.2047e-08	1.8646e-08	73.691	35.048	16.083	5.7897	2.302e-08	15.185	496.856	197.582	490.894	187.919	292.376	360.035	188.057	193.805	272.827	296.781	192.247	195.302	198.430	202.851	281.396	199.823	-8191	255	
3736.826	1	1	0	0	0.11562	0.14011	0.15073	0.22267	0.26197	0.43413	0.10383	0.056083	0.084286	0.22537	0.14833	0.089085	0.19911	0.13006	0.2029	0.1691	-0.60625	-0.4875	-1.6208	-0.52708	-0.65417	-1.2292	-0.47708	-1.2021	-1.0063	-0.65417	-1.4854	-0.66042	-1.0812	-1.3208	-0.40417	-1.5125	368.145	476.609	304.931	446.730	316.654	494.450	349.572	498.515	511.807	462.665	284.149	346.719	481.055	223.750	367.396	277.013	0.00033946	8.9148e-05	4.1438e-05	132.24	1.1431e-06	1.3211e-06	181.2	48.423	4.0033e-07	8.3701e-07	87.743	42.24	19.139	7.0012	7.7946e-07	18.479	6.4518e-06	2.2455e-06	3.2498e-07	113.46	2.113e-08	1.37e-08	158.26	41.628	1.9535e-08	2.2497e-08	74.149	35.497	16.134	5.8409	2.1638e-08	15.396	496.089	236.082	254.236	187.118	300.099	310.420	187.701	194.250	258.073	333.216	191.689	195.229	198.552	202.463	273.368	199.383	-8191	255	
3736.923	1	1	0	0	0.043888	0.050086	0.25409	0.19981	0.10519	0.038862	0.31513	0.26681	0.1613	0.14438	0.24429	0.12626	0.26896	0.19239	0.058881	0.15444	-0.65833	-0.51042	-1.5271	-0.65	-0.83125	-1.5771	-0.20833	-1.4312	-1.0271	-0.41458	-1.55	-0.70208	-0.77292	-1.4083	-0.19167	-1.1396	275.100	456.602	414.379	362.015	390.406	180.861	477.358	451.280	428.361	405.605	517.081	205.896	291.522	234.924	361.781	202.272	0.00034123	1.8219e-05	3.1904e-05	132.01	7.7571e-07	4.7686e-07	186.22	49.286	1.0243e-06	5.8434e-07	88.862	42.186	19.452	6.9775	9.1078e-07	18.583	6.7464e-06	1.9199e-06	3.7572e-07	113.4	1.8646e-08	1.0077e-08	160.04	41.88	2.1286e-08	1.8951e-08	74.593	35.552	16.258	5.8767	2.4357e-08	15.568	504.153	246.743	258.422	187.474	300.846	304.825	186.967	194.438	304.277	338.224	191.915	195.282	198.127	203.479	276.998	199.014	-8191	255	
3737.019	1	1	0	0	0.3119	0.086994	0.17022	0.1553	0.11665	0.071534	0.15648	0.12046	0.13152	0.26246	0.029061	0.17317	0.048601	0.15385	0.42256	0.15656	-0.47083	-0.13958	-1.4792	-0.57708	-0.59583	-1.5562	-0.25417	-1.3104	-1.1292	-0.36875	-1.525	-0.7375	-0.80833	-1.4688	-0.22292	-1.1333	212.273	408.485	267.038	459.830	468.793	286.176	352.882	291.587	449.419	378.639	214.766	436.264	509.337	313.643	454.357	368.467	0.00031859	9.5537e-05	3.3995e-05	134.2	9.0069e-07	7.0621e-07	183.21	48.969	1.0116e-06	1.0854e-06	89.341	42.245	19.218	6.9835	4.8666e-07	18.948	6.0888e-06	2.3359e-06	3.7572e-07	113.91	2.1282e-08	1.1264e-08	158.34	42.209	2.1773e-08	2.1584e-08	75.047	35.69	16.234	5.9035	2.5467e-08	15.686	496.430	232.447	261.921	188.047	312.214	310.290	187.730	194.311	294.766	265.118	191.802	195.726	198.029	203.104	226.008	198.935	-8191	255	
3737.115	1	1	0	0	0.19819	0.1906	0.20358	0.084471	0.36639	0.29552	0.084284	0.28299	0.10419	0.02394	0.077961	0.035127	0.03937	0.19575	0.31553	0.36056	-0.81458	-0.11042	-1.6896	-0.8875	-0.51667	-1.8125	-0.175	-1.1292	-1.3	-0.33333	-1.5146	-0.92708	-0.61875	-1.475	-0.45	-1.1396	207.964	186.645	225.004	496.276	318.385	473.300	233.411	215.734	448.455	293.673	356.545	495.952	364.933	524.591	286.825	417.108	0.00032912	7.621e-05	4.0509e-05	133.49	1.469e-06	8.1658e-07	186.86	49.049	1.4572e-06	4.0349e-07	89.374	42.938	19.38	7.0161	3.09e-07	18.659	5.8668e-06	2.2176e-06	3.9393e-07	113.73	2.4329e-08	1.2741e-08	159.27	42.453	1.9855e-08	1.8935e-08	75.382	36.071	16.306	5.9131	2.0392e-08	15.686	495.397	200.019	225.689	187.565	312.047	321.137	187.934	194.243	277.729	285.039	191.617	194.891	198.042	202.852	255.156	198.963	-8191	255	
3737.211	1	1	0	0	0.12435	0.27394	0.06622	0.12695	0.27247	0.1395	0.22331	0.1034	0.01179	0.24038	0.16245	0.061088	0.078372	0.087311	0.11427	0.26799	-0.85208	-0.55625	-1.4083	-0.7875	-0.63125	-1.5708	-0.4125	-1.1104	-1.4542	-0.40833	-1.4792	-0.88125	-0.5	-1.375	-0.66875	-0.98125	415.070	517.784	319.863	303.646	318.911	220.339	229.167	438.868	228.636	427.394	178.652	330.969	454.978	230.182	355.842	444.619	0.00037983	0.0001177	3.5509e-05	135.1	1.0032e-06	9.042e-07	184.33	49.439	5.0606e-07	1.0955e-06	89.961	42.598	19.383	6.9356	9.9544e-07	18.66	6.419e-06	2.1216e-06	4.3537e-07	114.79	1.8997e-08	1.4659e-08	159.55	42.794	1.8591e-08	2.201e-08	76.196	36.062	16.342	5.8998	2.1045e-08	15.809	495.986	217.675	234.373	187.771	341.410	300.303	188.567	194.017	290.174	271.566	192.805	194.912	197.874	202.849	276.402	199.800	-8191	255	
3737.307	1	1	0	0	0.16558	0.43351	0.23997	0.2057	0.13679	0.4203	0.24378	0.15588	0.17694	0.033982	0.1387	0.26976	0.12971	0.10059	0.2095	0.28465	-1.0812	-0.21458	-1.4146	-1.0396	-0.43333	-1.4958	-0.48958	-0.87917	-1.4229	-0.38958	-1.2583	-1.0708	-0.22292	-1.3708	-0.58333	-0.73333	529.358	220.718	287.430	184.205	357.385	223.316	334.746	414.913	498.053	234.285	499.755	253.423	506.398	221.281	509.961	404.284	0.0003357	7.4437e-05	3.4373e-05	132.78	9.9548e-07	6.7674e-07	186.7	50.612	1.1587e-06	9.8281e-07	90.107	42.624	19.398	7.0345	9.3772e-07	19.049	6.1162e-06	2.1272e-06	4.2685e-07	113.72	2.5654e-08	1.1751e-08	160.02	43.287	1.7753e-08	2.0351e-08	76.408	36.466	16.493	5.9294	2.302e-08	15.907	493.940	268.706	250.023	187.283	310.378	356.635	187.553	194.474	291.261	272.846	192.368	195.526	197.647	204.253	293.967	199.329	-8191	255	
3737.428	1	1	0	0	0.0429	0.10619	0.03688	0.29654	0.020728	0.17145	0.16734	0.13638	0.16589	0.22991	0.080078	0.12462	0.16986	0.2113	0.24905	0.33011	-0.77083	-0.25208	-1.1333	-1.1812	-0.31458	-1.4312	-0.68958	-0.83958	-1.5021	-0.47292	-1.025	-1.1208	-0.53958	-1.375	-0.64375	-0.85	407.387	329.895	440.272	436.543	483.154	285.518	433.794	395.016	408.171	214.748	512.757	468.018	397.233	433.710	488.312	203.191	0.00034852	9.4933e-05	4.1996e-05	135.29	8.2489e-07	1.1603e-06	186.44	50.372	4.8687e-07	1.0159e-06	91.061	43.519	19.595	7.0019	5.9636e-07	19.322	6.4039e-06	2.1634e-06	4.3964e-07	115.49	2.5624e-08	1.5466e-08	161.04	43.309	1.585e-08	2.1295e-08	76.802	36.535	16.463	5.8929	2.4585e-08	15.999	494.886	238.431	201.856	187.944	330.942	322.392	187.805	194.072	298.119	295.999	191.493	195.233	196.696	203.206	312.946	199.584	-8191	255	
3737.524	1	1	0	0	0.23104	0.13146	0.15051	0.19751	0.23132	0.32044	0.16527	0.46488	0.14088	0.28658	0.18369	0.073943	0.33306	0.19121	0.11331	0.27103	-1.3375	-0.28958	-1.1229	-1.1688	-0.17083	-1.5125	-0.74375	-0.74375	-1.5063	-0.38542	-1.1167	-1.3062	-0.45625	-1.3771	-0.91875	-0.675	269.517	221.602	232.389	409.457	527.300	524.078	524.617	178.268	379.428	378.319	357.190	294.882	357.362	298.438	206.288	384.601	0.00033367	9.2576e-05	3.2785e-05	134.47	9.3294e-07	7.8357e-07	186.94	49.919	8.9159e-07	1.0929e-06	91.136	43.569	19.328	6.9363	1.2933e-06	19.29	6.0394e-06	1.9797e-06	4.6869e-07	114.86	2.4847e-08	1.4126e-08	160.24	43.228	1.5637e-08	2.2604e-08	76.821	36.587	16.421	5.8979	2.5664e-08	15.841	499.045	238.114	226.741	187.143	296.164	296.861	187.753	194.027	318.578	287.506	192.202	195.335	197.551	203.127	287.969	199.184	-8191	255	
3737.596	1	1	0	0	0.094531	0.44753	0.22325	0.11902	0.14834	0.083772	0.16281	0.2748	0.021803	0.19113	0.16301	0.036119	0.18881	0.3318	0.23583	0.14393	-1.0625	-0.35208	-1.0167	-1.325	-0.42917	-1.475	-0.64583	-0.68125	-1.6313	-0.58333	-1.0708	-1.3083	-0.5	-1.2042	-0.98125	-0.59792	531.992	435.801	448.252	308.313	429.491	524.404	517.807	524.519	432.082	187.923	458.412	309.503	261.778	324.852	474.084	261.880	0.00032093	9.0626e-05	2.5546e-05	134.99	1.2567e-06	7.5439e-07	183.81	50.722	1.4035e-06	7.5713e-07	92.456	43.306	19.491	7.0808	6.413e-07	18.695	6.1244e-06	2.283e-06	4.0594e-07	115.68	2.4649e-08	1.4004e-08	160.41	43.744	1.6855e-08	2.1797e-08	77.167	36.49	16.479	5.9175	2.2473e-08	15.759	494.426	227.780	254.143	186.741	316.072	308.178	187.239	194.234	305.757	294.375	192.211	195.365	197.347	203.458	269.484	199.074	-8191	255	
3737.692	1	1	0	0	0.26638	0.20364	0.21145	0.30921	0.1542	0.24792	0.08128	0.23214	0.149	0.16578	0.11698	0.1246	0.27626	0.029734	0.24374	0.2389	-1.0583	-0.67917	-1.0271	-1.2667	-0.59167	-1.5333	-0.87292	-0.50417	-1.5917	-0.73333	-0.875	-1.4583	-0.064583	-1.4771	-1.0125	-0.40208	182.928	374.798	413.822	219.801	213.099	372.419	527.525	279.045	438.191	275.497	428.813	383.279	488.866	193.362	250.685	261.566	0.00030777	0.0001033	3.2426e-05	136.16	1.1133e-06	1.1093e-06	185.78	51.052	1.1093e-06	1.7968e-07	92.148	43.319	19.868	7.16	6.3814e-07	19.161	6.2559e-06	1.9116e-06	4.9231e-07	115.92	2.4435e-08	1.717e-08	160.84	43.941	1.8758e-08	2.0199e-08	77.57	36.845	16.566	5.9729	1.8675e-08	16.002	497.391	242.895	237.876	187.452	316.106	292.932	187.686	194.658	327.612	287.989	192.090	195.425	196.960	202.985	287.338	200.171	-8191	255	
3737.811	1	1	0	0	0.26727	0.071635	0.21208	0.19224	0.021907	0.26094	0.079308	0.27063	0.16246	0.11072	0.15674	0.22039	0.21253	0.41157	0.023787	0.15259	-1.3479	-0.5375	-0.88958	-1.5729	-0.47917	-1.1938	-1.1229	-0.59375	-1.7229	-0.7	-0.70417	-1.5167	-0.475	-1.1229	-1.1042	-0.64375	200.329	427.387	291.057	340.893	299.265	207.673	186.639	252.946	500.775	527.373	280.112	471.271	216.475	428.887	420.940	497.478	0.00030853	2.8546e-05	1.9364e-05	135.75	7.9129e-07	5.2411e-07	188.3	51.297	7.7349e-07	1.154e-06	92.594	44.226	19.473	7.0176	7.6542e-07	19.658	6.1847e-06	1.8309e-06	4.6559e-07	116.02	2.5761e-08	1.6364e-08	161.88	44.212	1.7906e-08	2.0732e-08	78.314	37.351	16.681	5.9981	1.8173e-08	16.351	492.544	192.841	221.155	187.812	310.207	313.918	187.849	194.558	333.358	281.324	191.579	195.602	197.644	203.045	280.299	198.848	-8191	255	
3737.907	1	1	0	0	0.059791	0.12178	0.10868	0.088778	0.1297	0.155	0.32886	0.10118	0.066059	0.13363	0.14927	0.10988	0.17687	0.27568	0.23315	0.14508	-1.15	-0.51667	-0.78125	-1.5104	-0.49375	-1.3312	-1.0833	-0.24583	-1.4917	-0.875	-0.75	-1.4708	-0.50625	-1.0667	-1.2292	-0.51875	534.802	514.233	389.799	462.200	495.658	321.682	527.203	291.808	456.856	406.496	211.643	501.797	283.087	427.984	330.837	197.855	0.00038135	6.8495e-05	2.4363e-05	137.09	7.8809e-07	1.2892e-06	185.78	51.445	1.1046e-06	1.1455e-06	93.266	44.053	19.811	7.0731	6.3338e-07	19.197	6.8999e-06	2.1189e-06	5.601e-07	116.44	2.1297e-08	1.6501e-08	161.92	44.506	2.1225e-08	2.1904e-08	78.024	36.944	16.629	6.0157	1.7702e-08	15.907	496.530	199.722	244.819	187.026	319.084	304.267	187.090	193.954	319.151	319.509	191.581	195.161	197.496	204.053	250.287	198.893	-8191	255	
3738.003	1	1	0	0	0.33375	0.19217	0.050783	0.36061	0.15659	0.12784	0.16678	0.077298	0.09866	0.11146	0.13278	0.2813	0.025225	0.045356	0.11516	0.14192	-1.125	-0.7875	-0.86667	-1.5042	-0.64792	-0.95417	-1.0854	-0.38542	-1.1708	-0.65208	-0.72708	-1.5458	-0.58542	-0.88333	-1.1688	-0.36667	467.863	333.690	253.470	219.537	414.894	356.987	495.241	367.815	290.918	251.518	262.414	534.126	456.806	477.263	331.268	214.982	0.00037965	8.4472e-05	2.383e-05	136.4	2.7076e-07	4.4753e-07	189.27	51.645	1.5084e-06	7.7041e-07	91.766	43.654	19.639	7.1725	8.6238e-07	19.366	6.7108e-06	1.8086e-06	5.2291e-07	116.25	2.3872e-08	1.4689e-08	161.73	44.246	2.2778e-08	1.7703e-08	78.05	36.743	16.609	6.0165	1.6988e-08	15.994	496.492	208.431	197.781	186.860	299.382	324.653	187.437	194.559	303.251	312.814	191.779	195.314	197.572	202.747	241.523	199.238	-8191	255	
3738.124	1	1	0	0	0.13981	0.20054	0.16557	0.14784	0.3009	0.041519	0.11577	0.12463	0.16165	0.18819	0.063673	0.34505	0.01979	0.074078	0.099586	0.26155	-0.85	-0.72917	-0.66667	-1.5063	-0.41667	-1.0625	-1.425	-0.36042	-1.3125	-1.1792	-0.81875	-1.6333	-0.75208	-1.1	-1.2958	-0.45833	470.220	342.425	469.440	396.409	234.488	449.861	355.348	406.290	275.961	430.318	197.906	304.974	248.745	484.198	389.836	358.795	0.0003705	8.8956e-05	7.1419e-06	135.94	8.0321e-07	1.0427e-06	189.51	50.934	4.3181e-07	1.3535e-06	92.169	44.262	19.697	7.1617	6.5687e-07	19.129	7.104e-06	1.7669e-06	5.3298e-07	115.83	2.5243e-08	1.7977e-08	162.25	44.257	1.8408e-08	2.2056e-08	77.907	37.2	16.639	6.0745	1.7748e-08	16.064	500.969	223.120	280.451	186.493	342.158	319.867	187.385	194.456	270.273	293.825	191.938	195.236	197.881	203.036	288.545	199.099	-8191	255	
3738.220	1	1	0	0	0.0804	0.074261	0.047702	0.12161	0.17843	0.31956	0.076314	0.25062	0.14644	0.3399	0.11803	0.11719	0.11445	0.4245	0.18047	0.075678	-1.1187	-1.0417	-0.57083	-1.3563	-0.55625	-0.95	-1.4146	-0.27917	-1.4312	-1	-0.39792	-1.6208	-0.61667	-0.77708	-1.5688	-0.17708	473.456	499.539	248.727	225.936	193.783	186.792	346.472	306.713	388.251	495.370	394.710	302.196	490.484	304.528	215.229	355.258	0.00037858	5.8371e-05	2.6655e-05	138.99	6.3853e-07	7.1118e-07	186.18	50.892	9.6548e-07	9.1247e-07	94.364	43.781	19.67	7.2332	1.6228e-06	19.549	6.5793e-06	1.8629e-06	5.5313e-07	117.01	2.3156e-08	1.9865e-08	161.51	44.058	1.9778e-08	1.5404e-08	78.972	37.04	16.597	6.079	1.7277e-08	16.27	497.175	181.438	240.902	186.860	297.585	317.244	188.532	194.086	284.723	314.241	191.807	195.109	198.011	203.353	277.079	199.514	-8191	255	
3738.291	1	1	0	0	0.053896	0.18292	0.13682	0.1984	0.23436	0.079288	0.15786	0.26983	0.088702	0.24471	0.21112	0.051453	0.17865	0.16372	0.071062	0.14578	-1.0708	-0.99583	-0.15	-1.7292	-0.60833	-0.77292	-1.6396	-0.3625	-1.3875	-1.4625	-0.4	-1.6167	-0.7875	-0.88958	-1.7229	-0.40417	314.376	240.957	525.468	234.180	269.836	501.396	353.841	186.472	347.232	417.754	467.384	474.833	324.713	277.510	373.784	480.123	0.00038479	6.9362e-05	3.7113e-05	136.86	5.7162e-07	7.8452e-07	188.94	51.489	8.4555e-07	1.1067e-06	93.724	43.961	19.65	7.1298	9.399e-07	19.349	6.6628e-06	1.625e-06	6.0697e-07	116.3	2.0718e-08	1.717e-08	162.99	44.307	2.1103e-08	1.7596e-08	78.516	37.108	16.65	6.0177	1.3599e-08	16.105	498.680	233.001	223.728	187.845	304.945	294.591	188.801	194.620	274.385	337.105	191.954	195.298	197.864	203.287	277.565	199.710	-8191	255	
3738.412	1	1	0	0	0.24126	0.15427	0.1424	0.13416	0.14379	0.23706	0.091649	0.19488	0.16684	0.14536	0.21556	0.097391	0.082337	0.17434	0.23581	0.081189	-0.92917	-1.3563	-0.4125	-1.4062	-0.86042	-0.67708	-1.5688	-0.60625	-1.175	-1.1562	-0.5	-1.3979	-0.94792	-0.68125	-1.3312	-0.73125	276.738	259.352	415.459	368.117	523.274	193.781	241.259	417.304	310.359	183.393	209.766	191.121	202.734	484.316	514.093	335.533	0.00034592	7.6259e-05	3.9061e-05	137.87	1.4672e-06	9.6076e-07	190.61	51.509	5.7976e-07	1.4201e-06	92.834	44.035	19.616	7.1013	1.0153e-06	19.332	6.6697e-06	1.522e-06	5.7404e-07	117.11	2.4527e-08	1.9332e-08	163.34	44.679	2.022e-08	1.8098e-08	78.704	37.227	16.698	6.0078	1.5848e-08	16.027	499.039	225.491	223.983	187.347	314.148	327.964	187.306	194.061	321.441	326.204	191.862	195.233	197.390	202.807	289.200	198.814	-8191	255	
3738.508	1	1	0	0	0.11518	0.20441	0.066271	0.35129	0.14034	0.1782	0.18205	0.25151	0.18148	0.37678	0.13613	0.29793	0.40523	0.41005	0.26866	0.18877	-0.825	-1.1333	-0.41042	-1.3604	-0.91458	-0.62708	-1.4979	-0.59375	-1.275	-1.0896	-0.54167	-1.2542	-0.92292	-0.65208	-1.2167	-0.68542	422.798	482.158	459.918	177.525	386.916	226.541	412.088	431.783	513.624	202.849	484.706	366.610	443.827	257.617	529.113	514.845	0.00036317	3.2659e-05	2.5435e-05	136.27	9.2331e-07	7.7624e-07	190.2	52.98	9.8008e-07	8.5153e-07	94.626	44.191	19.645	7.1272	1.5255e-06	19.31	6.9999e-06	1.689e-06	5.3608e-07	116.97	2.0718e-08	1.9317e-08	164.41	45.146	2.2062e-08	1.4765e-08	79.558	37.421	16.722	6.0512	1.7596e-08	16.152	498.884	264.338	244.915	187.453	335.103	273.924	187.719	194.161	289.112	309.725	191.776	195.209	197.487	204.113	279.651	199.219	-8191	255	
3738.604	1	1	0	0	0.213	0.16086	0.12274	0.20386	0.26876	0.082664	0.092531	0.15059	0.11841	0.028795	0.11694	0.17501	0.14906	0.32477	0.10531	0.19197	-0.89583	-1.5417	-0.325	-1.2687	-1.0271	-0.66458	-1.4625	-0.5375	-0.7625	-1.4833	-0.40208	-1.3438	-1.05	-0.59583	-1.6521	-0.55833	177.048	341.885	490.140	308.297	225.130	468.218	395.885	208.957	438.906	414.745	440.719	201.571	374.071	444.875	403.279	401.752	0.00035369	4.2242e-05	3.114e-05	137.04	8.0981e-07	7.2783e-07	189.91	52.568	1.4504e-06	9.8794e-07	95.129	45.246	19.928	7.2401	1.0539e-06	19.808	6.7793e-06	1.4552e-06	6.182e-07	117.24	1.7321e-08	1.9545e-08	163.63	45.388	2.7665e-08	1.3791e-08	80.216	38.009	16.968	6.1137	1.6942e-08	16.394	497.193	248.855	220.741	186.688	295.341	313.260	187.561	193.380	301.446	305.757	191.464	195.675	197.364	203.223	270.920	199.372	-8191	255	
3738.723	1	1	0	0	0.1225	0.090933	0.11957	0.24936	0.14082	0.12513	0.091407	0.05125	0.14781	0.067184	0.21074	0.23726	0.28213	0.075194	0.23393	0.11512	-0.44375	-1.6021	-0.16458	-1.3687	-1.1167	-0.55	-1.55	-0.58542	-0.79792	-1.4375	-0.40833	-1.3375	-1.1	-0.47292	-1.5708	-0.92083	227.084	444.247	529.871	535.058	469.526	381.301	467.661	213.086	256.261	340.797	492.633	463.660	325.736	279.022	202.981	225.488	0.00036838	5.7354e-05	5.5488e-05	136.51	1.2264e-06	9.3516e-07	189.34	52.856	1.3011e-06	4.7436e-07	95.515	44.9	20.165	7.2645	1.4335e-06	19.477	6.7793e-06	1.1645e-06	6.3757e-07	117.96	1.8113e-08	2.2985e-08	163.98	45.98	2.36e-08	1.1873e-08	80.254	37.836	16.916	6.1316	1.9465e-08	16.232	499.362	217.607	229.742	187.805	297.240	327.257	188.189	194.263	313.386	323.273	191.686	195.026	198.474	203.022	294.223	200.258	-8191	255	
3738.819	1	1	0	0	0.25165	0.10637	0.11266	0.050519	0.22797	0.086087	0.20219	0.24076	0.14786	0.2742	0.12209	0.23616	0.10704	0.041031	0.21873	0.2024	-0.64792	-1.4521	-0.37292	-1.2167	-1.0917	-0.5125	-1.4146	-0.81875	-0.8875	-1.4167	-0.55208	-1.2646	-1.1958	-0.7125	-1.2333	-0.93958	385.958	455.376	259.961	195.322	487.540	400.208	482.602	495.954	219.488	271.143	250.175	396.156	487.611	500.712	502.360	229.909	0.00039347	0.00011088	3.3804e-05	139.6	7.8519e-07	9.1806e-07	189.29	53.653	1.1796e-06	8.5243e-07	94.404	44.563	20.175	7.1173	1.078e-06	19.021	7.4219e-06	1.3064e-06	5.1091e-07	118.74	1.8144e-08	2.0717e-08	163.97	45.85	2.427e-08	1.443e-08	79.752	37.567	16.919	6.0057	1.6274e-08	16.01	500.075	232.648	212.081	187.893	304.256	346.677	187.690	193.282	293.641	317.064	191.824	195.319	197.980	202.898	269.677	199.618	-8191	255	
3738.891	1	1	0	0	0.17454	0.26884	0.0094215	0.11805	0.12834	0.12856	0.18038	0.15753	0.11389	0.11505	0.19664	0.19274	0.069367	0.084891	0.16285	0.070232	-0.31458	-1.5583	-0.33542	-1.1021	-1.1333	-0.48125	-1.2667	-0.76875	-0.8125	-1.6729	-0.68542	-1.15	-1.3042	-0.53125	-1.1667	-0.9875	507.244	477.602	186.453	226.556	371.670	485.038	489.283	408.184	233.652	199.489	476.518	515.101	350.623	424.615	192.833	429.530	0.00033468	4.0074e-05	4.8592e-05	137.6	8.4815e-07	1.1566e-06	188.83	53.726	3.4546e-07	9.0828e-07	94.019	44.848	20.239	7.2206	1.1771e-06	19.254	6.7409e-06	1.5025e-06	5.4189e-07	117.89	1.9576e-08	2.3366e-08	162.85	45.623	2.4087e-08	1.4795e-08	79.696	37.62	16.97	6.0621	1.7687e-08	16.117	500.685	195.819	232.269	187.256	299.572	311.985	187.207	193.755	289.767	300.994	191.319	195.064	196.789	202.749	241.907	199.406	-8191	255	
3738.987	1	1	0	0	0.27493	0.18651	0.22352	0.13706	0.36371	0.05841	0.19775	0.19831	0.25218	0.21137	0.10448	0.30209	0.24964	0.1023	0.14644	0.18018	-0.41875	-1.4479	-0.57708	-0.94583	-1.2042	-0.53333	-1.3896	-0.94583	-0.575	-1.4604	-0.58125	-0.91875	-1.3062	-0.36458	-1.2812	-0.95208	177.734	300.181	430.891	195.889	265.275	299.468	402.682	344.687	469.778	429.972	492.006	301.004	203.963	495.095	246.913	296.434	0.00034277	0.00015853	5.1944e-05	139.79	9.1782e-07	6.8666e-07	190.98	52.679	8.4448e-07	1.2411e-06	94.791	45.048	20.149	7.2953	1.4779e-06	19.53	6.7286e-06	1.5707e-06	5.9031e-07	118.57	1.8509e-08	1.9134e-08	164.44	45.495	2.5138e-08	1.2969e-08	79.803	37.79	16.908	6.0739	2.2792e-08	16.22	496.854	216.894	250.568	187.336	267.140	333.252	188.290	193.805	299.211	311.049	191.627	194.951	197.559	201.811	263.443	199.329	-8191	255	
3739.108	1	1	0	0	0.08237	0.24632	0.17291	0.5122	0.14234	0.1056	0.061688	0.25934	0.14827	0.17949	0.067203	0.057466	0.29509	0.25019	0.33013	0.15585	-0.3	-1.6812	-0.64792	-1.0333	-1.3937	-0.58958	-1.2875	-1.1083	-0.46875	-1.3646	-0.61458	-0.92917	-1.6292	-0.4375	-1.2854	-1.2375	207.495	529.854	345.895	425.641	495.139	308.151	516.594	354.675	214.348	384.184	416.451	369.973	350.516	216.370	518.891	504.149	0.00033656	0.00010047	2.5508e-05	137.54	8.9317e-07	8.6262e-07	189.29	52.382	1.0595e-06	8.3522e-07	95.099	44.781	20.275	7.1268	8.7593e-07	19.158	7.0519e-06	1.4928e-06	5.5739e-07	117.95	1.6925e-08	1.918e-08	163.42	45.243	2.9477e-08	1.618e-08	79.684	37.795	16.895	6.0437	1.5909e-08	16.087	498.010	258.787	248.868	187.754	290.394	328.361	187.878	193.352	298.657	292.035	191.897	195.179	198.190	203.097	292.172	199.459	-8191	255	
3739.204	1	1	0	0	0.23176	0.12022	0.1894	0.17738	0.15895	0.17062	0.034724	0.10004	0.18867	0.065037	0.049211	0.097018	0.12163	0.10204	0.087993	0.36949	-0.10625	-1.5604	-0.68958	-0.85625	-1.4458	-0.36458	-1.3896	-1.0667	-0.36875	-1.5396	-0.65	-0.74583	-1.8292	-0.5125	-1.1396	-1.4021	449.088	415.097	451.597	398.550	423.763	527.475	471.796	383.969	515.742	303.228	389.556	318.616	430.199	177.286	345.343	463.642	0.00033898	5.6871e-05	3.6796e-05	138.09	6.9263e-07	1.0319e-06	189.99	52.332	1.1173e-06	1.7018e-06	94.397	44.699	19.903	6.8502	6.2974e-07	18.923	6.8889e-06	1.2744e-06	4.6946e-07	117.98	1.5722e-08	2.0732e-08	163.36	45.196	2.9949e-08	1.3851e-08	79.068	37.391	16.668	5.8742	1.8355e-08	15.708	497.740	231.422	226.065	187.170	331.477	338.398	188.076	193.657	297.473	295.179	191.310	195.029	197.569	203.716	286.544	199.023	-8191	255	
3739.300	1	1	0	0	0.12354	0.12646	0.26733	0.21885	0.075296	0.08799	0.32708	0.053711	0.22663	0.062014	0.10761	0.10647	0.091179	0.27575	0.065916	0.27178	-0.18958	-1.4979	-0.71875	-0.675	-1.6167	-0.72917	-1.3396	-1.4	-0.36042	-1.4188	-0.88333	-0.71875	-1.6667	-0.57083	-1.2812	-1.3646	437.917	258.027	473.197	489.410	337.964	333.409	442.986	261.310	478.476	258.173	527.671	357.932	332.867	433.767	261.319	488.490	0.00039017	6.7014e-05	2.7949e-05	136.96	7.6881e-07	8.192e-07	189.35	52.974	9.4797e-07	1.0451e-06	92.561	44.393	19.963	6.8221	1.0543e-06	18.402	7.5424e-06	1.4858e-06	5.4151e-07	117.43	1.2979e-08	2.4294e-08	163.72	45.569	2.9279e-08	1.5343e-08	77.903	37.416	16.669	5.7319	1.869e-08	15.341	494.079	245.160	298.764	187.591	275.808	354.145	187.354	193.716	288.827	318.246	192.129	195.083	198.173	203.115	290.874	198.887	-8191	255	
3739.396	1	1	0	0	0.13354	0.094954	0.11942	0.17255	0.063686	0.04135	0.21739	0.15614	0.039897	0.036899	0.25296	0.16149	0.14777	0.20138	0.12304	0.15033	0.0083333	-1.4708	-1.1042	-0.46667	-1.4688	-0.64375	-1.1646	-1.2021	-0.53958	-1.4854	-0.85625	-0.59583	-1.3625	-0.70625	-1.1187	-1.2896	305.743	324.574	191.998	379.231	415.764	266.517	424.443	477.076	393.829	447.795	458.721	345.295	522.689	176.630	452.017	371.345	0.00034763	6.9e-05	4.1403e-05	139.54	7.1101e-07	8.8205e-07	191.1	53.309	1.2927e-06	5.6589e-07	94.08	44.566	19.835	6.6744	5.8026e-07	18.539	7.2301e-06	1.5596e-06	4.59e-07	118.25	1.3467e-08	1.9743e-08	164.6	45.915	2.73e-08	1.6759e-08	79.245	37.617	16.658	5.6913	2.0665e-08	15.445	501.903	210.575	256.607	187.712	311.382	333.498	188.284	194.138	285.641	269.793	192.039	194.762	197.697	203.319	236.519	199.910	-8191	255	
3739.515	1	1	0	0	0.055192	0.15714	0.058169	0.14701	0.10075	0.23382	0.15133	0.054041	0.35428	0.13597	0.11429	0.094569	0.24625	0.18822	0.16314	0.22049	0.072917	-1.2833	-0.88958	-0.55208	-1.5104	-0.68333	-0.92083	-1.3875	-0.2375	-1.3042	-1.1896	-0.70833	-1.5646	-0.57083	-0.84792	-1.4875	444.018	313.405	321.716	200.275	303.629	337.053	282.976	357.136	333.908	205.348	256.624	312.832	191.078	467.291	368.211	428.935	0.0003148	7.5488e-05	1.8353e-05	140.44	1.3445e-06	8.7113e-07	190.52	54.781	1.3716e-06	6.4082e-07	97.038	45.203	20.153	6.9055	8.3838e-07	18.698	6.6245e-06	1.4218e-06	4.6055e-07	119.93	1.5584e-08	1.9408e-08	164.99	46.906	2.7148e-08	1.475e-08	80.644	38.091	16.851	5.7506	2.1167e-08	15.638	500.348	272.008	226.440	186.994	310.504	311.353	187.013	194.687	316.653	312.651	191.464	195.816	197.793	202.914	253.196	199.347	-8191	255	
3739.589	1	1	0	0	0.2182	0.1601	0.20012	0.31538	0.19493	0.085852	0.12274	0.13815	0.088377	0.17698	0.11427	0.14529	0.071642	0.11901	0.16579	0.19686	-0.0125	-1.2792	-1.2708	-0.59167	-1.3667	-0.68542	-0.9	-1.35	-0.43958	-1.0312	-1.1	-0.14375	-1.475	-0.93333	-0.92708	-1.5312	431.408	396.039	476.078	535.354	331.692	318.696	462.853	265.020	378.876	182.388	429.854	527.008	199.501	205.664	197.769	521.945	0.00037519	8.7733e-05	4.0695e-05	141.3	5.6574e-07	9.2557e-07	193.81	55.062	1.045e-06	5.6102e-07	94.92	44.654	20.007	6.9281	1.2427e-06	18.641	7.3287e-06	1.9686e-06	5.02e-07	119.97	1.3238e-08	2.0337e-08	166.86	46.943	2.7056e-08	2.0092e-08	80.075	37.776	16.864	5.7841	2.6044e-08	15.483	498.371	276.058	219.187	188.143	289.073	314.955	187.134	193.494	321.438	270.948	191.591	194.879	196.574	202.488	271.666	198.844	-8191	255	
3739.685	1	1	0	0	0.058845	0.30009	0.21158	0.18637	0.19567	0.12509	0.22402	0.31557	0.15011	0.044493	0.051609	0.1123	0.24348	0.40584	0.18623	0.11721	-0.17917	-1.3375	-1.0771	-0.76875	-1.4562	-0.60833	-0.98958	-1.5021	-0.3375	-1.25	-1.3833	-0.34792	-1.4813	-0.66458	-0.7375	-1.5771	451.769	339.330	436.063	494.687	258.658	187.938	484.825	446.101	360.785	295.572	225.222	232.640	305.764	201.883	474.873	222.806	0.00033157	0.00010268	2.2099e-05	140.16	1.0724e-06	8.0938e-07	193.65	54.477	7.192e-07	1.3676e-06	95.477	44.701	19.917	6.7395	9.7608e-07	18.473	6.6204e-06	2.1189e-06	4.528e-07	119.95	1.9012e-08	1.7079e-08	167.32	46.79	2.6386e-08	1.7185e-08	80.08	37.646	16.783	5.7451	2.0468e-08	15.458	498.284	209.779	226.787	187.148	307.803	314.889	188.344	194.012	318.793	328.534	192.145	195.023	198.252	202.412	253.198	198.868	-8191	255	
3739.805	1	1	0	0	0.11244	0.09084	0.13959	0.24386	0.1394	0.13896	0.14292	0.085903	0.11512	0.14881	0.018155	0.085743	0.33095	0.20962	0.41982	0.30065	-0.027083	-1.2146	-1.3687	-0.18125	-1.6021	-0.69792	-0.65	-1.5333	-0.4125	-1.0417	-1.3563	-0.4375	-1.4188	-0.87708	-0.59792	-1.6833	377.295	331.564	398.720	265.244	429.105	309.844	288.063	214.742	327.987	245.340	527.351	524.512	469.573	210.306	327.638	328.274	0.000342	5.7161e-05	3.9471e-05	141.36	9.4423e-07	8.2611e-07	194.14	54.769	9.122e-07	7.76e-07	96.848	44.877	20.266	7.0148	4.1064e-07	18.609	7.1396e-06	1.7738e-06	3.3079e-07	120.49	1.592e-08	1.8769e-08	167.71	47.165	2.9706e-08	1.5663e-08	80.668	37.815	16.989	5.7838	2.4084e-08	15.576	496.256	198.149	230.358	187.051	297.255	348.624	187.306	193.402	319.709	313.185	191.761	194.858	198.444	203.415	295.286	199.542	-8191	255	
3739.900	1	1	0	0	0.27132	0.16324	0.10483	0.14108	0.091911	0.17079	0.10008	0.039516	0.17411	0.25503	0.1537	0.12293	0.26658	0.037986	0.23952	0.29199	-0.33542	-0.96667	-1.2646	-0.24167	-1.4542	-0.98333	-0.58542	-1.3667	-0.62708	-0.98958	-1.5104	-0.46042	-1.4792	-0.85417	-0.42292	-1.5917	456.481	396.689	452.852	501.568	495.736	515.880	294.993	242.937	280.708	372.723	212.251	298.405	241.476	288.181	191.579	255.813	0.00034463	9.5837e-05	5.2541e-05	142.6	8.8075e-07	1.099e-06	197.2	54.541	6.8295e-07	1.6859e-06	97.301	44.934	19.96	6.7151	8.3748e-07	18.382	6.7231e-06	1.7196e-06	4.1988e-07	121.56	1.7778e-08	1.8282e-08	168.6	47.226	2.762e-08	2.1949e-08	80.965	37.885	16.811	5.658	2.3552e-08	15.387	494.707	205.961	222.243	187.662	324.138	324.326	187.240	193.841	328.548	296.166	191.455	195.438	197.737	202.728	277.999	199.233	-8191	255	
3739.996	1	1	0	0	0.1218	0.15721	0.12417	0.20947	0.074347	0.052994	0.33153	0.066088	0.12643	0.20123	0.15914	0.16343	0.036378	0.1028	0.28814	0.28225	-0.35	-0.86875	-1.3854	-0.45417	-1.5354	-1.2542	-0.34792	-1.7125	-0.54375	-0.81667	-1.5375	-0.50625	-1.2958	-1.2	-0.55	-1.5104	204.176	176.856	483.817	534.362	266.418	317.013	276.191	285.008	182.929	491.750	497.003	232.502	476.341	340.017	191.623	261.497	0.0003618	8.1872e-05	2.9648e-05	140.44	9.0325e-07	4.0496e-07	199.22	55.695	1.0558e-06	1.0126e-06	96.343	44.066	19.915	6.5651	6.9789e-07	17.997	6.8396e-06	1.9644e-06	3.7921e-07	121.37	1.6163e-08	1.6668e-08	170.14	47.616	2.6996e-08	1.8418e-08	80.962	37.209	16.723	5.5189	2.5801e-08	14.935	496.323	208.163	188.368	187.229	326.196	323.708	187.990	193.968	279.262	360.228	191.444	194.559	197.568	202.897	294.221	199.377	-8191	255	
3740.092	1	1	0	0	0.14621	0.38386	0.15926	0.2028	0.13438	0.20122	0.16512	0.15663	0.065599	0.20925	0.079333	0.20035	0.16364	0.064677	0.2174	0.060783	-0.17083	-0.47708	-1.4813	-0.40417	-1.4896	-1.225	-0.36667	-1.6917	-0.52083	-0.87917	-1.55	-0.55	-1.1812	-1.3062	-0.27917	-1.5167	308.104	280.191	382.376	373.680	320.481	526.060	335.962	211.823	451.855	260.479	234.062	240.799	440.453	419.608	375.438	185.703	0.00037078	6.8695e-05	2.9246e-05	144.97	6.8135e-07	8.1453e-07	195.62	55.833	1.4513e-06	1.2001e-06	95.661	43.597	19.565	6.3835	1.054e-06	17.806	7.2164e-06	1.7961e-06	3.4706e-07	124.4	1.7915e-08	1.746e-08	169.59	48.305	2.66e-08	1.8738e-08	81.049	36.841	16.678	5.4652	2.6713e-08	14.944	495.991	233.768	254.998	187.878	299.612	314.218	187.843	193.964	290.179	325.711	190.839	194.202	197.082	203.760	326.955	199.087	-8191	255	
3740.188	1	1	0	0	0.19184	0.18807	0.28282	0.19813	0.11905	0.075055	0.14121	0.096529	0.12215	0.14871	0.070754	0.22092	0.19106	0.17122	0.12438	0.2866	-0.37083	-0.65	-1.4688	-0.70625	-0.98958	-1.1771	-0.43958	-1.2479	-0.74375	-0.59167	-1.5667	-0.47708	-1.025	-1.5104	-0.49167	-1.3583	328.386	449.973	335.501	420.887	362.356	228.727	447.947	232.000	177.848	260.073	328.562	416.779	246.531	484.277	297.907	245.608	0.00034532	8.8278e-05	3.8054e-05	147.4	6.8751e-07	4.4777e-07	199.9	57.125	1.1857e-06	5.0071e-07	98.042	44.324	20.178	6.5929	1.0085e-06	17.982	6.8711e-06	2.0256e-06	4.2879e-07	126.72	2.1069e-08	1.8373e-08	171.8	49.177	2.6295e-08	2.0442e-08	81.971	37.422	16.914	5.5217	2.5543e-08	15.015	498.300	199.779	265.862	187.306	324.729	282.230	187.075	193.267	325.227	297.832	191.472	194.837	196.490	202.875	308.346	199.288	-8191	255	
3740.284	1	1	0	0	0.036866	0.062664	0.18586	0.28858	0.19251	0.2428	0.017485	0.18376	0.29323	0.15717	0.3163	0.36966	0.18699	0.19911	0.064086	0.37627	-0.56042	-0.5375	-1.5729	-0.53333	-1.0271	-1.3813	-0.42708	-1.3542	-1.0625	-0.72708	-1.5667	-0.7625	-0.95208	-1.5229	-0.45208	-1.3833	337.069	229.529	447.311	393.142	238.545	501.647	194.734	434.083	237.589	336.738	466.399	206.541	215.736	192.674	213.320	477.115	0.00037313	6.4618e-05	3.1139e-05	147	7.2997e-07	1.5538e-06	199.81	56.94	6.9652e-07	6.5646e-07	96.296	44.592	19.896	6.6168	5.6906e-07	18.282	6.8012e-06	1.9338e-06	3.4202e-07	125.96	2.0551e-08	1.7094e-08	171.65	49.135	2.2687e-08	1.9483e-08	81.93	37.631	16.908	5.5724	2.8445e-08	15.215	497.234	212.110	272.961	186.173	285.901	316.422	187.654	193.776	309.592	301.934	191.195	194.620	197.018	202.878	284.209	199.156	-8191	255	
3740.405	1	1	0	0	0.24544	0.22859	0.11629	0.02062	0.19963	0.08415	0.1411	0.035096	0.14481	0.060104	0.074505	0.19152	0.042636	0.21341	0.12857	0.28125	-0.72083	-0.7125	-1.4542	-0.76667	-0.8875	-1.2917	-0.5625	-1.3937	-1.15	-0.7125	-1.5792	-0.90417	-0.94375	-1.5312	-0.59167	-1.2896	364.704	260.880	527.694	269.872	290.378	300.529	430.870	489.789	526.325	479.341	414.881	422.016	208.630	504.994	342.608	511.814	0.00031908	1.474e-05	5.2019e-05	147.39	1.5397e-07	7.8716e-07	201.2	57.806	8.2367e-07	5.834e-07	98.317	45.744	20.479	6.6683	9.1391e-07	18.317	6.4258e-06	2.0437e-06	4.3073e-07	126.23	1.95e-08	1.3334e-08	172.18	49.567	2.5519e-08	1.9727e-08	82.526	38.035	17.11	5.6126	2.647e-08	15.322	499.942	230.188	224.064	186.661	290.866	350.036	187.545	193.155	294.054	326.909	191.186	194.455	197.275	202.862	291.288	199.009	-8191	255	
3740.501	1	1	0	0	0.13571	0.025857	0.13483	0.087081	0.069891	0.15159	0.071133	0.032583	0.13907	0.10391	0.2655	0.17903	0.27093	0.13838	0.14639	0.12448	-0.61667	-0.60208	-1.2687	-0.64792	-0.83125	-1.4896	-0.47708	-1.2542	-1.2292	-0.56042	-1.5792	-0.75833	-0.79167	-1.325	-0.53542	-1.3125	302.234	416.843	495.435	363.370	407.840	366.013	265.169	421.549	464.574	493.669	333.821	192.445	467.036	244.346	445.445	314.433	0.00033529	9.8604e-05	3.8322e-05	146.79	7.8593e-07	9.7369e-07	198.94	57.321	6.7298e-07	7.312e-07	97.211	44.336	20.125	6.6878	9.5473e-07	18.042	6.6217e-06	2.2997e-06	3.7456e-07	125.36	2.2562e-08	1.4065e-08	171.45	49.301	2.0083e-08	2.0397e-08	81.908	37.528	16.913	5.6008	2.615e-08	15.019	502.364	226.326	217.649	187.092	311.647	319.249	187.030	194.069	312.352	358.816	190.932	194.363	197.684	203.407	247.431	199.201	-8191	255	
3740.597	1	1	0	0	0.11568	0.13182	0.17703	0.17512	0.2815	0.14322	0.26466	0.24973	0.055582	0.21091	0.30114	0.14759	0.09147	0.17043	0.14114	0.26791	-0.93958	-0.5375	-1.5604	-0.65417	-0.68125	-1.4792	-0.49167	-1.0938	-1.3188	-0.49375	-1.5521	-1.0271	-1.0063	-1.6938	-0.72292	-1.3229	514.472	299.623	520.355	400.348	200.121	508.402	190.242	219.164	527.541	175.687	526.490	475.579	299.804	245.564	444.968	432.202	0.0003313	0.0001129	3.6123e-05	147.16	9.9196e-07	5.8205e-07	200	55.99	1.3841e-06	3.7776e-07	97.028	44.651	20.069	6.7004	6.1221e-07	18.161	6.1614e-06	2.3206e-06	3.8037e-07	125.33	2.4862e-08	1.3502e-08	171.65	48.443	2.1392e-08	2.4948e-08	81.485	37.603	16.965	5.6478	2.2321e-08	15.206	499.534	223.953	225.602	187.010	343.036	280.532	187.668	193.576	325.139	289.829	191.196	194.549	197.223	202.641	271.228	199.359	-8191	255	
3740.692	1	1	0	0	0.10136	0.35599	0.12569	0.23248	0.23945	0.29827	0.21127	0.26949	0.31228	0.094216	0.06881	0.15642	0.1009	0.11702	0.18163	0.13723	-0.83542	-0.63125	-1.3875	-0.92292	-0.87292	-1.5917	-0.61875	-1.2583	-1.3687	-0.56458	-1.4542	-0.99375	-0.7625	-1.4667	-0.78958	-1.1938	217.593	522.094	392.466	459.892	478.408	234.741	356.027	211.264	470.502	384.092	306.053	233.890	501.969	408.894	208.626	409.566	0.00032677	0.00013198	3.745e-05	144.77	9.9806e-07	6.1643e-07	196.06	56.507	8.6562e-07	9.569e-07	96.499	45.045	20.047	6.7734	1.0215e-06	18.533	6.1984e-06	2.2302e-06	4.8844e-07	124.47	2.3491e-08	1.0503e-08	171.43	49.092	2.1712e-08	2.3548e-08	81.872	37.881	17.174	5.7134	2.6242e-08	15.548	494.469	226.958	247.779	187.257	305.617	297.173	187.202	193.105	312.027	303.823	191.071	195.259	197.148	202.550	256.817	199.352	-8191	255	
3740.765	1	1	0	0	0.13809	0.37308	0.2085	0.060572	0.27499	0.089746	0.13325	0.20484	0.06412	0.036317	0.20002	0.09684	0.13215	0.091496	0.090086	0.032179	-1.05	-0.61667	-1.225	-0.95417	-0.76458	-1.4062	-0.72083	-1.1938	-1.2875	-0.24583	-1.3104	-1.0729	-0.63125	-1.5833	-0.53125	-0.96875	386.771	381.152	176.423	428.823	263.082	366.808	258.457	353.595	252.983	224.285	484.110	198.801	535.105	412.742	454.758	503.323	0.00035186	0.00011176	1.4792e-05	145.13	4.902e-07	3.1916e-07	198.91	56.975	1.31e-06	8.607e-07	99.135	44.45	20.451	6.7841	1.1787e-06	18.626	6.3491e-06	2.13e-06	3.947e-07	124.19	1.9195e-08	1.6683e-08	171.09	49.076	2.3341e-08	2.0427e-08	82.46	37.998	17.157	5.7737	2.3841e-08	15.555	497.191	248.849	234.496	187.690	319.737	292.581	186.468	194.102	314.622	291.156	191.635	194.823	196.547	202.709	284.759	199.592	-8191	255	
3740.884	1	1	0	0	0.12038	0.2519	0.14568	0.3109	0.24593	0.21283	0.1806	0.11051	0.1136	0.18414	0.18417	0.17045	0.24389	0.042264	0.17027	0.15757	-0.9	-0.41875	-1.2396	-1.0396	-0.62083	-1.3708	-0.64583	-0.725	-1.45	-0.55833	-1.3396	-1.0417	-0.3875	-1.7021	-0.62292	-0.81458	229.859	306.714	274.460	423.244	463.141	178.919	409.271	223.275	331.638	304.704	487.696	250.503	409.857	376.610	194.040	362.602	0.0003392	6.5453e-05	3.1685e-05	142.22	8.4985e-07	1.1551e-06	196.45	56.881	1.0141e-06	1.0403e-06	95.56	44.458	20.188	6.8546	1.1074e-06	18.575	6.1627e-06	2.3164e-06	4.0981e-07	123.33	2.6858e-08	1.647e-08	171.3	48.677	2.1743e-08	2.7444e-08	81.304	37.761	17.014	5.7926	2.495e-08	15.512	497.753	194.517	250.715	187.419	330.348	311.743	186.926	194.150	304.781	324.921	192.371	195.033	197.652	203.475	281.158	198.796	-8191	255	
3740.980	1	1	0	0	0.24795	0.082966	0.088938	0.060749	0.2531	0.18413	0.088051	0.18373	0.22663	0.17885	0.17437	0.12809	0.12064	0.03251	0.2392	0.093547	-1.2771	-0.28333	-1.3146	-1.475	-0.49583	-1.5938	-0.72708	-0.94583	-1.5146	-0.45208	-1.2125	-1.1667	-0.35833	-1.6729	-0.50208	-0.72083	446.393	455.769	234.963	213.787	492.123	332.142	301.525	523.709	205.799	234.694	362.197	461.733	350.860	237.639	296.635	286.159	0.00033949	0.00012442	4.7874e-05	145.18	6.2214e-07	6.6745e-07	199.8	57.049	8.4086e-07	5.1592e-07	98.697	44.669	20.096	6.9085	1.1313e-06	18.799	6.2381e-06	2.4221e-06	4.3421e-07	123.83	2.2988e-08	1.4172e-08	170.8	49.021	2.0646e-08	2.3669e-08	82.808	38.068	17.153	5.8399	2.5558e-08	15.673	502.665	230.439	236.679	187.026	315.392	313.841	186.584	193.357	297.300	338.348	191.425	194.628	196.585	202.393	299.831	199.451	-8191	255	
3741.076	1	1	0	0	0.32608	0.15047	0.25946	0.30031	0.03672	0.003799	0.22621	0.2914	0.21143	0.081579	0.21783	0.1085	0.16396	0.2381	0.29335	0.1933	-1.4771	-0.21875	-1.4229	-1.425	-0.24792	-1.6917	-0.88125	-0.64583	-1.9292	-0.38333	-1.3208	-1.4354	-0.23333	-1.5333	-0.8875	-0.73125	466.308	437.021	347.855	508.889	380.120	244.792	190.402	183.796	505.638	311.067	250.139	530.186	354.206	307.847	495.737	383.428	0.00033135	0.0001132	4.6508e-05	145.74	4.2377e-07	4.1309e-07	200.31	57.204	1.1459e-06	5.0188e-07	98.383	45.675	20.426	6.9168	7.7416e-07	18.806	6.4792e-06	2.4945e-06	4.6016e-07	123.91	2.5228e-08	1.5937e-08	171.45	49.276	1.7647e-08	2.3898e-08	82.774	38.473	17.4	5.8404	2.0164e-08	15.714	500.846	212.778	257.614	187.381	322.912	342.372	187.699	194.138	311.614	312.081	190.497	195.113	196.754	203.068	304.076	199.275	-8191	255	
3741.197	1	1	0	0	0.2429	0.25849	0.040923	0.10016	0.16087	0.14904	0.14492	0.078771	0.34706	0.14671	0.25419	0.20268	0.16471	0.28515	0.22089	0.2134	-1.3333	-0.53958	-1.05	-1.2687	-0.35833	-1.4521	-0.89583	-0.53542	-1.4937	-0.46667	-1.0938	-1.5583	-0.20833	-1.3625	-0.71667	-0.475	381.625	400.810	486.271	425.361	379.028	473.789	252.001	255.033	416.826	516.812	423.065	424.131	446.385	510.005	308.042	274.530	0.00034925	0.00017498	3.1453e-05	145.57	8.5477e-07	8.9868e-07	198.55	56.449	7.2562e-07	7.4716e-07	99.156	45.477	20.265	6.8436	4.092e-07	18.594	6.2203e-06	2.5738e-06	5.6668e-07	124.17	2.4161e-08	1.3593e-08	171.6	49.126	1.8819e-08	2.4522e-08	83.105	38.227	17.204	5.7689	2.0832e-08	15.605	497.592	224.727	258.082	186.905	300.156	342.203	185.984	193.539	307.915	290.476	191.009	194.568	196.690	202.499	285.587	198.911	-8191	255	
3741.293	1	1	0	0	0.018263	0.27691	0.25392	0.052042	0.1824	0.024573	0.12344	0.25646	0.25438	0.070648	0.12763	0.24666	0.16161	0.12911	0.068031	0.33843	-1.1938	-0.45833	-0.71667	-1.5271	-0.29167	-1.1313	-0.82083	-0.48333	-1.6	-0.55417	-0.91458	-1.3771	-0.40833	-1.3563	-0.95	-0.43958	343.277	318.605	191.199	292.206	371.888	474.238	515.973	233.617	217.633	358.247	419.648	381.207	457.562	451.198	214.641	203.798	0.00035516	0.0001058	1.6501e-05	142.23	9.5855e-07	1.1302e-06	198.12	58.272	1.1963e-06	1.3847e-06	100.38	45.679	20.725	6.9409	7.482e-07	18.763	6.2628e-06	2.2677e-06	5.1865e-07	123.83	2.6903e-08	1.6105e-08	170.98	49.597	2.054e-08	2.0488e-08	83.598	38.27	17.33	5.811	2.2473e-08	15.603	497.941	211.963	224.391	187.073	319.597	341.024	187.806	193.342	323.394	317.563	191.394	194.393	196.943	202.941	309.995	198.780	-8191	255	
3741.389	1	1	0	0	0.091812	0.10206	0.27335	0.12181	0.16442	0.32779	0.50424	0.18612	0.063458	0.13234	0.24366	0.28059	0.13978	0.069831	0.076601	0.17277	-1.1479	-0.37292	-0.80208	-1.675	-0.26875	-1.4021	-1.2146	-0.13542	-1.7417	-0.75	-0.62917	-1.6667	-0.27708	-1.2563	-1.2229	-0.20208	369.899	240.686	225.877	232.208	419.500	297.509	426.730	489.404	333.043	199.489	336.188	223.811	368.629	499.422	203.056	401.187	0.00039678	0.00010692	3.5731e-05	147.67	7.8788e-07	5.7788e-07	196.29	58.16	1.217e-06	1.766e-06	98.687	45.69	20.451	6.8767	1.5835e-07	18.821	6.767e-06	2.1369e-06	5.3996e-07	124.98	2.5898e-08	1.6014e-08	169.99	49.889	2.054e-08	2.0549e-08	83.218	38.282	17.228	5.8206	1.5712e-08	15.672	499.026	204.570	224.541	186.568	329.184	314.154	187.441	192.942	284.981	301.615	191.742	194.655	197.524	203.101	248.076	199.235	-8191	255	
3741.485	1	1	0	0	0.044888	0.13192	0.1692	0.41999	0.078109	0.20733	0.073256	0.081255	0.096757	0.14663	0.10322	0.099068	0.24124	0.19609	0.32774	0.061377	-1.3417	-0.7125	-0.67292	-1.6417	-0.35833	-1.3292	-1.2771	-0.52917	-1.4208	-0.60417	-0.52292	-1.5167	-0.37083	-0.94167	-1.2021	-0.37083	211.439	449.874	416.933	484.884	532.036	291.098	520.282	467.683	274.304	496.498	274.678	490.240	520.444	399.055	435.080	340.013	0.00034984	6.3144e-05	2.6443e-05	144.2	1.0124e-06	1.2978e-06	196.42	57.583	4.4295e-07	1.1917e-06	97.099	44.986	20.411	6.7934	6.9865e-07	18.585	6.1408e-06	2.4653e-06	4.6326e-07	123.82	2.471e-08	1.9058e-08	170.72	49.479	2.121e-08	2.2056e-08	82.097	38.025	17.208	5.7689	1.9176e-08	15.573	497.728	213.919	225.478	187.161	321.726	315.084	188.026	193.286	302.930	287.264	191.908	194.583	197.322	203.029	274.592	199.515	-8191	255	
3741.581	1	1	0	0	0.1333	0.37834	0.28645	0.12268	0.0085971	0.36877	0.089478	0.15367	0.19271	0.22685	0.15057	0.14252	0.34106	0.41516	0.32942	0.12115	-1.2896	-0.64583	-0.41458	-1.7375	-0.17083	-1.2229	-1.4146	-0.40625	-1.6938	-0.69792	-0.7875	-1.7188	-0.36042	-1.0229	-1.2792	-0.50417	378.100	358.821	502.589	373.978	227.866	480.485	495.149	436.631	285.429	453.045	296.451	391.750	482.421	469.290	318.025	518.564	0.00036648	0.00013719	3.7323e-05	143.82	7.4672e-07	7.294e-07	199.34	57.232	9.2917e-07	8.2446e-07	98.568	45.325	20.267	6.8031	8.969e-07	18.656	6.6382e-06	2.1022e-06	5.2601e-07	124	3.2083e-08	1.6303e-08	171.1	49.389	2.2154e-08	1.8479e-08	82.594	38.256	17.168	5.797	1.9222e-08	15.616	490.733	251.700	239.952	187.173	283.583	343.167	187.525	193.322	291.352	310.178	191.249	195.232	197.124	203.695	282.782	198.734	-8191	255	
3741.678	1	1	0	0	0.13489	0.071351	0.15683	0.28313	0.098259	0.2207	0.072584	0.10693	0.13138	0.1564	0.15201	0.21053	0.125	0.057208	0.069681	0.24612	-1.0667	-0.84375	-0.62708	-1.55	-0.26667	-0.79167	-1.2833	-0.29167	-1.2958	-0.95208	-0.58958	-1.5729	-0.48125	-0.86667	-1.3854	-0.35208	524.450	475.434	348.914	364.952	461.068	321.613	423.335	486.386	511.068	520.663	179.603	490.442	296.527	294.081	246.706	478.961	0.00034254	0.00012329	4.2815e-05	145.75	8.2499e-07	5.5057e-07	199.6	56.908	6.839e-07	7.217e-07	96.343	44.615	20.345	6.765	9.5653e-07	18.428	6.6697e-06	2.1982e-06	5.0587e-07	124.5	2.3323e-08	1.9926e-08	171.76	49.22	2.0692e-08	2.0534e-08	81.679	37.724	17.128	5.7025	1.6183e-08	15.377	496.087	221.105	220.569	187.167	300.311	327.809	187.580	194.647	307.891	308.538	191.845	194.743	197.475	203.336	328.275	198.671	-8191	255	
3741.774	1	1	0	0	0.385	0.20636	0.034627	0.25501	0.16385	0.2822	0.12417	0.26877	0.10535	0.069199	0.2461	0.10609	0.041298	0.033074	0.14238	0.21132	-1.0146	-1.0063	-0.52083	-1.6063	-0.45208	-0.69375	-1.55	-0.15625	-1.5146	-1.075	-0.35208	-1.7313	-0.60625	-0.73333	-1.6354	-0.39375	471.365	190.977	229.780	517.258	419.035	506.662	419.527	384.810	385.544	498.729	238.180	223.847	424.031	394.810	367.807	248.365	0.00030424	6.3273e-05	4.7909e-05	145.29	6.3753e-07	5.6192e-07	195.9	56.509	7.596e-07	1.3215e-06	96.079	44.153	20.154	6.6969	2.7251e-07	18.222	6.2381e-06	1.8517e-06	5.4189e-07	124.16	2.2775e-08	1.9088e-08	170.7	48.681	2.1331e-08	1.7916e-08	81.497	37.356	16.956	5.6894	1.7474e-08	15.277	496.127	208.349	209.266	187.560	235.178	309.090	187.892	193.480	298.397	329.429	190.728	194.781	196.360	201.677	403.459	198.683	-8191	255	
3741.893	1	1	0	0	0.22074	0.21608	0.12858	0.26086	0.12699	0.11011	0.10932	0.09781	0.26386	0.2486	0.20726	0.082655	0.17693	0.16011	0.24759	0.20896	-0.94375	-1.0562	-0.45417	-1.6333	-0.75833	-0.94792	-1.4729	-0.65208	-1.1625	-1.175	-0.4625	-1.4021	-0.675	-0.84792	-1.4937	-0.64792	315.807	375.950	489.462	437.622	415.619	275.060	300.122	348.472	533.529	381.434	204.572	301.161	508.660	223.305	248.630	254.906	0.00034141	0.00013445	2.9629e-05	140.52	1.0825e-06	1.0735e-06	200.32	56.994	1.2987e-06	9.2872e-07	97.528	44.475	20.005	6.7591	7.3066e-07	18.409	6.6724e-06	2.3192e-06	6.4028e-07	123.53	2.7954e-08	2.0763e-08	171.77	49.423	2.5001e-08	1.825e-08	82.507	37.862	17.068	5.7532	1.8492e-08	15.45	498.276	228.806	263.231	187.721	319.122	326.155	188.009	193.458	285.953	252.769	191.866	195.178	197.027	203.300	268.418	199.858	-8191	255	
3741.989	1	1	0	0	0.060662	0.16676	0.052578	0.18296	0.4041	0.15646	0.11382	0.37022	0.082232	0.06491	0.14147	0.19781	0.12911	0.26245	0.038503	0.20782	-0.73958	-1.1063	-0.4375	-1.3917	-0.80625	-0.81667	-1.5187	-0.45208	-1.225	-1.2833	-0.39167	-1.3813	-0.89583	-0.82292	-1.4813	-0.59583	184.416	181.754	493.951	494.276	450.999	281.706	329.686	433.259	198.788	296.420	404.449	340.633	485.479	247.696	492.741	504.393	0.00034807	0.00011319	3.8923e-05	144.78	7.858e-07	9.8632e-07	200.94	58.285	1.139e-06	1.3689e-06	99.947	45.248	20.377	6.8322	1.2922e-06	18.847	6.4792e-06	2.1314e-06	5.539e-07	125	2.1846e-08	2.1707e-08	172.44	50.328	2.2778e-08	1.854e-08	83.805	38.329	17.335	5.7944	1.9419e-08	15.78	497.720	222.516	261.213	186.224	285.034	357.521	187.080	193.467	324.550	317.663	190.913	194.865	196.766	202.719	278.611	199.155	-8191	255	
#DATA ENDS
