BOXY.EXE: ISS Imagent and Oximeter Data Acquisition Program Version 0.80
Ascii Record File

#ACQ INFORMATION
2  Detector Channels 
16  External MUX Channels 
1  Auxiliary Channels 
5000  Waveform (CCF) Frequency (Hz)
1  Waveforms Skipped 
30  Waveforms Averaged 
1  Cycles Averaged 
16  Acquisitions per Waveform 
10.0806  Updata Rate (Hz) 

#FILE INFORMATION
TRUE -- External MUX Channel results are PARSED.
FALSE -- AC DC and Phase are NOT grouped.
TRUE -- Companion Program Settings File CREATED.
FALSE -- AC data not excluded
FALSE -- DC data not excluded
FALSE -- Phase data not excluded
FALSE -- Auxillary Chn. data not excluded
Tab delimiters

#CALIBRATION STATE
TRUE -- Waveform Calibration Values APPLIED.


#AUX CALIBRATION VALUES
Val Type	aux-1	

Term	1.0000e+00	
Factor	0.0000e+00	


#WF CALIBRATION VALUES
A = Detector Channel
Val Type	A-AC1	A-AC2	A-AC3	A-AC4	A-AC5	A-AC6	A-AC7	A-AC8	A-AC9	A-AC10	A-AC11	A-AC12	A-AC13	A-AC14	A-AC15	A-AC16	A-DC1	A-DC2	A-DC3	A-DC4	A-DC5	A-DC6	A-DC7	A-DC8	A-DC9	A-DC10	A-DC11	A-DC12	A-DC13	A-DC14	A-DC15	A-DC16	A-Ph1	A-Ph2	A-Ph3	A-Ph4	A-Ph5	A-Ph6	A-Ph7	A-Ph8	A-Ph9	A-Ph10	A-Ph11	A-Ph12	A-Ph13	A-Ph14	A-Ph15	A-Ph16	

Term	0.00000e+00	0.00000e+00	0.00000e+00	0.00000e+00	0.00000e+00	0.00000e+00	0.00000e+00	0.00000e+00	0.00000e+00	0.00000e+00	0.00000e+00	0.00000e+00	0.00000e+00	0.00000e+00	0.00000e+00	0.00000e+00	0.00000e+00	0.00000e+00	0.00000e+00	0.00000e+00	0.00000e+00	0.00000e+00	0.00000e+00	0.00000e+00	0.00000e+00	0.00000e+00	0.00000e+00	0.00000e+00	0.00000e+00	0.00000e+00	0.00000e+00	0.00000e+00	0.00000e+00	0.00000e+00	0.00000e+00	0.00000e+00	0.00000e+00	0.00000e+00	0.00000e+00	0.00000e+00	0.00000e+00	0.00000e+00	0.00000e+00	0.00000e+00	0.00000e+00	0.00000e+00	0.00000e+00	0.00000e+00	
Factor	1.00000e+00	1.00000e+00	1.00000e+00	1.00000e+00	1.00000e+00	1.00000e+00	1.00000e+00	1.00000e+00	1.00000e+00	1.00000e+00	1.00000e+00	1.00000e+00	1.00000e+00	1.00000e+00	1.00000e+00	1.00000e+00	1.00000e+00	1.00000e+00	1.00000e+00	1.00000e+00	1.00000e+00	1.00000e+00	1.00000e+00	1.00000e+00	1.00000e+00	1.00000e+00	1.00000e+00	1.00000e+00	1.00000e+00	1.00000e+00	1.00000e+00	1.00000e+00	X	X	X	X	X	X	X	X	X	X	X	X	X	X	X	X	

B = Detector Channel
Val Type	B-AC1	B-AC2	B-AC3	B-AC4	B-AC5	B-AC6	B-AC7	B-AC8	B-AC9	B-AC10	B-AC11	B-AC12	B-AC13	B-AC14	B-AC15	B-AC16	B-DC1	B-DC2	B-DC3	B-DC4	B-DC5	B-DC6	B-DC7	B-DC8	B-DC9	B-DC10	B-DC11	B-DC12	B-DC13	B-DC14	B-DC15	B-DC16	B-Ph1	B-Ph2	B-Ph3	B-Ph4	B-Ph5	B-Ph6	B-Ph7	B-Ph8	B-Ph9	B-Ph10	B-Ph11	B-Ph12	B-Ph13	B-Ph14	B-Ph15	B-Ph16	

Term	0.00000e+00	0.00000e+00	0.00000e+00	0.00000e+00	0.00000e+00	0.00000e+00	0.00000e+00	0.00000e+00	0.00000e+00	0.00000e+00	0.00000e+00	0.00000e+00	0.00000e+00	0.00000e+00	0.00000e+00	0.00000e+00	0.00000e+00	0.00000e+00	0.00000e+00	0.00000e+00	0.00000e+00	0.00000e+00	0.00000e+00	0.00000e+00	0.00000e+00	0.00000e+00	0.00000e+00	0.00000e+00	0.00000e+00	0.00000e+00	0.00000e+00	0.00000e+00	-1.89397e+02	-1.65226e+02	-1.57126e+02	-1.83573e+02	-7.86518e+01	-6.98634e+01	-1.59024e+02	-1.62015e+02	-7.23741e+01	-8.28070e+01	-1.70632e+02	-1.70941e+02	-1.78840e+02	-1.76518e+02	-1.05877e+02	-1.49938e+02	
Factor	3.42563e-05	9.17672e-05	3.45975e-05	1.69658e-01	8.77912e-07	9.10906e-07	1.63438e-01	4.72968e-02	9.51688e-07	1.02407e-06	8.13686e-02	2.67452e-02	2.20867e-02	8.52368e-03	9.30633e-07	1.22118e-02	6.57652e-07	6.67795e-07	1.85925e-07	8.48753e-02	7.31233e-09	7.30656e-09	7.73714e-02	2.37719e-02	7.30843e-09	7.30628e-09	3.87263e-02	1.27484e-02	1.10087e-02	4.19686e-03	7.29356e-09	5.76721e-03	X	X	X	X	X	X	X	X	X	X	X	X	X	X	X	X	



#DISTANCE SETTINGS
A = Detector Channel
A-1	A-2	A-3	A-4	A-5	A-6	A-7	A-8	A-9	A-10	A-11	A-12	A-13	A-14	A-15	A-16	

2.5000e+00	3.0000e+00	2.5000e+00	3.0000e+00	2.0000e+00	3.0000e+00	1.5000e+00	3.0000e+00	3.0000e+00	3.0000e+00	3.0000e+00	3.0000e+00	3.0000e+00	3.0000e+00	1.5000e+00	3.0000e+00	

B = Detector Channel
B-1	B-2	B-3	B-4	B-5	B-6	B-7	B-8	B-9	B-10	B-11	B-12	B-13	B-14	B-15	B-16	

1.0000e+01	1.0000e+01	1.0000e+01	1.4400e+00	1.0000e+01	1.0000e+01	1.5100e+00	1.9400e+00	1.0000e+01	1.0000e+01	1.9900e+00	2.4900e+00	2.4100e+00	2.9000e+00	1.0000e+01	2.9800e+00	




#DATA BEGINS
time	group	step	mark	flag	A-AC1	A-AC2	A-AC3	A-AC4	A-AC5	A-AC6	A-AC7	A-AC8	A-AC9	A-AC10	A-AC11	A-AC12	A-AC13	A-AC14	A-AC15	A-AC16	A-DC1	A-DC2	A-DC3	A-DC4	A-DC5	A-DC6	A-DC7	A-DC8	A-DC9	A-DC10	A-DC11	A-DC12	A-DC13	A-DC14	A-DC15	A-DC16	A-Ph1	A-Ph2	A-Ph3	A-Ph4	A-Ph5	A-Ph6	A-Ph7	A-Ph8	A-Ph9	A-Ph10	A-Ph11	A-Ph12	A-Ph13	A-Ph14	A-Ph15	A-Ph16	B-AC1	B-AC2	B-AC3	B-AC4	B-AC5	B-AC6	B-AC7	B-AC8	B-AC9	B-AC10	B-AC11	B-AC12	B-AC13	B-AC14	B-AC15	B-AC16	B-DC1	B-DC2	B-DC3	B-DC4	B-DC5	B-DC6	B-DC7	B-DC8	B-DC9	B-DC10	B-DC11	B-DC12	B-DC13	B-DC14	B-DC15	B-DC16	B-Ph1	B-Ph2	B-Ph3	B-Ph4	B-Ph5	B-Ph6	B-Ph7	B-Ph8	B-Ph9	B-Ph10	B-Ph11	B-Ph12	B-Ph13	B-Ph14	B-Ph15	B-Ph16	aux-1	digaux	

3458.470	1	1	0	512	0.099345	0.12912	0.0098088	0.19077	0.11262	0.30642	0.11371	0.16293	0.062268	0.18573	0.12038	0.041771	0.23432	0.2256	0.12549	0.20212	-0.95833	-1.275	-0.50625	-1.4813	-0.85	-0.69792	-1.7042	-0.58542	-1.1771	-1.3146	-0.50208	-1.8083	-0.87292	-0.8375	-1.7208	-0.56042	75.707	62.186	46.716	-47.322	73.513	-30.140	-51.632	226.472	165.313	237.295	-1.897	91.797	200.940	-78.808	85.906	-4.532	0.00040051	0.00019104	0.00020022	744.84	1.5976e-06	3.2591e-06	965.86	265.41	8.1941e-07	6.9185e-06	410.76	158.37	95.144	39.85	3.7997e-06	72.558	0.0001418	0.00013393	3.642e-05	651.54	1.4643e-06	1.4622e-06	844.36	231.76	1.5351e-06	1.4897e-06	352.73	136.24	82.861	34.208	1.5306e-06	61.371	139.362	200.297	2.654	-69.759	46.463	65.029	-70.909	-64.848	-13.679	85.409	-66.409	-61.961	-60.557	-55.640	91.202	-57.737	-8191	255	
3458.566	1	1	0	0	0.058453	0.021751	0.058897	0.2391	0.24649	0.20278	0.22165	0.25177	0.083103	0.12186	0.22061	0.060406	0.18139	0.17075	0.15271	0.19307	-0.71042	-1.3104	-0.17917	-1.6792	-0.99792	-0.64167	-1.6667	-0.45208	-1.2437	-1.4708	-0.5125	-1.5521	-0.91875	-0.7125	-1.6125	-0.59375	118.336	-20.763	192.692	205.006	164.816	51.334	-71.374	-77.933	66.075	4.368	-49.734	166.172	209.151	19.942	-31.644	230.504	0.00030029	0.00026979	7.2595e-05	746.19	4.9537e-06	9.7895e-06	966.36	262.95	5.8308e-06	6.6772e-06	407.4	156.4	94.179	39.001	2.2308e-06	70.351	0.00015403	0.00014517	4.1559e-05	652.04	1.6455e-06	1.6388e-06	842.94	230.8	1.6854e-06	1.6747e-06	349.82	134.92	81.992	33.672	1.729e-06	59.969	116.177	23.222	-53.800	-70.051	22.065	31.562	-70.490	-64.728	62.438	17.957	-67.035	-62.461	-60.831	-55.496	-34.074	-58.232	-8191	255	
3458.662	1	1	0	0	0.042155	0.079453	0.30488	0.1572	0.13332	0.067152	0.3287	0.082879	0.19715	0.25797	0.082228	0.23673	0.4284	0.060826	0.18708	0.17255	-0.63125	-1.3146	-0.35625	-1.4896	-1.0104	-0.51042	-1.6604	-0.90417	-0.94792	-1.4229	-0.37708	-1.6333	-1.0875	-0.54792	-1.7958	-0.67083	206.160	273.222	73.015	246.873	126.559	70.364	204.378	111.152	244.931	110.333	250.492	227.042	188.195	-74.318	217.103	185.415	0.00028079	9.3986e-05	0.00021195	744.32	4.2958e-06	3.3705e-07	966.45	262.62	1.9615e-06	3.9527e-06	406.91	154.39	92.836	38.24	6.2453e-06	70.283	0.00017163	0.00016268	4.5376e-05	656.57	1.8046e-06	1.7626e-06	847.21	229.5	1.7915e-06	1.7193e-06	348.41	132.92	80.94	33.089	1.825e-06	59.698	109.076	54.954	-37.915	-70.397	23.870	47.515	-71.232	-65.059	-12.747	124.108	-66.620	-61.863	-60.468	-55.547	57.514	-57.580	-8191	255	
3458.758	1	1	0	0	0.072633	0.19498	0.21169	0.47347	0.19798	0.16883	0.050734	0.25593	0.068898	0.22695	0.21611	0.12336	0.19588	0.17301	0.22434	0.15894	-0.56458	-1.4479	-0.3375	-1.4479	-1.1854	-0.3875	-1.6688	-0.89792	-0.64375	-1.5542	-0.56667	-1.3917	-1.3396	-0.36875	-1.5396	-0.77708	183.979	-31.897	214.692	248.634	35.591	208.582	188.236	227.868	-21.297	204.695	236.607	-40.738	-72.850	270.511	211.255	245.965	0.00016182	0.00050254	0.00011498	749.72	5.3389e-06	1.5456e-06	960.29	261.4	9.4729e-06	7.2018e-07	403.36	154.01	92.821	38.149	4.1994e-06	69.707	0.00017497	0.00017053	4.6598e-05	660.52	1.8326e-06	1.8506e-06	847.34	228.58	1.8324e-06	1.7968e-06	346.98	132.67	80.793	33.034	1.8165e-06	59.177	123.215	-60.351	244.533	-69.590	52.244	188.109	-70.386	-64.443	103.187	97.834	-66.157	-61.389	-60.505	-55.165	-55.132	-57.368	-8191	255	
3458.853	1	1	0	0	0.035169	0.070671	0.23649	0.074022	0.18969	0.084203	0.29674	0.21185	0.34714	0.24343	0.039746	0.22683	0.15514	0.2047	0.047571	0.1301	-0.59583	-1.5167	-0.18958	-1.5125	-1.1938	-0.46875	-1.5854	-0.80208	-0.75	-1.5812	-0.57292	-1.3104	-1.2958	-0.26042	-1.4375	-0.97917	194.707	216.990	-70.825	119.414	-34.514	175.140	-73.481	173.111	101.426	103.112	8.597	187.586	81.501	265.884	182.574	269.740	0.00040778	8.5401e-05	2.6152e-05	744.67	4.8342e-06	2.5878e-06	952.58	259.92	4.1318e-06	8.2352e-06	399.83	151.19	91.966	37.731	5.7238e-06	68.791	0.0001715	0.00017069	4.7392e-05	653.83	1.8832e-06	1.9159e-06	840.42	228.06	1.9394e-06	1.9409e-06	344.89	131.04	80.351	32.85	1.9749e-06	58.404	120.899	249.117	226.812	-69.490	26.784	59.465	-70.348	-64.481	96.903	113.615	-66.242	-61.728	-60.227	-55.051	124.902	-57.734	-8191	255	
3458.949	1	1	0	0	0.022183	0.11956	0.11896	0.12951	0.21894	0.25523	0.39553	0.11731	0.048934	0.16961	0.28704	0.31323	0.053326	0.070078	0.14084	0.17507	-0.31875	-1.4167	-0.46667	-1.4021	-1.325	-0.30417	-1.7687	-0.82917	-0.62292	-1.6604	-0.58333	-1.2396	-1.5083	-0.56875	-1.5271	-1.1396	83.452	21.371	-16.628	245.374	15.124	117.418	168.150	146.931	33.475	141.162	196.761	-37.398	207.415	272.609	180.177	-51.958	0.00033924	0.00057828	0.00016736	744.29	6.2831e-06	3.9243e-06	952.03	259.24	3.722e-06	3.3728e-06	399.26	150.44	91.541	37.484	2.6093e-06	68.34	0.00018515	0.00018026	5.0205e-05	655.7	1.9753e-06	1.9723e-06	843.56	227.8	1.9718e-06	1.9838e-06	343.87	130.33	79.862	32.495	2.0124e-06	58.179	127.898	-66.077	-38.092	-69.685	90.426	30.752	-70.508	-64.081	58.182	-27.170	-65.982	-61.287	-60.406	-54.994	124.056	-57.778	-8191	255	
3459.069	1	1	0	0	0.093944	0.30105	0.028337	0.19883	0.16476	0.10389	0.064513	0.12045	0.18483	0.17303	0.071242	0.099647	0.12038	0.29085	0.17808	0.41375	-0.19167	-1.5542	-0.60208	-1.2125	-1.3687	-0.475	-1.4333	-1.0604	-0.52292	-1.6917	-0.56042	-1.1229	-1.3396	-0.44167	-1.3062	-1.2292	211.223	240.581	84.962	229.304	270.543	-37.720	28.405	130.087	-1.182	211.928	265.637	251.817	64.317	212.868	29.190	174.561	0.00032407	0.00052386	0.00017109	743.4	5.3518e-06	5.7548e-06	961.21	258.11	2.3413e-06	5.9705e-07	401.22	149.46	90.98	37.028	2.8506e-06	67.455	0.00018765	0.00018289	5.0723e-05	658.56	1.9567e-06	1.9691e-06	849.86	227.76	1.9691e-06	1.9725e-06	345.4	129.65	79.472	32.2	1.9896e-06	57.733	131.397	-0.117	95.003	-69.949	-59.039	96.389	-70.458	-65.020	104.980	114.803	-66.998	-61.602	-60.580	-54.994	200.956	-57.151	-8191	255	
3459.166	1	1	0	0	0.12155	0.27267	0.33774	0.094575	0.19682	0.21594	0.041208	0.34194	0.25777	0.10929	0.21257	0.277	0.020063	0.21828	0.15395	0.32048	-0.091667	-1.5667	-0.69583	-0.98125	-1.4271	-0.30417	-1.2542	-1.1729	-0.53542	-1.5146	-0.73333	-0.82083	-1.4625	-0.40625	-1.3583	-1.2437	179.504	-21.607	169.441	52.262	209.796	223.869	265.331	214.251	193.388	146.506	-38.939	252.707	207.011	266.089	145.065	204.000	0.00022869	0.00045192	4.4439e-05	738.69	2.9109e-06	9.0741e-06	966.27	257.84	4.4092e-06	4.9962e-06	401.89	150.11	91.003	37.168	2.1936e-06	68.038	0.00018531	0.00018067	5.0292e-05	657.79	1.94e-06	1.9757e-06	852.66	227.78	1.9178e-06	1.9199e-06	345.54	130.05	79.588	32.329	1.8662e-06	57.824	128.396	-39.000	261.103	-69.472	36.714	56.860	-69.976	-64.148	45.412	48.696	-65.774	-61.537	-59.680	-54.982	268.787	-57.413	-8191	255	
3459.262	1	1	0	0	0.088302	0.10708	0.26618	0.098297	0.022044	0.32569	0.04429	0.32694	0.11768	0.082169	0.28276	0.28957	0.11346	0.34568	0.14842	0.36506	-0.035417	-1.6313	-0.65208	-1.025	-1.4333	-0.51458	-1.6208	-1.4979	-0.475	-1.4875	-0.96875	-0.6875	-1.6625	-0.54167	-1.2042	-1.2708	-43.538	-55.797	120.527	-41.158	-74.850	-32.135	119.813	235.305	-66.855	184.577	199.500	250.350	133.494	-30.621	24.594	221.924	0.00039922	0.00029449	0.00016726	740.7	3.6676e-06	7.035e-06	959.51	257.59	4.5527e-06	5.6035e-06	396.76	150.56	90.632	37.13	1.14e-06	67.336	0.00017667	0.00016812	4.6504e-05	654.39	1.8081e-06	1.8003e-06	847.08	226.25	1.8272e-06	1.7961e-06	342.52	130.05	79.243	32.143	1.7823e-06	57.662	114.025	205.726	-10.038	-69.387	79.691	79.044	-69.936	-63.998	277.945	113.601	-66.010	-61.333	-59.855	-55.349	-47.497	-57.567	-8191	255	
3459.333	1	1	0	0	0.077322	0.048956	0.19768	0.43627	0.14109	0.22008	0.33793	0.26839	0.17284	0.17453	0.10161	0.12645	0.075448	0.18756	0.35832	0.16064	-0.095833	-1.3875	-0.75	-0.79167	-1.3854	-0.74583	-1.2875	-1.3667	-0.32708	-1.4188	-0.90208	-0.75208	-1.5312	-0.69167	-0.97083	-1.3958	110.810	-62.844	222.915	256.166	112.669	203.434	217.595	-54.268	-64.883	73.070	-67.398	212.884	260.373	222.134	72.397	174.199	0.0003141	0.00077792	0.00022724	741.42	2.4013e-06	6.9386e-06	963.89	259.32	2.365e-06	6.0239e-06	399.09	151.69	91.781	37.845	7.0041e-06	68.909	0.00017127	0.00016533	4.4304e-05	654.75	1.7823e-06	1.7851e-06	847.13	228.02	1.8381e-06	1.8224e-06	344.8	131.28	80.652	32.855	1.7678e-06	58.995	135.084	-23.444	-40.690	-69.405	22.472	-1.007	-69.765	-64.422	182.088	40.165	-65.936	-61.474	-59.555	-54.832	-5.961	-57.359	-8191	255	
3459.454	1	1	0	0	0.11938	0.36345	0.31911	0.36718	0.17515	0.16636	0.1475	0.29738	0.26807	0.10247	0.16852	0.45543	0.17765	0.20258	0.11713	0.47476	0.072917	-1.5771	-0.88125	-0.54167	-1.7146	-0.71042	-1.3083	-1.5854	-0.46875	-1.3813	-1.2542	-0.56875	-1.7271	-0.63333	-0.98958	-1.3625	178.445	64.063	195.346	256.671	173.181	103.663	221.083	269.883	196.908	189.062	270.046	261.946	124.625	140.410	-53.818	222.461	0.00038069	0.00028743	0.00023614	745.8	1.085e-06	6.5136e-06	969.29	263.45	1.742e-06	4.7126e-06	405	155.35	93.664	38.248	4.9594e-06	70.569	0.0001704	0.00016111	4.3118e-05	657.37	1.7194e-06	1.6899e-06	854.37	230.62	1.7215e-06	1.681e-06	350.18	133.66	81.322	33.135	1.64e-06	59.861	136.552	138.181	17.121	-69.293	29.512	85.873	-70.033	-64.655	176.135	36.345	-65.941	-61.288	-60.073	-55.149	4.712	-57.297	-8191	255	
3459.550	1	1	0	0	0.024264	0.15638	0.21347	0.26145	0.36027	0.12997	0.11995	0.35281	0.29686	0.28315	0.27402	0.25763	0.12992	0.28383	0.23859	0.2569	0.091667	-1.275	-0.92708	-0.74792	-1.6208	-0.79583	-1.3104	-1.6	-0.44375	-1.2271	-1.0688	-0.72292	-1.6333	-0.51875	-1.0083	-1.7125	-35.063	-8.645	145.353	237.871	48.100	-61.063	54.156	129.857	211.015	168.171	-25.627	203.449	67.233	217.141	16.781	228.919	0.00026284	0.00065318	0.00022647	754.89	1.5871e-06	5.205e-07	987.17	267.32	2.2647e-06	1.5162e-06	413.56	156.96	94.091	39.057	2.4197e-06	71.269	0.00016261	0.00014905	4.1522e-05	664.76	1.6494e-06	1.6403e-06	864.02	234.18	1.6329e-06	1.5921e-06	354.43	135.28	81.843	33.441	1.6097e-06	60.494	111.915	-56.859	-52.206	-69.190	-6.323	-50.287	-70.724	-64.903	15.942	71.077	-66.523	-61.581	-60.081	-55.650	-66.510	-57.415	-8191	255	
3459.646	1	1	0	0	0.47999	0.045679	0.23927	0.041803	0.14115	0.38084	0.12235	0.25053	0.15405	0.15797	0.26583	0.30829	0.051583	0.16174	0.43211	0.43191	-0.0041667	-1.5063	-1.1271	-0.41458	-1.5187	-0.54792	-0.9375	-1.4833	-0.28333	-1.3833	-1.4	-0.5125	-1.7625	-0.76042	-0.75417	-2.0062	129.213	48.934	67.269	260.383	78.860	87.848	188.451	171.695	147.001	-80.817	176.331	209.635	-47.107	256.238	-1.578	247.604	0.00027098	0.00036602	0.000354	759.72	5.7193e-06	3.6256e-06	987.57	266.47	5.1352e-06	2.4998e-06	410.74	156.98	94.263	38.853	3.0315e-06	70.699	0.00015696	0.00014686	4.0481e-05	662.9	1.6077e-06	1.5735e-06	864.1	233.51	1.6287e-06	1.5582e-06	352.19	134.47	81.947	33.436	1.5851e-06	60.278	143.667	152.069	-28.928	-69.865	104.701	90.037	-70.518	-64.196	86.539	4.667	-66.131	-61.370	-60.044	-55.054	-7.090	-56.954	-8191	255	
3459.742	1	1	0	0	0.19752	0.064872	0.23515	0.1144	0.23845	0.044357	0.3381	0.17544	0.11136	0.017371	0.10703	0.21024	0.17003	0.086286	0.071054	0.13817	0.016667	-1.3167	-1.1396	-0.35208	-1.6292	-0.85833	-0.825	-1.7521	-0.25208	-1.1104	-1.5375	-0.45625	-1.7375	-0.825	-0.69583	-1.7229	0.682	269.236	179.339	47.283	-52.079	221.367	199.452	271.760	-31.739	-49.566	173.410	163.812	230.756	172.267	-74.959	40.097	0.00043576	0.00074935	0.00019486	746.23	5.6608e-06	5.0889e-06	976.74	262.66	5.3135e-06	4.7278e-06	409.34	155.45	93.492	38.833	3.6386e-06	70.842	0.0001531	0.00014354	3.993e-05	659.34	1.5634e-06	1.5289e-06	860.14	231.43	1.5651e-06	1.525e-06	351.47	134.48	81.569	33.423	1.5671e-06	60.369	116.748	-8.207	6.090	-69.238	57.633	107.847	-69.722	-64.384	134.717	79.389	-66.226	-61.558	-60.083	-55.128	0.663	-57.349	-8191	255	
3459.861	1	1	0	0	0.21243	0.057406	0.14219	0.05722	0.14013	0.12543	0.17664	0.17291	0.050346	0.037918	0.091576	0.12532	0.44586	0.13711	0.12136	0.40889	-0.39792	-1.1083	-1.2021	-0.46042	-1.3854	-0.95208	-0.85625	-1.6271	-0.58958	-0.89167	-1.4813	-0.65208	-1.35	-0.98542	-0.52083	-1.5	267.560	25.144	85.939	192.025	182.161	253.695	-57.367	-35.800	155.591	235.323	100.418	34.091	270.495	143.531	120.859	230.404	0.00027696	0.00017555	1.6671e-05	751.48	2.4625e-06	2.5879e-06	992.5	264.18	3.0299e-06	4.8663e-06	412.77	156.59	93.803	38.406	6.1049e-06	70.359	0.0001483	0.00014006	3.8835e-05	661.83	1.4971e-06	1.5368e-06	865.24	231.61	1.5567e-06	1.5659e-06	353.16	134.57	81.691	33.197	1.5444e-06	60.266	113.148	2.611	246.828	-68.934	-41.580	90.710	-70.007	-64.183	-20.811	124.441	-66.021	-61.879	-59.602	-55.131	13.427	-57.504	-8191	255	
3459.933	1	1	0	0	0.075997	0.23827	0.062895	0.18019	0.055031	0.095227	0.25046	0.23017	0.14443	0.065658	0.029957	0.34437	0.22111	0.17574	0.22223	0.34044	-0.35208	-0.68958	-1.2938	-0.475	-1.2396	-1.0375	-0.82083	-1.6833	-0.56667	-0.88958	-1.4896	-0.65208	-1.3354	-1.1896	-0.51458	-1.4292	-30.918	27.843	225.749	155.492	173.341	239.136	217.172	-67.320	43.066	195.045	182.101	272.718	204.295	-37.474	-61.803	222.612	0.00025126	0.0005865	8.8128e-05	740.57	3.702e-06	4.8072e-06	981.64	263.81	7.9351e-06	1.2466e-06	408.49	155.42	92.424	38.305	1.8329e-06	70.542	0.00014348	0.00013701	3.6788e-05	661.64	1.4659e-06	1.4751e-06	870.61	232.61	1.4941e-06	1.5063e-06	354.73	135.11	81.594	33.161	1.5522e-06	60.319	106.216	-32.370	34.712	-68.670	127.970	87.030	-69.989	-64.088	162.435	-63.012	-65.668	-60.966	-59.272	-54.787	6.072	-56.818	-8191	255	
3460.031	1	1	0	0	0.322	0.2559	0.12193	0.28302	0.21506	0.23148	0.093139	0.1073	0.13158	0.062291	0.46428	0.13395	0.15081	0.26396	0.14326	0.1521	-0.14167	-0.5125	-1.5812	-0.3625	-1.3521	-1.0792	-0.8125	-1.6167	-0.61042	-0.63542	-1.5625	-0.80833	-1.3396	-1.2479	-0.38125	-1.6437	-79.131	-22.421	-35.520	197.666	-52.411	230.783	-54.105	188.928	-19.395	66.502	219.967	225.087	225.310	208.180	236.730	182.693	0.00034042	0.00056546	0.00032934	762.21	8.8441e-06	3.5156e-06	971.62	262.54	6.5486e-06	3.024e-06	407.11	153.41	93.139	38.12	4.8587e-06	70.194	0.0001486	0.00013948	3.8748e-05	667.08	1.5218e-06	1.5105e-06	863.44	231.63	1.4831e-06	1.4954e-06	352.04	133.81	81.447	33.151	1.4907e-06	59.893	134.504	-11.475	20.813	-69.295	32.756	115.365	-69.710	-64.159	7.788	54.217	-65.995	-61.126	-59.824	-54.847	-10.958	-57.318	-8191	255	
3460.150	1	1	0	0	0.17065	0.23218	0.10052	0.097825	0.35168	0.17323	0.12758	0.35178	0.25141	0.17919	0.063842	0.15694	0.0092042	0.19977	0.29501	0.15619	-0.25417	-0.8625	-1.3875	-0.47292	-1.0063	-1.2375	-0.525	-1.5292	-0.54583	-0.76875	-1.8833	-0.65417	-1.5083	-1.4667	-0.39167	-1.6646	237.527	151.813	70.794	267.658	247.539	150.008	-5.906	237.548	185.444	214.496	-15.738	254.530	178.747	205.138	240.725	184.433	0.00024925	0.00041341	0.00018172	747.38	2.0833e-06	2.4864e-06	985.8	264.37	2.7621e-06	1.2422e-06	412.69	155.39	93.707	38.495	2.8501e-06	70.771	0.00013672	0.00013101	3.4854e-05	658.29	1.3724e-06	1.3817e-06	864.44	231.71	1.4127e-06	1.3901e-06	352.47	133.86	81.429	33.023	1.4641e-06	60.028	142.297	-26.982	78.610	-69.144	0.027	-18.296	-70.063	-64.093	103.124	204.536	-66.336	-61.592	-59.984	-55.106	-6.526	-57.316	-8191	255	
3460.246	1	1	0	0	0.11155	0.17278	0.091208	0.038584	0.12697	0.17189	0.090328	0.14385	0.12939	0.20033	0.2825	0.16516	0.23738	0.12643	0.19153	0.1536	-0.46875	-0.70417	-1.5458	-0.46458	-1.2104	-1.3083	-0.36458	-1.6229	-0.71042	-0.71042	-1.475	-0.81875	-1.0458	-1.2958	-0.45	-1.4542	175.903	169.031	3.611	158.759	54.956	200.713	263.927	34.559	121.290	228.484	215.491	239.180	127.914	234.564	180.568	224.469	0.00034601	0.00029559	0.00011168	754.91	2.8524e-06	3.0247e-06	979.72	263.46	4.3914e-06	4.6385e-06	409.21	154.92	92.917	38.365	2.4464e-06	71.609	0.00013597	0.00013222	3.5914e-05	661.76	1.4235e-06	1.4545e-06	863.83	232.45	1.4144e-06	1.4143e-06	353.19	134	81.415	33.192	1.4161e-06	60.643	103.554	8.262	-17.708	-69.570	17.662	-34.349	-69.850	-64.016	59.325	42.014	-66.206	-61.028	-60.169	-54.929	69.815	-57.252	-8191	255	
3460.342	1	1	0	0	0.12955	0.18797	0.098009	0.24101	0.15737	0.34557	0.0083143	0.12688	0.13568	0.19108	0.1824	0.26578	0.17853	0.20029	0.19313	0.25454	-0.72292	-0.61667	-1.6396	-0.54167	-0.84792	-1.3875	-0.66042	-1.4625	-0.94167	-0.76458	-1.4542	-0.675	-0.89375	-1.55	-0.14583	-1.5479	163.353	81.824	3.115	222.643	233.979	51.024	232.079	254.801	3.472	-81.113	-70.079	121.603	228.592	-71.056	92.591	258.574	0.00030826	0.00087085	0.00012449	751.53	2.8272e-06	3.5202e-06	1000.2	266.06	6.5708e-06	5.1891e-06	414.32	156.45	94.53	39.142	6.3217e-06	71.743	0.00013583	0.00012917	3.5473e-05	661.69	1.4277e-06	1.4212e-06	870.03	233.04	1.4393e-06	1.4402e-06	355.88	135.76	82.468	33.676	1.3981e-06	61.053	146.755	-19.956	-19.019	-70.085	-11.840	87.847	-70.137	-64.097	8.359	14.728	-65.929	-61.687	-59.779	-55.186	38.581	-57.042	-8191	255	
3460.463	1	1	0	0	0.055254	0.21985	0.25974	0.013584	0.10074	0.10186	0.24176	0.15114	0.045057	0.11872	0.21958	0.18463	0.06604	0.082197	0.15347	0.37497	-0.70208	-0.33958	-1.6729	-0.42708	-0.8125	-1.4229	-0.44583	-1.4688	-1.0021	-0.30417	-1.6562	-0.59583	-0.77708	-1.65	-0.24583	-1.5375	133.667	75.465	58.489	205.913	189.934	0.616	185.993	-65.006	88.162	106.862	216.794	-4.580	163.549	236.472	67.841	227.370	0.00036052	0.00025327	8.8745e-05	747.33	3.8781e-06	4.873e-06	982.08	263.24	3.1639e-06	7.6169e-06	412.57	159.49	95.461	39.453	5.0934e-06	72.694	0.0001348	0.0001282	3.405e-05	661.32	1.3754e-06	1.3346e-06	867.19	233.47	1.3802e-06	1.3405e-06	355.5	136.64	82.751	33.845	1.3519e-06	61.415	114.247	263.593	-13.838	-69.144	18.648	102.600	-69.830	-64.092	134.310	35.181	-65.998	-62.130	-60.348	-55.125	-25.215	-57.353	-8191	255	
3460.559	1	1	0	0	0.080085	0.097868	0.31494	0.14468	0.11759	0.074026	0.19522	0.19376	0.098797	0.13061	0.3152	0.061235	0.092834	0.18156	0.12879	0.17136	-0.79583	-0.39375	-1.6729	-0.69167	-0.59792	-1.4625	-0.55	-1.2979	-0.93125	-0.39583	-1.4875	-0.88333	-0.88542	-1.4375	-0.50625	-1.4438	162.149	77.439	22.909	-14.988	-0.307	197.279	199.548	252.844	179.539	-73.366	226.045	40.860	5.869	61.940	52.740	-68.457	0.00030377	0.00049073	0.00018437	758.98	2.4192e-06	5.9816e-06	984.42	268.07	5.5566e-06	2.0646e-06	399.88	153.23	92.718	37.898	3.7681e-06	69.878	0.00013304	0.00012575	3.4306e-05	662.39	1.4003e-06	1.3637e-06	863.43	234.33	1.3824e-06	1.3346e-06	351.95	134.87	81.742	33.237	1.3344e-06	60.71	117.611	-58.413	-70.571	-69.836	73.948	13.976	-70.445	-64.413	64.714	130.726	-65.028	-61.032	-59.272	-54.599	75.479	-56.513	-8191	255	
3460.631	1	1	0	0	0.20028	0.19633	0.11765	0.24188	0.10682	0.22585	0.24001	0.22416	0.15834	0.13642	0.1382	0.38286	0.19132	0.1308	0.072409	0.2234	-0.75625	-0.51042	-1.4688	-0.68333	-0.54167	-1.4708	-0.6	-1.1771	-1.1417	-0.35208	-1.5979	-1.0208	-0.8875	-1.6146	-0.47917	-1.1521	117.973	228.046	38.115	222.778	204.413	231.932	165.408	275.772	-13.346	11.611	-21.002	243.996	63.689	-55.230	130.428	272.066	0.00026768	0.0003387	0.0001595	737.67	8.7864e-07	1.7507e-06	974.04	260.52	3.5319e-06	6.0736e-06	407.65	155.19	92.588	38.21	6.5241e-06	71.108	0.00012951	0.00012228	3.2962e-05	658.29	1.3314e-06	1.2828e-06	866.38	232.54	1.2684e-06	1.2444e-06	356.31	135.77	81.902	33.46	1.2668e-06	61.094	119.093	41.175	-10.136	-69.453	74.808	79.478	-69.537	-63.705	32.009	57.671	-65.257	-61.009	-59.025	-54.264	22.712	-56.761	-8191	255	
3460.727	1	1	0	0	0.25971	0.10422	0.12751	0.18446	0.27208	0.11298	0.082084	0.21722	0.079912	0.13288	0.27744	0.25368	0.24547	0.22059	0.12488	0.051172	-0.90833	-0.2125	-1.475	-0.80417	-0.56667	-1.3646	-0.47292	-1.2646	-1.4354	-0.175	-1.5938	-0.90208	-0.67292	-1.5625	-0.42917	-0.975	147.169	-51.228	250.631	214.925	4.974	222.282	197.237	-28.145	26.441	-25.649	232.102	230.281	219.603	-65.858	214.409	21.372	0.00045472	0.00042394	0.00015566	750.11	4.5635e-06	3.8137e-06	987.29	264.16	2.6875e-06	5.0096e-06	418.93	158.78	95.25	39.019	1.5002e-06	72.424	0.0001245	0.00011557	3.1568e-05	662.84	1.2623e-06	1.2698e-06	873.18	234.64	1.2655e-06	1.2427e-06	360.03	137.66	83.008	33.752	1.2926e-06	61.868	107.537	-31.981	219.340	-69.443	40.070	90.540	-70.049	-64.136	21.647	-8.121	-65.897	-61.722	-59.437	-55.228	-20.439	-57.079	-8191	255	
3460.846	1	1	0	0	0.23901	0.16269	0.10952	0.15508	0.18603	0.15204	0.3054	0.17265	0.21168	0.07696	0.27063	0.091829	0.018465	0.16263	0.27533	0.043414	-1.0458	-0.34375	-1.2875	-1.0583	-0.50833	-1.4438	-0.67083	-0.95625	-1.3979	-0.38542	-1.5458	-1.2125	-0.475	-1.6688	-0.43125	-0.99792	166.418	114.307	38.962	273.295	233.421	143.383	160.478	274.691	49.160	117.908	-73.186	161.268	85.531	240.115	131.346	266.862	0.00038129	0.00040826	0.00022917	742.37	2.0092e-06	8.2618e-06	974.56	262.52	4.2894e-06	4.6394e-06	406.35	155.52	92.731	38.18	4.3205e-06	71.113	0.000123	0.00011463	3.2107e-05	662.25	1.2517e-06	1.2293e-06	868.74	234.63	1.2516e-06	1.2396e-06	357.18	136.92	82.262	33.577	1.3001e-06	61.237	111.141	-3.588	39.316	-68.995	58.102	67.309	-69.594	-63.593	55.884	94.462	-65.466	-60.959	-59.218	-54.363	60.679	-56.772	-8191	255	
3460.942	1	1	0	0	0.21687	0.21046	0.10594	0.28593	0.071195	0.067827	0.14924	0.25647	0.14751	0.076178	0.18268	0.30444	0.14128	0.15589	0.05349	0.24895	-1.1688	-0.3125	-1.4458	-1.1854	-0.37292	-1.7167	-0.58958	-0.95	-1.5271	-0.29167	-1.5729	-1.4958	-0.37083	-1.6542	-0.39792	-0.86042	8.201	250.862	176.528	121.800	226.821	254.769	173.676	250.354	-51.667	194.806	229.641	243.510	234.579	-46.869	34.703	218.424	0.00039626	0.00046137	0.00023924	739.47	1.4085e-06	3.0928e-06	979.93	263.68	4.7478e-06	5.645e-06	407.19	154.62	93.021	38.264	3.9672e-06	71.837	0.00012472	0.00011881	3.345e-05	660.81	1.309e-06	1.2839e-06	866.22	233.71	1.2872e-06	1.2758e-06	354.64	135.37	81.737	33.279	1.2652e-06	60.958	119.449	-22.989	4.884	-69.126	136.285	41.433	-69.967	-64.061	64.983	54.281	-65.195	-61.581	-59.511	-54.475	127.192	-57.117	-8191	255	
3461.038	1	1	0	0	0.093386	0.1694	0.35961	0.04341	0.21298	0.18637	0.16587	0.091003	0.27032	0.20613	0.087555	0.27357	0.038986	0.11134	0.42351	0.080326	-1.3104	-0.10417	-1.6083	-1.1771	-0.14167	-1.6979	-0.67083	-0.74583	-1.7146	-0.33542	-1.3771	-1.3125	-0.47917	-1.6437	-0.77292	-0.60833	169.192	95.131	182.409	211.328	186.948	112.260	-72.243	-9.556	69.536	-54.733	158.191	264.016	242.169	44.651	193.935	160.556	0.00024821	0.00068406	0.00017084	764.77	3.9669e-06	6.5313e-07	994.35	266.45	6.4743e-06	2.7465e-06	415.04	156.46	93.804	38.571	7.5038e-06	71.316	0.00012392	0.00011467	3.234e-05	664.44	1.2755e-06	1.3206e-06	872.56	234.4	1.2978e-06	1.3245e-06	356.56	135.54	81.908	33.272	1.3071e-06	60.756	106.015	-7.722	-1.377	-69.973	-24.119	12.236	-70.195	-64.178	49.802	95.611	-65.790	-61.458	-59.771	-54.828	19.405	-57.507	-8191	255	
3461.134	1	1	0	0	0.16339	0.13794	0.24022	0.1266	0.23532	0.12479	0.21223	0.18426	0.16453	0.4771	0.38374	0.29329	0.31924	0.13133	0.042099	0.17025	-1.2396	-0.40417	-1.0229	-1.3375	-0.45208	-1.3375	-0.99167	-0.71667	-1.4542	-0.63542	-1.2875	-1.3604	-0.52917	-1.3687	-0.95	-0.86042	138.008	240.372	-15.548	178.446	136.537	94.905	235.490	211.656	0.631	208.545	210.597	240.263	223.841	180.153	59.207	266.884	0.00030105	0.0003441	9.8924e-05	753.92	1.6638e-06	4.307e-06	984.55	260.81	2.8406e-06	5.5417e-06	410.13	156.22	93.934	38.193	4.4178e-06	71.911	0.00012699	0.00011815	3.3348e-05	665.65	1.3136e-06	1.3129e-06	875.18	233.48	1.2992e-06	1.2671e-06	358	136.65	82.63	33.52	1.3183e-06	61.522	129.132	257.826	-26.034	-69.363	21.754	32.424	-69.862	-63.656	62.352	115.917	-65.124	-60.989	-59.323	-54.813	47.948	-56.709	-8191	255	
3461.230	1	1	0	0	0.12645	0.029086	0.15207	0.04363	0.18191	0.14325	0.41956	0.2508	0.10701	0.16902	0.33328	0.35232	0.15762	0.1624	0.05408	0.3946	-1.1708	-0.50833	-0.96875	-1.275	-0.4625	-1.1979	-0.84792	-0.86458	-1.3083	-0.56875	-1.1208	-1.3563	-0.58333	-1.4146	-0.9125	-0.73542	-17.552	85.252	83.600	143.023	-1.132	-71.600	193.404	233.007	-78.637	22.537	-64.782	186.237	-81.391	-15.886	10.912	231.368	0.0004089	0.00019246	9.796e-05	762.35	3.5054e-06	2.9565e-06	1001	266.96	3.7853e-06	1.8708e-06	422.57	159.82	95.425	38.496	2.5188e-06	72.132	0.00012897	0.00012163	3.3499e-05	670.51	1.327e-06	1.3207e-06	881.29	236	1.3663e-06	1.3628e-06	361.47	137.64	82.816	33.487	1.4292e-06	61.346	115.551	263.502	24.409	-69.636	46.326	46.458	-69.984	-64.118	6.362	85.797	-65.868	-61.380	-59.836	-55.026	198.475	-57.142	-8191	255	
3461.326	1	1	0	0	0.28507	0.27338	0.14159	0.027649	0.28797	0.13884	0.082091	0.25482	0.33376	0.077712	0.19949	0.29233	0.11475	0.31319	0.20895	0.095086	-0.9	-0.52708	-0.76042	-1.4188	-0.00625	-1.4792	-1.1646	-0.4125	-1.3896	-0.38542	-0.93542	-1.6271	-0.40833	-1.3312	-1.0833	-0.41667	47.971	-54.026	240.109	161.194	0.914	-18.448	22.265	239.185	-2.345	187.785	268.155	234.644	169.103	225.773	113.838	-71.145	0.00046545	0.00028098	0.0001182	756.79	5.3578e-06	3.1301e-06	998.24	268.02	2.3047e-06	3.1703e-06	420.26	159.5	95.567	38.938	6.0678e-06	72.185	0.00014056	0.00013527	3.6028e-05	665.12	1.4695e-06	1.5024e-06	871.97	234.67	1.5202e-06	1.5287e-06	358.18	136.89	82.779	33.59	1.5551e-06	61.253	101.499	-6.286	-36.174	-69.133	73.630	90.350	-70.344	-64.438	92.151	273.636	-65.892	-61.711	-60.250	-55.305	-9.316	-57.424	-8191	255	
3461.422	1	1	0	0	0.034552	0.052594	0.1498	0.066544	0.134	0.18922	0.17082	0.28373	0.1111	0.052635	0.18264	0.030651	0.18101	0.28585	0.2229	0.3352	-1.2417	-0.4875	-0.65833	-1.4875	-0.29167	-1.3083	-1.3417	-0.48542	-1.4438	-0.75833	-0.80833	-1.6187	-0.49167	-1.4354	-0.93125	-0.50625	144.792	88.547	180.843	-35.780	113.433	199.614	-33.360	-79.184	163.857	77.913	74.531	100.035	-61.378	-56.766	-5.136	221.009	0.00034761	0.00055845	0.0002014	753.54	4.8759e-06	1.7499e-06	978.8	267.36	1.0762e-06	7.2183e-06	415.5	157.6	94.495	38.677	6.0322e-06	71.655	0.00015146	0.00014685	3.9543e-05	660.44	1.5957e-06	1.5791e-06	862.86	234.41	1.6053e-06	1.5605e-06	358.68	137.01	82.712	33.702	1.5607e-06	61.523	112.307	-27.237	-14.684	-69.308	-1.473	72.120	-69.976	-64.051	3.350	-21.515	-65.724	-61.547	-60.148	-54.683	9.749	-56.966	-8191	255	
3461.543	1	1	0	0	0.11792	0.19293	0.13023	0.2953	0.10143	0.20321	0.074069	0.33175	0.11311	0.26556	0.38837	0.25102	0.14118	0.2879	0.17057	0.049929	-1.3542	-0.77083	-0.53333	-1.7792	-0.69583	-0.98958	-1.4771	-0.50417	-1.4125	-0.9125	-0.77083	-1.5729	-0.60208	-1.0792	-1.325	-0.50625	229.785	91.361	221.326	198.877	120.770	106.620	171.852	187.789	64.287	-15.977	262.319	250.071	225.322	219.646	-18.345	188.231	0.0001039	0.00065848	0.00016921	741.89	1.3065e-06	6.6077e-06	971.32	265.46	9.9048e-07	4.0896e-06	409.41	157.21	93.607	38.953	3.5625e-06	71.768	0.00015769	0.00015331	4.1394e-05	659.16	1.7295e-06	1.6859e-06	862.06	234.15	1.6901e-06	1.6513e-06	357.22	137.16	82.534	33.835	1.6561e-06	61.59	121.507	-9.307	21.359	-69.757	86.154	17.330	-70.190	-64.115	231.483	115.084	-65.685	-61.254	-59.824	-55.011	66.286	-57.037	-8191	255	
3461.637	1	1	0	0	0.2198	0.12947	0.026661	0.32889	0.099005	0.4776	0.3101	0.21487	0.26229	0.021307	0.1276	0.30663	0.33188	0.16669	0.17781	0.26612	-0.77708	-0.70625	-0.61042	-1.5208	-0.36042	-0.99792	-1.3417	-0.48125	-1.3292	-0.91458	-0.8	-1.5187	-0.40625	-1.225	-1.3312	-0.60625	275.033	-3.525	-81.467	181.183	273.530	166.166	217.680	248.202	64.393	96.639	222.419	-31.322	168.453	-3.961	122.877	205.192	0.00033984	0.00026963	0.00023017	756.25	2.779e-06	1.7539e-06	1000.7	269.65	5.4756e-06	6.714e-06	422.46	159.9	96.088	39.624	1.6601e-06	72.729	0.00016351	0.00015282	4.1558e-05	663.65	1.6955e-06	1.6499e-06	871.01	235.91	1.6554e-06	1.6378e-06	360.46	137.88	83.137	33.943	1.629e-06	61.753	100.826	-31.852	-46.076	-69.812	2.673	-9.370	-70.490	-64.341	24.345	115.639	-66.029	-61.755	-60.175	-55.304	96.192	-57.504	-8191	255	
3461.734	1	1	0	0	0.15964	0.1004	0.11606	0.04828	0.32791	0.42021	0.57584	0.2438	0.37706	0.092457	0.0418	0.047413	0.045273	0.30323	0.11805	0.2529	-1.0396	-0.74583	-0.575	-1.6375	-0.45625	-1.125	-1.6063	-0.33333	-1.2	-1.0438	-0.58958	-1.7729	-0.67917	-1.0021	-1.4417	-0.43958	-26.502	207.367	102.494	173.695	121.296	-81.170	184.835	-70.356	16.495	-21.126	84.382	209.350	137.191	272.164	-80.094	217.832	0.00049844	0.00066775	0.00015512	753.92	5.9532e-06	2.28e-06	985.22	266.88	3.3134e-06	6.2713e-06	411.78	157.9	94.247	38.904	8.2289e-06	71.551	0.00015882	0.00014967	4.1753e-05	660.45	1.6399e-06	1.6538e-06	862.03	233.53	1.6485e-06	1.6152e-06	356	136.76	82.128	33.534	1.5839e-06	61.271	103.456	214.200	268.428	-69.643	70.816	120.954	-70.163	-64.219	55.303	66.808	-65.791	-61.466	-60.179	-55.261	29.077	-57.470	-8191	255	
3461.832	1	1	0	0	0.1898	0.38142	0.092887	0.23284	0.085285	0.10959	0.30938	0.29371	0.11008	0.19422	0.17467	0.35088	0.17205	0.10378	0.077746	0.10514	-1.025	-0.975	-0.28333	-1.6187	-0.5375	-0.78958	-1.4958	-0.43333	-1.2729	-0.96875	-0.55417	-1.4708	-0.6375	-1.0146	-1.6063	-0.5	-49.206	48.268	-78.354	206.031	253.823	-68.176	237.923	-51.526	62.786	149.681	227.447	214.437	206.194	265.434	164.993	78.311	0.0002149	0.00056059	6.5707e-05	750.75	4.9481e-06	4.1636e-06	976.5	263.27	1.8058e-06	6.9505e-07	410.28	156.88	93.626	38.48	3.7689e-06	71.595	0.00015662	0.00014394	4.045e-05	656.24	1.5971e-06	1.5366e-06	859.01	232.61	1.526e-06	1.5245e-06	354.81	136.33	82.22	33.63	1.5119e-06	61.36	133.834	-71.410	-62.056	-69.196	57.806	-4.999	-70.001	-63.973	-44.719	240.801	-65.677	-61.191	-59.770	-54.414	120.463	-57.073	-8191	255	
3461.926	1	1	0	0	0.056758	0.17286	0.13362	0.23247	0.12893	0.31881	0.17965	0.23639	0.25321	0.23622	0.23084	0.25027	0.2059	0.16186	0.069053	0.16811	-0.8875	-1.1646	-0.18333	-1.6854	-0.59583	-0.7125	-1.6812	-0.35833	-1.2292	-1.2042	-0.16458	-1.7083	-0.70417	-0.61875	-1.6542	-0.57083	70.048	34.429	-35.809	198.397	-44.957	-18.867	232.149	229.076	235.277	267.225	260.934	-57.462	-21.339	263.950	-53.838	252.270	0.00033129	0.00064399	0.00019973	732.09	3.8511e-06	3.8031e-06	966.45	261.76	2.1578e-06	1.3643e-06	407.98	158.66	95.898	39.691	7.7303e-06	73.216	0.00014428	0.00013517	3.8294e-05	651.58	1.4843e-06	1.4658e-06	859.24	232.46	1.4627e-06	1.4243e-06	356.05	137.25	82.825	33.907	1.5026e-06	62.063	128.651	-73.559	-16.523	-69.163	52.501	12.506	-69.938	-63.888	22.395	42.694	-65.742	-61.458	-59.971	-54.619	18.479	-57.822	-8191	255	
3462.022	1	1	0	0	0.31782	0.10464	0.20754	0.18008	0.20049	0.25341	0.2702	0.054832	0.15483	0.16026	0.35065	0.29653	0.19999	0.098765	0.25881	0.30536	-0.85833	-1.1333	-0.16667	-1.6083	-0.74167	-0.65833	-1.7021	-0.57917	-1.0979	-1.3104	-0.34583	-1.4937	-0.96042	-0.76042	-1.4333	-0.52708	-48.776	221.578	110.514	276.238	193.462	203.902	257.152	255.569	103.455	89.100	247.914	212.937	272.009	267.445	66.285	167.112	0.00033427	0.00050732	0.00018774	754.01	4.5036e-06	1.9529e-06	996.21	268.33	3.8889e-06	1.1854e-06	421.48	161.99	96.852	40.252	3.9439e-06	74.406	0.00014735	0.00013997	3.9309e-05	657.49	1.5431e-06	1.5252e-06	868.5	234.75	1.5281e-06	1.5557e-06	360.96	139.17	83.824	34.448	1.5213e-06	62.967	124.187	7.098	24.270	-69.539	63.039	89.971	-70.372	-64.392	-70.015	85.991	-66.077	-61.767	-60.196	-55.351	101.201	-57.743	-8191	255	
3462.143	1	1	0	0	0.3389	0.1639	0.18295	0.14092	0.35842	0.19026	0.35651	0.033338	0.17378	0.12751	0.12431	0.28703	0.15113	0.11934	0.17941	0.17833	-0.62708	-1.3646	-0.23125	-1.4083	-0.73958	-0.69375	-1.7542	-0.57292	-1.1625	-1.4167	-0.35208	-1.5729	-0.95833	-0.63958	-1.3813	-0.50833	229.529	63.897	-30.492	261.639	196.743	-60.272	198.553	0.547	262.515	183.813	264.571	227.095	151.257	-37.811	196.179	196.516	0.00036475	7.0418e-05	0.00011858	742.86	5.474e-07	5.6105e-06	958.78	259.79	8.34e-06	4.2462e-06	404.66	159.63	93.573	38.762	1.3664e-06	71.498	0.00014363	0.00014028	3.8891e-05	653.69	1.5089e-06	1.543e-06	855.92	232.68	1.5205e-06	1.5549e-06	355.09	138.02	82.756	34.045	1.5636e-06	62.005	136.178	270.474	-0.411	-69.396	77.315	85.316	-69.530	-63.537	3.249	59.721	-65.114	-61.015	-59.958	-54.849	-59.771	-56.933	-8191	255	
3462.239	1	1	0	0	0.087457	0.26855	0.066579	0.24963	0.11369	0.059507	0.096592	0.21946	0.20043	0.15897	0.10126	0.23128	0.029988	0.3467	0.1634	0.093153	-0.54167	-1.4271	-0.3625	-1.5812	-0.8875	-0.47708	-1.8188	-0.55625	-0.8375	-1.3813	-0.52917	-1.4021	-1.2687	-0.40833	-1.6333	-0.71458	72.314	-68.756	84.902	238.017	257.435	68.027	241.590	223.055	-32.261	131.867	266.563	239.880	269.015	-27.791	-65.925	175.867	0.00026111	0.00055096	0.00020236	720.91	4.1261e-06	5.389e-06	949.65	261.22	6.6811e-06	4.7505e-06	401.65	154.76	92.575	38.376	3.98e-06	70.894	0.00015312	0.0001475	4.1509e-05	643.87	1.6296e-06	1.6133e-06	846.21	231.17	1.6773e-06	1.6406e-06	351.77	136.33	82.065	33.742	1.6828e-06	61.264	134.986	-6.241	-78.845	-69.097	63.656	-14.600	-69.924	-64.295	27.790	64.232	-65.504	-60.902	-59.743	-54.591	82.661	-57.350	-8191	255	
3462.335	1	1	0	0	0.26663	0.21225	0.28633	0.46053	0.14041	0.17018	0.27862	0.2065	0.17486	0.24969	0.12647	0.13929	0.54329	0.31102	0.016319	0.2029	-0.41875	-1.4271	-0.3625	-1.1854	-1.1729	-0.35417	-1.6063	-0.80833	-0.63125	-1.5104	-0.5625	-1.4125	-1.1771	-0.47917	-1.3333	-0.98125	16.916	38.702	172.478	218.663	73.848	123.045	247.439	-74.822	41.425	-34.524	234.102	256.146	262.976	-70.720	83.005	143.205	0.00042134	0.00052051	0.00012795	732.24	1.8445e-06	1.5901e-06	955.46	256.63	3.0249e-06	2.9783e-06	397.83	153.01	90.737	37.337	6.3037e-06	69.097	0.00016558	0.00015878	4.4472e-05	650.38	1.7964e-06	1.7649e-06	850.12	228.67	1.7828e-06	1.7858e-06	348.99	134.52	80.984	33.085	1.7781e-06	60.188	94.100	-73.198	-15.363	-69.185	26.213	176.551	-69.980	-63.901	14.880	25.421	-65.205	-61.224	-59.391	-54.720	49.096	-56.822	-8191	255	
3462.431	1	1	0	0	0.12337	0.28725	0.036673	0.35186	0.10058	0.12381	0.079956	0.0035054	0.12964	0.22497	0.16894	0.015153	0.14865	0.15341	0.11294	0.080901	-0.24583	-1.2875	-0.52917	-1.0312	-1.0292	-0.49167	-1.3542	-0.775	-0.68333	-1.45	-0.56042	-1.0167	-1.2417	-0.46042	-1.3937	-1.0833	182.250	64.727	72.695	195.002	-54.087	74.477	251.150	58.156	194.607	38.839	265.938	73.823	-77.455	195.075	238.248	235.472	0.00042838	0.00062764	0.00032691	723.26	3.5293e-06	4.8475e-06	951.34	255.96	1.6351e-06	8.5338e-06	395.06	152.06	90.507	37.51	4.5115e-06	71.49	0.00017664	0.00016931	4.7234e-05	651.04	1.9023e-06	1.8943e-06	852.68	228.18	1.9181e-06	1.8943e-06	349.27	133.87	80.814	33.05	1.852e-06	60.879	100.978	-63.263	44.508	-69.082	-65.759	137.648	-69.450	-63.967	-63.079	93.845	-65.451	-60.604	-59.826	-54.727	36.937	-57.384	-8191	255	
3462.527	1	1	0	0	0.088507	0.053965	0.19577	0.15038	0.16749	0.23612	0.086171	0.25499	0.13769	0.22094	0.14579	0.18333	0.28924	0.37034	0.15646	0.078177	-0.11667	-1.4625	-0.49792	-1.0271	-1.075	-0.17917	-1.4583	-0.97292	-0.5	-1.2563	-0.62292	-1.0458	-1.3646	-0.18333	-1.1812	-1.1542	212.997	21.181	110.039	215.497	146.237	-51.833	90.474	-54.360	172.217	-12.964	-32.017	-66.792	-67.691	-82.396	237.091	150.544	0.00039512	0.00064236	0.00021719	738.96	4.7952e-07	3.385e-06	974.51	260.75	3.7911e-06	2.8381e-06	407.26	153.75	92.036	37.971	5.6178e-06	69.106	0.00018078	0.00017275	4.7042e-05	653.87	1.9384e-06	1.9e-06	858.49	228.75	1.928e-06	1.885e-06	350.47	133.55	80.589	32.838	1.9403e-06	59.436	141.025	-53.181	-13.380	-69.461	204.927	134.815	-70.125	-64.711	49.847	102.031	-65.868	-61.263	-60.018	-54.989	-12.305	-57.475	-8191	255	
3462.623	1	1	0	0	0.20849	0.045714	0.11811	0.20445	0.14537	0.36882	0.16805	0.094456	0.11062	0.38961	0.022866	0.056834	0.19741	0.045481	0.11818	0.45552	-0.14583	-1.3458	-0.49792	-0.98125	-1.4104	-0.2625	-1.5063	-1.0958	-0.53125	-1.45	-0.66042	-0.89167	-1.2729	-0.4125	-1.2292	-1.1625	132.246	23.666	61.293	1.845	38.301	253.957	-66.611	250.481	188.037	249.576	255.288	0.505	205.137	194.005	65.922	249.064	0.0004396	0.00040493	0.00018806	741.66	1.8641e-06	6.0099e-06	975.4	258.34	2.253e-06	6.6019e-06	403.5	152.88	91.497	37.204	1.9647e-07	69.462	0.00019218	0.00018266	5.0869e-05	655.68	2.0296e-06	1.986e-06	856.4	227.32	2.0139e-06	1.9801e-06	347.41	132.2	79.82	32.307	1.9911e-06	59.164	134.865	-35.318	-9.916	-69.578	74.507	19.413	-69.876	-64.611	13.299	57.419	-66.750	-61.285	-60.925	-55.590	215.567	-58.032	-8191	255	
3462.720	1	1	0	0	0.055271	0.077335	0.1434	0.38162	0.054908	0.24169	0.25623	0.26606	0.14089	0.20037	0.11092	0.23394	0.072617	0.26562	0.051068	0.13812	-0.26042	-1.3813	-0.55625	-0.83125	-1.3	-0.37917	-1.3062	-1.2687	-0.28542	-1.3208	-0.79167	-0.87708	-1.5875	-0.61042	-1.1333	-1.2396	-64.936	67.688	19.026	255.530	35.395	128.891	275.625	107.509	33.641	-47.466	-45.247	250.344	53.573	227.004	-19.076	259.992	0.00038541	0.00080757	0.00020139	748.69	2.9489e-06	5.3419e-06	973.63	258.95	3.6673e-06	6.7783e-06	405.58	154.45	92.941	38.385	4.4685e-06	71.569	0.00018957	0.0001809	5.0933e-05	657.31	2.0185e-06	1.9855e-06	857.57	228.17	2.0385e-06	2.0068e-06	348.99	133.77	81.181	33.224	2.0112e-06	60.777	120.803	-54.499	-44.838	-69.827	59.812	151.873	-70.442	-64.868	-33.260	30.726	-66.506	-62.231	-60.644	-56.381	-31.197	-58.105	-8191	255	
3462.814	1	1	0	0	0.029197	0.25526	0.098727	0.052113	0.092129	0.064074	0.11983	0.4059	0.24046	0.089382	0.1806	0.21244	0.20724	0.14567	0.21839	0.17725	-0.14375	-1.3354	-0.64792	-0.725	-1.3167	-0.33333	-1.2604	-1.275	-0.21875	-1.7042	-0.87083	-0.66042	-1.6458	-0.4125	-1.1833	-1.3438	233.467	159.895	110.243	202.014	-71.984	215.791	193.923	268.110	61.552	216.216	-78.616	241.552	261.640	237.505	21.762	225.735	0.00034451	5.8889e-06	0.00013083	739.89	1.9657e-06	4.4355e-06	970.74	260.43	4.8393e-06	5.6347e-06	403.53	155.6	93.712	38.735	4.7962e-06	72.171	0.00019106	0.000181	5.095e-05	654.03	1.9537e-06	1.9953e-06	850.44	228.88	1.9707e-06	1.9293e-06	348.97	135.06	81.954	33.576	1.952e-06	61.492	108.008	269.428	-32.581	-69.765	50.776	130.661	-70.454	-64.485	122.281	0.281	-66.577	-61.923	-60.844	-55.903	-43.995	-58.341	-8191	255	
3462.935	1	1	0	0	0.12273	0.14001	0.099672	0.060761	0.06083	0.13019	0.33146	0.12869	0.048923	0.25348	0.28523	0.12617	0.35507	0.24502	0.06727	0.26195	0.12292	-1.2563	-0.75833	-0.69583	-1.3792	-0.66667	-1.025	-1.2229	-0.31042	-1.3438	-0.70208	-0.58333	-1.5458	-0.62708	-0.94792	-1.3104	58.711	-60.364	73.805	124.255	-75.424	170.353	248.344	269.235	-52.611	13.641	195.098	176.748	188.845	105.338	-47.276	258.269	0.00056082	0.00054207	0.00016785	738.35	7.1862e-06	7.5777e-06	969.26	257.81	4.2937e-06	7.4686e-06	401.74	154.6	92.165	37.863	5.043e-06	70.408	0.00018025	0.00017523	4.9661e-05	651.27	1.9447e-06	1.9521e-06	852.58	227.52	1.9378e-06	1.947e-06	346.88	133.6	80.272	32.927	1.9363e-06	60.04	138.494	-62.171	-66.317	-70.599	46.553	32.186	-71.232	-65.460	201.537	84.096	-66.910	-62.342	-60.622	-55.694	68.487	-58.190	-8191	255	
3463.031	1	1	0	0	0.11387	0.15227	0.21534	0.128	0.18575	0.050874	0.19527	0.14854	0.16726	0.040219	0.23002	0.063896	0.23943	0.27943	0.072091	0.37383	0.01875	-1.2625	-0.9625	-0.51875	-1.6083	-0.37917	-1.0688	-1.5271	-0.1375	-1.5333	-1.0896	-0.85417	-1.6333	-0.76667	-0.74792	-1.3333	-30.279	-75.862	10.982	186.320	-2.856	116.602	243.413	265.471	242.607	27.468	249.765	134.602	211.138	206.312	116.394	200.877	0.0002279	9.0991e-05	0.00018228	739.86	6.0016e-06	7.1387e-07	970.15	254.94	8.3982e-06	4.9556e-06	399.49	151.05	90.492	37.362	3.5778e-06	69.173	0.00017815	0.00016895	4.7923e-05	651.4	1.8598e-06	1.8643e-06	851.15	224.36	1.8178e-06	1.8024e-06	343.47	131	78.874	32.195	1.8102e-06	58.949	126.698	-42.299	-62.504	-70.070	30.844	-45.330	-70.643	-65.198	53.089	-47.861	-66.589	-61.820	-60.888	-56.148	7.103	-58.422	-8191	255	
3463.102	1	1	0	0	0.36217	0.12808	0.22717	0.40958	0.19842	0.26303	0.3262	0.15203	0.22278	0.1912	0.015825	0.32246	0.44484	0.18048	0.1396	0.13266	0.11042	-1.1979	-0.94375	-0.5875	-1.5083	-0.58333	-1.0583	-1.4333	-0.57917	-1.2958	-1.1396	-0.40833	-1.4771	-0.65417	-0.70833	-1.4937	224.228	153.780	173.584	246.555	170.709	131.386	261.110	141.817	244.927	90.993	-15.070	232.454	205.370	271.779	23.989	113.584	0.00011988	0.00059156	0.000147	741.55	7.7761e-06	8.3635e-06	970.62	255.03	4.3596e-06	8.8139e-06	401.52	151.87	90.614	37.641	2.7581e-06	70.33	0.00016704	0.00016162	4.3634e-05	651.88	1.7313e-06	1.6986e-06	851.86	224.04	1.6946e-06	1.6836e-06	342.83	131.33	79.09	32.364	1.6659e-06	59.526	101.784	-35.083	16.612	-70.527	79.074	112.390	-70.657	-65.207	-45.371	12.291	-67.278	-62.589	-61.068	-56.191	153.042	-58.110	-8191	255	
3463.223	1	1	0	0	0.14907	0.20616	0.32808	0.34389	0.18014	0.20113	0.20677	0.24557	0.22351	0.11569	0.08317	0.18323	0.39271	0.11087	0.15899	0.10378	0.072917	-0.9875	-1.2667	-0.5	-1.7521	-0.5375	-0.85625	-1.925	-0.12292	-1.1375	-1.3104	-0.40833	-1.5875	-0.73542	-0.64583	-1.75	198.386	16.733	71.846	185.485	-24.442	265.376	249.937	183.950	78.612	31.373	273.464	115.681	-61.237	-62.467	259.035	-68.047	0.00027985	0.00045914	0.000364	749.02	7.643e-06	1.6743e-06	973.52	256.07	2.8425e-06	7.2609e-06	398.22	152.52	91.611	37.929	2.766e-06	70.82	0.00015763	0.00014834	4.1322e-05	652.3	1.6042e-06	1.6199e-06	849.9	223.6	1.6425e-06	1.5788e-06	342.11	131.96	79.694	32.627	1.627e-06	60.073	137.168	276.215	-54.561	-70.146	77.016	119.538	-70.829	-65.174	137.469	81.440	-66.775	-62.526	-60.879	-56.322	-14.745	-58.468	-8191	255	
3463.319	1	1	0	0	0.20275	0.16328	0.16819	0.35965	0.20864	0.21687	0.18766	0.13856	0.0096726	0.05012	0.30254	0.062954	0.2184	0.24228	0.37956	0.24093	0.058333	-1.125	-1.0771	-0.42917	-1.2333	-0.90625	-0.61667	-1.5438	-0.57292	-1.1396	-1.3625	-0.37917	-1.4125	-0.8	-0.49375	-1.6292	241.627	241.739	67.231	242.690	-13.630	129.292	170.036	232.019	199.954	-70.930	220.066	210.749	243.381	166.213	-14.111	-4.677	0.00037897	9.6596e-05	0.00012387	738.42	7.8777e-06	6.1239e-06	966.53	255.16	1.4974e-06	3.1043e-06	395	151.32	91.212	37.766	5.31e-06	70.239	0.0001544	0.00014834	4.1122e-05	647.17	1.6114e-06	1.6201e-06	843.9	223.02	1.6019e-06	1.6053e-06	339.09	130.94	79.267	32.487	1.6123e-06	59.824	117.602	-25.671	0.132	-70.456	67.769	96.389	-71.415	-65.532	59.392	184.011	-66.881	-62.235	-60.826	-56.126	56.325	-58.146	-8191	255	
3463.415	1	1	0	0	0.27119	0.28232	0.050707	0.33899	0.12408	0.17937	0.045993	0.11664	0.086868	0.093837	0.18791	0.33698	0.34168	0.14026	0.12499	0.14097	-0.11458	-1.0146	-1.1458	-0.21667	-1.3667	-0.75417	-0.71667	-1.8563	-0.27292	-0.9375	-1.5979	-0.31667	-1.4292	-0.89375	-0.33125	-1.8	198.740	159.019	262.355	-78.185	193.406	143.046	165.027	135.687	-3.589	264.957	-15.692	252.024	249.973	206.085	162.825	172.469	3.3992e-05	0.00061166	0.0001937	730.13	2.2755e-06	2.1759e-06	955.18	251.18	2.4929e-06	2.793e-06	392.17	150.74	90.719	37.6	2.2028e-06	69.811	0.00015654	0.0001517	4.0736e-05	641.07	1.6285e-06	1.5913e-06	834.75	221.03	1.5697e-06	1.5625e-06	336.5	129.83	78.681	32.119	1.5101e-06	58.901	77.888	-51.950	-74.078	-70.270	104.155	6.914	-71.348	-65.465	38.480	65.868	-67.477	-62.286	-60.944	-56.147	17.810	-58.144	-8191	255	
3463.512	1	1	0	0	0.14051	0.30686	0.16424	0.054468	0.34505	0.15717	0.16775	0.42719	0.10501	0.18724	0.26068	0.10014	0.2849	0.33788	0.30465	0.30392	-0.12083	-0.77083	-1.275	-0.375	-1.2938	-0.89375	-0.73542	-1.7208	-0.4	-0.74167	-1.4979	-0.27292	-1.6187	-1.2854	-0.22292	-1.8292	116.611	235.044	254.840	206.355	7.677	50.152	197.401	235.903	9.739	182.684	150.526	-72.843	153.391	209.903	10.615	-72.145	0.00039277	0.00050503	0.00019402	730.46	3.0272e-06	1.3584e-06	957.64	252.93	5.135e-06	4.9059e-06	395.09	151.19	90.28	37.179	4.4538e-06	69.312	0.00014609	0.00013746	3.832e-05	641.84	1.4879e-06	1.4594e-06	840.83	221.8	1.4907e-06	1.4341e-06	337.23	129.82	78.214	31.864	1.4559e-06	58.77	112.752	-52.839	257.336	-70.321	-27.138	10.049	-70.907	-65.359	-0.904	26.211	-67.205	-62.523	-61.141	-56.119	69.575	-58.040	-8191	255	
3463.632	1	1	0	0	0.045885	0.10162	0.30039	0.13421	0.22861	0.25229	0.32108	0.16019	0.18662	0.22121	0.27029	0.20095	0.37202	0.14389	0.23051	0.14703	-0.29583	-0.70833	-1.5667	-0.225	-1.2812	-1.1562	-0.47708	-1.6875	-0.61458	-0.90208	-1.5	-0.30625	-1.5	-1.2354	-0.39583	-1.55	108.651	-83.098	-72.548	211.247	-63.159	24.504	202.208	236.512	203.183	80.306	-81.122	226.059	253.038	-76.714	-38.956	185.099	0.00014717	0.00036174	0.00014928	741.63	5.5249e-06	5.0988e-06	972.42	255.24	5.3909e-06	3.8949e-06	396.6	153.33	90.638	37.402	6.2755e-06	69.863	0.00013656	0.0001315	3.5215e-05	647.79	1.438e-06	1.4063e-06	850.51	222.9	1.4612e-06	1.4461e-06	339.79	131.25	78.753	32.118	1.4123e-06	59.324	105.469	63.528	6.109	-70.705	55.415	79.188	-71.059	-65.156	55.916	59.956	-67.303	-62.525	-60.810	-56.405	26.960	-58.249	-8191	255	
3463.727	1	1	0	0	0.088846	0.1784	0.16306	0.2532	0.12055	0.037139	0.21586	0.074817	0.10678	0.19605	0.1765	0.098876	0.25858	0.24966	0.11158	0.15617	-0.45833	-0.57083	-1.3208	-0.46458	-1.1896	-1.1271	-0.51667	-1.5792	-0.70417	-0.69583	-1.6	-0.51042	-1.1	-1.4396	-0.58125	-1.4646	120.731	192.344	97.084	187.264	161.208	-49.197	268.847	-43.002	182.430	-62.850	-53.644	198.868	-79.199	-67.573	62.809	-78.550	0.00033417	0.00060918	0.0001456	742.74	1.7368e-06	2.6797e-06	977.84	257.02	5.1247e-06	3.177e-06	399.26	152.05	91.447	37.357	5.1521e-06	69.563	0.00013764	0.00013009	3.5108e-05	649.74	1.4336e-06	1.4248e-06	856.81	224.16	1.4477e-06	1.4187e-06	342.47	131.11	78.911	32.048	1.4647e-06	59.083	106.212	-34.123	25.374	-70.434	45.305	9.982	-71.462	-65.379	105.875	125.509	-66.982	-62.065	-60.913	-55.785	28.168	-57.889	-8191	255	
3463.824	1	1	0	0	0.32235	0.1508	0.13074	0.23681	0.1413	0.2894	0.30452	0.19794	0.2374	0.23436	0.096414	0.20026	0.3515	0.25908	0.12538	0.37083	-0.49375	-0.46875	-1.5667	-0.46042	-0.81458	-1.3188	-0.42083	-1.3521	-0.69583	-0.66042	-1.6417	-0.27708	-1.0083	-1.3833	0.08125	-1.65	-78.752	1.177	142.440	-70.048	254.363	272.875	230.259	-78.793	194.806	91.062	-16.800	257.451	-79.325	201.541	108.256	205.743	0.00035281	0.00055705	0.00020255	745.19	4.431e-06	2.5425e-06	981.51	255.09	4.4799e-06	9.4035e-07	398.18	151.44	90.319	37.234	3.2072e-06	69.301	0.00014158	0.00013254	3.6784e-05	653.4	1.4435e-06	1.4634e-06	861.96	223.12	1.4486e-06	1.4353e-06	340.53	130.09	78.562	31.928	1.4421e-06	58.822	89.253	-18.465	-12.228	-70.441	37.452	174.622	-71.209	-65.147	-24.759	259.297	-66.575	-62.035	-60.791	-56.177	46.770	-57.573	-8191	255	
3463.919	1	1	0	0	0.20219	0.28098	0.14284	0.2547	0.20946	0.066719	0.15651	0.079299	0.24304	0.08326	0.21257	0.20158	0.12863	0.061053	0.10171	0.12151	-0.43958	-0.44792	-1.6792	-0.25	-0.94792	-1.4542	-0.15833	-1.6458	-0.9875	-0.43333	-1.7792	-0.55	-0.96458	-1.4042	-0.12083	-1.3021	10.617	107.991	-12.952	272.320	236.863	240.236	190.346	-26.379	89.177	-37.371	162.519	180.569	74.161	171.641	116.080	179.775	0.00056406	0.00039473	0.00011453	748.44	1.2515e-06	4.7043e-06	988.99	256.96	3.6766e-06	4.1544e-06	397.42	152.16	90.85	37.253	2.7359e-06	69.777	0.00013785	0.00013189	3.7077e-05	652.97	1.4577e-06	1.4314e-06	860.62	224.43	1.4272e-06	1.424e-06	341.35	130.68	78.781	31.994	1.4759e-06	59.155	120.592	20.725	15.454	-70.165	120.396	111.000	-70.589	-64.855	147.966	37.277	-66.439	-62.216	-60.546	-56.009	37.703	-57.933	-8191	255	
3464.015	1	1	0	0	0.068457	0.2558	0.13608	0.11466	0.29844	0.12179	0.21648	0.11526	0.073079	0.17364	0.11182	0.11899	0.24947	0.11504	0.13979	0.21338	-0.73125	-0.35625	-1.5521	-0.70208	-0.72083	-1.4188	-0.56458	-1.4625	-0.98333	-0.55417	-1.625	-0.46875	-0.79792	-1.7563	-0.32083	-1.4583	55.952	88.689	88.489	123.956	269.022	-44.831	238.914	-47.275	15.290	-53.323	108.595	-35.472	-81.855	37.941	253.264	247.366	0.00056839	0.00050693	0.00024896	752.27	5.7545e-06	4.0969e-06	1001.7	260.05	1.5027e-06	2.8008e-06	407.93	155.34	92.124	37.436	4.4415e-06	70.989	0.00014059	0.00013356	3.6716e-05	659.82	1.4711e-06	1.4814e-06	876.29	227.14	1.4764e-06	1.4824e-06	349.32	132.49	79.803	32.167	1.508e-06	59.731	113.431	13.599	264.633	-70.328	2.793	62.840	-70.733	-65.233	191.346	7.303	-66.662	-62.516	-60.491	-55.633	86.886	-58.183	-8191	255	
3464.111	1	1	0	0	0.12041	0.014179	0.22652	0.21078	0.12547	0.35145	0.088927	0.18901	0.28469	0.12555	0.22269	0.10091	0.075946	0.19175	0.010662	0.24953	-0.72917	-0.46667	-1.2687	-0.57708	-0.69583	-1.3646	-0.32083	-1.1646	-1.05	-0.24583	-1.6292	-0.72083	-0.6875	-1.4292	-0.21667	-1.3854	158.824	220.250	253.670	245.966	33.972	170.770	13.900	165.742	89.684	-70.289	118.113	236.402	74.456	-32.135	117.137	236.486	0.00041721	0.00053087	0.0001652	774.51	1.8124e-06	6.543e-06	1020.4	262.21	2.4203e-06	1.0159e-05	413.54	155.27	93.042	37.597	6.7195e-06	71.395	0.00014684	0.00014291	3.9304e-05	674.17	1.621e-06	1.6003e-06	891.42	230.99	1.649e-06	1.6505e-06	355.55	134.29	80.856	32.359	1.6554e-06	60.451	93.667	-30.529	8.010	-69.970	126.960	77.671	-70.648	-65.191	115.275	17.350	-66.271	-62.295	-60.991	-56.058	9.804	-57.804	-8191	255	
3464.232	1	1	0	0	0.21788	0.171	0.028956	0.2406	0.24561	0.15993	0.071275	0.13761	0.077054	0.11398	0.086985	0.17819	0.13072	0.30461	0.19213	0.32845	-0.87292	-0.18958	-1.1604	-0.77083	-0.65833	-1.5042	-0.70833	-1.0646	-1.1833	-0.175	-1.4792	-0.93542	-0.81667	-1.7458	-0.23125	-1.1167	77.239	142.937	-53.386	246.285	214.144	30.342	-64.461	-69.990	34.069	-70.454	-21.270	-31.903	-50.587	-76.295	54.291	158.734	0.00039917	0.00041149	0.00014152	766.93	2.6345e-06	6.1257e-06	1010.7	263.87	4.1004e-06	6.8866e-06	412.46	157.38	92.547	37.584	3.4645e-06	70.882	0.00015847	0.00015076	4.1182e-05	671.36	1.6342e-06	1.6279e-06	887.42	230.96	1.5991e-06	1.6057e-06	353.32	134.42	80.433	32.482	1.6411e-06	60.117	125.025	-38.758	-22.964	-70.304	40.815	67.115	-70.674	-64.859	81.836	75.770	-66.577	-62.122	-60.111	-55.241	274.874	-57.007	-8191	255	
3464.328	1	1	0	0	0.14194	0.20606	0.076512	0.38331	0.11461	0.16541	0.050132	0.264	0.111	0.089646	0.19858	0.17131	0.13677	0.36085	0.090502	0.29807	-0.98333	-0.20417	-1.4167	-0.91667	-0.35833	-1.4292	-0.57083	-1.2229	-1.2812	-0.11042	-1.6292	-1.0604	-0.53958	-1.6708	-0.41458	-1.0958	110.738	110.519	120.636	273.906	15.788	243.704	-19.626	98.163	165.832	265.357	-79.059	235.519	145.565	223.507	96.231	-41.094	0.00037658	0.00020133	0.00015524	761.53	2.7129e-06	6.3223e-06	1007.4	263.87	4.9037e-06	3.2052e-06	411.03	155.02	91.715	36.976	5.3693e-06	70.122	0.00015305	0.00014815	4.0956e-05	669.53	1.6347e-06	1.5839e-06	883.75	230.21	1.5752e-06	1.5843e-06	352.28	133.59	79.753	32.03	1.5677e-06	59.531	136.677	-31.760	-34.054	-70.192	133.820	194.795	-70.783	-64.404	108.894	27.134	-66.289	-61.592	-60.047	-55.821	-76.557	-58.040	-8191	255	
3464.400	1	1	0	0	0.26372	0.14435	0.035036	0.21114	0.19644	0.15627	0.27389	0.1146	0.2547	0.096958	0.24749	0.094823	0.10798	0.10234	0.22952	0.22057	-1.2167	-0.20208	-1.4562	-0.98542	-0.6	-1.6896	-0.65	-0.97917	-1.3958	-0.38333	-1.6521	-1.1542	-0.60417	-1.7313	-0.48125	-1.0271	18.943	189.299	89.652	64.508	151.411	42.624	250.513	231.693	145.662	142.406	262.488	234.811	168.977	-32.894	220.549	223.559	0.00028076	0.00046973	0.00016551	767.36	1.016e-06	7.667e-06	1019.9	265.32	5.8463e-06	5.5022e-06	414.02	155.37	92.152	36.931	8.3264e-06	70.471	0.0001544	0.00014849	4.1184e-05	671.86	1.6384e-06	1.634e-06	891.97	231.01	1.626e-06	1.6149e-06	354.09	133.77	80.038	31.916	1.5865e-06	59.781	120.928	-47.115	21.508	-69.844	227.810	9.849	-70.771	-64.910	-23.614	-21.183	-66.225	-62.256	-61.047	-55.783	-26.832	-57.671	-8191	255	
3464.496	1	1	0	0	0.20194	0.23526	0.15585	0.16346	0.21884	0.097762	0.24168	0.23071	0.27425	0.21753	0.41358	0.23284	0.20827	0.14973	0.09137	0.11587	-1.2271	-0.25833	-1.2812	-1.275	-0.48542	-1.2833	-0.81042	-0.74792	-1.5854	-0.2875	-1.4458	-1.3062	-0.49167	-1.4208	-0.8375	-1.0875	120.995	169.564	30.246	133.411	216.390	46.633	218.250	222.642	229.205	-34.145	234.734	263.671	-25.714	275.535	159.799	242.244	0.0003591	0.00071296	0.00010999	770.1	2.2454e-06	2.6651e-06	1024.4	264.34	4.025e-06	2.9898e-06	417.33	156.62	92.245	37.176	5.1922e-06	70.967	0.00015523	0.00014585	3.9937e-05	676.49	1.636e-06	1.6065e-06	897.2	231.93	1.6281e-06	1.5912e-06	357.41	134.98	80.136	32.045	1.5894e-06	60.144	136.161	275.402	19.162	-70.117	48.494	73.586	-71.227	-65.087	3.203	93.210	-66.718	-62.475	-61.141	-55.842	57.560	-57.799	-8191	255	
3464.592	1	1	0	0	0.13649	0.39098	0.32073	0.2066	0.25999	0.36478	0.2221	0.35216	0.17274	0.25393	0.40121	0.094378	0.14701	0.18805	0.25727	0.32077	-1.0292	-0.50208	-0.8375	-1.1313	-0.23125	-1.5396	-0.64792	-0.64792	-1.3646	-0.29583	-1.1979	-1.4229	-0.33542	-1.5167	-0.58958	-0.725	105.724	276.587	-76.240	69.365	-33.895	149.070	-76.561	172.187	-34.970	101.518	-52.210	195.744	-59.922	-1.757	130.603	268.577	0.00035122	0.00044994	0.00023111	777.55	4.1894e-06	9.2947e-06	1020.2	265.4	4.3263e-06	1.1245e-05	415.79	156.52	92.424	36.745	3.9909e-07	69.898	0.00015565	0.00014768	4.0278e-05	676.91	1.5938e-06	1.6216e-06	894.5	231.95	1.6274e-06	1.6339e-06	357.63	134.76	80.073	31.907	1.6094e-06	59.552	111.867	-36.033	26.851	-70.615	-41.022	76.877	-71.269	-65.240	-74.627	33.123	-66.786	-62.635	-60.977	-55.884	112.007	-57.437	-8191	255	
3464.711	1	1	0	0	0.19851	0.36439	0.13937	0.15769	0.14928	0.15602	0.07122	0.47039	0.24067	0.25061	0.16065	0.42136	0.13043	0.033045	0.067227	0.068336	-0.98958	-0.51667	-0.97292	-1.325	-0.30208	-1.3896	-1.0125	-0.72708	-1.4354	-0.49792	-1.2062	-1.4125	-0.23333	-1.5625	-0.62708	-0.53125	-71.731	112.950	-6.235	268.578	134.243	116.029	194.858	189.173	205.830	232.089	36.925	234.638	272.966	63.209	155.595	165.521	0.00030395	0.00082014	0.00016537	765.21	2.8084e-06	3.4292e-06	1016.4	262.66	5.8434e-06	1.8816e-06	412.96	153.98	91.005	36.842	5.8337e-06	69.105	0.00015729	0.00014966	4.1559e-05	671.45	1.6581e-06	1.636e-06	888.18	230.65	1.6725e-06	1.6386e-06	354.6	132.65	79.226	31.611	1.6582e-06	59.002	140.523	-24.400	33.620	-70.192	-56.368	82.230	-70.685	-64.969	5.634	78.183	-65.863	-61.536	-60.092	-55.363	-18.761	-56.827	-8191	255	
3464.807	1	1	0	0	0.049577	0.21076	0.15806	0.19179	0.094269	0.12497	0.33374	0.091511	0.069396	0.090311	0.18707	0.31185	0.28909	0.15125	0.063994	0.24957	-1.1042	-0.4125	-0.76667	-1.3312	-0.48333	-1.2458	-1.0917	-0.49375	-1.5979	-0.39792	-0.96667	-1.3208	-0.41667	-1.3062	-0.93333	-0.475	171.976	-22.857	-8.905	-82.603	95.579	189.346	208.608	66.556	117.658	245.984	231.248	-81.470	273.862	258.186	238.707	240.779	0.00029531	0.00026312	0.00011858	769.08	4.7356e-06	1.3428e-06	1022.6	263.52	2.3877e-06	3.8907e-06	415.14	154.63	91.275	36.663	5.6824e-06	69.94	0.00016188	0.00015174	4.1419e-05	673.43	1.6499e-06	1.6423e-06	891.1	231	1.6348e-06	1.6059e-06	355.82	133.63	79.618	31.757	1.6004e-06	59.447	138.189	246.822	-6.269	-69.764	58.689	52.071	-70.212	-64.778	122.064	83.608	-65.861	-62.078	-60.496	-55.566	-16.834	-57.286	-8191	255	
3464.905	1	1	0	0	0.10062	0.081778	0.061811	0.17738	0.18417	0.049747	0.2236	0.17061	0.18459	0.062778	0.17441	0.25165	0.23731	0.26156	0.1013	0.32672	-1.2729	-0.71458	-0.84583	-1.4375	-0.48958	-1.2167	-1.35	-0.72917	-1.5021	-0.70417	-0.8375	-1.5417	-0.60625	-1.0854	-0.86458	-0.28542	134.067	-4.810	23.069	205.360	-53.145	239.482	179.657	-21.088	38.224	-38.495	147.065	173.279	243.388	237.472	-58.872	187.361	0.00024514	0.00060558	0.00026935	772.74	6.5438e-06	5.1923e-06	1023.6	264.2	5.0008e-06	6.2238e-06	416.12	156.21	91.595	37.053	3.3678e-06	70.374	0.00015525	0.0001463	4.0822e-05	674.19	1.6543e-06	1.5762e-06	894.95	231.04	1.6168e-06	1.6138e-06	356.9	134.46	79.779	31.863	1.628e-06	59.932	128.176	-12.599	11.358	-69.774	51.723	69.698	-70.814	-64.767	51.610	18.149	-66.143	-62.484	-60.060	-55.334	83.517	-57.185	-8191	255	
3465.024	1	1	0	0	0.18996	0.36288	0.36789	0.25296	0.096592	0.20217	0.035242	0.12203	0.35759	0.044108	0.15336	0.27933	0.045329	0.011255	0.27533	0.39001	-1.1292	-0.49167	-0.70833	-1.5542	-0.16042	-1.4354	-1.3687	-0.5375	-1.3396	-0.54583	-0.61875	-1.7479	-0.24792	-1.2792	-1.1562	-0.35417	160.395	-23.542	-48.125	236.755	-56.988	95.557	110.638	156.885	-71.830	76.594	160.350	262.462	264.104	13.033	165.538	205.899	0.0005211	0.00074455	0.00017453	769.9	6.0526e-06	5.3878e-06	1023.5	264.84	1.5008e-06	2.9331e-06	416.94	156.5	91.398	37.052	4.7525e-06	70.028	0.00015354	0.00014757	4.1339e-05	674.78	1.601e-06	1.6067e-06	895.91	231.44	1.5552e-06	1.5734e-06	357.53	134.54	79.497	31.785	1.5756e-06	59.466	125.069	-2.443	-55.260	-69.867	10.348	90.517	-70.498	-64.438	110.155	-5.785	-66.590	-62.049	-60.699	-55.403	77.878	-57.589	-8191	255	
3465.095	1	1	0	0	0.28881	0.20121	0.306	0.020475	0.19744	0.28828	0.047056	0.26766	0.082723	0.1301	0.28254	0.12398	0.23877	0.45223	0.21373	0.23012	-1.2604	-0.90833	-0.48333	-1.5	-0.34792	-0.99792	-1.3542	-0.48542	-1.3354	-0.71458	-0.81667	-1.4875	-0.60833	-0.86875	-1.0875	-0.41875	86.850	103.342	154.118	124.539	-15.679	48.183	168.641	-72.710	203.637	257.160	-34.799	190.896	-75.985	263.630	-29.670	250.104	0.00042528	0.00026875	0.0001834	765.09	4.4664e-06	2.5118e-06	1012.8	262.02	3.5552e-06	3.3725e-06	413.45	153.86	91.664	36.524	3.2032e-06	69.578	0.00014916	0.00014454	4.0354e-05	670.67	1.565e-06	1.5917e-06	887.5	229.43	1.607e-06	1.6467e-06	354.29	133.06	79.028	31.498	1.6741e-06	59.026	117.846	61.155	-33.431	-70.276	-19.017	81.511	-70.405	-64.837	54.368	60.028	-66.545	-61.748	-60.605	-55.493	64.242	-57.634	-8191	255	
3465.192	1	1	0	0	0.15197	0.4438	0.039511	0.1559	0.038432	0.32966	0.18081	0.11142	0.37567	0.22693	0.19107	0.12465	0.30974	0.17924	0.24974	0.10891	-1.0083	-0.85	-0.33542	-1.3958	-0.45	-0.95833	-1.2708	-0.40417	-1.3813	-0.93333	-0.42083	-1.5833	-0.40417	-0.89583	-1.1938	-0.42083	89.914	84.631	-41.795	221.913	-77.361	12.564	208.095	235.907	61.094	137.426	94.194	166.950	-69.016	259.262	179.869	117.229	0.00035149	0.0001652	0.00036996	769.24	4.567e-06	2.9981e-06	1016.9	261.93	3.2969e-06	7.9692e-06	412.69	154.33	91.53	36.295	2.2038e-06	69.084	0.00015639	0.00014928	4.1395e-05	672.16	1.6261e-06	1.6619e-06	890.76	229.44	1.6164e-06	1.6836e-06	355.26	132.79	79.301	31.43	1.6808e-06	58.971	130.687	-28.895	-2.495	-70.152	122.972	16.742	-70.352	-64.803	93.823	64.544	-66.002	-61.744	-60.635	-55.266	17.728	-57.668	-8191	255	
3465.312	1	1	0	0	0.1359	0.073706	0.031363	0.35549	0.15587	0.17513	0.14656	0.079896	0.10039	0.23583	0.22929	0.2166	0.20754	0.090397	0.20969	0.13799	-0.92083	-0.82708	-0.12708	-1.925	-0.10417	-1.1063	-1.8583	-0.18958	-1.5854	-1.0208	-0.34792	-1.7771	-0.43125	-0.85	-1.5542	-0.35208	46.688	69.471	71.182	-75.136	6.511	164.293	30.396	131.041	125.588	98.749	214.466	234.981	-46.009	37.129	42.251	160.502	0.00017765	0.0008241	0.00024001	768.84	6.5985e-06	5.5553e-06	1019.7	261.24	6.0315e-06	5.5703e-07	417.47	154.06	90.657	36.311	3.2945e-06	68.589	0.00015925	0.0001582	4.2519e-05	674.34	1.7005e-06	1.7075e-06	895.49	229.69	1.74e-06	1.7168e-06	356.56	132.96	79.123	31.213	1.6812e-06	58.386	143.896	5.711	-8.086	-69.954	27.610	85.105	-70.969	-64.762	127.447	-62.280	-66.571	-62.191	-61.121	-55.551	64.685	-57.984	-8191	255	
3465.408	1	1	0	0	0.090237	0.24656	0.22696	0.38265	0.32414	0.031871	0.16073	0.22779	0.1907	0.067201	0.33507	0.20279	0.30647	0.16829	0.19375	0.3462	-0.66042	-0.91875	-0.20417	-1.4979	-0.4375	-0.60417	-1.675	-0.27083	-1.2625	-1.0042	-0.50625	-1.5354	-0.70208	-0.74583	-1.4375	-0.37917	247.163	233.676	40.509	-55.160	130.320	-3.068	-50.863	264.742	-61.177	46.005	200.317	148.272	258.010	269.036	271.943	240.235	0.00027935	0.00047786	0.00028524	774.09	6.4168e-06	3.0075e-06	1027.2	261.71	2.5793e-06	3.3187e-06	417.59	153.72	89.57	36.014	1.0893e-05	69.161	0.00016343	0.00015592	4.2643e-05	677.79	1.6896e-06	1.6974e-06	896.27	229.34	1.6972e-06	1.6923e-06	356.05	132.14	78.378	31.049	1.6402e-06	58.581	102.503	-81.290	-53.908	-69.795	45.666	75.031	-70.700	-65.378	134.095	45.187	-66.429	-62.045	-60.652	-55.520	66.255	-57.916	-8191	255	
3465.504	1	1	0	0	0.064758	0.1198	0.052432	0.079807	0.083376	0.093263	0.072058	0.064129	0.28288	0.21039	0.17776	0.21129	0.37016	0.21065	0.12316	0.13953	-0.69792	-0.83958	-0.28125	-1.3167	-0.76458	-0.64583	-1.4833	-0.54375	-1.0292	-1.2208	-0.4125	-1.5312	-0.87083	-0.65417	-1.5021	-0.53542	-78.703	150.936	-48.092	-52.930	36.404	87.485	207.995	73.016	172.903	254.414	-24.938	-25.521	-81.331	86.931	222.740	134.296	0.00026746	4.8986e-05	0.00018134	760.63	4.581e-06	9.5956e-07	1014	260.37	1.7092e-06	8.5017e-06	410.77	154.01	90.232	36.191	4.5522e-06	68.604	0.00015977	0.00014953	4.0449e-05	669.56	1.6116e-06	1.6006e-06	885.88	228.03	1.5758e-06	1.5493e-06	351.96	132.21	78.386	31.169	1.5908e-06	58.33	129.455	28.813	34.703	-70.002	88.807	125.644	-71.100	-65.114	20.662	54.313	-66.564	-62.314	-61.128	-55.447	-5.651	-57.889	-8191	255	
3465.625	1	1	0	0	0.13856	0.37826	0.20042	0.17609	0.22666	0.24845	0.056639	0.22122	0.18946	0.23208	0.236	0.28027	0.035889	0.15975	0.12732	0.036178	-0.71458	-0.94792	-0.28958	-1.3833	-0.77292	-0.48125	-1.7437	-0.26875	-1.0375	-1.1583	-0.3875	-1.3125	-0.82708	-0.6625	-1.75	-0.62708	-7.329	262.999	192.294	179.444	18.812	104.431	-15.685	170.492	-69.530	268.754	205.599	183.763	0.524	-29.182	18.532	-43.168	0.00035012	0.00025819	1.3632e-06	753.97	3.8474e-06	4.6991e-06	1002.8	258.8	6.2899e-06	4.1303e-06	406.79	153.77	90.065	36.25	7.6171e-06	68.781	0.00016124	0.00015351	4.327e-05	668.5	1.7998e-06	1.7983e-06	882.48	226.97	1.7975e-06	1.7612e-06	348.88	132	78.238	31.235	1.6928e-06	58.408	121.259	8.749	33.091	-69.864	220.339	88.862	-70.254	-65.169	42.084	110.614	-66.275	-62.318	-61.068	-55.506	61.169	-57.984	-8191	255	
3465.697	1	1	0	0	0.21534	0.14294	0.074223	0.11022	0.078872	0.12725	0.2122	0.16743	0.29703	0.10733	0.32863	0.26608	0.27552	0.15397	0.15531	0.28394	-0.75417	-1.3875	-0.43542	-1.3563	-0.85	-0.33542	-1.6271	-0.36042	-0.9875	-1.3792	-0.4125	-1.3	-0.95625	-0.56458	-1.5792	-0.6875	232.332	93.389	208.275	-22.553	1.759	-61.667	106.860	214.563	72.606	-78.632	70.548	244.174	-82.476	-72.870	42.030	233.264	0.00040364	0.00021078	7.3859e-05	758.78	2.2443e-06	4.9604e-07	1008.8	259.77	4.1463e-06	3.8133e-06	411.1	153.87	89.593	36.4	8.0584e-07	69.392	0.00016159	0.00015285	4.1976e-05	668.23	1.7109e-06	1.6447e-06	882.84	227.29	1.6481e-06	1.6487e-06	352.19	132.72	78.447	31.351	1.6772e-06	59.023	117.851	250.640	-70.344	-70.145	70.509	-44.630	-70.169	-64.578	48.243	61.516	-66.108	-61.060	-59.958	-54.872	202.907	-56.811	-8191	255	
3465.793	1	1	0	0	0.20932	0.25299	0.10714	0.16919	0.20597	0.13664	0.27603	0.17765	0.13821	0.21308	0.36052	0.05126	0.092824	0.37972	0.25958	0.29832	-0.54792	-1.4937	-0.59167	-1.1792	-0.98333	-0.23958	-1.6	-0.42083	-0.50208	-1.5417	-0.34792	-1.1021	-1.2479	-0.32917	-1.4312	-0.45	166.086	59.631	211.156	-68.071	20.663	118.511	158.449	17.353	-23.103	131.770	-54.422	-73.766	169.914	272.512	261.171	204.027	0.00022915	0.00024159	7.0386e-05	760.39	4.5437e-06	3.8401e-06	1014.3	260.99	5.2017e-06	6.1966e-06	414.44	157.8	92.229	37.191	5.4168e-06	71.24	0.0001596	0.00015062	4.1462e-05	669.07	1.6264e-06	1.6106e-06	886.83	229.12	1.5656e-06	1.5449e-06	354.4	134.97	80.039	32.065	1.4614e-06	60.476	139.403	76.049	-33.705	-69.882	68.729	37.715	-70.212	-64.450	34.343	103.797	-66.070	-61.433	-60.307	-55.486	-17.823	-57.772	-8191	255	
3465.912	1	1	0	0	0.053859	0.085035	0.20377	0.048451	0.064668	0.27446	0.038014	0.15989	0.23117	0.12686	0.32183	0.23342	0.1611	0.32149	0.17066	0.23956	-0.41667	-1.2917	-0.3625	-1.0625	-1.125	-0.32917	-1.4521	-0.61667	-0.66458	-1.5146	-0.39167	-1.3479	-1.3208	-0.43958	-1.2604	-0.59167	15.511	97.280	15.560	118.234	-13.306	276.909	8.352	-60.684	-48.144	35.155	262.256	169.576	264.603	202.434	239.450	135.104	0.0003019	0.00064639	8.7279e-05	758.09	5.0053e-06	2.2936e-06	998.27	259.72	2.4223e-06	7.4616e-06	411.97	157.32	92.256	37.236	1.3749e-06	70.212	0.0001425	0.00013262	3.7093e-05	661.14	1.4227e-06	1.4027e-06	873.65	227.89	1.4482e-06	1.3911e-06	350.54	134.48	79.662	31.956	1.4625e-06	59.794	122.810	-55.621	-67.060	-69.904	77.290	188.414	-70.280	-64.626	37.183	92.447	-66.377	-61.418	-60.460	-55.400	-57.925	-57.845	-8191	255	
3466.008	1	1	0	0	0.22301	0.28654	0.076782	0.098669	0.1605	0.0405	0.25188	0.091514	0.041248	0.24487	0.31987	0.37343	0.23759	0.31605	0.34336	0.17411	-0.27708	-1.4479	-0.34792	-1.0458	-1.2354	-0.17917	-1.5917	-0.89167	-0.45	-1.4375	-0.53958	-1.2396	-1.3583	-0.44792	-1.2375	-0.96458	-10.572	60.151	-12.912	227.706	114.680	99.839	225.225	229.015	118.324	97.813	222.383	275.477	146.212	223.658	15.466	194.727	0.00023285	0.0003615	0.00029892	757.91	5.7746e-06	5.2443e-06	996.42	257.7	6.2049e-06	4.5164e-06	404.68	153.25	91.117	36.446	4.8954e-06	69.711	0.00013863	0.00013261	3.7233e-05	660.74	1.4493e-06	1.4879e-06	871.68	226.16	1.5601e-06	1.4949e-06	347.76	132.21	78.711	31.44	1.5622e-06	58.846	80.844	13.243	-2.551	-69.778	84.870	36.785	-70.486	-65.019	221.127	46.582	-66.211	-61.671	-60.963	-55.695	69.917	-57.599	-8191	255	
3466.104	1	1	0	0	0.09938	0.1292	0.20952	0.24407	0.069182	0.25438	0.22268	0.26305	0.21713	0.14483	0.35383	0.32446	0.10072	0.18068	0.12408	0.28509	-0.070833	-1.5812	-0.30417	-1.1896	-1.1938	-0.2	-1.6208	-1.0938	-0.475	-1.7188	-0.45417	-1.0583	-1.4979	-0.48125	-1.275	-1.0021	190.324	104.177	4.855	266.956	113.926	267.491	-79.177	249.845	182.240	23.963	217.437	147.616	45.399	-47.970	15.532	241.526	0.00040925	0.00017877	0.0001368	760.22	5.1978e-06	2.2732e-06	999.43	259.92	5.004e-06	1.1133e-07	408.29	154	89.972	35.988	6.1678e-06	68.294	0.00014596	0.00013968	3.8501e-05	664.36	1.4987e-06	1.5096e-06	875.09	226.01	1.5167e-06	1.4415e-06	348.82	132.12	78.048	30.97	1.5453e-06	58.194	113.046	-3.359	-54.391	-69.975	65.187	233.348	-70.166	-64.707	131.930	-75.268	-66.241	-61.341	-60.482	-55.484	73.958	-57.644	-8191	255	
3466.200	1	1	0	0	0.12245	0.16055	0.20046	0.17552	0.1347	0.039672	0.21454	0.19512	0.1759	0.021528	0.35088	0.23084	0.24572	0.11617	0.099294	0.23993	-0.010417	-1.6771	-0.2875	-0.87708	-1.5708	-0.35625	-1.4854	-1.2167	-0.425	-1.4875	-0.66667	-0.80208	-1.5375	-0.27917	-1.2458	-1.0021	-21.310	41.185	238.291	-82.438	76.018	-53.725	204.655	235.403	197.247	17.376	146.081	198.392	241.687	217.236	-12.314	137.551	0.00040851	9.1215e-05	0.00027246	765.08	4.839e-06	2.0846e-06	1014.5	259.21	4.7092e-06	3.7009e-06	409.63	153.54	90.023	35.371	1.0303e-06	68.298	0.00014496	0.00013521	3.8975e-05	669.71	1.5241e-06	1.4834e-06	887.95	226.72	1.5137e-06	1.5096e-06	349.93	132.14	78.114	30.74	1.533e-06	58.125	111.507	244.028	-17.798	-69.724	66.415	219.064	-70.514	-64.703	8.942	115.802	-66.285	-61.562	-60.581	-55.025	65.140	-57.877	-8191	255	
3466.296	1	1	0	0	0.16522	0.10994	0.16086	0.17396	0.15737	0.090015	0.28191	0.10243	0.17785	0.15547	0.38815	0.20463	0.15317	0.073961	0.29054	0.1509	0.035417	-1.5958	-0.71667	-0.84375	-1.3792	-0.28333	-1.4542	-1.0375	-0.21042	-1.2917	-0.98333	-0.77292	-1.7313	-0.47708	-1.2521	-1.3625	67.483	203.218	234.737	90.051	-49.362	-72.528	237.745	138.121	248.220	254.300	121.363	233.548	-79.167	266.358	189.222	-80.249	0.00044611	0.00057963	0.00032146	765.92	5.1454e-06	2.4325e-06	1019.8	259.91	5.0374e-06	7.0893e-06	408.58	151.61	89.754	35.159	1.5981e-06	67.067	0.000149	0.00014096	3.9306e-05	668.17	1.5494e-06	1.5792e-06	887.65	226.74	1.5639e-06	1.5682e-06	349.06	130.09	77.452	30.376	1.5641e-06	56.991	131.864	-37.935	-37.645	-69.661	20.401	83.175	-70.430	-64.961	158.212	41.881	-66.550	-61.260	-60.205	-54.967	18.295	-57.533	-8191	255	
3466.393	1	1	0	0	0.097698	0.091516	0.28589	0.3331	0.071518	0.055019	0.22412	0.1636	0.14513	0.10562	0.38375	0.33276	0.043404	0.16155	0.11477	0.059877	0.19792	-1.7146	-0.91042	-0.76042	-1.5792	-0.23542	-1.2042	-1.2083	-0.1	-1.2625	-0.97708	-0.79167	-1.5562	-0.46458	-1	-1.2938	53.078	-54.405	180.831	257.669	172.133	-63.514	127.209	266.056	48.486	266.465	171.236	223.173	185.979	-56.480	107.460	13.160	0.00030163	0.00075367	8.7479e-05	763.71	3.9245e-06	3.3876e-06	1002.4	255.63	2.1025e-06	3.6146e-06	401.29	150.25	87.457	34.793	5.3535e-06	66.576	0.0001521	0.0001451	3.963e-05	670.21	1.6091e-06	1.6126e-06	880.02	224.29	1.6212e-06	1.6278e-06	343.89	129.21	76.435	30.094	1.594e-06	56.513	84.888	261.765	240.887	-69.323	126.346	150.177	-69.999	-64.840	52.590	55.679	-65.937	-61.485	-60.243	-55.189	-59.596	-57.212	-8191	255	
3466.489	1	1	0	0	0.28367	0.10897	0.17295	0.12866	0.13743	0.13522	0.085572	0.088208	0.091036	0.121	0.22826	0.18022	0.36253	0.16461	0.11245	0.10576	0.1875	-1.1	-0.77917	-0.64167	-1.5667	-0.4875	-1.1333	-1.0771	-0.25208	-1.4354	-1.0375	-0.72292	-1.6042	-0.35625	-0.9875	-1.5417	-50.220	244.108	166.368	-8.011	47.716	-2.992	211.301	-56.361	103.531	-11.005	109.521	-75.951	-68.947	-11.978	-45.884	173.680	0.00028372	0.00072881	9.8065e-05	768.4	8.0689e-06	7.2381e-06	1010.5	255.91	1.5935e-06	8.0909e-06	403.93	149.26	88.432	34.844	9.1251e-07	66.109	0.00016097	0.00015347	4.1452e-05	672.53	1.6778e-06	1.675e-06	884.33	224.55	1.7223e-06	1.687e-06	345.87	128.96	77.159	30.026	1.6736e-06	56.329	121.461	-52.453	78.699	-69.476	67.665	55.504	-70.058	-64.496	9.496	-12.556	-65.907	-61.334	-60.377	-55.182	183.175	-57.000	-8191	255	
3466.585	1	1	0	0	0.31845	0.27574	0.22249	0.17183	0.14226	0.25767	0.065561	0.20932	0.29701	0.14127	0.17049	0.17749	0.26117	0.22364	0.060046	0.025855	0.064583	-1.6187	-0.9375	-0.41042	-1.4958	-0.56042	-0.99375	-1.4396	-0.18542	-1.5312	-1.0146	-0.44792	-1.3833	-0.625	-1.0229	-1.6396	3.284	221.732	-63.100	48.489	-0.282	190.179	-23.773	194.225	43.716	131.769	88.266	152.120	255.706	-72.195	71.463	108.682	0.00043119	0.0003039	0.00011554	773.5	3.3844e-06	5.8043e-06	1016	257.09	3.9205e-06	6.4432e-06	405.66	149.34	89.164	34.729	7.4334e-06	65.948	0.00015924	0.00015183	4.1153e-05	674.68	1.6533e-06	1.5749e-06	886.44	224.64	1.6005e-06	1.5771e-06	347.8	129.12	77.022	29.952	1.6965e-06	56.143	130.177	-7.381	40.331	-69.925	85.323	23.409	-69.791	-64.506	78.849	79.011	-66.051	-61.417	-60.002	-54.922	27.921	-57.244	-8191	255	
3466.705	1	1	0	0	0.13737	0.14276	0.20637	0.16503	0.16954	0.15322	0.19493	0.14207	0.44786	0.097653	0.19648	0.40452	0.10427	0.028393	0.30154	0.33638	0.04375	-1.3667	-0.95208	-0.36042	-1.6083	-0.52708	-0.94167	-1.5708	-0.25208	-1.2375	-1.2896	-0.36875	-1.5833	-0.65833	-0.53333	-1.6771	223.618	-65.351	127.681	-56.314	-24.053	23.548	16.019	184.824	189.118	137.523	186.699	236.319	142.496	-37.674	15.165	207.330	0.00049141	0.00030433	0.00023365	776.58	4.2462e-06	1.3308e-06	1023.9	257.91	4.9746e-06	1.9776e-06	401.15	147.06	86.936	33.999	5.3519e-06	64.682	0.00017016	0.00016001	4.445e-05	682.9	1.8017e-06	1.793e-06	898.02	225.74	1.8584e-06	1.7931e-06	345.31	127.72	76.251	29.469	1.7395e-06	55.305	122.504	-61.597	-11.099	-69.287	132.381	147.597	-69.992	-64.742	119.980	-13.972	-65.957	-61.349	-59.939	-55.175	39.991	-57.159	-8191	255	
3466.800	1	1	0	0	0.076423	0.073643	0.24006	0.18732	0.3205	0.059213	0.21799	0.28051	0.10183	0.098102	0.16959	0.15463	0.10695	0.15388	0.18352	0.033583	0.0375	-1.3729	-1.0396	-0.4125	-1.4813	-0.61667	-1.0146	-1.5625	-0.53333	-1.1708	-1.0604	-0.36875	-1.5042	-0.7375	-0.61875	-1.6875	124.765	44.142	33.451	176.262	198.092	170.990	219.455	246.213	-27.011	41.557	60.928	178.621	-16.265	215.943	201.915	-11.587	0.00033789	0.00034809	9.2473e-05	777.43	6.0797e-06	2.495e-06	1004.6	254.22	4.1444e-06	4.83e-06	394.82	147.02	87.723	34.041	3.3514e-06	65.087	0.00016899	0.00016187	4.3472e-05	681.34	1.7526e-06	1.7474e-06	885.91	224.1	1.7459e-06	1.7252e-06	341.98	127.3	76.579	29.562	1.7522e-06	55.629	121.783	-57.148	-52.190	-69.652	78.453	91.835	-69.804	-64.177	254.294	19.407	-65.846	-61.368	-60.402	-55.177	101.766	-56.999	-8191	255	
3466.896	1	1	0	0	0.2753	0.36642	0.10956	0.18695	0.037442	0.054617	0.094034	0.23553	0.092333	0.079475	0.20874	0.27772	0.13337	0.23978	0.23264	0.12106	0	-1.0812	-1.1812	-0.44792	-1.4125	-0.75	-0.89167	-1.7792	-0.58958	-1.1875	-1.3833	-0.39792	-1.7083	-0.825	-0.50417	-1.9021	12.975	27.993	228.030	-25.552	153.738	-3.956	232.421	-52.248	136.199	87.058	215.672	221.107	270.318	261.047	-8.651	172.285	0.00038528	0.00072634	0.00010892	761.82	4.9859e-06	5.3634e-06	995.08	256.13	6.7896e-07	3.9073e-06	395.9	147.38	87.809	33.824	6.2205e-06	65.356	0.00016509	0.00015603	4.2151e-05	674.26	1.6485e-06	1.6383e-06	879.18	223.86	1.632e-06	1.5576e-06	341.25	128.03	76.368	29.442	1.5432e-06	55.762	128.999	-8.592	-72.414	-69.272	31.134	93.979	-69.736	-64.469	43.895	98.267	-65.831	-61.455	-59.726	-55.149	-19.401	-57.315	-8191	255	
3466.992	1	1	0	0	0.047491	0.15192	0.19388	0.14596	0.15972	0.10461	0.13292	0.11671	0.24989	0.18188	0.18623	0.36102	0.027046	0.091243	0.16733	0.071797	0.1	-1.2104	-1.3917	-0.37083	-1.6292	-0.92083	-0.80625	-1.7604	-0.5125	-0.90208	-1.3146	-0.37708	-1.6063	-1.025	-0.58333	-1.8563	90.653	-49.698	118.563	189.778	243.683	8.115	261.739	24.691	81.464	148.393	239.210	214.047	249.075	-13.728	11.098	50.198	0.00035893	0.00057429	0.00019717	755.61	4.9196e-06	1.1715e-06	993.8	253.72	1.0214e-06	7.8276e-06	396.4	146.86	87.619	33.799	7.5694e-06	65.059	0.00014395	0.00013494	3.7958e-05	667.66	1.4908e-06	1.4399e-06	880.45	222.88	1.4645e-06	1.4545e-06	343.32	128.13	76.637	29.429	1.5187e-06	55.862	102.231	-37.593	-1.596	-69.046	133.365	25.796	-69.618	-64.299	134.982	96.884	-65.655	-61.027	-59.803	-54.781	-55.511	-56.637	-8191	255	
3467.088	1	1	0	0	0.31118	0.17674	0.18448	0.068258	0.10649	0.16895	0.068674	0.10841	0.12324	0.28699	0.29516	0.21349	0.18249	0.22347	0.099122	0.15386	-0.38333	-0.94583	-1.3146	-0.55	-1.4167	-1.0292	-0.7875	-1.7042	-0.55417	-0.88542	-1.5771	-0.55625	-1.4562	-0.94792	-0.66042	-1.6375	27.481	-28.680	214.054	199.591	-58.360	207.683	176.648	238.081	69.624	83.895	185.559	217.799	225.672	127.852	236.702	151.358	0.0002946	0.00031815	0.0002144	765.4	2.1625e-06	2.0221e-06	995.88	252.23	2.8944e-06	4.3375e-06	398.44	146.54	86.269	33.454	2.7335e-06	64.223	0.00014498	0.0001368	3.8062e-05	671.76	1.4466e-06	1.5078e-06	882.34	223.16	1.49e-06	1.5127e-06	344.95	127.81	75.927	29.191	1.5225e-06	55.223	118.332	-55.990	15.188	-69.178	28.924	-34.909	-69.814	-64.236	16.085	57.196	-65.628	-61.242	-59.380	-54.715	68.880	-56.634	-8191	255	
3467.184	1	1	0	0	0.024531	0.10486	0.23914	0.18645	0.33187	0.31166	0.10772	0.14631	0.15535	0.15233	0.274	0.035544	0.27254	0.10196	0.1042	0.28488	-0.4875	-0.98333	-1.5146	-0.625	-1.2958	-1.0979	-0.70625	-1.7833	-0.73125	-0.85833	-1.6771	-0.51042	-1.4417	-1.1542	-0.25833	-1.55	220.876	274.826	-8.628	-44.838	128.384	-48.039	231.014	-17.365	59.571	83.314	221.554	210.886	270.568	250.470	265.873	174.083	0.00019403	0.00032445	0.0001033	758.88	2.8111e-06	3.8981e-06	993.08	250.73	5.1977e-06	3.7481e-06	394.82	145.51	85.653	33.128	7.2685e-06	64.21	0.00014284	0.00013893	3.8081e-05	669.37	1.4965e-06	1.4832e-06	880.89	222.39	1.5375e-06	1.5427e-06	342.72	127.04	75.805	29.05	1.5946e-06	55.07	72.735	18.741	-16.535	-69.506	58.241	59.440	-69.569	-63.982	34.219	11.349	-65.748	-61.060	-59.375	-54.842	33.114	-56.657	-8191	255	
3467.305	1	1	0	0	0.31898	0.29578	0.094835	0.088905	0.098357	0.19169	0.14755	0.10667	0.042546	0.14267	0.27157	0.11902	0.16849	0.13401	0.15339	0.2025	-0.2625	-0.73125	-1.6042	-0.50625	-1.2646	-1.1437	-0.46458	-1.4146	-0.75417	-0.63125	-1.6458	-0.71042	-1.2646	-1.2896	-0.35833	-1.7125	157.490	103.362	6.819	241.294	216.168	104.867	-79.878	156.435	-34.447	218.085	-55.417	120.631	252.582	-33.159	1.006	247.195	0.00035309	0.00035158	0.00019562	754.6	2.6416e-06	1.646e-06	992	251.88	4.4342e-06	2.868e-06	395.43	146.13	86.07	33.5	2.3781e-06	64.474	0.00015332	0.00014773	4.1093e-05	670.86	1.6362e-06	1.6412e-06	882.4	224.73	1.6459e-06	1.657e-06	344.4	127.83	76.564	29.481	1.613e-06	55.567	126.805	67.096	-77.392	-69.108	-19.108	76.316	-69.607	-63.688	27.820	81.154	-65.838	-60.864	-59.391	-54.708	53.835	-56.795	-8191	255	
3467.401	1	1	0	0	0.1702	0.18193	0.26779	0.13034	0.28876	0.063994	0.25715	0.41616	0.23171	0.055606	0.20191	0.28269	0.10577	0.15176	0.040891	0.30398	-0.40208	-0.61458	-1.475	-0.51458	-1.1625	-1.3521	-0.69375	-1.5646	-0.875	-0.575	-1.8229	-0.41042	-1.0896	-1.375	-0.29792	-1.6083	244.859	182.665	-45.717	-59.206	-31.490	161.783	207.317	232.520	186.299	-47.718	227.438	-9.784	179.459	262.078	202.141	229.056	0.00032671	0.00052281	0.00011977	760.23	4.2275e-06	6.2421e-06	998.3	254.59	3.6707e-06	3.149e-06	399.9	146.86	87.209	33.793	9.1132e-06	64.824	0.0001546	0.00015164	4.2026e-05	674.6	1.6734e-06	1.656e-06	885	225.28	1.6347e-06	1.6675e-06	346.38	128.47	76.813	29.522	1.6245e-06	55.694	121.689	243.157	-57.652	-69.683	78.490	44.521	-69.595	-63.715	18.812	82.529	-65.546	-60.985	-59.919	-54.832	68.253	-56.776	-8191	255	
3467.497	1	1	0	0	0.38639	0.22812	0.1548	0.2226	0.15357	0.16073	0.14271	0.075235	0.08708	0.20928	0.077057	0.32649	0.25477	0.3593	0.18853	0.37801	-0.55208	-0.66875	-1.5583	-0.52708	-1.0375	-1.5917	-0.57292	-1.5917	-0.94167	-0.40208	-1.7458	-0.5375	-0.96042	-1.5	-0.43333	-1.3375	115.654	213.304	253.972	97.849	6.078	-18.802	189.187	187.319	211.025	62.693	198.137	176.093	182.416	264.650	107.738	224.377	0.00048409	0.00026894	7.3868e-05	766.61	5.2755e-07	4.6296e-06	1009.8	255.74	2.9679e-06	6.518e-06	404.77	148.24	87.281	33.602	2.2094e-06	64.69	0.00015739	0.00014975	3.9848e-05	678.5	1.6617e-06	1.6253e-06	892.53	225.5	1.6163e-06	1.5937e-06	349.33	128.81	76.81	29.373	1.5979e-06	55.586	112.223	220.684	-4.418	-69.283	67.459	47.703	-69.787	-64.207	-20.444	69.186	-65.703	-61.414	-60.260	-54.687	64.050	-56.737	-8191	255	
3467.594	1	1	0	0	0.058904	0.023402	0.30179	0.23815	0.016049	0.095328	0.17232	0.18275	0.13435	0.19956	0.29829	0.062458	0.18121	0.10753	0.032609	0.17992	-0.51667	-0.46667	-1.6604	-0.73125	-0.59375	-1.4792	-0.32708	-1.4354	-0.72917	-0.46042	-1.6708	-0.61458	-0.99583	-1.5875	-0.35625	-1.5333	220.875	107.644	244.818	-49.129	38.227	-61.570	264.639	186.093	39.090	17.873	169.448	13.672	-22.221	185.969	-70.843	182.212	0.00034609	0.00031469	0.00023115	765.88	3.7024e-06	7.743e-06	1002.2	255.58	3.7961e-06	5.7254e-06	399.03	148.05	87.131	33.563	5.7805e-06	64.948	0.00015492	0.00014935	3.9606e-05	678.06	1.6457e-06	1.551e-06	886.87	225.61	1.5857e-06	1.5594e-06	346.19	128.37	76.692	29.287	1.5057e-06	55.664	107.134	-19.217	-0.200	-69.312	-22.198	55.265	-69.706	-64.447	174.441	61.073	-65.333	-61.211	-59.614	-54.511	-12.820	-56.755	-8191	255	
3467.690	1	1	0	0	0.16775	0.2509	0.12306	0.22358	0.22614	0.27222	0.33675	0.17322	0.033377	0.24877	0.17874	0.13572	0.075857	0.29549	0.11519	0.27884	-0.85417	-0.34375	-1.5583	-0.89792	-0.70208	-1.6583	-0.49792	-1.4146	-1.0625	-0.36042	-1.7708	-0.67917	-0.76042	-1.6021	-0.20417	-1.5375	-62.180	201.126	222.494	225.375	150.583	-12.790	154.734	60.142	33.416	86.876	198.828	-56.502	-67.305	246.464	30.831	224.875	0.00026175	0.0002481	0.00015059	761.24	3.4231e-06	6.337e-06	1002.9	253.61	5.5378e-06	3.2969e-06	401.81	148.93	87.684	33.958	1.761e-06	65.276	0.00014001	0.00013441	3.6673e-05	672.65	1.4427e-06	1.4087e-06	882.91	224.34	1.347e-06	1.3372e-06	347.5	128.87	76.535	29.365	1.2983e-06	55.728	119.110	-7.858	-59.372	-69.450	33.842	90.580	-69.686	-63.981	86.793	35.419	-65.624	-61.410	-59.514	-54.633	64.915	-56.725	-8191	255	
3467.784	1	1	0	0	0.14308	0.21772	0.30006	0.10413	0.13001	0.10514	0.19803	0.32532	0.24539	0.44298	0.1554	0.24873	0.085954	0.23746	0.06332	0.048889	-0.96667	-0.32292	-1.4042	-0.93125	-0.55208	-1.5771	-0.67917	-1.0458	-1.175	-0.275	-1.6667	-0.89792	-0.79167	-1.6938	-0.35833	-1.2687	227.175	255.462	106.572	55.287	-66.529	41.004	223.011	-63.166	-66.820	265.813	239.574	204.556	203.415	203.378	248.815	-68.412	0.00031865	0.00020423	8.6797e-05	769.75	2.8485e-06	3.3997e-06	1015.9	258.18	3.0568e-06	2.6084e-06	407.18	149.81	87.622	33.525	4.1091e-06	64.638	0.00012584	0.00011595	3.1786e-05	673.09	1.2901e-06	1.2489e-06	889.67	225	1.3198e-06	1.2857e-06	349.58	129.61	76.316	29.194	1.3704e-06	55.578	133.021	17.892	277.294	-69.377	46.627	127.891	-69.797	-63.702	105.211	45.326	-65.611	-61.226	-59.737	-54.791	154.550	-56.500	-8191	255	
3467.880	1	1	0	0	0.25427	0.17007	0.32041	0.37972	0.11845	0.15546	0.35486	0.25656	0.069461	0.14791	0.1434	0.10155	0.2424	0.14538	0.24219	0.18952	-1.0417	-0.43125	-1.45	-0.72917	-0.59167	-1.5792	-0.68958	-1.1396	-1.3062	-0.26667	-1.5167	-0.975	-0.575	-1.5896	-0.45417	-0.89375	6.876	-14.529	70.285	224.382	264.919	85.903	194.065	-49.195	76.277	106.753	-4.902	261.058	246.619	192.189	-51.267	207.895	0.00045078	0.00072528	7.1061e-05	764.4	7.5072e-06	5.4521e-06	1007.3	255.51	2.6632e-06	7.7448e-06	407.46	149.6	87.202	33.746	2.2508e-06	65.403	0.00013068	0.00012	3.2877e-05	674.51	1.3144e-06	1.2655e-06	893.49	225.61	1.2435e-06	1.2203e-06	352.06	129.99	76.348	29.182	1.2494e-06	55.636	128.740	-45.416	-62.900	-69.305	70.757	97.653	-69.760	-63.938	66.515	9.645	-65.597	-61.384	-59.592	-54.478	-45.606	-56.481	-8191	255	
3467.976	1	1	0	0	0.31887	0.027132	0.15817	0.31407	0.11367	0.20201	0.19861	0.28353	0.33322	0.30026	0.1575	0.23772	0.41512	0.19346	0.10168	0.36201	-1.0396	-0.30417	-1.3438	-1.1313	-0.4	-1.6875	-0.8375	-0.9375	-1.2479	-0.41875	-1.5271	-1.1729	-0.56875	-1.5396	-0.51667	-0.96875	202.444	-71.294	99.232	-39.131	-50.397	-61.439	204.670	211.996	257.555	-43.151	185.093	217.497	201.693	214.142	146.335	229.164	0.00020156	5.9287e-05	0.00017748	769.35	1.2075e-06	2.9685e-06	1008	256.14	2.9764e-06	3.3998e-06	405.48	148.89	87.023	33.583	1.8106e-06	64.619	0.00012356	0.00011534	3.1816e-05	677.91	1.2868e-06	1.28e-06	894.92	225.64	1.2846e-06	1.2664e-06	349.98	129.19	76.207	29.164	1.2604e-06	55.511	103.595	18.738	-54.471	-69.756	-50.312	76.278	-69.743	-63.743	-23.224	47.129	-65.484	-61.243	-59.499	-54.380	196.160	-56.392	-8191	255	
3468.097	1	1	0	0	0.23769	0.16397	0.22773	0.30492	0.14056	0.052017	0.27326	0.071333	0.23336	0.30631	0.18459	0.35943	0.29474	0.18438	0.20635	0.25461	-1.1417	-0.38125	-1.0187	-1.0833	-0.37292	-1.5312	-0.79792	-0.90833	-1.3292	-0.42708	-1.4208	-1.3042	-0.66042	-1.3854	-0.70208	-1.0625	97.257	96.460	85.241	-42.966	88.401	213.681	191.146	172.805	-44.135	213.792	192.640	128.232	263.523	252.312	-78.722	165.684	0.00032472	0.00026919	0.00017908	767.76	1.76e-06	4.3497e-06	1000.4	254.67	3.2805e-06	6.0822e-06	405.84	150.23	86.509	33.858	4.6499e-06	65.189	0.00012028	0.00011516	3.2322e-05	675.7	1.2652e-06	1.2411e-06	888.17	225.43	1.234e-06	1.2271e-06	351.03	130.11	76.426	29.418	1.2378e-06	56.048	120.828	-34.215	-35.306	-69.341	55.431	57.675	-69.570	-64.014	31.393	28.838	-65.332	-60.739	-59.183	-54.252	52.824	-56.573	-8191	255	
3468.193	1	1	0	0	0.28315	0.25791	0.1124	0.44856	0.15946	0.15447	0.35821	0.31249	0.13613	0.088053	0.18349	0.32587	0.16867	0.13079	0.095834	0.25519	-1.0167	-0.39583	-1.0875	-1.1917	-0.4125	-1.4417	-0.7625	-0.92292	-1.5063	-0.25833	-1.2708	-1.2479	-0.60417	-1.2896	-0.80417	-0.82083	225.711	130.687	179.273	235.293	197.426	127.009	242.249	245.395	-55.751	140.175	261.076	-27.105	201.565	270.102	126.765	-46.984	0.00013762	0.00049511	0.00021156	760.37	4.7925e-06	2.2713e-06	1006.1	255.85	1.656e-06	5.103e-06	409.18	150.31	87.388	33.69	4.3552e-06	65.802	0.00011378	0.00010848	2.9695e-05	672.25	1.1848e-06	1.1717e-06	890.17	226.09	1.1812e-06	1.1777e-06	352.84	130.52	76.625	29.362	1.1615e-06	56.492	109.793	-2.523	-81.330	-69.192	8.099	53.782	-69.491	-63.873	100.600	73.609	-65.254	-60.946	-59.284	-54.271	68.775	-56.473	-8191	255	
3468.265	1	1	0	0	0.058417	0.1425	0.062338	0.09908	0.12411	0.2808	0.1474	0.070754	0.15519	0.22583	0.34441	0.13582	0.24368	0.14386	0.11384	0.44967	-1.075	-0.31667	-1.0958	-1.25	-0.39792	-1.2604	-1.0312	-0.75	-1.2958	-0.48542	-1.35	-1.05	-0.55417	-1.4625	-0.86458	-0.81667	123.861	-70.101	62.337	8.610	-57.005	205.289	273.732	-79.885	-6.369	99.907	255.752	-78.220	247.821	222.928	22.790	133.375	0.00024153	0.00043772	0.00012931	761.25	4.6492e-06	2.3791e-06	1012.3	255.63	1.8988e-06	3.2053e-06	411.62	151.15	87.748	34.066	4.5507e-06	65.947	0.00011304	0.00010883	3.0507e-05	674.02	1.2173e-06	1.2105e-06	897.12	227.03	1.2518e-06	1.2283e-06	356.21	131.94	77.104	29.681	1.2321e-06	56.828	102.899	5.298	7.029	-69.638	9.591	92.526	-69.515	-63.706	-5.152	41.742	-65.048	-61.038	-59.517	-54.428	76.418	-56.615	-8191	255	
#DATA ENDS
