BOXY.EXE: ISS Imagent and Oximeter Data Acquisition Program Version 0.80
Ascii Record File

#ACQ INFORMATION
2  Detector Channels 
16  External MUX Channels 
1  Auxiliary Channels 
5000  Waveform (CCF) Frequency (Hz)
1  Waveforms Skipped 
30  Waveforms Averaged 
1  Cycles Averaged 
16  Acquisitions per Waveform 
10.0806  Updata Rate (Hz) 

#FILE INFORMATION
TRUE -- External MUX Channel results are PARSED.
FALSE -- AC DC and Phase are NOT grouped.
TRUE -- Companion Program Settings File CREATED.
FALSE -- AC data not excluded
FALSE -- DC data not excluded
FALSE -- Phase data not excluded
FALSE -- Auxillary Chn. data not excluded
Tab delimiters

#CALIBRATION STATE
TRUE -- Waveform Calibration Values APPLIED.


#AUX CALIBRATION VALUES
Val Type	aux-1	

Term	1.0000e+00	
Factor	0.0000e+00	


#WF CALIBRATION VALUES
A = Detector Channel
Val Type	A-AC1	A-AC2	A-AC3	A-AC4	A-AC5	A-AC6	A-AC7	A-AC8	A-AC9	A-AC10	A-AC11	A-AC12	A-AC13	A-AC14	A-AC15	A-AC16	A-DC1	A-DC2	A-DC3	A-DC4	A-DC5	A-DC6	A-DC7	A-DC8	A-DC9	A-DC10	A-DC11	A-DC12	A-DC13	A-DC14	A-DC15	A-DC16	A-Ph1	A-Ph2	A-Ph3	A-Ph4	A-Ph5	A-Ph6	A-Ph7	A-Ph8	A-Ph9	A-Ph10	A-Ph11	A-Ph12	A-Ph13	A-Ph14	A-Ph15	A-Ph16	

Term	0.00000e+00	0.00000e+00	0.00000e+00	0.00000e+00	0.00000e+00	0.00000e+00	0.00000e+00	0.00000e+00	0.00000e+00	0.00000e+00	0.00000e+00	0.00000e+00	0.00000e+00	0.00000e+00	0.00000e+00	0.00000e+00	0.00000e+00	0.00000e+00	0.00000e+00	0.00000e+00	0.00000e+00	0.00000e+00	0.00000e+00	0.00000e+00	0.00000e+00	0.00000e+00	0.00000e+00	0.00000e+00	0.00000e+00	0.00000e+00	0.00000e+00	0.00000e+00	0.00000e+00	0.00000e+00	0.00000e+00	0.00000e+00	0.00000e+00	0.00000e+00	0.00000e+00	0.00000e+00	0.00000e+00	0.00000e+00	0.00000e+00	0.00000e+00	0.00000e+00	0.00000e+00	0.00000e+00	0.00000e+00	
Factor	1.00000e+00	1.00000e+00	1.00000e+00	1.00000e+00	1.00000e+00	1.00000e+00	1.00000e+00	1.00000e+00	1.00000e+00	1.00000e+00	1.00000e+00	1.00000e+00	1.00000e+00	1.00000e+00	1.00000e+00	1.00000e+00	1.00000e+00	1.00000e+00	1.00000e+00	1.00000e+00	1.00000e+00	1.00000e+00	1.00000e+00	1.00000e+00	1.00000e+00	1.00000e+00	1.00000e+00	1.00000e+00	1.00000e+00	1.00000e+00	1.00000e+00	1.00000e+00	X	X	X	X	X	X	X	X	X	X	X	X	X	X	X	X	

B = Detector Channel
Val Type	B-AC1	B-AC2	B-AC3	B-AC4	B-AC5	B-AC6	B-AC7	B-AC8	B-AC9	B-AC10	B-AC11	B-AC12	B-AC13	B-AC14	B-AC15	B-AC16	B-DC1	B-DC2	B-DC3	B-DC4	B-DC5	B-DC6	B-DC7	B-DC8	B-DC9	B-DC10	B-DC11	B-DC12	B-DC13	B-DC14	B-DC15	B-DC16	B-Ph1	B-Ph2	B-Ph3	B-Ph4	B-Ph5	B-Ph6	B-Ph7	B-Ph8	B-Ph9	B-Ph10	B-Ph11	B-Ph12	B-Ph13	B-Ph14	B-Ph15	B-Ph16	

Term	0.00000e+00	0.00000e+00	0.00000e+00	0.00000e+00	0.00000e+00	0.00000e+00	0.00000e+00	0.00000e+00	0.00000e+00	0.00000e+00	0.00000e+00	0.00000e+00	0.00000e+00	0.00000e+00	0.00000e+00	0.00000e+00	0.00000e+00	0.00000e+00	0.00000e+00	0.00000e+00	0.00000e+00	0.00000e+00	0.00000e+00	0.00000e+00	0.00000e+00	0.00000e+00	0.00000e+00	0.00000e+00	0.00000e+00	0.00000e+00	0.00000e+00	0.00000e+00	-1.89397e+02	-1.65226e+02	-1.57126e+02	-1.83573e+02	-7.86518e+01	-6.98634e+01	-1.59024e+02	-1.62015e+02	-7.23741e+01	-8.28070e+01	-1.70632e+02	-1.70941e+02	-1.78840e+02	-1.76518e+02	-1.05877e+02	-1.49938e+02	
Factor	3.42563e-05	9.17672e-05	3.45975e-05	1.69658e-01	8.77912e-07	9.10906e-07	1.63438e-01	4.72968e-02	9.51688e-07	1.02407e-06	8.13686e-02	2.67452e-02	2.20867e-02	8.52368e-03	9.30633e-07	1.22118e-02	6.57652e-07	6.67795e-07	1.85925e-07	8.48753e-02	7.31233e-09	7.30656e-09	7.73714e-02	2.37719e-02	7.30843e-09	7.30628e-09	3.87263e-02	1.27484e-02	1.10087e-02	4.19686e-03	7.29356e-09	5.76721e-03	X	X	X	X	X	X	X	X	X	X	X	X	X	X	X	X	



#DISTANCE SETTINGS
A = Detector Channel
A-1	A-2	A-3	A-4	A-5	A-6	A-7	A-8	A-9	A-10	A-11	A-12	A-13	A-14	A-15	A-16	

2.5000e+00	3.0000e+00	2.5000e+00	3.0000e+00	2.0000e+00	3.0000e+00	1.5000e+00	3.0000e+00	3.0000e+00	3.0000e+00	3.0000e+00	3.0000e+00	3.0000e+00	3.0000e+00	1.5000e+00	3.0000e+00	

B = Detector Channel
B-1	B-2	B-3	B-4	B-5	B-6	B-7	B-8	B-9	B-10	B-11	B-12	B-13	B-14	B-15	B-16	

1.0000e+01	1.0000e+01	1.0000e+01	1.4400e+00	1.0000e+01	1.0000e+01	1.5100e+00	1.9400e+00	1.0000e+01	1.0000e+01	1.9900e+00	2.4900e+00	2.4100e+00	2.9000e+00	1.0000e+01	2.9800e+00	




#DATA BEGINS
time	group	step	mark	flag	A-AC1	A-AC2	A-AC3	A-AC4	A-AC5	A-AC6	A-AC7	A-AC8	A-AC9	A-AC10	A-AC11	A-AC12	A-AC13	A-AC14	A-AC15	A-AC16	A-DC1	A-DC2	A-DC3	A-DC4	A-DC5	A-DC6	A-DC7	A-DC8	A-DC9	A-DC10	A-DC11	A-DC12	A-DC13	A-DC14	A-DC15	A-DC16	A-Ph1	A-Ph2	A-Ph3	A-Ph4	A-Ph5	A-Ph6	A-Ph7	A-Ph8	A-Ph9	A-Ph10	A-Ph11	A-Ph12	A-Ph13	A-Ph14	A-Ph15	A-Ph16	B-AC1	B-AC2	B-AC3	B-AC4	B-AC5	B-AC6	B-AC7	B-AC8	B-AC9	B-AC10	B-AC11	B-AC12	B-AC13	B-AC14	B-AC15	B-AC16	B-DC1	B-DC2	B-DC3	B-DC4	B-DC5	B-DC6	B-DC7	B-DC8	B-DC9	B-DC10	B-DC11	B-DC12	B-DC13	B-DC14	B-DC15	B-DC16	B-Ph1	B-Ph2	B-Ph3	B-Ph4	B-Ph5	B-Ph6	B-Ph7	B-Ph8	B-Ph9	B-Ph10	B-Ph11	B-Ph12	B-Ph13	B-Ph14	B-Ph15	B-Ph16	aux-1	digaux	

2567.129	1	1	0	256	0.27466	0.30447	0.16	0.27078	0.089087	0.050997	0.23865	0.2376	0.27764	0.19885	0.049408	0.33897	0.3306	0.42474	0.10537	0.1258	0.88958	-0.475	0.24375	-0.070833	-0.44375	0.30417	-0.57292	-0.46667	0.38333	-0.49583	-0.09375	0.20833	-0.64792	0.28125	-0.23333	-0.23125	145.456	262.729	28.491	178.562	111.167	50.349	243.515	278.277	-44.860	26.255	34.864	245.724	280.489	270.213	-12.134	148.312	0.00035045	0.00065819	0.00036026	1372.3	3.8319e-06	4.9602e-06	1375.2	363.32	3.9119e-06	6.0815e-06	418.62	138.2	120.25	40.627	1.9251e-06	50.362	0.00048235	0.00048074	0.00013194	1381.4	5.2809e-06	5.2613e-06	1384.5	368.32	5.2688e-06	5.2001e-06	421.55	140.64	121.9	41.258	5.1504e-06	51.281	75.194	-13.725	-31.178	-46.590	85.310	46.111	-46.735	-41.939	-34.094	90.179	-42.504	-38.002	-37.525	-32.532	79.411	-33.467	-8191	255	
2567.224	1	1	0	0	0.10858	0.28449	0.30924	0.14394	0.12926	0.26026	0.35678	0.038859	0.36307	0.061218	0.03685	0.24266	0.27827	0.1602	0.20093	0.15281	0.69167	-0.39583	0.12292	0.21042	-0.32917	0.27292	-0.34792	-0.475	0.33542	-0.19583	-0.077083	0.17708	-0.63333	0.17917	-0.014583	-0.58542	96.778	40.086	-28.547	186.284	251.480	67.497	271.684	-26.017	148.564	208.714	101.400	263.124	273.135	65.035	112.297	-51.738	0.00020179	0.00012485	0.00030782	1375	7.6849e-06	3.284e-06	1376.3	365.04	1.2282e-05	3.331e-06	417.55	138.35	120.41	40.53	2.3875e-06	50.712	0.00048118	0.00047291	0.00013239	1383.6	5.2345e-06	5.1347e-06	1386.6	368.73	5.2058e-06	5.1181e-06	421.53	140.45	121.98	41.183	5.1561e-06	51.409	54.189	219.801	0.464	-46.126	70.087	89.814	-46.746	-41.774	128.324	15.951	-41.693	-37.459	-37.155	-32.609	-2.582	-32.675	-8191	255	
2567.321	1	1	0	0	0.066222	0.24641	0.25739	0.36098	0.32179	0.065351	0.0055611	0.33091	0.17587	0.1518	0.11988	0.093939	0.17986	0.20934	0.30813	0.17414	0.58958	-0.27708	-0.095833	0.21875	-0.40417	0.16458	-0.15417	-0.56042	0.36042	-0.2875	-0.12083	0.17917	-0.57708	0.014583	0.22917	-0.5	277.748	88.730	109.756	251.686	294.097	186.579	148.890	235.692	19.414	268.983	-20.980	213.836	215.023	261.902	260.880	177.874	0.00020278	0.00070143	0.00020905	1378.6	6.454e-06	1.5022e-06	1377	363.58	1.7187e-06	3.5992e-06	419.31	138.97	120.2	40.645	4.8711e-06	50.46	0.00047697	0.00046847	0.00013215	1384.2	5.1925e-06	5.1399e-06	1386.8	368.55	5.1933e-06	5.1259e-06	421.81	140.85	121.88	41.188	5.2035e-06	51.304	133.580	-20.749	-53.397	-46.166	86.027	80.048	-45.862	-41.356	185.872	75.774	-41.699	-37.328	-36.729	-32.191	-3.207	-32.834	-8191	255	
2567.440	1	1	0	0	0.087583	0.088714	0.18073	0.23979	0.18599	0.073857	0.23102	0.38395	0.18508	0.12394	0.24869	0.15053	0.13611	0.06643	0.092168	0.10533	0.64375	-0.18333	-0.30833	0.27292	-0.41667	0.19583	0.10208	-0.70208	0.32708	-0.072917	-0.45833	0.3875	-0.46042	-0.05	0.15833	-0.56458	-52.342	272.265	209.792	-52.144	-31.063	-11.729	276.563	258.034	46.680	198.691	153.990	234.232	271.802	126.261	105.993	246.334	0.00020508	0.00068611	3.9548e-05	1373.3	4.8167e-06	2.9499e-06	1370	364.7	3.3421e-06	6.3988e-06	417.7	138.77	119.91	40.465	4.9527e-06	50.587	0.0004736	0.00047283	0.00013412	1382.5	5.2325e-06	5.2329e-06	1384.3	368.65	5.225e-06	5.2104e-06	420.88	140.42	121.67	41.124	5.2125e-06	51.331	115.196	-5.603	-18.652	-45.744	120.062	176.941	-46.664	-42.101	18.602	91.539	-42.909	-38.182	-38.061	-33.049	9.881	-33.620	-8191	255	
2567.536	1	1	0	0	0.22641	0.063126	0.03313	0.32324	0.33038	0.3575	0.27996	0.22136	0.20168	0.10912	0.043101	0.24507	0.089909	0.27905	0.27831	0.2422	0.74583	-0.033333	-0.52917	0.60417	-0.38333	0.025	0.095833	-0.83958	0.2125	0.17083	-0.56458	0.28125	-0.51042	-0.19375	0.48958	-0.55417	-51.111	119.309	287.425	256.060	249.854	16.270	248.890	-7.874	223.006	161.640	-7.175	241.742	277.640	-41.938	226.611	45.546	0.00012144	0.00041791	0.00016149	1373.3	4.013e-06	3.1862e-06	1370.9	364.93	2.5939e-06	1.1154e-05	417.48	138.21	119.9	40.476	8.181e-06	50.594	0.00047049	0.00046944	0.00013269	1380.8	5.1454e-06	5.1981e-06	1382.8	368.76	5.139e-06	5.1564e-06	421.26	140.68	121.74	41.205	5.1605e-06	51.282	109.286	246.257	152.226	-46.509	166.482	143.325	-46.724	-41.967	182.321	-0.537	-42.707	-38.212	-37.700	-32.712	114.010	-33.594	-8191	255	
2567.633	1	1	0	0	0.31943	0.1359	0.18812	0.51062	0.10185	0.22193	0.35238	0.082077	0.13199	0.28854	0.28959	0.27136	0.091108	0.15082	0.19268	0.14909	0.625	0.12292	-0.29792	0.175	-0.25417	-0.23125	0.047917	-0.59375	0.3375	0.14375	-0.49792	0.3375	-0.475	-0.26458	0.58542	-0.51042	59.351	40.279	167.259	299.274	25.592	299.544	226.459	232.392	284.952	291.289	164.985	271.987	185.300	214.417	242.817	190.117	0.00030301	0.00058355	6.7083e-05	1373.7	2.2851e-06	1.8984e-06	1371	365.08	3.8018e-06	6.115e-06	417.63	138.27	120.41	40.483	4.8815e-06	50.314	0.00046668	0.00047067	0.00013235	1380.7	5.1478e-06	5.1524e-06	1383.6	368.52	5.1027e-06	5.1768e-06	421.38	140.27	121.95	41.185	5.2056e-06	51.206	67.174	-26.264	233.878	-46.250	26.457	84.078	-46.425	-41.683	123.242	70.780	-42.552	-38.109	-37.445	-32.926	59.383	-33.509	-8191	255	
2567.729	1	1	0	0	0.10882	0.20511	0.12466	0.071212	0.11607	0.17888	0.18401	0.26076	0.26146	0.14489	0.19495	0.20431	0.25759	0.092728	0.2691	0.25982	0.29583	0.45417	-0.34792	0.19167	-0.0125	-0.29792	0.17083	-0.575	0.095833	0.32708	-0.44792	0.09375	0.13542	-0.54792	0.45417	-0.43958	58.424	-32.086	-9.825	-45.465	-7.691	179.365	260.598	289.303	-4.839	-33.527	-13.518	264.211	237.462	-41.228	49.898	-9.465	0.00030694	0.0006194	0.00014878	1370.8	2.2632e-06	3.7536e-06	1376.8	364.5	3.7497e-06	1.9233e-06	416.9	138.4	120.38	40.325	3.8097e-06	50.521	0.00047229	0.00047562	0.00013211	1379.1	5.1696e-06	5.2264e-06	1384.6	368.93	5.1952e-06	5.2431e-06	421.46	140.32	121.78	41.198	5.2039e-06	51.272	153.503	2.057	66.539	-46.588	101.839	106.001	-46.745	-42.248	202.124	78.971	-42.643	-38.638	-37.820	-33.047	59.036	-33.535	-8191	255	
2567.825	1	1	0	0	0.12098	0.12315	0.14086	0.23566	0.099809	0.20057	0.15189	0.28507	0.19072	0.14054	0.065138	0.21323	0.26624	0.19038	0.24353	0.13683	0.29792	0.56458	-0.25833	-0.054167	0.2	-0.48125	0.4625	-0.47292	-0.15417	0.31875	-0.52917	0.25208	-0.014583	-0.59167	0.475	-0.41667	162.887	299.442	14.676	279.839	227.673	38.780	278.423	271.177	287.699	255.633	41.613	166.986	290.546	283.264	-49.367	206.332	0.00029672	0.0004175	0.00011057	1374.2	4.7407e-06	7.9661e-06	1372.1	363.7	6.6404e-06	5.0303e-06	418.92	139.06	119.74	40.574	5.9076e-06	50.232	0.00048067	0.00048045	0.00013375	1379.8	5.2827e-06	5.2957e-06	1381.9	369.12	5.3029e-06	5.3477e-06	422.29	140.73	121.95	41.317	5.3204e-06	51.308	79.151	226.339	39.954	-46.891	186.957	128.118	-46.877	-41.874	115.710	30.847	-42.526	-38.274	-37.680	-32.795	72.524	-33.910	-8191	255	
2567.921	1	1	0	0	0.094098	0.10043	0.23467	0.2328	0.15645	0.24318	0.36918	0.086027	0.18088	0.24896	0.21203	0.28443	0.32064	0.21456	0.083209	0.25722	0.10208	0.42917	-0.37083	-0.027083	0.26875	-0.53958	0.29375	-0.34167	-0.13125	0.42083	-0.48542	-0.016667	0.089583	-0.31042	0.5875	-0.12917	135.243	192.261	63.813	264.868	20.783	159.732	250.639	248.141	254.963	234.026	155.223	108.923	234.799	11.280	84.903	207.300	0.00023132	0.00022198	0.00026557	1372.5	8.8636e-07	3.659e-06	1375.2	366.09	5.3822e-06	5.1555e-06	418.74	138.58	119.83	40.514	6.4126e-06	50.553	0.00048885	0.0004885	0.00013425	1381.3	5.3181e-06	5.316e-06	1383.6	369.51	5.3201e-06	5.3463e-06	422.84	140.76	121.9	41.241	5.2915e-06	51.328	72.188	36.326	-4.700	-46.620	-51.898	31.093	-46.858	-41.666	85.876	148.096	-42.242	-38.287	-37.436	-32.692	97.570	-33.267	-8191	255	
2568.042	1	1	0	0	0.14886	0.0303	0.32663	0.19896	0.080247	0.1189	0.023727	0.19714	0.16261	0.22481	0.055639	0.22511	0.2262	0.035023	0.15335	0.12925	0.1125	0.59375	-0.43125	-0.03125	0.32292	-0.4125	0.15417	-0.12083	-0.29375	0.39375	-0.33542	-0.29167	0.27708	-0.61042	0.34375	-0.0625	189.918	113.984	16.645	160.766	296.988	250.914	123.481	273.409	166.895	39.196	168.073	259.390	-58.872	240.762	135.049	139.287	0.00029817	0.00067237	0.00028968	1372.1	2.0912e-06	4.66e-06	1369.1	365.48	2.6147e-06	6.2781e-06	418.45	139.1	120.27	40.433	5.5366e-06	50.699	0.00048906	0.00049167	0.00013521	1381.3	5.3674e-06	5.3808e-06	1382.7	369.44	5.3704e-06	5.3686e-06	423.17	140.99	122.07	41.322	5.2936e-06	51.471	69.595	0.055	47.660	-46.454	79.571	58.450	-46.253	-41.478	135.779	98.075	-42.292	-38.061	-37.391	-32.470	104.062	-32.730	-8191	255	
2568.136	1	1	0	0	0.061177	0.22876	0.080569	0.27544	0.20867	0.12711	0.28149	0.33997	0.11559	0.085301	0.10799	0.2036	0.12571	0.054734	0.043045	0.15782	-0.097917	0.4625	-0.11458	-0.575	0.26667	-0.51458	-0.15625	-0.0625	-0.57292	0.4125	-0.42917	-0.53333	0.17292	-0.57083	0.1125	0.18333	102.138	113.985	-0.792	199.933	286.632	112.328	265.341	275.522	-42.275	67.541	-9.921	-42.342	-12.052	164.919	212.282	246.190	0.00022612	0.00053696	0.00011966	1375.9	4.2322e-06	7.6077e-06	1372.8	365.71	4.1999e-06	5.6692e-06	420.87	138.73	120.17	40.491	1.233e-05	50.55	0.00049435	0.00048855	0.00013518	1383.2	5.4084e-06	5.3294e-06	1383.2	369.59	5.3821e-06	5.3443e-06	423.24	140.83	122.06	41.292	5.3286e-06	51.361	128.188	-51.691	74.188	-46.069	78.084	17.451	-45.596	-40.403	140.734	79.713	-41.368	-37.243	-37.155	-32.166	13.511	-32.882	-8191	255	
2568.232	1	1	0	0	0.12312	0.12614	0.08566	0.12366	0.30927	0.29639	0.20893	0.36904	0.26515	0.09654	0.12608	0.092729	0.10302	0.04469	0.093025	0.17994	-0.016667	0.34583	-0.17708	-0.56458	0.40625	-0.40625	-0.18333	0.12292	-0.4375	0.35833	-0.083333	-0.49167	0.3125	-0.54792	-0.08125	0.25417	142.687	155.005	100.950	267.452	216.946	53.228	297.498	240.775	-20.204	25.276	233.897	-41.515	300.406	154.561	205.494	236.960	0.00031331	0.00044828	9.9591e-05	1372.7	2.592e-06	3.2091e-06	1374.2	365.41	2.232e-06	4.4848e-06	419.6	138.51	120.27	40.609	4.8255e-06	50.362	0.00049021	0.00048808	0.00013619	1383.5	5.3797e-06	5.3394e-06	1386.1	369.93	5.3691e-06	5.3297e-06	422.96	141.02	122.17	41.26	5.3244e-06	51.425	86.614	96.324	1.536	-45.702	242.138	50.597	-45.923	-41.151	253.684	-3.528	-42.499	-38.310	-37.801	-32.894	36.383	-33.692	-8191	255	
2568.304	1	1	0	0	0.15238	0.14014	0.097261	0.40854	0.15531	0.18291	0.16194	0.28636	0.21301	0.17045	0.21221	0.13064	0.036222	0.19396	0.059665	0.19258	-0.14375	0.29167	0.085417	-0.72917	0.33958	-0.29375	-0.38125	0.029167	-0.47292	0.29375	-0.17292	-0.62083	0.24792	-0.45625	-0.2	0.40208	264.756	-27.208	44.805	241.569	294.630	247.236	239.785	220.536	86.223	169.539	226.948	28.107	206.384	79.840	84.665	-52.824	0.00042876	0.00018839	4.8529e-05	1377.3	2.6291e-06	4.3466e-06	1379.4	364.2	4.3211e-06	3.2882e-06	417.83	138.71	120.58	40.526	5.9548e-06	50.262	0.00048646	0.00048516	0.00013531	1384.8	5.3336e-06	5.2956e-06	1388.2	369.21	5.3794e-06	5.3267e-06	422.91	140.91	122.33	41.296	5.3946e-06	51.369	99.315	108.449	219.479	-46.992	-36.518	125.600	-47.053	-42.236	213.239	294.033	-42.704	-38.760	-38.112	-33.165	85.373	-34.061	-8191	255	
2568.425	1	1	0	0	0.058049	0.43144	0.17162	0.30109	0.2494	0.35778	0.28891	0.20324	0.034566	0.28732	0.26619	0.23688	0.11584	0.34091	0.11045	0.19545	-0.029167	0.0375	0.35208	-0.77083	0.36458	-0.1875	-0.6	0.39583	-0.43333	0.1375	0.18125	-0.63958	-0.020833	-0.072917	-0.27083	0.41667	269.952	104.532	110.308	293.541	216.180	221.248	188.816	263.369	19.439	117.913	197.705	274.169	109.224	-10.709	202.400	240.857	0.0001417	0.00031846	0.00010402	1370.6	1.1463e-06	4.04e-06	1374.8	364.48	1.4907e-06	5.0785e-06	419.44	138.32	119.95	40.437	4.9148e-06	50.388	0.00048763	0.00048524	0.00013627	1384.1	5.3168e-06	5.3225e-06	1387.6	369.04	5.2727e-06	5.2726e-06	423.25	140.8	121.98	41.276	5.3364e-06	51.314	130.429	-37.485	-50.641	-46.874	223.031	113.460	-46.910	-42.034	-50.130	21.526	-42.546	-38.571	-38.053	-33.210	136.206	-33.687	-8191	255	
2568.521	1	1	0	0	0.22711	0.0566	0.20322	0.31599	0.11451	0.11655	0.15075	0.20546	0.14551	0.034836	0.12989	0.083706	0.26229	0.09816	0.32512	0.10709	-0.022917	0.13333	0.56458	-0.53333	0.35833	0.0020833	-0.65	0	-0.2	0.014583	0.2375	-0.68125	0.18125	0.15	-0.51875	0.26875	247.957	57.984	-25.824	282.342	210.527	107.712	5.607	256.149	129.390	262.431	-47.436	225.763	206.573	189.161	-49.083	195.377	0.00038198	0.00066349	0.00018264	1376.7	2.3003e-06	8.3736e-06	1370.5	365.15	5.7327e-06	2.787e-06	419.35	138.79	120.51	40.502	3.5153e-06	50.226	0.00048552	0.00048837	0.00013682	1386.6	5.3064e-06	5.3212e-06	1385.7	369.86	5.33e-06	5.3316e-06	423.34	141.17	122.18	41.363	5.3965e-06	51.426	76.037	23.612	69.535	-46.926	32.509	63.343	-47.251	-42.282	35.010	127.968	-42.726	-38.790	-38.006	-33.018	103.692	-34.027	-8191	255	
2568.617	1	1	0	0	0.18587	0.33193	0.12174	0.31474	0.059589	0.1562	0.11954	0.063863	0.08613	0.10929	0.048451	0.29675	0.38102	0.13267	0.16939	0.30501	0.18333	-0.10625	0.53333	-0.60208	0.275	0.16458	-0.59792	0.0375	-0.26875	-0.42083	0.13542	-0.50208	0.060417	0.13125	-0.41875	0.25625	38.131	78.947	276.322	229.816	3.048	46.790	195.811	268.481	66.896	1.095	262.232	250.797	274.385	284.787	8.479	241.800	0.00031908	0.00024554	0.00015876	1375.3	2.2398e-06	2.644e-06	1375.9	365.75	7.1247e-06	5.1714e-06	420.15	138.61	120.62	40.593	6.8677e-06	50.732	0.00048656	0.00049282	0.00013762	1388.8	5.3638e-06	5.3989e-06	1387.8	369.74	5.3714e-06	5.4143e-06	424.06	141.15	122.39	41.46	5.4194e-06	51.519	93.397	249.919	71.967	-46.962	179.078	153.941	-46.963	-42.126	61.948	-3.818	-42.559	-38.440	-37.844	-33.055	76.901	-33.642	-8191	255	
2568.713	1	1	0	0	0.15679	0.22357	0.078469	0.2594	0.26588	0.21845	0.23617	0.21603	0.10331	0.025107	0.11553	0.29898	0.11876	0.30225	0.19686	0.053851	0.36667	-0.19792	0.45208	-0.72708	0.19583	0.11042	-0.65	0.13542	0.079167	-0.38333	0.39583	-0.44583	-0.28542	0.077083	-0.3875	0.15833	294.271	2.133	89.420	-50.895	-5.285	144.866	261.126	253.427	219.275	142.263	212.215	197.634	196.343	-22.473	-9.551	194.470	0.00057811	0.0005936	7.1314e-05	1382.8	2.5318e-06	4.4102e-06	1380.9	364.32	7.2319e-06	4.6099e-06	418.3	138.73	120.42	40.643	2.8188e-06	50.563	0.00049042	0.00049446	0.00013761	1389.3	5.358e-06	5.4149e-06	1392.8	369.79	5.3757e-06	5.3831e-06	424.34	141.32	122.6	41.501	5.3737e-06	51.548	98.727	49.904	105.454	-46.645	247.844	102.169	-47.063	-42.078	12.208	254.058	-42.777	-38.310	-37.839	-32.923	205.018	-33.765	-8191	255	
2568.834	1	1	0	0	0.054476	0.28347	0.066477	0.19303	0.28312	0.17228	0.24888	0.29437	0.11025	0.063657	0.22334	0.1245	0.15964	0.072226	0.21676	0.097064	0.43333	-0.27292	0.69167	-0.52917	0.029167	0.24583	-0.45833	0.0625	0.15833	-0.34792	0.325	-0.28333	-0.26458	0.42292	-0.275	0.1375	-18.221	242.027	273.728	279.346	-59.564	34.903	-29.224	244.126	279.020	140.336	189.116	37.830	280.245	89.505	4.302	90.047	0.00024864	0.00056436	0.00012403	1382.8	6.8552e-06	6.097e-06	1383.9	363.28	3.0603e-06	4.0824e-06	420.27	138.61	120.81	40.713	8.575e-06	50.812	0.00049219	0.0004957	0.00013654	1390.4	5.3861e-06	5.4222e-06	1395.5	369.81	5.371e-06	5.3842e-06	424.55	141.15	122.78	41.504	5.3555e-06	51.59	17.888	-10.049	26.667	-46.563	158.043	110.332	-47.034	-42.059	159.538	181.302	-42.762	-38.301	-37.849	-33.015	4.661	-33.970	-8191	255	
2568.905	1	1	0	0	0.18313	0.09999	0.20313	0.48279	0.15061	0.25186	0.19998	0.057926	0.11245	0.0731	0.1076	0.31829	0.083128	0.26929	0.149	0.07138	0.72917	-0.23542	0.38542	-0.3875	-0.085417	0.38542	-0.68125	-0.022917	0.24792	-0.51875	0.17292	-0.11042	-0.25833	0.23333	-0.10417	-0.070833	7.540	194.997	-20.508	283.309	74.797	131.191	259.199	254.983	177.857	100.615	118.408	-23.098	108.011	254.877	90.694	119.482	0.00027941	0.00033019	0.00021804	1382.6	4.9599e-06	4.4688e-06	1383.4	365.18	5.7752e-06	2.5997e-06	420.61	139.07	120.82	40.686	5.5778e-06	50.674	0.00049601	0.00049534	0.00013755	1392.5	5.4124e-06	5.4422e-06	1395.9	370.25	5.4106e-06	5.4187e-06	425.35	141.43	122.74	41.516	5.3774e-06	51.581	78.125	-39.650	7.647	-46.754	36.390	-2.313	-46.930	-42.003	48.590	19.454	-42.584	-38.289	-37.714	-33.040	-52.939	-33.419	-8191	255	
2569.001	1	1	0	0	0.07719	0.11673	0.10575	0.42528	0.15036	0.11905	0.0929	0.24552	0.21094	0.048271	0.28418	0.22151	0.20064	0.088478	0.13276	0.19445	0.67292	-0.275	0.37292	-0.035417	-0.32917	0.42083	-0.65	-0.08125	0.425	-0.37917	0.18125	-0.064583	-0.45625	0.27708	-0.14167	-0.21875	-20.261	-40.806	198.179	273.086	87.743	82.212	-39.601	291.547	-22.251	-34.369	221.113	-59.522	195.004	-32.251	188.752	216.937	0.00039814	0.00065246	7.2263e-05	1387.6	4.5782e-06	4.3615e-06	1377.4	365.62	3.6846e-06	4.427e-06	420.66	138.82	120.75	40.678	6.1452e-06	50.459	0.00049558	0.00049071	0.00013572	1394.2	5.3695e-06	5.3407e-06	1393.3	370.6	5.3798e-06	5.3588e-06	424.82	141.62	122.81	41.548	5.3295e-06	51.521	131.500	-59.553	-22.362	-46.493	155.474	87.827	-46.946	-42.401	36.866	68.450	-42.778	-38.294	-38.020	-32.900	149.910	-34.013	-8191	255	
2569.122	1	1	0	0	0.12824	0.36465	0.086247	0.434	0.045802	0.13739	0.34647	0.15256	0.08703	0.25321	0.2999	0.20908	0.086712	0.16754	0.28225	0.15869	0.64792	-0.19583	0.15625	-0.01875	-0.32917	0.3875	-0.5	-0.25208	0.40625	-0.42708	0.0875	0.17917	-0.44583	0.3125	-0.23958	-0.38333	116.012	229.344	91.702	229.226	128.702	-49.769	211.765	259.924	240.549	216.218	237.902	-31.666	31.413	7.449	-54.124	119.467	0.00031693	0.00013667	0.00025114	1382.9	5.5053e-06	2.7709e-06	1383.4	365.75	3.3482e-06	5.4626e-06	420.36	139.12	120.8	40.744	3.2732e-06	50.532	0.0004955	0.00049116	0.0001371	1393.1	5.4172e-06	5.3839e-06	1395.4	370.74	5.4775e-06	5.4113e-06	425.2	141.67	122.98	41.567	5.3809e-06	51.638	90.157	-10.453	224.515	-46.636	112.441	105.749	-47.085	-42.304	135.951	81.499	-42.621	-38.372	-37.826	-33.003	16.318	-33.814	-8191	255	
2569.216	1	1	0	0	0.068788	0.25558	0.22213	0.49655	0.072893	0.071768	0.18904	0.21851	0.040258	0.16501	0.030826	0.32222	0.06452	0.092489	0.0056684	0.25622	0.87083	-0.15833	0.24375	0.15625	-0.28125	0.33125	-0.18958	-0.47083	0.59583	-0.28958	-0.1375	0.25	-0.61458	0.10833	0.045833	-0.36667	224.102	192.265	-28.392	270.391	145.083	-45.552	250.895	208.572	-46.100	-46.220	140.970	193.615	266.220	232.371	261.421	202.880	0.00020774	0.00032274	0.00024804	1387.9	6.8395e-06	7.5102e-06	1382.9	366.2	3.0665e-06	9.8598e-06	421.01	139.38	120.78	40.647	3.839e-06	50.626	0.00050024	0.00049708	0.0001387	1397.3	5.5113e-06	5.489e-06	1397.9	371.38	5.5253e-06	5.449e-06	426.29	141.93	123.04	41.579	5.4702e-06	51.786	73.387	-14.459	-26.833	-46.662	82.067	137.762	-46.938	-42.104	-51.015	68.315	-42.766	-38.432	-37.970	-33.110	190.651	-34.018	-8191	255	
2569.314	1	1	0	0	0.18838	0.055605	0.048712	0.25738	0.19153	0.17426	0.07265	0.25047	0.070948	0.20294	0.20849	0.070849	0.26343	0.17977	0.18377	0.19815	0.67708	-0.20208	-0.05625	0.18333	-0.49583	0.34375	-0.12083	-0.725	0.43333	-0.070833	-0.19583	0.15417	-0.325	0.22708	0.36667	-0.31875	9.324	185.697	-32.196	240.132	250.142	-30.747	219.256	228.395	187.991	241.695	3.991	260.861	-36.459	-40.504	-48.177	201.704	0.00034915	0.00049308	0.00026461	1383.6	2.9811e-06	3.4984e-06	1378.4	364.78	3.9811e-06	1.0156e-05	420.71	138.89	120.98	40.815	3.6014e-06	50.551	0.00050123	0.00049598	0.00014064	1395.7	5.4761e-06	5.4244e-06	1395.7	370.92	5.483e-06	5.4151e-06	426.07	142.06	123.03	41.658	5.495e-06	51.673	66.456	43.788	6.576	-46.754	-36.246	41.875	-46.863	-42.167	-13.626	85.347	-42.796	-38.482	-37.706	-32.932	36.225	-33.840	-8191	255	
2569.433	1	1	0	0	0.098731	0.20005	0.31606	0.055513	0.16384	0.10227	0.22954	0.28458	0.17478	0.13768	0.3469	0.2201	0.11336	0.091668	0.12297	0.23059	0.71042	-0.085417	-0.38125	0.39375	-0.46042	0.18333	0.0083333	-0.56875	0.38333	-0.18542	-0.47917	0.23958	-0.57708	-0.029167	0.27708	-0.60833	12.875	-41.953	-27.722	113.727	60.897	253.232	256.779	234.879	200.885	21.319	240.369	269.927	113.810	272.405	26.915	10.218	0.0003746	0.00092399	0.00012181	1382.4	2.5042e-06	7.1552e-06	1390.2	366.97	5.2639e-06	1.9591e-06	420.39	139	121.02	40.736	2.3643e-06	50.676	0.00049702	0.0004987	0.00014041	1397.6	5.5065e-06	5.4388e-06	1400.8	372.07	5.4861e-06	5.4933e-06	426.18	141.93	123.1	41.64	5.5043e-06	51.732	97.691	268.673	17.204	-46.731	296.166	87.728	-46.838	-42.046	163.982	-47.806	-42.535	-38.356	-37.892	-33.093	124.721	-33.736	-8191	255	
2569.529	1	1	0	0	0.23261	0.070026	0.042223	0.1873	0.18212	0.28885	0.37697	0.31127	0.097304	0.18191	0.26792	0.16216	0.079763	0.14832	0.10856	0.33287	0.55625	-0.029167	-0.42083	0.32917	-0.49375	-0.16042	0.14375	-0.6625	0.15	0.027083	-0.61875	0.34583	-0.43125	-0.18542	0.49167	-0.39792	260.170	281.027	120.363	236.116	62.186	231.367	245.649	258.999	-14.306	91.119	252.058	261.272	-5.633	283.452	126.275	286.681	0.00021018	0.00012393	0.00019966	1386.1	6.9459e-06	9.1466e-06	1385.6	368.12	3.6983e-06	7.3366e-06	421.74	138.86	120.83	40.806	7.0545e-06	50.648	0.00049635	0.00049897	0.00013957	1396.1	5.4424e-06	5.4638e-06	1399.8	371.68	5.446e-06	5.4658e-06	425.99	141.56	123.1	41.667	5.4909e-06	51.644	-1.971	0.548	150.304	-46.716	173.224	132.248	-46.790	-41.967	68.380	192.038	-42.560	-38.476	-37.615	-32.961	128.681	-33.781	-8191	255	
2569.601	1	1	0	0	0.29319	0.14597	0.12876	0.27512	0.18886	0.10795	0.14138	0.20273	0.073428	0.30988	0.26065	0.042035	0.12502	0.28383	0.11334	0.13069	0.61875	0.097917	-0.52083	0.11667	-0.010417	-0.085417	0.3	-0.54792	0.12708	0.16875	-0.66042	0.17917	-0.1875	-0.36667	0.26042	-0.5375	72.074	18.696	204.420	20.674	234.344	-26.633	243.768	189.562	185.079	262.857	-24.141	272.226	266.726	268.931	55.258	88.868	0.00041098	0.0005627	0.0001888	1387.7	1.6402e-06	3.1336e-06	1382.3	365.79	4.6394e-06	8.3178e-07	420.24	139.63	121.69	40.76	5.824e-06	50.681	0.0004968	0.00050083	0.00014107	1398.3	5.4685e-06	5.4708e-06	1400.8	371.71	5.5046e-06	5.5304e-06	427.06	142.14	123.46	41.704	5.5342e-06	51.792	78.797	9.521	-5.191	-46.668	149.954	50.570	-46.704	-41.724	37.669	-7.361	-42.626	-37.972	-37.525	-33.137	67.913	-33.723	-8191	255	
2569.722	1	1	0	0	0.13841	0.24171	0.15172	0.20195	0.2047	0.035353	0.00587	0.084298	0.099366	0.24453	0.19122	0.062388	0.082832	0.13101	0.22724	0.018116	0.47708	0.20833	-0.4625	0.20208	-0.064583	-0.17708	0.045833	-0.48125	0.014583	0.24792	-0.51875	0.12083	-0.14375	-0.47917	0.58333	-0.34375	-22.181	210.333	133.952	266.636	78.325	87.960	245.585	202.253	-28.362	229.253	268.263	206.047	108.511	12.358	24.423	-52.167	0.00047948	0.0002208	0.0002031	1386.2	2.437e-06	3.3961e-06	1388.3	367.53	5.5915e-06	5.8762e-06	422.29	139.54	121.25	40.81	6.0695e-06	51.006	0.00049734	0.00050321	0.00013968	1398.1	5.4337e-06	5.4464e-06	1401.9	372.16	5.3669e-06	5.4335e-06	427.22	142.05	123.35	41.742	5.4818e-06	51.854	106.334	-15.933	33.396	-46.886	228.676	180.208	-46.828	-42.014	134.136	95.291	-42.706	-38.163	-37.888	-33.179	141.442	-33.941	-8191	255	
2569.818	1	1	0	0	0.159	0.28584	0.14978	0.32956	0.1135	0.14961	0.17957	0.13341	0.088816	0.20217	0.16194	0.037435	0.13712	0.26428	0.26376	0.14195	0.24583	0.24167	-0.4625	0.045833	-0.0375	-0.44375	0.2375	-0.30417	-0.10625	0.49167	-0.72083	0.085417	-0.0125	-0.46667	0.38125	-0.38542	65.910	164.625	16.972	-42.977	203.073	134.488	-45.125	246.044	185.484	92.609	-33.241	154.992	243.533	224.518	206.346	208.908	0.00039016	0.00015225	0.00021036	1393	6.7604e-06	2.1892e-06	1388.8	368.05	7.2624e-06	5.5398e-06	423.81	140.3	121.83	40.988	3.8789e-06	50.897	0.00049772	0.00050288	0.00013957	1402.9	5.4906e-06	5.5122e-06	1405.1	373.09	5.5003e-06	5.5242e-06	428.6	142.59	124.05	41.901	5.4467e-06	52.047	80.173	158.439	4.558	-47.175	3.236	-8.053	-47.284	-42.466	120.433	73.128	-42.855	-38.885	-38.135	-33.505	38.436	-33.950	-8191	255	
2569.914	1	1	0	0	0.049065	0.22943	0.1286	0.14276	0.1612	0.20655	0.045509	0.23569	0.35257	0.084618	0.24123	0.2528	0.14419	0.12826	0.0097834	0.10919	0.33125	0.45625	-0.43542	-0.064583	0.31042	-0.38542	0.29167	-0.16667	-0.26667	0.41042	-0.49792	-0.041667	0.05625	-0.71458	0.46667	-0.03125	218.828	139.825	243.911	163.186	191.140	184.158	232.434	151.074	-10.237	151.690	244.607	217.476	212.722	234.034	160.187	256.851	0.00032595	0.00031727	3.0887e-05	1395.8	2.4002e-06	4.0898e-06	1393.3	369.2	8.4383e-06	3.2119e-06	426.15	139.54	121.94	41.183	7.781e-07	50.668	0.00050273	0.00050479	0.00013957	1406.4	5.5145e-06	5.4899e-06	1407.1	374.01	5.5057e-06	5.5482e-06	429.07	142.78	124.23	42.035	5.5176e-06	52.041	56.986	-33.212	295.563	-47.142	122.099	-12.601	-47.380	-42.246	90.094	-5.694	-42.835	-38.619	-38.142	-33.232	194.842	-33.992	-8191	255	
2570.010	1	1	0	0	0.19977	0.34029	0.05277	0.30069	0.23294	0.068538	0.36009	0.38786	0.076462	0.13763	0.028024	0.35183	0.084096	0.22672	0.097993	0.23696	0.089583	0.46667	-0.39167	-0.13958	0.57917	-0.51458	-0.064583	-0.15625	-0.37292	0.29167	-0.27708	-0.27083	0.24792	-0.525	0.17917	0.045833	0.431	124.744	70.388	211.648	2.337	118.633	263.968	229.044	254.739	-20.924	-34.054	289.475	38.621	247.406	53.428	211.751	0.00030009	0.0010095	8.6778e-05	1399.9	2.7743e-06	3.3003e-06	1393	371.02	2.379e-06	1.9756e-06	424.93	139.97	122.54	41.144	1.3066e-06	50.99	0.00050984	0.00051356	0.00014133	1410.4	5.6559e-06	5.5882e-06	1410.5	375.22	5.6402e-06	5.6264e-06	430.08	143.02	124.54	42.118	5.5425e-06	52.145	117.676	-35.332	-25.382	-47.153	248.866	71.683	-47.213	-42.467	28.459	205.182	-43.176	-38.693	-38.295	-33.471	-6.834	-33.966	-8191	255	
2570.129	1	1	0	0	0.28571	0.079882	0.11958	0.079936	0.12318	0.16147	0.080862	0.26612	0.18042	0.14226	0.15111	0.062791	0.17546	0.16523	0.22644	0.25309	-0.0083333	0.37083	-0.18333	-0.525	0.49792	-0.53958	0.0875	0.16667	-0.39792	0.37917	-0.43125	-0.42292	0.3625	-0.61042	-0.045833	0.18542	94.178	188.678	6.168	185.955	221.542	190.981	176.480	251.089	-31.518	78.744	266.242	106.615	34.828	120.326	246.067	212.129	0.00021954	0.00059942	0.00023023	1396.7	4.0551e-06	6.7155e-06	1397.8	369.67	3.0799e-06	7.7753e-06	426.05	141.12	122.31	41.153	9.5313e-06	51.22	0.00050769	0.00051003	0.00014092	1410.6	5.5858e-06	5.5271e-06	1412.2	375.35	5.6027e-06	5.5369e-06	430.27	143.37	124.6	42.101	5.4784e-06	52.227	120.029	-55.743	-8.652	-47.040	133.072	78.137	-47.130	-42.417	110.586	-2.650	-43.051	-38.862	-38.447	-33.538	152.874	-34.032	-8191	255	
2570.201	1	1	0	0	0.4149	0.052956	0.22162	0.45556	0.34753	0.41422	0.16573	0.087688	0.20931	0.1748	0.11112	0.16391	0.1891	0.32521	0.091983	0.29316	-0.039583	0.38333	-0.18125	-0.58542	0.41875	-0.48958	-0.010417	0.1375	-0.42708	0.16875	-0.1375	-0.38958	0.33958	-0.475	0.035417	0.21875	256.323	183.311	19.329	244.850	-9.439	237.127	225.460	68.398	118.901	192.221	245.944	-8.276	169.624	278.049	90.739	-58.160	0.00042143	0.00054435	6.4246e-05	1402.4	3.7456e-06	3.7936e-06	1400.1	369.17	1.485e-06	3.293e-06	426.2	140.59	122.15	41.334	4.2226e-06	51.287	0.00050567	0.000499	0.00013941	1412	5.4789e-06	5.3679e-06	1413.5	375.04	5.4317e-06	5.3326e-06	430.68	143.18	124.27	42.134	5.3231e-06	52.239	86.667	11.877	107.097	-47.016	118.880	-15.844	-47.221	-42.255	186.576	37.850	-42.691	-38.756	-38.163	-33.303	197.699	-33.978	-8191	255	
2570.297	1	1	0	0	0.47999	0.23909	0.13486	0.40321	0.11264	0.23769	0.32765	0.28824	0.21806	0.14297	0.10208	0.44234	0.4034	0.18111	0.13578	0.29519	0.085417	0.32083	0.064583	-0.66042	0.47708	-0.29583	-0.5	0.18542	-0.3375	0.34167	0.11667	-0.60417	0.30417	-0.24167	-0.022917	0.35625	3.855	84.241	113.671	287.267	50.205	140.858	271.740	-35.985	252.894	54.604	208.687	273.819	292.402	269.066	10.211	252.558	0.00016124	0.00073365	0.000134	1399.3	6.669e-06	7.1884e-06	1401.7	370.53	6.045e-06	4.9663e-06	426.15	141.64	122.23	41.514	5.0938e-06	51.066	0.00048565	0.00048259	0.00013369	1410.6	5.2571e-06	5.213e-06	1411.8	374.83	5.2047e-06	5.1678e-06	429.69	143.36	124.12	42.081	5.1933e-06	52.227	118.479	-29.531	-27.541	-47.150	90.630	122.948	-47.079	-42.440	130.169	125.504	-43.087	-38.684	-37.892	-33.104	94.863	-34.091	-8191	255	
2570.395	1	1	0	0	0.26891	0.090822	0.25776	0.14436	0.11731	0.32526	0.1697	0.043721	0.11372	0.23608	0.12812	0.38915	0.24132	0.27858	0.21707	0.13871	-0.035417	0.21875	0.04375	-0.65833	0.39375	-0.041667	-0.52917	0.27708	-0.21458	0.039583	0.11875	-0.58333	0.33125	-0.32708	-0.4	0.48542	180.742	77.969	111.018	94.477	152.151	290.437	196.405	281.280	21.352	78.386	276.735	233.044	219.468	234.998	33.429	-4.121	0.00037044	0.00062014	0.00012302	1402.9	4.0959e-06	5.7359e-06	1402.3	369.63	3.5123e-06	2.7892e-06	425.58	140.87	122.27	41.325	7.9658e-06	51.334	0.00047505	0.00047276	0.00013263	1412	5.1759e-06	5.1634e-06	1411.9	374.52	5.1872e-06	5.1517e-06	428.27	143.04	123.69	42.047	5.2182e-06	52.144	73.710	293.621	-32.762	-47.041	11.298	89.035	-47.043	-42.117	160.676	125.279	-42.891	-38.682	-38.016	-33.157	57.119	-34.067	-8191	255	
2570.514	1	1	0	0	0.098767	0.27372	0.10008	0.26334	0.16112	0.10205	0.31381	0.33774	0.23685	0.24924	0.092521	0.12824	0.080224	0.41161	0.15759	0.30072	-0.00625	0.045833	0.20833	-0.74167	0.3	0.20417	-0.54583	0.25833	-0.097917	-0.04375	0.17292	-0.37292	0.14375	0.04375	-0.39167	0.28125	145.866	28.368	181.092	281.915	169.123	-45.199	205.594	266.515	191.136	236.204	6.813	242.122	236.843	-39.654	129.534	290.916	0.00029932	0.0002249	0.00020933	1403.9	8.9642e-07	8.1051e-06	1402.6	371.49	5.7764e-06	2.8985e-06	425.78	141.39	122.5	41.485	3.1863e-06	51.479	0.00047037	0.00047363	0.00013243	1410.8	5.1602e-06	5.1798e-06	1413.5	374.85	5.1705e-06	5.1629e-06	429.69	143.02	123.89	42.071	5.1891e-06	52.156	126.394	-12.919	12.160	-46.925	255.184	98.192	-47.032	-42.357	94.933	115.824	-42.874	-38.386	-38.082	-33.083	148.062	-33.864	-8191	255	
2570.610	1	1	0	0	0.12602	0.41514	0.06207	0.26864	0.18537	0.067787	0.18012	0.070035	0.075062	0.48673	0.14697	0.23915	0.24059	0.26665	0.14678	0.15062	0.010417	-0.38125	0.33958	-0.63125	0.19375	0.052083	-0.82708	0.28333	-0.025	-0.26667	0.26042	-0.575	-0.16042	0.20417	-0.47708	0.18542	279.407	82.581	105.696	248.346	-4.566	-48.596	254.865	212.463	74.050	193.696	209.420	279.008	284.997	-26.931	113.611	-24.339	0.00048425	0.00031638	6.3254e-05	1400	3.8837e-06	1.3494e-06	1400	371.28	1.6099e-06	6.0504e-06	426.26	140.79	122.76	41.321	2.0125e-06	51.332	0.0004733	0.00047482	0.00013303	1408.9	5.1434e-06	5.1944e-06	1411.4	375.02	5.1531e-06	5.2399e-06	429.42	142.86	124.09	42.032	5.2179e-06	52.041	86.113	-14.682	42.890	-46.784	116.686	81.630	-46.916	-42.334	-6.606	7.551	-42.602	-38.330	-38.009	-33.095	-41.047	-33.690	-8191	255	
2570.706	1	1	0	0	0.11114	0.18845	0.27503	0.20857	0.1204	0.07756	0.28926	0.16598	0.027933	0.096346	0.25136	0.16208	0.26584	0.073343	0.052144	0.09706	0.17708	-0.17083	0.40208	-0.65	0.12083	0.13542	-0.78125	0.29375	0.12917	-0.33542	0.22917	-0.53333	-0.13125	0.46667	-0.49167	0.29375	102.986	175.983	56.900	-27.050	205.057	15.755	244.331	231.646	145.212	6.050	295.812	244.723	-37.414	265.856	103.488	142.938	0.00031492	0.00068885	0.0002447	1404	3.6865e-06	1.2419e-06	1399.7	370.16	4.6611e-06	8.2768e-06	427.32	140.14	122.32	41.444	2.9795e-06	51.51	0.00047305	0.0004764	0.00013219	1409.2	5.1832e-06	5.2073e-06	1409	374.56	5.1693e-06	5.2253e-06	429.91	142.61	123.95	42.119	5.2182e-06	52.087	95.737	-16.522	11.252	-46.782	74.250	-11.850	-46.840	-42.166	119.057	19.319	-42.787	-38.430	-37.805	-32.957	9.707	-34.103	-8191	255	
2570.802	1	1	0	0	0.12494	0.14271	0.13901	0.12357	0.2452	0.14817	0.1793	0.14304	0.1233	0.33803	0.13875	0.073138	0.15755	0.17386	0.18426	0.043959	0.34167	-0.35625	0.59792	-0.37292	-0.060417	0.36667	-0.7625	0.058333	0.14375	-0.36875	0.31875	-0.2375	-0.37292	0.4875	-0.46875	-0.11667	207.420	78.029	126.090	261.326	299.052	115.591	224.824	224.125	299.684	96.469	263.054	256.750	-42.085	219.788	189.554	-57.927	0.00024593	0.00011382	0.00032966	1400.5	2.6898e-06	2.8974e-06	1404.1	370.75	3.5379e-06	6.3076e-06	424.8	140.96	122.21	41.399	4.1208e-06	51.366	0.00047865	0.00048211	0.00013313	1410.3	5.2839e-06	5.3043e-06	1412.2	375.2	5.3075e-06	5.302e-06	429.72	142.98	123.98	42.109	5.3143e-06	52.179	105.252	297.061	28.484	-46.916	-46.830	87.162	-47.017	-42.192	123.294	158.571	-42.993	-38.289	-37.901	-33.075	127.769	-33.553	-8191	255	
2570.898	1	1	0	0	0.072063	0.23971	0.34525	0.21243	0.090891	0.29755	0.48075	0.30059	0.35228	0.20989	0.12919	0.084905	0.33486	0.12442	0.15884	0.11686	0.44167	-0.40625	0.40208	-0.39583	-0.19792	0.45833	-0.675	0.010417	0.23958	-0.66667	0.04375	-0.16667	-0.37917	0.36875	-0.27292	-0.083333	-58.819	43.602	228.677	292.460	105.938	-55.642	237.721	194.440	-16.897	146.082	204.460	167.925	266.041	217.372	104.222	253.088	0.00028494	0.0006435	0.00011847	1400.5	2.9375e-06	2.7749e-06	1399	371.46	5.0888e-06	8.6635e-06	424.21	140.68	122.87	41.132	4.4943e-06	51.2	0.00048668	0.00049314	0.00013576	1413.8	5.3834e-06	5.4208e-06	1412.4	375.35	5.4104e-06	5.4494e-06	429.54	143.31	124.55	42.124	5.4151e-06	52.189	85.403	33.553	-37.512	-46.754	164.724	29.969	-46.738	-41.972	264.194	2.484	-42.720	-38.059	-37.978	-32.923	140.845	-33.582	-8191	255	
2570.994	1	1	0	0	0.24049	0.39203	0.25508	0.067018	0.070273	0.078951	0.2772	0.3284	0.1606	0.19291	0.20257	0.19659	0.34295	0.2519	0.22913	0.21396	0.68333	-0.4625	0.4625	-0.35208	-0.36042	0.34583	-0.67917	-0.19167	0.29375	-0.57292	0.20417	-0.11875	-0.53958	0.3	-0.39375	-0.22708	215.824	109.910	242.648	241.911	208.882	19.698	231.051	261.882	29.877	91.554	247.895	240.591	253.479	230.387	193.210	277.253	0.00013706	0.00042585	0.00013029	1406.8	2.456e-06	5.8071e-06	1396.2	371.1	7.0319e-06	6.6293e-06	425.43	141.44	122.35	41.386	9.5055e-07	51.613	0.00049753	0.000497	0.00013703	1415	5.4591e-06	5.4665e-06	1414.1	375.76	5.4322e-06	5.4531e-06	430.03	143.56	124.47	42.232	5.3139e-06	52.292	101.365	-30.409	57.829	-46.409	50.520	90.020	-46.707	-42.021	117.159	24.402	-42.440	-37.951	-37.845	-32.684	277.089	-33.550	-8191	255	
2571.115	1	1	0	0	0.10848	0.10682	0.11356	0.22502	0.14302	0.12034	0.086043	0.11414	0.23217	0.17612	0.12623	0.31034	0.22018	0.2521	0.31184	0.2933	0.81667	-0.42083	0.19583	-0.16667	-0.36458	0.3	-0.23125	-0.45417	0.38125	-0.475	0.0125	0.19375	-0.62708	0.17083	-0.17708	-0.4125	208.043	151.667	33.105	233.811	57.043	252.461	220.108	21.840	3.756	13.363	168.111	282.014	277.427	233.514	-37.051	300.077	0.00023507	0.00081463	0.00034992	1410.7	4.2878e-06	7.9989e-06	1401.9	372.37	6.4851e-06	3.2837e-06	426.21	141.5	123.08	41.504	4.273e-06	51.427	0.00049075	0.00048978	0.00013421	1416	5.3455e-06	5.2878e-06	1416.3	376.6	5.3429e-06	5.2778e-06	429.63	143.39	124.48	42.107	5.2337e-06	52.21	59.464	-27.532	-28.052	-46.240	132.906	44.146	-46.381	-41.850	21.943	255.640	-42.406	-37.811	-37.555	-32.767	215.892	-33.520	-8191	255	
2571.209	1	1	0	0	0.15543	0.27947	0.10752	0.13353	0.13821	0.22377	0.25415	0.34038	0.22306	0.071791	0.39106	0.047481	0.069023	0.23395	0.14107	0.035247	0.78542	-0.56875	0.12292	0.14583	-0.48333	0.49792	-0.066667	-0.65	0.375	-0.31667	-0.14792	0.34167	-0.72083	-0.0083333	0.1125	-0.53542	146.132	30.653	-0.601	255.511	-44.737	85.837	261.574	247.271	240.724	258.860	289.139	114.228	-26.711	144.617	181.229	28.412	0.00014885	0.00025256	0.00024489	1416.4	1.393e-06	1.4778e-06	1410.1	372.71	2.3792e-06	1.5099e-06	426.02	141.42	122.93	41.564	1.2337e-06	51.412	0.00048504	0.00047981	0.00013299	1417.7	5.3151e-06	5.2554e-06	1417.5	376.34	5.3271e-06	5.2555e-06	430.14	143.45	124.71	42.141	5.3031e-06	52.235	60.488	-31.613	-20.923	-46.355	157.430	154.884	-46.617	-42.257	61.708	-19.270	-42.465	-38.361	-37.777	-32.959	237.860	-33.646	-8191	255	
2571.306	1	1	0	0	0.15667	0.052436	0.1357	0.21852	0.018145	0.18713	0.13238	0.39675	0.1005	0.32417	0.027718	0.38178	0.31276	0.09495	0.078948	0.080683	0.81458	-0.18958	0.047917	0.20625	-0.425	0.064583	-0.21458	-0.61458	0.35833	-0.10625	-0.13333	0.375	-0.46875	0.1375	0.14792	-0.47083	145.169	90.841	77.754	243.559	175.083	39.564	248.527	-51.445	148.436	299.148	219.709	297.581	-46.429	8.616	164.374	97.871	0.00029396	0.00065295	0.00012677	1407	6.8944e-06	5.01e-06	1406	372.06	3.0556e-06	6.3675e-06	426.94	141.89	122.93	41.283	2.0865e-06	51.293	0.00048933	0.00048073	0.00013642	1415	5.3479e-06	5.2736e-06	1417.2	376.39	5.3813e-06	5.3154e-06	430.32	143.62	124.74	42.085	5.3496e-06	52.292	97.577	-19.546	-2.085	-46.503	41.997	28.665	-46.729	-42.060	195.632	65.963	-42.680	-38.509	-37.558	-32.958	26.484	-33.665	-8191	255	
2571.402	1	1	0	0	0.26666	0.12555	0.12996	0.16221	0.33879	0.17181	0.10708	0.18005	0.18268	0.22557	0.15346	0.3947	0.063795	0.13901	0.20598	0.043466	0.675	-0.0625	-0.25	0.2125	-0.31458	-0.0625	0.0083333	-0.68125	0.28958	0.089583	-0.325	0.34792	-0.26667	0.060417	0.40417	-0.61042	9.931	194.029	107.236	-6.447	295.725	195.564	172.591	-59.410	23.745	39.262	268.516	241.816	119.754	-0.089	272.209	123.597	0.00023421	0.00055668	0.00023745	1407.1	5.1428e-06	6.9868e-06	1405.6	373.15	6.8886e-06	1.0649e-05	426.44	141.52	122.83	41.402	4.0421e-06	51.486	0.00048742	0.0004855	0.00013575	1416.5	5.3042e-06	5.2458e-06	1417.5	376.48	5.2554e-06	5.2386e-06	430.57	143.64	124.67	42.154	5.2783e-06	52.294	96.701	34.612	37.749	-46.732	121.935	-9.825	-46.921	-42.240	20.502	65.219	-42.702	-38.442	-37.803	-33.115	156.079	-33.942	-8191	255	
2571.498	1	1	0	0	0.28027	0.24405	0.34639	0.49261	0.10628	0.11031	0.21297	0.07004	0.28434	0.28678	0.2975	0.29197	0.073974	0.30699	0.32473	0.053177	0.49375	0.0041667	-0.24167	0.27708	-0.21458	-0.125	0.1	-0.54375	0.41875	-0.09375	-0.54792	0.29167	-0.29375	-0.2875	0.34792	-0.61875	129.261	293.197	255.764	255.625	151.849	101.724	234.848	251.999	147.610	241.009	282.222	75.015	27.377	289.485	181.929	-31.300	0.00020685	0.00058154	7.2591e-05	1410.9	2.3558e-06	4.9263e-06	1409.5	373.58	4.9747e-06	2.3916e-06	425.92	141.38	122.66	41.221	3.7985e-06	51.572	0.00047735	0.00047925	0.00013378	1417.4	5.2025e-06	5.1947e-06	1418.4	376.86	5.1939e-06	5.2216e-06	430.39	143.3	124.5	42.123	5.2584e-06	52.326	65.297	-21.210	25.303	-46.728	103.703	56.735	-46.684	-42.340	27.531	122.209	-42.655	-38.602	-38.071	-33.199	59.415	-33.936	-8191	255	
2571.594	1	1	0	0	0.25495	0.18023	0.079991	0.051273	0.14329	0.20614	0.27278	0.20373	0.11698	0.042125	0.31267	0.11376	0.24533	0.20846	0.13561	0.17581	0.63125	0.16458	-0.41667	0.20208	-0.37083	-0.16667	0.047917	-0.40208	0.070833	0.13333	-0.5375	0.26042	-0.4625	-0.33958	0.50625	-0.36667	71.090	58.180	218.214	254.747	138.607	94.977	258.269	278.999	8.801	166.949	297.335	114.320	299.677	100.378	49.322	90.870	0.00041808	0.00059244	0.00026303	1410.7	7.452e-06	2.1387e-06	1412	371.87	2.9663e-06	5.6927e-06	428.9	141.27	123.22	41.569	2.721e-06	51.668	0.00047539	0.00047643	0.0001333	1416	5.1747e-06	5.2214e-06	1418.7	376.71	5.2168e-06	5.2638e-06	430.69	143.35	124.58	42.201	5.2579e-06	52.26	98.403	-29.596	42.568	-46.697	-0.840	4.864	-46.955	-42.091	211.495	117.608	-42.768	-38.373	-37.935	-33.373	64.751	-34.117	-8191	255	
2571.690	1	1	0	0	0.15578	0.21713	0.098907	0.07382	0.045581	0.061505	0.26664	0.35411	0.21928	0.29797	0.20932	0.3575	0.070073	0.17726	0.1575	0.20539	0.55208	0.32083	-0.30625	0.1875	0.04375	-0.28542	0.11875	-0.42708	0.13542	0.29167	-0.62292	0.225	0.08125	-0.40208	0.4625	-0.39792	253.932	-57.687	266.068	232.659	206.416	-47.974	263.035	268.057	192.220	254.067	206.936	207.973	236.388	259.248	-1.157	186.763	0.00023383	3.9762e-05	0.00033131	1407.7	7.0797e-06	4.8459e-06	1406.9	372.23	6.8233e-06	3.1086e-06	427.47	141.92	123	41.462	2.0063e-06	51.436	0.00047897	0.00048303	0.00013413	1416.1	5.212e-06	5.2332e-06	1417.6	376.59	5.2094e-06	5.288e-06	430.34	143.42	124.52	42.185	5.2623e-06	52.23	110.439	167.743	-36.484	-46.723	29.526	27.795	-47.048	-42.275	118.696	50.492	-42.663	-38.558	-37.893	-33.275	38.435	-33.718	-8191	255	
2571.786	1	1	0	0	0.26595	0.053531	0.067389	0.16477	0.13072	0.10531	0.04771	0.41611	0.26835	0.21014	0.1181	0.26216	0.21318	0.08556	0.065068	0.16212	0.35208	0.35625	-0.40208	-0.010417	-0.0125	-0.41875	0.17708	-0.3125	-0.11667	0.30833	-0.72917	-0.19167	0.064583	-0.73333	0.34583	-0.35833	-20.954	-35.467	-53.957	253.035	69.405	221.685	156.945	281.643	292.067	99.600	228.067	-56.406	264.177	216.230	-52.931	-52.959	0.00033935	0.00058083	0.00015468	1406.1	5.6182e-06	2.9998e-06	1407.3	372.66	2.6454e-06	7.7917e-06	427.46	141.49	122.76	41.528	7.4315e-06	51.512	0.00047833	0.00048345	0.00013384	1413.3	5.2046e-06	5.2334e-06	1417.3	377	5.2264e-06	5.2593e-06	430.94	143.32	124.74	42.217	5.1571e-06	52.33	101.960	290.829	30.743	-46.973	126.330	94.292	-47.000	-42.142	155.941	98.042	-42.915	-38.473	-37.731	-33.182	66.939	-33.797	-8191	255	
2571.907	1	1	0	0	0.25668	0.18956	0.091752	0.21513	0.18082	0.11921	0.28023	0.41714	0.16762	0.31021	0.33295	0.31457	0.1857	0.21084	0.23783	0.11519	0.12292	0.58542	-0.37917	-0.125	0.08125	-0.45833	0.075	-0.30417	-0.37083	0.37292	-0.775	-0.18125	0.19792	-0.40208	0.275	-0.085417	141.989	-14.058	131.809	187.228	133.421	237.880	216.044	215.904	63.858	260.039	219.831	265.350	-11.171	272.254	280.812	213.445	0.00023913	8.2986e-05	0.00027556	1410.9	5.5909e-06	1.9264e-06	1403.7	373.12	4.9237e-06	8.3072e-06	427.64	141.45	123.31	41.546	4.766e-06	51.631	0.00048258	0.00048564	0.00013376	1416	5.2841e-06	5.327e-06	1417.6	377.17	5.2838e-06	5.2882e-06	430.64	143.54	124.98	42.222	5.2326e-06	52.319	83.036	-41.451	-18.281	-46.933	35.947	84.891	-46.917	-42.152	125.515	33.662	-42.819	-38.294	-37.905	-33.266	-34.781	-33.497	-8191	255	
2572.001	1	1	0	0	0.15395	0.22649	0.21046	0.17419	0.13737	0.25255	0.18793	0.31793	0.041136	0.4334	0.10462	0.083931	0.17488	0.039469	0.17481	0.1922	0.052083	0.49792	-0.35625	-0.2125	0.32917	-0.38333	0.14792	0.035417	-0.38542	0.3875	-0.46458	-0.29792	0.095833	-0.55417	0.3125	-0.029167	195.890	52.776	20.377	246.649	147.707	-0.562	245.277	256.287	25.262	123.463	-39.454	273.992	215.066	240.389	-52.049	263.552	0.00027482	0.00047035	0.00019106	1413	4.1854e-06	4.4222e-06	1402.1	373.56	2.2268e-06	3.7251e-06	427.99	141.39	123.13	41.789	8.196e-06	51.677	0.00048339	0.00048492	0.00013396	1417.5	5.3369e-06	5.292e-06	1415.8	377.48	5.3096e-06	5.2986e-06	431.22	143.62	124.73	42.328	5.2837e-06	52.432	104.035	-16.441	3.166	-46.913	35.750	174.694	-47.065	-42.130	-6.475	21.642	-42.590	-38.404	-38.029	-33.149	29.923	-33.499	-8191	255	
2572.075	1	1	0	0	0.15035	0.056962	0.19414	0.2063	0.13325	0.22884	0.27173	0.50619	0.15357	0.27457	0.23206	0.42588	0.21586	0.096529	0.19049	0.17368	-0.027083	0.62708	-0.15	-0.18542	0.19792	-0.20833	0.17292	0.19583	-0.44583	0.28333	-0.2625	-0.25208	0.2875	-0.41875	0.09375	0.10208	250.385	-46.107	270.411	260.848	292.496	-22.649	226.416	196.434	270.506	-53.902	-4.405	296.545	221.949	-6.192	-19.705	20.068	0.00028368	0.00070863	4.0188e-05	1411.6	6.3855e-06	6.7889e-06	1401.9	373.03	1.3439e-06	6.5975e-06	431.23	141.57	123.28	41.453	3.357e-06	51.444	0.00048679	0.00048287	0.00013474	1418.9	5.3681e-06	5.3318e-06	1417.1	377.85	5.412e-06	5.3672e-06	431.71	143.78	124.84	42.312	5.3731e-06	52.45	73.846	-15.354	64.681	-46.734	121.863	66.136	-47.081	-41.958	73.922	-9.955	-42.558	-38.421	-37.710	-32.796	246.987	-33.673	-8191	255	
2572.195	1	1	0	0	0.23141	0.33349	0.13894	0.10539	0.085367	0.12946	0.13161	0.19671	0.13258	0.24369	0.14248	0.14184	0.14831	0.30865	0.14795	0.1856	0.064583	0.36875	0.01875	-0.46042	0.33542	-0.3625	-0.089583	0.25208	-0.31042	0.23125	-0.1875	-0.52708	0.16875	-0.4375	-0.0125	0.38958	61.537	112.799	-42.192	284.013	91.707	255.295	164.478	208.132	-11.526	293.610	209.050	256.124	232.679	-53.946	141.325	169.776	0.00029924	0.00052179	0.00012681	1408.5	5.2076e-06	1.6918e-06	1402.9	375.12	1.5576e-06	3.7874e-06	427.34	141.78	122.76	41.742	1.6896e-06	51.685	0.00049722	0.00048772	0.00013634	1417.2	5.4218e-06	5.3817e-06	1419	378.31	5.4221e-06	5.3131e-06	431.5	143.96	124.92	42.389	5.3718e-06	52.544	106.031	17.060	-29.720	-46.652	67.749	142.011	-46.708	-41.951	64.147	90.134	-42.646	-38.201	-37.647	-33.026	65.258	-33.894	-8191	255	
2572.290	1	1	0	0	0.35444	0.28709	0.33214	0.090999	0.064834	0.32858	0.25906	0.038537	0.18158	0.27241	0.1438	0.0098357	0.24437	0.025717	0.0054367	0.21525	-0.1	0.35833	0.1875	-0.52292	0.41875	-0.022917	-0.11458	0.26458	-0.40833	0.21667	-0.083333	-0.77292	0.3875	-0.16875	-0.19375	0.21042	30.696	243.560	205.601	136.500	-29.055	279.584	187.579	-59.116	257.087	127.053	245.427	-6.724	289.200	271.336	97.365	218.458	0.00044189	0.0003353	0.00039763	1411.2	3.6881e-06	4.7417e-06	1404.6	375.13	2.2998e-06	4.3754e-07	425.21	141.59	122.71	41.711	4.5615e-06	51.255	0.00049351	0.00048834	0.0001368	1420.6	5.3935e-06	5.3564e-06	1417.8	379.15	5.355e-06	5.3187e-06	430.69	143.98	124.85	42.378	5.3937e-06	52.485	108.283	8.471	-1.436	-46.713	237.863	-25.759	-46.978	-42.055	286.696	-15.815	-42.328	-38.201	-37.797	-32.943	73.578	-33.836	-8191	255	
2572.386	1	1	0	0	0.10445	0.2566	0.11231	0.16935	0.050033	0.11986	0.38634	0.20894	0.054013	0.17897	0.15689	0.17463	0.053001	0.15968	0.22813	0.24414	0.05625	0.16458	0.20625	-0.59583	0.475	-0.047917	-0.36042	0.13958	-0.34583	0.0375	0.175	-0.53958	0.10625	0.125	-0.20833	0.36458	-46.782	254.780	207.620	273.997	-12.009	217.299	227.877	295.067	242.450	216.342	186.398	226.519	-36.160	124.249	12.929	178.587	0.00039805	0.00075827	0.00010505	1412.5	4.8702e-06	7.1569e-06	1408.8	373.36	7.9468e-06	4.0186e-06	428.12	141.72	123.16	41.715	2.4106e-06	51.615	0.00048331	0.0004862	0.00013633	1419	5.3134e-06	5.2971e-06	1417.3	378.32	5.2754e-06	5.2802e-06	431.63	143.98	124.65	42.357	5.3391e-06	52.436	89.215	14.126	-27.688	-46.507	147.751	69.351	-46.896	-42.173	41.893	98.630	-42.508	-38.190	-37.676	-32.780	26.020	-33.754	-8191	255	
2572.482	1	1	0	0	0.093637	0.14488	0.13541	0.43189	0.050075	0.10356	0.24757	0.24611	0.1201	0.16489	0.19322	0.17206	0.15593	0.1729	0.16638	0.098273	-0.022917	0.2125	0.49792	-0.64167	0.15625	0.064583	-0.60208	0.36667	-0.19375	-0.0020833	0.29792	-0.42917	0.035417	0.075	-0.52917	0.26875	-14.943	206.668	299.325	-34.277	-4.998	-41.733	221.784	205.578	110.746	213.297	275.260	-31.919	172.274	-19.773	-9.953	240.339	0.00057045	0.00030401	0.00036344	1413.8	1.4471e-06	6.6321e-06	1406.4	374.92	4.5961e-06	1.2119e-05	427.8	141.76	122.94	41.755	4.4077e-06	51.412	0.00048188	0.00048677	0.00013582	1420.9	5.2994e-06	5.2921e-06	1417.9	378.85	5.2986e-06	5.2813e-06	431.96	143.83	124.82	42.41	5.3544e-06	52.392	77.207	47.401	71.814	-46.440	58.826	84.729	-46.863	-42.049	114.329	55.033	-42.684	-38.437	-37.607	-32.995	44.343	-33.511	-8191	255	
2572.603	1	1	0	0	0.052503	0.19203	0.16101	0.1788	0.087299	0.28041	0.0995	0.22224	0.21957	0.27097	0.15687	0.36328	0.2278	0.13022	0.14184	0.14666	-0.016667	-0.24583	0.49375	-0.38125	0.11458	0.21667	-0.60208	0.058333	0	-0.19583	0.25208	-0.65208	0.12917	0.025	-0.49375	0.175	265.775	104.129	46.444	284.387	84.119	104.198	282.500	253.862	54.504	-20.510	252.391	289.659	-34.651	44.489	24.054	170.070	0.00022551	0.00079203	3.6541e-05	1411	3.8548e-06	1.1288e-06	1409.2	374.75	7.7415e-06	3.2427e-06	426.48	141.2	123.08	41.725	4.5671e-06	51.742	0.00048015	0.00048566	0.00013624	1418.3	5.2854e-06	5.2915e-06	1420.3	378.51	5.2422e-06	5.3037e-06	430.82	143.89	124.87	42.373	5.2616e-06	52.501	103.919	-27.838	255.637	-46.621	52.107	114.768	-46.833	-41.993	-57.285	70.639	-42.566	-38.321	-37.750	-32.684	-48.689	-33.732	-8191	255	
2572.699	1	1	0	0	0.080297	0.24064	0.19365	0.52912	0.024131	0.14865	0.1892	0.14313	0.17856	0.071324	0.10813	0.18237	0.13953	0.044948	0.16829	0.25112	0.425	-0.37292	0.57917	-0.59792	0.13333	0.29167	-0.89583	0.175	-0.15625	-0.33958	0.39375	-0.3875	-0.20833	0.20833	-0.50625	0.15	253.076	-12.694	80.676	259.336	253.930	18.322	-7.632	281.004	207.314	217.354	231.556	268.502	213.781	212.123	299.486	130.057	0.00023615	0.0002188	0.0001728	1411.9	3.1302e-06	6.3564e-06	1409	374.66	2.6277e-06	5.854e-06	429.4	141.1	123.37	41.664	4.2592e-06	51.749	0.00047972	0.00048554	0.00013465	1417.8	5.2385e-06	5.2753e-06	1421.4	378.49	5.2323e-06	5.2704e-06	432.14	143.56	125.09	42.426	5.2498e-06	52.488	92.188	6.469	-56.785	-46.488	124.362	80.125	-46.751	-42.310	-50.133	86.710	-42.528	-38.275	-37.688	-32.790	86.556	-33.608	-8191	255	
2572.795	1	1	0	0	0.079988	0.31476	0.29866	0.3309	0.042394	0.20961	0.33992	0.26107	0.12608	0.12358	0.28842	0.25811	0.36471	0.19685	0.22157	0.18306	0.50833	-0.37292	0.50833	-0.41667	-0.0375	0.20833	-0.68958	0.03125	0.14375	-0.63542	0.19167	-0.44375	-0.3	0.18958	-0.1875	-0.1625	298.955	1.383	294.539	-31.213	276.780	174.202	225.918	245.153	99.826	16.365	246.938	263.134	156.970	177.586	-3.619	142.052	0.00040656	0.00059145	0.00020462	1415.2	2.9739e-06	5.4016e-06	1414.7	374.76	3.5435e-06	5.4319e-06	430.27	142.3	123.3	41.609	6.4173e-06	51.781	0.00048053	0.00048582	0.00013405	1420.3	5.2641e-06	5.2644e-06	1423.5	378.33	5.2544e-06	5.3072e-06	432.07	144.32	125.13	42.437	5.2178e-06	52.526	115.675	-26.022	43.965	-46.457	-33.151	165.551	-46.489	-41.872	20.696	187.171	-42.408	-38.078	-37.643	-32.827	76.893	-33.692	-8191	255	
2572.891	1	1	0	0	0.18613	0.42082	0.23561	0.19529	0.10265	0.092116	0.16784	0.19443	0.069131	0.12993	0.08633	0.17694	0.15266	0.17471	0.14545	0.21084	0.40625	-0.36458	0.26667	-0.325	-0.16458	0.35	-0.7875	-0.25833	0.175	-0.52083	0.20208	-0.37083	-0.49375	0.39583	-0.42917	-0.0375	137.618	99.482	88.776	270.551	85.367	75.188	-31.995	269.017	144.452	-53.896	159.592	-59.826	28.725	128.077	190.691	234.220	0.00016695	0.00038235	5.6606e-05	1413.9	3.5965e-06	3.7144e-06	1415.4	376.97	2.4048e-06	5.8623e-06	427.31	142.24	123.59	41.86	1.4173e-06	51.778	0.00048271	0.00048611	0.00013381	1421.5	5.3312e-06	5.3414e-06	1424.8	379.94	5.3875e-06	5.3718e-06	432.54	144.65	125.56	42.646	5.3802e-06	52.684	35.611	-25.627	38.862	-46.585	73.075	174.265	-46.720	-42.225	153.012	53.083	-42.538	-38.161	-37.705	-32.762	66.787	-33.584	-8191	255	
2572.987	1	1	0	0	0.16314	0.36052	0.05799	0.49624	0.17675	0.030952	0.25833	0.35495	0.22319	0.33318	0.23953	0.096964	0.22435	0.171	0.023506	0.087017	0.72292	-0.47292	0.29375	-0.17708	-0.49167	0.58125	-0.475	-0.1125	0.30208	-0.24792	0.085417	-0.085417	-0.54167	0.26875	-0.16875	-0.085417	2.852	80.238	272.163	281.566	212.866	154.037	151.788	192.297	47.520	32.644	215.886	-44.032	-55.271	230.387	-35.597	250.268	0.0002518	0.00048571	0.00011574	1415.6	2.4425e-06	7.8215e-06	1415.9	375.02	6.8633e-06	1.0935e-05	430.36	141.61	124.24	41.837	4.5053e-07	51.677	0.00049642	0.00049767	0.00013769	1425.8	5.4675e-06	5.4578e-06	1427.1	380.55	5.5297e-06	5.5084e-06	432.91	144.82	125.84	42.667	5.4959e-06	52.876	141.421	37.634	-43.478	-46.569	10.392	-5.117	-46.413	-41.803	102.070	49.328	-42.230	-37.785	-37.266	-32.603	-49.801	-33.152	-8191	255	
2573.083	1	1	0	0	0.08049	0.18562	0.17988	0.16292	0.23476	0.092888	0.34926	0.15396	0.31844	0.092351	0.24777	0.23241	0.25132	0.36013	0.093317	0.25355	0.91458	-0.30417	0.15208	-0.0375	-0.56042	0.21875	-0.5375	-0.50625	0.42083	-0.35625	-0.20625	0.14375	-0.60625	0.23542	0.010417	-0.36458	121.387	105.737	113.107	211.690	72.548	167.166	247.407	221.194	238.481	255.262	237.577	-52.880	277.456	227.736	85.579	272.375	0.00031711	0.00050404	0.00011217	1419.1	7.0713e-06	3.2435e-06	1415.9	376.07	8.2112e-07	4.1951e-06	429.51	142.92	124.07	42	4.1948e-06	51.903	0.00050809	0.00050821	0.0001397	1427.5	5.5921e-06	5.5497e-06	1426.6	381.07	5.5518e-06	5.4647e-06	433.5	145.09	125.86	42.742	5.4438e-06	52.822	103.069	211.540	174.936	-46.217	64.224	191.798	-46.499	-41.944	33.654	94.958	-42.500	-38.058	-37.302	-32.577	77.126	-33.333	-8191	255	
2573.202	1	1	0	0	0.18785	0.076522	0.26891	0.12338	0.11885	0.1505	0.38081	0.30793	0.1583	0.13	0.24341	0.19536	0.24643	0.27626	0.4066	0.055629	0.81042	-0.37917	0.18125	-0.064583	-0.47708	0.2625	-0.42917	-0.46458	0.47708	-0.37917	-0.035417	0.19792	-0.51042	0.375	0.08125	-0.26458	160.866	292.852	280.847	-59.261	193.200	100.872	197.572	224.559	16.174	57.438	-20.532	274.054	-56.720	293.507	46.162	141.599	0.00012016	0.00030477	0.00020477	1416	3.3749e-06	2.7532e-06	1415.1	376.57	2.3767e-06	4.5701e-06	429.93	143.11	123.73	42.057	4.3399e-06	51.929	0.00049728	0.0004935	0.00013639	1425.5	5.3891e-06	5.3317e-06	1427.6	380.8	5.3694e-06	5.294e-06	433.23	145	125.97	42.721	5.3039e-06	52.864	82.285	292.883	6.969	-46.208	111.164	129.440	-46.333	-41.810	73.295	120.947	-42.181	-37.689	-37.244	-33.117	125.704	-33.864	-8191	255	
2573.298	1	1	0	0	0.14113	0.31947	0.10687	0.32791	0.040632	0.16876	0.25966	0.21388	0.21071	0.15036	0.28844	0.14536	0.18128	0.23223	0.15843	0.1635	0.78333	-0.28958	0.06875	-0.08125	-0.34792	0.26458	-0.0875	-0.52083	0.26042	-0.28125	-0.18333	0.43333	-0.4875	0.041667	0.21875	-0.37708	154.260	254.451	106.563	198.350	275.702	173.530	287.566	253.777	186.732	-34.375	216.956	-33.487	-46.714	273.936	113.711	-59.728	0.00027699	0.0006965	0.00024902	1419.6	8.4545e-07	6.9616e-06	1414.9	377.15	1.2683e-06	8.4847e-06	429.23	143.45	123.9	42.007	7.4483e-06	52.219	0.0004836	0.00048502	0.00013587	1426.6	5.3454e-06	5.2976e-06	1426	381.22	5.3395e-06	5.3082e-06	433.27	145.37	125.65	42.655	5.3206e-06	52.939	110.806	106.198	11.586	-46.605	135.047	127.391	-46.660	-42.065	291.396	115.316	-42.272	-37.880	-37.443	-32.620	82.940	-33.541	-8191	255	
2573.370	1	1	0	0	0.018317	0.10914	0.1838	0.19544	0.20961	0.10577	0.34643	0.1198	0.1883	0.13471	0.20393	0.21666	0.26158	0.044904	0.10356	0.31593	0.9	-0.19583	-0.2625	0.32917	-0.18958	0.175	0.16042	-0.48958	0.44792	-0.0625	-0.26458	0.41667	-0.24375	-0.010417	0.42083	-0.37708	24.194	293.448	39.673	278.061	-12.092	211.328	238.132	33.752	-52.445	286.284	-5.518	287.219	287.120	276.337	113.797	215.379	0.00057301	0.00090526	0.00026186	1414.8	3.8764e-07	2.4954e-06	1415	377	4.14e-06	1.4677e-06	429.07	142.64	123.88	42.035	1.1827e-06	51.898	0.00048714	0.00048319	0.00013574	1426.2	5.2681e-06	5.2607e-06	1426.3	381.09	5.3338e-06	5.3187e-06	433.13	145.29	125.92	42.735	5.4037e-06	52.866	75.156	-35.602	-23.301	-46.398	256.021	10.707	-46.519	-42.054	183.162	114.850	-42.438	-37.958	-37.443	-32.976	-4.200	-33.508	-8191	255	
2573.466	1	1	0	0	0.099641	0.23459	0.27305	0.2741	0.20404	0.095303	0.23472	0.33211	0.067841	0.14979	0.11977	0.096461	0.26972	0.13292	0.10413	0.13528	0.74792	0.070833	-0.125	0.35833	-0.17292	-0.22708	0.2	-0.60833	0.27917	0.077083	-0.50833	0.30625	-0.38333	-0.43542	0.46042	-0.37292	233.460	271.006	253.485	240.275	91.505	202.696	241.030	186.853	-49.054	207.828	32.748	2.041	-22.634	20.488	17.959	-42.585	0.00033754	0.00051509	0.00027813	1419.1	7.3602e-06	4.0812e-06	1411.7	376.76	3.4678e-06	2.7307e-06	430.46	142.52	124.53	41.833	3.9044e-06	51.623	0.0004855	0.00048908	0.0001367	1423.6	5.3013e-06	5.2596e-06	1425.5	380.87	5.2961e-06	5.3462e-06	433.1	144.76	125.82	42.684	5.3859e-06	52.725	63.625	24.104	-12.275	-46.396	128.863	286.353	-46.478	-41.794	80.015	201.769	-42.129	-38.005	-37.348	-32.711	-3.933	-33.238	-8191	255	
2573.587	1	1	0	0	0.24595	0.14546	0.31411	0.49567	0.21814	0.1834	0.16819	0.28852	0.14385	0.11825	0.15541	0.10973	0.082814	0.27926	0.21645	0.10251	0.61458	0.175	-0.27708	0.31458	-0.23542	-0.064583	0.27083	-0.46042	0.24167	0.2625	-0.6375	0.26042	-0.1625	-0.27292	0.4875	-0.525	281.140	-24.250	238.312	263.892	11.841	73.441	240.761	219.536	89.642	221.281	-15.909	12.704	198.151	299.572	91.119	110.730	0.00034877	0.0004395	0.00015235	1414.6	2.8667e-06	5.2304e-06	1412.8	376.22	2.531e-06	1.1405e-05	430.19	142.36	123.53	41.934	1.0526e-06	52.049	0.00048324	0.00048453	0.00013576	1423.1	5.2659e-06	5.27e-06	1424.6	380.19	5.226e-06	5.2749e-06	432.87	144.6	125.44	42.637	5.2413e-06	52.685	127.903	228.000	25.392	-46.195	265.036	34.685	-46.400	-41.803	144.512	51.526	-42.359	-38.105	-37.271	-32.664	50.570	-33.571	-8191	255	
2573.683	1	1	0	0	0.032713	0.17717	0.20645	0.28048	0.075884	0.234	0.13699	0.1829	0.09913	0.1345	0.22499	0.21083	0.14866	0.1096	0.29917	0.059948	0.42083	0.52708	-0.18542	0.46458	-0.2	-0.28125	0.27083	-0.49375	0.34583	0.29583	-0.41667	0.26667	-0.18542	-0.49375	0.48542	-0.325	29.622	7.700	-31.297	265.714	123.873	36.625	184.202	18.749	121.823	197.493	238.803	-25.985	170.235	199.527	78.144	11.408	0.00021826	0.00048987	0.00021479	1410.2	2.5878e-06	7.7528e-06	1414.7	376.67	1.515e-06	5.0102e-06	427.76	142.71	123.8	42.022	6.999e-06	51.976	0.00047389	0.0004791	0.00013309	1418.8	5.1871e-06	5.2081e-06	1424	380.18	5.1649e-06	5.2e-06	431.66	144.36	125.46	42.511	5.1393e-06	52.68	52.371	19.299	-5.266	-46.499	166.719	70.418	-46.614	-41.837	17.107	20.394	-42.249	-38.273	-37.279	-32.910	102.660	-33.615	-8191	255	
2573.779	1	1	0	0	0.22757	0.33623	0.37126	0.13801	0.011674	0.15764	0.3483	0.40956	0.23784	0.23857	0.14652	0.2846	0.43226	0.19199	0.22204	0.12082	0.41875	0.50208	-0.46458	0.022917	0.15625	-0.24583	0.35833	-0.43125	-0.18542	0.475	-0.52917	0.11667	0.05625	-0.63542	0.225	-0.18333	65.318	154.379	24.292	265.444	-37.606	83.552	234.622	271.889	41.797	226.171	294.071	268.823	198.984	-53.841	150.852	250.896	0.00039919	0.00026803	0.00011331	1414.7	5.2819e-06	4.8724e-06	1415.3	375.22	4.1454e-06	2.9279e-06	429	142.22	124.12	41.766	1.1866e-06	51.744	0.00047002	0.00047418	0.00013043	1420.7	5.1296e-06	5.1523e-06	1422.3	379.58	5.1227e-06	5.1694e-06	431.45	144.2	125.43	42.48	5.1306e-06	52.59	89.582	-25.384	18.730	-46.493	113.023	104.302	-46.471	-41.753	110.316	197.921	-42.252	-38.170	-37.365	-32.755	49.470	-33.342	-8191	255	
2573.875	1	1	0	0	0.23739	0.14803	0.28782	0.11084	0.12798	0.13898	0.3775	0.29427	0.25308	0.26451	0.075259	0.065442	0.14625	0.18717	0.052112	0.036641	0.39375	0.57708	-0.4	-0.085417	0.3	-0.46875	0.17917	-0.13333	-0.14375	0.61458	-0.43333	-0.091667	0.3125	-0.60833	0.55	0.0041667	108.972	204.453	66.224	283.930	294.518	152.189	263.653	267.505	281.226	-20.123	-57.230	15.202	232.299	-52.727	-49.571	82.239	0.00033045	0.00029539	0.00029154	1417.2	2.0983e-06	5.6141e-06	1420.4	375.82	4.909e-06	4.369e-06	429.36	141.99	123.51	42.015	1.278e-06	51.925	0.00047099	0.0004739	0.00013069	1420.8	5.169e-06	5.1386e-06	1423.6	379.42	5.1384e-06	5.1687e-06	432.22	143.96	125.27	42.567	5.0583e-06	52.581	110.929	271.623	5.968	-46.571	146.473	133.719	-46.858	-41.778	101.417	46.904	-42.333	-38.103	-37.692	-32.534	211.884	-33.409	-8191	255	
2573.972	1	1	0	0	0.035874	0.26027	0.075106	0.17452	0.074104	0.31696	0.25892	0.32988	0.25084	0.24335	0.11146	0.38542	0.47607	0.02765	0.13604	0.13008	0.325	0.6	-0.18125	-0.064583	0.34583	-0.45417	0.01875	-0.079167	-0.3375	0.5625	-0.47708	-0.070833	0.35208	-0.6375	0.51042	0.025	146.554	277.779	21.846	207.574	-8.961	30.596	234.224	262.509	13.446	149.579	287.960	206.463	247.430	102.383	104.448	96.812	0.00028925	0.00024615	0.00023171	1418.2	1.1676e-06	4.7158e-06	1417.6	376.51	8.6775e-07	2.0904e-06	426.07	142.49	124.47	41.912	4.5078e-06	51.908	0.00046731	0.00046625	0.00012843	1423.5	5.1155e-06	5.0713e-06	1423.5	379.38	5.0791e-06	5.0659e-06	430.45	144.11	125.39	42.488	5.0224e-06	52.546	103.495	29.086	-17.092	-46.615	140.073	48.918	-46.662	-41.752	135.947	48.108	-42.471	-38.092	-37.347	-32.476	78.419	-33.224	-8191	255	
2574.068	1	1	0	0	0.21984	0.045731	0.30077	0.22633	0.20101	0.13975	0.22136	0.23035	0.067145	0.20252	0.20518	0.13328	0.12366	0.29304	0.26711	0.33438	0.052083	0.58125	-0.03125	-0.32917	0.39583	-0.47083	-0.1625	0.1375	-0.2625	0.33333	-0.2375	-0.21667	0.26667	-0.5125	0.18542	0.37708	296.871	45.263	189.074	217.035	20.972	233.226	185.193	262.148	256.944	285.423	258.752	293.248	284.935	-51.040	20.060	262.900	0.00019301	0.00038708	0.00011828	1420.9	3.2252e-06	2.5419e-06	1414.4	376.43	2.9923e-06	8.0811e-06	431.27	142.71	123.87	42.05	2.2747e-06	51.927	0.00046659	0.00046578	0.00012794	1423.8	5.1626e-06	5.1079e-06	1423.3	379.76	5.1705e-06	5.1125e-06	431.82	144.34	125.3	42.642	5.0705e-06	52.61	98.972	32.696	101.083	-46.339	66.064	95.475	-46.530	-41.680	113.250	80.161	-42.019	-37.986	-37.129	-32.630	-0.772	-33.344	-8191	255	
2574.164	1	1	0	0	0.1251	0.12037	0.1415	0.10278	0.10156	0.20997	0.037257	0.31197	0.28646	0.2388	0.099758	0.28658	0.28139	0.038637	0.11533	0.19574	0.058333	0.4	0.05	-0.475	0.52292	-0.19583	-0.13542	0.22083	-0.38125	0.38958	-0.072917	-0.47917	0.38125	-0.24375	0.1	0.30833	218.993	213.693	114.789	7.899	94.759	82.061	24.717	241.354	183.156	274.651	-18.046	125.347	-56.100	182.850	13.311	260.839	0.00039309	0.00067233	0.0001764	1422.4	3.1265e-06	3.9145e-06	1418.5	376.27	3.0636e-06	5.4911e-06	428.66	142.87	124.41	42.075	9.1952e-06	51.81	0.0004688	0.00046529	0.00012938	1425.1	5.166e-06	5.0767e-06	1425.6	379.75	5.0942e-06	5.0597e-06	431.17	144.44	125.32	42.583	5.02e-06	52.648	95.275	-45.202	34.671	-46.254	187.647	96.624	-46.588	-41.692	38.236	93.415	-42.206	-37.983	-37.267	-32.909	73.289	-33.587	-8191	255	
2574.283	1	1	0	0	0.22162	0.080226	0.12498	0.31016	0.10345	0.2069	0.39939	0.067789	0.034764	0.19751	0.045361	0.098517	0.13397	0.073486	0.1098	0.23572	0.060417	0.37292	0.29583	-0.575	0.59583	-0.18125	-0.21875	0.3125	-0.16875	0.14167	0.19167	-0.38542	0.33125	-0.24583	-0.0041667	0.28333	143.064	213.814	150.125	284.068	39.981	264.974	200.908	109.991	145.367	142.784	158.979	24.217	42.829	214.210	260.352	231.853	0.00020854	0.00072347	4.9067e-05	1425.5	1.5463e-06	6.8236e-07	1423	377.42	5.1082e-06	4.6429e-06	430.43	142.96	124.82	42.11	4.8405e-06	51.882	0.00046207	0.00045736	0.000128	1425.1	5.0248e-06	4.9606e-06	1425	380.05	4.9617e-06	4.9588e-06	431.61	144.38	125.42	42.542	4.9166e-06	52.53	59.520	7.048	-51.373	-46.289	73.662	238.536	-46.673	-41.926	24.250	61.714	-42.443	-38.242	-37.797	-32.664	100.644	-33.528	-8191	255	
2574.379	1	1	0	0	0.16636	0.14174	0.030666	0.10746	0.064268	0.20303	0.43447	0.3935	0.25142	0.27548	0.21534	0.12205	0.17722	0.25669	0.17644	0.17418	-0.0375	0.3375	0.39167	-0.53333	0.4125	-0.12083	-0.37708	0.29167	-0.36667	0.05	-0.00625	-0.6125	0.125	-0.039583	-0.38125	0.25	182.801	-14.051	15.670	284.080	1.973	176.362	216.171	249.877	118.618	78.996	232.320	240.932	256.530	204.831	116.374	235.959	0.00045828	0.00065699	9.7048e-05	1421.1	7.232e-06	3.7605e-06	1417.8	374.83	4.0676e-06	2.6911e-06	428.68	143.26	123.83	41.986	5.3505e-06	52.401	0.00045056	0.00044723	0.00012599	1423.9	4.9196e-06	4.9325e-06	1424.9	378.94	4.9362e-06	4.8915e-06	430.97	144.28	125	42.43	4.9368e-06	52.623	81.904	-36.334	78.377	-46.976	51.216	166.205	-46.838	-42.067	37.502	79.593	-42.637	-38.231	-37.957	-33.206	133.430	-33.771	-8191	255	
2574.475	1	1	0	0	0.21202	0.039003	0.17184	0.16033	0.095435	0.032785	0.23783	0.2297	0.18769	0.20269	0.49863	0.06507	0.29417	0.14894	0.10078	0.35956	0.19375	0.0625	0.26875	-0.71667	0.46667	0.10208	-0.54167	0.45417	-0.26042	-0.0020833	0.28333	-0.42083	0.1625	0.09375	-0.325	0.15	165.096	137.544	181.179	263.675	265.440	154.157	266.798	183.868	253.842	66.822	237.675	296.851	-11.437	209.944	261.479	-58.215	0.00025796	0.00081612	6.0629e-05	1427.9	3.9681e-06	3.8762e-06	1414.2	377.37	2.6866e-06	2.3346e-06	430.32	142.74	124.18	42.091	1.6932e-06	52.083	0.00044944	0.0004468	0.00012649	1426.1	4.8879e-06	4.9204e-06	1424.4	379.67	4.8874e-06	4.9168e-06	430.96	144.31	125.08	42.482	4.9386e-06	52.46	77.468	-4.032	48.200	-46.629	6.097	94.788	-46.784	-42.068	125.400	79.252	-42.492	-38.351	-37.682	-33.121	68.835	-33.717	-8191	255	
2574.596	1	1	0	0	0.24913	0.22959	0.16475	0.23702	0.14427	0.10921	0.12826	0.28262	0.096255	0.2573	0.26858	0.22651	0.18395	0.43842	0.12423	0.20349	0.3375	-0.035417	0.53125	-0.675	0.14167	0.20208	-0.70208	0.15833	-0.20833	-0.23542	0.36667	-0.625	-0.00625	0.125	-0.52292	0.45208	-3.075	238.385	220.871	260.430	286.752	157.677	285.968	218.738	71.303	-32.405	202.940	266.303	210.900	255.046	218.870	-44.966	0.00051003	0.00046225	0.00029665	1422.3	3.9425e-06	6.7116e-06	1412.8	376.68	2.1863e-06	6.42e-06	428.99	143.03	123.93	42.148	3.7662e-06	52.16	0.00044688	0.00044851	0.00012562	1421.8	4.8542e-06	4.9559e-06	1422.3	378.91	4.8942e-06	4.9326e-06	430.08	144.26	125	42.466	4.936e-06	52.562	84.922	33.535	6.528	-46.571	184.036	174.625	-46.658	-41.921	-13.150	52.295	-42.486	-38.230	-37.606	-32.599	120.438	-33.587	-8191	255	
2574.667	1	1	0	0	0.27852	0.064698	0.11792	0.22246	0.1597	0.12853	0.16619	0.26518	0.19083	0.070521	0.14043	0.42965	0.1478	0.18883	0.22729	0.30836	0.32708	-0.18333	0.41042	-0.38542	0.095833	0.24583	-0.58958	0.11667	0.027083	-0.41875	0.31667	-0.33333	-0.24375	0.2625	-0.4375	0.12292	60.454	-49.342	286.169	-57.744	-22.303	121.490	254.557	254.520	235.253	-8.731	231.902	236.977	-34.448	-54.082	26.838	238.089	0.0004476	0.00025187	6.7557e-05	1416.9	2.3778e-06	7.8267e-06	1413.8	376.99	2.7596e-06	6.4157e-06	429.16	142.65	124.18	42.024	4.567e-06	51.734	0.00045097	0.00045595	0.0001261	1421.6	4.9361e-06	4.9384e-06	1422.9	378.77	4.9297e-06	4.9545e-06	431.33	144	124.86	42.489	4.9412e-06	52.372	61.209	109.026	-51.145	-46.558	114.616	78.371	-46.856	-41.847	222.326	139.362	-42.377	-38.273	-37.572	-32.717	216.712	-33.560	-8191	255	
2574.763	1	1	0	0	0.12366	0.15494	0.08822	0.22501	0.38338	0.080153	0.22588	0.31928	0.027263	0.13876	0.25675	0.11197	0.2097	0.23888	0.066217	0.17948	0.56667	-0.33125	0.47917	-0.44583	-0.14792	0.47292	-0.69375	0.11875	0.2375	-0.25417	0.18958	-0.40417	-0.11042	0.44583	-0.17292	-0.10208	200.630	280.137	109.636	242.259	136.315	231.073	226.032	257.779	276.124	130.237	293.814	-53.731	276.442	265.490	21.488	212.761	0.00016073	0.0004225	0.00024581	1417.2	8.1678e-06	4.8364e-06	1419.4	375.83	2.1352e-06	4.6008e-06	427.03	142.96	123.43	41.858	4.8137e-06	51.743	0.00045268	0.00045508	0.00012667	1421.6	4.9881e-06	5.0215e-06	1422.1	378.89	5.0343e-06	5.0274e-06	430.1	144.19	125.03	42.404	5.0349e-06	52.418	79.996	-5.563	87.200	-46.313	60.280	107.718	-46.560	-41.764	139.649	176.357	-42.291	-37.885	-37.656	-32.383	119.725	-33.471	-8191	255	
2574.884	1	1	0	0	0.16345	0.21393	0.24082	0.40717	0.090212	0.12548	0.19704	0.25361	0.14858	0.12355	0.1324	0.14757	0.42181	0.14959	0.2386	0.10161	0.64583	-0.33125	0.62708	-0.46875	-0.24167	0.51667	-0.62917	-0.0125	0.46875	-0.39167	0.3	-0.16042	-0.40833	0.35417	-0.3875	0.075	144.733	6.777	219.708	246.111	172.149	208.458	-49.583	252.542	149.520	139.344	273.209	252.863	297.923	69.111	-5.300	239.566	0.00023469	0.00036229	0.00026701	1421	3.7605e-06	4.1028e-06	1411.6	375.22	5.0672e-06	9.9177e-06	427.76	142.65	123.16	41.922	2.0279e-06	51.705	0.00046274	0.00046204	0.0001278	1421.6	5.0269e-06	5.0813e-06	1421.4	378.59	5.084e-06	5.0774e-06	430.22	144.14	124.78	42.411	5.0016e-06	52.396	96.522	-35.960	-22.010	-45.806	201.999	-57.285	-46.170	-41.518	220.770	116.958	-41.954	-37.583	-37.200	-32.448	6.299	-33.018	-8191	255	
2574.980	1	1	0	0	0.052465	0.12042	0.32123	0.18826	0.22677	0.31074	0.12606	0.41885	0.1855	0.038516	0.11773	0.21115	0.18637	0.11412	0.089477	0.11101	0.83958	-0.45417	0.40625	-0.14375	-0.31042	0.72917	-0.43958	-0.070833	0.4	-0.31042	0.21875	-0.05	-0.64583	0.35625	-0.26458	-0.27083	217.727	23.311	-42.851	37.554	51.614	261.165	123.343	243.400	208.269	128.626	-41.776	244.988	251.754	186.791	-20.175	246.280	0.00045024	0.0005397	0.00019025	1417.5	3.4696e-06	2.743e-06	1411.3	375.03	5.9795e-06	6.4315e-06	427.96	142.12	123.77	41.754	8.3742e-06	51.756	0.00046484	0.00046337	0.00012837	1418.6	5.0733e-06	5.0519e-06	1419.2	378.58	5.0899e-06	5.0649e-06	429.39	143.63	124.81	42.389	4.955e-06	52.362	63.782	-18.695	47.777	-46.100	83.948	139.911	-46.055	-41.689	95.333	-8.677	-42.085	-37.642	-37.251	-32.577	80.196	-33.282	-8191	255	
2575.076	1	1	0	0	0.1584	0.13874	0.15986	0.25349	0.25575	0.03967	0.22943	0.02808	0.054428	0.17085	0.27518	0.075081	0.139	0.16946	0.074311	0.18252	0.65833	-0.11042	0.32917	0.020833	-0.39792	0.30625	-0.375	-0.43958	0.35417	-0.49792	-0.027083	0.077083	-0.58958	0.37917	-0.25417	-0.45625	71.370	58.622	-47.206	237.396	185.645	259.385	214.708	182.780	121.703	66.992	168.974	157.518	262.136	283.088	69.250	-28.529	0.00039157	0.00054231	0.00018595	1412.1	1.7796e-06	6.7139e-06	1411.9	374.92	3.2177e-06	1.0584e-06	427.13	142.22	123.53	41.839	3.468e-06	51.814	0.00045953	0.00045647	0.00012541	1417.9	5.0452e-06	4.9554e-06	1419	378.17	4.9969e-06	4.9435e-06	429.38	143.67	124.7	42.315	4.8736e-06	52.364	88.369	57.799	154.457	-46.024	123.043	26.271	-46.298	-41.715	131.723	76.657	-42.273	-37.687	-37.315	-32.893	32.688	-33.568	-8191	255	
2575.171	1	1	0	0	0.093482	0.11252	0.019693	0.39616	0.061694	0.093908	0.296	0.29209	0.11657	0.12294	0.27771	0.10142	0.14155	0.27126	0.17858	0.019084	0.75208	-0.18958	0.058333	-0.0125	-0.29167	0.31667	-0.35833	-0.60625	0.40417	-0.47917	-0.18125	0.22083	-0.49167	0.3125	0.077083	-0.56458	-45.832	-56.142	229.348	283.305	279.773	97.982	217.622	238.891	243.055	286.926	235.424	238.519	285.582	-55.052	150.324	35.743	0.00039974	0.00060418	0.00035954	1415.2	3.7331e-06	2.3805e-06	1416.8	375.48	2.0022e-06	2.4414e-06	427.93	142.64	123.6	41.864	2.2735e-06	51.974	0.00045202	0.0004488	0.00012384	1417.4	4.9392e-06	4.8785e-06	1419.9	377.57	4.9308e-06	4.8546e-06	428.84	143.74	124.63	42.279	4.9026e-06	52.374	82.089	-7.681	97.270	-46.132	216.636	157.614	-46.360	-41.778	-26.800	237.115	-42.077	-37.989	-37.362	-32.717	259.292	-33.301	-8191	255	
2575.267	1	1	0	0	0.12216	0.18371	0.066576	0.25365	0.14157	0.07909	0.45681	0.10888	0.061476	0.27344	0.23887	0.19075	0.10103	0.1098	0.11218	0.17314	0.77917	-0.22917	-0.1	0.10625	-0.35625	0.19583	-0.19792	-0.61458	0.5875	-0.11042	-0.19583	0.25625	-0.57917	-0.025	0.05	-0.56875	27.398	229.744	-51.636	173.678	-53.034	207.217	212.459	113.189	2.425	37.001	-35.073	-26.996	-44.569	292.776	-18.334	200.513	0.00017551	0.00015368	0.00013916	1418.8	5.4274e-06	6.3844e-06	1414.1	376.32	2.8334e-06	5.0717e-06	426.73	141.89	123.43	41.855	3.7025e-06	51.885	0.0004519	0.00044736	0.00012418	1417.8	4.9744e-06	4.9013e-06	1419.4	378.27	4.9278e-06	4.9037e-06	429.12	143.59	124.45	42.254	4.9199e-06	52.375	43.351	106.317	-27.178	-46.239	85.509	88.926	-46.449	-41.924	-14.902	166.148	-42.239	-37.774	-37.319	-32.545	201.176	-33.138	-8191	255	
2575.363	1	1	0	0	0.028162	0.10572	0.14432	0.11227	0.031695	0.10275	0.29703	0.4132	0.11764	0.31224	0.1843	0.14649	0.35481	0.38059	0.050522	0.28249	0.80417	-0.027083	-0.30625	0.175	-0.35	0.13958	0.029167	-0.73542	0.2875	-0.12708	-0.53333	0.3	-0.7125	-0.1375	0.24792	-0.52292	198.991	130.912	173.933	191.836	-13.901	72.314	285.553	228.648	-43.403	288.949	257.139	-6.547	-48.244	176.031	236.878	249.802	0.00031897	0.00065609	0.0003075	1415.4	2.0684e-06	4.1322e-06	1417.2	374.88	6.1638e-06	4.4166e-06	427.23	142.27	123.21	41.833	1.8175e-06	51.874	0.00044744	0.00044824	0.00012471	1418.5	4.8786e-06	4.8541e-06	1419.2	377.5	4.8802e-06	4.8568e-06	428.72	143.58	124.42	42.224	4.8956e-06	52.355	75.171	38.463	33.475	-45.975	79.456	132.467	-46.512	-41.673	144.392	-13.866	-42.447	-37.814	-37.384	-32.843	93.630	-33.342	-8191	255	
2575.459	1	1	0	0	0.074484	0.22437	0.1449	0.31768	0.084842	0.13139	0.21944	0.23118	0.11301	0.22242	0.26472	0.20193	0.34097	0.42024	0.080845	0.098018	0.64167	-0.045833	-0.22083	0.21667	-0.3	0.022917	0.10833	-0.77083	0.26458	0.058333	-0.57708	0.22292	-0.50833	-0.28333	0.19792	-0.6625	214.133	250.088	50.273	266.572	199.154	262.595	210.378	243.221	-22.843	287.003	243.191	213.470	266.195	276.936	113.526	230.849	0.00040767	0.00061995	0.00026879	1418.4	4.3934e-06	6.0217e-06	1410.8	375.18	7.6104e-06	1.6746e-06	428.42	142.28	123.42	41.657	4.6828e-06	51.779	0.00044571	0.00044841	0.00012555	1418.4	4.8801e-06	4.9123e-06	1415.6	377.74	4.8934e-06	4.8942e-06	429.44	143.62	124.27	42.277	4.9367e-06	52.375	131.600	-11.981	36.050	-45.866	130.554	50.377	-46.110	-41.937	71.266	103.006	-42.131	-37.427	-37.029	-32.424	33.865	-33.041	-8191	255	
2575.555	1	1	0	0	0.12541	0.12152	0.056809	0.16493	0.2339	0.068669	0.38395	0.13829	0.24218	0.24145	0.10077	0.12286	0.22481	0.25471	0.16932	0.37746	0.47917	0.16042	-0.36458	0.16875	-0.0875	-0.20208	0.38542	-0.55625	0.12708	0.2875	-0.52083	0.32083	-0.23958	-0.37917	0.44583	-0.55	151.160	-30.911	240.467	-55.065	100.761	-14.854	231.183	-18.718	210.344	-22.096	-46.435	263.126	260.397	258.497	292.813	262.933	0.00025825	0.00069999	0.00014213	1415.5	2.7298e-06	3.2959e-06	1409	374.02	3.8131e-06	4.8291e-06	426.36	142.38	123.71	41.92	2.8558e-07	51.742	0.00044593	0.00045092	0.00012529	1417.9	4.8747e-06	4.9085e-06	1417.3	377.22	4.8886e-06	4.9484e-06	429.39	143.57	124.56	42.291	4.9397e-06	52.333	100.233	-9.914	108.133	-46.278	-3.526	94.041	-46.449	-41.751	265.696	68.045	-42.321	-38.114	-37.227	-32.519	82.727	-33.303	-8191	255	
2575.676	1	1	0	0	0.15682	0.12215	0.31191	0.14547	0.23942	0.26595	0.051258	0.25997	0.082673	0.23045	0.08507	0.37503	0.14351	0.24468	0.12416	0.19301	0.45208	0.17917	-0.40208	0.1	-0.0625	-0.49167	0.18958	-0.675	0.11458	0.42917	-0.66875	0.1375	-0.0083333	-0.43333	0.33542	-0.60417	-1.327	3.650	110.061	200.777	33.092	86.901	248.104	273.698	264.623	-58.221	224.460	196.387	222.531	292.809	242.564	-34.934	0.00051892	0.00073756	0.00010209	1409.9	1.586e-06	2.823e-06	1411.8	374.59	3.6729e-06	1.9617e-06	427.52	141.92	123.75	41.918	7.7188e-06	52.008	0.00044875	0.00045204	0.00012649	1415.9	4.9458e-06	4.9741e-06	1417.5	377.4	4.9428e-06	4.9642e-06	428.82	143.27	124.58	42.354	4.9903e-06	52.238	83.540	39.235	264.584	-46.304	57.837	16.219	-46.492	-41.680	83.501	85.152	-42.459	-37.885	-37.436	-32.359	55.581	-33.463	-8191	255	
2575.772	1	1	0	0	0.028488	0.2868	0.10068	0.4926	0.16329	0.15645	0.29671	0.30856	0.15762	0.3054	0.14111	0.18009	0.21672	0.19463	0.17495	0.32728	0.61458	0.33958	-0.2875	-0.0083333	0.0125	-0.44375	0.34167	-0.35625	0.03125	0.36875	-0.49375	0.31042	0.045833	-0.48958	0.38958	-0.22708	123.422	-22.735	268.217	248.832	27.841	95.401	287.597	279.129	-12.544	47.869	271.054	233.481	-31.804	129.507	-24.374	224.649	0.00025524	0.00049379	0.00010559	1413.3	3.8391e-06	3.8586e-06	1413.3	375.99	4.1115e-06	5.3376e-06	430.32	141.76	123.32	41.747	5.4961e-06	51.629	0.00045529	0.00045421	0.0001263	1416.6	4.9748e-06	4.9798e-06	1418.5	378.03	4.9746e-06	4.986e-06	430.54	143.38	124.51	42.285	4.9038e-06	52.259	78.724	-7.094	103.944	-46.257	134.711	97.766	-46.360	-41.680	110.165	12.765	-42.113	-37.963	-37.412	-32.677	28.983	-33.441	-8191	255	
2575.868	1	1	0	0	0.23639	0.15807	0.18185	0.029247	0.065024	0.17228	0.12025	0.358	0.14801	0.070844	0.097598	0.080235	0.080988	0.099048	0.1797	0.089655	0.29792	0.52708	-0.38125	-0.022917	0.24583	-0.41458	0.095833	-0.19792	-0.44583	0.52708	-0.48958	-0.039583	0.14583	-0.63125	0.28958	-0.19167	157.410	235.702	204.644	61.867	34.731	4.068	237.419	253.797	98.321	113.013	294.389	243.937	102.266	122.872	140.955	269.520	0.00022182	0.00022326	0.00020427	1411.6	5.3792e-06	8.4746e-06	1412.5	373.79	4.3449e-06	4.326e-06	428.22	141.66	122.99	41.929	3.2558e-06	51.786	0.00045606	0.00045719	0.00012589	1416.4	4.9779e-06	4.9931e-06	1416.9	377.12	4.9726e-06	4.9724e-06	429.47	143.1	124.22	42.322	4.9026e-06	52.313	104.837	139.900	-21.050	-46.497	146.621	78.777	-46.550	-41.652	222.264	80.026	-41.966	-37.953	-37.230	-32.697	82.422	-33.289	-8191	255	
2575.964	1	1	0	0	0.23967	0.12518	0.20015	0.33412	0.15207	0.0906	0.24392	0.36836	0.036096	0.12252	0.076896	0.10058	0.20372	0.090257	0.080905	0.23497	0.19583	0.49167	-0.3	-0.17083	0.4	-0.61042	0.0041667	-0.25208	-0.39792	0.57083	-0.29375	-0.29792	0.22292	-0.70208	0.3	0.20417	-38.430	270.970	154.828	242.475	38.068	134.733	233.220	254.225	-4.420	132.176	248.591	131.082	285.107	-42.601	42.063	264.849	0.00023898	0.00023874	0.00016819	1416	3.2286e-06	5.7734e-06	1409.9	374.15	2.1985e-06	2.7931e-06	425.61	142.23	123.49	41.964	3.0153e-06	51.614	0.00045332	0.0004557	0.00012555	1417.4	4.999e-06	4.9852e-06	1416.7	377.29	4.9908e-06	4.9817e-06	428.56	143.71	124.54	42.264	4.8356e-06	52.278	113.572	189.402	1.182	-46.343	224.369	104.027	-46.504	-41.544	113.288	75.614	-42.280	-37.720	-37.443	-32.185	98.915	-33.239	-8191	255	
2576.061	1	1	0	0	0.16321	0.16336	0.1753	0.34709	0.096193	0.14463	0.1813	0.47588	0.10486	0.18429	0.29414	0.2007	0.36853	0.11285	0.075231	0.24099	0.089583	0.52917	-0.16042	-0.56042	0.59167	-0.19375	-0.075	0	-0.36042	0.30417	-0.20208	-0.10417	0.375	-0.35	0.014583	0.13125	94.588	13.396	299.918	259.414	241.712	41.251	180.976	209.456	133.127	141.026	224.962	251.052	180.674	170.188	75.787	233.466	0.00042676	0.00034209	0.00011275	1415.4	4.6536e-06	5.0442e-06	1411.3	376.27	2.1113e-06	5.8984e-06	430.21	141.95	123.05	41.972	3.5498e-06	51.848	0.00045117	0.00044583	0.00012307	1417.1	4.9479e-06	4.8769e-06	1417.4	377.84	4.9272e-06	4.8757e-06	429.42	143.38	124.45	42.302	4.8519e-06	52.336	86.296	284.712	177.162	-46.040	113.328	114.733	-46.517	-41.526	243.085	44.997	-42.073	-37.914	-37.091	-32.739	66.661	-33.211	-8191	255	
2576.157	1	1	0	0	0.10931	0.069822	0.017001	0.11637	0.19827	0.19395	0.16121	0.35737	0.26832	0.21216	0.12807	0.24001	0.335	0.28444	0.2482	0.096017	0.14167	0.43333	0.0041667	-0.51875	0.48542	-0.32917	-0.29375	0.12917	-0.35	0.27083	-0.18125	-0.21875	0.26667	-0.51667	0.1125	0.18542	36.073	93.778	300.105	271.540	156.087	-11.642	192.316	268.136	157.099	176.564	286.314	-29.065	298.365	35.279	68.317	119.131	0.0003802	0.0005342	0.00015633	1413.7	1.3626e-06	4.735e-06	1411.2	377.04	8.4246e-06	4.5628e-06	429.27	141.8	123.86	41.886	9.8373e-06	51.948	0.00045371	0.00044516	0.00012421	1418.3	4.92e-06	4.9164e-06	1417.5	378.58	4.901e-06	4.8456e-06	429.33	143.41	124.8	42.316	4.8539e-06	52.305	81.693	2.186	115.553	-46.136	82.748	103.488	-45.902	-41.475	5.118	60.692	-41.848	-37.970	-37.202	-32.406	53.591	-33.122	-8191	255	
2576.276	1	1	0	0	0.25176	0.15255	0.010002	0.29321	0.27987	0.076772	0.26477	0.079976	0.21794	0.049325	0.082744	0.15067	0.27929	0.13139	0.25459	0.24718	0.0041667	0.30208	0.047917	-0.70208	0.45	-0.13333	-0.2875	0.14375	-0.40625	0.10208	0.16042	-0.56667	0.40208	-0.2	-0.24792	0.37708	43.590	84.691	126.586	272.715	164.413	130.509	263.682	179.929	183.412	71.600	189.849	130.975	297.643	25.392	118.985	258.620	0.00030831	0.00079124	9.486e-05	1425.2	4.2202e-06	3.267e-06	1414.9	374.8	4.0426e-06	5.8475e-06	428.41	142.61	124.39	41.861	2.5989e-06	51.652	0.00044596	0.0004396	0.00012376	1420.5	4.8701e-06	4.7976e-06	1419.2	377.51	4.8152e-06	4.8085e-06	429.41	143.58	124.74	42.316	4.8086e-06	52.302	98.328	-12.918	208.862	-45.963	33.844	147.661	-46.134	-41.521	216.334	-16.117	-41.662	-37.625	-37.148	-32.158	24.493	-33.114	-8191	255	
2576.372	1	1	0	0	0.22713	0.12885	0.21372	0.23735	0.28052	0.33894	0.32531	0.30435	0.085447	0.31292	0.222	0.21585	0.087625	0.20569	0.25114	0.21547	0.05	0.10208	0.23125	-0.48542	0.33333	-0.30833	-0.34792	0.26875	-0.34792	-0.047917	0.12917	-0.65833	0.095833	-0.3125	-0.25	0.37083	179.653	88.002	30.178	230.325	230.131	89.200	215.343	-28.803	-46.848	-13.705	-59.130	-5.006	13.479	13.469	286.392	-35.295	0.0002864	0.00034965	0.00018369	1418.6	4.7756e-06	5.9208e-06	1411.1	374.19	3.96e-06	7.336e-06	430.02	142.07	123.8	41.854	3.1778e-06	51.85	0.00043716	0.00043658	0.00012196	1418.1	4.7583e-06	4.7395e-06	1416.8	377.12	4.7483e-06	4.7346e-06	429.71	143.43	124.43	42.236	4.8405e-06	52.273	90.568	-14.986	24.141	-45.968	2.323	28.125	-46.090	-41.194	138.732	116.724	-41.612	-37.193	-37.275	-31.964	269.406	-33.101	-8191	255	
2576.468	1	1	0	0	0.13005	0.21087	0.13158	0.079397	0.24146	0.30444	0.3425	0.17256	0.069621	0.29651	0.29595	0.20622	0.22366	0.17617	0.21583	0.085401	0.047917	-0.020833	0.3375	-0.58958	0.4125	0.05	-0.65417	0.14583	-0.30417	-0.052083	0.4125	-0.52708	0.28333	0.1	-0.41875	0.29583	115.487	-7.182	56.412	80.190	69.621	99.594	235.979	248.122	197.804	153.719	293.747	281.739	39.990	104.035	168.314	-7.070	0.00039724	0.00017763	0.00022491	1413.5	6.6832e-06	3.1078e-06	1418.8	375.73	9.5282e-06	3.6453e-06	429.56	142.45	123.91	42.019	5.8169e-06	51.78	0.00043711	0.00043867	0.00012278	1416.5	4.7961e-06	4.7854e-06	1419.9	377.74	4.7807e-06	4.8151e-06	429.09	143.56	124.45	42.35	4.819e-06	52.276	89.122	237.715	15.789	-45.826	49.080	72.461	-46.065	-41.187	48.604	54.037	-41.568	-37.619	-37.058	-32.070	11.357	-33.126	-8191	255	
2576.564	1	1	0	0	0.36867	0.0051229	0.096683	0.4581	0.14449	0.12508	0.2664	0.11947	0.098902	0.24997	0.18846	0.078874	0.11648	0.19077	0.23405	0.065995	0.30417	0.016667	0.49375	-0.68125	0.20208	0.2125	-0.61042	0.072917	-0.09375	-0.175	0.30208	-0.28125	-0.11667	0.04375	-0.49792	0.31042	62.064	21.569	200.448	242.312	195.595	16.646	236.690	272.719	12.793	186.635	224.068	77.891	146.581	227.049	-47.546	223.041	0.00030158	0.0006034	9.6477e-05	1416.8	3.78e-06	1.4721e-06	1414.3	376.1	2.5145e-06	8.4093e-06	427.6	142.52	123.25	41.794	1.708e-06	52.076	0.00043857	0.00043781	0.0001232	1418.4	4.79e-06	4.867e-06	1420.6	377.68	4.8501e-06	4.8399e-06	429.24	143.69	124.45	42.348	4.8777e-06	52.215	86.565	-43.890	98.707	-45.829	232.205	24.041	-46.091	-41.241	64.340	82.120	-42.120	-37.794	-37.386	-32.508	246.194	-33.281	-8191	255	
2576.660	1	1	0	0	0.28163	0.069082	0.20836	0.1355	0.26503	0.31912	0.34172	0.2094	0.14982	0.13399	0.076119	0.12388	0.4343	0.15603	0.33368	0.10483	0.38333	-0.079167	0.63333	-0.56042	0.12917	0.30625	-0.58125	0.23125	0.13333	-0.014583	0.052083	-0.42917	-0.36875	0.26042	-0.27917	0.21458	259.568	5.538	12.716	244.829	100.598	187.980	269.711	-40.419	33.309	213.416	138.190	299.548	270.297	15.914	298.329	278.142	0.0002418	0.00025849	0.00021974	1417	1.0064e-06	9.5459e-06	1412.3	374.88	3.3482e-06	2.4227e-06	428.58	142.37	123.7	41.704	4.0087e-06	51.742	0.00044664	0.00044894	0.00012565	1419.2	4.9534e-06	4.9822e-06	1419	377.22	4.9584e-06	5.0099e-06	428.96	143.64	124.59	42.286	5.0142e-06	52.412	120.748	-41.526	-27.854	-46.474	207.707	138.292	-46.418	-41.724	124.508	182.546	-42.337	-38.260	-37.313	-32.509	75.265	-33.708	-8191	255	
2576.756	1	1	0	0	0.11802	0.0095404	0.19953	0.45584	0.083499	0.24883	0.31607	0.076267	0.079107	0.084184	0.10405	0.099198	0.11063	0.28838	0.085504	0.06438	0.55625	-0.23333	0.525	-0.42708	-0.25625	0.45625	-0.59792	0.041667	0.27292	-0.47708	0.29375	-0.18125	-0.375	0.3875	-0.41042	0.27708	173.974	183.506	237.857	214.367	201.826	288.964	202.017	-58.424	50.205	-54.116	192.892	5.251	-27.455	-2.619	203.266	79.730	0.00045487	0.00068581	0.00019816	1413.4	2.205e-06	3.7041e-06	1417	373.42	3.5981e-06	2.2067e-06	428.32	141.88	123.28	41.736	2.6443e-06	51.817	0.00046233	0.00046089	0.00012819	1417.3	5.0469e-06	5.1106e-06	1420.2	376.87	5.0754e-06	5.0563e-06	429.53	143.46	124.56	42.324	5.0043e-06	52.367	73.482	51.786	-3.245	-46.315	288.784	49.977	-46.267	-41.468	96.001	253.469	-42.199	-37.731	-37.296	-32.463	266.663	-33.245	-8191	255	
2576.853	1	1	0	0	0.28196	0.20465	0.065442	0.12508	0.12889	0.019962	0.26091	0.28687	0.30204	0.1538	0.072363	0.21491	0.36865	0.04695	0.1657	0.25567	0.5625	-0.29167	0.29167	-0.42708	-0.060417	0.50417	-0.71875	-0.0375	0.26042	-0.38125	0.23333	-0.32708	-0.34375	0.28333	-0.37917	-0.11667	265.700	283.983	90.270	7.411	130.014	157.445	189.071	200.005	-15.705	225.141	269.127	282.842	-42.172	-59.002	212.042	235.732	0.00034186	0.00028381	0.0001507	1414.1	2.2095e-06	5.6418e-06	1412	374.55	4.4762e-06	5.1402e-06	426.52	141.69	123.04	41.707	2.0283e-06	51.584	0.00046129	0.00046119	0.00012766	1419.3	5.0577e-06	5.0466e-06	1420.7	377.95	5.113e-06	5.079e-06	429.54	143.51	124.45	42.292	5.082e-06	52.346	68.186	-46.280	11.868	-46.295	271.041	65.627	-46.482	-41.768	160.103	66.006	-42.095	-38.060	-37.504	-32.542	70.249	-33.543	-8191	255	
2576.973	1	1	0	0	0.21197	0.32684	0.13911	0.42499	0.19388	0.18666	0.23496	0.30359	0.15975	0.14474	0.060943	0.17408	0.13401	0.23826	0.076664	0.16541	0.70833	-0.35208	0.35625	-0.23125	-0.23333	0.30417	-0.46458	-0.16042	0.54375	-0.39167	0.11875	0.0125	-0.59167	0.29375	-0.175	-0.1625	160.435	170.215	206.641	280.450	274.706	157.204	-5.351	217.930	96.114	92.257	124.441	227.375	240.365	221.350	-2.113	21.866	0.00038632	0.00028294	0.00023679	1415.1	5.9514e-06	2.3143e-06	1420	373.59	3.8531e-06	8.971e-06	427.26	142.14	123.28	41.924	7.2072e-06	51.976	0.00046718	0.00046609	0.00012871	1419.3	5.095e-06	5.0967e-06	1422.9	377.33	5.1327e-06	5.0774e-06	429.7	143.73	124.56	42.33	5.0021e-06	52.415	91.610	-14.342	13.664	-46.447	82.290	11.987	-46.304	-42.004	72.140	91.780	-42.170	-37.826	-37.428	-32.620	91.955	-33.508	-8191	255	
#DATA ENDS
