BOXY.EXE: ISS Imagent and Oximeter Data Acquisition Program Version 0.80
Ascii Record File

#ACQ INFORMATION
2  Detector Channels 
16  External MUX Channels 
1  Auxiliary Channels 
5000  Waveform (CCF) Frequency (Hz)
1  Waveforms Skipped 
30  Waveforms Averaged 
1  Cycles Averaged 
16  Acquisitions per Waveform 
10.0806  Updata Rate (Hz) 

#FILE INFORMATION
TRUE -- External MUX Channel results are PARSED.
FALSE -- AC DC and Phase are NOT grouped.
TRUE -- Companion Program Settings File CREATED.
FALSE -- AC data not excluded
FALSE -- DC data not excluded
FALSE -- Phase data not excluded
FALSE -- Auxillary Chn. data not excluded
Tab delimiters

#CALIBRATION STATE
TRUE -- Waveform Calibration Values APPLIED.


#AUX CALIBRATION VALUES
Val Type	aux-1	

Term	1.0000e+00	
Factor	0.0000e+00	


#WF CALIBRATION VALUES
A = Detector Channel
Val Type	A-AC1	A-AC2	A-AC3	A-AC4	A-AC5	A-AC6	A-AC7	A-AC8	A-AC9	A-AC10	A-AC11	A-AC12	A-AC13	A-AC14	A-AC15	A-AC16	A-DC1	A-DC2	A-DC3	A-DC4	A-DC5	A-DC6	A-DC7	A-DC8	A-DC9	A-DC10	A-DC11	A-DC12	A-DC13	A-DC14	A-DC15	A-DC16	A-Ph1	A-Ph2	A-Ph3	A-Ph4	A-Ph5	A-Ph6	A-Ph7	A-Ph8	A-Ph9	A-Ph10	A-Ph11	A-Ph12	A-Ph13	A-Ph14	A-Ph15	A-Ph16	

Term	0.00000e+00	0.00000e+00	0.00000e+00	0.00000e+00	0.00000e+00	0.00000e+00	0.00000e+00	0.00000e+00	0.00000e+00	0.00000e+00	0.00000e+00	0.00000e+00	0.00000e+00	0.00000e+00	0.00000e+00	0.00000e+00	0.00000e+00	0.00000e+00	0.00000e+00	0.00000e+00	0.00000e+00	0.00000e+00	0.00000e+00	0.00000e+00	0.00000e+00	0.00000e+00	0.00000e+00	0.00000e+00	0.00000e+00	0.00000e+00	0.00000e+00	0.00000e+00	0.00000e+00	0.00000e+00	0.00000e+00	0.00000e+00	0.00000e+00	0.00000e+00	0.00000e+00	0.00000e+00	0.00000e+00	0.00000e+00	0.00000e+00	0.00000e+00	0.00000e+00	0.00000e+00	0.00000e+00	0.00000e+00	
Factor	1.00000e+00	1.00000e+00	1.00000e+00	1.00000e+00	1.00000e+00	1.00000e+00	1.00000e+00	1.00000e+00	1.00000e+00	1.00000e+00	1.00000e+00	1.00000e+00	1.00000e+00	1.00000e+00	1.00000e+00	1.00000e+00	1.00000e+00	1.00000e+00	1.00000e+00	1.00000e+00	1.00000e+00	1.00000e+00	1.00000e+00	1.00000e+00	1.00000e+00	1.00000e+00	1.00000e+00	1.00000e+00	1.00000e+00	1.00000e+00	1.00000e+00	1.00000e+00	X	X	X	X	X	X	X	X	X	X	X	X	X	X	X	X	

B = Detector Channel
Val Type	B-AC1	B-AC2	B-AC3	B-AC4	B-AC5	B-AC6	B-AC7	B-AC8	B-AC9	B-AC10	B-AC11	B-AC12	B-AC13	B-AC14	B-AC15	B-AC16	B-DC1	B-DC2	B-DC3	B-DC4	B-DC5	B-DC6	B-DC7	B-DC8	B-DC9	B-DC10	B-DC11	B-DC12	B-DC13	B-DC14	B-DC15	B-DC16	B-Ph1	B-Ph2	B-Ph3	B-Ph4	B-Ph5	B-Ph6	B-Ph7	B-Ph8	B-Ph9	B-Ph10	B-Ph11	B-Ph12	B-Ph13	B-Ph14	B-Ph15	B-Ph16	

Term	0.00000e+00	0.00000e+00	0.00000e+00	0.00000e+00	0.00000e+00	0.00000e+00	0.00000e+00	0.00000e+00	0.00000e+00	0.00000e+00	0.00000e+00	0.00000e+00	0.00000e+00	0.00000e+00	0.00000e+00	0.00000e+00	0.00000e+00	0.00000e+00	0.00000e+00	0.00000e+00	0.00000e+00	0.00000e+00	0.00000e+00	0.00000e+00	0.00000e+00	0.00000e+00	0.00000e+00	0.00000e+00	0.00000e+00	0.00000e+00	0.00000e+00	0.00000e+00	-1.89397e+02	-1.65226e+02	-1.57126e+02	-1.83573e+02	-7.86518e+01	-6.98634e+01	-1.59024e+02	-1.62015e+02	-7.23741e+01	-8.28070e+01	-1.70632e+02	-1.70941e+02	-1.78840e+02	-1.76518e+02	-1.05877e+02	-1.49938e+02	
Factor	3.42563e-05	9.17672e-05	3.45975e-05	1.69658e-01	8.77912e-07	9.10906e-07	1.63438e-01	4.72968e-02	9.51688e-07	1.02407e-06	8.13686e-02	2.67452e-02	2.20867e-02	8.52368e-03	9.30633e-07	1.22118e-02	6.57652e-07	6.67795e-07	1.85925e-07	8.48753e-02	7.31233e-09	7.30656e-09	7.73714e-02	2.37719e-02	7.30843e-09	7.30628e-09	3.87263e-02	1.27484e-02	1.10087e-02	4.19686e-03	7.29356e-09	5.76721e-03	X	X	X	X	X	X	X	X	X	X	X	X	X	X	X	X	



#DISTANCE SETTINGS
A = Detector Channel
A-1	A-2	A-3	A-4	A-5	A-6	A-7	A-8	A-9	A-10	A-11	A-12	A-13	A-14	A-15	A-16	

2.5000e+00	3.0000e+00	2.5000e+00	3.0000e+00	2.0000e+00	3.0000e+00	1.5000e+00	3.0000e+00	3.0000e+00	3.0000e+00	3.0000e+00	3.0000e+00	3.0000e+00	3.0000e+00	1.5000e+00	3.0000e+00	

B = Detector Channel
B-1	B-2	B-3	B-4	B-5	B-6	B-7	B-8	B-9	B-10	B-11	B-12	B-13	B-14	B-15	B-16	

1.0000e+01	1.0000e+01	1.0000e+01	1.4400e+00	1.0000e+01	1.0000e+01	1.5100e+00	1.9400e+00	1.0000e+01	1.0000e+01	1.9900e+00	2.4900e+00	2.4100e+00	2.9000e+00	1.0000e+01	2.9800e+00	




#DATA BEGINS
time	group	step	mark	flag	A-AC1	A-AC2	A-AC3	A-AC4	A-AC5	A-AC6	A-AC7	A-AC8	A-AC9	A-AC10	A-AC11	A-AC12	A-AC13	A-AC14	A-AC15	A-AC16	A-DC1	A-DC2	A-DC3	A-DC4	A-DC5	A-DC6	A-DC7	A-DC8	A-DC9	A-DC10	A-DC11	A-DC12	A-DC13	A-DC14	A-DC15	A-DC16	A-Ph1	A-Ph2	A-Ph3	A-Ph4	A-Ph5	A-Ph6	A-Ph7	A-Ph8	A-Ph9	A-Ph10	A-Ph11	A-Ph12	A-Ph13	A-Ph14	A-Ph15	A-Ph16	B-AC1	B-AC2	B-AC3	B-AC4	B-AC5	B-AC6	B-AC7	B-AC8	B-AC9	B-AC10	B-AC11	B-AC12	B-AC13	B-AC14	B-AC15	B-AC16	B-DC1	B-DC2	B-DC3	B-DC4	B-DC5	B-DC6	B-DC7	B-DC8	B-DC9	B-DC10	B-DC11	B-DC12	B-DC13	B-DC14	B-DC15	B-DC16	B-Ph1	B-Ph2	B-Ph3	B-Ph4	B-Ph5	B-Ph6	B-Ph7	B-Ph8	B-Ph9	B-Ph10	B-Ph11	B-Ph12	B-Ph13	B-Ph14	B-Ph15	B-Ph16	aux-1	digaux	

3692.405	1	1	0	512	0.32851	0.15827	0.3727	0.31906	0.32609	0.20728	0.057181	0.289	0.14711	0.2746	0.16647	0.19459	0.17759	0.24463	0.15962	0.19473	-1.2604	-0.62917	-0.9	-1.2792	-0.25208	-1.2896	-0.96458	-0.59375	-1.4417	-0.40625	-0.94167	-1.2229	-0.26875	-1.3542	-0.96875	-0.49583	132.730	136.177	314.306	228.081	3.263	216.287	214.241	332.921	259.107	91.685	103.716	-13.775	251.997	-1.470	163.525	35.058	5.9544e-05	2.8033e-05	1.8814e-05	186.45	1.7268e-07	3.0616e-07	220.64	38.385	5.6234e-07	7.1912e-07	72.772	22.522	10.516	2.9452	5.5133e-07	6.8225	2.8156e-06	2.3011e-06	4.6133e-07	158.6	2.3293e-08	1.5968e-08	190.66	32.674	1.8606e-08	1.956e-08	61.626	18.988	8.9603	2.4578	2.1151e-08	5.6827	69.969	21.489	13.429	-12.930	107.150	164.474	-13.556	-7.854	97.972	55.114	-9.926	-6.692	-3.653	3.209	83.948	-0.303	-8191	255	
3692.501	1	1	0	0	0.32592	0.37985	0.12126	0.19075	0.2038	0.077187	0.25681	0.16474	0.21388	0.20834	0.080788	0.15565	0.13381	0.073688	0.087784	0.17873	-1.1271	-0.5375	-0.72292	-1.5083	-0.15833	-1.5229	-0.92083	-0.29375	-1.6146	-0.36667	-0.775	-1.6292	-0.45625	-1.3042	-0.99792	-0.525	92.463	287.938	289.544	166.012	171.823	32.976	66.241	96.863	12.510	109.361	154.623	53.255	151.747	155.496	264.032	318.693	6.032e-05	6.6968e-05	1.7791e-05	183.94	8.3199e-07	1.3732e-06	222.92	38.302	4.3809e-07	5.9136e-07	73.844	22.908	10.696	2.8975	2.5452e-07	6.9795	2.6142e-06	2.2176e-06	4.9929e-07	157.82	2.6248e-08	1.6759e-08	190.83	33	1.5104e-08	2.4537e-08	61.735	19.154	9.0331	2.4643	1.7915e-08	5.7922	60.592	56.836	22.368	-13.025	70.009	138.334	-13.305	-8.186	165.975	117.102	-9.246	-5.577	-3.237	3.606	319.989	-0.770	-8191	255	
3692.597	1	1	0	0	0.095473	0.11025	0.16337	0.11449	0.10658	0.19715	0.17837	0.14763	0.10407	0.079462	0.11367	0.11405	0.14655	0.14874	0.060237	0.2573	-1.1021	-0.5	-0.775	-1.2625	-0.54792	-1.1208	-0.85417	-0.48958	-1.5771	-0.50833	-0.72083	-1.5271	-0.16667	-1.3062	-1.1042	-0.26042	330.847	47.503	274.398	127.468	149.714	105.657	44.773	-8.313	40.613	103.251	76.225	78.902	-17.512	219.148	203.252	236.974	5.4752e-05	8.6957e-05	3.0223e-05	186.45	6.5701e-07	6.6992e-07	224.57	38.06	7.0714e-07	1.4611e-07	73.181	22.605	10.612	2.91	6.2911e-07	6.8104	2.6854e-06	2.1328e-06	5.0974e-07	159.32	2.7452e-08	1.5389e-08	192.03	32.765	1.7236e-08	2.134e-08	61.4	18.952	8.9594	2.4333	1.9282e-08	5.6668	57.804	21.971	49.064	-12.852	145.864	81.719	-13.494	-8.010	64.510	32.619	-9.949	-5.515	-3.433	3.312	80.387	-0.027	-8191	255	
3692.716	1	1	0	0	0.040959	0.06345	0.18104	0.10925	0.30742	0.17637	0.19089	0.071667	0.10643	0.2303	0.097474	0.1879	0.14913	0.15637	0.23863	0.081112	-1.2417	-0.47917	-0.77292	-1.6313	-0.48333	-1.9042	-1.7042	-0.88333	-1.9792	-1.1479	-0.6125	-1.4625	-0.29792	-1.1833	-1.2708	-0.45833	228.611	195.161	180.721	142.089	163.903	238.310	263.888	1.403	90.240	162.672	184.159	155.213	187.209	-22.876	2.076	258.744	4.921e-05	2.5956e-05	3.1696e-05	188.46	4.0838e-07	1.9639e-07	224.7	38.275	6.1489e-07	5.9039e-07	74.031	22.054	10.41	2.8868	1.2445e-06	6.7529	2.647e-06	2.1495e-06	5.264e-07	160.15	2.4847e-08	1.3989e-08	192.5	32.701	1.5698e-08	1.8281e-08	61.447	18.726	8.7901	2.4224	1.5575e-08	5.6344	58.377	81.530	59.769	-12.612	133.180	176.096	-13.522	-7.714	159.995	124.590	-10.487	-6.031	-3.629	2.697	66.467	-0.447	-8191	255	
3692.812	1	1	0	0	0.23926	0.10228	0.075512	0.16381	0.13321	0.29413	0.22589	0.048658	0.16677	0.21731	0.21583	0.18599	0.25102	0.13145	0.09747	0.20916	-1.1021	-0.69583	-0.40208	-1.475	-0.37917	-0.98542	-1.4042	-0.23333	-1.3917	-0.83333	-0.61875	-1.5583	-0.31875	-1.0021	-1.3104	-0.4625	110.636	294.190	147.740	-5.002	99.736	-5.880	299.593	98.872	45.004	158.466	98.351	322.304	12.970	201.090	317.688	183.156	4.9194e-05	8.0396e-05	2.7423e-05	189.9	7.3476e-07	5.641e-07	229.59	38.344	5.1812e-07	1.2648e-06	72.386	22.535	10.36	2.8639	6.9189e-07	6.755	2.9046e-06	2.002e-06	5.8799e-07	162.13	2.1861e-08	1.8906e-08	197.19	32.775	1.8195e-08	1.9605e-08	61.161	18.864	8.7672	2.4192	1.7185e-08	5.6819	59.854	38.027	47.747	-13.314	137.620	88.044	-13.712	-8.488	72.538	96.081	-9.652	-6.273	-3.726	2.466	112.746	-0.731	-8191	255	
3692.884	1	1	0	0	0.17075	0.26417	0.19442	0.3189	0.35406	0.12618	0.078578	0.12298	0.14467	0.12371	0.078505	0.19345	0.052209	0.26342	0.1328	0.14319	-1.2542	-0.85	-0.67917	-1.5292	-0.47917	-0.94583	-1.3021	-0.27917	-1.2396	-0.75	-0.52708	-1.5438	-0.34375	-0.96042	-1.1542	-0.275	178.702	132.752	-13.485	226.030	127.972	233.685	171.914	137.997	325.010	255.202	36.697	245.618	16.737	-5.058	268.665	196.721	5.0426e-05	6.5854e-05	9.4341e-06	190.11	2.5344e-07	2.9513e-07	232.61	38.249	4.8676e-07	4.5177e-07	73.855	22.594	10.535	2.8885	5.9576e-07	7.0296	2.9444e-06	2.2719e-06	5.357e-07	162.46	2.052e-08	1.7155e-08	199.23	32.844	1.9824e-08	1.7885e-08	62.302	18.94	8.8516	2.4697	1.7413e-08	5.8263	49.373	25.047	154.077	-12.213	140.898	240.968	-13.519	-8.010	109.706	90.859	-9.917	-6.147	-2.327	1.891	45.354	-0.798	-8191	255	
3693.005	1	1	0	0	0.39596	0.28835	0.25956	0.089315	0.088271	0.065285	0.12456	0.23347	0.17719	0.10669	0.034077	0.12772	0.25546	0.10943	0.22554	0.080248	-1.0021	-0.87083	-0.34792	-1.5063	-0.18333	-0.91042	-1.4354	-0.0625	-1.3896	-1.1458	-0.53125	-1.6875	-0.44792	-0.92292	-1.3396	-0.16458	187.531	19.434	38.861	-14.381	245.755	326.833	307.574	206.822	142.361	35.472	72.270	77.419	82.845	186.720	187.451	277.003	4.5347e-05	8.3274e-05	3.442e-05	192.36	7.2485e-07	4.1869e-07	235.45	38.438	7.0325e-07	2.8991e-07	74.408	22.455	10.589	2.9844	6.1604e-07	7.0313	2.8991e-06	2.027e-06	5.6707e-07	163.66	2.1967e-08	2.0093e-08	201.55	32.991	2.2413e-08	1.3928e-08	62.143	18.93	8.8122	2.4771	1.5484e-08	5.7603	76.486	-5.739	94.931	-12.959	112.365	67.838	-13.277	-7.604	101.259	-12.827	-10.288	-5.440	-3.426	3.406	98.205	-0.122	-8191	255	
3693.101	1	1	0	0	0.23285	0.32669	0.15338	0.13474	0.064352	0.22133	0.066964	0.27311	0.1179	0.19643	0.15351	0.25031	0.2569	0.12907	0.15517	0.28937	-0.92708	-1.4937	-0.85417	-2.0958	-0.92083	-1.1146	-1.6521	-0.45833	-0.9625	-1.1708	-0.3375	-1.4146	-0.62917	-0.65208	-1.4604	-0.52708	129.592	295.778	8.198	256.968	24.457	-7.897	231.737	217.941	233.907	80.855	316.626	81.706	177.524	320.492	1.388	176.737	6.5761e-05	2.8841e-05	2.832e-05	196.37	2.0572e-07	1.0132e-06	239.39	38.158	7.3382e-07	8.443e-07	73.041	21.991	10.228	2.928	4.2365e-07	7.0347	2.5265e-06	1.2744e-06	4.9309e-07	165.76	2.0383e-08	1.7901e-08	204.75	32.794	1.9459e-08	1.9879e-08	61.276	18.564	8.671	2.4582	1.597e-08	5.7115	79.550	2.459	60.647	-12.839	170.268	96.084	-13.554	-7.352	85.589	144.252	-9.595	-6.369	-3.289	2.837	110.522	-0.603	-8191	255	
3693.197	1	1	0	0	0.098255	0.15579	0.1359	0.11146	0.16602	0.19666	0.06359	0.11739	0.20158	0.28595	0.023166	0.22989	0.11591	0.16502	0.23698	0.083916	-1.0333	-1.1458	-0.38958	-1.5063	-0.68333	-0.46875	-1.4562	-0.55833	-1.2854	-1.2062	-0.25208	-1.3896	-0.5625	-0.5	-1.4875	-0.375	37.208	5.029	137.478	122.419	98.604	251.030	110.722	45.478	170.928	153.551	65.906	228.874	75.027	231.818	133.047	190.607	4.1536e-05	5.6141e-05	2.6362e-05	198.26	2.3347e-07	6.2996e-07	243.29	38.277	5.7131e-07	1.1024e-06	73.737	22.709	10.221	2.9359	5.5059e-07	6.9144	2.8005e-06	1.8337e-06	6.1007e-07	167.8	2.0673e-08	2.2041e-08	208.15	32.858	2.2336e-08	1.8281e-08	61.324	18.624	8.659	2.4775	1.173e-08	5.841	54.477	60.731	40.658	-12.793	155.916	85.055	-13.952	-7.297	117.105	142.687	-10.062	-5.153	-3.817	1.939	164.725	-1.184	-8191	255	
3693.293	1	1	0	0	0.030108	0.097332	0.012498	0.091183	0.22583	0.18422	0.10281	0.1976	0.058066	0.083458	0.30628	0.18393	0.12386	0.12692	0.28886	0.17742	-0.66042	-1.3792	-0.30208	-1.2667	-0.6375	-0.66875	-1.5938	-0.4375	-1.1021	-1.3312	-0.225	-1.4646	-0.7375	-0.61458	-1.4833	-0.375	212.632	9.416	14.214	257.831	-2.100	166.523	188.878	334.089	220.006	52.484	294.495	316.985	236.878	298.431	226.993	44.579	6.5797e-05	7.1286e-05	4.5693e-05	200.28	5.6873e-07	6.2338e-07	243.79	38.483	4.2411e-07	4.7685e-07	73.695	22.373	10.268	2.92	4.9091e-07	7.1037	3.3239e-06	1.6333e-06	6.7398e-07	170.45	2.1236e-08	1.9378e-08	211.65	32.881	2.1194e-08	1.303e-08	61.381	18.684	8.6499	2.4835	1.4952e-08	5.9049	62.835	39.451	40.081	-12.580	177.486	146.817	-13.056	-7.623	193.801	26.180	-9.632	-5.252	-2.568	1.147	28.076	-2.716	-8191	255	
3693.414	1	1	0	0	0.18104	0.09574	0.11781	0.26661	0.24033	0.26512	0.10043	0.029334	0.10562	0.14062	0.038385	0.12592	0.24887	0.12768	0.069626	0.17101	-0.54375	-1.5625	-0.275	-1.4083	-0.94167	-0.44583	-1.6729	-0.52708	-0.74167	-1.2667	-0.23333	-1.4083	-0.81458	-0.5625	-1.2437	-0.65625	181.206	179.148	215.769	315.664	38.416	319.212	131.224	148.404	298.893	264.471	80.450	43.341	-13.294	89.146	39.484	191.188	7.0112e-05	7.2128e-05	4.5851e-05	198.61	4.4205e-07	3.5972e-07	251.92	37.579	6.7959e-07	7.3466e-07	74.622	22.012	10.066	2.9543	5.0337e-07	6.9811	3.0512e-06	1.337e-06	6.9335e-07	171.94	2.4024e-08	2.1981e-08	215.63	32.565	2.2763e-08	1.8738e-08	61.526	18.469	8.5643	2.4679	1.4997e-08	5.816	51.430	66.276	48.954	-12.744	71.362	150.887	-14.123	-8.274	119.372	135.413	-9.776	-5.423	-2.883	4.628	125.205	-0.609	-8191	255	
3693.510	1	1	0	0	0.3023	0.19802	0.057005	0.14117	0.12956	0.050329	0.25688	0.057946	0.17027	0.11319	0.10789	0.099544	0.12113	0.35595	0.17773	0.29094	-0.42292	-1.2958	-0.4	-1.3208	-0.80625	-0.28542	-1.6104	-0.60208	-0.58958	-1.4708	-0.34375	-1.3021	-1.075	-0.35	-1.5312	-0.55	252.446	266.147	311.257	36.851	286.283	307.289	307.746	141.703	150.299	217.514	-7.306	189.000	334.549	76.963	309.657	299.180	4.3898e-05	5.7846e-05	1.7095e-05	197.83	5.6416e-07	6.9048e-07	243.64	37.66	4.6577e-08	7.1215e-07	72.284	21.383	10.027	2.8021	3.8697e-07	6.8256	2.9252e-06	1.7557e-06	4.7411e-07	169.74	1.7047e-08	2.3061e-08	211.05	32.284	2.6661e-08	1.6226e-08	60.563	18.113	8.5277	2.408	1.5301e-08	5.6369	70.790	-14.113	70.538	-13.081	153.364	115.836	-14.555	-7.284	-23.670	107.877	-10.187	-5.804	-3.984	2.911	124.389	-0.944	-8191	255	
3693.582	1	1	0	0	0.065848	0.11169	0.098224	0.1523	0.19251	0.032208	0.23811	0.043151	0.11421	0.055463	0.2967	0.2729	0.24747	0.24547	0.045778	0.40508	-0.48333	-1.4896	-0.24167	-1.1688	-1.3542	-0.3875	-1.6896	-0.46042	-0.68958	-1.5646	-0.43542	-0.97917	-1.3563	-0.27083	-1.3792	-0.73542	32.374	272.850	207.279	37.865	7.932	156.518	169.360	309.595	255.904	-26.011	251.025	120.833	269.261	320.792	90.328	146.694	6.1194e-05	8.9632e-05	1.5909e-05	195.03	5.1789e-07	2.8298e-07	241.9	36.357	1.9433e-07	6.4569e-08	73.382	21.68	10.007	2.8726	9.1508e-07	6.7018	3.2184e-06	1.4135e-06	5.2795e-07	166.89	1.8799e-08	1.953e-08	207.21	31.925	2.3417e-08	1.3486e-08	60.674	18.216	8.4918	2.4111	1.4101e-08	5.6251	75.409	-4.940	8.440	-12.105	75.605	191.800	-13.344	-8.628	305.548	-14.298	-10.122	-5.564	-3.379	3.598	72.678	-0.102	-8191	255	
3693.678	1	1	0	0	0.28522	0.29622	0.16375	0.2246	0.099804	0.19137	0.05503	0.052655	0.29078	0.039827	0.153	0.13233	0.19028	0.22545	0.12526	0.32358	-0.21458	-1.5667	-0.50625	-1.1708	-1.2604	-0.3375	-1.5604	-0.73125	-0.8125	-1.5396	-0.51875	-1.0958	-1.125	-0.3	-1.3729	-0.7375	284.498	87.877	247.727	97.486	307.865	147.080	20.852	324.789	136.092	155.379	259.577	286.522	216.703	31.367	240.841	271.031	4.1782e-05	6.7256e-05	3.0352e-05	195.33	6.2421e-07	1.1742e-07	241.08	36.821	5.7376e-07	2.0189e-07	73.053	21.667	10.225	2.8861	5.0218e-07	6.9875	2.795e-06	1.4441e-06	6.3718e-07	166.62	1.7915e-08	2.4827e-08	207.38	31.855	2.3935e-08	1.4658e-08	60.769	18.287	8.5644	2.4474	1.5377e-08	5.7895	82.639	49.217	9.170	-13.449	115.020	77.419	-13.783	-7.096	111.327	115.041	-9.954	-5.124	-3.194	2.657	17.403	-2.033	-8191	255	
3693.797	1	1	0	0	0.21612	0.049243	0.20311	0.02851	0.1784	0.20141	0.18109	0.1172	0.045028	0.14738	0.27694	0.11986	0.14659	0.15517	0.036341	0.15088	-0.30833	-1.5958	-0.34375	-0.80833	-1.1938	-0.41875	-1.3208	-0.91042	-0.50625	-1.5688	-0.4625	-0.99792	-1.3208	-0.30208	-1.1458	-0.9625	-20.513	224.152	100.851	44.906	326.836	235.766	294.595	260.691	291.721	303.396	217.069	135.221	299.381	310.284	13.326	-4.234	2.8561e-05	7.1245e-05	7.3129e-06	197.1	6.0394e-07	6.7213e-07	246.98	37.286	6.5759e-07	5.7892e-07	72.846	21.594	10.125	2.8148	5.6333e-07	7.0176	3.1006e-06	1.5095e-06	5.233e-07	169.1	1.9103e-08	2.3366e-08	212.28	32.367	2.4681e-08	1.4399e-08	61.238	18.412	8.6147	2.4182	1.7474e-08	5.7559	77.606	25.095	69.816	-12.565	192.458	160.200	-13.709	-7.306	140.024	87.786	-10.812	-4.799	-3.071	2.393	89.801	-1.397	-8191	255	
3693.893	1	1	0	0	0.23484	0.095295	0.12164	0.19446	0.10887	0.21366	0.16409	0.15917	0.12229	0.084365	0.047531	0.32577	0.069514	0.11989	0.14519	0.22436	-0.22083	-1.4917	-0.4375	-0.99583	-1.6708	-0.35	-1.4625	-1.1229	-0.36875	-1.5021	-0.53125	-0.88125	-1.6063	-0.14167	-1.2563	-0.95833	275.183	67.573	238.137	22.129	129.053	286.927	313.682	311.486	-18.041	289.438	165.693	223.618	25.692	267.401	194.800	243.427	5.6903e-05	6.4476e-05	2.8738e-05	203.35	9.2318e-07	3.9781e-07	249.82	37.263	5.8485e-07	3.4666e-07	71.915	21.638	10.295	2.8358	2.816e-07	6.6661	3.0663e-06	1.5958e-06	5.938e-07	172.08	1.4076e-08	2.0534e-08	214.16	32.19	2.8701e-08	8.6762e-09	60.333	18.087	8.5355	2.4045	1.6821e-08	5.6356	74.044	65.915	25.133	-12.412	146.769	116.018	-13.945	-8.263	162.719	161.703	-9.735	-5.301	-2.429	3.122	47.392	-1.215	-8191	255	
3693.989	1	1	0	0	0.13221	0.082556	0.2961	0.11856	0.18881	0.22076	0.15041	0.044176	0.19037	0.21067	0.12599	0.14084	0.13405	0.13635	0.11838	0.14815	0.089583	-1.5542	-0.28333	-0.68333	-1.5375	-0.12292	-1.2042	-1.0187	-0.1875	-1.4208	-0.43333	-0.59375	-1.3833	-0.46042	-1.1562	-1.1313	252.372	215.412	135.993	299.536	333.402	272.477	25.343	243.246	110.798	13.515	244.176	152.327	220.315	224.563	218.019	270.248	3.6837e-05	7.4478e-05	1.829e-05	202.97	4.6751e-07	6.2442e-07	254.44	37.491	3.5232e-07	7.3894e-07	72.995	21.928	9.9992	2.8558	8.304e-07	6.742	3.2321e-06	1.5262e-06	5.5623e-07	173.93	1.531e-08	2.0123e-08	218.38	32.592	2.628e-08	1.5374e-08	61.467	18.314	8.5348	2.4273	1.9617e-08	5.6819	90.919	59.241	6.234	-12.944	132.179	103.383	-13.062	-8.155	147.187	191.683	-9.810	-4.707	-2.752	2.971	101.354	-0.303	-8191	255	
3694.085	1	1	0	0	0.27775	0.079557	0.26559	0.18473	0.085615	0.2364	0.1645	0.16495	0.14581	0.16873	0.12857	0.069368	0.10453	0.17817	0.25641	0.19087	-0.066667	-1.1125	-0.6625	-0.50625	-1.375	-0.55208	-1.1104	-1.0708	-0.34792	-1.1	-0.66667	-0.64792	-1.4542	-0.44375	-1.0104	-1.0625	238.949	258.629	169.535	245.245	136.845	204.886	283.883	261.029	326.968	145.131	78.349	38.025	30.396	247.520	292.358	29.517	6.0598e-05	2.0582e-05	2.0636e-05	206.31	7.2206e-07	8.8047e-07	259.89	38.874	2.4774e-07	8.3225e-07	73.216	21.823	10.198	2.8529	4.6956e-07	6.9022	3.4116e-06	1.6041e-06	3.9393e-07	175.69	1.8631e-08	2.1798e-08	221.9	33.222	2.328e-08	1.6454e-08	61.904	18.409	8.6664	2.4399	2.0756e-08	5.7971	64.268	139.103	39.543	-12.275	105.112	177.997	-14.117	-7.184	104.096	135.731	-10.367	-5.632	-1.962	3.576	111.368	-0.700	-8191	255	
3694.181	1	1	0	0	0.11009	0.131	0.10134	0.22329	0.17197	0.15993	0.27971	0.11107	0.09623	0.14802	0.31549	0.091305	0.29659	0.14617	0.18047	0.29491	-0.175	-1.1187	-0.66875	-0.65833	-1.4083	-0.57917	-1.2958	-1.5854	-0.46667	-1.6771	-0.9875	-0.825	-1.3771	-0.42083	-0.98542	-1.1854	276.878	229.344	267.210	90.618	0.220	281.289	315.792	106.401	286.648	140.514	-9.154	154.509	228.841	109.064	316.663	-2.152	7.0044e-05	5.2345e-05	1.9838e-05	203.06	2.2502e-07	6.2263e-07	256.09	38.254	6.678e-07	9.2265e-07	74.108	21.857	10.452	2.8668	5.1045e-07	7.0045	3.4814e-06	1.497e-06	5.0742e-07	174.41	1.8357e-08	2.0474e-08	221.61	32.979	2.564e-08	1.236e-08	62.256	18.521	8.6958	2.4183	1.9738e-08	5.7781	75.090	24.435	38.765	-12.603	157.056	128.555	-13.780	-7.125	118.644	174.355	-9.830	-6.002	-3.046	3.112	100.866	-1.538	-8191	255	
3694.277	1	1	0	0	0.078111	0.073775	0.11663	0.12738	0.15046	0.34257	0.12514	0.17772	0.41615	0.1325	0.042336	0.13311	0.18442	0.082606	0.13509	0.095493	-0.12083	-1.3792	-0.975	-0.58542	-1.2604	-0.49792	-0.90417	-1.1333	-0.24583	-1.1667	-1.0333	-0.48958	-1.4125	-0.42292	-0.725	-1.3292	160.658	109.088	80.284	19.651	331.104	67.737	44.775	29.818	63.268	69.288	245.850	257.025	4.416	284.325	63.158	-25.068	5.834e-05	7.8909e-05	1.4306e-05	207.2	3.2979e-07	2.4062e-07	257.07	37.961	8.0417e-08	3.8781e-07	74.29	21.523	10.175	2.8451	4.8711e-07	6.9175	3.2307e-06	1.3871e-06	4.7217e-07	175.31	1.6818e-08	2.0671e-08	223.14	33.075	2.5884e-08	1.6957e-08	62.301	18.105	8.5985	2.4099	1.8447e-08	5.6718	60.442	24.882	100.331	-12.096	124.723	119.216	-13.185	-7.546	270.579	81.645	-10.006	-5.575	-2.289	3.870	-9.629	-1.382	-8191	255	
3694.398	1	1	0	0	0.31656	0.29045	0.27362	0.31726	0.2671	0.15436	0.22323	0.040629	0.027263	0.16561	0.13514	0.18139	0.37703	0.068415	0.13885	0.14663	0.29792	-1.4375	-1.0396	-0.33542	-1.525	-0.64375	-0.58333	-1.3646	-0.45833	-1.0875	-1.0396	-0.09375	-1.3479	-0.61042	-0.76875	-1.4521	294.281	1.188	223.654	319.399	239.186	238.172	234.997	264.570	263.308	108.253	173.387	113.860	3.383	120.153	190.909	246.318	3.9824e-05	7.6263e-05	2.5645e-05	202.27	6.1871e-08	4.5031e-07	253.23	38.799	3.4981e-07	4.8625e-07	74.33	21.585	10.092	2.8296	3.2861e-07	6.921	3.3102e-06	1.7544e-06	3.6681e-07	172.69	1.9302e-08	1.7962e-08	218.47	33.145	2.3402e-08	1.5526e-08	62.039	18.204	8.5118	2.3947	2.3172e-08	5.6924	76.476	53.805	28.241	-12.976	208.786	142.732	-13.357	-6.996	120.421	82.197	-10.330	-5.476	-3.318	2.567	83.786	-1.373	-8191	255	
3694.494	1	1	0	0	0.30351	0.17082	0.30612	0.11397	0.22755	0.089399	0.084832	0.27993	0.17524	0.20805	0.1316	0.13964	0.10927	0.085388	0.29149	0.17251	-0.0020833	-1.1437	-1.0083	-0.4375	-1.2104	-0.48333	-0.59375	-1.4229	-0.20833	-1.2	-1.1958	-0.30625	-1.5146	-0.80833	-1.2104	-1.9229	148.495	61.926	216.234	297.593	254.979	192.286	250.362	326.121	272.379	127.025	251.653	332.846	292.000	99.045	171.351	196.249	5.8523e-05	9.5195e-05	1.2896e-05	201.1	8.8307e-07	5.2976e-07	248.56	38.019	9.4515e-07	6.7945e-07	74.524	21.611	10.192	2.8186	9.5236e-07	6.9424	2.8841e-06	1.874e-06	3.9354e-07	172.46	2.215e-08	2.0428e-08	214.82	32.887	2.4925e-08	1.6515e-08	62.358	18.242	8.6071	2.4316	1.6562e-08	5.8434	68.515	21.354	26.913	-12.648	141.939	159.561	-13.198	-7.933	148.808	130.642	-10.567	-4.644	-2.082	2.127	105.447	-0.525	-8191	255	
3694.590	1	1	0	0	0.30358	0.1133	0.11621	0.13813	0.19206	0.20532	0.19407	0.17357	0.074802	0.43901	0.2819	0.18881	0.14398	0.36244	0.27001	0.099668	-0.51667	-1.8104	-1.5917	-0.0083333	-1.4479	-0.825	-0.62917	-1.5458	-0.42917	-0.85208	-1.3	-0.22708	-1.2417	-0.90833	-1.0542	-2.0604	191.141	90.949	28.616	10.690	214.588	74.881	206.881	312.581	128.599	66.482	165.627	-21.633	116.525	-5.536	136.518	259.074	6.2573e-05	3.6808e-05	3.8787e-05	205.95	7.7654e-07	3.6749e-07	247.89	37.91	4.5865e-07	5.0314e-07	74.492	21.9	10.38	2.9509	6.4744e-07	6.9755	2.8128e-06	1.3912e-06	2.2543e-07	175.35	1.921e-08	1.4963e-08	216.18	32.788	2.4757e-08	1.7429e-08	62.923	18.564	8.8145	2.4976	1.9434e-08	5.91	47.401	92.134	4.868	-12.592	119.083	327.530	-13.889	-7.129	98.225	98.598	-10.787	-5.784	-1.535	1.952	87.511	-1.390	-8191	255	
3694.686	1	1	0	0	0.063727	0.15703	0.051444	0.16032	0.20148	0.35179	0.018439	0.13036	0.23337	0.29903	0.1643	0.17893	0.25127	0.20627	0.077195	0.16712	-0.8125	-1.2354	-1.6542	-0.85	-1.7667	-1.4438	-1.1938	-2.1125	-0.99583	-1.35	-1.8917	-0.84792	-1.7125	-1.6125	-0.90208	-2.0521	122.675	252.706	278.982	305.101	296.106	289.072	55.113	259.041	303.068	185.154	19.975	210.598	190.053	333.550	279.233	239.891	5.2771e-05	6.7983e-05	1.2274e-05	206.39	8.4416e-08	3.568e-07	252.63	38.34	7.4807e-07	1.4119e-07	75.116	22.49	10.428	2.9523	6.5097e-07	7.1366	2.7621e-06	1.7057e-06	1.8244e-07	178.02	1.5523e-08	1.1767e-08	216.32	32.89	2.1377e-08	1.7824e-08	63.388	18.812	8.8916	2.5023	1.6912e-08	5.862	67.452	60.707	45.649	-12.377	300.898	-6.488	-13.614	-7.369	84.726	168.149	-10.508	-5.635	-2.003	2.109	126.543	-0.889	-8191	255	
3694.781	1	1	0	0	0.23902	0.20464	0.035048	0.14207	0.06948	0.1158	0.23401	0.36492	0.21971	0.070938	0.26713	0.080001	0.21876	0.1041	0.065263	0.12398	-0.65	-1.3896	-1.9521	-0.82708	-1.5708	-1.2437	-0.6	-1.5583	-0.74167	-0.79375	-1.5	-0.4875	-1.1667	-1.0667	-0.41875	-1.6771	227.215	193.235	-19.581	-5.653	125.854	-19.967	239.193	328.785	145.205	215.880	118.080	43.922	53.577	-4.748	289.819	323.259	5.7649e-05	5.9028e-05	1.108e-05	203.23	8.0748e-07	4.2239e-07	249.8	38.039	5.1827e-07	8.7085e-07	74.246	22.041	10.387	3.0109	7.8522e-07	7.0655	2.7539e-06	1.4914e-06	3.1685e-07	175.66	1.7184e-08	1.5009e-08	215.23	32.885	2.4361e-08	1.8981e-08	62.664	18.622	8.8703	2.5446	2.4403e-08	5.88	72.961	40.394	308.575	-13.261	154.016	170.991	-13.726	-7.397	144.999	100.948	-9.310	-4.824	-2.666	1.865	94.267	-0.636	-8191	255	
3694.877	1	1	0	0	0.077211	0.40271	0.11409	0.18149	0.22037	0.1129	0.17874	0.079639	0.25858	0.091339	0.048035	0.018364	0.22327	0.072261	0.38081	0.22227	-0.33958	-0.67917	-1.4146	-0.53333	-1.0729	-1.2083	-0.71042	-1.6	-0.79167	-0.89792	-1.5167	-0.36042	-1.1792	-1.2833	-0.45417	-1.4229	239.372	316.765	118.126	197.180	236.505	122.489	268.454	164.200	199.190	233.583	91.624	176.923	10.275	227.717	283.654	260.682	6.2729e-05	0.0001043	1.9511e-05	202.84	5.0667e-07	3.8493e-07	251.28	37.573	1.5615e-07	1.4992e-06	73.602	21.993	10.403	2.968	7.2189e-07	7.1046	3.4609e-06	2.2371e-06	2.4209e-07	176.05	1.9637e-08	1.3471e-08	215.64	32.468	2.1392e-08	1.9027e-08	62.122	18.675	8.8445	2.539	2.4449e-08	5.9407	43.698	54.161	322.697	-12.521	141.591	58.151	-13.452	-7.247	33.598	99.881	-10.736	-5.016	-2.917	4.182	77.831	-0.408	-8191	255	
3694.973	1	1	0	0	0.15115	0.13099	0.20255	0.027484	0.15777	0.27216	0.20779	0.093247	0.10877	0.13534	0.25459	0.10006	0.097421	0.12413	0.31685	0.12366	-0.47917	-0.65625	-1.3667	-0.56875	-1.2687	-1.3083	-0.39792	-1.4438	-0.65208	-0.59375	-1.6688	-0.325	-1.2354	-1.2083	-0.37917	-1.3458	221.975	186.317	293.957	17.536	248.878	112.473	193.338	197.421	41.751	186.062	84.228	46.954	12.897	144.902	159.389	29.606	5.2882e-05	1.9039e-05	2.7151e-05	201.07	3.4334e-07	5.4886e-07	238.92	38.017	3.5969e-07	6.5663e-07	75.345	21.91	10.548	3.037	4.9341e-07	7.1177	3.2417e-06	1.8281e-06	3.2769e-07	171.64	1.7656e-08	1.854e-08	207.1	32.615	2.0433e-08	1.7839e-08	63.311	18.677	9.0574	2.5542	2.2792e-08	5.9418	66.151	307.255	60.678	-12.208	47.649	108.434	-13.174	-6.992	120.639	94.426	-10.375	-5.026	-2.079	3.918	95.499	-0.797	-8191	255	
3695.094	1	1	0	0	0.23831	0.30059	0.27317	0.32994	0.28906	0.069313	0.23986	0.18724	0.13565	0.095055	0.14404	0.33407	0.19802	0.13032	0.30562	0.2689	-0.55833	-0.51458	-1.8146	-0.52083	-1.0562	-1.3208	-0.43958	-1.5771	-0.77083	-0.55833	-1.6688	-0.32708	-1.0938	-1.2375	-0.05	-1.4604	158.014	268.040	-22.822	45.625	-9.560	-18.045	257.681	327.827	312.362	-21.990	114.554	155.394	296.711	26.696	304.449	32.692	3.0993e-05	6.6058e-05	1.2912e-05	197.99	4.0072e-07	1.0943e-06	237.57	38.866	1.1832e-06	3.1182e-07	75.857	22.124	10.755	2.901	1.8175e-07	7.0383	3.117e-06	1.9616e-06	2.6339e-07	170.42	2.0398e-08	1.7962e-08	205.45	33.159	2.3707e-08	2.2208e-08	63.076	18.826	9.1643	2.4638	2.302e-08	5.8218	23.767	64.546	46.620	-12.512	93.800	136.601	-14.218	-6.354	117.367	41.534	-10.087	-6.104	-1.785	1.501	111.532	-0.201	-8191	255	
3695.190	1	1	0	0	0.29777	0.13753	0.11017	0.11185	0.17782	0.14726	0.13001	0.050144	0.14357	0.066343	0.092097	0.071431	0.16974	0.045025	0.097456	0.10492	-0.71042	-0.43125	-1.8229	-0.46667	-0.77083	-1.6833	-0.40625	-1.4521	-1.025	-0.52083	-1.65	-0.45625	-0.8	-1.3083	-0.32708	-1.1292	258.369	121.148	60.176	257.022	-23.778	160.259	65.922	271.813	295.208	265.642	320.984	95.500	185.848	252.753	192.579	240.529	7.1222e-05	6.6631e-05	7.1255e-06	194.95	7.604e-07	2.3995e-07	231.28	37.232	3.5391e-07	5.3957e-07	73.655	22.711	10.812	2.8807	4.4511e-07	6.8628	2.9266e-06	1.913e-06	2.9632e-07	167.94	2.1617e-08	1.0929e-08	199.69	32.457	1.751e-08	2.2649e-08	61.677	18.811	9.1335	2.4272	2.2078e-08	5.6803	76.897	53.252	57.378	-12.823	189.831	139.360	-12.587	-6.847	21.299	105.911	-9.743	-5.762	-3.744	3.033	151.981	-1.225	-8191	255	
3695.286	1	1	0	0	0.1857	0.1487	0.17965	0.072818	0.14279	0.32071	0.27209	0.29183	0.039914	0.25943	0.29363	0.11276	0.15669	0.10616	0.15284	0.011802	-0.65625	-0.44583	-1.2917	-0.56458	-0.88542	-1.3417	-0.67917	-1.3271	-1.1146	-0.55417	-1.4708	-0.725	-0.74792	-1.3104	-0.43542	-1.1729	302.994	229.872	26.305	241.403	331.931	289.874	284.214	52.120	38.947	192.072	248.014	83.789	66.295	119.074	-20.018	20.904	4.9518e-05	4.6432e-05	2.7005e-05	189.46	4.6107e-07	4.4831e-07	228.94	37.303	6.348e-07	2.5167e-07	72.971	22.566	10.911	2.9266	3.7331e-07	6.9071	2.8265e-06	2.1258e-06	3.4319e-07	162.51	1.9698e-08	1.1904e-08	196.56	32.322	2.0007e-08	1.7733e-08	61.041	18.901	9.1228	2.4433	2.3066e-08	5.6952	57.823	69.912	25.359	-12.793	150.492	26.356	-13.721	-6.797	182.181	139.917	-10.147	-4.574	-2.310	2.657	94.895	-0.757	-8191	255	
3695.382	1	1	0	0	0.33582	0.35462	0.22492	0.19205	0.14333	0.22698	0.13203	0.17517	0.10326	0.1706	0.21948	0.07056	0.13427	0.3427	0.27766	0.051449	-0.84375	-0.475	-1.3813	-0.63542	-0.77083	-1.5125	-0.51667	-1.1417	-1.0875	-0.57083	-1.475	-0.66458	-0.62292	-1.4646	-0.28333	-0.97917	148.583	323.163	293.280	119.314	79.543	132.841	190.891	194.308	289.084	331.023	266.644	186.352	303.415	241.648	95.260	297.598	6.3425e-05	0.00010694	2.3267e-05	190.68	9.1612e-07	2.2225e-07	229.06	37.957	6.5721e-07	3.968e-07	72	22.654	10.621	2.8513	6.8456e-07	6.9131	2.8964e-06	2.0089e-06	3.8347e-07	162.64	2.3582e-08	1.198e-08	197.8	32.583	1.8225e-08	2.2025e-08	60.717	18.978	9.156	2.4151	2.0817e-08	5.7369	69.845	40.521	26.151	-12.475	134.778	123.767	-12.980	-7.405	94.068	81.028	-10.409	-4.948	-2.991	3.277	89.077	0.282	-8191	255	
3695.478	1	1	0	0	0.18663	0.22786	0.045412	0.18128	0.26804	0.22679	0.16426	0.36355	0.034022	0.083538	0.16345	0.21812	0.2859	0.15046	0.070239	0.061819	-0.87083	-0.4125	-1.5667	-0.89167	-0.65625	-1.4542	-0.71875	-1.1708	-1.1646	-0.36667	-1.3771	-0.89583	-0.5875	-1.5146	-0.47917	-1.15	207.268	79.345	201.863	66.994	311.610	-5.789	281.082	267.842	266.166	301.355	260.099	266.788	226.075	222.908	182.622	74.548	6.6136e-05	8.9838e-05	3.417e-05	189.76	3.8431e-07	1.6019e-07	231.65	38.443	4.5302e-07	5.7759e-07	71.971	22.453	10.769	2.8634	6.7228e-07	6.6611	2.8649e-06	2.1898e-06	3.1375e-07	162.51	2.3674e-08	1.4887e-08	198.92	32.809	1.8332e-08	2.2421e-08	60.384	19.156	9.1047	2.3828	2.1865e-08	5.5822	73.072	54.617	66.423	-13.148	163.598	137.901	-13.316	-6.656	208.193	129.844	-9.928	-5.860	-2.892	2.523	161.350	-1.154	-8191	255	
3695.574	1	1	0	0	0.10891	0.043608	0.29611	0.16407	0.246	0.1236	0.13707	0.13952	0.20919	0.053327	0.046552	0.057734	0.25687	0.10686	0.11242	0.19743	-1.0438	-0.3875	-1.3813	-0.96875	-0.62292	-1.5688	-0.51458	-1.1812	-1.4104	-0.36042	-1.4125	-0.90833	-0.44583	-1.6979	-0.46667	-0.8625	198.177	-3.474	38.162	231.799	183.512	240.370	150.722	193.566	24.018	-21.096	113.890	-9.829	303.861	61.287	159.407	-25.179	5.3445e-05	0.00013963	6.0363e-06	190.07	7.2775e-07	5.2371e-07	234.18	38.236	7.6256e-07	5.3692e-07	72.182	22.231	10.783	2.8169	3.9003e-07	6.6857	2.8334e-06	2.1147e-06	3.6759e-07	163.83	2.2668e-08	1.2497e-08	199.16	32.666	1.6718e-08	2.029e-08	60.521	18.909	9.1386	2.3501	2.4373e-08	5.519	63.630	2.705	-2.430	-13.183	42.038	116.452	-13.338	-7.363	134.357	172.255	-8.846	-5.737	-2.846	4.138	290.430	-0.221	-8191	255	
3695.671	1	1	0	0	0.067513	0.29149	0.16437	0.039698	0.038087	0.20525	0.25975	0.10407	0.093108	0.32084	0.21395	0.30624	0.25618	0.12209	0.26225	0.15515	-1.1	-0.275	-1.3729	-0.79375	-0.4	-1.7667	-0.47292	-1.0292	-1.7208	-0.3875	-1.3708	-1.1667	-0.40833	-1.4083	-0.50833	-0.675	54.467	-17.000	182.696	42.154	279.097	144.615	322.726	327.162	68.636	42.596	163.552	221.036	149.360	216.542	109.471	145.866	4.0735e-05	4.382e-05	2.7886e-05	194.9	5.5509e-07	7.7408e-07	232.86	38.539	6.1225e-07	1.2402e-06	72.487	22.342	10.902	2.8438	7.6596e-07	6.6475	2.4607e-06	2.1856e-06	3.428e-07	166.12	2.1967e-08	1.2786e-08	200.24	32.623	1.7951e-08	2.1736e-08	60.563	18.962	9.1699	2.3746	2.2337e-08	5.5859	80.451	45.304	19.299	-13.247	68.076	6.283	-13.255	-8.018	132.162	63.857	-9.176	-5.423	-3.329	4.323	58.612	-0.535	-8191	255	
3695.767	1	1	0	0	0.16875	0.25696	0.097204	0.12081	0.22557	0.0648	0.090942	0.11225	0.26554	0.23499	0.1072	0.1937	0.082037	0.13465	0.15427	0.12499	-1.2146	-0.35208	-1.1958	-1.2042	-0.37083	-1.6396	-0.53333	-0.80208	-1.6042	-0.45	-1.2667	-1.2667	-0.59167	-1.6042	-0.68542	-0.76875	88.938	19.637	326.828	233.237	-8.089	223.489	209.845	305.218	6.746	128.084	73.574	81.514	168.497	241.972	127.316	287.672	3.7875e-05	1.7206e-05	2.3955e-05	196.39	5.6965e-07	4.676e-07	234.53	37.885	3.8001e-07	4.64e-07	72.418	22.307	10.959	2.8482	8.409e-07	6.7841	2.8813e-06	1.9491e-06	3.7882e-07	167.66	2.5136e-08	1.2345e-08	202.32	32.783	1.6657e-08	2.1158e-08	61.259	19.044	9.246	2.3837	2.3826e-08	5.6513	52.671	215.292	49.475	-12.624	134.241	46.991	-13.310	-7.690	114.151	134.871	-8.936	-5.620	-2.573	3.015	121.955	-0.638	-8191	255	
3695.886	1	1	0	0	0.17621	0.19804	0.10336	0.066721	0.064875	0.04156	0.21035	0.059326	0.16529	0.09549	0.10966	0.20962	0.28622	0.12766	0.17316	0.34001	-1.1708	-0.37083	-1.0958	-1.2125	-0.59167	-1.475	-0.6875	-0.85	-1.5458	-0.31458	-1.4521	-1.3979	-0.2875	-1.675	-0.79167	-0.64792	100.038	138.358	258.282	307.014	131.377	334.053	187.150	-17.907	154.608	193.717	225.076	321.240	256.306	239.969	197.129	130.010	5.4966e-05	8.5644e-05	1.051e-05	193.21	4.9293e-07	1.3595e-07	231.29	37.835	3.8919e-07	9.2714e-07	73.335	22.488	10.848	2.8231	1.9637e-07	6.7107	2.4443e-06	2.2928e-06	3.8812e-07	166.59	2.5837e-08	1.0625e-08	201.1	32.863	1.6109e-08	2.4872e-08	61.337	19.114	9.1732	2.3982	2.1091e-08	5.622	65.623	15.047	12.822	-11.887	125.371	119.342	-13.444	-6.278	204.539	102.725	-9.617	-5.238	-1.596	3.888	133.735	-0.280	-8191	255	
3695.982	1	1	0	0	0.19069	0.09169	0.13271	0.16793	0.057013	0.11321	0.043553	0.18057	0.13464	0.3207	0.18117	0.3911	0.030892	0.21083	0.21044	0.22279	-1.4021	-0.27917	-1.2375	-1.3792	-0.20833	-1.6229	-0.92917	-0.625	-1.6083	-0.47083	-1.1479	-1.275	-0.39792	-1.3292	-0.82917	-0.56667	5.928	249.636	235.316	142.716	242.836	246.474	57.367	321.900	26.829	137.051	67.614	281.667	27.759	84.668	134.701	19.970	7.3734e-05	0.00013402	2.6079e-05	191.73	6.394e-07	7.0156e-07	232.97	37.441	1.2941e-07	1.4269e-06	70.822	22.715	10.822	2.8131	9.202e-07	6.792	2.31e-06	2.1161e-06	4.7217e-07	165.96	2.7574e-08	1.2939e-08	201.45	32.316	1.7525e-08	2.064e-08	60.227	18.979	9.1862	2.367	2.0179e-08	5.5709	61.316	43.985	34.102	-11.852	114.571	100.018	-14.171	-7.435	164.152	79.108	-9.509	-5.197	-3.172	4.590	64.218	-0.489	-8191	255	
3696.078	1	1	0	0	0.04268	0.27594	0.075962	0.20135	0.23947	0.091426	0.17153	0.13118	0.2841	0.19907	0.11904	0.071032	0.36563	0.235	0.24778	0.1805	-1.0479	-0.51667	-0.87292	-1.3271	-0.38542	-1.1396	-0.79375	-0.72083	-1.2563	-0.64167	-0.925	-1.0375	-0.47083	-1.1146	-0.84375	-0.65625	-8.536	110.702	298.225	91.190	-5.078	232.106	243.084	243.778	267.483	199.957	237.461	164.278	207.840	63.621	267.267	158.734	6.2877e-05	0.00014018	1.5919e-05	193.21	5.9515e-07	9.5111e-07	234.89	37.353	1.2301e-07	6.2198e-07	71.376	22.125	10.87	2.8075	6.0345e-07	6.6473	2.6745e-06	2.322e-06	3.7108e-07	166.26	2.3506e-08	1.6638e-08	203.4	32.261	1.6216e-08	2.3959e-08	60.181	18.633	9.0657	2.3975	2.0164e-08	5.6162	56.294	17.414	85.392	-12.543	74.088	116.814	-13.662	-7.538	103.829	77.210	-10.138	-5.629	-2.045	2.160	110.856	0.019	-8191	255	
3696.174	1	1	0	0	0.1371	0.024943	0.22171	0.3114	0.018535	0.17597	0.22822	0.081077	0.094264	0.026015	0.25102	0.12409	0.1652	0.11405	0.16571	0.048946	-0.95625	-0.475	-0.68958	-1.2021	-0.39583	-1.2437	-1.1292	-0.53333	-1.2875	-0.57292	-0.75833	-1.4438	-0.17083	-1.3312	-1.1417	-0.22083	213.580	271.454	39.504	192.618	314.318	-16.251	133.928	326.161	329.606	151.564	307.851	13.552	270.758	17.697	-13.569	140.682	7.2224e-05	3.1697e-05	1.3438e-05	197.83	3.7408e-07	8.9743e-07	235.23	37.901	4.2479e-07	6.2713e-07	73.106	22.309	10.711	2.8918	9.4524e-08	6.9705	2.5278e-06	2.2149e-06	4.6752e-07	168.46	2.2272e-08	1.4019e-08	203.4	32.299	1.8971e-08	1.8281e-08	60.392	18.78	9.1404	2.4268	1.7337e-08	5.7471	68.270	24.975	-7.072	-13.919	145.401	153.212	-13.501	-6.857	35.611	123.523	-9.038	-4.675	-2.693	3.746	69.713	-1.146	-8191	255	
3696.270	1	1	0	0	0.1961	0.035595	0.09408	0.10505	0.131	0.064824	0.17358	0.049867	0.28031	0.078459	0.24451	0.34585	0.2192	0.44075	0.30492	0.14891	-1.3292	-0.60417	-0.86458	-1.2792	-0.30625	-1.3479	-1.1729	-0.40625	-1.4417	-0.4375	-0.77917	-1.5833	-0.32083	-1.2437	-1.1187	-0.46875	293.433	329.625	319.057	275.211	112.152	158.817	279.146	37.623	270.645	234.020	304.813	276.747	147.086	65.196	78.046	124.803	6.8259e-05	3.7374e-05	2.3832e-05	197.72	2.5764e-07	2.6278e-07	238.23	37.54	5.6691e-07	8.6457e-07	72.607	22.709	10.668	2.9126	1.036e-06	7.037	2.4429e-06	1.7836e-06	4.9348e-07	168.68	2.6919e-08	1.51e-08	205.56	32.435	1.9611e-08	1.959e-08	61.359	19.048	9.1475	2.4381	1.5423e-08	5.8074	46.708	201.197	-1.615	-12.953	148.117	84.121	-13.846	-7.694	54.219	102.485	-9.315	-5.000	-3.387	3.225	68.285	0.184	-8191	255	
3696.366	1	1	0	0	0.24698	0.25951	0.19907	0.23008	0.034056	0.25326	0.11374	0.21206	0.20706	0.088644	0.10996	0.32284	0.29675	0.066844	0.21484	0.024308	-1.0896	-0.55833	-0.70833	-1.6708	-0.44792	-1.1187	-1.2917	-0.08125	-1.5396	-0.89167	-0.76667	-1.5292	-0.55	-1.2313	-1.3312	-0.37083	76.980	204.436	2.086	317.163	302.015	38.325	209.731	146.850	301.246	113.811	67.105	301.944	32.841	291.593	92.062	149.579	7.1005e-05	7.2305e-05	1.5973e-05	199.45	6.0262e-08	1.2645e-06	240.68	36.994	7.7219e-07	4.8381e-07	71.509	22.1	10.975	2.7618	1.965e-07	6.7859	2.8142e-06	1.7989e-06	5.326e-07	171.96	2.3171e-08	1.8206e-08	206.78	32.066	1.486e-08	2.0427e-08	60.391	18.788	9.1342	2.3795	2.0209e-08	5.6773	59.377	21.789	8.807	-12.147	167.643	121.399	-13.488	-7.268	95.732	132.030	-9.786	-4.584	-2.140	3.109	243.240	-1.728	-8191	255	
3696.487	1	1	0	0	0.27713	0.17235	0.066274	0.034451	0.052487	0.18905	0.10122	0.24277	0.055354	0.15711	0.074862	0.04259	0.1864	0.14705	0.31183	0.1109	-1.0125	-0.65	-0.69375	-1.4396	-0.41042	-0.91458	-1.2938	-0.52292	-1.4729	-0.77917	-0.85	-1.3667	-0.6375	-1.0375	-1.0792	-0.575	63.417	104.616	-3.410	31.638	-9.281	44.390	302.111	107.974	22.660	88.591	19.430	39.588	140.223	146.333	191.912	102.136	4.6371e-05	7.461e-05	2.2825e-05	199.57	7.5895e-08	5.0547e-07	236.04	36.702	5.0122e-07	6.2537e-07	72.362	22.024	10.621	2.8767	2.4609e-07	6.9329	2.8827e-06	1.8517e-06	5.0006e-07	171.21	2.4481e-08	1.8845e-08	206.52	31.851	1.7251e-08	1.8022e-08	60.409	18.673	9.0319	2.4494	1.4724e-08	5.7977	61.232	39.549	44.984	-13.356	298.336	223.565	-13.895	-6.944	169.954	99.119	-9.455	-4.935	-2.047	2.496	47.758	-0.654	-8191	255	
3696.581	1	1	0	0	0.040956	0.15177	0.22245	0.016738	0.071697	0.12155	0.12668	0.10266	0.11637	0.28835	0.14325	0.15514	0.21499	0.2578	0.28829	0.13334	-0.95833	-0.78125	-0.64583	-1.4458	-0.58542	-0.91875	-1.4667	-0.49167	-0.95	-0.75208	-0.67917	-1.2854	-0.51042	-0.89583	-1.0896	-0.44583	62.987	256.806	187.140	90.540	32.754	205.206	154.728	187.301	154.019	-2.158	286.679	314.221	210.728	205.936	38.112	36.705	6.1686e-05	3.6398e-05	1.5245e-05	202.54	6.1946e-07	4.7163e-07	240.21	36.457	9.9491e-08	4.1381e-07	71.131	22.203	10.523	2.9675	6.7408e-07	7.0672	2.7169e-06	1.8977e-06	4.0903e-07	173.53	2.1693e-08	1.8738e-08	207.79	31.764	2.191e-08	1.854e-08	60.234	18.627	8.9831	2.4795	1.6426e-08	5.9003	74.500	84.565	28.587	-12.034	102.315	93.610	-14.331	-7.374	258.319	136.873	-9.181	-4.492	-2.073	3.112	41.762	-1.214	-8191	255	
3696.678	1	1	0	0	0.28301	0.1843	0.1122	0.11233	0.099289	0.044305	0.27549	0.053575	0.24954	0.29007	0.16688	0.085984	0.073804	0.12223	0.052194	0.036249	-1.0583	-0.97708	-0.4125	-1.4625	-0.53333	-0.79792	-1.3417	-0.32292	-1.2292	-1.0292	-0.33542	-1.45	-0.40833	-0.87917	-1.4229	-0.25625	304.113	28.259	47.052	24.759	85.768	78.862	22.379	187.121	132.754	21.633	37.417	276.263	195.128	287.790	151.135	202.138	2.5329e-05	5.0404e-05	1.61e-05	203.43	2.4757e-07	5.6091e-07	241.26	36.28	1.8991e-07	9.6781e-07	71.509	22.57	10.607	2.9827	7.6128e-07	7.0998	2.6429e-06	1.5262e-06	4.4893e-07	174.92	2.0916e-08	1.6211e-08	208.32	31.549	1.6551e-08	1.8083e-08	60.412	18.94	9.0569	2.5179	1.3539e-08	6.0198	95.225	12.730	44.240	-12.520	147.481	143.310	-13.408	-7.628	302.973	114.348	-10.504	-4.279	-2.118	3.101	120.673	-1.580	-8191	255	
3696.774	1	1	0	0	0.17695	0.24226	0.27576	0.22172	0.098121	0.27588	0.13831	0.23682	0.21002	0.040332	0.13563	0.11348	0.14305	0.24374	0.094617	0.31851	-1.0292	-1.0833	-0.47708	-1.6229	-0.65	-0.81667	-1.4958	-0.35625	-1.1125	-1.1875	-0.50417	-1.4104	-0.59583	-0.69167	-1.2646	-0.47083	222.420	-5.197	118.216	313.754	291.986	13.726	238.885	329.302	12.928	227.836	115.256	88.929	174.663	176.628	74.587	88.212	5.4557e-05	7.1711e-05	2.0062e-05	203.9	4.501e-07	6.2766e-07	238.17	36.657	8.564e-07	8.4953e-07	70.798	22.113	10.386	2.9177	1.0321e-06	7.1156	2.9485e-06	1.7084e-06	5.1091e-07	174.52	1.9286e-08	1.8099e-08	206.88	31.384	1.9459e-08	1.5419e-08	59.827	18.607	8.8402	2.4918	1.7201e-08	5.9203	73.471	3.605	74.769	-12.165	168.401	86.428	-13.474	-6.438	106.825	122.309	-9.648	-4.601	-2.248	3.072	75.091	-0.875	-8191	255	
3696.870	1	1	0	0	0.1899	0.16291	0.041732	0.15902	0.067029	0.255	0.21823	0.15947	0.23552	0.09528	0.2066	0.2774	0.17324	0.047457	0.18208	0.12481	-0.80417	-0.8875	-0.525	-1.2542	-0.60208	-0.57917	-1.2792	-0.40625	-1.2146	-1.05	-0.49167	-1.2833	-0.84583	-0.46667	-1.5292	-0.64167	269.102	151.094	170.594	73.700	93.594	-23.280	39.518	276.923	254.866	-21.625	233.181	304.867	138.140	303.233	291.098	4.423	6.4418e-05	1.5369e-05	1.1127e-05	203.18	5.4247e-07	3.6275e-07	236.57	35.789	1.9117e-07	5.1395e-07	70.962	21.82	10.406	2.9025	6.3767e-07	7.0426	3.006e-06	1.458e-06	4.8689e-07	173	2.1343e-08	1.7155e-08	204.97	31.012	1.8347e-08	1.2253e-08	59.108	18.484	8.834	2.4675	1.4268e-08	5.8661	71.772	74.189	-1.771	-12.929	120.164	41.292	-14.179	-7.410	283.524	119.466	-9.071	-4.830	-1.480	3.801	22.961	0.602	-8191	255	
3696.966	1	1	0	0	0.19124	0.28292	0.14807	0.17002	0.033439	0.11816	0.31414	0.21502	0.1436	0.24554	0.066283	0.1141	0.18027	0.19218	0.10303	0.15076	-0.53333	-1.0146	-0.28333	-1.3646	-0.85208	-0.59167	-1.5125	-0.42917	-0.90833	-1.1479	-0.45417	-1.325	-0.77083	-0.57083	-1.3188	-0.55417	298.675	57.518	330.214	99.260	216.320	248.072	286.590	327.360	255.112	327.915	171.786	275.960	199.632	-6.331	30.331	158.293	5.6294e-05	8.8547e-05	1.5148e-05	202.78	2.7572e-07	5.3166e-07	240.23	36.675	6.0385e-07	4.7752e-07	70.642	22.098	10.519	2.9178	3.0832e-07	7.2042	2.7621e-06	1.2535e-06	5.4615e-07	173.93	2.0216e-08	2.2924e-08	206.57	31.206	2.0113e-08	1.481e-08	59.546	18.615	8.8621	2.5074	1.4405e-08	6.0114	68.659	41.975	8.665	-12.586	222.132	100.272	-13.805	-7.737	54.625	122.453	-9.980	-4.891	-3.473	2.980	38.299	-1.919	-8191	255	
3697.062	1	1	0	0	0.20471	0.28046	0.17524	0.11208	0.2124	0.37107	0.15076	0.25798	0.1511	0.028328	0.23247	0.14113	0.13552	0.37267	0.25646	0.38022	-0.61875	-1.2417	-0.2875	-1.4333	-0.85625	-0.53958	-1.5187	-0.425	-0.74792	-1.3021	-0.22083	-1.45	-1.1042	-0.37917	-1.6083	-0.63333	151.551	16.091	22.051	245.877	219.332	164.453	323.551	75.222	203.758	-16.804	147.524	200.085	37.833	28.283	171.428	130.540	5.6478e-05	4.0306e-05	2.1523e-05	209.56	8.6487e-07	1.6772e-07	249.82	36.262	1.2859e-07	7.3202e-07	72.094	22.064	10.621	2.9948	7.0128e-07	7.1892	2.8704e-06	1.4817e-06	5.202e-07	179.75	2.0871e-08	1.7688e-08	215.54	31.702	2.2032e-08	1.6211e-08	60.253	18.798	8.9382	2.5314	1.3782e-08	6.0782	72.753	7.574	49.890	-12.454	99.963	2.715	-13.755	-7.290	57.023	86.356	-9.840	-4.102	-2.244	2.099	83.191	0.055	-8191	255	
3697.158	1	1	0	0	0.07101	0.055236	0.14048	0.041735	0.051498	0.24917	0.092978	0.16082	0.16795	0.11497	0.27218	0.13911	0.22764	0.24981	0.36219	0.24333	-0.43125	-1.4792	-0.17708	-1.5708	-1.1021	-0.32292	-1.7938	-0.47083	-0.79583	-1.425	-0.3375	-1.2667	-1.0271	-0.21875	-1.7146	-0.325	330.583	96.012	305.717	250.429	-3.949	125.079	102.478	193.347	26.362	112.811	64.835	182.469	75.795	-11.944	89.720	148.368	4.1905e-05	6.7243e-05	2.4401e-05	216.09	7.7806e-07	2.6955e-07	256.65	36.684	3.3618e-07	4.9258e-07	71.719	21.96	10.386	3.0181	6.5222e-07	7.2348	2.9074e-06	1.4497e-06	5.1246e-07	183.54	2.1297e-08	2.0474e-08	220.48	31.936	2.4651e-08	1.1614e-08	60.471	18.686	8.8217	2.5597	1.4815e-08	6.0779	62.992	81.868	13.866	-12.882	100.690	135.979	-13.021	-6.802	240.907	131.696	-9.224	-5.299	-2.792	3.597	73.935	-0.532	-8191	255	
3697.279	1	1	0	0	0.31671	0.15382	0.18255	0.19269	0.23218	0.18005	0.10021	0.13788	0.26053	0.069693	0.10685	0.32995	0.12644	0.13107	0.13023	0.35758	-0.49375	-1.7188	-0.13542	-1.5	-1.0833	-0.079167	-1.7354	-0.53958	-0.71458	-1.6458	-0.27917	-1.1938	-1.1063	-0.35	-1.4292	-0.74167	-14.176	254.593	333.551	210.490	-9.219	314.129	271.465	66.576	255.543	316.139	286.873	175.916	264.867	18.533	29.575	289.307	4.1649e-05	7.3124e-05	1.7995e-05	214.05	1.0326e-06	5.0146e-07	260.82	37.156	9.6946e-07	6.8944e-07	70.847	21.633	10.274	2.9992	6.1346e-07	7.2845	3.0964e-06	1.3578e-06	6.3679e-07	184.99	1.9119e-08	2.3548e-08	225.95	32.115	2.7133e-08	1.3425e-08	60.151	18.482	8.6882	2.5456	1.7854e-08	6.0405	87.162	5.429	41.253	-11.984	120.076	133.239	-13.560	-6.901	118.865	178.344	-10.507	-5.761	-2.858	3.176	106.521	0.009	-8191	255	
3697.351	1	1	0	0	0.0449	0.14367	0.2448	0.23607	0.12327	0.17292	0.17424	0.18718	0.062212	0.10755	0.077251	0.33152	0.26591	0.22395	0.20464	0.15295	-0.33542	-1.4333	-0.47292	-1.0938	-1.2938	-0.49375	-1.4125	-0.69792	-0.61458	-1.7938	-0.55	-0.98958	-1.0479	-0.16875	-1.3271	-0.85208	98.534	72.465	-5.830	119.357	137.807	43.966	300.572	262.889	215.227	144.324	290.309	181.384	245.973	144.001	94.113	165.478	5.9526e-05	2.0673e-05	1.9562e-05	216.11	5.0482e-07	3.9622e-07	258.13	36.599	1.4537e-06	6.1672e-07	73.241	21.909	10.104	2.998	5.6337e-07	7.3614	3.3513e-06	1.593e-06	5.4422e-07	185.17	1.9164e-08	2.3685e-08	224.05	31.777	2.3981e-08	1.6059e-08	61.285	18.636	8.6976	2.5458	1.7064e-08	6.1013	72.690	19.152	7.399	-12.098	98.970	111.070	-13.566	-6.842	127.963	137.418	-10.530	-5.007	-2.745	3.568	66.897	-1.330	-8191	255	
3697.447	1	1	0	0	0.25735	0.022303	0.073123	0.20543	0.18146	0.066602	0.17932	0.14455	0.051289	0.15191	0.16786	0.074708	0.15413	0.13512	0.35004	0.15575	-0.19375	-1.5104	-0.40833	-0.75	-1.1667	-0.31042	-1.2854	-0.94167	-0.60417	-1.4083	-0.28958	-0.97708	-1.1917	-0.18333	-1.3188	-1.0104	98.335	236.656	158.090	102.775	170.650	-13.958	102.289	201.124	215.651	238.506	11.901	272.919	167.693	292.995	68.064	19.400	6.7393e-05	0.00012068	2.1216e-05	212.6	5.6331e-07	2.1685e-07	258.72	37.148	1.9726e-07	3.0578e-07	72.519	22.256	10.297	3.0013	2.6605e-07	7.4202	3.2307e-06	1.2326e-06	5.171e-07	183.7	2.0444e-08	2.4858e-08	222.49	32.141	2.5732e-08	1.2436e-08	61.367	18.856	8.8112	2.5603	1.3265e-08	6.1844	79.324	15.041	95.499	-12.266	116.976	108.846	-14.141	-7.289	94.506	178.446	-9.661	-5.290	-2.104	2.829	144.836	0.158	-8191	255	
3697.567	1	1	0	0	0.015545	0.3131	0.079239	0.21681	0.084503	0.16429	0.46982	0.12049	0.15246	0.16588	0.078403	0.30628	0.26113	0.02792	0.25157	0.15926	-0.052083	-1.4667	-0.35625	-0.87708	-1.2437	-0.29167	-1.2771	-1.0229	-0.2875	-1.5021	-0.44167	-0.89375	-1.425	-0.29375	-1.3563	-1.1021	53.617	43.051	33.204	280.991	100.268	291.327	138.968	310.164	259.643	268.065	320.614	163.204	154.535	196.536	17.613	106.151	5.6624e-05	5.5179e-05	2.8125e-05	214.61	4.3636e-07	5.7011e-07	262.53	37.625	7.217e-07	2.9463e-07	72.927	22.245	10.376	2.9513	6.0012e-07	7.3457	3.3074e-06	1.4288e-06	6.0774e-07	185.83	1.6118e-08	2.2285e-08	226.41	32.296	2.8731e-08	1.3958e-08	61.205	18.791	8.7697	2.5477	1.793e-08	6.1704	72.302	76.160	51.045	-12.218	120.476	91.137	-13.252	-8.930	119.542	53.786	-10.113	-4.652	-3.023	3.210	130.704	-1.982	-8191	255	
3697.664	1	1	0	0	0.093103	0.24347	0.078052	0.22725	0.14455	0.17908	0.047191	0.32246	0.29579	0.22353	0.22461	0.20303	0.16623	0.17659	0.069373	0.19055	0.125	-1.7417	-0.44583	-0.49375	-1.7313	-0.49167	-1.4354	-1.0792	-0.41042	-1.6896	-0.7125	-0.6	-1.6812	-0.33333	-1.1417	-0.94792	18.400	95.371	20.965	11.740	287.277	121.668	198.255	9.028	232.350	231.284	270.700	35.812	184.196	36.785	261.225	295.747	5.2916e-05	0.00010423	4.7657e-05	217.4	7.2713e-07	2.2244e-07	259.85	36.661	5.3881e-07	1.179e-06	71.103	21.751	10.245	2.9924	7.2708e-07	7.4252	3.5362e-06	1.2702e-06	5.9961e-07	185.88	1.9911e-08	2.0671e-08	225.09	31.816	2.7802e-08	1.443e-08	60.407	18.56	8.7449	2.5526	1.9404e-08	6.1097	89.572	74.973	87.025	-12.786	153.235	15.052	-13.333	-7.697	90.263	55.804	-9.866	-4.830	-2.308	2.888	93.589	-1.385	-8191	255	
3697.760	1	1	0	0	0.066707	0.049507	0.21119	0.049141	0.17208	0.12602	0.24947	0.22648	0.10241	0.36979	0.10025	0.12347	0.03927	0.033457	0.15017	0.077741	-0.11875	-1.3917	-0.83125	-0.63958	-1.2792	-0.43958	-1.1104	-1.0438	-0.52292	-1.6292	-0.97708	-0.89167	-1.3438	-0.47083	-1.2083	-1.2604	191.554	76.552	266.236	-9.382	310.936	80.583	266.005	116.767	251.168	283.400	12.079	241.427	37.430	231.273	245.996	283.620	6.5697e-05	8.2072e-05	5.8559e-06	210.39	4.1081e-07	1.747e-07	256.4	36.057	4.884e-07	4.7957e-07	70.882	21.936	10.227	2.9792	3.8321e-07	7.192	3.402e-06	1.4858e-06	4.1949e-07	183.65	1.723e-08	2.2757e-08	220.68	31.612	2.5549e-08	1.6744e-08	60.291	18.708	8.7893	2.5486	2.103e-08	6.078	61.685	3.865	54.307	-12.661	70.034	38.368	-13.621	-6.419	115.237	117.267	-9.328	-4.766	-2.277	3.605	106.360	-1.639	-8191	255	
3697.879	1	1	0	0	0.085457	0.26818	0.22146	0.085968	0.1542	0.32541	0.26225	0.098947	0.15081	0.11194	0.15813	0.14447	0.25091	0.065172	0.046988	0.086693	-0.2	-1.1792	-0.89792	-0.88125	-1.3542	-0.58125	-0.87292	-1.3083	-0.23958	-1.3625	-1.2333	-0.51458	-1.4438	-0.24375	-1.0875	-1.3708	113.732	235.258	289.730	106.709	116.372	304.780	77.230	197.496	76.540	77.749	267.301	185.531	299.451	32.481	150.429	143.949	6.1574e-05	9.4493e-05	1.5837e-05	207.6	5.9788e-07	7.589e-08	248.2	36.016	5.0776e-07	7.3859e-07	72.108	22.403	10.619	3.0136	2.7835e-07	7.3122	3.18e-06	1.5832e-06	5.4461e-07	179.86	1.825e-08	1.8951e-08	216.56	31.403	2.6584e-08	1.8342e-08	60.648	18.896	8.9995	2.5722	1.7307e-08	6.1508	74.747	43.168	21.692	-12.629	108.926	83.907	-14.033	-7.578	207.649	134.165	-9.327	-4.886	-2.138	3.079	121.224	-0.370	-8191	255	
3697.950	1	1	0	0	0.036215	0.042762	0.27332	0.2492	0.13916	0.10418	0.22902	0.33556	0.27171	0.19213	0.41546	0.29467	0.23626	0.3305	0.19417	0.093925	0.083333	-1.4396	-0.8875	-0.60625	-1.5083	-0.52292	-0.97708	-1.3979	-0.23125	-1.6167	-1.1646	-0.3125	-1.675	-0.58125	-0.73542	-1.4875	110.772	75.934	134.122	2.502	219.093	243.139	243.464	156.374	84.619	311.540	206.877	157.894	32.644	8.086	149.674	161.622	5.0784e-05	4.9779e-05	2.8246e-05	205.62	4.3863e-07	6.3758e-07	244.99	35.887	6.6795e-07	8.3497e-07	71.095	22.292	10.436	3.0295	2.4684e-07	7.2733	3.0718e-06	1.5498e-06	4.7914e-07	178.59	1.627e-08	2.0078e-08	212.91	31.453	2.7757e-08	1.4049e-08	60.317	18.848	8.9217	2.5715	1.8355e-08	6.1033	80.553	38.394	77.536	-12.710	77.465	162.088	-13.653	-6.546	88.239	158.280	-9.750	-4.054	-2.355	3.677	111.701	-0.631	-8191	255	
3698.046	1	1	0	0	0.14496	0.16743	0.11761	0.12615	0.20501	0.25946	0.076158	0.38818	0.052642	0.30636	0.29056	0.26142	0.056461	0.042368	0.2082	0.10276	-0.014583	-1.4375	-1.2188	-0.36667	-1.5125	-0.66042	-0.97083	-1.3917	-0.35625	-1.2208	-0.875	-0.30208	-1.6646	-0.4	-0.75625	-1.7771	330.847	179.111	304.581	-4.593	254.908	60.558	264.750	146.669	239.323	149.326	73.249	67.870	139.281	317.505	120.213	18.480	6.8766e-05	3.0549e-05	3.9793e-05	203.61	6.604e-07	1.6119e-07	244.9	35.431	3.4809e-07	6.9977e-07	70.631	22.049	10.393	2.9038	5.113e-07	7.1971	3.5212e-06	1.4928e-06	3.5132e-07	176.42	1.3634e-08	1.9728e-08	211.47	30.844	2.4453e-08	1.481e-08	59.524	18.588	8.8031	2.4982	2.0589e-08	5.9888	64.303	45.959	28.809	-12.467	179.517	237.684	-13.089	-7.711	146.113	98.997	-9.836	-5.632	-2.202	3.387	28.310	-0.629	-8191	255	
3698.167	1	1	0	0	0.36773	0.070279	0.11038	0.28168	0.073557	0.10246	0.24593	0.10189	0.096592	0.087194	0.072225	0.10321	0.023281	0.19108	0.26858	0.163	0.21875	-1.2896	-0.96875	-0.46667	-1.6917	-0.56458	-0.51667	-1.4354	-0.33958	-1.1688	-1.1938	-0.53958	-1.4208	-0.5125	-0.62083	-1.4292	282.029	89.222	133.671	123.751	96.282	261.744	281.301	197.404	94.092	193.643	37.385	243.699	135.656	-2.029	52.017	241.695	7.6316e-05	0.00012092	3.2003e-05	205.91	5.0057e-07	6.618e-07	248.28	36.112	1.3252e-06	5.394e-07	70.031	21.679	10.185	2.9957	5.0569e-07	7.2818	3.3869e-06	1.7168e-06	4.1833e-07	177.66	1.8509e-08	2.1113e-08	212.96	30.983	2.7833e-08	1.2756e-08	59.38	18.468	8.7106	2.5151	2.1455e-08	6.0613	66.489	35.959	42.791	-13.012	187.510	57.189	-13.956	-6.828	135.795	108.455	-10.649	-4.636	-2.021	2.629	106.579	0.725	-8191	255	
3698.263	1	1	0	0	0.21442	0.16294	0.21482	0.13345	0.077274	0.20742	0.22135	0.33534	0.13439	0.18752	0.073224	0.035165	0.3227	0.16209	0.2057	0.25031	-0.097917	-1.1812	-1.0542	-0.40417	-1.4375	-0.80208	-0.89375	-1.4021	-0.35833	-0.9875	-1.0729	-0.42292	-1.2938	-0.85833	-0.63125	-1.4125	79.526	175.653	17.847	256.314	63.552	19.328	-8.820	307.871	165.599	157.333	159.870	-1.934	259.316	166.814	137.874	260.972	4.5786e-05	3.878e-05	2.2556e-05	208.19	5.7651e-07	1.6017e-07	251.12	35.997	7.1086e-07	2.1885e-07	71.725	22.309	10.521	3.0908	1.585e-07	7.3923	3.217e-06	1.5763e-06	4.0168e-07	179.84	1.9682e-08	1.8175e-08	216.51	31.27	2.4651e-08	1.4932e-08	60.133	18.852	8.9235	2.579	2.457e-08	6.1637	63.536	80.867	17.193	-13.138	99.506	135.786	-13.974	-7.058	70.639	85.000	-9.711	-4.642	-2.511	2.301	162.930	-1.013	-8191	255	
3698.359	1	1	0	0	0.20643	0.35611	0.092296	0.051131	0.10074	0.20526	0.13261	0.069102	0.35677	0.19716	0.091	0.12999	0.17381	0.22945	0.15816	0.091772	-0.19375	-0.87917	-1.225	-0.51042	-1.4083	-0.87083	-0.57083	-1.4229	-0.82083	-0.97917	-1.1375	-0.47917	-1.275	-1.0021	-0.61042	-1.5	209.985	296.654	136.992	217.886	102.851	53.021	209.784	298.081	217.260	254.778	48.823	194.630	307.663	198.352	120.938	163.648	6.8935e-05	3.5818e-05	2.0603e-05	209.28	2.7675e-07	3.744e-07	250.68	36.7	7.3273e-07	5.9293e-07	71.437	22.521	10.528	3.0781	5.1498e-07	7.4251	3.4157e-06	1.7446e-06	5.1168e-07	180.29	2.0535e-08	1.8449e-08	216.13	31.425	2.5914e-08	1.6059e-08	60.475	18.946	8.9846	2.5999	2.0832e-08	6.1982	69.927	65.019	54.258	-12.267	116.003	130.070	-12.823	-7.074	158.530	109.271	-9.558	-4.886	-1.939	3.623	103.929	0.315	-8191	255	
3698.455	1	1	0	0	0.27098	0.33813	0.3404	0.24215	0.03042	0.20116	0.099223	0.1462	0.11048	0.059626	0.19671	0.23277	0.19356	0.17492	0.1971	0.23962	-0.06875	-0.95208	-1.2375	-0.47917	-1.275	-1.0833	-0.5625	-1.2083	-0.48125	-0.87917	-1.4229	-0.60625	-1.3062	-0.96042	-0.34583	-1.4562	169.924	76.560	22.685	83.582	98.142	248.492	103.954	178.968	274.702	18.636	147.300	69.612	248.525	135.833	187.525	55.995	6.0047e-05	8.1022e-05	6.0403e-06	210.5	2.9339e-07	3.357e-07	253.19	35.59	9.2945e-07	1.1028e-06	72.51	22.165	10.598	3.0193	7.7242e-07	7.2693	3.1677e-06	1.6876e-06	3.6023e-07	180.59	1.6483e-08	1.3654e-08	216.84	31.112	2.5427e-08	1.9681e-08	60.424	18.82	9.0347	2.5726	2.5087e-08	6.1167	79.956	17.826	63.177	-12.795	183.930	328.745	-13.992	-7.668	93.556	69.126	-10.153	-5.008	-1.731	3.428	93.469	0.718	-8191	255	
3698.574	1	1	0	0	0.24457	0.12658	0.23331	0.047911	0.086815	0.15975	0.11204	0.16441	0.16079	0.11065	0.21239	0.22073	0.234	0.019608	0.13865	0.28588	-0.36667	-0.83125	-1.4875	-0.47292	-1.3	-1.225	-0.35	-1.5208	-0.80833	-0.76042	-1.3438	-0.575	-1.0542	-1.1875	-0.36667	-1.4458	13.522	321.030	170.862	28.876	167.095	265.922	205.459	310.160	249.860	-9.987	48.650	121.730	307.656	320.701	269.751	287.181	5.8422e-05	9.0532e-05	2.4118e-05	210.58	2.9255e-07	2.8034e-07	246.01	35.771	8.8732e-07	1.0199e-06	71.35	22.084	10.282	2.9758	4.9629e-07	7.411	3.2102e-06	1.977e-06	3.1607e-07	181.12	1.8479e-08	1.58e-08	217.14	31.268	2.3829e-08	2.1264e-08	60.517	18.833	8.9067	2.5376	2.299e-08	6.1947	41.838	28.680	69.131	-12.171	102.156	-23.881	-13.848	-6.704	79.244	90.259	-9.059	-5.009	-2.674	2.091	59.675	-0.304	-8191	255	
3698.648	1	1	0	0	0.089457	0.1951	0.19796	0.14902	0.097937	0.0066912	0.22547	0.23456	0.17712	0.19478	0.19888	0.078328	0.18994	0.27534	0.11501	0.20741	-0.41458	-0.57708	-1.5	-0.525	-1.1292	-1.3292	-0.44167	-1.4125	-0.875	-0.75417	-1.65	-0.71667	-1.1604	-1.1229	-0.5125	-1.5021	296.446	196.919	92.265	315.082	262.831	298.856	162.143	202.240	260.407	188.776	-7.396	276.146	148.919	246.579	99.316	132.321	6.9122e-05	6.6675e-05	1.7573e-05	210.99	2.9866e-07	9.1314e-07	251.17	35.723	1.4653e-07	5.5522e-07	72.196	22.447	10.508	3.0982	3.3404e-07	7.4098	3.2061e-06	2.3164e-06	2.2776e-07	181.72	2.1023e-08	1.644e-08	217.32	31.107	2.3159e-08	1.9544e-08	60.842	18.998	9.0377	2.6253	2.1364e-08	6.2565	81.610	18.356	60.775	-12.670	82.048	89.228	-14.037	-7.515	116.185	110.698	-8.718	-4.252	-2.032	4.367	37.836	-0.035	-8191	255	
3698.744	1	1	0	0	0.1491	0.12589	0.284	0.070771	0.3747	0.035342	0.058024	0.12758	0.036996	0.074491	0.22202	0.20907	0.070303	0.28729	0.09201	0.23022	-0.575	-0.58542	-1.3729	-0.41458	-0.97917	-1.2188	-0.56458	-1.225	-0.63958	-0.70625	-1.4271	-0.64167	-1.0667	-1.2896	-0.55	-1.3687	149.609	54.501	199.534	74.460	323.513	18.821	-0.716	304.920	-4.255	309.594	-21.448	19.261	256.944	63.699	59.350	90.905	5.67e-05	6.0272e-05	3.9097e-05	208.51	1.5898e-07	3.1062e-07	247.97	35.932	2.8399e-07	5.7884e-07	72.455	22.509	10.56	3.1028	7.1377e-07	7.532	2.9128e-06	2.1411e-06	4.1213e-07	180.44	2.0459e-08	1.6653e-08	215.57	31.429	2.497e-08	2.1127e-08	61.183	19.19	9.0614	2.6117	2.3522e-08	6.281	86.756	-19.871	33.883	-12.581	133.432	194.637	-13.193	-6.736	98.251	106.119	-8.642	-4.610	-2.390	3.597	76.213	-0.865	-8191	255	
3698.840	1	1	0	0	0.099229	0.061837	0.18837	0.1923	0.29626	0.054667	0.019161	0.123	0.22014	0.22333	0.086716	0.25901	0.39973	0.052445	0.1832	0.18309	-0.61458	-0.51458	-1.3937	-0.5875	-0.94583	-1.1688	-0.65417	-1.3021	-0.975	-0.42083	-1.4604	-0.59583	-0.8	-1.3896	-0.42708	-1.5292	68.228	-22.943	187.276	92.235	44.890	310.940	122.278	76.179	32.145	77.533	325.328	117.464	197.730	28.928	64.548	274.102	4.6021e-05	5.1812e-05	2.767e-05	207.07	6.6117e-07	4.9676e-07	245.41	35.928	7.5386e-07	4.4437e-07	72.53	21.83	10.487	3.0479	9.8896e-07	7.1469	3.0636e-06	2.1397e-06	3.0639e-07	179.28	2.1617e-08	1.2193e-08	213.2	31.436	1.7449e-08	2.2497e-08	61.071	18.775	8.9995	2.5722	2.302e-08	6.0606	70.645	57.825	-15.830	-11.821	138.963	134.710	-13.191	-6.699	51.380	169.510	-9.003	-4.121	-2.329	5.432	102.474	-0.629	-8191	255	
3698.959	1	1	0	0	0.14425	0.21211	0.20741	0.093149	0.14104	0.19241	0.23343	0.058031	0.15779	0.060943	0.067258	0.12002	0.19697	0.1423	0.024969	0.17257	-0.85	-0.44583	-1.525	-0.55417	-0.95833	-1.5125	-0.2375	-1.4104	-1.1875	-0.34167	-1.775	-0.39375	-0.73333	-1.7	-0.36458	-1.4667	292.014	73.352	23.541	145.101	73.060	254.038	272.422	3.651	32.478	31.789	76.409	123.508	227.182	289.238	106.035	19.089	3.0673e-05	0.00010215	3.909e-05	202.12	3.2218e-07	5.1193e-07	238.17	36.091	5.4472e-07	6.3828e-07	71.135	21.998	10.396	2.9892	3.327e-07	7.2529	2.7251e-06	2.379e-06	3.6604e-07	174.56	2.0535e-08	1.3502e-08	208.31	31.081	2.0403e-08	2.1234e-08	59.807	18.648	8.9189	2.5507	2.3157e-08	6.1262	59.427	55.465	2.993	-12.920	86.584	82.864	-13.422	-7.219	107.754	56.547	-9.959	-4.346	-1.064	3.919	77.282	-0.168	-8191	255	
3699.055	1	1	0	0	0.098173	0.079419	0.028146	0.13437	0.39556	0.16634	0.092008	0.27089	0.26988	0.041177	0.10151	0.088094	0.087659	0.27853	0.092859	0.13508	-0.90208	-0.23333	-1.5729	-0.61667	-0.83333	-1.6458	-0.52292	-1.1292	-1.1812	-0.29167	-1.4667	-0.57292	-0.72917	-1.5229	-0.49167	-1.025	75.361	-23.766	272.884	209.930	213.314	256.272	157.102	-4.282	167.903	170.849	330.329	268.259	304.915	76.431	54.721	13.476	5.6171e-05	8.2711e-05	3.4923e-05	203.33	2.0702e-07	3.9326e-07	242.48	35.668	4.2838e-07	5.5683e-07	72.059	21.898	10.354	2.9813	6.3385e-07	7.2353	2.9389e-06	2.162e-06	3.3544e-07	176.61	2.1251e-08	1.1234e-08	211.28	31.045	1.6977e-08	2.1645e-08	59.979	18.655	8.8348	2.5447	2.1334e-08	6.1521	69.459	3.498	55.694	-12.778	108.352	117.931	-13.202	-7.548	8.497	106.428	-9.880	-5.317	-2.282	2.415	74.772	0.019	-8191	255	
3699.151	1	1	0	0	0.21806	0.05349	0.21153	0.22127	0.25343	0.12345	0.16193	0.18452	0.13005	0.19608	0.10781	0.10534	0.1383	0.51253	0.32584	0.25816	-0.85	-0.41458	-1.3188	-0.85208	-0.58333	-1.4208	-0.48333	-1.0146	-1.1854	-0.475	-1.4271	-0.86667	-0.66667	-1.4208	-0.70833	-0.93333	166.872	74.875	85.947	291.756	318.225	100.719	298.389	50.208	2.080	157.330	142.615	20.432	324.290	266.438	67.739	81.708	4.9969e-05	3.179e-05	1.0765e-05	206.45	3.8958e-07	6.159e-07	248.98	35.948	1.8158e-07	2.0138e-08	70.707	21.905	10.267	3.0309	9.148e-07	7.5647	2.6991e-06	2.0159e-06	3.1569e-07	179.19	2.5045e-08	1.4065e-08	216.84	31.33	1.8454e-08	1.9712e-08	59.964	18.867	8.7499	2.5912	2.2276e-08	6.2786	62.854	-24.272	88.682	-12.536	109.210	92.381	-13.575	-6.964	123.692	18.254	-9.714	-5.416	-2.869	2.217	44.430	-0.432	-8191	255	
3699.247	1	1	0	0	0.22017	0.34252	0.27963	0.021946	0.11976	0.28835	0.12249	0.12546	0.23782	0.10232	0.066347	0.29307	0.44618	0.059194	0.089633	0.14638	-0.91667	-0.44583	-1.2625	-0.87708	-0.5875	-1.3854	-0.84583	-1.1313	-1.1729	-0.37292	-1.2729	-1.0146	-0.27292	-1.575	-0.49167	-0.74583	41.510	249.482	194.734	5.467	-17.827	260.783	87.320	146.837	273.920	26.279	10.002	102.830	301.937	132.204	260.652	256.436	5.4999e-05	8.4954e-05	2.3417e-05	208.01	2.8598e-07	5.9647e-07	253.22	36.095	3.1577e-07	6.6394e-07	71.173	22.086	10.215	3.0165	6.2365e-07	7.3037	2.769e-06	1.8796e-06	3.7766e-07	181.3	2.2668e-08	1.3715e-08	221.42	31.326	2.0525e-08	2.2284e-08	60.155	18.752	8.7441	2.5526	2.0392e-08	6.113	82.995	-14.052	0.888	-12.514	325.059	158.761	-14.220	-6.321	115.623	70.877	-9.723	-4.518	-3.441	2.263	103.398	0.437	-8191	255	
3699.344	1	1	0	0	0.386	0.14248	0.3733	0.14462	0.082177	0.14528	0.12072	0.14796	0.34385	0.24441	0.037822	0.088697	0.11192	0.36458	0.17956	0.21367	-1.0583	-0.68125	-1.0063	-0.94583	-0.43542	-1.3167	-0.52083	-0.66875	-1.3625	-0.45625	-1.3771	-0.925	-0.35208	-1.3042	-0.65	-0.86458	156.125	271.090	165.755	118.326	121.938	39.136	250.773	33.177	137.368	187.650	298.754	199.725	201.994	266.117	289.529	-20.439	4.3115e-05	3.7785e-05	2.0531e-05	210.47	2.9781e-07	1.062e-06	253.19	36.023	8.4581e-07	5.7701e-07	70.312	21.366	10.261	2.9377	8.288e-07	7.3458	2.6717e-06	2.1745e-06	3.9199e-07	181.42	2.6705e-08	1.6014e-08	221.44	31.256	1.7753e-08	2.3395e-08	59.807	18.57	8.7525	2.5367	2.1759e-08	6.1033	88.844	96.245	35.017	-12.240	89.369	111.030	-13.462	-5.969	89.439	71.023	-10.431	-5.000	-2.248	3.960	142.853	-0.227	-8191	255	
3699.440	1	1	0	0	0.086039	0.28352	0.17091	0.19499	0.056917	0.34818	0.20106	0.2933	0.23946	0.045651	0.015521	0.17839	0.26072	0.076354	0.22997	0.035676	-1.1646	-0.53542	-1.1479	-1.0917	-0.45417	-1.2667	-0.71667	-0.75208	-1.3167	-0.55	-1.3333	-1.2042	-0.40208	-1.4229	-0.69583	-0.65	296.068	113.437	79.577	134.844	170.981	158.928	249.296	92.347	240.306	169.376	46.103	301.150	305.085	149.345	280.037	162.387	4.3159e-05	5.0362e-05	3.3021e-05	207.92	1.1501e-06	7.0119e-07	251.15	35.069	4.9237e-07	4.2237e-07	71.385	22.035	10.382	2.992	6.5594e-07	7.319	2.8224e-06	2.3721e-06	4.9464e-07	180.25	2.6126e-08	1.5298e-08	219.82	31.006	1.8576e-08	2.1401e-08	60.221	18.762	8.7401	2.5627	2.0802e-08	6.1631	26.708	27.302	7.584	-12.085	129.959	105.746	-13.664	-7.317	140.551	154.961	-9.756	-4.675	-3.058	2.577	-0.789	-1.009	-8191	255	
3699.560	1	1	0	0	0.12844	0.10652	0.28757	0.098828	0.15584	0.18906	0.11768	0.05763	0.21317	0.34805	0.16701	0.13063	0.061078	0.15465	0.24372	0.29016	-1.1042	-0.42292	-1.1271	-1.175	-0.23542	-1.2354	-0.82917	-0.47083	-1.3958	-0.61667	-1.0125	-1.25	-0.29167	-1.4771	-0.86458	-0.775	283.340	234.106	77.065	254.517	39.201	190.989	245.438	123.465	162.395	315.383	6.855	164.562	307.660	172.963	321.195	332.539	5.6469e-05	3.9844e-05	3.4606e-06	207.1	5.6319e-07	4.6923e-07	250.36	35.961	4.0052e-07	3.2982e-07	70.823	21.947	10.26	3.0219	5.9545e-07	7.3337	2.9101e-06	2.1495e-06	4.0787e-07	179.73	2.6629e-08	1.4978e-08	217.52	31.238	1.9763e-08	1.7231e-08	60.025	18.635	8.7795	2.5642	1.8447e-08	6.2187	64.277	98.390	72.722	-12.452	108.994	110.573	-13.115	-5.947	189.375	155.225	-9.450	-4.644	-1.691	4.146	313.819	-0.318	-8191	255	
3699.655	1	1	0	0	0.045689	0.23055	0.18419	0.11311	0.12382	0.050757	0.20521	0.31376	0.12072	0.16468	0.15093	0.096124	0.04759	0.040353	0.12518	0.063758	-1.25	-0.50208	-1.0583	-1.0979	-0.25625	-1.4583	-0.95625	-0.59167	-1.6083	-0.68333	-0.82292	-1.2458	-0.48958	-1.3354	-0.95	-0.68125	27.665	233.690	-19.607	249.098	100.169	289.553	-0.791	63.636	25.624	57.175	335.664	334.633	179.447	189.809	39.923	269.313	5.1184e-05	3.0522e-05	1.6882e-05	209.33	2.6605e-07	4.6258e-07	247.04	36.384	2.6306e-07	8.7741e-07	70.597	21.656	10.193	2.9753	3.9102e-07	7.1751	2.9444e-06	1.9728e-06	4.8069e-07	180.6	2.3232e-08	1.4141e-08	216.92	31.436	1.9489e-08	2.1812e-08	60.082	18.618	8.7083	2.5083	1.9054e-08	6.027	64.090	54.959	60.084	-12.543	117.191	164.334	-13.437	-6.209	97.028	112.623	-9.507	-5.308	-2.746	3.403	80.550	-0.580	-8191	255	
3699.751	1	1	0	0	0.38702	0.068804	0.2715	0.3471	0.13127	0.23606	0.10703	0.15596	0.12074	0.12149	0.19509	0.11091	0.25652	0.16867	0.064812	0.2801	-1.1479	-0.85833	-0.98333	-1.4333	-0.45625	-1.3229	-0.95	-0.57083	-1.4	-0.66042	-0.88542	-1.3229	-0.36875	-1.0625	-0.83958	-0.30417	129.430	160.147	133.156	163.462	147.404	280.414	224.125	266.891	130.155	236.195	106.957	210.471	324.632	-22.564	260.305	311.172	4.4542e-05	3.2071e-05	1.6876e-05	207.1	4.6566e-07	2.8356e-07	249.84	35.914	3.5469e-07	4.5756e-07	70.361	21.885	10.047	2.991	4.1094e-07	7.3768	2.8032e-06	1.8364e-06	4.2104e-07	178.87	2.6751e-08	1.4187e-08	217.19	31.213	1.6718e-08	1.8387e-08	59.487	18.465	8.6515	2.5099	1.7292e-08	6.0569	57.390	41.945	59.948	-12.700	115.913	152.109	-13.471	-6.569	174.343	82.619	-9.190	-4.474	-3.835	2.771	40.884	-2.171	-8191	255	
3699.849	1	1	0	0	0.39392	0.13638	0.14493	0.19875	0.11898	0.43453	0.1412	0.16681	0.14615	0.14441	0.15491	0.071533	0.29483	0.25112	0.079615	0.34216	-1.2	-0.5125	-0.84167	-1.375	-0.23125	-1.4875	-1.3125	-0.43958	-1.5875	-0.775	-0.80417	-1.7	-0.22708	-1.3021	-1.0896	-0.32292	223.093	307.812	279.767	4.067	96.689	43.946	85.714	-25.499	35.903	202.522	288.026	33.518	179.400	28.194	-21.643	246.278	4.6183e-05	7.9373e-05	1.7861e-05	210.84	3.4776e-07	5.0422e-07	256.94	36.574	2.2204e-07	5.4047e-07	70.652	22.009	10.389	2.9952	4.8792e-07	7.3502	2.3443e-06	1.8434e-06	4.4622e-07	180.78	2.4451e-08	1.644e-08	220.29	31.546	1.888e-08	2.0016e-08	59.671	18.547	8.7	2.5162	1.4359e-08	6.1063	44.252	52.916	36.232	-14.175	61.453	169.733	-14.598	-8.148	110.130	125.503	-10.477	-6.377	-3.381	0.964	75.214	-1.877	-8191	255	
3699.943	1	1	0	0	0.22021	0.23699	0.036105	0.17269	0.24426	0.042514	0.079139	0.17665	0.095203	0.092936	0.13696	0.045345	0.092113	0.016435	0.10852	0.23858	-1.2313	-0.46667	-0.69167	-1.5583	-0.11042	-1.5125	-1.1208	-0.3625	-1.4833	-0.68333	-0.67083	-1.4625	-0.35	-1.0375	-1.1542	-0.33333	13.009	34.014	58.213	191.139	124.965	66.395	139.530	145.890	49.103	222.534	-17.783	209.224	76.540	290.227	95.266	79.088	4.6632e-05	5.5703e-05	2.1453e-05	212.53	8.2313e-07	8.2065e-07	259.87	36.091	6.8003e-07	7.4084e-07	71.348	22.166	10.3	3.0171	5.1369e-07	7.5175	2.2744e-06	1.8768e-06	4.8108e-07	181.44	2.6675e-08	1.4948e-08	221.81	31.317	1.7936e-08	1.8844e-08	59.936	18.619	8.7016	2.5401	1.8766e-08	6.2076	51.103	44.699	328.548	-13.908	94.468	54.414	-15.493	-8.472	109.552	127.954	-11.212	-6.275	-4.205	2.024	61.776	-2.020	-8191	255	
3700.039	1	1	0	0	0.30517	0.15339	0.17573	0.25377	0.10611	0.12528	0.10159	0.10976	0.18202	0.1462	0.17276	0.1404	0.065787	0.11173	0.13367	0.15119	-1.3104	-0.69583	-0.57708	-1.5583	-0.3125	-1.0917	-1.4604	-0.3125	-1.4562	-0.47917	-0.58958	-1.6458	-0.52292	-0.78958	-1.2875	-0.3875	-8.361	49.939	46.153	89.327	61.549	208.715	250.694	227.044	285.385	105.971	319.990	70.454	321.381	280.437	-23.101	146.269	5.7759e-05	6.5697e-05	3.4955e-05	215.56	5.0098e-07	8.7889e-07	258.31	36.817	1.7423e-07	5.8101e-07	73.179	22.156	10.201	3.0361	7.5871e-07	7.4989	2.8348e-06	2.0451e-06	5.1594e-07	183.96	2.5334e-08	1.4552e-08	224.63	31.618	1.8286e-08	1.927e-08	60.666	18.726	8.6063	2.5592	1.9237e-08	6.1721	64.084	66.707	25.632	-13.669	198.280	80.847	-14.675	-7.843	321.080	43.745	-11.131	-6.930	-3.366	2.592	130.925	-1.887	-8191	255	
3700.135	1	1	0	0	0.15708	0.20379	0.15901	0.22876	0.041771	0.12874	0.27322	0.12588	0.12417	0.32676	0.098073	0.050049	0.015522	0.16013	0.16948	0.12265	-0.64375	-1.0375	-0.47292	-1.3375	-0.34375	-1.0646	-1.0167	-0.14375	-1.2313	-0.85417	-0.48333	-1.2792	-0.57083	-0.71042	-1.2875	-0.070833	290.684	316.244	309.917	58.249	70.477	209.876	280.363	1.532	233.123	225.106	8.294	54.582	191.384	222.917	137.537	191.208	6.0364e-05	5.3429e-05	2.2157e-05	217	3.914e-08	5.818e-07	268.14	37.193	1.0826e-07	5.9862e-07	71.921	21.99	10.109	2.9565	1.0692e-06	7.2218	2.8622e-06	1.6792e-06	5.0936e-07	184.46	2.3064e-08	1.8845e-08	229.26	31.787	2.0296e-08	1.481e-08	60.103	18.437	8.587	2.5197	1.6395e-08	6.0475	71.122	1.187	14.497	-13.464	-13.591	138.433	-14.861	-8.199	32.358	71.312	-12.394	-6.046	-4.435	2.144	70.009	-2.738	-8191	255	
3700.256	1	1	0	0	0.031126	0.23229	0.42798	0.24153	0.25853	0.24549	0.11574	0.082999	0.1257	0.19735	0.29675	0.43363	0.31518	0.061433	0.27747	0.10784	-0.87708	-1.0021	-0.525	-1.2938	-0.4625	-0.73333	-1.3625	-0.55833	-1.2833	-1.0021	-0.56667	-1.3479	-0.57083	-0.875	-1.1729	-0.30417	303.267	325.537	246.458	165.598	-8.123	27.306	212.472	281.590	325.096	207.818	281.480	179.143	25.095	-0.462	279.446	253.439	6.5236e-05	9.4525e-05	1.7471e-05	217.3	5.4888e-07	8.0578e-07	266.81	36.329	7.2236e-07	5.8243e-07	70.748	21.828	10.309	2.9646	9.2027e-08	7.2888	2.7909e-06	2.0159e-06	5.8644e-07	184.17	2.7376e-08	2.0458e-08	226.81	31.064	1.8088e-08	1.8601e-08	59.746	18.365	8.6451	2.5117	1.8386e-08	6.0706	60.156	66.164	1.987	-14.640	91.138	114.466	-15.965	-8.674	123.951	123.517	-11.255	-5.490	-2.895	0.746	306.978	-2.105	-8191	255	
3700.352	1	1	0	0	0.36595	0.17496	0.15909	0.080377	0.28803	0.086116	0.13889	0.13596	0.30654	0.096366	0.082054	0.12005	0.21227	0.12226	0.32138	0.16685	-1.0125	-1.1479	-0.49583	-1.5542	-0.38333	-0.91458	-1.3708	-0.30625	-1.2979	-1.1542	-0.30417	-1.7042	-0.7125	-0.75	-1.4042	-0.41667	74.600	51.970	284.253	264.860	189.293	238.832	-0.120	5.399	94.705	163.605	102.272	107.580	129.083	292.568	239.317	131.024	4.5058e-05	0.00013632	1.0136e-05	214.97	1.078e-06	6.9621e-07	261	36.771	6.4835e-07	2.2485e-07	71.86	22.198	10.292	3.0172	6.5313e-07	7.2721	2.8622e-06	1.6709e-06	4.989e-07	184.41	2.7695e-08	2.1874e-08	227.09	31.365	2.1392e-08	1.2512e-08	60.321	18.668	8.7017	2.5183	1.2277e-08	6.1085	53.605	48.336	35.038	-14.646	133.989	131.805	-15.570	-8.811	128.229	80.740	-11.173	-6.252	-3.922	2.389	66.637	-1.167	-8191	255	
3700.448	1	1	0	0	0.29663	0.12608	0.13916	0.15796	0.16362	0.1374	0.14536	0.31205	0.23298	0.14101	0.24345	0.2321	0.17987	0.11796	0.16731	0.08957	-0.65625	-1.0688	-0.55417	-1.35	-0.73542	-0.53958	-1.6292	-0.25208	-1.225	-1.2708	-0.27708	-1.7875	-0.8	-0.73125	-1.5417	-0.26875	277.241	109.694	108.940	249.706	41.301	107.424	308.394	309.399	178.896	47.739	311.549	321.346	113.138	233.454	116.799	15.630	5.7058e-05	2.5563e-05	2.0226e-05	217.84	4.4068e-07	1.0446e-06	265.73	37.024	5.927e-08	3.1376e-07	72.407	21.749	10.395	2.9415	1.7343e-07	7.3948	2.6525e-06	1.6417e-06	5.1788e-07	185.02	2.2638e-08	2.6319e-08	228.45	31.692	1.9261e-08	1.653e-08	60.825	18.587	8.7139	2.5115	1.2323e-08	6.0792	57.110	19.280	101.696	-13.640	78.493	69.108	-15.370	-8.898	299.902	304.828	-11.273	-5.707	-4.801	1.002	183.415	-2.213	-8191	255	
3700.520	1	1	0	0	0.036402	0.15374	0.286	0.10037	0.14983	0.068187	0.37305	0.40934	0.23908	0.066798	0.017088	0.35371	0.04427	0.066924	0.045516	0.18904	-0.84792	-1.2375	-0.09375	-1.4479	-0.82708	-0.55208	-1.4729	-0.42917	-0.89375	-1.0792	-0.44167	-1.2708	-0.89583	-0.5875	-1.3604	-0.4625	67.883	85.716	50.185	197.179	113.142	296.518	39.523	315.248	184.648	262.797	162.852	313.168	331.151	304.855	170.797	124.916	6.571e-05	1.6016e-05	1.4145e-05	213.81	2.1975e-07	2.2544e-07	266.19	36.088	5.9882e-07	1.3849e-06	71.709	21.845	10.105	3.0141	6.0444e-07	7.1443	2.5429e-06	1.4845e-06	5.5816e-07	183.75	2.0886e-08	1.6836e-08	229.3	31.18	2.1316e-08	1.4963e-08	60.011	18.327	8.5616	2.5051	1.3645e-08	6.0022	84.708	43.541	23.108	-14.125	142.159	66.906	-15.104	-8.528	103.177	93.867	-12.410	-6.940	-3.543	1.135	91.866	-1.162	-8191	255	
3700.641	1	1	0	0	0.069826	0.1818	0.1835	0.21924	0.10552	0.24737	0.15447	0.064161	0.19204	0.10533	0.073774	0.23405	0.019824	0.21789	0.21058	0.38142	-0.54375	-1.2167	-0.44583	-1.2604	-0.84583	-0.54167	-1.65	-0.47292	-1.0312	-1.2125	-0.40833	-1.3563	-0.75	-0.44792	-1.4708	-0.4	284.271	200.269	256.452	218.137	189.620	308.845	167.585	254.331	136.054	42.674	99.060	180.982	242.268	52.951	274.802	266.356	5.5075e-05	3.3858e-06	2.6939e-05	222.94	7.3546e-07	8.0634e-07	274.97	36.99	5.5319e-07	5.2654e-07	73.096	22.006	9.8771	3.0104	6.4577e-07	7.4215	2.7841e-06	1.3857e-06	5.5739e-07	187.3	1.9728e-08	1.7962e-08	235.84	31.65	1.8956e-08	1.1675e-08	60.349	18.396	8.5057	2.5287	1.5879e-08	6.0668	75.742	227.250	13.969	-14.256	107.164	85.305	-14.982	-7.645	174.826	109.385	-11.402	-6.191	-4.574	1.311	54.949	-1.986	-8191	255	
3700.737	1	1	0	0	0.28509	0.25441	0.073841	0.25659	0.040539	0.3983	0.15228	0.24628	0.19207	0.055822	0.31829	0.17561	0.088105	0.25128	0.068902	0.17595	-0.36042	-1.4104	-0.36458	-1.1875	-1.0187	-0.525	-1.3167	-0.65833	-0.90208	-1.2146	-0.51458	-1.1812	-1.0562	-0.49375	-1.3354	-0.70208	118.702	151.284	14.400	314.174	39.456	183.998	172.306	81.749	47.791	133.501	315.772	15.880	255.785	32.536	-5.664	195.507	6.0334e-05	6.9336e-05	6.1267e-06	226.4	5.0111e-07	6.4522e-07	287.24	36.823	4.2445e-07	2.3095e-07	74.842	21.382	10.24	2.9944	9.0924e-07	7.454	2.9019e-06	1.5985e-06	5.0161e-07	191.69	1.9759e-08	1.7749e-08	244.97	31.847	2.4529e-08	1.5495e-08	62.428	18.406	8.5807	2.5172	1.3949e-08	6.1753	67.755	10.395	330.367	-13.421	95.976	173.047	-15.346	-7.670	111.327	61.230	-11.594	-5.995	-4.606	2.844	80.656	-2.730	-8191	255	
3700.831	1	1	0	0	0.1908	0.23113	0.063676	0.21349	0.24127	0.17564	0.27293	0.32452	0.086794	0.14051	0.065764	0.093771	0.012302	0.10552	0.23178	0.030547	-0.44792	-1.4062	-0.54583	-1.0479	-1.1938	-0.40208	-1.5375	-0.61042	-0.55	-1.5354	-0.35833	-1.3771	-1.0354	-0.052083	-1.4229	-0.53125	304.877	124.964	-17.671	4.380	17.611	212.634	220.669	285.045	140.446	331.242	41.713	149.362	18.735	161.699	213.578	288.422	6.205e-05	2.9198e-05	2.3007e-05	229.21	1.0536e-07	4.6246e-07	296.69	37.327	2.3393e-07	7.2194e-07	74.213	21.872	10.263	2.9653	5.71e-07	7.5362	3.2115e-06	1.2674e-06	5.388e-07	195.03	1.9286e-08	2.1737e-08	254.57	32.195	2.2808e-08	1.4917e-08	62.742	18.459	8.6453	2.5425	1.3356e-08	6.21	78.999	196.936	3.780	-13.902	67.233	187.106	-14.949	-8.029	120.497	50.145	-11.476	-5.899	-4.568	1.499	41.941	-1.344	-8191	255	
3700.929	1	1	0	0	0.30379	0.16556	0.29923	0.31019	0.192	0.20468	0.21045	0.23619	0.18865	0.27798	0.084334	0.074628	0.10259	0.15481	0.13446	0.1653	-0.32917	-1.6812	-0.41667	-1.1271	-1.0292	-0.12292	-1.4875	-0.80417	-0.77083	-1.5104	-0.43333	-0.9	-1.3146	-0.3625	-1.2271	-0.79792	22.503	7.236	65.649	271.560	-6.101	144.030	139.178	133.654	203.590	66.969	20.686	331.415	240.736	323.510	1.059	135.473	6.3077e-05	5.4987e-05	2.7605e-05	234.11	7.9481e-07	9.1936e-07	312.2	37.798	4.1171e-07	5.2462e-07	75.493	20.971	9.9735	2.8643	5.6557e-07	7.2552	3.3253e-06	1.5178e-06	4.8031e-07	201	2.1084e-08	2.2742e-08	268.39	32.722	2.395e-08	1.3304e-08	62.975	17.894	8.4323	2.4833	1.6699e-08	6.0267	68.034	15.303	26.793	-13.626	117.231	100.846	-14.996	-7.436	70.463	144.325	-10.298	-6.080	-3.335	2.011	20.673	-2.309	-8191	255	
3701.048	1	1	0	0	0.029501	0.075921	0.33134	0.22714	0.18685	0.15097	0.38928	0.15257	0.25618	0.29074	0.2772	0.10862	0.11241	0.29329	0.18938	0.065301	-0.23333	-1.4354	-0.53542	-0.9	-1.3792	-0.31458	-1.3687	-0.64375	-0.625	-1.3667	-0.3375	-1.0187	-1.1187	-0.34792	-1.4042	-0.9375	232.884	151.666	210.817	4.227	146.345	242.834	130.402	254.875	147.861	58.699	251.203	110.927	181.792	102.389	103.397	223.674	5.3938e-05	0.00011254	2.3468e-05	238.52	3.5139e-07	6.7892e-07	317.15	38.796	4.3542e-07	6.9442e-07	74.717	21.107	10.126	3.0055	6.7274e-07	7.4619	3.4157e-06	1.9199e-06	5.6087e-07	203.25	1.8281e-08	2.2666e-08	272.95	33.015	2.5701e-08	1.376e-08	62.735	18.007	8.484	2.5135	1.8386e-08	6.1852	40.415	1.380	-19.070	-14.200	17.123	139.250	-15.304	-7.965	105.151	121.505	-11.150	-5.468	-2.511	1.994	75.814	-1.806	-8191	255	
3701.120	1	1	0	0	0.22188	0.14298	0.23756	0.18719	0.08113	0.39591	0.064298	0.18383	0.042244	0.15072	0.23447	0.24453	0.24071	0.10599	0.060681	0.14953	-0.2375	-1.6458	-0.35833	-0.95833	-1.3937	-0.28958	-1.4396	-0.84583	-0.32917	-1.6292	-0.47292	-0.8125	-1.3	-0.20625	-1.2104	-0.98958	89.191	154.257	240.174	267.834	248.616	272.017	194.153	-10.380	131.384	159.002	-16.428	179.621	265.805	323.207	80.559	37.631	6.5564e-05	8.353e-05	2.227e-05	236.38	7.1422e-07	2.0754e-07	313.16	38.099	7.5954e-07	7.7777e-07	74.839	21.819	10.104	3.0237	1.0797e-06	7.5339	3.3787e-06	1.2855e-06	5.8915e-07	202.89	1.9606e-08	1.9804e-08	271.55	32.534	2.9081e-08	1.4734e-08	63.022	18.28	8.5684	2.5594	1.4906e-08	6.2567	54.604	75.612	29.861	-13.483	157.203	121.745	-14.867	-8.224	111.079	67.541	-10.991	-4.552	-3.187	2.760	90.335	-2.138	-8191	255	
3701.240	1	1	0	0	0.23998	0.11505	0.17789	0.31967	0.055803	0.050164	0.23052	0.092441	0.10099	0.30603	0.24303	0.19038	0.15894	0.21323	0.20062	0.16265	-0.13542	-1.3604	-0.45417	-1.0063	-1.5646	-0.32708	-1.1583	-0.97917	-0.475	-1.4354	-0.65417	-0.66042	-1.4583	-0.48542	-1.0667	-1.1562	295.806	197.840	108.978	-4.947	254.374	284.712	13.593	328.441	232.843	292.947	255.429	114.362	260.183	113.364	303.608	281.802	6.6236e-05	4.8808e-05	1.95e-05	232.19	4.0741e-07	7.4887e-07	312.84	37.749	1.7329e-07	1.187e-06	76.025	22.056	10.072	3.0305	4.0598e-07	7.5853	3.4102e-06	1.4719e-06	4.7372e-07	200.91	1.7732e-08	2.0428e-08	269.06	32.509	2.4681e-08	1.481e-08	63.34	18.401	8.5772	2.5844	2.0392e-08	6.2371	74.909	73.887	19.923	-13.900	136.954	125.673	-14.317	-7.523	154.814	127.255	-10.206	-5.147	-3.025	2.053	63.078	-2.152	-8191	255	
3701.337	1	1	0	0	0.3479	0.078485	0.31961	0.1421	0.22302	0.23389	0.10624	0.26323	0.15844	0.20658	0.051285	0.13668	0.097683	0.043542	0.088203	0.014486	-0.125	-1.5167	-0.65208	-0.77917	-1.4583	-0.43542	-1.1458	-1.1646	-0.48333	-1.2625	-0.51042	-0.5875	-1.2771	-0.57292	-1.0708	-1.0438	22.145	228.316	203.796	225.996	257.532	151.083	248.284	287.977	269.038	-3.624	-14.842	189.469	315.663	3.183	82.733	197.983	6.5065e-05	4.9297e-05	1.9198e-05	226.78	2.493e-07	5.3262e-07	297.88	37.404	5.0033e-07	1.126e-06	76.238	21.02	10.121	3.0201	3.7574e-07	7.2965	3.1499e-06	1.3565e-06	5.0355e-07	196	1.9713e-08	1.6683e-08	255.99	32.113	2.6798e-08	1.7322e-08	63.136	18.053	8.4693	2.5424	1.8204e-08	6.0284	75.742	103.539	14.149	-13.278	104.823	112.084	-14.650	-7.540	105.836	143.041	-11.024	-4.631	-2.928	2.144	51.187	-1.596	-8191	255	
3701.433	1	1	0	0	0.10976	0.2326	0.25412	0.18188	0.11177	0.14832	0.413	0.066809	0.10345	0.097964	0.11567	0.1343	0.22502	0.14142	0.024192	0.094202	-0.029167	-1.2375	-0.67083	-0.825	-1.3333	-0.45	-1.0771	-1.2687	-0.44167	-1.4208	-0.93958	-0.51875	-1.5063	-0.62292	-1.0396	-1.2354	88.220	329.021	2.802	164.620	50.080	45.414	283.940	170.340	151.258	232.459	167.099	206.400	248.785	320.152	219.580	142.848	6.6497e-05	4.6905e-05	3.3629e-05	224.17	9.4594e-07	5.4591e-07	285.84	36.925	9.4392e-07	6.9895e-07	74.188	21.651	9.8722	3.1302	4.8156e-07	7.1228	3.302e-06	1.4789e-06	5.0626e-07	190.87	1.9347e-08	1.9423e-08	246.6	31.893	2.8381e-08	1.5039e-08	62.523	18.135	8.4024	2.5462	2.0027e-08	5.968	59.503	52.889	48.353	-12.515	147.226	107.835	-13.989	-7.040	142.876	161.173	-10.277	-4.874	-2.643	1.805	89.803	-0.822	-8191	255	
3701.529	1	1	0	0	0.31314	0.2149	0.13354	0.2255	0.11244	0.089294	0.24142	0.06619	0.21697	0.030198	0.28611	0.22774	0.28643	0.12041	0.24159	0.16131	-0.14167	-1.2521	-1.0438	-0.66042	-1.5	-0.56667	-0.82083	-1.2896	-0.42708	-1.3167	-0.87708	-0.62292	-1.3312	-0.53125	-0.81042	-1.5479	160.062	197.075	21.537	195.675	17.350	297.706	237.171	-15.070	307.315	12.622	122.337	179.318	183.511	242.112	200.030	80.163	5.5336e-05	0.00010221	3.707e-05	221.76	8.6554e-07	3.5781e-07	284.65	37.711	7.5859e-07	7.5161e-07	76.487	21.458	10.252	3.0306	7.5067e-07	7.2157	2.9909e-06	1.8225e-06	3.8541e-07	187.98	1.8951e-08	1.9941e-08	243.64	32.087	2.5168e-08	1.5435e-08	63.351	18.082	8.5634	2.5098	2.1607e-08	6.0024	49.599	42.625	38.385	-12.769	165.589	158.774	-14.559	-7.235	65.369	151.627	-10.930	-5.149	-2.863	3.217	50.074	-0.631	-8191	255	
3701.649	1	1	0	0	0.1573	0.18726	0.052807	0.15711	0.0325	0.21648	0.25061	0.18231	0.09626	0.10663	0.14161	0.18855	0.23905	0.17177	0.17053	0.12256	0	-1.3354	-0.84792	-0.49792	-1.525	-0.69583	-0.96875	-1.3167	-0.18125	-1.2542	-0.97292	-0.19375	-1.5562	-0.41875	-0.7375	-1.2938	67.074	332.503	275.989	-23.658	275.035	8.805	163.817	-12.773	43.861	-22.259	186.441	198.562	132.016	77.933	212.102	331.694	6.3141e-05	4.7445e-05	2.0897e-05	215.67	5.9931e-07	1.409e-07	280.33	36.662	7.3659e-07	8.8532e-07	76.242	21.202	10.305	3.0116	9.0492e-07	7.236	3.3266e-06	1.3356e-06	3.6178e-07	185.24	1.6163e-08	2.23e-08	240.41	31.927	2.8609e-08	1.8738e-08	63.122	18.258	8.713	2.5437	2.2291e-08	6.0506	62.999	55.627	-6.808	-14.263	204.981	177.705	-14.795	-8.400	126.000	121.207	-10.926	-6.033	-4.380	2.587	31.334	-2.216	-8191	255	
3701.744	1	1	0	0	0.15082	0.18889	0.30027	0.095459	0.40489	0.20901	0.16949	0.086918	0.35949	0.10245	0.20715	0.10134	0.098626	0.2316	0.11969	0.028704	0.20208	-1.1104	-0.90833	-0.17708	-1.3917	-0.475	-0.83958	-1.6083	-0.18542	-1.2604	-1.2208	-0.18958	-1.4646	-0.675	-0.54167	-1.65	289.530	103.819	83.741	234.845	24.667	82.095	192.080	106.691	321.659	-20.223	137.208	240.849	237.662	243.905	235.527	275.296	5.7755e-05	6.1956e-05	6.3315e-06	214.36	7.0359e-07	4.467e-07	273.54	37.141	3.0629e-07	4.8891e-07	74.602	21.516	10.275	2.9513	7.8323e-08	7.2293	3.2992e-06	1.4705e-06	4.2685e-07	184.19	2.0048e-08	2.0854e-08	236.33	31.868	2.5564e-08	1.7033e-08	62.785	18.188	8.6188	2.5056	2.2154e-08	5.9606	82.466	43.464	59.164	-14.132	108.228	134.277	-16.125	-8.732	50.313	123.239	-11.280	-6.779	-3.747	2.361	111.436	-2.075	-8191	255	
3701.817	1	1	0	0	0.33686	0.14134	0.093291	0.23383	0.069774	0.26092	0.36001	0.19034	0.20773	0.17714	0.12732	0.24421	0.40003	0.1636	0.17061	0.082097	-0.029167	-1.2333	-1.1646	-0.21042	-1.3687	-0.94167	-0.49167	-1.4188	-0.21042	-1.0354	-1.1562	-0.16875	-1.3667	-0.49792	-0.6125	-1.4438	220.390	288.850	102.874	32.358	288.253	10.720	171.420	28.997	163.351	201.599	271.288	215.631	250.211	-10.770	313.475	323.648	4.7552e-05	8.8437e-05	2.328e-05	216.17	6.7075e-07	3.5507e-07	266.72	36.839	1.1812e-07	8.1611e-07	73.957	21.76	10.343	3.0351	8.8012e-07	7.2338	3.2841e-06	2.0451e-06	3.6023e-07	184.03	1.8342e-08	1.9317e-08	230.09	31.799	2.9356e-08	1.9209e-08	62.07	18.22	8.7159	2.5384	2.6637e-08	5.9823	49.824	15.375	13.978	-14.352	139.173	198.160	-15.306	-7.933	52.990	115.325	-12.678	-6.943	-4.633	1.420	91.569	-2.852	-8191	255	
3701.936	1	1	0	0	0.15914	0.10471	0.24544	0.13851	0.21776	0.21081	0.071949	0.12084	0.13674	0.18571	0.1215	0.14983	0.38273	0.17813	0.17671	0.27399	0.21875	-0.74792	-1.4604	-0.28958	-1.2979	-0.6625	-0.52708	-1.4312	-0.45833	-0.85417	-1.1958	-0.37917	-1.4021	-0.85625	-0.54583	-1.3438	-0.149	108.282	-7.033	180.240	57.163	37.416	282.412	59.812	114.794	64.277	240.597	324.379	251.062	-13.547	56.033	94.750	6.1193e-05	0.00011614	4.0007e-05	208.53	6.3882e-07	3.1839e-07	263.77	37.296	8.1253e-07	3.3243e-07	73.584	21.581	10.543	2.9797	3.6708e-07	7.1768	3.539e-06	1.9116e-06	4.1601e-07	180.53	1.7154e-08	1.8677e-08	227.14	32.068	2.8899e-08	2.0518e-08	61.961	18.213	8.8316	2.5263	2.1349e-08	6.0152	55.876	48.678	10.436	-14.040	122.019	127.424	-15.201	-8.758	120.484	152.787	-11.423	-6.980	-3.808	1.755	78.391	-2.195	-8191	255	
3702.032	1	1	0	0	0.13789	0.47842	0.37685	0.18566	0.080173	0.038413	0.34405	0.14677	0.31864	0.29331	0.12667	0.32492	0.16481	0.15939	0.13014	0.084239	-0.14583	-0.87917	-1.0667	-0.18958	-0.93333	-0.96458	-0.37292	-1.4042	-0.50208	-0.78333	-1.3167	-0.33958	-1.1375	-0.88542	-0.33542	-1.525	-15.295	116.249	155.186	290.626	74.817	289.098	283.524	188.319	315.421	269.598	275.200	290.183	-18.307	331.662	94.341	123.780	1.9055e-05	3.1739e-05	1.0762e-05	210.38	7.3578e-07	8.1893e-07	259.98	37.6	6.0871e-07	5.6612e-07	74.642	21.876	10.606	2.9906	1.1071e-07	7.2433	3.3554e-06	1.8963e-06	3.6875e-07	179.3	1.9987e-08	1.7368e-08	222.58	32.483	2.8564e-08	2.0412e-08	62.305	18.467	8.9594	2.5331	2.0939e-08	6.0174	69.613	19.181	15.575	-14.203	132.346	111.023	-15.524	-9.696	129.124	119.929	-11.228	-7.628	-4.146	1.193	131.159	-1.785	-8191	255	
3702.128	1	1	0	0	0.1424	0.1879	0.22983	0.17628	0.030651	0.18838	0.20358	0.18405	0.18819	0.050537	0.063746	0.03632	0.38659	0.20035	0.23451	0.15244	-0.26667	-0.61667	-1.3771	-0.39375	-1.1437	-1.0979	-0.325	-1.3625	-0.45417	-0.60833	-1.4542	-0.34792	-0.97292	-1.1396	-0.075	-1.2	-12.780	311.666	213.760	316.652	60.754	324.891	231.599	269.803	86.349	-12.214	212.042	310.810	247.093	111.310	35.039	116.986	5.5886e-05	4.1739e-05	2.3971e-05	205.68	8.4135e-07	5.2087e-07	247.83	37.749	3.2187e-07	6.9714e-07	73.472	21.564	10.538	2.8957	9.236e-07	6.8401	2.895e-06	2.1467e-06	3.7456e-07	176.22	2.5944e-08	1.5252e-08	213.73	32.22	2.2489e-08	2.1021e-08	61.457	18.245	8.8436	2.4316	2.5132e-08	5.7326	66.946	65.595	8.772	-14.286	147.818	72.494	-15.391	-8.113	172.127	63.618	-11.379	-7.150	-3.716	1.295	48.306	-0.872	-8191	255	
3702.225	1	1	0	0	0.10983	0.22207	0.30059	0.13288	0.18999	0.21581	0.30349	0.15526	0.23979	0.20262	0.081208	0.14254	0.21434	0.034778	0.20825	0.30292	-0.3125	-0.57708	-1.3542	-0.39583	-0.94792	-1.0104	-0.3875	-1.2479	-0.63125	-0.44792	-1.3458	-0.36667	-0.87292	-1.0646	-0.21042	-1.1583	313.995	169.688	240.005	321.538	240.968	246.005	313.364	-21.188	163.124	37.811	60.267	316.410	186.468	122.944	220.481	278.071	3.8388e-05	3.5829e-05	2.8359e-05	204.86	4.7385e-07	1.0612e-06	244.19	36.995	3.3303e-07	2.5611e-08	72.475	21.431	10.776	2.8738	4.3723e-07	6.8817	3.3472e-06	1.945e-06	3.5713e-07	173.5	2.113e-08	1.6759e-08	209.56	31.975	2.2504e-08	2.0518e-08	60.592	18.1	9.0049	2.4417	2.2519e-08	5.7328	94.886	43.293	19.136	-14.601	95.257	118.267	-15.467	-8.636	214.393	256.818	-11.413	-7.317	-4.883	2.112	94.437	-1.252	-8191	255	
#DATA ENDS
